# Columns:
#   distance along LOS (in CHIMPs)
#   peculiar velocity  (in km/s)
#   temperature (K)
#   HI number density
# pos=(59.2722,56.1881,62.729), angles=(1.51101,1.19849)
  0.00530     29.4 1.242e+04 1.809e-09
  0.02109     29.0 1.170e+04 1.271e-09
  0.03801     28.7 1.156e+04 1.211e-09
  0.04851     29.1 1.148e+04 1.178e-09
  0.05395     28.8 1.137e+04 1.079e-09
  0.07506     29.3 1.121e+04 1.031e-09
  0.09661     29.8 1.127e+04 1.077e-09
  0.11761     31.2 1.112e+04 1.017e-09
  0.15782     31.9 1.135e+04 1.131e-09
  0.19240     33.0 1.137e+04 1.171e-09
  0.21341     34.4 1.130e+04 1.145e-09
  0.24184     35.7 1.142e+04 1.200e-09
  0.28386     36.9 1.153e+04 1.156e-09
  0.30921     37.8 1.170e+04 1.147e-09
  0.31961     38.2 1.214e+04 1.442e-09
  0.33617     38.3 1.217e+04 1.477e-09
  0.35691     38.3 1.233e+04 1.623e-09
  0.36741     38.6 1.286e+04 2.087e-09
  0.37483     39.0 1.303e+04 2.325e-09
  0.38533     39.1 1.300e+04 2.244e-09
  0.39919     39.6 1.301e+04 2.197e-09
  0.41531     39.9 1.294e+04 2.070e-09
  0.42582     40.6 1.378e+04 2.876e-09
  0.44120     40.8 1.365e+04 2.529e-09
  0.46220     40.7 1.319e+04 2.068e-09
  0.47371     40.6 1.227e+04 1.544e-09
  0.48422     41.7 1.407e+04 2.403e-09
  0.50422     41.8 1.267e+04 1.522e-09
  0.52161     41.9 1.117e+04 9.041e-10
  0.53212     43.2 1.346e+04 1.388e-09
  0.54623     42.4 1.138e+04 7.152e-10
  0.56723     42.0 9.957e+03 4.069e-10
  0.58002     41.6 9.510e+03 2.888e-10
  0.59052     41.7 1.016e+04 3.263e-10
  0.60924     42.1 9.212e+03 2.149e-10
  0.62791     42.5 9.142e+03 1.968e-10
  0.63842     42.4 9.904e+03 2.332e-10
  0.65125     43.8 9.209e+03 1.852e-10
  0.67226     44.7 9.031e+03 1.742e-10
  0.68632     46.7 8.910e+03 1.674e-10
  0.69682     46.4 1.017e+04 2.275e-10
  0.70630     47.6 9.651e+03 2.027e-10
  0.71680     47.6 9.322e+03 1.801e-10
  0.73421     49.4 9.105e+03 1.742e-10
  0.74472     49.0 1.176e+04 3.421e-10
  0.75628     50.7 1.099e+04 2.875e-10
  0.77728     52.3 1.032e+04 2.567e-10
  0.79262     53.7 9.834e+03 2.421e-10
  0.80312     53.8 1.349e+04 6.960e-10
  0.81929     55.5 1.243e+04 5.137e-10
  0.84030     57.1 1.139e+04 4.181e-10
  0.85102     58.5 1.059e+04 3.706e-10
  0.86152     58.9 1.443e+04 1.260e-09
  0.88231     60.5 1.337e+04 9.079e-10
  0.89892     62.0 1.230e+04 6.988e-10
  0.90942     62.5 1.623e+04 2.940e-09
  0.92432     64.1 1.572e+04 2.159e-09
  0.94533     65.5 1.468e+04 1.518e-09
  0.95732     66.8 1.407e+04 1.319e-09
  0.96252     67.9 1.726e+04 3.837e-09
  0.97149     68.1 1.675e+04 2.846e-09
  0.98729     69.7 1.699e+04 3.131e-09
  1.00522     71.2 1.606e+04 2.282e-09
  1.01567     72.3 1.868e+04 4.224e-09
  1.02400     73.2 1.807e+04 3.297e-09
  1.03243     73.6 1.691e+04 2.731e-09
  1.03750     73.4 1.643e+04 2.555e-09
  1.03957     74.3 1.941e+04 4.871e-09
  1.04500     74.7 1.876e+04 3.850e-09
  1.05551     75.0 1.725e+04 3.096e-09
  1.06352     75.5 1.614e+04 2.431e-09
  1.06877     72.9 3.215e+04 5.147e-09
  1.07651     52.7 5.740e+04 9.113e-09
  1.08701     54.0 5.483e+04 8.493e-09
  1.09272     43.1 6.539e+04 7.151e-09
  1.09532     20.3 6.080e+04 6.357e-08
  1.10009     17.2 5.811e+04 7.234e-08
  1.10800      7.6 3.889e+04 3.255e-07
  1.11667     18.8 5.308e+04 5.816e-08
  1.12190     -4.2 2.590e+04 1.482e-06
  1.12900     -4.2 2.928e+04 9.439e-07
  1.13953      0.2 3.202e+04 5.863e-07
  1.14587      3.7 3.464e+04 3.942e-07
  1.15112    -10.4 3.214e+04 1.473e-07
  1.16053     -7.2 3.111e+04 1.324e-07
  1.16982     -5.0 2.974e+04 1.204e-07
  1.17507     -9.5 2.738e+04 4.286e-08
  1.18154     -7.9 2.771e+04 4.758e-08
  1.19204     -6.5 2.745e+04 4.828e-08
  1.19816     -5.2 2.704e+04 4.749e-08
  1.19989     -5.4 2.690e+04 4.512e-08
  1.20428     -8.7 2.263e+04 1.293e-08
  1.21305     -6.9 2.324e+04 1.303e-08
  1.22297     -5.8 2.392e+04 1.388e-08
  1.22827     -9.2 1.758e+04 6.176e-09
  1.23940     -7.0 1.760e+04 5.429e-09
  1.26041     -5.3 1.764e+04 4.713e-09
  1.27622     -3.6 1.785e+04 4.616e-09
  1.28672     -6.5 1.295e+04 1.899e-09
  1.30242     -5.2 1.262e+04 1.609e-09
  1.32342     -4.0 1.241e+04 1.395e-09
  1.33462     -2.7 1.217e+04 1.237e-09
  1.34513     -3.5 1.095e+04 7.858e-10
  1.35875     -2.1 1.074e+04 7.126e-10
  1.36925     -2.2 1.042e+04 5.887e-10
  1.38252     -1.0 1.033e+04 5.640e-10
  1.39302     -1.6 9.941e+03 4.618e-10
  1.40744     -0.2 9.905e+03 4.611e-10
  1.42845      0.9 9.926e+03 4.677e-10
  1.44092      2.4 1.001e+04 4.916e-10
  1.45143      2.6 9.808e+03 4.255e-10
  1.47046      3.4 9.939e+03 4.492e-10
  1.48882      4.7 1.003e+04 4.878e-10
  1.49933      4.7 9.795e+03 4.143e-10
  1.51247      5.7 9.898e+03 4.421e-10
  1.53348      7.0 9.951e+03 4.642e-10
  1.54722      8.1 1.007e+04 4.944e-10
  1.55773      7.7 9.886e+03 4.266e-10
  1.57549      9.4 1.007e+04 4.693e-10
  1.59512      9.9 1.017e+04 4.892e-10
  1.60572      9.4 9.938e+03 4.399e-10
  1.62819     11.7 1.012e+04 5.051e-10
  1.67020     14.1 1.031e+04 5.732e-10
  1.70152     15.8 1.053e+04 6.348e-10
  1.72253     15.4 1.037e+04 6.152e-10
  1.75423     17.9 1.060e+04 6.895e-10
  1.79624     20.4 1.089e+04 7.389e-10
  1.81833     21.4 1.100e+04 8.143e-10
  1.82873     21.1 1.075e+04 7.773e-10
  1.84855     22.1 1.078e+04 7.909e-10
  1.86613     23.3 1.081e+04 7.974e-10
  1.87663     22.9 1.053e+04 6.159e-10
  1.89057     23.9 1.060e+04 6.299e-10
  1.91157     25.0 1.067e+04 6.383e-10
  1.92453     25.9 1.076e+04 6.416e-10
  1.93503     25.3 1.056e+04 5.399e-10
  1.95358     26.5 1.064e+04 5.443e-10
  1.97243     27.3 1.071e+04 5.511e-10
  1.98293     26.9 1.059e+04 5.157e-10
  2.00079     29.1 1.064e+04 5.339e-10
  2.02189     28.5 1.073e+04 5.418e-10
  2.03102     30.8 1.077e+04 5.176e-10
  2.05203     29.7 1.082e+04 5.544e-10
  2.09031     32.0 1.109e+04 5.639e-10
  2.12682     34.6 1.139e+04 5.772e-10
  2.14783     33.0 1.165e+04 7.988e-10
  2.16373     34.9 1.154e+04 6.925e-10
  2.18464     36.1 1.158e+04 6.989e-10
  2.19553     37.3 1.167e+04 7.454e-10
  2.20603     36.6 1.186e+04 9.401e-10
  2.22665     37.9 1.206e+04 1.031e-09
  2.24343     39.0 1.239e+04 1.168e-09
  2.25393     37.8 1.293e+04 1.513e-09
  2.26866     37.3 1.381e+04 1.986e-09
  2.28967     35.9 1.549e+04 3.303e-09
  2.30183     34.2 1.758e+04 6.990e-09
  2.31233     32.4 1.824e+04 1.042e-08
  2.33168     31.3 1.963e+04 1.798e-08
  2.34262     29.8 2.043e+04 2.946e-08
  2.34782     29.8 2.001e+04 2.727e-08
  2.35488     29.9 2.030e+04 3.853e-08
  2.36014     29.9 2.005e+04 3.325e-08
  2.36834     30.0 2.028e+04 3.377e-08
  2.37883     29.9 2.031e+04 3.261e-08
  2.38934     28.9 1.957e+04 1.842e-08
  2.39985     28.2 1.920e+04 1.582e-08
  2.40808     28.6 1.899e+04 1.371e-08
  2.41864     26.9 1.746e+04 7.638e-09
  2.43670     25.3 1.621e+04 4.464e-09
  2.45603     23.0 1.478e+04 2.772e-09
  2.46653     21.2 1.355e+04 1.976e-09
  2.47871     21.1 1.318e+04 1.835e-09
  2.49972     21.6 1.308e+04 1.808e-09
  2.51443     22.4 1.311e+04 1.797e-09
  2.52494     22.1 1.278e+04 1.648e-09
  2.54173     23.4 1.286e+04 1.664e-09
  2.56233     23.8 1.292e+04 1.670e-09
  2.57293     23.1 1.261e+04 1.516e-09
  2.59444     25.4 1.281e+04 1.656e-09
  2.63645     27.4 1.284e+04 1.641e-09
  2.66383     29.3 1.267e+04 1.505e-09
  2.67521     29.8 1.288e+04 1.806e-09
  2.68983     29.8 1.224e+04 1.425e-09
  2.72047     31.9 1.210e+04 1.299e-09
  2.76248     34.1 1.178e+04 1.054e-09
  2.78563     36.3 1.137e+04 7.577e-10
  2.80664     36.4 1.141e+04 8.520e-10
  2.84650     38.4 1.128e+04 6.966e-10
  2.88143     40.2 1.110e+04 5.438e-10
  2.90244     40.4 1.166e+04 9.207e-10
  2.93052     42.1 1.151e+04 7.941e-10
  2.97253     43.8 1.120e+04 6.429e-10
  2.99823     45.5 1.083e+04 5.181e-10
  3.01924     45.6 1.153e+04 8.373e-10
  3.05655     47.3 1.095e+04 6.101e-10
  3.09403     48.9 1.057e+04 4.717e-10
  3.11504     49.0 1.109e+04 6.041e-10
  3.14058     50.6 1.054e+04 4.335e-10
  3.18259     52.4 1.029e+04 3.468e-10
  3.21084     54.3 1.013e+04 2.895e-10
  3.23184     52.4 1.120e+04 3.253e-10
  3.26661     54.3 1.105e+04 2.953e-10
  3.30578     57.0 1.094e+04 2.888e-10
  3.32480     57.0 1.158e+04 3.129e-10
  3.32754     54.1 1.397e+04 7.903e-10
  3.33993     55.5 1.397e+04 7.944e-10
  3.36094     56.8 1.408e+04 8.321e-10
  3.37534     57.6 1.439e+04 9.919e-10
  3.38584     55.8 1.546e+04 2.863e-09
  3.40295     56.5 1.557e+04 3.160e-09
  3.42324     57.1 1.577e+04 3.456e-09
  3.43374     55.9 1.615e+04 5.223e-09
  3.44496     56.2 1.618e+04 5.124e-09
  3.46596     56.2 1.617e+04 4.962e-09
  3.48164     56.1 1.607e+04 4.719e-09
  3.49215     55.2 1.588e+04 4.671e-09
  3.50797     55.4 1.558e+04 4.175e-09
  3.52898     55.7 1.521e+04 3.513e-09
  3.54004     56.1 1.479e+04 2.779e-09
  3.55055     55.1 1.374e+04 1.361e-09
  3.57099     54.9 1.313e+04 9.855e-10
  3.58794     54.4 1.256e+04 7.127e-10
  3.59845     52.3 1.159e+04 4.322e-10
  3.61300     52.0 1.129e+04 3.778e-10
  3.63401     52.0 1.109e+04 3.540e-10
  3.64635     52.2 1.103e+04 3.504e-10
  3.64939     51.9 1.099e+04 3.414e-10
  3.65806     51.4 1.104e+04 3.623e-10
  3.67602     51.8 1.104e+04 3.653e-10
  3.69424     52.2 1.106e+04 3.734e-10
  3.70475     52.0 1.102e+04 3.761e-10
  3.71803     52.4 1.109e+04 3.915e-10
  3.73903     52.7 1.120e+04 4.202e-10
  3.75265     52.8 1.134e+04 4.680e-10
  3.76315     52.9 1.125e+04 4.484e-10
  3.78104     53.1 1.139e+04 5.038e-10
  3.80055     53.3 1.155e+04 5.879e-10
  3.81105     53.4 1.144e+04 5.324e-10
  3.82305     53.7 1.157e+04 6.186e-10
  3.84406     53.9 1.172e+04 7.282e-10
  3.85895     54.1 1.188e+04 8.444e-10
  3.86945     54.2 1.175e+04 7.498e-10
  3.88607     54.3 1.190e+04 8.455e-10
  3.90685     54.4 1.201e+04 9.224e-10
  3.91735     54.4 1.195e+04 8.838e-10
  3.92808     54.4 1.207e+04 9.696e-10
  3.94908     54.4 1.216e+04 1.039e-09
  3.96525     54.5 1.218e+04 1.065e-09
  3.97419     54.5 1.221e+04 1.141e-09
  3.97903     54.8 1.189e+04 9.382e-10
  3.99110     55.1 1.191e+04 9.810e-10
  4.01210     55.4 1.192e+04 9.825e-10
  4.02365     55.7 1.194e+04 9.802e-10
  4.03415     55.9 1.197e+04 1.034e-09
  4.05411     56.3 1.199e+04 1.035e-09
  4.07155     56.5 1.206e+04 1.048e-09
  4.08205     56.8 1.206e+04 1.056e-09
  4.09612     57.1 1.214e+04 1.105e-09
  4.11713     57.5 1.229e+04 1.199e-09
  4.12995     58.0 1.248e+04 1.366e-09
  4.14045     58.5 1.220e+04 1.148e-09
  4.15914     59.1 1.234e+04 1.262e-09
  4.17785     59.9 1.241e+04 1.326e-09
  4.18835     60.3 1.206e+04 1.040e-09
  4.20115     61.0 1.206e+04 1.042e-09
  4.22215     61.7 1.200e+04 1.018e-09
  4.23625     62.5 1.188e+04 9.495e-10
  4.24675     62.9 1.157e+04 7.749e-10
  4.26416     63.8 1.146e+04 7.210e-10
  4.28415     64.6 1.137e+04 6.580e-10
  4.29465     64.9 1.117e+04 5.654e-10
  4.31678     66.9 1.094e+04 4.831e-10
  4.35888     68.9 1.065e+04 3.971e-10
  4.39065     71.1 1.033e+04 3.321e-10
  4.41165     72.1 9.991e+03 2.573e-10
  4.44290     74.4 9.823e+03 2.354e-10
  4.48492     76.9 9.810e+03 2.352e-10
  4.50745     79.6 9.812e+03 2.395e-10
  4.52845     80.5 9.606e+03 1.916e-10
  4.56894     83.0 9.627e+03 2.010e-10
  4.60325     85.5 9.661e+03 2.167e-10
  4.62397     86.4 9.503e+03 1.823e-10
  4.63167     87.0 9.728e+03 2.092e-10
  4.65296     89.5 9.725e+03 2.183e-10
  4.69497     92.1 9.759e+03 2.315e-10
  4.72005     94.7 9.845e+03 2.525e-10
  4.74106     95.0 9.795e+03 2.296e-10
  4.77899     97.5 9.951e+03 2.575e-10
  4.81585     99.9 1.018e+04 2.943e-10
  4.83685     99.9 1.015e+04 2.712e-10
  4.86301    102.0 1.037e+04 3.023e-10
  4.90502    103.9 1.053e+04 3.265e-10
  4.93265    105.6 1.062e+04 3.334e-10
  4.95366    105.5 1.053e+04 2.894e-10
  4.98904    107.3 1.056e+04 2.874e-10
  5.02845    109.0 1.056e+04 2.807e-10
  5.04946    109.1 1.042e+04 2.356e-10
  5.07306    110.9 1.038e+04 2.252e-10
  5.11507    112.7 1.032e+04 2.138e-10
  5.14525    114.6 1.033e+04 2.150e-10
  5.16626    114.7 1.027e+04 1.964e-10
  5.19910    116.5 1.037e+04 2.210e-10
  5.24105    118.4 1.053e+04 2.649e-10
  5.27356    119.4 1.069e+04 3.498e-10
  5.29462    120.0 1.072e+04 3.482e-10
  5.30986    120.3 1.081e+04 4.045e-10
  5.32026    120.2 1.083e+04 4.269e-10
  5.33543    120.5 1.101e+04 5.551e-10
  5.35644    120.9 1.127e+04 7.422e-10
  5.36816    121.3 1.157e+04 9.476e-10
  5.37867    121.3 1.158e+04 9.905e-10
  5.39845    121.6 1.184e+04 1.161e-09
  5.41606    121.6 1.192e+04 1.203e-09
  5.42656    121.5 1.185e+04 1.172e-09
  5.44046    121.4 1.184e+04 1.166e-09
  5.46147    121.2 1.176e+04 1.117e-09
  5.47446    121.1 1.157e+04 1.002e-09
  5.48497    121.1 1.146e+04 9.361e-10
  5.50348    121.0 1.121e+04 7.965e-10
  5.52236    120.7 1.095e+04 6.653e-10
  5.53287    120.8 1.092e+04 6.334e-10
  5.54549    120.5 1.072e+04 5.486e-10
  5.56649    120.4 1.053e+04 4.888e-10
  5.58076    120.5 1.039e+04 4.460e-10
  5.59127    120.6 1.050e+04 4.647e-10
  5.60489    120.7 1.042e+04 4.467e-10
  5.61540    121.5 1.053e+04 4.739e-10
  5.62866    121.8 1.047e+04 4.572e-10
  5.63917    122.0 1.074e+04 5.428e-10
  5.65051    121.8 1.095e+04 6.052e-10
  5.67152    121.8 1.109e+04 6.611e-10
  5.68716    122.3 1.134e+04 7.559e-10
  5.70827    123.1 1.207e+04 1.210e-09
  5.73463    123.5 1.234e+04 1.452e-09
  5.74547    123.8 1.272e+04 1.830e-09
  5.75597    123.9 1.299e+04 2.163e-09
  5.77655    124.5 1.349e+04 2.807e-09
  5.79337    125.2 1.392e+04 3.376e-09
  5.80387    125.3 1.398e+04 3.437e-09
  5.81856    125.9 1.417e+04 3.451e-09
  5.83956    126.3 1.422e+04 3.287e-09
  5.85177    126.4 1.421e+04 2.897e-09
  5.86227    126.1 1.380e+04 2.280e-09
  5.88157    125.6 1.363e+04 1.982e-09
  5.89967    124.7 1.330e+04 1.801e-09
  5.91017    124.1 1.277e+04 1.561e-09
  5.92358    123.5 1.268e+04 1.584e-09
  5.93637    123.2 1.262e+04 1.672e-09
  5.94687    124.7 1.314e+04 1.874e-09
  5.95807    124.7 1.309e+04 1.993e-09
  5.96857    124.4 1.285e+04 1.830e-09
  5.98660    124.6 1.314e+04 2.115e-09
  6.00597    124.9 1.349e+04 2.406e-09
  6.01647    124.5 1.339e+04 2.300e-09
  6.02861    124.6 1.380e+04 2.594e-09
  6.04961    124.3 1.421e+04 2.692e-09
  6.06437    123.5 1.436e+04 2.667e-09
  6.07487    121.9 1.451e+04 2.702e-09
  6.09163    120.1 1.457e+04 2.678e-09
  6.11227    117.9 1.463e+04 2.665e-09
  6.12277    115.6 1.463e+04 2.606e-09
  6.13364    113.0 1.467e+04 2.522e-09
  6.15464    109.8 1.486e+04 2.570e-09
  6.17067    106.3 1.570e+04 2.932e-09
  6.18117    104.4 1.471e+04 2.173e-09
  6.19665    101.5 1.575e+04 2.638e-09
  6.21766     99.1 1.675e+04 3.602e-09
  6.22907     96.6 1.757e+04 4.893e-09
  6.23957     93.8 1.585e+04 3.228e-09
  6.25734     91.9 1.680e+04 4.501e-09
  6.26784     91.0 2.088e+04 3.999e-09
  6.27537     87.9 2.073e+04 2.575e-09
  6.28212     87.0 2.227e+04 3.046e-09
  6.28738     85.9 2.548e+04 2.303e-09
  6.29633     87.5 2.300e+04 6.177e-09
  6.30607     87.0 2.132e+04 7.376e-09
  6.31132     85.7 2.233e+04 7.029e-09
  6.31733     83.5 2.289e+04 8.763e-09
  6.32784     81.1 2.474e+04 1.011e-08
  6.33527     79.3 2.678e+04 1.123e-08
  6.34053     77.1 2.992e+04 1.126e-08
  6.34884     75.3 3.255e+04 1.304e-08
  6.35922     72.7 3.567e+04 1.547e-08
  6.36448     70.8 3.742e+04 1.774e-08
  6.36985     66.9 4.038e+04 2.453e-08
  6.38035     61.6 4.272e+04 4.209e-08
  6.38842     54.8 3.946e+04 1.323e-07
  6.39368     55.3 3.659e+04 1.593e-07
  6.40136     48.6 3.144e+04 4.936e-07
  6.41186     41.7 2.757e+04 1.036e-06
  6.41763     36.1 2.595e+04 1.197e-06
  6.42288     37.8 2.646e+04 9.465e-07
  6.42823     35.2 2.696e+04 7.796e-07
  6.43348     28.8 2.399e+04 8.376e-07
  6.44072     29.3 2.519e+04 5.337e-07
  6.44415     29.5 2.590e+04 4.489e-07
  6.44680     30.5 2.595e+04 3.874e-07
  6.45387     30.0 2.844e+04 2.103e-07
  6.46437     29.1 3.111e+04 1.127e-07
  6.47078     27.5 3.321e+04 6.696e-08
  6.47603     29.6 3.227e+04 4.354e-08
  6.48538     27.6 3.183e+04 2.579e-08
  6.49473     25.5 3.000e+04 1.658e-08
  6.49998     26.9 2.697e+04 1.158e-08
  6.50638     24.7 2.366e+04 8.359e-09
  6.51689     23.0 2.130e+04 6.613e-09
  6.52393     21.8 1.978e+04 5.597e-09
  6.52918     23.5 1.845e+04 4.786e-09
  6.53789     23.0 1.758e+04 4.411e-09
  6.54788     22.7 1.706e+04 4.303e-09
  6.55313     24.5 1.661e+04 3.897e-09
  6.55890     24.6 1.648e+04 3.928e-09
  6.56940     24.8 1.644e+04 4.017e-09
  6.57708     25.1 1.638e+04 4.243e-09
  6.58233     26.7 1.615e+04 3.846e-09
  6.58872     26.8 1.624e+04 4.076e-09
  6.59397     26.2 1.588e+04 3.642e-09
  6.60091     26.2 1.588e+04 3.788e-09
  6.60628     26.1 1.602e+04 4.123e-09
  6.61153     27.0 1.583e+04 3.748e-09
  6.62191     26.6 1.601e+04 4.124e-09
  6.63023     25.9 1.656e+04 4.818e-09
  6.63548     26.7 1.614e+04 4.209e-09
  6.64292     25.6 1.674e+04 5.036e-09
  6.65342     24.1 1.755e+04 6.392e-09
  6.65943     22.6 1.835e+04 8.377e-09
  6.66468     23.4 1.738e+04 6.493e-09
  6.67442     22.0 1.806e+04 8.181e-09
  6.68338     20.5 1.873e+04 9.970e-09
  6.68863     21.0 1.754e+04 7.267e-09
  6.69543     19.2 1.817e+04 8.044e-09
  6.70593     17.6 1.856e+04 8.189e-09
  6.71258     16.0 1.883e+04 8.147e-09
  6.72313     17.5 1.741e+04 5.551e-09
  6.74279     15.8 1.735e+04 4.919e-09
  6.76057     13.3 1.681e+04 3.943e-09
  6.77108     13.9 1.582e+04 2.795e-09
  6.78480     11.7 1.502e+04 2.580e-09
  6.80581     11.4 1.430e+04 2.410e-09
  6.81898     11.7 1.388e+04 2.151e-09
  6.82948     12.2 1.380e+04 2.111e-09
  6.84782     12.3 1.357e+04 1.798e-09
  6.86688     12.0 1.346e+04 1.488e-09
  6.87738     12.5 1.344e+04 1.493e-09
  6.88983     11.3 1.352e+04 1.425e-09
  6.90979      9.4 1.370e+04 1.492e-09
  6.92029      9.8 1.402e+04 1.781e-09
  6.92528      7.9 1.431e+04 2.273e-09
  6.93578      8.8 1.403e+04 2.036e-09
  6.95284      7.9 1.407e+04 2.568e-09
  6.97318      7.5 1.397e+04 2.777e-09
  6.98368      8.4 1.373e+04 2.459e-09
  6.99485      8.4 1.359e+04 2.393e-09
  7.01586      8.6 1.322e+04 2.077e-09
  7.03158      8.5 1.277e+04 1.574e-09
  7.04208      9.4 1.269e+04 1.490e-09
  7.05787      9.0 1.225e+04 1.104e-09
  7.07887      8.3 1.181e+04 8.469e-10
  7.08998      7.8 1.137e+04 7.248e-10
  7.10048      8.9 1.139e+04 7.413e-10
  7.12089      9.1 1.129e+04 7.335e-10
  7.13788      9.5 1.129e+04 7.356e-10
  7.14838     10.4 1.139e+04 7.681e-10
  7.16290     10.7 1.143e+04 7.976e-10
  7.18390     11.0 1.153e+04 8.567e-10
  7.19628     11.2 1.165e+04 9.459e-10
  7.20678     12.0 1.170e+04 9.804e-10
  7.22591     12.3 1.179e+04 1.063e-09
  7.24126     12.7 1.189e+04 1.153e-09
  7.24902     12.8 1.157e+04 9.717e-10
  7.25468     13.6 1.142e+04 8.865e-10
  7.26792     14.1 1.142e+04 8.835e-10
  7.28893     14.6 1.145e+04 8.852e-10
  7.30258     15.0 1.150e+04 9.041e-10
  7.31308     15.7 1.118e+04 7.020e-10
  7.33094     16.0 1.120e+04 7.096e-10
  7.35048     16.4 1.128e+04 7.408e-10
  7.36098     17.0 1.091e+04 5.565e-10
  7.37295     17.3 1.100e+04 5.925e-10
  7.39395     17.7 1.117e+04 6.622e-10
  7.40888     18.1 1.141e+04 7.698e-10
  7.41938     18.7 1.098e+04 5.581e-10
  7.43596     19.1 1.125e+04 6.599e-10
  7.45678     19.4 1.158e+04 7.966e-10
  7.46728     19.9 1.115e+04 5.866e-10
  7.47798     20.0 1.148e+04 7.159e-10
  7.49898     20.0 1.188e+04 8.928e-10
  7.51518     19.8 1.233e+04 1.129e-09
  7.52569     20.5 1.188e+04 8.856e-10
  7.54099     20.3 1.237e+04 1.156e-09
  7.56200     19.7 1.302e+04 1.566e-09
  7.57273     18.1 1.434e+04 2.382e-09
  7.57382     17.5 1.434e+04 2.343e-09
  7.58409     19.4 1.318e+04 1.702e-09
  7.60401     17.3 1.498e+04 3.053e-09
  7.62148     15.2 1.660e+04 5.733e-09
  7.63199     17.9 1.537e+04 3.885e-09
  7.64602     16.7 1.662e+04 6.566e-09
  7.66702     16.2 1.736e+04 9.460e-09
  7.67989     16.1 1.745e+04 1.020e-08
  7.69039     17.8 1.690e+04 8.355e-09
  7.70903     17.7 1.683e+04 8.257e-09
  7.72778     18.1 1.638e+04 7.070e-09
  7.73829     19.4 1.618e+04 6.702e-09
  7.75104     19.8 1.554e+04 5.351e-09
  7.77205     20.0 1.460e+04 3.600e-09
  7.78619     20.2 1.357e+04 2.217e-09
  7.79669     21.6 1.380e+04 2.632e-09
  7.81406     21.8 1.285e+04 1.685e-09
  7.83418     21.1 1.138e+04 7.392e-10
  7.85529     24.2 1.217e+04 1.166e-09
  7.88340     24.4 1.069e+04 5.537e-10
  7.90440     24.7 1.095e+04 6.372e-10
  7.92978     25.5 9.887e+03 3.913e-10
  7.95108     26.9 9.603e+03 3.641e-10
  7.97209     29.4 9.891e+03 4.287e-10
  8.01381     30.9 9.842e+03 4.354e-10
  8.04688     32.6 9.907e+03 4.817e-10
  8.06789     34.8 1.008e+04 5.296e-10
  8.09783     36.3 1.027e+04 6.184e-10
  8.13984     37.9 1.053e+04 7.350e-10
  8.16369     39.3 1.078e+04 8.368e-10
  8.18469     41.2 1.078e+04 8.496e-10
  8.22386     42.5 1.103e+04 9.481e-10
  8.25948     43.6 1.126e+04 1.057e-09
  8.28049     45.4 1.105e+04 9.533e-10
  8.30788     46.3 1.136e+04 1.117e-09
  8.34989     47.2 1.172e+04 1.333e-09
  8.37629     47.9 1.190e+04 1.404e-09
  8.39729     50.0 1.146e+04 1.140e-09
  8.43391     50.7 1.155e+04 1.183e-09
  8.47208     51.4 1.140e+04 1.078e-09
  8.49309     53.9 1.080e+04 7.494e-10
  8.51793     54.6 1.066e+04 6.816e-10
  8.54635     55.2 1.030e+04 5.271e-10
  8.56735     55.9 1.052e+04 5.891e-10
  8.58889     56.3 1.003e+04 4.346e-10
  8.60989     58.7 1.003e+04 4.106e-10
  8.64396     59.1 9.788e+03 3.672e-10
  8.68469     59.7 9.544e+03 3.279e-10
  8.70569     62.1 9.794e+03 3.678e-10
  8.72799     62.8 9.597e+03 3.345e-10
  8.77000     63.6 9.342e+03 2.739e-10
  8.80149     64.4 9.037e+03 2.033e-10
  8.82249     66.6 9.257e+03 2.248e-10
  8.85402     67.4 8.930e+03 1.527e-10
  8.89603     68.2 8.875e+03 1.369e-10
  8.91829     68.8 8.925e+03 1.406e-10
  8.93930     70.7 8.894e+03 1.213e-10
  8.98005     71.1 9.004e+03 1.330e-10
  9.01409     70.9 9.395e+03 1.859e-10
  9.03510     73.3 9.509e+03 1.889e-10
  9.05347     72.4 1.013e+04 3.144e-10
  9.07230     72.2 1.035e+04 3.900e-10
  9.08280     72.3 1.032e+04 3.821e-10
  9.10598     71.4 1.122e+04 7.134e-10
  9.13089     69.9 1.231e+04 1.324e-09
  9.15190     72.4 1.227e+04 1.363e-09
  9.18829     70.8 1.280e+04 1.526e-09
  9.20929     71.3 1.295e+04 1.630e-09
  9.22669     69.1 1.305e+04 1.476e-09
  9.24760     70.1 1.307e+04 1.527e-09
  9.26343     69.2 1.288e+04 1.123e-09
  9.28443     67.8 1.241e+04 7.823e-10
  9.31604     66.4 1.160e+04 5.663e-10
  9.34350     64.3 1.052e+04 4.912e-10
  9.36450     66.9 1.035e+04 4.214e-10
  9.40016     65.9 1.026e+04 4.269e-10
  9.43929     65.8 1.041e+04 4.808e-10
  9.46030     67.4 1.019e+04 4.197e-10
  9.48418     68.0 1.055e+04 5.353e-10
  9.52619     68.7 1.067e+04 5.632e-10
  9.55610     69.7 1.059e+04 5.380e-10
  9.57710     71.5 1.081e+04 6.821e-10
  9.61021     72.9 1.068e+04 6.039e-10
  9.65190     74.5 1.032e+04 4.663e-10
  9.67290     76.3 1.059e+04 6.287e-10
  9.69423     78.1 1.024e+04 4.712e-10
  9.73624     79.9 9.851e+03 3.603e-10
  9.76870     81.9 9.600e+03 3.164e-10
  9.78970     83.5 9.855e+03 3.967e-10
  9.82026     85.6 9.811e+03 3.896e-10
  9.85124     87.7 9.823e+03 3.954e-10
  9.87224     88.0 9.938e+03 4.314e-10
  9.88550     90.0 1.010e+04 4.973e-10
  9.90651     91.4 1.038e+04 6.120e-10
  9.94629     93.5 1.065e+04 7.317e-10
  9.98130     95.6 1.096e+04 8.606e-10
 10.00231     97.0 1.120e+04 1.007e-09
 10.03031     98.7 1.129e+04 1.011e-09
 10.06172     99.4 1.127e+04 1.007e-09
 10.08263    100.0 1.119e+04 9.659e-10
 10.09791    100.8 1.103e+04 8.820e-10
 10.10841    101.6 1.099e+04 8.938e-10
 10.12464    102.5 1.069e+04 7.725e-10
 10.14565    103.5 1.037e+04 6.233e-10
 10.15631    104.3 1.010e+04 5.096e-10
 10.16681    104.9 1.009e+04 4.882e-10
 10.18252    105.5 9.889e+03 4.115e-10
 10.19302    105.4 9.792e+03 3.616e-10
 10.20421    105.8 9.685e+03 3.290e-10
 10.21481    106.8 9.711e+03 3.605e-10
 10.24037    108.3 9.592e+03 3.380e-10
 10.28238    110.2 9.634e+03 3.443e-10
 10.31071    112.0 9.755e+03 3.671e-10
 10.33171    113.6 9.651e+03 3.557e-10
 10.36640    115.2 9.739e+03 3.759e-10
 10.39781    116.8 9.752e+03 3.650e-10
 10.41681    117.5 9.829e+03 3.872e-10
 10.42731    118.3 9.811e+03 4.034e-10
 10.43972    119.2 9.978e+03 4.554e-10
 10.46073    120.0 1.023e+04 5.384e-10
 10.47521    120.8 1.056e+04 6.544e-10
 10.48571    121.3 1.071e+04 7.146e-10
 10.50274    121.6 1.115e+04 8.841e-10
 10.51399    121.8 1.165e+04 1.107e-09
 10.52386    122.0 1.110e+04 8.403e-10
 10.53361    122.1 1.125e+04 9.025e-10
 10.54475    122.0 1.171e+04 1.095e-09
 10.56575    121.8 1.213e+04 1.311e-09
 10.58151    121.2 1.253e+04 1.533e-09
 10.59202    120.7 1.259e+04 1.581e-09
 10.60776    119.3 1.290e+04 1.767e-09
 10.62877    117.1 1.325e+04 1.977e-09
 10.63991    114.0 1.371e+04 2.231e-09
 10.65042    112.8 1.379e+04 2.353e-09
 10.67078    109.1 1.402e+04 2.671e-09
 10.68781    105.8 1.402e+04 2.890e-09
 10.69832    105.5 1.404e+04 3.079e-09
 10.71279    102.9 1.392e+04 3.008e-09
 10.73380    100.7 1.358e+04 2.701e-09
 10.74622     98.7 1.307e+04 2.124e-09
 10.75672     98.5 1.288e+04 1.941e-09
 10.78641     94.9 1.172e+04 1.062e-09
 10.82852     90.4 9.837e+03 5.217e-10
 10.85271     87.6 8.768e+03 3.402e-10
 10.87372     85.9 8.690e+03 3.312e-10
 10.91254     85.2 8.478e+03 2.890e-10
 10.94851     85.1 8.281e+03 2.576e-10
 10.96951     83.3 8.241e+03 2.498e-10
 10.99656     82.6 8.080e+03 2.069e-10
 11.03857     81.2 8.102e+03 1.991e-10
 11.06522     80.1 8.106e+03 1.998e-10
 11.07562     78.6 8.088e+03 2.023e-10
 11.09089     77.2 8.551e+03 2.306e-10
 11.11189     70.6 1.146e+04 4.882e-10
 11.12352     59.1 1.585e+04 2.944e-09
 11.13402     58.3 1.600e+04 3.722e-09
 11.15390     52.5 1.841e+04 1.185e-08
 11.16644     48.6 1.991e+04 1.468e-08
 11.17345     48.0 2.002e+04 1.662e-08
 11.18192     47.8 1.965e+04 1.461e-08
 11.19591     40.9 2.042e+04 1.209e-08
 11.21692     25.6 2.425e+04 8.996e-09
 11.22982      8.2 2.320e+04 1.011e-08
 11.23502     10.8 2.510e+04 1.086e-08
 11.24308      4.7 2.389e+04 1.225e-08
 11.25358     -0.8 2.165e+04 1.630e-08
 11.25892     -3.9 2.141e+04 1.808e-08
 11.26417     -4.9 2.203e+04 2.407e-08
 11.27459     -7.6 2.162e+04 2.380e-08
 11.28287    -10.5 2.162e+04 2.105e-08
 11.28812    -10.6 2.199e+04 2.340e-08
 11.29559    -14.6 2.091e+04 1.509e-08
 11.30609    -15.8 2.121e+04 1.166e-08
 11.31207    -24.9 1.776e+04 4.938e-09
 11.31733    -25.5 1.797e+04 4.704e-09
 11.32682    -30.3 1.661e+04 3.330e-09
 11.33208    -33.2 1.560e+04 2.770e-09
 11.33607    -38.0 1.445e+04 2.255e-09
 11.34662    -40.0 1.450e+04 2.315e-09
 11.36396    -46.5 1.410e+04 2.203e-09
 11.38402    -49.8 1.399e+04 2.695e-09
 11.39452    -50.0 1.379e+04 2.592e-09
 11.40597    -51.6 1.367e+04 2.915e-09
 11.42697    -54.4 1.443e+04 3.168e-09
 11.44242    -62.6 1.829e+04 3.825e-09
 11.45292    -63.4 1.766e+04 2.641e-09
 11.46898    -75.3 2.036e+04 4.843e-09
 11.48741    -83.5 2.007e+04 9.804e-09
 11.49791    -86.9 1.961e+04 1.246e-08
 11.50082    -90.5 1.964e+04 1.456e-08
 11.51133    -89.7 1.960e+04 1.570e-08
 11.53200    -93.0 1.936e+04 1.418e-08
 11.54872    -96.8 1.791e+04 6.984e-09
 11.55923    -95.9 1.799e+04 7.706e-09
 11.57401   -101.2 1.502e+04 2.497e-09
 11.59501   -106.8 1.171e+04 8.291e-10
 11.60712   -109.6 1.027e+04 4.772e-10
 11.61763   -109.6 1.017e+04 4.694e-10
 11.63702   -110.4 9.617e+03 3.742e-10
 11.65502   -110.8 9.482e+03 3.302e-10
 11.66553   -110.7 9.467e+03 3.374e-10
 11.67904   -110.9 9.432e+03 3.147e-10
 11.70302   -110.9 9.431e+03 3.026e-10
 11.72412   -110.3 9.278e+03 2.906e-10
 11.75275   -111.0 9.104e+03 2.711e-10
 11.79476   -111.2 8.994e+03 2.566e-10
 11.81908   -111.2 8.954e+03 2.453e-10
 11.82323   -111.7 8.750e+03 2.123e-10
 11.84093   -111.3 8.641e+03 1.945e-10
 11.87878   -110.9 8.631e+03 1.910e-10
 11.91572   -110.4 8.610e+03 1.849e-10
 11.93672   -110.1 8.511e+03 1.805e-10
 11.96280   -109.4 8.486e+03 1.724e-10
 12.00481   -108.5 8.441e+03 1.578e-10
 12.03252   -107.4 8.431e+03 1.475e-10
 12.05353   -107.3 8.305e+03 1.443e-10
 12.08883   -106.2 8.313e+03 1.425e-10
 12.12832   -105.3 8.437e+03 1.458e-10
 12.14933   -105.4 8.382e+03 1.407e-10
 12.17286   -104.5 8.710e+03 1.763e-10
 12.21487   -103.4 9.071e+03 2.341e-10
 12.24512   -102.1 9.451e+03 3.063e-10
 12.26613   -102.9 9.449e+03 2.956e-10
 12.29889   -101.5 9.823e+03 3.720e-10
 12.34090    -99.8 1.016e+04 4.415e-10
 12.37231   -101.3 1.172e+04 5.390e-10
 12.39322   -104.3 1.419e+04 7.560e-10
 12.40963   -108.5 1.616e+04 1.570e-09
 12.42013   -113.2 1.558e+04 3.783e-09
 12.43523   -114.0 1.584e+04 6.164e-09
 12.45623   -114.1 1.664e+04 8.659e-09
 12.46803   -114.0 1.782e+04 1.021e-08
 12.47263   -116.6 1.720e+04 6.472e-09
 12.48183   -116.5 1.676e+04 6.221e-09
 12.49824   -118.8 1.756e+04 4.725e-09
 12.51593   -122.3 1.643e+04 2.738e-09
 12.52643   -130.7 1.181e+04 8.365e-10
 12.54025   -133.8 1.058e+04 6.080e-10
 12.56126   -135.2 1.028e+04 5.540e-10
 12.57433   -136.1 1.024e+04 5.491e-10
 12.58484   -137.2 1.005e+04 5.019e-10
 12.60327   -138.0 1.033e+04 5.850e-10
 12.62223   -138.6 1.078e+04 7.324e-10
 12.63274   -138.9 1.065e+04 7.552e-10
 12.64528   -139.2 1.119e+04 9.750e-10
 12.66628   -139.3 1.176e+04 1.263e-09
 12.68063   -139.4 1.227e+04 1.594e-09
 12.69114   -139.0 1.212e+04 1.546e-09
 12.70829   -138.8 1.250e+04 1.783e-09
 12.72853   -138.6 1.274e+04 1.914e-09
 12.73904   -138.4 1.242e+04 1.672e-09
 12.75031   -138.1 1.253e+04 1.716e-09
 12.77131   -137.8 1.259e+04 1.673e-09
 12.78693   -137.5 1.252e+04 1.577e-09
 12.79742   -137.4 1.210e+04 1.330e-09
 12.81330   -136.0 1.241e+04 1.499e-09
 12.83433   -135.7 1.235e+04 1.386e-09
 12.84534   -135.5 1.221e+04 1.261e-09
 12.85584   -135.5 1.185e+04 1.111e-09
 12.87634   -135.2 1.170e+04 1.022e-09
 12.89324   -134.9 1.155e+04 9.570e-10
 12.90374   -134.7 1.144e+04 9.194e-10
 12.91835   -134.4 1.139e+04 8.959e-10
 12.93935   -134.2 1.167e+04 9.136e-10
 12.95164   -134.0 1.182e+04 9.986e-10
 12.96214   -134.0 1.192e+04 9.740e-10
 12.98136   -133.9 1.213e+04 1.086e-09
 12.99954   -133.8 1.234e+04 1.235e-09
 13.01004   -133.9 1.234e+04 1.208e-09
 13.02337   -133.7 1.247e+04 1.387e-09
 13.04438   -133.2 1.255e+04 1.577e-09
 13.05794   -132.5 1.260e+04 1.741e-09
 13.06844   -132.4 1.242e+04 1.681e-09
 13.08639   -131.6 1.238e+04 1.784e-09
 13.10584   -130.7 1.234e+04 1.810e-09
 13.11634   -130.4 1.197e+04 1.566e-09
 13.12377   -129.4 1.179e+04 1.441e-09
 13.13428   -128.5 1.195e+04 1.477e-09
 13.14941   -127.4 1.177e+04 1.402e-09
 13.16424   -126.3 1.151e+04 1.288e-09
 13.17474   -125.9 1.123e+04 1.065e-09
 13.19142   -124.7 1.097e+04 9.335e-10
 13.21214   -123.5 1.069e+04 7.770e-10
 13.22264   -123.2 1.048e+04 6.181e-10
 13.23343   -122.2 1.021e+04 5.030e-10
 13.25443   -121.2 9.997e+03 4.165e-10
 13.27054   -120.0 9.857e+03 3.601e-10
 13.28104   -120.0 9.825e+03 3.425e-10
 13.30704   -118.2 9.885e+03 3.351e-10
 13.32914   -115.3 9.498e+03 2.355e-10
 13.35014   -114.7 9.182e+03 1.825e-10
 13.39116   -112.0 8.974e+03 1.444e-10
 13.42493   -109.7 8.899e+03 1.352e-10
 13.44594   -109.3 8.951e+03 1.365e-10
 13.47518   -107.4 9.151e+03 1.558e-10
 13.51719   -105.7 9.322e+03 1.855e-10
 13.54174   -104.1 9.551e+03 2.343e-10
 13.56274   -103.6 9.497e+03 2.688e-10
 13.60122   -102.1 9.696e+03 3.074e-10
 13.63754   -100.7 9.875e+03 3.421e-10
 13.65854   -100.3 9.684e+03 2.989e-10
 13.68524    -99.1 9.697e+03 2.931e-10
 13.72725    -97.9 9.696e+03 2.777e-10
 13.75434    -96.6 9.714e+03 2.709e-10
 13.77200    -96.0 9.487e+03 2.016e-10
 13.78692    -93.2 9.528e+03 1.992e-10
 13.81127    -92.1 9.513e+03 1.951e-10
 13.85014    -91.2 9.643e+03 1.970e-10
 13.87114    -90.4 9.574e+03 1.690e-10
 13.89529    -89.8 1.007e+04 2.049e-10
 13.93730    -89.3 1.038e+04 2.827e-10
 13.96694    -89.1 1.049e+04 3.718e-10
 13.98795    -88.5 1.094e+04 5.506e-10
 14.02132    -88.4 1.102e+04 6.544e-10
 14.06274    -89.9 1.112e+04 6.922e-10
 14.08374    -88.9 1.190e+04 1.096e-09
 14.10534    -92.4 1.205e+04 1.018e-09
 14.14735    -97.3 1.263e+04 1.041e-09
 14.17954   -102.0 1.311e+04 1.409e-09
 14.20055    -99.1 1.284e+04 1.281e-09
 14.23137   -102.7 1.283e+04 1.376e-09
 14.27339   -104.4 1.247e+04 1.168e-09
 14.29635   -105.6 1.193e+04 6.331e-10
 14.31735   -103.5 1.178e+04 6.000e-10
 14.34415   -107.1 1.031e+04 2.667e-10
 14.35455   -106.7 1.029e+04 2.654e-10
 14.36771   -107.0 1.008e+04 2.408e-10
 14.38872   -107.3 1.003e+04 2.308e-10
 14.40245   -107.4 1.027e+04 2.463e-10
 14.41295   -105.0 9.858e+03 2.384e-10
 14.42866   -105.1 1.010e+04 2.851e-10
 14.43917   -106.8 1.027e+04 2.933e-10
 14.45035   -107.3 1.084e+04 4.012e-10
 14.46085   -105.8 1.039e+04 3.664e-10
 14.47274   -106.0 1.125e+04 5.369e-10
 14.49375   -106.6 1.240e+04 8.697e-10
 14.50875   -107.1 1.332e+04 1.399e-09
 14.51925   -105.0 1.287e+04 1.111e-09
 14.53576   -105.5 1.350e+04 1.714e-09
 14.55665   -106.0 1.370e+04 2.351e-09
 14.56715   -104.0 1.350e+04 2.025e-09
 14.57777   -105.4 1.399e+04 2.711e-09
 14.59877   -109.5 1.680e+04 3.566e-09
 14.61505   -117.5 2.193e+04 5.620e-09
 14.62556   -113.2 2.021e+04 5.039e-09
 14.64078   -122.6 2.388e+04 9.174e-09
 14.66179   -132.1 2.412e+04 1.551e-08
 14.67341   -139.6 2.288e+04 1.806e-08
 14.67861   -137.8 2.334e+04 1.910e-08
 14.68795   -141.7 2.320e+04 1.964e-08
 14.69731   -145.6 2.252e+04 1.987e-08
 14.70256   -144.7 2.312e+04 2.115e-08
 14.70895   -148.2 2.216e+04 1.862e-08
 14.71945   -151.3 2.115e+04 1.561e-08
 14.72651   -154.1 2.026e+04 1.293e-08
 14.73176   -153.5 2.065e+04 1.373e-08
 14.74046   -156.5 1.980e+04 1.149e-08
 14.75046   -159.8 1.892e+04 9.540e-09
 14.75571   -159.7 1.917e+04 1.011e-08
 14.76004   -162.7 1.842e+04 8.713e-09
 14.76529   -162.7 1.852e+04 9.068e-09
 14.77197   -165.1 1.798e+04 8.114e-09
 14.77966   -167.5 1.750e+04 7.309e-09
 14.78491   -167.5 1.772e+04 8.129e-09
 14.79297   -169.8 1.737e+04 7.451e-09
 14.80348   -171.8 1.710e+04 6.716e-09
 14.80886   -173.7 1.680e+04 5.892e-09
 14.81411   -173.3 1.721e+04 6.796e-09
 14.82448   -175.3 1.683e+04 5.740e-09
 14.83281   -176.9 1.638e+04 4.872e-09
 14.83806   -176.8 1.662e+04 5.267e-09
 14.84549   -178.4 1.627e+04 4.574e-09
 14.85599   -179.5 1.606e+04 4.248e-09
 14.87179   -181.2 1.577e+04 3.853e-09
 14.88606   -184.9 1.491e+04 3.156e-09
 14.89656   -184.8 1.532e+04 3.377e-09
 14.91385   -187.9 1.427e+04 2.859e-09
 14.93395   -189.1 1.362e+04 2.560e-09
 14.94446   -189.3 1.355e+04 2.516e-09
 14.95586   -189.5 1.312e+04 2.206e-09
 14.97687   -189.6 1.275e+04 1.848e-09
 14.99236   -189.4 1.230e+04 1.478e-09
 15.00286   -189.5 1.217e+04 1.403e-09
 15.01888   -189.4 1.168e+04 1.064e-09
 15.03988   -189.1 1.117e+04 7.723e-10
 15.05076   -188.7 1.065e+04 5.492e-10
 15.06126   -188.7 1.054e+04 5.343e-10
 15.08111   -188.1 1.013e+04 4.019e-10
 15.09161   -187.3 1.019e+04 4.245e-10
 15.11350   -186.3 9.897e+03 3.346e-10
 15.14675   -185.5 9.713e+03 2.842e-10
 15.16776   -185.0 9.728e+03 3.147e-10
 15.19762   -183.2 9.532e+03 2.776e-10
 15.23963   -181.2 9.454e+03 2.668e-10
 15.26356   -179.1 9.441e+03 2.657e-10
 15.28456   -178.4 9.414e+03 2.794e-10
 15.32365   -176.4 9.463e+03 2.872e-10
 15.35935   -174.5 9.577e+03 3.081e-10
 15.38036   -173.8 9.558e+03 3.059e-10
 15.40767   -172.0 9.716e+03 3.419e-10
 15.44968   -170.2 9.825e+03 3.733e-10
 15.47616   -168.5 9.871e+03 3.884e-10
 15.49716   -167.8 9.891e+03 4.053e-10
 15.53370   -166.2 9.915e+03 4.120e-10
 15.57195   -164.7 9.903e+03 4.099e-10
 15.59296   -163.9 9.883e+03 4.044e-10
 15.61772   -162.5 9.801e+03 3.826e-10
 15.65973   -161.0 9.669e+03 3.523e-10
 15.68876   -159.5 9.501e+03 3.183e-10
 15.70976   -158.9 9.465e+03 3.117e-10
 15.73375   -157.3 9.289e+03 2.791e-10
 15.75476   -157.0 9.190e+03 2.752e-10
 15.78456   -155.3 8.923e+03 2.328e-10
 15.80556   -154.7 8.888e+03 2.321e-10
 15.82778   -152.9 8.661e+03 1.924e-10
 15.86979   -151.0 8.456e+03 1.576e-10
 15.90136   -149.1 8.285e+03 1.303e-10
 15.92236   -148.5 8.267e+03 1.288e-10
 15.95381   -146.5 8.118e+03 1.065e-10
 15.99582   -144.4 8.003e+03 8.993e-11
 16.01816   -142.3 7.921e+03 7.787e-11
 16.03917   -141.7 7.843e+03 7.113e-11
 16.07984   -139.6 7.782e+03 6.290e-11
 16.11396   -137.5 7.750e+03 5.892e-11
 16.13497   -137.0 7.713e+03 5.867e-11
 16.16386   -134.9 7.714e+03 5.816e-11
 16.20587   -132.8 7.736e+03 5.836e-11
 16.23076   -130.9 7.797e+03 6.114e-11
 16.25177   -130.5 7.784e+03 6.428e-11
 16.28989   -128.6 7.842e+03 7.012e-11
 16.32656   -126.7 7.886e+03 7.568e-11
 16.34757   -126.4 7.885e+03 8.089e-11
 16.37392   -124.5 7.912e+03 8.403e-11
 16.39670   -122.7 7.935e+03 8.546e-11
 16.41770   -122.5 8.056e+03 9.142e-11
 16.44337   -120.8 8.085e+03 9.371e-11
 16.46437   -120.5 8.092e+03 1.032e-10
 16.49995   -119.0 8.132e+03 1.039e-10
 16.53916   -117.6 8.255e+03 1.050e-10
 16.56017   -117.5 8.358e+03 1.243e-10
 16.58397   -116.4 8.493e+03 1.369e-10
 16.62598   -115.3 8.597e+03 1.600e-10
 16.65597   -114.3 8.690e+03 1.891e-10
 16.67697   -114.2 8.789e+03 2.234e-10
 16.71000   -113.1 8.785e+03 2.285e-10
 16.75177   -111.9 8.704e+03 2.237e-10
 16.77277   -111.6 8.655e+03 2.139e-10
 16.79402   -110.3 8.487e+03 1.824e-10
 16.83603   -108.8 8.341e+03 1.546e-10
 16.86857   -107.3 8.238e+03 1.339e-10
 16.88957   -107.1 8.201e+03 1.268e-10
 16.92005   -105.6 8.190e+03 1.197e-10
 16.96206   -104.1 8.194e+03 1.149e-10
 16.98537   -102.6 8.210e+03 1.126e-10
 17.00638   -102.4 8.277e+03 1.237e-10
 17.03864   -101.2 8.303e+03 1.243e-10
 17.05965   -101.8 8.421e+03 1.408e-10
 17.08117   -100.9 8.597e+03 1.637e-10
 17.10218   -101.0 8.897e+03 2.232e-10
 17.13011   -100.2 9.149e+03 2.720e-10
 17.17212    -99.3 9.425e+03 3.333e-10
 17.19797    -98.6 9.689e+03 3.951e-10
 17.21898    -99.0 9.853e+03 4.390e-10
 17.24554    -98.1 9.945e+03 4.593e-10
 17.25618    -98.0 9.996e+03 4.793e-10
 17.26668    -98.4 1.008e+04 5.104e-10
 17.28745    -98.2 1.016e+04 5.303e-10
 17.30408    -98.2 1.020e+04 5.426e-10
 17.31458    -98.5 1.022e+04 5.388e-10
 17.32946    -98.3 1.027e+04 5.548e-10
 17.35047    -98.2 1.030e+04 5.692e-10
 17.36248    -98.0 1.034e+04 5.882e-10
 17.37143    -98.2 1.033e+04 5.798e-10
 17.38042    -98.5 1.023e+04 5.225e-10
 17.39248    -98.2 1.029e+04 5.411e-10
 17.41038    -97.9 1.036e+04 5.598e-10
 17.42088    -98.1 1.025e+04 4.963e-10
 17.43449    -97.9 1.028e+04 5.061e-10
 17.45549    -97.7 1.031e+04 5.149e-10
 17.46878    -97.6 1.031e+04 5.147e-10
 17.47928    -97.7 1.024e+04 4.864e-10
 17.49750    -97.5 1.023e+04 4.887e-10
 17.51668    -97.3 1.021e+04 4.855e-10
 17.52728    -97.7 1.021e+04 4.869e-10
 17.53961    -97.2 1.008e+04 4.541e-10
 17.56052    -97.1 1.006e+04 4.481e-10
 17.57508    -96.7 1.003e+04 4.342e-10
 17.58559    -96.8 1.004e+04 4.361e-10
 17.60253    -96.6 1.003e+04 4.263e-10
 17.62298    -96.2 1.002e+04 4.111e-10
 17.64408    -96.5 1.024e+04 4.736e-10
 17.66564    -95.5 1.004e+04 4.054e-10
 17.68138    -95.2 1.006e+04 4.035e-10
 17.69189    -95.3 1.006e+04 4.068e-10
 17.70140    -94.6 1.005e+04 3.975e-10
 17.72250    -94.2 9.833e+03 3.264e-10
 17.73998    -93.1 9.839e+03 3.243e-10
 17.76099    -93.1 9.805e+03 3.214e-10
 17.80228    -91.8 9.778e+03 3.106e-10
 17.83578    -90.2 9.751e+03 3.038e-10
 17.85678    -90.2 9.659e+03 2.928e-10
 17.88630    -88.5 9.656e+03 2.920e-10
 17.92831    -86.8 9.712e+03 2.978e-10
 17.95258    -85.2 9.820e+03 3.148e-10
 17.97359    -84.9 9.731e+03 3.012e-10
 18.01233    -83.3 9.890e+03 3.268e-10
 18.04838    -81.9 1.007e+04 3.671e-10
 18.06938    -81.6 1.001e+04 3.477e-10
 18.09635    -80.3 1.020e+04 4.010e-10
 18.13836    -78.9 1.038e+04 4.633e-10
 18.16509    -77.4 1.039e+04 4.763e-10
 18.17549    -77.1 1.041e+04 4.859e-10
 18.19068    -76.6 1.055e+04 5.328e-10
 18.21168    -75.7 1.068e+04 5.891e-10
 18.22339    -75.3 1.077e+04 6.093e-10
 18.23389    -75.1 1.080e+04 6.195e-10
 18.25369    -74.4 1.087e+04 6.380e-10
 18.27129    -74.0 1.088e+04 6.389e-10
 18.28189    -74.6 1.091e+04 6.394e-10
 18.30640    -73.2 1.078e+04 5.932e-10
 18.34353    -72.1 1.062e+04 4.977e-10
 18.36454    -70.9 1.084e+04 6.081e-10
 18.37778    -69.9 1.076e+04 5.282e-10
 18.38819    -70.1 1.075e+04 5.343e-10
 18.40073    -69.8 1.070e+04 4.965e-10
 18.42174    -69.4 1.065e+04 4.511e-10
 18.43599    -69.3 1.065e+04 4.396e-10
 18.44649    -69.5 1.066e+04 4.499e-10
 18.46375    -69.5 1.067e+04 4.470e-10
 18.48389    -69.7 1.080e+04 4.797e-10
 18.49439    -69.9 1.088e+04 5.557e-10
 18.50576    -69.9 1.100e+04 6.350e-10
 18.52676    -69.8 1.110e+04 7.171e-10
 18.54229    -69.6 1.117e+04 7.904e-10
 18.55279    -69.6 1.123e+04 8.915e-10
 18.56877    -69.4 1.121e+04 9.118e-10
 18.58978    -69.0 1.116e+04 9.148e-10
 18.60069    -68.6 1.102e+04 8.712e-10
 18.61120    -68.5 1.099e+04 8.769e-10
 18.63179    -68.1 1.082e+04 7.816e-10
 18.64859    -67.7 1.062e+04 6.839e-10
 18.65910    -67.5 1.053e+04 6.631e-10
 18.67380    -66.7 1.029e+04 5.541e-10
 18.68532    -66.0 1.007e+04 4.551e-10
 18.69582    -65.9 1.002e+04 4.316e-10
 18.70709    -65.4 9.870e+03 3.684e-10
 18.72819    -65.0 9.756e+03 3.488e-10
 18.76852    -63.6 9.440e+03 2.634e-10
 18.80299    -61.7 9.143e+03 1.981e-10
 18.82399    -61.1 9.133e+03 2.167e-10
 18.85254    -59.2 9.013e+03 1.837e-10
 18.89455    -57.2 8.938e+03 1.588e-10
 18.91979    -55.2 8.876e+03 1.385e-10
 18.94080    -54.5 8.863e+03 1.480e-10
 18.97857    -52.4 8.825e+03 1.280e-10
 19.00648    -50.3 8.831e+03 1.163e-10
 19.02249    -50.4 8.767e+03 1.061e-10
 19.03659    -49.8 8.783e+03 1.196e-10
 19.06259    -47.7 8.794e+03 1.129e-10
 19.10460    -45.6 8.795e+03 1.117e-10
 19.13239    -43.7 8.911e+03 1.112e-10
 19.15340    -43.2 9.121e+03 1.504e-10
 19.18863    -41.5 9.392e+03 1.823e-10
 19.22819    -40.0 9.730e+03 2.499e-10
 19.24920    -39.6 1.012e+04 3.564e-10
 19.26205    -38.7 1.024e+04 3.787e-10
 19.28295    -38.6 1.054e+04 4.585e-10
 19.29690    -38.4 1.110e+04 6.311e-10
 19.30740    -38.2 1.135e+04 7.351e-10
 19.32496    -38.6 1.208e+04 1.015e-09
 19.33776    -39.0 1.277e+04 1.404e-09
 19.34709    -40.0 1.361e+04 2.323e-09
 19.35530    -40.5 1.444e+04 3.609e-09
 19.36698    -40.8 1.490e+04 4.644e-09
 19.38798    -41.2 1.499e+04 4.939e-09
 19.40320    -41.5 1.475e+04 4.662e-09
 19.41370    -41.9 1.589e+04 7.126e-09
 19.42999    -42.0 1.505e+04 4.611e-09
 19.45100    -43.2 1.388e+04 2.532e-09
 19.46160    -45.3 1.243e+04 1.381e-09
 19.47210    -45.6 1.281e+04 1.793e-09
 19.49301    -47.4 1.128e+04 1.085e-09
 19.50950    -47.9 1.060e+04 8.238e-10
 19.52000    -48.1 1.073e+04 9.083e-10
 19.53502    -48.2 1.030e+04 7.111e-10
 19.55602    -47.6 9.905e+03 5.563e-10
 19.56790    -47.0 9.648e+03 4.482e-10
 19.57841    -47.1 9.617e+03 4.234e-10
 19.60863    -47.1 9.446e+03 3.476e-10
 19.64842    -46.6 9.289e+03 2.912e-10
 19.66943    -45.8 9.058e+03 2.616e-10
 19.67440    -44.9 8.882e+03 2.134e-10
 19.69540    -44.9 8.568e+03 1.726e-10
 19.73476    -44.5 8.567e+03 1.693e-10
 19.77020    -44.6 8.950e+03 2.240e-10
 19.79120    -44.8 9.016e+03 2.429e-10
 19.80818    -45.1 9.406e+03 3.593e-10
 19.82840    -45.5 9.639e+03 4.345e-10
 19.83891    -45.9 9.823e+03 5.273e-10
 19.85010    -46.2 1.028e+04 7.849e-10
 19.87110    -46.0 1.071e+04 1.030e-09
 19.88680    -45.9 1.102e+04 1.210e-09
 19.89731    -46.2 1.116e+04 1.297e-09
 19.91311    -46.3 1.121e+04 1.325e-09
 19.93412    -46.4 1.111e+04 1.269e-09
 19.94521    -46.6 1.090e+04 1.110e-09
 19.95571    -46.9 1.076e+04 1.024e-09
 19.97613    -47.5 1.053e+04 8.607e-10
 19.99021    -48.1 1.031e+04 7.393e-10
 19.99668    -47.8 1.040e+04 7.742e-10
 20.00361    -48.4 1.029e+04 7.242e-10
 20.01814    -49.0 1.019e+04 6.793e-10
 20.03914    -49.4 1.017e+04 6.676e-10
 20.05151    -49.7 1.018e+04 6.675e-10
 20.06201    -50.2 1.018e+04 6.650e-10
 20.08116    -50.4 1.023e+04 6.837e-10
 20.09941    -50.5 1.024e+04 6.928e-10
 20.10991    -51.0 1.021e+04 6.823e-10
 20.12317    -51.0 1.020e+04 6.828e-10
 20.14417    -50.9 1.011e+04 6.641e-10
 20.15781    -50.7 9.975e+03 6.182e-10
 20.16831    -50.9 9.916e+03 6.007e-10
 20.19530    -50.4 9.780e+03 5.467e-10
 20.21641    -50.7 9.713e+03 5.355e-10
 20.23889    -49.4 9.458e+03 4.636e-10
 20.28090    -48.0 9.218e+03 3.987e-10
 20.31137    -46.4 9.043e+03 3.518e-10
 20.32167    -46.4 9.224e+03 3.962e-10
 20.33321    -46.2 9.176e+03 3.859e-10
 20.36492    -44.4 8.944e+03 3.220e-10
 20.40693    -42.4 8.742e+03 2.745e-10
 20.42901    -40.5 8.595e+03 2.424e-10
 20.45001    -40.1 8.362e+03 1.889e-10
 20.49095    -38.1 8.299e+03 1.745e-10
 20.52480    -36.1 8.284e+03 1.715e-10
 20.54581    -35.7 8.046e+03 1.167e-10
 20.57498    -33.7 8.085e+03 1.197e-10
 20.61699    -31.8 8.146e+03 1.292e-10
 20.64161    -29.8 8.198e+03 1.389e-10
 20.66261    -29.5 8.008e+03 1.036e-10
 20.70101    -27.4 8.062e+03 1.165e-10
 20.73741    -25.3 8.116e+03 1.239e-10
 20.75841    -24.7 7.976e+03 1.056e-10
 20.78503    -22.5 8.036e+03 1.100e-10
 20.82704    -20.4 8.091e+03 1.123e-10
 20.85421    -18.4 8.155e+03 1.149e-10
 20.87521    -17.6 8.032e+03 9.779e-11
 20.91106    -15.6 8.119e+03 1.001e-10
 20.95001    -13.6 8.234e+03 1.063e-10
 20.97101    -13.0 8.137e+03 8.885e-11
 20.97432    -11.1 8.216e+03 1.033e-10
 20.99533    -10.8 8.202e+03 9.654e-11
 21.03709     -8.8 8.291e+03 1.155e-10
 21.06681     -6.7 8.408e+03 1.366e-10
 21.08782     -6.0 8.415e+03 1.390e-10
 21.12111     -3.9 8.543e+03 1.592e-10
 21.16261     -1.7 8.592e+03 1.653e-10
 21.18361     -1.2 8.826e+03 2.194e-10
 21.20513      0.9 8.904e+03 2.268e-10
 21.24714      2.9 8.956e+03 1.997e-10
 21.27941      4.7 9.072e+03 1.633e-10
 21.30042      4.6 9.660e+03 3.106e-10
 21.33117      5.9 9.654e+03 2.623e-10
 21.37318      7.2 9.581e+03 2.366e-10
 21.39622      8.4 9.630e+03 2.753e-10
 21.41722      7.9 1.006e+04 3.617e-10
 21.44402      9.7 1.013e+04 3.682e-10
 21.45442      9.3 1.032e+04 3.917e-10
 21.46751      9.5 1.029e+04 3.917e-10
 21.48851     10.7 1.065e+04 4.587e-10
 21.50232     10.8 1.067e+04 4.886e-10
 21.51282     10.0 1.093e+04 5.607e-10
 21.53052     11.0 1.136e+04 7.305e-10
 21.55022     11.2 1.150e+04 8.317e-10
 21.56072     10.6 1.185e+04 1.039e-09
 21.57253     11.4 1.238e+04 1.400e-09
 21.59354     11.2 1.280e+04 1.720e-09
 21.60862     11.3 1.341e+04 2.340e-09
 21.61912      9.8 1.429e+04 2.988e-09
 21.62657      9.5 1.480e+04 3.790e-09
 21.63707      9.4 1.536e+04 4.169e-09
 21.65652      9.3 1.547e+04 5.025e-09
 21.67753      8.8 1.595e+04 6.628e-09
 21.69856      9.1 1.563e+04 4.798e-09
 21.71492      7.7 1.494e+04 3.285e-09
 21.72543      5.8 1.492e+04 2.992e-09
 21.74057      3.2 1.318e+04 1.927e-09
 21.76158      2.1 1.238e+04 1.562e-09
 21.77332      2.2 1.212e+04 1.381e-09
 21.78383      0.7 1.238e+04 1.462e-09
 21.80359      0.9 1.226e+04 1.374e-09
 21.82122      0.9 1.224e+04 1.294e-09
 21.83173     -0.8 1.265e+04 1.474e-09
 21.84560     -0.9 1.283e+04 1.526e-09
 21.86661     -1.4 1.305e+04 1.560e-09
 21.87963     -2.0 1.327e+04 1.691e-09
 21.89013     -3.7 1.308e+04 1.866e-09
 21.90862     -4.7 1.327e+04 2.347e-09
 21.92752     -5.1 1.362e+04 2.772e-09
 21.93803     -5.0 1.301e+04 2.342e-09
 21.94754     -5.0 1.312e+04 2.514e-09
 21.95805     -5.3 1.270e+04 1.865e-09
 21.97163     -4.9 1.275e+04 1.854e-09
 21.98593     -4.3 1.282e+04 1.536e-09
 21.99643     -5.0 1.203e+04 9.969e-10
 22.01364     -4.8 1.199e+04 9.007e-10
 22.03383     -6.0 1.141e+04 5.758e-10
 22.05493     -6.6 1.019e+04 3.412e-10
 22.07676     -8.2 9.500e+03 2.395e-10
 22.09223     -8.2 9.514e+03 2.463e-10
 22.10273     -8.2 9.383e+03 2.314e-10
 22.12927     -7.1 9.674e+03 3.072e-10
 22.15082     -5.9 9.589e+03 3.290e-10
 22.17183     -6.2 9.483e+03 3.468e-10
 22.21339     -4.8 9.538e+03 3.819e-10
 22.24662     -3.7 9.346e+03 3.348e-10
 22.26763     -3.3 9.852e+03 5.533e-10
 22.27921     -2.4 9.597e+03 3.690e-10
 22.30022     -3.1 9.635e+03 3.786e-10
 22.33942     -3.7 9.338e+03 2.598e-10
 22.36343     -4.1 9.250e+03 2.399e-10
 22.38443     -4.7 9.793e+03 4.374e-10
 22.42344     -3.7 9.708e+03 4.633e-10
 22.45922     -2.0 9.561e+03 3.928e-10
 22.48023     -2.0 9.656e+03 3.891e-10
 22.50746     -1.0 9.433e+03 2.392e-10
 22.54947     -0.5 9.339e+03 1.502e-10
 22.57603     -0.3 9.213e+03 1.181e-10
 22.59703     -1.1 9.053e+03 1.072e-10
 22.63349      0.3 8.994e+03 1.089e-10
 22.67182      1.8 9.061e+03 1.181e-10
 22.69283      1.6 9.089e+03 1.144e-10
 22.71752      2.4 9.260e+03 1.288e-10
 22.75953      2.7 9.433e+03 1.723e-10
 22.78863      3.8 9.552e+03 2.519e-10
 22.80963      3.9 9.536e+03 2.325e-10
 22.84355      5.3 9.682e+03 2.906e-10
 22.88443      6.4 9.676e+03 2.766e-10
 22.90543      6.4 9.627e+03 2.912e-10
 22.92116      8.4 9.525e+03 2.120e-10
 22.94216      7.6 9.568e+03 1.895e-10
 22.96958      8.3 9.604e+03 1.156e-10
 23.00123      8.9 9.359e+03 9.190e-11
 23.02223      9.4 9.358e+03 9.239e-11
 23.05360     10.6 9.170e+03 8.268e-11
 23.09561     12.3 9.139e+03 7.854e-11
 23.11803     14.0 9.163e+03 7.560e-11
 23.13904     14.2 9.177e+03 7.677e-11
 23.17963     15.9 9.188e+03 7.414e-11
 23.21383     17.6 9.205e+03 7.038e-11
 23.23484     17.7 9.217e+03 7.930e-11
 23.26365     19.4 9.242e+03 7.406e-11
 23.30566     21.0 9.262e+03 6.825e-11
 23.33063     22.6 9.310e+03 6.212e-11
 23.35164     22.7 9.335e+03 8.099e-11
 23.38969     24.2 9.440e+03 7.496e-11
 23.42643     25.5 9.526e+03 7.643e-11
 23.44744     25.4 9.579e+03 1.090e-10
 23.47371     26.2 9.761e+03 1.224e-10
 23.51572     27.0 9.959e+03 1.668e-10
 23.54324     28.1 1.013e+04 2.358e-10
 23.56424     28.3 1.014e+04 2.359e-10
 23.58410     29.2 1.027e+04 2.355e-10
 23.60511     28.6 1.020e+04 2.122e-10
 23.63903     28.9 1.028e+04 1.830e-10
 23.66004     28.3 1.017e+04 1.790e-10
 23.68376     27.7 1.026e+04 1.860e-10
 23.72577     27.2 1.037e+04 2.226e-10
 23.75584     27.2 1.042e+04 2.462e-10
 23.77684     27.2 1.040e+04 2.802e-10
 23.80979     27.6 1.037e+04 2.180e-10
 23.85164     26.9 1.046e+04 1.549e-10
 23.89365     25.4 1.036e+04 1.108e-10
 23.93582     25.0 1.039e+04 1.234e-10
 23.96844     25.0 1.033e+04 1.609e-10
 23.98944     24.9 1.025e+04 1.617e-10
 24.01984     25.8 1.024e+04 2.168e-10
 24.06186     26.9 1.022e+04 2.274e-10
 24.08524     28.2 1.013e+04 2.104e-10
 24.10625     28.5 1.011e+04 2.002e-10
 24.14588     29.5 1.003e+04 1.414e-10
 24.18104     30.0 9.986e+03 1.012e-10
 24.20205     29.7 1.002e+04 9.033e-11
 24.22605     30.1 9.780e+03 7.992e-11
 24.24705     28.9 9.750e+03 8.658e-11
 24.27191     29.8 9.713e+03 8.726e-11
 24.29784     30.3 9.776e+03 9.586e-11
 24.31885     29.9 9.746e+03 1.134e-10
 24.35593     30.4 9.793e+03 1.498e-10
 24.39364     31.1 9.886e+03 1.965e-10
 24.41465     31.2 9.810e+03 1.815e-10
 24.43995     31.9 9.706e+03 1.808e-10
 24.48196     32.7 9.570e+03 1.508e-10
 24.51045     33.5 9.425e+03 1.058e-10
 24.53145     33.5 9.324e+03 8.132e-11
 24.56598     33.9 9.296e+03 5.516e-11
 24.60624     34.1 9.238e+03 4.661e-11
 24.62725     34.4 9.220e+03 4.792e-11
 24.65000     34.7 9.272e+03 5.115e-11
 24.69201     34.5 9.419e+03 7.039e-11
 24.72305     34.4 9.587e+03 1.231e-10
 24.74405     34.4 9.750e+03 1.520e-10
 24.77604     34.4 1.002e+04 2.495e-10
 24.81805     34.5 1.026e+04 3.076e-10
 24.83985     34.1 1.029e+04 3.074e-10
 24.86086     33.7 1.040e+04 3.214e-10
 24.88900     33.3 1.018e+04 2.624e-10
 24.91000     33.6 1.021e+04 2.482e-10
 24.93565     33.3 9.929e+03 1.942e-10
 24.95665     32.8 9.862e+03 1.733e-10
 24.98609     32.5 9.673e+03 1.263e-10
 25.02810     32.4 9.591e+03 1.200e-10
 25.05245     32.3 9.614e+03 1.315e-10
 25.07346     32.1 9.704e+03 1.507e-10
 25.11212     32.6 9.780e+03 2.093e-10
 25.14825     33.4 9.811e+03 2.441e-10
 25.16926     33.7 9.859e+03 2.596e-10
 25.19614     34.8 9.786e+03 2.428e-10
 25.23815     35.8 9.637e+03 1.862e-10
 25.26505     36.3 9.561e+03 1.261e-10
 25.28606     36.5 9.604e+03 1.261e-10
 25.32217     36.6 9.552e+03 1.074e-10
 25.36085     36.7 9.598e+03 1.126e-10
 25.38186     36.6 9.809e+03 1.301e-10
 25.40619     36.2 1.004e+04 1.810e-10
 25.44820     35.9 1.033e+04 3.026e-10
 25.47765     35.9 1.071e+04 4.942e-10
 25.49866     35.7 1.100e+04 5.593e-10
 25.53094     35.7 1.120e+04 6.542e-10
 25.55194     35.6 1.109e+04 5.729e-10
 25.57345     35.5 1.099e+04 5.053e-10
 25.59446     35.1 1.097e+04 4.339e-10
 25.61625     35.4 1.069e+04 3.182e-10
 25.65826     35.7 1.042e+04 2.104e-10
 25.69026     35.9 1.017e+04 1.455e-10
 25.71126     36.1 1.012e+04 1.628e-10
 25.74228     36.9 9.917e+03 1.586e-10
 25.78429     38.2 9.887e+03 1.665e-10
 25.80706     39.6 9.878e+03 1.887e-10
 25.82806     40.3 1.007e+04 2.115e-10
 25.86831     41.8 1.012e+04 2.341e-10
 25.90286     43.5 1.018e+04 2.473e-10
 25.92386     43.9 1.022e+04 2.435e-10
 25.95233     45.5 1.024e+04 2.472e-10
 25.99434     47.0 1.027e+04 2.480e-10
 26.01966     48.5 1.030e+04 2.514e-10
 26.04067     48.8 1.034e+04 2.442e-10
 26.07836     50.3 1.038e+04 2.600e-10
 26.11546     51.8 1.043e+04 2.898e-10
 26.13646     52.0 1.055e+04 2.825e-10
 26.16239     53.4 1.069e+04 3.429e-10
 26.19389     54.8 1.082e+04 4.353e-10
 26.21489     54.8 1.081e+04 4.257e-10
 26.23226     56.2 1.099e+04 5.196e-10
 26.25327     56.1 1.132e+04 5.795e-10
 26.28842     57.2 1.160e+04 7.086e-10
 26.32806     57.9 1.187e+04 8.278e-10
 26.34907     57.1 1.238e+04 1.010e-09
 26.37244     57.2 1.269e+04 1.211e-09
 26.41445     57.0 1.280e+04 1.290e-09
 26.44486     56.4 1.288e+04 1.311e-09
 26.46587     54.0 1.280e+04 9.520e-10
 26.49847     52.3 1.287e+04 7.181e-10
 26.54048     49.8 1.263e+04 5.362e-10
 26.58249     45.6 1.112e+04 4.316e-10
 26.62450     45.3 1.102e+04 4.024e-10
 26.65747     45.6 1.087e+04 3.891e-10
 26.67847     45.4 1.099e+04 5.279e-10
 26.70852     46.4 1.092e+04 5.185e-10
 26.75053     47.4 1.085e+04 4.840e-10
 26.77427     48.3 1.078e+04 4.368e-10
 26.79527     48.6 1.053e+04 3.871e-10
 26.83455     49.4 1.048e+04 3.547e-10
 26.85684     50.1 1.048e+04 3.354e-10
 26.87134     49.5 1.047e+04 3.073e-10
 26.89107     49.0 1.042e+04 2.640e-10
 26.91858     49.6 1.041e+04 2.754e-10
 26.96059     50.1 1.037e+04 2.739e-10
 26.98687     50.7 1.030e+04 2.588e-10
 27.00788     50.1 1.036e+04 2.807e-10
 27.04461     50.7 1.027e+04 2.478e-10
 27.08267     51.2 1.021e+04 2.091e-10
 27.10367     48.8 1.104e+04 2.962e-10
 27.12863     45.3 1.250e+04 3.585e-10
 27.15148     42.6 1.347e+04 2.913e-10
 27.16188     38.4 1.544e+04 6.158e-10
 27.17761     31.9 1.715e+04 2.360e-09
 27.18811     30.9 1.809e+04 7.178e-09
 27.19928     30.8 1.818e+04 1.359e-08
 27.20978     30.6 1.836e+04 1.641e-08
 27.22296     31.3 1.783e+04 1.345e-08
 27.24396     31.6 1.660e+04 6.866e-09
 27.25768     29.0 1.591e+04 2.092e-09
 27.26818     25.0 1.526e+04 1.165e-09
 27.28597     14.7 1.127e+04 2.977e-10
 27.30558     10.2 9.207e+03 2.254e-10
 27.31608      9.7 9.184e+03 2.303e-10
 27.33858     10.4 9.056e+03 2.147e-10
 27.38069     10.5 9.080e+03 2.322e-10
 27.41207      9.8 9.548e+03 3.036e-10
 27.43308      8.5 9.910e+03 3.848e-10
 27.46471      6.7 1.089e+04 6.772e-10
 27.49612      5.1 1.161e+04 1.255e-09
 27.50909      5.2 1.175e+04 1.398e-09
 27.51959      5.0 1.181e+04 1.436e-09
 27.52868      5.3 1.169e+04 1.309e-09
 27.53918      4.7 1.165e+04 1.270e-09
 27.55904      4.3 1.129e+04 1.010e-09
 27.57658      3.8 1.077e+04 7.499e-10
 27.58708      3.2 1.054e+04 7.091e-10
 27.60105      2.4 1.016e+04 5.532e-10
 27.62206      1.8 9.850e+03 4.284e-10
 27.63498      1.3 9.828e+03 3.917e-10
 27.64548      1.0 9.897e+03 4.302e-10
 27.66407      1.0 9.854e+03 4.139e-10
 27.68288      1.0 9.877e+03 4.096e-10
 27.69338      1.0 9.815e+03 4.404e-10
 27.70608     -0.1 1.024e+04 5.074e-10
 27.72708     -0.8 1.061e+04 5.762e-10
 27.74128     -4.7 1.245e+04 9.989e-10
 27.75179     -7.3 1.340e+04 1.841e-09
 27.76910     -6.5 1.348e+04 2.918e-09
 27.78918     -5.3 1.347e+04 2.894e-09
 27.79968     -5.5 1.428e+04 4.926e-09
 27.81111     -5.4 1.457e+04 3.899e-09
 27.83006     -7.3 1.527e+04 2.420e-09
 27.84056     -6.9 1.472e+04 1.828e-09
 27.84758    -12.0 1.398e+04 1.049e-09
 27.85809    -17.7 1.616e+04 2.384e-09
 27.87412    -22.4 1.548e+04 2.195e-09
 27.89513    -24.8 1.482e+04 2.552e-09
 27.90599    -25.8 1.420e+04 2.859e-09
 27.91649    -26.9 1.489e+04 4.832e-09
 27.93714    -27.0 1.466e+04 4.367e-09
 27.95388    -26.8 1.444e+04 3.581e-09
 27.96439    -28.4 1.495e+04 3.616e-09
 27.97915    -29.0 1.470e+04 2.695e-09
 28.00015    -29.7 1.407e+04 1.881e-09
 28.01229    -30.3 1.333e+04 1.353e-09
 28.02279    -34.6 1.194e+04 8.174e-10
 28.04216    -34.5 1.140e+04 7.355e-10
 28.06019    -34.2 1.141e+04 6.980e-10
 28.07069    -36.8 1.108e+04 6.144e-10
 28.08417    -36.5 1.107e+04 6.841e-10
 28.10518    -35.9 1.126e+04 7.606e-10
 28.11859    -35.5 1.134e+04 9.119e-10
 28.12909    -37.3 1.117e+04 8.575e-10
 28.14719    -36.4 1.134e+04 9.391e-10
 28.16153    -35.8 1.136e+04 1.070e-09
 28.17032    -35.5 1.136e+04 1.074e-09
 28.17699    -37.0 1.099e+04 8.414e-10
 28.18920    -36.0 1.107e+04 8.581e-10
 28.21021    -35.8 1.111e+04 8.916e-10
 28.22489    -35.6 1.117e+04 9.053e-10
 28.23539    -36.9 1.058e+04 6.433e-10
 28.25222    -36.6 1.075e+04 6.708e-10
 28.27279    -36.5 1.080e+04 6.813e-10
 28.28339    -37.5 1.035e+04 5.266e-10
 28.30493    -37.0 1.047e+04 5.973e-10
 28.33129    -36.2 1.061e+04 6.733e-10
 28.34169    -36.6 1.048e+04 6.407e-10
 28.35724    -36.6 1.049e+04 6.428e-10
 28.37825    -36.0 1.069e+04 6.641e-10
 28.38959    -35.9 1.071e+04 6.657e-10
 28.40009    -36.3 1.073e+04 6.732e-10
 28.42026    -35.5 1.068e+04 6.721e-10
 28.43749    -35.2 1.066e+04 6.686e-10
 28.44799    -35.8 1.072e+04 7.154e-10
 28.46227    -33.9 1.051e+04 6.120e-10
 28.48250    -33.7 1.053e+04 6.111e-10
 28.49301    -33.9 1.068e+04 6.773e-10
 28.49589    -32.3 1.058e+04 5.671e-10
 28.50639    -32.5 1.058e+04 5.593e-10
 28.52529    -32.4 1.066e+04 5.316e-10
 28.54379    -31.5 1.041e+04 4.853e-10
 28.55429    -31.8 1.028e+04 4.641e-10
 28.56730    -30.9 1.040e+04 4.862e-10
 28.58830    -29.8 1.050e+04 5.348e-10
 28.60219    -28.6 1.065e+04 6.090e-10
 28.61269    -29.2 1.065e+04 6.000e-10
 28.63031    -27.6 1.070e+04 6.892e-10
 28.65009    -25.9 1.103e+04 8.508e-10
 28.66059    -26.2 1.080e+04 8.187e-10
 28.67232    -25.0 1.137e+04 1.063e-09
 28.69333    -23.9 1.217e+04 1.463e-09
 28.70849    -24.2 1.349e+04 2.175e-09
 28.71899    -24.7 1.278e+04 1.673e-09
 28.73534    -27.5 1.591e+04 4.492e-09
 28.75104    -28.7 1.687e+04 7.041e-09
 28.76150    -28.5 1.737e+04 8.576e-09
 28.77200    -27.7 1.652e+04 7.517e-09
 28.78250    -26.7 1.637e+04 8.374e-09
 28.79075    -25.8 1.652e+04 8.944e-09
 28.79600    -26.6 1.549e+04 5.796e-09
 28.80351    -26.8 1.569e+04 5.993e-09
 28.81388    -28.8 1.694e+04 6.782e-09
 28.81913    -29.1 1.816e+04 8.284e-09
 28.81995    -32.8 2.150e+04 9.747e-09
 28.82520    -34.0 2.008e+04 7.390e-09
 28.83502    -38.1 2.211e+04 9.881e-09
 28.84390    -41.0 2.209e+04 1.178e-08
 28.84915    -41.3 2.103e+04 1.056e-08
 28.85602    -43.3 1.922e+04 1.557e-08
 28.86652    -44.4 1.915e+04 1.736e-08
 28.87310    -44.3 1.934e+04 1.995e-08
 28.88365    -43.9 1.948e+04 2.040e-08
 28.90338    -45.3 1.964e+04 1.586e-08
 28.92109    -46.8 1.798e+04 9.515e-09
 28.93160    -46.5 1.749e+04 7.444e-09
 28.94539    -49.4 1.545e+04 4.267e-09
 28.96640    -50.5 1.436e+04 3.014e-09
 28.97950    -50.3 1.391e+04 2.411e-09
 28.99000    -50.4 1.346e+04 2.086e-09
 29.00841    -49.5 1.328e+04 1.813e-09
 29.02739    -48.5 1.296e+04 1.469e-09
 29.03790    -48.4 1.248e+04 1.358e-09
 29.05042    -47.0 1.225e+04 1.243e-09
 29.07142    -45.6 1.210e+04 1.098e-09
 29.08580    -44.0 1.188e+04 9.438e-10
 29.09630    -43.5 1.183e+04 1.016e-09
 29.11343    -41.8 1.190e+04 9.339e-10
 29.13370    -40.1 1.201e+04 8.182e-10
 29.14420    -39.5 1.200e+04 1.050e-09
 29.14545    -37.7 1.219e+04 9.380e-10
 29.15595    -37.9 1.195e+04 7.436e-10
 29.17645    -36.5 1.220e+04 5.950e-10
 29.19210    -35.6 1.195e+04 4.397e-10
 29.20260    -34.2 1.223e+04 7.461e-10
 29.22906    -31.9 1.185e+04 5.513e-10
 29.25069    -28.4 1.179e+04 5.144e-10
 29.26110    -26.7 1.259e+04 7.687e-10
 29.28148    -26.2 1.261e+04 7.619e-10
 29.29840    -23.5 1.240e+04 6.923e-10
 29.30890    -21.7 1.288e+04 9.226e-10
 29.32349    -22.0 1.438e+04 1.322e-09
 29.34449    -28.1 2.174e+04 2.483e-09
 29.35680    -32.8 2.364e+04 7.360e-09
 29.36200    -33.4 2.720e+04 7.843e-09
 29.37065    -33.9 2.578e+04 1.399e-08
 29.38065    -33.3 2.542e+04 2.110e-08
 29.38590    -33.0 2.557e+04 3.633e-08
 29.39166    -31.0 2.514e+04 4.949e-08
 29.40216    -30.1 2.587e+04 4.327e-08
 29.40985    -30.2 2.639e+04 2.752e-08
 29.41510    -26.6 2.807e+04 4.386e-08
 29.42317    -29.3 3.194e+04 1.734e-08
 29.43367    -34.9 3.213e+04 8.182e-09
 29.43905    -45.4 2.516e+04 3.179e-09
 29.44430    -36.4 4.156e+04 4.062e-09
 29.45467    -50.5 2.398e+04 2.073e-09
 29.46300    -57.8 1.474e+04 1.786e-09
 29.46825    -55.5 1.735e+04 1.555e-09
 29.47158    -59.0 1.443e+04 1.589e-09
 29.47683    -58.6 1.422e+04 1.245e-09
 29.48618    -61.6 1.372e+04 1.509e-09
 29.49220    -64.7 1.616e+04 1.690e-09
 29.49745    -64.5 1.614e+04 1.591e-09
 29.51095    -76.2 2.424e+04 2.766e-09
 29.52145    -91.4 4.229e+04 3.541e-09
 29.52819   -110.6 4.346e+04 2.479e-08
 29.53869   -126.1 3.478e+04 1.298e-07
 29.54535   -138.7 3.064e+04 2.462e-07
 29.55060   -145.4 2.891e+04 3.060e-07
 29.55970   -156.9 2.838e+04 1.838e-07
 29.56930   -168.1 2.753e+04 5.489e-08
 29.57455   -175.7 2.551e+04 2.475e-08
 29.58070   -182.0 1.972e+04 1.391e-08
 29.59121   -183.4 1.876e+04 1.223e-08
 29.59850   -183.1 1.860e+04 1.189e-08
 29.60376   -184.8 1.790e+04 8.487e-09
 29.61221   -184.0 1.786e+04 8.428e-09
 29.62245   -183.2 1.785e+04 8.473e-09
 29.62770   -184.8 1.715e+04 5.816e-09
 29.63206   -183.9 1.710e+04 6.094e-09
 29.63731   -183.6 1.710e+04 5.981e-09
 29.64372   -182.6 1.709e+04 6.289e-09
 29.65165   -181.7 1.708e+04 6.593e-09
 29.65691   -182.4 1.646e+04 4.806e-09
 29.66473   -181.7 1.662e+04 5.337e-09
 29.67565   -180.1 1.680e+04 6.341e-09
 29.68620   -181.3 1.533e+04 3.288e-09
 29.70158   -178.9 1.529e+04 3.597e-09
 29.72259   -176.4 1.552e+04 4.158e-09
 29.73410   -174.2 1.569e+04 4.677e-09
 29.74461   -175.2 1.433e+04 2.562e-09
 29.76460   -172.8 1.455e+04 2.939e-09
 29.78200   -170.7 1.472e+04 3.290e-09
 29.79250   -171.1 1.338e+04 1.893e-09
 29.79790   -169.1 1.356e+04 2.092e-09
 29.80840   -169.1 1.367e+04 2.099e-09
 29.82761   -167.3 1.378e+04 2.239e-09
 29.84040   -165.7 1.380e+04 2.330e-09
 29.85091   -165.7 1.238e+04 1.259e-09
 29.86963   -164.1 1.244e+04 1.317e-09
 29.88830   -162.5 1.247e+04 1.377e-09
 29.89881   -162.4 1.139e+04 8.265e-10
 29.91164   -160.8 1.150e+04 8.928e-10
 29.93264   -159.2 1.160e+04 9.705e-10
 29.94670   -157.7 1.169e+04 1.053e-09
 29.95721   -157.2 1.107e+04 7.560e-10
 29.97465   -155.7 1.125e+04 8.542e-10
 29.99460   -154.3 1.151e+04 9.804e-10
 30.00511   -153.7 1.104e+04 7.678e-10
 30.01666   -152.4 1.143e+04 9.252e-10
 30.03767   -151.4 1.198e+04 1.159e-09
 30.05301   -150.7 1.265e+04 1.508e-09
 30.06351   -150.0 1.216e+04 1.205e-09
 30.07968   -149.5 1.280e+04 1.577e-09
 30.10068   -149.0 1.339e+04 2.068e-09
 30.11141   -148.5 1.389e+04 2.643e-09
 30.11909   -148.1 1.331e+04 2.080e-09
 30.12937   -147.5 1.299e+04 1.778e-09
 30.14269   -147.2 1.345e+04 2.246e-09
 30.15931   -146.7 1.383e+04 2.778e-09
 30.16981   -146.3 1.335e+04 2.247e-09
 30.18470   -145.8 1.371e+04 2.774e-09
 30.20571   -145.2 1.403e+04 3.276e-09
 30.21771   -144.6 1.427e+04 3.627e-09
 30.22821   -144.2 1.395e+04 3.274e-09
 30.24772   -143.6 1.416e+04 3.519e-09
 30.26561   -143.2 1.420e+04 3.580e-09
 30.27611   -142.8 1.389e+04 3.177e-09
 30.28973   -142.5 1.388e+04 3.050e-09
 30.31074   -142.1 1.371e+04 2.539e-09
 30.32401   -141.9 1.338e+04 2.009e-09
 30.33451   -141.7 1.297e+04 1.682e-09
 30.35275   -141.8 1.259e+04 1.285e-09
 30.37191   -141.9 1.216e+04 1.015e-09
 30.38241   -141.8 1.183e+04 8.530e-10
 30.39476   -141.9 1.150e+04 7.347e-10
 30.41576   -141.9 1.135e+04 7.002e-10
 30.43031   -141.7 1.133e+04 6.946e-10
 30.44081   -141.6 1.124e+04 6.670e-10
 30.45034   -141.4 1.130e+04 6.758e-10
 30.46084   -140.9 1.129e+04 6.744e-10
 30.47821   -140.7 1.144e+04 7.115e-10
 30.48871   -140.4 1.140e+04 7.024e-10
 30.49978   -140.2 1.152e+04 7.316e-10
 30.52079   -139.9 1.162e+04 7.422e-10
 30.53661   -139.7 1.168e+04 7.395e-10
 30.54711   -139.3 1.162e+04 6.985e-10
 30.56280   -139.0 1.161e+04 6.498e-10
 30.58381   -138.9 1.150e+04 6.076e-10
 30.59501   -138.7 1.135e+04 5.724e-10
 30.60551   -138.4 1.123e+04 5.049e-10
 30.62582   -138.4 1.102e+04 4.756e-10
 30.64291   -138.3 1.082e+04 4.492e-10
 30.65341   -138.0 1.069e+04 4.145e-10
 30.66783   -137.8 1.054e+04 3.962e-10
 30.69943   -137.3 1.040e+04 3.682e-10
 30.73890   -136.2 1.015e+04 3.149e-10
 30.75991   -135.4 9.910e+03 2.660e-10
 30.77151   -134.3 9.586e+03 1.966e-10
 30.79251   -133.3 9.974e+03 2.661e-10
 30.82556   -132.2 9.606e+03 1.883e-10
 30.85571   -131.1 9.299e+03 1.345e-10
 30.87671   -130.5 9.077e+03 1.081e-10
 30.90958   -129.2 8.942e+03 8.348e-11
 30.95151   -127.9 8.947e+03 7.674e-11
 30.99352   -127.0 8.916e+03 6.687e-11
 31.03561   -127.4 9.319e+03 7.898e-11
 31.06831   -128.6 1.003e+04 1.799e-10
 31.08931   -128.8 1.012e+04 2.081e-10
 31.11964   -129.3 1.065e+04 4.435e-10
 31.16165   -130.2 1.101e+04 6.251e-10
 31.18511   -131.6 1.106e+04 6.606e-10
 31.20612   -131.8 1.086e+04 5.682e-10
 31.24567   -132.9 1.053e+04 4.806e-10
 31.27708   -133.0 1.028e+04 4.004e-10
 31.29122   -133.2 1.025e+04 3.924e-10
 31.30182   -133.5 1.025e+04 3.894e-10
 31.32969   -134.0 1.022e+04 3.868e-10
 31.36110   -134.3 1.025e+04 4.149e-10
 31.38201   -134.3 1.027e+04 4.368e-10
 31.39762   -134.4 1.032e+04 4.895e-10
 31.41846   -135.2 1.031e+04 4.896e-10
 31.43446   -135.0 1.036e+04 4.726e-10
 31.45572   -134.3 1.033e+04 5.042e-10
 31.49351   -133.4 1.015e+04 4.940e-10
 31.51452   -134.2 1.015e+04 5.142e-10
 31.53974   -132.9 9.909e+03 4.403e-10
 31.58175   -131.1 9.702e+03 3.759e-10
 31.61032   -129.2 9.516e+03 3.301e-10
 31.63132   -130.8 9.656e+03 3.580e-10
 31.66577   -128.7 9.560e+03 3.381e-10
 31.70611   -126.6 9.539e+03 3.339e-10
 31.72712   -128.7 9.903e+03 4.241e-10
 31.74980   -126.7 1.002e+04 4.608e-10
 31.79181   -124.9 1.025e+04 5.512e-10
 31.82292   -123.0 1.047e+04 6.643e-10
 31.84392   -124.1 1.055e+04 7.858e-10
 31.87583   -122.0 1.067e+04 8.631e-10
 31.91784   -120.1 1.074e+04 8.911e-10
 31.93962   -118.4 1.079e+04 9.101e-10
 31.96063   -118.2 1.083e+04 9.530e-10
 31.98752   -116.6 1.086e+04 9.164e-10
 31.99793   -116.7 1.099e+04 9.950e-10
 32.01217   -115.5 1.100e+04 9.576e-10
 32.03317   -113.9 1.095e+04 9.024e-10
 32.04583   -112.4 1.074e+04 8.024e-10
 32.05633   -112.4 1.083e+04 9.158e-10
 32.07518   -111.0 1.079e+04 8.654e-10
 32.08671   -110.3 1.118e+04 8.823e-10
 32.09475   -111.4 1.186e+04 1.251e-09
 32.10423   -115.1 1.495e+04 2.312e-09
 32.11719   -116.5 1.743e+04 4.039e-09
 32.13820   -117.2 1.908e+04 7.215e-09
 32.15213   -117.2 2.002e+04 1.210e-08
 32.15733   -119.5 2.067e+04 2.104e-08
 32.16436   -119.1 2.097e+04 2.594e-08
 32.17486   -118.7 2.126e+04 3.040e-08
 32.18123   -118.5 2.138e+04 3.335e-08
 32.18648   -120.5 2.140e+04 3.724e-08
 32.19586   -120.7 2.149e+04 3.704e-08
 32.20518   -121.1 2.164e+04 3.423e-08
 32.21043   -123.2 2.165e+04 3.244e-08
 32.21687   -125.0 2.198e+04 2.920e-08
 32.22737   -129.9 2.466e+04 2.694e-08
 32.23438   -141.0 3.347e+04 2.748e-08
 32.23963   -146.5 3.246e+04 1.394e-08
 32.24710   -161.1 3.206e+04 3.954e-08
 32.25235   -153.1 3.564e+04 1.566e-08
 32.25833   -165.7 2.915e+04 7.508e-08
 32.26358   -168.0 2.784e+04 6.175e-08
 32.26938   -172.9 2.380e+04 2.183e-07
 32.27989   -175.9 2.279e+04 3.535e-07
 32.28751   -178.8 2.260e+04 3.756e-07
 32.29276   -179.5 2.272e+04 3.845e-07
 32.30089   -183.0 2.334e+04 2.725e-07
 32.31139   -187.2 2.461e+04 9.581e-08
 32.31673   -193.8 2.486e+04 1.794e-08
 32.32198   -193.3 2.460e+04 2.527e-08
 32.33240   -200.0 2.027e+04 6.024e-09
 32.34068   -204.7 1.532e+04 3.177e-09
 32.34593   -203.6 1.665e+04 3.972e-09
 32.35340   -205.6 1.418e+04 2.867e-09
 32.36468   -206.2 1.347e+04 2.312e-09
 32.37518   -205.9 1.369e+04 2.509e-09
 32.39021   -206.1 1.336e+04 2.198e-09
 32.40768   -206.7 1.227e+04 1.538e-09
 32.41818   -206.1 1.303e+04 1.973e-09
 32.42313   -206.7 1.185e+04 1.441e-09
 32.43363   -206.7 1.203e+04 1.514e-09
 32.45328   -207.2 1.131e+04 1.232e-09
 32.47103   -207.4 1.112e+04 1.163e-09
 32.48153   -207.8 1.112e+04 1.160e-09
 32.49529   -207.4 1.106e+04 1.140e-09
 32.51629   -206.5 1.105e+04 1.139e-09
 32.52943   -205.8 1.106e+04 1.133e-09
 32.53993   -206.5 1.109e+04 1.152e-09
 32.55830   -205.6 1.106e+04 1.111e-09
 32.57743   -204.7 1.090e+04 1.008e-09
 32.58793   -205.5 1.104e+04 1.075e-09
 32.60031   -204.7 1.086e+04 9.888e-10
 32.63192   -204.1 1.065e+04 8.979e-10
 32.67332   -202.1 1.035e+04 7.855e-10
 32.69433   -203.0 1.065e+04 8.686e-10
 32.71604   -201.0 1.057e+04 8.492e-10
 32.73935   -198.7 1.053e+04 8.429e-10
 32.74443   -199.3 1.052e+04 8.150e-10
 32.75253   -199.7 1.065e+04 8.591e-10
 32.76836   -198.6 1.058e+04 8.365e-10
 32.79003   -197.5 1.049e+04 8.018e-10
 32.81113   -198.0 1.065e+04 8.479e-10
 32.84207   -195.7 1.055e+04 8.048e-10
 32.87348   -194.0 1.068e+04 8.364e-10
 32.89439   -193.4 1.055e+04 7.621e-10
 32.90673   -192.6 1.043e+04 7.056e-10
 32.91724   -192.9 1.066e+04 7.863e-10
 32.93640   -192.2 1.054e+04 7.083e-10
 32.95463   -191.5 1.039e+04 6.251e-10
 32.96514   -191.8 1.061e+04 7.180e-10
 32.97841   -191.2 1.045e+04 6.196e-10
 32.99942   -190.7 1.027e+04 5.292e-10
 33.01303   -190.0 1.010e+04 4.539e-10
 33.02354   -190.3 1.025e+04 5.070e-10
 33.04143   -189.6 1.007e+04 4.224e-10
 33.06012   -188.9 9.915e+03 3.604e-10
 33.06913   -189.0 9.876e+03 3.421e-10
 33.07144   -189.2 9.986e+03 3.675e-10
 33.09404   -188.3 9.842e+03 3.278e-10
 33.11953   -186.8 9.774e+03 3.042e-10
 33.14054   -187.6 9.799e+03 2.983e-10
 33.17816   -185.9 9.707e+03 2.775e-10
 33.21533   -183.9 9.690e+03 2.720e-10
 33.23633   -184.7 9.730e+03 2.702e-10
 33.26218   -182.6 9.828e+03 2.728e-10
 33.30419   -180.3 1.019e+04 3.083e-10
 33.33213   -177.7 1.052e+04 3.678e-10
 33.35314   -180.7 1.201e+04 4.851e-10
 33.37761   -177.5 1.146e+04 4.575e-10
 33.39034   -176.4 1.150e+04 4.766e-10
 33.39392   -178.0 1.274e+04 6.748e-10
 33.40220   -178.5 1.214e+04 5.507e-10
 33.41962   -177.1 1.267e+04 6.737e-10
 33.43824   -177.2 1.322e+04 6.782e-10
 33.44874   -180.3 1.436e+04 1.260e-09
 33.46153   -182.2 1.594e+04 2.149e-09
 33.48254   -184.3 1.831e+04 4.823e-09
 33.49664   -185.7 2.013e+04 1.087e-08
 33.50714   -187.2 1.958e+04 1.187e-08
 33.51925   -187.5 2.128e+04 2.144e-08
 33.52574   -188.0 2.175e+04 3.083e-08
 33.53099   -188.0 2.067e+04 2.552e-08
 33.54020   -188.3 2.084e+04 3.281e-08
 33.54969   -188.5 2.068e+04 3.597e-08
 33.55494   -187.9 1.982e+04 2.549e-08
 33.55724   -187.7 1.977e+04 2.587e-08
 33.56249   -187.5 1.968e+04 2.395e-08
 33.57171   -187.2 1.947e+04 2.403e-08
 33.57889   -186.6 1.914e+04 2.202e-08
 33.58414   -186.4 1.852e+04 1.613e-08
 33.59272   -186.0 1.833e+04 1.390e-08
 33.60284   -185.7 1.810e+04 1.166e-08
 33.60809   -186.0 1.728e+04 8.335e-09
 33.61372   -186.1 1.688e+04 7.007e-09
 33.62953   -186.4 1.594e+04 5.118e-09
 33.65058   -186.1 1.535e+04 4.191e-09
 33.66134   -185.2 1.458e+04 3.088e-09
 33.67184   -184.5 1.379e+04 2.017e-09
 33.69259   -183.7 1.343e+04 1.611e-09
 33.70924   -182.6 1.325e+04 1.362e-09
 33.71872   -182.2 1.285e+04 1.050e-09
 33.72307   -181.3 1.300e+04 1.390e-09
 33.73460   -180.1 1.286e+04 1.204e-09
 33.75561   -178.9 1.279e+04 1.039e-09
 33.76764   -177.6 1.275e+04 8.975e-10
 33.77815   -177.1 1.245e+04 7.809e-10
 33.79762   -175.7 1.241e+04 6.998e-10
 33.81554   -174.3 1.231e+04 6.319e-10
 33.82604   -173.4 1.206e+04 5.606e-10
 33.83963   -171.7 1.197e+04 5.127e-10
 33.86063   -170.2 1.190e+04 4.882e-10
 33.87404   -168.6 1.184e+04 4.785e-10
 33.89514   -168.0 1.179e+04 4.482e-10
 33.93435   -165.3 1.164e+04 4.312e-10
 33.96994   -162.4 1.142e+04 3.977e-10
 33.99094   -161.3 1.142e+04 3.823e-10
 34.01837   -158.5 1.123e+04 3.555e-10
 34.04424   -155.6 1.108e+04 3.228e-10
 34.06525   -155.2 1.114e+04 3.363e-10
 34.08674   -152.3 1.101e+04 3.082e-10
 34.10775   -151.4 1.115e+04 3.375e-10
 34.14440   -148.6 1.103e+04 3.171e-10
 34.18254   -145.7 1.091e+04 2.899e-10
 34.20354   -144.9 1.108e+04 3.293e-10
 34.22842   -142.0 1.096e+04 3.006e-10
 34.27043   -139.1 1.083e+04 2.608e-10
 34.29934   -136.0 1.070e+04 2.162e-10
 34.32035   -135.3 1.086e+04 2.613e-10
 34.35445   -132.3 1.076e+04 2.188e-10
 34.39514   -129.3 1.068e+04 1.775e-10
 34.41615   -128.5 1.084e+04 2.278e-10
 34.43847   -125.6 1.081e+04 1.943e-10
 34.48048   -122.7 1.078e+04 1.650e-10
 34.51194   -119.9 1.076e+04 1.421e-10
 34.53295   -119.3 1.098e+04 2.077e-10
 34.56451   -116.4 1.098e+04 1.881e-10
 34.60652   -113.6 1.097e+04 1.701e-10
 34.62875   -110.8 1.094e+04 1.555e-10
 34.64975   -110.4 1.119e+04 2.435e-10
 34.68618   -107.6 1.117e+04 2.287e-10
 34.70719   -107.0 1.123e+04 2.325e-10
 34.72454   -104.1 1.121e+04 2.173e-10
 34.74555   -103.9 1.141e+04 3.277e-10
 34.77456   -101.2 1.142e+04 3.121e-10
 34.81657    -98.5 1.150e+04 2.876e-10
 34.84135    -96.1 1.160e+04 2.685e-10
 34.86235    -96.0 1.174e+04 3.767e-10
 34.90059    -93.8 1.187e+04 3.697e-10
 34.93715    -92.0 1.192e+04 4.196e-10
 34.95815    -91.4 1.202e+04 4.834e-10
 34.98461    -89.3 1.196e+04 5.353e-10
 35.02662    -87.0 1.191e+04 5.776e-10
 35.05395    -84.7 1.185e+04 5.807e-10
 35.07495    -84.1 1.192e+04 5.341e-10
 35.11064    -81.7 1.184e+04 4.992e-10
 35.14975    -79.1 1.169e+04 4.140e-10
 35.17075    -78.6 1.183e+04 4.376e-10
 35.19466    -76.0 1.175e+04 3.494e-10
 35.23667    -73.4 1.163e+04 2.577e-10
 35.26655    -70.9 1.157e+04 1.851e-10
 35.28756    -70.0 1.176e+04 2.290e-10
 35.32070    -67.6 1.192e+04 1.650e-10
 35.34913    -65.3 1.195e+04 1.303e-10
 35.36978    -65.0 1.196e+04 1.766e-10
 35.38335    -64.8 1.208e+04 2.949e-10
 35.40472    -62.6 1.227e+04 2.934e-10
 35.44673    -60.6 1.244e+04 3.144e-10
 35.47915    -58.7 1.258e+04 3.626e-10
 35.50016    -58.7 1.288e+04 7.639e-10
 35.53075    -56.9 1.305e+04 8.433e-10
 35.57276    -55.0 1.328e+04 1.037e-09
 35.59586    -54.1 1.355e+04 1.204e-09
 35.60626    -54.5 1.373e+04 1.514e-09
 35.62508    -54.4 1.406e+04 1.727e-09
 35.64366    -54.2 1.423e+04 2.035e-09
 35.65416    -54.7 1.432e+04 2.378e-09
 35.66709    -54.3 1.446e+04 2.864e-09
 35.68041    -53.5 1.468e+04 3.359e-09
 35.69091    -53.7 1.500e+04 4.096e-09
 35.70206    -52.8 1.535e+04 4.881e-09
 35.71256    -53.0 1.498e+04 4.852e-09
 35.73010    -52.0 1.521e+04 4.974e-09
 35.74996    -51.0 1.525e+04 4.656e-09
 35.76046    -51.1 1.465e+04 4.192e-09
 35.77211    -50.3 1.475e+04 3.788e-09
 35.79312    -50.1 1.477e+04 3.257e-09
 35.80836    -50.0 1.467e+04 2.897e-09
 35.81886    -50.0 1.427e+04 2.602e-09
 35.83513    -50.0 1.438e+04 2.684e-09
 35.85614    -50.2 1.455e+04 2.868e-09
 35.86676    -50.4 1.473e+04 3.193e-09
 35.87727    -50.4 1.466e+04 3.180e-09
 35.89815    -50.6 1.495e+04 3.830e-09
 35.91466    -50.4 1.520e+04 4.636e-09
 35.92517    -50.4 1.518e+04 4.747e-09
 35.94016    -49.9 1.533e+04 5.274e-09
 35.96116    -49.3 1.528e+04 5.049e-09
 35.97306    -49.1 1.518e+04 4.280e-09
 35.98357    -48.9 1.512e+04 4.577e-09
 36.00138    -49.0 1.505e+04 3.718e-09
 36.01188    -49.0 1.532e+04 4.254e-09
 36.02096    -49.8 1.524e+04 3.505e-09
 36.03147    -49.2 1.509e+04 3.434e-09
 36.04518    -49.9 1.485e+04 2.870e-09
 36.06619    -50.4 1.452e+04 2.630e-09
 36.07937    -50.3 1.427e+04 2.560e-09
 36.08987    -50.0 1.410e+04 2.212e-09
 36.10820    -49.7 1.389e+04 2.170e-09
 36.12726    -49.4 1.384e+04 2.162e-09
 36.13777    -49.1 1.373e+04 1.968e-09
 36.15021    -48.0 1.347e+04 1.837e-09
 36.17122    -47.8 1.355e+04 1.766e-09
 36.18567    -46.2 1.316e+04 1.350e-09
 36.19617    -45.9 1.321e+04 1.408e-09
 36.21323    -45.8 1.323e+04 1.390e-09
 36.23357    -44.1 1.281e+04 1.039e-09
 36.24407    -43.9 1.294e+04 1.159e-09
 36.25524    -43.6 1.305e+04 1.019e-09
 36.27624    -42.3 1.279e+04 7.794e-10
 36.29197    -41.9 1.279e+04 6.207e-10
 36.30247    -41.5 1.295e+04 7.996e-10
 36.32885    -40.7 1.265e+04 5.338e-10
 36.35056    -39.0 1.221e+04 4.352e-10
 36.37157    -38.3 1.276e+04 6.225e-10
 36.41297    -36.4 1.230e+04 4.990e-10
 36.44636    -34.0 1.197e+04 4.447e-10
 36.46737    -33.6 1.220e+04 5.572e-10
 36.49699    -31.1 1.194e+04 4.748e-10
 36.53900    -28.4 1.189e+04 4.228e-10
 36.56317    -25.5 1.193e+04 3.917e-10
 36.58417    -25.1 1.199e+04 5.017e-10
 36.62302    -22.5 1.213e+04 5.138e-10
 36.65392    -21.1 1.219e+04 5.678e-10
 36.66433    -21.1 1.257e+04 5.816e-10
 36.66927    -19.9 1.265e+04 6.537e-10
 36.67977    -19.5 1.271e+04 8.627e-10
 36.69635    -18.2 1.292e+04 1.033e-09
 36.71717    -17.0 1.319e+04 1.254e-09
 36.72767    -16.5 1.335e+04 1.546e-09
 36.73836    -15.5 1.376e+04 1.961e-09
 36.75936    -14.4 1.420e+04 2.467e-09
 36.77557    -13.4 1.465e+04 3.020e-09
 36.78607    -13.3 1.505e+04 3.752e-09
 36.80137    -12.3 1.552e+04 4.575e-09
 36.82238    -11.5 1.582e+04 5.039e-09
 36.83397    -10.7 1.582e+04 4.981e-09
 36.84448    -10.8 1.614e+04 6.010e-09
 36.86439    -10.0 1.607e+04 5.838e-09
 36.88187     -9.1 1.586e+04 5.326e-09
 36.89237     -9.2 1.595e+04 5.723e-09
 36.90640     -8.2 1.569e+04 5.039e-09
 36.92741     -7.2 1.542e+04 4.297e-09
 36.94027     -6.2 1.519e+04 3.607e-09
 36.95078     -6.4 1.519e+04 3.681e-09
 36.96942     -5.3 1.501e+04 3.090e-09
 36.98530     -4.3 1.490e+04 2.624e-09
 36.99355     -4.5 1.560e+04 3.404e-09
 36.99868     -5.0 1.536e+04 3.383e-09
 37.01143     -4.2 1.569e+04 3.120e-09
 37.03243     -3.4 1.593e+04 3.145e-09
 37.04657     -2.9 1.638e+04 3.360e-09
 37.05708     -3.1 1.577e+04 3.111e-09
 37.07444     -2.7 1.630e+04 3.573e-09
 37.09447     -2.4 1.683e+04 4.691e-09
 37.10498     -2.5 1.611e+04 3.787e-09
 37.11645     -2.1 1.661e+04 5.093e-09
 37.12888     -1.9 1.676e+04 5.599e-09
 37.13408     -2.0 1.666e+04 5.416e-09
 37.14261     -2.2 1.702e+04 6.059e-09
 37.15094     -3.1 1.796e+04 7.624e-09
 37.15585     -3.6 1.837e+04 8.773e-09
 37.15803     -3.9 1.829e+04 8.537e-09
 37.16362     -5.0 1.921e+04 1.190e-08
 37.17412     -5.7 1.990e+04 1.684e-08
 37.18198     -6.6 2.084e+04 2.438e-08
 37.18723     -7.0 2.116e+04 2.573e-08
 37.19513     -8.9 2.241e+04 4.117e-08
 37.20563    -10.8 2.292e+04 7.260e-08
 37.21118    -12.0 2.275e+04 1.422e-07
 37.21643    -12.1 2.264e+04 1.827e-07
 37.22663    -12.9 2.276e+04 3.569e-07
 37.23513    -16.1 2.313e+04 3.829e-07
 37.24038    -17.7 2.328e+04 4.269e-07
 37.24764    -20.1 2.280e+04 3.111e-07
 37.25814    -19.1 2.207e+04 1.514e-07
 37.26433    -18.4 2.139e+04 6.363e-08
 37.26958    -18.3 2.113e+04 6.318e-08
 37.28445    -18.7 2.011e+04 2.341e-08
 37.30550    -20.0 1.836e+04 7.003e-09
 37.31678    -21.9 1.588e+04 2.597e-09
 37.31835    -21.2 1.548e+04 2.320e-09
 37.32808    -21.2 1.545e+04 1.831e-09
 37.34751    -22.6 1.429e+04 1.361e-09
 37.36548    -21.2 1.354e+04 1.063e-09
 37.37598    -20.8 1.346e+04 9.889e-10
 37.38952    -20.4 1.346e+04 9.658e-10
 37.41347    -18.0 1.322e+04 9.026e-10
 37.43448    -17.9 1.289e+04 8.084e-10
 37.45254    -16.3 1.280e+04 7.729e-10
 37.47178    -15.0 1.274e+04 7.458e-10
 37.48228    -14.8 1.259e+04 7.284e-10
 37.49455    -13.5 1.246e+04 6.898e-10
 37.51555    -12.3 1.243e+04 6.718e-10
 37.53018    -11.1 1.244e+04 6.743e-10
 37.54068    -10.9 1.239e+04 6.206e-10
 37.55757     -9.8 1.236e+04 6.209e-10
 37.57808     -8.7 1.234e+04 6.248e-10
 37.58858     -8.5 1.221e+04 5.608e-10
 37.59958     -7.4 1.220e+04 5.782e-10
 37.62058     -6.0 1.236e+04 6.182e-10
 37.63648     -5.6 1.243e+04 6.269e-10
 37.64708     -5.6 1.223e+04 5.482e-10
 37.67329     -3.3 1.206e+04 5.586e-10
 37.71530     -1.1 1.195e+04 5.984e-10
 37.74298      1.2 1.208e+04 7.300e-10
 37.76398      2.0 1.190e+04 5.510e-10
 37.78872      2.8 1.207e+04 6.348e-10
 37.80118      3.7 1.219e+04 6.948e-10
 37.81169      4.0 1.200e+04 5.654e-10
 37.83063      4.8 1.201e+04 5.908e-10
 37.84908      5.6 1.201e+04 6.178e-10
 37.85958      5.9 1.173e+04 4.829e-10
 37.87264      6.6 1.170e+04 4.996e-10
 37.89365      7.3 1.172e+04 5.254e-10
 37.90748      7.8 1.179e+04 5.725e-10
 37.91799      8.1 1.153e+04 4.630e-10
 37.93566      8.7 1.160e+04 5.254e-10
 37.95538      9.2 1.168e+04 6.190e-10
 37.96588      9.6 1.149e+04 5.249e-10
 37.96922     10.2 1.159e+04 6.353e-10
 37.97972     10.6 1.168e+04 7.454e-10
 37.99868     11.4 1.186e+04 8.930e-10
 38.01378     12.1 1.207e+04 1.017e-09
 38.02429     12.5 1.191e+04 8.904e-10
 38.04069     13.0 1.203e+04 9.338e-10
 38.06168     13.4 1.203e+04 9.215e-10
 38.08269     14.1 1.182e+04 8.082e-10
 38.10370     14.4 1.166e+04 7.472e-10
 38.12008     14.8 1.145e+04 6.650e-10
 38.13059     15.3 1.141e+04 6.450e-10
 38.14571     15.7 1.120e+04 5.707e-10
 38.16672     16.3 1.097e+04 4.964e-10
 38.17849     16.8 1.077e+04 4.372e-10
 38.18899     17.5 1.076e+04 4.321e-10
 38.21933     18.5 1.067e+04 3.958e-10
 38.26144     20.1 1.065e+04 3.924e-10
 38.28498     21.8 1.064e+04 4.048e-10
 38.30599     23.1 1.071e+04 3.936e-10
 38.33278     23.7 1.064e+04 4.149e-10
 38.34319     24.5 1.068e+04 4.112e-10
 38.35577     25.1 1.066e+04 4.275e-10
 38.37677     26.0 1.065e+04 4.817e-10
 38.39109     27.0 1.071e+04 5.500e-10
 38.40159     27.6 1.067e+04 5.146e-10
 38.41878     28.5 1.076e+04 5.732e-10
 38.43899     29.3 1.086e+04 6.248e-10
 38.44949     30.0 1.082e+04 5.966e-10
 38.46079     30.6 1.099e+04 6.680e-10
 38.48180     31.0 1.121e+04 7.696e-10
 38.49739     31.4 1.146e+04 9.121e-10
 38.50789     32.2 1.147e+04 9.166e-10
 38.52381     32.7 1.178e+04 1.127e-09
 38.54481     33.1 1.205e+04 1.363e-09
 38.55579     33.5 1.226e+04 1.566e-09
 38.56629     34.4 1.237e+04 1.636e-09
 38.58682     34.5 1.255e+04 1.793e-09
 38.60369     34.6 1.266e+04 1.859e-09
 38.61419     35.4 1.281e+04 1.994e-09
 38.62167     35.1 1.289e+04 2.082e-09
 38.63217     34.8 1.270e+04 1.961e-09
 38.64984     34.5 1.275e+04 2.104e-09
 38.66209     34.1 1.269e+04 2.150e-09
 38.67259     35.0 1.291e+04 2.348e-09
 38.69185     34.6 1.281e+04 2.289e-09
 38.70999     34.2 1.262e+04 2.113e-09
 38.72049     35.1 1.275e+04 2.190e-09
 38.73386     34.6 1.241e+04 1.818e-09
 38.75487     34.0 1.199e+04 1.418e-09
 38.76839     33.5 1.154e+04 1.083e-09
 38.77889     34.0 1.150e+04 1.037e-09
 38.79688     33.4 1.105e+04 8.138e-10
 38.81629     33.0 1.074e+04 6.867e-10
 38.82679     33.5 1.068e+04 6.577e-10
 38.83889     33.3 1.053e+04 5.940e-10
 38.85989     33.3 1.051e+04 5.610e-10
 38.87469     33.3 1.053e+04 5.567e-10
 38.88520     33.7 1.050e+04 5.215e-10
 38.90190     33.7 1.052e+04 5.211e-10
 38.92259     33.7 1.058e+04 5.293e-10
 38.93309     34.2 1.051e+04 4.949e-10
 38.94264     34.0 1.063e+04 5.233e-10
 38.95314     34.2 1.052e+04 5.251e-10
 38.96492     34.0 1.070e+04 5.813e-10
 38.98099     33.5 1.098e+04 6.845e-10
 38.99150     33.9 1.098e+04 6.452e-10
 39.00693     32.9 1.144e+04 8.346e-10
 39.02794     31.7 1.198e+04 1.100e-09
 39.03939     30.4 1.252e+04 1.481e-09
 39.04990     30.6 1.261e+04 1.646e-09
 39.06995     29.8 1.284e+04 2.076e-09
 39.08729     28.9 1.284e+04 2.131e-09
 39.09780     29.6 1.289e+04 2.222e-09
 39.11196     28.9 1.267e+04 2.047e-09
 39.13296     28.1 1.219e+04 1.565e-09
 39.14570     26.8 1.158e+04 1.124e-09
 39.15620     27.4 1.129e+04 9.539e-10
 39.18557     26.7 1.044e+04 6.244e-10
 39.22768     26.5 9.832e+03 4.682e-10
 39.25219     27.1 9.638e+03 4.223e-10
 39.26731     28.9 9.261e+03 3.055e-10
 39.28481     29.0 9.308e+03 2.562e-10
 39.31170     29.8 9.088e+03 2.410e-10
 39.34799     31.2 9.018e+03 2.438e-10
 39.36900     33.1 8.804e+03 2.045e-10
 39.39572     34.9 8.761e+03 2.089e-10
 39.43773     36.8 8.738e+03 2.077e-10
 39.46479     38.9 8.647e+03 1.981e-10
 39.48580     40.5 8.522e+03 1.711e-10
 39.52176     42.5 8.394e+03 1.526e-10
 39.56059     44.6 8.312e+03 1.437e-10
 39.58160     45.8 8.250e+03 1.271e-10
 39.60578     47.9 8.250e+03 1.283e-10
 39.64779     50.0 8.268e+03 1.379e-10
 39.67739     52.3 8.369e+03 1.623e-10
 39.69840     53.2 8.372e+03 1.617e-10
 39.73181     55.5 8.593e+03 2.035e-10
 39.77319     57.8 8.893e+03 2.641e-10
 39.79420     58.5 9.049e+03 2.826e-10
 39.81583     60.2 9.300e+03 3.513e-10
 39.84200     60.8 9.382e+03 3.901e-10
 39.85240     61.0 9.431e+03 3.962e-10
 39.86815     61.9 9.590e+03 4.574e-10
 39.88915     62.9 9.846e+03 5.608e-10
 39.90030     64.0 1.017e+04 7.009e-10
 39.91081     64.1 1.015e+04 6.861e-10
 39.92656     65.1 1.048e+04 8.459e-10
 39.93706     65.2 1.033e+04 7.793e-10
 39.94820     66.0 1.072e+04 9.768e-10
 39.95871     66.2 1.059e+04 9.068e-10
 39.97317     67.0 1.098e+04 1.124e-09
 39.99418     67.6 1.141e+04 1.386e-09
 40.00660     68.1 1.184e+04 1.682e-09
 40.01711     68.1 1.173e+04 1.576e-09
 40.03619     68.4 1.216e+04 1.894e-09
 40.05450     68.6 1.256e+04 2.237e-09
 40.06501     68.4 1.246e+04 2.154e-09
 40.07820     68.6 1.282e+04 2.530e-09
 40.09921     68.9 1.313e+04 2.904e-09
 40.11291     69.2 1.336e+04 3.209e-09
 40.12341     69.2 1.316e+04 3.138e-09
 40.14122     69.8 1.340e+04 3.369e-09
 40.16080     70.3 1.345e+04 3.381e-09
 40.17131     70.4 1.308e+04 2.948e-09
 40.18323     70.8 1.309e+04 2.896e-09
 40.20423     71.2 1.303e+04 2.685e-09
 40.21921     71.7 1.274e+04 2.309e-09
 40.22971     71.6 1.212e+04 1.666e-09
 40.24624     72.0 1.193e+04 1.552e-09
 40.27785     73.1 1.147e+04 1.262e-09
 40.31520     74.7 1.090e+04 1.026e-09
 40.33620     75.4 1.010e+04 5.986e-10
 40.36197     77.4 9.882e+03 5.496e-10
 40.40398     79.6 9.834e+03 5.475e-10
 40.43200     81.7 9.855e+03 5.634e-10
 40.45301     82.6 9.442e+03 3.650e-10
 40.48800     84.8 9.530e+03 4.022e-10
 40.52780     87.0 9.650e+03 4.504e-10
 40.54881     87.8 9.320e+03 3.055e-10
 40.56870     90.0 9.461e+03 3.302e-10
 40.58970     89.9 9.520e+03 3.196e-10
 40.61403     91.9 9.651e+03 3.364e-10
 40.64460     93.7 9.716e+03 3.439e-10
 40.66561     94.3 9.446e+03 2.296e-10
 40.69805     96.1 9.543e+03 2.424e-10
 40.74006     97.8 9.653e+03 2.556e-10
 40.76141     99.4 9.762e+03 2.664e-10
 40.78241    100.2 9.503e+03 1.792e-10
 40.82408    101.6 9.651e+03 2.035e-10
 40.85721    102.8 9.816e+03 2.374e-10
 40.87821    104.2 9.597e+03 2.008e-10
 40.90811    105.5 9.788e+03 2.374e-10
 40.95012    106.6 9.983e+03 2.760e-10
 40.97401    107.7 1.017e+04 3.114e-10
 40.99501    109.2 1.003e+04 2.712e-10
 41.03414    110.4 1.019e+04 2.933e-10
 41.06981    111.6 1.031e+04 3.178e-10
 41.09081    112.8 1.029e+04 3.086e-10
 41.11816    114.1 1.040e+04 3.490e-10
 41.16017    115.4 1.048e+04 4.028e-10
 41.18661    116.9 1.049e+04 4.606e-10
 41.20762    118.0 1.061e+04 5.144e-10
 41.23164    119.6 1.062e+04 5.864e-10
 41.25265    119.8 1.028e+04 4.466e-10
 41.28241    121.5 1.022e+04 4.443e-10
 41.30341    122.7 1.030e+04 4.961e-10
 41.32821    124.5 1.022e+04 4.871e-10
 41.37022    126.4 1.011e+04 4.569e-10
 41.39921    128.2 1.000e+04 4.177e-10
 41.42022    129.4 1.004e+04 4.346e-10
 41.45424    131.2 9.947e+03 3.992e-10
 41.49501    132.9 9.846e+03 3.664e-10
 41.51602    134.1 9.855e+03 3.651e-10
 41.53826    135.8 9.782e+03 3.449e-10
 41.58028    137.7 9.678e+03 3.188e-10
 41.61181    139.6 9.526e+03 2.886e-10
 41.63282    140.8 9.613e+03 3.031e-10
 41.66430    142.9 9.496e+03 2.840e-10
 41.70631    145.1 9.357e+03 2.596e-10
 41.72862    147.3 9.217e+03 2.339e-10
 41.74962    148.5 9.538e+03 3.106e-10
 41.79033    150.7 9.522e+03 3.089e-10
 41.82441    152.8 9.503e+03 3.035e-10
 41.84542    153.8 9.948e+03 4.778e-10
 41.87359    155.9 1.003e+04 5.038e-10
 41.89459    156.6 9.598e+03 3.657e-10
 41.91636    158.7 9.549e+03 3.548e-10
 41.94122    160.7 9.476e+03 3.394e-10
 41.96222    161.5 1.019e+04 5.705e-10
 42.00038    163.7 1.027e+04 5.572e-10
 42.03179    164.5 1.038e+04 5.748e-10
 42.04732    165.2 1.055e+04 6.018e-10
 42.05783    165.3 1.105e+04 1.038e-09
 42.07370    166.3 1.108e+04 1.034e-09
 42.09471    167.3 1.112e+04 1.016e-09
 42.10573    168.3 1.111e+04 9.799e-10
 42.11623    168.4 1.154e+04 1.440e-09
 42.13672    169.3 1.159e+04 1.389e-09
 42.15362    170.2 1.159e+04 1.323e-09
 42.16413    170.1 1.207e+04 1.856e-09
 42.17873    170.9 1.220e+04 1.870e-09
 42.19974    171.8 1.238e+04 1.919e-09
 42.21203    172.6 1.261e+04 2.020e-09
 42.21716    172.1 1.321e+04 2.829e-09
 42.22587    173.2 1.286e+04 2.408e-09
 42.24175    174.0 1.319e+04 2.664e-09
 42.25993    174.9 1.356e+04 3.017e-09
 42.27043    174.4 1.386e+04 3.589e-09
 42.28376    175.3 1.417e+04 3.943e-09
 42.30476    176.2 1.449e+04 4.370e-09
 42.31833    177.1 1.489e+04 4.922e-09
 42.32883    176.4 1.424e+04 3.906e-09
 42.34677    176.8 1.442e+04 3.804e-09
 42.36623    176.6 1.461e+04 3.753e-09
 42.37673    174.4 1.337e+04 1.814e-09
 42.38878    173.3 1.342e+04 1.817e-09
 42.40979    171.4 1.368e+04 1.886e-09
 42.42463    168.2 1.444e+04 2.227e-09
 42.43513    164.9 1.229e+04 1.261e-09
 42.45180    160.8 1.327e+04 1.898e-09
 42.47253    154.9 1.512e+04 3.168e-09
 42.48303    154.7 1.406e+04 2.501e-09
 42.49381    148.4 1.573e+04 4.068e-09
 42.51482    142.1 1.699e+04 5.639e-09
 42.53093    136.1 1.731e+04 5.867e-09
 42.54143    138.1 1.720e+04 6.060e-09
 42.54684    133.3 1.708e+04 5.874e-09
 42.55735    131.4 1.880e+04 1.028e-08
 42.57783    127.9 1.770e+04 7.644e-09
 42.58933    125.2 1.620e+04 4.933e-09
 42.59983    127.4 1.645e+04 5.013e-09
 42.61984    124.8 1.475e+04 2.960e-09
 42.63723    122.6 1.328e+04 1.866e-09
 42.64773    124.3 1.320e+04 1.790e-09
 42.66185    122.4 1.219e+04 1.293e-09
 42.68286    121.4 1.194e+04 1.099e-09
 42.69563    121.0 1.194e+04 1.035e-09
 42.70613    122.6 1.188e+04 1.056e-09
 42.72487    122.6 1.188e+04 1.057e-09
 42.74353    122.7 1.190e+04 1.063e-09
 42.75403    124.2 1.191e+04 1.120e-09
 42.76688    124.2 1.200e+04 1.165e-09
 42.78789    124.1 1.211e+04 1.235e-09
 42.80193    124.0 1.219e+04 1.322e-09
 42.81243    125.1 1.243e+04 1.527e-09
 42.82990    125.0 1.255e+04 1.696e-09
 42.84983    124.9 1.263e+04 1.858e-09
 42.86033    125.8 1.293e+04 2.210e-09
 42.86781    125.7 1.300e+04 2.341e-09
 42.87832    125.5 1.321e+04 2.577e-09
 42.89291    125.3 1.318e+04 2.551e-09
 42.90823    125.2 1.296e+04 2.335e-09
 42.92934    126.0 1.293e+04 2.313e-09
 42.96663    125.7 1.217e+04 1.609e-09
 43.00423    125.9 1.128e+04 9.847e-10
 43.02523    126.5 1.080e+04 6.708e-10
 43.05065    126.2 9.950e+03 3.963e-10
 43.09266    126.1 9.679e+03 3.295e-10
 43.12103    126.4 9.675e+03 3.344e-10
 43.14203    127.3 9.469e+03 3.091e-10
 43.17668    127.9 9.612e+03 3.615e-10
 43.19948    128.0 9.811e+03 4.262e-10
 43.21863    127.6 9.660e+03 3.781e-10
 43.23783    128.7 9.589e+03 3.777e-10
 43.26070    128.5 9.780e+03 4.370e-10
 43.28563    128.1 9.940e+03 5.058e-10
 43.29604    128.5 9.838e+03 4.663e-10
 43.31302    128.4 9.937e+03 5.000e-10
 43.33344    127.9 1.008e+04 5.434e-10
 43.34394    128.6 9.870e+03 4.472e-10
 43.35503    127.9 1.001e+04 4.799e-10
 43.37603    126.9 1.017e+04 5.104e-10
 43.39184    125.7 1.031e+04 5.378e-10
 43.40234    126.5 1.011e+04 4.665e-10
 43.42864    123.6 1.061e+04 6.070e-10
 43.45043    119.8 1.111e+04 7.238e-10
 43.47144    121.7 1.076e+04 6.516e-10
 43.51276    117.5 1.124e+04 7.751e-10
 43.54623    112.8 1.149e+04 8.292e-10
 43.56724    115.2 1.167e+04 9.582e-10
 43.59678    110.8 1.195e+04 1.064e-09
 43.63879    106.7 1.194e+04 1.138e-09
 43.66304    103.1 1.185e+04 1.133e-09
 43.67344    104.9 1.220e+04 1.296e-09
 43.69111    103.0 1.201e+04 1.258e-09
 43.71074    101.2 1.180e+04 1.192e-09
 43.72124    101.4 1.181e+04 1.234e-09
 43.73312     99.8 1.161e+04 1.152e-09
 43.75413     98.4 1.144e+04 1.079e-09
 43.76914     97.3 1.124e+04 1.006e-09
 43.77964     97.4 1.125e+04 1.011e-09
 43.79614     96.7 1.095e+04 9.134e-10
 43.81704     96.5 1.061e+04 8.066e-10
 43.82754     96.8 1.043e+04 7.354e-10
 43.83815     96.8 1.015e+04 6.365e-10
 43.85173     97.0 1.005e+04 5.757e-10
 43.86224     97.5 1.027e+04 6.944e-10
 43.87544     97.9 1.031e+04 6.929e-10
 43.88594     97.9 1.016e+04 6.265e-10
 43.90117     97.9 1.037e+04 6.533e-10
 43.92217     97.6 1.089e+04 7.643e-10
 43.93384     96.2 1.218e+04 1.211e-09
 43.94435     96.0 1.182e+04 1.190e-09
 43.96418     94.7 1.326e+04 2.236e-09
 43.98174     93.9 1.510e+04 4.766e-09
 43.99224     95.3 1.392e+04 3.571e-09
 44.00619     95.5 1.566e+04 6.330e-09
 44.02720     95.9 1.704e+04 9.900e-09
 44.04014     95.9 1.777e+04 1.153e-08
 44.05065     95.8 1.552e+04 4.995e-09
 44.06921     94.3 1.564e+04 5.073e-09
 44.08804     92.2 1.574e+04 5.298e-09
 44.09855     91.5 1.382e+04 2.776e-09
 44.11122     89.6 1.429e+04 3.705e-09
 44.12245     88.6 1.483e+04 4.591e-09
 44.12765     88.7 1.466e+04 4.430e-09
 44.13738     88.2 1.518e+04 5.205e-09
 44.14635     87.5 1.619e+04 6.943e-09
 44.15160     87.7 1.493e+04 5.081e-09
 44.15838     87.2 1.593e+04 7.320e-09
 44.16889     87.1 1.713e+04 1.088e-08
 44.17555     87.6 1.832e+04 1.571e-08
 44.17927     88.3 1.732e+04 1.167e-08
 44.18311     88.2 1.753e+04 1.244e-08
 44.18989     88.6 1.869e+04 1.667e-08
 44.19950     89.1 1.988e+04 2.124e-08
 44.20480     89.2 1.749e+04 1.260e-08
 44.21625     89.2 1.838e+04 1.356e-08
 44.23725     89.3 1.840e+04 1.247e-08
 44.25275     89.7 1.803e+04 8.508e-09
 44.26325     89.5 1.542e+04 4.587e-09
 44.27926     88.6 1.467e+04 2.573e-09
 44.30027     86.4 1.326e+04 1.307e-09
 44.31115     84.2 1.130e+04 8.448e-10
 44.32165     85.4 1.139e+04 7.311e-10
 44.34228     84.9 1.048e+04 6.255e-10
 44.35905     85.4 1.025e+04 6.209e-10
 44.36955     86.3 1.045e+04 5.479e-10
 44.38429     86.9 1.019e+04 5.431e-10
 44.40529     87.4 1.014e+04 5.618e-10
 44.41755     88.1 1.010e+04 6.655e-10
 44.43865     89.7 9.523e+03 3.629e-10
 44.47901     90.7 9.493e+03 3.847e-10
 44.50438     91.5 9.538e+03 4.156e-10
 44.51780     92.0 1.003e+04 5.906e-10
 44.53445     93.0 9.262e+03 3.070e-10
 44.56303     93.6 9.257e+03 3.165e-10
 44.60504     94.1 9.281e+03 3.265e-10
 44.63024     94.6 9.305e+03 3.253e-10
 44.65125     96.1 8.932e+03 2.506e-10
 44.68906     96.7 9.067e+03 2.773e-10
 44.72604     97.3 9.179e+03 2.799e-10
 44.74705     98.8 9.037e+03 2.884e-10
 44.77308     99.4 9.179e+03 3.182e-10
 44.81509     99.9 9.293e+03 3.279e-10
 44.84285    100.1 9.490e+03 3.488e-10
 44.86385    100.6 9.699e+03 4.111e-10
 44.89911    100.0 9.855e+03 4.287e-10
 44.93864     99.3 1.007e+04 4.808e-10
 44.95965     98.9 1.031e+04 5.614e-10
 44.98313     97.6 1.035e+04 5.618e-10
 45.02514     96.1 1.038e+04 5.532e-10
 45.05535     95.2 1.043e+04 5.503e-10
 45.06575     94.0 1.050e+04 5.980e-10
 45.07746     93.2 1.044e+04 5.418e-10
 45.10907     92.0 1.038e+04 4.506e-10
 45.14632     91.3 1.014e+04 3.452e-10
 45.16732     91.7 1.030e+04 3.919e-10
 45.18259     89.3 1.038e+04 3.027e-10
 45.20349     88.9 1.038e+04 2.762e-10
 45.21995     88.6 1.029e+04 2.753e-10
 45.23046     87.2 1.011e+04 3.725e-10
 45.24551     87.4 1.008e+04 3.812e-10
 45.26651     87.7 1.006e+04 4.122e-10
 45.27836     88.1 1.032e+04 4.718e-10
 45.28886     85.8 1.124e+04 7.330e-10
 45.30852     84.5 1.231e+04 1.038e-09
 45.32626     82.2 1.361e+04 1.714e-09
 45.33676     77.7 1.526e+04 3.375e-09
 45.34523     77.0 1.565e+04 4.028e-09
 45.35536     76.2 1.610e+04 4.756e-09
 45.36061     74.4 1.713e+04 6.020e-09
 45.36619     73.4 1.764e+04 7.523e-09
 45.37669     72.8 1.788e+04 8.615e-09
 45.38456     72.2 1.814e+04 9.376e-09
 45.39511     70.7 1.728e+04 7.991e-09
 45.41355     69.3 1.667e+04 6.778e-09
 45.43256     67.1 1.582e+04 5.127e-09
 45.44306     64.9 1.434e+04 3.554e-09
 45.45556     62.9 1.371e+04 2.922e-09
 45.47656     61.7 1.333e+04 2.661e-09
 45.48810     61.2 1.326e+04 2.618e-09
 45.49199     60.0 1.361e+04 3.298e-09
 45.50146     60.3 1.286e+04 2.303e-09
 45.51857     60.4 1.307e+04 2.660e-09
 45.53886     60.8 1.336e+04 3.157e-09
 45.54936     61.3 1.283e+04 2.279e-09
 45.56058     62.0 1.309e+04 2.642e-09
 45.58159     62.9 1.328e+04 2.815e-09
 45.59726     63.6 1.331e+04 2.809e-09
 45.60776     63.7 1.276e+04 1.997e-09
 45.62360     64.1 1.274e+04 1.960e-09
 45.65521     65.1 1.225e+04 1.581e-09
 45.69325     66.4 1.187e+04 1.353e-09
 45.71426     67.2 1.096e+04 8.228e-10
 45.73933     68.7 1.067e+04 6.726e-10
 45.78134     70.1 1.052e+04 5.874e-10
 45.80927     71.6 1.054e+04 5.839e-10
 45.81698     70.7 1.046e+04 5.452e-10
 45.83106     70.8 9.987e+03 3.706e-10
 45.86536     71.7 1.044e+04 5.395e-10
 45.90585     72.6 1.117e+04 8.912e-10
 45.92686     72.7 1.110e+04 8.785e-10
 45.94938     73.7 1.170e+04 1.265e-09
 45.99139     74.3 1.182e+04 1.301e-09
 46.02266     74.9 1.170e+04 1.134e-09
 46.04366     74.9 1.117e+04 6.888e-10
 46.07541     75.1 1.070e+04 3.946e-10
 46.11742     75.0 1.025e+04 2.928e-10
 46.13946     75.2 1.023e+04 3.090e-10
 46.16047     74.5 1.008e+04 2.740e-10
 46.20144     74.8 1.053e+04 4.244e-10
 46.23526     74.7 1.119e+04 7.054e-10
 46.25626     73.8 1.177e+04 9.996e-10
 46.28546     73.3 1.241e+04 1.430e-09
 46.32747     72.3 1.268e+04 1.631e-09
 46.35206     70.7 1.260e+04 1.577e-09
 46.36247     70.4 1.271e+04 1.692e-09
 46.37979     69.7 1.265e+04 1.636e-09
 46.39977     68.9 1.252e+04 1.525e-09
 46.41027     68.3 1.246e+04 1.487e-09
 46.42180     67.6 1.226e+04 1.363e-09
 46.44776     67.2 1.218e+04 1.285e-09
 46.46657     66.6 1.180e+04 9.929e-10
 46.47222     67.1 1.153e+04 8.895e-10
 46.49552     66.3 1.133e+04 6.791e-10
 46.53753     65.1 1.114e+04 4.754e-10
 46.56466     63.6 1.102e+04 3.299e-10
 46.58567     62.7 1.110e+04 4.516e-10
 46.62155     61.5 1.105e+04 4.489e-10
 46.66046     61.2 1.089e+04 4.298e-10
 46.68147     61.4 1.100e+04 5.261e-10
 46.70557     61.7 1.063e+04 3.927e-10
 46.74758     62.3 1.017e+04 2.442e-10
 46.77726     63.0 9.780e+03 1.386e-10
 46.79827     63.6 9.749e+03 1.001e-10
 46.83160     63.9 9.535e+03 5.953e-11
 46.87306     64.4 9.354e+03 5.138e-11
 46.89407     64.9 9.319e+03 5.023e-11
 46.91562     66.3 9.267e+03 5.003e-11
 46.95763     67.8 9.212e+03 5.000e-11
 46.98987     69.5 9.150e+03 4.993e-11
 47.01087     70.5 9.161e+03 4.719e-11
 47.04165     72.1 9.123e+03 4.550e-11
 47.08366     73.6 9.078e+03 4.433e-11
 47.10667     75.0 9.030e+03 4.372e-11
 47.11616     75.9 9.065e+03 3.800e-11
 47.13516     76.3 9.024e+03 3.459e-11
 47.16769     77.7 8.965e+03 3.578e-11
 47.20247     79.1 8.923e+03 3.828e-11
 47.22347     79.9 8.927e+03 3.584e-11
 47.25171     81.3 8.931e+03 4.061e-11
 47.29372     82.6 8.938e+03 4.754e-11
 47.31927     83.9 8.977e+03 5.660e-11
 47.34028     84.7 9.039e+03 5.804e-11
 47.37774     86.0 9.078e+03 7.034e-11
 47.41507     87.4 9.119e+03 8.198e-11
 47.43607     88.3 9.182e+03 8.177e-11
 47.46176     89.4 9.182e+03 8.151e-11
 47.50377     90.6 9.145e+03 7.863e-11
 47.53187     91.7 9.066e+03 7.057e-11
 47.55288     92.6 9.070e+03 6.033e-11
 47.58779     93.6 8.995e+03 4.877e-11
 47.62767     94.5 8.926e+03 3.940e-11
 47.64868     95.1 8.876e+03 3.597e-11
 47.67181     96.1 8.791e+03 3.535e-11
 47.71382     97.2 8.795e+03 3.595e-11
 47.74447     98.3 8.806e+03 4.012e-11
 47.76548     99.0 8.863e+03 4.723e-11
 47.77711    100.3 8.878e+03 6.308e-11
 47.79811    100.5 8.828e+03 5.732e-11
 47.83986    101.9 8.888e+03 7.716e-11
 47.86128    103.3 8.982e+03 1.020e-10
 47.88228    104.2 9.030e+03 1.059e-10
 47.92388    105.6 9.131e+03 1.240e-10
 47.95708    106.9 9.242e+03 1.334e-10
 47.97808    107.5 9.224e+03 1.193e-10
 48.00790    108.5 9.275e+03 1.204e-10
 48.04991    109.4 9.279e+03 1.204e-10
 48.07388    110.4 9.280e+03 1.199e-10
 48.09488    111.1 9.263e+03 1.194e-10
 48.13393    112.1 9.301e+03 1.190e-10
 48.16968    113.1 9.309e+03 1.180e-10
 48.19068    113.9 9.330e+03 1.326e-10
 48.21795    115.0 9.379e+03 1.321e-10
 48.25996    116.1 9.408e+03 1.289e-10
 48.28648    117.2 9.424e+03 1.225e-10
 48.30749    118.1 9.554e+03 1.593e-10
 48.34398    119.1 9.573e+03 1.534e-10
 48.38228    120.2 9.575e+03 1.511e-10
 48.40328    120.9 9.706e+03 1.958e-10
 48.41905    122.0 9.715e+03 1.982e-10
 48.44005    122.4 9.796e+03 2.339e-10
 48.47001    123.3 9.828e+03 2.397e-10
 48.49908    124.2 9.938e+03 2.690e-10
 48.52009    124.7 1.008e+04 3.038e-10
 48.55404    125.5 1.031e+04 3.639e-10
 48.59488    126.1 1.054e+04 4.012e-10
 48.61589    126.2 1.059e+04 3.533e-10
 48.63806    126.4 1.059e+04 3.461e-10
 48.68007    126.6 1.055e+04 3.079e-10
 48.71168    126.9 1.040e+04 2.429e-10
 48.73269    126.7 1.028e+04 2.382e-10
 48.76409    127.3 1.008e+04 1.999e-10
 48.80610    128.1 9.903e+03 1.836e-10
 48.82849    129.2 9.881e+03 1.836e-10
 48.84949    129.7 9.916e+03 1.991e-10
 48.89012    131.0 9.918e+03 2.000e-10
 48.92428    132.6 9.948e+03 2.070e-10
 48.94529    133.0 9.902e+03 1.973e-10
 48.97414    134.6 1.000e+04 2.183e-10
 49.01615    136.2 1.028e+04 2.684e-10
 49.04109    137.4 1.060e+04 3.407e-10
 49.06209    137.6 1.051e+04 2.684e-10
 49.08200    138.6 1.076e+04 3.419e-10
 49.10300    138.5 1.070e+04 3.350e-10
 49.13158    138.8 1.078e+04 3.719e-10
 49.14719    139.3 1.085e+04 4.165e-10
 49.15779    139.4 1.084e+04 3.459e-10
 49.17359    139.7 1.092e+04 4.036e-10
 49.19450    140.3 1.105e+04 4.986e-10
 49.20560    141.0 1.123e+04 6.307e-10
 49.21610    141.1 1.111e+04 5.168e-10
 49.23651    141.6 1.130e+04 6.303e-10
 49.25349    142.1 1.148e+04 7.566e-10
 49.26400    142.1 1.129e+04 6.304e-10
 49.27852    142.6 1.152e+04 7.606e-10
 49.29953    143.0 1.178e+04 9.347e-10
 49.31190    143.1 1.212e+04 1.208e-09
 49.32240    143.0 1.191e+04 1.039e-09
 49.34154    143.1 1.233e+04 1.389e-09
 49.35980    143.2 1.295e+04 1.967e-09
 49.37030    143.4 1.250e+04 1.401e-09
 49.38355    143.4 1.325e+04 1.860e-09
 49.40277    142.9 1.422e+04 2.620e-09
 49.41328    142.6 1.393e+04 1.850e-09
 49.41820    141.7 1.484e+04 2.728e-09
 49.42870    141.0 1.343e+04 1.283e-09
 49.44657    139.8 1.403e+04 1.802e-09
 49.46610    138.5 1.447e+04 2.492e-09
 49.47660    138.4 1.318e+04 1.243e-09
 49.48858    137.3 1.355e+04 1.617e-09
 49.50958    136.3 1.369e+04 1.990e-09
 49.52450    135.2 1.368e+04 2.329e-09
 49.53500    135.2 1.310e+04 1.522e-09
 49.55159    134.0 1.313e+04 1.994e-09
 49.57240    132.9 1.332e+04 2.711e-09
 49.58290    132.9 1.298e+04 2.239e-09
 49.59360    132.6 1.355e+04 3.529e-09
 49.61461    132.7 1.434e+04 5.212e-09
 49.63080    132.7 1.517e+04 7.014e-09
 49.64130    132.8 1.504e+04 6.871e-09
 49.65662    132.5 1.552e+04 7.425e-09
 49.67762    131.7 1.553e+04 7.073e-09
 49.68920    130.7 1.538e+04 5.718e-09
 49.69970    129.9 1.532e+04 5.675e-09
 49.71963    128.1 1.482e+04 4.510e-09
 49.73425    126.0 1.420e+04 3.676e-09
 49.74121    127.1 1.454e+04 4.098e-09
 49.74760    126.4 1.434e+04 3.773e-09
 49.76164    124.6 1.384e+04 3.381e-09
 49.78265    123.1 1.359e+04 3.205e-09
 49.79550    121.9 1.346e+04 3.099e-09
 49.80600    121.7 1.319e+04 2.689e-09
 49.82466    121.0 1.300e+04 2.510e-09
 49.84340    120.6 1.275e+04 2.250e-09
 49.85390    120.4 1.225e+04 1.697e-09
 49.86667    120.2 1.203e+04 1.505e-09
 49.89140    119.8 1.194e+04 1.455e-09
 49.91250    119.6 1.088e+04 8.259e-10
 49.94039    119.8 1.055e+04 6.702e-10
 49.98240    120.2 1.040e+04 5.953e-10
 50.00830    120.8 1.036e+04 5.658e-10
 50.02930    122.0 9.596e+03 3.205e-10
 50.06642    122.9 9.640e+03 3.294e-10
 50.10410    123.9 9.621e+03 3.327e-10
 50.12510    125.7 9.229e+03 2.630e-10
 50.15044    126.8 9.339e+03 2.792e-10
 50.19245    127.9 9.427e+03 2.916e-10
 50.22090    128.7 9.504e+03 3.069e-10
 50.24190    130.4 9.488e+03 3.058e-10
 50.27647    130.6 9.562e+03 3.275e-10
 50.30788    130.9 9.657e+03 3.719e-10
 50.32700    130.5 9.973e+03 4.904e-10
 50.33751    131.3 1.014e+04 5.040e-10
 50.34979    129.8 1.097e+04 8.093e-10
 50.37080    128.3 1.210e+04 1.494e-09
 50.38541    127.3 1.314e+04 2.651e-09
 50.39080    127.6 1.354e+04 3.065e-09
 50.39720    127.5 1.397e+04 3.805e-09
 50.41281    127.3 1.470e+04 5.183e-09
 50.43331    126.4 1.479e+04 5.165e-09
 50.44381    126.9 1.519e+04 5.941e-09
 50.45482    126.1 1.493e+04 4.881e-09
 50.47582    125.0 1.413e+04 2.595e-09
 50.49171    123.2 1.282e+04 1.186e-09
 50.50221    123.6 1.295e+04 1.158e-09
 50.52844    119.1 1.045e+04 4.278e-10
 50.55030    114.1 9.263e+03 3.544e-10
 50.57131    114.2 9.163e+03 3.358e-10
 50.61255    112.8 9.158e+03 3.633e-10
 50.64610    112.2 9.507e+03 5.109e-10
 50.66711    112.6 9.317e+03 4.256e-10
 50.69658    111.9 9.764e+03 5.959e-10
 50.73859    111.0 9.912e+03 6.360e-10
 50.76291    110.1 9.812e+03 5.933e-10
 50.78391    109.8 9.778e+03 6.106e-10
 50.82261    109.2 9.496e+03 5.226e-10
 50.85870    108.8 8.977e+03 3.740e-10
 50.87971    108.6 9.545e+03 5.894e-10
 50.90663    107.8 9.927e+03 5.323e-10
 50.94864    106.2 1.053e+04 5.637e-10
 50.97551    103.9 1.124e+04 6.497e-10
 50.98591    103.0 1.221e+04 1.021e-09
 51.00096    101.9 1.234e+04 1.141e-09
 51.02196    100.9 1.236e+04 1.371e-09
 51.03371    100.1 1.233e+04 1.615e-09
 51.04039     99.8 1.285e+04 2.795e-09
 51.04964    100.1 1.257e+04 1.922e-09
 51.06397     99.5 1.255e+04 2.265e-09
 51.08161     99.2 1.254e+04 2.414e-09
 51.09211     99.0 1.303e+04 3.099e-09
 51.10598     98.7 1.292e+04 2.815e-09
 51.12699     98.4 1.269e+04 2.370e-09
 51.15859     97.4 1.210e+04 1.618e-09
 51.18811     95.9 1.099e+04 8.718e-10
 51.20911     93.9 1.021e+04 6.575e-10
 51.24271     92.5 9.509e+03 4.425e-10
 51.28391     92.0 9.510e+03 4.391e-10
 51.30491     91.3 9.514e+03 4.016e-10
 51.32673     91.3 9.595e+03 4.520e-10
 51.36875     91.6 9.838e+03 5.413e-10
 51.40071     91.7 1.006e+04 5.896e-10
 51.42172     90.9 9.824e+03 4.648e-10
 51.45277     90.4 9.854e+03 4.439e-10
 51.49478     89.6 9.796e+03 3.917e-10
 51.51751     88.8 9.673e+03 3.486e-10
 51.53852     87.9 9.527e+03 3.152e-10
 51.57880     87.3 9.553e+03 3.050e-10
 51.61331     86.4 9.601e+03 3.140e-10
 51.63432     85.8 9.657e+03 3.301e-10
 51.66282     84.3 9.774e+03 3.570e-10
 51.69178     82.3 9.982e+03 4.223e-10
 51.71279     81.5 9.973e+03 4.010e-10
 51.73011     79.5 1.058e+04 6.723e-10
 51.75112     79.1 1.100e+04 9.035e-10
 51.78885     77.5 1.122e+04 9.876e-10
 51.82591     76.1 1.112e+04 9.202e-10
 51.84692     75.6 1.093e+04 7.262e-10
 51.87287     74.5 1.038e+04 4.386e-10
 51.91488     72.8 9.763e+03 2.511e-10
 51.94272     71.1 9.236e+03 1.846e-10
 51.96372     70.1 9.361e+03 2.057e-10
 51.99890     69.7 9.336e+03 2.182e-10
 52.03851     69.5 9.330e+03 2.474e-10
 52.05952     69.1 9.545e+03 3.469e-10
 52.08293     69.3 9.533e+03 3.490e-10
 52.12494     69.4 9.468e+03 3.242e-10
 52.15532     69.3 9.371e+03 2.867e-10
 52.17632     69.0 9.387e+03 2.961e-10
 52.20896     68.9 9.270e+03 2.595e-10
 52.25097     68.9 9.197e+03 2.377e-10
 52.29298     68.7 9.035e+03 1.956e-10
 52.33372     68.6 8.984e+03 1.776e-10
 52.35473     67.7 8.859e+03 1.659e-10
 52.36792     67.2 8.839e+03 1.553e-10
 52.38892     66.8 8.820e+03 1.496e-10
 52.41901     66.2 8.864e+03 1.529e-10
 52.46102     65.3 8.954e+03 1.608e-10
 52.48472     63.8 9.163e+03 1.863e-10
 52.50573     63.0 9.365e+03 2.428e-10
 52.54504     61.2 9.634e+03 3.122e-10
 52.58052     59.6 9.967e+03 3.917e-10
 52.60143     58.8 1.021e+04 4.573e-10
 52.61837     57.3 1.050e+04 5.383e-10
 52.63873     55.6 1.071e+04 6.091e-10
 52.64923     55.0 1.072e+04 6.244e-10
 52.66038     52.5 1.108e+04 7.019e-10
 52.67550     49.2 1.156e+04 8.409e-10
 52.68601     49.7 1.145e+04 7.813e-10
 52.69713     45.5 1.202e+04 1.065e-09
 52.71823     44.9 1.162e+04 1.098e-09
 52.75510     40.7 1.155e+04 1.145e-09
 52.79312     38.0 1.109e+04 9.257e-10
 52.81413     38.4 1.093e+04 8.582e-10
 52.83912     36.0 1.033e+04 5.529e-10
 52.88113     33.4 9.764e+03 3.473e-10
 52.90993     31.6 9.411e+03 3.044e-10
 52.93093     32.9 9.766e+03 4.373e-10
 52.96515     32.6 9.547e+03 3.997e-10
 52.99667     32.6 9.387e+03 3.374e-10
 53.01624     33.1 9.489e+03 3.583e-10
 53.02673     34.4 9.493e+03 3.774e-10
 53.04917     34.3 9.501e+03 3.507e-10
 53.09118     33.8 9.675e+03 3.763e-10
 53.12253     32.6 1.031e+04 5.477e-10
 53.14353     34.2 1.016e+04 5.114e-10
 53.17520     33.5 1.106e+04 9.224e-10
 53.21721     33.2 1.156e+04 1.254e-09
 53.23933     33.0 1.151e+04 1.184e-09
 53.26034     34.5 1.183e+04 1.399e-09
 53.30123     34.0 1.163e+04 1.205e-09
 53.33513     33.3 1.120e+04 8.162e-10
 53.35613     35.0 1.140e+04 1.056e-09
 53.38525     34.7 1.081e+04 6.626e-10
 53.42726     34.1 1.032e+04 4.145e-10
 53.45193     33.8 9.980e+03 3.194e-10
 53.47294     35.3 9.748e+03 2.522e-10
 53.51129     35.5 9.316e+03 2.254e-10
 53.54773     36.3 9.162e+03 2.019e-10
 53.56874     38.2 9.097e+03 1.973e-10
 53.59531     39.4 9.041e+03 1.815e-10
 53.63732     40.1 9.200e+03 1.904e-10
 53.65962     40.5 9.745e+03 2.504e-10
 53.66583     41.0 1.010e+04 3.958e-10
 53.68554     43.5 9.680e+03 2.738e-10
 53.72134     44.0 1.003e+04 3.416e-10
 53.76033     44.6 1.021e+04 3.956e-10
 53.78134     46.9 9.999e+03 3.520e-10
 53.80536     47.5 1.004e+04 3.654e-10
 53.84737     48.1 9.994e+03 3.341e-10
 53.87713     48.5 9.816e+03 2.735e-10
 53.89814     51.2 9.796e+03 3.093e-10
 53.93139     51.4 9.619e+03 2.279e-10
 53.97293     51.6 9.357e+03 2.059e-10
 53.99394     53.9 9.414e+03 1.875e-10
 54.01541     54.1 9.201e+03 1.857e-10
 54.05742     54.8 9.108e+03 1.942e-10
 54.08974     55.9 9.050e+03 1.931e-10
 54.11074     57.5 9.030e+03 1.889e-10
 54.14145     58.7 8.983e+03 1.850e-10
 54.18346     59.8 8.929e+03 1.703e-10
 54.20654     60.7 8.926e+03 1.695e-10
 54.22754     62.4 8.981e+03 1.856e-10
 54.26748     63.1 9.156e+03 2.203e-10
 54.30156     64.1 9.407e+03 2.848e-10
 54.31542     63.9 9.778e+03 3.971e-10
 54.32325     65.3 9.778e+03 4.040e-10
 54.34080     65.8 9.862e+03 4.543e-10
 54.36054     66.2 9.938e+03 4.827e-10
 54.37105     66.8 1.006e+04 5.555e-10
 54.38281     67.6 1.020e+04 5.872e-10
 54.40382     68.1 1.022e+04 5.846e-10
 54.41904     68.7 1.016e+04 5.545e-10
 54.44015     70.1 1.088e+04 8.815e-10
 54.47753     71.1 1.045e+04 6.895e-10
 54.51494     72.0 9.823e+03 4.762e-10
 54.53594     73.5 1.042e+04 7.219e-10
 54.56155     74.5 9.693e+03 4.570e-10
 54.60356     75.7 9.119e+03 2.900e-10
 54.63174     76.9 8.761e+03 2.033e-10
 54.65275     78.2 8.837e+03 2.188e-10
 54.68758     79.3 8.448e+03 1.624e-10
 54.72754     80.9 8.294e+03 1.551e-10
 54.74855     81.9 8.302e+03 1.565e-10
 54.77160     83.7 8.286e+03 1.572e-10
 54.81361     85.6 8.289e+03 1.657e-10
 54.84434     87.4 8.379e+03 1.926e-10
 54.86535     88.3 8.410e+03 1.991e-10
 54.89764     89.9 8.629e+03 2.580e-10
 54.93965     91.6 8.931e+03 3.440e-10
 54.96115     93.1 9.230e+03 4.370e-10
 54.96501     93.7 9.528e+03 5.438e-10
 54.98552     93.3 9.471e+03 5.230e-10
 55.02367     94.5 9.682e+03 5.837e-10
 55.05695     95.3 9.681e+03 5.740e-10
 55.07795     95.2 9.689e+03 5.753e-10
 55.10769     95.7 9.474e+03 4.742e-10
 55.14970     95.4 9.196e+03 3.624e-10
 55.17375     94.7 9.172e+03 3.384e-10
 55.19475     93.7 8.823e+03 2.608e-10
 55.23372     92.6 8.881e+03 2.711e-10
 55.26955     91.3 9.126e+03 3.218e-10
 55.29055     90.8 8.742e+03 2.409e-10
 55.31774     89.5 8.952e+03 2.876e-10
 55.35975     88.4 9.085e+03 3.181e-10
 55.38635     87.3 9.082e+03 3.112e-10
 55.40736     87.9 9.088e+03 3.084e-10
 55.44377     87.2 9.092e+03 2.981e-10
 55.48215     86.7 9.160e+03 2.930e-10
 55.50315     87.3 9.342e+03 3.419e-10
 55.52779     86.9 9.489e+03 3.643e-10
 55.56981     86.8 9.752e+03 4.170e-10
 55.59885     86.8 9.873e+03 4.338e-10
 55.60926     87.2 9.869e+03 4.410e-10
 55.61676     87.1 9.982e+03 4.603e-10
 55.62736     88.2 9.663e+03 3.616e-10
 55.65383     87.8 9.925e+03 4.121e-10
 55.69475     87.5 1.015e+04 4.935e-10
 55.71576     88.4 1.032e+04 5.340e-10
 55.73785     87.8 1.058e+04 6.492e-10
 55.77986     87.0 1.079e+04 7.194e-10
 55.81127     86.6 1.072e+04 6.756e-10
 55.82186     86.3 1.062e+04 6.092e-10
 55.83246     87.2 1.069e+04 6.264e-10
 55.85328     86.2 1.051e+04 5.000e-10
 55.86976     85.4 1.053e+04 4.725e-10
 55.88026     85.7 1.037e+04 4.218e-10
 55.89519     84.8 1.042e+04 4.191e-10
 55.91620     83.7 1.060e+04 4.379e-10
 55.92816     82.5 1.086e+04 5.049e-10
 55.93866     83.2 1.047e+04 3.880e-10
 55.94824     82.3 1.067e+04 4.427e-10
 55.95874     81.5 1.127e+04 6.956e-10
 55.97606     80.5 1.150e+04 8.934e-10
 55.98656     81.4 1.118e+04 6.738e-10
 56.00022     80.6 1.134e+04 8.485e-10
 56.02122     80.1 1.150e+04 1.030e-09
 56.03446     79.6 1.175e+04 1.210e-09
 56.04496     80.3 1.135e+04 9.099e-10
 56.06323     79.7 1.158e+04 1.057e-09
 56.08236     78.9 1.189e+04 1.211e-09
 56.09286     79.7 1.143e+04 8.965e-10
 56.10525     78.5 1.180e+04 1.065e-09
 56.12625     77.0 1.231e+04 1.311e-09
 56.14076     75.6 1.282e+04 1.656e-09
 56.15127     76.0 1.235e+04 1.287e-09
 56.16826     74.9 1.274e+04 1.617e-09
 56.18866     73.9 1.287e+04 1.699e-09
 56.19916     74.3 1.254e+04 1.514e-09
 56.21027     73.4 1.252e+04 1.494e-09
 56.23128     72.5 1.230e+04 1.339e-09
 56.24706     71.4 1.192e+04 1.095e-09
 56.25757     72.3 1.194e+04 1.133e-09
 56.26930     72.2 1.159e+04 8.229e-10
 56.27981     70.9 1.111e+04 6.916e-10
 56.29429     70.2 1.079e+04 5.212e-10
 56.30547     67.5 1.068e+04 4.091e-10
 56.31597     69.1 1.059e+04 4.089e-10
 56.33630     67.9 1.016e+04 3.539e-10
 56.35336     66.0 1.045e+04 4.015e-10
 56.36387     67.8 1.021e+04 3.504e-10
 56.37831     67.3 1.009e+04 3.601e-10
 56.39932     66.5 1.018e+04 4.195e-10
 56.41177     65.5 1.098e+04 5.977e-10
 56.42227     67.4 1.009e+04 4.429e-10
 56.44133     66.5 1.116e+04 6.393e-10
 56.45967     65.7 1.254e+04 1.026e-09
 56.47017     67.7 1.130e+04 6.720e-10
 56.48334     67.1 1.243e+04 1.016e-09
 56.50435     67.1 1.304e+04 1.445e-09
 56.51807     67.2 1.340e+04 2.132e-09
 56.52857     68.5 1.271e+04 1.373e-09
 56.54636     69.0 1.295e+04 1.817e-09
 56.56597     69.9 1.304e+04 2.185e-09
 56.58707     72.1 1.263e+04 1.676e-09
 56.62007     73.1 1.251e+04 1.718e-09
 56.66196     74.4 1.213e+04 1.440e-09
 56.70397     78.1 1.162e+04 1.126e-09
 56.74610     79.8 1.150e+04 1.076e-09
 56.77876     81.7 1.151e+04 1.080e-09
 56.79977     83.7 1.132e+04 9.761e-10
 56.83012     85.9 1.147e+04 1.054e-09
 56.87213     88.5 1.150e+04 1.027e-09
 56.89547     90.5 1.139e+04 9.655e-10
 56.90587     91.6 1.135e+04 9.396e-10
 56.92165     92.7 1.135e+04 9.321e-10
 56.93216     92.8 1.122e+04 8.857e-10
 56.94327     94.0 1.122e+04 8.911e-10
 56.95377     95.1 1.123e+04 8.912e-10
 56.96646     96.3 1.122e+04 8.885e-10
 56.98747     97.6 1.119e+04 8.746e-10
 57.00167     98.9 1.117e+04 8.386e-10
 57.01217     99.9 1.118e+04 8.622e-10
 57.02948    101.3 1.119e+04 8.430e-10
 57.04957    102.5 1.118e+04 7.995e-10
 57.06007    103.5 1.121e+04 8.366e-10
 57.07149    104.8 1.125e+04 8.214e-10
 57.09249    106.2 1.129e+04 8.220e-10
 57.10797    107.4 1.139e+04 8.369e-10
 57.11847    108.5 1.138e+04 8.322e-10
 57.13451    109.7 1.152e+04 8.591e-10
 57.15551    111.0 1.166e+04 9.095e-10
 57.16637    112.3 1.185e+04 1.006e-09
 57.17688    113.4 1.175e+04 8.944e-10
 57.19752    114.7 1.202e+04 1.001e-09
 57.21427    116.0 1.236e+04 1.179e-09
 57.22478    117.1 1.211e+04 9.490e-10
 57.23953    118.3 1.251e+04 1.124e-09
 57.25313    119.5 1.294e+04 1.394e-09
 57.26363    120.1 1.296e+04 1.732e-09
 57.27267    121.4 1.334e+04 2.153e-09
 57.28318    122.3 1.342e+04 1.862e-09
 57.30255    123.4 1.395e+04 2.409e-09
 57.32057    124.6 1.438e+04 3.105e-09
 57.33108    125.1 1.450e+04 2.706e-09
 57.34456    126.5 1.517e+04 3.739e-09
 57.36556    127.9 1.594e+04 5.011e-09
 57.37893    128.3 1.648e+04 5.540e-09
 57.38413    128.8 1.651e+04 5.195e-09
 57.39172    129.1 1.671e+04 5.394e-09
 57.40223    129.4 1.712e+04 5.864e-09
 57.40808    129.7 1.747e+04 6.411e-09
 57.41333    130.0 1.723e+04 5.749e-09
 57.41877    130.3 1.760e+04 6.254e-09
 57.42402    131.5 1.789e+04 7.647e-09
 57.43203    131.7 1.831e+04 8.315e-09
 57.43728    132.2 1.810e+04 7.437e-09
 57.44424    132.0 1.883e+04 8.266e-09
 57.45474    130.5 2.016e+04 9.833e-09
 57.46123    128.0 2.160e+04 1.238e-08
 57.46648    129.1 2.117e+04 1.042e-08
 57.47574    126.6 2.261e+04 1.334e-08
 57.48518    124.6 2.115e+04 1.688e-08
 57.49043    125.3 2.121e+04 1.498e-08
 57.49675    123.5 2.080e+04 1.527e-08
 57.50725    122.0 2.007e+04 1.511e-08
 57.51438    120.8 1.944e+04 1.390e-08
 57.51963    120.9 1.921e+04 1.342e-08
 57.52826    119.0 1.962e+04 1.183e-08
 57.53833    114.1 2.130e+04 1.129e-08
 57.54358    111.7 2.282e+04 1.291e-08
 57.54926    100.2 2.778e+04 1.548e-08
 57.55976     89.8 2.569e+04 1.838e-08
 57.56753     82.4 2.250e+04 2.238e-08
 57.57278     79.8 2.313e+04 3.275e-08
 57.57925     76.1 2.230e+04 5.473e-08
 57.58450     77.2 2.349e+04 4.669e-08
 57.59127     74.8 2.386e+04 8.459e-08
 57.59673     70.7 2.587e+04 1.276e-07
 57.59933     65.4 2.728e+04 1.733e-07
 57.60435     65.0 2.745e+04 1.748e-07
 57.60866     58.9 2.840e+04 1.904e-07
 57.61128     55.5 2.813e+04 2.280e-07
 57.61485     54.4 2.798e+04 2.251e-07
 57.62011     47.5 2.875e+04 1.907e-07
 57.62326     45.9 2.894e+04 1.887e-07
 57.62591     36.9 2.807e+04 2.993e-07
 57.63328     29.8 2.874e+04 1.481e-07
 57.64379     24.5 2.870e+04 7.029e-08
 57.64988     21.3 2.845e+04 3.669e-08
 57.65513     17.5 2.777e+04 2.640e-08
 57.66479     14.0 2.522e+04 1.233e-08
 57.68059      6.7 1.902e+04 5.361e-09
 57.69788      4.2 1.397e+04 2.247e-09
 57.70838      3.8 1.319e+04 1.623e-09
 57.72265      4.4 1.224e+04 1.140e-09
 57.74366      6.4 1.159e+04 8.369e-10
 57.75628      7.7 1.099e+04 6.197e-10
 57.76678      7.9 1.069e+04 5.129e-10
 57.78567      9.2 1.031e+04 4.160e-10
 57.80418     10.4 1.007e+04 3.641e-10
 57.81468     10.7 9.986e+03 3.434e-10
 57.82768     11.9 9.862e+03 3.268e-10
 57.84869     13.0 9.787e+03 3.224e-10
 57.86258     14.2 9.820e+03 3.359e-10
 57.87308     14.7 9.854e+03 3.401e-10
 57.89070     15.6 1.001e+04 3.779e-10
 57.90557     16.0 1.027e+04 4.360e-10
 57.91485     14.5 1.068e+04 5.264e-10
 57.92098     14.5 1.111e+04 6.272e-10
 57.93271     13.9 1.197e+04 9.482e-10
 57.95371     13.0 1.284e+04 1.518e-09
 57.96888     12.4 1.362e+04 2.407e-09
 57.97938     12.7 1.417e+04 3.175e-09
 57.99572     12.6 1.500e+04 4.672e-09
 58.01673     12.5 1.574e+04 5.917e-09
 58.03243     12.3 1.604e+04 6.540e-09
 58.04289     11.9 1.610e+04 6.533e-09
 58.05113     10.9 1.595e+04 6.016e-09
 58.05639     11.0 1.607e+04 6.148e-09
 58.06389     10.5 1.621e+04 5.906e-09
 58.07513      7.7 1.568e+04 4.683e-09
 58.08568      5.9 1.606e+04 4.739e-09
 58.10075     -0.2 1.525e+04 3.302e-09
 58.12175     -7.6 1.401e+04 2.339e-09
 58.13358    -13.4 1.301e+04 1.893e-09
 58.14409    -17.4 1.315e+04 2.189e-09
 58.16376    -19.6 1.267e+04 1.938e-09
 58.18148    -20.9 1.207e+04 1.497e-09
 58.19198    -22.9 1.184e+04 1.386e-09
 58.20578    -24.0 1.112e+04 9.308e-10
 58.22654    -25.1 1.062e+04 6.153e-10
 58.23705    -25.4 1.076e+04 6.378e-10
 58.23988    -26.7 1.038e+04 4.154e-10
 58.25039    -29.4 1.009e+04 3.101e-10
 58.26879    -30.5 9.619e+03 2.359e-10
 58.28788    -30.7 9.430e+03 2.144e-10
 58.30898    -34.1 9.061e+03 1.975e-10
 58.34251    -33.9 8.809e+03 1.656e-10
 58.38378    -33.8 8.759e+03 1.536e-10
 58.40478    -35.3 8.907e+03 1.783e-10
 58.42653    -35.3 9.076e+03 1.970e-10
 58.46854    -35.5 9.398e+03 2.399e-10
 58.50058    -35.8 9.843e+03 3.236e-10
 58.52159    -36.9 1.011e+04 3.827e-10
 58.55256    -37.0 1.050e+04 5.036e-10
 58.59457    -36.7 1.083e+04 6.189e-10
 58.61729    -36.9 1.083e+04 6.375e-10
 58.62769    -37.3 1.086e+04 6.552e-10
 58.64689    -36.9 1.104e+04 6.966e-10
 58.66509    -36.7 1.114e+04 7.205e-10
 58.67559    -37.2 1.124e+04 7.545e-10
 58.68890    -37.0 1.131e+04 7.828e-10
 58.70990    -36.6 1.135e+04 8.069e-10
 58.72349    -36.2 1.136e+04 8.202e-10
 58.73399    -36.2 1.134e+04 8.092e-10
 58.75191    -35.6 1.135e+04 8.138e-10
 58.77139    -34.9 1.142e+04 8.250e-10
 58.78189    -35.0 1.145e+04 8.173e-10
 58.80452    -34.7 1.147e+04 8.280e-10
 58.82998    -34.1 1.151e+04 8.306e-10
 58.85099    -35.6 1.171e+04 7.974e-10
 58.87919    -35.6 1.215e+04 9.963e-10
 58.90019    -34.1 1.190e+04 8.915e-10
 58.92578    -34.1 1.213e+04 9.355e-10
 58.94669    -35.1 1.287e+04 1.325e-09
 58.96197    -35.5 1.294e+04 1.436e-09
 58.98297    -37.8 1.420e+04 1.825e-09
 58.99449    -43.4 1.701e+04 3.449e-09
 59.00499    -46.4 1.989e+04 6.843e-09
 59.01839    -48.1 1.975e+04 8.397e-09
 59.02360    -49.2 2.108e+04 1.048e-08
 59.03014    -51.7 2.247e+04 1.631e-08
 59.04064    -53.5 2.280e+04 2.648e-08
 59.04754    -54.0 2.270e+04 3.621e-08
 59.05154    -54.9 2.288e+04 5.419e-08
 59.05513    -55.6 2.274e+04 8.831e-08
 59.06164    -55.8 2.259e+04 9.162e-08
 59.07149    -55.8 2.180e+04 7.494e-08
 59.07675    -56.1 2.156e+04 8.660e-08
 59.08265    -55.4 2.104e+04 5.211e-08
 59.09315    -54.5 2.057e+04 3.177e-08
 59.10069    -54.3 2.038e+04 2.083e-08
 59.10595    -55.2 2.042e+04 1.956e-08
 59.11416    -55.7 2.009e+04 1.320e-08
 59.12464    -57.3 1.926e+04 9.182e-09
 59.13515    -59.0 1.762e+04 6.596e-09
 59.14864    -58.9 1.713e+04 5.468e-09
 59.15919    -59.4 1.640e+04 4.669e-09
 59.17202    -60.2 1.515e+04 3.095e-09
 59.19302    -60.7 1.384e+04 2.228e-09
 59.20709    -60.6 1.294e+04 1.811e-09
 59.21403    -60.6 1.285e+04 1.715e-09
 59.22097    -62.4 1.189e+04 1.230e-09
 59.23504    -61.4 1.172e+04 1.182e-09
 59.25499    -60.4 1.166e+04 1.146e-09
 59.26550    -60.7 1.161e+04 1.024e-09
 59.27705    -59.9 1.165e+04 1.006e-09
 59.29805    -59.2 1.175e+04 9.925e-10
 59.31339    -58.7 1.186e+04 9.844e-10
 59.32390    -59.7 1.172e+04 9.093e-10
 59.34006    -59.1 1.166e+04 9.105e-10
 59.36107    -58.7 1.155e+04 9.314e-10
 59.37180    -58.1 1.158e+04 9.577e-10
 59.38230    -58.6 1.121e+04 9.134e-10
 59.40308    -57.8 1.133e+04 9.502e-10
 59.41969    -57.2 1.148e+04 1.011e-09
 59.43020    -57.6 1.113e+04 9.022e-10
 59.44509    -57.3 1.146e+04 9.868e-10
 59.46609    -57.6 1.193e+04 1.115e-09
 59.47810    -58.3 1.251e+04 1.321e-09
 59.48860    -60.7 1.306e+04 1.220e-09
 59.50810    -62.1 1.361e+04 1.561e-09
 59.52600    -63.1 1.420e+04 2.123e-09
 59.53650    -65.1 1.377e+04 1.876e-09
 59.54194    -65.6 1.418e+04 2.320e-09
 59.55244    -66.6 1.374e+04 2.243e-09
 59.57112    -67.0 1.393e+04 2.420e-09
 59.58440    -68.2 1.396e+04 2.446e-09
 59.59490    -70.1 1.319e+04 2.011e-09
 59.61313    -71.9 1.332e+04 2.048e-09
 59.63230    -75.1 1.375e+04 2.170e-09
 59.64280    -78.4 1.493e+04 2.552e-09
 59.65514    -84.4 1.716e+04 4.774e-09
 59.67615    -89.0 1.893e+04 9.689e-09
 59.69070    -92.2 2.013e+04 1.659e-08
 59.70120    -93.7 2.071e+04 2.208e-08
 59.71816    -96.6 2.096e+04 2.417e-08
 59.73860    -99.6 2.052e+04 2.139e-08
 59.74910   -101.8 2.007e+04 1.613e-08
 59.76017   -108.1 1.908e+04 8.316e-09
 59.78117   -119.4 1.935e+04 5.736e-09
 59.79700   -133.5 2.048e+04 5.460e-09
 59.80750   -135.5 1.943e+04 4.290e-09
 59.82318   -145.4 2.088e+04 9.208e-09
 59.83889   -150.0 2.047e+04 1.624e-08
 59.84934   -152.2 2.032e+04 2.055e-08
 59.85530   -154.1 2.022e+04 2.325e-08
 59.86357   -155.6 1.951e+04 1.623e-08
 59.87341   -155.5 1.978e+04 2.055e-08
 59.88620   -158.8 1.941e+04 2.038e-08
 59.90190   -160.4 1.785e+04 1.393e-08
 59.90845   -161.3 1.709e+04 1.104e-08
 59.91375   -161.4 1.721e+04 1.089e-08
 59.92821   -162.9 1.578e+04 6.877e-09
 59.94922   -164.0 1.446e+04 4.266e-09
 59.96170   -165.0 1.357e+04 2.877e-09
 59.97220   -165.9 1.344e+04 2.602e-09
 59.99123   -167.1 1.280e+04 1.903e-09
 60.00960   -168.2 1.235e+04 1.509e-09
 60.02010   -169.3 1.241e+04 1.490e-09
 60.03324   -170.1 1.232e+04 1.345e-09
 60.05424   -170.8 1.232e+04 1.319e-09
 60.06800   -171.4 1.244e+04 1.321e-09
 60.07850   -173.2 1.291e+04 1.413e-09
 60.09625   -174.1 1.315e+04 1.473e-09
 60.11590   -175.0 1.326e+04 1.527e-09
 60.12640   -177.2 1.319e+04 1.485e-09
 60.13826   -177.9 1.289e+04 1.415e-09
 60.15927   -178.4 1.271e+04 1.279e-09
 60.17430   -180.0 1.310e+04 1.210e-09
 60.18481   -184.8 1.542e+04 9.618e-10
 60.19438   -203.1 4.356e+04 7.733e-10
 60.20489   -190.2 2.792e+04 6.793e-10
 60.22220   -211.1 4.578e+04 1.510e-09
 60.23791   -225.4 2.790e+04 2.666e-08
 60.24844   -227.6 2.364e+04 6.684e-08
 60.25656   -229.2 2.236e+04 1.080e-07
 60.26181   -230.6 2.244e+04 1.238e-07
 60.26945   -232.6 2.310e+04 1.336e-07
 60.27995   -236.6 2.385e+04 1.256e-07
 60.28576   -244.1 2.683e+04 6.594e-08
 60.29101   -250.2 2.779e+04 5.352e-08
 60.30096   -262.7 2.687e+04 1.360e-08
 60.30971   -274.4 2.017e+04 4.132e-09
 60.31496   -278.9 1.847e+04 4.219e-09
 60.32196   -281.2 1.622e+04 3.355e-09
 60.33246   -281.8 1.574e+04 3.180e-09
 60.33896   -282.1 1.540e+04 3.011e-09
 60.34421   -283.4 1.591e+04 4.180e-09
 60.35347   -283.6 1.575e+04 4.163e-09
 60.36927   -284.0 1.544e+04 4.071e-09
 60.38690   -283.7 1.455e+04 3.100e-09
 60.39741   -284.1 1.517e+04 4.243e-09
 60.41133   -283.5 1.442e+04 3.269e-09
 60.43234   -282.9 1.377e+04 2.573e-09
 60.44531   -282.5 1.329e+04 2.113e-09
 60.45581   -282.8 1.391e+04 2.857e-09
 60.47435   -282.2 1.352e+04 2.455e-09
 60.49320   -281.6 1.319e+04 2.150e-09
 60.50371   -281.5 1.375e+04 2.756e-09
 60.51536   -280.7 1.340e+04 2.432e-09
 60.52586   -280.2 1.335e+04 2.376e-09
 60.53736   -279.2 1.305e+04 2.126e-09
 60.55161   -278.2 1.277e+04 1.903e-09
 60.56211   -277.7 1.323e+04 2.329e-09
 60.57937   -276.7 1.293e+04 2.071e-09
 60.59951   -276.0 1.263e+04 1.830e-09
 60.61001   -275.1 1.319e+04 2.256e-09
 60.62138   -274.4 1.266e+04 1.895e-09
 60.64239   -273.7 1.212e+04 1.530e-09
 60.65791   -273.3 1.173e+04 1.261e-09
 60.66841   -270.9 1.212e+04 1.445e-09
 60.68440   -271.7 1.244e+04 1.299e-09
 60.70541   -279.0 1.583e+04 1.185e-09
 60.71631   -290.7 2.745e+04 1.802e-09
 60.72151   -295.9 3.646e+04 2.910e-09
 60.73157   -299.9 3.088e+04 8.408e-09
 60.74016   -302.6 2.701e+04 1.772e-08
 60.74541   -307.4 2.522e+04 4.766e-08
 60.75257   -308.5 2.428e+04 4.994e-08
 60.76307   -309.6 2.362e+04 4.501e-08
 60.76936   -310.6 2.326e+04 3.641e-08
 60.77461   -314.0 2.354e+04 3.800e-08
 60.78408   -314.9 2.292e+04 2.911e-08
 60.79331   -315.7 2.230e+04 2.252e-08
 60.79856   -319.3 2.217e+04 1.823e-08
 60.80508   -320.0 2.129e+04 1.332e-08
 60.81559   -320.5 2.040e+04 9.927e-09
 60.82251   -320.8 1.952e+04 7.610e-09
 60.82776   -324.9 1.799e+04 5.051e-09
 60.83659   -325.2 1.720e+04 4.049e-09
 60.84678   -326.3 1.620e+04 3.064e-09
 60.85733   -326.6 1.676e+04 3.385e-09
 60.87051   -327.6 1.487e+04 2.160e-09
 60.88101   -330.4 1.369e+04 1.696e-09
 60.89445   -330.3 1.220e+04 1.164e-09
 60.91546   -329.8 1.156e+04 9.287e-10
 60.92891   -329.2 1.139e+04 8.261e-10
 60.93941   -330.1 1.155e+04 9.044e-10
 60.95747   -329.1 1.144e+04 8.694e-10
 60.97681   -328.1 1.134e+04 8.473e-10
 60.98731   -328.6 1.134e+04 8.734e-10
 60.99948   -327.6 1.127e+04 8.572e-10
 61.02049   -326.5 1.124e+04 8.508e-10
 61.03521   -325.5 1.123e+04 8.496e-10
 61.04571   -325.9 1.114e+04 8.427e-10
 61.06250   -325.0 1.114e+04 8.407e-10
 61.08311   -324.3 1.121e+04 8.602e-10
 61.09361   -324.7 1.108e+04 7.910e-10
 61.10451   -324.2 1.123e+04 8.272e-10
 61.12551   -323.9 1.143e+04 8.858e-10
 61.14151   -323.8 1.163e+04 9.647e-10
 61.15201   -324.0 1.136e+04 8.512e-10
 61.16752   -323.9 1.151e+04 9.127e-10
 61.17830   -323.8 1.164e+04 9.811e-10
 61.18881   -325.1 1.169e+04 1.009e-09
 61.19991   -325.0 1.184e+04 1.098e-09
 61.21042   -324.7 1.153e+04 9.295e-10
 61.23054   -324.5 1.161e+04 9.713e-10
 61.24781   -324.4 1.171e+04 1.014e-09
 61.25832   -323.9 1.138e+04 8.452e-10
 61.27255   -323.7 1.146e+04 8.686e-10
 61.29355   -323.6 1.162e+04 9.162e-10
 61.30621   -323.5 1.185e+04 9.981e-10
 61.31672   -322.7 1.149e+04 8.175e-10
 61.33557   -322.6 1.173e+04 9.018e-10
 61.35411   -322.5 1.201e+04 1.015e-09
 61.36462   -321.4 1.162e+04 8.153e-10
 61.37758   -321.2 1.189e+04 9.138e-10
 61.39858   -321.0 1.215e+04 1.032e-09
 61.41252   -320.7 1.240e+04 1.168e-09
 61.42302   -319.4 1.201e+04 9.134e-10
 61.44059   -319.0 1.222e+04 1.043e-09
 61.46041   -318.6 1.238e+04 1.172e-09
 61.47092   -317.3 1.210e+04 9.402e-10
 61.48260   -316.8 1.223e+04 1.065e-09
 61.49928   -316.3 1.227e+04 1.155e-09
 61.50978   -316.1 1.237e+04 1.178e-09
 61.51882   -315.5 1.236e+04 1.252e-09
 61.52932   -314.3 1.222e+04 1.079e-09
 61.54562   -313.7 1.219e+04 1.144e-09
 61.56662   -313.1 1.216e+04 1.158e-09
 61.58763   -311.4 1.199e+04 1.070e-09
 61.60863   -310.8 1.176e+04 9.940e-10
 61.62512   -310.0 1.151e+04 8.245e-10
 61.63562   -309.1 1.161e+04 9.074e-10
 61.65064   -308.2 1.136e+04 7.356e-10
 61.67165   -307.2 1.111e+04 5.408e-10
 61.68352   -306.1 1.083e+04 3.853e-10
 61.69402   -305.3 1.100e+04 4.778e-10
 61.71366   -304.3 1.072e+04 3.547e-10
 61.73152   -303.3 1.048e+04 2.989e-10
 61.74202   -302.4 1.068e+04 3.441e-10
 61.75567   -301.5 1.056e+04 3.145e-10
 61.78728   -300.7 1.046e+04 2.941e-10
 61.82741   -299.0 1.025e+04 2.669e-10
 61.84842   -297.7 1.044e+04 2.956e-10
 61.87140   -295.7 1.027e+04 2.755e-10
 61.91341   -293.8 1.024e+04 2.788e-10
 61.94421   -291.7 1.037e+04 3.177e-10
 61.96522   -290.7 1.035e+04 3.040e-10
 61.99743   -288.7 1.042e+04 3.287e-10
 62.03944   -286.7 1.045e+04 3.429e-10
 62.06102   -284.5 1.052e+04 3.634e-10
 62.08202   -283.8 1.032e+04 3.018e-10
 62.12346   -281.6 1.030e+04 3.001e-10
 62.15192   -279.4 1.034e+04 3.119e-10
 62.16427   -279.2 1.019e+04 2.772e-10
 62.17782   -278.3 9.960e+03 2.309e-10
 62.20748   -276.1 9.932e+03 2.284e-10
 62.24949   -273.8 9.919e+03 2.329e-10
 62.27362   -271.6 9.913e+03 2.478e-10
 62.29462   -270.4 9.766e+03 2.080e-10
 62.33351   -268.2 9.760e+03 2.249e-10
 62.36942   -266.0 9.733e+03 2.412e-10
 62.39042   -264.7 9.651e+03 2.062e-10
 62.41753   -262.5 9.610e+03 2.178e-10
 62.45954   -260.3 9.568e+03 2.226e-10
 62.48622   -258.0 9.518e+03 2.241e-10
 62.50723   -256.7 9.436e+03 1.895e-10
 62.54357   -254.2 9.258e+03 1.889e-10
 62.58202   -251.7 9.093e+03 1.740e-10
 62.60302   -250.4 9.065e+03 1.484e-10
 62.62759   -247.8 8.998e+03 1.385e-10
 62.66960   -245.3 8.954e+03 1.298e-10
 62.69882   -242.7 8.941e+03 1.246e-10
 62.71983   -241.5 8.943e+03 1.172e-10
 62.75362   -239.0 8.939e+03 1.163e-10
 62.79386   -236.5 8.939e+03 1.162e-10
 62.81386   -236.5 9.070e+03 1.295e-10
 62.81563   -235.2 9.063e+03 1.216e-10
 62.83764   -233.0 9.145e+03 1.316e-10
 62.87965   -230.8 9.275e+03 1.563e-10
 62.91142   -228.6 9.439e+03 1.983e-10
 62.93243   -227.4 9.344e+03 1.654e-10
 62.96367   -225.4 9.500e+03 2.089e-10
 63.00568   -223.3 9.664e+03 2.627e-10
 63.02823   -221.2 9.816e+03 3.145e-10
 63.04923   -220.1 9.621e+03 2.418e-10
 63.08970   -218.0 9.745e+03 2.800e-10
 63.12402   -215.9 9.845e+03 3.072e-10
 63.14503   -214.7 9.640e+03 2.356e-10
 63.17372   -212.6 9.720e+03 2.536e-10
 63.21573   -210.4 9.789e+03 2.621e-10
 63.24083   -208.1 9.838e+03 2.648e-10
 63.26183   -207.1 9.622e+03 2.075e-10
 63.29976   -204.8 9.678e+03 1.984e-10
 63.33663   -202.6 9.703e+03 1.869e-10
 63.35763   -201.6 9.519e+03 1.400e-10
 63.38378   -199.4 9.563e+03 1.240e-10
 63.42579   -197.3 9.615e+03 1.161e-10
 63.45343   -195.3 9.641e+03 1.144e-10
 63.46344   -194.2 9.618e+03 8.343e-11
 63.47781   -194.0 9.561e+03 6.435e-11
 63.50981   -192.0 9.568e+03 6.418e-11
 63.54923   -190.3 9.752e+03 7.060e-11
 63.57023   -189.0 9.651e+03 5.622e-11
 63.59383   -187.4 9.869e+03 7.385e-11
 63.63584   -186.0 9.939e+03 1.143e-10
 63.66603   -184.5 1.009e+04 1.773e-10
 63.68704   -183.0 1.009e+04 1.554e-10
 63.71986   -181.6 1.036e+04 2.520e-10
 63.76183   -180.2 1.071e+04 3.724e-10
 63.80384   -177.4 1.118e+04 5.592e-10
 63.84589   -176.5 1.146e+04 6.886e-10
 63.87863   -175.8 1.153e+04 7.256e-10
 63.89964   -173.9 1.180e+04 8.854e-10
 63.92992   -173.2 1.182e+04 9.050e-10
 63.97193   -172.4 1.162e+04 7.920e-10
 63.99544   -171.4 1.123e+04 5.372e-10
 64.01644   -169.5 1.160e+04 7.659e-10
 64.05595   -168.4 1.119e+04 5.072e-10
 64.09123   -167.5 1.092e+04 3.600e-10
 64.11224   -165.5 1.120e+04 4.860e-10
 64.11976   -164.8 1.105e+04 3.881e-10
 64.14076   -163.7 1.121e+04 4.845e-10
 64.18198   -163.3 1.116e+04 4.529e-10
 64.20804   -163.2 1.122e+04 4.621e-10
 64.22904   -161.1 1.137e+04 5.116e-10
 64.26600   -161.4 1.141e+04 5.237e-10
 64.30384   -161.8 1.146e+04 5.469e-10
 64.32484   -160.1 1.167e+04 6.050e-10
 64.35002   -160.7 1.164e+04 5.968e-10
 64.39203   -160.9 1.147e+04 4.861e-10
 64.42064   -160.9 1.118e+04 3.243e-10
 64.44164   -160.2 1.163e+04 5.545e-10
 64.47605   -160.1 1.133e+04 3.810e-10
 64.51644   -159.7 1.102e+04 2.447e-10
 64.53744   -159.1 1.158e+04 5.586e-10
 64.56007   -158.1 1.122e+04 3.764e-10
 64.60208   -156.8 1.113e+04 2.862e-10
 64.63324   -155.6 1.109e+04 2.651e-10
 64.65425   -154.5 1.169e+04 4.807e-10
 64.67551   -153.6 1.156e+04 3.886e-10
 64.69145   -153.2 1.163e+04 3.994e-10
 64.70195   -153.2 1.183e+04 4.534e-10
 64.72802   -153.0 1.183e+04 4.662e-10
 64.75004   -152.9 1.192e+04 6.614e-10
 64.76045   -152.3 1.250e+04 7.945e-10
 64.77201   -152.6 1.251e+04 9.558e-10
 64.78251   -152.7 1.259e+04 1.007e-09
 64.79775   -153.0 1.263e+04 1.235e-09
 64.80825   -152.5 1.314e+04 1.457e-09
 64.82245   -152.9 1.304e+04 1.643e-09
 64.84345   -153.4 1.301e+04 1.793e-09
 64.85615   -154.0 1.302e+04 1.861e-09
 64.86665   -153.8 1.328e+04 1.964e-09
 64.88546   -154.5 1.309e+04 1.956e-09
 64.90405   -155.4 1.299e+04 1.816e-09
 64.91455   -155.9 1.417e+04 1.985e-09
 64.92747   -157.2 1.397e+04 1.711e-09
 64.94848   -158.7 1.378e+04 1.462e-09
 64.96245   -160.6 1.366e+04 1.324e-09
 64.97295   -162.2 1.574e+04 2.232e-09
 64.99049   -164.4 1.577e+04 2.217e-09
 65.01035   -166.5 1.585e+04 2.365e-09
 65.02085   -167.3 1.697e+04 5.338e-09
 65.03250   -169.1 1.690e+04 5.713e-09
 65.05350   -170.7 1.685e+04 5.774e-09
 65.06875   -171.9 1.639e+04 5.459e-09
 65.07925   -171.5 1.703e+04 9.426e-09
 65.09298   -172.4 1.632e+04 7.093e-09
 65.10348   -172.0 1.550e+04 4.575e-09
 65.11652   -172.6 1.479e+04 2.919e-09
 65.12715   -173.2 1.391e+04 1.672e-09
 65.13766   -172.9 1.442e+04 2.969e-09
 65.15853   -173.6 1.356e+04 1.683e-09
 65.17505   -174.3 1.271e+04 9.550e-10
 65.18555   -173.8 1.315e+04 1.661e-09
 65.20054   -174.2 1.246e+04 1.004e-09
 65.22155   -174.5 1.186e+04 6.423e-10
 65.23345   -174.6 1.137e+04 4.506e-10
 65.24396   -174.0 1.178e+04 7.052e-10
 65.26356   -174.0 1.136e+04 5.016e-10
 65.28135   -174.0 1.098e+04 3.850e-10
 65.29186   -173.2 1.132e+04 5.483e-10
 65.30557   -173.1 1.097e+04 4.268e-10
 65.32657   -173.0 1.074e+04 3.802e-10
 65.35818   -172.9 1.065e+04 3.650e-10
 65.38785   -172.0 1.042e+04 3.254e-10
 65.40885   -171.4 1.067e+04 3.611e-10
 65.42465   -170.4 1.054e+04 3.423e-10
 65.44565   -169.1 1.032e+04 3.044e-10
 65.48365   -167.6 1.032e+04 3.020e-10
 65.50465   -167.3 1.050e+04 3.443e-10
 65.52632   -165.7 1.052e+04 3.502e-10
 65.56833   -164.1 1.056e+04 3.571e-10
 65.60045   -162.3 1.056e+04 3.557e-10
 65.62146   -161.7 1.077e+04 3.933e-10
 65.65235   -159.6 1.078e+04 3.849e-10
 65.69436   -157.4 1.074e+04 3.560e-10
 65.71725   -155.1 1.072e+04 3.231e-10
 65.73826   -154.8 1.111e+04 4.090e-10
 65.77838   -152.5 1.120e+04 4.378e-10
 65.81305   -150.7 1.146e+04 5.207e-10
 65.83406   -150.8 1.159e+04 6.009e-10
 65.86240   -149.2 1.221e+04 9.324e-10
 65.90441   -148.2 1.343e+04 1.887e-09
 65.92976   -147.1 1.437e+04 3.432e-09
 65.94016   -147.0 1.427e+04 2.792e-09
 65.95673   -146.9 1.552e+04 5.186e-09
 65.97756   -146.5 1.671e+04 8.966e-09
 65.98806   -146.8 1.656e+04 5.351e-09
 65.99874   -146.8 1.761e+04 1.024e-08
 66.01975   -146.6 1.820e+04 1.567e-08
 66.03596   -146.4 1.840e+04 1.821e-08
 66.04646   -146.8 1.806e+04 1.265e-08
 66.06176   -146.6 1.806e+04 1.443e-08
 66.07685   -146.5 1.784e+04 1.418e-08
 66.08205   -146.6 1.874e+04 2.016e-08
 66.08792   -146.7 1.862e+04 2.031e-08
 66.09426   -146.7 1.786e+04 2.053e-08
 66.09952   -146.7 1.804e+04 1.531e-08
 66.10892   -146.5 1.781e+04 1.542e-08
 66.11821   -146.1 1.701e+04 1.377e-08
 66.12347   -146.1 1.673e+04 1.075e-08
 66.12993   -145.7 1.632e+04 9.676e-09
 66.14043   -145.3 1.589e+04 8.442e-09
 66.14741   -145.0 1.563e+04 7.440e-09
 66.15271   -144.8 1.556e+04 7.410e-09
 66.16678   -143.8 1.497e+04 6.056e-09
 66.18779   -142.9 1.442e+04 4.585e-09
 66.20066   -141.9 1.375e+04 3.407e-09
 66.21117   -141.3 1.355e+04 3.298e-09
 66.22980   -140.2 1.313e+04 2.644e-09
 66.24856   -139.1 1.285e+04 2.098e-09
 66.25906   -138.6 1.244e+04 1.886e-09
 66.27181   -137.6 1.236e+04 1.682e-09
 66.29282   -136.6 1.233e+04 1.503e-09
 66.30696   -135.6 1.234e+04 1.343e-09
 66.31747   -135.2 1.187e+04 1.198e-09
 66.33483   -134.2 1.192e+04 1.189e-09
 66.35486   -133.2 1.199e+04 1.185e-09
 66.36537   -132.8 1.156e+04 9.602e-10
 66.37684   -131.9 1.164e+04 1.020e-09
 66.39784   -130.9 1.174e+04 1.062e-09
 66.41326   -130.0 1.198e+04 1.084e-09
 66.42377   -129.5 1.158e+04 9.859e-10
 66.43985   -128.7 1.166e+04 1.019e-09
 66.46086   -127.9 1.168e+04 1.025e-09
 66.47167   -127.1 1.172e+04 9.881e-10
 66.48217   -126.7 1.131e+04 8.848e-10
 66.50287   -125.9 1.132e+04 8.653e-10
 66.51956   -125.0 1.126e+04 8.047e-10
 66.53007   -124.4 1.097e+04 7.281e-10
 66.54488   -123.4 1.092e+04 6.810e-10
 66.56588   -122.5 1.091e+04 6.154e-10
 66.57797   -121.5 1.083e+04 5.681e-10
 66.58847   -120.7 1.059e+04 4.901e-10
 66.60790   -119.8 1.052e+04 4.598e-10
 66.62587   -118.7 1.047e+04 4.378e-10
 66.63637   -118.1 1.038e+04 3.955e-10
 66.64991   -117.0 1.036e+04 3.881e-10
 66.67091   -116.0 1.036e+04 3.861e-10
 66.68427   -114.8 1.036e+04 3.857e-10
 66.70537   -114.0 1.017e+04 3.480e-10
 66.72954   -112.1 1.023e+04 3.602e-10
 66.73818   -112.2 1.026e+04 3.474e-10
 66.74267   -112.1 1.022e+04 3.390e-10
 66.75493   -111.7 1.022e+04 3.371e-10
 66.77594   -110.6 1.027e+04 3.459e-10
 66.79057   -110.1 1.040e+04 3.715e-10
 66.80117   -110.0 1.032e+04 3.470e-10
 66.81805   -109.4 1.042e+04 3.952e-10
 66.83847   -109.0 1.054e+04 4.386e-10
 66.84897   -108.8 1.050e+04 4.283e-10
 66.85996   -108.3 1.062e+04 4.856e-10
 66.88096   -108.0 1.071e+04 5.371e-10
 66.89687   -107.7 1.077e+04 5.786e-10
 66.90737   -107.5 1.074e+04 5.581e-10
 66.92298   -107.2 1.076e+04 5.685e-10
 66.94398   -106.9 1.075e+04 5.700e-10
 66.95527   -106.6 1.059e+04 5.515e-10
 66.96577   -106.2 1.056e+04 5.504e-10
 66.98599   -105.8 1.039e+04 5.001e-10
 67.00317   -105.4 1.022e+04 4.404e-10
 67.01367   -104.9 1.025e+04 4.457e-10
 67.02800   -104.4 1.008e+04 3.877e-10
 67.04901   -104.1 9.969e+03 3.404e-10
 67.06082   -103.9 9.972e+03 3.153e-10
 67.06288   -104.1 1.041e+04 3.289e-10
 67.07207   -103.0 9.925e+03 3.105e-10
 67.09102   -102.8 9.966e+03 2.994e-10
 67.10947   -103.2 1.125e+04 3.103e-10
 67.11997   -101.6 9.864e+03 2.855e-10
 67.13303   -101.6 1.043e+04 2.898e-10
 67.15403   -102.9 1.257e+04 4.022e-10
 67.16787   -104.2 1.455e+04 8.589e-10
 67.17837   -101.0 1.170e+04 3.704e-10
 67.19604   -102.3 1.345e+04 7.345e-10
 67.21577   -102.6 1.450e+04 1.653e-09
 67.22627   -100.6 1.300e+04 7.284e-10
 67.23805   -100.7 1.413e+04 1.615e-09
 67.25906   -100.1 1.487e+04 3.082e-09
 67.27417    -99.0 1.533e+04 4.591e-09
 67.28468    -98.1 1.486e+04 3.108e-09
 67.30107    -97.0 1.550e+04 4.576e-09
 67.31678    -96.3 1.583e+04 5.538e-09
 67.32723    -95.8 1.612e+04 6.169e-09
 67.33773    -94.5 1.624e+04 5.656e-09
 67.34823    -94.1 1.644e+04 6.278e-09
 67.35643    -93.7 1.648e+04 6.895e-09
 67.36168    -93.7 1.639e+04 6.737e-09
 67.36924    -93.4 1.640e+04 6.994e-09
 67.38042    -93.0 1.627e+04 6.932e-09
 67.38767    -91.2 1.634e+04 5.480e-09
 67.39229    -92.1 1.692e+04 7.835e-09
 67.40610    -91.6 1.664e+04 8.625e-09
 67.42710    -91.2 1.632e+04 9.003e-09
 67.43888    -90.5 1.574e+04 9.142e-09
 67.44938    -89.0 1.618e+04 7.236e-09
 67.46911    -88.7 1.570e+04 7.891e-09
 67.48677    -87.9 1.552e+04 8.296e-09
 67.49728    -87.2 1.563e+04 5.965e-09
 67.51112    -86.2 1.527e+04 6.714e-09
 67.53213    -85.2 1.522e+04 7.122e-09
 67.54518    -84.3 1.525e+04 6.565e-09
 67.55568    -83.8 1.491e+04 5.804e-09
 67.57414    -82.8 1.484e+04 6.114e-09
 67.59307    -81.7 1.490e+04 5.421e-09
 67.60358    -81.2 1.468e+04 5.126e-09
 67.61615    -80.1 1.477e+04 5.462e-09
 67.63716    -79.1 1.493e+04 4.722e-09
 67.65148    -78.3 1.469e+04 4.080e-09
 67.66198    -77.3 1.486e+04 5.228e-09
 67.67917    -76.3 1.475e+04 4.617e-09
 67.69938    -75.5 1.467e+04 4.019e-09
 67.70988    -74.1 1.492e+04 4.998e-09
 67.71326    -73.3 1.479e+04 4.419e-09
 67.72377    -73.5 1.471e+04 3.831e-09
 67.74218    -72.7 1.433e+04 2.947e-09
 67.75778    -71.8 1.379e+04 2.170e-09
 67.76828    -70.5 1.438e+04 3.189e-09
 67.78419    -69.8 1.396e+04 2.469e-09
 67.80520    -69.1 1.345e+04 1.913e-09
 67.81618    -68.4 1.289e+04 1.511e-09
 67.82668    -67.0 1.361e+04 2.275e-09
 67.84721    -66.0 1.316e+04 1.860e-09
 67.86408    -64.9 1.268e+04 1.466e-09
 67.87458    -63.8 1.354e+04 2.256e-09
 67.88922    -62.8 1.324e+04 1.927e-09
 67.91022    -61.9 1.286e+04 1.622e-09
 67.92248    -60.9 1.241e+04 1.325e-09
 67.93298    -59.7 1.336e+04 2.173e-09
 67.95223    -58.6 1.301e+04 1.777e-09
 67.97038    -57.5 1.257e+04 1.387e-09
 67.98088    -56.5 1.366e+04 2.383e-09
 67.99425    -55.6 1.334e+04 1.913e-09
 68.01525    -54.8 1.287e+04 1.486e-09
 68.02878    -54.2 1.232e+04 1.196e-09
 68.03726    -53.0 1.348e+04 1.926e-09
 68.04474    -53.2 1.283e+04 1.545e-09
 68.05726    -52.7 1.221e+04 1.248e-09
 68.07668    -52.3 1.182e+04 1.093e-09
 68.08718    -51.0 1.260e+04 1.459e-09
 68.09927    -50.9 1.204e+04 1.217e-09
 68.12028    -51.1 1.190e+04 1.142e-09
 68.13508    -51.5 1.204e+04 1.142e-09
 68.14558    -50.8 1.241e+04 1.298e-09
 68.16229    -51.9 1.260e+04 1.411e-09
 68.18298    -53.1 1.305e+04 1.749e-09
 68.19348    -52.5 1.315e+04 1.851e-09
 68.20430    -53.5 1.346e+04 2.305e-09
 68.22530    -54.2 1.364e+04 2.708e-09
 68.24138    -54.6 1.367e+04 2.872e-09
 68.25188    -53.9 1.368e+04 2.830e-09
 68.26731    -54.3 1.356e+04 2.733e-09
 68.28832    -54.8 1.335e+04 2.460e-09
 68.29978    -55.5 1.308e+04 2.011e-09
 68.31029    -55.2 1.311e+04 2.171e-09
 68.33033    -55.8 1.274e+04 1.703e-09
 68.34768    -56.7 1.217e+04 1.182e-09
 68.35819    -55.9 1.260e+04 1.580e-09
 68.36571    -57.0 1.197e+04 1.045e-09
 68.37621    -57.4 1.153e+04 7.569e-10
 68.39335    -58.5 1.140e+04 6.770e-10
 68.40608    -59.2 1.131e+04 6.627e-10
 68.41659    -58.5 1.140e+04 7.269e-10
 68.43536    -58.9 1.132e+04 7.135e-10
 68.45398    -58.9 1.131e+04 7.128e-10
 68.46449    -58.4 1.164e+04 8.498e-10
 68.47737    -58.3 1.184e+04 8.518e-10
 68.49837    -58.3 1.192e+04 8.456e-10
 68.51239    -58.5 1.196e+04 8.667e-10
 68.52289    -58.3 1.271e+04 1.032e-09
 68.54038    -58.4 1.265e+04 1.052e-09
 68.56028    -58.4 1.246e+04 1.078e-09
 68.57079    -58.4 1.321e+04 1.622e-09
 68.58239    -58.2 1.285e+04 1.615e-09
 68.60340    -57.9 1.254e+04 1.590e-09
 68.61869    -57.5 1.224e+04 1.533e-09
 68.62919    -57.1 1.262e+04 1.932e-09
 68.64541    -56.5 1.223e+04 1.733e-09
 68.66641    -56.0 1.191e+04 1.556e-09
 68.67709    -55.6 1.165e+04 1.399e-09
 68.68685    -55.3 1.180e+04 1.574e-09
 68.69718    -54.7 1.210e+04 1.662e-09
 68.70843    -54.6 1.191e+04 1.530e-09
 68.72499    -54.6 1.181e+04 1.450e-09
 68.73549    -54.7 1.216e+04 1.770e-09
 68.75044    -54.8 1.212e+04 1.731e-09
 68.77144    -54.9 1.209e+04 1.709e-09
 68.78339    -55.1 1.206e+04 1.698e-09
 68.79389    -55.0 1.245e+04 2.160e-09
 68.81345    -55.0 1.234e+04 2.072e-09
 68.83129    -55.0 1.221e+04 1.896e-09
 68.84179    -54.5 1.252e+04 2.248e-09
 68.85546    -54.6 1.222e+04 1.960e-09
 68.87647    -54.8 1.193e+04 1.662e-09
 68.88969    -55.1 1.160e+04 1.362e-09
 68.90019    -54.4 1.169e+04 1.410e-09
 68.91848    -54.9 1.124e+04 1.049e-09
 68.93759    -55.6 1.079e+04 7.555e-10
 68.94809    -55.2 1.076e+04 7.116e-10
 68.96049    -56.4 1.027e+04 4.925e-10
 68.98149    -57.8 9.833e+03 3.529e-10
 69.01310    -59.5 9.643e+03 2.843e-10
 69.04408    -63.0 9.746e+03 2.727e-10
 69.05449    -60.9 9.507e+03 2.555e-10
 69.06552    -63.0 9.803e+03 2.629e-10
 69.08652    -67.5 1.073e+04 3.179e-10
 69.10229    -70.8 1.170e+04 5.948e-10
 69.11279    -71.8 1.194e+04 7.888e-10
 69.12853    -74.7 1.267e+04 1.594e-09
 69.14954    -76.7 1.332e+04 2.478e-09
 69.16069    -78.5 1.371e+04 3.017e-09
 69.17119    -78.7 1.350e+04 2.795e-09
 69.19155    -80.8 1.353e+04 2.857e-09
 69.20859    -82.7 1.341e+04 2.759e-09
 69.21909    -83.2 1.327e+04 2.462e-09
 69.23356    -85.0 1.297e+04 2.174e-09
 69.25456    -86.7 1.272e+04 1.854e-09
 69.26699    -88.6 1.265e+04 1.615e-09
 69.27750    -89.4 1.299e+04 1.918e-09
 69.29657    -91.9 1.312e+04 1.899e-09
 69.31489    -94.8 1.393e+04 2.165e-09
 69.32539    -96.3 1.461e+04 2.890e-09
 69.33858    -98.9 1.531e+04 4.070e-09
 69.34963   -100.3 1.577e+04 5.551e-09
 69.36013    -99.2 1.456e+04 3.599e-09
 69.37329   -100.1 1.491e+04 4.317e-09
 69.38380   -101.2 1.504e+04 4.365e-09
 69.40160   -101.6 1.505e+04 4.527e-09
 69.42119   -101.6 1.483e+04 4.397e-09
 69.43170   -102.2 1.445e+04 3.935e-09
 69.44361   -102.0 1.394e+04 3.174e-09
 69.46462   -102.0 1.335e+04 2.466e-09
 69.47959   -102.0 1.291e+04 1.995e-09
 69.49010   -102.4 1.255e+04 1.752e-09
 69.50663   -102.3 1.237e+04 1.596e-09
 69.52749   -102.1 1.233e+04 1.564e-09
 69.53800   -102.2 1.211e+04 1.428e-09
 69.54864   -102.1 1.213e+04 1.428e-09
 69.56964   -102.5 1.252e+04 1.575e-09
 69.58590   -103.0 1.308e+04 2.039e-09
 69.59640   -103.0 1.291e+04 1.882e-09
 69.61165   -103.4 1.338e+04 2.445e-09
 69.63266   -103.5 1.375e+04 2.995e-09
 69.64430   -103.7 1.393e+04 3.261e-09
 69.65480   -103.6 1.365e+04 2.939e-09
 69.67060   -103.8 1.366e+04 2.968e-09
 69.68110   -103.8 1.364e+04 2.939e-09
 69.69220   -103.9 1.339e+04 2.566e-09
 69.70270   -103.6 1.317e+04 2.313e-09
 69.71668   -103.7 1.286e+04 1.849e-09
 69.73769   -104.0 1.254e+04 1.427e-09
 69.75060   -104.4 1.221e+04 1.084e-09
 69.76110   -104.3 1.237e+04 1.209e-09
 69.77970   -104.7 1.211e+04 9.831e-10
 69.79850   -105.0 1.187e+04 8.216e-10
 69.80900   -104.9 1.216e+04 1.006e-09
 69.82171   -105.0 1.194e+04 8.615e-10
 69.84271   -105.1 1.175e+04 7.608e-10
 69.85690   -105.1 1.159e+04 6.966e-10
 69.86740   -105.1 1.198e+04 9.145e-10
 69.88472   -105.0 1.184e+04 8.725e-10
 69.90480   -104.8 1.173e+04 8.423e-10
 69.91530   -104.8 1.210e+04 1.060e-09
 69.92673   -104.6 1.199e+04 1.018e-09
 69.94774   -104.6 1.194e+04 1.000e-09
 69.96320   -104.6 1.193e+04 1.011e-09
 69.97370   -104.8 1.215e+04 1.162e-09
 69.98975   -104.6 1.204e+04 1.111e-09
 70.00217   -104.4 1.192e+04 1.064e-09
 70.01312   -104.2 1.182e+04 1.059e-09
 70.03230   -104.5 1.211e+04 1.256e-09
 70.06346   -103.9 1.205e+04 1.219e-09
 70.09487   -103.6 1.215e+04 1.278e-09
 70.11578   -103.6 1.206e+04 1.240e-09
 70.12800   -103.7 1.188e+04 1.150e-09
 70.13850   -103.6 1.201e+04 1.212e-09
 70.15779   -103.5 1.181e+04 1.108e-09
 70.18940   -103.4 1.151e+04 9.299e-10
 70.22389   -102.7 1.099e+04 6.618e-10
 70.24480   -102.3 1.090e+04 6.176e-10
 70.26282   -101.9 1.064e+04 4.980e-10
 70.28210   -101.6 1.051e+04 4.270e-10
 70.29260   -101.5 1.054e+04 4.307e-10
 70.31543   -101.2 1.039e+04 3.657e-10
 70.34070   -100.2 1.020e+04 3.162e-10
 70.36170   -100.3 1.038e+04 3.761e-10
 70.39955    -98.9 1.026e+04 3.416e-10
 70.43650    -96.9 1.017e+04 3.298e-10
 70.45750    -97.2 1.029e+04 3.474e-10
 70.48357    -95.1 1.016e+04 3.279e-10
 70.52558    -93.0 1.014e+04 3.274e-10
 70.55330    -90.8 1.014e+04 3.328e-10
 70.57431    -91.0 9.852e+03 2.396e-10
 70.60960    -88.8 9.894e+03 2.323e-10
 70.64421    -86.5 9.915e+03 2.314e-10
 70.66270    -86.4 9.781e+03 2.287e-10
 70.67010    -86.3 9.461e+03 1.312e-10
 70.69362    -83.9 9.517e+03 1.313e-10
 70.73563    -81.6 9.587e+03 1.383e-10
 70.76590    -79.3 9.618e+03 1.489e-10
 70.78691    -78.9 9.390e+03 7.684e-11
 70.81965    -76.4 9.417e+03 7.833e-11
 70.86166    -73.9 9.431e+03 7.852e-11
 70.90367    -71.2 9.308e+03 3.758e-11
 70.94569    -68.7 9.303e+03 3.644e-11
 70.97850    -66.4 9.312e+03 3.578e-11
 70.99951    -66.0 9.151e+03 3.348e-11
 71.02971    -64.0 9.289e+03 3.460e-11
 71.07172    -62.5 9.577e+03 3.900e-11
 71.09531    -61.3 9.675e+03 6.277e-11
 71.11631    -60.2 9.532e+03 7.317e-11
 71.15574    -58.9 9.806e+03 1.305e-10
 71.19110    -57.8 1.027e+04 2.480e-10
 71.21211    -56.3 1.011e+04 2.152e-10
 71.23976    -55.7 1.052e+04 3.322e-10
 71.28177    -55.3 1.093e+04 4.869e-10
 71.30716    -55.0 1.127e+04 6.380e-10
 71.31229    -54.2 1.109e+04 5.592e-10
 71.32891    -53.1 1.074e+04 3.787e-10
 71.36579    -52.9 1.101e+04 4.913e-10
 71.40371    -52.5 1.117e+04 5.607e-10
 71.42471    -51.3 1.099e+04 4.654e-10
 71.44981    -50.8 1.107e+04 4.987e-10
 71.49182    -50.2 1.109e+04 4.883e-10
 71.52051    -49.1 1.108e+04 4.242e-10
 71.54151    -48.0 1.100e+04 4.021e-10
 71.57584    -46.7 1.106e+04 3.697e-10
 71.61631    -45.4 1.109e+04 3.629e-10
 71.63731    -44.6 1.114e+04 3.526e-10
 71.65987    -43.4 1.131e+04 3.893e-10
 71.70188    -42.3 1.154e+04 4.577e-10
 71.73311    -41.3 1.184e+04 5.765e-10
 71.75412    -40.8 1.175e+04 5.163e-10
 71.78590    -40.3 1.211e+04 6.634e-10
 71.82791    -40.3 1.261e+04 9.522e-10
 71.84982    -40.4 1.305e+04 1.260e-09
 71.87082    -41.2 1.314e+04 1.133e-09
 71.89772    -43.0 1.419e+04 1.983e-09
 71.90812    -43.2 1.390e+04 1.633e-09
 71.92224    -45.0 1.439e+04 2.592e-09
 71.94324    -46.4 1.464e+04 3.454e-09
 71.95602    -47.6 1.474e+04 3.765e-09
 71.96169    -47.8 1.436e+04 2.938e-09
 71.96991    -47.7 1.478e+04 3.893e-09
 71.98525    -49.0 1.463e+04 3.455e-09
 72.00392    -50.9 1.435e+04 2.539e-09
 72.01442    -51.1 1.400e+04 2.188e-09
 72.02726    -53.4 1.362e+04 1.746e-09
 72.04827    -55.3 1.329e+04 1.592e-09
 72.06232    -56.3 1.318e+04 1.544e-09
 72.07282    -55.0 1.315e+04 1.558e-09
 72.09028    -55.4 1.310e+04 1.550e-09
 72.12188    -55.6 1.310e+04 1.553e-09
 72.15831    -56.2 1.292e+04 1.449e-09
 72.17932    -54.5 1.319e+04 1.657e-09
 72.20600    -54.8 1.278e+04 1.318e-09
 72.24801    -54.7 1.232e+04 8.513e-10
 72.27512    -54.6 1.201e+04 5.477e-10
 72.29612    -53.0 1.211e+04 6.470e-10
 72.33204    -52.8 1.191e+04 4.696e-10
 72.37092    -52.5 1.175e+04 3.903e-10
 72.39192    -50.9 1.170e+04 4.097e-10
 72.41606    -50.2 1.151e+04 3.368e-10
 72.45807    -49.3 1.143e+04 2.910e-10
 72.48772    -48.3 1.140e+04 2.778e-10
 72.50872    -46.8 1.125e+04 2.154e-10
 72.54209    -45.6 1.121e+04 2.073e-10
 72.58352    -44.3 1.116e+04 2.102e-10
 72.60452    -42.8 1.104e+04 1.514e-10
 72.61205    -41.3 1.099e+04 1.495e-10
 72.63306    -40.6 1.097e+04 1.541e-10
 72.66812    -39.0 1.089e+04 1.503e-10
 72.70032    -37.1 1.086e+04 1.360e-10
 72.72133    -35.7 1.084e+04 1.048e-10
 72.75214    -33.9 1.085e+04 9.536e-11
 72.79415    -32.0 1.088e+04 8.504e-11
 72.81712    -30.1 1.090e+04 7.669e-11
 72.83813    -28.7 1.085e+04 7.516e-11
 72.87817    -26.8 1.088e+04 7.422e-11
 72.91292    -24.8 1.089e+04 7.594e-11
 72.93393    -23.5 1.087e+04 8.050e-11
 72.96219    -21.6 1.087e+04 9.045e-11
 73.00420    -19.6 1.086e+04 1.066e-10
 73.02972    -17.6 1.087e+04 1.264e-10
 73.05073    -16.3 1.083e+04 1.198e-10
 73.08823    -14.2 1.083e+04 1.331e-10
 73.12552    -12.2 1.085e+04 1.439e-10
 73.14653    -10.9 1.076e+04 1.090e-10
 73.17225     -9.0 1.079e+04 1.099e-10
 73.21426     -7.2 1.086e+04 1.138e-10
 73.24233     -6.0 1.115e+04 1.284e-10
 73.26106     -4.9 1.106e+04 7.905e-11
 73.27500     -3.4 1.092e+04 9.474e-11
 73.29828     -2.5 1.123e+04 1.241e-10
 73.33812     -1.7 1.136e+04 2.224e-10
 73.35913     -0.8 1.116e+04 1.582e-10
 73.38230     -0.0 1.144e+04 3.231e-10
 73.42431      0.5 1.185e+04 6.242e-10
 73.45493      0.9 1.225e+04 1.017e-09
 73.47593      2.0 1.209e+04 8.412e-10
 73.50833      1.9 1.234e+04 1.087e-09
 73.55034      1.4 1.232e+04 1.126e-09
 73.57173      1.3 1.188e+04 8.637e-10
 73.59274      2.4 1.186e+04 8.611e-10
 73.63436      2.7 1.141e+04 5.263e-10
 73.66753      3.1 1.107e+04 2.937e-10
 73.68853      4.4 1.112e+04 3.404e-10
 73.71839      5.1 1.087e+04 2.037e-10
 73.76040      6.1 1.076e+04 1.439e-10
 73.78433      7.3 1.073e+04 1.189e-10
 73.80534      8.5 1.071e+04 1.319e-10
 73.84442      9.9 1.072e+04 1.149e-10
 73.88013     11.5 1.073e+04 1.062e-10
 73.90114     12.6 1.074e+04 1.190e-10
 73.91694     14.4 1.075e+04 1.155e-10
 73.93795     14.9 1.081e+04 1.433e-10
 73.97045     16.7 1.082e+04 1.432e-10
 73.99693     17.9 1.100e+04 1.494e-10
 74.01794     18.8 1.098e+04 1.793e-10
 74.05447     19.6 1.112e+04 2.634e-10
 74.09273     20.4 1.142e+04 5.148e-10
 74.11374     21.3 1.144e+04 5.041e-10
 74.13849     22.2 1.192e+04 8.865e-10
 74.18050     22.9 1.240e+04 1.392e-09
 74.20954     23.3 1.262e+04 1.635e-09
 74.23054     23.5 1.242e+04 1.349e-09
 74.26452     23.9 1.243e+04 1.420e-09
 74.30533     24.5 1.208e+04 1.124e-09
 74.32634     24.8 1.213e+04 1.137e-09
 74.34854     25.7 1.181e+04 8.463e-10
 74.39055     26.7 1.144e+04 5.457e-10
 74.42214     27.8 1.120e+04 3.716e-10
 74.44314     28.0 1.129e+04 3.898e-10
 74.47458     29.3 1.112e+04 2.807e-10
 74.51659     30.9 1.102e+04 2.284e-10
 74.53894     32.6 1.095e+04 2.007e-10
 74.55995     32.6 1.100e+04 1.973e-10
 74.57989     34.3 1.097e+04 1.839e-10
 74.60090     34.2 1.100e+04 1.828e-10
 74.63474     36.0 1.098e+04 1.791e-10
 74.65574     35.9 1.099e+04 1.808e-10
 74.68463     37.6 1.102e+04 1.856e-10
 74.72664     39.2 1.106e+04 2.152e-10
 74.75154     40.7 1.111e+04 2.769e-10
 74.77255     40.5 1.123e+04 2.942e-10
 74.81066     42.1 1.135e+04 3.807e-10
 74.84734     43.7 1.150e+04 4.935e-10
 74.86835     42.9 1.156e+04 4.850e-10
 74.89468     44.3 1.165e+04 5.675e-10
 74.93669     45.6 1.168e+04 5.959e-10
 74.96414     46.9 1.151e+04 5.362e-10
 74.98515     46.2 1.140e+04 4.458e-10
 75.02071     47.3 1.134e+04 3.631e-10
 75.05994     48.3 1.134e+04 3.360e-10
 75.08095     47.4 1.134e+04 3.448e-10
 75.10473     48.3 1.131e+04 3.352e-10
 75.14675     49.0 1.134e+04 3.527e-10
 75.17674     49.8 1.132e+04 4.253e-10
 75.19775     49.0 1.156e+04 4.700e-10
 75.22183     49.9 1.169e+04 5.368e-10
 75.24284     51.0 1.158e+04 5.100e-10
 75.27254     51.8 1.181e+04 6.060e-10
 75.29345     51.0 1.212e+04 6.675e-10
 75.30409     51.0 1.213e+04 8.038e-10
 75.32510     51.8 1.211e+04 8.720e-10
 75.34125     52.6 1.195e+04 9.168e-10
 75.35175     52.2 1.202e+04 9.255e-10
 75.36711     53.0 1.218e+04 8.355e-10
 75.38811     53.3 1.233e+04 7.294e-10
 75.39965     53.1 1.244e+04 6.426e-10
 75.41016     52.1 1.259e+04 7.030e-10
 75.43012     51.2 1.290e+04 7.164e-10
 75.44755     49.9 1.325e+04 8.650e-10
 75.45806     48.0 1.388e+04 1.439e-09
 75.47213     47.0 1.396e+04 2.240e-09
 75.49314     46.6 1.428e+04 3.411e-09
 75.50595     46.1 1.497e+04 4.683e-09
 75.51646     44.7 1.590e+04 7.509e-09
 75.53515     43.7 1.622e+04 8.417e-09
 75.55311     42.5 1.606e+04 8.359e-09
 75.56132     42.9 1.638e+04 9.090e-09
 75.56436     41.8 1.646e+04 1.012e-08
 75.57716     41.2 1.605e+04 8.824e-09
 75.59816     41.0 1.577e+04 6.861e-09
 75.61226     39.6 1.529e+04 4.478e-09
 75.62276     38.1 1.493e+04 3.047e-09
 75.64017     35.8 1.381e+04 1.927e-09
 75.66015     35.1 1.326e+04 1.633e-09
 75.67066     34.1 1.290e+04 1.359e-09
 75.69279     35.5 1.270e+04 1.331e-09
 75.71875     36.7 1.251e+04 1.135e-09
 75.73976     35.6 1.223e+04 7.844e-10
 75.77690     36.6 1.213e+04 7.140e-10
 75.81455     38.0 1.202e+04 6.979e-10
 75.83555     37.2 1.197e+04 6.759e-10
 75.86093     38.5 1.211e+04 7.740e-10
 75.88478     39.8 1.237e+04 8.738e-10
 75.90579     39.1 1.239e+04 8.640e-10
 75.93135     40.0 1.273e+04 1.060e-09
 75.95236     38.7 1.302e+04 1.477e-09
 75.98696     39.7 1.315e+04 1.689e-09
 76.02715     40.7 1.305e+04 1.670e-09
 76.04816     39.1 1.289e+04 1.353e-09
 76.07098     39.4 1.266e+04 1.015e-09
 76.11299     39.1 1.245e+04 8.624e-10
 76.14395     39.2 1.216e+04 9.704e-10
 76.16496     38.6 1.175e+04 6.931e-10
 76.19701     39.9 1.175e+04 7.374e-10
 76.23902     40.6 1.188e+04 7.160e-10
 76.26076     40.7 1.200e+04 6.523e-10
 76.28176     40.3 1.166e+04 4.059e-10
 76.32304     40.7 1.156e+04 4.929e-10
 76.35656     42.0 1.143e+04 5.438e-10
 76.37756     42.3 1.118e+04 3.757e-10
 76.40706     44.2 1.105e+04 3.591e-10
 76.44907     46.0 1.112e+04 2.441e-10
 76.47336     46.9 1.102e+04 1.726e-10
 76.49436     47.3 1.101e+04 1.839e-10
 76.52673     48.5 1.063e+04 1.814e-10
 76.54773     49.0 1.070e+04 1.929e-10
 76.56916     51.0 1.045e+04 1.717e-10
 76.59016     51.6 1.051e+04 2.156e-10
 76.61712     54.1 1.032e+04 1.648e-10
 76.65913     56.6 1.032e+04 1.001e-10
 76.68596     58.3 1.053e+04 5.515e-11
 76.70697     58.6 1.058e+04 7.069e-11
 76.74315     59.4 1.061e+04 4.801e-11
 76.78176     60.9 1.030e+04 4.540e-11
 76.80276     61.1 1.040e+04 5.699e-11
 76.82717     62.9 1.034e+04 5.763e-11
 76.86918     64.9 1.032e+04 6.042e-11
 76.89856     66.9 1.037e+04 6.523e-11
 76.91957     66.6 1.048e+04 7.978e-11
 76.95320     68.2 1.055e+04 9.259e-11
 76.99436     69.5 1.061e+04 1.206e-10
 77.01537     68.6 1.079e+04 1.928e-10
 77.03722     69.7 1.097e+04 2.971e-10
 77.07923     70.7 1.129e+04 4.672e-10
 77.11116     71.5 1.166e+04 6.667e-10
 77.13217     70.0 1.186e+04 6.957e-10
 77.16325     70.6 1.185e+04 7.198e-10
 77.18967     71.3 1.178e+04 6.382e-10
 77.21068     71.4 1.192e+04 6.892e-10
 77.22797     71.9 1.177e+04 4.945e-10
 77.24897     70.1 1.153e+04 2.029e-10
 77.28929     70.3 1.128e+04 1.404e-10
 77.32377     70.6 1.087e+04 1.241e-10
 77.34477     69.3 1.050e+04 1.150e-10
 77.37331     70.6 1.045e+04 1.312e-10
 77.41532     72.1 1.042e+04 1.511e-10
 77.44057     73.8 1.039e+04 1.745e-10
 77.46157     73.7 1.037e+04 1.902e-10
 77.49934     75.2 1.039e+04 1.942e-10
 77.53637     76.8 1.036e+04 1.837e-10
 77.55737     76.7 1.033e+04 1.754e-10
 77.58336     78.2 1.029e+04 1.410e-10
 77.62537     79.5 1.029e+04 1.063e-10
 77.65317     80.5 1.022e+04 8.804e-11
 77.67418     80.2 1.020e+04 8.696e-11
 77.70939     81.5 1.013e+04 8.688e-11
 77.74897     83.0 1.010e+04 8.935e-11
 77.76997     82.8 1.015e+04 9.073e-11
 77.79341     84.3 1.015e+04 9.945e-11
 77.83162     85.8 1.016e+04 1.124e-10
 77.85262     86.2 1.011e+04 1.090e-10
 77.86577     87.8 1.013e+04 1.329e-10
 77.88678     87.5 1.016e+04 1.296e-10
 77.91945     89.0 1.019e+04 1.608e-10
 77.96146     90.4 1.030e+04 2.084e-10
 78.00347     91.2 1.049e+04 2.188e-10
 78.04548     92.3 1.073e+04 2.679e-10
 78.07837     93.2 1.105e+04 3.309e-10
 78.09938     92.4 1.111e+04 3.283e-10
 78.12950     92.2 1.135e+04 4.067e-10
 78.16091     91.7 1.157e+04 5.170e-10
 78.17340     91.5 1.186e+04 6.911e-10
 78.18390     91.7 1.187e+04 6.980e-10
 78.19498     91.3 1.232e+04 9.655e-10
 78.20548     90.3 1.263e+04 1.130e-09
 78.22383     89.4 1.320e+04 1.678e-09
 78.24288     88.7 1.367e+04 2.455e-09
 78.25338     88.0 1.373e+04 2.697e-09
 78.26584     87.8 1.400e+04 3.189e-09
 78.28684     87.5 1.421e+04 3.245e-09
 78.30128     86.8 1.425e+04 3.070e-09
 78.31178     85.7 1.394e+04 2.460e-09
 78.32885     84.1 1.370e+04 2.162e-09
 78.34918     83.0 1.345e+04 2.014e-09
 78.35968     82.5 1.318e+04 1.821e-09
 78.38146     81.4 1.316e+04 1.853e-09
 78.40778     80.0 1.280e+04 1.658e-09
 78.42878     79.4 1.209e+04 1.088e-09
 78.46558     79.2 1.160e+04 7.495e-10
 78.49457     79.1 1.112e+04 4.514e-10
 78.51155     78.3 1.111e+04 4.113e-10
 78.52458     77.7 1.072e+04 2.457e-10
 78.54960     77.9 1.039e+04 2.049e-10
 78.59161     78.7 1.020e+04 2.016e-10
 78.62038     79.9 1.020e+04 2.052e-10
 78.64138     80.3 1.006e+04 1.650e-10
 78.67564     81.4 1.009e+04 1.728e-10
 78.71618     82.3 1.024e+04 2.028e-10
 78.73718     82.7 9.974e+03 1.561e-10
 78.75966     83.2 1.014e+04 2.043e-10
 78.80167     83.7 1.042e+04 2.995e-10
 78.83298     84.2 1.070e+04 3.836e-10
 78.85399     84.8 1.058e+04 3.765e-10
 78.88569     85.3 1.083e+04 3.976e-10
 78.92770     85.5 1.093e+04 3.792e-10
 78.94978     85.4 1.101e+04 3.774e-10
 78.97079     86.3 1.099e+04 4.000e-10
 79.01172     86.1 1.104e+04 4.054e-10
 79.04558     85.5 1.117e+04 4.618e-10
 79.06649     85.8 1.114e+04 4.663e-10
 79.08504     85.5 1.124e+04 5.417e-10
 79.10379     85.5 1.126e+04 5.740e-10
 79.11429     86.1 1.119e+04 5.755e-10
 79.12705     86.1 1.127e+04 5.770e-10
 79.14682     86.0 1.129e+04 5.623e-10
 79.15742     86.1 1.123e+04 5.058e-10
 79.16229     86.0 1.130e+04 4.982e-10
 79.17269     86.6 1.127e+04 5.091e-10
 79.19007     86.2 1.136e+04 5.145e-10
 79.21009     85.6 1.154e+04 5.504e-10
 79.22059     86.4 1.156e+04 6.014e-10
 79.23208     85.8 1.175e+04 7.121e-10
 79.25309     85.2 1.201e+04 9.314e-10
 79.26849     84.6 1.241e+04 1.315e-09
 79.27899     85.7 1.237e+04 1.330e-09
 79.29510     85.3 1.279e+04 1.820e-09
 79.31610     85.1 1.318e+04 2.368e-09
 79.32689     85.0 1.321e+04 2.419e-09
 79.33740     86.0 1.319e+04 2.473e-09
 79.35811     86.0 1.315e+04 2.407e-09
 79.37479     86.0 1.294e+04 2.087e-09
 79.38529     86.8 1.303e+04 2.268e-09
 79.40012     86.7 1.282e+04 1.906e-09
 79.42113     86.4 1.253e+04 1.514e-09
 79.43319     86.0 1.215e+04 1.192e-09
 79.44370     86.9 1.247e+04 1.467e-09
 79.46314     86.6 1.207e+04 1.204e-09
 79.47829     86.8 1.169e+04 9.936e-10
 79.48574     86.8 1.185e+04 1.137e-09
 79.49160     87.4 1.223e+04 1.425e-09
 79.50515     87.6 1.187e+04 1.209e-09
 79.52616     87.9 1.156e+04 9.992e-10
 79.53949     88.3 1.127e+04 7.937e-10
 79.55000     88.9 1.157e+04 1.023e-09
 79.56817     89.2 1.127e+04 8.122e-10
 79.58739     89.5 1.098e+04 6.278e-10
 79.59790     90.1 1.122e+04 7.741e-10
 79.61018     90.4 1.092e+04 6.095e-10
 79.63118     90.7 1.066e+04 4.771e-10
 79.64579     90.7 1.056e+04 4.230e-10
 79.65630     91.3 1.060e+04 4.539e-10
 79.68329     91.9 1.046e+04 3.867e-10
 79.70439     92.4 1.048e+04 3.891e-10
 79.72590     94.0 1.024e+04 3.211e-10
 79.76791     96.0 9.964e+03 2.559e-10
 79.79946     98.2 9.760e+03 2.157e-10
 79.81073     97.8 9.949e+03 2.538e-10
 79.82120     98.3 9.815e+03 2.181e-10
 79.85193    100.7 9.654e+03 1.902e-10
 79.89394    103.2 9.653e+03 1.905e-10
 79.91699    105.7 9.712e+03 1.986e-10
 79.93800    106.3 9.492e+03 1.561e-10
 79.97796    108.8 9.606e+03 1.710e-10
 80.01279    111.3 9.937e+03 2.189e-10
 80.03380    112.1 9.651e+03 1.791e-10
 80.06199    114.7 1.014e+04 2.511e-10
 80.10400    116.1 1.053e+04 3.370e-10
 80.12950    117.1 1.070e+04 4.326e-10
 80.13533    117.7 1.059e+04 3.522e-10
 80.14124    118.1 1.051e+04 3.318e-10
 80.15631    119.1 1.071e+04 4.395e-10
 80.17730    119.1 1.109e+04 6.322e-10
 80.19830    116.0 1.346e+04 1.485e-09
 80.21933    111.5 1.610e+04 3.413e-09
 80.23504    106.4 1.799e+04 7.948e-09
 80.24085    105.6 1.864e+04 1.413e-08
 80.24611    105.0 1.883e+04 1.604e-08
 80.25599    104.6 1.941e+04 2.023e-08
 80.26480    104.5 1.946e+04 2.033e-08
 80.27005    104.0 1.948e+04 2.022e-08
 80.28230    103.6 1.946e+04 1.849e-08
 80.29410    102.5 1.879e+04 9.627e-09
 80.30460     99.2 1.833e+04 5.852e-09
 80.32436     92.5 1.502e+04 1.509e-09
 80.34200     84.7 1.006e+04 6.058e-10
 80.35250     82.4 9.831e+03 6.002e-10
 80.36637     83.2 9.451e+03 5.179e-10
 80.38737     85.0 9.325e+03 4.711e-10
 80.40040     86.3 9.321e+03 4.389e-10
 80.41091     85.8 9.521e+03 4.834e-10
 80.42938     87.0 9.381e+03 4.333e-10
 80.44830     87.8 9.371e+03 4.263e-10
 80.45880     87.1 9.633e+03 5.028e-10
 80.46221     88.1 9.633e+03 5.054e-10
 80.47271     86.7 1.002e+04 6.410e-10
 80.49240     87.3 1.006e+04 6.666e-10
 80.50670     87.8 1.013e+04 7.133e-10
 80.51721     87.1 1.032e+04 8.320e-10
 80.53441     87.7 1.037e+04 8.798e-10
 80.55460     88.3 1.043e+04 9.295e-10
 80.56511     87.6 1.043e+04 9.233e-10
 80.57642     87.7 1.057e+04 9.716e-10
 80.59743     87.2 1.092e+04 1.075e-09
 80.61300     86.5 1.139e+04 1.251e-09
 80.62351     84.5 1.145e+04 1.234e-09
 80.63944     83.3 1.191e+04 1.542e-09
 80.66044     82.0 1.254e+04 2.024e-09
 80.67141     80.1 1.337e+04 2.754e-09
 80.68191     77.3 1.364e+04 3.132e-09
 80.70245     74.8 1.437e+04 3.797e-09
 80.71930     71.7 1.523e+04 4.517e-09
 80.72981     68.7 1.544e+04 4.478e-09
 80.74446     64.1 1.544e+04 4.365e-09
 80.76547     59.5 1.461e+04 3.959e-09
 80.77771     56.0 1.357e+04 3.501e-09
 80.78492     54.3 1.348e+04 3.527e-09
 80.79368     53.3 1.269e+04 2.549e-09
 80.80748     52.1 1.278e+04 2.487e-09
 80.82561     51.0 1.281e+04 2.394e-09
 80.83611     49.9 1.294e+04 2.470e-09
 80.84949     48.6 1.285e+04 2.355e-09
 80.87049     47.5 1.283e+04 2.330e-09
 80.88401     46.4 1.292e+04 2.409e-09
 80.89451     45.5 1.318e+04 2.671e-09
 80.91251     44.9 1.339e+04 2.961e-09
 80.93191     43.8 1.401e+04 3.532e-09
 80.94241     43.3 1.440e+04 4.103e-09
 80.95452     38.4 1.694e+04 7.133e-09
 80.97552     35.2 1.791e+04 1.254e-08
 80.99031     34.5 1.802e+04 1.675e-08
 81.00081     34.3 1.842e+04 1.769e-08
 81.01753     33.7 1.812e+04 1.566e-08
 81.03821     32.8 1.753e+04 1.035e-08
 81.04871     32.8 1.725e+04 9.572e-09
 81.05954     29.3 1.706e+04 5.571e-09
 81.08055     20.3 1.638e+04 3.522e-09
 81.09661     13.6 1.496e+04 3.465e-09
 81.10711     13.3 1.452e+04 3.248e-09
 81.11466     11.5 1.431e+04 3.936e-09
 81.12516     11.3 1.435e+04 3.947e-09
 81.14356     10.8 1.435e+04 4.756e-09
 81.15501     10.9 1.447e+04 5.225e-09
 81.16551     11.1 1.367e+04 4.305e-09
 81.18557     11.5 1.358e+04 3.895e-09
 81.20291     11.1 1.345e+04 3.050e-09
 81.21341     10.8 1.261e+04 2.199e-09
 81.22758      8.7 1.149e+04 1.339e-09
 81.24859      6.2 1.056e+04 9.238e-10
 81.26131      4.4 1.025e+04 8.243e-10
 81.27181      3.8 1.032e+04 7.305e-10
 81.29060      2.6 1.064e+04 8.753e-10
 81.30921      1.6 1.117e+04 1.174e-09
 81.31971      0.6 1.130e+04 1.316e-09
 81.33261     -0.2 1.197e+04 1.941e-09
 81.35362     -1.1 1.322e+04 3.026e-09
 81.36761     -2.6 1.499e+04 4.941e-09
 81.37811     -3.6 1.538e+04 5.059e-09
 81.39563     -5.4 1.656e+04 6.896e-09
 81.41551     -7.0 1.680e+04 7.594e-09
 81.42601     -8.4 1.579e+04 5.242e-09
 81.43563     -9.3 1.492e+04 4.283e-09
 81.44613    -10.4 1.417e+04 3.845e-09
 81.45864    -10.4 1.353e+04 2.741e-09
 81.47391    -11.2 1.264e+04 1.589e-09
 81.48442    -13.5 1.160e+04 9.545e-10
 81.50065    -15.3 1.064e+04 5.805e-10
 81.52166    -16.0 1.010e+04 4.223e-10
 81.53231    -15.6 9.929e+03 3.326e-10
 81.54282    -16.3 9.733e+03 3.157e-10
 81.57427    -16.4 9.567e+03 2.913e-10
 81.61638    -14.6 9.036e+03 1.920e-10
 81.63881    -12.9 8.849e+03 1.415e-10
 81.65982    -12.7 8.801e+03 1.506e-10
 81.70040    -10.9 8.800e+03 1.449e-10
 81.73461     -9.3 8.956e+03 1.571e-10
 81.75561     -8.9 8.990e+03 1.765e-10
 81.76730     -7.2 9.151e+03 2.213e-10
 81.78830     -6.0 8.910e+03 1.473e-10
 81.82643     -4.3 9.047e+03 1.905e-10
 81.85141     -2.5 9.159e+03 2.333e-10
 81.87242     -1.9 9.180e+03 2.378e-10
 81.91045     -0.1 9.226e+03 2.461e-10
 81.94721      1.5 9.245e+03 2.320e-10
 81.96822      1.8 9.303e+03 2.385e-10
 81.99447      3.0 9.280e+03 2.207e-10
 82.03648      4.3 9.237e+03 2.100e-10
 82.06401      5.9 9.181e+03 2.046e-10
 82.08502      6.2 9.180e+03 2.059e-10
 82.12051      8.4 8.997e+03 1.642e-10
 82.15981     10.7 8.922e+03 1.267e-10
 82.18082     11.0 8.944e+03 9.262e-11
 82.20453     12.9 8.953e+03 6.692e-11
 82.24654     15.0 9.005e+03 5.400e-11
 82.27661     16.8 9.084e+03 4.971e-11
 82.29762     16.8 8.815e+03 4.723e-11
 82.33056     18.7 8.896e+03 5.083e-11
 82.37241     20.7 8.881e+03 7.033e-11
 82.40908     23.9 8.706e+03 8.489e-11
 82.43024     24.3 8.751e+03 9.367e-11
 82.45659     27.0 8.824e+03 1.086e-10
 82.48922     29.5 8.945e+03 1.175e-10
 82.51022     29.9 8.888e+03 9.268e-11
 82.54061     32.1 8.950e+03 9.710e-11
 82.58262     34.2 9.009e+03 1.039e-10
 82.60602     36.3 9.115e+03 1.167e-10
 82.62703     36.5 9.054e+03 9.243e-11
 82.66664     38.2 9.234e+03 1.180e-10
 82.70182     39.6 9.487e+03 1.738e-10
 82.72282     39.9 9.435e+03 1.764e-10
 82.75066     41.5 9.705e+03 2.779e-10
 82.79267     43.6 9.976e+03 4.059e-10
 82.81862     45.6 1.018e+04 4.759e-10
 82.83963     46.5 9.929e+03 3.466e-10
 82.87670     48.4 9.900e+03 3.300e-10
 82.91442     50.4 9.808e+03 2.790e-10
 82.93542     51.4 9.589e+03 1.685e-10
 82.96072     53.2 9.511e+03 1.423e-10
 83.00273     55.2 9.455e+03 1.174e-10
 83.03122     57.2 9.402e+03 9.745e-11
 83.05223     58.2 9.324e+03 7.329e-11
 83.07219     60.4 9.309e+03 6.857e-11
 83.09319     60.3 9.312e+03 6.878e-11
 83.12702     62.5 9.309e+03 6.857e-11
 83.14803     63.6 9.307e+03 5.455e-11
 83.17077     65.7 9.315e+03 5.776e-11
 83.21278     67.9 9.335e+03 6.341e-11
 83.24382     70.0 9.359e+03 6.999e-11
 83.26483     71.1 9.344e+03 6.328e-11
 83.29680     73.3 9.374e+03 7.200e-11
 83.33881     75.4 9.428e+03 8.025e-11
 83.36063     77.5 9.506e+03 8.845e-11
 83.38163     78.7 9.506e+03 9.128e-11
 83.42283     80.6 9.604e+03 1.054e-10
 83.45643     82.3 9.726e+03 1.253e-10
 83.47743     83.4 9.750e+03 1.373e-10
 83.50685     84.9 9.938e+03 1.814e-10
 83.54887     86.3 1.018e+04 2.405e-10
 83.57323     87.3 1.042e+04 2.960e-10
 83.59423     88.2 1.050e+04 3.985e-10
 83.63289     89.0 1.087e+04 4.451e-10
 83.66903     89.4 1.099e+04 4.434e-10
 83.69003     90.2 1.113e+04 5.433e-10
 83.71413     90.6 1.121e+04 4.894e-10
 83.73514     90.2 1.116e+04 4.573e-10
 83.75892     90.8 1.120e+04 3.502e-10
 83.78583     91.4 1.127e+04 2.509e-10
 83.80684     92.3 1.135e+04 2.828e-10
 83.84294     92.7 1.133e+04 2.069e-10
 83.88163     93.4 1.126e+04 2.002e-10
 83.90263     94.2 1.125e+04 1.995e-10
 83.92696     95.2 1.124e+04 2.070e-10
 83.96897     96.5 1.126e+04 2.378e-10
 83.99843     97.9 1.135e+04 2.959e-10
 84.01944     98.7 1.130e+04 2.680e-10
 84.05299    100.2 1.141e+04 3.278e-10
 84.09423    101.6 1.152e+04 3.784e-10
 84.11524    102.4 1.145e+04 3.435e-10
 84.13701    103.8 1.154e+04 3.738e-10
 84.17902    105.2 1.157e+04 3.860e-10
 84.21103    106.6 1.159e+04 3.924e-10
 84.23204    107.5 1.158e+04 3.951e-10
 84.26305    108.9 1.162e+04 4.166e-10
 84.30506    110.1 1.167e+04 4.587e-10
 84.32784    111.3 1.178e+04 5.470e-10
 84.34884    112.3 1.190e+04 6.151e-10
 84.37708    113.5 1.208e+04 7.518e-10
 84.39808    113.6 1.195e+04 6.835e-10
 84.42364    114.4 1.216e+04 8.236e-10
 84.44464    115.4 1.227e+04 8.735e-10
 84.47310    115.8 1.227e+04 8.555e-10
 84.51511    116.3 1.218e+04 7.612e-10
 84.54044    116.7 1.195e+04 5.858e-10
 84.56144    117.5 1.194e+04 5.374e-10
 84.59913    118.0 1.174e+04 3.654e-10
 84.63624    118.3 1.158e+04 2.574e-10
 84.65724    118.9 1.150e+04 2.354e-10
 84.68315    119.5 1.142e+04 2.266e-10
 84.72516    120.4 1.144e+04 2.375e-10
 84.75304    121.3 1.161e+04 2.957e-10
 84.77405    122.1 1.156e+04 2.937e-10
 84.80918    123.1 1.185e+04 4.053e-10
 84.84884    123.6 1.206e+04 5.274e-10
 84.86984    124.6 1.194e+04 4.955e-10
 84.88260    124.8 1.200e+04 5.902e-10
 84.90351    125.0 1.209e+04 6.934e-10
 84.91755    125.2 1.220e+04 7.813e-10
 84.92805    125.7 1.207e+04 7.359e-10
 84.94552    125.9 1.213e+04 7.903e-10
 84.96545    126.1 1.218e+04 8.064e-10
 84.97595    126.6 1.204e+04 7.293e-10
 84.98753    126.6 1.204e+04 7.176e-10
 85.00854    126.7 1.202e+04 6.958e-10
 85.02385    126.7 1.196e+04 6.649e-10
 85.03414    127.1 1.187e+04 6.066e-10
 85.03983    127.4 1.201e+04 7.084e-10
 85.05055    127.5 1.192e+04 6.747e-10
 85.07155    127.4 1.178e+04 6.218e-10
 85.08225    127.4 1.156e+04 5.291e-10
 85.09275    127.7 1.149e+04 5.156e-10
 85.11357    127.6 1.138e+04 4.756e-10
 85.14517    128.3 1.120e+04 4.232e-10
 85.17824    128.9 1.073e+04 2.935e-10
 85.19925    129.2 1.082e+04 3.203e-10
 85.22929    130.2 1.044e+04 2.283e-10
 85.27130    131.3 1.018e+04 1.753e-10
 85.29505    132.6 9.996e+03 1.640e-10
 85.31605    132.4 1.026e+04 2.306e-10
 85.35532    133.9 1.024e+04 2.373e-10
 85.39084    135.5 1.024e+04 2.550e-10
 85.41185    134.8 1.064e+04 3.923e-10
 85.43934    136.6 1.066e+04 4.288e-10
 85.48135    138.3 1.071e+04 4.651e-10
 85.50765    140.0 1.082e+04 5.049e-10
 85.52865    139.2 1.106e+04 6.722e-10
 85.55477    140.1 1.102e+04 6.615e-10
 85.56585    140.8 1.103e+04 6.654e-10
 85.57636    140.6 1.109e+04 7.219e-10
 85.59669    141.4 1.107e+04 7.150e-10
 85.61375    141.9 1.107e+04 7.115e-10
 85.62426    141.3 1.114e+04 7.601e-10
 85.63870    141.9 1.110e+04 7.383e-10
 85.65970    142.5 1.109e+04 7.179e-10
 85.68187    143.2 1.103e+04 6.651e-10
 85.70288    142.9 1.119e+04 7.769e-10
 85.72015    143.8 1.124e+04 8.007e-10
 85.74125    142.3 1.137e+04 9.059e-10
 85.77543    143.2 1.126e+04 8.084e-10
 85.81605    143.8 1.110e+04 6.900e-10
 85.83705    142.2 1.134e+04 8.980e-10
 85.85945    142.7 1.120e+04 7.920e-10
 85.90146    143.1 1.108e+04 6.995e-10
 85.93285    143.6 1.099e+04 6.245e-10
 85.95386    142.3 1.117e+04 7.485e-10
 85.98548    142.7 1.097e+04 6.067e-10
 86.02749    143.2 1.073e+04 4.812e-10
 86.04965    143.7 1.046e+04 3.725e-10
 86.07066    141.8 1.049e+04 3.976e-10
 86.11151    142.5 1.028e+04 3.250e-10
 86.14545    143.5 1.029e+04 3.130e-10
 86.16636    142.6 1.046e+04 3.913e-10
 86.18484    143.5 1.048e+04 3.868e-10
 86.20366    144.1 1.057e+04 3.974e-10
 86.21416    143.1 1.098e+04 5.500e-10
 86.22685    143.5 1.115e+04 6.177e-10
 86.24785    143.9 1.135e+04 7.096e-10
 86.26206    144.3 1.161e+04 8.485e-10
 86.27256    143.1 1.214e+04 1.304e-09
 86.28986    143.3 1.257e+04 1.677e-09
 86.30996    143.4 1.307e+04 2.218e-09
 86.32046    142.8 1.361e+04 2.966e-09
 86.33187    143.4 1.403e+04 3.410e-09
 86.34472    143.8 1.428e+04 3.600e-09
 86.35523    143.6 1.464e+04 4.228e-09
 86.36836    143.7 1.465e+04 4.116e-09
 86.37886    142.8 1.435e+04 3.288e-09
 86.39489    142.7 1.401e+04 2.521e-09
 86.41589    142.6 1.364e+04 1.955e-09
 86.44750    140.7 1.300e+04 1.291e-09
 86.47486    139.6 1.243e+04 1.026e-09
 86.49586    137.3 1.193e+04 8.984e-10
 86.53162    137.6 1.191e+04 9.035e-10
 86.57066    138.0 1.190e+04 9.125e-10
 86.59166    135.8 1.176e+04 8.326e-10
 86.61564    134.8 1.189e+04 9.044e-10
 86.65765    133.5 1.202e+04 1.019e-09
 86.68746    131.7 1.220e+04 1.191e-09
 86.70846    129.1 1.242e+04 1.347e-09
 86.74167    127.2 1.249e+04 1.380e-09
 86.78326    125.2 1.241e+04 1.287e-09
 86.80426    122.7 1.229e+04 1.184e-09
 86.82569    121.2 1.185e+04 9.297e-10
 86.86770    120.2 1.135e+04 7.138e-10
 86.90006    119.7 1.093e+04 5.919e-10
 86.92107    118.7 1.064e+04 5.074e-10
 86.95172    119.1 1.064e+04 5.096e-10
 86.98686    119.7 1.070e+04 5.131e-10
 87.00787    119.9 1.072e+04 5.139e-10
 87.01686    120.4 1.074e+04 5.106e-10
 87.03787    119.5 1.067e+04 4.071e-10
 87.07776    119.9 1.067e+04 4.236e-10
 87.11266    120.3 1.061e+04 4.297e-10
 87.13367    119.6 1.059e+04 4.555e-10
 87.16178    120.2 1.058e+04 4.552e-10
 87.20379    120.7 1.052e+04 4.408e-10
 87.22946    121.4 1.040e+04 3.819e-10
 87.25047    120.5 1.061e+04 4.214e-10
 87.28781    120.8 1.046e+04 3.574e-10
 87.32526    121.2 1.025e+04 3.240e-10
 87.34627    120.6 1.040e+04 4.263e-10
 87.37183    121.6 1.018e+04 3.840e-10
 87.41384    122.7 1.001e+04 3.424e-10
 87.44207    123.9 9.880e+03 3.076e-10
 87.46307    123.7 9.783e+03 2.554e-10
 87.49786    124.7 9.746e+03 2.458e-10
 87.53786    125.6 9.758e+03 2.486e-10
 87.55887    125.5 9.799e+03 2.491e-10
 87.58188    126.3 9.947e+03 2.908e-10
 87.62389    126.4 1.007e+04 3.381e-10
 87.64971    126.4 1.018e+04 4.036e-10
 87.65938    126.5 1.023e+04 4.410e-10
 87.66498    126.6 1.044e+04 5.677e-10
 87.67621    126.7 1.061e+04 6.623e-10
 87.69722    126.5 1.083e+04 7.490e-10
 87.71287    125.3 1.143e+04 9.509e-10
 87.72338    124.3 1.190e+04 1.200e-09
 87.73923    121.3 1.324e+04 2.233e-09
 87.76023    119.0 1.467e+04 4.608e-09
 87.77128    117.7 1.584e+04 7.657e-09
 87.78178    117.5 1.602e+04 5.812e-09
 87.80224    115.7 1.616e+04 5.592e-09
 87.81918    114.3 1.616e+04 4.069e-09
 87.82968    111.5 1.565e+04 2.184e-09
 87.84425    109.2 1.470e+04 9.043e-10
 87.86717    104.9 1.325e+04 3.999e-10
 87.88827    100.2 1.087e+04 2.761e-10
 87.91797     97.7 9.594e+03 2.008e-10
 87.95998     97.5 9.565e+03 1.997e-10
 87.98407     97.5 9.574e+03 2.013e-10
 88.00508     97.4 9.514e+03 1.975e-10
 88.04400     97.0 9.658e+03 2.259e-10
 88.07987     96.4 9.968e+03 3.159e-10
 88.10088     96.4 9.954e+03 3.407e-10
 88.12802     96.1 1.041e+04 5.085e-10
 88.17003     95.6 1.081e+04 5.846e-10
 88.19667     94.7 1.084e+04 5.626e-10
 88.21768     94.2 1.054e+04 3.515e-10
 88.25405     92.9 1.041e+04 2.870e-10
 88.29175     91.6 1.009e+04 2.234e-10
 88.30917     92.2 1.012e+04 2.499e-10
 88.31348     91.7 9.829e+03 2.456e-10
 88.33807     91.3 9.641e+03 2.371e-10
 88.38008     91.2 9.534e+03 2.243e-10
 88.40928     91.5 9.458e+03 2.009e-10
 88.43028     91.8 9.582e+03 2.409e-10
 88.46411     92.1 9.541e+03 2.236e-10
 88.50507     92.5 9.559e+03 2.245e-10
 88.52608     92.6 9.697e+03 2.467e-10
 88.54813     93.1 9.819e+03 2.661e-10
 88.59014     93.6 9.903e+03 2.740e-10
 88.62188     94.1 9.907e+03 2.710e-10
 88.64288     94.0 9.875e+03 2.699e-10
 88.67416     94.4 9.859e+03 2.567e-10
 88.71617     94.8 9.851e+03 2.407e-10
 88.73868     95.2 9.847e+03 2.327e-10
 88.75969     94.9 9.986e+03 2.686e-10
 88.80019     95.3 1.004e+04 2.900e-10
 88.83448     95.8 1.008e+04 3.099e-10
 88.85548     95.8 1.026e+04 3.486e-10
 88.88421     96.5 1.026e+04 3.447e-10
 88.92622     97.2 1.022e+04 3.180e-10
 88.95128     98.0 1.018e+04 2.697e-10
 88.95876     97.9 1.027e+04 2.020e-10
 88.97571     97.6 1.026e+04 1.553e-10
 89.01024     98.0 1.008e+04 1.172e-10
 89.04708     98.6 9.863e+03 1.122e-10
 89.06809     98.6 9.822e+03 1.023e-10
 89.09426     99.7 9.856e+03 1.059e-10
 89.13628    100.8 9.922e+03 1.183e-10
 89.16388    101.7 1.003e+04 1.428e-10
 89.18489    102.0 1.008e+04 1.537e-10
 89.22030    102.7 1.033e+04 2.030e-10
 89.25968    103.1 1.065e+04 2.905e-10
 89.28069    103.4 1.065e+04 2.951e-10
 89.30432    103.7 1.090e+04 3.683e-10
 89.34633    103.7 1.090e+04 3.680e-10
 89.37649    103.4 1.079e+04 3.399e-10
 89.39749    103.4 1.084e+04 3.328e-10
 89.43035    102.8 1.065e+04 2.691e-10
 89.47228    101.9 1.045e+04 2.381e-10
 89.51429    101.9 1.065e+04 3.248e-10
 89.55638    101.6 1.070e+04 3.423e-10
 89.58779    101.5 1.081e+04 3.824e-10
 89.59939    101.5 1.091e+04 4.334e-10
 89.60815    102.4 1.060e+04 5.830e-10
 89.61745    102.5 1.082e+04 7.285e-10
 89.62970    102.5 1.094e+04 8.314e-10
 89.64729    102.2 1.103e+04 9.022e-10
 89.65780    102.7 1.200e+04 8.187e-10
 89.67172    102.0 1.215e+04 8.044e-10
 89.69272    101.1 1.235e+04 7.648e-10
 89.70569     99.7 1.251e+04 7.164e-10
 89.71620     98.4 1.437e+04 9.792e-10
 89.73473     96.7 1.445e+04 9.572e-10
 89.75359     95.0 1.422e+04 9.772e-10
 89.76410     94.6 1.369e+04 1.744e-09
 89.77674     93.4 1.345e+04 1.726e-09
 89.79775     92.4 1.337e+04 1.807e-09
 89.81200     91.6 1.333e+04 2.106e-09
 89.82250     92.7 1.324e+04 2.467e-09
 89.83976     92.0 1.369e+04 2.824e-09
 89.85989     91.4 1.423e+04 3.499e-09
 89.87040     91.7 1.395e+04 3.154e-09
 89.88177     91.0 1.450e+04 4.110e-09
 89.90277     90.3 1.500e+04 5.344e-09
 89.91830     89.8 1.532e+04 6.529e-09
 89.92880     90.0 1.550e+04 5.293e-09
 89.93843     89.6 1.604e+04 6.331e-09
 89.94893     89.1 1.672e+04 6.621e-09
 89.96579     88.6 1.713e+04 7.411e-09
 89.97670     88.0 1.707e+04 7.954e-09
 89.98720     87.5 1.768e+04 5.168e-09
 90.00780     87.0 1.734e+04 5.017e-09
 90.02460     86.6 1.664e+04 4.796e-09
 90.03510     85.4 1.424e+04 2.218e-09
 90.04981     85.2 1.413e+04 2.077e-09
 90.07082     85.2 1.405e+04 2.092e-09
 90.08300     85.3 1.391e+04 2.201e-09
 90.09350     84.3 1.277e+04 9.060e-10
 90.11283     84.7 1.354e+04 1.034e-09
 90.13090     85.0 1.425e+04 1.284e-09
 90.14140     83.6 1.130e+04 5.446e-10
 90.15484     84.1 1.256e+04 6.989e-10
 90.17584     84.7 1.379e+04 9.703e-10
 90.18930     85.1 1.466e+04 1.372e-09
 90.19980     83.7 1.052e+04 5.781e-10
 90.21785     83.7 1.115e+04 7.818e-10
 90.23720     83.7 1.176e+04 1.062e-09
 90.24770     83.8 1.060e+04 7.853e-10
 90.25940     83.9 1.106e+04 1.002e-09
 90.26990     83.8 1.076e+04 8.458e-10
 90.28087     84.0 1.119e+04 1.069e-09
 90.29560     84.1 1.145e+04 1.187e-09
 90.30610     84.8 1.107e+04 9.662e-10
 90.32288     84.9 1.110e+04 9.711e-10
 90.34350     84.9 1.106e+04 9.368e-10
 90.35400     85.6 1.084e+04 7.736e-10
 90.36489     85.6 1.072e+04 7.075e-10
 90.38590     85.7 1.049e+04 6.116e-10
 90.40190     85.7 1.024e+04 5.183e-10
 90.41240     86.3 9.990e+03 4.472e-10
 90.42791     86.1 9.924e+03 4.033e-10
 90.44891     85.9 9.905e+03 3.812e-10
 90.46040     86.0 9.706e+03 3.345e-10
 90.48150     87.5 9.550e+03 2.993e-10
 90.52263     87.8 9.359e+03 2.658e-10
 90.55630     88.1 9.386e+03 2.695e-10
 90.57730     89.5 9.271e+03 2.361e-10
 90.60665     89.4 9.301e+03 2.501e-10
 90.64866     89.6 9.484e+03 3.025e-10
 90.67310     89.7 9.631e+03 3.774e-10
 90.69410     91.3 9.533e+03 2.898e-10
 90.73268     91.4 9.697e+03 3.528e-10
 90.76409     91.8 9.684e+03 3.982e-10
 90.77920     92.3 9.736e+03 4.657e-10
 90.78980     93.1 9.606e+03 3.320e-10
 90.80610     93.3 9.736e+03 4.178e-10
 90.82701     93.5 9.922e+03 5.286e-10
 90.84801     94.3 9.940e+03 4.983e-10
 90.86902     94.2 1.051e+04 6.932e-10
 90.88551     92.9 1.157e+04 1.176e-09
 90.89601     93.3 1.125e+04 8.167e-10
 90.91103     91.3 1.257e+04 1.682e-09
 90.92235     90.8 1.380e+04 3.505e-09
 90.93285     90.4 1.393e+04 3.568e-09
 90.94391     90.6 1.489e+04 6.341e-09
 90.95441     91.2 1.453e+04 4.517e-09
 90.97404     91.2 1.488e+04 5.821e-09
 90.99181     90.9 1.484e+04 5.753e-09
 91.00231     91.1 1.440e+04 3.807e-09
 91.01605     90.6 1.414e+04 3.507e-09
 91.03706     89.8 1.358e+04 2.782e-09
 91.05021     88.5 1.290e+04 2.065e-09
 91.06071     88.1 1.270e+04 1.692e-09
 91.07907     86.9 1.218e+04 1.395e-09
 91.09811     86.1 1.182e+04 1.228e-09
 91.10861     86.5 1.153e+04 9.734e-10
 91.12108     86.2 1.130e+04 8.544e-10
 91.14209     86.1 1.112e+04 7.519e-10
 91.15651     85.9 1.098e+04 6.766e-10
 91.16701     85.7 1.053e+04 4.698e-10
 91.19400     84.9 1.073e+04 4.920e-10
 91.21501     84.3 1.001e+04 3.170e-10
 91.23671     82.7 1.005e+04 3.446e-10
 91.27882     81.1 1.041e+04 4.958e-10
 91.31090     79.7 1.080e+04 6.491e-10
 91.33191     80.8 1.085e+04 6.992e-10
 91.36284     79.5 1.086e+04 6.668e-10
 91.40485     78.0 1.067e+04 4.876e-10
 91.42771     76.2 1.022e+04 2.745e-10
 91.44871     77.0 1.042e+04 3.325e-10
 91.48887     75.0 9.755e+03 2.372e-10
 91.52351     74.8 9.688e+03 2.368e-10
 91.54451     75.2 9.988e+03 3.216e-10
 91.56448     75.3 1.003e+04 3.691e-10
 91.58549     76.5 9.942e+03 2.958e-10
 91.61490     77.3 1.003e+04 3.265e-10
 91.64031     78.2 1.031e+04 3.764e-10
 91.65071     77.0 1.065e+04 6.113e-10
 91.66722     77.0 1.101e+04 7.267e-10
 91.68801     76.6 1.156e+04 9.266e-10
 91.69851     75.0 1.326e+04 1.695e-09
 91.70923     74.5 1.375e+04 2.255e-09
 91.73023     74.4 1.414e+04 2.956e-09
 91.74641     74.6 1.433e+04 3.510e-09
 91.75692     74.6 1.458e+04 4.501e-09
 91.77225     75.1 1.449e+04 4.397e-09
 91.79325     75.7 1.411e+04 3.923e-09
 91.80482     76.3 1.353e+04 2.965e-09
 91.81532     76.4 1.308e+04 2.537e-09
 91.83526     76.1 1.256e+04 1.767e-09
 91.85271     75.3 1.206e+04 1.240e-09
 91.86322     74.5 1.163e+04 1.037e-09
 91.87727     73.9 1.113e+04 8.304e-10
 91.89576     73.8 1.079e+04 6.981e-10
 91.90627     74.2 1.111e+04 8.492e-10
 91.91112     74.3 1.078e+04 7.115e-10
 91.92162     74.4 1.071e+04 7.077e-10
 91.94029     74.7 1.060e+04 6.146e-10
 91.95902     74.9 1.051e+04 5.197e-10
 91.96952     75.3 1.051e+04 5.438e-10
 91.98230     75.3 1.045e+04 4.704e-10
 92.00330     75.3 1.038e+04 4.085e-10
 92.01742     75.3 1.031e+04 3.625e-10
 92.02792     75.9 1.047e+04 4.258e-10
 92.04531     75.9 1.043e+04 3.886e-10
 92.06532     75.9 1.034e+04 3.573e-10
 92.07582     76.6 1.057e+04 4.333e-10
 92.08732     76.5 1.037e+04 4.027e-10
 92.10833     76.3 1.016e+04 3.992e-10
 92.12372     75.7 1.020e+04 4.042e-10
 92.13422     74.5 1.175e+04 6.045e-10
 92.15034     68.7 1.523e+04 1.075e-09
 92.17135     62.4 1.690e+04 2.514e-09
 92.18212     59.2 1.725e+04 5.190e-09
 92.19262     58.3 1.926e+04 1.495e-08
 92.21336     58.5 1.897e+04 1.730e-08
 92.22724     58.3 1.919e+04 1.717e-08
 92.23340     57.5 1.908e+04 1.523e-08
 92.24052     54.9 2.076e+04 1.688e-08
 92.25537     53.0 2.045e+04 1.242e-08
 92.27637     50.6 1.907e+04 8.408e-09
 92.28842     48.4 1.676e+04 5.413e-09
 92.29892     45.0 1.438e+04 3.810e-09
 92.31838     45.2 1.316e+04 2.547e-09
 92.33632     45.7 1.223e+04 1.744e-09
 92.34682     44.9 1.172e+04 1.167e-09
 92.37099     44.7 9.969e+03 5.261e-10
 92.39492     44.1 7.959e+03 1.995e-10
 92.41592     40.4 7.357e+03 9.748e-11
 92.45511     40.4 6.970e+03 7.928e-11
 92.49071     41.6 6.865e+03 7.714e-11
 92.51172     41.2 6.836e+03 7.633e-11
 92.53913     42.8 6.835e+03 7.940e-11
 92.58114     44.2 6.910e+03 8.939e-11
 92.60752     45.7 7.046e+03 1.051e-10
 92.62852     45.4 7.068e+03 1.081e-10
 92.66517     46.7 7.337e+03 1.369e-10
 92.70332     47.6 7.742e+03 1.838e-10
 92.72432     46.7 8.307e+03 2.444e-10
 92.73859     46.7 8.615e+03 2.951e-10
 92.75949     45.8 9.118e+03 3.853e-10
 92.77202     44.2 9.929e+03 5.901e-10
 92.78253     41.8 1.086e+04 9.957e-10
 92.80151     40.3 1.182e+04 1.624e-09
 92.81992     39.1 1.259e+04 2.363e-09
 92.83043     38.2 1.347e+04 3.492e-09
 92.84352     37.4 1.374e+04 3.823e-09
 92.86452     36.3 1.377e+04 3.582e-09
 92.87833     34.3 1.375e+04 3.082e-09
 92.88298     32.3 1.377e+04 2.608e-09
 92.89018     30.4 1.376e+04 2.664e-09
 92.90653     25.6 1.328e+04 1.899e-09
 92.92622     19.9 1.244e+04 1.505e-09
 92.93673     16.8 1.168e+04 1.273e-09
 92.94854     13.0 1.167e+04 1.361e-09
 92.96955     10.3 1.189e+04 1.529e-09
 92.98463      8.2 1.215e+04 1.670e-09
 92.99513      6.6 1.231e+04 1.816e-09
 93.01156      5.0 1.228e+04 1.812e-09
 93.03253      3.5 1.224e+04 1.758e-09
 93.05353      0.7 1.264e+04 1.991e-09
 93.07457     -1.2 1.294e+04 2.091e-09
 93.09093     -2.6 1.300e+04 2.271e-09
 93.10143     -2.8 1.305e+04 2.356e-09
 93.11658     -2.8 1.306e+04 2.427e-09
 93.13759     -2.4 1.292e+04 2.220e-09
 93.14933     -1.7 1.275e+04 1.790e-09
 93.15983     -2.3 1.278e+04 1.595e-09
 93.17960     -2.6 1.266e+04 1.203e-09
 93.19723     -3.2 1.246e+04 8.802e-10
 93.20773     -4.4 1.200e+04 7.586e-10
 93.22161     -6.0 1.109e+04 5.149e-10
 93.24262     -4.9 1.124e+04 4.992e-10
 93.25563     -4.8 1.135e+04 5.058e-10
 93.26623     -4.6 1.114e+04 5.118e-10
 93.28472     -3.7 1.114e+04 4.263e-10
 93.30353     -3.7 1.124e+04 4.279e-10
 93.31403     -3.5 1.094e+04 3.524e-10
 93.32664     -3.0 1.105e+04 3.702e-10
 93.34764     -2.8 1.109e+04 3.773e-10
 93.36193     -2.4 1.115e+04 4.083e-10
 93.38303     -1.8 1.105e+04 3.456e-10
 93.40993     -1.3 1.079e+04 3.460e-10
 93.42033     -1.1 1.075e+04 2.772e-10
 93.43166     -0.9 1.078e+04 3.114e-10
 93.45267     -0.2 1.072e+04 3.667e-10
 93.46823      0.5 1.074e+04 4.374e-10
 93.47873      0.3 1.080e+04 4.288e-10
 93.49468      0.9 1.100e+04 5.253e-10
 93.51569      1.7 1.119e+04 6.553e-10
 93.52663      2.3 1.155e+04 8.248e-10
 93.53257      1.8 1.198e+04 1.075e-09
 93.54263      1.0 1.215e+04 1.196e-09
 93.55770      1.0 1.276e+04 1.667e-09
 93.57453      1.2 1.323e+04 2.181e-09
 93.58503      0.9 1.369e+04 2.743e-09
 93.59971      1.4 1.395e+04 3.206e-09
 93.62071      2.0 1.395e+04 3.177e-09
 93.63293      2.7 1.380e+04 2.873e-09
 93.64344      2.8 1.394e+04 2.864e-09
 93.66272      3.1 1.393e+04 2.149e-09
 93.68083      2.6 1.416e+04 1.523e-09
 93.69134      1.3 1.391e+04 1.081e-09
 93.70473     -0.8 1.347e+04 8.795e-10
 93.72574     -2.3 1.255e+04 8.145e-10
 93.73923     -3.9 1.233e+04 9.500e-10
 93.74974     -4.4 1.207e+04 9.902e-10
 93.76775     -4.4 1.204e+04 1.059e-09
 93.78713     -3.9 1.235e+04 1.358e-09
 93.80824     -4.1 1.238e+04 1.399e-09
 93.83086     -3.5 1.259e+04 1.644e-09
 93.84553     -3.3 1.282e+04 1.796e-09
 93.85604     -3.1 1.273e+04 1.740e-09
 93.86360     -2.9 1.290e+04 1.757e-09
 93.87410     -4.7 1.344e+04 1.785e-09
 93.89343     -7.9 1.539e+04 2.214e-09
 93.90394    -10.3 1.641e+04 2.902e-09
 93.91479    -13.5 1.617e+04 3.995e-09
 93.93579    -14.6 1.508e+04 4.751e-09
 93.95184    -13.9 1.424e+04 4.688e-09
 93.96234    -13.4 1.392e+04 4.100e-09
 93.97780    -13.6 1.395e+04 2.697e-09
 93.99881    -16.4 1.426e+04 1.564e-09
 94.01024    -21.5 1.284e+04 9.099e-10
 94.02074    -23.7 1.137e+04 5.804e-10
 94.04082    -25.7 1.036e+04 5.564e-10
 94.05814    -25.5 1.036e+04 5.718e-10
 94.06864    -25.2 1.010e+04 4.271e-10
 94.08283    -25.1 9.887e+03 4.360e-10
 94.10383    -24.8 9.809e+03 4.243e-10
 94.11654    -24.4 9.873e+03 3.835e-10
 94.13764    -24.2 9.609e+03 3.130e-10
 94.17427    -22.9 9.307e+03 2.537e-10
 94.19527    -22.3 9.293e+03 2.381e-10
 94.21253    -21.4 9.156e+03 1.768e-10
 94.23354    -19.9 9.034e+03 1.546e-10
 94.26157    -19.0 8.970e+03 1.308e-10
 94.30358    -18.0 8.782e+03 1.230e-10
 94.32933    -16.6 8.628e+03 1.155e-10
 94.35034    -15.3 8.624e+03 1.054e-10
 94.38760    -13.6 8.530e+03 9.488e-11
 94.42513    -12.1 8.520e+03 7.951e-11
 94.44614    -10.7 8.480e+03 7.778e-11
 94.47162     -9.3 8.452e+03 6.595e-11
 94.51363     -8.0 8.383e+03 5.859e-11
 94.54194     -6.6 8.358e+03 5.496e-11
 94.56294     -5.4 8.425e+03 5.646e-11
 94.59765     -4.1 8.440e+03 5.880e-11
 94.63773     -2.9 8.506e+03 6.487e-11
 94.65874     -1.8 8.575e+03 7.571e-11
 94.68167     -0.3 8.634e+03 8.712e-11
 94.72369      1.2 8.703e+03 9.499e-11
 94.75454      2.6 8.783e+03 1.002e-10
 94.77554      3.8 8.843e+03 1.174e-10
 94.80771      5.1 8.890e+03 1.175e-10
 94.83721      6.2 8.952e+03 1.223e-10
 94.85822      5.3 8.975e+03 1.282e-10
 94.87134      6.1 9.133e+03 1.612e-10
 94.89235      7.2 9.212e+03 1.619e-10
 94.93374      7.9 9.432e+03 2.178e-10
 94.96714      7.8 9.860e+03 3.067e-10
 94.98814      8.2 1.022e+04 3.860e-10
 95.01776      7.9 1.083e+04 6.474e-10
 95.05977      7.9 1.139e+04 9.397e-10
 95.08394      8.0 1.140e+04 9.390e-10
 95.10495      8.4 1.181e+04 1.215e-09
 95.14379      9.0 1.143e+04 9.311e-10
 95.17974      8.8 1.093e+04 5.534e-10
 95.20075      9.3 1.104e+04 6.546e-10
 95.22781      8.8 1.111e+04 5.511e-10
 95.25922      8.1 1.130e+04 6.008e-10
 95.28013      7.5 1.153e+04 6.556e-10
 95.29635      6.1 1.189e+04 8.292e-10
 95.30685      7.0 1.194e+04 8.961e-10
 95.32214      7.0 1.199e+04 1.064e-09
 95.35375      6.9 1.245e+04 1.351e-09
 95.39234      5.8 1.238e+04 1.336e-09
 95.41335      7.4 1.250e+04 1.466e-09
 95.43787      6.6 1.233e+04 1.350e-09
 95.47916      6.5 1.190e+04 1.054e-09
 95.50016      5.9 1.189e+04 5.949e-10
 95.50915      6.0 1.138e+04 4.836e-10
 95.53015      7.6 1.200e+04 5.375e-10
 95.56390      7.5 1.186e+04 5.096e-10
 95.60494      5.9 1.205e+04 6.286e-10
 95.62585      6.0 1.336e+04 9.303e-10
 95.63722      5.4 1.325e+04 1.306e-09
 95.65823      5.4 1.325e+04 1.635e-09
 95.67365      5.5 1.342e+04 1.763e-09
 95.68416      5.3 1.453e+04 2.337e-09
 95.70024      5.3 1.457e+04 2.298e-09
 95.72124      5.4 1.419e+04 1.970e-09
 95.73205      5.3 1.381e+04 1.734e-09
 95.74256      4.7 1.426e+04 2.185e-09
 95.76325      4.0 1.349e+04 1.905e-09
 95.77995      3.8 1.289e+04 1.815e-09
 95.79046      3.5 1.284e+04 2.003e-09
 95.80526      3.8 1.259e+04 1.964e-09
 95.82094      4.6 1.248e+04 2.007e-09
 95.83144      4.8 1.249e+04 1.728e-09
 95.83836      5.5 1.244e+04 1.844e-09
 95.84886      5.9 1.225e+04 1.738e-09
 95.86828      7.0 1.212e+04 1.659e-09
 95.88625      8.1 1.217e+04 1.544e-09
 95.89676      8.3 1.187e+04 1.117e-09
 95.91029      8.6 1.206e+04 9.445e-10
 95.93129      8.0 1.243e+04 9.765e-10
 95.94466      2.9 1.505e+04 1.549e-09
 95.95516      2.2 1.526e+04 1.181e-09
 95.97331     -5.8 1.667e+04 3.590e-09
 95.99256     -6.2 1.698e+04 1.112e-08
 96.00306     -5.8 1.698e+04 1.172e-08
 96.01532     -5.1 1.865e+04 1.924e-08
 96.03632     -7.0 2.076e+04 1.598e-08
 96.05096    -11.6 2.131e+04 7.092e-09
 96.06146     -9.9 2.205e+04 8.648e-09
 96.07833    -19.7 1.604e+04 2.995e-09
 96.09886    -23.9 1.275e+04 1.966e-09
 96.10936    -23.5 1.291e+04 1.832e-09
 96.12034    -23.9 1.262e+04 1.587e-09
 96.14135    -24.3 1.222e+04 1.326e-09
 96.15241    -24.3 1.197e+04 1.252e-09
 96.15792    -23.9 1.164e+04 9.399e-10
 96.16796    -24.0 1.151e+04 8.555e-10
 96.19406    -23.0 1.095e+04 6.418e-10
 96.23607    -22.2 1.061e+04 5.278e-10
 96.26375    -21.4 1.034e+04 4.726e-10
 96.28476    -21.6 1.016e+04 4.105e-10
 96.32009    -20.8 1.025e+04 4.460e-10
 96.35955    -20.4 1.064e+04 5.117e-10
 96.38056    -20.6 1.066e+04 5.900e-10
 96.40411    -20.4 1.095e+04 7.526e-10
 96.44612    -19.4 1.106e+04 9.144e-10
 96.47636    -18.2 1.100e+04 9.117e-10
 96.49736    -18.3 1.098e+04 8.928e-10
 96.53014    -17.2 1.072e+04 5.290e-10
 96.57215    -17.9 1.020e+04 2.982e-10
 96.61416    -18.8 9.679e+03 2.178e-10
 96.65617    -18.2 9.703e+03 2.243e-10
 96.68896    -18.4 1.003e+04 2.944e-10
 96.70996    -18.9 9.991e+03 2.993e-10
 96.74019    -19.6 1.037e+04 4.954e-10
 96.78220    -19.3 1.058e+04 7.483e-10
 96.80505    -19.5 1.034e+04 7.326e-10
 96.80760    -18.6 1.113e+04 1.170e-09
 96.82677    -18.2 1.144e+04 1.339e-09
 96.85356    -18.1 1.032e+04 5.158e-10
 96.86397    -18.5 1.037e+04 5.476e-10
 96.87653    -18.8 1.008e+04 4.874e-10
 96.90146    -22.7 9.212e+03 2.312e-10
 96.92256    -23.7 9.459e+03 2.834e-10
 96.95025    -26.7 9.256e+03 2.964e-10
 96.99226    -28.0 9.656e+03 6.324e-10
 97.01836    -27.0 1.042e+04 1.016e-09
 97.03937    -27.6 1.021e+04 8.642e-10
 97.07628    -30.6 1.056e+04 8.032e-10
 97.11416    -37.1 1.041e+04 7.206e-10
 97.13516    -40.4 9.859e+03 6.526e-10
 97.16030    -43.3 9.759e+03 7.331e-10
 97.20231    -44.8 9.510e+03 6.781e-10
 97.23096    -46.4 9.284e+03 4.995e-10
 97.25197    -47.5 7.981e+03 2.711e-10
 97.28633    -48.7 7.858e+03 2.301e-10
 97.32676    -49.4 7.669e+03 2.142e-10
 97.34777    -48.6 7.403e+03 1.838e-10
 97.37035    -48.4 7.628e+03 2.170e-10
 97.41236    -47.8 7.693e+03 2.249e-10
 97.44356    -47.2 7.609e+03 2.009e-10
 97.45719    -46.2 7.651e+03 2.199e-10
 97.46800    -45.7 7.606e+03 2.175e-10
 97.49638    -45.1 7.496e+03 1.834e-10
 97.53840    -44.6 7.372e+03 1.542e-10
 97.56037    -44.2 7.366e+03 1.495e-10
 97.58137    -43.4 7.548e+03 1.772e-10
 97.62242    -43.0 7.639e+03 1.794e-10
 97.65617    -43.0 8.174e+03 2.549e-10
 97.67717    -42.1 8.232e+03 2.670e-10
 97.70644    -42.1 8.871e+03 4.132e-10
 97.74845    -41.7 9.708e+03 6.837e-10
 97.77297    -41.0 1.065e+04 1.067e-09
 97.79397    -40.0 1.039e+04 9.462e-10
 97.82077    -39.8 1.108e+04 1.301e-09
 97.83118    -39.4 1.095e+04 1.242e-09
 97.84278    -39.3 1.123e+04 1.386e-09
 97.86378    -38.9 1.155e+04 1.543e-09
 97.87907    -39.2 1.169e+04 1.604e-09
 97.88958    -38.5 1.154e+04 1.530e-09
 97.90579    -38.7 1.175e+04 1.632e-09
 97.92680    -39.1 1.189e+04 1.694e-09
 97.93748    -39.7 1.198e+04 1.745e-09
 97.94798    -39.1 1.183e+04 1.608e-09
 97.96881    -39.6 1.206e+04 1.718e-09
 97.98547    -40.5 1.214e+04 1.803e-09
 98.00658    -39.5 1.164e+04 1.517e-09
 98.04252    -40.0 1.198e+04 1.740e-09
 98.08137    -40.4 1.214e+04 1.777e-09
 98.10237    -38.9 1.170e+04 1.582e-09
 98.10995    -39.2 1.186e+04 1.449e-09
 98.13095    -39.2 1.183e+04 1.415e-09
 98.16855    -39.5 1.129e+04 9.317e-10
 98.19817    -39.5 1.098e+04 7.134e-10
 98.21918    -38.6 1.060e+04 5.948e-10
 98.25258    -38.4 1.050e+04 5.072e-10
 98.29397    -37.4 1.041e+04 4.148e-10
 98.31498    -36.8 1.015e+04 3.968e-10
 98.33660    -35.4 1.003e+04 3.011e-10
 98.37861    -34.3 9.944e+03 2.210e-10
 98.41077    -33.3 9.947e+03 1.782e-10
 98.43178    -32.3 9.798e+03 1.560e-10
 98.46263    -31.9 9.978e+03 1.340e-10
 98.50464    -32.1 1.040e+04 1.364e-10
 98.52758    -34.1 1.114e+04 2.958e-10
 98.54858    -36.3 1.128e+04 5.521e-10
 98.58866    -36.3 1.199e+04 1.467e-09
 98.62007    -35.0 1.243e+04 2.066e-09
 98.63368    -34.4 1.261e+04 2.158e-09
 98.64419    -34.8 1.256e+04 1.804e-09
 98.66198    -34.5 1.259e+04 1.556e-09
 98.68158    -35.2 1.239e+04 1.234e-09
 98.69208    -36.7 1.199e+04 9.846e-10
 98.71459    -37.8 1.165e+04 8.370e-10
 98.74018    -38.2 1.117e+04 6.904e-10
 98.75637    -38.1 1.074e+04 5.715e-10
 98.77289    -36.8 1.050e+04 4.495e-10
 98.79871    -36.1 1.053e+04 4.781e-10
 98.83598    -35.1 1.062e+04 5.304e-10
 98.85698    -34.4 1.023e+04 3.657e-10
 98.88273    -33.3 1.037e+04 3.487e-10
 98.92475    -32.6 1.047e+04 3.371e-10
 98.95278    -32.2 1.067e+04 3.760e-10
 98.97379    -32.8 1.050e+04 2.846e-10
 99.00877    -32.0 1.062e+04 4.278e-10
 99.04858    -30.6 1.083e+04 5.843e-10
 99.06958    -30.5 1.089e+04 6.570e-10
 99.09279    -28.9 1.113e+04 7.623e-10
 99.13480    -27.8 1.126e+04 7.901e-10
 99.16538    -27.4 1.141e+04 7.985e-10
 99.18639    -27.7 1.136e+04 7.764e-10
 99.21882    -28.0 1.149e+04 8.022e-10
 99.26083    -28.7 1.165e+04 9.076e-10
 99.28218    -29.1 1.180e+04 9.709e-10
 99.30319    -28.8 1.110e+04 5.987e-10
 99.34485    -29.4 1.099e+04 4.247e-10
 99.37798    -30.7 1.071e+04 2.773e-10
 99.39899    -30.5 1.031e+04 1.379e-10
 99.41484    -31.1 1.021e+04 1.296e-10
 99.43584    -30.1 1.072e+04 2.549e-10
 99.47088    -30.1 1.084e+04 3.399e-10
 99.49479    -29.6 1.091e+04 4.226e-10
 99.51579    -28.9 1.096e+04 3.487e-10
 99.54259    -28.4 1.100e+04 3.995e-10
 99.55299    -28.4 1.100e+04 3.892e-10
 99.56521    -28.4 1.099e+04 4.090e-10
 99.58622    -27.8 1.112e+04 4.704e-10
 99.60089    -27.6 1.117e+04 4.814e-10
 99.61139    -27.6 1.137e+04 6.178e-10
 99.62823    -27.0 1.152e+04 6.510e-10
 99.64879    -26.7 1.155e+04 6.440e-10
 99.65929    -26.6 1.154e+04 7.902e-10
 99.67024    -25.9 1.148e+04 7.494e-10
 99.69124    -25.0 1.147e+04 5.805e-10
 99.70729    -24.7 1.133e+04 3.643e-10
 99.71779    -23.6 1.143e+04 5.931e-10
 99.73325    -23.1 1.137e+04 4.333e-10
 99.76486    -22.8 1.118e+04 3.338e-10
 99.80319    -22.1 1.070e+04 2.351e-10
 99.82419    -21.1 1.102e+04 2.856e-10
 99.84898    -19.5 1.067e+04 2.362e-10
 99.89099    -17.8 1.056e+04 2.204e-10
 99.91999    -16.2 1.062e+04 2.196e-10
 99.94099    -15.5 1.091e+04 3.052e-10
 99.97501    -14.4 1.100e+04 3.612e-10
100.01579    -13.1 1.108e+04 4.542e-10
