# Columns:
#   distance along LOS (in CHIMPs)
#   peculiar velocity  (in km/s)
#   temperature (K)
#   HI number density
# pos=(143.159,0.0835538,59.4834), angles=(1.46223,4.45702)
  0.00688    151.1 1.219e+04 9.320e-10
  0.01770    151.8 1.216e+04 9.215e-10
  0.02287    152.3 1.223e+04 9.366e-10
  0.02909    151.8 1.223e+04 9.024e-10
  0.04423    152.5 1.219e+04 8.741e-10
  0.06453    153.2 1.217e+04 8.498e-10
  0.08484    153.9 1.218e+04 8.297e-10
  0.09720    154.5 1.220e+04 8.158e-10
  0.10735    155.0 1.219e+04 8.116e-10
  0.12545    155.7 1.219e+04 7.972e-10
  0.15600    157.2 1.217e+04 7.863e-10
  0.17679    157.9 1.216e+04 7.946e-10
  0.18685    158.3 1.217e+04 7.944e-10
  0.20044    159.1 1.216e+04 8.006e-10
  0.21059    158.6 1.215e+04 8.008e-10
  0.22698    159.3 1.213e+04 7.999e-10
  0.24604    160.1 1.215e+04 8.011e-10
  0.25629    160.9 1.225e+04 8.243e-10
  0.26768    161.3 1.229e+04 8.327e-10
  0.28789    161.6 1.238e+04 8.398e-10
  0.30820    161.9 1.248e+04 8.465e-10
  0.32554    162.0 1.249e+04 8.394e-10
  0.33570    162.5 1.251e+04 8.384e-10
  0.35906    163.3 1.240e+04 7.278e-10
  0.38213    164.8 1.225e+04 6.382e-10
  0.39776    164.6 1.233e+04 7.654e-10
  0.41539    164.7 1.227e+04 6.934e-10
  0.44038    166.2 1.207e+04 5.475e-10
  0.48099    167.9 1.212e+04 5.302e-10
  0.52160    169.8 1.230e+04 5.860e-10
  0.55408    171.8 1.268e+04 7.456e-10
  0.57439    171.6 1.206e+04 3.858e-10
  0.60282    173.8 1.224e+04 4.378e-10
  0.64343    175.7 1.252e+04 5.019e-10
  0.67379    176.4 1.243e+04 4.499e-10
  0.69400    176.9 1.255e+04 4.980e-10
  0.71289    177.4 1.267e+04 6.412e-10
  0.72304    178.1 1.232e+04 4.214e-10
  0.73461    178.7 1.248e+04 5.660e-10
  0.74494    179.5 1.264e+04 7.604e-10
  0.75509    179.5 1.267e+04 8.212e-10
  0.77522    180.4 1.295e+04 1.083e-09
  0.79239    181.1 1.333e+04 1.421e-09
  0.80254    181.5 1.296e+04 1.057e-09
  0.81583    182.2 1.339e+04 1.419e-09
  0.83614    182.7 1.386e+04 1.900e-09
  0.85644    183.1 1.428e+04 2.485e-09
  0.87189    183.5 1.464e+04 3.123e-09
  0.88204    183.7 1.443e+04 2.586e-09
  0.89705    183.9 1.480e+04 3.188e-09
  0.91628    183.9 1.498e+04 3.555e-09
  0.92644    183.9 1.507e+04 3.688e-09
  0.93767    183.8 1.505e+04 3.658e-09
  0.95139    183.8 1.494e+04 3.519e-09
  0.96154    183.6 1.476e+04 3.099e-09
  0.97828    183.6 1.456e+04 2.890e-09
  0.99858    183.7 1.429e+04 2.565e-09
  1.01889    183.9 1.400e+04 2.205e-09
  1.03089    184.4 1.371e+04 1.859e-09
  1.04104    184.1 1.338e+04 1.605e-09
  1.05950    184.5 1.313e+04 1.389e-09
  1.07980    185.2 1.290e+04 1.241e-09
  1.09778    185.7 1.279e+04 1.195e-09
  1.10794    185.6 1.276e+04 1.226e-09
  1.13066    187.1 1.259e+04 1.166e-09
  1.16978    189.2 1.271e+04 1.229e-09
  1.19008    188.4 1.218e+04 1.082e-09
  1.21198    190.0 1.271e+04 1.407e-09
  1.24234    190.5 1.322e+04 1.749e-09
  1.25923    190.9 1.388e+04 2.328e-09
  1.26939    190.3 1.347e+04 2.081e-09
  1.27928    190.4 1.417e+04 2.833e-09
  1.28944    190.1 1.410e+04 2.872e-09
  1.30316    190.2 1.466e+04 3.721e-09
  1.32347    190.2 1.520e+04 4.639e-09
  1.33873    190.1 1.573e+04 5.581e-09
  1.34889    189.4 1.484e+04 4.149e-09
  1.36408    189.3 1.515e+04 4.530e-09
  1.38438    189.1 1.538e+04 4.768e-09
  1.40469    188.9 1.553e+04 4.855e-09
  1.41823    188.7 1.563e+04 4.864e-09
  1.42839    188.4 1.388e+04 2.772e-09
  1.44530    188.4 1.393e+04 2.793e-09
  1.46078    188.4 1.404e+04 2.852e-09
  1.47094    188.1 1.405e+04 2.845e-09
  1.48591    188.2 1.436e+04 3.113e-09
  1.49773    188.4 1.480e+04 3.591e-09
  1.50789    188.7 1.295e+04 2.007e-09
  1.52652    189.2 1.360e+04 2.444e-09
  1.54683    189.6 1.439e+04 3.159e-09
  1.56708    190.1 1.519e+04 4.253e-09
  1.58739    191.5 1.459e+04 3.396e-09
  1.60774    192.1 1.545e+04 4.813e-09
  1.62805    192.9 1.617e+04 6.477e-09
  1.64228    193.7 1.668e+04 8.080e-09
  1.65066    193.5 1.669e+04 8.189e-09
  1.65673    194.1 1.580e+04 5.401e-09
  1.66866    195.0 1.641e+04 7.289e-09
  1.68897    195.7 1.682e+04 8.695e-09
  1.70927    196.5 1.696e+04 9.167e-09
  1.72608    197.4 1.693e+04 9.035e-09
  1.73623    197.9 1.672e+04 8.554e-09
  1.74988    198.8 1.680e+04 8.598e-09
  1.77019    199.7 1.676e+04 8.431e-09
  1.79049    200.7 1.667e+04 8.097e-09
  1.80558    201.7 1.656e+04 7.765e-09
  1.81573    202.2 1.637e+04 7.400e-09
  1.82378    203.2 1.634e+04 7.323e-09
  1.83393    203.4 1.595e+04 6.582e-09
  1.85141    204.4 1.599e+04 6.637e-09
  1.87172    205.5 1.605e+04 6.765e-09
  1.88508    206.6 1.617e+04 7.018e-09
  1.89523    206.9 1.583e+04 6.317e-09
  1.91233    208.0 1.599e+04 6.565e-09
  1.93263    209.1 1.609e+04 6.671e-09
  1.95294    210.1 1.608e+04 6.609e-09
  1.96458    211.1 1.599e+04 6.306e-09
  1.97473    211.6 1.536e+04 5.069e-09
  1.99355    212.8 1.518e+04 4.605e-09
  2.00528    213.9 1.487e+04 3.930e-09
  2.01543    213.4 1.409e+04 2.787e-09
  2.03393    213.7 1.382e+04 2.315e-09
  2.04408    214.6 1.343e+04 2.217e-09
  2.05446    214.9 1.340e+04 2.005e-09
  2.07477    214.9 1.350e+04 1.880e-09
  2.09508    214.7 1.364e+04 1.898e-09
  2.11343    214.2 1.400e+04 1.994e-09
  2.12358    216.3 1.385e+04 2.013e-09
  2.13569    216.0 1.420e+04 2.247e-09
  2.15599    215.8 1.480e+04 2.586e-09
  2.17630    215.7 1.553e+04 3.335e-09
  2.18678    215.8 1.634e+04 4.422e-09
  2.19326    215.6 1.626e+04 4.350e-09
  2.20308    216.9 1.566e+04 3.581e-09
  2.21691    216.6 1.683e+04 4.978e-09
  2.23209    216.0 1.762e+04 6.356e-09
  2.23766    215.5 1.830e+04 7.890e-09
  2.24273    215.9 1.814e+04 7.537e-09
  2.25234    215.6 1.876e+04 9.317e-09
  2.26250    215.1 1.946e+04 1.207e-08
  2.27233    214.8 2.008e+04 1.562e-08
  2.27741    215.6 1.978e+04 1.339e-08
  2.28280    215.2 2.037e+04 1.682e-08
  2.29296    214.8 2.098e+04 2.143e-08
  2.30311    214.4 2.169e+04 2.688e-08
  2.31208    213.6 2.245e+04 3.217e-08
  2.31716    214.2 2.247e+04 3.203e-08
  2.32341    212.8 2.329e+04 3.383e-08
  2.33357    210.7 2.334e+04 3.313e-08
  2.34372    208.6 2.327e+04 2.996e-08
  2.35183    206.3 2.311e+04 2.523e-08
  2.35691    206.5 2.299e+04 2.450e-08
  2.36311    204.2 2.281e+04 2.026e-08
  2.36818    204.8 2.369e+04 2.431e-08
  2.37418    201.8 2.347e+04 2.015e-08
  2.38433    198.2 2.310e+04 1.723e-08
  2.39158    194.4 2.251e+04 1.479e-08
  2.39666    195.8 2.254e+04 1.438e-08
  2.40464    192.2 2.189e+04 1.292e-08
  2.41479    188.7 2.063e+04 1.123e-08
  2.42494    185.6 1.915e+04 9.374e-09
  2.43133    182.5 1.808e+04 7.480e-09
  2.43641    184.1 1.892e+04 8.822e-09
  2.44525    181.6 1.772e+04 7.157e-09
  2.46052    179.2 1.800e+04 6.559e-09
  2.48088    175.6 1.718e+04 4.341e-09
  2.50077    171.5 1.580e+04 2.342e-09
  2.51093    174.9 1.722e+04 3.819e-09
  2.52149    170.6 1.507e+04 1.769e-09
  2.53963    166.3 1.187e+04 8.931e-10
  2.54978    165.7 1.197e+04 8.998e-10
  2.56210    163.7 1.062e+04 6.926e-10
  2.58027    163.9 1.045e+04 6.563e-10
  2.59043    164.9 1.056e+04 7.115e-10
  2.60271    165.2 1.047e+04 6.928e-10
  2.62302    165.4 1.047e+04 6.818e-10
  2.64332    165.5 1.049e+04 6.694e-10
  2.65977    165.6 1.050e+04 6.576e-10
  2.66993    166.8 1.056e+04 7.192e-10
  2.68393    166.9 1.057e+04 7.023e-10
  2.70424    166.8 1.057e+04 6.913e-10
  2.72113    166.8 1.058e+04 6.906e-10
  2.73128    166.6 1.051e+04 6.614e-10
  2.73927    166.6 1.052e+04 6.635e-10
  2.74943    167.8 1.053e+04 6.738e-10
  2.76515    167.8 1.052e+04 6.604e-10
  2.78546    167.8 1.045e+04 6.340e-10
  2.80577    167.9 1.034e+04 5.937e-10
  2.81877    168.0 1.023e+04 5.536e-10
  2.82893    169.2 1.023e+04 5.547e-10
  2.84638    169.3 1.018e+04 5.349e-10
  2.86668    169.3 1.019e+04 5.348e-10
  2.88699    169.4 1.023e+04 5.448e-10
  2.89827    169.1 1.044e+04 6.017e-10
  2.90376    170.4 1.039e+04 5.915e-10
  2.91278    170.7 1.052e+04 6.397e-10
  2.92760    170.2 1.076e+04 7.610e-10
  2.94790    168.2 1.211e+04 1.289e-09
  2.96762    165.0 1.512e+04 2.850e-09
  2.97777    167.8 1.329e+04 1.851e-09
  2.98851    164.4 1.608e+04 3.930e-09
  3.00882    161.3 1.783e+04 7.231e-09
  3.02913    158.0 1.890e+04 8.967e-09
  3.04712    153.6 1.959e+04 8.645e-09
  3.05727    156.0 1.922e+04 8.147e-09
  3.06461    153.1 1.938e+04 8.315e-09
  3.07471    151.0 1.933e+04 8.084e-09
  3.08403    148.7 1.899e+04 7.343e-09
  3.08910    149.0 1.937e+04 8.518e-09
  3.09185    146.6 1.858e+04 7.180e-09
  3.09692    148.1 1.863e+04 7.493e-09
  3.10517    145.7 1.794e+04 6.794e-09
  3.11533    142.6 1.824e+04 7.132e-09
  3.12548    136.4 2.059e+04 9.491e-09
  3.13160    128.6 2.389e+04 1.917e-08
  3.13667    130.6 2.422e+04 1.818e-08
  3.14578    124.3 2.465e+04 4.598e-08
  3.15594    120.6 2.361e+04 1.002e-07
  3.16609    117.7 2.309e+04 1.389e-07
  3.17135    115.0 2.310e+04 1.351e-07
  3.17496    115.7 2.300e+04 2.108e-07
  3.17985    115.6 2.287e+04 2.068e-07
  3.18639    113.3 2.316e+04 1.718e-07
  3.19655    110.3 2.433e+04 9.575e-08
  3.20602    106.1 2.536e+04 3.762e-08
  3.21110    107.0 2.571e+04 4.812e-08
  3.21685    100.8 2.500e+04 1.656e-08
  3.23213     92.0 1.999e+04 7.496e-09
  3.25248     83.9 1.456e+04 3.706e-09
  3.26562     81.8 1.397e+04 2.659e-09
  3.27578     80.9 1.469e+04 3.287e-09
  3.28562     79.4 1.433e+04 2.604e-09
  3.29577     79.2 1.499e+04 3.494e-09
  3.31340     78.2 1.458e+04 2.961e-09
  3.33371     77.2 1.401e+04 2.480e-09
  3.35401     76.4 1.345e+04 2.118e-09
  3.36512     75.6 1.285e+04 1.814e-09
  3.37527     76.1 1.362e+04 2.395e-09
  3.39462     75.5 1.287e+04 1.925e-09
  3.41493     75.3 1.221e+04 1.535e-09
  3.43447     75.3 1.172e+04 1.262e-09
  3.44462     74.9 1.235e+04 1.543e-09
  3.44712     74.4 1.203e+04 1.346e-09
  3.45728     72.3 1.210e+04 1.341e-09
  3.47584     71.7 1.209e+04 1.294e-09
  3.49615     71.5 1.192e+04 1.337e-09
  3.51397     71.9 1.175e+04 1.343e-09
  3.52412     71.3 1.226e+04 1.745e-09
  3.53676     72.3 1.201e+04 1.649e-09
  3.55707     73.3 1.171e+04 1.439e-09
  3.57737     74.2 1.138e+04 1.180e-09
  3.59347     74.5 1.104e+04 9.288e-10
  3.60362     73.9 1.139e+04 1.085e-09
  3.61798     73.7 1.091e+04 8.208e-10
  3.62862     73.4 1.044e+04 6.550e-10
  3.63878     71.9 1.014e+04 5.957e-10
  3.65859     72.0 9.790e+03 5.223e-10
  3.67297     72.6 9.537e+03 4.664e-10
  3.68312     71.9 9.819e+03 5.727e-10
  3.69920     72.7 9.739e+03 5.534e-10
  3.71951     73.6 9.646e+03 5.209e-10
  3.73982     74.5 9.579e+03 4.999e-10
  3.75247     75.6 9.528e+03 4.543e-10
  3.76262     75.1 9.715e+03 5.539e-10
  3.78043     75.9 9.611e+03 5.133e-10
  3.79997     77.1 9.488e+03 4.401e-10
  3.81012     76.7 9.450e+03 4.134e-10
  3.82104     77.0 9.457e+03 4.045e-10
  3.83206     79.0 9.440e+03 3.774e-10
  3.84222     78.5 9.383e+03 3.814e-10
  3.86165     78.8 9.394e+03 3.759e-10
  3.88195     80.6 9.363e+03 3.655e-10
  3.90131     80.8 9.382e+03 3.680e-10
  3.91146     80.7 9.329e+03 3.635e-10
  3.92256     82.4 9.284e+03 3.611e-10
  3.94287     83.1 9.311e+03 3.660e-10
  3.96318     84.8 9.256e+03 3.656e-10
  3.98081     85.6 9.303e+03 3.768e-10
  3.98895     85.6 9.301e+03 3.908e-10
  3.99162     85.6 9.210e+03 3.545e-10
  4.00379     87.1 9.203e+03 3.630e-10
  4.02409     88.2 9.252e+03 3.795e-10
  4.04440     89.6 9.316e+03 4.043e-10
  4.06031     90.9 9.435e+03 4.413e-10
  4.07046     90.3 9.891e+03 5.551e-10
  4.08501     91.5 1.015e+04 6.503e-10
  4.10531     92.7 1.052e+04 7.575e-10
  4.12562     94.0 1.095e+04 8.945e-10
  4.13981     95.3 1.108e+04 1.041e-09
  4.14996     93.7 1.321e+04 1.636e-09
  4.16297     94.7 1.293e+04 1.898e-09
  4.17312     95.1 1.358e+04 1.989e-09
  4.18653     95.7 1.406e+04 2.503e-09
  4.20684     96.4 1.442e+04 3.174e-09
  4.21931     96.2 1.528e+04 4.440e-09
  4.22946     93.1 1.891e+04 7.667e-09
  4.24233     93.1 1.834e+04 8.429e-09
  4.25243     92.3 1.877e+04 9.235e-09
  4.25870     91.1 1.982e+04 1.284e-08
  4.26015     91.2 1.996e+04 1.299e-08
  4.26404     89.3 2.188e+04 1.424e-08
  4.27274     88.0 2.233e+04 1.604e-08
  4.28289     85.8 2.298e+04 1.984e-08
  4.29304     83.6 2.376e+04 2.306e-08
  4.29871     81.4 2.458e+04 2.576e-08
  4.30379     77.5 2.535e+04 2.542e-08
  4.31335     75.1 2.494e+04 2.675e-08
  4.32350     73.2 2.458e+04 2.616e-08
  4.33339     71.5 2.410e+04 2.419e-08
  4.33846     68.6 2.337e+04 2.257e-08
  4.34380     67.7 2.269e+04 1.966e-08
  4.34945     66.1 2.186e+04 1.683e-08
  4.35452     65.1 2.173e+04 1.938e-08
  4.36811     63.9 2.137e+04 1.546e-08
  4.37831     60.5 1.930e+04 1.308e-08
  4.38959     59.3 1.852e+04 9.593e-09
  4.40989     57.9 1.806e+04 7.247e-09
  4.43020     56.5 1.742e+04 5.699e-09
  4.44766     55.6 1.649e+04 4.855e-09
  4.45781     55.4 1.631e+04 4.702e-09
  4.47081     55.5 1.577e+04 4.247e-09
  4.49112     55.8 1.523e+04 3.889e-09
  4.51142     56.2 1.483e+04 3.632e-09
  4.52597     56.9 1.445e+04 3.399e-09
  4.53155     56.5 1.442e+04 3.227e-09
  4.53731     56.8 1.429e+04 2.926e-09
  4.55203     57.5 1.410e+04 2.934e-09
  4.57234     58.2 1.397e+04 2.968e-09
  4.59264     59.2 1.385e+04 2.946e-09
  4.60666     60.2 1.381e+04 2.889e-09
  4.61681     60.3 1.376e+04 2.738e-09
  4.63325     61.2 1.372e+04 2.754e-09
  4.65356     62.3 1.365e+04 2.638e-09
  4.67387     63.3 1.358e+04 2.528e-09
  4.68616     64.2 1.357e+04 2.378e-09
  4.69631     64.3 1.348e+04 2.322e-09
  4.70747     65.4 1.339e+04 2.148e-09
  4.71762     65.3 1.301e+04 1.804e-09
  4.73478     66.4 1.301e+04 1.741e-09
  4.75509     67.4 1.302e+04 1.670e-09
  4.76566     68.4 1.297e+04 1.582e-09
  4.77581     68.6 1.276e+04 1.437e-09
  4.79570     69.6 1.274e+04 1.377e-09
  4.81600     70.6 1.272e+04 1.318e-09
  4.83500     71.6 1.263e+04 1.246e-09
  4.84516     71.8 1.241e+04 1.140e-09
  4.85661     72.8 1.231e+04 1.083e-09
  4.87692     73.8 1.216e+04 1.048e-09
  4.88897     74.8 1.198e+04 1.028e-09
  4.89912     75.0 1.183e+04 9.209e-10
  4.91450     76.1 1.170e+04 9.155e-10
  4.92466     76.4 1.159e+04 9.027e-10
  4.93784     77.6 1.154e+04 9.065e-10
  4.95814     78.8 1.152e+04 9.169e-10
  4.97845     80.1 1.151e+04 9.335e-10
  4.99400     81.4 1.146e+04 9.416e-10
  5.00416     81.5 1.150e+04 9.590e-10
  5.01906     82.8 1.147e+04 9.745e-10
  5.03936     84.2 1.145e+04 9.824e-10
  5.05967     85.5 1.140e+04 9.775e-10
  5.07047     86.8 1.130e+04 9.520e-10
  5.07415     87.2 1.135e+04 9.280e-10
  5.08366     87.3 1.155e+04 1.017e-09
  5.10028     88.6 1.149e+04 1.007e-09
  5.12058     90.0 1.138e+04 9.649e-10
  5.14089     91.4 1.123e+04 9.061e-10
  5.15300     92.7 1.107e+04 8.388e-10
  5.16316     92.8 1.145e+04 9.719e-10
  5.18150     94.0 1.124e+04 8.932e-10
  5.20181     95.2 1.100e+04 8.196e-10
  5.22211     96.5 1.081e+04 7.620e-10
  5.23250     97.7 1.066e+04 7.142e-10
  5.24205     97.4 1.135e+04 9.360e-10
  5.25197     97.8 1.241e+04 1.293e-09
  5.26272     98.9 1.238e+04 1.311e-09
  5.28303    100.0 1.234e+04 1.330e-09
  5.30185    101.0 1.234e+04 1.354e-09
  5.31200     99.9 1.444e+04 2.516e-09
  5.32364    100.7 1.468e+04 2.805e-09
  5.34394    101.5 1.508e+04 3.207e-09
  5.36425    101.9 1.567e+04 3.759e-09
  5.38135    101.7 1.632e+04 4.457e-09
  5.39150    100.4 1.816e+04 9.459e-09
  5.40486    100.1 1.856e+04 1.111e-08
  5.42331     99.5 1.888e+04 1.256e-08
  5.43347    100.2 1.982e+04 1.673e-08
  5.44547     99.2 1.993e+04 1.704e-08
  5.46085     97.8 2.011e+04 1.732e-08
  5.47100     96.3 2.010e+04 1.640e-08
  5.48608     94.7 2.030e+04 1.625e-08
  5.50639     93.3 2.039e+04 1.597e-08
  5.52669     92.0 2.034e+04 1.500e-08
  5.54035     90.9 2.023e+04 1.308e-08
  5.55050     89.3 1.930e+04 6.197e-09
  5.56730     88.1 1.873e+04 4.810e-09
  5.58761     86.8 1.803e+04 3.620e-09
  5.60481     85.2 1.716e+04 2.776e-09
  5.61496     82.7 1.580e+04 2.080e-09
  5.61985     80.8 1.485e+04 1.903e-09
  5.63000     78.3 1.177e+04 9.384e-10
  5.64853     77.6 1.159e+04 1.090e-09
  5.66883     77.3 1.176e+04 1.190e-09
  5.68914     77.3 1.188e+04 1.200e-09
  5.70944     76.0 1.138e+04 9.202e-10
  5.72975     76.1 1.129e+04 8.700e-10
  5.75005     76.1 1.116e+04 8.056e-10
  5.76870     76.3 1.098e+04 7.235e-10
  5.77885     75.1 1.099e+04 7.267e-10
  5.78631     75.5 1.084e+04 6.475e-10
  5.79646     74.5 1.075e+04 6.071e-10
  5.81097     75.2 1.060e+04 5.375e-10
  5.83128     76.0 1.051e+04 4.841e-10
  5.84820     76.7 1.044e+04 4.391e-10
  5.85835     75.5 1.060e+04 4.967e-10
  5.87189     76.2 1.058e+04 4.559e-10
  5.89219     77.0 1.059e+04 4.500e-10
  5.91250     77.9 1.062e+04 4.557e-10
  5.92770     78.9 1.066e+04 4.731e-10
  5.93785     76.6 1.143e+04 6.838e-10
  5.95311     77.5 1.163e+04 7.807e-10
  5.96781     78.0 1.208e+04 9.541e-10
  5.97796     77.4 1.256e+04 1.080e-09
  5.99372     77.5 1.347e+04 1.465e-09
  6.00720     77.2 1.470e+04 2.126e-09
  6.01735     72.2 1.666e+04 4.989e-09
  6.03433     72.1 1.732e+04 6.734e-09
  6.05463     72.0 1.779e+04 8.166e-09
  6.07494     72.0 1.794e+04 8.824e-09
  6.08670     72.1 1.801e+04 8.862e-09
  6.09685     69.0 1.759e+04 7.292e-09
  6.11555     69.1 1.740e+04 5.762e-09
  6.13586     68.7 1.722e+04 4.135e-09
  6.14931     67.8 1.695e+04 2.850e-09
  6.15934     68.2 1.675e+04 2.377e-09
  6.16620     61.8 1.405e+04 1.038e-09
  6.17647     60.2 1.235e+04 9.641e-10
  6.19677     59.3 1.151e+04 1.020e-09
  6.21708     59.2 1.139e+04 1.151e-09
  6.23554     59.7 1.161e+04 1.365e-09
  6.24570     59.4 1.148e+04 1.259e-09
  6.25769     60.5 1.176e+04 1.445e-09
  6.27799     61.4 1.203e+04 1.569e-09
  6.29830     62.2 1.221e+04 1.563e-09
  6.31504     62.6 1.225e+04 1.471e-09
  6.32520     61.5 1.183e+04 1.099e-09
  6.33081     60.1 1.280e+04 1.500e-09
  6.34096     59.5 1.348e+04 1.640e-09
  6.35409     59.9 1.393e+04 1.860e-09
  6.35977     60.3 1.396e+04 1.888e-09
  6.36485     58.1 1.505e+04 2.346e-09
  6.37435     54.5 2.104e+04 2.503e-09
  6.38450     46.7 3.109e+04 4.355e-09
  6.39444     40.3 3.053e+04 1.601e-08
  6.39952     40.8 2.949e+04 2.313e-08
  6.40481     38.8 2.631e+04 6.455e-08
  6.41496     38.3 2.344e+04 1.646e-07
  6.42146     39.0 2.163e+04 3.384e-07
  6.42654     39.1 2.077e+04 5.951e-07
  6.43419     40.2 2.078e+04 6.577e-07
  6.43927     40.7 2.113e+04 4.838e-07
  6.44542     40.7 2.147e+04 4.002e-07
  6.45557     40.6 2.279e+04 2.177e-07
  6.46572     39.4 2.569e+04 7.694e-08
  6.47394     34.7 3.228e+04 1.879e-08
  6.47902     25.9 3.813e+04 4.225e-09
  6.48603     12.5 2.860e+04 1.850e-09
  6.49618      0.5 1.549e+04 2.263e-09
  6.50633     -1.4 1.459e+04 2.160e-09
  6.51221     -3.9 1.447e+04 3.133e-09
  6.52241     -3.1 1.407e+04 2.604e-09
  6.54197     -3.7 1.407e+04 3.753e-09
  6.55354     -3.2 1.465e+04 4.669e-09
  6.56369     -2.2 1.485e+04 4.755e-09
  6.58258     -2.2 1.474e+04 4.252e-09
  6.60288     -2.5 1.442e+04 3.103e-09
  6.62289     -3.6 1.389e+04 1.802e-09
  6.63304     -4.3 1.385e+04 1.174e-09
  6.64349     -7.4 1.267e+04 7.343e-10
  6.66380     -9.8 1.182e+04 5.645e-10
  6.68366    -11.0 1.138e+04 5.918e-10
  6.69381     -9.7 1.160e+04 6.132e-10
  6.70239    -10.6 1.140e+04 6.695e-10
  6.71254    -10.5 1.114e+04 6.068e-10
  6.72471    -10.6 1.111e+04 7.370e-10
  6.74502    -10.5 1.140e+04 8.474e-10
  6.76532    -10.0 1.155e+04 1.043e-09
  6.78189    -10.0 1.158e+04 1.093e-09
  6.79204    -10.0 1.115e+04 8.208e-10
  6.81619     -9.3 1.071e+04 6.860e-10
  6.85520     -7.7 1.026e+04 5.024e-10
  6.87550     -6.5 1.025e+04 5.061e-10
  6.89751     -5.3 9.905e+03 3.458e-10
  6.93093     -5.3 9.763e+03 2.636e-10
  6.95124     -5.7 9.426e+03 1.981e-10
  6.97873     -5.6 9.519e+03 2.212e-10
  7.01934     -5.1 9.717e+03 3.126e-10
  7.05995     -4.3 1.013e+04 4.444e-10
  7.08993     -3.8 1.066e+04 6.399e-10
  7.11024     -4.5 1.045e+04 5.078e-10
  7.14117     -4.8 1.086e+04 6.270e-10
  7.18178     -5.8 1.128e+04 7.632e-10
  7.21820     -6.9 1.156e+04 9.582e-10
  7.23850     -6.3 1.210e+04 1.104e-09
  7.24883     -7.5 1.226e+04 1.243e-09
  7.25889     -9.5 1.228e+04 1.220e-09
  7.27296    -10.9 1.289e+04 1.440e-09
  7.29327    -12.7 1.369e+04 1.831e-09
  7.31357    -14.6 1.422e+04 2.566e-09
  7.32823    -15.7 1.450e+04 3.327e-09
  7.33839    -17.5 1.451e+04 2.482e-09
  7.35418    -19.0 1.525e+04 2.780e-09
  7.37449    -21.1 1.634e+04 2.843e-09
  7.39479    -24.5 1.715e+04 2.782e-09
  7.40773    -28.9 1.656e+04 2.646e-09
  7.41244    -33.5 1.360e+04 1.851e-09
  7.41981    -34.2 1.312e+04 1.702e-09
  7.43540    -35.9 1.290e+04 1.662e-09
  7.45571    -37.4 1.330e+04 1.602e-09
  7.47602    -38.8 1.389e+04 1.531e-09
  7.48723    -40.3 1.376e+04 1.396e-09
  7.49739    -43.0 1.186e+04 8.232e-10
  7.51663    -44.5 1.102e+04 6.635e-10
  7.53693    -45.4 1.051e+04 5.228e-10
  7.55658    -46.1 1.014e+04 4.105e-10
  7.56673    -47.4 9.982e+03 3.319e-10
  7.58110    -47.7 9.637e+03 2.592e-10
  7.60150    -47.2 9.610e+03 2.547e-10
  7.62850    -46.8 9.052e+03 1.630e-10
  7.66911    -46.7 8.651e+03 1.230e-10
  7.70562    -46.0 8.493e+03 1.158e-10
  7.72593    -46.5 8.338e+03 1.037e-10
  7.75033    -45.4 8.279e+03 1.022e-10
  7.79094    -44.2 8.218e+03 1.002e-10
  7.83156    -43.2 8.201e+03 9.105e-11
  7.86462    -42.7 8.153e+03 8.258e-11
  7.88493    -43.1 8.059e+03 7.519e-11
  7.91278    -42.6 8.006e+03 7.500e-11
  7.94419    -41.9 7.906e+03 8.024e-11
  7.96450    -41.6 7.971e+03 8.065e-11
  7.99400    -40.5 7.922e+03 8.734e-11
  8.02362    -39.3 7.864e+03 8.839e-11
  8.04393    -38.9 7.800e+03 7.619e-11
  8.07522    -37.7 7.701e+03 6.768e-11
  8.11583    -36.6 7.572e+03 6.083e-11
  8.15644    -35.3 7.496e+03 5.512e-11
  8.18262    -34.2 7.492e+03 4.953e-11
  8.20293    -34.5 7.491e+03 5.029e-11
  8.23766    -33.6 7.527e+03 5.143e-11
  8.27828    -32.7 7.533e+03 5.563e-11
  8.30719    -31.5 7.499e+03 6.201e-11
  8.32750    -31.3 7.528e+03 6.498e-11
  8.34162    -29.9 7.542e+03 6.820e-11
  8.36193    -30.0 7.646e+03 6.425e-11
  8.40011    -29.4 7.677e+03 5.473e-11
  8.44072    -29.0 7.587e+03 5.179e-11
  8.48032    -28.3 7.495e+03 5.301e-11
  8.50062    -29.5 7.454e+03 5.076e-11
  8.52194    -29.8 7.789e+03 6.225e-11
  8.56255    -31.1 8.199e+03 9.940e-11
  8.60316    -32.0 8.413e+03 1.877e-10
  8.63932    -31.5 8.732e+03 2.893e-10
  8.65962    -32.4 8.783e+03 2.865e-10
  8.67019    -32.8 8.793e+03 2.645e-10
  8.69050    -33.0 8.775e+03 2.358e-10
  8.72499    -34.2 8.652e+03 1.712e-10
  8.76561    -35.7 8.455e+03 1.538e-10
  8.79832    -36.5 8.366e+03 1.546e-10
  8.81862    -37.4 8.385e+03 1.653e-10
  8.84683    -37.3 8.536e+03 1.939e-10
  8.88744    -37.6 8.746e+03 2.095e-10
  8.92805    -38.4 8.852e+03 2.232e-10
  8.95732    -38.5 8.979e+03 2.833e-10
  8.97762    -39.0 9.274e+03 3.453e-10
  9.00927    -38.3 9.400e+03 3.305e-10
  9.03319    -38.2 9.471e+03 2.949e-10
  9.05350    -37.3 9.268e+03 2.702e-10
  9.09049    -37.0 9.465e+03 2.731e-10
  9.11622    -36.8 9.682e+03 3.214e-10
  9.12627    -38.1 1.006e+04 3.724e-10
  9.14106    -39.6 1.069e+04 5.426e-10
  9.16137    -40.9 1.160e+04 9.227e-10
  9.18167    -42.1 1.242e+04 1.520e-09
  9.19562    -42.7 1.315e+04 2.382e-09
  9.20577    -43.0 1.338e+04 3.126e-09
  9.21450    -42.6 1.376e+04 3.783e-09
  9.22465    -42.0 1.348e+04 3.159e-09
  9.24259    -41.8 1.381e+04 3.644e-09
  9.26289    -41.9 1.374e+04 3.387e-09
  9.27512    -42.2 1.359e+04 2.867e-09
  9.28527    -42.2 1.377e+04 2.352e-09
  9.30350    -43.5 1.357e+04 1.429e-09
  9.33406    -48.1 1.215e+04 6.356e-10
  9.37477    -51.6 1.029e+04 4.388e-10
  9.39609    -51.4 1.039e+04 6.160e-10
  9.40615    -50.6 1.055e+04 6.456e-10
  9.42397    -50.5 1.045e+04 6.946e-10
  9.43412    -51.2 1.048e+04 7.374e-10
  9.44564    -50.7 1.053e+04 7.836e-10
  9.46595    -50.4 1.057e+04 8.379e-10
  9.48625    -49.6 1.081e+04 9.429e-10
  9.50347    -49.4 1.096e+04 1.064e-09
  9.51362    -50.2 1.077e+04 9.356e-10
  9.52686    -49.6 1.104e+04 1.074e-09
  9.54717    -49.2 1.106e+04 1.162e-09
  9.56734    -48.1 1.144e+04 1.354e-09
  9.57749    -47.3 1.136e+04 1.310e-09
  9.58297    -47.1 1.147e+04 1.398e-09
  9.59312    -48.4 1.078e+04 9.358e-10
  9.60809    -48.0 1.104e+04 1.064e-09
  9.62839    -48.2 1.100e+04 1.122e-09
  9.64870    -47.8 1.104e+04 1.191e-09
  9.66247    -47.7 1.091e+04 1.186e-09
  9.67262    -48.7 1.025e+04 8.029e-10
  9.68931    -48.4 1.026e+04 8.044e-10
  9.70961    -48.2 9.989e+03 7.077e-10
  9.72992    -48.1 9.737e+03 6.034e-10
  9.74197    -48.5 9.541e+03 4.921e-10
  9.75073    -49.6 9.412e+03 4.580e-10
  9.75899    -48.3 9.361e+03 4.513e-10
  9.77053    -48.7 9.323e+03 4.167e-10
  9.79083    -49.2 9.291e+03 3.851e-10
  9.81114    -49.8 9.327e+03 3.774e-10
  9.82146    -50.3 9.427e+03 4.001e-10
  9.83162    -50.6 9.829e+03 5.313e-10
  9.85175    -50.7 9.957e+03 6.204e-10
  9.87206    -50.8 1.012e+04 7.358e-10
  9.89081    -50.9 1.036e+04 8.790e-10
  9.90096    -50.7 1.083e+04 1.112e-09
  9.91267    -50.9 1.127e+04 1.293e-09
  9.93034    -51.5 1.159e+04 1.466e-09
  9.94049    -50.2 1.155e+04 1.452e-09
  9.95328    -51.0 1.212e+04 1.790e-09
  9.97031    -51.7 1.271e+04 2.311e-09
  9.98046    -51.3 1.223e+04 1.864e-09
  9.99389    -51.4 1.245e+04 2.038e-09
 10.01419    -51.0 1.273e+04 2.322e-09
 10.03450    -50.6 1.233e+04 1.803e-09
 10.04981    -51.0 1.162e+04 1.121e-09
 10.05996    -51.2 1.083e+04 8.314e-10
 10.07511    -52.0 1.039e+04 6.143e-10
 10.10178    -54.9 9.488e+03 3.784e-10
 10.12209    -54.6 9.932e+03 4.615e-10
 10.14628    -54.9 9.968e+03 4.645e-10
 10.18699    -54.9 1.013e+04 5.277e-10
 10.20901    -54.4 1.012e+04 5.705e-10
 10.22931    -53.1 9.557e+03 4.170e-10
 10.26821    -52.7 9.445e+03 4.150e-10
 10.30882    -51.6 9.131e+03 3.487e-10
 10.34770    -50.2 8.791e+03 2.653e-10
 10.36801    -49.2 8.786e+03 2.642e-10
 10.39004    -48.0 8.568e+03 2.127e-10
 10.43065    -46.6 8.477e+03 1.919e-10
 10.46488    -44.9 8.419e+03 1.836e-10
 10.48519    -44.6 8.438e+03 1.892e-10
 10.50670    -42.6 8.393e+03 1.829e-10
 10.52701    -42.0 8.438e+03 1.957e-10
 10.55248    -39.9 8.375e+03 1.818e-10
 10.59309    -37.8 8.324e+03 1.558e-10
 10.63371    -35.9 8.274e+03 1.268e-10
 10.66570    -34.3 8.227e+03 1.139e-10
 10.68601    -33.8 8.317e+03 1.451e-10
 10.71493    -32.1 8.276e+03 1.355e-10
 10.75554    -30.3 8.304e+03 1.276e-10
 10.79615    -29.0 8.409e+03 1.379e-10
 10.82470    -27.9 8.635e+03 1.719e-10
 10.83613    -27.8 8.670e+03 1.703e-10
 10.84819    -26.9 8.593e+03 1.491e-10
 10.87737    -26.1 8.858e+03 2.127e-10
 10.91798    -24.9 9.260e+03 3.165e-10
 10.95859    -23.6 9.769e+03 4.441e-10
 10.98360    -23.6 1.003e+04 5.705e-10
 10.99366    -23.2 9.917e+03 4.969e-10
 11.00916    -22.9 1.017e+04 5.564e-10
 11.02947    -22.2 1.042e+04 6.656e-10
 11.04977    -21.9 1.064e+04 7.355e-10
 11.06300    -21.4 1.055e+04 8.179e-10
 11.07316    -21.3 1.035e+04 7.307e-10
 11.09038    -20.6 1.034e+04 7.367e-10
 11.12094    -19.6 1.034e+04 6.239e-10
 11.14270    -19.1 1.012e+04 4.315e-10
 11.16300    -18.8 9.795e+03 3.082e-10
 11.19088    -18.7 9.450e+03 2.422e-10
 11.21118    -16.9 9.706e+03 3.049e-10
 11.24287    -16.1 9.157e+03 2.290e-10
 11.28139    -14.2 8.823e+03 1.752e-10
 11.30170    -14.0 8.646e+03 1.353e-10
 11.32409    -12.1 8.579e+03 1.097e-10
 11.36470    -10.7 8.637e+03 9.382e-11
 11.40531     -9.6 8.713e+03 9.492e-11
 11.44039     -8.6 8.831e+03 1.104e-10
 11.46070     -7.7 8.802e+03 1.173e-10
 11.48653     -6.2 8.877e+03 1.494e-10
 11.52714     -4.3 8.943e+03 1.789e-10
 11.55388     -2.6 9.037e+03 1.841e-10
 11.57418     -1.5 9.281e+03 2.424e-10
 11.59939      0.1 9.261e+03 2.267e-10
 11.61970      1.2 9.270e+03 2.307e-10
 11.64898      2.5 9.277e+03 2.111e-10
 11.68959      3.3 9.324e+03 2.051e-10
 11.73020      4.1 9.376e+03 1.940e-10
 11.75839      4.9 9.443e+03 1.759e-10
 11.77870      5.6 9.805e+03 3.189e-10
 11.81142      6.1 9.914e+03 2.934e-10
 11.85203      6.2 1.002e+04 2.981e-10
 11.88239      6.1 1.021e+04 3.407e-10
 11.90260      6.0 1.025e+04 3.541e-10
 11.91668      5.3 1.043e+04 4.145e-10
 11.92112      5.7 1.038e+04 3.999e-10
 11.92735      5.7 1.064e+04 5.012e-10
 11.94321      5.4 1.071e+04 5.687e-10
 11.96352      5.1 1.085e+04 6.566e-10
 11.98382      5.1 1.089e+04 7.430e-10
 12.01438      5.1 1.085e+04 7.376e-10
 12.05509      5.2 1.038e+04 6.276e-10
 12.07639      5.5 9.750e+03 4.228e-10
 12.09670      5.9 9.680e+03 3.801e-10
 12.13631      5.8 9.176e+03 2.135e-10
 12.17692      4.9 8.817e+03 1.429e-10
 12.21509      4.0 8.787e+03 1.490e-10
 12.23539      3.5 9.117e+03 2.089e-10
 12.25814      3.8 9.137e+03 2.819e-10
 12.27988      4.9 9.096e+03 3.102e-10
 12.30018      6.0 9.150e+03 3.137e-10
 12.33936      7.0 9.123e+03 3.100e-10
 12.37408      8.0 9.090e+03 2.966e-10
 12.39439      7.7 9.350e+03 3.604e-10
 12.42058      8.5 9.345e+03 3.561e-10
 12.46119      9.5 9.367e+03 3.761e-10
 12.50181     11.0 9.433e+03 4.229e-10
 12.53308     12.9 9.487e+03 4.521e-10
 12.55339     12.9 9.363e+03 3.899e-10
 12.58303     14.5 9.460e+03 4.048e-10
 12.61249     15.4 9.500e+03 4.230e-10
 12.62254     15.3 9.453e+03 3.957e-10
 12.63253     15.8 9.556e+03 4.178e-10
 12.64268     16.4 9.540e+03 3.994e-10
 12.65390     16.5 9.757e+03 4.619e-10
 12.67421     16.5 1.010e+04 5.783e-10
 12.69189     15.9 1.066e+04 8.021e-10
 12.70204     16.4 1.032e+04 6.932e-10
 12.71482     16.3 1.086e+04 9.629e-10
 12.73512     16.8 1.140e+04 1.311e-09
 12.75543     17.4 1.168e+04 1.472e-09
 12.78598     17.8 1.128e+04 1.191e-09
 12.82669     18.5 1.052e+04 8.075e-10
 12.85108     18.3 9.423e+03 3.569e-10
 12.87139     19.1 8.920e+03 2.752e-10
 12.90791     18.3 8.262e+03 1.826e-10
 12.94853     18.2 8.177e+03 1.850e-10
 12.98557     18.7 8.239e+03 2.200e-10
 13.00587     20.0 8.279e+03 2.172e-10
 13.01008     20.9 8.484e+03 2.853e-10
 13.03039     22.4 8.586e+03 3.139e-10
 13.07036     23.8 8.875e+03 3.865e-10
 13.11097     25.0 9.104e+03 4.132e-10
 13.14878     25.5 9.130e+03 4.100e-10
 13.16908     27.0 9.120e+03 4.154e-10
 13.19219     27.4 9.204e+03 4.257e-10
 13.23280     27.7 9.329e+03 4.561e-10
 13.27341     27.9 9.485e+03 5.159e-10
 13.30778     28.3 9.696e+03 5.642e-10
 13.32808     29.6 1.020e+04 8.388e-10
 13.34857     30.0 1.056e+04 9.883e-10
 13.36887     30.3 1.097e+04 1.247e-09
 13.39524     31.0 1.098e+04 1.178e-09
 13.43586     31.7 1.067e+04 8.687e-10
 13.46678     32.3 9.945e+03 5.251e-10
 13.48708     33.6 1.092e+04 8.981e-10
 13.51708     33.9 1.014e+04 4.359e-10
 13.55769     34.1 9.239e+03 2.038e-10
 13.59830     34.5 8.447e+03 1.113e-10
 13.62578     35.5 8.093e+03 9.696e-11
 13.64608     35.4 8.588e+03 1.553e-10
 13.67952     37.1 8.561e+03 1.549e-10
 13.71157     39.1 8.526e+03 1.622e-10
 13.73187     38.9 8.565e+03 1.730e-10
 13.76074     40.9 8.513e+03 1.872e-10
 13.78478     42.9 8.504e+03 2.061e-10
 13.80508     43.2 9.135e+03 2.934e-10
 13.84196     44.8 9.191e+03 3.277e-10
 13.88258     46.5 9.320e+03 3.824e-10
 13.92319     48.0 9.322e+03 3.910e-10
 13.94378     49.5 9.241e+03 3.744e-10
 13.96408     50.0 9.812e+03 4.706e-10
 14.00441     51.7 9.429e+03 3.428e-10
 14.04502     53.2 9.130e+03 2.235e-10
 14.07456     54.5 8.891e+03 1.457e-10
 14.09171     54.1 8.758e+03 1.098e-10
 14.10278     53.8 8.961e+03 9.466e-11
 14.12624     55.2 8.430e+03 8.507e-11
 14.16685     57.2 8.377e+03 8.463e-11
 14.20746     59.4 8.366e+03 8.665e-11
 14.24147     61.5 8.372e+03 9.470e-11
 14.26177     61.1 9.277e+03 1.459e-10
 14.28868     63.1 9.203e+03 1.825e-10
 14.32929     65.2 9.302e+03 2.467e-10
 14.36991     67.3 9.530e+03 3.484e-10
 14.40047     70.0 9.886e+03 4.838e-10
 14.42077     69.2 1.105e+04 8.858e-10
 14.43756     71.2 1.120e+04 9.262e-10
 14.45787     70.3 1.079e+04 7.676e-10
 14.47987     71.2 1.076e+04 7.658e-10
 14.48993     71.1 1.087e+04 7.878e-10
 14.50170     71.7 1.087e+04 7.806e-10
 14.52200     72.3 1.080e+04 7.429e-10
 14.54231     72.9 1.065e+04 6.781e-10
 14.55927     73.5 1.045e+04 6.061e-10
 14.56943     73.1 1.039e+04 7.414e-10
 14.58292     73.6 1.021e+04 6.407e-10
 14.60322     74.1 1.006e+04 5.731e-10
 14.61887     74.8 9.926e+03 5.540e-10
 14.62902     74.6 9.913e+03 5.437e-10
 14.63877     75.3 9.918e+03 5.496e-10
 14.64893     75.2 9.959e+03 5.628e-10
 14.66414     75.9 9.958e+03 5.772e-10
 14.68444     76.8 1.001e+04 6.119e-10
 14.70475     77.6 1.012e+04 6.664e-10
 14.71827     78.3 1.025e+04 7.328e-10
 14.72843     78.3 1.004e+04 6.529e-10
 14.74536     79.0 1.017e+04 7.028e-10
 14.76567     79.4 1.037e+04 7.730e-10
 14.78597     79.2 1.084e+04 8.942e-10
 14.79777     78.5 1.171e+04 1.086e-09
 14.80202     75.2 1.377e+04 1.564e-09
 14.81052     72.0 1.529e+04 2.781e-09
 14.82658     71.8 1.540e+04 3.557e-09
 14.84689     72.1 1.537e+04 4.113e-09
 14.86712     72.7 1.531e+04 4.383e-09
 14.88743     72.8 1.624e+04 6.363e-09
 14.90780     73.8 1.617e+04 5.820e-09
 14.92811     74.8 1.587e+04 4.788e-09
 14.94662     75.8 1.535e+04 3.703e-09
 14.95677     74.7 1.523e+04 3.389e-09
 14.96872     75.4 1.415e+04 2.359e-09
 14.98187     76.2 1.307e+04 1.679e-09
 14.99202     73.9 1.162e+04 9.754e-10
 15.00933     75.2 1.120e+04 8.174e-10
 15.02612     76.4 1.095e+04 7.195e-10
 15.03627     75.9 1.067e+04 6.442e-10
 15.04994     77.3 1.045e+04 5.868e-10
 15.07025     78.9 1.025e+04 5.466e-10
 15.09055     80.7 1.013e+04 5.275e-10
 15.10562     82.5 1.014e+04 5.306e-10
 15.11577     81.9 9.953e+03 4.661e-10
 15.13116     83.6 9.949e+03 4.659e-10
 15.15147     85.2 9.925e+03 4.645e-10
 15.16337     87.1 9.922e+03 4.652e-10
 15.17352     86.1 9.922e+03 4.588e-10
 15.18512     87.9 9.963e+03 4.705e-10
 15.19537     85.9 9.792e+03 3.830e-10
 15.21248     88.3 9.814e+03 3.997e-10
 15.23269     90.6 9.858e+03 4.233e-10
 15.25300     92.7 9.937e+03 4.508e-10
 15.26462     94.5 1.006e+04 4.824e-10
 15.27477     93.2 9.837e+03 4.328e-10
 15.29361     95.1 9.982e+03 4.803e-10
 15.31391     96.8 1.015e+04 5.352e-10
 15.33397     98.5 1.032e+04 5.915e-10
 15.34412     97.7 1.018e+04 5.950e-10
 15.34487     99.5 1.036e+04 6.556e-10
 15.35502     97.7 1.003e+04 5.630e-10
 15.37483     99.2 1.017e+04 5.975e-10
 15.39513    100.7 1.021e+04 6.115e-10
 15.41347    102.2 1.022e+04 6.168e-10
 15.42362    101.5 9.981e+03 5.370e-10
 15.43575    102.6 1.005e+04 5.488e-10
 15.45605    103.4 1.023e+04 5.830e-10
 15.47636    102.5 1.102e+04 6.577e-10
 15.49297    100.9 1.294e+04 8.631e-10
 15.50312     99.1 1.276e+04 7.906e-10
 15.51621     97.5 1.461e+04 1.199e-09
 15.52632     92.5 1.632e+04 2.117e-09
 15.53210     90.7 1.861e+04 3.374e-09
 15.53769     88.4 2.135e+04 6.095e-09
 15.54277     89.7 1.837e+04 4.414e-09
 15.55240     87.7 2.033e+04 7.317e-09
 15.56256     86.0 2.189e+04 1.225e-08
 15.57237     84.7 2.274e+04 1.920e-08
 15.57744     85.5 2.120e+04 1.368e-08
 15.58286     84.2 2.182e+04 1.947e-08
 15.59301     83.1 2.193e+04 2.513e-08
 15.60317     82.1 2.215e+04 2.995e-08
 15.61194     80.1 2.357e+04 3.685e-08
 15.61581     75.8 2.522e+04 3.647e-08
 15.61719     77.5 2.155e+04 2.484e-08
 15.62347     73.2 2.413e+04 2.918e-08
 15.63363     65.6 2.838e+04 4.154e-08
 15.64378     56.9 2.910e+04 5.460e-08
 15.65187     49.8 2.722e+04 5.539e-08
 15.65694     52.2 2.709e+04 4.642e-08
 15.66408     46.2 2.483e+04 4.568e-08
 15.67424     42.4 2.216e+04 3.905e-08
 15.68439     40.0 2.067e+04 3.020e-08
 15.69162     37.8 2.059e+04 2.131e-08
 15.69669     38.4 2.018e+04 2.759e-08
 15.70269     36.3 2.050e+04 1.978e-08
 15.70777     35.8 2.023e+04 1.616e-08
 15.71485     32.8 2.107e+04 9.364e-09
 15.72500     29.2 2.084e+04 5.027e-09
 15.73142     23.9 1.772e+04 2.372e-09
 15.73649     28.2 2.051e+04 5.149e-09
 15.74531     24.9 1.887e+04 3.310e-09
 15.76058     22.1 1.777e+04 2.439e-09
 15.78094     17.9 1.327e+04 1.183e-09
 15.80081     14.9 1.120e+04 8.621e-10
 15.81096     16.2 1.282e+04 1.012e-09
 15.82155     13.2 1.114e+04 7.808e-10
 15.84185     12.4 1.098e+04 7.446e-10
 15.86216     12.1 1.090e+04 7.259e-10
 15.87921     12.2 1.082e+04 7.092e-10
 15.88721     15.1 1.035e+04 5.541e-10
 15.89046     15.4 1.024e+04 5.190e-10
 15.90277     15.8 1.020e+04 4.848e-10
 15.92308     16.4 1.018e+04 4.614e-10
 15.94338     17.1 1.015e+04 4.335e-10
 15.95981     17.7 1.017e+04 4.173e-10
 15.96996     17.8 1.015e+04 4.049e-10
 15.98399     18.5 1.019e+04 4.063e-10
 16.00430     19.1 1.031e+04 4.266e-10
 16.02460     19.8 1.052e+04 4.790e-10
 16.03931     20.4 1.086e+04 5.733e-10
 16.04946     20.5 1.102e+04 6.372e-10
 16.06071     21.1 1.132e+04 7.962e-10
 16.07086     23.1 1.061e+04 4.840e-10
 16.08552     23.7 1.092e+04 6.220e-10
 16.10582     24.3 1.130e+04 8.472e-10
 16.11881     25.2 1.173e+04 1.159e-09
 16.12896     25.8 1.173e+04 1.178e-09
 16.14644     27.1 1.213e+04 1.420e-09
 16.16674     28.3 1.257e+04 1.631e-09
 16.18705     29.3 1.293e+04 1.747e-09
 16.19831     30.1 1.311e+04 1.781e-09
 16.20846     30.1 1.243e+04 1.480e-09
 16.22766     31.1 1.229e+04 1.422e-09
 16.24221     32.0 1.212e+04 1.324e-09
 16.25236     33.2 1.212e+04 1.354e-09
 16.26766     34.2 1.182e+04 1.184e-09
 16.27781     35.2 1.116e+04 7.658e-10
 16.28857     35.9 1.103e+04 6.752e-10
 16.30888     36.7 1.078e+04 5.624e-10
 16.32918     37.6 1.049e+04 4.514e-10
 16.34716     38.7 1.014e+04 3.531e-10
 16.35731     38.9 9.814e+03 3.128e-10
 16.36980     39.5 9.641e+03 2.782e-10
 16.40035     41.4 9.586e+03 2.635e-10
 16.42685     43.9 9.448e+03 2.577e-10
 16.44716     44.9 9.129e+03 2.066e-10
 16.48167     47.3 9.206e+03 2.264e-10
 16.50626     49.4 9.274e+03 2.516e-10
 16.51631     49.4 9.261e+03 2.505e-10
 16.53224     50.1 9.304e+03 2.613e-10
 16.55254     51.0 9.364e+03 2.866e-10
 16.57285     51.8 9.450e+03 3.327e-10
 16.58566     52.7 9.592e+03 4.093e-10
 16.59581     53.5 9.567e+03 3.979e-10
 16.60521     54.3 9.781e+03 4.927e-10
 16.61536     54.9 9.806e+03 4.915e-10
 16.63377     55.8 1.009e+04 6.115e-10
 16.65407     56.2 1.044e+04 7.420e-10
 16.66516     56.3 1.090e+04 9.090e-10
 16.67531     57.2 1.064e+04 8.866e-10
 16.69468     57.2 1.101e+04 1.031e-09
 16.71499     56.8 1.148e+04 1.216e-09
 16.73450     56.3 1.192e+04 1.402e-09
 16.74466     57.6 1.135e+04 1.155e-09
 16.75560     57.0 1.159e+04 1.229e-09
 16.77590     56.4 1.168e+04 1.283e-09
 16.78671     55.8 1.189e+04 1.374e-09
 16.79686     56.1 1.145e+04 1.180e-09
 16.81400     55.5 1.156e+04 1.230e-09
 16.82416     56.5 1.109e+04 9.844e-10
 16.83682     56.0 1.105e+04 1.018e-09
 16.85713     55.5 1.142e+04 1.162e-09
 16.87743     54.3 1.309e+04 1.613e-09
 16.89350     52.5 1.627e+04 2.857e-09
 16.90366     54.0 1.271e+04 1.736e-09
 16.91804     52.8 1.464e+04 2.847e-09
 16.93321     51.9 1.461e+04 3.532e-09
 16.94331     51.5 1.420e+04 3.502e-09
 16.95348     51.3 1.410e+04 3.579e-09
 16.96303     50.7 1.414e+04 3.747e-09
 16.96811     50.4 1.376e+04 3.399e-09
 16.97291     49.7 1.385e+04 3.330e-09
 16.98311     50.5 1.317e+04 2.627e-09
 16.99926     48.8 1.368e+04 2.424e-09
 17.01957     47.0 1.502e+04 2.202e-09
 17.03987     45.8 1.460e+04 1.686e-09
 17.05250     44.4 1.344e+04 1.279e-09
 17.06266     44.1 1.089e+04 6.627e-10
 17.08049     43.1 1.048e+04 6.438e-10
 17.10079     43.5 1.051e+04 6.949e-10
 17.12110     44.0 1.064e+04 7.851e-10
 17.13200     44.7 1.085e+04 8.980e-10
 17.14031     45.5 1.039e+04 6.885e-10
 17.14971     46.1 1.003e+04 5.416e-10
 17.16171     46.8 1.017e+04 6.048e-10
 17.18201     47.4 1.031e+04 6.654e-10
 17.20135     48.1 1.045e+04 7.135e-10
 17.21150     48.9 1.009e+04 4.925e-10
 17.22262     49.2 1.018e+04 5.220e-10
 17.24293     49.9 1.017e+04 5.050e-10
 17.26323     50.2 1.026e+04 5.006e-10
 17.29379     50.8 1.070e+04 6.349e-10
 17.32125     51.9 1.132e+04 7.775e-10
 17.34155     53.6 9.825e+03 3.977e-10
 17.36055     54.0 1.016e+04 4.438e-10
 17.37060     54.6 9.498e+03 2.751e-10
 17.38507     54.8 9.679e+03 3.054e-10
 17.40537     54.8 1.030e+04 3.798e-10
 17.42568     55.0 1.063e+04 4.475e-10
 17.43985     55.1 1.112e+04 6.042e-10
 17.45000     56.4 1.047e+04 3.942e-10
 17.46629     56.7 1.096e+04 5.288e-10
 17.49684     57.4 1.150e+04 7.546e-10
 17.51945     59.4 1.189e+04 9.991e-10
 17.53975     60.8 1.136e+04 7.261e-10
 17.57816     62.2 1.221e+04 1.145e-09
 17.59895     62.9 1.285e+04 1.475e-09
 17.60900     63.7 1.236e+04 1.272e-09
 17.62873     64.6 1.282e+04 1.509e-09
 17.64904     65.0 1.329e+04 1.731e-09
 17.66820     65.3 1.373e+04 1.995e-09
 17.67845     66.4 1.292e+04 1.481e-09
 17.68415     67.0 1.352e+04 1.842e-09
 17.69420     68.3 1.328e+04 1.785e-09
 17.70995     68.4 1.382e+04 2.091e-09
 17.73026     68.8 1.407e+04 2.282e-09
 17.74770     69.2 1.422e+04 2.424e-09
 17.75785     70.5 1.374e+04 2.015e-09
 17.77087     70.9 1.378e+04 2.072e-09
 17.79118     71.5 1.371e+04 2.044e-09
 17.81148     72.0 1.354e+04 1.945e-09
 17.82720     72.6 1.328e+04 1.769e-09
 17.83735     73.7 1.336e+04 1.598e-09
 17.85209     74.1 1.312e+04 1.482e-09
 17.86555     74.5 1.287e+04 1.368e-09
 17.87570     75.6 1.318e+04 1.599e-09
 17.89270     76.0 1.301e+04 1.515e-09
 17.90670     76.5 1.286e+04 1.460e-09
 17.91685     77.4 1.283e+04 1.347e-09
 17.93331     77.9 1.271e+04 1.309e-09
 17.95362     78.4 1.262e+04 1.269e-09
 17.97392     79.0 1.256e+04 1.226e-09
 17.98620     79.3 1.246e+04 1.174e-09
 17.99635     80.0 1.231e+04 1.117e-09
 18.01454     80.5 1.210e+04 1.015e-09
 18.03484     80.7 1.193e+04 9.555e-10
 18.04705     81.3 1.163e+04 8.252e-10
 18.05720     81.9 1.193e+04 9.798e-10
 18.06570     82.3 1.164e+04 8.404e-10
 18.07585     83.2 1.161e+04 8.635e-10
 18.09576     83.6 1.129e+04 7.070e-10
 18.11606     84.0 1.096e+04 5.736e-10
 18.13514     84.8 1.049e+04 4.008e-10
 18.14529     85.4 1.071e+04 4.744e-10
 18.15667     85.6 1.043e+04 3.900e-10
 18.18723     87.1 1.010e+04 2.875e-10
 18.22794     88.4 9.560e+03 1.738e-10
 18.26855     89.6 9.134e+03 1.229e-10
 18.29424     91.2 8.964e+03 1.177e-10
 18.31454     92.5 9.069e+03 1.348e-10
 18.34977     94.4 9.132e+03 1.389e-10
 18.38994     96.4 9.389e+03 1.598e-10
 18.41025     95.9 9.934e+03 2.507e-10
 18.43099     97.5 1.021e+04 3.392e-10
 18.45314     98.8 1.020e+04 3.736e-10
 18.46319     99.3 1.031e+04 3.716e-10
 18.48156     99.9 1.037e+04 4.679e-10
 18.50187    100.6 1.040e+04 5.966e-10
 18.52217    101.7 1.041e+04 6.978e-10
 18.53254    102.7 1.040e+04 6.969e-10
 18.54269    103.4 1.082e+04 9.633e-10
 18.56278    104.4 1.081e+04 9.381e-10
 18.58140    105.4 1.074e+04 7.953e-10
 18.59155    105.1 1.079e+04 8.024e-10
 18.60189    105.6 1.052e+04 5.986e-10
 18.61204    106.5 1.111e+04 9.687e-10
 18.62370    107.1 1.074e+04 6.815e-10
 18.64400    107.2 1.030e+04 4.538e-10
 18.66431    107.4 9.858e+03 2.937e-10
 18.68139    107.3 9.514e+03 2.237e-10
 18.69154    108.2 1.003e+04 3.228e-10
 18.71517    108.4 9.446e+03 2.080e-10
 18.75093    109.0 8.970e+03 1.590e-10
 18.76820    109.1 9.151e+03 1.854e-10
 18.77315    108.6 9.397e+03 2.069e-10
 18.79649    109.6 9.052e+03 1.788e-10
 18.83710    111.4 8.755e+03 1.623e-10
 18.87771    113.3 8.598e+03 1.535e-10
 18.90993    115.2 8.570e+03 1.562e-10
 18.93024    114.7 8.945e+03 1.980e-10
 18.95893    116.7 8.840e+03 1.876e-10
 18.99954    118.5 8.777e+03 1.812e-10
 19.04016    120.3 8.728e+03 1.755e-10
 19.06893    121.9 8.690e+03 1.684e-10
 19.08924    121.0 8.979e+03 2.009e-10
 19.11594    122.6 8.872e+03 1.847e-10
 19.13624    122.1 8.641e+03 1.528e-10
 19.16199    123.7 8.663e+03 1.552e-10
 19.20260    125.4 8.697e+03 1.598e-10
 19.22793    127.3 8.729e+03 1.649e-10
 19.24824    126.3 8.937e+03 1.942e-10
 19.28382    128.1 8.898e+03 1.886e-10
 19.32443    130.1 8.875e+03 1.887e-10
 19.36504    132.2 8.880e+03 1.919e-10
 19.38693    134.3 8.922e+03 2.051e-10
 19.40724    133.3 8.991e+03 2.136e-10
 19.44626    135.4 9.151e+03 2.466e-10
 19.47894    137.3 9.401e+03 2.986e-10
 19.49924    137.0 9.384e+03 2.809e-10
 19.52562    138.5 9.555e+03 3.256e-10
 19.54583    137.5 9.717e+03 3.950e-10
 19.55775    138.4 9.988e+03 4.971e-10
 19.57805    139.2 1.041e+04 6.685e-10
 19.59836    139.8 1.093e+04 9.117e-10
 19.61508    140.2 1.156e+04 1.249e-09
 19.62523    138.9 1.225e+04 1.681e-09
 19.63897    139.0 1.305e+04 2.309e-09
 19.65928    138.9 1.383e+04 3.108e-09
 19.67039    138.6 1.455e+04 3.968e-09
 19.68055    138.5 1.465e+04 4.126e-09
 19.69458    138.1 1.518e+04 4.795e-09
 19.70473    136.2 1.505e+04 4.579e-09
 19.72019    135.4 1.522e+04 4.648e-09
 19.74050    134.3 1.518e+04 4.424e-09
 19.76080    132.7 1.492e+04 3.894e-09
 19.77408    130.4 1.453e+04 3.359e-09
 19.78423    128.1 1.327e+04 2.406e-09
 19.80141    125.3 1.322e+04 2.380e-09
 19.82172    122.3 1.338e+04 2.464e-09
 19.84174    119.4 1.367e+04 2.690e-09
 19.85189    119.7 1.314e+04 2.184e-09
 19.85358    117.3 1.340e+04 2.437e-09
 19.86373    115.8 1.329e+04 2.295e-09
 19.88264    113.9 1.329e+04 2.356e-09
 19.90294    112.2 1.322e+04 2.324e-09
 19.92293    111.0 1.297e+04 2.137e-09
 19.93308    110.0 1.294e+04 2.106e-09
 19.94355    108.9 1.261e+04 1.807e-09
 19.97411    108.2 1.202e+04 1.341e-09
 20.00262    106.5 1.076e+04 7.637e-10
 20.02293    105.6 1.064e+04 7.631e-10
 20.05543    105.3 9.562e+03 4.638e-10
 20.09604    105.4 8.837e+03 3.069e-10
 20.13665    105.8 8.392e+03 2.254e-10
 20.16162    106.6 8.309e+03 2.013e-10
 20.18193    106.6 8.373e+03 2.046e-10
 20.20493    107.8 8.370e+03 2.054e-10
 20.22524    109.4 8.427e+03 2.070e-10
 20.25848    110.7 8.480e+03 2.167e-10
 20.29909    111.9 8.748e+03 2.555e-10
 20.32062    112.6 9.221e+03 3.329e-10
 20.34093    112.7 9.234e+03 3.265e-10
 20.37006    112.5 9.417e+03 3.703e-10
 20.38624    112.4 9.626e+03 4.278e-10
 20.39589    113.2 9.636e+03 4.309e-10
 20.39993    113.2 9.605e+03 4.170e-10
 20.41058    113.5 9.975e+03 5.220e-10
 20.43088    113.8 1.045e+04 6.819e-10
 20.45119    114.0 1.093e+04 8.944e-10
 20.46927    113.8 1.153e+04 1.189e-09
 20.47943    113.7 1.155e+04 1.118e-09
 20.49180    112.6 1.244e+04 1.579e-09
 20.51210    111.0 1.352e+04 2.429e-09
 20.53241    110.0 1.463e+04 3.943e-09
 20.54877    110.2 1.569e+04 6.317e-09
 20.55893    110.1 1.563e+04 5.864e-09
 20.56774    110.1 1.616e+04 7.089e-09
 20.57789    111.1 1.560e+04 5.509e-09
 20.59333    110.9 1.568e+04 5.700e-09
 20.61363    110.9 1.556e+04 5.317e-09
 20.62827    110.8 1.518e+04 3.977e-09
 20.63843    109.7 1.468e+04 2.766e-09
 20.65424    108.5 1.401e+04 1.741e-09
 20.67455    106.2 1.307e+04 1.035e-09
 20.69485    103.5 1.197e+04 7.120e-10
 20.70777    101.6 1.122e+04 6.340e-10
 20.71793    102.1 1.122e+04 6.611e-10
 20.73546    101.5 1.109e+04 6.496e-10
 20.74924    101.3 1.098e+04 6.574e-10
 20.75939    103.4 1.102e+04 6.122e-10
 20.77607    103.3 1.085e+04 6.046e-10
 20.78727    103.6 1.073e+04 6.094e-10
 20.79743    104.4 1.089e+04 6.801e-10
 20.81669    104.9 1.084e+04 6.821e-10
 20.83699    105.6 1.075e+04 6.759e-10
 20.85662    106.6 1.064e+04 6.453e-10
 20.86677    107.4 1.087e+04 7.403e-10
 20.87760    108.5 1.074e+04 6.877e-10
 20.89791    109.5 1.056e+04 6.078e-10
 20.91821    110.6 1.040e+04 5.114e-10
 20.93074    111.7 1.031e+04 4.162e-10
 20.93849    112.6 1.035e+04 5.059e-10
 20.94627    113.5 1.053e+04 5.912e-10
 20.95882    114.6 1.037e+04 5.009e-10
 20.97913    115.6 1.025e+04 4.198e-10
 20.99943    116.7 1.030e+04 3.671e-10
 21.01562    117.8 1.036e+04 3.602e-10
 21.02577    118.7 1.032e+04 3.897e-10
 21.04005    119.9 1.035e+04 3.910e-10
 21.06035    121.2 1.046e+04 4.008e-10
 21.08066    122.7 1.059e+04 4.424e-10
 21.09512    123.8 1.076e+04 5.587e-10
 21.10527    124.6 1.078e+04 5.591e-10
 21.11224    125.2 1.143e+04 8.293e-10
 21.12239    125.8 1.139e+04 8.488e-10
 21.14157    126.5 1.288e+04 1.432e-09
 21.16188    127.5 1.480e+04 2.562e-09
 21.17457    128.2 1.528e+04 3.155e-09
 21.17960    129.3 1.479e+04 2.948e-09
 21.18716    129.6 1.527e+04 3.504e-09
 21.19731    128.7 1.719e+04 4.638e-09
 21.20289    123.8 2.333e+04 9.227e-09
 21.20796    127.0 1.988e+04 6.855e-09
 21.21427    119.9 2.682e+04 1.890e-08
 21.21935    116.0 2.749e+04 4.675e-08
 21.22777    108.9 2.533e+04 1.902e-07
 21.23793    104.4 2.294e+04 3.930e-07
 21.24808    101.4 2.232e+04 4.173e-07
 21.25402     99.0 2.206e+04 3.549e-07
 21.25910     99.6 2.148e+04 5.245e-07
 21.26838     97.6 2.312e+04 1.972e-07
 21.27854     93.2 2.927e+04 3.771e-08
 21.28856     86.7 4.396e+04 3.430e-09
 21.29364     85.9 3.388e+04 7.857e-09
 21.30397     73.1 3.428e+04 1.383e-09
 21.32347     57.7 1.734e+04 1.090e-09
 21.33362     53.2 1.250e+04 1.028e-09
 21.34463     48.2 1.391e+04 1.678e-09
 21.36493     44.9 1.544e+04 3.490e-09
 21.38524     43.7 1.602e+04 5.336e-09
 21.40297     42.6 1.667e+04 6.247e-09
 21.41312     43.6 1.698e+04 6.655e-09
 21.42585     42.3 1.779e+04 6.612e-09
 21.44615     39.3 1.849e+04 6.135e-09
 21.46508     34.1 1.907e+04 4.934e-09
 21.47523     36.7 1.821e+04 3.949e-09
 21.48247     28.6 2.109e+04 4.154e-09
 21.49262     31.0 1.676e+04 3.133e-09
 21.50195     10.4 2.873e+04 3.016e-09
 21.51205      1.9 3.455e+04 8.730e-09
 21.52212     -2.6 3.185e+04 5.594e-08
 21.52719     -2.0 3.740e+04 2.154e-08
 21.53235     -1.9 2.299e+04 2.512e-07
 21.54251      0.2 1.986e+04 9.922e-07
 21.55266      1.6 1.964e+04 1.601e-06
 21.56081     -1.0 2.044e+04 1.395e-06
 21.56494     -0.9 2.070e+04 8.682e-07
 21.56694     -1.1 2.449e+04 2.925e-07
 21.57297     -7.5 2.566e+04 2.539e-07
 21.58312    -13.6 2.656e+04 1.499e-07
 21.59327    -15.8 2.843e+04 8.644e-08
 21.60162    -18.0 3.039e+04 4.634e-08
 21.60669    -14.6 2.844e+04 6.267e-08
 21.61358    -16.9 3.089e+04 3.639e-08
 21.62373    -20.7 2.924e+04 1.818e-08
 21.63388    -25.8 2.300e+04 9.781e-09
 21.64137    -29.7 1.917e+04 6.952e-09
 21.64644    -27.1 2.159e+04 7.207e-09
 21.65156    -31.0 1.807e+04 5.372e-09
 21.65664    -30.2 1.876e+04 6.054e-09
 21.66434    -31.9 1.729e+04 5.450e-09
 21.67449    -32.4 1.713e+04 5.481e-09
 21.68112    -32.8 1.689e+04 5.639e-09
 21.68619    -32.6 1.650e+04 4.604e-09
 21.69480    -33.2 1.637e+04 4.736e-09
 21.70495    -33.5 1.624e+04 4.840e-09
 21.71510    -33.6 1.632e+04 4.968e-09
 21.72092    -33.6 1.645e+04 5.186e-09
 21.73112    -35.5 1.576e+04 3.579e-09
 21.75074    -37.5 1.577e+04 3.586e-09
 21.77104    -39.8 1.590e+04 3.743e-09
 21.79031    -41.7 1.584e+04 3.929e-09
 21.80046    -42.9 1.580e+04 4.843e-09
 21.81165    -43.0 1.577e+04 5.111e-09
 21.82808    -42.8 1.555e+04 5.104e-09
 21.83823    -42.6 1.544e+04 5.120e-09
 21.85226    -42.0 1.469e+04 3.879e-09
 21.86981    -41.6 1.378e+04 2.508e-09
 21.87996    -41.2 1.345e+04 2.218e-09
 21.89287    -42.0 1.227e+04 1.167e-09
 21.91318    -44.5 1.086e+04 5.825e-10
 21.93348    -46.4 9.593e+03 3.273e-10
 21.96404    -47.4 8.884e+03 2.170e-10
 21.99962    -47.6 8.444e+03 1.699e-10
 22.01993    -47.5 8.465e+03 1.632e-10
 22.02901    -47.3 8.151e+03 1.272e-10
 22.04931    -46.3 8.190e+03 1.432e-10
 22.08597    -45.8 8.100e+03 1.348e-10
 22.12658    -44.9 8.031e+03 1.271e-10
 22.16719    -44.2 7.963e+03 1.190e-10
 22.18801    -43.5 7.916e+03 1.155e-10
 22.20831    -42.0 7.938e+03 1.244e-10
 22.24841    -41.5 7.923e+03 1.221e-10
 22.28902    -41.2 7.954e+03 1.326e-10
 22.32670    -41.1 8.215e+03 1.710e-10
 22.34701    -39.4 8.415e+03 1.943e-10
 22.36262    -39.1 8.972e+03 2.765e-10
 22.38293    -39.4 9.111e+03 2.709e-10
 22.40061    -41.1 9.364e+03 3.044e-10
 22.41616    -41.4 9.422e+03 3.226e-10
 22.42631    -39.9 9.330e+03 3.397e-10
 22.44112    -41.0 9.488e+03 3.753e-10
 22.46143    -44.0 9.837e+03 4.423e-10
 22.48173    -51.0 1.340e+04 7.702e-10
 22.49566    -60.2 1.816e+04 2.027e-09
 22.50069    -64.3 2.076e+04 2.609e-09
 22.50702    -68.3 2.206e+04 4.808e-09
 22.51717    -72.3 2.172e+04 9.986e-09
 22.52732    -73.9 2.107e+04 1.632e-08
 22.53531    -74.8 2.070e+04 2.383e-08
 22.54039    -76.1 2.018e+04 2.791e-08
 22.54763    -76.4 2.084e+04 3.219e-08
 22.55398    -76.7 2.202e+04 3.349e-08
 22.55906    -77.6 2.269e+04 3.236e-08
 22.56793    -78.4 2.573e+04 2.407e-08
 22.57506    -82.1 2.805e+04 1.442e-08
 22.58014    -89.5 2.722e+04 5.276e-09
 22.58824    -98.1 2.075e+04 2.587e-09
 22.60351   -105.9 1.341e+04 1.849e-09
 22.62387   -109.8 1.214e+04 1.595e-09
 22.64417   -111.9 1.209e+04 1.558e-09
 22.65466   -114.2 1.206e+04 1.506e-09
 22.66481   -115.3 1.224e+04 1.588e-09
 22.68479   -118.0 1.230e+04 1.585e-09
 22.70509   -120.9 1.240e+04 1.578e-09
 22.72400   -123.7 1.249e+04 1.587e-09
 22.73416   -125.9 1.352e+04 2.454e-09
 22.74570   -129.2 1.354e+04 2.398e-09
 22.76601   -130.6 1.308e+04 2.238e-09
 22.78631   -131.5 1.253e+04 1.874e-09
 22.80350   -132.2 1.202e+04 1.488e-09
 22.81366   -132.7 1.206e+04 1.421e-09
 22.82692   -134.2 1.171e+04 1.056e-09
 22.84723   -136.3 1.157e+04 8.608e-10
 22.86753   -138.6 1.143e+04 7.951e-10
 22.88300   -140.9 1.131e+04 7.859e-10
 22.89316   -143.0 1.114e+04 7.645e-10
 22.90692   -144.6 1.094e+04 8.084e-10
 22.91708   -145.2 1.107e+04 8.924e-10
 22.92845   -145.8 1.097e+04 8.976e-10
 22.94876   -146.1 1.061e+04 8.858e-10
 22.96250   -146.1 1.027e+04 7.543e-10
 22.97266   -146.9 9.995e+03 5.188e-10
 22.98937   -147.4 9.619e+03 3.818e-10
 23.01992   -148.1 9.319e+03 2.970e-10
 23.06063   -149.0 8.738e+03 1.876e-10
 23.08862   -149.9 8.328e+03 1.355e-10
 23.10893   -149.9 8.307e+03 1.330e-10
 23.14185   -151.8 8.014e+03 1.084e-10
 23.18246   -154.7 8.962e+03 1.738e-10
 23.22307   -158.3 1.068e+04 4.747e-10
 23.26039   -162.2 1.159e+04 9.230e-10
 23.28070   -164.1 1.168e+04 1.008e-09
 23.30430   -168.4 1.174e+04 1.118e-09
 23.34491   -172.0 1.116e+04 9.842e-10
 23.38552   -174.6 1.007e+04 5.355e-10
 23.41939   -176.5 9.148e+03 2.800e-10
 23.43970   -177.0 8.940e+03 2.144e-10
 23.45162   -177.7 8.800e+03 1.883e-10
 23.47192   -178.4 8.834e+03 2.029e-10
 23.50735   -178.7 8.895e+03 2.115e-10
 23.54796   -178.6 9.218e+03 2.804e-10
 23.57839   -178.1 9.506e+03 3.747e-10
 23.59870   -178.2 9.620e+03 4.682e-10
 23.62918   -177.5 9.777e+03 5.504e-10
 23.66979   -176.8 9.806e+03 5.702e-10
 23.71041   -176.0 9.782e+03 5.662e-10
 23.73739   -175.0 9.612e+03 4.814e-10
 23.75770   -174.8 9.872e+03 6.321e-10
 23.79163   -173.9 9.719e+03 5.434e-10
 23.81462   -173.1 9.507e+03 4.196e-10
 23.83492   -173.9 9.868e+03 5.841e-10
 23.87285   -173.0 9.541e+03 4.224e-10
 23.89639   -172.1 9.142e+03 2.838e-10
 23.91670   -171.7 9.420e+03 4.854e-10
 23.95407   -170.3 8.861e+03 3.115e-10
 23.99468   -168.6 8.411e+03 1.999e-10
 24.03509   -166.7 8.119e+03 1.387e-10
 24.05539   -165.8 8.213e+03 1.935e-10
 24.07590   -163.9 8.031e+03 1.460e-10
 24.11651   -161.9 8.019e+03 1.303e-10
 24.15712   -159.9 8.023e+03 1.273e-10
 24.19409   -158.5 7.921e+03 1.163e-10
 24.21439   -157.6 8.039e+03 1.135e-10
 24.23835   -156.0 8.047e+03 1.133e-10
 24.27896   -154.7 8.254e+03 1.194e-10
 24.31957   -153.6 8.546e+03 1.511e-10
 24.35308   -152.5 8.804e+03 2.038e-10
 24.37339   -152.0 8.998e+03 2.286e-10
 24.40079   -150.7 9.168e+03 2.891e-10
 24.44140   -149.3 9.306e+03 3.457e-10
 24.48201   -147.8 9.405e+03 3.889e-10
 24.51208   -146.2 9.467e+03 4.173e-10
 24.53008   -145.0 9.422e+03 3.883e-10
 24.54062   -145.1 8.964e+03 2.618e-10
 24.56323   -143.5 9.022e+03 2.774e-10
 24.60384   -142.1 9.242e+03 3.190e-10
 24.64446   -141.0 9.666e+03 4.162e-10
 24.67108   -140.1 1.021e+04 5.983e-10
 24.69139   -139.5 1.042e+04 5.700e-10
 24.72568   -138.9 1.108e+04 9.095e-10
 24.76629   -138.3 1.156e+04 1.277e-09
 24.80690   -137.6 1.180e+04 1.513e-09
 24.83008   -136.8 1.186e+04 1.578e-09
 24.85039   -136.7 1.180e+04 1.467e-09
 24.88331   -135.6 1.165e+04 1.343e-09
 24.90361   -134.2 1.150e+04 1.330e-09
 24.92873   -133.1 1.158e+04 1.374e-09
 24.96878   -132.1 1.158e+04 1.366e-09
 24.98908   -131.6 1.117e+04 1.011e-09
 25.00995   -130.7 1.100e+04 9.078e-10
 25.04031   -130.6 1.077e+04 8.524e-10
 25.05824   -130.0 1.056e+04 7.337e-10
 25.06839   -130.1 1.039e+04 5.952e-10
 25.07477   -129.6 1.013e+04 4.980e-10
 25.08492   -128.6 1.033e+04 5.515e-10
 25.10113   -128.3 1.007e+04 4.460e-10
 25.12144   -128.0 9.735e+03 3.577e-10
 25.13773   -127.7 9.571e+03 3.202e-10
 25.14799   -128.5 9.498e+03 2.742e-10
 25.17240   -127.2 9.062e+03 1.981e-10
 25.21301   -125.8 8.667e+03 1.464e-10
 25.24631   -124.3 8.498e+03 1.249e-10
 25.26661   -123.7 8.604e+03 1.178e-10
 25.28678   -122.5 8.509e+03 1.101e-10
 25.30708   -122.5 8.561e+03 1.163e-10
 25.33484   -121.4 8.554e+03 1.159e-10
 25.37545   -120.6 8.576e+03 1.269e-10
 25.41606   -120.2 8.729e+03 1.541e-10
 25.44578   -120.1 8.979e+03 1.930e-10
 25.46608   -120.5 9.181e+03 2.240e-10
 25.49728   -120.8 9.410e+03 2.642e-10
 25.53789   -121.1 9.584e+03 3.052e-10
 25.57851   -121.4 9.658e+03 3.404e-10
 25.60478   -121.3 9.590e+03 3.609e-10
 25.61527   -121.3 9.519e+03 3.850e-10
 25.62961   -121.7 9.664e+03 4.405e-10
 25.65973   -120.9 9.414e+03 3.730e-10
 25.70034   -120.1 9.214e+03 3.268e-10
 25.74095   -119.2 9.148e+03 3.107e-10
 25.76378   -118.3 9.151e+03 3.099e-10
 25.78408   -117.7 8.897e+03 2.169e-10
 25.82217   -117.0 8.998e+03 2.216e-10
 25.86278   -116.7 9.308e+03 2.648e-10
 25.90247   -116.6 9.604e+03 3.307e-10
 25.92278   -116.2 9.303e+03 2.247e-10
 25.94400   -116.2 9.601e+03 3.054e-10
 25.97231   -116.2 9.835e+03 3.691e-10
 25.99261   -117.1 9.794e+03 3.404e-10
 26.02522   -117.6 9.879e+03 3.586e-10
 26.06147   -118.0 9.891e+03 3.596e-10
 26.08178   -117.8 1.032e+04 5.177e-10
 26.10645   -118.2 1.037e+04 5.328e-10
 26.14706   -119.2 1.049e+04 5.554e-10
 26.18767   -121.4 1.151e+04 7.715e-10
 26.21803   -124.1 1.295e+04 1.619e-09
 26.23043   -124.9 1.361e+04 2.490e-09
 26.24058   -125.2 1.404e+04 3.592e-09
 26.25854   -125.2 1.420e+04 4.272e-09
 26.27885   -125.3 1.420e+04 4.399e-09
 26.29915   -125.1 1.375e+04 3.993e-09
 26.30993   -124.6 1.304e+04 2.974e-09
 26.32008   -124.1 1.252e+04 2.167e-09
 26.33511   -124.4 1.182e+04 1.448e-09
 26.34526   -124.4 1.178e+04 1.432e-09
 26.36007   -125.6 1.114e+04 9.782e-10
 26.37927   -126.6 1.059e+04 7.183e-10
 26.38943   -126.8 1.039e+04 4.112e-10
 26.40068   -127.3 1.013e+04 3.298e-10
 26.43124   -127.9 9.972e+03 2.903e-10
 26.47194   -128.7 9.895e+03 2.778e-10
 26.51256   -129.7 9.892e+03 2.871e-10
 26.53847   -130.6 1.003e+04 3.541e-10
 26.55877   -129.5 9.398e+03 2.149e-10
 26.59378   -129.7 9.474e+03 2.723e-10
 26.63439   -129.7 9.543e+03 3.261e-10
 26.67500   -129.7 9.624e+03 3.733e-10
 26.69747   -129.8 9.803e+03 4.354e-10
 26.70047   -128.2 9.440e+03 3.287e-10
 26.71861   -128.4 9.751e+03 4.143e-10
 26.75622   -128.5 1.013e+04 5.355e-10
 26.79683   -128.9 1.057e+04 6.911e-10
 26.83616   -129.6 1.087e+04 8.327e-10
 26.85647   -128.5 1.065e+04 7.102e-10
 26.87805   -129.6 1.072e+04 7.426e-10
 26.91866   -130.6 1.064e+04 7.279e-10
 26.95927   -131.1 1.032e+04 6.370e-10
 26.99516   -131.2 9.999e+03 5.514e-10
 27.01547   -130.7 9.871e+03 5.089e-10
 27.04050   -130.7 9.626e+03 4.517e-10
 27.06130   -130.3 9.505e+03 4.334e-10
 27.08161   -129.5 9.524e+03 4.003e-10
 27.12172   -128.8 9.623e+03 4.596e-10
 27.15416   -128.3 9.814e+03 5.460e-10
 27.17447   -128.3 9.733e+03 5.203e-10
 27.20294   -128.1 9.789e+03 5.557e-10
 27.24355   -127.8 9.725e+03 5.534e-10
 27.28416   -127.2 9.326e+03 4.298e-10
 27.31316   -126.2 8.810e+03 2.635e-10
 27.33347   -126.0 8.781e+03 2.309e-10
 27.36538   -125.2 8.375e+03 1.378e-10
 27.40400   -124.5 8.192e+03 9.785e-11
 27.42430   -124.4 8.465e+03 1.388e-10
 27.44661   -123.8 8.428e+03 1.319e-10
 27.47216   -123.0 8.430e+03 1.327e-10
 27.49247   -123.0 8.456e+03 1.456e-10
 27.52783   -122.1 8.468e+03 1.586e-10
 27.56844   -120.9 8.452e+03 1.671e-10
 27.60905   -119.6 8.441e+03 1.680e-10
 27.63116   -118.4 8.449e+03 1.665e-10
 27.65147   -118.2 8.381e+03 1.445e-10
 27.69027   -117.4 8.391e+03 1.435e-10
 27.73088   -117.2 8.473e+03 1.438e-10
 27.76699   -117.3 8.744e+03 1.609e-10
 27.78566   -117.7 8.868e+03 1.692e-10
 27.79016   -117.4 8.774e+03 1.704e-10
 27.81210   -117.7 9.076e+03 2.295e-10
 27.85271   -118.1 9.420e+03 3.129e-10
 27.89332   -118.3 9.710e+03 4.012e-10
 27.92885   -118.4 9.845e+03 4.533e-10
 27.94916   -118.2 9.724e+03 4.238e-10
 27.97455   -118.3 9.752e+03 4.344e-10
 28.01516   -118.3 9.702e+03 4.227e-10
 28.05577   -117.6 9.500e+03 3.510e-10
 28.08785   -116.6 9.290e+03 2.746e-10
 28.10816   -116.6 9.157e+03 2.257e-10
 28.12999   -115.5 9.000e+03 1.740e-10
 28.15030   -115.6 9.024e+03 1.774e-10
 28.17760   -114.3 8.927e+03 1.427e-10
 28.21821   -112.9 8.886e+03 1.222e-10
 28.24685   -111.4 8.880e+03 1.119e-10
 28.26716   -111.4 8.817e+03 9.945e-11
 28.29943   -109.8 8.823e+03 9.873e-11
 28.34004   -108.2 8.923e+03 1.007e-10
 28.38066   -106.6 9.040e+03 1.148e-10
 28.40585   -105.0 9.119e+03 1.353e-10
 28.42616   -104.9 9.158e+03 1.490e-10
 28.46188   -103.0 9.267e+03 1.787e-10
 28.49299   -101.2 9.377e+03 2.088e-10
 28.51330   -100.9 9.225e+03 1.723e-10
 28.54310    -99.1 9.258e+03 1.888e-10
 28.56485    -97.4 9.316e+03 2.119e-10
 28.58516    -97.4 9.467e+03 2.365e-10
 28.62432    -96.0 9.672e+03 3.029e-10
 28.66493    -94.7 9.999e+03 4.131e-10
 28.70355    -93.6 1.037e+04 5.538e-10
 28.72385    -93.9 1.043e+04 5.539e-10
 28.74615    -93.0 1.063e+04 6.271e-10
 28.78676    -92.3 1.067e+04 6.358e-10
 28.82737    -91.3 1.048e+04 5.412e-10
 28.85599    -90.0 1.017e+04 3.771e-10
 28.87086    -89.5 1.018e+04 4.256e-10
 28.88285    -89.3 9.997e+03 3.338e-10
 28.90860    -87.9 9.779e+03 2.328e-10
 28.94921    -86.5 9.610e+03 1.621e-10
 28.98982    -85.0 9.491e+03 1.177e-10
 29.02155    -83.3 9.399e+03 9.003e-11
 29.04185    -82.9 9.320e+03 9.020e-11
 29.07104    -81.0 9.292e+03 7.340e-11
 29.11165    -79.2 9.306e+03 6.162e-11
 29.15226    -77.4 9.343e+03 5.500e-11
 29.18055    -75.5 9.368e+03 5.319e-11
 29.20085    -75.2 9.339e+03 6.094e-11
 29.21899    -73.4 9.425e+03 6.245e-11
 29.23929    -72.9 9.432e+03 5.564e-11
 29.27409    -71.2 9.528e+03 6.203e-11
 29.31471    -69.4 9.615e+03 6.958e-11
 29.33955    -67.6 9.682e+03 7.448e-11
 29.35985    -67.5 9.718e+03 6.992e-11
 29.39593    -65.7 9.739e+03 7.003e-11
 29.43654    -63.9 9.810e+03 6.604e-11
 29.47715    -62.2 9.890e+03 5.988e-11
 29.49855    -60.6 9.958e+03 5.695e-11
 29.51885    -60.9 9.944e+03 5.673e-11
 29.55837    -59.4 9.997e+03 5.684e-11
 29.58199    -57.8 1.003e+04 6.271e-11
 29.60229    -57.6 1.018e+04 6.833e-11
 29.63724    -55.9 1.023e+04 7.327e-11
 29.65754    -56.1 1.013e+04 6.835e-11
 29.68020    -54.5 1.019e+04 6.053e-11
 29.72081    -53.1 1.021e+04 5.382e-11
 29.76142    -51.9 1.011e+04 5.093e-11
 29.79624    -50.7 1.001e+04 5.054e-11
 29.81654    -50.5 9.852e+03 4.769e-11
 29.84265    -49.1 9.783e+03 5.519e-11
 29.88326    -47.5 9.818e+03 6.381e-11
 29.92387    -45.9 9.890e+03 7.319e-11
 29.94499    -44.4 9.957e+03 8.640e-11
 29.95605    -44.0 1.001e+04 7.071e-11
 29.97554    -44.2 1.010e+04 1.053e-10
 30.00509    -42.6 1.014e+04 1.301e-10
 30.04570    -41.0 1.012e+04 1.631e-10
 30.08631    -39.2 1.007e+04 1.981e-10
 30.11424    -37.2 1.002e+04 2.255e-10
 30.13454    -36.8 1.013e+04 2.813e-10
 30.16753    -34.5 1.006e+04 2.271e-10
 30.20814    -32.5 1.011e+04 1.726e-10
 30.24876    -30.8 1.027e+04 1.317e-10
 30.27324    -29.1 1.045e+04 1.050e-10
 30.29186    -29.3 1.055e+04 6.719e-11
 30.30799    -29.1 1.053e+04 1.214e-10
 30.32998    -27.7 1.052e+04 1.124e-10
 30.37059    -26.3 1.045e+04 1.092e-10
 30.41120    -24.5 1.013e+04 1.212e-10
 30.43224    -22.4 9.988e+03 1.242e-10
 30.45254    -21.8 9.925e+03 1.286e-10
 30.49242    -19.5 9.891e+03 1.270e-10
 30.53303    -17.4 9.941e+03 1.255e-10
 30.57093    -15.9 1.009e+04 1.418e-10
 30.59124    -15.4 1.009e+04 1.547e-10
 30.61425    -14.0 1.033e+04 2.172e-10
 30.65068    -12.5 1.060e+04 3.263e-10
 30.67098    -12.9 1.047e+04 1.756e-10
 30.69547    -11.1 1.064e+04 2.533e-10
 30.72993     -9.3 1.063e+04 2.917e-10
 30.75024     -9.2 1.088e+04 4.461e-10
 30.77670     -7.7 1.075e+04 4.307e-10
 30.81731     -6.6 1.048e+04 3.782e-10
 30.85792     -5.3 1.030e+04 3.543e-10
 30.88893     -3.5 1.023e+04 3.322e-10
 30.90924     -3.5 1.067e+04 5.457e-10
 30.93914     -1.6 1.078e+04 4.984e-10
 30.97975     -0.3 1.082e+04 4.585e-10
 31.01368      0.9 1.082e+04 4.314e-10
 31.03398      0.7 1.052e+04 3.280e-10
 31.04793      2.4 1.056e+04 3.526e-10
 31.06824      2.3 1.074e+04 4.865e-10
 31.10158      4.4 1.088e+04 4.313e-10
 31.14219      5.6 1.093e+04 3.786e-10
 31.18281      6.6 1.075e+04 3.698e-10
 31.20693      8.0 1.059e+04 3.919e-10
 31.22724      7.6 1.042e+04 3.851e-10
 31.26403      9.3 1.041e+04 4.056e-10
 31.30464     10.9 1.044e+04 4.259e-10
 31.34525     12.4 1.049e+04 4.495e-10
 31.36593     14.1 1.061e+04 4.750e-10
 31.37705     13.0 1.047e+04 4.198e-10
 31.39698     13.5 1.072e+04 4.809e-10
 31.42647     14.7 1.079e+04 3.886e-10
 31.46708     15.1 1.097e+04 3.327e-10
 31.50462     13.4 1.151e+04 4.070e-10
 31.52493     10.9 1.152e+04 4.563e-10
 31.54830      9.6 1.148e+04 7.610e-10
 31.58891     10.2 1.154e+04 8.976e-10
 31.62952     10.0 1.187e+04 5.149e-10
 31.66362      7.7 1.104e+04 2.941e-10
 31.68393      6.2 1.033e+04 1.924e-10
 31.71075      7.2 9.999e+03 1.690e-10
 31.73968      8.3 1.020e+04 1.311e-10
 31.75998      9.2 1.026e+04 1.206e-10
 31.79197      9.8 1.046e+04 1.117e-10
 31.82262      9.6 1.065e+04 1.309e-10
 31.84293      8.2 1.095e+04 1.862e-10
 31.87319      9.7 1.040e+04 3.311e-10
 31.91380     11.9 1.050e+04 4.381e-10
 31.95441     13.7 1.072e+04 4.362e-10
 31.98162     14.8 1.099e+04 4.132e-10
 32.00193     14.2 1.095e+04 2.805e-10
 32.03563     14.5 1.078e+04 3.082e-10
 32.07624     15.5 1.052e+04 4.080e-10
 32.10267     16.9 1.076e+04 5.082e-10
 32.12298     17.7 1.098e+04 6.233e-10
 32.14062     18.8 1.128e+04 7.528e-10
 32.16093     18.3 1.087e+04 5.638e-10
 32.19808     19.4 1.120e+04 6.271e-10
 32.23869     20.7 1.115e+04 5.693e-10
 32.27930     22.1 1.098e+04 4.139e-10
 32.31991     23.2 1.052e+04 2.182e-10
 32.36052     24.3 1.030e+04 1.510e-10
 32.40113     25.7 1.018e+04 1.110e-10
 32.43832     27.1 1.016e+04 8.909e-11
 32.45862     27.7 1.032e+04 6.854e-11
 32.46567     29.0 1.040e+04 5.659e-11
 32.48598     29.8 1.035e+04 5.537e-11
 32.52296     31.4 1.036e+04 5.577e-11
 32.56357     32.9 1.044e+04 5.978e-11
 32.59732     34.2 1.045e+04 7.546e-11
 32.61762     34.0 1.059e+04 5.848e-11
 32.64480     35.1 1.056e+04 9.523e-11
 32.68541     36.4 1.056e+04 1.871e-10
 32.72602     38.0 1.093e+04 3.608e-10
 32.75632     39.3 1.135e+04 5.483e-10
 32.77662     39.3 1.142e+04 7.337e-10
 32.80724     40.6 1.176e+04 8.114e-10
 32.82858     41.2 1.192e+04 8.651e-10
 32.83675     41.9 1.198e+04 1.017e-09
 32.84577     41.8 1.200e+04 1.014e-09
 32.85781     42.2 1.201e+04 9.698e-10
 32.87811     42.6 1.203e+04 9.076e-10
 32.89842     42.8 1.204e+04 8.324e-10
 32.91512     42.7 1.206e+04 8.082e-10
 32.93552     42.9 1.181e+04 6.759e-10
 32.96968     42.7 1.206e+04 8.502e-10
 33.01029     43.0 1.216e+04 1.182e-09
 33.05091     43.6 1.201e+04 1.220e-09
 33.07431     44.5 1.171e+04 1.090e-09
 33.09462     44.8 1.160e+04 1.057e-09
 33.13213     46.5 1.095e+04 6.653e-10
 33.17137     48.2 1.047e+04 3.368e-10
 33.19167     48.4 1.087e+04 4.947e-10
 33.21301     49.3 1.065e+04 2.121e-10
 33.23331     48.7 1.066e+04 1.351e-10
 33.25396     49.2 1.036e+04 9.969e-11
 33.29457     50.6 1.026e+04 9.672e-11
 33.33518     52.2 1.026e+04 9.883e-11
 33.37201     53.7 1.025e+04 1.075e-10
 33.39231     53.1 1.017e+04 1.229e-10
 33.41640     54.7 9.990e+03 1.308e-10
 33.45701     56.2 9.849e+03 1.397e-10
 33.49762     57.8 9.788e+03 1.588e-10
 33.53101     59.4 9.887e+03 1.817e-10
 33.54744     59.3 9.772e+03 1.245e-10
 33.55467     58.8 9.744e+03 9.196e-11
 33.57885     60.1 9.731e+03 8.984e-11
 33.61946     61.3 9.716e+03 8.800e-11
 33.66007     62.5 9.694e+03 8.779e-11
 33.69001     63.6 9.678e+03 9.047e-11
 33.71031     64.0 9.573e+03 8.693e-11
 33.74129     65.3 9.580e+03 9.677e-11
 33.78190     66.4 9.666e+03 1.136e-10
 33.82251     67.6 9.877e+03 1.421e-10
 33.84901     68.6 1.018e+04 1.908e-10
 33.86931     69.5 1.001e+04 1.490e-10
 33.89736     70.5 1.026e+04 1.821e-10
 33.91767     71.2 1.007e+04 1.716e-10
 33.94434     71.8 1.030e+04 2.127e-10
 33.98496     72.1 1.047e+04 2.715e-10
 34.00801     72.2 1.071e+04 3.502e-10
 34.02831     73.3 1.062e+04 2.931e-10
 34.05593     72.8 1.086e+04 3.866e-10
 34.07613     72.3 1.106e+04 5.213e-10
 34.08731     72.3 1.127e+04 7.017e-10
 34.08985     72.5 1.134e+04 8.015e-10
 34.09897     73.1 1.122e+04 7.066e-10
 34.11675     73.2 1.149e+04 1.012e-09
 34.13705     73.4 1.187e+04 1.333e-09
 34.15666     73.7 1.226e+04 1.625e-09
 34.16681     74.1 1.250e+04 2.216e-09
 34.17766     74.4 1.301e+04 2.841e-09
 34.19797     74.7 1.359e+04 3.374e-09
 34.21827     75.1 1.418e+04 3.736e-09
 34.23616     75.3 1.469e+04 3.910e-09
 34.24631     75.6 1.492e+04 6.032e-09
 34.25376     75.7 1.547e+04 6.191e-09
 34.26386     75.5 1.590e+04 6.366e-09
 34.27022     75.0 1.657e+04 6.846e-09
 34.27530     75.3 1.667e+04 7.107e-09
 34.28089     74.9 1.724e+04 7.678e-09
 34.28596     74.4 1.810e+04 1.265e-08
 34.29432     74.0 1.895e+04 1.501e-08
 34.30447     73.8 1.956e+04 1.675e-08
 34.31463     73.5 2.050e+04 1.792e-08
 34.32064     72.2 2.185e+04 1.910e-08
 34.32571     73.6 2.013e+04 3.220e-08
 34.33493     71.5 2.264e+04 3.677e-08
 34.34508     67.5 2.499e+04 4.081e-08
 34.35524     63.4 2.525e+04 4.145e-08
 34.36039     60.5 2.428e+04 3.953e-08
 34.36105     61.1 2.464e+04 5.432e-08
 34.36605     62.4 2.478e+04 4.474e-08
 34.37554     59.6 2.330e+04 3.767e-08
 34.38569     57.8 2.141e+04 3.158e-08
 34.39506     57.4 2.015e+04 2.543e-08
 34.40014     56.9 2.019e+04 2.897e-08
 34.40600     56.9 1.942e+04 2.241e-08
 34.42128     57.2 1.837e+04 1.151e-08
 34.44163     56.1 1.747e+04 3.763e-09
 34.46194     54.1 1.611e+04 2.641e-09
 34.47466     50.2 1.402e+04 9.871e-10
 34.48481     50.9 1.445e+04 8.549e-10
 34.50255     47.4 1.098e+04 3.653e-10
 34.52285     46.5 1.025e+04 2.990e-10
 34.55341     47.1 1.008e+04 2.267e-10
 34.59412     47.0 9.826e+03 1.814e-10
 34.62336     46.6 9.814e+03 1.885e-10
 34.63264     47.7 1.010e+04 2.746e-10
 34.64401     49.0 9.868e+03 2.178e-10
 34.67534     48.9 9.808e+03 2.382e-10
 34.71595     49.4 9.748e+03 2.402e-10
 34.75656     50.1 9.626e+03 2.199e-10
 34.78270     50.8 9.592e+03 1.824e-10
 34.80300     52.5 9.492e+03 1.834e-10
 34.83778     53.1 9.412e+03 1.554e-10
 34.87839     53.8 9.323e+03 1.434e-10
 34.91901     54.8 9.183e+03 1.344e-10
 34.94170     56.0 9.004e+03 1.186e-10
 34.96200     57.2 9.076e+03 1.336e-10
 34.98636     58.2 8.942e+03 1.103e-10
 35.00667     58.0 8.921e+03 1.107e-10
 35.04084     58.9 8.831e+03 8.669e-11
 35.08039     59.6 8.765e+03 7.890e-11
 35.10070     60.3 8.836e+03 8.247e-11
 35.12206     60.8 8.828e+03 8.358e-11
 35.16267     61.3 8.878e+03 9.522e-11
 35.20328     61.8 8.985e+03 1.201e-10
 35.23939     62.4 9.133e+03 1.484e-10
 35.25970     62.1 9.163e+03 1.507e-10
 35.28450     62.1 9.336e+03 1.764e-10
 35.32511     61.8 9.499e+03 1.985e-10
 35.34936     61.3 9.679e+03 2.248e-10
 35.36966     61.2 9.901e+03 3.030e-10
 35.39839     60.3 1.013e+04 3.521e-10
 35.41870     59.5 1.020e+04 3.789e-10
 35.44695     58.5 1.034e+04 4.139e-10
 35.48756     57.2 1.039e+04 4.400e-10
 35.52817     55.9 1.032e+04 4.288e-10
 35.55739     54.9 1.005e+04 3.646e-10
 35.57770     54.5 9.880e+03 3.621e-10
 35.60939     53.8 9.536e+03 2.597e-10
 35.65000     52.7 9.195e+03 1.897e-10
 35.69061     51.9 8.982e+03 1.816e-10
 35.71236     51.9 8.931e+03 1.900e-10
 35.71783     52.4 8.974e+03 1.965e-10
 35.73670     52.8 9.163e+03 2.804e-10
 35.77183     53.4 8.994e+03 2.584e-10
 35.81244     54.5 8.728e+03 1.913e-10
 35.85305     55.1 8.515e+03 1.181e-10
 35.87539     55.0 8.407e+03 7.534e-11
 35.89570     55.8 8.050e+03 7.637e-11
 35.93428     56.0 7.983e+03 6.477e-11
 35.97489     56.7 7.984e+03 6.684e-11
 36.01409     57.8 8.040e+03 7.764e-11
 36.03439     58.8 7.808e+03 6.960e-11
 36.05505     60.0 7.920e+03 8.070e-11
 36.07536     60.9 7.921e+03 8.317e-11
 36.09672     62.0 8.090e+03 1.055e-10
 36.13733     62.2 8.295e+03 1.404e-10
 36.17309     62.0 8.714e+03 2.056e-10
 36.19339     63.7 8.693e+03 2.095e-10
 36.21855     62.9 9.312e+03 3.130e-10
 36.24661     60.7 9.980e+03 5.016e-10
 36.25666     61.1 9.972e+03 4.908e-10
 36.26254     60.2 1.018e+04 6.650e-10
 36.27270     61.5 1.007e+04 6.350e-10
 36.28943     60.9 1.008e+04 6.769e-10
 36.30973     60.3 1.002e+04 6.553e-10
 36.33004     59.7 9.779e+03 5.316e-10
 36.34204     58.7 9.411e+03 4.045e-10
 36.35219     59.7 9.529e+03 4.293e-10
 36.38090     58.8 9.091e+03 3.160e-10
 36.41805     57.3 8.569e+03 2.634e-10
 36.43836     58.7 8.485e+03 2.547e-10
 36.46222     58.3 8.487e+03 2.665e-10
 36.49108     58.4 8.721e+03 3.249e-10
 36.51139     59.0 8.999e+03 3.667e-10
 36.54344     59.1 9.318e+03 4.715e-10
 36.57049     59.2 9.324e+03 4.675e-10
 36.58054     59.0 9.561e+03 5.661e-10
 36.59401     59.1 9.656e+03 5.769e-10
 36.60951     59.1 9.700e+03 5.737e-10
 36.61966     59.9 9.658e+03 5.687e-10
 36.63462     59.8 9.720e+03 5.721e-10
 36.64989     59.3 9.937e+03 6.061e-10
 36.66004     59.1 1.038e+04 7.936e-10
 36.67523     58.0 1.082e+04 9.590e-10
 36.69554     56.6 1.122e+04 1.272e-09
 36.71584     56.4 1.158e+04 1.726e-09
 36.72939     56.9 1.178e+04 2.060e-09
 36.73954     57.3 1.180e+04 2.043e-09
 36.75645     57.9 1.179e+04 2.028e-09
 36.77676     58.6 1.163e+04 1.823e-09
 36.79101     58.7 1.127e+04 1.390e-09
 36.80116     59.7 1.127e+04 1.437e-09
 36.80889     59.2 1.092e+04 1.015e-09
 36.81904     59.0 1.084e+04 8.943e-10
 36.83767     57.4 1.026e+04 6.043e-10
 36.85798     55.6 9.548e+03 4.601e-10
 36.87824     54.0 9.534e+03 4.657e-10
 36.89854     50.0 1.107e+04 8.819e-10
 36.91889     46.7 1.242e+04 1.753e-09
 36.93920     44.2 1.378e+04 3.487e-09
 36.95774     43.5 1.507e+04 6.058e-09
 36.96789     42.5 1.605e+04 7.834e-09
 36.97251     41.8 1.657e+04 8.806e-09
 36.98266     42.4 1.651e+04 8.713e-09
 37.00012     42.0 1.604e+04 7.508e-09
 37.02042     41.1 1.526e+04 5.124e-09
 37.03723     38.4 1.403e+04 2.822e-09
 37.04739     35.8 1.304e+04 2.048e-09
 37.06103     32.3 1.120e+04 9.797e-10
 37.08134     29.4 9.769e+03 5.351e-10
 37.10164     27.9 9.046e+03 3.409e-10
 37.11673     26.8 8.699e+03 2.892e-10
 37.12689     26.4 8.505e+03 2.477e-10
 37.14395     26.2 8.621e+03 2.217e-10
 37.16435     26.3 8.566e+03 2.171e-10
 37.19321     25.8 9.051e+03 2.635e-10
 37.22357     25.7 9.241e+03 3.596e-10
 37.24378     25.7 9.553e+03 5.342e-10
 37.26409     26.3 9.929e+03 7.425e-10
 37.27573     26.8 1.052e+04 1.047e-09
 37.28589     26.7 1.037e+04 8.841e-10
 37.30470     25.9 1.147e+04 1.358e-09
 37.32500     22.7 1.448e+04 2.769e-09
 37.33551     19.5 1.646e+04 5.561e-09
 37.34543     17.4 1.696e+04 7.944e-09
 37.35523     19.3 1.647e+04 4.923e-09
 37.36561     18.9 1.659e+04 7.532e-09
 37.38592     19.7 1.619e+04 9.046e-09
 37.40623     20.4 1.586e+04 7.525e-09
 37.42458     19.8 1.579e+04 5.041e-09
 37.43473     17.4 1.605e+04 4.388e-09
 37.44684     12.9 1.662e+04 3.560e-09
 37.46714      6.5 1.632e+04 2.999e-09
 37.48745      1.6 1.479e+04 2.730e-09
 37.50408     -0.8 1.370e+04 2.223e-09
 37.51333      0.2 1.521e+04 4.711e-09
 37.51700     -0.2 1.526e+04 4.886e-09
 37.52806     -0.1 1.443e+04 2.711e-09
 37.54836     -2.7 1.330e+04 1.301e-09
 37.56867     -5.0 1.199e+04 7.253e-10
 37.58368     -5.5 1.107e+04 5.328e-10
 37.60408     -9.5 1.093e+04 5.576e-10
 37.63993     -7.0 1.020e+04 4.195e-10
 37.68054     -4.5 9.993e+03 3.824e-10
 37.72115     -2.1 1.013e+04 4.190e-10
 37.74278      0.0 1.034e+04 5.352e-10
 37.76308     -0.4 1.053e+04 5.661e-10
 37.80238      1.8 1.090e+04 7.898e-10
 37.84299      4.4 1.131e+04 1.069e-09
 37.87005      7.2 1.166e+04 1.253e-09
 37.88010      7.3 1.168e+04 1.268e-09
 37.89143      7.4 1.167e+04 1.280e-09
 37.90168      6.9 1.167e+04 1.150e-09
 37.91396      9.1 1.215e+04 1.517e-09
 37.93417     10.3 1.209e+04 1.462e-09
 37.95447     11.6 1.208e+04 1.344e-09
 37.97093     12.4 1.226e+04 1.226e-09
 37.98108     11.0 1.297e+04 1.796e-09
 37.99508     11.5 1.334e+04 1.764e-09
 38.01539     11.6 1.374e+04 1.878e-09
 38.03569     10.8 1.429e+04 2.284e-09
 38.05043      9.5 1.504e+04 3.115e-09
 38.05593      9.7 1.459e+04 4.184e-09
 38.06150      9.9 1.515e+04 5.219e-09
 38.07118      9.3 1.560e+04 5.870e-09
 38.08128      8.9 1.572e+04 6.384e-09
 38.09008      8.9 1.598e+04 8.610e-09
 38.09516      9.5 1.595e+04 8.809e-09
 38.10159      9.8 1.631e+04 1.021e-08
 38.11174     10.2 1.653e+04 1.191e-08
 38.12189     10.2 1.678e+04 1.256e-08
 38.12983     11.1 1.711e+04 1.348e-08
 38.14003     11.5 1.641e+04 1.048e-08
 38.15753     11.7 1.642e+04 8.724e-09
 38.17783     10.6 1.623e+04 6.981e-09
 38.19814      9.3 1.558e+04 5.596e-09
 38.20943      8.4 1.517e+04 5.011e-09
 38.21958      7.4 1.482e+04 2.286e-09
 38.23285      7.1 1.502e+04 2.298e-09
 38.24300      6.0 1.535e+04 2.623e-09
 38.25905      6.1 1.533e+04 2.679e-09
 38.27877      6.3 1.499e+04 2.593e-09
 38.28893      4.5 1.267e+04 1.294e-09
 38.29966      5.1 1.228e+04 1.366e-09
 38.31997      6.0 1.199e+04 1.380e-09
 38.34028      6.9 1.160e+04 1.260e-09
 38.35827      7.7 1.122e+04 1.094e-09
 38.36843      7.8 1.083e+04 8.798e-10
 38.38089      8.5 1.074e+04 7.639e-10
 38.40119      9.1 1.049e+04 6.181e-10
 38.41435     10.0 1.013e+04 5.002e-10
 38.42450      9.6 9.982e+03 4.506e-10
 38.45205     10.4 9.367e+03 3.132e-10
 38.49276     12.3 8.599e+03 1.798e-10
 38.51747     14.0 8.135e+03 1.214e-10
 38.53777     14.3 8.274e+03 1.287e-10
 38.57398     16.0 8.015e+03 9.617e-11
 38.59604     18.0 7.877e+03 7.889e-11
 38.61635     17.8 7.889e+03 8.028e-11
 38.65520     19.9 7.849e+03 7.745e-11
 38.67647     21.5 7.932e+03 8.678e-11
 38.69677     21.6 7.991e+03 9.419e-11
 38.73643     23.3 8.087e+03 1.225e-10
 38.77704     25.3 8.179e+03 1.666e-10
 38.81516     27.6 8.281e+03 2.142e-10
 38.83547     28.3 8.173e+03 1.539e-10
 38.85826     30.2 8.170e+03 1.550e-10
 38.89887     31.9 8.129e+03 1.515e-10
 38.93874     33.5 8.036e+03 1.468e-10
 38.95904     33.4 8.095e+03 1.474e-10
 38.97416     35.2 8.030e+03 1.495e-10
 38.99447     34.9 7.869e+03 9.852e-11
 39.02070     36.8 7.869e+03 1.130e-10
 39.06131     38.7 7.946e+03 1.285e-10
 39.10192     40.4 8.082e+03 1.467e-10
 39.13316     41.8 8.325e+03 1.849e-10
 39.15347     41.7 8.533e+03 2.206e-10
 39.18315     43.3 8.863e+03 3.039e-10
 39.22376     45.1 9.250e+03 4.125e-10
 39.26437     46.6 9.477e+03 4.667e-10
 39.29216     47.5 9.526e+03 4.649e-10
 39.30922     47.0 9.536e+03 4.037e-10
 39.32204     46.8 9.575e+03 4.392e-10
 39.33534     47.4 9.521e+03 4.265e-10
 39.35555     47.5 9.556e+03 4.337e-10
 39.37147     47.7 9.626e+03 4.644e-10
 39.38162     47.4 9.656e+03 4.425e-10
 39.39616     47.6 9.751e+03 4.798e-10
 39.41646     47.8 9.857e+03 5.193e-10
 39.43677     47.9 1.001e+04 5.527e-10
 39.45097     47.8 1.010e+04 5.520e-10
 39.46112     47.1 1.009e+04 5.087e-10
 39.47738     47.0 1.012e+04 5.110e-10
 39.50794     46.6 1.034e+04 5.646e-10
 39.54864     45.8 1.072e+04 5.814e-10
 39.58925     44.8 1.083e+04 5.528e-10
 39.61016     43.8 1.081e+04 5.324e-10
 39.63047     42.4 1.187e+04 1.259e-09
 39.66473     41.6 1.151e+04 1.044e-09
 39.68504     41.7 1.126e+04 9.284e-10
 39.71109     41.1 1.083e+04 7.620e-10
 39.74885     40.9 1.047e+04 6.239e-10
 39.76916     38.9 1.047e+04 3.307e-10
 39.79231     38.3 9.981e+03 2.258e-10
 39.83292     37.4 9.487e+03 1.651e-10
 39.87353     36.2 9.036e+03 1.547e-10
 39.90785     35.4 8.922e+03 1.619e-10
 39.92816     34.2 8.956e+03 1.606e-10
 39.95475     34.1 8.901e+03 1.959e-10
 39.99536     34.4 8.896e+03 2.211e-10
 40.02773     34.6 8.965e+03 2.422e-10
 40.04804     34.8 9.120e+03 2.808e-10
 40.06685     34.8 9.378e+03 3.458e-10
 40.08716     34.4 9.589e+03 3.853e-10
 40.11720     34.4 9.584e+03 4.099e-10
 40.15781     34.7 9.556e+03 3.973e-10
 40.19842     35.6 9.361e+03 3.417e-10
 40.22585     36.6 9.134e+03 2.536e-10
 40.24616     33.8 9.941e+03 2.911e-10
 40.27964     33.8 1.005e+04 2.495e-10
 40.32025     34.1 1.016e+04 2.739e-10
 40.36086     35.2 1.045e+04 3.439e-10
 40.38476     35.1 1.091e+04 5.085e-10
 40.39422     33.2 1.185e+04 1.335e-09
 40.40069     33.4 1.173e+04 1.201e-09
 40.41143     32.7 1.230e+04 1.450e-09
 40.43174     32.3 1.289e+04 1.922e-09
 40.45204     32.2 1.327e+04 2.416e-09
 40.46416     32.2 1.350e+04 2.780e-09
 40.47431     31.1 1.400e+04 3.480e-09
 40.49265     31.0 1.382e+04 3.289e-09
 40.51296     30.9 1.349e+04 2.961e-09
 40.53326     30.8 1.298e+04 2.476e-09
 40.54366     30.6 1.252e+04 1.931e-09
 40.55381     28.7 1.141e+04 7.420e-10
 40.57204     27.9 1.088e+04 4.886e-10
 40.58219     28.1 1.090e+04 5.071e-10
 40.59418     27.2 1.049e+04 3.655e-10
 40.61300     26.1 9.828e+03 2.753e-10
 40.62316     22.8 8.238e+03 1.613e-10
 40.63479     22.8 8.317e+03 1.937e-10
 40.65509     23.0 8.281e+03 2.026e-10
 40.67540     23.2 8.460e+03 2.488e-10
 40.69250     23.5 8.604e+03 2.838e-10
 40.70275     22.5 8.633e+03 2.776e-10
 40.71611     23.0 8.838e+03 3.466e-10
 40.73632     23.2 9.077e+03 4.342e-10
 40.75354     23.6 9.317e+03 5.292e-10
 40.76369     23.7 9.496e+03 5.788e-10
 40.77200     24.3 9.676e+03 6.508e-10
 40.78216     23.4 9.619e+03 6.240e-10
 40.79723     24.1 9.762e+03 6.476e-10
 40.81754     24.0 1.012e+04 7.144e-10
 40.83784     17.3 1.471e+04 1.312e-09
 40.85150      5.2 1.867e+04 6.538e-09
 40.86166      3.7 1.770e+04 7.411e-09
 40.87845      3.8 1.760e+04 1.505e-08
 40.89120      4.7 1.800e+04 2.094e-08
 40.89623      4.9 1.803e+04 1.668e-08
 40.90374      5.8 1.854e+04 1.758e-08
 40.91389      5.8 1.914e+04 1.624e-08
 40.92404      5.4 1.957e+04 1.395e-08
 40.93091      3.2 2.013e+04 8.236e-09
 40.93677     -0.1 1.816e+04 5.007e-09
 40.94519     -1.1 1.786e+04 5.041e-09
 40.95968     -9.9 1.504e+04 2.586e-09
 40.97998    -16.9 1.311e+04 2.085e-09
 41.00029    -20.4 1.349e+04 2.507e-09
 41.02059    -21.9 1.358e+04 3.156e-09
 41.04090    -22.1 1.347e+04 3.377e-09
 41.06120    -21.5 1.299e+04 3.012e-09
 41.07985    -20.7 1.236e+04 1.964e-09
 41.09000    -20.3 1.248e+04 2.033e-09
 41.10181    -21.8 1.177e+04 1.135e-09
 41.11653    -25.0 1.034e+04 5.810e-10
 41.12669    -25.5 1.034e+04 5.928e-10
 41.14243    -26.7 9.658e+03 4.095e-10
 41.15935    -27.1 9.385e+03 3.148e-10
 41.16950    -26.6 9.487e+03 3.442e-10
 41.18304    -26.8 9.423e+03 3.208e-10
 41.21359    -27.0 9.439e+03 3.118e-10
 41.25430    -27.0 9.617e+03 3.406e-10
 41.28466    -26.5 9.801e+03 4.084e-10
 41.29803    -26.7 9.885e+03 4.408e-10
 41.30819    -27.3 1.005e+04 5.112e-10
 41.31835    -27.1 1.028e+04 6.209e-10
 41.32850    -26.8 1.028e+04 6.220e-10
 41.34548    -26.6 1.041e+04 6.704e-10
 41.36579    -26.3 1.059e+04 7.196e-10
 41.38609    -26.1 1.065e+04 7.383e-10
 41.39785    -26.0 1.067e+04 7.442e-10
 41.40800    -25.7 1.048e+04 6.816e-10
 41.42670    -25.6 1.043e+04 6.521e-10
 41.44701    -25.6 1.037e+04 6.113e-10
 41.46720    -25.6 1.032e+04 5.768e-10
 41.47735    -25.2 1.016e+04 5.484e-10
 41.47953    -25.1 1.010e+04 5.191e-10
 41.48969    -25.5 1.002e+04 4.606e-10
 41.50792    -25.4 9.992e+03 4.254e-10
 41.53848    -25.2 9.875e+03 3.604e-10
 41.57919    -24.8 9.824e+03 3.260e-10
 41.60955    -23.8 9.780e+03 3.314e-10
 41.62620    -23.8 9.872e+03 3.526e-10
 41.63645    -23.2 9.696e+03 3.133e-10
 41.65016    -22.6 9.962e+03 3.818e-10
 41.66103    -22.7 1.005e+04 4.473e-10
 41.67119    -22.7 1.004e+04 4.469e-10
 41.69067    -21.8 1.023e+04 5.878e-10
 41.70570    -21.1 1.034e+04 6.906e-10
 41.71585    -20.9 1.017e+04 5.896e-10
 41.73128    -19.9 1.035e+04 6.876e-10
 41.75159    -19.3 1.049e+04 7.421e-10
 41.77514    -18.5 1.069e+04 7.999e-10
 41.79554    -18.6 1.069e+04 7.845e-10
 41.82242    -18.1 1.089e+04 9.027e-10
 41.84273    -18.5 1.074e+04 8.408e-10
 41.86346    -17.5 1.094e+04 9.884e-10
 41.90407    -16.4 1.111e+04 1.064e-09
 41.93424    -15.9 1.137e+04 1.136e-09
 41.95454    -17.3 1.145e+04 1.163e-09
 41.98530    -17.4 1.172e+04 1.409e-09
 42.02591    -17.2 1.223e+04 1.825e-09
 42.05627    -17.4 1.265e+04 2.193e-09
 42.07648    -17.6 1.273e+04 2.257e-09
 42.09304    -17.7 1.290e+04 2.391e-09
 42.10320    -19.0 1.274e+04 2.190e-09
 42.11709    -19.3 1.262e+04 2.126e-09
 42.13739    -19.6 1.225e+04 1.947e-09
 42.15770    -19.5 1.183e+04 1.646e-09
 42.17254    -19.4 1.144e+04 1.333e-09
 42.18270    -19.9 1.120e+04 1.144e-09
 42.19538    -20.1 1.084e+04 8.870e-10
 42.20553    -19.4 1.138e+04 1.227e-09
 42.21861    -20.0 1.110e+04 1.001e-09
 42.23892    -20.9 1.095e+04 8.561e-10
 42.25204    -21.9 1.080e+04 7.765e-10
 42.26220    -22.6 1.055e+04 7.330e-10
 42.27953    -22.8 1.027e+04 7.193e-10
 42.29984    -22.2 9.953e+03 6.793e-10
 42.32014    -21.1 9.655e+03 5.963e-10
 42.33154    -20.4 9.588e+03 4.344e-10
 42.34169    -20.4 9.583e+03 4.105e-10
 42.36075    -20.4 9.503e+03 3.785e-10
 42.39083    -20.9 9.279e+03 2.466e-10
 42.41124    -20.8 9.239e+03 2.377e-10
 42.43202    -22.2 8.954e+03 1.943e-10
 42.47263    -23.0 9.078e+03 2.381e-10
 42.51324    -23.1 9.272e+03 3.045e-10
 42.54842    -22.8 9.405e+03 3.194e-10
 42.56481    -22.8 9.621e+03 3.467e-10
 42.57014    -22.5 9.766e+03 3.757e-10
 42.59436    -23.5 9.558e+03 2.684e-10
 42.63507    -24.5 9.076e+03 1.956e-10
 42.67568    -24.2 8.926e+03 1.778e-10
 42.70893    -23.7 8.995e+03 1.855e-10
 42.72924    -24.0 8.817e+03 1.609e-10
 42.75690    -23.6 8.991e+03 1.949e-10
 42.79751    -23.3 9.304e+03 2.649e-10
 42.83812    -22.8 9.607e+03 3.520e-10
 42.86793    -22.2 9.799e+03 3.926e-10
 42.88824    -22.2 9.588e+03 3.985e-10
 42.91142    -21.3 9.616e+03 3.741e-10
 42.93172    -21.4 9.692e+03 4.374e-10
 42.95996    -20.5 9.654e+03 3.440e-10
 43.00057    -20.3 9.334e+03 2.473e-10
 43.02693    -20.0 9.061e+03 2.122e-10
 43.04724    -19.3 8.953e+03 2.107e-10
 43.08179    -18.3 8.802e+03 1.904e-10
 43.12240    -16.9 8.689e+03 1.755e-10
 43.16301    -15.5 8.649e+03 1.595e-10
 43.18593    -14.5 8.644e+03 1.485e-10
 43.20624    -14.0 8.468e+03 1.331e-10
 43.24423    -12.8 8.462e+03 1.336e-10
 43.27442    -11.9 8.608e+03 1.531e-10
 43.29472    -12.4 8.833e+03 1.879e-10
 43.32462    -11.6 9.285e+03 2.711e-10
 43.34493    -10.7 8.854e+03 2.024e-10
 43.36607     -9.8 9.322e+03 3.162e-10
 43.40668     -8.5 9.647e+03 4.539e-10
 43.44729     -7.1 9.869e+03 4.951e-10
 43.48362     -5.8 9.633e+03 4.029e-10
 43.50393     -4.7 9.621e+03 4.125e-10
 43.52851     -3.7 9.437e+03 3.154e-10
 43.56912     -3.1 9.193e+03 2.294e-10
 43.60973     -2.4 8.914e+03 1.804e-10
 43.63742     -1.1 8.749e+03 1.576e-10
 43.65000     -1.0 8.884e+03 2.051e-10
 43.66293      0.2 8.891e+03 2.076e-10
 43.69095      2.0 8.763e+03 1.805e-10
 43.73156      3.9 8.695e+03 1.356e-10
 43.77217      5.1 8.699e+03 1.061e-10
 43.80162      6.2 8.731e+03 1.081e-10
 43.82193      7.1 8.692e+03 9.480e-11
 43.85340      7.8 8.866e+03 1.177e-10
 43.89401      9.0 9.452e+03 1.921e-10
 43.92437      9.5 9.812e+03 2.594e-10
 43.94458      9.1 1.022e+04 3.160e-10
 43.96043      8.2 1.072e+04 4.770e-10
 43.97058      7.7 1.074e+04 5.282e-10
 43.98519      7.6 1.107e+04 7.608e-10
 44.00022      7.9 1.140e+04 1.010e-09
 44.01037      8.0 1.147e+04 1.170e-09
 44.02580      8.7 1.188e+04 1.325e-09
 44.03993      9.0 1.215e+04 1.355e-09
 44.05008      8.2 1.183e+04 1.091e-09
 44.06641      8.0 1.187e+04 1.010e-09
 44.08671      7.5 1.182e+04 9.300e-10
 44.10702      6.8 1.185e+04 8.590e-10
 44.11943      5.6 1.217e+04 8.918e-10
 44.12958      5.1 1.170e+04 6.549e-10
 44.14763      3.0 1.249e+04 7.573e-10
 44.16794      0.7 1.298e+04 1.100e-09
 44.18172     -0.8 1.320e+04 1.771e-09
 44.19187     -0.3 1.247e+04 1.340e-09
 44.19893     -1.0 1.322e+04 1.929e-09
 44.20908     -0.4 1.257e+04 1.536e-09
 44.22885     -1.5 1.364e+04 1.879e-09
 44.24916     -4.0 1.465e+04 2.227e-09
 44.26827     -7.1 1.468e+04 2.961e-09
 44.27843     -6.3 1.449e+04 2.207e-09
 44.28977     -8.9 1.399e+04 3.169e-09
 44.31007    -10.7 1.513e+04 4.598e-09
 44.32525    -12.0 1.665e+04 5.217e-09
 44.33536    -12.7 1.709e+04 5.675e-09
 44.34772    -15.6 1.693e+04 6.701e-09
 44.35793    -13.6 1.665e+04 4.483e-09
 44.36322    -15.9 1.507e+04 4.259e-09
 44.37337    -16.0 1.514e+04 3.898e-09
 44.39129    -17.6 1.403e+04 2.591e-09
 44.41160    -20.0 1.442e+04 1.406e-09
 44.42727    -24.7 1.297e+04 8.654e-10
 44.43743    -21.6 1.370e+04 1.062e-09
 44.45221    -24.9 1.198e+04 8.110e-10
 44.47252    -25.5 1.140e+04 7.703e-10
 44.49282    -25.3 1.127e+04 7.616e-10
 44.50677    -25.1 1.118e+04 6.686e-10
 44.51693    -24.4 1.134e+04 7.949e-10
 44.53343    -24.7 1.126e+04 7.191e-10
 44.54472    -25.3 1.117e+04 6.529e-10
 44.55487    -26.0 1.109e+04 6.126e-10
 44.57404    -26.7 1.109e+04 5.976e-10
 44.58627    -27.5 1.119e+04 6.401e-10
 44.59643    -26.9 1.138e+04 8.698e-10
 44.61465    -27.6 1.132e+04 9.760e-10
 44.63496    -27.6 1.139e+04 1.125e-09
 44.65527    -27.5 1.148e+04 1.224e-09
 44.66577    -27.2 1.155e+04 1.261e-09
 44.67593    -26.5 1.137e+04 1.219e-09
 44.69588    -26.3 1.127e+04 1.092e-09
 44.71607    -26.4 1.116e+04 9.587e-10
 44.72622    -26.6 1.103e+04 8.488e-10
 44.73512    -26.9 1.084e+04 7.758e-10
 44.74527    -26.2 1.049e+04 5.836e-10
 44.75679    -26.4 1.026e+04 5.483e-10
 44.77710    -26.4 1.007e+04 5.442e-10
 44.79740    -25.7 9.977e+03 5.582e-10
 44.81462    -25.0 9.961e+03 5.695e-10
 44.82477    -24.6 9.677e+03 4.536e-10
 44.83801    -24.3 9.756e+03 4.754e-10
 44.86857    -23.0 9.976e+03 5.531e-10
 44.89431    -20.7 1.011e+04 5.394e-10
 44.91462    -19.4 9.548e+03 4.730e-10
 44.94989    -17.8 1.051e+04 5.921e-10
 44.97372    -18.0 1.182e+04 8.724e-10
 44.98377    -17.5 1.162e+04 8.096e-10
 45.00046    -20.8 1.281e+04 1.535e-09
 45.02076    -21.8 1.341e+04 3.078e-09
 45.04107    -21.6 1.397e+04 5.302e-09
 45.05312    -19.0 1.488e+04 7.860e-09
 45.06327    -18.9 1.484e+04 7.832e-09
 45.07906    -16.4 1.607e+04 9.685e-09
 45.08922    -16.3 1.660e+04 1.174e-08
 45.10199    -16.0 1.742e+04 1.059e-08
 45.12229    -17.3 1.765e+04 7.003e-09
 45.13262    -21.3 1.597e+04 3.948e-09
 45.14277    -21.1 1.600e+04 5.623e-09
 45.16290    -22.6 1.470e+04 3.961e-09
 45.18321    -22.8 1.399e+04 3.117e-09
 45.20197    -22.6 1.351e+04 2.566e-09
 45.21212    -22.0 1.364e+04 3.154e-09
 45.22382    -21.9 1.319e+04 2.477e-09
 45.24412    -21.8 1.283e+04 2.064e-09
 45.27468    -21.8 1.245e+04 1.790e-09
 45.31539    -21.2 1.224e+04 1.720e-09
 45.35101    -20.4 1.231e+04 1.855e-09
 45.37131    -20.6 1.219e+04 1.804e-09
 45.39661    -19.6 1.230e+04 1.930e-09
 45.43211    -18.4 1.194e+04 1.666e-09
 45.45241    -18.2 1.183e+04 1.632e-09
 45.47783    -16.9 1.109e+04 1.040e-09
 45.51001    -16.2 1.018e+04 5.769e-10
 45.53031    -16.1 1.004e+04 5.303e-10
 45.55905    -15.5 9.474e+03 3.723e-10
 45.59966    -14.1 9.212e+03 3.096e-10
 45.64027    -12.5 9.060e+03 2.674e-10
 45.66901    -11.0 8.955e+03 2.373e-10
 45.68931    -11.2 9.084e+03 2.713e-10
 45.72150     -9.9 9.095e+03 2.632e-10
 45.76211     -8.7 9.068e+03 2.456e-10
 45.79510     -7.5 8.963e+03 2.265e-10
 45.81541     -7.2 8.840e+03 1.955e-10
 45.82801     -5.8 8.847e+03 1.852e-10
 45.84831     -6.4 9.152e+03 2.780e-10
 45.88394     -5.7 9.242e+03 2.593e-10
 45.92455     -5.5 9.477e+03 2.938e-10
 45.96516     -4.9 9.742e+03 3.869e-10
 45.98701     -3.6 9.884e+03 4.947e-10
 46.00731     -4.1 9.533e+03 3.361e-10
 46.04638     -3.8 9.474e+03 2.803e-10
 46.08699     -4.2 9.133e+03 2.415e-10
 46.12570     -4.2 8.878e+03 2.260e-10
 46.14601     -4.6 8.424e+03 1.584e-10
 46.15810     -4.6 8.505e+03 1.755e-10
 46.17841     -5.4 8.732e+03 2.017e-10
 46.20883     -5.8 8.809e+03 2.507e-10
 46.24944     -5.6 9.043e+03 3.368e-10
 46.28470     -5.0 9.076e+03 3.873e-10
 46.30501     -5.0 8.677e+03 2.968e-10
 46.33066     -3.8 8.337e+03 2.525e-10
 46.37127     -2.7 8.109e+03 1.552e-10
 46.41188     -3.2 8.014e+03 1.267e-10
 46.44370     -3.5 8.172e+03 1.707e-10
 46.46401     -3.0 8.136e+03 1.653e-10
 46.49310     -2.8 8.804e+03 3.373e-10
 46.52110     -2.2 9.875e+03 6.713e-10
 46.54141     -2.1 9.769e+03 6.163e-10
 46.57432     -1.7 1.061e+04 9.904e-10
 46.60270     -0.8 1.107e+04 1.251e-09
 46.62301     -0.6 1.127e+04 1.363e-09
 46.65555     -0.3 1.152e+04 1.358e-09
 46.69616     -0.9 1.166e+04 1.208e-09
 46.72652     -1.7 1.193e+04 1.421e-09
 46.74673     -5.7 1.410e+04 2.390e-09
 46.76150    -10.1 1.578e+04 4.502e-09
 46.77166     -9.4 1.595e+04 4.472e-09
 46.78734    -11.1 1.584e+04 7.640e-09
 46.79818    -10.3 1.565e+04 9.036e-09
 46.80190    -10.0 1.589e+04 1.009e-08
 46.80623    -10.1 1.594e+04 9.908e-09
 46.81262     -9.5 1.561e+04 9.717e-09
 46.82277     -7.9 1.493e+04 8.889e-09
 46.83293     -6.2 1.502e+04 7.364e-09
 46.84096     -5.5 1.503e+04 4.790e-09
 46.85116     -5.9 1.498e+04 4.957e-09
 46.86856     -6.9 1.530e+04 1.426e-09
 46.88391    -17.3 1.141e+04 4.278e-10
 46.89406    -19.3 1.034e+04 4.267e-10
 46.90917    -20.9 9.477e+03 3.474e-10
 46.92050    -20.9 9.412e+03 3.443e-10
 46.93066    -20.6 9.616e+03 3.641e-10
 46.94978    -20.6 9.520e+03 3.730e-10
 46.97008    -20.2 9.421e+03 4.034e-10
 46.98985    -19.4 9.373e+03 4.229e-10
 47.00000    -19.3 9.545e+03 4.686e-10
 47.01070    -18.3 9.522e+03 4.746e-10
 47.03100    -17.3 9.405e+03 4.546e-10
 47.05131    -16.3 9.308e+03 4.023e-10
 47.06541    -16.0 9.219e+03 3.738e-10
 47.07330    -15.6 9.214e+03 3.800e-10
 47.07950    -16.1 9.989e+03 5.094e-10
 47.09192    -16.4 1.060e+04 5.471e-10
 47.11222    -16.9 1.113e+04 6.113e-10
 47.13253    -17.0 1.145e+04 7.173e-10
 47.14885    -16.8 1.159e+04 8.308e-10
 47.15900    -17.8 1.200e+04 1.700e-09
 47.17314    -16.8 1.209e+04 1.944e-09
 47.19344    -15.8 1.226e+04 2.176e-09
 47.21375    -14.9 1.257e+04 2.438e-09
 47.22835    -14.3 1.295e+04 2.769e-09
 47.23850    -14.7 1.323e+04 3.293e-09
 47.24690    -14.4 1.361e+04 3.642e-09
 47.25706    -14.4 1.369e+04 3.619e-09
 47.27467    -14.6 1.422e+04 4.366e-09
 47.29497    -14.7 1.488e+04 5.571e-09
 47.30785    -14.5 1.578e+04 7.495e-09
 47.31800    -14.7 1.472e+04 4.435e-09
 47.33046    -13.6 1.509e+04 4.880e-09
 47.33756    -13.6 1.528e+04 4.991e-09
 47.34263    -14.3 1.603e+04 5.971e-09
 47.34750    -16.3 1.781e+04 7.535e-09
 47.35258    -16.9 1.698e+04 4.182e-09
 47.36087    -20.9 2.037e+04 5.659e-09
 47.37102    -25.9 2.352e+04 8.479e-09
 47.38117    -29.6 2.389e+04 1.295e-08
 47.38725    -33.0 2.260e+04 1.680e-08
 47.39233    -34.6 2.059e+04 1.011e-08
 47.40148    -36.6 1.895e+04 1.255e-08
 47.41163    -37.5 1.839e+04 1.393e-08
 47.42178    -37.8 1.842e+04 1.487e-08
 47.42836    -37.2 1.863e+04 1.660e-08
 47.43856    -36.8 1.747e+04 1.191e-08
 47.45670    -35.8 1.720e+04 6.629e-09
 47.46685    -35.0 1.643e+04 8.637e-09
 47.47772    -34.5 1.617e+04 4.405e-09
 47.49803    -37.0 1.556e+04 1.637e-09
 47.51833    -41.8 1.214e+04 6.195e-10
 47.53620    -43.8 1.005e+04 4.624e-10
 47.54635    -41.6 1.083e+04 6.246e-10
 47.55894    -41.7 1.044e+04 5.641e-10
 47.57925    -41.0 1.108e+04 7.048e-10
 47.59955    -40.7 1.130e+04 8.041e-10
 47.60990    -39.9 1.172e+04 1.005e-09
 47.63031    -39.5 1.052e+04 5.575e-10
 47.67082    -38.5 1.018e+04 4.704e-10
 47.69539    -37.9 9.318e+03 2.538e-10
 47.71570    -34.7 9.165e+03 2.205e-10
 47.75204    -34.5 9.073e+03 1.182e-10
 47.79265    -34.7 8.610e+03 7.984e-11
 47.83326    -34.0 8.526e+03 7.345e-11
 47.85439    -33.2 8.853e+03 9.274e-11
 47.87470    -30.8 8.207e+03 6.258e-11
 47.91448    -30.5 8.931e+03 1.037e-10
 47.95279    -29.7 9.618e+03 2.687e-10
 47.97310    -29.1 9.140e+03 1.936e-10
 47.99309    -27.5 9.888e+03 4.011e-10
 48.01339    -25.4 9.151e+03 2.192e-10
 48.03632    -23.9 9.883e+03 3.807e-10
 48.07693    -22.4 1.037e+04 5.748e-10
 48.11754    -21.0 1.052e+04 7.215e-10
 48.15209    -19.6 1.046e+04 7.559e-10
 48.17239    -18.3 1.015e+04 5.273e-10
 48.19876    -16.7 9.990e+03 5.126e-10
 48.23937    -15.2 9.579e+03 3.855e-10
 48.27998    -14.1 9.198e+03 2.889e-10
 48.31108    -12.8 9.072e+03 2.627e-10
 48.32659    -11.5 8.974e+03 2.050e-10
 48.33610    -11.8 8.727e+03 1.230e-10
 48.36120     -9.8 8.612e+03 1.278e-10
 48.40181     -7.8 8.582e+03 1.440e-10
 48.44242     -5.6 8.639e+03 1.593e-10
 48.47008     -4.0 9.105e+03 1.844e-10
 48.49039     -3.2 8.894e+03 1.821e-10
 48.52365     -1.9 9.481e+03 2.560e-10
 48.56426     -1.4 1.092e+04 4.487e-10
 48.60487     -1.4 1.248e+04 9.548e-10
 48.62899      0.1 1.317e+04 1.351e-09
 48.63904      1.0 1.289e+04 1.276e-09
 48.65544      0.9 1.417e+04 1.885e-09
 48.67574      0.8 1.538e+04 2.989e-09
 48.68875      0.6 1.607e+04 4.880e-09
 48.69890      2.7 1.621e+04 4.139e-09
 48.70839      2.1 1.788e+04 8.676e-09
 48.71854      2.2 1.907e+04 5.608e-09
 48.73153     -1.0 2.161e+04 1.297e-08
 48.74164     -5.0 2.449e+04 2.980e-08
 48.74804     -7.7 2.407e+04 1.343e-07
 48.75312    -11.4 2.223e+04 1.502e-07
 48.76194    -10.2 2.089e+04 5.321e-07
 48.76789     -9.1 2.048e+04 1.076e-06
 48.77040    -10.0 2.066e+04 8.623e-07
 48.77458    -11.2 2.073e+04 9.895e-07
 48.77935    -13.2 2.074e+04 8.860e-07
 48.78189    -13.7 2.007e+04 1.810e-06
 48.78474    -15.7 2.101e+04 1.166e-06
 48.78777    -18.9 2.213e+04 5.411e-07
 48.79287    -18.5 2.219e+04 3.106e-07
 48.80255    -20.8 2.537e+04 9.877e-08
 48.81271    -24.4 2.598e+04 3.560e-08
 48.82246    -27.7 2.157e+04 1.904e-08
 48.82754    -25.9 2.161e+04 2.530e-08
 48.83301    -26.3 2.020e+04 1.758e-08
 48.84316    -26.4 1.914e+04 1.289e-08
 48.85719    -26.6 1.767e+04 8.801e-09
 48.86739    -23.6 1.906e+04 1.251e-08
 48.87025    -23.5 1.668e+04 5.640e-09
 48.88040    -24.2 1.643e+04 4.323e-09
 48.89910    -26.1 1.431e+04 2.164e-09
 48.91941    -28.0 1.309e+04 1.450e-09
 48.93674    -28.6 1.269e+04 1.288e-09
 48.94689    -28.3 1.234e+04 9.519e-10
 48.96002    -28.4 1.222e+04 9.332e-10
 48.98032    -28.5 1.234e+04 9.932e-10
 49.00063    -29.8 1.296e+04 1.359e-09
 49.01623    -32.3 1.388e+04 2.268e-09
 49.02639    -32.3 1.393e+04 1.579e-09
 49.04124    -35.5 1.499e+04 3.246e-09
 49.05175    -37.3 1.601e+04 6.258e-09
 49.06190    -37.6 1.529e+04 4.657e-09
 49.08185    -38.8 1.664e+04 6.262e-09
 49.09573    -40.5 1.802e+04 6.574e-09
 49.10589    -40.9 1.598e+04 5.110e-09
 49.12246    -43.0 1.662e+04 4.659e-09
 49.14277    -45.7 1.694e+04 2.843e-09
 49.16307    -49.2 1.594e+04 1.753e-09
 49.17523    -51.5 1.466e+04 1.438e-09
 49.18539    -51.1 1.434e+04 1.308e-09
 49.20368    -51.8 1.394e+04 1.124e-09
 49.22309    -51.8 1.391e+04 1.111e-09
 49.23325    -51.9 1.410e+04 1.359e-09
 49.24429    -51.4 1.431e+04 1.625e-09
 49.25473    -50.9 1.448e+04 1.961e-09
 49.26489    -51.0 1.408e+04 1.298e-09
 49.28490    -50.5 1.443e+04 1.538e-09
 49.30521    -50.1 1.471e+04 1.845e-09
 49.32408    -49.7 1.491e+04 2.248e-09
 49.33423    -49.7 1.426e+04 1.431e-09
 49.34582    -49.3 1.468e+04 1.711e-09
 49.36613    -48.8 1.487e+04 2.050e-09
 49.38643    -48.3 1.482e+04 2.400e-09
 49.40358    -47.7 1.464e+04 2.706e-09
 49.41159    -47.8 1.409e+04 1.596e-09
 49.41475    -47.9 1.442e+04 2.145e-09
 49.42704    -47.2 1.420e+04 2.376e-09
 49.44735    -46.4 1.398e+04 2.496e-09
 49.46765    -45.7 1.375e+04 2.492e-09
 49.48308    -45.0 1.357e+04 2.378e-09
 49.49323    -45.2 1.341e+04 1.981e-09
 49.50826    -44.6 1.332e+04 2.007e-09
 49.52857    -43.8 1.322e+04 2.022e-09
 49.54888    -43.3 1.308e+04 1.922e-09
 49.56258    -42.6 1.290e+04 1.802e-09
 49.58298    -42.8 1.272e+04 1.433e-09
 49.62014    -42.1 1.240e+04 1.248e-09
 49.66075    -41.4 1.218e+04 1.066e-09
 49.70136    -40.8 1.207e+04 1.000e-09
 49.73172    -40.7 1.197e+04 9.364e-10
 49.75193    -40.6 1.202e+04 9.562e-10
 49.76759    -40.5 1.202e+04 9.766e-10
 49.78799    -40.5 1.174e+04 8.641e-10
 49.81294    -40.1 1.179e+04 9.329e-10
 49.83315    -39.5 1.162e+04 9.046e-10
 49.85346    -38.8 1.144e+04 8.484e-10
 49.87043    -38.1 1.129e+04 7.518e-10
 49.88058    -38.0 1.114e+04 6.613e-10
 49.89407    -37.3 1.101e+04 5.616e-10
 49.91437    -36.6 1.087e+04 4.762e-10
 49.93468    -35.9 1.068e+04 4.065e-10
 49.94909    -35.1 1.047e+04 3.564e-10
 49.95419    -34.8 1.043e+04 3.568e-10
 49.96008    -34.9 1.034e+04 3.358e-10
 49.98554    -34.0 1.032e+04 3.238e-10
 50.01947    -32.1 1.021e+04 3.085e-10
 50.03978    -32.0 1.038e+04 3.478e-10
 50.06686    -30.2 1.039e+04 4.047e-10
 50.09722    -29.0 1.040e+04 4.029e-10
 50.10893    -28.8 1.086e+04 5.887e-10
 50.11908    -28.4 1.105e+04 7.089e-10
 50.13069    -27.9 1.166e+04 1.048e-09
 50.15109    -26.7 1.116e+04 5.374e-10
 50.17847    -26.8 1.229e+04 1.040e-09
 50.19868    -27.4 1.327e+04 2.174e-09
 50.21895    -27.9 1.411e+04 3.841e-09
 50.23926    -28.0 1.493e+04 5.815e-09
 50.25777    -27.8 1.562e+04 7.632e-09
 50.26793    -27.9 1.676e+04 1.151e-08
 50.27987    -28.2 1.717e+04 1.298e-08
 50.30018    -29.0 1.718e+04 1.292e-08
 50.31209    -29.4 1.656e+04 9.745e-09
 50.32224    -28.0 1.610e+04 7.462e-09
 50.33727    -29.1 1.542e+04 4.341e-09
 50.34743    -29.3 1.588e+04 5.502e-09
 50.36109    -31.3 1.493e+04 2.778e-09
 50.38140    -33.3 1.375e+04 1.495e-09
 50.40170    -34.5 1.267e+04 9.790e-10
 50.41677    -34.9 1.199e+04 7.531e-10
 50.42693    -35.5 1.181e+04 6.623e-10
 50.44231    -35.5 1.127e+04 5.055e-10
 50.46262    -34.9 1.091e+04 3.939e-10
 50.48293    -34.6 1.068e+04 3.153e-10
 50.49369    -34.3 1.051e+04 2.635e-10
 50.49698    -32.4 1.073e+04 2.897e-10
 50.51677    -33.0 1.051e+04 2.634e-10
 50.55419    -31.4 1.021e+04 2.056e-10
 50.59480    -29.6 9.981e+03 1.704e-10
 50.63516    -27.8 9.900e+03 1.581e-10
 50.65547    -27.5 9.955e+03 1.625e-10
 50.67602    -25.5 9.932e+03 1.594e-10
 50.71663    -23.5 9.951e+03 1.621e-10
 50.75724    -21.4 1.000e+04 1.741e-10
 50.79416    -19.3 1.011e+04 1.918e-10
 50.81447    -19.0 9.907e+03 1.813e-10
 50.83648    -16.8 9.964e+03 1.799e-10
 50.85678    -16.1 1.000e+04 1.807e-10
 50.87908    -14.0 1.013e+04 1.857e-10
 50.91969    -12.1 1.034e+04 2.037e-10
 50.95316    -10.5 1.057e+04 2.638e-10
 50.97347    -10.7 1.040e+04 2.547e-10
 51.00091     -9.4 1.070e+04 3.916e-10
 51.04152     -8.0 1.117e+04 6.396e-10
 51.08213     -6.7 1.170e+04 1.005e-09
 51.11216     -5.3 1.216e+04 1.424e-09
 51.13247     -5.4 1.198e+04 1.354e-09
 51.16335     -4.2 1.196e+04 1.416e-09
 51.19948     -2.4 1.144e+04 1.120e-09
 51.21978     -2.2 1.141e+04 1.085e-09
 51.24457     -0.6 1.079e+04 6.942e-10
 51.27116      0.4 1.037e+04 4.353e-10
 51.29147      0.2 9.931e+03 2.855e-10
 51.32580      1.2 9.849e+03 2.602e-10
 51.36641      2.2 1.000e+04 3.160e-10
 51.40702      3.3 1.014e+04 4.565e-10
 51.43016      4.8 1.037e+04 6.217e-10
 51.45047      5.0 1.028e+04 6.113e-10
 51.48824      6.2 1.041e+04 7.158e-10
 51.52885      6.8 1.014e+04 6.269e-10
 51.56248      6.4 9.678e+03 4.376e-10
 51.58217      6.3 9.651e+03 4.394e-10
 51.58916      6.9 9.412e+03 3.441e-10
 51.61007      5.8 8.940e+03 2.855e-10
 51.65068      6.1 8.892e+03 3.058e-10
 51.69129      7.2 8.889e+03 3.288e-10
 51.72785      8.4 8.850e+03 3.135e-10
 51.74816      9.3 8.959e+03 3.692e-10
 51.77252     10.5 8.791e+03 3.143e-10
 51.81313     11.4 8.578e+03 2.749e-10
 51.85374     12.3 8.511e+03 2.546e-10
 51.88685     13.0 8.706e+03 2.528e-10
 51.90716     14.1 8.827e+03 3.044e-10
 51.92547     14.1 9.243e+03 3.753e-10
 51.94578     13.3 9.204e+03 3.565e-10
 51.97557     12.2 1.038e+04 6.777e-10
 52.00593     11.8 1.127e+04 1.084e-09
 52.02614     11.5 1.141e+04 1.160e-09
 52.04576     12.0 1.179e+04 1.662e-09
 52.06616     12.7 1.188e+04 1.643e-09
 52.09740     12.6 1.184e+04 1.754e-09
 52.13801     13.3 1.122e+04 1.068e-09
 52.16837     12.5 1.046e+04 5.733e-10
 52.18858     11.7 9.854e+03 4.693e-10
 52.20466     11.1 9.295e+03 3.483e-10
 52.21481     11.7 9.761e+03 4.360e-10
 52.22919     10.9 9.272e+03 3.726e-10
 52.24950     10.9 9.167e+03 3.588e-10
 52.26980     11.0 9.152e+03 3.702e-10
 52.28416     11.1 9.251e+03 3.946e-10
 52.29248     10.9 9.507e+03 4.798e-10
 52.29843     10.7 9.616e+03 5.297e-10
 52.31041     10.7 9.756e+03 5.752e-10
 52.33072     10.7 9.932e+03 6.347e-10
 52.35103     10.4 1.015e+04 7.046e-10
 52.36366     10.1 1.036e+04 7.853e-10
 52.37381      9.5 1.060e+04 8.768e-10
 52.39164      8.8 1.070e+04 9.266e-10
 52.41194      8.0 1.086e+04 1.008e-09
 52.43225      6.8 1.122e+04 1.164e-09
 52.44316      5.2 1.179e+04 1.426e-09
 52.45331      3.7 1.169e+04 1.400e-09
 52.46978      2.7 1.203e+04 1.651e-09
 52.47993      2.3 1.162e+04 1.354e-09
 52.49316      1.5 1.190e+04 1.456e-09
 52.51250      1.0 1.241e+04 1.571e-09
 52.52266     -1.3 1.218e+04 1.420e-09
 52.53377     -3.3 1.267e+04 1.527e-09
 52.55408     -5.9 1.308e+04 1.780e-09
 52.57438     -7.9 1.327e+04 2.188e-09
 52.59200     -8.5 1.309e+04 2.662e-09
 52.60216     -9.2 1.312e+04 3.014e-09
 52.61500     -8.1 1.308e+04 3.100e-09
 52.63530     -6.5 1.298e+04 2.997e-09
 52.65128     -5.4 1.290e+04 2.688e-09
 52.66143     -5.6 1.244e+04 2.163e-09
 52.67150     -5.1 1.236e+04 1.785e-09
 52.68166     -4.6 1.185e+04 1.329e-09
 52.69622     -5.1 1.111e+04 8.683e-10
 52.71652     -5.1 1.100e+04 7.050e-10
 52.73683     -4.2 1.149e+04 7.154e-10
 52.75100     -3.3 1.202e+04 7.233e-10
 52.76116     -3.3 1.039e+04 4.472e-10
 52.77744     -1.7 1.113e+04 4.537e-10
 52.79774     -0.0 1.187e+04 4.725e-10
 52.81805      2.3 1.293e+04 4.923e-10
 52.83050      3.8 1.412e+04 6.547e-10
 52.83508      3.1 1.427e+04 5.470e-10
 52.84293      2.2 1.018e+04 3.040e-10
 52.85866      0.9 1.483e+04 5.266e-10
 52.87897     -7.1 2.499e+04 1.662e-09
 52.89415    -15.4 3.103e+04 8.096e-09
 52.90425    -16.4 3.015e+04 1.403e-08
 52.90991    -17.1 2.886e+04 4.366e-08
 52.91498    -22.4 2.263e+04 3.498e-07
 52.92343    -21.0 2.196e+04 8.210e-07
 52.92850    -21.9 3.120e+04 9.224e-08
 52.93471    -24.2 3.363e+04 7.420e-08
 52.94458    -27.6 3.017e+04 7.587e-08
 52.94966    -33.7 2.630e+04 2.441e-07
 52.95501    -36.4 2.717e+04 8.131e-08
 52.96517    -39.4 2.633e+04 3.116e-08
 52.97532    -41.4 2.279e+04 1.916e-08
 52.98433    -42.8 2.062e+04 1.369e-08
 52.98941    -45.0 2.013e+04 1.215e-08
 52.99562    -45.0 1.885e+04 8.972e-09
 53.00578    -44.2 1.779e+04 6.706e-09
 53.01423    -44.7 1.549e+04 4.384e-09
 53.02443    -43.2 1.651e+04 5.906e-09
 53.04141    -40.8 1.517e+04 4.201e-09
 53.05885    -38.6 1.434e+04 3.038e-09
 53.06900    -40.3 1.244e+04 1.808e-09
 53.08202    -38.7 1.175e+04 1.392e-09
 53.10233    -36.9 1.099e+04 1.044e-09
 53.12263    -35.2 1.022e+04 7.719e-10
 53.13835    -33.6 9.612e+03 5.813e-10
 53.14850    -33.6 9.279e+03 6.092e-10
 53.16324    -31.6 9.064e+03 4.959e-10
 53.18355    -30.0 8.852e+03 4.230e-10
 53.19578    -29.2 8.750e+03 3.857e-10
 53.20593    -29.0 8.638e+03 3.472e-10
 53.23441    -27.3 8.538e+03 3.169e-10
 53.27512    -23.8 7.989e+03 2.349e-10
 53.29755    -20.5 7.731e+03 1.988e-10
 53.31785    -19.8 8.053e+03 2.565e-10
 53.35634    -16.8 7.876e+03 2.213e-10
 53.37747    -13.9 7.812e+03 2.095e-10
 53.39778    -14.2 7.809e+03 2.047e-10
 53.43624    -11.3 7.970e+03 2.219e-10
 53.45654    -11.2 8.031e+03 2.347e-10
 53.47817     -8.7 8.199e+03 2.622e-10
 53.51878     -6.1 8.394e+03 2.998e-10
 53.55939     -3.6 8.620e+03 3.470e-10
 53.59524     -1.0 8.789e+03 3.807e-10
 53.61554     -1.0 8.754e+03 3.733e-10
 53.64062      1.5 8.818e+03 3.767e-10
 53.68123      3.9 8.755e+03 3.241e-10
 53.72016      5.9 8.609e+03 2.536e-10
 53.74047      5.6 8.454e+03 2.505e-10
 53.75424      7.6 8.257e+03 2.161e-10
 53.77454      7.6 8.539e+03 2.500e-10
 53.80306      9.9 8.359e+03 1.951e-10
 53.84367     11.8 8.091e+03 1.533e-10
 53.88428     13.8 8.034e+03 1.491e-10
 53.91324     14.8 8.400e+03 1.887e-10
 53.93354     15.2 8.395e+03 1.968e-10
 53.96550     15.7 8.988e+03 3.359e-10
 54.00611     17.0 9.915e+03 6.933e-10
 54.04672     19.4 1.074e+04 1.201e-09
 54.07224     21.3 1.099e+04 1.365e-09
 54.08837     21.5 1.106e+04 1.347e-09
 54.10347     21.0 1.042e+04 9.369e-10
 54.12795     22.1 1.045e+04 9.560e-10
 54.16856     23.1 1.042e+04 9.916e-10
 54.20917     24.5 1.037e+04 1.000e-09
 54.23124     26.4 1.025e+04 9.477e-10
 54.25154     25.1 1.208e+04 1.426e-09
 54.27472     27.5 1.127e+04 1.150e-09
 54.28477     27.8 1.113e+04 1.096e-09
 54.30035     28.2 1.094e+04 1.044e-09
 54.32065     27.4 1.288e+04 1.412e-09
 54.34096     27.9 1.294e+04 1.441e-09
 54.36126     28.3 1.300e+04 1.469e-09
 54.37989     28.7 1.308e+04 1.522e-09
 54.39004     27.1 1.426e+04 3.244e-09
 54.40187     27.4 1.424e+04 3.391e-09
 54.42218     27.9 1.419e+04 3.387e-09
 54.44248     28.5 1.408e+04 3.325e-09
 54.45612     29.1 1.399e+04 3.180e-09
 54.46287     28.9 1.426e+04 3.901e-09
 54.46954     28.3 1.465e+04 5.574e-09
 54.48310     28.5 1.466e+04 4.924e-09
 54.50340     28.3 1.456e+04 4.261e-09
 54.52371     27.7 1.428e+04 3.659e-09
 54.53889     26.7 1.386e+04 3.214e-09
 54.54904     25.7 1.348e+04 3.223e-09
 54.56432     25.6 1.306e+04 2.893e-09
 54.58462     25.8 1.284e+04 2.697e-09
 54.60493     26.3 1.263e+04 2.395e-09
 54.61839     26.4 1.245e+04 2.143e-09
 54.62854     25.9 1.228e+04 1.924e-09
 54.63762     26.5 1.195e+04 1.585e-09
 54.64777     25.9 1.162e+04 1.363e-09
 54.66584     25.7 1.135e+04 1.150e-09
 54.68615     25.6 1.120e+04 9.778e-10
 54.69789     25.5 1.109e+04 8.923e-10
 54.70814     25.7 1.118e+04 9.704e-10
 54.72686     24.9 1.110e+04 8.714e-10
 54.74707     24.5 1.105e+04 8.626e-10
 54.76724     24.2 1.116e+04 9.039e-10
 54.77739     23.7 1.119e+04 1.030e-09
 54.78768     23.8 1.125e+04 1.106e-09
 54.80798     23.9 1.152e+04 1.277e-09
 54.81912     24.0 1.176e+04 1.458e-09
 54.82927     23.5 1.133e+04 1.142e-09
 54.84674     24.0 1.167e+04 1.230e-09
 54.86714     23.7 1.105e+04 7.570e-10
 54.89955     23.4 1.098e+04 5.405e-10
 54.94016     21.8 1.030e+04 3.597e-10
 54.97052     20.1 1.064e+04 3.045e-10
 54.99046     19.5 1.090e+04 3.092e-10
 55.00062     19.1 8.148e+03 2.246e-10
 55.00573     18.4 9.263e+03 3.163e-10
 55.02614     17.6 9.626e+03 3.265e-10
 55.06200     17.0 9.772e+03 4.519e-10
 55.08533     16.7 1.012e+04 6.002e-10
 55.09539     16.9 9.997e+03 5.517e-10
 55.11256     16.9 1.020e+04 6.130e-10
 55.13287     16.5 1.066e+04 7.968e-10
 55.15318     16.0 1.120e+04 1.067e-09
 55.16473     15.4 1.231e+04 1.594e-09
 55.17337     16.6 1.129e+04 9.826e-10
 55.18212     17.9 1.095e+04 9.139e-10
 55.19379     17.9 1.159e+04 1.146e-09
 55.21409     17.5 1.259e+04 1.587e-09
 55.23408     16.9 1.355e+04 2.381e-09
 55.24423     17.7 1.253e+04 1.178e-09
 55.25470     16.6 1.340e+04 1.922e-09
 55.27501     15.4 1.427e+04 3.304e-09
 55.29531     13.4 1.543e+04 5.935e-09
 55.31358     13.3 1.667e+04 1.053e-08
 55.32373     12.5 1.576e+04 7.241e-09
 55.33592     13.8 1.650e+04 1.208e-08
 55.35346     14.8 1.686e+04 1.334e-08
 55.36362     15.2 1.647e+04 1.210e-08
 55.37653     16.3 1.637e+04 1.141e-08
 55.39308     17.1 1.591e+04 8.483e-09
 55.40323     17.2 1.481e+04 5.216e-09
 55.41715     16.7 1.433e+04 3.966e-09
 55.43745     15.1 1.376e+04 2.927e-09
 55.45776     13.2 1.301e+04 2.346e-09
 55.47258     12.6 1.274e+04 2.293e-09
 55.48273     13.2 1.230e+04 1.692e-09
 55.49837     13.6 1.233e+04 1.790e-09
 55.51867     14.0 1.260e+04 1.947e-09
 55.53506     15.0 1.241e+04 1.803e-09
 55.55546     15.0 1.146e+04 1.095e-09
 55.58994     16.4 1.140e+04 1.070e-09
 55.62162     17.2 1.111e+04 8.776e-10
 55.64193     17.7 1.007e+04 5.510e-10
 55.67116     18.2 1.007e+04 5.182e-10
 55.71177     18.7 1.017e+04 5.427e-10
 55.75238     19.6 1.014e+04 5.793e-10
 55.78062     21.1 1.009e+04 5.787e-10
 55.80093     21.4 9.063e+03 3.270e-10
 55.83360     22.9 8.807e+03 2.664e-10
 55.87421     24.4 8.632e+03 2.078e-10
 55.89816     25.8 8.516e+03 1.823e-10
 55.91846     26.2 7.860e+03 1.281e-10
 55.93962     27.9 7.870e+03 1.219e-10
 55.95993     28.8 7.360e+03 8.885e-11
 55.99605     30.7 7.350e+03 8.997e-11
 56.03666     32.9 7.399e+03 9.698e-11
 56.07727     35.2 7.507e+03 1.115e-10
 56.09862     37.6 7.643e+03 1.303e-10
 56.11893     38.5 7.446e+03 1.125e-10
 56.15849     40.8 7.575e+03 1.267e-10
 56.19910     43.0 7.705e+03 1.424e-10
 56.23732     45.1 7.843e+03 1.611e-10
 56.25762     46.0 7.639e+03 1.255e-10
 56.26116     47.9 7.702e+03 1.287e-10
 56.28146     47.9 7.731e+03 1.331e-10
 56.32093     49.5 7.759e+03 1.294e-10
 56.36154     51.1 7.775e+03 1.279e-10
 56.39632     52.4 7.824e+03 1.318e-10
 56.41662     52.7 7.588e+03 9.958e-11
 56.44277     53.8 7.625e+03 1.030e-10
 56.48338     54.7 7.816e+03 1.239e-10
 56.52399     55.4 8.163e+03 1.799e-10
 56.55532     56.0 8.685e+03 2.687e-10
 56.57562     56.7 8.288e+03 2.176e-10
 56.60385     57.2 8.717e+03 2.939e-10
 56.62415     57.3 8.578e+03 2.587e-10
 56.64582     57.3 8.676e+03 2.599e-10
 56.68643     57.3 8.648e+03 2.421e-10
 56.71432     57.3 8.483e+03 1.984e-10
 56.73462     58.7 8.634e+03 2.479e-10
 56.76765     58.7 8.491e+03 1.908e-10
 56.80826     58.8 8.349e+03 1.609e-10
 56.84887     59.1 8.331e+03 1.600e-10
 56.87331     59.2 8.501e+03 1.814e-10
 56.89362     60.3 8.621e+03 2.069e-10
 56.93010     59.9 9.180e+03 2.600e-10
 56.96685     55.5 1.213e+04 7.065e-10
 56.98715     57.3 1.079e+04 4.696e-10
 57.01132     54.7 1.228e+04 1.392e-09
 57.03231     54.1 1.217e+04 1.964e-09
 57.05262     55.0 1.201e+04 1.533e-09
 57.09254     54.0 1.181e+04 1.557e-09
 57.13315     53.5 1.117e+04 1.142e-09
 57.17101     52.7 1.023e+04 6.727e-10
 57.19131     54.2 1.075e+04 9.747e-10
 57.21437     54.1 1.001e+04 6.408e-10
 57.25498     54.1 9.406e+03 4.280e-10
 57.29559     54.5 9.146e+03 3.459e-10
 57.32985     54.9 9.267e+03 3.614e-10
 57.35015     56.1 8.914e+03 2.957e-10
 57.37682     56.4 8.960e+03 2.997e-10
 57.41743     56.8 9.166e+03 3.178e-10
 57.45804     57.1 9.356e+03 3.296e-10
 57.48901     57.5 9.357e+03 3.264e-10
 57.50931     58.7 8.901e+03 2.568e-10
 57.53926     59.1 8.895e+03 2.277e-10
 57.57987     59.5 8.800e+03 2.227e-10
 57.62048     60.0 8.808e+03 2.324e-10
 57.64801     60.4 8.927e+03 2.743e-10
 57.66831     61.3 8.676e+03 2.188e-10
 57.69285     61.6 8.981e+03 3.090e-10
 57.71315     61.0 9.406e+03 4.364e-10
 57.74231     61.6 9.781e+03 5.921e-10
 57.78292     62.3 1.002e+04 7.040e-10
 57.80701     62.8 1.007e+04 7.215e-10
 57.82731     63.4 1.003e+04 7.044e-10
 57.86415     63.7 1.005e+04 7.122e-10
 57.90476     63.9 1.017e+04 7.542e-10
 57.94537     63.7 1.070e+04 9.694e-10
 57.96591     63.0 1.133e+04 1.260e-09
 57.98621     62.8 1.122e+04 1.145e-09
 58.01634     61.1 1.243e+04 1.897e-09
 58.03516     60.1 1.337e+04 3.118e-09
 58.04531     60.3 1.265e+04 2.020e-09
 58.05565     59.7 1.330e+04 2.953e-09
 58.06580     59.4 1.300e+04 2.322e-09
 58.07716     58.9 1.318e+04 2.699e-09
 58.09746     58.3 1.310e+04 2.652e-09
 58.11466     57.4 1.271e+04 2.333e-09
 58.12491     56.5 1.108e+04 9.380e-10
 58.14842     54.8 1.035e+04 6.838e-10
 58.18903     52.8 9.357e+03 3.603e-10
 58.22964     50.7 8.475e+03 1.939e-10
 58.26370     49.7 8.224e+03 1.719e-10
 58.28401     50.7 8.146e+03 1.715e-10
 58.31087     50.6 8.234e+03 1.859e-10
 58.35148     50.6 8.461e+03 2.278e-10
 58.39209     50.8 8.783e+03 2.803e-10
 58.41884     50.9 9.018e+03 3.086e-10
 58.42890     50.5 9.051e+03 3.358e-10
 58.43266     50.3 9.206e+03 3.656e-10
 58.44281     49.3 9.504e+03 4.847e-10
 58.46296     48.5 9.941e+03 6.308e-10
 58.48327     46.8 1.088e+04 9.481e-10
 58.50200     44.2 1.225e+04 1.665e-09
 58.51216     43.6 1.257e+04 2.159e-09
 58.52388     42.0 1.344e+04 3.227e-09
 58.54418     41.8 1.406e+04 4.367e-09
 58.56449     41.6 1.431e+04 4.844e-09
 58.58150     41.7 1.427e+04 4.607e-09
 58.59166     40.1 1.371e+04 3.343e-09
 58.60015     39.6 1.313e+04 2.599e-09
 58.61030     39.1 1.291e+04 2.177e-09
 58.63565     37.7 1.146e+04 1.083e-09
 58.67636     37.4 1.013e+04 4.724e-10
 58.71697     37.3 9.500e+03 2.199e-10
 58.74070     37.3 9.332e+03 1.370e-10
 58.76100     34.6 8.569e+03 8.833e-11
 58.78184     35.6 8.582e+03 9.959e-11
 58.80215     35.6 8.693e+03 1.061e-10
 58.83881     36.7 8.888e+03 1.495e-10
 58.87939     38.4 9.149e+03 2.311e-10
 58.92000     39.4 9.801e+03 4.071e-10
 58.96064     41.5 9.914e+03 3.894e-10
 59.00125     43.2 1.011e+04 3.162e-10
 59.03839     44.1 1.024e+04 2.371e-10
 59.05870     41.8 9.374e+03 2.888e-10
 59.08247     42.7 9.565e+03 3.118e-10
 59.12308     43.4 9.945e+03 3.644e-10
 59.14474     43.2 1.033e+04 4.090e-10
 59.15480     43.4 1.024e+04 3.560e-10
 59.17365     43.2 1.064e+04 4.469e-10
 59.19396     43.1 1.098e+04 5.934e-10
 59.20735     43.0 1.125e+04 8.069e-10
 59.21750     42.2 1.121e+04 7.844e-10
 59.24482     42.4 1.158e+04 7.613e-10
 59.28553     43.3 1.172e+04 7.011e-10
 59.32614     43.4 1.154e+04 4.977e-10
 59.35639     42.6 1.099e+04 3.504e-10
 59.37670     38.9 1.025e+04 2.638e-10
 59.40736     39.3 1.049e+04 3.076e-10
 59.43579     39.7 1.055e+04 3.400e-10
 59.44585     38.8 1.070e+04 3.700e-10
 59.45793     38.8 1.085e+04 4.533e-10
 59.47823     38.9 1.112e+04 5.951e-10
 59.49749     39.0 1.152e+04 8.199e-10
 59.50764     38.8 1.150e+04 7.641e-10
 59.51520     38.7 1.193e+04 1.136e-09
 59.52535     38.2 1.142e+04 9.098e-10
 59.53915     38.8 1.187e+04 1.151e-09
 59.55945     38.9 1.254e+04 1.201e-09
 59.57976     38.1 1.309e+04 1.166e-09
 59.59470     36.2 1.338e+04 1.063e-09
 59.60485     32.8 1.242e+04 5.953e-10
 59.62037     30.5 1.201e+04 5.619e-10
 59.64068     28.6 1.146e+04 5.167e-10
 59.66098     27.5 1.101e+04 4.391e-10
 59.67420     25.9 1.083e+04 3.322e-10
 59.69460     25.6 1.067e+04 2.970e-10
 59.73225     23.5 1.019e+04 2.053e-10
 59.77286     21.9 9.994e+03 2.001e-10
 59.81309     21.1 1.001e+04 2.161e-10
 59.83339     21.4 9.881e+03 1.919e-10
 59.85053     21.4 1.012e+04 2.390e-10
 59.87084     21.7 9.910e+03 2.087e-10
 59.89469     21.4 1.019e+04 2.456e-10
 59.92505     20.7 1.047e+04 2.979e-10
 59.94526     16.8 1.284e+04 5.203e-10
 59.96556     12.1 1.423e+04 1.429e-09
 59.98204     12.1 1.396e+04 2.740e-09
 59.99220     12.1 1.410e+04 3.029e-09
 60.00617     12.8 1.349e+04 3.300e-09
 60.02648     13.7 1.312e+04 2.715e-09
 60.04199     13.6 1.269e+04 1.631e-09
 60.05214     12.7 1.228e+04 1.759e-09
 60.06154     12.3 1.193e+04 1.100e-09
 60.07170     12.2 1.217e+04 1.190e-09
 60.08740     11.5 1.152e+04 5.755e-10
 60.10770      8.9 1.084e+04 3.486e-10
 60.13099      8.5 9.868e+03 1.971e-10
 60.15139      8.9 9.963e+03 2.103e-10
 60.17897      9.2 9.452e+03 1.545e-10
 60.21353     10.3 9.337e+03 1.421e-10
 60.23384     10.4 9.439e+03 2.047e-10
 60.26019     11.8 9.407e+03 2.217e-10
 60.29008     13.5 9.440e+03 2.218e-10
 60.31039     14.3 9.300e+03 2.215e-10
 60.34141     16.2 9.211e+03 1.859e-10
 60.38202     17.8 9.182e+03 1.441e-10
 60.42263     18.9 9.136e+03 1.116e-10
 60.44908     20.0 9.038e+03 1.042e-10
 60.46939     20.3 8.961e+03 9.138e-11
 60.50385     21.2 9.020e+03 9.822e-11
 60.54446     21.7 9.173e+03 1.303e-10
 60.57653     22.4 9.542e+03 2.328e-10
 60.59684     22.7 9.361e+03 1.940e-10
 60.60808     23.5 9.730e+03 3.069e-10
 60.62839     23.2 9.699e+03 2.982e-10
 60.66630     23.8 1.010e+04 4.325e-10
 60.70691     24.0 1.056e+04 6.028e-10
 60.74678     24.0 1.085e+04 7.430e-10
 60.76708     23.7 1.035e+04 5.610e-10
 60.78813     24.0 1.017e+04 5.188e-10
 60.82874     24.9 9.686e+03 3.757e-10
 60.86935     25.9 9.214e+03 2.160e-10
 60.90578     26.6 8.942e+03 1.084e-10
 60.92608     26.7 8.807e+03 8.956e-11
 60.93953     27.1 8.676e+03 5.668e-11
 60.95984     27.2 8.582e+03 4.813e-11
 60.99118     28.0 8.315e+03 4.502e-11
 61.03179     29.3 8.297e+03 4.599e-11
 61.06478     30.7 8.295e+03 5.121e-11
 61.08508     31.3 8.238e+03 5.139e-11
 61.11302     32.8 8.263e+03 5.878e-11
 61.15363     34.4 8.296e+03 6.649e-11
 61.19424     35.9 8.341e+03 7.289e-11
 61.22378     37.3 8.398e+03 7.757e-11
 61.24408     37.7 8.346e+03 6.507e-11
 61.27546     38.8 8.408e+03 7.017e-11
 61.30253     39.7 8.485e+03 8.041e-11
 61.32283     39.7 8.515e+03 8.198e-11
 61.35668     40.4 8.617e+03 1.082e-10
 61.38278     40.9 8.849e+03 1.675e-10
 61.40308     40.8 8.999e+03 1.859e-10
 61.43790     41.5 9.420e+03 3.324e-10
 61.47851     42.7 9.959e+03 5.452e-10
 61.51912     43.7 1.047e+04 7.365e-10
 61.54168     43.7 1.070e+04 8.468e-10
 61.55173     43.6 1.075e+04 8.655e-10
 61.56969     43.9 1.081e+04 9.085e-10
 61.59000     44.3 1.080e+04 9.194e-10
 61.61030     44.5 1.086e+04 9.240e-10
 61.62108     44.7 1.097e+04 9.494e-10
 61.63123     44.4 1.084e+04 8.351e-10
 61.65091     44.5 1.101e+04 9.011e-10
 61.66533     44.2 1.122e+04 1.002e-09
 61.67548     43.9 1.128e+04 1.135e-09
 61.69043     43.5 1.168e+04 1.289e-09
 61.70058     43.4 1.133e+04 1.032e-09
 61.71183     41.2 1.279e+04 1.521e-09
 61.72701     36.6 1.541e+04 3.065e-09
 61.73516     35.0 1.594e+04 4.054e-09
 61.74023     34.7 1.596e+04 3.825e-09
 61.74727     29.9 1.806e+04 8.278e-09
 61.75598     27.2 1.908e+04 1.294e-08
 61.76106     24.0 1.972e+04 1.517e-08
 61.76757     23.4 2.018e+04 2.519e-08
 61.77491     23.6 2.049e+04 3.252e-08
 61.77998     22.8 1.983e+04 3.693e-08
 61.78788     23.6 1.977e+04 3.584e-08
 61.79803     24.2 1.957e+04 3.042e-08
 61.81331     24.4 1.874e+04 1.506e-08
 61.83366     22.3 1.716e+04 4.126e-09
 61.84683     13.5 1.292e+04 1.016e-09
 61.85244     12.7 1.361e+04 1.059e-09
 61.85958     14.6 1.378e+04 9.721e-10
 61.88452      8.8 9.779e+03 3.662e-10
 61.92523      8.6 8.875e+03 1.942e-10
 61.96584      9.7 8.475e+03 1.353e-10
 61.99847     11.2 8.236e+03 9.964e-11
 62.01877     12.7 8.130e+03 6.978e-11
 62.02853     14.1 8.037e+03 5.260e-11
 62.04883     14.1 8.133e+03 6.577e-11
 62.08768     15.1 7.991e+03 4.963e-11
 62.12829     16.5 7.916e+03 4.749e-11
 62.15747     17.7 7.961e+03 5.114e-11
 62.17777     19.1 7.947e+03 4.728e-11
 62.20951     20.3 8.061e+03 6.270e-11
 62.25012     21.7 8.265e+03 9.627e-11
 62.29073     23.2 8.591e+03 1.413e-10
 62.31647     24.5 9.201e+03 2.301e-10
 62.33677     25.7 9.080e+03 2.470e-10
 62.37122     26.9 9.764e+03 3.948e-10
 62.39153     27.8 9.503e+03 3.169e-10
 62.39587     28.0 9.784e+03 3.883e-10
 62.40593     28.7 9.678e+03 3.808e-10
 62.42252     29.2 9.895e+03 4.374e-10
 62.44283     29.3 1.022e+04 5.256e-10
 62.46313     29.6 1.056e+04 6.446e-10
 62.47527     29.8 1.092e+04 7.905e-10
 62.48543     30.8 1.069e+04 6.790e-10
 62.50374     31.0 1.098e+04 7.958e-10
 62.52405     31.1 1.170e+04 9.981e-10
 62.54435     30.6 1.278e+04 1.384e-09
 62.55477     30.5 1.310e+04 1.895e-09
 62.56294     31.7 1.267e+04 1.293e-09
 62.57283     31.9 1.300e+04 1.417e-09
 62.58496     31.1 1.352e+04 2.162e-09
 62.60527     31.3 1.352e+04 3.102e-09
 62.62412     31.9 1.350e+04 3.581e-09
 62.63427     31.7 1.382e+04 3.726e-09
 62.64588     32.7 1.378e+04 4.067e-09
 62.66619     33.8 1.373e+04 3.816e-09
 62.68649     34.2 1.365e+04 2.909e-09
 62.70362     33.8 1.344e+04 1.853e-09
 62.71377     35.3 1.390e+04 2.566e-09
 62.72710     34.5 1.329e+04 1.512e-09
 62.74418     33.3 1.242e+04 9.947e-10
 62.75433     33.3 1.300e+04 1.179e-09
 62.77306     31.3 1.163e+04 8.264e-10
 62.79337     32.0 1.176e+04 7.006e-10
 62.81857     32.3 1.149e+04 7.180e-10
 62.84903     32.3 1.122e+04 6.260e-10
 62.86262     32.0 1.128e+04 6.251e-10
 62.87277     32.4 1.118e+04 6.146e-10
 62.88955     31.9 1.127e+04 6.512e-10
 62.90985     31.6 1.133e+04 7.358e-10
 62.92568     31.4 1.146e+04 8.594e-10
 62.93583     30.9 1.190e+04 1.111e-09
 62.94212     30.3 1.229e+04 1.422e-09
 62.95227     30.7 1.238e+04 1.444e-09
 62.97077     29.9 1.293e+04 1.842e-09
 62.99107     29.3 1.319e+04 2.051e-09
 63.01138     28.7 1.311e+04 1.967e-09
 63.03168     29.1 1.278e+04 1.655e-09
 63.06224     28.4 1.198e+04 1.081e-09
 63.09116     26.9 1.127e+04 4.372e-10
 63.10574     28.7 1.127e+04 5.029e-10
 63.11752     26.5 1.092e+04 2.138e-10
 63.14356     22.6 9.813e+03 9.231e-11
 63.18417     21.9 9.561e+03 9.039e-11
 63.22478     21.3 9.643e+03 1.123e-10
 63.25016     20.7 9.813e+03 1.779e-10
 63.27047     22.0 9.484e+03 1.160e-10
 63.30600     21.5 9.697e+03 1.906e-10
 63.34661     21.3 9.973e+03 2.963e-10
 63.38722     21.3 1.004e+04 3.490e-10
 63.40916     21.1 1.002e+04 3.058e-10
 63.42947     22.1 9.955e+03 2.708e-10
 63.46022     20.3 1.032e+04 2.923e-10
 63.48033     18.0 1.091e+04 3.781e-10
 63.49862     16.6 1.089e+04 5.314e-10
 63.51901     15.9 1.076e+04 6.305e-10
 63.53932     15.3 1.086e+04 6.325e-10
 63.55781     15.0 1.081e+04 5.953e-10
 63.56796     15.0 1.086e+04 6.044e-10
 63.57993     13.5 1.112e+04 5.379e-10
 63.60024     11.0 1.151e+04 5.569e-10
 63.62054      4.5 1.362e+04 9.207e-10
 63.63731     -2.8 1.623e+04 2.352e-09
 63.64746     -4.9 1.661e+04 4.177e-09
 63.65167     -7.2 1.686e+04 7.900e-09
 63.66183     -7.2 1.697e+04 1.090e-08
 63.68146     -7.7 1.714e+04 1.301e-08
 63.70176     -8.4 1.648e+04 1.191e-08
 63.71681     -8.4 1.545e+04 8.141e-09
 63.72696     -9.2 1.523e+04 6.990e-09
 63.74237    -10.1 1.451e+04 4.022e-09
 63.76268    -13.9 1.309e+04 2.172e-09
 63.78298    -16.3 1.201e+04 1.543e-09
 63.79631    -16.9 1.171e+04 1.415e-09
 63.80646    -17.3 1.153e+04 1.318e-09
 63.82302    -17.1 1.161e+04 1.343e-09
 63.84342    -16.9 1.111e+04 1.019e-09
 63.86585    -17.3 1.164e+04 1.374e-09
 63.88616    -17.6 1.098e+04 7.389e-10
 63.91517    -17.7 1.139e+04 1.088e-09
 63.95578    -17.9 1.164e+04 1.426e-09
 63.99639    -18.1 1.177e+04 1.617e-09
 64.02485    -18.3 1.169e+04 1.627e-09
 64.04516    -18.4 1.163e+04 1.562e-09
 64.07761    -18.1 1.150e+04 1.416e-09
 64.11822    -17.3 1.055e+04 6.503e-10
 64.15883    -17.3 9.561e+03 2.355e-10
 64.18385    -18.1 8.982e+03 1.297e-10
 64.19093    -18.4 9.038e+03 1.330e-10
 64.20652    -17.6 9.069e+03 1.456e-10
 64.24005    -17.1 8.739e+03 1.169e-10
 64.28066    -15.6 8.666e+03 1.102e-10
 64.32127    -14.2 8.702e+03 1.059e-10
 64.34285    -12.9 8.802e+03 1.003e-10
 64.36316    -13.2 8.797e+03 1.102e-10
 64.40250    -12.7 9.065e+03 1.165e-10
 64.44311    -13.5 9.472e+03 1.840e-10
 64.48155    -14.3 9.895e+03 4.550e-10
 64.50185    -14.0 9.909e+03 5.355e-10
 64.52433    -12.5 1.094e+04 1.107e-09
 64.54921    -10.9 1.182e+04 1.543e-09
 64.56952     -9.9 1.181e+04 1.506e-09
 64.60555     -9.7 1.186e+04 1.344e-09
 64.64055    -10.0 1.146e+04 7.505e-10
 64.66085     -9.8 1.131e+04 6.774e-10
 64.67652    -12.4 1.084e+04 5.800e-10
 64.69673    -14.7 1.228e+04 6.779e-10
 64.71703    -23.5 1.924e+04 1.257e-09
 64.73000    -30.0 1.973e+04 6.866e-09
 64.73333    -30.0 1.952e+04 6.104e-09
 64.74067    -30.2 1.882e+04 8.933e-09
 64.75252    -30.7 1.854e+04 2.403e-08
 64.76262    -29.7 1.843e+04 3.244e-08
 64.76966    -27.9 1.829e+04 3.995e-08
 64.77473    -27.5 1.828e+04 4.085e-08
 64.78293    -25.6 1.829e+04 4.326e-08
 64.79308    -23.6 1.772e+04 3.918e-08
 64.80324    -20.9 1.735e+04 2.540e-08
 64.80941    -18.8 1.825e+04 1.380e-08
 64.81448    -18.4 1.817e+04 1.512e-08
 64.82117    -17.9 1.967e+04 6.489e-09
 64.82625    -18.8 2.013e+04 4.526e-09
 64.83882    -24.3 1.938e+04 1.880e-09
 64.85917    -35.1 1.320e+04 4.751e-10
 64.87885    -37.7 1.111e+04 3.503e-10
 64.88900    -37.5 1.136e+04 3.911e-10
 64.89978    -38.0 1.137e+04 3.945e-10
 64.91202    -38.4 1.150e+04 5.211e-10
 64.92217    -37.9 1.146e+04 5.859e-10
 64.94039    -37.8 1.156e+04 7.431e-10
 64.95835    -37.4 1.166e+04 8.858e-10
 64.96850    -36.9 1.169e+04 8.878e-10
 64.98101    -36.5 1.169e+04 9.037e-10
 65.01156    -36.1 1.153e+04 8.450e-10
 65.05227    -35.1 1.093e+04 5.353e-10
 65.09288    -34.0 1.055e+04 2.723e-10
 65.11755    -33.3 1.038e+04 1.420e-10
 65.13785    -33.5 1.022e+04 1.141e-10
 65.17410    -32.6 1.005e+04 1.051e-10
 65.21471    -31.1 9.914e+03 1.113e-10
 65.25491    -29.5 9.890e+03 1.299e-10
 65.27521    -28.8 9.845e+03 1.081e-10
 65.27655    -27.3 9.840e+03 1.355e-10
 65.29685    -26.4 9.688e+03 1.159e-10
 65.33655    -24.7 9.751e+03 1.247e-10
 65.37716    -22.9 9.815e+03 1.269e-10
 65.41524    -21.3 9.954e+03 1.157e-10
 65.43554    -20.7 1.000e+04 6.832e-11
 65.45838    -19.5 1.021e+04 5.858e-11
 65.49899    -18.4 1.029e+04 5.411e-11
 65.53960    -17.3 1.029e+04 5.359e-11
 65.57424    -16.1 1.010e+04 6.135e-11
 65.59454    -15.7 9.986e+03 5.427e-11
 65.61790    -14.2 9.931e+03 6.535e-11
 65.63821    -13.4 1.001e+04 4.416e-11
 65.66143    -11.8 9.974e+03 4.961e-11
 65.70204    -10.2 9.926e+03 5.545e-11
 65.73324     -8.7 9.885e+03 6.160e-11
 65.75354     -8.1 9.937e+03 5.963e-11
 65.78327     -6.7 9.987e+03 6.391e-11
 65.82388     -5.7 1.019e+04 7.140e-11
 65.86449     -5.3 1.031e+04 9.672e-11
 65.89224     -4.8 1.021e+04 1.619e-10
 65.91254     -4.5 1.027e+04 1.640e-10
 65.94571     -3.2 1.033e+04 2.551e-10
 65.98090     -1.9 1.047e+04 3.011e-10
 66.00121     -1.6 1.049e+04 3.187e-10
 66.02693     -0.5 1.062e+04 3.696e-10
 66.05124      0.1 1.061e+04 3.391e-10
 66.07154      0.0 1.064e+04 3.138e-10
 66.10815      0.5 1.028e+04 2.474e-10
 66.14876      1.2 9.927e+03 1.870e-10
 66.18937      1.7 9.831e+03 1.421e-10
 66.21024      1.8 9.771e+03 1.285e-10
 66.23054      1.7 9.670e+03 1.172e-10
 66.27060      2.4 9.568e+03 1.302e-10
 66.31121      3.4 9.508e+03 1.491e-10
 66.34390      4.4 9.429e+03 1.582e-10
 66.36132      5.0 9.391e+03 1.573e-10
 66.36924      5.1 9.317e+03 1.266e-10
 66.39243      6.3 9.254e+03 1.059e-10
 66.43304      7.3 9.103e+03 8.625e-11
 66.47365      8.3 8.876e+03 6.960e-11
 66.50793      9.7 8.762e+03 5.241e-11
 66.52824     10.1 8.708e+03 4.564e-11
 66.55487     11.5 8.782e+03 3.247e-11
 66.59548     12.5 8.809e+03 2.442e-11
 66.63609     13.5 8.576e+03 2.073e-11
 66.66693     14.9 8.412e+03 1.797e-11
 66.68724     15.3 8.400e+03 1.818e-11
 66.70690     17.1 8.382e+03 1.554e-11
 66.72721     17.8 8.377e+03 1.574e-11
 66.75793     19.2 8.464e+03 1.302e-11
 66.79854     20.4 8.443e+03 1.200e-11
 66.82593     21.5 8.425e+03 1.253e-11
 66.84624     21.8 8.444e+03 1.280e-11
 66.87976     22.9 8.425e+03 1.489e-11
 66.92037     24.2 8.504e+03 1.884e-11
 66.96098     25.5 8.601e+03 2.582e-11
 66.98493     26.8 8.666e+03 3.621e-11
 67.00524     26.8 8.671e+03 5.699e-11
 67.04220     28.1 8.730e+03 8.799e-11
 67.06990     29.5 8.852e+03 1.283e-10
 67.09021     30.6 8.770e+03 1.093e-10
 67.12342     32.1 8.944e+03 1.590e-10
 67.14393     33.5 9.245e+03 2.046e-10
 67.16424     33.7 9.402e+03 2.124e-10
 67.20465     34.8 9.421e+03 2.052e-10
 67.24526     35.9 9.471e+03 1.622e-10
 67.28262     36.3 9.553e+03 1.093e-10
 67.30293     35.7 9.494e+03 7.083e-11
 67.32648     35.4 9.360e+03 5.326e-11
 67.36709     35.5 9.109e+03 5.085e-11
 67.40770     36.0 9.066e+03 5.214e-11
 67.43290     37.0 9.097e+03 5.482e-11
 67.44652     38.3 9.085e+03 6.377e-11
 67.46193     38.6 9.109e+03 6.327e-11
 67.48892     39.5 9.162e+03 6.504e-11
 67.52953     40.5 9.168e+03 6.409e-11
 67.57014     41.3 9.146e+03 6.153e-11
 67.60062     42.0 9.057e+03 6.061e-11
 67.62093     41.9 9.168e+03 7.104e-11
 67.65137     42.4 9.123e+03 7.539e-11
 67.69198     42.8 9.099e+03 8.465e-11
 67.73259     43.2 9.106e+03 9.550e-11
 67.75962     43.7 9.105e+03 1.017e-10
 67.77993     43.5 9.125e+03 1.299e-10
 67.79590     44.0 9.088e+03 1.211e-10
 67.81620     44.8 9.024e+03 1.054e-10
 67.85442     45.1 8.970e+03 8.502e-11
 67.89503     45.3 8.948e+03 7.009e-11
 67.91862     45.6 8.874e+03 6.369e-11
 67.93893     45.1 8.880e+03 6.696e-11
 67.97625     45.7 8.769e+03 6.280e-11
 68.01686     46.5 8.672e+03 5.865e-11
 68.05732     47.2 8.591e+03 5.367e-11
 68.09793     47.8 8.471e+03 5.083e-11
 68.13859     48.7 8.424e+03 4.774e-11
 68.17920     50.1 8.392e+03 4.761e-11
 68.21632     51.0 8.390e+03 4.874e-11
 68.23662     51.2 8.413e+03 5.478e-11
 68.26053     52.0 8.431e+03 5.644e-11
 68.30114     52.7 8.456e+03 6.261e-11
 68.34175     53.4 8.473e+03 7.541e-11
 68.37532     54.2 8.506e+03 9.397e-11
 68.39562     54.7 8.495e+03 9.251e-11
 68.42297     55.5 8.524e+03 1.045e-10
 68.46358     56.1 8.540e+03 1.052e-10
 68.50159     56.6 8.529e+03 9.948e-11
 68.52190     57.2 8.529e+03 9.617e-11
 68.53432     57.5 8.455e+03 8.521e-11
 68.55462     57.9 8.440e+03 8.519e-11
 68.58542     58.0 8.461e+03 8.571e-11
 68.62603     57.8 8.558e+03 9.389e-11
 68.66664     57.4 8.760e+03 1.256e-10
 68.69331     56.9 9.122e+03 1.927e-10
 68.71362     57.2 9.327e+03 2.554e-10
 68.74786     56.5 9.853e+03 3.754e-10
 68.77272     55.7 1.017e+04 4.662e-10
 68.78277     55.7 1.024e+04 4.747e-10
 68.79843     55.2 1.041e+04 5.983e-10
 68.82898     54.4 1.056e+04 6.889e-10
 68.85231     53.8 1.040e+04 6.372e-10
 68.86752     53.2 1.071e+04 7.774e-10
 68.88489     54.7 1.086e+04 8.458e-10
 68.91030     54.4 1.054e+04 6.845e-10
 68.93172     53.7 1.015e+04 4.339e-10
 68.94177     53.6 1.023e+04 4.556e-10
 68.96087     53.1 1.006e+04 3.958e-10
 68.99091     53.1 9.709e+03 2.877e-10
 69.01131     52.8 9.955e+03 3.999e-10
 69.03213     52.6 9.548e+03 3.789e-10
 69.07275     53.1 9.517e+03 3.946e-10
 69.11336     54.1 9.604e+03 4.286e-10
 69.15001     55.1 9.595e+03 4.307e-10
 69.17031     54.8 9.341e+03 3.687e-10
 69.19458     55.5 9.197e+03 3.182e-10
 69.22759     56.1 8.925e+03 2.951e-10
 69.24789     57.3 8.872e+03 2.473e-10
 69.27580     58.1 8.675e+03 2.426e-10
 69.30901     59.4 8.649e+03 2.490e-10
 69.32931     59.6 8.548e+03 2.568e-10
 69.35702     61.4 8.509e+03 2.588e-10
 69.39763     63.3 8.455e+03 2.526e-10
 69.43824     65.3 8.396e+03 2.347e-10
 69.46801     67.3 8.334e+03 2.123e-10
 69.48831     67.6 8.039e+03 1.707e-10
 69.51947     69.5 8.066e+03 1.579e-10
 69.56008     71.4 8.105e+03 1.592e-10
 69.59059     73.0 8.312e+03 1.804e-10
 69.61089     74.7 8.154e+03 1.658e-10
 69.62701     76.0 8.423e+03 1.866e-10
 69.64731     76.3 8.331e+03 1.829e-10
 69.68191     75.0 1.023e+04 2.849e-10
 69.70641     72.4 1.287e+04 7.962e-10
 69.71646     72.3 1.292e+04 8.153e-10
 69.73248     71.1 1.458e+04 2.158e-09
 69.75278     70.8 1.574e+04 4.788e-09
 69.77189     71.3 1.657e+04 8.076e-09
 69.78204     72.1 1.601e+04 5.082e-09
 69.78581     72.8 1.699e+04 9.009e-09
 69.79596     73.2 1.650e+04 7.353e-09
 69.81370     73.5 1.722e+04 9.220e-09
 69.83400     73.6 1.788e+04 1.066e-08
 69.85431     73.2 1.828e+04 9.540e-09
 69.86531     71.8 1.804e+04 7.165e-09
 69.87546     71.5 1.711e+04 4.789e-09
 69.89492     69.5 1.604e+04 3.502e-09
 69.91523     68.0 1.469e+04 2.844e-09
 69.93466     67.7 1.381e+04 2.542e-09
 69.94481     68.0 1.333e+04 2.164e-09
 69.95339     68.5 1.327e+04 2.175e-09
 69.96354     69.8 1.447e+04 3.202e-09
 69.97614     70.5 1.415e+04 3.071e-09
 69.99645     71.6 1.429e+04 3.031e-09
 70.01416     72.7 1.429e+04 2.719e-09
 70.02431     72.9 1.451e+04 3.280e-09
 70.03706     74.1 1.457e+04 3.016e-09
 70.05736     74.9 1.440e+04 2.380e-09
 70.07767     75.1 1.362e+04 1.608e-09
 70.09366     74.7 1.227e+04 1.026e-09
 70.10381     77.0 1.378e+04 1.770e-09
 70.11828     76.6 1.220e+04 1.109e-09
 70.13489     76.3 1.125e+04 8.486e-10
 70.14504     79.3 1.234e+04 1.041e-09
 70.15889     78.9 1.139e+04 8.269e-10
 70.17316     79.1 1.137e+04 8.087e-10
 70.18331     81.4 1.199e+04 1.045e-09
 70.19950     81.0 1.215e+04 1.066e-09
 70.21981     80.2 1.255e+04 1.213e-09
 70.24011     79.2 1.298e+04 1.444e-09
 70.25266     77.6 1.305e+04 1.513e-09
 70.26281     79.0 1.399e+04 1.919e-09
 70.27560     76.8 1.387e+04 1.700e-09
 70.28570     75.9 1.362e+04 1.608e-09
 70.29231     73.4 1.357e+04 1.387e-09
 70.29739     69.9 2.140e+04 1.311e-09
 70.30601     31.1 7.077e+04 1.825e-09
 70.31616      0.9 4.751e+04 3.404e-08
 70.32137    -12.3 2.761e+04 3.589e-07
 70.32644    -13.7 2.729e+04 3.890e-07
 70.33206    -25.2 2.598e+04 4.650e-07
 70.33714    -39.6 3.350e+04 9.174e-08
 70.34662    -62.3 3.426e+04 5.154e-09
 70.35677    -80.4 1.697e+04 1.672e-09
 70.36673    -83.8 1.326e+04 1.297e-09
 70.37181    -85.3 1.306e+04 1.226e-09
 70.38220    -85.4 1.254e+04 1.069e-09
 70.40150    -86.2 1.137e+04 8.893e-10
 70.41166    -88.0 1.119e+04 8.575e-10
 70.42286    -86.7 1.109e+04 8.459e-10
 70.44317    -85.3 1.108e+04 8.784e-10
 70.46347    -83.9 1.115e+04 9.362e-10
 70.48100    -82.5 1.116e+04 9.750e-10
 70.49116    -82.8 1.133e+04 1.026e-09
 70.49789    -81.4 1.130e+04 1.042e-09
 70.50804    -81.7 1.147e+04 1.105e-09
 70.52439    -80.2 1.146e+04 1.142e-09
 70.54469    -78.7 1.142e+04 1.171e-09
 70.56050    -77.3 1.137e+04 1.187e-09
 70.57066    -77.2 1.150e+04 1.243e-09
 70.58531    -75.9 1.142e+04 1.226e-09
 70.60561    -74.6 1.132e+04 1.202e-09
 70.62592    -73.3 1.122e+04 1.172e-09
 70.64000    -72.2 1.114e+04 1.142e-09
 70.65016    -72.3 1.113e+04 1.113e-09
 70.66653    -71.3 1.111e+04 1.116e-09
 70.67939    -70.5 1.117e+04 1.163e-09
 70.68954    -70.1 1.131e+04 1.247e-09
 70.70714    -69.3 1.137e+04 1.288e-09
 70.71950    -68.6 1.151e+04 1.376e-09
 70.72966    -68.7 1.152e+04 1.383e-09
 70.74775    -68.1 1.171e+04 1.517e-09
 70.76805    -67.5 1.193e+04 1.667e-09
 70.78836    -66.9 1.215e+04 1.820e-09
 70.79900    -66.3 1.236e+04 1.957e-09
 70.80916    -66.6 1.213e+04 1.764e-09
 70.82897    -66.2 1.230e+04 1.872e-09
 70.84928    -66.0 1.244e+04 1.944e-09
 70.86089    -66.0 1.252e+04 1.979e-09
 70.86981    -65.5 1.292e+04 2.333e-09
 70.87850    -66.0 1.257e+04 1.953e-09
 70.88989    -66.2 1.264e+04 1.989e-09
 70.91019    -66.6 1.267e+04 2.019e-09
 70.93050    -67.0 1.266e+04 2.029e-09
 70.94785    -67.4 1.263e+04 2.023e-09
 70.95800    -67.6 1.220e+04 1.646e-09
 70.97111    -67.9 1.209e+04 1.627e-09
 70.99141    -68.0 1.193e+04 1.541e-09
 71.01172    -68.0 1.172e+04 1.381e-09
 71.02735    -68.0 1.145e+04 1.167e-09
 71.03750    -68.4 1.139e+04 1.149e-09
 71.04239    -68.3 1.111e+04 9.295e-10
 71.05254    -68.2 1.126e+04 9.433e-10
 71.07264    -68.4 1.087e+04 6.866e-10
 71.09294    -68.6 1.045e+04 4.922e-10
 71.10685    -68.9 1.008e+04 3.659e-10
 71.11700    -68.6 1.020e+04 4.305e-10
 71.14380    -68.7 9.820e+03 3.087e-10
 71.17639    -67.9 9.713e+03 2.842e-10
 71.19670    -67.5 9.772e+03 3.055e-10
 71.22512    -66.2 9.714e+03 2.927e-10
 71.26573    -64.8 9.816e+03 3.123e-10
 71.30634    -63.6 9.989e+03 3.572e-10
 71.33529    -62.7 1.013e+04 4.068e-10
 71.34535    -62.2 1.011e+04 3.915e-10
 71.35691    -62.2 1.023e+04 4.297e-10
 71.37722    -61.9 1.044e+04 4.971e-10
 71.39523    -61.8 1.065e+04 5.711e-10
 71.40539    -62.3 1.109e+04 8.048e-10
 71.41470    -61.9 1.130e+04 9.299e-10
 71.42485    -61.5 1.116e+04 9.051e-10
 71.43813    -60.7 1.135e+04 1.016e-09
 71.45844    -60.1 1.147e+04 1.073e-09
 71.47874    -59.8 1.157e+04 1.042e-09
 71.49420    -59.6 1.152e+04 9.613e-10
 71.51460    -58.5 1.142e+04 9.240e-10
 71.55001    -57.6 1.113e+04 7.426e-10
 71.59062    -57.2 1.104e+04 6.218e-10
 71.63123    -56.9 1.100e+04 5.669e-10
 71.65339    -56.6 1.099e+04 5.578e-10
 71.67370    -55.1 1.095e+04 5.510e-10
 71.71245    -54.7 1.105e+04 5.922e-10
 71.74827    -54.4 1.127e+04 6.896e-10
 71.76858    -54.5 1.102e+04 6.080e-10
 71.79209    -54.1 1.107e+04 5.956e-10
 71.81239    -53.0 1.130e+04 6.773e-10
 71.83428    -52.8 1.139e+04 6.385e-10
 71.87490    -53.6 1.141e+04 5.635e-10
 71.91551    -55.1 1.123e+04 4.859e-10
 71.95109    -56.5 1.115e+04 5.198e-10
 71.97139    -56.3 1.164e+04 7.435e-10
 71.98648    -56.8 1.164e+04 6.916e-10
 72.00669    -57.2 1.164e+04 6.905e-10
 72.02699    -57.9 1.156e+04 6.734e-10
 72.04054    -58.1 1.148e+04 6.583e-10
 72.05070    -57.9 1.142e+04 6.518e-10
 72.06760    -57.9 1.121e+04 5.877e-10
 72.08791    -57.8 1.094e+04 5.062e-10
 72.10821    -57.7 1.071e+04 4.344e-10
 72.12004    -57.6 1.062e+04 4.076e-10
 72.12300    -57.7 1.059e+04 3.648e-10
 72.13158    -57.2 1.060e+04 3.734e-10
 72.15917    -57.0 1.044e+04 3.156e-10
 72.19978    -56.4 1.015e+04 2.502e-10
 72.24039    -55.5 9.897e+03 2.079e-10
 72.26908    -54.7 9.782e+03 1.946e-10
 72.28939    -54.3 9.639e+03 1.597e-10
 72.32162    -53.5 9.672e+03 1.686e-10
 72.36223    -53.1 9.996e+03 2.458e-10
 72.40284    -52.8 1.044e+04 4.067e-10
 72.42808    -52.5 1.089e+04 6.565e-10
 72.43814    -52.3 1.078e+04 5.806e-10
 72.45341    -52.4 1.097e+04 7.551e-10
 72.47417    -51.8 1.111e+04 8.701e-10
 72.49458    -52.0 1.125e+04 9.732e-10
 72.52467    -51.6 1.139e+04 1.045e-09
 72.56528    -51.4 1.122e+04 9.161e-10
 72.58708    -51.2 1.073e+04 6.621e-10
 72.60739    -50.1 1.073e+04 7.018e-10
 72.64650    -49.2 1.032e+04 4.854e-10
 72.68711    -48.6 9.901e+03 3.229e-10
 72.72578    -47.9 9.522e+03 2.530e-10
 72.74608    -46.5 9.657e+03 2.908e-10
 72.76833    -45.3 9.537e+03 2.685e-10
 72.80895    -43.9 9.523e+03 2.694e-10
 72.83727    -42.8 9.650e+03 3.143e-10
 72.85758    -42.5 9.348e+03 2.286e-10
 72.88478    -41.7 9.498e+03 2.551e-10
 72.90508    -40.6 9.721e+03 3.308e-10
 72.93078    -40.2 9.950e+03 3.989e-10
 72.97139    -40.1 1.016e+04 4.730e-10
 73.01200    -40.3 1.038e+04 5.544e-10
 73.04236    -40.2 1.054e+04 6.108e-10
 73.05373    -40.6 1.070e+04 6.440e-10
 73.06389    -40.1 1.086e+04 7.099e-10
 73.08287    -40.9 1.088e+04 7.157e-10
 73.10318    -41.4 1.087e+04 7.214e-10
 73.12308    -41.8 1.085e+04 7.221e-10
 73.13323    -42.0 1.095e+04 7.850e-10
 73.14379    -42.4 1.089e+04 7.710e-10
 73.17435    -43.0 1.091e+04 7.721e-10
 73.20027    -43.1 1.094e+04 7.801e-10
 73.20830    -41.7 1.069e+04 6.831e-10
 73.21283    -42.4 1.117e+04 8.843e-10
 73.22501    -42.3 1.116e+04 8.786e-10
 73.24532    -42.1 1.116e+04 8.634e-10
 73.26562    -42.6 1.137e+04 9.120e-10
 73.28208    -43.8 1.191e+04 1.152e-09
 73.29223    -43.9 1.204e+04 1.285e-09
 73.30623    -45.2 1.278e+04 1.811e-09
 73.32654    -46.3 1.374e+04 2.810e-09
 73.34684    -47.1 1.464e+04 4.283e-09
 73.36158    -47.6 1.528e+04 5.670e-09
 73.37173    -47.1 1.493e+04 4.737e-09
 73.38157    -48.1 1.513e+04 5.188e-09
 73.39173    -47.2 1.484e+04 4.681e-09
 73.40776    -48.4 1.487e+04 4.766e-09
 73.42807    -49.6 1.449e+04 4.060e-09
 73.44108    -51.2 1.385e+04 2.944e-09
 73.45123    -51.5 1.405e+04 3.243e-09
 73.46868    -52.9 1.339e+04 2.314e-09
 73.48898    -54.2 1.252e+04 1.509e-09
 73.50929    -55.3 1.165e+04 9.953e-10
 73.52068    -56.3 1.069e+04 6.174e-10
 73.53083    -55.4 1.125e+04 8.668e-10
 73.54990    -55.9 1.075e+04 6.616e-10
 73.56307    -56.1 1.045e+04 5.676e-10
 73.57323    -55.5 1.073e+04 7.015e-10
 73.58993    -55.6 1.058e+04 6.652e-10
 73.60008    -55.6 1.055e+04 6.605e-10
 73.62107    -54.9 1.053e+04 6.851e-10
 73.65947    -53.6 1.046e+04 6.787e-10
 73.67968    -53.3 1.048e+04 6.033e-10
 73.69204    -52.7 1.055e+04 6.243e-10
 73.71234    -52.0 1.062e+04 6.574e-10
 73.73265    -51.5 1.073e+04 7.019e-10
 73.74457    -51.0 1.092e+04 7.520e-10
 73.75070    -50.6 1.132e+04 1.001e-09
 73.75908    -50.9 1.113e+04 8.731e-10
 73.77326    -50.7 1.127e+04 9.137e-10
 73.79356    -50.5 1.140e+04 9.543e-10
 73.81387    -50.4 1.149e+04 9.855e-10
 73.82843    -50.4 1.154e+04 9.865e-10
 73.83858    -50.5 1.178e+04 1.075e-09
 73.85448    -50.6 1.202e+04 1.136e-09
 73.87479    -51.1 1.222e+04 1.194e-09
 73.89509    -51.3 1.234e+04 1.246e-09
 73.90793    -51.5 1.239e+04 1.259e-09
 73.91808    -51.9 1.298e+04 1.623e-09
 73.92607    -52.3 1.304e+04 1.690e-09
 73.93622    -52.0 1.311e+04 1.672e-09
 73.95601    -52.4 1.311e+04 1.611e-09
 73.97631    -53.0 1.299e+04 1.527e-09
 73.98743    -53.5 1.284e+04 1.411e-09
 73.99758    -54.1 1.358e+04 2.518e-09
 74.01692    -55.3 1.353e+04 2.314e-09
 74.03723    -56.8 1.350e+04 2.280e-09
 74.05677    -58.6 1.354e+04 2.473e-09
 74.06693    -58.8 1.409e+04 3.440e-09
 74.07784    -60.6 1.421e+04 3.654e-09
 74.09742    -62.2 1.433e+04 3.961e-09
 74.10757    -62.0 1.431e+04 3.989e-09
 74.11845    -63.4 1.434e+04 4.098e-09
 74.13627    -65.1 1.432e+04 3.870e-09
 74.14643    -66.3 1.404e+04 3.226e-09
 74.15906    -68.8 1.374e+04 2.674e-09
 74.17937    -71.7 1.331e+04 2.120e-09
 74.19967    -74.7 1.287e+04 1.769e-09
 74.21577    -77.5 1.261e+04 1.593e-09
 74.22593    -78.4 1.274e+04 1.680e-09
 74.24028    -81.0 1.301e+04 1.758e-09
 74.26059    -83.4 1.351e+04 2.139e-09
 74.27892    -85.1 1.391e+04 2.757e-09
 74.28907    -85.8 1.431e+04 3.296e-09
 74.29527    -86.6 1.435e+04 3.616e-09
 74.30543    -86.9 1.440e+04 4.166e-09
 74.32151    -87.0 1.413e+04 3.905e-09
 74.34181    -87.0 1.367e+04 2.950e-09
 74.36212    -86.9 1.292e+04 1.720e-09
 74.37477    -87.5 1.198e+04 8.475e-10
 74.38493    -87.6 1.195e+04 7.455e-10
 74.40273    -88.8 1.103e+04 4.320e-10
 74.43328    -89.6 1.022e+04 2.688e-10
 74.45447    -89.0 9.376e+03 1.554e-10
 74.47477    -88.8 9.362e+03 1.500e-10
 74.51460    -87.2 9.218e+03 1.312e-10
 74.55521    -85.6 9.211e+03 1.296e-10
 74.59316    -84.3 9.310e+03 1.377e-10
 74.61347    -84.2 9.485e+03 1.805e-10
 74.63196    -83.2 9.616e+03 2.125e-10
 74.65226    -83.8 9.605e+03 2.116e-10
 74.67705    -82.8 9.715e+03 2.353e-10
 74.71766    -82.0 9.795e+03 2.452e-10
 74.75216    -81.1 9.845e+03 2.477e-10
 74.77247    -81.4 1.025e+04 3.498e-10
 74.79888    -80.7 1.026e+04 3.372e-10
 74.83949    -80.0 1.025e+04 3.229e-10
 74.88010    -79.2 1.019e+04 2.952e-10
 74.91116    -78.2 1.006e+04 2.475e-10
 74.93147    -78.6 1.024e+04 2.691e-10
 74.96132    -77.5 9.982e+03 1.968e-10
 74.99496    -76.3 9.823e+03 1.504e-10
 75.01526    -76.8 9.811e+03 1.381e-10
 75.04254    -75.6 9.801e+03 1.296e-10
 75.07016    -74.3 9.808e+03 1.300e-10
 75.09047    -74.4 9.831e+03 1.289e-10
 75.12377    -73.3 9.855e+03 1.464e-10
 75.16438    -72.4 9.896e+03 1.683e-10
 75.20499    -71.8 9.983e+03 1.859e-10
 75.22916    -71.6 1.012e+04 2.024e-10
 75.24947    -72.8 1.074e+04 3.625e-10
 75.28621    -73.1 1.087e+04 4.607e-10
 75.32682    -73.3 1.095e+04 5.577e-10
 75.35796    -73.4 1.098e+04 6.330e-10
 75.37826    -73.2 1.098e+04 6.149e-10
 75.38816    -73.4 1.094e+04 6.212e-10
 75.40847    -74.4 1.114e+04 7.163e-10
 75.44865    -74.6 1.094e+04 6.221e-10
 75.48926    -74.9 1.079e+04 5.917e-10
 75.52685    -75.3 1.071e+04 5.793e-10
 75.54716    -75.6 1.060e+04 5.012e-10
 75.56023    -75.6 1.064e+04 5.476e-10
 75.58044    -76.0 1.060e+04 5.505e-10
 75.60075    -76.2 1.053e+04 5.437e-10
 75.61631    -76.4 1.050e+04 5.344e-10
 75.62646    -76.5 1.035e+04 4.623e-10
 75.64136    -76.6 1.035e+04 4.562e-10
 75.66166    -76.8 1.037e+04 4.560e-10
 75.68197    -77.1 1.045e+04 4.704e-10
 75.69581    -77.4 1.056e+04 4.965e-10
 75.70596    -77.5 1.052e+04 4.773e-10
 75.72076    -77.8 1.063e+04 5.278e-10
 75.73091    -78.1 1.061e+04 5.157e-10
 75.74289    -78.2 1.067e+04 5.409e-10
 75.77344    -78.4 1.070e+04 5.485e-10
 75.81415    -78.7 1.071e+04 5.617e-10
 75.84485    -78.9 1.048e+04 5.132e-10
 75.86516    -79.1 1.049e+04 5.387e-10
 75.89537    -78.6 9.983e+03 3.684e-10
 75.93598    -78.0 9.579e+03 2.578e-10
 75.97659    -77.2 9.315e+03 1.979e-10
 76.00385    -76.1 9.161e+03 1.690e-10
 76.02416    -76.0 9.125e+03 1.499e-10
 76.05781    -74.7 9.042e+03 1.375e-10
 76.08395    -73.3 9.000e+03 1.318e-10
 76.10426    -73.5 9.090e+03 1.430e-10
 76.13904    -72.1 9.076e+03 1.404e-10
 76.16285    -70.6 9.077e+03 1.404e-10
 76.18316    -70.4 9.065e+03 1.236e-10
 76.22026    -69.0 9.117e+03 1.279e-10
 76.26087    -67.8 9.198e+03 1.429e-10
 76.30148    -66.5 9.301e+03 1.650e-10
 76.34209    -65.1 9.346e+03 1.544e-10
 76.38270    -63.8 9.454e+03 1.785e-10
 76.42331    -62.6 9.517e+03 1.923e-10
 76.44695    -61.4 9.522e+03 1.948e-10
 76.46388    -61.3 9.612e+03 2.131e-10
 76.48085    -60.8 9.556e+03 1.766e-10
 76.50453    -59.3 9.525e+03 1.629e-10
 76.54515    -57.8 9.482e+03 1.255e-10
 76.58576    -56.3 9.383e+03 9.143e-11
 76.61955    -54.9 9.295e+03 6.830e-11
 76.63985    -54.0 9.334e+03 6.867e-11
 76.66698    -52.6 9.319e+03 5.848e-11
 76.70759    -51.2 9.328e+03 5.640e-11
 76.74820    -50.0 9.378e+03 5.835e-11
 76.77855    -49.1 9.452e+03 7.810e-11
 76.79885    -48.2 9.486e+03 7.954e-11
 76.80995    -47.0 9.544e+03 1.161e-10
 76.83026    -46.7 9.561e+03 1.282e-10
 76.87003    -45.2 9.665e+03 1.623e-10
 76.91064    -43.8 9.721e+03 1.738e-10
 76.93755    -42.5 9.714e+03 1.671e-10
 76.95785    -41.6 9.780e+03 1.928e-10
 76.99186    -40.3 9.748e+03 1.632e-10
 77.03248    -39.3 9.791e+03 1.347e-10
 77.07309    -38.7 9.835e+03 1.289e-10
 77.09655    -38.3 1.010e+04 1.369e-10
 77.11685    -37.7 1.024e+04 1.888e-10
 77.15265    -37.8 1.051e+04 3.119e-10
 77.17295    -36.7 1.049e+04 3.133e-10
 77.19492    -36.3 1.081e+04 4.892e-10
 77.23524    -36.0 1.118e+04 6.395e-10
 77.25555    -35.7 1.199e+04 1.122e-09
 77.27614    -37.1 1.243e+04 1.321e-09
 77.31675    -39.1 1.279e+04 1.536e-09
 77.34420    -40.6 1.301e+04 1.859e-09
 77.35426    -40.4 1.327e+04 2.061e-09
 77.36732    -41.1 1.340e+04 2.257e-09
 77.38763    -41.9 1.348e+04 2.454e-09
 77.40420    -42.5 1.336e+04 2.420e-09
 77.41435    -42.4 1.346e+04 2.586e-09
 77.42824    -42.8 1.312e+04 2.206e-09
 77.44854    -43.2 1.282e+04 1.895e-09
 77.46885    -43.5 1.260e+04 1.676e-09
 77.48370    -43.8 1.242e+04 1.532e-09
 77.49385    -43.7 1.222e+04 1.324e-09
 77.50946    -44.0 1.206e+04 1.224e-09
 77.52560    -44.1 1.191e+04 1.157e-09
 77.53576    -44.1 1.181e+04 1.090e-09
 77.55007    -44.1 1.174e+04 1.077e-09
 77.56320    -44.0 1.169e+04 1.071e-09
 77.57335    -43.9 1.152e+04 9.309e-10
 77.59068    -43.6 1.148e+04 9.279e-10
 77.61099    -43.4 1.141e+04 8.902e-10
 77.63129    -43.1 1.132e+04 8.151e-10
 77.64270    -42.8 1.120e+04 7.340e-10
 77.65285    -42.6 1.112e+04 7.033e-10
 77.67190    -42.3 1.104e+04 6.485e-10
 77.69221    -42.1 1.093e+04 5.939e-10
 77.71214    -41.7 1.084e+04 5.470e-10
 77.72229    -41.4 1.104e+04 6.278e-10
 77.73282    -41.0 1.094e+04 5.716e-10
 77.76337    -40.4 1.072e+04 4.797e-10
 77.80408    -39.4 1.049e+04 3.917e-10
 77.84469    -38.3 1.037e+04 3.549e-10
 77.87124    -36.9 1.031e+04 3.363e-10
 77.88488    -37.4 1.051e+04 3.909e-10
 77.89895    -37.4 1.073e+04 4.852e-10
 77.92591    -36.0 1.063e+04 4.609e-10
 77.96653    -34.7 1.062e+04 4.536e-10
 78.00714    -33.4 1.062e+04 4.525e-10
 78.03024    -32.1 1.060e+04 4.422e-10
 78.05054    -32.9 1.060e+04 4.402e-10
 78.08836    -31.7 1.038e+04 3.672e-10
 78.12897    -30.6 1.019e+04 3.231e-10
 78.16893    -29.4 1.013e+04 3.143e-10
 78.18924    -30.5 1.004e+04 2.898e-10
 78.21019    -29.0 9.971e+03 2.942e-10
 78.24164    -27.5 9.936e+03 3.219e-10
 78.26195    -27.8 1.001e+04 3.600e-10
 78.29141    -26.4 1.012e+04 4.263e-10
 78.32793    -25.0 1.029e+04 5.292e-10
 78.34824    -25.4 1.013e+04 4.836e-10
 78.36238    -23.8 1.026e+04 5.393e-10
 78.38259    -23.6 1.024e+04 5.525e-10
 78.40290    -22.4 1.032e+04 6.253e-10
 78.41739    -21.8 1.031e+04 6.513e-10
 78.42729    -22.1 1.022e+04 6.110e-10
 78.43310    -22.3 1.030e+04 6.544e-10
 78.45376    -20.8 1.035e+04 6.650e-10
 78.48693    -19.0 1.024e+04 6.125e-10
 78.50724    -18.9 9.983e+03 5.241e-10
 78.53508    -17.1 9.863e+03 4.525e-10
 78.57569    -15.5 9.641e+03 3.414e-10
 78.60464    -14.1 9.381e+03 2.498e-10
 78.62495    -14.8 9.114e+03 1.761e-10
 78.64593    -13.4 8.964e+03 1.511e-10
 78.66624    -12.9 8.999e+03 1.632e-10
 78.69752    -11.4 9.061e+03 1.816e-10
 78.73813     -9.8 9.137e+03 2.237e-10
 78.77874     -7.8 9.188e+03 2.487e-10
 78.80493     -5.9 9.130e+03 2.372e-10
 78.82524     -5.2 9.608e+03 4.060e-10
 78.85996     -3.8 9.466e+03 3.174e-10
 78.90058     -3.3 9.298e+03 2.318e-10
 78.94119     -3.5 9.171e+03 2.029e-10
 78.96393     -3.6 9.376e+03 2.830e-10
 78.97008     -3.3 9.771e+03 4.755e-10
 78.98795     -3.5 9.754e+03 4.790e-10
 79.02241     -2.0 9.895e+03 5.504e-10
 79.06302     -0.4 9.919e+03 5.470e-10
 79.10262      1.0 9.779e+03 4.548e-10
 79.12293      1.1 9.660e+03 3.695e-10
 79.14424      2.1 9.458e+03 2.820e-10
 79.18485      3.2 9.279e+03 2.526e-10
 79.22546      4.6 9.181e+03 2.413e-10
 79.26162      6.1 9.149e+03 2.360e-10
 79.28193      5.7 9.595e+03 2.928e-10
 79.30668      6.9 9.640e+03 3.054e-10
 79.33064      7.9 9.567e+03 3.166e-10
 79.35094      7.8 9.249e+03 2.962e-10
 79.38791      9.5 9.323e+03 3.516e-10
 79.42062     11.3 9.285e+03 3.501e-10
 79.44093     11.4 9.418e+03 4.146e-10
 79.46913     13.5 9.204e+03 3.127e-10
 79.50974     15.5 8.907e+03 2.081e-10
 79.55035     17.3 8.674e+03 1.354e-10
 79.57962     18.9 8.577e+03 9.620e-11
 79.59993     18.7 8.569e+03 9.651e-11
 79.63157     20.4 8.479e+03 8.470e-11
 79.67218     22.2 8.507e+03 8.686e-11
 79.69364     23.9 8.617e+03 9.826e-11
 79.71394     24.1 8.679e+03 1.100e-10
 79.73862     25.5 8.828e+03 1.468e-10
 79.75893     25.3 9.030e+03 2.249e-10
 79.79401     27.1 9.238e+03 2.956e-10
 79.83463     28.9 9.424e+03 3.367e-10
 79.87524     30.4 9.518e+03 3.355e-10
 79.89762     31.6 9.570e+03 3.115e-10
 79.91793     31.3 9.917e+03 3.927e-10
 79.95646     31.9 1.005e+04 4.003e-10
 79.99707     32.1 1.037e+04 4.817e-10
 80.03632     31.6 1.111e+04 7.511e-10
 80.05652     30.6 1.168e+04 1.044e-09
 80.06794     30.2 1.205e+04 1.327e-09
 80.08825     30.1 1.226e+04 1.667e-09
 80.10855     30.4 1.242e+04 1.861e-09
 80.12577     30.5 1.258e+04 1.938e-09
 80.13593     29.9 1.288e+04 2.188e-09
 80.14916     29.7 1.283e+04 2.005e-09
 80.16947     29.4 1.274e+04 1.797e-09
 80.18978     29.0 1.259e+04 1.599e-09
 80.20527     28.4 1.239e+04 1.456e-09
 80.21543     27.6 1.232e+04 1.428e-09
 80.22779     27.6 1.201e+04 1.307e-09
 80.23794     27.4 1.174e+04 1.119e-09
 80.25069     27.7 1.146e+04 1.020e-09
 80.27100     28.4 1.122e+04 8.660e-10
 80.28477     28.8 1.107e+04 7.610e-10
 80.29493     28.0 1.087e+04 6.086e-10
 80.32186     29.8 1.080e+04 5.688e-10
 80.35432     31.1 1.036e+04 3.908e-10
 80.37462     30.3 1.011e+04 3.066e-10
 80.39933     31.2 9.999e+03 2.601e-10
 80.41964     30.4 9.855e+03 2.213e-10
 80.44379     30.7 1.014e+04 2.621e-10
 80.48440     30.8 1.068e+04 4.438e-10
 80.51332     31.6 1.114e+04 7.592e-10
 80.53362     30.8 1.138e+04 8.910e-10
 80.56562     31.9 1.149e+04 9.805e-10
 80.60623     32.4 1.135e+04 8.727e-10
 80.64684     32.6 1.115e+04 7.470e-10
 80.67231     32.5 1.102e+04 6.756e-10
 80.69262     31.5 1.097e+04 7.016e-10
 80.72806     32.1 1.104e+04 7.836e-10
 80.76233     33.0 1.109e+04 8.087e-10
 80.78263     32.7 1.043e+04 4.995e-10
 80.80929     33.7 1.029e+04 4.439e-10
 80.83131     34.9 1.005e+04 3.517e-10
 80.85162     34.8 1.020e+04 4.088e-10
 80.89051     35.9 1.003e+04 3.457e-10
 80.93112     37.1 9.861e+03 2.958e-10
 80.97001     38.4 9.750e+03 2.754e-10
 80.99031     38.8 1.009e+04 4.187e-10
 81.01234     40.5 1.008e+04 4.136e-10
 81.05295     42.3 1.013e+04 4.317e-10
 81.09356     44.2 1.029e+04 4.883e-10
 81.12533     45.9 1.054e+04 5.812e-10
 81.14047     46.0 1.034e+04 5.031e-10
 81.14931     46.1 1.056e+04 5.947e-10
 81.17478     47.6 1.074e+04 6.780e-10
 81.21540     49.2 1.088e+04 7.595e-10
 81.25601     50.8 1.091e+04 7.681e-10
 81.28801     52.4 1.082e+04 7.248e-10
 81.30831     52.7 1.075e+04 6.952e-10
 81.33723     54.5 1.043e+04 5.712e-10
 81.37784     56.6 1.009e+04 4.441e-10
 81.41845     58.8 9.851e+03 3.345e-10
 81.44701     61.0 9.701e+03 2.557e-10
 81.46731     61.2 9.663e+03 2.368e-10
 81.48833     63.4 9.698e+03 2.232e-10
 81.50863     63.0 9.613e+03 2.080e-10
 81.54028     65.1 9.673e+03 2.058e-10
 81.58089     67.3 9.763e+03 2.228e-10
 81.60601     69.5 9.890e+03 2.636e-10
 81.62631     69.6 9.972e+03 3.027e-10
 81.66211     71.9 1.011e+04 3.623e-10
 81.70273     74.3 1.027e+04 4.279e-10
 81.74334     76.7 1.044e+04 4.889e-10
 81.76501     79.0 1.059e+04 5.365e-10
 81.78531     79.0 1.057e+04 5.328e-10
 81.82456     81.3 1.072e+04 5.718e-10
 81.85133     83.6 1.085e+04 5.920e-10
 81.87163     83.6 1.056e+04 4.933e-10
 81.90370     85.8 1.074e+04 5.330e-10
 81.92401     85.9 1.062e+04 4.855e-10
 81.94639     88.0 1.082e+04 5.304e-10
 81.97675     89.0 1.090e+04 5.628e-10
 81.99316     90.0 1.096e+04 5.836e-10
 82.00331     89.9 1.099e+04 6.012e-10
 82.01726     90.9 1.110e+04 6.378e-10
 82.03263     91.9 1.124e+04 6.666e-10
 82.04278     91.9 1.117e+04 6.682e-10
 82.05788     92.9 1.131e+04 6.824e-10
 82.07266     93.7 1.135e+04 6.745e-10
 82.08281     93.5 1.157e+04 8.420e-10
 82.09849     94.4 1.159e+04 8.350e-10
 82.11879     95.0 1.162e+04 8.063e-10
 82.14935     96.1 1.161e+04 7.934e-10
 82.19006     98.0 1.138e+04 6.279e-10
 82.21432     99.9 1.118e+04 4.759e-10
 82.22566    100.0 1.139e+04 5.979e-10
 82.24201     99.9 1.196e+04 9.986e-10
 82.27128    101.7 1.171e+04 7.606e-10
 82.31189    103.5 1.149e+04 5.961e-10
 82.35250    105.3 1.138e+04 5.426e-10
 82.38070    107.1 1.138e+04 5.462e-10
 82.40101    106.9 1.160e+04 7.192e-10
 82.43372    108.5 1.165e+04 7.339e-10
 82.47433    109.9 1.177e+04 7.714e-10
 82.51494    111.1 1.188e+04 8.014e-10
 82.53970    112.1 1.190e+04 7.926e-10
 82.56000    111.8 1.185e+04 7.728e-10
 82.57732    112.6 1.177e+04 6.971e-10
 82.59763    112.4 1.221e+04 9.444e-10
 82.63678    113.0 1.206e+04 8.510e-10
 82.67739    113.7 1.183e+04 7.321e-10
 82.69870    114.5 1.156e+04 6.200e-10
 82.71900    114.5 1.152e+04 5.952e-10
 82.75861    115.6 1.134e+04 5.382e-10
 82.79922    116.8 1.123e+04 5.087e-10
 82.83739    118.1 1.120e+04 4.977e-10
 82.85770    118.3 1.135e+04 5.823e-10
 82.88044    119.6 1.137e+04 5.923e-10
 82.92002    120.9 1.136e+04 5.849e-10
 82.94032    120.5 1.118e+04 4.970e-10
 82.96166    121.7 1.111e+04 4.523e-10
 82.99639    123.0 1.098e+04 3.837e-10
 83.01670    123.2 1.114e+04 4.209e-10
 83.04288    124.5 1.101e+04 3.343e-10
 83.08350    125.7 1.084e+04 2.543e-10
 83.12411    127.0 1.068e+04 1.991e-10
 83.15539    128.4 1.061e+04 1.742e-10
 83.17570    127.9 1.083e+04 2.564e-10
 83.20533    129.3 1.077e+04 2.754e-10
 83.24594    130.8 1.075e+04 3.120e-10
 83.28302    132.2 1.076e+04 3.545e-10
 83.30332    131.9 1.070e+04 3.192e-10
 83.31439    133.4 1.076e+04 3.752e-10
 83.33470    133.0 1.095e+04 4.854e-10
 83.36777    134.3 1.090e+04 4.571e-10
 83.40838    135.5 1.082e+04 4.152e-10
 83.44899    136.6 1.069e+04 3.589e-10
 83.47339    137.6 1.053e+04 3.090e-10
 83.49370    137.2 1.038e+04 2.506e-10
 83.53021    138.3 1.030e+04 2.469e-10
 83.57083    139.3 1.032e+04 2.546e-10
 83.61144    140.2 1.036e+04 2.720e-10
 83.63239    141.0 1.044e+04 2.977e-10
 83.64666    141.0 1.076e+04 3.821e-10
 83.66632    140.1 1.085e+04 4.413e-10
 83.69266    140.7 1.104e+04 5.316e-10
 83.73327    141.3 1.118e+04 6.148e-10
 83.77109    141.7 1.125e+04 6.734e-10
 83.79139    141.9 1.159e+04 8.730e-10
 83.81449    142.2 1.155e+04 8.592e-10
 83.85510    142.6 1.145e+04 8.139e-10
 83.89571    142.9 1.131e+04 7.475e-10
 83.93009    143.3 1.112e+04 6.394e-10
 83.95039    143.1 1.101e+04 5.780e-10
 83.97693    143.3 1.083e+04 4.957e-10
 84.00901    143.6 1.069e+04 4.413e-10
 84.02932    142.2 1.046e+04 3.785e-10
 84.05816    142.3 1.041e+04 3.640e-10
 84.08908    142.1 1.043e+04 3.693e-10
 84.10939    142.1 1.061e+04 4.318e-10
 84.13938    141.9 1.062e+04 4.263e-10
 84.17999    141.8 1.055e+04 3.926e-10
 84.22060    142.0 1.041e+04 3.332e-10
 84.24808    142.3 1.024e+04 2.752e-10
 84.26839    142.3 1.014e+04 2.461e-10
 84.30182    142.6 1.001e+04 2.194e-10
 84.34243    143.0 1.001e+04 2.201e-10
 84.37201    143.2 1.009e+04 2.259e-10
 84.39232    143.1 1.002e+04 2.246e-10
 84.40708    143.2 1.007e+04 2.264e-10
 84.42739    143.2 1.012e+04 2.474e-10
 84.46426    143.1 1.024e+04 2.572e-10
 84.50488    142.8 1.035e+04 2.606e-10
 84.54549    142.2 1.044e+04 2.607e-10
 84.56608    141.5 1.046e+04 2.570e-10
 84.58639    140.6 1.089e+04 3.425e-10
 84.62671    140.2 1.072e+04 2.917e-10
 84.66732    139.9 1.054e+04 2.479e-10
 84.70478    139.7 1.046e+04 2.363e-10
 84.72508    138.7 1.059e+04 2.503e-10
 84.73501    138.9 1.063e+04 2.571e-10
 84.75532    138.4 1.077e+04 2.790e-10
 84.78915    138.5 1.098e+04 3.146e-10
 84.81951    138.5 1.110e+04 3.537e-10
 84.83972    138.3 1.132e+04 4.382e-10
 84.86003    138.0 1.164e+04 5.854e-10
 84.87373    137.7 1.198e+04 7.738e-10
 84.88389    136.9 1.222e+04 8.920e-10
 84.90064    136.5 1.256e+04 1.144e-09
 84.91632    136.0 1.283e+04 1.396e-09
 84.92647    135.3 1.291e+04 1.463e-09
 84.94125    134.8 1.312e+04 1.705e-09
 84.95323    134.1 1.343e+04 1.999e-09
 84.96339    132.9 1.334e+04 1.739e-09
 84.98186    131.9 1.357e+04 1.803e-09
 85.00216    130.2 1.390e+04 1.917e-09
 85.02247    127.9 1.430e+04 2.220e-09
 85.03273    125.5 1.467e+04 2.851e-09
 85.04289    123.9 1.378e+04 2.036e-09
 85.06308    122.3 1.413e+04 2.703e-09
 85.08339    120.8 1.442e+04 3.073e-09
 85.09781    119.0 1.442e+04 3.005e-09
 85.10636    117.9 1.421e+04 2.700e-09
 85.11223    117.0 1.344e+04 1.890e-09
 85.12400    115.8 1.323e+04 1.763e-09
 85.15455    114.0 1.291e+04 1.439e-09
 85.18178    111.2 1.181e+04 7.464e-10
 85.20208    111.3 1.149e+04 6.690e-10
 85.23587    109.2 1.045e+04 3.555e-10
 85.27648    107.3 9.513e+03 2.219e-10
 85.31709    106.1 9.245e+03 1.958e-10
 85.34078    105.9 9.156e+03 1.866e-10
 85.36108    106.3 9.270e+03 1.959e-10
 85.39831    106.3 9.248e+03 1.911e-10
 85.43893    106.4 9.211e+03 1.823e-10
 85.46101    106.5 9.125e+03 1.637e-10
 85.48125    106.4 9.125e+03 1.691e-10
 85.52008    106.8 9.645e+03 2.569e-10
 85.56076    107.0 9.653e+03 2.555e-10
 85.60137    106.9 9.734e+03 2.648e-10
 85.63847    106.9 9.932e+03 3.005e-10
 85.65868    106.8 1.048e+04 4.653e-10
 85.67224    106.4 1.059e+04 4.984e-10
 85.69255    106.0 1.070e+04 5.475e-10
 85.71285    105.6 1.068e+04 5.582e-10
 85.72793    105.1 1.063e+04 5.428e-10
 85.73808    105.3 1.081e+04 6.354e-10
 85.76371    104.4 1.055e+04 4.680e-10
 85.79747    103.1 1.019e+04 3.598e-10
 85.81705    103.7 1.001e+04 3.110e-10
 85.82401    103.6 1.021e+04 3.366e-10
 85.84503    101.9 9.965e+03 2.938e-10
 85.87539    100.8 9.905e+03 2.982e-10
 85.88693    100.2 9.877e+03 3.044e-10
 85.89708    101.5 9.819e+03 2.860e-10
 85.91591    100.9 9.841e+03 3.067e-10
 85.93621     98.9 1.026e+04 4.133e-10
 85.95139     97.6 1.110e+04 4.909e-10
 85.96125     90.4 1.846e+04 7.823e-10
 85.96633     89.2 2.091e+04 8.654e-10
 85.97165     63.9 3.333e+04 9.369e-09
 85.98180     49.4 2.685e+04 6.152e-08
 85.99196     44.7 2.402e+04 7.628e-08
 86.00014     44.1 2.202e+04 6.529e-08
 86.00411     43.4 2.244e+04 5.086e-08
 86.00608     42.9 2.289e+04 4.519e-08
 86.01226     38.9 3.129e+04 1.161e-08
 86.02241     34.7 3.822e+04 3.674e-09
 86.03572     23.0 3.572e+04 6.684e-10
 86.04593     15.6 3.520e+04 5.181e-10
 86.05805     -7.1 1.365e+04 5.549e-10
 86.08860    -15.6 1.168e+04 4.744e-10
 86.11547    -15.7 1.034e+04 5.199e-10
 86.12552    -18.8 1.068e+04 5.494e-10
 86.13927    -17.8 1.082e+04 5.706e-10
 86.16660    -18.3 1.115e+04 6.647e-10
 86.18691    -17.8 1.064e+04 5.256e-10
 86.19477    -18.4 1.069e+04 5.953e-10
 86.20493    -19.2 1.067e+04 6.300e-10
 86.22049    -19.2 1.073e+04 6.704e-10
 86.24079    -19.8 1.088e+04 7.196e-10
 86.26110    -19.7 1.099e+04 7.405e-10
 86.27427    -19.8 1.095e+04 7.663e-10
 86.28443    -20.9 1.093e+04 7.041e-10
 86.30171    -21.2 1.105e+04 7.161e-10
 86.32202    -22.3 1.131e+04 7.931e-10
 86.34232    -23.4 1.155e+04 9.030e-10
 86.35377    -24.4 1.173e+04 1.130e-09
 86.35946    -25.3 1.155e+04 1.064e-09
 86.36831    -25.0 1.152e+04 1.039e-09
 86.38293    -25.3 1.183e+04 1.234e-09
 86.40324    -25.3 1.203e+04 1.417e-09
 86.42312    -25.3 1.215e+04 1.438e-09
 86.43327    -25.9 1.194e+04 1.285e-09
 86.45410    -27.4 1.197e+04 1.089e-09
 86.49481    -29.1 1.171e+04 8.946e-10
 86.52970    -30.6 1.127e+04 7.115e-10
 86.55001    -30.3 1.153e+04 7.309e-10
 86.57216    -32.2 1.124e+04 4.736e-10
 86.59247    -33.2 1.212e+04 8.406e-10
 86.61664    -36.3 1.160e+04 6.828e-10
 86.65725    -38.8 1.144e+04 7.761e-10
 86.69786    -40.9 1.190e+04 1.082e-09
 86.73116    -42.4 1.224e+04 1.354e-09
 86.75147    -44.3 1.192e+04 1.115e-09
 86.76883    -45.4 1.136e+04 9.358e-10
 86.78904    -46.6 1.112e+04 6.683e-10
 86.80935    -49.3 1.086e+04 4.769e-10
 86.82062    -52.6 1.081e+04 4.184e-10
 86.83077    -53.9 1.070e+04 4.043e-10
 86.84996    -57.6 1.086e+04 4.209e-10
 86.87026    -61.1 1.122e+04 6.145e-10
 86.88997    -63.7 1.155e+04 9.328e-10
 86.90012    -64.2 1.154e+04 9.375e-10
 86.90266    -65.8 1.199e+04 1.281e-09
 86.91281    -67.1 1.245e+04 1.611e-09
 86.93118    -68.7 1.271e+04 1.820e-09
 86.95149    -70.6 1.276e+04 1.869e-09
 86.96947    -72.9 1.225e+04 1.472e-09
 86.97962    -73.1 1.234e+04 1.550e-09
 86.99210    -75.6 1.192e+04 1.318e-09
 87.01240    -77.8 1.170e+04 1.110e-09
 87.03271    -80.0 1.145e+04 8.619e-10
 87.04897    -82.6 1.084e+04 6.135e-10
 87.06937    -83.0 1.094e+04 6.332e-10
 87.10397    -85.6 1.013e+04 4.398e-10
 87.14458    -87.7 9.267e+03 3.108e-10
 87.18519    -88.8 8.910e+03 2.709e-10
 87.20816    -89.4 8.791e+03 2.766e-10
 87.22847    -89.7 8.890e+03 2.953e-10
 87.25570    -90.5 9.437e+03 4.046e-10
 87.27600    -91.8 9.872e+03 5.024e-10
 87.30703    -92.3 1.063e+04 7.553e-10
 87.34685    -93.1 1.113e+04 9.395e-10
 87.36716    -94.0 1.190e+04 1.375e-09
 87.38825    -95.6 1.206e+04 1.457e-09
 87.42886    -97.4 1.181e+04 1.259e-09
 87.46947    -99.3 1.137e+04 1.013e-09
 87.50585   -101.0 1.087e+04 8.392e-10
 87.52616   -101.8 1.067e+04 7.553e-10
 87.55069   -102.4 1.036e+04 6.397e-10
 87.58105   -102.4 1.022e+04 5.829e-10
 87.59531   -102.5 1.021e+04 5.715e-10
 87.60546   -102.7 1.014e+04 5.350e-10
 87.61850   -102.8 1.015e+04 5.305e-10
 87.62865   -103.0 9.865e+03 4.281e-10
 87.64187   -103.2 9.950e+03 4.377e-10
 87.66218   -103.6 1.019e+04 4.937e-10
 87.67481   -103.9 1.031e+04 5.270e-10
 87.68506   -104.0 1.023e+04 5.004e-10
 87.71313   -105.1 1.068e+04 6.501e-10
 87.75375   -106.3 1.130e+04 8.466e-10
 87.78411   -107.4 1.170e+04 9.620e-10
 87.80000   -108.0 1.201e+04 1.056e-09
 87.81015   -107.9 1.187e+04 9.902e-10
 87.82366   -109.8 1.228e+04 1.146e-09
 87.83381   -109.1 1.182e+04 9.078e-10
 87.84492   -110.4 1.207e+04 1.012e-09
 87.86523   -112.4 1.207e+04 1.071e-09
 87.88554   -113.7 1.191e+04 1.066e-09
 87.90316   -114.8 1.172e+04 8.767e-10
 87.91331   -114.0 1.163e+04 8.354e-10
 87.92615   -115.1 1.155e+04 6.388e-10
 87.94645   -116.4 1.132e+04 4.461e-10
 87.96676   -117.8 1.095e+04 3.262e-10
 87.98160   -119.6 1.050e+04 2.493e-10
 87.98744   -118.0 1.067e+04 2.737e-10
 88.00316   -116.4 1.085e+04 3.100e-10
 88.03802   -117.9 1.032e+04 2.101e-10
 88.07863   -119.3 9.888e+03 1.479e-10
 88.11924   -120.1 9.677e+03 1.263e-10
 88.14185   -120.6 9.608e+03 1.227e-10
 88.16216   -119.5 9.666e+03 1.233e-10
 88.20046   -119.9 9.608e+03 1.227e-10
 88.24108   -119.9 9.558e+03 1.283e-10
 88.28055   -119.8 9.544e+03 1.320e-10
 88.30085   -119.0 9.612e+03 1.354e-10
 88.32230   -118.8 9.572e+03 1.359e-10
 88.34469   -118.0 9.415e+03 1.252e-10
 88.36500   -116.8 9.418e+03 1.262e-10
 88.40352   -115.8 9.295e+03 1.130e-10
 88.43955   -114.6 9.224e+03 1.024e-10
 88.45985   -113.8 9.314e+03 1.184e-10
 88.48474   -112.5 9.268e+03 1.107e-10
 88.52535   -111.2 9.225e+03 1.039e-10
 88.56596   -109.7 9.178e+03 9.705e-11
 88.59855   -108.2 9.141e+03 9.055e-11
 88.61885   -107.6 9.266e+03 1.101e-10
 88.64718   -106.1 9.272e+03 1.110e-10
 88.68739   -104.6 9.297e+03 1.139e-10
 88.70769   -103.3 9.236e+03 1.028e-10
 88.72841   -101.8 9.280e+03 1.130e-10
 88.75755   -100.3 9.308e+03 1.227e-10
 88.77785    -99.7 9.479e+03 1.687e-10
 88.80963    -98.0 9.492e+03 1.765e-10
 88.85024    -96.4 9.515e+03 1.888e-10
 88.89085    -94.7 9.573e+03 2.144e-10
 88.91655    -93.2 9.699e+03 2.572e-10
 88.93685    -92.4 9.792e+03 2.849e-10
 88.97207    -91.0 9.947e+03 3.308e-10
 89.01268    -89.8 1.019e+04 3.984e-10
 89.05039    -89.0 1.052e+04 5.036e-10
 89.07069    -88.2 1.056e+04 5.128e-10
 89.07555    -87.8 1.078e+04 5.770e-10
 89.09585    -87.0 1.083e+04 6.093e-10
 89.13451    -86.7 1.108e+04 6.903e-10
 89.17513    -86.6 1.127e+04 7.568e-10
 89.21424    -87.0 1.130e+04 7.722e-10
 89.23454    -85.9 1.129e+04 7.598e-10
 89.25635    -86.2 1.108e+04 6.468e-10
 89.29696    -86.2 1.078e+04 4.697e-10
 89.33757    -86.2 1.061e+04 3.532e-10
 89.37324    -86.9 1.061e+04 3.286e-10
 89.39354    -86.7 1.095e+04 4.496e-10
 89.41339    -90.3 1.211e+04 5.771e-10
 89.43359    -91.4 1.270e+04 7.262e-10
 89.44905    -93.8 1.369e+04 1.203e-09
 89.46270    -95.4 1.492e+04 3.070e-09
 89.47285    -95.3 1.530e+04 3.970e-09
 89.48966    -95.3 1.617e+04 6.609e-09
 89.50997    -95.6 1.657e+04 7.748e-09
 89.53028    -96.5 1.656e+04 7.669e-09
 89.54220    -97.4 1.600e+04 5.481e-09
 89.55235    -97.3 1.579e+04 4.871e-09
 89.57089    -99.2 1.484e+04 2.898e-09
 89.59119   -101.7 1.398e+04 1.970e-09
 89.60484   -103.4 1.343e+04 1.593e-09
 89.61500   -103.6 1.357e+04 1.609e-09
 89.63180   -104.0 1.330e+04 1.437e-09
 89.65211   -104.9 1.321e+04 1.379e-09
 89.67241   -105.7 1.318e+04 1.368e-09
 89.69104   -106.3 1.318e+04 1.417e-09
 89.70120   -105.8 1.316e+04 1.357e-09
 89.71302   -106.0 1.309e+04 1.391e-09
 89.73333   -106.0 1.304e+04 1.406e-09
 89.75364   -105.8 1.291e+04 1.406e-09
 89.77054   -105.2 1.262e+04 1.316e-09
 89.78070   -105.0 1.260e+04 1.197e-09
 89.78634   -104.4 1.237e+04 1.072e-09
 89.79649   -104.6 1.217e+04 8.949e-10
 89.81455   -104.0 1.199e+04 8.328e-10
 89.83486   -103.4 1.183e+04 7.761e-10
 89.85004   -102.7 1.170e+04 7.285e-10
 89.86020   -102.4 1.176e+04 7.234e-10
 89.87547   -101.6 1.167e+04 7.177e-10
 89.89577   -100.8 1.164e+04 7.117e-10
 89.91608    -99.9 1.159e+04 7.132e-10
 89.92954    -98.9 1.154e+04 7.126e-10
 89.93970    -98.5 1.165e+04 7.401e-10
 89.95669    -97.5 1.164e+04 7.488e-10
 89.96784    -96.5 1.160e+04 7.367e-10
 89.97799    -96.5 1.152e+04 7.145e-10
 89.99730    -95.6 1.144e+04 6.576e-10
 90.00914    -94.9 1.131e+04 5.882e-10
 90.01929    -94.2 1.152e+04 6.938e-10
 90.03791    -93.3 1.150e+04 6.829e-10
 90.06847    -92.2 1.163e+04 7.322e-10
 90.10918    -90.2 1.155e+04 7.363e-10
 90.13938    -88.3 1.146e+04 7.424e-10
 90.15783    -88.0 1.119e+04 6.069e-10
 90.16824    -87.3 1.159e+04 7.262e-10
 90.19040    -85.6 1.162e+04 8.193e-10
 90.23101    -84.0 1.164e+04 9.122e-10
 90.27162    -82.4 1.158e+04 9.549e-10
 90.30693    -80.9 1.142e+04 9.281e-10
 90.32724    -80.1 1.150e+04 9.728e-10
 90.35284    -78.4 1.127e+04 8.877e-10
 90.39345    -76.6 1.103e+04 7.899e-10
 90.43406    -74.6 1.079e+04 6.974e-10
 90.46593    -72.6 1.056e+04 6.127e-10
 90.48624    -71.4 1.077e+04 7.081e-10
 90.50238    -69.2 1.064e+04 6.594e-10
 90.52269    -69.1 1.094e+04 7.749e-10
 90.55590    -67.0 1.072e+04 6.581e-10
 90.59651    -65.0 1.047e+04 5.363e-10
 90.62493    -63.1 1.020e+04 4.355e-10
 90.64524    -61.6 1.060e+04 5.865e-10
 90.67773    -59.7 1.040e+04 5.176e-10
 90.71834    -58.0 1.019e+04 4.549e-10
 90.75895    -56.4 9.997e+03 4.076e-10
 90.78393    -54.8 9.873e+03 3.722e-10
 90.80424    -53.2 1.034e+04 4.937e-10
 90.84017    -52.0 1.017e+04 4.415e-10
 90.86538    -50.9 1.009e+04 3.966e-10
 90.88569    -51.1 1.026e+04 3.968e-10
 90.91114    -50.3 1.014e+04 3.677e-10
 90.93135    -50.2 1.012e+04 3.592e-10
 90.94273    -50.1 1.011e+04 3.564e-10
 90.95289    -49.7 1.039e+04 4.597e-10
 90.97196    -49.5 1.038e+04 4.538e-10
 90.99227    -49.3 1.035e+04 4.527e-10
 91.01208    -48.9 1.027e+04 4.569e-10
 91.02223    -48.5 1.084e+04 5.856e-10
 91.03288    -48.2 1.072e+04 5.189e-10
 91.04669    -48.2 1.045e+04 4.779e-10
 91.05684    -48.5 1.064e+04 5.031e-10
 91.08153    -48.5 1.010e+04 4.436e-10
 91.10193    -47.8 1.112e+04 6.485e-10
 91.12445    -47.4 1.055e+04 5.505e-10
 91.16506    -46.2 1.012e+04 4.978e-10
 91.20567    -44.8 9.979e+03 4.863e-10
 91.22838    -43.4 1.002e+04 5.106e-10
 91.24303    -43.6 1.013e+04 5.434e-10
 91.26093    -42.8 9.976e+03 4.768e-10
 91.28689    -41.4 9.774e+03 3.923e-10
 91.32750    -40.2 9.706e+03 3.722e-10
 91.36811    -39.0 9.772e+03 3.995e-10
 91.39962    -37.7 9.929e+03 4.897e-10
 91.41993    -37.0 9.596e+03 3.473e-10
 91.44933    -35.6 9.790e+03 4.590e-10
 91.48995    -33.7 1.001e+04 5.635e-10
 91.53056    -32.0 1.007e+04 6.082e-10
 91.55862    -30.4 1.005e+04 6.024e-10
 91.57884    -29.3 9.618e+03 4.197e-10
 91.61168    -28.0 9.407e+03 3.256e-10
 91.65239    -26.7 9.296e+03 2.928e-10
 91.69300    -25.5 9.239e+03 2.836e-10
 91.71762    -24.2 9.246e+03 2.908e-10
 91.73793    -23.4 8.833e+03 1.736e-10
 91.77422    -22.2 8.891e+03 1.920e-10
 91.81483    -20.7 8.943e+03 1.988e-10
 91.85544    -19.7 8.929e+03 1.811e-10
 91.87662    -19.5 8.921e+03 1.721e-10
 91.89693    -19.5 8.898e+03 1.710e-10
 91.93407    -19.5 8.832e+03 1.732e-10
 91.95438    -19.9 8.797e+03 1.790e-10
 91.97728    -19.1 8.636e+03 1.852e-10
 92.01532    -17.8 8.464e+03 1.600e-10
 92.03562    -17.5 8.363e+03 1.332e-10
 92.05850    -17.2 8.281e+03 8.670e-11
 92.09911    -17.7 8.176e+03 7.072e-11
 92.13972    -17.9 8.244e+03 8.074e-11
 92.17432    -17.5 8.306e+03 1.363e-10
 92.19462    -17.2 8.253e+03 1.078e-10
 92.22094    -16.0 8.526e+03 1.819e-10
 92.26155    -15.1 9.066e+03 2.585e-10
 92.29707    -15.9 9.693e+03 3.237e-10
 92.31738    -15.7 9.606e+03 2.796e-10
 92.33332    -18.0 1.010e+04 4.632e-10
 92.35362    -16.9 1.033e+04 5.606e-10
 92.38338    -17.6 1.051e+04 8.193e-10
 92.42400    -17.4 1.064e+04 9.084e-10
 92.46461    -17.4 1.023e+04 6.244e-10
 92.49232    -18.2 9.460e+03 3.405e-10
 92.51262    -17.4 9.388e+03 3.315e-10
 92.54583    -17.3 8.905e+03 2.138e-10
 92.58644    -16.6 8.614e+03 1.472e-10
 92.62705    -15.9 8.525e+03 1.287e-10
 92.65131    -14.6 8.526e+03 1.384e-10
 92.66403    -13.4 8.355e+03 1.025e-10
 92.68038    -12.8 8.170e+03 7.090e-11
 92.70827    -11.5 8.154e+03 6.844e-11
 92.74888    -10.0 8.182e+03 7.157e-11
 92.78949     -8.7 8.274e+03 8.141e-11
 92.81031     -7.5 8.377e+03 9.715e-11
 92.83062     -7.1 8.322e+03 8.878e-11
 92.87071     -5.7 8.348e+03 1.124e-10
 92.91133     -4.0 8.417e+03 1.318e-10
 92.94901     -2.5 8.517e+03 1.359e-10
 92.96931     -1.3 8.466e+03 1.306e-10
 92.99255     -0.1 8.569e+03 1.182e-10
 93.02307      0.7 8.565e+03 1.162e-10
 93.04337      1.6 8.491e+03 1.070e-10
 93.07377      2.6 8.516e+03 1.211e-10
 93.10801      3.8 8.578e+03 1.451e-10
 93.12831      4.3 8.635e+03 1.493e-10
 93.15499      5.3 8.816e+03 1.997e-10
 93.19560      5.9 9.021e+03 2.348e-10
 93.23621      5.2 9.552e+03 3.096e-10
 93.26701      3.2 1.029e+04 5.164e-10
 93.28731      3.6 1.048e+04 5.518e-10
 93.31743      0.9 1.110e+04 8.536e-10
 93.34641     -0.4 1.131e+04 1.136e-09
 93.35647     -0.3 1.141e+04 1.086e-09
 93.36800     -1.3 1.116e+04 1.046e-09
 93.38587     -1.8 1.079e+04 8.658e-10
 93.39603     -1.2 1.101e+04 1.013e-09
 93.40861     -1.6 1.068e+04 7.482e-10
 93.42581     -2.9 1.054e+04 4.771e-10
 93.43596     -3.1 1.035e+04 3.963e-10
 93.44922     -3.8 1.023e+04 3.428e-10
 93.47978     -4.5 9.882e+03 2.540e-10
 93.52049     -4.5 9.646e+03 2.115e-10
 93.56110     -4.1 9.577e+03 1.818e-10
 93.58501     -3.7 9.714e+03 1.369e-10
 93.60531     -3.3 9.849e+03 1.741e-10
 93.64232     -3.2 9.962e+03 1.534e-10
 93.68293     -3.9 1.002e+04 1.560e-10
 93.72354     -4.7 9.884e+03 2.003e-10
 93.74897     -4.7 1.028e+04 4.194e-10
 93.75902     -4.6 1.030e+04 4.461e-10
 93.77411     -4.7 1.032e+04 4.553e-10
 93.80467     -4.3 1.033e+04 4.738e-10
 93.84538     -4.2 1.029e+04 2.802e-10
 93.88270     -6.2 1.019e+04 1.645e-10
 93.90301     -7.9 1.029e+04 3.039e-10
 93.92660     -8.7 9.870e+03 3.012e-10
 93.96721     -8.5 9.906e+03 3.636e-10
 94.00782     -7.0 9.990e+03 4.384e-10
 94.04170     -6.0 1.006e+04 4.065e-10
 94.06201     -7.0 9.660e+03 2.350e-10
 94.08904     -6.9 9.655e+03 1.927e-10
 94.11207     -7.4 9.518e+03 1.858e-10
 94.13237     -6.7 9.356e+03 1.494e-10
 94.17026     -6.4 9.330e+03 2.116e-10
 94.20070     -5.1 9.525e+03 3.094e-10
 94.22101     -5.1 9.444e+03 2.888e-10
 94.25148     -3.6 9.896e+03 3.738e-10
 94.28010     -3.1 1.010e+04 4.221e-10
 94.29016     -3.1 1.006e+04 4.026e-10
 94.29337     -3.2 1.011e+04 4.149e-10
 94.30352     -3.1 1.022e+04 4.545e-10
 94.32236     -3.1 1.042e+04 6.168e-10
 94.34266     -3.1 1.073e+04 7.405e-10
 94.35950     -2.6 1.100e+04 9.813e-10
 94.36966     -2.7 1.087e+04 9.120e-10
 94.38327     -2.5 1.114e+04 1.020e-09
 94.40358     -1.3 1.140e+04 1.253e-09
 94.42389     -1.1 1.143e+04 1.261e-09
 94.45444     -0.2 1.149e+04 1.136e-09
 94.47506      0.6 1.129e+04 7.935e-10
 94.49537     -0.6 1.131e+04 7.748e-10
 94.51870     -0.8 1.081e+04 5.547e-10
 94.53900     -0.5 1.065e+04 5.425e-10
 94.57637      0.3 1.015e+04 4.206e-10
 94.61698      1.7 9.833e+03 2.995e-10
 94.65739      3.0 9.670e+03 1.913e-10
 94.67770      3.6 9.449e+03 1.524e-10
 94.69820      4.6 9.348e+03 9.221e-11
 94.73881      5.4 9.150e+03 6.460e-11
 94.77943      6.0 9.114e+03 5.204e-11
 94.81639      7.1 9.028e+03 4.936e-11
 94.83442      8.2 8.944e+03 4.612e-11
 94.83806      7.5 8.984e+03 5.361e-11
 94.86065      8.7 8.985e+03 5.911e-11
 94.90126     10.2 8.977e+03 6.827e-11
 94.94187     11.6 9.010e+03 7.620e-11
 94.97539     12.8 9.040e+03 8.566e-11
 94.99570     13.8 9.060e+03 8.309e-11
 95.02309     14.9 9.030e+03 9.559e-11
 95.06370     16.0 9.032e+03 1.089e-10
 95.10431     17.1 9.069e+03 1.249e-10
 95.13439     17.9 9.111e+03 1.474e-10
 95.15470     19.1 9.084e+03 1.206e-10
 95.18076     19.9 9.108e+03 1.431e-10
 95.20106     19.2 8.951e+03 1.307e-10
 95.22614     20.2 8.941e+03 1.420e-10
 95.26676     21.0 8.908e+03 1.499e-10
 95.29339     21.8 8.805e+03 1.578e-10
 95.31370     23.1 8.841e+03 1.341e-10
 95.34798     23.9 8.852e+03 1.382e-10
 95.38859     24.6 8.931e+03 1.464e-10
 95.42920     24.8 9.154e+03 1.813e-10
 95.45239     25.3 9.349e+03 2.508e-10
 95.47270     26.1 9.445e+03 2.606e-10
 95.51042     26.9 9.662e+03 3.203e-10
 95.54376     27.9 9.665e+03 2.986e-10
 95.56406     28.2 9.671e+03 3.100e-10
 95.59109     28.5 9.574e+03 2.493e-10
 95.61139     29.6 9.856e+03 3.335e-10
 95.63225     29.4 9.853e+03 2.950e-10
 95.67286     29.2 9.862e+03 3.082e-10
 95.71348     29.6 9.750e+03 2.962e-10
 95.75009     30.9 9.473e+03 2.342e-10
 95.77039     31.5 9.587e+03 2.396e-10
 95.79470     32.3 9.467e+03 1.577e-10
 95.83531     32.5 9.412e+03 1.073e-10
 95.87592     33.1 9.334e+03 1.010e-10
 95.90675     33.8 9.393e+03 1.100e-10
 95.91962     34.3 9.421e+03 1.069e-10
 95.92939     34.7 9.543e+03 1.108e-10
 95.95714     35.6 9.684e+03 1.354e-10
 95.99775     36.7 9.951e+03 1.986e-10
 96.03836     37.8 1.033e+04 2.940e-10
 96.06808     38.8 1.077e+04 3.662e-10
 96.08839     39.3 1.078e+04 4.103e-10
 96.10933     39.8 1.100e+04 4.453e-10
 96.12954     40.0 1.116e+04 4.584e-10
 96.14739     39.8 1.151e+04 4.755e-10
 96.15754     39.8 1.155e+04 5.653e-10
 96.17015     39.4 1.206e+04 6.358e-10
 96.19046     38.8 1.241e+04 7.254e-10
 96.21076     38.4 1.249e+04 8.196e-10
 96.22689     38.1 1.243e+04 9.036e-10
 96.23704     38.9 1.280e+04 1.073e-09
 96.25137     38.3 1.277e+04 1.053e-09
 96.26966     38.8 1.228e+04 8.388e-10
 96.29006     37.1 1.260e+04 9.791e-10
 96.30649     37.6 1.200e+04 7.627e-10
 96.31654     37.8 1.201e+04 6.728e-10
 96.33260     37.5 1.194e+04 5.833e-10
 96.36315     37.4 1.167e+04 4.698e-10
 96.38608     38.0 1.147e+04 3.448e-10
 96.40639     37.7 1.101e+04 2.127e-10
 96.44447     39.0 1.084e+04 1.944e-10
 96.48508     40.6 1.067e+04 1.909e-10
 96.52478     42.5 1.066e+04 1.948e-10
 96.54508     43.3 1.058e+04 1.940e-10
 96.56630     45.0 1.065e+04 2.062e-10
 96.60691     46.3 1.080e+04 2.512e-10
 96.63275     47.9 1.100e+04 3.679e-10
 96.65306     47.0 1.089e+04 3.436e-10
 96.68378     48.7 1.100e+04 4.479e-10
 96.70408     49.5 1.078e+04 3.026e-10
 96.72875     50.9 1.071e+04 3.034e-10
 96.76936     52.5 1.053e+04 2.866e-10
 96.80997     54.0 1.030e+04 2.480e-10
 96.84278     55.6 1.022e+04 2.303e-10
 96.86308     56.5 9.977e+03 1.366e-10
 96.89119     58.3 9.972e+03 1.380e-10
 96.93180     60.1 1.001e+04 1.469e-10
 96.97241     62.0 1.007e+04 1.775e-10
 96.99575     64.4 1.040e+04 2.650e-10
 97.00481     63.6 1.038e+04 2.629e-10
 97.02208     64.4 9.912e+03 1.723e-10
 97.05363     67.1 1.035e+04 2.915e-10
 97.08118     68.1 1.070e+04 3.951e-10
 97.09123     68.4 1.048e+04 3.686e-10
 97.10420     69.4 1.052e+04 4.411e-10
 97.12451     70.7 1.074e+04 5.689e-10
 97.14481     71.4 1.135e+04 7.823e-10
 97.16058     71.4 1.217e+04 1.121e-09
 97.17073     72.2 1.164e+04 6.984e-10
 97.17706     72.4 1.244e+04 1.038e-09
 97.18721     71.9 1.244e+04 1.031e-09
 97.20573     72.2 1.312e+04 1.561e-09
 97.22603     72.6 1.365e+04 2.392e-09
 97.24008     73.4 1.396e+04 3.413e-09
 97.25023     73.9 1.349e+04 2.050e-09
 97.26665     74.4 1.374e+04 2.644e-09
 97.28695     74.7 1.369e+04 2.686e-09
 97.30726     75.1 1.336e+04 2.495e-09
 97.31958     75.7 1.280e+04 1.958e-09
 97.32973     75.8 1.268e+04 1.526e-09
 97.34787     76.2 1.213e+04 1.209e-09
 97.35855     76.5 1.172e+04 8.904e-10
 97.36871     75.9 1.172e+04 9.092e-10
 97.38848     75.9 1.142e+04 6.804e-10
 97.39908     75.7 1.177e+04 5.837e-10
 97.40923     77.0 1.131e+04 5.837e-10
 97.42909     76.9 1.148e+04 5.103e-10
 97.44939     77.0 1.155e+04 5.104e-10
 97.46843     77.1 1.161e+04 5.298e-10
 97.47858     78.6 1.141e+04 4.895e-10
 97.49001     78.6 1.168e+04 5.348e-10
 97.51031     79.0 1.167e+04 5.669e-10
 97.52990     79.3 1.186e+04 6.480e-10
 97.54005     78.9 1.192e+04 6.801e-10
 97.54793     79.1 1.190e+04 7.070e-10
 97.55808     80.5 1.187e+04 6.566e-10
 97.58148     80.9 1.191e+04 7.009e-10
 97.61747     81.6 1.182e+04 7.761e-10
 97.63768     82.8 1.174e+04 6.956e-10
 97.65245     82.9 1.169e+04 7.463e-10
 97.67275     83.1 1.153e+04 8.116e-10
 97.70135     84.8 1.175e+04 9.001e-10
 97.72175     83.6 1.156e+04 8.956e-10
 97.74402     84.9 1.164e+04 1.054e-09
 97.77647     86.4 1.178e+04 1.208e-09
 97.79668     87.5 1.184e+04 1.236e-09
 97.82514     88.7 1.225e+04 1.535e-09
 97.86585     89.7 1.248e+04 1.752e-09
 97.90646     90.3 1.255e+04 1.821e-09
 97.93547     90.8 1.246e+04 1.718e-09
 97.94552     90.7 1.251e+04 1.749e-09
 97.95703     90.8 1.239e+04 1.602e-09
 97.97734     90.8 1.224e+04 1.369e-09
 97.99764     90.6 1.204e+04 1.160e-09
 98.01477     90.2 1.188e+04 1.025e-09
 98.02493     90.3 1.219e+04 1.244e-09
 98.03825     89.8 1.196e+04 1.157e-09
 98.05856     89.5 1.174e+04 1.119e-09
 98.07440     89.3 1.154e+04 1.075e-09
 98.08465     87.8 1.080e+04 7.696e-10
 98.09447     87.9 1.044e+04 6.903e-10
 98.11477     88.9 1.111e+04 1.012e-09
 98.15013     89.3 1.063e+04 8.214e-10
 98.19074     89.9 1.025e+04 6.836e-10
 98.23135     90.7 1.002e+04 6.182e-10
 98.25347     91.5 1.003e+04 6.225e-10
 98.27377     92.4 1.024e+04 7.432e-10
 98.31257     93.2 1.033e+04 7.854e-10
 98.35318     93.8 1.070e+04 9.679e-10
 98.39216     94.3 1.134e+04 1.301e-09
 98.41247     95.7 1.124e+04 1.259e-09
 98.42744     96.0 1.161e+04 1.490e-09
 98.44775     96.0 1.096e+04 1.116e-09
 98.47501     96.3 1.105e+04 1.145e-09
 98.51563     96.6 1.098e+04 1.083e-09
 98.55116     96.9 1.079e+04 9.385e-10
 98.57147     98.8 1.020e+04 6.738e-10
 98.59685     99.3 9.924e+03 5.330e-10
 98.63746     99.7 9.761e+03 4.603e-10
 98.67807    100.5 9.637e+03 4.461e-10
 98.71016    101.8 9.486e+03 4.068e-10
 98.73047    103.7 9.109e+03 3.139e-10
 98.75929    105.1 9.108e+03 3.116e-10
 98.79044    106.5 9.156e+03 3.120e-10
 98.81075    106.6 9.251e+03 3.373e-10
 98.84051    107.7 9.434e+03 3.657e-10
 98.86916    108.3 9.600e+03 4.141e-10
 98.87922    109.5 9.555e+03 3.961e-10
 98.89108    109.5 9.591e+03 4.193e-10
 98.91139    110.1 9.766e+03 4.894e-10
 98.93169    110.6 9.925e+03 5.532e-10
 98.94847    111.3 1.017e+04 6.331e-10
 98.95862    111.9 1.033e+04 7.037e-10
 98.97174    112.1 1.042e+04 7.301e-10
 98.98190    111.9 1.060e+04 8.201e-10
 99.00286    112.3 1.036e+04 6.995e-10
 99.02816    112.7 1.022e+04 5.934e-10
 99.03822    113.1 1.084e+04 8.572e-10
 99.05352    113.0 1.060e+04 7.466e-10
 99.07383    113.2 1.021e+04 5.324e-10
 99.09413    113.1 9.943e+03 4.204e-10
 99.12469    113.6 9.517e+03 2.744e-10
 99.15344    113.5 8.845e+03 1.245e-10
 99.17374    113.2 8.815e+03 1.322e-10
 99.18716    113.0 8.394e+03 7.660e-11
 99.20747    113.5 8.707e+03 1.331e-10
 99.24662    114.0 8.477e+03 1.009e-10
 99.28723    115.2 8.478e+03 9.856e-11
 99.32585    116.5 8.516e+03 1.016e-10
 99.34616    117.0 8.812e+03 1.478e-10
 99.36845    118.1 8.866e+03 1.511e-10
 99.40906    119.0 8.992e+03 1.613e-10
 99.44968    119.8 9.157e+03 1.782e-10
 99.48485    120.4 9.398e+03 2.026e-10
 99.50516    119.9 9.512e+03 2.183e-10
 99.51644    120.3 9.706e+03 2.289e-10
 99.53674    121.1 9.708e+03 2.309e-10
 99.57151    121.5 9.932e+03 2.503e-10
 99.61212    121.8 1.005e+04 2.718e-10
 99.64248    121.7 1.019e+04 3.164e-10
 99.65381    121.8 1.042e+04 3.867e-10
 99.66396    121.4 1.047e+04 4.068e-10
 99.68299    121.3 1.087e+04 5.216e-10
 99.69774    120.8 1.157e+04 7.184e-10
 99.70789    121.2 1.193e+04 8.388e-10
 99.72316    119.9 1.306e+04 1.370e-09
 99.73331    118.6 1.336e+04 1.842e-09
 99.74391    118.0 1.409e+04 2.736e-09
 99.76421    117.6 1.469e+04 3.668e-09
 99.78452    117.0 1.510e+04 4.381e-09
 99.80266    116.2 1.542e+04 4.619e-09
 99.81281    116.0 1.469e+04 2.954e-09
 99.82513    114.6 1.489e+04 2.434e-09
 99.84544    112.7 1.491e+04 2.220e-09
 99.86574    110.7 1.495e+04 2.279e-09
 99.87924    108.7 1.507e+04 2.614e-09
 99.88551    107.4 1.530e+04 1.730e-09
 99.89231    107.5 1.305e+04 6.486e-10
 99.90635    106.5 1.395e+04 9.465e-10
 99.92666    105.9 1.457e+04 1.530e-09
 99.94696    105.5 1.489e+04 2.390e-09
 99.96166    105.6 1.509e+04 3.473e-09
 99.97181    106.0 1.421e+04 1.545e-09
 99.98757    106.0 1.453e+04 2.330e-09
100.00788    106.2 1.472e+04 3.259e-09
