# Columns:
#   distance along LOS (in CHIMPs)
#   peculiar velocity  (in km/s)
#   temperature (K)
#   HI number density
# pos=(139.744,239.098,117.706), angles=(1.43215,1.57394)
  0.01215     -8.4 1.112e+04 5.783e-10
  0.03706     -8.2 1.102e+04 4.854e-10
  0.05679     -7.7 1.102e+04 4.973e-10
  0.08347     -7.6 1.077e+04 3.407e-10
  0.12291     -8.0 1.058e+04 2.603e-10
  0.16235     -8.2 1.052e+04 2.430e-10
  0.20179     -8.1 1.063e+04 2.535e-10
  0.24123     -7.9 1.072e+04 2.903e-10
  0.28067     -7.5 1.076e+04 3.232e-10
  0.31643     -7.2 1.096e+04 3.337e-10
  0.33615     -5.5 1.100e+04 3.642e-10
  0.35956     -5.1 1.113e+04 3.630e-10
  0.39900     -4.7 1.136e+04 3.800e-10
  0.42848     -5.6 1.150e+04 3.864e-10
  0.44810     -5.7 1.154e+04 3.970e-10
  0.46577     -5.6 1.178e+04 4.576e-10
  0.47563     -5.0 1.186e+04 4.836e-10
  0.48755     -5.2 1.197e+04 5.312e-10
  0.50727     -5.1 1.213e+04 5.949e-10
  0.52699     -5.1 1.217e+04 6.399e-10
  0.54671     -5.0 1.225e+04 6.862e-10
  0.56643     -5.0 1.230e+04 7.093e-10
  0.58615     -4.4 1.249e+04 7.369e-10
  0.60546     -4.4 1.251e+04 7.403e-10
  0.61541     -3.3 1.249e+04 7.475e-10
  0.63565     -2.7 1.268e+04 7.826e-10
  0.66513     -2.7 1.277e+04 7.884e-10
  0.68475     -2.9 1.265e+04 7.892e-10
  0.70447     -2.7 1.256e+04 7.870e-10
  0.72419     -2.7 1.255e+04 7.539e-10
  0.74391     -2.5 1.255e+04 7.479e-10
  0.75500     -2.9 1.291e+04 7.629e-10
  0.76486     -2.0 1.283e+04 6.939e-10
  0.78335     -4.5 1.399e+04 9.363e-10
  0.80308     -7.4 1.446e+04 1.695e-09
  0.82280     -8.3 1.459e+04 3.055e-09
  0.84252     -8.1 1.500e+04 4.514e-09
  0.86224     -7.7 1.516e+04 4.963e-09
  0.88196     -7.5 1.481e+04 4.102e-09
  0.89468     -7.8 1.392e+04 2.094e-09
  0.90454     -7.2 1.422e+04 2.244e-09
  0.92140     -9.9 1.318e+04 1.134e-09
  0.94112    -12.2 1.219e+04 8.140e-10
  0.96084    -13.0 1.186e+04 7.457e-10
  0.98056    -13.4 1.183e+04 7.383e-10
  1.00028    -14.0 1.195e+04 8.352e-10
  1.02000    -14.5 1.206e+04 1.045e-09
  1.03436    -14.7 1.215e+04 1.279e-09
  1.04422    -14.5 1.229e+04 1.363e-09
  1.05944    -14.5 1.235e+04 1.532e-09
  1.07916    -14.5 1.234e+04 1.575e-09
  1.09888    -14.4 1.221e+04 1.497e-09
  1.11861    -14.4 1.188e+04 1.183e-09
  1.13833    -14.6 1.153e+04 9.529e-10
  1.15805    -14.6 1.121e+04 7.681e-10
  1.17404    -14.6 1.093e+04 6.077e-10
  1.18390    -14.4 1.095e+04 6.395e-10
  1.19749    -14.3 1.069e+04 4.874e-10
  1.22717    -14.2 1.039e+04 3.715e-10
  1.26670    -13.0 1.003e+04 2.816e-10
  1.30615    -11.6 9.828e+03 2.351e-10
  1.34559    -10.1 9.813e+03 2.303e-10
  1.38503     -8.6 9.890e+03 2.407e-10
  1.42447     -7.3 9.958e+03 2.687e-10
  1.45360     -5.8 1.001e+04 2.955e-10
  1.47332     -5.2 1.007e+04 3.359e-10
  1.50335     -3.6 1.021e+04 3.859e-10
  1.54279     -2.2 1.030e+04 4.026e-10
  1.58223     -1.0 1.034e+04 4.077e-10
  1.62168      0.1 1.041e+04 4.129e-10
  1.66112      1.2 1.049e+04 4.162e-10
  1.70056      2.3 1.060e+04 4.316e-10
  1.73296      3.4 1.074e+04 4.567e-10
  1.75268      3.7 1.083e+04 5.000e-10
  1.77944      4.5 1.100e+04 5.422e-10
  1.81888      5.4 1.118e+04 5.831e-10
  1.85832      6.3 1.120e+04 5.956e-10
  1.89776      7.3 1.124e+04 5.545e-10
  1.93721      8.1 1.119e+04 4.739e-10
  1.97665      8.7 1.110e+04 4.152e-10
  2.01232      9.4 1.107e+04 3.811e-10
  2.03204      9.2 1.103e+04 3.853e-10
  2.05553      9.9 1.105e+04 3.559e-10
  2.09497     10.5 1.107e+04 3.316e-10
  2.13441     11.1 1.105e+04 3.049e-10
  2.17385     11.9 1.105e+04 2.710e-10
  2.21329     12.6 1.106e+04 2.286e-10
  2.25273     13.1 1.112e+04 1.927e-10
  2.29169     13.5 1.116e+04 1.816e-10
  2.31141     13.5 1.124e+04 2.073e-10
  2.33162     13.7 1.137e+04 2.547e-10
  2.37106     14.0 1.141e+04 3.576e-10
  2.41050     14.6 1.154e+04 4.885e-10
  2.44994     15.4 1.173e+04 5.666e-10
  2.48938     16.0 1.174e+04 5.628e-10
  2.52882     16.8 1.168e+04 4.348e-10
  2.56826     17.5 1.148e+04 2.918e-10
  2.59077     18.3 1.131e+04 1.971e-10
  2.61049     17.8 1.132e+04 2.113e-10
  2.64715     19.2 1.118e+04 1.618e-10
  2.68659     21.0 1.112e+04 1.293e-10
  2.72603     22.7 1.113e+04 1.069e-10
  2.76547     24.1 1.113e+04 9.792e-11
  2.80491     25.6 1.125e+04 1.003e-10
  2.84435     26.7 1.114e+04 1.304e-10
  2.87013     28.6 1.105e+04 1.751e-10
  2.88985     28.1 1.109e+04 1.862e-10
  2.92324     29.9 1.120e+04 2.213e-10
  2.96268     31.3 1.133e+04 2.401e-10
  3.00212     32.4 1.137e+04 2.518e-10
  3.04156     33.4 1.133e+04 2.653e-10
  3.08100     34.6 1.133e+04 2.569e-10
  3.12044     35.2 1.142e+04 2.262e-10
  3.14950     35.5 1.137e+04 2.227e-10
  3.16922     34.3 1.136e+04 2.513e-10
  3.19932     34.7 1.125e+04 2.491e-10
  3.23876     35.6 1.114e+04 2.293e-10
  3.27821     37.0 1.103e+04 1.923e-10
  3.31765     38.4 1.091e+04 1.555e-10
  3.35709     39.6 1.089e+04 1.251e-10
  3.39653     40.7 1.084e+04 1.139e-10
  3.42886     42.0 1.080e+04 1.167e-10
  3.44858     41.4 1.077e+04 1.307e-10
  3.47541     43.0 1.071e+04 1.486e-10
  3.51485     45.0 1.067e+04 1.668e-10
  3.55429     46.9 1.072e+04 1.791e-10
  3.59374     48.8 1.080e+04 1.864e-10
  3.63318     50.5 1.086e+04 1.945e-10
  3.67262     52.2 1.088e+04 2.035e-10
  3.70822     53.7 1.099e+04 2.123e-10
  3.72794     53.3 1.094e+04 2.080e-10
  3.75150     55.0 1.095e+04 2.069e-10
  3.79094     56.7 1.092e+04 1.971e-10
  3.83038     58.5 1.087e+04 1.782e-10
  3.86982     60.3 1.087e+04 1.567e-10
  3.90927     62.1 1.093e+04 1.310e-10
  3.94871     63.9 1.096e+04 1.134e-10
  3.98758     65.7 1.097e+04 1.096e-10
  4.00730     65.6 1.091e+04 1.214e-10
  4.02759     67.5 1.095e+04 1.252e-10
  4.06703     69.5 1.102e+04 1.338e-10
  4.10647     71.4 1.108e+04 1.453e-10
  4.14591     73.3 1.113e+04 1.594e-10
  4.18535     75.0 1.119e+04 1.785e-10
  4.22479     76.7 1.128e+04 1.975e-10
  4.26424     78.3 1.135e+04 2.110e-10
  4.28667     79.7 1.139e+04 2.266e-10
  4.30639     79.5 1.140e+04 2.208e-10
  4.34312     81.0 1.145e+04 2.444e-10
  4.38256     82.5 1.152e+04 2.820e-10
  4.42200     84.0 1.162e+04 3.333e-10
  4.46144     85.5 1.168e+04 3.872e-10
  4.50088     86.8 1.176e+04 4.584e-10
  4.54032     87.9 1.197e+04 6.033e-10
  4.56603     88.7 1.233e+04 9.026e-10
  4.58575     88.1 1.262e+04 1.024e-09
  4.61921     88.6 1.310e+04 1.508e-09
  4.65865     89.0 1.348e+04 1.963e-09
  4.68813     89.2 1.367e+04 2.201e-09
  4.70552     88.9 1.391e+04 2.433e-09
  4.71538     88.6 1.386e+04 2.356e-09
  4.72747     88.3 1.393e+04 2.446e-09
  4.74720     87.9 1.393e+04 2.451e-09
  4.76692     87.4 1.394e+04 2.476e-09
  4.78664     86.6 1.404e+04 2.566e-09
  4.80636     85.3 1.437e+04 2.895e-09
  4.82608     83.8 1.491e+04 3.754e-09
  4.84520     82.9 1.546e+04 4.989e-09
  4.85506     82.8 1.544e+04 4.849e-09
  4.86552     81.9 1.554e+04 5.082e-09
  4.88524     81.4 1.533e+04 4.688e-09
  4.90496     81.2 1.479e+04 3.428e-09
  4.92468     80.7 1.418e+04 2.078e-09
  4.94440     78.9 1.352e+04 1.261e-09
  4.96412     77.8 1.267e+04 9.310e-10
  4.98384     77.7 1.261e+04 9.258e-10
  5.01352     78.4 1.243e+04 9.092e-10
  5.04310     78.9 1.252e+04 1.006e-09
  5.06272     79.1 1.279e+04 1.190e-09
  5.08245     79.5 1.292e+04 1.474e-09
  5.10217     80.0 1.319e+04 1.827e-09
  5.12189     80.1 1.362e+04 2.283e-09
  5.13442     79.8 1.416e+04 2.947e-09
  5.14428     79.1 1.486e+04 4.344e-09
  5.16133     79.0 1.556e+04 6.208e-09
  5.18105     79.1 1.599e+04 7.668e-09
  5.20077     79.1 1.599e+04 7.750e-09
  5.22049     79.3 1.574e+04 6.928e-09
  5.24021     79.3 1.523e+04 5.141e-09
  5.25993     79.1 1.453e+04 3.560e-09
  5.27410     78.8 1.404e+04 2.540e-09
  5.28396     78.4 1.398e+04 2.312e-09
  5.29937     77.9 1.346e+04 1.679e-09
  5.32905     76.8 1.312e+04 1.291e-09
  5.36859     75.4 1.336e+04 1.404e-09
  5.40412     75.0 1.387e+04 1.967e-09
  5.42384     76.8 1.281e+04 8.793e-10
  5.44747     77.1 1.320e+04 1.201e-09
  5.47695     76.9 1.328e+04 1.481e-09
  5.49658     76.8 1.314e+04 1.528e-09
  5.51630     77.4 1.264e+04 1.271e-09
  5.53602     77.4 1.258e+04 1.243e-09
  5.56570     78.6 1.214e+04 1.039e-09
  5.60524     79.3 1.195e+04 1.030e-09
  5.64468     80.2 1.184e+04 1.129e-09
  5.67416     81.2 1.199e+04 1.271e-09
  5.69315     81.1 1.233e+04 1.556e-09
  5.70310     82.3 1.254e+04 1.515e-09
  5.71360     81.7 1.304e+04 2.170e-09
  5.73323     82.1 1.305e+04 2.657e-09
  5.75295     82.8 1.297e+04 2.599e-09
  5.77267     83.6 1.278e+04 2.336e-09
  5.79239     84.3 1.254e+04 1.877e-09
  5.81211     84.4 1.228e+04 1.418e-09
  5.83183     84.2 1.201e+04 1.086e-09
  5.84269     84.0 1.174e+04 9.044e-10
  5.85255     84.1 1.199e+04 9.762e-10
  5.87127     84.1 1.158e+04 8.072e-10
  5.89099     84.2 1.124e+04 7.753e-10
  5.92067     85.2 1.103e+04 7.690e-10
  5.96021     86.8 1.110e+04 7.992e-10
  5.98256     88.3 1.153e+04 9.934e-10
  6.00228     86.9 1.151e+04 9.802e-10
  6.03909     86.8 1.225e+04 1.348e-09
  6.06857     86.7 1.282e+04 1.629e-09
  6.08820     86.4 1.313e+04 1.806e-09
  6.10792     86.0 1.335e+04 2.003e-09
  6.12205     85.5 1.339e+04 1.924e-09
  6.13191     84.7 1.268e+04 1.149e-09
  6.14736     84.0 1.259e+04 1.021e-09
  6.16708     83.0 1.226e+04 7.889e-10
  6.19676     82.6 1.224e+04 7.922e-10
  6.23630     81.3 1.101e+04 4.145e-10
  6.26193     81.4 1.015e+04 2.450e-10
  6.28165     80.4 9.625e+03 1.390e-10
  6.31518     81.8 9.610e+03 1.333e-10
  6.35462     83.5 9.613e+03 1.465e-10
  6.39406     85.4 9.668e+03 1.562e-10
  6.43350     87.2 9.711e+03 1.619e-10
  6.47294     88.8 9.813e+03 1.743e-10
  6.51238     89.9 1.001e+04 2.151e-10
  6.54129     90.2 1.020e+04 3.005e-10
  6.56101     89.5 1.018e+04 3.165e-10
  6.59127     89.2 1.041e+04 4.541e-10
  6.63071     88.3 1.080e+04 6.357e-10
  6.67015     85.8 1.131e+04 8.765e-10
  6.70959     82.4 1.176e+04 1.189e-09
  6.74903     79.0 1.193e+04 1.409e-09
  6.78847     76.2 1.183e+04 1.372e-09
  6.82065     74.4 1.140e+04 1.142e-09
  6.84037     73.4 1.098e+04 9.320e-10
  6.86735     72.7 1.034e+04 6.947e-10
  6.90680     72.6 9.896e+03 5.235e-10
  6.94624     72.9 9.554e+03 3.946e-10
  6.98568     73.3 9.385e+03 3.275e-10
  7.02512     73.9 9.307e+03 3.110e-10
  7.06456     74.8 9.311e+03 3.186e-10
  7.10001     75.8 9.369e+03 3.451e-10
  7.11974     75.7 9.537e+03 3.749e-10
  7.14344     76.7 9.669e+03 4.229e-10
  7.18288     77.6 9.708e+03 4.283e-10
  7.22233     78.5 9.672e+03 4.045e-10
  7.26177     79.5 9.507e+03 3.350e-10
  7.30121     80.4 9.274e+03 2.624e-10
  7.34065     81.2 9.153e+03 2.333e-10
  7.37938     82.2 9.179e+03 2.365e-10
  7.39910     81.8 9.173e+03 2.197e-10
  7.41953     82.6 9.310e+03 2.401e-10
  7.45897     83.4 9.619e+03 2.944e-10
  7.49841     83.9 9.944e+03 3.641e-10
  7.52790     83.6 1.025e+04 4.597e-10
  7.53858     83.1 1.049e+04 5.704e-10
  7.54844     82.9 1.046e+04 5.321e-10
  7.57720     82.7 1.090e+04 6.821e-10
  7.61674     81.6 1.167e+04 9.735e-10
  7.64622     79.9 1.233e+04 1.199e-09
  7.66584     79.0 1.254e+04 1.321e-09
  7.67836     78.7 1.277e+04 1.369e-09
  7.69818     79.2 1.218e+04 1.007e-09
  7.73506     77.8 1.236e+04 1.013e-09
  7.77450     76.8 1.233e+04 9.896e-10
  7.81394     76.4 1.202e+04 8.764e-10
  7.85338     76.5 1.161e+04 7.091e-10
  7.89283     76.9 1.113e+04 5.098e-10
  7.93227     77.1 1.070e+04 3.469e-10
  7.95782     77.2 1.053e+04 2.973e-10
  7.97754     77.7 1.032e+04 2.523e-10
  8.01115     77.8 1.037e+04 2.726e-10
  8.05059     77.7 1.056e+04 3.668e-10
  8.09003     77.4 1.104e+04 5.913e-10
  8.12947     77.2 1.183e+04 1.042e-09
  8.16891     77.1 1.261e+04 1.629e-09
  8.19840     76.5 1.297e+04 1.935e-09
  8.21802     75.9 1.325e+04 2.135e-09
  8.23699     75.6 1.336e+04 2.254e-09
  8.24685     75.3 1.308e+04 1.990e-09
  8.25746     74.9 1.304e+04 1.923e-09
  8.27718     74.2 1.290e+04 1.767e-09
  8.29690     73.2 1.288e+04 1.723e-09
  8.31662     72.1 1.301e+04 1.795e-09
  8.33634     70.7 1.334e+04 2.097e-09
  8.35606     69.9 1.372e+04 2.569e-09
  8.37579     69.3 1.413e+04 2.983e-09
  8.38653     68.3 1.482e+04 3.400e-09
  8.39639     68.8 1.376e+04 2.599e-09
  8.41523     67.0 1.465e+04 3.076e-09
  8.43495     64.3 1.569e+04 4.192e-09
  8.45467     62.5 1.611e+04 5.905e-09
  8.47439     62.0 1.587e+04 6.199e-09
  8.49411     62.3 1.551e+04 5.777e-09
  8.51383     62.9 1.465e+04 4.258e-09
  8.52621     62.8 1.356e+04 2.541e-09
  8.53607     63.0 1.307e+04 2.006e-09
  8.56323     62.2 1.162e+04 8.792e-10
  8.60277     61.2 1.002e+04 4.168e-10
  8.64221     61.3 9.240e+03 2.713e-10
  8.68165     62.7 8.982e+03 2.456e-10
  8.72109     64.9 8.960e+03 2.454e-10
  8.76053     66.8 8.983e+03 2.497e-10
  8.79591     68.5 9.063e+03 2.655e-10
  8.81563     69.2 8.975e+03 2.502e-10
  8.83941     70.6 9.113e+03 2.857e-10
  8.87886     71.9 9.270e+03 3.324e-10
  8.91830     73.1 9.321e+03 3.438e-10
  8.95774     74.2 9.272e+03 3.298e-10
  8.99718     75.1 9.116e+03 2.837e-10
  9.03662     75.7 9.055e+03 2.494e-10
  9.07527     76.4 9.105e+03 2.523e-10
  9.09499     76.8 9.093e+03 2.582e-10
  9.11550     76.8 9.330e+03 2.924e-10
  9.14499     77.0 9.512e+03 3.293e-10
  9.16461     76.9 9.665e+03 3.706e-10
  9.18433     76.7 9.961e+03 4.526e-10
  9.20405     76.1 1.045e+04 5.768e-10
  9.22377     74.8 1.134e+04 8.163e-10
  9.23448     73.5 1.206e+04 1.220e-09
  9.24434     72.6 1.267e+04 1.615e-09
  9.26321     70.7 1.419e+04 2.491e-09
  9.28293     63.6 1.835e+04 6.563e-09
  9.30265     55.8 2.145e+04 1.625e-08
  9.31740     52.8 2.188e+04 2.413e-08
  9.32721     51.3 2.173e+04 2.673e-08
  9.33707     50.3 2.138e+04 2.545e-08
  9.34693     49.1 2.073e+04 2.098e-08
  9.35679     48.5 2.019e+04 1.686e-08
  9.36665     47.2 1.941e+04 1.202e-08
  9.37411     46.0 1.845e+04 7.879e-09
  9.38402     43.3 1.661e+04 5.359e-09
  9.40126     40.2 1.421e+04 2.814e-09
  9.42098     38.6 1.258e+04 1.744e-09
  9.44070     38.7 1.195e+04 1.337e-09
  9.46042     39.3 1.168e+04 1.148e-09
  9.48014     40.1 1.144e+04 1.019e-09
  9.49986     40.9 1.136e+04 9.594e-10
  9.51384     41.6 1.136e+04 9.512e-10
  9.52370     41.0 1.140e+04 9.577e-10
  9.53930     40.9 1.164e+04 1.032e-09
  9.55902     40.2 1.226e+04 1.240e-09
  9.57874     39.3 1.296e+04 1.635e-09
  9.59846     38.5 1.402e+04 2.455e-09
  9.61320     36.4 1.589e+04 3.806e-09
  9.62302     35.8 1.650e+04 4.108e-09
  9.63288     34.0 1.728e+04 5.313e-09
  9.64274     33.6 1.745e+04 5.828e-09
  9.65348     33.6 1.715e+04 6.882e-09
  9.66338     31.8 1.912e+04 1.453e-08
  9.67734     31.0 1.907e+04 1.066e-08
  9.69707     28.3 1.836e+04 6.343e-09
  9.71679     24.5 1.688e+04 3.983e-09
  9.73651     20.5 1.560e+04 2.429e-09
  9.75623     17.3 1.438e+04 1.625e-09
  9.77595     15.1 1.321e+04 1.219e-09
  9.79321     13.2 1.254e+04 1.088e-09
  9.80307     10.5 1.177e+04 9.720e-10
  9.82535     10.8 1.215e+04 1.090e-09
  9.86489     10.6 1.226e+04 1.149e-09
  9.90433     10.7 1.249e+04 1.196e-09
  9.93308     10.6 1.241e+04 1.254e-09
  9.95280      7.3 1.150e+04 9.320e-10
  9.98321      7.0 1.145e+04 9.328e-10
 10.02265      6.1 1.165e+04 1.211e-09
 10.06209      6.1 1.198e+04 1.613e-09
 10.10153      6.4 1.221e+04 1.804e-09
 10.14097      6.7 1.222e+04 1.588e-09
 10.18042      5.7 1.203e+04 1.249e-09
 10.21245      4.7 1.169e+04 1.132e-09
 10.23207      4.6 1.113e+04 8.936e-10
 10.24924      4.6 1.124e+04 1.075e-09
 10.26896      4.7 1.122e+04 1.072e-09
 10.29864      5.5 1.099e+04 1.059e-09
 10.33818      6.8 1.040e+04 8.679e-10
 10.37762      8.2 9.850e+03 5.834e-10
 10.41706      9.3 9.259e+03 3.899e-10
 10.45650     10.4 8.913e+03 2.952e-10
 10.49181     11.8 8.834e+03 2.730e-10
 10.51153     12.0 9.129e+03 3.268e-10
 10.53539     13.6 9.150e+03 3.353e-10
 10.57483     15.2 9.294e+03 3.770e-10
 10.61427     17.0 9.421e+03 4.226e-10
 10.65371     18.8 9.501e+03 4.547e-10
 10.69315     20.2 9.615e+03 5.007e-10
 10.73259     21.8 9.780e+03 5.777e-10
 10.77117     23.6 1.000e+04 6.314e-10
 10.79089     23.9 9.495e+03 4.103e-10
 10.81147     25.3 9.445e+03 3.233e-10
 10.85092     26.3 9.313e+03 2.769e-10
 10.89036     26.7 9.364e+03 2.864e-10
 10.92980     26.9 9.632e+03 4.041e-10
 10.96924     28.0 1.012e+04 6.338e-10
 11.00868     29.3 1.054e+04 8.195e-10
 11.04812     30.8 1.048e+04 7.664e-10
 11.07025     32.2 1.022e+04 5.732e-10
 11.08997     33.1 1.046e+04 6.713e-10
 11.12700     33.5 1.013e+04 4.358e-10
 11.16645     33.8 1.009e+04 4.087e-10
 11.20589     33.1 1.086e+04 5.995e-10
 11.23537     32.0 1.194e+04 9.308e-10
 11.25499     30.1 1.291e+04 1.767e-09
 11.27471     30.4 1.337e+04 2.779e-09
 11.29443     31.1 1.382e+04 3.469e-09
 11.31415     31.1 1.415e+04 3.487e-09
 11.33388     30.6 1.430e+04 3.282e-09
 11.34942     29.2 1.415e+04 2.674e-09
 11.35928     29.8 1.421e+04 2.822e-09
 11.37332     28.1 1.370e+04 2.292e-09
 11.39304     26.9 1.291e+04 1.737e-09
 11.41276     26.5 1.212e+04 1.349e-09
 11.43248     26.8 1.157e+04 9.790e-10
 11.45220     26.9 1.111e+04 7.499e-10
 11.47192     27.5 1.071e+04 5.042e-10
 11.48910     27.2 1.062e+04 4.269e-10
 11.49896     27.5 1.063e+04 4.267e-10
 11.52132     28.2 1.020e+04 2.907e-10
 11.56086     28.9 9.830e+03 2.237e-10
 11.60030     30.5 9.708e+03 2.067e-10
 11.62898     32.3 9.729e+03 2.060e-10
 11.64870     32.9 9.754e+03 1.968e-10
 11.67918     34.8 9.846e+03 2.098e-10
 11.71862     36.5 9.989e+03 2.325e-10
 11.75806     37.9 1.022e+04 2.866e-10
 11.79750     38.9 1.070e+04 4.265e-10
 11.83695     39.4 1.127e+04 6.812e-10
 11.87639     38.7 1.216e+04 1.124e-09
 11.90587     37.4 1.284e+04 1.524e-09
 11.91801     36.9 1.305e+04 1.682e-09
 11.92796     37.8 1.285e+04 1.503e-09
 11.95527     36.3 1.291e+04 1.481e-09
 11.99471     35.0 1.270e+04 1.190e-09
 12.03415     33.7 1.250e+04 9.984e-10
 12.07359     33.3 1.252e+04 1.001e-09
 12.11303     33.6 1.264e+04 1.097e-09
 12.14252     34.0 1.208e+04 8.778e-10
 12.16214     34.1 1.184e+04 8.714e-10
 12.18186     35.0 1.141e+04 7.973e-10
 12.19737     35.2 1.139e+04 7.600e-10
 12.20733     35.9 1.103e+04 5.313e-10
 12.22997     37.4 1.070e+04 4.700e-10
 12.24959     36.6 1.095e+04 5.343e-10
 12.27070     38.1 1.058e+04 4.130e-10
 12.31024     39.4 1.068e+04 4.225e-10
 12.33715     39.6 1.076e+04 4.389e-10
 12.34691     40.1 1.071e+04 4.552e-10
 12.35935     40.1 1.083e+04 4.951e-10
 12.37907     38.9 1.153e+04 6.802e-10
 12.39879     38.3 1.204e+04 9.493e-10
 12.41851     37.3 1.297e+04 1.484e-09
 12.43823     37.8 1.332e+04 2.006e-09
 12.45795     38.5 1.334e+04 2.083e-09
 12.47673     38.6 1.328e+04 1.986e-09
 12.48659     38.6 1.319e+04 1.788e-09
 12.49739     39.8 1.237e+04 1.244e-09
 12.51711     39.3 1.211e+04 9.010e-10
 12.53683     40.2 1.146e+04 4.934e-10
 12.55655     39.7 1.145e+04 3.686e-10
 12.58623     39.3 1.130e+04 2.279e-10
 12.62577     39.5 1.085e+04 2.176e-10
 12.65525     39.9 1.053e+04 2.137e-10
 12.67488     39.9 1.054e+04 2.267e-10
 12.69460     40.1 1.070e+04 3.124e-10
 12.71432     40.3 1.095e+04 4.129e-10
 12.73404     40.2 1.146e+04 6.330e-10
 12.75376     39.8 1.217e+04 1.004e-09
 12.76596     38.9 1.308e+04 1.687e-09
 12.77582     39.6 1.270e+04 1.355e-09
 12.79320     37.3 1.459e+04 2.611e-09
 12.81292     28.3 2.142e+04 9.121e-09
 12.82766     24.5 2.311e+04 1.829e-08
 12.83570     24.2 2.138e+04 3.074e-08
 12.84063     23.8 2.100e+04 3.748e-08
 12.84733     24.8 1.970e+04 4.221e-08
 12.85719     26.0 1.855e+04 3.899e-08
 12.86705     26.6 1.765e+04 2.876e-08
 12.87691     26.9 1.705e+04 1.975e-08
 12.89175     25.9 1.783e+04 7.593e-09
 12.90564     21.0 1.991e+04 1.551e-09
 12.91550     20.8 2.120e+04 1.436e-09
 12.93124      7.5 1.194e+04 4.513e-10
 12.95096      5.8 1.062e+04 3.587e-10
 12.98064      5.2 1.068e+04 2.959e-10
 13.02018      4.2 1.053e+04 2.658e-10
 13.04551      4.0 1.058e+04 2.923e-10
 13.06523      4.2 1.053e+04 3.209e-10
 13.09906      5.0 1.060e+04 3.651e-10
 13.13851      5.6 1.063e+04 3.642e-10
 13.17795      6.0 1.051e+04 3.421e-10
 13.21739      6.6 1.036e+04 3.548e-10
 13.24687      7.4 1.031e+04 4.055e-10
 13.26649      7.8 1.017e+04 4.097e-10
 13.28621      8.8 1.023e+04 4.125e-10
 13.30593      9.4 1.056e+04 3.936e-10
 13.32468      9.6 1.078e+04 3.693e-10
 13.33454      9.6 1.079e+04 3.708e-10
 13.34538      9.3 1.077e+04 3.546e-10
 13.37505      9.3 1.075e+04 3.743e-10
 13.41459      9.5 1.088e+04 5.207e-10
 13.44408     10.2 1.114e+04 7.214e-10
 13.46370     10.7 1.113e+04 8.985e-10
 13.47422     11.8 1.110e+04 1.083e-09
 13.48408     11.5 1.137e+04 1.438e-09
 13.50314     13.1 1.146e+04 1.523e-09
 13.53282     14.7 1.157e+04 1.323e-09
 13.57236     16.2 1.159e+04 1.190e-09
 13.60424     17.4 1.171e+04 1.044e-09
 13.62396     16.5 1.161e+04 9.825e-10
 13.65124     17.4 1.147e+04 8.618e-10
 13.69068     18.3 1.129e+04 8.203e-10
 13.73012     19.1 1.143e+04 8.889e-10
 13.76956     19.8 1.167e+04 1.041e-09
 13.80901     20.8 1.173e+04 1.200e-09
 13.84845     22.7 1.165e+04 1.068e-09
 13.88360     24.3 1.140e+04 6.952e-10
 13.90332     23.1 1.147e+04 6.917e-10
 13.92733     23.5 1.085e+04 3.965e-10
 13.96677     24.0 1.026e+04 2.483e-10
 14.00621     25.2 1.001e+04 1.704e-10
 14.04565     26.5 9.878e+03 1.235e-10
 14.08509     27.8 9.712e+03 8.950e-11
 14.12454     28.9 9.577e+03 6.649e-11
 14.16296     29.9 9.516e+03 5.917e-11
 14.18268     29.6 9.388e+03 3.010e-11
 14.20342     30.7 9.488e+03 3.555e-11
 14.24286     31.8 9.563e+03 5.048e-11
 14.28230     32.9 9.549e+03 8.093e-11
 14.32174     34.1 9.612e+03 1.247e-10
 14.36118     35.1 9.827e+03 1.807e-10
 14.40062     35.5 1.013e+04 2.543e-10
 14.44006     35.8 1.040e+04 3.463e-10
 14.46205     35.9 1.068e+04 3.845e-10
 14.48177     36.1 1.069e+04 4.092e-10
 14.51895     35.6 1.084e+04 3.878e-10
 14.55839     34.4 1.065e+04 3.588e-10
 14.59783     33.7 1.041e+04 3.681e-10
 14.63727     33.1 1.041e+04 4.409e-10
 14.67671     33.3 1.057e+04 4.989e-10
 14.71615     33.5 1.062e+04 5.084e-10
 14.74141     34.0 1.044e+04 4.643e-10
 14.76113     33.2 1.064e+04 4.803e-10
 14.79504     33.8 1.025e+04 3.702e-10
 14.83448     34.1 1.001e+04 2.740e-10
 14.87392     34.2 1.002e+04 2.472e-10
 14.91336     34.4 1.008e+04 2.822e-10
 14.95280     35.2 1.019e+04 3.630e-10
 14.99224     36.4 1.034e+04 4.575e-10
 15.02077     37.8 1.049e+04 5.407e-10
 15.04049     37.2 1.052e+04 5.492e-10
 15.07112     38.4 1.056e+04 5.829e-10
 15.11057     39.6 1.067e+04 6.296e-10
 15.15001     40.4 1.091e+04 7.141e-10
 15.18945     40.5 1.142e+04 9.426e-10
 15.22889     39.5 1.247e+04 1.487e-09
 15.25837     37.2 1.340e+04 2.370e-09
 15.27799     36.5 1.379e+04 3.286e-09
 15.29772     36.2 1.374e+04 3.410e-09
 15.30980     35.7 1.357e+04 3.177e-09
 15.31966     34.9 1.353e+04 3.117e-09
 15.33716     34.5 1.297e+04 2.436e-09
 15.35688     33.6 1.248e+04 1.939e-09
 15.38656     31.8 1.152e+04 1.220e-09
 15.42609     30.1 1.049e+04 7.066e-10
 15.46554     29.4 9.819e+03 4.756e-10
 15.50498     29.0 9.486e+03 3.521e-10
 15.54442     28.6 9.250e+03 2.949e-10
 15.57950     28.9 8.911e+03 2.447e-10
 15.59922     28.4 8.720e+03 2.076e-10
 15.62330     29.6 8.429e+03 1.662e-10
 15.66274     30.9 8.242e+03 1.170e-10
 15.70218     31.3 8.150e+03 8.143e-11
 15.74162     31.6 8.066e+03 7.726e-11
 15.78107     32.0 8.087e+03 8.783e-11
 15.82051     33.0 8.110e+03 1.107e-10
 15.85886     34.2 8.149e+03 1.190e-10
 15.87858     34.3 8.175e+03 1.322e-10
 15.89939     35.7 8.157e+03 1.281e-10
 15.93883     36.9 8.098e+03 1.130e-10
 15.97827     37.9 8.056e+03 9.587e-11
 16.01771     38.9 8.055e+03 8.491e-11
 16.05715     39.9 8.104e+03 8.535e-11
 16.09659     40.9 8.296e+03 9.426e-11
 16.13604     40.8 8.710e+03 1.275e-10
 16.15794     40.3 9.318e+03 2.643e-10
 16.17766     41.0 9.120e+03 2.058e-10
 16.21492     40.4 9.821e+03 4.507e-10
 16.25436     40.4 1.049e+04 8.048e-10
 16.29380     40.4 1.055e+04 8.221e-10
 16.33324     40.5 1.024e+04 6.197e-10
 16.37268     40.0 9.849e+03 3.654e-10
 16.41212     38.5 9.509e+03 2.465e-10
 16.43731     38.2 9.408e+03 2.410e-10
 16.45703     39.1 9.481e+03 2.562e-10
 16.49101     39.4 9.487e+03 2.646e-10
 16.53045     40.2 9.563e+03 2.995e-10
 16.56989     41.3 9.698e+03 3.572e-10
 16.60933     42.6 9.872e+03 4.351e-10
 16.64877     43.8 1.004e+04 5.253e-10
 16.68821     45.1 1.021e+04 6.234e-10
 16.71667     46.4 1.030e+04 6.912e-10
 16.73639     46.4 1.042e+04 7.321e-10
 16.76710     47.7 1.037e+04 7.201e-10
 16.80654     49.3 1.014e+04 6.304e-10
 16.84598     50.9 9.871e+03 4.908e-10
 16.88542     52.2 9.590e+03 3.578e-10
 16.92486     53.4 9.280e+03 2.873e-10
 16.96430     54.9 9.161e+03 2.812e-10
 16.99603     56.8 9.175e+03 2.947e-10
 17.01575     57.3 9.215e+03 2.995e-10
 17.04318     59.3 9.340e+03 3.536e-10
 17.08262     61.4 9.592e+03 4.441e-10
 17.12207     63.5 9.996e+03 5.688e-10
 17.16151     64.7 1.064e+04 7.631e-10
 17.19099     65.4 1.122e+04 1.002e-09
 17.21061     65.3 1.184e+04 1.292e-09
 17.23033     65.0 1.240e+04 1.701e-09
 17.25005     64.8 1.280e+04 2.258e-09
 17.26978     65.1 1.309e+04 2.845e-09
 17.28506     65.8 1.309e+04 3.220e-09
 17.29492     66.4 1.340e+04 3.312e-09
 17.30922     67.1 1.337e+04 3.548e-09
 17.32894     67.7 1.328e+04 3.434e-09
 17.34866     68.0 1.333e+04 3.199e-09
 17.36838     67.7 1.343e+04 2.791e-09
 17.38810     65.9 1.405e+04 2.527e-09
 17.40782     61.1 1.472e+04 2.586e-09
 17.42474     55.0 1.451e+04 2.939e-09
 17.43455     54.7 1.497e+04 3.518e-09
 17.44223     51.4 1.434e+04 3.590e-09
 17.45209     51.0 1.408e+04 3.556e-09
 17.46693     49.7 1.387e+04 3.836e-09
 17.48670     49.3 1.306e+04 3.028e-09
 17.50642     48.2 1.253e+04 2.128e-09
 17.52614     46.3 1.190e+04 1.400e-09
 17.54586     44.0 1.103e+04 9.465e-10
 17.56442     42.9 1.029e+04 7.537e-10
 17.57428     42.0 1.042e+04 8.621e-10
 17.58530     42.4 1.027e+04 8.189e-10
 17.60503     43.3 1.031e+04 8.267e-10
 17.62475     44.2 1.040e+04 8.448e-10
 17.64447     44.8 1.052e+04 8.765e-10
 17.66419     45.2 1.064e+04 9.284e-10
 17.68391     45.5 1.080e+04 1.022e-09
 17.70363     46.0 1.093e+04 1.110e-09
 17.71396     46.6 1.092e+04 1.115e-09
 17.72382     46.8 1.138e+04 1.380e-09
 17.74307     47.5 1.123e+04 1.288e-09
 17.76279     48.2 1.098e+04 1.093e-09
 17.78251     48.2 1.078e+04 8.881e-10
 17.80223     47.6 1.063e+04 7.015e-10
 17.82195     46.2 1.073e+04 5.405e-10
 17.84167     44.8 1.055e+04 4.369e-10
 17.85365     44.1 1.019e+04 4.263e-10
 17.86351     45.3 9.714e+03 3.422e-10
 17.88111     45.1 9.498e+03 3.332e-10
 17.90083     45.5 9.590e+03 3.636e-10
 17.92056     46.2 9.772e+03 4.007e-10
 17.94028     47.0 1.002e+04 4.428e-10
 17.96000     47.7 1.024e+04 4.841e-10
 17.97972     48.5 1.039e+04 5.238e-10
 17.99333     49.3 1.050e+04 5.706e-10
 18.00319     50.0 1.014e+04 4.615e-10
 18.01916     50.7 1.026e+04 5.164e-10
 18.03888     51.5 1.031e+04 5.727e-10
 18.05860     52.4 1.029e+04 6.218e-10
 18.07832     53.3 1.026e+04 6.659e-10
 18.09804     54.2 1.024e+04 6.904e-10
 18.11776     55.1 1.025e+04 7.004e-10
 18.13301     55.9 1.022e+04 6.920e-10
 18.14287     56.3 1.039e+04 7.663e-10
 18.15720     57.2 1.041e+04 7.653e-10
 18.17692     57.9 1.043e+04 7.608e-10
 18.19664     58.5 1.039e+04 7.355e-10
 18.22632     60.4 1.024e+04 6.799e-10
 18.26586     62.3 9.976e+03 5.753e-10
 18.30530     64.3 9.647e+03 4.518e-10
 18.34474     66.0 9.379e+03 3.564e-10
 18.38418     67.6 9.410e+03 3.449e-10
 18.41257     68.9 9.624e+03 3.750e-10
 18.43229     69.1 9.624e+03 3.898e-10
 18.46307     70.7 9.956e+03 4.795e-10
 18.50251     72.8 1.051e+04 6.631e-10
 18.52495     72.7 1.102e+04 8.758e-10
 18.53472     74.1 1.072e+04 7.543e-10
 18.55161     75.0 1.103e+04 8.871e-10
 18.56191     75.7 1.149e+04 1.100e-09
 18.57177     76.6 1.134e+04 1.031e-09
 18.59106     76.8 1.190e+04 1.293e-09
 18.61078     76.6 1.273e+04 1.700e-09
 18.63050     75.8 1.371e+04 2.310e-09
 18.65022     74.6 1.447e+04 3.009e-09
 18.66994     73.2 1.505e+04 3.639e-09
 18.68966     71.7 1.498e+04 3.815e-09
 18.70159     70.3 1.459e+04 3.335e-09
 18.71145     70.2 1.488e+04 3.651e-09
 18.72910     66.2 1.548e+04 3.692e-09
 18.74384     56.1 1.851e+04 4.439e-09
 18.75365     54.3 1.826e+04 4.370e-09
 18.76849     43.5 1.998e+04 7.482e-09
 18.78826     33.8 1.862e+04 9.124e-09
 18.80798     24.3 1.982e+04 9.173e-09
 18.82770     10.5 2.242e+04 7.498e-09
 18.84123      0.2 2.118e+04 5.707e-09
 18.84611      0.4 2.040e+04 5.321e-09
 18.85226     -4.6 2.361e+04 7.499e-09
 18.86212    -12.2 2.544e+04 1.232e-08
 18.87198    -14.3 2.720e+04 2.048e-08
 18.88184    -17.1 2.565e+04 3.132e-08
 18.89170    -18.2 2.482e+04 3.639e-08
 18.90156    -19.4 2.233e+04 3.978e-08
 18.91102    -20.1 2.229e+04 3.310e-08
 18.91595    -19.8 2.273e+04 3.772e-08
 18.92128    -21.7 2.395e+04 3.319e-08
 18.93114    -25.2 2.763e+04 2.889e-08
 18.94100    -30.2 3.205e+04 2.442e-08
 18.95086    -35.7 3.491e+04 2.059e-08
 18.96072    -41.3 3.392e+04 1.804e-08
 18.97058    -46.6 3.028e+04 1.611e-08
 18.98044    -50.1 2.638e+04 1.653e-08
 18.98579    -51.9 2.427e+04 1.798e-08
 18.99072    -53.4 2.176e+04 2.129e-08
 19.00016    -53.6 2.063e+04 2.629e-08
 19.01002    -53.3 1.975e+04 3.018e-08
 19.01988    -52.4 1.934e+04 3.256e-08
 19.02974    -51.3 1.928e+04 3.452e-08
 19.03960    -50.2 1.951e+04 3.540e-08
 19.04946    -49.3 1.973e+04 3.476e-08
 19.05563    -48.5 2.016e+04 3.067e-08
 19.06056    -49.3 2.046e+04 2.416e-08
 19.06918    -49.3 2.098e+04 1.942e-08
 19.07904    -49.6 2.161e+04 1.539e-08
 19.08890    -50.1 2.240e+04 1.162e-08
 19.10374    -51.1 2.341e+04 9.815e-09
 19.12064    -54.8 2.500e+04 4.667e-09
 19.13050    -60.8 2.155e+04 1.928e-09
 19.14323    -66.9 1.605e+04 1.245e-09
 19.16295    -71.2 1.232e+04 1.205e-09
 19.18267    -73.2 1.194e+04 1.268e-09
 19.20239    -74.5 1.185e+04 1.375e-09
 19.22211    -75.2 1.193e+04 1.514e-09
 19.24184    -75.5 1.197e+04 1.587e-09
 19.26032    -75.6 1.197e+04 1.599e-09
 19.27018    -75.1 1.192e+04 1.567e-09
 19.28128    -75.0 1.173e+04 1.409e-09
 19.30100    -74.6 1.145e+04 1.185e-09
 19.32072    -74.2 1.116e+04 9.683e-10
 19.34044    -73.8 1.095e+04 7.997e-10
 19.36016    -73.4 1.076e+04 6.774e-10
 19.37988    -72.9 1.057e+04 5.851e-10
 19.40956    -72.1 1.027e+04 4.764e-10
 19.44910    -70.1 9.699e+03 3.405e-10
 19.48854    -68.5 9.415e+03 2.722e-10
 19.52798    -66.6 9.140e+03 2.271e-10
 19.54974    -64.6 8.896e+03 1.809e-10
 19.56946    -64.3 9.024e+03 2.001e-10
 19.60686    -62.6 8.931e+03 1.730e-10
 19.64630    -60.9 8.931e+03 1.637e-10
 19.68574    -59.4 8.942e+03 1.632e-10
 19.72519    -58.4 9.186e+03 1.791e-10
 19.76463    -57.9 9.519e+03 2.525e-10
 19.80407    -57.6 9.893e+03 3.827e-10
 19.82910    -57.6 1.036e+04 5.524e-10
 19.84882    -58.4 1.031e+04 5.258e-10
 19.88295    -58.7 1.066e+04 5.959e-10
 19.92239    -60.4 1.079e+04 5.994e-10
 19.96183    -62.9 1.072e+04 4.750e-10
 20.00127    -66.0 1.037e+04 3.709e-10
 20.04071    -68.7 1.030e+04 3.532e-10
 20.08016    -70.3 1.033e+04 3.611e-10
 20.10846    -70.9 1.035e+04 3.847e-10
 20.11823    -71.4 1.043e+04 4.626e-10
 20.12926    -71.5 1.041e+04 4.885e-10
 20.14898    -71.5 1.039e+04 4.922e-10
 20.16870    -71.3 1.034e+04 4.722e-10
 20.18842    -71.0 1.033e+04 4.352e-10
 20.20814    -70.9 1.030e+04 4.025e-10
 20.23782    -70.9 1.022e+04 3.456e-10
 20.27736    -70.6 9.946e+03 2.620e-10
 20.31680    -69.8 9.832e+03 2.343e-10
 20.35624    -69.1 9.882e+03 2.376e-10
 20.38783    -68.6 1.036e+04 3.529e-10
 20.40755    -69.0 1.078e+04 5.442e-10
 20.43513    -68.0 1.113e+04 7.315e-10
 20.47457    -67.1 1.123e+04 7.815e-10
 20.51401    -66.3 1.118e+04 7.626e-10
 20.55345    -65.1 1.085e+04 5.903e-10
 20.59289    -64.1 1.048e+04 4.209e-10
 20.63233    -63.2 1.032e+04 3.502e-10
 20.66719    -62.4 1.031e+04 3.436e-10
 20.68691    -63.4 1.015e+04 2.935e-10
 20.71122    -62.5 1.038e+04 3.704e-10
 20.75066    -61.6 1.057e+04 4.382e-10
 20.79010    -61.2 1.064e+04 4.576e-10
 20.82954    -61.2 1.064e+04 4.531e-10
 20.86898    -62.2 1.073e+04 4.560e-10
 20.90842    -64.2 1.099e+04 5.402e-10
 20.94655    -66.1 1.110e+04 6.933e-10
 20.96627    -64.7 1.083e+04 5.693e-10
 20.98730    -66.0 1.092e+04 7.320e-10
 21.02674    -67.2 1.089e+04 7.736e-10
 21.06619    -68.2 1.061e+04 6.881e-10
 21.09567    -69.4 1.012e+04 5.052e-10
 21.10576    -70.0 9.977e+03 4.640e-10
 21.11562    -69.7 9.990e+03 4.797e-10
 21.13501    -70.8 9.681e+03 4.248e-10
 21.15473    -71.3 9.567e+03 4.096e-10
 21.17445    -71.8 9.442e+03 3.945e-10
 21.19417    -72.1 9.347e+03 3.803e-10
 21.21389    -72.6 9.223e+03 3.625e-10
 21.23362    -72.9 9.126e+03 3.426e-10
 21.24544    -73.2 9.010e+03 3.213e-10
 21.25530    -73.2 9.003e+03 3.213e-10
 21.27306    -73.4 8.958e+03 3.102e-10
 21.29278    -73.6 8.939e+03 3.056e-10
 21.31250    -73.6 8.956e+03 3.064e-10
 21.33222    -73.6 8.975e+03 3.090e-10
 21.35194    -73.6 9.049e+03 3.189e-10
 21.37166    -73.6 9.158e+03 3.385e-10
 21.38512    -73.7 9.330e+03 3.723e-10
 21.39498    -73.8 9.462e+03 4.059e-10
 21.41110    -74.0 9.685e+03 4.704e-10
 21.43082    -74.1 9.904e+03 5.562e-10
 21.45054    -74.2 1.007e+04 6.577e-10
 21.47026    -74.1 1.020e+04 7.584e-10
 21.48998    -73.9 1.030e+04 8.493e-10
 21.50970    -73.9 1.034e+04 9.104e-10
 21.52480    -73.9 1.034e+04 9.374e-10
 21.53466    -73.7 1.048e+04 1.014e-09
 21.54915    -73.7 1.049e+04 1.020e-09
 21.56887    -74.1 1.047e+04 9.923e-10
 21.58859    -74.6 1.037e+04 9.362e-10
 21.60831    -75.1 1.022e+04 8.785e-10
 21.62803    -75.6 1.017e+04 8.515e-10
 21.64775    -76.0 1.017e+04 8.487e-10
 21.66448    -76.5 1.023e+04 8.579e-10
 21.67434    -76.6 1.027e+04 8.918e-10
 21.68719    -77.0 1.025e+04 8.829e-10
 21.70691    -77.3 1.018e+04 8.619e-10
 21.72663    -77.5 1.013e+04 8.466e-10
 21.74635    -77.7 1.011e+04 8.442e-10
 21.76607    -78.3 1.026e+04 8.896e-10
 21.78579    -83.3 1.266e+04 1.113e-09
 21.80416    -96.2 2.365e+04 2.662e-09
 21.81398    -99.2 2.316e+04 6.316e-09
 21.82021   -104.8 2.274e+04 2.335e-08
 21.83007   -106.6 2.187e+04 7.602e-08
 21.83993   -107.3 2.161e+04 1.808e-07
 21.84979   -108.5 2.180e+04 2.898e-07
 21.85965   -111.2 2.201e+04 3.221e-07
 21.86951   -115.4 2.299e+04 2.423e-07
 21.87884   -120.8 2.440e+04 7.517e-08
 21.88377   -122.2 2.587e+04 1.807e-08
 21.88923   -129.0 2.335e+04 6.662e-09
 21.90407   -134.4 1.955e+04 4.025e-09
 21.92384   -139.7 1.331e+04 1.805e-09
 21.94356   -140.1 1.154e+04 1.241e-09
 21.95371   -140.2 1.006e+04 7.792e-10
 21.96357   -140.1 9.941e+03 5.596e-10
 21.98300   -138.8 9.684e+03 4.752e-10
 22.00272   -137.2 9.600e+03 4.144e-10
 22.02244   -135.9 9.631e+03 3.794e-10
 22.05212   -134.7 9.663e+03 3.586e-10
 22.08372   -132.8 9.534e+03 3.117e-10
 22.10344   -132.3 9.345e+03 2.718e-10
 22.13110   -129.9 9.096e+03 2.196e-10
 22.17054   -127.5 8.901e+03 1.811e-10
 22.20998   -124.9 8.752e+03 1.498e-10
 22.24942   -122.3 8.636e+03 1.236e-10
 22.28886   -119.6 8.553e+03 1.018e-10
 22.32830   -117.1 8.504e+03 8.343e-11
 22.36308   -114.6 8.485e+03 6.792e-11
 22.38281   -114.6 8.494e+03 6.551e-11
 22.40719   -112.3 8.508e+03 5.425e-11
 22.44663   -110.0 8.521e+03 4.657e-11
 22.48607   -107.8 8.524e+03 4.180e-11
 22.52551   -105.6 8.520e+03 3.926e-11
 22.56495   -103.3 8.525e+03 3.808e-11
 22.60439   -100.9 8.533e+03 3.769e-11
 22.64245    -98.4 8.542e+03 3.755e-11
 22.66217    -98.5 8.567e+03 3.958e-11
 22.68327    -96.0 8.578e+03 3.865e-11
 22.72272    -93.4 8.594e+03 3.713e-11
 22.76216    -90.8 8.607e+03 3.498e-11
 22.80160    -88.2 8.627e+03 3.241e-11
 22.84104    -85.6 8.657e+03 3.002e-11
 22.88048    -83.1 8.688e+03 2.808e-11
 22.91992    -80.6 8.716e+03 2.681e-11
 22.94153    -78.1 8.741e+03 2.634e-11
 22.96125    -78.0 8.731e+03 2.634e-11
 22.99880    -75.6 8.770e+03 2.631e-11
 23.03825    -73.4 8.943e+03 2.689e-11
 23.07769    -71.3 9.043e+03 3.029e-11
 23.11713    -69.2 9.067e+03 3.704e-11
 23.15657    -67.1 9.065e+03 4.724e-11
 23.19601    -64.8 9.077e+03 6.017e-11
 23.22089    -62.5 9.118e+03 7.387e-11
 23.24061    -62.3 9.212e+03 8.192e-11
 23.27489    -60.0 9.311e+03 9.044e-11
 23.31433    -57.8 9.380e+03 9.466e-11
 23.35378    -55.7 9.429e+03 9.809e-11
 23.39322    -53.6 9.500e+03 9.998e-11
 23.43266    -51.5 9.569e+03 1.003e-10
 23.47210    -49.5 9.651e+03 9.857e-11
 23.50026    -47.5 9.799e+03 9.265e-11
 23.51998    -47.4 9.853e+03 8.823e-11
 23.55098    -45.4 9.939e+03 8.460e-11
 23.59042    -43.6 1.001e+04 8.153e-11
 23.62986    -41.7 1.005e+04 8.007e-11
 23.66930    -39.9 1.009e+04 7.971e-11
 23.70875    -38.0 1.015e+04 8.124e-11
 23.74819    -36.0 1.016e+04 8.658e-11
 23.77962    -34.2 1.021e+04 9.617e-11
 23.79934    -33.9 1.015e+04 1.015e-10
 23.82707    -31.9 1.026e+04 1.120e-10
 23.86651    -29.9 1.040e+04 1.264e-10
 23.90595    -28.0 1.050e+04 1.474e-10
 23.94539    -26.2 1.055e+04 1.745e-10
 23.98483    -24.2 1.057e+04 2.048e-10
 24.02428    -22.3 1.066e+04 2.321e-10
 24.05898    -20.3 1.085e+04 2.527e-10
 24.07870    -20.0 1.084e+04 2.257e-10
 24.10316    -18.2 1.119e+04 2.489e-10
 24.14260    -16.7 1.166e+04 2.721e-10
 24.18204    -15.4 1.219e+04 3.030e-10
 24.22148    -14.5 1.237e+04 3.304e-10
 24.26092    -13.6 1.227e+04 3.468e-10
 24.30036    -12.8 1.219e+04 3.529e-10
 24.33834    -12.3 1.230e+04 3.271e-10
 24.35797    -12.6 1.233e+04 3.614e-10
 24.36919    -13.0 1.245e+04 3.479e-10
 24.38891    -13.4 1.256e+04 3.700e-10
 24.41859    -14.4 1.254e+04 5.130e-10
 24.44817    -14.2 1.260e+04 7.760e-10
 24.46779    -14.3 1.269e+04 8.235e-10
 24.48751    -14.4 1.297e+04 9.605e-10
 24.49755    -15.0 1.298e+04 9.679e-10
 24.50741    -15.3 1.309e+04 1.056e-09
 24.52696    -16.2 1.305e+04 1.066e-09
 24.54668    -17.1 1.295e+04 1.044e-09
 24.56640    -17.8 1.282e+04 1.044e-09
 24.58612    -18.0 1.267e+04 1.035e-09
 24.60584    -18.2 1.235e+04 9.583e-10
 24.62556    -17.9 1.219e+04 8.661e-10
 24.63733    -17.6 1.201e+04 6.396e-10
 24.64719    -18.1 1.204e+04 7.563e-10
 24.66500    -17.8 1.202e+04 6.535e-10
 24.69468    -18.2 1.157e+04 4.064e-10
 24.73422    -18.5 1.121e+04 3.140e-10
 24.77366    -17.5 1.098e+04 3.312e-10
 24.80041    -16.4 1.097e+04 4.013e-10
 24.82013    -17.0 1.091e+04 3.801e-10
 24.85254    -15.8 1.091e+04 4.334e-10
 24.89198    -15.1 1.089e+04 4.297e-10
 24.91679    -14.7 1.077e+04 3.521e-10
 24.93651    -15.1 1.079e+04 3.827e-10
 24.97086    -14.7 1.064e+04 3.506e-10
 25.01031    -14.0 1.040e+04 2.983e-10
 25.04975    -13.1 1.025e+04 2.315e-10
 25.08919    -12.4 1.027e+04 1.957e-10
 25.12863    -12.1 1.040e+04 1.952e-10
 25.16807    -12.3 1.068e+04 3.348e-10
 25.19615    -11.7 1.111e+04 6.706e-10
 25.21587    -12.1 1.116e+04 4.813e-10
 25.24695    -12.0 1.220e+04 1.083e-09
 25.27644    -11.8 1.255e+04 1.537e-09
 25.29606    -12.2 1.293e+04 1.808e-09
 25.31578    -12.4 1.316e+04 1.926e-09
 25.33550    -12.5 1.327e+04 1.828e-09
 25.34550    -12.5 1.284e+04 1.371e-09
 25.35536    -12.9 1.495e+04 4.148e-09
 25.37494    -12.9 1.420e+04 2.403e-09
 25.39466    -15.3 1.325e+04 1.388e-09
 25.41438    -17.4 1.230e+04 1.009e-09
 25.43410    -17.9 1.197e+04 9.279e-10
 25.45382    -18.0 1.177e+04 8.976e-10
 25.47354    -17.8 1.157e+04 8.816e-10
 25.48518    -17.5 1.152e+04 8.983e-10
 25.49504    -18.1 1.202e+04 1.381e-09
 25.51299    -18.0 1.188e+04 1.226e-09
 25.53271    -17.8 1.171e+04 1.077e-09
 25.55243    -17.5 1.145e+04 9.373e-10
 25.57215    -17.1 1.129e+04 8.261e-10
 25.60183    -17.7 1.058e+04 5.944e-10
 25.64136    -16.0 9.968e+03 3.825e-10
 25.68081    -14.1 9.276e+03 1.835e-10
 25.72025    -13.4 8.870e+03 7.578e-11
 25.75488    -13.5 8.618e+03 4.018e-11
 25.77460    -15.5 8.190e+03 3.033e-11
 25.79913    -14.3 8.037e+03 3.372e-11
 25.83857    -12.7 8.049e+03 3.889e-11
 25.87801    -11.1 8.254e+03 4.412e-11
 25.91745    -10.5 8.653e+03 5.645e-11
 25.95689    -10.7 8.830e+03 8.805e-11
 25.99634    -10.7 8.896e+03 1.712e-10
 26.03424     -9.1 9.293e+03 2.860e-10
 26.05396     -8.8 9.169e+03 2.799e-10
 26.07522     -7.5 9.692e+03 3.452e-10
 26.11466     -7.4 9.890e+03 3.571e-10
 26.15410     -7.9 1.001e+04 3.932e-10
 26.19354     -7.6 1.011e+04 5.565e-10
 26.23298     -5.9 1.016e+04 6.244e-10
 26.27242     -4.5 9.882e+03 5.129e-10
 26.31187     -3.5 9.525e+03 3.161e-10
 26.33332     -3.2 9.203e+03 2.280e-10
 26.35304     -2.7 9.107e+03 1.954e-10
 26.39075     -2.0 8.989e+03 1.849e-10
 26.43019     -1.2 9.088e+03 2.009e-10
 26.46963     -0.3 9.117e+03 2.287e-10
 26.50907      0.9 9.080e+03 2.736e-10
 26.54851      2.4 9.122e+03 2.862e-10
 26.58795      3.4 9.209e+03 2.615e-10
 26.61269      4.0 9.214e+03 2.810e-10
 26.63241      4.5 9.386e+03 2.927e-10
 26.66684      5.5 9.260e+03 2.728e-10
 26.70628      6.8 9.205e+03 2.352e-10
 26.74572      8.0 9.077e+03 1.980e-10
 26.78516      9.3 8.909e+03 1.631e-10
 26.82460     10.3 8.839e+03 1.352e-10
 26.86404     11.3 8.814e+03 1.311e-10
 26.89205     11.9 8.942e+03 1.531e-10
 26.91177     11.4 8.847e+03 1.421e-10
 26.94292     11.9 9.353e+03 1.760e-10
 26.97241     11.0 9.885e+03 2.301e-10
 26.99203      9.3 1.059e+04 2.913e-10
 27.01175      7.2 1.114e+04 5.204e-10
 27.03147      5.9 1.130e+04 7.986e-10
 27.05119      6.0 1.147e+04 1.207e-09
 27.07091      6.5 1.187e+04 1.428e-09
 27.09063      5.9 1.220e+04 1.420e-09
 27.11035      4.9 1.222e+04 1.291e-09
 27.14003      3.2 1.161e+04 1.062e-09
 27.17141      2.5 1.103e+04 1.016e-09
 27.19113      3.2 1.068e+04 7.845e-10
 27.21901      4.0 1.008e+04 5.738e-10
 27.25845      5.4 9.585e+03 3.861e-10
 27.29789      6.9 9.136e+03 2.779e-10
 27.33734      8.8 8.969e+03 2.081e-10
 27.37678     10.9 8.979e+03 1.571e-10
 27.41622     12.8 8.950e+03 1.248e-10
 27.45078     14.6 8.844e+03 1.138e-10
 27.47050     14.6 8.882e+03 1.055e-10
 27.49510     16.4 8.847e+03 1.224e-10
 27.53454     18.1 8.914e+03 1.550e-10
 27.57398     19.9 9.131e+03 2.182e-10
 27.61342     21.7 9.449e+03 3.203e-10
 27.65287     23.8 9.783e+03 4.374e-10
 27.69231     25.7 1.010e+04 5.379e-10
 27.73014     27.3 1.039e+04 6.077e-10
 27.74986     26.0 1.039e+04 5.975e-10
 27.77119     27.2 1.050e+04 6.356e-10
 27.81063     28.4 1.062e+04 7.002e-10
 27.85007     29.5 1.082e+04 8.130e-10
 27.88951     30.7 1.106e+04 9.679e-10
 27.92895     31.7 1.142e+04 1.163e-09
 27.96840     32.4 1.176e+04 1.369e-09
 27.99788     32.8 1.202e+04 1.556e-09
 28.01750     33.0 1.234e+04 1.868e-09
 28.02903     33.1 1.251e+04 2.128e-09
 28.04884     33.7 1.185e+04 1.485e-09
 28.08672     35.2 1.215e+04 1.485e-09
 28.11620     36.1 1.234e+04 1.591e-09
 28.13583     37.1 1.222e+04 1.461e-09
 28.15555     37.7 1.204e+04 1.213e-09
 28.16871     37.9 1.183e+04 9.862e-10
 28.17857     37.2 1.141e+04 8.705e-10
 28.19499     37.8 1.122e+04 7.609e-10
 28.21471     38.3 1.107e+04 6.814e-10
 28.23443     38.9 1.095e+04 6.323e-10
 28.25415     39.5 1.084e+04 6.159e-10
 28.27387     40.2 1.081e+04 6.172e-10
 28.29359     40.9 1.078e+04 6.345e-10
 28.30839     41.8 1.075e+04 6.749e-10
 28.31825     42.0 1.081e+04 6.719e-10
 28.33303     43.1 1.084e+04 7.198e-10
 28.35275     44.3 1.093e+04 7.787e-10
 28.37247     45.6 1.107e+04 8.387e-10
 28.39219     47.0 1.121e+04 8.895e-10
 28.41191     48.4 1.142e+04 9.451e-10
 28.43163     49.9 1.209e+04 1.107e-09
 28.44638     50.7 1.257e+04 1.245e-09
 28.45290     50.5 1.364e+04 1.415e-09
 28.45783     45.2 1.860e+04 2.867e-09
 28.46605     40.1 2.338e+04 6.289e-09
 28.47591     38.1 2.398e+04 1.244e-08
 28.48577     37.7 2.271e+04 2.263e-08
 28.49563     37.4 2.138e+04 4.515e-08
 28.50549     37.6 2.068e+04 9.134e-08
 28.51535     37.6 2.066e+04 1.529e-07
 28.52274     37.4 2.054e+04 1.646e-07
 28.52767     38.8 2.024e+04 2.249e-07
 28.53507     38.6 2.031e+04 1.732e-07
 28.54493     37.3 2.169e+04 1.154e-07
 28.55479     33.7 2.409e+04 6.762e-08
 28.56465     29.3 2.541e+04 3.415e-08
 28.57451     23.9 2.385e+04 1.818e-08
 28.58437     21.5 2.122e+04 1.258e-08
 28.59258     20.5 2.023e+04 9.867e-09
 28.59756     19.0 1.965e+04 4.603e-09
 28.60912     17.0 1.592e+04 2.751e-09
 28.62884     16.1 1.348e+04 1.749e-09
 28.64856     15.6 1.179e+04 1.282e-09
 28.66828     15.8 1.101e+04 1.050e-09
 28.68800     16.4 1.080e+04 9.733e-10
 28.70772     17.2 1.082e+04 9.015e-10
 28.72743     17.9 1.077e+04 8.379e-10
 28.74715     19.7 1.092e+04 9.127e-10
 28.76688     20.3 1.090e+04 8.849e-10
 28.78660     21.0 1.079e+04 8.452e-10
 28.80633     21.7 1.066e+04 8.037e-10
 28.82605     22.4 1.049e+04 7.496e-10
 28.84577     23.2 1.034e+04 6.947e-10
 28.86549     23.9 1.021e+04 6.401e-10
 28.87697     24.7 1.011e+04 5.872e-10
 28.88683     25.3 1.026e+04 6.103e-10
 28.90493     25.9 1.012e+04 5.452e-10
 28.92465     26.5 1.005e+04 4.918e-10
 28.94437     27.1 1.008e+04 4.454e-10
 28.96409     27.6 1.014e+04 4.159e-10
 28.98381     28.2 1.017e+04 4.168e-10
 29.00353     28.9 1.024e+04 4.293e-10
 29.01666     29.5 1.032e+04 4.695e-10
 29.02652     28.8 1.034e+04 4.580e-10
 29.04297     28.2 1.080e+04 5.856e-10
 29.06269     26.2 1.177e+04 9.255e-10
 29.08241     23.0 1.334e+04 1.780e-09
 29.10213     19.9 1.470e+04 3.480e-09
 29.11688     17.8 1.585e+04 5.168e-09
 29.12669     17.7 1.605e+04 5.491e-09
 29.13655     15.2 1.741e+04 7.147e-09
 29.14641     14.4 1.746e+04 7.263e-09
 29.15624     11.1 1.816e+04 7.519e-09
 29.16610      7.0 1.730e+04 5.676e-09
 29.18097     -0.2 1.562e+04 4.050e-09
 29.20074     -8.6 1.510e+04 3.363e-09
 29.22046    -16.5 1.589e+04 3.483e-09
 29.24018    -25.9 1.546e+04 3.021e-09
 29.25990    -33.9 1.503e+04 2.881e-09
 29.27962    -40.7 1.585e+04 3.399e-09
 29.29602    -46.2 1.717e+04 4.138e-09
 29.30588    -42.4 1.482e+04 3.120e-09
 29.31906    -45.4 1.477e+04 3.432e-09
 29.33878    -46.2 1.479e+04 3.507e-09
 29.35850    -45.9 1.568e+04 3.190e-09
 29.37822    -45.0 1.867e+04 2.421e-09
 29.39794    -44.5 2.325e+04 1.712e-09
 29.41766    -46.9 2.867e+04 1.350e-09
 29.43570    -50.4 3.352e+04 1.326e-09
 29.44556    -45.7 1.769e+04 4.935e-10
 29.45711    -48.2 2.562e+04 4.180e-10
 29.47683    -50.6 3.064e+04 6.194e-10
 29.49655    -53.5 2.885e+04 1.512e-09
 29.51627    -55.3 2.409e+04 4.235e-09
 29.53599    -55.5 2.095e+04 9.433e-09
 29.55571    -54.1 1.912e+04 1.522e-08
 29.57538    -52.3 1.823e+04 1.774e-08
 29.59510    -50.4 1.788e+04 1.300e-08
 29.61487    -49.5 1.763e+04 1.397e-08
 29.63459    -49.0 1.768e+04 1.296e-08
 29.65431    -48.7 1.797e+04 1.094e-08
 29.67403    -48.5 1.821e+04 7.501e-09
 29.69375    -49.0 1.736e+04 4.301e-09
 29.71347    -50.4 1.484e+04 2.391e-09
 29.72492    -50.9 1.219e+04 1.570e-09
 29.73478    -48.4 1.499e+04 3.016e-09
 29.75291    -48.7 1.267e+04 1.793e-09
 29.77263    -48.3 1.144e+04 1.252e-09
 29.79236    -47.3 1.109e+04 9.951e-10
 29.81208    -46.4 1.098e+04 8.273e-10
 29.83180    -45.5 1.084e+04 7.192e-10
 29.85152    -44.8 1.072e+04 6.390e-10
 29.86460    -44.2 1.059e+04 5.706e-10
 29.87446    -44.2 1.062e+04 4.879e-10
 29.89096    -43.7 1.051e+04 4.485e-10
 29.91068    -43.3 1.039e+04 4.303e-10
 29.93040    -42.8 1.019e+04 4.270e-10
 29.95012    -42.2 1.001e+04 4.308e-10
 29.97980    -41.3 9.836e+03 4.498e-10
 30.00448    -39.9 9.648e+03 4.376e-10
 30.02420    -39.7 9.621e+03 4.137e-10
 30.05878    -38.1 9.393e+03 3.722e-10
 30.09822    -36.5 9.130e+03 3.040e-10
 30.13766    -34.8 8.846e+03 2.370e-10
 30.17710    -33.4 8.644e+03 1.918e-10
 30.21654    -32.0 8.542e+03 1.717e-10
 30.25598    -30.6 8.514e+03 1.676e-10
 30.28384    -29.2 8.532e+03 1.712e-10
 30.30356    -29.1 8.449e+03 1.501e-10
 30.33487    -27.7 8.499e+03 1.609e-10
 30.37431    -26.3 8.534e+03 1.681e-10
 30.41375    -24.8 8.577e+03 1.705e-10
 30.45319    -23.8 8.719e+03 1.753e-10
 30.49263    -23.2 8.974e+03 2.030e-10
 30.53207    -22.4 9.229e+03 2.689e-10
 30.56321    -21.2 9.444e+03 3.377e-10
 30.58293    -20.6 9.158e+03 2.835e-10
 30.61096    -19.7 9.325e+03 3.072e-10
 30.65040    -19.4 9.509e+03 3.240e-10
 30.68984    -19.4 9.736e+03 3.504e-10
 30.71265    -20.3 9.740e+03 3.612e-10
 30.72241    -20.3 9.843e+03 3.815e-10
 30.73894    -20.5 9.914e+03 4.812e-10
 30.76862    -20.4 1.007e+04 5.875e-10
 30.80816    -20.0 1.033e+04 8.097e-10
 30.84257    -19.4 1.045e+04 9.094e-10
 30.86229    -18.9 1.115e+04 1.232e-09
 30.88704    -18.9 1.102e+04 1.147e-09
 30.92649    -19.2 1.091e+04 1.085e-09
 30.96593    -19.7 1.086e+04 1.049e-09
 31.00537    -20.5 1.080e+04 1.033e-09
 31.03485    -21.3 1.078e+04 1.030e-09
 31.05447    -21.5 1.068e+04 9.627e-10
 31.07419    -22.4 1.039e+04 8.486e-10
 31.08543    -22.8 1.032e+04 8.050e-10
 31.09529    -22.7 1.015e+04 7.556e-10
 31.11364    -23.6 9.856e+03 6.597e-10
 31.13160    -23.8 9.792e+03 6.328e-10
 31.14146    -24.1 9.843e+03 6.669e-10
 31.15308    -24.5 9.672e+03 6.372e-10
 31.17280    -24.6 9.619e+03 6.325e-10
 31.19252    -24.6 9.529e+03 6.250e-10
 31.21224    -24.4 9.480e+03 6.239e-10
 31.24192    -23.9 9.431e+03 6.228e-10
 31.28146    -22.8 9.429e+03 5.405e-10
 31.31094    -22.2 9.518e+03 5.239e-10
 31.33056    -22.0 9.570e+03 5.216e-10
 31.35028    -21.7 9.639e+03 5.224e-10
 31.37000    -21.6 9.710e+03 5.377e-10
 31.38972    -21.6 9.945e+03 6.118e-10
 31.40944    -22.1 1.033e+04 7.305e-10
 31.42082    -23.0 1.099e+04 9.629e-10
 31.43068    -23.6 1.157e+04 1.137e-09
 31.44889    -25.4 1.240e+04 1.793e-09
 31.46861    -26.0 1.291e+04 2.657e-09
 31.48833    -26.2 1.329e+04 3.418e-09
 31.50805    -25.5 1.372e+04 3.806e-09
 31.52777    -25.2 1.372e+04 3.138e-09
 31.54749    -25.7 1.354e+04 2.086e-09
 31.56050    -28.2 1.230e+04 1.217e-09
 31.57036    -29.4 1.286e+04 1.410e-09
 31.58693    -31.2 1.071e+04 7.598e-10
 31.60665    -31.4 1.012e+04 6.059e-10
 31.62637    -30.3 9.852e+03 5.036e-10
 31.64609    -29.5 9.751e+03 4.384e-10
 31.67577    -28.4 9.626e+03 3.816e-10
 31.70038    -27.0 9.501e+03 3.526e-10
 31.72010    -28.8 9.275e+03 2.545e-10
 31.75475    -28.0 9.369e+03 2.411e-10
 31.79419    -27.9 9.652e+03 2.377e-10
 31.83363    -28.2 9.943e+03 2.558e-10
 31.87307    -29.9 1.011e+04 2.881e-10
 31.91252    -31.6 1.007e+04 4.219e-10
 31.95196    -31.9 1.040e+04 6.293e-10
 31.97974    -31.5 1.088e+04 8.231e-10
 31.99946    -31.8 1.036e+04 4.862e-10
 32.03084    -32.2 1.041e+04 4.619e-10
 32.07028    -32.3 1.021e+04 4.321e-10
 32.10972    -31.7 9.903e+03 3.887e-10
 32.14916    -30.6 9.673e+03 3.407e-10
 32.18860    -29.4 9.538e+03 3.025e-10
 32.22804    -28.1 9.486e+03 2.853e-10
 32.25910    -26.9 9.510e+03 2.806e-10
 32.27882    -26.7 9.300e+03 2.803e-10
 32.30693    -25.1 9.268e+03 2.577e-10
 32.34637    -23.6 9.343e+03 2.336e-10
 32.38581    -22.1 9.328e+03 2.162e-10
 32.42525    -20.7 9.315e+03 1.942e-10
 32.46469    -19.5 9.294e+03 1.658e-10
 32.50413    -18.4 9.271e+03 1.386e-10
 32.53847    -17.3 9.219e+03 1.165e-10
 32.55819    -17.3 8.797e+03 7.675e-11
 32.58302    -15.7 8.716e+03 7.869e-11
 32.62246    -13.9 8.743e+03 7.669e-11
 32.66190    -12.3 8.911e+03 7.258e-11
 32.70134    -11.5 9.309e+03 8.310e-11
 32.74078    -11.2 9.393e+03 1.492e-10
 32.78022     -9.8 9.624e+03 2.945e-10
 32.81783     -7.9 1.019e+04 4.935e-10
 32.83755     -8.0 1.011e+04 3.769e-10
 32.85910     -7.3 1.112e+04 6.899e-10
 32.89854     -8.6 1.261e+04 1.179e-09
 32.92803    -10.1 1.361e+04 1.617e-09
 32.94765    -11.7 1.388e+04 2.423e-09
 32.96717    -11.8 1.411e+04 3.247e-09
 32.97703    -11.6 1.387e+04 3.721e-09
 32.98709    -10.9 1.390e+04 3.858e-09
 33.00681    -10.5 1.379e+04 3.140e-09
 33.02653    -11.1 1.304e+04 2.158e-09
 33.04625    -11.6 1.208e+04 1.294e-09
 33.06597    -12.8 1.119e+04 6.523e-10
 33.09565    -13.4 1.099e+04 3.699e-10
 33.11691    -15.3 1.006e+04 9.449e-11
 33.13663    -17.4 9.540e+03 7.917e-11
 33.17463    -18.6 9.190e+03 5.949e-11
 33.21407    -18.0 9.140e+03 6.156e-11
 33.25352    -17.5 9.093e+03 8.298e-11
 33.29296    -16.1 9.114e+03 1.049e-10
 33.33240    -14.7 9.152e+03 1.153e-10
 33.37184    -13.6 9.104e+03 1.132e-10
 33.39627    -12.5 9.072e+03 9.737e-11
 33.41599    -13.3 8.915e+03 1.136e-10
 33.45072    -12.0 8.897e+03 9.878e-11
 33.49016    -11.1 8.963e+03 9.191e-11
 33.52960    -10.0 8.966e+03 1.039e-10
 33.56905     -8.5 8.895e+03 1.336e-10
 33.60849     -6.6 8.927e+03 1.611e-10
 33.64793     -4.7 9.009e+03 1.824e-10
 33.67564     -3.2 9.108e+03 1.998e-10
 33.69536     -3.7 8.848e+03 1.691e-10
 33.72681     -2.7 8.908e+03 2.026e-10
 33.76625     -1.2 8.978e+03 2.592e-10
 33.80569      0.9 8.986e+03 3.036e-10
 33.84513      3.0 9.013e+03 2.876e-10
 33.88457      5.0 9.134e+03 2.262e-10
 33.92402      5.9 9.240e+03 1.865e-10
 33.95500      6.7 9.146e+03 1.898e-10
 33.97472      6.5 9.066e+03 1.082e-10
 34.00290      6.3 9.285e+03 1.834e-10
 34.04234      6.9 9.753e+03 4.295e-10
 34.08178      8.8 1.084e+04 9.713e-10
 34.10444      9.2 1.131e+04 1.376e-09
 34.11421      9.1 1.131e+04 1.367e-09
 34.13089      9.9 1.145e+04 1.652e-09
 34.15061     10.4 1.172e+04 1.748e-09
 34.17033     10.9 1.180e+04 1.715e-09
 34.20001     10.4 1.187e+04 1.466e-09
 34.23436      9.3 1.166e+04 1.039e-09
 34.25408      7.4 1.212e+04 1.386e-09
 34.27899      5.7 1.179e+04 1.062e-09
 34.31843      4.4 1.104e+04 8.623e-10
 34.35787      4.7 1.061e+04 7.270e-10
 34.39731      5.9 1.036e+04 4.888e-10
 34.43675      5.4 1.063e+04 2.664e-10
 34.47619      4.5 1.034e+04 2.354e-10
 34.51372      5.0 9.892e+03 2.403e-10
 34.53345      4.5 9.481e+03 2.189e-10
 34.55508      6.1 9.447e+03 2.003e-10
 34.59452      6.5 9.777e+03 1.638e-10
 34.63396      6.3 9.690e+03 1.800e-10
 34.67340      7.1 9.227e+03 2.063e-10
 34.71284      8.8 9.067e+03 1.855e-10
 34.75228     10.0 9.042e+03 1.508e-10
 34.79172     10.2 9.069e+03 1.248e-10
 34.81281     10.7 8.881e+03 1.240e-10
 34.83253     10.6 8.675e+03 1.462e-10
 34.87060     12.1 8.599e+03 1.438e-10
 34.91005     13.9 8.528e+03 1.266e-10
 34.94949     15.1 8.554e+03 1.071e-10
 34.98893     16.2 8.549e+03 1.014e-10
 35.02837     17.3 8.598e+03 1.052e-10
 35.06781     18.1 8.754e+03 1.223e-10
 35.09217     18.5 9.017e+03 1.830e-10
 35.11189     17.9 8.941e+03 1.518e-10
 35.14669     18.5 9.256e+03 2.856e-10
 35.18613     19.5 9.527e+03 4.011e-10
 35.22558     20.7 9.462e+03 3.791e-10
 35.26502     21.4 9.281e+03 2.735e-10
 35.30446     21.0 9.032e+03 1.712e-10
 35.34390     20.2 8.553e+03 1.253e-10
 35.37153     20.3 8.401e+03 1.246e-10
 35.39125     19.7 8.510e+03 1.148e-10
 35.42278     18.9 8.862e+03 1.475e-10
 35.46222     19.0 9.042e+03 2.343e-10
 35.50166     19.9 9.215e+03 3.267e-10
 35.54111     20.6 9.479e+03 4.023e-10
 35.58055     20.9 9.807e+03 4.835e-10
 35.61999     21.1 1.005e+04 5.856e-10
 35.65090     21.8 1.006e+04 6.371e-10
 35.67062     21.1 9.890e+03 5.943e-10
 35.69887     22.0 9.880e+03 5.534e-10
 35.73831     22.1 1.001e+04 5.129e-10
 35.77775     21.5 1.030e+04 5.666e-10
 35.80034     20.5 6.022e+03 6.250e-10
 35.81010     17.6 6.850e+03 7.289e-10
 35.82686     12.7 1.132e+04 7.335e-10
 35.84658     17.6 1.130e+04 7.856e-10
 35.86630      8.2 2.569e+04 8.183e-10
 35.88602     -2.4 3.534e+04 1.756e-09
 35.90076     -8.0 3.112e+04 4.552e-09
 35.91057    -11.4 2.746e+04 1.027e-08
 35.92043    -13.7 2.267e+04 2.255e-08
 35.93029    -14.4 2.077e+04 3.988e-08
 35.93983    -14.4 1.996e+04 5.504e-08
 35.94476    -13.1 1.983e+04 4.862e-08
 35.95001    -12.3 2.014e+04 5.288e-08
 35.95987    -11.1 2.038e+04 5.414e-08
 35.96974     -9.6 2.163e+04 4.371e-08
 35.97960     -7.4 2.683e+04 2.087e-08
 35.98946     -6.7 3.325e+04 6.606e-09
 35.99932    -17.8 3.230e+04 1.643e-09
 36.00918    -31.4 1.654e+04 6.047e-10
 36.02402    -35.7 1.059e+04 3.930e-10
 36.04379    -34.5 9.710e+03 3.372e-10
 36.06351    -33.0 9.663e+03 3.091e-10
 36.07960    -31.7 9.590e+03 2.893e-10
 36.08947    -31.3 9.576e+03 3.072e-10
 36.10295    -30.6 9.425e+03 2.848e-10
 36.13263    -28.3 9.398e+03 2.529e-10
 36.17216    -25.9 9.169e+03 2.073e-10
 36.20962    -24.0 8.895e+03 1.661e-10
 36.22934    -23.5 9.041e+03 2.073e-10
 36.25105    -21.5 8.825e+03 1.602e-10
 36.29049    -19.8 8.604e+03 1.306e-10
 36.32993    -17.9 8.494e+03 1.214e-10
 36.36937    -16.1 8.433e+03 1.209e-10
 36.40881    -14.0 8.471e+03 1.309e-10
 36.44825    -12.0 8.504e+03 1.436e-10
 36.48769     -9.9 8.522e+03 1.543e-10
 36.50870     -7.7 8.580e+03 1.656e-10
 36.52843     -7.6 8.568e+03 1.636e-10
 36.56658     -5.3 8.640e+03 1.727e-10
 36.60602     -3.1 8.737e+03 1.843e-10
 36.64546     -1.3 8.865e+03 1.979e-10
 36.68490      0.2 9.079e+03 2.104e-10
 36.72434      0.7 9.610e+03 2.959e-10
 36.76378      0.7 1.032e+04 5.058e-10
 36.78807      0.4 1.113e+04 8.846e-10
 36.80779      0.3 1.113e+04 8.005e-10
 36.84266      1.3 1.169e+04 1.546e-09
 36.88211      0.7 1.218e+04 1.532e-09
 36.91159     -0.9 1.232e+04 1.275e-09
 36.92755     -1.6 1.229e+04 1.264e-09
 36.93741     -1.7 1.223e+04 1.274e-09
 36.95093     -3.8 1.206e+04 1.390e-09
 36.97065     -4.3 1.209e+04 1.416e-09
 37.00033     -5.0 1.226e+04 1.704e-09
 37.02991     -4.7 1.226e+04 1.884e-09
 37.04954     -4.3 1.239e+04 1.660e-09
 37.06723     -4.5 1.233e+04 1.365e-09
 37.07709     -4.8 1.217e+04 1.279e-09
 37.08898     -5.4 1.188e+04 1.033e-09
 37.11866     -6.8 1.148e+04 7.641e-10
 37.15819     -7.0 1.143e+04 7.725e-10
 37.19764     -6.3 1.164e+04 8.305e-10
 37.23708     -6.5 1.197e+04 7.521e-10
 37.27652     -8.3 1.240e+04 8.564e-10
 37.31596     -9.2 1.262e+04 1.452e-09
 37.34679     -8.0 1.297e+04 2.005e-09
 37.36224     -7.7 1.237e+04 1.524e-09
 37.37085     -7.0 1.226e+04 1.453e-09
 37.39484     -5.7 1.265e+04 1.756e-09
 37.43428     -4.7 1.254e+04 1.363e-09
 37.47372     -4.2 1.202e+04 8.633e-10
 37.51317     -4.4 1.162e+04 6.656e-10
 37.55261     -3.4 1.167e+04 6.744e-10
 37.59205     -2.7 1.218e+04 9.266e-10
 37.62153     -2.8 1.305e+04 1.691e-09
 37.63582     -2.4 1.334e+04 2.043e-09
 37.64568     -2.5 1.411e+04 3.111e-09
 37.66087     -1.9 1.432e+04 3.592e-09
 37.68059     -1.2 1.434e+04 3.898e-09
 37.70032     -0.3 1.433e+04 3.920e-09
 37.72004      0.6 1.420e+04 3.768e-09
 37.73976      1.4 1.403e+04 3.390e-09
 37.75948      1.9 1.387e+04 2.765e-09
 37.77550      2.1 1.357e+04 2.355e-09
 37.78536      1.5 1.347e+04 2.228e-09
 37.79892      1.4 1.336e+04 1.811e-09
 37.82860      2.2 1.286e+04 1.568e-09
 37.86814      3.5 1.224e+04 1.051e-09
 37.90552      4.1 1.191e+04 6.327e-10
 37.92524      3.6 1.242e+04 8.591e-10
 37.94702      3.3 1.208e+04 6.984e-10
 37.98646      4.0 1.162e+04 6.811e-10
 38.02590      5.5 1.147e+04 6.237e-10
 38.06534      6.7 1.141e+04 5.240e-10
 38.10478      7.5 1.130e+04 4.649e-10
 38.14422      8.4 1.111e+04 4.474e-10
 38.18367      9.7 1.092e+04 4.257e-10
 38.20460     11.0 1.081e+04 3.720e-10
 38.22432     10.7 1.072e+04 3.220e-10
 38.26255     11.6 1.062e+04 2.899e-10
 38.30199     12.3 1.032e+04 2.657e-10
 38.34143     13.4 1.004e+04 2.460e-10
 38.38087     14.9 9.817e+03 2.191e-10
 38.42031     16.5 9.699e+03 1.904e-10
 38.45975     17.9 9.575e+03 1.705e-10
 38.48396     19.4 9.480e+03 1.614e-10
 38.50368     19.4 9.336e+03 1.206e-10
 38.53864     21.1 9.290e+03 1.154e-10
 38.57808     22.7 9.286e+03 1.092e-10
 38.61752     24.3 9.330e+03 1.073e-10
 38.65696     25.6 9.406e+03 1.130e-10
 38.69640     26.5 9.594e+03 1.430e-10
 38.73584     27.5 9.902e+03 2.157e-10
 38.76333     28.8 1.028e+04 3.065e-10
 38.78305     29.0 1.018e+04 3.006e-10
 38.81472     29.3 1.051e+04 3.863e-10
 38.84421     29.1 1.083e+04 4.738e-10
 38.86383     29.1 1.109e+04 5.881e-10
 38.88355     29.3 1.124e+04 7.201e-10
 38.90281     29.5 1.133e+04 8.423e-10
 38.91267     29.6 1.127e+04 8.399e-10
 38.92299     29.7 1.134e+04 8.899e-10
 38.94271     29.6 1.142e+04 9.208e-10
 38.96243     29.0 1.153e+04 9.751e-10
 38.98215     28.5 1.149e+04 9.931e-10
 39.01183     27.8 1.169e+04 1.158e-09
 39.04141     27.4 1.161e+04 1.182e-09
 39.05235     27.2 1.151e+04 1.139e-09
 39.06221     27.3 1.142e+04 1.108e-09
 39.08076     27.4 1.110e+04 9.171e-10
 39.10048     27.1 1.079e+04 7.034e-10
 39.13016     26.9 1.018e+04 4.236e-10
 39.16970     26.9 9.624e+03 2.471e-10
 39.20914     27.1 9.232e+03 1.963e-10
 39.24858     27.9 9.203e+03 1.970e-10
 39.28802     28.9 9.243e+03 2.095e-10
 39.32205     29.9 9.307e+03 2.364e-10
 39.34177     30.2 9.278e+03 2.374e-10
 39.36690     31.1 9.405e+03 2.732e-10
 39.40634     32.0 9.590e+03 3.089e-10
 39.44578     32.7 9.819e+03 3.381e-10
 39.48522     33.0 1.004e+04 3.672e-10
 39.52467     32.8 1.025e+04 4.264e-10
 39.56411     32.9 1.030e+04 5.034e-10
 39.60141     33.7 1.022e+04 4.977e-10
 39.62114     33.7 1.014e+04 4.575e-10
 39.64299     34.2 1.007e+04 3.267e-10
 39.68243     34.0 9.924e+03 2.364e-10
 39.72187     34.1 9.821e+03 2.292e-10
 39.76131     34.7 9.852e+03 2.402e-10
 39.80075     35.6 9.979e+03 2.599e-10
 39.84020     36.6 1.010e+04 2.699e-10
 39.87964     37.5 1.021e+04 2.721e-10
 39.90050     38.4 1.034e+04 2.701e-10
 39.92022     39.1 1.032e+04 3.021e-10
 39.95852     40.0 1.053e+04 3.214e-10
 39.99796     40.7 1.070e+04 3.325e-10
 40.03740     41.3 1.088e+04 3.793e-10
 40.07684     41.7 1.139e+04 5.308e-10
 40.10633     41.9 1.154e+04 5.843e-10
 40.12595     41.7 1.180e+04 7.023e-10
 40.14567     41.3 1.211e+04 8.961e-10
 40.16539     41.1 1.241e+04 1.144e-09
 40.17967     41.1 1.272e+04 1.396e-09
 40.18953     41.1 1.292e+04 1.537e-09
 40.20483     41.0 1.319e+04 1.619e-09
 40.23451     40.9 1.327e+04 1.620e-09
 40.27405     41.4 1.296e+04 1.234e-09
 40.31349     41.7 1.253e+04 8.707e-10
 40.35293     42.1 1.212e+04 7.211e-10
 40.39237     43.2 1.192e+04 7.142e-10
 40.43181     44.9 1.182e+04 7.360e-10
 40.45922     46.8 1.172e+04 7.121e-10
 40.47894     47.4 1.171e+04 7.032e-10
 40.51070     49.4 1.166e+04 6.806e-10
 40.55014     51.4 1.151e+04 5.996e-10
 40.58958     53.3 1.127e+04 4.771e-10
 40.62902     55.2 1.103e+04 3.596e-10
 40.66846     57.0 1.085e+04 2.820e-10
 40.70790     58.9 1.084e+04 2.599e-10
 40.73859     60.9 1.085e+04 2.613e-10
 40.75831     61.3 1.077e+04 2.281e-10
 40.78678     63.2 1.080e+04 2.337e-10
 40.82623     65.0 1.092e+04 2.565e-10
 40.86567     66.5 1.109e+04 3.021e-10
 40.90511     68.0 1.125e+04 3.767e-10
 40.94455     69.7 1.148e+04 4.888e-10
 40.97403     70.5 1.152e+04 5.343e-10
 40.99366     70.9 1.162e+04 5.659e-10
 41.01338     71.4 1.171e+04 5.907e-10
 41.02761     72.0 1.182e+04 6.020e-10
 41.03747     72.4 1.193e+04 6.426e-10
 41.05282     72.8 1.202e+04 6.424e-10
 41.07254     73.1 1.203e+04 6.389e-10
 41.09226     73.4 1.202e+04 6.221e-10
 41.11198     73.8 1.195e+04 5.852e-10
 41.13170     74.3 1.189e+04 5.354e-10
 41.15142     74.5 1.186e+04 4.849e-10
 41.16730     74.5 1.182e+04 4.625e-10
 41.17716     74.7 1.190e+04 4.955e-10
 41.19086     74.7 1.194e+04 5.067e-10
 41.21058     74.7 1.202e+04 5.360e-10
 41.23030     74.6 1.208e+04 5.761e-10
 41.25002     74.6 1.213e+04 6.186e-10
 41.26974     74.4 1.216e+04 6.626e-10
 41.28946     74.1 1.220e+04 7.070e-10
 41.30698     73.7 1.228e+04 7.529e-10
 41.31684     73.4 1.275e+04 8.579e-10
 41.32891     72.7 1.281e+04 9.428e-10
 41.34863     72.0 1.269e+04 9.877e-10
 41.36835     71.5 1.257e+04 9.796e-10
 41.38807     71.4 1.229e+04 9.381e-10
 41.40779     71.5 1.202e+04 8.451e-10
 41.42751     71.6 1.177e+04 7.271e-10
 41.44666     71.8 1.162e+04 5.791e-10
 41.45652     71.8 1.169e+04 4.887e-10
 41.46695     71.5 1.162e+04 3.887e-10
 41.49663     71.2 1.157e+04 3.535e-10
 41.53617     71.7 1.128e+04 2.962e-10
 41.57561     72.7 1.103e+04 2.716e-10
 41.59639     73.9 1.094e+04 2.708e-10
 41.61612     73.7 1.103e+04 2.181e-10
 41.65449     74.7 1.097e+04 2.262e-10
 41.69393     75.7 1.091e+04 2.262e-10
 41.73337     76.8 1.077e+04 2.165e-10
 41.77281     78.0 1.065e+04 1.910e-10
 41.81226     79.1 1.056e+04 1.642e-10
 41.85170     80.3 1.053e+04 1.535e-10
 41.87576     81.5 1.055e+04 1.543e-10
 41.89548     81.3 1.050e+04 1.380e-10
 41.93058     82.5 1.050e+04 1.474e-10
 41.97002     83.7 1.060e+04 1.604e-10
 42.00946     84.9 1.085e+04 1.771e-10
 42.04890     85.0 1.120e+04 2.108e-10
 42.08834     84.9 1.145e+04 2.901e-10
 42.12779     84.8 1.160e+04 4.388e-10
 42.15512     84.8 1.166e+04 5.587e-10
 42.17484     84.1 1.162e+04 5.439e-10
 42.20667     84.0 1.158e+04 5.379e-10
 42.24611     84.3 1.136e+04 4.533e-10
 42.28555     84.8 1.105e+04 3.050e-10
 42.32499     85.1 1.079e+04 1.923e-10
 42.36443     85.4 1.058e+04 1.506e-10
 42.40387     85.8 1.050e+04 1.518e-10
 42.43448     86.1 1.050e+04 1.730e-10
 42.45420     85.7 1.041e+04 1.390e-10
 42.48276     86.0 1.050e+04 1.783e-10
 42.52220     86.1 1.075e+04 2.358e-10
 42.56164     86.3 1.095e+04 2.898e-10
 42.60108     86.8 1.105e+04 3.024e-10
 42.64052     87.3 1.099e+04 2.746e-10
 42.67996     87.7 1.083e+04 2.284e-10
 42.71385     88.2 1.063e+04 2.043e-10
 42.73357     89.5 1.057e+04 1.942e-10
 42.75884     90.2 1.056e+04 1.942e-10
 42.79829     90.8 1.058e+04 2.064e-10
 42.83773     91.3 1.071e+04 2.487e-10
 42.87717     91.2 1.085e+04 3.040e-10
 42.90665     91.3 1.092e+04 3.344e-10
 42.92627     91.1 1.116e+04 4.288e-10
 42.94599     90.7 1.155e+04 6.353e-10
 42.96572     90.4 1.198e+04 9.502e-10
 42.98544     90.1 1.243e+04 1.332e-09
 43.00287     89.6 1.286e+04 1.653e-09
 43.01273     90.4 1.270e+04 1.675e-09
 43.02488     89.7 1.301e+04 1.849e-09
 43.04460     88.5 1.301e+04 1.830e-09
 43.06432     87.4 1.281e+04 1.726e-09
 43.08404     86.4 1.249e+04 1.526e-09
 43.10376     85.6 1.216e+04 1.315e-09
 43.12348     84.7 1.191e+04 1.132e-09
 43.14255     83.9 1.171e+04 9.788e-10
 43.15241     84.2 1.182e+04 1.143e-09
 43.16292     83.5 1.158e+04 1.021e-09
 43.18264     83.0 1.134e+04 9.044e-10
 43.20236     82.5 1.110e+04 7.987e-10
 43.22208     82.2 1.088e+04 6.861e-10
 43.24180     82.0 1.070e+04 5.700e-10
 43.26152     81.6 1.051e+04 4.281e-10
 43.28124     81.3 1.042e+04 3.799e-10
 43.29219     81.3 1.022e+04 2.994e-10
 43.31201     82.8 1.024e+04 3.101e-10
 43.35046     83.4 9.768e+03 1.993e-10
 43.38990     84.5 9.457e+03 1.664e-10
 43.42934     86.1 9.460e+03 1.692e-10
 43.46879     87.8 9.517e+03 1.880e-10
 43.50823     89.1 9.771e+03 2.524e-10
 43.54767     90.2 1.027e+04 3.962e-10
 43.57165     91.0 1.089e+04 6.416e-10
 43.59137     93.0 1.054e+04 4.533e-10
 43.62655     93.3 1.111e+04 7.340e-10
 43.66599     93.5 1.161e+04 1.037e-09
 43.70543     93.5 1.192e+04 1.176e-09
 43.74487     93.0 1.184e+04 1.048e-09
 43.78432     92.0 1.145e+04 7.316e-10
 43.82376     90.4 1.081e+04 4.839e-10
 43.85102     89.2 1.040e+04 4.154e-10
 43.87074     90.5 1.082e+04 5.138e-10
 43.90264     90.1 1.065e+04 4.879e-10
 43.94208     90.2 1.052e+04 4.429e-10
 43.98152     90.9 1.030e+04 3.725e-10
 44.02096     91.9 1.005e+04 2.770e-10
 44.06040     92.9 9.791e+03 2.005e-10
 44.09984     93.9 9.564e+03 1.648e-10
 44.13038     95.0 9.517e+03 1.632e-10
 44.15010     95.3 9.572e+03 1.708e-10
 44.17873     96.5 9.601e+03 1.782e-10
 44.21817     97.7 9.766e+03 2.109e-10
 44.25761     98.5 1.006e+04 2.782e-10
 44.29705     98.8 1.026e+04 3.578e-10
 44.32653     99.2 1.046e+04 4.716e-10
 44.34616     99.7 1.073e+04 6.216e-10
 44.36588    100.1 1.103e+04 7.921e-10
 44.38560    100.4 1.129e+04 9.553e-10
 44.40532    100.7 1.147e+04 1.050e-09
 44.41941    100.8 1.149e+04 1.052e-09
 44.42927    101.0 1.127e+04 9.261e-10
 44.44476    101.1 1.126e+04 9.148e-10
 44.46448    101.4 1.117e+04 8.558e-10
 44.48420    101.8 1.104e+04 7.363e-10
 44.50392    102.1 1.093e+04 5.920e-10
 44.52364    102.1 1.082e+04 4.564e-10
 44.54336    102.0 1.062e+04 3.687e-10
 44.55909    101.9 1.037e+04 3.531e-10
 44.56895    102.6 1.071e+04 3.949e-10
 44.58280    102.5 1.067e+04 3.959e-10
 44.60252    102.4 1.067e+04 4.145e-10
 44.62225    102.2 1.076e+04 4.887e-10
 44.64197    102.1 1.099e+04 6.353e-10
 44.66169    102.0 1.133e+04 8.622e-10
 44.68141    102.0 1.173e+04 1.169e-09
 44.69877    102.0 1.218e+04 1.538e-09
 44.70863    101.8 1.252e+04 1.705e-09
 44.72085    101.6 1.311e+04 2.213e-09
 44.74057    101.3 1.365e+04 2.650e-09
 44.76029    100.8 1.385e+04 2.724e-09
 44.78001    100.2 1.382e+04 2.669e-09
 44.79973     99.9 1.356e+04 2.319e-09
 44.81945     99.6 1.313e+04 1.873e-09
 44.84913    100.1 1.255e+04 1.306e-09
 44.88867    100.3 1.162e+04 7.040e-10
 44.92811    100.5 1.070e+04 4.157e-10
 44.96755    101.3 1.040e+04 3.793e-10
 44.98819    102.7 1.038e+04 3.829e-10
 45.00791    102.2 1.033e+04 3.720e-10
 45.04643    103.9 1.030e+04 3.880e-10
 45.08587    105.2 1.031e+04 4.191e-10
 45.12532    106.3 1.031e+04 4.417e-10
 45.16476    107.1 1.026e+04 4.448e-10
 45.20420    107.9 1.015e+04 4.452e-10
 45.24364    108.6 1.009e+04 4.504e-10
 45.26755    109.3 1.007e+04 4.752e-10
 45.28727    110.0 9.716e+03 3.427e-10
 45.32252    111.1 9.700e+03 3.601e-10
 45.36196    112.4 9.729e+03 3.853e-10
 45.40140    113.9 9.681e+03 3.952e-10
 45.44085    115.6 9.617e+03 3.871e-10
 45.48029    117.5 9.473e+03 3.605e-10
 45.51973    119.5 9.297e+03 3.239e-10
 45.54691    121.5 9.140e+03 2.883e-10
 45.56663    122.8 9.278e+03 3.201e-10
 45.59861    124.8 9.203e+03 3.036e-10
 45.63805    126.8 9.128e+03 2.919e-10
 45.67749    128.7 9.064e+03 2.801e-10
 45.71693    130.7 9.007e+03 2.685e-10
 45.75638    132.7 8.949e+03 2.562e-10
 45.79582    134.6 8.879e+03 2.421e-10
 45.82628    136.5 8.788e+03 2.273e-10
 45.84600    138.0 8.996e+03 2.757e-10
 45.87470    140.0 8.928e+03 2.667e-10
 45.91414    142.0 8.918e+03 2.645e-10
 45.95358    143.8 8.936e+03 2.702e-10
 45.99302    145.5 9.036e+03 2.942e-10
 46.03246    146.9 9.203e+03 3.350e-10
 46.07190    148.1 9.356e+03 3.788e-10
 46.10564    148.9 9.435e+03 3.999e-10
 46.12526    150.1 9.548e+03 4.503e-10
 46.14073    150.6 9.616e+03 4.574e-10
 46.16045    150.8 9.609e+03 4.549e-10
 46.18017    150.9 9.578e+03 4.409e-10
 46.19989    151.0 9.501e+03 4.196e-10
 46.21961    150.9 9.396e+03 3.921e-10
 46.23933    150.7 9.263e+03 3.651e-10
 46.26901    151.0 9.250e+03 3.637e-10
 46.30855    150.0 9.225e+03 3.662e-10
 46.34799    148.9 9.256e+03 3.923e-10
 46.38500    147.4 9.390e+03 4.210e-10
 46.40462    148.4 9.439e+03 4.555e-10
 46.41682    146.8 9.486e+03 4.491e-10
 46.43654    145.7 9.468e+03 4.334e-10
 46.45626    143.6 9.408e+03 3.827e-10
 46.47598    142.1 9.283e+03 3.451e-10
 46.49570    139.3 9.250e+03 2.963e-10
 46.51542    137.2 9.145e+03 2.720e-10
 46.53435    134.1 9.169e+03 2.714e-10
 46.54421    133.7 9.189e+03 2.993e-10
 46.55486    130.4 9.464e+03 3.450e-10
 46.57458    126.0 1.035e+04 5.229e-10
 46.59431    121.5 1.123e+04 8.716e-10
 46.61403    117.7 1.176e+04 1.144e-09
 46.63375    114.6 1.180e+04 1.128e-09
 46.65347    111.4 1.175e+04 8.935e-10
 46.67319    109.2 1.128e+04 6.486e-10
 46.68389    105.3 1.098e+04 4.327e-10
 46.70371    100.0 1.014e+04 2.864e-10
 46.74241     93.3 9.623e+03 2.829e-10
 46.78185     89.3 9.468e+03 3.299e-10
 46.81133     87.7 9.538e+03 4.166e-10
 46.82357     86.3 9.750e+03 4.998e-10
 46.83343     85.9 9.810e+03 5.144e-10
 46.85067     84.5 1.002e+04 5.775e-10
 46.87039     83.1 1.015e+04 6.045e-10
 46.89011     81.4 1.024e+04 6.227e-10
 46.90983     79.9 1.041e+04 6.686e-10
 46.92956     78.3 1.076e+04 7.808e-10
 46.94928     76.5 1.143e+04 1.018e-09
 46.96325     74.4 1.246e+04 1.484e-09
 46.97311     74.4 1.289e+04 1.749e-09
 46.98872     72.1 1.439e+04 2.918e-09
 47.00844     70.6 1.555e+04 4.695e-09
 47.02816     69.7 1.627e+04 6.421e-09
 47.04788     68.8 1.648e+04 6.700e-09
 47.06760     67.5 1.639e+04 6.296e-09
 47.08732     65.6 1.602e+04 5.116e-09
 47.10293     63.1 1.538e+04 4.048e-09
 47.11279     64.2 1.606e+04 4.891e-09
 47.12676     61.2 1.518e+04 4.261e-09
 47.14648     59.5 1.492e+04 4.317e-09
 47.16620     59.2 1.495e+04 4.732e-09
 47.18592     59.5 1.520e+04 5.193e-09
 47.20564     59.9 1.530e+04 5.201e-09
 47.22536     60.4 1.524e+04 4.979e-09
 47.24261     60.8 1.506e+04 4.511e-09
 47.25248     60.9 1.515e+04 4.710e-09
 47.26481     61.2 1.489e+04 4.077e-09
 47.28453     61.5 1.456e+04 3.429e-09
 47.30425     61.9 1.424e+04 2.877e-09
 47.32397     62.3 1.393e+04 2.421e-09
 47.34369     62.7 1.358e+04 2.010e-09
 47.36341     63.2 1.326e+04 1.723e-09
 47.38230     63.6 1.290e+04 1.469e-09
 47.39216     63.0 1.279e+04 1.473e-09
 47.40285     63.3 1.239e+04 1.321e-09
 47.42257     63.6 1.205e+04 1.201e-09
 47.44229     64.0 1.175e+04 1.109e-09
 47.46201     64.5 1.155e+04 1.045e-09
 47.48173     65.1 1.137e+04 9.703e-10
 47.50145     65.6 1.129e+04 9.179e-10
 47.52208     66.7 1.110e+04 8.584e-10
 47.54189     66.4 1.084e+04 7.728e-10
 47.57067     67.6 1.030e+04 6.051e-10
 47.61011     69.1 9.796e+03 4.621e-10
 47.64955     70.8 9.312e+03 3.402e-10
 47.68899     72.7 8.863e+03 2.412e-10
 47.72844     74.7 8.504e+03 1.668e-10
 47.76788     76.6 8.200e+03 1.115e-10
 47.80154     78.1 7.954e+03 7.373e-11
 47.82126     78.6 7.988e+03 7.827e-11
 47.84676     80.2 7.760e+03 5.858e-11
 47.88620     82.0 7.669e+03 5.602e-11
 47.92564     84.0 7.662e+03 5.699e-11
 47.96508     85.9 7.664e+03 6.302e-11
 48.00452     87.9 7.743e+03 8.075e-11
 48.04396     89.9 7.922e+03 1.153e-10
 48.08090     92.0 8.212e+03 1.660e-10
 48.10062     92.6 8.195e+03 1.507e-10
 48.12285     94.6 8.515e+03 2.127e-10
 48.16229     96.7 8.818e+03 2.778e-10
 48.20173     98.6 9.069e+03 3.298e-10
 48.24117    100.5 9.273e+03 3.604e-10
 48.28061    102.1 9.394e+03 3.738e-10
 48.32005    103.3 9.439e+03 3.733e-10
 48.34954    104.7 9.477e+03 3.777e-10
 48.36916    105.8 9.638e+03 3.991e-10
 48.37979    106.6 9.828e+03 4.429e-10
 48.38965    106.9 9.849e+03 4.449e-10
 48.40860    107.6 1.006e+04 5.058e-10
 48.42832    108.4 1.031e+04 5.846e-10
 48.44804    109.0 1.068e+04 7.058e-10
 48.46776    109.6 1.111e+04 8.931e-10
 48.48748    110.2 1.154e+04 1.136e-09
 48.50720    110.9 1.192e+04 1.399e-09
 48.51947    111.6 1.221e+04 1.617e-09
 48.52933    111.6 1.194e+04 1.384e-09
 48.54664    112.1 1.212e+04 1.510e-09
 48.56637    112.7 1.216e+04 1.528e-09
 48.58609    113.4 1.213e+04 1.503e-09
 48.60581    114.1 1.206e+04 1.421e-09
 48.62553    114.9 1.198e+04 1.299e-09
 48.64525    115.6 1.190e+04 1.163e-09
 48.65915    116.4 1.186e+04 1.040e-09
 48.66901    115.8 1.226e+04 1.418e-09
 48.68469    116.6 1.243e+04 1.425e-09
 48.70441    117.4 1.263e+04 1.463e-09
 48.72413    118.3 1.285e+04 1.513e-09
 48.74385    119.2 1.298e+04 1.569e-09
 48.76357    120.1 1.315e+04 1.634e-09
 48.78329    121.0 1.333e+04 1.721e-09
 48.79883    121.7 1.354e+04 1.854e-09
 48.80869    121.1 1.427e+04 3.393e-09
 48.82273    122.0 1.447e+04 3.709e-09
 48.84245    122.9 1.467e+04 4.084e-09
 48.86217    123.8 1.484e+04 4.403e-09
 48.88189    124.7 1.487e+04 4.481e-09
 48.90162    125.6 1.484e+04 4.388e-09
 48.92134    126.5 1.481e+04 4.094e-09
 48.93851    127.5 1.467e+04 3.722e-09
 48.94837    127.1 1.397e+04 2.783e-09
 48.96078    127.9 1.360e+04 2.017e-09
 48.98050    128.5 1.313e+04 1.344e-09
 49.00022    128.7 1.266e+04 8.939e-10
 49.01994    128.8 1.212e+04 5.977e-10
 49.03966    128.9 1.152e+04 4.205e-10
 49.05938    129.1 1.100e+04 3.327e-10
 49.07819    129.5 1.060e+04 2.943e-10
 49.08805    129.0 1.018e+04 2.796e-10
 49.09882    130.0 1.012e+04 2.718e-10
 49.11854    131.1 1.009e+04 2.706e-10
 49.13826    132.3 1.009e+04 2.710e-10
 49.15798    133.4 1.011e+04 2.735e-10
 49.17770    134.4 1.015e+04 2.791e-10
 49.19742    135.4 1.022e+04 2.887e-10
 49.21714    136.4 1.039e+04 3.030e-10
 49.22773    137.1 1.061e+04 3.327e-10
 49.23759    136.6 1.067e+04 3.577e-10
 49.25659    137.2 1.093e+04 4.285e-10
 49.27631    137.5 1.124e+04 5.440e-10
 49.29603    137.5 1.157e+04 7.227e-10
 49.31575    137.3 1.203e+04 1.008e-09
 49.33547    137.1 1.253e+04 1.418e-09
 49.35519    136.5 1.310e+04 1.926e-09
 49.36742    135.6 1.361e+04 2.395e-09
 49.37728    135.8 1.278e+04 1.550e-09
 49.39463    134.2 1.325e+04 1.793e-09
 49.41435    131.1 1.435e+04 2.104e-09
 49.43407    126.0 1.649e+04 2.582e-09
 49.44881    123.0 1.753e+04 2.904e-09
 49.45862    118.6 1.920e+04 3.852e-09
 49.46848    113.7 2.006e+04 5.769e-09
 49.47835    109.7 1.971e+04 8.382e-09
 49.48821    106.4 1.935e+04 1.107e-08
 49.49807    104.4 1.918e+04 1.257e-08
 49.50705    101.4 2.062e+04 1.407e-08
 49.51696    104.5 1.843e+04 9.872e-09
 49.53267    102.1 1.830e+04 9.388e-09
 49.55240     99.9 1.840e+04 7.867e-09
 49.57212     97.3 1.818e+04 6.155e-09
 49.59184     94.7 1.730e+04 4.820e-09
 49.61156     92.7 1.605e+04 4.238e-09
 49.63128     91.7 1.539e+04 4.096e-09
 49.64678     91.8 1.523e+04 4.085e-09
 49.65664     93.8 1.330e+04 2.376e-09
 49.67072     93.9 1.320e+04 2.311e-09
 49.69044     94.2 1.305e+04 2.218e-09
 49.71016     94.4 1.285e+04 2.048e-09
 49.72988     94.5 1.263e+04 1.834e-09
 49.74960     94.3 1.246e+04 1.616e-09
 49.76932     94.0 1.228e+04 1.435e-09
 49.78646     93.7 1.198e+04 1.303e-09
 49.79632     95.8 1.130e+04 1.060e-09
 49.80876     95.5 1.122e+04 1.005e-09
 49.82848     95.3 1.106e+04 9.499e-10
 49.84820     95.4 1.085e+04 8.828e-10
 49.86792     95.5 1.061e+04 8.095e-10
 49.88765     95.7 1.041e+04 7.461e-10
 49.90737     95.8 1.027e+04 7.028e-10
 49.92137     95.8 1.019e+04 6.759e-10
 49.93029     95.1 1.019e+04 6.762e-10
 49.93600     96.4 1.026e+04 7.044e-10
 49.94681     96.3 1.020e+04 6.835e-10
 49.96653     96.2 1.015e+04 6.611e-10
 49.98625     96.1 1.008e+04 6.322e-10
 50.00597     96.0 9.984e+03 5.758e-10
 50.02569     95.9 9.944e+03 5.523e-10
 50.04541     95.7 9.836e+03 4.822e-10
 50.06513     95.6 9.769e+03 4.503e-10
 50.07568     94.5 9.973e+03 4.001e-10
 50.09550     94.1 9.519e+03 3.101e-10
 50.12439     93.0 9.575e+03 2.726e-10
 50.14401     92.2 9.684e+03 2.778e-10
 50.16373     90.5 1.002e+04 3.226e-10
 50.18345     89.1 1.031e+04 4.033e-10
 50.20317     87.7 1.097e+04 6.058e-10
 50.21536     87.5 1.125e+04 7.337e-10
 50.22522     87.7 1.082e+04 5.670e-10
 50.25257     86.7 1.169e+04 9.633e-10
 50.29211     85.7 1.217e+04 1.345e-09
 50.32160     84.8 1.233e+04 1.420e-09
 50.34122     84.1 1.247e+04 1.463e-09
 50.35505     82.5 1.269e+04 1.443e-09
 50.37486     83.6 1.255e+04 1.390e-09
 50.41044     81.1 1.279e+04 1.335e-09
 50.44988     78.6 1.295e+04 1.260e-09
 50.48932     76.7 1.295e+04 1.233e-09
 50.52876     76.1 1.279e+04 1.219e-09
 50.55824     77.7 1.256e+04 1.190e-09
 50.57787     77.8 1.272e+04 1.264e-09
 50.59759     77.7 1.327e+04 1.538e-09
 50.61731     77.3 1.389e+04 1.874e-09
 50.63441     76.9 1.435e+04 2.231e-09
 50.64427     79.4 1.426e+04 2.190e-09
 50.65675     78.9 1.482e+04 2.700e-09
 50.67647     78.3 1.548e+04 3.230e-09
 50.69619     77.6 1.547e+04 3.310e-09
 50.71591     77.1 1.506e+04 3.110e-09
 50.73563     76.6 1.423e+04 2.750e-09
 50.75535     76.4 1.323e+04 2.279e-09
 50.77409     76.3 1.255e+04 1.778e-09
 50.78395     79.2 1.425e+04 2.809e-09
 50.79479     78.9 1.355e+04 2.092e-09
 50.81451     77.9 1.273e+04 1.433e-09
 50.83423     76.4 1.211e+04 1.009e-09
 50.85395     75.1 1.155e+04 8.144e-10
 50.87368     74.0 1.112e+04 7.362e-10
 50.89340     73.1 1.080e+04 7.204e-10
 50.91312     72.4 1.062e+04 7.304e-10
 50.92363     72.0 1.058e+04 7.460e-10
 50.93349     73.2 1.079e+04 8.341e-10
 50.95256     72.7 1.083e+04 8.618e-10
 50.97228     71.9 1.100e+04 8.958e-10
 50.99200     69.8 1.157e+04 9.955e-10
 51.01172     66.3 1.226e+04 1.213e-09
 51.03144     63.1 1.251e+04 1.515e-09
 51.05116     61.1 1.240e+04 1.750e-09
 51.06331     59.4 1.241e+04 1.767e-09
 51.07317     60.5 1.270e+04 1.957e-09
 51.09060     58.6 1.266e+04 1.871e-09
 51.11032     56.5 1.238e+04 1.576e-09
 51.13004     54.1 1.188e+04 1.266e-09
 51.14976     52.2 1.114e+04 9.302e-10
 51.16948     50.4 1.059e+04 7.187e-10
 51.18920     49.4 1.013e+04 5.712e-10
 51.20299     48.1 1.001e+04 4.986e-10
 51.21285     48.6 9.946e+03 4.839e-10
 51.23860     48.2 9.568e+03 3.703e-10
 51.27814     47.6 8.937e+03 2.532e-10
 51.31758     47.1 8.614e+03 2.134e-10
 51.35703     47.0 8.640e+03 2.211e-10
 51.39647     47.2 8.862e+03 2.620e-10
 51.43591     47.4 9.271e+03 3.391e-10
 51.46539     47.3 9.515e+03 4.056e-10
 51.48236     46.8 9.811e+03 4.893e-10
 51.49222     47.1 9.899e+03 5.085e-10
 51.50473     46.5 1.029e+04 6.290e-10
 51.52446     45.7 1.070e+04 7.764e-10
 51.54418     44.3 1.132e+04 1.005e-09
 51.56390     43.1 1.172e+04 1.258e-09
 51.58362     42.6 1.195e+04 1.458e-09
 51.60334     42.1 1.202e+04 1.491e-09
 51.62204     41.9 1.189e+04 1.368e-09
 51.63190     42.3 1.189e+04 1.372e-09
 51.64278     41.5 1.170e+04 1.173e-09
 51.66250     40.6 1.139e+04 9.926e-10
 51.68222     39.7 1.120e+04 8.870e-10
 51.70194     39.0 1.110e+04 8.203e-10
 51.72166     38.5 1.095e+04 7.620e-10
 51.74138     38.1 1.080e+04 7.051e-10
 51.76110     36.9 1.120e+04 7.409e-10
 51.77158     32.6 1.288e+04 1.080e-09
 51.78144     31.7 1.317e+04 1.226e-09
 51.80054     28.6 1.333e+04 1.822e-09
 51.82026     29.8 1.273e+04 2.717e-09
 51.83998     31.9 1.242e+04 2.709e-09
 51.85971     34.3 1.256e+04 2.227e-09
 51.87943     34.2 1.310e+04 1.260e-09
 51.89915     31.0 1.240e+04 6.119e-10
 51.91126     26.4 1.035e+04 3.688e-10
 51.92112     25.2 1.029e+04 3.711e-10
 51.93859     24.6 1.001e+04 3.269e-10
 51.95831     24.7 9.978e+03 3.418e-10
 51.97803     25.1 9.965e+03 3.725e-10
 51.99775     25.4 1.010e+04 3.931e-10
 52.01747     25.8 1.026e+04 4.417e-10
 52.03719     25.9 1.050e+04 4.679e-10
 52.05094     25.6 1.072e+04 5.163e-10
 52.06080     24.9 1.097e+04 5.920e-10
 52.07663     24.2 1.114e+04 6.281e-10
 52.09635     23.2 1.136e+04 7.134e-10
 52.11607     21.8 1.184e+04 8.721e-10
 52.13579     20.2 1.235e+04 1.194e-09
 52.15551     18.5 1.315e+04 1.687e-09
 52.17523     16.7 1.414e+04 2.403e-09
 52.19062     14.6 1.475e+04 3.126e-09
 52.20048     13.4 1.459e+04 2.922e-09
 52.21468     11.5 1.439e+04 3.477e-09
 52.23440     10.7 1.405e+04 3.697e-09
 52.25412     10.8 1.373e+04 3.682e-09
 52.27384     11.7 1.336e+04 3.154e-09
 52.29356     12.1 1.297e+04 2.229e-09
 52.31328     11.1 1.229e+04 1.404e-09
 52.33030      9.9 1.145e+04 9.298e-10
 52.34017      9.3 1.136e+04 8.821e-10
 52.35272      8.9 1.074e+04 6.714e-10
 52.37244      8.8 1.043e+04 5.555e-10
 52.39216      8.9 1.015e+04 4.660e-10
 52.42184      9.2 9.918e+03 3.793e-10
 52.46138     10.2 9.667e+03 3.109e-10
 52.50082     10.6 9.517e+03 2.766e-10
 52.54026     10.8 9.484e+03 2.721e-10
 52.57970     10.8 9.613e+03 3.170e-10
 52.60986     10.7 9.856e+03 3.997e-10
 52.62958      9.9 9.973e+03 4.345e-10
 52.65858     10.0 1.012e+04 5.113e-10
 52.69803      9.7 1.016e+04 5.032e-10
 52.73747      8.7 9.945e+03 4.441e-10
 52.77691      7.7 9.691e+03 3.889e-10
 52.81635      7.4 9.638e+03 3.844e-10
 52.85579      7.4 9.614e+03 3.606e-10
 52.88923      6.8 9.537e+03 3.092e-10
 52.90895      5.6 9.408e+03 2.668e-10
 52.93467      4.2 9.201e+03 2.418e-10
 52.97411      3.5 9.051e+03 2.485e-10
 53.01356      3.3 9.131e+03 2.739e-10
 53.05300      3.2 9.161e+03 2.777e-10
 53.09244      2.6 9.186e+03 2.701e-10
 53.13188      1.1 9.398e+03 2.799e-10
 53.16136     -0.2 9.711e+03 3.439e-10
 53.17825     -1.7 1.022e+04 4.736e-10
 53.18811     -2.3 1.031e+04 4.921e-10
 53.20071     -4.7 1.118e+04 7.590e-10
 53.22043     -7.5 1.215e+04 1.236e-09
 53.24015    -10.2 1.306e+04 1.930e-09
 53.25987    -13.5 1.384e+04 2.715e-09
 53.27959    -18.0 1.495e+04 3.442e-09
 53.29931    -23.8 1.620e+04 3.895e-09
 53.31793    -29.8 1.667e+04 4.015e-09
 53.32779    -29.8 1.607e+04 3.512e-09
 53.33875    -34.4 1.579e+04 3.030e-09
 53.35847    -37.7 1.462e+04 2.279e-09
 53.37819    -39.7 1.347e+04 1.678e-09
 53.40787    -40.8 1.261e+04 1.264e-09
 53.44741    -40.9 1.174e+04 8.999e-10
 53.46767    -39.9 1.074e+04 5.279e-10
 53.48739    -38.6 1.075e+04 5.360e-10
 53.52629    -37.2 9.882e+03 3.008e-10
 53.56573    -35.9 9.365e+03 1.931e-10
 53.60517    -34.4 9.058e+03 1.425e-10
 53.64461    -32.5 8.803e+03 1.134e-10
 53.68406    -30.4 8.626e+03 9.576e-11
 53.72350    -28.1 8.521e+03 8.446e-11
 53.74703    -25.9 8.481e+03 7.932e-11
 53.76675    -25.4 8.508e+03 8.138e-11
 53.80238    -23.2 8.502e+03 8.035e-11
 53.84182    -21.2 8.568e+03 8.147e-11
 53.88126    -19.4 8.720e+03 9.408e-11
 53.92070    -17.6 8.883e+03 1.197e-10
 53.96014    -16.1 9.109e+03 1.613e-10
 53.99959    -14.5 9.393e+03 2.257e-10
 54.02640    -13.1 9.724e+03 3.139e-10
 54.04612    -12.8 9.738e+03 3.146e-10
 54.07847    -11.4 1.007e+04 4.153e-10
 54.11791    -10.1 1.037e+04 4.840e-10
 54.14739     -9.1 1.036e+04 4.435e-10
 54.16588     -9.0 1.035e+04 4.391e-10
 54.17574     -9.0 1.042e+04 4.583e-10
 54.18674     -8.5 1.047e+04 4.509e-10
 54.20646     -8.4 1.049e+04 4.518e-10
 54.22618     -8.2 1.055e+04 4.608e-10
 54.24590     -8.1 1.059e+04 4.786e-10
 54.26562     -8.0 1.066e+04 5.239e-10
 54.28534     -7.9 1.072e+04 5.784e-10
 54.30506     -7.7 1.080e+04 6.519e-10
 54.31542     -7.3 1.087e+04 7.128e-10
 54.32528     -7.2 1.112e+04 8.512e-10
 54.34450     -6.7 1.113e+04 8.643e-10
 54.36422     -6.1 1.104e+04 8.136e-10
 54.38394     -5.6 1.086e+04 7.000e-10
 54.40366     -5.2 1.058e+04 5.629e-10
 54.42338     -5.0 1.026e+04 4.353e-10
 54.44310     -5.0 1.005e+04 3.642e-10
 54.47278     -5.0 9.768e+03 2.861e-10
 54.51232     -4.1 9.368e+03 2.156e-10
 54.55176     -3.1 9.282e+03 2.084e-10
 54.58512     -2.0 9.399e+03 2.665e-10
 54.60484     -1.9 9.217e+03 2.406e-10
 54.63064     -0.4 9.326e+03 2.875e-10
 54.67009      1.4 9.394e+03 3.114e-10
 54.70953      3.1 9.389e+03 3.109e-10
 54.74897      4.9 9.258e+03 2.726e-10
 54.78841      6.7 9.038e+03 2.116e-10
 54.82785      8.5 8.764e+03 1.553e-10
 54.86449     10.1 8.551e+03 1.232e-10
 54.88421     10.1 8.438e+03 1.159e-10
 54.90673     12.1 8.393e+03 1.115e-10
 54.94617     14.1 8.446e+03 1.203e-10
 54.98562     16.1 8.546e+03 1.496e-10
 55.02506     18.1 8.742e+03 1.879e-10
 55.06450     19.8 8.989e+03 2.336e-10
 55.10394     21.3 9.167e+03 2.885e-10
 55.14338     23.0 9.311e+03 3.198e-10
 55.16357     24.3 9.326e+03 2.961e-10
 55.18329     24.9 9.337e+03 2.963e-10
 55.22226     25.7 9.156e+03 2.432e-10
 55.26170     26.4 8.848e+03 2.162e-10
 55.30114     27.5 8.693e+03 2.010e-10
 55.34059     28.2 8.903e+03 2.242e-10
 55.38003     28.3 9.341e+03 3.167e-10
 55.41947     28.7 9.805e+03 4.848e-10
 55.44293     29.7 1.021e+04 6.372e-10
 55.46265     31.4 1.027e+04 6.575e-10
 55.48839     30.8 1.057e+04 7.848e-10
 55.50802     30.5 1.078e+04 8.038e-10
 55.52774     29.8 1.091e+04 8.311e-10
 55.54746     29.2 1.084e+04 8.384e-10
 55.56718     28.6 1.080e+04 8.490e-10
 55.58242     27.5 1.111e+04 8.783e-10
 55.59228     28.8 1.110e+04 9.039e-10
 55.60662     27.1 1.133e+04 9.455e-10
 55.62634     24.9 1.132e+04 9.249e-10
 55.64606     23.0 1.104e+04 9.071e-10
 55.66578     21.9 1.076e+04 8.861e-10
 55.68550     21.3 1.065e+04 8.030e-10
 55.70522     20.1 1.059e+04 6.548e-10
 55.72210     17.8 1.030e+04 5.168e-10
 55.73196     18.7 1.027e+04 5.113e-10
 55.74466     16.3 1.009e+04 4.773e-10
 55.76438     14.7 9.976e+03 5.117e-10
 55.78410     13.9 9.962e+03 6.031e-10
 55.80382     13.8 1.013e+04 7.061e-10
 55.82355     14.1 1.033e+04 7.928e-10
 55.84327     14.2 1.040e+04 8.176e-10
 55.86178     14.3 1.043e+04 7.772e-10
 55.87164     14.6 1.070e+04 8.665e-10
 55.88271     14.2 1.059e+04 8.222e-10
 55.90243     13.7 1.048e+04 7.792e-10
 55.92215     13.4 1.042e+04 7.521e-10
 55.94187     13.2 1.050e+04 7.572e-10
 55.96159     12.6 1.080e+04 8.060e-10
 55.98131     11.7 1.121e+04 9.556e-10
 56.00103     11.2 1.164e+04 1.199e-09
 56.01132     10.9 1.196e+04 1.469e-09
 56.02118     11.2 1.214e+04 1.609e-09
 56.04047     11.2 1.238e+04 1.850e-09
 56.06019     11.4 1.248e+04 1.951e-09
 56.07991     11.5 1.262e+04 1.983e-09
 56.09963      9.7 1.348e+04 2.122e-09
 56.11935      5.7 1.488e+04 2.632e-09
 56.13908      1.7 1.533e+04 3.686e-09
 56.15100     -0.3 1.501e+04 5.066e-09
 56.16086     -0.0 1.522e+04 5.233e-09
 56.17852     -0.3 1.544e+04 6.672e-09
 56.19326     -0.3 1.569e+04 6.851e-09
 56.20156     -0.4 1.576e+04 6.755e-09
 56.20649     -1.2 1.525e+04 5.785e-09
 56.21791     -1.8 1.543e+04 5.505e-09
 56.23768     -3.3 1.473e+04 4.082e-09
 56.25740     -5.7 1.330e+04 2.775e-09
 56.27712     -7.2 1.273e+04 2.320e-09
 56.29068     -7.7 1.271e+04 2.254e-09
 56.30054     -8.3 1.330e+04 2.726e-09
 56.31656     -9.1 1.351e+04 2.749e-09
 56.33628    -10.2 1.374e+04 2.900e-09
 56.35600    -11.2 1.387e+04 3.202e-09
 56.37572    -11.8 1.394e+04 3.621e-09
 56.39544    -12.0 1.399e+04 4.025e-09
 56.41516    -11.8 1.401e+04 4.215e-09
 56.43037    -11.6 1.394e+04 4.155e-09
 56.44023    -12.3 1.404e+04 4.297e-09
 56.45460    -12.0 1.371e+04 3.695e-09
 56.47433    -11.7 1.330e+04 3.020e-09
 56.49405    -11.5 1.289e+04 2.365e-09
 56.51377    -11.3 1.251e+04 1.806e-09
 56.53349    -11.3 1.221e+04 1.386e-09
 56.55321    -11.6 1.210e+04 1.195e-09
 56.57005    -13.0 1.267e+04 1.179e-09
 56.57991    -15.2 1.355e+04 1.421e-09
 56.59265    -18.1 1.449e+04 2.166e-09
 56.61237    -19.2 1.491e+04 3.612e-09
 56.63209    -18.6 1.530e+04 5.445e-09
 56.65181    -17.0 1.545e+04 6.340e-09
 56.67153    -15.3 1.553e+04 6.423e-09
 56.69125    -13.4 1.534e+04 4.671e-09
 56.70973    -12.4 1.477e+04 2.213e-09
 56.71959    -14.8 1.393e+04 1.170e-09
 56.73069    -18.4 1.183e+04 4.586e-10
 56.75041    -20.9 1.009e+04 3.119e-10
 56.77013    -20.2 9.930e+03 2.710e-10
 56.79981    -18.6 9.884e+03 2.467e-10
 56.83935    -16.2 9.678e+03 2.163e-10
 56.85947    -13.6 9.580e+03 2.028e-10
 56.87919    -14.4 9.681e+03 2.129e-10
 56.91823    -12.4 9.783e+03 2.301e-10
 56.95768    -10.5 9.984e+03 2.966e-10
 56.99712     -8.5 1.020e+04 4.001e-10
 57.03656     -6.4 1.039e+04 5.178e-10
 57.07600     -4.5 1.064e+04 6.372e-10
 57.11544     -3.2 1.106e+04 8.215e-10
 57.13883     -2.2 1.172e+04 1.189e-09
 57.15855     -3.2 1.138e+04 9.768e-10
 57.19432     -2.0 1.168e+04 1.177e-09
 57.23376     -0.5 1.175e+04 1.222e-09
 57.27320      0.8 1.146e+04 9.881e-10
 57.31265      1.7 1.080e+04 5.920e-10
 57.35209      2.1 9.878e+03 3.306e-10
 57.39153      2.8 9.428e+03 2.559e-10
 57.41819      4.0 9.422e+03 2.747e-10
 57.43791      3.0 9.403e+03 2.839e-10
 57.47041      4.5 9.632e+03 3.558e-10
 57.50985      5.6 1.004e+04 4.580e-10
 57.54929      6.3 1.054e+04 6.292e-10
 57.58873      7.2 1.099e+04 8.876e-10
 57.62818      8.5 1.133e+04 1.111e-09
 57.66762      9.6 1.135e+04 1.086e-09
 57.69755     10.4 1.062e+04 7.284e-10
 57.71727      8.6 9.529e+03 4.146e-10
 57.74650      9.0 8.984e+03 2.380e-10
 57.78594      9.1 8.682e+03 1.754e-10
 57.82538      9.1 8.420e+03 1.487e-10
 57.86482      9.7 8.258e+03 1.286e-10
 57.90426     10.7 8.205e+03 1.210e-10
 57.94371     12.2 8.196e+03 1.194e-10
 57.97692     13.7 8.317e+03 1.271e-10
 57.99664     14.5 8.299e+03 1.283e-10
 58.02259     15.9 8.439e+03 1.382e-10
 58.06203     16.9 8.656e+03 1.410e-10
 58.10147     18.3 8.639e+03 1.696e-10
 58.14091     19.7 8.671e+03 1.930e-10
 58.18035     20.8 8.783e+03 2.201e-10
 58.21979     22.3 8.744e+03 2.598e-10
 58.25628     24.2 8.748e+03 2.812e-10
 58.27600     24.5 8.913e+03 3.005e-10
 58.29868     26.3 9.058e+03 3.269e-10
 58.33812     26.9 9.505e+03 3.323e-10
 58.37756     26.5 9.785e+03 3.825e-10
 58.41700     26.9 9.741e+03 4.620e-10
 58.45644     28.0 9.555e+03 4.248e-10
 58.49588     28.8 9.544e+03 3.393e-10
 58.53532     28.7 9.550e+03 3.005e-10
 58.55536     28.1 9.776e+03 3.453e-10
 58.57508     28.7 9.852e+03 3.848e-10
 58.60425     27.4 1.004e+04 4.410e-10
 58.62387     27.1 1.013e+04 4.672e-10
 58.64359     26.6 1.023e+04 5.706e-10
 58.66331     26.7 1.024e+04 6.117e-10
 58.68303     26.6 1.023e+04 6.114e-10
 58.69485     25.9 1.055e+04 5.878e-10
 58.70471     25.6 1.071e+04 6.493e-10
 58.72247     23.4 1.149e+04 6.735e-10
 58.74219     20.3 1.182e+04 7.681e-10
 58.76191     17.3 1.165e+04 9.929e-10
 58.78164     15.6 1.211e+04 1.241e-09
 58.80136     14.4 1.227e+04 1.331e-09
 58.82108     13.4 1.162e+04 1.214e-09
 58.83453     12.8 1.102e+04 9.234e-10
 58.84439     11.9 1.110e+04 8.777e-10
 58.86052     10.8 1.073e+04 6.077e-10
 58.88024      9.1 1.028e+04 4.347e-10
 58.89996      7.5 9.865e+03 3.554e-10
 58.92964      6.4 9.722e+03 3.241e-10
 58.96918      6.3 9.588e+03 2.783e-10
 59.00862      6.2 9.636e+03 2.487e-10
 59.03810      5.0 1.003e+04 2.779e-10
 59.05772      3.8 1.045e+04 3.512e-10
 59.07744      2.3 1.070e+04 5.310e-10
 59.09716      1.8 1.096e+04 7.480e-10
 59.11399      3.2 1.115e+04 8.953e-10
 59.13381      1.4 1.201e+04 1.302e-09
 59.16638      1.3 1.139e+04 8.357e-10
 59.20582     -0.1 1.077e+04 5.388e-10
 59.24526     -1.4 1.036e+04 4.412e-10
 59.28471     -1.7 1.055e+04 4.783e-10
 59.31419     -1.5 1.078e+04 5.601e-10
 59.33381     -2.3 1.141e+04 7.533e-10
 59.35353     -2.9 1.222e+04 1.070e-09
 59.37325     -3.6 1.299e+04 1.553e-09
 59.39297     -4.3 1.385e+04 2.361e-09
 59.40311     -5.3 1.435e+04 3.536e-09
 59.41298     -6.0 1.487e+04 4.273e-09
 59.43242     -6.5 1.534e+04 6.122e-09
 59.45214     -6.6 1.576e+04 7.915e-09
 59.47186     -6.6 1.611e+04 8.982e-09
 59.49158     -6.9 1.618e+04 9.177e-09
 59.51130     -7.8 1.590e+04 8.073e-09
 59.53102     -9.1 1.558e+04 6.583e-09
 59.54280    -10.4 1.513e+04 5.291e-09
 59.55266    -11.3 1.526e+04 5.950e-09
 59.57046    -12.2 1.468e+04 4.650e-09
 59.59018    -12.9 1.401e+04 3.592e-09
 59.60990    -13.7 1.335e+04 2.740e-09
 59.62962    -14.7 1.267e+04 2.128e-09
 59.64934    -15.7 1.232e+04 1.806e-09
 59.66906    -16.5 1.230e+04 1.735e-09
 59.68248    -17.6 1.233e+04 1.745e-09
 59.69244    -18.8 1.201e+04 1.397e-09
 59.70860    -19.6 1.243e+04 1.815e-09
 59.72822    -21.3 1.306e+04 2.145e-09
 59.74794    -23.9 1.405e+04 2.807e-09
 59.76767    -27.3 1.487e+04 3.900e-09
 59.78739    -30.5 1.548e+04 5.235e-09
 59.80711    -33.6 1.600e+04 6.125e-09
 59.82216    -37.1 1.623e+04 6.296e-09
 59.83202    -37.2 1.581e+04 5.385e-09
 59.84655    -40.8 1.611e+04 4.775e-09
 59.86627    -44.8 1.524e+04 3.302e-09
 59.88599    -48.1 1.390e+04 2.229e-09
 59.90571    -49.8 1.298e+04 1.482e-09
 59.92543    -50.8 1.229e+04 9.023e-10
 59.94515    -52.1 1.152e+04 5.023e-10
 59.96184    -53.5 1.082e+04 2.988e-10
 59.97170    -53.0 1.078e+04 2.667e-10
 59.99455    -53.8 1.026e+04 1.814e-10
 60.03409    -53.9 9.716e+03 1.090e-10
 60.07353    -53.4 9.363e+03 6.568e-11
 60.11297    -52.7 9.306e+03 5.483e-11
 60.15241    -52.3 9.314e+03 5.350e-11
 60.19185    -52.3 9.365e+03 6.632e-11
 60.23129    -52.2 9.389e+03 1.085e-10
 60.25126    -51.6 9.474e+03 1.628e-10
 60.27098    -50.7 9.632e+03 2.025e-10
 60.31018    -50.2 9.785e+03 2.437e-10
 60.34962    -50.1 9.819e+03 2.518e-10
 60.38906    -50.1 9.747e+03 2.306e-10
 60.42850    -50.3 9.511e+03 1.741e-10
 60.46794    -50.6 9.318e+03 1.336e-10
 60.50738    -50.9 9.244e+03 1.182e-10
 60.53062    -51.2 9.239e+03 1.161e-10
 60.55034    -50.8 9.322e+03 1.340e-10
 60.58627    -51.6 9.539e+03 1.580e-10
 60.62571    -52.5 9.858e+03 2.482e-10
 60.66515    -53.1 1.013e+04 3.610e-10
 60.70459    -53.7 1.028e+04 4.194e-10
 60.74403    -54.5 1.030e+04 4.238e-10
 60.78347    -55.4 1.011e+04 3.774e-10
 60.80998    -56.2 9.922e+03 3.287e-10
 60.82970    -56.1 9.861e+03 3.031e-10
 60.86235    -56.9 9.740e+03 2.842e-10
 60.90179    -57.5 9.703e+03 2.809e-10
 60.94124    -57.9 9.660e+03 2.847e-10
 60.98068    -58.1 9.625e+03 2.897e-10
 61.02012    -58.1 9.563e+03 2.908e-10
 61.05956    -57.6 9.421e+03 2.703e-10
 61.08935    -57.0 9.280e+03 2.360e-10
 61.10907    -56.6 9.260e+03 2.274e-10
 61.13844    -55.8 9.129e+03 1.929e-10
 61.17788    -55.0 9.141e+03 1.718e-10
 61.21732    -54.7 9.177e+03 1.682e-10
 61.25677    -54.8 9.367e+03 1.740e-10
 61.29621    -55.2 9.702e+03 2.506e-10
 61.33565    -55.2 9.970e+03 4.019e-10
 61.36871    -54.9 1.019e+04 5.549e-10
 61.38843    -54.6 1.045e+04 6.856e-10
 61.41453    -54.2 1.054e+04 7.449e-10
 61.45397    -53.7 1.043e+04 7.033e-10
 61.49341    -52.9 9.912e+03 4.550e-10
 61.53285    -52.2 9.424e+03 2.801e-10
 61.57230    -51.9 9.298e+03 2.244e-10
 61.61174    -51.6 9.303e+03 2.201e-10
 61.64807    -51.4 9.696e+03 3.053e-10
 61.66779    -50.3 9.473e+03 2.583e-10
 61.69062    -49.7 9.981e+03 4.159e-10
 61.73006    -48.9 1.036e+04 5.774e-10
 61.76950    -48.4 1.054e+04 6.455e-10
 61.80894    -48.2 1.060e+04 6.619e-10
 61.84838    -48.2 1.067e+04 6.533e-10
 61.87787    -50.7 1.091e+04 7.040e-10
 61.89749    -53.4 1.220e+04 1.107e-09
 61.91721    -55.5 1.352e+04 2.135e-09
 61.93693    -56.7 1.548e+04 4.990e-09
 61.94696    -57.4 1.710e+04 9.108e-09
 61.95682    -56.6 1.705e+04 8.942e-09
 61.97637    -57.6 1.818e+04 1.266e-08
 61.99609    -59.5 1.847e+04 1.362e-08
 62.01581    -61.7 1.806e+04 1.159e-08
 62.03553    -63.6 1.639e+04 6.023e-09
 62.05525    -65.8 1.378e+04 2.626e-09
 62.07498    -67.8 1.146e+04 1.246e-09
 62.08664    -69.0 1.029e+04 7.208e-10
 62.09650    -68.5 1.066e+04 8.549e-10
 62.11442    -69.0 1.015e+04 5.975e-10
 62.13414    -69.0 9.992e+03 4.902e-10
 62.15386    -68.9 9.947e+03 4.525e-10
 62.17358    -68.4 9.933e+03 4.432e-10
 62.19330    -68.2 9.928e+03 4.413e-10
 62.21302    -68.5 1.012e+04 4.843e-10
 62.22632    -70.4 1.087e+04 7.369e-10
 62.23618    -70.2 1.092e+04 7.691e-10
 62.25246    -73.4 1.279e+04 1.665e-09
 62.27218    -75.6 1.475e+04 3.652e-09
 62.29190    -76.7 1.639e+04 6.811e-09
 62.31162    -77.8 1.760e+04 1.001e-08
 62.33134    -79.4 1.814e+04 1.112e-08
 62.34608    -81.4 1.868e+04 1.242e-08
 62.35590    -83.1 1.885e+04 1.258e-08
 62.36576    -85.0 1.889e+04 1.252e-08
 62.37084    -86.9 1.884e+04 1.210e-08
 62.37577    -87.2 1.946e+04 1.535e-08
 62.38548    -89.0 1.930e+04 1.465e-08
 62.39534    -90.7 1.906e+04 1.388e-08
 62.41018    -92.5 1.862e+04 1.267e-08
 62.42995    -94.8 1.812e+04 1.110e-08
 62.44967    -97.3 1.729e+04 9.143e-09
 62.46939    -98.9 1.646e+04 7.095e-09
 62.48195   -100.1 1.562e+04 5.200e-09
 62.49181   -100.3 1.587e+04 5.257e-09
 62.50569   -101.7 1.480e+04 3.242e-09
 62.51555   -103.3 1.414e+04 2.072e-09
 62.52855   -104.9 1.319e+04 1.217e-09
 62.54827   -106.3 1.234e+04 7.612e-10
 62.56799   -107.5 1.154e+04 5.195e-10
 62.58771   -108.4 1.086e+04 3.938e-10
 62.60743   -108.9 1.043e+04 3.284e-10
 62.63711   -109.3 1.019e+04 2.854e-10
 62.67665   -108.8 1.001e+04 2.503e-10
 62.71609   -108.7 9.883e+03 2.246e-10
 62.75553   -108.8 9.799e+03 2.159e-10
 62.78524   -109.1 9.764e+03 2.144e-10
 62.80496   -109.4 9.756e+03 2.165e-10
 62.83441   -109.4 9.719e+03 2.181e-10
 62.87385   -109.3 9.636e+03 2.220e-10
 62.91330   -109.2 9.600e+03 2.124e-10
 62.95274   -108.8 9.530e+03 1.916e-10
 62.99218   -108.2 9.410e+03 1.634e-10
 63.03162   -107.2 9.298e+03 1.365e-10
 63.06461   -106.1 9.256e+03 1.190e-10
 63.08433   -105.3 9.137e+03 1.049e-10
 63.11050   -104.1 9.153e+03 1.021e-10
 63.14994   -102.8 9.183e+03 1.020e-10
 63.18938   -101.8 9.360e+03 1.110e-10
 63.22883   -100.8 9.488e+03 1.414e-10
 63.26827    -99.8 9.634e+03 1.902e-10
 63.30771    -98.8 9.841e+03 2.518e-10
 63.34397    -97.9 1.005e+04 3.086e-10
 63.36369    -97.5 9.939e+03 2.613e-10
 63.38659    -96.7 9.988e+03 2.705e-10
 63.42603    -95.8 9.970e+03 2.617e-10
 63.46547    -94.6 9.826e+03 2.104e-10
 63.50491    -93.3 9.666e+03 1.601e-10
 63.54436    -91.9 9.593e+03 1.390e-10
 63.58380    -90.5 9.579e+03 1.362e-10
 63.62324    -89.0 9.633e+03 1.526e-10
 63.66268    -87.2 9.706e+03 1.783e-10
 63.70212    -85.6 9.833e+03 2.353e-10
 63.74156    -83.9 9.914e+03 2.674e-10
 63.78100    -82.3 9.925e+03 2.700e-10
 63.82044    -80.5 9.889e+03 2.391e-10
 63.85988    -78.8 9.850e+03 1.913e-10
 63.89933    -77.4 9.871e+03 1.627e-10
 63.92241    -76.0 9.892e+03 1.569e-10
 63.94214    -76.0 1.001e+04 1.783e-10
 63.97821    -74.8 1.015e+04 2.055e-10
 64.01765    -73.6 1.034e+04 2.590e-10
 64.05709    -72.6 1.049e+04 2.968e-10
 64.09653    -72.0 1.061e+04 3.151e-10
 64.13597    -71.9 1.067e+04 3.127e-10
 64.17541    -72.0 1.072e+04 3.048e-10
 64.20178    -72.8 1.113e+04 3.533e-10
 64.22150    -72.2 1.107e+04 3.472e-10
 64.24434    -73.1 1.127e+04 3.839e-10
 64.26396    -74.2 1.155e+04 4.847e-10
 64.28368    -75.2 1.186e+04 6.707e-10
 64.30340    -75.8 1.210e+04 8.710e-10
 64.32312    -76.1 1.230e+04 1.037e-09
 64.34126    -76.4 1.237e+04 1.117e-09
 64.35112    -76.1 1.238e+04 1.118e-09
 64.36256    -76.5 1.238e+04 1.133e-09
 64.38229    -76.7 1.222e+04 1.090e-09
 64.40201    -76.7 1.199e+04 9.799e-10
 64.42173    -76.7 1.180e+04 8.794e-10
 64.44145    -76.6 1.159e+04 7.789e-10
 64.46117    -76.3 1.134e+04 6.648e-10
 64.48089    -75.8 1.109e+04 5.452e-10
 64.50061    -75.6 1.113e+04 5.537e-10
 64.52033    -75.2 1.099e+04 4.596e-10
 64.54005    -74.9 1.094e+04 4.132e-10
 64.56973    -74.5 1.097e+04 3.996e-10
 64.60927    -73.6 1.085e+04 3.622e-10
 64.64871    -72.2 1.058e+04 2.925e-10
 64.68815    -70.2 1.035e+04 2.329e-10
 64.72759    -68.4 1.027e+04 1.995e-10
 64.76050    -66.6 1.020e+04 1.813e-10
 64.78022    -67.2 1.051e+04 2.505e-10
 64.80647    -65.4 1.051e+04 2.516e-10
 64.84591    -63.7 1.058e+04 2.871e-10
 64.88536    -62.1 1.069e+04 3.521e-10
 64.92480    -60.4 1.080e+04 4.341e-10
 64.96424    -58.8 1.090e+04 5.123e-10
 65.00368    -57.2 1.095e+04 5.675e-10
 65.03987    -55.8 1.096e+04 5.951e-10
 65.05959    -57.1 1.144e+04 8.008e-10
 65.08256    -55.9 1.143e+04 8.037e-10
 65.12200    -54.8 1.137e+04 7.882e-10
 65.16144    -53.7 1.133e+04 7.710e-10
 65.20089    -52.6 1.135e+04 7.719e-10
 65.24033    -51.6 1.143e+04 7.998e-10
 65.27977    -50.7 1.156e+04 8.725e-10
 65.31921    -50.0 1.166e+04 9.461e-10
 65.35865    -49.7 1.131e+04 7.435e-10
 65.39809    -48.6 1.113e+04 6.671e-10
 65.43753    -47.4 1.080e+04 5.302e-10
 65.47697    -46.0 1.036e+04 3.627e-10
 65.51642    -44.3 9.916e+03 2.210e-10
 65.55586    -42.7 9.599e+03 1.323e-10
 65.59530    -41.1 9.419e+03 8.805e-11
 65.61831    -39.5 9.276e+03 7.162e-11
 65.63803    -39.1 9.188e+03 6.505e-11
 65.67418    -37.1 9.147e+03 6.096e-11
 65.71362    -34.9 9.141e+03 6.009e-11
 65.75306    -32.8 9.147e+03 6.057e-11
 65.79250    -30.7 9.167e+03 6.438e-11
 65.83194    -28.7 9.194e+03 7.119e-11
 65.87139    -26.7 9.258e+03 8.152e-11
 65.89767    -24.7 9.376e+03 9.787e-11
 65.91739    -24.0 9.345e+03 9.518e-11
 65.95027    -21.9 9.499e+03 1.135e-10
 65.98971    -20.0 9.696e+03 1.307e-10
 66.02915    -18.2 9.853e+03 1.392e-10
 66.06859    -16.6 9.915e+03 1.415e-10
 66.10803    -15.3 9.932e+03 1.419e-10
 66.14747    -14.2 9.918e+03 1.477e-10
 66.17704    -13.3 1.009e+04 1.819e-10
 66.19676    -11.6 9.915e+03 1.627e-10
 66.22636    -10.3 1.004e+04 1.980e-10
 66.26580     -8.7 1.032e+04 2.594e-10
 66.30524     -7.2 1.061e+04 3.278e-10
 66.34468     -6.2 1.078e+04 3.922e-10
 66.38412     -5.5 1.082e+04 4.609e-10
 66.42356     -4.7 1.096e+04 5.489e-10
 66.45640     -4.2 1.128e+04 6.765e-10
 66.47612     -1.8 1.154e+04 7.842e-10
 66.49249     -2.7 1.202e+04 9.025e-10
 66.51211     -3.8 1.225e+04 1.078e-09
 66.53183     -4.5 1.234e+04 1.285e-09
 66.55155     -4.8 1.245e+04 1.420e-09
 66.57127     -5.2 1.251e+04 1.454e-09
 66.59099     -5.6 1.245e+04 1.351e-09
 66.60575     -6.1 1.217e+04 1.115e-09
 66.61561     -5.0 1.275e+04 1.471e-09
 66.63043     -6.2 1.223e+04 1.012e-09
 66.65015     -7.4 1.160e+04 7.311e-10
 66.66987     -7.7 1.126e+04 5.804e-10
 66.68960     -7.8 1.117e+04 4.715e-10
 66.70932     -7.9 1.118e+04 3.783e-10
 66.73566     -8.1 1.106e+04 3.040e-10
 66.75538     -8.6 1.121e+04 3.176e-10
 66.76848     -8.6 1.119e+04 3.179e-10
 66.78820     -8.6 1.123e+04 3.365e-10
 66.80792     -8.4 1.133e+04 4.123e-10
 66.82764     -8.3 1.138e+04 4.687e-10
 66.84736     -7.8 1.145e+04 5.673e-10
 66.86708     -7.2 1.149e+04 6.331e-10
 66.88511     -6.6 1.159e+04 6.797e-10
 66.89497     -6.5 1.182e+04 6.988e-10
 66.90652     -6.1 1.176e+04 6.755e-10
 66.93620     -5.7 1.161e+04 6.307e-10
 66.97574     -4.7 1.133e+04 5.335e-10
 67.01512     -3.4 1.108e+04 4.033e-10
 67.05457     -1.8 1.078e+04 2.492e-10
 67.09406     -0.4 1.054e+04 2.007e-10
 67.13350      1.3 1.040e+04 1.708e-10
 67.17295      2.9 1.034e+04 1.557e-10
 67.21239      4.4 1.034e+04 1.544e-10
 67.25183      5.8 1.036e+04 1.789e-10
 67.29127      7.6 1.036e+04 2.171e-10
 67.31421      9.8 1.047e+04 2.368e-10
 67.33393     10.6 1.054e+04 2.417e-10
 67.37015     12.2 1.066e+04 2.197e-10
 67.40959     13.1 1.070e+04 1.964e-10
 67.44903     13.5 1.092e+04 2.141e-10
 67.48847     13.1 1.108e+04 3.753e-10
 67.52792     13.4 1.144e+04 7.203e-10
 67.55740     14.7 1.156e+04 9.807e-10
 67.57702     14.9 1.159e+04 9.965e-10
 67.59338     15.4 1.121e+04 9.372e-10
 67.60324     15.7 1.135e+04 9.539e-10
 67.61646     15.9 1.128e+04 8.900e-10
 67.63618     15.8 1.118e+04 7.083e-10
 67.65590     14.6 1.089e+04 6.302e-10
 67.67563     14.0 1.038e+04 5.746e-10
 67.69535     14.6 1.005e+04 5.725e-10
 67.71507     15.8 9.925e+03 5.176e-10
 67.73306     16.0 9.897e+03 4.999e-10
 67.74292     16.6 9.905e+03 5.293e-10
 67.76447     17.7 9.783e+03 3.817e-10
 67.80400     18.5 9.109e+03 2.084e-10
 67.84345     19.1 8.499e+03 1.317e-10
 67.87293     20.2 8.272e+03 1.144e-10
 67.89265     20.9 8.333e+03 1.247e-10
 67.92233     22.2 8.256e+03 1.175e-10
 67.96177     23.6 8.287e+03 1.269e-10
 68.00121     24.5 8.581e+03 1.786e-10
 68.04065     25.5 9.318e+03 3.009e-10
 68.07013     26.3 9.567e+03 4.041e-10
 68.08976     25.6 1.027e+04 5.866e-10
 68.10948     24.7 1.104e+04 9.099e-10
 68.12920     24.2 1.152e+04 1.396e-09
 68.14892     24.2 1.201e+04 1.924e-09
 68.16196     24.8 1.224e+04 2.206e-09
 68.17182     25.3 1.241e+04 2.364e-09
 68.18836     26.0 1.240e+04 2.472e-09
 68.20808     26.7 1.247e+04 2.324e-09
 68.22780     25.4 1.273e+04 1.377e-09
 68.24752     25.1 1.254e+04 1.261e-09
 68.27720     22.4 1.130e+04 8.317e-10
 68.31674     21.3 1.045e+04 7.150e-10
 68.35618     21.5 1.026e+04 6.709e-10
 68.39562     22.1 9.996e+03 6.364e-10
 68.43166     23.5 9.695e+03 5.692e-10
 68.45138     24.3 9.800e+03 5.706e-10
 68.47450     25.5 9.522e+03 4.363e-10
 68.51395     25.9 9.367e+03 3.238e-10
 68.55339     26.1 9.200e+03 2.869e-10
 68.59283     26.6 9.086e+03 2.928e-10
 68.63227     27.6 8.990e+03 3.124e-10
 68.67171     28.8 9.017e+03 3.102e-10
 68.71102     29.9 8.952e+03 2.916e-10
 68.75046     31.8 9.148e+03 3.213e-10
 68.79003     32.7 9.203e+03 3.211e-10
 68.82948     33.3 9.326e+03 3.307e-10
 68.85896     33.1 9.466e+03 3.387e-10
 68.87023     32.9 9.528e+03 3.495e-10
 68.88009     32.8 9.696e+03 4.150e-10
 68.89830     32.5 1.003e+04 5.732e-10
 68.91802     32.6 1.034e+04 7.232e-10
 68.93774     33.2 1.073e+04 8.904e-10
 68.95746     33.8 1.110e+04 1.025e-09
 68.97718     34.2 1.127e+04 1.098e-09
 68.99691     34.3 1.128e+04 1.103e-09
 69.00991     33.9 1.144e+04 1.127e-09
 69.01977     33.7 1.170e+04 1.205e-09
 69.03635     32.1 1.211e+04 1.425e-09
 69.05607     30.8 1.250e+04 1.783e-09
 69.07579     30.2 1.278e+04 2.231e-09
 69.09551     30.7 1.279e+04 2.585e-09
 69.11523     31.0 1.313e+04 2.898e-09
 69.13495     30.1 1.392e+04 3.186e-09
 69.14959     27.6 1.475e+04 3.640e-09
 69.15945     28.6 1.451e+04 3.328e-09
 69.17439     25.7 1.467e+04 3.612e-09
 69.19411     23.0 1.439e+04 4.177e-09
 69.21383     20.8 1.475e+04 4.629e-09
 69.23355     18.9 1.570e+04 5.003e-09
 69.25327     16.5 1.603e+04 4.957e-09
 69.27299     13.2 1.528e+04 4.708e-09
 69.28927     10.8 1.461e+04 4.879e-09
 69.29908     11.2 1.492e+04 5.487e-09
 69.30741     10.5 1.517e+04 5.977e-09
 69.31727      9.8 1.539e+04 6.220e-09
 69.32713      9.0 1.589e+04 6.746e-09
 69.33699      8.0 1.642e+04 7.157e-09
 69.34685      6.7 1.714e+04 7.699e-09
 69.35671      5.5 1.801e+04 8.260e-09
 69.36395      4.2 1.888e+04 8.755e-09
 69.36888      3.1 2.040e+04 1.109e-08
 69.37643      1.3 2.188e+04 1.220e-08
 69.38629     -1.4 2.309e+04 1.320e-08
 69.39615     -4.8 2.380e+04 1.491e-08
 69.40601     -8.3 2.381e+04 1.768e-08
 69.41587    -11.5 2.328e+04 2.135e-08
 69.42573    -14.2 2.246e+04 2.530e-08
 69.43379    -16.6 2.164e+04 2.864e-08
 69.43872    -18.0 2.159e+04 4.539e-08
 69.44545    -19.4 2.091e+04 4.550e-08
 69.45531    -20.0 2.064e+04 4.478e-08
 69.46517    -20.3 2.069e+04 4.236e-08
 69.47503    -20.6 2.112e+04 3.541e-08
 69.48489    -21.1 2.118e+04 2.766e-08
 69.49475    -21.9 2.076e+04 2.186e-08
 69.50959    -23.4 2.018e+04 1.617e-08
 69.52936    -25.0 1.947e+04 9.152e-09
 69.54908    -27.8 1.776e+04 3.709e-09
 69.56863    -31.1 1.458e+04 1.373e-09
 69.57850    -33.0 1.200e+04 7.939e-10
 69.58852    -34.1 1.106e+04 5.565e-10
 69.61820    -34.9 1.054e+04 4.006e-10
 69.65774    -35.4 9.855e+03 2.501e-10
 69.69718    -34.6 9.487e+03 1.853e-10
 69.73662    -33.2 9.297e+03 1.491e-10
 69.77606    -31.6 9.225e+03 1.366e-10
 69.81551    -29.9 9.234e+03 1.357e-10
 69.84819    -28.8 9.528e+03 1.604e-10
 69.86791    -29.2 9.464e+03 1.717e-10
 69.89439    -28.5 9.976e+03 2.556e-10
 69.93383    -28.1 1.051e+04 4.177e-10
 69.97327    -28.0 1.092e+04 6.636e-10
 70.01271    -29.3 1.160e+04 9.392e-10
 70.04219    -31.5 1.204e+04 1.011e-09
 70.06182    -33.1 1.257e+04 1.174e-09
 70.08154    -34.2 1.298e+04 1.230e-09
 70.10126    -34.9 1.369e+04 1.500e-09
 70.12098    -34.9 1.402e+04 1.595e-09
 70.13722    -35.1 1.387e+04 1.630e-09
 70.14708    -34.3 1.308e+04 1.369e-09
 70.16042    -34.3 1.286e+04 1.183e-09
 70.18014    -34.4 1.268e+04 1.107e-09
 70.19986    -34.4 1.226e+04 9.216e-10
 70.21958    -34.4 1.167e+04 7.422e-10
 70.23930    -34.5 1.117e+04 6.090e-10
 70.25902    -34.3 1.082e+04 5.239e-10
 70.27690    -33.7 1.062e+04 4.762e-10
 70.28676    -33.3 1.062e+04 4.551e-10
 70.29846    -32.9 1.052e+04 4.383e-10
 70.31819    -32.5 1.049e+04 4.344e-10
 70.33791    -31.9 1.048e+04 4.341e-10
 70.36758    -31.0 1.052e+04 4.404e-10
 70.40692    -29.2 1.044e+04 4.250e-10
 70.42664    -29.2 1.027e+04 3.920e-10
 70.44656    -27.6 1.024e+04 3.702e-10
 70.48601    -26.1 1.027e+04 3.597e-10
 70.52545    -25.0 1.043e+04 3.683e-10
 70.56489    -24.2 1.083e+04 4.800e-10
 70.60433    -23.3 1.132e+04 7.622e-10
 70.64377    -21.9 1.195e+04 1.168e-09
 70.68321    -20.4 1.251e+04 1.562e-09
 70.70600    -19.4 1.279e+04 1.746e-09
 70.72572    -19.1 1.270e+04 1.645e-09
 70.76209    -18.4 1.273e+04 1.657e-09
 70.80154    -17.4 1.231e+04 1.361e-09
 70.84098    -16.3 1.178e+04 1.037e-09
 70.88042    -14.8 1.137e+04 8.468e-10
 70.90990    -13.6 1.144e+04 8.500e-10
 70.92952    -12.9 1.141e+04 8.336e-10
 70.94924    -11.7 1.145e+04 8.099e-10
 70.96897    -10.8 1.139e+04 7.641e-10
 70.98517     -9.6 1.142e+04 7.357e-10
 70.99503     -9.8 1.235e+04 1.153e-09
 71.00841     -8.8 1.276e+04 1.183e-09
 71.02813     -8.2 1.340e+04 1.223e-09
 71.04785     -8.0 1.424e+04 1.273e-09
 71.06757     -8.7 1.519e+04 1.411e-09
 71.08729    -10.3 1.569e+04 1.811e-09
 71.10701    -11.7 1.534e+04 2.561e-09
 71.12485    -12.1 1.511e+04 3.644e-09
 71.13471    -12.0 1.706e+04 6.481e-09
 71.14645    -12.2 1.765e+04 8.255e-09
 71.16119    -11.5 1.689e+04 6.852e-09
 71.17100    -12.2 1.734e+04 7.044e-09
 71.18086    -13.0 1.797e+04 7.124e-09
 71.19072    -14.4 1.832e+04 7.114e-09
 71.19952    -16.1 1.864e+04 6.710e-09
 71.20445    -17.8 1.991e+04 1.026e-08
 71.21044    -19.7 1.927e+04 9.759e-09
 71.22031    -21.4 1.817e+04 9.186e-09
 71.23017    -21.8 1.759e+04 8.816e-09
 71.24500    -21.7 1.688e+04 7.605e-09
 71.26453    -21.8 1.639e+04 7.487e-09
 71.27439    -22.8 1.744e+04 8.822e-09
 71.28449    -23.5 1.668e+04 6.823e-09
 71.30422    -24.0 1.618e+04 5.638e-09
 71.32394    -24.3 1.571e+04 4.583e-09
 71.34366    -24.7 1.516e+04 3.604e-09
 71.36338    -25.1 1.449e+04 2.764e-09
 71.38310    -25.9 1.394e+04 2.176e-09
 71.39784    -27.8 1.386e+04 2.006e-09
 71.40765    -28.7 1.465e+04 2.215e-09
 71.41398    -36.4 2.059e+04 2.575e-09
 71.41891    -45.7 2.959e+04 3.813e-09
 71.42737    -55.8 3.005e+04 1.175e-08
 71.43723    -62.1 2.620e+04 3.052e-08
 71.44709    -64.3 2.306e+04 5.801e-08
 71.45695    -64.6 2.160e+04 8.506e-08
 71.46681    -63.9 2.119e+04 9.907e-08
 71.47667    -63.6 2.285e+04 8.008e-08
 71.48382    -63.7 2.437e+04 4.996e-08
 71.48875    -65.7 2.630e+04 3.171e-08
 71.49639    -72.8 2.809e+04 1.051e-08
 71.50625    -80.6 2.460e+04 4.252e-09
 71.52109    -84.6 2.178e+04 2.936e-09
 71.54086    -93.4 1.357e+04 1.534e-09
 71.55375    -95.2 1.179e+04 1.367e-09
 71.56361    -95.9 1.192e+04 1.375e-09
 71.58030    -95.3 1.210e+04 1.478e-09
 71.60002    -94.8 1.219e+04 1.567e-09
 71.61974    -94.4 1.230e+04 1.650e-09
 71.63947    -94.1 1.238e+04 1.713e-09
 71.65919    -93.9 1.241e+04 1.738e-09
 71.67891    -93.7 1.241e+04 1.740e-09
 71.69344    -93.7 1.236e+04 1.717e-09
 71.70330    -93.4 1.253e+04 1.808e-09
 71.71835    -93.2 1.244e+04 1.751e-09
 71.73807    -93.1 1.237e+04 1.710e-09
 71.75779    -93.1 1.235e+04 1.700e-09
 71.77751    -93.6 1.240e+04 1.705e-09
 71.79723    -94.7 1.267e+04 1.802e-09
 71.81695    -96.1 1.308e+04 2.075e-09
 71.83312    -97.4 1.353e+04 2.529e-09
 71.84298    -97.3 1.405e+04 2.974e-09
 71.85639    -98.1 1.446e+04 3.590e-09
 71.87611    -98.7 1.462e+04 3.936e-09
 71.89583    -99.2 1.461e+04 4.000e-09
 71.91555    -99.5 1.438e+04 3.824e-09
 71.93527    -99.7 1.409e+04 3.401e-09
 71.95500    -99.9 1.380e+04 2.864e-09
 71.97280   -100.3 1.344e+04 2.326e-09
 71.98266    -99.7 1.319e+04 2.096e-09
 71.99444   -100.2 1.277e+04 1.682e-09
 72.01416   -100.6 1.231e+04 1.337e-09
 72.03388   -100.9 1.185e+04 1.065e-09
 72.05360   -101.2 1.147e+04 8.693e-10
 72.07332   -101.3 1.120e+04 7.449e-10
 72.09304   -101.5 1.103e+04 6.799e-10
 72.11248   -101.5 1.096e+04 6.587e-10
 72.12234   -100.5 1.096e+04 6.548e-10
 72.13248   -100.6 1.095e+04 6.517e-10
 72.15220   -100.7 1.096e+04 6.588e-10
 72.17192   -100.7 1.099e+04 6.798e-10
 72.19164   -100.7 1.099e+04 6.940e-10
 72.21136   -100.7 1.096e+04 6.934e-10
 72.23108   -100.5 1.089e+04 6.652e-10
 72.25080   -100.2 1.083e+04 6.159e-10
 72.26202    -99.9 1.076e+04 5.615e-10
 72.27188   -100.1 1.091e+04 6.128e-10
 72.29025    -99.8 1.086e+04 5.740e-10
 72.30997    -99.6 1.084e+04 5.540e-10
 72.32969    -99.4 1.084e+04 5.499e-10
 72.34941    -99.3 1.089e+04 5.494e-10
 72.36913    -99.7 1.124e+04 6.067e-10
 72.38885   -100.3 1.178e+04 7.533e-10
 72.40170   -100.9 1.238e+04 1.008e-09
 72.41156   -102.7 1.309e+04 1.355e-09
 72.42829   -103.0 1.354e+04 1.752e-09
 72.44801   -103.2 1.386e+04 2.113e-09
 72.46773   -103.2 1.402e+04 2.346e-09
 72.48745   -103.3 1.406e+04 2.410e-09
 72.50717   -103.3 1.390e+04 2.216e-09
 72.52689   -103.5 1.358e+04 1.877e-09
 72.54138   -103.8 1.315e+04 1.480e-09
 72.55124   -105.4 1.237e+04 1.016e-09
 72.56633   -106.0 1.176e+04 7.512e-10
 72.58605   -106.5 1.112e+04 5.776e-10
 72.60577   -106.8 1.071e+04 4.921e-10
 72.62550   -106.5 1.043e+04 4.185e-10
 72.64522   -106.0 1.021e+04 3.588e-10
 72.66494   -105.6 1.007e+04 3.192e-10
 72.68116   -105.2 9.983e+03 2.891e-10
 72.70098   -105.1 1.002e+04 3.174e-10
 72.73415   -103.5 9.751e+03 2.704e-10
 72.77360   -101.0 9.451e+03 2.245e-10
 72.81304    -98.5 9.277e+03 1.958e-10
 72.85248    -96.1 9.241e+03 1.822e-10
 72.89192    -93.6 9.249e+03 1.797e-10
 72.93136    -91.9 9.757e+03 1.905e-10
 72.96053    -90.6 1.028e+04 1.977e-10
 72.97029    -90.4 9.914e+03 2.136e-10
 72.98047    -89.8 1.003e+04 2.251e-10
 73.00019    -89.5 1.029e+04 2.463e-10
 73.01991    -90.6 1.136e+04 3.261e-10
 73.03963    -95.8 1.686e+04 7.086e-10
 73.05935   -100.6 1.994e+04 2.435e-09
 73.07907   -103.7 2.059e+04 6.538e-09
 73.09879   -105.1 2.015e+04 1.237e-08
 73.10997   -105.3 1.972e+04 1.525e-08
 73.11485   -105.5 2.087e+04 1.655e-08
 73.12334   -105.6 2.064e+04 1.883e-08
 73.13320   -105.3 2.014e+04 2.111e-08
 73.14306   -105.0 1.984e+04 2.195e-08
 73.15292   -104.4 1.955e+04 2.210e-08
 73.16278   -104.0 1.937e+04 2.121e-08
 73.17264   -103.8 1.930e+04 1.871e-08
 73.17971   -103.8 1.917e+04 1.554e-08
 73.18464   -103.7 2.005e+04 2.282e-08
 73.19237   -103.8 1.967e+04 1.827e-08
 73.20223   -103.8 1.925e+04 1.429e-08
 73.21209   -103.8 1.877e+04 1.141e-08
 73.22195   -103.9 1.812e+04 8.899e-09
 73.23679   -104.1 1.709e+04 6.185e-09
 73.24965   -103.1 1.533e+04 3.931e-09
 73.25951   -102.9 1.712e+04 7.352e-09
 73.27628   -102.3 1.630e+04 5.970e-09
 73.29600   -101.4 1.583e+04 5.210e-09
 73.31572   -100.3 1.560e+04 4.772e-09
 73.33544    -99.2 1.544e+04 4.444e-09
 73.35516    -98.1 1.531e+04 4.059e-09
 73.37488    -97.1 1.511e+04 3.597e-09
 73.38933    -96.0 1.484e+04 3.100e-09
 73.39919    -96.0 1.631e+04 6.205e-09
 73.41432    -94.9 1.580e+04 4.867e-09
 73.43404    -93.7 1.513e+04 3.623e-09
 73.45376    -92.7 1.440e+04 2.643e-09
 73.47348    -91.8 1.372e+04 1.952e-09
 73.49320    -90.9 1.310e+04 1.472e-09
 73.51292    -90.1 1.256e+04 1.137e-09
 73.52901    -89.3 1.212e+04 9.077e-10
 73.53887    -90.0 1.291e+04 1.127e-09
 73.55236    -89.9 1.277e+04 9.658e-10
 73.57208    -89.8 1.284e+04 8.839e-10
 73.59180    -90.0 1.291e+04 8.511e-10
 73.61153    -90.5 1.386e+04 8.712e-10
 73.63125    -91.1 1.479e+04 1.039e-09
 73.65097    -91.4 1.549e+04 1.336e-09
 73.66870    -91.3 1.569e+04 1.732e-09
 73.67856    -94.3 1.681e+04 3.619e-09
 73.69041    -93.6 1.643e+04 3.992e-09
 73.71013    -92.6 1.573e+04 4.196e-09
 73.72985    -91.8 1.529e+04 3.806e-09
 73.74957    -91.2 1.499e+04 3.295e-09
 73.76929    -90.7 1.484e+04 2.900e-09
 73.78901    -90.4 1.476e+04 2.439e-09
 73.80838    -90.4 1.475e+04 1.859e-09
 73.81824    -93.0 1.429e+04 8.315e-10
 73.82845    -93.7 1.368e+04 5.283e-10
 73.84817    -94.7 1.264e+04 3.551e-10
 73.86789    -95.4 1.137e+04 2.889e-10
 73.88761    -95.8 1.074e+04 2.741e-10
 73.90733    -95.5 1.062e+04 2.695e-10
 73.92705    -95.0 1.066e+04 2.717e-10
 73.95673    -94.3 1.070e+04 2.845e-10
 73.99627    -92.0 1.061e+04 2.996e-10
 74.03571    -89.8 1.075e+04 3.344e-10
 74.07515    -87.4 1.090e+04 4.024e-10
 74.09779    -84.8 1.114e+04 4.936e-10
 74.11752    -85.1 1.125e+04 5.427e-10
 74.15404    -82.6 1.132e+04 5.699e-10
 74.19348    -80.1 1.135e+04 5.862e-10
 74.23292    -77.5 1.134e+04 5.926e-10
 74.27236    -74.9 1.133e+04 5.967e-10
 74.31180    -72.2 1.137e+04 6.294e-10
 74.35124    -69.5 1.147e+04 6.777e-10
 74.37716    -66.7 1.159e+04 7.481e-10
 74.39688    -67.4 1.108e+04 5.231e-10
 74.43013    -64.6 1.113e+04 5.260e-10
 74.46957    -61.8 1.123e+04 5.522e-10
 74.50901    -59.1 1.135e+04 5.755e-10
 74.54845    -56.9 1.137e+04 5.769e-10
 74.58789    -55.3 1.124e+04 5.400e-10
 74.62733    -53.7 1.119e+04 5.337e-10
 74.65652    -52.4 1.138e+04 5.539e-10
 74.67624    -52.6 1.107e+04 5.731e-10
 74.70621    -51.1 1.120e+04 6.028e-10
 74.74566    -49.6 1.133e+04 6.552e-10
 74.78510    -48.2 1.140e+04 7.128e-10
 74.80596    -47.3 1.143e+04 7.532e-10
 74.81573    -47.2 1.148e+04 7.804e-10
 74.83420    -46.5 1.139e+04 7.731e-10
 74.85392    -45.7 1.129e+04 7.432e-10
 74.87364    -45.0 1.114e+04 6.583e-10
 74.89336    -44.3 1.105e+04 5.851e-10
 74.91308    -43.8 1.099e+04 5.210e-10
 74.93281    -43.3 1.089e+04 4.648e-10
 74.94555    -42.7 1.079e+04 4.124e-10
 74.95551    -43.3 1.057e+04 3.546e-10
 74.98230    -42.2 1.017e+04 2.331e-10
 75.02174    -41.4 1.009e+04 2.110e-10
 75.04272    -40.5 1.006e+04 1.992e-10
 75.06244    -40.1 1.020e+04 1.944e-10
 75.10063    -39.2 1.017e+04 1.930e-10
 75.14007    -38.5 1.019e+04 2.012e-10
 75.17951    -37.7 1.029e+04 2.021e-10
 75.21525    -37.0 1.040e+04 2.522e-10
 75.23497    -36.2 1.023e+04 2.367e-10
 75.25839    -34.9 1.036e+04 2.756e-10
 75.29783    -33.7 1.051e+04 3.279e-10
 75.33727    -32.8 1.068e+04 4.119e-10
 75.37671    -32.0 1.086e+04 5.224e-10
 75.41616    -31.0 1.097e+04 6.233e-10
 75.45560    -29.9 1.092e+04 6.284e-10
 75.49461    -28.6 1.064e+04 5.135e-10
 75.51433    -27.7 1.138e+04 8.633e-10
 75.53448    -26.3 1.103e+04 6.764e-10
 75.57392    -24.7 1.053e+04 4.227e-10
 75.61336    -23.2 1.008e+04 2.622e-10
 75.65280    -21.6 9.786e+03 1.912e-10
 75.69224    -19.7 9.710e+03 1.734e-10
 75.73169    -17.7 9.795e+03 1.768e-10
 75.77113    -16.0 1.003e+04 2.091e-10
 75.79369    -14.4 1.029e+04 2.696e-10
 75.81341    -13.6 1.072e+04 3.990e-10
 75.85001    -11.9 1.105e+04 5.311e-10
 75.88945    -10.5 1.131e+04 6.674e-10
 75.92889     -9.1 1.147e+04 7.611e-10
 75.95837     -8.5 1.162e+04 9.198e-10
 75.97800     -8.1 1.143e+04 8.726e-10
 76.00768     -6.3 1.147e+04 8.185e-10
 76.04721     -5.5 1.168e+04 8.841e-10
 76.07296     -5.9 1.209e+04 1.068e-09
 76.08272     -5.9 1.232e+04 1.358e-09
 76.09632     -5.9 1.222e+04 1.543e-09
 76.11604     -5.5 1.217e+04 1.759e-09
 76.13576     -4.9 1.222e+04 1.856e-09
 76.15548     -4.1 1.235e+04 1.910e-09
 76.17520     -3.6 1.245e+04 1.815e-09
 76.19492     -3.4 1.246e+04 1.614e-09
 76.21254     -3.5 1.231e+04 1.384e-09
 76.22240     -3.7 1.194e+04 1.034e-09
 76.23437     -4.0 1.161e+04 9.115e-10
 76.25409     -4.1 1.134e+04 8.574e-10
 76.27381     -3.7 1.112e+04 8.283e-10
 76.29353     -3.3 1.096e+04 8.080e-10
 76.32321     -1.8 1.130e+04 9.338e-10
 76.35242      0.0 1.127e+04 8.696e-10
 76.37214      0.7 1.072e+04 6.035e-10
 76.40219      1.7 1.094e+04 5.922e-10
 76.44163      2.6 1.147e+04 7.405e-10
 76.48107      3.8 1.198e+04 9.345e-10
 76.52051      4.9 1.213e+04 1.088e-09
 76.55995      5.8 1.225e+04 1.128e-09
 76.59939      6.2 1.265e+04 1.125e-09
 76.62887      5.4 1.277e+04 1.236e-09
 76.64144      5.0 1.289e+04 1.396e-09
 76.65140      7.7 1.270e+04 9.120e-10
 76.67827      6.6 1.291e+04 1.270e-09
 76.70776      4.3 1.346e+04 1.849e-09
 76.72738      3.7 1.335e+04 2.265e-09
 76.74710      4.2 1.321e+04 2.425e-09
 76.76682      4.9 1.285e+04 2.189e-09
 76.78113      5.6 1.234e+04 1.651e-09
 76.79099      6.5 1.232e+04 1.736e-09
 76.80626      7.2 1.181e+04 1.231e-09
 76.82598      7.4 1.090e+04 7.561e-10
 76.84570      7.4 1.002e+04 4.719e-10
 76.86542      7.2 9.541e+03 3.029e-10
 76.88514      7.2 9.354e+03 2.563e-10
 76.91104      8.5 9.272e+03 2.133e-10
 76.93077      9.7 9.208e+03 2.135e-10
 76.95426     11.7 9.144e+03 1.881e-10
 76.99380     12.7 9.141e+03 1.779e-10
 77.03324     12.8 9.373e+03 2.172e-10
 77.07269     13.3 9.727e+03 3.470e-10
 77.10217     13.6 9.811e+03 4.973e-10
 77.12179     13.5 1.027e+04 5.940e-10
 77.14151     13.0 1.084e+04 7.336e-10
 77.16123     12.0 1.120e+04 8.833e-10
 77.18095     11.0 1.129e+04 1.030e-09
 77.20017     10.6 1.129e+04 1.124e-09
 77.21003     10.5 1.149e+04 1.283e-09
 77.22039     10.3 1.135e+04 1.214e-09
 77.24012     10.4 1.114e+04 1.047e-09
 77.25984     10.2 1.087e+04 8.262e-10
 77.27956      9.9 1.053e+04 6.198e-10
 77.29928      9.4 1.030e+04 4.680e-10
 77.31900      8.4 1.011e+04 3.690e-10
 77.34868      8.2 1.004e+04 3.297e-10
 77.38822      8.9 9.689e+03 2.713e-10
 77.42766      9.7 9.506e+03 2.323e-10
 77.46710     11.0 9.407e+03 2.220e-10
 77.48959     12.6 9.387e+03 2.230e-10
 77.50931     11.9 9.492e+03 2.498e-10
 77.54598     13.9 9.526e+03 2.482e-10
 77.58542     15.7 9.570e+03 2.470e-10
 77.62486     17.4 9.588e+03 2.614e-10
 77.66430     19.3 9.679e+03 2.901e-10
 77.70374     20.9 1.004e+04 3.079e-10
 77.74319     21.9 1.033e+04 3.330e-10
 77.76885     22.7 1.040e+04 3.605e-10
 77.77862     22.7 1.043e+04 3.613e-10
 77.79229     23.0 1.055e+04 4.133e-10
 77.81201     23.5 1.074e+04 4.816e-10
 77.83173     23.7 1.105e+04 5.562e-10
 77.85145     24.1 1.147e+04 7.423e-10
 77.87117     24.0 1.164e+04 8.039e-10
 77.90085     24.1 1.197e+04 1.115e-09
 77.94039     24.7 1.212e+04 1.398e-09
 77.97983     25.7 1.200e+04 1.293e-09
 78.01927     27.1 1.145e+04 1.002e-09
 78.04831     28.0 1.106e+04 7.092e-10
 78.06803     29.0 1.147e+04 8.447e-10
 78.09816     29.4 1.108e+04 7.134e-10
 78.13760     30.7 1.102e+04 7.549e-10
 78.17704     32.6 1.096e+04 8.440e-10
 78.21648     34.9 1.089e+04 8.457e-10
 78.25592     37.3 1.072e+04 7.919e-10
 78.29536     39.1 1.062e+04 7.210e-10
 78.32768     40.9 1.061e+04 7.158e-10
 78.34740     41.4 1.059e+04 6.716e-10
 78.37425     42.9 1.063e+04 7.033e-10
 78.41369     44.1 1.090e+04 8.479e-10
 78.45313     45.0 1.135e+04 1.090e-09
 78.49257     45.9 1.172e+04 1.283e-09
 78.53201     46.2 1.198e+04 1.384e-09
 78.57145     46.2 1.219e+04 1.446e-09
 78.60704     46.3 1.227e+04 1.398e-09
 78.62666     47.6 1.228e+04 1.463e-09
 78.64028     47.6 1.206e+04 1.383e-09
 78.66000     47.4 1.176e+04 1.247e-09
 78.67972     47.0 1.160e+04 1.160e-09
 78.69944     46.7 1.159e+04 1.181e-09
 78.71916     46.4 1.174e+04 1.314e-09
 78.73888     46.5 1.204e+04 1.577e-09
 78.75639     46.9 1.240e+04 1.946e-09
 78.76625     47.7 1.228e+04 1.845e-09
 78.77832     48.3 1.271e+04 2.296e-09
 78.79804     49.1 1.303e+04 2.709e-09
 78.81776     50.0 1.322e+04 2.848e-09
 78.83748     50.8 1.324e+04 2.756e-09
 78.85720     51.4 1.317e+04 2.539e-09
 78.87693     51.9 1.292e+04 2.196e-09
 78.89607     52.1 1.257e+04 1.867e-09
 78.90593     52.7 1.301e+04 2.274e-09
 78.91637     53.0 1.254e+04 1.872e-09
 78.93609     53.2 1.219e+04 1.596e-09
 78.95581     53.6 1.177e+04 1.321e-09
 78.97553     53.8 1.155e+04 1.171e-09
 78.99525     54.7 1.119e+04 9.876e-10
 79.01497     55.0 1.113e+04 9.236e-10
 79.03469     56.1 1.077e+04 7.781e-10
 79.04561     56.1 1.076e+04 7.718e-10
 79.05547     55.8 1.081e+04 7.921e-10
 79.08409     57.9 1.045e+04 6.488e-10
 79.12363     60.3 1.026e+04 5.776e-10
 79.16307     62.7 1.015e+04 5.338e-10
 79.18548     65.2 1.004e+04 4.893e-10
 79.20521     64.5 9.995e+03 4.706e-10
 79.24195     67.3 9.683e+03 3.612e-10
 79.28139     70.1 9.362e+03 2.535e-10
 79.32083     72.7 9.079e+03 1.730e-10
 79.36028     75.1 8.837e+03 1.228e-10
 79.39972     77.6 8.618e+03 1.098e-10
 79.43916     80.3 8.607e+03 1.110e-10
 79.46485     83.1 8.595e+03 1.202e-10
 79.48457     82.8 8.464e+03 1.008e-10
 79.51804     85.6 8.473e+03 1.114e-10
 79.55748     88.5 8.559e+03 1.368e-10
 79.59692     91.4 8.690e+03 1.734e-10
 79.63636     94.4 8.830e+03 2.114e-10
 79.67580     97.3 8.893e+03 2.370e-10
 79.71525    100.2 8.942e+03 2.482e-10
 79.74421    103.0 9.021e+03 2.628e-10
 79.76393    103.3 9.026e+03 2.691e-10
 79.79413    106.0 9.111e+03 2.825e-10
 79.83357    108.6 9.197e+03 2.995e-10
 79.87301    111.4 9.374e+03 3.251e-10
 79.91245    113.9 9.533e+03 3.560e-10
 79.94194    115.0 9.655e+03 4.123e-10
 79.96156    115.9 9.714e+03 4.700e-10
 79.98128    117.1 9.735e+03 5.242e-10
 80.00100    118.4 9.751e+03 5.714e-10
 80.02072    119.7 9.790e+03 6.116e-10
 80.03324    121.1 9.813e+03 6.402e-10
 80.04310    121.2 9.787e+03 6.455e-10
 80.06016    122.5 9.780e+03 6.395e-10
 80.07988    123.8 9.782e+03 6.202e-10
 80.09960    125.0 9.860e+03 6.021e-10
 80.11932    125.9 9.918e+03 6.017e-10
 80.13904    126.6 1.007e+04 6.159e-10
 80.15876    127.2 1.029e+04 6.674e-10
 80.17292    127.8 1.054e+04 7.616e-10
 80.18278    128.2 1.054e+04 7.605e-10
 80.19821    128.4 1.101e+04 9.077e-10
 80.21793    128.3 1.166e+04 1.204e-09
 80.23765    127.9 1.264e+04 1.748e-09
 80.25737    127.5 1.398e+04 2.747e-09
 80.27709    127.4 1.522e+04 4.086e-09
 80.29183    127.3 1.590e+04 4.924e-09
 80.30164    126.5 1.679e+04 6.211e-09
 80.31150    125.3 1.754e+04 8.354e-09
 80.31743    124.8 1.801e+04 1.102e-08
 80.32236    124.7 1.813e+04 1.165e-08
 80.33122    124.9 1.806e+04 1.446e-08
 80.34108    125.1 1.833e+04 1.600e-08
 80.35094    125.1 1.848e+04 1.684e-08
 80.36080    125.0 1.880e+04 1.671e-08
 80.37066    124.5 1.927e+04 1.607e-08
 80.38052    123.5 1.982e+04 1.479e-08
 80.38727    121.8 2.055e+04 1.213e-08
 80.39220    120.5 2.051e+04 7.898e-09
 80.40024    118.4 2.044e+04 6.502e-09
 80.41010    116.0 2.000e+04 5.474e-09
 80.41996    114.1 1.931e+04 4.812e-09
 80.42982    112.1 1.810e+04 4.184e-09
 80.43969    110.2 1.658e+04 3.595e-09
 80.45223    110.1 1.613e+04 3.678e-09
 80.46214    107.7 1.416e+04 2.344e-09
 80.47429    107.5 1.331e+04 1.965e-09
 80.49401    107.6 1.247e+04 1.527e-09
 80.51373    107.7 1.195e+04 1.264e-09
 80.53346    107.9 1.173e+04 1.154e-09
 80.55318    108.4 1.169e+04 1.134e-09
 80.57290    109.3 1.171e+04 1.151e-09
 80.59196    110.3 1.188e+04 1.249e-09
 80.60182    109.0 1.236e+04 1.475e-09
 80.61234    109.8 1.288e+04 1.840e-09
 80.63206    110.7 1.348e+04 2.416e-09
 80.65178    111.8 1.412e+04 3.194e-09
 80.67150    113.0 1.499e+04 4.264e-09
 80.69122    113.4 1.556e+04 5.095e-09
 80.70596    112.7 1.620e+04 5.940e-09
 80.71577    111.9 1.703e+04 6.973e-09
 80.72563    110.0 1.851e+04 8.704e-09
 80.73549    107.9 1.987e+04 1.065e-08
 80.74141    105.7 2.104e+04 1.283e-08
 80.74634    103.1 2.099e+04 1.126e-08
 80.75521    101.2 2.120e+04 1.265e-08
 80.76507     98.8 2.120e+04 1.360e-08
 80.77494     97.1 2.101e+04 1.354e-08
 80.78480     95.0 2.045e+04 1.257e-08
 80.79466     93.3 1.984e+04 1.141e-08
 80.80950     91.6 1.869e+04 8.196e-09
 80.82926     88.3 1.694e+04 4.052e-09
 80.84899     82.4 1.508e+04 1.680e-09
 80.86871     75.7 1.399e+04 1.100e-09
 80.88114     70.8 1.585e+04 1.309e-09
 80.88602     72.6 1.506e+04 1.146e-09
 80.89326     67.4 2.058e+04 2.021e-09
 80.90312     61.3 2.455e+04 5.531e-09
 80.91298     56.1 2.438e+04 1.380e-08
 80.92284     53.5 2.280e+04 2.748e-08
 80.93270     53.8 2.143e+04 4.350e-08
 80.94256     54.7 2.064e+04 5.823e-08
 80.95093     55.4 2.028e+04 6.665e-08
 80.95586     55.1 2.041e+04 7.271e-08
 80.96228     56.1 2.009e+04 7.016e-08
 80.97214     57.3 1.984e+04 6.005e-08
 80.98200     58.4 1.975e+04 5.149e-08
 80.99186     59.4 1.990e+04 3.977e-08
 81.00172     59.7 2.045e+04 2.714e-08
 81.01158     59.9 2.111e+04 1.564e-08
 81.02082     59.4 2.209e+04 8.624e-09
 81.03073     59.4 2.190e+04 8.388e-09
 81.04619     55.0 2.292e+04 1.781e-09
 81.06591     47.1 1.546e+04 6.191e-10
 81.08563     42.9 1.008e+04 5.708e-10
 81.10535     43.5 9.788e+03 5.037e-10
 81.12507     44.7 9.745e+03 4.559e-10
 81.14479     45.7 9.733e+03 4.124e-10
 81.16055     46.2 9.685e+03 3.775e-10
 81.17041     46.9 9.854e+03 4.164e-10
 81.18424     47.0 9.763e+03 3.949e-10
 81.20396     47.0 9.767e+03 3.995e-10
 81.22368     46.6 9.949e+03 4.339e-10
 81.24340     45.6 1.035e+04 5.511e-10
 81.26312     44.1 1.115e+04 8.331e-10
 81.28284     42.6 1.215e+04 1.371e-09
 81.30023     41.7 1.300e+04 2.119e-09
 81.31009     42.4 1.277e+04 1.892e-09
 81.31789     41.8 1.333e+04 2.522e-09
 81.32775     40.8 1.398e+04 3.408e-09
 81.34200     40.3 1.423e+04 3.430e-09
 81.36172     39.0 1.429e+04 3.165e-09
 81.38144     36.5 1.420e+04 2.408e-09
 81.40116     32.4 1.391e+04 1.909e-09
 81.42088     29.2 1.327e+04 1.695e-09
 81.43991     26.9 1.303e+04 1.687e-09
 81.44977     26.0 1.351e+04 2.144e-09
 81.46032     25.3 1.326e+04 2.100e-09
 81.48004     24.5 1.305e+04 1.915e-09
 81.49976     24.3 1.292e+04 1.797e-09
 81.52944     22.8 1.250e+04 1.542e-09
 81.56898     22.3 1.165e+04 1.021e-09
 81.60842     22.6 1.074e+04 6.256e-10
 81.64786     23.4 1.009e+04 4.158e-10
 81.68731     24.8 9.656e+03 3.096e-10
 81.71947     26.7 9.433e+03 2.674e-10
 81.73919     26.0 9.056e+03 2.021e-10
 81.76619     28.6 9.018e+03 1.994e-10
 81.80563     31.2 9.049e+03 2.064e-10
 81.84507     34.1 9.072e+03 2.135e-10
 81.88451     36.9 9.136e+03 2.199e-10
 81.92395     39.7 9.230e+03 2.230e-10
 81.96339     42.4 9.253e+03 2.196e-10
 81.99883     45.1 9.230e+03 2.067e-10
 82.01855     45.3 9.305e+03 2.321e-10
 82.04228     48.0 9.240e+03 2.120e-10
 82.08172     50.7 9.160e+03 1.913e-10
 82.12116     53.4 9.075e+03 1.731e-10
 82.16060     56.0 9.029e+03 1.612e-10
 82.20004     58.5 9.087e+03 1.665e-10
 82.23948     61.0 9.281e+03 1.908e-10
 82.27820     63.5 9.552e+03 2.448e-10
 82.29792     63.4 9.758e+03 2.908e-10
 82.31836     65.7 1.004e+04 3.613e-10
 82.35781     68.2 1.031e+04 4.423e-10
 82.39725     71.0 1.054e+04 5.319e-10
 82.43669     73.9 1.077e+04 6.312e-10
 82.47613     76.7 1.119e+04 7.559e-10
 82.51557     79.6 1.196e+04 9.686e-10
 82.55501     82.0 1.248e+04 1.188e-09
 82.57718     82.1 1.265e+04 1.307e-09
 82.58694     79.8 1.258e+04 1.361e-09
 82.60412     79.5 1.304e+04 1.647e-09
 82.62384     78.4 1.391e+04 2.325e-09
 82.64356     77.1 1.477e+04 3.462e-09
 82.66328     76.1 1.528e+04 4.677e-09
 82.68300     74.9 1.527e+04 4.839e-09
 82.70272     73.4 1.505e+04 4.555e-09
 82.71676     71.3 1.454e+04 3.620e-09
 82.72662     71.0 1.420e+04 3.057e-09
 82.74216     68.2 1.351e+04 2.187e-09
 82.76188     64.4 1.320e+04 1.974e-09
 82.78160     61.0 1.329e+04 2.045e-09
 82.80132     58.0 1.365e+04 2.436e-09
 82.82104     56.2 1.414e+04 3.137e-09
 82.84077     55.3 1.441e+04 3.702e-09
 82.85645     55.0 1.434e+04 3.657e-09
 82.86631     55.7 1.447e+04 3.917e-09
 82.88021     55.8 1.434e+04 3.747e-09
 82.89993     55.9 1.394e+04 3.135e-09
 82.91965     55.7 1.331e+04 2.261e-09
 82.93937     54.8 1.252e+04 1.470e-09
 82.95909     53.3 1.170e+04 9.999e-10
 82.97881     51.3 1.106e+04 7.481e-10
 82.99613     50.1 1.074e+04 6.514e-10
 83.00599     49.3 1.083e+04 6.749e-10
 83.01825     47.3 1.050e+04 6.097e-10
 83.03797     45.2 1.087e+04 5.967e-10
 83.05769     38.8 1.591e+04 5.959e-10
 83.07741     27.0 2.411e+04 1.838e-09
 83.09713     19.8 2.435e+04 9.313e-09
 83.11187     15.2 2.450e+04 2.532e-08
 83.12169     13.5 2.443e+04 3.123e-08
 83.13155     12.1 2.420e+04 3.196e-08
 83.14064     11.0 2.253e+04 2.707e-08
 83.14557     10.5 2.243e+04 2.146e-08
 83.15127      8.9 2.149e+04 1.405e-08
 83.16113      6.3 2.006e+04 9.691e-09
 83.17099      2.7 1.983e+04 5.103e-09
 83.18085     -0.1 1.832e+04 3.641e-09
 83.19071     -4.3 1.658e+04 2.366e-09
 83.20057     -5.6 1.569e+04 2.187e-09
 83.21541     -7.9 1.505e+04 2.132e-09
 83.23518     -9.6 1.485e+04 2.275e-09
 83.25490    -11.0 1.427e+04 2.518e-09
 83.27462    -11.2 1.388e+04 2.984e-09
 83.28535     -9.5 1.402e+04 3.492e-09
 83.29521     -9.1 1.419e+04 3.636e-09
 83.31406     -7.6 1.418e+04 3.624e-09
 83.33378     -6.1 1.422e+04 3.278e-09
 83.35350     -5.1 1.428e+04 2.671e-09
 83.37322     -4.8 1.393e+04 2.045e-09
 83.39294     -4.6 1.338e+04 1.599e-09
 83.41266     -3.9 1.294e+04 1.310e-09
 83.42503     -2.7 1.265e+04 1.116e-09
 83.43489     -3.4 1.201e+04 7.450e-10
 83.45210     -2.3 1.189e+04 6.381e-10
 83.47182     -1.5 1.155e+04 5.590e-10
 83.49155     -1.8 1.267e+04 6.582e-10
 83.51127     -7.2 1.569e+04 1.315e-09
 83.53099    -11.7 1.723e+04 3.520e-09
 83.55071    -13.6 1.721e+04 6.651e-09
 83.56471    -13.4 1.732e+04 8.873e-09
 83.56959    -14.6 1.760e+04 1.057e-08
 83.57526    -14.8 1.774e+04 1.049e-08
 83.58512    -15.6 1.833e+04 8.499e-09
 83.59498    -16.6 2.046e+04 5.868e-09
 83.60484    -24.1 1.778e+04 3.168e-09
 83.61470    -26.1 1.675e+04 2.740e-09
 83.62954    -32.5 1.385e+04 1.886e-09
 83.64931    -35.0 1.219e+04 1.401e-09
 83.66903    -35.2 1.156e+04 1.214e-09
 83.68875    -35.2 1.136e+04 1.166e-09
 83.70439    -34.9 1.137e+04 1.154e-09
 83.71425    -34.5 1.163e+04 1.195e-09
 83.72819    -34.0 1.148e+04 1.081e-09
 83.74791    -33.3 1.134e+04 9.751e-10
 83.76763    -32.5 1.121e+04 8.573e-10
 83.78735    -31.8 1.105e+04 7.263e-10
 83.80707    -31.2 1.084e+04 5.971e-10
 83.82680    -30.8 1.057e+04 4.897e-10
 83.85647    -29.8 1.023e+04 4.025e-10
 83.89601    -28.3 9.971e+03 3.236e-10
 83.93545    -26.4 9.679e+03 2.517e-10
 83.97409    -24.7 9.493e+03 2.212e-10
 83.99381    -23.7 9.570e+03 2.308e-10
 84.01434    -21.5 9.408e+03 2.114e-10
 84.05378    -19.2 9.343e+03 1.941e-10
 84.09322    -16.9 9.317e+03 1.829e-10
 84.13266    -14.4 9.297e+03 1.834e-10
 84.17210    -11.8 9.343e+03 2.018e-10
 84.21154     -9.1 9.435e+03 2.316e-10
 84.25098     -6.3 9.589e+03 2.697e-10
 84.27318     -3.4 9.866e+03 3.195e-10
 84.29290     -2.8 1.020e+04 4.180e-10
 84.32987     -0.1 1.073e+04 5.610e-10
 84.35935      1.9 1.104e+04 6.752e-10
 84.37897      2.5 1.122e+04 7.230e-10
 84.39869      4.1 1.137e+04 9.311e-10
 84.41266      5.3 1.162e+04 1.014e-09
 84.42252      5.8 1.202e+04 1.252e-09
 84.43813      6.9 1.234e+04 1.409e-09
 84.45785      7.0 1.279e+04 1.594e-09
 84.47758      6.7 1.349e+04 1.963e-09
 84.49730      6.3 1.395e+04 2.494e-09
 84.51702      6.7 1.414e+04 3.318e-09
 84.53674      7.8 1.424e+04 3.867e-09
 84.55234      8.9 1.409e+04 3.894e-09
 84.56220      9.8 1.439e+04 4.484e-09
 84.57618     10.9 1.424e+04 3.431e-09
 84.59590     11.0 1.376e+04 2.564e-09
 84.61562     11.0 1.307e+04 1.816e-09
 84.63534     11.0 1.250e+04 1.257e-09
 84.65506     10.8 1.173e+04 9.328e-10
 84.68474     11.6 1.098e+04 6.468e-10
 84.72428     13.5 1.026e+04 4.055e-10
 84.76372     14.7 9.921e+03 2.797e-10
 84.80316     16.4 9.785e+03 2.572e-10
 84.83190     18.0 9.932e+03 2.836e-10
 84.85162     17.9 1.052e+04 4.541e-10
 84.88204     19.8 1.067e+04 5.090e-10
 84.92148     21.8 1.099e+04 6.347e-10
 84.96093     23.4 1.145e+04 8.345e-10
 85.00037     25.0 1.189e+04 9.861e-10
 85.03981     26.1 1.221e+04 1.060e-09
 85.07925     27.1 1.212e+04 9.261e-10
 85.11126     28.2 1.169e+04 6.869e-10
 85.13098     28.1 1.139e+04 4.239e-10
 85.15813     29.4 1.102e+04 3.538e-10
 85.19757     31.0 1.071e+04 3.077e-10
 85.23701     33.0 1.051e+04 2.790e-10
 85.27645     35.1 1.042e+04 2.608e-10
 85.31590     37.3 1.036e+04 2.505e-10
 85.35534     39.5 1.035e+04 2.453e-10
 85.39063     41.7 1.030e+04 2.485e-10
 85.41035     42.2 1.043e+04 2.358e-10
 85.43422     44.5 1.039e+04 2.340e-10
 85.47366     46.8 1.032e+04 2.329e-10
 85.51310     49.2 1.022e+04 2.276e-10
 85.55254     51.6 1.017e+04 2.268e-10
 85.59198     54.1 1.019e+04 2.384e-10
 85.63143     56.4 1.039e+04 2.725e-10
 85.66999     58.3 1.063e+04 3.252e-10
 85.68961     58.4 1.076e+04 4.260e-10
 85.70025     59.3 1.083e+04 5.071e-10
 85.71997     60.3 1.097e+04 6.239e-10
 85.73969     61.4 1.115e+04 7.535e-10
 85.75941     62.7 1.132e+04 8.556e-10
 85.77913     63.8 1.147e+04 9.074e-10
 85.79886     64.8 1.160e+04 9.304e-10
 85.81858     65.5 1.176e+04 9.588e-10
 85.82920     65.8 1.197e+04 1.017e-09
 85.83906     65.5 1.256e+04 1.525e-09
 85.85802     65.3 1.299e+04 1.829e-09
 85.87774     65.2 1.343e+04 2.368e-09
 85.89746     65.4 1.385e+04 3.146e-09
 85.91718     66.3 1.425e+04 4.067e-09
 85.93690     67.3 1.449e+04 4.556e-09
 85.95662     68.2 1.452e+04 4.487e-09
 85.96888     69.3 1.443e+04 3.777e-09
 85.97874     68.7 1.436e+04 4.700e-09
 85.99606     69.2 1.412e+04 3.813e-09
 86.01578     69.1 1.400e+04 2.761e-09
 86.03550     68.5 1.384e+04 2.116e-09
 86.05522     67.6 1.369e+04 1.773e-09
 86.07494     67.0 1.347e+04 1.610e-09
 86.09466     67.0 1.302e+04 1.539e-09
 86.10856     67.2 1.262e+04 1.424e-09
 86.11842     67.2 1.281e+04 1.997e-09
 86.13411     67.7 1.237e+04 1.619e-09
 86.15383     68.1 1.195e+04 1.286e-09
 86.17355     68.3 1.154e+04 1.025e-09
 86.19327     68.6 1.117e+04 8.506e-10
 86.21299     68.9 1.083e+04 7.289e-10
 86.23271     69.5 1.055e+04 6.494e-10
 86.24824     70.3 1.034e+04 5.913e-10
 86.25810     69.6 1.012e+04 4.820e-10
 86.27215     70.2 1.003e+04 4.530e-10
 86.30183     71.6 9.892e+03 3.892e-10
 86.34137     73.4 9.891e+03 3.934e-10
 86.38081     75.4 9.904e+03 4.075e-10
 86.42025     77.3 9.943e+03 4.281e-10
 86.45969     79.1 9.966e+03 4.333e-10
 86.49913     81.2 9.821e+03 4.022e-10
 86.52780     83.0 9.594e+03 3.423e-10
 86.54752     82.6 9.819e+03 4.117e-10
 86.57801     84.3 9.638e+03 3.641e-10
 86.61746     85.7 9.439e+03 3.098e-10
 86.65690     86.9 9.293e+03 2.704e-10
 86.69634     88.0 9.215e+03 2.463e-10
 86.73578     89.1 9.159e+03 2.281e-10
 86.77522     90.2 9.096e+03 2.077e-10
 86.80716     91.4 9.015e+03 1.806e-10
 86.82688     91.3 9.304e+03 2.157e-10
 86.85410     92.3 9.153e+03 1.636e-10
 86.89354     93.1 9.007e+03 1.211e-10
 86.93299     93.8 8.932e+03 1.011e-10
 86.97243     94.7 8.940e+03 1.009e-10
 87.01187     95.6 9.008e+03 1.059e-10
 87.05131     96.5 9.274e+03 1.252e-10
 87.08652     97.6 9.653e+03 1.687e-10
 87.10624     96.4 1.062e+04 4.803e-10
 87.13019     97.9 1.088e+04 6.209e-10
 87.16963     99.5 1.097e+04 6.792e-10
 87.20907    101.2 1.095e+04 6.689e-10
 87.24851    103.0 1.089e+04 6.134e-10
 87.28796    105.1 1.077e+04 5.257e-10
 87.32740    107.2 1.065e+04 4.437e-10
 87.36589    109.4 1.057e+04 3.790e-10
 87.38561    108.9 1.029e+04 3.356e-10
 87.40628    111.2 1.014e+04 2.941e-10
 87.44572    113.6 1.003e+04 2.775e-10
 87.48516    116.2 1.003e+04 2.773e-10
 87.52460    118.9 1.004e+04 2.795e-10
 87.56404    121.6 1.011e+04 2.905e-10
 87.59344    124.3 1.025e+04 3.236e-10
 87.61316    123.9 1.040e+04 3.396e-10
 87.64293    126.6 1.065e+04 4.232e-10
 87.66497    129.5 1.118e+04 5.941e-10
 87.68469    130.5 1.113e+04 5.339e-10
 87.71185    131.7 1.145e+04 6.342e-10
 87.73147    132.6 1.170e+04 7.436e-10
 87.75119    133.5 1.199e+04 8.980e-10
 87.77092    134.3 1.234e+04 1.116e-09
 87.79064    135.0 1.273e+04 1.416e-09
 87.80445    135.7 1.313e+04 1.795e-09
 87.81431    135.9 1.385e+04 1.817e-09
 87.83008    136.4 1.433e+04 2.321e-09
 87.84980    137.0 1.470e+04 2.837e-09
 87.86952    137.4 1.493e+04 3.308e-09
 87.88924    137.9 1.496e+04 3.647e-09
 87.90896    138.3 1.490e+04 3.709e-09
 87.92868    138.7 1.487e+04 3.700e-09
 87.94414    139.2 1.481e+04 3.664e-09
 87.95400    139.2 1.585e+04 4.234e-09
 87.96812    139.6 1.590e+04 4.235e-09
 87.98784    139.5 1.617e+04 4.380e-09
 88.00756    139.1 1.689e+04 4.972e-09
 88.02728    137.9 1.819e+04 6.204e-09
 88.04700    135.6 2.005e+04 7.944e-09
 88.06175    131.8 2.229e+04 1.287e-08
 88.07156    129.3 2.331e+04 1.870e-08
 88.08142    127.3 2.382e+04 2.553e-08
 88.08865    125.4 2.395e+04 3.293e-08
 88.09358    125.7 2.396e+04 5.418e-08
 88.10114    124.2 2.394e+04 5.680e-08
 88.11100    123.0 2.392e+04 5.286e-08
 88.12086    121.9 2.398e+04 4.364e-08
 88.13072    120.6 2.401e+04 3.356e-08
 88.14058    119.1 2.402e+04 2.646e-08
 88.15044    117.5 2.388e+04 2.381e-08
 88.15849    116.2 2.369e+04 2.377e-08
 88.16342    116.3 2.318e+04 2.279e-08
 88.17016    115.1 2.300e+04 2.133e-08
 88.18002    114.1 2.290e+04 1.974e-08
 88.18988    112.9 2.284e+04 1.828e-08
 88.19974    111.4 2.284e+04 1.770e-08
 88.20960    110.0 2.285e+04 1.785e-08
 88.21946    108.5 2.292e+04 1.880e-08
 88.22833    106.9 2.311e+04 2.167e-08
 88.23326    107.1 2.321e+04 1.624e-08
 88.23918    105.3 2.358e+04 2.087e-08
 88.24904    103.5 2.369e+04 2.873e-08
 88.25890    102.1 2.334e+04 3.985e-08
 88.26876    101.3 2.227e+04 5.027e-08
 88.27862    100.6 2.237e+04 5.160e-08
 88.28848    100.1 2.227e+04 5.243e-08
 88.29817     99.8 2.193e+04 5.226e-08
 88.30310     99.7 2.238e+04 5.092e-08
 88.30820     99.6 2.213e+04 4.962e-08
 88.31806     99.3 2.205e+04 4.710e-08
 88.32792     99.0 2.207e+04 4.358e-08
 88.33778     98.6 2.247e+04 3.638e-08
 88.34765     98.3 2.300e+04 2.819e-08
 88.35751     97.7 2.594e+04 1.421e-08
 88.36737     97.3 2.729e+04 8.949e-09
 88.37299     94.2 3.385e+04 9.781e-10
 88.37792     97.6 2.540e+04 9.690e-09
 88.38709     97.3 2.700e+04 5.658e-09
 88.40193     95.3 3.290e+04 1.053e-09
 88.42169     90.6 2.876e+04 6.389e-10
 88.44142     86.7 2.049e+04 7.449e-10
 88.46114     82.0 1.596e+04 9.289e-10
 88.48086     79.2 1.386e+04 1.133e-09
 88.50296     75.2 1.197e+04 1.073e-09
 88.52268     75.0 1.301e+04 1.165e-09
 88.54998     74.2 1.205e+04 1.120e-09
 88.58952     73.8 1.209e+04 1.251e-09
 88.62896     73.6 1.211e+04 1.292e-09
 88.65250     72.6 1.167e+04 1.016e-09
 88.66226     72.4 1.199e+04 1.165e-09
 88.67806     71.5 1.145e+04 9.490e-10
 88.69778     70.9 1.085e+04 7.504e-10
 88.71750     70.5 1.036e+04 6.100e-10
 88.73722     70.4 9.876e+03 4.830e-10
 88.75695     70.4 9.583e+03 4.300e-10
 88.77667     71.3 9.308e+03 3.818e-10
 88.79208     71.4 9.247e+03 3.711e-10
 88.80194     70.3 9.239e+03 3.647e-10
 88.82606     72.4 9.149e+03 3.501e-10
 88.86560     74.5 9.006e+03 3.330e-10
 88.90504     76.4 8.882e+03 3.203e-10
 88.94449     78.1 8.923e+03 3.331e-10
 88.98393     79.5 9.152e+03 3.950e-10
 89.02337     80.8 9.525e+03 4.971e-10
 89.06178     81.8 9.751e+03 5.616e-10
 89.08150     81.1 1.011e+04 6.802e-10
 89.10225     81.8 1.007e+04 6.637e-10
 89.14169     82.5 9.871e+03 5.819e-10
 89.18113     83.2 9.640e+03 4.833e-10
 89.22057     83.5 9.593e+03 4.486e-10
 89.26002     83.8 9.664e+03 4.625e-10
 89.29946     84.3 9.709e+03 4.826e-10
 89.33890     85.0 9.662e+03 4.811e-10
 89.36087     86.0 9.496e+03 4.459e-10
 89.38059     85.3 9.194e+03 3.305e-10
 89.41778     86.3 8.955e+03 2.645e-10
 89.45722     87.2 8.795e+03 2.222e-10
 89.49666     88.1 8.805e+03 2.177e-10
 89.53610     88.9 8.875e+03 2.287e-10
 89.57555     89.4 9.106e+03 2.679e-10
 89.61499     89.7 9.486e+03 3.497e-10
 89.64023     90.1 9.993e+03 4.955e-10
 89.65995     90.4 1.015e+04 5.546e-10
 89.69387     91.2 1.041e+04 6.540e-10
 89.73331     91.9 1.045e+04 6.607e-10
 89.77275     92.8 1.041e+04 6.332e-10
 89.81219     93.8 1.030e+04 5.745e-10
 89.85163     94.9 1.018e+04 5.128e-10
 89.89107     95.9 1.004e+04 4.503e-10
 89.91959     96.9 9.922e+03 3.751e-10
 89.93931     97.8 9.934e+03 3.871e-10
 89.96996     98.6 9.824e+03 3.171e-10
 90.00940     99.4 9.688e+03 2.423e-10
 90.04884    100.2 9.499e+03 1.853e-10
 90.08828    101.0 9.230e+03 1.527e-10
 90.12772    102.0 8.895e+03 1.400e-10
 90.16716    103.2 8.672e+03 1.353e-10
 90.19895    104.6 8.555e+03 1.318e-10
 90.21867    105.2 8.769e+03 1.656e-10
 90.24605    106.5 8.625e+03 1.580e-10
 90.28549    107.8 8.491e+03 1.567e-10
 90.32493    109.1 8.482e+03 1.576e-10
 90.36437    110.3 8.477e+03 1.641e-10
 90.40381    111.4 8.525e+03 1.891e-10
 90.44325    112.5 8.654e+03 2.330e-10
 90.47832    113.5 8.752e+03 2.764e-10
 90.49804    113.4 8.833e+03 2.898e-10
 90.52213    114.1 8.826e+03 2.906e-10
 90.56158    114.9 8.747e+03 2.790e-10
 90.60102    115.6 8.552e+03 2.451e-10
 90.64046    116.2 8.291e+03 2.049e-10
 90.67990    116.7 8.062e+03 1.806e-10
 90.71934    117.2 8.037e+03 1.795e-10
 90.75768    117.8 8.065e+03 1.849e-10
 90.77740    117.9 8.118e+03 1.924e-10
 90.79822    118.4 8.236e+03 2.149e-10
 90.83766    118.8 8.453e+03 2.584e-10
 90.87710    119.1 8.675e+03 3.106e-10
 90.91655    119.3 8.777e+03 3.393e-10
 90.95599    119.4 8.765e+03 3.369e-10
 90.99543    119.5 8.663e+03 3.171e-10
 91.03487    119.9 8.406e+03 2.668e-10
 91.05676    120.5 8.029e+03 2.029e-10
 91.07648    120.7 8.027e+03 2.008e-10
 91.11375    121.3 7.446e+03 1.310e-10
 91.15319    122.1 7.119e+03 9.995e-11
 91.19263    123.2 7.116e+03 9.847e-11
 91.23208    124.4 7.134e+03 1.004e-10
 91.27152    125.7 7.234e+03 1.104e-10
 91.31096    126.7 7.448e+03 1.323e-10
 91.33612    127.6 7.729e+03 1.646e-10
 91.35585    128.0 7.752e+03 1.663e-10
 91.38984    128.5 8.062e+03 2.078e-10
 91.42928    128.5 8.294e+03 2.445e-10
 91.46872    128.4 8.479e+03 2.748e-10
 91.50816    128.2 8.660e+03 3.027e-10
 91.54761    127.7 8.848e+03 3.315e-10
 91.58705    127.0 9.023e+03 3.580e-10
 91.61549    126.2 9.137e+03 3.714e-10
 91.63521    125.6 9.519e+03 4.560e-10
 91.66593    124.3 9.534e+03 4.553e-10
 91.70537    123.6 9.439e+03 4.298e-10
 91.74481    123.4 9.264e+03 3.786e-10
 91.78425    123.3 8.998e+03 3.043e-10
 91.82369    123.5 8.671e+03 2.349e-10
 91.86313    123.9 8.407e+03 1.965e-10
 91.89485    124.7 8.345e+03 1.917e-10
 91.91457    123.8 8.296e+03 1.829e-10
 91.94202    124.8 8.321e+03 1.884e-10
 91.98146    125.6 8.469e+03 2.108e-10
 92.02090    126.4 8.753e+03 2.574e-10
 92.06034    126.8 9.231e+03 3.464e-10
 92.09978    126.6 9.903e+03 5.055e-10
 92.13922    126.4 1.089e+04 7.675e-10
 92.17421    125.4 1.207e+04 1.193e-09
 92.19384    123.2 1.389e+04 3.119e-09
 92.20805    122.9 1.408e+04 3.580e-09
 92.22777    122.5 1.405e+04 3.550e-09
 92.24749    122.3 1.381e+04 3.209e-09
 92.26721    122.2 1.340e+04 2.544e-09
 92.29689    121.9 1.295e+04 1.653e-09
 92.33643    121.6 1.189e+04 8.205e-10
 92.37587    121.6 1.083e+04 4.069e-10
 92.41531    122.1 9.962e+03 2.290e-10
 92.45358    123.4 9.390e+03 1.700e-10
 92.47330    122.7 9.502e+03 2.969e-10
 92.49419    124.8 9.276e+03 2.502e-10
 92.53364    127.2 9.183e+03 2.241e-10
 92.57308    129.5 9.140e+03 2.084e-10
 92.61252    131.9 9.116e+03 1.935e-10
 92.65196    134.1 9.111e+03 1.798e-10
 92.69140    136.1 9.154e+03 1.703e-10
 92.73084    138.1 9.199e+03 1.712e-10
 92.75266    140.0 9.273e+03 1.793e-10
 92.77238    139.8 9.380e+03 2.615e-10
 92.80972    142.0 9.658e+03 3.030e-10
 92.84916    143.5 9.986e+03 3.550e-10
 92.87865    143.8 1.019e+04 4.123e-10
 92.89214    143.9 1.045e+04 5.282e-10
 92.90201    143.4 1.064e+04 6.795e-10
 92.91799    143.9 1.086e+04 9.136e-10
 92.93771    144.7 1.115e+04 1.175e-09
 92.95743    145.6 1.159e+04 1.495e-09
 92.97715    146.4 1.190e+04 1.676e-09
 92.99687    146.5 1.197e+04 1.667e-09
 93.01659    146.5 1.198e+04 1.588e-09
 93.03183    146.5 1.182e+04 1.358e-09
 93.04169    146.5 1.164e+04 1.258e-09
 93.05604    146.3 1.124e+04 8.880e-10
 93.08571    145.7 1.103e+04 6.340e-10
 93.12525    144.9 9.971e+03 3.414e-10
 93.16469    144.1 9.535e+03 2.680e-10
 93.20414    144.0 9.508e+03 2.693e-10
 93.24358    143.8 9.529e+03 2.769e-10
 93.28302    143.5 9.607e+03 2.906e-10
 93.31138    143.3 9.729e+03 3.008e-10
 93.33110    142.5 9.847e+03 3.268e-10
 93.36190    142.0 9.966e+03 3.129e-10
 93.40134    140.9 1.002e+04 2.902e-10
 93.44078    139.4 1.002e+04 2.639e-10
 93.48022    137.6 9.920e+03 2.383e-10
 93.51966    135.8 9.765e+03 2.165e-10
 93.55911    134.1 9.590e+03 1.958e-10
 93.59075    132.6 9.590e+03 1.915e-10
 93.61047    130.6 1.008e+04 2.271e-10
 93.62803    129.8 1.012e+04 2.272e-10
 93.64765    129.3 1.017e+04 2.309e-10
 93.66737    128.4 1.035e+04 2.481e-10
 93.68709    126.8 1.078e+04 3.167e-10
 93.70682    124.9 1.124e+04 4.840e-10
 93.72654    123.4 1.163e+04 7.638e-10
 93.74009    122.5 1.199e+04 1.131e-09
 93.74995    121.5 1.239e+04 1.529e-09
 93.76598    121.3 1.263e+04 1.753e-09
 93.78570    121.2 1.265e+04 1.743e-09
 93.80542    121.2 1.257e+04 1.602e-09
 93.82514    121.2 1.237e+04 1.289e-09
 93.84486    120.9 1.207e+04 9.190e-10
 93.86458    120.3 1.169e+04 5.910e-10
 93.87846    119.1 1.115e+04 3.664e-10
 93.88380    119.1 1.128e+04 4.074e-10
 93.88963    116.2 1.049e+04 2.582e-10
 93.91398    115.7 9.909e+03 2.165e-10
 93.95352    116.0 9.888e+03 2.214e-10
 93.99296    116.8 1.001e+04 2.486e-10
 94.03240    116.9 1.033e+04 2.968e-10
 94.06188    115.8 1.081e+04 4.367e-10
 94.08151    115.2 1.116e+04 5.884e-10
 94.10123    114.6 1.154e+04 7.723e-10
 94.12095    113.7 1.200e+04 1.009e-09
 94.14067    112.7 1.251e+04 1.317e-09
 94.15914    111.5 1.307e+04 1.682e-09
 94.16900    110.5 1.323e+04 1.799e-09
 94.18011    109.2 1.340e+04 1.799e-09
 94.19983    107.6 1.335e+04 1.711e-09
 94.21955    105.8 1.315e+04 1.503e-09
 94.23927    103.8 1.270e+04 1.217e-09
 94.26895    102.5 1.207e+04 9.286e-10
 94.30849    100.4 1.110e+04 5.997e-10
 94.34793     99.4 1.028e+04 3.891e-10
 94.38737     99.2 1.003e+04 3.254e-10
 94.42681     99.1 1.003e+04 3.245e-10
 94.44846     98.4 1.007e+04 3.292e-10
 94.46818     98.0 1.009e+04 3.095e-10
 94.49574     97.3 1.019e+04 3.397e-10
 94.51536     96.5 1.034e+04 3.876e-10
 94.53508     95.6 1.050e+04 4.552e-10
 94.55480     94.5 1.069e+04 5.256e-10
 94.57452     92.9 1.087e+04 5.898e-10
 94.58804     91.1 1.100e+04 6.458e-10
 94.59790     90.8 1.080e+04 5.757e-10
 94.61396     89.3 1.099e+04 6.360e-10
 94.63368     85.5 1.189e+04 8.390e-10
 94.65340     76.6 1.505e+04 1.984e-09
 94.67312     67.9 1.776e+04 6.070e-09
 94.69285     62.3 1.833e+04 1.017e-08
 94.71257     58.2 1.821e+04 9.947e-09
 94.72772     54.7 1.773e+04 7.802e-09
 94.73758     55.3 1.779e+04 8.027e-09
 94.75201     50.7 1.696e+04 5.454e-09
 94.77173     45.9 1.562e+04 3.967e-09
 94.79145     42.7 1.449e+04 3.356e-09
 94.81117     42.0 1.400e+04 3.054e-09
 94.83089     42.1 1.372e+04 2.713e-09
 94.85061     42.1 1.330e+04 2.110e-09
 94.86740     42.0 1.278e+04 1.497e-09
 94.87726     42.6 1.283e+04 1.523e-09
 94.90001     42.0 1.211e+04 9.135e-10
 94.93955     41.6 1.099e+04 4.267e-10
 94.97899     41.5 1.023e+04 2.724e-10
 95.00728     42.4 9.987e+03 2.509e-10
 95.02700     43.2 1.002e+04 2.510e-10
 95.05787     44.8 9.932e+03 2.440e-10
 95.09731     46.7 9.913e+03 2.402e-10
 95.13675     48.6 9.897e+03 2.320e-10
 95.17620     50.4 9.846e+03 2.189e-10
 95.21564     52.2 9.781e+03 2.086e-10
 95.25508     54.0 9.773e+03 2.081e-10
 95.28664     55.6 9.790e+03 2.160e-10
 95.30636     55.4 9.744e+03 2.125e-10
 95.33396     56.9 9.831e+03 2.433e-10
 95.37340     58.4 1.000e+04 2.961e-10
 95.41284     59.8 1.028e+04 3.693e-10
 95.45228     61.2 1.059e+04 4.580e-10
 95.49172     62.3 1.073e+04 4.800e-10
 95.53117     63.2 1.070e+04 4.674e-10
 95.56601     64.3 1.055e+04 4.135e-10
 95.58573     64.0 1.028e+04 3.301e-10
 95.61005     65.4 1.008e+04 2.746e-10
 95.64949     67.0 9.891e+03 2.160e-10
 95.68893     68.7 9.748e+03 1.688e-10
 95.72837     70.4 9.663e+03 1.415e-10
 95.76781     72.4 9.675e+03 1.371e-10
 95.80725     74.4 9.709e+03 1.406e-10
 95.84537     76.3 9.841e+03 1.567e-10
 95.86509     75.9 9.589e+03 1.044e-10
 95.88614     77.7 9.759e+03 1.288e-10
 95.92558     79.3 1.004e+04 1.703e-10
 95.96502     81.0 1.049e+04 2.526e-10
 96.00446     82.5 1.077e+04 3.478e-10
 96.03394     83.6 1.080e+04 3.922e-10
 96.05357     84.3 1.087e+04 4.438e-10
 96.07329     85.2 1.101e+04 5.354e-10
 96.09301     86.1 1.118e+04 6.439e-10
 96.11273     87.1 1.140e+04 7.659e-10
 96.13245     87.5 1.154e+04 8.327e-10
 96.14435     88.7 1.161e+04 8.936e-10
 96.16417     88.6 1.119e+04 6.957e-10
 96.20167     89.9 1.136e+04 8.078e-10
 96.24111     90.9 1.141e+04 8.117e-10
 96.28055     91.9 1.136e+04 7.623e-10
 96.31999     92.8 1.116e+04 6.619e-10
 96.35943     93.7 1.088e+04 5.449e-10
 96.39887     94.7 1.060e+04 4.421e-10
 96.42381     95.5 1.044e+04 3.737e-10
 96.44354     95.5 1.049e+04 3.818e-10
 96.47775     96.1 1.048e+04 3.520e-10
 96.51720     96.6 1.051e+04 3.470e-10
 96.55664     97.2 1.064e+04 3.721e-10
 96.59608     97.7 1.088e+04 4.229e-10
 96.62556     97.4 1.107e+04 4.816e-10
 96.64518     97.0 1.129e+04 5.593e-10
 96.66491     96.7 1.160e+04 6.909e-10
 96.68463     96.2 1.198e+04 8.935e-10
 96.70298     95.7 1.242e+04 1.186e-09
 96.71284     95.7 1.265e+04 1.301e-09
 96.72407     95.3 1.322e+04 1.805e-09
 96.74379     94.8 1.386e+04 2.469e-09
 96.76351     94.0 1.456e+04 3.271e-09
 96.78323     92.9 1.531e+04 4.183e-09
 96.80295     91.3 1.603e+04 5.177e-09
 96.82267     89.3 1.663e+04 6.070e-09
 96.84239     86.6 1.714e+04 6.683e-09
 96.85252     82.8 1.768e+04 7.095e-09
 96.86238     82.1 1.878e+04 9.876e-09
 96.88183     76.9 1.912e+04 1.089e-08
 96.90155     71.7 1.896e+04 1.077e-08
 96.92127     67.4 1.830e+04 9.860e-09
 96.94099     64.1 1.728e+04 7.893e-09
 96.96071     61.6 1.647e+04 5.969e-09
 96.98043     59.2 1.601e+04 4.799e-09
 96.99221     56.5 1.556e+04 3.852e-09
 97.00207     55.7 1.520e+04 3.428e-09
 97.01988     52.9 1.434e+04 2.777e-09
 97.03960     51.2 1.366e+04 2.448e-09
 97.05932     50.6 1.321e+04 2.213e-09
 97.07904     50.6 1.288e+04 1.922e-09
 97.09876     50.8 1.244e+04 1.489e-09
 97.11848     50.7 1.195e+04 1.032e-09
 97.14816     50.1 1.146e+04 6.202e-10
 97.18770     49.5 1.070e+04 3.287e-10
 97.22714     49.0 1.023e+04 2.496e-10
 97.26190     49.2 1.020e+04 2.531e-10
 97.28162     50.1 1.029e+04 3.087e-10
 97.30602     50.9 1.030e+04 3.189e-10
 97.34546     51.9 1.035e+04 3.365e-10
 97.38490     53.2 1.037e+04 3.343e-10
 97.42434     54.5 1.041e+04 3.095e-10
 97.46378     55.8 1.044e+04 2.892e-10
 97.50323     57.0 1.048e+04 2.975e-10
 97.53271     57.9 1.042e+04 3.103e-10
 97.55093     58.4 1.047e+04 3.290e-10
 97.56089     58.9 1.020e+04 2.620e-10
 97.58211     60.0 1.041e+04 3.250e-10
 97.62155     61.3 1.086e+04 4.706e-10
 97.66099     62.1 1.139e+04 6.885e-10
 97.70043     62.2 1.197e+04 9.553e-10
 97.72992     61.4 1.242e+04 1.218e-09
 97.74954     61.1 1.274e+04 1.435e-09
 97.76926     60.8 1.322e+04 1.897e-09
 97.78898     60.7 1.347e+04 2.198e-09
 97.80870     60.5 1.352e+04 2.303e-09
 97.82842     60.3 1.344e+04 2.254e-09
 97.84015     60.0 1.328e+04 2.067e-09
 97.85001     60.2 1.299e+04 1.779e-09
 97.86786     59.9 1.294e+04 1.738e-09
 97.88758     59.5 1.288e+04 1.670e-09
 97.90730     59.0 1.290e+04 1.653e-09
 97.92702     58.7 1.293e+04 1.674e-09
 97.94674     58.4 1.313e+04 1.798e-09
 97.96646     58.0 1.347e+04 2.023e-09
 97.97983     57.4 1.386e+04 2.322e-09
 97.98970     57.9 1.401e+04 2.622e-09
 98.00591     57.3 1.454e+04 3.203e-09
 98.02563     56.7 1.502e+04 3.921e-09
 98.04535     56.4 1.517e+04 4.442e-09
 98.06507     56.3 1.507e+04 4.404e-09
 98.08479     56.4 1.467e+04 4.035e-09
 98.10451     56.8 1.410e+04 3.340e-09
 98.11952     56.9 1.357e+04 2.532e-09
 98.12938     57.6 1.356e+04 2.496e-09
 98.14395     56.7 1.365e+04 2.096e-09
 98.16367     54.0 1.429e+04 2.309e-09
 98.17841     51.0 1.588e+04 2.985e-09
 98.18822     48.4 1.819e+04 4.149e-09
 98.19419     44.9 2.047e+04 7.230e-09
 98.19912     46.4 1.918e+04 5.114e-09
 98.20794     43.3 2.039e+04 8.687e-09
 98.21780     41.8 2.025e+04 1.373e-08
 98.22766     41.8 1.988e+04 2.042e-08
 98.23753     42.1 1.967e+04 2.754e-08
 98.24739     42.8 1.964e+04 3.194e-08
 98.25725     43.7 1.966e+04 3.078e-08
 98.26403     44.2 1.965e+04 2.772e-08
 98.26896     43.9 1.945e+04 2.431e-08
 98.28195     43.9 1.912e+04 1.859e-08
 98.30171     43.4 1.850e+04 1.353e-08
 98.32144     42.5 1.749e+04 8.457e-09
 98.34116     41.6 1.611e+04 4.366e-09
 98.36088     41.1 1.471e+04 2.077e-09
 98.38060     40.6 1.329e+04 9.670e-10
 98.39898     39.5 1.212e+04 4.994e-10
 98.40884     41.4 1.339e+04 7.999e-10
 98.42004     40.6 1.246e+04 3.565e-10
 98.44972     40.5 1.196e+04 2.629e-10
 98.48926     37.8 9.307e+03 1.795e-10
 98.52870     37.4 9.118e+03 1.787e-10
 98.56814     38.0 9.246e+03 1.965e-10
 98.60758     38.5 9.606e+03 2.591e-10
 98.63706     38.0 9.795e+03 3.208e-10
 98.65669     38.4 9.955e+03 3.946e-10
 98.67641     38.9 1.034e+04 5.152e-10
 98.68810     39.5 1.086e+04 6.848e-10
 98.69796     39.7 1.081e+04 6.075e-10
 98.71585     39.7 1.127e+04 7.529e-10
 98.73557     39.0 1.215e+04 1.066e-09
 98.75529     36.6 1.398e+04 1.768e-09
 98.77501     34.2 1.545e+04 3.140e-09
 98.79473     32.7 1.635e+04 5.094e-09
 98.81445     31.6 1.694e+04 6.640e-09
 98.82778     29.8 1.695e+04 6.519e-09
 98.83764     30.4 1.705e+04 6.621e-09
 98.85389     28.9 1.666e+04 5.138e-09
 98.87361     26.7 1.586e+04 3.568e-09
 98.89333     24.3 1.479e+04 2.502e-09
 98.91305     22.1 1.398e+04 1.949e-09
 98.93277     21.0 1.356e+04 1.687e-09
 98.95249     20.7 1.341e+04 1.611e-09
 98.96746     21.0 1.336e+04 1.590e-09
 98.97732     20.8 1.358e+04 1.701e-09
 98.99194     21.2 1.347e+04 1.607e-09
 99.01166     21.7 1.336e+04 1.430e-09
 99.03138     22.1 1.328e+04 1.220e-09
 99.05110     22.5 1.327e+04 1.015e-09
 99.07082     23.0 1.339e+04 8.524e-10
 99.09054     23.5 1.344e+04 6.720e-10
 99.10715     23.2 1.341e+04 5.578e-10
 99.11701     23.3 1.337e+04 6.259e-10
 99.12998     23.1 1.286e+04 5.592e-10
 99.14970     23.3 1.210e+04 5.782e-10
 99.16942     24.3 1.178e+04 6.604e-10
 99.18914     25.4 1.276e+04 7.663e-10
 99.20886     19.8 3.424e+04 8.668e-10
 99.22858     21.4 4.138e+04 1.054e-09
 99.24683     29.6 2.673e+04 1.271e-09
 99.25664     21.9 5.096e+04 1.511e-09
 99.26300     24.7 4.297e+04 2.239e-09
 99.27286     23.6 3.981e+04 3.913e-09
 99.28272     21.4 4.320e+04 5.651e-09
 99.29258     14.3 5.291e+04 9.518e-09
 99.30244      4.1 5.043e+04 3.393e-08
 99.31230    -10.4 3.886e+04 1.698e-07
 99.32150    -27.9 3.108e+04 4.038e-07
 99.32641    -31.0 4.045e+04 1.489e-07
 99.33199    -48.0 2.983e+04 2.144e-07
 99.34188    -57.4 2.771e+04 1.692e-07
 99.35174    -62.8 2.872e+04 1.149e-07
 99.36160    -67.6 3.140e+04 4.555e-08
 99.37146    -72.2 2.763e+04 2.405e-08
 99.38132    -75.4 2.311e+04 1.594e-08
 99.39118    -76.3 2.121e+04 1.241e-08
 99.39627    -75.7 2.050e+04 1.086e-08
 99.40120    -76.6 2.059e+04 1.192e-08
 99.41090    -75.8 2.054e+04 1.120e-08
 99.42076    -75.2 2.027e+04 1.036e-08
 99.43062    -74.8 1.991e+04 9.475e-09
 99.44048    -74.5 1.955e+04 8.744e-09
 99.45034    -74.3 1.915e+04 8.043e-09
 99.46518    -75.2 1.846e+04 6.576e-09
 99.48495    -74.8 1.722e+04 4.378e-09
 99.50467    -75.3 1.620e+04 3.062e-09
 99.52439    -76.9 1.532e+04 2.178e-09
 99.53605    -79.4 1.464e+04 1.684e-09
 99.54591    -83.0 1.537e+04 1.827e-09
 99.56383    -86.9 1.527e+04 1.726e-09
 99.58355    -92.7 1.624e+04 1.976e-09
 99.60327    -98.8 1.714e+04 3.338e-09
 99.62299   -103.5 1.760e+04 5.336e-09
 99.64272   -107.2 1.768e+04 6.502e-09
 99.65746   -109.2 1.727e+04 6.082e-09
 99.66727   -109.6 1.728e+04 5.909e-09
 99.67563   -111.7 1.711e+04 5.018e-09
 99.68554   -111.9 1.653e+04 4.358e-09
 99.70188   -114.7 1.591e+04 3.086e-09
 99.72160   -118.0 1.468e+04 2.020e-09
 99.74132   -120.9 1.360e+04 1.490e-09
 99.76104   -122.3 1.311e+04 1.297e-09
 99.78076   -122.7 1.297e+04 1.231e-09
 99.80048   -122.6 1.296e+04 1.227e-09
 99.81541   -122.4 1.310e+04 1.271e-09
 99.82527   -120.4 1.183e+04 8.256e-10
 99.83992   -120.1 1.190e+04 8.356e-10
 99.85964   -119.7 1.213e+04 8.892e-10
 99.87936   -119.5 1.255e+04 1.009e-09
 99.89908   -119.3 1.305e+04 1.225e-09
 99.91880   -119.1 1.352e+04 1.566e-09
 99.93852   -118.7 1.389e+04 2.031e-09
 99.95509   -118.0 1.416e+04 2.548e-09
 99.96495   -116.6 1.325e+04 1.517e-09
 99.97797   -115.9 1.359e+04 1.986e-09
 99.99769   -115.0 1.381e+04 2.429e-09
