# Columns:
#   distance along LOS (in CHIMPs)
#   peculiar velocity  (in km/s)
#   temperature (K)
#   HI number density
# pos=(69.5357,230.416,5.1617), angles=(1.60247,4.79228)
  0.00334     49.9 1.211e+04 1.494e-09
  0.01647     49.9 1.201e+04 1.429e-09
  0.03608     49.8 1.180e+04 1.314e-09
  0.05568     49.6 1.150e+04 1.155e-09
  0.07529     49.6 1.113e+04 9.768e-10
  0.09489     49.7 1.073e+04 8.126e-10
  0.11449     49.9 1.032e+04 6.555e-10
  0.13410     50.3 9.961e+03 5.237e-10
  0.15370     50.4 9.677e+03 3.804e-10
  0.16929     50.3 9.598e+03 3.505e-10
  0.17815     50.8 9.618e+03 3.624e-10
  0.18216     51.6 9.720e+03 4.146e-10
  0.20281     51.4 9.522e+03 3.290e-10
  0.24211     51.9 9.502e+03 3.096e-10
  0.28132     52.4 9.607e+03 3.277e-10
  0.31063     52.9 9.683e+03 3.576e-10
  0.33013     53.0 9.704e+03 3.695e-10
  0.34974     53.1 9.735e+03 4.056e-10
  0.36934     53.1 9.887e+03 4.689e-10
  0.38894     52.5 1.027e+04 5.711e-10
  0.40855     50.8 1.099e+04 7.717e-10
  0.41914     47.9 1.228e+04 1.255e-09
  0.42894     49.7 1.144e+04 9.265e-10
  0.44775     46.2 1.283e+04 1.571e-09
  0.46736     43.4 1.361e+04 2.457e-09
  0.48696     41.8 1.397e+04 3.144e-09
  0.50656     39.7 1.448e+04 3.559e-09
  0.52617     36.5 1.497e+04 3.669e-09
  0.54577     32.5 1.489e+04 3.478e-09
  0.56538     29.3 1.410e+04 2.934e-09
  0.58498     27.3 1.322e+04 2.379e-09
  0.60458     26.6 1.251e+04 1.914e-09
  0.62419     26.8 1.190e+04 1.463e-09
  0.64379     26.2 1.159e+04 1.179e-09
  0.65919     24.7 1.108e+04 8.395e-10
  0.66899     26.4 1.099e+04 8.319e-10
  0.68300     25.6 1.049e+04 6.753e-10
  0.71250     26.0 9.995e+03 5.252e-10
  0.75180     27.2 9.324e+03 3.946e-10
  0.78475     29.5 8.764e+03 2.820e-10
  0.80435     28.2 8.664e+03 2.601e-10
  0.83022     30.5 8.264e+03 1.793e-10
  0.86943     32.3 7.955e+03 1.287e-10
  0.89943     34.3 7.720e+03 1.055e-10
  0.91903     36.2 7.851e+03 1.197e-10
  0.94784     38.4 7.737e+03 1.133e-10
  0.98705     40.8 7.740e+03 1.164e-10
  1.02625     43.3 7.812e+03 1.281e-10
  1.06546     45.8 7.960e+03 1.465e-10
  1.10467     48.4 8.162e+03 1.705e-10
  1.14388     50.9 8.360e+03 1.982e-10
  1.18308     53.2 8.584e+03 2.315e-10
  1.22229     55.6 8.832e+03 2.752e-10
  1.26150     57.7 9.216e+03 3.329e-10
  1.29081     60.0 9.520e+03 4.014e-10
  1.31031     60.5 9.615e+03 4.193e-10
  1.32992     61.3 9.930e+03 4.999e-10
  1.34952     62.1 1.033e+04 6.434e-10
  1.36912     62.9 1.064e+04 7.868e-10
  1.38873     63.7 1.094e+04 9.302e-10
  1.39893     64.4 1.126e+04 1.090e-09
  1.40694     65.3 1.124e+04 1.078e-09
  1.41634     64.7 1.134e+04 1.107e-09
  1.42793     65.2 1.175e+04 1.347e-09
  1.44754     65.8 1.208e+04 1.601e-09
  1.46714     66.5 1.235e+04 1.813e-09
  1.48674     67.1 1.258e+04 1.966e-09
  1.50635     67.4 1.283e+04 2.089e-09
  1.52595     67.3 1.326e+04 2.273e-09
  1.54555     66.5 1.384e+04 2.579e-09
  1.56516     65.1 1.458e+04 3.103e-09
  1.58476     63.8 1.503e+04 3.783e-09
  1.60437     63.1 1.502e+04 4.225e-09
  1.62397     63.2 1.485e+04 4.212e-09
  1.63898     63.7 1.438e+04 3.698e-09
  1.64878     64.4 1.439e+04 3.639e-09
  1.66318     65.1 1.382e+04 2.962e-09
  1.68278     65.9 1.321e+04 2.044e-09
  1.70238     66.2 1.272e+04 1.210e-09
  1.72199     65.6 1.241e+04 6.485e-10
  1.74159     64.0 1.180e+04 3.642e-10
  1.76119     62.6 1.082e+04 2.708e-10
  1.78080     62.0 9.943e+03 2.622e-10
  1.81030     63.4 1.017e+04 2.539e-10
  1.84961     65.5 1.016e+04 2.570e-10
  1.87922     67.9 1.022e+04 2.719e-10
  1.89873     68.7 1.012e+04 2.714e-10
  1.91802     69.9 1.022e+04 3.025e-10
  1.93763     70.6 1.059e+04 3.808e-10
  1.95723     71.0 1.111e+04 5.438e-10
  1.97683     71.5 1.159e+04 8.041e-10
  1.99644     72.1 1.202e+04 1.166e-09
  2.01604     72.9 1.243e+04 1.593e-09
  2.02853     73.8 1.285e+04 2.051e-09
  2.03833     72.9 1.296e+04 2.100e-09
  2.05525     73.8 1.331e+04 2.372e-09
  2.07485     74.7 1.369e+04 2.576e-09
  2.09445     75.3 1.399e+04 2.612e-09
  2.11406     75.8 1.412e+04 2.456e-09
  2.12887     76.1 1.411e+04 2.140e-09
  2.13867     77.1 1.462e+04 2.860e-09
  2.15327     77.4 1.453e+04 2.446e-09
  2.17287     77.4 1.427e+04 2.008e-09
  2.19247     77.3 1.385e+04 1.622e-09
  2.21208     77.1 1.336e+04 1.348e-09
  2.23168     76.9 1.290e+04 1.187e-09
  2.25128     76.9 1.258e+04 1.107e-09
  2.27089     77.1 1.243e+04 1.069e-09
  2.29049     77.3 1.237e+04 1.044e-09
  2.31009     77.5 1.228e+04 1.018e-09
  2.32970     77.6 1.223e+04 1.015e-09
  2.34930     77.5 1.231e+04 1.051e-09
  2.36891     77.3 1.251e+04 1.135e-09
  2.38851     77.8 1.273e+04 1.258e-09
  2.40811     77.3 1.306e+04 1.402e-09
  2.42772     76.7 1.345e+04 1.582e-09
  2.44732     76.5 1.406e+04 1.903e-09
  2.46692     76.5 1.475e+04 2.387e-09
  2.48653     76.8 1.523e+04 2.959e-09
  2.50613     77.4 1.558e+04 3.393e-09
  2.52573     77.9 1.562e+04 3.497e-09
  2.54534     78.3 1.552e+04 3.430e-09
  2.56494     78.7 1.528e+04 3.167e-09
  2.58454     79.0 1.496e+04 2.812e-09
  2.60415     79.2 1.460e+04 2.505e-09
  2.61877     79.3 1.428e+04 2.294e-09
  2.62857     79.9 1.412e+04 1.880e-09
  2.64072     80.2 1.384e+04 1.807e-09
  2.65052     79.0 1.412e+04 2.713e-09
  2.66296     79.8 1.390e+04 2.602e-09
  2.68256     80.5 1.375e+04 2.515e-09
  2.70217     81.3 1.374e+04 2.510e-09
  2.72177     82.0 1.388e+04 2.594e-09
  2.74137     82.3 1.432e+04 2.860e-09
  2.76098     82.5 1.511e+04 3.499e-09
  2.78058     82.6 1.602e+04 4.287e-09
  2.79523     83.3 1.631e+04 4.679e-09
  2.80499     83.6 1.648e+04 4.962e-09
  2.81479     83.5 1.683e+04 5.658e-09
  2.82459     83.6 1.736e+04 6.846e-09
  2.83439     83.6 1.821e+04 8.767e-09
  2.84419     83.4 1.947e+04 1.190e-08
  2.85400     82.8 2.094e+04 1.659e-08
  2.86362     81.9 2.225e+04 2.290e-08
  2.86852     82.5 2.171e+04 2.169e-08
  2.87360     82.4 2.291e+04 3.090e-08
  2.88340     82.7 2.391e+04 4.569e-08
  2.89320     83.1 2.447e+04 6.664e-08
  2.90301     83.5 2.449e+04 9.752e-08
  2.91281     83.7 2.420e+04 1.503e-07
  2.92261     83.6 2.361e+04 2.416e-07
  2.92851     82.7 2.340e+04 3.201e-07
  2.93093     83.2 2.342e+04 3.102e-07
  2.93481     82.9 2.326e+04 3.618e-07
  2.93971     82.2 2.320e+04 4.542e-07
  2.94461     81.3 2.303e+04 5.206e-07
  2.95159     80.3 2.264e+04 5.583e-07
  2.95652     79.0 2.400e+04 2.428e-07
  2.96182     76.0 2.447e+04 2.150e-07
  2.97162     71.2 2.741e+04 1.449e-07
  2.98142     64.9 3.120e+04 8.842e-08
  2.98854     61.4 2.696e+04 1.084e-07
  2.99344     62.1 2.741e+04 1.280e-07
  3.00102     60.6 2.600e+04 8.598e-08
  3.01082     59.4 2.758e+04 3.200e-08
  3.02063     57.6 2.795e+04 1.506e-08
  3.03043     56.9 2.654e+04 1.118e-08
  3.04023     56.7 2.558e+04 9.288e-09
  3.05498     57.2 2.388e+04 9.043e-09
  3.07463     57.5 2.133e+04 6.723e-09
  3.09424     57.8 1.888e+04 5.162e-09
  3.10867     58.1 1.712e+04 4.282e-09
  3.11847     58.2 1.791e+04 5.884e-09
  3.13344     58.3 1.673e+04 5.008e-09
  3.15305     58.5 1.592e+04 4.669e-09
  3.17265     58.8 1.556e+04 4.665e-09
  3.19226     59.4 1.537e+04 4.698e-09
  3.21186     60.3 1.516e+04 4.624e-09
  3.23146     61.4 1.483e+04 4.281e-09
  3.25107     62.6 1.435e+04 3.630e-09
  3.26271     63.8 1.377e+04 2.928e-09
  3.27251     63.1 1.295e+04 2.114e-09
  3.30017     64.1 1.221e+04 1.477e-09
  3.32958     64.7 1.179e+04 1.207e-09
  3.34871     65.4 1.164e+04 1.100e-09
  3.35851     65.1 1.141e+04 9.652e-10
  3.37859     65.8 1.043e+04 6.487e-10
  3.41789     67.1 9.479e+03 3.913e-10
  3.45710     68.1 8.736e+03 2.642e-10
  3.49631     69.4 8.405e+03 2.275e-10
  3.53551     71.1 8.358e+03 2.273e-10
  3.57472     73.1 8.354e+03 2.413e-10
  3.61393     75.4 8.351e+03 2.551e-10
  3.65314     77.7 8.328e+03 2.542e-10
  3.69234     80.1 8.260e+03 2.455e-10
  3.73155     82.6 8.148e+03 2.252e-10
  3.77076     85.0 8.006e+03 2.000e-10
  3.80996     87.3 7.875e+03 1.805e-10
  3.83880     89.8 7.839e+03 1.763e-10
  3.85841     88.9 7.921e+03 1.860e-10
  3.88838     91.5 7.980e+03 1.927e-10
  3.92759     94.1 8.144e+03 2.147e-10
  3.96679     96.8 8.371e+03 2.511e-10
  4.00600     99.5 8.658e+03 3.042e-10
  4.04521    102.0 9.053e+03 3.828e-10
  4.08441    104.2 9.552e+03 4.937e-10
  4.12362    106.4 1.014e+04 6.581e-10
  4.16283    108.3 1.091e+04 9.057e-10
  4.20204    109.6 1.175e+04 1.221e-09
  4.23134    109.2 1.188e+04 1.291e-09
  4.25085    109.4 1.203e+04 1.384e-09
  4.27045    109.4 1.222e+04 1.495e-09
  4.29006    109.2 1.248e+04 1.640e-09
  4.30966    108.8 1.282e+04 1.843e-09
  4.32850    108.3 1.315e+04 2.071e-09
  4.33831    107.8 1.323e+04 2.088e-09
  4.34887    107.3 1.352e+04 2.247e-09
  4.36847    106.7 1.363e+04 2.247e-09
  4.38807    106.3 1.368e+04 2.178e-09
  4.40768    105.8 1.366e+04 2.003e-09
  4.42728    105.5 1.369e+04 1.800e-09
  4.44688    105.0 1.380e+04 1.587e-09
  4.46649    104.5 1.385e+04 1.440e-09
  4.48609    104.1 1.372e+04 1.392e-09
  4.49689    104.1 1.361e+04 1.412e-09
  4.50669    104.9 1.169e+04 7.215e-10
  4.52530    104.9 1.188e+04 7.747e-10
  4.54490    105.1 1.196e+04 8.307e-10
  4.56451    105.6 1.195e+04 8.797e-10
  4.57835    106.3 1.191e+04 9.229e-10
  4.58815    106.1 1.160e+04 7.918e-10
  4.60371    107.0 1.162e+04 8.426e-10
  4.62332    107.9 1.168e+04 8.924e-10
  4.64292    108.8 1.175e+04 9.369e-10
  4.66252    109.7 1.179e+04 9.719e-10
  4.68213    110.5 1.181e+04 9.967e-10
  4.70173    111.4 1.181e+04 1.011e-09
  4.72134    112.4 1.178e+04 1.018e-09
  4.74094    113.5 1.178e+04 1.014e-09
  4.76054    114.8 1.178e+04 1.013e-09
  4.78015    116.0 1.178e+04 1.020e-09
  4.79975    117.3 1.183e+04 1.033e-09
  4.81840    118.5 1.187e+04 1.034e-09
  4.82820    118.6 1.200e+04 1.099e-09
  4.83896    119.8 1.203e+04 1.094e-09
  4.85856    121.0 1.205e+04 1.079e-09
  4.87816    122.3 1.206e+04 1.051e-09
  4.89777    123.4 1.206e+04 1.015e-09
  4.91737    124.6 1.207e+04 9.766e-10
  4.93697    125.7 1.206e+04 9.383e-10
  4.95658    126.8 1.204e+04 8.981e-10
  4.97618    127.9 1.200e+04 8.554e-10
  4.99579    129.1 1.198e+04 8.240e-10
  5.01539    130.2 1.199e+04 8.192e-10
  5.03499    131.4 1.202e+04 8.230e-10
  5.05460    132.6 1.215e+04 8.495e-10
  5.06825    133.7 1.237e+04 9.166e-10
  5.07805    133.7 1.256e+04 9.792e-10
  5.09380    134.7 1.283e+04 1.085e-09
  5.10908    135.7 1.318e+04 1.237e-09
  5.11888    135.1 1.315e+04 1.317e-09
  5.13301    136.0 1.350e+04 1.509e-09
  5.15261    136.9 1.382e+04 1.725e-09
  5.17222    137.7 1.412e+04 1.914e-09
  5.19182    138.5 1.431e+04 1.966e-09
  5.21142    139.2 1.431e+04 1.955e-09
  5.23103    140.0 1.425e+04 1.883e-09
  5.25063    140.9 1.413e+04 1.747e-09
  5.27024    141.8 1.408e+04 1.607e-09
  5.28984    142.3 1.423e+04 1.537e-09
  5.30830    142.2 1.438e+04 1.546e-09
  5.31810    141.3 1.382e+04 1.229e-09
  5.32905    140.6 1.409e+04 1.287e-09
  5.34865    138.5 1.494e+04 1.610e-09
  5.36825    135.9 1.629e+04 2.595e-09
  5.38786    134.3 1.762e+04 4.356e-09
  5.40746    133.5 1.847e+04 5.560e-09
  5.42706    132.4 1.850e+04 5.481e-09
  5.44667    131.1 1.829e+04 4.657e-09
  5.46627    129.4 1.759e+04 3.016e-09
  5.48587    126.6 1.654e+04 1.518e-09
  5.50548    121.9 1.506e+04 6.913e-10
  5.52508    116.3 1.330e+04 4.347e-10
  5.54469    112.6 1.274e+04 4.176e-10
  5.55815    110.3 1.270e+04 4.255e-10
  5.56795    108.4 1.236e+04 3.776e-10
  5.58389    106.8 1.258e+04 4.365e-10
  5.60350    105.3 1.289e+04 5.117e-10
  5.62310    103.9 1.313e+04 5.803e-10
  5.64270    102.2 1.341e+04 6.498e-10
  5.66231    100.1 1.378e+04 7.412e-10
  5.68191     97.8 1.417e+04 8.648e-10
  5.70151     95.8 1.448e+04 1.013e-09
  5.72112     93.8 1.483e+04 1.225e-09
  5.73107     90.7 1.575e+04 1.579e-09
  5.74087     86.9 1.615e+04 1.677e-09
  5.76033     80.1 1.881e+04 2.528e-09
  5.77993     74.6 2.012e+04 3.837e-09
  5.79819     69.0 2.102e+04 5.678e-09
  5.80799     64.9 2.232e+04 7.616e-09
  5.81914     59.6 2.251e+04 7.631e-09
  5.83874     53.9 2.277e+04 6.466e-09
  5.85834     47.9 2.198e+04 4.944e-09
  5.87795     42.3 2.047e+04 3.963e-09
  5.89755     38.5 1.906e+04 3.439e-09
  5.91715     36.4 1.818e+04 3.174e-09
  5.93676     35.0 1.790e+04 2.867e-09
  5.95636     33.7 1.769e+04 2.639e-09
  5.97596     32.1 1.737e+04 2.391e-09
  5.99557     30.3 1.707e+04 2.183e-09
  6.01517     28.6 1.667e+04 1.970e-09
  6.03478     27.3 1.616e+04 1.716e-09
  6.04804     26.1 1.578e+04 1.498e-09
  6.05784     24.9 1.579e+04 1.465e-09
  6.07398     23.9 1.540e+04 1.198e-09
  6.09359     22.0 1.523e+04 1.001e-09
  6.11319     19.3 1.516e+04 8.738e-10
  6.13279     16.2 1.499e+04 7.907e-10
  6.15240     11.9 1.519e+04 8.524e-10
  6.17200      8.6 1.503e+04 9.435e-10
  6.19160      5.3 1.534e+04 1.153e-09
  6.21121      0.9 1.634e+04 1.651e-09
  6.23081     -4.7 1.774e+04 2.760e-09
  6.25041    -14.9 2.197e+04 5.699e-09
  6.27002    -28.2 2.719e+04 1.296e-08
  6.28467    -38.1 2.824e+04 2.007e-08
  6.29289    -42.8 2.846e+04 2.065e-08
  6.29779    -43.8 2.930e+04 2.314e-08
  6.30423    -67.7 6.678e+04 8.138e-09
  6.31403   -111.9 7.200e+04 2.414e-08
  6.32383   -142.0 3.602e+04 5.066e-07
  6.33363   -158.1 2.411e+04 1.547e-06
  6.34316   -168.5 2.266e+04 1.264e-06
  6.34806   -162.2 2.190e+04 1.828e-06
  6.35324   -167.9 2.197e+04 1.420e-06
  6.36304   -171.7 2.733e+04 4.369e-07
  6.37284   -174.8 3.858e+04 8.212e-08
  6.38264   -178.2 5.588e+04 1.373e-08
  6.39244   -183.1 6.904e+04 3.650e-09
  6.40224   -189.8 6.632e+04 1.575e-09
  6.41205   -196.6 3.875e+04 1.257e-09
  6.41782   -200.9 1.918e+04 1.004e-09
  6.42272   -201.9 1.423e+04 1.142e-09
  6.43165   -201.8 1.360e+04 9.453e-10
  6.44145   -201.3 1.296e+04 7.915e-10
  6.45125   -200.9 1.247e+04 6.855e-10
  6.46601   -200.2 1.198e+04 5.956e-10
  6.48566   -198.6 1.160e+04 5.398e-10
  6.50526   -197.9 1.164e+04 5.387e-10
  6.52486   -197.7 1.197e+04 5.620e-10
  6.53794   -197.9 1.278e+04 6.996e-10
  6.54774   -198.5 1.424e+04 1.054e-09
  6.56407   -198.4 1.479e+04 1.453e-09
  6.58368   -197.9 1.489e+04 1.824e-09
  6.60328   -197.2 1.472e+04 1.980e-09
  6.62288   -196.5 1.438e+04 2.000e-09
  6.64249   -195.7 1.386e+04 1.900e-09
  6.66209   -194.9 1.342e+04 1.682e-09
  6.68169   -194.2 1.296e+04 1.409e-09
  6.70130   -193.5 1.249e+04 1.154e-09
  6.72090   -192.9 1.203e+04 9.335e-10
  6.74050   -192.3 1.155e+04 7.484e-10
  6.76011   -191.4 1.112e+04 6.027e-10
  6.77798   -190.4 1.077e+04 4.967e-10
  6.78779   -191.0 1.062e+04 4.498e-10
  6.79932   -189.9 1.040e+04 3.912e-10
  6.81892   -188.8 1.038e+04 3.592e-10
  6.83852   -187.9 1.041e+04 3.506e-10
  6.85813   -187.2 1.045e+04 3.492e-10
  6.87773   -186.6 1.054e+04 3.555e-10
  6.90723   -186.0 1.062e+04 3.663e-10
  6.94584   -183.0 1.040e+04 3.652e-10
  6.96544   -181.6 9.722e+03 2.585e-10
  6.98574   -178.9 9.632e+03 2.521e-10
  7.02495   -176.1 9.580e+03 2.496e-10
  7.06416   -173.4 9.519e+03 2.489e-10
  7.10337   -170.8 9.497e+03 2.493e-10
  7.14257   -168.5 9.521e+03 2.532e-10
  7.18178   -166.6 9.578e+03 2.642e-10
  7.22099   -165.0 9.673e+03 2.861e-10
  7.25827   -163.7 9.761e+03 3.140e-10
  7.27788   -164.5 1.011e+04 3.883e-10
  7.29940   -163.1 9.917e+03 3.637e-10
  7.33861   -161.7 9.700e+03 3.222e-10
  7.37782   -160.2 9.502e+03 2.779e-10
  7.41702   -158.5 9.351e+03 2.406e-10
  7.45623   -156.7 9.262e+03 2.161e-10
  7.49544   -154.8 9.220e+03 2.054e-10
  7.53464   -152.7 9.211e+03 2.029e-10
  7.57385   -150.6 9.218e+03 2.024e-10
  7.61306   -148.3 9.231e+03 2.063e-10
  7.65227   -146.0 9.215e+03 2.111e-10
  7.69147   -143.6 9.205e+03 2.151e-10
  7.73068   -141.2 9.208e+03 2.213e-10
  7.75797   -138.7 9.256e+03 2.338e-10
  7.77758   -138.3 8.815e+03 1.386e-10
  7.80909   -135.7 8.785e+03 1.404e-10
  7.84830   -133.3 8.834e+03 1.545e-10
  7.88751   -130.9 8.961e+03 1.807e-10
  7.92672   -128.4 9.103e+03 2.161e-10
  7.96592   -125.9 9.214e+03 2.528e-10
  8.00513   -123.3 9.273e+03 2.811e-10
  8.04434   -120.6 9.286e+03 2.914e-10
  8.08355   -117.8 9.141e+03 2.911e-10
  8.12275   -114.7 8.813e+03 2.452e-10
  8.16196   -111.7 8.551e+03 1.857e-10
  8.18982   -108.6 8.238e+03 1.367e-10
  8.20942   -108.3 8.143e+03 1.252e-10
  8.23807   -105.4 7.930e+03 9.412e-11
  8.25767   -104.4 8.118e+03 1.211e-10
  8.27958   -101.5 7.936e+03 9.664e-11
  8.31879    -98.6 7.810e+03 8.118e-11
  8.35800    -95.7 7.753e+03 7.321e-11
  8.39720    -92.8 7.744e+03 7.098e-11
  8.43641    -89.9 7.750e+03 7.074e-11
  8.47562    -87.0 7.829e+03 7.363e-11
  8.51482    -84.3 7.939e+03 8.174e-11
  8.55403    -81.6 8.083e+03 9.475e-11
  8.59324    -79.1 8.327e+03 1.180e-10
  8.63245    -76.7 8.705e+03 1.669e-10
  8.67165    -74.3 9.143e+03 2.579e-10
  8.71086    -71.9 9.594e+03 3.898e-10
  8.73776    -69.4 9.997e+03 5.390e-10
  8.75737    -68.8 9.761e+03 3.996e-10
  8.78927    -66.4 1.014e+04 5.419e-10
  8.82848    -64.2 1.041e+04 6.520e-10
  8.86769    -62.1 1.048e+04 6.847e-10
  8.90690    -60.1 1.047e+04 6.646e-10
  8.94610    -58.2 1.028e+04 5.684e-10
  8.98531    -56.2 1.003e+04 4.471e-10
  9.02452    -54.2 9.776e+03 3.356e-10
  9.06372    -52.2 9.527e+03 2.504e-10
  9.10293    -50.1 9.279e+03 1.897e-10
  9.14214    -47.8 9.015e+03 1.432e-10
  9.18135    -45.5 8.718e+03 1.090e-10
  9.21786    -43.1 8.606e+03 8.834e-11
  9.23746    -42.0 8.629e+03 8.968e-11
  9.25976    -39.5 8.579e+03 6.873e-11
  9.29897    -37.2 8.556e+03 5.031e-11
  9.33817    -35.1 8.511e+03 4.092e-11
  9.37738    -33.2 8.497e+03 3.941e-11
  9.41419    -31.7 8.738e+03 4.539e-11
  9.43380    -32.4 8.856e+03 6.410e-11
  9.45580    -31.3 8.902e+03 1.222e-10
  9.49500    -29.2 9.125e+03 2.293e-10
  9.53421    -26.6 9.502e+03 3.517e-10
  9.57342    -24.3 9.718e+03 4.033e-10
  9.61262    -22.6 9.711e+03 3.962e-10
  9.65183    -20.9 9.414e+03 2.918e-10
  9.69104    -19.6 9.207e+03 2.296e-10
  9.71756    -18.2 9.072e+03 2.020e-10
  9.73716    -17.2 9.294e+03 2.407e-10
  9.76945    -15.6 9.169e+03 2.210e-10
  9.80866    -13.5 9.096e+03 2.111e-10
  9.84787    -11.3 9.091e+03 1.918e-10
  9.88707     -9.4 9.136e+03 1.729e-10
  9.92628     -8.2 9.171e+03 1.698e-10
  9.96549     -7.5 9.347e+03 2.224e-10
 10.00470     -6.5 9.934e+03 3.570e-10
 10.04390     -5.5 1.063e+04 6.119e-10
 10.08311     -4.5 1.125e+04 8.904e-10
 10.12232     -3.8 1.194e+04 1.151e-09
 10.15163     -3.3 1.213e+04 1.363e-09
 10.17113     -2.7 1.228e+04 1.506e-09
 10.19074     -2.7 1.256e+04 1.747e-09
 10.20726     -3.3 1.343e+04 2.101e-09
 10.21706     -1.4 1.269e+04 1.697e-09
 10.22994     -2.5 1.365e+04 2.096e-09
 10.24955     -3.3 1.363e+04 2.637e-09
 10.26915     -3.0 1.325e+04 3.048e-09
 10.28875     -1.8 1.314e+04 3.106e-09
 10.30836     -0.5 1.289e+04 2.887e-09
 10.32796      1.0 1.262e+04 2.299e-09
 10.34756      1.8 1.257e+04 1.618e-09
 10.36717      2.0 1.228e+04 1.019e-09
 10.38677      1.4 1.170e+04 6.198e-10
 10.40637      0.6 1.114e+04 4.427e-10
 10.42598      0.2 1.099e+04 3.843e-10
 10.44558      0.1 1.112e+04 3.779e-10
 10.45711      0.1 1.136e+04 4.900e-10
 10.46691      1.4 1.182e+04 5.703e-10
 10.48479      1.3 1.195e+04 7.210e-10
 10.50439      1.7 1.191e+04 9.978e-10
 10.52400      2.3 1.232e+04 1.264e-09
 10.54360      3.1 1.260e+04 1.644e-09
 10.56320      3.7 1.296e+04 1.926e-09
 10.58281      4.1 1.315e+04 2.174e-09
 10.60241      4.3 1.316e+04 2.206e-09
 10.62201      4.7 1.281e+04 2.164e-09
 10.64162      5.4 1.230e+04 1.888e-09
 10.65798      6.4 1.176e+04 1.628e-09
 10.66778      6.0 1.172e+04 1.793e-09
 10.68082      7.3 1.174e+04 1.499e-09
 10.69715      7.8 1.184e+04 1.005e-09
 10.70695      8.8 1.236e+04 1.298e-09
 10.72003      8.2 1.147e+04 9.684e-10
 10.73964      7.6 1.062e+04 6.055e-10
 10.75924      7.7 9.741e+03 4.658e-10
 10.77884      8.0 9.541e+03 3.140e-10
 10.79845      8.4 9.388e+03 2.879e-10
 10.82795      9.6 9.344e+03 2.465e-10
 10.86725     10.7 8.662e+03 1.503e-10
 10.90646     11.9 8.313e+03 1.093e-10
 10.94567     13.4 8.160e+03 9.414e-11
 10.98488     15.1 8.185e+03 9.215e-11
 11.02408     16.7 8.299e+03 1.088e-10
 11.06329     18.7 8.448e+03 1.405e-10
 11.10250     20.9 8.626e+03 1.764e-10
 11.14170     23.3 8.725e+03 2.007e-10
 11.17744     25.6 8.754e+03 2.076e-10
 11.19705     26.1 8.922e+03 2.432e-10
 11.22012     28.4 8.988e+03 2.572e-10
 11.25933     30.8 9.032e+03 2.640e-10
 11.29853     33.1 9.111e+03 2.735e-10
 11.33774     35.3 9.232e+03 2.915e-10
 11.37695     37.6 9.355e+03 3.142e-10
 11.41615     40.0 9.460e+03 3.296e-10
 11.45536     42.4 9.563e+03 3.365e-10
 11.49457     44.8 9.652e+03 3.314e-10
 11.53378     47.0 9.770e+03 3.257e-10
 11.56308     48.2 9.933e+03 3.447e-10
 11.58259     49.0 1.014e+04 3.841e-10
 11.60219     49.7 1.039e+04 4.549e-10
 11.62180     50.3 1.069e+04 5.670e-10
 11.64140     50.9 1.098e+04 7.442e-10
 11.66100     51.9 1.127e+04 9.609e-10
 11.67694     53.0 1.161e+04 1.223e-09
 11.68675     52.8 1.213e+04 1.721e-09
 11.70021     53.9 1.252e+04 1.926e-09
 11.71981     54.9 1.280e+04 2.005e-09
 11.73942     55.7 1.286e+04 1.991e-09
 11.75902     56.5 1.284e+04 1.914e-09
 11.77863     57.2 1.275e+04 1.770e-09
 11.79823     58.0 1.262e+04 1.573e-09
 11.81783     58.7 1.243e+04 1.352e-09
 11.83744     59.3 1.221e+04 1.137e-09
 11.85704     59.9 1.196e+04 9.342e-10
 11.87664     60.4 1.165e+04 7.495e-10
 11.89216     60.8 1.130e+04 5.937e-10
 11.90196     61.2 1.173e+04 7.424e-10
 11.91585     61.5 1.140e+04 6.013e-10
 11.92679     61.6 1.102e+04 5.013e-10
 11.93659     59.3 1.014e+04 3.668e-10
 11.95506     59.5 1.006e+04 3.606e-10
 11.97466     59.7 1.015e+04 3.735e-10
 11.99426     59.7 1.036e+04 4.142e-10
 12.01387     59.5 1.060e+04 4.802e-10
 12.03347     59.3 1.089e+04 5.759e-10
 12.05308     59.1 1.113e+04 6.971e-10
 12.07268     59.1 1.130e+04 7.889e-10
 12.09228     59.0 1.136e+04 7.999e-10
 12.11189     58.7 1.137e+04 7.717e-10
 12.13149     58.5 1.126e+04 6.995e-10
 12.15109     57.8 1.097e+04 5.539e-10
 12.16684     57.4 1.083e+04 5.048e-10
 12.17674     56.2 1.039e+04 3.269e-10
 12.20030     54.1 9.692e+03 1.865e-10
 12.23950     52.7 9.072e+03 1.360e-10
 12.27871     52.7 8.845e+03 1.227e-10
 12.31792     53.3 8.702e+03 1.155e-10
 12.35713     54.4 8.598e+03 1.079e-10
 12.39633     55.4 8.515e+03 1.004e-10
 12.43554     56.4 8.500e+03 1.002e-10
 12.47475     57.3 8.537e+03 1.055e-10
 12.51396     58.0 8.697e+03 1.321e-10
 12.55316     58.7 9.247e+03 2.163e-10
 12.59237     58.9 9.911e+03 3.609e-10
 12.62168     59.4 1.042e+04 5.383e-10
 12.64118     59.9 1.106e+04 7.747e-10
 12.65674     60.2 1.174e+04 1.094e-09
 12.66654     60.1 1.175e+04 1.165e-09
 12.68039     60.5 1.225e+04 1.540e-09
 12.69999     61.0 1.249e+04 1.714e-09
 12.71960     61.6 1.244e+04 1.675e-09
 12.73920     62.5 1.219e+04 1.483e-09
 12.75880     63.5 1.174e+04 1.137e-09
 12.77841     63.9 1.119e+04 7.674e-10
 12.79801     63.6 1.062e+04 4.629e-10
 12.81762     62.0 1.020e+04 2.958e-10
 12.83722     60.4 9.719e+03 2.356e-10
 12.85682     59.6 9.610e+03 2.371e-10
 12.87643     59.3 9.582e+03 2.425e-10
 12.89603     59.0 9.650e+03 2.732e-10
 12.90659     58.8 9.781e+03 3.265e-10
 12.91639     59.2 9.795e+03 3.310e-10
 12.93524     59.3 1.003e+04 4.242e-10
 12.95484     59.9 1.034e+04 5.669e-10
 12.97444     60.9 1.069e+04 7.202e-10
 12.99405     61.8 1.097e+04 8.025e-10
 13.01365     62.4 1.101e+04 7.988e-10
 13.03325     63.2 1.095e+04 7.519e-10
 13.05286     64.0 1.078e+04 6.393e-10
 13.07246     65.1 1.061e+04 5.185e-10
 13.10196     64.9 1.051e+04 4.000e-10
 13.12653     65.9 1.027e+04 2.908e-10
 13.14189     66.2 1.038e+04 2.882e-10
 13.15663     67.7 1.025e+04 2.787e-10
 13.18048     68.8 9.914e+03 2.389e-10
 13.21968     70.5 9.873e+03 2.434e-10
 13.25889     72.3 9.902e+03 2.656e-10
 13.29810     74.3 9.968e+03 2.967e-10
 13.33731     76.3 9.950e+03 3.055e-10
 13.37651     78.4 9.885e+03 2.961e-10
 13.41572     80.5 9.793e+03 2.752e-10
 13.45493     82.5 9.619e+03 2.462e-10
 13.49413     84.5 9.684e+03 2.310e-10
 13.53334     86.5 9.763e+03 2.395e-10
 13.57255     88.6 9.968e+03 2.689e-10
 13.61176     90.7 1.028e+04 3.310e-10
 13.63663     92.2 1.029e+04 3.472e-10
 13.65623     94.0 1.020e+04 3.003e-10
 13.68027     94.8 1.035e+04 3.417e-10
 13.69978     95.5 1.058e+04 4.081e-10
 13.71938     96.6 1.097e+04 5.602e-10
 13.73852     97.6 1.142e+04 7.592e-10
 13.74832     97.4 1.154e+04 8.319e-10
 13.75859     98.4 1.201e+04 1.063e-09
 13.77819     99.4 1.247e+04 1.302e-09
 13.79779    100.4 1.287e+04 1.499e-09
 13.81740    101.3 1.321e+04 1.624e-09
 13.83700    101.9 1.334e+04 1.622e-09
 13.85661    102.4 1.332e+04 1.563e-09
 13.87621    102.8 1.317e+04 1.405e-09
 13.88638    103.1 1.291e+04 1.211e-09
 13.89618    103.4 1.369e+04 1.642e-09
 13.91542    103.3 1.343e+04 1.467e-09
 13.93502    103.3 1.323e+04 1.405e-09
 13.95462    103.4 1.323e+04 1.416e-09
 13.97423    103.3 1.336e+04 1.502e-09
 13.99383    103.2 1.388e+04 1.890e-09
 14.00635    103.1 1.419e+04 2.155e-09
 14.01120    102.9 1.426e+04 2.302e-09
 14.01824    102.8 1.441e+04 2.539e-09
 14.02804    102.2 1.527e+04 2.882e-09
 14.03784     95.9 2.123e+04 4.902e-09
 14.04764     80.6 2.866e+04 2.715e-08
 14.05432     69.7 2.553e+04 1.666e-07
 14.05922     70.5 2.554e+04 1.579e-07
 14.06725     63.8 2.312e+04 3.568e-07
 14.07705     58.3 2.357e+04 3.104e-07
 14.08685     53.4 2.719e+04 1.237e-07
 14.09665     42.4 3.549e+04 2.124e-08
 14.10645     28.8 3.008e+04 5.816e-09
 14.11626     13.1 2.060e+04 3.887e-09
 14.12638      2.3 1.656e+04 3.175e-09
 14.13623     -2.3 1.598e+04 2.945e-09
 14.15066     -6.5 1.594e+04 3.205e-09
 14.17026    -10.5 1.713e+04 4.386e-09
 14.18987    -13.5 1.815e+04 5.984e-09
 14.20947    -14.9 1.819e+04 7.809e-09
 14.22907    -15.3 1.780e+04 8.291e-09
 14.24868    -15.2 1.743e+04 7.366e-09
 14.26828    -15.9 1.738e+04 5.171e-09
 14.28293    -18.1 1.848e+04 3.828e-09
 14.29269    -20.3 2.021e+04 3.543e-09
 14.30249    -31.1 2.251e+04 3.041e-09
 14.31229    -40.3 2.451e+04 3.894e-09
 14.32209    -51.2 2.178e+04 5.947e-09
 14.33189    -55.1 1.984e+04 1.067e-08
 14.34170    -56.1 1.957e+04 1.806e-08
 14.35150    -56.1 2.034e+04 2.852e-08
 14.36042    -55.9 2.118e+04 3.854e-08
 14.36532    -56.2 2.185e+04 4.139e-08
 14.37110    -56.5 2.262e+04 4.471e-08
 14.37618    -57.7 2.276e+04 4.303e-08
 14.38108    -57.0 2.253e+04 4.553e-08
 14.39071    -57.7 2.222e+04 3.357e-08
 14.40051    -58.7 2.168e+04 2.133e-08
 14.41031    -60.4 2.090e+04 1.460e-08
 14.42506    -62.3 1.991e+04 1.072e-08
 14.44471    -65.1 1.748e+04 5.429e-09
 14.46432    -67.5 1.481e+04 2.974e-09
 14.48392    -67.9 1.398e+04 2.372e-09
 14.50352    -67.7 1.374e+04 2.065e-09
 14.52313    -67.2 1.351e+04 1.856e-09
 14.54273    -66.7 1.323e+04 1.706e-09
 14.56233    -65.9 1.293e+04 1.584e-09
 14.58194    -65.0 1.262e+04 1.458e-09
 14.60154    -63.9 1.228e+04 1.313e-09
 14.61632    -62.5 1.190e+04 1.155e-09
 14.62612    -61.6 1.215e+04 1.372e-09
 14.64075    -60.1 1.174e+04 1.165e-09
 14.66035    -58.5 1.131e+04 9.762e-10
 14.67996    -56.8 1.097e+04 7.922e-10
 14.69956    -55.1 1.066e+04 6.071e-10
 14.71916    -53.4 1.038e+04 4.554e-10
 14.74867    -52.0 1.014e+04 3.414e-10
 14.78797    -50.0 9.642e+03 2.365e-10
 14.82718    -47.0 9.068e+03 1.666e-10
 14.86639    -44.2 8.895e+03 1.464e-10
 14.90559    -41.7 8.886e+03 1.479e-10
 14.94480    -39.8 9.269e+03 2.243e-10
 14.98401    -37.4 9.840e+03 4.027e-10
 15.02321    -34.5 1.040e+04 6.354e-10
 15.06242    -31.5 1.077e+04 7.820e-10
 15.09661    -29.2 1.082e+04 7.950e-10
 15.11621    -28.2 1.129e+04 9.964e-10
 15.14084    -26.2 1.128e+04 9.531e-10
 15.18004    -24.6 1.076e+04 6.747e-10
 15.21925    -23.7 1.027e+04 4.974e-10
 15.25846    -23.0 1.006e+04 4.496e-10
 15.29766    -22.1 1.002e+04 4.504e-10
 15.33687    -21.0 1.029e+04 5.551e-10
 15.37608    -19.8 1.063e+04 6.878e-10
 15.41529    -19.1 1.095e+04 8.199e-10
 15.45449    -18.8 1.123e+04 9.553e-10
 15.49370    -18.6 1.145e+04 1.077e-09
 15.53291    -18.4 1.150e+04 1.106e-09
 15.57211    -17.8 1.113e+04 9.129e-10
 15.59489    -17.3 1.043e+04 5.598e-10
 15.59948    -16.8 1.043e+04 5.593e-10
 15.61591    -18.1 1.044e+04 5.782e-10
 15.65053    -17.7 9.821e+03 3.751e-10
 15.68974    -17.1 9.331e+03 2.580e-10
 15.72894    -16.1 9.026e+03 1.899e-10
 15.76815    -15.2 8.823e+03 1.483e-10
 15.80736    -14.4 8.665e+03 1.303e-10
 15.84656    -13.6 8.599e+03 1.272e-10
 15.88577    -12.4 8.644e+03 1.369e-10
 15.92498    -11.2 8.755e+03 1.494e-10
 15.96419    -10.3 8.803e+03 1.586e-10
 16.00339     -9.3 8.896e+03 1.808e-10
 16.04260     -8.1 9.097e+03 2.104e-10
 16.07640     -7.0 9.322e+03 2.388e-10
 16.09601     -7.9 9.292e+03 2.242e-10
 16.12101     -6.2 9.276e+03 2.588e-10
 16.16022     -4.5 9.230e+03 2.813e-10
 16.19943     -4.7 1.002e+04 3.045e-10
 16.22874     -5.7 9.907e+03 2.965e-10
 16.24824     -9.8 1.232e+04 3.909e-10
 16.26785     -8.3 1.286e+04 3.593e-10
 16.28745    -21.9 2.299e+04 1.533e-09
 16.30210    -27.8 2.238e+04 1.097e-08
 16.31186    -28.2 2.221e+04 2.800e-08
 16.32166    -28.1 2.187e+04 6.016e-08
 16.33086    -27.3 2.210e+04 9.288e-08
 16.33576    -27.0 2.260e+04 1.058e-07
 16.34126    -26.7 2.272e+04 1.097e-07
 16.35106    -26.9 2.476e+04 7.936e-08
 16.36087    -28.9 2.773e+04 3.535e-08
 16.37067    -35.8 2.844e+04 1.084e-08
 16.38047    -45.9 2.035e+04 3.079e-09
 16.39027    -52.0 1.350e+04 1.734e-09
 16.40007    -53.1 1.244e+04 1.481e-09
 16.40987    -53.2 1.233e+04 1.432e-09
 16.42463    -54.5 1.167e+04 1.161e-09
 16.44428    -55.0 1.130e+04 9.927e-10
 16.46388    -55.3 1.121e+04 9.221e-10
 16.48349    -55.8 1.109e+04 8.450e-10
 16.50309    -56.4 1.098e+04 7.934e-10
 16.52269    -57.1 1.089e+04 7.650e-10
 16.54230    -57.9 1.082e+04 7.538e-10
 16.56190    -58.5 1.078e+04 7.512e-10
 16.57590    -59.1 1.077e+04 7.483e-10
 16.58571    -60.2 1.062e+04 6.759e-10
 16.60111    -60.9 1.063e+04 6.730e-10
 16.62071    -61.6 1.057e+04 6.481e-10
 16.64031    -62.2 1.049e+04 6.142e-10
 16.65992    -62.9 1.040e+04 5.795e-10
 16.67952    -63.6 1.031e+04 5.408e-10
 16.69912    -64.5 1.019e+04 4.908e-10
 16.71873    -65.5 1.003e+04 4.336e-10
 16.73833    -66.5 9.905e+03 3.876e-10
 16.75794    -67.5 9.938e+03 3.660e-10
 16.77754    -68.9 9.970e+03 3.605e-10
 16.79714    -71.0 1.031e+04 3.711e-10
 16.81595    -73.9 1.081e+04 4.713e-10
 16.82575    -73.5 1.073e+04 4.293e-10
 16.82887    -76.5 1.120e+04 6.145e-10
 16.83867    -75.7 1.157e+04 7.096e-10
 16.85595    -78.2 1.186e+04 1.057e-09
 16.87556    -79.8 1.203e+04 1.369e-09
 16.89516    -80.9 1.210e+04 1.481e-09
 16.91476    -81.9 1.209e+04 1.480e-09
 16.93437    -83.0 1.183e+04 1.196e-09
 16.95397    -84.6 1.133e+04 7.786e-10
 16.97358    -86.7 1.070e+04 4.809e-10
 16.99318    -88.9 1.012e+04 3.319e-10
 17.02268    -90.5 9.818e+03 2.870e-10
 17.05619    -91.7 9.716e+03 2.776e-10
 17.07580    -91.6 9.937e+03 3.449e-10
 17.10119    -92.1 9.910e+03 3.652e-10
 17.14040    -92.2 9.842e+03 3.702e-10
 17.17961    -92.1 9.765e+03 3.613e-10
 17.21882    -91.8 9.637e+03 3.373e-10
 17.25802    -91.5 9.448e+03 2.962e-10
 17.29723    -91.1 9.234e+03 2.537e-10
 17.33644    -90.7 9.038e+03 2.191e-10
 17.37564    -90.2 8.882e+03 1.918e-10
 17.41485    -89.7 8.739e+03 1.677e-10
 17.45406    -89.3 8.621e+03 1.468e-10
 17.49327    -89.0 8.533e+03 1.314e-10
 17.53247    -88.9 8.489e+03 1.239e-10
 17.55589    -88.9 8.476e+03 1.224e-10
 17.57550    -88.7 8.313e+03 1.018e-10
 17.61089    -88.8 8.401e+03 1.136e-10
 17.65009    -88.9 8.546e+03 1.386e-10
 17.68930    -88.8 8.686e+03 1.639e-10
 17.72851    -88.5 8.813e+03 1.844e-10
 17.76772    -88.2 8.919e+03 1.987e-10
 17.80692    -88.0 9.002e+03 2.073e-10
 17.84613    -87.8 9.077e+03 2.132e-10
 17.88534    -87.8 9.187e+03 2.202e-10
 17.92454    -87.9 9.403e+03 2.380e-10
 17.96375    -88.6 9.755e+03 2.838e-10
 18.00296    -89.7 1.015e+04 3.647e-10
 18.03227    -90.4 1.039e+04 4.500e-10
 18.04559    -91.1 1.050e+04 5.143e-10
 18.05539    -91.4 1.049e+04 5.127e-10
 18.06305    -92.2 1.056e+04 5.575e-10
 18.07285    -92.1 1.073e+04 6.250e-10
 18.09098    -92.7 1.076e+04 6.363e-10
 18.11058    -93.3 1.073e+04 6.315e-10
 18.13019    -93.7 1.063e+04 5.810e-10
 18.14979    -94.0 1.052e+04 5.090e-10
 18.16939    -94.4 1.045e+04 4.511e-10
 18.19890    -94.9 1.041e+04 4.053e-10
 18.23820    -95.3 1.012e+04 3.138e-10
 18.27741    -95.4 1.001e+04 2.874e-10
 18.31662    -94.8 1.001e+04 2.892e-10
 18.35582    -93.8 1.016e+04 3.220e-10
 18.39503    -92.6 1.029e+04 3.509e-10
 18.43424    -91.5 1.029e+04 3.541e-10
 18.47344    -90.4 1.024e+04 3.341e-10
 18.51265    -89.3 1.019e+04 3.041e-10
 18.53568    -88.1 1.019e+04 2.879e-10
 18.55529    -88.3 1.011e+04 2.790e-10
 18.59107    -87.2 1.019e+04 2.810e-10
 18.63027    -86.3 1.048e+04 3.251e-10
 18.66948    -85.7 1.070e+04 3.895e-10
 18.70869    -85.3 1.076e+04 4.206e-10
 18.74789    -85.1 1.074e+04 4.095e-10
 18.78710    -84.6 1.052e+04 3.451e-10
 18.82631    -84.1 1.028e+04 2.650e-10
 18.86552    -83.7 1.006e+04 2.000e-10
 18.90472    -83.2 9.882e+03 1.593e-10
 18.94393    -82.4 9.762e+03 1.422e-10
 18.98314    -81.2 9.734e+03 1.384e-10
 19.01578    -79.8 9.734e+03 1.385e-10
 19.03538    -80.1 9.688e+03 1.333e-10
 19.06155    -78.7 9.744e+03 1.385e-10
 19.10076    -77.3 9.773e+03 1.396e-10
 19.13997    -75.9 9.841e+03 1.333e-10
 19.17917    -74.6 9.901e+03 1.234e-10
 19.21838    -73.4 9.934e+03 1.175e-10
 19.25759    -72.3 9.977e+03 1.167e-10
 19.28762    -71.5 1.017e+04 1.378e-10
 19.30722    -70.2 9.973e+03 1.189e-10
 19.33600    -69.5 1.025e+04 1.802e-10
 19.37521    -68.4 1.065e+04 2.995e-10
 19.41442    -67.5 1.116e+04 4.696e-10
 19.44372    -67.3 1.148e+04 6.120e-10
 19.46323    -67.3 1.155e+04 6.647e-10
 19.48283    -66.8 1.160e+04 7.079e-10
 19.50244    -66.3 1.152e+04 6.890e-10
 19.51528    -65.6 1.133e+04 5.936e-10
 19.52508    -65.6 1.147e+04 7.095e-10
 19.54164    -64.8 1.125e+04 5.577e-10
 19.56125    -64.1 1.115e+04 4.413e-10
 19.58085    -63.7 1.115e+04 3.997e-10
 19.61035    -63.1 1.117e+04 3.596e-10
 19.64966    -62.1 1.098e+04 3.009e-10
 19.68887    -60.7 1.076e+04 2.586e-10
 19.72807    -59.3 1.070e+04 2.442e-10
 19.76728    -57.8 1.070e+04 2.420e-10
 19.80649    -56.4 1.089e+04 2.572e-10
 19.84570    -55.1 1.101e+04 3.031e-10
 19.88490    -53.9 1.111e+04 3.660e-10
 19.92411    -52.7 1.127e+04 4.436e-10
 19.96332    -51.5 1.146e+04 5.247e-10
 19.99557    -50.2 1.162e+04 5.973e-10
 20.01517    -50.5 1.142e+04 4.928e-10
 20.04173    -49.3 1.149e+04 5.147e-10
 20.08094    -48.2 1.148e+04 4.801e-10
 20.12015    -47.2 1.135e+04 4.101e-10
 20.15935    -46.0 1.124e+04 3.693e-10
 20.19856    -44.7 1.124e+04 3.637e-10
 20.23777    -43.4 1.134e+04 3.978e-10
 20.27697    -42.1 1.147e+04 4.548e-10
 20.31618    -40.8 1.154e+04 4.829e-10
 20.35539    -39.4 1.156e+04 4.730e-10
 20.39460    -38.1 1.149e+04 4.163e-10
 20.43380    -36.7 1.136e+04 3.459e-10
 20.47301    -35.2 1.119e+04 2.884e-10
 20.49527    -33.5 1.105e+04 2.467e-10
 20.51465    -33.8 1.100e+04 2.385e-10
 20.53160    -33.2 1.104e+04 2.399e-10
 20.55142    -31.3 1.092e+04 2.266e-10
 20.59063    -29.2 1.080e+04 2.192e-10
 20.62984    -27.0 1.073e+04 2.226e-10
 20.66905    -24.9 1.068e+04 2.393e-10
 20.70825    -23.0 1.071e+04 2.735e-10
 20.74746    -21.0 1.080e+04 3.168e-10
 20.78667    -19.0 1.093e+04 3.544e-10
 20.82587    -16.9 1.103e+04 3.834e-10
 20.86508    -15.1 1.100e+04 3.907e-10
 20.90429    -13.3 1.085e+04 3.836e-10
 20.94350    -11.2 1.071e+04 3.384e-10
 20.97536     -9.2 1.048e+04 2.731e-10
 20.99497     -9.1 1.049e+04 2.676e-10
 21.02191     -7.1 1.031e+04 2.203e-10
 21.06112     -4.9 1.020e+04 1.942e-10
 21.10032     -2.8 1.013e+04 1.837e-10
 21.13953     -0.6 1.016e+04 1.847e-10
 21.17874      1.1 1.029e+04 2.125e-10
 21.21795      2.9 1.066e+04 2.837e-10
 21.24725      3.4 1.077e+04 3.660e-10
 21.26676      3.9 1.110e+04 4.165e-10
 21.28636      4.3 1.105e+04 5.496e-10
 21.30597      4.6 1.142e+04 6.580e-10
 21.32557      4.0 1.210e+04 8.329e-10
 21.34517      2.6 1.272e+04 1.128e-09
 21.36478      1.2 1.305e+04 1.503e-09
 21.38438      0.5 1.317e+04 1.855e-09
 21.40399      0.2 1.328e+04 2.054e-09
 21.42359     -0.3 1.334e+04 2.089e-09
 21.44319     -1.0 1.341e+04 1.919e-09
 21.46280     -1.9 1.334e+04 1.821e-09
 21.47486     -2.8 1.316e+04 1.660e-09
 21.49457     -3.0 1.303e+04 1.617e-09
 21.53160     -3.6 1.251e+04 1.243e-09
 21.57081     -3.7 1.208e+04 9.528e-10
 21.61002     -3.5 1.162e+04 6.470e-10
 21.64923     -2.9 1.112e+04 3.997e-10
 21.68843     -2.2 1.079e+04 2.528e-10
 21.72764     -1.5 1.057e+04 1.805e-10
 21.75598     -0.5 1.044e+04 1.584e-10
 21.77558      0.1 1.027e+04 1.267e-10
 21.80605      1.7 1.027e+04 1.349e-10
 21.84526      3.5 1.025e+04 1.548e-10
 21.88447      5.5 1.032e+04 1.647e-10
 21.92368      7.2 1.050e+04 1.702e-10
 21.95515      8.2 1.068e+04 1.946e-10
 21.97476      7.0 1.074e+04 2.463e-10
 22.00209      8.3 1.071e+04 3.263e-10
 22.04130     10.3 1.070e+04 3.874e-10
 22.08050     12.1 1.072e+04 3.808e-10
 22.11971     14.1 1.068e+04 2.986e-10
 22.15892     15.7 1.065e+04 1.971e-10
 22.19813     16.4 1.068e+04 1.344e-10
 22.23733     17.0 1.047e+04 1.224e-10
 22.27654     18.1 1.030e+04 1.249e-10
 22.31575     19.5 1.020e+04 1.216e-10
 22.35495     21.0 1.017e+04 1.108e-10
 22.39416     22.1 1.016e+04 9.912e-11
 22.43337     23.1 1.021e+04 1.001e-10
 22.45485     23.9 1.030e+04 1.131e-10
 22.47446     23.6 1.028e+04 1.139e-10
 22.51178     24.9 1.027e+04 1.440e-10
 22.55099     26.5 1.033e+04 1.792e-10
 22.59020     28.0 1.045e+04 2.127e-10
 22.62940     29.3 1.055e+04 2.195e-10
 22.66861     30.6 1.056e+04 2.074e-10
 22.70782     31.6 1.057e+04 1.885e-10
 22.74703     32.4 1.060e+04 1.974e-10
 22.78623     33.2 1.070e+04 2.267e-10
 22.82544     34.4 1.078e+04 2.840e-10
 22.86465     35.6 1.081e+04 3.117e-10
 22.90385     36.9 1.076e+04 2.995e-10
 22.93495     38.3 1.060e+04 2.489e-10
 22.95455     38.1 1.061e+04 2.826e-10
 22.98035     39.3 1.044e+04 2.094e-10
 22.99996     39.6 1.045e+04 2.229e-10
 23.02148     40.6 1.028e+04 1.731e-10
 23.06068     41.8 1.009e+04 1.601e-10
 23.09989     43.3 1.005e+04 1.595e-10
 23.13910     44.8 1.004e+04 1.584e-10
 23.17830     46.4 9.981e+03 1.517e-10
 23.21751     48.0 9.903e+03 1.342e-10
 23.25672     49.5 9.833e+03 1.131e-10
 23.29593     50.9 9.781e+03 9.530e-11
 23.33513     52.3 9.734e+03 8.413e-11
 23.37434     53.8 9.647e+03 8.153e-11
 23.41355     55.4 9.632e+03 8.295e-11
 23.43464     57.1 9.617e+03 8.620e-11
 23.45425     57.3 9.630e+03 9.032e-11
 23.49196     58.8 9.701e+03 9.951e-11
 23.53117     60.1 9.825e+03 1.205e-10
 23.57038     61.1 1.010e+04 1.752e-10
 23.60958     61.8 1.054e+04 2.902e-10
 23.64879     62.4 1.094e+04 4.417e-10
 23.68800     62.8 1.110e+04 5.271e-10
 23.72721     63.0 1.103e+04 5.062e-10
 23.76641     63.4 1.081e+04 4.297e-10
 23.80562     64.0 1.047e+04 3.321e-10
 23.84483     64.8 1.013e+04 2.390e-10
 23.88403     65.9 9.828e+03 1.648e-10
 23.91474     67.1 9.614e+03 1.119e-10
 23.93434     66.8 9.552e+03 9.285e-11
 23.96245     68.0 9.555e+03 7.527e-11
 24.00166     69.5 9.486e+03 7.361e-11
 24.04086     71.0 9.489e+03 7.444e-11
 24.08007     72.5 9.517e+03 7.889e-11
 24.11928     74.0 9.571e+03 8.800e-11
 24.15848     75.4 9.625e+03 9.935e-11
 24.19769     76.7 9.677e+03 1.091e-10
 24.22433     77.9 9.713e+03 1.115e-10
 24.24394     78.4 9.591e+03 9.916e-11
 24.27611     79.6 9.598e+03 9.934e-11
 24.31531     80.8 9.601e+03 9.833e-11
 24.35452     81.9 9.616e+03 9.939e-11
 24.39373     82.9 9.681e+03 1.071e-10
 24.41444     83.6 9.872e+03 1.326e-10
 24.43404     84.2 9.877e+03 1.338e-10
 24.47214     84.6 1.014e+04 1.835e-10
 24.51135     84.7 1.045e+04 2.762e-10
 24.55056     84.8 1.077e+04 3.720e-10
 24.58976     84.6 1.087e+04 3.800e-10
 24.62897     84.5 1.082e+04 3.264e-10
 24.66818     84.4 1.072e+04 2.099e-10
 24.70738     84.0 1.058e+04 1.189e-10
 24.74659     83.6 1.030e+04 9.452e-11
 24.78580     83.5 1.029e+04 9.805e-11
 24.82501     83.5 1.037e+04 1.164e-10
 24.86421     83.6 1.053e+04 1.650e-10
 24.89453     83.8 1.067e+04 2.547e-10
 24.91413     85.1 1.062e+04 2.035e-10
 24.94263     85.2 1.073e+04 2.762e-10
 24.98183     85.2 1.081e+04 3.232e-10
 25.02104     84.9 1.081e+04 3.369e-10
 25.06025     84.5 1.079e+04 3.458e-10
 25.09946     84.3 1.071e+04 3.552e-10
 25.13866     84.4 1.062e+04 3.566e-10
 25.17787     84.6 1.047e+04 3.383e-10
 25.21708     85.3 1.024e+04 2.861e-10
 25.25628     86.2 1.003e+04 2.207e-10
 25.29549     87.2 9.863e+03 1.641e-10
 25.33470     88.1 9.762e+03 1.257e-10
 25.37391     89.1 9.689e+03 1.032e-10
 25.39423     90.1 9.587e+03 9.219e-11
 25.41383     90.4 9.798e+03 1.198e-10
 25.44871     91.5 9.691e+03 1.157e-10
 25.46831     91.9 9.755e+03 1.240e-10
 25.49153     93.1 9.747e+03 1.265e-10
 25.53073     94.4 9.749e+03 1.407e-10
 25.56994     95.6 9.827e+03 1.731e-10
 25.60915     97.0 9.955e+03 2.164e-10
 25.64836     98.2 1.009e+04 2.402e-10
 25.68756     99.3 1.011e+04 2.382e-10
 25.72677    100.4 1.010e+04 2.196e-10
 25.76598    101.5 1.004e+04 1.784e-10
 25.80518    102.4 9.925e+03 1.366e-10
 25.84439    103.4 9.727e+03 1.191e-10
 25.87432    104.5 9.695e+03 1.195e-10
 25.89393    104.4 9.768e+03 1.238e-10
 25.92281    105.8 9.760e+03 1.266e-10
 25.96201    107.1 9.772e+03 1.405e-10
 26.00122    108.5 9.848e+03 1.669e-10
 26.04043    109.8 9.967e+03 2.004e-10
 26.07964    110.9 1.008e+04 2.289e-10
 26.11884    111.8 1.013e+04 2.354e-10
 26.15805    112.3 1.013e+04 2.313e-10
 26.19726    112.7 1.006e+04 2.070e-10
 26.23646    113.0 9.927e+03 1.814e-10
 26.27567    113.2 9.831e+03 1.761e-10
 26.31488    113.6 9.832e+03 1.804e-10
 26.35409    113.9 9.853e+03 2.014e-10
 26.37402    114.1 9.960e+03 2.478e-10
 26.39362    114.0 1.046e+04 3.906e-10
 26.43250    114.1 1.062e+04 4.751e-10
 26.47171    114.4 1.070e+04 5.506e-10
 26.51091    114.8 1.072e+04 5.705e-10
 26.55012    115.0 1.071e+04 5.580e-10
 26.58933    114.9 1.069e+04 5.226e-10
 26.62854    114.7 1.068e+04 4.825e-10
 26.66774    113.9 1.074e+04 4.547e-10
 26.69269    112.6 1.083e+04 4.692e-10
 26.71229    113.1 1.003e+04 2.924e-10
 26.74616    112.0 1.011e+04 3.300e-10
 26.78536    110.9 1.030e+04 4.440e-10
 26.82457    109.7 1.067e+04 6.650e-10
 26.85411    108.6 1.101e+04 9.086e-10
 26.87372    107.2 1.138e+04 1.059e-09
 26.90299    105.9 1.122e+04 9.944e-10
 26.94219    104.8 1.088e+04 8.743e-10
 26.98140    104.0 1.064e+04 8.191e-10
 27.02061    103.3 1.064e+04 8.336e-10
 27.05981    102.8 1.077e+04 9.158e-10
 27.09902    102.1 1.091e+04 1.016e-09
 27.13823    101.3 1.090e+04 1.019e-09
 27.17744    100.9 1.067e+04 9.343e-10
 27.21664    101.0 1.012e+04 7.176e-10
 27.25585    101.2 9.456e+03 4.962e-10
 27.29506    101.6 8.853e+03 3.455e-10
 27.33421    102.1 8.471e+03 2.689e-10
 27.37342    102.5 8.146e+03 2.114e-10
 27.41268    103.7 8.117e+03 2.043e-10
 27.45189    104.9 8.073e+03 1.947e-10
 27.49109    106.1 7.992e+03 1.779e-10
 27.53030    107.4 7.871e+03 1.571e-10
 27.56951    108.6 7.740e+03 1.390e-10
 27.60871    110.0 7.685e+03 1.328e-10
 27.64792    111.5 7.691e+03 1.337e-10
 27.68713    112.8 7.762e+03 1.412e-10
 27.72634    114.0 8.020e+03 1.720e-10
 27.76554    114.7 8.481e+03 2.402e-10
 27.80475    114.7 9.016e+03 3.487e-10
 27.83391    114.6 9.540e+03 4.761e-10
 27.85351    113.8 9.390e+03 4.357e-10
 27.88316    113.4 9.719e+03 4.633e-10
 27.91707    112.7 9.732e+03 4.533e-10
 27.93667    111.5 9.737e+03 4.549e-10
 27.96158    111.2 9.652e+03 3.990e-10
 28.00079    111.2 9.463e+03 3.218e-10
 28.03999    111.5 9.229e+03 2.530e-10
 28.07920    112.3 9.026e+03 2.040e-10
 28.11841    113.3 8.886e+03 1.725e-10
 28.15761    114.5 8.785e+03 1.562e-10
 28.19682    116.0 8.750e+03 1.547e-10
 28.23603    117.6 8.755e+03 1.569e-10
 28.27524    119.4 8.793e+03 1.679e-10
 28.31400    121.2 8.956e+03 1.992e-10
 28.33360    121.1 9.280e+03 2.598e-10
 28.35365    122.9 9.581e+03 3.144e-10
 28.39286    124.4 9.926e+03 3.785e-10
 28.43207    125.1 1.015e+04 4.314e-10
 28.46137    126.1 1.032e+04 5.046e-10
 28.48088    127.0 1.056e+04 5.829e-10
 28.50048    127.7 1.081e+04 6.512e-10
 28.52009    128.2 1.105e+04 7.056e-10
 28.53886    128.4 1.128e+04 7.528e-10
 28.54866    127.8 1.120e+04 7.129e-10
 28.55929    127.7 1.140e+04 7.555e-10
 28.57346    127.5 1.162e+04 8.160e-10
 28.58326    127.1 1.127e+04 6.842e-10
 28.59850    126.9 1.150e+04 7.589e-10
 28.61810    126.5 1.179e+04 8.688e-10
 28.63771    126.1 1.213e+04 1.024e-09
 28.65731    125.7 1.252e+04 1.229e-09
 28.67691    125.2 1.294e+04 1.481e-09
 28.69652    124.7 1.332e+04 1.747e-09
 28.71612    124.1 1.362e+04 1.980e-09
 28.73573    123.3 1.382e+04 2.125e-09
 28.75533    122.5 1.396e+04 2.191e-09
 28.77493    121.7 1.405e+04 2.214e-09
 28.79454    120.9 1.406e+04 2.199e-09
 28.81350    120.1 1.402e+04 2.129e-09
 28.82330    121.4 1.405e+04 2.182e-09
 28.83374    120.7 1.397e+04 2.080e-09
 28.85335    120.2 1.376e+04 1.875e-09
 28.87295    119.5 1.345e+04 1.634e-09
 28.89255    118.7 1.306e+04 1.423e-09
 28.91216    117.9 1.267e+04 1.273e-09
 28.93176    117.4 1.235e+04 1.176e-09
 28.95136    117.4 1.218e+04 1.110e-09
 28.97097    117.5 1.208e+04 1.053e-09
 28.99057    117.8 1.199e+04 9.894e-10
 29.01018    118.1 1.188e+04 9.001e-10
 29.02978    118.4 1.176e+04 7.859e-10
 29.04938    118.6 1.162e+04 6.607e-10
 29.06335    118.7 1.145e+04 5.445e-10
 29.07315    120.2 1.182e+04 7.474e-10
 29.08859    120.4 1.173e+04 6.559e-10
 29.10819    120.5 1.161e+04 5.718e-10
 29.12780    120.4 1.146e+04 5.033e-10
 29.14740    120.3 1.128e+04 4.567e-10
 29.16085    120.1 1.112e+04 4.381e-10
 29.17065    119.7 1.101e+04 4.323e-10
 29.18661    119.5 1.093e+04 4.444e-10
 29.20621    119.5 1.084e+04 4.858e-10
 29.22581    119.4 1.095e+04 5.410e-10
 29.24542    118.8 1.166e+04 6.515e-10
 29.26502    115.6 1.410e+04 1.094e-09
 29.28463    109.7 1.828e+04 3.399e-09
 29.30340    105.0 2.026e+04 9.854e-09
 29.31320    109.6 1.934e+04 4.432e-09
 29.32383    104.8 2.080e+04 1.142e-08
 29.34344    101.8 2.054e+04 1.493e-08
 29.36304     99.5 2.023e+04 1.360e-08
 29.38264     96.7 1.969e+04 8.340e-09
 29.40225     89.7 1.951e+04 3.300e-09
 29.42185     76.9 1.666e+04 2.060e-09
 29.44145     66.7 1.492e+04 2.310e-09
 29.46106     61.7 1.455e+04 2.754e-09
 29.48066     58.7 1.465e+04 2.751e-09
 29.50027     54.2 1.484e+04 2.367e-09
 29.51987     47.6 1.457e+04 1.652e-09
 29.53947     41.7 1.315e+04 1.072e-09
 29.55325     32.6 1.359e+04 7.314e-10
 29.56305     33.2 1.422e+04 6.466e-10
 29.57868     15.3 2.662e+04 8.121e-10
 29.59828      3.5 2.187e+04 3.773e-09
 29.61789     -0.8 1.912e+04 9.110e-09
 29.63749     -1.6 1.932e+04 1.230e-08
 29.65709     -2.9 1.989e+04 1.168e-08
 29.67670     -7.6 2.077e+04 7.432e-09
 29.69630    -16.8 1.801e+04 2.222e-09
 29.71590    -25.8 1.243e+04 8.087e-10
 29.73551    -28.6 1.127e+04 5.957e-10
 29.75511    -29.2 1.136e+04 5.743e-10
 29.77304    -29.7 1.132e+04 5.678e-10
 29.78284    -27.1 1.156e+04 6.661e-10
 29.79329    -27.8 1.149e+04 6.590e-10
 29.80310    -28.0 1.156e+04 6.729e-10
 29.81392    -28.4 1.149e+04 6.769e-10
 29.83353    -28.6 1.152e+04 6.728e-10
 29.85313    -28.8 1.153e+04 6.600e-10
 29.87273    -29.1 1.149e+04 6.328e-10
 29.89234    -29.4 1.145e+04 6.073e-10
 29.91194    -29.8 1.141e+04 5.910e-10
 29.93154    -30.5 1.144e+04 5.963e-10
 29.95115    -31.5 1.173e+04 6.640e-10
 29.97075    -32.7 1.219e+04 8.082e-10
 29.99035    -33.7 1.260e+04 1.012e-09
 30.00996    -34.3 1.296e+04 1.251e-09
 30.02956    -34.6 1.336e+04 1.503e-09
 30.04314    -35.0 1.398e+04 1.763e-09
 30.05295    -36.1 1.481e+04 2.348e-09
 30.06877    -37.4 1.576e+04 2.825e-09
 30.08837    -39.8 1.683e+04 3.352e-09
 30.10798    -42.5 1.734e+04 4.052e-09
 30.12758    -44.5 1.702e+04 4.599e-09
 30.14718    -45.3 1.665e+04 4.789e-09
 30.16679    -45.4 1.622e+04 4.805e-09
 30.18639    -45.0 1.570e+04 4.253e-09
 30.20599    -44.7 1.508e+04 3.206e-09
 30.22560    -45.1 1.428e+04 2.173e-09
 30.24520    -46.9 1.331e+04 1.420e-09
 30.26480    -48.5 1.238e+04 9.841e-10
 30.28319    -49.8 1.185e+04 7.901e-10
 30.29299    -49.1 1.200e+04 8.744e-10
 30.30401    -49.9 1.174e+04 7.893e-10
 30.32362    -50.1 1.168e+04 7.738e-10
 30.34322    -50.1 1.171e+04 7.923e-10
 30.36282    -50.2 1.178e+04 8.568e-10
 30.38243    -50.1 1.192e+04 9.437e-10
 30.39503    -50.6 1.238e+04 1.103e-09
 30.40483    -51.4 1.267e+04 1.205e-09
 30.42163    -53.1 1.356e+04 1.543e-09
 30.44124    -55.3 1.454e+04 2.095e-09
 30.46084    -57.6 1.532e+04 2.875e-09
 30.48044    -59.8 1.591e+04 3.784e-09
 30.50005    -62.2 1.642e+04 4.459e-09
 30.51965    -65.0 1.681e+04 4.729e-09
 30.53304    -68.5 1.698e+04 4.718e-09
 30.54284    -67.3 1.741e+04 5.571e-09
 30.55886    -71.1 1.749e+04 5.426e-09
 30.57846    -74.8 1.675e+04 4.876e-09
 30.59807    -77.6 1.573e+04 4.189e-09
 30.61767    -79.3 1.488e+04 3.318e-09
 30.63727    -80.3 1.437e+04 2.716e-09
 30.65688    -81.1 1.413e+04 2.101e-09
 30.67648    -82.3 1.386e+04 1.467e-09
 30.69608    -84.0 1.335e+04 9.456e-10
 30.71569    -86.1 1.249e+04 6.188e-10
 30.73529    -88.0 1.149e+04 4.672e-10
 30.75489    -89.2 1.091e+04 4.190e-10
 30.77309    -89.7 1.080e+04 4.061e-10
 30.79279    -90.7 1.060e+04 3.177e-10
 30.82370    -90.0 1.046e+04 2.860e-10
 30.86291    -89.8 1.036e+04 2.569e-10
 30.90212    -89.8 1.026e+04 2.404e-10
 30.94132    -89.3 1.025e+04 2.363e-10
 30.98053    -88.8 1.068e+04 2.683e-10
 31.00732    -88.0 1.083e+04 3.196e-10
 31.01702    -89.2 1.091e+04 3.422e-10
 31.02294    -90.0 1.100e+04 4.436e-10
 31.03274    -90.4 1.120e+04 4.965e-10
 31.04895    -90.7 1.135e+04 6.748e-10
 31.06855    -91.0 1.162e+04 8.950e-10
 31.08816    -91.6 1.248e+04 1.203e-09
 31.10776    -94.8 1.517e+04 1.701e-09
 31.12241    -96.7 1.693e+04 2.130e-09
 31.13217   -102.9 2.303e+04 3.503e-09
 31.14197   -109.5 2.518e+04 9.177e-09
 31.14776   -113.8 2.455e+04 2.083e-08
 31.15266   -112.3 2.405e+04 1.396e-08
 31.16157   -115.1 2.305e+04 2.599e-08
 31.17137   -115.9 2.209e+04 3.837e-08
 31.18117   -115.8 2.156e+04 4.613e-08
 31.19098   -115.5 2.140e+04 4.826e-08
 31.20078   -115.3 2.124e+04 3.982e-08
 31.21058   -115.8 2.100e+04 2.721e-08
 31.22533   -118.2 2.017e+04 1.456e-08
 31.24498   -119.5 1.902e+04 7.396e-09
 31.26298   -122.0 1.695e+04 2.154e-09
 31.27278   -120.4 1.654e+04 2.235e-09
 31.28419   -124.9 1.363e+04 5.582e-10
 31.30379   -129.0 1.057e+04 2.732e-10
 31.33330   -129.6 9.902e+03 2.396e-10
 31.37260   -128.6 9.528e+03 2.236e-10
 31.41181   -126.8 9.425e+03 2.304e-10
 31.45102   -125.5 9.658e+03 2.623e-10
 31.49022   -124.2 9.895e+03 2.917e-10
 31.52943   -122.8 1.000e+04 3.164e-10
 31.56864   -121.2 1.008e+04 3.405e-10
 31.60785   -119.6 1.015e+04 3.591e-10
 31.62940   -118.1 1.020e+04 3.724e-10
 31.63911   -118.0 1.031e+04 4.019e-10
 31.65666   -117.8 1.033e+04 4.143e-10
 31.68616   -116.8 1.039e+04 4.555e-10
 31.72547   -114.7 1.059e+04 5.554e-10
 31.75307   -113.0 1.100e+04 7.197e-10
 31.77268   -112.4 1.043e+04 3.982e-10
 31.79398   -110.6 1.058e+04 4.362e-10
 31.81349   -110.3 1.062e+04 4.529e-10
 31.83309   -109.0 1.081e+04 5.352e-10
 31.85270   -108.4 1.087e+04 5.743e-10
 31.87230   -107.4 1.105e+04 6.434e-10
 31.89190   -106.8 1.125e+04 7.079e-10
 31.91151   -106.2 1.144e+04 8.012e-10
 31.93111   -105.6 1.154e+04 8.869e-10
 31.95071   -104.8 1.160e+04 9.383e-10
 31.97032   -104.1 1.161e+04 9.468e-10
 31.98992   -103.3 1.161e+04 9.429e-10
 32.00273   -102.6 1.157e+04 9.292e-10
 32.01253   -102.7 1.177e+04 9.718e-10
 32.02913   -102.1 1.183e+04 9.974e-10
 32.04873   -101.5 1.191e+04 1.033e-09
 32.06833   -100.9 1.199e+04 1.074e-09
 32.08794   -100.4 1.205e+04 1.110e-09
 32.10754    -99.9 1.208e+04 1.134e-09
 32.12715    -99.4 1.203e+04 1.147e-09
 32.14675    -98.9 1.205e+04 1.147e-09
 32.16635    -98.5 1.203e+04 1.141e-09
 32.18596    -97.9 1.199e+04 1.128e-09
 32.20556    -97.3 1.193e+04 1.112e-09
 32.22516    -96.7 1.187e+04 1.095e-09
 32.24140    -96.1 1.180e+04 1.071e-09
 32.24921    -97.0 1.165e+04 1.016e-09
 32.25258    -97.1 1.178e+04 1.077e-09
 32.26437    -96.4 1.171e+04 1.010e-09
 32.28397    -95.7 1.170e+04 9.521e-10
 32.30358    -94.9 1.171e+04 9.106e-10
 32.32318    -94.2 1.172e+04 8.810e-10
 32.34278    -93.5 1.167e+04 8.501e-10
 32.36239    -92.7 1.160e+04 8.220e-10
 32.38199    -91.8 1.154e+04 8.048e-10
 32.40160    -91.0 1.151e+04 8.105e-10
 32.42120    -90.1 1.164e+04 8.639e-10
 32.44080    -89.3 1.207e+04 1.006e-09
 32.46041    -89.1 1.284e+04 1.291e-09
 32.48001    -89.2 1.381e+04 1.828e-09
 32.49262    -89.7 1.478e+04 2.785e-09
 32.50243    -88.4 1.449e+04 2.577e-09
 32.51922    -89.1 1.538e+04 3.832e-09
 32.53882    -89.7 1.603e+04 5.386e-09
 32.55842    -89.8 1.683e+04 7.340e-09
 32.57803    -89.8 1.768e+04 9.577e-09
 32.59763    -89.8 1.825e+04 1.069e-08
 32.61724    -91.5 1.867e+04 1.004e-08
 32.63684    -94.7 1.814e+04 6.554e-09
 32.65644    -99.3 1.599e+04 3.311e-09
 32.67605   -103.8 1.357e+04 2.081e-09
 32.69565   -105.6 1.284e+04 1.811e-09
 32.71525   -106.0 1.272e+04 1.742e-09
 32.73267   -106.3 1.268e+04 1.704e-09
 32.74247   -105.7 1.272e+04 1.771e-09
 32.75446   -105.9 1.267e+04 1.714e-09
 32.77406   -106.0 1.249e+04 1.621e-09
 32.79367   -106.0 1.224e+04 1.503e-09
 32.81327   -105.9 1.192e+04 1.351e-09
 32.83287   -105.4 1.155e+04 1.162e-09
 32.85248   -104.7 1.120e+04 9.602e-10
 32.86339   -103.9 1.085e+04 7.677e-10
 32.87319   -103.9 1.085e+04 7.459e-10
 32.89169   -103.2 1.055e+04 5.684e-10
 32.91129   -102.7 1.028e+04 4.374e-10
 32.94079   -102.1 1.005e+04 3.536e-10
 32.98010   -100.8 9.768e+03 2.881e-10
 33.01930    -98.7 9.537e+03 2.444e-10
 33.05851    -96.2 9.510e+03 2.372e-10
 33.09772    -94.0 9.710e+03 2.529e-10
 33.13693    -92.1 1.017e+04 3.476e-10
 33.17613    -90.4 1.067e+04 5.083e-10
 33.21296    -88.4 1.136e+04 7.650e-10
 33.23256    -88.7 1.173e+04 9.650e-10
 33.25455    -87.0 1.233e+04 1.291e-09
 33.28385    -85.5 1.279e+04 1.584e-09
 33.30336    -85.1 1.307e+04 1.772e-09
 33.32296    -84.3 1.351e+04 2.077e-09
 33.34257    -83.6 1.398e+04 2.362e-09
 33.36217    -83.2 1.455e+04 2.706e-09
 33.38177    -83.1 1.513e+04 3.107e-09
 33.40138    -83.3 1.574e+04 3.667e-09
 33.42098    -83.9 1.630e+04 4.491e-09
 33.44059    -84.4 1.669e+04 5.605e-09
 33.46019    -84.5 1.698e+04 6.873e-09
 33.47242    -84.3 1.715e+04 7.948e-09
 33.47800    -84.1 1.704e+04 8.063e-09
 33.48538    -84.9 1.656e+04 6.660e-09
 33.49940    -84.9 1.659e+04 6.705e-09
 33.51900    -84.9 1.647e+04 6.052e-09
 33.53860    -85.1 1.613e+04 4.814e-09
 33.55821    -85.7 1.560e+04 3.583e-09
 33.57781    -86.8 1.489e+04 2.683e-09
 33.59741    -88.1 1.417e+04 2.233e-09
 33.61702    -89.3 1.388e+04 2.137e-09
 33.63662    -90.0 1.387e+04 2.214e-09
 33.65622    -90.4 1.409e+04 2.613e-09
 33.67583    -90.4 1.433e+04 3.022e-09
 33.69543    -90.2 1.450e+04 3.260e-09
 33.71246    -90.0 1.457e+04 3.330e-09
 33.72226    -89.3 1.431e+04 2.900e-09
 33.73464    -89.0 1.432e+04 2.937e-09
 33.75424    -88.6 1.423e+04 2.862e-09
 33.77385    -88.3 1.406e+04 2.662e-09
 33.79345    -87.9 1.385e+04 2.428e-09
 33.81305    -87.3 1.363e+04 2.223e-09
 33.83266    -86.8 1.341e+04 2.048e-09
 33.85226    -85.9 1.326e+04 1.877e-09
 33.87186    -85.2 1.314e+04 1.738e-09
 33.89147    -84.2 1.299e+04 1.560e-09
 33.91107    -83.4 1.286e+04 1.406e-09
 33.93068    -82.3 1.271e+04 1.293e-09
 33.95028    -81.5 1.237e+04 1.071e-09
 33.96231    -80.7 1.205e+04 9.059e-10
 33.97211    -79.4 1.267e+04 1.247e-09
 33.99939    -78.8 1.210e+04 9.182e-10
 34.03869    -77.1 1.169e+04 7.718e-10
 34.07790    -75.0 1.135e+04 6.609e-10
 34.09776    -72.9 1.103e+04 5.519e-10
 34.11736    -73.3 1.089e+04 4.898e-10
 34.15631    -71.1 1.063e+04 4.056e-10
 34.19275    -68.9 1.043e+04 3.483e-10
 34.21236    -68.6 1.099e+04 5.401e-10
 34.23473    -66.5 1.068e+04 4.461e-10
 34.27393    -64.2 1.047e+04 3.844e-10
 34.31314    -61.8 1.027e+04 3.354e-10
 34.35235    -59.2 1.012e+04 2.978e-10
 34.39155    -56.6 9.967e+03 2.647e-10
 34.43076    -53.8 9.819e+03 2.337e-10
 34.46997    -51.1 9.680e+03 2.038e-10
 34.50918    -48.4 9.562e+03 1.780e-10
 34.54838    -45.9 9.480e+03 1.619e-10
 34.58759    -43.3 9.443e+03 1.572e-10
 34.62680    -40.8 9.463e+03 1.700e-10
 34.66600    -38.2 9.511e+03 2.021e-10
 34.69245    -35.3 9.614e+03 2.487e-10
 34.71205    -34.9 9.773e+03 2.828e-10
 34.74442    -31.9 9.877e+03 3.201e-10
 34.78363    -29.0 9.971e+03 3.420e-10
 34.82283    -26.2 1.003e+04 3.505e-10
 34.86204    -23.5 1.011e+04 3.579e-10
 34.90125    -21.0 1.022e+04 3.760e-10
 34.94046    -18.8 1.036e+04 4.172e-10
 34.97966    -16.6 1.056e+04 5.015e-10
 35.01887    -14.3 1.074e+04 6.047e-10
 35.05808    -11.6 1.087e+04 6.742e-10
 35.09728     -9.2 1.081e+04 6.453e-10
 35.12659     -8.0 1.083e+04 6.781e-10
 35.14610     -6.5 1.081e+04 6.305e-10
 35.16570     -5.6 1.066e+04 6.126e-10
 35.18215     -4.2 1.079e+04 5.543e-10
 35.19205     -4.7 1.105e+04 7.153e-10
 35.21491     -3.1 1.080e+04 6.169e-10
 35.25411     -0.8 1.042e+04 4.590e-10
 35.29332      1.1 1.033e+04 3.470e-10
 35.32214      2.9 1.021e+04 2.618e-10
 35.34174      2.2 1.029e+04 2.933e-10
 35.37173      4.1 1.014e+04 2.698e-10
 35.41094      6.4 1.014e+04 2.771e-10
 35.45015      9.0 1.022e+04 2.922e-10
 35.48936     11.5 1.037e+04 3.061e-10
 35.52856     14.1 1.036e+04 3.211e-10
 35.55787     16.6 1.028e+04 3.075e-10
 35.57738     16.7 1.031e+04 3.107e-10
 35.59698     18.7 1.022e+04 3.252e-10
 35.61658     19.0 1.029e+04 3.401e-10
 35.63619     20.3 1.026e+04 3.755e-10
 35.65579     21.2 1.040e+04 4.167e-10
 35.67205     22.3 1.055e+04 4.872e-10
 35.68185     22.1 1.091e+04 6.436e-10
 35.69500     23.1 1.102e+04 7.249e-10
 35.71460     24.0 1.117e+04 8.128e-10
 35.73420     25.1 1.137e+04 9.241e-10
 35.75381     25.9 1.190e+04 1.124e-09
 35.77341     26.0 1.327e+04 1.481e-09
 35.79302     25.3 1.560e+04 2.215e-09
 35.81262     24.5 1.769e+04 3.769e-09
 35.83222     23.7 1.875e+04 5.713e-09
 35.84688     22.4 1.871e+04 9.685e-09
 35.85663     22.4 1.864e+04 9.991e-09
 35.86643     22.5 1.815e+04 1.276e-08
 35.87623     22.8 1.813e+04 1.337e-08
 35.89098     24.0 1.799e+04 1.525e-08
 35.91064     26.0 1.823e+04 1.635e-08
 35.92190     27.7 1.861e+04 1.597e-08
 35.93170     26.7 1.839e+04 1.049e-08
 35.94393     27.2 1.818e+04 7.714e-09
 35.95373     25.7 1.795e+04 5.376e-09
 35.96945     25.2 1.648e+04 2.873e-09
 35.98905     24.6 1.443e+04 1.651e-09
 36.00866     24.5 1.233e+04 1.037e-09
 36.02826     24.9 1.151e+04 7.820e-10
 36.04786     25.8 1.104e+04 6.290e-10
 36.06747     26.5 1.101e+04 5.880e-10
 36.08707     27.2 1.086e+04 5.430e-10
 36.10667     27.9 1.077e+04 5.645e-10
 36.12628     28.5 1.068e+04 5.660e-10
 36.15224     30.3 1.161e+04 9.725e-10
 36.17194     28.8 1.024e+04 3.577e-10
 36.19508     30.4 1.010e+04 3.832e-10
 36.23429     32.0 9.947e+03 4.028e-10
 36.27350     33.8 9.736e+03 4.071e-10
 36.31271     35.7 9.703e+03 4.251e-10
 36.35191     37.7 9.831e+03 4.699e-10
 36.39112     39.8 1.003e+04 5.402e-10
 36.43033     42.6 1.040e+04 6.428e-10
 36.45964     43.7 1.045e+04 6.331e-10
 36.47914     44.8 1.053e+04 6.508e-10
 36.49874     46.0 1.067e+04 7.003e-10
 36.51835     47.3 1.077e+04 7.596e-10
 36.53795     48.6 1.098e+04 8.569e-10
 36.55612     49.8 1.133e+04 9.958e-10
 36.56592     49.7 1.115e+04 8.448e-10
 36.57716     50.6 1.159e+04 1.013e-09
 36.59676     51.3 1.207e+04 1.244e-09
 36.61637     52.0 1.259e+04 1.582e-09
 36.63597     52.7 1.303e+04 2.029e-09
 36.65184     53.8 1.350e+04 2.572e-09
 36.66164     54.1 1.300e+04 1.944e-09
 36.67518     55.0 1.344e+04 2.486e-09
 36.69478     55.1 1.409e+04 3.161e-09
 36.71438     54.4 1.562e+04 4.335e-09
 36.73399     52.7 1.725e+04 6.337e-09
 36.75359     51.4 1.792e+04 8.177e-09
 36.77319     50.6 1.757e+04 8.084e-09
 36.79280     50.6 1.657e+04 6.806e-09
 36.81240     50.4 1.537e+04 4.608e-09
 36.83201     49.4 1.415e+04 2.708e-09
 36.85161     47.1 1.268e+04 1.498e-09
 36.87121     44.9 1.111e+04 9.119e-10
 36.89082     44.3 1.025e+04 6.975e-10
 36.90169     44.6 1.007e+04 6.203e-10
 36.91149     44.8 1.044e+04 7.544e-10
 36.93002     45.2 1.040e+04 7.217e-10
 36.94963     45.8 1.040e+04 7.204e-10
 36.96923     46.4 1.041e+04 7.237e-10
 36.98883     47.0 1.042e+04 7.292e-10
 37.00844     47.7 1.043e+04 7.341e-10
 37.02804     48.5 1.042e+04 7.291e-10
 37.04764     49.4 1.037e+04 7.030e-10
 37.06725     50.3 1.028e+04 6.547e-10
 37.08685     51.2 1.018e+04 5.917e-10
 37.10646     51.9 1.008e+04 5.291e-10
 37.12606     52.5 9.981e+03 4.704e-10
 37.14173     52.9 9.890e+03 4.391e-10
 37.15154     53.3 9.788e+03 3.987e-10
 37.16527     54.2 9.694e+03 3.878e-10
 37.17811     54.5 9.700e+03 3.898e-10
 37.18791     54.7 9.859e+03 4.441e-10
 37.20447     55.7 9.839e+03 4.481e-10
 37.22408     56.4 9.847e+03 4.617e-10
 37.24368     57.6 9.923e+03 4.780e-10
 37.26328     58.6 1.002e+04 4.962e-10
 37.28289     59.7 1.016e+04 5.188e-10
 37.30249     60.7 1.030e+04 5.398e-10
 37.32210     61.6 1.043e+04 5.642e-10
 37.34170     62.3 1.059e+04 5.966e-10
 37.36130     62.7 1.076e+04 6.470e-10
 37.38091     62.9 1.090e+04 7.145e-10
 37.39158     63.1 1.103e+04 8.009e-10
 37.40139     64.6 1.239e+04 1.193e-09
 37.42011     64.6 1.259e+04 1.310e-09
 37.43972     64.2 1.279e+04 1.478e-09
 37.45932     63.3 1.309e+04 1.768e-09
 37.47892     62.0 1.362e+04 2.302e-09
 37.49853     60.5 1.456e+04 3.398e-09
 37.51813     59.3 1.544e+04 4.781e-09
 37.53278     58.0 1.631e+04 6.067e-09
 37.54254     56.7 1.700e+04 7.532e-09
 37.55234     55.2 1.747e+04 9.308e-09
 37.56214     54.5 1.755e+04 1.093e-08
 37.57194     54.0 1.776e+04 1.260e-08
 37.58174     53.9 1.792e+04 1.321e-08
 37.59650     53.5 1.801e+04 1.348e-08
 37.61615     53.3 1.751e+04 1.163e-08
 37.63163     53.1 1.662e+04 7.853e-09
 37.64143     52.8 1.596e+04 5.879e-09
 37.65536     51.4 1.505e+04 3.678e-09
 37.67496     49.1 1.394e+04 2.262e-09
 37.69456     46.8 1.275e+04 1.571e-09
 37.71417     45.4 1.198e+04 1.250e-09
 37.73377     45.1 1.164e+04 1.117e-09
 37.75337     45.1 1.141e+04 1.031e-09
 37.77298     45.2 1.115e+04 9.481e-10
 37.79030     45.4 1.087e+04 8.567e-10
 37.80010     44.8 1.090e+04 8.790e-10
 37.81218     45.1 1.065e+04 7.976e-10
 37.83179     45.6 1.033e+04 6.828e-10
 37.85139     46.4 9.969e+03 5.577e-10
 37.87100     46.7 9.758e+03 4.478e-10
 37.88148     46.7 9.652e+03 3.973e-10
 37.89128     47.4 9.686e+03 4.321e-10
 37.92010     47.1 9.502e+03 3.506e-10
 37.95941     47.7 9.097e+03 2.664e-10
 37.99861     48.8 8.772e+03 2.231e-10
 38.03782     50.3 8.576e+03 2.016e-10
 38.07703     52.2 8.426e+03 1.827e-10
 38.11192     54.2 8.296e+03 1.615e-10
 38.13152     53.5 8.323e+03 1.644e-10
 38.15544     55.6 8.195e+03 1.422e-10
 38.19465     57.8 8.087e+03 1.270e-10
 38.23386     60.1 8.079e+03 1.259e-10
 38.27306     62.6 8.129e+03 1.313e-10
 38.31227     65.1 8.319e+03 1.534e-10
 38.35148     67.6 8.602e+03 1.891e-10
 38.39069     70.2 8.861e+03 2.271e-10
 38.42989     72.7 9.056e+03 2.570e-10
 38.46910     75.1 9.200e+03 2.776e-10
 38.50831     77.4 9.326e+03 2.913e-10
 38.54751     79.6 9.444e+03 3.066e-10
 38.58672     81.8 9.599e+03 3.299e-10
 38.61162     83.7 9.756e+03 3.605e-10
 38.63122     83.7 9.716e+03 3.609e-10
 38.65524     84.9 9.749e+03 3.732e-10
 38.67474     86.0 9.817e+03 3.845e-10
 38.69435     87.2 9.932e+03 4.069e-10
 38.71395     88.2 1.008e+04 4.356e-10
 38.73355     89.2 1.021e+04 4.654e-10
 38.75316     90.2 1.035e+04 5.005e-10
 38.77276     91.0 1.050e+04 5.430e-10
 38.79236     91.9 1.066e+04 5.908e-10
 38.81197     92.7 1.083e+04 6.431e-10
 38.83157     93.4 1.101e+04 6.990e-10
 38.85117     94.1 1.118e+04 7.600e-10
 38.86127     94.6 1.134e+04 8.263e-10
 38.87107     94.5 1.133e+04 8.140e-10
 38.89038     95.1 1.145e+04 8.745e-10
 38.90999     95.6 1.157e+04 9.403e-10
 38.92959     96.1 1.174e+04 1.027e-09
 38.94919     96.7 1.201e+04 1.162e-09
 38.96880     97.3 1.238e+04 1.359e-09
 38.98840     97.8 1.282e+04 1.631e-09
 39.00800     98.3 1.332e+04 2.003e-09
 39.02448     98.6 1.393e+04 2.523e-09
 39.03428     97.8 1.451e+04 2.957e-09
 39.04721     97.8 1.533e+04 3.743e-09
 39.06681     97.7 1.630e+04 4.937e-09
 39.08642     97.4 1.730e+04 6.639e-09
 39.10132     97.2 1.814e+04 8.745e-09
 39.11112     97.3 1.804e+04 8.382e-09
 39.12562     97.2 1.859e+04 1.027e-08
 39.14523     97.2 1.887e+04 1.167e-08
 39.16483     97.3 1.891e+04 1.209e-08
 39.18444     97.3 1.869e+04 1.189e-08
 39.20404     97.0 1.877e+04 1.088e-08
 39.22364     96.2 1.956e+04 9.806e-09
 39.23830     95.9 1.975e+04 1.009e-08
 39.24805     95.8 1.952e+04 1.044e-08
 39.25785     95.4 1.955e+04 1.046e-08
 39.26765     94.9 1.971e+04 1.044e-08
 39.27745     94.4 1.998e+04 1.039e-08
 39.28726     94.0 2.020e+04 1.058e-08
 39.29706     93.4 2.032e+04 1.081e-08
 39.30686     93.0 2.031e+04 1.090e-08
 39.31666     92.9 2.050e+04 1.131e-08
 39.32646     93.0 2.071e+04 1.151e-08
 39.33537     93.2 2.074e+04 1.083e-08
 39.34028     91.6 2.216e+04 7.976e-09
 39.34607     91.9 2.207e+04 7.131e-09
 39.35107     92.2 2.196e+04 5.822e-09
 39.35597     91.9 2.299e+04 6.307e-09
 39.36567     91.9 2.311e+04 5.184e-09
 39.37547     91.8 2.324e+04 3.813e-09
 39.38527     91.5 2.288e+04 3.101e-09
 39.40003     91.6 2.462e+04 2.211e-09
 39.41968     90.5 2.311e+04 1.354e-09
 39.43928     89.1 1.941e+04 8.278e-10
 39.45889     87.7 1.522e+04 5.027e-10
 39.47849     86.9 1.207e+04 3.504e-10
 39.49809     87.1 1.050e+04 2.920e-10
 39.51770     87.8 9.852e+03 2.718e-10
 39.53730     88.9 9.743e+03 2.718e-10
 39.55690     90.2 9.738e+03 2.785e-10
 39.57651     91.6 9.821e+03 2.942e-10
 39.59121     93.0 9.971e+03 3.089e-10
 39.60102     93.2 9.921e+03 2.954e-10
 39.61571     94.5 1.003e+04 3.029e-10
 39.63532     95.7 1.010e+04 3.053e-10
 39.64647     96.7 1.012e+04 3.032e-10
 39.65627     96.9 1.022e+04 3.398e-10
 39.67453     97.7 1.026e+04 3.426e-10
 39.69413     97.9 1.031e+04 3.475e-10
 39.71373     97.8 1.034e+04 3.535e-10
 39.73334     97.7 1.033e+04 3.552e-10
 39.75294     97.8 1.030e+04 3.563e-10
 39.77254     98.2 1.023e+04 3.539e-10
 39.79215     99.0 1.017e+04 3.474e-10
 39.81175    100.1 1.015e+04 3.377e-10
 39.83126    101.3 1.013e+04 3.250e-10
 39.85087    102.3 1.226e+04 3.320e-10
 39.86561    103.6 1.106e+04 3.140e-10
 39.87536    104.3 1.022e+04 3.099e-10
 39.88517    105.1 1.019e+04 3.003e-10
 39.89497    105.5 1.021e+04 3.000e-10
 39.90477    106.1 1.035e+04 2.996e-10
 39.91457    106.4 1.046e+04 2.999e-10
 39.92437    106.5 1.082e+04 3.036e-10
 39.93418    106.6 1.109e+04 3.061e-10
 39.94398    106.5 1.140e+04 3.153e-10
 39.95246    106.5 1.159e+04 3.247e-10
 39.95736    103.2 2.667e+04 3.989e-10
 39.96099    102.5 2.661e+04 4.828e-10
 39.96589     99.3 4.566e+04 1.426e-09
 39.97338     98.2 4.167e+04 1.885e-09
 39.98318     96.5 3.768e+04 2.625e-09
 39.99299     94.3 3.395e+04 3.839e-09
 40.00279     92.1 3.091e+04 5.780e-09
 40.01259     90.5 2.846e+04 8.536e-09
 40.02239     89.6 2.666e+04 1.230e-08
 40.03219     89.3 2.558e+04 1.759e-08
 40.04199     89.1 2.509e+04 2.500e-08
 40.05180     88.9 2.514e+04 3.479e-08
 40.06160     88.9 2.570e+04 4.534e-08
 40.07140     88.8 2.628e+04 5.416e-08
 40.08101     88.8 2.688e+04 5.668e-08
 40.08591     87.7 2.819e+04 6.024e-08
 40.09100     87.6 2.898e+04 4.675e-08
 40.10081     87.1 2.989e+04 3.415e-08
 40.11061     86.4 3.042e+04 2.423e-08
 40.12041     85.2 3.061e+04 1.781e-08
 40.13021     84.1 2.910e+04 1.413e-08
 40.14001     83.4 2.712e+04 1.184e-08
 40.14981     83.2 2.537e+04 1.028e-08
 40.16457     83.8 2.472e+04 9.457e-09
 40.18422     83.2 2.233e+04 7.270e-09
 40.20382     82.6 1.999e+04 5.691e-09
 40.22343     82.5 1.856e+04 4.740e-09
 40.24303     82.9 1.757e+04 4.114e-09
 40.25866     83.7 1.653e+04 3.651e-09
 40.26846     82.2 1.410e+04 2.806e-09
 40.28224     83.3 1.364e+04 2.561e-09
 40.30184     84.6 1.335e+04 2.355e-09
 40.32116     85.9 1.323e+04 2.169e-09
 40.33096     84.6 1.336e+04 1.746e-09
 40.34105     85.3 1.370e+04 1.651e-09
 40.36065     85.7 1.396e+04 1.595e-09
 40.38025     86.0 1.399e+04 1.550e-09
 40.39986     86.2 1.376e+04 1.494e-09
 40.41946     86.6 1.331e+04 1.418e-09
 40.43906     87.2 1.279e+04 1.321e-09
 40.45867     87.8 1.236e+04 1.209e-09
 40.47827     88.5 1.205e+04 1.089e-09
 40.49788     89.2 1.180e+04 9.643e-10
 40.51748     89.7 1.157e+04 8.438e-10
 40.53708     90.2 1.134e+04 7.316e-10
 40.55669     90.6 1.108e+04 6.328e-10
 40.57101     90.9 1.080e+04 5.502e-10
 40.58081     88.4 1.101e+04 5.501e-10
 40.59589     88.6 1.085e+04 4.926e-10
 40.61550     88.9 1.076e+04 4.564e-10
 40.63510     89.1 1.071e+04 4.386e-10
 40.65470     89.4 1.059e+04 4.409e-10
 40.67431     89.8 1.051e+04 4.434e-10
 40.69391     90.2 1.046e+04 4.461e-10
 40.71352     90.7 1.044e+04 4.532e-10
 40.73312     91.1 1.048e+04 4.632e-10
 40.75272     91.4 1.054e+04 4.762e-10
 40.77233     91.7 1.060e+04 4.751e-10
 40.79193     92.0 1.057e+04 4.670e-10
 40.81105     92.1 1.048e+04 4.480e-10
 40.82086     90.9 1.078e+04 4.907e-10
 40.83114     91.2 1.052e+04 4.363e-10
 40.85074     91.3 1.031e+04 3.878e-10
 40.87034     91.6 1.016e+04 3.517e-10
 40.89985     92.0 1.012e+04 3.173e-10
 40.93915     92.4 9.785e+03 2.731e-10
 40.97836     92.7 9.470e+03 2.394e-10
 41.01757     93.4 9.361e+03 2.291e-10
 41.05130     94.3 9.383e+03 2.325e-10
 41.07090     93.6 9.479e+03 2.449e-10
 41.09598     94.8 9.675e+03 2.709e-10
 41.13519     95.9 9.959e+03 3.126e-10
 41.17439     96.5 1.020e+04 3.539e-10
 41.21360     96.6 1.024e+04 3.811e-10
 41.24291     96.6 1.018e+04 3.979e-10
 41.26242     97.3 1.025e+04 4.289e-10
 41.28202     98.2 1.047e+04 4.914e-10
 41.30095     98.8 1.071e+04 5.488e-10
 41.31075     99.3 1.071e+04 5.486e-10
 41.32123     99.6 1.091e+04 5.932e-10
 41.34083     99.8 1.101e+04 6.108e-10
 41.36043     99.8 1.104e+04 6.116e-10
 41.38004     99.8 1.104e+04 6.012e-10
 41.39964     99.7 1.103e+04 5.793e-10
 41.41924     99.6 1.106e+04 5.676e-10
 41.43885     99.2 1.110e+04 5.703e-10
 41.45845     98.6 1.124e+04 5.893e-10
 41.47805     97.5 1.168e+04 6.751e-10
 41.49283     96.1 1.239e+04 8.992e-10
 41.50264     95.9 1.224e+04 8.613e-10
 41.51726     94.8 1.306e+04 1.211e-09
 41.53687     94.0 1.368e+04 1.646e-09
 41.55080     93.6 1.406e+04 1.987e-09
 41.56060     96.4 1.399e+04 1.775e-09
 41.57607     96.0 1.421e+04 1.954e-09
 41.59568     95.3 1.424e+04 1.957e-09
 41.61528     94.1 1.437e+04 1.926e-09
 41.63488     92.0 1.468e+04 1.909e-09
 41.65449     89.1 1.541e+04 1.952e-09
 41.67409     86.3 1.553e+04 2.173e-09
 41.69369     84.5 1.490e+04 2.412e-09
 41.71330     83.9 1.441e+04 2.518e-09
 41.73290     83.8 1.411e+04 2.541e-09
 41.75251     83.8 1.390e+04 2.470e-09
 41.77211     83.8 1.364e+04 2.241e-09
 41.79085     83.8 1.328e+04 1.922e-09
 41.80065     85.1 1.323e+04 1.972e-09
 41.81132     85.2 1.298e+04 1.704e-09
 41.83092     85.2 1.274e+04 1.401e-09
 41.85052     85.0 1.258e+04 1.119e-09
 41.87013     84.5 1.251e+04 8.803e-10
 41.88973     83.6 1.248e+04 7.184e-10
 41.90933     82.8 1.252e+04 6.885e-10
 41.92894     82.4 1.258e+04 6.968e-10
 41.94854     82.0 1.281e+04 7.428e-10
 41.96814     81.5 1.330e+04 8.660e-10
 41.98775     80.8 1.402e+04 1.102e-09
 42.00735     80.0 1.476e+04 1.501e-09
 42.02696     79.2 1.527e+04 2.084e-09
 42.04069     78.9 1.566e+04 2.835e-09
 42.05050     78.6 1.546e+04 2.999e-09
 42.06616     78.7 1.617e+04 3.882e-09
 42.08577     79.0 1.677e+04 4.424e-09
 42.10502     79.2 1.690e+04 4.411e-09
 42.11482     78.9 1.678e+04 4.250e-09
 42.12497     78.9 1.682e+04 4.060e-09
 42.14458     78.8 1.666e+04 3.440e-09
 42.16418     78.2 1.605e+04 2.663e-09
 42.18378     76.9 1.509e+04 2.004e-09
 42.20339     75.5 1.414e+04 1.587e-09
 42.22299     74.5 1.380e+04 1.400e-09
 42.24259     74.0 1.378e+04 1.336e-09
 42.26220     73.6 1.373e+04 1.299e-09
 42.28074     73.3 1.368e+04 1.275e-09
 42.29054     73.0 1.366e+04 1.143e-09
 42.31130     72.3 1.366e+04 1.187e-09
 42.34071     70.7 1.376e+04 1.238e-09
 42.36022     70.1 1.381e+04 1.316e-09
 42.37982     69.6 1.385e+04 1.352e-09
 42.39942     69.0 1.382e+04 1.338e-09
 42.41903     68.5 1.371e+04 1.281e-09
 42.43863     67.9 1.354e+04 1.182e-09
 42.45823     67.5 1.326e+04 1.037e-09
 42.47784     67.1 1.288e+04 8.536e-10
 42.49744     66.8 1.240e+04 6.597e-10
 42.51704     66.5 1.192e+04 4.813e-10
 42.53059     65.7 1.153e+04 3.522e-10
 42.54039     64.9 1.182e+04 4.739e-10
 42.55625     64.1 1.135e+04 3.621e-10
 42.57586     62.8 1.111e+04 3.118e-10
 42.59546     62.8 1.098e+04 3.017e-10
 42.61506     62.0 1.112e+04 3.148e-10
 42.63467     62.0 1.118e+04 3.248e-10
 42.66417     60.9 1.118e+04 3.404e-10
 42.70347     59.8 1.130e+04 3.522e-10
 42.72721     57.8 1.147e+04 3.531e-10
 42.74681     59.4 1.107e+04 2.872e-10
 42.78189     56.9 1.133e+04 3.141e-10
 42.81120     54.7 1.127e+04 3.497e-10
 42.83070     53.4 1.140e+04 4.306e-10
 42.85031     52.1 1.192e+04 5.837e-10
 42.86991     50.6 1.260e+04 8.360e-10
 42.88951     49.1 1.347e+04 1.243e-09
 42.90912     47.7 1.427e+04 1.744e-09
 42.92872     45.9 1.503e+04 2.186e-09
 42.94832     43.2 1.568e+04 2.497e-09
 42.96793     39.8 1.599e+04 2.664e-09
 42.98753     36.4 1.584e+04 2.709e-09
 43.00713     33.6 1.552e+04 2.641e-09
 43.02049     31.3 1.529e+04 2.573e-09
 43.03029     29.3 1.577e+04 2.735e-09
 43.04634     26.4 1.606e+04 2.854e-09
 43.06595     23.4 1.654e+04 3.220e-09
 43.08555     21.0 1.669e+04 3.710e-09
 43.10515     19.1 1.673e+04 4.313e-09
 43.12476     17.6 1.687e+04 4.940e-09
 43.14436     16.5 1.698e+04 5.357e-09
 43.16396     15.6 1.705e+04 5.451e-09
 43.18357     14.5 1.717e+04 5.327e-09
 43.20317     13.0 1.719e+04 5.028e-09
 43.22277     11.4 1.713e+04 4.692e-09
 43.24238      9.6 1.706e+04 4.597e-09
 43.26053      6.6 1.724e+04 4.828e-09
 43.27034      2.7 1.746e+04 4.453e-09
 43.28158     -1.6 1.771e+04 5.228e-09
 43.30119     -5.2 1.815e+04 6.332e-09
 43.32079     -7.5 1.829e+04 6.856e-09
 43.33920     -9.0 1.801e+04 6.116e-09
 43.34900     -8.0 1.805e+04 6.215e-09
 43.36000     -9.9 1.786e+04 5.780e-09
 43.37960    -12.3 1.756e+04 4.954e-09
 43.39921    -15.2 1.710e+04 4.053e-09
 43.41881    -17.8 1.653e+04 3.390e-09
 43.43841    -19.9 1.604e+04 3.131e-09
 43.45802    -21.1 1.586e+04 3.251e-09
 43.47762    -21.9 1.613e+04 3.601e-09
 43.49722    -22.7 1.665e+04 4.106e-09
 43.51038    -23.7 1.711e+04 4.700e-09
 43.52018    -27.9 1.719e+04 4.859e-09
 43.53643    -28.6 1.726e+04 5.373e-09
 43.55603    -28.8 1.714e+04 5.768e-09
 43.57564    -28.8 1.706e+04 6.048e-09
 43.59524    -28.6 1.691e+04 5.885e-09
 43.61485    -28.3 1.670e+04 5.233e-09
 43.63445    -28.1 1.644e+04 4.281e-09
 43.65405    -28.5 1.587e+04 3.225e-09
 43.67366    -29.6 1.472e+04 2.282e-09
 43.69326    -30.6 1.346e+04 1.647e-09
 43.71286    -31.1 1.292e+04 1.365e-09
 43.73247    -31.2 1.285e+04 1.260e-09
 43.75043    -31.4 1.286e+04 1.193e-09
 43.76023    -34.5 1.261e+04 1.075e-09
 43.77167    -35.0 1.268e+04 1.094e-09
 43.79128    -35.6 1.295e+04 1.157e-09
 43.81088    -36.3 1.343e+04 1.249e-09
 43.83049    -37.0 1.383e+04 1.305e-09
 43.85009    -37.8 1.388e+04 1.291e-09
 43.86969    -38.3 1.341e+04 1.089e-09
 43.88930    -38.6 1.267e+04 8.512e-10
 43.90890    -38.6 1.191e+04 6.183e-10
 43.92850    -38.5 1.120e+04 4.298e-10
 43.94811    -38.5 1.078e+04 3.166e-10
 43.96119    -39.0 1.068e+04 2.779e-10
 43.97099    -38.1 1.100e+04 3.090e-10
 43.98731    -38.4 1.100e+04 2.915e-10
 44.00028    -38.1 1.138e+04 3.030e-10
 44.01008    -39.8 1.137e+04 3.085e-10
 44.03642    -43.7 1.128e+04 2.986e-10
 44.07573    -46.0 1.134e+04 3.419e-10
 44.10503    -47.1 1.170e+04 5.170e-10
 44.12454    -47.3 1.178e+04 5.523e-10
 44.14414    -48.0 1.191e+04 7.549e-10
 44.16375    -45.7 1.252e+04 9.660e-10
 44.18335    -45.2 1.289e+04 1.098e-09
 44.20295    -45.1 1.325e+04 1.185e-09
 44.22256    -46.4 1.436e+04 1.355e-09
 44.24033    -51.6 1.738e+04 2.270e-09
 44.25013    -51.7 1.750e+04 2.594e-09
 44.26176    -56.5 1.901e+04 5.255e-09
 44.28137    -58.7 1.960e+04 9.583e-09
 44.30097    -59.4 2.043e+04 1.420e-08
 44.32057    -60.3 2.094e+04 1.586e-08
 44.34018    -61.9 2.083e+04 1.313e-08
 44.35978    -64.8 2.015e+04 7.311e-09
 44.37939    -69.7 1.831e+04 3.978e-09
 44.39899    -73.8 1.702e+04 3.147e-09
 44.41859    -75.5 1.693e+04 3.099e-09
 44.43820    -77.1 1.793e+04 4.001e-09
 44.45780    -78.1 1.898e+04 5.422e-09
 44.47740    -78.5 1.972e+04 6.925e-09
 44.49017    -78.7 2.015e+04 8.299e-09
 44.49998    -77.8 1.995e+04 9.281e-09
 44.51661    -77.9 2.013e+04 1.003e-08
 44.53621    -78.0 2.018e+04 1.020e-08
 44.55582    -78.3 2.017e+04 9.985e-09
 44.57338    -78.9 2.013e+04 9.424e-09
 44.58318    -80.3 2.044e+04 9.966e-09
 44.59502    -80.9 2.025e+04 8.879e-09
 44.61463    -81.6 1.984e+04 7.766e-09
 44.63423    -82.1 1.928e+04 6.845e-09
 44.65384    -82.5 1.880e+04 6.204e-09
 44.67344    -82.8 1.838e+04 5.594e-09
 44.69304    -83.2 1.795e+04 4.871e-09
 44.71265    -83.8 1.748e+04 4.079e-09
 44.73022    -84.7 1.690e+04 3.299e-09
 44.74002    -84.4 1.632e+04 3.099e-09
 44.75185    -85.3 1.611e+04 2.842e-09
 44.77146    -86.0 1.575e+04 2.714e-09
 44.79106    -86.5 1.556e+04 2.598e-09
 44.81066    -86.7 1.535e+04 2.347e-09
 44.83027    -86.8 1.508e+04 1.991e-09
 44.84987    -87.1 1.470e+04 1.595e-09
 44.86947    -87.7 1.420e+04 1.232e-09
 44.88908    -88.8 1.361e+04 9.652e-10
 44.90868    -89.8 1.309e+04 8.198e-10
 44.92829    -90.8 1.265e+04 7.649e-10
 44.94789    -91.4 1.240e+04 7.731e-10
 44.96749    -91.5 1.231e+04 8.519e-10
 44.98007    -91.3 1.228e+04 9.299e-10
 44.98987    -90.8 1.298e+04 1.225e-09
 45.00670    -90.7 1.275e+04 1.211e-09
 45.02630    -90.4 1.253e+04 1.159e-09
 45.04591    -90.2 1.225e+04 1.055e-09
 45.06551    -90.0 1.194e+04 9.166e-10
 45.08511    -90.0 1.163e+04 7.814e-10
 45.10472    -90.2 1.138e+04 6.737e-10
 45.12432    -90.6 1.117e+04 5.965e-10
 45.14393    -91.1 1.101e+04 5.471e-10
 45.16353    -91.6 1.095e+04 5.324e-10
 45.18313    -92.0 1.094e+04 5.334e-10
 45.19537    -92.6 1.115e+04 5.950e-10
 45.20517    -90.5 1.029e+04 3.858e-10
 45.22012    -90.9 1.057e+04 4.479e-10
 45.22992    -91.1 1.042e+04 4.147e-10
 45.24194    -91.6 1.093e+04 5.365e-10
 45.26155    -92.1 1.157e+04 7.324e-10
 45.28115    -92.2 1.226e+04 1.013e-09
 45.30075    -92.2 1.291e+04 1.380e-09
 45.32036    -92.0 1.347e+04 1.795e-09
 45.33996    -91.7 1.396e+04 2.192e-09
 45.35956    -91.5 1.438e+04 2.487e-09
 45.37917    -91.4 1.475e+04 2.618e-09
 45.39877    -91.6 1.496e+04 2.642e-09
 45.41838    -92.3 1.520e+04 2.527e-09
 45.43798    -93.3 1.507e+04 2.250e-09
 45.45758    -94.4 1.479e+04 2.061e-09
 45.46997    -95.2 1.468e+04 1.974e-09
 45.47977    -95.5 1.483e+04 2.142e-09
 45.49679    -95.9 1.481e+04 2.153e-09
 45.51639    -96.0 1.479e+04 2.162e-09
 45.53600    -96.0 1.463e+04 2.137e-09
 45.55560    -95.9 1.436e+04 2.055e-09
 45.57520    -95.8 1.405e+04 1.975e-09
 45.59481    -95.7 1.383e+04 1.917e-09
 45.61441    -95.4 1.380e+04 1.875e-09
 45.63401    -95.0 1.386e+04 1.847e-09
 45.65362    -94.6 1.391e+04 1.809e-09
 45.67322    -94.1 1.389e+04 1.751e-09
 45.69283    -93.4 1.376e+04 1.666e-09
 45.71001    -92.7 1.360e+04 1.555e-09
 45.71982    -92.8 1.358e+04 1.576e-09
 45.73203    -92.0 1.335e+04 1.469e-09
 45.75164    -91.1 1.307e+04 1.337e-09
 45.77124    -90.0 1.276e+04 1.181e-09
 45.79084    -89.1 1.247e+04 1.006e-09
 45.80756    -88.3 1.217e+04 8.383e-10
 45.81736    -86.6 1.266e+04 1.068e-09
 45.83005    -85.8 1.241e+04 9.331e-10
 45.84965    -85.0 1.213e+04 8.004e-10
 45.86926    -84.2 1.189e+04 6.951e-10
 45.88886    -83.6 1.168e+04 6.192e-10
 45.90846    -82.9 1.150e+04 5.687e-10
 45.92807    -82.2 1.142e+04 5.443e-10
 45.94767    -81.5 1.141e+04 5.405e-10
 45.95986    -80.9 1.149e+04 5.605e-10
 45.96966    -80.8 1.130e+04 5.194e-10
 45.98688    -80.4 1.141e+04 5.526e-10
 46.00648    -80.1 1.156e+04 6.135e-10
 46.02609    -79.8 1.180e+04 7.136e-10
 46.04569    -79.6 1.218e+04 8.707e-10
 46.06529    -79.5 1.270e+04 1.103e-09
 46.08490    -79.6 1.332e+04 1.433e-09
 46.10450    -79.7 1.394e+04 1.860e-09
 46.12410    -79.7 1.446e+04 2.369e-09
 46.14371    -79.6 1.485e+04 2.848e-09
 46.16331    -79.5 1.500e+04 3.075e-09
 46.18292    -79.4 1.498e+04 3.092e-09
 46.19991    -79.2 1.466e+04 2.649e-09
 46.20971    -78.7 1.462e+04 2.692e-09
 46.22212    -78.6 1.404e+04 1.979e-09
 46.24173    -79.1 1.337e+04 1.428e-09
 46.26133    -79.9 1.266e+04 1.068e-09
 46.28093    -80.2 1.209e+04 8.489e-10
 46.30054    -80.3 1.169e+04 7.109e-10
 46.32014    -80.2 1.140e+04 6.142e-10
 46.33974    -79.9 1.116e+04 5.446e-10
 46.35935    -79.6 1.100e+04 4.977e-10
 46.37895    -79.2 1.095e+04 4.714e-10
 46.39855    -78.9 1.099e+04 4.622e-10
 46.41984    -79.8 1.104e+04 4.363e-10
 46.43954    -76.6 1.146e+04 5.268e-10
 46.44995    -76.0 1.134e+04 5.247e-10
 46.46956    -74.2 1.130e+04 5.465e-10
 46.50657    -73.6 1.115e+04 4.923e-10
 46.53588    -74.6 1.094e+04 4.514e-10
 46.55538    -74.4 1.087e+04 4.651e-10
 46.57499    -74.3 1.078e+04 4.863e-10
 46.59459    -74.0 1.084e+04 5.234e-10
 46.61419    -73.7 1.085e+04 5.575e-10
 46.63380    -73.4 1.091e+04 5.977e-10
 46.65340    -72.9 1.095e+04 6.428e-10
 46.67300    -72.5 1.104e+04 6.897e-10
 46.68981    -72.3 1.142e+04 7.786e-10
 46.69961    -71.1 1.093e+04 6.295e-10
 46.71221    -73.8 1.333e+04 7.306e-10
 46.73182    -83.9 2.482e+04 1.578e-09
 46.75142    -92.0 2.516e+04 8.311e-09
 46.76607    -94.5 2.379e+04 1.774e-08
 46.77583    -95.0 2.252e+04 3.367e-08
 46.78563    -95.0 2.194e+04 5.358e-08
 46.79543    -94.9 2.208e+04 6.909e-08
 46.80523    -94.9 2.238e+04 7.323e-08
 46.81463    -96.0 2.264e+04 7.145e-08
 46.81953    -95.2 2.287e+04 7.514e-08
 46.82483    -96.8 2.345e+04 4.975e-08
 46.83464    -99.8 2.389e+04 2.679e-08
 46.84444   -104.1 2.347e+04 1.620e-08
 46.85424   -108.5 2.243e+04 1.241e-08
 46.86899   -112.9 2.101e+04 1.039e-08
 46.88864   -116.2 1.933e+04 9.652e-09
 46.90825   -117.8 1.900e+04 9.638e-09
 46.92785   -118.4 1.900e+04 1.059e-08
 46.93961   -118.1 1.932e+04 1.257e-08
 46.94941   -118.1 1.888e+04 1.068e-08
 46.96706   -118.4 1.874e+04 1.044e-08
 46.98666   -118.7 1.823e+04 9.194e-09
 47.00627   -118.8 1.757e+04 7.580e-09
 47.02587   -118.8 1.682e+04 5.961e-09
 47.04174   -118.8 1.581e+04 4.259e-09
 47.05154   -118.3 1.761e+04 7.962e-09
 47.06508   -118.3 1.642e+04 5.185e-09
 47.08468   -118.3 1.522e+04 3.374e-09
 47.10428   -118.3 1.410e+04 2.255e-09
 47.12389   -118.3 1.309e+04 1.570e-09
 47.14349   -118.2 1.225e+04 1.140e-09
 47.16309   -117.8 1.157e+04 8.624e-10
 47.17970   -117.2 1.101e+04 6.752e-10
 47.18950   -116.4 1.131e+04 7.855e-10
 47.20230   -115.6 1.081e+04 6.199e-10
 47.22191   -114.5 1.041e+04 4.960e-10
 47.24151   -113.0 1.011e+04 4.041e-10
 47.26111   -111.5 9.973e+03 3.473e-10
 47.29062   -110.4 9.932e+03 3.109e-10
 47.32992   -109.0 9.817e+03 2.824e-10
 47.36913   -107.2 9.705e+03 2.619e-10
 47.40833   -105.1 9.678e+03 2.583e-10
 47.42975   -103.2 9.764e+03 2.705e-10
 47.44935   -101.8 9.741e+03 2.699e-10
 47.48675    -99.9 1.000e+04 3.257e-10
 47.51606    -99.2 1.024e+04 4.215e-10
 47.53556    -98.5 1.047e+04 5.379e-10
 47.55517    -97.3 1.082e+04 7.374e-10
 47.57477    -95.9 1.115e+04 8.987e-10
 47.59437    -94.7 1.140e+04 1.008e-09
 47.61398    -93.6 1.152e+04 1.068e-09
 47.63358    -92.5 1.156e+04 1.085e-09
 47.65318    -91.4 1.150e+04 1.063e-09
 47.66373    -90.2 1.138e+04 1.003e-09
 47.67034    -90.7 1.136e+04 9.962e-10
 47.67940    -90.3 1.135e+04 9.806e-10
 47.69239    -89.1 1.121e+04 9.103e-10
 47.71199    -87.8 1.104e+04 8.208e-10
 47.73160    -86.6 1.084e+04 7.013e-10
 47.75120    -85.5 1.062e+04 5.753e-10
 47.77081    -84.7 1.047e+04 5.109e-10
 47.80031    -83.7 1.023e+04 4.359e-10
 47.83961    -81.0 9.948e+03 3.584e-10
 47.87882    -78.3 9.604e+03 2.818e-10
 47.90984    -75.8 9.357e+03 2.283e-10
 47.92944    -75.2 9.139e+03 1.736e-10
 47.95723    -73.0 8.908e+03 1.407e-10
 47.99644    -70.9 8.774e+03 1.261e-10
 48.03565    -69.0 8.944e+03 1.541e-10
 48.07486    -67.1 9.323e+03 2.171e-10
 48.11406    -65.2 9.769e+03 3.043e-10
 48.15327    -63.3 1.018e+04 4.081e-10
 48.18258    -61.8 1.024e+04 4.754e-10
 48.20208    -60.7 1.038e+04 5.542e-10
 48.22169    -59.4 1.054e+04 6.351e-10
 48.24129    -58.5 1.067e+04 6.676e-10
 48.26089    -57.7 1.071e+04 6.810e-10
 48.27591    -56.9 1.073e+04 6.748e-10
 48.28572    -58.1 1.058e+04 5.954e-10
 48.30010    -57.6 1.058e+04 5.752e-10
 48.31971    -57.3 1.059e+04 5.634e-10
 48.33931    -57.1 1.061e+04 5.597e-10
 48.35891    -57.0 1.066e+04 5.873e-10
 48.37852    -57.1 1.077e+04 6.528e-10
 48.39812    -57.0 1.099e+04 7.669e-10
 48.40934    -56.9 1.132e+04 9.386e-10
 48.41914    -57.2 1.097e+04 7.816e-10
 48.43733    -56.9 1.133e+04 9.664e-10
 48.45693    -56.7 1.181e+04 1.205e-09
 48.47653    -56.7 1.243e+04 1.568e-09
 48.49614    -57.3 1.331e+04 2.047e-09
 48.51574    -58.5 1.427e+04 2.727e-09
 48.53535    -59.8 1.507e+04 3.612e-09
 48.55495    -60.8 1.559e+04 4.544e-09
 48.57455    -61.4 1.584e+04 5.171e-09
 48.59416    -61.8 1.592e+04 5.384e-09
 48.61376    -62.2 1.574e+04 4.790e-09
 48.63336    -63.0 1.548e+04 4.108e-09
 48.64939    -64.2 1.514e+04 3.325e-09
 48.65919    -63.5 1.554e+04 4.055e-09
 48.67257    -64.7 1.504e+04 3.202e-09
 48.69217    -66.1 1.431e+04 2.447e-09
 48.71178    -67.4 1.349e+04 1.940e-09
 48.73138    -68.5 1.309e+04 1.689e-09
 48.75098    -69.5 1.310e+04 1.615e-09
 48.77059    -71.2 1.394e+04 1.931e-09
 48.79019    -73.3 1.509e+04 2.348e-09
 48.80980    -75.4 1.563e+04 3.001e-09
 48.82940    -77.0 1.561e+04 3.632e-09
 48.84900    -77.9 1.533e+04 3.955e-09
 48.86861    -78.3 1.507e+04 4.018e-09
 48.88810    -78.3 1.445e+04 3.445e-09
 48.89790    -79.5 1.441e+04 3.278e-09
 48.89924    -80.6 1.395e+04 2.224e-09
 48.90904    -81.1 1.417e+04 2.197e-09
 48.92742    -84.5 1.357e+04 1.383e-09
 48.94702    -88.2 1.268e+04 1.073e-09
 48.96662    -91.2 1.221e+04 1.012e-09
 48.98623    -93.4 1.197e+04 1.065e-09
 49.00583    -95.3 1.229e+04 1.424e-09
 49.02543    -96.7 1.290e+04 1.827e-09
 49.04504    -98.1 1.342e+04 2.234e-09
 49.06464    -99.5 1.386e+04 2.604e-09
 49.08425   -101.3 1.428e+04 2.927e-09
 49.10385   -104.3 1.502e+04 3.324e-09
 49.12345   -109.1 1.645e+04 4.192e-09
 49.13929   -115.3 1.835e+04 6.347e-09
 49.14909   -115.9 1.748e+04 5.951e-09
 49.16266   -121.0 1.845e+04 8.388e-09
 49.18226   -125.6 1.892e+04 1.089e-08
 49.20187   -129.5 1.897e+04 1.190e-08
 49.22147   -132.3 1.851e+04 1.155e-08
 49.24107   -134.2 1.742e+04 8.633e-09
 49.26068   -135.6 1.610e+04 5.615e-09
 49.28028   -136.2 1.476e+04 3.628e-09
 49.29988   -136.5 1.355e+04 2.292e-09
 49.31949   -136.6 1.229e+04 1.366e-09
 49.33909   -136.9 1.117e+04 8.427e-10
 49.35870   -136.8 1.038e+04 5.787e-10
 49.37830   -136.5 9.847e+03 4.471e-10
 49.38913   -135.3 9.512e+03 3.881e-10
 49.39894   -134.3 9.821e+03 4.391e-10
 49.41751   -133.4 9.599e+03 3.862e-10
 49.43711   -132.4 9.434e+03 3.677e-10
 49.45671   -131.4 9.372e+03 3.631e-10
 49.47632   -130.2 9.358e+03 3.635e-10
 49.49592   -129.1 9.396e+03 3.776e-10
 49.51009   -128.0 9.536e+03 4.038e-10
 49.51989   -127.1 9.588e+03 4.005e-10
 49.53513   -126.4 9.769e+03 4.466e-10
 49.56463   -125.6 1.002e+04 5.118e-10
 49.59404   -123.3 1.017e+04 5.780e-10
 49.61354   -122.3 1.028e+04 6.147e-10
 49.62918   -121.0 1.041e+04 6.651e-10
 49.63898   -121.0 1.070e+04 7.841e-10
 49.65275   -119.9 1.082e+04 8.405e-10
 49.67235   -118.7 1.092e+04 8.913e-10
 49.69196   -117.5 1.101e+04 9.375e-10
 49.71156   -116.3 1.109e+04 9.761e-10
 49.73116   -115.1 1.114e+04 1.005e-09
 49.75077   -114.0 1.116e+04 1.022e-09
 49.77037   -112.8 1.117e+04 1.025e-09
 49.78997   -111.6 1.114e+04 1.020e-09
 49.80958   -110.3 1.108e+04 1.001e-09
 49.82918   -109.0 1.099e+04 9.686e-10
 49.84879   -107.6 1.088e+04 9.264e-10
 49.86839   -106.3 1.076e+04 8.749e-10
 49.87903   -104.8 1.063e+04 8.167e-10
 49.88883   -104.9 1.077e+04 9.055e-10
 49.90760   -103.3 1.064e+04 8.384e-10
 49.92720   -101.8 1.051e+04 7.727e-10
 49.94680   -100.3 1.036e+04 7.024e-10
 49.96641    -98.7 1.020e+04 6.309e-10
 49.98601    -97.1 1.005e+04 5.641e-10
 50.00561    -95.6 9.915e+03 5.091e-10
 50.02522    -94.0 9.773e+03 4.561e-10
 50.04482    -92.4 9.636e+03 4.084e-10
 50.07432    -90.7 9.580e+03 3.776e-10
 50.11267    -87.9 9.476e+03 3.498e-10
 50.13218    -87.0 9.636e+03 3.991e-10
 50.15274    -85.2 9.582e+03 3.802e-10
 50.19204    -82.3 9.422e+03 3.454e-10
 50.23125    -79.5 9.296e+03 3.218e-10
 50.27046    -76.6 9.256e+03 3.143e-10
 50.30966    -73.6 9.244e+03 3.129e-10
 50.34887    -70.7 9.344e+03 3.346e-10
 50.36912    -67.7 9.461e+03 3.708e-10
 50.38873    -67.6 9.363e+03 3.405e-10
 50.42729    -64.4 9.405e+03 3.460e-10
 50.46649    -61.2 9.507e+03 3.655e-10
 50.50570    -58.1 9.600e+03 3.794e-10
 50.54491    -54.9 9.679e+03 3.862e-10
 50.58411    -52.0 9.781e+03 3.957e-10
 50.62332    -49.2 9.900e+03 4.125e-10
 50.66253    -46.4 9.980e+03 4.398e-10
 50.70174    -43.6 1.012e+04 4.849e-10
 50.74094    -41.0 1.029e+04 5.457e-10
 50.78015    -38.6 1.051e+04 6.408e-10
 50.81936    -36.3 1.076e+04 7.700e-10
 50.84922    -33.9 1.097e+04 9.004e-10
 50.86882    -34.6 1.077e+04 8.027e-10
 50.89777    -32.2 1.073e+04 8.113e-10
 50.93698    -29.4 1.054e+04 7.467e-10
 50.97619    -26.3 1.027e+04 6.132e-10
 51.01539    -23.3 9.755e+03 4.217e-10
 51.05460    -20.3 9.515e+03 3.094e-10
 51.09381    -17.7 9.280e+03 2.362e-10
 51.13302    -14.8 9.066e+03 2.000e-10
 51.17222    -11.4 9.010e+03 1.938e-10
 51.21143     -8.2 9.034e+03 2.068e-10
 51.25064     -4.6 9.197e+03 2.308e-10
 51.28984     -1.3 9.351e+03 2.713e-10
 51.32905      2.0 9.835e+03 3.409e-10
 51.34882      3.9 9.822e+03 3.694e-10
 51.35682      3.7 9.729e+03 3.567e-10
 51.37626      3.4 9.797e+03 3.920e-10
 51.39757      5.6 9.690e+03 4.060e-10
 51.41707      6.9 9.839e+03 4.507e-10
 51.43668      8.6 1.003e+04 5.047e-10
 51.45628     10.2 1.024e+04 5.504e-10
 51.47588     11.6 1.045e+04 5.929e-10
 51.49549     12.6 1.061e+04 6.298e-10
 51.51509     13.3 1.085e+04 6.965e-10
 51.53469     13.7 1.125e+04 8.278e-10
 51.55430     14.1 1.170e+04 1.020e-09
 51.57390     14.6 1.204e+04 1.253e-09
 51.58877     15.5 1.233e+04 1.516e-09
 51.59857     14.9 1.127e+04 1.029e-09
 51.61311     16.1 1.153e+04 1.204e-09
 51.63271     17.4 1.179e+04 1.331e-09
 51.65231     18.7 1.201e+04 1.367e-09
 51.67192     19.7 1.214e+04 1.334e-09
 51.69152     20.3 1.227e+04 1.286e-09
 51.71113     20.4 1.239e+04 1.315e-09
 51.73073     20.3 1.257e+04 1.450e-09
 51.75033     20.5 1.285e+04 1.681e-09
 51.76994     21.2 1.337e+04 2.098e-09
 51.78954     22.3 1.393e+04 2.706e-09
 51.80914     23.2 1.431e+04 3.159e-09
 51.82380     23.2 1.476e+04 3.316e-09
 51.83355     23.2 1.500e+04 3.441e-09
 51.83852     22.6 1.603e+04 4.128e-09
 51.84342     22.7 1.565e+04 3.578e-09
 51.85315     22.4 1.626e+04 4.012e-09
 51.86296     21.3 1.771e+04 4.826e-09
 51.87276     19.8 1.993e+04 6.244e-09
 51.88256     17.7 2.186e+04 8.795e-09
 51.89236     16.5 2.224e+04 1.135e-08
 51.90216     15.3 2.188e+04 1.404e-08
 51.91196     14.7 2.118e+04 1.658e-08
 51.92177     14.6 2.076e+04 1.944e-08
 51.93157     14.8 2.052e+04 2.224e-08
 51.94137     15.2 2.043e+04 2.454e-08
 51.95117     15.7 2.035e+04 2.580e-08
 51.95854     16.1 2.034e+04 2.647e-08
 51.96344     15.9 2.002e+04 2.191e-08
 51.97078     16.5 2.020e+04 2.286e-08
 51.97835     16.5 2.078e+04 2.515e-08
 51.98325     15.8 2.199e+04 3.015e-08
 51.99038     15.4 2.264e+04 3.047e-08
 52.00018     14.5 2.320e+04 3.232e-08
 52.00998     13.6 2.334e+04 3.437e-08
 52.01978     12.3 2.361e+04 3.609e-08
 52.02959     11.2 2.370e+04 3.768e-08
 52.03939     10.3 2.333e+04 4.033e-08
 52.04919      9.9 2.267e+04 4.357e-08
 52.05899     10.1 2.242e+04 4.255e-08
 52.06879     10.4 2.206e+04 3.961e-08
 52.07856     10.7 2.183e+04 3.447e-08
 52.08837     10.7 2.118e+04 2.808e-08
 52.09820     11.1 2.052e+04 1.938e-08
 52.10800     10.8 2.003e+04 1.587e-08
 52.12275     10.9 1.825e+04 8.999e-09
 52.14240     10.7 1.650e+04 5.476e-09
 52.16201     10.5 1.511e+04 3.524e-09
 52.18161     10.2 1.370e+04 2.360e-09
 52.20122      9.9 1.304e+04 1.847e-09
 52.22082     10.0 1.268e+04 1.504e-09
 52.24042     10.5 1.244e+04 1.291e-09
 52.26003     10.9 1.230e+04 1.164e-09
 52.27963     11.3 1.212e+04 1.077e-09
 52.29923     11.5 1.211e+04 1.080e-09
 52.31871     11.0 1.243e+04 1.191e-09
 52.32851     10.0 1.274e+04 1.345e-09
 52.33844      8.8 1.338e+04 1.629e-09
 52.35804      8.0 1.387e+04 2.004e-09
 52.37765      7.9 1.421e+04 2.404e-09
 52.39725      8.4 1.418e+04 2.667e-09
 52.41685      9.1 1.410e+04 2.659e-09
 52.43646      9.6 1.400e+04 2.552e-09
 52.45606      9.9 1.391e+04 2.407e-09
 52.47567     10.0 1.379e+04 2.287e-09
 52.49527     10.2 1.358e+04 2.206e-09
 52.51487     10.8 1.336e+04 2.187e-09
 52.53448     11.8 1.326e+04 2.228e-09
 52.55408     13.2 1.315e+04 2.265e-09
 52.56856     14.9 1.303e+04 2.240e-09
 52.57836     14.0 1.235e+04 1.631e-09
 52.59064     15.6 1.225e+04 1.509e-09
 52.60044     15.6 1.256e+04 1.958e-09
 52.61289     17.1 1.244e+04 1.847e-09
 52.63249     18.6 1.232e+04 1.690e-09
 52.65210     19.7 1.225e+04 1.529e-09
 52.67170     20.3 1.220e+04 1.378e-09
 52.69130     20.5 1.220e+04 1.275e-09
 52.71091     20.3 1.226e+04 1.262e-09
 52.73051     19.7 1.239e+04 1.322e-09
 52.75012     19.2 1.260e+04 1.476e-09
 52.76972     19.0 1.285e+04 1.668e-09
 52.78932     19.0 1.305e+04 1.788e-09
 52.80861     18.9 1.303e+04 1.795e-09
 52.81841     17.8 1.265e+04 1.551e-09
 52.82853     17.5 1.260e+04 1.443e-09
 52.84813     16.8 1.245e+04 1.309e-09
 52.86774     15.6 1.234e+04 1.284e-09
 52.88734     14.1 1.234e+04 1.324e-09
 52.90694     12.7 1.247e+04 1.503e-09
 52.92655     11.5 1.275e+04 1.841e-09
 52.94615     11.2 1.318e+04 2.266e-09
 52.96576     11.4 1.346e+04 2.462e-09
 52.98536     11.6 1.344e+04 2.399e-09
 53.00496     12.0 1.310e+04 2.071e-09
 53.02457     12.1 1.251e+04 1.572e-09
 53.04417     11.9 1.183e+04 1.115e-09
 53.05845     11.4 1.114e+04 7.821e-10
 53.06826     12.8 1.100e+04 7.541e-10
 53.08338     12.3 1.053e+04 5.570e-10
 53.10298     11.8 1.023e+04 4.352e-10
 53.12258     11.5 9.983e+03 3.778e-10
 53.14219     11.6 9.905e+03 3.771e-10
 53.16179     12.0 9.883e+03 3.882e-10
 53.18139     12.7 9.881e+03 4.136e-10
 53.20100     13.6 9.917e+03 4.491e-10
 53.21263     14.6 9.988e+03 4.882e-10
 53.22243     14.9 1.015e+04 5.129e-10
 53.24021     15.8 1.028e+04 5.605e-10
 53.25981     16.6 1.048e+04 6.165e-10
 53.27941     17.2 1.078e+04 6.892e-10
 53.29850     17.5 1.121e+04 7.942e-10
 53.30830     18.3 1.102e+04 7.482e-10
 53.31862     18.4 1.147e+04 8.832e-10
 53.33822     18.5 1.186e+04 1.057e-09
 53.35783     18.5 1.228e+04 1.301e-09
 53.37743     18.2 1.288e+04 1.688e-09
 53.39703     17.7 1.359e+04 2.262e-09
 53.41664     17.7 1.428e+04 2.867e-09
 53.43624     18.1 1.447e+04 3.572e-09
 53.45584     18.9 1.461e+04 4.021e-09
 53.47545     19.9 1.462e+04 4.136e-09
 53.49505     21.0 1.462e+04 4.062e-09
 53.51466     22.0 1.466e+04 3.809e-09
 53.53426     22.9 1.462e+04 3.615e-09
 53.54835     23.7 1.463e+04 3.496e-09
 53.55815     24.4 1.453e+04 3.353e-09
 53.57347     25.0 1.457e+04 3.076e-09
 53.59307     25.7 1.440e+04 2.809e-09
 53.61267     26.6 1.417e+04 2.594e-09
 53.63228     27.5 1.387e+04 2.439e-09
 53.65188     28.5 1.358e+04 2.302e-09
 53.67148     29.7 1.335e+04 2.170e-09
 53.69109     30.8 1.317e+04 2.052e-09
 53.71069     31.9 1.299e+04 1.917e-09
 53.73029     32.9 1.280e+04 1.773e-09
 53.74990     33.8 1.263e+04 1.650e-09
 53.76950     34.8 1.243e+04 1.535e-09
 53.78840     36.0 1.221e+04 1.408e-09
 53.79820     35.9 1.158e+04 1.077e-09
 53.80871     37.1 1.148e+04 1.014e-09
 53.82482     38.3 1.139e+04 9.473e-10
 53.83462     38.2 1.127e+04 9.140e-10
 53.84792     39.4 1.115e+04 8.335e-10
 53.86752     40.6 1.105e+04 7.541e-10
 53.88712     41.7 1.094e+04 6.803e-10
 53.90673     42.8 1.082e+04 6.208e-10
 53.92633     44.0 1.075e+04 5.798e-10
 53.94593     45.2 1.069e+04 5.504e-10
 53.96554     46.4 1.062e+04 5.250e-10
 53.98514     47.7 1.055e+04 5.051e-10
 54.00475     49.0 1.051e+04 4.906e-10
 54.02435     50.3 1.047e+04 4.753e-10
 54.03825     51.5 1.042e+04 4.571e-10
 54.04805     51.7 1.035e+04 4.077e-10
 54.06356     52.8 1.036e+04 4.040e-10
 54.08316     53.8 1.040e+04 4.055e-10
 54.10276     54.7 1.042e+04 4.016e-10
 54.12237     55.6 1.042e+04 3.903e-10
 54.14197     56.3 1.032e+04 3.765e-10
 54.16157     57.1 1.022e+04 3.564e-10
 54.19108     58.2 1.028e+04 3.394e-10
 54.22048     57.8 1.063e+04 3.726e-10
 54.23999     57.7 1.090e+04 4.506e-10
 54.25959     58.0 1.105e+04 5.728e-10
 54.27829     58.5 1.117e+04 6.952e-10
 54.28809     58.0 1.130e+04 7.815e-10
 54.29880     57.5 1.154e+04 8.992e-10
 54.31840     55.4 1.311e+04 1.345e-09
 54.33801     52.1 1.565e+04 2.521e-09
 54.35761     49.4 1.688e+04 4.807e-09
 54.37721     48.2 1.722e+04 7.663e-09
 54.39682     48.3 1.720e+04 9.192e-09
 54.41642     48.8 1.678e+04 8.823e-09
 54.43602     49.8 1.599e+04 6.871e-09
 54.44681     50.5 1.502e+04 4.362e-09
 54.45661     51.3 1.498e+04 4.321e-09
 54.47523     51.4 1.389e+04 2.433e-09
 54.49483     50.3 1.279e+04 1.246e-09
 54.51444     47.1 1.175e+04 6.269e-10
 54.52814     43.9 1.140e+04 5.009e-10
 54.53794     43.9 1.101e+04 4.883e-10
 54.55365     42.6 1.219e+04 6.553e-10
 54.57325     42.1 1.373e+04 1.113e-09
 54.59285     41.9 1.506e+04 1.910e-09
 54.61246     41.9 1.609e+04 3.041e-09
 54.63206     42.1 1.679e+04 4.321e-09
 54.65166     42.5 1.719e+04 5.343e-09
 54.67127     43.0 1.723e+04 5.677e-09
 54.69087     43.5 1.696e+04 5.371e-09
 54.71047     44.0 1.654e+04 4.864e-09
 54.73008     44.4 1.586e+04 3.763e-09
 54.74968     44.5 1.489e+04 2.518e-09
 54.76819     44.2 1.386e+04 1.612e-09
 54.77799     45.0 1.467e+04 2.108e-09
 54.78889     44.1 1.345e+04 1.395e-09
 54.80849     43.1 1.253e+04 1.064e-09
 54.82810     42.5 1.236e+04 1.029e-09
 54.84770     41.7 1.250e+04 1.119e-09
 54.86730     40.9 1.267e+04 1.373e-09
 54.88691     41.1 1.282e+04 1.716e-09
 54.90651     41.3 1.279e+04 1.882e-09
 54.92611     41.4 1.275e+04 1.847e-09
 54.94572     41.3 1.254e+04 1.675e-09
 54.96532     41.0 1.220e+04 1.392e-09
 54.98492     40.1 1.178e+04 1.121e-09
 55.00453     38.9 1.149e+04 9.427e-10
 55.01804     38.2 1.137e+04 8.954e-10
 55.02784     37.4 1.152e+04 9.806e-10
 55.04373     37.0 1.174e+04 1.085e-09
 55.05899     36.5 1.222e+04 1.304e-09
 55.06880     36.7 1.198e+04 1.170e-09
 55.08294     36.1 1.258e+04 1.458e-09
 55.10255     35.3 1.322e+04 1.909e-09
 55.12215     34.8 1.381e+04 2.549e-09
 55.14175     34.8 1.437e+04 3.344e-09
 55.16136     35.0 1.474e+04 3.990e-09
 55.18096     35.2 1.486e+04 4.211e-09
 55.20056     35.3 1.484e+04 4.123e-09
 55.22017     35.3 1.469e+04 3.883e-09
 55.23977     35.2 1.444e+04 3.469e-09
 55.25809     35.0 1.399e+04 2.979e-09
 55.26789     34.3 1.363e+04 2.637e-09
 55.27898     34.5 1.297e+04 2.110e-09
 55.29858     34.9 1.225e+04 1.582e-09
 55.31819     35.5 1.150e+04 1.119e-09
 55.33779     36.1 1.083e+04 7.698e-10
 55.35739     36.0 1.025e+04 5.163e-10
 55.37700     35.5 9.784e+03 3.699e-10
 55.40650     35.3 9.342e+03 3.022e-10
 55.44580     36.3 9.244e+03 2.988e-10
 55.47511     37.0 9.280e+03 3.125e-10
 55.49462     37.3 9.475e+03 3.455e-10
 55.50793     37.4 9.931e+03 4.415e-10
 55.51774     37.7 9.618e+03 3.750e-10
 55.53382     38.1 1.008e+04 4.789e-10
 55.55343     38.2 1.066e+04 6.384e-10
 55.57303     38.1 1.141e+04 8.749e-10
 55.59264     37.5 1.236e+04 1.245e-09
 55.61224     36.5 1.332e+04 1.814e-09
 55.63184     35.6 1.410e+04 2.586e-09
 55.65145     35.0 1.468e+04 3.459e-09
 55.67105     34.7 1.507e+04 4.194e-09
 55.68098     34.8 1.528e+04 4.603e-09
 55.69079     35.1 1.520e+04 4.457e-09
 55.71026     35.3 1.533e+04 4.652e-09
 55.72986     35.4 1.528e+04 4.502e-09
 55.74798     35.5 1.497e+04 3.786e-09
 55.75778     36.4 1.473e+04 3.697e-09
 55.76907     36.5 1.431e+04 3.044e-09
 55.78867     36.4 1.333e+04 1.914e-09
 55.80827     36.0 1.294e+04 1.629e-09
 55.83778     36.7 1.200e+04 1.083e-09
 55.87708     36.6 1.099e+04 7.024e-10
 55.91629     37.1 1.053e+04 5.725e-10
 55.95550     38.4 1.031e+04 5.228e-10
 55.99470     40.1 1.012e+04 4.816e-10
 56.03391     42.0 9.900e+03 4.261e-10
 56.07312     44.0 9.658e+03 3.630e-10
 56.11233     45.9 9.392e+03 2.991e-10
 56.15153     47.7 9.136e+03 2.379e-10
 56.19074     49.5 8.865e+03 1.871e-10
 56.22827     51.1 8.699e+03 1.635e-10
 56.24787     52.8 8.635e+03 1.605e-10
 56.26915     54.6 8.641e+03 1.603e-10
 56.29337     56.5 8.682e+03 1.645e-10
 56.31297     57.3 8.706e+03 1.660e-10
 56.34757     59.3 8.804e+03 1.792e-10
 56.38678     61.4 8.906e+03 1.944e-10
 56.42598     63.4 9.002e+03 2.043e-10
 56.46519     65.1 9.066e+03 2.080e-10
 56.50440     66.7 9.157e+03 2.151e-10
 56.54360     68.0 9.374e+03 2.378e-10
 56.58281     69.0 9.733e+03 2.899e-10
 56.62202     69.5 1.015e+04 3.749e-10
 56.65133     69.0 1.061e+04 5.136e-10
 56.67083     68.5 1.105e+04 6.692e-10
 56.69044     68.1 1.148e+04 8.459e-10
 56.71004     67.7 1.174e+04 9.888e-10
 56.72777     65.7 1.314e+04 1.316e-09
 56.73757     65.9 1.269e+04 1.089e-09
 56.74925     58.3 1.735e+04 2.377e-09
 56.76885     49.2 1.982e+04 5.776e-09
 56.78845     44.4 1.934e+04 8.819e-09
 56.80311     42.7 1.915e+04 1.051e-08
 56.81286     41.3 1.867e+04 1.107e-08
 56.82266     40.7 1.814e+04 1.037e-08
 56.83246     40.0 1.799e+04 8.908e-09
 56.84227     38.0 1.815e+04 6.337e-09
 56.85207     36.2 1.781e+04 4.830e-09
 56.86682     32.2 1.732e+04 3.184e-09
 56.88647     24.3 1.506e+04 1.818e-09
 56.90536     18.3 1.261e+04 1.278e-09
 56.91516     19.9 1.378e+04 1.737e-09
 56.92568     16.8 1.216e+04 1.427e-09
 56.94528     16.1 1.250e+04 1.430e-09
 56.96489     16.1 1.302e+04 1.304e-09
 56.97762     16.1 1.371e+04 1.153e-09
 56.98742     14.5 1.788e+04 2.504e-09
 57.00409     14.6 1.818e+04 2.203e-09
 57.02370     14.2 1.776e+04 1.919e-09
 57.04330     14.0 1.726e+04 1.887e-09
 57.05795     15.3 1.641e+04 1.556e-09
 57.06771     15.3 1.646e+04 1.563e-09
 57.07751     16.4 1.648e+04 1.539e-09
 57.08731     14.1 2.029e+04 1.775e-09
 57.09711      4.7 3.209e+04 3.664e-09
 57.10245     -6.8 3.293e+04 2.036e-08
 57.10735     -0.8 3.522e+04 1.179e-08
 57.11672     -9.3 3.098e+04 5.260e-08
 57.12652    -12.4 2.740e+04 1.434e-07
 57.13385    -14.7 2.280e+04 4.644e-07
 57.13872    -15.4 2.271e+04 5.209e-07
 57.14610    -14.8 2.144e+04 8.931e-07
 57.15592    -14.1 2.082e+04 1.254e-06
 57.16573    -13.3 2.110e+04 1.023e-06
 57.17553    -11.9 2.209e+04 6.086e-07
 57.18533    -11.0 2.582e+04 2.161e-07
 57.19513    -11.0 3.684e+04 3.696e-08
 57.20493    -14.6 5.439e+04 4.320e-09
 57.21762    -28.3 3.898e+04 2.067e-09
 57.22742    -24.0 5.243e+04 1.430e-09
 57.23929    -26.2 5.078e+04 1.872e-09
 57.25894    -46.8 2.108e+04 1.159e-09
 57.27854    -51.1 1.237e+04 1.335e-09
 57.29815    -51.2 1.213e+04 1.339e-09
 57.31775    -51.2 1.261e+04 1.553e-09
 57.33735    -52.4 1.398e+04 2.120e-09
 57.35696    -54.7 1.561e+04 3.366e-09
 57.37656    -56.5 1.671e+04 5.472e-09
 57.39617    -56.9 1.730e+04 8.003e-09
 57.41577    -56.7 1.760e+04 9.666e-09
 57.43537    -56.5 1.748e+04 9.741e-09
 57.45003    -55.8 1.717e+04 9.172e-09
 57.45978    -54.8 1.677e+04 7.746e-09
 57.46742    -54.4 1.627e+04 5.831e-09
 57.47232    -54.5 1.608e+04 5.520e-09
 57.47938    -54.5 1.585e+04 4.704e-09
 57.49413    -55.6 1.512e+04 3.295e-09
 57.51379    -58.2 1.351e+04 1.899e-09
 57.52735    -59.9 1.232e+04 1.421e-09
 57.53715    -59.6 1.300e+04 1.853e-09
 57.55299    -60.3 1.262e+04 1.710e-09
 57.57260    -60.7 1.272e+04 1.824e-09
 57.59220    -61.5 1.363e+04 2.484e-09
 57.61180    -62.5 1.476e+04 3.615e-09
 57.63141    -63.6 1.591e+04 5.392e-09
 57.65101    -64.5 1.693e+04 7.750e-09
 57.67062    -65.2 1.778e+04 9.959e-09
 57.69022    -66.2 1.820e+04 1.096e-08
 57.70757    -67.3 1.826e+04 1.013e-08
 57.71737    -66.0 1.816e+04 9.227e-09
 57.72943    -67.3 1.774e+04 5.975e-09
 57.74903    -70.0 1.633e+04 3.255e-09
 57.76863    -72.8 1.408e+04 1.764e-09
 57.78824    -74.1 1.246e+04 1.179e-09
 57.80784    -74.4 1.182e+04 9.557e-10
 57.82744    -74.0 1.144e+04 8.218e-10
 57.84705    -72.9 1.111e+04 7.162e-10
 57.86665    -71.8 1.087e+04 6.294e-10
 57.88625    -70.7 1.067e+04 5.519e-10
 57.90586    -69.5 1.051e+04 4.804e-10
 57.92546    -68.3 1.042e+04 4.203e-10
 57.95496    -67.1 1.041e+04 3.744e-10
 57.99427    -65.2 1.038e+04 3.618e-10
 58.03348    -63.1 1.040e+04 3.654e-10
 58.07268    -61.2 1.052e+04 4.050e-10
 58.10199    -59.4 1.059e+04 4.521e-10
 58.12150    -58.4 1.065e+04 5.057e-10
 58.13954    -57.1 1.076e+04 5.652e-10
 58.14934    -57.0 1.066e+04 5.173e-10
 58.16070    -55.7 1.078e+04 5.699e-10
 58.18031    -54.3 1.086e+04 6.097e-10
 58.19746    -53.0 1.093e+04 6.295e-10
 58.20726    -52.8 1.083e+04 5.830e-10
 58.21952    -51.4 1.088e+04 5.932e-10
 58.23912    -50.1 1.091e+04 5.944e-10
 58.25872    -48.9 1.094e+04 5.841e-10
 58.27833    -47.5 1.099e+04 5.778e-10
 58.29793    -46.4 1.111e+04 5.819e-10
 58.31753    -45.2 1.122e+04 5.978e-10
 58.33714    -44.0 1.138e+04 6.319e-10
 58.35674    -42.9 1.171e+04 7.266e-10
 58.38624    -42.1 1.229e+04 9.685e-10
 58.42555    -40.3 1.282e+04 1.286e-09
 58.46476    -38.6 1.316e+04 1.571e-09
 58.49406    -37.2 1.306e+04 1.618e-09
 58.51357    -36.4 1.323e+04 1.759e-09
 58.53317    -35.4 1.344e+04 1.951e-09
 58.55278    -34.3 1.383e+04 2.206e-09
 58.57238    -33.4 1.427e+04 2.562e-09
 58.59198    -32.6 1.479e+04 3.072e-09
 58.61159    -32.0 1.543e+04 3.803e-09
 58.63119    -31.7 1.616e+04 4.836e-09
 58.65079    -31.3 1.705e+04 6.358e-09
 58.67040    -31.1 1.800e+04 8.231e-09
 58.68736    -30.9 1.884e+04 1.020e-08
 58.69716    -32.1 1.789e+04 8.070e-09
 58.70961    -32.2 1.845e+04 9.141e-09
 58.72921    -32.6 1.886e+04 9.854e-09
 58.74881    -33.1 1.912e+04 1.024e-08
 58.76153    -33.7 1.922e+04 1.051e-08
 58.77133    -32.9 1.923e+04 1.041e-08
 58.78802    -33.4 1.924e+04 1.061e-08
 58.80762    -33.8 1.918e+04 1.064e-08
 58.82723    -34.0 1.920e+04 1.065e-08
 58.84683    -34.0 1.903e+04 1.007e-08
 58.86643    -33.9 1.874e+04 9.094e-09
 58.88604    -33.9 1.813e+04 7.627e-09
 58.90564    -33.9 1.756e+04 6.475e-09
 58.92524    -33.9 1.684e+04 5.374e-09
 58.93721    -33.9 1.623e+04 4.640e-09
 58.94701    -34.3 1.495e+04 3.453e-09
 58.96445    -34.1 1.463e+04 3.194e-09
 58.98406    -33.9 1.436e+04 2.986e-09
 59.00366    -33.9 1.418e+04 2.815e-09
 59.02326    -34.4 1.408e+04 2.684e-09
 59.04287    -35.6 1.398e+04 2.591e-09
 59.06247    -37.1 1.401e+04 2.578e-09
 59.08207    -38.7 1.410e+04 2.712e-09
 59.10168    -39.8 1.407e+04 2.936e-09
 59.12128    -40.2 1.419e+04 3.114e-09
 59.14088    -40.4 1.427e+04 3.169e-09
 59.16049    -40.4 1.413e+04 2.891e-09
 59.17725    -40.6 1.388e+04 2.339e-09
 59.18705    -37.9 1.334e+04 2.240e-09
 59.19969    -37.8 1.275e+04 1.673e-09
 59.21930    -38.1 1.216e+04 1.228e-09
 59.23890    -38.7 1.172e+04 9.310e-10
 59.25851    -38.9 1.164e+04 8.125e-10
 59.27811    -38.8 1.196e+04 8.324e-10
 59.29771    -38.0 1.233e+04 9.773e-10
 59.31732    -37.0 1.266e+04 1.224e-09
 59.33692    -35.9 1.291e+04 1.549e-09
 59.35652    -34.5 1.312e+04 1.928e-09
 59.37372    -32.9 1.335e+04 2.345e-09
 59.38352    -32.7 1.272e+04 1.542e-09
 59.39573    -31.1 1.294e+04 1.909e-09
 59.41533    -29.5 1.305e+04 2.194e-09
 59.42710    -27.7 1.307e+04 2.363e-09
 59.43690    -27.2 1.260e+04 1.750e-09
 59.45454    -25.5 1.266e+04 1.924e-09
 59.47414    -23.9 1.268e+04 2.014e-09
 59.49375    -22.3 1.268e+04 2.067e-09
 59.51335    -20.7 1.279e+04 2.135e-09
 59.53296    -19.3 1.300e+04 2.217e-09
 59.55256    -18.1 1.341e+04 2.360e-09
 59.57216    -17.0 1.428e+04 2.739e-09
 59.59177    -16.3 1.564e+04 3.574e-09
 59.61137    -16.1 1.720e+04 5.073e-09
 59.63097    -15.7 1.867e+04 7.618e-09
 59.65058    -14.7 1.992e+04 1.156e-08
 59.66523    -14.4 2.016e+04 1.380e-08
 59.67195    -14.4 2.028e+04 1.447e-08
 59.67690    -14.3 1.963e+04 1.080e-08
 59.68978    -13.6 2.023e+04 1.377e-08
 59.70444    -12.4 2.055e+04 1.564e-08
 59.71419    -12.1 2.082e+04 1.698e-08
 59.72399    -11.7 2.130e+04 1.873e-08
 59.73379    -11.6 2.171e+04 1.993e-08
 59.74360    -11.4 2.211e+04 2.185e-08
 59.75340    -11.4 2.246e+04 2.263e-08
 59.76320    -11.6 2.291e+04 2.398e-08
 59.77300    -12.0 2.364e+04 2.587e-08
 59.78280    -12.7 2.471e+04 2.819e-08
 59.79198    -13.5 2.566e+04 3.251e-08
 59.79688    -12.8 2.407e+04 2.449e-08
 59.80241    -13.8 2.457e+04 2.618e-08
 59.81221    -14.4 2.487e+04 2.857e-08
 59.82201    -15.8 2.443e+04 2.701e-08
 59.83181    -16.3 2.404e+04 2.701e-08
 59.84161    -17.8 2.403e+04 2.549e-08
 59.85142    -21.2 2.763e+04 2.756e-08
 59.86122    -27.1 3.181e+04 3.560e-08
 59.87102    -32.9 3.177e+04 5.380e-08
 59.88082    -39.6 3.034e+04 6.056e-08
 59.89062    -44.3 2.615e+04 5.615e-08
 59.90043    -47.0 2.281e+04 4.823e-08
 59.91023    -49.1 2.178e+04 4.337e-08
 59.91690    -50.5 2.149e+04 4.100e-08
 59.92180    -47.8 2.329e+04 2.776e-08
 59.92983    -49.1 2.194e+04 2.687e-08
 59.93963    -49.9 2.108e+04 2.646e-08
 59.94943    -50.2 2.086e+04 2.576e-08
 59.95924    -50.1 2.115e+04 2.436e-08
 59.96904    -49.6 2.156e+04 2.253e-08
 59.97884    -48.8 2.193e+04 2.092e-08
 59.98864    -48.1 2.188e+04 1.994e-08
 59.99561    -47.5 2.215e+04 1.763e-08
 60.00051    -48.3 2.309e+04 1.959e-08
 60.00824    -48.0 2.296e+04 1.626e-08
 60.01805    -47.9 2.231e+04 1.343e-08
 60.02785    -47.8 2.137e+04 1.100e-08
 60.03692    -47.3 2.034e+04 9.344e-09
 60.04182    -46.2 2.208e+04 1.345e-08
 60.04745    -45.9 2.125e+04 1.044e-08
 60.06220    -46.5 1.934e+04 7.367e-09
 60.08186    -46.2 1.731e+04 4.386e-09
 60.10146    -46.8 1.579e+04 2.741e-09
 60.12106    -47.6 1.376e+04 1.690e-09
 60.14067    -47.9 1.284e+04 1.279e-09
 60.15705    -47.9 1.234e+04 1.121e-09
 60.16685    -47.5 1.449e+04 1.901e-09
 60.17987    -47.6 1.360e+04 1.557e-09
 60.19948    -47.4 1.311e+04 1.440e-09
 60.21908    -47.0 1.269e+04 1.416e-09
 60.23868    -46.3 1.255e+04 1.434e-09
 60.25829    -45.4 1.261e+04 1.546e-09
 60.27789    -44.4 1.279e+04 1.640e-09
 60.29750    -43.5 1.296e+04 1.733e-09
 60.31710    -42.6 1.306e+04 1.801e-09
 60.33670    -41.7 1.309e+04 1.832e-09
 60.35631    -40.8 1.308e+04 1.835e-09
 60.37591    -39.6 1.297e+04 1.758e-09
 60.39551    -38.6 1.287e+04 1.610e-09
 60.40689    -37.6 1.281e+04 1.425e-09
 60.41670    -38.3 1.316e+04 1.602e-09
 60.43472    -37.8 1.326e+04 1.466e-09
 60.45432    -37.8 1.339e+04 1.395e-09
 60.47393    -38.0 1.354e+04 1.396e-09
 60.49353    -38.2 1.363e+04 1.482e-09
 60.51313    -38.2 1.369e+04 1.621e-09
 60.53274    -38.0 1.371e+04 1.748e-09
 60.55234    -38.0 1.365e+04 1.788e-09
 60.57195    -37.9 1.341e+04 1.729e-09
 60.59155    -37.9 1.321e+04 1.634e-09
 60.60790    -38.0 1.319e+04 1.562e-09
 60.61770    -38.0 1.370e+04 1.875e-09
 60.63076    -38.8 1.370e+04 1.659e-09
 60.64694    -39.6 1.367e+04 1.514e-09
 60.65674    -40.6 1.395e+04 2.150e-09
 60.66996    -41.0 1.366e+04 2.062e-09
 60.68957    -40.9 1.338e+04 1.918e-09
 60.70917    -40.4 1.306e+04 1.581e-09
 60.72877    -39.9 1.276e+04 1.180e-09
 60.74838    -39.6 1.253e+04 8.554e-10
 60.76798    -39.6 1.228e+04 6.443e-10
 60.78759    -39.3 1.193e+04 5.307e-10
 60.80719    -38.4 1.169e+04 4.565e-10
 60.82679    -37.7 1.159e+04 3.994e-10
 60.85630    -36.9 1.161e+04 3.844e-10
 60.89560    -34.8 1.130e+04 2.894e-10
 60.93481    -32.9 1.093e+04 2.175e-10
 60.97401    -30.9 1.064e+04 1.911e-10
 61.01322    -28.8 1.054e+04 1.795e-10
 61.05243    -26.4 1.047e+04 1.742e-10
 61.09164    -23.9 1.041e+04 1.698e-10
 61.12723    -21.3 1.030e+04 1.587e-10
 61.14683    -21.2 1.042e+04 1.809e-10
 61.17005    -18.6 1.026e+04 1.613e-10
 61.20926    -16.0 1.008e+04 1.322e-10
 61.23008    -13.5 9.957e+03 1.023e-10
 61.24968    -13.0 9.922e+03 1.152e-10
 61.28767    -10.6 9.828e+03 8.873e-11
 61.32688     -8.2 9.767e+03 7.180e-11
 61.36609     -5.8 9.707e+03 6.294e-11
 61.40529     -3.4 9.616e+03 5.878e-11
 61.44450     -1.0 9.495e+03 5.860e-11
 61.48371      1.6 9.464e+03 5.646e-11
 61.52291      4.1 9.494e+03 5.268e-11
 61.56212      6.6 9.531e+03 5.006e-11
 61.60133      9.2 9.580e+03 4.890e-11
 61.62693     11.7 9.688e+03 4.995e-11
 61.64653     11.8 9.722e+03 4.851e-11
 61.67974     14.2 9.908e+03 5.135e-11
 61.71895     16.4 9.906e+03 6.352e-11
 61.75816     19.3 9.743e+03 8.389e-11
 61.79736     22.5 9.875e+03 9.135e-11
 61.83657     25.5 9.946e+03 8.829e-11
 61.87578     28.3 1.009e+04 7.847e-11
 61.91499     30.9 1.015e+04 6.904e-11
 61.95419     33.5 1.008e+04 6.628e-11
 61.99340     36.1 1.007e+04 6.779e-11
 62.03261     38.6 1.007e+04 7.429e-11
 62.07182     41.2 1.011e+04 8.539e-11
 62.10702     43.7 1.020e+04 1.063e-10
 62.12663     43.5 1.036e+04 1.153e-10
 62.15023     46.0 1.037e+04 1.553e-10
 62.18944     48.5 1.040e+04 1.993e-10
 62.22864     51.1 1.041e+04 2.313e-10
 62.26785     53.5 1.037e+04 2.399e-10
 62.30706     55.9 1.038e+04 2.333e-10
 62.34627     58.2 1.029e+04 2.219e-10
 62.38547     60.5 1.020e+04 2.078e-10
 62.42468     62.8 1.010e+04 1.981e-10
 62.45446     65.1 1.002e+04 1.970e-10
 62.47406     65.6 1.016e+04 2.163e-10
 62.50309     67.9 1.016e+04 2.270e-10
 62.54230     70.3 1.021e+04 2.465e-10
 62.58151     72.7 1.029e+04 2.716e-10
 62.60672     74.9 1.038e+04 2.970e-10
 62.62632     75.4 1.051e+04 2.682e-10
 62.65992     77.6 1.063e+04 2.890e-10
 62.69913     79.4 1.060e+04 3.020e-10
 62.72844     80.8 1.054e+04 3.234e-10
 62.74794     82.1 1.064e+04 3.865e-10
 62.76755     83.3 1.097e+04 4.975e-10
 62.78715     84.1 1.147e+04 6.701e-10
 62.80675     84.3 1.207e+04 9.355e-10
 62.82636     84.3 1.281e+04 1.354e-09
 62.84596     84.0 1.366e+04 2.012e-09
 62.85637     83.6 1.444e+04 2.948e-09
 62.86618     84.1 1.565e+04 3.676e-09
 62.88517     84.0 1.650e+04 5.465e-09
 62.90477     84.0 1.698e+04 6.620e-09
 62.92438     83.6 1.696e+04 6.528e-09
 62.94398     83.4 1.651e+04 5.640e-09
 62.96358     83.6 1.553e+04 4.022e-09
 62.98319     83.6 1.421e+04 2.583e-09
 63.00279     83.4 1.278e+04 1.650e-09
 63.02239     83.2 1.157e+04 1.160e-09
 63.04200     83.5 1.127e+04 1.013e-09
 63.06160     84.4 1.125e+04 1.009e-09
 63.07625     85.5 1.128e+04 1.021e-09
 63.08605     85.1 1.137e+04 1.078e-09
 63.09642     85.9 1.154e+04 1.167e-09
 63.10622     85.5 1.222e+04 1.173e-09
 63.12041     85.9 1.295e+04 1.428e-09
 63.14002     86.0 1.387e+04 1.880e-09
 63.15962     85.9 1.480e+04 2.554e-09
 63.17922     85.8 1.561e+04 3.436e-09
 63.19883     85.6 1.628e+04 4.506e-09
 63.21843     85.1 1.692e+04 5.740e-09
 63.23803     84.4 1.748e+04 7.064e-09
 63.25764     83.8 1.778e+04 8.225e-09
 63.27724     83.0 1.768e+04 8.471e-09
 63.29684     82.3 1.752e+04 8.224e-09
 63.31645     81.9 1.704e+04 7.385e-09
 63.33605     81.8 1.642e+04 6.301e-09
 63.34627     81.9 1.589e+04 5.279e-09
 63.35607     82.1 1.612e+04 7.157e-09
 63.37526     82.3 1.585e+04 6.576e-09
 63.39486     82.8 1.581e+04 6.404e-09
 63.41447     83.5 1.591e+04 6.535e-09
 63.43407     84.3 1.612e+04 6.836e-09
 63.45367     85.0 1.627e+04 6.943e-09
 63.47328     85.7 1.628e+04 6.818e-09
 63.49288     86.3 1.609e+04 6.407e-09
 63.51248     86.7 1.591e+04 5.669e-09
 63.53209     86.9 1.567e+04 5.031e-09
 63.55169     86.9 1.533e+04 4.523e-09
 63.57129     87.0 1.497e+04 4.255e-09
 63.58632     87.1 1.482e+04 4.263e-09
 63.59612     87.5 1.542e+04 5.696e-09
 63.61050     87.5 1.522e+04 5.668e-09
 63.63010     87.6 1.530e+04 5.973e-09
 63.64971     87.6 1.569e+04 6.962e-09
 63.66931     87.6 1.620e+04 8.402e-09
 63.68844     87.8 1.668e+04 1.049e-08
 63.69824     88.9 1.671e+04 1.046e-08
 63.70852     89.5 1.734e+04 1.394e-08
 63.72317     89.6 1.730e+04 1.454e-08
 63.73293     89.8 1.722e+04 1.446e-08
 63.74273     90.2 1.706e+04 1.400e-08
 63.75253     90.6 1.691e+04 1.309e-08
 63.76233     90.9 1.673e+04 1.177e-08
 63.77213     90.9 1.655e+04 1.046e-08
 63.78193     90.9 1.620e+04 8.696e-09
 63.79174     90.6 1.582e+04 7.367e-09
 63.80154     90.6 1.530e+04 5.928e-09
 63.81134     90.5 1.521e+04 5.754e-09
 63.82609     91.3 1.479e+04 4.691e-09
 63.83617     91.4 1.398e+04 3.136e-09
 63.84597     91.6 1.445e+04 3.410e-09
 63.86535     91.6 1.365e+04 2.275e-09
 63.88495     91.9 1.299e+04 1.599e-09
 63.90455     92.4 1.245e+04 1.189e-09
 63.92416     93.2 1.203e+04 9.299e-10
 63.94376     94.3 1.173e+04 7.613e-10
 63.96337     95.5 1.151e+04 6.526e-10
 63.98297     96.7 1.134e+04 5.792e-10
 64.00257     97.7 1.119e+04 5.223e-10
 64.02218     98.8 1.106e+04 4.779e-10
 64.04178     99.9 1.096e+04 4.532e-10
 64.06138    100.9 1.092e+04 4.518e-10
 64.07621    101.8 1.093e+04 4.549e-10
 64.08602    101.6 1.074e+04 3.911e-10
 64.10059    102.4 1.086e+04 4.109e-10
 64.12019    103.2 1.101e+04 4.556e-10
 64.13980    103.9 1.116e+04 5.323e-10
 64.15940    104.8 1.132e+04 6.429e-10
 64.17901    105.9 1.150e+04 7.772e-10
 64.19861    107.2 1.174e+04 9.128e-10
 64.21821    108.5 1.205e+04 1.022e-09
 64.23782    109.8 1.235e+04 1.095e-09
 64.25742    110.8 1.259e+04 1.105e-09
 64.27702    111.5 1.260e+04 1.099e-09
 64.29663    112.0 1.257e+04 1.074e-09
 64.31043    112.4 1.242e+04 1.040e-09
 64.32023    112.0 1.244e+04 1.061e-09
 64.33583    112.4 1.146e+04 6.886e-10
 64.35544    112.8 1.156e+04 7.548e-10
 64.37504    113.3 1.167e+04 8.736e-10
 64.39464    113.9 1.176e+04 1.042e-09
 64.41425    114.9 1.181e+04 1.237e-09
 64.43385    115.9 1.185e+04 1.404e-09
 64.45346    117.1 1.190e+04 1.497e-09
 64.47306    118.2 1.192e+04 1.534e-09
 64.49266    119.3 1.196e+04 1.534e-09
 64.51227    120.3 1.197e+04 1.523e-09
 64.53187    121.2 1.205e+04 1.477e-09
 64.55147    122.0 1.213e+04 1.459e-09
 64.56611    122.8 1.223e+04 1.458e-09
 64.57591    122.7 1.276e+04 2.017e-09
 64.59068    123.6 1.285e+04 2.032e-09
 64.61028    124.4 1.287e+04 2.025e-09
 64.62989    125.3 1.289e+04 2.003e-09
 64.64949    126.1 1.291e+04 2.001e-09
 64.66909    126.8 1.298e+04 2.035e-09
 64.68870    127.3 1.328e+04 2.196e-09
 64.70830    127.7 1.383e+04 2.602e-09
 64.72791    127.8 1.459e+04 3.281e-09
 64.74751    127.8 1.545e+04 4.307e-09
 64.76711    127.4 1.646e+04 5.846e-09
 64.78672    127.1 1.764e+04 8.266e-09
 64.80616    127.5 1.917e+04 1.213e-08
 64.81596    126.8 1.894e+04 1.417e-08
 64.82097    127.4 1.942e+04 1.715e-08
 64.83073    127.4 2.005e+04 2.095e-08
 64.84053    127.3 2.082e+04 2.734e-08
 64.85033    127.4 2.136e+04 3.658e-08
 64.86013    127.4 2.169e+04 4.808e-08
 64.86993    127.5 2.190e+04 6.113e-08
 64.87974    127.5 2.213e+04 7.529e-08
 64.88954    127.3 2.228e+04 9.016e-08
 64.89934    127.3 2.219e+04 9.659e-08
 64.90914    127.5 2.205e+04 9.733e-08
 64.91894    128.1 2.204e+04 9.533e-08
 64.92742    128.5 2.212e+04 9.191e-08
 64.93232    128.6 2.238e+04 1.308e-07
 64.93588    129.1 2.240e+04 1.334e-07
 64.94078    128.0 2.339e+04 1.159e-07
 64.94835    128.2 2.392e+04 1.144e-07
 64.95815    128.1 2.470e+04 1.109e-07
 64.96795    127.6 2.506e+04 1.070e-07
 64.97775    126.9 2.557e+04 9.726e-08
 64.98756    126.1 2.603e+04 8.299e-08
 64.99736    125.4 2.633e+04 6.846e-08
 65.00716    124.6 2.635e+04 5.624e-08
 65.01696    123.6 2.606e+04 4.698e-08
 65.02676    122.5 2.543e+04 4.089e-08
 65.03656    121.1 2.477e+04 3.715e-08
 65.04637    119.5 2.426e+04 3.456e-08
 65.05591    118.0 2.383e+04 3.272e-08
 65.06081    115.1 2.278e+04 2.901e-08
 65.06597    114.1 2.269e+04 2.913e-08
 65.07577    113.1 2.253e+04 2.937e-08
 65.08557    112.2 2.240e+04 2.946e-08
 65.09537    111.4 2.230e+04 2.879e-08
 65.10518    110.6 2.218e+04 2.717e-08
 65.11498    109.7 2.200e+04 2.494e-08
 65.12478    108.6 2.182e+04 2.263e-08
 65.13458    107.8 2.164e+04 1.992e-08
 65.14438    107.1 2.143e+04 1.716e-08
 65.15914    105.0 2.093e+04 1.148e-08
 65.17879    101.9 1.991e+04 6.925e-09
 65.19839     98.0 1.778e+04 4.007e-09
 65.21800     94.3 1.506e+04 2.639e-09
 65.23760     91.9 1.374e+04 2.092e-09
 65.25720     90.9 1.348e+04 1.870e-09
 65.27681     90.1 1.358e+04 1.799e-09
 65.29605     89.0 1.366e+04 1.753e-09
 65.30585     88.4 1.324e+04 1.629e-09
 65.31601     87.3 1.325e+04 1.605e-09
 65.33562     86.0 1.321e+04 1.602e-09
 65.35522     84.5 1.320e+04 1.610e-09
 65.37482     82.8 1.341e+04 1.641e-09
 65.39443     80.9 1.374e+04 1.747e-09
 65.41403     79.0 1.402e+04 1.922e-09
 65.43363     77.1 1.422e+04 2.158e-09
 65.45324     75.2 1.440e+04 2.421e-09
 65.47284     73.5 1.456e+04 2.654e-09
 65.49245     71.8 1.464e+04 2.798e-09
 65.51205     70.4 1.462e+04 2.822e-09
 65.53165     69.1 1.456e+04 2.768e-09
 65.54461     67.7 1.458e+04 2.762e-09
 65.54906     69.1 1.487e+04 3.048e-09
 65.55570     68.4 1.500e+04 3.037e-09
 65.57086     66.2 1.518e+04 3.130e-09
 65.59046     63.8 1.536e+04 3.336e-09
 65.61007     62.0 1.550e+04 3.675e-09
 65.62967     60.8 1.556e+04 4.047e-09
 65.64927     59.3 1.580e+04 4.136e-09
 65.66393     58.3 1.596e+04 4.193e-09
 65.67073     57.7 1.600e+04 4.195e-09
 65.67563     56.8 1.618e+04 4.185e-09
 65.68348     51.9 1.898e+04 5.009e-09
 65.69328     48.6 2.003e+04 5.461e-09
 65.70804     36.9 2.604e+04 7.357e-09
 65.72274     20.2 3.192e+04 1.689e-08
 65.73249     13.3 2.943e+04 2.696e-08
 65.74229      8.6 2.668e+04 3.277e-08
 65.75210      4.5 2.487e+04 3.032e-08
 65.76190     -0.7 2.330e+04 1.746e-08
 65.77170     -3.0 2.195e+04 1.469e-08
 65.78590     -9.3 1.937e+04 5.863e-09
 65.79575    -14.8 1.843e+04 3.651e-09
 65.80610    -23.0 1.370e+04 1.414e-09
 65.82571    -25.5 1.201e+04 9.951e-10
 65.84531    -25.3 1.184e+04 9.239e-10
 65.86491    -25.1 1.171e+04 8.643e-10
 65.88452    -24.6 1.152e+04 8.116e-10
 65.90412    -23.9 1.141e+04 7.826e-10
 65.92372    -23.1 1.135e+04 7.651e-10
 65.94333    -22.3 1.128e+04 7.507e-10
 65.96293    -21.4 1.121e+04 7.529e-10
 65.98253    -20.2 1.115e+04 7.348e-10
 66.00214    -18.9 1.114e+04 7.055e-10
 66.02174    -17.9 1.113e+04 6.530e-10
 66.03580    -16.8 1.098e+04 5.834e-10
 66.04560    -17.9 1.065e+04 4.398e-10
 66.06095    -16.5 1.059e+04 4.011e-10
 66.08055    -16.0 1.044e+04 3.728e-10
 66.11006    -14.4 1.036e+04 3.584e-10
 66.14719    -12.2 1.018e+04 3.332e-10
 66.16679    -11.9 9.922e+03 2.761e-10
 66.18857    -10.1 9.930e+03 2.742e-10
 66.22777     -8.8 1.005e+04 3.100e-10
 66.26698     -7.4 1.023e+04 3.888e-10
 66.30619     -6.1 1.046e+04 5.088e-10
 66.34540     -4.8 1.078e+04 6.568e-10
 66.37470     -4.6 1.079e+04 6.861e-10
 66.39421     -5.3 1.109e+04 7.527e-10
 66.41381     -6.1 1.137e+04 8.509e-10
 66.43342     -6.6 1.145e+04 1.013e-09
 66.45302     -6.3 1.153e+04 1.155e-09
 66.47262     -5.4 1.150e+04 1.249e-09
 66.49223     -4.6 1.155e+04 1.260e-09
 66.51183     -3.8 1.154e+04 1.121e-09
 66.52569     -3.6 1.113e+04 9.534e-10
 66.53550     -3.5 1.118e+04 9.847e-10
 66.55104     -3.6 1.077e+04 7.420e-10
 66.57064     -4.4 1.034e+04 5.833e-10
 66.59025     -5.5 1.008e+04 5.161e-10
 66.60985     -6.4 1.016e+04 5.104e-10
 66.62945     -7.8 1.039e+04 5.819e-10
 66.64906     -8.6 1.053e+04 7.081e-10
 66.66866     -8.7 1.074e+04 8.411e-10
 66.68826     -8.4 1.082e+04 9.268e-10
 66.70787     -7.8 1.083e+04 9.496e-10
 66.72747     -7.4 1.080e+04 8.355e-10
 66.74707     -7.3 1.052e+04 7.141e-10
 66.76574     -8.0 1.031e+04 5.609e-10
 66.77554     -8.4 1.009e+04 4.890e-10
 66.77879     -9.7 9.752e+03 4.032e-10
 66.78859    -11.2 9.640e+03 3.909e-10
 66.80589    -12.3 9.473e+03 3.636e-10
 66.82549    -13.0 9.441e+03 3.627e-10
 66.84509    -14.5 9.688e+03 4.053e-10
 66.86470    -17.7 1.062e+04 5.767e-10
 66.88430    -21.5 1.163e+04 9.642e-10
 66.90390    -24.1 1.222e+04 1.555e-09
 66.92351    -24.8 1.274e+04 2.078e-09
 66.94311    -25.3 1.316e+04 2.189e-09
 66.96271    -27.7 1.315e+04 1.536e-09
 66.98232    -29.5 1.308e+04 1.275e-09
 67.00192    -39.7 1.237e+04 7.253e-10
 67.01559    -43.0 1.309e+04 7.569e-10
 67.02539    -45.9 1.298e+04 7.633e-10
 67.04113    -52.5 1.323e+04 9.427e-10
 67.06073    -57.1 1.425e+04 2.267e-09
 67.08034    -59.2 1.493e+04 3.724e-09
 67.09994    -60.7 1.529e+04 4.155e-09
 67.11954    -63.5 1.518e+04 3.138e-09
 67.13915    -68.1 1.361e+04 1.179e-09
 67.15875    -73.6 1.128e+04 4.855e-10
 67.17835    -74.8 1.069e+04 3.874e-10
 67.20786    -77.1 9.859e+03 2.700e-10
 67.24716    -77.9 9.436e+03 2.117e-10
 67.28637    -78.0 9.177e+03 1.736e-10
 67.32558    -77.6 9.092e+03 1.599e-10
 67.36478    -77.0 9.221e+03 1.789e-10
 67.39117    -76.1 9.506e+03 2.271e-10
 67.41077    -76.1 9.917e+03 2.833e-10
 67.44320    -74.8 1.017e+04 3.496e-10
 67.48240    -73.3 1.025e+04 3.764e-10
 67.50568    -72.0 1.019e+04 3.707e-10
 67.52528    -74.1 1.019e+04 3.725e-10
 67.56082    -72.9 9.928e+03 3.321e-10
 67.60003    -71.6 9.647e+03 2.917e-10
 67.63923    -70.1 9.452e+03 2.703e-10
 67.67844    -68.5 9.394e+03 2.677e-10
 67.71765    -66.7 9.498e+03 2.902e-10
 67.75685    -65.0 9.753e+03 3.288e-10
 67.79606    -63.5 9.981e+03 3.614e-10
 67.82537    -62.8 1.021e+04 4.042e-10
 67.84488    -63.4 1.051e+04 4.777e-10
 67.86448    -64.3 1.085e+04 6.692e-10
 67.88408    -64.9 1.116e+04 8.647e-10
 67.90369    -65.2 1.147e+04 1.095e-09
 67.92329    -65.2 1.180e+04 1.292e-09
 67.94289    -65.3 1.202e+04 1.415e-09
 67.96250    -65.5 1.206e+04 1.417e-09
 67.98210    -65.9 1.186e+04 1.296e-09
 67.99538    -66.3 1.156e+04 1.097e-09
 68.00518    -67.4 1.126e+04 9.175e-10
 68.01297    -67.8 1.097e+04 6.886e-10
 68.02277    -68.8 1.078e+04 5.777e-10
 68.04091    -69.5 1.042e+04 3.980e-10
 68.07041    -69.7 1.001e+04 2.923e-10
 68.10972    -69.2 9.355e+03 1.909e-10
 68.14893    -68.6 8.658e+03 1.293e-10
 68.18813    -67.7 8.508e+03 1.030e-10
 68.22734    -66.4 8.463e+03 9.573e-11
 68.26655    -65.0 8.466e+03 9.499e-11
 68.30575    -63.7 8.581e+03 1.044e-10
 68.34496    -62.4 8.738e+03 1.247e-10
 68.38417    -60.9 8.879e+03 1.474e-10
 68.42338    -59.7 9.037e+03 1.675e-10
 68.46258    -58.8 9.196e+03 1.881e-10
 68.48547    -58.3 9.423e+03 2.224e-10
 68.50508    -60.5 9.852e+03 2.877e-10
 68.54100    -61.2 1.075e+04 4.233e-10
 68.57031    -64.1 1.066e+04 4.663e-10
 68.58981    -67.8 1.293e+04 8.083e-10
 68.60942    -69.8 1.489e+04 1.425e-09
 68.62515    -75.7 1.910e+04 6.883e-09
 68.63496    -76.1 1.978e+04 8.374e-09
 68.64367    -78.9 2.092e+04 2.073e-08
 68.65343    -79.9 2.141e+04 3.106e-08
 68.66323    -80.6 2.178e+04 4.004e-08
 68.67303    -81.2 2.198e+04 4.239e-08
 68.68283    -82.0 2.234e+04 3.705e-08
 68.69263    -83.8 2.244e+04 2.230e-08
 68.70243    -88.1 2.116e+04 1.057e-08
 68.71224    -90.9 1.978e+04 7.243e-09
 68.72528    -95.8 1.755e+04 4.095e-09
 68.73513    -98.9 1.615e+04 3.373e-09
 68.74664   -104.9 1.324e+04 1.725e-09
 68.76624   -107.0 1.210e+04 1.293e-09
 68.78585   -107.5 1.180e+04 1.163e-09
 68.80545   -107.7 1.161e+04 1.034e-09
 68.82505   -108.0 1.134e+04 8.950e-10
 68.84466   -108.1 1.108e+04 7.690e-10
 68.86426   -108.1 1.082e+04 6.487e-10
 68.88387   -108.1 1.057e+04 5.351e-10
 68.90347   -107.8 1.034e+04 4.427e-10
 68.93297   -107.3 1.023e+04 3.851e-10
 68.96557   -107.7 9.873e+03 3.066e-10
 68.98517   -108.6 9.711e+03 2.839e-10
 69.01148   -108.6 9.334e+03 2.286e-10
 69.05069   -108.1 9.073e+03 1.957e-10
 69.08990   -107.5 8.933e+03 1.791e-10
 69.12911   -106.9 8.853e+03 1.702e-10
 69.16831   -106.3 8.809e+03 1.661e-10
 69.20752   -105.6 8.798e+03 1.667e-10
 69.24673   -105.0 8.815e+03 1.736e-10
 69.28593   -104.5 8.889e+03 1.846e-10
 69.32514   -103.9 8.968e+03 1.925e-10
 69.36435   -103.3 8.993e+03 1.930e-10
 69.40356   -102.6 8.946e+03 1.835e-10
 69.44276   -101.7 8.845e+03 1.612e-10
 69.46526   -100.7 8.722e+03 1.335e-10
 69.48487   -101.4 8.732e+03 1.312e-10
 69.52118   -100.4 8.611e+03 1.119e-10
 69.56038    -99.4 8.581e+03 1.044e-10
 69.59959    -98.3 8.570e+03 1.041e-10
 69.63880    -97.2 8.679e+03 1.155e-10
 69.67801    -96.1 8.855e+03 1.454e-10
 69.71721    -94.8 9.057e+03 1.873e-10
 69.75642    -93.5 9.229e+03 2.319e-10
 69.79563    -92.1 9.355e+03 2.674e-10
 69.83483    -90.8 9.413e+03 2.868e-10
 69.85953    -89.6 9.417e+03 2.954e-10
 69.87913    -89.5 9.595e+03 3.380e-10
 69.91325    -88.4 9.590e+03 3.392e-10
 69.94536    -87.6 9.652e+03 3.463e-10
 69.96496    -88.6 9.754e+03 3.598e-10
 69.99166    -87.9 9.905e+03 4.190e-10
 70.03087    -87.2 1.005e+04 4.725e-10
 70.07008    -86.6 1.013e+04 4.943e-10
 70.10928    -86.0 1.015e+04 4.959e-10
 70.14849    -85.1 1.015e+04 4.669e-10
 70.17780    -83.6 1.009e+04 4.280e-10
 70.19501    -83.6 1.012e+04 4.270e-10
 70.20481    -83.9 1.014e+04 4.228e-10
 70.22681    -83.2 1.029e+04 4.299e-10
 70.26611    -82.7 1.029e+04 3.930e-10
 70.30532    -81.5 9.955e+03 3.216e-10
 70.34453    -80.3 9.643e+03 2.469e-10
 70.38373    -79.2 9.396e+03 1.888e-10
 70.42294    -78.0 9.277e+03 1.582e-10
 70.44506    -76.7 9.248e+03 1.480e-10
 70.46466    -77.4 9.202e+03 1.338e-10
 70.50136    -76.0 9.278e+03 1.377e-10
 70.54056    -74.7 9.403e+03 1.639e-10
 70.57977    -73.4 9.545e+03 1.992e-10
 70.61898    -72.2 9.786e+03 2.438e-10
 70.65818    -71.0 1.010e+04 2.953e-10
 70.69739    -70.0 1.041e+04 3.525e-10
 70.73660    -69.2 1.050e+04 3.898e-10
 70.76591    -69.9 1.056e+04 4.542e-10
 70.78541    -69.4 1.074e+04 4.832e-10
 70.80502    -68.9 1.089e+04 5.068e-10
 70.82462    -68.3 1.103e+04 5.149e-10
 70.84422    -67.4 1.113e+04 5.087e-10
 70.86383    -66.6 1.128e+04 4.757e-10
 70.88343    -65.8 1.131e+04 4.414e-10
 70.90303    -65.3 1.130e+04 4.355e-10
 70.92264    -64.7 1.140e+04 4.400e-10
 70.93476    -64.5 1.154e+04 4.692e-10
 70.94456    -65.1 1.159e+04 5.006e-10
 70.96185    -64.8 1.165e+04 5.602e-10
 70.98145    -64.6 1.165e+04 5.828e-10
 71.01095    -63.2 1.170e+04 6.308e-10
 71.05026    -61.9 1.171e+04 6.440e-10
 71.08390    -60.7 1.153e+04 5.521e-10
 71.10351    -62.0 1.129e+04 4.189e-10
 71.12867    -60.6 1.100e+04 2.691e-10
 71.16788    -59.3 1.063e+04 1.803e-10
 71.20709    -58.1 1.036e+04 1.558e-10
 71.24629    -56.8 1.032e+04 1.505e-10
 71.28550    -55.4 1.030e+04 1.512e-10
 71.32471    -54.2 1.038e+04 1.815e-10
 71.36391    -53.1 1.050e+04 2.351e-10
 71.40312    -51.9 1.072e+04 3.138e-10
 71.42485    -51.0 1.085e+04 3.719e-10
 71.44445    -51.5 1.061e+04 3.236e-10
 71.48154    -50.8 1.070e+04 3.361e-10
 71.52074    -50.5 1.072e+04 3.286e-10
 71.55995    -50.4 1.060e+04 3.062e-10
 71.59916    -50.0 1.054e+04 3.048e-10
 71.63836    -49.6 1.045e+04 3.149e-10
 71.67757    -48.9 1.035e+04 3.237e-10
 71.71678    -48.0 1.009e+04 2.894e-10
 71.75599    -47.3 9.859e+03 2.364e-10
 71.79519    -46.7 9.745e+03 1.741e-10
 71.83440    -46.2 9.693e+03 1.203e-10
 71.87361    -46.0 9.472e+03 8.344e-11
 71.90494    -45.7 9.184e+03 7.457e-11
 71.92455    -44.6 9.375e+03 7.837e-11
 71.95202    -44.2 9.229e+03 7.763e-11
 71.99123    -43.6 9.253e+03 8.243e-11
 72.03044    -43.0 9.269e+03 1.007e-10
 72.06964    -42.3 9.324e+03 1.298e-10
 72.10885    -41.5 9.512e+03 1.595e-10
 72.14806    -41.4 9.719e+03 1.771e-10
 72.18726    -42.2 9.843e+03 2.005e-10
 72.22647    -42.9 1.007e+04 2.671e-10
 72.26568    -43.3 1.045e+04 3.509e-10
 72.30489    -44.0 1.060e+04 3.925e-10
 72.32788    -45.1 1.054e+04 3.782e-10
 72.34749    -47.2 1.054e+04 3.821e-10
 72.38330    -48.5 1.042e+04 3.636e-10
 72.40464    -50.5 1.044e+04 4.187e-10
 72.41434    -48.7 1.030e+04 3.648e-10
 72.43211    -49.2 1.039e+04 3.951e-10
 72.46162    -50.5 1.039e+04 5.007e-10
 72.50092    -50.3 1.041e+04 5.072e-10
 72.54013    -49.9 1.022e+04 4.122e-10
 72.57934    -49.3 9.804e+03 2.821e-10
 72.61854    -49.0 9.523e+03 1.918e-10
 72.65775    -48.8 9.473e+03 1.638e-10
 72.69696    -49.0 9.762e+03 2.013e-10
 72.73616    -49.5 1.021e+04 3.366e-10
 72.77537    -49.2 1.065e+04 5.818e-10
 72.81458    -48.0 1.095e+04 7.199e-10
 72.85379    -47.3 1.093e+04 6.658e-10
 72.88473    -46.8 1.044e+04 3.820e-10
 72.90434    -46.5 1.039e+04 3.624e-10
 72.93220    -47.2 9.867e+03 2.140e-10
 72.97141    -47.6 9.549e+03 1.889e-10
 73.01061    -46.7 9.523e+03 1.893e-10
 73.04982    -46.2 9.629e+03 2.064e-10
 73.08903    -46.0 9.869e+03 2.380e-10
 73.12824    -46.0 1.012e+04 3.006e-10
 73.16744    -45.9 1.028e+04 3.857e-10
 73.20665    -45.5 1.039e+04 4.309e-10
 73.24586    -44.9 1.036e+04 3.859e-10
 73.28507    -44.5 1.010e+04 2.660e-10
 73.32427    -44.2 9.753e+03 1.919e-10
 73.36348    -43.6 9.503e+03 1.687e-10
 73.38443    -42.3 9.388e+03 1.634e-10
 73.40404    -42.1 9.353e+03 1.515e-10
 73.44189    -40.5 9.325e+03 1.557e-10
 73.48110    -38.7 9.320e+03 1.591e-10
 73.52031    -36.9 9.322e+03 1.581e-10
 73.55226    -35.3 9.358e+03 1.601e-10
 73.57186    -36.4 9.264e+03 1.492e-10
 73.59872    -34.8 9.230e+03 1.574e-10
 73.63793    -33.0 9.193e+03 1.710e-10
 73.67714    -31.0 9.172e+03 1.744e-10
 73.71634    -28.9 9.105e+03 1.611e-10
 73.75555    -27.0 9.041e+03 1.375e-10
 73.79476    -25.6 8.939e+03 1.177e-10
 73.83397    -24.0 8.888e+03 1.131e-10
 73.86453    -22.3 8.793e+03 1.202e-10
 73.88413    -22.2 8.746e+03 1.122e-10
 73.91238    -20.1 8.649e+03 1.183e-10
 73.95159    -18.0 8.636e+03 1.203e-10
 73.99079    -15.9 8.625e+03 1.194e-10
 74.03000    -14.0 8.642e+03 1.212e-10
 74.06921    -12.6 8.731e+03 1.322e-10
 74.10842    -11.4 8.905e+03 1.677e-10
 74.14762    -10.2 9.145e+03 2.304e-10
 74.18683     -8.7 9.361e+03 2.970e-10
 74.22604     -7.7 9.414e+03 3.204e-10
 74.26524     -6.4 9.204e+03 2.854e-10
 74.30445     -5.1 8.893e+03 2.152e-10
 74.34366     -4.1 8.630e+03 1.481e-10
 74.36422     -3.4 8.413e+03 1.077e-10
 74.38383     -2.5 8.428e+03 1.068e-10
 74.42207     -1.8 8.206e+03 9.600e-11
 74.46128     -0.8 8.193e+03 9.686e-11
 74.50049      0.1 8.244e+03 1.055e-10
 74.53969      1.0 8.335e+03 1.274e-10
 74.57890      2.0 8.432e+03 1.521e-10
 74.61811      2.7 8.537e+03 1.723e-10
 74.65732      3.0 8.661e+03 1.900e-10
 74.69652      2.9 8.919e+03 2.231e-10
 74.73573      1.1 9.778e+03 3.771e-10
 74.77494     -0.7 1.095e+04 8.685e-10
 74.79624     -1.5 1.138e+04 1.195e-09
 74.81584     -1.8 1.114e+04 1.049e-09
 74.84432     -2.1 1.093e+04 9.563e-10
 74.86392     -0.7 1.095e+04 9.734e-10
 74.89256     -0.8 1.030e+04 6.460e-10
 74.93177     -1.2 9.450e+03 3.491e-10
 74.97097     -1.4 8.718e+03 1.910e-10
 75.01018     -1.2 8.283e+03 1.182e-10
 75.04939     -0.4 8.067e+03 9.706e-11
 75.08859      0.8 8.083e+03 9.879e-11
 75.12780      1.8 8.209e+03 1.132e-10
 75.16701      2.7 8.391e+03 1.446e-10
 75.20622      3.6 8.599e+03 1.874e-10
 75.24542      4.2 8.895e+03 2.500e-10
 75.28463      4.9 9.177e+03 3.125e-10
 75.32384      5.7 9.202e+03 3.129e-10
 75.34402      6.4 9.089e+03 2.824e-10
 75.36362      7.5 9.080e+03 2.804e-10
 75.40225      8.3 9.045e+03 2.652e-10
 75.44146      9.1 9.204e+03 2.805e-10
 75.47077      9.4 9.342e+03 3.058e-10
 75.49027      9.1 9.598e+03 3.602e-10
 75.50988      8.7 9.948e+03 4.858e-10
 75.52948      8.2 1.049e+04 7.215e-10
 75.54908      7.1 1.158e+04 1.205e-09
 75.56869      5.8 1.297e+04 2.131e-09
 75.58387      5.1 1.398e+04 3.427e-09
 75.59367      6.4 1.320e+04 2.440e-09
 75.60789      6.1 1.393e+04 3.476e-09
 75.62750      6.2 1.409e+04 3.900e-09
 75.64710      6.2 1.405e+04 3.742e-09
 75.66671      5.6 1.387e+04 3.002e-09
 75.68631      4.0 1.329e+04 2.178e-09
 75.70591      2.4 1.246e+04 1.492e-09
 75.72552      1.0 1.161e+04 1.066e-09
 75.74512      0.3 1.096e+04 8.604e-10
 75.76472      0.2 1.076e+04 7.912e-10
 75.78433      0.6 1.056e+04 7.361e-10
 75.80393      1.2 1.044e+04 7.041e-10
 75.82353      2.1 1.033e+04 6.670e-10
 75.83372      2.7 1.028e+04 6.322e-10
 75.84352      3.5 1.023e+04 6.071e-10
 75.87264      5.3 9.948e+03 5.179e-10
 75.91195      6.8 9.823e+03 4.476e-10
 75.95115      8.2 9.732e+03 3.987e-10
 75.99036      9.8 9.620e+03 3.596e-10
 76.02062     11.5 9.492e+03 3.268e-10
 76.04022     11.0 9.342e+03 2.960e-10
 76.06877     12.8 9.259e+03 2.810e-10
 76.10798     14.6 9.193e+03 2.672e-10
 76.14719     16.4 9.147e+03 2.552e-10
 76.18640     18.2 9.158e+03 2.500e-10
 76.22560     19.9 9.248e+03 2.594e-10
 76.26481     21.3 9.453e+03 2.889e-10
 76.30402     22.6 9.748e+03 3.442e-10
 76.34322     25.9 9.746e+03 3.301e-10
 76.38243     27.6 1.000e+04 3.988e-10
 76.42164     29.4 1.022e+04 4.502e-10
 76.45095     30.1 1.043e+04 5.086e-10
 76.47045     30.6 1.052e+04 5.112e-10
 76.49006     30.8 1.059e+04 5.032e-10
 76.50966     31.1 1.063e+04 4.935e-10
 76.52926     31.3 1.065e+04 4.987e-10
 76.54887     31.4 1.074e+04 5.211e-10
 76.56366     31.6 1.084e+04 5.745e-10
 76.57346     33.0 1.086e+04 5.787e-10
 76.58807     33.2 1.098e+04 6.626e-10
 76.60768     33.6 1.112e+04 7.712e-10
 76.62728     34.3 1.129e+04 8.923e-10
 76.64241     34.9 1.151e+04 9.583e-10
 76.65221     35.0 1.149e+04 9.833e-10
 76.66649     35.5 1.157e+04 9.820e-10
 76.68609     35.8 1.159e+04 9.448e-10
 76.70570     36.2 1.159e+04 8.751e-10
 76.72530     36.4 1.164e+04 8.170e-10
 76.74490     36.3 1.173e+04 7.874e-10
 76.77441     35.7 1.203e+04 9.058e-10
 76.80390     36.2 1.218e+04 1.007e-09
 76.82351     39.8 1.155e+04 6.966e-10
 76.85292     40.5 1.187e+04 8.373e-10
 76.89212     40.9 1.255e+04 1.053e-09
 76.93133     41.1 1.322e+04 1.204e-09
 76.97054     40.4 1.376e+04 1.364e-09
 77.00975     39.4 1.435e+04 1.386e-09
 77.04895     38.0 1.415e+04 9.952e-10
 77.08816     35.8 1.267e+04 4.802e-10
 77.12737     32.6 1.074e+04 3.121e-10
 77.16657     30.5 1.027e+04 3.080e-10
 77.20578     30.3 1.019e+04 2.832e-10
 77.24499     30.8 9.895e+03 2.056e-10
 77.28400     30.2 9.823e+03 1.474e-10
 77.30360     32.4 1.036e+04 2.826e-10
 77.32340     32.7 1.009e+04 1.808e-10
 77.36261     32.8 9.727e+03 1.445e-10
 77.40182     33.0 9.538e+03 1.536e-10
 77.44102     33.6 9.537e+03 1.707e-10
 77.48023     34.2 9.644e+03 1.919e-10
 77.51944     34.2 9.707e+03 2.188e-10
 77.55865     33.7 9.933e+03 2.955e-10
 77.59785     33.3 1.020e+04 4.101e-10
 77.63706     33.4 1.021e+04 4.208e-10
 77.67627     33.6 1.009e+04 3.680e-10
 77.71548     33.6 9.851e+03 2.977e-10
 77.75468     33.7 9.609e+03 2.635e-10
 77.78369     34.1 9.549e+03 2.718e-10
 77.80330     34.5 9.389e+03 2.310e-10
 77.83310     35.3 9.425e+03 2.413e-10
 77.87230     36.1 9.603e+03 2.818e-10
 77.91151     36.6 9.914e+03 3.561e-10
 77.95072     37.1 1.016e+04 4.366e-10
 77.98993     37.5 1.019e+04 4.497e-10
 78.02913     38.0 1.007e+04 4.127e-10
 78.06834     38.7 9.775e+03 3.244e-10
 78.10755     39.5 9.451e+03 2.378e-10
 78.14675     40.4 9.208e+03 1.808e-10
 78.18596     41.5 9.065e+03 1.503e-10
 78.22517     42.8 8.986e+03 1.320e-10
 78.26379     44.2 8.892e+03 1.189e-10
 78.28339     43.8 8.966e+03 1.316e-10
 78.30358     45.2 8.985e+03 1.425e-10
 78.34279     46.6 9.010e+03 1.594e-10
 78.38200     48.1 9.035e+03 1.748e-10
 78.42120     49.7 9.044e+03 1.850e-10
 78.46041     51.3 9.048e+03 1.928e-10
 78.48897     52.8 9.060e+03 2.044e-10
 78.50858     53.5 9.044e+03 2.059e-10
 78.53883     55.0 9.108e+03 2.242e-10
 78.57803     56.6 9.325e+03 2.678e-10
 78.61724     58.1 9.659e+03 3.411e-10
 78.65645     59.4 9.817e+03 4.109e-10
 78.69565     60.4 9.888e+03 4.387e-10
 78.72496     61.2 9.792e+03 3.913e-10
 78.74447     61.7 9.788e+03 3.831e-10
 78.76329     62.4 9.808e+03 3.729e-10
 78.77309     61.5 9.754e+03 3.272e-10
 78.78368     61.4 9.819e+03 3.339e-10
 78.80328     61.0 1.013e+04 3.892e-10
 78.82288     60.4 1.052e+04 5.242e-10
 78.84249     60.1 1.082e+04 7.364e-10
 78.86209     60.1 1.109e+04 9.788e-10
 78.88169     60.1 1.141e+04 1.197e-09
 78.90130     59.8 1.184e+04 1.382e-09
 78.92090     58.5 1.261e+04 1.616e-09
 78.94050     55.9 1.360e+04 2.010e-09
 78.96011     52.7 1.405e+04 2.424e-09
 78.97971     49.9 1.396e+04 2.711e-09
 78.99931     47.8 1.379e+04 2.671e-09
 79.01314     46.3 1.349e+04 2.404e-09
 79.02294     46.5 1.317e+04 2.147e-09
 79.03852     44.6 1.296e+04 1.702e-09
 79.05813     43.5 1.272e+04 1.444e-09
 79.08763     40.9 1.204e+04 9.500e-10
 79.12693     38.7 1.102e+04 5.872e-10
 79.16614     38.3 1.057e+04 5.146e-10
 79.20535     38.7 1.038e+04 4.947e-10
 79.24358     39.8 1.020e+04 4.593e-10
 79.26318     39.4 9.844e+03 3.469e-10
 79.28376     40.8 9.574e+03 2.591e-10
 79.32297     41.8 9.336e+03 1.913e-10
 79.36218     42.5 9.227e+03 1.668e-10
 79.40138     43.3 9.235e+03 1.750e-10
 79.44059     44.3 9.300e+03 2.047e-10
 79.47980     45.5 9.430e+03 2.465e-10
 79.51900     46.9 9.532e+03 2.785e-10
 79.55821     48.4 9.526e+03 2.749e-10
 79.59742     49.8 9.450e+03 2.464e-10
 79.63663     50.9 9.350e+03 2.110e-10
 79.67583     51.7 9.408e+03 2.058e-10
 79.71335     51.8 9.627e+03 2.391e-10
 79.73295     50.8 9.603e+03 2.424e-10
 79.74328     50.7 9.963e+03 3.221e-10
 79.76288     48.5 1.003e+04 3.554e-10
 79.79345     48.8 1.028e+04 4.457e-10
 79.83266     49.1 1.030e+04 4.328e-10
 79.87187     48.8 1.011e+04 3.455e-10
 79.91108     48.0 9.649e+03 2.656e-10
 79.95028     47.4 9.288e+03 2.410e-10
 79.98949     47.5 9.165e+03 2.376e-10
 80.02870     47.8 9.161e+03 2.402e-10
 80.06791     47.9 9.231e+03 2.540e-10
 80.10711     47.7 9.397e+03 2.800e-10
 80.14632     46.9 9.593e+03 3.197e-10
 80.18553     46.0 9.704e+03 3.527e-10
 80.21483     45.4 9.737e+03 3.660e-10
 80.23298     44.7 9.908e+03 4.040e-10
 80.24278     44.8 9.954e+03 4.177e-10
 80.25394     43.7 1.036e+04 5.086e-10
 80.27355     41.8 1.098e+04 6.702e-10
 80.29315     39.3 1.169e+04 9.509e-10
 80.31275     37.0 1.225e+04 1.359e-09
 80.33236     35.5 1.261e+04 1.801e-09
 80.34495     34.4 1.285e+04 2.040e-09
 80.35475     34.0 1.318e+04 2.392e-09
 80.37157     32.9 1.328e+04 2.446e-09
 80.39117     31.7 1.319e+04 2.316e-09
 80.41077     30.2 1.288e+04 1.924e-09
 80.43038     28.0 1.239e+04 1.458e-09
 80.44998     25.0 1.179e+04 1.123e-09
 80.46958     21.9 1.130e+04 9.941e-10
 80.48283     19.4 1.123e+04 1.013e-09
 80.49263     20.1 1.124e+04 9.954e-10
 80.50879     17.8 1.132e+04 1.097e-09
 80.52839     15.3 1.171e+04 1.299e-09
 80.54800     12.5 1.246e+04 1.659e-09
 80.56760     10.0 1.263e+04 1.869e-09
 80.58720      9.1 1.218e+04 1.691e-09
 80.60681      8.5 1.165e+04 1.371e-09
 80.62641      7.6 1.120e+04 1.021e-09
 80.64602      6.2 1.073e+04 6.931e-10
 80.66562      4.2 1.020e+04 4.550e-10
 80.68522      1.6 9.805e+03 3.646e-10
 80.70483      1.5 9.746e+03 3.599e-10
 80.72297      0.9 9.394e+03 3.142e-10
 80.74267      1.7 9.319e+03 3.064e-10
 80.77363      2.2 9.037e+03 2.518e-10
 80.81284      2.2 8.878e+03 1.934e-10
 80.85205      2.1 8.753e+03 1.744e-10
 80.89126      2.5 8.845e+03 1.911e-10
 80.93046      3.3 9.262e+03 2.597e-10
 80.95723      2.5 9.813e+03 3.784e-10
 80.96694      2.4 9.573e+03 3.355e-10
 80.97272      3.6 9.616e+03 3.888e-10
 80.98253      3.4 9.500e+03 3.481e-10
 80.99888      3.9 1.005e+04 5.058e-10
 81.01848      5.5 1.030e+04 6.222e-10
 81.03809      6.3 1.087e+04 7.713e-10
 81.05769      6.7 1.107e+04 8.271e-10
 81.07729      7.2 1.123e+04 8.777e-10
 81.09690      7.7 1.132e+04 8.945e-10
 81.11650      7.1 1.167e+04 1.003e-09
 81.13611      7.3 1.170e+04 1.027e-09
 81.15571      6.5 1.225e+04 1.234e-09
 81.17531      6.6 1.251e+04 1.414e-09
 81.19492      6.7 1.282e+04 1.779e-09
 81.21277      7.2 1.285e+04 1.972e-09
 81.22257      7.2 1.272e+04 1.915e-09
 81.23412      7.7 1.273e+04 1.971e-09
 81.25373      8.2 1.276e+04 1.946e-09
 81.27333      8.3 1.274e+04 1.857e-09
 81.29293      8.4 1.260e+04 1.738e-09
 81.31254      8.8 1.217e+04 1.528e-09
 81.33214      9.2 1.183e+04 1.363e-09
 81.35174     10.7 1.134e+04 1.108e-09
 81.37135     10.8 1.124e+04 9.743e-10
 81.39095     11.7 1.078e+04 7.570e-10
 81.41056     12.8 1.038e+04 6.051e-10
 81.43016     14.1 9.990e+03 4.376e-10
 81.44976     14.4 9.832e+03 3.733e-10
 81.47927     15.5 9.540e+03 2.970e-10
 81.51857     17.0 9.330e+03 2.696e-10
 81.55778     18.9 9.458e+03 2.989e-10
 81.57922     19.4 9.572e+03 3.267e-10
 81.58893     19.3 9.616e+03 3.329e-10
 81.60659     20.2 9.771e+03 3.863e-10
 81.62619     21.1 1.008e+04 4.751e-10
 81.64580     21.1 1.048e+04 5.997e-10
 81.66540     20.3 1.142e+04 8.930e-10
 81.68501     18.5 1.234e+04 1.475e-09
 81.70267     18.6 1.308e+04 2.399e-09
 81.71247     18.5 1.311e+04 2.345e-09
 81.72421     19.1 1.380e+04 3.179e-09
 81.74382     19.6 1.415e+04 3.277e-09
 81.76342     19.9 1.416e+04 2.908e-09
 81.78302     19.7 1.387e+04 1.964e-09
 81.80263     18.8 1.305e+04 1.043e-09
 81.82223     16.3 1.171e+04 5.340e-10
 81.84183     14.1 1.063e+04 3.583e-10
 81.87134     13.7 1.055e+04 3.594e-10
 81.91064     14.4 1.034e+04 3.598e-10
 81.93995     15.3 1.020e+04 3.580e-10
 81.95252     16.4 1.040e+04 4.458e-10
 81.96232     16.0 1.063e+04 5.601e-10
 81.97906     17.4 1.110e+04 7.640e-10
 81.99866     18.7 1.177e+04 1.077e-09
 82.01827     19.3 1.293e+04 1.611e-09
 82.03787     19.1 1.446e+04 2.616e-09
 82.05747     19.2 1.563e+04 4.251e-09
 82.07708     20.3 1.626e+04 6.421e-09
 82.09668     20.6 1.746e+04 9.799e-09
 82.11628     19.7 1.912e+04 1.414e-08
 82.13589     15.4 2.238e+04 1.890e-08
 82.15054      7.1 2.721e+04 2.291e-08
 82.16029      1.1 2.795e+04 2.041e-08
 82.17010     -4.6 2.644e+04 1.707e-08
 82.17990    -12.0 2.411e+04 1.387e-08
 82.19127    -19.6 2.046e+04 9.957e-09
 82.19898    -23.8 1.707e+04 7.446e-09
 82.20237    -25.1 1.811e+04 9.966e-09
 82.21430    -28.0 1.754e+04 8.114e-09
 82.23391    -31.0 1.714e+04 5.187e-09
 82.25351    -36.1 1.463e+04 2.725e-09
 82.27311    -38.5 1.315e+04 1.913e-09
 82.29272    -39.3 1.258e+04 1.583e-09
 82.31232    -40.2 1.228e+04 1.419e-09
 82.33192    -41.3 1.223e+04 1.394e-09
 82.35153    -42.0 1.231e+04 1.461e-09
 82.37113    -42.3 1.235e+04 1.575e-09
 82.39073    -42.5 1.237e+04 1.669e-09
 82.41034    -43.2 1.263e+04 1.819e-09
 82.42994    -46.8 1.511e+04 2.576e-09
 82.44241    -52.6 1.793e+04 5.108e-09
 82.45221    -54.2 1.825e+04 6.426e-09
 82.46915    -56.8 1.895e+04 1.205e-08
 82.48875    -57.1 1.976e+04 1.959e-08
 82.50836    -57.1 2.031e+04 2.438e-08
 82.52796    -57.6 2.026e+04 2.416e-08
 82.54756    -58.0 1.971e+04 1.667e-08
 82.56717    -60.7 1.926e+04 1.101e-08
 82.58677    -64.5 1.839e+04 7.917e-09
 82.60637    -67.0 1.769e+04 6.992e-09
 82.62598    -68.0 1.747e+04 6.703e-09
 82.64558    -68.9 1.727e+04 6.518e-09
 82.66518    -70.0 1.704e+04 6.475e-09
 82.68246    -71.2 1.696e+04 6.637e-09
 82.69226    -72.3 1.698e+04 6.676e-09
 82.70439    -73.4 1.687e+04 6.986e-09
 82.72400    -73.9 1.682e+04 7.443e-09
 82.74360    -74.1 1.674e+04 7.695e-09
 82.76320    -74.2 1.660e+04 7.726e-09
 82.78281    -73.8 1.602e+04 6.965e-09
 82.80241    -73.0 1.528e+04 5.203e-09
 82.81330    -72.4 1.450e+04 3.399e-09
 82.82311    -72.6 1.481e+04 4.261e-09
 82.84162    -72.2 1.400e+04 2.633e-09
 82.86122    -72.2 1.314e+04 1.616e-09
 82.88082    -72.9 1.238e+04 1.060e-09
 82.90043    -73.5 1.175e+04 7.695e-10
 82.92993    -73.7 1.116e+04 5.828e-10
 82.96924    -72.7 1.043e+04 3.757e-10
 83.00844    -72.0 1.016e+04 3.150e-10
 83.04765    -71.6 1.010e+04 3.054e-10
 83.08686    -71.1 1.005e+04 3.147e-10
 83.12606    -70.6 1.010e+04 3.432e-10
 83.16275    -70.2 1.017e+04 3.656e-10
 83.18226    -70.6 1.017e+04 3.940e-10
 83.20438    -70.5 1.016e+04 3.843e-10
 83.24369    -70.5 1.015e+04 3.934e-10
 83.28289    -70.2 1.010e+04 4.219e-10
 83.32210    -69.4 1.004e+04 4.390e-10
 83.36131    -68.2 9.837e+03 4.275e-10
 83.40051    -66.8 9.792e+03 3.889e-10
 83.42569    -66.3 9.816e+03 3.551e-10
 83.44529    -68.8 9.868e+03 3.787e-10
 83.47893    -68.1 9.642e+03 3.962e-10
 83.51814    -66.7 9.592e+03 4.030e-10
 83.55734    -65.6 9.539e+03 3.647e-10
 83.59655    -65.0 9.482e+03 2.951e-10
 83.63576    -64.5 9.241e+03 2.432e-10
 83.66245    -63.7 8.900e+03 2.141e-10
 83.68205    -64.4 8.891e+03 2.039e-10
 83.71417    -63.1 8.675e+03 1.932e-10
 83.75338    -61.7 8.637e+03 1.865e-10
 83.79259    -60.5 8.682e+03 1.854e-10
 83.83179    -59.9 9.008e+03 1.995e-10
 83.87100    -59.4 9.303e+03 2.459e-10
 83.91021    -58.9 9.505e+03 3.077e-10
 83.94941    -58.4 9.643e+03 3.522e-10
 83.98862    -58.3 9.675e+03 3.605e-10
 84.02783    -58.6 9.661e+03 3.585e-10
 84.06704    -59.7 9.652e+03 3.571e-10
 84.10624    -60.5 9.589e+03 3.687e-10
 84.14254    -60.8 9.486e+03 3.551e-10
 84.16214    -61.6 9.724e+03 4.126e-10
 84.18466    -61.8 9.291e+03 2.841e-10
 84.22386    -62.3 8.808e+03 1.876e-10
 84.26307    -62.6 8.535e+03 1.481e-10
 84.30228    -62.4 8.435e+03 1.393e-10
 84.34149    -61.7 8.398e+03 1.382e-10
 84.38069    -60.9 8.348e+03 1.376e-10
 84.41990    -59.9 8.258e+03 1.292e-10
 84.45911    -58.8 8.155e+03 1.118e-10
 84.49832    -57.9 8.063e+03 9.406e-11
 84.53752    -57.0 7.995e+03 8.481e-11
 84.57673    -56.0 7.978e+03 8.316e-11
 84.61594    -55.1 8.008e+03 8.970e-11
 84.64224    -54.0 8.125e+03 1.107e-10
 84.65676    -53.9 8.079e+03 1.019e-10
 84.66967    -53.9 8.040e+03 1.030e-10
 84.69435    -52.4 8.181e+03 1.244e-10
 84.73356    -50.8 8.341e+03 1.422e-10
 84.77277    -49.4 8.439e+03 1.483e-10
 84.81197    -48.2 8.497e+03 1.435e-10
 84.85118    -47.1 8.489e+03 1.310e-10
 84.89039    -46.0 8.436e+03 1.220e-10
 84.92959    -44.6 8.386e+03 1.168e-10
 84.96880    -42.9 8.341e+03 1.068e-10
 85.00801    -41.1 8.304e+03 8.776e-11
 85.04722    -39.9 8.287e+03 7.250e-11
 85.08642    -39.1 8.304e+03 7.031e-11
 85.12233    -38.6 8.506e+03 1.037e-10
 85.14194    -38.1 8.596e+03 1.080e-10
 85.16484    -37.3 8.806e+03 1.890e-10
 85.20404    -34.7 9.174e+03 3.015e-10
 85.24325    -32.1 9.488e+03 3.603e-10
 85.28246    -30.4 9.419e+03 3.158e-10
 85.32167    -29.0 9.066e+03 2.135e-10
 85.36087    -27.9 8.770e+03 1.696e-10
 85.40008    -26.4 8.705e+03 1.511e-10
 85.43929    -25.1 8.766e+03 1.435e-10
 85.47849    -24.0 8.932e+03 1.675e-10
 85.51770    -22.8 9.172e+03 2.381e-10
 85.55691    -21.2 9.504e+03 3.379e-10
 85.59612    -19.3 9.644e+03 4.226e-10
 85.62203    -17.3 9.746e+03 4.435e-10
 85.64163    -16.4 9.872e+03 4.618e-10
 85.67453    -14.7 9.897e+03 4.264e-10
 85.71374    -13.5 9.502e+03 3.130e-10
 85.75294    -12.7 9.211e+03 2.148e-10
 85.79215    -12.3 9.031e+03 1.984e-10
 85.83136    -11.9 9.026e+03 2.251e-10
 85.87057    -11.2 9.411e+03 3.065e-10
 85.89395    -10.3 9.935e+03 4.577e-10
 85.90365    -10.4 1.036e+04 5.047e-10
 85.91938     -9.9 1.062e+04 5.640e-10
 85.93898     -9.9 1.082e+04 7.220e-10
 85.95859     -9.5 1.112e+04 9.064e-10
 85.97819     -9.4 1.160e+04 1.172e-09
 85.99779     -9.2 1.193e+04 1.446e-09
 86.01740     -8.9 1.227e+04 1.763e-09
 86.03700     -8.1 1.249e+04 2.042e-09
 86.05660     -7.2 1.263e+04 2.158e-09
 86.07621     -6.2 1.252e+04 2.052e-09
 86.09581     -5.1 1.221e+04 1.736e-09
 86.11173     -4.3 1.183e+04 1.357e-09
 86.12153     -4.2 1.186e+04 1.388e-09
 86.13502     -3.4 1.141e+04 1.023e-09
 86.15462     -3.1 1.097e+04 7.348e-10
 86.17423     -2.9 1.063e+04 5.310e-10
 86.19383     -2.9 1.061e+04 5.056e-10
 86.22333     -1.4 1.056e+04 4.903e-10
 86.26264     -0.4 1.018e+04 3.965e-10
 86.30184      0.7 1.020e+04 3.979e-10
 86.34105      1.8 1.002e+04 3.915e-10
 86.36168      2.8 9.787e+03 3.478e-10
 86.37138      3.2 9.810e+03 3.521e-10
 86.38987      3.3 9.825e+03 3.518e-10
 86.41937      5.1 9.708e+03 3.152e-10
 86.45867      7.0 9.597e+03 2.494e-10
 86.49788      8.6 9.681e+03 2.201e-10
 86.53709      9.7 9.921e+03 2.358e-10
 86.56640     10.2 1.001e+04 2.532e-10
 86.58590     10.4 1.019e+04 3.031e-10
 86.60163     10.3 1.060e+04 4.197e-10
 86.61143     10.1 1.060e+04 4.195e-10
 86.62511      9.9 1.128e+04 6.302e-10
 86.64471      9.4 1.204e+04 9.885e-10
 86.66432      9.0 1.272e+04 1.498e-09
 86.68392      9.1 1.330e+04 2.115e-09
 86.70352      9.3 1.378e+04 2.512e-09
 86.72313      9.0 1.421e+04 2.515e-09
 86.74273      7.5 1.461e+04 2.519e-09
 86.76233      3.7 1.527e+04 2.665e-09
 86.77699     -1.0 1.633e+04 3.512e-09
 86.78674     -1.9 1.641e+04 3.628e-09
 86.79654     -8.5 1.927e+04 6.955e-09
 86.80634    -14.1 2.210e+04 1.125e-08
 86.81615    -18.8 2.389e+04 2.224e-08
 86.82184    -21.7 2.435e+04 3.615e-08
 86.82674    -22.8 2.435e+04 3.645e-08
 86.83575    -24.7 2.338e+04 5.123e-08
 86.84555    -26.4 2.312e+04 5.572e-08
 86.85138    -28.0 2.268e+04 5.182e-08
 86.85628    -26.5 2.268e+04 4.687e-08
 86.86515    -28.1 2.282e+04 3.850e-08
 86.87496    -30.4 2.294e+04 2.903e-08
 86.88476    -33.3 2.259e+04 2.150e-08
 86.89456    -36.6 2.116e+04 1.573e-08
 86.90436    -37.0 2.099e+04 1.487e-08
 86.91911    -37.9 2.061e+04 1.330e-08
 86.93877    -38.9 2.062e+04 1.123e-08
 86.95837    -39.2 2.051e+04 9.280e-09
 86.97797    -39.8 1.945e+04 7.058e-09
 86.99758    -40.6 1.743e+04 5.947e-09
 87.01718    -40.3 1.670e+04 5.825e-09
 87.03678    -39.6 1.663e+04 5.951e-09
 87.05639    -39.2 1.676e+04 6.252e-09
 87.07599    -38.8 1.701e+04 6.905e-09
 87.09152    -38.1 1.731e+04 7.832e-09
 87.10133    -37.1 1.775e+04 8.563e-09
 87.11520    -36.6 1.824e+04 1.024e-08
 87.12803    -36.0 1.866e+04 1.188e-08
 87.13783    -35.8 1.634e+04 4.969e-09
 87.15441    -35.3 1.635e+04 5.509e-09
 87.17401    -34.7 1.627e+04 5.791e-09
 87.19361    -34.1 1.615e+04 5.734e-09
 87.21322    -33.5 1.611e+04 5.365e-09
 87.23282    -33.0 1.630e+04 4.913e-09
 87.25242    -32.8 1.633e+04 4.257e-09
 87.27203    -32.6 1.614e+04 3.597e-09
 87.29163    -32.4 1.567e+04 2.983e-09
 87.31123    -32.5 1.490e+04 2.434e-09
 87.33084    -32.7 1.409e+04 2.056e-09
 87.34137    -32.6 1.344e+04 1.831e-09
 87.35117    -32.4 1.430e+04 2.355e-09
 87.37004    -32.3 1.365e+04 2.082e-09
 87.38965    -31.6 1.314e+04 1.893e-09
 87.40925    -30.5 1.271e+04 1.737e-09
 87.42886    -29.3 1.224e+04 1.557e-09
 87.44846    -27.9 1.195e+04 1.407e-09
 87.46806    -26.9 1.185e+04 1.276e-09
 87.48767    -26.2 1.207e+04 1.236e-09
 87.50727    -26.2 1.322e+04 1.332e-09
 87.52687    -27.1 1.479e+04 1.701e-09
 87.54648    -27.6 1.588e+04 2.417e-09
 87.56608    -27.2 1.631e+04 3.366e-09
 87.58142    -26.4 1.612e+04 4.252e-09
 87.59122    -26.8 1.657e+04 5.235e-09
 87.60529    -25.2 1.644e+04 6.408e-09
 87.62489    -23.2 1.640e+04 7.153e-09
 87.64450    -22.0 1.634e+04 7.243e-09
 87.66410    -20.8 1.627e+04 6.526e-09
 87.68370    -19.9 1.582e+04 5.750e-09
 87.70331    -19.1 1.545e+04 4.852e-09
 87.72291    -18.3 1.518e+04 3.977e-09
 87.74022    -17.7 1.503e+04 3.249e-09
 87.75002    -15.8 1.561e+04 4.962e-09
 87.76212    -15.1 1.559e+04 4.372e-09
 87.78172    -14.8 1.548e+04 3.711e-09
 87.80132    -14.8 1.527e+04 3.155e-09
 87.82093    -15.3 1.466e+04 2.746e-09
 87.83127    -16.3 1.399e+04 2.462e-09
 87.84107    -15.5 1.557e+04 2.698e-09
 87.86013    -17.1 1.412e+04 2.263e-09
 87.87974    -19.0 1.346e+04 1.811e-09
 87.89934    -20.8 1.295e+04 1.640e-09
 87.91895    -22.1 1.283e+04 1.582e-09
 87.93855    -24.6 1.288e+04 1.546e-09
 87.95815    -27.7 1.376e+04 1.698e-09
 87.97776    -31.6 1.447e+04 1.871e-09
 87.99736    -35.4 1.461e+04 2.118e-09
 88.01696    -38.4 1.450e+04 2.451e-09
 88.03657    -42.7 1.556e+04 3.282e-09
 88.05617    -50.9 1.923e+04 5.869e-09
 88.07132    -59.2 2.077e+04 1.214e-08
 88.08112    -62.0 2.058e+04 1.256e-08
 88.09538    -66.6 1.991e+04 1.834e-08
 88.11498    -69.4 1.967e+04 1.912e-08
 88.13458    -72.2 1.927e+04 1.252e-08
 88.15419    -78.8 1.804e+04 3.561e-09
 88.17379    -90.4 1.301e+04 8.176e-10
 88.19340    -96.0 1.008e+04 4.872e-10
 88.21300    -96.9 9.700e+03 4.243e-10
 88.23260    -97.3 9.696e+03 3.890e-10
 88.25221    -97.8 9.660e+03 3.473e-10
 88.27181    -98.3 9.574e+03 3.218e-10
 88.30131    -98.7 9.489e+03 3.114e-10
 88.34062    -98.9 9.271e+03 2.934e-10
 88.36240    -98.1 9.148e+03 2.880e-10
 88.38201    -99.0 9.731e+03 4.556e-10
 88.41903    -97.6 9.735e+03 4.488e-10
 88.45824    -96.0 9.640e+03 4.202e-10
 88.49745    -94.3 9.623e+03 3.914e-10
 88.53665    -92.5 9.625e+03 3.837e-10
 88.56141    -91.0 9.660e+03 3.878e-10
 88.58101    -89.5 9.837e+03 4.363e-10
 88.61507    -88.1 1.009e+04 4.933e-10
 88.65427    -86.7 1.030e+04 5.489e-10
 88.69348    -85.8 1.039e+04 5.689e-10
 88.73269    -85.6 1.039e+04 5.606e-10
 88.77190    -86.6 1.069e+04 5.895e-10
 88.81110    -89.0 1.152e+04 8.400e-10
 88.84041    -90.3 1.178e+04 1.128e-09
 88.85992    -91.5 1.223e+04 1.356e-09
 88.87952    -93.3 1.300e+04 1.719e-09
 88.89912    -95.3 1.373e+04 2.230e-09
 88.91873    -96.9 1.410e+04 2.685e-09
 88.93833    -98.0 1.413e+04 2.883e-09
 88.95794    -98.9 1.408e+04 2.902e-09
 88.97439    -99.4 1.358e+04 2.533e-09
 88.98420    -98.2 1.359e+04 2.646e-09
 88.99714    -98.6 1.279e+04 1.670e-09
 89.01675    -99.6 1.196e+04 1.031e-09
 89.03635   -100.5 1.121e+04 6.838e-10
 89.05111   -100.8 1.074e+04 5.156e-10
 89.06091   -100.4 1.083e+04 5.329e-10
 89.07556   -100.5 1.075e+04 4.448e-10
 89.09516   -100.2 1.080e+04 4.190e-10
 89.11476    -99.7 1.092e+04 4.161e-10
 89.13437    -99.6 1.169e+04 4.488e-10
 89.15397    -99.7 1.268e+04 5.593e-10
 89.17357   -100.2 1.348e+04 7.846e-10
 89.19318   -100.7 1.378e+04 1.178e-09
 89.21278   -100.9 1.379e+04 1.798e-09
 89.23239   -100.8 1.384e+04 2.723e-09
 89.25199   -100.2 1.400e+04 3.782e-09
 89.27159    -99.2 1.423e+04 4.626e-09
 89.29115    -98.2 1.444e+04 5.006e-09
 89.31076    -96.7 1.443e+04 5.166e-09
 89.33040    -96.1 1.446e+04 4.935e-09
 89.35001    -95.7 1.443e+04 3.983e-09
 89.36961    -95.7 1.423e+04 2.897e-09
 89.38921    -96.7 1.384e+04 2.040e-09
 89.40882    -97.8 1.312e+04 1.427e-09
 89.42842    -98.6 1.226e+04 1.026e-09
 89.44802    -99.2 1.151e+04 7.794e-10
 89.46763    -99.6 1.091e+04 6.232e-10
 89.48723    -99.7 1.049e+04 5.188e-10
 89.50684    -99.6 1.024e+04 4.445e-10
 89.52644    -99.3 1.008e+04 3.835e-10
 89.54100    -98.8 9.970e+03 3.341e-10
 89.55081    -98.6 1.006e+04 3.753e-10
 89.56565    -98.2 9.967e+03 3.339e-10
 89.58668    -97.8 9.877e+03 3.041e-10
 89.60628    -97.0 9.951e+03 3.075e-10
 89.63436    -95.8 9.934e+03 3.059e-10
 89.67366    -94.6 9.852e+03 2.901e-10
 89.71287    -92.9 9.755e+03 2.789e-10
 89.75208    -91.0 9.727e+03 2.771e-10
 89.79128    -89.1 9.764e+03 2.930e-10
 89.83049    -87.0 9.887e+03 3.319e-10
 89.86970    -84.6 1.003e+04 3.791e-10
 89.90890    -82.1 1.017e+04 4.179e-10
 89.94811    -79.7 1.023e+04 4.312e-10
 89.98732    -77.1 1.026e+04 4.346e-10
 90.02129    -74.5 1.029e+04 4.261e-10
 90.04090    -74.4 1.000e+04 3.411e-10
 90.06573    -71.7 9.938e+03 3.119e-10
 90.10494    -69.0 9.842e+03 2.804e-10
 90.14415    -66.2 9.803e+03 2.596e-10
 90.18335    -63.5 9.827e+03 2.547e-10
 90.22256    -60.9 9.945e+03 2.612e-10
 90.26177    -58.4 1.014e+04 2.888e-10
 90.30098    -56.2 1.046e+04 3.556e-10
 90.34018    -55.3 1.126e+04 5.441e-10
 90.37939    -55.4 1.256e+04 1.101e-09
 90.40870    -55.2 1.340e+04 1.984e-09
 90.42820    -55.6 1.413e+04 3.199e-09
 90.44781    -55.3 1.489e+04 5.098e-09
 90.46741    -54.3 1.557e+04 7.179e-09
 90.48701    -52.9 1.607e+04 8.701e-09
 90.50662    -51.4 1.626e+04 8.778e-09
 90.52080    -50.1 1.631e+04 6.643e-09
 90.53060    -49.6 1.601e+04 5.602e-09
 90.54583    -48.7 1.565e+04 3.099e-09
 90.56543    -49.1 1.482e+04 1.503e-09
 90.58503    -50.9 1.328e+04 7.803e-10
 90.60464    -51.5 1.187e+04 5.059e-10
 90.62424    -51.2 1.127e+04 4.100e-10
 90.64384    -50.3 1.106e+04 3.590e-10
 90.66345    -49.3 1.091e+04 3.305e-10
 90.68305    -48.3 1.087e+04 3.160e-10
 90.70265    -47.2 1.079e+04 3.025e-10
 90.73216    -45.5 1.082e+04 2.881e-10
 90.77146    -43.6 1.089e+04 2.876e-10
 90.81067    -41.6 1.099e+04 2.801e-10
 90.83076    -39.9 1.110e+04 2.755e-10
 90.84046    -39.5 1.125e+04 3.027e-10
 90.85948    -39.1 1.126e+04 3.057e-10
 90.87909    -38.2 1.153e+04 3.432e-10
 90.89869    -38.1 1.156e+04 3.707e-10
 90.91829    -37.0 1.177e+04 4.465e-10
 90.93790    -36.4 1.184e+04 5.080e-10
 90.95750    -35.3 1.201e+04 5.968e-10
 90.97710    -34.4 1.207e+04 6.397e-10
 90.99671    -33.4 1.215e+04 6.677e-10
 91.01069    -32.6 1.208e+04 6.620e-10
 91.02049    -32.4 1.223e+04 7.270e-10
 91.03592    -31.7 1.214e+04 6.989e-10
 91.05552    -31.1 1.204e+04 6.764e-10
 91.07512    -30.3 1.201e+04 6.726e-10
 91.09473    -29.6 1.200e+04 6.787e-10
 91.11433    -28.7 1.198e+04 6.939e-10
 91.13393    -27.7 1.197e+04 7.043e-10
 91.15354    -26.7 1.201e+04 7.140e-10
 91.17314    -25.9 1.201e+04 7.121e-10
 91.19274    -24.9 1.206e+04 7.201e-10
 91.21235    -24.2 1.212e+04 7.400e-10
 91.23195    -23.5 1.213e+04 7.645e-10
 91.25074    -22.6 1.212e+04 7.954e-10
 91.26054    -22.6 1.214e+04 7.870e-10
 91.27116    -21.7 1.212e+04 8.301e-10
 91.29076    -20.8 1.210e+04 8.476e-10
 91.31037    -19.7 1.214e+04 8.794e-10
 91.32997    -18.9 1.199e+04 9.069e-10
 91.34957    -17.9 1.200e+04 9.248e-10
 91.36918    -17.1 1.202e+04 9.454e-10
 91.38878    -16.3 1.206e+04 9.911e-10
 91.40838    -15.6 1.214e+04 1.039e-09
 91.42799    -15.0 1.233e+04 1.184e-09
 91.44275    -14.7 1.273e+04 1.349e-09
 91.45255    -14.7 1.354e+04 1.935e-09
 91.46719    -14.9 1.408e+04 2.542e-09
 91.48680    -14.8 1.452e+04 3.402e-09
 91.50059    -13.9 1.476e+04 4.232e-09
 91.51039    -14.1 1.516e+04 5.320e-09
 91.52600    -12.8 1.528e+04 5.558e-09
 91.54561    -11.3 1.516e+04 4.781e-09
 91.56521    -10.3 1.481e+04 3.654e-09
 91.58482    -10.0 1.425e+04 2.631e-09
 91.60442    -10.0 1.371e+04 1.891e-09
 91.62402    -10.3 1.327e+04 1.433e-09
 91.64363    -10.4 1.287e+04 1.295e-09
 91.66323     -9.7 1.245e+04 1.375e-09
 91.68283     -8.7 1.261e+04 1.324e-09
 91.70244     -7.7 1.264e+04 1.340e-09
 91.72204     -6.7 1.249e+04 1.423e-09
 91.74063     -5.9 1.256e+04 1.374e-09
 91.75044     -6.2 1.239e+04 1.242e-09
 91.76125     -5.8 1.238e+04 1.272e-09
 91.78085     -5.3 1.235e+04 1.264e-09
 91.80045     -4.7 1.240e+04 1.293e-09
 91.82006     -4.0 1.243e+04 1.303e-09
 91.83966     -3.2 1.248e+04 1.235e-09
 91.85927     -2.6 1.249e+04 1.089e-09
 91.87887     -2.7 1.223e+04 9.186e-10
 91.89847     -3.4 1.193e+04 7.800e-10
 91.91808     -4.1 1.148e+04 7.483e-10
 91.93768     -4.3 1.140e+04 8.236e-10
 91.95728     -4.2 1.159e+04 9.516e-10
 91.97689     -3.7 1.183e+04 1.155e-09
 91.99048     -3.1 1.203e+04 1.363e-09
 92.00029     -3.2 1.194e+04 1.242e-09
 92.01609     -2.6 1.222e+04 1.467e-09
 92.03570     -2.0 1.257e+04 1.657e-09
 92.05494     -1.9 1.308e+04 1.894e-09
 92.06474     -2.7 1.307e+04 1.634e-09
 92.07490     -3.5 1.377e+04 2.012e-09
 92.09451     -4.6 1.436e+04 2.716e-09
 92.11411     -5.6 1.495e+04 3.680e-09
 92.13372     -6.6 1.568e+04 5.171e-09
 92.15332     -7.6 1.669e+04 7.181e-09
 92.17292     -8.3 1.754e+04 9.688e-09
 92.19253     -8.9 1.800e+04 1.131e-08
 92.21213    -10.2 1.800e+04 1.092e-08
 92.23053    -11.6 1.719e+04 8.557e-09
 92.24033    -12.2 1.689e+04 8.059e-09
 92.25134    -14.1 1.596e+04 6.225e-09
 92.27094    -16.8 1.533e+04 4.708e-09
 92.29054    -19.6 1.501e+04 3.813e-09
 92.31015    -21.7 1.444e+04 3.219e-09
 92.32975    -22.9 1.379e+04 2.697e-09
 92.34936    -24.4 1.329e+04 2.186e-09
 92.36896    -26.1 1.275e+04 1.793e-09
 92.38856    -27.2 1.223e+04 1.501e-09
 92.40817    -27.5 1.188e+04 1.293e-09
 92.42777    -27.3 1.164e+04 1.071e-09
 92.44737    -27.1 1.139e+04 8.220e-10
 92.46698    -27.1 1.102e+04 5.968e-10
 92.48038    -27.3 1.065e+04 4.346e-10
 92.49018    -27.4 1.072e+04 4.590e-10
 92.50618    -27.4 1.046e+04 3.501e-10
 92.52579    -27.4 1.024e+04 2.828e-10
 92.54539    -27.5 1.006e+04 2.640e-10
 92.57489    -27.4 1.012e+04 2.749e-10
 92.61420    -26.8 1.031e+04 3.156e-10
 92.65341    -26.4 1.088e+04 4.966e-10
 92.69261    -24.9 1.164e+04 8.966e-10
 92.73182    -23.5 1.234e+04 1.380e-09
 92.76113    -22.4 1.270e+04 1.659e-09
 92.78063    -22.2 1.309e+04 2.029e-09
 92.80024    -22.0 1.365e+04 2.775e-09
 92.81984    -22.0 1.448e+04 3.957e-09
 92.83944    -22.4 1.571e+04 5.992e-09
 92.85905    -23.0 1.725e+04 9.751e-09
 92.87865    -23.3 1.855e+04 1.553e-08
 92.89331    -23.4 1.886e+04 1.489e-08
 92.90306    -23.7 1.906e+04 1.583e-08
 92.91286    -23.9 1.935e+04 1.666e-08
 92.92266    -24.0 1.938e+04 1.639e-08
 92.93246    -24.4 1.917e+04 1.421e-08
 92.94227    -24.6 1.880e+04 1.288e-08
 92.95702    -24.1 1.884e+04 1.169e-08
 92.97028    -26.0 1.660e+04 5.597e-09
 92.98008    -26.1 1.606e+04 5.417e-09
 92.99627    -27.6 1.434e+04 3.098e-09
 93.01588    -28.3 1.325e+04 2.148e-09
 93.03548    -28.6 1.246e+04 1.595e-09
 93.05508    -28.0 1.188e+04 1.268e-09
 93.07469    -27.1 1.145e+04 1.008e-09
 93.09429    -26.0 1.102e+04 7.607e-10
 93.12379    -25.4 1.043e+04 5.125e-10
 93.16310    -22.8 9.616e+03 2.549e-10
 93.20231    -21.2 9.303e+03 1.800e-10
 93.24151    -19.2 9.116e+03 1.423e-10
 93.27951    -17.2 9.010e+03 1.282e-10
 93.29911    -16.4 9.030e+03 1.297e-10
 93.31993    -14.3 9.021e+03 1.270e-10
 93.35914    -12.6 9.062e+03 1.365e-10
 93.39834    -10.9 9.153e+03 1.670e-10
 93.43755     -9.4 9.385e+03 2.107e-10
 93.46037     -7.9 9.546e+03 2.688e-10
 93.47997     -7.8 9.503e+03 2.522e-10
 93.51596     -6.3 9.583e+03 2.841e-10
 93.55517     -5.0 9.663e+03 2.933e-10
 93.59438     -4.1 9.715e+03 2.749e-10
 93.63359     -4.0 9.931e+03 2.479e-10
 93.67279     -5.6 1.055e+04 3.099e-10
 93.71200     -6.6 1.107e+04 6.504e-10
 93.75121     -5.1 1.133e+04 1.140e-09
 93.79041     -3.7 1.153e+04 1.017e-09
 93.82962     -3.3 1.143e+04 6.977e-10
 93.86883     -3.7 1.108e+04 5.331e-10
 93.90804     -3.5 1.080e+04 4.831e-10
 93.94046     -2.4 1.064e+04 3.957e-10
 93.96006     -2.2 1.077e+04 4.551e-10
 93.98645     -1.3 1.061e+04 3.235e-10
 94.02566     -1.0 1.029e+04 2.497e-10
 94.06486     -0.3 9.986e+03 2.181e-10
 94.10407      0.7 9.948e+03 1.924e-10
 94.14328      1.5 9.970e+03 1.814e-10
 94.18249      2.4 9.903e+03 1.850e-10
 94.22169      3.4 9.752e+03 1.948e-10
 94.26090      4.5 9.527e+03 1.995e-10
 94.30011      5.5 9.499e+03 2.164e-10
 94.33931      7.0 9.488e+03 2.053e-10
 94.37852      8.2 9.737e+03 2.134e-10
 94.41773      9.1 1.004e+04 2.773e-10
 94.44016     10.6 1.025e+04 3.752e-10
 94.45976     11.1 9.826e+03 2.826e-10
 94.49614     13.1 9.893e+03 3.414e-10
 94.52349     15.5 9.917e+03 3.651e-10
 94.54310     16.1 9.531e+03 2.603e-10
 94.57456     18.5 9.528e+03 2.782e-10
 94.61376     20.9 9.447e+03 2.639e-10
 94.65297     23.2 9.306e+03 2.436e-10
 94.69218     25.4 9.218e+03 2.264e-10
 94.73139     27.7 9.127e+03 2.173e-10
 94.77059     30.1 9.060e+03 2.157e-10
 94.80980     32.7 9.020e+03 2.150e-10
 94.84901     35.3 8.976e+03 2.113e-10
 94.88821     38.0 8.921e+03 2.000e-10
 94.92025     40.7 8.869e+03 1.810e-10
 94.93986     41.3 8.775e+03 1.584e-10
 94.96663     43.9 8.763e+03 1.469e-10
 95.00584     46.5 8.760e+03 1.373e-10
 95.04504     48.9 8.787e+03 1.328e-10
 95.08425     51.4 8.808e+03 1.335e-10
 95.12346     53.8 8.862e+03 1.388e-10
 95.16266     56.1 8.978e+03 1.560e-10
 95.20187     58.5 9.211e+03 1.939e-10
 95.24108     60.9 9.572e+03 2.564e-10
 95.28029     62.8 9.939e+03 3.238e-10
 95.31949     64.3 1.031e+04 4.166e-10
 95.34880     65.5 1.040e+04 4.774e-10
 95.36831     66.4 1.065e+04 5.581e-10
 95.38791     67.3 1.105e+04 6.539e-10
 95.40751     67.9 1.132e+04 7.215e-10
 95.41976     68.6 1.151e+04 7.492e-10
 95.42956     69.3 1.127e+04 6.841e-10
 95.44672     70.0 1.141e+04 6.924e-10
 95.46632     70.5 1.156e+04 6.985e-10
 95.48593     71.0 1.159e+04 6.965e-10
 95.50553     71.8 1.163e+04 6.956e-10
 95.52514     72.5 1.165e+04 6.965e-10
 95.54474     73.3 1.172e+04 7.087e-10
 95.56434     74.0 1.178e+04 7.337e-10
 95.58395     74.7 1.179e+04 7.676e-10
 95.60355     75.6 1.179e+04 8.158e-10
 95.62315     76.4 1.182e+04 8.761e-10
 95.64276     77.1 1.185e+04 9.282e-10
 95.65980     77.9 1.188e+04 9.724e-10
 95.66960     78.6 1.199e+04 1.012e-09
 95.68196     79.2 1.207e+04 1.074e-09
 95.70157     79.7 1.216e+04 1.141e-09
 95.72117     80.2 1.227e+04 1.218e-09
 95.74078     80.7 1.240e+04 1.309e-09
 95.75747     81.1 1.255e+04 1.421e-09
 95.76728     82.3 1.293e+04 1.638e-09
 95.77998     82.5 1.320e+04 1.853e-09
 95.79959     82.6 1.353e+04 2.154e-09
 95.81919     82.6 1.395e+04 2.556e-09
 95.83879     82.5 1.446e+04 3.024e-09
 95.85840     82.5 1.493e+04 3.403e-09
 95.87800     82.4 1.511e+04 3.311e-09
 95.89760     82.2 1.507e+04 3.020e-09
 95.90965     81.7 1.469e+04 2.492e-09
 95.91945     82.5 1.531e+04 3.194e-09
 95.93681     81.9 1.474e+04 2.461e-09
 95.95641     81.3 1.390e+04 1.877e-09
 95.97602     80.7 1.299e+04 1.497e-09
 95.99562     80.4 1.224e+04 1.294e-09
 96.01523     80.5 1.183e+04 1.200e-09
 96.03483     80.9 1.164e+04 1.147e-09
 96.05443     81.6 1.157e+04 1.081e-09
 96.07404     82.3 1.148e+04 9.813e-10
 96.09364     83.0 1.133e+04 8.353e-10
 96.11324     83.6 1.111e+04 6.900e-10
 96.13285     84.2 1.085e+04 5.627e-10
 96.14970     84.7 1.054e+04 4.580e-10
 96.15950     85.3 1.075e+04 5.291e-10
 96.17205     85.8 1.041e+04 4.118e-10
 96.19166     86.0 1.014e+04 3.538e-10
 96.21126     86.7 9.880e+03 3.088e-10
 96.23086     87.0 9.715e+03 2.870e-10
 96.25047     87.8 9.552e+03 2.710e-10
 96.27007     88.1 9.464e+03 2.628e-10
 96.28968     89.0 9.406e+03 2.617e-10
 96.30928     89.4 9.373e+03 2.605e-10
 96.32888     90.2 9.387e+03 2.675e-10
 96.34849     90.6 9.387e+03 2.706e-10
 96.36809     91.1 9.387e+03 2.738e-10
 96.37946     91.6 9.403e+03 2.833e-10
 96.38927     91.7 9.426e+03 2.872e-10
 96.39955     92.0 9.523e+03 3.154e-10
 96.40935     91.9 9.556e+03 3.277e-10
 96.42690     91.9 9.830e+03 3.959e-10
 96.44650     91.8 1.022e+04 5.130e-10
 96.46611     91.8 1.067e+04 6.843e-10
 96.48571     91.6 1.125e+04 9.090e-10
 96.50531     91.2 1.182e+04 1.236e-09
 96.52492     90.9 1.228e+04 1.625e-09
 96.54452     90.8 1.263e+04 2.004e-09
 96.56413     90.7 1.292e+04 2.307e-09
 96.58373     90.4 1.322e+04 2.511e-09
 96.60333     89.7 1.353e+04 2.654e-09
 96.62294     88.6 1.383e+04 2.797e-09
 96.63959     87.2 1.406e+04 2.984e-09
 96.64940     87.5 1.368e+04 2.486e-09
 96.66214     86.3 1.385e+04 2.737e-09
 96.68175     85.4 1.386e+04 2.864e-09
 96.70135     84.8 1.373e+04 2.736e-09
 96.72095     84.6 1.338e+04 2.303e-09
 96.74056     84.5 1.293e+04 1.671e-09
 96.76016     84.1 1.249e+04 1.096e-09
 96.77977     83.1 1.208e+04 7.166e-10
 96.79937     81.9 1.160e+04 5.265e-10
 96.81897     81.3 1.116e+04 4.975e-10
 96.83858     81.3 1.115e+04 4.994e-10
 96.85818     81.6 1.112e+04 5.130e-10
 96.87778     81.8 1.117e+04 5.458e-10
 96.88944     82.0 1.127e+04 5.944e-10
 96.89925     82.9 1.122e+04 5.679e-10
 96.91699     83.1 1.135e+04 6.285e-10
 96.93659     83.4 1.149e+04 7.023e-10
 96.95620     83.6 1.166e+04 7.949e-10
 96.97580     83.8 1.190e+04 9.340e-10
 96.99165     84.0 1.227e+04 1.121e-09
 97.00145     83.6 1.230e+04 1.172e-09
 97.01501     83.8 1.278e+04 1.506e-09
 97.03461     84.0 1.326e+04 1.922e-09
 97.05422     84.3 1.362e+04 2.340e-09
 97.07382     84.5 1.382e+04 2.574e-09
 97.09342     84.6 1.384e+04 2.588e-09
 97.11303     84.5 1.378e+04 2.516e-09
 97.12949     84.3 1.362e+04 2.383e-09
 97.13929     85.0 1.380e+04 2.533e-09
 97.15223     84.4 1.373e+04 2.430e-09
 97.17184     83.7 1.382e+04 2.479e-09
 97.19144     83.1 1.409e+04 2.665e-09
 97.21104     82.9 1.445e+04 2.897e-09
 97.23065     82.8 1.477e+04 2.986e-09
 97.25025     82.8 1.492e+04 2.889e-09
 97.26985     82.7 1.506e+04 2.655e-09
 97.28946     82.5 1.543e+04 2.432e-09
 97.30906     81.7 1.610e+04 2.381e-09
 97.32867     80.9 1.703e+04 2.434e-09
 97.34827     79.6 1.799e+04 2.459e-09
 97.36787     78.4 1.854e+04 2.291e-09
 97.37934     76.5 1.870e+04 2.006e-09
 97.38914     77.6 1.953e+04 3.106e-09
 97.40708     76.4 1.931e+04 2.937e-09
 97.42668     75.7 1.895e+04 2.824e-09
 97.44629     75.7 1.831e+04 2.881e-09
 97.46589     76.2 1.747e+04 2.899e-09
 97.48549     77.0 1.676e+04 2.855e-09
 97.50510     77.9 1.627e+04 2.834e-09
 97.52470     78.7 1.597e+04 2.852e-09
 97.54430     79.7 1.580e+04 2.903e-09
 97.56391     80.7 1.574e+04 3.000e-09
 97.58351     81.7 1.573e+04 3.113e-09
 97.60312     82.8 1.572e+04 3.253e-09
 97.61364     83.9 1.577e+04 3.425e-09
 97.62011     83.8 1.414e+04 1.516e-09
 97.62919     84.3 1.467e+04 1.960e-09
 97.64232     85.2 1.486e+04 2.148e-09
 97.66193     86.2 1.507e+04 2.349e-09
 97.68153     87.1 1.529e+04 2.594e-09
 97.70113     88.2 1.549e+04 2.818e-09
 97.72074     89.2 1.559e+04 3.023e-09
 97.74034     90.4 1.563e+04 3.148e-09
 97.75994     91.7 1.566e+04 3.282e-09
 97.77955     92.9 1.577e+04 3.399e-09
 97.79915     94.1 1.590e+04 3.536e-09
 97.81876     95.3 1.607e+04 3.693e-09
 97.83836     96.5 1.629e+04 3.861e-09
 97.85796     97.7 1.654e+04 4.103e-09
 97.86924     99.0 1.687e+04 4.397e-09
 97.87904     99.1 1.680e+04 4.728e-09
 97.89717    100.2 1.715e+04 5.159e-09
 97.91677    101.3 1.764e+04 5.850e-09
 97.93638    102.7 1.843e+04 7.153e-09
 97.95598    104.3 1.963e+04 9.665e-09
 97.97558    105.3 2.079e+04 1.247e-08
 97.98921    105.1 2.232e+04 1.517e-08
 97.99406    104.3 2.247e+04 1.582e-08
 97.99999    102.0 2.422e+04 2.514e-08
 98.00979     99.2 2.412e+04 6.486e-08
 98.01959     97.2 2.249e+04 2.088e-07
 98.02940     95.2 2.131e+04 5.065e-07
 98.03920     92.4 2.126e+04 6.543e-07
 98.04900     89.0 2.144e+04 6.039e-07
 98.05880     86.1 2.242e+04 3.780e-07
 98.06860     82.2 2.515e+04 1.489e-07
 98.07840     77.4 2.888e+04 4.664e-08
 98.08821     72.4 2.888e+04 1.961e-08
 98.09801     68.8 2.508e+04 1.435e-08
 98.10923     65.0 2.079e+04 1.066e-08
 98.11908     66.1 2.088e+04 1.243e-08
 98.13241     63.3 1.827e+04 9.392e-09
 98.15202     62.4 1.682e+04 7.269e-09
 98.17162     62.4 1.587e+04 5.269e-09
 98.19122     62.7 1.478e+04 3.359e-09
 98.21083     62.5 1.353e+04 1.809e-09
 98.22583     61.4 1.214e+04 9.053e-10
 98.23563     61.2 1.252e+04 1.399e-09
 98.25003     60.4 1.155e+04 8.868e-10
 98.26964     59.9 1.081e+04 6.099e-10
 98.28924     60.0 1.025e+04 4.581e-10
 98.30884     60.2 9.853e+03 3.806e-10
 98.32845     61.5 9.601e+03 3.275e-10
 98.34805     61.8 9.523e+03 3.094e-10
 98.35923     64.2 9.503e+03 2.992e-10
 98.37893     63.6 9.489e+03 2.950e-10
 98.41686     66.2 9.350e+03 2.444e-10
 98.45607     69.1 9.161e+03 1.959e-10
 98.49527     72.0 8.893e+03 1.725e-10
 98.53448     74.9 8.764e+03 1.708e-10
 98.57369     77.9 8.760e+03 1.710e-10
 98.61290     80.9 8.762e+03 1.750e-10
 98.65210     83.8 8.802e+03 1.880e-10
 98.69131     86.7 8.891e+03 2.077e-10
 98.73052     89.4 8.998e+03 2.313e-10
 98.76972     92.0 9.103e+03 2.565e-10
 98.80893     94.5 9.206e+03 2.858e-10
 98.83942     96.8 9.302e+03 3.212e-10
 98.85902     96.6 9.311e+03 3.201e-10
 98.88735     98.9 9.485e+03 3.755e-10
 98.92655    101.1 9.732e+03 4.486e-10
 98.96576    103.2 1.002e+04 5.357e-10
 99.00497    105.2 1.032e+04 6.387e-10
 99.04417    107.1 1.060e+04 7.453e-10
 99.08338    108.8 1.080e+04 8.277e-10
 99.12259    110.2 1.086e+04 8.445e-10
 99.16180    111.7 1.082e+04 8.311e-10
 99.20100    113.2 1.072e+04 7.971e-10
 99.24021    114.9 1.064e+04 7.671e-10
 99.27942    116.5 1.064e+04 7.643e-10
 99.31862    118.0 1.067e+04 7.700e-10
 99.33912    119.4 1.080e+04 8.061e-10
 99.35872    119.2 1.113e+04 9.372e-10
 99.39704    120.2 1.156e+04 1.138e-09
 99.42635    120.6 1.165e+04 1.198e-09
 99.44585    120.6 1.186e+04 1.330e-09
 99.46001    120.6 1.214e+04 1.552e-09
 99.46981    120.6 1.190e+04 1.389e-09
 99.48506    120.6 1.213e+04 1.590e-09
 99.50466    120.6 1.232e+04 1.753e-09
 99.52427    120.7 1.237e+04 1.803e-09
 99.54387    120.8 1.233e+04 1.770e-09
 99.56347    121.1 1.215e+04 1.632e-09
 99.57897    121.6 1.188e+04 1.435e-09
 99.58877    121.2 1.183e+04 1.386e-09
 99.60268    121.8 1.147e+04 1.126e-09
 99.62228    122.4 1.116e+04 9.134e-10
 99.64189    122.9 1.092e+04 7.596e-10
 99.66149    123.4 1.075e+04 6.660e-10
 99.68110    124.1 1.067e+04 6.352e-10
 99.70070    125.0 1.067e+04 6.349e-10
 99.72030    126.0 1.069e+04 6.392e-10
 99.73991    127.0 1.079e+04 6.618e-10
 99.75951    127.9 1.098e+04 7.120e-10
 99.77911    128.7 1.122e+04 7.936e-10
 99.79872    129.5 1.148e+04 9.066e-10
 99.81832    130.4 1.181e+04 1.066e-09
 99.82882    131.2 1.225e+04 1.296e-09
 99.83862    130.5 1.235e+04 1.373e-09
 99.85753    130.7 1.288e+04 1.714e-09
 99.87713    130.5 1.362e+04 2.223e-09
 99.89673    129.7 1.480e+04 3.277e-09
 99.91634    128.5 1.641e+04 5.495e-09
 99.93594    127.5 1.803e+04 9.582e-09
 99.95555    126.8 1.926e+04 1.484e-08
 99.97515    125.7 1.970e+04 1.626e-08
 99.99475    124.4 1.952e+04 1.529e-08
