# Columns:
#   distance along LOS (in CHIMPs)
#   peculiar velocity  (in km/s)
#   temperature (K)
#   HI number density
# pos=(227.246,153.866,21.9911), angles=(3.04468,1.43585)
  0.01912     28.8 1.043e+04 4.201e-10
  0.04377     29.5 1.059e+04 4.645e-10
  0.06339     30.1 1.059e+04 5.068e-10
  0.09712     30.7 1.070e+04 5.132e-10
  0.13636     31.2 1.073e+04 4.901e-10
  0.16570     30.8 1.081e+04 4.142e-10
  0.18523     30.6 1.083e+04 3.806e-10
  0.20485     30.1 1.091e+04 3.849e-10
  0.21640     29.8 1.090e+04 3.873e-10
  0.22631     29.4 1.096e+04 3.966e-10
  0.25410     29.0 1.103e+04 4.422e-10
  0.29335     29.3 1.105e+04 4.402e-10
  0.33260     29.8 1.097e+04 3.518e-10
  0.37184     29.7 1.084e+04 2.306e-10
  0.41109     29.2 1.067e+04 1.946e-10
  0.45034     28.8 1.068e+04 2.087e-10
  0.48958     28.7 1.084e+04 2.595e-10
  0.52883     28.8 1.106e+04 3.006e-10
  0.55817     28.4 1.123e+04 3.177e-10
  0.57769     27.7 1.157e+04 3.417e-10
  0.59732     25.0 1.254e+04 4.299e-10
  0.61634     21.2 1.326e+04 7.549e-10
  0.62615     20.0 1.333e+04 1.045e-09
  0.63656     17.8 1.374e+04 1.891e-09
  0.65619     15.8 1.464e+04 2.947e-09
  0.67581     13.7 1.504e+04 3.334e-09
  0.69543     12.4 1.447e+04 2.897e-09
  0.71506     11.0 1.368e+04 2.019e-09
  0.73468      8.6 1.329e+04 1.271e-09
  0.75430      6.0 1.270e+04 8.187e-10
  0.77393      3.3 1.230e+04 6.023e-10
  0.79355     -0.1 1.287e+04 6.278e-10
  0.81317     -3.6 1.305e+04 6.976e-10
  0.82611     -4.2 1.180e+04 1.148e-09
  0.83592     -4.1 1.161e+04 8.616e-10
  0.85242     -3.4 1.126e+04 1.048e-09
  0.88195     -2.9 1.186e+04 8.339e-10
  0.92130     -5.1 1.204e+04 6.184e-10
  0.96054     -6.4 1.150e+04 7.026e-10
  0.99979     -5.4 1.133e+04 8.287e-10
  1.02627     -4.0 1.130e+04 7.756e-10
  1.04590     -3.3 1.090e+04 5.737e-10
  1.07828     -2.3 1.116e+04 6.470e-10
  1.11753     -1.4 1.121e+04 7.276e-10
  1.15678      0.0 1.124e+04 8.078e-10
  1.19602      1.2 1.129e+04 7.387e-10
  1.23527      1.9 1.134e+04 6.852e-10
  1.27452      2.7 1.125e+04 7.273e-10
  1.31376      4.2 1.114e+04 7.743e-10
  1.35301      6.0 1.110e+04 7.882e-10
  1.39226      7.8 1.107e+04 7.929e-10
  1.42621      9.5 1.111e+04 8.258e-10
  1.44583      9.4 1.078e+04 5.873e-10
  1.46084     10.9 1.077e+04 6.558e-10
  1.48037     11.3 1.085e+04 6.837e-10
  1.49999     12.4 1.075e+04 6.642e-10
  1.51961     13.2 1.074e+04 6.492e-10
  1.53924     14.2 1.070e+04 6.196e-10
  1.54923     15.0 1.070e+04 5.872e-10
  1.55904     14.8 1.068e+04 5.277e-10
  1.57848     15.5 1.068e+04 5.171e-10
  1.59811     16.1 1.070e+04 5.207e-10
  1.61773     16.4 1.081e+04 5.505e-10
  1.63579     16.6 1.096e+04 6.047e-10
  1.64560     16.4 1.084e+04 5.522e-10
  1.65698     16.5 1.106e+04 6.659e-10
  1.67660     16.6 1.125e+04 8.176e-10
  1.69622     17.0 1.141e+04 9.731e-10
  1.71585     17.3 1.162e+04 1.070e-09
  1.74538     18.1 1.144e+04 9.292e-10
  1.78472     19.2 1.099e+04 5.984e-10
  1.82397     20.1 1.061e+04 3.162e-10
  1.84576     20.2 1.036e+04 1.807e-10
  1.86539     20.5 1.042e+04 2.291e-10
  1.90246     21.0 1.009e+04 1.868e-10
  1.94171     22.4 9.934e+03 1.750e-10
  1.98096     24.4 9.859e+03 1.608e-10
  2.02020     26.6 9.853e+03 1.270e-10
  2.05945     28.4 9.919e+03 9.034e-11
  2.09870     29.7 9.996e+03 7.180e-11
  2.13794     31.1 1.001e+04 7.212e-11
  2.17719     32.5 1.005e+04 8.161e-11
  2.21644     34.2 1.006e+04 1.003e-10
  2.24570     36.1 1.007e+04 1.160e-10
  2.26532     35.9 9.976e+03 1.020e-10
  2.29493     37.7 1.000e+04 1.155e-10
  2.33418     39.3 1.002e+04 1.159e-10
  2.37342     40.9 1.000e+04 1.121e-10
  2.41267     42.3 9.945e+03 1.097e-10
  2.45192     43.8 9.909e+03 1.105e-10
  2.49116     45.1 9.894e+03 1.164e-10
  2.53041     46.4 9.966e+03 1.364e-10
  2.56966     47.2 1.035e+04 1.823e-10
  2.60890     47.5 1.072e+04 2.700e-10
  2.63824     47.9 1.077e+04 3.292e-10
  2.65525     48.0 1.080e+04 3.630e-10
  2.66515     48.1 1.064e+04 3.239e-10
  2.68740     48.8 1.069e+04 4.359e-10
  2.72664     49.8 1.061e+04 4.831e-10
  2.76589     51.0 1.043e+04 4.414e-10
  2.80514     52.0 1.022e+04 3.674e-10
  2.84438     52.9 1.013e+04 3.171e-10
  2.88363     53.8 1.015e+04 3.158e-10
  2.92288     54.8 1.021e+04 3.250e-10
  2.96212     55.8 1.036e+04 3.465e-10
  3.00137     56.1 1.058e+04 3.921e-10
  3.03545     56.1 1.093e+04 5.116e-10
  3.05507     56.3 1.075e+04 3.971e-10
  3.06518     56.1 1.107e+04 5.194e-10
  3.08481     57.9 1.082e+04 3.803e-10
  3.11911     57.0 1.131e+04 5.831e-10
  3.15836     55.5 1.188e+04 9.419e-10
  3.19760     53.6 1.220e+04 1.279e-09
  3.23685     51.9 1.205e+04 1.255e-09
  3.27610     51.3 1.143e+04 9.681e-10
  3.31534     51.4 1.069e+04 5.731e-10
  3.35459     51.5 1.005e+04 3.084e-10
  3.39384     51.5 9.644e+03 1.984e-10
  3.43308     52.2 9.541e+03 1.929e-10
  3.46512     53.4 9.533e+03 2.052e-10
  3.48474     53.5 9.729e+03 2.578e-10
  3.51158     54.7 9.771e+03 2.715e-10
  3.55082     55.9 9.865e+03 2.918e-10
  3.59007     57.1 1.001e+04 3.165e-10
  3.62932     58.1 1.010e+04 3.343e-10
  3.66856     59.0 1.009e+04 3.331e-10
  3.70781     60.0 9.990e+03 3.114e-10
  3.74706     61.1 9.795e+03 2.511e-10
  3.78630     62.1 9.581e+03 1.826e-10
  3.82555     63.2 9.441e+03 1.470e-10
  3.86480     64.5 9.446e+03 1.471e-10
  3.88467     66.0 9.534e+03 1.588e-10
  3.90430     67.0 9.332e+03 1.329e-10
  3.94329     68.7 9.482e+03 1.548e-10
  3.98254     70.4 9.715e+03 1.944e-10
  4.02178     72.1 9.954e+03 2.475e-10
  4.06103     73.7 1.020e+04 3.180e-10
  4.08454     74.1 1.043e+04 4.210e-10
  4.09426     74.6 1.038e+04 3.909e-10
  4.10989     75.0 1.044e+04 4.206e-10
  4.12952     75.5 1.069e+04 5.456e-10
  4.14914     75.9 1.082e+04 6.504e-10
  4.16876     76.5 1.115e+04 8.668e-10
  4.18839     77.1 1.139e+04 1.047e-09
  4.21792     78.1 1.181e+04 1.343e-09
  4.25726     78.7 1.187e+04 1.386e-09
  4.28461     79.3 1.167e+04 1.254e-09
  4.30423     80.3 1.180e+04 1.334e-09
  4.33576     81.1 1.139e+04 1.031e-09
  4.37500     81.9 1.080e+04 6.502e-10
  4.41425     82.5 1.013e+04 3.876e-10
  4.45350     83.1 9.779e+03 3.272e-10
  4.49274     84.1 9.764e+03 3.313e-10
  4.53199     85.2 9.791e+03 3.648e-10
  4.57124     86.2 9.906e+03 4.224e-10
  4.61048     86.8 9.984e+03 4.359e-10
  4.64973     86.9 9.947e+03 4.039e-10
  4.68454     86.9 9.829e+03 3.379e-10
  4.70416     88.5 1.067e+04 7.109e-10
  4.72822     88.3 1.041e+04 5.659e-10
  4.76747     88.0 1.002e+04 3.986e-10
  4.80672     87.5 9.575e+03 2.750e-10
  4.84596     87.2 9.352e+03 2.394e-10
  4.88521     87.0 9.370e+03 2.473e-10
  4.92446     86.9 9.513e+03 2.904e-10
  4.96370     86.7 9.807e+03 3.675e-10
  4.99304     86.5 9.967e+03 4.139e-10
  5.01257     86.2 1.020e+04 4.740e-10
  5.04210     85.3 1.054e+04 5.364e-10
  5.08144     83.7 1.058e+04 5.300e-10
  5.10400     82.5 1.048e+04 5.000e-10
  5.11371     83.1 1.063e+04 5.994e-10
  5.13031     82.0 1.055e+04 6.029e-10
  5.14993     80.9 1.051e+04 6.087e-10
  5.16955     79.9 1.044e+04 6.229e-10
  5.18918     79.0 1.040e+04 6.402e-10
  5.20880     78.0 1.036e+04 6.493e-10
  5.22842     77.0 1.034e+04 6.497e-10
  5.24805     75.9 1.035e+04 6.585e-10
  5.26767     74.0 1.057e+04 7.178e-10
  5.28729     70.2 1.146e+04 1.011e-09
  5.30387     65.8 1.292e+04 1.903e-09
  5.31368     65.8 1.306e+04 1.940e-09
  5.32654     62.7 1.403e+04 3.412e-09
  5.34616     60.6 1.418e+04 3.804e-09
  5.36579     58.9 1.396e+04 3.512e-09
  5.38541     57.0 1.315e+04 2.322e-09
  5.40503     54.6 1.205e+04 1.388e-09
  5.43457     50.4 1.042e+04 6.278e-10
  5.47391     45.9 8.495e+03 2.755e-10
  5.50403     44.0 8.387e+03 2.491e-10
  5.52365     44.7 8.412e+03 2.599e-10
  5.55240     44.1 8.516e+03 2.879e-10
  5.59165     43.6 8.719e+03 3.509e-10
  5.63090     43.0 8.892e+03 4.022e-10
  5.67014     42.2 8.909e+03 4.022e-10
  5.70939     41.3 8.834e+03 3.785e-10
  5.74864     40.4 8.569e+03 3.153e-10
  5.78788     39.6 8.188e+03 2.447e-10
  5.82713     39.4 7.820e+03 1.905e-10
  5.86638     39.5 7.498e+03 1.514e-10
  5.90396     40.0 7.248e+03 1.221e-10
  5.92358     39.7 7.279e+03 1.221e-10
  5.94487     40.3 7.070e+03 1.017e-10
  5.98412     41.2 7.059e+03 1.005e-10
  6.02336     42.1 7.126e+03 1.062e-10
  6.04676     42.4 7.456e+03 1.414e-10
  6.06638     40.7 7.573e+03 1.555e-10
  6.10186     40.6 8.358e+03 2.823e-10
  6.14110     40.3 8.993e+03 4.376e-10
  6.17044     40.2 9.343e+03 5.537e-10
  6.18997     40.0 9.687e+03 6.617e-10
  6.20959     39.3 1.000e+04 7.330e-10
  6.22921     38.3 1.018e+04 7.622e-10
  6.24884     36.4 1.061e+04 8.350e-10
  6.26846     27.6 1.437e+04 1.644e-09
  6.28313     15.9 1.954e+04 4.956e-09
  6.29289     14.7 1.922e+04 6.822e-09
  6.30270     13.1 1.895e+04 1.084e-08
  6.31252     13.7 1.841e+04 1.292e-08
  6.32327     14.1 1.799e+04 1.426e-08
  6.33313     13.4 1.834e+04 1.503e-08
  6.34695     13.4 1.778e+04 1.335e-08
  6.36658     12.7 1.702e+04 9.264e-09
  6.38620     10.7 1.600e+04 5.546e-09
  6.40582      8.1 1.450e+04 3.392e-09
  6.42545      6.6 1.340e+04 2.531e-09
  6.44507      7.0 1.277e+04 2.085e-09
  6.46469      8.2 1.231e+04 1.796e-09
  6.48432      9.3 1.214e+04 1.645e-09
  6.50394      9.6 1.217e+04 1.566e-09
  6.52329      6.4 1.437e+04 2.124e-09
  6.53310      7.2 1.379e+04 1.979e-09
  6.54319      2.0 1.694e+04 3.666e-09
  6.56281     -1.3 1.757e+04 6.048e-09
  6.58243     -2.7 1.777e+04 8.830e-09
  6.60206     -4.9 1.806e+04 9.459e-09
  6.62168     -8.6 1.821e+04 6.481e-09
  6.64130    -16.2 1.663e+04 3.106e-09
  6.66093    -23.5 1.371e+04 1.521e-09
  6.68055    -27.4 1.216e+04 1.060e-09
  6.70017    -29.9 1.145e+04 8.404e-10
  6.71980    -31.6 1.106e+04 7.102e-10
  6.73307    -32.8 1.074e+04 6.123e-10
  6.74288    -34.4 1.064e+04 5.918e-10
  6.75904    -35.5 1.039e+04 5.253e-10
  6.77867    -36.4 1.036e+04 5.128e-10
  6.79829    -37.7 1.047e+04 5.214e-10
  6.81791    -39.1 1.076e+04 6.173e-10
  6.83754    -40.2 1.111e+04 8.253e-10
  6.85716    -40.6 1.160e+04 1.117e-09
  6.87678    -40.9 1.211e+04 1.422e-09
  6.89641    -41.1 1.257e+04 1.655e-09
  6.91603    -41.3 1.293e+04 1.785e-09
  6.93303    -41.6 1.313e+04 1.818e-09
  6.94284    -44.0 1.356e+04 2.045e-09
  6.95528    -44.3 1.332e+04 1.878e-09
  6.97490    -44.4 1.297e+04 1.707e-09
  6.99452    -44.0 1.264e+04 1.558e-09
  7.01415    -43.3 1.240e+04 1.425e-09
  7.04368    -42.1 1.215e+04 1.260e-09
  7.08302    -40.1 1.172e+04 1.119e-09
  7.12227    -38.1 1.147e+04 1.013e-09
  7.14300    -36.3 1.140e+04 9.827e-10
  7.16263    -38.6 1.083e+04 6.539e-10
  7.20076    -36.7 1.106e+04 7.781e-10
  7.24001    -34.5 1.141e+04 9.889e-10
  7.26935    -32.6 1.191e+04 1.238e-09
  7.28887    -32.2 1.191e+04 1.304e-09
  7.30850    -31.0 1.205e+04 1.452e-09
  7.32812    -30.2 1.198e+04 1.474e-09
  7.34278    -29.1 1.201e+04 1.503e-09
  7.35259    -29.9 1.157e+04 1.077e-09
  7.36737    -29.0 1.148e+04 1.049e-09
  7.38699    -28.0 1.138e+04 1.001e-09
  7.40661    -27.0 1.132e+04 9.465e-10
  7.42624    -26.0 1.127e+04 8.941e-10
  7.44586    -25.2 1.115e+04 8.297e-10
  7.46548    -24.3 1.112e+04 7.929e-10
  7.48511    -23.6 1.108e+04 7.823e-10
  7.51464    -21.9 1.126e+04 8.331e-10
  7.54294    -20.0 1.129e+04 8.574e-10
  7.56256    -21.4 1.155e+04 9.427e-10
  7.59323    -19.5 1.191e+04 1.091e-09
  7.63248    -17.9 1.226e+04 1.170e-09
  7.67172    -16.7 1.254e+04 1.208e-09
  7.70106    -15.4 1.259e+04 1.061e-09
  7.72059    -15.2 1.264e+04 1.038e-09
  7.74021    -14.6 1.207e+04 9.527e-10
  7.75252    -15.8 1.238e+04 1.036e-09
  7.76233    -18.6 1.555e+04 2.127e-09
  7.77946    -22.3 1.824e+04 3.837e-09
  7.79908    -25.2 1.903e+04 6.940e-09
  7.81870    -26.2 1.856e+04 1.066e-08
  7.83833    -25.7 1.832e+04 1.255e-08
  7.85795    -25.1 1.805e+04 1.221e-08
  7.87757    -24.8 1.776e+04 9.615e-09
  7.89720    -25.0 1.729e+04 6.461e-09
  7.91682    -25.9 1.671e+04 4.682e-09
  7.93644    -26.7 1.613e+04 3.882e-09
  7.95249    -26.8 1.580e+04 3.651e-09
  7.96230    -27.3 1.564e+04 3.609e-09
  7.97569    -26.7 1.534e+04 3.512e-09
  7.99531    -25.8 1.510e+04 3.569e-09
  8.01494    -24.6 1.477e+04 3.575e-09
  8.03456    -23.1 1.454e+04 3.362e-09
  8.05418    -21.7 1.442e+04 2.922e-09
  8.07381    -20.7 1.435e+04 2.363e-09
  8.09343    -20.0 1.423e+04 1.908e-09
  8.11305    -19.5 1.389e+04 1.551e-09
  8.13268    -18.8 1.348e+04 1.270e-09
  8.15230    -17.8 1.329e+04 1.069e-09
  8.16226    -16.8 1.323e+04 9.297e-10
  8.17208    -16.6 1.325e+04 7.909e-10
  8.19155    -15.6 1.316e+04 7.436e-10
  8.21117    -14.7 1.306e+04 7.181e-10
  8.23079    -13.7 1.299e+04 7.127e-10
  8.25042    -12.7 1.283e+04 7.398e-10
  8.27004    -11.7 1.298e+04 7.282e-10
  8.28966    -10.5 1.292e+04 7.604e-10
  8.30929     -9.1 1.304e+04 7.419e-10
  8.33882     -7.9 1.317e+04 6.226e-10
  8.36243     -6.4 1.311e+04 6.536e-10
  8.38205     -5.7 1.389e+04 1.121e-09
  8.41741     -4.1 1.361e+04 1.207e-09
  8.45666     -2.0 1.344e+04 1.293e-09
  8.49590     -0.4 1.360e+04 1.407e-09
  8.53515      0.4 1.386e+04 1.662e-09
  8.57440      1.3 1.389e+04 2.038e-09
  8.61364      2.6 1.367e+04 2.047e-09
  8.65289      4.3 1.313e+04 1.502e-09
  8.69214      6.4 1.250e+04 7.354e-10
  8.73138      6.4 1.194e+04 3.893e-10
  8.76072      6.4 1.219e+04 2.859e-10
  8.77198      6.6 1.204e+04 2.647e-10
  8.78179      6.6 1.209e+04 2.628e-10
  8.79987      6.2 1.225e+04 2.861e-10
  8.81949      5.8 1.230e+04 3.590e-10
  8.83912      5.9 1.225e+04 4.746e-10
  8.85874      6.5 1.210e+04 6.027e-10
  8.87836      7.2 1.223e+04 7.303e-10
  8.89799      7.6 1.244e+04 7.963e-10
  8.91761      7.4 1.260e+04 8.721e-10
  8.93723      7.5 1.248e+04 8.812e-10
  8.96677      8.4 1.213e+04 8.079e-10
  9.00611      9.2 1.182e+04 6.175e-10
  9.03844      8.2 1.212e+04 4.586e-10
  9.05806      7.5 1.193e+04 2.185e-10
  9.08460      5.8 1.202e+04 2.631e-10
  9.12385      5.3 1.159e+04 4.326e-10
  9.16229      6.3 1.127e+04 5.644e-10
  9.18192      7.1 1.124e+04 5.115e-10
  9.20234      8.2 1.091e+04 3.991e-10
  9.24159      9.8 1.053e+04 2.535e-10
  9.28084     11.3 1.034e+04 1.475e-10
  9.32008     12.3 1.037e+04 9.173e-11
  9.35933     13.4 1.024e+04 7.897e-11
  9.39858     14.8 1.034e+04 8.336e-11
  9.43782     15.4 1.059e+04 1.147e-10
  9.47707     16.1 1.069e+04 2.371e-10
  9.51632     17.8 1.088e+04 4.532e-10
  9.55556     19.4 1.108e+04 5.615e-10
  9.58185     20.9 1.103e+04 5.099e-10
  9.60147     21.5 1.097e+04 4.382e-10
  9.63406     22.7 1.090e+04 2.843e-10
  9.67330     23.0 1.085e+04 1.885e-10
  9.71255     23.4 1.058e+04 1.630e-10
  9.75180     24.4 1.044e+04 1.660e-10
  9.79104     25.8 1.038e+04 1.818e-10
  9.83029     27.3 1.041e+04 2.052e-10
  9.86954     28.9 1.052e+04 2.296e-10
  9.90878     30.5 1.064e+04 2.474e-10
  9.94803     31.9 1.076e+04 2.498e-10
  9.98178     33.2 1.085e+04 2.449e-10
 10.00140     33.5 1.082e+04 2.766e-10
 10.02652     34.7 1.096e+04 2.801e-10
 10.06577     35.3 1.124e+04 3.040e-10
 10.10502     35.4 1.141e+04 3.620e-10
 10.14426     35.8 1.144e+04 4.227e-10
 10.18351     36.1 1.142e+04 4.219e-10
 10.22276     36.8 1.121e+04 3.777e-10
 10.26200     37.5 1.097e+04 2.715e-10
 10.30125     37.9 1.085e+04 1.782e-10
 10.34050     38.2 1.068e+04 1.323e-10
 10.37974     38.9 1.055e+04 1.289e-10
 10.40134     40.0 1.056e+04 1.352e-10
 10.42096     40.9 1.039e+04 1.206e-10
 10.45824     42.1 1.044e+04 1.332e-10
 10.49748     43.4 1.048e+04 1.667e-10
 10.53673     44.8 1.052e+04 2.183e-10
 10.57598     46.3 1.061e+04 2.753e-10
 10.61522     47.9 1.075e+04 3.057e-10
 10.65447     49.3 1.078e+04 3.003e-10
 10.69372     50.8 1.081e+04 2.623e-10
 10.73296     52.2 1.078e+04 2.080e-10
 10.77221     53.4 1.080e+04 1.608e-10
 10.80127     54.6 1.068e+04 1.381e-10
 10.82089     55.3 1.067e+04 1.568e-10
 10.85070     56.5 1.054e+04 1.526e-10
 10.88995     57.9 1.046e+04 1.509e-10
 10.92920     59.3 1.039e+04 1.474e-10
 10.96844     60.8 1.027e+04 1.405e-10
 11.00769     62.5 1.011e+04 1.273e-10
 11.04694     64.2 9.998e+03 1.082e-10
 11.08618     65.9 9.901e+03 9.104e-11
 11.12543     67.5 9.816e+03 8.351e-11
 11.16468     69.2 9.818e+03 8.386e-11
 11.20120     70.8 9.835e+03 8.849e-11
 11.22083     71.1 9.815e+03 7.252e-11
 11.24317     72.6 9.806e+03 9.353e-11
 11.28242     74.2 9.823e+03 1.260e-10
 11.32166     75.9 9.849e+03 1.591e-10
 11.36091     77.4 9.855e+03 1.683e-10
 11.40016     78.7 9.833e+03 1.659e-10
 11.43940     79.9 9.724e+03 1.570e-10
 11.47865     81.2 9.630e+03 1.533e-10
 11.51790     82.4 9.642e+03 1.573e-10
 11.55714     83.2 9.738e+03 1.826e-10
 11.59639     83.8 9.965e+03 2.499e-10
 11.62076     84.2 1.021e+04 3.467e-10
 11.64038     83.9 1.026e+04 3.694e-10
 11.67488     84.0 1.034e+04 4.311e-10
 11.71413     84.1 1.032e+04 4.273e-10
 11.75338     84.4 1.020e+04 3.883e-10
 11.79262     85.0 1.001e+04 3.258e-10
 11.83187     85.8 9.799e+03 2.778e-10
 11.87112     86.7 9.674e+03 2.617e-10
 11.91036     87.7 9.677e+03 2.674e-10
 11.94961     88.8 9.720e+03 2.879e-10
 11.98886     90.0 9.782e+03 3.195e-10
 12.02069     91.1 9.847e+03 3.548e-10
 12.04031     91.3 9.970e+03 4.422e-10
 12.04974     92.3 1.007e+04 4.782e-10
 12.06937     92.0 1.040e+04 6.141e-10
 12.10660     92.8 1.044e+04 6.460e-10
 12.14584     93.6 1.053e+04 6.963e-10
 12.18509     94.3 1.057e+04 7.562e-10
 12.22434     95.0 1.052e+04 7.629e-10
 12.26358     95.8 1.047e+04 7.482e-10
 12.30283     96.5 1.037e+04 6.944e-10
 12.34208     97.2 1.025e+04 6.116e-10
 12.38132     97.8 1.008e+04 5.167e-10
 12.42057     98.5 9.847e+03 4.256e-10
 12.45982     99.8 9.323e+03 2.943e-10
 12.49906    100.8 9.091e+03 2.443e-10
 12.53831    101.9 8.900e+03 1.985e-10
 12.57756    103.1 8.744e+03 1.636e-10
 12.61680    104.5 8.676e+03 1.528e-10
 12.65605    106.2 8.681e+03 1.536e-10
 12.69530    107.9 8.725e+03 1.590e-10
 12.73454    109.6 8.838e+03 1.810e-10
 12.77379    111.3 9.026e+03 2.252e-10
 12.81304    112.9 9.258e+03 2.873e-10
 12.84018    114.4 9.475e+03 3.517e-10
 12.85980    115.8 9.574e+03 4.025e-10
 12.89153    117.2 9.836e+03 4.804e-10
 12.93078    118.4 1.003e+04 5.262e-10
 12.97002    119.3 1.011e+04 5.416e-10
 13.00927    120.1 1.021e+04 5.580e-10
 13.04852    120.8 1.034e+04 6.105e-10
 13.08776    121.3 1.048e+04 7.019e-10
 13.12701    121.9 1.066e+04 8.230e-10
 13.16626    122.8 1.088e+04 9.284e-10
 13.19559    123.2 1.096e+04 9.734e-10
 13.21512    123.6 1.096e+04 9.806e-10
 13.23474    124.1 1.094e+04 9.671e-10
 13.24973    124.7 1.084e+04 9.074e-10
 13.25954    125.3 1.142e+04 1.301e-09
 13.27399    125.8 1.121e+04 1.140e-09
 13.29361    126.2 1.095e+04 9.604e-10
 13.31324    126.6 1.069e+04 7.924e-10
 13.33286    126.9 1.045e+04 6.543e-10
 13.35248    127.1 1.026e+04 5.555e-10
 13.37211    127.2 1.011e+04 4.922e-10
 13.39173    127.4 1.007e+04 4.775e-10
 13.41135    127.7 1.008e+04 4.818e-10
 13.43098    128.1 1.015e+04 5.019e-10
 13.44969    128.4 1.029e+04 5.451e-10
 13.45951    129.0 1.054e+04 7.037e-10
 13.48013    128.8 1.083e+04 7.647e-10
 13.51948    129.4 1.116e+04 8.700e-10
 13.55872    129.5 1.125e+04 8.945e-10
 13.59797    129.6 1.119e+04 8.825e-10
 13.63722    129.8 1.106e+04 8.468e-10
 13.65967    130.4 1.086e+04 7.721e-10
 13.66938    130.1 1.127e+04 1.075e-09
 13.68608    130.4 1.122e+04 1.036e-09
 13.70570    130.6 1.114e+04 9.894e-10
 13.72533    130.9 1.100e+04 9.226e-10
 13.74495    131.3 1.082e+04 8.302e-10
 13.76457    131.7 1.064e+04 7.301e-10
 13.78420    132.1 1.050e+04 6.448e-10
 13.80382    132.4 1.040e+04 5.833e-10
 13.82344    132.7 1.036e+04 5.425e-10
 13.84307    133.0 1.036e+04 5.280e-10
 13.85944    133.3 1.036e+04 5.280e-10
 13.86925    133.4 1.051e+04 6.094e-10
 13.88231    133.7 1.055e+04 6.175e-10
 13.90194    133.8 1.065e+04 6.375e-10
 13.92156    133.8 1.077e+04 6.704e-10
 13.94118    133.7 1.093e+04 7.218e-10
 13.96081    133.5 1.115e+04 8.014e-10
 13.98043    133.1 1.141e+04 9.225e-10
 14.00005    132.5 1.172e+04 1.098e-09
 14.01968    131.7 1.207e+04 1.342e-09
 14.03930    130.8 1.242e+04 1.659e-09
 14.05892    129.9 1.274e+04 2.036e-09
 14.06922    129.0 1.305e+04 2.438e-09
 14.07903    128.8 1.314e+04 2.557e-09
 14.09817    127.9 1.334e+04 2.709e-09
 14.11779    126.9 1.335e+04 2.689e-09
 14.13742    126.0 1.328e+04 2.552e-09
 14.15704    125.1 1.304e+04 2.255e-09
 14.17666    124.2 1.268e+04 1.920e-09
 14.19629    123.4 1.232e+04 1.664e-09
 14.21591    122.6 1.209e+04 1.550e-09
 14.23553    122.2 1.209e+04 1.558e-09
 14.25516    121.9 1.220e+04 1.618e-09
 14.26918    121.8 1.238e+04 1.733e-09
 14.27899    121.4 1.254e+04 1.765e-09
 14.29440    121.3 1.284e+04 1.993e-09
 14.31403    121.3 1.311e+04 2.242e-09
 14.33365    121.5 1.334e+04 2.506e-09
 14.35327    121.6 1.355e+04 2.796e-09
 14.37290    121.9 1.379e+04 3.127e-09
 14.39252    122.2 1.408e+04 3.543e-09
 14.41214    122.6 1.449e+04 4.086e-09
 14.43177    122.8 1.497e+04 4.735e-09
 14.45139    122.9 1.541e+04 5.408e-09
 14.46915    122.9 1.576e+04 5.928e-09
 14.47896    122.3 1.648e+04 8.101e-09
 14.49064    122.4 1.680e+04 9.153e-09
 14.51026    122.4 1.705e+04 9.935e-09
 14.52988    122.2 1.729e+04 1.054e-08
 14.54951    121.5 1.758e+04 1.123e-08
 14.56913    120.6 1.790e+04 1.230e-08
 14.58875    119.4 1.847e+04 1.441e-08
 14.60838    118.1 1.905e+04 1.634e-08
 14.62800    116.6 1.928e+04 1.667e-08
 14.64762    115.2 1.925e+04 1.575e-08
 14.66725    113.9 1.904e+04 1.327e-08
 14.67893    112.4 1.870e+04 1.087e-08
 14.68874    111.1 1.958e+04 1.842e-08
 14.70649    109.7 1.898e+04 1.578e-08
 14.72612    108.5 1.836e+04 1.390e-08
 14.74574    108.0 1.765e+04 1.204e-08
 14.76536    108.1 1.686e+04 9.862e-09
 14.78499    108.5 1.598e+04 7.423e-09
 14.80461    109.2 1.510e+04 5.283e-09
 14.82423    109.7 1.434e+04 3.640e-09
 14.84386    109.9 1.369e+04 2.433e-09
 14.86348    109.8 1.305e+04 1.625e-09
 14.87889    109.7 1.241e+04 1.140e-09
 14.88871    108.9 1.189e+04 9.788e-10
 14.90273    109.1 1.139e+04 8.070e-10
 14.92235    109.8 1.110e+04 7.195e-10
 14.94197    110.8 1.099e+04 6.698e-10
 14.96160    111.8 1.092e+04 6.391e-10
 14.98122    112.8 1.087e+04 6.255e-10
 15.00084    113.9 1.087e+04 6.251e-10
 15.02047    115.0 1.088e+04 6.271e-10
 15.04009    116.0 1.088e+04 6.317e-10
 15.05104    117.1 1.088e+04 6.432e-10
 15.06085    117.6 1.117e+04 8.085e-10
 15.07886    118.8 1.121e+04 8.426e-10
 15.08867    118.7 1.105e+04 8.222e-10
 15.09896    119.9 1.113e+04 8.755e-10
 15.11858    121.0 1.126e+04 9.440e-10
 15.13821    122.2 1.140e+04 1.024e-09
 15.15783    123.4 1.157e+04 1.115e-09
 15.17745    124.5 1.176e+04 1.214e-09
 15.19708    125.7 1.194e+04 1.319e-09
 15.21670    126.9 1.214e+04 1.437e-09
 15.23632    128.0 1.240e+04 1.570e-09
 15.25595    129.2 1.267e+04 1.711e-09
 15.27557    130.2 1.297e+04 1.869e-09
 15.28864    131.0 1.329e+04 2.036e-09
 15.29845    130.4 1.351e+04 2.380e-09
 15.31482    131.1 1.386e+04 2.712e-09
 15.33444    131.6 1.419e+04 3.092e-09
 15.35406    131.8 1.448e+04 3.522e-09
 15.37369    132.0 1.471e+04 4.011e-09
 15.39331    132.2 1.496e+04 4.568e-09
 15.41293    132.4 1.522e+04 5.141e-09
 15.43256    132.6 1.543e+04 5.517e-09
 15.45218    132.7 1.549e+04 5.537e-09
 15.47180    133.0 1.545e+04 5.382e-09
 15.48860    133.4 1.534e+04 5.042e-09
 15.49842    133.6 1.646e+04 7.366e-09
 15.51105    134.1 1.652e+04 7.307e-09
 15.53067    134.5 1.663e+04 7.292e-09
 15.55030    134.7 1.677e+04 7.320e-09
 15.56992    134.9 1.690e+04 7.399e-09
 15.58954    135.2 1.700e+04 7.434e-09
 15.60917    135.3 1.701e+04 7.364e-09
 15.62879    135.4 1.694e+04 7.228e-09
 15.64841    135.4 1.681e+04 7.076e-09
 15.66804    135.4 1.663e+04 6.966e-09
 15.68766    135.7 1.650e+04 6.973e-09
 15.69838    136.1 1.644e+04 7.070e-09
 15.70819    135.9 1.702e+04 8.016e-09
 15.72691    136.3 1.676e+04 7.476e-09
 15.74653    137.0 1.653e+04 6.974e-09
 15.76615    137.6 1.633e+04 6.324e-09
 15.78578    138.4 1.604e+04 5.386e-09
 15.80540    139.2 1.573e+04 4.478e-09
 15.82502    139.9 1.546e+04 3.721e-09
 15.84465    140.4 1.537e+04 3.176e-09
 15.86427    140.9 1.551e+04 3.025e-09
 15.88389    141.4 1.563e+04 3.058e-09
 15.89835    142.0 1.606e+04 3.320e-09
 15.90816    141.1 1.408e+04 1.201e-09
 15.92314    141.8 1.479e+04 1.409e-09
 15.94276    142.6 1.558e+04 1.692e-09
 15.96239    143.1 1.626e+04 1.878e-09
 15.98201    143.0 1.687e+04 1.949e-09
 15.99668    142.7 1.758e+04 2.109e-09
 16.00314    142.2 1.860e+04 2.363e-09
 16.00805    142.1 1.540e+04 1.565e-09
 16.01625    141.3 1.584e+04 1.704e-09
 16.02606    140.5 1.665e+04 1.931e-09
 16.03588    139.3 1.794e+04 2.425e-09
 16.04569    138.0 1.961e+04 3.378e-09
 16.05550    136.8 2.088e+04 4.874e-09
 16.06531    135.8 2.143e+04 6.958e-09
 16.07512    135.1 2.135e+04 9.419e-09
 16.08493    134.5 2.100e+04 1.197e-08
 16.09475    134.0 2.026e+04 1.488e-08
 16.10312    133.6 1.972e+04 1.607e-08
 16.10808    133.9 1.910e+04 9.430e-09
 16.11937    133.2 1.907e+04 1.367e-08
 16.13900    132.6 1.900e+04 1.687e-08
 16.15862    132.1 1.908e+04 1.852e-08
 16.17824    131.5 1.910e+04 1.850e-08
 16.19787    131.0 1.885e+04 1.693e-08
 16.21749    130.8 1.846e+04 1.441e-08
 16.23711    130.7 1.808e+04 1.210e-08
 16.25674    130.4 1.769e+04 1.011e-08
 16.27636    130.0 1.726e+04 8.406e-09
 16.29598    129.5 1.676e+04 6.976e-09
 16.30809    129.0 1.621e+04 5.801e-09
 16.31790    129.2 1.650e+04 6.212e-09
 16.33523    128.8 1.597e+04 5.199e-09
 16.35485    128.5 1.542e+04 4.352e-09
 16.37448    128.3 1.484e+04 3.634e-09
 16.39410    128.3 1.429e+04 2.981e-09
 16.41372    128.2 1.372e+04 2.321e-09
 16.43335    128.2 1.313e+04 1.731e-09
 16.45297    128.2 1.253e+04 1.248e-09
 16.47259    128.2 1.195e+04 8.754e-10
 16.49222    128.1 1.143e+04 6.126e-10
 16.50806    128.0 1.094e+04 4.308e-10
 16.51787    127.4 1.043e+04 3.335e-10
 16.54137    127.4 9.752e+03 2.248e-10
 16.58072    128.2 9.453e+03 2.033e-10
 16.61996    129.4 9.462e+03 2.073e-10
 16.65921    130.5 9.582e+03 2.350e-10
 16.69846    131.3 9.836e+03 2.904e-10
 16.72779    131.5 9.890e+03 3.130e-10
 16.74732    131.5 9.918e+03 3.238e-10
 16.76694    131.5 1.003e+04 3.552e-10
 16.78657    131.4 1.023e+04 4.174e-10
 16.80619    131.1 1.051e+04 5.241e-10
 16.82581    130.7 1.087e+04 6.805e-10
 16.84544    130.0 1.135e+04 9.047e-10
 16.86506    129.0 1.196e+04 1.238e-09
 16.88468    127.8 1.256e+04 1.658e-09
 16.90431    126.4 1.306e+04 2.069e-09
 16.91780    124.4 1.324e+04 2.120e-09
 16.93752    123.9 1.276e+04 1.703e-09
 16.97318    120.3 1.261e+04 1.583e-09
 17.01243    116.4 1.192e+04 1.062e-09
 17.05168    112.2 1.073e+04 5.371e-10
 17.09092    108.0 9.470e+03 3.179e-10
 17.13017    105.7 9.309e+03 3.075e-10
 17.15951    104.8 9.401e+03 3.244e-10
 17.17903    103.6 9.748e+03 3.891e-10
 17.19866    101.9 1.043e+04 5.607e-10
 17.21828     99.8 1.133e+04 9.117e-10
 17.23790     97.7 1.230e+04 1.566e-09
 17.25753     96.2 1.325e+04 2.579e-09
 17.27715     95.1 1.413e+04 3.860e-09
 17.29677     93.9 1.485e+04 4.985e-09
 17.31640     92.2 1.548e+04 5.688e-09
 17.32755     89.8 1.608e+04 6.285e-09
 17.33736     89.9 1.522e+04 4.528e-09
 17.35564     86.3 1.510e+04 3.925e-09
 17.37527     82.2 1.455e+04 3.135e-09
 17.39489     76.9 1.444e+04 2.685e-09
 17.41451     66.8 1.619e+04 2.942e-09
 17.43414     53.7 1.749e+04 3.745e-09
 17.45376     43.3 1.645e+04 3.615e-09
 17.47338     37.2 1.415e+04 2.686e-09
 17.49301     33.3 1.241e+04 1.591e-09
 17.51263     29.1 1.134e+04 8.199e-10
 17.52751     24.3 1.028e+04 4.368e-10
 17.53733     24.4 9.946e+03 3.796e-10
 17.55188     20.5 9.784e+03 3.680e-10
 17.57150     19.9 9.671e+03 3.628e-10
 17.59112     17.3 1.018e+04 4.762e-10
 17.61075     16.4 1.018e+04 5.592e-10
 17.63037     15.0 1.057e+04 7.243e-10
 17.64999     14.2 1.073e+04 8.109e-10
 17.66962     12.6 1.080e+04 7.845e-10
 17.68924     11.8 1.073e+04 7.421e-10
 17.70886      9.2 1.080e+04 6.502e-10
 17.72748      6.1 1.199e+04 7.519e-10
 17.73739      8.4 1.148e+04 7.166e-10
 17.74821     -2.1 1.416e+04 1.455e-09
 17.76773     -6.9 1.372e+04 2.397e-09
 17.78736     -9.1 1.337e+04 2.953e-09
 17.80698    -10.7 1.369e+04 3.112e-09
 17.82660    -14.0 1.424e+04 2.013e-09
 17.84623    -19.9 1.199e+04 1.009e-09
 17.86585    -24.2 9.953e+03 5.743e-10
 17.88547    -25.5 9.846e+03 4.542e-10
 17.90510    -28.0 9.910e+03 3.775e-10
 17.92472    -30.8 9.879e+03 3.621e-10
 17.93726    -32.6 9.732e+03 4.230e-10
 17.94707    -30.8 9.603e+03 3.210e-10
 17.96397    -31.7 9.655e+03 4.244e-10
 17.98359    -31.9 9.609e+03 5.532e-10
 18.00321    -31.7 1.002e+04 7.480e-10
 18.02284    -32.9 1.187e+04 1.168e-09
 18.04246    -36.0 1.465e+04 2.242e-09
 18.05253    -39.3 1.640e+04 4.524e-09
 18.06235    -39.1 1.536e+04 4.206e-09
 18.08171    -40.1 1.555e+04 6.340e-09
 18.10133    -40.3 1.586e+04 7.946e-09
 18.12095    -39.9 1.619e+04 8.879e-09
 18.13723    -39.9 1.717e+04 7.701e-09
 18.14699    -40.2 1.862e+04 1.315e-08
 18.15520    -40.9 1.963e+04 1.240e-08
 18.16501    -41.9 2.019e+04 1.182e-08
 18.17977    -44.4 2.019e+04 8.523e-09
 18.19945    -50.6 1.607e+04 3.737e-09
 18.21907    -54.3 1.355e+04 2.795e-09
 18.23869    -54.8 1.322e+04 2.794e-09
 18.25832    -54.6 1.333e+04 2.957e-09
 18.27794    -53.8 1.356e+04 2.744e-09
 18.29756    -53.2 1.360e+04 2.323e-09
 18.31719    -52.7 1.351e+04 1.701e-09
 18.33681    -52.9 1.325e+04 1.131e-09
 18.34700    -54.2 1.267e+04 7.618e-10
 18.35681    -55.5 1.036e+04 4.317e-10
 18.37606    -56.4 9.884e+03 3.993e-10
 18.39568    -57.3 9.802e+03 4.080e-10
 18.41530    -59.2 1.068e+04 5.876e-10
 18.43493    -60.5 1.190e+04 1.019e-09
 18.45455    -60.8 1.263e+04 1.644e-09
 18.47417    -60.5 1.307e+04 2.333e-09
 18.49380    -59.7 1.324e+04 2.679e-09
 18.51342    -59.0 1.325e+04 2.750e-09
 18.53304    -58.6 1.291e+04 2.335e-09
 18.54697    -58.4 1.235e+04 1.711e-09
 18.55678    -57.5 1.293e+04 2.159e-09
 18.57229    -57.5 1.234e+04 1.589e-09
 18.59191    -57.6 1.176e+04 1.252e-09
 18.62145    -57.5 1.149e+04 1.064e-09
 18.66079    -56.5 1.087e+04 8.209e-10
 18.70004    -55.0 1.059e+04 7.506e-10
 18.73928    -53.6 1.053e+04 7.573e-10
 18.76862    -52.1 1.062e+04 8.426e-10
 18.78815    -51.7 1.053e+04 8.590e-10
 18.80777    -50.8 1.054e+04 8.820e-10
 18.82739    -50.4 1.045e+04 8.801e-10
 18.84702    -49.4 1.042e+04 8.947e-10
 18.86664    -48.9 1.031e+04 8.684e-10
 18.88626    -48.3 1.021e+04 8.340e-10
 18.90589    -47.8 1.003e+04 7.736e-10
 18.92551    -47.3 9.873e+03 7.155e-10
 18.94513    -46.9 9.693e+03 6.514e-10
 18.95671    -46.4 9.550e+03 5.999e-10
 18.96653    -46.3 1.003e+04 7.542e-10
 18.98438    -46.0 9.839e+03 6.872e-10
 19.00400    -45.7 9.679e+03 6.312e-10
 19.02363    -45.5 9.601e+03 6.016e-10
 19.04325    -45.2 9.546e+03 5.828e-10
 19.06287    -45.0 9.538e+03 5.785e-10
 19.08250    -44.8 9.598e+03 5.887e-10
 19.10212    -44.8 9.618e+03 6.027e-10
 19.12174    -44.6 9.702e+03 6.330e-10
 19.14137    -44.7 9.703e+03 6.376e-10
 19.15668    -44.7 9.684e+03 6.352e-10
 19.16649    -44.9 9.553e+03 5.947e-10
 19.18061    -45.2 9.492e+03 5.735e-10
 19.20024    -45.5 9.439e+03 5.456e-10
 19.21986    -45.7 9.465e+03 5.190e-10
 19.23948    -50.3 1.138e+04 4.891e-10
 19.25911    -62.9 2.343e+04 1.071e-09
 19.27873    -74.6 2.423e+04 7.155e-09
 19.29340    -79.3 2.360e+04 2.328e-08
 19.30316    -81.1 2.303e+04 4.368e-08
 19.31297    -82.4 2.277e+04 6.342e-08
 19.32278    -83.4 2.295e+04 7.052e-08
 19.33260    -84.8 2.304e+04 6.616e-08
 19.34241    -86.5 2.287e+04 4.333e-08
 19.35222    -88.8 2.221e+04 2.207e-08
 19.36145    -92.0 2.068e+04 1.035e-08
 19.36636    -95.5 1.865e+04 4.915e-09
 19.37184    -98.5 1.619e+04 2.718e-09
 19.38165   -100.5 1.478e+04 1.828e-09
 19.39642   -102.3 1.370e+04 1.169e-09
 19.41609   -104.8 1.152e+04 5.883e-10
 19.43572   -106.9 9.343e+03 3.597e-10
 19.45534   -107.4 8.723e+03 3.060e-10
 19.47496   -107.2 8.639e+03 2.927e-10
 19.49459   -106.8 8.620e+03 2.881e-10
 19.51421   -106.4 8.626e+03 2.876e-10
 19.53383   -105.9 8.664e+03 2.908e-10
 19.56337   -105.2 8.756e+03 3.011e-10
 19.60271   -104.4 8.954e+03 3.380e-10
 19.64196   -103.5 9.200e+03 3.967e-10
 19.67129   -102.6 9.404e+03 4.588e-10
 19.69082   -102.3 9.465e+03 4.805e-10
 19.71044   -101.7 9.629e+03 5.299e-10
 19.73007   -101.4 9.798e+03 5.702e-10
 19.74969   -101.1 9.942e+03 6.009e-10
 19.76639   -101.1 1.004e+04 6.217e-10
 19.77620   -101.8 1.001e+04 6.188e-10
 19.78894   -101.9 1.010e+04 6.428e-10
 19.80856   -102.1 1.016e+04 6.625e-10
 19.82818   -102.2 1.018e+04 6.739e-10
 19.84781   -102.4 1.019e+04 6.768e-10
 19.86743   -102.4 1.012e+04 6.685e-10
 19.88705   -102.4 9.993e+03 6.299e-10
 19.90668   -102.2 9.809e+03 5.698e-10
 19.92630   -101.9 9.587e+03 4.975e-10
 19.95583   -101.9 9.341e+03 4.137e-10
 19.99518   -101.5 9.031e+03 3.295e-10
 20.03442   -100.8 8.610e+03 2.423e-10
 20.07367   -100.2 8.484e+03 2.125e-10
 20.11292    -99.5 8.469e+03 2.080e-10
 20.15216    -99.1 8.508e+03 2.093e-10
 20.17633    -98.8 8.636e+03 2.263e-10
 20.19595   -100.6 8.540e+03 2.158e-10
 20.23066   -100.6 8.531e+03 2.134e-10
 20.26990   -100.9 8.527e+03 2.155e-10
 20.30915   -102.3 8.766e+03 2.663e-10
 20.34840   -104.3 9.921e+03 4.838e-10
 20.38764   -106.0 1.108e+04 8.865e-10
 20.41698   -108.0 1.130e+04 1.055e-09
 20.43651   -109.2 1.154e+04 1.164e-09
 20.45613   -110.5 1.160e+04 1.201e-09
 20.47575   -111.7 1.155e+04 1.183e-09
 20.49538   -112.9 1.120e+04 9.800e-10
 20.51500   -114.1 1.069e+04 7.382e-10
 20.53462   -115.3 1.026e+04 5.925e-10
 20.55425   -116.4 1.009e+04 5.471e-10
 20.57387   -117.3 1.008e+04 5.423e-10
 20.58588   -118.3 1.025e+04 5.801e-10
 20.59569   -117.7 1.021e+04 5.764e-10
 20.61312   -118.9 1.064e+04 7.199e-10
 20.63274   -119.8 1.117e+04 9.707e-10
 20.65236   -120.4 1.169e+04 1.309e-09
 20.67199   -120.7 1.218e+04 1.692e-09
 20.69161   -120.9 1.258e+04 2.029e-09
 20.71123   -121.1 1.282e+04 2.210e-09
 20.73086   -121.4 1.287e+04 2.240e-09
 20.75048   -121.6 1.281e+04 2.117e-09
 20.77010   -121.6 1.262e+04 1.858e-09
 20.78585   -121.7 1.238e+04 1.597e-09
 20.79566   -121.3 1.274e+04 1.922e-09
 20.80935   -121.4 1.241e+04 1.614e-09
 20.82897   -121.4 1.206e+04 1.364e-09
 20.84860   -121.3 1.172e+04 1.162e-09
 20.86822   -121.1 1.138e+04 9.943e-10
 20.88784   -120.7 1.106e+04 8.581e-10
 20.90747   -120.2 1.081e+04 7.597e-10
 20.92709   -119.6 1.071e+04 7.124e-10
 20.94671   -119.0 1.070e+04 7.040e-10
 20.96634   -118.8 1.075e+04 7.052e-10
 20.98581   -119.2 1.104e+04 7.505e-10
 20.99562   -118.5 1.115e+04 8.854e-10
 21.00558   -119.7 1.209e+04 1.171e-09
 21.02521   -121.1 1.327e+04 1.917e-09
 21.04422   -122.1 1.428e+04 3.218e-09
 21.05403   -122.6 1.396e+04 2.954e-09
 21.06445   -123.1 1.477e+04 4.423e-09
 21.08408   -123.5 1.519e+04 5.445e-09
 21.10370   -123.9 1.524e+04 5.694e-09
 21.12332   -123.9 1.506e+04 5.663e-09
 21.14295   -123.6 1.444e+04 4.531e-09
 21.16257   -123.3 1.361e+04 2.978e-09
 21.18219   -123.1 1.260e+04 1.734e-09
 21.19559   -123.3 1.153e+04 9.406e-10
 21.20540   -122.2 1.237e+04 1.688e-09
 21.22144   -122.2 1.150e+04 9.648e-10
 21.24106   -122.4 1.062e+04 5.283e-10
 21.26069   -122.6 9.776e+03 3.006e-10
 21.28031   -122.7 9.114e+03 1.968e-10
 21.29993   -122.6 8.618e+03 1.697e-10
 21.32947   -121.6 8.462e+03 1.644e-10
 21.36881   -119.0 8.274e+03 1.520e-10
 21.39575   -116.3 8.273e+03 1.511e-10
 21.41538   -115.9 9.260e+03 2.084e-10
 21.44730   -114.0 9.190e+03 2.094e-10
 21.48655   -113.1 9.683e+03 3.785e-10
 21.52580   -112.6 1.143e+04 9.157e-10
 21.55513   -111.8 1.215e+04 1.413e-09
 21.57466   -111.2 1.270e+04 1.998e-09
 21.59428   -110.5 1.308e+04 2.569e-09
 21.60533   -110.0 1.325e+04 2.909e-09
 21.61515   -110.4 1.416e+04 4.352e-09
 21.63353   -109.8 1.406e+04 4.293e-09
 21.65315   -108.8 1.347e+04 3.453e-09
 21.67278   -107.9 1.280e+04 2.502e-09
 21.69240   -107.5 1.217e+04 1.813e-09
 21.72193   -107.2 1.166e+04 1.399e-09
 21.76128   -106.2 1.094e+04 9.469e-10
 21.79568   -104.8 1.031e+04 6.221e-10
 21.81531   -107.6 9.973e+03 4.208e-10
 21.83977   -106.4 9.405e+03 3.039e-10
 21.87902   -105.2 9.224e+03 2.605e-10
 21.91826   -104.1 9.192e+03 2.533e-10
 21.95751   -103.1 9.291e+03 2.798e-10
 21.99676   -102.1 9.662e+03 3.861e-10
 22.03600   -101.1 1.014e+04 5.637e-10
 22.07525   -100.1 1.069e+04 8.230e-10
 22.10459   -100.2 1.095e+04 1.012e-09
 22.12411    -99.6 1.120e+04 1.116e-09
 22.15365    -98.9 1.155e+04 1.283e-09
 22.18308    -99.6 1.149e+04 1.225e-09
 22.20261   -100.0 1.151e+04 1.217e-09
 22.21505   -100.7 1.152e+04 1.138e-09
 22.22486   -101.0 1.122e+04 9.929e-10
 22.24185   -101.7 1.119e+04 9.326e-10
 22.26148   -102.5 1.105e+04 8.419e-10
 22.28110   -103.0 1.087e+04 7.503e-10
 22.30072   -103.3 1.069e+04 6.650e-10
 22.32035   -103.3 1.051e+04 5.784e-10
 22.33997   -103.3 1.033e+04 4.908e-10
 22.35959   -103.2 1.016e+04 4.178e-10
 22.38913   -103.0 9.985e+03 3.569e-10
 22.42847   -101.9 9.640e+03 2.650e-10
 22.46772   -100.1 9.238e+03 1.840e-10
 22.50696    -98.1 8.987e+03 1.294e-10
 22.54621    -96.2 8.850e+03 9.831e-11
 22.58546    -94.4 8.744e+03 8.439e-11
 22.61517    -92.5 8.688e+03 8.068e-11
 22.63480    -92.0 8.887e+03 9.113e-11
 22.66395    -90.3 8.888e+03 8.771e-11
 22.70320    -88.6 8.866e+03 8.839e-11
 22.74244    -87.0 8.894e+03 9.962e-11
 22.78169    -85.5 8.910e+03 1.165e-10
 22.82094    -84.1 8.977e+03 1.404e-10
 22.86018    -82.8 9.126e+03 1.763e-10
 22.89943    -81.7 9.343e+03 2.256e-10
 22.93868    -80.8 9.555e+03 2.777e-10
 22.97792    -80.0 9.673e+03 3.098e-10
 23.01511    -79.4 9.690e+03 3.153e-10
 23.03473    -80.1 9.877e+03 3.766e-10
 23.05642    -79.3 9.657e+03 3.120e-10
 23.09566    -78.4 9.324e+03 2.207e-10
 23.13491    -77.5 9.108e+03 1.671e-10
 23.17416    -76.7 9.071e+03 1.545e-10
 23.21340    -76.2 9.101e+03 1.562e-10
 23.25265    -76.4 9.511e+03 2.406e-10
 23.29190    -76.5 1.021e+04 4.729e-10
 23.33114    -76.2 1.093e+04 8.277e-10
 23.37039    -76.1 1.151e+04 1.167e-09
 23.40964    -76.9 1.173e+04 1.276e-09
 23.43466    -78.2 1.165e+04 1.197e-09
 23.45429    -78.1 1.175e+04 1.274e-09
 23.48813    -79.3 1.148e+04 1.085e-09
 23.52738    -80.7 1.121e+04 9.318e-10
 23.56662    -81.9 1.106e+04 8.693e-10
 23.60587    -82.7 1.100e+04 8.478e-10
 23.64512    -83.2 1.092e+04 8.255e-10
 23.68436    -83.4 1.078e+04 7.818e-10
 23.72361    -83.5 1.070e+04 7.609e-10
 23.76286    -83.4 1.063e+04 7.333e-10
 23.80210    -83.1 1.051e+04 6.645e-10
 23.83459    -82.6 1.035e+04 5.821e-10
 23.85422    -82.0 1.077e+04 7.461e-10
 23.88060    -81.6 1.069e+04 6.957e-10
 23.91984    -81.3 1.063e+04 6.494e-10
 23.95909    -81.2 1.064e+04 6.327e-10
 23.99834    -81.1 1.073e+04 6.528e-10
 24.03609    -81.0 1.088e+04 7.295e-10
 24.05572    -81.4 9.879e+03 3.013e-10
 24.07683    -81.4 1.033e+04 4.551e-10
 24.11608    -81.2 1.072e+04 6.638e-10
 24.15532    -80.8 1.096e+04 8.233e-10
 24.19457    -80.5 1.095e+04 8.373e-10
 24.23382    -80.2 1.070e+04 6.855e-10
 24.25415    -79.9 1.026e+04 4.940e-10
 24.27377    -80.5 1.027e+04 5.019e-10
 24.31231    -80.0 9.818e+03 3.660e-10
 24.35156    -79.3 9.539e+03 3.065e-10
 24.39080    -78.4 9.465e+03 2.939e-10
 24.43005    -77.4 9.473e+03 2.996e-10
 24.46930    -76.6 9.596e+03 3.360e-10
 24.50854    -75.8 9.729e+03 3.750e-10
 24.54779    -75.2 9.815e+03 3.942e-10
 24.58704    -74.8 9.854e+03 3.911e-10
 24.62628    -74.5 9.898e+03 3.985e-10
 24.65408    -74.3 1.005e+04 4.408e-10
 24.67371    -74.0 9.846e+03 3.737e-10
 24.70478    -73.6 1.003e+04 4.160e-10
 24.74402    -73.4 1.026e+04 4.774e-10
 24.78327    -73.4 1.042e+04 5.060e-10
 24.82252    -73.7 1.050e+04 5.008e-10
 24.86176    -74.0 1.055e+04 4.391e-10
 24.90101    -74.1 1.048e+04 3.684e-10
 24.94026    -74.1 1.040e+04 2.996e-10
 24.97950    -73.7 1.038e+04 2.481e-10
 25.01875    -73.3 1.046e+04 2.143e-10
 25.05402    -72.9 1.051e+04 2.040e-10
 25.07364    -73.2 1.074e+04 2.924e-10
 25.09724    -73.2 1.090e+04 3.235e-10
 25.13649    -73.1 1.107e+04 4.281e-10
 25.17574    -72.8 1.135e+04 6.064e-10
 25.21498    -72.5 1.166e+04 8.199e-10
 25.25423    -72.4 1.197e+04 1.021e-09
 25.29348    -72.4 1.232e+04 1.216e-09
 25.32281    -73.3 1.259e+04 1.376e-09
 25.34234    -74.1 1.293e+04 1.538e-09
 25.36196    -75.5 1.350e+04 1.916e-09
 25.38159    -77.3 1.410e+04 2.542e-09
 25.40121    -78.7 1.478e+04 3.480e-09
 25.42083    -79.8 1.550e+04 4.655e-09
 25.44046    -80.9 1.618e+04 5.838e-09
 25.46008    -82.2 1.664e+04 6.696e-09
 25.47338    -83.8 1.679e+04 6.999e-09
 25.48319    -83.7 1.606e+04 4.823e-09
 25.49933    -85.9 1.619e+04 5.065e-09
 25.51895    -87.9 1.611e+04 5.275e-09
 25.53857    -89.7 1.596e+04 5.336e-09
 25.55136    -91.3 1.551e+04 4.931e-09
 25.56117    -91.7 1.483e+04 3.815e-09
 25.57782    -93.1 1.409e+04 2.895e-09
 25.59744    -94.5 1.318e+04 1.988e-09
 25.61707    -95.8 1.228e+04 1.305e-09
 25.63669    -97.1 1.163e+04 8.843e-10
 25.65631    -98.2 1.116e+04 6.313e-10
 25.67334    -99.3 1.087e+04 4.873e-10
 25.68315    -99.9 1.074e+04 4.586e-10
 25.69556   -100.7 1.052e+04 3.850e-10
 25.71518   -101.3 1.036e+04 3.401e-10
 25.73481   -101.6 1.030e+04 3.265e-10
 25.76434   -101.9 1.029e+04 3.445e-10
 25.80368   -102.0 1.022e+04 3.464e-10
 25.84293   -101.8 1.014e+04 3.389e-10
 25.87350   -101.7 1.005e+04 3.251e-10
 25.89313   -102.3 9.651e+03 2.251e-10
 25.92142   -101.8 9.542e+03 2.142e-10
 25.96067   -101.2 9.440e+03 2.050e-10
 25.99992   -100.5 9.406e+03 2.005e-10
 26.03916    -99.7 9.421e+03 1.974e-10
 26.07841    -98.9 9.449e+03 1.917e-10
 26.11766    -98.1 9.456e+03 1.819e-10
 26.15690    -97.3 9.433e+03 1.705e-10
 26.19615    -96.4 9.401e+03 1.608e-10
 26.23540    -95.4 9.380e+03 1.521e-10
 26.27344    -94.4 9.379e+03 1.464e-10
 26.29306    -94.0 9.351e+03 1.403e-10
 26.31389    -92.9 9.345e+03 1.344e-10
 26.35314    -91.9 9.342e+03 1.326e-10
 26.39238    -90.9 9.340e+03 1.402e-10
 26.43163    -89.9 9.369e+03 1.640e-10
 26.47088    -89.1 9.485e+03 1.980e-10
 26.51012    -88.5 9.693e+03 2.391e-10
 26.54937    -88.3 9.972e+03 2.827e-10
 26.58862    -88.7 1.040e+04 3.516e-10
 26.62786    -89.9 1.090e+04 4.963e-10
 26.66711    -91.1 1.125e+04 7.031e-10
 26.69299    -91.9 1.133e+04 8.199e-10
 26.71262    -91.7 1.135e+04 8.283e-10
 26.74560    -92.1 1.119e+04 7.798e-10
 26.78485    -92.2 1.081e+04 5.772e-10
 26.82410    -92.4 1.033e+04 3.547e-10
 26.86334    -93.3 9.795e+03 2.171e-10
 26.90259    -94.1 9.571e+03 1.811e-10
 26.94184    -94.8 9.566e+03 1.820e-10
 26.98108    -95.7 1.003e+04 2.884e-10
 27.01042    -95.5 1.048e+04 4.534e-10
 27.02995    -95.7 1.061e+04 5.051e-10
 27.04720    -95.9 1.080e+04 6.341e-10
 27.05701    -95.7 1.062e+04 5.472e-10
 27.06919    -96.0 1.064e+04 5.659e-10
 27.08882    -96.0 1.059e+04 5.493e-10
 27.10254    -95.9 1.047e+04 4.596e-10
 27.11235    -95.6 1.057e+04 5.303e-10
 27.13797    -95.5 1.043e+04 4.277e-10
 27.17732    -95.5 1.024e+04 3.418e-10
 27.21656    -95.2 1.001e+04 2.787e-10
 27.25581    -94.6 9.963e+03 2.647e-10
 27.29506    -94.0 1.013e+04 2.961e-10
 27.33430    -93.3 1.032e+04 4.015e-10
 27.37355    -92.3 1.046e+04 4.880e-10
 27.41280    -91.4 1.047e+04 5.035e-10
 27.45204    -90.8 1.024e+04 4.311e-10
 27.49129    -90.0 9.896e+03 3.146e-10
 27.51248    -89.4 9.520e+03 2.137e-10
 27.53211    -88.8 9.702e+03 2.727e-10
 27.56978    -88.7 9.518e+03 2.283e-10
 27.60903    -89.0 9.499e+03 2.257e-10
 27.64828    -89.9 9.892e+03 3.527e-10
 27.68752    -90.3 1.055e+04 7.028e-10
 27.72677    -90.5 1.106e+04 1.086e-09
 27.76602    -91.3 1.124e+04 1.224e-09
 27.80526    -92.4 1.109e+04 1.165e-09
 27.84451    -93.3 1.041e+04 7.935e-10
 27.88376    -94.2 9.634e+03 4.906e-10
 27.91241    -94.8 9.215e+03 3.784e-10
 27.93204    -95.3 9.212e+03 3.865e-10
 27.96225    -95.4 9.091e+03 3.672e-10
 28.00150    -95.0 9.036e+03 3.610e-10
 28.04074    -94.2 9.007e+03 3.633e-10
 28.07999    -93.4 9.025e+03 3.753e-10
 28.11924    -92.8 9.062e+03 3.848e-10
 28.15848    -92.5 9.128e+03 3.970e-10
 28.19773    -93.1 9.527e+03 5.029e-10
 28.23698    -95.1 1.088e+04 8.852e-10
 28.27622    -98.0 1.206e+04 1.640e-09
 28.30556   -100.1 1.263e+04 2.283e-09
 28.32196   -101.3 1.269e+04 2.339e-09
 28.33178   -102.2 1.300e+04 2.687e-09
 28.34471   -103.6 1.266e+04 2.109e-09
 28.36433   -105.5 1.204e+04 1.462e-09
 28.39387   -107.8 1.126e+04 9.529e-10
 28.43321   -109.0 1.022e+04 5.663e-10
 28.47246   -109.5 9.585e+03 3.703e-10
 28.51170   -109.4 9.469e+03 3.136e-10
 28.55095   -108.7 9.460e+03 3.061e-10
 28.59020   -108.2 9.452e+03 3.196e-10
 28.62944   -108.1 1.014e+04 5.408e-10
 28.66869   -108.0 1.176e+04 1.182e-09
 28.69803   -108.9 1.300e+04 2.184e-09
 28.71755   -110.0 1.473e+04 4.110e-09
 28.73171   -110.9 1.635e+04 7.816e-09
 28.74152   -111.1 1.542e+04 5.645e-09
 28.75680   -111.4 1.669e+04 9.338e-09
 28.77642   -111.6 1.756e+04 1.298e-08
 28.79605   -112.1 1.785e+04 1.436e-08
 28.81567   -112.8 1.775e+04 1.422e-08
 28.83529   -113.0 1.696e+04 1.079e-08
 28.85492   -113.2 1.570e+04 6.564e-09
 28.87454   -113.9 1.436e+04 3.811e-09
 28.89416   -114.8 1.319e+04 2.350e-09
 28.91379   -115.3 1.235e+04 1.658e-09
 28.93167   -115.4 1.192e+04 1.307e-09
 28.94149   -115.5 1.184e+04 1.369e-09
 28.95303   -114.9 1.150e+04 1.146e-09
 28.97266   -114.1 1.124e+04 9.826e-10
 28.99228   -113.3 1.108e+04 8.532e-10
 29.01190   -112.5 1.093e+04 7.521e-10
 29.03153   -111.6 1.078e+04 6.738e-10
 29.05115   -110.9 1.065e+04 6.182e-10
 29.07077   -110.2 1.055e+04 5.953e-10
 29.10031   -109.2 1.046e+04 5.863e-10
 29.13184   -107.3 1.035e+04 5.745e-10
 29.15136   -106.8 1.025e+04 5.442e-10
 29.16889   -105.9 1.024e+04 5.661e-10
 29.18851   -105.3 1.025e+04 5.937e-10
 29.20814   -104.3 1.029e+04 6.387e-10
 29.22776   -103.5 1.032e+04 6.644e-10
 29.24738   -102.8 1.036e+04 6.828e-10
 29.26701   -102.1 1.036e+04 6.874e-10
 29.28663   -101.4 1.034e+04 6.817e-10
 29.30625   -100.6 1.023e+04 6.381e-10
 29.32588    -99.9 1.013e+04 5.931e-10
 29.34142    -99.2 1.004e+04 5.513e-10
 29.35123    -99.2 1.006e+04 5.730e-10
 29.36512    -98.5 9.982e+03 5.400e-10
 29.38475    -97.9 9.938e+03 5.206e-10
 29.41428    -97.2 9.909e+03 5.063e-10
 29.45362    -95.7 9.957e+03 5.156e-10
 29.49287    -94.8 1.009e+04 5.399e-10
 29.53177    -94.2 1.015e+04 5.496e-10
 29.55139    -93.6 1.032e+04 6.125e-10
 29.57136    -93.1 1.032e+04 6.072e-10
 29.61061    -92.5 1.009e+04 5.022e-10
 29.64986    -91.6 9.707e+03 3.755e-10
 29.68910    -90.4 9.382e+03 2.884e-10
 29.72835    -88.8 9.268e+03 2.613e-10
 29.76760    -86.9 9.253e+03 2.587e-10
 29.80684    -85.0 9.496e+03 2.880e-10
 29.84609    -83.0 9.835e+03 3.317e-10
 29.88534    -81.6 1.011e+04 3.798e-10
 29.92458    -81.1 1.050e+04 4.701e-10
 29.95123    -83.0 1.098e+04 6.274e-10
 29.96094    -83.2 1.107e+04 7.880e-10
 29.97345    -87.7 1.376e+04 1.486e-09
 29.99307    -92.9 1.583e+04 3.274e-09
 30.01269    -96.8 1.680e+04 6.653e-09
 30.03232    -98.8 1.701e+04 9.439e-09
 30.04870   -100.1 1.693e+04 9.863e-09
 30.05851   -100.1 1.587e+04 7.071e-09
 30.07156   -101.0 1.562e+04 6.968e-09
 30.09119   -101.5 1.454e+04 4.688e-09
 30.11081   -102.5 1.347e+04 2.780e-09
 30.13043   -104.1 1.242e+04 1.631e-09
 30.15006   -105.8 1.171e+04 1.162e-09
 30.16091   -106.6 1.145e+04 1.051e-09
 30.17072   -106.4 1.126e+04 1.004e-09
 30.18930   -106.5 1.123e+04 9.937e-10
 30.20893   -106.7 1.134e+04 1.049e-09
 30.22855   -106.8 1.174e+04 1.270e-09
 30.24817   -106.7 1.221e+04 1.569e-09
 30.26780   -106.6 1.276e+04 1.934e-09
 30.28742   -106.5 1.346e+04 2.398e-09
 30.30704   -106.8 1.436e+04 3.077e-09
 30.32667   -107.8 1.527e+04 4.155e-09
 30.34629   -108.9 1.599e+04 5.760e-09
 30.36087   -109.3 1.640e+04 7.800e-09
 30.37069   -109.3 1.612e+04 7.208e-09
 30.38554   -109.2 1.626e+04 8.569e-09
 30.40516   -109.0 1.632e+04 9.072e-09
 30.42478   -108.6 1.601e+04 8.573e-09
 30.44441   -108.2 1.544e+04 5.848e-09
 30.46403   -108.0 1.460e+04 3.059e-09
 30.48365   -109.6 1.351e+04 1.326e-09
 30.50328   -112.3 1.179e+04 5.886e-10
 30.52290   -114.4 1.046e+04 3.702e-10
 30.54252   -114.9 1.015e+04 3.192e-10
 30.56084   -114.9 1.017e+04 3.013e-10
 30.57065   -114.7 1.013e+04 2.922e-10
 30.58177   -114.4 1.020e+04 2.873e-10
 30.60139   -114.0 1.036e+04 2.850e-10
 30.62102   -113.6 1.047e+04 2.855e-10
 30.64064   -113.2 1.050e+04 2.868e-10
 30.67017   -112.7 1.047e+04 2.716e-10
 30.70952   -111.2 1.038e+04 2.544e-10
 30.74876   -109.7 1.022e+04 2.448e-10
 30.77081   -107.9 1.004e+04 2.334e-10
 30.79044   -108.1 1.027e+04 3.173e-10
 30.82726   -106.2 1.003e+04 2.850e-10
 30.86650   -104.2 9.898e+03 2.639e-10
 30.90575   -102.2 9.807e+03 2.525e-10
 30.94500   -100.1 9.758e+03 2.495e-10
 30.98424    -97.9 9.746e+03 2.492e-10
 31.02349    -95.9 9.766e+03 2.499e-10
 31.06274    -94.0 9.794e+03 2.487e-10
 31.10198    -92.1 9.843e+03 2.403e-10
 31.14123    -90.4 9.874e+03 2.366e-10
 31.17075    -88.7 9.953e+03 2.393e-10
 31.19037    -88.9 9.901e+03 2.377e-10
 31.21972    -87.3 9.949e+03 2.410e-10
 31.25897    -85.8 1.000e+04 2.474e-10
 31.29822    -84.3 1.007e+04 2.567e-10
 31.33746    -82.9 1.014e+04 2.698e-10
 31.37671    -81.5 1.021e+04 2.870e-10
 31.41596    -80.1 1.029e+04 3.097e-10
 31.45520    -78.6 1.035e+04 3.402e-10
 31.49445    -77.2 1.037e+04 3.683e-10
 31.53370    -75.9 1.036e+04 3.795e-10
 31.57068    -74.4 1.030e+04 3.782e-10
 31.59030    -74.8 1.033e+04 4.100e-10
 31.61219    -73.2 1.011e+04 3.589e-10
 31.65144    -71.5 9.912e+03 2.893e-10
 31.69068    -69.9 9.734e+03 2.356e-10
 31.72993    -68.3 9.625e+03 2.049e-10
 31.76918    -66.6 9.600e+03 1.973e-10
 31.80842    -64.9 9.620e+03 1.981e-10
 31.84767    -63.4 9.723e+03 2.216e-10
 31.88692    -61.8 9.810e+03 2.599e-10
 31.92616    -60.1 9.865e+03 2.838e-10
 31.96541    -58.5 9.875e+03 2.867e-10
 31.99023    -56.7 9.764e+03 2.578e-10
 32.00986    -57.3 9.688e+03 2.535e-10
 32.04390    -55.5 9.529e+03 1.920e-10
 32.08315    -53.8 9.400e+03 1.416e-10
 32.12240    -52.3 9.304e+03 1.103e-10
 32.16164    -50.8 9.232e+03 9.644e-11
 32.20089    -49.0 9.177e+03 9.022e-11
 32.24014    -47.0 9.126e+03 8.329e-11
 32.27938    -44.9 9.081e+03 7.160e-11
 32.31863    -42.9 9.056e+03 5.688e-11
 32.35788    -41.1 9.054e+03 4.418e-11
 32.39017    -39.5 9.020e+03 3.809e-11
 32.40979    -39.6 8.994e+03 3.737e-11
 32.43637    -37.8 8.976e+03 3.638e-11
 32.47562    -35.9 9.003e+03 3.916e-11
 32.51486    -34.1 9.040e+03 4.737e-11
 32.55411    -32.4 9.217e+03 6.247e-11
 32.59336    -31.2 9.469e+03 1.025e-10
 32.63260    -30.3 9.855e+03 2.029e-10
 32.67185    -28.9 1.037e+04 4.034e-10
 32.71110    -27.6 1.084e+04 5.931e-10
 32.75034    -26.4 1.111e+04 7.328e-10
 32.78959    -26.0 1.111e+04 5.639e-10
 32.80972    -26.3 1.050e+04 3.342e-10
 32.82935    -25.1 1.084e+04 4.697e-10
 32.86808    -25.6 1.012e+04 2.891e-10
 32.90733    -25.3 9.801e+03 2.444e-10
 32.94658    -24.8 9.803e+03 2.203e-10
 32.98582    -24.6 9.791e+03 2.316e-10
 33.02507    -24.2 9.722e+03 2.792e-10
 33.05038    -23.0 9.676e+03 3.216e-10
 33.07001    -23.1 9.821e+03 4.038e-10
 33.10356    -21.9 9.741e+03 3.032e-10
 33.14281    -21.2 9.518e+03 2.349e-10
 33.18206    -20.6 9.333e+03 2.026e-10
 33.20966    -19.4 9.179e+03 1.906e-10
 33.22928    -18.6 9.204e+03 1.921e-10
 33.26055    -17.2 9.117e+03 1.799e-10
 33.29980    -15.7 9.053e+03 1.615e-10
 33.33904    -14.3 9.030e+03 1.400e-10
 33.37829    -13.2 9.055e+03 1.313e-10
 33.41754    -12.7 9.256e+03 1.508e-10
 33.45678    -12.2 9.453e+03 2.276e-10
 33.49603    -10.9 9.670e+03 3.670e-10
 33.53528     -8.7 9.901e+03 5.131e-10
 33.57452     -7.0 9.982e+03 5.204e-10
 33.60959     -5.1 9.830e+03 4.369e-10
 33.62921     -4.2 1.022e+04 5.682e-10
 33.65302     -3.2 1.010e+04 4.538e-10
 33.69226     -2.3 1.013e+04 4.613e-10
 33.73151     -1.9 1.037e+04 5.937e-10
 33.77076     -0.7 1.061e+04 8.054e-10
 33.81000      0.3 1.068e+04 8.553e-10
 33.84925      1.7 1.047e+04 7.583e-10
 33.88850      2.6 1.016e+04 5.910e-10
 33.92774      3.4 9.843e+03 4.838e-10
 33.96699      4.3 9.717e+03 4.642e-10
 34.00624      5.7 9.741e+03 4.976e-10
 34.02914      7.3 9.862e+03 5.498e-10
 34.04877      8.0 1.002e+04 5.906e-10
 34.08473      9.7 1.021e+04 7.050e-10
 34.12398     11.4 1.067e+04 9.186e-10
 34.16322     13.2 1.124e+04 1.224e-09
 34.20247     14.8 1.146e+04 1.295e-09
 34.22901     15.8 1.150e+04 1.183e-09
 34.23873     15.8 1.213e+04 1.728e-09
 34.25133     16.4 1.222e+04 1.684e-09
 34.27096     17.2 1.224e+04 1.572e-09
 34.29058     17.7 1.234e+04 1.545e-09
 34.31020     18.3 1.246e+04 1.528e-09
 34.32983     18.4 1.288e+04 1.698e-09
 34.34945     18.0 1.386e+04 2.177e-09
 34.36907     17.1 1.530e+04 3.388e-09
 34.38870     15.9 1.667e+04 5.889e-09
 34.40832     14.9 1.763e+04 1.003e-08
 34.42794     15.1 1.840e+04 1.556e-08
 34.43869     15.7 1.896e+04 1.901e-08
 34.44851     15.4 1.956e+04 2.096e-08
 34.46719     15.8 1.921e+04 1.832e-08
 34.48681     16.4 1.836e+04 1.292e-08
 34.50644     16.5 1.713e+04 7.447e-09
 34.52606     15.3 1.552e+04 3.943e-09
 34.54568     14.2 1.342e+04 2.087e-09
 34.55584     13.0 1.211e+04 1.364e-09
 34.56565     12.7 1.198e+04 1.329e-09
 34.59484     14.2 1.130e+04 9.157e-10
 34.63418     15.9 1.066e+04 6.148e-10
 34.67343     17.7 1.029e+04 4.590e-10
 34.71268     19.5 1.008e+04 3.770e-10
 34.75192     21.4 9.978e+03 3.277e-10
 34.79117     23.1 9.926e+03 2.889e-10
 34.82901     24.7 9.899e+03 2.618e-10
 34.84863     25.0 1.047e+04 4.168e-10
 34.86966     26.4 1.059e+04 4.520e-10
 34.90891     27.4 1.074e+04 4.982e-10
 34.93825     27.6 1.066e+04 4.560e-10
 34.95777     27.3 1.078e+04 5.218e-10
 34.97740     27.0 1.095e+04 6.700e-10
 34.99702     26.6 1.125e+04 8.913e-10
 35.01664     25.9 1.207e+04 1.400e-09
 35.03627     26.0 1.258e+04 1.899e-09
 35.06580     25.9 1.297e+04 2.202e-09
 35.10514     25.9 1.255e+04 1.701e-09
 35.14439     25.9 1.167e+04 7.685e-10
 35.18364     24.8 1.086e+04 2.329e-10
 35.22288     22.9 9.973e+03 1.294e-10
 35.24857     22.1 9.921e+03 1.364e-10
 35.26819     23.9 1.004e+04 1.391e-10
 35.30138     21.8 1.012e+04 1.985e-10
 35.34062     20.7 1.043e+04 4.068e-10
 35.37987     20.9 1.066e+04 6.161e-10
 35.41912     21.2 1.063e+04 6.094e-10
 35.45836     21.0 1.047e+04 5.040e-10
 35.48770     20.7 1.038e+04 4.785e-10
 35.50723     20.1 1.046e+04 4.826e-10
 35.52685     19.5 1.050e+04 5.043e-10
 35.54647     19.4 1.058e+04 5.722e-10
 35.56610     19.6 1.048e+04 5.997e-10
 35.58572     19.8 1.048e+04 6.056e-10
 35.61525     20.1 1.034e+04 5.399e-10
 35.64850     21.3 1.003e+04 4.086e-10
 35.66812     22.1 1.007e+04 4.260e-10
 35.69384     22.9 9.922e+03 3.324e-10
 35.73309     23.7 9.761e+03 2.827e-10
 35.77234     24.9 9.697e+03 2.802e-10
 35.81158     26.5 9.707e+03 2.896e-10
 35.85083     28.1 9.782e+03 3.152e-10
 35.89008     29.7 9.914e+03 3.647e-10
 35.92932     31.2 1.010e+04 4.506e-10
 35.96857     32.8 1.039e+04 5.910e-10
 36.00782     34.1 1.078e+04 7.237e-10
 36.03715     35.1 1.102e+04 8.320e-10
 36.05168     35.4 1.122e+04 8.876e-10
 36.06149     35.3 1.092e+04 7.178e-10
 36.06786     35.2 1.099e+04 7.200e-10
 36.07767     35.9 1.149e+04 9.406e-10
 36.09593     35.6 1.174e+04 9.734e-10
 36.11555     34.7 1.206e+04 1.077e-09
 36.13517     33.8 1.219e+04 1.228e-09
 36.15480     33.1 1.224e+04 1.408e-09
 36.17442     32.7 1.234e+04 1.610e-09
 36.19404     32.4 1.248e+04 1.697e-09
 36.21367     32.0 1.249e+04 1.692e-09
 36.24320     31.9 1.228e+04 1.549e-09
 36.28254     31.4 1.176e+04 1.223e-09
 36.32179     31.1 1.107e+04 8.185e-10
 36.36104     31.3 1.037e+04 4.897e-10
 36.40028     31.4 9.695e+03 2.567e-10
 36.43953     31.2 9.096e+03 1.564e-10
 36.46799     30.7 9.061e+03 1.600e-10
 36.48761     32.9 9.502e+03 2.070e-10
 36.51802     31.6 9.483e+03 2.375e-10
 36.54736     30.3 9.766e+03 3.134e-10
 36.56689     29.6 1.006e+04 4.230e-10
 36.58651     28.8 1.047e+04 6.018e-10
 36.60613     28.4 1.086e+04 8.343e-10
 36.62576     27.9 1.125e+04 1.051e-09
 36.64538     27.6 1.136e+04 1.088e-09
 36.67491     26.6 1.134e+04 1.031e-09
 36.71426     25.7 1.099e+04 8.203e-10
 36.75350     24.8 1.047e+04 5.570e-10
 36.79275     24.3 1.010e+04 3.996e-10
 36.82209     22.8 1.070e+04 4.189e-10
 36.84161     18.8 1.297e+04 6.475e-10
 36.86124     13.9 1.461e+04 1.672e-09
 36.87754     12.3 1.475e+04 3.900e-09
 36.88735     12.1 1.442e+04 4.832e-09
 36.90048     13.9 1.449e+04 6.297e-09
 36.92011     16.5 1.437e+04 5.680e-09
 36.93973     18.3 1.462e+04 4.528e-09
 36.95935     17.8 1.512e+04 2.524e-09
 36.97898     14.7 1.537e+04 9.713e-10
 36.99860      8.9 1.267e+04 3.526e-10
 37.01822      4.8 9.961e+03 2.346e-10
 37.03785      4.5 9.561e+03 2.104e-10
 37.05747      5.1 9.574e+03 2.185e-10
 37.07709      5.3 9.627e+03 2.257e-10
 37.10662      6.2 9.603e+03 2.418e-10
 37.14597      7.3 9.885e+03 2.885e-10
 37.18522      8.4 1.032e+04 3.857e-10
 37.21455      8.3 1.071e+04 5.509e-10
 37.23408      8.6 1.098e+04 7.219e-10
 37.25370      9.3 1.131e+04 9.317e-10
 37.27333     10.0 1.163e+04 1.150e-09
 37.28728     10.9 1.182e+04 1.310e-09
 37.29709     10.2 1.187e+04 1.332e-09
 37.31257     10.8 1.186e+04 1.333e-09
 37.33220     11.2 1.180e+04 1.274e-09
 37.35182     11.1 1.172e+04 1.140e-09
 37.37144     10.7 1.152e+04 9.636e-10
 37.39107      9.9 1.141e+04 8.973e-10
 37.41069      8.3 1.172e+04 9.847e-10
 37.43031      6.5 1.223e+04 1.221e-09
 37.44994      5.5 1.257e+04 1.566e-09
 37.46956      5.4 1.251e+04 1.885e-09
 37.48725      5.6 1.237e+04 1.994e-09
 37.49706      5.9 1.167e+04 1.485e-09
 37.50881      6.2 1.144e+04 1.371e-09
 37.52843      6.3 1.124e+04 1.206e-09
 37.54752      5.7 1.165e+04 1.079e-09
 37.55733      6.8 1.116e+04 1.065e-09
 37.56768      5.8 1.182e+04 1.095e-09
 37.58730      4.3 1.257e+04 1.236e-09
 37.60692      2.5 1.299e+04 1.517e-09
 37.62655      1.3 1.307e+04 2.000e-09
 37.64617      0.3 1.348e+04 2.696e-09
 37.66579     -0.6 1.431e+04 3.634e-09
 37.68542     -1.7 1.509e+04 4.440e-09
 37.69703     -2.8 1.516e+04 4.549e-09
 37.70684     -1.4 1.541e+04 5.172e-09
 37.72466     -1.8 1.527e+04 5.308e-09
 37.74429     -2.1 1.482e+04 4.011e-09
 37.76391     -4.5 1.490e+04 2.380e-09
 37.78353     -9.6 1.382e+04 1.345e-09
 37.80316    -13.9 1.153e+04 1.119e-09
 37.82278    -16.6 1.119e+04 1.191e-09
 37.84240    -17.4 1.151e+04 1.465e-09
 37.86203    -18.3 1.161e+04 1.552e-09
 37.89156    -18.6 1.191e+04 1.660e-09
 37.93090    -20.1 1.133e+04 1.001e-09
 37.97015    -22.9 1.025e+04 5.228e-10
 38.00940    -25.6 9.455e+03 3.544e-10
 38.04864    -26.3 9.328e+03 3.365e-10
 38.08734    -26.6 9.443e+03 3.799e-10
 38.10697    -25.6 9.644e+03 4.509e-10
 38.11723    -26.0 9.618e+03 4.405e-10
 38.13675    -26.6 9.728e+03 4.348e-10
 38.15638    -27.4 9.946e+03 4.533e-10
 38.17600    -28.5 1.025e+04 5.108e-10
 38.19562    -29.9 1.043e+04 5.901e-10
 38.21525    -30.7 1.061e+04 6.824e-10
 38.24478    -31.5 1.071e+04 7.389e-10
 38.28412    -33.1 1.073e+04 7.997e-10
 38.32337    -34.0 1.033e+04 5.875e-10
 38.36262    -35.1 9.836e+03 3.333e-10
 38.40186    -36.5 9.692e+03 2.650e-10
 38.44111    -37.6 9.846e+03 2.895e-10
 38.48036    -38.1 1.032e+04 5.040e-10
 38.50680    -37.3 1.048e+04 6.385e-10
 38.52642    -37.0 1.021e+04 5.387e-10
 38.54894    -35.8 1.042e+04 6.365e-10
 38.56847    -35.4 1.034e+04 6.091e-10
 38.59800    -35.1 1.031e+04 4.419e-10
 38.63734    -36.3 1.025e+04 2.705e-10
 38.67659    -37.8 9.873e+03 2.050e-10
 38.71584    -38.5 9.613e+03 1.865e-10
 38.75508    -38.6 9.412e+03 1.689e-10
 38.79433    -38.2 9.318e+03 1.368e-10
 38.83358    -38.1 9.390e+03 1.077e-10
 38.87282    -38.3 9.480e+03 1.008e-10
 38.90683    -38.4 9.572e+03 1.112e-10
 38.92645    -38.5 9.735e+03 1.860e-10
 38.95132    -37.8 9.847e+03 2.198e-10
 38.99056    -37.0 9.932e+03 2.274e-10
 39.02981    -36.1 9.938e+03 2.033e-10
 39.05337    -35.4 9.855e+03 1.807e-10
 39.07299    -35.4 9.723e+03 1.534e-10
 39.10830    -34.7 9.696e+03 1.477e-10
 39.14755    -33.6 9.705e+03 1.476e-10
 39.18680    -32.5 9.769e+03 1.483e-10
 39.22604    -31.6 9.880e+03 1.450e-10
 39.26529    -31.2 1.014e+04 1.431e-10
 39.30454    -31.5 1.051e+04 1.677e-10
 39.32639    -31.2 1.061e+04 2.698e-10
 39.34601    -31.6 1.098e+04 4.673e-10
 39.38303    -30.4 1.131e+04 6.484e-10
 39.42228    -30.0 1.150e+04 7.085e-10
 39.46152    -30.3 1.162e+04 7.340e-10
 39.50077    -30.7 1.182e+04 8.384e-10
 39.54002    -30.8 1.197e+04 1.029e-09
 39.57926    -30.0 1.200e+04 1.084e-09
 39.61851    -29.3 1.187e+04 9.204e-10
 39.65776    -28.7 1.150e+04 6.551e-10
 39.69700    -28.1 1.116e+04 5.080e-10
 39.72632    -27.0 1.098e+04 4.555e-10
 39.74594    -27.6 1.099e+04 4.017e-10
 39.77550    -26.3 1.094e+04 4.059e-10
 39.81474    -24.9 1.093e+04 4.229e-10
 39.85399    -23.4 1.089e+04 4.294e-10
 39.89324    -22.0 1.083e+04 4.274e-10
 39.93248    -20.4 1.075e+04 4.178e-10
 39.97173    -18.7 1.062e+04 3.902e-10
 40.01098    -17.0 1.048e+04 3.399e-10
 40.05022    -15.2 1.034e+04 2.797e-10
 40.08947    -13.3 1.022e+04 2.251e-10
 40.12625    -11.4 1.021e+04 1.818e-10
 40.14588    -11.3 1.039e+04 2.475e-10
 40.16796     -9.7 1.047e+04 2.162e-10
 40.20721     -8.4 1.084e+04 1.860e-10
 40.24646     -7.6 1.120e+04 2.277e-10
 40.28570     -7.3 1.162e+04 4.238e-10
 40.32495     -6.2 1.243e+04 9.971e-10
 40.34574     -6.1 1.297e+04 1.631e-09
 40.35546     -6.9 1.290e+04 1.902e-09
 40.37381     -7.5 1.416e+04 2.797e-09
 40.39344     -9.0 1.578e+04 4.654e-09
 40.41306    -10.0 1.599e+04 7.175e-09
 40.43268     -8.4 1.573e+04 9.670e-09
 40.45231     -6.8 1.546e+04 9.594e-09
 40.47193     -4.7 1.577e+04 6.156e-09
 40.49155     -6.7 1.585e+04 3.494e-09
 40.51118    -10.3 1.409e+04 2.107e-09
 40.53080    -12.2 1.284e+04 1.519e-09
 40.54571    -12.2 1.261e+04 1.298e-09
 40.56543    -10.9 1.234e+04 1.048e-09
 40.59968    -10.5 1.201e+04 7.822e-10
 40.63892    -10.6 1.169e+04 5.893e-10
 40.67817    -10.5 1.157e+04 5.452e-10
 40.71742     -9.9 1.145e+04 5.881e-10
 40.75666     -8.6 1.144e+04 6.119e-10
 40.79591     -7.2 1.136e+04 5.593e-10
 40.83516     -5.6 1.117e+04 4.511e-10
 40.87440     -3.9 1.103e+04 3.265e-10
 40.91365     -2.3 1.099e+04 2.194e-10
 40.94574     -1.1 1.104e+04 1.469e-10
 40.96536     -0.4 1.111e+04 2.717e-10
 40.99214      0.5 1.119e+04 2.124e-10
 41.03139      1.8 1.100e+04 2.062e-10
 41.07064      3.4 1.084e+04 1.971e-10
 41.10988      5.2 1.073e+04 1.792e-10
 41.14913      7.1 1.065e+04 1.522e-10
 41.18838      8.5 1.071e+04 1.220e-10
 41.22762      9.9 1.069e+04 1.205e-10
 41.26687     10.8 1.077e+04 1.392e-10
 41.30612     12.1 1.078e+04 2.092e-10
 41.34536     14.0 1.089e+04 2.893e-10
 41.36530     15.7 1.116e+04 3.214e-10
 41.38492     15.8 1.149e+04 4.581e-10
 41.42386     17.1 1.184e+04 4.695e-10
 41.45319     17.4 1.194e+04 4.365e-10
 41.47272     17.5 1.201e+04 4.618e-10
 41.49234     17.4 1.216e+04 5.641e-10
 41.51197     17.5 1.227e+04 7.291e-10
 41.53159     17.6 1.258e+04 1.014e-09
 41.55121     18.2 1.277e+04 1.340e-09
 41.58074     19.0 1.301e+04 1.565e-09
 41.62009     20.1 1.287e+04 1.474e-09
 41.65934     21.0 1.270e+04 1.257e-09
 41.69858     21.8 1.247e+04 1.026e-09
 41.73783     23.1 1.222e+04 8.657e-10
 41.76523     24.9 1.201e+04 7.102e-10
 41.78485     24.8 1.208e+04 7.406e-10
 41.81632     26.8 1.187e+04 5.661e-10
 41.85557     28.7 1.180e+04 4.212e-10
 41.89482     30.4 1.175e+04 3.443e-10
 41.93406     32.1 1.174e+04 3.302e-10
 41.97331     33.8 1.174e+04 3.451e-10
 42.01256     35.3 1.194e+04 3.767e-10
 42.04189     36.0 1.200e+04 4.512e-10
 42.05467     36.7 1.201e+04 5.458e-10
 42.06448     36.6 1.201e+04 5.392e-10
 42.08104     37.4 1.201e+04 6.650e-10
 42.10067     38.4 1.211e+04 7.910e-10
 42.12029     39.6 1.236e+04 9.078e-10
 42.13991     40.2 1.252e+04 9.780e-10
 42.15954     40.6 1.264e+04 1.085e-09
 42.17478     41.3 1.270e+04 1.171e-09
 42.18459     40.8 1.245e+04 1.182e-09
 42.19878     41.6 1.229e+04 1.217e-09
 42.21841     42.4 1.229e+04 1.238e-09
 42.23803     43.0 1.241e+04 1.321e-09
 42.25765     43.4 1.272e+04 1.509e-09
 42.27728     43.6 1.310e+04 1.852e-09
 42.29690     43.9 1.349e+04 2.323e-09
 42.31652     44.2 1.389e+04 2.938e-09
 42.33615     44.6 1.427e+04 3.635e-09
 42.35577     45.1 1.457e+04 4.182e-09
 42.37474     45.5 1.463e+04 4.249e-09
 42.38456     45.9 1.334e+04 1.858e-09
 42.39502     46.5 1.333e+04 1.811e-09
 42.41464     47.0 1.327e+04 1.656e-09
 42.43426     47.5 1.303e+04 1.412e-09
 42.45389     47.7 1.278e+04 1.214e-09
 42.48342     48.7 1.257e+04 1.295e-09
 42.52276     50.5 1.182e+04 8.297e-10
 42.56201     52.5 1.128e+04 5.175e-10
 42.58472     54.5 1.095e+04 3.642e-10
 42.60434     55.6 1.094e+04 3.682e-10
 42.64050     57.6 1.077e+04 3.075e-10
 42.67975     59.5 1.061e+04 2.729e-10
 42.71900     61.4 1.047e+04 2.651e-10
 42.75824     63.2 1.043e+04 2.722e-10
 42.79749     64.7 1.042e+04 2.957e-10
 42.83674     65.8 1.051e+04 3.713e-10
 42.87598     66.8 1.078e+04 5.231e-10
 42.91523     67.6 1.104e+04 7.025e-10
 42.95448     68.0 1.109e+04 7.440e-10
 42.98465     68.4 1.103e+04 7.159e-10
 43.00427     68.5 1.163e+04 1.070e-09
 43.03297     69.0 1.131e+04 8.874e-10
 43.07222     69.5 1.092e+04 6.626e-10
 43.11146     70.1 1.057e+04 4.675e-10
 43.15071     70.5 1.023e+04 3.389e-10
 43.18996     71.1 9.888e+03 3.015e-10
 43.22920     72.1 9.865e+03 3.065e-10
 43.26845     73.0 9.916e+03 3.528e-10
 43.30770     73.8 1.020e+04 4.882e-10
 43.34694     74.5 1.053e+04 6.642e-10
 43.38458     74.9 1.072e+04 7.728e-10
 43.40421     74.3 1.036e+04 6.096e-10
 43.42544     74.5 1.024e+04 5.767e-10
 43.46468     74.9 9.962e+03 4.773e-10
 43.50393     75.3 9.619e+03 3.569e-10
 43.54318     75.8 9.281e+03 2.648e-10
 43.58242     76.8 9.236e+03 2.481e-10
 43.62167     78.1 9.318e+03 2.582e-10
 43.66092     79.5 9.498e+03 2.914e-10
 43.70016     80.4 9.597e+03 3.243e-10
 43.72950     81.3 9.685e+03 3.542e-10
 43.74903     81.9 9.978e+03 4.369e-10
 43.76865     82.2 1.038e+04 5.755e-10
 43.78827     82.3 1.075e+04 7.630e-10
 43.80394     82.2 1.108e+04 1.019e-09
 43.81376     81.7 1.093e+04 1.039e-09
 43.82752     81.9 1.124e+04 1.371e-09
 43.84714     82.0 1.157e+04 1.741e-09
 43.86677     82.0 1.192e+04 2.056e-09
 43.88639     81.9 1.217e+04 2.065e-09
 43.90601     81.5 1.219e+04 2.024e-09
 43.92564     80.9 1.210e+04 1.804e-09
 43.94526     80.2 1.180e+04 1.537e-09
 43.97479     79.7 1.111e+04 1.082e-09
 44.01414     79.7 1.025e+04 6.317e-10
 44.05338     79.6 9.206e+03 2.984e-10
 44.09263     78.9 8.519e+03 1.628e-10
 44.13188     78.7 8.529e+03 1.571e-10
 44.17112     78.9 8.628e+03 1.719e-10
 44.20046     78.7 8.722e+03 1.924e-10
 44.21369     78.2 9.002e+03 2.338e-10
 44.22350     77.4 8.937e+03 2.265e-10
 44.23961     74.8 9.885e+03 4.243e-10
 44.25923     70.0 1.220e+04 1.263e-09
 44.27886     65.9 1.466e+04 3.660e-09
 44.29848     63.2 1.599e+04 6.534e-09
 44.31810     60.4 1.620e+04 6.682e-09
 44.33773     57.8 1.578e+04 5.399e-09
 44.35735     54.7 1.461e+04 2.932e-09
 44.37697     50.3 1.270e+04 1.276e-09
 44.39660     45.5 1.057e+04 6.160e-10
 44.41365     42.6 9.535e+03 3.953e-10
 44.42347     41.8 9.461e+03 3.472e-10
 44.43584     40.5 9.515e+03 2.994e-10
 44.45547     40.4 9.464e+03 2.939e-10
 44.48500     39.3 9.470e+03 2.865e-10
 44.52434     37.8 9.547e+03 3.296e-10
 44.56359     37.1 9.618e+03 3.840e-10
 44.60284     36.9 9.559e+03 3.995e-10
 44.62363     36.7 9.491e+03 3.704e-10
 44.64325     35.5 9.153e+03 3.065e-10
 44.68133     35.4 8.957e+03 2.605e-10
 44.72058     35.5 8.877e+03 2.415e-10
 44.75982     35.9 8.956e+03 2.537e-10
 44.79907     36.4 9.168e+03 2.911e-10
 44.82350     37.1 9.364e+03 3.416e-10
 44.83321     36.9 9.354e+03 3.405e-10
 44.84793     36.8 9.611e+03 4.264e-10
 44.86756     36.4 1.016e+04 5.764e-10
 44.88718     33.9 1.189e+04 1.154e-09
 44.90680     30.2 1.468e+04 3.094e-09
 44.92643     27.4 1.657e+04 7.398e-09
 44.94605     25.3 1.801e+04 1.328e-08
 44.96567     23.4 1.879e+04 1.725e-08
 44.98530     22.5 1.837e+04 1.432e-08
 45.00492     20.9 1.746e+04 9.018e-09
 45.02337     17.5 1.586e+04 4.679e-09
 45.03318     18.1 1.537e+04 3.841e-09
 45.04417     14.0 1.323e+04 2.077e-09
 45.05616     10.6 1.159e+04 1.368e-09
 45.06597     12.5 1.287e+04 1.962e-09
 45.08341     10.3 1.190e+04 1.631e-09
 45.10304      8.7 1.219e+04 1.767e-09
 45.12266      6.7 1.268e+04 2.125e-09
 45.14228      5.3 1.292e+04 2.641e-09
 45.16191      4.5 1.279e+04 2.824e-09
 45.18153      3.9 1.219e+04 2.527e-09
 45.20115     -1.3 1.541e+04 2.797e-09
 45.22078    -12.6 2.013e+04 4.725e-09
 45.23314    -20.9 1.869e+04 7.991e-09
 45.24295    -22.2 1.809e+04 1.131e-08
 45.26002    -24.3 1.648e+04 9.485e-09
 45.27965    -24.7 1.517e+04 6.634e-09
 45.29927    -24.8 1.440e+04 3.289e-09
 45.31889    -28.3 1.372e+04 1.183e-09
 45.33852    -36.4 1.047e+04 3.529e-10
 45.35814    -40.1 8.391e+03 2.113e-10
 45.37776    -40.6 8.133e+03 1.992e-10
 45.39739    -40.6 8.112e+03 2.007e-10
 45.42340    -40.4 8.302e+03 2.319e-10
 45.44312    -40.3 8.169e+03 2.137e-10
 45.46626    -39.7 8.285e+03 2.374e-10
 45.50551    -39.0 8.420e+03 2.588e-10
 45.54476    -38.5 8.613e+03 2.806e-10
 45.58400    -38.2 8.856e+03 3.126e-10
 45.62325    -37.8 9.061e+03 3.557e-10
 45.66250    -37.2 9.154e+03 3.834e-10
 45.70174    -36.5 9.166e+03 3.858e-10
 45.74099    -36.3 9.183e+03 3.503e-10
 45.78024    -36.4 9.190e+03 3.393e-10
 45.81948    -37.0 9.420e+03 3.752e-10
 45.84295    -36.8 9.530e+03 4.389e-10
 45.86257    -36.5 9.571e+03 4.483e-10
 45.88807    -36.6 9.746e+03 5.329e-10
 45.90759    -36.3 9.767e+03 5.467e-10
 45.92722    -36.0 9.697e+03 5.252e-10
 45.94684    -35.7 9.605e+03 4.604e-10
 45.97637    -35.7 9.416e+03 3.579e-10
 46.01572    -35.2 8.957e+03 2.225e-10
 46.05496    -34.7 8.602e+03 1.486e-10
 46.09421    -34.0 8.497e+03 1.315e-10
 46.13346    -33.0 8.700e+03 1.434e-10
 46.17270    -32.5 9.220e+03 2.283e-10
 46.20204    -31.7 9.612e+03 3.420e-10
 46.22157    -31.8 9.654e+03 3.639e-10
 46.24119    -31.4 1.001e+04 5.247e-10
 46.25260    -31.1 1.037e+04 6.820e-10
 46.26241    -31.0 1.020e+04 6.254e-10
 46.28044    -30.5 1.066e+04 7.877e-10
 46.30006    -30.4 1.091e+04 8.784e-10
 46.31968    -30.1 1.116e+04 9.432e-10
 46.33931    -30.3 1.123e+04 9.511e-10
 46.35893    -30.5 1.136e+04 9.442e-10
 46.37855    -31.0 1.155e+04 9.950e-10
 46.39818    -31.5 1.168e+04 1.091e-09
 46.41780    -31.7 1.182e+04 1.232e-09
 46.43742    -31.7 1.204e+04 1.385e-09
 46.45256    -31.5 1.233e+04 1.497e-09
 46.46238    -31.6 1.206e+04 1.278e-09
 46.47667    -32.0 1.241e+04 1.394e-09
 46.49629    -32.7 1.268e+04 1.509e-09
 46.51592    -33.6 1.279e+04 1.618e-09
 46.53554    -34.2 1.279e+04 1.698e-09
 46.55200    -34.7 1.270e+04 1.648e-09
 46.56181    -35.4 1.232e+04 1.279e-09
 46.57479    -35.8 1.235e+04 1.053e-09
 46.59441    -36.9 1.232e+04 8.228e-10
 46.61403    -37.8 1.223e+04 7.388e-10
 46.63366    -39.2 1.194e+04 6.906e-10
 46.65253    -39.6 1.170e+04 8.669e-10
 46.66234    -39.9 1.169e+04 8.688e-10
 46.67290    -39.4 1.184e+04 1.017e-09
 46.69253    -38.6 1.207e+04 1.146e-09
 46.71215    -37.9 1.229e+04 1.221e-09
 46.73177    -37.4 1.234e+04 1.237e-09
 46.75140    -36.8 1.230e+04 1.196e-09
 46.77102    -35.9 1.232e+04 1.140e-09
 46.79064    -34.9 1.229e+04 1.049e-09
 46.81027    -33.8 1.215e+04 9.369e-10
 46.82989    -32.7 1.215e+04 8.620e-10
 46.84951    -31.8 1.193e+04 7.567e-10
 46.86231    -30.6 1.183e+04 6.818e-10
 46.87212    -30.5 1.185e+04 6.800e-10
 46.88876    -29.6 1.172e+04 6.340e-10
 46.90838    -28.2 1.183e+04 6.243e-10
 46.92801    -27.5 1.166e+04 6.053e-10
 46.95754    -25.9 1.168e+04 6.101e-10
 46.99688    -23.5 1.163e+04 6.313e-10
 47.03613    -21.2 1.165e+04 6.341e-10
 47.06247    -18.9 1.160e+04 6.056e-10
 47.08209    -18.7 1.210e+04 9.574e-10
 47.11462    -16.5 1.197e+04 8.939e-10
 47.15387    -14.1 1.183e+04 7.708e-10
 47.19312    -11.9 1.167e+04 6.683e-10
 47.23236     -9.6 1.151e+04 6.184e-10
 47.27161     -7.2 1.154e+04 6.054e-10
 47.31086     -5.1 1.158e+04 6.525e-10
 47.35010     -3.1 1.186e+04 7.709e-10
 47.38935     -1.1 1.204e+04 9.369e-10
 47.42860      1.2 1.194e+04 9.038e-10
 47.46240      3.6 1.162e+04 7.626e-10
 47.48203      3.7 1.180e+04 7.623e-10
 47.50709      5.9 1.141e+04 5.469e-10
 47.54634      8.0 1.122e+04 4.059e-10
 47.58558     10.2 1.101e+04 3.097e-10
 47.62483     12.3 1.083e+04 2.489e-10
 47.66408     14.6 1.076e+04 2.325e-10
 47.70332     17.0 1.082e+04 2.523e-10
 47.74257     19.2 1.101e+04 3.063e-10
 47.78182     21.4 1.116e+04 3.975e-10
 47.82106     23.5 1.115e+04 4.790e-10
 47.85040     25.8 1.114e+04 4.777e-10
 47.86993     26.5 1.122e+04 5.078e-10
 47.88176     28.0 1.126e+04 5.462e-10
 47.90149     28.8 1.128e+04 4.325e-10
 47.93880     30.6 1.138e+04 4.695e-10
 47.96814     31.5 1.146e+04 5.574e-10
 47.98767     32.4 1.147e+04 6.246e-10
 48.00729     33.2 1.152e+04 6.892e-10
 48.02691     34.0 1.161e+04 7.388e-10
 48.04654     34.8 1.171e+04 7.817e-10
 48.05766     35.6 1.172e+04 8.201e-10
 48.06747     35.2 1.193e+04 8.093e-10
 48.08173     35.9 1.199e+04 8.597e-10
 48.09154     36.2 1.222e+04 8.729e-10
 48.10541     36.8 1.223e+04 9.396e-10
 48.12503     37.4 1.222e+04 1.005e-09
 48.14465     38.1 1.224e+04 1.063e-09
 48.16428     38.8 1.236e+04 1.129e-09
 48.18390     39.1 1.243e+04 1.157e-09
 48.21343     40.0 1.231e+04 1.033e-09
 48.25278     41.4 1.231e+04 1.015e-09
 48.28189     43.1 1.233e+04 9.830e-10
 48.30152     42.8 1.265e+04 1.257e-09
 48.32136     43.6 1.246e+04 1.139e-09
 48.34089     44.5 1.239e+04 1.091e-09
 48.36051     45.4 1.236e+04 1.058e-09
 48.38013     46.2 1.231e+04 1.027e-09
 48.39975     47.0 1.224e+04 9.975e-10
 48.41938     47.7 1.219e+04 9.742e-10
 48.43900     48.4 1.212e+04 9.493e-10
 48.45862     49.2 1.204e+04 9.009e-10
 48.47825     49.9 1.192e+04 8.272e-10
 48.49147     50.7 1.179e+04 7.405e-10
 48.50129     50.8 1.185e+04 7.587e-10
 48.51749     51.5 1.172e+04 6.931e-10
 48.53712     52.1 1.160e+04 6.318e-10
 48.55674     52.8 1.152e+04 5.671e-10
 48.57636     53.3 1.147e+04 5.289e-10
 48.59599     53.8 1.138e+04 4.933e-10
 48.61561     54.3 1.129e+04 4.690e-10
 48.63523     54.9 1.118e+04 4.456e-10
 48.65486     55.3 1.112e+04 4.300e-10
 48.67448     55.9 1.100e+04 4.113e-10
 48.69144     56.2 1.094e+04 3.976e-10
 48.70125     56.5 1.100e+04 4.151e-10
 48.71373     56.9 1.088e+04 3.839e-10
 48.73335     57.0 1.085e+04 3.654e-10
 48.75297     57.4 1.085e+04 3.627e-10
 48.77260     57.5 1.087e+04 3.659e-10
 48.79222     57.6 1.092e+04 3.825e-10
 48.81184     57.7 1.099e+04 4.085e-10
 48.83147     57.9 1.098e+04 4.528e-10
 48.85109     58.0 1.098e+04 4.921e-10
 48.87071     58.4 1.087e+04 5.202e-10
 48.89034     58.8 1.084e+04 5.436e-10
 48.90122     59.2 1.087e+04 5.760e-10
 48.91103     58.8 1.082e+04 5.172e-10
 48.92958     58.7 1.094e+04 5.379e-10
 48.94921     58.2 1.136e+04 6.056e-10
 48.96883     56.6 1.214e+04 8.455e-10
 48.98845     54.5 1.295e+04 1.487e-09
 49.00808     53.6 1.363e+04 2.723e-09
 49.02770     53.9 1.415e+04 4.120e-09
 49.04732     54.0 1.435e+04 4.370e-09
 49.06695     54.0 1.426e+04 4.059e-09
 49.08657     53.8 1.408e+04 3.044e-09
 49.10119     52.8 1.385e+04 1.835e-09
 49.11100     52.7 1.351e+04 1.837e-09
 49.12582     51.6 1.346e+04 1.404e-09
 49.14544     50.5 1.339e+04 1.104e-09
 49.16506     49.1 1.356e+04 1.001e-09
 49.18469     47.3 1.378e+04 1.046e-09
 49.20431     45.1 1.398e+04 1.283e-09
 49.22393     44.0 1.373e+04 1.956e-09
 49.24356     44.3 1.363e+04 3.045e-09
 49.26318     45.0 1.371e+04 3.932e-09
 49.28280     45.7 1.380e+04 3.984e-09
 49.30115     46.0 1.374e+04 3.658e-09
 49.31096     46.5 1.361e+04 3.514e-09
 49.32205     46.7 1.354e+04 3.232e-09
 49.35158     45.6 1.309e+04 2.343e-09
 49.39093     44.6 1.256e+04 1.855e-09
 49.43018     44.3 1.201e+04 1.464e-09
 49.46942     44.4 1.155e+04 1.078e-09
 49.50131     44.3 1.118e+04 7.014e-10
 49.52094     44.9 1.139e+04 8.088e-10
 49.54792     44.1 1.092e+04 4.778e-10
 49.58716     43.1 1.084e+04 4.455e-10
 49.62641     42.0 1.093e+04 5.159e-10
 49.66566     41.2 1.119e+04 7.980e-10
 49.70490     41.4 1.128e+04 9.990e-10
 49.74415     41.8 1.110e+04 9.107e-10
 49.78340     42.4 1.065e+04 6.152e-10
 49.82264     42.3 1.012e+04 3.273e-10
 49.86189     41.7 9.571e+03 2.098e-10
 49.90114     41.8 9.359e+03 2.036e-10
 49.94038     42.7 9.606e+03 3.268e-10
 49.97963     43.7 9.453e+03 2.990e-10
 50.01888     45.0 9.279e+03 2.519e-10
 50.05812     46.5 9.069e+03 1.928e-10
 50.09737     47.9 8.861e+03 1.390e-10
 50.13662     49.3 8.691e+03 9.963e-11
 50.17586     50.7 8.586e+03 7.452e-11
 50.21511     52.2 8.548e+03 5.998e-11
 50.25436     53.8 8.544e+03 5.841e-11
 50.29360     55.6 8.555e+03 5.967e-11
 50.32080     57.5 8.604e+03 6.570e-11
 50.34043     57.5 8.636e+03 8.136e-11
 50.37210     59.5 8.704e+03 9.536e-11
 50.41134     61.4 8.836e+03 1.186e-10
 50.45059     63.2 8.979e+03 1.590e-10
 50.48984     65.3 9.266e+03 2.427e-10
 50.52908     67.5 9.672e+03 3.914e-10
 50.56833     69.5 1.039e+04 6.564e-10
 50.60758     71.3 1.132e+04 1.077e-09
 50.63691     71.5 1.191e+04 1.498e-09
 50.65644     72.0 1.244e+04 1.946e-09
 50.67606     72.5 1.295e+04 2.380e-09
 50.69568     72.8 1.337e+04 2.686e-09
 50.71531     72.7 1.368e+04 2.857e-09
 50.73035     72.3 1.395e+04 2.979e-09
 50.74016     72.3 1.411e+04 3.104e-09
 50.75455     71.2 1.448e+04 3.394e-09
 50.77418     70.2 1.482e+04 3.721e-09
 50.79380     69.4 1.501e+04 3.886e-09
 50.81342     68.7 1.501e+04 3.856e-09
 50.83305     68.4 1.484e+04 3.625e-09
 50.85267     68.2 1.448e+04 3.107e-09
 50.87229     68.1 1.403e+04 2.504e-09
 50.89192     68.0 1.358e+04 1.979e-09
 50.91154     67.9 1.315e+04 1.595e-09
 50.93032     67.8 1.275e+04 1.381e-09
 50.94013     66.4 1.317e+04 1.897e-09
 50.95079     66.9 1.313e+04 1.953e-09
 50.97041     67.6 1.328e+04 2.084e-09
 50.99003     68.5 1.353e+04 2.240e-09
 51.00966     69.4 1.375e+04 2.400e-09
 51.02928     70.1 1.390e+04 2.580e-09
 51.04890     70.7 1.399e+04 2.849e-09
 51.05915     71.4 1.407e+04 3.266e-09
 51.06896     71.3 1.384e+04 4.021e-09
 51.08815     72.1 1.390e+04 4.227e-09
 51.10777     73.1 1.402e+04 4.329e-09
 51.12740     74.2 1.416e+04 4.386e-09
 51.14010     75.3 1.417e+04 4.297e-09
 51.14991     74.7 1.376e+04 3.722e-09
 51.16664     75.4 1.397e+04 3.316e-09
 51.18627     75.5 1.429e+04 3.115e-09
 51.20589     75.3 1.457e+04 3.148e-09
 51.22551     75.0 1.499e+04 3.352e-09
 51.24514     75.0 1.520e+04 3.767e-09
 51.26476     75.0 1.498e+04 4.027e-09
 51.28438     75.3 1.478e+04 3.972e-09
 51.30401     75.6 1.437e+04 3.739e-09
 51.32363     76.0 1.389e+04 3.208e-09
 51.34006     76.4 1.341e+04 2.505e-09
 51.34987     76.2 1.345e+04 2.798e-09
 51.36288     76.7 1.296e+04 2.180e-09
 51.38250     77.0 1.246e+04 1.601e-09
 51.40212     77.2 1.202e+04 1.134e-09
 51.42175     77.2 1.169e+04 8.056e-10
 51.44137     77.2 1.142e+04 6.142e-10
 51.46099     77.1 1.124e+04 5.044e-10
 51.48062     76.9 1.129e+04 4.700e-10
 51.50024     76.4 1.145e+04 4.903e-10
 51.51986     75.8 1.184e+04 5.746e-10
 51.53949     75.6 1.231e+04 8.541e-10
 51.54984     76.0 1.247e+04 1.033e-09
 51.55975     77.4 1.207e+04 7.005e-10
 51.58874     78.1 1.228e+04 1.029e-09
 51.62799     79.5 1.229e+04 1.257e-09
 51.66724     81.1 1.221e+04 1.219e-09
 51.70648     82.8 1.198e+04 1.075e-09
 51.74573     84.4 1.158e+04 8.320e-10
 51.78498     86.2 1.109e+04 5.960e-10
 51.82422     88.0 1.060e+04 4.249e-10
 51.86347     90.1 1.018e+04 3.147e-10
 51.90272     92.3 9.885e+03 2.422e-10
 51.94016     94.7 9.653e+03 1.937e-10
 51.95978     95.1 9.683e+03 1.707e-10
 51.98121     97.4 9.354e+03 1.470e-10
 52.02046     99.9 9.142e+03 1.450e-10
 52.05970    102.5 9.094e+03 1.453e-10
 52.09895    105.1 9.066e+03 1.462e-10
 52.13820    107.6 9.026e+03 1.482e-10
 52.17744    110.0 8.986e+03 1.506e-10
 52.21669    112.4 8.947e+03 1.534e-10
 52.25594    114.7 8.916e+03 1.575e-10
 52.29518    116.9 8.905e+03 1.638e-10
 52.33443    119.1 8.912e+03 1.728e-10
 52.35971    121.2 8.941e+03 1.863e-10
 52.37934    121.2 9.051e+03 2.057e-10
 52.41292    123.3 9.113e+03 2.314e-10
 52.45217    125.3 9.204e+03 2.653e-10
 52.49142    127.3 9.343e+03 3.092e-10
 52.53066    129.4 9.536e+03 3.685e-10
 52.56991    131.3 9.739e+03 4.308e-10
 52.59925    131.9 9.808e+03 4.613e-10
 52.61877    132.6 9.897e+03 4.968e-10
 52.63839    133.6 1.005e+04 5.451e-10
 52.65802    134.6 1.024e+04 5.973e-10
 52.67764    135.4 1.042e+04 6.529e-10
 52.69726    136.2 1.062e+04 7.121e-10
 52.71689    137.0 1.083e+04 7.798e-10
 52.73651    137.7 1.103e+04 8.580e-10
 52.75613    138.4 1.122e+04 9.475e-10
 52.76926    139.1 1.140e+04 1.052e-09
 52.77907    138.5 1.138e+04 1.043e-09
 52.79538    139.2 1.152e+04 1.153e-09
 52.81500    139.9 1.166e+04 1.274e-09
 52.83463    140.7 1.180e+04 1.407e-09
 52.85425    141.5 1.200e+04 1.520e-09
 52.87387    142.3 1.218e+04 1.634e-09
 52.89350    143.0 1.243e+04 1.638e-09
 52.91312    143.5 1.244e+04 1.618e-09
 52.93274    143.9 1.244e+04 1.543e-09
 52.95237    144.3 1.236e+04 1.414e-09
 52.96923    144.6 1.215e+04 1.259e-09
 52.97904    143.8 1.130e+04 8.451e-10
 52.99161    144.1 1.109e+04 7.767e-10
 53.01124    144.4 1.092e+04 7.203e-10
 53.03086    144.8 1.079e+04 6.730e-10
 53.05048    145.2 1.070e+04 6.327e-10
 53.07011    145.7 1.063e+04 5.970e-10
 53.08973    146.1 1.057e+04 5.649e-10
 53.10935    146.6 1.050e+04 5.350e-10
 53.12898    147.0 1.043e+04 5.098e-10
 53.14860    147.4 1.032e+04 4.749e-10
 53.16822    147.8 1.023e+04 4.499e-10
 53.17901    148.3 1.012e+04 4.270e-10
 53.19873    148.6 1.000e+04 3.880e-10
 53.23710    149.8 9.880e+03 3.696e-10
 53.27635    151.2 9.817e+03 3.559e-10
 53.31560    152.6 9.792e+03 3.442e-10
 53.35484    154.0 9.779e+03 3.295e-10
 53.39409    155.4 9.760e+03 3.062e-10
 53.43334    156.7 9.699e+03 2.757e-10
 53.47258    157.8 9.591e+03 2.473e-10
 53.51183    158.9 9.458e+03 2.317e-10
 53.55108    160.1 9.383e+03 2.311e-10
 53.57913    161.3 9.376e+03 2.396e-10
 53.59876    161.1 8.937e+03 1.778e-10
 53.62957    162.3 9.079e+03 2.142e-10
 53.66882    163.5 9.309e+03 2.701e-10
 53.70806    164.3 9.520e+03 3.386e-10
 53.73740    164.6 9.576e+03 3.791e-10
 53.75692    165.1 9.654e+03 4.280e-10
 53.77655    165.9 9.875e+03 5.253e-10
 53.78872    166.6 1.022e+04 6.675e-10
 53.79853    165.4 9.945e+03 5.313e-10
 53.81579    165.7 1.028e+04 6.698e-10
 53.83542    165.6 1.059e+04 8.164e-10
 53.85504    165.5 1.086e+04 9.558e-10
 53.87466    165.1 1.108e+04 1.083e-09
 53.89429    164.5 1.125e+04 1.194e-09
 53.91391    163.6 1.137e+04 1.290e-09
 53.93353    162.6 1.149e+04 1.372e-09
 53.95316    161.6 1.160e+04 1.451e-09
 53.97278    160.7 1.171e+04 1.467e-09
 53.98868    159.9 1.171e+04 1.450e-09
 53.99849    159.6 1.113e+04 1.109e-09
 54.01203    158.9 1.110e+04 1.067e-09
 54.03165    158.5 1.096e+04 9.801e-10
 54.05083    158.2 1.072e+04 8.667e-10
 54.06064    157.6 1.032e+04 6.884e-10
 54.07090    157.4 1.006e+04 5.932e-10
 54.09052    157.3 9.844e+03 5.089e-10
 54.11014    157.0 9.686e+03 4.435e-10
 54.13968    156.6 9.464e+03 3.582e-10
 54.17902    157.0 9.324e+03 3.452e-10
 54.21827    157.7 9.288e+03 3.464e-10
 54.25752    158.6 9.268e+03 3.504e-10
 54.29676    159.3 9.221e+03 3.577e-10
 54.32610    160.5 9.235e+03 3.713e-10
 54.34562    161.2 9.361e+03 4.120e-10
 54.36525    161.6 9.592e+03 4.818e-10
 54.38487    161.6 9.867e+03 5.760e-10
 54.39843    161.5 1.022e+04 7.067e-10
 54.40824    161.4 1.006e+04 6.295e-10
 54.42412    160.9 1.058e+04 8.279e-10
 54.44374    160.3 1.118e+04 1.111e-09
 54.46336    159.5 1.178e+04 1.473e-09
 54.48299    158.6 1.227e+04 1.823e-09
 54.50261    157.3 1.254e+04 1.935e-09
 54.52223    155.8 1.252e+04 1.919e-09
 54.54186    154.5 1.242e+04 1.844e-09
 54.57139    152.7 1.210e+04 1.601e-09
 54.61074    150.6 1.151e+04 1.260e-09
 54.64998    148.3 1.080e+04 9.178e-10
 54.68923    146.4 1.010e+04 6.299e-10
 54.72848    145.1 9.447e+03 4.103e-10
 54.76772    144.0 8.888e+03 2.768e-10
 54.79855    143.2 8.706e+03 2.401e-10
 54.81818    143.6 8.832e+03 2.705e-10
 54.84621    143.3 8.845e+03 2.746e-10
 54.88546    143.0 8.941e+03 2.977e-10
 54.92471    142.5 9.141e+03 3.422e-10
 54.96395    141.8 9.372e+03 3.946e-10
 55.00320    140.7 9.601e+03 4.456e-10
 55.04245    139.1 9.848e+03 4.999e-10
 55.08169    137.1 1.020e+04 5.924e-10
 55.12094    134.9 1.068e+04 7.474e-10
 55.16019    132.6 1.116e+04 9.013e-10
 55.19849    130.1 1.133e+04 9.181e-10
 55.21811    131.9 1.135e+04 9.284e-10
 55.23868    129.3 1.130e+04 8.640e-10
 55.27793    127.2 1.095e+04 6.058e-10
 55.31717    125.3 1.033e+04 3.072e-10
 55.35642    123.0 9.445e+03 1.442e-10
 55.39567    121.2 8.909e+03 1.175e-10
 55.43491    120.7 8.885e+03 1.178e-10
 55.47416    120.6 8.894e+03 1.236e-10
 55.51341    120.5 9.001e+03 1.472e-10
 55.55265    120.5 9.226e+03 1.932e-10
 55.59190    120.5 9.507e+03 2.600e-10
 55.61804    120.5 9.809e+03 3.374e-10
 55.63767    121.6 9.814e+03 3.601e-10
 55.67039    121.5 1.010e+04 4.264e-10
 55.70964    121.1 1.030e+04 4.484e-10
 55.74889    120.3 1.033e+04 4.486e-10
 55.78813    119.3 1.033e+04 4.504e-10
 55.82738    118.3 1.033e+04 4.648e-10
 55.86663    117.3 1.034e+04 4.966e-10
 55.90587    116.4 1.033e+04 5.105e-10
 55.94512    115.6 1.028e+04 4.964e-10
 55.98437    115.0 1.013e+04 4.387e-10
 56.01798    114.4 9.909e+03 3.524e-10
 56.03760    114.4 9.616e+03 2.888e-10
 56.06286    113.7 9.454e+03 2.489e-10
 56.10211    113.2 9.359e+03 2.302e-10
 56.14135    113.1 9.346e+03 2.284e-10
 56.18060    113.2 9.354e+03 2.294e-10
 56.21985    113.3 9.372e+03 2.307e-10
 56.25909    113.7 9.407e+03 2.284e-10
 56.29834    114.1 9.439e+03 2.272e-10
 56.33759    114.6 9.514e+03 2.310e-10
 56.37683    115.0 9.682e+03 2.517e-10
 56.41608    115.4 9.933e+03 3.084e-10
 56.43753    115.8 1.020e+04 3.930e-10
 56.45716    115.9 9.892e+03 3.054e-10
 56.49457    116.5 1.009e+04 3.406e-10
 56.53382    117.0 1.013e+04 3.364e-10
 56.57307    117.5 1.015e+04 3.028e-10
 56.61231    117.9 1.003e+04 2.444e-10
 56.65156    118.1 9.877e+03 1.984e-10
 56.69081    118.4 9.645e+03 1.879e-10
 56.73005    118.8 9.625e+03 1.976e-10
 56.76930    119.3 9.672e+03 2.249e-10
 56.80855    119.8 9.728e+03 2.433e-10
 56.83746    120.0 9.745e+03 2.440e-10
 56.85709    119.7 1.004e+04 3.239e-10
 56.88704    119.6 1.005e+04 3.214e-10
 56.92629    119.6 9.971e+03 3.009e-10
 56.96553    119.7 9.766e+03 2.529e-10
 57.00478    119.7 9.498e+03 1.973e-10
 57.04271    119.6 9.241e+03 1.528e-10
 57.06233    120.8 9.291e+03 1.526e-10
 57.08327    120.6 9.141e+03 1.362e-10
 57.12252    120.5 9.143e+03 1.371e-10
 57.16177    120.3 9.204e+03 1.459e-10
 57.20101    120.0 9.439e+03 1.780e-10
 57.23740    119.5 9.800e+03 2.380e-10
 57.25702    118.8 9.617e+03 2.075e-10
 57.27951    118.3 9.954e+03 2.863e-10
 57.30885    118.0 1.015e+04 3.433e-10
 57.32837    117.7 1.036e+04 4.189e-10
 57.34799    117.6 1.062e+04 5.471e-10
 57.36762    117.7 1.090e+04 7.007e-10
 57.38724    117.8 1.115e+04 8.345e-10
 57.40686    117.8 1.136e+04 9.241e-10
 57.42649    117.3 1.163e+04 1.003e-09
 57.44611    115.8 1.240e+04 1.186e-09
 57.45679    113.3 1.361e+04 1.617e-09
 57.46660    113.0 1.378e+04 1.632e-09
 57.48536    110.9 1.463e+04 2.582e-09
 57.50498    109.8 1.509e+04 3.897e-09
 57.52460    109.1 1.528e+04 4.785e-09
 57.54423    108.6 1.525e+04 4.781e-09
 57.56385    108.0 1.500e+04 4.472e-09
 57.58347    107.4 1.452e+04 3.751e-09
 57.60310    106.6 1.392e+04 2.961e-09
 57.62272    105.5 1.325e+04 2.318e-09
 57.64234    104.4 1.260e+04 1.875e-09
 57.65676    103.7 1.213e+04 1.605e-09
 57.66657    104.6 1.253e+04 1.802e-09
 57.68159    103.9 1.212e+04 1.603e-09
 57.70121    103.6 1.204e+04 1.525e-09
 57.72084    103.3 1.207e+04 1.494e-09
 57.74046    102.9 1.209e+04 1.481e-09
 57.76008    102.4 1.207e+04 1.435e-09
 57.77971    101.7 1.189e+04 1.351e-09
 57.79933    100.5 1.159e+04 1.198e-09
 57.81895     98.6 1.131e+04 1.036e-09
 57.83858     95.8 1.123e+04 9.402e-10
 57.85672     92.8 1.121e+04 9.335e-10
 57.86654     91.2 1.254e+04 1.579e-09
 57.87782     88.5 1.221e+04 1.529e-09
 57.89745     86.5 1.193e+04 1.491e-09
 57.91707     85.2 1.175e+04 1.433e-09
 57.93669     84.2 1.160e+04 1.344e-09
 57.95632     83.2 1.177e+04 1.243e-09
 57.97594     82.0 1.195e+04 1.245e-09
 57.99556     80.6 1.264e+04 1.351e-09
 58.01519     79.5 1.374e+04 1.621e-09
 58.03481     79.3 1.491e+04 2.043e-09
 58.05443     79.5 1.576e+04 2.516e-09
 58.06650     80.1 1.640e+04 3.149e-09
 58.07631     80.3 1.615e+04 2.796e-09
 58.09368     81.2 1.620e+04 3.055e-09
 58.10835     81.8 1.601e+04 3.044e-09
 58.11811     82.2 1.605e+04 3.070e-09
 58.12792     81.9 1.670e+04 3.304e-09
 58.13774     79.9 1.922e+04 4.273e-09
 58.14755     76.0 2.326e+04 7.111e-09
 58.15736     72.5 2.462e+04 1.390e-08
 58.16639     70.5 2.317e+04 2.667e-08
 58.17129     70.3 2.381e+04 2.455e-08
 58.17698     70.3 2.185e+04 4.789e-08
 58.18679     70.4 2.074e+04 7.220e-08
 58.19661     70.3 2.057e+04 7.465e-08
 58.20642     70.4 2.034e+04 6.960e-08
 58.21623     70.9 1.988e+04 5.367e-08
 58.22604     71.6 1.952e+04 3.626e-08
 58.23585     72.1 1.941e+04 2.281e-08
 58.25062     72.3 2.024e+04 8.520e-09
 58.26647     70.3 2.133e+04 2.205e-09
 58.27628     70.7 2.019e+04 2.818e-09
 58.28991     67.0 1.821e+04 9.713e-10
 58.30954     63.4 1.332e+04 5.361e-10
 58.32916     62.1 1.024e+04 4.141e-10
 58.34878     62.7 9.768e+03 3.741e-10
 58.36841     64.0 9.741e+03 3.756e-10
 58.38803     65.6 9.766e+03 3.901e-10
 58.40765     67.0 9.859e+03 4.116e-10
 58.42728     68.4 9.934e+03 4.266e-10
 58.44690     69.6 9.971e+03 4.335e-10
 58.46644     70.7 9.986e+03 4.374e-10
 58.48606     72.5 9.720e+03 3.766e-10
 58.50577     73.6 9.761e+03 3.891e-10
 58.52539     74.7 9.853e+03 4.113e-10
 58.54502     75.7 1.005e+04 4.503e-10
 58.55798     76.2 1.033e+04 5.138e-10
 58.56779     76.7 1.046e+04 5.415e-10
 58.58426     76.8 1.088e+04 6.550e-10
 58.60389     76.3 1.179e+04 9.242e-10
 58.62351     74.9 1.336e+04 1.547e-09
 58.64313     73.8 1.507e+04 2.743e-09
 58.66276     73.9 1.629e+04 4.256e-09
 58.67621     74.7 1.661e+04 4.594e-09
 58.68602     77.3 1.777e+04 6.139e-09
 58.70200     79.6 1.777e+04 5.946e-09
 58.72163     84.8 1.791e+04 4.733e-09
 58.73630     85.5 2.311e+04 3.389e-09
 58.74606     79.3 5.184e+04 2.542e-09
 58.75587     62.1 8.216e+04 4.648e-09
 58.76568     58.4 5.394e+04 5.612e-08
 58.77302     58.9 6.424e+04 6.052e-08
 58.77790     62.0 6.111e+04 9.562e-08
 58.78096     59.0 6.008e+04 1.656e-07
 58.78341     68.4 6.008e+04 2.129e-07
 58.78771     67.4 3.230e+04 2.897e-06
 58.79138     58.2 2.293e+04 9.462e-06
 58.79382     48.1 1.936e+04 1.644e-05
 58.79627     26.5 1.548e+04 1.496e-04
 58.79872     10.1 1.467e+04 3.217e-04
 58.80118    -14.8 1.892e+04 2.430e-05
 58.80363    -20.3 1.979e+04 2.036e-05
 58.80593    -39.0 2.841e+04 6.428e-06
 58.80715    -23.3 2.031e+04 2.592e-05
 58.80854    -51.6 2.341e+04 1.788e-05
 58.81223    -76.8 2.160e+04 1.234e-05
 58.81715    -81.7 1.771e+04 4.349e-05
 58.82081    -76.9 1.465e+04 3.919e-04
 58.82325    -86.4 1.449e+04 6.157e-04
 58.82571   -102.3 1.372e+04 1.024e-03
 58.82816   -110.6 1.271e+04 2.577e-03
 58.83061   -114.4 1.310e+04 1.517e-03
 58.83215   -114.9 1.595e+04 1.076e-04
 58.83338   -124.2 1.458e+04 4.589e-04
 58.83552   -121.1 1.835e+04 2.166e-05
 58.83797   -120.6 1.980e+04 1.225e-05
 58.84166   -121.6 2.256e+04 5.360e-06
 58.84658   -116.3 3.190e+04 6.784e-07
 58.85396   -107.2 5.272e+04 3.517e-08
 58.86380    -96.7 6.598e+04 3.963e-09
 58.87361    -93.9 4.088e+04 3.699e-09
 58.88099    -90.8 3.230e+04 2.726e-09
 58.88589    -94.6 2.354e+04 4.432e-09
 58.89323    -91.5 2.393e+04 4.861e-09
 58.90305    -88.2 2.297e+04 4.654e-09
 58.91781    -80.3 1.888e+04 3.654e-09
 58.93748    -74.4 1.922e+04 2.955e-09
 58.95711    -69.6 1.891e+04 2.210e-09
 58.97673    -65.9 1.631e+04 1.642e-09
 58.99635    -63.3 1.421e+04 1.195e-09
 59.01598    -61.2 1.284e+04 9.582e-10
 59.03560    -59.4 1.221e+04 8.969e-10
 59.05522    -57.8 1.200e+04 8.975e-10
 59.07485    -56.2 1.178e+04 1.048e-09
 59.08596    -54.4 1.186e+04 1.233e-09
 59.09577    -53.5 1.185e+04 1.353e-09
 59.11409    -51.8 1.201e+04 1.516e-09
 59.13372    -50.3 1.211e+04 1.611e-09
 59.15334    -49.0 1.212e+04 1.628e-09
 59.17296    -47.8 1.197e+04 1.572e-09
 59.19259    -46.5 1.172e+04 1.440e-09
 59.21221    -45.2 1.144e+04 1.280e-09
 59.23183    -43.9 1.113e+04 1.116e-09
 59.25146    -42.5 1.090e+04 9.934e-10
 59.27108    -41.3 1.086e+04 9.485e-10
 59.28592    -40.5 1.093e+04 9.499e-10
 59.29574    -40.1 1.100e+04 1.029e-09
 59.31033    -39.5 1.112e+04 1.061e-09
 59.32995    -39.9 1.161e+04 1.244e-09
 59.34957    -43.1 1.352e+04 2.204e-09
 59.36920    -46.3 1.554e+04 4.628e-09
 59.38882    -47.1 1.730e+04 9.930e-09
 59.40844    -46.5 1.874e+04 1.950e-08
 59.42807    -45.6 1.939e+04 2.738e-08
 59.44274    -45.3 1.922e+04 2.795e-08
 59.45250    -44.3 1.860e+04 2.254e-08
 59.46231    -42.9 1.839e+04 1.663e-08
 59.47212    -42.4 1.824e+04 1.152e-08
 59.48193    -42.4 1.761e+04 7.517e-09
 59.49070    -44.1 1.683e+04 4.776e-09
 59.49565    -43.2 1.672e+04 5.536e-09
 59.50656    -46.9 1.468e+04 2.214e-09
 59.52618    -52.4 1.168e+04 8.034e-10
 59.54581    -56.7 1.012e+04 4.966e-10
 59.56543    -58.7 9.884e+03 4.609e-10
 59.58505    -61.4 9.761e+03 5.028e-10
 59.60468    -65.1 1.072e+04 8.492e-10
 59.62430    -69.7 1.376e+04 1.686e-09
 59.64392    -75.5 1.708e+04 3.714e-09
 59.66355    -81.5 1.880e+04 7.652e-09
 59.68317    -87.0 1.910e+04 1.227e-08
 59.69567    -91.6 1.888e+04 1.450e-08
 59.70548    -90.4 1.835e+04 1.086e-08
 59.72242    -94.0 1.783e+04 1.082e-08
 59.74204    -96.9 1.757e+04 9.449e-09
 59.76166   -100.0 1.770e+04 7.434e-09
 59.78129   -103.2 1.770e+04 5.565e-09
 59.80091   -106.3 1.717e+04 4.245e-09
 59.82053   -108.9 1.633e+04 3.453e-09
 59.84016   -111.0 1.532e+04 2.984e-09
 59.85978   -112.6 1.446e+04 2.659e-09
 59.87940   -113.8 1.381e+04 2.397e-09
 59.89563   -114.8 1.322e+04 2.120e-09
 59.90545   -113.3 1.420e+04 3.000e-09
 59.91865   -114.1 1.363e+04 2.594e-09
 59.93827   -114.9 1.294e+04 2.029e-09
 59.95790   -115.8 1.215e+04 1.481e-09
 59.97752   -116.5 1.137e+04 1.071e-09
 59.99714   -117.0 1.073e+04 7.884e-10
 60.01677   -117.3 1.025e+04 5.906e-10
 60.03639   -117.6 9.893e+03 4.456e-10
 60.05391   -118.1 9.610e+03 3.443e-10
 60.06373   -117.4 9.784e+03 3.982e-10
 60.07564   -117.5 9.714e+03 3.679e-10
 60.09570   -117.5 9.706e+03 3.487e-10
 60.11542   -116.9 9.742e+03 3.443e-10
 60.14451   -117.4 9.736e+03 3.339e-10
 60.18376   -118.4 9.797e+03 3.364e-10
 60.21310   -119.4 9.810e+03 3.350e-10
 60.23262   -120.3 1.003e+04 3.834e-10
 60.25225   -121.5 1.028e+04 4.627e-10
 60.27187   -122.9 1.055e+04 5.700e-10
 60.29149   -124.4 1.089e+04 7.152e-10
 60.30538   -125.9 1.127e+04 8.857e-10
 60.31519   -125.9 1.129e+04 8.780e-10
 60.33074   -127.3 1.171e+04 1.066e-09
 60.35036   -128.9 1.215e+04 1.282e-09
 60.36999   -130.4 1.260e+04 1.539e-09
 60.38961   -132.2 1.305e+04 1.849e-09
 60.40923   -134.3 1.339e+04 2.153e-09
 60.42886   -136.5 1.349e+04 2.317e-09
 60.44848   -138.7 1.349e+04 2.348e-09
 60.46810   -140.6 1.322e+04 2.266e-09
 60.48773   -142.2 1.282e+04 1.973e-09
 60.50535   -143.6 1.236e+04 1.656e-09
 60.51516   -144.0 1.247e+04 1.849e-09
 60.52697   -145.0 1.193e+04 1.516e-09
 60.54660   -145.8 1.152e+04 1.274e-09
 60.56622   -146.6 1.134e+04 1.141e-09
 60.58584   -147.2 1.130e+04 1.112e-09
 60.60547   -147.9 1.131e+04 1.115e-09
 60.62509   -148.5 1.144e+04 1.202e-09
 60.64471   -149.0 1.157e+04 1.332e-09
 60.66434   -149.3 1.162e+04 1.414e-09
 60.68396   -149.5 1.162e+04 1.430e-09
 60.70358   -149.6 1.154e+04 1.410e-09
 60.71512   -149.5 1.136e+04 1.284e-09
 60.72494   -149.6 1.092e+04 9.810e-10
 60.74283   -149.7 1.075e+04 8.628e-10
 60.76245   -149.8 1.062e+04 7.725e-10
 60.78208   -150.0 1.060e+04 7.257e-10
 60.80170   -150.2 1.060e+04 7.153e-10
 60.82132   -150.5 1.078e+04 7.216e-10
 60.84095   -150.9 1.107e+04 8.025e-10
 60.86057   -151.4 1.128e+04 9.017e-10
 60.88019   -151.8 1.143e+04 1.004e-09
 60.89982   -152.4 1.158e+04 1.112e-09
 60.91509   -153.4 1.184e+04 1.242e-09
 60.92490   -154.6 1.185e+04 1.325e-09
 60.93906   -156.2 1.222e+04 1.456e-09
 60.95869   -158.4 1.290e+04 1.736e-09
 60.97831   -161.0 1.366e+04 2.259e-09
 60.99793   -163.3 1.434e+04 3.020e-09
 61.01756   -165.2 1.486e+04 3.917e-09
 61.03718   -166.7 1.510e+04 4.635e-09
 61.05680   -168.0 1.512e+04 4.848e-09
 61.07643   -168.9 1.499e+04 4.849e-09
 61.09605   -169.1 1.442e+04 4.324e-09
 61.11506   -169.2 1.372e+04 3.423e-09
 61.12487   -169.5 1.329e+04 2.834e-09
 61.13530   -169.4 1.274e+04 2.341e-09
 61.15492   -169.0 1.219e+04 1.892e-09
 61.17454   -168.5 1.170e+04 1.531e-09
 61.19417   -167.8 1.125e+04 1.243e-09
 61.21379   -167.1 1.083e+04 1.004e-09
 61.23341   -166.2 1.044e+04 7.965e-10
 61.25304   -165.2 1.006e+04 6.198e-10
 61.27266   -164.3 9.755e+03 4.851e-10
 61.29228   -163.6 9.560e+03 4.042e-10
 61.31512   -163.0 9.433e+03 3.507e-10
 61.33474   -162.4 9.518e+03 3.853e-10
 61.36106   -161.8 9.468e+03 3.605e-10
 61.40041   -160.5 9.278e+03 3.158e-10
 61.43965   -158.9 9.058e+03 2.772e-10
 61.47890   -157.3 8.873e+03 2.510e-10
 61.51815   -155.6 8.752e+03 2.371e-10
 61.55739   -153.9 8.684e+03 2.293e-10
 61.59664   -152.1 8.623e+03 2.190e-10
 61.63589   -150.3 8.548e+03 2.033e-10
 61.67513   -148.5 8.477e+03 1.856e-10
 61.71438   -146.7 8.409e+03 1.705e-10
 61.73477   -145.0 8.369e+03 1.601e-10
 61.75440   -145.3 8.451e+03 1.838e-10
 61.79287   -143.6 8.444e+03 1.821e-10
 61.83212   -141.9 8.459e+03 1.860e-10
 61.87137   -140.3 8.564e+03 2.031e-10
 61.91061   -138.7 8.689e+03 2.238e-10
 61.94986   -137.1 8.780e+03 2.359e-10
 61.98911   -135.6 8.806e+03 2.386e-10
 62.02835   -134.0 8.826e+03 2.266e-10
 62.06760   -132.2 8.775e+03 2.046e-10
 62.10685   -130.3 8.731e+03 1.845e-10
 62.13471   -128.4 8.718e+03 1.731e-10
 62.15433   -129.1 8.846e+03 2.304e-10
 62.18534   -127.3 8.831e+03 2.245e-10
 62.22459   -125.6 8.841e+03 2.266e-10
 62.26383   -124.1 9.016e+03 2.615e-10
 62.30308   -122.7 9.299e+03 3.221e-10
 62.34233   -121.3 9.565e+03 3.879e-10
 62.38157   -120.1 9.759e+03 4.318e-10
 62.42082   -119.0 9.821e+03 4.436e-10
 62.46007   -118.0 9.794e+03 4.247e-10
 62.49931   -116.7 9.553e+03 3.491e-10
 62.53464   -115.3 9.242e+03 2.726e-10
 62.55426   -116.4 8.959e+03 2.052e-10
 62.57781   -114.7 8.777e+03 1.678e-10
 62.61705   -112.7 8.642e+03 1.364e-10
 62.65630   -110.7 8.662e+03 1.092e-10
 62.69555   -109.7 8.862e+03 9.637e-11
 62.73479   -111.6 1.128e+04 8.469e-11
 62.76413   -123.0 2.166e+04 8.927e-11
 62.78366   -129.9 2.095e+04 4.816e-10
 62.80328   -135.2 1.860e+04 4.157e-09
 62.81795   -135.3 1.833e+04 2.006e-08
 62.82771   -134.1 1.825e+04 3.042e-08
 62.83752   -132.5 1.829e+04 4.054e-08
 62.84734   -130.9 1.836e+04 4.494e-08
 62.85392   -129.5 1.841e+04 4.597e-08
 62.85882   -130.0 1.865e+04 5.366e-08
 62.86696   -128.8 1.863e+04 5.288e-08
 62.87677   -127.6 1.873e+04 4.028e-08
 62.88658   -127.1 1.929e+04 2.379e-08
 62.89639   -127.2 2.042e+04 1.196e-08
 62.90621   -130.2 2.132e+04 5.673e-09
 62.92097   -135.8 1.840e+04 2.460e-09
 62.94064   -139.3 1.510e+04 1.578e-09
 62.95400   -140.9 1.259e+04 1.166e-09
 62.96381   -140.6 1.335e+04 1.905e-09
 62.97989   -140.8 1.274e+04 1.735e-09
 62.99951   -140.3 1.258e+04 1.698e-09
 63.01914   -139.5 1.243e+04 1.670e-09
 63.03876   -138.6 1.217e+04 1.517e-09
 63.05531   -137.7 1.181e+04 1.244e-09
 63.06512   -138.5 1.163e+04 1.014e-09
 63.07801   -137.5 1.113e+04 8.102e-10
 63.09763   -136.5 1.068e+04 6.383e-10
 63.11725   -135.6 1.036e+04 5.074e-10
 63.13688   -134.9 1.021e+04 4.326e-10
 63.16641   -134.3 1.012e+04 3.908e-10
 63.20575   -132.6 9.926e+03 3.397e-10
 63.24500   -130.6 9.787e+03 3.140e-10
 63.28425   -128.8 9.749e+03 3.109e-10
 63.32349   -127.3 9.722e+03 3.278e-10
 63.35413   -126.2 9.974e+03 4.342e-10
 63.37375   -125.9 9.352e+03 2.810e-10
 63.40199   -125.3 9.855e+03 3.831e-10
 63.44123   -125.2 1.061e+04 5.602e-10
 63.48048   -125.3 1.139e+04 7.989e-10
 63.51973   -126.2 1.194e+04 1.044e-09
 63.55897   -128.3 1.209e+04 1.142e-09
 63.59822   -130.7 1.182e+04 1.081e-09
 63.63747   -132.4 1.090e+04 7.268e-10
 63.67671   -133.3 9.911e+03 4.198e-10
 63.71596   -133.6 9.195e+03 2.496e-10
 63.75406   -133.7 8.817e+03 1.674e-10
 63.77368   -134.3 8.905e+03 1.804e-10
 63.79445   -134.5 8.831e+03 1.551e-10
 63.83370   -134.8 8.829e+03 1.510e-10
 63.87295   -135.7 9.085e+03 1.678e-10
 63.91219   -136.8 9.686e+03 2.852e-10
 63.95144   -137.7 1.012e+04 4.876e-10
 63.99069   -138.4 1.034e+04 6.632e-10
 64.02993   -139.0 1.036e+04 7.084e-10
 64.06918   -139.3 1.023e+04 6.914e-10
 64.10843   -139.4 9.877e+03 5.664e-10
 64.14767   -139.6 9.607e+03 4.627e-10
 64.17362   -139.5 9.409e+03 4.067e-10
 64.19324   -140.6 9.350e+03 3.778e-10
 64.22617   -140.0 9.275e+03 3.595e-10
 64.26541   -139.4 9.289e+03 3.571e-10
 64.30466   -138.9 9.465e+03 3.738e-10
 64.34391   -138.5 9.681e+03 4.203e-10
 64.38315   -138.2 9.889e+03 4.780e-10
 64.41249   -139.5 1.048e+04 7.095e-10
 64.43202   -139.7 1.076e+04 7.789e-10
 64.45164   -139.9 1.106e+04 8.756e-10
 64.47126   -140.0 1.125e+04 9.676e-10
 64.49089   -140.1 1.126e+04 1.045e-09
 64.51051   -140.0 1.119e+04 1.079e-09
 64.53013   -139.9 1.106e+04 1.088e-09
 64.54976   -139.8 1.091e+04 1.076e-09
 64.56096   -139.7 1.080e+04 1.054e-09
 64.57077   -139.1 1.105e+04 1.131e-09
 64.58317   -138.9 1.098e+04 1.141e-09
 64.59298   -139.7 1.138e+04 1.353e-09
 64.60863   -139.5 1.121e+04 1.241e-09
 64.62825   -139.1 1.104e+04 1.135e-09
 64.64787   -138.7 1.085e+04 1.019e-09
 64.66750   -138.2 1.067e+04 9.099e-10
 64.68712   -137.8 1.050e+04 8.170e-10
 64.70674   -137.2 1.034e+04 7.326e-10
 64.72637   -136.7 1.016e+04 6.537e-10
 64.74599   -136.1 9.971e+03 5.836e-10
 64.76561   -135.5 9.770e+03 5.167e-10
 64.78313   -134.7 9.534e+03 4.390e-10
 64.79294   -135.3 9.342e+03 3.701e-10
 64.81477   -133.9 9.253e+03 3.580e-10
 64.85411   -132.4 9.175e+03 3.386e-10
 64.89336   -130.9 9.156e+03 3.340e-10
 64.93261   -130.5 9.270e+03 3.547e-10
 64.97185   -130.6 1.025e+04 5.712e-10
 64.99311   -130.8 1.131e+04 1.039e-09
 65.01273   -132.1 1.150e+04 1.145e-09
 65.05035   -133.1 1.208e+04 1.612e-09
 65.08959   -134.4 1.213e+04 1.710e-09
 65.12884   -134.8 1.152e+04 1.308e-09
 65.16809   -134.9 1.038e+04 6.425e-10
 65.20733   -135.0 9.499e+03 3.287e-10
 65.24658   -134.9 8.934e+03 1.995e-10
 65.28583   -133.5 8.235e+03 1.069e-10
 65.32507   -131.7 8.092e+03 7.558e-11
 65.36432   -129.9 8.021e+03 5.845e-11
 65.39304   -128.1 8.003e+03 5.030e-11
 65.41266   -128.2 7.995e+03 5.025e-11
 65.44281   -126.4 7.956e+03 4.536e-11
 65.48206   -124.4 7.909e+03 4.259e-11
 65.52131   -122.5 7.883e+03 4.140e-11
 65.56055   -120.7 7.880e+03 4.114e-11
 65.59980   -118.9 7.884e+03 4.114e-11
 65.63905   -117.4 7.960e+03 4.280e-11
 65.67829   -116.1 8.043e+03 4.922e-11
 65.71754   -114.8 8.137e+03 5.884e-11
 65.75679   -113.6 8.240e+03 7.044e-11
 65.79297   -112.3 8.317e+03 8.172e-11
 65.81259   -112.7 8.396e+03 8.956e-11
 65.83528   -111.6 8.447e+03 9.701e-11
 65.87453   -110.6 8.477e+03 1.002e-10
 65.91377   -109.6 8.483e+03 1.017e-10
 65.95302   -108.7 8.490e+03 1.035e-10
 65.99227   -107.7 8.520e+03 1.087e-10
 66.03151   -106.7 8.595e+03 1.216e-10
 66.05700   -105.7 8.715e+03 1.443e-10
 66.07662   -105.2 8.660e+03 1.376e-10
 66.11001   -104.1 8.810e+03 1.742e-10
 66.14925   -103.1 8.977e+03 2.110e-10
 66.18850   -102.1 9.117e+03 2.362e-10
 66.21253   -101.2 9.165e+03 2.421e-10
 66.23215   -102.0 9.083e+03 2.142e-10
 66.26699   -101.3 9.081e+03 2.103e-10
 66.30624   -100.7 9.050e+03 1.832e-10
 66.34549   -100.3 9.067e+03 1.595e-10
 66.38473   -100.3 9.089e+03 1.539e-10
 66.42398   -100.6 9.256e+03 1.604e-10
 66.46323   -101.2 9.537e+03 2.092e-10
 66.50247   -101.7 9.702e+03 2.744e-10
 66.54172   -102.0 9.739e+03 3.102e-10
 66.58097   -102.2 9.725e+03 3.158e-10
 66.61246   -102.2 9.473e+03 2.830e-10
 66.63208   -103.4 9.497e+03 2.882e-10
 66.65946   -102.8 9.154e+03 2.088e-10
 66.69871   -102.1 8.862e+03 1.458e-10
 66.73795   -101.1 8.654e+03 1.092e-10
 66.77720   -100.0 8.532e+03 9.121e-11
 66.81645    -98.7 8.465e+03 8.346e-11
 66.85569    -97.3 8.434e+03 8.026e-11
 66.89494    -95.8 8.427e+03 7.961e-11
 66.93419    -94.4 8.424e+03 8.020e-11
 66.97343    -93.4 8.469e+03 8.235e-11
 67.01239    -93.0 8.643e+03 9.409e-11
 67.03202    -94.3 8.826e+03 1.031e-10
 67.05193    -94.2 9.115e+03 1.575e-10
 67.09117    -94.2 9.434e+03 2.488e-10
 67.13042    -94.3 9.780e+03 3.644e-10
 67.16967    -94.6 1.009e+04 4.616e-10
 67.20891    -95.3 1.031e+04 5.253e-10
 67.24816    -96.7 1.042e+04 5.500e-10
 67.28741    -98.2 1.048e+04 5.657e-10
 67.31675    -99.7 1.044e+04 5.649e-10
 67.33627   -100.4 1.059e+04 6.187e-10
 67.35589   -101.5 1.082e+04 7.269e-10
 67.37552   -102.3 1.104e+04 8.354e-10
 67.39514   -103.1 1.118e+04 9.190e-10
 67.41476   -103.8 1.121e+04 9.398e-10
 67.43175   -104.4 1.116e+04 9.327e-10
 67.44156   -104.5 1.097e+04 8.429e-10
 67.45401   -104.9 1.071e+04 7.329e-10
 67.47363   -105.2 1.037e+04 5.600e-10
 67.49326   -105.5 1.007e+04 4.326e-10
 67.52279   -105.8 9.877e+03 3.539e-10
 67.56213   -106.0 9.511e+03 2.396e-10
 67.60138   -105.9 9.177e+03 1.564e-10
 67.64063   -105.5 8.968e+03 1.159e-10
 67.67987   -104.7 8.884e+03 1.016e-10
 67.71912   -103.6 8.838e+03 9.648e-11
 67.75837   -102.3 8.804e+03 9.376e-11
 67.79761   -101.0 8.795e+03 9.310e-11
 67.83188    -99.9 8.808e+03 9.353e-11
 67.85150   -100.5 8.795e+03 9.863e-11
 67.87611    -99.7 8.803e+03 9.973e-11
 67.91535    -99.5 8.794e+03 1.082e-10
 67.95460   -100.1 9.092e+03 1.680e-10
 67.99385   -101.3 1.003e+04 3.330e-10
 68.03309   -102.7 1.103e+04 6.647e-10
 68.07234   -103.8 1.180e+04 1.073e-09
 68.10168   -104.5 1.193e+04 1.229e-09
 68.12120   -106.3 1.246e+04 1.419e-09
 68.14083   -109.1 1.335e+04 1.525e-09
 68.16045   -113.3 1.443e+04 1.694e-09
 68.18007   -117.8 1.491e+04 2.173e-09
 68.19970   -121.3 1.476e+04 2.963e-09
 68.21932   -123.8 1.454e+04 3.732e-09
 68.23894   -125.7 1.441e+04 4.198e-09
 68.25124   -127.9 1.449e+04 4.394e-09
 68.26105   -127.5 1.481e+04 4.206e-09
 68.27819   -131.2 1.582e+04 5.339e-09
 68.29781   -135.8 1.679e+04 6.458e-09
 68.31744   -141.2 1.717e+04 6.853e-09
 68.33706   -146.6 1.706e+04 6.717e-09
 68.35668   -151.3 1.590e+04 5.199e-09
 68.37631   -155.0 1.419e+04 3.429e-09
 68.39593   -158.1 1.273e+04 2.215e-09
 68.41555   -160.9 1.231e+04 1.761e-09
 68.43518   -163.6 1.229e+04 1.694e-09
 68.45121   -166.4 1.303e+04 1.782e-09
 68.46102   -167.3 1.276e+04 1.734e-09
 68.47442   -169.5 1.369e+04 2.326e-09
 68.49405   -170.8 1.435e+04 3.335e-09
 68.51367   -171.5 1.468e+04 4.375e-09
 68.53329   -171.8 1.474e+04 4.987e-09
 68.55292   -172.0 1.473e+04 5.121e-09
 68.57254   -172.1 1.461e+04 5.109e-09
 68.59216   -172.0 1.415e+04 4.544e-09
 68.61179   -171.8 1.366e+04 3.703e-09
 68.63141   -171.7 1.315e+04 2.970e-09
 68.65103   -171.6 1.260e+04 2.368e-09
 68.66099   -171.3 1.202e+04 1.871e-09
 68.67080   -171.2 1.173e+04 1.715e-09
 68.69028   -170.7 1.114e+04 1.337e-09
 68.70990   -169.9 1.055e+04 1.028e-09
 68.72953   -168.8 1.000e+04 7.787e-10
 68.74915   -167.6 9.543e+03 5.875e-10
 68.76877   -166.2 9.236e+03 4.580e-10
 68.78840   -165.1 9.107e+03 3.917e-10
 68.81793   -164.2 9.022e+03 3.500e-10
 68.85727   -162.3 8.817e+03 2.890e-10
 68.89652   -160.0 8.608e+03 2.426e-10
 68.93577   -157.7 8.501e+03 2.167e-10
 68.97501   -155.5 8.471e+03 2.062e-10
 69.01426   -153.3 8.459e+03 2.038e-10
 69.04868   -151.3 8.458e+03 2.035e-10
 69.06610   -151.7 8.691e+03 2.481e-10
 69.07093   -151.8 8.641e+03 2.339e-10
 69.09275   -149.8 8.599e+03 2.213e-10
 69.13200   -148.0 8.528e+03 2.052e-10
 69.17125   -146.2 8.440e+03 1.864e-10
 69.21049   -144.4 8.355e+03 1.647e-10
 69.24974   -142.7 8.287e+03 1.427e-10
 69.28899   -140.9 8.262e+03 1.257e-10
 69.32823   -139.1 8.291e+03 1.174e-10
 69.36748   -137.2 8.309e+03 1.159e-10
 69.40673   -135.5 8.408e+03 1.164e-10
 69.44597   -134.1 8.689e+03 1.318e-10
 69.47086   -132.6 8.940e+03 1.719e-10
 69.49048   -132.8 8.926e+03 1.744e-10
 69.52447   -131.1 9.161e+03 2.331e-10
 69.56371   -129.2 9.387e+03 2.935e-10
 69.60296   -127.2 9.552e+03 3.348e-10
 69.64221   -125.2 9.607e+03 3.461e-10
 69.68145   -123.3 9.615e+03 3.441e-10
 69.72070   -121.1 9.548e+03 3.007e-10
 69.75995   -118.9 9.414e+03 2.382e-10
 69.79919   -116.6 9.285e+03 1.843e-10
 69.83844   -114.3 9.194e+03 1.463e-10
 69.87079   -112.1 9.160e+03 1.253e-10
 69.89041   -112.0 9.139e+03 1.192e-10
 69.91693   -109.5 9.152e+03 1.153e-10
 69.95618   -107.1 9.161e+03 1.151e-10
 69.99543   -104.9 9.221e+03 1.169e-10
 70.03467   -103.3 9.508e+03 1.245e-10
 70.07392   -102.9 9.907e+03 1.800e-10
 70.11317   -103.1 1.072e+04 4.490e-10
 70.15241   -103.4 1.247e+04 1.326e-09
 70.18175   -103.0 1.358e+04 2.674e-09
 70.20128   -102.9 1.445e+04 4.087e-09
 70.22090   -102.8 1.498e+04 5.210e-09
 70.24052   -102.7 1.511e+04 5.500e-09
 70.26015   -102.6 1.502e+04 5.362e-09
 70.27977   -102.4 1.448e+04 3.942e-09
 70.29015   -102.4 1.374e+04 2.402e-09
 70.29996   -103.4 1.366e+04 2.330e-09
 70.31902   -104.2 1.298e+04 1.460e-09
 70.33864   -105.6 1.292e+04 1.158e-09
 70.35826   -108.5 1.329e+04 1.134e-09
 70.37789   -113.9 1.646e+04 1.543e-09
 70.39751   -118.6 1.854e+04 4.533e-09
 70.41713   -120.7 1.959e+04 1.139e-08
 70.43676   -121.6 2.025e+04 1.893e-08
 70.45143   -122.4 2.038e+04 2.190e-08
 70.46119   -123.0 2.038e+04 2.235e-08
 70.47100   -123.6 1.998e+04 2.182e-08
 70.48081   -123.8 1.885e+04 1.580e-08
 70.49002   -124.5 1.767e+04 1.053e-08
 70.49493   -124.6 1.717e+04 9.144e-09
 70.50044   -125.7 1.592e+04 5.887e-09
 70.51520   -127.1 1.468e+04 3.862e-09
 70.53487   -128.1 1.371e+04 2.631e-09
 70.55414   -128.4 1.275e+04 1.786e-09
 70.56395   -128.1 1.332e+04 2.159e-09
 70.57412   -128.1 1.248e+04 1.546e-09
 70.59374   -128.0 1.207e+04 1.327e-09
 70.61337   -127.1 1.192e+04 1.269e-09
 70.63299   -126.2 1.190e+04 1.259e-09
 70.65261   -125.4 1.190e+04 1.260e-09
 70.67224   -125.0 1.198e+04 1.328e-09
 70.69008   -124.6 1.218e+04 1.519e-09
 70.69990   -124.7 1.214e+04 1.380e-09
 70.71148   -124.3 1.242e+04 1.662e-09
 70.73111   -123.9 1.275e+04 1.998e-09
 70.75073   -123.6 1.305e+04 2.345e-09
 70.77035   -123.3 1.327e+04 2.633e-09
 70.78998   -123.2 1.337e+04 2.793e-09
 70.80960   -123.1 1.338e+04 2.831e-09
 70.82922   -122.9 1.333e+04 2.831e-09
 70.84885   -122.6 1.310e+04 2.694e-09
 70.86847   -122.1 1.282e+04 2.438e-09
 70.88809   -121.6 1.255e+04 2.140e-09
 70.89986   -121.0 1.229e+04 1.836e-09
 70.90967   -121.0 1.228e+04 1.807e-09
 70.92734   -120.4 1.209e+04 1.554e-09
 70.94696   -119.9 1.197e+04 1.337e-09
 70.96659   -119.6 1.191e+04 1.166e-09
 70.98621   -119.3 1.192e+04 1.045e-09
 71.00583   -119.0 1.198e+04 9.835e-10
 71.02546   -118.6 1.201e+04 9.692e-10
 71.04508   -118.1 1.208e+04 9.726e-10
 71.06470   -117.7 1.217e+04 1.001e-09
 71.08433   -117.2 1.220e+04 1.040e-09
 71.09983   -116.6 1.219e+04 1.079e-09
 71.10964   -116.4 1.215e+04 9.975e-10
 71.12357   -115.8 1.213e+04 1.030e-09
 71.14320   -115.2 1.213e+04 1.069e-09
 71.16282   -114.5 1.214e+04 1.125e-09
 71.18244   -113.7 1.215e+04 1.196e-09
 71.20207   -113.0 1.217e+04 1.267e-09
 71.22169   -112.3 1.220e+04 1.333e-09
 71.24131   -111.5 1.227e+04 1.388e-09
 71.26094   -110.9 1.236e+04 1.429e-09
 71.28056   -110.3 1.245e+04 1.452e-09
 71.29979   -110.0 1.252e+04 1.456e-09
 71.30961   -110.2 1.256e+04 1.490e-09
 71.32972   -109.9 1.260e+04 1.433e-09
 71.36906   -109.0 1.274e+04 1.517e-09
 71.39840   -108.3 1.300e+04 1.760e-09
 71.41792   -108.0 1.302e+04 1.737e-09
 71.43755   -107.5 1.301e+04 1.650e-09
 71.45717   -107.2 1.295e+04 1.557e-09
 71.47679   -106.6 1.280e+04 1.366e-09
 71.49642   -106.2 1.268e+04 1.252e-09
 71.50957   -105.4 1.245e+04 1.042e-09
 71.51938   -105.5 1.237e+04 9.697e-10
 71.53566   -104.8 1.213e+04 7.748e-10
 71.55529   -103.9 1.189e+04 6.219e-10
 71.57491   -102.8 1.170e+04 4.985e-10
 71.59453   -101.6 1.157e+04 3.934e-10
 71.61416   -100.8 1.157e+04 3.450e-10
 71.64369   -100.2 1.155e+04 3.126e-10
 71.68303    -98.2 1.144e+04 2.748e-10
 71.72228    -95.9 1.140e+04 2.620e-10
 71.76153    -93.5 1.141e+04 2.610e-10
 71.80077    -91.3 1.149e+04 2.802e-10
 71.84002    -89.1 1.158e+04 3.211e-10
 71.87927    -87.0 1.170e+04 3.858e-10
 71.90970    -84.8 1.187e+04 4.990e-10
 71.92932    -84.9 1.173e+04 3.997e-10
 71.95776    -82.9 1.188e+04 4.944e-10
 71.99701    -81.0 1.211e+04 6.362e-10
 72.03625    -79.4 1.238e+04 8.232e-10
 72.05999    -78.1 1.260e+04 1.030e-09
 72.07961    -77.7 1.242e+04 9.350e-10
 72.11475    -76.3 1.244e+04 1.002e-09
 72.15399    -74.9 1.233e+04 9.813e-10
 72.19324    -73.4 1.214e+04 8.537e-10
 72.23249    -71.8 1.187e+04 6.660e-10
 72.27173    -70.2 1.156e+04 4.710e-10
 72.30963    -68.3 1.127e+04 3.213e-10
 72.32926    -67.8 1.144e+04 3.824e-10
 72.35023    -65.9 1.121e+04 2.827e-10
 72.38947    -63.9 1.102e+04 2.326e-10
 72.42872    -61.8 1.096e+04 2.203e-10
 72.46797    -59.7 1.096e+04 2.199e-10
 72.50721    -57.8 1.102e+04 2.571e-10
 72.54646    -56.2 1.117e+04 3.654e-10
 72.58571    -54.4 1.149e+04 5.602e-10
 72.62495    -52.8 1.196e+04 8.644e-10
 72.66420    -51.3 1.239e+04 1.243e-09
 72.70345    -50.0 1.260e+04 1.514e-09
 72.72919    -49.0 1.260e+04 1.561e-09
 72.74881    -48.9 1.255e+04 1.497e-09
 72.78194    -47.6 1.214e+04 1.220e-09
 72.81128    -46.4 1.164e+04 8.692e-10
 72.83080    -45.8 1.155e+04 8.147e-10
 72.86034    -44.7 1.135e+04 6.275e-10
 72.89968    -42.7 1.086e+04 4.036e-10
 72.93893    -40.9 1.062e+04 2.908e-10
 72.97817    -38.9 1.046e+04 2.361e-10
 73.01742    -36.9 1.028e+04 2.088e-10
 73.05667    -34.8 1.022e+04 2.035e-10
 73.09591    -32.6 1.019e+04 2.083e-10
 73.12912    -30.5 1.020e+04 2.229e-10
 73.14875    -30.8 1.033e+04 2.281e-10
 73.17441    -29.0 1.043e+04 2.591e-10
 73.21365    -27.2 1.042e+04 2.986e-10
 73.25290    -25.3 1.035e+04 3.240e-10
 73.29215    -23.2 1.026e+04 3.158e-10
 73.33139    -21.2 1.020e+04 2.810e-10
 73.37064    -19.8 1.018e+04 2.445e-10
 73.40989    -18.8 1.018e+04 2.335e-10
 73.44913    -17.7 1.001e+04 2.685e-10
 73.48838    -15.8 9.922e+03 3.112e-10
 73.52763    -13.4 9.622e+03 2.810e-10
 73.54868    -10.7 9.564e+03 1.577e-10
 73.56830    -11.3 9.519e+03 1.292e-10
 73.60612     -9.8 9.524e+03 8.422e-11
 73.64537     -8.9 9.573e+03 6.046e-11
 73.68461     -7.6 9.506e+03 5.957e-11
 73.72386     -6.2 9.371e+03 7.028e-11
 73.76311     -4.7 9.318e+03 8.126e-11
 73.80235     -3.5 9.475e+03 9.443e-11
 73.84160     -2.4 9.490e+03 1.310e-10
 73.88085     -0.4 9.511e+03 1.731e-10
 73.92009      1.7 9.604e+03 1.820e-10
 73.94861      3.7 9.599e+03 1.671e-10
 73.96823      4.2 9.593e+03 1.584e-10
 73.99859      5.9 9.641e+03 1.350e-10
 74.03783      7.6 9.564e+03 1.314e-10
 74.07708      9.5 9.543e+03 1.402e-10
 74.11633     11.7 9.534e+03 1.559e-10
 74.15557     13.9 9.570e+03 1.694e-10
 74.19482     15.8 9.618e+03 1.814e-10
 74.23407     17.6 9.646e+03 1.966e-10
 74.27331     19.3 9.657e+03 2.179e-10
 74.31256     21.1 9.646e+03 2.342e-10
 74.34854     22.9 9.621e+03 2.338e-10
 74.36817     23.3 9.698e+03 2.467e-10
 74.39105     25.0 9.629e+03 2.301e-10
 74.43030     26.6 9.605e+03 2.144e-10
 74.46955     28.0 9.649e+03 2.023e-10
 74.50879     29.3 9.712e+03 1.972e-10
 74.54804     30.6 9.729e+03 2.024e-10
 74.58729     32.0 9.724e+03 2.107e-10
 74.62653     33.4 9.712e+03 2.158e-10
 74.66578     34.7 9.694e+03 2.169e-10
 74.70503     35.9 9.655e+03 2.205e-10
 74.74427     37.0 9.639e+03 2.423e-10
 74.76810     38.2 9.654e+03 2.882e-10
 74.78772     38.1 9.704e+03 3.222e-10
 74.82277     39.4 9.689e+03 3.210e-10
 74.86201     40.6 9.591e+03 2.878e-10
 74.90126     41.5 9.459e+03 2.251e-10
 74.94051     42.0 9.290e+03 1.743e-10
 74.97975     42.4 9.175e+03 1.624e-10
 75.01900     42.8 9.172e+03 1.729e-10
 75.05167     43.4 9.229e+03 2.082e-10
 75.07129     42.5 9.326e+03 2.376e-10
 75.09749     43.2 9.548e+03 3.235e-10
 75.13674     44.0 9.584e+03 3.366e-10
 75.16803     44.6 9.534e+03 3.081e-10
 75.18766     44.5 9.326e+03 2.374e-10
 75.21523     44.6 9.167e+03 1.801e-10
 75.25448     44.4 8.967e+03 1.512e-10
 75.29373     44.5 8.808e+03 1.466e-10
 75.33297     45.0 8.750e+03 1.450e-10
 75.37222     45.8 8.696e+03 1.396e-10
 75.41147     46.6 8.623e+03 1.244e-10
 75.45071     47.2 8.545e+03 1.055e-10
 75.48996     47.6 8.547e+03 9.737e-11
 75.52921     47.9 8.583e+03 9.798e-11
 75.56796     47.9 8.669e+03 1.006e-10
 75.58759     47.9 8.769e+03 1.152e-10
 75.60770     47.5 8.916e+03 1.310e-10
 75.64695     46.7 9.083e+03 1.563e-10
 75.68619     45.6 9.234e+03 1.980e-10
 75.72544     44.9 9.386e+03 2.574e-10
 75.76469     44.5 9.541e+03 2.988e-10
 75.80393     44.1 9.567e+03 2.951e-10
 75.84318     43.7 9.544e+03 2.614e-10
 75.88243     43.2 9.489e+03 2.050e-10
 75.92167     42.0 9.566e+03 1.791e-10
 75.96092     40.3 9.682e+03 1.948e-10
 75.98752     38.6 9.898e+03 2.515e-10
 76.00714     38.4 1.017e+04 3.417e-10
 76.03941     37.0 1.031e+04 3.711e-10
 76.06875     36.1 1.025e+04 3.405e-10
 76.08828     35.7 1.024e+04 3.206e-10
 76.10790     35.0 1.022e+04 2.924e-10
 76.12752     34.2 1.038e+04 2.705e-10
 76.14715     26.3 1.460e+04 4.451e-10
 76.16677      7.2 2.078e+04 4.136e-09
 76.18639      2.3 2.059e+04 2.158e-08
 76.19710     -1.0 2.066e+04 2.178e-08
 76.20692     -1.3 2.056e+04 1.844e-08
 76.22564     -6.3 1.887e+04 3.941e-09
 76.24526    -20.9 1.407e+04 4.611e-10
 76.26489    -28.8 9.443e+03 1.667e-10
 76.28451    -29.8 8.901e+03 1.346e-10
 76.31404    -29.6 8.930e+03 1.253e-10
 76.35339    -30.0 8.571e+03 9.644e-11
 76.38745    -29.5 8.406e+03 8.068e-11
 76.40708    -30.6 8.359e+03 7.712e-11
 76.43188    -29.6 8.247e+03 6.502e-11
 76.47113    -28.3 8.144e+03 5.211e-11
 76.51037    -27.0 8.152e+03 3.906e-11
 76.54962    -26.2 8.200e+03 3.035e-11
 76.58887    -25.4 8.195e+03 2.828e-11
 76.62811    -24.5 8.285e+03 3.114e-11
 76.66736    -23.5 8.231e+03 4.079e-11
 76.70661    -21.7 8.257e+03 5.214e-11
 76.74585    -19.8 8.362e+03 5.699e-11
 76.78510    -18.1 8.406e+03 5.635e-11
 76.80701    -16.5 8.616e+03 4.652e-11
 76.82663    -16.9 8.703e+03 5.956e-11
 76.86359    -16.1 8.963e+03 4.836e-11
 76.90284    -15.4 9.017e+03 4.785e-11
 76.94209    -14.8 8.794e+03 6.577e-11
 76.98133    -12.9 8.883e+03 8.707e-11
 77.02058    -11.1 9.185e+03 9.565e-11
 77.05983     -9.8 9.369e+03 9.059e-11
 77.09907     -8.4 9.262e+03 8.181e-11
 77.13832     -7.1 9.352e+03 6.647e-11
 77.17757     -5.6 9.402e+03 6.049e-11
 77.20694     -3.7 9.396e+03 5.424e-11
 77.22657     -4.4 9.475e+03 5.677e-11
 77.25606     -2.4 9.543e+03 5.033e-11
 77.29531     -0.8 9.602e+03 4.518e-11
 77.33455      0.6 9.577e+03 4.511e-11
 77.37380      1.8 9.573e+03 5.425e-11
 77.41305      3.3 9.617e+03 7.460e-11
 77.45229      5.0 9.750e+03 1.066e-10
 77.49154      6.4 9.939e+03 1.584e-10
 77.53079      7.8 1.011e+04 2.402e-10
 77.57003      9.5 1.030e+04 3.263e-10
 77.60687     11.1 1.048e+04 3.653e-10
 77.62650     10.8 1.032e+04 3.198e-10
 77.64853     12.3 1.036e+04 2.928e-10
 77.68777     13.3 1.038e+04 2.521e-10
 77.72702     14.2 1.042e+04 2.482e-10
 77.76627     14.8 1.055e+04 2.834e-10
 77.80551     15.8 1.078e+04 3.744e-10
 77.84476     17.1 1.114e+04 4.553e-10
 77.88401     18.1 1.139e+04 4.756e-10
 77.92325     18.7 1.166e+04 4.738e-10
 77.96250     18.5 1.198e+04 5.526e-10
 78.00175     18.4 1.240e+04 8.093e-10
 78.02643     19.2 1.261e+04 1.233e-09
 78.04605     19.7 1.255e+04 1.269e-09
 78.06297     21.0 1.278e+04 1.580e-09
 78.08260     20.1 1.303e+04 1.718e-09
 78.11949     21.4 1.305e+04 1.693e-09
 78.15873     22.9 1.302e+04 1.582e-09
 78.19798     24.6 1.295e+04 1.425e-09
 78.23723     26.5 1.285e+04 1.226e-09
 78.27647     28.5 1.277e+04 1.001e-09
 78.31572     30.5 1.264e+04 8.202e-10
 78.35497     32.6 1.251e+04 7.681e-10
 78.39421     34.8 1.255e+04 8.042e-10
 78.42636     37.0 1.277e+04 9.597e-10
 78.44599     37.8 1.283e+04 1.019e-09
 78.47271     39.8 1.338e+04 1.390e-09
 78.50204     40.4 1.388e+04 1.826e-09
 78.52157     40.9 1.446e+04 2.559e-09
 78.54119     41.4 1.505e+04 3.897e-09
 78.56082     42.3 1.577e+04 6.094e-09
 78.58044     43.6 1.676e+04 9.472e-09
 78.60006     44.7 1.767e+04 1.281e-08
 78.61969     45.2 1.801e+04 1.332e-08
 78.63595     45.7 1.794e+04 1.209e-08
 78.64576     46.1 1.857e+04 1.452e-08
 78.65893     46.3 1.844e+04 1.197e-08
 78.67856     46.2 1.807e+04 8.634e-09
 78.69818     45.4 1.756e+04 6.164e-09
 78.71780     44.5 1.689e+04 4.769e-09
 78.73743     43.7 1.619e+04 4.456e-09
 78.75705     43.1 1.597e+04 4.701e-09
 78.77667     42.5 1.578e+04 5.587e-09
 78.79630     42.4 1.578e+04 6.872e-09
 78.81592     42.5 1.580e+04 7.457e-09
 78.83554     42.9 1.566e+04 7.007e-09
 78.84572     43.4 1.534e+04 5.354e-09
 78.85554     43.3 1.577e+04 7.028e-09
 78.87479     43.6 1.543e+04 5.132e-09
 78.89441     43.4 1.488e+04 2.956e-09
 78.91404     42.5 1.403e+04 1.332e-09
 78.93366     41.2 1.300e+04 7.592e-10
 78.95328     39.8 1.198e+04 4.174e-10
 78.98282     39.4 1.165e+04 4.085e-10
 79.02216     38.8 1.037e+04 2.552e-10
 79.06141     39.5 1.002e+04 2.291e-10
 79.10065     40.6 9.986e+03 2.347e-10
 79.13990     41.5 9.966e+03 2.677e-10
 79.17915     42.3 1.006e+04 3.491e-10
 79.21839     43.2 1.027e+04 4.690e-10
 79.24585     44.0 1.049e+04 5.538e-10
 79.26548     44.5 1.056e+04 5.741e-10
 79.29689     44.9 1.055e+04 5.643e-10
 79.33613     45.6 1.042e+04 5.101e-10
 79.37538     46.5 1.018e+04 4.157e-10
 79.41463     47.5 9.928e+03 3.333e-10
 79.45387     48.6 9.730e+03 2.807e-10
 79.49312     49.7 9.614e+03 2.477e-10
 79.53237     50.5 9.640e+03 2.354e-10
 79.57161     50.8 9.689e+03 2.380e-10
 79.61086     50.1 1.017e+04 2.674e-10
 79.64020     48.4 1.070e+04 3.610e-10
 79.65540     47.4 1.092e+04 5.066e-10
 79.66521     46.6 1.102e+04 6.354e-10
 79.67935     46.8 1.114e+04 7.665e-10
 79.69897     47.1 1.118e+04 7.579e-10
 79.72850     46.6 1.104e+04 6.538e-10
 79.76785     46.4 1.082e+04 5.900e-10
 79.80709     46.4 1.083e+04 6.086e-10
 79.84634     46.5 1.100e+04 7.330e-10
 79.88559     47.1 1.132e+04 9.754e-10
 79.92483     47.9 1.149e+04 1.144e-09
 79.96408     48.6 1.147e+04 1.130e-09
 80.00333     49.4 1.129e+04 1.042e-09
 80.04257     50.4 1.106e+04 9.212e-10
 80.06534     51.5 1.090e+04 8.191e-10
 80.08496     51.5 1.103e+04 8.566e-10
 80.12107     52.6 1.093e+04 7.764e-10
 80.16031     54.0 1.081e+04 6.805e-10
 80.19956     55.7 1.063e+04 5.604e-10
 80.23881     57.3 1.042e+04 4.360e-10
 80.27805     58.9 1.019e+04 3.285e-10
 80.31730     60.3 9.911e+03 2.574e-10
 80.35655     61.8 9.670e+03 2.436e-10
 80.39579     63.4 9.670e+03 2.478e-10
 80.43504     64.7 9.750e+03 2.829e-10
 80.46527     65.8 1.011e+04 4.127e-10
 80.48490     65.8 1.034e+04 4.959e-10
 80.51353     67.0 1.096e+04 7.711e-10
 80.54287     67.3 1.136e+04 9.828e-10
 80.56240     67.6 1.164e+04 1.142e-09
 80.58202     67.7 1.183e+04 1.239e-09
 80.60164     67.7 1.187e+04 1.250e-09
 80.62127     67.6 1.186e+04 1.239e-09
 80.64089     67.5 1.183e+04 1.213e-09
 80.67042     67.1 1.167e+04 1.108e-09
 80.70977     66.4 1.159e+04 1.036e-09
 80.74901     65.4 1.150e+04 9.767e-10
 80.78826     64.3 1.128e+04 8.932e-10
 80.82751     63.6 1.087e+04 7.327e-10
 80.86521     63.7 1.024e+04 5.094e-10
 80.88483     64.4 1.041e+04 5.373e-10
 80.90600     64.5 9.782e+03 3.452e-10
 80.94525     64.8 9.088e+03 2.101e-10
 80.98449     65.2 8.534e+03 1.361e-10
 81.02374     66.1 8.209e+03 9.926e-11
 81.05465     67.4 8.003e+03 8.058e-11
 81.07428     67.4 8.119e+03 8.932e-11
 81.10223     68.8 7.937e+03 7.129e-11
 81.14148     70.5 7.654e+03 6.637e-11
 81.18073     72.5 7.559e+03 6.649e-11
 81.21997     74.8 7.555e+03 6.701e-11
 81.25922     77.0 7.544e+03 7.071e-11
 81.28476     79.3 7.558e+03 8.033e-11
 81.30439     79.6 7.512e+03 7.944e-11
 81.33771     81.9 7.549e+03 9.244e-11
 81.37696     84.2 7.648e+03 1.114e-10
 81.41621     86.5 7.801e+03 1.377e-10
 81.45545     88.7 8.048e+03 1.755e-10
 81.49470     90.9 8.427e+03 2.322e-10
 81.53395     92.3 8.759e+03 2.924e-10
 81.56328     93.5 8.741e+03 2.976e-10
 81.58281     94.6 8.834e+03 3.192e-10
 81.60243     95.3 9.200e+03 4.001e-10
 81.62206     95.3 9.905e+03 5.739e-10
 81.64168     94.9 1.102e+04 9.213e-10
 81.66130     93.9 1.237e+04 1.585e-09
 81.68093     93.1 1.369e+04 2.776e-09
 81.69431     93.3 1.488e+04 4.711e-09
 81.70412     94.0 1.413e+04 3.652e-09
 81.72017     94.5 1.503e+04 5.444e-09
 81.73980     95.0 1.576e+04 7.032e-09
 81.75942     95.0 1.633e+04 7.494e-09
 81.77904     94.7 1.646e+04 7.413e-09
 81.79867     93.7 1.663e+04 6.818e-09
 81.81829     92.0 1.676e+04 6.271e-09
 81.83791     89.9 1.689e+04 6.385e-09
 81.85754     87.3 1.764e+04 7.274e-09
 81.87716     84.6 1.919e+04 9.845e-09
 81.89428     82.1 2.088e+04 1.374e-08
 81.90409     85.7 1.768e+04 6.928e-09
 81.91641     83.3 1.972e+04 1.183e-08
 81.93603     81.6 2.133e+04 1.711e-08
 81.95565     79.6 2.246e+04 2.151e-08
 81.97032     77.6 2.313e+04 2.246e-08
 81.98008     75.6 2.403e+04 2.186e-08
 81.98990     73.4 2.520e+04 2.036e-08
 81.99907     71.0 2.668e+04 1.702e-08
 82.00397     72.9 2.550e+04 2.963e-08
 82.00952     69.4 2.706e+04 2.649e-08
 82.01933     66.6 2.795e+04 2.112e-08
 82.02914     61.3 2.712e+04 1.242e-08
 82.03895     59.4 2.561e+04 1.058e-08
 82.05372     54.3 1.716e+04 4.911e-09
 82.07339     51.6 1.353e+04 3.721e-09
 82.09302     51.1 1.287e+04 2.841e-09
 82.10406     50.7 1.251e+04 1.934e-09
 82.11387     50.7 1.207e+04 1.775e-09
 82.13226     49.4 1.177e+04 1.110e-09
 82.15189     47.7 1.095e+04 6.893e-10
 82.17151     46.5 1.024e+04 5.035e-10
 82.19113     46.0 9.841e+03 4.341e-10
 82.21076     46.2 9.657e+03 4.106e-10
 82.23038     46.6 9.679e+03 4.165e-10
 82.25000     47.1 9.761e+03 4.413e-10
 82.26963     47.4 9.952e+03 5.016e-10
 82.28925     47.9 1.023e+04 6.069e-10
 82.30402     48.3 1.060e+04 7.772e-10
 82.31383     48.3 1.082e+04 7.580e-10
 82.32850     48.0 1.123e+04 1.000e-09
 82.34812     47.1 1.227e+04 1.472e-09
 82.36774     45.9 1.351e+04 2.266e-09
 82.38737     44.7 1.434e+04 3.209e-09
 82.40699     43.7 1.457e+04 3.847e-09
 82.42661     42.5 1.445e+04 3.841e-09
 82.44624     41.1 1.416e+04 3.624e-09
 82.46586     39.7 1.384e+04 3.107e-09
 82.48548     38.4 1.338e+04 2.499e-09
 82.50399     36.9 1.284e+04 1.937e-09
 82.51380     35.7 1.356e+04 1.940e-09
 82.52473     34.4 1.214e+04 1.320e-09
 82.54435     33.6 1.110e+04 1.003e-09
 82.56011     33.5 1.066e+04 8.672e-10
 82.56992     34.7 1.167e+04 1.228e-09
 82.58360     34.5 1.091e+04 9.464e-10
 82.60322     34.8 1.042e+04 7.963e-10
 82.62285     35.5 1.009e+04 6.934e-10
 82.64247     36.6 1.011e+04 6.632e-10
 82.66209     37.8 1.018e+04 6.715e-10
 82.68172     38.9 1.031e+04 6.955e-10
 82.70134     39.9 1.065e+04 7.501e-10
 82.71377     40.5 1.147e+04 8.781e-10
 82.72358     40.5 9.395e+03 4.618e-10
 82.74059     41.2 1.008e+04 4.910e-10
 82.76021     41.7 1.142e+04 5.617e-10
 82.77983     41.8 1.237e+04 6.538e-10
 82.79946     41.5 1.286e+04 8.054e-10
 82.81908     41.0 1.287e+04 1.053e-09
 82.83870     41.0 1.279e+04 1.367e-09
 82.85833     41.3 1.267e+04 1.640e-09
 82.87795     42.3 1.258e+04 1.844e-09
 82.89757     43.4 1.244e+04 1.919e-09
 82.91373     44.6 1.242e+04 1.935e-09
 82.92354     44.7 1.198e+04 1.570e-09
 82.94673     45.9 1.196e+04 1.585e-09
 82.98607     47.5 1.181e+04 1.472e-09
 83.02532     48.9 1.162e+04 1.327e-09
 83.06457     50.4 1.153e+04 1.273e-09
 83.10381     51.8 1.141e+04 1.260e-09
 83.14306     53.2 1.121e+04 1.202e-09
 83.18231     54.4 1.097e+04 1.071e-09
 83.21164     54.8 1.097e+04 1.027e-09
 83.23117     55.1 1.085e+04 9.687e-10
 83.25079     55.5 1.067e+04 8.924e-10
 83.27042     55.6 1.050e+04 8.190e-10
 83.29004     55.5 1.039e+04 7.694e-10
 83.30966     55.4 1.038e+04 7.641e-10
 83.32348     55.2 1.041e+04 7.716e-10
 83.33329     55.9 1.041e+04 7.826e-10
 83.34891     55.6 1.051e+04 8.142e-10
 83.36853     55.0 1.083e+04 9.045e-10
 83.38816     52.3 1.211e+04 1.274e-09
 83.40778     45.6 1.536e+04 3.252e-09
 83.42740     40.9 1.763e+04 9.556e-09
 83.44207     40.2 1.822e+04 1.340e-08
 83.45183     39.2 1.904e+04 1.851e-08
 83.46165     37.1 2.046e+04 2.565e-08
 83.47146     32.8 2.312e+04 3.656e-08
 83.48127     27.4 2.534e+04 4.751e-08
 83.49108     23.1 2.498e+04 4.550e-08
 83.50089     19.4 2.369e+04 3.563e-08
 83.51070     15.2 2.165e+04 2.565e-08
 83.52339     11.2 1.924e+04 1.539e-08
 83.53321      8.2 1.833e+04 1.544e-08
 83.54509      6.9 1.771e+04 9.716e-09
 83.56477      5.3 1.660e+04 4.948e-09
 83.58439      2.4 1.410e+04 2.351e-09
 83.60401      0.2 1.174e+04 1.299e-09
 83.62364      0.3 1.080e+04 9.504e-10
 83.64326      1.3 1.055e+04 8.023e-10
 83.66288      2.1 1.039e+04 7.179e-10
 83.68251      2.9 1.014e+04 6.366e-10
 83.70213      3.5 9.916e+03 5.830e-10
 83.72175      4.6 9.851e+03 5.835e-10
 83.73322      5.4 1.001e+04 6.251e-10
 83.74303      4.7 9.581e+03 4.866e-10
 83.76100      5.7 9.634e+03 5.060e-10
 83.78062      6.5 9.807e+03 5.647e-10
 83.80025      7.1 1.005e+04 6.626e-10
 83.81987      7.7 1.029e+04 7.892e-10
 83.83949      8.5 1.061e+04 9.260e-10
 83.85912      8.7 1.106e+04 1.103e-09
 83.87874      7.4 1.221e+04 1.514e-09
 83.89836      5.6 1.302e+04 2.133e-09
 83.91799      5.1 1.325e+04 2.819e-09
 83.93319      5.4 1.334e+04 3.412e-09
 83.94300      5.4 1.309e+04 2.745e-09
 83.95723      5.6 1.327e+04 3.190e-09
 83.97686      5.7 1.326e+04 3.212e-09
 83.99648      6.4 1.283e+04 2.748e-09
 84.01610      6.9 1.222e+04 2.077e-09
 84.03573      7.5 1.153e+04 1.421e-09
 84.05535      6.8 1.119e+04 9.560e-10
 84.06576      5.5 1.081e+04 6.832e-10
 84.07558      5.5 1.009e+04 4.490e-10
 84.09460      4.8 9.935e+03 4.349e-10
 84.11422      3.7 9.949e+03 5.012e-10
 84.13315      3.6 1.006e+04 5.856e-10
 84.14297      3.9 9.862e+03 5.167e-10
 84.15347      4.2 9.953e+03 6.292e-10
 84.17309      4.7 1.003e+04 6.761e-10
 84.19271      5.2 1.018e+04 6.874e-10
 84.21234      5.5 1.024e+04 6.900e-10
 84.24187      5.8 1.030e+04 6.360e-10
 84.28121      5.7 1.007e+04 5.230e-10
 84.32046      5.8 9.874e+03 4.661e-10
 84.35971      6.1 9.969e+03 4.459e-10
 84.39895      5.8 1.027e+04 5.199e-10
 84.43820      6.1 1.066e+04 7.101e-10
 84.46754      6.5 1.075e+04 7.639e-10
 84.48706      6.9 1.093e+04 8.252e-10
 84.50669      4.5 1.230e+04 1.192e-09
 84.52631      0.4 1.439e+04 2.011e-09
 84.54290     -2.2 1.473e+04 4.210e-09
 84.55271     -0.7 1.436e+04 3.998e-09
 84.56556     -0.6 1.507e+04 6.206e-09
 84.58518     -1.9 1.754e+04 6.383e-09
 84.60480     -6.4 1.753e+04 5.808e-09
 84.62443    -10.7 1.489e+04 4.243e-09
 84.64405    -12.4 1.320e+04 3.434e-09
 84.66367    -12.3 1.296e+04 2.811e-09
 84.68330    -12.2 1.305e+04 1.823e-09
 84.70292    -14.3 1.292e+04 1.033e-09
 84.72254    -17.3 1.194e+04 6.764e-10
 84.74217    -19.0 1.145e+04 5.832e-10
 84.75268    -19.3 1.161e+04 6.157e-10
 84.76249    -17.4 1.212e+04 7.431e-10
 84.79132    -21.0 1.126e+04 5.862e-10
 84.83067    -22.2 1.109e+04 6.248e-10
 84.86991    -22.6 1.069e+04 4.829e-10
 84.90916    -22.9 1.027e+04 2.390e-10
 84.94303    -23.7 9.964e+03 1.193e-10
 84.96265    -22.5 9.994e+03 1.824e-10
 84.98765    -23.4 9.762e+03 1.361e-10
 85.02690    -24.1 9.694e+03 1.277e-10
 85.06615    -24.8 9.731e+03 1.427e-10
 85.10539    -25.5 9.759e+03 1.844e-10
 85.14464    -26.0 9.876e+03 2.209e-10
 85.18389    -27.5 1.017e+04 2.491e-10
 85.22313    -30.5 1.063e+04 3.114e-10
 85.26238    -33.5 1.091e+04 5.051e-10
 85.30163    -35.1 1.089e+04 7.145e-10
 85.34087    -35.8 1.071e+04 7.326e-10
 85.36258    -35.8 1.002e+04 4.653e-10
 85.38221    -36.0 9.994e+03 4.451e-10
 85.41937    -37.0 9.161e+03 1.801e-10
 85.45861    -37.9 8.731e+03 1.189e-10
 85.49786    -38.0 8.602e+03 1.073e-10
 85.53711    -37.2 8.596e+03 1.077e-10
 85.57635    -36.8 8.711e+03 1.197e-10
 85.61560    -36.2 8.735e+03 1.268e-10
 85.65485    -35.5 8.709e+03 1.251e-10
 85.69409    -34.5 8.650e+03 1.027e-10
 85.73334    -33.6 8.580e+03 7.797e-11
 85.76251    -32.7 8.491e+03 6.285e-11
 85.78214    -32.8 8.361e+03 5.334e-11
 85.81183    -32.0 8.344e+03 4.760e-11
 85.85108    -31.1 8.360e+03 4.703e-11
 85.89033    -30.5 8.452e+03 5.529e-11
 85.92957    -29.7 8.492e+03 7.467e-11
 85.96882    -28.5 8.539e+03 9.372e-11
 86.00807    -27.3 8.570e+03 1.002e-10
 86.04731    -26.3 8.527e+03 9.725e-11
 86.08656    -25.3 8.444e+03 8.040e-11
 86.12581    -24.6 8.373e+03 6.920e-11
 86.16245    -23.9 8.336e+03 6.619e-11
 86.18207    -24.0 8.249e+03 6.118e-11
 86.20430    -22.9 8.232e+03 6.053e-11
 86.24355    -21.6 8.256e+03 6.249e-11
 86.28279    -20.1 8.287e+03 6.325e-11
 86.32204    -18.6 8.365e+03 5.945e-11
 86.36129    -17.2 8.450e+03 5.488e-11
 86.40053    -16.2 8.593e+03 5.450e-11
 86.43978    -15.9 8.843e+03 7.020e-11
 86.47903    -15.5 8.860e+03 1.185e-10
 86.51827    -13.9 9.042e+03 2.028e-10
 86.55752    -12.2 9.357e+03 2.903e-10
 86.58200    -11.0 9.598e+03 3.372e-10
 86.60163    -11.0 9.352e+03 2.699e-10
 86.63601    -10.4 9.464e+03 2.589e-10
 86.67526    -10.1 9.546e+03 2.595e-10
 86.71451     -9.8 9.583e+03 2.836e-10
 86.75375     -9.3 9.606e+03 2.987e-10
 86.79300     -8.7 9.608e+03 3.017e-10
 86.83225     -7.9 9.607e+03 2.724e-10
 86.87149     -7.2 9.623e+03 2.303e-10
 86.91074     -6.5 9.645e+03 1.825e-10
 86.94999     -6.1 9.683e+03 1.375e-10
 86.98194     -5.6 9.565e+03 1.161e-10
 87.00156     -5.0 9.650e+03 1.389e-10
 87.02848     -4.2 9.518e+03 1.250e-10
 87.05764     -2.8 9.364e+03 1.171e-10
 87.07726     -2.6 9.360e+03 1.127e-10
 87.10697     -0.8 9.325e+03 9.455e-11
 87.14622      0.9 9.455e+03 6.966e-11
 87.18547      1.9 9.690e+03 5.168e-11
 87.22471      2.9 9.734e+03 4.590e-11
 87.26396      3.9 9.539e+03 5.350e-11
 87.30321      5.5 9.424e+03 6.830e-11
 87.34245      7.3 9.473e+03 8.127e-11
 87.38170      9.0 9.631e+03 8.902e-11
 87.42095      9.8 1.001e+04 1.068e-10
 87.46019     10.6 1.013e+04 1.427e-10
 87.49944     12.1 1.019e+04 1.994e-10
 87.53869     13.7 1.027e+04 2.391e-10
 87.57793     15.2 1.031e+04 2.600e-10
 87.61718     16.5 1.033e+04 2.691e-10
 87.65643     17.8 1.031e+04 2.703e-10
 87.69567     19.0 1.033e+04 2.728e-10
 87.73492     20.3 1.039e+04 2.774e-10
 87.77417     21.6 1.042e+04 2.698e-10
 87.80142     23.2 1.036e+04 2.327e-10
 87.82105     22.0 1.046e+04 2.194e-10
 87.85266     23.4 1.051e+04 1.764e-10
 87.89191     24.2 1.069e+04 1.561e-10
 87.93115     24.3 1.075e+04 1.854e-10
 87.97040     24.6 1.090e+04 3.216e-10
 88.00965     25.4 1.135e+04 5.892e-10
 88.03898     24.7 1.172e+04 8.110e-10
 88.05851     25.1 1.181e+04 9.353e-10
 88.07813     25.6 1.200e+04 1.043e-09
 88.09776     25.9 1.224e+04 1.040e-09
 88.11738     25.7 1.231e+04 9.847e-10
 88.13700     25.4 1.231e+04 9.047e-10
 88.15663     25.0 1.222e+04 8.292e-10
 88.17625     24.9 1.213e+04 7.528e-10
 88.19587     24.7 1.211e+04 6.853e-10
 88.21097     24.6 1.210e+04 6.330e-10
 88.22079     23.7 1.198e+04 5.536e-10
 88.23512     23.2 1.207e+04 5.762e-10
 88.25474     23.0 1.213e+04 6.151e-10
 88.27437     22.7 1.237e+04 7.004e-10
 88.29399     22.6 1.252e+04 8.095e-10
 88.31361     22.5 1.273e+04 9.468e-10
 88.33324     22.5 1.273e+04 1.001e-09
 88.35286     22.6 1.267e+04 9.722e-10
 88.37248     22.8 1.255e+04 9.290e-10
 88.39211     23.0 1.233e+04 7.951e-10
 88.41094     23.1 1.232e+04 7.842e-10
 88.42075     22.9 1.226e+04 7.595e-10
 88.44126     23.9 1.201e+04 5.701e-10
 88.48061     24.5 1.178e+04 3.991e-10
 88.51985     25.4 1.158e+04 3.472e-10
 88.55910     26.4 1.176e+04 4.148e-10
 88.58844     26.3 1.219e+04 6.075e-10
 88.60796     26.6 1.236e+04 7.419e-10
 88.62072     26.8 1.269e+04 1.020e-09
 88.63053     26.1 1.267e+04 1.096e-09
 88.64721     26.7 1.291e+04 1.428e-09
 88.66683     27.5 1.308e+04 1.782e-09
 88.68646     28.3 1.338e+04 1.971e-09
 88.70608     28.8 1.380e+04 2.076e-09
 88.72570     28.4 1.443e+04 2.220e-09
 88.74533     27.2 1.517e+04 2.576e-09
 88.76495     26.0 1.548e+04 3.114e-09
 88.78457     24.9 1.557e+04 3.829e-09
 88.80420     23.7 1.593e+04 4.886e-09
 88.82068     22.4 1.637e+04 6.252e-09
 88.83050     23.2 1.556e+04 4.739e-09
 88.84344     22.6 1.560e+04 4.890e-09
 88.86307     22.7 1.528e+04 4.309e-09
 88.88269     23.0 1.458e+04 3.076e-09
 88.90231     22.7 1.398e+04 1.908e-09
 88.92194     21.6 1.319e+04 1.095e-09
 88.94156     20.2 1.236e+04 1.007e-09
 88.96118     20.2 1.226e+04 1.009e-09
 88.99072     21.4 1.182e+04 9.189e-10
 89.02085     23.1 1.133e+04 8.128e-10
 89.04047     23.8 1.093e+04 4.916e-10
 89.06931     25.6 1.059e+04 4.374e-10
 89.10855     27.8 1.039e+04 4.194e-10
 89.14780     30.2 1.030e+04 4.096e-10
 89.18705     32.8 1.025e+04 4.071e-10
 89.22629     35.4 1.022e+04 4.038e-10
 89.26554     38.0 1.020e+04 3.954e-10
 89.30479     40.7 1.017e+04 3.909e-10
 89.34403     43.4 1.019e+04 3.950e-10
 89.38328     46.1 1.024e+04 4.143e-10
 89.42078     48.7 1.034e+04 4.537e-10
 89.44040     48.8 1.031e+04 3.882e-10
 89.46177     51.4 1.040e+04 4.193e-10
 89.50102     54.1 1.049e+04 4.458e-10
 89.54027     56.8 1.056e+04 4.662e-10
 89.57951     59.4 1.061e+04 4.793e-10
 89.61876     62.0 1.066e+04 4.891e-10
 89.65801     64.4 1.071e+04 5.009e-10
 89.69725     66.8 1.076e+04 5.223e-10
 89.73650     69.1 1.081e+04 5.661e-10
 89.77575     71.3 1.094e+04 6.366e-10
 89.81499     73.4 1.116e+04 7.346e-10
 89.84034     75.3 1.136e+04 8.192e-10
 89.85996     76.0 1.091e+04 5.560e-10
 89.89349     77.8 1.111e+04 6.333e-10
 89.93273     79.2 1.124e+04 7.001e-10
 89.97198     80.2 1.141e+04 8.194e-10
 90.01123     80.9 1.174e+04 1.076e-09
 90.04932     81.5 1.220e+04 1.491e-09
 90.06895     80.5 1.218e+04 1.509e-09
 90.08972     81.0 1.248e+04 1.808e-09
 90.12897     81.3 1.244e+04 1.775e-09
 90.16821     81.7 1.215e+04 1.480e-09
 90.20746     82.1 1.168e+04 1.053e-09
 90.24027     82.2 1.125e+04 7.584e-10
 90.25989     82.9 1.190e+04 1.119e-09
 90.28595     83.0 1.155e+04 8.745e-10
 90.32520     83.3 1.132e+04 7.393e-10
 90.36445     84.1 1.111e+04 6.553e-10
 90.40369     85.3 1.088e+04 6.193e-10
 90.44294     86.8 1.076e+04 6.128e-10
 90.48219     88.5 1.075e+04 6.243e-10
 90.52143     90.4 1.073e+04 6.374e-10
 90.56068     92.4 1.068e+04 6.311e-10
 90.59993     94.4 1.060e+04 5.930e-10
 90.63917     96.7 1.050e+04 5.337e-10
 90.65982     99.0 1.043e+04 4.777e-10
 90.67945     98.9 1.070e+04 6.095e-10
 90.71767    101.4 1.073e+04 5.827e-10
 90.75691    104.2 1.079e+04 5.977e-10
 90.79616    107.1 1.100e+04 6.489e-10
 90.83541    110.3 1.137e+04 7.359e-10
 90.85969    111.6 1.159e+04 7.970e-10
 90.86941    111.5 1.179e+04 9.975e-10
 90.88427    112.7 1.212e+04 1.348e-09
 90.90389    114.2 1.242e+04 1.751e-09
 90.92352    116.0 1.272e+04 2.154e-09
 90.94314    117.7 1.305e+04 2.547e-09
 90.96276    119.3 1.341e+04 2.929e-09
 90.98239    120.8 1.381e+04 3.321e-09
 91.00201    122.2 1.434e+04 3.793e-09
 91.02163    123.4 1.500e+04 4.445e-09
 91.04126    124.5 1.584e+04 5.414e-09
 91.05956    125.1 1.689e+04 6.970e-09
 91.06937    126.0 1.758e+04 1.440e-08
 91.08050    126.0 1.886e+04 1.910e-08
 91.09517    125.6 1.970e+04 1.905e-08
 91.10493    124.7 2.082e+04 2.025e-08
 91.11475    123.4 2.204e+04 2.522e-08
 91.12456    121.7 2.307e+04 3.286e-08
 91.13437    119.9 2.385e+04 4.199e-08
 91.14418    117.7 2.416e+04 5.103e-08
 91.15399    115.0 2.405e+04 5.341e-08
 91.16380    111.9 2.372e+04 5.235e-08
 91.16926    109.0 2.281e+04 4.809e-08
 91.17416    108.5 2.331e+04 7.910e-08
 91.18343    105.5 2.251e+04 5.885e-08
 91.19324    102.7 2.172e+04 4.556e-08
 91.20305    100.1 2.128e+04 3.814e-08
 91.21286     98.1 2.118e+04 3.400e-08
 91.22267     96.7 2.120e+04 3.170e-08
 91.23744     96.2 2.112e+04 2.640e-08
 91.25711     94.8 2.096e+04 2.216e-08
 91.26934     93.8 2.054e+04 1.558e-08
 91.27420     92.3 2.032e+04 1.522e-08
 91.28154     91.8 1.959e+04 1.167e-08
 91.29631     90.6 1.791e+04 6.848e-09
 91.31598     89.8 1.633e+04 3.695e-09
 91.33561     88.4 1.468e+04 1.916e-09
 91.35523     86.7 1.350e+04 1.125e-09
 91.37485     86.2 1.299e+04 9.844e-10
 91.39448     86.4 1.288e+04 9.782e-10
 91.41410     86.9 1.288e+04 9.897e-10
 91.43372     87.5 1.296e+04 1.058e-09
 91.45335     88.1 1.311e+04 1.209e-09
 91.46931     88.6 1.331e+04 1.433e-09
 91.47912     88.4 1.305e+04 1.104e-09
 91.49259     89.0 1.318e+04 1.302e-09
 91.51222     89.7 1.332e+04 1.577e-09
 91.53184     90.3 1.353e+04 1.947e-09
 91.55146     90.9 1.392e+04 2.499e-09
 91.56459     91.6 1.471e+04 3.484e-09
 91.57440     91.1 1.540e+04 3.617e-09
 91.58575     91.6 1.585e+04 4.479e-09
 91.59552     91.9 1.604e+04 4.925e-09
 91.60533     91.9 1.634e+04 5.597e-09
 91.61514     91.7 1.709e+04 6.867e-09
 91.62495     91.0 1.860e+04 9.135e-09
 91.63476     89.6 2.066e+04 1.332e-08
 91.64458     88.1 2.255e+04 2.114e-08
 91.65439     86.4 2.372e+04 3.439e-08
 91.66420     84.9 2.363e+04 5.541e-08
 91.67401     84.8 2.287e+04 9.030e-08
 91.67899     85.0 2.209e+04 1.462e-07
 91.68389     84.5 2.313e+04 1.672e-07
 91.69363     85.0 2.209e+04 2.862e-07
 91.70345     85.8 2.152e+04 4.212e-07
 91.71326     86.0 2.168e+04 4.383e-07
 91.72307     86.0 2.239e+04 3.383e-07
 91.73288     85.6 2.515e+04 1.379e-07
 91.74269     83.2 2.942e+04 4.419e-08
 91.75250     78.4 3.108e+04 2.057e-08
 91.76232     75.4 2.743e+04 1.810e-08
 91.77213     74.1 2.468e+04 1.611e-08
 91.78689     72.6 2.038e+04 9.751e-09
 91.80657     72.7 1.742e+04 7.292e-09
 91.82619     74.2 1.716e+04 6.703e-09
 91.84581     75.8 1.737e+04 6.802e-09
 91.86544     77.1 1.793e+04 7.506e-09
 91.87905     78.2 1.855e+04 9.007e-09
 91.88886     78.5 1.929e+04 1.379e-08
 91.90468     79.0 2.020e+04 1.870e-08
 91.91935     79.1 2.066e+04 2.000e-08
 91.92911     79.0 2.119e+04 2.295e-08
 91.93893     78.7 2.166e+04 2.850e-08
 91.94874     78.2 2.189e+04 3.595e-08
 91.95855     77.7 2.182e+04 4.563e-08
 91.96836     77.1 2.153e+04 5.879e-08
 91.97817     76.9 2.131e+04 7.422e-08
 91.98384     76.6 2.122e+04 8.164e-08
 91.98875     77.4 2.149e+04 1.046e-07
 91.99780     76.5 2.139e+04 1.002e-07
 92.00761     76.3 2.104e+04 8.378e-08
 92.01742     76.4 2.074e+04 6.384e-08
 92.02723     76.3 2.063e+04 4.765e-08
 92.03704     75.7 2.040e+04 3.435e-08
 92.04685     75.4 2.013e+04 2.648e-08
 92.06162     74.7 1.959e+04 1.872e-08
 92.07902     73.8 1.852e+04 1.139e-08
 92.08883     72.8 1.762e+04 9.635e-09
 92.10092     71.8 1.619e+04 6.517e-09
 92.12054     71.2 1.506e+04 4.728e-09
 92.14016     71.2 1.430e+04 3.699e-09
 92.15979     71.3 1.375e+04 3.135e-09
 92.17941     71.9 1.365e+04 2.991e-09
 92.19903     72.5 1.375e+04 3.038e-09
 92.21866     72.4 1.417e+04 3.305e-09
 92.23828     71.4 1.533e+04 4.356e-09
 92.25790     69.8 1.700e+04 6.983e-09
 92.27753     67.9 1.895e+04 1.252e-08
 92.28879     66.3 2.063e+04 2.068e-08
 92.29365     66.2 1.996e+04 2.131e-08
 92.30196     65.0 2.053e+04 3.432e-08
 92.31177     65.0 2.088e+04 5.300e-08
 92.31732     65.0 2.124e+04 6.060e-08
 92.32223     64.6 2.121e+04 5.947e-08
 92.33139     64.3 2.120e+04 5.584e-08
 92.34120     63.9 2.128e+04 4.188e-08
 92.35102     62.7 2.136e+04 2.655e-08
 92.36083     60.7 2.109e+04 1.537e-08
 92.37559     57.0 1.998e+04 8.187e-09
 92.39527     51.0 1.560e+04 3.454e-09
 92.41489     49.2 1.266e+04 2.259e-09
 92.44442     49.3 1.191e+04 1.497e-09
 92.48377     50.5 1.038e+04 7.231e-10
 92.52301     51.4 9.215e+03 3.431e-10
 92.56226     52.3 8.708e+03 2.066e-10
 92.60151     54.0 8.617e+03 1.791e-10
 92.64075     56.2 8.558e+03 1.693e-10
 92.67911     58.5 8.511e+03 1.593e-10
 92.69873     58.7 8.499e+03 1.540e-10
 92.71925     61.0 8.430e+03 1.359e-10
 92.75849     63.2 8.350e+03 1.181e-10
 92.79774     65.3 8.268e+03 1.053e-10
 92.83699     67.4 8.225e+03 1.008e-10
 92.87623     69.6 8.223e+03 1.013e-10
 92.91548     71.9 8.256e+03 1.044e-10
 92.95473     74.1 8.365e+03 1.114e-10
 92.99397     76.2 8.561e+03 1.235e-10
 93.03322     78.1 8.839e+03 1.433e-10
 93.06063     79.9 9.117e+03 1.712e-10
 93.08025     80.6 8.775e+03 1.115e-10
 93.09867     82.4 8.969e+03 1.260e-10
 93.11829     82.6 9.075e+03 1.458e-10
 93.15096     83.9 9.554e+03 2.090e-10
 93.19021     85.1 1.007e+04 3.176e-10
 93.22945     86.3 1.053e+04 4.864e-10
 93.26870     87.9 1.092e+04 7.043e-10
 93.30795     89.7 1.128e+04 9.071e-10
 93.34719     91.3 1.168e+04 1.072e-09
 93.38644     92.6 1.210e+04 1.016e-09
 93.42569     93.7 1.225e+04 9.079e-10
 93.46493     94.7 1.227e+04 7.732e-10
 93.49860     95.6 1.224e+04 6.844e-10
 93.51822     95.7 1.184e+04 4.055e-10
 93.54343     96.7 1.184e+04 4.512e-10
 93.58267     97.8 1.196e+04 5.650e-10
 93.62192     99.1 1.206e+04 7.259e-10
 93.66117    100.5 1.212e+04 8.623e-10
 93.70041    102.0 1.209e+04 8.778e-10
 93.73966    103.5 1.194e+04 7.990e-10
 93.77891    105.3 1.167e+04 6.263e-10
 93.81815    107.2 1.139e+04 4.485e-10
 93.85740    109.3 1.118e+04 3.130e-10
 93.89665    111.4 1.106e+04 2.256e-10
 93.91816    113.7 1.101e+04 1.716e-10
 93.93778    114.2 1.125e+04 3.154e-10
 93.97514    116.5 1.122e+04 2.416e-10
 94.01439    118.8 1.124e+04 1.817e-10
 94.05363    121.0 1.129e+04 1.320e-10
 94.09288    123.1 1.123e+04 9.803e-11
 94.13213    125.0 1.106e+04 8.356e-11
 94.17137    126.9 1.098e+04 8.260e-11
 94.21062    128.7 1.098e+04 8.339e-11
 94.24987    130.3 1.104e+04 9.240e-11
 94.28911    131.9 1.109e+04 1.203e-10
 94.31809    133.6 1.112e+04 1.648e-10
 94.33771    134.0 1.123e+04 2.348e-10
 94.36761    135.8 1.129e+04 2.891e-10
 94.40685    137.6 1.143e+04 3.193e-10
 94.44610    139.1 1.147e+04 3.141e-10
 94.48535    140.4 1.148e+04 2.950e-10
 94.52459    141.7 1.138e+04 2.640e-10
 94.56384    143.1 1.123e+04 2.402e-10
 94.60309    144.6 1.120e+04 2.340e-10
 94.64233    146.1 1.121e+04 2.392e-10
 94.68158    147.3 1.127e+04 2.817e-10
 94.71802    148.3 1.148e+04 4.130e-10
 94.73764    148.4 1.143e+04 5.205e-10
 94.76007    149.5 1.172e+04 7.920e-10
 94.79932    150.5 1.202e+04 1.035e-09
 94.83857    151.3 1.219e+04 1.110e-09
 94.87781    152.1 1.215e+04 1.081e-09
 94.91706    153.1 1.200e+04 9.738e-10
 94.95631    154.5 1.178e+04 8.066e-10
 94.99555    156.3 1.160e+04 6.483e-10
 95.03480    158.3 1.155e+04 5.344e-10
 95.07405    160.4 1.167e+04 4.634e-10
 95.11329    162.5 1.185e+04 4.260e-10
 95.13758    164.5 1.196e+04 4.024e-10
 95.15720    165.7 1.150e+04 4.036e-10
 95.19179    167.7 1.171e+04 4.047e-10
 95.23103    169.3 1.189e+04 4.083e-10
 95.27028    170.5 1.205e+04 4.419e-10
 95.30953    171.5 1.233e+04 5.615e-10
 95.34877    172.3 1.263e+04 7.217e-10
 95.38802    173.1 1.284e+04 8.772e-10
 95.42727    173.6 1.296e+04 9.770e-10
 95.46651    173.8 1.309e+04 1.069e-09
 95.49585    173.7 1.298e+04 1.034e-09
 95.51538    173.7 1.298e+04 1.050e-09
 95.53500    173.5 1.304e+04 1.128e-09
 95.54713    173.3 1.320e+04 1.287e-09
 95.55694    173.5 1.346e+04 1.278e-09
 95.57425    173.3 1.360e+04 1.499e-09
 95.59387    173.3 1.376e+04 1.832e-09
 95.61349    173.5 1.392e+04 2.197e-09
 95.63312    173.9 1.402e+04 2.548e-09
 95.65274    174.3 1.405e+04 2.705e-09
 95.67236    174.7 1.403e+04 2.685e-09
 95.69199    175.0 1.393e+04 2.499e-09
 95.71161    175.4 1.368e+04 2.171e-09
 95.74114    175.6 1.320e+04 1.598e-09
 95.78049    176.7 1.237e+04 9.266e-10
 95.81973    178.2 1.156e+04 4.739e-10
 95.85898    179.9 1.084e+04 2.372e-10
 95.89823    181.8 1.029e+04 1.552e-10
 95.93744    184.2 1.012e+04 1.448e-10
 95.97669    187.8 1.027e+04 1.352e-10
 96.01597    190.4 1.023e+04 1.293e-10
 96.05231    193.0 1.022e+04 1.252e-10
 96.07193    193.8 1.016e+04 1.302e-10
 96.09446    196.4 1.016e+04 1.282e-10
 96.13371    199.1 1.018e+04 1.266e-10
 96.17295    201.6 1.020e+04 1.253e-10
 96.21220    204.1 1.021e+04 1.251e-10
 96.25145    206.6 1.020e+04 1.260e-10
 96.29069    209.1 1.017e+04 1.268e-10
 96.32994    211.5 1.012e+04 1.261e-10
 96.35700    214.0 1.012e+04 1.236e-10
 96.37662    214.4 1.000e+04 8.868e-11
 96.40843    217.0 9.975e+03 9.674e-11
 96.44768    219.6 9.943e+03 1.064e-10
 96.48693    222.2 9.923e+03 1.164e-10
 96.52617    224.9 9.909e+03 1.260e-10
 96.56542    227.6 9.909e+03 1.359e-10
 96.60467    230.3 9.921e+03 1.468e-10
 96.64391    233.0 9.944e+03 1.597e-10
 96.68316    235.8 9.980e+03 1.753e-10
 96.72241    238.5 1.003e+04 1.947e-10
 96.75693    241.3 1.012e+04 2.194e-10
 96.77655    241.6 1.023e+04 2.614e-10
 96.80090    244.4 1.041e+04 2.970e-10
 96.84015    247.3 1.062e+04 3.381e-10
 96.87939    250.4 1.086e+04 3.827e-10
 96.91864    252.9 1.102e+04 4.229e-10
 96.94798    254.2 1.106e+04 4.594e-10
 96.96651    255.9 1.110e+04 5.099e-10
 96.97632    255.7 1.106e+04 4.873e-10
 96.98713    257.6 1.108e+04 5.338e-10
 97.00675    259.5 1.115e+04 5.775e-10
 97.02637    261.1 1.135e+04 6.271e-10
 97.04600    262.1 1.172e+04 7.131e-10
 97.06562    261.8 1.303e+04 9.389e-10
 97.08524    261.1 1.489e+04 1.517e-09
 97.10487    260.3 1.648e+04 2.762e-09
 97.12449    259.8 1.760e+04 4.845e-09
 97.14411    259.5 1.845e+04 7.617e-09
 97.16374    259.0 1.915e+04 9.654e-09
 97.17629    257.9 1.976e+04 1.064e-08
 97.18610    256.1 1.858e+04 7.868e-09
 97.20298    254.4 1.872e+04 6.500e-09
 97.22261    252.3 1.829e+04 4.636e-09
 97.24223    250.2 1.713e+04 3.105e-09
 97.26185    248.5 1.538e+04 2.168e-09
 97.28148    247.5 1.369e+04 1.695e-09
 97.30110    247.5 1.266e+04 1.468e-09
 97.32072    247.8 1.225e+04 1.330e-09
 97.34035    248.6 1.212e+04 1.203e-09
 97.35997    249.6 1.202e+04 1.067e-09
 97.37626    250.6 1.185e+04 9.295e-10
 97.38607    250.6 1.134e+04 7.574e-10
 97.39922    251.6 1.110e+04 6.720e-10
 97.41884    252.6 1.086e+04 6.039e-10
 97.43846    253.6 1.067e+04 5.569e-10
 97.45809    254.7 1.054e+04 5.306e-10
 97.47771    255.9 1.055e+04 5.161e-10
 97.49733    257.2 1.058e+04 5.083e-10
 97.51696    258.5 1.061e+04 5.003e-10
 97.53658    259.8 1.066e+04 4.877e-10
 97.55620    261.1 1.069e+04 4.697e-10
 97.56758    262.4 1.072e+04 4.470e-10
 97.57739    263.9 1.078e+04 5.574e-10
 97.58604    265.2 1.083e+04 5.296e-10
 97.59585    265.4 1.087e+04 4.799e-10
 97.61507    266.5 1.107e+04 4.620e-10
 97.63470    267.5 1.124e+04 4.646e-10
 97.65432    268.3 1.143e+04 4.878e-10
 97.67394    268.8 1.180e+04 5.495e-10
 97.69357    269.5 1.273e+04 7.686e-10
 97.71319    270.0 1.403e+04 1.190e-09
 97.73281    269.9 1.526e+04 1.598e-09
 97.74748    267.3 1.782e+04 2.942e-09
 97.75724    263.7 1.979e+04 6.975e-09
 97.76706    260.5 2.069e+04 1.736e-08
 97.77687    259.8 2.111e+04 3.949e-08
 97.78590    259.9 2.154e+04 7.778e-08
 97.79081    260.0 2.174e+04 9.768e-08
 97.79649    259.8 2.250e+04 1.429e-07
 97.80630    258.7 2.356e+04 1.490e-07
 97.81611    256.6 2.389e+04 1.395e-07
 97.82593    253.8 2.512e+04 9.706e-08
 97.83574    250.5 2.790e+04 4.191e-08
 97.84555    243.2 3.354e+04 9.571e-09
 97.85536    236.4 3.843e+04 2.752e-09
 97.86517    224.9 3.293e+04 1.348e-09
 97.87498    217.4 2.182e+04 1.466e-09
 97.88975    208.5 1.510e+04 1.994e-09
 97.90942    202.4 1.435e+04 2.103e-09
 97.92905    200.3 1.442e+04 2.676e-09
 97.94867    198.4 1.599e+04 4.299e-09
 97.96829    195.7 1.786e+04 6.911e-09
 97.98597    192.5 1.911e+04 9.027e-09
 97.99578    193.8 1.905e+04 9.409e-09
 98.00754    190.7 1.953e+04 9.952e-09
 98.02716    187.6 1.946e+04 8.964e-09
 98.04679    184.8 1.874e+04 5.935e-09
 98.06641    181.9 1.707e+04 2.977e-09
 98.08603    178.4 1.425e+04 1.376e-09
 98.10566    175.4 1.190e+04 9.116e-10
 98.12528    174.9 1.167e+04 8.807e-10
 98.14490    175.1 1.160e+04 8.766e-10
 98.16453    175.7 1.156e+04 8.778e-10
 98.18415    176.3 1.155e+04 8.812e-10
 98.19575    176.9 1.154e+04 8.834e-10
 98.20556    176.3 1.142e+04 8.445e-10
 98.22340    176.8 1.144e+04 8.685e-10
 98.24302    177.2 1.147e+04 9.015e-10
 98.26264    177.5 1.154e+04 9.525e-10
 98.28227    177.9 1.162e+04 1.015e-09
 98.30189    178.3 1.159e+04 1.047e-09
 98.32151    178.8 1.155e+04 1.044e-09
 98.34114    179.5 1.149e+04 1.033e-09
 98.36076    180.1 1.152e+04 1.042e-09
 98.38038    179.9 1.189e+04 1.119e-09
 98.39571    178.6 1.347e+04 1.518e-09
 98.40552    177.8 1.361e+04 1.559e-09
 98.41963    174.5 1.675e+04 3.326e-09
 98.43925    172.2 1.862e+04 6.643e-09
 98.45392    171.3 1.961e+04 9.192e-09
 98.46368    169.8 2.085e+04 1.566e-08
 98.47350    169.2 2.209e+04 3.435e-08
 98.48331    169.4 2.320e+04 7.482e-08
 98.49312    169.2 2.436e+04 1.261e-07
 98.50050    166.8 2.486e+04 1.363e-07
 98.50541    166.8 2.473e+04 1.364e-07
 98.51274    164.5 2.435e+04 1.232e-07
 98.52255    164.7 2.333e+04 8.228e-08
 98.53237    165.6 2.201e+04 4.346e-08
 98.54218    166.2 2.059e+04 2.229e-08
 98.55199    166.1 1.968e+04 1.393e-08
 98.56180    165.3 1.903e+04 9.103e-09
 98.57161    163.8 1.828e+04 6.022e-09
 98.58142    162.4 1.745e+04 4.456e-09
 98.59563    160.5 1.665e+04 3.451e-09
 98.60544    158.5 1.718e+04 3.970e-09
 98.61086    157.0 1.727e+04 4.065e-09
 98.62067    155.9 1.717e+04 4.205e-09
 98.63048    155.4 1.709e+04 4.373e-09
 98.64029    154.9 1.722e+04 4.710e-09
 98.65011    154.4 1.745e+04 5.283e-09
 98.65992    153.6 1.767e+04 6.152e-09
 98.66973    153.1 1.782e+04 7.166e-09
 98.67954    152.7 1.792e+04 8.218e-09
 98.68935    152.4 1.802e+04 9.024e-09
 98.69916    152.2 1.805e+04 9.546e-09
 98.70538    151.9 1.808e+04 9.725e-09
 98.71028    151.3 1.817e+04 1.032e-08
 98.71879    150.4 1.867e+04 9.884e-09
 98.72860    148.2 1.978e+04 9.843e-09
 98.73841    144.9 2.134e+04 9.891e-09
 98.74822    140.6 2.296e+04 1.005e-08
 98.75803    136.6 2.272e+04 1.020e-08
 98.76785    133.2 2.213e+04 1.046e-08
 98.77766    131.6 2.152e+04 1.067e-08
 98.78747    129.2 2.136e+04 1.134e-08
 98.79728    127.8 2.118e+04 1.141e-08
 98.80536    125.6 2.091e+04 1.101e-08
 98.81522    122.8 1.960e+04 9.683e-09
 98.83172    120.3 1.892e+04 7.440e-09
 98.85134    117.9 1.800e+04 4.712e-09
 98.87097    114.7 1.675e+04 2.626e-09
 98.89059    111.2 1.498e+04 1.591e-09
 98.91021    108.3 1.339e+04 1.195e-09
 98.92984    106.9 1.275e+04 1.113e-09
 98.94946    106.4 1.275e+04 1.114e-09
 98.96908    106.5 1.285e+04 1.135e-09
 98.98871    106.6 1.292e+04 1.147e-09
 99.00542    106.8 1.285e+04 1.115e-09
 99.01523    106.5 1.273e+04 1.095e-09
 99.02795    106.7 1.247e+04 9.898e-10
 99.04758    106.8 1.224e+04 8.917e-10
 99.06342    107.0 1.208e+04 8.220e-10
 99.07323    108.6 1.195e+04 7.697e-10
 99.08682    108.8 1.188e+04 7.396e-10
 99.10645    109.2 1.186e+04 7.270e-10
 99.12607    109.8 1.186e+04 7.179e-10
 99.14569    110.4 1.183e+04 7.012e-10
 99.16532    111.0 1.178e+04 6.661e-10
 99.18494    111.7 1.169e+04 6.150e-10
 99.20456    112.3 1.160e+04 5.577e-10
 99.21520    112.4 1.154e+04 5.070e-10
 99.22501    111.8 1.130e+04 4.510e-10
 99.24381    111.8 1.133e+04 4.498e-10
 99.26343    111.4 1.143e+04 4.571e-10
 99.28306    110.2 1.178e+04 5.097e-10
 99.30268    108.1 1.260e+04 7.193e-10
 99.32230    106.2 1.365e+04 1.208e-09
 99.34193    105.2 1.472e+04 2.040e-09
 99.36155    105.0 1.562e+04 3.097e-09
 99.38117    104.9 1.628e+04 3.990e-09
 99.40080    104.7 1.668e+04 4.158e-09
 99.41517    104.3 1.669e+04 4.079e-09
 99.42498    103.6 1.587e+04 3.249e-09
 99.44004    102.7 1.572e+04 2.911e-09
 99.45967    101.2 1.536e+04 2.371e-09
 99.47929     98.9 1.488e+04 1.875e-09
 99.49891     96.0 1.488e+04 1.768e-09
 99.51854     91.7 1.521e+04 1.860e-09
 99.53816     85.7 1.646e+04 2.384e-09
 99.55283     81.8 1.719e+04 3.010e-09
 99.56259     80.0 1.766e+04 3.453e-09
 99.57240     76.8 1.917e+04 5.114e-09
 99.58221     73.7 2.025e+04 8.059e-09
 99.59203     71.6 2.085e+04 1.179e-08
 99.60184     70.4 2.133e+04 1.562e-08
 99.61165     69.1 2.206e+04 2.017e-08
 99.61994     67.7 2.257e+04 2.515e-08
 99.62485     68.7 2.225e+04 2.153e-08
 99.63127     66.7 2.286e+04 2.537e-08
 99.64108     65.0 2.289e+04 2.545e-08
 99.65585     62.8 2.301e+04 2.368e-08
 99.67552     59.5 2.274e+04 1.828e-08
 99.69515     55.1 2.282e+04 1.098e-08
 99.70981     48.5 2.246e+04 6.500e-09
 99.71958     47.6 2.187e+04 6.195e-09
 99.72483     42.3 2.120e+04 5.719e-09
 99.72974     44.6 2.147e+04 5.326e-09
 99.73920     41.1 2.037e+04 4.735e-09
 99.74901     37.7 1.923e+04 4.415e-09
 99.75882     35.3 1.861e+04 4.370e-09
 99.76864     31.3 1.938e+04 4.999e-09
 99.77845     27.4 2.015e+04 6.099e-09
 99.78826     20.0 2.305e+04 9.956e-09
 99.79807     10.8 2.577e+04 1.992e-08
 99.80788      4.9 2.506e+04 3.673e-08
 99.81615      2.3 2.399e+04 5.502e-08
 99.82105      1.1 2.369e+04 5.456e-08
 99.82481     -0.6 2.363e+04 5.496e-08
 99.82972      0.1 2.309e+04 6.882e-08
 99.83732     -1.2 2.403e+04 5.353e-08
 99.84713     -5.0 2.856e+04 2.763e-08
 99.85694    -12.4 3.668e+04 1.004e-08
 99.87171    -21.9 3.506e+04 3.924e-09
 99.89138    -44.6 1.560e+04 1.815e-09
 99.91100    -47.7 1.449e+04 1.594e-09
 99.93063    -50.0 1.449e+04 1.334e-09
 99.95025    -54.3 1.410e+04 1.076e-09
 99.96987    -58.6 1.326e+04 9.403e-10
 99.98950    -61.2 1.240e+04 8.558e-10
100.00912    -62.6 1.210e+04 8.164e-10
