# Columns:
#   distance along LOS (in CHIMPs)
#   peculiar velocity  (in km/s)
#   temperature (K)
#   HI number density
# pos=(169.396,127.226,51.0296), angles=(1.55806,3.40795)
  0.00183    -53.8 1.645e+04 5.181e-09
  0.01378    -55.1 1.669e+04 4.312e-09
  0.03403    -57.2 1.583e+04 3.466e-09
  0.05204    -59.1 1.463e+04 2.998e-09
  0.06216    -57.4 1.432e+04 2.266e-09
  0.07452    -58.6 1.354e+04 2.136e-09
  0.09477    -58.8 1.329e+04 2.127e-09
  0.11502    -58.5 1.320e+04 2.225e-09
  0.12964    -58.2 1.329e+04 2.250e-09
  0.13976    -57.4 1.267e+04 1.804e-09
  0.15551    -57.2 1.287e+04 1.850e-09
  0.17576    -57.8 1.320e+04 1.943e-09
  0.19601    -59.4 1.361e+04 2.204e-09
  0.20723    -61.5 1.404e+04 2.827e-09
  0.21736    -61.3 1.434e+04 2.978e-09
  0.23650    -63.1 1.493e+04 4.240e-09
  0.25675    -64.6 1.573e+04 5.805e-09
  0.27471    -66.4 1.671e+04 7.108e-09
  0.28483    -66.3 1.624e+04 6.339e-09
  0.29724    -69.1 1.658e+04 6.452e-09
  0.31749    -73.0 1.679e+04 5.920e-09
  0.33773    -77.5 1.608e+04 4.674e-09
  0.35230    -81.9 1.462e+04 3.439e-09
  0.36243    -82.6 1.377e+04 2.629e-09
  0.37823    -85.5 1.287e+04 1.981e-09
  0.39847    -87.6 1.217e+04 1.453e-09
  0.41872    -89.3 1.146e+04 1.016e-09
  0.42990    -90.9 1.074e+04 7.034e-10
  0.44002    -91.1 1.051e+04 6.317e-10
  0.45921    -92.2 9.975e+03 4.624e-10
  0.47946    -93.0 9.572e+03 3.645e-10
  0.49737    -93.6 9.355e+03 3.195e-10
  0.50750    -93.8 9.387e+03 3.212e-10
  0.51995    -94.0 9.361e+03 3.149e-10
  0.54020    -94.1 9.362e+03 3.143e-10
  0.56045    -94.4 9.398e+03 3.160e-10
  0.57497    -94.6 9.510e+03 3.387e-10
  0.58510    -94.9 9.420e+03 3.303e-10
  0.60094    -95.0 9.500e+03 3.624e-10
  0.62119    -95.1 9.640e+03 4.143e-10
  0.64144    -95.5 9.965e+03 5.125e-10
  0.65257    -96.6 1.064e+04 7.037e-10
  0.66269    -97.7 1.099e+04 7.220e-10
  0.68193    -99.8 1.218e+04 1.191e-09
  0.70218   -101.7 1.329e+04 1.984e-09
  0.72004   -103.0 1.412e+04 3.021e-09
  0.73017   -104.0 1.456e+04 3.729e-09
  0.74267   -104.7 1.505e+04 4.682e-09
  0.76292   -105.5 1.525e+04 4.989e-09
  0.78316   -106.2 1.529e+04 5.006e-09
  0.79764   -106.9 1.521e+04 4.579e-09
  0.80776   -107.5 1.552e+04 4.199e-09
  0.82366   -108.7 1.507e+04 3.439e-09
  0.84390   -109.9 1.450e+04 2.998e-09
  0.86415   -110.7 1.413e+04 2.772e-09
  0.87524   -111.1 1.394e+04 2.616e-09
  0.88536   -112.4 1.403e+04 2.328e-09
  0.90464   -112.2 1.392e+04 2.103e-09
  0.92489   -111.8 1.381e+04 1.733e-09
  0.94271   -111.4 1.357e+04 1.294e-09
  0.95283   -112.8 1.287e+04 9.779e-10
  0.96538   -112.8 1.191e+04 6.425e-10
  0.98563   -112.8 1.071e+04 4.264e-10
  1.00588   -112.6 9.769e+03 3.090e-10
  1.02031   -112.2 9.395e+03 2.532e-10
  1.03043   -111.8 9.436e+03 2.940e-10
  1.05659   -111.2 9.353e+03 2.546e-10
  1.09718   -109.6 9.117e+03 1.966e-10
  1.13768   -107.8 8.991e+03 1.616e-10
  1.16557   -105.9 8.989e+03 1.525e-10
  1.18582   -105.3 9.193e+03 1.542e-10
  1.21867   -103.7 9.236e+03 1.535e-10
  1.25916   -102.4 9.559e+03 1.673e-10
  1.29965   -101.6 9.886e+03 2.174e-10
  1.32077   -101.1 1.035e+04 3.191e-10
  1.34102   -101.5 1.090e+04 5.702e-10
  1.37042   -101.5 1.098e+04 7.430e-10
  1.38805   -101.4 1.134e+04 9.709e-10
  1.39817   -101.1 1.172e+04 1.152e-09
  1.41081   -101.0 1.216e+04 1.439e-09
  1.43106   -100.9 1.256e+04 1.715e-09
  1.45131   -100.8 1.282e+04 1.899e-09
  1.46564   -100.8 1.290e+04 1.951e-09
  1.47577   -101.9 1.322e+04 2.336e-09
  1.49180   -101.8 1.312e+04 2.312e-09
  1.51205   -101.2 1.283e+04 2.010e-09
  1.53230   -100.5 1.250e+04 1.569e-09
  1.54324    -99.7 1.212e+04 1.162e-09
  1.55336   -100.5 1.208e+04 1.088e-09
  1.57279    -99.8 1.154e+04 8.040e-10
  1.59304    -99.1 1.104e+04 5.781e-10
  1.61072    -98.2 1.064e+04 4.065e-10
  1.62084    -98.9 1.093e+04 5.000e-10
  1.63353    -97.9 1.066e+04 3.600e-10
  1.66400    -97.0 1.042e+04 2.576e-10
  1.70459    -95.5 1.009e+04 1.982e-10
  1.74508    -92.8 9.592e+03 1.329e-10
  1.76610    -90.1 9.257e+03 8.631e-11
  1.78635    -91.3 9.967e+03 2.015e-10
  1.82607    -88.8 9.604e+03 1.505e-10
  1.86656    -86.4 9.379e+03 1.226e-10
  1.90105    -84.1 9.293e+03 1.157e-10
  1.92130    -84.6 9.473e+03 3.145e-10
  1.94755    -82.2 9.424e+03 3.102e-10
  1.98804    -80.0 9.463e+03 3.235e-10
  2.02854    -77.8 9.633e+03 3.644e-10
  2.05625    -75.7 9.806e+03 4.194e-10
  2.07649    -76.3 9.839e+03 3.623e-10
  2.10953    -74.4 9.713e+03 3.133e-10
  2.15002    -72.7 9.484e+03 2.515e-10
  2.19051    -71.1 9.203e+03 1.912e-10
  2.21144    -69.7 8.954e+03 1.416e-10
  2.23169    -70.4 8.598e+03 1.014e-10
  2.27150    -68.8 8.450e+03 7.990e-11
  2.31199    -67.1 8.338e+03 6.412e-11
  2.34639    -65.4 8.265e+03 5.367e-11
  2.36664    -65.1 8.188e+03 4.750e-11
  2.39298    -63.2 8.145e+03 3.943e-11
  2.43347    -61.3 8.131e+03 3.407e-11
  2.47397    -59.4 8.132e+03 3.053e-11
  2.50158    -57.4 8.135e+03 2.836e-11
  2.52183    -57.0 8.100e+03 2.390e-11
  2.55496    -54.9 8.101e+03 2.278e-11
  2.59545    -52.8 8.101e+03 2.249e-11
  2.63594    -50.7 8.132e+03 2.258e-11
  2.65678    -49.0 8.288e+03 2.437e-11
  2.67702    -48.6 8.267e+03 2.630e-11
  2.70026    -47.1 8.282e+03 3.612e-11
  2.72051    -47.8 8.332e+03 6.031e-11
  2.75742    -46.3 8.520e+03 9.228e-11
  2.79172    -45.0 8.820e+03 1.525e-10
  2.81197    -43.9 8.782e+03 1.176e-10
  2.83841    -42.9 9.040e+03 1.849e-10
  2.87890    -42.0 9.297e+03 2.966e-10
  2.91940    -40.9 9.504e+03 4.274e-10
  2.94692    -39.7 9.590e+03 4.931e-10
  2.96717    -38.5 9.540e+03 4.554e-10
  3.00039    -37.2 9.544e+03 4.844e-10
  3.04088    -35.8 9.310e+03 4.528e-10
  3.08137    -34.5 9.000e+03 3.620e-10
  3.10211    -33.2 8.807e+03 3.000e-10
  3.12236    -32.4 9.041e+03 3.414e-10
  3.16236    -31.1 8.986e+03 3.293e-10
  3.20285    -29.4 9.061e+03 3.339e-10
  3.23706    -27.7 9.156e+03 3.340e-10
  3.25731    -27.8 9.580e+03 4.905e-10
  3.28384    -26.3 9.685e+03 5.020e-10
  3.32434    -24.9 9.757e+03 5.027e-10
  3.36483    -23.3 9.842e+03 4.989e-10
  3.39226    -21.4 9.939e+03 4.804e-10
  3.41250    -21.2 9.520e+03 3.157e-10
  3.44582    -20.2 9.289e+03 2.439e-10
  3.48631    -19.1 9.011e+03 2.164e-10
  3.52680    -17.6 8.781e+03 2.064e-10
  3.54745    -15.5 8.572e+03 2.028e-10
  3.56770    -15.2 8.194e+03 1.641e-10
  3.60779    -13.0 8.060e+03 1.615e-10
  3.64828    -10.7 8.000e+03 1.500e-10
  3.68240     -8.4 8.018e+03 1.351e-10
  3.70264     -7.7 7.734e+03 1.163e-10
  3.72927     -5.4 7.781e+03 1.089e-10
  3.76977     -3.3 7.967e+03 1.100e-10
  3.81026     -1.5 8.250e+03 1.344e-10
  3.83759      0.6 8.470e+03 1.911e-10
  3.85784      1.2 8.414e+03 1.322e-10
  3.89125      2.4 8.666e+03 2.053e-10
  3.93174      3.9 8.976e+03 3.861e-10
  3.97223      6.2 9.674e+03 6.551e-10
  3.99279      8.9 1.024e+04 8.611e-10
  4.01303      9.7 9.551e+03 5.806e-10
  4.05322     11.8 9.669e+03 5.777e-10
  4.09371     13.8 9.651e+03 5.081e-10
  4.12773     15.3 9.743e+03 4.386e-10
  4.14798     14.6 9.452e+03 3.249e-10
  4.17470     16.5 9.517e+03 3.364e-10
  4.21520     18.6 9.585e+03 3.500e-10
  4.25569     20.7 9.666e+03 3.684e-10
  4.28293     22.7 9.719e+03 3.966e-10
  4.30317     22.8 9.305e+03 3.406e-10
  4.33668     25.4 9.520e+03 3.963e-10
  4.36043     26.3 9.763e+03 4.580e-10
  4.37045     26.4 9.742e+03 4.493e-10
  4.38710     27.1 9.879e+03 4.840e-10
  4.40735     27.7 9.960e+03 5.459e-10
  4.42759     28.7 1.001e+04 6.361e-10
  4.43793     29.8 1.027e+04 7.948e-10
  4.44805     29.7 1.008e+04 7.000e-10
  4.46809     30.7 1.042e+04 8.844e-10
  4.48833     31.8 1.072e+04 1.082e-09
  4.50540     33.0 1.118e+04 1.347e-09
  4.51552     33.2 1.110e+04 1.212e-09
  4.52883     33.2 1.163e+04 1.604e-09
  4.54907     32.3 1.260e+04 2.312e-09
  4.56932     29.7 1.508e+04 5.972e-09
  4.58295     28.2 1.655e+04 1.015e-08
  4.58796     27.8 1.614e+04 8.874e-09
  4.59453     27.4 1.711e+04 1.358e-08
  4.60465     27.8 1.798e+04 1.993e-08
  4.61478     28.8 1.900e+04 2.798e-08
  4.63001     29.7 1.895e+04 2.445e-08
  4.65031     31.2 1.848e+04 1.871e-08
  4.66060     32.0 1.754e+04 9.129e-09
  4.67072     31.4 1.696e+04 7.601e-09
  4.69080     30.5 1.544e+04 3.265e-09
  4.71105     28.2 1.299e+04 1.251e-09
  4.72817     25.9 1.069e+04 2.970e-10
  4.74851     27.1 1.103e+04 4.248e-10
  4.78211     26.0 9.633e+03 1.262e-10
  4.82260     26.9 9.179e+03 9.564e-11
  4.86309     28.9 9.161e+03 1.005e-10
  4.90359     31.6 9.338e+03 1.744e-10
  4.94408     33.5 9.601e+03 2.547e-10
  4.98457     35.6 9.945e+03 3.724e-10
  5.01841     37.5 1.019e+04 4.884e-10
  5.03865     37.8 9.914e+03 4.232e-10
  5.06556     39.2 1.003e+04 5.256e-10
  5.10606     40.7 1.021e+04 6.653e-10
  5.14655     42.5 1.040e+04 7.873e-10
  5.17360     44.2 1.040e+04 8.022e-10
  5.19385     44.6 1.020e+04 7.336e-10
  5.22754     46.5 1.009e+04 6.961e-10
  5.26803     48.5 9.793e+03 5.861e-10
  5.30852     50.5 9.410e+03 4.528e-10
  5.34902     52.7 8.844e+03 3.255e-10
  5.38951     55.0 8.637e+03 2.967e-10
  5.43001     57.5 8.481e+03 2.711e-10
  5.46374     60.2 8.335e+03 2.422e-10
  5.48399     60.7 8.564e+03 3.007e-10
  5.51099     63.5 8.507e+03 2.860e-10
  5.55149     66.4 8.393e+03 2.524e-10
  5.59198     69.2 8.261e+03 2.133e-10
  5.61894     72.0 8.152e+03 1.791e-10
  5.63918     72.4 8.697e+03 3.007e-10
  5.67297     75.1 8.626e+03 2.752e-10
  5.71346     78.0 8.567e+03 2.554e-10
  5.75224     80.8 8.490e+03 2.370e-10
  5.77242     81.4 8.454e+03 2.677e-10
  5.79438     84.6 9.032e+03 4.313e-10
  5.83494     87.7 9.061e+03 4.286e-10
  5.87544     90.8 9.097e+03 4.162e-10
  5.90908     94.2 9.150e+03 3.983e-10
  5.92933     94.7 9.381e+03 5.131e-10
  5.95642     97.9 9.505e+03 5.157e-10
  5.98658     99.7 9.542e+03 5.014e-10
  5.99660    100.1 9.507e+03 5.166e-10
  6.00684    102.5 9.542e+03 5.187e-10
  6.02709    104.9 9.659e+03 5.278e-10
  6.04734    107.1 9.865e+03 5.536e-10
  6.06408    108.9 1.012e+04 5.993e-10
  6.07420    109.1 9.806e+03 5.441e-10
  6.08783    111.1 1.009e+04 5.994e-10
  6.10808    113.1 1.035e+04 6.606e-10
  6.12833    115.4 1.086e+04 7.782e-10
  6.14167    118.6 1.269e+04 1.084e-09
  6.15180    119.6 1.085e+04 7.323e-10
  6.16882    122.5 1.232e+04 9.189e-10
  6.18042    120.2 2.079e+04 1.572e-09
  6.18544    122.3 1.677e+04 1.098e-09
  6.19403    119.5 2.784e+04 2.041e-09
  6.20415    115.9 3.345e+04 5.578e-09
  6.21411    116.5 3.147e+04 1.481e-08
  6.21917    116.9 3.543e+04 7.932e-09
  6.22440    118.9 3.052e+04 2.276e-08
  6.23452    121.3 2.596e+04 5.405e-08
  6.24465    124.1 2.336e+04 9.889e-08
  6.25291    126.4 2.192e+04 1.459e-07
  6.25795    127.4 2.281e+04 1.508e-07
  6.26231    127.9 2.223e+04 1.684e-07
  6.26738    128.2 2.206e+04 1.693e-07
  6.27226    128.5 2.163e+04 1.692e-07
  6.27479    129.1 2.248e+04 2.008e-07
  6.27750    129.3 2.194e+04 1.930e-07
  6.28512    129.0 2.142e+04 1.867e-07
  6.29171    128.9 2.097e+04 1.419e-07
  6.29677    131.2 2.260e+04 3.428e-07
  6.30539    130.5 2.239e+04 2.062e-07
  6.31551    128.3 2.332e+04 1.159e-07
  6.32545    121.9 2.787e+04 4.905e-08
  6.33051    124.7 2.411e+04 2.015e-07
  6.33576    119.2 2.891e+04 6.348e-08
  6.34588    113.1 3.879e+04 1.136e-08
  6.35600    104.6 5.013e+04 2.267e-09
  6.36429     89.3 3.410e+04 1.046e-09
  6.37447     92.4 4.783e+04 1.138e-09
  6.39153     78.4 1.358e+04 1.329e-09
  6.41178     78.6 1.179e+04 1.295e-09
  6.43182     80.7 1.172e+04 1.299e-09
  6.44194     79.8 1.208e+04 1.412e-09
  6.45227     81.9 1.209e+04 1.476e-09
  6.47252     83.7 1.211e+04 1.549e-09
  6.49277     85.4 1.211e+04 1.601e-09
  6.50941     87.0 1.211e+04 1.636e-09
  6.51954     86.7 1.259e+04 1.922e-09
  6.53326     88.2 1.262e+04 1.992e-09
  6.55351     89.6 1.261e+04 1.998e-09
  6.57376     90.8 1.257e+04 1.976e-09
  6.58701     91.9 1.245e+04 1.891e-09
  6.59713     91.9 1.282e+04 2.199e-09
  6.61425     92.9 1.259e+04 2.038e-09
  6.63450     93.9 1.225e+04 1.799e-09
  6.65448     94.8 1.182e+04 1.525e-09
  6.66461     94.9 1.186e+04 1.547e-09
  6.67499     95.8 1.144e+04 1.306e-09
  6.69524     96.8 1.104e+04 1.106e-09
  6.71548     97.8 1.069e+04 9.453e-10
  6.73208     98.9 1.037e+04 8.116e-10
  6.74221     99.0 1.045e+04 8.269e-10
  6.75598    100.1 1.023e+04 7.334e-10
  6.77622    101.3 1.004e+04 6.462e-10
  6.79647    102.4 9.825e+03 5.310e-10
  6.80968    102.9 9.674e+03 4.667e-10
  6.81980    103.4 9.786e+03 5.044e-10
  6.84719    105.3 9.755e+03 4.640e-10
  6.88778    107.2 9.502e+03 3.691e-10
  6.92827    108.8 9.124e+03 2.827e-10
  6.95495    110.2 8.861e+03 2.406e-10
  6.97519    111.4 9.034e+03 2.606e-10
  7.00926    112.9 8.988e+03 2.566e-10
  7.04975    114.2 9.040e+03 2.679e-10
  7.08989    115.3 9.299e+03 3.157e-10
  7.11014    116.7 9.568e+03 3.428e-10
  7.13074    117.3 9.870e+03 3.985e-10
  7.17123    117.7 1.005e+04 4.242e-10
  7.21173    118.1 1.007e+04 4.194e-10
  7.24509    118.7 1.005e+04 3.938e-10
  7.26533    119.5 1.007e+04 3.901e-10
  7.29271    119.7 9.904e+03 3.391e-10
  7.33321    119.7 9.633e+03 2.846e-10
  7.37370    119.7 9.442e+03 2.614e-10
  7.40028    119.9 9.449e+03 2.656e-10
  7.42053    119.8 9.445e+03 2.638e-10
  7.45469    119.3 9.593e+03 2.976e-10
  7.47778    119.1 9.698e+03 3.343e-10
  7.48781    119.0 9.716e+03 3.334e-10
  7.50511    118.7 9.870e+03 3.847e-10
  7.52536    118.4 1.010e+04 4.762e-10
  7.54516    118.2 1.034e+04 6.031e-10
  7.55528    117.6 1.036e+04 5.813e-10
  7.56585    115.3 1.149e+04 8.971e-10
  7.58610    110.7 1.412e+04 1.862e-09
  7.60634    106.4 1.622e+04 4.174e-09
  7.62275    104.1 1.716e+04 7.352e-09
  7.63288    101.2 1.697e+04 7.677e-09
  7.64684    100.0 1.685e+04 7.420e-09
  7.66708     98.9 1.632e+04 5.674e-09
  7.68733     96.9 1.572e+04 2.977e-09
  7.70035     92.0 1.492e+04 1.209e-09
  7.71048     82.9 1.343e+04 6.949e-10
  7.72782     77.1 1.104e+04 6.682e-10
  7.74807     75.4 1.088e+04 7.111e-10
  7.76783     74.9 1.093e+04 8.734e-10
  7.77795     72.9 1.075e+04 9.468e-10
  7.78856     73.0 1.102e+04 1.078e-09
  7.80881     72.9 1.133e+04 1.124e-09
  7.82906     72.3 1.140e+04 1.107e-09
  7.84542     71.6 1.143e+04 1.021e-09
  7.85555     68.5 1.065e+04 6.770e-10
  7.86955     67.1 1.019e+04 5.530e-10
  7.88980     65.8 9.772e+03 4.681e-10
  7.91005     64.8 9.494e+03 4.228e-10
  7.92302     64.0 9.353e+03 3.827e-10
  7.93314     63.1 9.268e+03 3.406e-10
  7.95054     62.7 9.160e+03 3.255e-10
  7.98047     62.5 9.238e+03 3.287e-10
  8.00081     60.7 8.570e+03 2.325e-10
  8.02160     60.0 8.712e+03 2.462e-10
  8.06209     59.3 9.113e+03 3.035e-10
  8.09236     58.3 9.361e+03 3.583e-10
  8.11251     57.9 9.604e+03 4.309e-10
  8.13276     57.6 1.006e+04 5.811e-10
  8.14569     57.6 1.053e+04 7.871e-10
  8.15581     57.7 1.025e+04 6.793e-10
  8.17325     57.7 1.074e+04 8.905e-10
  8.19350     57.8 1.118e+04 1.108e-09
  8.21316     57.9 1.159e+04 1.328e-09
  8.22329     58.0 1.136e+04 1.170e-09
  8.23400     58.2 1.171e+04 1.342e-09
  8.26446     58.5 1.204e+04 1.509e-09
  8.29095     58.8 1.197e+04 1.481e-09
  8.31120     59.0 1.171e+04 1.253e-09
  8.34555     59.8 1.162e+04 1.214e-09
  8.38604     61.0 1.127e+04 1.015e-09
  8.42590     62.4 1.092e+04 7.944e-10
  8.44605     61.8 1.119e+04 8.491e-10
  8.45671     62.2 1.138e+04 8.646e-10
  8.47696     62.7 1.166e+04 9.180e-10
  8.49720     63.1 1.197e+04 1.005e-09
  8.51343     63.4 1.226e+04 1.125e-09
  8.52355     62.5 1.336e+04 1.836e-09
  8.53770     62.9 1.365e+04 2.108e-09
  8.55794     63.3 1.396e+04 2.466e-09
  8.57819     63.7 1.425e+04 2.933e-09
  8.59102     64.1 1.455e+04 3.524e-09
  8.60115     64.0 1.497e+04 4.656e-09
  8.61868     64.6 1.513e+04 5.182e-09
  8.63893     65.3 1.529e+04 5.566e-09
  8.65850     66.0 1.538e+04 5.674e-09
  8.66862     65.8 1.515e+04 5.471e-09
  8.67943     66.2 1.496e+04 5.159e-09
  8.69967     66.5 1.466e+04 4.637e-09
  8.71992     66.8 1.427e+04 3.970e-09
  8.73610     67.0 1.378e+04 3.211e-09
  8.74622     65.9 1.324e+04 2.333e-09
  8.76041     66.1 1.274e+04 1.917e-09
  8.78066     66.4 1.226e+04 1.516e-09
  8.80091     66.7 1.178e+04 1.217e-09
  8.82437     67.2 1.108e+04 8.517e-10
  8.84471     65.0 1.058e+04 7.330e-10
  8.87124     66.0 9.955e+03 5.486e-10
  8.89148     64.5 1.019e+04 5.884e-10
  8.91246     65.6 1.004e+04 5.285e-10
  8.95295     66.9 9.929e+03 4.697e-10
  8.99345     68.5 9.718e+03 3.813e-10
  9.02643     70.4 9.412e+03 2.836e-10
  9.04668     68.4 9.666e+03 3.168e-10
  9.07443     70.1 9.174e+03 1.933e-10
  9.11493     71.6 8.825e+03 1.356e-10
  9.15542     73.5 8.653e+03 1.279e-10
  9.18163     75.8 8.632e+03 1.289e-10
  9.20187     74.7 8.618e+03 1.509e-10
  9.23641     77.3 8.621e+03 1.559e-10
  9.27690     79.9 8.693e+03 1.697e-10
  9.31657     82.3 8.828e+03 1.951e-10
  9.33682     81.4 8.843e+03 2.064e-10
  9.35789     83.7 9.043e+03 2.596e-10
  9.39838     85.8 9.345e+03 3.474e-10
  9.43888     87.8 9.769e+03 4.750e-10
  9.47177     89.7 1.026e+04 6.407e-10
  9.49202     88.8 1.017e+04 5.878e-10
  9.51986     90.0 1.056e+04 6.957e-10
  9.56036     90.9 1.081e+04 7.516e-10
  9.60085     91.6 1.086e+04 7.485e-10
  9.62696     92.1 1.085e+04 7.005e-10
  9.64721     90.4 1.146e+04 1.009e-09
  9.68184     90.7 1.143e+04 9.911e-10
  9.72233     91.4 1.123e+04 8.735e-10
  9.75260     91.6 1.108e+04 8.050e-10
  9.77184     91.9 1.089e+04 7.212e-10
  9.78196     91.1 1.113e+04 8.528e-10
  9.79300     91.6 1.079e+04 6.655e-10
  9.81325     91.9 1.049e+04 5.367e-10
  9.84372     92.4 1.019e+04 4.359e-10
  9.88431     93.4 9.657e+03 3.023e-10
  9.91710     94.4 9.238e+03 2.372e-10
  9.93735     92.4 8.973e+03 2.078e-10
  9.96529     93.8 8.952e+03 2.074e-10
 10.00579     95.4 8.951e+03 2.093e-10
 10.04628     96.9 8.988e+03 2.185e-10
 10.07230     98.2 9.058e+03 2.314e-10
 10.09255     97.0 9.091e+03 2.447e-10
 10.12727     98.3 9.130e+03 2.515e-10
 10.16776     99.5 9.120e+03 2.493e-10
 10.20725    100.6 9.074e+03 2.382e-10
 10.22749     99.6 8.910e+03 1.993e-10
 10.24875    100.4 8.931e+03 1.960e-10
 10.28924    100.9 8.990e+03 2.070e-10
 10.32974    100.7 9.338e+03 2.361e-10
 10.36244    100.0 9.878e+03 3.116e-10
 10.38259     97.4 1.036e+04 4.313e-10
 10.40041     96.8 1.056e+04 5.914e-10
 10.42065     96.6 1.064e+04 7.338e-10
 10.43984     96.7 1.071e+04 8.005e-10
 10.44997     95.8 1.070e+04 7.759e-10
 10.46115     95.9 1.065e+04 7.331e-10
 10.48139     95.7 1.054e+04 6.504e-10
 10.50164     95.3 1.039e+04 5.483e-10
 10.51744     94.7 1.023e+04 4.578e-10
 10.52756     93.1 1.012e+04 3.877e-10
 10.54213     92.2 1.012e+04 3.615e-10
 10.56238     91.4 1.013e+04 3.644e-10
 10.58263     90.7 1.013e+04 3.773e-10
 10.59504     90.2 1.018e+04 4.025e-10
 10.60516     89.5 1.009e+04 4.083e-10
 10.62312     89.2 1.018e+04 4.600e-10
 10.64337     88.8 1.048e+04 5.426e-10
 10.66251     88.3 1.082e+04 6.510e-10
 10.67263     87.6 1.095e+04 7.028e-10
 10.68386     86.8 1.155e+04 8.952e-10
 10.70411     86.4 1.188e+04 1.072e-09
 10.73458     86.5 1.216e+04 1.268e-09
 10.77517     86.1 1.220e+04 1.308e-09
 10.80778     85.8 1.192e+04 1.183e-09
 10.82802     85.5 1.159e+04 1.047e-09
 10.85615     85.6 1.093e+04 7.080e-10
 10.89665     85.5 1.021e+04 4.326e-10
 10.93714     85.4 9.879e+03 3.200e-10
 10.96297     85.6 9.888e+03 3.199e-10
 10.98322     85.3 1.004e+04 3.995e-10
 11.01813     85.8 1.028e+04 4.911e-10
 11.05862     86.3 1.062e+04 6.247e-10
 11.09792     86.6 1.093e+04 7.458e-10
 11.11817     86.9 1.115e+04 8.532e-10
 11.13961     87.0 1.113e+04 8.181e-10
 11.18010     86.6 1.110e+04 7.538e-10
 11.22060     85.8 1.116e+04 7.348e-10
 11.25311     84.6 1.130e+04 7.623e-10
 11.27326     81.2 1.169e+04 7.692e-10
 11.29127     79.8 1.236e+04 9.208e-10
 11.31151     78.5 1.333e+04 1.360e-09
 11.33052     76.7 1.433e+04 2.165e-09
 11.34064     74.1 1.483e+04 3.192e-09
 11.35201     72.9 1.547e+04 4.357e-09
 11.37225     71.9 1.614e+04 5.654e-09
 11.39250     71.1 1.676e+04 7.191e-09
 11.40811     70.4 1.709e+04 8.395e-09
 11.41824     68.2 1.610e+04 5.853e-09
 11.43299     67.1 1.599e+04 5.125e-09
 11.45324     65.5 1.564e+04 4.146e-09
 11.47349     63.6 1.511e+04 3.317e-09
 11.48571     61.8 1.470e+04 2.909e-09
 11.49583     57.8 1.278e+04 1.694e-09
 11.51398     56.4 1.254e+04 1.671e-09
 11.53423     55.2 1.233e+04 1.621e-09
 11.55318     53.9 1.218e+04 1.573e-09
 11.56331     51.6 1.137e+04 1.267e-09
 11.57472     50.0 1.151e+04 1.307e-09
 11.59497     47.4 1.196e+04 1.464e-09
 11.61521     44.1 1.290e+04 1.935e-09
 11.63078     40.8 1.405e+04 2.864e-09
 11.64090     40.3 1.301e+04 2.141e-09
 11.65571     38.0 1.384e+04 2.974e-09
 11.67596     36.2 1.455e+04 3.833e-09
 11.69620     34.3 1.472e+04 3.987e-09
 11.70838     32.6 1.447e+04 3.718e-09
 11.71850     33.3 1.330e+04 2.553e-09
 11.73670     31.6 1.282e+04 2.146e-09
 11.75694     30.0 1.218e+04 1.695e-09
 11.77585     28.7 1.156e+04 1.315e-09
 11.78598     29.4 1.145e+04 1.238e-09
 11.79744     28.6 1.109e+04 1.031e-09
 11.81768     28.0 1.077e+04 8.511e-10
 11.83793     27.7 1.063e+04 7.783e-10
 11.85345     27.7 1.057e+04 7.551e-10
 11.86357     28.6 1.075e+04 8.386e-10
 11.87842     28.6 1.079e+04 8.471e-10
 11.89649     28.7 1.090e+04 8.883e-10
 11.91684     30.0 1.097e+04 9.270e-10
 11.94948     30.2 1.142e+04 1.090e-09
 11.97976     29.4 1.213e+04 1.444e-09
 11.99852     29.2 1.244e+04 1.668e-09
 12.00864     29.0 1.310e+04 2.207e-09
 12.02015     28.9 1.309e+04 2.204e-09
 12.04040     29.0 1.295e+04 2.123e-09
 12.06065     29.1 1.262e+04 1.882e-09
 12.07612     29.2 1.217e+04 1.551e-09
 12.08624     29.1 1.245e+04 1.774e-09
 12.10114     29.0 1.184e+04 1.334e-09
 12.12139     28.9 1.123e+04 9.929e-10
 12.14163     28.7 1.066e+04 7.393e-10
 12.15371     28.7 1.016e+04 5.690e-10
 12.16384     28.6 1.015e+04 5.910e-10
 12.18213     29.1 9.667e+03 4.365e-10
 12.20237     29.2 9.467e+03 3.817e-10
 12.23284     30.5 9.063e+03 2.885e-10
 12.27343     32.3 8.535e+03 2.030e-10
 12.29898     34.0 8.309e+03 1.592e-10
 12.31923     34.0 8.332e+03 1.615e-10
 12.35442     35.9 8.412e+03 1.653e-10
 12.39491     38.2 8.805e+03 2.044e-10
 12.43393     40.3 9.284e+03 2.707e-10
 12.45408     39.6 9.700e+03 4.054e-10
 12.46558     40.3 1.004e+04 5.352e-10
 12.48583     41.3 1.034e+04 6.851e-10
 12.50608     42.5 1.064e+04 8.378e-10
 12.52145     43.7 1.095e+04 9.906e-10
 12.53158     43.8 1.108e+04 1.061e-09
 12.54657     44.9 1.139e+04 1.207e-09
 12.56682     45.8 1.169e+04 1.361e-09
 12.58706     46.6 1.198e+04 1.522e-09
 12.59905     47.3 1.230e+04 1.710e-09
 12.60917     47.2 1.221e+04 1.702e-09
 12.62756     47.8 1.244e+04 1.914e-09
 12.64780     48.3 1.266e+04 2.145e-09
 12.66652     48.9 1.286e+04 2.387e-09
 12.67665     48.8 1.252e+04 2.141e-09
 12.68830     49.6 1.269e+04 2.331e-09
 12.70854     50.4 1.292e+04 2.463e-09
 12.72879     51.3 1.316e+04 2.517e-09
 12.74412     51.8 1.335e+04 2.539e-09
 12.75424     51.8 1.284e+04 2.057e-09
 12.76928     51.7 1.297e+04 2.089e-09
 12.78953     51.1 1.342e+04 2.261e-09
 12.80978     48.7 1.484e+04 3.051e-09
 12.82172     45.6 1.670e+04 5.324e-09
 12.83184     45.2 1.619e+04 4.420e-09
 12.85027     42.9 1.763e+04 7.988e-09
 12.87052     41.6 1.857e+04 1.154e-08
 12.88919     40.4 1.881e+04 1.186e-08
 12.89932     39.8 1.841e+04 1.003e-08
 12.91101     38.8 1.817e+04 8.852e-09
 12.93126     37.3 1.739e+04 6.112e-09
 12.95151     34.3 1.596e+04 3.625e-09
 12.96679     30.5 1.399e+04 2.271e-09
 12.97691     29.7 1.371e+04 2.237e-09
 12.99200     27.5 1.283e+04 1.981e-09
 13.01225     26.8 1.275e+04 1.971e-09
 13.03249     26.6 1.275e+04 1.959e-09
 13.04439     26.4 1.273e+04 1.917e-09
 13.05451     26.5 1.298e+04 2.187e-09
 13.07299     26.3 1.290e+04 2.074e-09
 13.09323     26.0 1.277e+04 1.906e-09
 13.11186     25.6 1.260e+04 1.720e-09
 13.12198     25.7 1.270e+04 1.791e-09
 13.13373     25.1 1.246e+04 1.594e-09
 13.15397     24.6 1.219e+04 1.420e-09
 13.17422     24.0 1.191e+04 1.248e-09
 13.18946     23.4 1.156e+04 1.087e-09
 13.19958     23.5 1.167e+04 1.161e-09
 13.21471     22.0 1.221e+04 1.237e-09
 13.23496     17.8 1.480e+04 1.781e-09
 13.25521     13.2 1.746e+04 3.365e-09
 13.26705     11.3 1.824e+04 5.883e-09
 13.27718     11.0 1.888e+04 8.913e-09
 13.29570     10.7 1.844e+04 1.057e-08
 13.31595     10.5 1.809e+04 1.010e-08
 13.33453     10.4 1.723e+04 8.291e-09
 13.34465     10.4 1.755e+04 9.114e-09
 13.35644     10.0 1.652e+04 6.615e-09
 13.37669      9.2 1.560e+04 4.921e-09
 13.39694      8.2 1.488e+04 3.960e-09
 13.41213      8.1 1.445e+04 3.555e-09
 13.42225      7.8 1.449e+04 3.599e-09
 13.43260      8.4 1.446e+04 3.595e-09
 13.44273      7.1 1.450e+04 3.444e-09
 13.45768      7.8 1.497e+04 3.781e-09
 13.47792      7.8 1.640e+04 4.737e-09
 13.48972      7.4 1.836e+04 6.818e-09
 13.49985      7.5 1.849e+04 7.238e-09
 13.51842      7.6 2.029e+04 1.176e-08
 13.53355      8.0 2.093e+04 1.419e-08
 13.54363      7.4 2.215e+04 1.899e-08
 13.55375      6.9 2.291e+04 2.880e-08
 13.56216      7.2 2.298e+04 4.591e-08
 13.56722      7.7 2.313e+04 4.744e-08
 13.57400      7.9 2.299e+04 7.810e-08
 13.58412      7.9 2.281e+04 1.186e-07
 13.59424      7.6 2.266e+04 1.619e-07
 13.60096      7.6 2.275e+04 1.928e-07
 13.60602      7.5 2.260e+04 1.907e-07
 13.61449      7.3 2.295e+04 1.944e-07
 13.62461      7.2 2.305e+04 1.793e-07
 13.63470      7.3 2.300e+04 1.507e-07
 13.64482      7.7 2.255e+04 1.153e-07
 13.65499      8.4 2.261e+04 1.003e-07
 13.66511      8.4 2.304e+04 9.249e-08
 13.67349      8.2 2.331e+04 8.661e-08
 13.67856      7.7 2.325e+04 8.911e-08
 13.68536      7.8 2.333e+04 8.065e-08
 13.69548      8.0 2.348e+04 7.044e-08
 13.70560      8.3 2.382e+04 5.977e-08
 13.71229      8.5 2.420e+04 4.831e-08
 13.71736      7.9 2.400e+04 5.055e-08
 13.72585      8.1 2.422e+04 4.039e-08
 13.73597      8.4 2.432e+04 3.027e-08
 13.74603      8.3 2.412e+04 2.266e-08
 13.75109      8.1 2.394e+04 2.300e-08
 13.75622      8.2 2.348e+04 1.716e-08
 13.76634      8.1 2.243e+04 1.320e-08
 13.77647      7.9 2.104e+04 1.028e-08
 13.78483      7.5 1.946e+04 8.483e-09
 13.78989      7.4 1.986e+04 7.966e-09
 13.79671      6.9 1.860e+04 6.349e-09
 13.80684      6.3 1.765e+04 5.379e-09
 13.81696      6.3 1.705e+04 4.676e-09
 13.82363      6.3 1.684e+04 4.384e-09
 13.82869      6.0 1.638e+04 3.772e-09
 13.84232      6.6 1.642e+04 3.814e-09
 13.85746      7.5 1.644e+04 3.930e-09
 13.86759      7.6 1.521e+04 2.769e-09
 13.88286      8.4 1.537e+04 2.876e-09
 13.90311      9.5 1.558e+04 3.046e-09
 13.92335     10.7 1.576e+04 3.296e-09
 13.93506     11.9 1.588e+04 3.614e-09
 13.94518     12.3 1.486e+04 2.358e-09
 13.96385     13.4 1.515e+04 2.721e-09
 13.98409     14.5 1.536e+04 3.155e-09
 14.00253     15.7 1.561e+04 3.628e-09
 14.01266     16.2 1.481e+04 2.557e-09
 14.02459     17.5 1.532e+04 3.198e-09
 14.04483     18.7 1.583e+04 3.927e-09
 14.06508     19.8 1.632e+04 4.848e-09
 14.08013     20.9 1.695e+04 6.003e-09
 14.09025     21.2 1.633e+04 4.890e-09
 14.10557     22.3 1.691e+04 6.315e-09
 14.12582     23.4 1.760e+04 7.942e-09
 14.14607     24.5 1.813e+04 9.473e-09
 14.15773     25.6 1.859e+04 1.080e-08
 14.16785     25.7 1.789e+04 1.039e-08
 14.18656     27.0 1.835e+04 1.185e-08
 14.20681     27.9 1.877e+04 1.298e-08
 14.22194     28.2 1.934e+04 1.366e-08
 14.23017     28.5 1.955e+04 1.398e-08
 14.23523     28.5 1.903e+04 1.225e-08
 14.24214     29.0 1.918e+04 1.254e-08
 14.25227     29.6 1.934e+04 1.291e-08
 14.26239     29.8 1.969e+04 1.350e-08
 14.26896     29.7 2.069e+04 1.487e-08
 14.27403     29.9 1.947e+04 9.724e-09
 14.28264     29.4 2.093e+04 1.093e-08
 14.29276     28.6 2.254e+04 1.333e-08
 14.30270     27.9 2.359e+04 1.764e-08
 14.30776     28.4 2.211e+04 8.864e-09
 14.31301     27.9 2.325e+04 1.164e-08
 14.32313     27.6 2.363e+04 1.564e-08
 14.33325     27.2 2.341e+04 2.052e-08
 14.34150     26.9 2.292e+04 2.564e-08
 14.34656     27.0 2.277e+04 1.086e-08
 14.35350     26.6 2.244e+04 1.338e-08
 14.36362     26.3 2.195e+04 1.607e-08
 14.37375     26.1 2.137e+04 1.879e-08
 14.38030     26.2 2.102e+04 2.112e-08
 14.38536     25.6 2.052e+04 1.088e-08
 14.39399     25.6 2.007e+04 1.278e-08
 14.40412     26.0 1.979e+04 1.458e-08
 14.41403     26.5 1.948e+04 1.677e-08
 14.41910     25.9 1.901e+04 1.037e-08
 14.42436     26.5 1.896e+04 1.221e-08
 14.43449     27.1 1.888e+04 1.394e-08
 14.44461     27.7 1.887e+04 1.513e-08
 14.45283     28.3 1.894e+04 1.580e-08
 14.45789     28.3 1.852e+04 1.237e-08
 14.46486     28.9 1.849e+04 1.345e-08
 14.47498     29.5 1.858e+04 1.362e-08
 14.48510     30.2 1.857e+04 1.317e-08
 14.49163     30.4 1.861e+04 1.283e-08
 14.49669     30.6 1.827e+04 1.196e-08
 14.51046     31.6 1.859e+04 1.280e-08
 14.52547     32.7 1.892e+04 1.167e-08
 14.53559     33.3 1.784e+04 1.084e-08
 14.55100     34.5 1.818e+04 1.035e-08
 14.57125     35.6 1.801e+04 8.923e-09
 14.59150     36.6 1.782e+04 6.959e-09
 14.60306     37.5 1.743e+04 4.880e-09
 14.61319     38.8 1.730e+04 7.171e-09
 14.63199     39.9 1.705e+04 5.394e-09
 14.65224     40.9 1.664e+04 3.691e-09
 14.67054     41.7 1.604e+04 2.352e-09
 14.68066     43.3 1.650e+04 4.295e-09
 14.69273     44.1 1.618e+04 3.036e-09
 14.71298     44.8 1.577e+04 2.085e-09
 14.73323     45.4 1.521e+04 1.452e-09
 14.74813     46.2 1.460e+04 1.046e-09
 14.75826     47.3 1.657e+04 2.637e-09
 14.77372     48.0 1.720e+04 2.189e-09
 14.79397     48.8 1.840e+04 1.765e-09
 14.81421     49.2 1.972e+04 1.333e-09
 14.82573     49.4 2.005e+04 1.183e-09
 14.83586     49.1 2.217e+04 8.125e-09
 14.85471     49.7 2.277e+04 7.600e-09
 14.87495     50.0 2.282e+04 6.325e-09
 14.89321     49.1 2.126e+04 6.025e-09
 14.90328     47.9 2.092e+04 8.859e-09
 14.91540     47.3 2.101e+04 1.121e-08
 14.93569     46.9 2.022e+04 1.243e-08
 14.95594     47.1 1.983e+04 1.586e-08
 14.96867     46.6 2.005e+04 2.068e-08
 14.97336     46.5 1.967e+04 2.086e-08
 14.97577     46.2 1.973e+04 2.115e-08
 14.98115     46.6 1.986e+04 2.657e-08
 14.99128     47.3 1.982e+04 3.175e-08
 15.00140     48.1 1.976e+04 3.316e-08
 15.00950     48.9 1.968e+04 3.254e-08
 15.01457     49.1 1.969e+04 1.889e-08
 15.02165     49.7 1.957e+04 1.756e-08
 15.03177     50.1 1.949e+04 1.555e-08
 15.04189     50.1 1.934e+04 1.318e-08
 15.04830     49.7 1.903e+04 1.093e-08
 15.05336     47.7 1.835e+04 5.573e-09
 15.06214     47.2 1.762e+04 5.037e-09
 15.07737     47.1 1.688e+04 4.734e-09
 15.09767     47.4 1.615e+04 4.818e-09
 15.11587     47.8 1.575e+04 4.894e-09
 15.12600     47.5 1.467e+04 2.237e-09
 15.13816     48.5 1.482e+04 2.700e-09
 15.15841     49.7 1.504e+04 3.290e-09
 15.17866     51.1 1.521e+04 3.821e-09
 15.19347     52.6 1.540e+04 4.284e-09
 15.20359     52.4 1.428e+04 2.116e-09
 15.21915     53.7 1.472e+04 2.679e-09
 15.23940     54.8 1.528e+04 3.354e-09
 15.25964     55.8 1.585e+04 4.132e-09
 15.27107     56.4 1.629e+04 4.653e-09
 15.28119     56.0 1.537e+04 2.816e-09
 15.30014     56.2 1.605e+04 3.547e-09
 15.32038     56.1 1.679e+04 4.336e-09
 15.33854     55.8 1.779e+04 6.356e-09
 15.34867     56.5 1.644e+04 3.510e-09
 15.36088     56.5 1.709e+04 4.460e-09
 15.38112     56.2 1.733e+04 5.430e-09
 15.40137     55.6 1.719e+04 5.893e-09
 15.41614     55.2 1.688e+04 5.811e-09
 15.42626     55.9 1.527e+04 3.094e-09
 15.44187     55.6 1.508e+04 3.134e-09
 15.46211     55.3 1.453e+04 2.900e-09
 15.48236     55.0 1.382e+04 2.392e-09
 15.49374     54.5 1.303e+04 1.809e-09
 15.50386     55.6 1.293e+04 1.780e-09
 15.52285     54.9 1.245e+04 1.437e-09
 15.54310     54.1 1.197e+04 1.021e-09
 15.56121     53.9 1.190e+04 9.223e-10
 15.57143     56.1 1.247e+04 1.233e-09
 15.59391     55.6 1.169e+04 8.268e-10
 15.63441     55.0 1.020e+04 5.296e-10
 15.67490     54.3 9.314e+03 3.980e-10
 15.70648     54.2 9.250e+03 3.579e-10
 15.72672     56.6 1.009e+04 5.547e-10
 15.74567     55.9 9.732e+03 4.665e-10
 15.76581     55.6 9.613e+03 4.608e-10
 15.78388     55.5 9.664e+03 4.809e-10
 15.79400     56.2 1.015e+04 6.303e-10
 15.80631     56.1 1.041e+04 7.099e-10
 15.82655     56.0 1.075e+04 8.218e-10
 15.84680     56.0 1.115e+04 9.647e-10
 15.86148     56.0 1.161e+04 1.139e-09
 15.87160     55.9 1.247e+04 1.659e-09
 15.88730     55.7 1.300e+04 2.008e-09
 15.90754     55.3 1.354e+04 2.413e-09
 15.92779     54.8 1.407e+04 2.895e-09
 15.93907     54.2 1.462e+04 3.511e-09
 15.94920     54.2 1.487e+04 4.185e-09
 15.96828     53.6 1.533e+04 4.835e-09
 15.98853     52.8 1.597e+04 5.677e-09
 16.00655     51.9 1.648e+04 6.866e-09
 16.01667     52.8 1.569e+04 5.602e-09
 16.02902     52.1 1.595e+04 5.707e-09
 16.04927     50.9 1.626e+04 5.901e-09
 16.06952     49.0 1.653e+04 6.094e-09
 16.08414     46.7 1.667e+04 6.270e-09
 16.09427     47.2 1.570e+04 4.358e-09
 16.11001     44.6 1.599e+04 5.111e-09
 16.13026     42.6 1.599e+04 5.507e-09
 16.15050     41.4 1.574e+04 5.244e-09
 16.16174     40.6 1.526e+04 4.243e-09
 16.17186     41.0 1.578e+04 5.725e-09
 16.19100     40.6 1.550e+04 4.697e-09
 16.21124     39.8 1.502e+04 3.025e-09
 16.22921     38.0 1.423e+04 1.616e-09
 16.23934     39.5 1.523e+04 3.194e-09
 16.25174     37.1 1.434e+04 1.779e-09
 16.27198     33.8 1.273e+04 1.071e-09
 16.29223     31.0 1.114e+04 8.990e-10
 16.30681     29.5 1.101e+04 9.693e-10
 16.31693     31.2 1.128e+04 1.025e-09
 16.33273     30.1 1.119e+04 1.064e-09
 16.35297     29.7 1.146e+04 1.242e-09
 16.37322     29.3 1.195e+04 1.497e-09
 16.38441     28.9 1.236e+04 1.719e-09
 16.39453     30.0 1.171e+04 1.289e-09
 16.41371     29.5 1.199e+04 1.402e-09
 16.43396     28.9 1.204e+04 1.404e-09
 16.45188     28.4 1.196e+04 1.319e-09
 16.46201     29.8 1.164e+04 1.158e-09
 16.47445     29.5 1.160e+04 1.096e-09
 16.49470     29.2 1.148e+04 9.742e-10
 16.51495     30.5 1.124e+04 8.442e-10
 16.52948     30.3 1.108e+04 7.188e-10
 16.53960     31.8 1.115e+04 7.729e-10
 16.55544     31.5 1.101e+04 6.670e-10
 16.57569     31.3 1.081e+04 5.681e-10
 16.59593     31.1 1.061e+04 5.077e-10
 16.60708     31.0 1.054e+04 4.990e-10
 16.61720     32.5 1.063e+04 5.013e-10
 16.63643     32.3 1.060e+04 5.042e-10
 16.65667     32.0 1.069e+04 5.328e-10
 16.67455     31.4 1.097e+04 6.287e-10
 16.68467     32.3 1.125e+04 6.391e-10
 16.69717     31.2 1.182e+04 8.647e-10
 16.71742     30.4 1.254e+04 1.218e-09
 16.73766     30.4 1.313e+04 1.644e-09
 16.75215     30.7 1.345e+04 2.021e-09
 16.76227     31.1 1.399e+04 2.374e-09
 16.77816     31.6 1.411e+04 2.617e-09
 16.79840     31.9 1.412e+04 2.635e-09
 16.81865     32.2 1.402e+04 2.542e-09
 16.82974     32.4 1.384e+04 2.310e-09
 16.83987     32.3 1.468e+04 3.113e-09
 16.85914     32.4 1.445e+04 2.849e-09
 16.87939     32.8 1.411e+04 2.495e-09
 16.89722     33.1 1.389e+04 2.209e-09
 16.90734     33.0 1.495e+04 3.450e-09
 16.91988     33.0 1.522e+04 3.541e-09
 16.94013     31.4 1.696e+04 4.335e-09
 16.96038     27.6 2.010e+04 7.559e-09
 16.97482     24.4 2.174e+04 1.468e-08
 16.98494     23.7 2.213e+04 2.162e-08
 16.99576     22.4 2.151e+04 2.696e-08
 17.00583     22.4 2.117e+04 2.761e-08
 17.01352     22.7 2.060e+04 2.639e-08
 17.01858     22.8 2.053e+04 2.925e-08
 17.02608     23.3 2.006e+04 2.312e-08
 17.04132     24.1 1.979e+04 1.554e-08
 17.05241     23.3 2.009e+04 5.360e-09
 17.06254     23.4 2.004e+04 4.368e-09
 17.08186     15.1 2.211e+04 8.466e-10
 17.10210      1.1 1.341e+04 4.956e-10
 17.11989     -6.4 1.155e+04 6.459e-10
 17.13001     -6.1 1.161e+04 6.663e-10
 17.14260     -7.2 1.153e+04 9.192e-10
 17.16285     -8.2 1.188e+04 1.252e-09
 17.18309     -9.1 1.215e+04 1.346e-09
 17.19748    -10.5 1.212e+04 1.292e-09
 17.20761    -10.1 1.223e+04 1.365e-09
 17.22359    -10.6 1.175e+04 1.149e-09
 17.25405    -12.9 1.114e+04 8.292e-10
 17.29464    -14.4 1.017e+04 4.803e-10
 17.33263    -16.3 9.613e+03 3.219e-10
 17.35287    -16.9 9.689e+03 3.223e-10
 17.37563    -18.1 9.574e+03 3.056e-10
 17.40590    -19.4 9.777e+03 3.581e-10
 17.42015    -19.4 1.003e+04 3.862e-10
 17.43028    -19.7 1.005e+04 3.874e-10
 17.44630    -20.8 1.057e+04 5.597e-10
 17.46655    -21.2 1.103e+04 6.496e-10
 17.48679    -23.1 1.165e+04 9.983e-10
 17.49775    -24.2 1.222e+04 1.256e-09
 17.50787    -25.0 1.221e+04 1.255e-09
 17.52729    -25.5 1.232e+04 1.615e-09
 17.54753    -25.2 1.243e+04 1.762e-09
 17.56522    -25.0 1.239e+04 1.713e-09
 17.57535    -25.3 1.248e+04 1.734e-09
 17.58803    -25.1 1.240e+04 1.393e-09
 17.60828    -27.0 1.264e+04 1.058e-09
 17.62852    -30.4 1.246e+04 8.144e-10
 17.64282    -34.0 1.217e+04 7.134e-10
 17.65294    -35.5 1.242e+04 7.647e-10
 17.66902    -38.3 1.243e+04 9.303e-10
 17.68926    -40.7 1.289e+04 1.286e-09
 17.70951    -42.7 1.347e+04 1.815e-09
 17.72042    -44.3 1.384e+04 2.433e-09
 17.73054    -45.0 1.380e+04 2.581e-09
 17.75000    -47.2 1.428e+04 3.052e-09
 17.77025    -51.8 1.607e+04 4.011e-09
 17.78789    -59.0 1.876e+04 6.189e-09
 17.79801    -60.2 1.897e+04 6.286e-09
 17.80563    -65.8 1.964e+04 9.200e-09
 17.81571    -67.8 1.992e+04 1.096e-08
 17.82583    -71.3 1.978e+04 1.405e-08
 17.83165    -73.1 2.002e+04 1.597e-08
 17.83672    -73.0 1.993e+04 1.626e-08
 17.84608    -74.9 2.013e+04 1.783e-08
 17.85620    -76.3 2.039e+04 1.806e-08
 17.86539    -78.1 2.098e+04 1.683e-08
 17.87045    -78.8 2.185e+04 2.093e-08
 17.87645    -81.1 2.341e+04 1.783e-08
 17.88657    -83.6 2.483e+04 1.253e-08
 17.89670    -86.8 2.468e+04 7.497e-09
 17.90419    -91.3 2.260e+04 3.982e-09
 17.90925    -90.9 2.321e+04 5.488e-09
 17.91694    -95.4 2.011e+04 3.129e-09
 17.93218    -99.4 1.762e+04 1.912e-09
 17.94309   -107.3 1.189e+04 8.795e-10
 17.95321   -108.6 1.247e+04 1.001e-09
 17.97272   -111.3 1.101e+04 8.025e-10
 17.99297   -112.7 1.093e+04 7.862e-10
 18.01056   -114.7 1.111e+04 8.400e-10
 18.02068   -115.8 1.095e+04 7.963e-10
 18.03082   -117.8 1.114e+04 8.881e-10
 18.04094   -119.1 1.124e+04 9.629e-10
 18.05371   -120.8 1.146e+04 1.120e-09
 18.07395   -122.1 1.164e+04 1.255e-09
 18.08816   -123.3 1.178e+04 1.349e-09
 18.09828   -124.0 1.144e+04 1.145e-09
 18.11445   -125.7 1.183e+04 1.279e-09
 18.13469   -128.3 1.320e+04 1.608e-09
 18.15494   -131.7 1.533e+04 2.351e-09
 18.16575   -135.4 1.723e+04 3.922e-09
 18.17588   -135.5 1.635e+04 3.560e-09
 18.19543   -138.2 1.762e+04 5.756e-09
 18.21568   -140.1 1.873e+04 8.826e-09
 18.23323   -141.8 1.972e+04 1.182e-08
 18.24335   -142.0 1.885e+04 9.469e-09
 18.25617   -144.2 1.965e+04 1.075e-08
 18.27642   -147.2 1.989e+04 1.078e-08
 18.29156   -150.2 1.961e+04 9.108e-09
 18.30163   -152.1 1.977e+04 8.376e-09
 18.31073   -156.3 1.969e+04 6.922e-09
 18.32090   -158.8 1.911e+04 5.956e-09
 18.33205   -163.3 1.932e+04 5.650e-09
 18.34213   -168.4 1.903e+04 5.383e-09
 18.34953   -174.1 1.847e+04 5.131e-09
 18.35459   -173.9 1.870e+04 5.217e-09
 18.36237   -178.8 1.842e+04 5.174e-09
 18.37250   -182.8 1.810e+04 5.208e-09
 18.38262   -185.8 1.768e+04 5.536e-09
 18.38832   -188.3 1.743e+04 5.835e-09
 18.39339   -188.0 1.743e+04 5.945e-09
 18.40287   -189.9 1.728e+04 6.111e-09
 18.41299   -191.2 1.724e+04 6.149e-09
 18.42206   -192.1 1.692e+04 6.159e-09
 18.42712   -191.3 1.692e+04 6.206e-09
 18.43324   -191.8 1.648e+04 5.976e-09
 18.44336   -191.9 1.610e+04 5.605e-09
 18.45585   -192.0 1.568e+04 5.088e-09
 18.46602   -190.9 1.566e+04 5.163e-09
 18.47889   -190.6 1.495e+04 4.147e-09
 18.49914   -190.2 1.406e+04 3.084e-09
 18.51938   -189.8 1.319e+04 2.218e-09
 18.53349   -189.2 1.229e+04 1.586e-09
 18.54362   -188.2 1.240e+04 1.660e-09
 18.55988   -187.3 1.162e+04 1.217e-09
 18.58012   -185.9 1.100e+04 9.077e-10
 18.60037   -184.2 1.058e+04 6.821e-10
 18.61109   -182.5 1.029e+04 5.184e-10
 18.62121   -182.0 1.023e+04 5.465e-10
 18.64086   -180.5 1.008e+04 4.403e-10
 18.66854   -179.4 9.973e+03 3.768e-10
 18.68888   -177.9 9.895e+03 3.950e-10
 18.71192   -176.2 9.716e+03 3.300e-10
 18.75242   -173.5 9.362e+03 2.484e-10
 18.79291   -170.7 9.014e+03 1.833e-10
 18.82383   -167.9 8.732e+03 1.379e-10
 18.84408   -166.8 8.816e+03 1.553e-10
 18.87390   -164.1 8.569e+03 1.159e-10
 18.91439   -161.4 8.361e+03 8.898e-11
 18.95488   -158.7 8.213e+03 7.295e-11
 18.97902   -155.9 8.089e+03 6.234e-11
 18.99927   -155.0 8.110e+03 6.492e-11
 19.03587   -152.1 8.007e+03 5.661e-11
 19.07637   -149.2 7.944e+03 5.256e-11
 19.11397   -146.2 7.925e+03 5.138e-11
 19.13422   -145.3 7.964e+03 5.781e-11
 19.15735   -142.3 7.954e+03 5.647e-11
 19.19785   -139.3 7.958e+03 5.636e-11
 19.23834   -136.8 8.010e+03 5.905e-11
 19.26917   -134.7 8.291e+03 9.317e-11
 19.28941   -133.0 8.078e+03 7.404e-11
 19.31933   -130.9 8.491e+03 1.320e-10
 19.35982   -128.8 9.130e+03 2.713e-10
 19.40031   -126.7 9.789e+03 4.973e-10
 19.42436   -124.9 1.034e+04 7.463e-10
 19.44461   -122.7 1.025e+04 6.549e-10
 19.48130   -121.1 1.083e+04 9.556e-10
 19.52180   -120.1 1.112e+04 1.102e-09
 19.55931   -119.4 1.117e+04 1.116e-09
 19.57955   -116.7 1.185e+04 1.436e-09
 19.60278   -116.7 1.187e+04 1.443e-09
 19.64328   -116.8 1.137e+04 1.218e-09
 19.67355   -116.9 1.081e+04 1.090e-09
 19.69370   -117.0 1.054e+04 9.761e-10
 19.71395   -117.2 1.037e+04 8.695e-10
 19.72443   -117.3 1.031e+04 7.822e-10
 19.73455   -119.3 1.150e+04 1.142e-09
 19.75444   -121.7 1.326e+04 1.638e-09
 19.77469   -123.4 1.530e+04 2.725e-09
 19.79190   -124.3 1.677e+04 4.145e-09
 19.80203   -127.7 1.954e+04 1.221e-08
 19.81518   -128.1 2.032e+04 1.395e-08
 19.83543   -128.4 2.110e+04 1.553e-08
 19.85567   -129.0 2.159e+04 1.651e-08
 19.86950   -130.0 2.189e+04 1.722e-08
 19.87962   -135.7 2.089e+04 1.527e-08
 19.89617   -137.8 1.974e+04 1.144e-08
 19.91641   -140.2 1.820e+04 7.519e-09
 19.93666   -143.0 1.616e+04 4.361e-09
 19.94710   -145.8 1.431e+04 2.534e-09
 19.95722   -150.8 1.242e+04 1.716e-09
 19.97715   -151.7 1.171e+04 1.333e-09
 19.99740   -152.7 1.108e+04 1.014e-09
 20.01457   -153.5 1.055e+04 7.690e-10
 20.02470   -154.5 1.051e+04 7.668e-10
 20.03789   -155.1 1.001e+04 6.003e-10
 20.05814   -155.8 9.601e+03 4.956e-10
 20.07839   -156.4 9.331e+03 4.307e-10
 20.09217   -156.9 9.152e+03 3.922e-10
 20.10229   -156.7 9.183e+03 4.080e-10
 20.11888   -156.8 9.022e+03 3.759e-10
 20.13913   -156.8 8.924e+03 3.575e-10
 20.15938   -156.5 8.845e+03 3.482e-10
 20.16977   -156.0 8.805e+03 3.427e-10
 20.17989   -155.4 8.801e+03 3.432e-10
 20.19987   -154.6 8.782e+03 3.410e-10
 20.22012   -153.7 8.789e+03 3.428e-10
 20.23724   -152.7 8.863e+03 3.550e-10
 20.24736   -152.3 8.952e+03 3.791e-10
 20.26061   -151.1 9.078e+03 4.072e-10
 20.28086   -149.8 9.211e+03 4.456e-10
 20.30110   -148.4 9.337e+03 4.921e-10
 20.31484   -146.9 9.455e+03 5.486e-10
 20.32496   -146.9 9.655e+03 6.273e-10
 20.34160   -145.7 1.009e+04 7.730e-10
 20.36184   -145.3 1.093e+04 1.020e-09
 20.38209   -145.5 1.223e+04 1.447e-09
 20.39243   -146.1 1.386e+04 2.196e-09
 20.40256   -148.1 1.521e+04 3.567e-09
 20.42258   -148.7 1.669e+04 5.702e-09
 20.44283   -149.5 1.783e+04 8.401e-09
 20.45991   -151.0 1.871e+04 1.096e-08
 20.47003   -152.4 1.902e+04 1.442e-08
 20.48332   -155.0 1.947e+04 1.520e-08
 20.50357   -158.1 1.974e+04 1.527e-08
 20.52382   -161.5 2.007e+04 1.486e-08
 20.53746   -164.0 2.040e+04 1.544e-08
 20.54247   -163.7 2.014e+04 1.549e-08
 20.54903   -164.9 2.010e+04 1.539e-08
 20.55915   -166.5 1.998e+04 1.526e-08
 20.56928   -167.5 1.981e+04 1.504e-08
 20.57621   -168.7 1.949e+04 1.450e-08
 20.58127   -168.3 1.926e+04 1.332e-08
 20.58952   -168.9 1.899e+04 1.271e-08
 20.59965   -169.7 1.864e+04 1.172e-08
 20.60977   -170.0 1.838e+04 1.105e-08
 20.61501   -170.4 1.796e+04 1.003e-08
 20.62007   -170.1 1.760e+04 8.828e-09
 20.63002   -170.4 1.732e+04 8.255e-09
 20.64014   -170.6 1.704e+04 7.720e-09
 20.64874   -170.8 1.671e+04 7.130e-09
 20.65380   -170.6 1.660e+04 6.858e-09
 20.66039   -170.7 1.632e+04 6.464e-09
 20.67051   -170.7 1.605e+04 6.026e-09
 20.68063   -170.8 1.575e+04 5.514e-09
 20.68754   -170.9 1.543e+04 4.975e-09
 20.69260   -170.5 1.564e+04 5.328e-09
 20.70088   -170.4 1.541e+04 4.938e-09
 20.71100   -170.4 1.522e+04 4.576e-09
 20.72113   -170.4 1.494e+04 4.089e-09
 20.72634   -170.4 1.470e+04 3.702e-09
 20.73140   -169.9 1.507e+04 4.088e-09
 20.74137   -170.0 1.483e+04 3.555e-09
 20.75150   -170.1 1.483e+04 3.293e-09
 20.76013   -170.4 1.493e+04 2.952e-09
 20.76519   -169.5 1.503e+04 3.270e-09
 20.77174   -169.7 1.516e+04 3.201e-09
 20.78698   -170.1 1.543e+04 3.179e-09
 20.80727   -171.0 1.503e+04 2.627e-09
 20.82752   -171.9 1.463e+04 2.347e-09
 20.83777   -172.3 1.427e+04 2.270e-09
 20.84789   -172.0 1.503e+04 3.134e-09
 20.86801   -172.0 1.483e+04 3.117e-09
 20.88826   -171.7 1.451e+04 3.342e-09
 20.90524   -170.8 1.443e+04 3.729e-09
 20.91537   -170.2 1.476e+04 4.419e-09
 20.92875   -169.1 1.469e+04 4.745e-09
 20.94900   -168.0 1.468e+04 4.985e-09
 20.96925   -167.0 1.468e+04 5.108e-09
 20.98284   -166.1 1.451e+04 4.946e-09
 20.99297   -165.4 1.455e+04 5.010e-09
 21.00974   -164.5 1.438e+04 4.675e-09
 21.02999   -163.8 1.418e+04 4.307e-09
 21.05024   -163.2 1.393e+04 3.825e-09
 21.07048   -162.2 1.376e+04 3.436e-09
 21.09073   -161.9 1.350e+04 2.975e-09
 21.10304   -162.0 1.320e+04 2.559e-09
 21.11316   -162.3 1.366e+04 3.260e-09
 21.12791   -162.4 1.322e+04 2.694e-09
 21.13804   -161.6 1.343e+04 2.869e-09
 21.15147   -161.8 1.284e+04 2.243e-09
 21.17172   -161.9 1.215e+04 1.696e-09
 21.19196   -161.8 1.148e+04 1.260e-09
 21.20551   -161.7 1.086e+04 9.166e-10
 21.21563   -161.1 1.097e+04 9.546e-10
 21.23246   -160.8 1.041e+04 6.839e-10
 21.25270   -160.2 9.943e+03 4.840e-10
 21.27295   -159.7 9.669e+03 3.659e-10
 21.30342   -159.5 9.561e+03 3.040e-10
 21.34065   -159.0 9.480e+03 2.626e-10
 21.36090   -159.1 9.872e+03 3.058e-10
 21.38450   -159.3 1.003e+04 3.044e-10
 21.42500   -160.7 1.055e+04 4.201e-10
 21.46549   -162.8 1.100e+04 7.122e-10
 21.49585   -165.5 1.107e+04 8.973e-10
 21.51609   -167.0 1.152e+04 1.080e-09
 21.53626   -168.3 1.108e+04 1.008e-09
 21.55641   -170.0 1.061e+04 8.378e-10
 21.57325   -171.4 1.007e+04 6.343e-10
 21.58337   -172.3 9.999e+03 5.991e-10
 21.59690   -173.2 9.543e+03 4.544e-10
 21.61715   -173.6 9.232e+03 3.683e-10
 21.63739   -173.8 9.092e+03 3.271e-10
 21.65094   -173.9 8.935e+03 2.880e-10
 21.67129   -175.0 8.904e+03 2.772e-10
 21.70845   -174.4 8.454e+03 2.033e-10
 21.74895   -172.7 8.027e+03 1.536e-10
 21.78599   -170.8 7.824e+03 1.297e-10
 21.80624   -170.8 7.796e+03 1.227e-10
 21.82993   -168.9 7.701e+03 1.101e-10
 21.87043   -167.0 7.665e+03 1.059e-10
 21.91092   -165.0 7.657e+03 1.051e-10
 21.94118   -163.2 7.658e+03 1.051e-10
 21.96143   -163.2 7.617e+03 9.675e-11
 21.99191   -161.6 7.615e+03 9.853e-11
 22.03240   -160.3 7.771e+03 1.181e-10
 22.07290   -159.1 8.150e+03 1.643e-10
 22.09638   -157.9 8.636e+03 2.408e-10
 22.11662   -158.1 8.556e+03 2.253e-10
 22.15388   -156.9 9.019e+03 3.248e-10
 22.19438   -155.9 9.381e+03 4.215e-10
 22.23133   -154.9 9.579e+03 4.821e-10
 22.25157   -154.9 9.443e+03 4.222e-10
 22.27536   -154.3 9.489e+03 4.265e-10
 22.31586   -153.8 9.415e+03 3.680e-10
 22.35635   -153.4 9.235e+03 2.933e-10
 22.38652   -152.8 9.096e+03 2.435e-10
 22.40677   -152.6 8.885e+03 2.020e-10
 22.43734   -152.0 8.854e+03 1.875e-10
 22.47783   -151.3 8.851e+03 1.852e-10
 22.51833   -150.7 8.970e+03 1.942e-10
 22.54171   -150.0 9.159e+03 2.336e-10
 22.56196   -150.2 9.148e+03 2.216e-10
 22.59931   -149.5 9.335e+03 2.763e-10
 22.63981   -148.7 9.487e+03 3.250e-10
 22.67666   -147.9 9.609e+03 3.567e-10
 22.69691   -148.1 9.585e+03 3.333e-10
 22.72079   -147.3 9.660e+03 3.441e-10
 22.76129   -146.6 9.748e+03 3.525e-10
 22.80178   -146.1 9.937e+03 3.782e-10
 22.83186   -145.8 1.026e+04 4.513e-10
 22.85210   -146.1 1.015e+04 4.071e-10
 22.88277   -146.1 1.058e+04 5.338e-10
 22.92326   -146.1 1.113e+04 7.359e-10
 22.96376   -146.2 1.174e+04 1.022e-09
 22.98705   -146.4 1.228e+04 1.359e-09
 23.00730   -146.2 1.201e+04 1.219e-09
 23.04474   -146.3 1.230e+04 1.460e-09
 23.07502   -145.8 1.213e+04 1.401e-09
 23.09517   -145.7 1.216e+04 1.432e-09
 23.11541   -145.4 1.202e+04 1.367e-09
 23.13193   -145.0 1.183e+04 1.247e-09
 23.14205   -144.7 1.166e+04 1.128e-09
 23.15591   -144.3 1.150e+04 1.047e-09
 23.17615   -143.8 1.137e+04 9.548e-10
 23.19640   -143.4 1.126e+04 8.637e-10
 23.20952   -143.0 1.116e+04 7.797e-10
 23.21965   -142.8 1.110e+04 7.570e-10
 23.23689   -142.4 1.103e+04 6.988e-10
 23.25714   -142.1 1.095e+04 6.447e-10
 23.27700   -141.7 1.084e+04 5.881e-10
 23.28712   -141.5 1.083e+04 5.889e-10
 23.29763   -141.0 1.071e+04 5.307e-10
 23.31788   -140.5 1.054e+04 4.705e-10
 23.33813   -140.0 1.038e+04 4.174e-10
 23.36859   -139.2 1.022e+04 3.698e-10
 23.40919   -137.6 9.977e+03 3.165e-10
 23.43239   -135.9 9.879e+03 2.972e-10
 23.45263   -135.3 9.644e+03 2.342e-10
 23.49017   -133.4 9.481e+03 2.089e-10
 23.53067   -131.3 9.424e+03 2.024e-10
 23.56733   -129.4 9.396e+03 2.041e-10
 23.58758   -128.6 9.189e+03 1.504e-10
 23.61165   -126.7 9.226e+03 1.667e-10
 23.65215   -125.0 9.410e+03 2.132e-10
 23.69264   -123.3 9.628e+03 2.754e-10
 23.72253   -121.6 9.845e+03 3.299e-10
 23.74278   -120.8 9.748e+03 3.162e-10
 23.77363   -119.1 9.967e+03 3.711e-10
 23.81412   -117.5 1.010e+04 3.963e-10
 23.85462   -116.1 1.024e+04 3.771e-10
 23.87772   -115.0 1.025e+04 3.425e-10
 23.88775   -113.9 1.018e+04 3.758e-10
 23.90504   -113.5 1.018e+04 3.588e-10
 23.92529   -113.0 1.021e+04 3.518e-10
 23.94500   -112.8 1.027e+04 3.711e-10
 23.95512   -112.3 1.030e+04 3.983e-10
 23.97600   -112.1 1.036e+04 4.072e-10
 24.01267   -111.3 1.028e+04 4.046e-10
 24.03282   -109.6 1.035e+04 4.661e-10
 24.04677   -109.2 1.035e+04 4.800e-10
 24.06701   -108.9 1.030e+04 4.731e-10
 24.09748   -108.3 1.023e+04 4.729e-10
 24.13807   -107.2 9.899e+03 3.781e-10
 24.16534   -106.0 9.561e+03 2.790e-10
 24.17488   -105.3 9.888e+03 3.579e-10
 24.18811   -104.3 1.033e+04 5.416e-10
 24.21906   -103.1 1.001e+04 4.097e-10
 24.25955   -101.9 9.705e+03 3.091e-10
 24.30005   -100.8 9.508e+03 2.657e-10
 24.32306    -99.9 9.379e+03 2.536e-10
 24.34331    -98.9 1.015e+04 4.335e-10
 24.38103    -98.5 1.003e+04 4.235e-10
 24.42153    -99.1 9.836e+03 4.429e-10
 24.45180   -101.1 1.090e+04 6.721e-10
 24.46793   -102.8 1.183e+04 1.032e-09
 24.47806   -103.2 1.208e+04 1.163e-09
 24.49220   -105.5 1.307e+04 1.721e-09
 24.51244   -107.8 1.427e+04 2.993e-09
 24.53269   -109.2 1.540e+04 5.145e-09
 24.54553   -110.0 1.635e+04 7.807e-09
 24.55566   -110.9 1.592e+04 6.665e-09
 24.57318   -112.7 1.652e+04 7.777e-09
 24.59343   -115.6 1.670e+04 8.023e-09
 24.61301   -119.5 1.669e+04 7.444e-09
 24.62313   -121.5 1.638e+04 6.429e-09
 24.63392   -126.3 1.595e+04 5.031e-09
 24.65417   -131.3 1.505e+04 3.593e-09
 24.67442   -135.8 1.402e+04 2.530e-09
 24.69060   -139.3 1.312e+04 1.850e-09
 24.70073   -141.6 1.293e+04 1.760e-09
 24.71491   -143.5 1.231e+04 1.360e-09
 24.73516   -144.6 1.190e+04 1.129e-09
 24.75540   -145.2 1.167e+04 9.930e-10
 24.76820   -145.5 1.155e+04 9.073e-10
 24.77832   -146.7 1.163e+04 9.575e-10
 24.79590   -146.5 1.156e+04 8.932e-10
 24.81615   -146.3 1.149e+04 8.224e-10
 24.83567   -145.9 1.141e+04 7.381e-10
 24.84580   -146.8 1.141e+04 7.484e-10
 24.85664   -146.4 1.128e+04 6.471e-10
 24.87689   -145.9 1.115e+04 5.557e-10
 24.89713   -145.3 1.106e+04 4.834e-10
 24.91327   -144.7 1.101e+04 4.340e-10
 24.92339   -145.6 1.099e+04 4.331e-10
 24.93763   -145.0 1.099e+04 4.074e-10
 24.95787   -144.4 1.099e+04 4.011e-10
 24.97812   -143.8 1.101e+04 4.013e-10
 24.99087   -143.3 1.120e+04 4.278e-10
 25.00099   -144.7 1.142e+04 4.769e-10
 25.01861   -144.2 1.171e+04 5.474e-10
 25.03886   -143.6 1.194e+04 6.224e-10
 25.05834   -143.1 1.213e+04 7.057e-10
 25.06847   -144.8 1.264e+04 8.805e-10
 25.07935   -144.3 1.283e+04 1.018e-09
 25.09960   -143.8 1.306e+04 1.214e-09
 25.11985   -143.3 1.336e+04 1.499e-09
 25.13594   -142.8 1.374e+04 1.902e-09
 25.14606   -144.0 1.412e+04 2.393e-09
 25.16034   -143.4 1.445e+04 2.885e-09
 25.18059   -142.8 1.471e+04 3.324e-09
 25.20084   -142.3 1.492e+04 3.633e-09
 25.21354   -141.9 1.502e+04 3.773e-09
 25.22366   -142.6 1.478e+04 3.679e-09
 25.24133   -142.0 1.459e+04 3.561e-09
 25.26158   -141.4 1.434e+04 3.247e-09
 25.28101   -140.7 1.409e+04 2.844e-09
 25.29113   -141.1 1.374e+04 2.538e-09
 25.30207   -140.4 1.358e+04 2.280e-09
 25.32232   -139.9 1.344e+04 2.004e-09
 25.34256   -139.4 1.331e+04 1.729e-09
 25.35861   -138.9 1.313e+04 1.508e-09
 25.36873   -139.0 1.319e+04 1.631e-09
 25.38306   -138.6 1.306e+04 1.453e-09
 25.40330   -138.2 1.290e+04 1.308e-09
 25.42355   -138.0 1.272e+04 1.198e-09
 25.43620   -137.7 1.253e+04 1.105e-09
 25.44633   -137.8 1.278e+04 1.253e-09
 25.46404   -137.5 1.260e+04 1.164e-09
 25.48429   -137.2 1.246e+04 1.077e-09
 25.50368   -136.9 1.233e+04 9.923e-10
 25.51380   -137.2 1.246e+04 1.083e-09
 25.52478   -136.9 1.225e+04 9.651e-10
 25.54503   -136.7 1.202e+04 8.542e-10
 25.56528   -136.5 1.179e+04 7.566e-10
 25.58128   -136.3 1.158e+04 6.749e-10
 25.59140   -136.2 1.164e+04 7.052e-10
 25.60577   -136.0 1.145e+04 6.304e-10
 25.62602   -135.7 1.127e+04 5.731e-10
 25.64627   -135.6 1.115e+04 5.445e-10
 25.65897   -135.6 1.100e+04 5.136e-10
 25.67931   -134.9 1.120e+04 5.468e-10
 25.71732   -134.6 1.117e+04 5.397e-10
 25.75782   -135.6 1.149e+04 6.211e-10
 25.78809   -137.2 1.205e+04 8.915e-10
 25.80394   -138.8 1.219e+04 9.993e-10
 25.81407   -139.0 1.292e+04 1.496e-09
 25.82849   -141.0 1.313e+04 1.740e-09
 25.84873   -143.0 1.318e+04 1.814e-09
 25.86898   -144.8 1.314e+04 1.803e-09
 25.88154   -146.3 1.280e+04 1.566e-09
 25.89166   -146.8 1.362e+04 2.205e-09
 25.90947   -148.2 1.278e+04 1.528e-09
 25.92972   -149.3 1.208e+04 1.109e-09
 25.94901   -150.2 1.153e+04 8.523e-10
 25.95914   -151.0 1.175e+04 9.591e-10
 25.97021   -151.2 1.142e+04 7.985e-10
 25.99046   -151.1 1.115e+04 6.985e-10
 26.01071   -150.4 1.091e+04 6.312e-10
 26.02661   -149.8 1.073e+04 5.800e-10
 26.03674   -150.0 1.086e+04 6.212e-10
 26.05120   -149.3 1.071e+04 5.674e-10
 26.07145   -148.5 1.055e+04 5.244e-10
 26.09170   -147.8 1.042e+04 4.970e-10
 26.10431   -146.9 1.035e+04 4.837e-10
 26.11443   -147.0 1.043e+04 5.085e-10
 26.13219   -146.2 1.040e+04 5.060e-10
 26.16266   -145.1 1.043e+04 5.158e-10
 26.20325   -142.8 1.033e+04 5.033e-10
 26.23935   -140.8 1.033e+04 5.016e-10
 26.25960   -140.8 1.052e+04 5.395e-10
 26.28424   -139.0 1.053e+04 5.511e-10
 26.32473   -137.4 1.061e+04 5.777e-10
 26.36522   -136.1 1.070e+04 6.305e-10
 26.39455   -134.9 1.091e+04 7.382e-10
 26.41479   -135.2 1.106e+04 7.834e-10
 26.44621   -134.1 1.143e+04 9.708e-10
 26.48670   -133.3 1.186e+04 1.217e-09
 26.52720   -132.8 1.225e+04 1.449e-09
 26.54974   -132.8 1.256e+04 1.534e-09
 26.56999   -133.1 1.267e+04 1.639e-09
 26.60818   -133.6 1.296e+04 1.701e-09
 26.64868   -135.0 1.312e+04 1.705e-09
 26.68469   -136.3 1.319e+04 1.678e-09
 26.70484   -135.8 1.321e+04 1.818e-09
 26.72957   -136.3 1.287e+04 1.587e-09
 26.75994   -136.1 1.244e+04 1.273e-09
 26.77221   -136.1 1.224e+04 1.118e-09
 26.78234   -135.8 1.208e+04 1.023e-09
 26.80033   -135.8 1.174e+04 8.313e-10
 26.82058   -135.7 1.159e+04 7.010e-10
 26.83969   -135.4 1.140e+04 5.712e-10
 26.84981   -135.1 1.125e+04 5.027e-10
 26.86107   -134.7 1.126e+04 4.429e-10
 26.89154   -134.4 1.118e+04 3.962e-10
 26.93213   -133.9 1.108e+04 3.728e-10
 26.97263   -133.2 1.096e+04 3.596e-10
 26.99508   -132.5 1.089e+04 3.529e-10
 27.01532   -131.4 1.087e+04 3.687e-10
 27.05361   -130.9 1.085e+04 3.619e-10
 27.09411   -130.2 1.077e+04 3.408e-10
 27.13002   -129.4 1.068e+04 3.143e-10
 27.15027   -128.5 1.068e+04 3.205e-10
 27.17510   -127.5 1.058e+04 2.830e-10
 27.21559   -126.4 1.049e+04 2.468e-10
 27.23756   -125.1 1.048e+04 2.227e-10
 27.25781   -124.6 1.047e+04 2.042e-10
 27.28522   -123.3 1.050e+04 1.887e-10
 27.30547   -122.5 1.051e+04 1.831e-10
 27.33707   -121.3 1.054e+04 1.744e-10
 27.37756   -120.1 1.059e+04 1.752e-10
 27.41806   -118.8 1.066e+04 1.792e-10
 27.44041   -117.6 1.070e+04 1.804e-10
 27.46066   -117.0 1.069e+04 1.677e-10
 27.49905   -115.7 1.071e+04 1.680e-10
 27.53954   -114.5 1.075e+04 1.679e-10
 27.57536   -113.7 1.085e+04 1.695e-10
 27.59561   -113.4 1.090e+04 1.633e-10
 27.62053   -113.4 1.105e+04 2.044e-10
 27.66102   -113.6 1.122e+04 3.024e-10
 27.70151   -114.2 1.158e+04 4.619e-10
 27.73055   -115.7 1.198e+04 6.584e-10
 27.75080   -116.1 1.227e+04 8.257e-10
 27.78250   -118.8 1.243e+04 9.686e-10
 27.82299   -121.9 1.241e+04 1.070e-09
 27.86349   -124.7 1.229e+04 1.168e-09
 27.88575   -127.2 1.227e+04 1.193e-09
 27.90600   -128.3 1.248e+04 1.220e-09
 27.94448   -131.1 1.236e+04 1.100e-09
 27.98497   -134.1 1.210e+04 8.380e-10
 28.02070   -137.0 1.187e+04 6.978e-10
 28.04094   -138.7 1.209e+04 8.559e-10
 28.06596   -141.1 1.187e+04 7.223e-10
 28.10645   -143.2 1.166e+04 6.112e-10
 28.14694   -145.2 1.163e+04 5.536e-10
 28.17589   -147.0 1.169e+04 5.464e-10
 28.19614   -148.5 1.180e+04 5.165e-10
 28.22793   -150.3 1.206e+04 6.301e-10
 28.26842   -151.9 1.207e+04 7.508e-10
 28.30892   -153.1 1.203e+04 7.779e-10
 28.33109   -153.6 1.160e+04 7.442e-10
 28.35133   -154.3 1.151e+04 6.469e-10
 28.38991   -154.3 1.108e+04 4.548e-10
 28.43040   -153.8 1.069e+04 2.787e-10
 28.46603   -153.1 1.039e+04 1.686e-10
 28.48628   -153.3 1.045e+04 1.530e-10
 28.51139   -152.4 1.032e+04 1.091e-10
 28.55188   -151.5 1.024e+04 8.889e-11
 28.59237   -150.4 1.029e+04 8.085e-11
 28.62123   -149.3 1.031e+04 7.902e-11
 28.64147   -149.4 1.033e+04 7.895e-11
 28.67336   -148.4 1.035e+04 7.874e-11
 28.71385   -147.8 1.057e+04 8.273e-11
 28.75435   -147.3 1.086e+04 9.906e-11
 28.77642   -146.9 1.117e+04 1.359e-10
 28.79667   -148.0 1.137e+04 1.859e-10
 28.83534   -147.8 1.159e+04 2.597e-10
 28.87583   -148.0 1.182e+04 3.400e-10
 28.91137   -148.3 1.202e+04 4.272e-10
 28.93162   -149.9 1.194e+04 4.681e-10
 28.95682   -150.2 1.199e+04 5.087e-10
 28.99731   -150.4 1.191e+04 5.427e-10
 29.03780   -150.2 1.181e+04 5.565e-10
 29.06656   -149.8 1.164e+04 5.500e-10
 29.08681   -150.6 1.123e+04 3.982e-10
 29.11879   -149.6 1.103e+04 3.609e-10
 29.15928   -148.5 1.085e+04 3.277e-10
 29.19978   -147.1 1.069e+04 3.037e-10
 29.22176   -145.6 1.056e+04 2.878e-10
 29.24200   -145.8 1.028e+04 2.057e-10
 29.28077   -144.1 1.022e+04 2.042e-10
 29.32126   -142.3 1.018e+04 2.065e-10
 29.35671   -140.5 1.014e+04 2.168e-10
 29.37695   -140.4 9.959e+03 1.673e-10
 29.40225   -138.5 9.948e+03 1.809e-10
 29.44274   -136.6 9.941e+03 1.919e-10
 29.48323   -134.7 9.916e+03 1.962e-10
 29.51190   -132.8 9.881e+03 1.883e-10
 29.53215   -132.5 9.797e+03 1.571e-10
 29.56422   -130.7 9.752e+03 1.485e-10
 29.60471   -128.9 9.754e+03 1.378e-10
 29.64521   -127.4 9.772e+03 1.346e-10
 29.66709   -126.1 9.822e+03 1.400e-10
 29.68734   -125.8 9.829e+03 1.399e-10
 29.72620   -124.9 9.927e+03 1.726e-10
 29.76669   -124.1 1.007e+04 2.340e-10
 29.80204   -123.2 1.024e+04 3.004e-10
 29.82229   -123.0 1.031e+04 3.043e-10
 29.84768   -122.3 1.036e+04 3.263e-10
 29.88817   -121.5 1.038e+04 3.214e-10
 29.92866   -120.4 1.034e+04 2.616e-10
 29.95724   -119.1 1.029e+04 1.986e-10
 29.97748   -118.9 1.032e+04 1.957e-10
 30.00965   -117.6 1.030e+04 1.570e-10
 30.05015   -116.2 1.033e+04 1.418e-10
 30.09064   -114.6 1.036e+04 1.399e-10
 30.11243   -113.0 1.061e+04 1.441e-10
 30.13268   -112.8 1.078e+04 1.531e-10
 30.17163   -111.3 1.090e+04 1.787e-10
 30.21212   -109.7 1.100e+04 2.166e-10
 30.24738   -108.1 1.112e+04 2.569e-10
 30.26762   -107.9 1.124e+04 2.713e-10
 30.28954   -106.4 1.136e+04 3.205e-10
 30.30978   -106.0 1.136e+04 2.815e-10
 30.33360   -104.3 1.139e+04 3.168e-10
 30.37409   -102.7 1.137e+04 3.339e-10
 30.40257   -101.1 1.128e+04 3.134e-10
 30.42282   -100.8 1.147e+04 4.104e-10
 30.45508    -99.2 1.139e+04 3.896e-10
 30.49558    -97.6 1.130e+04 3.385e-10
 30.53607    -96.0 1.125e+04 2.839e-10
 30.55777    -94.5 1.123e+04 2.449e-10
 30.57801    -94.0 1.151e+04 3.992e-10
 30.61706    -92.5 1.147e+04 3.492e-10
 30.65755    -91.0 1.138e+04 3.062e-10
 30.69271    -89.4 1.124e+04 2.721e-10
 30.71296    -89.1 1.159e+04 4.250e-10
 30.73854    -87.5 1.145e+04 3.774e-10
 30.77903    -85.8 1.135e+04 3.492e-10
 30.81952    -84.0 1.129e+04 3.328e-10
 30.84791    -82.2 1.129e+04 3.115e-10
 30.86816    -82.0 1.162e+04 4.620e-10
 30.90051    -80.3 1.162e+04 4.470e-10
 30.94101    -78.7 1.159e+04 4.222e-10
 30.98150    -77.2 1.155e+04 3.877e-10
 31.00310    -75.8 1.148e+04 3.502e-10
 31.02335    -75.5 1.183e+04 5.883e-10
 31.06249    -74.0 1.173e+04 5.193e-10
 31.10298    -72.3 1.154e+04 4.136e-10
 31.13805    -70.7 1.140e+04 3.156e-10
 31.15830    -70.9 1.190e+04 4.626e-10
 31.18397    -70.3 1.236e+04 4.285e-10
 31.22446    -70.4 1.318e+04 5.485e-10
 31.26495    -71.1 1.381e+04 8.629e-10
 31.29324    -71.7 1.428e+04 1.492e-09
 31.30327    -72.5 1.469e+04 3.513e-09
 31.31538    -72.4 1.487e+04 4.142e-09
 31.33562    -72.2 1.503e+04 4.525e-09
 31.35587    -72.5 1.508e+04 4.716e-09
 31.37065    -72.6 1.504e+04 4.803e-09
 31.38077    -73.0 1.497e+04 4.737e-09
 31.39636    -73.0 1.480e+04 4.447e-09
 31.41661    -73.2 1.463e+04 4.025e-09
 31.43686    -73.7 1.441e+04 3.493e-09
 31.44824    -74.5 1.417e+04 3.021e-09
 31.45837    -75.1 1.397e+04 2.921e-09
 31.47735    -75.8 1.386e+04 2.670e-09
 31.49760    -76.6 1.361e+04 2.451e-09
 31.51572    -77.1 1.334e+04 2.279e-09
 31.52584    -77.0 1.341e+04 2.312e-09
 31.53809    -77.2 1.312e+04 2.079e-09
 31.55834    -77.2 1.299e+04 1.805e-09
 31.58329    -77.3 1.280e+04 1.479e-09
 31.60363    -77.5 1.277e+04 1.476e-09
 31.62940    -76.9 1.245e+04 1.103e-09
 31.66989    -76.2 1.225e+04 8.321e-10
 31.71038    -75.3 1.221e+04 7.408e-10
 31.73858    -74.4 1.225e+04 7.325e-10
 31.75883    -75.0 1.239e+04 8.945e-10
 31.79137    -74.5 1.258e+04 1.064e-09
 31.83187    -73.9 1.284e+04 1.479e-09
 31.87236    -73.1 1.312e+04 1.935e-09
 31.89378    -72.2 1.315e+04 2.044e-09
 31.91402    -72.8 1.318e+04 2.158e-09
 31.95335    -71.6 1.287e+04 1.846e-09
 31.99384    -70.0 1.237e+04 1.233e-09
 32.02872    -68.3 1.189e+04 7.309e-10
 32.04897    -68.2 1.187e+04 7.475e-10
 32.07483    -66.4 1.149e+04 4.208e-10
 32.11532    -64.7 1.128e+04 2.733e-10
 32.15582    -62.8 1.116e+04 2.085e-10
 32.18392    -60.6 1.108e+04 1.814e-10
 32.20416    -60.5 1.109e+04 1.794e-10
 32.23680    -58.4 1.103e+04 1.638e-10
 32.27730    -56.1 1.100e+04 1.619e-10
 32.31779    -53.8 1.094e+04 1.697e-10
 32.33911    -51.4 1.088e+04 1.789e-10
 32.35936    -51.3 1.083e+04 1.618e-10
 32.39878    -49.1 1.083e+04 1.696e-10
 32.43927    -47.1 1.094e+04 1.800e-10
 32.47406    -45.3 1.100e+04 2.113e-10
 32.49431    -45.2 1.097e+04 2.108e-10
 32.52026    -43.2 1.100e+04 2.673e-10
 32.56075    -41.1 1.101e+04 2.968e-10
 32.60125    -39.4 1.101e+04 2.976e-10
 32.62925    -37.5 1.089e+04 2.762e-10
 32.64950    -37.4 1.094e+04 3.187e-10
 32.68223    -35.4 1.077e+04 2.527e-10
 32.72273    -33.6 1.069e+04 1.902e-10
 32.76322    -32.3 1.066e+04 1.573e-10
 32.78445    -30.6 1.063e+04 1.555e-10
 32.80469    -30.5 1.052e+04 1.428e-10
 32.84421    -28.6 1.056e+04 1.470e-10
 32.88470    -26.5 1.059e+04 1.560e-10
 32.91940    -24.2 1.059e+04 1.670e-10
 32.93964    -23.8 1.051e+04 1.400e-10
 32.96569    -21.6 1.050e+04 1.506e-10
 33.00618    -19.7 1.051e+04 1.659e-10
 33.04668    -17.9 1.054e+04 1.907e-10
 33.07459    -16.1 1.062e+04 2.164e-10
 33.09484    -15.6 1.063e+04 2.425e-10
 33.12766    -14.0 1.078e+04 3.049e-10
 33.16816    -12.3 1.093e+04 3.575e-10
 33.20865    -10.7 1.096e+04 3.747e-10
 33.22978     -9.1 1.090e+04 3.603e-10
 33.25003     -8.1 1.098e+04 3.857e-10
 33.28964     -6.3 1.082e+04 3.222e-10
 33.33013     -4.5 1.071e+04 2.535e-10
 33.36176     -2.9 1.064e+04 1.982e-10
 33.37611     -2.6 1.065e+04 1.848e-10
 33.38498     -1.5 1.067e+04 1.831e-10
 33.41112      0.2 1.059e+04 1.613e-10
 33.45161      2.2 1.058e+04 1.623e-10
 33.49211      4.3 1.061e+04 1.727e-10
 33.51993      6.4 1.065e+04 2.001e-10
 33.54017      7.6 1.070e+04 1.961e-10
 33.57309      9.8 1.074e+04 2.335e-10
 33.61359     12.2 1.077e+04 2.722e-10
 33.65408     14.5 1.082e+04 2.950e-10
 33.67512     16.6 1.087e+04 2.870e-10
 33.69537     17.8 1.105e+04 3.438e-10
 33.73507     19.9 1.111e+04 3.531e-10
 33.77556     21.8 1.114e+04 3.459e-10
 33.81007     23.6 1.115e+04 3.424e-10
 33.83031     24.7 1.181e+04 7.015e-10
 33.85655     26.0 1.203e+04 8.027e-10
 33.89704     25.9 1.253e+04 1.105e-09
 33.92731     25.1 1.340e+04 2.045e-09
 33.94746     24.8 1.389e+04 2.934e-09
 33.96507     24.5 1.455e+04 4.274e-09
 33.97519     24.5 1.545e+04 6.798e-09
 33.98796     24.4 1.595e+04 8.660e-09
 34.00820     23.9 1.615e+04 9.095e-09
 34.02845     23.3 1.605e+04 8.683e-09
 34.04266     22.6 1.577e+04 7.346e-09
 34.05279     21.7 1.603e+04 7.756e-09
 34.06894     20.5 1.547e+04 5.946e-09
 34.08919     19.2 1.490e+04 4.642e-09
 34.10944     18.1 1.440e+04 3.858e-09
 34.12026     17.4 1.390e+04 3.168e-09
 34.13038     16.3 1.372e+04 2.885e-09
 34.14993     15.9 1.344e+04 2.589e-09
 34.18040     15.8 1.302e+04 1.984e-09
 34.22099     16.0 1.260e+04 1.410e-09
 34.25540     16.4 1.231e+04 1.048e-09
 34.27555     15.4 1.216e+04 8.982e-10
 34.29166     16.0 1.206e+04 8.049e-10
 34.31191     16.3 1.207e+04 7.906e-10
 34.33215     16.7 1.205e+04 7.718e-10
 34.34293     17.2 1.203e+04 7.602e-10
 34.35305     16.7 1.205e+04 8.434e-10
 34.37265     17.3 1.206e+04 8.729e-10
 34.39289     18.0 1.208e+04 9.022e-10
 34.41040     18.8 1.208e+04 8.905e-10
 34.42053     18.6 1.208e+04 9.425e-10
 34.43339     19.4 1.211e+04 8.973e-10
 34.46386     20.0 1.205e+04 7.981e-10
 34.50445     21.3 1.187e+04 6.453e-10
 34.54494     22.6 1.167e+04 5.329e-10
 34.56579     24.1 1.152e+04 4.876e-10
 34.58604     23.9 1.155e+04 5.021e-10
 34.62593     25.6 1.149e+04 4.995e-10
 34.66642     27.4 1.147e+04 5.041e-10
 34.70074     29.1 1.149e+04 5.358e-10
 34.72099     29.0 1.148e+04 5.364e-10
 34.74741     30.5 1.163e+04 5.870e-10
 34.77768     31.4 1.166e+04 5.983e-10
 34.78827     31.7 1.168e+04 6.056e-10
 34.79839     31.7 1.168e+04 6.066e-10
 34.81808     32.3 1.174e+04 6.362e-10
 34.83832     32.6 1.181e+04 6.732e-10
 34.85574     33.0 1.188e+04 7.042e-10
 34.86586     33.1 1.199e+04 8.056e-10
 34.87882     33.4 1.208e+04 8.464e-10
 34.90929     33.7 1.232e+04 1.026e-09
 34.94988     34.0 1.230e+04 9.823e-10
 34.99037     34.0 1.225e+04 9.468e-10
 35.01113     33.9 1.225e+04 9.645e-10
 35.03138     34.3 1.271e+04 1.456e-09
 35.06114     33.9 1.267e+04 1.427e-09
 35.07841     33.6 1.268e+04 1.463e-09
 35.08853     33.8 1.301e+04 1.825e-09
 35.11175     33.3 1.306e+04 1.759e-09
 35.14608     32.4 1.305e+04 1.750e-09
 35.16623     31.5 1.382e+04 2.766e-09
 35.18252     30.8 1.376e+04 2.636e-09
 35.20277     29.9 1.371e+04 2.457e-09
 35.22301     28.7 1.377e+04 2.363e-09
 35.23360     26.8 1.397e+04 2.448e-09
 35.24373     25.8 1.455e+04 3.399e-09
 35.26351     23.6 1.483e+04 3.881e-09
 35.28375     21.9 1.497e+04 4.659e-09
 35.30108     20.9 1.483e+04 4.982e-09
 35.31120     20.4 1.485e+04 5.102e-09
 35.32425     20.0 1.447e+04 4.716e-09
 35.34449     19.2 1.397e+04 3.194e-09
 35.36474     18.5 1.363e+04 2.419e-09
 35.39521     17.6 1.294e+04 1.491e-09
 35.43580     16.1 1.217e+04 8.501e-10
 35.45647     15.1 1.158e+04 5.724e-10
 35.47671     14.3 1.155e+04 5.317e-10
 35.51679     14.3 1.129e+04 4.583e-10
 35.55728     14.9 1.128e+04 4.591e-10
 35.59141     15.8 1.139e+04 5.030e-10
 35.61166     14.8 1.146e+04 4.608e-10
 35.62805     15.3 1.155e+04 5.146e-10
 35.64820     15.4 1.165e+04 5.854e-10
 35.66844     15.5 1.187e+04 7.185e-10
 35.67894     15.4 1.217e+04 9.392e-10
 35.68906     14.5 1.221e+04 9.688e-10
 35.70894     14.2 1.263e+04 1.330e-09
 35.72918     13.5 1.309e+04 1.941e-09
 35.74641     12.9 1.363e+04 2.853e-09
 35.75654     12.4 1.345e+04 2.887e-09
 35.76968     12.4 1.379e+04 3.287e-09
 35.78992     12.0 1.384e+04 3.191e-09
 35.81017     11.1 1.376e+04 2.702e-09
 35.84064     10.2 1.329e+04 1.885e-09
 35.88123      8.6 1.262e+04 1.030e-09
 35.90180      6.8 1.208e+04 6.084e-10
 35.92205      6.3 1.180e+04 4.929e-10
 35.96222      5.9 1.159e+04 4.311e-10
 36.00271      6.3 1.144e+04 4.048e-10
 36.03675      7.2 1.133e+04 3.618e-10
 36.05700      7.5 1.123e+04 3.247e-10
 36.08370      8.3 1.123e+04 2.941e-10
 36.12419      8.9 1.125e+04 2.735e-10
 36.16469      9.4 1.126e+04 2.574e-10
 36.19194      9.9 1.123e+04 2.422e-10
 36.21219     10.1 1.133e+04 2.861e-10
 36.24567     10.4 1.129e+04 2.561e-10
 36.28617     10.7 1.120e+04 2.216e-10
 36.32666     10.9 1.110e+04 2.052e-10
 36.34714     11.3 1.107e+04 1.971e-10
 36.36738     11.1 1.110e+04 1.966e-10
 36.40765     11.8 1.100e+04 1.882e-10
 36.43398     12.7 1.090e+04 1.911e-10
 36.45423     12.0 1.087e+04 1.594e-10
 36.48209     13.2 1.075e+04 1.591e-10
 36.50233     12.9 1.074e+04 1.379e-10
 36.52913     14.2 1.073e+04 1.393e-10
 36.56962     15.6 1.069e+04 1.446e-10
 36.61012     17.1 1.064e+04 1.480e-10
 36.63728     18.7 1.059e+04 1.444e-10
 36.65753     18.5 1.062e+04 1.431e-10
 36.69110     20.1 1.051e+04 1.347e-10
 36.73160     21.8 1.050e+04 1.241e-10
 36.77209     23.6 1.046e+04 1.162e-10
 36.81258     25.1 1.052e+04 1.480e-10
 36.85308     27.0 1.051e+04 1.605e-10
 36.89357     28.9 1.052e+04 1.755e-10
 36.92742     31.0 1.054e+04 1.896e-10
 36.94767     30.7 1.073e+04 2.519e-10
 36.97456     32.7 1.075e+04 2.543e-10
 37.01505     34.6 1.075e+04 2.484e-10
 37.05555     36.5 1.072e+04 2.398e-10
 37.08262     38.3 1.067e+04 2.364e-10
 37.10286     37.9 1.070e+04 2.482e-10
 37.13653     39.7 1.069e+04 2.488e-10
 37.17703     41.5 1.066e+04 2.621e-10
 37.21752     43.2 1.066e+04 2.969e-10
 37.25802     44.5 1.077e+04 3.777e-10
 37.29851     46.2 1.084e+04 4.416e-10
 37.33900     47.7 1.094e+04 5.053e-10
 37.37276     49.2 1.110e+04 5.772e-10
 37.39300     48.8 1.115e+04 5.770e-10
 37.41999     50.3 1.136e+04 6.488e-10
 37.45026     51.1 1.144e+04 7.103e-10
 37.47041     51.5 1.156e+04 7.789e-10
 37.49066     52.0 1.164e+04 8.262e-10
 37.51091     52.2 1.169e+04 8.470e-10
 37.52785     52.9 1.177e+04 8.813e-10
 37.54820     52.7 1.186e+04 9.010e-10
 37.58196     53.4 1.189e+04 9.112e-10
 37.62246     54.2 1.184e+04 8.795e-10
 37.66290     55.2 1.168e+04 7.799e-10
 37.70339     55.8 1.144e+04 6.417e-10
 37.74394     56.9 1.117e+04 4.939e-10
 37.78443     58.0 1.093e+04 3.841e-10
 37.81809     59.3 1.067e+04 3.244e-10
 37.83834     59.4 1.055e+04 2.998e-10
 37.86542     60.9 1.030e+04 2.955e-10
 37.90591     62.5 1.028e+04 2.954e-10
 37.94641     64.2 1.026e+04 3.006e-10
 37.97329     65.8 1.027e+04 3.165e-10
 37.99354     65.9 1.022e+04 3.036e-10
 38.02739     67.5 1.023e+04 3.252e-10
 38.06789     68.9 1.024e+04 3.470e-10
 38.10824     70.3 1.022e+04 3.514e-10
 38.14873     71.9 1.007e+04 3.082e-10
 38.18937     73.4 9.963e+03 2.906e-10
 38.22986     75.1 9.843e+03 2.602e-10
 38.26343     76.7 9.720e+03 2.270e-10
 38.28368     77.0 9.666e+03 2.111e-10
 38.31085     78.7 9.577e+03 1.954e-10
 38.35134     80.5 9.551e+03 1.934e-10
 38.39184     82.2 9.563e+03 2.003e-10
 38.41862     84.0 9.641e+03 2.296e-10
 38.43887     84.3 9.620e+03 2.222e-10
 38.47282     86.1 9.816e+03 2.853e-10
 38.51332     87.9 1.017e+04 4.026e-10
 38.55357     89.7 1.066e+04 5.923e-10
 38.57382     90.1 1.070e+04 5.686e-10
 38.59431     92.0 1.125e+04 8.097e-10
 38.62458     92.3 1.166e+04 1.079e-09
 38.64110     92.5 1.199e+04 1.331e-09
 38.65122     92.3 1.199e+04 1.333e-09
 38.66497     92.6 1.224e+04 1.569e-09
 38.68522     93.0 1.247e+04 1.785e-09
 38.70547     93.3 1.266e+04 1.975e-09
 38.71869     93.6 1.283e+04 2.137e-09
 38.72882     93.8 1.264e+04 1.892e-09
 38.74596     94.1 1.276e+04 1.977e-09
 38.76621     94.4 1.286e+04 2.036e-09
 38.78617     94.6 1.293e+04 2.069e-09
 38.79629     95.0 1.268e+04 1.734e-09
 38.80670     95.1 1.275e+04 1.750e-09
 38.82695     95.1 1.280e+04 1.774e-09
 38.84720     95.1 1.284e+04 1.824e-09
 38.86377     95.1 1.290e+04 1.900e-09
 38.87389     95.6 1.272e+04 1.654e-09
 38.88769     95.5 1.286e+04 1.821e-09
 38.91816     95.8 1.285e+04 1.834e-09
 38.95875     95.7 1.286e+04 1.867e-09
 38.99891     95.2 1.265e+04 1.698e-09
 39.01916     96.5 1.284e+04 1.820e-09
 39.03974     95.5 1.259e+04 1.563e-09
 39.08023     94.6 1.213e+04 1.208e-09
 39.12072     93.7 1.170e+04 9.554e-10
 39.15410     93.4 1.151e+04 8.557e-10
 39.17425     92.9 1.174e+04 9.796e-10
 39.19139     92.2 1.174e+04 1.017e-09
 39.21164     91.8 1.178e+04 1.078e-09
 39.23150     91.7 1.184e+04 1.150e-09
 39.24163     91.4 1.209e+04 1.352e-09
 39.25213     91.3 1.219e+04 1.457e-09
 39.27238     91.3 1.227e+04 1.540e-09
 39.29263     91.2 1.236e+04 1.621e-09
 39.30910     91.0 1.251e+04 1.737e-09
 39.31923     90.8 1.272e+04 1.923e-09
 39.33312     90.4 1.292e+04 2.055e-09
 39.35337     89.8 1.320e+04 2.262e-09
 39.37361     89.3 1.350e+04 2.606e-09
 39.38670     88.8 1.363e+04 2.778e-09
 39.39682     88.5 1.341e+04 2.379e-09
 39.41411     88.1 1.335e+04 2.306e-09
 39.43435     87.7 1.314e+04 2.073e-09
 39.45417     87.4 1.278e+04 1.699e-09
 39.46430     87.2 1.240e+04 1.352e-09
 39.47485     86.9 1.199e+04 1.021e-09
 39.49509     86.6 1.161e+04 7.382e-10
 39.50601     86.1 1.126e+04 5.378e-10
 39.52636     84.7 1.095e+04 4.209e-10
 39.56615     85.2 1.047e+04 3.184e-10
 39.59944     86.3 1.020e+04 2.794e-10
 39.61969     87.5 1.018e+04 2.865e-10
 39.64714     88.9 1.026e+04 3.063e-10
 39.68763     90.1 1.048e+04 3.694e-10
 39.72813     91.1 1.070e+04 4.583e-10
 39.75463     92.1 1.084e+04 5.374e-10
 39.77488     92.9 1.106e+04 6.507e-10
 39.80912     93.7 1.117e+04 7.365e-10
 39.84961     94.4 1.119e+04 7.514e-10
 39.87988     94.5 1.119e+04 7.744e-10
 39.89951     94.6 1.114e+04 7.839e-10
 39.90963     94.8 1.125e+04 8.293e-10
 39.92028     95.1 1.114e+04 7.911e-10
 39.94052     95.4 1.101e+04 7.502e-10
 39.96077     95.8 1.090e+04 6.909e-10
 39.97711     96.2 1.084e+04 6.259e-10
 39.98723     96.2 1.078e+04 5.508e-10
 40.00126     96.3 1.075e+04 4.732e-10
 40.02151     96.4 1.074e+04 4.427e-10
 40.04176     96.8 1.072e+04 4.126e-10
 40.05470     97.0 1.073e+04 4.065e-10
 40.06492     97.0 1.070e+04 3.658e-10
 40.09257     97.8 1.071e+04 3.676e-10
 40.13306     98.5 1.076e+04 3.854e-10
 40.16334     99.1 1.078e+04 3.956e-10
 40.18349     99.3 1.082e+04 4.220e-10
 40.19977     99.7 1.091e+04 4.788e-10
 40.20990     99.8 1.087e+04 4.386e-10
 40.22398    100.2 1.100e+04 5.035e-10
 40.24423    100.2 1.120e+04 5.955e-10
 40.26447    100.2 1.139e+04 6.977e-10
 40.27737    100.2 1.158e+04 8.146e-10
 40.28750    100.3 1.154e+04 7.823e-10
 40.30497    100.1 1.174e+04 9.382e-10
 40.32521     99.9 1.193e+04 1.144e-09
 40.34485     99.8 1.211e+04 1.387e-09
 40.35497    100.0 1.204e+04 1.322e-09
 40.36571     99.9 1.208e+04 1.420e-09
 40.38595     99.9 1.207e+04 1.412e-09
 40.40620     99.9 1.200e+04 1.349e-09
 40.42244     99.9 1.188e+04 1.195e-09
 40.43257     99.9 1.177e+04 9.731e-10
 40.44669     99.6 1.167e+04 8.328e-10
 40.46694     99.1 1.169e+04 7.487e-10
 40.48719     98.3 1.173e+04 7.467e-10
 40.50004     97.1 1.186e+04 7.786e-10
 40.51016     97.1 1.186e+04 7.287e-10
 40.52768     95.6 1.222e+04 8.931e-10
 40.54793     93.9 1.267e+04 1.205e-09
 40.56751     92.4 1.311e+04 1.621e-09
 40.57764     93.1 1.302e+04 1.550e-09
 40.58842     91.8 1.345e+04 1.894e-09
 40.60867     90.3 1.392e+04 1.930e-09
 40.62892     88.3 1.404e+04 1.873e-09
 40.64511     85.7 1.426e+04 1.652e-09
 40.65523     87.1 1.415e+04 1.760e-09
 40.66941     84.3 1.414e+04 1.605e-09
 40.68966     81.6 1.381e+04 1.608e-09
 40.70990     79.5 1.370e+04 1.650e-09
 40.72271     78.2 1.359e+04 1.738e-09
 40.73283     79.3 1.380e+04 2.124e-09
 40.75040     78.4 1.385e+04 2.239e-09
 40.77064     77.5 1.384e+04 2.195e-09
 40.79018     76.7 1.375e+04 1.964e-09
 40.80031     77.7 1.416e+04 2.755e-09
 40.81114     76.9 1.392e+04 2.206e-09
 40.83138     75.6 1.354e+04 1.564e-09
 40.85163     73.8 1.304e+04 1.110e-09
 40.86778     71.6 1.255e+04 9.990e-10
 40.87790     72.7 1.287e+04 1.061e-09
 40.89213     70.2 1.263e+04 1.067e-09
 40.91237     67.4 1.256e+04 1.179e-09
 40.93262     63.0 1.277e+04 1.707e-09
 40.94538     57.3 1.406e+04 2.666e-09
 40.95550     54.1 1.554e+04 4.199e-09
 40.97311     48.7 1.562e+04 4.437e-09
 40.99336     45.0 1.496e+04 3.764e-09
 41.01285     42.2 1.363e+04 2.381e-09
 41.02297     41.1 1.390e+04 2.788e-09
 41.03200     37.9 1.186e+04 1.438e-09
 41.04212     35.1 1.139e+04 1.220e-09
 41.05410     32.5 9.961e+03 7.271e-10
 41.07435     31.1 9.459e+03 5.200e-10
 41.09045     30.7 9.269e+03 4.067e-10
 41.11079     29.6 9.211e+03 3.865e-10
 41.14541     29.8 8.708e+03 2.879e-10
 41.18590     30.3 8.520e+03 2.657e-10
 41.22559     31.4 8.530e+03 2.674e-10
 41.24584     30.2 8.441e+03 2.592e-10
 41.26689     31.4 8.539e+03 2.725e-10
 41.30738     32.4 8.700e+03 2.978e-10
 41.34787     33.2 8.867e+03 3.197e-10
 41.38078     33.7 9.093e+03 3.390e-10
 41.40103     32.8 8.880e+03 3.293e-10
 41.42886     33.2 9.034e+03 3.468e-10
 41.46935     33.6 9.173e+03 3.683e-10
 41.50985     34.1 9.253e+03 3.737e-10
 41.53598     34.6 9.256e+03 3.531e-10
 41.55623     34.4 8.916e+03 2.899e-10
 41.59084     34.8 8.894e+03 2.508e-10
 41.63133     35.0 8.912e+03 2.264e-10
 41.67093     35.0 8.950e+03 2.251e-10
 41.69117     35.1 8.893e+03 2.220e-10
 41.71232     35.1 9.010e+03 2.292e-10
 41.75281     35.2 9.195e+03 2.512e-10
 41.79330     35.1 9.419e+03 2.823e-10
 41.82612     34.9 9.721e+03 3.255e-10
 41.84637     35.2 9.661e+03 3.175e-10
 41.87429     35.1 9.959e+03 3.564e-10
 41.91479     35.2 1.029e+04 4.023e-10
 41.95528     35.5 1.059e+04 4.383e-10
 41.98131     36.0 1.082e+04 4.473e-10
 42.00156     36.8 1.062e+04 3.603e-10
 42.03627     37.4 1.069e+04 3.529e-10
 42.07676     38.0 1.073e+04 3.477e-10
 42.11626     38.7 1.076e+04 3.426e-10
 42.13651     39.5 1.061e+04 2.905e-10
 42.15775     40.3 1.060e+04 2.868e-10
 42.19824     41.1 1.058e+04 2.730e-10
 42.23873     42.0 1.052e+04 2.416e-10
 42.27146     42.7 1.042e+04 2.026e-10
 42.29170     43.2 1.044e+04 2.038e-10
 42.31972     43.7 1.046e+04 1.837e-10
 42.36022     44.3 1.049e+04 1.871e-10
 42.40071     45.1 1.058e+04 2.105e-10
 42.42665     46.0 1.073e+04 2.579e-10
 42.44690     46.0 1.085e+04 2.944e-10
 42.48170     47.1 1.104e+04 3.772e-10
 42.52219     48.2 1.126e+04 4.819e-10
 42.55818     49.5 1.148e+04 5.902e-10
 42.57735     48.9 1.136e+04 6.110e-10
 42.58185     48.8 1.151e+04 7.039e-10
 42.60318     50.1 1.169e+04 8.064e-10
 42.64367     51.5 1.188e+04 8.417e-10
 42.68416     52.7 1.192e+04 8.303e-10
 42.71679     54.3 1.190e+04 7.656e-10
 42.73704     54.0 1.211e+04 8.939e-10
 42.76515     55.4 1.207e+04 8.209e-10
 42.80565     56.9 1.203e+04 7.569e-10
 42.84614     58.4 1.205e+04 7.454e-10
 42.87199     60.0 1.209e+04 7.593e-10
 42.89223     60.0 1.214e+04 8.235e-10
 42.92713     61.8 1.227e+04 8.981e-10
 42.96762     63.7 1.254e+04 1.031e-09
 43.00693     65.6 1.270e+04 1.110e-09
 43.02708     65.8 1.306e+04 1.309e-09
 43.03829     66.3 1.325e+04 1.440e-09
 43.05854     66.8 1.334e+04 1.511e-09
 43.07878     67.3 1.334e+04 1.502e-09
 43.09446     67.9 1.334e+04 1.470e-09
 43.10458     68.0 1.358e+04 1.671e-09
 43.11928     68.5 1.358e+04 1.612e-09
 43.13952     69.0 1.354e+04 1.525e-09
 43.15977     69.5 1.347e+04 1.428e-09
 43.17206     69.9 1.334e+04 1.314e-09
 43.18218     70.1 1.385e+04 1.589e-09
 43.20026     70.4 1.366e+04 1.374e-09
 43.22051     70.7 1.333e+04 1.203e-09
 43.23953     70.8 1.303e+04 1.049e-09
 43.24965     70.9 1.346e+04 1.354e-09
 43.26100     70.9 1.343e+04 1.014e-09
 43.28125     70.5 1.325e+04 8.370e-10
 43.30150     70.0 1.300e+04 7.165e-10
 43.31713     69.2 1.283e+04 6.503e-10
 43.32725     66.6 1.645e+04 1.062e-09
 43.34199     65.6 1.688e+04 1.205e-09
 43.36224     65.0 1.746e+04 1.580e-09
 43.38248     64.7 1.822e+04 2.359e-09
 43.39473     64.6 1.896e+04 3.640e-09
 43.40485     63.3 2.056e+04 1.143e-08
 43.42298     63.3 2.078e+04 1.390e-08
 43.44323     63.1 2.076e+04 1.597e-08
 43.46220     62.8 2.045e+04 1.718e-08
 43.47232     61.0 2.049e+04 2.009e-08
 43.48372     60.3 2.004e+04 1.899e-08
 43.50397     59.6 1.950e+04 1.787e-08
 43.52421     59.1 1.886e+04 1.605e-08
 43.53980     59.0 1.800e+04 1.315e-08
 43.54992     58.2 1.652e+04 7.346e-09
 43.56471     58.4 1.555e+04 4.850e-09
 43.58495     58.5 1.467e+04 3.108e-09
 43.60520     58.5 1.392e+04 1.964e-09
 43.61739     58.3 1.332e+04 1.251e-09
 43.62752     56.8 1.212e+04 6.476e-10
 43.64569     56.7 1.191e+04 4.947e-10
 43.66594     56.7 1.172e+04 4.162e-10
 43.68487     57.1 1.148e+04 3.728e-10
 43.69499     56.9 1.116e+04 3.360e-10
 43.70643     57.2 1.110e+04 3.334e-10
 43.73690     58.9 1.109e+04 3.423e-10
 43.76266     61.1 1.113e+04 3.501e-10
 43.78291     61.2 1.100e+04 3.339e-10
 43.81799     62.6 1.118e+04 3.718e-10
 43.85848     63.2 1.134e+04 4.275e-10
 43.88875     63.6 1.144e+04 4.790e-10
 43.90754     64.1 1.156e+04 5.043e-10
 43.91776     63.1 1.147e+04 4.545e-10
 43.93947     63.6 1.149e+04 4.061e-10
 43.97996     63.8 1.144e+04 3.166e-10
 44.02045     63.4 1.136e+04 2.758e-10
 44.05280     62.7 1.135e+04 2.901e-10
 44.07305     62.5 1.119e+04 2.786e-10
 44.10144     61.8 1.132e+04 3.699e-10
 44.13030     61.4 1.137e+04 4.562e-10
 44.14033     61.4 1.143e+04 4.430e-10
 44.15186     61.2 1.151e+04 4.835e-10
 44.17211     60.6 1.179e+04 5.108e-10
 44.19236     59.6 1.191e+04 5.039e-10
 44.20780     58.0 1.201e+04 4.859e-10
 44.22815     58.7 1.182e+04 4.258e-10
 44.25320     57.3 1.179e+04 4.302e-10
 44.27334     56.4 1.161e+04 4.309e-10
 44.30381     55.3 1.176e+04 4.867e-10
 44.33418     54.5 1.187e+04 5.889e-10
 44.35287     54.5 1.188e+04 6.120e-10
 44.36309     56.1 1.182e+04 5.382e-10
 44.37468     54.9 1.196e+04 6.646e-10
 44.39483     54.1 1.208e+04 7.522e-10
 44.41507     53.4 1.217e+04 7.793e-10
 44.43047     52.6 1.215e+04 7.674e-10
 44.44059     53.6 1.208e+04 7.323e-10
 44.45557     52.9 1.193e+04 6.507e-10
 44.47581     52.2 1.171e+04 5.317e-10
 44.49804     51.4 1.143e+04 4.000e-10
 44.51838     53.4 1.135e+04 3.763e-10
 44.54687     53.2 1.089e+04 2.395e-10
 44.58737     53.0 1.067e+04 1.992e-10
 44.62786     53.0 1.067e+04 2.009e-10
 44.65333     52.9 1.074e+04 2.214e-10
 44.67358     55.0 1.078e+04 2.203e-10
 44.70885     54.5 1.105e+04 3.389e-10
 44.74934     53.6 1.171e+04 6.465e-10
 44.78828     52.2 1.254e+04 1.168e-09
 44.80853     54.4 1.270e+04 1.326e-09
 44.83033     52.3 1.319e+04 1.666e-09
 44.87082     49.8 1.315e+04 1.595e-09
 44.91132     47.9 1.269e+04 1.274e-09
 44.94347     46.7 1.199e+04 8.805e-10
 44.96372     48.3 1.232e+04 1.058e-09
 44.99230     47.1 1.175e+04 7.775e-10
 45.03280     46.2 1.132e+04 6.024e-10
 45.07329     45.6 1.105e+04 5.102e-10
 45.09867     45.2 1.089e+04 4.744e-10
 45.11892     46.3 1.097e+04 4.888e-10
 45.15428     45.6 1.081e+04 4.623e-10
 45.19477     45.2 1.085e+04 4.353e-10
 45.23362     45.2 1.085e+04 4.099e-10
 45.25386     45.3 1.135e+04 5.657e-10
 45.27576     45.7 1.109e+04 4.352e-10
 45.31625     46.2 1.069e+04 2.840e-10
 45.35675     46.7 1.024e+04 2.171e-10
 45.38881     47.8 1.013e+04 2.147e-10
 45.40906     47.6 1.013e+04 2.232e-10
 45.43773     49.2 1.010e+04 2.278e-10
 45.47823     50.8 1.008e+04 2.504e-10
 45.51872     52.5 1.009e+04 2.732e-10
 45.54400     54.2 1.015e+04 2.953e-10
 45.56425     54.4 9.995e+03 2.436e-10
 45.59971     56.0 1.005e+04 2.580e-10
 45.63041     57.4 1.016e+04 2.846e-10
 45.65066     57.1 1.022e+04 3.154e-10
 45.67895     58.4 1.034e+04 3.524e-10
 45.69920     58.8 1.013e+04 2.842e-10
 45.72119     60.2 1.021e+04 3.091e-10
 45.76168     61.5 1.026e+04 3.264e-10
 45.80218     62.8 1.027e+04 3.327e-10
 45.83415     64.2 1.025e+04 3.305e-10
 45.85439     64.7 1.012e+04 2.794e-10
 45.88316     66.0 1.019e+04 2.919e-10
 45.92366     67.2 1.023e+04 2.922e-10
 45.96415     68.3 1.022e+04 2.822e-10
 45.98934     69.5 1.020e+04 2.688e-10
 46.00959     69.8 1.033e+04 2.881e-10
 46.04514     70.9 1.033e+04 2.882e-10
 46.08563     72.0 1.036e+04 2.960e-10
 46.12429     73.0 1.043e+04 3.189e-10
 46.14454     73.2 1.069e+04 3.879e-10
 46.16662     74.0 1.082e+04 4.198e-10
 46.20711     74.7 1.090e+04 4.368e-10
 46.24761     75.4 1.093e+04 4.352e-10
 46.27948     76.2 1.092e+04 4.286e-10
 46.29973     76.0 1.087e+04 4.006e-10
 46.32859     76.9 1.074e+04 3.634e-10
 46.36909     78.1 1.061e+04 3.511e-10
 46.40958     79.5 1.060e+04 3.550e-10
 46.43468     81.2 1.065e+04 3.752e-10
 46.45492     81.0 1.049e+04 2.745e-10
 46.49057     82.5 1.060e+04 2.865e-10
 46.53106     83.7 1.072e+04 3.033e-10
 46.56962     84.7 1.071e+04 3.020e-10
 46.58987     84.8 1.042e+04 2.154e-10
 46.61205     86.0 1.053e+04 2.310e-10
 46.65254     87.0 1.063e+04 2.468e-10
 46.69304     87.7 1.073e+04 2.711e-10
 46.72482     88.4 1.082e+04 3.058e-10
 46.74507     89.9 1.054e+04 2.326e-10
 46.77402     90.9 1.069e+04 2.780e-10
 46.81452     91.7 1.086e+04 3.200e-10
 46.85501     92.0 1.093e+04 3.305e-10
 46.88001     92.2 1.095e+04 3.257e-10
 46.90026     93.6 1.110e+04 3.468e-10
 46.93600     93.9 1.115e+04 3.394e-10
 46.97649     94.0 1.116e+04 3.233e-10
 47.01496     93.9 1.122e+04 3.067e-10
 47.03521     94.9 1.146e+04 3.393e-10
 47.05748     94.5 1.135e+04 3.000e-10
 47.09797     94.2 1.121e+04 2.890e-10
 47.13847     93.9 1.119e+04 2.936e-10
 47.17016     93.4 1.116e+04 3.155e-10
 47.19040     94.3 1.112e+04 3.162e-10
 47.21945     93.7 1.107e+04 3.369e-10
 47.25995     92.9 1.103e+04 3.368e-10
 47.30044     92.1 1.088e+04 3.106e-10
 47.32535     91.1 1.066e+04 2.744e-10
 47.34560     92.2 1.061e+04 2.712e-10
 47.38143     91.3 1.048e+04 2.650e-10
 47.42192     90.5 1.044e+04 2.758e-10
 47.46030     90.0 1.041e+04 3.165e-10
 47.48054     91.2 1.042e+04 3.229e-10
 47.50291     90.9 1.045e+04 3.807e-10
 47.54340     90.6 1.054e+04 4.384e-10
 47.57368     90.3 1.066e+04 5.480e-10
 47.59382     90.0 1.076e+04 6.587e-10
 47.61407     89.7 1.102e+04 8.234e-10
 47.62542     89.6 1.132e+04 9.866e-10
 47.63554     90.3 1.137e+04 1.010e-09
 47.66479     90.3 1.141e+04 1.021e-09
 47.70538     89.4 1.136e+04 9.873e-10
 47.74587     88.3 1.106e+04 8.332e-10
 47.77069     87.4 1.046e+04 5.804e-10
 47.79093     89.5 1.052e+04 5.862e-10
 47.82686     88.7 9.838e+03 3.719e-10
 47.86735     88.0 9.146e+03 2.372e-10
 47.90563     88.1 8.804e+03 1.931e-10
 47.92588     89.9 8.928e+03 2.149e-10
 47.94834     90.4 8.875e+03 2.105e-10
 47.98883     91.7 8.882e+03 2.149e-10
 48.02933     93.7 9.016e+03 2.480e-10
 48.05960     94.7 9.133e+03 2.730e-10
 48.07076     95.6 9.237e+03 2.980e-10
 48.08088     96.5 9.302e+03 3.006e-10
 48.10000     96.6 9.497e+03 3.637e-10
 48.12024     96.2 1.028e+04 5.232e-10
 48.13823     95.2 1.203e+04 9.412e-10
 48.14835     95.5 1.274e+04 1.079e-09
 48.16074     95.2 1.473e+04 2.300e-09
 48.17587     94.9 1.534e+04 3.157e-09
 48.18199     94.6 1.598e+04 4.215e-09
 48.18705     94.4 1.647e+04 4.412e-09
 48.19607     93.3 1.789e+04 6.413e-09
 48.20619     91.2 2.009e+04 9.957e-09
 48.21573     88.1 2.268e+04 2.104e-08
 48.22079     88.6 2.214e+04 2.263e-08
 48.22644     86.1 2.302e+04 6.566e-08
 48.23656     83.8 2.252e+04 1.939e-07
 48.24669     81.1 2.166e+04 3.683e-07
 48.25453     77.8 2.261e+04 3.822e-07
 48.25959     80.4 2.348e+04 2.890e-07
 48.26693     75.8 2.697e+04 2.603e-07
 48.27706     59.1 4.608e+04 1.003e-07
 48.28718     34.8 4.494e+04 1.241e-07
 48.29333     18.0 3.224e+04 2.397e-07
 48.29839     18.6 3.311e+04 2.437e-07
 48.30743     10.2 2.382e+04 3.774e-07
 48.31755      9.9 2.187e+04 4.054e-07
 48.32706     11.0 2.173e+04 3.629e-07
 48.33213     10.3 2.163e+04 4.127e-07
 48.33780     11.3 2.197e+04 3.407e-07
 48.34792     11.9 2.246e+04 2.626e-07
 48.35804     11.8 2.422e+04 1.730e-07
 48.36586     10.5 3.021e+04 6.756e-08
 48.37092     11.0 2.775e+04 1.043e-07
 48.37829      8.8 3.425e+04 3.066e-08
 48.38841      4.0 3.749e+04 8.227e-09
 48.39854     -0.8 3.073e+04 4.031e-09
 48.40466     -4.7 2.439e+04 2.978e-09
 48.40972     -3.6 2.492e+04 3.410e-09
 48.42390     -6.3 1.835e+04 2.404e-09
 48.43850     -8.1 1.213e+04 1.859e-09
 48.44862     -6.5 1.316e+04 2.157e-09
 48.46444     -5.2 1.191e+04 1.698e-09
 48.48468     -4.1 1.166e+04 1.376e-09
 48.50493     -3.4 1.125e+04 1.034e-09
 48.51609     -3.6 1.113e+04 7.893e-10
 48.52622     -1.5 1.121e+04 9.310e-10
 48.54543     -1.7 1.095e+04 7.017e-10
 48.56567     -1.9 1.067e+04 5.938e-10
 48.58357     -1.9 1.036e+04 5.910e-10
 48.59369     -0.2 1.061e+04 5.974e-10
 48.60617     -0.0 1.028e+04 5.742e-10
 48.63663      1.4 9.678e+03 4.480e-10
 48.66136      2.9 9.354e+03 3.840e-10
 48.68161      5.7 9.354e+03 3.807e-10
 48.70263      7.2 9.049e+03 3.205e-10
 48.72288      5.7 9.136e+03 3.337e-10
 48.75821      7.2 8.886e+03 2.791e-10
 48.79631      8.9 8.854e+03 2.695e-10
 48.81655     11.0 8.798e+03 2.611e-10
 48.83920     12.5 8.931e+03 2.811e-10
 48.87969     13.6 9.483e+03 3.809e-10
 48.90997     15.1 9.575e+03 4.069e-10
 48.93011     15.1 1.014e+04 5.908e-10
 48.95036     15.1 1.068e+04 8.685e-10
 48.96143     15.3 1.128e+04 1.240e-09
 48.97155     16.3 1.096e+04 1.018e-09
 48.99086     16.3 1.153e+04 1.401e-09
 49.01110     16.5 1.202e+04 1.826e-09
 49.02890     16.9 1.230e+04 2.109e-09
 49.03903     17.8 1.191e+04 1.773e-09
 49.05160     18.1 1.193e+04 1.844e-09
 49.07184     18.6 1.181e+04 1.756e-09
 49.09209     19.0 1.156e+04 1.475e-09
 49.10650     19.1 1.124e+04 1.110e-09
 49.11662     20.0 1.123e+04 1.172e-09
 49.13258     19.8 1.102e+04 8.585e-10
 49.15283     18.9 1.065e+04 5.843e-10
 49.17308     17.5 1.009e+04 3.943e-10
 49.18410     16.4 9.571e+03 2.766e-10
 49.19422     17.2 9.933e+03 3.093e-10
 49.21357     16.5 9.498e+03 2.601e-10
 49.23382     16.0 9.317e+03 2.239e-10
 49.25157     15.9 9.260e+03 2.178e-10
 49.26169     17.3 9.433e+03 2.213e-10
 49.27431     16.4 9.549e+03 2.273e-10
 49.29456     14.9 9.918e+03 2.624e-10
 49.31480     12.9 1.058e+04 4.050e-10
 49.32917     12.0 1.092e+04 6.509e-10
 49.33929     13.1 1.082e+04 5.824e-10
 49.35530     12.3 1.131e+04 8.603e-10
 49.37555     12.2 1.158e+04 1.149e-09
 49.39579     12.2 1.156e+04 1.190e-09
 49.40676     11.8 1.150e+04 1.114e-09
 49.41689     11.9 1.156e+04 1.133e-09
 49.44651     11.3 1.174e+04 1.060e-09
 49.48710      9.7 1.117e+04 7.577e-10
 49.52759     10.4 1.012e+04 4.300e-10
 49.55203     10.3 9.456e+03 2.218e-10
 49.57228     10.9 9.604e+03 2.087e-10
 49.60858     10.3 9.131e+03 1.556e-10
 49.64907     10.7 9.118e+03 1.657e-10
 49.68698     11.7 9.226e+03 2.094e-10
 49.70723     11.7 9.333e+03 2.090e-10
 49.73006     12.7 9.594e+03 2.714e-10
 49.77055     13.7 9.891e+03 3.175e-10
 49.81105     13.8 1.013e+04 3.549e-10
 49.84132     12.5 1.052e+04 4.630e-10
 49.85210     11.9 1.076e+04 5.952e-10
 49.86222     11.8 1.082e+04 6.245e-10
 49.88172     11.3 1.135e+04 8.533e-10
 49.90196     10.8 1.199e+04 1.182e-09
 49.91957     10.0 1.272e+04 1.634e-09
 49.92970      9.2 1.280e+04 1.635e-09
 49.94246      8.7 1.300e+04 1.910e-09
 49.96270      8.4 1.302e+04 2.001e-09
 49.98295      8.2 1.288e+04 1.846e-09
 49.99717      7.6 1.279e+04 1.503e-09
 50.00730      6.6 1.277e+04 1.437e-09
 50.02344      5.3 1.238e+04 1.129e-09
 50.04369      3.5 1.193e+04 9.240e-10
 50.06394      1.6 1.190e+04 8.582e-10
 50.07477     -0.5 1.210e+04 9.361e-10
 50.08489     -1.7 1.215e+04 1.004e-09
 50.10443     -2.4 1.204e+04 9.921e-10
 50.12468     -3.3 1.197e+04 1.322e-09
 50.14224     -3.1 1.209e+04 1.385e-09
 50.15237     -4.1 1.197e+04 1.440e-09
 50.16517     -4.4 1.194e+04 1.223e-09
 50.18542     -4.5 1.174e+04 1.158e-09
 50.21589     -5.6 1.136e+04 7.889e-10
 50.25648     -6.4 1.037e+04 4.515e-10
 50.28751     -6.6 9.775e+03 2.924e-10
 50.30776     -7.3 9.664e+03 2.784e-10
 50.33746     -6.6 9.440e+03 2.283e-10
 50.37796     -4.9 9.328e+03 2.190e-10
 50.41845     -2.9 9.266e+03 2.144e-10
 50.44270     -0.8 9.319e+03 1.967e-10
 50.46295     -1.2 9.441e+03 2.308e-10
 50.49944      0.5 9.613e+03 2.332e-10
 50.53993      1.8 9.981e+03 2.984e-10
 50.57765      2.7 1.038e+04 3.950e-10
 50.59780      2.2 1.044e+04 4.562e-10
 50.61060      3.0 1.054e+04 5.405e-10
 50.63085      3.8 1.062e+04 6.125e-10
 50.65110      5.1 1.077e+04 6.384e-10
 50.66518      5.9 1.085e+04 6.233e-10
 50.67530      5.5 1.086e+04 5.287e-10
 50.69159      6.1 1.085e+04 4.614e-10
 50.71184      5.9 1.080e+04 4.101e-10
 50.73208      5.6 1.078e+04 3.968e-10
 50.74277      5.0 1.092e+04 4.208e-10
 50.75290      4.6 1.080e+04 3.941e-10
 50.77258      4.0 1.096e+04 4.876e-10
 50.79282      4.0 1.095e+04 6.134e-10
 50.81025      4.4 1.098e+04 7.834e-10
 50.82037      4.7 1.080e+04 6.489e-10
 50.83332      5.5 1.093e+04 7.095e-10
 50.85356      6.5 1.106e+04 6.741e-10
 50.87381      6.4 1.114e+04 6.479e-10
 50.88794      7.6 1.095e+04 5.524e-10
 50.90829      7.9 1.037e+04 3.355e-10
 50.94487      8.9 1.008e+04 2.285e-10
 50.98536     10.5 9.826e+03 1.637e-10
 51.02299     12.6 9.685e+03 1.193e-10
 51.04323     13.4 9.517e+03 1.099e-10
 51.06635     15.7 9.564e+03 7.855e-11
 51.10684     17.8 9.613e+03 5.808e-11
 51.14734     20.0 9.530e+03 5.290e-11
 51.17818     22.3 9.480e+03 5.600e-11
 51.19843     22.9 9.444e+03 5.053e-11
 51.22832     25.3 9.409e+03 5.790e-11
 51.26882     27.9 9.434e+03 7.212e-11
 51.30931     30.5 9.501e+03 9.165e-11
 51.33338     33.2 9.607e+03 1.116e-10
 51.35362     33.7 9.608e+03 9.700e-11
 51.39030     36.3 9.721e+03 1.087e-10
 51.43079     38.7 9.840e+03 1.177e-10
 51.46832     40.9 9.973e+03 1.313e-10
 51.48857     40.9 1.001e+04 1.278e-10
 51.51178     42.9 1.029e+04 1.734e-10
 51.55227     44.9 1.080e+04 2.589e-10
 51.59277     45.7 1.137e+04 3.892e-10
 51.62304     45.4 1.176e+04 7.278e-10
 51.63345     46.1 1.205e+04 1.068e-09
 51.64357     46.6 1.196e+04 1.058e-09
 51.66344     47.6 1.228e+04 1.150e-09
 51.68368     48.2 1.234e+04 1.138e-09
 51.70092     48.7 1.242e+04 1.049e-09
 51.71104     48.5 1.227e+04 7.766e-10
 51.72418     48.3 1.225e+04 6.505e-10
 51.74442     48.1 1.205e+04 5.365e-10
 51.76454     47.7 1.173e+04 4.655e-10
 51.77466     47.7 1.176e+04 4.793e-10
 51.77861     48.0 1.179e+04 5.055e-10
 51.79896     48.4 1.133e+04 3.967e-10
 51.83573     49.3 1.136e+04 4.088e-10
 51.87622     49.3 1.159e+04 5.058e-10
 51.91366     49.2 1.226e+04 9.283e-10
 51.93391     50.7 1.191e+04 6.546e-10
 51.95721     50.7 1.279e+04 1.335e-09
 51.99770     50.4 1.324e+04 1.684e-09
 52.03820     50.5 1.304e+04 1.467e-09
 52.06885     51.0 1.255e+04 8.458e-10
 52.08910     51.8 1.276e+04 1.042e-09
 52.11919     52.0 1.219e+04 4.885e-10
 52.15968     51.7 1.175e+04 2.398e-10
 52.20017     51.9 1.132e+04 1.936e-10
 52.22405     53.3 1.114e+04 1.884e-10
 52.24430     54.1 1.113e+04 2.726e-10
 52.28116     56.1 1.112e+04 2.738e-10
 52.32165     58.2 1.113e+04 2.813e-10
 52.35900     60.2 1.118e+04 3.012e-10
 52.37924     60.7 1.134e+04 3.615e-10
 52.40264     62.6 1.143e+04 4.123e-10
 52.44313     64.6 1.155e+04 5.052e-10
 52.48363     66.7 1.169e+04 6.444e-10
 52.51419     68.7 1.187e+04 8.284e-10
 52.53444     68.5 1.178e+04 8.275e-10
 52.56462     70.5 1.200e+04 1.065e-09
 52.60511     72.6 1.224e+04 1.324e-09
 52.64560     74.5 1.249e+04 1.533e-09
 52.66938     76.1 1.272e+04 1.641e-09
 52.68963     75.3 1.205e+04 7.677e-10
 52.72659     76.5 1.203e+04 8.258e-10
 52.76708     77.6 1.204e+04 9.094e-10
 52.80433     78.7 1.210e+04 9.792e-10
 52.82458     78.1 1.187e+04 8.445e-10
 52.84807     78.8 1.194e+04 8.524e-10
 52.88856     79.4 1.181e+04 7.522e-10
 52.92906     80.0 1.135e+04 5.437e-10
 52.95953     80.6 1.051e+04 3.508e-10
 52.97977     79.3 1.037e+04 3.136e-10
 53.01005     80.0 9.806e+03 2.380e-10
 53.05054     80.8 9.928e+03 2.419e-10
 53.09103     81.4 1.036e+04 2.803e-10
 53.11462     81.2 1.045e+04 3.033e-10
 53.13487     80.5 1.046e+04 3.258e-10
 53.17202     80.2 1.071e+04 4.348e-10
 53.21251     79.7 1.076e+04 4.857e-10
 53.24967     79.2 1.073e+04 4.761e-10
 53.26992     80.0 1.057e+04 4.336e-10
 53.29350     79.4 1.049e+04 3.980e-10
 53.33399     78.8 1.036e+04 3.498e-10
 53.37449     78.9 1.021e+04 3.082e-10
 53.40486     79.3 1.005e+04 2.776e-10
 53.42511     80.3 9.858e+03 2.592e-10
 53.45548     80.9 9.755e+03 2.500e-10
 53.49597     81.9 9.769e+03 2.515e-10
 53.53646     83.2 9.857e+03 2.705e-10
 53.56006     84.3 1.004e+04 3.183e-10
 53.58030     85.0 9.802e+03 2.800e-10
 53.61745     86.1 9.967e+03 3.048e-10
 53.65794     87.1 1.011e+04 3.268e-10
 53.68822     87.8 1.005e+04 3.191e-10
 53.70493     88.4 9.988e+03 3.116e-10
 53.71515     88.6 9.678e+03 2.633e-10
 53.73893     89.9 9.772e+03 2.637e-10
 53.77942     90.8 9.863e+03 2.708e-10
 53.80970     91.7 9.806e+03 2.645e-10
 53.82985     92.4 9.880e+03 2.774e-10
 53.85000     93.1 1.003e+04 3.180e-10
 53.87025     93.5 9.662e+03 2.524e-10
 53.89059     94.4 9.814e+03 3.055e-10
 53.91083     95.4 1.011e+04 4.029e-10
 53.92760     95.9 1.102e+04 5.987e-10
 53.93772     96.4 9.810e+03 3.054e-10
 53.95133     97.0 1.019e+04 3.810e-10
 53.97157     97.5 1.161e+04 5.536e-10
 53.99182     97.6 1.367e+04 9.594e-10
 54.00520     96.9 1.490e+04 1.763e-09
 54.01532     97.9 1.260e+04 4.955e-10
 54.03231     96.6 1.451e+04 9.749e-10
 54.05256     94.9 1.500e+04 2.033e-09
 54.07267     94.7 1.520e+04 4.165e-09
 54.08280     95.2 1.488e+04 1.406e-09
 54.09306     94.8 1.520e+04 3.193e-09
 54.11330     95.1 1.549e+04 6.147e-09
 54.13355     95.9 1.583e+04 9.042e-09
 54.15027     96.5 1.599e+04 9.468e-09
 54.16039     96.3 1.540e+04 7.349e-09
 54.17404     97.0 1.548e+04 7.783e-09
 54.19429     97.8 1.540e+04 7.460e-09
 54.21454     98.7 1.511e+04 6.138e-09
 54.22787     99.1 1.479e+04 4.000e-09
 54.23799     99.5 1.441e+04 5.028e-09
 54.25503     99.8 1.411e+04 3.407e-09
 54.27528     99.7 1.379e+04 1.934e-09
 54.29544     97.6 1.258e+04 7.615e-10
 54.31568    100.1 1.286e+04 1.016e-09
 54.34624     99.8 1.201e+04 5.621e-10
 54.38683     98.6 9.794e+03 2.474e-10
 54.42732     98.7 8.803e+03 1.714e-10
 54.45073     99.4 8.557e+03 1.470e-10
 54.47098    100.3 8.909e+03 1.915e-10
 54.50831    101.0 8.863e+03 1.903e-10
 54.54880    102.4 8.868e+03 1.928e-10
 54.58568    103.9 8.961e+03 2.098e-10
 54.60592    103.7 9.633e+03 3.553e-10
 54.61957    104.5 9.514e+03 3.480e-10
 54.63972    105.0 9.543e+03 3.592e-10
 54.65997    105.3 9.681e+03 3.996e-10
 54.67320    105.3 9.946e+03 4.761e-10
 54.68333    104.3 1.028e+04 6.104e-10
 54.70046    103.8 1.065e+04 7.538e-10
 54.72071    102.4 1.133e+04 1.012e-09
 54.74068    100.1 1.232e+04 1.508e-09
 54.75080     97.1 1.355e+04 2.349e-09
 54.76120     93.7 1.490e+04 3.412e-09
 54.78145     89.4 1.606e+04 3.450e-09
 54.80169     83.2 1.612e+04 3.178e-09
 54.81827     76.1 1.548e+04 2.559e-09
 54.82840     69.1 1.520e+04 2.419e-09
 54.83676     63.9 1.307e+04 1.904e-09
 54.84688     65.6 1.566e+04 1.930e-09
 54.86243     61.5 1.210e+04 1.529e-09
 54.88268     60.5 1.146e+04 1.203e-09
 54.89587     60.1 1.119e+04 9.533e-10
 54.90599     57.4 1.123e+04 9.063e-10
 54.92318     57.2 1.079e+04 7.041e-10
 54.94342     57.1 1.041e+04 5.655e-10
 54.96334     57.1 1.009e+04 4.596e-10
 54.97347     56.0 1.019e+04 4.785e-10
 54.98392     56.3 1.018e+04 4.593e-10
 55.00416     56.3 1.025e+04 4.724e-10
 55.03092     56.3 1.034e+04 4.897e-10
 55.05116     55.2 1.100e+04 7.407e-10
 55.06490     54.1 1.132e+04 9.150e-10
 55.08515     53.0 1.179e+04 1.245e-09
 55.10540     52.5 1.226e+04 1.592e-09
 55.11854     52.0 1.267e+04 1.813e-09
 55.12866     51.0 1.328e+04 2.199e-09
 55.14589     50.4 1.327e+04 2.126e-09
 55.16614     49.9 1.316e+04 1.892e-09
 55.18611     50.3 1.258e+04 1.267e-09
 55.19623     48.5 1.353e+04 1.702e-09
 55.20663     48.2 1.294e+04 1.196e-09
 55.23710     48.1 1.255e+04 8.077e-10
 55.27769     48.6 1.156e+04 4.152e-10
 55.31818     49.1 1.069e+04 2.990e-10
 55.34140     50.0 1.057e+04 3.016e-10
 55.36165     50.6 1.134e+04 4.458e-10
 55.39917     51.0 1.149e+04 4.944e-10
 55.42944     50.3 1.180e+04 6.057e-10
 55.44959     48.2 1.216e+04 7.664e-10
 55.46984     45.8 1.251e+04 1.286e-09
 55.48628     43.5 1.389e+04 2.230e-09
 55.49640     39.8 1.624e+04 3.891e-09
 55.51033     35.1 1.832e+04 6.377e-09
 55.52503     33.7 1.895e+04 7.935e-09
 55.53004     32.1 1.950e+04 8.973e-09
 55.53554     29.9 1.985e+04 1.109e-08
 55.54567     28.4 1.896e+04 1.310e-08
 55.55579     28.0 1.859e+04 1.291e-08
 55.56378     28.0 1.777e+04 1.190e-08
 55.56884     27.3 1.703e+04 9.844e-09
 55.57604     27.0 1.640e+04 8.336e-09
 55.59127     27.5 1.534e+04 5.146e-09
 55.61157     27.2 1.427e+04 2.295e-09
 55.63135     24.5 1.300e+04 7.857e-10
 55.64147     20.7 1.167e+04 4.575e-10
 55.65206     17.3 1.008e+04 2.890e-10
 55.68253     17.7 9.774e+03 2.547e-10
 55.72312     18.8 9.318e+03 2.090e-10
 55.76361     20.0 9.174e+03 1.904e-10
 55.78674     21.1 9.184e+03 1.897e-10
 55.80699     21.4 9.395e+03 2.486e-10
 55.84460     21.9 9.523e+03 2.650e-10
 55.88509     22.1 9.783e+03 3.082e-10
 55.91537     21.6 1.002e+04 3.602e-10
 55.93161     20.9 1.029e+04 4.512e-10
 55.94174     20.0 1.056e+04 5.314e-10
 55.95576     19.2 1.096e+04 7.262e-10
 55.97601     18.1 1.154e+04 1.041e-09
 55.99626     16.8 1.237e+04 1.552e-09
 56.00921     15.6 1.322e+04 2.378e-09
 56.01933     15.7 1.284e+04 2.180e-09
 56.03675     15.0 1.340e+04 2.834e-09
 56.05700     14.2 1.405e+04 3.579e-09
 56.07669     12.7 1.497e+04 4.591e-09
 56.08681     13.5 1.373e+04 2.707e-09
 56.09749     11.0 1.508e+04 3.702e-09
 56.11774      7.0 1.669e+04 6.165e-09
 56.13798      3.4 1.734e+04 1.011e-08
 56.15428      2.0 1.786e+04 1.516e-08
 56.16441      2.0 1.798e+04 1.569e-08
 56.17848      1.6 1.827e+04 1.788e-08
 56.19873      1.5 1.800e+04 1.540e-08
 56.21897      1.0 1.762e+04 9.674e-09
 56.23188     -3.0 1.780e+04 4.911e-09
 56.24200     -0.3 1.751e+04 5.540e-09
 56.25947     -8.2 1.716e+04 3.075e-09
 56.27971    -15.2 1.447e+04 2.400e-09
 56.29935    -17.4 1.307e+04 2.378e-09
 56.30948    -15.4 1.323e+04 2.411e-09
 56.32021    -15.7 1.266e+04 1.999e-09
 56.34045    -16.6 1.240e+04 1.276e-09
 56.36692    -19.4 1.176e+04 7.513e-10
 56.38717    -18.6 1.198e+04 7.132e-10
 56.41141    -22.4 1.161e+04 6.342e-10
 56.45201    -25.4 1.202e+04 1.003e-09
 56.48228    -26.4 1.297e+04 1.957e-09
 56.50243    -26.4 1.346e+04 2.349e-09
 56.52202    -26.9 1.379e+04 2.441e-09
 56.53214    -27.2 1.474e+04 3.195e-09
 56.54292    -28.8 1.424e+04 2.723e-09
 56.56317    -30.8 1.355e+04 2.338e-09
 56.58342    -32.1 1.321e+04 2.216e-09
 56.59962    -32.7 1.301e+04 2.221e-09
 56.60974    -33.6 1.259e+04 1.882e-09
 56.62391    -33.9 1.246e+04 1.791e-09
 56.64416    -34.2 1.229e+04 1.693e-09
 56.66440    -34.5 1.209e+04 1.577e-09
 56.67722    -34.7 1.192e+04 1.433e-09
 56.68734    -35.4 1.139e+04 1.130e-09
 56.70490    -35.4 1.136e+04 1.120e-09
 56.73536    -35.9 1.096e+04 9.656e-10
 56.77596    -36.3 1.066e+04 8.017e-10
 56.81236    -36.8 1.027e+04 5.707e-10
 56.83261    -36.8 1.004e+04 4.884e-10
 56.85694    -37.9 9.560e+03 2.841e-10
 56.89744    -39.7 9.264e+03 2.228e-10
 56.93793    -41.1 9.248e+03 2.169e-10
 56.96755    -42.1 9.569e+03 2.682e-10
 56.98780    -41.0 9.285e+03 2.461e-10
 57.01892    -41.1 9.574e+03 3.033e-10
 57.05941    -40.9 9.677e+03 3.291e-10
 57.09990    -40.3 9.720e+03 2.837e-10
 57.12275    -40.1 9.454e+03 1.930e-10
 57.14299    -38.6 9.513e+03 2.233e-10
 57.18089    -38.4 9.284e+03 1.639e-10
 57.22139    -38.0 9.128e+03 1.549e-10
 57.25769    -37.4 9.279e+03 1.872e-10
 57.27794    -37.9 1.021e+04 3.737e-10
 57.30237    -36.6 1.076e+04 5.775e-10
 57.34287    -35.2 1.114e+04 6.678e-10
 57.38336    -34.3 1.111e+04 5.885e-10
 57.41289    -33.1 1.070e+04 4.076e-10
 57.43314    -33.4 1.146e+04 8.290e-10
 57.46435    -32.6 1.084e+04 5.473e-10
 57.50484    -31.3 1.060e+04 4.557e-10
 57.54533    -29.5 1.034e+04 4.018e-10
 57.56808    -27.5 1.024e+04 3.658e-10
 57.58833    -28.2 1.036e+04 3.950e-10
 57.62632    -26.6 1.019e+04 3.254e-10
 57.66682    -25.1 1.001e+04 2.801e-10
 57.70303    -23.6 9.864e+03 2.564e-10
 57.72328    -24.5 9.948e+03 2.831e-10
 57.74780    -23.3 9.918e+03 2.888e-10
 57.78830    -22.0 9.962e+03 3.020e-10
 57.82879    -20.9 1.000e+04 2.923e-10
 57.85823    -19.8 9.888e+03 2.749e-10
 57.87847    -20.2 1.036e+04 3.848e-10
 57.89906    -20.0 1.020e+04 3.336e-10
 57.91930    -19.4 1.019e+04 3.333e-10
 57.95027    -18.9 9.899e+03 3.427e-10
 57.99076    -17.8 9.885e+03 3.785e-10
 58.01342    -16.5 9.913e+03 3.632e-10
 58.03367    -17.3 1.026e+04 4.701e-10
 58.07175    -16.2 1.020e+04 4.336e-10
 58.11225    -15.3 9.978e+03 4.008e-10
 58.14837    -14.1 9.805e+03 3.662e-10
 58.16861    -14.5 1.003e+04 4.507e-10
 58.18301    -13.3 9.988e+03 4.426e-10
 58.20316    -13.2 1.005e+04 4.510e-10
 58.22341    -12.4 1.002e+04 4.506e-10
 58.23589    -12.1 1.008e+04 4.606e-10
 58.24602    -12.6 1.034e+04 5.760e-10
 58.26390    -12.4 1.051e+04 6.391e-10
 58.28415    -12.1 1.073e+04 7.023e-10
 58.30337    -12.0 1.101e+04 7.714e-10
 58.31349    -13.1 1.168e+04 1.153e-09
 58.32464    -14.0 1.246e+04 1.431e-09
 58.34489    -15.4 1.321e+04 1.846e-09
 58.36514    -16.2 1.328e+04 2.281e-09
 58.38096    -15.9 1.302e+04 2.566e-09
 58.39109    -16.0 1.304e+04 2.865e-09
 58.40563    -15.1 1.261e+04 2.627e-09
 58.42588    -14.1 1.222e+04 2.247e-09
 58.44612    -13.4 1.198e+04 1.723e-09
 58.45856    -13.2 1.152e+04 1.269e-09
 58.46868    -14.0 1.125e+04 8.707e-10
 58.48662    -14.6 1.086e+04 6.340e-10
 58.50686    -15.0 1.057e+04 4.844e-10
 58.52603    -15.1 1.027e+04 4.128e-10
 58.53616    -16.1 9.824e+03 3.148e-10
 58.54736    -15.3 9.640e+03 2.864e-10
 58.56760    -15.2 9.586e+03 2.814e-10
 58.58785    -14.4 9.621e+03 2.933e-10
 58.60363    -14.2 9.618e+03 2.956e-10
 58.61385    -14.2 9.517e+03 2.799e-10
 58.63866    -13.2 9.739e+03 3.240e-10
 58.66894    -13.1 9.821e+03 3.737e-10
 58.68123    -12.4 9.950e+03 4.455e-10
 58.69135    -12.9 9.933e+03 4.155e-10
 58.70933    -12.3 1.015e+04 5.155e-10
 58.72958    -11.9 1.053e+04 6.652e-10
 58.74870    -11.4 1.087e+04 8.386e-10
 58.75883    -11.5 1.064e+04 7.190e-10
 58.77007    -10.7 1.093e+04 8.232e-10
 58.79032    -10.0 1.127e+04 9.032e-10
 58.81057     -9.3 1.159e+04 9.249e-10
 58.82630     -8.7 1.163e+04 8.909e-10
 58.83642    -10.1 1.110e+04 5.910e-10
 58.85106    -10.3 1.081e+04 5.637e-10
 58.87131    -10.0 1.046e+04 5.375e-10
 58.89155     -9.4 1.034e+04 5.284e-10
 58.90390     -8.4 1.037e+04 5.186e-10
 58.91402     -9.9 1.030e+04 5.012e-10
 58.93205     -9.6 1.050e+04 5.198e-10
 58.95229     -9.8 1.089e+04 5.579e-10
 58.97137    -10.2 1.144e+04 6.401e-10
 58.98149    -12.6 1.151e+04 6.946e-10
 58.99279    -13.3 1.186e+04 8.072e-10
 59.01303    -14.4 1.198e+04 9.389e-10
 59.03328    -16.1 1.199e+04 1.040e-09
 59.04897    -17.8 1.235e+04 1.146e-09
 59.05909    -20.1 1.160e+04 8.912e-10
 59.07377    -22.8 1.188e+04 9.464e-10
 59.09402    -26.8 1.254e+04 1.052e-09
 59.10916    -30.5 1.271e+04 1.071e-09
 59.11923    -31.0 1.273e+04 1.068e-09
 59.12647    -34.8 1.607e+04 1.222e-09
 59.13664    -33.6 1.511e+04 1.061e-09
 59.14965    -38.6 2.267e+04 1.426e-09
 59.15973    -42.8 3.128e+04 2.465e-09
 59.16527    -48.0 3.083e+04 5.959e-09
 59.17033    -43.1 3.033e+04 2.408e-09
 59.17997    -47.4 2.960e+04 5.602e-09
 59.19010    -52.2 2.444e+04 1.248e-08
 59.19900    -53.2 2.098e+04 2.352e-08
 59.20406    -51.6 2.366e+04 1.216e-08
 59.21034    -52.5 2.100e+04 2.480e-08
 59.22047    -51.8 2.035e+04 4.302e-08
 59.23059    -50.7 2.034e+04 6.174e-08
 59.23780    -49.3 2.074e+04 7.291e-08
 59.24286    -50.0 2.053e+04 6.378e-08
 59.25084    -48.6 2.111e+04 7.750e-08
 59.26096    -47.7 2.143e+04 8.026e-08
 59.27108    -46.9 2.187e+04 6.786e-08
 59.27660    -47.0 2.219e+04 4.944e-08
 59.28166    -46.2 2.209e+04 5.527e-08
 59.29133    -46.7 2.260e+04 4.526e-08
 59.30145    -47.8 2.257e+04 3.518e-08
 59.31034    -49.1 2.204e+04 2.804e-08
 59.31540    -48.0 2.288e+04 3.479e-08
 59.32170    -49.7 2.191e+04 2.876e-08
 59.33182    -50.3 2.099e+04 2.520e-08
 59.34195    -50.3 2.071e+04 2.360e-08
 59.34914    -50.1 2.068e+04 2.424e-08
 59.35420    -49.9 2.096e+04 2.788e-08
 59.36219    -49.6 2.112e+04 2.895e-08
 59.37232    -49.4 2.122e+04 2.975e-08
 59.38244    -49.1 2.130e+04 2.992e-08
 59.38793    -49.3 2.113e+04 2.863e-08
 59.39300    -49.0 2.143e+04 3.076e-08
 59.40269    -48.9 2.126e+04 2.943e-08
 59.41281    -48.9 2.082e+04 2.646e-08
 59.42167    -48.9 2.038e+04 2.409e-08
 59.42673    -48.2 2.093e+04 2.448e-08
 59.43306    -48.8 2.005e+04 2.089e-08
 59.43994    -49.0 1.961e+04 1.970e-08
 59.44505    -48.3 1.963e+04 1.390e-08
 59.45846    -48.6 1.853e+04 1.108e-08
 59.47871    -48.4 1.738e+04 8.994e-09
 59.49430    -48.0 1.642e+04 7.371e-09
 59.50443    -47.4 1.652e+04 4.743e-09
 59.51920    -47.4 1.573e+04 4.166e-09
 59.53945    -47.4 1.488e+04 3.692e-09
 59.55970    -47.1 1.404e+04 3.357e-09
 59.57190    -46.2 1.340e+04 3.186e-09
 59.58202    -46.0 1.332e+04 2.425e-09
 59.60019    -44.9 1.284e+04 2.486e-09
 59.62044    -43.5 1.260e+04 2.519e-09
 59.63938    -42.0 1.258e+04 2.325e-09
 59.64950    -41.8 1.222e+04 2.009e-09
 59.66093    -40.3 1.220e+04 1.901e-09
 59.69140    -38.9 1.197e+04 1.519e-09
 59.73199    -36.8 1.136e+04 1.112e-09
 59.77249    -34.5 1.074e+04 7.099e-10
 59.79476    -32.5 1.023e+04 4.310e-10
 59.81501    -30.8 1.073e+04 7.045e-10
 59.85347    -28.9 1.034e+04 4.894e-10
 59.89397    -27.0 9.952e+03 3.689e-10
 59.92971    -24.8 9.560e+03 2.942e-10
 59.94996    -23.5 1.048e+04 5.605e-10
 59.97495    -21.2 1.021e+04 4.961e-10
 60.01545    -19.5 9.678e+03 3.869e-10
 60.05594    -18.3 9.291e+03 3.315e-10
 60.08491    -17.1 9.470e+03 3.504e-10
 60.10515    -15.8 1.022e+04 6.020e-10
 60.13693    -14.9 1.019e+04 4.959e-10
 60.17742    -13.8 1.033e+04 5.210e-10
 60.20769    -12.9 1.038e+04 4.899e-10
 60.22784    -12.3 1.045e+04 5.013e-10
 60.23991    -11.7 1.045e+04 5.467e-10
 60.25003    -11.9 1.043e+04 5.265e-10
 60.26834    -11.6 1.053e+04 5.522e-10
 60.28858    -11.0 1.049e+04 6.411e-10
 60.30738    -10.5 1.065e+04 6.910e-10
 60.31750    -10.5 1.073e+04 7.400e-10
 60.32908     -9.9 1.083e+04 8.530e-10
 60.34932     -9.2 1.102e+04 9.333e-10
 60.36957     -8.7 1.124e+04 1.026e-09
 60.38498     -8.6 1.164e+04 1.176e-09
 60.39510     -8.6 1.196e+04 1.379e-09
 60.41007     -9.5 1.289e+04 1.818e-09
 60.43031    -11.0 1.375e+04 2.741e-09
 60.45056    -11.9 1.452e+04 4.148e-09
 60.46257    -11.9 1.507e+04 6.194e-09
 60.47270    -11.8 1.528e+04 6.692e-09
 60.49105    -10.8 1.566e+04 9.218e-09
 60.51130     -9.7 1.614e+04 1.022e-08
 60.53005     -8.9 1.624e+04 9.340e-09
 60.54017     -8.5 1.596e+04 8.707e-09
 60.55179     -7.9 1.553e+04 6.788e-09
 60.57204     -7.6 1.461e+04 4.723e-09
 60.59229     -7.7 1.392e+04 2.861e-09
 60.60764     -8.2 1.291e+04 1.766e-09
 60.61777     -8.4 1.237e+04 1.387e-09
 60.63278     -9.3 1.116e+04 9.227e-10
 60.65303     -9.3 1.027e+04 6.590e-10
 60.67327     -8.7 9.807e+03 5.389e-10
 60.68524     -7.8 9.619e+03 4.464e-10
 60.69537     -7.3 9.470e+03 4.253e-10
 60.71377     -6.4 9.289e+03 3.723e-10
 60.73401     -5.5 9.263e+03 3.244e-10
 60.75272     -5.3 9.260e+03 3.194e-10
 60.76284     -4.8 9.166e+03 3.132e-10
 60.78473     -3.7 9.235e+03 2.914e-10
 60.82038     -1.9 9.272e+03 2.958e-10
 60.84063     -0.7 8.921e+03 2.366e-10
 60.86581      0.9 9.017e+03 2.400e-10
 60.90631      2.4 9.121e+03 2.591e-10
 60.94680      3.8 9.225e+03 3.068e-10
 60.97128      5.6 9.241e+03 3.515e-10
 60.97981      5.2 9.019e+03 2.891e-10
 60.99583      5.7 8.786e+03 2.339e-10
 61.02779      7.4 8.835e+03 2.321e-10
 61.06828      8.5 9.004e+03 2.409e-10
 61.10878      8.8 9.218e+03 2.661e-10
 61.13077      8.8 9.361e+03 3.015e-10
 61.15102      8.9 9.253e+03 2.577e-10
 61.17954      8.0 9.513e+03 3.470e-10
 61.19805      7.8 9.790e+03 4.485e-10
 61.20818      7.1 9.946e+03 4.756e-10
 61.21994      6.2 1.068e+04 7.158e-10
 61.24018      5.7 1.126e+04 1.018e-09
 61.26043      5.2 1.191e+04 1.410e-09
 61.27565      5.1 1.251e+04 1.914e-09
 61.28577      5.3 1.222e+04 1.769e-09
 61.30093      6.0 1.243e+04 1.841e-09
 61.32117      6.9 1.250e+04 1.761e-09
 61.34142      7.3 1.256e+04 1.543e-09
 61.35325      7.1 1.249e+04 1.259e-09
 61.36337      5.3 1.199e+04 1.052e-09
 61.38191      5.3 1.166e+04 9.173e-10
 61.40216      5.6 1.145e+04 8.243e-10
 61.42072      6.2 1.155e+04 8.234e-10
 61.43084      5.7 1.150e+04 8.152e-10
 61.44265      5.5 1.211e+04 8.905e-10
 61.46290      4.2 1.333e+04 1.179e-09
 61.48315      1.5 1.576e+04 2.192e-09
 61.49827     -0.5 1.670e+04 3.300e-09
 61.50834     -0.6 1.612e+04 3.207e-09
 61.52359     -2.3 1.841e+04 5.903e-09
 61.53707     -7.7 2.157e+04 1.284e-08
 61.54208     -9.3 2.292e+04 1.126e-08
 61.54885    -17.3 2.703e+04 2.382e-08
 61.55897    -23.9 2.761e+04 6.201e-08
 61.56910    -28.7 2.465e+04 1.600e-07
 61.57582    -32.3 2.262e+04 3.025e-07
 61.58088    -32.6 2.244e+04 2.729e-07
 61.58935    -34.7 2.207e+04 3.007e-07
 61.59947    -36.3 2.258e+04 1.941e-07
 61.60955    -38.8 2.398e+04 8.176e-08
 61.61968    -43.3 2.386e+04 2.631e-08
 61.62984    -49.6 2.016e+04 1.346e-08
 61.63996    -53.3 1.788e+04 9.156e-09
 61.64835    -54.4 1.725e+04 7.909e-09
 61.65341    -54.9 1.656e+04 6.213e-09
 61.66021    -55.3 1.632e+04 5.820e-09
 61.67033    -55.4 1.605e+04 5.439e-09
 61.68557    -55.4 1.572e+04 4.837e-09
 61.70586    -54.5 1.537e+04 4.304e-09
 61.72099    -53.4 1.482e+04 3.385e-09
 61.73111    -53.0 1.475e+04 3.500e-09
 61.74636    -51.9 1.438e+04 2.819e-09
 61.76660    -51.5 1.396e+04 2.200e-09
 61.78685    -52.1 1.376e+04 1.912e-09
 61.79858    -54.1 1.432e+04 1.901e-09
 61.80871    -56.7 1.668e+04 3.111e-09
 61.82734    -60.2 1.737e+04 4.283e-09
 61.84759    -61.7 1.755e+04 5.771e-09
 61.86606    -62.0 1.764e+04 6.561e-09
 61.87618    -62.7 1.683e+04 6.998e-09
 61.88808    -62.5 1.617e+04 5.215e-09
 61.90833    -63.1 1.574e+04 3.414e-09
 61.92858    -66.2 1.524e+04 2.160e-09
 61.94365    -70.1 1.323e+04 1.300e-09
 61.95378    -72.6 1.104e+04 7.100e-10
 61.96907    -74.2 1.020e+04 6.159e-10
 61.98932    -74.5 1.012e+04 6.369e-10
 62.00956    -74.5 1.038e+04 8.156e-10
 62.02125    -74.2 1.074e+04 1.030e-09
 62.03137    -74.1 1.061e+04 9.020e-10
 62.05006    -73.8 1.101e+04 1.123e-09
 62.07030    -73.4 1.139e+04 1.353e-09
 62.08872    -73.1 1.172e+04 1.559e-09
 62.09885    -73.0 1.158e+04 1.405e-09
 62.11080    -72.7 1.182e+04 1.560e-09
 62.13105    -72.4 1.192e+04 1.624e-09
 62.15129    -72.2 1.194e+04 1.631e-09
 62.16632    -71.9 1.171e+04 1.501e-09
 62.17645    -71.7 1.161e+04 1.422e-09
 62.19179    -71.3 1.127e+04 1.228e-09
 62.21203    -70.9 1.083e+04 1.005e-09
 62.23228    -70.3 1.035e+04 7.947e-10
 62.24392    -69.6 9.870e+03 6.142e-10
 62.25404    -69.2 9.799e+03 5.924e-10
 62.27277    -68.5 9.430e+03 4.688e-10
 62.29302    -68.1 9.242e+03 4.104e-10
 62.31149    -67.6 9.055e+03 3.585e-10
 62.33183    -66.9 8.998e+03 3.485e-10
 62.36408    -64.7 8.599e+03 2.768e-10
 62.40457    -62.3 8.396e+03 2.381e-10
 62.44507    -59.9 8.306e+03 2.199e-10
 62.46678    -57.4 8.238e+03 2.067e-10
 62.48703    -56.7 8.242e+03 2.131e-10
 62.52605    -54.1 8.176e+03 2.024e-10
 62.56655    -51.4 8.084e+03 1.894e-10
 62.60173    -48.7 7.960e+03 1.758e-10
 62.62198    -48.0 7.870e+03 1.701e-10
 62.64753    -45.2 7.777e+03 1.616e-10
 62.68803    -42.4 7.754e+03 1.595e-10
 62.72852    -39.8 7.777e+03 1.672e-10
 62.75692    -37.5 8.072e+03 2.097e-10
 62.77717    -36.4 7.821e+03 1.705e-10
 62.80951    -34.1 8.220e+03 2.411e-10
 62.85000    -32.0 8.871e+03 3.640e-10
 62.89050    -31.1 9.977e+03 5.766e-10
 62.91202    -31.2 1.301e+04 8.118e-10
 62.92205    -30.4 1.231e+04 7.664e-10
 62.94092    -30.5 1.239e+04 1.023e-09
 62.96117    -29.8 1.182e+04 1.300e-09
 62.97940    -30.7 1.234e+04 1.765e-09
 62.98952    -29.5 1.259e+04 1.838e-09
 63.00166    -30.7 1.318e+04 2.553e-09
 63.02191    -31.5 1.358e+04 3.188e-09
 63.04215    -32.2 1.388e+04 3.539e-09
 63.05699    -33.2 1.434e+04 3.649e-09
 63.06712    -31.7 1.460e+04 4.314e-09
 63.08265    -33.1 1.467e+04 3.825e-09
 63.10289    -35.8 1.480e+04 3.270e-09
 63.12314    -38.9 1.489e+04 3.153e-09
 63.13459    -41.5 1.573e+04 3.559e-09
 63.14471    -42.3 1.602e+04 4.823e-09
 63.16363    -44.3 1.669e+04 5.914e-09
 63.18388    -46.1 1.698e+04 6.814e-09
 63.20207    -47.4 1.673e+04 7.344e-09
 63.21219    -45.6 1.657e+04 7.126e-09
 63.22437    -46.3 1.607e+04 6.204e-09
 63.24462    -46.8 1.579e+04 5.281e-09
 63.26487    -47.2 1.563e+04 4.067e-09
 63.27966    -47.9 1.536e+04 2.597e-09
 63.28979    -51.8 1.380e+04 1.022e-09
 63.30536    -56.5 1.167e+04 5.535e-10
 63.32561    -60.4 1.018e+04 3.931e-10
 63.34585    -62.3 9.745e+03 3.658e-10
 63.35726    -63.3 9.695e+03 3.715e-10
 63.36738    -63.6 9.591e+03 3.258e-10
 63.38635    -64.2 9.870e+03 3.287e-10
 63.40660    -64.9 1.270e+04 3.046e-10
 63.42473    -67.7 3.168e+04 2.209e-10
 63.43486    -69.8 3.730e+04 1.900e-10
 63.44709    -74.1 6.210e+04 2.309e-10
 63.46734    -76.2 6.678e+04 3.909e-10
 63.48758    -76.8 5.723e+04 8.918e-10
 63.50233    -76.3 4.494e+04 2.241e-09
 63.51245    -78.5 4.383e+04 2.736e-09
 63.52297    -79.1 3.227e+04 1.142e-08
 63.53304    -78.4 3.099e+04 1.195e-08
 63.54103    -76.4 2.757e+04 2.227e-08
 63.54609    -76.5 2.818e+04 2.088e-08
 63.55329    -75.1 2.688e+04 2.556e-08
 63.56341    -73.4 2.502e+04 3.584e-08
 63.57353    -72.1 2.428e+04 4.336e-08
 63.57983    -70.7 2.335e+04 5.390e-08
 63.58489    -70.7 2.410e+04 4.376e-08
 63.59378    -69.3 2.350e+04 5.131e-08
 63.60390    -68.1 2.289e+04 6.173e-08
 63.61357    -67.0 2.259e+04 7.278e-08
 63.61863    -67.4 2.338e+04 5.479e-08
 63.62415    -66.7 2.285e+04 6.663e-08
 63.63427    -66.1 2.261e+04 8.072e-08
 63.64440    -65.4 2.257e+04 9.960e-08
 63.65237    -65.2 2.258e+04 1.223e-07
 63.65743    -66.3 2.329e+04 9.414e-08
 63.66464    -66.1 2.284e+04 1.142e-07
 63.67477    -65.7 2.246e+04 1.353e-07
 63.68489    -65.5 2.247e+04 1.575e-07
 63.69116    -66.1 2.272e+04 1.673e-07
 63.69623    -67.6 2.305e+04 1.161e-07
 63.70514    -69.1 2.306e+04 1.143e-07
 63.71526    -70.3 2.319e+04 1.046e-07
 63.72490    -70.8 2.364e+04 9.293e-08
 63.72996    -70.4 2.361e+04 8.218e-08
 63.73551    -70.2 2.430e+04 7.474e-08
 63.74563    -69.7 2.471e+04 6.997e-08
 63.75576    -69.0 2.489e+04 6.752e-08
 63.76370    -68.1 2.576e+04 6.191e-08
 63.76876    -68.1 2.540e+04 6.241e-08
 63.77600    -67.6 2.626e+04 5.606e-08
 63.78613    -67.2 2.701e+04 4.627e-08
 63.79625    -66.6 2.764e+04 3.537e-08
 63.80250    -66.1 2.790e+04 2.619e-08
 63.80756    -66.0 2.714e+04 3.153e-08
 63.81650    -65.6 2.709e+04 2.481e-08
 63.82662    -65.4 2.670e+04 1.983e-08
 63.83623    -65.3 2.608e+04 1.603e-08
 63.84130    -65.2 2.609e+04 2.062e-08
 63.84687    -65.0 2.549e+04 1.678e-08
 63.85699    -64.6 2.464e+04 1.371e-08
 63.86711    -64.1 2.371e+04 1.135e-08
 63.87503    -63.5 2.275e+04 9.781e-09
 63.88010    -63.6 2.324e+04 1.248e-08
 63.88736    -63.1 2.249e+04 1.110e-08
 63.89748    -62.6 2.189e+04 1.032e-08
 63.90761    -62.1 2.134e+04 1.017e-08
 63.91383    -61.5 2.081e+04 9.991e-09
 63.91889    -61.6 2.078e+04 1.062e-08
 63.92785    -61.2 2.049e+04 1.014e-08
 63.93798    -60.9 2.042e+04 1.053e-08
 63.94762    -59.5 2.038e+04 1.274e-08
 63.95779    -59.5 2.122e+04 1.632e-08
 63.97351    -57.9 2.018e+04 1.480e-08
 63.99375    -56.6 1.989e+04 1.391e-08
 64.01400    -55.2 2.031e+04 1.306e-08
 64.02526    -54.1 2.049e+04 1.302e-08
 64.03433    -54.2 2.074e+04 1.284e-08
 64.04331    -53.2 1.897e+04 1.190e-08
 64.05449    -51.8 1.990e+04 1.295e-08
 64.07474    -50.7 2.094e+04 1.472e-08
 64.09274    -50.0 2.199e+04 1.781e-08
 64.10286    -50.9 2.146e+04 1.537e-08
 64.11523    -50.0 2.221e+04 1.944e-08
 64.13037    -49.5 2.298e+04 2.579e-08
 64.13650    -48.7 2.310e+04 2.932e-08
 64.14156    -49.4 2.271e+04 2.669e-08
 64.15057    -48.4 2.266e+04 3.080e-08
 64.16069    -47.2 2.247e+04 3.316e-08
 64.17024    -45.8 2.235e+04 3.504e-08
 64.17530    -48.0 2.236e+04 3.457e-08
 64.18094    -47.5 2.241e+04 3.526e-08
 64.19106    -47.8 2.276e+04 3.675e-08
 64.20119    -52.9 2.706e+04 4.650e-08
 64.20904    -62.4 3.513e+04 6.648e-08
 64.21410    -56.8 2.758e+04 4.154e-08
 64.22143    -63.6 3.295e+04 6.952e-08
 64.23156    -69.3 3.167e+04 1.727e-07
 64.24168    -71.7 2.552e+04 6.258e-07
 64.24783    -72.0 2.197e+04 1.612e-06
 64.25290    -68.6 2.841e+04 3.869e-07
 64.26193    -69.9 2.330e+04 1.337e-06
 64.26721    -68.6 2.118e+04 2.530e-06
 64.26972    -69.2 2.306e+04 1.631e-06
 64.27453    -71.7 2.154e+04 3.080e-06
 64.27959    -76.2 2.029e+04 6.283e-06
 64.28405    -83.6 1.890e+04 1.240e-05
 64.28658    -92.9 1.614e+04 6.659e-05
 64.28972   -100.4 1.431e+04 3.363e-04
 64.29350   -101.2 1.676e+04 3.158e-05
 64.29499   -101.1 1.719e+04 2.260e-05
 64.29626   -103.9 1.686e+04 3.345e-05
 64.29855   -106.9 1.840e+04 1.187e-05
 64.30108   -108.2 1.963e+04 7.356e-06
 64.30344   -115.3 2.243e+04 2.688e-06
 64.30598   -127.2 2.152e+04 3.943e-06
 64.30996   -136.2 3.043e+04 3.293e-07
 64.31503   -144.4 3.532e+04 4.498e-08
 64.32035   -146.2 3.259e+04 2.013e-08
 64.32541   -150.1 2.927e+04 6.392e-08
 64.33277   -147.9 2.790e+04 4.927e-08
 64.34291   -144.1 2.562e+04 3.336e-08
 64.35304   -141.4 2.513e+04 2.891e-08
 64.35917   -139.1 2.481e+04 2.633e-08
 64.36423   -139.1 2.388e+04 3.963e-08
 64.37328   -137.1 2.386e+04 3.499e-08
 64.38341   -135.4 2.372e+04 3.043e-08
 64.39291   -133.9 2.343e+04 2.630e-08
 64.39797   -133.8 2.336e+04 2.897e-08
 64.40365   -132.4 2.309e+04 2.522e-08
 64.41378   -131.1 2.268e+04 2.150e-08
 64.42390   -129.9 2.216e+04 1.808e-08
 64.43170   -128.6 2.162e+04 1.515e-08
 64.43677   -128.5 2.153e+04 1.520e-08
 64.44415   -127.4 2.116e+04 1.314e-08
 64.45427   -126.6 2.067e+04 1.110e-08
 64.46439   -126.0 1.999e+04 9.090e-09
 64.47050   -125.2 1.923e+04 7.427e-09
 64.47556   -125.2 1.921e+04 7.343e-09
 64.48464   -124.6 1.871e+04 6.576e-09
 64.49988   -123.9 1.816e+04 5.835e-09
 64.52017   -122.1 1.678e+04 4.164e-09
 64.53807   -120.9 1.580e+04 3.089e-09
 64.54820   -121.1 1.603e+04 3.300e-09
 64.56066   -120.3 1.525e+04 2.779e-09
 64.58091   -119.7 1.472e+04 2.463e-09
 64.60116   -119.0 1.437e+04 2.257e-09
 64.61567   -118.3 1.410e+04 2.094e-09
 64.62579   -118.1 1.417e+04 2.316e-09
 64.64165   -117.4 1.392e+04 2.186e-09
 64.66190   -116.7 1.368e+04 2.014e-09
 64.68215   -116.1 1.344e+04 1.802e-09
 64.69327   -115.6 1.318e+04 1.573e-09
 64.70339   -115.8 1.307e+04 1.497e-09
 64.72264   -115.7 1.278e+04 1.277e-09
 64.74289   -115.8 1.258e+04 1.132e-09
 64.76074   -116.4 1.253e+04 1.080e-09
 64.77087   -117.7 1.229e+04 1.060e-09
 64.78338   -120.7 1.293e+04 1.130e-09
 64.80363   -125.0 1.464e+04 1.721e-09
 64.82387   -128.8 1.600e+04 3.119e-09
 64.83834   -131.4 1.688e+04 5.105e-09
 64.84846   -132.1 1.695e+04 5.428e-09
 64.86437   -134.4 1.741e+04 6.598e-09
 64.88461   -136.8 1.749e+04 6.829e-09
 64.90486   -139.4 1.712e+04 5.799e-09
 64.91594   -142.8 1.634e+04 3.894e-09
 64.92606   -143.4 1.516e+04 3.154e-09
 64.94535   -146.8 1.368e+04 1.903e-09
 64.96560   -150.6 1.319e+04 1.486e-09
 64.98341   -154.1 1.336e+04 1.450e-09
 64.99353   -151.8 1.162e+04 9.779e-10
 65.00609   -154.9 1.239e+04 9.660e-10
 65.02634   -159.5 1.609e+04 1.425e-09
 65.04659   -163.5 1.819e+04 3.663e-09
 65.06101   -165.9 1.949e+04 8.609e-09
 65.07113   -164.8 1.774e+04 3.085e-09
 65.08708   -167.3 1.896e+04 7.295e-09
 65.10733   -169.0 2.008e+04 1.338e-08
 65.12758   -171.0 2.100e+04 1.895e-08
 65.13860   -173.5 2.154e+04 2.129e-08
 65.14873   -172.8 1.932e+04 1.467e-08
 65.16807   -175.2 1.958e+04 1.710e-08
 65.18832   -177.7 1.963e+04 1.757e-08
 65.20608   -180.6 1.954e+04 1.699e-08
 65.21620   -179.8 1.886e+04 1.469e-08
 65.22881   -183.1 1.861e+04 1.355e-08
 65.24906   -186.5 1.847e+04 1.084e-08
 65.26930   -189.9 1.854e+04 8.992e-09
 65.28368   -193.1 1.888e+04 7.923e-09
 65.28869   -195.4 2.150e+04 1.104e-08
 65.29451   -196.7 2.170e+04 1.051e-08
 65.30464   -198.3 2.127e+04 9.828e-09
 65.31476   -199.1 2.100e+04 9.358e-09
 65.32238   -200.0 2.047e+04 8.658e-09
 65.32744   -200.4 2.066e+04 8.913e-09
 65.33501   -200.8 2.021e+04 8.353e-09
 65.34513   -201.1 1.964e+04 7.688e-09
 65.35525   -201.3 1.929e+04 7.260e-09
 65.36117   -201.5 1.887e+04 6.714e-09
 65.36624   -204.2 1.907e+04 7.720e-09
 65.37550   -204.4 1.933e+04 7.164e-09
 65.38562   -204.6 1.968e+04 6.753e-09
 65.39491   -204.8 1.993e+04 6.540e-09
 65.39997   -206.7 2.034e+04 7.697e-09
 65.40587   -206.7 2.052e+04 7.634e-09
 65.41600   -206.5 2.068e+04 7.621e-09
 65.42612   -206.3 2.081e+04 7.615e-09
 65.43371   -206.1 2.094e+04 7.619e-09
 65.43877   -209.8 1.944e+04 7.906e-09
 65.44637   -210.2 1.975e+04 8.028e-09
 65.45649   -210.8 2.050e+04 8.541e-09
 65.46661   -211.8 2.177e+04 9.420e-09
 65.47251   -213.3 2.358e+04 1.071e-08
 65.47757   -216.4 2.543e+04 1.242e-08
 65.48686   -217.5 2.669e+04 1.399e-08
 65.49698   -218.2 2.704e+04 1.483e-08
 65.50625   -219.9 2.712e+04 1.542e-08
 65.51642   -226.9 2.604e+04 1.810e-08
 65.53251   -228.6 2.514e+04 1.679e-08
 65.55276   -230.2 2.472e+04 1.309e-08
 65.56930   -232.0 2.476e+04 9.085e-09
 65.57942   -227.7 2.425e+04 1.759e-08
 65.58394   -229.3 2.400e+04 1.478e-08
 65.59406   -237.8 2.292e+04 5.490e-09
 65.61350   -240.8 2.309e+04 3.107e-09
 65.63375   -245.2 2.340e+04 1.626e-09
 65.65141   -250.4 2.447e+04 8.740e-10
 65.66154   -255.9 1.144e+04 4.280e-10
 65.67424   -258.3 1.064e+04 3.765e-10
 65.69449   -260.4 1.025e+04 3.461e-10
 65.71473   -262.2 1.009e+04 3.376e-10
 65.72901   -263.8 1.011e+04 3.393e-10
 65.73914   -261.6 9.285e+03 2.971e-10
 65.75523   -262.8 9.344e+03 2.961e-10
 65.77547   -264.3 1.014e+04 3.200e-10
 65.79572   -266.6 1.250e+04 4.803e-10
 65.80661   -268.8 1.456e+04 9.435e-10
 65.81673   -264.7 1.124e+04 3.808e-10
 65.83621   -266.6 1.324e+04 6.989e-10
 65.85646   -267.8 1.459e+04 1.324e-09
 65.87408   -268.5 1.525e+04 2.177e-09
 65.88421   -265.5 1.365e+04 9.898e-10
 65.89695   -266.0 1.439e+04 1.563e-09
 65.91720   -266.2 1.468e+04 2.109e-09
 65.93745   -266.3 1.463e+04 2.453e-09
 65.95168   -266.2 1.458e+04 2.536e-09
 65.96180   -264.1 1.372e+04 1.650e-09
 65.97794   -264.1 1.374e+04 1.688e-09
 65.99819   -264.0 1.335e+04 1.688e-09
 66.01844   -263.9 1.299e+04 1.492e-09
 66.02928   -263.9 1.243e+04 1.217e-09
 66.03940   -262.4 1.220e+04 1.123e-09
 66.05893   -262.4 1.167e+04 8.767e-10
 66.07918   -262.4 1.129e+04 7.156e-10
 66.09675   -262.4 1.084e+04 5.820e-10
 66.10687   -260.9 1.075e+04 5.867e-10
 66.11967   -260.8 1.039e+04 4.839e-10
 66.13992   -260.7 1.035e+04 4.365e-10
 66.16016   -260.9 1.035e+04 4.225e-10
 66.17435   -263.3 1.177e+04 4.235e-10
 66.18457   -258.8 1.036e+04 4.145e-10
 66.20075   -262.0 1.211e+04 4.131e-10
 66.22090   -266.4 1.604e+04 8.074e-10
 66.24115   -270.9 1.795e+04 2.057e-09
 66.25195   -273.7 1.777e+04 4.244e-09
 66.26207   -269.1 1.765e+04 2.287e-09
 66.28164   -272.3 1.749e+04 4.122e-09
 66.30189   -275.3 1.691e+04 5.326e-09
 66.31942   -278.5 1.672e+04 5.604e-09
 66.32954   -277.7 1.870e+04 6.142e-09
 66.34239   -283.0 1.993e+04 7.164e-09
 66.36263   -288.5 1.968e+04 7.260e-09
 66.37777   -290.0 1.619e+04 6.217e-09
 66.38784   -292.3 1.688e+04 6.262e-09
 66.39692   -294.6 1.754e+04 6.279e-09
 66.40198   -296.7 1.957e+04 9.499e-09
 66.40809   -300.5 2.210e+04 1.062e-08
 66.41821   -305.1 2.736e+04 1.420e-08
 66.42834   -309.9 3.157e+04 2.544e-08
 66.43572   -314.3 3.193e+04 5.565e-08
 66.44078   -317.8 2.789e+04 2.157e-07
 66.44858   -320.1 2.542e+04 3.353e-07
 66.45871   -321.7 2.449e+04 3.822e-07
 66.46883   -322.6 2.401e+04 3.899e-07
 66.47452   -323.0 2.365e+04 3.398e-07
 66.47958   -323.8 2.572e+04 1.593e-07
 66.48908   -324.4 2.717e+04 8.432e-08
 66.49920   -324.9 2.803e+04 4.536e-08
 66.50825   -325.6 2.800e+04 2.548e-08
 66.51331   -327.0 2.553e+04 1.366e-08
 66.51945   -327.8 2.441e+04 8.152e-09
 66.52957   -329.1 2.221e+04 4.617e-09
 66.53969   -330.9 1.879e+04 2.674e-09
 66.54705   -332.7 1.514e+04 1.755e-09
 66.55211   -332.9 1.296e+04 1.367e-09
 66.55994   -333.1 1.172e+04 1.119e-09
 66.57006   -332.9 1.127e+04 9.718e-10
 66.58530   -332.8 1.099e+04 8.539e-10
 66.60559   -332.3 1.068e+04 7.024e-10
 66.61968   -331.9 1.053e+04 5.775e-10
 66.62981   -330.6 1.005e+04 5.136e-10
 66.64609   -329.9 9.844e+03 4.454e-10
 66.66633   -329.0 9.666e+03 3.922e-10
 66.68658   -328.0 9.537e+03 3.527e-10
 66.69728   -326.7 9.447e+03 3.263e-10
 66.70740   -324.9 9.338e+03 3.046e-10
 66.72707   -323.3 9.324e+03 2.971e-10
 66.74732   -321.7 9.324e+03 2.963e-10
 66.76476   -320.1 9.345e+03 2.987e-10
 66.77488   -318.6 9.430e+03 3.034e-10
 66.78782   -316.9 9.472e+03 3.121e-10
 66.81828   -315.1 9.509e+03 3.228e-10
 66.85887   -313.2 9.434e+03 3.193e-10
 66.89937   -310.8 9.300e+03 3.083e-10
 66.92014   -308.5 9.198e+03 2.877e-10
 66.94039   -307.3 9.305e+03 3.138e-10
 66.98036   -305.3 9.250e+03 2.918e-10
 67.02085   -303.2 9.188e+03 2.655e-10
 67.05509   -301.0 9.170e+03 2.467e-10
 67.07534   -300.1 9.287e+03 2.788e-10
 67.09548   -297.8 9.286e+03 2.770e-10
 67.11573   -298.1 9.540e+03 3.359e-10
 67.13211   -296.0 9.449e+03 3.147e-10
 67.14262   -295.1 9.480e+03 3.161e-10
 67.15274   -294.9 9.452e+03 3.207e-10
 67.17250   -293.7 9.487e+03 3.256e-10
 67.19275   -292.8 9.718e+03 3.441e-10
 67.21009   -291.8 1.014e+04 3.933e-10
 67.22021   -290.9 9.812e+03 3.998e-10
 67.23325   -290.1 1.025e+04 4.593e-10
 67.25349   -289.2 1.088e+04 5.487e-10
 67.27374   -288.6 1.169e+04 7.042e-10
 67.28769   -287.9 1.246e+04 9.531e-10
 67.29781   -287.3 1.179e+04 7.715e-10
 67.31423   -286.7 1.255e+04 1.030e-09
 67.33448   -286.0 1.314e+04 1.401e-09
 67.35473   -285.3 1.351e+04 1.845e-09
 67.36529   -284.4 1.367e+04 2.344e-09
 67.37541   -283.5 1.338e+04 1.784e-09
 67.39522   -282.7 1.361e+04 2.218e-09
 67.41547   -281.7 1.366e+04 2.651e-09
 67.43276   -280.7 1.361e+04 2.970e-09
 67.44288   -280.1 1.358e+04 2.573e-09
 67.45596   -279.0 1.358e+04 2.872e-09
 67.47621   -277.9 1.347e+04 3.015e-09
 67.49645   -276.7 1.329e+04 3.051e-09
 67.51036   -275.5 1.284e+04 2.691e-09
 67.52048   -275.1 1.322e+04 2.600e-09
 67.53695   -273.9 1.280e+04 2.449e-09
 67.55719   -272.7 1.254e+04 2.065e-09
 67.57744   -271.7 1.225e+04 1.758e-09
 67.58795   -270.8 1.195e+04 1.458e-09
 67.59808   -270.7 1.262e+04 1.861e-09
 67.61794   -270.1 1.239e+04 1.601e-09
 67.63818   -269.5 1.216e+04 1.371e-09
 67.65543   -269.1 1.195e+04 1.213e-09
 67.66555   -269.4 1.303e+04 1.846e-09
 67.67868   -268.9 1.279e+04 1.656e-09
 67.69892   -268.3 1.256e+04 1.536e-09
 67.71917   -267.7 1.237e+04 1.481e-09
 67.73302   -267.0 1.227e+04 1.473e-09
 67.74315   -267.4 1.265e+04 1.868e-09
 67.75966   -266.6 1.246e+04 1.811e-09
 67.77991   -265.8 1.237e+04 1.801e-09
 67.80016   -264.9 1.235e+04 1.807e-09
 67.81062   -264.0 1.233e+04 1.845e-09
 67.82075   -264.1 1.226e+04 1.874e-09
 67.84065   -263.2 1.227e+04 1.886e-09
 67.86090   -262.3 1.232e+04 1.914e-09
 67.87810   -261.4 1.234e+04 1.928e-09
 67.88822   -261.2 1.196e+04 1.577e-09
 67.90139   -260.3 1.203e+04 1.548e-09
 67.92164   -259.4 1.207e+04 1.486e-09
 67.94188   -258.5 1.200e+04 1.388e-09
 67.95569   -257.6 1.187e+04 1.259e-09
 67.96582   -257.5 1.147e+04 9.055e-10
 67.98238   -256.6 1.134e+04 8.215e-10
 68.00262   -255.7 1.119e+04 7.409e-10
 68.02287   -254.8 1.107e+04 6.732e-10
 68.03329   -253.9 1.099e+04 6.257e-10
 68.04341   -253.4 1.085e+04 4.644e-10
 68.06337   -252.4 1.086e+04 4.497e-10
 68.08361   -251.5 1.087e+04 4.429e-10
 68.10076   -250.6 1.087e+04 4.428e-10
 68.12111   -249.9 1.072e+04 3.357e-10
 68.15467   -248.1 1.071e+04 3.323e-10
 68.19516   -246.3 1.071e+04 3.359e-10
 68.23566   -244.5 1.079e+04 3.573e-10
 68.25615   -242.7 1.093e+04 4.219e-10
 68.27640   -241.8 1.056e+04 2.912e-10
 68.31665   -239.9 1.083e+04 3.799e-10
 68.35714   -237.9 1.106e+04 4.778e-10
 68.39110   -235.9 1.123e+04 5.370e-10
 68.41135   -234.8 1.112e+04 5.128e-10
 68.43813   -232.9 1.127e+04 5.538e-10
 68.47862   -231.0 1.131e+04 5.654e-10
 68.51911   -229.1 1.140e+04 5.263e-10
 68.54630   -227.1 1.138e+04 4.430e-10
 68.56654   -226.1 1.147e+04 5.792e-10
 68.60010   -224.0 1.146e+04 4.914e-10
 68.64060   -222.0 1.145e+04 4.214e-10
 68.68109   -220.1 1.144e+04 3.776e-10
 68.72158   -217.4 1.180e+04 5.651e-10
 68.76208   -215.5 1.178e+04 5.255e-10
 68.80257   -213.4 1.173e+04 4.792e-10
 68.83644   -211.4 1.168e+04 4.344e-10
 68.85668   -211.7 1.251e+04 9.490e-10
 68.88356   -209.8 1.232e+04 8.274e-10
 68.92405   -207.8 1.215e+04 7.227e-10
 68.96454   -205.9 1.205e+04 6.572e-10
 68.99163   -204.0 1.204e+04 6.436e-10
 69.01188   -203.7 1.279e+04 1.552e-09
 69.04553   -201.9 1.278e+04 1.556e-09
 69.08603   -200.3 1.283e+04 1.676e-09
 69.12652   -198.8 1.309e+04 2.106e-09
 69.15679   -197.7 1.353e+04 3.210e-09
 69.17694   -196.8 1.363e+04 3.521e-09
 69.19719   -195.9 1.375e+04 3.922e-09
 69.21410   -195.0 1.392e+04 4.315e-09
 69.22423   -194.6 1.380e+04 4.054e-09
 69.23768   -193.8 1.391e+04 4.329e-09
 69.25793   -193.1 1.398e+04 4.468e-09
 69.27817   -192.5 1.399e+04 4.506e-09
 69.29170   -191.8 1.391e+04 4.435e-09
 69.30192   -192.2 1.364e+04 3.313e-09
 69.32899   -190.7 1.334e+04 3.127e-09
 69.36948   -189.0 1.292e+04 2.669e-09
 69.40997   -187.0 1.250e+04 2.218e-09
 69.43697   -184.9 1.211e+04 1.838e-09
 69.45721   -183.7 1.176e+04 1.526e-09
 69.49096   -181.6 1.161e+04 1.381e-09
 69.53146   -179.5 1.147e+04 1.260e-09
 69.57192   -177.3 1.133e+04 1.147e-09
 69.61241   -174.4 1.126e+04 9.818e-10
 69.65294   -172.1 1.125e+04 9.670e-10
 69.69343   -169.7 1.115e+04 9.227e-10
 69.72711   -167.3 1.099e+04 8.329e-10
 69.74736   -166.7 1.122e+04 9.090e-10
 69.77442   -164.4 1.119e+04 9.085e-10
 69.81491   -162.1 1.108e+04 8.684e-10
 69.85540   -159.8 1.095e+04 8.043e-10
 69.88230   -157.6 1.083e+04 7.377e-10
 69.90255   -157.1 1.128e+04 1.016e-09
 69.93639   -155.0 1.118e+04 9.722e-10
 69.97689   -153.0 1.107e+04 9.162e-10
 70.01725   -150.9 1.097e+04 8.622e-10
 70.05775   -148.5 1.128e+04 1.155e-09
 70.09837   -146.4 1.126e+04 1.135e-09
 70.13886   -144.3 1.127e+04 1.131e-09
 70.16770   -142.4 1.130e+04 1.127e-09
 70.18104   -141.6 1.091e+04 8.505e-10
 70.19269   -141.3 1.109e+04 9.283e-10
 70.21985   -139.4 1.106e+04 8.877e-10
 70.26034   -137.4 1.101e+04 8.311e-10
 70.30083   -135.4 1.093e+04 7.606e-10
 70.32764   -133.3 1.085e+04 6.819e-10
 70.34789   -133.3 1.092e+04 5.793e-10
 70.38182   -131.2 1.086e+04 5.221e-10
 70.42232   -128.9 1.083e+04 4.817e-10
 70.46259   -126.6 1.084e+04 4.528e-10
 70.48283   -126.9 1.074e+04 4.750e-10
 70.50330   -124.6 1.073e+04 4.747e-10
 70.54380   -122.2 1.075e+04 5.027e-10
 70.58429   -119.8 1.086e+04 5.541e-10
 70.61778   -117.3 1.102e+04 6.409e-10
 70.63803   -117.3 1.071e+04 5.471e-10
 70.66528   -114.7 1.079e+04 5.878e-10
 70.70577   -112.1 1.093e+04 6.214e-10
 70.74626   -109.5 1.118e+04 6.541e-10
 70.77298   -106.9 1.155e+04 7.108e-10
 70.79322   -107.7 1.063e+04 2.963e-10
 70.82725   -105.9 1.083e+04 2.971e-10
 70.86775   -105.3 1.131e+04 3.500e-10
 70.90792   -105.4 1.239e+04 8.845e-10
 70.92817   -106.5 1.143e+04 5.415e-10
 70.94873   -106.2 1.247e+04 1.180e-09
 70.97901   -105.9 1.340e+04 1.968e-09
 70.99545   -106.1 1.371e+04 2.251e-09
 71.00557   -106.9 1.272e+04 1.489e-09
 71.01940   -108.2 1.267e+04 1.587e-09
 71.03965   -109.5 1.265e+04 1.644e-09
 71.05990   -110.6 1.242e+04 1.640e-09
 71.07305   -111.4 1.221e+04 1.491e-09
 71.08317   -110.7 1.196e+04 1.296e-09
 71.10039   -111.4 1.181e+04 1.230e-09
 71.12064   -111.7 1.178e+04 1.140e-09
 71.14052   -112.0 1.177e+04 1.057e-09
 71.15064   -111.4 1.181e+04 9.754e-10
 71.16113   -111.6 1.180e+04 8.955e-10
 71.18138   -111.8 1.177e+04 8.225e-10
 71.20162   -111.7 1.175e+04 7.618e-10
 71.21812   -111.6 1.172e+04 7.162e-10
 71.23846   -110.4 1.144e+04 4.928e-10
 71.27268   -109.8 1.137e+04 4.630e-10
 71.31318   -108.6 1.135e+04 4.568e-10
 71.35326   -107.1 1.139e+04 4.761e-10
 71.37351   -105.9 1.123e+04 3.595e-10
 71.39416   -104.5 1.142e+04 4.332e-10
 71.43466   -103.1 1.159e+04 5.181e-10
 71.47515   -101.8 1.174e+04 5.672e-10
 71.50845   -100.7 1.179e+04 5.726e-10
 71.52870    -99.4 1.191e+04 6.914e-10
 71.55614    -98.4 1.197e+04 7.079e-10
 71.59663    -97.6 1.199e+04 6.810e-10
 71.63713    -96.7 1.196e+04 6.313e-10
 71.66365    -95.8 1.193e+04 6.053e-10
 71.68390    -94.6 1.219e+04 8.767e-10
 71.71811    -93.7 1.207e+04 7.995e-10
 71.75861    -92.6 1.194e+04 7.363e-10
 71.79860    -91.2 1.181e+04 6.681e-10
 71.81875    -90.2 1.184e+04 7.633e-10
 71.82927    -89.4 1.176e+04 7.255e-10
 71.84952    -88.7 1.171e+04 6.898e-10
 71.86977    -88.0 1.168e+04 6.645e-10
 71.88612    -87.2 1.168e+04 6.528e-10
 71.89625    -87.0 1.183e+04 7.142e-10
 71.91026    -86.3 1.183e+04 7.193e-10
 71.93051    -85.6 1.185e+04 7.538e-10
 71.95076    -84.9 1.189e+04 8.114e-10
 71.96372    -84.1 1.194e+04 8.831e-10
 71.97384    -83.8 1.218e+04 1.094e-09
 71.99125    -83.0 1.230e+04 1.213e-09
 72.01150    -82.2 1.245e+04 1.342e-09
 72.03119    -81.4 1.261e+04 1.475e-09
 72.04132    -81.1 1.286e+04 1.769e-09
 72.05199    -80.3 1.297e+04 1.894e-09
 72.07224    -79.5 1.307e+04 2.006e-09
 72.09248    -78.6 1.319e+04 2.128e-09
 72.10879    -77.9 1.339e+04 2.310e-09
 72.11891    -77.9 1.368e+04 2.614e-09
 72.13298    -77.7 1.416e+04 3.016e-09
 72.15322    -77.8 1.500e+04 3.909e-09
 72.17347    -78.5 1.615e+04 5.904e-09
 72.18639    -79.3 1.725e+04 9.952e-09
 72.19651    -80.0 1.747e+04 1.166e-08
 72.21396    -80.3 1.831e+04 1.846e-08
 72.23421    -80.3 1.895e+04 2.555e-08
 72.25386    -80.1 1.930e+04 3.044e-08
 72.26398    -80.9 1.948e+04 3.206e-08
 72.27470    -81.1 1.929e+04 2.874e-08
 72.29495    -81.0 1.882e+04 1.793e-08
 72.31520    -81.7 1.853e+04 9.934e-09
 72.33146    -83.8 1.805e+04 5.688e-09
 72.34158    -86.1 1.686e+04 3.982e-09
 72.35569    -87.9 1.540e+04 3.201e-09
 72.37594    -88.6 1.440e+04 3.020e-09
 72.39619    -88.7 1.405e+04 3.008e-09
 72.40906    -88.5 1.387e+04 3.028e-09
 72.41918    -88.6 1.364e+04 2.836e-09
 72.43668    -88.3 1.332e+04 2.543e-09
 72.45693    -88.0 1.292e+04 2.124e-09
 72.47653    -88.0 1.248e+04 1.715e-09
 72.48665    -88.2 1.232e+04 1.435e-09
 72.49742    -88.1 1.196e+04 1.204e-09
 72.51767    -87.8 1.168e+04 1.036e-09
 72.53791    -87.5 1.144e+04 9.140e-10
 72.55422    -87.1 1.118e+04 7.767e-10
 72.57457    -86.9 1.091e+04 5.370e-10
 72.60897    -85.6 1.051e+04 4.034e-10
 72.64947    -84.3 1.038e+04 3.566e-10
 72.68927    -83.0 1.035e+04 3.495e-10
 72.70952    -83.7 1.047e+04 3.765e-10
 72.73045    -83.1 1.074e+04 5.113e-10
 72.77095    -82.3 1.109e+04 7.658e-10
 72.81144    -81.6 1.140e+04 1.020e-09
 72.84446    -80.9 1.155e+04 1.120e-09
 72.86471    -82.1 1.153e+04 9.731e-10
 72.89243    -81.7 1.154e+04 8.331e-10
 72.93292    -81.6 1.150e+04 6.720e-10
 72.97342    -81.7 1.149e+04 6.115e-10
 72.99966    -81.7 1.150e+04 6.441e-10
 73.01990    -82.7 1.182e+04 7.776e-10
 73.05440    -82.1 1.187e+04 8.937e-10
 73.09490    -81.3 1.187e+04 9.158e-10
 73.13461    -80.3 1.172e+04 8.171e-10
 73.15485    -80.9 1.180e+04 7.416e-10
 73.17588    -80.0 1.169e+04 5.796e-10
 73.21638    -79.1 1.157e+04 4.691e-10
 73.23993    -78.0 1.141e+04 4.028e-10
 73.26018    -79.0 1.120e+04 3.558e-10
 73.28980    -77.4 1.102e+04 3.122e-10
 73.31005    -77.4 1.088e+04 2.655e-10
 73.33786    -75.6 1.075e+04 2.280e-10
 73.37835    -73.8 1.062e+04 1.908e-10
 73.41885    -71.9 1.050e+04 1.612e-10
 73.44499    -69.9 1.042e+04 1.423e-10
 73.46524    -70.0 1.033e+04 1.539e-10
 73.49983    -67.9 1.027e+04 1.482e-10
 73.54033    -65.7 1.024e+04 1.462e-10
 73.57994    -63.6 1.023e+04 1.458e-10
 73.60019    -63.4 1.018e+04 1.458e-10
 73.62131    -61.2 1.019e+04 1.437e-10
 73.66181    -59.0 1.022e+04 1.445e-10
 73.70230    -56.9 1.017e+04 1.634e-10
 73.73514    -54.8 1.018e+04 1.877e-10
 73.75538    -54.4 1.017e+04 1.071e-10
 73.78329    -52.3 1.017e+04 1.147e-10
 73.82378    -50.2 1.013e+04 1.240e-10
 73.86428    -48.0 1.008e+04 1.337e-10
 73.89033    -45.8 1.005e+04 1.418e-10
 73.91058    -45.7 1.034e+04 6.308e-11
 73.94526    -43.4 1.027e+04 7.038e-11
 73.98576    -41.1 1.021e+04 7.782e-11
 74.02528    -38.7 1.017e+04 8.312e-11
 74.04552    -38.8 1.026e+04 5.846e-11
 74.06674    -36.2 1.018e+04 6.664e-11
 74.10724    -33.6 1.013e+04 7.032e-11
 74.14773    -30.9 1.009e+04 7.025e-11
 74.18047    -28.1 1.004e+04 6.936e-11
 74.20072    -27.9 1.002e+04 6.463e-11
 74.22872    -25.3 1.006e+04 6.347e-11
 74.26921    -22.9 1.017e+04 6.327e-11
 74.30971    -20.9 1.029e+04 7.564e-11
 74.33567    -18.8 1.026e+04 1.077e-10
 74.35591    -19.6 1.036e+04 1.251e-10
 74.39069    -17.6 1.049e+04 2.201e-10
 74.43119    -15.5 1.081e+04 3.810e-10
 74.47061    -13.7 1.124e+04 5.914e-10
 74.49086    -16.4 1.220e+04 8.454e-10
 74.50195    -15.0 1.240e+04 9.007e-10
 74.52210    -15.0 1.298e+04 9.687e-10
 74.54235    -16.7 1.369e+04 1.101e-09
 74.55814    -17.7 1.383e+04 1.654e-09
 74.56826    -18.6 1.326e+04 1.929e-09
 74.58284    -19.2 1.312e+04 2.190e-09
 74.60309    -19.0 1.338e+04 2.249e-09
 74.62334    -19.4 1.398e+04 2.008e-09
 74.63574    -21.0 1.423e+04 1.474e-09
 74.64596    -24.3 1.291e+04 8.261e-10
 74.67415    -27.8 1.148e+04 4.221e-10
 74.71464    -29.7 1.087e+04 2.845e-10
 74.75514    -31.5 1.076e+04 2.228e-10
 74.78100    -33.3 1.071e+04 2.105e-10
 74.80125    -32.1 1.059e+04 2.218e-10
 74.83612    -33.1 1.076e+04 2.721e-10
 74.87662    -33.5 1.108e+04 3.679e-10
 74.91595    -34.1 1.164e+04 4.892e-10
 74.93620    -33.5 1.166e+04 5.382e-10
 74.95760    -34.1 1.204e+04 8.209e-10
 74.99810    -34.1 1.227e+04 1.208e-09
 75.03859    -33.7 1.237e+04 1.404e-09
 75.07114    -33.4 1.225e+04 1.340e-09
 75.09139    -32.1 1.189e+04 1.127e-09
 75.11958    -31.9 1.167e+04 7.360e-10
 75.16007    -32.5 1.142e+04 6.027e-10
 75.20057    -32.5 1.131e+04 6.007e-10
 75.22634    -32.0 1.118e+04 7.173e-10
 75.24659    -31.3 1.121e+04 4.483e-10
 75.28155    -30.4 1.108e+04 5.142e-10
 75.32205    -29.2 1.090e+04 5.225e-10
 75.36129    -27.7 1.050e+04 4.485e-10
 75.38153    -26.8 1.061e+04 2.553e-10
 75.40303    -25.5 1.049e+04 1.804e-10
 75.44353    -24.5 1.039e+04 1.538e-10
 75.48402    -22.9 1.036e+04 1.502e-10
 75.51648    -21.3 1.040e+04 1.554e-10
 75.53673    -20.6 1.017e+04 1.372e-10
 75.56501    -18.9 1.008e+04 1.659e-10
 75.60550    -17.0 1.004e+04 2.071e-10
 75.64600    -15.4 1.005e+04 2.832e-10
 75.67168    -13.7 1.019e+04 4.178e-10
 75.69192    -14.0 1.060e+04 4.654e-10
 75.72698    -12.0 1.085e+04 8.426e-10
 75.76748     -9.1 1.125e+04 1.158e-09
 75.80662     -6.7 1.139e+04 1.209e-09
 75.82687     -6.5 1.145e+04 1.218e-09
 75.84847     -4.5 1.159e+04 9.487e-10
 75.88896     -4.1 1.185e+04 8.311e-10
 75.92945     -4.3 1.199e+04 1.226e-09
 75.96182     -1.8 1.238e+04 2.069e-09
 75.98206     -1.4 1.228e+04 2.020e-09
 76.01044      0.5 1.282e+04 2.329e-09
 76.05093      1.2 1.289e+04 2.343e-09
 76.09143      2.3 1.258e+04 2.179e-09
 76.11701      4.4 1.169e+04 1.814e-09
 76.13726      4.7 1.176e+04 1.787e-09
 76.17241      7.7 1.124e+04 1.112e-09
 76.21291      9.2 1.081e+04 6.698e-10
 76.25196     10.8 1.031e+04 4.378e-10
 76.27221     11.7 1.049e+04 6.458e-10
 76.29191     14.0 1.014e+04 4.639e-10
 76.31215     13.8 1.011e+04 4.562e-10
 76.33439     16.0 9.920e+03 3.443e-10
 76.37488     18.4 9.792e+03 2.769e-10
 76.40715     20.8 9.718e+03 2.373e-10
 76.42740     21.8 9.898e+03 3.434e-10
 76.45587     24.2 9.826e+03 2.833e-10
 76.49636     26.6 9.812e+03 2.277e-10
 76.53686     28.9 9.827e+03 1.836e-10
 76.56235     30.9 9.860e+03 1.540e-10
 76.58259     31.8 1.006e+04 1.881e-10
 76.61784     33.5 1.002e+04 1.650e-10
 76.65834     35.2 9.984e+03 1.677e-10
 76.69730     36.8 9.862e+03 1.861e-10
 76.71754     37.7 1.027e+04 2.650e-10
 76.73933     39.4 1.018e+04 2.947e-10
 76.77982     41.1 1.014e+04 3.274e-10
 76.82031     42.9 1.017e+04 3.542e-10
 76.85249     44.8 1.023e+04 3.412e-10
 76.87274     44.9 1.048e+04 4.232e-10
 76.90130     46.4 1.061e+04 3.857e-10
 76.92999     47.2 1.064e+04 3.557e-10
 76.94002     47.2 1.064e+04 3.919e-10
 76.95172     47.9 1.072e+04 4.023e-10
 76.97197     48.3 1.088e+04 4.376e-10
 76.99222     48.5 1.099e+04 5.112e-10
 77.00749     48.9 1.107e+04 6.226e-10
 77.01761     48.6 1.157e+04 8.697e-10
 77.03271     49.1 1.169e+04 1.055e-09
 77.05296     49.6 1.187e+04 1.250e-09
 77.07320     50.1 1.210e+04 1.425e-09
 77.08509     50.6 1.237e+04 1.577e-09
 77.09521     50.2 1.270e+04 2.055e-09
 77.11370     50.3 1.290e+04 2.137e-09
 77.13394     50.4 1.315e+04 2.261e-09
 77.15256     50.4 1.340e+04 2.450e-09
 77.16268     49.7 1.338e+04 2.506e-09
 77.17444     49.7 1.351e+04 2.632e-09
 77.19468     49.9 1.362e+04 2.780e-09
 77.21493     50.3 1.369e+04 2.874e-09
 77.23016     50.5 1.370e+04 2.864e-09
 77.24028     50.0 1.356e+04 2.701e-09
 77.25542     50.5 1.349e+04 2.595e-09
 77.27567     51.4 1.334e+04 2.382e-09
 77.29773     51.9 1.322e+04 2.046e-09
 77.31807     51.5 1.242e+04 1.144e-09
 77.34673     52.0 1.210e+04 6.231e-10
 77.38722     51.5 1.190e+04 3.262e-10
 77.42772     51.0 1.131e+04 2.664e-10
 77.45302     51.4 1.116e+04 2.742e-10
 77.47327     51.4 1.115e+04 2.790e-10
 77.50870     52.6 1.103e+04 3.121e-10
 77.54920     53.7 1.100e+04 3.292e-10
 77.58797     54.8 1.097e+04 3.365e-10
 77.60821     55.0 1.079e+04 3.002e-10
 77.63019     55.9 1.077e+04 3.097e-10
 77.67068     56.7 1.074e+04 3.515e-10
 77.71117     57.4 1.083e+04 4.126e-10
 77.74316     58.0 1.100e+04 4.721e-10
 77.76341     58.7 1.102e+04 5.306e-10
 77.79216     59.2 1.117e+04 5.915e-10
 77.83265     59.4 1.130e+04 6.294e-10
 77.87315     59.3 1.156e+04 7.062e-10
 77.89836     58.4 1.190e+04 9.652e-10
 77.91860     59.8 1.174e+04 8.141e-10
 77.95413     59.0 1.232e+04 1.370e-09
 77.99463     58.2 1.232e+04 1.607e-09
 78.03330     57.9 1.198e+04 1.388e-09
 78.05355     59.3 1.243e+04 1.673e-09
 78.06539     58.8 1.206e+04 1.221e-09
 78.08554     58.8 1.162e+04 8.816e-10
 78.11601     58.5 1.121e+04 5.004e-10
 78.15660     57.2 1.057e+04 3.716e-10
 78.18850     56.7 1.061e+04 4.095e-10
 78.20865     57.0 1.070e+04 4.771e-10
 78.22727     56.7 1.089e+04 5.764e-10
 78.24752     56.6 1.114e+04 7.184e-10
 78.26590     56.5 1.147e+04 9.126e-10
 78.27602     57.1 1.142e+04 9.451e-10
 78.28801     57.1 1.173e+04 1.148e-09
 78.30826     57.1 1.202e+04 1.372e-09
 78.32851     57.0 1.231e+04 1.623e-09
 78.34350     57.0 1.258e+04 1.889e-09
 78.35362     57.5 1.245e+04 1.746e-09
 78.36900     57.5 1.265e+04 1.932e-09
 78.38925     57.6 1.282e+04 2.097e-09
 78.40949     57.7 1.295e+04 2.223e-09
 78.42109     57.7 1.315e+04 2.336e-09
 78.43122     57.8 1.281e+04 1.950e-09
 78.44999     57.3 1.321e+04 2.125e-09
 78.47023     56.0 1.394e+04 2.577e-09
 78.48857     54.4 1.449e+04 3.487e-09
 78.49869     54.5 1.421e+04 3.095e-09
 78.51073     53.5 1.449e+04 4.377e-09
 78.53097     53.1 1.450e+04 5.336e-09
 78.55122     52.9 1.448e+04 5.314e-09
 78.56617     52.8 1.425e+04 4.987e-09
 78.57629     52.9 1.413e+04 4.500e-09
 78.59171     52.4 1.373e+04 3.485e-09
 78.61196     51.2 1.322e+04 2.554e-09
 78.63221     49.9 1.256e+04 1.909e-09
 78.64376     49.0 1.193e+04 1.524e-09
 78.65389     48.8 1.182e+04 1.527e-09
 78.67270     48.6 1.148e+04 1.300e-09
 78.69295     48.7 1.118e+04 1.094e-09
 78.71124     48.8 1.092e+04 9.068e-10
 78.72136     48.8 1.097e+04 9.907e-10
 78.73344     48.9 1.080e+04 8.360e-10
 78.75369     48.9 1.068e+04 7.243e-10
 78.77394     49.1 1.059e+04 6.581e-10
 78.78893     49.3 1.060e+04 6.037e-10
 78.80928     49.4 1.076e+04 7.304e-10
 78.84500     50.0 1.046e+04 5.361e-10
 78.88549     50.5 1.026e+04 3.901e-10
 78.92398     51.0 1.031e+04 3.834e-10
 78.94422     50.3 1.023e+04 3.071e-10
 78.96648     50.7 1.022e+04 3.161e-10
 79.00697     51.5 1.024e+04 3.497e-10
 79.04746     52.5 1.022e+04 3.589e-10
 79.07917     53.8 1.020e+04 3.285e-10
 79.09942     53.5 1.001e+04 2.140e-10
 79.12845     55.0 9.945e+03 1.621e-10
 79.16894     56.4 9.903e+03 1.191e-10
 79.20944     57.7 9.810e+03 9.756e-11
 79.23437     59.3 9.698e+03 9.378e-11
 79.25461     59.5 9.696e+03 9.495e-11
 79.29043     61.4 9.709e+03 9.572e-11
 79.33092     63.3 9.778e+03 9.970e-11
 79.36413     65.0 9.890e+03 1.109e-10
 79.38228     64.5 9.853e+03 1.032e-10
 79.38956     64.7 9.918e+03 1.155e-10
 79.41191     66.5 1.003e+04 1.385e-10
 79.45240     68.3 1.014e+04 1.691e-10
 79.49289     70.0 1.024e+04 1.999e-10
 79.52451     71.6 1.039e+04 2.186e-10
 79.54475     71.7 1.054e+04 2.498e-10
 79.57388     73.0 1.064e+04 2.471e-10
 79.61437     74.2 1.074e+04 2.374e-10
 79.65487     75.4 1.084e+04 2.245e-10
 79.67970     76.4 1.099e+04 2.060e-10
 79.69995     76.4 1.096e+04 2.103e-10
 79.73586     77.5 1.098e+04 1.919e-10
 79.77635     78.5 1.117e+04 1.758e-10
 79.81465     79.6 1.119e+04 1.820e-10
 79.83490     79.7 1.101e+04 1.516e-10
 79.85734     80.7 1.106e+04 1.544e-10
 79.89783     81.6 1.116e+04 1.780e-10
 79.93832     82.5 1.125e+04 2.532e-10
 79.96984     83.5 1.135e+04 3.666e-10
 79.99009     83.8 1.118e+04 3.003e-10
 80.01931     84.8 1.129e+04 3.326e-10
 80.05980     85.6 1.129e+04 3.276e-10
 80.10030     86.4 1.122e+04 2.941e-10
 80.12504     87.2 1.110e+04 2.442e-10
 80.14528     87.6 1.107e+04 1.853e-10
 80.18129     88.2 1.094e+04 1.578e-10
 80.22178     88.9 1.087e+04 1.586e-10
 80.25999     89.8 1.082e+04 1.692e-10
 80.28023     90.3 1.081e+04 1.443e-10
 80.30277     91.3 1.075e+04 1.763e-10
 80.34326     92.5 1.074e+04 2.284e-10
 80.38375     93.7 1.078e+04 2.795e-10
 80.41518     94.8 1.090e+04 3.062e-10
 80.43543     95.7 1.089e+04 3.039e-10
 80.46474     96.7 1.103e+04 3.072e-10
 80.50523     97.7 1.106e+04 2.999e-10
 80.54573     98.6 1.109e+04 2.836e-10
 80.57037     99.7 1.114e+04 2.810e-10
 80.59062    100.5 1.106e+04 2.388e-10
 80.62672    101.6 1.108e+04 2.260e-10
 80.66721    102.7 1.112e+04 2.361e-10
 80.70532    103.7 1.119e+04 2.756e-10
 80.72557    104.5 1.113e+04 1.835e-10
 80.74820    105.5 1.122e+04 2.130e-10
 80.78869    106.4 1.131e+04 2.871e-10
 80.82918    107.4 1.137e+04 3.768e-10
 80.86052    108.4 1.139e+04 4.368e-10
 80.88076    109.4 1.125e+04 2.985e-10
 80.91017    110.6 1.124e+04 3.444e-10
 80.95067    111.9 1.120e+04 3.510e-10
 80.99116    113.4 1.117e+04 3.311e-10
 81.01571    114.9 1.111e+04 2.955e-10
 81.03596    115.9 1.110e+04 3.051e-10
 81.07215    117.4 1.105e+04 2.840e-10
 81.11264    118.9 1.099e+04 2.493e-10
 81.15066    120.4 1.089e+04 2.116e-10
 81.17090    121.3 1.086e+04 2.342e-10
 81.19363    122.9 1.076e+04 1.906e-10
 81.23412    124.4 1.067e+04 1.516e-10
 81.27461    126.0 1.058e+04 1.215e-10
 81.30585    127.6 1.053e+04 1.003e-10
 81.32610    128.5 1.046e+04 9.861e-11
 81.35560    130.1 1.038e+04 8.353e-11
 81.39610    131.8 1.039e+04 7.861e-11
 81.43659    133.5 1.041e+04 7.945e-11
 81.46105    135.2 1.045e+04 8.525e-11
 81.48129    136.2 1.035e+04 6.954e-11
 81.51758    137.9 1.042e+04 7.331e-11
 81.55807    139.5 1.050e+04 8.394e-11
 81.59599    141.2 1.058e+04 1.013e-10
 81.61624    142.1 1.040e+04 7.605e-11
 81.63906    143.8 1.055e+04 8.819e-11
 81.67955    145.4 1.067e+04 1.036e-10
 81.72004    147.1 1.073e+04 1.209e-10
 81.75119    148.6 1.073e+04 1.386e-10
 81.77144    149.5 1.058e+04 1.329e-10
 81.80103    151.1 1.061e+04 1.528e-10
 81.84153    152.6 1.070e+04 1.605e-10
 81.88202    154.0 1.074e+04 1.595e-10
 81.90638    155.4 1.079e+04 1.571e-10
 81.92663    156.4 1.071e+04 1.560e-10
 81.96301    157.9 1.076e+04 1.498e-10
 82.00350    159.6 1.080e+04 1.480e-10
 82.04133    161.3 1.085e+04 1.539e-10
 82.06158    162.4 1.078e+04 1.412e-10
 82.08449    164.3 1.087e+04 1.457e-10
 82.12498    166.0 1.085e+04 1.656e-10
 82.16547    167.8 1.081e+04 1.953e-10
 82.19652    169.4 1.082e+04 2.328e-10
 82.21677    170.5 1.065e+04 1.759e-10
 82.24646    172.0 1.066e+04 1.930e-10
 82.28696    173.3 1.075e+04 2.171e-10
 82.32745    174.4 1.087e+04 2.519e-10
 82.35172    175.3 1.102e+04 2.954e-10
 82.37197    176.6 1.082e+04 2.337e-10
 82.40844    177.5 1.098e+04 2.858e-10
 82.43635    178.4 1.117e+04 3.469e-10
 82.45660    178.2 1.084e+04 2.557e-10
 82.48667    179.3 1.101e+04 2.993e-10
 82.50691    180.6 1.093e+04 2.725e-10
 82.52992    181.8 1.108e+04 3.008e-10
 82.57041    182.9 1.111e+04 2.996e-10
 82.61090    184.1 1.112e+04 2.890e-10
 82.64186    185.5 1.110e+04 2.576e-10
 82.66211    187.0 1.106e+04 2.631e-10
 82.69189    188.5 1.102e+04 2.231e-10
 82.73239    190.1 1.099e+04 1.777e-10
 82.77288    191.8 1.094e+04 1.403e-10
 82.79706    193.5 1.089e+04 1.135e-10
 82.81730    194.8 1.088e+04 1.152e-10
 82.85387    196.6 1.080e+04 9.743e-11
 82.89436    198.7 1.079e+04 9.262e-11
 82.93200    201.0 1.078e+04 9.251e-11
 82.95225    202.0 1.072e+04 9.256e-11
 82.97535    204.4 1.072e+04 9.337e-11
 83.01584    206.9 1.073e+04 9.690e-11
 83.05634    209.4 1.079e+04 1.020e-10
 83.08720    211.9 1.085e+04 1.072e-10
 83.10744    212.8 1.081e+04 1.129e-10
 83.13732    215.3 1.086e+04 1.188e-10
 83.17782    217.9 1.089e+04 1.232e-10
 83.21831    220.4 1.092e+04 1.269e-10
 83.24239    222.9 1.093e+04 1.307e-10
 83.26264    223.8 1.090e+04 1.390e-10
 83.29930    226.3 1.092e+04 1.431e-10
 83.33979    228.7 1.098e+04 1.509e-10
 83.37734    231.0 1.105e+04 1.658e-10
 83.39759    231.8 1.103e+04 1.806e-10
 83.42078    234.1 1.112e+04 2.031e-10
 83.46127    236.3 1.121e+04 2.289e-10
 83.50177    238.4 1.127e+04 2.547e-10
 83.53253    240.5 1.131e+04 2.759e-10
 83.55278    241.1 1.136e+04 3.040e-10
 83.58275    243.2 1.133e+04 3.114e-10
 83.62325    245.4 1.132e+04 3.107e-10
 83.66374    247.7 1.131e+04 3.094e-10
 83.68773    250.0 1.132e+04 3.085e-10
 83.70797    250.8 1.137e+04 3.357e-10
 83.74473    253.3 1.146e+04 3.399e-10
 83.78522    255.6 1.159e+04 3.526e-10
 83.82268    257.9 1.174e+04 3.811e-10
 83.84292    258.7 1.188e+04 4.130e-10
 83.86621    260.4 1.197e+04 4.533e-10
 83.89648    261.0 1.192e+04 4.733e-10
 83.91020    261.9 1.187e+04 4.892e-10
 83.92032    262.6 1.189e+04 5.157e-10
 83.93688    264.4 1.195e+04 5.910e-10
 83.95712    265.8 1.212e+04 6.876e-10
 83.97227    266.9 1.229e+04 7.807e-10
 83.98239    266.8 1.226e+04 7.645e-10
 83.98780    267.6 1.239e+04 8.410e-10
 83.99792    267.9 1.251e+04 9.508e-10
 84.01786    268.6 1.262e+04 1.050e-09
 84.03811    269.4 1.272e+04 1.134e-09
 84.05527    270.1 1.282e+04 1.183e-09
 84.06540    270.3 1.302e+04 1.472e-09
 84.07860    270.9 1.312e+04 1.484e-09
 84.09885    271.5 1.312e+04 1.474e-09
 84.11910    271.9 1.311e+04 1.449e-09
 84.13287    272.4 1.308e+04 1.412e-09
 84.14299    272.4 1.328e+04 1.635e-09
 84.15959    272.9 1.321e+04 1.529e-09
 84.17984    273.3 1.312e+04 1.440e-09
 84.20009    273.8 1.305e+04 1.369e-09
 84.21047    274.3 1.298e+04 1.322e-09
 84.22059    274.2 1.306e+04 1.291e-09
 84.24058    274.7 1.295e+04 1.199e-09
 84.26083    275.3 1.286e+04 1.129e-09
 84.27794    276.0 1.274e+04 1.050e-09
 84.28806    275.7 1.275e+04 9.907e-10
 84.30132    276.4 1.262e+04 9.055e-10
 84.32157    277.2 1.249e+04 8.245e-10
 84.34181    278.1 1.237e+04 7.507e-10
 84.35554    279.0 1.225e+04 6.903e-10
 84.36566    278.7 1.227e+04 6.972e-10
 84.38231    279.6 1.216e+04 6.588e-10
 84.40255    280.6 1.211e+04 6.506e-10
 84.42280    281.7 1.211e+04 6.482e-10
 84.43313    282.7 1.212e+04 6.500e-10
 84.44326    282.2 1.226e+04 7.017e-10
 84.46329    283.2 1.232e+04 7.175e-10
 84.48354    284.1 1.240e+04 7.481e-10
 84.50061    285.1 1.249e+04 7.924e-10
 84.51073    284.2 1.303e+04 1.041e-09
 84.52403    285.1 1.314e+04 1.104e-09
 84.54428    286.0 1.326e+04 1.179e-09
 84.56453    286.8 1.339e+04 1.269e-09
 84.57821    287.7 1.354e+04 1.381e-09
 84.58833    286.1 1.457e+04 2.343e-09
 84.60502    286.6 1.495e+04 2.723e-09
 84.62527    287.2 1.533e+04 3.122e-09
 84.64552    287.7 1.562e+04 3.448e-09
 84.65580    287.8 1.595e+04 3.765e-09
 84.66593    284.4 1.791e+04 7.954e-09
 84.68601    283.5 1.883e+04 1.018e-08
 84.70626    282.0 1.965e+04 1.322e-08
 84.72328    280.2 2.023e+04 1.666e-08
 84.73340    276.9 2.068e+04 2.434e-08
 84.74675    275.0 2.063e+04 2.353e-08
 84.76700    273.2 2.040e+04 2.052e-08
 84.78724    271.5 1.994e+04 1.617e-08
 84.80087    269.9 1.931e+04 1.087e-08
 84.81100    266.5 1.818e+04 5.312e-09
 84.82774    263.3 1.680e+04 2.809e-09
 84.84798    259.4 1.488e+04 1.776e-09
 84.86823    256.3 1.320e+04 1.449e-09
 84.87847    254.4 1.246e+04 1.321e-09
 84.88859    253.4 1.232e+04 9.190e-10
 84.90872    252.5 1.233e+04 8.023e-10
 84.92897    251.8 1.241e+04 6.556e-10
 84.94594    250.6 1.239e+04 5.005e-10
 84.95607    249.8 1.214e+04 4.193e-10
 84.96946    248.0 1.171e+04 3.674e-10
 84.98971    246.3 1.127e+04 3.689e-10
 85.00996    245.1 1.120e+04 3.735e-10
 85.02354    244.2 1.105e+04 4.080e-10
 85.03366    244.8 1.106e+04 4.036e-10
 85.05045    244.0 1.101e+04 4.620e-10
 85.07070    243.5 1.101e+04 5.290e-10
 85.09095    243.0 1.108e+04 5.971e-10
 85.11119    242.7 1.100e+04 5.985e-10
 85.13144    242.1 1.100e+04 6.113e-10
 85.15169    241.6 1.101e+04 6.373e-10
 85.16861    241.2 1.101e+04 6.528e-10
 85.17874    241.7 1.075e+04 5.523e-10
 85.20240    241.5 1.074e+04 5.826e-10
 85.24299    241.2 1.083e+04 6.748e-10
 85.28349    240.6 1.113e+04 8.258e-10
 85.31388    239.7 1.149e+04 9.450e-10
 85.33413    240.5 1.080e+04 7.343e-10
 85.36447    239.2 1.090e+04 7.482e-10
 85.40497    238.1 1.082e+04 7.199e-10
 85.44546    237.9 1.054e+04 6.113e-10
 85.46907    238.1 1.015e+04 4.660e-10
 85.48932    238.8 1.005e+04 4.666e-10
 85.50858    239.0 9.660e+03 3.538e-10
 85.52882    239.7 9.982e+03 4.632e-10
 85.56694    239.9 9.658e+03 3.702e-10
 85.60402    240.1 9.420e+03 3.120e-10
 85.62427    240.8 9.122e+03 2.514e-10
 85.64793    241.2 8.771e+03 2.056e-10
 85.68842    241.9 8.598e+03 1.986e-10
 85.72892    242.9 8.588e+03 1.991e-10
 85.75921    244.2 8.579e+03 2.054e-10
 85.77946    244.6 8.289e+03 1.754e-10
 85.80990    245.8 8.337e+03 1.956e-10
 85.85040    247.1 8.581e+03 2.459e-10
 85.89089    248.6 8.966e+03 3.266e-10
 85.91441    249.6 9.309e+03 4.177e-10
 85.93466    250.4 9.225e+03 4.150e-10
 85.96166    250.8 9.420e+03 4.748e-10
 85.98169    251.1 9.637e+03 5.522e-10
 85.99181    251.6 9.603e+03 5.425e-10
 86.00205    251.8 9.813e+03 6.254e-10
 86.02230    252.0 1.006e+04 7.356e-10
 86.04255    252.3 1.025e+04 8.465e-10
 86.05928    252.7 1.039e+04 9.350e-10
 86.06941    252.8 1.037e+04 9.165e-10
 86.08304    253.3 1.049e+04 9.967e-10
 86.10329    253.8 1.063e+04 1.078e-09
 86.12353    254.4 1.072e+04 1.152e-09
 86.13688    255.1 1.078e+04 1.198e-09
 86.14701    254.9 1.092e+04 1.264e-09
 86.16403    255.5 1.105e+04 1.337e-09
 86.18427    256.1 1.115e+04 1.370e-09
 86.20436    256.6 1.118e+04 1.372e-09
 86.21448    256.2 1.142e+04 1.542e-09
 86.22477    256.6 1.142e+04 1.539e-09
 86.24501    257.1 1.139e+04 1.517e-09
 86.26526    257.6 1.130e+04 1.452e-09
 86.28195    258.2 1.113e+04 1.347e-09
 86.29208    257.7 1.113e+04 1.356e-09
 86.30576    258.3 1.089e+04 1.204e-09
 86.32600    258.9 1.066e+04 1.066e-09
 86.34625    259.4 1.045e+04 9.537e-10
 86.35955    259.9 1.029e+04 8.730e-10
 86.36967    259.2 1.013e+04 7.946e-10
 86.38674    259.6 1.010e+04 7.787e-10
 86.40699    260.1 1.010e+04 7.795e-10
 86.42702    260.7 1.013e+04 7.885e-10
 86.43715    259.8 1.015e+04 7.978e-10
 86.44748    260.3 1.023e+04 8.277e-10
 86.46773    260.9 1.034e+04 8.708e-10
 86.48798    261.5 1.047e+04 9.226e-10
 86.50462    262.1 1.061e+04 9.798e-10
 86.51474    260.9 1.083e+04 1.154e-09
 86.52847    261.6 1.099e+04 1.259e-09
 86.54872    262.2 1.116e+04 1.376e-09
 86.56896    262.9 1.133e+04 1.508e-09
 86.58222    263.5 1.151e+04 1.660e-09
 86.59234    262.8 1.149e+04 1.736e-09
 86.60946    263.5 1.167e+04 1.890e-09
 86.62970    264.2 1.187e+04 2.083e-09
 86.64969    264.9 1.211e+04 2.323e-09
 86.65982    264.5 1.194e+04 2.151e-09
 86.67020    265.3 1.219e+04 2.361e-09
 86.69044    266.2 1.249e+04 2.598e-09
 86.71069    266.9 1.282e+04 2.824e-09
 86.72729    267.4 1.313e+04 2.935e-09
 86.73741    266.3 1.256e+04 1.803e-09
 86.75119    266.4 1.263e+04 1.778e-09
 86.77143    266.1 1.272e+04 1.713e-09
 86.79168    265.7 1.271e+04 1.640e-09
 86.80489    265.1 1.261e+04 1.590e-09
 86.81501    262.4 1.198e+04 1.469e-09
 86.83217    262.0 1.225e+04 1.630e-09
 86.85242    261.5 1.242e+04 1.766e-09
 86.87236    261.1 1.255e+04 1.886e-09
 86.88248    259.7 1.304e+04 2.460e-09
 86.89291    259.5 1.310e+04 2.470e-09
 86.91316    259.2 1.310e+04 2.438e-09
 86.93341    258.9 1.304e+04 2.295e-09
 86.94996    258.6 1.288e+04 2.063e-09
 86.96008    257.6 1.315e+04 2.327e-09
 86.97390    257.3 1.288e+04 2.002e-09
 86.99415    257.1 1.264e+04 1.760e-09
 87.01439    257.0 1.241e+04 1.589e-09
 87.02755    257.0 1.219e+04 1.465e-09
 87.03741    256.6 1.221e+04 1.566e-09
 87.04449    256.6 1.243e+04 1.750e-09
 87.05489    257.2 1.219e+04 1.558e-09
 87.07513    258.0 1.199e+04 1.378e-09
 87.09503    258.9 1.182e+04 1.219e-09
 87.10515    258.6 1.180e+04 1.180e-09
 87.11563    259.4 1.162e+04 1.020e-09
 87.13588    260.3 1.147e+04 8.982e-10
 87.15612    261.1 1.134e+04 8.076e-10
 87.17263    262.0 1.117e+04 7.548e-10
 87.18275    261.5 1.111e+04 7.655e-10
 87.19662    262.5 1.110e+04 7.594e-10
 87.21686    263.5 1.110e+04 7.603e-10
 87.23711    264.3 1.114e+04 7.693e-10
 87.25022    265.2 1.123e+04 8.031e-10
 87.27057    265.6 1.132e+04 9.053e-10
 87.30817    267.4 1.145e+04 9.999e-10
 87.34866    268.5 1.162e+04 1.102e-09
 87.38537    269.3 1.173e+04 1.162e-09
 87.40561    269.3 1.158e+04 1.118e-09
 87.42965    269.7 1.161e+04 1.149e-09
 87.47014    269.7 1.164e+04 1.168e-09
 87.51064    269.4 1.166e+04 1.160e-09
 87.54056    268.8 1.169e+04 1.110e-09
 87.56081    267.7 1.120e+04 8.275e-10
 87.59162    266.1 1.087e+04 6.492e-10
 87.63212    264.2 1.033e+04 4.624e-10
 87.67261    262.7 9.630e+03 3.108e-10
 87.69575    262.1 8.964e+03 2.054e-10
 87.71600    262.2 8.979e+03 2.040e-10
 87.75360    262.3 8.590e+03 1.372e-10
 87.79409    262.8 8.258e+03 9.340e-11
 87.83070    263.7 8.040e+03 7.498e-11
 87.85095    264.1 8.018e+03 7.127e-11
 87.87508    265.3 7.985e+03 7.021e-11
 87.91557    266.8 7.985e+03 7.039e-11
 87.95607    268.3 7.992e+03 7.217e-11
 87.98590    269.8 8.025e+03 7.834e-11
 88.00614    270.2 8.039e+03 7.909e-11
 88.03705    271.7 8.093e+03 8.836e-11
 88.07755    273.2 8.160e+03 1.005e-10
 88.11804    274.8 8.253e+03 1.167e-10
 88.14109    276.4 8.405e+03 1.397e-10
 88.16134    276.6 8.354e+03 1.337e-10
 88.19903    278.2 8.580e+03 1.638e-10
 88.23952    279.7 8.931e+03 2.120e-10
 88.27604    280.5 9.339e+03 2.809e-10
 88.29628    280.9 9.326e+03 2.829e-10
 88.32051    281.0 9.658e+03 3.587e-10
 88.35078    281.0 9.831e+03 4.033e-10
 88.36356    281.4 1.011e+04 4.717e-10
 88.37369    281.6 1.014e+04 4.883e-10
 88.39118    281.9 1.050e+04 6.089e-10
 88.41143    282.0 1.083e+04 7.346e-10
 88.43104    281.9 1.110e+04 8.400e-10
 88.44116    282.5 1.118e+04 8.933e-10
 88.45192    282.1 1.146e+04 9.838e-10
 88.47217    281.4 1.170e+04 1.038e-09
 88.49241    280.4 1.183e+04 1.043e-09
 88.50863    279.3 1.184e+04 1.040e-09
 88.51876    279.9 1.216e+04 1.210e-09
 88.53291    278.6 1.216e+04 1.197e-09
 88.55315    277.3 1.212e+04 1.128e-09
 88.57048    275.9 1.195e+04 9.976e-10
 88.58061    276.4 1.193e+04 9.909e-10
 88.58623    274.9 1.169e+04 8.505e-10
 88.59635    275.4 1.218e+04 1.089e-09
 88.61389    273.9 1.190e+04 9.415e-10
 88.63414    272.5 1.170e+04 8.843e-10
 88.65371    271.3 1.168e+04 8.859e-10
 88.66383    271.7 1.197e+04 1.050e-09
 88.67463    270.9 1.196e+04 1.052e-09
 88.69488    270.2 1.198e+04 1.069e-09
 88.71513    269.6 1.204e+04 1.097e-09
 88.73130    269.0 1.210e+04 1.110e-09
 88.74143    269.7 1.206e+04 1.087e-09
 88.75562    269.2 1.199e+04 1.054e-09
 88.77587    268.3 1.195e+04 1.035e-09
 88.79611    267.1 1.195e+04 1.025e-09
 88.80885    266.3 1.196e+04 1.040e-09
 88.81897    267.7 1.187e+04 9.942e-10
 88.83150    267.1 1.191e+04 1.034e-09
 88.84157    265.2 1.461e+04 1.010e-09
 88.84760    251.3 4.675e+04 1.274e-09
 88.85266    260.3 3.217e+04 8.855e-10
 88.86182    237.0 5.739e+04 4.432e-09
 88.87194    219.5 4.026e+04 5.476e-08
 88.87951    217.9 3.596e+04 9.553e-08
 88.88382    215.2 3.013e+04 2.374e-07
 88.88637    216.1 3.040e+04 2.282e-07
 88.88963    213.7 2.631e+04 4.815e-07
 88.89467    211.0 2.366e+04 8.547e-07
 88.89973    208.4 2.267e+04 1.047e-06
 88.90322    206.1 2.297e+04 9.137e-07
 88.90575    207.4 2.254e+04 1.102e-06
 88.90986    205.0 2.411e+04 6.830e-07
 88.91492    202.8 2.766e+04 2.909e-07
 88.92011    196.3 3.802e+04 5.156e-08
 88.92520    199.4 3.375e+04 1.027e-07
 88.93268    187.1 5.322e+04 8.221e-09
 88.94281    168.4 5.404e+04 1.120e-09
 88.95293    155.0 1.861e+04 1.277e-09
 88.95893    152.9 1.405e+04 1.360e-09
 88.96400    154.2 1.505e+04 1.632e-09
 88.97318    153.3 1.395e+04 1.477e-09
 88.98330    153.1 1.394e+04 1.438e-09
 88.99853    152.5 1.368e+04 1.266e-09
 89.01883    151.0 1.261e+04 9.587e-10
 89.03157    149.5 1.203e+04 7.808e-10
 89.04169    150.8 1.375e+04 1.245e-09
 89.05932    149.3 1.302e+04 1.025e-09
 89.07957    148.8 1.267e+04 9.076e-10
 89.09904    148.9 1.255e+04 8.644e-10
 89.10916    148.3 1.385e+04 1.444e-09
 89.12006    148.5 1.359e+04 1.318e-09
 89.14031    149.0 1.339e+04 1.232e-09
 89.16056    149.9 1.323e+04 1.200e-09
 89.17664    151.1 1.323e+04 1.223e-09
 89.18676    150.1 1.385e+04 1.696e-09
 89.20105    151.3 1.369e+04 1.590e-09
 89.22130    152.5 1.360e+04 1.564e-09
 89.24154    153.6 1.365e+04 1.618e-09
 89.25424    154.6 1.377e+04 1.719e-09
 89.26436    153.5 1.369e+04 1.768e-09
 89.28204    154.3 1.384e+04 1.820e-09
 89.30229    155.0 1.432e+04 2.019e-09
 89.32171    155.6 1.517e+04 2.429e-09
 89.33183    153.7 1.414e+04 2.000e-09
 89.34278    153.6 1.495e+04 2.367e-09
 89.36303    153.4 1.592e+04 3.039e-09
 89.38327    152.4 1.717e+04 4.213e-09
 89.39931    150.5 1.843e+04 5.778e-09
 89.40943    147.7 1.685e+04 4.267e-09
 89.42377    144.6 1.811e+04 5.819e-09
 89.44401    141.5 1.916e+04 8.164e-09
 89.46426    138.3 2.000e+04 1.108e-08
 89.47690    135.7 2.047e+04 1.425e-08
 89.48703    134.4 1.947e+04 1.222e-08
 89.50475    133.5 1.991e+04 1.554e-08
 89.52500    133.5 2.019e+04 1.807e-08
 89.54438    133.7 2.016e+04 1.803e-08
 89.55450    133.5 2.067e+04 2.021e-08
 89.56549    133.4 2.049e+04 1.964e-08
 89.58574    133.8 1.999e+04 1.759e-08
 89.60599    134.5 1.938e+04 1.476e-08
 89.62197    135.3 1.861e+04 1.175e-08
 89.63210    134.7 1.855e+04 1.175e-08
 89.64648    135.5 1.763e+04 9.186e-09
 89.66673    136.6 1.662e+04 7.044e-09
 89.68698    137.8 1.566e+04 5.231e-09
 89.69957    139.0 1.481e+04 3.997e-09
 89.70970    138.7 1.435e+04 3.431e-09
 89.72747    139.6 1.361e+04 2.590e-09
 89.74772    140.5 1.299e+04 1.972e-09
 89.76705    141.1 1.246e+04 1.526e-09
 89.77717    139.9 1.180e+04 1.081e-09
 89.78821    139.8 1.135e+04 8.497e-10
 89.80846    139.5 1.098e+04 7.018e-10
 89.82870    138.9 1.073e+04 6.300e-10
 89.84464    138.0 1.060e+04 6.276e-10
 89.85477    135.6 1.035e+04 6.220e-10
 89.86920    134.3 1.059e+04 6.804e-10
 89.88944    132.6 1.086e+04 7.757e-10
 89.90969    130.6 1.110e+04 8.856e-10
 89.92224    128.2 1.129e+04 9.587e-10
 89.93236    126.4 1.128e+04 9.231e-10
 89.95018    123.1 1.145e+04 9.197e-10
 89.97043    118.9 1.170e+04 9.283e-10
 89.98971    114.1 1.200e+04 9.941e-10
 89.99984    110.9 1.202e+04 1.007e-09
 90.01092    106.0 1.240e+04 1.247e-09
 90.03117    100.4 1.359e+04 1.935e-09
 90.05142     94.2 1.556e+04 3.485e-09
 90.06655     90.5 1.680e+04 5.094e-09
 90.07228     88.3 1.750e+04 6.950e-09
 90.07739     87.8 1.712e+04 6.011e-09
 90.09191     84.0 1.879e+04 1.148e-08
 90.10659     80.5 2.032e+04 1.797e-08
 90.11672     82.6 1.956e+04 1.528e-08
 90.13241     79.8 2.030e+04 1.655e-08
 90.14491     76.7 2.051e+04 1.521e-08
 90.15503     74.9 1.870e+04 1.061e-08
 90.17290     72.0 1.797e+04 7.386e-09
 90.19315     68.5 1.677e+04 4.508e-09
 90.21238     64.9 1.591e+04 2.964e-09
 90.22251     64.5 1.377e+04 2.131e-09
 90.23364     62.0 1.259e+04 1.431e-09
 90.25389     60.3 1.283e+04 1.159e-09
 90.27413     59.8 1.398e+04 1.115e-09
 90.28998     59.9 1.546e+04 1.182e-09
 90.30010     59.2 1.104e+04 6.633e-10
 90.31463     59.4 1.110e+04 6.298e-10
 90.33487     59.8 1.121e+04 5.974e-10
 90.35512     60.3 1.130e+04 5.958e-10
 90.36758     60.8 1.153e+04 6.151e-10
 90.37770     60.7 1.032e+04 4.925e-10
 90.39561     61.3 1.035e+04 5.212e-10
 90.41586     62.0 1.038e+04 5.635e-10
 90.43505     62.9 1.048e+04 6.160e-10
 90.44517     63.3 1.039e+04 6.017e-10
 90.45635     64.4 1.053e+04 6.683e-10
 90.47660     65.5 1.067e+04 7.209e-10
 90.49685     66.6 1.080e+04 7.562e-10
 90.51265     67.5 1.096e+04 7.875e-10
 90.52277     66.6 1.166e+04 1.045e-09
 90.53734     66.9 1.221e+04 1.194e-09
 90.55759     67.3 1.276e+04 1.349e-09
 90.57784     67.6 1.320e+04 1.494e-09
 90.59024     67.9 1.346e+04 1.594e-09
 90.60037     66.0 1.655e+04 4.246e-09
 90.61833     66.0 1.650e+04 4.020e-09
 90.63858     65.6 1.615e+04 3.694e-09
 90.65772     65.0 1.550e+04 3.472e-09
 90.66784     62.5 1.521e+04 3.908e-09
 90.67907     62.4 1.454e+04 3.495e-09
 90.69932     62.6 1.414e+04 3.258e-09
 90.71956     63.0 1.394e+04 3.164e-09
 90.73532     63.8 1.392e+04 3.182e-09
 90.74544     63.1 1.314e+04 2.447e-09
 90.76006     64.1 1.322e+04 2.506e-09
 90.78030     65.1 1.334e+04 2.593e-09
 90.80055     66.2 1.350e+04 2.706e-09
 90.81291     67.5 1.370e+04 2.836e-09
 90.82304     67.0 1.264e+04 1.673e-09
 90.84104     68.2 1.286e+04 1.781e-09
 90.86129     69.6 1.301e+04 1.867e-09
 90.88039     71.0 1.310e+04 1.906e-09
 90.89051     70.2 1.182e+04 1.099e-09
 90.90178     71.8 1.202e+04 1.158e-09
 90.92203     73.4 1.218e+04 1.180e-09
 90.94228     75.1 1.226e+04 1.165e-09
 90.95798     76.7 1.230e+04 1.112e-09
 90.96811     75.4 1.132e+04 8.623e-10
 90.98277     76.9 1.155e+04 8.758e-10
 91.00302     78.5 1.175e+04 8.902e-10
 91.02327     80.0 1.196e+04 9.055e-10
 91.03558     81.4 1.209e+04 9.118e-10
 91.04570     79.5 1.198e+04 1.130e-09
 91.06376     81.0 1.233e+04 1.223e-09
 91.08401     82.5 1.263e+04 1.329e-09
 91.10305     84.0 1.285e+04 1.441e-09
 91.11318     83.4 1.268e+04 2.053e-09
 91.12450     85.0 1.290e+04 2.052e-09
 91.14475     86.6 1.329e+04 2.091e-09
 91.16499     87.9 1.435e+04 2.250e-09
 91.18065     88.0 1.697e+04 2.711e-09
 91.19078     77.4 2.386e+04 7.413e-09
 91.20549     75.3 2.452e+04 1.014e-08
 91.22573     73.4 2.510e+04 1.261e-08
 91.24598     71.6 2.506e+04 1.502e-08
 91.25825     70.2 2.458e+04 1.443e-08
 91.26837     58.6 1.997e+04 5.175e-09
 91.28647     56.3 1.688e+04 2.677e-09
 91.30672     53.8 1.407e+04 1.382e-09
 91.32572     51.6 1.195e+04 7.496e-10
 91.33585     45.4 1.040e+04 4.253e-10
 91.34721     43.3 9.866e+03 2.810e-10
 91.36746     42.0 9.003e+03 2.275e-10
 91.38771     40.0 9.412e+03 1.967e-10
 91.40332     39.0 9.352e+03 1.818e-10
 91.41354     35.7 9.042e+03 1.866e-10
 91.43852     30.8 9.604e+03 1.911e-10
 91.47901     22.2 1.035e+04 2.182e-10
 91.50929     16.4 1.021e+04 2.879e-10
 91.52944     13.0 1.017e+04 3.487e-10
 91.54839      7.6 1.099e+04 5.495e-10
 91.55851      9.7 1.096e+04 5.845e-10
 91.56993      5.9 1.173e+04 8.847e-10
 91.59018      3.5 1.227e+04 1.276e-09
 91.61042      1.9 1.284e+04 1.727e-09
 91.62599     -0.1 1.381e+04 2.310e-09
 91.63611      3.1 1.284e+04 1.717e-09
 91.64271      0.6 1.365e+04 2.041e-09
 91.65283     -1.1 1.374e+04 2.098e-09
 91.67116     -4.1 1.457e+04 2.454e-09
 91.69141     -6.2 1.502e+04 2.730e-09
 91.70359     -7.6 1.522e+04 2.859e-09
 91.71371     -3.2 1.309e+04 1.529e-09
 91.73190     -4.5 1.350e+04 1.617e-09
 91.75215     -5.9 1.332e+04 1.704e-09
 91.77106     -8.0 1.391e+04 2.009e-09
 91.78118     -4.4 1.262e+04 1.108e-09
 91.79265     -6.0 1.225e+04 1.458e-09
 91.81289     -7.3 1.368e+04 2.328e-09
 91.83314     -8.2 1.614e+04 4.244e-09
 91.84866     -8.5 1.783e+04 7.069e-09
 91.85878     -6.4 1.532e+04 4.105e-09
 91.87363     -6.5 1.689e+04 7.336e-09
 91.89388     -5.6 1.807e+04 1.039e-08
 91.91413     -4.6 1.860e+04 1.090e-08
 91.92625     -3.5 1.829e+04 9.820e-09
 91.93638     -2.4 1.799e+04 1.093e-08
 91.95462     -1.2 1.830e+04 9.454e-09
 91.96500     -0.6 1.864e+04 8.767e-09
 91.97002     -0.2 1.846e+04 9.242e-09
 91.97983     -0.0 1.875e+04 9.141e-09
 91.98995      0.4 1.901e+04 8.442e-09
 91.99869      0.1 1.959e+04 7.802e-09
 92.00375      1.2 1.884e+04 8.560e-09
 92.01020      1.2 1.935e+04 7.987e-09
 92.02032      0.4 2.030e+04 7.907e-09
 92.03045     -1.9 2.265e+04 9.210e-09
 92.03749     -4.2 2.427e+04 1.155e-08
 92.04255     -1.0 2.267e+04 1.024e-08
 92.05069     -2.9 2.531e+04 1.506e-08
 92.06082     -3.9 2.598e+04 1.878e-08
 92.07094     -3.9 2.498e+04 2.303e-08
 92.07629     -3.4 2.405e+04 2.542e-08
 92.08135     -3.1 2.516e+04 2.603e-08
 92.09119     -2.6 2.449e+04 3.010e-08
 92.10131     -1.9 2.375e+04 3.422e-08
 92.11003     -1.3 2.326e+04 3.649e-08
 92.11509     -1.6 2.371e+04 4.136e-08
 92.12156     -0.8 2.325e+04 4.644e-08
 92.13168     -0.1 2.326e+04 4.749e-08
 92.14181      0.3 2.336e+04 4.486e-08
 92.14882     -0.3 2.428e+04 3.962e-08
 92.15389     -1.0 2.356e+04 7.471e-08
 92.16205     -3.0 2.457e+04 8.081e-08
 92.17218     -5.3 2.537e+04 9.208e-08
 92.18230     -6.9 2.526e+04 1.047e-07
 92.18762     -7.8 2.520e+04 1.008e-07
 92.19268     -7.6 2.223e+04 1.819e-07
 92.20255     -8.2 2.240e+04 1.376e-07
 92.21267     -8.2 2.379e+04 8.123e-08
 92.22136     -8.3 2.580e+04 4.411e-08
 92.22642     -9.2 2.372e+04 5.509e-08
 92.23292    -10.1 2.427e+04 3.402e-08
 92.24304    -11.6 2.326e+04 2.386e-08
 92.25316    -12.6 2.186e+04 1.689e-08
 92.26016    -12.9 2.112e+04 1.409e-08
 92.26522    -13.6 1.998e+04 1.334e-08
 92.27341    -13.5 1.930e+04 1.016e-08
 92.28353    -13.6 1.883e+04 9.123e-09
 92.29394    -11.6 1.927e+04 7.613e-09
 92.30412    -13.7 1.648e+04 5.625e-09
 92.31906    -12.9 1.541e+04 4.479e-09
 92.33931    -11.7 1.477e+04 3.445e-09
 92.35956    -10.6 1.462e+04 2.761e-09
 92.37159     -9.7 1.456e+04 2.318e-09
 92.38171    -10.5 1.279e+04 1.978e-09
 92.40005     -9.4 1.263e+04 1.681e-09
 92.42030     -8.3 1.246e+04 1.457e-09
 92.43906     -7.4 1.235e+04 1.329e-09
 92.44919     -7.2 1.211e+04 1.361e-09
 92.46079     -6.2 1.195e+04 1.271e-09
 92.48104     -5.3 1.179e+04 1.148e-09
 92.50128     -4.8 1.173e+04 1.090e-09
 92.51666     -4.2 1.182e+04 1.073e-09
 92.52678     -3.4 1.140e+04 9.520e-10
 92.54178     -3.1 1.138e+04 9.357e-10
 92.56202     -2.2 1.142e+04 9.471e-10
 92.58227     -1.9 1.146e+04 9.506e-10
 92.59426     -1.3 1.146e+04 9.913e-10
 92.61460     -0.9 1.171e+04 1.099e-09
 92.64311     -0.7 1.211e+04 1.229e-09
 92.66173     -0.5 1.230e+04 1.335e-09
 92.67185      0.0 1.201e+04 1.470e-09
 92.68351      0.2 1.237e+04 1.625e-09
 92.70375     -0.1 1.278e+04 1.785e-09
 92.72400     -1.0 1.321e+04 2.026e-09
 92.73933     -1.7 1.318e+04 2.281e-09
 92.74945     -0.4 1.321e+04 2.314e-09
 92.76449     -0.2 1.300e+04 2.496e-09
 92.78474      0.6 1.273e+04 2.444e-09
 92.80499      1.8 1.239e+04 2.248e-09
 92.81693      2.9 1.221e+04 1.979e-09
 92.82705      3.0 1.205e+04 1.671e-09
 92.84548      3.3 1.181e+04 1.422e-09
 92.86573      3.2 1.158e+04 1.202e-09
 92.88440      2.9 1.130e+04 1.065e-09
 92.89452      2.9 1.082e+04 9.073e-10
 92.90622      3.2 1.079e+04 9.005e-10
 92.92647      3.5 1.091e+04 9.378e-10
 92.94671      3.9 1.114e+04 1.038e-09
 92.96200      4.5 1.140e+04 1.183e-09
 92.97212      5.1 1.084e+04 8.713e-10
 92.98721      5.7 1.111e+04 9.821e-10
 93.00745      6.4 1.142e+04 1.132e-09
 93.02770      7.1 1.184e+04 1.348e-09
 93.03959      7.8 1.223e+04 1.610e-09
 93.04972      8.0 1.127e+04 9.845e-10
 93.06820      8.6 1.171e+04 1.178e-09
 93.08844      9.3 1.215e+04 1.418e-09
 93.10707     10.2 1.246e+04 1.652e-09
 93.11719      9.8 1.128e+04 9.794e-10
 93.12894     10.8 1.182e+04 1.139e-09
 93.14918     11.5 1.211e+04 1.233e-09
 93.16869     12.9 1.243e+04 1.344e-09
 93.17882     13.3 1.267e+04 1.564e-09
 93.18466     14.3 1.301e+04 1.724e-09
 93.19489     12.8 1.181e+04 1.101e-09
 93.21002     14.9 1.242e+04 1.382e-09
 93.23017     15.8 1.264e+04 1.481e-09
 93.25042     16.7 1.286e+04 1.558e-09
 93.26226     17.9 1.308e+04 1.689e-09
 93.27239     17.2 1.234e+04 1.394e-09
 93.29091     18.4 1.239e+04 1.455e-09
 93.31116     19.7 1.244e+04 1.517e-09
 93.32974     21.2 1.252e+04 1.571e-09
 93.33986     20.7 1.217e+04 1.433e-09
 93.35165     22.2 1.220e+04 1.429e-09
 93.37190     24.0 1.221e+04 1.415e-09
 93.39214     25.8 1.227e+04 1.413e-09
 93.40733     27.6 1.236e+04 1.409e-09
 93.41746     26.5 1.201e+04 1.280e-09
 93.43264     28.1 1.207e+04 1.281e-09
 93.45288     29.9 1.215e+04 1.299e-09
 93.47313     31.7 1.233e+04 1.315e-09
 93.48493     33.3 1.247e+04 1.332e-09
 93.49505     30.6 1.273e+04 1.547e-09
 93.51363     31.3 1.361e+04 1.865e-09
 93.53387     31.0 1.500e+04 2.568e-09
 93.55240     29.9 1.645e+04 3.823e-09
 93.56253     25.6 1.667e+04 5.277e-09
 93.57437     24.7 1.758e+04 7.194e-09
 93.59461     22.6 1.952e+04 1.073e-08
 93.60975     18.2 2.140e+04 1.327e-08
 93.61982     16.2 2.158e+04 1.341e-08
 93.62990     13.0 2.254e+04 1.466e-08
 93.64003      5.5 2.244e+04 1.263e-08
 93.65019      0.6 2.171e+04 1.162e-08
 93.66032     -3.0 2.002e+04 9.303e-09
 93.66870     -6.2 1.849e+04 6.851e-09
 93.67376     -8.6 1.716e+04 5.344e-09
 93.68056    -10.5 1.637e+04 4.575e-09
 93.69580    -11.6 1.645e+04 3.554e-09
 93.70760    -18.3 1.623e+04 2.259e-09
 93.71772    -19.6 1.452e+04 1.859e-09
 93.73634    -26.5 1.347e+04 1.334e-09
 93.75659    -30.3 1.313e+04 1.360e-09
 93.77507    -32.0 1.363e+04 1.750e-09
 93.78520    -30.2 1.324e+04 1.532e-09
 93.79708    -30.6 1.410e+04 2.083e-09
 93.81733    -30.6 1.506e+04 2.480e-09
 93.83246    -30.3 1.621e+04 3.064e-09
 93.84254    -30.6 1.682e+04 3.293e-09
 93.85257    -31.0 1.868e+04 4.282e-09
 93.85763    -30.7 1.782e+04 4.034e-09
 93.86279    -31.2 1.904e+04 4.749e-09
 93.87291    -31.7 2.061e+04 7.094e-09
 93.88303    -32.2 2.207e+04 9.954e-09
 93.89137    -32.0 2.295e+04 1.547e-08
 93.89643    -31.3 2.138e+04 1.163e-08
 93.90328    -31.0 2.236e+04 1.621e-08
 93.91340    -30.3 2.267e+04 2.297e-08
 93.92353    -28.9 2.269e+04 3.175e-08
 93.93017    -27.2 2.261e+04 4.314e-08
 93.93523    -27.8 2.242e+04 2.467e-08
 93.94171    -26.7 2.302e+04 3.197e-08
 93.94678    -24.9 2.308e+04 3.000e-08
 93.95390    -24.3 2.471e+04 5.539e-08
 93.96391    -27.2 2.733e+04 1.636e-07
 93.96897    -26.7 2.471e+04 3.373e-08
 93.97414    -31.2 2.820e+04 7.674e-08
 93.98427    -41.6 2.978e+04 2.192e-07
 93.99439    -51.2 2.725e+04 4.856e-07
 94.00270    -56.0 2.780e+04 3.316e-07
 94.00777    -51.8 2.748e+04 1.588e-07
 94.01464    -54.7 2.789e+04 1.307e-07
 94.02476    -55.6 2.886e+04 6.913e-08
 94.03488    -56.0 2.687e+04 4.342e-08
 94.04150    -56.0 2.499e+04 2.984e-08
 94.04656    -53.9 2.434e+04 4.181e-08
 94.05513    -53.6 2.378e+04 2.855e-08
 94.06525    -53.2 2.371e+04 1.742e-08
 94.07529    -54.0 2.234e+04 8.189e-09
 94.08035    -50.7 2.258e+04 1.812e-08
 94.08550    -50.5 2.208e+04 1.177e-08
 94.10073    -49.5 2.142e+04 8.342e-09
 94.12103    -49.4 1.925e+04 3.512e-09
 94.14128    -49.4 1.502e+04 1.843e-09
 94.15293    -48.4 1.244e+04 1.482e-09
 94.16306    -45.5 1.583e+04 1.764e-09
 94.18177    -45.0 1.260e+04 1.316e-09
 94.20202    -43.4 1.165e+04 1.132e-09
 94.22041    -41.2 1.141e+04 1.030e-09
 94.23053    -40.4 1.141e+04 9.714e-10
 94.24251    -38.3 1.115e+04 8.490e-10
 94.27298    -35.6 1.096e+04 6.980e-10
 94.31357    -32.1 1.048e+04 5.699e-10
 94.35406    -28.6 9.907e+03 4.246e-10
 94.37580    -26.1 9.601e+03 3.324e-10
 94.39604    -24.0 9.650e+03 3.263e-10
 94.43505    -21.6 9.438e+03 2.810e-10
 94.47554    -19.7 9.317e+03 2.639e-10
 94.51075    -18.2 9.493e+03 2.741e-10
 94.53099    -15.6 9.573e+03 2.798e-10
 94.55653    -14.7 9.705e+03 3.053e-10
 94.59703    -14.7 1.021e+04 3.909e-10
 94.63752    -15.2 1.123e+04 6.194e-10
 94.66584    -13.1 1.122e+04 6.823e-10
 94.68609    -12.2 1.048e+04 4.570e-10
 94.70500    -12.6 1.143e+04 5.600e-10
 94.71503    -11.3 1.202e+04 8.764e-10
 94.72843    -11.4 1.250e+04 1.007e-09
 94.74334    -11.5 1.342e+04 1.308e-09
 94.75347    -10.4 1.183e+04 6.348e-10
 94.76893    -11.1 1.260e+04 8.601e-10
 94.78918    -11.7 1.331e+04 1.290e-09
 94.80942    -11.8 1.425e+04 1.943e-09
 94.82094    -11.4 1.499e+04 2.872e-09
 94.83106    -11.5 1.343e+04 1.403e-09
 94.84992    -11.0 1.399e+04 1.853e-09
 94.87016    -10.3 1.438e+04 2.329e-09
 94.88841     -9.5 1.474e+04 2.750e-09
 94.89854    -10.8 1.322e+04 1.900e-09
 94.91066    -10.3 1.331e+04 2.035e-09
 94.93090     -9.7 1.344e+04 2.107e-09
 94.95115     -9.2 1.389e+04 2.207e-09
 94.96601     -8.8 1.479e+04 2.327e-09
 94.97613     -9.4 1.285e+04 1.827e-09
 94.99164     -9.4 1.289e+04 1.737e-09
 95.01189     -9.4 1.283e+04 1.620e-09
 95.03214     -9.3 1.268e+04 1.481e-09
 95.04361     -9.3 1.226e+04 1.307e-09
 95.05373     -9.6 1.224e+04 1.435e-09
 95.07263    -10.1 1.194e+04 1.345e-09
 95.09288    -10.7 1.206e+04 1.372e-09
 95.11108    -11.6 1.256e+04 1.462e-09
 95.12120    -11.2 1.289e+04 2.016e-09
 95.13337    -11.8 1.331e+04 2.151e-09
 95.15362    -12.3 1.376e+04 2.208e-09
 95.17386    -13.2 1.374e+04 1.970e-09
 95.18868    -15.0 1.275e+04 1.646e-09
 95.19880    -12.3 1.404e+04 2.162e-09
 95.21436    -14.6 1.271e+04 1.580e-09
 95.23461    -16.6 1.183e+04 1.335e-09
 95.25485    -18.0 1.191e+04 1.388e-09
 95.26628    -20.4 1.230e+04 1.535e-09
 95.27640    -20.4 1.329e+04 1.333e-09
 95.29535    -24.1 1.298e+04 1.648e-09
 95.31559    -27.2 1.285e+04 2.020e-09
 95.33375    -28.8 1.299e+04 2.343e-09
 95.34387    -30.8 2.322e+04 2.028e-09
 95.35609    -31.9 1.795e+04 2.368e-09
 95.37633    -33.2 1.956e+04 2.463e-09
 95.39658    -34.3 2.173e+04 2.450e-09
 95.41135    -35.5 2.359e+04 1.967e-09
 95.41636    -40.3 3.145e+04 4.646e-09
 95.42179    -40.4 3.131e+04 4.127e-09
 95.43702    -42.2 2.934e+04 5.515e-09
 95.45732    -41.4 2.966e+04 3.465e-09
 95.47757    -40.7 3.039e+04 2.555e-09
 95.48894    -39.9 3.039e+04 2.129e-09
 95.49396    -42.5 2.640e+04 9.844e-09
 95.50278    -42.0 2.692e+04 8.619e-09
 95.51290    -41.3 2.740e+04 7.695e-09
 95.52258    -41.0 2.776e+04 6.953e-09
 95.52764    -41.4 2.543e+04 1.482e-08
 95.53826    -40.1 2.715e+04 8.701e-09
 95.55642    -38.3 2.783e+04 6.511e-09
 95.56649    -38.7 2.298e+04 1.764e-08
 95.57364    -37.7 2.331e+04 1.490e-08
 95.58377    -36.7 2.339e+04 1.293e-08
 95.59389    -35.6 2.369e+04 1.168e-08
 95.60018    -34.4 2.414e+04 9.977e-09
 95.60524    -34.8 2.323e+04 1.518e-08
 95.61925    -32.7 2.415e+04 9.897e-09
 95.63401    -30.1 2.401e+04 6.546e-09
 95.64414    -31.6 2.268e+04 1.583e-08
 95.65979    -29.5 2.255e+04 1.221e-08
 95.68004    -27.3 2.246e+04 9.391e-09
 95.70028    -25.4 2.175e+04 7.173e-09
 95.71161    -23.6 2.050e+04 5.620e-09
 95.72173    -24.4 2.254e+04 1.118e-08
 95.74078    -22.5 2.147e+04 9.603e-09
 95.76102    -20.5 2.050e+04 8.886e-09
 95.77909    -18.6 1.960e+04 8.554e-09
 95.78921    -18.2 2.333e+04 1.069e-08
 95.80152    -16.5 2.218e+04 1.007e-08
 95.82176    -14.5 2.125e+04 9.705e-09
 95.84201    -12.5 2.044e+04 1.016e-08
 95.85668    -10.8 1.989e+04 1.030e-08
 95.86681    -10.7 2.256e+04 8.943e-09
 95.87739     -9.5 2.074e+04 1.061e-08
 95.88747     -9.4 2.081e+04 1.102e-08
 95.89538     -8.4 2.110e+04 1.311e-08
 95.90044     -7.9 2.256e+04 8.881e-09
 95.90771     -7.7 2.249e+04 9.309e-09
 95.91784     -6.4 2.200e+04 1.029e-08
 95.92796     -5.5 2.161e+04 1.083e-08
 95.93418     -4.1 2.076e+04 1.114e-08
 95.93924     -4.8 2.230e+04 5.876e-09
 95.94821     -4.3 2.204e+04 6.043e-09
 95.95833     -2.8 2.070e+04 6.327e-09
 95.96792     -2.4 2.053e+04 6.484e-09
 95.97298     -2.3 2.468e+04 4.899e-09
 95.97858     -0.6 2.254e+04 5.966e-09
 95.98870     -0.4 2.236e+04 5.978e-09
 95.99883      1.1 2.168e+04 5.292e-09
 96.00672      0.9 2.248e+04 5.401e-09
 96.01183     -0.3 1.976e+04 2.789e-09
 96.02423      1.2 2.024e+04 2.808e-09
 96.03937      1.1 2.207e+04 4.170e-09
 96.04552      1.4 2.496e+04 6.366e-09
 96.05058      1.8 2.032e+04 2.702e-09
 96.05957      1.6 2.237e+04 3.408e-09
 96.06969      1.9 2.633e+04 4.636e-09
 96.07925      2.6 2.850e+04 7.084e-09
 96.08943      3.0 2.309e+04 3.442e-09
 96.10522      4.1 2.798e+04 5.523e-09
 96.12547      5.5 2.956e+04 9.660e-09
 96.14571      6.7 2.836e+04 1.561e-08
 96.15695      7.4 2.436e+04 2.029e-08
 96.16707      8.5 3.480e+04 1.079e-08
 96.18110      8.7 3.448e+04 1.753e-08
 96.19059      9.6 3.332e+04 2.130e-08
 96.19565     10.4 3.648e+04 1.808e-08
 96.20129     10.8 3.556e+04 2.215e-08
 96.21142     11.5 3.424e+04 2.345e-08
 96.22154     11.9 3.289e+04 2.535e-08
 96.22939     12.6 3.113e+04 2.602e-08
 96.23445     14.0 3.823e+04 2.855e-08
 96.24082     14.7 3.717e+04 3.278e-08
 96.24588     14.1 3.793e+04 3.804e-08
 96.25191     14.9 3.682e+04 4.097e-08
 96.26203     15.7 3.508e+04 4.215e-08
 96.26818     16.1 3.343e+04 3.921e-08
 96.27325     16.8 3.722e+04 6.342e-08
 96.28228     17.9 3.554e+04 6.813e-08
 96.29240     19.0 3.401e+04 6.800e-08
 96.30192     20.6 3.253e+04 5.720e-08
 96.30698     21.5 3.452e+04 1.280e-07
 96.31265     23.4 3.304e+04 1.464e-07
 96.32277     25.0 3.231e+04 1.490e-07
 96.33290     26.0 3.323e+04 1.173e-07
 96.34072     25.4 3.895e+04 5.761e-08
 96.34578     28.3 2.897e+04 3.216e-07
 96.35314     30.0 3.051e+04 2.470e-07
 96.36327     28.3 3.379e+04 1.653e-07
 96.37339     22.9 2.758e+04 4.098e-07
 96.37949     21.6 2.224e+04 1.339e-06
 96.38200     24.7 2.019e+04 3.601e-06
 96.38600     24.1 1.709e+04 2.535e-05
 96.38916     22.7 1.568e+04 9.637e-05
 96.39041     24.3 1.404e+04 3.933e-04
 96.39230     23.5 1.113e+04 1.031e-02
 96.39483     19.7 9.176e+03 5.222e-02
 96.39736     12.6 9.817e+03 5.933e-02
 96.39884      8.6 1.644e+04 3.000e-02
 96.40011      8.8 1.915e+04 1.578e-02
 96.40242      7.3 1.611e+04 3.077e-02
 96.40495      7.3 1.015e+04 1.922e-02
 96.40728      8.6 1.121e+04 6.334e-03
 96.40854     10.8 1.022e+04 1.409e-02
 96.41129     13.7 1.326e+04 7.880e-04
 96.41574     18.7 1.680e+04 2.378e-05
 96.41827     19.5 1.500e+04 1.550e-04
 96.42143     23.4 1.832e+04 8.486e-06
 96.42649     21.9 2.570e+04 9.273e-07
 96.43411     11.5 4.711e+04 6.500e-08
 96.44426      5.3 6.623e+04 8.073e-09
 96.45205     -1.1 6.580e+04 3.774e-09
 96.45712     -9.6 4.337e+04 2.598e-08
 96.46450    -10.7 3.923e+04 2.098e-08
 96.47463    -10.6 3.963e+04 1.595e-08
 96.48475     -9.7 3.939e+04 1.450e-08
 96.49085     -8.4 4.177e+04 1.141e-08
 96.49591     -8.9 2.331e+04 7.258e-08
 96.50500     -7.8 2.323e+04 6.502e-08
 96.51512     -6.4 2.353e+04 6.042e-08
 96.52459     -5.0 2.380e+04 5.760e-08
 96.52965     -3.6 2.057e+04 1.281e-07
 96.53537     -2.5 2.027e+04 1.248e-07
 96.54549     -1.4 2.022e+04 1.237e-07
 96.55561     -0.2 2.028e+04 1.269e-07
 96.56339      1.2 2.044e+04 1.319e-07
 96.56845      2.5 2.156e+04 1.817e-07
 96.57586      3.4 2.138e+04 2.072e-07
 96.58598      4.3 2.109e+04 2.265e-07
 96.59611      4.6 2.095e+04 2.487e-07
 96.60219      3.9 2.105e+04 2.940e-07
 96.60725      3.5 2.172e+04 3.813e-07
 96.61635      2.0 2.129e+04 5.408e-07
 96.62648     -0.3 2.090e+04 7.136e-07
 96.63592     -1.6 2.046e+04 8.025e-07
 96.64096     -0.6 2.053e+04 7.851e-07
 96.64414     -1.2 2.064e+04 7.285e-07
 96.64921     -2.1 2.076e+04 6.837e-07
 96.65427     -3.4 2.103e+04 6.161e-07
 96.65780     -3.9 2.105e+04 5.831e-07
 96.66034     -3.3 2.253e+04 4.516e-07
 96.66695     -4.5 2.147e+04 5.069e-07
 96.67472     -5.9 2.244e+04 3.735e-07
 96.67978     -6.2 2.411e+04 3.327e-07
 96.68722     -7.3 2.353e+04 2.733e-07
 96.69734     -7.1 2.390e+04 1.988e-07
 96.70746     -6.2 2.350e+04 1.557e-07
 96.71352     -5.0 2.308e+04 1.245e-07
 96.71858     -6.4 2.493e+04 1.417e-07
 96.72771     -5.2 2.447e+04 1.285e-07
 96.73783     -4.6 2.365e+04 1.205e-07
 96.74726     -4.5 2.531e+04 1.050e-07
 96.75232     -4.5 2.512e+04 1.254e-07
 96.75808     -4.2 2.497e+04 1.239e-07
 96.76820     -5.0 2.607e+04 1.257e-07
 96.77833     -6.4 2.792e+04 1.358e-07
 96.78606     -7.9 2.998e+04 1.381e-07
 96.79112     -5.6 2.565e+04 1.369e-07
 96.79858     -7.2 2.647e+04 1.622e-07
 96.80870     -8.8 2.716e+04 1.846e-07
 96.81882    -11.0 2.674e+04 1.986e-07
 96.82485    -13.0 2.686e+04 1.670e-07
 96.82992    -10.7 2.530e+04 2.510e-07
 96.83907    -13.1 2.484e+04 2.521e-07
 96.84919    -14.8 2.570e+04 1.656e-07
 96.85859    -16.0 2.954e+04 7.094e-08
 96.86365    -14.2 2.376e+04 2.356e-07
 96.86944    -15.1 2.724e+04 1.057e-07
 96.87956    -17.5 3.431e+04 3.167e-08
 96.88969    -24.0 3.595e+04 9.610e-09
 96.89739    -33.5 2.549e+04 3.346e-09
 96.90245    -23.9 3.740e+04 1.196e-08
 96.90993    -34.8 2.651e+04 3.771e-09
 96.92006    -40.6 1.733e+04 2.467e-09
 96.93018    -43.4 1.546e+04 2.276e-09
 96.93619    -44.7 1.502e+04 2.211e-09
 96.94125    -43.5 1.537e+04 2.262e-09
 96.95554    -47.5 1.537e+04 2.582e-09
 96.97002    -51.2 1.690e+04 3.311e-09
 96.97504    -47.5 1.530e+04 2.414e-09
 96.98080    -48.5 1.556e+04 2.507e-09
 96.99603    -50.8 1.608e+04 2.819e-09
 97.01633    -54.0 1.603e+04 3.197e-09
 97.03657    -55.4 1.564e+04 3.403e-09
 97.04762    -56.1 1.499e+04 3.368e-09
 97.05774    -54.1 1.511e+04 2.952e-09
 97.07707    -54.7 1.463e+04 2.832e-09
 97.09731    -55.0 1.401e+04 2.561e-09
 97.11509    -55.0 1.344e+04 2.224e-09
 97.12522    -53.7 1.375e+04 2.213e-09
 97.13781    -53.9 1.320e+04 1.941e-09
 97.15805    -53.8 1.272e+04 1.706e-09
 97.17830    -53.6 1.232e+04 1.503e-09
 97.19269    -53.1 1.200e+04 1.320e-09
 97.20281    -52.5 1.226e+04 1.417e-09
 97.21879    -52.0 1.203e+04 1.302e-09
 97.23904    -51.6 1.194e+04 1.229e-09
 97.25929    -51.3 1.193e+04 1.205e-09
 97.27029    -51.1 1.201e+04 1.211e-09
 97.28041    -50.8 1.248e+04 1.508e-09
 97.29978    -50.7 1.271e+04 1.594e-09
 97.32003    -50.5 1.283e+04 1.676e-09
 97.33776    -50.3 1.284e+04 1.707e-09
 97.34789    -49.9 1.342e+04 2.298e-09
 97.36052    -49.7 1.345e+04 2.290e-09
 97.38077    -50.1 1.350e+04 2.257e-09
 97.40102    -51.8 1.369e+04 2.258e-09
 97.41536    -54.7 1.406e+04 2.333e-09
 97.42548    -54.7 1.514e+04 3.456e-09
 97.44151    -57.1 1.528e+04 3.785e-09
 97.46176    -58.9 1.542e+04 4.386e-09
 97.48200    -60.0 1.560e+04 4.813e-09
 97.49296    -61.0 1.537e+04 4.857e-09
 97.50308    -61.1 1.605e+04 4.209e-09
 97.52250    -62.6 1.568e+04 3.150e-09
 97.54274    -64.4 1.503e+04 2.352e-09
 97.56043    -66.5 1.415e+04 1.808e-09
 97.57055    -68.7 1.445e+04 1.873e-09
 97.58324    -69.8 1.373e+04 1.593e-09
 97.60348    -70.3 1.337e+04 1.479e-09
 97.62373    -70.4 1.322e+04 1.452e-09
 97.63803    -70.5 1.314e+04 1.470e-09
 97.64815    -70.7 1.374e+04 1.819e-09
 97.66422    -70.7 1.366e+04 1.802e-09
 97.68447    -70.7 1.362e+04 1.854e-09
 97.70472    -70.5 1.366e+04 2.030e-09
 97.71562    -70.3 1.382e+04 2.326e-09
 97.72575    -70.6 1.384e+04 1.819e-09
 97.74521    -70.5 1.392e+04 1.934e-09
 97.76546    -70.2 1.402e+04 2.065e-09
 97.77703    -70.0 1.410e+04 2.156e-09
 97.78455    -70.3 1.395e+04 2.009e-09
 97.79322    -71.2 1.348e+04 1.357e-09
 97.80595    -71.2 1.349e+04 1.340e-09
 97.82620    -71.3 1.349e+04 1.310e-09
 97.84645    -71.4 1.345e+04 1.279e-09
 97.86070    -71.7 1.339e+04 1.264e-09
 97.87082    -73.3 1.260e+04 1.110e-09
 97.88694    -73.5 1.261e+04 1.107e-09
 97.90719    -73.6 1.254e+04 1.131e-09
 97.92743    -73.4 1.242e+04 1.158e-09
 97.93829    -72.9 1.230e+04 1.181e-09
 97.94842    -73.7 1.164e+04 9.462e-10
 97.96793    -73.1 1.157e+04 8.798e-10
 97.98817    -72.5 1.156e+04 7.876e-10
 98.00577    -72.3 1.161e+04 6.768e-10
 98.01589    -74.4 1.144e+04 4.430e-10
 98.02867    -74.9 1.123e+04 3.789e-10
 98.04891    -75.5 1.087e+04 3.370e-10
 98.06916    -76.0 1.047e+04 3.135e-10
 98.08336    -76.3 1.019e+04 3.041e-10
 98.09349    -77.4 1.022e+04 3.096e-10
 98.10965    -77.2 1.012e+04 3.023e-10
 98.12990    -77.0 1.007e+04 2.940e-10
 98.15015    -77.0 1.008e+04 2.896e-10
 98.16096    -77.1 1.010e+04 2.894e-10
 98.17108    -77.2 9.966e+03 2.738e-10
 98.19064    -77.1 9.972e+03 2.715e-10
 98.21089    -77.1 1.020e+04 2.851e-10
 98.22843    -76.9 1.047e+04 3.395e-10
 98.23856    -76.6 1.032e+04 3.068e-10
 98.25138    -76.3 1.069e+04 3.592e-10
 98.27163    -75.9 1.100e+04 4.383e-10
 98.29188    -75.5 1.135e+04 5.585e-10
 98.30603    -75.2 1.186e+04 7.695e-10
 98.31616    -75.7 1.236e+04 8.043e-10
 98.33237    -75.3 1.305e+04 1.136e-09
 98.35262    -75.0 1.412e+04 1.683e-09
 98.37286    -75.0 1.555e+04 2.729e-09
 98.38363    -75.2 1.729e+04 4.757e-09
 98.39375    -74.6 1.633e+04 3.761e-09
 98.41336    -74.4 1.807e+04 6.262e-09
 98.43360    -74.4 2.000e+04 1.071e-08
 98.45110    -74.7 2.186e+04 1.746e-08
 98.46123    -73.8 2.028e+04 9.902e-09
 98.46899    -74.1 2.190e+04 1.867e-08
 98.47906    -74.1 2.241e+04 2.425e-08
 98.48918    -74.1 2.294e+04 3.246e-08
 98.49487    -74.9 2.338e+04 4.522e-08
 98.49993    -73.4 2.278e+04 2.965e-08
 98.50943    -74.6 2.303e+04 4.577e-08
 98.51956    -76.2 2.297e+04 7.148e-08
 98.52860    -77.5 2.301e+04 1.073e-07
 98.53366    -76.5 2.291e+04 6.785e-08
 98.53980    -78.2 2.269e+04 1.206e-07
 98.54499    -79.4 2.262e+04 1.885e-07
 98.55005    -80.1 2.242e+04 1.901e-07
 98.56005    -81.2 2.205e+04 2.905e-07
 98.56740    -82.3 2.215e+04 3.522e-07
 98.57246    -83.0 2.183e+04 3.496e-07
 98.58030    -84.0 2.188e+04 4.265e-07
 98.59042    -85.2 2.212e+04 4.268e-07
 98.60054    -86.6 2.304e+04 2.731e-07
 98.60620    -88.1 2.406e+04 1.126e-07
 98.61126    -87.5 2.323e+04 3.285e-07
 98.62079    -88.9 2.413e+04 1.819e-07
 98.63091    -90.4 2.444e+04 8.153e-08
 98.63994    -91.8 2.327e+04 3.644e-08
 98.64500    -90.5 2.490e+04 1.267e-07
 98.65116    -91.6 2.414e+04 5.977e-08
 98.66128    -92.7 2.196e+04 3.055e-08
 98.67141    -93.4 1.991e+04 1.939e-08
 98.67873    -93.5 1.928e+04 1.413e-08
 98.68380    -92.9 2.099e+04 2.717e-08
 98.69165    -93.2 1.932e+04 1.809e-08
 98.70178    -93.0 1.901e+04 1.277e-08
 98.71190    -92.8 1.880e+04 8.831e-09
 98.71753    -92.9 1.803e+04 5.922e-09
 98.72260    -92.5 1.852e+04 9.538e-09
 98.73215    -92.7 1.798e+04 6.580e-09
 98.74227    -93.1 1.693e+04 4.635e-09
 98.75132    -93.5 1.559e+04 3.184e-09
 98.75638    -92.8 1.695e+04 4.850e-09
 98.76252    -93.0 1.619e+04 4.025e-09
 98.77775    -92.9 1.582e+04 3.539e-09
 98.79805    -92.4 1.510e+04 2.666e-09
 98.81829    -92.4 1.383e+04 1.873e-09
 98.82897    -92.5 1.291e+04 1.572e-09
 98.83909    -92.4 1.395e+04 1.905e-09
 98.85879    -92.8 1.301e+04 1.570e-09
 98.87903    -92.7 1.276e+04 1.434e-09
 98.89644    -92.5 1.252e+04 1.293e-09
 98.90656    -93.5 1.274e+04 1.428e-09
 98.91953    -93.6 1.242e+04 1.262e-09
 98.93977    -93.3 1.197e+04 1.058e-09
 98.96002    -92.9 1.144e+04 8.403e-10
 98.97404    -92.4 1.091e+04 6.387e-10
 98.98416    -92.9 1.106e+04 7.941e-10
 99.00051    -92.4 1.058e+04 5.653e-10
 99.02076    -92.1 1.014e+04 3.964e-10
 99.04101    -91.9 9.761e+03 2.947e-10
 99.05163    -91.6 9.484e+03 2.464e-10
 99.06176    -92.0 9.475e+03 2.514e-10
 99.09172    -90.7 9.275e+03 2.158e-10
 99.11930    -88.7 8.811e+03 1.665e-10
 99.12933    -89.8 8.804e+03 1.771e-10
 99.14224    -88.5 8.685e+03 1.643e-10
 99.16249    -86.7 8.557e+03 1.483e-10
 99.18274    -85.5 8.545e+03 1.436e-10
 99.19670    -83.8 8.543e+03 1.397e-10
 99.20683    -86.2 9.580e+03 1.938e-10
 99.22323    -87.1 1.080e+04 2.614e-10
 99.24348    -89.2 1.230e+04 4.559e-10
 99.26372    -91.3 1.365e+04 9.332e-10
 99.27430    -92.2 1.452e+04 1.785e-09
 99.27931    -91.9 1.613e+04 3.199e-09
 99.28893    -92.0 1.621e+04 3.432e-09
 99.29906    -91.9 1.614e+04 3.986e-09
 99.30794    -91.9 1.616e+04 4.446e-09
 99.31305    -90.5 1.617e+04 3.853e-09
 99.31935    -90.9 1.665e+04 5.934e-09
 99.32943    -90.6 1.655e+04 6.405e-09
 99.33955    -90.3 1.641e+04 6.949e-09
 99.34674    -89.8 1.617e+04 7.130e-09
 99.35180    -89.6 1.718e+04 9.153e-09
 99.35980    -89.3 1.691e+04 8.130e-09
 99.36992    -89.2 1.658e+04 7.245e-09
 99.38516    -88.8 1.614e+04 6.292e-09
 99.40545    -88.9 1.504e+04 4.230e-09
 99.41937    -89.5 1.380e+04 2.509e-09
 99.42950    -91.5 1.346e+04 1.597e-09
 99.44595    -93.6 1.133e+04 8.997e-10
 99.46619    -94.7 1.003e+04 6.213e-10
 99.48644    -94.8 9.609e+03 4.938e-10
 99.49697    -94.4 9.417e+03 4.054e-10
 99.50709    -94.2 9.659e+03 5.132e-10
 99.52693    -93.4 9.651e+03 4.606e-10
 99.54718    -92.9 9.626e+03 4.255e-10
 99.56444    -92.4 9.650e+03 4.041e-10
 99.57457    -92.0 1.008e+04 5.828e-10
 99.58767    -91.5 1.009e+04 5.704e-10
 99.60792    -91.0 1.011e+04 5.656e-10
 99.62817    -90.5 1.015e+04 5.708e-10
 99.64204    -90.0 1.022e+04 5.861e-10
 99.65216    -89.2 1.046e+04 7.511e-10
 99.66866    -88.7 1.050e+04 7.289e-10
 99.68891    -88.4 1.051e+04 6.923e-10
 99.70915    -88.1 1.050e+04 6.429e-10
 99.71964    -88.0 1.044e+04 5.834e-10
 99.72976    -87.4 1.053e+04 6.357e-10
 99.74965    -87.3 1.048e+04 5.752e-10
 99.76989    -87.3 1.038e+04 5.171e-10
 99.78711    -87.1 1.024e+04 4.711e-10
 99.79723    -86.3 1.040e+04 5.508e-10
 99.81039    -86.1 1.031e+04 5.105e-10
 99.83063    -85.8 1.022e+04 4.778e-10
 99.85088    -85.4 1.014e+04 4.531e-10
 99.86471    -85.0 1.005e+04 4.256e-10
 99.87483    -84.4 1.029e+04 5.189e-10
 99.89138    -83.9 1.029e+04 5.036e-10
 99.91162    -83.3 1.029e+04 4.907e-10
 99.93187    -82.6 1.027e+04 4.829e-10
 99.94231    -82.0 1.026e+04 4.832e-10
 99.95243    -81.7 1.040e+04 5.214e-10
 99.98258    -80.9 1.026e+04 4.883e-10
