# Columns:
#   distance along LOS (in CHIMPs)
#   peculiar velocity  (in km/s)
#   temperature (K)
#   HI number density
# pos=(144.271,224.884,247.068), angles=(1.65356,1.75563)
  0.00896    -64.5 1.066e+04 4.157e-10
  0.01833    -65.5 1.086e+04 5.073e-10
  0.02871    -65.4 1.097e+04 5.758e-10
  0.04865    -65.1 1.107e+04 6.510e-10
  0.06859    -64.8 1.126e+04 7.349e-10
  0.08852    -64.8 1.150e+04 8.336e-10
  0.10846    -64.9 1.180e+04 9.599e-10
  0.12149    -65.3 1.210e+04 1.126e-09
  0.12700    -66.3 1.217e+04 1.173e-09
  0.13391    -65.8 1.207e+04 1.112e-09
  0.14834    -66.2 1.233e+04 1.302e-09
  0.16828    -66.6 1.257e+04 1.501e-09
  0.18821    -66.8 1.277e+04 1.685e-09
  0.20815    -67.1 1.294e+04 1.804e-09
  0.22466    -67.4 1.301e+04 1.837e-09
  0.23463    -68.1 1.289e+04 1.708e-09
  0.24803    -68.5 1.282e+04 1.586e-09
  0.26797    -68.8 1.258e+04 1.325e-09
  0.28790    -69.1 1.222e+04 1.052e-09
  0.30784    -69.5 1.180e+04 8.330e-10
  0.32778    -69.9 1.141e+04 6.822e-10
  0.34772    -70.5 1.104e+04 5.942e-10
  0.36169    -70.4 1.100e+04 5.768e-10
  0.37166    -70.2 1.113e+04 5.753e-10
  0.38759    -70.1 1.111e+04 5.706e-10
  0.40753    -70.2 1.111e+04 5.721e-10
  0.42747    -70.3 1.122e+04 6.062e-10
  0.44096    -70.5 1.136e+04 6.767e-10
  0.45092    -70.5 1.140e+04 6.807e-10
  0.46734    -70.5 1.161e+04 7.761e-10
  0.48728    -70.6 1.182e+04 8.858e-10
  0.50722    -70.6 1.197e+04 9.961e-10
  0.52716    -70.6 1.206e+04 1.092e-09
  0.54412    -70.6 1.208e+04 1.156e-09
  0.55409    -70.8 1.228e+04 1.268e-09
  0.56703    -70.9 1.229e+04 1.324e-09
  0.58697    -70.9 1.229e+04 1.343e-09
  0.59944    -70.9 1.226e+04 1.342e-09
  0.60941    -70.8 1.182e+04 9.778e-10
  0.62685    -70.7 1.177e+04 9.845e-10
  0.64679    -70.6 1.164e+04 9.856e-10
  0.65725    -70.4 1.157e+04 9.643e-10
  0.66722    -71.0 1.185e+04 1.104e-09
  0.68666    -71.1 1.190e+04 1.062e-09
  0.70660    -71.4 1.196e+04 1.045e-09
  0.72654    -71.9 1.206e+04 1.040e-09
  0.74648    -72.6 1.221e+04 1.051e-09
  0.76042    -73.5 1.233e+04 1.094e-09
  0.77039    -75.3 1.249e+04 1.225e-09
  0.78635    -76.2 1.252e+04 1.276e-09
  0.80629    -77.3 1.254e+04 1.309e-09
  0.82623    -78.6 1.267e+04 1.330e-09
  0.83719    -80.2 1.300e+04 1.386e-09
  0.84716    -78.7 1.278e+04 1.503e-09
  0.86358    -80.1 1.295e+04 1.496e-09
  0.87355    -82.1 1.285e+04 1.340e-09
  0.88604    -83.9 1.301e+04 1.327e-09
  0.90598    -85.5 1.303e+04 1.382e-09
  0.92592    -86.6 1.272e+04 1.512e-09
  0.94586    -87.0 1.246e+04 1.601e-09
  0.96579    -87.0 1.230e+04 1.625e-09
  0.97672    -86.5 1.199e+04 1.573e-09
  0.98669    -86.9 1.185e+04 1.332e-09
  1.00567    -86.3 1.188e+04 1.075e-09
  1.02561    -86.1 1.194e+04 8.109e-10
  1.04554    -86.1 1.187e+04 6.069e-10
  1.06497    -86.3 1.155e+04 4.782e-10
  1.07494    -84.8 1.163e+04 6.084e-10
  1.07988    -84.9 1.154e+04 5.201e-10
  1.08985    -85.7 1.131e+04 5.217e-10
  1.10536    -85.5 1.120e+04 4.869e-10
  1.12530    -85.1 1.109e+04 4.659e-10
  1.14523    -84.7 1.102e+04 4.655e-10
  1.16517    -84.5 1.113e+04 4.867e-10
  1.18305    -84.4 1.134e+04 5.246e-10
  1.19302    -85.3 1.184e+04 6.840e-10
  1.20505    -85.6 1.224e+04 8.126e-10
  1.22499    -86.2 1.252e+04 1.010e-09
  1.24492    -86.6 1.265e+04 1.272e-09
  1.26486    -86.8 1.272e+04 1.572e-09
  1.28480    -86.8 1.275e+04 1.869e-09
  1.29618    -86.5 1.283e+04 2.020e-09
  1.30414    -87.1 1.311e+04 2.458e-09
  1.31269    -86.3 1.353e+04 2.744e-09
  1.32468    -86.0 1.354e+04 2.565e-09
  1.34461    -85.9 1.324e+04 2.055e-09
  1.36455    -86.1 1.291e+04 1.502e-09
  1.38449    -86.7 1.237e+04 1.012e-09
  1.39935    -87.3 1.170e+04 7.114e-10
  1.40932    -88.5 1.136e+04 6.376e-10
  1.43443    -87.6 1.107e+04 5.246e-10
  1.47441    -86.0 1.031e+04 3.432e-10
  1.50271    -84.7 9.949e+03 2.420e-10
  1.52264    -86.0 9.859e+03 2.244e-10
  1.54067    -84.8 9.689e+03 1.695e-10
  1.56061    -83.6 9.773e+03 2.013e-10
  1.59403    -82.5 9.653e+03 1.625e-10
  1.63391    -81.4 9.608e+03 1.464e-10
  1.67379    -80.5 9.608e+03 1.435e-10
  1.70904    -79.8 9.644e+03 1.447e-10
  1.72897    -80.5 9.611e+03 1.451e-10
  1.75354    -80.1 9.751e+03 1.686e-10
  1.79341    -79.8 9.885e+03 1.954e-10
  1.83329    -79.7 1.001e+04 2.172e-10
  1.87316    -79.7 1.016e+04 2.290e-10
  1.91304    -79.9 1.034e+04 2.380e-10
  1.93530    -80.3 1.048e+04 2.479e-10
  1.95524    -80.5 1.021e+04 1.803e-10
  1.99279    -80.6 1.030e+04 1.903e-10
  2.01617    -80.6 1.028e+04 2.062e-10
  2.03611    -79.7 1.006e+04 1.379e-10
  2.07254    -79.5 1.002e+04 1.354e-10
  2.11242    -78.9 9.932e+03 1.300e-10
  2.14163    -78.0 9.847e+03 1.218e-10
  2.16157    -77.9 9.757e+03 1.076e-10
  2.19217    -76.8 9.744e+03 1.057e-10
  2.23205    -75.7 9.762e+03 1.064e-10
  2.27192    -74.5 9.796e+03 1.090e-10
  2.31180    -73.4 9.857e+03 1.113e-10
  2.34796    -72.4 9.951e+03 1.137e-10
  2.36790    -72.7 9.950e+03 1.102e-10
  2.39155    -72.1 1.009e+04 1.151e-10
  2.43143    -71.7 1.026e+04 1.278e-10
  2.47130    -71.4 1.037e+04 1.535e-10
  2.49167    -71.1 1.042e+04 1.875e-10
  2.51161    -69.7 1.033e+04 1.298e-10
  2.55105    -69.1 1.033e+04 1.645e-10
  2.57423    -68.4 1.029e+04 1.852e-10
  2.59417    -68.6 1.023e+04 1.882e-10
  2.63081    -67.6 1.016e+04 1.841e-10
  2.67068    -66.4 1.003e+04 1.511e-10
  2.71056    -65.1 9.908e+03 1.142e-10
  2.75043    -63.8 9.806e+03 8.903e-11
  2.78056    -62.3 9.714e+03 7.594e-11
  2.80050    -62.3 9.600e+03 7.313e-11
  2.83019    -60.6 9.536e+03 7.005e-11
  2.87006    -58.8 9.528e+03 6.922e-11
  2.90994    -57.1 9.531e+03 6.925e-11
  2.94724    -55.5 9.638e+03 7.283e-11
  2.96717    -54.7 9.701e+03 7.958e-11
  2.98689    -53.3 9.756e+03 1.053e-10
  3.00683    -53.4 9.771e+03 1.248e-10
  3.02956    -51.9 9.914e+03 1.803e-10
  3.06944    -50.3 1.011e+04 2.388e-10
  3.10932    -48.9 1.025e+04 2.783e-10
  3.14919    -47.6 1.028e+04 2.888e-10
  3.18907    -46.2 1.026e+04 2.521e-10
  3.21316    -44.8 1.021e+04 1.949e-10
  3.23310    -45.0 1.020e+04 1.806e-10
  3.26882    -43.9 1.023e+04 1.487e-10
  3.30870    -43.0 1.025e+04 1.432e-10
  3.34857    -42.2 1.041e+04 1.582e-10
  3.38845    -41.6 1.056e+04 2.114e-10
  3.41949    -40.8 1.066e+04 2.610e-10
  3.43384    -41.3 1.067e+04 2.785e-10
  3.44268    -40.8 1.062e+04 2.328e-10
  3.46820    -40.1 1.063e+04 2.410e-10
  3.50808    -39.0 1.056e+04 2.146e-10
  3.54795    -37.8 1.052e+04 1.514e-10
  3.58783    -36.7 1.053e+04 1.077e-10
  3.62582    -35.7 1.053e+04 9.271e-11
  3.64576    -36.2 1.055e+04 1.053e-10
  3.66758    -34.9 1.055e+04 1.047e-10
  3.70745    -33.5 1.054e+04 1.115e-10
  3.74733    -32.0 1.052e+04 1.174e-10
  3.78721    -30.3 1.047e+04 1.169e-10
  3.82708    -28.6 1.041e+04 1.039e-10
  3.85209    -26.8 1.036e+04 8.298e-11
  3.87203    -27.1 1.036e+04 8.306e-11
  3.89824    -25.3 1.034e+04 6.394e-11
  3.91818    -25.1 1.030e+04 5.658e-11
  3.94671    -23.3 1.030e+04 4.535e-11
  3.98659    -21.4 1.030e+04 3.823e-11
  4.02646    -19.4 1.028e+04 3.407e-11
  4.05842    -17.3 1.027e+04 3.237e-11
  4.07836    -17.4 1.030e+04 3.508e-11
  4.10621    -15.2 1.030e+04 3.482e-11
  4.14609    -13.1 1.035e+04 3.587e-11
  4.18597    -11.0 1.036e+04 3.978e-11
  4.22584     -8.7 1.037e+04 4.541e-11
  4.26475     -6.4 1.041e+04 5.127e-11
  4.28469     -6.4 1.048e+04 5.327e-11
  4.30559     -4.1 1.055e+04 5.644e-11
  4.34547     -1.8 1.061e+04 5.813e-11
  4.37374      0.4 1.066e+04 5.910e-11
  4.39368      0.8 1.057e+04 6.363e-11
  4.42522      3.1 1.064e+04 6.047e-11
  4.46510      5.2 1.071e+04 5.735e-11
  4.49101      7.3 1.074e+04 5.684e-11
  4.51095      7.1 1.072e+04 7.261e-11
  4.54485      9.3 1.067e+04 8.182e-11
  4.58472     11.6 1.062e+04 9.212e-11
  4.62460     14.0 1.057e+04 1.017e-10
  4.66448     16.4 1.053e+04 1.080e-10
  4.69734     18.9 1.047e+04 1.093e-10
  4.71728     18.9 1.045e+04 1.208e-10
  4.74423     21.3 1.041e+04 1.061e-10
  4.78410     23.6 1.037e+04 9.386e-11
  4.82398     25.7 1.034e+04 8.530e-11
  4.84924     27.7 1.032e+04 8.342e-11
  4.86918     28.2 1.034e+04 9.587e-11
  4.90367     30.3 1.014e+04 1.102e-10
  4.94355     32.9 9.953e+03 1.457e-10
  4.98348     35.7 9.971e+03 1.522e-10
  5.02336     38.1 1.002e+04 1.369e-10
  5.06323     40.1 1.005e+04 1.250e-10
  5.10311     42.0 1.004e+04 1.267e-10
  5.12994     43.9 1.002e+04 1.358e-10
  5.14988     44.0 9.929e+03 1.249e-10
  5.18286     45.9 9.971e+03 1.342e-10
  5.22274     47.6 1.002e+04 1.592e-10
  5.26261     49.3 1.006e+04 2.008e-10
  5.30249     51.1 1.016e+04 2.496e-10
  5.32474     52.6 1.030e+04 2.984e-10
  5.33859     52.7 1.019e+04 2.655e-10
  5.35621     52.8 1.008e+04 2.514e-10
  5.38224     54.0 1.024e+04 3.293e-10
  5.42212     55.0 1.053e+04 4.757e-10
  5.46199     55.8 1.089e+04 6.817e-10
  5.50187     56.0 1.119e+04 8.709e-10
  5.54174     55.9 1.127e+04 9.570e-10
  5.56254     55.5 1.114e+04 8.637e-10
  5.58248     55.5 1.129e+04 9.713e-10
  5.62150     54.6 1.105e+04 8.559e-10
  5.66137     53.9 1.059e+04 7.203e-10
  5.70125     54.2 1.005e+04 5.646e-10
  5.74112     55.4 9.366e+03 3.154e-10
  5.76887     56.1 8.828e+03 1.509e-10
  5.78811     56.2 8.693e+03 1.379e-10
  5.80024     57.1 8.814e+03 1.610e-10
  5.82088     57.5 8.381e+03 9.079e-11
  5.86075     58.3 8.129e+03 6.244e-11
  5.90063     59.5 7.944e+03 5.281e-11
  5.94050     61.3 7.870e+03 5.218e-11
  5.97520     63.0 7.905e+03 5.491e-11
  5.99514     63.5 7.889e+03 5.803e-11
  6.02026     64.9 7.976e+03 7.030e-11
  6.06013     66.2 8.031e+03 9.140e-11
  6.10001     67.6 8.199e+03 1.181e-10
  6.13988     69.0 8.350e+03 1.475e-10
  6.17976     70.3 8.481e+03 1.640e-10
  6.20147     71.2 8.602e+03 1.761e-10
  6.22141     71.7 8.594e+03 1.759e-10
  6.25581     72.4 8.750e+03 2.040e-10
  6.27574     73.8 8.322e+03 1.424e-10
  6.29939     74.7 8.452e+03 1.616e-10
  6.33926     75.8 8.514e+03 1.804e-10
  6.37914     77.0 8.545e+03 1.921e-10
  6.40780     78.1 8.621e+03 2.053e-10
  6.42774     78.4 8.885e+03 2.646e-10
  6.45889     79.5 9.043e+03 2.926e-10
  6.49877     80.6 9.187e+03 3.203e-10
  6.53864     81.8 9.196e+03 3.206e-10
  6.57852     83.0 9.084e+03 2.943e-10
  6.61413     84.2 8.867e+03 2.485e-10
  6.63407     84.2 8.925e+03 2.604e-10
  6.65827     85.1 8.715e+03 2.259e-10
  6.69815     86.2 8.548e+03 2.086e-10
  6.73131     87.6 8.420e+03 1.961e-10
  6.75125     88.5 8.442e+03 2.011e-10
  6.77790     90.0 8.328e+03 1.855e-10
  6.81777     91.4 8.230e+03 1.692e-10
  6.84040     92.9 8.171e+03 1.600e-10
  6.86033     92.6 8.223e+03 1.761e-10
  6.89752     94.0 8.230e+03 1.776e-10
  6.93740     95.3 8.290e+03 1.881e-10
  6.97728     96.4 8.464e+03 2.207e-10
  7.01715     97.4 8.715e+03 2.725e-10
  7.04673     98.4 8.956e+03 3.323e-10
  7.06666     98.2 8.939e+03 3.292e-10
  7.09690     99.0 8.996e+03 3.392e-10
  7.13678     99.6 8.954e+03 3.273e-10
  7.17666    100.3 8.805e+03 2.869e-10
  7.20681    101.1 8.599e+03 2.395e-10
  7.22675    102.4 8.513e+03 2.303e-10
  7.25305    103.3 8.350e+03 1.992e-10
  7.27299    103.0 8.287e+03 1.929e-10
  7.29628    104.0 8.177e+03 1.744e-10
  7.33616    105.3 8.091e+03 1.594e-10
  7.37603    106.6 8.028e+03 1.459e-10
  7.41591    108.0 8.019e+03 1.366e-10
  7.45579    109.4 8.042e+03 1.355e-10
  7.47932    110.7 8.094e+03 1.378e-10
  7.49926    110.5 8.092e+03 1.376e-10
  7.53554    111.5 8.193e+03 1.441e-10
  7.57541    112.4 8.329e+03 1.575e-10
  7.61529    113.2 8.581e+03 1.840e-10
  7.65517    114.0 8.876e+03 2.279e-10
  7.68231    114.7 9.141e+03 2.703e-10
  7.69286    116.4 8.977e+03 2.520e-10
  7.70559    115.9 9.051e+03 2.656e-10
  7.73492    116.5 9.305e+03 2.911e-10
  7.77479    117.0 9.484e+03 2.992e-10
  7.81467    116.8 9.722e+03 3.096e-10
  7.85455    116.2 1.003e+04 3.482e-10
  7.88435    114.7 1.033e+04 4.758e-10
  7.90176    114.4 1.058e+04 6.561e-10
  7.91173    114.0 1.067e+04 7.248e-10
  7.91987    114.1 1.087e+04 8.456e-10
  7.92983    114.8 1.098e+04 9.454e-10
  7.94407    114.9 1.104e+04 9.582e-10
  7.96401    115.0 1.099e+04 8.958e-10
  7.98395    114.6 1.085e+04 7.026e-10
  8.01395    113.5 1.032e+04 4.082e-10
  8.05392    112.2 9.475e+03 2.333e-10
  8.09380    111.3 9.024e+03 1.982e-10
  8.11825    111.1 9.060e+03 2.016e-10
  8.13819    109.1 9.132e+03 2.083e-10
  8.15781    108.8 9.385e+03 2.415e-10
  8.17775    109.9 9.131e+03 2.246e-10
  8.21343    109.5 9.417e+03 2.785e-10
  8.25330    109.2 9.728e+03 3.318e-10
  8.29318    108.7 9.860e+03 3.281e-10
  8.32458    107.4 9.942e+03 3.002e-10
  8.34452    104.8 9.845e+03 2.592e-10
  8.37293    103.5 9.964e+03 2.710e-10
  8.39546    102.7 1.029e+04 3.320e-10
  8.40534    102.9 1.018e+04 3.139e-10
  8.42258    100.9 1.071e+04 4.272e-10
  8.43752     97.4 1.197e+04 8.189e-10
  8.44749     94.8 1.247e+04 1.171e-09
  8.46246     93.6 1.277e+04 1.631e-09
  8.48239     92.3 1.320e+04 2.131e-09
  8.50233     90.7 1.347e+04 2.319e-09
  8.52227     89.3 1.340e+04 2.174e-09
  8.54068     87.5 1.320e+04 1.622e-09
  8.55075     86.5 1.282e+04 1.125e-09
  8.57231     80.4 1.145e+04 3.081e-10
  8.61219     71.9 9.308e+03 1.575e-10
  8.63331     66.9 8.982e+03 1.770e-10
  8.65325     65.9 9.036e+03 1.798e-10
  8.69194     64.3 9.431e+03 2.431e-10
  8.72175     64.0 9.507e+03 2.629e-10
  8.74159     62.9 9.921e+03 3.145e-10
  8.75698     61.1 1.050e+04 4.209e-10
  8.76695     61.5 1.040e+04 3.852e-10
  8.78146     57.3 1.175e+04 7.151e-10
  8.80140     53.3 1.252e+04 1.549e-09
  8.82134     52.8 1.310e+04 2.907e-09
  8.84128     52.7 1.366e+04 3.560e-09
  8.86015     52.7 1.367e+04 3.105e-09
  8.86980     53.7 1.307e+04 2.596e-09
  8.87087     53.4 1.368e+04 3.037e-09
  8.88115     50.8 1.477e+04 2.108e-09
  8.90109     45.5 1.396e+04 1.351e-09
  8.92103     40.7 1.199e+04 1.057e-09
  8.94097     39.9 1.162e+04 1.100e-09
  8.96091     40.0 1.182e+04 1.179e-09
  8.97328     40.0 1.204e+04 1.227e-09
  8.98325     41.1 1.182e+04 1.119e-09
  9.00078     40.8 1.203e+04 1.147e-09
  9.02072     40.5 1.194e+04 1.201e-09
  9.04066     40.6 1.187e+04 1.240e-09
  9.06060     41.0 1.190e+04 1.235e-09
  9.07645     41.6 1.191e+04 1.218e-09
  9.08642     42.0 1.178e+04 1.157e-09
  9.09865     42.5 1.175e+04 1.096e-09
  9.10862     42.1 1.179e+04 1.115e-09
  9.12041     42.7 1.154e+04 9.833e-10
  9.14035     43.5 1.127e+04 8.263e-10
  9.16028     44.4 1.103e+04 6.713e-10
  9.17961     45.0 1.090e+04 5.450e-10
  9.18958     45.3 1.077e+04 5.369e-10
  9.20016     45.6 1.085e+04 4.044e-10
  9.22010     45.7 1.079e+04 3.700e-10
  9.25010     46.9 1.030e+04 3.151e-10
  9.29008     49.1 9.844e+03 3.018e-10
  9.32995     52.1 9.582e+03 2.527e-10
  9.36983     54.5 9.488e+03 2.058e-10
  9.39611     56.7 9.399e+03 1.715e-10
  9.41604     57.0 9.361e+03 1.726e-10
  9.44958     59.3 9.328e+03 1.687e-10
  9.48946     61.4 9.401e+03 1.809e-10
  9.52933     63.6 9.567e+03 2.161e-10
  9.56438     65.9 9.857e+03 2.782e-10
  9.58431     66.0 9.616e+03 2.429e-10
  9.60244     68.3 9.901e+03 3.088e-10
  9.62237     68.3 9.960e+03 3.329e-10
  9.64896     70.2 1.028e+04 4.342e-10
  9.68884     71.9 1.061e+04 5.670e-10
  9.72871     73.5 1.102e+04 7.421e-10
  9.76859     75.1 1.143e+04 9.520e-10
  9.80846     76.4 1.186e+04 1.172e-09
  9.82870     77.6 1.187e+04 1.183e-09
  9.84864     77.6 1.103e+04 6.692e-10
  9.88821     79.0 1.092e+04 6.194e-10
  9.92809     80.7 1.062e+04 5.207e-10
  9.96797     82.6 1.031e+04 4.287e-10
 10.00784     84.6 1.007e+04 3.638e-10
 10.03503     86.9 9.898e+03 3.174e-10
 10.04713     87.0 9.277e+03 1.797e-10
 10.05982     87.0 9.279e+03 1.858e-10
 10.08759     89.5 9.193e+03 1.622e-10
 10.12747     92.0 9.133e+03 1.410e-10
 10.16735     94.5 9.073e+03 1.275e-10
 10.20722     97.0 9.005e+03 1.197e-10
 10.24136     99.5 8.963e+03 1.162e-10
 10.26130     99.5 8.711e+03 8.764e-11
 10.28697    102.1 8.738e+03 9.192e-11
 10.32685    104.7 8.764e+03 9.812e-11
 10.36673    107.4 8.797e+03 1.058e-10
 10.40660    110.2 8.842e+03 1.137e-10
 10.44648    112.9 8.912e+03 1.195e-10
 10.46763    115.7 8.992e+03 1.215e-10
 10.48757    115.8 8.938e+03 1.115e-10
 10.51538    118.5 8.953e+03 1.109e-10
 10.53532    118.9 8.997e+03 1.196e-10
 10.56610    121.6 9.019e+03 1.159e-10
 10.60598    124.3 9.039e+03 1.093e-10
 10.64586    126.9 9.060e+03 1.019e-10
 10.67396    129.5 9.084e+03 9.549e-11
 10.69390    129.5 8.960e+03 7.843e-11
 10.72561    132.1 8.968e+03 7.324e-11
 10.76548    134.7 8.971e+03 7.277e-11
 10.80536    137.3 8.985e+03 7.367e-11
 10.84524    140.0 9.034e+03 7.806e-11
 10.88029    142.6 9.116e+03 8.900e-11
 10.90023    142.6 8.996e+03 7.010e-11
 10.92499    145.2 9.107e+03 8.211e-11
 10.96486    147.7 9.247e+03 9.929e-11
 10.99088    150.2 9.422e+03 1.217e-10
 11.01082    151.0 9.422e+03 1.385e-10
 11.04462    153.4 9.637e+03 1.712e-10
 11.08449    155.7 9.877e+03 2.055e-10
 11.10656    157.7 1.011e+04 2.331e-10
 11.12650    157.0 9.750e+03 1.207e-10
 11.16424    158.7 9.825e+03 1.201e-10
 11.20412    160.3 9.852e+03 1.198e-10
 11.24399    161.8 9.826e+03 1.202e-10
 11.28387    163.4 9.793e+03 1.237e-10
 11.31289    165.0 9.836e+03 1.314e-10
 11.33283    164.7 9.806e+03 1.287e-10
 11.36362    166.3 9.935e+03 1.416e-10
 11.40350    167.7 1.004e+04 1.535e-10
 11.44337    169.0 1.016e+04 1.711e-10
 11.46638    170.1 1.031e+04 1.974e-10
 11.48632    170.9 1.010e+04 1.707e-10
 11.51922    172.1 1.027e+04 2.102e-10
 11.53916    171.8 1.026e+04 1.990e-10
 11.56300    172.9 1.040e+04 2.430e-10
 11.60288    174.1 1.057e+04 2.951e-10
 11.64275    175.3 1.070e+04 3.342e-10
 11.68263    176.4 1.073e+04 3.391e-10
 11.72250    177.5 1.070e+04 3.239e-10
 11.74549    178.6 1.060e+04 2.797e-10
 11.76542    178.7 1.026e+04 1.954e-10
 11.80226    179.7 1.011e+04 1.625e-10
 11.84213    180.7 9.987e+03 1.494e-10
 11.88201    181.5 9.953e+03 1.553e-10
 11.92188    182.3 1.004e+04 1.804e-10
 11.95182    183.3 1.035e+04 2.324e-10
 11.97175    183.7 1.038e+04 2.453e-10
 12.00164    184.1 1.059e+04 2.987e-10
 12.04151    184.4 1.070e+04 3.377e-10
 12.08139    184.6 1.070e+04 3.438e-10
 12.12126    184.8 1.063e+04 3.332e-10
 12.15815    184.9 1.039e+04 2.919e-10
 12.17808    185.5 1.077e+04 3.841e-10
 12.20102    185.5 1.045e+04 3.066e-10
 12.24089    185.4 1.012e+04 2.211e-10
 12.28077    185.2 9.856e+03 1.587e-10
 12.32064    184.7 9.709e+03 1.375e-10
 12.36052    184.5 9.725e+03 1.406e-10
 12.38441    184.1 9.805e+03 1.549e-10
 12.40140    185.0 9.821e+03 1.491e-10
 12.41738    184.2 9.787e+03 1.480e-10
 12.44027    183.5 9.891e+03 1.588e-10
 12.48015    182.9 1.000e+04 1.637e-10
 12.50996    182.8 1.002e+04 1.618e-10
 12.52980    182.9 1.004e+04 1.629e-10
 12.54973    182.2 1.031e+04 1.780e-10
 12.56967    179.3 1.146e+04 2.628e-10
 12.58961    175.0 1.321e+04 6.794e-10
 12.60052    171.4 1.443e+04 1.834e-09
 12.61049    174.2 1.369e+04 1.012e-09
 12.62949    171.2 1.479e+04 2.520e-09
 12.64497    169.0 1.576e+04 4.614e-09
 12.65494    166.8 1.646e+04 5.940e-09
 12.66936    164.5 1.700e+04 6.033e-09
 12.68930    161.6 1.703e+04 5.234e-09
 12.70368    158.2 1.650e+04 3.439e-09
 12.71365    161.1 1.706e+04 4.766e-09
 12.72918    157.6 1.602e+04 2.940e-09
 12.74911    154.4 1.407e+04 1.678e-09
 12.76905    151.6 1.207e+04 1.056e-09
 12.78899    149.8 1.113e+04 7.921e-10
 12.80685    148.5 1.081e+04 6.436e-10
 12.81682    150.1 1.100e+04 7.248e-10
 12.82887    148.8 1.070e+04 6.050e-10
 12.84880    147.8 1.063e+04 5.921e-10
 12.86874    146.9 1.067e+04 6.028e-10
 12.88272    145.4 1.088e+04 6.683e-10
 12.89269    144.4 1.081e+04 6.111e-10
 12.90862    141.2 1.178e+04 9.432e-10
 12.91998    137.1 1.333e+04 1.881e-09
 12.92995    138.8 1.319e+04 1.753e-09
 12.94849    135.2 1.445e+04 3.385e-09
 12.96843    132.4 1.517e+04 4.465e-09
 12.98837    129.4 1.524e+04 4.262e-09
 13.00831    126.2 1.526e+04 3.085e-09
 13.02315    121.3 1.503e+04 1.552e-09
 13.03311    123.7 1.513e+04 1.766e-09
 13.04818    116.9 1.399e+04 8.010e-10
 13.06812    110.4 1.153e+04 5.212e-10
 13.08806    107.2 1.073e+04 4.810e-10
 13.10800    105.8 1.066e+04 4.369e-10
 13.12047    105.1 1.061e+04 4.062e-10
 13.12882    105.2 1.063e+04 4.125e-10
 13.13628    106.1 1.062e+04 4.150e-10
 13.15794    105.6 1.035e+04 3.306e-10
 13.19791    105.2 1.002e+04 2.394e-10
 13.22967    105.1 9.757e+03 1.811e-10
 13.24961    106.3 9.748e+03 1.812e-10
 13.27766    106.4 9.613e+03 1.630e-10
 13.31754    106.9 9.588e+03 1.642e-10
 13.34845    107.5 9.654e+03 1.752e-10
 13.36839    108.3 9.760e+03 2.045e-10
 13.39729    109.0 9.846e+03 2.158e-10
 13.43600    109.4 1.002e+04 2.378e-10
 13.45594    110.3 9.999e+03 2.383e-10
 13.47704    110.5 1.031e+04 2.884e-10
 13.51692    110.4 1.069e+04 3.998e-10
 13.55680    110.5 1.108e+04 5.591e-10
 13.58610    110.5 1.122e+04 6.591e-10
 13.59597    111.0 1.120e+04 6.366e-10
 13.60644    110.9 1.135e+04 7.292e-10
 13.62638    110.6 1.146e+04 8.113e-10
 13.64632    110.4 1.145e+04 8.356e-10
 13.66207    110.2 1.141e+04 8.260e-10
 13.67204    110.8 1.133e+04 8.196e-10
 13.68620    110.6 1.123e+04 7.859e-10
 13.70613    110.4 1.115e+04 7.474e-10
 13.72607    110.1 1.105e+04 7.106e-10
 13.74601    109.8 1.098e+04 6.947e-10
 13.76524    109.5 1.106e+04 7.130e-10
 13.77521    110.1 1.106e+04 7.138e-10
 13.78589    108.5 1.170e+04 8.480e-10
 13.80582    104.3 1.363e+04 1.540e-09
 13.82375    101.3 1.482e+04 3.357e-09
 13.83372    102.6 1.452e+04 2.559e-09
 13.84570    101.9 1.528e+04 4.875e-09
 13.86564    101.8 1.565e+04 6.232e-09
 13.87837    101.3 1.562e+04 6.031e-09
 13.88834    101.8 1.597e+04 6.718e-09
 13.90551    100.7 1.579e+04 5.670e-09
 13.92545     99.1 1.495e+04 3.816e-09
 13.94539     96.9 1.353e+04 2.283e-09
 13.96533     94.6 1.211e+04 1.405e-09
 13.98154     92.9 1.128e+04 9.663e-10
 13.99151     93.1 1.163e+04 1.161e-09
 14.00520     91.4 1.114e+04 8.577e-10
 14.02514     89.9 1.065e+04 7.349e-10
 14.04508     89.1 1.034e+04 6.809e-10
 14.06150     89.1 1.019e+04 6.509e-10
 14.07147     89.9 1.021e+04 6.002e-10
 14.08470     89.6 1.008e+04 5.738e-10
 14.09467     89.6 1.008e+04 5.911e-10
 14.10489     89.9 9.863e+03 4.863e-10
 14.12483     89.7 9.822e+03 4.500e-10
 14.15484     89.5 9.458e+03 3.579e-10
 14.19481     89.8 8.902e+03 2.372e-10
 14.23468     90.1 8.467e+03 1.626e-10
 14.27456     90.6 8.363e+03 1.533e-10
 14.29945     91.2 8.398e+03 1.607e-10
 14.30615     92.1 8.550e+03 1.749e-10
 14.32113     92.0 8.540e+03 1.714e-10
 14.35431     92.8 8.625e+03 1.873e-10
 14.39419     93.7 8.733e+03 2.037e-10
 14.43406     94.5 8.813e+03 2.085e-10
 14.47394     95.2 8.806e+03 2.053e-10
 14.50753     96.1 8.750e+03 1.918e-10
 14.52746     96.2 8.743e+03 1.952e-10
 14.55369     97.3 8.639e+03 1.748e-10
 14.59357     98.7 8.532e+03 1.432e-10
 14.63344    100.0 8.474e+03 1.106e-10
 14.67332    101.2 8.513e+03 9.317e-11
 14.71320    102.4 8.542e+03 9.336e-11
 14.73379    103.7 8.637e+03 9.944e-11
 14.75373    104.0 8.648e+03 9.871e-11
 14.77495    105.3 8.796e+03 1.147e-10
 14.79489    105.6 8.846e+03 1.143e-10
 14.83282    107.0 9.026e+03 1.408e-10
 14.87270    108.5 9.212e+03 1.796e-10
 14.91257    110.0 9.421e+03 2.324e-10
 14.94012    111.5 9.678e+03 2.996e-10
 14.96006    111.6 9.668e+03 2.963e-10
 14.99233    112.9 9.915e+03 3.559e-10
 15.03220    114.0 1.008e+04 3.879e-10
 15.07208    115.0 1.011e+04 3.802e-10
 15.11195    116.0 1.004e+04 3.398e-10
 15.14645    117.0 9.885e+03 2.827e-10
 15.16639    116.7 9.831e+03 2.673e-10
 15.19171    117.9 9.739e+03 2.545e-10
 15.23052    119.1 9.771e+03 2.673e-10
 15.25045    119.7 9.491e+03 1.832e-10
 15.27146    121.2 9.615e+03 2.156e-10
 15.31133    122.8 9.953e+03 3.016e-10
 15.35121    124.7 1.040e+04 4.431e-10
 15.37272    126.7 1.087e+04 6.125e-10
 15.39266    126.7 1.074e+04 5.756e-10
 15.43096    128.7 1.120e+04 7.119e-10
 15.47084    130.4 1.149e+04 7.970e-10
 15.51071    132.0 1.171e+04 8.492e-10
 15.54052    133.6 1.173e+04 8.338e-10
 15.56036    134.2 1.175e+04 8.345e-10
 15.57886    135.3 1.190e+04 8.574e-10
 15.59889    135.7 1.150e+04 7.132e-10
 15.63034    137.4 1.191e+04 7.903e-10
 15.67022    138.8 1.278e+04 1.080e-09
 15.69209    139.5 1.360e+04 1.614e-09
 15.70196    140.2 1.282e+04 1.120e-09
 15.71579    140.7 1.346e+04 1.513e-09
 15.72576    141.8 1.339e+04 1.436e-09
 15.73980    142.3 1.410e+04 2.038e-09
 15.75974    143.0 1.483e+04 2.903e-09
 15.77968    143.6 1.559e+04 4.121e-09
 15.79515    143.7 1.650e+04 5.783e-09
 15.80512    144.0 1.645e+04 5.016e-09
 15.81956    143.8 1.799e+04 8.282e-09
 15.83949    143.8 1.976e+04 1.344e-08
 15.85167    143.8 2.051e+04 1.679e-08
 15.85661    143.7 2.069e+04 1.708e-08
 15.86432    143.0 2.193e+04 2.294e-08
 15.87429    141.8 2.321e+04 3.578e-08
 15.88426    140.7 2.422e+04 6.077e-08
 15.89423    139.1 2.451e+04 8.906e-08
 15.90321    136.7 2.416e+04 8.967e-08
 15.90819    136.4 2.460e+04 9.491e-08
 15.91416    136.1 2.378e+04 8.376e-08
 15.92413    136.5 2.274e+04 6.420e-08
 15.93410    136.8 2.160e+04 4.020e-08
 15.94407    136.4 2.062e+04 2.566e-08
 15.95349    136.9 1.907e+04 1.424e-08
 15.96351    137.0 1.988e+04 1.850e-08
 15.97906    137.7 1.791e+04 9.923e-09
 15.99900    138.3 1.608e+04 5.234e-09
 16.01145    138.2 1.462e+04 2.750e-09
 16.02142    138.2 1.454e+04 2.602e-09
 16.03887    137.8 1.330e+04 1.478e-09
 16.05881    137.9 1.238e+04 9.958e-10
 16.07875    138.4 1.182e+04 7.824e-10
 16.09869    139.4 1.149e+04 6.666e-10
 16.11462    140.8 1.125e+04 5.911e-10
 16.12459    141.0 1.122e+04 6.194e-10
 16.13856    142.3 1.109e+04 5.551e-10
 16.15850    143.4 1.099e+04 4.964e-10
 16.17844    144.4 1.087e+04 4.352e-10
 16.19129    145.0 1.076e+04 3.855e-10
 16.20126    145.7 1.091e+04 4.031e-10
 16.21778    146.2 1.077e+04 3.513e-10
 16.22775    146.5 1.083e+04 3.991e-10
 16.23825    146.8 1.070e+04 3.663e-10
 16.25819    147.5 1.064e+04 3.341e-10
 16.27813    147.6 1.063e+04 3.227e-10
 16.30813    149.1 1.068e+04 3.240e-10
 16.34811    150.3 1.076e+04 3.255e-10
 16.38798    152.2 1.071e+04 3.313e-10
 16.42431    154.0 1.066e+04 3.598e-10
 16.44425    153.4 1.092e+04 4.719e-10
 16.46773    154.9 1.115e+04 6.005e-10
 16.50761    156.1 1.161e+04 8.335e-10
 16.54749    157.2 1.204e+04 1.097e-09
 16.58736    158.1 1.228e+04 1.211e-09
 16.62724    158.6 1.225e+04 1.178e-09
 16.65058    159.1 1.209e+04 1.071e-09
 16.66042    157.9 1.184e+04 8.427e-10
 16.67696    158.6 1.165e+04 7.900e-10
 16.70699    159.7 1.116e+04 5.788e-10
 16.74686    160.9 1.069e+04 4.216e-10
 16.78674    162.3 1.033e+04 3.366e-10
 16.82662    164.0 1.025e+04 3.157e-10
 16.85691    166.0 1.032e+04 3.448e-10
 16.87684    165.7 1.048e+04 3.856e-10
 16.90637    168.1 1.067e+04 4.810e-10
 16.94624    170.7 1.086e+04 5.820e-10
 16.98612    173.3 1.108e+04 6.955e-10
 17.02600    175.8 1.137e+04 8.307e-10
 17.06324    178.4 1.192e+04 1.027e-09
 17.08317    178.3 1.189e+04 1.020e-09
 17.10575    181.0 1.261e+04 1.300e-09
 17.13242    182.5 1.286e+04 1.438e-09
 17.15236    184.8 1.278e+04 1.317e-09
 17.17543    185.3 1.364e+04 1.979e-09
 17.18614    186.3 1.424e+04 2.696e-09
 17.19611    186.4 1.415e+04 2.473e-09
 17.21521    187.5 1.475e+04 3.327e-09
 17.23515    188.6 1.526e+04 4.207e-09
 17.25509    189.6 1.580e+04 5.127e-09
 17.27502    190.7 1.642e+04 6.291e-09
 17.28931    191.5 1.705e+04 7.381e-09
 17.29928    191.5 1.681e+04 6.790e-09
 17.31490    191.9 1.752e+04 8.071e-09
 17.33484    192.2 1.820e+04 9.483e-09
 17.35478    192.3 1.882e+04 1.091e-08
 17.36968    192.3 1.940e+04 1.275e-08
 17.37496    191.8 2.009e+04 1.478e-08
 17.37995    192.6 2.045e+04 1.636e-08
 17.38957    191.2 2.128e+04 2.006e-08
 17.39736    189.8 2.188e+04 2.523e-08
 17.40234    190.1 2.155e+04 2.359e-08
 17.40951    189.1 2.204e+04 3.062e-08
 17.41948    188.6 2.260e+04 3.993e-08
 17.42945    187.8 2.336e+04 4.807e-08
 17.43942    185.9 2.367e+04 4.856e-08
 17.44894    184.1 2.355e+04 4.481e-08
 17.45393    184.7 2.286e+04 4.060e-08
 17.45935    183.7 2.241e+04 3.286e-08
 17.46932    182.9 2.162e+04 2.321e-08
 17.47929    181.6 2.063e+04 1.611e-08
 17.49429    180.2 1.981e+04 1.161e-08
 17.50561    178.2 1.819e+04 7.176e-09
 17.51558    179.3 1.837e+04 7.894e-09
 17.53422    177.2 1.686e+04 5.399e-09
 17.55416    175.6 1.541e+04 3.807e-09
 17.57409    175.2 1.416e+04 2.856e-09
 17.59403    175.5 1.323e+04 2.214e-09
 17.60783    176.2 1.258e+04 1.751e-09
 17.61260    175.2 1.231e+04 1.547e-09
 17.61874    176.5 1.280e+04 1.812e-09
 17.63391    177.2 1.206e+04 1.386e-09
 17.65385    178.0 1.155e+04 1.119e-09
 17.67378    178.9 1.118e+04 9.417e-10
 17.69372    179.9 1.089e+04 8.276e-10
 17.71194    181.0 1.077e+04 7.694e-10
 17.72191    181.9 1.099e+04 8.741e-10
 17.73360    183.0 1.083e+04 8.019e-10
 17.75354    184.1 1.073e+04 7.507e-10
 17.77347    185.3 1.069e+04 7.219e-10
 17.79341    186.4 1.065e+04 7.086e-10
 17.81335    187.5 1.061e+04 7.014e-10
 17.82507    188.8 1.060e+04 7.024e-10
 17.83504    189.4 1.077e+04 7.348e-10
 17.84558    190.8 1.073e+04 7.369e-10
 17.85555    190.9 1.068e+04 7.332e-10
 17.87316    192.3 1.070e+04 7.445e-10
 17.89310    194.0 1.077e+04 7.532e-10
 17.91304    195.7 1.087e+04 7.592e-10
 17.92824    197.7 1.095e+04 7.466e-10
 17.93821    198.1 1.106e+04 8.028e-10
 17.95291    199.8 1.117e+04 7.986e-10
 17.97285    201.7 1.117e+04 7.853e-10
 17.99279    203.7 1.116e+04 7.750e-10
 18.01273    205.8 1.114e+04 7.535e-10
 18.03140    208.2 1.108e+04 7.471e-10
 18.04137    208.2 1.251e+04 8.345e-10
 18.05260    210.1 1.234e+04 8.783e-10
 18.07254    212.2 1.259e+04 8.567e-10
 18.08333    214.1 1.349e+04 8.282e-10
 18.09330    215.4 1.165e+04 8.494e-10
 18.11242    217.7 1.191e+04 8.356e-10
 18.13236    220.0 1.266e+04 8.212e-10
 18.14453    222.1 1.489e+04 8.644e-10
 18.15450    220.4 2.367e+04 1.346e-09
 18.17223    223.0 2.369e+04 1.398e-09
 18.19217    225.4 2.457e+04 1.578e-09
 18.20707    228.0 2.380e+04 1.526e-09
 18.21699    229.6 2.348e+04 1.337e-09
 18.22696    231.2 2.368e+04 1.360e-09
 18.23693    232.3 2.451e+04 1.466e-09
 18.24690    233.7 2.570e+04 1.653e-09
 18.25259    234.8 2.663e+04 1.944e-09
 18.25757    232.9 3.105e+04 5.422e-09
 18.26684    234.1 3.099e+04 6.552e-09
 18.27681    235.5 3.098e+04 7.890e-09
 18.28678    236.8 3.116e+04 9.673e-09
 18.29675    238.3 3.122e+04 1.181e-08
 18.30417    239.7 3.126e+04 1.415e-08
 18.30915    238.8 2.912e+04 3.019e-08
 18.31600    240.3 2.911e+04 3.300e-08
 18.32098    242.0 3.160e+04 1.952e-08
 18.32665    243.5 3.156e+04 2.274e-08
 18.33662    245.0 3.154e+04 2.643e-08
 18.34659    246.7 3.154e+04 3.046e-08
 18.35575    248.3 3.157e+04 3.508e-08
 18.36074    247.7 3.059e+04 4.951e-08
 18.36653    249.2 3.058e+04 5.603e-08
 18.37650    250.6 3.084e+04 6.047e-08
 18.38647    252.0 3.137e+04 6.300e-08
 18.39644    253.0 3.203e+04 5.881e-08
 18.40641    253.6 3.283e+04 5.721e-08
 18.41232    253.9 3.272e+04 5.725e-08
 18.41730    248.6 3.741e+04 2.352e-08
 18.42634    247.6 3.794e+04 1.935e-08
 18.43487    247.1 3.765e+04 1.719e-08
 18.43986    255.9 3.280e+04 5.716e-08
 18.44628    256.4 3.190e+04 5.916e-08
 18.45625    257.9 3.087e+04 6.915e-08
 18.46390    259.0 2.983e+04 9.402e-08
 18.46889    254.5 3.691e+04 3.544e-08
 18.47619    251.9 3.625e+04 3.848e-08
 18.48616    249.9 3.515e+04 4.108e-08
 18.49613    249.3 3.697e+04 2.726e-08
 18.50609    249.5 4.102e+04 1.220e-08
 18.51548    249.5 4.336e+04 5.768e-09
 18.52047    244.4 4.670e+04 1.438e-09
 18.52603    244.7 4.232e+04 9.491e-10
 18.53600    244.2 3.782e+04 5.984e-10
 18.54597    242.8 2.827e+04 4.957e-10
 18.55375    241.3 2.008e+04 4.863e-10
 18.55873    246.3 2.914e+04 8.745e-10
 18.56591    244.5 2.629e+04 5.000e-10
 18.57205    243.3 1.933e+04 4.926e-10
 18.57704    239.3 1.449e+04 5.427e-10
 18.58585    241.1 1.468e+04 5.273e-10
 18.59582    243.0 1.478e+04 5.308e-10
 18.60578    237.0 4.641e+04 2.460e-10
 18.61575    155.5 4.531e+05 3.120e-11
 18.62363    117.9 2.170e+05 2.726e-10
 18.62862    113.7 1.459e+05 8.873e-10
 18.63317    117.7 6.795e+04 6.758e-09
 18.63813    116.2 3.255e+04 6.500e-08
 18.64312    110.2 2.007e+04 6.353e-07
 18.64810    105.7 1.881e+04 4.516e-06
 18.65187    104.4 1.742e+04 1.938e-05
 18.65436    104.1 1.715e+04 2.219e-05
 18.65807    100.0 1.462e+04 2.421e-04
 18.66306     95.5 1.375e+04 5.657e-04
 18.66804     94.2 1.437e+04 3.380e-04
 18.67257     96.8 1.582e+04 7.678e-05
 18.67506     98.4 1.591e+04 8.349e-05
 18.67766    100.2 1.729e+04 2.590e-05
 18.68015    104.7 1.915e+04 6.457e-06
 18.68300    109.0 1.824e+04 8.506e-06
 18.68798    115.0 1.805e+04 1.070e-05
 18.69296    120.8 1.763e+04 1.466e-05
 18.69795    126.3 1.690e+04 2.550e-05
 18.70293    129.8 1.640e+04 4.278e-05
 18.70594    130.4 1.648e+04 3.902e-05
 18.70843    134.1 1.644e+04 4.472e-05
 18.71290    131.3 1.671e+04 2.834e-05
 18.71789    122.3 2.203e+04 8.370e-06
 18.72287     81.8 2.271e+05 5.281e-09
 18.72786     40.7 4.517e+05 6.757e-10
 18.73176    -65.5 9.518e+04 8.561e-09
 18.73677    -57.7 1.148e+05 5.876e-09
 18.74535    -87.6 2.501e+04 2.144e-07
 18.75532    -92.6 2.552e+04 2.792e-07
 18.76529    -99.3 2.570e+04 2.755e-07
 18.77526   -105.5 2.777e+04 1.432e-07
 18.78336   -112.6 2.974e+04 4.321e-08
 18.78835   -114.2 2.957e+04 5.076e-08
 18.79150   -121.3 2.859e+04 1.361e-08
 18.79648   -119.5 2.933e+04 1.396e-08
 18.80516   -126.8 2.391e+04 5.646e-09
 18.81513   -131.2 2.061e+04 3.757e-09
 18.82510   -132.8 1.961e+04 3.112e-09
 18.83495   -133.7 1.936e+04 2.708e-09
 18.83993   -134.1 1.922e+04 2.694e-09
 18.85007   -135.5 1.867e+04 2.281e-09
 18.87006   -138.3 1.728e+04 1.556e-09
 18.88663   -140.5 1.618e+04 1.206e-09
 18.89660   -141.2 1.623e+04 1.271e-09
 18.90994   -142.3 1.583e+04 1.167e-09
 18.92987   -142.7 1.567e+04 1.132e-09
 18.94981   -142.7 1.552e+04 1.100e-09
 18.96975   -142.5 1.545e+04 1.055e-09
 18.98969   -141.9 1.538e+04 1.015e-09
 18.99976   -141.0 1.526e+04 9.701e-10
 19.00973   -140.2 1.447e+04 7.642e-10
 19.02436   -139.0 1.416e+04 6.644e-10
 19.03433   -135.5 1.386e+04 5.858e-10
 19.04950   -134.3 1.358e+04 5.109e-10
 19.06944   -132.9 1.331e+04 4.532e-10
 19.08938   -131.0 1.310e+04 4.151e-10
 19.10293   -128.6 1.303e+04 3.958e-10
 19.11290   -127.6 1.243e+04 3.200e-10
 19.13932   -126.1 1.306e+04 3.980e-10
 19.17929   -121.6 1.341e+04 4.700e-10
 19.20629   -117.8 1.370e+04 5.358e-10
 19.22622   -117.0 1.152e+04 2.103e-10
 19.25904   -113.3 1.191e+04 2.269e-10
 19.29892   -110.7 1.269e+04 3.060e-10
 19.33880   -109.1 1.326e+04 5.305e-10
 19.37867   -107.6 1.362e+04 9.216e-10
 19.40848   -105.6 1.355e+04 1.163e-09
 19.42239   -104.6 1.370e+04 1.383e-09
 19.43246   -105.6 1.377e+04 1.409e-09
 19.44836   -103.5 1.384e+04 1.621e-09
 19.46820   -102.0 1.392e+04 1.761e-09
 19.48814   -100.6 1.398e+04 1.833e-09
 19.49986    -99.3 1.404e+04 1.875e-09
 19.50983    -98.5 1.362e+04 1.561e-09
 19.52556    -97.5 1.369e+04 1.592e-09
 19.53552    -97.6 1.378e+04 1.732e-09
 19.54795    -97.4 1.416e+04 1.800e-09
 19.56789    -98.2 1.534e+04 2.200e-09
 19.58783    -99.2 1.681e+04 3.195e-09
 19.60776    -99.8 1.790e+04 4.792e-09
 19.62770   -100.1 1.846e+04 6.543e-09
 19.63869   -100.3 1.855e+04 7.628e-09
 19.64866   -100.9 1.885e+04 1.172e-08
 19.66758   -100.7 1.823e+04 1.087e-08
 19.68752   -100.4 1.755e+04 7.891e-09
 19.70745   -100.5 1.690e+04 5.727e-09
 19.72739   -100.9 1.607e+04 4.241e-09
 19.73761   -101.1 1.512e+04 3.068e-09
 19.74211   -100.9 1.478e+04 2.870e-09
 19.75182   -101.2 1.431e+04 2.258e-09
 19.76727   -101.1 1.357e+04 1.675e-09
 19.78720   -100.8 1.298e+04 1.258e-09
 19.80714   -100.6 1.246e+04 9.619e-10
 19.82708   -100.4 1.196e+04 7.623e-10
 19.84502   -100.1 1.156e+04 6.364e-10
 19.85499   -100.1 1.120e+04 5.263e-10
 19.86696    -99.3 1.104e+04 4.775e-10
 19.88689    -98.4 1.093e+04 4.333e-10
 19.90683    -97.5 1.082e+04 3.907e-10
 19.93684    -96.9 1.064e+04 3.428e-10
 19.96559    -94.8 1.035e+04 2.906e-10
 19.98553    -94.1 1.054e+04 3.211e-10
 20.01669    -92.3 1.027e+04 2.714e-10
 20.05154    -90.4 1.003e+04 2.327e-10
 20.07148    -90.2 9.992e+03 2.467e-10
 20.09644    -88.0 9.862e+03 2.237e-10
 20.13631    -85.8 9.790e+03 2.026e-10
 20.17619    -83.6 9.757e+03 1.866e-10
 20.21607    -81.5 9.762e+03 1.750e-10
 20.25594    -79.5 9.819e+03 1.704e-10
 20.27781    -77.6 9.897e+03 1.703e-10
 20.29775    -77.2 9.669e+03 1.086e-10
 20.33569    -75.3 9.718e+03 9.976e-11
 20.37557    -73.5 9.723e+03 9.800e-11
 20.41545    -71.8 9.731e+03 9.771e-11
 20.44109    -70.4 9.822e+03 1.013e-10
 20.46103    -69.9 9.841e+03 1.063e-10
 20.48414    -68.7 1.000e+04 1.354e-10
 20.50408    -68.6 9.840e+03 8.875e-11
 20.53507    -67.4 9.971e+03 1.395e-10
 20.57495    -66.1 1.018e+04 2.017e-10
 20.61482    -65.0 1.042e+04 2.525e-10
 20.65470    -64.1 1.056e+04 2.703e-10
 20.69047    -63.5 1.059e+04 2.707e-10
 20.71041    -62.6 1.044e+04 2.573e-10
 20.73445    -61.8 1.044e+04 2.433e-10
 20.77433    -60.9 1.042e+04 2.137e-10
 20.81420    -60.1 1.042e+04 2.014e-10
 20.85408    -59.5 1.043e+04 2.004e-10
 20.89396    -59.1 1.057e+04 2.066e-10
 20.91659    -61.1 1.182e+04 2.723e-10
 20.93653    -56.1 1.092e+04 2.458e-10
 20.97371    -58.8 1.215e+04 4.074e-10
 21.00352    -63.1 1.323e+04 8.268e-10
 21.01971    -64.6 1.354e+04 1.293e-09
 21.02968    -63.0 1.334e+04 1.105e-09
 21.04329    -64.6 1.373e+04 1.791e-09
 21.06323    -66.1 1.418e+04 2.395e-09
 21.08317    -67.7 1.443e+04 2.677e-09
 21.10311    -69.3 1.448e+04 2.705e-09
 21.12287    -70.8 1.432e+04 2.299e-09
 21.13284    -69.6 1.479e+04 2.758e-09
 21.14298    -71.4 1.447e+04 2.153e-09
 21.15415    -73.4 1.376e+04 1.611e-09
 21.16412    -72.0 1.290e+04 1.104e-09
 21.18286    -73.8 1.225e+04 8.532e-10
 21.20280    -74.7 1.183e+04 7.625e-10
 21.22274    -75.4 1.138e+04 6.723e-10
 21.23601    -75.6 1.100e+04 6.067e-10
 21.24598    -75.3 1.129e+04 7.350e-10
 21.26261    -75.3 1.094e+04 6.592e-10
 21.28255    -75.2 1.067e+04 5.941e-10
 21.30249    -74.8 1.043e+04 5.366e-10
 21.32243    -74.2 1.027e+04 4.914e-10
 21.33917    -73.5 1.017e+04 4.554e-10
 21.34914    -73.4 1.039e+04 5.688e-10
 21.36230    -72.7 1.030e+04 5.341e-10
 21.38193    -71.9 1.022e+04 5.051e-10
 21.39190    -71.1 1.018e+04 4.873e-10
 21.40218    -70.1 1.010e+04 4.549e-10
 21.42212    -69.4 1.004e+04 4.321e-10
 21.44205    -68.3 9.989e+03 4.092e-10
 21.45231    -67.7 9.954e+03 3.946e-10
 21.46228    -67.4 1.006e+04 4.677e-10
 21.48193    -66.5 1.001e+04 4.438e-10
 21.50187    -65.6 9.995e+03 4.320e-10
 21.52181    -64.7 9.997e+03 4.286e-10
 21.54174    -63.9 1.002e+04 4.304e-10
 21.55547    -62.9 1.008e+04 4.481e-10
 21.56544    -62.6 1.017e+04 5.219e-10
 21.58162    -61.6 1.030e+04 5.729e-10
 21.60156    -60.7 1.045e+04 6.399e-10
 21.61968    -59.8 1.061e+04 7.170e-10
 21.62965    -59.0 1.040e+04 6.083e-10
 21.64143    -58.1 1.063e+04 7.011e-10
 21.65864    -57.5 1.094e+04 8.190e-10
 21.66861    -56.9 1.113e+04 9.435e-10
 21.68131    -56.5 1.152e+04 1.136e-09
 21.70125    -56.4 1.200e+04 1.422e-09
 21.72118    -56.3 1.258e+04 1.843e-09
 21.74112    -56.2 1.321e+04 2.443e-09
 21.76106    -56.1 1.376e+04 3.154e-09
 21.77177    -56.0 1.409e+04 3.673e-09
 21.78174    -55.4 1.444e+04 3.938e-09
 21.80094    -55.6 1.462e+04 4.383e-09
 21.82087    -55.9 1.463e+04 4.422e-09
 21.84081    -56.0 1.444e+04 4.033e-09
 21.85743    -56.3 1.416e+04 3.380e-09
 21.86740    -55.8 1.412e+04 3.373e-09
 21.87494    -56.3 1.361e+04 2.520e-09
 21.88490    -55.7 1.475e+04 3.920e-09
 21.90063    -56.4 1.440e+04 3.065e-09
 21.92056    -57.2 1.388e+04 2.294e-09
 21.94050    -58.3 1.317e+04 1.693e-09
 21.96044    -59.5 1.233e+04 1.294e-09
 21.97810    -60.4 1.161e+04 1.069e-09
 21.98807    -59.3 1.350e+04 1.955e-09
 22.00032    -59.7 1.295e+04 1.651e-09
 22.02025    -60.1 1.251e+04 1.397e-09
 22.04019    -60.8 1.204e+04 1.161e-09
 22.06013    -61.5 1.188e+04 1.026e-09
 22.08007    -62.2 1.191e+04 9.717e-10
 22.09123    -62.8 1.200e+04 9.690e-10
 22.09638    -63.4 1.391e+04 1.779e-09
 22.10515    -61.0 1.244e+04 1.051e-09
 22.11994    -61.6 1.252e+04 1.057e-09
 22.13988    -62.0 1.256e+04 1.088e-09
 22.15982    -62.3 1.264e+04 1.152e-09
 22.17976    -62.6 1.270e+04 1.246e-09
 22.19440    -63.2 1.273e+04 1.360e-09
 22.20437    -63.2 1.371e+04 2.041e-09
 22.21963    -63.6 1.338e+04 1.989e-09
 22.23957    -64.1 1.302e+04 1.921e-09
 22.25951    -64.6 1.270e+04 1.824e-09
 22.27945    -65.0 1.236e+04 1.715e-09
 22.29756    -65.5 1.192e+04 1.546e-09
 22.30753    -64.6 1.202e+04 1.568e-09
 22.31932    -65.3 1.167e+04 1.364e-09
 22.33293    -66.2 1.147e+04 1.228e-09
 22.34290    -65.6 1.350e+04 1.979e-09
 22.35920    -66.7 1.410e+04 2.152e-09
 22.37914    -67.9 1.449e+04 2.360e-09
 22.39907    -69.6 1.451e+04 2.466e-09
 22.41070    -71.5 1.461e+04 2.665e-09
 22.42067    -70.8 1.412e+04 2.234e-09
 22.43895    -72.7 1.437e+04 2.530e-09
 22.45889    -74.2 1.461e+04 2.885e-09
 22.47883    -75.9 1.497e+04 3.302e-09
 22.49373    -77.5 1.569e+04 3.805e-09
 22.50365    -79.7 1.720e+04 4.780e-09
 22.51362    -82.8 1.898e+04 6.819e-09
 22.51875    -86.0 2.047e+04 1.024e-08
 22.52373    -86.7 2.092e+04 1.099e-08
 22.53356    -89.7 2.181e+04 1.678e-08
 22.54353    -92.2 2.227e+04 2.401e-08
 22.55350    -94.1 2.251e+04 3.138e-08
 22.56346    -95.8 2.279e+04 3.624e-08
 22.57033    -97.5 2.292e+04 3.845e-08
 22.57247    -98.4 2.319e+04 4.461e-08
 22.57557   -100.3 2.304e+04 3.683e-08
 22.58340   -101.9 2.289e+04 3.064e-08
 22.59337   -103.6 2.259e+04 2.196e-08
 22.60334   -105.4 2.193e+04 1.372e-08
 22.61331   -107.3 2.075e+04 8.249e-09
 22.62191   -109.1 1.935e+04 5.364e-09
 22.62690   -111.2 1.921e+04 3.946e-09
 22.63828   -115.1 1.651e+04 2.274e-09
 22.65827   -119.4 1.222e+04 1.046e-09
 22.67821   -122.1 1.044e+04 5.696e-10
 22.69814   -123.1 1.028e+04 4.736e-10
 22.71808   -122.6 1.026e+04 4.601e-10
 22.73016   -121.9 1.031e+04 4.608e-10
 22.74013   -123.9 1.070e+04 5.681e-10
 22.75796   -123.1 1.095e+04 6.743e-10
 22.77790   -122.2 1.116e+04 8.079e-10
 22.79783   -121.0 1.133e+04 9.487e-10
 22.80843   -119.7 1.148e+04 1.073e-09
 22.81840   -119.5 1.160e+04 1.130e-09
 22.83333   -118.3 1.171e+04 1.168e-09
 22.84330   -119.4 1.170e+04 1.158e-09
 22.85765   -118.2 1.170e+04 1.128e-09
 22.87758   -117.1 1.167e+04 1.058e-09
 22.89752   -116.0 1.158e+04 9.690e-10
 22.91746   -115.1 1.147e+04 8.836e-10
 22.93649   -114.1 1.140e+04 8.225e-10
 22.94646   -115.2 1.105e+04 6.798e-10
 22.95734   -114.3 1.103e+04 6.721e-10
 22.97727   -113.6 1.110e+04 6.921e-10
 22.99721   -112.9 1.126e+04 7.740e-10
 23.01715   -112.2 1.150e+04 8.945e-10
 23.03621   -111.5 1.182e+04 1.056e-09
 23.04618   -111.4 1.190e+04 1.127e-09
 23.04963   -110.7 1.233e+04 1.404e-09
 23.05959   -111.2 1.216e+04 1.350e-09
 23.07696   -110.4 1.250e+04 1.609e-09
 23.09690   -109.5 1.277e+04 1.855e-09
 23.11684   -108.7 1.292e+04 2.018e-09
 23.13678   -108.1 1.296e+04 2.064e-09
 23.15279   -107.3 1.295e+04 2.066e-09
 23.16276   -107.5 1.255e+04 1.817e-09
 23.17665   -106.6 1.235e+04 1.666e-09
 23.19659   -105.6 1.211e+04 1.476e-09
 23.21653   -104.8 1.183e+04 1.284e-09
 23.23647   -103.8 1.155e+04 1.113e-09
 23.25596   -102.8 1.129e+04 9.682e-10
 23.26592   -102.7 1.098e+04 8.353e-10
 23.27396   -101.6 1.078e+04 7.393e-10
 23.28393   -102.0 1.096e+04 7.644e-10
 23.29628   -100.9 1.079e+04 6.923e-10
 23.31622    -99.8 1.067e+04 6.388e-10
 23.33616    -98.8 1.060e+04 5.990e-10
 23.35610    -97.8 1.055e+04 5.725e-10
 23.36909    -96.8 1.051e+04 5.613e-10
 23.37906    -96.3 1.042e+04 5.422e-10
 23.39597    -95.3 1.041e+04 5.533e-10
 23.41591    -94.4 1.041e+04 5.703e-10
 23.43585    -93.4 1.046e+04 5.843e-10
 23.45579    -92.5 1.052e+04 6.057e-10
 23.47225    -91.6 1.058e+04 6.338e-10
 23.48222    -90.9 1.061e+04 6.666e-10
 23.49566    -90.0 1.070e+04 7.023e-10
 23.51172    -89.2 1.082e+04 7.452e-10
 23.52168    -89.6 1.109e+04 8.309e-10
 23.53554    -88.9 1.126e+04 8.959e-10
 23.55547    -88.3 1.146e+04 9.812e-10
 23.57541    -87.9 1.170e+04 1.086e-09
 23.59535    -87.3 1.214e+04 1.335e-09
 23.61529    -87.3 1.240e+04 1.517e-09
 23.63523    -87.4 1.263e+04 1.716e-09
 23.65516    -87.4 1.283e+04 1.915e-09
 23.67510    -87.3 1.298e+04 2.085e-09
 23.68855    -87.3 1.304e+04 2.181e-09
 23.69852    -87.0 1.319e+04 2.394e-09
 23.71498    -87.0 1.310e+04 2.354e-09
 23.73492    -86.8 1.281e+04 2.082e-09
 23.74947    -86.7 1.245e+04 1.718e-09
 23.75943    -87.5 1.256e+04 1.816e-09
 23.77479    -87.5 1.212e+04 1.452e-09
 23.79172    -87.6 1.171e+04 1.156e-09
 23.80169    -87.3 1.148e+04 9.878e-10
 23.81467    -87.4 1.112e+04 8.007e-10
 23.83461    -87.4 1.085e+04 6.682e-10
 23.85454    -87.1 1.062e+04 5.648e-10
 23.87448    -86.7 1.042e+04 4.785e-10
 23.89442    -86.2 1.024e+04 4.087e-10
 23.90485    -85.8 1.010e+04 3.589e-10
 23.91482    -85.1 1.006e+04 3.447e-10
 23.93430    -84.8 1.004e+04 3.321e-10
 23.96430    -84.6 1.007e+04 3.311e-10
 24.00427    -83.8 1.006e+04 3.371e-10
 24.04415    -83.0 1.007e+04 3.551e-10
 24.08403    -82.3 1.007e+04 3.632e-10
 24.11138    -81.8 9.996e+03 3.536e-10
 24.13132    -80.1 1.006e+04 3.626e-10
 24.16378    -79.7 9.927e+03 3.296e-10
 24.20365    -79.4 9.795e+03 3.017e-10
 24.22516    -79.0 9.758e+03 2.935e-10
 24.24510    -79.4 9.967e+03 3.435e-10
 24.27334    -78.5 9.867e+03 3.235e-10
 24.29318    -78.4 9.916e+03 3.427e-10
 24.31312    -78.2 1.003e+04 3.833e-10
 24.32748    -78.8 1.021e+04 4.349e-10
 24.33745    -78.2 1.023e+04 4.407e-10
 24.35299    -79.1 1.060e+04 5.706e-10
 24.37293    -80.3 1.100e+04 7.264e-10
 24.39287    -81.5 1.132e+04 8.875e-10
 24.41281    -82.7 1.143e+04 9.888e-10
 24.43065    -83.6 1.143e+04 1.011e-09
 24.44061    -83.1 1.172e+04 1.160e-09
 24.45268    -83.6 1.152e+04 1.152e-09
 24.47262    -84.3 1.136e+04 1.186e-09
 24.49256    -84.3 1.083e+04 8.207e-10
 24.51250    -84.4 1.033e+04 5.326e-10
 24.53243    -84.7 9.936e+03 3.797e-10
 24.54388    -84.8 9.707e+03 3.097e-10
 24.56391    -84.5 9.805e+03 3.125e-10
 24.60241    -84.6 9.462e+03 2.464e-10
 24.64229    -83.8 9.127e+03 1.987e-10
 24.68073    -82.7 9.004e+03 1.834e-10
 24.70066    -83.7 8.992e+03 1.813e-10
 24.72204    -82.4 8.989e+03 1.814e-10
 24.75030    -81.1 8.997e+03 1.845e-10
 24.77024    -80.5 9.075e+03 1.932e-10
 24.80179    -79.1 9.051e+03 1.898e-10
 24.84167    -77.6 8.969e+03 1.768e-10
 24.88154    -76.2 8.877e+03 1.614e-10
 24.92142    -74.8 8.790e+03 1.485e-10
 24.95663    -73.2 8.725e+03 1.381e-10
 24.97657    -72.5 8.739e+03 1.357e-10
 25.00117    -70.9 8.655e+03 1.267e-10
 25.04105    -69.1 8.566e+03 1.137e-10
 25.08092    -67.3 8.432e+03 9.749e-11
 25.12080    -65.6 8.306e+03 8.013e-11
 25.15623    -63.9 8.189e+03 6.482e-11
 25.17616    -64.7 8.022e+03 5.126e-11
 25.18290    -63.1 7.881e+03 4.583e-11
 25.20284    -62.3 7.920e+03 5.397e-11
 25.24043    -60.7 7.851e+03 5.309e-11
 25.28030    -59.0 7.840e+03 5.308e-11
 25.32018    -57.3 7.820e+03 5.478e-11
 25.36005    -55.6 7.799e+03 5.755e-11
 25.38923    -53.9 7.793e+03 6.017e-11
 25.40917    -53.1 7.842e+03 6.908e-11
 25.43981    -51.5 7.847e+03 7.150e-11
 25.47968    -50.1 7.880e+03 7.628e-11
 25.51956    -48.9 7.952e+03 8.624e-11
 25.55943    -48.0 8.080e+03 1.060e-10
 25.59556    -47.4 8.307e+03 1.430e-10
 25.61550    -47.1 8.465e+03 1.699e-10
 25.63173    -46.8 8.851e+03 2.479e-10
 25.65167    -47.4 8.883e+03 2.704e-10
 25.67906    -47.2 9.176e+03 3.600e-10
 25.71894    -47.0 9.304e+03 4.151e-10
 25.75881    -46.9 9.306e+03 4.228e-10
 25.79869    -46.8 9.006e+03 3.314e-10
 25.82183    -46.8 8.494e+03 2.101e-10
 25.84177    -47.0 8.215e+03 1.687e-10
 25.87844    -47.1 7.818e+03 1.166e-10
 25.91832    -47.1 7.683e+03 1.052e-10
 25.95819    -47.0 7.671e+03 1.056e-10
 25.99807    -46.9 7.944e+03 1.458e-10
 26.02816    -46.6 8.370e+03 2.286e-10
 26.04810    -46.1 8.413e+03 2.396e-10
 26.07782    -45.9 8.737e+03 3.176e-10
 26.10723    -45.8 8.915e+03 3.560e-10
 26.12717    -45.7 8.945e+03 3.609e-10
 26.15757    -46.0 8.951e+03 3.628e-10
 26.19745    -46.1 8.738e+03 3.125e-10
 26.23449    -46.1 8.392e+03 2.365e-10
 26.25443    -46.0 8.318e+03 2.224e-10
 26.27720    -45.9 8.047e+03 1.773e-10
 26.31707    -45.2 7.808e+03 1.461e-10
 26.35695    -44.0 7.670e+03 1.292e-10
 26.39683    -42.7 7.624e+03 1.224e-10
 26.43670    -41.2 7.610e+03 1.200e-10
 26.46076    -39.6 7.602e+03 1.186e-10
 26.48070    -39.7 7.626e+03 1.228e-10
 26.51645    -38.0 7.599e+03 1.182e-10
 26.55633    -36.1 7.554e+03 1.115e-10
 26.58273    -34.3 7.497e+03 1.031e-10
 26.60267    -34.3 7.477e+03 9.568e-11
 26.63608    -32.4 7.439e+03 9.040e-11
 26.66709    -30.4 7.432e+03 8.915e-11
 26.68703    -30.5 7.438e+03 8.955e-11
 26.71583    -28.5 7.444e+03 8.917e-11
 26.75571    -26.5 7.527e+03 9.220e-11
 26.79558    -24.6 7.636e+03 1.015e-10
 26.83546    -22.8 7.776e+03 1.178e-10
 26.87342    -21.2 7.987e+03 1.476e-10
 26.89336    -21.2 7.943e+03 1.406e-10
 26.91521    -19.7 8.287e+03 1.956e-10
 26.95509    -18.2 8.708e+03 2.808e-10
 26.99496    -16.6 9.090e+03 3.809e-10
 27.03484    -15.1 9.317e+03 4.383e-10
 27.05823    -13.7 9.363e+03 4.441e-10
 27.07817    -13.2 9.380e+03 4.555e-10
 27.09969    -11.9 9.330e+03 4.198e-10
 27.11962    -12.1 9.420e+03 4.523e-10
 27.15447    -11.3 9.330e+03 3.868e-10
 27.19434    -10.6 9.243e+03 3.418e-10
 27.23422     -9.7 9.148e+03 3.107e-10
 27.27410     -8.8 9.027e+03 2.779e-10
 27.30601     -8.0 8.907e+03 2.424e-10
 27.32595     -8.7 9.140e+03 2.902e-10
 27.35385     -7.7 9.103e+03 2.786e-10
 27.39372     -6.8 9.160e+03 2.843e-10
 27.43360     -5.8 9.371e+03 3.270e-10
 27.47347     -4.7 9.611e+03 3.908e-10
 27.51234     -3.5 9.816e+03 4.562e-10
 27.53219     -3.7 1.005e+04 5.189e-10
 27.53354     -2.9 1.027e+04 5.855e-10
 27.54351     -2.9 1.036e+04 6.142e-10
 27.56300     -2.3 1.038e+04 6.182e-10
 27.58294     -1.6 1.037e+04 5.974e-10
 27.60288     -0.8 1.032e+04 5.546e-10
 27.62281     -0.2 1.026e+04 5.130e-10
 27.63525      0.3 1.021e+04 4.726e-10
 27.64522      0.1 1.036e+04 4.964e-10
 27.66269      0.7 1.035e+04 4.855e-10
 27.68263      1.2 1.040e+04 4.843e-10
 27.70257      1.5 1.048e+04 4.977e-10
 27.72250      2.1 1.054e+04 5.323e-10
 27.73842      2.7 1.063e+04 5.845e-10
 27.74839      2.5 1.080e+04 6.397e-10
 27.76132      3.3 1.090e+04 7.048e-10
 27.77129      3.2 1.093e+04 7.214e-10
 27.78232      4.2 1.110e+04 7.975e-10
 27.80226      5.1 1.125e+04 8.571e-10
 27.82219      6.0 1.136e+04 8.970e-10
 27.84158      6.9 1.146e+04 9.286e-10
 27.85155      6.8 1.157e+04 1.021e-09
 27.86207      7.6 1.158e+04 1.031e-09
 27.88201      8.6 1.155e+04 1.034e-09
 27.90194      9.6 1.158e+04 1.063e-09
 27.92188     10.6 1.156e+04 1.069e-09
 27.94182     11.9 1.154e+04 1.054e-09
 27.95472     13.1 1.166e+04 1.063e-09
 27.96469     13.1 1.165e+04 1.048e-09
 27.98170     14.0 1.174e+04 1.049e-09
 27.99907     14.9 1.175e+04 1.028e-09
 28.00904     15.0 1.203e+04 1.161e-09
 28.02157     16.0 1.202e+04 1.139e-09
 28.04151     16.6 1.219e+04 1.204e-09
 28.05788     17.5 1.244e+04 1.340e-09
 28.06785     17.4 1.231e+04 1.294e-09
 28.08139     17.6 1.227e+04 1.333e-09
 28.10132     19.3 1.283e+04 1.698e-09
 28.12126     19.3 1.288e+04 1.790e-09
 28.14120     21.2 1.324e+04 2.105e-09
 28.16105     21.9 1.327e+04 2.141e-09
 28.18098     23.7 1.296e+04 1.614e-09
 28.20101     24.4 1.289e+04 1.525e-09
 28.22095     25.5 1.252e+04 1.108e-09
 28.23682     25.7 1.207e+04 8.847e-10
 28.24679     26.8 1.351e+04 1.618e-09
 28.26083     26.9 1.297e+04 1.187e-09
 28.27418     27.1 1.242e+04 8.976e-10
 28.28415     26.9 1.152e+04 6.278e-10
 28.30070     27.4 1.124e+04 5.256e-10
 28.32064     28.0 1.115e+04 4.626e-10
 28.34058     28.8 1.116e+04 4.253e-10
 28.36052     29.7 1.109e+04 4.072e-10
 28.37734     30.9 1.115e+04 4.080e-10
 28.38731     30.7 1.038e+04 3.183e-10
 28.40039     31.5 1.058e+04 3.042e-10
 28.42033     32.2 1.072e+04 3.069e-10
 28.44027     32.2 1.108e+04 3.632e-10
 28.46021     31.9 1.192e+04 4.914e-10
 28.47457     31.4 1.274e+04 8.542e-10
 28.48454     30.0 1.507e+04 2.510e-09
 28.49048     30.5 1.537e+04 3.636e-09
 28.50045     30.7 1.490e+04 2.616e-09
 28.52002     31.7 1.536e+04 3.954e-09
 28.53996     32.9 1.583e+04 5.374e-09
 28.55990     34.3 1.625e+04 6.227e-09
 28.57983     35.4 1.657e+04 6.359e-09
 28.59364     36.4 1.680e+04 6.436e-09
 28.60361     36.1 1.689e+04 6.334e-09
 28.61971     36.7 1.716e+04 6.599e-09
 28.63965     37.2 1.727e+04 6.631e-09
 28.65959     37.7 1.702e+04 6.512e-09
 28.67952     38.3 1.694e+04 6.561e-09
 28.69681     39.1 1.697e+04 6.716e-09
 28.70678     38.9 1.744e+04 7.980e-09
 28.71232     39.7 1.741e+04 7.951e-09
 28.72229     38.8 1.724e+04 7.651e-09
 28.73934     39.7 1.721e+04 7.328e-09
 28.75928     40.4 1.717e+04 6.950e-09
 28.77921     41.1 1.697e+04 6.472e-09
 28.79915     42.0 1.682e+04 5.998e-09
 28.80994     43.0 1.676e+04 5.463e-09
 28.81991     42.7 1.652e+04 4.936e-09
 28.83903     43.8 1.631e+04 4.180e-09
 28.85897     44.7 1.614e+04 3.641e-09
 28.87890     45.6 1.595e+04 3.210e-09
 28.89884     46.6 1.562e+04 2.763e-09
 28.91311     47.5 1.530e+04 2.439e-09
 28.92308     47.6 1.524e+04 2.360e-09
 28.93872     48.7 1.513e+04 2.238e-09
 28.95007     49.8 1.508e+04 2.204e-09
 28.96004     48.6 1.310e+04 1.076e-09
 28.97859     49.9 1.296e+04 1.014e-09
 28.99853     51.0 1.303e+04 9.859e-10
 29.01627     52.1 1.323e+04 9.920e-10
 29.02624     52.1 1.329e+04 9.143e-10
 29.03841     53.0 1.379e+04 9.377e-10
 29.05835     53.6 1.455e+04 9.787e-10
 29.07828     54.0 1.546e+04 1.054e-09
 29.09822     53.7 1.642e+04 1.221e-09
 29.11816     53.1 1.757e+04 1.583e-09
 29.12941     52.4 1.908e+04 2.302e-09
 29.13938     51.9 1.904e+04 2.480e-09
 29.15803     52.4 1.991e+04 3.269e-09
 29.17785     52.6 1.950e+04 3.809e-09
 29.18782     51.4 1.485e+04 1.863e-09
 29.19791     50.9 1.468e+04 2.215e-09
 29.21785     48.4 1.564e+04 3.154e-09
 29.23252     40.6 1.888e+04 6.195e-09
 29.24249     41.3 1.929e+04 7.030e-09
 29.25269     35.3 2.351e+04 1.846e-08
 29.26261     30.3 2.655e+04 4.780e-08
 29.27258     27.0 2.482e+04 1.561e-07
 29.28255     25.5 2.187e+04 5.708e-07
 29.28904     24.5 2.087e+04 1.209e-06
 29.29402     24.5 2.107e+04 9.988e-07
 29.30162     22.4 2.077e+04 1.155e-06
 29.30660     23.2 2.097e+04 9.536e-07
 29.31246     21.7 2.140e+04 5.209e-07
 29.32243     20.6 2.258e+04 1.831e-07
 29.33239     18.3 2.363e+04 8.820e-08
 29.34062     14.9 2.319e+04 5.526e-08
 29.34561     15.5 2.323e+04 6.793e-08
 29.35233     12.1 2.155e+04 5.136e-08
 29.36230     10.5 2.054e+04 4.711e-08
 29.37227     10.3 2.000e+04 5.202e-08
 29.38224     10.9 2.031e+04 6.500e-08
 29.39221     11.4 2.054e+04 7.267e-08
 29.40217     11.2 2.056e+04 7.294e-08
 29.41215     11.9 2.019e+04 5.104e-08
 29.42049     12.2 2.025e+04 3.791e-08
 29.42548     12.2 2.058e+04 3.621e-08
 29.43208     11.9 2.105e+04 2.799e-08
 29.44205     11.1 2.111e+04 2.213e-08
 29.44877     10.3 2.077e+04 1.761e-08
 29.45376      9.6 2.056e+04 1.714e-08
 29.46199      9.2 1.996e+04 1.413e-08
 29.47196      8.7 1.921e+04 1.167e-08
 29.48193      8.8 1.884e+04 1.035e-08
 29.49693      8.8 1.817e+04 8.104e-09
 29.51692      9.2 1.728e+04 6.487e-09
 29.53686      9.7 1.626e+04 5.077e-09
 29.55203     10.3 1.528e+04 3.984e-09
 29.56200     10.3 1.510e+04 3.436e-09
 29.57673     11.1 1.442e+04 2.591e-09
 29.59667     12.1 1.406e+04 1.917e-09
 29.61661     12.8 1.376e+04 1.371e-09
 29.63655     13.3 1.346e+04 1.085e-09
 29.65335     13.6 1.319e+04 8.629e-10
 29.66204     14.6 1.391e+04 1.768e-09
 29.66517     14.3 1.379e+04 8.676e-10
 29.67642     14.7 1.386e+04 8.366e-10
 29.69636     14.7 1.408e+04 9.916e-10
 29.71630     14.9 1.452e+04 1.136e-09
 29.73623     15.3 1.511e+04 1.517e-09
 29.75617     15.1 1.549e+04 1.914e-09
 29.76833     15.2 1.590e+04 2.644e-09
 29.77830     15.1 1.502e+04 8.907e-10
 29.79605     14.7 1.527e+04 1.280e-09
 29.81599     15.4 1.594e+04 2.088e-09
 29.83592     15.6 1.648e+04 3.078e-09
 29.85586     17.0 1.720e+04 4.683e-09
 29.87150     17.8 1.764e+04 6.078e-09
 29.88147     17.1 1.663e+04 2.673e-09
 29.89111     17.9 1.703e+04 3.976e-09
 29.90107     19.5 1.816e+04 7.248e-09
 29.91568     20.1 1.837e+04 8.872e-09
 29.93561     20.7 1.844e+04 1.101e-08
 29.95555     21.8 1.850e+04 1.346e-08
 29.97466     23.6 1.901e+04 1.703e-08
 29.98463     24.1 1.876e+04 1.363e-08
 29.99039     23.5 1.976e+04 1.305e-08
 30.00031     21.6 2.147e+04 1.481e-08
 30.00988     15.9 2.703e+04 2.440e-08
 30.01487     18.5 2.698e+04 3.656e-08
 30.02025     10.3 2.642e+04 1.132e-07
 30.03022      4.7 2.238e+04 4.262e-07
 30.03612      1.3 2.071e+04 8.860e-07
 30.04110     -0.2 2.049e+04 8.520e-07
 30.05016     -1.1 2.035e+04 1.085e-06
 30.06013     -3.5 2.073e+04 9.168e-07
 30.07010     -6.5 2.285e+04 3.475e-07
 30.08007    -10.5 2.522e+04 9.899e-08
 30.08770    -14.2 2.498e+04 3.719e-08
 30.09268    -14.6 2.411e+04 2.604e-08
 30.10000    -16.1 2.209e+04 1.886e-08
 30.11501    -16.4 2.085e+04 1.324e-08
 30.12886    -16.9 1.949e+04 1.059e-08
 30.13882    -18.2 1.974e+04 1.298e-08
 30.15493    -18.0 1.831e+04 9.474e-09
 30.17487    -17.9 1.704e+04 7.163e-09
 30.19096    -17.0 1.583e+04 5.301e-09
 30.20093    -17.3 1.596e+04 5.671e-09
 30.21475    -16.4 1.518e+04 4.610e-09
 30.23468    -15.7 1.428e+04 3.388e-09
 30.25462    -15.3 1.337e+04 2.302e-09
 30.27456    -15.0 1.257e+04 1.577e-09
 30.29413    -14.9 1.200e+04 1.160e-09
 30.31416    -13.7 1.251e+04 1.436e-09
 30.34454    -13.0 1.146e+04 9.068e-10
 30.36670    -12.0 1.074e+04 6.257e-10
 30.37658    -13.3 1.079e+04 6.365e-10
 30.39419    -12.5 1.064e+04 5.714e-10
 30.40726    -11.8 1.043e+04 5.298e-10
 30.41723    -11.6 1.043e+04 5.192e-10
 30.43406    -10.7 1.028e+04 4.919e-10
 30.45400     -9.6 1.017e+04 4.727e-10
 30.47394     -8.6 1.021e+04 4.761e-10
 30.50056     -7.9 1.027e+04 4.914e-10
 30.52059     -7.6 1.021e+04 4.359e-10
 30.54392     -5.3 1.017e+04 4.436e-10
 30.58379     -3.5 1.046e+04 4.840e-10
 30.60445     -1.7 1.074e+04 5.955e-10
 30.61433     -3.3 1.092e+04 6.070e-10
 30.63344     -2.8 1.123e+04 6.685e-10
 30.65338     -2.8 1.165e+04 8.533e-10
 30.67332     -2.6 1.211e+04 1.111e-09
 30.69326     -2.1 1.247e+04 1.399e-09
 30.71319     -1.3 1.256e+04 1.592e-09
 30.72673     -0.6 1.251e+04 1.617e-09
 30.73669     -0.3 1.263e+04 1.765e-09
 30.75307      0.6 1.234e+04 1.689e-09
 30.77301      1.6 1.184e+04 1.471e-09
 30.79295      2.5 1.129e+04 1.169e-09
 30.81288      3.4 1.082e+04 8.957e-10
 30.82989      4.4 1.047e+04 6.503e-10
 30.83918      4.6 1.055e+04 6.559e-10
 30.84211      2.8 1.043e+04 3.296e-10
 30.86283      2.1 9.862e+03 1.929e-10
 30.90280      3.2 9.235e+03 1.188e-10
 30.93325      4.1 9.107e+03 1.060e-10
 30.95319      4.6 9.079e+03 1.090e-10
 30.98255      5.8 9.306e+03 1.156e-10
 31.02243      6.6 9.641e+03 1.535e-10
 31.06230      7.7 9.943e+03 2.099e-10
 31.10218      8.9 9.985e+03 2.631e-10
 31.13958     10.2 9.893e+03 2.820e-10
 31.15952     11.2 9.938e+03 2.980e-10
 31.18193     12.8 9.744e+03 2.895e-10
 31.22181     14.6 9.638e+03 2.652e-10
 31.26168     16.3 9.600e+03 2.504e-10
 31.29787     18.0 9.696e+03 2.439e-10
 31.31780     16.4 9.941e+03 2.236e-10
 31.34143     18.1 1.032e+04 2.823e-10
 31.36585     20.2 1.060e+04 3.927e-10
 31.38579     21.6 1.018e+04 2.109e-10
 31.42119     23.6 1.035e+04 2.922e-10
 31.46106     25.6 1.048e+04 3.876e-10
 31.50094     27.5 1.057e+04 4.667e-10
 31.54081     29.4 1.065e+04 5.184e-10
 31.57218     31.2 1.056e+04 5.376e-10
 31.59212     32.5 1.052e+04 5.200e-10
 31.62057     34.7 1.056e+04 5.610e-10
 31.65037     36.0 1.055e+04 4.980e-10
 31.67021     36.2 1.050e+04 4.887e-10
 31.70022     38.4 1.054e+04 4.369e-10
 31.74019     39.9 1.033e+04 3.465e-10
 31.77337     41.4 1.000e+04 2.703e-10
 31.79174     40.9 1.000e+04 2.871e-10
 31.79845     41.7 1.022e+04 3.235e-10
 31.81994     43.6 9.886e+03 2.695e-10
 31.85982     46.0 9.624e+03 1.906e-10
 31.89970     48.1 9.517e+03 1.254e-10
 31.93957     49.6 9.477e+03 8.834e-11
 31.97945     51.3 9.308e+03 7.920e-11
 32.00478     53.3 9.326e+03 8.360e-11
 32.02471     53.8 9.417e+03 9.708e-11
 32.05920     55.8 9.454e+03 1.074e-10
 32.09908     57.9 9.553e+03 1.273e-10
 32.13895     60.1 9.686e+03 1.504e-10
 32.17883     62.2 9.821e+03 1.705e-10
 32.21111     64.0 1.005e+04 1.975e-10
 32.23104     64.7 1.003e+04 1.948e-10
 32.24887     66.3 1.036e+04 2.444e-10
 32.26881     65.8 1.046e+04 3.045e-10
 32.29846     67.3 1.077e+04 4.298e-10
 32.33833     69.0 1.114e+04 6.044e-10
 32.37821     70.8 1.147e+04 7.237e-10
 32.41744     72.5 1.146e+04 7.005e-10
 32.43737     73.4 1.172e+04 8.643e-10
 32.45796     75.2 1.161e+04 7.674e-10
 32.48652     76.3 1.128e+04 4.974e-10
 32.49639     76.3 1.142e+04 5.937e-10
 32.50761     76.9 1.124e+04 4.493e-10
 32.52755     77.4 1.101e+04 3.363e-10
 32.54034     77.5 1.088e+04 2.979e-10
 32.55031     78.4 1.094e+04 3.475e-10
 32.56742     78.9 1.071e+04 2.937e-10
 32.58736     79.2 1.058e+04 2.663e-10
 32.60730     79.9 1.046e+04 2.644e-10
 32.62724     80.4 1.043e+04 2.677e-10
 32.64351     80.8 1.041e+04 2.908e-10
 32.65348     81.4 1.040e+04 2.963e-10
 32.66711     81.5 1.062e+04 3.495e-10
 32.68705     81.4 1.095e+04 4.452e-10
 32.70699     81.1 1.136e+04 6.076e-10
 32.72417     80.8 1.175e+04 8.682e-10
 32.73414     80.5 1.204e+04 1.004e-09
 32.74667     80.8 1.229e+04 1.322e-09
 32.75664     81.0 1.253e+04 1.483e-09
 32.76680     81.5 1.282e+04 1.783e-09
 32.78674     82.1 1.280e+04 1.746e-09
 32.80668     82.9 1.261e+04 1.555e-09
 32.82662     83.4 1.226e+04 1.209e-09
 32.84655     83.5 1.184e+04 8.597e-10
 32.85981     83.4 1.144e+04 6.170e-10
 32.86978     83.7 1.185e+04 8.060e-10
 32.88643     83.5 1.144e+04 6.122e-10
 32.90637     83.4 1.117e+04 5.308e-10
 32.92630     83.7 1.097e+04 5.101e-10
 32.94624     84.5 1.094e+04 5.160e-10
 32.96193     85.5 1.090e+04 5.135e-10
 32.96869     85.5 1.111e+04 7.112e-10
 32.97294     85.7 1.157e+04 1.045e-09
 32.98612     87.0 1.157e+04 1.039e-09
 33.00606     88.3 1.151e+04 9.880e-10
 33.02599     89.6 1.137e+04 8.823e-10
 33.04593     90.9 1.119e+04 7.361e-10
 33.06587     91.8 1.101e+04 6.021e-10
 33.07611     92.7 1.075e+04 4.696e-10
 33.08607     93.4 1.118e+04 6.737e-10
 33.10575     94.1 1.091e+04 5.345e-10
 33.12568     94.8 1.065e+04 4.364e-10
 33.14562     95.2 1.048e+04 3.929e-10
 33.16556     96.3 1.032e+04 3.632e-10
 33.17927     96.8 1.030e+04 3.581e-10
 33.18924     97.7 1.046e+04 4.251e-10
 33.19968     98.8 1.047e+04 4.280e-10
 33.20964     99.4 1.058e+04 5.049e-10
 33.22537    100.5 1.060e+04 5.130e-10
 33.24531    101.7 1.069e+04 5.420e-10
 33.26525    102.8 1.086e+04 5.959e-10
 33.28244    103.8 1.104e+04 6.665e-10
 33.29240    104.4 1.121e+04 7.312e-10
 33.30513    105.5 1.134e+04 8.021e-10
 33.32506    106.7 1.142e+04 8.778e-10
 33.34500    108.1 1.157e+04 9.557e-10
 33.36494    109.3 1.182e+04 1.047e-09
 33.38488    109.5 1.231e+04 1.225e-09
 33.39557    109.0 1.360e+04 1.841e-09
 33.40554    109.8 1.411e+04 2.148e-09
 33.41972    108.5 1.510e+04 3.010e-09
 33.42964    108.2 1.540e+04 3.303e-09
 33.43733    106.7 1.683e+04 4.611e-09
 33.44231    107.6 1.669e+04 4.215e-09
 33.44705    105.0 1.869e+04 7.027e-09
 33.45204    105.0 1.971e+04 8.628e-09
 33.45955    102.7 2.092e+04 1.664e-08
 33.46952    101.5 2.133e+04 3.091e-08
 33.47948    101.0 2.151e+04 5.313e-08
 33.48945    100.6 2.172e+04 7.893e-08
 33.49864     99.5 2.255e+04 8.818e-08
 33.50362    101.1 2.229e+04 1.725e-07
 33.50939     98.8 2.287e+04 1.552e-07
 33.51936     94.2 2.460e+04 9.839e-08
 33.52933     87.1 2.613e+04 5.090e-08
 33.53930     79.4 2.442e+04 3.047e-08
 33.54927     73.4 2.100e+04 2.390e-08
 33.55520     71.0 1.885e+04 2.022e-08
 33.55716     70.5 1.894e+04 2.138e-08
 33.56119     70.3 1.889e+04 2.289e-08
 33.56921     70.0 1.808e+04 1.994e-08
 33.57917     70.3 1.713e+04 1.571e-08
 33.58914     71.2 1.635e+04 1.214e-08
 33.59911     71.8 1.598e+04 8.643e-09
 33.60679     71.5 1.588e+04 6.343e-09
 33.61177     72.3 1.617e+04 7.710e-09
 33.61905     71.6 1.594e+04 4.911e-09
 33.62902     71.1 1.577e+04 4.278e-09
 33.64402     69.7 1.561e+04 3.004e-09
 33.66401     65.7 1.448e+04 1.766e-09
 33.67518     62.0 1.378e+04 1.518e-09
 33.68515     60.4 1.350e+04 1.216e-09
 33.70388     57.7 1.384e+04 1.478e-09
 33.71503     56.1 1.446e+04 2.093e-09
 33.71997     53.6 1.738e+04 3.326e-09
 33.72871     52.7 1.794e+04 4.358e-09
 33.73868     51.0 1.867e+04 6.628e-09
 33.74865     50.5 1.891e+04 8.997e-09
 33.75862     49.9 1.923e+04 1.233e-08
 33.76652     50.3 1.944e+04 1.579e-08
 33.77150     50.4 2.003e+04 2.501e-08
 33.77855     50.7 2.068e+04 2.862e-08
 33.78852     50.6 2.119e+04 2.918e-08
 33.79395     50.8 2.135e+04 2.476e-08
 33.79894     50.5 2.089e+04 1.801e-08
 33.80846     50.2 2.089e+04 1.627e-08
 33.81815     50.1 2.061e+04 1.513e-08
 33.82817     48.1 2.042e+04 1.272e-08
 33.84345     46.3 1.906e+04 8.305e-09
 33.86339     45.3 1.769e+04 5.606e-09
 33.88333     44.9 1.652e+04 4.083e-09
 33.90296     44.6 1.557e+04 3.259e-09
 33.91293     44.2 1.528e+04 2.796e-09
 33.92136     44.8 1.471e+04 2.621e-09
 33.93133     44.0 1.413e+04 2.295e-09
 33.94314     45.3 1.390e+04 2.307e-09
 33.96308     46.8 1.362e+04 2.234e-09
 33.98302     48.4 1.344e+04 2.074e-09
 34.00295     49.8 1.320e+04 1.795e-09
 34.02289     51.1 1.289e+04 1.510e-09
 34.03450     52.2 1.272e+04 1.295e-09
 34.04447     52.1 1.272e+04 1.365e-09
 34.06277     52.9 1.259e+04 1.179e-09
 34.08271     53.8 1.246e+04 1.050e-09
 34.10264     54.8 1.240e+04 1.026e-09
 34.12258     55.5 1.245e+04 1.047e-09
 34.13766     56.0 1.247e+04 1.101e-09
 34.14582     56.4 1.246e+04 1.104e-09
 34.15068     56.8 1.210e+04 9.875e-10
 34.16246     57.7 1.219e+04 1.039e-09
 34.18239     58.6 1.231e+04 1.137e-09
 34.20233     59.7 1.243e+04 1.212e-09
 34.22227     60.8 1.257e+04 1.215e-09
 34.24083     61.8 1.263e+04 1.189e-09
 34.25080     62.0 1.246e+04 1.043e-09
 34.26215     62.9 1.255e+04 9.912e-10
 34.28208     63.5 1.256e+04 9.348e-10
 34.30202     64.0 1.244e+04 9.031e-10
 34.32196     64.4 1.243e+04 9.165e-10
 34.34190     64.6 1.243e+04 9.839e-10
 34.35396     65.1 1.244e+04 1.093e-09
 34.36393     65.5 1.264e+04 1.143e-09
 34.37846     66.0 1.266e+04 1.344e-09
 34.38843     67.0 1.241e+04 9.270e-10
 34.40171     67.7 1.263e+04 1.122e-09
 34.42165     67.8 1.300e+04 1.407e-09
 34.44159     67.2 1.360e+04 1.933e-09
 34.45713     67.0 1.415e+04 2.879e-09
 34.46709     67.0 1.473e+04 3.872e-09
 34.48146     67.6 1.490e+04 5.008e-09
 34.50140     68.5 1.488e+04 5.336e-09
 34.52134     69.5 1.499e+04 5.466e-09
 34.54128     69.7 1.570e+04 5.292e-09
 34.56029     68.8 1.728e+04 4.956e-09
 34.57026     68.7 1.767e+04 5.708e-09
 34.58115     66.8 1.803e+04 4.382e-09
 34.60109     64.7 1.628e+04 3.237e-09
 34.61621     63.3 1.399e+04 2.486e-09
 34.62618     66.2 1.677e+04 4.163e-09
 34.64097     65.0 1.470e+04 2.995e-09
 34.66091     64.5 1.335e+04 2.228e-09
 34.67342     64.5 1.283e+04 1.675e-09
 34.68339     63.6 1.246e+04 1.333e-09
 34.70078     63.8 1.217e+04 1.047e-09
 34.73079     64.6 1.217e+04 9.148e-10
 34.76682     63.5 1.157e+04 7.037e-10
 34.78675     63.6 1.108e+04 5.476e-10
 34.81063     63.4 1.079e+04 5.164e-10
 34.85051     63.3 1.055e+04 4.565e-10
 34.89039     62.2 1.045e+04 3.683e-10
 34.92020     60.4 1.056e+04 3.568e-10
 34.94004     58.6 1.042e+04 3.680e-10
 34.95997     55.7 1.062e+04 4.467e-10
 34.97991     53.0 1.097e+04 6.012e-10
 34.99289     51.6 1.098e+04 7.654e-10
 35.00286     53.1 1.078e+04 6.948e-10
 35.01979     52.6 1.076e+04 8.291e-10
 35.03973     52.3 1.083e+04 8.668e-10
 35.05966     51.8 1.103e+04 8.670e-10
 35.07960     50.8 1.115e+04 8.501e-10
 35.09171     50.1 1.106e+04 8.187e-10
 35.09819     49.4 1.137e+04 1.095e-09
 35.10602     50.5 1.138e+04 1.100e-09
 35.11948     50.2 1.133e+04 1.128e-09
 35.13942     50.2 1.139e+04 1.121e-09
 35.15935     49.9 1.153e+04 1.150e-09
 35.17929     49.6 1.173e+04 1.206e-09
 35.19922     49.1 1.192e+04 1.333e-09
 35.21916     49.6 1.209e+04 1.487e-09
 35.23911     49.6 1.232e+04 1.712e-09
 35.25904     50.1 1.244e+04 1.870e-09
 35.27898     50.5 1.245e+04 1.875e-09
 35.29892     51.5 1.227e+04 1.732e-09
 35.31235     52.2 1.203e+04 1.451e-09
 35.32232     52.7 1.205e+04 1.447e-09
 35.32946     52.9 1.167e+04 1.109e-09
 35.33943     53.0 1.205e+04 1.296e-09
 35.35873     53.0 1.155e+04 9.264e-10
 35.37867     52.5 1.102e+04 6.790e-10
 35.39861     52.3 1.049e+04 5.282e-10
 35.41552     52.2 1.017e+04 4.543e-10
 35.42549     52.4 1.022e+04 4.699e-10
 35.43848     52.6 1.004e+04 4.279e-10
 35.45842     53.2 9.974e+03 4.219e-10
 35.47836     53.8 9.898e+03 4.226e-10
 35.49830     54.3 9.859e+03 4.323e-10
 35.51824     55.1 9.780e+03 4.269e-10
 35.52865     55.5 9.805e+03 4.385e-10
 35.53862     55.6 1.001e+04 4.844e-10
 35.55724     56.3 9.953e+03 4.845e-10
 35.56721     55.8 1.039e+04 6.782e-10
 35.57805     56.5 1.042e+04 7.283e-10
 35.59799     57.3 1.039e+04 7.394e-10
 35.61793     58.2 1.033e+04 7.273e-10
 35.63182     59.4 1.017e+04 6.774e-10
 35.64178     59.2 1.046e+04 7.839e-10
 35.65780     60.1 1.023e+04 6.958e-10
 35.67774     61.2 9.936e+03 5.770e-10
 35.69768     62.0 9.731e+03 4.841e-10
 35.71762     62.9 9.625e+03 4.157e-10
 35.73498     63.0 9.632e+03 4.096e-10
 35.74495     62.9 9.616e+03 4.140e-10
 35.76756     64.4 9.402e+03 3.497e-10
 35.80753     66.2 9.200e+03 3.034e-10
 35.83834     68.4 9.136e+03 2.915e-10
 35.85828     67.7 9.364e+03 3.543e-10
 35.88728     69.9 9.397e+03 3.590e-10
 35.92716     72.0 9.438e+03 3.623e-10
 35.96704     73.9 9.444e+03 3.579e-10
 36.00691     75.6 9.442e+03 3.523e-10
 36.03294     77.3 9.481e+03 3.529e-10
 36.05076     77.9 8.928e+03 2.186e-10
 36.06461     76.3 9.257e+03 2.767e-10
 36.08666     77.6 9.365e+03 2.980e-10
 36.12654     79.0 9.592e+03 3.540e-10
 36.16641     80.6 9.823e+03 4.523e-10
 36.20629     81.8 1.030e+04 6.470e-10
 36.24617     83.3 1.066e+04 8.241e-10
 36.27094     84.8 1.081e+04 8.554e-10
 36.29088     83.4 1.095e+04 8.715e-10
 36.32592     84.9 1.076e+04 7.579e-10
 36.36579     86.6 1.051e+04 5.856e-10
 36.40567     88.1 1.026e+04 4.134e-10
 36.44555     89.4 1.002e+04 2.878e-10
 36.47727     90.4 9.761e+03 2.169e-10
 36.49721     89.1 9.535e+03 1.814e-10
 36.50844     90.5 9.281e+03 1.725e-10
 36.52838     91.0 9.001e+03 1.628e-10
 36.56517     92.8 8.952e+03 1.636e-10
 36.60505     94.8 8.918e+03 1.618e-10
 36.64493     96.9 8.916e+03 1.611e-10
 36.68360     98.9 8.934e+03 1.623e-10
 36.70354     98.3 9.030e+03 1.844e-10
 36.72468    100.1 9.109e+03 1.892e-10
 36.76455    101.8 9.248e+03 2.016e-10
 36.80443    103.3 9.439e+03 2.267e-10
 36.84430    104.7 9.618e+03 2.610e-10
 36.88418    106.0 9.637e+03 2.731e-10
 36.90987    107.4 9.602e+03 2.678e-10
 36.92980    106.6 9.802e+03 3.048e-10
 36.96393    108.2 9.641e+03 2.703e-10
 37.00381    109.7 9.302e+03 2.006e-10
 37.04368    110.6 9.089e+03 1.616e-10
 37.08356    111.5 9.112e+03 1.644e-10
 37.11620    112.2 9.316e+03 1.939e-10
 37.13613    111.4 9.488e+03 2.169e-10
 37.16331    111.9 9.840e+03 2.933e-10
 37.20319    112.1 1.012e+04 3.808e-10
 37.22923    112.1 1.023e+04 4.228e-10
 37.23910    111.9 1.023e+04 4.248e-10
 37.25284    112.3 1.033e+04 4.572e-10
 37.27277    112.6 1.051e+04 4.926e-10
 37.29271    112.4 1.068e+04 5.212e-10
 37.31265    112.1 1.085e+04 5.512e-10
 37.33230    111.5 1.100e+04 5.955e-10
 37.34227    111.2 1.091e+04 5.638e-10
 37.35253    110.6 1.107e+04 6.269e-10
 37.37246    109.9 1.123e+04 7.136e-10
 37.39240    109.2 1.136e+04 8.005e-10
 37.41234    108.8 1.144e+04 8.605e-10
 37.43941    107.3 1.143e+04 8.381e-10
 37.45944    108.0 1.208e+04 1.306e-09
 37.48232    106.9 1.181e+04 1.104e-09
 37.52219    105.8 1.112e+04 7.007e-10
 37.54879    104.4 1.031e+04 3.769e-10
 37.56873    103.5 9.942e+03 2.711e-10
 37.60195    101.5 9.054e+03 1.373e-10
 37.64182    100.7 8.901e+03 1.264e-10
 37.68170    100.6 8.894e+03 1.310e-10
 37.72157    100.7 8.974e+03 1.577e-10
 37.75512    101.1 9.185e+03 2.098e-10
 37.77506    101.2 9.176e+03 2.087e-10
 37.80133    102.0 9.445e+03 2.759e-10
 37.84120    102.7 9.680e+03 3.349e-10
 37.86816    102.8 9.708e+03 3.458e-10
 37.87803    102.8 9.713e+03 3.547e-10
 37.89085    103.4 9.705e+03 3.599e-10
 37.91079    104.0 9.779e+03 3.787e-10
 37.92478    104.2 1.000e+04 4.245e-10
 37.93475    104.1 9.732e+03 3.491e-10
 37.95066    104.1 9.865e+03 3.816e-10
 37.97060    103.8 1.023e+04 4.703e-10
 37.98120    102.8 1.109e+04 7.352e-10
 37.99117    102.8 1.115e+04 7.777e-10
 38.01048    102.7 1.168e+04 1.038e-09
 38.04048    103.1 1.242e+04 1.509e-09
 38.07039    102.8 1.296e+04 1.978e-09
 38.08436    102.7 1.309e+04 2.062e-09
 38.09433    103.0 1.296e+04 1.896e-09
 38.12023    103.0 1.297e+04 1.790e-09
 38.15014    101.8 1.264e+04 1.475e-09
 38.16253    100.9 1.227e+04 1.285e-09
 38.17250    101.8 1.248e+04 1.465e-09
 38.18753    101.2 1.222e+04 1.381e-09
 38.19749    101.2 1.193e+04 1.167e-09
 38.20986    101.2 1.183e+04 1.203e-09
 38.22980    101.4 1.179e+04 1.215e-09
 38.24973    101.8 1.175e+04 1.187e-09
 38.26967    102.4 1.169e+04 1.121e-09
 38.28961    103.0 1.158e+04 1.023e-09
 38.30066    103.4 1.144e+04 9.054e-10
 38.31063    103.8 1.144e+04 9.133e-10
 38.32949    104.0 1.125e+04 7.984e-10
 38.34942    104.1 1.102e+04 6.947e-10
 38.36936    104.2 1.077e+04 6.094e-10
 38.38930    104.2 1.054e+04 5.374e-10
 38.40028    104.3 1.035e+04 4.781e-10
 38.40484    105.0 1.041e+04 4.900e-10
 38.41379    105.7 1.040e+04 4.911e-10
 38.42918    105.8 1.020e+04 4.379e-10
 38.44911    106.1 1.005e+04 4.023e-10
 38.46905    106.7 1.005e+04 3.978e-10
 38.48899    107.5 1.007e+04 4.067e-10
 38.50699    108.5 1.011e+04 4.248e-10
 38.51696    109.0 9.964e+03 3.786e-10
 38.52886    110.1 1.004e+04 3.986e-10
 38.54880    111.4 1.022e+04 4.354e-10
 38.56874    112.6 1.064e+04 5.098e-10
 38.58868    112.8 1.135e+04 6.514e-10
 38.60862    113.0 1.254e+04 9.119e-10
 38.62012    113.3 1.419e+04 1.440e-09
 38.62960    114.1 1.305e+04 1.040e-09
 38.63803    113.1 1.677e+04 2.616e-09
 38.64849    114.6 1.853e+04 5.125e-09
 38.66340    115.1 1.932e+04 6.010e-09
 38.67161    115.1 1.984e+04 6.523e-09
 38.67659    115.6 1.961e+04 5.919e-09
 38.68329    115.4 2.043e+04 6.982e-09
 38.69326    115.2 2.127e+04 8.750e-09
 38.70322    115.1 2.192e+04 1.113e-08
 38.71319    115.0 2.247e+04 1.412e-08
 38.72316    114.7 2.317e+04 1.726e-08
 38.73313    114.4 2.424e+04 1.927e-08
 38.74310    113.6 2.477e+04 2.162e-08
 38.75183    112.4 2.516e+04 2.302e-08
 38.75681    114.4 2.388e+04 6.591e-08
 38.76304    112.2 2.496e+04 7.149e-08
 38.77301    109.2 2.554e+04 8.162e-08
 38.77976    106.2 2.556e+04 9.989e-08
 38.78474    105.6 2.568e+04 9.964e-08
 38.79294    102.8 2.546e+04 1.189e-07
 38.80291     99.9 2.544e+04 1.200e-07
 38.81288     97.5 2.536e+04 1.073e-07
 38.82285     95.5 2.595e+04 8.168e-08
 38.83134     93.8 2.704e+04 5.670e-08
 38.83632     94.5 2.720e+04 4.846e-08
 38.84279     92.8 2.826e+04 3.257e-08
 38.85276     90.9 2.811e+04 2.379e-08
 38.86273     89.2 2.676e+04 1.864e-08
 38.87070     87.9 2.483e+04 1.534e-08
 38.87569     87.2 2.286e+04 2.130e-08
 38.88267     87.3 2.245e+04 1.744e-08
 38.88791     87.7 2.209e+04 1.428e-08
 38.89289     88.6 2.213e+04 1.454e-08
 38.90260     89.2 2.167e+04 1.177e-08
 38.91257     89.5 2.087e+04 9.166e-09
 38.92254     89.8 1.970e+04 6.827e-09
 38.93251     89.7 1.874e+04 5.431e-09
 38.93949     90.0 1.780e+04 4.064e-09
 38.94447     91.4 1.838e+04 4.693e-09
 38.95245     91.6 1.798e+04 4.087e-09
 38.96242     92.5 1.711e+04 3.140e-09
 38.97239     92.7 1.676e+04 2.938e-09
 38.98236     92.9 1.655e+04 2.110e-09
 38.98958     91.6 2.242e+04 1.713e-09
 38.99331     92.8 1.614e+04 1.941e-09
 38.99606     94.8 1.573e+04 2.105e-09
 39.00229     94.0 2.134e+04 1.574e-09
 39.01226     88.6 4.854e+04 9.781e-10
 39.02223     80.8 8.592e+04 7.089e-10
 39.03220     84.4 7.041e+04 2.124e-09
 39.04217     89.0 4.584e+04 1.091e-08
 39.04764     91.7 4.419e+04 1.208e-08
 39.05262     92.4 2.982e+04 7.572e-08
 39.06211     93.4 3.330e+04 5.284e-08
 39.07208     92.7 3.797e+04 3.524e-08
 39.08204     90.1 4.387e+04 2.229e-08
 39.09201     85.5 4.540e+04 2.103e-08
 39.09922     81.9 4.198e+04 2.824e-08
 39.10421     82.3 3.712e+04 6.337e-08
 39.10845     80.2 3.544e+04 7.458e-08
 39.11344     86.5 4.963e+04 1.654e-08
 39.12192     83.9 4.295e+04 3.032e-08
 39.13189     82.3 3.848e+04 5.599e-08
 39.14186     80.3 3.763e+04 8.807e-08
 39.15080     77.0 3.782e+04 1.292e-07
 39.15579     72.7 3.909e+04 1.544e-07
 39.16180     65.6 4.094e+04 1.713e-07
 39.17177     58.1 4.262e+04 1.464e-07
 39.18173     48.3 4.458e+04 9.879e-08
 39.19170     37.6 4.466e+04 6.367e-08
 39.20167     22.8 4.072e+04 3.760e-08
 39.20737      8.6 3.095e+04 2.580e-08
 39.21236      0.3 2.648e+04 2.466e-08
 39.22161     -5.5 2.608e+04 2.055e-08
 39.22733    -10.6 2.603e+04 1.566e-08
 39.23231    -14.7 2.580e+04 1.507e-08
 39.24155    -19.9 2.428e+04 1.077e-08
 39.25152    -22.0 2.369e+04 9.026e-09
 39.25900    -22.8 2.152e+04 7.191e-09
 39.26902    -28.9 2.155e+04 4.744e-09
 39.28651    -29.8 2.014e+04 3.037e-09
 39.30644    -28.3 1.806e+04 1.882e-09
 39.32638    -26.7 1.523e+04 1.273e-09
 39.34132    -25.3 1.333e+04 9.797e-10
 39.35128    -30.0 1.611e+04 5.610e-10
 39.36222    -28.3 1.256e+04 4.494e-10
 39.37219    -31.0 1.134e+04 4.438e-10
 39.38620    -28.8 1.104e+04 3.976e-10
 39.40613    -26.7 1.094e+04 3.806e-10
 39.42607    -24.6 1.092e+04 3.763e-10
 39.44601    -22.5 1.106e+04 3.784e-10
 39.46538    -20.6 1.116e+04 3.815e-10
 39.47535    -22.0 1.096e+04 4.041e-10
 39.48589    -20.6 1.099e+04 3.972e-10
 39.50582    -19.4 1.109e+04 3.927e-10
 39.52576    -18.5 1.102e+04 3.862e-10
 39.54570    -17.6 1.104e+04 3.852e-10
 39.56564    -17.0 1.101e+04 3.828e-10
 39.57851    -15.6 1.107e+04 3.966e-10
 39.58197    -16.3 1.078e+04 3.704e-10
 39.58903    -17.5 1.074e+04 3.749e-10
 39.60551    -16.8 1.072e+04 3.702e-10
 39.62545    -15.5 1.080e+04 3.761e-10
 39.64539    -14.9 1.069e+04 3.671e-10
 39.66533    -13.8 1.070e+04 3.701e-10
 39.68168    -13.1 1.069e+04 3.747e-10
 39.69165    -13.7 1.061e+04 3.662e-10
 39.70520    -12.6 1.072e+04 4.077e-10
 39.72514    -11.7 1.099e+04 4.588e-10
 39.74508    -10.7 1.139e+04 5.446e-10
 39.76502    -10.1 1.157e+04 6.077e-10
 39.78484     -8.8 1.211e+04 7.802e-10
 39.79481     -9.0 1.186e+04 7.058e-10
 39.80489     -8.6 1.190e+04 7.492e-10
 39.81682     -7.5 1.227e+04 8.943e-10
 39.82679     -7.8 1.207e+04 8.051e-10
 39.84477     -7.0 1.233e+04 8.973e-10
 39.86471     -6.0 1.260e+04 1.006e-09
 39.88464     -5.5 1.263e+04 1.054e-09
 39.89798     -4.7 1.272e+04 1.133e-09
 39.90795     -4.8 1.218e+04 9.253e-10
 39.92452     -4.0 1.218e+04 9.732e-10
 39.94446     -3.1 1.213e+04 1.014e-09
 39.96440     -2.1 1.203e+04 1.026e-09
 39.98433     -0.9 1.184e+04 1.001e-09
 40.00114      0.5 1.166e+04 9.527e-10
 40.01111      0.5 1.146e+04 9.028e-10
 40.02421      1.7 1.131e+04 8.359e-10
 40.04415      2.6 1.107e+04 7.458e-10
 40.05457      3.5 1.078e+04 6.657e-10
 40.06454      3.9 1.100e+04 7.617e-10
 40.08402      5.2 1.090e+04 7.199e-10
 40.10396      6.2 1.070e+04 6.567e-10
 40.11428      7.7 1.069e+04 6.338e-10
 40.12425      8.1 1.063e+04 5.797e-10
 40.14384      8.8 1.048e+04 5.031e-10
 40.16378      9.3 1.024e+04 4.436e-10
 40.18371      9.6 1.005e+04 4.121e-10
 40.20365      9.9 9.956e+03 4.043e-10
 40.21744     10.5 9.952e+03 4.248e-10
 40.22741      9.6 9.932e+03 4.214e-10
 40.24353     10.4 1.004e+04 4.644e-10
 40.26347     11.4 1.007e+04 5.024e-10
 40.28235     12.6 1.004e+04 5.217e-10
 40.29232     12.6 1.005e+04 5.233e-10
 40.30334     13.8 1.002e+04 5.271e-10
 40.32061     15.2 1.010e+04 5.279e-10
 40.33058     14.5 1.021e+04 5.910e-10
 40.34322     15.6 1.035e+04 6.019e-10
 40.36315     16.4 1.039e+04 6.145e-10
 40.38309     17.2 1.034e+04 6.144e-10
 40.40303     18.4 1.035e+04 6.299e-10
 40.42297     19.7 1.038e+04 6.480e-10
 40.43374     21.2 1.028e+04 6.214e-10
 40.44371     20.9 1.058e+04 7.380e-10
 40.46284     22.6 1.049e+04 6.908e-10
 40.48278     23.8 1.039e+04 6.491e-10
 40.50272     24.7 1.036e+04 5.809e-10
 40.52010     25.4 1.044e+04 5.817e-10
 40.53007     24.8 1.091e+04 7.356e-10
 40.53691     24.9 1.135e+04 8.612e-10
 40.54688     24.3 1.209e+04 1.186e-09
 40.56253     24.7 1.237e+04 1.386e-09
 40.58247     25.7 1.243e+04 1.606e-09
 40.60241     27.2 1.251e+04 1.819e-09
 40.62235     28.9 1.260e+04 1.968e-09
 40.64007     30.5 1.271e+04 2.010e-09
 40.65004     30.0 1.312e+04 2.324e-09
 40.66222     31.2 1.304e+04 2.170e-09
 40.68216     32.1 1.300e+04 2.060e-09
 40.70210     32.7 1.291e+04 1.945e-09
 40.72204     33.4 1.280e+04 1.866e-09
 40.74198     34.2 1.290e+04 1.915e-09
 40.75321     35.0 1.301e+04 2.012e-09
 40.75911     34.3 1.315e+04 2.108e-09
 40.76782     34.0 1.283e+04 1.891e-09
 40.78185     34.8 1.290e+04 1.980e-09
 40.80179     36.0 1.295e+04 2.128e-09
 40.82173     37.4 1.297e+04 2.263e-09
 40.84167     39.0 1.290e+04 2.256e-09
 40.85637     40.4 1.285e+04 2.236e-09
 40.86634     40.0 1.252e+04 2.082e-09
 40.88154     41.6 1.234e+04 1.923e-09
 40.90148     42.6 1.274e+04 1.876e-09
 40.92142     42.9 1.333e+04 1.896e-09
 40.94136     43.0 1.376e+04 2.022e-09
 40.95953     43.4 1.390e+04 2.189e-09
 40.96950     43.8 1.285e+04 1.504e-09
 40.98123     44.3 1.302e+04 1.628e-09
 40.99560     45.2 1.299e+04 1.731e-09
 41.00557     45.7 1.259e+04 1.443e-09
 41.02111     46.8 1.269e+04 1.581e-09
 41.04104     48.1 1.278e+04 1.743e-09
 41.06098     49.2 1.281e+04 1.813e-09
 41.07267     50.3 1.283e+04 1.931e-09
 41.08264     50.3 1.287e+04 1.771e-09
 41.10086     51.5 1.297e+04 1.978e-09
 41.12080     53.0 1.305e+04 2.123e-09
 41.14073     53.9 1.310e+04 2.188e-09
 41.16067     55.1 1.299e+04 2.049e-09
 41.17593     56.5 1.256e+04 1.629e-09
 41.19597     57.1 1.301e+04 2.058e-09
 41.22358     59.3 1.245e+04 1.580e-09
 41.24352     59.6 1.181e+04 1.153e-09
 41.27053     62.2 1.124e+04 8.765e-10
 41.31040     64.7 1.075e+04 6.551e-10
 41.35028     67.1 1.048e+04 5.278e-10
 41.38236     69.5 1.031e+04 4.564e-10
 41.40230     70.8 9.801e+03 3.713e-10
 41.43003     73.4 9.645e+03 3.256e-10
 41.46991     76.0 9.689e+03 3.157e-10
 41.50978     78.0 9.851e+03 3.351e-10
 41.53959     79.4 9.848e+03 3.320e-10
 41.55943     80.6 1.006e+04 3.731e-10
 41.57937     81.8 1.040e+04 4.718e-10
 41.59846     82.9 1.083e+04 6.300e-10
 41.60843     84.0 1.041e+04 4.713e-10
 41.61924     85.0 1.097e+04 6.533e-10
 41.63918     85.9 1.158e+04 9.003e-10
 41.65912     86.7 1.224e+04 1.218e-09
 41.67906     87.3 1.294e+04 1.609e-09
 41.69888     87.6 1.360e+04 2.042e-09
 41.70885     88.3 1.401e+04 2.452e-09
 41.71160     88.6 1.461e+04 2.953e-09
 41.72157     90.0 1.430e+04 2.616e-09
 41.73887     90.2 1.486e+04 3.099e-09
 41.75881     90.3 1.511e+04 3.291e-09
 41.77875     90.2 1.510e+04 3.249e-09
 41.79869     90.1 1.493e+04 3.101e-09
 41.81476     90.1 1.453e+04 2.787e-09
 41.82473     91.6 1.482e+04 2.905e-09
 41.83856     91.5 1.453e+04 2.667e-09
 41.85850     91.3 1.418e+04 2.389e-09
 41.87844     91.0 1.391e+04 2.130e-09
 41.89838     90.6 1.366e+04 1.925e-09
 41.91793     89.9 1.346e+04 1.726e-09
 41.92790     91.6 1.360e+04 1.762e-09
 41.93663     90.7 1.346e+04 1.615e-09
 41.94660     91.0 1.340e+04 1.532e-09
 41.95819     89.5 1.346e+04 1.549e-09
 41.97813     86.9 1.386e+04 1.697e-09
 41.99807     83.5 1.475e+04 2.224e-09
 42.01800     80.4 1.559e+04 3.131e-09
 42.03106     78.4 1.606e+04 3.969e-09
 42.04103     79.6 1.588e+04 3.613e-09
 42.05788     77.6 1.603e+04 3.731e-09
 42.07782     74.9 1.627e+04 3.531e-09
 42.09776     69.3 1.708e+04 3.631e-09
 42.11769     59.7 1.907e+04 4.508e-09
 42.13423     50.6 1.983e+04 6.970e-09
 42.14419     53.1 1.835e+04 5.019e-09
 42.15757     45.2 2.011e+04 8.073e-09
 42.17438     37.9 2.230e+04 1.281e-08
 42.18435     38.5 2.230e+04 1.252e-08
 42.19745     32.5 2.248e+04 1.712e-08
 42.21738     26.9 2.123e+04 1.319e-08
 42.23732     21.5 1.897e+04 6.600e-09
 42.25726     16.3 1.629e+04 3.508e-09
 42.27720     13.2 1.465e+04 1.906e-09
 42.29713     10.3 1.357e+04 1.088e-09
 42.31707      7.7 1.247e+04 6.831e-10
 42.33701      6.1 1.168e+04 5.117e-10
 42.35052      5.1 1.133e+04 4.540e-10
 42.36049      6.0 1.200e+04 6.100e-10
 42.37689      5.1 1.181e+04 5.720e-10
 42.39682      4.6 1.177e+04 5.787e-10
 42.41214      4.1 1.188e+04 6.377e-10
 42.42210      4.0 1.228e+04 7.583e-10
 42.43670      3.8 1.242e+04 8.605e-10
 42.45369      3.9 1.259e+04 9.833e-10
 42.46366      4.2 1.296e+04 1.086e-09
 42.47658      4.3 1.316e+04 1.225e-09
 42.49651      4.4 1.341e+04 1.395e-09
 42.51645      4.3 1.362e+04 1.585e-09
 42.53639      4.3 1.380e+04 1.781e-09
 42.55633      4.6 1.395e+04 1.954e-09
 42.56682      5.1 1.399e+04 2.030e-09
 42.57679      4.7 1.505e+04 3.002e-09
 42.59620      5.4 1.512e+04 3.114e-09
 42.61614      6.1 1.508e+04 3.065e-09
 42.63608      6.7 1.497e+04 2.777e-09
 42.64989      6.9 1.464e+04 2.375e-09
 42.65985      7.0 1.531e+04 2.992e-09
 42.66999      6.9 1.479e+04 2.505e-09
 42.67996      6.6 1.605e+04 3.732e-09
 42.69589      5.9 1.534e+04 3.170e-09
 42.71583      5.7 1.484e+04 2.945e-09
 42.73577      6.0 1.451e+04 2.863e-09
 42.75571      7.1 1.418e+04 2.787e-09
 42.77315      8.5 1.383e+04 2.579e-09
 42.78312      8.2 1.410e+04 2.752e-09
 42.79558      9.9 1.355e+04 2.168e-09
 42.81552     11.5 1.292e+04 1.607e-09
 42.83546     12.8 1.227e+04 1.107e-09
 42.85540     13.5 1.156e+04 7.411e-10
 42.87533     13.9 1.083e+04 5.136e-10
 42.88629     14.6 1.021e+04 3.895e-10
 42.88862     13.6 1.019e+04 3.909e-10
 42.89761     13.8 1.024e+04 4.069e-10
 42.91521     15.3 9.817e+03 3.367e-10
 42.93515     16.9 9.610e+03 3.073e-10
 42.95509     18.8 9.636e+03 3.080e-10
 42.98509     20.3 9.872e+03 3.312e-10
 43.02506     23.0 9.765e+03 3.141e-10
 43.06494     26.1 9.693e+03 3.192e-10
 43.09281     28.9 9.762e+03 3.375e-10
 43.11275     29.1 9.798e+03 3.380e-10
 43.12558     31.9 9.885e+03 3.747e-10
 43.14552     33.3 9.968e+03 3.878e-10
 43.18457     36.5 1.012e+04 4.339e-10
 43.22444     39.7 1.024e+04 4.667e-10
 43.25425     41.9 1.036e+04 4.936e-10
 43.27409     42.9 1.044e+04 4.997e-10
 43.29403     44.6 1.050e+04 5.255e-10
 43.30892     46.0 1.060e+04 5.387e-10
 43.31888     46.6 1.067e+04 5.113e-10
 43.33391     47.7 1.075e+04 5.625e-10
 43.35317     48.6 1.092e+04 6.100e-10
 43.36314     50.0 1.105e+04 6.450e-10
 43.37378     50.6 1.131e+04 7.169e-10
 43.39372     51.1 1.161e+04 8.148e-10
 43.41208     51.6 1.181e+04 9.489e-10
 43.42205     52.4 1.203e+04 9.528e-10
 43.43360     52.9 1.222e+04 1.118e-09
 43.45354     53.2 1.236e+04 1.199e-09
 43.47347     53.4 1.236e+04 1.196e-09
 43.49341     53.2 1.225e+04 1.127e-09
 43.51335     52.4 1.210e+04 1.019e-09
 43.52521     50.6 1.201e+04 9.171e-10
 43.53518     51.6 1.263e+04 1.214e-09
 43.55322     49.2 1.241e+04 1.062e-09
 43.57316     46.1 1.203e+04 9.227e-10
 43.59092     43.2 1.148e+04 7.561e-10
 43.60089     43.3 1.173e+04 8.114e-10
 43.61304     41.0 1.101e+04 6.556e-10
 43.62838     39.2 1.040e+04 5.182e-10
 43.63835     39.2 1.080e+04 5.718e-10
 43.65291     36.1 1.058e+04 4.563e-10
 43.67285     30.6 1.124e+04 4.775e-10
 43.69279     23.0 1.251e+04 7.263e-10
 43.71273     18.3 1.326e+04 1.330e-09
 43.73154     17.0 1.386e+04 2.185e-09
 43.74151     16.9 1.445e+04 2.614e-09
 43.75260     17.1 1.547e+04 4.007e-09
 43.77254     17.2 1.645e+04 5.385e-09
 43.79248     17.0 1.742e+04 6.509e-09
 43.81242     15.8 1.834e+04 7.349e-09
 43.82867     13.6 1.863e+04 7.804e-09
 43.83864     11.3 1.867e+04 8.434e-09
 43.84468     10.4 1.820e+04 8.557e-09
 43.85465     10.1 1.974e+04 1.408e-08
 43.87223     10.3 1.979e+04 1.532e-08
 43.89217     10.8 1.976e+04 1.559e-08
 43.91211     11.3 1.944e+04 1.387e-08
 43.93205     11.6 1.887e+04 1.095e-08
 43.94784     11.6 1.808e+04 8.330e-09
 43.95781     10.7 1.856e+04 9.479e-09
 43.97192     10.3 1.722e+04 7.012e-09
 43.99186     10.6 1.613e+04 5.592e-09
 44.01180     12.0 1.550e+04 4.901e-09
 44.03174     13.8 1.507e+04 4.374e-09
 44.05101     15.5 1.473e+04 3.891e-09
 44.06098     15.3 1.465e+04 3.642e-09
 44.06642     17.0 1.424e+04 3.041e-09
 44.07639     16.8 1.454e+04 3.556e-09
 44.09155     18.6 1.405e+04 2.928e-09
 44.11149     20.3 1.376e+04 2.441e-09
 44.13142     21.1 1.329e+04 1.948e-09
 44.15136     22.0 1.267e+04 1.594e-09
 44.16414     23.4 1.209e+04 1.313e-09
 44.17411     23.2 1.152e+04 1.005e-09
 44.19124     24.3 1.116e+04 8.731e-10
 44.21118     25.8 1.079e+04 7.337e-10
 44.23111     27.0 1.049e+04 6.506e-10
 44.25105     28.6 1.024e+04 5.613e-10
 44.26731     29.4 1.013e+04 5.394e-10
 44.27728     29.4 9.911e+03 4.752e-10
 44.29093     31.2 9.855e+03 4.596e-10
 44.30417     32.5 9.850e+03 4.663e-10
 44.31414     32.5 9.830e+03 4.693e-10
 44.33080     34.0 9.728e+03 4.752e-10
 44.35074     35.4 9.818e+03 4.930e-10
 44.37047     37.2 9.728e+03 5.442e-10
 44.38044     37.6 9.842e+03 5.505e-10
 44.39062     39.5 9.865e+03 6.018e-10
 44.41056     41.3 9.971e+03 6.110e-10
 44.43049     43.2 9.987e+03 6.292e-10
 44.45043     45.0 9.984e+03 6.403e-10
 44.47037     46.6 9.932e+03 6.373e-10
 44.48361     48.2 9.815e+03 6.033e-10
 44.49357     48.8 9.975e+03 6.286e-10
 44.51025     50.3 9.893e+03 6.038e-10
 44.53018     51.9 9.882e+03 6.002e-10
 44.54192     53.5 9.911e+03 6.139e-10
 44.55189     53.4 1.003e+04 6.595e-10
 44.57006     54.8 9.886e+03 6.106e-10
 44.58677     56.5 9.742e+03 5.722e-10
 44.59674     57.0 1.001e+04 6.842e-10
 44.60994     58.6 9.966e+03 6.471e-10
 44.62987     60.2 9.985e+03 6.619e-10
 44.64981     61.6 1.008e+04 6.771e-10
 44.66975     63.2 1.010e+04 6.842e-10
 44.68969     64.7 1.013e+04 7.035e-10
 44.69990     66.5 1.018e+04 7.232e-10
 44.70987     67.0 1.041e+04 8.623e-10
 44.72956     68.6 1.049e+04 8.797e-10
 44.74950     70.2 1.053e+04 8.875e-10
 44.76944     71.8 1.060e+04 8.989e-10
 44.77967     73.3 1.071e+04 9.215e-10
 44.78964     72.8 1.059e+04 8.263e-10
 44.80307     74.2 1.058e+04 8.265e-10
 44.81304     74.8 1.089e+04 9.964e-10
 44.82925     76.2 1.088e+04 9.847e-10
 44.84919     77.8 1.090e+04 9.906e-10
 44.86913     79.1 1.100e+04 1.023e-09
 44.88907     80.3 1.110e+04 1.055e-09
 44.90623     81.2 1.118e+04 1.080e-09
 44.91620     81.7 1.141e+04 1.196e-09
 44.92894     82.7 1.140e+04 1.190e-09
 44.94888     83.6 1.143e+04 1.208e-09
 44.96882     84.6 1.145e+04 1.221e-09
 44.98876     85.7 1.147e+04 1.232e-09
 45.00745     86.7 1.154e+04 1.253e-09
 45.01742     86.0 1.124e+04 1.104e-09
 45.01937     86.8 1.128e+04 1.112e-09
 45.02934     87.3 1.143e+04 1.203e-09
 45.04857     88.2 1.139e+04 1.181e-09
 45.06851     89.0 1.128e+04 1.125e-09
 45.08845     89.8 1.112e+04 1.049e-09
 45.10838     90.4 1.096e+04 9.751e-10
 45.12253     91.1 1.081e+04 9.094e-10
 45.13250     91.8 1.069e+04 8.597e-10
 45.14826     92.7 1.042e+04 7.682e-10
 45.16820     93.6 1.053e+04 7.424e-10
 45.18814     94.1 1.060e+04 7.529e-10
 45.21583     94.0 1.046e+04 6.999e-10
 45.23586     95.0 1.012e+04 5.573e-10
 45.25811     96.0 9.594e+03 4.527e-10
 45.29799     96.9 9.090e+03 3.790e-10
 45.33787     97.7 8.871e+03 3.236e-10
 45.37774     98.8 8.640e+03 2.743e-10
 45.41762     99.9 8.363e+03 2.331e-10
 45.44219    101.3 8.217e+03 2.128e-10
 45.46213    101.0 8.508e+03 2.706e-10
 45.48315    102.7 8.475e+03 2.692e-10
 45.50309    102.4 8.476e+03 2.609e-10
 45.53724    104.5 8.511e+03 2.772e-10
 45.57712    106.7 8.610e+03 3.010e-10
 45.61700    109.0 8.753e+03 3.363e-10
 45.64852    111.3 8.937e+03 3.818e-10
 45.66846    110.7 9.070e+03 4.109e-10
 45.69675    113.0 9.212e+03 4.453e-10
 45.73662    115.3 9.417e+03 4.941e-10
 45.77650    117.5 9.665e+03 5.537e-10
 45.81638    119.7 9.891e+03 6.083e-10
 45.85485    122.0 1.003e+04 6.401e-10
 45.87479    121.2 9.810e+03 5.737e-10
 45.89613    123.6 9.873e+03 5.846e-10
 45.93600    126.2 9.941e+03 6.053e-10
 45.95865    128.7 1.015e+04 6.592e-10
 45.97859    128.6 9.504e+03 4.287e-10
 46.01576    131.1 9.829e+03 4.760e-10
 46.05563    133.5 1.027e+04 5.324e-10
 46.08112    135.7 1.071e+04 5.875e-10
 46.10106    135.3 1.021e+04 4.693e-10
 46.12532    136.3 1.069e+04 5.765e-10
 46.14516    137.6 1.095e+04 6.867e-10
 46.16509    139.0 1.118e+04 7.964e-10
 46.18409    140.2 1.140e+04 9.077e-10
 46.19406    140.2 1.097e+04 7.749e-10
 46.19621    141.3 1.125e+04 8.877e-10
 46.20618    140.3 1.025e+04 5.248e-10
 46.22491    141.3 1.071e+04 6.522e-10
 46.24485    142.1 1.135e+04 8.420e-10
 46.26478    142.6 1.212e+04 1.126e-09
 46.28472    142.6 1.316e+04 1.613e-09
 46.29722    142.2 1.425e+04 2.350e-09
 46.30719    141.4 1.490e+04 2.944e-09
 46.32460    139.5 1.670e+04 4.556e-09
 46.34454    137.3 1.847e+04 6.337e-09
 46.36447    134.3 1.954e+04 7.473e-09
 46.38441    130.6 1.946e+04 7.947e-09
 46.40039    126.9 1.872e+04 7.816e-09
 46.41036    124.8 1.881e+04 1.083e-08
 46.42399    123.2 1.738e+04 8.225e-09
 46.43396    124.0 1.702e+04 6.742e-09
 46.44423    123.8 1.651e+04 6.427e-09
 46.46416    124.0 1.644e+04 6.665e-09
 46.48410    124.4 1.647e+04 7.079e-09
 46.50355    125.3 1.682e+04 7.742e-09
 46.51352    125.1 1.657e+04 6.466e-09
 46.52398    126.2 1.691e+04 6.386e-09
 46.54392    127.1 1.724e+04 6.248e-09
 46.56385    127.9 1.745e+04 5.806e-09
 46.58379    128.6 1.725e+04 4.995e-09
 46.60373    128.9 1.683e+04 4.117e-09
 46.61669    128.9 1.628e+04 3.438e-09
 46.62666    128.6 1.395e+04 1.585e-09
 46.64360    129.0 1.365e+04 1.580e-09
 46.66174    129.6 1.349e+04 1.590e-09
 46.67171    129.8 1.372e+04 1.640e-09
 46.68348    130.6 1.348e+04 1.513e-09
 46.70342    131.5 1.323e+04 1.341e-09
 46.71985    132.0 1.297e+04 1.199e-09
 46.72982    131.9 1.244e+04 9.044e-10
 46.74329    133.0 1.230e+04 8.515e-10
 46.76323    134.3 1.210e+04 7.593e-10
 46.78317    135.8 1.187e+04 6.537e-10
 46.80311    137.1 1.169e+04 5.735e-10
 46.82302    138.4 1.153e+04 5.175e-10
 46.84295    140.0 1.136e+04 5.148e-10
 46.86292    141.4 1.128e+04 5.112e-10
 46.88286    143.0 1.129e+04 5.134e-10
 46.89949    144.7 1.138e+04 5.249e-10
 46.90946    144.2 1.124e+04 4.826e-10
 46.92274    145.7 1.140e+04 4.998e-10
 46.93615    146.6 1.152e+04 5.144e-10
 46.94612    147.3 1.159e+04 5.746e-10
 46.97268    149.2 1.170e+04 5.936e-10
 47.01265    151.4 1.167e+04 5.812e-10
 47.05253    153.4 1.160e+04 5.345e-10
 47.09240    155.3 1.150e+04 4.589e-10
 47.13228    157.1 1.136e+04 3.864e-10
 47.15264    158.5 1.130e+04 3.387e-10
 47.16252    158.5 1.152e+04 4.432e-10
 47.18193    158.8 1.139e+04 3.960e-10
 47.20187    159.8 1.124e+04 3.593e-10
 47.22180    160.4 1.121e+04 3.548e-10
 47.24174    161.4 1.119e+04 3.554e-10
 47.25561    162.6 1.119e+04 3.701e-10
 47.26558    163.5 1.141e+04 4.574e-10
 47.28162    164.5 1.159e+04 5.105e-10
 47.30156    165.4 1.181e+04 5.897e-10
 47.32149    166.3 1.201e+04 6.878e-10
 47.34143    167.0 1.219e+04 7.987e-10
 47.35878    167.7 1.234e+04 9.146e-10
 47.36875    167.8 1.269e+04 1.085e-09
 47.37499    168.4 1.284e+04 1.227e-09
 47.38496    168.0 1.297e+04 1.355e-09
 47.40125    168.4 1.314e+04 1.564e-09
 47.42118    168.9 1.327e+04 1.754e-09
 47.44112    169.3 1.327e+04 1.883e-09
 47.46106    169.7 1.323e+04 1.898e-09
 47.47191    170.1 1.318e+04 1.886e-09
 47.48188    170.0 1.376e+04 2.429e-09
 47.50094    170.4 1.371e+04 2.417e-09
 47.52087    170.8 1.365e+04 2.379e-09
 47.54081    171.2 1.363e+04 2.309e-09
 47.56075    171.6 1.361e+04 2.212e-09
 47.57508    171.8 1.356e+04 2.098e-09
 47.58505    171.4 1.449e+04 3.201e-09
 47.60063    171.7 1.438e+04 2.977e-09
 47.61274    171.7 1.413e+04 2.610e-09
 47.62271    171.2 1.402e+04 2.483e-09
 47.64050    171.2 1.363e+04 2.030e-09
 47.66044    171.2 1.319e+04 1.645e-09
 47.67824    171.1 1.282e+04 1.332e-09
 47.68821    170.9 1.307e+04 1.501e-09
 47.70032    170.8 1.272e+04 1.222e-09
 47.73032    170.9 1.222e+04 8.974e-10
 47.77029    171.0 1.152e+04 5.602e-10
 47.79157    172.0 1.083e+04 3.376e-10
 47.81151    170.9 1.108e+04 4.399e-10
 47.84072    172.8 1.048e+04 2.857e-10
 47.86066    172.8 1.019e+04 1.955e-10
 47.88992    174.9 9.776e+03 1.664e-10
 47.92980    177.4 9.628e+03 1.620e-10
 47.96967    180.1 9.549e+03 1.608e-10
 47.99790    182.9 9.493e+03 1.613e-10
 48.01784    182.5 9.520e+03 1.713e-10
 48.04942    185.3 9.468e+03 1.661e-10
 48.08930    188.0 9.415e+03 1.584e-10
 48.12918    190.5 9.354e+03 1.476e-10
 48.16905    192.9 9.269e+03 1.331e-10
 48.20423    195.1 9.167e+03 1.177e-10
 48.22417    194.4 9.160e+03 1.194e-10
 48.24880    196.4 9.034e+03 1.060e-10
 48.28868    198.3 8.905e+03 9.960e-11
 48.31622    200.1 8.880e+03 9.950e-11
 48.33616    200.3 9.156e+03 1.446e-10
 48.36843    201.9 9.148e+03 1.482e-10
 48.40831    203.3 9.164e+03 1.610e-10
 48.43050    204.6 9.232e+03 1.865e-10
 48.45044    203.7 9.320e+03 2.177e-10
 48.48806    205.0 9.454e+03 2.612e-10
 48.52794    206.1 9.601e+03 3.103e-10
 48.56781    207.3 9.727e+03 3.523e-10
 48.60769    208.4 9.777e+03 3.668e-10
 48.63683    209.5 9.763e+03 3.610e-10
 48.65677    208.6 9.679e+03 3.442e-10
 48.68744    209.8 9.533e+03 3.046e-10
 48.72731    211.1 9.322e+03 2.558e-10
 48.76719    212.5 9.081e+03 2.091e-10
 48.79172    214.1 8.852e+03 1.715e-10
 48.81166    214.4 8.870e+03 1.730e-10
 48.84316    216.1 8.684e+03 1.460e-10
 48.86310    215.6 8.557e+03 1.393e-10
 48.88682    217.4 8.404e+03 1.235e-10
 48.92669    219.2 8.288e+03 1.107e-10
 48.96657    220.9 8.198e+03 9.973e-11
 49.00645    222.7 8.207e+03 9.817e-11
 49.04632    224.4 8.239e+03 1.005e-10
 49.06943    226.2 8.351e+03 1.111e-10
 49.08937    226.7 8.339e+03 1.129e-10
 49.12607    228.6 8.506e+03 1.330e-10
 49.16595    230.4 8.700e+03 1.585e-10
 49.20582    232.3 8.879e+03 1.823e-10
 49.24570    234.0 9.009e+03 1.968e-10
 49.26722    235.6 9.088e+03 2.019e-10
 49.27734    236.4 8.823e+03 1.671e-10
 49.29570    237.3 8.815e+03 1.681e-10
 49.32545    238.9 8.869e+03 1.721e-10
 49.36533    240.6 8.904e+03 1.738e-10
 49.40520    242.2 8.951e+03 1.769e-10
 49.44508    243.9 9.054e+03 1.876e-10
 49.48209    245.6 9.226e+03 2.100e-10
 49.50203    246.8 9.231e+03 2.112e-10
 49.52483    248.5 9.467e+03 2.463e-10
 49.56471    250.0 9.772e+03 2.927e-10
 49.60458    251.5 1.010e+04 3.487e-10
 49.64446    253.1 1.039e+04 4.041e-10
 49.68434    255.1 1.069e+04 4.633e-10
 49.70826    255.8 1.075e+04 4.776e-10
 49.71813    256.2 1.056e+04 4.327e-10
 49.73256    256.9 1.064e+04 4.484e-10
 49.74263    258.1 1.053e+04 4.042e-10
 49.75402    258.2 1.067e+04 4.411e-10
 49.77386    258.7 1.079e+04 4.754e-10
 49.79380    259.4 1.091e+04 5.116e-10
 49.81132    260.1 1.102e+04 5.508e-10
 49.82129    260.3 1.084e+04 4.971e-10
 49.83367    261.0 1.096e+04 5.400e-10
 49.85361    261.7 1.105e+04 5.836e-10
 49.87355    262.3 1.113e+04 6.281e-10
 49.89349    263.0 1.117e+04 6.654e-10
 49.91343    263.8 1.121e+04 6.937e-10
 49.92446    264.5 1.122e+04 6.960e-10
 49.93443    264.5 1.102e+04 6.322e-10
 49.95330    265.0 1.099e+04 6.215e-10
 49.97031    265.3 1.094e+04 5.945e-10
 49.98028    265.4 1.146e+04 7.935e-10
 49.99318    265.4 1.145e+04 7.869e-10
 50.01312    265.2 1.148e+04 7.913e-10
 50.02762    264.6 1.165e+04 8.290e-10
 50.03759    265.0 1.126e+04 7.028e-10
 50.05299    264.1 1.146e+04 7.453e-10
 50.07293    262.8 1.197e+04 8.851e-10
 50.09287    261.4 1.266e+04 1.162e-09
 50.11281    260.3 1.333e+04 1.599e-09
 50.13079    259.4 1.391e+04 2.164e-09
 50.14076    260.3 1.306e+04 1.467e-09
 50.15268    259.6 1.360e+04 1.954e-09
 50.17262    259.0 1.412e+04 2.490e-09
 50.19256    258.5 1.459e+04 2.992e-09
 50.20806    257.9 1.500e+04 3.285e-09
 50.21803    257.1 1.499e+04 3.202e-09
 50.23243    256.2 1.502e+04 3.193e-09
 50.24392    255.2 1.497e+04 3.094e-09
 50.25389    256.1 1.446e+04 2.545e-09
 50.27231    255.3 1.429e+04 2.331e-09
 50.29225    254.6 1.392e+04 1.979e-09
 50.31219    253.9 1.343e+04 1.622e-09
 50.33212    253.2 1.296e+04 1.338e-09
 50.34709    252.6 1.258e+04 1.138e-09
 50.35706    253.3 1.229e+04 9.943e-10
 50.37200    253.0 1.206e+04 9.082e-10
 50.39194    253.0 1.196e+04 8.562e-10
 50.41187    253.1 1.193e+04 8.113e-10
 50.43181    253.2 1.188e+04 7.585e-10
 50.44581    253.6 1.182e+04 6.967e-10
 50.45428    252.9 1.147e+04 5.411e-10
 50.46022    253.5 1.147e+04 5.629e-10
 50.47169    253.7 1.145e+04 5.211e-10
 50.49163    253.8 1.142e+04 4.884e-10
 50.51156    254.1 1.139e+04 4.680e-10
 50.53150    254.8 1.135e+04 4.645e-10
 50.55351    256.1 1.151e+04 5.044e-10
 50.57345    256.2 1.150e+04 5.235e-10
 50.60138    258.0 1.180e+04 6.363e-10
 50.64136    259.1 1.212e+04 7.910e-10
 50.67379    260.0 1.249e+04 1.001e-09
 50.69373    257.7 1.223e+04 8.810e-10
 50.72111    257.9 1.266e+04 1.155e-09
 50.75994    257.8 1.292e+04 1.298e-09
 50.77988    258.4 1.312e+04 1.344e-09
 50.80086    258.3 1.308e+04 1.291e-09
 50.84074    257.5 1.274e+04 1.018e-09
 50.87054    256.1 1.249e+04 8.802e-10
 50.88285    255.0 1.217e+04 7.699e-10
 50.89282    255.7 1.224e+04 7.040e-10
 50.91032    254.4 1.181e+04 5.869e-10
 50.92131    252.8 1.143e+04 5.408e-10
 50.93128    252.4 1.108e+04 4.327e-10
 50.95020    251.2 1.108e+04 4.424e-10
 50.97014    250.3 1.115e+04 4.843e-10
 50.98601    249.6 1.135e+04 5.734e-10
 50.99598    249.8 1.092e+04 4.272e-10
 51.01001    249.3 1.112e+04 5.258e-10
 51.02995    249.0 1.140e+04 6.587e-10
 51.04989    248.9 1.171e+04 8.187e-10
 51.06983    249.0 1.202e+04 9.982e-10
 51.08918    249.0 1.232e+04 1.188e-09
 51.09915    249.3 1.213e+04 1.077e-09
 51.10970    249.4 1.253e+04 1.321e-09
 51.12964    249.7 1.290e+04 1.562e-09
 51.14909    249.9 1.323e+04 1.836e-09
 51.15906    249.8 1.302e+04 1.663e-09
 51.16952    250.0 1.326e+04 1.781e-09
 51.18945    250.0 1.329e+04 1.780e-09
 51.20231    249.9 1.329e+04 1.765e-09
 51.21228    250.1 1.359e+04 1.981e-09
 51.22933    250.0 1.358e+04 1.943e-09
 51.24927    249.8 1.350e+04 1.843e-09
 51.26921    249.7 1.335e+04 1.693e-09
 51.28914    249.7 1.313e+04 1.514e-09
 51.30548    249.6 1.287e+04 1.337e-09
 51.31545    249.6 1.302e+04 1.372e-09
 51.32902    249.5 1.276e+04 1.224e-09
 51.34896    249.4 1.269e+04 1.204e-09
 51.36890    249.3 1.271e+04 1.209e-09
 51.38684    249.1 1.278e+04 1.247e-09
 51.39681    248.8 1.242e+04 1.139e-09
 51.40864    248.7 1.270e+04 1.243e-09
 51.41861    248.6 1.276e+04 1.283e-09
 51.42871    248.4 1.306e+04 1.420e-09
 51.44865    248.0 1.340e+04 1.585e-09
 51.46859    247.6 1.373e+04 1.742e-09
 51.48852    247.0 1.395e+04 1.798e-09
 51.50846    246.1 1.396e+04 1.786e-09
 51.52178    245.3 1.388e+04 1.710e-09
 51.53175    245.2 1.395e+04 1.777e-09
 51.54834    244.5 1.367e+04 1.567e-09
 51.56828    244.0 1.321e+04 1.293e-09
 51.58821    243.6 1.265e+04 1.024e-09
 51.60815    243.2 1.207e+04 7.988e-10
 51.62459    242.9 1.150e+04 6.251e-10
 51.63142    242.8 1.214e+04 8.096e-10
 51.63491    242.4 1.230e+04 8.406e-10
 51.64803    242.1 1.177e+04 6.727e-10
 51.66796    241.9 1.131e+04 5.499e-10
 51.68790    241.7 1.093e+04 4.708e-10
 51.70784    241.5 1.070e+04 4.385e-10
 51.72778    241.7 1.067e+04 4.379e-10
 51.73808    242.2 1.068e+04 4.426e-10
 51.74805    241.9 1.078e+04 4.551e-10
 51.76765    242.4 1.081e+04 4.734e-10
 51.78759    242.9 1.094e+04 5.154e-10
 51.80753    243.5 1.115e+04 5.810e-10
 51.82747    244.0 1.143e+04 6.762e-10
 51.84124    244.4 1.177e+04 8.040e-10
 51.85121    243.8 1.209e+04 8.663e-10
 51.86235    243.9 1.266e+04 1.098e-09
 51.87231    243.1 1.267e+04 1.153e-09
 51.88728    243.3 1.332e+04 1.513e-09
 51.90722    243.4 1.397e+04 1.966e-09
 51.92716    243.6 1.457e+04 2.452e-09
 51.94441    243.6 1.503e+04 2.817e-09
 51.95438    242.6 1.580e+04 3.576e-09
 51.96703    242.3 1.593e+04 3.606e-09
 51.98697    241.9 1.590e+04 3.516e-09
 52.00691    241.4 1.568e+04 3.165e-09
 52.02685    240.7 1.526e+04 2.692e-09
 52.04679    239.7 1.478e+04 2.305e-09
 52.05754    238.7 1.436e+04 2.117e-09
 52.06751    236.8 1.461e+04 2.410e-09
 52.08666    236.4 1.446e+04 2.399e-09
 52.10010    236.1 1.444e+04 2.404e-09
 52.11006    235.8 1.405e+04 2.014e-09
 52.12654    235.6 1.411e+04 2.070e-09
 52.14648    235.4 1.420e+04 2.124e-09
 52.16071    235.2 1.429e+04 2.164e-09
 52.17067    233.5 1.459e+04 2.364e-09
 52.18635    233.0 1.465e+04 2.381e-09
 52.20629    232.4 1.475e+04 2.443e-09
 52.22623    231.7 1.490e+04 2.577e-09
 52.24616    231.1 1.508e+04 2.769e-09
 52.26387    230.4 1.528e+04 2.986e-09
 52.27384    228.2 1.542e+04 3.083e-09
 52.28604    227.5 1.557e+04 3.205e-09
 52.30598    226.5 1.576e+04 3.307e-09
 52.32592    225.2 1.603e+04 3.347e-09
 52.33785    223.4 1.615e+04 3.322e-09
 52.34782    224.0 1.621e+04 3.312e-09
 52.36579    222.0 1.634e+04 3.246e-09
 52.37700    219.9 1.663e+04 2.912e-09
 52.38697    216.2 1.656e+04 2.412e-09
 52.40567    213.3 1.626e+04 1.706e-09
 52.42561    209.9 1.521e+04 1.058e-09
 52.44554    206.3 1.318e+04 6.150e-10
 52.46548    202.9 1.082e+04 4.066e-10
 52.48017    200.6 1.017e+04 3.733e-10
 52.49014    197.2 1.014e+04 3.733e-10
 52.50536    196.7 1.015e+04 3.735e-10
 52.52530    196.0 1.023e+04 3.786e-10
 52.54523    195.2 1.038e+04 3.967e-10
 52.56517    194.2 1.057e+04 4.286e-10
 52.57560    193.1 1.077e+04 4.724e-10
 52.58379    193.8 1.081e+04 4.820e-10
 52.59330    190.8 1.088e+04 4.995e-10
 52.60505    189.8 1.105e+04 5.426e-10
 52.62499    188.9 1.121e+04 5.809e-10
 52.64492    188.1 1.141e+04 6.102e-10
 52.66486    187.2 1.164e+04 6.365e-10
 52.68480    186.3 1.189e+04 6.582e-10
 52.69647    185.2 1.206e+04 6.706e-10
 52.70644    181.7 1.210e+04 6.716e-10
 52.72468    180.7 1.196e+04 6.502e-10
 52.74461    180.1 1.174e+04 6.222e-10
 52.76455    179.7 1.155e+04 6.012e-10
 52.78449    179.6 1.143e+04 5.874e-10
 52.79963    179.9 1.142e+04 5.859e-10
 52.80855    178.0 1.130e+04 5.299e-10
 52.81335    178.5 1.132e+04 5.650e-10
 52.82436    179.2 1.141e+04 5.789e-10
 52.84430    179.9 1.154e+04 5.951e-10
 52.86424    180.6 1.171e+04 6.174e-10
 52.88418    181.3 1.192e+04 6.512e-10
 52.90280    181.9 1.217e+04 7.006e-10
 52.91277    179.5 1.224e+04 6.638e-10
 52.92405    179.9 1.255e+04 7.549e-10
 52.94399    180.5 1.281e+04 8.670e-10
 52.96393    181.2 1.304e+04 9.932e-10
 52.98387    182.1 1.319e+04 1.104e-09
 53.00381    183.1 1.322e+04 1.171e-09
 53.01593    184.3 1.319e+04 1.157e-09
 53.02590    182.9 1.318e+04 1.167e-09
 53.04113    183.6 1.333e+04 1.185e-09
 53.05110    185.1 1.380e+04 1.417e-09
 53.06362    184.7 1.455e+04 1.609e-09
 53.08356    182.9 1.716e+04 2.196e-09
 53.10350    180.0 1.951e+04 2.986e-09
 53.11840    176.1 2.082e+04 3.743e-09
 53.12398    172.8 2.152e+04 5.100e-09
 53.12897    168.3 2.119e+04 7.653e-09
 53.13829    166.6 2.092e+04 1.065e-08
 53.14826    166.2 2.065e+04 1.376e-08
 53.15823    165.5 2.110e+04 1.547e-08
 53.16489    165.1 2.175e+04 1.524e-08
 53.16988    166.0 2.191e+04 1.884e-08
 53.17557    165.4 2.214e+04 1.850e-08
 53.18055    164.0 2.250e+04 1.913e-08
 53.18813    163.8 2.286e+04 1.712e-08
 53.20314    163.3 2.334e+04 1.202e-08
 53.22226    160.3 2.470e+04 5.333e-09
 53.23223    151.0 2.508e+04 1.935e-09
 53.24306    139.9 1.969e+04 4.206e-10
 53.26300    129.7 1.166e+04 3.043e-10
 53.27888    126.1 1.092e+04 2.915e-10
 53.28885    124.4 1.141e+04 3.149e-10
 53.30288    121.2 1.174e+04 3.328e-10
 53.32281    118.1 1.306e+04 4.065e-10
 53.33535    117.2 1.288e+04 4.287e-10
 53.34028    115.3 1.266e+04 4.285e-10
 53.34764    113.5 1.441e+04 4.670e-10
 53.35761    107.5 2.444e+04 6.083e-10
 53.36758     98.8 3.541e+04 1.716e-09
 53.37755     91.4 3.482e+04 8.164e-09
 53.38688     86.5 3.003e+04 3.433e-08
 53.39186     83.0 2.562e+04 1.093e-07
 53.39748     81.6 2.368e+04 2.336e-07
 53.40264     80.2 2.321e+04 3.694e-07
 53.40763     76.7 2.472e+04 3.167e-07
 53.41742     72.8 2.713e+04 2.543e-07
 53.42739     67.3 3.270e+04 1.206e-07
 53.43736     59.3 4.042e+04 3.586e-08
 53.44345     49.2 4.649e+04 7.821e-09
 53.44843     37.3 3.272e+04 4.128e-09
 53.45730     26.3 2.012e+04 4.536e-09
 53.46727     23.7 1.821e+04 4.336e-09
 53.47723     18.5 1.910e+04 4.491e-09
 53.48720     16.2 1.877e+04 4.359e-09
 53.49503     12.5 1.819e+04 3.989e-09
 53.50001     11.3 1.766e+04 3.648e-09
 53.50714     10.7 1.723e+04 3.488e-09
 53.51658      8.9 1.581e+04 2.948e-09
 53.52660      5.9 1.608e+04 3.603e-09
 53.54173      2.0 1.683e+04 3.573e-09
 53.55169     -1.2 1.693e+04 3.238e-09
 53.56207     -6.6 1.804e+04 3.193e-09
 53.58201    -12.5 1.746e+04 3.012e-09
 53.60194    -18.2 1.674e+04 3.324e-09
 53.62188    -21.1 1.677e+04 4.274e-09
 53.64182    -22.2 1.751e+04 5.351e-09
 53.65486    -24.2 1.789e+04 5.314e-09
 53.66483    -24.4 1.748e+04 4.680e-09
 53.68170    -27.2 1.723e+04 4.056e-09
 53.70163    -29.6 1.706e+04 3.125e-09
 53.72157    -31.8 1.599e+04 2.184e-09
 53.74151    -34.9 1.364e+04 1.219e-09
 53.75438    -37.1 1.238e+04 8.193e-10
 53.76093    -39.1 1.270e+04 7.373e-10
 53.76799    -39.2 1.279e+04 7.739e-10
 53.78139    -42.9 1.526e+04 9.131e-10
 53.80132    -48.8 1.640e+04 1.151e-09
 53.82126    -55.5 1.485e+04 1.270e-09
 53.84120    -58.6 1.519e+04 1.987e-09
 53.86114    -61.6 1.670e+04 2.883e-09
 53.88108    -67.1 1.790e+04 4.155e-09
 53.90101    -71.3 1.804e+04 4.492e-09
 53.92095    -75.2 1.764e+04 4.023e-09
 53.94089    -78.9 1.701e+04 3.094e-09
 53.96083    -83.0 1.582e+04 2.174e-09
 53.97432    -86.7 1.444e+04 1.495e-09
 53.98429    -87.6 1.370e+04 1.129e-09
 53.99213    -89.6 1.290e+04 8.773e-10
 54.00210    -90.4 1.337e+04 1.137e-09
 54.02064    -91.5 1.296e+04 9.141e-10
 54.04058    -92.9 1.248e+04 7.169e-10
 54.06052    -94.3 1.204e+04 5.723e-10
 54.07749    -95.7 1.174e+04 4.824e-10
 54.08746    -96.4 1.150e+04 4.320e-10
 54.10039    -97.8 1.149e+04 4.226e-10
 54.12033    -99.7 1.170e+04 4.412e-10
 54.14027   -102.5 1.231e+04 5.347e-10
 54.16021   -105.9 1.324e+04 7.602e-10
 54.18014   -109.1 1.426e+04 1.156e-09
 54.19062   -111.6 1.520e+04 1.696e-09
 54.20059   -112.0 1.524e+04 1.729e-09
 54.21991   -113.9 1.597e+04 2.220e-09
 54.22988   -114.0 1.517e+04 1.747e-09
 54.23996   -115.9 1.547e+04 1.893e-09
 54.25990   -117.9 1.551e+04 1.907e-09
 54.27983   -119.7 1.529e+04 1.692e-09
 54.29379   -121.6 1.485e+04 1.328e-09
 54.30376   -122.7 1.521e+04 1.509e-09
 54.31971   -125.0 1.470e+04 1.207e-09
 54.33965   -127.2 1.421e+04 9.845e-10
 54.35959   -129.0 1.380e+04 8.314e-10
 54.37952   -130.3 1.351e+04 7.214e-10
 54.39695   -131.3 1.326e+04 6.253e-10
 54.40692   -131.8 1.347e+04 7.935e-10
 54.41940   -132.2 1.317e+04 6.608e-10
 54.43934   -132.5 1.288e+04 5.414e-10
 54.45766   -132.8 1.285e+04 4.550e-10
 54.46763   -132.0 1.268e+04 3.704e-10
 54.47921   -132.3 1.339e+04 3.534e-10
 54.49915   -133.6 1.400e+04 3.540e-10
 54.51009   -136.3 1.424e+04 3.496e-10
 54.52005   -135.5 1.421e+04 3.367e-10
 54.53903   -139.8 1.404e+04 3.001e-10
 54.55897   -141.7 1.422e+04 2.902e-10
 54.57890   -147.6 1.385e+04 2.580e-10
 54.59884   -149.2 1.397e+04 2.565e-10
 54.61325   -154.7 1.405e+04 2.514e-10
 54.62322   -155.3 1.420e+04 2.564e-10
 54.63872   -157.7 1.538e+04 3.411e-10
 54.65866   -162.6 1.570e+04 5.653e-10
 54.67859   -165.5 1.582e+04 9.683e-10
 54.69541   -168.6 1.578e+04 1.524e-09
 54.70538   -169.1 1.602e+04 1.330e-09
 54.71642   -170.6 1.605e+04 2.000e-09
 54.72638   -170.4 1.597e+04 2.158e-09
 54.73841   -171.8 1.617e+04 2.858e-09
 54.75834   -173.1 1.652e+04 3.345e-09
 54.77828   -174.7 1.669e+04 3.513e-09
 54.79822   -176.3 1.671e+04 3.524e-09
 54.81816   -177.7 1.653e+04 3.203e-09
 54.82955   -179.1 1.599e+04 2.597e-09
 54.83952   -178.3 1.606e+04 2.851e-09
 54.85803   -179.7 1.536e+04 2.202e-09
 54.87797   -180.8 1.453e+04 1.648e-09
 54.89791   -181.6 1.372e+04 1.210e-09
 54.91785   -182.0 1.300e+04 8.821e-10
 54.93271   -182.2 1.237e+04 6.521e-10
 54.93806   -180.8 1.222e+04 6.108e-10
 54.94313   -180.6 1.230e+04 6.982e-10
 54.95772   -180.5 1.173e+04 5.294e-10
 54.97766   -180.3 1.130e+04 4.224e-10
 54.99760   -179.7 1.120e+04 3.708e-10
 55.01754   -178.9 1.125e+04 3.612e-10
 55.03588   -178.8 1.145e+04 3.669e-10
 55.04595   -178.6 1.147e+04 3.502e-10
 55.06758   -182.6 1.147e+04 3.445e-10
 55.10745   -185.8 1.095e+04 2.923e-10
 55.14733   -187.3 1.028e+04 2.166e-10
 55.18721   -187.9 9.759e+03 1.625e-10
 55.22708   -188.1 9.462e+03 1.355e-10
 55.25237   -188.0 9.298e+03 1.215e-10
 55.27231   -186.5 9.235e+03 1.206e-10
 55.30683   -186.3 9.129e+03 1.135e-10
 55.34671   -185.7 9.061e+03 1.085e-10
 55.38659   -185.2 9.040e+03 1.050e-10
 55.40886   -184.8 9.039e+03 1.040e-10
 55.42880   -182.5 8.777e+03 8.044e-11
 55.45870   -181.9 8.736e+03 7.691e-11
 55.47864   -180.9 8.753e+03 8.783e-11
 55.50621   -180.2 8.734e+03 8.695e-11
 55.54609   -179.7 8.769e+03 8.700e-11
 55.58596   -179.3 9.156e+03 1.023e-10
 55.62584   -179.5 1.045e+04 1.471e-10
 55.66503   -179.9 1.168e+04 2.525e-10
 55.68497   -178.0 1.089e+04 1.961e-10
 55.70559   -177.7 1.147e+04 3.187e-10
 55.74547   -177.2 1.154e+04 4.783e-10
 55.77528   -176.9 1.136e+04 6.342e-10
 55.78794   -175.9 1.132e+04 7.652e-10
 55.79791   -175.1 1.129e+04 6.361e-10
 55.81506   -174.6 1.123e+04 7.850e-10
 55.83499   -172.8 1.164e+04 9.793e-10
 55.85493   -171.8 1.210e+04 1.159e-09
 55.87420   -171.0 1.237e+04 1.237e-09
 55.88417   -169.6 1.226e+04 1.210e-09
 55.89111   -168.8 1.250e+04 1.303e-09
 55.90107   -168.1 1.225e+04 1.162e-09
 55.91475   -167.3 1.236e+04 1.194e-09
 55.93468   -167.0 1.229e+04 1.165e-09
 55.95462   -166.7 1.207e+04 1.096e-09
 55.97456   -166.4 1.197e+04 1.068e-09
 55.99427   -166.0 1.199e+04 1.073e-09
 56.00424   -164.8 1.180e+04 9.869e-10
 56.01443   -164.4 1.197e+04 1.043e-09
 56.03437   -164.0 1.253e+04 1.204e-09
 56.05431   -163.9 1.326e+04 1.456e-09
 56.07425   -164.2 1.403e+04 1.790e-09
 56.09419   -164.5 1.466e+04 2.166e-09
 56.10740   -164.7 1.497e+04 2.639e-09
 56.11520   -163.3 1.496e+04 2.665e-09
 56.12192   -160.9 1.447e+04 2.488e-09
 56.13406   -160.9 1.490e+04 2.933e-09
 56.15400   -160.7 1.523e+04 3.409e-09
 56.17394   -160.4 1.547e+04 3.789e-09
 56.19388   -160.1 1.557e+04 3.941e-09
 56.21057   -159.8 1.557e+04 3.948e-09
 56.22054   -158.5 1.588e+04 4.286e-09
 56.23375   -158.3 1.584e+04 4.190e-09
 56.25369   -158.0 1.548e+04 3.655e-09
 56.27363   -157.7 1.495e+04 3.016e-09
 56.29357   -157.3 1.436e+04 2.463e-09
 56.31350   -156.7 1.378e+04 2.006e-09
 56.32370   -155.9 1.320e+04 1.611e-09
 56.33367   -155.3 1.389e+04 2.086e-09
 56.34970   -154.3 1.338e+04 1.722e-09
 56.35967   -153.0 1.336e+04 1.693e-09
 56.37332   -152.0 1.282e+04 1.361e-09
 56.39326   -150.8 1.234e+04 1.074e-09
 56.41319   -149.7 1.194e+04 8.366e-10
 56.42687   -148.3 1.169e+04 6.607e-10
 56.43684   -147.7 1.224e+04 9.632e-10
 56.45307   -146.3 1.200e+04 7.738e-10
 56.47301   -145.0 1.193e+04 6.420e-10
 56.50301   -144.1 1.188e+04 5.339e-10
 56.53023   -141.7 1.161e+04 4.573e-10
 56.55017   -140.1 1.244e+04 8.209e-10
 56.58286   -137.2 1.228e+04 7.835e-10
 56.62274   -134.6 1.219e+04 7.734e-10
 56.66261   -131.7 1.212e+04 7.916e-10
 56.70249   -128.9 1.224e+04 8.736e-10
 56.73656   -126.0 1.253e+04 1.035e-09
 56.75650   -124.4 1.295e+04 1.350e-09
 56.78224   -121.5 1.319e+04 1.504e-09
 56.81543   -118.7 1.334e+04 1.626e-09
 56.83537   -116.8 1.268e+04 1.068e-09
 56.86199   -114.0 1.281e+04 1.180e-09
 56.90187   -111.2 1.289e+04 1.260e-09
 56.94174   -108.5 1.291e+04 1.287e-09
 56.96283   -105.7 1.281e+04 1.239e-09
 56.98276   -103.9 1.330e+04 1.605e-09
 57.02150   -101.4 1.329e+04 1.579e-09
 57.06137    -99.1 1.322e+04 1.493e-09
 57.10125    -97.1 1.311e+04 1.394e-09
 57.14112    -95.3 1.292e+04 1.278e-09
 57.16916    -93.4 1.261e+04 1.108e-09
 57.18909    -91.6 1.335e+04 1.633e-09
 57.22088    -89.7 1.298e+04 1.371e-09
 57.26075    -87.9 1.250e+04 1.013e-09
 57.29093    -86.3 1.195e+04 6.918e-10
 57.31087    -82.6 1.194e+04 7.417e-10
 57.34050    -81.0 1.143e+04 4.819e-10
 57.37549    -80.0 1.128e+04 3.640e-10
 57.39542    -78.3 1.168e+04 5.074e-10
 57.42025    -77.5 1.166e+04 4.456e-10
 57.46013    -76.5 1.187e+04 5.312e-10
 57.50001    -75.1 1.211e+04 7.621e-10
 57.53988    -73.1 1.234e+04 9.715e-10
 57.57976    -71.1 1.246e+04 1.118e-09
 57.60175    -69.3 1.220e+04 1.005e-09
 57.62169    -68.2 1.220e+04 1.012e-09
 57.65951    -66.7 1.161e+04 6.856e-10
 57.69939    -65.6 1.077e+04 3.736e-10
 57.73926    -64.7 1.013e+04 2.169e-10
 57.76643    -63.8 9.828e+03 1.625e-10
 57.78637    -59.3 1.034e+04 2.407e-10
 57.80808    -58.6 9.856e+03 1.570e-10
 57.82802    -57.6 9.908e+03 1.582e-10
 57.85889    -56.6 9.653e+03 1.283e-10
 57.89877    -55.1 9.519e+03 1.156e-10
 57.93864    -53.4 9.486e+03 1.081e-10
 57.97852    -51.9 9.489e+03 1.053e-10
 58.01441    -50.6 9.569e+03 1.067e-10
 58.03435    -49.8 9.556e+03 1.021e-10
 58.05827    -49.3 9.830e+03 1.124e-10
 58.09814    -49.6 1.095e+04 1.515e-10
 58.13802    -50.9 1.303e+04 2.972e-10
 58.17790    -52.8 1.448e+04 6.365e-10
 58.21777    -55.1 1.493e+04 1.170e-09
 58.24068    -57.4 1.479e+04 1.544e-09
 58.24490    -55.7 1.463e+04 1.548e-09
 58.26187    -49.6 1.447e+04 1.074e-09
 58.29752    -52.1 1.436e+04 1.333e-09
 58.33740    -55.2 1.435e+04 1.316e-09
 58.36721    -59.9 1.341e+04 1.027e-09
 58.38705    -60.6 1.315e+04 9.490e-10
 58.40699    -62.8 1.284e+04 9.291e-10
 58.42693    -64.0 1.303e+04 1.027e-09
 58.44682    -65.2 1.320e+04 1.146e-09
 58.46675    -65.4 1.337e+04 1.272e-09
 58.47949    -66.0 1.343e+04 1.311e-09
 58.48946    -63.8 1.338e+04 1.280e-09
 58.50668    -64.4 1.338e+04 1.297e-09
 58.52661    -64.6 1.313e+04 1.221e-09
 58.54655    -64.4 1.258e+04 1.003e-09
 58.55995    -64.1 1.189e+04 7.352e-10
 58.56992    -63.7 1.191e+04 7.441e-10
 58.58643    -62.9 1.123e+04 5.257e-10
 58.60637    -62.1 1.084e+04 3.952e-10
 58.62630    -61.8 1.082e+04 3.430e-10
 58.65324    -63.7 1.074e+04 3.057e-10
 58.67328    -63.4 1.067e+04 3.086e-10
 58.69628    -63.4 1.038e+04 2.525e-10
 58.71743    -63.0 1.019e+04 2.181e-10
 58.73737    -60.4 1.020e+04 2.190e-10
 58.77603    -59.6 1.012e+04 2.057e-10
 58.81591    -58.6 1.011e+04 2.024e-10
 58.85579    -57.5 1.010e+04 2.003e-10
 58.87961    -56.2 1.003e+04 1.923e-10
 58.89955    -55.8 9.961e+03 1.848e-10
 58.93554    -54.3 9.833e+03 1.618e-10
 58.97541    -52.6 9.697e+03 1.394e-10
 59.01529    -50.9 9.585e+03 1.234e-10
 59.05517    -49.0 9.515e+03 1.151e-10
 59.08594    -47.0 9.498e+03 1.125e-10
 59.10588    -47.0 9.464e+03 1.126e-10
 59.13492    -45.0 9.476e+03 1.190e-10
 59.17300    -43.1 9.634e+03 1.401e-10
 59.19293    -42.7 9.676e+03 1.463e-10
 59.21467    -40.7 9.825e+03 1.662e-10
 59.25454    -38.8 1.003e+04 1.887e-10
 59.29227    -37.0 1.035e+04 2.189e-10
 59.31221    -37.3 1.046e+04 2.218e-10
 59.33430    -37.0 1.109e+04 2.753e-10
 59.37417    -37.5 1.190e+04 4.082e-10
 59.40398    -37.9 1.231e+04 5.949e-10
 59.41518    -38.0 1.237e+04 6.373e-10
 59.42184    -38.8 1.263e+04 7.682e-10
 59.43049    -38.9 1.244e+04 6.835e-10
 59.44376    -38.9 1.280e+04 1.046e-09
 59.46370    -37.2 1.349e+04 1.532e-09
 59.48364    -35.9 1.424e+04 2.090e-09
 59.50357    -34.7 1.492e+04 2.645e-09
 59.51834    -33.9 1.538e+04 3.011e-09
 59.52831    -34.7 1.578e+04 3.775e-09
 59.54345    -34.4 1.581e+04 3.829e-09
 59.56339    -34.2 1.561e+04 3.643e-09
 59.58333    -34.1 1.540e+04 3.339e-09
 59.60326    -34.0 1.528e+04 3.118e-09
 59.62151    -33.8 1.505e+04 3.034e-09
 59.63147    -33.7 1.454e+04 2.657e-09
 59.64314    -33.4 1.418e+04 2.289e-09
 59.65827    -32.9 1.380e+04 1.988e-09
 59.66824    -33.2 1.369e+04 1.923e-09
 59.68302    -32.5 1.341e+04 1.732e-09
 59.70295    -31.9 1.318e+04 1.578e-09
 59.72289    -31.1 1.296e+04 1.439e-09
 59.73464    -30.4 1.275e+04 1.320e-09
 59.74461    -31.1 1.173e+04 8.293e-10
 59.76277    -30.4 1.165e+04 7.982e-10
 59.78270    -29.6 1.163e+04 7.859e-10
 59.80264    -29.0 1.164e+04 7.789e-10
 59.82258    -28.6 1.164e+04 7.690e-10
 59.83780    -28.5 1.161e+04 7.551e-10
 59.84777    -28.7 1.105e+04 5.468e-10
 59.86246    -28.7 1.104e+04 5.467e-10
 59.88239    -28.9 1.107e+04 5.574e-10
 59.89602    -29.6 1.120e+04 6.022e-10
 59.90599    -29.3 1.091e+04 4.682e-10
 59.92227    -30.4 1.110e+04 5.599e-10
 59.94097    -31.4 1.155e+04 7.565e-10
 59.95094    -31.0 1.133e+04 5.865e-10
 59.96215    -31.5 1.185e+04 8.476e-10
 59.98208    -31.4 1.254e+04 1.257e-09
 60.00202    -31.0 1.322e+04 1.765e-09
 60.02196    -30.3 1.381e+04 2.251e-09
 60.04190    -29.5 1.421e+04 2.536e-09
 60.05410    -28.8 1.434e+04 2.599e-09
 60.06407    -28.0 1.390e+04 2.342e-09
 60.08177    -27.4 1.393e+04 2.369e-09
 60.10171    -26.9 1.394e+04 2.043e-09
 60.12165    -26.7 1.352e+04 1.761e-09
 60.13377    -26.5 1.322e+04 1.570e-09
 60.14374    -26.0 1.321e+04 1.577e-09
 60.15727    -25.5 1.293e+04 1.440e-09
 60.16724    -24.7 1.304e+04 1.514e-09
 60.18146    -23.9 1.285e+04 1.451e-09
 60.20140    -23.1 1.264e+04 1.370e-09
 60.22134    -22.1 1.233e+04 1.241e-09
 60.24128    -21.2 1.203e+04 1.095e-09
 60.26043    -20.3 1.183e+04 9.558e-10
 60.27040    -19.6 1.225e+04 1.134e-09
 60.28115    -18.9 1.209e+04 9.966e-10
 60.30109    -18.4 1.201e+04 8.891e-10
 60.32103    -18.0 1.191e+04 8.092e-10
 60.34097    -17.5 1.178e+04 7.609e-10
 60.36090    -16.8 1.166e+04 7.360e-10
 60.37152    -15.9 1.153e+04 7.155e-10
 60.37422    -15.4 1.156e+04 7.241e-10
 60.38354    -15.8 1.188e+04 8.897e-10
 60.40078    -14.9 1.189e+04 9.034e-10
 60.42072    -14.1 1.204e+04 9.263e-10
 60.44066    -13.5 1.226e+04 9.592e-10
 60.46059    -13.2 1.250e+04 1.012e-09
 60.47673    -13.2 1.270e+04 1.085e-09
 60.48670    -14.1 1.364e+04 1.787e-09
 60.50047    -13.9 1.383e+04 2.018e-09
 60.52041    -13.6 1.399e+04 2.264e-09
 60.54035    -13.0 1.410e+04 2.461e-09
 60.56028    -12.3 1.415e+04 2.543e-09
 60.57990    -11.5 1.412e+04 2.542e-09
 60.58987    -11.8 1.486e+04 3.403e-09
 60.59930    -10.8 1.456e+04 3.038e-09
 60.60927    -10.0 1.468e+04 3.144e-09
 60.62010     -9.2 1.447e+04 2.777e-09
 60.64004     -8.9 1.440e+04 2.518e-09
 60.65997     -9.0 1.432e+04 2.357e-09
 60.67991     -9.1 1.438e+04 2.348e-09
 60.69303     -9.4 1.460e+04 2.565e-09
 60.70300    -10.7 1.520e+04 2.865e-09
 60.71979    -10.8 1.548e+04 3.423e-09
 60.73973    -10.6 1.566e+04 3.961e-09
 60.75966    -10.4 1.580e+04 4.312e-09
 60.77960    -10.4 1.584e+04 4.413e-09
 60.79620    -10.9 1.600e+04 4.365e-09
 60.80617    -12.7 1.648e+04 4.672e-09
 60.81948    -13.8 1.658e+04 4.650e-09
 60.83705    -14.8 1.633e+04 4.453e-09
 60.84702    -13.8 1.682e+04 5.025e-09
 60.85935    -14.3 1.651e+04 4.875e-09
 60.87929    -14.5 1.602e+04 4.341e-09
 60.89923    -14.6 1.528e+04 3.461e-09
 60.90933    -14.9 1.447e+04 2.626e-09
 60.91930    -15.8 1.482e+04 2.962e-09
 60.93911    -17.1 1.443e+04 2.509e-09
 60.95904    -18.5 1.442e+04 2.429e-09
 60.97898    -20.6 1.527e+04 2.844e-09
 60.99892    -22.2 1.603e+04 3.787e-09
 61.01245    -23.3 1.656e+04 5.074e-09
 61.01738    -23.4 1.697e+04 5.779e-09
 61.02374    -23.9 1.731e+04 7.246e-09
 61.03371    -24.1 1.823e+04 9.196e-09
 61.04368    -24.6 2.001e+04 1.078e-08
 61.05365    -26.1 2.241e+04 1.251e-08
 61.06362    -28.0 2.481e+04 1.495e-08
 61.06896    -29.9 2.688e+04 1.836e-08
 61.07395    -33.1 2.797e+04 4.395e-08
 61.07969    -35.7 2.784e+04 5.048e-08
 61.08468    -36.7 2.632e+04 7.486e-08
 61.09353    -38.8 2.611e+04 6.433e-08
 61.10350    -41.1 2.649e+04 4.611e-08
 61.11346    -43.7 2.560e+04 3.124e-08
 61.12055    -46.2 2.396e+04 2.105e-08
 61.12553    -48.9 2.330e+04 1.977e-08
 61.13340    -50.5 2.129e+04 1.313e-08
 61.14337    -51.4 2.010e+04 9.266e-09
 61.15334    -51.9 1.933e+04 7.005e-09
 61.16331    -52.0 1.883e+04 5.878e-09
 61.17831    -52.7 1.834e+04 4.400e-09
 61.19830    -53.3 1.706e+04 2.748e-09
 61.21824    -54.3 1.552e+04 1.706e-09
 61.22879    -54.9 1.446e+04 1.217e-09
 61.23876    -58.2 1.257e+04 6.866e-10
 61.25811    -57.5 1.213e+04 5.789e-10
 61.27805    -56.9 1.191e+04 5.037e-10
 61.29799    -56.3 1.178e+04 4.696e-10
 61.31256    -55.9 1.182e+04 4.426e-10
 61.32252    -56.0 1.183e+04 4.706e-10
 61.33196    -55.8 1.195e+04 4.687e-10
 61.34193    -58.0 1.188e+04 4.636e-10
 61.35780    -58.2 1.211e+04 5.005e-10
 61.37774    -58.4 1.240e+04 5.890e-10
 61.39768    -58.7 1.276e+04 7.281e-10
 61.41762    -58.8 1.318e+04 9.093e-10
 61.43512    -59.0 1.367e+04 1.110e-09
 61.44509    -61.4 1.369e+04 1.130e-09
 61.45749    -62.1 1.406e+04 1.258e-09
 61.47743    -63.1 1.434e+04 1.327e-09
 61.49737    -64.5 1.448e+04 1.339e-09
 61.51731    -66.2 1.448e+04 1.293e-09
 61.53724    -68.1 1.438e+04 1.219e-09
 61.54826    -70.0 1.422e+04 1.145e-09
 61.55135    -72.5 1.340e+04 8.856e-10
 61.56028    -72.8 1.330e+04 8.653e-10
 61.57712    -74.4 1.317e+04 8.178e-10
 61.59706    -76.0 1.313e+04 7.926e-10
 61.61699    -77.5 1.315e+04 7.802e-10
 61.63693    -78.9 1.321e+04 7.898e-10
 61.65142    -80.1 1.328e+04 8.009e-10
 61.66139    -81.9 1.322e+04 8.033e-10
 61.67681    -83.0 1.327e+04 8.109e-10
 61.69675    -84.1 1.330e+04 8.075e-10
 61.71668    -85.3 1.331e+04 7.914e-10
 61.73662    -86.7 1.331e+04 7.771e-10
 61.75459    -88.4 1.335e+04 7.746e-10
 61.76456    -89.8 1.312e+04 6.927e-10
 61.77650    -91.8 1.316e+04 6.830e-10
 61.78806    -93.8 1.323e+04 6.844e-10
 61.79803    -94.9 1.328e+04 6.612e-10
 61.81637    -97.1 1.336e+04 6.768e-10
 61.83631    -99.1 1.338e+04 6.834e-10
 61.85625   -101.1 1.336e+04 6.790e-10
 61.86772   -103.0 1.327e+04 6.466e-10
 61.87769   -104.4 1.297e+04 5.817e-10
 61.89613   -106.2 1.294e+04 5.597e-10
 61.91606   -108.0 1.292e+04 5.347e-10
 61.93600   -109.8 1.291e+04 5.124e-10
 61.95594   -111.7 1.292e+04 4.969e-10
 61.97089   -113.7 1.293e+04 4.893e-10
 61.98086   -114.7 1.289e+04 5.038e-10
 61.99582   -116.7 1.294e+04 5.028e-10
 62.01575   -118.7 1.307e+04 5.117e-10
 62.03569   -122.2 1.357e+04 6.088e-10
 62.05563   -124.2 1.380e+04 6.743e-10
 62.07405   -126.2 1.407e+04 7.541e-10
 62.08402   -127.8 1.431e+04 8.613e-10
 62.09551   -130.2 1.481e+04 1.017e-09
 62.11544   -133.0 1.554e+04 1.259e-09
 62.13538   -136.0 1.641e+04 1.644e-09
 62.15532   -138.9 1.719e+04 2.197e-09
 62.17526   -141.4 1.775e+04 2.850e-09
 62.18719   -143.6 1.812e+04 3.403e-09
 62.19715   -145.3 1.801e+04 3.377e-09
 62.21513   -147.3 1.806e+04 3.356e-09
 62.23507   -150.1 1.828e+04 3.110e-09
 62.25359   -154.4 1.919e+04 2.872e-09
 62.26356   -159.3 1.968e+04 2.643e-09
 62.27495   -165.5 2.081e+04 2.639e-09
 62.29035   -171.9 2.071e+04 2.898e-09
 62.30032   -176.2 1.786e+04 2.127e-09
 62.31482   -180.3 1.772e+04 2.571e-09
 62.33476   -183.2 1.774e+04 2.709e-09
 62.35470   -185.6 1.710e+04 2.633e-09
 62.37464   -188.2 1.647e+04 1.931e-09
 62.39351   -191.8 1.581e+04 1.304e-09
 62.40348   -190.6 1.561e+04 1.210e-09
 62.41451   -195.5 1.572e+04 9.808e-10
 62.43445   -201.9 1.599e+04 9.658e-10
 62.45439   -207.8 1.750e+04 1.651e-09
 62.47433   -210.9 1.885e+04 3.561e-09
 62.49134   -212.6 1.977e+04 5.860e-09
 62.50131   -214.8 2.001e+04 6.016e-09
 62.50665   -217.1 2.030e+04 6.473e-09
 62.51662   -215.5 2.102e+04 8.384e-09
 62.53414   -218.2 2.109e+04 8.213e-09
 62.55408   -221.3 2.042e+04 5.295e-09
 62.57402   -225.3 1.827e+04 2.368e-09
 62.59395   -229.5 1.487e+04 1.025e-09
 62.60981   -232.0 1.303e+04 6.135e-10
 62.61978   -230.6 1.345e+04 7.054e-10
 62.63383   -231.3 1.270e+04 5.456e-10
 62.65377   -231.4 1.246e+04 4.819e-10
 62.67371   -231.2 1.232e+04 4.344e-10
 62.69364   -230.9 1.220e+04 3.994e-10
 62.71298   -230.8 1.218e+04 3.871e-10
 62.72295   -229.8 1.224e+04 3.982e-10
 62.72909   -229.8 1.224e+04 3.964e-10
 62.73906   -231.6 1.247e+04 4.365e-10
 62.75346   -231.9 1.267e+04 4.824e-10
 62.77340   -232.2 1.301e+04 5.916e-10
 62.79333   -232.3 1.335e+04 7.366e-10
 62.81327   -232.4 1.363e+04 8.897e-10
 62.82611   -232.5 1.383e+04 1.017e-09
 62.83608   -231.4 1.382e+04 1.022e-09
 62.85315   -231.6 1.384e+04 1.058e-09
 62.87308   -231.7 1.380e+04 1.060e-09
 62.89302   -231.7 1.352e+04 9.884e-10
 62.91296   -231.7 1.313e+04 8.459e-10
 62.92928   -231.7 1.266e+04 6.851e-10
 62.93925   -230.6 1.248e+04 6.355e-10
 62.95284   -230.5 1.201e+04 5.002e-10
 62.96684   -230.3 1.164e+04 3.958e-10
 62.97681   -231.2 1.157e+04 3.612e-10
 63.00278   -230.6 1.157e+04 3.176e-10
 63.04275   -231.2 1.158e+04 3.098e-10
 63.08263   -231.1 1.150e+04 3.191e-10
 63.12250   -230.4 1.138e+04 3.326e-10
 63.14577   -229.0 1.122e+04 3.373e-10
 63.16571   -228.4 1.104e+04 3.059e-10
 63.20226   -226.5 1.095e+04 3.102e-10
 63.24213   -224.5 1.086e+04 3.063e-10
 63.28201   -222.6 1.079e+04 3.012e-10
 63.31182   -220.6 1.071e+04 2.957e-10
 63.33166   -220.0 1.076e+04 2.965e-10
 63.35160   -219.0 1.077e+04 3.024e-10
 63.36188   -218.9 1.092e+04 3.247e-10
 63.37194   -217.3 1.062e+04 2.835e-10
 63.40164   -215.2 1.076e+04 3.078e-10
 63.43144   -215.6 1.111e+04 3.993e-10
 63.44234   -215.2 1.129e+04 4.801e-10
 63.45231   -216.6 1.147e+04 5.509e-10
 63.46504   -215.8 1.159e+04 6.622e-10
 63.47501   -213.9 1.131e+04 5.115e-10
 63.49116   -213.0 1.149e+04 6.240e-10
 63.51110   -212.1 1.164e+04 7.441e-10
 63.53104   -210.9 1.178e+04 8.496e-10
 63.55097   -209.5 1.187e+04 9.175e-10
 63.56821   -207.9 1.193e+04 9.434e-10
 63.57817   -207.0 1.194e+04 9.688e-10
 63.59085   -205.5 1.204e+04 1.024e-09
 63.61079   -203.9 1.212e+04 1.057e-09
 63.63073   -202.5 1.213e+04 1.005e-09
 63.65066   -201.2 1.210e+04 8.925e-10
 63.67012   -200.1 1.198e+04 7.617e-10
 63.68009   -200.8 1.191e+04 6.985e-10
 63.68134   -199.5 1.185e+04 6.671e-10
 63.69131   -198.7 1.217e+04 8.143e-10
 63.72054   -197.8 1.199e+04 7.140e-10
 63.76052   -194.9 1.163e+04 5.733e-10
 63.78470   -192.3 1.124e+04 4.601e-10
 63.80464   -190.2 1.218e+04 8.511e-10
 63.84027   -187.5 1.193e+04 7.331e-10
 63.88015   -185.2 1.174e+04 6.534e-10
 63.90807   -182.8 1.153e+04 6.058e-10
 63.92801   -183.7 1.149e+04 6.451e-10
 63.95990   -181.2 1.156e+04 7.201e-10
 63.98971   -178.8 1.188e+04 8.631e-10
 64.00080   -178.0 1.185e+04 9.179e-10
 64.01077   -177.3 1.237e+04 1.155e-09
 64.02949   -176.1 1.233e+04 1.262e-09
 64.04942   -174.9 1.240e+04 1.372e-09
 64.06936   -173.7 1.252e+04 1.474e-09
 64.08930   -172.5 1.263e+04 1.550e-09
 64.10397   -171.5 1.268e+04 1.581e-09
 64.11394   -170.7 1.328e+04 1.991e-09
 64.12917   -169.7 1.329e+04 1.996e-09
 64.14562   -168.7 1.330e+04 1.983e-09
 64.15559   -169.3 1.336e+04 1.981e-09
 64.16905   -168.3 1.327e+04 1.860e-09
 64.18899   -167.4 1.315e+04 1.696e-09
 64.20713   -166.6 1.295e+04 1.542e-09
 64.21710   -165.9 1.335e+04 1.811e-09
 64.22886   -164.9 1.301e+04 1.561e-09
 64.24880   -163.8 1.269e+04 1.379e-09
 64.27881   -162.7 1.248e+04 1.243e-09
 64.30871   -161.5 1.222e+04 1.098e-09
 64.32027   -160.0 1.199e+04 9.771e-10
 64.33024   -159.9 1.224e+04 1.074e-09
 64.34849   -158.6 1.202e+04 9.544e-10
 64.36843   -157.8 1.196e+04 9.094e-10
 64.38338   -156.5 1.185e+04 8.475e-10
 64.39334   -156.8 1.186e+04 8.431e-10
 64.40831   -156.2 1.178e+04 7.935e-10
 64.42343   -155.0 1.164e+04 7.148e-10
 64.43340   -154.4 1.185e+04 7.770e-10
 64.44818   -153.3 1.177e+04 7.202e-10
 64.46812   -152.5 1.169e+04 6.743e-10
 64.48806   -151.7 1.164e+04 6.448e-10
 64.50800   -150.9 1.160e+04 6.336e-10
 64.52660   -150.2 1.163e+04 6.439e-10
 64.53657   -149.3 1.183e+04 6.675e-10
 64.54787   -148.6 1.181e+04 6.740e-10
 64.56781   -148.0 1.182e+04 7.016e-10
 64.58775   -147.3 1.185e+04 7.475e-10
 64.60769   -146.7 1.192e+04 8.108e-10
 64.62113   -146.2 1.196e+04 8.823e-10
 64.63109   -145.7 1.173e+04 7.193e-10
 64.63973   -145.2 1.187e+04 8.404e-10
 64.64970   -144.3 1.183e+04 7.714e-10
 64.66750   -143.8 1.196e+04 8.933e-10
 64.68744   -143.3 1.213e+04 1.029e-09
 64.70737   -142.9 1.233e+04 1.165e-09
 64.72731   -142.4 1.249e+04 1.287e-09
 64.74290   -142.1 1.258e+04 1.362e-09
 64.75286   -141.4 1.257e+04 1.345e-09
 64.76719   -141.2 1.259e+04 1.369e-09
 64.78713   -141.0 1.256e+04 1.371e-09
 64.80706   -140.8 1.243e+04 1.316e-09
 64.82700   -140.7 1.226e+04 1.201e-09
 64.84606   -140.8 1.211e+04 1.078e-09
 64.85603   -140.4 1.212e+04 1.077e-09
 64.85888   -140.6 1.199e+04 9.742e-10
 64.86885   -140.3 1.207e+04 9.807e-10
 64.88682   -140.8 1.206e+04 9.273e-10
 64.90675   -142.0 1.209e+04 9.225e-10
 64.92669   -144.5 1.273e+04 9.808e-10
 64.94663   -147.9 1.423e+04 1.518e-09
 64.95919   -150.8 1.550e+04 2.772e-09
 64.96916   -150.6 1.490e+04 2.287e-09
 64.98651   -152.8 1.567e+04 3.589e-09
 65.00644   -154.6 1.622e+04 4.841e-09
 65.02638   -156.5 1.650e+04 5.434e-09
 65.04632   -158.4 1.655e+04 5.508e-09
 65.06236   -159.6 1.629e+04 4.668e-09
 65.07233   -158.7 1.535e+04 3.450e-09
 65.08620   -160.0 1.463e+04 2.413e-09
 65.09663   -161.5 1.364e+04 1.602e-09
 65.10660   -163.8 1.347e+04 1.612e-09
 65.12607   -164.6 1.258e+04 1.202e-09
 65.14601   -164.7 1.193e+04 9.724e-10
 65.16552   -164.4 1.145e+04 7.969e-10
 65.17549   -163.7 1.135e+04 7.311e-10
 65.18589   -162.6 1.093e+04 5.974e-10
 65.20582   -161.1 1.059e+04 4.826e-10
 65.22576   -159.6 1.039e+04 3.958e-10
 65.24570   -158.2 1.039e+04 3.468e-10
 65.26879   -157.2 1.047e+04 3.263e-10
 65.28882   -156.5 1.045e+04 3.179e-10
 65.31464   -155.2 1.044e+04 2.935e-10
 65.33448   -155.9 1.062e+04 3.370e-10
 65.34539   -154.9 1.065e+04 3.517e-10
 65.36533   -154.2 1.072e+04 3.819e-10
 65.38182   -153.1 1.075e+04 4.222e-10
 65.39179   -153.0 1.082e+04 4.078e-10
 65.40520   -152.3 1.086e+04 4.595e-10
 65.42514   -151.1 1.088e+04 5.226e-10
 65.44508   -150.1 1.092e+04 5.730e-10
 65.46502   -148.8 1.094e+04 6.326e-10
 65.48495   -147.5 1.090e+04 6.586e-10
 65.50489   -146.2 1.098e+04 7.179e-10
 65.52483   -144.9 1.088e+04 7.281e-10
 65.54477   -143.5 1.079e+04 6.750e-10
 65.56216   -142.2 1.066e+04 5.985e-10
 65.57213   -142.7 1.077e+04 5.968e-10
 65.58464   -141.4 1.054e+04 4.982e-10
 65.59812   -140.2 1.044e+04 4.448e-10
 65.60809   -140.1 1.059e+04 4.960e-10
 65.63459   -139.2 1.042e+04 4.251e-10
 65.67456   -137.1 1.017e+04 3.518e-10
 65.70148   -134.9 9.903e+03 3.025e-10
 65.72142   -135.0 1.022e+04 3.666e-10
 65.75431   -132.4 9.935e+03 3.241e-10
 65.79014   -130.1 9.855e+03 3.149e-10
 65.81007   -130.7 9.504e+03 2.336e-10
 65.83406   -128.8 9.507e+03 2.356e-10
 65.87394   -127.1 9.607e+03 2.679e-10
 65.90781   -125.7 9.719e+03 3.105e-10
 65.92775   -125.4 9.842e+03 3.288e-10
 65.95369   -124.2 9.931e+03 3.681e-10
 65.99357   -123.0 9.949e+03 3.806e-10
 66.03344   -121.8 9.883e+03 3.714e-10
 66.07332   -120.6 9.903e+03 3.517e-10
 66.11319   -120.2 9.977e+03 3.474e-10
 66.13398   -121.4 1.046e+04 4.582e-10
 66.14385   -121.9 1.105e+04 6.157e-10
 66.16284   -122.7 1.153e+04 9.305e-10
 66.18278   -123.5 1.212e+04 1.413e-09
 66.20272   -124.1 1.323e+04 2.209e-09
 66.22266   -124.9 1.486e+04 3.467e-09
 66.23705   -126.1 1.651e+04 5.199e-09
 66.24702   -124.6 1.526e+04 3.738e-09
 66.26253   -126.2 1.669e+04 4.989e-09
 66.27541   -128.0 1.753e+04 6.238e-09
 66.28538   -130.6 1.746e+04 7.198e-09
 66.30241   -131.6 1.735e+04 7.579e-09
 66.32235   -132.3 1.664e+04 6.807e-09
 66.34021   -132.6 1.574e+04 5.524e-09
 66.35018   -132.2 1.691e+04 7.455e-09
 66.36222   -132.2 1.641e+04 6.779e-09
 66.38216   -132.1 1.589e+04 5.703e-09
 66.40210   -131.9 1.537e+04 4.586e-09
 66.42204   -131.8 1.491e+04 3.401e-09
 66.44198   -131.7 1.438e+04 2.303e-09
 66.45335   -131.8 1.363e+04 1.434e-09
 66.46332   -130.6 1.542e+04 3.939e-09
 66.48185   -130.4 1.464e+04 2.553e-09
 66.50179   -130.4 1.364e+04 1.516e-09
 66.51316   -130.5 1.242e+04 8.972e-10
 66.52313   -131.3 1.131e+04 6.293e-10
 66.54664   -131.0 1.103e+04 5.812e-10
 66.56658   -128.8 1.161e+04 8.713e-10
 66.58154   -127.9 1.137e+04 7.971e-10
 66.60148   -126.7 1.136e+04 8.026e-10
 66.63148   -125.7 1.174e+04 9.234e-10
 66.67146   -123.7 1.173e+04 9.131e-10
 66.71133   -121.9 1.200e+04 1.080e-09
 66.74114   -120.4 1.230e+04 1.302e-09
 66.76098   -120.7 1.207e+04 1.170e-09
 66.77281   -120.4 1.214e+04 1.219e-09
 66.78278   -120.0 1.275e+04 1.444e-09
 66.80086   -119.9 1.274e+04 1.446e-09
 66.82080   -120.0 1.267e+04 1.429e-09
 66.84073   -119.9 1.262e+04 1.421e-09
 66.86067   -119.9 1.263e+04 1.426e-09
 66.87598   -120.4 1.279e+04 1.510e-09
 66.88595   -120.1 1.289e+04 1.532e-09
 66.91061   -121.3 1.288e+04 1.585e-09
 66.95059   -122.3 1.304e+04 1.783e-09
 66.97934   -123.3 1.307e+04 2.002e-09
 66.98921   -123.2 1.311e+04 1.993e-09
 67.00024   -123.5 1.305e+04 2.092e-09
 67.02018   -123.6 1.297e+04 2.149e-09
 67.04011   -123.7 1.293e+04 2.175e-09
 67.06005   -123.8 1.295e+04 2.221e-09
 67.07999   -124.1 1.305e+04 2.291e-09
 67.09228   -124.4 1.311e+04 2.374e-09
 67.10224   -124.2 1.320e+04 2.305e-09
 67.11987   -124.5 1.326e+04 2.421e-09
 67.13980   -124.8 1.331e+04 2.539e-09
 67.15974   -125.1 1.335e+04 2.625e-09
 67.17968   -125.3 1.335e+04 2.656e-09
 67.19544   -125.4 1.325e+04 2.649e-09
 67.20541   -125.0 1.358e+04 2.937e-09
 67.21644   -125.0 1.353e+04 2.941e-09
 67.22641   -124.8 1.333e+04 2.713e-09
 67.23949   -124.6 1.312e+04 2.596e-09
 67.25943   -124.2 1.284e+04 2.322e-09
 67.27937   -123.8 1.248e+04 1.973e-09
 67.29861   -123.6 1.204e+04 1.614e-09
 67.30857   -123.0 1.248e+04 1.947e-09
 67.31924   -122.8 1.195e+04 1.514e-09
 67.33918   -122.6 1.134e+04 1.143e-09
 67.35912   -122.4 1.078e+04 8.686e-10
 67.38913   -122.3 1.022e+04 6.341e-10
 67.41193   -121.1 9.199e+03 3.658e-10
 67.42181   -120.8 9.830e+03 5.273e-10
 67.43887   -120.2 9.615e+03 4.648e-10
 67.46888   -119.7 9.478e+03 4.255e-10
 67.50885   -118.3 9.067e+03 3.376e-10
 67.54873   -117.5 8.861e+03 3.093e-10
 67.58860   -117.1 8.809e+03 3.068e-10
 67.61826   -117.4 9.503e+03 4.370e-10
 67.63820   -115.9 9.889e+03 5.385e-10
 67.66835   -116.1 1.054e+04 7.213e-10
 67.69214   -116.8 1.158e+04 1.152e-09
 67.70201   -117.4 1.163e+04 1.204e-09
 67.71800   -118.2 1.219e+04 1.524e-09
 67.73120   -119.0 1.258e+04 1.900e-09
 67.74117   -118.1 1.256e+04 1.712e-09
 67.75788   -119.5 1.365e+04 2.589e-09
 67.77782   -120.7 1.498e+04 4.140e-09
 67.79776   -121.4 1.620e+04 6.426e-09
 67.81769   -122.1 1.713e+04 8.429e-09
 67.83437   -123.1 1.747e+04 9.008e-09
 67.84434   -123.9 1.899e+04 1.547e-08
 67.85757   -125.1 1.897e+04 1.589e-08
 67.87751   -125.7 1.818e+04 1.281e-08
 67.89744   -126.0 1.691e+04 8.152e-09
 67.91738   -126.5 1.542e+04 4.732e-09
 67.92970   -127.0 1.397e+04 2.777e-09
 67.93967   -127.1 1.407e+04 2.976e-09
 67.94750   -127.0 1.300e+04 1.918e-09
 67.95747   -126.8 1.379e+04 3.425e-09
 67.97720   -126.3 1.272e+04 2.220e-09
 67.99713   -125.9 1.224e+04 1.646e-09
 68.01707   -125.8 1.185e+04 1.318e-09
 68.03701   -125.6 1.172e+04 1.208e-09
 68.05067   -125.5 1.170e+04 1.188e-09
 68.06064   -125.2 1.194e+04 1.574e-09
 68.07689   -125.3 1.194e+04 1.570e-09
 68.09682   -125.3 1.211e+04 1.712e-09
 68.11676   -125.2 1.246e+04 2.008e-09
 68.13670   -124.9 1.278e+04 2.295e-09
 68.15383   -124.8 1.298e+04 2.446e-09
 68.16380   -124.2 1.284e+04 2.310e-09
 68.16745   -124.2 1.287e+04 2.281e-09
 68.17742   -123.9 1.333e+04 2.853e-09
 68.19651   -123.8 1.332e+04 2.682e-09
 68.21645   -123.6 1.288e+04 2.080e-09
 68.23639   -123.6 1.212e+04 1.458e-09
 68.25633   -124.0 1.118e+04 9.673e-10
 68.26697   -124.4 1.020e+04 6.340e-10
 68.27693   -124.4 9.631e+03 5.103e-10
 68.29620   -124.5 9.006e+03 3.703e-10
 68.31614   -124.4 8.808e+03 3.211e-10
 68.34615   -124.1 8.777e+03 3.060e-10
 68.38612   -124.1 8.692e+03 2.875e-10
 68.42600   -123.5 8.603e+03 2.785e-10
 68.46352   -122.8 8.585e+03 2.818e-10
 68.48346   -122.1 8.338e+03 2.405e-10
 68.50575   -121.5 8.439e+03 2.651e-10
 68.54562   -121.3 8.762e+03 3.207e-10
 68.58550   -121.3 9.204e+03 4.048e-10
 68.62321   -121.5 9.752e+03 5.315e-10
 68.64314   -121.8 9.911e+03 5.755e-10
 68.65518   -122.1 1.042e+04 7.357e-10
 68.67502   -122.3 1.069e+04 8.501e-10
 68.68959   -122.4 1.091e+04 9.645e-10
 68.69956   -122.5 1.112e+04 1.070e-09
 68.71490   -122.5 1.125e+04 1.153e-09
 68.73484   -122.4 1.131e+04 1.205e-09
 68.75478   -122.2 1.132e+04 1.216e-09
 68.77471   -122.0 1.131e+04 1.216e-09
 68.79276   -121.8 1.126e+04 1.209e-09
 68.80273   -121.8 1.114e+04 1.159e-09
 68.81459   -121.5 1.105e+04 1.123e-09
 68.83453   -121.2 1.101e+04 1.108e-09
 68.85447   -120.8 1.101e+04 1.108e-09
 68.87073   -120.4 1.106e+04 1.147e-09
 68.88070   -120.4 1.111e+04 1.172e-09
 68.89602   -120.1 1.119e+04 1.208e-09
 68.91596   -119.7 1.083e+04 9.620e-10
 68.94428   -119.8 1.090e+04 9.626e-10
 68.98426   -119.5 1.115e+04 1.068e-09
 69.02413   -119.7 1.136e+04 1.151e-09
 69.06401   -120.1 1.156e+04 1.239e-09
 69.09871   -120.8 1.184e+04 1.385e-09
 69.11721   -121.6 1.177e+04 1.354e-09
 69.12239   -122.1 1.133e+04 1.091e-09
 69.14376   -122.8 1.148e+04 1.167e-09
 69.18364   -123.5 1.151e+04 1.194e-09
 69.22351   -123.9 1.149e+04 1.193e-09
 69.26339   -124.1 1.136e+04 1.106e-09
 69.30326   -124.3 1.109e+04 9.318e-10
 69.32872   -124.0 1.062e+04 7.010e-10
 69.34866   -125.0 1.052e+04 6.352e-10
 69.38302   -124.0 9.960e+03 4.373e-10
 69.42289   -122.6 9.448e+03 2.986e-10
 69.46277   -121.0 9.047e+03 2.145e-10
 69.50264   -119.1 8.764e+03 1.639e-10
 69.53505   -117.0 8.567e+03 1.313e-10
 69.55499   -117.7 8.446e+03 1.159e-10
 69.57421   -115.4 8.290e+03 9.164e-11
 69.59415   -114.8 8.290e+03 9.313e-11
 69.62227   -112.4 8.168e+03 7.425e-11
 69.66215   -110.0 8.082e+03 6.051e-11
 69.70202   -107.6 8.028e+03 5.098e-11
 69.74138   -105.2 8.004e+03 4.514e-11
 69.76132   -105.7 7.979e+03 4.331e-11
 69.78178   -103.4 7.987e+03 4.117e-11
 69.82165   -101.0 7.992e+03 4.070e-11
 69.86153    -98.9 8.016e+03 4.069e-11
 69.90140    -97.0 8.111e+03 4.351e-11
 69.94128    -95.2 8.203e+03 5.211e-11
 69.96764    -93.3 8.299e+03 6.732e-11
 69.98758    -94.3 8.500e+03 7.810e-11
 70.02103    -92.4 8.668e+03 9.484e-11
 70.04971    -90.6 8.780e+03 1.095e-10
 70.06965    -90.1 8.522e+03 8.771e-11
 70.10078    -88.4 8.558e+03 8.736e-11
 70.14066    -86.8 8.643e+03 8.340e-11
 70.17397    -85.1 8.641e+03 8.195e-11
 70.19391    -86.6 8.638e+03 8.301e-11
 70.22041    -84.8 8.621e+03 8.289e-11
 70.26029    -82.9 8.631e+03 8.621e-11
 70.30016    -80.9 8.662e+03 9.193e-11
 70.34004    -79.0 8.732e+03 1.012e-10
 70.37991    -77.3 8.933e+03 1.303e-10
 70.40024    -75.9 9.326e+03 2.087e-10
 70.42018    -77.1 9.354e+03 1.942e-10
 70.45966    -76.1 1.013e+04 3.800e-10
 70.49954    -75.3 1.117e+04 7.480e-10
 70.52521    -74.8 1.210e+04 1.306e-09
 70.54515    -73.5 1.135e+04 9.562e-10
 70.57929    -73.4 1.211e+04 1.443e-09
 70.60647    -74.3 1.269e+04 2.039e-09
 70.61635    -75.2 1.272e+04 2.108e-09
 70.62894    -75.2 1.286e+04 2.255e-09
 70.64888    -75.2 1.300e+04 2.411e-09
 70.66882    -75.3 1.315e+04 2.481e-09
 70.68876    -75.4 1.321e+04 2.460e-09
 70.70869    -75.5 1.316e+04 2.328e-09
 70.71951    -75.6 1.303e+04 2.168e-09
 70.72948    -76.4 1.218e+04 1.363e-09
 70.74857    -76.8 1.191e+04 1.240e-09
 70.76277    -77.3 1.178e+04 1.204e-09
 70.77273    -77.0 1.156e+04 1.004e-09
 70.78845    -77.5 1.142e+04 9.934e-10
 70.80838    -77.8 1.133e+04 1.114e-09
 70.82268    -78.0 1.156e+04 1.365e-09
 70.83265    -79.2 1.143e+04 1.223e-09
 70.84826    -78.6 1.179e+04 1.573e-09
 70.86820    -77.6 1.217e+04 1.904e-09
 70.88814    -76.8 1.248e+04 2.091e-09
 70.90807    -76.1 1.257e+04 2.131e-09
 70.92584    -75.6 1.265e+04 2.017e-09
 70.93581    -75.6 1.271e+04 2.020e-09
 70.94795    -75.2 1.264e+04 1.729e-09
 70.96789    -75.2 1.248e+04 1.456e-09
 70.98782    -75.3 1.240e+04 1.309e-09
 71.00061    -75.4 1.252e+04 1.295e-09
 71.02065    -73.6 1.103e+04 7.584e-10
 71.03917    -72.6 1.115e+04 7.309e-10
 71.05911    -72.8 1.119e+04 7.461e-10
 71.08761    -72.4 1.137e+04 7.889e-10
 71.10745    -71.8 1.126e+04 7.812e-10
 71.12739    -70.8 1.122e+04 7.780e-10
 71.14214    -70.2 1.110e+04 7.684e-10
 71.15211    -70.3 1.102e+04 7.469e-10
 71.16727    -69.4 1.095e+04 7.383e-10
 71.18720    -68.8 1.088e+04 7.277e-10
 71.20714    -67.7 1.087e+04 7.264e-10
 71.22708    -66.9 1.082e+04 7.193e-10
 71.23827    -65.6 1.083e+04 7.353e-10
 71.24652    -64.9 1.083e+04 7.558e-10
 71.25527    -65.3 1.083e+04 7.528e-10
 71.26696    -64.6 1.079e+04 7.540e-10
 71.29696    -63.9 1.076e+04 7.583e-10
 71.33693    -62.2 1.097e+04 8.234e-10
 71.37681    -61.3 1.112e+04 8.805e-10
 71.40662    -61.4 1.133e+04 9.739e-10
 71.42646    -61.2 1.176e+04 1.172e-09
 71.44640    -61.2 1.221e+04 1.444e-09
 71.46160    -61.3 1.244e+04 1.737e-09
 71.47129    -61.5 1.197e+04 1.354e-09
 71.47602    -61.6 1.278e+04 2.160e-09
 71.48627    -60.5 1.280e+04 2.401e-09
 71.50621    -59.4 1.278e+04 2.464e-09
 71.52615    -58.3 1.258e+04 2.274e-09
 71.54609    -57.2 1.227e+04 1.935e-09
 71.56477    -56.3 1.194e+04 1.579e-09
 71.57474    -56.7 1.159e+04 1.371e-09
 71.58596    -55.9 1.129e+04 1.127e-09
 71.60590    -55.0 1.102e+04 9.278e-10
 71.62584    -54.2 1.083e+04 7.825e-10
 71.64578    -53.4 1.068e+04 6.721e-10
 71.66571    -52.6 1.053e+04 5.845e-10
 71.67790    -51.7 1.042e+04 5.272e-10
 71.68787    -52.0 1.041e+04 5.200e-10
 71.70380    -51.1 1.035e+04 4.908e-10
 71.71377    -51.6 1.061e+04 5.640e-10
 71.72553    -50.7 1.061e+04 5.453e-10
 71.74547    -49.9 1.071e+04 5.405e-10
 71.76540    -49.6 1.110e+04 5.691e-10
 71.78107    -49.6 1.185e+04 6.432e-10
 71.79104    -50.0 1.180e+04 6.381e-10
 71.80528    -50.3 1.303e+04 8.113e-10
 71.82522    -50.9 1.415e+04 1.121e-09
 71.84516    -51.6 1.448e+04 1.495e-09
 71.86509    -51.4 1.437e+04 1.983e-09
 71.88423    -50.5 1.427e+04 2.404e-09
 71.89420    -50.6 1.450e+04 2.495e-09
 71.90497    -49.2 1.431e+04 2.693e-09
 71.92491    -47.8 1.360e+04 2.849e-09
 71.94155    -46.6 1.338e+04 2.557e-09
 71.95152    -47.1 1.316e+04 2.415e-09
 71.96478    -46.1 1.280e+04 1.989e-09
 71.98472    -44.8 1.261e+04 1.613e-09
 71.99737    -43.6 1.261e+04 1.301e-09
 72.00734    -44.0 1.258e+04 1.307e-09
 72.02460    -43.2 1.264e+04 1.071e-09
 72.05460    -43.6 1.210e+04 7.424e-10
 72.09076    -41.8 1.193e+04 6.055e-10
 72.11070    -41.6 1.266e+04 8.665e-10
 72.13445    -39.7 1.326e+04 8.519e-10
 72.16426    -37.1 1.367e+04 1.036e-09
 72.17930    -36.3 1.367e+04 1.104e-09
 72.18927    -38.4 1.274e+04 7.570e-10
 72.20370    -37.7 1.225e+04 8.151e-10
 72.21367    -37.5 1.266e+04 9.639e-10
 72.22398    -36.5 1.230e+04 1.010e-09
 72.24391    -35.7 1.162e+04 1.006e-09
 72.26385    -34.7 1.118e+04 9.719e-10
 72.28379    -33.7 1.051e+04 8.925e-10
 72.30373    -33.1 1.030e+04 7.951e-10
 72.31683    -32.5 1.009e+04 6.649e-10
 72.32680    -33.4 1.060e+04 7.328e-10
 72.34360    -33.3 1.058e+04 6.447e-10
 72.36354    -33.2 1.075e+04 5.965e-10
 72.38348    -33.5 1.071e+04 5.874e-10
 72.40342    -35.8 1.145e+04 7.743e-10
 72.41705    -41.9 1.525e+04 1.601e-09
 72.42366    -47.8 1.548e+04 1.924e-09
 72.42996    -50.1 1.697e+04 4.015e-09
 72.44329    -53.0 1.732e+04 7.145e-09
 72.46323    -55.2 1.739e+04 9.475e-09
 72.48317    -57.1 1.726e+04 9.899e-09
 72.50311    -59.1 1.697e+04 7.684e-09
 72.52305    -62.3 1.612e+04 4.401e-09
 72.53313    -65.8 1.498e+04 2.519e-09
 72.54310    -71.5 1.203e+04 1.222e-09
 72.56292    -74.0 1.063e+04 8.442e-10
 72.58286    -74.4 1.038e+04 7.736e-10
 72.60280    -73.9 1.046e+04 7.826e-10
 72.62274    -73.1 1.061e+04 8.192e-10
 72.63629    -72.2 1.076e+04 8.563e-10
 72.64626    -72.6 1.050e+04 7.849e-10
 72.65480    -71.5 1.062e+04 8.162e-10
 72.66477    -70.8 1.069e+04 9.361e-10
 72.68255    -69.6 1.077e+04 9.704e-10
 72.70249    -68.3 1.080e+04 9.798e-10
 72.72243    -66.9 1.080e+04 9.801e-10
 72.73946    -65.4 1.074e+04 9.466e-10
 72.74943    -65.7 1.066e+04 9.173e-10
 72.76230    -64.2 1.054e+04 8.622e-10
 72.78224    -62.6 1.044e+04 8.130e-10
 72.80218    -61.1 1.035e+04 7.668e-10
 72.82211    -59.6 1.024e+04 7.152e-10
 72.84205    -58.1 1.011e+04 6.744e-10
 72.85259    -56.4 1.008e+04 6.649e-10
 72.86256    -56.9 1.010e+04 6.628e-10
 72.88193    -55.5 1.023e+04 6.885e-10
 72.89255    -54.4 1.040e+04 7.370e-10
 72.90252    -53.9 1.060e+04 8.776e-10
 72.92180    -52.8 1.072e+04 9.233e-10
 72.94174    -51.5 1.090e+04 9.950e-10
 72.95586    -49.7 1.128e+04 1.176e-09
 72.96582    -51.6 1.160e+04 1.196e-09
 72.98162    -50.8 1.182e+04 1.390e-09
 73.00156    -49.9 1.207e+04 1.593e-09
 73.02149    -48.7 1.225e+04 1.790e-09
 73.04143    -47.7 1.234e+04 1.977e-09
 73.05892    -46.1 1.239e+04 2.071e-09
 73.06889    -46.9 1.258e+04 2.195e-09
 73.08131    -45.3 1.234e+04 2.059e-09
 73.10125    -43.5 1.218e+04 1.872e-09
 73.12033    -42.0 1.175e+04 1.514e-09
 73.13030    -41.9 1.173e+04 1.430e-09
 73.14112    -41.1 1.128e+04 1.177e-09
 73.16106    -40.0 1.075e+04 8.918e-10
 73.17206    -39.4 1.037e+04 7.484e-10
 73.18203    -40.3 1.018e+04 6.684e-10
 73.20094    -39.4 9.826e+03 5.465e-10
 73.22087    -38.7 9.519e+03 4.804e-10
 73.24081    -37.5 9.346e+03 4.359e-10
 73.26075    -36.7 9.136e+03 3.984e-10
 73.27522    -35.2 9.044e+03 3.800e-10
 73.28519    -35.7 8.866e+03 3.370e-10
 73.30063    -34.8 8.767e+03 3.188e-10
 73.33063    -32.7 8.861e+03 3.222e-10
 73.35818    -30.7 8.624e+03 2.927e-10
 73.36805    -30.6 9.030e+03 3.880e-10
 73.37839    -30.3 9.022e+03 3.867e-10
 73.38845    -30.9 8.803e+03 3.324e-10
 73.41048    -29.0 8.835e+03 3.331e-10
 73.44029    -27.9 8.976e+03 3.611e-10
 73.46013    -27.6 9.070e+03 3.725e-10
 73.48007    -27.5 9.239e+03 4.277e-10
 73.49152    -27.3 9.396e+03 4.692e-10
 73.50149    -27.7 9.131e+03 4.038e-10
 73.51994    -27.4 9.167e+03 4.641e-10
 73.53988    -26.7 9.258e+03 5.010e-10
 73.55982    -25.8 9.434e+03 5.575e-10
 73.57976    -25.0 9.604e+03 5.975e-10
 73.59469    -24.7 9.887e+03 6.445e-10
 73.60079    -25.1 9.644e+03 5.631e-10
 73.60580    -25.5 1.004e+04 6.847e-10
 73.61963    -26.2 1.060e+04 8.241e-10
 73.63957    -27.6 1.129e+04 1.073e-09
 73.65951    -28.8 1.180e+04 1.357e-09
 73.67945    -29.6 1.206e+04 1.692e-09
 73.69785    -30.0 1.240e+04 1.985e-09
 73.70782    -30.8 1.258e+04 2.164e-09
 73.71932    -31.4 1.311e+04 2.448e-09
 73.73926    -33.0 1.378e+04 2.746e-09
 73.75920    -36.6 1.455e+04 3.176e-09
 73.77914    -42.0 1.553e+04 4.198e-09
 73.79404    -46.0 1.605e+04 5.166e-09
 73.80396    -47.1 1.667e+04 5.868e-09
 73.81089    -49.3 1.709e+04 7.181e-09
 73.81587    -49.4 1.689e+04 6.860e-09
 73.82390    -50.3 1.734e+04 7.622e-09
 73.83349    -52.3 1.736e+04 8.197e-09
 73.83847    -52.8 1.758e+04 8.888e-09
 73.84384    -53.7 1.756e+04 8.768e-09
 73.85381    -55.1 1.685e+04 7.340e-09
 73.86247    -56.0 1.667e+04 6.472e-09
 73.86745    -55.9 1.653e+04 6.580e-09
 73.87374    -57.5 1.640e+04 5.479e-09
 73.88371    -59.1 1.696e+04 4.940e-09
 73.89871    -64.6 1.646e+04 4.067e-09
 73.91415    -71.0 1.613e+04 3.890e-09
 73.92412    -69.1 1.584e+04 3.649e-09
 73.93864    -73.1 1.570e+04 3.858e-09
 73.95858    -75.1 1.558e+04 4.110e-09
 73.97852    -75.9 1.505e+04 3.959e-09
 73.99845    -76.0 1.440e+04 3.146e-09
 74.01731    -76.3 1.373e+04 2.104e-09
 74.02728    -76.5 1.251e+04 1.438e-09
 74.03833    -78.2 1.179e+04 8.494e-10
 74.05827    -80.7 1.070e+04 4.982e-10
 74.07134    -82.4 9.901e+03 3.744e-10
 74.08130    -83.9 9.798e+03 3.674e-10
 74.09814    -83.9 9.749e+03 3.637e-10
 74.11808    -83.5 9.991e+03 4.002e-10
 74.13045    -82.9 1.025e+04 4.495e-10
 74.14042    -81.9 9.934e+03 3.338e-10
 74.15796    -81.4 1.013e+04 3.773e-10
 74.17789    -80.9 1.028e+04 4.181e-10
 74.19783    -80.3 1.042e+04 4.587e-10
 74.21777    -79.5 1.060e+04 4.849e-10
 74.23361    -78.9 1.081e+04 5.073e-10
 74.24358    -78.3 1.059e+04 4.729e-10
 74.25765    -77.7 1.078e+04 4.987e-10
 74.27758    -77.2 1.095e+04 5.323e-10
 74.29752    -76.6 1.108e+04 5.777e-10
 74.30909    -75.9 1.120e+04 6.394e-10
 74.31906    -76.0 1.152e+04 7.937e-10
 74.33678    -75.1 1.163e+04 8.750e-10
 74.34675    -74.2 1.127e+04 7.243e-10
 74.35734    -73.2 1.133e+04 7.607e-10
 74.37727    -72.2 1.136e+04 7.789e-10
 74.39721    -71.0 1.136e+04 7.820e-10
 74.41715    -69.8 1.133e+04 7.676e-10
 74.43709    -68.5 1.128e+04 7.269e-10
 74.44991    -67.3 1.124e+04 6.757e-10
 74.45988    -66.4 1.075e+04 4.979e-10
 74.47696    -65.2 1.073e+04 4.561e-10
 74.49690    -64.2 1.074e+04 4.243e-10
 74.51684    -63.3 1.075e+04 4.155e-10
 74.53678    -62.4 1.087e+04 4.208e-10
 74.55308    -61.6 1.121e+04 6.772e-10
 74.56305    -60.8 1.086e+04 5.125e-10
 74.57665    -59.6 1.110e+04 6.117e-10
 74.60666    -58.4 1.146e+04 7.469e-10
 74.64647    -55.9 1.193e+04 9.724e-10
 74.68634    -51.9 1.190e+04 1.040e-09
 74.72638    -49.1 1.251e+04 1.314e-09
 74.76485    -46.6 1.285e+04 1.491e-09
 74.78478    -47.8 1.284e+04 1.457e-09
 74.79607    -45.3 1.284e+04 1.469e-09
 74.81591    -44.4 1.304e+04 1.605e-09
 74.83585    -43.1 1.327e+04 1.780e-09
 74.85578    -41.7 1.338e+04 1.924e-09
 74.87254    -40.3 1.372e+04 2.198e-09
 74.88251    -40.1 1.348e+04 1.960e-09
 74.89566    -39.1 1.411e+04 2.421e-09
 74.91560    -38.5 1.456e+04 2.983e-09
 74.93554    -37.5 1.505e+04 3.853e-09
 74.95547    -36.3 1.585e+04 5.184e-09
 74.97541    -34.8 1.690e+04 7.117e-09
 74.98567    -33.9 1.808e+04 9.410e-09
 74.99564    -35.0 1.837e+04 9.830e-09
 75.01237    -34.7 1.971e+04 1.339e-08
 75.02234    -35.8 1.958e+04 1.397e-08
 75.03523    -35.9 2.016e+04 1.654e-08
 75.05516    -35.9 2.026e+04 1.852e-08
 75.07510    -35.6 1.966e+04 1.699e-08
 75.08884    -34.7 1.925e+04 1.361e-08
 75.09377    -35.1 1.939e+04 1.594e-08
 75.09993    -34.7 1.929e+04 1.467e-08
 75.11493    -35.5 1.898e+04 1.034e-08
 75.13492    -36.1 1.841e+04 7.447e-09
 75.15485    -37.2 1.721e+04 5.080e-09
 75.17479    -37.8 1.596e+04 3.597e-09
 75.19200    -38.0 1.503e+04 2.702e-09
 75.20197    -38.9 1.515e+04 2.652e-09
 75.21467    -39.2 1.496e+04 2.161e-09
 75.23461    -40.3 1.525e+04 2.034e-09
 75.25012    -42.4 1.617e+04 2.191e-09
 75.26009    -41.8 1.433e+04 1.351e-09
 75.27448    -44.5 1.534e+04 1.770e-09
 75.29442    -47.5 1.626e+04 2.571e-09
 75.30514    -49.9 1.736e+04 4.056e-09
 75.31511    -52.6 1.790e+04 6.442e-09
 75.33429    -53.4 1.870e+04 1.060e-08
 75.35423    -53.3 1.923e+04 1.395e-08
 75.37417    -54.2 1.915e+04 1.367e-08
 75.39411    -55.2 1.863e+04 1.065e-08
 75.40830    -56.8 1.768e+04 7.616e-09
 75.41827    -57.6 1.746e+04 6.959e-09
 75.43398    -59.2 1.607e+04 4.915e-09
 75.45392    -59.9 1.507e+04 3.642e-09
 75.47386    -60.2 1.423e+04 2.762e-09
 75.48787    -60.4 1.330e+04 2.029e-09
 75.49784    -58.8 1.354e+04 2.231e-09
 75.51147    -59.3 1.260e+04 1.610e-09
 75.52144    -59.5 1.283e+04 1.846e-09
 75.53367    -59.7 1.222e+04 1.483e-09
 75.55361    -60.1 1.184e+04 1.275e-09
 75.57355    -60.6 1.176e+04 1.222e-09
 75.59349    -62.2 1.220e+04 1.342e-09
 75.61343    -64.8 1.305e+04 1.872e-09
 75.62460    -66.5 1.384e+04 2.795e-09
 75.63457    -66.5 1.430e+04 3.406e-09
 75.65330    -66.7 1.504e+04 4.719e-09
 75.67324    -66.6 1.565e+04 5.821e-09
 75.69318    -66.4 1.584e+04 6.127e-09
 75.71312    -66.5 1.637e+04 5.300e-09
 75.72562    -67.9 1.633e+04 3.701e-09
 75.73030    -65.2 1.559e+04 4.299e-09
 75.73774    -65.9 1.601e+04 4.342e-09
 75.75299    -68.8 1.518e+04 2.691e-09
 75.77293    -71.6 1.363e+04 1.586e-09
 75.79287    -73.2 1.218e+04 1.143e-09
 75.81281    -73.6 1.149e+04 9.054e-10
 75.83093    -73.5 1.102e+04 7.874e-10
 75.84090    -73.4 1.123e+04 8.930e-10
 75.85268    -73.0 1.099e+04 7.950e-10
 75.87262    -72.5 1.083e+04 7.255e-10
 75.89256    -71.9 1.073e+04 6.734e-10
 75.91250    -71.2 1.069e+04 6.402e-10
 75.93243    -70.5 1.068e+04 6.222e-10
 75.94407    -69.7 1.067e+04 6.175e-10
 75.95403    -70.1 1.067e+04 6.185e-10
 75.96337    -69.4 1.063e+04 6.165e-10
 75.97334    -68.5 1.042e+04 5.598e-10
 75.99225    -67.7 1.045e+04 5.711e-10
 76.01218    -66.9 1.042e+04 5.762e-10
 76.03212    -66.0 1.036e+04 5.726e-10
 76.04723    -65.1 1.028e+04 5.595e-10
 76.05720    -65.6 9.957e+03 4.565e-10
 76.07200    -64.7 9.858e+03 4.230e-10
 76.09194    -64.2 9.781e+03 4.028e-10
 76.11187    -62.9 9.751e+03 3.792e-10
 76.13181    -62.7 9.706e+03 3.689e-10
 76.15049    -61.1 9.746e+03 3.662e-10
 76.17053    -61.9 9.535e+03 3.019e-10
 76.19135    -60.4 9.421e+03 2.750e-10
 76.21129    -59.7 9.422e+03 2.821e-10
 76.24167    -58.3 9.275e+03 2.539e-10
 76.28154    -56.6 9.180e+03 2.394e-10
 76.32142    -54.8 9.119e+03 2.290e-10
 76.35692    -53.0 9.094e+03 2.174e-10
 76.37686    -53.7 8.908e+03 1.852e-10
 76.40117    -52.2 9.025e+03 1.872e-10
 76.44105    -51.6 9.377e+03 2.083e-10
 76.48092    -51.8 9.758e+03 2.933e-10
 76.51073    -52.1 1.000e+04 4.319e-10
 76.53057    -52.3 1.012e+04 5.099e-10
 76.55051    -51.5 1.052e+04 8.023e-10
 76.57045    -50.7 1.074e+04 9.037e-10
 76.58299    -50.0 1.085e+04 9.327e-10
 76.59296    -50.2 1.058e+04 7.338e-10
 76.61032    -49.9 1.061e+04 6.483e-10
 76.63026    -49.8 1.052e+04 5.350e-10
 76.65020    -49.9 1.037e+04 4.575e-10
 76.66665    -50.0 1.015e+04 3.943e-10
 76.68669    -49.2 1.018e+04 3.790e-10
 76.72018    -49.1 1.011e+04 3.252e-10
 76.76005    -48.7 1.002e+04 3.016e-10
 76.78952    -47.9 9.961e+03 3.073e-10
 76.80946    -48.3 9.838e+03 2.790e-10
 76.83980    -47.1 9.792e+03 2.985e-10
 76.87968    -45.5 9.570e+03 2.956e-10
 76.91956    -43.8 9.479e+03 2.322e-10
 76.95943    -42.9 9.473e+03 1.666e-10
 76.99585    -42.6 9.316e+03 1.408e-10
 77.01579    -42.6 9.319e+03 1.427e-10
 77.03918    -41.4 9.192e+03 1.380e-10
 77.07906    -39.9 9.048e+03 1.399e-10
 77.11894    -38.1 9.016e+03 1.261e-10
 77.14235    -36.5 9.079e+03 1.099e-10
 77.16229    -36.3 8.971e+03 1.064e-10
 77.19869    -35.1 8.973e+03 9.364e-11
 77.22212    -33.8 9.055e+03 9.162e-11
 77.24205    -33.9 9.231e+03 1.069e-10
 77.27844    -32.2 9.173e+03 1.114e-10
 77.31831    -30.5 9.149e+03 1.028e-10
 77.35819    -29.2 9.169e+03 1.069e-10
 77.39807    -28.7 9.366e+03 1.540e-10
 77.42845    -27.9 9.987e+03 2.721e-10
 77.44838    -28.6 1.001e+04 2.785e-10
 77.46775    -28.4 1.026e+04 3.901e-10
 77.48759    -27.8 1.032e+04 4.895e-10
 77.50753    -26.8 1.061e+04 5.973e-10
 77.52747    -26.5 1.109e+04 6.615e-10
 77.54138    -26.9 1.152e+04 7.189e-10
 77.55135    -27.6 1.168e+04 7.360e-10
 77.56734    -28.4 1.183e+04 8.030e-10
 77.59735    -28.5 1.171e+04 9.495e-10
 77.61785    -28.6 1.155e+04 8.985e-10
 77.63524    -29.2 1.168e+04 9.490e-10
 77.65471    -29.9 1.169e+04 9.669e-10
 77.67720    -29.9 1.125e+04 7.749e-10
 77.71707    -29.2 1.064e+04 5.423e-10
 77.75695    -28.4 1.016e+04 3.536e-10
 77.79683    -27.5 9.853e+03 2.460e-10
 77.83670    -26.6 9.704e+03 1.937e-10
 77.86104    -25.6 9.643e+03 1.808e-10
 77.88098    -26.9 9.630e+03 1.817e-10
 77.91645    -26.0 9.636e+03 2.082e-10
 77.95633    -24.9 9.732e+03 2.778e-10
 77.99620    -23.6 9.938e+03 3.678e-10
 78.03608    -22.3 1.012e+04 4.394e-10
 78.06589    -21.4 9.957e+03 4.205e-10
 78.07715    -21.2 9.972e+03 4.249e-10
 78.08467    -21.7 9.859e+03 3.811e-10
 78.09326    -21.4 1.002e+04 4.590e-10
 78.10567    -20.7 9.946e+03 4.348e-10
 78.12561    -20.4 9.962e+03 4.311e-10
 78.14554    -20.0 9.983e+03 4.372e-10
 78.16548    -19.9 9.991e+03 4.414e-10
 78.19549    -19.1 9.919e+03 4.396e-10
 78.23546    -17.5 9.915e+03 4.499e-10
 78.27370    -15.5 9.632e+03 3.753e-10
 78.29364    -15.8 9.383e+03 3.172e-10
 78.31521    -13.7 9.258e+03 2.582e-10
 78.35509    -11.9 9.177e+03 1.951e-10
 78.39496    -10.6 9.171e+03 1.464e-10
 78.43484     -9.3 9.103e+03 1.378e-10
 78.47472     -7.8 9.123e+03 1.447e-10
 78.49997     -6.4 9.229e+03 1.786e-10
 78.51991     -6.4 9.202e+03 2.057e-10
 78.54892     -4.7 9.360e+03 2.599e-10
 78.56885     -4.3 9.129e+03 1.796e-10
 78.59434     -2.4 9.197e+03 1.946e-10
 78.63422     -0.4 9.231e+03 1.984e-10
 78.67409      1.4 9.246e+03 1.979e-10
 78.70630      3.1 9.281e+03 2.024e-10
 78.72624      2.9 8.980e+03 1.626e-10
 78.75385      4.5 9.002e+03 1.689e-10
 78.79372      6.1 9.096e+03 1.935e-10
 78.83360      7.7 9.261e+03 2.325e-10
 78.87347      9.0 9.469e+03 2.954e-10
 78.91263     10.2 9.826e+03 4.022e-10
 78.93257     10.1 9.582e+03 3.447e-10
 78.94316     10.6 9.769e+03 4.168e-10
 78.96300     11.0 9.874e+03 4.816e-10
 78.98294     11.6 1.003e+04 5.932e-10
 79.00288     12.6 1.023e+04 7.295e-10
 79.02281     13.7 1.035e+04 7.902e-10
 79.03419     14.6 1.035e+04 7.827e-10
 79.03695     15.2 1.043e+04 7.295e-10
 79.04551     15.0 1.006e+04 5.657e-10
 79.06269     15.8 1.004e+04 5.509e-10
 79.08263     16.4 9.954e+03 5.122e-10
 79.10256     16.9 9.831e+03 4.466e-10
 79.12250     17.1 9.734e+03 4.002e-10
 79.13870     17.3 9.636e+03 3.721e-10
 79.15874     17.4 9.548e+03 3.326e-10
 79.18241     17.5 9.520e+03 3.481e-10
 79.20225     17.4 9.575e+03 3.802e-10
 79.22219     17.5 9.725e+03 4.593e-10
 79.24187     18.1 9.929e+03 5.706e-10
 79.25184     18.2 9.685e+03 4.874e-10
 79.26197     19.0 9.846e+03 5.539e-10
 79.28191     20.3 1.017e+04 7.054e-10
 79.30194     21.3 1.011e+04 6.516e-10
 79.32188     22.0 1.001e+04 5.625e-10
 79.34513     22.2 9.738e+03 4.092e-10
 79.36517     22.2 9.547e+03 3.691e-10
 79.39186     23.2 9.162e+03 2.581e-10
 79.43174     24.5 9.173e+03 2.389e-10
 79.47161     24.7 9.398e+03 2.585e-10
 79.49982     24.3 9.808e+03 2.992e-10
 79.50969     25.7 9.560e+03 2.937e-10
 79.52126     24.9 1.008e+04 3.683e-10
 79.54120     23.5 1.070e+04 5.757e-10
 79.56114     23.4 1.120e+04 9.580e-10
 79.57130     23.9 1.155e+04 1.414e-09
 79.58127     24.2 1.120e+04 1.237e-09
 79.60101     25.0 1.121e+04 1.290e-09
 79.62095     25.8 1.118e+04 1.246e-09
 79.64089     26.5 1.107e+04 1.061e-09
 79.66083     26.7 1.089e+04 7.737e-10
 79.67447     26.5 1.063e+04 5.235e-10
 79.68443     26.4 1.033e+04 4.347e-10
 79.71077     26.5 1.016e+04 3.446e-10
 79.75074     27.1 9.823e+03 2.552e-10
 79.77783     28.7 9.510e+03 1.983e-10
 79.79776     29.5 9.285e+03 1.768e-10
 79.83049     31.5 9.269e+03 1.785e-10
 79.87037     33.5 9.379e+03 1.967e-10
 79.91025     35.4 9.674e+03 2.324e-10
 79.95012     37.3 1.011e+04 2.814e-10
 79.97532     38.3 1.022e+04 2.853e-10
 79.98942     39.5 9.863e+03 2.432e-10
 80.00409     39.7 1.005e+04 2.583e-10
 80.01981     40.1 1.025e+04 2.848e-10
 80.03965     40.1 1.055e+04 3.424e-10
 80.05959     40.2 1.084e+04 4.440e-10
 80.07952     40.3 1.112e+04 5.914e-10
 80.09709     40.6 1.141e+04 7.796e-10
 80.10706     40.7 1.150e+04 8.816e-10
 80.11940     41.1 1.176e+04 1.063e-09
 80.13934     41.4 1.196e+04 1.211e-09
 80.15928     41.6 1.210e+04 1.299e-09
 80.17921     41.6 1.220e+04 1.332e-09
 80.19915     41.6 1.227e+04 1.328e-09
 80.21023     41.5 1.231e+04 1.315e-09
 80.21408     41.5 1.228e+04 1.298e-09
 80.22294     42.3 1.205e+04 1.104e-09
 80.23903     42.1 1.208e+04 1.099e-09
 80.25897     41.9 1.216e+04 1.100e-09
 80.27890     42.0 1.226e+04 1.122e-09
 80.29884     42.1 1.236e+04 1.163e-09
 80.31339     42.3 1.246e+04 1.205e-09
 80.32336     42.5 1.232e+04 1.136e-09
 80.33872     42.7 1.230e+04 1.129e-09
 80.35865     43.2 1.220e+04 1.088e-09
 80.37859     43.8 1.196e+04 9.472e-10
 80.39853     44.2 1.173e+04 7.858e-10
 80.41666     44.4 1.146e+04 6.073e-10
 80.43669     44.6 1.118e+04 5.343e-10
 80.45092     45.7 1.081e+04 3.844e-10
 80.47086     46.9 1.108e+04 4.922e-10
 80.50838     48.0 1.070e+04 3.626e-10
 80.54826     49.3 1.036e+04 3.035e-10
 80.58814     50.9 1.020e+04 2.847e-10
 80.62308     52.8 1.012e+04 2.803e-10
 80.64302     53.2 1.001e+04 2.630e-10
 80.66789     55.2 9.973e+03 2.594e-10
 80.70776     57.2 9.925e+03 2.465e-10
 80.74764     59.2 9.847e+03 2.179e-10
 80.78752     61.3 9.708e+03 1.740e-10
 80.82739     63.4 9.542e+03 1.260e-10
 80.84935     65.6 9.383e+03 8.652e-11
 80.86929     66.0 9.482e+03 9.133e-11
 80.90648     68.1 9.295e+03 6.112e-11
 80.92642     69.2 9.224e+03 5.849e-11
 80.94702     71.3 8.992e+03 4.767e-11
 80.98690     73.8 8.879e+03 4.694e-11
 81.02677     76.5 8.876e+03 4.718e-11
 81.05568     79.2 8.881e+03 4.899e-11
 81.07562     79.3 8.999e+03 4.947e-11
 81.10652     81.8 9.096e+03 5.978e-11
 81.14640     84.3 9.198e+03 8.090e-11
 81.18627     86.7 9.330e+03 1.148e-10
 81.22615     89.0 9.491e+03 1.625e-10
 81.26201     91.4 9.669e+03 2.204e-10
 81.28195     91.4 9.786e+03 2.553e-10
 81.30590     93.5 9.905e+03 2.976e-10
 81.34578     95.5 9.978e+03 3.261e-10
 81.38199     97.3 9.981e+03 3.212e-10
 81.40192     98.8 9.987e+03 3.297e-10
 81.42553    100.6 9.972e+03 3.158e-10
 81.46541    102.2 9.926e+03 2.891e-10
 81.48828    103.6 9.883e+03 2.669e-10
 81.50822    103.4 9.862e+03 2.542e-10
 81.54516    104.8 9.859e+03 2.591e-10
 81.58503    106.2 9.863e+03 2.750e-10
 81.62491    107.7 9.946e+03 3.143e-10
 81.66478    109.2 1.010e+04 3.607e-10
 81.69461    110.3 1.031e+04 4.100e-10
 81.71455    110.1 1.039e+04 4.274e-10
 81.74454    110.9 1.045e+04 4.104e-10
 81.78441    111.8 1.045e+04 3.641e-10
 81.82429    112.6 1.031e+04 3.034e-10
 81.85749    113.3 1.011e+04 2.625e-10
 81.87743    114.6 1.041e+04 3.318e-10
 81.90094    115.0 1.026e+04 2.974e-10
 81.92088    114.6 1.021e+04 2.958e-10
 81.94392    115.2 1.012e+04 2.973e-10
 81.98379    116.0 1.001e+04 2.980e-10
 82.02367    116.6 9.887e+03 2.921e-10
 82.06354    117.1 9.723e+03 2.674e-10
 82.10342    117.8 9.508e+03 2.219e-10
 82.12721    118.6 9.269e+03 1.679e-10
 82.14714    118.7 9.274e+03 1.645e-10
 82.18317    119.6 9.058e+03 1.147e-10
 82.22305    120.5 8.880e+03 7.731e-11
 82.26292    121.4 8.732e+03 5.433e-11
 82.30280    122.5 8.619e+03 4.696e-11
 82.33299    123.8 8.607e+03 4.684e-11
 82.34379    124.7 8.607e+03 4.690e-11
 82.35347    124.8 8.616e+03 4.621e-11
 82.38255    126.4 8.619e+03 4.669e-11
 82.42243    127.9 8.647e+03 4.953e-11
 82.46230    129.4 8.734e+03 5.726e-11
 82.50218    130.7 8.866e+03 7.048e-11
 82.53987    131.9 9.033e+03 8.909e-11
 82.55980    131.4 9.132e+03 9.162e-11
 82.58193    132.3 9.244e+03 1.318e-10
 82.62181    132.9 9.904e+03 2.315e-10
 82.66168    133.1 1.085e+04 4.080e-10
 82.70156    132.8 1.178e+04 6.697e-10
 82.74143    132.6 1.251e+04 9.594e-10
 82.76613    132.2 1.294e+04 1.158e-09
 82.78607    130.3 1.377e+04 1.864e-09
 82.80849    129.8 1.365e+04 1.761e-09
 82.82843    130.7 1.387e+04 1.973e-09
 82.85099    131.0 1.364e+04 1.756e-09
 82.86910    130.8 1.349e+04 1.642e-09
 82.87907    129.0 1.352e+04 1.740e-09
 82.89077    128.6 1.329e+04 1.574e-09
 82.91071    128.5 1.298e+04 1.426e-09
 82.93065    128.4 1.266e+04 1.290e-09
 82.95059    128.5 1.241e+04 1.165e-09
 82.97052    128.5 1.225e+04 1.064e-09
 82.98224    128.6 1.213e+04 9.792e-10
 82.99221    127.3 1.182e+04 7.281e-10
 83.01040    127.4 1.169e+04 6.377e-10
 83.03034    127.6 1.157e+04 5.668e-10
 83.04604    127.8 1.146e+04 4.972e-10
 83.05601    127.8 1.139e+04 4.421e-10
 83.07021    127.9 1.128e+04 3.947e-10
 83.08540    128.0 1.118e+04 3.554e-10
 83.09537    127.0 1.097e+04 2.956e-10
 83.11009    127.2 1.093e+04 2.855e-10
 83.13003    127.6 1.090e+04 2.801e-10
 83.14997    127.7 1.089e+04 2.781e-10
 83.17870    128.5 1.099e+04 3.023e-10
 83.19873    128.5 1.078e+04 2.640e-10
 83.21994    129.5 1.076e+04 2.616e-10
 83.25982    130.8 1.070e+04 2.493e-10
 83.28399    132.2 1.062e+04 2.238e-10
 83.30393    133.1 1.052e+04 2.136e-10
 83.33957    134.5 1.051e+04 1.972e-10
 83.37945    136.0 1.050e+04 1.845e-10
 83.40506    137.5 1.052e+04 1.835e-10
 83.42500    137.7 1.040e+04 1.603e-10
 83.45920    139.3 1.046e+04 1.652e-10
 83.49908    140.8 1.060e+04 1.821e-10
 83.53895    142.2 1.078e+04 2.124e-10
 83.57883    143.6 1.099e+04 2.536e-10
 83.61139    144.8 1.116e+04 2.987e-10
 83.63133    145.0 1.109e+04 2.890e-10
 83.65858    146.0 1.126e+04 3.242e-10
 83.69845    147.0 1.143e+04 3.409e-10
 83.73833    147.9 1.155e+04 3.463e-10
 83.75949    148.7 1.175e+04 3.610e-10
 83.77943    149.7 1.168e+04 3.768e-10
 83.80802    149.3 1.180e+04 3.982e-10
 83.82749    149.3 1.189e+04 4.204e-10
 83.83746    149.2 1.192e+04 4.414e-10
 83.84779    149.4 1.200e+04 4.676e-10
 83.86773    149.6 1.202e+04 4.794e-10
 83.88767    149.9 1.205e+04 4.727e-10
 83.90761    150.1 1.212e+04 4.556e-10
 83.92755    150.2 1.215e+04 4.233e-10
 83.94063    150.2 1.214e+04 3.950e-10
 83.95060    149.6 1.211e+04 3.678e-10
 83.97749    151.0 1.199e+04 3.594e-10
 84.01746    152.3 1.182e+04 3.343e-10
 84.04399    153.9 1.169e+04 3.152e-10
 84.06393    153.7 1.139e+04 2.643e-10
 84.09721    155.4 1.125e+04 2.469e-10
 84.13709    157.1 1.114e+04 2.334e-10
 84.17696    159.0 1.109e+04 2.249e-10
 84.21506    160.8 1.110e+04 2.242e-10
 84.23499    161.6 1.091e+04 1.999e-10
 84.25032    163.3 1.093e+04 2.020e-10
 84.27026    163.7 1.062e+04 1.713e-10
 84.29659    165.6 1.065e+04 1.742e-10
 84.33647    167.3 1.076e+04 1.879e-10
 84.37634    169.1 1.090e+04 2.244e-10
 84.41622    170.8 1.105e+04 2.775e-10
 84.45610    172.7 1.117e+04 3.328e-10
 84.47659    174.5 1.124e+04 3.571e-10
 84.49652    175.0 1.125e+04 3.583e-10
 84.53585    176.8 1.128e+04 3.617e-10
 84.57572    178.5 1.128e+04 3.575e-10
 84.61560    180.3 1.132e+04 3.541e-10
 84.65548    181.7 1.140e+04 3.541e-10
 84.68282    182.5 1.138e+04 3.632e-10
 84.69269    182.8 1.134e+04 3.631e-10
 84.70033    183.6 1.136e+04 3.791e-10
 84.71040    184.5 1.127e+04 3.673e-10
 84.72516    185.2 1.139e+04 4.142e-10
 84.74500    185.5 1.158e+04 4.792e-10
 84.76494    185.7 1.179e+04 5.801e-10
 84.78488    185.9 1.197e+04 7.265e-10
 84.79586    186.0 1.214e+04 9.101e-10
 84.80582    186.6 1.214e+04 8.403e-10
 84.82475    186.8 1.229e+04 1.005e-09
 84.84469    186.8 1.240e+04 1.078e-09
 84.86463    186.6 1.242e+04 1.064e-09
 84.88457    186.1 1.245e+04 9.573e-10
 84.89902    185.1 1.241e+04 7.270e-10
 84.90899    185.5 1.245e+04 7.653e-10
 84.92444    184.0 1.222e+04 5.079e-10
 84.93808    182.7 1.187e+04 3.744e-10
 84.94805    184.3 1.220e+04 4.901e-10
 84.97438    182.8 1.158e+04 3.162e-10
 85.01436    181.4 1.085e+04 2.324e-10
 85.05423    180.6 1.068e+04 2.295e-10
 85.09411    180.4 1.074e+04 2.430e-10
 85.11542    180.2 1.093e+04 2.564e-10
 85.12529    179.6 1.111e+04 2.746e-10
 85.14376    178.9 1.121e+04 3.327e-10
 85.16370    177.8 1.135e+04 4.474e-10
 85.17583    176.9 1.155e+04 6.138e-10
 85.18580    177.6 1.148e+04 5.527e-10
 85.20357    176.7 1.189e+04 7.834e-10
 85.21848    175.9 1.247e+04 1.106e-09
 85.22845    174.3 1.303e+04 1.466e-09
 85.24345    173.3 1.358e+04 1.929e-09
 85.26339    172.1 1.401e+04 2.399e-09
 85.28333    170.9 1.430e+04 2.801e-09
 85.30326    169.6 1.451e+04 3.078e-09
 85.32165    168.4 1.457e+04 3.322e-09
 85.33162    167.0 1.416e+04 2.978e-09
 85.34314    166.1 1.389e+04 2.766e-09
 85.36308    165.4 1.358e+04 2.466e-09
 85.38301    164.8 1.324e+04 2.121e-09
 85.40295    164.3 1.286e+04 1.770e-09
 85.41358    164.0 1.247e+04 1.448e-09
 85.42355    163.9 1.243e+04 1.388e-09
 85.43478    163.5 1.205e+04 1.130e-09
 85.44475    162.7 1.128e+04 7.378e-10
 85.46277    162.3 1.100e+04 6.248e-10
 85.48270    162.0 1.081e+04 5.626e-10
 85.50264    161.8 1.078e+04 5.522e-10
 85.52258    161.7 1.079e+04 5.617e-10
 85.53795    161.7 1.086e+04 5.992e-10
 85.54792    161.8 1.043e+04 4.765e-10
 85.56246    162.0 1.061e+04 5.403e-10
 85.58239    162.2 1.084e+04 6.156e-10
 85.60233    162.3 1.106e+04 6.840e-10
 85.62227    162.2 1.126e+04 7.351e-10
 85.64111    162.1 1.143e+04 7.705e-10
 85.65024    162.5 1.129e+04 7.348e-10
 85.65133    162.7 1.150e+04 8.530e-10
 85.66215    162.4 1.173e+04 9.301e-10
 85.68208    162.0 1.193e+04 9.928e-10
 85.70202    161.5 1.206e+04 1.028e-09
 85.72196    160.9 1.210e+04 1.033e-09
 85.74190    160.3 1.208e+04 1.018e-09
 85.75425    159.6 1.201e+04 9.655e-10
 85.76422    159.8 1.207e+04 1.004e-09
 85.78177    159.1 1.194e+04 9.305e-10
 85.80171    158.4 1.180e+04 8.515e-10
 85.82165    157.6 1.171e+04 7.945e-10
 85.84159    156.7 1.171e+04 7.691e-10
 85.85741    155.7 1.174e+04 7.580e-10
 85.86738    155.6 1.169e+04 7.399e-10
 85.87911    154.5 1.165e+04 7.095e-10
 85.88908    154.1 1.147e+04 6.378e-10
 85.90140    153.2 1.136e+04 5.989e-10
 85.92134    152.4 1.123e+04 5.545e-10
 85.94128    151.7 1.109e+04 5.068e-10
 85.96058    151.0 1.097e+04 4.641e-10
 85.97055    151.0 1.094e+04 4.499e-10
 85.98115    150.3 1.087e+04 4.393e-10
 86.00109    149.6 1.085e+04 4.394e-10
 86.02103    148.9 1.085e+04 4.411e-10
 86.04097    148.1 1.085e+04 4.458e-10
 86.06090    147.3 1.086e+04 4.492e-10
 86.07371    146.5 1.086e+04 4.472e-10
 86.08368    146.5 1.090e+04 4.490e-10
 86.10078    145.6 1.086e+04 4.378e-10
 86.11686    144.8 1.082e+04 4.178e-10
 86.12683    144.9 1.080e+04 4.173e-10
 86.14066    144.1 1.076e+04 3.927e-10
 86.16059    143.4 1.069e+04 3.633e-10
 86.17688    142.7 1.061e+04 3.412e-10
 86.18684    142.6 1.062e+04 3.362e-10
 86.20047    142.0 1.056e+04 3.288e-10
 86.22041    141.6 1.056e+04 3.297e-10
 86.24035    141.2 1.058e+04 3.364e-10
 86.26028    140.7 1.069e+04 3.638e-10
 86.28004    139.8 1.099e+04 4.416e-10
 86.29001    139.3 1.099e+04 4.391e-10
 86.30016    137.9 1.153e+04 6.251e-10
 86.32010    136.2 1.234e+04 1.022e-09
 86.34004    134.6 1.327e+04 1.758e-09
 86.35462    133.3 1.419e+04 2.808e-09
 86.36458    133.3 1.420e+04 2.802e-09
 86.37991    131.7 1.503e+04 3.718e-09
 86.39317    129.6 1.543e+04 3.847e-09
 86.40314    128.6 1.539e+04 3.797e-09
 86.41979    125.9 1.536e+04 3.707e-09
 86.43973    123.2 1.518e+04 3.414e-09
 86.45966    120.4 1.494e+04 3.089e-09
 86.47960    117.6 1.470e+04 2.819e-09
 86.49634    115.1 1.443e+04 2.661e-09
 86.50631    115.1 1.440e+04 2.702e-09
 86.51948    113.3 1.426e+04 2.657e-09
 86.53942    111.8 1.423e+04 2.621e-09
 86.55935    110.2 1.430e+04 2.593e-09
 86.57929    108.5 1.441e+04 2.620e-09
 86.59237    106.5 1.458e+04 2.749e-09
 86.60233    104.3 1.550e+04 3.823e-09
 86.60947    102.3 1.570e+04 4.265e-09
 86.61944    102.9 1.558e+04 4.156e-09
 86.63910    101.4 1.562e+04 4.362e-09
 86.65904    100.1 1.559e+04 4.268e-09
 86.67898     98.8 1.539e+04 3.942e-09
 86.69892     97.6 1.513e+04 3.385e-09
 86.71264     96.5 1.470e+04 2.649e-09
 86.72261     96.2 1.417e+04 2.092e-09
 86.73879     94.8 1.358e+04 1.609e-09
 86.75873     93.6 1.289e+04 1.315e-09
 86.77867     92.8 1.247e+04 1.169e-09
 86.80593     90.1 1.210e+04 1.041e-09
 86.82597     90.6 1.207e+04 1.033e-09
 86.84865     89.1 1.197e+04 9.788e-10
 86.88852     88.1 1.197e+04 9.850e-10
 86.92840     87.4 1.203e+04 9.929e-10
 86.96828     86.7 1.204e+04 9.889e-10
 87.00815     85.9 1.206e+04 9.327e-10
 87.03230     85.0 1.212e+04 8.557e-10
 87.05223     85.9 1.223e+04 1.037e-09
 87.08790     82.1 1.200e+04 7.266e-10
 87.12778     80.7 1.197e+04 6.364e-10
 87.16766     79.6 1.152e+04 4.722e-10
 87.20753     79.1 1.071e+04 3.118e-10
 87.23863     79.0 9.880e+03 2.028e-10
 87.25856     79.6 1.080e+04 3.506e-10
 87.28728     79.5 9.803e+03 2.092e-10
 87.32716     79.5 9.492e+03 1.779e-10
 87.36703     80.2 9.478e+03 1.796e-10
 87.40691     81.5 9.458e+03 1.857e-10
 87.44496     82.8 9.446e+03 1.913e-10
 87.46489     83.5 9.743e+03 2.405e-10
 87.48666     84.9 9.718e+03 2.374e-10
 87.52363     86.3 9.649e+03 2.254e-10
 87.54356     85.9 9.292e+03 1.484e-10
 87.56641     87.4 9.194e+03 1.343e-10
 87.60629     89.0 9.099e+03 1.251e-10
 87.64617     90.6 9.031e+03 1.213e-10
 87.67122     92.4 8.998e+03 1.214e-10
 87.69116     93.2 9.239e+03 1.451e-10
 87.72592     95.1 9.228e+03 1.462e-10
 87.76579     97.0 9.225e+03 1.497e-10
 87.80567     98.9 9.237e+03 1.546e-10
 87.84555    100.9 9.261e+03 1.614e-10
 87.87755    103.0 9.308e+03 1.699e-10
 87.89749    103.9 9.580e+03 1.942e-10
 87.92530    106.0 9.597e+03 1.995e-10
 87.96517    108.1 9.625e+03 2.064e-10
 87.99913    110.2 9.678e+03 2.175e-10
 88.01906    110.1 9.432e+03 1.731e-10
 88.04492    112.1 9.543e+03 1.858e-10
 88.08388    114.1 9.668e+03 2.028e-10
 88.10382    115.2 9.660e+03 2.018e-10
 88.12468    117.3 9.777e+03 2.211e-10
 88.16455    119.2 9.905e+03 2.487e-10
 88.20443    121.1 1.011e+04 2.877e-10
 88.24430    122.5 1.034e+04 3.280e-10
 88.28418    123.0 1.039e+04 3.342e-10
 88.31005    124.0 1.028e+04 3.338e-10
 88.32999    126.1 1.044e+04 3.462e-10
 88.35386    126.9 1.026e+04 3.467e-10
 88.37371    128.4 1.026e+04 3.637e-10
 88.39364    129.3 1.038e+04 3.958e-10
 88.41312    129.5 1.066e+04 4.491e-10
 88.42309    131.1 1.054e+04 4.337e-10
 88.43352    131.1 1.092e+04 5.218e-10
 88.45346    129.7 1.237e+04 7.475e-10
 88.47339    127.8 1.374e+04 1.028e-09
 88.48435    125.2 1.646e+04 1.518e-09
 88.48929    118.5 2.213e+04 3.579e-09
 88.49822    112.0 2.502e+04 1.070e-08
 88.50819    107.2 2.522e+04 2.642e-08
 88.51816    104.3 2.464e+04 4.905e-08
 88.52616    102.5 2.452e+04 6.596e-08
 88.53114    103.7 2.428e+04 5.994e-08
 88.53810    102.3 2.451e+04 6.063e-08
 88.54806    100.6 2.492e+04 5.473e-08
 88.55803     98.3 2.573e+04 4.083e-08
 88.56800     95.3 2.657e+04 2.470e-08
 88.57774     92.0 2.656e+04 1.382e-08
 88.58272     94.0 2.732e+04 1.303e-08
 88.59297     82.6 2.467e+04 5.115e-09
 88.61296     73.1 1.725e+04 3.006e-09
 88.62942     68.5 1.464e+04 2.748e-09
 88.63939     68.4 1.471e+04 2.461e-09
 88.65284     66.8 1.454e+04 2.545e-09
 88.67277     66.1 1.468e+04 2.640e-09
 88.69271     65.4 1.480e+04 2.633e-09
 88.71218     64.6 1.472e+04 2.433e-09
 88.72215     63.2 1.356e+04 1.896e-09
 88.73259     62.1 1.316e+04 1.769e-09
 88.75252     61.9 1.324e+04 1.790e-09
 88.77246     60.1 1.334e+04 1.855e-09
 88.79240     58.1 1.369e+04 2.136e-09
 88.81234     56.4 1.430e+04 2.827e-09
 88.83228     55.6 1.501e+04 3.806e-09
 88.84572     55.1 1.564e+04 4.362e-09
 88.85569     55.1 1.610e+04 4.326e-09
 88.87215     54.3 1.765e+04 4.129e-09
 88.89209     52.6 1.847e+04 3.758e-09
 88.91203     49.1 1.857e+04 3.648e-09
 88.93197     44.1 1.791e+04 3.999e-09
 88.94888     39.9 1.711e+04 5.358e-09
 88.95688     41.7 1.824e+04 5.098e-09
 88.95990     40.4 1.648e+04 4.316e-09
 88.97184     38.7 1.684e+04 6.526e-09
 88.99178     38.2 1.698e+04 7.211e-09
 89.01172     38.1 1.686e+04 6.769e-09
 89.03166     38.1 1.639e+04 5.369e-09
 89.05159     37.4 1.575e+04 3.717e-09
 89.06202     35.6 1.490e+04 2.480e-09
 89.07199     37.5 1.506e+04 2.586e-09
 89.09147     35.2 1.417e+04 1.864e-09
 89.11141     33.2 1.335e+04 1.516e-09
 89.13135     32.9 1.273e+04 1.345e-09
 89.15128     33.3 1.231e+04 1.222e-09
 89.16518     33.8 1.194e+04 1.064e-09
 89.17515     35.1 1.190e+04 9.483e-10
 89.18768     35.4 1.152e+04 7.760e-10
 89.19765     34.6 1.139e+04 7.278e-10
 89.21110     34.6 1.110e+04 6.184e-10
 89.23104     34.5 1.078e+04 5.382e-10
 89.25097     34.4 1.048e+04 4.960e-10
 89.26835     34.2 1.042e+04 4.956e-10
 89.27832     35.0 1.040e+04 4.642e-10
 89.29085     35.3 1.044e+04 4.833e-10
 89.32085     34.3 1.104e+04 6.100e-10
 89.36083     32.3 1.172e+04 8.477e-10
 89.38168     29.9 1.199e+04 1.017e-09
 89.40162     30.6 1.200e+04 1.026e-09
 89.42563     28.2 1.170e+04 9.232e-10
 89.43550     27.2 1.175e+04 9.287e-10
 89.45035     27.4 1.143e+04 8.165e-10
 89.48036     25.8 1.040e+04 4.524e-10
 89.52033     23.0 9.853e+03 2.878e-10
 89.56021     20.5 9.364e+03 2.150e-10
 89.58801     19.5 8.999e+03 1.668e-10
 89.60795     19.4 8.880e+03 1.573e-10
 89.63996     19.4 8.691e+03 1.240e-10
 89.67984     19.4 8.565e+03 9.537e-11
 89.71971     19.4 8.464e+03 7.866e-11
 89.75959     19.7 8.397e+03 7.138e-11
 89.79434     20.3 8.338e+03 6.774e-11
 89.81428     20.4 8.334e+03 7.536e-11
 89.83934     20.9 8.279e+03 8.001e-11
 89.87921     21.4 8.307e+03 8.728e-11
 89.90113     21.7 8.469e+03 1.007e-10
 89.92107     21.9 8.481e+03 1.063e-10
 89.95897     22.4 8.715e+03 1.374e-10
 89.99884     23.2 8.984e+03 1.837e-10
 90.02060     24.4 9.247e+03 2.418e-10
 90.04054     23.7 9.287e+03 2.468e-10
 90.07859     24.8 9.299e+03 2.467e-10
 90.11847     25.9 9.246e+03 2.356e-10
 90.15835     27.1 9.158e+03 2.182e-10
 90.19822     28.5 9.055e+03 1.971e-10
 90.22693     30.1 8.948e+03 1.735e-10
 90.24687     29.4 8.935e+03 1.695e-10
 90.27797     31.2 8.837e+03 1.438e-10
 90.31785     32.9 8.754e+03 1.216e-10
 90.35669     34.7 8.700e+03 1.133e-10
 90.37663     34.4 8.875e+03 1.333e-10
 90.39760     36.1 8.873e+03 1.332e-10
 90.43326     37.8 8.927e+03 1.401e-10
 90.45320     37.4 9.002e+03 1.532e-10
 90.47735     39.1 9.182e+03 1.965e-10
 90.51723     40.9 9.455e+03 2.671e-10
 90.55710     42.8 9.770e+03 3.536e-10
 90.59698     44.4 1.011e+04 4.418e-10
 90.63686     45.6 1.042e+04 5.122e-10
 90.65953     46.4 1.066e+04 5.484e-10
 90.67947     45.9 1.121e+04 7.807e-10
 90.71661     46.5 1.150e+04 8.632e-10
 90.75648     47.0 1.155e+04 8.709e-10
 90.79636     47.8 1.153e+04 8.407e-10
 90.83220     48.8 1.138e+04 7.493e-10
 90.85213     47.9 1.111e+04 6.614e-10
 90.86586     49.0 1.064e+04 4.989e-10
 90.88580     48.2 1.086e+04 5.591e-10
 90.91599     49.5 1.031e+04 4.015e-10
 90.95586     51.1 9.921e+03 3.117e-10
 90.99574     53.0 9.676e+03 2.605e-10
 91.03561     55.1 9.543e+03 2.323e-10
 91.07219     57.5 9.544e+03 2.302e-10
 91.09213     56.7 9.351e+03 1.957e-10
 91.11537     59.2 9.365e+03 1.975e-10
 91.15524     61.8 9.492e+03 2.125e-10
 91.19512     64.1 9.788e+03 2.514e-10
 91.23499     66.1 1.009e+04 3.060e-10
 91.27487     67.2 1.018e+04 3.488e-10
 91.29836     67.7 1.013e+04 3.629e-10
 91.31125     68.0 1.013e+04 3.556e-10
 91.32764     66.5 1.007e+04 4.124e-10
 91.34456     67.8 1.005e+04 4.824e-10
 91.36440     69.5 1.025e+04 5.938e-10
 91.38433     70.9 1.059e+04 7.276e-10
 91.40143     72.0 1.092e+04 8.211e-10
 91.41140     71.7 1.075e+04 7.264e-10
 91.42421     72.5 1.085e+04 7.315e-10
 91.44415     73.3 1.083e+04 7.141e-10
 91.46409     74.1 1.075e+04 6.455e-10
 91.48402     75.4 1.066e+04 5.428e-10
 91.50396     75.8 1.064e+04 4.287e-10
 91.51456     75.9 1.062e+04 3.911e-10
 91.52463     75.3 1.053e+04 3.928e-10
 91.55400     76.1 1.057e+04 3.168e-10
 91.59388     76.8 1.034e+04 3.064e-10
 91.63375     77.8 1.032e+04 3.079e-10
 91.67363     79.0 1.030e+04 3.210e-10
 91.71112     80.1 1.034e+04 3.475e-10
 91.73106     80.1 1.035e+04 3.611e-10
 91.75338     81.4 1.037e+04 3.780e-10
 91.78320     82.5 1.045e+04 3.912e-10
 91.80314     81.2 1.044e+04 3.180e-10
 91.83313     82.0 1.046e+04 3.234e-10
 91.87301     82.5 1.039e+04 3.286e-10
 91.91288     82.9 1.033e+04 3.280e-10
 91.93739     83.4 1.023e+04 3.210e-10
 91.95733     83.6 1.031e+04 3.359e-10
 91.99264     83.9 1.023e+04 3.274e-10
 92.03251     84.2 1.019e+04 3.263e-10
 92.07239     84.6 1.019e+04 3.331e-10
 92.11226     85.2 1.019e+04 3.439e-10
 92.14372     85.9 1.015e+04 3.462e-10
 92.16366     85.8 1.016e+04 3.587e-10
 92.19202     86.9 1.009e+04 3.389e-10
 92.23189     87.8 9.974e+03 2.989e-10
 92.25870     88.6 9.878e+03 2.831e-10
 92.27864     88.7 1.036e+04 4.465e-10
 92.31164     90.4 1.038e+04 4.700e-10
 92.35005     92.3 1.036e+04 4.611e-10
 92.36999     91.8 1.012e+04 3.604e-10
 92.39139     93.3 1.000e+04 3.410e-10
 92.43127     95.0 9.864e+03 3.137e-10
 92.47115     96.6 9.727e+03 2.850e-10
 92.51102     98.3 9.626e+03 2.621e-10
 92.55090    100.1 9.578e+03 2.466e-10
 92.57632    102.0 9.609e+03 2.414e-10
 92.59625    102.4 9.453e+03 2.228e-10
 92.63065    104.4 9.477e+03 2.210e-10
 92.67053    106.5 9.514e+03 2.143e-10
 92.71040    108.6 9.531e+03 2.090e-10
 92.73420    110.6 9.538e+03 2.092e-10
 92.75414    110.7 9.351e+03 1.799e-10
 92.78264    112.7 9.380e+03 1.827e-10
 92.80258    112.9 9.323e+03 1.607e-10
 92.83003    114.9 9.505e+03 1.892e-10
 92.86991    116.8 9.846e+03 2.439e-10
 92.90978    117.9 1.013e+04 3.169e-10
 92.93959    117.9 1.022e+04 3.568e-10
 92.95943    118.3 1.022e+04 4.006e-10
 92.97176    119.3 1.035e+04 5.016e-10
 92.98173    118.9 1.061e+04 5.613e-10
 92.99875    120.1 1.117e+04 8.039e-10
 93.00872    120.4 1.141e+04 8.921e-10
 93.01924    121.3 1.217e+04 1.271e-09
 93.03918    121.5 1.293e+04 1.731e-09
 93.05912    121.4 1.365e+04 2.259e-09
 93.07906    121.2 1.428e+04 2.853e-09
 93.09900    120.8 1.475e+04 3.445e-09
 93.11188    120.4 1.507e+04 3.876e-09
 93.12185    120.2 1.509e+04 3.960e-09
 93.13887    119.5 1.534e+04 4.029e-09
 93.15881    118.5 1.535e+04 4.014e-09
 93.17875    117.5 1.526e+04 3.860e-09
 93.19869    116.4 1.523e+04 3.637e-09
 93.20951    115.3 1.531e+04 3.635e-09
 93.21590    115.9 1.507e+04 3.594e-09
 93.22502    116.8 1.454e+04 2.990e-09
 93.23856    115.9 1.468e+04 3.044e-09
 93.25850    114.7 1.513e+04 3.339e-09
 93.27844    113.5 1.572e+04 3.995e-09
 93.29838    112.6 1.628e+04 4.883e-09
 93.31821    111.9 1.675e+04 5.649e-09
 93.32818    113.0 1.684e+04 6.016e-09
 93.33825    112.3 1.740e+04 6.764e-09
 93.35819    111.3 1.739e+04 6.614e-09
 93.37813    110.4 1.703e+04 5.616e-09
 93.39807    110.0 1.602e+04 3.663e-09
 93.41800    109.7 1.462e+04 2.007e-09
 93.43135    109.2 1.315e+04 1.060e-09
 93.44066    110.4 1.396e+04 1.467e-09
 93.44726    110.8 1.397e+04 1.467e-09
 93.46795    109.5 1.211e+04 6.897e-10
 93.50792    107.0 9.960e+03 2.506e-10
 93.54779    106.7 9.768e+03 2.129e-10
 93.58767    107.3 9.727e+03 2.108e-10
 93.62755    108.1 9.746e+03 2.130e-10
 93.64784    108.4 9.881e+03 2.297e-10
 93.66562    110.6 9.999e+03 2.642e-10
 93.68520    110.5 1.023e+04 2.957e-10
 93.70730    110.2 1.068e+04 3.479e-10
 93.73711    108.4 1.095e+04 3.832e-10
 93.75081    107.2 1.115e+04 4.484e-10
 93.76078    108.5 1.136e+04 5.367e-10
 93.77689    107.9 1.179e+04 6.918e-10
 93.79682    107.1 1.226e+04 8.673e-10
 93.81676    106.0 1.271e+04 1.046e-09
 93.83670    104.3 1.314e+04 1.220e-09
 93.85397    102.1 1.350e+04 1.401e-09
 93.86394    103.2 1.367e+04 1.535e-09
 93.87658    100.2 1.391e+04 1.741e-09
 93.89651     97.3 1.404e+04 2.016e-09
 93.91279     94.9 1.405e+04 2.269e-09
 93.92276     93.4 1.429e+04 2.446e-09
 93.93639     91.5 1.419e+04 2.400e-09
 93.95633     89.9 1.402e+04 2.253e-09
 93.96711     88.3 1.392e+04 2.067e-09
 93.97708     88.6 1.368e+04 1.805e-09
 93.99620     86.6 1.368e+04 1.710e-09
 94.01614     84.7 1.365e+04 1.738e-09
 94.03608     83.1 1.356e+04 1.743e-09
 94.05602     81.9 1.343e+04 1.733e-09
 94.07027     81.0 1.318e+04 1.653e-09
 94.08024     81.0 1.285e+04 1.432e-09
 94.09589     80.7 1.254e+04 1.291e-09
 94.11583     80.4 1.221e+04 1.072e-09
 94.13577     79.8 1.189e+04 8.382e-10
 94.15054     78.6 1.158e+04 6.800e-10
 94.16051     77.6 1.161e+04 6.564e-10
 94.17344     76.3 1.163e+04 6.614e-10
 94.18341     77.5 1.190e+04 6.852e-10
 94.19558     76.1 1.199e+04 7.177e-10
 94.21552     74.7 1.220e+04 8.380e-10
 94.23546     73.5 1.258e+04 1.060e-09
 94.25540     72.4 1.306e+04 1.365e-09
 94.27533     71.5 1.349e+04 1.707e-09
 94.28657     70.7 1.383e+04 2.052e-09
 94.29654     72.3 1.373e+04 1.899e-09
 94.31521     71.3 1.389e+04 2.111e-09
 94.33515     70.2 1.397e+04 2.260e-09
 94.35509     69.3 1.397e+04 2.312e-09
 94.37502     68.5 1.390e+04 2.243e-09
 94.38829     67.8 1.375e+04 1.964e-09
 94.39304     67.1 1.372e+04 2.014e-09
 94.39971     67.6 1.410e+04 2.456e-09
 94.41490     66.8 1.394e+04 2.156e-09
 94.43484     66.0 1.366e+04 1.704e-09
 94.46484     63.1 1.295e+04 7.831e-10
 94.49310     58.9 1.156e+04 4.078e-10
 94.50297     62.1 1.282e+04 7.883e-10
 94.51459     60.3 1.227e+04 6.033e-10
 94.53453     58.6 1.138e+04 4.729e-10
 94.55447     57.6 1.079e+04 4.097e-10
 94.57440     57.0 1.064e+04 4.049e-10
 94.59434     56.9 1.068e+04 4.109e-10
 94.60604     56.3 1.079e+04 4.313e-10
 94.61601     56.9 1.093e+04 4.794e-10
 94.62604     56.5 1.111e+04 5.280e-10
 94.63601     56.8 1.133e+04 6.003e-10
 94.65416     56.8 1.184e+04 7.531e-10
 94.67409     56.6 1.240e+04 9.572e-10
 94.69403     56.3 1.286e+04 1.159e-09
 94.70920     55.8 1.314e+04 1.344e-09
 94.71917     56.5 1.311e+04 1.355e-09
 94.73391     56.5 1.331e+04 1.507e-09
 94.75384     56.3 1.370e+04 1.694e-09
 94.77378     55.3 1.426e+04 1.996e-09
 94.79372     53.7 1.483e+04 2.456e-09
 94.81237     52.2 1.504e+04 3.058e-09
 94.82234     52.8 1.583e+04 3.596e-09
 94.83360     51.6 1.557e+04 3.646e-09
 94.85353     51.5 1.504e+04 3.575e-09
 94.86379     51.9 1.453e+04 3.272e-09
 94.87376     51.4 1.501e+04 3.695e-09
 94.89341     52.2 1.429e+04 3.069e-09
 94.91335     53.0 1.416e+04 2.509e-09
 94.92550     53.8 1.438e+04 2.489e-09
 94.93547     55.0 1.405e+04 2.332e-09
 94.95322     55.6 1.449e+04 2.438e-09
 94.97316     55.1 1.630e+04 3.154e-09
 94.99310     52.9 2.038e+04 5.822e-09
 95.00800     51.8 2.104e+04 7.890e-09
 95.01792     50.9 2.206e+04 1.038e-08
 95.02789     49.4 2.411e+04 1.565e-08
 95.03355     48.0 2.574e+04 2.270e-08
 95.03854     49.5 2.797e+04 2.796e-08
 95.04783     48.7 2.897e+04 3.287e-08
 95.05780     47.0 2.762e+04 3.709e-08
 95.06777     43.0 2.700e+04 3.698e-08
 95.07774     38.0 2.795e+04 2.816e-08
 95.08513     34.4 2.980e+04 1.721e-08
 95.09012     33.8 3.583e+04 2.956e-08
 95.09646     32.3 3.267e+04 1.658e-08
 95.10144     33.0 3.044e+04 1.829e-08
 95.11268     29.2 2.643e+04 8.779e-09
 95.13183     22.6 1.979e+04 3.342e-09
 95.14180     25.8 2.754e+04 4.178e-09
 95.15260     18.6 1.550e+04 1.872e-09
 95.17254     17.5 1.266e+04 1.201e-09
 95.19248     18.3 1.202e+04 9.314e-10
 95.21242     19.3 1.170e+04 7.357e-10
 95.23236     21.0 1.083e+04 5.098e-10
 95.24496     21.1 1.032e+04 3.662e-10
 95.25493     20.7 1.047e+04 3.657e-10
 95.27223     21.1 1.044e+04 3.479e-10
 95.30224     21.9 1.012e+04 2.712e-10
 95.33836     22.4 9.564e+03 1.957e-10
 95.35829     21.2 9.137e+03 1.496e-10
 95.38209     22.1 8.909e+03 1.295e-10
 95.42196     23.0 9.035e+03 1.365e-10
 95.46184     22.6 9.427e+03 1.678e-10
 95.50171     22.3 9.821e+03 2.329e-10
 95.54159     22.7 9.987e+03 2.714e-10
 95.56462     23.1 1.001e+04 2.639e-10
 95.57037     22.5 9.915e+03 2.378e-10
 95.58721     20.6 1.025e+04 3.058e-10
 95.62134     19.5 1.031e+04 3.096e-10
 95.65115     18.1 1.008e+04 2.979e-10
 95.66759     18.8 9.846e+03 2.905e-10
 95.67756     18.1 9.932e+03 2.903e-10
 95.69093     18.6 1.006e+04 3.254e-10
 95.71087     19.4 1.028e+04 4.058e-10
 95.73080     19.1 1.082e+04 5.266e-10
 95.75074     15.6 1.390e+04 1.032e-09
 95.77068     11.3 1.659e+04 2.674e-09
 95.79062      9.0 1.722e+04 6.925e-09
 95.80483      9.8 1.735e+04 8.864e-09
 95.81479      9.5 1.784e+04 1.218e-08
 95.83049     10.5 1.756e+04 1.131e-08
 95.85043     11.4 1.707e+04 8.291e-09
 95.87037     11.1 1.657e+04 5.131e-09
 95.88389      8.6 1.591e+04 3.105e-09
 95.89386      6.5 1.500e+04 2.148e-09
 95.91025      3.6 1.338e+04 1.546e-09
 95.93018      2.5 1.294e+04 1.473e-09
 95.95012      2.4 1.295e+04 1.477e-09
 95.97006      1.7 1.320e+04 1.580e-09
 95.98706      1.4 1.302e+04 1.582e-09
 95.99703      0.8 1.280e+04 1.453e-09
 96.00993      0.7 1.245e+04 1.436e-09
 96.02987      0.5 1.241e+04 1.444e-09
 96.04258      0.2 1.239e+04 1.423e-09
 96.05254      0.4 1.208e+04 1.380e-09
 96.06975      0.8 1.186e+04 1.221e-09
 96.08969      1.1 1.149e+04 1.019e-09
 96.10019      1.8 1.097e+04 8.066e-10
 96.11016      1.8 1.045e+04 6.188e-10
 96.12956      2.3 1.006e+04 4.747e-10
 96.14950      3.5 9.751e+03 3.862e-10
 96.17950      3.3 9.795e+03 3.544e-10
 96.20355      3.6 9.632e+03 3.183e-10
 96.22349      2.3 9.371e+03 2.596e-10
 96.25935      3.4 9.063e+03 2.270e-10
 96.29923      4.9 8.983e+03 2.228e-10
 96.33911      6.7 9.018e+03 2.307e-10
 96.37898      8.3 9.178e+03 2.573e-10
 96.40988      9.2 9.475e+03 3.131e-10
 96.42982      9.3 9.474e+03 3.121e-10
 96.45873      9.8 9.727e+03 3.855e-10
 96.48854     10.8 9.695e+03 4.087e-10
 96.50811     12.4 9.785e+03 4.354e-10
 96.51817     12.6 9.565e+03 3.469e-10
 96.53849     14.8 9.708e+03 3.497e-10
 96.57836     15.2 9.841e+03 3.761e-10
 96.61621     14.4 1.032e+04 4.736e-10
 96.63615     13.4 1.145e+04 8.033e-10
 96.65811     11.8 1.231e+04 1.181e-09
 96.69799      9.7 1.282e+04 1.500e-09
 96.72780      7.1 1.273e+04 1.398e-09
 96.73912      7.3 1.227e+04 1.295e-09
 96.74731      7.1 1.261e+04 1.562e-09
 96.75583      7.7 1.283e+04 1.807e-09
 96.76758      7.6 1.274e+04 1.786e-09
 96.78751      7.2 1.273e+04 1.761e-09
 96.80745      6.6 1.274e+04 1.767e-09
 96.82739      6.0 1.280e+04 1.827e-09
 96.84228      5.6 1.290e+04 1.934e-09
 96.85225      5.4 1.249e+04 1.673e-09
 96.86727      5.0 1.262e+04 1.744e-09
 96.88720      4.6 1.284e+04 1.866e-09
 96.90714      4.5 1.299e+04 1.968e-09
 96.92708      4.3 1.316e+04 2.044e-09
 96.94545      4.0 1.331e+04 2.079e-09
 96.95542      4.2 1.289e+04 1.759e-09
 96.96696      4.0 1.295e+04 1.749e-09
 96.98361      3.7 1.296e+04 1.669e-09
 96.99358      3.6 1.301e+04 1.722e-09
 97.00683      3.1 1.300e+04 1.616e-09
 97.02677      2.2 1.289e+04 1.507e-09
 97.04671      1.2 1.269e+04 1.397e-09
 97.05858      0.5 1.245e+04 1.310e-09
 97.06855      0.6 1.254e+04 1.369e-09
 97.08658      0.4 1.256e+04 1.395e-09
 97.10652      0.4 1.259e+04 1.362e-09
 97.12646      0.3 1.259e+04 1.291e-09
 97.14640      1.8 1.220e+04 1.065e-09
 97.16175     -1.0 1.278e+04 1.090e-09
 97.17172     -1.2 1.311e+04 1.343e-09
 97.18627     -4.2 1.348e+04 1.418e-09
 97.20621     -7.6 1.406e+04 1.686e-09
 97.22136     -9.6 1.396e+04 1.878e-09
 97.23133    -10.1 1.388e+04 2.097e-09
 97.24609    -10.9 1.342e+04 2.047e-09
 97.26491    -11.3 1.343e+04 2.053e-09
 97.27488    -10.5 1.344e+04 2.108e-09
 97.28596    -11.9 1.385e+04 2.238e-09
 97.30590    -13.8 1.408e+04 2.240e-09
 97.32584    -16.0 1.393e+04 2.198e-09
 97.34578    -17.7 1.353e+04 2.048e-09
 97.36571    -19.3 1.324e+04 1.887e-09
 97.37805    -22.1 1.345e+04 1.819e-09
 97.38801    -22.0 1.317e+04 1.730e-09
 97.40559    -25.6 1.347e+04 1.806e-09
 97.42553    -28.9 1.332e+04 1.720e-09
 97.44547    -31.9 1.274e+04 1.644e-09
 97.45911    -34.5 1.288e+04 1.609e-09
 97.46908    -35.1 1.261e+04 1.343e-09
 97.48121    -39.1 1.275e+04 1.183e-09
 97.49118    -39.8 1.336e+04 1.458e-09
 97.50528    -46.8 1.278e+04 1.308e-09
 97.52522    -52.6 1.279e+04 1.383e-09
 97.54516    -57.3 1.320e+04 1.673e-09
 97.56509    -61.2 1.341e+04 1.869e-09
 97.58438    -64.8 1.339e+04 1.923e-09
 97.59434    -64.3 1.332e+04 1.884e-09
 97.60497    -67.5 1.286e+04 1.665e-09
 97.62491    -70.2 1.245e+04 1.533e-09
 97.64485    -72.2 1.236e+04 1.510e-09
 97.66478    -73.9 1.291e+04 1.671e-09
 97.68472    -76.0 1.408e+04 2.143e-09
 97.69686    -78.1 1.550e+04 3.065e-09
 97.69968    -79.3 1.633e+04 4.128e-09
 97.70748    -77.8 1.510e+04 2.871e-09
 97.72460    -79.2 1.624e+04 4.098e-09
 97.74454    -79.9 1.718e+04 5.721e-09
 97.76447    -80.1 1.796e+04 7.799e-09
 97.78441    -80.3 1.854e+04 1.020e-08
 97.80067    -80.5 1.907e+04 1.259e-08
 97.81064    -79.9 1.765e+04 7.492e-09
 97.82429    -80.0 1.801e+04 8.505e-09
 97.84422    -79.9 1.818e+04 9.041e-09
 97.86416    -79.9 1.811e+04 8.964e-09
 97.88410    -80.0 1.783e+04 7.902e-09
 97.90384    -80.2 1.722e+04 6.877e-09
 97.91381    -79.4 1.669e+04 4.620e-09
 97.92398    -79.7 1.615e+04 4.271e-09
 97.93461    -79.8 1.575e+04 3.931e-09
 97.94458    -80.4 1.529e+04 4.287e-09
 97.96385    -79.7 1.507e+04 4.298e-09
 97.98379    -79.0 1.495e+04 4.206e-09
 98.00373    -78.2 1.490e+04 4.104e-09
 98.01697    -77.5 1.492e+04 4.083e-09
 98.02694    -77.7 1.491e+04 3.795e-09
 98.04360    -77.1 1.498e+04 4.066e-09
 98.06354    -76.5 1.501e+04 4.259e-09
 98.08348    -75.6 1.500e+04 4.491e-09
 98.10342    -74.6 1.495e+04 4.703e-09
 98.12014    -73.8 1.497e+04 4.708e-09
 98.13011    -73.4 1.440e+04 3.556e-09
 98.14329    -72.2 1.427e+04 3.425e-09
 98.16239    -71.0 1.432e+04 3.283e-09
 98.17236    -70.7 1.410e+04 3.383e-09
 98.18317    -69.6 1.427e+04 3.270e-09
 98.20311    -68.8 1.447e+04 3.286e-09
 98.22305    -68.3 1.494e+04 3.513e-09
 98.23327    -68.1 1.565e+04 4.139e-09
 98.24324    -67.3 1.468e+04 2.605e-09
 98.26292    -67.6 1.551e+04 3.286e-09
 98.28286    -67.8 1.607e+04 4.440e-09
 98.30280    -67.6 1.669e+04 6.411e-09
 98.32274    -66.6 1.745e+04 9.633e-09
 98.33644    -65.2 1.833e+04 1.315e-08
 98.34641    -65.9 1.764e+04 8.238e-09
 98.36261    -64.9 1.854e+04 1.014e-08
 98.38255    -64.6 1.888e+04 1.057e-08
 98.40014    -65.1 1.878e+04 8.670e-09
 98.41011    -63.3 2.030e+04 1.402e-08
 98.42242    -64.2 1.979e+04 8.977e-09
 98.43960    -66.2 1.822e+04 5.306e-09
 98.44957    -67.6 1.726e+04 4.497e-09
 98.46230    -69.1 1.499e+04 3.035e-09
 98.48224    -69.6 1.383e+04 2.131e-09
 98.50218    -70.5 1.303e+04 1.613e-09
 98.52211    -71.0 1.271e+04 1.396e-09
 98.54205    -71.2 1.266e+04 1.354e-09
 98.55274    -71.8 1.288e+04 1.395e-09
 98.56270    -72.2 1.314e+04 1.463e-09
 98.58193    -74.2 1.395e+04 1.812e-09
 98.60187    -76.6 1.464e+04 2.416e-09
 98.62180    -78.4 1.527e+04 3.307e-09
 98.63789    -79.5 1.583e+04 4.289e-09
 98.64786    -80.3 1.612e+04 4.582e-09
 98.65590    -81.6 1.637e+04 5.084e-09
 98.66587    -82.4 1.643e+04 5.253e-09
 98.68162    -84.0 1.663e+04 5.429e-09
 98.70156    -86.3 1.718e+04 5.670e-09
 98.72149    -89.3 1.792e+04 6.209e-09
 98.74143    -92.5 1.860e+04 7.243e-09
 98.75907    -95.3 1.921e+04 8.927e-09
 98.76903    -95.9 1.867e+04 8.512e-09
 98.78131    -97.4 1.911e+04 9.887e-09
 98.80125    -98.8 1.954e+04 1.078e-08
 98.82118   -100.5 1.973e+04 1.093e-08
 98.84112   -102.3 1.977e+04 1.044e-08
 98.86106   -104.4 1.963e+04 9.796e-09
 98.87220   -107.0 1.946e+04 9.459e-09
 98.87682   -107.5 1.952e+04 8.350e-09
 98.88561   -110.3 1.859e+04 7.566e-09
 98.90094   -112.8 1.878e+04 8.291e-09
 98.92087   -115.4 1.937e+04 9.233e-09
 98.94081   -118.5 1.989e+04 1.027e-08
 98.96075   -122.2 1.994e+04 1.112e-08
 98.97536   -125.6 1.975e+04 1.148e-08
 98.98533   -125.4 2.044e+04 1.461e-08
 99.00063   -129.0 1.937e+04 1.126e-08
 99.02056   -132.0 1.835e+04 8.696e-09
 99.04050   -133.9 1.729e+04 6.608e-09
 99.06044   -135.4 1.662e+04 4.947e-09
 99.07853   -137.2 1.614e+04 3.723e-09
 99.08850   -138.2 1.542e+04 2.741e-09
 99.10031   -140.4 1.506e+04 2.325e-09
 99.11340   -142.7 1.493e+04 2.221e-09
 99.12336   -140.3 1.529e+04 2.684e-09
 99.14019   -142.1 1.526e+04 2.642e-09
 99.16013   -144.5 1.521e+04 3.098e-09
 99.18007   -148.6 1.865e+04 4.082e-09
 99.19166   -154.3 2.368e+04 6.321e-09
 99.20163   -153.5 2.297e+04 6.024e-09
 99.21994   -158.3 2.685e+04 1.026e-08
 99.23222   -163.9 2.846e+04 1.815e-08
 99.23716   -159.1 2.744e+04 1.204e-08
 99.24315   -161.0 2.804e+04 1.489e-08
 99.24813   -160.6 2.822e+04 1.463e-08
 99.25474   -162.9 2.832e+04 1.841e-08
 99.26471   -165.0 2.785e+04 2.050e-08
 99.27467   -167.1 2.587e+04 2.217e-08
 99.28464   -169.0 2.522e+04 2.017e-08
 99.29478   -172.3 2.303e+04 1.711e-08
 99.30480   -171.0 2.361e+04 1.676e-08
 99.31963   -173.4 2.142e+04 1.150e-08
 99.33957   -175.4 1.989e+04 6.612e-09
 99.35115   -177.4 1.825e+04 3.706e-09
 99.36112   -172.8 1.989e+04 8.553e-09
 99.37945   -175.0 1.816e+04 4.717e-09
 99.39799   -176.9 1.608e+04 2.742e-09
 99.40796   -176.6 1.582e+04 2.514e-09
 99.41932   -177.8 1.373e+04 1.683e-09
 99.43926   -178.0 1.263e+04 1.330e-09
 99.45920   -177.8 1.214e+04 1.135e-09
 99.47914   -176.8 1.178e+04 9.647e-10
 99.49907   -175.7 1.141e+04 7.991e-10
 99.51113   -174.8 1.104e+04 6.422e-10
 99.52110   -174.7 1.110e+04 6.734e-10
 99.53895   -173.7 1.074e+04 5.389e-10
 99.55889   -172.4 1.042e+04 4.357e-10
 99.57883   -171.0 1.018e+04 3.725e-10
 99.60442   -170.1 1.010e+04 3.430e-10
 99.62446   -169.2 1.017e+04 3.654e-10
 99.64880   -169.1 1.005e+04 3.346e-10
 99.68868   -167.8 9.675e+03 2.886e-10
 99.72856   -166.0 9.346e+03 2.525e-10
 99.76843   -163.9 9.187e+03 2.348e-10
 99.80691   -161.7 9.150e+03 2.305e-10
 99.82684   -159.8 9.243e+03 2.557e-10
 99.83079   -157.6 9.211e+03 2.524e-10
 99.85072   -157.4 9.185e+03 2.474e-10
 99.88806   -155.5 9.230e+03 2.521e-10
 99.92793   -153.9 9.531e+03 2.935e-10
 99.96781   -152.4 9.919e+03 3.683e-10
100.00769   -151.1 1.031e+04 4.647e-10
