# Columns:
#   distance along LOS (in CHIMPs)
#   peculiar velocity  (in km/s)
#   temperature (K)
#   HI number density
# pos=(35.9526,27.7695,127.921), angles=(2.7722,4.20128)
  0.00395   -247.2 1.648e+04 9.630e-09
  0.00887   -247.4 1.532e+04 6.332e-09
  0.01935   -247.8 1.512e+04 6.124e-09
  0.03931   -247.8 1.401e+04 4.111e-09
  0.05931   -247.5 1.300e+04 2.807e-09
  0.06978   -248.0 1.326e+04 3.141e-09
  0.07130   -247.3 1.250e+04 2.279e-09
  0.08177   -247.2 1.246e+04 2.229e-09
  0.10214   -246.3 1.185e+04 1.669e-09
  0.12308   -245.4 1.132e+04 1.234e-09
  0.13373   -244.7 1.085e+04 9.080e-10
  0.14420   -244.1 1.069e+04 8.286e-10
  0.16497   -243.6 1.016e+04 5.974e-10
  0.17743   -243.4 9.774e+03 4.328e-10
  0.18767   -243.2 9.757e+03 6.436e-10
  0.19615   -243.3 1.034e+04 5.927e-10
  0.20686   -244.7 1.145e+04 4.444e-10
  0.22780   -247.8 1.345e+04 3.887e-10
  0.24811   -251.8 1.569e+04 4.419e-10
  0.25858   -259.4 1.959e+04 2.280e-09
  0.26969   -260.6 1.784e+04 3.612e-09
  0.28509   -260.7 1.670e+04 4.921e-09
  0.29556   -261.3 1.875e+04 1.398e-08
  0.31054   -261.1 1.766e+04 1.121e-08
  0.32101   -261.8 1.845e+04 1.574e-08
  0.33252   -261.5 1.726e+04 1.023e-08
  0.35347   -261.2 1.637e+04 7.185e-09
  0.37296   -261.5 1.522e+04 4.672e-09
  0.38344   -262.8 1.517e+04 4.398e-09
  0.39275   -263.2 1.384e+04 2.873e-09
  0.40322   -264.1 1.394e+04 2.877e-09
  0.41630   -264.4 1.305e+04 2.068e-09
  0.43539   -264.5 1.260e+04 1.686e-09
  0.44586   -265.2 1.221e+04 1.444e-09
  0.45819   -265.1 1.210e+04 1.310e-09
  0.47913   -264.9 1.208e+04 1.275e-09
  0.49782   -264.9 1.208e+04 1.271e-09
  0.50829   -265.0 1.164e+04 1.044e-09
  0.51088   -265.0 1.168e+04 1.046e-09
  0.52135   -265.8 1.165e+04 1.039e-09
  0.54196   -266.0 1.206e+04 1.184e-09
  0.56024   -266.2 1.264e+04 1.575e-09
  0.57072   -265.6 1.179e+04 1.066e-09
  0.58385   -265.6 1.240e+04 1.449e-09
  0.60480   -265.5 1.302e+04 2.030e-09
  0.61853   -265.2 1.357e+04 2.720e-09
  0.62593   -265.7 1.331e+04 2.281e-09
  0.63314   -265.3 1.252e+04 1.481e-09
  0.64668   -264.9 1.291e+04 1.850e-09
  0.66763   -264.4 1.322e+04 2.176e-09
  0.68510   -264.0 1.342e+04 2.393e-09
  0.69557   -263.4 1.282e+04 1.804e-09
  0.70952   -263.0 1.310e+04 2.007e-09
  0.72619   -262.7 1.332e+04 2.133e-09
  0.73666   -263.3 1.262e+04 1.514e-09
  0.74752   -263.1 1.284e+04 1.616e-09
  0.75800   -262.5 1.219e+04 1.310e-09
  0.77235   -262.4 1.264e+04 1.428e-09
  0.79329   -262.8 1.324e+04 1.680e-09
  0.80995   -263.5 1.386e+04 2.168e-09
  0.82042   -262.9 1.350e+04 1.731e-09
  0.83384   -263.8 1.459e+04 2.528e-09
  0.84432   -263.0 1.330e+04 1.547e-09
  0.85612   -263.5 1.415e+04 2.201e-09
  0.87238   -263.9 1.469e+04 3.076e-09
  0.88285   -263.5 1.454e+04 2.546e-09
  0.89801   -263.8 1.513e+04 3.577e-09
  0.91896   -263.9 1.531e+04 4.447e-09
  0.93480   -263.9 1.524e+04 4.794e-09
  0.94528   -263.5 1.536e+04 4.788e-09
  0.95197   -263.5 1.537e+04 4.972e-09
  0.96244   -262.9 1.428e+04 3.149e-09
  0.98179   -262.9 1.428e+04 3.214e-09
  0.99723   -262.8 1.400e+04 3.125e-09
  1.00770   -262.3 1.426e+04 3.402e-09
  1.02368   -262.1 1.388e+04 3.020e-09
  1.04462   -262.0 1.332e+04 2.490e-09
  1.05963   -261.8 1.274e+04 2.054e-09
  1.07010   -260.6 1.283e+04 2.046e-09
  1.08651   -260.5 1.238e+04 1.752e-09
  1.10745   -260.3 1.199e+04 1.549e-09
  1.12208   -260.1 1.169e+04 1.398e-09
  1.13256   -259.5 1.177e+04 1.417e-09
  1.14934   -259.3 1.149e+04 1.286e-09
  1.16728   -258.8 1.124e+04 1.162e-09
  1.17776   -258.1 1.121e+04 1.085e-09
  1.18451   -257.4 1.097e+04 9.642e-10
  1.19498   -257.2 1.102e+04 9.745e-10
  1.21217   -256.6 1.079e+04 8.720e-10
  1.23312   -255.9 1.062e+04 7.873e-10
  1.24694   -255.3 1.048e+04 7.214e-10
  1.25741   -255.0 1.044e+04 6.979e-10
  1.27494   -254.4 1.031e+04 6.581e-10
  1.29589   -253.1 1.026e+04 6.085e-10
  1.30936   -252.2 1.022e+04 5.679e-10
  1.31984   -251.8 1.025e+04 5.128e-10
  1.34841   -250.5 1.023e+04 4.990e-10
  1.37199   -249.7 1.024e+04 4.623e-10
  1.39293   -249.6 1.025e+04 3.751e-10
  1.43228   -248.7 1.016e+04 3.621e-10
  1.47417   -247.9 1.013e+04 3.614e-10
  1.49684   -247.3 1.013e+04 3.756e-10
  1.50265   -247.1 1.005e+04 3.329e-10
  1.52186   -246.6 1.041e+04 4.250e-10
  1.55794   -246.3 1.048e+04 4.622e-10
  1.59983   -246.0 1.050e+04 4.697e-10
  1.62169   -245.7 1.043e+04 4.533e-10
  1.64264   -245.7 1.030e+04 3.670e-10
  1.68361   -245.1 1.006e+04 2.992e-10
  1.71623   -244.5 9.813e+03 2.374e-10
  1.73718   -244.6 9.934e+03 2.686e-10
  1.76738   -243.4 9.831e+03 2.080e-10
  1.80927   -242.2 9.737e+03 1.743e-10
  1.85046   -240.8 9.708e+03 1.536e-10
  1.87140   -240.3 9.809e+03 1.913e-10
  1.89305   -238.8 9.784e+03 1.734e-10
  1.93155   -237.3 9.791e+03 1.628e-10
  1.95249   -237.4 9.747e+03 1.414e-10
  1.97531   -235.9 9.758e+03 1.402e-10
  1.99625   -234.9 9.834e+03 1.840e-10
  2.01871   -233.5 9.878e+03 1.858e-10
  2.06060   -232.1 1.001e+04 2.004e-10
  2.10016   -230.8 1.023e+04 2.336e-10
  2.12111   -229.6 1.029e+04 2.503e-10
  2.14438   -228.3 1.052e+04 3.026e-10
  2.16780   -227.2 1.077e+04 3.696e-10
  2.18875   -227.7 1.080e+04 3.728e-10
  2.22502   -226.9 1.091e+04 3.928e-10
  2.24596   -225.4 1.098e+04 4.176e-10
  2.27004   -224.6 1.105e+04 4.260e-10
  2.31193   -223.8 1.112e+04 4.042e-10
  2.34987   -222.8 1.115e+04 3.352e-10
  2.37081   -222.0 1.140e+04 4.305e-10
  2.38312   -221.0 1.139e+04 3.831e-10
  2.40406   -221.2 1.109e+04 2.590e-10
  2.43759   -220.0 1.109e+04 2.227e-10
  2.47472   -218.7 1.112e+04 2.044e-10
  2.49567   -218.0 1.119e+04 3.089e-10
  2.52137   -216.7 1.115e+04 2.938e-10
  2.56326   -215.3 1.111e+04 2.791e-10
  2.59843   -213.9 1.105e+04 2.581e-10
  2.61380   -213.7 1.106e+04 2.191e-10
  2.62052   -212.8 1.112e+04 2.758e-10
  2.64703   -211.2 1.104e+04 2.446e-10
  2.68892   -209.5 1.095e+04 2.005e-10
  2.72443   -207.7 1.086e+04 1.556e-10
  2.74537   -206.9 1.097e+04 1.568e-10
  2.77270   -205.0 1.090e+04 1.192e-10
  2.81374   -203.1 1.086e+04 9.198e-11
  2.83468   -202.9 1.086e+04 9.853e-11
  2.84928   -201.0 1.085e+04 7.906e-11
  2.87023   -200.3 1.092e+04 8.087e-11
  2.89836   -198.5 1.089e+04 6.870e-11
  2.94025   -196.6 1.085e+04 6.217e-11
  2.97414   -194.7 1.080e+04 5.956e-11
  2.99508   -194.1 1.084e+04 6.047e-11
  3.02402   -192.3 1.082e+04 5.971e-11
  3.05000   -190.5 1.082e+04 5.942e-11
  3.07094   -190.1 1.088e+04 6.628e-11
  3.09899   -188.4 1.088e+04 6.604e-11
  3.11993   -188.0 1.094e+04 7.156e-11
  3.14969   -186.4 1.093e+04 7.433e-11
  3.19158   -185.0 1.090e+04 7.918e-11
  3.22384   -183.5 1.085e+04 8.581e-11
  3.24479   -183.3 1.094e+04 1.055e-10
  3.26531   -181.9 1.090e+04 1.118e-10
  3.28625   -181.2 1.090e+04 1.083e-10
  3.31724   -179.8 1.084e+04 1.105e-10
  3.34870   -178.4 1.077e+04 1.122e-10
  3.36964   -178.1 1.081e+04 1.559e-10
  3.40102   -176.6 1.073e+04 1.571e-10
  3.44290   -175.2 1.065e+04 1.602e-10
  3.47355   -173.7 1.057e+04 1.669e-10
  3.49032   -173.0 1.066e+04 2.204e-10
  3.50157   -172.4 1.065e+04 1.842e-10
  3.52668   -170.9 1.056e+04 1.921e-10
  3.56857   -169.4 1.049e+04 2.059e-10
  3.59840   -168.0 1.044e+04 2.169e-10
  3.61935   -167.3 1.056e+04 2.477e-10
  3.65234   -165.8 1.047e+04 2.494e-10
  3.69423   -164.3 1.040e+04 2.353e-10
  3.71688   -162.8 1.027e+04 2.084e-10
  3.72496   -162.6 1.045e+04 2.482e-10
  3.74420   -161.8 1.053e+04 2.655e-10
  3.77801   -160.3 1.041e+04 2.398e-10
  3.81990   -158.7 1.030e+04 2.092e-10
  3.84811   -157.2 1.020e+04 1.835e-10
  3.86906   -156.4 1.036e+04 1.880e-10
  3.90367   -154.9 1.032e+04 1.804e-10
  3.93219   -153.4 1.028e+04 1.753e-10
  3.95314   -153.4 1.035e+04 2.229e-10
  3.97297   -151.8 1.026e+04 2.044e-10
  3.99391   -151.0 1.041e+04 2.313e-10
  4.02934   -149.3 1.030e+04 2.159e-10
  4.07123   -147.5 1.018e+04 1.971e-10
  4.09782   -145.5 1.006e+04 1.778e-10
  4.11876   -144.7 1.010e+04 1.798e-10
  4.14750   -142.7 9.972e+03 1.570e-10
  4.16845   -142.6 9.943e+03 1.428e-10
  4.19689   -140.6 9.838e+03 1.198e-10
  4.22267   -138.6 9.764e+03 1.018e-10
  4.24362   -137.8 9.802e+03 1.039e-10
  4.28067   -135.9 9.748e+03 9.131e-11
  4.32255   -134.0 9.697e+03 8.128e-11
  4.34753   -132.1 9.644e+03 7.309e-11
  4.36684   -131.4 9.684e+03 7.904e-11
  4.38376   -131.2 9.672e+03 6.637e-11
  4.40633   -129.2 9.608e+03 5.881e-11
  4.44822   -127.2 9.542e+03 5.261e-11
  4.47238   -125.2 9.480e+03 4.770e-11
  4.49332   -124.3 9.528e+03 5.243e-11
  4.53199   -122.2 9.471e+03 4.749e-11
  4.57388   -120.2 9.419e+03 4.451e-11
  4.59723   -118.1 9.388e+03 4.329e-11
  4.60148   -117.1 9.418e+03 4.666e-11
  4.62002   -116.8 9.381e+03 4.005e-11
  4.65766   -114.6 9.370e+03 3.962e-11
  4.69955   -112.6 9.374e+03 3.956e-11
  4.72209   -110.6 9.376e+03 4.316e-11
  4.74303   -109.6 9.369e+03 4.527e-11
  4.78332   -107.7 9.351e+03 5.267e-11
  4.81439   -105.8 9.341e+03 6.317e-11
  4.83533   -105.7 9.277e+03 6.682e-11
  4.84694   -103.8 9.263e+03 8.455e-11
  4.86788   -103.0 9.247e+03 8.663e-11
  4.90899   -101.0 9.233e+03 1.035e-10
  4.95085    -99.1 9.223e+03 1.182e-10
  4.99274    -96.3 9.143e+03 1.259e-10
  5.02970    -94.4 9.146e+03 1.332e-10
  5.05064    -94.4 9.115e+03 1.349e-10
  5.07570    -92.5 9.090e+03 1.423e-10
  5.09665    -91.6 8.947e+03 1.339e-10
  5.11843    -89.8 8.951e+03 1.501e-10
  5.16031    -87.9 8.965e+03 1.731e-10
  5.20056    -86.0 8.969e+03 1.948e-10
  5.22150    -85.0 8.933e+03 2.037e-10
  5.24409    -83.1 8.926e+03 2.138e-10
  5.26595    -81.1 8.887e+03 2.130e-10
  5.28690    -80.9 8.792e+03 1.890e-10
  5.32541    -78.7 8.649e+03 1.763e-10
  5.34635    -77.6 8.624e+03 1.729e-10
  5.36975    -75.3 8.438e+03 1.359e-10
  5.41164    -73.1 8.278e+03 1.005e-10
  5.45026    -71.1 8.179e+03 7.813e-11
  5.47121    -70.1 8.101e+03 7.097e-11
  5.48127    -68.2 8.046e+03 6.364e-11
  5.50221    -67.8 8.045e+03 6.663e-11
  5.53731    -66.0 8.040e+03 6.505e-11
  5.57512    -64.3 8.065e+03 7.042e-11
  5.59606    -63.1 7.961e+03 6.358e-11
  5.62108    -61.4 8.059e+03 8.312e-11
  5.66297    -59.5 8.159e+03 1.093e-10
  5.69658    -57.5 8.231e+03 1.315e-10
  5.71263    -57.6 8.259e+03 1.390e-10
  5.72091    -56.3 8.121e+03 1.192e-10
  5.74675    -54.3 8.166e+03 1.330e-10
  5.78863    -52.4 8.182e+03 1.394e-10
  5.82482    -50.4 8.179e+03 1.419e-10
  5.84577    -49.2 8.123e+03 1.409e-10
  5.87241    -47.3 8.210e+03 1.530e-10
  5.91189    -45.5 8.312e+03 1.702e-10
  5.93284    -46.1 8.338e+03 1.873e-10
  5.94968    -44.4 8.495e+03 2.275e-10
  5.97062    -43.3 8.590e+03 2.617e-10
  5.99807    -41.6 8.831e+03 3.253e-10
  6.03996    -39.9 9.129e+03 4.042e-10
  6.07453    -38.2 9.412e+03 5.084e-10
  6.09547    -37.2 9.582e+03 5.934e-10
  6.12374    -35.6 9.778e+03 6.788e-10
  6.14815    -34.3 9.948e+03 7.296e-10
  6.16909    -34.6 9.252e+03 4.761e-10
  6.19938    -33.5 9.336e+03 4.867e-10
  6.22033    -32.7 9.324e+03 4.790e-10
  6.24940    -31.9 9.503e+03 5.121e-10
  6.27218    -31.5 9.646e+03 5.473e-10
  6.28256    -31.2 9.579e+03 5.202e-10
  6.30157    -31.4 9.693e+03 5.811e-10
  6.32251    -31.6 9.979e+03 7.397e-10
  6.33451    -31.2 1.030e+04 9.064e-10
  6.34499    -30.9 1.040e+04 9.603e-10
  6.36327    -30.5 1.075e+04 1.142e-09
  6.37374    -30.6 1.050e+04 1.039e-09
  6.38534    -30.1 1.084e+04 1.205e-09
  6.39694    -29.8 1.109e+04 1.289e-09
  6.40741    -29.6 1.134e+04 1.448e-09
  6.42723    -29.6 1.141e+04 1.466e-09
  6.44818    -29.6 1.144e+04 1.419e-09
  6.45937    -29.9 1.134e+04 1.268e-09
  6.46984    -29.9 1.159e+04 1.446e-09
  6.48139    -30.5 1.135e+04 1.246e-09
  6.49187    -30.3 1.139e+04 1.316e-09
  6.51101    -30.9 1.110e+04 1.152e-09
  6.52179    -31.2 1.080e+04 9.950e-10
  6.53227    -31.4 1.095e+04 1.087e-09
  6.55290    -31.6 1.069e+04 9.196e-10
  6.57375    -31.6 1.039e+04 7.620e-10
  6.58896    -31.8 1.010e+04 6.756e-10
  6.59952    -31.3 9.927e+03 6.070e-10
  6.61573    -31.3 9.598e+03 4.720e-10
  6.63618    -31.2 9.470e+03 4.012e-10
  6.64665    -31.3 9.483e+03 4.103e-10
  6.66819    -31.1 9.340e+03 3.375e-10
  6.69880    -30.2 8.974e+03 2.382e-10
  6.71974    -30.6 9.180e+03 2.542e-10
  6.75206    -29.6 8.925e+03 1.887e-10
  6.79395    -28.6 8.875e+03 1.719e-10
  6.82365    -26.5 8.718e+03 1.484e-10
  6.84459    -27.2 9.320e+03 2.355e-10
  6.86715    -26.3 9.425e+03 2.570e-10
  6.88588    -26.5 9.582e+03 2.919e-10
  6.89635    -27.5 1.009e+04 4.311e-10
  6.90894    -27.5 1.048e+04 6.181e-10
  6.92249    -27.4 1.088e+04 8.376e-10
  6.93296    -26.8 1.068e+04 6.985e-10
  6.94831    -26.4 1.116e+04 1.019e-09
  6.95878    -27.2 1.187e+04 1.536e-09
  6.97178    -26.5 1.227e+04 1.901e-09
  6.99272    -25.8 1.255e+04 2.136e-09
  7.01074    -25.5 1.275e+04 2.181e-09
  7.02121    -26.5 1.274e+04 2.110e-09
  7.03015    -26.6 1.258e+04 1.821e-09
  7.04062    -25.6 1.282e+04 2.113e-09
  7.05555    -25.8 1.263e+04 1.779e-09
  7.07316    -26.3 1.240e+04 1.459e-09
  7.08363    -28.3 1.205e+04 1.191e-09
  7.09744    -29.3 1.182e+04 1.121e-09
  7.11838    -29.9 1.181e+04 1.205e-09
  7.13559    -30.2 1.188e+04 1.357e-09
  7.14454    -31.5 1.218e+04 1.658e-09
  7.14828    -30.9 1.241e+04 1.753e-09
  7.16027    -30.8 1.273e+04 2.128e-09
  7.18122    -30.5 1.301e+04 2.456e-09
  7.19802    -30.1 1.314e+04 2.626e-09
  7.20849    -30.7 1.349e+04 3.143e-09
  7.22310    -30.2 1.337e+04 2.923e-09
  7.24405    -29.7 1.301e+04 2.394e-09
  7.25593    -29.3 1.254e+04 1.890e-09
  7.26185    -28.8 1.274e+04 2.105e-09
  7.27091    -29.5 1.268e+04 2.014e-09
  7.28594    -29.2 1.211e+04 1.532e-09
  7.30688    -28.9 1.154e+04 1.167e-09
  7.32287    -28.4 1.105e+04 9.039e-10
  7.33334    -29.0 1.087e+04 8.128e-10
  7.34877    -28.4 1.063e+04 6.806e-10
  7.36359    -27.8 1.044e+04 5.922e-10
  7.37406    -27.3 1.045e+04 5.894e-10
  7.38530    -26.9 1.024e+04 5.206e-10
  7.39577    -27.4 1.013e+04 5.030e-10
  7.42217    -26.7 9.975e+03 4.575e-10
  7.44792    -24.5 9.757e+03 4.095e-10
  7.46567    -24.7 9.639e+03 4.013e-10
  7.48191    -24.0 9.472e+03 3.474e-10
  7.50604    -21.9 9.412e+03 3.263e-10
  7.54793    -19.7 9.376e+03 3.086e-10
  7.57277    -17.6 9.364e+03 2.948e-10
  7.59372    -17.3 9.256e+03 2.782e-10
  7.63171    -15.2 9.304e+03 2.800e-10
  7.67360    -13.1 9.404e+03 3.124e-10
  7.69722    -11.0 9.519e+03 3.744e-10
  7.70031    -10.1 9.257e+03 2.726e-10
  7.71857     -9.7 9.184e+03 2.417e-10
  7.75737     -7.4 9.329e+03 3.280e-10
  7.79926     -4.8 9.607e+03 4.053e-10
  7.82248     -2.4 9.768e+03 4.191e-10
  7.84342     -2.0 9.781e+03 4.258e-10
  7.88304     -0.1 9.901e+03 4.595e-10
  7.91254      1.8 9.997e+03 4.919e-10
  7.93348      2.9 9.931e+03 4.886e-10
  7.94733      4.9 1.002e+04 4.956e-10
  7.96828      5.3 1.022e+04 5.504e-10
  8.00870      7.1 1.024e+04 5.766e-10
  8.05059      9.2 1.011e+04 5.256e-10
  8.07219     11.4 9.937e+03 3.972e-10
  8.09313     12.0 9.902e+03 3.904e-10
  8.12785     14.0 9.716e+03 2.477e-10
  8.14879     14.8 9.791e+03 3.131e-10
  8.17609     16.8 9.640e+03 2.141e-10
  8.21798     19.1 9.339e+03 1.090e-10
  8.26003     20.5 9.411e+03 6.680e-11
  8.30095     21.9 9.179e+03 5.659e-11
  8.32189     22.1 9.149e+03 5.664e-11
  8.34316     24.0 9.130e+03 5.810e-11
  8.36411     24.7 9.263e+03 6.174e-11
  8.38569     26.6 9.247e+03 6.610e-11
  8.42580     28.7 9.249e+03 7.287e-11
  8.44675     29.0 9.241e+03 7.222e-11
  8.46947     31.1 9.301e+03 7.471e-11
  8.51136     33.1 9.361e+03 7.691e-11
  8.55066     34.9 9.409e+03 8.059e-11
  8.57160     34.7 9.438e+03 7.809e-11
  8.57942     36.1 9.462e+03 8.639e-11
  8.60036     36.5 9.418e+03 7.764e-11
  8.63702     37.1 9.673e+03 1.019e-10
  8.67551     35.9 1.031e+04 1.562e-10
  8.69645     33.0 1.068e+04 2.046e-10
  8.71023     29.9 1.126e+04 4.270e-10
  8.73107     29.7 1.107e+04 7.314e-10
  8.74821     29.1 1.161e+04 1.047e-09
  8.75868     28.9 1.155e+04 1.028e-09
  8.77296     28.8 1.155e+04 1.010e-09
  8.79463     27.6 1.141e+04 7.977e-10
  8.81146     27.5 1.143e+04 7.980e-10
  8.82131     26.5 1.095e+04 4.823e-10
  8.84646     23.0 1.026e+04 2.022e-10
  8.88835     19.5 9.448e+03 9.816e-11
  8.92522     18.6 9.288e+03 9.973e-11
  8.94616     19.3 9.091e+03 9.458e-11
  8.97212     19.4 9.147e+03 1.035e-10
  9.01004     20.2 9.094e+03 1.297e-10
  9.03099     20.5 9.054e+03 1.354e-10
  9.05007     22.1 8.931e+03 1.298e-10
  9.07101     23.1 8.843e+03 8.981e-11
  9.09779     24.7 8.742e+03 7.362e-11
  9.13968     26.3 8.669e+03 5.595e-11
  9.17492     27.8 8.628e+03 4.231e-11
  9.19587     27.9 8.583e+03 3.700e-11
  9.22345     29.3 8.542e+03 3.534e-11
  9.24630     30.9 8.493e+03 3.693e-11
  9.26724     31.1 8.478e+03 3.597e-11
  9.29978     33.0 8.506e+03 4.106e-11
  9.32072     33.2 8.554e+03 4.762e-11
  9.34912     34.9 8.630e+03 6.050e-11
  9.39101     36.5 8.689e+03 7.883e-11
  9.42463     38.2 8.737e+03 1.017e-10
  9.44557     38.1 8.921e+03 1.413e-10
  9.46161     39.5 9.053e+03 1.679e-10
  9.48256     39.5 9.198e+03 1.995e-10
  9.51667     40.6 9.334e+03 2.308e-10
  9.54948     41.5 9.352e+03 2.303e-10
  9.57043     40.2 9.368e+03 2.270e-10
  9.60045     41.0 9.157e+03 2.016e-10
  9.64233     42.0 8.901e+03 1.634e-10
  9.67434     43.2 8.646e+03 1.236e-10
  9.68798     41.9 8.455e+03 9.729e-11
  9.69787     41.7 8.444e+03 8.331e-11
  9.72611     42.7 8.286e+03 5.946e-11
  9.76800     43.5 8.177e+03 4.645e-11
  9.79919     44.3 8.074e+03 4.102e-11
  9.82013     42.9 8.049e+03 4.355e-11
  9.85177     43.9 7.998e+03 4.643e-11
  9.89224     45.2 7.914e+03 5.207e-11
  9.91318     45.0 7.909e+03 6.050e-11
  9.92404     46.6 7.874e+03 5.945e-11
  9.94499     46.0 8.000e+03 7.650e-11
  9.97744     47.6 7.963e+03 6.619e-11
 10.01933     49.0 7.940e+03 5.453e-11
 10.04890     50.2 7.913e+03 4.787e-11
 10.06984     49.1 8.086e+03 5.588e-11
 10.10310     49.9 8.154e+03 5.998e-11
 10.12849     50.1 8.379e+03 8.144e-11
 10.14944     48.4 8.839e+03 1.382e-10
 10.17375     48.7 9.453e+03 2.781e-10
 10.19469     47.3 1.013e+04 5.444e-10
 10.22877     48.5 1.048e+04 6.706e-10
 10.27065     49.3 1.051e+04 6.544e-10
 10.29860     50.0 1.039e+04 5.454e-10
 10.31955     47.9 1.022e+04 3.814e-10
 10.34381     48.0 9.854e+03 2.677e-10
 10.36475     46.5 9.640e+03 2.363e-10
 10.39632     46.9 9.201e+03 1.835e-10
 10.42346     47.7 9.110e+03 1.752e-10
 10.44440     46.6 9.175e+03 1.723e-10
 10.48009     47.2 9.253e+03 1.792e-10
 10.52198     47.4 9.506e+03 2.112e-10
 10.54831     47.4 9.942e+03 3.067e-10
 10.56450     45.6 1.002e+04 3.079e-10
 10.58006     44.3 1.014e+04 3.535e-10
 10.60576     43.2 1.064e+04 4.721e-10
 10.64765     42.0 1.106e+04 6.146e-10
 10.67316     41.3 1.112e+04 7.088e-10
 10.69411     40.0 1.117e+04 7.841e-10
 10.73142     40.1 1.091e+04 6.976e-10
 10.77331     40.3 1.062e+04 5.051e-10
 10.79538     38.2 1.076e+04 3.301e-10
 10.79904     35.9 1.085e+04 2.929e-10
 10.80829     36.3 1.028e+04 2.454e-10
 10.82548     33.4 1.195e+04 2.693e-10
 10.84642     24.5 1.601e+04 9.456e-10
 10.86025     16.8 1.729e+04 5.042e-09
 10.87072     16.7 1.726e+04 5.745e-09
 10.88831     17.1 1.826e+04 1.464e-08
 10.90284     17.7 1.916e+04 1.846e-08
 10.91331     15.8 1.986e+04 1.985e-08
 10.92268     15.1 1.985e+04 1.475e-08
 10.93315     13.9 1.954e+04 1.039e-08
 10.95114      9.6 1.852e+04 4.050e-09
 10.97208      2.4 1.489e+04 1.387e-09
 10.98510     -1.6 1.223e+04 9.467e-10
 10.99557     -1.3 1.261e+04 1.029e-09
 11.01049     -1.4 1.231e+04 8.724e-10
 11.03154     -3.0 1.200e+04 6.601e-10
 11.04772     -4.0 1.207e+04 7.561e-10
 11.05810     -2.1 1.218e+04 1.032e-09
 11.07680     -2.8 1.262e+04 1.141e-09
 11.09775     -4.8 1.382e+04 1.507e-09
 11.10996     -7.5 1.482e+04 2.197e-09
 11.11989     -9.2 1.548e+04 3.422e-09
 11.12862    -10.5 1.526e+04 3.486e-09
 11.13964     -9.9 1.454e+04 4.406e-09
 11.16058     -8.4 1.396e+04 4.480e-09
 11.17238     -6.7 1.358e+04 4.013e-09
 11.18285     -5.8 1.385e+04 3.618e-09
 11.20247     -6.1 1.411e+04 2.478e-09
 11.22341     -8.5 1.442e+04 1.636e-09
 11.23481    -12.6 1.385e+04 1.168e-09
 11.23720    -15.6 1.256e+04 9.455e-10
 11.24675    -17.6 1.210e+04 8.886e-10
 11.26530    -18.4 1.173e+04 9.112e-10
 11.28624    -18.7 1.173e+04 9.608e-10
 11.29724    -19.3 1.199e+04 9.698e-10
 11.30771    -20.1 1.207e+04 8.931e-10
 11.32813    -21.1 1.207e+04 8.234e-10
 11.34393    -22.1 1.156e+04 7.749e-10
 11.35441    -22.6 1.149e+04 7.525e-10
 11.35966    -22.9 1.127e+04 6.618e-10
 11.37014    -23.4 1.118e+04 6.253e-10
 11.39096    -23.6 1.119e+04 6.156e-10
 11.41162    -23.6 1.129e+04 6.043e-10
 11.42209    -24.1 1.123e+04 5.884e-10
 11.43285    -24.5 1.129e+04 6.632e-10
 11.45159    -24.9 1.155e+04 7.697e-10
 11.46206    -25.5 1.127e+04 6.556e-10
 11.47404    -26.0 1.165e+04 8.493e-10
 11.48452    -26.8 1.185e+04 9.576e-10
 11.49568    -26.8 1.217e+04 1.202e-09
 11.51663    -26.5 1.232e+04 1.503e-09
 11.53647    -25.7 1.247e+04 1.730e-09
 11.54694    -25.6 1.246e+04 1.730e-09
 11.55852    -25.0 1.267e+04 1.786e-09
 11.56972    -24.9 1.277e+04 1.744e-09
 11.58019    -25.5 1.240e+04 1.431e-09
 11.59890    -25.9 1.255e+04 1.546e-09
 11.60937    -26.1 1.220e+04 1.269e-09
 11.62135    -26.0 1.213e+04 1.317e-09
 11.64229    -25.8 1.193e+04 1.372e-09
 11.66132    -25.2 1.173e+04 1.327e-09
 11.67180    -25.1 1.154e+04 1.172e-09
 11.67738    -24.2 1.150e+04 1.108e-09
 11.68785    -23.6 1.145e+04 1.086e-09
 11.70512    -22.9 1.140e+04 1.016e-09
 11.72375    -22.5 1.142e+04 8.938e-10
 11.73422    -22.3 1.122e+04 8.489e-10
 11.74701    -22.1 1.113e+04 8.230e-10
 11.76796    -22.2 1.131e+04 8.665e-10
 11.78503    -23.8 1.226e+04 1.244e-09
 11.79278    -23.4 1.240e+04 1.240e-09
 11.79665    -21.9 1.210e+04 1.097e-09
 11.80984    -23.5 1.308e+04 1.785e-09
 11.83079    -24.2 1.362e+04 2.797e-09
 11.84860    -22.8 1.374e+04 3.944e-09
 11.85908    -22.5 1.422e+04 3.786e-09
 11.87268    -21.0 1.427e+04 4.905e-09
 11.89269    -20.0 1.429e+04 4.857e-09
 11.90316    -18.7 1.436e+04 5.015e-09
 11.91103    -17.9 1.433e+04 4.117e-09
 11.92150    -17.8 1.468e+04 5.145e-09
 11.93551    -17.7 1.471e+04 4.215e-09
 11.95645    -18.4 1.452e+04 3.226e-09
 11.97346    -20.8 1.462e+04 2.807e-09
 11.98393    -18.7 1.533e+04 4.288e-09
 11.99834    -22.2 1.695e+04 4.671e-09
 12.01082    -27.4 1.857e+04 6.633e-09
 12.02129    -27.9 1.900e+04 7.921e-09
 12.03589    -30.4 1.825e+04 1.081e-08
 12.04636    -28.0 2.022e+04 1.560e-08
 12.06117    -29.5 1.915e+04 1.752e-08
 12.08212    -30.1 1.847e+04 1.612e-08
 12.09831    -30.7 1.820e+04 1.110e-08
 12.10878    -30.0 1.871e+04 1.153e-08
 12.11847    -35.2 1.840e+04 8.042e-09
 12.12894    -37.2 1.864e+04 8.506e-09
 12.14495    -43.5 1.800e+04 7.711e-09
 12.16074    -46.7 1.827e+04 1.035e-08
 12.17121    -46.3 1.820e+04 9.654e-09
 12.18684    -47.4 1.835e+04 1.248e-08
 12.20778    -47.6 1.827e+04 1.424e-08
 12.22317    -47.3 1.786e+04 1.407e-08
 12.23104    -47.0 1.768e+04 1.217e-08
 12.23660    -47.0 1.756e+04 1.196e-08
 12.24967    -45.5 1.656e+04 8.688e-09
 12.27061    -44.5 1.568e+04 4.937e-09
 12.28559    -45.0 1.420e+04 2.200e-09
 12.29606    -43.9 1.455e+04 2.536e-09
 12.31250    -47.2 1.247e+04 1.062e-09
 12.33344    -50.0 1.075e+04 5.795e-10
 12.34426    -50.6 1.020e+04 4.463e-10
 12.34836    -49.3 1.036e+04 4.706e-10
 12.35849    -49.0 1.048e+04 4.933e-10
 12.37533    -48.8 9.883e+03 4.054e-10
 12.39628    -44.7 3.940e+03 4.141e-10
 12.41045    -45.6 3.080e+03 4.093e-10
 12.42092    -47.3 5.973e+03 3.469e-10
 12.43816    -47.3 5.225e+03 1.624e-10
 12.45191    -50.5 5.385e+03 1.685e-10
 12.46239    -59.8 1.343e+04 5.662e-10
 12.47287    -66.3 1.805e+04 7.029e-10
 12.48334    -66.0 1.906e+04 7.887e-10
 12.50100    -66.5 2.011e+04 1.281e-09
 12.52194    -66.2 2.027e+04 2.015e-09
 12.53530    -65.8 2.012e+04 2.949e-09
 12.54577    -65.3 2.024e+04 2.867e-09
 12.55957    -64.9 2.047e+04 4.237e-09
 12.57004    -70.4 2.227e+04 7.934e-09
 12.58477    -70.4 2.209e+04 9.157e-09
 12.59773    -70.7 2.252e+04 1.077e-08
 12.60820    -70.9 2.265e+04 1.011e-08
 12.62666    -71.7 2.368e+04 1.212e-08
 12.64760    -73.1 2.446e+04 1.502e-08
 12.66015    -74.9 2.433e+04 1.857e-08
 12.66930    -75.2 2.317e+04 1.712e-08
 12.67770    -80.2 1.944e+04 1.128e-08
 12.68949    -79.8 1.970e+04 1.106e-08
 12.70515    -79.7 1.914e+04 1.111e-08
 12.71557    -79.8 1.880e+04 1.027e-08
 12.72248    -79.9 1.839e+04 8.596e-09
 12.72772    -79.9 1.829e+04 7.254e-09
 12.73143    -80.0 1.803e+04 5.877e-09
 12.73666    -81.4 1.673e+04 4.052e-09
 12.74699    -81.9 1.627e+04 3.044e-09
 12.75369    -82.1 1.605e+04 2.806e-09
 12.75893    -82.1 1.607e+04 2.782e-09
 12.76793    -83.3 1.559e+04 2.185e-09
 12.77841    -83.7 1.553e+04 2.134e-09
 12.78496    -85.2 1.543e+04 2.038e-09
 12.78662    -85.6 1.521e+04 2.106e-09
 12.79583    -85.6 1.436e+04 1.311e-09
 12.81516    -86.3 1.397e+04 1.227e-09
 12.83610    -86.6 1.377e+04 1.222e-09
 12.84743    -86.7 1.343e+04 1.390e-09
 12.85790    -86.4 1.321e+04 1.401e-09
 12.87799    -86.0 1.337e+04 1.720e-09
 12.89301    -85.1 1.367e+04 2.106e-09
 12.90348    -85.2 1.276e+04 1.279e-09
 12.90986    -84.2 1.303e+04 1.518e-09
 12.92033    -83.7 1.311e+04 1.593e-09
 12.94082    -82.7 1.336e+04 1.783e-09
 12.96176    -81.8 1.352e+04 1.894e-09
 12.98271    -80.4 1.375e+04 2.082e-09
 13.00067    -79.5 1.387e+04 2.136e-09
 13.01114    -79.5 1.286e+04 1.358e-09
 13.02424    -78.6 1.298e+04 1.385e-09
 13.03471    -78.1 1.323e+04 1.547e-09
 13.04554    -77.3 1.336e+04 1.602e-09
 13.06648    -76.6 1.353e+04 1.681e-09
 13.08667    -76.1 1.372e+04 1.803e-09
 13.09714    -75.8 1.401e+04 2.117e-09
 13.10832    -75.4 1.432e+04 2.417e-09
 13.12927    -74.6 1.345e+04 1.584e-09
 13.14909    -74.3 1.378e+04 1.912e-09
 13.15957    -74.1 1.431e+04 2.556e-09
 13.17120    -73.6 1.463e+04 3.111e-09
 13.19215    -73.0 1.491e+04 3.655e-09
 13.21152    -72.2 1.512e+04 4.038e-09
 13.22199    -72.0 1.560e+04 4.692e-09
 13.22645    -71.3 1.573e+04 4.699e-09
 13.23692    -70.7 1.423e+04 2.857e-09
 13.25498    -70.0 1.435e+04 2.723e-09
 13.27395    -69.6 1.447e+04 2.502e-09
 13.28442    -69.8 1.499e+04 2.804e-09
 13.29687    -69.8 1.495e+04 2.522e-09
 13.31781    -69.8 1.473e+04 2.343e-09
 13.33411    -69.5 1.442e+04 2.244e-09
 13.34220    -68.1 1.371e+04 1.512e-09
 13.34685    -68.6 1.381e+04 1.628e-09
 13.35970    -68.0 1.364e+04 1.613e-09
 13.38065    -67.4 1.355e+04 1.623e-09
 13.39880    -66.7 1.350e+04 1.618e-09
 13.41984    -66.9 1.338e+04 1.441e-09
 13.44186    -64.3 1.311e+04 1.221e-09
 13.45224    -63.2 1.314e+04 1.214e-09
 13.46123    -62.8 1.297e+04 1.198e-09
 13.47170    -62.7 1.306e+04 1.155e-09
 13.48537    -61.2 1.277e+04 9.929e-10
 13.50631    -60.3 1.263e+04 9.145e-10
 13.52375    -58.4 1.260e+04 9.793e-10
 13.54479    -57.7 1.202e+04 5.647e-10
 13.57981    -54.7 1.160e+04 4.161e-10
 13.62170    -51.8 1.119e+04 2.835e-10
 13.64870    -49.3 1.092e+04 2.227e-10
 13.66333    -49.0 1.068e+04 1.889e-10
 13.67822    -47.7 1.084e+04 1.940e-10
 13.70547    -45.2 1.053e+04 1.777e-10
 13.74736    -42.5 1.040e+04 1.743e-10
 13.77356    -39.6 1.036e+04 1.789e-10
 13.79450    -39.0 1.030e+04 2.011e-10
 13.83114    -36.1 1.032e+04 2.305e-10
 13.87258    -33.3 1.043e+04 2.707e-10
 13.89353    -32.9 1.043e+04 2.656e-10
 13.89841    -30.2 1.062e+04 3.245e-10
 13.91935    -29.3 1.054e+04 2.923e-10
 13.95680    -26.6 1.074e+04 3.323e-10
 13.99869    -23.6 1.085e+04 3.829e-10
 14.02326    -21.1 1.113e+04 3.486e-10
 14.04421    -20.8 1.051e+04 2.808e-10
 14.08246    -18.6 1.065e+04 2.264e-10
 14.10884    -16.6 1.078e+04 2.313e-10
 14.12979    -18.1 1.149e+04 2.202e-10
 14.14812    -18.0 1.262e+04 2.840e-10
 14.16906    -17.0 1.176e+04 2.645e-10
 14.20813    -15.6 1.286e+04 3.802e-10
 14.23945    -14.2 1.359e+04 4.394e-10
 14.26029    -13.9 1.473e+04 6.091e-10
 14.27278    -13.3 1.561e+04 8.690e-10
 14.28325    -11.8 1.440e+04 6.147e-10
 14.30218    -11.5 1.529e+04 8.474e-10
 14.32313    -11.4 1.607e+04 1.180e-09
 14.33443    -11.3 1.658e+04 1.725e-09
 14.33603    -14.1 1.651e+04 3.132e-09
 14.34567    -12.6 1.605e+04 2.209e-09
 14.36501    -12.4 1.610e+04 2.879e-09
 14.38596    -12.5 1.639e+04 3.819e-09
 14.39763    -12.5 1.671e+04 4.977e-09
 14.40810    -11.0 1.620e+04 3.808e-09
 14.42785    -10.6 1.659e+04 4.836e-09
 14.44209     -9.8 1.678e+04 6.220e-09
 14.45256    -10.5 1.565e+04 5.200e-09
 14.46006     -9.5 1.561e+04 4.879e-09
 14.47053     -8.4 1.539e+04 4.310e-09
 14.49068     -7.7 1.536e+04 3.932e-09
 14.51162     -7.4 1.524e+04 3.420e-09
 14.52248     -7.5 1.497e+04 2.957e-09
 14.53295     -6.2 1.494e+04 2.889e-09
 14.54974     -6.1 1.466e+04 2.645e-09
 14.56021     -7.5 1.395e+04 2.157e-09
 14.57444     -6.7 1.386e+04 2.301e-09
 14.59538     -4.5 1.389e+04 2.241e-09
 14.61634     -3.7 1.383e+04 2.192e-09
 14.63686     -2.8 1.365e+04 2.063e-09
 14.64734     -1.8 1.376e+04 2.194e-09
 14.65740     -0.9 1.384e+04 2.171e-09
 14.66787     -1.6 1.382e+04 2.214e-09
 14.67917     -1.4 1.395e+04 2.128e-09
 14.69929     -1.4 1.401e+04 2.053e-09
 14.70976     -0.5 1.434e+04 2.597e-09
 14.72106     -0.8 1.472e+04 2.791e-09
 14.74201     -1.5 1.504e+04 3.159e-09
 14.76172     -2.2 1.510e+04 3.613e-09
 14.77219     -1.6 1.584e+04 4.923e-09
 14.77553     -1.5 1.542e+04 4.923e-09
 14.78600     -1.8 1.435e+04 3.491e-09
 14.80484     -1.4 1.381e+04 2.920e-09
 14.82414     -0.4 1.310e+04 2.121e-09
 14.83462      0.3 1.349e+04 2.391e-09
 14.84673      0.3 1.294e+04 1.553e-09
 14.86767      0.5 1.222e+04 9.253e-10
 14.88318     -0.0 1.173e+04 6.184e-10
 14.89161     -1.2 1.103e+04 3.733e-10
 14.89704     -1.2 1.102e+04 3.800e-10
 14.90956     -0.7 1.057e+04 2.944e-10
 14.93050     -0.7 1.055e+04 2.783e-10
 14.94900      0.6 1.045e+04 2.756e-10
 14.95947      0.7 1.049e+04 2.872e-10
 14.97239      0.9 1.052e+04 2.900e-10
 14.99084      2.2 1.059e+04 3.199e-10
 15.00903      2.3 1.042e+04 2.791e-10
 15.02209      2.5 1.046e+04 3.261e-10
 15.03532      3.9 1.052e+04 3.666e-10
 15.05617      4.3 1.063e+04 4.041e-10
 15.07385      5.3 1.078e+04 4.806e-10
 15.08432      5.3 1.088e+04 5.280e-10
 15.09805      6.1 1.108e+04 6.123e-10
 15.10897      7.2 1.123e+04 6.961e-10
 15.11944      7.6 1.075e+04 4.788e-10
 15.13628      8.2 1.086e+04 5.051e-10
 15.14675      8.5 1.089e+04 5.162e-10
 15.16089      9.7 1.090e+04 5.136e-10
 15.18183     10.3 1.093e+04 5.082e-10
 15.19870     11.7 1.085e+04 4.590e-10
 15.20918     11.7 1.088e+04 4.605e-10
 15.21662     12.0 1.088e+04 4.379e-10
 15.22719     11.9 1.063e+04 3.690e-10
 15.25085     13.7 1.065e+04 3.389e-10
 15.27180     13.9 1.073e+04 3.466e-10
 15.29722     16.2 1.065e+04 3.022e-10
 15.33911     18.7 1.047e+04 2.601e-10
 15.37571     21.3 1.033e+04 2.445e-10
 15.39665     21.9 1.051e+04 2.661e-10
 15.42166     24.5 1.046e+04 2.674e-10
 15.44260     25.7 1.038e+04 2.555e-10
 15.46477     28.3 1.040e+04 2.616e-10
 15.50056     31.0 1.044e+04 2.823e-10
 15.52151     31.7 1.058e+04 3.052e-10
 15.54855     34.4 1.066e+04 3.352e-10
 15.59043     37.2 1.071e+04 3.720e-10
 15.62542     39.9 1.077e+04 4.113e-10
 15.64636     40.5 1.097e+04 4.669e-10
 15.65792     43.2 1.106e+04 5.078e-10
 15.67886     44.3 1.125e+04 5.204e-10
 15.71610     47.2 1.143e+04 5.896e-10
 15.75027     50.1 1.160e+04 6.406e-10
 15.77121     50.8 1.173e+04 6.965e-10
 15.79987     53.5 1.172e+04 6.892e-10
 15.82307     54.8 1.174e+04 7.067e-10
 15.83344     55.1 1.177e+04 7.012e-10
 15.85204     56.2 1.178e+04 7.093e-10
 15.87298     57.3 1.184e+04 7.291e-10
 15.88540     58.6 1.250e+04 9.954e-10
 15.89587     59.0 1.261e+04 9.700e-10
 15.91487     59.8 1.279e+04 1.024e-09
 15.93581     60.5 1.289e+04 1.083e-09
 15.94783     61.2 1.291e+04 1.162e-09
 15.95830     61.7 1.294e+04 1.168e-09
 15.97770     62.3 1.289e+04 1.279e-09
 15.99116     63.0 1.289e+04 1.418e-09
 16.00163     62.9 1.464e+04 2.153e-09
 16.01025     63.4 1.466e+04 2.314e-09
 16.02072     63.9 1.500e+04 2.532e-09
 16.04054     64.5 1.505e+04 2.848e-09
 16.06148     65.1 1.512e+04 3.165e-09
 16.07268     65.7 1.510e+04 3.212e-09
 16.08315     66.4 1.575e+04 4.011e-09
 16.09882     66.9 1.567e+04 3.940e-09
 16.10929     67.1 1.715e+04 6.956e-09
 16.12431     67.8 1.683e+04 6.283e-09
 16.13511     68.7 1.621e+04 4.944e-09
 16.14558     69.4 1.712e+04 6.846e-09
 16.16620     70.4 1.622e+04 4.775e-09
 16.18706     71.3 1.520e+04 3.060e-09
 16.20639     72.6 1.437e+04 2.198e-09
 16.21695     73.2 1.671e+04 5.424e-09
 16.22903     74.0 1.560e+04 3.448e-09
 16.24949     74.4 1.436e+04 2.136e-09
 16.25996     75.0 1.498e+04 2.670e-09
 16.27092     75.4 1.409e+04 1.986e-09
 16.29186     75.8 1.347e+04 1.703e-09
 16.31191     76.3 1.328e+04 1.601e-09
 16.32239     76.6 1.330e+04 1.790e-09
 16.32470     77.8 1.267e+04 1.247e-09
 16.33517     77.4 1.555e+04 3.778e-09
 16.35470     78.0 1.524e+04 3.595e-09
 16.37434     78.7 1.493e+04 3.381e-09
 16.38481     78.9 1.534e+04 3.910e-09
 16.39658     79.7 1.501e+04 3.545e-09
 16.41753     80.5 1.459e+04 3.054e-09
 16.43226     81.4 1.420e+04 2.599e-09
 16.44103     81.2 1.543e+04 4.257e-09
 16.44724     81.4 1.588e+04 4.391e-09
 16.45942     82.3 1.526e+04 3.554e-09
 16.48036     83.1 1.475e+04 2.981e-09
 16.49919     84.1 1.434e+04 2.579e-09
 16.50967     84.2 1.458e+04 2.512e-09
 16.52225     85.3 1.426e+04 2.306e-09
 16.53992     86.4 1.411e+04 2.185e-09
 16.55039     85.9 1.520e+04 3.301e-09
 16.56162     87.0 1.498e+04 3.134e-09
 16.57209     87.0 1.559e+04 3.376e-09
 16.58508     88.1 1.542e+04 3.277e-09
 16.60602     89.2 1.533e+04 3.212e-09
 16.62405     90.1 1.528e+04 3.166e-09
 16.63452     90.1 1.595e+04 3.679e-09
 16.64757     91.0 1.585e+04 3.684e-09
 16.65804     89.9 1.686e+04 6.008e-09
 16.66886     90.7 1.664e+04 5.859e-09
 16.68647     91.4 1.638e+04 5.676e-09
 16.69695     91.4 1.679e+04 6.787e-09
 16.71074     92.3 1.640e+04 6.319e-09
 16.73169     93.1 1.604e+04 5.826e-09
 16.74890     93.8 1.571e+04 5.283e-09
 16.75937     93.9 1.559e+04 5.101e-09
 16.76570     94.7 1.525e+04 4.564e-09
 16.77617     93.5 1.596e+04 5.592e-09
 16.79452     94.1 1.560e+04 5.006e-09
 16.81133     94.5 1.525e+04 4.518e-09
 16.82180     94.1 1.549e+04 4.269e-09
 16.83641     94.6 1.512e+04 3.990e-09
 16.85735     95.1 1.479e+04 3.770e-09
 16.87336     95.9 1.449e+04 3.599e-09
 16.87929     94.7 1.488e+04 4.232e-09
 16.88423     94.5 1.524e+04 4.630e-09
 16.89924     95.6 1.470e+04 4.130e-09
 16.92018     96.7 1.428e+04 3.725e-09
 16.93618     97.8 1.404e+04 3.452e-09
 16.94665     97.9 1.408e+04 3.514e-09
 16.96207     99.1 1.384e+04 3.339e-09
 16.98101    100.2 1.362e+04 3.154e-09
 16.99149     99.4 1.314e+04 2.530e-09
 16.99861    100.6 1.283e+04 2.215e-09
 17.00908    100.7 1.284e+04 2.175e-09
 17.02490    101.9 1.254e+04 1.904e-09
 17.04585    103.0 1.227e+04 1.669e-09
 17.06103    104.1 1.201e+04 1.460e-09
 17.07151    104.2 1.201e+04 1.441e-09
 17.08774    105.3 1.176e+04 1.270e-09
 17.09914    106.4 1.156e+04 1.132e-09
 17.10961    105.8 1.118e+04 8.886e-10
 17.12346    107.0 1.110e+04 8.377e-10
 17.13393    107.1 1.111e+04 8.270e-10
 17.15057    108.2 1.106e+04 7.939e-10
 17.17151    109.4 1.105e+04 7.739e-10
 17.18589    110.6 1.105e+04 7.616e-10
 17.19636    110.5 1.106e+04 7.700e-10
 17.20680    111.7 1.108e+04 7.678e-10
 17.21727    111.1 1.105e+04 7.567e-10
 17.23434    112.2 1.109e+04 7.698e-10
 17.24831    113.3 1.112e+04 7.924e-10
 17.25879    113.0 1.123e+04 8.797e-10
 17.27623    114.1 1.136e+04 9.495e-10
 17.29718    115.2 1.151e+04 1.031e-09
 17.31074    116.4 1.168e+04 1.119e-09
 17.31755    116.0 1.200e+04 1.366e-09
 17.32493    115.7 1.238e+04 1.770e-09
 17.33906    116.9 1.259e+04 1.976e-09
 17.36001    118.2 1.278e+04 2.146e-09
 17.37317    119.4 1.290e+04 2.252e-09
 17.38364    119.0 1.310e+04 2.559e-09
 17.40190    120.2 1.322e+04 2.669e-09
 17.42211    121.4 1.324e+04 2.690e-09
 17.43258    121.3 1.335e+04 2.904e-09
 17.43560    122.5 1.331e+04 2.881e-09
 17.44607    122.0 1.342e+04 2.951e-09
 17.46473    123.4 1.340e+04 2.943e-09
 17.48567    124.8 1.337e+04 2.912e-09
 17.49802    126.1 1.330e+04 2.839e-09
 17.50849    125.5 1.341e+04 2.778e-09
 17.52756    127.0 1.338e+04 2.728e-09
 17.54024    128.5 1.333e+04 2.649e-09
 17.55071    128.7 1.293e+04 2.212e-09
 17.56045    130.2 1.281e+04 2.064e-09
 17.57092    129.5 1.289e+04 1.959e-09
 17.59039    131.1 1.276e+04 1.831e-09
 17.61134    132.7 1.262e+04 1.687e-09
 17.62288    134.4 1.249e+04 1.551e-09
 17.63335    133.5 1.260e+04 1.491e-09
 17.64789    135.2 1.252e+04 1.395e-09
 17.65837    135.3 1.237e+04 1.271e-09
 17.67417    136.9 1.234e+04 1.202e-09
 17.68530    138.4 1.235e+04 1.168e-09
 17.69577    137.6 1.258e+04 1.292e-09
 17.71606    139.1 1.260e+04 1.294e-09
 17.73700    140.8 1.264e+04 1.306e-09
 17.74773    142.5 1.273e+04 1.341e-09
 17.75581    141.6 1.303e+04 1.614e-09
 17.76602    141.8 1.327e+04 1.933e-09
 17.77889    143.5 1.343e+04 2.038e-09
 17.79968    145.1 1.361e+04 2.166e-09
 17.81016    144.5 1.386e+04 2.717e-09
 17.82078    146.0 1.403e+04 2.884e-09
 17.84172    147.7 1.419e+04 3.017e-09
 17.86211    149.4 1.436e+04 3.082e-09
 17.87258    148.7 1.448e+04 3.593e-09
 17.87368    150.2 1.467e+04 3.704e-09
 17.88415    150.4 1.470e+04 3.780e-09
 17.90455    151.8 1.475e+04 3.775e-09
 17.92454    153.2 1.476e+04 3.741e-09
 17.93501    152.5 1.518e+04 4.326e-09
 17.94644    153.7 1.519e+04 4.289e-09
 17.96738    155.0 1.518e+04 4.151e-09
 17.98134    156.3 1.512e+04 3.917e-09
 17.99044    156.3 1.492e+04 3.495e-09
 17.99744    154.7 1.583e+04 4.181e-09
 18.00927    155.9 1.586e+04 4.145e-09
 18.03022    157.0 1.582e+04 3.997e-09
 18.04939    158.1 1.556e+04 3.738e-09
 18.05986    156.6 1.652e+04 5.573e-09
 18.07210    158.0 1.615e+04 5.010e-09
 18.08899    159.5 1.578e+04 4.403e-09
 18.09946    158.9 1.578e+04 4.316e-09
 18.11182    160.3 1.545e+04 3.892e-09
 18.12229    159.6 1.627e+04 5.803e-09
 18.13494    161.1 1.592e+04 5.082e-09
 18.15588    162.6 1.552e+04 4.375e-09
 18.17424    164.4 1.516e+04 3.756e-09
 18.18472    163.8 1.575e+04 4.954e-09
 18.19665    165.7 1.549e+04 4.375e-09
 18.20712    164.7 1.548e+04 4.372e-09
 18.21871    166.6 1.534e+04 3.956e-09
 18.23667    168.3 1.526e+04 3.650e-09
 18.24714    167.8 1.569e+04 4.589e-09
 18.26060    169.4 1.567e+04 4.466e-09
 18.28154    171.0 1.567e+04 4.406e-09
 18.29910    173.0 1.571e+04 4.417e-09
 18.30957    172.6 1.610e+04 5.278e-09
 18.31478    174.7 1.628e+04 5.554e-09
 18.32525    173.3 1.616e+04 5.572e-09
 18.34438    175.2 1.648e+04 6.064e-09
 18.36152    176.7 1.680e+04 6.647e-09
 18.37200    176.3 1.731e+04 7.709e-09
 18.38626    177.9 1.767e+04 8.534e-09
 18.40721    179.6 1.797e+04 9.252e-09
 18.42243    181.1 1.810e+04 9.730e-09
 18.42870    179.7 1.728e+04 7.256e-09
 18.43437    180.1 1.860e+04 9.316e-09
 18.44376    181.2 1.852e+04 9.295e-09
 18.45424    182.0 1.859e+04 9.409e-09
 18.46030    182.7 1.883e+04 9.724e-09
 18.46554    180.9 2.131e+04 1.282e-08
 18.47518    181.3 2.211e+04 1.380e-08
 18.48140    181.8 2.296e+04 1.488e-08
 18.48664    180.1 2.218e+04 1.117e-08
 18.49152    180.4 2.275e+04 1.138e-08
 18.49675    179.3 2.104e+04 1.491e-08
 18.50660    179.8 2.099e+04 1.507e-08
 18.51707    180.3 2.097e+04 1.497e-08
 18.52273    180.8 2.090e+04 1.469e-08
 18.52797    181.0 1.903e+04 1.815e-08
 18.53523    181.6 1.897e+04 1.755e-08
 18.54046    180.4 1.797e+04 1.227e-08
 18.54848    180.9 1.792e+04 1.182e-08
 18.55394    181.4 1.791e+04 1.128e-08
 18.55918    182.0 1.743e+04 1.125e-08
 18.56943    182.5 1.736e+04 1.055e-08
 18.57990    183.1 1.729e+04 9.814e-09
 18.58906    184.1 1.683e+04 8.379e-09
 18.59429    182.6 1.624e+04 6.555e-09
 18.60084    183.0 1.613e+04 6.086e-09
 18.61113    183.4 1.602e+04 5.661e-09
 18.61637    183.9 1.570e+04 4.330e-09
 18.62179    184.2 1.567e+04 4.144e-09
 18.63754    185.5 1.589e+04 3.837e-09
 18.64822    186.6 1.600e+04 3.474e-09
 18.65869    186.0 1.539e+04 2.968e-09
 18.67366    186.8 1.535e+04 2.597e-09
 18.68413    185.2 1.438e+04 1.509e-09
 18.70043    185.7 1.407e+04 1.323e-09
 18.72137    186.2 1.382e+04 1.218e-09
 18.73608    186.6 1.361e+04 1.163e-09
 18.74656    185.5 1.239e+04 1.002e-09
 18.75587    186.0 1.246e+04 1.012e-09
 18.76635    184.7 1.240e+04 1.004e-09
 18.78420    185.1 1.256e+04 1.040e-09
 18.79851    185.4 1.272e+04 1.098e-09
 18.80898    185.1 1.280e+04 1.168e-09
 18.82609    185.2 1.296e+04 1.275e-09
 18.84703    185.4 1.314e+04 1.406e-09
 18.86094    185.5 1.331e+04 1.547e-09
 18.86696    185.2 1.370e+04 1.716e-09
 18.87400    184.2 1.395e+04 2.000e-09
 18.88892    184.2 1.409e+04 2.096e-09
 18.90987    184.1 1.422e+04 2.162e-09
 18.92336    183.8 1.434e+04 2.201e-09
 18.93384    181.8 1.528e+04 2.474e-09
 18.95175    181.0 1.536e+04 2.558e-09
 18.97119    180.2 1.542e+04 2.667e-09
 18.98166    179.7 1.527e+04 2.764e-09
 18.98579    179.1 1.522e+04 2.882e-09
 18.99626    177.0 1.501e+04 2.760e-09
 19.01459    176.7 1.497e+04 2.760e-09
 19.03553    176.5 1.484e+04 2.739e-09
 19.04822    176.5 1.462e+04 2.661e-09
 19.05869    174.7 1.410e+04 2.218e-09
 19.07742    174.8 1.385e+04 2.051e-09
 19.08931    175.2 1.355e+04 1.825e-09
 19.09979    175.8 1.339e+04 1.736e-09
 19.11064    176.3 1.304e+04 1.482e-09
 19.12112    174.2 1.244e+04 1.037e-09
 19.14025    174.5 1.206e+04 8.874e-10
 19.16119    174.8 1.170e+04 7.663e-10
 19.17307    175.1 1.138e+04 6.754e-10
 19.18354    173.3 1.094e+04 5.916e-10
 19.19697    173.9 1.082e+04 5.872e-10
 19.20744    175.3 1.064e+04 5.517e-10
 19.22403    176.2 1.063e+04 5.506e-10
 19.23550    177.2 1.063e+04 5.504e-10
 19.24597    176.3 1.081e+04 6.169e-10
 19.26591    177.5 1.093e+04 6.504e-10
 19.28686    178.7 1.104e+04 6.836e-10
 19.29793    180.0 1.113e+04 7.205e-10
 19.30522    179.9 1.123e+04 8.445e-10
 19.31510    181.4 1.116e+04 8.295e-10
 19.32875    182.9 1.130e+04 8.908e-10
 19.34969    184.5 1.147e+04 9.730e-10
 19.36035    185.9 1.177e+04 1.117e-09
 19.37082    186.4 1.190e+04 1.322e-09
 19.39158    187.6 1.263e+04 1.639e-09
 19.41228    188.3 1.394e+04 2.200e-09
 19.42276    191.6 1.262e+04 1.740e-09
 19.43347    192.6 1.369e+04 2.235e-09
 19.45441    193.3 1.494e+04 2.964e-09
 19.47473    194.2 1.563e+04 3.660e-09
 19.48521    195.2 1.585e+04 3.555e-09
 19.49101    196.9 1.595e+04 3.819e-09
 19.50144    197.4 1.650e+04 4.385e-09
 19.51108    197.9 1.748e+04 5.603e-09
 19.51632    198.2 1.729e+04 5.345e-09
 19.52238    198.7 1.842e+04 7.174e-09
 19.53031    199.0 1.952e+04 9.931e-09
 19.53555    200.4 1.803e+04 6.708e-09
 19.54230    200.9 1.911e+04 9.247e-09
 19.54753    202.0 1.921e+04 7.859e-09
 19.55380    202.4 2.035e+04 1.120e-08
 19.56427    202.8 2.139e+04 1.579e-08
 19.57351    203.0 2.230e+04 2.120e-08
 19.57875    204.1 2.228e+04 1.938e-08
 19.58414    204.4 2.290e+04 2.462e-08
 19.58938    205.9 2.201e+04 1.794e-08
 19.59568    206.1 2.267e+04 2.270e-08
 19.60473    206.1 2.315e+04 2.661e-08
 19.60996    207.3 2.303e+04 2.533e-08
 19.61663    207.2 2.331e+04 2.956e-08
 19.62710    206.5 2.430e+04 3.316e-08
 19.63594    205.3 2.668e+04 3.584e-08
 19.64117    204.9 2.979e+04 4.189e-08
 19.64321    201.7 3.445e+04 4.524e-08
 19.64844    208.7 2.745e+04 4.098e-08
 19.65852    205.9 3.168e+04 4.670e-08
 19.66715    202.0 3.651e+04 4.551e-08
 19.67239    199.6 3.910e+04 5.654e-08
 19.67946    193.7 4.004e+04 5.352e-08
 19.68993    187.9 4.068e+04 4.610e-08
 19.69703    182.8 3.973e+04 3.545e-08
 19.70023    192.4 4.060e+04 4.988e-08
 19.70360    188.2 4.111e+04 5.629e-08
 19.71088    183.8 4.112e+04 3.912e-08
 19.72135    180.3 3.838e+04 2.493e-08
 19.72958    177.7 3.314e+04 1.538e-08
 19.73481    172.0 3.563e+04 8.461e-09
 19.74568    170.1 3.122e+04 1.308e-09
 19.75615    173.6 3.281e+04 5.006e-09
 19.76079    172.9 3.514e+04 1.831e-09
 19.76603    171.9 4.160e+04 1.206e-09
 19.77371    170.3 3.629e+04 2.721e-10
 19.78682    177.6 2.292e+04 9.407e-10
 19.79734    173.7 2.713e+04 3.110e-10
 19.81046    174.7 1.232e+04 4.214e-10
 19.83140    177.2 1.089e+04 4.298e-10
 19.84929    180.7 1.076e+04 4.383e-10
 19.85977    181.4 1.072e+04 4.300e-10
 19.86385    184.7 1.074e+04 4.520e-10
 19.87432    185.5 1.086e+04 4.530e-10
 19.89423    188.7 1.080e+04 4.793e-10
 19.91172    191.7 1.093e+04 5.256e-10
 19.92219    192.2 1.086e+04 5.193e-10
 19.93612    195.0 1.110e+04 5.871e-10
 19.95707    196.9 1.141e+04 6.888e-10
 19.97151    197.9 1.173e+04 8.264e-10
 19.97812    200.2 1.171e+04 8.226e-10
 19.98462    201.0 1.172e+04 8.563e-10
 19.99895    201.8 1.216e+04 1.046e-09
 20.01990    202.0 1.283e+04 1.368e-09
 20.03657    201.1 1.382e+04 1.936e-09
 20.04705    201.7 1.408e+04 2.238e-09
 20.06179    199.5 1.513e+04 3.412e-09
 20.07916    197.0 1.645e+04 5.312e-09
 20.08964    199.8 1.573e+04 4.362e-09
 20.09900    197.1 1.703e+04 6.742e-09
 20.10947    196.8 1.702e+04 6.583e-09
 20.12462    193.8 1.773e+04 8.357e-09
 20.14556    190.7 1.861e+04 8.551e-09
 20.16122    183.1 2.322e+04 7.194e-09
 20.16657    178.5 2.601e+04 6.774e-09
 20.17180    171.2 4.728e+04 3.856e-09
 20.18212    153.8 6.452e+04 4.637e-09
 20.19196    139.1 5.326e+04 1.744e-08
 20.19715    131.0 4.272e+04 5.398e-08
 20.20302    113.2 2.435e+04 5.848e-07
 20.21353    109.6 2.451e+04 5.645e-07
 20.22376    105.5 2.538e+04 4.889e-07
 20.22899     89.4 2.964e+04 1.280e-07
 20.23448     79.7 3.219e+04 3.181e-08
 20.24495     69.0 3.076e+04 7.795e-09
 20.25102     62.1 2.987e+04 2.836e-09
 20.25581     56.6 2.964e+04 1.543e-09
 20.26021     47.2 1.555e+04 1.025e-09
 20.26589     47.0 1.527e+04 1.013e-09
 20.27636     46.8 1.505e+04 1.008e-09
 20.28618     46.3 1.466e+04 1.018e-09
 20.29670     44.7 1.372e+04 1.013e-09
 20.30495     44.1 1.359e+04 1.044e-09
 20.31542     43.0 1.376e+04 1.134e-09
 20.33406     42.0 1.351e+04 1.169e-09
 20.34871     40.9 1.334e+04 1.161e-09
 20.35918     38.7 1.325e+04 1.133e-09
 20.37595     37.3 1.331e+04 1.066e-09
 20.39689     34.9 1.336e+04 1.059e-09
 20.41113     31.0 1.356e+04 1.107e-09
 20.41638     27.8 1.349e+04 1.103e-09
 20.42308     28.4 1.349e+04 1.104e-09
 20.43878     23.9 1.377e+04 1.267e-09
 20.45972     19.4 1.403e+04 1.675e-09
 20.47356     15.1 1.437e+04 2.232e-09
 20.48403     14.7 1.409e+04 2.174e-09
 20.50161     10.9 1.429e+04 2.372e-09
 20.52026      6.3 1.454e+04 2.357e-09
 20.53073      7.4 1.469e+04 2.595e-09
 20.53599      0.7 1.556e+04 2.867e-09
 20.54646      1.4 1.463e+04 2.110e-09
 20.56444     -6.9 1.569e+04 2.461e-09
 20.58539    -15.0 1.648e+04 3.440e-09
 20.59841    -20.9 1.632e+04 4.175e-09
 20.60889    -18.0 1.512e+04 2.903e-09
 20.62727    -21.5 1.504e+04 2.925e-09
 20.63839    -23.6 1.467e+04 2.647e-09
 20.64886    -23.9 1.535e+04 3.463e-09
 20.66084    -25.3 1.452e+04 2.309e-09
 20.67131    -22.7 1.396e+04 1.862e-09
 20.70068    -27.6 1.298e+04 9.652e-10
 20.72346    -29.2 1.095e+04 4.566e-10
 20.73752    -23.9 1.085e+04 4.134e-10
 20.75671    -24.4 1.128e+04 5.308e-10
 20.78455    -24.0 1.027e+04 3.515e-10
 20.82644    -22.7 9.755e+03 2.501e-10
 20.84832    -21.1 9.535e+03 1.779e-10
 20.86926    -17.1 9.491e+03 1.705e-10
 20.91021    -15.6 9.332e+03 1.417e-10
 20.95108    -13.8 9.230e+03 1.241e-10
 20.97203    -13.5 9.397e+03 1.456e-10
 20.99399     -8.2 9.256e+03 1.189e-10
 21.03588     -6.2 9.205e+03 1.180e-10
 21.07708     -4.1 9.188e+03 1.204e-10
 21.09802     -1.4 9.106e+03 1.097e-10
 21.11965      0.3 9.092e+03 1.172e-10
 21.16154      1.8 9.078e+03 1.437e-10
 21.18734      3.2 9.290e+03 1.948e-10
 21.20679      3.7 9.461e+03 2.321e-10
 21.22288      5.6 9.542e+03 2.348e-10
 21.24532      6.6 9.956e+03 3.219e-10
 21.27473      6.4 1.015e+04 3.748e-10
 21.28511      6.7 1.023e+04 3.913e-10
 21.29480      6.6 1.045e+04 4.633e-10
 21.30527      6.8 1.064e+04 5.151e-10
 21.31843      6.1 1.128e+04 6.725e-10
 21.33706      5.9 1.143e+04 7.241e-10
 21.34763      6.0 1.135e+04 6.864e-10
 21.36041      3.6 1.275e+04 1.149e-09
 21.38126      0.8 1.424e+04 2.258e-09
 21.39949     -1.1 1.537e+04 4.159e-09
 21.40996     -1.3 1.491e+04 3.711e-09
 21.41293     -2.7 1.496e+04 3.781e-09
 21.42340     -2.7 1.540e+04 4.435e-09
 21.44409     -4.0 1.523e+04 3.796e-09
 21.46192     -5.9 1.461e+04 2.491e-09
 21.47239     -7.5 1.378e+04 1.717e-09
 21.48598    -10.9 1.271e+04 1.117e-09
 21.50692    -13.4 1.178e+04 8.721e-10
 21.52058    -15.2 1.159e+04 8.638e-10
 21.52753    -16.0 1.156e+04 8.749e-10
 21.53482    -15.8 1.156e+04 8.712e-10
 21.54881    -16.8 1.148e+04 8.691e-10
 21.56976    -17.8 1.143e+04 8.684e-10
 21.58677    -18.3 1.138e+04 8.664e-10
 21.59724    -18.0 1.140e+04 8.688e-10
 21.61164    -18.6 1.132e+04 8.476e-10
 21.62824    -18.8 1.129e+04 8.397e-10
 21.63881    -18.7 1.116e+04 7.761e-10
 21.66420    -19.5 1.095e+04 6.549e-10
 21.70135    -20.2 1.063e+04 5.028e-10
 21.72219    -19.8 1.038e+04 4.161e-10
 21.74788    -19.8 9.981e+03 3.008e-10
 21.78986    -20.2 9.563e+03 2.107e-10
 21.82620    -20.8 9.221e+03 1.592e-10
 21.84714    -19.6 9.226e+03 1.550e-10
 21.85422    -20.0 9.090e+03 1.364e-10
 21.87516    -19.9 8.936e+03 1.208e-10
 21.91553    -20.0 8.985e+03 1.121e-10
 21.95105    -20.0 9.024e+03 1.137e-10
 21.97200    -19.0 9.226e+03 1.354e-10
 21.99930    -19.2 9.337e+03 1.491e-10
 22.04119    -19.3 9.452e+03 1.660e-10
 22.06953    -19.6 9.553e+03 1.853e-10
 22.08331    -19.5 9.547e+03 1.843e-10
 22.09685    -18.7 9.643e+03 2.037e-10
 22.12497    -19.0 9.704e+03 2.211e-10
 22.16686    -19.4 9.769e+03 2.320e-10
 22.20076    -19.9 9.909e+03 2.279e-10
 22.22170    -19.0 9.745e+03 1.883e-10
 22.25063    -19.7 9.777e+03 1.759e-10
 22.28485    -20.6 9.775e+03 1.749e-10
 22.30579    -20.7 1.001e+04 1.820e-10
 22.32561    -22.0 1.003e+04 1.852e-10
 22.34656    -20.7 9.911e+03 1.681e-10
 22.37630    -22.1 1.016e+04 1.996e-10
 22.41818    -23.8 1.053e+04 2.411e-10
 22.45047    -25.5 1.091e+04 2.832e-10
 22.47141    -23.7 1.098e+04 3.071e-10
 22.50016    -25.6 1.127e+04 3.402e-10
 22.52110    -26.5 1.149e+04 3.864e-10
 22.54385    -28.3 1.140e+04 3.676e-10
 22.57532    -29.7 1.127e+04 3.357e-10
 22.59627    -28.3 1.139e+04 3.710e-10
 22.62762    -29.5 1.112e+04 3.368e-10
 22.66951    -30.5 1.111e+04 3.435e-10
 22.70017    -31.9 1.131e+04 4.471e-10
 22.72112    -30.9 1.148e+04 5.017e-10
 22.73641    -32.4 1.224e+04 9.297e-10
 22.75736    -33.2 1.169e+04 7.278e-10
 22.79518    -33.8 1.233e+04 1.205e-09
 22.82503    -34.8 1.264e+04 1.300e-09
 22.84597    -34.2 1.281e+04 1.455e-09
 22.87895    -35.7 1.274e+04 1.344e-09
 22.92084    -37.2 1.261e+04 1.247e-09
 22.94988    -38.6 1.267e+04 1.286e-09
 22.95983    -38.0 1.275e+04 1.267e-09
 22.97267    -37.9 1.227e+04 1.016e-09
 23.00462    -39.2 1.241e+04 1.089e-09
 23.04650    -39.8 1.227e+04 9.412e-10
 23.06976    -40.2 1.218e+04 7.733e-10
 23.07695    -40.3 1.205e+04 7.048e-10
 23.08501    -39.6 1.206e+04 7.022e-10
 23.09867    -40.2 1.190e+04 5.619e-10
 23.11961    -41.2 1.164e+04 4.335e-10
 23.13697    -41.9 1.144e+04 3.891e-10
 23.14744    -41.6 1.140e+04 3.603e-10
 23.16694    -42.8 1.105e+04 3.268e-10
 23.18798    -42.6 1.107e+04 3.484e-10
 23.19959    -43.4 1.089e+04 3.360e-10
 23.22053    -42.5 1.070e+04 2.659e-10
 23.25594    -43.2 1.064e+04 2.629e-10
 23.29783    -45.2 1.085e+04 3.046e-10
 23.32444    -47.4 1.111e+04 4.506e-10
 23.34539    -46.9 1.113e+04 4.552e-10
 23.38161    -48.2 1.101e+04 4.847e-10
 23.40330    -48.9 1.072e+04 3.953e-10
 23.42424    -50.2 1.093e+04 4.966e-10
 23.44930    -51.7 1.052e+04 3.296e-10
 23.47024    -51.1 1.048e+04 2.852e-10
 23.50727    -52.1 1.001e+04 2.222e-10
 23.54916    -52.1 9.637e+03 1.951e-10
 23.57415    -51.4 9.588e+03 1.936e-10
 23.59509    -50.6 9.503e+03 1.698e-10
 23.61861    -50.3 9.589e+03 1.824e-10
 23.63955    -51.4 9.652e+03 1.980e-10
 23.67482    -51.3 9.846e+03 2.804e-10
 23.69900    -50.9 9.906e+03 3.550e-10
 23.71995    -49.9 9.928e+03 3.458e-10
 23.75860    -49.3 9.978e+03 3.773e-10
 23.80049    -48.4 9.905e+03 3.490e-10
 23.82386    -48.1 9.692e+03 2.609e-10
 23.83635    -46.9 9.867e+03 3.137e-10
 23.85487    -47.3 9.705e+03 2.745e-10
 23.88426    -47.4 9.661e+03 2.325e-10
 23.92615    -48.1 9.841e+03 2.585e-10
 23.94871    -49.4 1.031e+04 4.220e-10
 23.96965    -48.1 1.063e+04 5.766e-10
 24.00993    -49.1 1.092e+04 7.619e-10
 24.04923    -49.9 1.078e+04 6.832e-10
 24.07018    -49.9 1.074e+04 6.795e-10
 24.07356    -50.6 1.025e+04 4.300e-10
 24.09451    -49.5 1.055e+04 4.828e-10
 24.13559    -51.0 9.792e+03 2.448e-10
 24.17747    -53.0 9.193e+03 1.452e-10
 24.21936    -53.1 9.068e+03 1.229e-10
 24.26126    -53.7 9.131e+03 1.320e-10
 24.28549    -54.9 9.399e+03 1.725e-10
 24.30562    -54.6 9.279e+03 1.346e-10
 24.32327    -54.3 9.458e+03 1.562e-10
 24.34503    -56.0 9.986e+03 3.366e-10
 24.38692    -56.7 1.055e+04 6.340e-10
 24.42718    -57.8 1.118e+04 6.861e-10
 24.44812    -58.5 1.165e+04 8.407e-10
 24.47070    -61.6 1.168e+04 8.114e-10
 24.50080    -64.0 1.132e+04 8.001e-10
 24.52175    -62.9 1.146e+04 8.354e-10
 24.55203    -64.3 1.144e+04 7.604e-10
 24.57298    -64.4 1.122e+04 5.932e-10
 24.59636    -66.0 1.105e+04 4.636e-10
 24.63825    -67.1 1.055e+04 4.036e-10
 24.67689    -67.8 1.031e+04 2.573e-10
 24.69783    -68.0 1.031e+04 2.277e-10
 24.71612    -69.6 1.024e+04 1.932e-10
 24.73706    -68.1 1.028e+04 1.904e-10
 24.76391    -69.7 9.964e+03 1.460e-10
 24.80174    -70.1 9.634e+03 1.212e-10
 24.82268    -70.0 9.792e+03 1.632e-10
 24.84769    -69.7 9.688e+03 1.122e-10
 24.88958    -69.6 9.639e+03 7.585e-11
 24.92659    -69.7 9.588e+03 5.947e-11
 24.94750    -69.9 9.632e+03 6.555e-11
 24.97332    -68.9 9.597e+03 5.789e-11
 25.01524    -68.8 9.721e+03 6.361e-11
 25.05145    -68.4 9.633e+03 8.951e-11
 25.07239    -68.1 9.687e+03 9.185e-11
 25.09902    -67.3 9.737e+03 1.194e-10
 25.14091    -66.6 9.939e+03 1.342e-10
 25.16769    -66.3 1.008e+04 1.410e-10
 25.18214    -65.6 1.002e+04 1.232e-10
 25.19724    -65.2 1.006e+04 1.211e-10
 25.22468    -65.0 1.008e+04 1.246e-10
 25.26657    -64.5 1.006e+04 1.277e-10
 25.30115    -63.6 1.002e+04 1.168e-10
 25.32210    -63.2 1.008e+04 1.256e-10
 25.35035    -62.2 1.023e+04 9.526e-11
 25.38300    -62.0 1.047e+04 6.991e-11
 25.40394    -61.3 1.047e+04 6.903e-11
 25.42601    -61.7 1.061e+04 6.049e-11
 25.44695    -61.6 1.080e+04 7.008e-11
 25.47601    -64.0 1.125e+04 1.045e-10
 25.51790    -65.4 1.110e+04 2.432e-10
 25.55086    -65.3 1.140e+04 4.593e-10
 25.57180    -64.8 1.145e+04 4.661e-10
 25.59831    -65.7 1.188e+04 4.434e-10
 25.61925    -65.5 1.174e+04 4.048e-10
 25.64356    -66.6 1.160e+04 3.176e-10
 25.67571    -67.4 1.121e+04 2.352e-10
 25.69666    -66.9 1.115e+04 2.016e-10
 25.72734    -66.7 1.104e+04 1.376e-10
 25.76923    -66.1 1.091e+04 8.963e-11
 25.80057    -65.5 1.077e+04 6.128e-11
 25.82151    -64.7 1.076e+04 6.033e-11
 25.83457    -64.1 1.066e+04 4.687e-11
 25.85551    -63.7 1.065e+04 4.190e-11
 25.89489    -63.0 1.056e+04 3.625e-11
 25.92542    -62.0 1.054e+04 3.378e-11
 25.94636    -61.2 1.056e+04 3.432e-11
 25.97867    -60.6 1.078e+04 3.434e-11
 26.02055    -60.3 1.078e+04 4.127e-11
 26.04988    -59.4 1.070e+04 5.277e-11
 26.05866    -59.2 1.065e+04 5.116e-11
 26.07122    -58.8 1.068e+04 6.130e-11
 26.10433    -57.6 1.070e+04 6.896e-11
 26.14622    -56.5 1.075e+04 6.971e-11
 26.17513    -55.5 1.084e+04 6.612e-11
 26.19607    -55.1 1.083e+04 7.402e-11
 26.22999    -54.3 1.088e+04 6.779e-11
 26.26519    -53.4 1.081e+04 6.688e-11
 26.28614    -53.4 1.077e+04 6.929e-11
 26.29998    -52.2 1.072e+04 7.002e-11
 26.32093    -51.8 1.077e+04 7.043e-11
 26.35566    -50.8 1.089e+04 6.986e-11
 26.39755    -50.1 1.098e+04 7.517e-11
 26.42483    -49.5 1.094e+04 9.475e-11
 26.44578    -49.2 1.085e+04 1.003e-10
 26.48050    -47.7 1.075e+04 1.240e-10
 26.50145    -47.6 1.064e+04 1.169e-10
 26.52321    -46.0 1.073e+04 1.184e-10
 26.54969    -44.5 1.080e+04 1.066e-10
 26.57063    -44.1 1.079e+04 9.924e-11
 26.60699    -43.1 1.085e+04 8.842e-11
 26.64887    -42.3 1.088e+04 8.503e-11
 26.67454    -41.4 1.086e+04 8.674e-11
 26.69549    -41.0 1.086e+04 8.656e-11
 26.71676    -39.8 1.082e+04 8.695e-11
 26.73771    -39.8 1.084e+04 1.090e-10
 26.77454    -38.6 1.085e+04 1.087e-10
 26.79940    -37.6 1.086e+04 1.067e-10
 26.82034    -37.2 1.089e+04 1.066e-10
 26.85831    -36.3 1.092e+04 1.071e-10
 26.90020    -35.7 1.102e+04 1.130e-10
 26.92425    -35.3 1.111e+04 1.356e-10
 26.93518    -35.3 1.115e+04 1.493e-10
 26.95302    -35.8 1.113e+04 1.944e-10
 26.98398    -35.1 1.109e+04 2.206e-10
 27.02587    -34.3 1.108e+04 2.202e-10
 27.04910    -33.7 1.111e+04 2.139e-10
 27.07005    -33.6 1.111e+04 2.167e-10
 27.10964    -33.0 1.105e+04 2.095e-10
 27.14739    -32.1 1.092e+04 1.956e-10
 27.16833    -32.5 1.084e+04 1.789e-10
 27.17396    -31.2 1.074e+04 1.544e-10
 27.19490    -30.5 1.069e+04 1.351e-10
 27.23531    -29.2 1.065e+04 1.072e-10
 27.27719    -28.0 1.065e+04 8.364e-11
 27.29881    -27.1 1.067e+04 6.750e-11
 27.31975    -26.5 1.063e+04 6.559e-11
 27.36097    -25.4 1.056e+04 6.110e-11
 27.38364    -24.1 1.055e+04 6.121e-11
 27.40445    -24.4 1.054e+04 6.072e-11
 27.44461    -22.2 1.056e+04 6.218e-11
 27.48664    -21.0 1.062e+04 6.780e-11
 27.52757    -19.8 1.068e+04 7.874e-11
 27.54852    -18.8 1.065e+04 7.534e-11
 27.57041    -17.7 1.072e+04 9.392e-11
 27.59896    -16.6 1.079e+04 1.251e-10
 27.61990    -17.0 1.081e+04 1.274e-10
 27.65243    -16.1 1.090e+04 1.672e-10
 27.67337    -15.0 1.090e+04 1.734e-10
 27.69608    -14.1 1.102e+04 2.020e-10
 27.73796    -13.7 1.112e+04 2.119e-10
 27.77728    -13.5 1.115e+04 2.148e-10
 27.79822    -12.3 1.117e+04 2.149e-10
 27.81427    -12.2 1.105e+04 2.109e-10
 27.83521    -12.4 1.095e+04 1.828e-10
 27.86363    -12.1 1.085e+04 1.677e-10
 27.90213    -11.8 1.080e+04 1.482e-10
 27.92308    -11.0 1.087e+04 1.572e-10
 27.94740    -11.1 1.091e+04 1.456e-10
 27.98929    -11.4 1.093e+04 1.353e-10
 28.02699    -11.4 1.081e+04 1.271e-10
 28.04633    -11.0 1.085e+04 1.784e-10
 28.05052    -11.3 1.085e+04 1.793e-10
 28.07307    -10.5 1.069e+04 1.508e-10
 28.11496     -9.9 1.054e+04 1.249e-10
 28.15184     -9.2 1.043e+04 1.168e-10
 28.17278     -8.9 1.045e+04 1.184e-10
 28.19873     -8.0 1.042e+04 1.188e-10
 28.24062     -7.0 1.043e+04 1.252e-10
 28.26584     -6.0 1.049e+04 1.440e-10
 28.28097     -5.9 1.053e+04 1.611e-10
 28.29764     -5.4 1.051e+04 1.532e-10
 28.32440     -4.1 1.071e+04 1.791e-10
 28.36628     -4.0 1.099e+04 2.370e-10
 28.40155     -4.4 1.133e+04 4.035e-10
 28.42249     -4.3 1.148e+04 4.814e-10
 28.45006     -4.6 1.193e+04 8.373e-10
 28.48115     -5.2 1.224e+04 9.749e-10
 28.50209     -5.2 1.245e+04 1.148e-09
 28.52640     -6.6 1.239e+04 1.060e-09
 28.54734     -6.8 1.239e+04 1.049e-09
 28.57572     -8.3 1.205e+04 7.448e-10
 28.61761     -9.6 1.162e+04 4.812e-10
 28.65125    -10.2 1.130e+04 3.266e-10
 28.67220     -9.9 1.121e+04 2.536e-10
 28.69646    -10.2 1.110e+04 1.957e-10
 28.71741    -10.3 1.110e+04 1.963e-10
 28.74328    -10.3 1.106e+04 1.904e-10
 28.77611    -10.0 1.103e+04 1.945e-10
 28.79705     -9.6 1.100e+04 1.870e-10
 28.82705     -9.0 1.099e+04 1.901e-10
 28.86894     -8.3 1.096e+04 1.776e-10
 28.90096     -7.7 1.097e+04 1.534e-10
 28.92190     -7.3 1.102e+04 1.740e-10
 28.93272     -6.8 1.105e+04 1.549e-10
 28.95366     -6.9 1.102e+04 1.425e-10
 28.99460     -6.4 1.102e+04 1.316e-10
 29.02581     -5.8 1.103e+04 1.293e-10
 29.04676     -5.7 1.111e+04 1.463e-10
 29.07838     -5.3 1.114e+04 1.567e-10
 29.12027     -5.0 1.114e+04 1.756e-10
 29.14803     -4.5 1.110e+04 1.940e-10
 29.15749     -4.5 1.108e+04 1.912e-10
 29.17161     -4.4 1.107e+04 2.164e-10
 29.20404     -3.9 1.104e+04 2.113e-10
 29.24593     -3.3 1.093e+04 2.054e-10
 29.27552     -2.6 1.078e+04 1.963e-10
 29.29646     -2.5 1.051e+04 1.761e-10
 29.32971     -1.3 1.037e+04 1.559e-10
 29.36334      0.0 1.029e+04 1.329e-10
 29.38429     -0.0 1.030e+04 1.331e-10
 29.40037      1.1 1.028e+04 1.127e-10
 29.42132      1.5 1.016e+04 8.012e-11
 29.45537      2.6 1.018e+04 7.366e-11
 29.49726      3.9 1.014e+04 7.573e-11
 29.52523      5.4 1.008e+04 7.989e-11
 29.54617      5.8 9.986e+03 5.812e-11
 29.57866      7.4 9.923e+03 6.444e-11
 29.59960      7.5 9.993e+03 7.352e-11
 29.62292      9.2 9.957e+03 8.142e-11
 29.65008     10.9 9.930e+03 8.960e-11
 29.67102     11.5 9.850e+03 7.383e-11
 29.70670     13.4 9.838e+03 8.203e-11
 29.74859     15.2 9.854e+03 8.330e-11
 29.77493     16.9 9.858e+03 8.198e-11
 29.79588     17.6 9.792e+03 6.834e-11
 29.81491     19.4 9.770e+03 6.589e-11
 29.83586     19.6 9.838e+03 7.204e-11
 29.87425     21.4 9.803e+03 6.500e-11
 29.89979     23.2 9.758e+03 5.706e-11
 29.92073     24.0 9.695e+03 5.084e-11
 29.95803     25.9 9.657e+03 4.556e-11
 29.99992     27.8 9.618e+03 4.143e-11
 30.02464     29.7 9.572e+03 3.855e-11
 30.03401     30.5 9.560e+03 3.620e-11
 30.05117     30.7 9.582e+03 3.637e-11
 30.08369     32.7 9.586e+03 3.381e-11
 30.12558     34.7 9.591e+03 3.154e-11
 30.14949     36.6 9.602e+03 2.968e-11
 30.17044     37.3 9.580e+03 3.256e-11
 30.20936     39.2 9.585e+03 3.282e-11
 30.24554     41.0 9.597e+03 3.368e-11
 30.26648     41.2 9.623e+03 3.330e-11
 30.27435     43.0 9.625e+03 3.530e-11
 30.29529     43.7 9.592e+03 4.242e-11
 30.33502     45.5 9.603e+03 4.563e-11
 30.37691     47.3 9.621e+03 4.862e-11
 30.39920     49.1 9.663e+03 5.031e-11
 30.42015     49.7 9.642e+03 5.575e-11
 30.46069     51.4 9.651e+03 5.517e-11
 30.50257     53.2 9.692e+03 5.263e-11
 30.52406     54.8 9.714e+03 4.842e-11
 30.54500     55.4 9.662e+03 4.777e-11
 30.58635     57.0 9.628e+03 4.266e-11
 30.62796     58.5 9.597e+03 3.937e-11
 30.64891     59.1 9.613e+03 3.556e-11
 30.67013     60.6 9.637e+03 3.572e-11
 30.69711     62.0 9.692e+03 3.742e-11
 30.71805     61.9 9.751e+03 4.024e-11
 30.75282     63.2 9.777e+03 4.679e-11
 30.77376     63.7 9.753e+03 4.879e-11
 30.79579     65.1 9.774e+03 6.019e-11
 30.83768     66.5 9.832e+03 7.281e-11
 30.87767     67.8 9.951e+03 8.135e-11
 30.89862     68.4 9.953e+03 8.065e-11
 30.91242     69.5 9.979e+03 8.042e-11
 30.93336     69.2 9.982e+03 8.178e-11
 30.96334     70.3 1.000e+04 7.751e-11
 31.00253     71.5 9.997e+03 6.744e-11
 31.02347     72.1 9.938e+03 6.230e-11
 31.04712     73.4 9.923e+03 5.019e-11
 31.08901     74.7 9.926e+03 3.986e-11
 31.12738     76.0 9.946e+03 3.231e-11
 31.14516     76.8 9.953e+03 2.704e-11
 31.14868     76.6 9.947e+03 2.465e-11
 31.17278     77.9 9.919e+03 2.317e-11
 31.21467     79.4 9.917e+03 2.324e-11
 31.25223     81.0 9.927e+03 2.351e-11
 31.27318     81.7 9.912e+03 2.027e-11
 31.29845     83.3 9.950e+03 2.173e-11
 31.34033     84.9 9.997e+03 2.376e-11
 31.36399     86.5 1.004e+04 2.620e-11
 31.37980     86.6 1.006e+04 2.610e-11
 31.39803     87.3 1.006e+04 2.563e-11
 31.42411     88.9 1.013e+04 2.786e-11
 31.46600     90.4 1.018e+04 2.951e-11
 31.50194     91.8 1.022e+04 3.064e-11
 31.52288     92.5 1.020e+04 3.289e-11
 31.54977     93.9 1.022e+04 3.351e-11
 31.57930     95.1 1.022e+04 3.480e-11
 31.60025     95.1 1.023e+04 3.489e-11
 31.62679     96.4 1.020e+04 3.914e-11
 31.64774     97.0 1.014e+04 4.153e-11
 31.67544     98.3 1.013e+04 4.780e-11
 31.71733     99.6 1.012e+04 5.707e-11
 31.75165    101.0 1.015e+04 6.762e-11
 31.77259    101.5 1.012e+04 6.574e-11
 31.79461    102.8 1.020e+04 7.143e-11
 31.81556    103.0 1.024e+04 6.847e-11
 31.84299    104.1 1.026e+04 6.845e-11
 31.87650    105.2 1.028e+04 6.665e-11
 31.89744    105.6 1.022e+04 6.559e-11
 31.92677    106.7 1.024e+04 6.115e-11
 31.96865    107.8 1.024e+04 5.525e-11
 32.00135    108.9 1.019e+04 5.028e-11
 32.02168    109.4 1.005e+04 5.391e-11
 32.03087    109.4 1.013e+04 5.524e-11
 32.05243    110.5 1.013e+04 5.625e-11
 32.09432    111.6 1.013e+04 6.065e-11
 32.12621    112.8 1.016e+04 7.165e-11
 32.14715    113.3 1.012e+04 8.192e-11
 32.17809    114.5 1.015e+04 1.079e-10
 32.21998    115.8 1.023e+04 1.445e-10
 32.24618    117.1 1.036e+04 1.874e-10
 32.25632    117.1 1.043e+04 1.951e-10
 32.27200    117.7 1.042e+04 2.089e-10
 32.30376    118.9 1.055e+04 2.499e-10
 32.34565    120.0 1.074e+04 2.650e-10
 32.37591    121.0 1.082e+04 2.640e-10
 32.39686    121.6 1.084e+04 2.695e-10
 32.42942    122.5 1.093e+04 2.698e-10
 32.46150    123.4 1.102e+04 2.707e-10
 32.48244    123.6 1.102e+04 2.418e-10
 32.50077    124.5 1.115e+04 2.620e-10
 32.52171    124.8 1.114e+04 2.885e-10
 32.55509    125.8 1.122e+04 3.350e-10
 32.59697    126.8 1.135e+04 4.000e-10
 32.62562    127.9 1.149e+04 4.830e-10
 32.64656    128.1 1.144e+04 5.499e-10
 32.67681    129.1 1.158e+04 6.367e-10
 32.69775    129.3 1.169e+04 6.648e-10
 32.72264    130.0 1.176e+04 6.955e-10
 32.75047    130.6 1.174e+04 6.902e-10
 32.77142    130.8 1.173e+04 7.223e-10
 32.80642    131.3 1.167e+04 6.718e-10
 32.84830    132.0 1.157e+04 5.374e-10
 32.87533    132.7 1.144e+04 3.834e-10
 32.89627    132.4 1.144e+04 3.453e-10
 32.91306    133.1 1.122e+04 2.611e-10
 32.93401    133.0 1.128e+04 2.453e-10
 32.97397    134.0 1.095e+04 2.192e-10
 33.00018    135.4 1.086e+04 2.178e-10
 33.02112    135.7 1.091e+04 2.390e-10
 33.05774    137.4 1.091e+04 2.388e-10
 33.09963    139.1 1.092e+04 2.421e-10
 33.12503    140.9 1.093e+04 2.537e-10
 33.13284    141.1 1.095e+04 2.654e-10
 33.14932    141.3 1.093e+04 2.610e-10
 33.18341    143.1 1.095e+04 2.758e-10
 33.22530    144.8 1.095e+04 2.885e-10
 33.24989    146.6 1.093e+04 2.970e-10
 33.27083    146.7 1.099e+04 2.943e-10
 33.30907    148.4 1.098e+04 2.929e-10
 33.34369    150.0 1.095e+04 2.873e-10
 33.36463    150.1 1.079e+04 2.206e-10
 33.37474    151.8 1.075e+04 2.095e-10
 33.39568    151.5 1.097e+04 2.238e-10
 33.43474    153.0 1.097e+04 2.285e-10
 33.47662    154.5 1.096e+04 2.398e-10
 33.49959    156.0 1.094e+04 2.570e-10
 33.52054    155.1 1.117e+04 4.060e-10
 33.55900    156.8 1.109e+04 4.206e-10
 33.57995    157.5 1.088e+04 3.425e-10
 33.60229    159.2 1.085e+04 3.475e-10
 33.62445    161.1 1.082e+04 3.434e-10
 33.64539    161.0 1.090e+04 4.022e-10
 33.68606    162.9 1.080e+04 3.675e-10
 33.72795    164.8 1.071e+04 3.239e-10
 33.74930    166.6 1.063e+04 2.793e-10
 33.77025    166.5 1.071e+04 2.006e-10
 33.79526    168.3 1.065e+04 1.682e-10
 33.81620    168.8 1.055e+04 1.675e-10
 33.85321    170.5 1.052e+04 1.462e-10
 33.87415    170.4 1.046e+04 1.075e-10
 33.89550    172.2 1.041e+04 9.872e-11
 33.93739    174.1 1.032e+04 9.549e-11
 33.97806    175.9 1.032e+04 9.541e-11
 33.99901    175.8 1.025e+04 8.932e-11
 34.01057    177.7 1.026e+04 9.101e-11
 34.03152    178.2 1.035e+04 1.060e-10
 34.06306    180.1 1.046e+04 1.316e-10
 34.10292    181.9 1.068e+04 1.786e-10
 34.12386    181.6 1.085e+04 2.675e-10
 34.14683    183.4 1.118e+04 3.778e-10
 34.18872    184.4 1.142e+04 4.903e-10
 34.22588    185.1 1.157e+04 6.097e-10
 34.24399    185.2 1.164e+04 7.169e-10
 34.24872    184.9 1.154e+04 5.980e-10
 34.27250    186.2 1.144e+04 5.486e-10
 34.31438    187.6 1.122e+04 4.569e-10
 34.35262    189.0 1.092e+04 3.653e-10
 34.37357    188.8 1.064e+04 2.141e-10
 34.39816    190.5 1.041e+04 1.965e-10
 34.44005    192.5 1.040e+04 1.962e-10
 34.46214    194.6 1.040e+04 2.023e-10
 34.47863    194.9 1.053e+04 2.362e-10
 34.49842    194.5 1.048e+04 1.658e-10
 34.52382    196.4 1.055e+04 1.905e-10
 34.56571    198.2 1.068e+04 2.261e-10
 34.60233    199.8 1.082e+04 2.685e-10
 34.62328    199.3 1.074e+04 2.512e-10
 34.64949    200.6 1.087e+04 2.998e-10
 34.67745    201.8 1.100e+04 3.491e-10
 34.69840    202.2 1.085e+04 3.396e-10
 34.72719    203.3 1.085e+04 3.678e-10
 34.74813    203.1 1.106e+04 4.056e-10
 34.77515    204.2 1.114e+04 4.349e-10
 34.81704    204.9 1.115e+04 4.522e-10
 34.84836    205.3 1.110e+04 4.510e-10
 34.86232    205.7 1.107e+04 4.532e-10
 34.87288    205.5 1.128e+04 4.526e-10
 34.89025    206.0 1.117e+04 4.574e-10
 34.90304    206.8 1.109e+04 4.744e-10
 34.91361    206.0 1.102e+04 4.188e-10
 34.92484    207.3 1.094e+04 4.559e-10
 34.93521    207.0 1.101e+04 4.313e-10
 34.95298    207.6 1.104e+04 4.642e-10
 34.97393    208.1 1.114e+04 5.102e-10
 34.98717    208.3 1.125e+04 5.621e-10
 34.99764    207.6 1.138e+04 5.801e-10
 35.01070    207.7 1.151e+04 6.673e-10
 35.02117    207.7 1.149e+04 6.731e-10
 35.03676    207.9 1.160e+04 7.674e-10
 35.04960    208.0 1.172e+04 8.567e-10
 35.06007    207.4 1.184e+04 1.033e-09
 35.07865    207.3 1.202e+04 1.130e-09
 35.09959    207.0 1.222e+04 1.192e-09
 35.11202    206.5 1.240e+04 1.210e-09
 35.12032    205.7 1.276e+04 1.484e-09
 35.12883    205.2 1.261e+04 1.304e-09
 35.14148    204.2 1.260e+04 1.288e-09
 35.16242    203.3 1.252e+04 1.228e-09
 35.17445    202.4 1.233e+04 1.127e-09
 35.18492    201.7 1.241e+04 1.268e-09
 35.20431    201.0 1.213e+04 1.083e-09
 35.22525    200.2 1.187e+04 9.120e-10
 35.23648    199.3 1.166e+04 7.651e-10
 35.23763    198.9 1.146e+04 6.335e-10
 35.24735    198.3 1.159e+04 6.433e-10
 35.26714    197.1 1.144e+04 5.523e-10
 35.28809    195.8 1.112e+04 5.277e-10
 35.29930    194.7 1.101e+04 5.303e-10
 35.30977    194.2 1.104e+04 5.835e-10
 35.32997    193.4 1.101e+04 5.914e-10
 35.34414    192.7 1.097e+04 6.355e-10
 35.35461    192.7 1.081e+04 6.127e-10
 35.36173    192.2 1.099e+04 7.218e-10
 35.37220    192.3 1.108e+04 7.415e-10
 35.39281    191.8 1.130e+04 8.333e-10
 35.41368    191.1 1.151e+04 8.661e-10
 35.43463    189.7 1.144e+04 6.859e-10
 35.45180    188.6 1.140e+04 6.043e-10
 35.46227    188.9 1.143e+04 6.101e-10
 35.47611    187.8 1.127e+04 5.103e-10
 35.49715    187.0 1.081e+04 3.324e-10
 35.52914    185.8 1.033e+04 2.737e-10
 35.55965    185.4 1.023e+04 2.730e-10
 35.58059    186.2 1.021e+04 2.769e-10
 35.60116    186.1 1.022e+04 2.835e-10
 35.62210    186.8 1.004e+04 2.168e-10
 35.65480    186.9 1.019e+04 2.427e-10
 35.69669    187.0 1.038e+04 2.873e-10
 35.72601    187.0 1.056e+04 3.422e-10
 35.74696    188.1 1.027e+04 2.563e-10
 35.77496    188.1 1.040e+04 2.895e-10
 35.79590    189.0 1.019e+04 2.448e-10
 35.82235    189.0 1.024e+04 2.617e-10
 35.85087    188.9 1.024e+04 2.701e-10
 35.87181    190.4 9.745e+03 1.886e-10
 35.90613    190.4 9.649e+03 1.847e-10
 35.94802    190.3 9.621e+03 1.845e-10
 35.97572    190.3 9.634e+03 1.893e-10
 35.99666    191.7 9.293e+03 1.383e-10
 36.01122    191.7 9.350e+03 1.512e-10
 36.03216    192.5 9.397e+03 1.591e-10
 36.07368    192.4 9.700e+03 2.128e-10
 36.10057    192.1 1.009e+04 2.912e-10
 36.12152    193.7 9.924e+03 2.403e-10
 36.14689    192.9 1.040e+04 3.350e-10
 36.16280    191.6 1.113e+04 5.509e-10
 36.17328    192.3 1.100e+04 4.937e-10
 36.18868    190.0 1.176e+04 8.186e-10
 36.20962    188.7 1.194e+04 1.002e-09
 36.22523    186.7 1.196e+04 1.000e-09
 36.23147    188.0 1.182e+04 8.747e-10
 36.24738    188.2 1.179e+04 8.534e-10
 36.28312    185.0 1.150e+04 7.056e-10
 36.32501    181.7 1.053e+04 3.947e-10
 36.35028    178.7 8.914e+03 2.065e-10
 36.37122    179.6 8.941e+03 1.915e-10
 36.40879    177.0 8.252e+03 1.652e-10
 36.44184    175.3 8.267e+03 1.700e-10
 36.46279    174.9 8.161e+03 1.492e-10
 36.47513    173.0 8.398e+03 1.806e-10
 36.49608    172.6 8.472e+03 1.955e-10
 36.53445    170.9 8.838e+03 2.600e-10
 36.55987    170.1 8.954e+03 3.059e-10
 36.57025    169.9 8.931e+03 2.976e-10
 36.58661    168.6 9.304e+03 3.477e-10
 36.59979    162.8 1.221e+04 5.826e-10
 36.61026    156.2 1.576e+04 9.225e-10
 36.62850    141.4 2.052e+04 2.410e-09
 36.64416    131.6 2.216e+04 5.170e-09
 36.65459    124.0 2.202e+04 9.480e-09
 36.66212    118.4 2.088e+04 1.242e-08
 36.66736    116.9 2.120e+04 1.330e-08
 36.67257    113.7 2.149e+04 1.355e-08
 36.67781    113.9 2.149e+04 1.266e-08
 36.68600    108.5 2.392e+04 1.270e-08
 36.69333     91.1 4.215e+04 1.217e-08
 36.69857     81.4 4.825e+04 1.365e-08
 36.70695     53.3 4.102e+04 3.588e-08
 36.71742     35.8 2.957e+04 5.531e-08
 36.72455     31.3 2.214e+04 6.395e-08
 36.72829     31.3 2.161e+04 5.919e-08
 36.73163     31.3 2.261e+04 4.747e-08
 36.73836     30.4 2.156e+04 3.964e-08
 36.74883     29.4 2.144e+04 2.411e-08
 36.75576     28.4 2.123e+04 1.517e-08
 36.76100     27.9 2.113e+04 1.184e-08
 36.77504     24.5 1.925e+04 3.251e-09
 36.78705     20.0 1.494e+04 1.289e-09
 36.79754     17.9 1.256e+04 6.639e-10
 36.82757      9.5 1.122e+04 2.045e-10
 36.84969      2.6 8.399e+03 1.147e-10
 36.87064      2.1 8.467e+03 1.313e-10
 36.89341      2.0 8.300e+03 1.244e-10
 36.91436      3.8 8.316e+03 1.253e-10
 36.95333      3.9 8.126e+03 1.123e-10
 36.97455      4.3 7.937e+03 9.220e-11
 36.99549      4.4 8.052e+03 1.081e-10
 37.03711      4.5 7.825e+03 7.651e-11
 37.07846      4.3 7.645e+03 5.781e-11
 37.09940      3.8 7.705e+03 5.875e-11
 37.10872      3.7 7.544e+03 5.579e-11
 37.12967      4.8 7.737e+03 6.892e-11
 37.16277      5.2 7.681e+03 6.762e-11
 37.20331      5.9 7.729e+03 6.910e-11
 37.22425      5.3 7.899e+03 9.294e-11
 37.24655      5.9 7.983e+03 1.081e-10
 37.28843      6.3 8.166e+03 1.397e-10
 37.32404      6.9 8.502e+03 2.043e-10
 37.34282      7.4 8.570e+03 2.155e-10
 37.34911      7.0 8.708e+03 2.530e-10
 37.37221      7.7 9.071e+03 3.430e-10
 37.41410      8.3 9.350e+03 4.070e-10
 37.45302      8.5 9.366e+03 4.045e-10
 37.47396      7.9 9.237e+03 3.721e-10
 37.49787      8.0 9.136e+03 3.372e-10
 37.53935      8.0 8.920e+03 2.794e-10
 37.56029      8.7 8.658e+03 2.218e-10
 37.57787      8.9 8.396e+03 1.750e-10
 37.59881      8.4 8.314e+03 1.695e-10
 37.62354      8.8 8.068e+03 1.386e-10
 37.66543      9.1 7.887e+03 1.184e-10
 37.70272      9.2 7.863e+03 1.140e-10
 37.72367      8.5 7.861e+03 1.157e-10
 37.74920      8.4 7.941e+03 1.270e-10
 37.77561      8.1 8.183e+03 1.606e-10
 37.79655      8.6 8.491e+03 2.081e-10
 37.82758      8.2 8.788e+03 2.589e-10
 37.84852      7.4 9.047e+03 3.192e-10
 37.87487      6.5 9.290e+03 3.581e-10
 37.91676      5.4 9.446e+03 3.793e-10
 37.95243      4.2 9.492e+03 3.600e-10
 37.97338      3.7 9.566e+03 3.727e-10
 37.98996      3.0 9.408e+03 3.145e-10
 38.00119      2.0 9.307e+03 2.837e-10
 38.01167      2.2 9.168e+03 2.501e-10
 38.02513      1.0 9.168e+03 2.505e-10
 38.03561      0.6 9.155e+03 2.475e-10
 38.05270     -2.0 1.038e+04 2.576e-10
 38.07364    -23.4 2.594e+04 9.041e-10
 38.08751    -33.3 2.350e+04 3.538e-09
 38.09270    -33.1 2.242e+04 3.772e-09
 38.09972    -32.9 1.754e+04 8.818e-09
 38.10875    -31.8 1.623e+04 1.344e-08
 38.11399    -31.5 1.625e+04 1.148e-08
 38.11868    -31.8 1.670e+04 1.571e-08
 38.12391    -31.1 1.642e+04 1.467e-08
 38.13114    -38.1 2.459e+04 2.312e-08
 38.14161    -45.7 3.566e+04 2.554e-08
 38.14989    -58.5 3.666e+04 1.630e-08
 38.15513    -57.8 3.677e+04 1.653e-08
 38.16255    -68.4 3.257e+04 1.452e-08
 38.17831    -83.0 1.946e+04 1.062e-08
 38.19930    -87.6 1.768e+04 7.751e-09
 38.21241    -97.0 1.500e+04 1.888e-09
 38.21915    -95.7 1.641e+04 2.319e-09
 38.22698    -93.5 1.679e+04 2.727e-09
 38.24119   -106.2 1.171e+04 8.361e-10
 38.26214   -112.2 1.057e+04 6.873e-10
 38.27484   -115.6 1.127e+04 8.250e-10
 38.28531   -116.4 1.124e+04 8.647e-10
 38.30402   -119.7 1.211e+04 1.349e-09
 38.32416   -123.0 1.260e+04 1.758e-09
 38.33464   -120.8 1.236e+04 1.594e-09
 38.33727   -123.9 1.260e+04 1.802e-09
 38.34774   -124.5 1.266e+04 1.843e-09
 38.36686   -127.6 1.267e+04 1.866e-09
 38.38780   -130.4 1.235e+04 1.755e-09
 38.39970   -132.7 1.178e+04 1.410e-09
 38.41017   -133.1 1.151e+04 1.237e-09
 38.42969   -134.9 1.086e+04 9.242e-10
 38.44229   -136.1 1.025e+04 6.878e-10
 38.45276   -134.3 1.026e+04 6.625e-10
 38.46212   -135.4 9.752e+03 5.008e-10
 38.47259   -135.5 9.529e+03 4.273e-10
 38.50309   -135.9 9.194e+03 3.402e-10
 38.54508   -136.5 8.867e+03 2.818e-10
 38.57670   -136.8 8.541e+03 2.351e-10
 38.59764   -136.4 8.410e+03 2.115e-10
 38.62885   -136.3 8.356e+03 2.055e-10
 38.65780   -136.0 8.403e+03 2.149e-10
 38.67874   -134.3 8.089e+03 1.616e-10
 38.70155   -134.2 8.357e+03 1.964e-10
 38.72250   -133.6 8.368e+03 1.975e-10
 38.75452   -133.5 8.754e+03 2.704e-10
 38.79640   -133.2 9.057e+03 3.456e-10
 38.82641   -133.0 9.217e+03 3.878e-10
 38.84735   -132.2 9.221e+03 3.933e-10
 38.87311   -132.1 9.255e+03 4.030e-10
 38.89406   -130.8 8.968e+03 3.292e-10
 38.92207   -130.8 8.982e+03 3.343e-10
 38.95126   -130.8 8.846e+03 3.054e-10
 38.97220   -129.8 8.833e+03 3.108e-10
 39.00584   -129.9 8.544e+03 2.499e-10
 39.04773   -130.3 8.277e+03 2.004e-10
 39.07611   -130.7 8.084e+03 1.752e-10
 39.09586   -129.6 8.064e+03 1.734e-10
 39.10937   -128.8 8.001e+03 1.648e-10
 39.13151   -129.4 7.835e+03 1.439e-10
 39.17340   -129.8 7.736e+03 1.345e-10
 39.20097   -130.2 7.704e+03 1.322e-10
 39.22191   -128.9 7.628e+03 1.262e-10
 39.25717   -129.3 7.619e+03 1.257e-10
 39.29906   -130.1 7.651e+03 1.270e-10
 39.32468   -131.9 7.897e+03 1.608e-10
 39.33050   -131.8 7.847e+03 1.478e-10
 39.34676   -130.4 7.744e+03 1.338e-10
 39.38284   -132.7 8.795e+03 2.728e-10
 39.42472   -135.0 9.688e+03 5.067e-10
 39.45067   -137.7 1.024e+04 7.091e-10
 39.47162   -136.4 9.961e+03 6.172e-10
 39.50850   -139.5 1.006e+04 6.509e-10
 39.53999   -142.4 9.932e+03 5.987e-10
 39.56094   -142.7 9.962e+03 6.009e-10
 39.57553   -145.2 9.638e+03 4.769e-10
 39.59647   -143.9 9.360e+03 3.712e-10
 39.63416   -145.8 9.017e+03 2.780e-10
 39.67605   -146.9 8.816e+03 2.306e-10
 39.70038   -147.3 8.681e+03 1.945e-10
 39.72132   -146.2 8.488e+03 1.592e-10
 39.75531   -146.3 8.411e+03 1.392e-10
 39.77625   -146.6 8.699e+03 1.916e-10
 39.80172   -146.6 8.706e+03 1.703e-10
 39.82523   -146.7 8.729e+03 1.662e-10
 39.84618   -145.5 8.572e+03 1.478e-10
 39.88549   -145.8 8.638e+03 1.487e-10
 39.92738   -147.3 9.476e+03 2.293e-10
 39.95009   -148.7 1.060e+04 5.113e-10
 39.97103   -147.3 1.032e+04 4.360e-10
 39.99156   -148.4 1.115e+04 8.085e-10
 40.01251   -149.6 1.165e+04 1.100e-09
 40.05304   -151.1 1.201e+04 1.295e-09
 40.07494   -152.8 1.213e+04 1.345e-09
 40.09588   -151.8 1.184e+04 1.166e-09
 40.13682   -154.0 1.192e+04 1.178e-09
 40.17871   -157.1 1.227e+04 1.241e-09
 40.20678   -158.4 1.303e+04 1.521e-09
 40.21715   -159.2 1.324e+04 1.672e-09
 40.23087   -160.5 1.409e+04 2.631e-09
 40.25155   -161.4 1.480e+04 4.150e-09
 40.26203   -160.2 1.419e+04 2.942e-09
 40.27276   -161.2 1.453e+04 3.783e-09
 40.29371   -162.2 1.455e+04 4.082e-09
 40.31398   -162.8 1.445e+04 4.102e-09
 40.32414   -161.8 1.400e+04 2.969e-09
 40.32481   -162.2 1.401e+04 3.142e-09
 40.33559   -162.3 1.359e+04 3.003e-09
 40.35654   -162.3 1.312e+04 2.545e-09
 40.37641   -162.2 1.264e+04 1.996e-09
 40.38688   -161.1 1.267e+04 1.934e-09
 40.39843   -160.9 1.228e+04 1.548e-09
 40.41937   -160.8 1.199e+04 1.227e-09
 40.43246   -160.8 1.189e+04 9.823e-10
 40.44146   -161.9 1.233e+04 9.801e-10
 40.44931   -160.2 1.212e+04 1.075e-09
 40.46126   -160.6 1.227e+04 9.355e-10
 40.48220   -161.0 1.241e+04 8.931e-10
 40.50126   -161.7 1.263e+04 8.812e-10
 40.51173   -159.3 1.242e+04 9.574e-10
 40.52409   -159.8 1.287e+04 9.828e-10
 40.54012   -160.4 1.307e+04 1.043e-09
 40.55059   -161.9 1.294e+04 1.053e-09
 40.56369   -162.4 1.270e+04 1.056e-09
 40.57416   -159.8 1.320e+04 1.156e-09
 40.58692   -160.4 1.310e+04 1.150e-09
 40.60787   -161.2 1.277e+04 1.096e-09
 40.62611   -162.2 1.253e+04 1.029e-09
 40.63659   -159.9 1.329e+04 1.202e-09
 40.64778   -161.5 1.308e+04 1.146e-09
 40.65825   -164.5 1.275e+04 1.077e-09
 40.67070   -166.6 1.281e+04 1.108e-09
 40.68854   -169.0 1.299e+04 1.262e-09
 40.69901   -165.9 1.339e+04 1.476e-09
 40.71259   -168.7 1.364e+04 1.742e-09
 40.73353   -171.6 1.364e+04 1.842e-09
 40.75097   -174.4 1.336e+04 1.829e-09
 40.76144   -172.3 1.414e+04 2.287e-09
 40.76591   -175.0 1.347e+04 1.978e-09
 40.77638   -175.9 1.262e+04 1.431e-09
 40.79636   -178.2 1.181e+04 1.118e-09
 40.81339   -180.2 1.120e+04 9.236e-10
 40.82387   -179.0 1.155e+04 9.891e-10
 40.83825   -181.1 1.102e+04 8.311e-10
 40.85919   -182.7 1.073e+04 7.480e-10
 40.87356   -184.0 1.056e+04 6.933e-10
 40.87972   -183.4 1.041e+04 6.283e-10
 40.88629   -183.1 1.071e+04 6.864e-10
 40.90108   -184.2 1.063e+04 6.691e-10
 40.92203   -185.2 1.059e+04 6.560e-10
 40.93825   -186.3 1.055e+04 6.465e-10
 40.94872   -186.3 1.092e+04 7.797e-10
 40.96391   -187.4 1.089e+04 7.852e-10
 40.98122   -188.3 1.078e+04 7.897e-10
 40.99169   -187.4 1.071e+04 7.211e-10
 41.00067   -188.2 1.052e+04 7.159e-10
 41.01115   -188.1 1.086e+04 8.752e-10
 41.02675   -188.7 1.062e+04 8.277e-10
 41.04769   -189.2 1.040e+04 7.384e-10
 41.06310   -189.9 1.018e+04 6.246e-10
 41.07357   -189.8 1.041e+04 7.057e-10
 41.08887   -190.6 1.014e+04 5.828e-10
 41.09935   -189.8 1.031e+04 6.468e-10
 41.11052   -190.4 1.005e+04 5.415e-10
 41.12553   -190.9 9.782e+03 4.596e-10
 41.13600   -191.0 9.817e+03 4.784e-10
 41.15241   -191.1 9.586e+03 4.165e-10
 41.17758   -191.3 9.377e+03 3.666e-10
 41.19862   -191.5 9.435e+03 3.867e-10
 41.22591   -191.4 9.072e+03 3.013e-10
 41.26780   -191.2 8.735e+03 2.372e-10
 41.30253   -191.1 8.626e+03 2.155e-10
 41.31817   -191.1 8.739e+03 2.311e-10
 41.32533   -190.5 9.194e+03 3.346e-10
 41.35157   -190.6 9.184e+03 3.326e-10
 41.39346   -191.0 9.410e+03 3.838e-10
 41.42738   -191.7 9.734e+03 4.798e-10
 41.44833   -191.8 9.734e+03 4.733e-10
 41.47724   -192.7 9.808e+03 5.032e-10
 41.51913   -193.5 9.786e+03 5.018e-10
 41.54064   -194.0 9.561e+03 4.347e-10
 41.55281   -194.5 9.540e+03 4.003e-10
 41.57318   -194.7 9.422e+03 3.537e-10
 41.60290   -194.9 9.148e+03 2.865e-10
 41.64479   -194.4 8.860e+03 2.303e-10
 41.67709   -193.2 8.593e+03 1.864e-10
 41.69804   -193.1 8.759e+03 2.214e-10
 41.72857   -191.4 8.544e+03 1.884e-10
 41.75595   -189.5 8.414e+03 1.668e-10
 41.77690   -189.4 8.264e+03 1.266e-10
 41.80194   -187.3 8.227e+03 1.178e-10
 41.82289   -187.0 8.278e+03 1.208e-10
 41.85423   -184.6 8.257e+03 1.142e-10
 41.89612   -182.1 8.252e+03 1.113e-10
 41.92680   -179.5 8.252e+03 1.107e-10
 41.94774   -179.1 8.234e+03 1.106e-10
 41.97126   -176.4 8.234e+03 1.104e-10
 41.99221   -176.4 8.189e+03 1.031e-10
 42.02178   -173.7 8.262e+03 1.058e-10
 42.05165   -171.1 8.401e+03 1.189e-10
 42.07260   -170.5 8.405e+03 1.132e-10
 42.10556   -168.0 8.624e+03 1.402e-10
 42.14745   -165.4 8.831e+03 1.780e-10
 42.17651   -162.8 9.054e+03 2.273e-10
 42.19469   -163.1 9.496e+03 3.030e-10
 42.20752   -163.2 9.603e+03 3.114e-10
 42.23122   -160.6 1.003e+04 4.449e-10
 42.27311   -157.9 1.040e+04 6.067e-10
 42.30136   -155.1 1.071e+04 7.802e-10
 42.32230   -155.5 1.135e+04 1.129e-09
 42.35689   -152.6 1.144e+04 1.177e-09
 42.39877   -149.5 1.152e+04 1.207e-09
 42.42283   -146.3 1.162e+04 1.227e-09
 42.42933   -146.3 1.137e+04 1.090e-09
 42.44716   -147.4 1.134e+04 1.041e-09
 42.48255   -144.5 1.168e+04 1.049e-09
 42.51387   -143.1 1.242e+04 1.262e-09
 42.53029   -141.7 1.289e+04 1.360e-09
 42.54077   -142.0 1.280e+04 1.304e-09
 42.55087   -140.8 1.378e+04 1.533e-09
 42.56134   -143.9 1.497e+04 2.330e-09
 42.57660   -143.5 1.567e+04 3.406e-09
 42.59755   -142.8 1.626e+04 5.338e-09
 42.61330   -141.7 1.698e+04 8.654e-09
 42.62377   -140.0 1.626e+04 1.133e-08
 42.63795   -138.6 1.720e+04 1.582e-08
 42.64842   -139.1 1.728e+04 1.180e-08
 42.66038   -137.3 1.815e+04 1.451e-08
 42.67572   -135.9 1.918e+04 1.601e-08
 42.68620   -137.5 1.914e+04 6.535e-09
 42.70227   -137.1 2.035e+04 5.398e-09
 42.72321   -137.2 2.125e+04 3.691e-09
 42.73815   -137.9 2.078e+04 2.359e-09
 42.74862   -145.2 1.238e+04 6.497e-10
 42.75608   -145.8 1.106e+04 5.099e-10
 42.76655   -147.5 9.573e+03 3.053e-10
 42.78604   -147.4 9.359e+03 2.768e-10
 42.80058   -147.1 9.295e+03 2.702e-10
 42.81105   -147.2 9.394e+03 3.137e-10
 42.82793   -147.0 9.409e+03 3.147e-10
 42.84888   -147.0 9.566e+03 3.402e-10
 42.86300   -147.1 9.816e+03 4.053e-10
 42.86739   -147.5 9.891e+03 4.705e-10
 42.87421   -146.9 9.525e+03 3.672e-10
 42.89076   -146.7 9.739e+03 4.429e-10
 42.91171   -146.3 9.979e+03 5.400e-10
 42.92543   -145.8 1.022e+04 6.483e-10
 42.94647   -145.3 1.049e+04 7.244e-10
 42.98521   -143.6 1.072e+04 9.147e-10
 43.01653   -142.1 1.062e+04 8.997e-10
 43.03737   -141.6 1.069e+04 9.655e-10
 43.05028   -140.7 1.074e+04 1.007e-09
 43.06076   -140.7 1.059e+04 9.178e-10
 43.07905   -140.1 1.060e+04 9.271e-10
 43.08962   -140.1 1.041e+04 8.005e-10
 43.11087   -138.7 1.044e+04 8.208e-10
 43.14219   -137.8 1.048e+04 8.374e-10
 43.16304   -137.2 1.037e+04 8.028e-10
 43.17514   -136.6 1.022e+04 7.355e-10
 43.18561   -136.2 9.914e+03 6.620e-10
 43.19718   -135.2 9.705e+03 5.696e-10
 43.20765   -135.0 9.688e+03 5.552e-10
 43.22587   -134.0 9.514e+03 4.785e-10
 43.23756   -133.3 9.367e+03 4.102e-10
 43.24804   -133.2 9.329e+03 4.063e-10
 43.27833   -132.6 9.261e+03 3.639e-10
 43.30019   -131.1 9.019e+03 2.930e-10
 43.30585   -129.4 8.718e+03 2.574e-10
 43.32597   -129.1 8.699e+03 2.550e-10
 43.36220   -127.2 8.664e+03 2.322e-10
 43.40409   -125.5 8.729e+03 2.321e-10
 43.44598   -122.1 8.708e+03 2.248e-10
 43.48786   -120.8 9.276e+03 3.151e-10
 43.52034   -119.6 9.774e+03 4.498e-10
 43.54048   -119.9 1.048e+04 7.162e-10
 43.54989   -117.9 1.038e+04 6.648e-10
 43.57164   -116.6 1.076e+04 8.625e-10
 43.61353   -115.5 1.085e+04 9.239e-10
 43.65380   -114.6 1.072e+04 8.909e-10
 43.67465   -112.6 1.142e+04 1.208e-09
 43.68664   -112.2 1.122e+04 1.098e-09
 43.70758   -112.2 1.092e+04 9.612e-10
 43.72651   -112.1 1.055e+04 7.970e-10
 43.73698   -111.6 1.135e+04 1.173e-09
 43.74593   -111.7 1.087e+04 9.751e-10
 43.75640   -111.4 1.087e+04 9.678e-10
 43.77041   -111.2 1.065e+04 8.596e-10
 43.78893   -110.9 1.040e+04 7.390e-10
 43.79940   -110.8 1.110e+04 9.885e-10
 43.81230   -110.4 1.066e+04 7.805e-10
 43.83324   -110.1 1.031e+04 6.412e-10
 43.85136   -109.8 1.010e+04 5.653e-10
 43.86123   -109.7 1.090e+04 6.681e-10
 43.86406   -109.2 1.129e+04 7.723e-10
 43.87513   -109.0 1.080e+04 6.115e-10
 43.89608   -108.7 1.039e+04 5.222e-10
 43.91379   -108.5 1.017e+04 4.889e-10
 43.92426   -108.2 1.035e+04 4.868e-10
 43.93796   -108.0 1.011e+04 4.524e-10
 43.95891   -107.7 1.006e+04 4.448e-10
 43.97171   -107.2 1.009e+04 4.573e-10
 43.97855   -107.0 9.999e+03 4.291e-10
 43.98669   -106.7 1.005e+04 4.019e-10
 44.00080   -106.4 1.004e+04 4.001e-10
 44.02174   -106.0 1.014e+04 4.178e-10
 44.03864   -105.4 1.033e+04 4.602e-10
 44.04911   -105.2 1.012e+04 4.073e-10
 44.06363   -104.7 1.028e+04 4.547e-10
 44.07937   -104.0 1.043e+04 5.117e-10
 44.08984   -104.0 1.032e+04 4.868e-10
 44.10107   -103.2 1.047e+04 5.462e-10
 44.11154   -102.9 1.022e+04 4.939e-10
 44.12646   -102.0 1.038e+04 5.639e-10
 44.14740   -100.9 1.056e+04 6.416e-10
 44.16349    -99.8 1.075e+04 7.223e-10
 44.17397    -99.4 1.039e+04 6.372e-10
 44.18703    -98.3 1.058e+04 7.306e-10
 44.19750    -98.3 1.049e+04 7.071e-10
 44.21024    -97.1 1.069e+04 8.001e-10
 44.22592    -95.8 1.090e+04 8.922e-10
 44.23639    -95.4 1.056e+04 7.745e-10
 44.25212    -94.2 1.078e+04 8.788e-10
 44.27307    -93.0 1.097e+04 9.745e-10
 44.28835    -91.7 1.119e+04 1.059e-09
 44.29882    -91.1 1.076e+04 8.012e-10
 44.30515    -89.9 1.098e+04 8.987e-10
 44.31563    -89.6 1.074e+04 7.322e-10
 44.33590    -88.8 1.091e+04 7.826e-10
 44.35077    -87.5 1.111e+04 8.529e-10
 44.36125    -87.3 1.091e+04 7.489e-10
 44.37779    -86.5 1.098e+04 7.684e-10
 44.39873    -85.3 1.106e+04 7.862e-10
 44.41281    -84.3 1.110e+04 7.997e-10
 44.41681    -84.2 1.092e+04 6.507e-10
 44.42377    -84.3 1.045e+04 4.231e-10
 44.44072    -82.9 1.068e+04 5.086e-10
 44.46156    -82.3 1.076e+04 5.275e-10
 44.47563    -82.0 1.103e+04 5.868e-10
 44.48610    -81.6 1.064e+04 5.357e-10
 44.50345    -81.3 1.078e+04 6.295e-10
 44.52047    -81.4 1.150e+04 8.244e-10
 44.53094    -82.1 1.216e+04 7.941e-10
 44.53805    -82.8 1.347e+04 1.436e-09
 44.54853    -81.6 1.200e+04 9.879e-10
 44.56628    -81.8 1.321e+04 1.678e-09
 44.58723    -81.7 1.421e+04 2.725e-09
 44.60048    -81.2 1.490e+04 3.909e-09
 44.61095    -80.8 1.398e+04 2.951e-09
 44.62812    -80.4 1.460e+04 3.807e-09
 44.63860    -80.6 1.543e+04 4.817e-09
 44.65006    -80.3 1.594e+04 5.590e-09
 44.66291    -80.0 1.613e+04 5.804e-09
 44.67338    -79.5 1.550e+04 4.715e-09
 44.69195    -79.2 1.568e+04 4.771e-09
 44.71289    -78.9 1.586e+04 4.538e-09
 44.72533    -78.9 1.590e+04 4.287e-09
 44.73581    -78.0 1.521e+04 3.516e-09
 44.74625    -78.0 1.577e+04 3.545e-09
 44.75672    -80.1 1.765e+04 6.064e-09
 44.77572    -80.2 1.783e+04 6.817e-09
 44.78776    -80.1 1.777e+04 7.830e-09
 44.79823    -79.4 1.812e+04 7.056e-09
 44.81761    -79.3 1.854e+04 8.930e-09
 44.83856    -78.6 1.870e+04 1.127e-08
 44.85019    -77.7 1.857e+04 1.343e-08
 44.85507    -77.6 2.029e+04 1.460e-08
 44.86438    -78.3 2.040e+04 1.965e-08
 44.88045    -77.6 2.029e+04 2.200e-08
 44.90139    -76.6 1.987e+04 2.274e-08
 44.91261    -75.2 1.914e+04 1.976e-08
 44.91368    -75.8 2.068e+04 3.025e-08
 44.91811    -76.0 2.017e+04 2.707e-08
 44.92747    -75.2 1.969e+04 2.611e-08
 44.93794    -74.2 1.916e+04 2.365e-08
 44.94373    -73.2 1.882e+04 2.040e-08
 44.94897    -73.1 1.949e+04 2.855e-08
 44.95889    -72.1 1.899e+04 2.462e-08
 44.96670    -71.1 1.869e+04 1.998e-08
 44.97194    -72.1 1.819e+04 1.317e-08
 44.97494    -72.0 1.875e+04 1.012e-08
 44.98018    -73.4 2.022e+04 1.983e-08
 44.99030    -76.0 2.283e+04 1.894e-08
 45.00078    -80.5 2.482e+04 2.329e-08
 45.00616    -84.6 2.410e+04 3.311e-08
 45.01139    -86.4 2.130e+04 8.807e-08
 45.02053    -87.5 1.984e+04 1.127e-07
 45.02577    -87.5 1.986e+04 6.188e-08
 45.03213    -87.6 1.925e+04 5.888e-08
 45.03737    -87.7 1.872e+04 8.655e-08
 45.04266    -87.6 1.892e+04 7.022e-08
 45.05314    -87.9 1.958e+04 5.115e-08
 45.06335    -89.2 2.077e+04 3.039e-08
 45.06858    -90.6 2.071e+04 3.436e-08
 45.07408    -94.4 2.020e+04 1.786e-08
 45.07959    -97.5 1.819e+04 1.057e-08
 45.08483    -98.0 1.701e+04 7.751e-09
 45.09456    -98.5 1.607e+04 6.414e-09
 45.09980    -98.2 1.687e+04 9.140e-09
 45.10550    -98.2 1.677e+04 8.449e-09
 45.11597    -98.0 1.665e+04 7.954e-09
 45.13172    -97.9 1.638e+04 7.344e-09
 45.15185    -97.2 1.584e+04 6.173e-09
 45.16232    -96.9 1.590e+04 5.650e-09
 45.17366    -96.5 1.528e+04 4.480e-09
 45.18735    -96.1 1.451e+04 3.320e-09
 45.19782    -95.7 1.429e+04 3.247e-09
 45.21428    -95.2 1.358e+04 2.321e-09
 45.22475    -96.5 1.257e+04 1.644e-09
 45.23649    -96.4 1.157e+04 1.102e-09
 45.25744    -96.4 1.061e+04 7.381e-10
 45.27670    -96.3 9.816e+03 5.135e-10
 45.28717    -96.0 9.639e+03 4.677e-10
 45.29501    -95.6 9.308e+03 3.658e-10
 45.30548    -95.5 9.216e+03 3.368e-10
 45.33084    -95.0 8.904e+03 2.606e-10
 45.37282    -93.8 8.474e+03 1.818e-10
 45.40175    -92.6 8.421e+03 1.646e-10
 45.42270    -91.9 8.501e+03 1.773e-10
 45.45660    -90.6 8.498e+03 1.756e-10
 45.49849    -89.3 8.582e+03 1.849e-10
 45.52099    -88.0 8.739e+03 2.091e-10
 45.52816    -86.8 8.594e+03 1.670e-10
 45.54755    -86.3 8.685e+03 2.022e-10
 45.58226    -84.7 8.752e+03 2.140e-10
 45.62415    -82.9 8.809e+03 2.222e-10
 45.65146    -81.2 8.877e+03 2.289e-10
 45.67240    -80.5 8.795e+03 2.135e-10
 45.70793    -79.0 8.836e+03 2.122e-10
 45.73630    -78.3 9.104e+03 2.262e-10
 45.75724    -76.5 8.859e+03 1.797e-10
 45.77631    -76.4 9.422e+03 2.653e-10
 45.79726    -75.1 9.096e+03 2.034e-10
 45.83359    -74.9 9.807e+03 3.477e-10
 45.87548    -74.3 1.056e+04 5.701e-10
 45.90117    -74.4 1.111e+04 7.494e-10
 45.92211    -72.1 1.032e+04 4.976e-10
 45.95161    -72.7 1.050e+04 5.513e-10
 45.97255    -70.5 1.131e+04 7.079e-10
 46.00115    -71.5 1.105e+04 6.368e-10
 46.02602    -72.4 1.005e+04 4.331e-10
 46.04696    -70.0 1.019e+04 4.494e-10
 46.08492    -70.3 9.970e+03 3.944e-10
 46.12681    -70.5 9.904e+03 3.829e-10
 46.15087    -70.7 9.985e+03 4.226e-10
 46.16125    -69.0 1.007e+04 4.318e-10
 46.17720    -69.3 1.014e+04 4.698e-10
 46.18777    -68.6 1.027e+04 5.063e-10
 46.21059    -69.4 1.060e+04 6.536e-10
 46.25247    -69.8 1.123e+04 8.952e-10
 46.27573    -70.3 1.187e+04 1.202e-09
 46.28610    -69.8 1.211e+04 1.326e-09
 46.29533    -70.7 1.263e+04 1.660e-09
 46.30580    -69.9 1.230e+04 1.437e-09
 46.32558    -70.8 1.273e+04 1.741e-09
 46.33796    -71.5 1.303e+04 2.110e-09
 46.34843    -71.8 1.361e+04 2.817e-09
 46.36747    -72.1 1.365e+04 3.055e-09
 46.38841    -72.2 1.361e+04 3.085e-09
 46.40038    -72.1 1.318e+04 2.863e-09
 46.40448    -72.1 1.351e+04 3.431e-09
 46.41346    -72.0 1.300e+04 2.675e-09
 46.43030    -71.6 1.242e+04 2.136e-09
 46.45125    -71.6 1.181e+04 1.617e-09
 46.46281    -71.6 1.125e+04 1.230e-09
 46.47328    -71.5 1.139e+04 1.387e-09
 46.49313    -71.9 1.099e+04 1.123e-09
 46.51064    -72.3 1.084e+04 1.016e-09
 46.52111    -72.0 1.044e+04 8.031e-10
 46.52524    -72.4 1.041e+04 7.886e-10
 46.53571    -72.8 1.085e+04 9.705e-10
 46.55597    -74.4 1.157e+04 1.118e-09
 46.57691    -76.4 1.235e+04 1.506e-09
 46.58766    -78.1 1.274e+04 1.945e-09
 46.59814    -78.8 1.325e+04 2.687e-09
 46.61830    -80.0 1.324e+04 2.814e-09
 46.62877    -79.0 1.279e+04 2.328e-09
 46.63962    -80.3 1.275e+04 2.354e-09
 46.65009    -80.5 1.317e+04 2.880e-09
 46.66069    -83.5 1.323e+04 2.278e-09
 46.68163    -89.4 1.366e+04 1.900e-09
 46.70205    -97.1 1.391e+04 1.844e-09
 46.71252    -98.5 1.346e+04 1.668e-09
 46.72352   -105.4 1.326e+04 1.846e-09
 46.73642   -110.9 1.319e+04 2.148e-09
 46.74690   -109.1 1.370e+04 2.460e-09
 46.76447   -114.1 1.358e+04 2.533e-09
 46.77494   -114.7 1.332e+04 2.281e-09
 46.78635   -119.2 1.252e+04 1.930e-09
 46.80729   -123.3 1.144e+04 1.346e-09
 46.82690   -126.9 1.053e+04 9.806e-10
 46.83737   -126.6 1.058e+04 1.011e-09
 46.84408   -128.9 1.030e+04 8.920e-10
 46.85455   -128.6 1.023e+04 8.719e-10
 46.87013   -130.2 1.013e+04 8.271e-10
 46.88933   -131.4 1.013e+04 8.158e-10
 46.89980   -130.9 1.033e+04 8.944e-10
 46.91201   -131.9 1.033e+04 8.911e-10
 46.93296   -132.9 1.036e+04 8.908e-10
 46.95174   -133.8 1.044e+04 9.044e-10
 46.96221   -133.3 1.055e+04 9.617e-10
 46.97485   -134.2 1.059e+04 9.685e-10
 47.00380   -135.2 1.063e+04 9.741e-10
 47.02485   -134.6 1.063e+04 9.574e-10
 47.03778   -135.3 1.069e+04 1.025e-09
 47.05862   -135.7 1.073e+04 1.053e-09
 47.06987   -135.9 1.079e+04 1.102e-09
 47.07738   -134.9 1.065e+04 9.930e-10
 47.08708   -134.7 1.048e+04 9.277e-10
 47.10051   -134.8 1.055e+04 9.860e-10
 47.12145   -134.8 1.056e+04 1.016e-09
 47.13903   -134.7 1.056e+04 1.021e-09
 47.14950   -134.0 1.008e+04 7.268e-10
 47.16334   -133.8 9.935e+03 6.718e-10
 47.17752   -133.4 9.742e+03 5.977e-10
 47.18799   -133.1 9.777e+03 6.026e-10
 47.21580   -133.0 9.545e+03 5.176e-10
 47.25361   -132.0 9.143e+03 3.945e-10
 47.27455   -131.3 8.558e+03 2.203e-10
 47.28537   -130.2 8.455e+03 1.929e-10
 47.30632   -129.1 8.569e+03 1.840e-10
 47.34156   -128.4 8.526e+03 1.628e-10
 47.37846   -128.1 8.528e+03 1.579e-10
 47.39941   -127.6 7.981e+03 1.015e-10
 47.42534   -127.4 8.287e+03 1.071e-10
 47.46723   -127.6 8.771e+03 1.483e-10
 47.50069   -127.9 9.138e+03 2.284e-10
 47.51583   -127.0 9.136e+03 2.524e-10
 47.52426   -126.1 8.962e+03 2.252e-10
 47.55100   -126.1 9.289e+03 3.069e-10
 47.59289   -126.0 9.595e+03 4.008e-10
 47.62817   -125.8 9.848e+03 4.935e-10
 47.64911   -124.7 9.736e+03 4.625e-10
 47.67667   -124.4 9.981e+03 5.619e-10
 47.71600   -124.1 1.012e+04 6.357e-10
 47.73694   -123.3 9.851e+03 4.862e-10
 47.75302   -123.0 9.928e+03 5.245e-10
 47.77397   -121.8 9.974e+03 5.464e-10
 47.80233   -121.1 1.011e+04 6.101e-10
 47.84422   -120.1 1.015e+04 6.337e-10
 47.87788   -119.0 1.014e+04 6.327e-10
 47.89882   -118.1 1.020e+04 6.449e-10
 47.92799   -116.9 1.016e+04 6.339e-10
 47.95226   -115.6 1.001e+04 5.705e-10
 47.97320   -115.3 1.009e+04 6.096e-10
 48.00273   -113.7 9.853e+03 5.120e-10
 48.02367   -112.7 9.799e+03 4.978e-10
 48.05366   -111.0 9.553e+03 4.067e-10
 48.09555   -109.2 9.336e+03 3.328e-10
 48.12758   -107.2 9.160e+03 2.781e-10
 48.14853   -106.1 9.074e+03 2.609e-10
 48.16757   -104.1 8.998e+03 2.333e-10
 48.18851   -103.5 9.115e+03 2.639e-10
 48.22121   -101.5 9.088e+03 2.497e-10
 48.25244    -99.6 9.078e+03 2.384e-10
 48.27338    -98.6 9.169e+03 2.683e-10
 48.30499    -96.8 9.289e+03 3.093e-10
 48.34688    -94.9 9.418e+03 3.592e-10
 48.37729    -93.0 9.599e+03 4.192e-10
 48.39235    -92.1 9.906e+03 5.579e-10
 48.40382    -91.8 1.030e+04 6.915e-10
 48.43065    -90.1 1.059e+04 7.942e-10
 48.47254    -88.5 1.086e+04 8.816e-10
 48.50214    -87.2 1.111e+04 9.582e-10
 48.52309    -86.7 1.121e+04 1.010e-09
 48.55632    -85.7 1.153e+04 1.157e-09
 48.59819    -84.7 1.182e+04 1.308e-09
 48.62699    -84.9 1.213e+04 1.486e-09
 48.64794    -84.2 1.230e+04 1.612e-09
 48.68198    -83.4 1.216e+04 1.532e-09
 48.72387    -82.2 1.160e+04 1.112e-09
 48.75185    -80.6 1.092e+04 7.028e-10
 48.77280    -80.0 1.121e+04 8.346e-10
 48.79707    -79.1 1.058e+04 5.244e-10
 48.81408    -78.3 1.037e+04 4.334e-10
 48.82455    -78.1 1.054e+04 4.973e-10
 48.83425    -77.3 1.036e+04 4.138e-10
 48.85530    -77.5 1.023e+04 3.668e-10
 48.87670    -76.4 1.014e+04 3.293e-10
 48.88708    -76.2 1.031e+04 3.737e-10
 48.90170    -75.7 1.029e+04 3.669e-10
 48.93321    -74.8 1.029e+04 3.565e-10
 48.97520    -73.5 1.020e+04 3.342e-10
 49.00156    -72.0 1.011e+04 3.168e-10
 49.02250    -71.8 1.025e+04 3.770e-10
 49.04976    -70.3 1.009e+04 3.336e-10
 49.07071    -71.0 1.000e+04 3.178e-10
 49.10086    -69.4 9.812e+03 2.779e-10
 49.12641    -67.6 9.571e+03 2.334e-10
 49.14736    -67.1 9.369e+03 1.744e-10
 49.18464    -65.1 9.155e+03 1.345e-10
 49.22652    -63.0 8.991e+03 1.063e-10
 49.25126    -60.9 8.884e+03 8.833e-11
 49.26887    -60.5 8.750e+03 7.135e-11
 49.28602    -60.8 8.702e+03 6.268e-11
 49.31030    -58.6 8.699e+03 6.240e-11
 49.35219    -56.7 8.767e+03 6.691e-11
 49.37612    -55.2 8.876e+03 9.462e-11
 49.39706    -54.8 8.827e+03 1.083e-10
 49.43596    -53.1 9.013e+03 1.841e-10
 49.47785    -51.4 9.375e+03 3.070e-10
 49.50097    -50.0 9.851e+03 4.725e-10
 49.50351    -49.7 9.672e+03 4.240e-10
 49.52228    -49.9 9.505e+03 3.863e-10
 49.56163    -49.0 9.662e+03 4.614e-10
 49.60352    -48.4 9.704e+03 5.012e-10
 49.62583    -48.1 9.702e+03 5.223e-10
 49.64677    -47.7 9.388e+03 4.238e-10
 49.68729    -47.4 9.427e+03 4.573e-10
 49.71664    -47.1 9.472e+03 4.958e-10
 49.73759    -46.6 9.312e+03 4.342e-10
 49.75068    -46.3 9.345e+03 4.560e-10
 49.77162    -45.8 9.327e+03 4.411e-10
 49.81296    -45.7 9.423e+03 4.797e-10
 49.85459    -45.6 9.429e+03 4.920e-10
 49.87553    -45.5 9.711e+03 5.821e-10
 49.89673    -45.6 9.767e+03 6.167e-10
 49.93196    -45.4 9.757e+03 6.227e-10
 49.95290    -46.3 1.080e+04 1.162e-09
 49.97944    -45.6 1.049e+04 1.087e-09
 50.00039    -45.0 1.046e+04 1.065e-09
 50.02240    -43.7 9.812e+03 7.728e-10
 50.06428    -42.2 9.211e+03 5.392e-10
 50.10430    -40.6 8.735e+03 3.803e-10
 50.12524    -40.0 8.505e+03 2.889e-10
 50.14727    -38.6 8.175e+03 2.112e-10
 50.16821    -39.4 8.018e+03 1.735e-10
 50.18995    -37.9 7.910e+03 1.523e-10
 50.22915    -36.3 7.896e+03 1.488e-10
 50.25009    -35.5 7.805e+03 1.464e-10
 50.27372    -34.1 7.897e+03 1.529e-10
 50.31561    -32.9 8.082e+03 1.870e-10
 50.35400    -31.7 8.205e+03 2.279e-10
 50.37495    -30.8 8.130e+03 2.200e-10
 50.38353    -29.5 8.147e+03 2.379e-10
 50.40447    -30.3 8.280e+03 2.547e-10
 50.44128    -29.0 8.138e+03 2.242e-10
 50.47886    -27.8 7.966e+03 1.768e-10
 50.49980    -27.0 7.980e+03 1.782e-10
 50.52505    -26.3 7.887e+03 1.501e-10
 50.56694    -25.8 7.873e+03 1.444e-10
 50.59884    -25.4 7.937e+03 1.533e-10
 50.61466    -26.3 7.842e+03 1.418e-10
 50.62465    -25.8 7.996e+03 1.738e-10
 50.65072    -25.0 8.244e+03 2.235e-10
 50.69260    -24.1 8.458e+03 2.695e-10
 50.72856    -23.3 8.575e+03 2.945e-10
 50.74951    -23.0 8.473e+03 2.647e-10
 50.77638    -22.5 8.375e+03 2.395e-10
 50.81415    -22.1 8.180e+03 2.025e-10
 50.83509    -21.9 8.574e+03 2.825e-10
 50.85342    -21.3 8.364e+03 2.377e-10
 50.87436    -21.6 8.188e+03 2.054e-10
 50.90204    -21.0 8.079e+03 1.878e-10
 50.94393    -20.4 8.053e+03 1.831e-10
 50.97827    -20.1 8.065e+03 1.887e-10
 50.99921    -20.2 8.099e+03 1.981e-10
 51.02771    -20.4 8.716e+03 2.901e-10
 51.05041    -21.0 9.790e+03 5.243e-10
 51.07135    -21.5 9.790e+03 5.552e-10
 51.10092    -22.6 1.051e+04 9.163e-10
 51.11340    -22.8 1.109e+04 1.357e-09
 51.12387    -22.8 1.098e+04 1.306e-09
 51.14271    -22.7 1.144e+04 1.710e-09
 51.15787    -22.4 1.177e+04 1.993e-09
 51.16834    -22.2 1.137e+04 1.609e-09
 51.17583    -22.1 1.143e+04 1.635e-09
 51.18630    -21.9 1.145e+04 1.727e-09
 51.20554    -21.8 1.148e+04 1.674e-09
 51.22648    -21.8 1.137e+04 1.454e-09
 51.23825    -22.1 1.124e+04 1.260e-09
 51.24873    -22.0 1.132e+04 1.337e-09
 51.26552    -22.4 1.125e+04 1.221e-09
 51.27600    -22.2 1.103e+04 1.092e-09
 51.28931    -22.5 1.114e+04 1.110e-09
 51.30068    -22.6 1.141e+04 1.209e-09
 51.31115    -22.9 1.172e+04 1.412e-09
 51.33120    -23.0 1.211e+04 1.639e-09
 51.35215    -23.0 1.249e+04 1.891e-09
 51.36311    -22.9 1.277e+04 2.096e-09
 51.37358    -22.9 1.301e+04 2.420e-09
 51.39403    -22.7 1.342e+04 3.141e-09
 51.41498    -22.4 1.333e+04 2.942e-09
 51.43592    -22.3 1.308e+04 2.485e-09
 51.45687    -22.3 1.283e+04 2.100e-09
 51.47749    -22.3 1.259e+04 1.804e-09
 51.48796    -22.6 1.247e+04 1.679e-09
 51.49131    -22.5 1.240e+04 1.587e-09
 51.50178    -22.2 1.279e+04 2.041e-09
 51.51970    -22.0 1.274e+04 1.983e-09
 51.53991    -21.7 1.281e+04 2.000e-09
 51.55039    -21.9 1.264e+04 1.725e-09
 51.56159    -21.8 1.279e+04 1.812e-09
 51.58253    -21.6 1.294e+04 1.931e-09
 51.59897    -21.3 1.304e+04 2.012e-09
 51.60830    -20.9 1.325e+04 2.328e-09
 51.61281    -21.0 1.289e+04 1.857e-09
 51.62442    -20.9 1.293e+04 1.854e-09
 51.64536    -20.7 1.299e+04 1.851e-09
 51.66477    -20.5 1.312e+04 1.847e-09
 51.67524    -20.9 1.291e+04 1.749e-09
 51.68725    -20.8 1.295e+04 1.722e-09
 51.70662    -20.7 1.302e+04 1.681e-09
 51.71709    -20.4 1.313e+04 1.683e-09
 51.72719    -20.3 1.318e+04 1.690e-09
 51.73767    -20.8 1.282e+04 1.581e-09
 51.75008    -20.5 1.281e+04 1.569e-09
 51.77103    -19.9 1.287e+04 1.618e-09
 51.78962    -19.5 1.290e+04 1.645e-09
 51.80009    -19.9 1.269e+04 1.556e-09
 51.81291    -19.5 1.272e+04 1.607e-09
 51.82475    -18.9 1.290e+04 1.720e-09
 51.83522    -18.2 1.289e+04 1.695e-09
 51.85205    -17.8 1.311e+04 1.876e-09
 51.86252    -17.9 1.274e+04 1.669e-09
 51.87575    -17.2 1.290e+04 1.815e-09
 51.89669    -16.6 1.318e+04 2.113e-09
 51.91448    -15.7 1.340e+04 2.350e-09
 51.92495    -15.5 1.282e+04 1.743e-09
 51.93241    -14.7 1.297e+04 1.866e-09
 51.94288    -14.4 1.312e+04 2.113e-09
 51.95952    -13.4 1.328e+04 2.268e-09
 51.97690    -12.5 1.337e+04 2.341e-09
 51.99794    -11.8 1.243e+04 1.315e-09
 52.02245    -10.5 1.271e+04 1.562e-09
 52.03933     -9.6 1.277e+04 1.617e-09
 52.04656     -9.5 1.201e+04 1.044e-09
 52.05053     -9.2 1.232e+04 1.325e-09
 52.06424     -8.4 1.244e+04 1.474e-09
 52.08519     -7.4 1.266e+04 1.640e-09
 52.10176     -6.7 1.293e+04 1.870e-09
 52.12280     -6.0 1.179e+04 8.151e-10
 52.14791     -4.3 1.226e+04 1.089e-09
 52.15829     -4.5 1.319e+04 2.402e-09
 52.16418     -3.5 1.324e+04 2.645e-09
 52.17465     -3.0 1.263e+04 1.682e-09
 52.18991     -2.1 1.274e+04 1.946e-09
 52.21085     -0.9 1.277e+04 2.062e-09
 52.22661      0.1 1.283e+04 2.273e-09
 52.24765      1.1 1.207e+04 1.083e-09
 52.28435      3.3 1.215e+04 1.222e-09
 52.32624      5.2 1.228e+04 1.324e-09
 52.35156      6.3 1.195e+04 1.156e-09
 52.36760      7.0 1.144e+04 7.733e-10
 52.38417      7.4 1.111e+04 7.335e-10
 52.41001      8.9 1.164e+04 9.881e-10
 52.45190     10.0 1.242e+04 1.404e-09
 52.47641     10.9 1.301e+04 2.253e-09
 52.49736     12.5 1.226e+04 1.793e-09
 52.52511     13.8 1.294e+04 2.420e-09
 52.53874     14.7 1.310e+04 2.569e-09
 52.54921     15.2 1.278e+04 2.215e-09
 52.56690     16.1 1.294e+04 2.281e-09
 52.58784     16.9 1.289e+04 2.133e-09
 52.59939     17.4 1.270e+04 1.786e-09
 52.60234     18.3 1.257e+04 1.740e-09
 52.62231     19.1 1.238e+04 1.609e-09
 52.66134     20.5 1.201e+04 1.355e-09
 52.70323     22.3 1.164e+04 1.108e-09
 52.72622     24.4 1.138e+04 8.195e-10
 52.74716     25.0 1.109e+04 6.525e-10
 52.78701     26.6 1.107e+04 5.115e-10
 52.81480     27.9 1.118e+04 4.995e-10
 52.83574     28.4 1.134e+04 6.730e-10
 52.85107     28.5 1.182e+04 9.831e-10
 52.87202     28.9 1.161e+04 6.403e-10
 52.90210     28.2 1.212e+04 1.185e-09
 52.91330     27.5 1.307e+04 1.909e-09
 52.92308     27.2 1.281e+04 1.551e-09
 52.93273     28.3 1.247e+04 1.506e-09
 52.94389     28.1 1.320e+04 2.039e-09
 52.96484     27.6 1.415e+04 3.261e-09
 52.97573     27.8 1.470e+04 4.396e-09
 52.98620     28.1 1.388e+04 3.453e-09
 53.00672     28.8 1.409e+04 3.758e-09
 53.02767     29.1 1.392e+04 3.270e-09
 53.04038     28.2 1.312e+04 1.826e-09
 53.05086     28.9 1.277e+04 1.741e-09
 53.07974     28.7 1.219e+04 1.188e-09
 53.10078     28.5 1.174e+04 9.313e-10
 53.12211     28.5 1.108e+04 6.210e-10
 53.16400     29.5 1.046e+04 4.345e-10
 53.20469     30.7 1.019e+04 3.311e-10
 53.22563     31.2 1.008e+04 3.090e-10
 53.24542     32.5 9.794e+03 2.544e-10
 53.26636     33.2 9.803e+03 2.824e-10
 53.28966     35.2 9.665e+03 2.720e-10
 53.32954     36.9 9.681e+03 2.259e-10
 53.35049     36.9 9.611e+03 2.081e-10
 53.37344     38.2 9.606e+03 2.126e-10
 53.41533     39.4 9.709e+03 2.523e-10
 53.45439     41.0 9.823e+03 3.228e-10
 53.47534     41.3 9.863e+03 3.670e-10
 53.48168     43.3 9.963e+03 4.109e-10
 53.50262     43.8 1.008e+04 4.716e-10
 53.54099     45.7 1.020e+04 4.833e-10
 53.57925     47.2 1.021e+04 4.535e-10
 53.60019     47.1 1.012e+04 4.114e-10
 53.62477     48.3 9.986e+03 3.751e-10
 53.66666     49.6 9.983e+03 3.852e-10
 53.69699     50.7 1.015e+04 4.504e-10
 53.71349     51.2 1.048e+04 5.924e-10
 53.72505     50.7 1.014e+04 4.533e-10
 53.75043     51.9 1.045e+04 5.763e-10
 53.79232     53.2 1.083e+04 7.177e-10
 53.82896     54.2 1.104e+04 8.097e-10
 53.84990     53.0 1.015e+04 5.095e-10
 53.87610     53.7 1.040e+04 5.948e-10
 53.91230     53.6 1.074e+04 7.744e-10
 53.93325     54.1 1.088e+04 8.451e-10
 53.95381     54.0 1.131e+04 1.158e-09
 53.97475     53.1 1.074e+04 8.538e-10
 54.00176     53.6 1.134e+04 1.313e-09
 54.04365     54.5 1.162e+04 1.570e-09
 54.07866     55.6 1.142e+04 1.436e-09
 54.09961     55.2 1.059e+04 8.754e-10
 54.12742     56.7 1.015e+04 6.221e-10
 54.16931     58.4 9.886e+03 4.993e-10
 54.20352     59.8 9.609e+03 3.702e-10
 54.22446     59.1 8.647e+03 1.382e-10
 54.25309     60.2 8.276e+03 1.097e-10
 54.29498     61.5 8.028e+03 1.072e-10
 54.32837     63.0 8.037e+03 1.177e-10
 54.34931     62.6 7.855e+03 1.000e-10
 54.36387     64.3 8.001e+03 1.216e-10
 54.38482     64.5 7.924e+03 1.150e-10
 54.42064     66.1 8.085e+03 1.395e-10
 54.45322     67.3 8.304e+03 1.731e-10
 54.47417     67.9 8.123e+03 1.534e-10
 54.50442     68.8 8.391e+03 1.918e-10
 54.54630     69.6 8.846e+03 2.920e-10
 54.57808     69.7 9.971e+03 5.169e-10
 54.59001     71.2 9.045e+03 3.107e-10
 54.60013     70.9 9.489e+03 3.747e-10
 54.63008     71.0 1.032e+04 6.181e-10
 54.66140     71.7 1.033e+04 6.401e-10
 54.68224     71.7 1.064e+04 7.980e-10
 54.69712     72.0 1.098e+04 9.964e-10
 54.70713     72.0 1.111e+04 1.071e-09
 54.71321     72.7 1.070e+04 8.072e-10
 54.72413     73.0 1.093e+04 9.684e-10
 54.74508     73.3 1.116e+04 1.078e-09
 54.76516     73.6 1.128e+04 1.138e-09
 54.77563     74.3 1.111e+04 1.049e-09
 54.78696     74.7 1.122e+04 1.121e-09
 54.80477     74.9 1.132e+04 1.182e-09
 54.81525     74.7 1.131e+04 1.171e-09
 54.82759     75.0 1.135e+04 1.205e-09
 54.83806     75.8 1.131e+04 1.190e-09
 54.84980     76.1 1.138e+04 1.234e-09
 54.87074     76.5 1.135e+04 1.223e-09
 54.89001     77.1 1.120e+04 1.128e-09
 54.90049     77.7 1.132e+04 1.216e-09
 54.91243     78.1 1.117e+04 1.107e-09
 54.92290     77.9 1.094e+04 9.485e-10
 54.93357     78.2 1.071e+04 8.060e-10
 54.95244     78.5 1.051e+04 6.882e-10
 54.96291     79.0 1.070e+04 7.930e-10
 54.97546     79.0 1.055e+04 6.938e-10
 54.99640     79.1 1.054e+04 6.292e-10
 55.01487     79.4 1.059e+04 6.280e-10
 55.02534     79.6 1.073e+04 7.310e-10
 55.03056     79.6 1.085e+04 7.459e-10
 55.04103     79.4 1.068e+04 6.212e-10
 55.05924     78.4 1.138e+04 7.490e-10
 55.07729     74.0 1.350e+04 1.469e-09
 55.08777     72.2 1.440e+04 1.852e-09
 55.10112     67.5 1.598e+04 5.680e-09
 55.12207     68.7 1.673e+04 1.204e-08
 55.13821     70.4 1.688e+04 1.348e-08
 55.14539     71.3 1.619e+04 9.684e-09
 55.15019     71.1 1.667e+04 1.213e-08
 55.16396     71.4 1.678e+04 8.524e-09
 55.18490     68.8 1.751e+04 4.228e-09
 55.20215     61.8 1.561e+04 2.034e-09
 55.21262     60.2 1.543e+04 1.991e-09
 55.22679     55.0 1.242e+04 1.460e-09
 55.24587     55.1 1.178e+04 1.241e-09
 55.25634     55.7 1.131e+04 9.928e-10
 55.26457     55.6 1.136e+04 9.903e-10
 55.27505     54.8 1.135e+04 9.799e-10
 55.30019     56.4 1.071e+04 6.413e-10
 55.32720     56.2 1.027e+04 3.898e-10
 55.34814     55.1 1.025e+04 3.930e-10
 55.38406     55.2 9.859e+03 2.877e-10
 55.42595     56.0 9.533e+03 2.442e-10
 55.45205     57.2 9.387e+03 2.209e-10
 55.46653     56.9 9.405e+03 2.262e-10
 55.48232     58.1 9.440e+03 2.509e-10
 55.50973     59.5 9.306e+03 2.317e-10
 55.55162     60.8 9.314e+03 2.345e-10
 55.57690     62.1 9.446e+03 2.572e-10
 55.59785     62.0 9.517e+03 2.825e-10
 55.63539     63.0 9.865e+03 3.495e-10
 55.66671     63.4 1.004e+04 4.189e-10
 55.68697     63.6 1.020e+04 5.117e-10
 55.69744     64.3 1.014e+04 4.873e-10
 55.70156     64.5 1.039e+04 6.046e-10
 55.71203     64.5 1.035e+04 6.330e-10
 55.72945     64.9 1.053e+04 7.484e-10
 55.75039     65.6 1.066e+04 8.202e-10
 55.76399     66.1 1.065e+04 8.154e-10
 55.77446     66.2 1.053e+04 7.845e-10
 55.79228     66.7 1.047e+04 7.323e-10
 55.80510     66.9 1.038e+04 6.505e-10
 55.81557     67.7 1.041e+04 6.362e-10
 55.82642     67.7 1.029e+04 5.346e-10
 55.83689     67.6 1.031e+04 5.378e-10
 55.85511     67.2 1.014e+04 4.694e-10
 55.87605     66.8 1.005e+04 4.585e-10
 55.88884     64.8 1.080e+04 5.778e-10
 55.89931     62.3 1.203e+04 9.135e-10
 55.91275     57.0 1.348e+04 2.048e-09
 55.92322     58.0 1.327e+04 1.594e-09
 55.93889     57.1 1.365e+04 3.169e-09
 55.95127     58.3 1.372e+04 4.408e-09
 55.96174     58.3 1.419e+04 5.189e-09
 55.98077     58.4 1.450e+04 4.835e-09
 56.00172     57.4 1.472e+04 3.647e-09
 56.01370     54.5 1.401e+04 1.964e-09
 56.02191     51.4 1.301e+04 1.345e-09
 56.03088     53.1 1.356e+04 1.670e-09
 56.04361     47.4 1.099e+04 7.865e-10
 56.06455     43.4 9.930e+03 5.626e-10
 56.07612     41.9 9.865e+03 5.669e-10
 56.08659     38.7 1.069e+04 7.092e-10
 56.10644     34.2 1.241e+04 1.166e-09
 56.12738     29.9 1.388e+04 2.223e-09
 56.13854     27.8 1.446e+04 3.836e-09
 56.14901     26.1 1.537e+04 6.827e-09
 56.16927     26.4 1.561e+04 7.497e-09
 56.19021     26.7 1.590e+04 7.283e-09
 56.20098     26.7 1.608e+04 5.930e-09
 56.21145     25.2 1.581e+04 4.616e-09
 56.23210     22.8 1.475e+04 2.888e-09
 56.24619     19.6 1.279e+04 1.774e-09
 56.25655     16.9 1.163e+04 9.843e-10
 56.26340     14.8 1.105e+04 7.038e-10
 56.27399     14.3 1.091e+04 6.527e-10
 56.29493     14.0 1.060e+04 6.183e-10
 56.31536     13.7 1.030e+04 5.983e-10
 56.32583     12.7 1.016e+04 5.969e-10
 56.33682     13.0 1.019e+04 6.056e-10
 56.35385     13.1 1.011e+04 5.986e-10
 56.36432     12.4 1.021e+04 6.333e-10
 56.37778     12.3 1.016e+04 6.529e-10
 56.38826     11.5 1.040e+04 7.752e-10
 56.39965     11.5 1.036e+04 7.860e-10
 56.42060     11.5 1.040e+04 7.939e-10
 56.44021     11.5 1.037e+04 7.737e-10
 56.45068     10.6 1.065e+04 8.589e-10
 56.46151     10.6 1.049e+04 7.950e-10
 56.47198     10.0 1.111e+04 1.105e-09
 56.48343     10.0 1.081e+04 9.619e-10
 56.51494     10.0 1.042e+04 7.807e-10
 56.55479     10.1 1.002e+04 6.177e-10
 56.57573      8.8 1.031e+04 7.889e-10
 56.57983      9.2 9.926e+03 6.667e-10
 56.60077      8.0 9.806e+03 6.085e-10
 56.64071      8.9 9.445e+03 4.934e-10
 56.67964     10.1 9.190e+03 4.250e-10
 56.70058      9.5 8.714e+03 2.699e-10
 56.72448     10.7 8.402e+03 2.197e-10
 56.76637     12.0 8.130e+03 1.773e-10
 56.79514     13.2 7.977e+03 1.429e-10
 56.81232     11.3 7.494e+03 8.951e-11
 56.82544     11.0 7.422e+03 8.899e-11
 56.85015     12.1 7.330e+03 8.547e-11
 56.89203     13.4 7.227e+03 9.349e-11
 56.92935     15.0 7.244e+03 1.102e-10
 56.95029     14.5 7.409e+03 1.225e-10
 56.97581     16.0 7.652e+03 1.491e-10
 57.01045     17.3 7.862e+03 1.788e-10
 57.03140     16.2 7.752e+03 1.550e-10
 57.05420     17.2 8.058e+03 2.055e-10
 57.07515     16.8 8.211e+03 2.313e-10
 57.10147     18.0 8.289e+03 2.546e-10
 57.14336     19.5 8.244e+03 2.524e-10
 57.17905     20.6 8.159e+03 2.161e-10
 57.20000     18.7 8.144e+03 2.067e-10
 57.22577     19.1 8.195e+03 2.154e-10
 57.24671     19.4 8.081e+03 2.070e-10
 57.26903     19.3 8.271e+03 2.553e-10
 57.30391     20.2 9.009e+03 4.383e-10
 57.32485     16.8 1.035e+04 8.177e-10
 57.34223     16.8 1.082e+04 1.037e-09
 57.35417     15.1 1.180e+04 1.498e-09
 57.36464     14.6 1.259e+04 1.605e-09
 57.37661      8.6 1.588e+04 3.953e-09
 57.38708      7.8 1.527e+04 4.372e-09
 57.40497      3.9 1.711e+04 8.357e-09
 57.42591      1.2 1.795e+04 1.371e-08
 57.43904     -0.5 1.834e+04 1.598e-08
 57.44951     -1.8 1.770e+04 1.178e-08
 57.46183     -4.0 1.608e+04 7.821e-09
 57.47230     -3.5 1.632e+04 7.321e-09
 57.48874     -7.9 1.253e+04 2.676e-09
 57.50147    -10.8 1.130e+04 1.126e-09
 57.51194     -9.7 1.153e+04 1.337e-09
 57.53063    -14.6 9.878e+03 5.417e-10
 57.55157    -17.0 8.744e+03 3.355e-10
 57.56389    -17.3 8.494e+03 2.943e-10
 57.57133    -16.7 8.513e+03 3.144e-10
 57.57996    -16.7 8.526e+03 3.152e-10
 57.60403    -16.6 8.460e+03 2.935e-10
 57.64602    -16.0 8.316e+03 2.629e-10
 57.67734    -15.1 8.319e+03 2.604e-10
 57.68884    -15.1 8.157e+03 2.391e-10
 57.69941    -14.4 8.024e+03 2.166e-10
 57.72979    -13.6 8.072e+03 2.227e-10
 57.77168    -12.6 8.077e+03 2.294e-10
 57.80332    -11.5 8.058e+03 2.261e-10
 57.82427    -11.2 7.995e+03 2.214e-10
 57.85546    -10.0 8.023e+03 2.138e-10
 57.89265     -9.1 8.062e+03 2.055e-10
 57.91359     -9.3 7.853e+03 1.618e-10
 57.92818     -8.9 8.072e+03 1.635e-10
 57.94912     -8.0 7.754e+03 1.291e-10
 57.98112     -8.1 8.162e+03 1.391e-10
 58.02301     -8.8 8.718e+03 2.299e-10
 58.05303     -8.7 9.219e+03 4.171e-10
 58.07397     -8.0 8.717e+03 2.743e-10
 58.10679     -7.2 9.283e+03 4.540e-10
 58.12891     -6.4 9.665e+03 5.765e-10
 58.14985     -6.8 9.533e+03 5.867e-10
 58.17788     -6.1 9.619e+03 6.109e-10
 58.19883     -5.1 9.654e+03 6.383e-10
 58.23245     -4.4 9.619e+03 6.285e-10
 58.27434     -3.1 9.286e+03 4.672e-10
 58.30274     -1.8 8.908e+03 2.878e-10
 58.32368     -0.7 8.885e+03 2.884e-10
 58.34422     -0.1 8.608e+03 1.724e-10
 58.36516     -0.3 8.671e+03 1.809e-10
 58.40000     -0.1 8.528e+03 1.521e-10
 58.42759      1.1 8.514e+03 1.511e-10
 58.44853      1.7 8.596e+03 1.617e-10
 58.48378      2.9 8.648e+03 2.021e-10
 58.52567      4.4 8.880e+03 2.324e-10
 58.55244      5.2 9.211e+03 2.595e-10
 58.56536      6.2 9.336e+03 2.953e-10
 58.58047      5.7 9.254e+03 1.851e-10
 58.60944      5.3 9.483e+03 2.253e-10
 58.65133      4.8 9.702e+03 3.882e-10
 58.67730      4.8 1.036e+04 7.086e-10
 58.69824      5.0 1.040e+04 6.788e-10
 58.73511      4.8 1.129e+04 1.162e-09
 58.77484      4.5 1.200e+04 1.521e-09
 58.79579      5.4 1.144e+04 1.064e-09
 58.80205      4.3 1.176e+04 1.053e-09
 58.81243      4.6 1.193e+04 1.240e-09
 58.82916      4.2 1.197e+04 1.034e-09
 58.85010      2.9 1.167e+04 8.361e-10
 58.86438      2.0 1.132e+04 7.145e-10
 58.87485      2.1 1.146e+04 8.437e-10
 58.89199      1.6 1.104e+04 7.375e-10
 58.90325      1.8 1.074e+04 6.663e-10
 58.91372      1.7 1.073e+04 5.960e-10
 58.92681      2.4 1.045e+04 5.571e-10
 58.93728      2.6 1.059e+04 6.405e-10
 58.95482      3.3 1.040e+04 5.493e-10
 58.98634      3.9 1.003e+04 4.118e-10
 59.01110      6.0 9.383e+03 2.129e-10
 59.03204      6.5 9.409e+03 2.367e-10
 59.05186      7.8 9.161e+03 1.439e-10
 59.07280      8.2 9.234e+03 1.530e-10
 59.11210      9.7 8.931e+03 1.197e-10
 59.15399     11.6 8.757e+03 1.103e-10
 59.17671     13.7 8.655e+03 1.123e-10
 59.19765     14.1 8.831e+03 1.271e-10
 59.22641     16.4 8.757e+03 1.400e-10
 59.24736     16.5 8.900e+03 1.795e-10
 59.27965     18.7 8.886e+03 2.015e-10
 59.30156     20.6 9.082e+03 2.213e-10
 59.32251     21.1 9.336e+03 2.476e-10
 59.36343     21.7 9.573e+03 3.309e-10
 59.40532     23.3 9.821e+03 5.346e-10
 59.44172     26.0 9.962e+03 6.500e-10
 59.46267     26.3 9.852e+03 5.687e-10
 59.48909     28.3 9.668e+03 4.827e-10
 59.53033     29.6 9.333e+03 3.301e-10
 59.55127     29.5 9.221e+03 2.793e-10
 59.57287     30.3 8.951e+03 2.319e-10
 59.61476     31.4 8.887e+03 2.280e-10
 59.65518     32.7 8.855e+03 2.704e-10
 59.67612     33.2 9.035e+03 2.684e-10
 59.67798     34.8 9.199e+03 3.653e-10
 59.69893     35.2 9.033e+03 3.258e-10
 59.74042     37.2 9.133e+03 4.079e-10
 59.78003     39.1 9.091e+03 3.975e-10
 59.80098     39.4 9.436e+03 4.752e-10
 59.82420     41.2 9.426e+03 4.642e-10
 59.86608     42.5 9.332e+03 4.169e-10
 59.89329     43.6 9.351e+03 4.101e-10
 59.91115     43.7 9.108e+03 3.403e-10
 59.92583     43.5 9.438e+03 4.089e-10
 59.94986     44.1 9.694e+03 4.763e-10
 59.99175     44.3 1.019e+04 6.660e-10
 60.02307     43.9 1.068e+04 9.038e-10
 60.04002     43.8 1.089e+04 1.093e-09
 60.05049     43.3 1.152e+04 1.315e-09
 60.06486     42.6 1.192e+04 1.741e-09
 60.08580     41.8 1.247e+04 2.277e-09
 60.10244     41.5 1.299e+04 2.670e-09
 60.11292     40.4 1.373e+04 4.277e-09
 60.11888     40.7 1.383e+04 4.355e-09
 60.12935     41.1 1.357e+04 3.940e-09
 60.14863     41.3 1.356e+04 3.705e-09
 60.16487     41.2 1.339e+04 2.964e-09
 60.17534     41.2 1.377e+04 4.183e-09
 60.19052     40.8 1.354e+04 2.971e-09
 60.21146     39.0 1.278e+04 1.910e-09
 60.24298     37.3 1.212e+04 1.492e-09
 60.27945     35.9 1.073e+04 8.126e-10
 60.30039     36.5 1.120e+04 9.610e-10
 60.32392     35.7 1.047e+04 6.323e-10
 60.34486     36.7 1.124e+04 9.535e-10
 60.36874     35.8 1.075e+04 7.106e-10
 60.40430     36.1 1.058e+04 6.351e-10
 60.42525     37.7 1.115e+04 9.180e-10
 60.45252     38.5 1.129e+04 9.014e-10
 60.47710     38.6 1.158e+04 9.624e-10
 60.48748     39.1 1.165e+04 1.061e-09
 60.50468     38.8 1.227e+04 1.254e-09
 60.52562     34.7 1.461e+04 2.172e-09
 60.53943     30.3 1.633e+04 5.756e-09
 60.54990     29.7 1.776e+04 7.116e-09
 60.55993     28.1 1.786e+04 1.298e-08
 60.56512     28.0 1.861e+04 1.565e-08
 60.57055     28.4 1.857e+04 2.240e-08
 60.57578     28.2 1.865e+04 2.720e-08
 60.58312     29.5 1.898e+04 3.006e-08
 60.59360     30.7 1.916e+04 2.815e-08
 60.60181     30.2 1.916e+04 1.710e-08
 60.61233     31.9 1.829e+04 2.084e-08
 60.63035     30.9 1.853e+04 7.412e-09
 60.65129     23.8 1.664e+04 2.112e-09
 60.66428     15.8 1.139e+04 9.512e-10
 60.67016     16.4 1.150e+04 7.755e-10
 60.67811     15.5 1.104e+04 7.763e-10
 60.70375     15.3 1.043e+04 6.589e-10
 60.74573     15.8 1.032e+04 7.020e-10
 60.77539     16.2 1.027e+04 7.228e-10
 60.78758     16.5 1.004e+04 6.687e-10
 60.79971     17.5 9.996e+03 6.506e-10
 60.81884     18.5 9.670e+03 5.479e-10
 60.83979     19.1 9.462e+03 4.685e-10
 60.87130     19.6 9.170e+03 3.453e-10
 60.90371     19.7 8.725e+03 2.434e-10
 60.92466     20.8 8.798e+03 2.300e-10
 60.95517     21.2 8.649e+03 2.210e-10
 60.99080     22.0 8.668e+03 2.634e-10
 61.01174     22.4 8.730e+03 2.862e-10
 61.02857     23.8 8.777e+03 2.962e-10
 61.04951     25.0 8.816e+03 2.958e-10
 61.08084     26.4 8.804e+03 2.363e-10
 61.12272     27.3 8.652e+03 1.696e-10
 61.15342     28.1 8.395e+03 1.337e-10
 61.17437     29.2 8.450e+03 1.242e-10
 61.20611     30.4 8.314e+03 1.018e-10
 61.22706     30.6 8.334e+03 1.039e-10
 61.24839     31.6 8.355e+03 9.141e-11
 61.27828     32.7 8.348e+03 9.472e-11
 61.29922     33.4 8.404e+03 8.164e-11
 61.33216     34.4 8.459e+03 1.024e-10
 61.37405     35.8 8.615e+03 1.327e-10
 61.40313     37.0 8.870e+03 1.662e-10
 61.42407     37.6 8.797e+03 1.589e-10
 61.44237     38.7 9.056e+03 1.953e-10
 61.46331     38.9 9.165e+03 2.160e-10
 61.49972     39.9 9.284e+03 2.590e-10
 61.52798     40.8 9.545e+03 2.875e-10
 61.54893     41.1 9.530e+03 2.845e-10
 61.58349     41.0 9.822e+03 3.276e-10
 61.62538     40.8 1.018e+04 4.265e-10
 61.65284     40.5 1.068e+04 5.713e-10
 61.66419     40.4 1.073e+04 5.771e-10
 61.67863     39.0 1.121e+04 7.481e-10
 61.70916     38.0 1.178e+04 1.353e-09
 61.75105     39.2 1.201e+04 1.657e-09
 61.77769     39.9 1.221e+04 1.393e-09
 61.79863     39.8 1.268e+04 1.692e-09
 61.83482     38.2 1.205e+04 1.106e-09
 61.87299     37.2 1.140e+04 9.464e-10
 61.89394     36.8 1.082e+04 6.491e-10
 61.90254     37.2 1.081e+04 5.690e-10
 61.92349     37.0 1.079e+04 5.702e-10
 61.96049     37.4 1.068e+04 5.087e-10
 62.00237     38.0 1.057e+04 5.056e-10
 62.02740     39.0 1.049e+04 5.325e-10
 62.04834     38.4 1.049e+04 5.515e-10
 62.08615     39.7 1.050e+04 5.894e-10
 62.10925     41.1 1.047e+04 6.107e-10
 62.13020     41.2 1.018e+04 5.241e-10
 62.15225     42.7 1.010e+04 4.535e-10
 62.17319     42.6 9.983e+03 4.012e-10
 62.21181     43.4 9.879e+03 3.144e-10
 62.25370     44.3 9.672e+03 2.997e-10
 62.27710     45.6 9.567e+03 2.969e-10
 62.29805     45.2 9.260e+03 2.097e-10
 62.32456     47.0 9.181e+03 2.028e-10
 62.34551     47.4 8.828e+03 1.133e-10
 62.37937     49.0 8.953e+03 9.480e-11
 62.40196     50.3 9.139e+03 8.487e-11
 62.42290     50.2 8.891e+03 5.703e-11
 62.46314     51.3 8.815e+03 5.480e-11
 62.50503     52.4 8.776e+03 5.736e-11
 62.52681     53.6 8.771e+03 6.684e-11
 62.54071     53.8 8.644e+03 6.633e-11
 62.56082     54.2 8.522e+03 5.600e-11
 62.58881     55.6 8.574e+03 7.040e-11
 62.63069     57.1 8.707e+03 9.050e-11
 62.67258     59.0 8.901e+03 1.187e-10
 62.71447     60.2 9.139e+03 1.603e-10
 62.75519     61.5 9.369e+03 2.090e-10
 62.77535     61.9 9.103e+03 1.479e-10
 62.77652     62.0 9.011e+03 1.209e-10
 62.79825     63.2 9.129e+03 1.388e-10
 62.84013     64.3 9.195e+03 1.424e-10
 62.88043     65.6 9.190e+03 1.388e-10
 62.90137     65.4 9.084e+03 1.089e-10
 62.92391     66.6 9.100e+03 1.035e-10
 62.96580     67.8 9.126e+03 9.623e-11
 62.99145     69.1 9.156e+03 9.357e-11
 63.00998     69.7 9.121e+03 9.177e-11
 63.02622     69.6 9.102e+03 8.793e-11
 63.04957     71.0 9.132e+03 8.914e-11
 63.09146     72.2 9.246e+03 9.800e-11
 63.13013     73.1 9.497e+03 1.364e-10
 63.15108     73.3 9.459e+03 1.280e-10
 63.17524     74.2 9.811e+03 2.227e-10
 63.20676     75.4 1.027e+04 4.012e-10
 63.22770     75.8 1.010e+04 3.113e-10
 63.25499     76.7 1.056e+04 5.273e-10
 63.27593     76.5 1.043e+04 4.207e-10
 63.30090     77.1 1.075e+04 6.132e-10
 63.34279     77.2 1.083e+04 6.927e-10
 63.37984     77.3 1.072e+04 6.603e-10
 63.40078     77.2 1.060e+04 5.778e-10
 63.42207     77.4 1.037e+04 5.227e-10
 63.44301     78.1 1.047e+04 5.340e-10
 63.46845     78.3 1.012e+04 4.276e-10
 63.50469     78.6 9.726e+03 3.102e-10
 63.52564     78.4 9.773e+03 3.314e-10
 63.55223     78.8 9.470e+03 2.440e-10
 63.59412     79.1 9.253e+03 1.681e-10
 63.62955     79.1 9.092e+03 1.257e-10
 63.65049     79.1 9.136e+03 1.321e-10
 63.65833     78.8 9.109e+03 1.282e-10
 63.67927     78.7 9.132e+03 1.372e-10
 63.71978     78.1 9.132e+03 1.503e-10
 63.75440     77.6 9.217e+03 2.074e-10
 63.77534     77.2 9.579e+03 3.031e-10
 63.80356     77.1 9.803e+03 4.337e-10
 63.84545     77.0 9.816e+03 4.421e-10
 63.87364     76.9 9.635e+03 3.725e-10
 63.88650     77.1 9.483e+03 3.090e-10
 63.90020     76.8 9.689e+03 3.581e-10
 63.92922     76.4 9.249e+03 2.074e-10
 63.97111     75.6 8.903e+03 1.218e-10
 64.00411     75.0 8.609e+03 8.602e-11
 64.02505     74.2 8.593e+03 1.045e-10
 64.05489     74.4 8.556e+03 1.055e-10
 64.08895     75.0 8.582e+03 1.116e-10
 64.10990     75.2 8.656e+03 1.233e-10
 64.12896     75.5 8.798e+03 1.524e-10
 64.14991     75.0 9.003e+03 1.818e-10
 64.18055     75.2 9.193e+03 2.226e-10
 64.22244     75.3 9.395e+03 2.717e-10
 64.25381     75.3 9.565e+03 3.145e-10
 64.27476     74.5 9.579e+03 3.108e-10
 64.30426     74.6 9.581e+03 3.111e-10
 64.32521     74.5 9.819e+03 3.947e-10
 64.34810     74.9 9.671e+03 3.393e-10
 64.37867     75.4 9.476e+03 2.526e-10
 64.39961     74.6 9.373e+03 1.977e-10
 64.43188     75.0 9.198e+03 1.510e-10
 64.47377     75.5 9.041e+03 1.287e-10
 64.50352     76.3 9.072e+03 1.271e-10
 64.52447     76.0 8.969e+03 1.229e-10
 64.54052     77.1 9.075e+03 1.204e-10
 64.56147     76.9 9.113e+03 1.232e-10
 64.59943     78.0 9.176e+03 1.280e-10
 64.62837     79.1 9.282e+03 1.339e-10
 64.64932     78.6 9.124e+03 1.095e-10
 64.68321     79.6 9.165e+03 1.121e-10
 64.72510     80.6 9.180e+03 1.192e-10
 64.75323     81.6 9.177e+03 1.334e-10
 64.76302     81.4 9.022e+03 1.285e-10
 64.77678     81.4 9.039e+03 1.349e-10
 64.80887     82.5 9.103e+03 1.547e-10
 64.85076     83.5 9.192e+03 1.796e-10
 64.87808     84.4 9.283e+03 2.106e-10
 64.89903     84.1 9.184e+03 1.994e-10
 64.93454     84.9 9.336e+03 2.498e-10
 64.97115     85.7 9.476e+03 2.991e-10
 64.99209     85.7 9.529e+03 3.220e-10
 65.00294     86.4 9.626e+03 3.484e-10
 65.02388     86.2 9.491e+03 3.194e-10
 65.06020     86.7 9.478e+03 3.135e-10
 65.10209     87.2 9.379e+03 2.843e-10
 65.12779     87.6 9.224e+03 2.450e-10
 65.14873     87.5 8.948e+03 1.716e-10
 65.18586     87.8 8.809e+03 1.499e-10
 65.20740     88.3 8.699e+03 1.382e-10
 65.22835     88.8 8.745e+03 1.498e-10
 65.25264     89.5 8.653e+03 1.348e-10
 65.27359     89.6 8.438e+03 9.667e-11
 65.31153     90.4 8.377e+03 8.907e-11
 65.35342     91.3 8.330e+03 8.256e-11
 65.37750     92.3 8.330e+03 8.142e-11
 65.39844     92.5 8.181e+03 6.226e-11
 65.42272     93.6 8.182e+03 6.376e-11
 65.44366     94.0 8.255e+03 6.884e-11
 65.47908     95.0 8.292e+03 7.760e-11
 65.50235     96.0 8.413e+03 9.947e-11
 65.52329     96.5 8.233e+03 9.435e-11
 65.56286     97.6 8.449e+03 1.293e-10
 65.60474     98.7 8.779e+03 1.938e-10
 65.62720     99.6 9.278e+03 3.095e-10
 65.63954    100.2 9.178e+03 2.893e-10
 65.65897    100.1 9.406e+03 3.324e-10
 65.68852    100.1 1.011e+04 5.711e-10
 65.73041    100.0 1.088e+04 9.437e-10
 65.75206     99.8 1.138e+04 1.178e-09
 65.77300    100.4 1.103e+04 9.602e-10
 65.81418     99.7 1.108e+04 9.539e-10
 65.85334     99.2 1.082e+04 7.722e-10
 65.87418     98.6 1.052e+04 6.142e-10
 65.89785     98.8 9.629e+03 2.542e-10
 65.93985     98.2 9.050e+03 1.472e-10
 65.98082     97.8 8.940e+03 1.402e-10
 66.00176     98.8 8.923e+03 1.312e-10
 66.02362     98.5 9.001e+03 1.546e-10
 66.06551     97.8 9.387e+03 2.836e-10
 66.08960     97.1 1.049e+04 6.608e-10
 66.10881     97.0 1.036e+04 6.191e-10
 66.12662     98.4 1.021e+04 5.395e-10
 66.14929     97.1 1.118e+04 9.682e-10
 66.19118     94.9 1.176e+04 1.129e-09
 66.23053     92.3 1.170e+04 1.044e-09
 66.25137     92.7 1.180e+04 1.042e-09
 66.26429     91.5 1.176e+04 9.828e-10
 66.28523     90.1 1.164e+04 8.583e-10
 66.30323     88.5 1.148e+04 7.486e-10
 66.31224     89.6 1.160e+04 8.471e-10
 66.31519     90.1 1.137e+04 7.905e-10
 66.32712     88.9 1.135e+04 7.828e-10
 66.34806     87.5 1.146e+04 8.097e-10
 66.36566     85.2 1.195e+04 9.549e-10
 66.37613     86.7 1.192e+04 1.003e-09
 66.38995     83.8 1.280e+04 1.385e-09
 66.41089     81.1 1.371e+04 2.191e-09
 66.42284     79.2 1.394e+04 2.776e-09
 66.42956     79.6 1.417e+04 3.092e-09
 66.43855     80.4 1.455e+04 3.203e-09
 66.45278     78.4 1.442e+04 3.202e-09
 66.47373     77.0 1.381e+04 2.527e-09
 66.49051     75.5 1.287e+04 1.565e-09
 66.50098     75.8 1.325e+04 1.890e-09
 66.51561     73.7 1.224e+04 1.101e-09
 66.53050     71.3 1.133e+04 6.405e-10
 66.54097     71.4 1.137e+04 6.654e-10
 66.55294     68.9 1.077e+04 4.219e-10
 66.56341     69.8 1.105e+04 5.365e-10
 66.57845     67.9 1.061e+04 3.738e-10
 66.60499     67.1 1.008e+04 2.783e-10
 66.62603     68.0 1.043e+04 3.242e-10
 66.65194     67.1 9.803e+03 1.993e-10
 66.69383     66.7 9.598e+03 1.395e-10
 66.72994     66.5 9.513e+03 1.277e-10
 66.75070     66.8 9.535e+03 1.056e-10
 66.77742     67.4 9.540e+03 1.011e-10
 66.81950     67.8 9.638e+03 1.392e-10
 66.85479     67.8 1.011e+04 2.382e-10
 66.87574     68.1 1.013e+04 2.328e-10
 66.89270     67.8 1.047e+04 3.139e-10
 66.91355     67.1 1.085e+04 4.325e-10
 66.92750     66.0 1.138e+04 6.689e-10
 66.93797     65.8 1.155e+04 6.922e-10
 66.95544     64.3 1.212e+04 1.128e-09
 66.97160     63.2 1.254e+04 1.678e-09
 66.98207     63.4 1.251e+04 1.661e-09
 66.98992     62.9 1.275e+04 2.082e-09
 67.00040     62.6 1.287e+04 2.327e-09
 67.02884     62.2 1.258e+04 1.843e-09
 67.07083     61.5 1.145e+04 8.260e-10
 67.10450     59.3 1.043e+04 2.260e-10
 67.12544     57.2 1.012e+04 1.591e-10
 67.15460     54.5 9.302e+03 1.009e-10
 67.18710     54.4 9.211e+03 1.027e-10
 67.20805     54.5 9.316e+03 1.163e-10
 67.22935     55.0 9.273e+03 1.312e-10
 67.25030     54.9 9.282e+03 1.382e-10
 67.28027     55.5 9.330e+03 1.432e-10
 67.32215     56.1 9.352e+03 1.401e-10
 67.35421     56.4 9.444e+03 1.447e-10
 67.37515     56.4 9.575e+03 1.917e-10
 67.40242     56.5 9.720e+03 2.131e-10
 67.42336     56.6 9.656e+03 1.633e-10
 67.44782     56.5 9.786e+03 1.882e-10
 67.47906     56.7 9.806e+03 2.310e-10
 67.50000     56.2 9.886e+03 2.724e-10
 67.53159     56.8 9.858e+03 3.098e-10
 67.57348     57.2 9.904e+03 3.133e-10
 67.60391     56.9 1.001e+04 3.217e-10
 67.62486     56.5 9.962e+03 3.305e-10
 67.63867     55.6 1.011e+04 3.507e-10
 67.65962     56.0 1.038e+04 4.438e-10
 67.69915     54.8 1.057e+04 4.988e-10
 67.72877     54.1 1.080e+04 5.680e-10
 67.74971     54.1 1.017e+04 3.388e-10
 67.78292     53.4 1.022e+04 3.677e-10
 67.82481     53.6 1.006e+04 3.693e-10
 67.85362     54.9 9.736e+03 3.045e-10
 67.86185     55.3 9.686e+03 3.033e-10
 67.87493     55.6 9.529e+03 2.552e-10
 67.90859     57.0 9.333e+03 1.721e-10
 67.95047     57.9 9.192e+03 1.169e-10
 67.97847     58.9 9.024e+03 9.070e-11
 67.99942     59.7 9.083e+03 1.072e-10
 68.03425     61.2 8.996e+03 8.719e-11
 68.06930     62.8 8.976e+03 7.392e-11
 68.09024     63.2 8.977e+03 7.751e-11
 68.10333     64.5 9.076e+03 7.147e-11
 68.12427     64.7 9.142e+03 1.013e-10
 68.15991     66.3 9.269e+03 1.085e-10
 68.20180     67.7 9.497e+03 1.139e-10
 68.22808     67.4 9.934e+03 1.358e-10
 68.23846     66.0 1.075e+04 1.920e-10
 68.25397     61.0 1.282e+04 4.597e-10
 68.27491     57.5 1.379e+04 1.332e-09
 68.29041     58.1 1.434e+04 3.003e-09
 68.29992     58.7 1.558e+04 7.068e-09
 68.30536     59.0 1.526e+04 6.133e-09
 68.31680     60.3 1.544e+04 6.929e-09
 68.33774     60.8 1.545e+04 6.119e-09
 68.35284     60.7 1.498e+04 3.987e-09
 68.36331     59.7 1.506e+04 3.875e-09
 68.37963     57.3 1.404e+04 2.260e-09
 68.41114     55.3 1.264e+04 1.147e-09
 68.45313     54.5 1.168e+04 6.457e-10
 68.47789     55.2 1.155e+04 6.210e-10
 68.49883     55.0 1.072e+04 3.645e-10
 68.52087     56.3 1.072e+04 3.784e-10
 68.54181     57.2 1.079e+04 4.031e-10
 68.57879     58.7 1.095e+04 4.466e-10
 68.60274     59.9 1.127e+04 5.388e-10
 68.62369     60.3 1.054e+04 2.969e-10
 68.66257     61.2 1.115e+04 5.133e-10
 68.70446     61.9 1.208e+04 1.018e-09
 68.72750     62.5 1.263e+04 1.503e-09
 68.73787     63.2 1.262e+04 1.446e-09
 68.74646     63.6 1.307e+04 2.035e-09
 68.75693     64.1 1.321e+04 2.168e-09
 68.77757     65.0 1.350e+04 2.725e-09
 68.78983     66.0 1.350e+04 2.674e-09
 68.80030     66.3 1.374e+04 2.757e-09
 68.81946     67.0 1.374e+04 2.527e-09
 68.84040     67.2 1.363e+04 1.964e-09
 68.85225     67.0 1.338e+04 1.409e-09
 68.85550     67.2 1.344e+04 1.548e-09
 68.86459     68.1 1.381e+04 1.767e-09
 68.88229     67.4 1.339e+04 1.286e-09
 68.90323     66.7 1.293e+04 1.012e-09
 68.91468     66.4 1.261e+04 8.753e-10
 68.92515     66.7 1.268e+04 8.961e-10
 68.94512     66.7 1.255e+04 8.841e-10
 68.96177     66.9 1.254e+04 8.944e-10
 68.97224     67.0 1.260e+04 8.871e-10
 68.97711     67.1 1.260e+04 9.357e-10
 68.98758     67.4 1.264e+04 9.295e-10
 69.00795     67.6 1.263e+04 1.026e-09
 69.02890     67.8 1.260e+04 1.127e-09
 69.03953     68.2 1.253e+04 1.137e-09
 69.05001     68.5 1.252e+04 1.138e-09
 69.06943     69.1 1.237e+04 1.102e-09
 69.07990     69.2 1.248e+04 1.176e-09
 69.09149     70.1 1.212e+04 1.038e-09
 69.10196     70.4 1.224e+04 1.080e-09
 69.12324     72.1 1.178e+04 7.010e-10
 69.16523     73.5 1.129e+04 3.648e-10
 69.18775     74.2 1.087e+04 1.828e-10
 69.20764     74.6 1.086e+04 1.633e-10
 69.22701     76.3 1.107e+04 2.322e-10
 69.24900     77.1 1.063e+04 1.659e-10
 69.29089     78.4 1.054e+04 1.708e-10
 69.33092     80.0 1.049e+04 2.049e-10
 69.35186     81.4 1.077e+04 2.382e-10
 69.37467     83.1 1.081e+04 2.950e-10
 69.40306     84.7 1.079e+04 3.069e-10
 69.42401     85.3 1.078e+04 3.054e-10
 69.45577     87.0 1.068e+04 2.795e-10
 69.47672     88.0 1.100e+04 3.564e-10
 69.50033     89.5 1.084e+04 2.774e-10
 69.54222     90.4 1.059e+04 1.929e-10
 69.58063     91.0 1.026e+04 1.481e-10
 69.60147     91.4 1.036e+04 1.558e-10
 69.61533     92.0 1.025e+04 1.546e-10
 69.62865     92.2 1.026e+04 1.552e-10
 69.63922     92.7 1.029e+04 1.661e-10
 69.65343     93.2 1.024e+04 1.713e-10
 69.66380     93.2 1.034e+04 1.784e-10
 69.67816     93.5 1.040e+04 1.896e-10
 69.69910     93.8 1.056e+04 2.189e-10
 69.71576     93.9 1.076e+04 2.545e-10
 69.72623     92.9 1.179e+04 4.121e-10
 69.73631     92.6 1.222e+04 6.057e-10
 69.74678     93.4 1.182e+04 5.065e-10
 69.76194     93.6 1.208e+04 7.083e-10
 69.77818     94.0 1.237e+04 9.437e-10
 69.78865     93.5 1.461e+04 2.662e-09
 69.80382     94.1 1.478e+04 2.838e-09
 69.82477     94.3 1.479e+04 2.808e-09
 69.84061     94.1 1.478e+04 2.768e-09
 69.84933     93.0 1.593e+04 5.050e-09
 69.85444     93.2 1.538e+04 3.933e-09
 69.86666     92.7 1.540e+04 4.042e-09
 69.88760     92.3 1.551e+04 4.450e-09
 69.90304     91.9 1.577e+04 5.260e-09
 69.91351     91.0 1.602e+04 5.900e-09
 69.92949     91.1 1.629e+04 6.866e-09
 69.95043     91.5 1.654e+04 7.839e-09
 69.96209     91.7 1.655e+04 8.048e-09
 69.96665     91.7 1.646e+04 7.874e-09
 69.97593     91.2 1.635e+04 7.391e-09
 69.99232     91.4 1.626e+04 7.196e-09
 70.01326     91.6 1.590e+04 6.355e-09
 70.02789     91.7 1.531e+04 4.982e-09
 70.03836     90.8 1.524e+04 4.484e-09
 70.05515     90.3 1.458e+04 3.533e-09
 70.06975     89.8 1.370e+04 2.580e-09
 70.08022     90.5 1.404e+04 3.021e-09
 70.09032     89.8 1.305e+04 1.998e-09
 70.10079     89.6 1.333e+04 2.405e-09
 70.11798     89.3 1.245e+04 1.590e-09
 70.13893     88.9 1.170e+04 1.125e-09
 70.15274     89.1 1.090e+04 7.786e-10
 70.16321     89.1 1.141e+04 1.005e-09
 70.17740     89.0 1.089e+04 8.200e-10
 70.18788     88.9 1.090e+04 8.204e-10
 70.20480     89.9 1.020e+04 5.485e-10
 70.22584     90.0 1.115e+04 9.245e-10
 70.25432     91.2 1.019e+04 5.498e-10
 70.28526     92.6 9.532e+03 3.186e-10
 70.30620     92.7 9.460e+03 3.107e-10
 70.32975     94.1 9.076e+03 1.892e-10
 70.35069     93.9 9.462e+03 2.679e-10
 70.37998     95.2 9.104e+03 2.097e-10
 70.42187     97.0 9.021e+03 2.098e-10
 70.45460     99.1 8.991e+03 2.122e-10
 70.47554     99.0 9.409e+03 2.924e-10
 70.50057    101.1 9.373e+03 3.026e-10
 70.52151    101.2 9.161e+03 2.467e-10
 70.54753    103.2 9.196e+03 2.751e-10
 70.57945    105.1 9.248e+03 3.142e-10
 70.60030    105.3 9.494e+03 3.719e-10
 70.63121    107.1 9.554e+03 4.147e-10
 70.67320    108.8 9.634e+03 4.652e-10
 70.70431    110.4 9.684e+03 4.957e-10
 70.72525    110.5 1.002e+04 5.998e-10
 70.73683    112.0 9.990e+03 6.042e-10
 70.75777    111.6 1.023e+04 6.986e-10
 70.79886    113.1 1.018e+04 6.890e-10
 70.82916    114.6 1.016e+04 6.839e-10
 70.85010    114.8 1.083e+04 9.888e-10
 70.88264    116.4 1.090e+04 1.032e-09
 70.92452    117.9 1.091e+04 1.042e-09
 70.95214    119.6 1.087e+04 1.019e-09
 70.96068    118.8 1.086e+04 1.028e-09
 70.97496    118.6 1.132e+04 1.205e-09
 71.00830    120.3 1.102e+04 1.052e-09
 71.05019    122.0 1.054e+04 7.937e-10
 71.07887    123.5 9.985e+03 5.593e-10
 71.09981    123.1 1.017e+04 6.409e-10
 71.13396    124.3 9.823e+03 5.301e-10
 71.16745    125.6 9.792e+03 5.249e-10
 71.18839    124.6 9.140e+03 3.329e-10
 71.20372    125.9 9.201e+03 3.534e-10
 71.22466    125.5 9.624e+03 4.831e-10
 71.25963    126.4 9.790e+03 5.376e-10
 71.30152    127.3 9.977e+03 5.996e-10
 71.32857    127.9 1.010e+04 6.397e-10
 71.34952    127.4 9.694e+03 4.857e-10
 71.38276    127.8 9.365e+03 3.923e-10
 71.40371    127.4 8.759e+03 2.606e-10
 71.42718    127.5 8.387e+03 2.124e-10
 71.45343    127.5 8.007e+03 1.793e-10
 71.47437    127.4 7.879e+03 1.514e-10
 71.51096    127.9 7.950e+03 1.712e-10
 71.55284    128.4 8.085e+03 2.041e-10
 71.57828    128.7 8.244e+03 2.415e-10
 71.59923    129.7 8.248e+03 2.481e-10
 71.61902    129.7 8.455e+03 2.898e-10
 71.63996    128.7 8.749e+03 3.379e-10
 71.67851    128.3 8.906e+03 3.796e-10
 71.70304    128.5 8.894e+03 3.861e-10
 71.71341    129.0 8.910e+03 3.907e-10
 71.72648    128.8 8.944e+03 4.023e-10
 71.73695    128.1 9.089e+03 4.466e-10
 71.75162    127.8 9.142e+03 4.596e-10
 71.76537    125.9 1.075e+04 5.211e-10
 71.77584    127.0 9.555e+03 5.193e-10
 71.79351    120.3 1.501e+04 8.556e-10
 71.81445    106.6 2.143e+04 3.868e-09
 71.82779     98.0 2.019e+04 1.228e-08
 71.83701    100.6 1.996e+04 9.255e-09
 71.84461     97.0 1.910e+04 1.311e-08
 71.85634     96.1 1.815e+04 1.254e-08
 71.87728     95.8 1.689e+04 8.216e-09
 71.89022     94.0 1.705e+04 2.774e-09
 71.90069     92.8 1.675e+04 2.781e-09
 71.91917     89.6 1.586e+04 6.982e-10
 71.94011     82.3 1.404e+04 2.673e-10
 71.95274     72.4 8.389e+03 2.438e-10
 71.97379     74.6 8.434e+03 2.380e-10
 72.01361     74.8 8.201e+03 2.447e-10
 72.04964     75.6 8.087e+03 2.450e-10
 72.07059     76.4 7.935e+03 2.107e-10
 72.07770     77.5 7.826e+03 1.944e-10
 72.09864     79.1 8.017e+03 2.278e-10
 72.13928     80.1 7.893e+03 2.011e-10
 72.18117     80.8 7.703e+03 1.584e-10
 72.20255     81.3 7.589e+03 1.325e-10
 72.22349     82.7 7.703e+03 1.454e-10
 72.26494     82.8 7.716e+03 1.415e-10
 72.30646     83.8 7.897e+03 1.629e-10
 72.32740     85.0 7.916e+03 1.646e-10
 72.34872     85.0 8.166e+03 2.002e-10
 72.39061     85.4 8.455e+03 2.632e-10
 72.43131     85.9 8.670e+03 3.144e-10
 72.45226     86.9 8.672e+03 3.125e-10
 72.47438     87.6 8.720e+03 3.195e-10
 72.50121     88.3 8.678e+03 3.041e-10
 72.52216     88.9 8.828e+03 3.222e-10
 72.55616     89.7 8.621e+03 2.557e-10
 72.57711     90.5 8.624e+03 2.512e-10
 72.60005     91.1 8.372e+03 1.844e-10
 72.64193     91.7 8.173e+03 1.442e-10
 72.68102     92.6 8.046e+03 1.223e-10
 72.70196     93.5 8.106e+03 1.339e-10
 72.71653     94.8 8.082e+03 1.226e-10
 72.73747     95.4 8.060e+03 1.130e-10
 72.76760     96.9 8.075e+03 9.721e-11
 72.80587     98.2 8.186e+03 8.343e-11
 72.82682     99.2 8.236e+03 9.145e-11
 72.85137    100.4 8.346e+03 8.277e-11
 72.89326    101.6 8.445e+03 8.480e-11
 72.93073    102.7 8.588e+03 9.562e-11
 72.94836    103.7 8.562e+03 9.081e-11
 72.95278    104.3 8.392e+03 7.515e-11
 72.97704    105.4 8.457e+03 8.463e-11
 73.01893    106.6 8.477e+03 9.780e-11
 73.05558    107.9 8.468e+03 1.107e-10
 73.07652    108.6 8.461e+03 1.098e-10
 73.10270    110.1 8.488e+03 1.246e-10
 73.14459    111.6 8.498e+03 1.258e-10
 73.16810    113.2 8.485e+03 1.218e-10
 73.18299    113.9 8.502e+03 1.301e-10
 73.20138    114.6 8.555e+03 1.437e-10
 73.22837    116.1 8.521e+03 1.333e-10
 73.27025    117.6 8.474e+03 1.155e-10
 73.30529    118.9 8.433e+03 9.901e-11
 73.32623    119.4 8.470e+03 1.064e-10
 73.35403    120.6 8.423e+03 9.566e-11
 73.38341    121.9 8.381e+03 9.384e-11
 73.40435    122.7 8.390e+03 9.397e-11
 73.43014    124.1 8.382e+03 9.393e-11
 73.45108    124.4 8.415e+03 1.024e-10
 73.47969    125.8 8.416e+03 1.048e-10
 73.52158    127.4 8.448e+03 1.114e-10
 73.55499    129.1 8.497e+03 1.202e-10
 73.57594    129.3 8.579e+03 1.363e-10
 73.59872    131.1 8.666e+03 1.489e-10
 73.61966    131.6 8.666e+03 1.462e-10
 73.64725    133.4 8.750e+03 1.590e-10
 73.67985    135.2 8.837e+03 1.680e-10
 73.70079    135.1 8.912e+03 1.800e-10
 73.73102    136.8 8.948e+03 1.804e-10
 73.77291    138.6 8.955e+03 1.765e-10
 73.80470    140.4 8.939e+03 1.647e-10
 73.82488    140.1 8.936e+03 1.586e-10
 73.83498    140.3 8.986e+03 1.734e-10
 73.85669    142.2 9.016e+03 1.725e-10
 73.89857    144.0 9.054e+03 1.742e-10
 73.92955    145.8 9.112e+03 1.747e-10
 73.95050    145.4 8.995e+03 1.447e-10
 73.98235    147.2 9.007e+03 1.450e-10
 74.02424    149.0 9.041e+03 1.470e-10
 74.05029    150.8 9.075e+03 1.522e-10
 74.05951    151.0 9.234e+03 1.757e-10
 74.07535    150.4 9.137e+03 1.466e-10
 74.10801    152.3 9.190e+03 1.591e-10
 74.14990    154.1 9.243e+03 1.747e-10
 74.17926    156.1 9.287e+03 1.903e-10
 74.20020    155.6 9.255e+03 1.840e-10
 74.23368    157.7 9.324e+03 2.034e-10
 74.26560    159.8 9.388e+03 2.184e-10
 74.28655    159.8 9.486e+03 2.519e-10
 74.30411    161.8 9.654e+03 2.804e-10
 74.32506    161.2 9.867e+03 3.398e-10
 74.35934    162.8 1.008e+04 3.927e-10
 74.40123    164.6 1.024e+04 4.392e-10
 74.42897    166.4 1.058e+04 5.063e-10
 74.44991    165.1 1.133e+04 8.470e-10
 74.48091    166.5 1.158e+04 9.380e-10
 74.50186    165.8 1.210e+04 1.237e-09
 74.52689    166.6 1.219e+04 1.216e-09
 74.55372    166.4 1.217e+04 1.166e-09
 74.57467    164.7 1.209e+04 1.105e-09
 74.61067    165.2 1.162e+04 7.729e-10
 74.64199    164.5 1.114e+04 5.830e-10
 74.66284    164.4 1.073e+04 4.630e-10
 74.67848    164.6 1.035e+04 3.854e-10
 74.68895    163.6 1.039e+04 4.037e-10
 74.70472    164.2 1.013e+04 3.664e-10
 74.71698    165.0 1.009e+04 3.644e-10
 74.72745    165.0 9.954e+03 3.421e-10
 74.74091    165.8 9.962e+03 3.446e-10
 74.75138    165.4 1.002e+04 3.688e-10
 74.76756    166.3 1.007e+04 3.822e-10
 74.78850    167.2 1.021e+04 4.159e-10
 74.80333    168.0 1.039e+04 4.682e-10
 74.81380    167.7 1.039e+04 4.689e-10
 74.82463    168.4 1.058e+04 5.383e-10
 74.83510    168.6 1.035e+04 4.948e-10
 74.85133    169.3 1.052e+04 5.644e-10
 74.86576    170.0 1.070e+04 6.523e-10
 74.87623    169.8 1.063e+04 6.259e-10
 74.89322    170.4 1.083e+04 7.179e-10
 74.91416    170.9 1.103e+04 8.244e-10
 74.92819    171.2 1.124e+04 9.397e-10
 74.93584    170.8 1.136e+04 9.717e-10
 74.94276    171.3 1.097e+04 8.562e-10
 74.95605    171.6 1.126e+04 9.973e-10
 74.97700    171.8 1.155e+04 1.148e-09
 74.99061    172.0 1.175e+04 1.255e-09
 75.00108    171.6 1.237e+04 1.710e-09
 75.01888    171.8 1.249e+04 1.783e-09
 75.03983    172.0 1.247e+04 1.771e-09
 75.05042    172.2 1.234e+04 1.686e-09
 75.05316    173.0 1.189e+04 1.366e-09
 75.06351    172.7 1.262e+04 1.975e-09
 75.08172    173.1 1.236e+04 1.772e-09
 75.10266    173.6 1.199e+04 1.498e-09
 75.11547    174.1 1.159e+04 1.223e-09
 75.12594    174.0 1.215e+04 1.685e-09
 75.14455    174.5 1.167e+04 1.314e-09
 75.15807    175.0 1.124e+04 1.019e-09
 75.16855    175.8 1.119e+04 9.758e-10
 75.17789    176.4 1.085e+04 7.777e-10
 75.18836    176.4 1.116e+04 9.743e-10
 75.20738    176.9 1.077e+04 7.514e-10
 75.22832    177.3 1.046e+04 6.032e-10
 75.24032    177.8 1.022e+04 5.088e-10
 75.25079    177.9 1.028e+04 5.618e-10
 75.26573    178.4 1.008e+04 4.910e-10
 75.27620    179.5 1.022e+04 5.117e-10
 75.29116    180.1 1.006e+04 4.615e-10
 75.30275    180.7 9.906e+03 4.338e-10
 75.31322    180.9 1.002e+04 4.885e-10
 75.33304    181.6 9.978e+03 4.779e-10
 75.35399    182.3 9.989e+03 4.787e-10
 75.36517    182.7 1.003e+04 4.855e-10
 75.37410    183.2 1.022e+04 5.640e-10
 75.38386    184.2 1.022e+04 5.547e-10
 75.39588    184.4 1.028e+04 5.642e-10
 75.41682    184.4 1.042e+04 6.010e-10
 75.42760    184.2 1.070e+04 6.966e-10
 75.43807    184.8 1.090e+04 8.021e-10
 75.45871    184.3 1.126e+04 9.717e-10
 75.47955    183.7 1.165e+04 1.222e-09
 75.49003    184.4 1.173e+04 1.274e-09
 75.49151    183.7 1.201e+04 1.470e-09
 75.50199    184.5 1.209e+04 1.506e-09
 75.52154    183.5 1.223e+04 1.579e-09
 75.54198    182.3 1.221e+04 1.561e-09
 75.55245    182.6 1.216e+04 1.523e-09
 75.56343    181.3 1.202e+04 1.414e-09
 75.58437    179.9 1.172e+04 1.212e-09
 75.59917    178.4 1.135e+04 1.007e-09
 75.60873    178.8 1.146e+04 1.003e-09
 75.61488    178.9 1.145e+04 1.060e-09
 75.62626    177.2 1.116e+04 9.371e-10
 75.64720    175.6 1.111e+04 9.264e-10
 75.66683    174.2 1.116e+04 9.474e-10
 75.67731    174.4 1.148e+04 1.134e-09
 75.68909    172.9 1.183e+04 1.303e-09
 75.70683    171.3 1.230e+04 1.577e-09
 75.71730    170.3 1.235e+04 1.564e-09
 75.72926    168.8 1.288e+04 1.968e-09
 75.73973    168.1 1.369e+04 2.668e-09
 75.75192    166.7 1.402e+04 2.999e-09
 75.77287    165.2 1.404e+04 3.000e-09
 75.79169    163.9 1.392e+04 2.847e-09
 75.80216    162.6 1.444e+04 3.151e-09
 75.81448    161.1 1.383e+04 2.398e-09
 75.82495    159.7 1.349e+04 2.109e-09
 75.83570    158.0 1.264e+04 1.486e-09
 75.85411    156.5 1.179e+04 1.077e-09
 75.86459    153.5 1.180e+04 1.099e-09
 75.87759    152.7 1.137e+04 9.653e-10
 75.89853    152.3 1.119e+04 9.204e-10
 75.91654    152.6 1.115e+04 9.133e-10
 75.92701    150.6 1.184e+04 1.310e-09
 75.93261    151.3 1.192e+04 1.355e-09
 75.94308    150.8 1.183e+04 1.300e-09
 75.96136    151.6 1.186e+04 1.306e-09
 75.97897    152.4 1.186e+04 1.299e-09
 75.98944    150.4 1.275e+04 1.918e-09
 76.00325    151.2 1.275e+04 1.893e-09
 76.02420    152.1 1.269e+04 1.813e-09
 76.04027    153.0 1.256e+04 1.688e-09
 76.04699    152.5 1.252e+04 1.664e-09
 76.05187    150.3 1.333e+04 2.397e-09
 76.06608    151.2 1.321e+04 2.275e-09
 76.08703    152.2 1.311e+04 2.150e-09
 76.10382    153.1 1.304e+04 2.033e-09
 76.11429    150.7 1.400e+04 3.006e-09
 76.12892    151.4 1.418e+04 3.106e-09
 76.14792    152.0 1.445e+04 3.312e-09
 76.15840    152.0 1.440e+04 3.438e-09
 76.16625    152.8 1.480e+04 3.850e-09
 76.17672    150.5 1.567e+04 5.066e-09
 76.19175    151.5 1.608e+04 5.819e-09
 76.21269    152.4 1.647e+04 6.653e-09
 76.22867    153.5 1.683e+04 7.553e-09
 76.23915    152.1 1.664e+04 7.080e-09
 76.25458    153.5 1.693e+04 7.795e-09
 76.26605    154.8 1.721e+04 8.369e-09
 76.27652    155.1 1.734e+04 8.833e-09
 76.29110    156.3 1.762e+04 9.291e-09
 76.30157    155.4 1.643e+04 5.080e-09
 76.31741    156.2 1.640e+04 4.547e-09
 76.33836    156.8 1.621e+04 3.770e-09
 76.35353    157.2 1.578e+04 2.875e-09
 76.36400    153.4 1.295e+04 1.208e-09
 76.37371    153.0 1.221e+04 1.140e-09
 76.38418    154.6 1.270e+04 1.368e-09
 76.40119    154.4 1.233e+04 1.345e-09
 76.41596    154.6 1.233e+04 1.363e-09
 76.42643    151.9 1.272e+04 1.626e-09
 76.44308    152.4 1.332e+04 2.023e-09
 76.46402    153.5 1.401e+04 2.530e-09
 76.47838    155.0 1.455e+04 2.955e-09
 76.48357    153.8 1.493e+04 3.560e-09
 76.48650    154.5 1.515e+04 3.796e-09
 76.49174    154.9 1.554e+04 4.084e-09
 76.50058    155.7 1.588e+04 4.519e-09
 76.50950    156.3 1.642e+04 5.031e-09
 76.51473    153.9 1.966e+04 7.588e-09
 76.52152    153.9 2.071e+04 9.196e-09
 76.53199    153.7 2.157e+04 1.143e-08
 76.54033    153.9 2.254e+04 1.494e-08
 76.54381    153.4 2.672e+04 2.271e-08
 76.54592    149.9 3.461e+04 5.052e-08
 76.55027    150.2 3.503e+04 5.113e-08
 76.55550    149.8 3.642e+04 5.510e-08
 76.55889    148.1 3.889e+04 6.707e-08
 76.56150    141.1 2.724e+04 1.034e-06
 76.56598    139.3 2.322e+04 2.298e-06
 76.56981    138.4 2.028e+04 4.803e-06
 76.57243    142.9 1.957e+04 6.555e-06
 76.57449    142.8 1.840e+04 9.896e-06
 76.57711    144.5 1.789e+04 1.175e-05
 76.58168    145.4 1.796e+04 1.201e-05
 76.58692    144.2 1.808e+04 1.151e-05
 76.59010    141.6 1.863e+04 9.270e-06
 76.59272    136.3 2.219e+04 1.659e-06
 76.59673    130.5 2.423e+04 9.271e-07
 76.59935    132.6 2.439e+04 8.321e-07
 76.60263    126.3 2.802e+04 4.230e-07
 76.60571    120.8 3.261e+04 2.119e-07
 76.60835    122.1 3.294e+04 6.639e-08
 76.61577    115.6 4.246e+04 1.832e-08
 76.62624    109.5 5.211e+04 5.321e-09
 76.63435    103.2 5.001e+04 4.044e-09
 76.63959     94.3 2.829e+04 1.060e-09
 76.64718     90.3 2.733e+04 1.086e-09
 76.65322     88.7 2.974e+04 1.157e-09
 76.65846     83.2 1.771e+04 1.041e-09
 76.66556     82.2 2.052e+04 1.175e-09
 76.67080     78.2 1.456e+04 1.219e-09
 76.67860     76.4 1.547e+04 1.447e-09
 76.68907     72.5 1.842e+04 2.243e-09
 76.69678     66.2 2.733e+04 4.032e-09
 76.70201     66.0 1.952e+04 3.886e-09
 76.70705     60.2 2.297e+04 7.503e-09
 76.71229     54.3 2.255e+04 1.173e-08
 76.72049     48.7 2.369e+04 2.271e-08
 76.72799     45.3 2.410e+04 4.009e-08
 76.73323     47.1 2.392e+04 3.192e-08
 76.74143     44.9 2.422e+04 4.540e-08
 76.75190     42.3 2.545e+04 5.618e-08
 76.75920     37.8 2.906e+04 7.079e-08
 76.76294     41.4 2.562e+04 4.641e-08
 76.76612     39.2 2.577e+04 4.068e-08
 76.77285     33.4 2.844e+04 4.364e-08
 76.78332     27.6 3.064e+04 4.854e-08
 76.79042     23.1 3.078e+04 5.581e-08
 76.79565     25.8 2.833e+04 3.890e-08
 76.80426     22.2 2.844e+04 4.638e-08
 76.81471     20.1 2.793e+04 5.546e-08
 76.82160     19.1 2.635e+04 4.623e-08
 76.82687     20.5 2.522e+04 4.075e-08
 76.83568     19.8 2.517e+04 4.145e-08
 76.84615     19.2 2.530e+04 3.964e-08
 76.85284     18.8 2.533e+04 3.435e-08
 76.85808     19.8 2.460e+04 3.361e-08
 76.86710     19.1 2.440e+04 2.669e-08
 76.87377     18.2 2.401e+04 2.096e-08
 76.87901     18.6 2.184e+04 1.417e-08
 76.88406     17.8 2.177e+04 1.186e-08
 76.88929     18.5 2.217e+04 1.191e-08
 76.89851     17.3 2.189e+04 9.272e-09
 76.90898     16.1 2.135e+04 7.344e-09
 76.91532     13.4 2.052e+04 6.468e-09
 76.92351     13.2 2.025e+04 5.570e-09
 76.93293     11.9 1.653e+04 2.870e-09
 76.94573      8.9 1.415e+04 2.392e-09
 76.96668      9.0 1.392e+04 2.429e-09
 76.97780      9.6 1.377e+04 2.434e-09
 76.98827      9.0 1.333e+04 2.256e-09
 77.00857     10.0 1.320e+04 2.246e-09
 77.02951     11.1 1.303e+04 2.139e-09
 77.04022     12.2 1.285e+04 1.936e-09
 77.04083     11.8 1.244e+04 1.402e-09
 77.05106     12.4 1.190e+04 1.155e-09
 77.07140     13.3 1.180e+04 1.030e-09
 77.09218     13.9 1.175e+04 9.530e-10
 77.10265     12.9 1.130e+04 7.056e-10
 77.11329     13.6 1.117e+04 6.952e-10
 77.13423     14.5 1.119e+04 7.121e-10
 77.14825     15.6 1.126e+04 7.743e-10
 77.15825     16.9 1.106e+04 7.227e-10
 77.17574     16.4 1.052e+04 4.862e-10
 77.20773     18.7 1.072e+04 5.743e-10
 77.24962     21.0 1.097e+04 6.979e-10
 77.27965     23.4 1.122e+04 8.534e-10
 77.30060     23.6 1.152e+04 9.077e-10
 77.33339     25.6 1.199e+04 1.187e-09
 77.36375     27.5 1.241e+04 1.571e-09
 77.38470     28.0 1.175e+04 1.061e-09
 77.40451     29.8 1.230e+04 1.517e-09
 77.42545     29.6 1.276e+04 1.975e-09
 77.45906     31.9 1.280e+04 2.182e-09
 77.50095     34.5 1.265e+04 1.948e-09
 77.52926     35.5 1.260e+04 1.794e-09
 77.53964     35.7 1.263e+04 1.578e-09
 77.55311     36.6 1.244e+04 1.375e-09
 77.57405     37.4 1.219e+04 1.148e-09
 77.58934     38.0 1.195e+04 9.663e-10
 77.59641     38.7 1.228e+04 1.439e-09
 77.60206     38.5 1.208e+04 1.111e-09
 77.61594     38.9 1.185e+04 9.838e-10
 77.63689     39.5 1.157e+04 8.667e-10
 77.65402     40.1 1.141e+04 7.935e-10
 77.67506     39.6 1.128e+04 7.136e-10
 77.71039     40.7 1.130e+04 7.196e-10
 77.75227     41.2 1.149e+04 8.004e-10
 77.77907     40.5 1.236e+04 1.203e-09
 77.78944     39.7 1.228e+04 1.302e-09
 77.80444     39.4 1.282e+04 1.752e-09
 77.81513     39.6 1.334e+04 2.355e-09
 77.82560     40.7 1.359e+04 2.513e-09
 77.84130     41.2 1.394e+04 3.120e-09
 77.85177     41.6 1.391e+04 3.359e-09
 77.86727     42.3 1.415e+04 3.596e-09
 77.88821     43.1 1.410e+04 3.558e-09
 77.90372     43.9 1.388e+04 3.308e-09
 77.91420     44.6 1.330e+04 2.517e-09
 77.92278     45.0 1.290e+04 1.975e-09
 77.93326     45.5 1.298e+04 2.056e-09
 77.96162     45.4 1.210e+04 1.331e-09
 78.00360     46.5 1.127e+04 9.365e-10
 78.02877     48.2 1.043e+04 6.321e-10
 78.03486     48.5 9.496e+03 3.698e-10
 78.05158     50.1 9.845e+03 4.603e-10
 78.08738     52.4 9.446e+03 3.640e-10
 78.12927     54.9 9.109e+03 2.890e-10
 78.15363     57.6 8.812e+03 2.314e-10
 78.17457     58.3 8.609e+03 2.124e-10
 78.21304     61.2 8.492e+03 1.929e-10
 78.24595     64.2 8.377e+03 1.734e-10
 78.26689     65.6 8.575e+03 2.031e-10
 78.27848     68.6 8.461e+03 1.871e-10
 78.29942     69.4 8.363e+03 1.774e-10
 78.33871     72.4 8.275e+03 1.669e-10
 78.38059     75.5 8.218e+03 1.623e-10
 78.40333     78.7 8.214e+03 1.625e-10
 78.42428     79.3 7.849e+03 1.142e-10
 78.46126     82.4 7.846e+03 1.145e-10
 78.48220     83.7 8.396e+03 1.827e-10
 78.50626     86.9 8.406e+03 1.846e-10
 78.52819     90.1 8.441e+03 1.896e-10
 78.54913     90.3 7.923e+03 1.226e-10
 78.59003     93.3 7.944e+03 1.272e-10
 78.63192     96.3 8.008e+03 1.370e-10
 78.67381     99.1 7.799e+03 1.217e-10
 78.69752    101.9 7.908e+03 1.371e-10
 78.71846    103.1 8.288e+03 1.799e-10
 78.75695    105.9 8.356e+03 1.925e-10
 78.77789    105.8 8.148e+03 1.692e-10
 78.79947    108.6 8.153e+03 1.698e-10
 78.84136    111.4 8.168e+03 1.708e-10
 78.88180    114.4 8.314e+03 1.784e-10
 78.90275    113.9 8.103e+03 1.596e-10
 78.91283    117.1 8.274e+03 1.681e-10
 78.93377    118.4 8.340e+03 1.765e-10
 78.96703    120.8 8.596e+03 1.976e-10
 78.99834    121.8 8.633e+03 2.045e-10
 79.01693    123.1 8.629e+03 2.069e-10
 79.02750    122.0 8.688e+03 2.132e-10
 79.03086    123.8 8.712e+03 2.178e-10
 79.04124    124.0 8.739e+03 2.288e-10
 79.06108    125.0 8.898e+03 2.580e-10
 79.07936    124.3 9.799e+03 3.575e-10
 79.08983    123.5 9.273e+03 3.288e-10
 79.10297    122.4 1.019e+04 4.929e-10
 79.11576    121.7 1.090e+04 5.910e-10
 79.12095    121.7 1.055e+04 5.966e-10
 79.12905    120.9 1.174e+04 7.042e-10
 79.13832    116.4 1.884e+04 1.359e-09
 79.14356    114.0 2.120e+04 1.738e-09
 79.14693    100.2 2.838e+04 1.890e-08
 79.15216    109.5 2.497e+04 3.320e-09
 79.16047     96.5 2.797e+04 3.913e-08
 79.17094     88.3 2.512e+04 2.029e-07
 79.17814     84.1 2.378e+04 3.068e-07
 79.18338     87.4 2.458e+04 2.299e-07
 79.19188     84.0 2.402e+04 2.806e-07
 79.19739     81.5 2.464e+04 2.294e-07
 79.20262     81.4 2.443e+04 1.570e-07
 79.20935     78.5 2.719e+04 6.769e-08
 79.21459     81.9 2.562e+04 1.108e-07
 79.22330     78.5 2.919e+04 4.197e-08
 79.23377     72.3 3.406e+04 8.919e-09
 79.24057     64.9 2.862e+04 3.645e-09
 79.24580     69.2 3.201e+04 6.090e-09
 79.25121     62.4 2.726e+04 2.175e-09
 79.25650     64.8 2.614e+04 2.342e-09
 79.26664     60.1 1.279e+04 2.053e-09
 79.27711     63.9 1.802e+04 1.733e-09
 79.29146     62.8 1.229e+04 1.723e-09
 79.31241     63.5 1.235e+04 1.755e-09
 79.32907     64.3 1.268e+04 1.900e-09
 79.33954     66.4 1.235e+04 1.419e-09
 79.35373     66.8 1.271e+04 1.497e-09
 79.36420     66.2 1.260e+04 1.772e-09
 79.37524     66.8 1.289e+04 2.015e-09
 79.39149     67.1 1.324e+04 2.326e-09
 79.40197     68.4 1.283e+04 1.529e-09
 79.41713     68.4 1.311e+04 1.758e-09
 79.43807     68.0 1.358e+04 2.154e-09
 79.45392     67.2 1.425e+04 2.879e-09
 79.46439     68.7 1.382e+04 1.972e-09
 79.47186     68.2 1.464e+04 2.859e-09
 79.48233     68.8 1.448e+04 3.263e-09
 79.50090     68.5 1.532e+04 4.493e-09
 79.51630     68.4 1.578e+04 5.181e-09
 79.52149     70.3 1.573e+04 4.519e-09
 79.52559     70.0 1.619e+04 5.260e-09
 79.53083     69.7 1.624e+04 5.563e-09
 79.53746     69.2 1.689e+04 7.106e-09
 79.54746     68.8 1.717e+04 8.822e-09
 79.55270     70.0 1.707e+04 7.751e-09
 79.55840     70.0 1.719e+04 9.621e-09
 79.56887     70.1 1.746e+04 1.230e-08
 79.57868     70.0 1.807e+04 1.645e-08
 79.58391     71.4 1.788e+04 1.444e-08
 79.58465     71.4 1.861e+04 1.988e-08
 79.58989     70.0 1.969e+04 2.721e-08
 79.60029     69.5 2.070e+04 4.101e-08
 79.60989     68.9 2.140e+04 5.833e-08
 79.61513     70.3 2.083e+04 5.343e-08
 79.62123     69.6 2.132e+04 7.251e-08
 79.63171     68.5 2.194e+04 8.611e-08
 79.63848     66.5 2.276e+04 9.059e-08
 79.64264     64.2 2.436e+04 8.069e-08
 79.64634     65.9 2.420e+04 1.030e-07
 79.65265     57.9 2.870e+04 1.069e-07
 79.66312     45.5 3.347e+04 9.062e-08
 79.67232     34.8 3.333e+04 6.205e-08
 79.67755     33.5 3.220e+04 9.960e-08
 79.68407     22.4 2.768e+04 5.488e-08
 79.69231     15.0 2.324e+04 3.650e-08
 79.69755     14.5 2.253e+04 3.034e-08
 79.70353     12.7 2.170e+04 2.478e-08
 79.70877     12.3 2.248e+04 3.185e-08
 79.71548     10.9 2.119e+04 2.330e-08
 79.72595      9.4 2.016e+04 1.609e-08
 79.73474      9.2 1.948e+04 1.412e-08
 79.73998      8.3 1.946e+04 1.392e-08
 79.75218      7.5 1.861e+04 8.913e-09
 79.76605      6.6 1.769e+04 5.726e-09
 79.77653      4.8 1.712e+04 5.753e-09
 79.79412      5.0 1.691e+04 4.595e-09
 79.80530      5.9 1.630e+04 3.702e-09
 79.81577      7.2 1.436e+04 2.479e-09
 79.82848      8.1 1.352e+04 1.888e-09
 79.83895      8.2 1.382e+04 2.234e-09
 79.85695      9.7 1.332e+04 1.853e-09
 79.87790     12.0 1.274e+04 1.421e-09
 79.89091     14.6 1.241e+04 1.180e-09
 79.90138     14.8 1.276e+04 1.393e-09
 79.93035     17.2 1.238e+04 1.023e-09
 79.97234     21.4 1.184e+04 6.097e-10
 80.00366     24.5 1.074e+04 3.786e-10
 80.01576     26.2 1.042e+04 2.937e-10
 80.02234     26.5 1.062e+04 3.790e-10
 80.03109     25.9 9.679e+03 3.448e-10
 80.04545     28.4 9.470e+03 2.760e-10
 80.06639     29.4 9.592e+03 2.631e-10
 80.09791     33.0 9.617e+03 2.544e-10
 80.13034     36.9 9.383e+03 1.917e-10
 80.15118     37.8 9.740e+03 2.629e-10
 80.17111     40.3 9.641e+03 2.237e-10
 80.19206     41.6 9.550e+03 2.091e-10
 80.20304     43.5 9.292e+03 1.913e-10
 80.21351     43.9 9.583e+03 2.440e-10
 80.23394     45.4 9.394e+03 2.302e-10
 80.24640     47.1 9.162e+03 2.233e-10
 80.25687     48.2 9.791e+03 3.174e-10
 80.26547     49.5 9.625e+03 2.863e-10
 80.27594     50.0 1.002e+04 3.849e-10
 80.29678     51.3 9.875e+03 3.618e-10
 80.31742     52.6 9.842e+03 3.611e-10
 80.32790     52.8 1.060e+04 5.290e-10
 80.33866     53.7 1.098e+04 5.746e-10
 80.35405     54.7 1.152e+04 6.679e-10
 80.36453     55.9 1.081e+04 5.568e-10
 80.37985     56.9 1.093e+04 5.694e-10
 80.39032     57.2 1.205e+04 8.650e-10
 80.40150     58.1 1.252e+04 9.711e-10
 80.42244     59.1 1.293e+04 1.133e-09
 80.44228     60.1 1.331e+04 1.358e-09
 80.45275     60.4 1.407e+04 2.025e-09
 80.46171     61.3 1.425e+04 2.407e-09
 80.47218     62.3 1.343e+04 1.512e-09
 80.48527     63.2 1.369e+04 1.705e-09
 80.50470     64.1 1.386e+04 1.886e-09
 80.51518     64.8 1.443e+04 2.725e-09
 80.52716     65.9 1.449e+04 2.841e-09
 80.54810     66.9 1.457e+04 2.849e-09
 80.56713     67.8 1.461e+04 2.806e-09
 80.57760     68.8 1.528e+04 3.760e-09
 80.57984     69.4 1.545e+04 3.593e-09
 80.59031     70.6 1.384e+04 2.101e-09
 80.61094     71.0 1.382e+04 1.858e-09
 80.62956     71.3 1.380e+04 1.659e-09
 80.64003     72.2 1.470e+04 2.276e-09
 80.65282     72.2 1.438e+04 2.104e-09
 80.67377     72.1 1.390e+04 1.975e-09
 80.68750     72.1 1.351e+04 1.889e-09
 80.69524     72.4 1.308e+04 1.220e-09
 80.70246     73.8 1.361e+04 1.651e-09
 80.71566     73.4 1.353e+04 1.666e-09
 80.73660     72.8 1.355e+04 1.727e-09
 80.75441     72.2 1.359e+04 1.764e-09
 80.76488     74.3 1.397e+04 2.087e-09
 80.77849     73.6 1.391e+04 1.946e-09
 80.79515     72.7 1.357e+04 1.722e-09
 80.80562     71.3 1.291e+04 1.742e-09
 80.81684     70.7 1.231e+04 1.551e-09
 80.82731     71.9 1.271e+04 1.626e-09
 80.84132     70.8 1.217e+04 1.401e-09
 80.86226     69.7 1.209e+04 1.312e-09
 80.87926     68.6 1.212e+04 1.332e-09
 80.88974     69.2 1.221e+04 1.287e-09
 80.90281     68.0 1.232e+04 1.325e-09
 80.91328     66.7 1.276e+04 1.648e-09
 80.92510     65.6 1.308e+04 1.792e-09
 80.94169     64.7 1.318e+04 1.820e-09
 80.95216     64.9 1.322e+04 1.804e-09
 80.96698     63.7 1.325e+04 1.815e-09
 80.98793     61.8 1.337e+04 1.856e-09
 81.00412     59.1 1.364e+04 2.002e-09
 81.01459     59.3 1.376e+04 2.035e-09
 81.02094     56.4 1.395e+04 2.266e-09
 81.03141     54.9 1.463e+04 2.760e-09
 81.05076     52.7 1.509e+04 3.115e-09
 81.06654     50.2 1.580e+04 3.454e-09
 81.07702     50.6 1.601e+04 3.544e-09
 81.09265     47.8 1.650e+04 3.628e-09
 81.11359     44.8 1.630e+04 3.351e-09
 81.12859     42.0 1.548e+04 2.699e-09
 81.13350     40.0 1.513e+04 2.516e-09
 81.13944     41.1 1.583e+04 2.884e-09
 81.15548     38.2 1.456e+04 2.208e-09
 81.17642     35.9 1.406e+04 1.896e-09
 81.19140     33.4 1.464e+04 1.895e-09
 81.20187     32.3 1.765e+04 2.825e-09
 81.21303     28.2 1.925e+04 3.279e-09
 81.22251     27.3 1.971e+04 3.435e-09
 81.22775     26.4 2.111e+04 4.348e-09
 81.23392     23.0 2.301e+04 6.527e-09
 81.24139     20.9 2.355e+04 8.231e-09
 81.24662     22.4 2.386e+04 4.954e-09
 81.25373     19.7 2.536e+04 8.951e-09
 81.25896     19.1 2.575e+04 1.209e-08
 81.26534     16.5 2.686e+04 1.696e-08
 81.27581     13.1 2.826e+04 2.740e-08
 81.28494      8.7 2.927e+04 4.654e-08
 81.29018      5.4 2.845e+04 8.390e-08
 81.29522      0.6 2.414e+04 2.869e-07
 81.30045     -0.2 2.268e+04 7.636e-07
 81.30314     -0.4 2.195e+04 1.061e-06
 81.30573     -2.3 2.075e+04 1.788e-06
 81.30980     -3.9 1.942e+04 3.070e-06
 81.31503     -3.6 1.888e+04 3.924e-06
 81.31872     -3.4 1.866e+04 3.804e-06
 81.32134     -1.8 1.867e+04 4.443e-06
 81.32470     -1.7 1.978e+04 2.590e-06
 81.32732     -0.4 1.882e+04 4.356e-06
 81.33074     -3.0 2.185e+04 1.742e-06
 81.33862    -14.1 2.856e+04 2.102e-07
 81.34737    -25.0 2.904e+04 3.544e-08
 81.35253    -28.6 2.576e+04 2.274e-08
 81.35428    -30.2 2.819e+04 3.745e-08
 81.35959    -31.1 2.542e+04 2.543e-08
 81.37006    -31.3 2.456e+04 1.890e-08
 81.37858    -32.6 2.373e+04 1.483e-08
 81.38910    -37.6 2.471e+04 1.539e-08
 81.40681    -42.0 2.470e+04 1.498e-08
 81.42247    -46.1 2.436e+04 1.859e-08
 81.43289    -47.6 2.393e+04 2.253e-08
 81.44101    -48.6 2.322e+04 2.943e-08
 81.44624    -49.6 2.279e+04 3.092e-08
 81.45384    -49.7 2.243e+04 3.711e-08
 81.46194    -49.4 2.224e+04 4.377e-08
 81.46717    -49.3 2.282e+04 3.864e-08
 81.47222    -49.4 2.293e+04 4.224e-08
 81.47746    -50.3 2.234e+04 3.481e-08
 81.48525    -50.1 2.191e+04 3.134e-08
 81.49572    -49.8 2.157e+04 2.509e-08
 81.50343    -49.7 2.123e+04 1.917e-08
 81.51395    -51.8 1.949e+04 9.500e-09
 81.53247    -54.2 1.759e+04 4.987e-09
 81.55342    -57.4 1.517e+04 2.720e-09
 81.56596    -59.5 1.361e+04 1.793e-09
 81.57176    -60.9 1.233e+04 1.014e-09
 81.58016    -60.1 1.296e+04 1.503e-09
 81.59531    -60.6 1.246e+04 1.287e-09
 81.61625    -60.6 1.218e+04 1.165e-09
 81.62838    -60.7 1.203e+04 1.057e-09
 81.63886    -61.6 1.139e+04 6.536e-10
 81.65814    -61.6 1.122e+04 5.886e-10
 81.67735    -61.8 1.103e+04 5.321e-10
 81.68782    -61.0 1.129e+04 7.195e-10
 81.69081    -61.0 1.113e+04 6.439e-10
 81.70128    -61.6 1.069e+04 5.021e-10
 81.72097    -61.5 1.062e+04 4.854e-10
 81.74191    -61.2 1.062e+04 4.811e-10
 81.75324    -60.8 1.071e+04 4.902e-10
 81.76371    -61.0 1.079e+04 4.214e-10
 81.78380    -61.2 1.104e+04 4.650e-10
 81.79557    -62.3 1.145e+04 5.657e-10
 81.80604    -60.3 1.114e+04 5.245e-10
 81.81566    -60.5 1.154e+04 6.078e-10
 81.82614    -60.6 1.167e+04 6.302e-10
 81.84663    -61.8 1.205e+04 8.033e-10
 81.86758    -62.1 1.230e+04 9.796e-10
 81.88852    -62.9 1.333e+04 1.837e-09
 81.90313    -62.8 1.376e+04 2.358e-09
 81.91360    -61.1 1.331e+04 2.017e-09
 81.93005    -60.4 1.352e+04 2.380e-09
 81.94052    -61.3 1.427e+04 3.167e-09
 81.95135    -62.0 1.520e+04 3.998e-09
 81.97230    -66.7 2.009e+04 6.179e-09
 81.98796    -73.2 2.453e+04 1.396e-08
 81.99761    -75.4 2.543e+04 1.721e-08
 82.00285    -78.4 2.449e+04 2.942e-08
 82.00885    -80.1 2.415e+04 3.789e-08
 82.01593    -81.6 2.396e+04 4.082e-08
 82.02116    -79.4 2.362e+04 6.656e-08
 82.02882    -80.8 2.368e+04 6.642e-08
 82.03406    -81.8 2.352e+04 6.995e-08
 82.04027    -83.5 2.293e+04 4.912e-08
 82.05074    -85.2 2.097e+04 2.865e-08
 82.06004    -86.3 1.909e+04 1.692e-08
 82.06527    -87.2 1.854e+04 1.418e-08
 82.06975    -87.6 1.781e+04 9.139e-09
 82.07499    -87.8 1.763e+04 8.390e-09
 82.08216    -88.9 1.691e+04 5.489e-09
 82.09125    -90.0 1.625e+04 3.805e-09
 82.09649    -91.2 1.590e+04 3.471e-09
 82.10310    -91.6 1.555e+04 2.834e-09
 82.11728    -92.3 1.507e+04 1.945e-09
 82.12734    -94.4 1.428e+04 1.552e-09
 82.12891    -95.2 1.355e+04 1.736e-09
 82.13985    -95.5 1.279e+04 9.984e-10
 82.16079    -95.8 1.251e+04 6.280e-10
 82.17975    -97.1 1.178e+04 4.115e-10
 82.19023    -96.7 1.218e+04 4.919e-10
 82.20268    -99.3 1.128e+04 3.660e-10
 82.22363   -102.3 1.094e+04 3.410e-10
 82.23657   -105.5 1.108e+04 3.923e-10
 82.24465   -103.9 1.162e+04 4.716e-10
 82.25265   -105.1 1.213e+04 6.421e-10
 82.26551   -108.7 1.192e+04 8.660e-10
 82.28646   -111.5 1.223e+04 1.185e-09
 82.30461   -113.9 1.236e+04 1.362e-09
 82.31508   -115.0 1.253e+04 1.468e-09
 82.32835   -117.1 1.229e+04 1.385e-09
 82.34423   -118.8 1.192e+04 1.160e-09
 82.35470   -119.6 1.201e+04 1.179e-09
 82.36703   -120.7 1.164e+04 9.566e-10
 82.37751   -121.9 1.123e+04 6.906e-10
 82.39118   -122.7 1.082e+04 5.564e-10
 82.41212   -123.1 1.053e+04 4.791e-10
 82.42946   -123.1 1.030e+04 4.355e-10
 82.43993   -124.1 9.868e+03 3.476e-10
 82.45188   -123.4 9.815e+03 3.424e-10
 82.46236   -123.7 9.822e+03 3.408e-10
 82.47495   -123.0 9.818e+03 3.394e-10
 82.49189   -122.3 9.876e+03 3.421e-10
 82.50236   -123.1 9.842e+03 3.350e-10
 82.51684   -122.6 9.955e+03 3.622e-10
 82.53779   -122.0 1.008e+04 4.095e-10
 82.55431   -121.3 1.023e+04 4.755e-10
 82.56479   -122.2 1.039e+04 5.290e-10
 82.57001   -121.4 1.062e+04 6.288e-10
 82.58048   -121.5 1.063e+04 6.194e-10
 82.60062   -120.6 1.083e+04 7.068e-10
 82.61674   -119.7 1.102e+04 7.986e-10
 82.62721   -120.3 1.122e+04 9.270e-10
 82.64251   -119.3 1.134e+04 9.934e-10
 82.66345   -118.3 1.140e+04 1.030e-09
 82.67767   -117.3 1.141e+04 1.038e-09
 82.68291   -117.2 1.104e+04 8.640e-10
 82.68964   -117.7 1.106e+04 8.749e-10
 82.70534   -116.6 1.093e+04 8.218e-10
 82.72628   -115.5 1.078e+04 7.574e-10
 82.74159   -114.4 1.059e+04 6.809e-10
 82.75207   -115.0 1.058e+04 6.763e-10
 82.76817   -113.8 1.035e+04 5.929e-10
 82.78532   -112.5 1.008e+04 5.092e-10
 82.79580   -112.3 9.729e+03 3.907e-10
 82.80402   -110.7 9.626e+03 3.584e-10
 82.81449   -111.2 9.635e+03 3.585e-10
 82.83100   -109.5 9.633e+03 3.522e-10
 82.85607   -108.2 9.707e+03 3.541e-10
 82.87711   -108.8 9.776e+03 3.975e-10
 82.89318   -106.3 9.610e+03 3.444e-10
 82.91412   -105.8 9.331e+03 2.629e-10
 82.94639   -102.7 9.172e+03 2.455e-10
 82.98102    -99.7 9.142e+03 2.403e-10
 83.00197   -100.4 9.396e+03 2.945e-10
 83.03017    -97.8 9.368e+03 3.010e-10
 83.07205    -95.6 9.593e+03 3.588e-10
 83.10588    -93.7 9.987e+03 4.773e-10
 83.12137    -94.6 1.057e+04 7.048e-10
 83.12943    -94.2 1.058e+04 6.484e-10
 83.14526    -92.8 1.082e+04 8.017e-10
 83.16611    -91.8 1.104e+04 9.146e-10
 83.17858    -90.8 1.137e+04 1.092e-09
 83.18905    -91.3 1.147e+04 1.121e-09
 83.20799    -90.5 1.173e+04 1.271e-09
 83.22642    -89.9 1.201e+04 1.439e-09
 83.23689    -89.8 1.183e+04 1.240e-09
 83.24101    -89.5 1.219e+04 1.426e-09
 83.25148    -90.1 1.232e+04 1.493e-09
 83.27083    -90.2 1.282e+04 1.852e-09
 83.29177    -90.3 1.342e+04 2.406e-09
 83.30343    -90.4 1.408e+04 3.184e-09
 83.31391    -91.0 1.431e+04 3.448e-09
 83.33366    -90.8 1.502e+04 4.542e-09
 83.34455    -90.5 1.555e+04 5.516e-09
 83.35502    -91.3 1.616e+04 6.896e-09
 83.36586    -90.7 1.633e+04 7.316e-09
 83.37633    -90.9 1.644e+04 7.968e-09
 83.39649    -90.4 1.637e+04 7.913e-09
 83.41743    -89.3 1.575e+04 6.264e-09
 83.42829    -88.5 1.487e+04 4.116e-09
 83.43876    -88.7 1.501e+04 4.591e-09
 83.45221    -88.4 1.416e+04 2.957e-09
 83.46268    -88.3 1.394e+04 2.699e-09
 83.48024    -88.4 1.308e+04 1.700e-09
 83.50119    -88.2 1.261e+04 1.338e-09
 83.52215    -88.0 1.189e+04 9.579e-10
 83.54267    -87.3 1.128e+04 7.398e-10
 83.55314    -86.8 1.159e+04 8.227e-10
 83.55986    -86.1 1.109e+04 6.566e-10
 83.57033    -86.1 1.065e+04 5.505e-10
 83.58499    -85.1 1.042e+04 4.743e-10
 83.60510    -84.0 1.023e+04 4.286e-10
 83.61557    -83.6 1.024e+04 4.138e-10
 83.62687    -82.5 1.014e+04 3.844e-10
 83.64782    -81.3 1.010e+04 3.711e-10
 83.66752    -80.0 1.011e+04 3.648e-10
 83.67799    -79.7 1.003e+04 3.154e-10
 83.70028    -78.7 1.019e+04 3.602e-10
 83.73014    -76.9 1.018e+04 3.814e-10
 83.75109    -76.3 1.038e+04 3.850e-10
 83.77537    -74.1 1.040e+04 4.127e-10
 83.79631    -73.5 9.867e+03 2.659e-10
 83.82604    -71.4 9.970e+03 2.875e-10
 83.85500    -69.3 1.006e+04 3.058e-10
 83.87594    -69.1 1.037e+04 2.975e-10
 83.90981    -67.9 1.100e+04 3.662e-10
 83.95170    -67.4 1.166e+04 5.449e-10
 83.97985    -67.4 1.217e+04 9.008e-10
 83.99023    -67.4 1.214e+04 7.622e-10
 84.00096    -67.2 1.252e+04 1.051e-09
 84.01143    -66.8 1.223e+04 1.050e-09
 84.03538    -66.6 1.252e+04 1.329e-09
 84.06680    -66.1 1.255e+04 1.526e-09
 84.08764    -65.6 1.250e+04 1.521e-09
 84.10451    -65.2 1.228e+04 1.432e-09
 84.11498    -65.6 1.181e+04 1.147e-09
 84.12953    -65.0 1.161e+04 1.030e-09
 84.15048    -64.7 1.125e+04 8.841e-10
 84.16694    -64.1 1.095e+04 7.671e-10
 84.17741    -64.2 1.062e+04 6.461e-10
 84.19236    -63.5 1.041e+04 5.803e-10
 84.21331    -62.7 1.021e+04 5.294e-10
 84.22674    -61.7 1.006e+04 4.966e-10
 84.23233    -61.5 1.012e+04 5.002e-10
 84.23984    -61.2 9.910e+03 4.455e-10
 84.25520    -60.1 9.837e+03 4.280e-10
 84.28671    -58.6 9.837e+03 4.106e-10
 84.32869    -57.0 9.844e+03 4.092e-10
 84.35441    -54.8 9.565e+03 3.691e-10
 84.37536    -54.7 9.616e+03 3.813e-10
 84.41247    -52.6 9.469e+03 3.594e-10
 84.44225    -50.7 9.249e+03 3.067e-10
 84.46320    -51.0 9.277e+03 2.959e-10
 84.47927    -49.5 9.092e+03 2.551e-10
 84.50021    -49.5 9.273e+03 3.089e-10
 84.53813    -48.5 9.139e+03 2.694e-10
 84.58002    -48.0 9.104e+03 2.579e-10
 84.60412    -48.1 9.147e+03 2.863e-10
 84.62506    -47.8 9.427e+03 3.401e-10
 84.65756    -48.6 9.931e+03 4.685e-10
 84.67851    -51.5 1.116e+04 6.794e-10
 84.69512    -52.8 1.208e+04 9.661e-10
 84.71596    -55.2 1.314e+04 1.511e-09
 84.72878    -57.6 1.368e+04 2.328e-09
 84.73925    -57.7 1.371e+04 2.451e-09
 84.75785    -59.0 1.427e+04 3.411e-09
 84.77550    -60.2 1.478e+04 3.914e-09
 84.78597    -61.1 1.538e+04 4.491e-09
 84.79120    -63.0 1.554e+04 4.235e-09
 84.80168    -62.7 1.569e+04 4.631e-09
 84.82068    -64.9 1.502e+04 2.984e-09
 84.84163    -67.9 1.323e+04 1.656e-09
 84.85363    -70.7 1.165e+04 9.406e-10
 84.86410    -71.1 1.158e+04 9.130e-10
 84.88315    -72.9 1.076e+04 5.787e-10
 84.89363    -72.8 1.096e+04 7.141e-10
 84.90446    -74.1 1.040e+04 5.051e-10
 84.91606    -74.7 1.004e+04 4.051e-10
 84.92653    -74.8 9.985e+03 3.956e-10
 84.95692    -75.0 9.873e+03 3.554e-10
 84.97868    -75.2 9.690e+03 3.130e-10
 84.99962    -75.3 9.592e+03 2.896e-10
 85.04079    -74.9 9.307e+03 2.474e-10
 85.08259    -74.4 9.206e+03 2.361e-10
 85.10904    -73.6 9.168e+03 2.346e-10
 85.13008    -73.0 9.485e+03 2.823e-10
 85.16646    -72.5 9.715e+03 3.745e-10
 85.20744    -72.0 1.004e+04 5.078e-10
 85.22839    -71.5 1.006e+04 5.195e-10
 85.25023    -71.3 1.051e+04 7.175e-10
 85.29212    -71.4 1.109e+04 1.002e-09
 85.32445    -71.8 1.178e+04 1.424e-09
 85.34368    -71.5 1.222e+04 1.679e-09
 85.35324    -70.6 1.231e+04 1.729e-09
 85.37590    -71.5 1.275e+04 2.153e-09
 85.40510    -72.3 1.280e+04 2.261e-09
 85.41547    -71.7 1.259e+04 2.014e-09
 85.42806    -72.1 1.259e+04 2.024e-09
 85.44238    -72.8 1.249e+04 1.917e-09
 85.45285    -72.5 1.273e+04 2.062e-09
 85.46743    -73.5 1.245e+04 1.778e-09
 85.47790    -73.0 1.245e+04 1.798e-09
 85.49089    -73.9 1.222e+04 1.626e-09
 85.51184    -74.5 1.197e+04 1.524e-09
 85.53966    -74.7 1.174e+04 1.408e-09
 85.56070    -75.3 1.168e+04 1.290e-09
 85.58200    -75.9 1.097e+04 8.956e-10
 85.60295    -74.7 1.144e+04 1.197e-09
 85.62722    -75.2 1.068e+04 7.575e-10
 85.66911    -76.2 9.702e+03 4.303e-10
 85.70686    -77.4 9.249e+03 3.418e-10
 85.72780    -75.8 9.428e+03 3.669e-10
 85.75289    -76.6 9.226e+03 3.309e-10
 85.77602    -77.3 9.502e+03 3.867e-10
 85.79696    -76.8 9.859e+03 4.857e-10
 85.83171    -77.7 1.064e+04 7.242e-10
 85.85265    -75.9 1.015e+04 5.411e-10
 85.87855    -77.4 1.099e+04 7.717e-10
 85.90451    -79.8 1.209e+04 1.247e-09
 85.91489    -78.5 1.171e+04 9.924e-10
 85.93072    -80.2 1.252e+04 1.270e-09
 85.95166    -83.2 1.350e+04 2.005e-09
 85.96684    -85.4 1.415e+04 3.100e-09
 85.97731    -84.1 1.401e+04 2.421e-09
 85.99113    -85.7 1.429e+04 3.570e-09
 86.00160    -85.6 1.462e+04 4.577e-09
 86.01449    -85.8 1.458e+04 4.794e-09
 86.02927    -85.8 1.435e+04 4.671e-09
 86.03974    -85.6 1.416e+04 4.479e-09
 86.05638    -85.4 1.375e+04 3.985e-09
 86.07732    -85.0 1.334e+04 3.090e-09
 86.09169    -84.8 1.310e+04 2.134e-09
 86.10217    -84.7 1.286e+04 2.799e-09
 86.10926    -84.4 1.269e+04 2.044e-09
 86.11973    -84.5 1.270e+04 1.290e-09
 86.14016    -84.8 1.234e+04 7.650e-10
 86.15412    -85.1 1.160e+04 4.327e-10
 86.16459    -83.8 1.201e+04 8.906e-10
 86.18204    -84.1 1.141e+04 5.302e-10
 86.20299    -84.3 1.042e+04 3.297e-10
 86.21655    -84.3 9.611e+03 2.486e-10
 86.22000    -82.9 1.024e+04 4.074e-10
 86.22739    -82.9 9.714e+03 2.688e-10
 86.25545    -82.1 9.361e+03 2.488e-10
 86.29743    -80.2 8.960e+03 2.208e-10
 86.33112    -78.0 8.873e+03 2.153e-10
 86.35207    -77.1 9.184e+03 2.630e-10
 86.38121    -75.0 9.133e+03 2.604e-10
 86.42195    -73.1 9.235e+03 2.939e-10
 86.44290    -72.3 8.874e+03 2.219e-10
 86.45598    -70.4 9.060e+03 2.687e-10
 86.47692    -69.6 8.946e+03 2.094e-10
 86.50687    -68.2 9.127e+03 2.511e-10
 86.54876    -67.2 9.407e+03 3.140e-10
 86.58083    -66.8 9.834e+03 4.157e-10
 86.60177    -66.5 9.983e+03 4.547e-10
 86.63254    -66.3 1.071e+04 7.119e-10
 86.65821    -66.1 1.138e+04 1.038e-09
 86.67915    -64.8 1.124e+04 1.032e-09
 86.70568    -64.8 1.169e+04 1.252e-09
 86.72663    -63.9 1.192e+04 1.364e-09
 86.75820    -64.2 1.184e+04 1.305e-09
 86.80009    -64.2 1.121e+04 9.163e-10
 86.83054    -64.4 1.053e+04 6.274e-10
 86.85148    -63.2 1.022e+04 5.389e-10
 86.87352    -63.3 9.830e+03 4.287e-10
 86.89447    -61.8 9.814e+03 3.984e-10
 86.92575    -61.5 9.677e+03 3.578e-10
 86.95539    -60.7 9.657e+03 3.531e-10
 86.97634    -59.1 9.447e+03 3.288e-10
 87.00953    -58.1 9.583e+03 3.551e-10
 87.05142    -57.3 9.844e+03 4.017e-10
 87.08024    -56.6 1.008e+04 4.294e-10
 87.09672    -54.7 1.023e+04 5.006e-10
 87.10978    -53.0 9.941e+03 3.682e-10
 87.13519    -52.5 1.021e+04 3.894e-10
 87.17708    -52.7 1.063e+04 3.948e-10
 87.20510    -53.3 1.087e+04 4.213e-10
 87.22604    -50.6 1.076e+04 3.626e-10
 87.26086    -51.9 1.071e+04 2.989e-10
 87.30274    -52.7 1.075e+04 3.132e-10
 87.32509    -52.7 1.094e+04 5.066e-10
 87.33135    -50.2 1.157e+04 8.912e-10
 87.35090    -49.7 1.131e+04 5.898e-10
 87.38652    -49.7 1.140e+04 7.579e-10
 87.41784    -50.1 1.133e+04 8.944e-10
 87.43255    -49.9 1.137e+04 9.453e-10
 87.44302    -48.8 1.121e+04 8.441e-10
 87.45461    -48.6 1.124e+04 8.793e-10
 87.46508    -48.0 1.098e+04 8.040e-10
 87.48057    -48.6 1.130e+04 8.993e-10
 87.50152    -50.2 1.236e+04 1.253e-09
 87.51704    -51.8 1.347e+04 1.954e-09
 87.52751    -50.3 1.263e+04 1.478e-09
 87.54021    -51.0 1.349e+04 2.158e-09
 87.55068    -51.6 1.420e+04 2.799e-09
 87.56435    -51.4 1.460e+04 3.776e-09
 87.57946    -51.2 1.467e+04 4.078e-09
 87.58994    -50.1 1.385e+04 2.862e-09
 87.60624    -50.0 1.371e+04 2.854e-09
 87.62718    -49.6 1.303e+04 2.222e-09
 87.64189    -49.5 1.222e+04 1.416e-09
 87.65210    -49.0 1.158e+04 1.222e-09
 87.65834    -48.9 1.190e+04 1.393e-09
 87.66907    -49.6 1.119e+04 8.913e-10
 87.69001    -50.5 1.072e+04 6.066e-10
 87.70432    -51.2 1.039e+04 4.590e-10
 87.71479    -49.6 1.032e+04 5.476e-10
 87.73190    -49.7 1.017e+04 4.584e-10
 87.75285    -49.8 1.013e+04 4.249e-10
 87.76599    -49.9 1.016e+04 4.193e-10
 87.76942    -50.0 1.037e+04 4.229e-10
 87.77722    -49.1 1.056e+04 4.733e-10
 87.80530    -50.2 1.087e+04 5.118e-10
 87.82937    -50.4 1.137e+04 7.803e-10
 87.85031    -47.1 1.098e+04 6.536e-10
 87.88918    -47.7 1.174e+04 1.058e-09
 87.93107    -47.8 1.229e+04 1.515e-09
 87.95422    -47.9 1.245e+04 1.629e-09
 87.97324    -46.2 1.289e+04 1.965e-09
 87.99197    -46.2 1.277e+04 1.780e-09
 88.00427    -47.1 1.276e+04 1.686e-09
 88.01645    -47.1 1.275e+04 1.566e-09
 88.02692    -46.8 1.333e+04 2.164e-09
 88.04606    -48.2 1.370e+04 2.177e-09
 88.06701    -50.4 1.404e+04 2.252e-09
 88.07888    -52.7 1.428e+04 2.492e-09
 88.08935    -51.4 1.487e+04 3.879e-09
 88.09943    -52.7 1.491e+04 4.335e-09
 88.10991    -53.2 1.503e+04 4.432e-09
 88.12984    -54.1 1.495e+04 4.544e-09
 88.14130    -54.4 1.475e+04 4.540e-09
 88.15178    -53.3 1.482e+04 4.583e-09
 88.17173    -53.7 1.430e+04 3.900e-09
 88.19267    -54.1 1.363e+04 3.065e-09
 88.20373    -54.5 1.290e+04 2.285e-09
 88.20768    -54.3 1.283e+04 2.116e-09
 88.21756    -54.3 1.284e+04 2.171e-09
 88.23456    -54.8 1.223e+04 1.676e-09
 88.25550    -55.2 1.175e+04 1.348e-09
 88.26616    -55.4 1.138e+04 1.155e-09
 88.27663    -55.1 1.143e+04 1.151e-09
 88.29739    -55.2 1.133e+04 1.102e-09
 88.31475    -55.2 1.127e+04 1.092e-09
 88.32500    -54.9 1.132e+04 1.119e-09
 88.32858    -54.5 1.146e+04 1.147e-09
 88.33928    -54.4 1.156e+04 1.201e-09
 88.36022    -54.5 1.163e+04 1.237e-09
 88.38054    -54.7 1.167e+04 1.239e-09
 88.39101    -54.5 1.199e+04 1.391e-09
 88.40211    -55.0 1.205e+04 1.415e-09
 88.42240    -55.6 1.205e+04 1.404e-09
 88.43288    -55.3 1.210e+04 1.404e-09
 88.44297    -55.9 1.206e+04 1.349e-09
 88.45344    -55.8 1.256e+04 1.647e-09
 88.46494    -56.7 1.253e+04 1.565e-09
 88.48589    -57.9 1.241e+04 1.437e-09
 88.50539    -59.4 1.224e+04 1.323e-09
 88.51586    -59.2 1.251e+04 1.554e-09
 88.52777    -60.9 1.221e+04 1.409e-09
 88.54053    -62.5 1.192e+04 1.329e-09
 88.55100    -62.6 1.222e+04 1.564e-09
 88.56782    -63.8 1.199e+04 1.474e-09
 88.57829    -63.3 1.204e+04 1.552e-09
 88.59061    -64.3 1.182e+04 1.372e-09
 88.61155    -65.3 1.162e+04 1.144e-09
 88.63025    -66.7 1.135e+04 9.277e-10
 88.64072    -66.4 1.139e+04 9.470e-10
 88.64819    -68.3 1.115e+04 7.574e-10
 88.65866    -69.0 1.104e+04 6.473e-10
 88.67438    -71.3 1.067e+04 5.224e-10
 88.69267    -73.6 1.051e+04 4.803e-10
 88.70314    -74.1 1.091e+04 5.854e-10
 88.71627    -77.1 1.107e+04 5.944e-10
 88.73721    -80.1 1.172e+04 7.479e-10
 88.75510    -82.7 1.229e+04 1.048e-09
 88.76326    -84.7 1.302e+04 1.627e-09
 88.76632    -86.1 1.359e+04 1.804e-09
 88.77910    -87.6 1.395e+04 2.430e-09
 88.80005    -88.5 1.411e+04 2.946e-09
 88.81753    -89.1 1.406e+04 3.168e-09
 88.82800    -90.7 1.399e+04 3.391e-09
 88.84193    -91.1 1.383e+04 3.156e-09
 88.86288    -91.7 1.391e+04 2.924e-09
 88.87397    -92.7 1.400e+04 2.846e-09
 88.88057    -94.2 1.479e+04 3.582e-09
 88.89042    -97.1 1.491e+04 3.578e-09
 88.90477    -97.9 1.476e+04 3.570e-09
 88.92571    -98.4 1.469e+04 3.606e-09
 88.94238    -98.7 1.458e+04 3.713e-09
 88.95285   -100.7 1.435e+04 3.353e-09
 88.96760   -100.8 1.442e+04 3.263e-09
 88.98163   -100.9 1.440e+04 2.868e-09
 88.99210   -101.4 1.451e+04 2.269e-09
 89.00481   -102.3 1.413e+04 1.761e-09
 89.01528   -106.2 1.322e+04 1.356e-09
 89.03043   -107.1 1.236e+04 1.096e-09
 89.05137   -107.5 1.167e+04 9.227e-10
 89.06723   -107.4 1.129e+04 8.097e-10
 89.07770   -108.6 1.117e+04 8.037e-10
 89.08928   -108.2 1.094e+04 6.904e-10
 89.09976   -108.3 1.111e+04 7.421e-10
 89.11421   -107.9 1.095e+04 6.546e-10
 89.12966   -107.6 1.077e+04 5.810e-10
 89.14013   -108.4 1.045e+04 5.351e-10
 89.15609   -108.0 1.037e+04 5.010e-10
 89.17704   -107.6 1.036e+04 4.931e-10
 89.19209   -107.4 1.037e+04 4.929e-10
 89.20152   -108.7 1.047e+04 5.189e-10
 89.20741   -108.6 1.056e+04 5.457e-10
 89.21893   -108.7 1.083e+04 6.117e-10
 89.23987   -108.8 1.114e+04 7.276e-10
 89.25451   -108.8 1.146e+04 8.854e-10
 89.26499   -109.9 1.198e+04 1.002e-09
 89.28176   -109.5 1.226e+04 1.172e-09
 89.30270   -109.2 1.244e+04 1.301e-09
 89.31507   -109.0 1.249e+04 1.341e-09
 89.31883   -109.2 1.236e+04 1.247e-09
 89.32741   -110.4 1.216e+04 1.171e-09
 89.34459   -110.1 1.194e+04 1.070e-09
 89.36553   -110.0 1.170e+04 9.444e-10
 89.37937   -110.1 1.146e+04 8.295e-10
 89.38984   -111.1 1.097e+04 7.147e-10
 89.40742   -111.2 1.082e+04 6.546e-10
 89.42273   -111.4 1.074e+04 6.244e-10
 89.43320   -111.6 1.078e+04 6.377e-10
 89.44179   -111.9 1.075e+04 6.300e-10
 89.45227   -112.4 1.059e+04 6.036e-10
 89.47026   -113.2 1.084e+04 6.365e-10
 89.49120   -114.5 1.139e+04 8.164e-10
 89.50422   -115.6 1.195e+04 1.134e-09
 89.51469   -116.8 1.230e+04 1.348e-09
 89.53038   -117.8 1.302e+04 1.966e-09
 89.54085   -118.3 1.320e+04 2.085e-09
 89.55403   -119.6 1.392e+04 2.749e-09
 89.56665   -121.4 1.449e+04 3.325e-09
 89.57712   -122.9 1.496e+04 3.909e-09
 89.59592   -125.1 1.510e+04 4.155e-09
 89.61686   -127.3 1.510e+04 4.191e-09
 89.62907   -129.1 1.473e+04 4.126e-09
 89.63955   -130.0 1.442e+04 3.808e-09
 89.64851   -130.9 1.367e+04 3.041e-09
 89.65898   -131.2 1.325e+04 2.570e-09
 89.67970   -132.1 1.259e+04 1.828e-09
 89.69150   -133.7 1.207e+04 1.276e-09
 89.70197   -135.9 1.148e+04 9.136e-10
 89.72158   -138.4 1.133e+04 7.756e-10
 89.74253   -140.9 1.131e+04 7.515e-10
 89.75393   -143.1 1.138e+04 7.743e-10
 89.75709   -144.7 1.145e+04 8.279e-10
 89.76664   -146.0 1.131e+04 8.408e-10
 89.78442   -147.0 1.133e+04 9.583e-10
 89.80536   -147.9 1.132e+04 1.004e-09
 89.81635   -148.9 1.131e+04 1.010e-09
 89.82683   -149.6 1.143e+04 1.089e-09
 89.84725   -150.7 1.141e+04 9.846e-10
 89.86382   -152.0 1.132e+04 8.423e-10
 89.87429   -153.2 1.125e+04 7.343e-10
 89.87878   -154.7 1.106e+04 6.741e-10
 89.88925   -156.1 1.133e+04 8.733e-10
 89.91008   -157.0 1.116e+04 8.719e-10
 89.93074   -157.5 1.096e+04 8.701e-10
 89.94121   -158.1 1.125e+04 1.143e-09
 89.95197   -158.0 1.097e+04 1.061e-09
 89.97148   -157.4 1.067e+04 9.292e-10
 89.98195   -157.4 1.018e+04 6.584e-10
 89.99316   -156.8 9.975e+03 5.058e-10
 90.00363   -157.1 1.003e+04 5.101e-10
 90.02537   -156.7 9.764e+03 3.858e-10
 90.05578   -156.4 9.610e+03 3.181e-10
 90.07673   -157.7 9.503e+03 2.727e-10
 90.10924   -156.8 9.112e+03 2.058e-10
 90.15113   -155.6 8.814e+03 1.671e-10
 90.18064   -154.3 8.664e+03 1.521e-10
 90.19555   -154.9 8.545e+03 1.459e-10
 90.20793   -155.6 8.473e+03 1.391e-10
 90.23491   -154.1 8.466e+03 1.393e-10
 90.27680   -152.5 8.479e+03 1.435e-10
 90.30549   -151.0 8.522e+03 1.526e-10
 90.32643   -151.4 8.409e+03 1.488e-10
 90.36057   -150.0 8.496e+03 1.612e-10
 90.40230   -148.7 8.642e+03 1.834e-10
 90.43018   -148.4 8.733e+03 1.992e-10
 90.45129   -148.5 8.369e+03 1.457e-10
 90.48624   -147.3 8.392e+03 1.487e-10
 90.52812   -146.2 8.406e+03 1.496e-10
 90.55520   -145.1 8.416e+03 1.497e-10
 90.57614   -145.1 7.960e+03 9.387e-11
 90.61190   -144.1 7.962e+03 9.364e-11
 90.63856   -143.3 7.981e+03 9.384e-11
 90.65950   -144.1 7.974e+03 9.426e-11
 90.68005   -143.6 8.103e+03 9.855e-11
 90.70100   -143.2 7.841e+03 7.233e-11
 90.73756   -142.6 7.976e+03 8.145e-11
 90.77945   -142.2 8.125e+03 1.004e-10
 90.80490   -142.0 8.221e+03 1.318e-10
 90.82585   -141.4 8.049e+03 1.001e-10
 90.85387   -141.5 8.258e+03 1.369e-10
 90.87481   -142.5 8.422e+03 1.561e-10
 90.90512   -143.3 9.093e+03 2.478e-10
 90.92976   -145.1 1.005e+04 4.407e-10
 90.95070   -143.9 9.845e+03 3.889e-10
 90.98889   -145.9 1.059e+04 6.346e-10
 91.03078   -148.1 1.102e+04 8.590e-10
 91.05461   -150.5 1.110e+04 9.253e-10
 91.07207   -149.2 1.090e+04 8.116e-10
 91.09013   -150.4 1.072e+04 7.462e-10
 91.11456   -152.7 1.040e+04 6.325e-10
 91.15644   -154.3 9.851e+03 4.340e-10
 91.17947   -155.0 9.329e+03 2.922e-10
 91.20041   -155.2 9.342e+03 2.850e-10
 91.24022   -155.8 9.016e+03 2.114e-10
 91.28211   -156.4 8.860e+03 1.828e-10
 91.30432   -156.4 8.830e+03 1.816e-10
 91.30670   -159.3 1.004e+04 3.836e-10
 91.32638   -160.0 1.006e+04 3.965e-10
 91.36588   -160.2 1.081e+04 6.026e-10
 91.40777   -159.8 1.131e+04 8.278e-10
 91.42917   -159.3 1.168e+04 9.925e-10
 91.43955   -163.8 1.255e+04 1.322e-09
 91.45994   -164.0 1.268e+04 1.334e-09
 91.48088   -164.2 1.285e+04 1.350e-09
 91.50182   -168.5 1.358e+04 1.583e-09
 91.52055   -169.1 1.374e+04 1.614e-09
 91.53103   -170.3 1.400e+04 1.786e-09
 91.54336   -170.6 1.413e+04 1.870e-09
 91.55383   -174.6 1.470e+04 2.408e-09
 91.56466   -174.5 1.462e+04 2.413e-09
 91.58560   -174.3 1.452e+04 2.360e-09
 91.60578   -174.2 1.443e+04 2.262e-09
 91.61626   -177.5 1.452e+04 2.337e-09
 91.62749   -177.3 1.437e+04 2.135e-09
 91.63868   -177.1 1.419e+04 1.890e-09
 91.64916   -177.7 1.408e+04 1.851e-09
 91.66821   -177.4 1.380e+04 1.589e-09
 91.67868   -180.2 1.329e+04 1.304e-09
 91.69032   -179.7 1.312e+04 1.123e-09
 91.71126   -179.5 1.295e+04 9.695e-10
 91.73597   -180.1 1.262e+04 7.812e-10
 91.75691   -181.3 1.189e+04 5.609e-10
 91.77410   -180.7 1.180e+04 5.251e-10
 91.79307   -180.0 1.171e+04 5.151e-10
 91.80363   -183.0 1.132e+04 3.948e-10
 91.82665   -181.9 1.111e+04 3.786e-10
 91.86854   -180.4 1.106e+04 3.814e-10
 91.90764   -179.3 1.102e+04 3.776e-10
 91.92859   -181.7 1.092e+04 3.524e-10
 91.95138   -180.4 1.084e+04 3.497e-10
 91.97232   -179.9 1.060e+04 2.815e-10
 91.99420   -178.3 1.043e+04 2.658e-10
 92.03250   -176.5 1.023e+04 2.387e-10
 92.05344   -177.4 1.006e+04 2.087e-10
 92.07798   -175.2 9.933e+03 1.918e-10
 92.11987   -172.9 9.842e+03 1.760e-10
 92.15735   -170.6 9.832e+03 1.657e-10
 92.17829   -170.9 9.783e+03 1.630e-10
 92.18763   -168.6 9.803e+03 1.624e-10
 92.20858   -168.2 9.827e+03 1.665e-10
 92.24553   -166.0 9.873e+03 1.762e-10
 92.28220   -163.9 9.919e+03 1.875e-10
 92.30315   -163.9 9.803e+03 1.645e-10
 92.32931   -161.9 9.824e+03 1.745e-10
 92.37120   -159.8 9.865e+03 1.875e-10
 92.40294   -157.9 9.905e+03 2.003e-10
 92.41786   -157.4 9.923e+03 2.122e-10
 92.42800   -157.2 9.919e+03 2.099e-10
 92.45497   -155.2 9.973e+03 2.268e-10
 92.49686   -153.3 1.001e+04 2.334e-10
 92.53191   -151.5 1.000e+04 2.338e-10
 92.55285   -151.5 1.036e+04 2.913e-10
 92.58064   -149.8 1.035e+04 2.762e-10
 92.61826   -148.0 1.028e+04 2.288e-10
 92.63920   -147.6 1.045e+04 2.790e-10
 92.65676   -145.8 1.037e+04 2.372e-10
 92.67771   -146.4 1.087e+04 4.107e-10
 92.70630   -144.6 1.075e+04 3.605e-10
 92.74819   -142.8 1.068e+04 3.338e-10
 92.78162   -141.0 1.067e+04 3.283e-10
 92.80256   -141.6 1.105e+04 4.892e-10
 92.83196   -139.7 1.108e+04 4.947e-10
 92.85451   -137.9 1.122e+04 5.506e-10
 92.87546   -137.5 1.125e+04 6.124e-10
 92.90647   -135.7 1.131e+04 6.397e-10
 92.92741   -136.3 1.174e+04 8.731e-10
 92.95763   -134.3 1.185e+04 9.313e-10
 92.99952   -132.4 1.186e+04 9.348e-10
 93.03132   -130.3 1.170e+04 8.397e-10
 93.05227   -131.1 1.213e+04 1.140e-09
 93.06983   -128.8 1.193e+04 1.023e-09
 93.09077   -128.5 1.194e+04 1.026e-09
 93.12518   -126.0 1.184e+04 9.544e-10
 93.15618   -123.5 1.183e+04 9.378e-10
 93.17712   -124.4 1.199e+04 1.083e-09
 93.20896   -122.0 1.205e+04 1.089e-09
 93.25085   -120.4 1.258e+04 1.280e-09
 93.28093   -119.4 1.317e+04 1.730e-09
 93.29428   -120.1 1.311e+04 1.724e-09
 93.30608   -119.8 1.274e+04 1.422e-09
 93.32405   -118.7 1.353e+04 2.131e-09
 93.34326   -118.1 1.410e+04 2.876e-09
 93.35373   -119.0 1.349e+04 2.253e-09
 93.36584   -118.1 1.394e+04 2.911e-09
 93.38679   -117.4 1.432e+04 3.342e-09
 93.40307   -117.0 1.477e+04 3.733e-09
 93.41150   -117.2 1.476e+04 3.533e-09
 93.41616   -117.8 1.357e+04 2.365e-09
 93.42867   -117.4 1.383e+04 2.527e-09
 93.44962   -117.3 1.409e+04 2.624e-09
 93.46811   -117.2 1.434e+04 2.724e-09
 93.47859   -117.6 1.304e+04 1.675e-09
 93.49151   -117.6 1.313e+04 1.603e-09
 93.51073   -117.5 1.320e+04 1.564e-09
 93.52120   -117.3 1.289e+04 1.397e-09
 93.53054   -117.2 1.283e+04 1.278e-09
 93.54101   -117.6 1.226e+04 9.641e-10
 93.55434   -117.6 1.212e+04 8.983e-10
 93.57528   -117.3 1.196e+04 8.549e-10
 93.59297   -116.7 1.186e+04 8.346e-10
 93.60344   -117.1 1.174e+04 7.937e-10
 93.61717   -116.6 1.172e+04 7.937e-10
 93.62886   -116.3 1.178e+04 8.193e-10
 93.63933   -116.7 1.185e+04 8.699e-10
 93.65540   -116.8 1.217e+04 1.024e-09
 93.66587   -117.4 1.217e+04 1.044e-09
 93.68000   -117.6 1.244e+04 1.227e-09
 93.70095   -118.0 1.269e+04 1.469e-09
 93.71782   -118.5 1.292e+04 1.772e-09
 93.72829   -118.5 1.240e+04 1.340e-09
 93.73651   -118.8 1.240e+04 1.446e-09
 93.74698   -118.3 1.264e+04 1.749e-09
 93.76378   -118.3 1.264e+04 1.773e-09
 93.78025   -118.3 1.266e+04 1.773e-09
 93.79072   -118.3 1.189e+04 1.192e-09
 93.80567   -118.1 1.187e+04 1.184e-09
 93.82661   -118.0 1.193e+04 1.194e-09
 93.84268   -118.2 1.228e+04 1.253e-09
 93.84976   -117.6 1.156e+04 8.678e-10
 93.85464   -117.6 1.176e+04 9.513e-10
 93.86850   -117.9 1.212e+04 1.148e-09
 93.88944   -118.2 1.255e+04 1.507e-09
 93.90510   -118.1 1.304e+04 2.067e-09
 93.91557   -117.2 1.220e+04 1.270e-09
 93.93133   -117.0 1.269e+04 1.725e-09
 93.95183   -116.7 1.314e+04 2.248e-09
 93.96230   -116.4 1.318e+04 2.263e-09
 93.96753   -116.0 1.342e+04 2.596e-09
 93.97800   -115.4 1.267e+04 1.768e-09
 93.99416   -114.8 1.287e+04 2.049e-09
 94.01511   -114.2 1.295e+04 2.196e-09
 94.02996   -113.4 1.294e+04 2.056e-09
 94.04043   -112.7 1.241e+04 1.715e-09
 94.05699   -111.7 1.241e+04 1.660e-09
 94.06995   -110.7 1.237e+04 1.367e-09
 94.08043   -110.4 1.227e+04 1.254e-09
 94.09238   -109.6 1.199e+04 1.046e-09
 94.10285   -108.9 1.200e+04 1.059e-09
 94.13040   -108.4 1.171e+04 8.699e-10
 94.15500   -106.5 1.124e+04 6.472e-10
 94.17090   -104.8 1.129e+04 6.732e-10
 94.18828   -104.5 1.121e+04 6.454e-10
 94.21427   -102.6 1.089e+04 5.267e-10
 94.25616   -100.2 1.064e+04 4.444e-10
 94.27986    -97.7 1.060e+04 4.147e-10
 94.30080    -96.6 1.057e+04 4.197e-10
 94.33993    -94.0 1.060e+04 4.172e-10
 94.38182    -91.7 1.076e+04 4.607e-10
 94.40359    -89.6 1.105e+04 5.650e-10
 94.40553    -89.4 1.133e+04 7.561e-10
 94.42566    -88.5 1.128e+04 7.485e-10
 94.46560    -86.5 1.168e+04 9.844e-10
 94.50749    -84.5 1.202e+04 1.222e-09
 94.52956    -82.7 1.224e+04 1.373e-09
 94.55051    -81.8 1.209e+04 1.321e-09
 94.59126    -80.2 1.216e+04 1.358e-09
 94.61880    -78.7 1.224e+04 1.401e-09
 94.63975    -78.8 1.238e+04 1.452e-09
 94.65432    -77.4 1.197e+04 1.161e-09
 94.66469    -76.7 1.188e+04 1.124e-09
 94.68532    -76.1 1.151e+04 8.828e-10
 94.70618    -75.3 1.111e+04 6.832e-10
 94.72628    -73.8 1.076e+04 4.904e-10
 94.73684    -73.8 1.085e+04 5.589e-10
 94.74815    -72.9 1.059e+04 4.216e-10
 94.76860    -72.2 1.052e+04 3.412e-10
 94.77908    -71.7 1.054e+04 3.257e-10
 94.80060    -71.1 1.033e+04 2.487e-10
 94.83421    -69.5 9.987e+03 1.955e-10
 94.85516    -69.5 1.012e+04 2.361e-10
 94.88318    -67.9 9.983e+03 2.181e-10
 94.90413    -67.2 9.949e+03 2.024e-10
 94.92637    -65.8 1.004e+04 2.249e-10
 94.96825    -64.5 1.029e+04 3.072e-10
 95.00803    -62.7 1.060e+04 3.916e-10
 95.02898    -61.9 1.049e+04 3.632e-10
 95.04953    -60.7 1.071e+04 3.879e-10
 95.07047    -60.4 1.057e+04 3.384e-10
 95.09392    -59.6 1.061e+04 3.501e-10
 95.13289    -58.7 1.048e+04 3.461e-10
 95.15383    -58.0 1.052e+04 3.411e-10
 95.17769    -57.0 1.043e+04 3.126e-10
 95.21958    -56.1 1.037e+04 2.265e-10
 95.25774    -55.6 1.011e+04 1.450e-10
 95.27869    -54.9 1.043e+04 1.941e-10
 95.28578    -54.7 1.009e+04 1.323e-10
 95.30673    -53.4 1.032e+04 1.805e-10
 95.34525    -53.0 1.002e+04 1.266e-10
 95.38259    -52.8 9.775e+03 1.183e-10
 95.40354    -52.9 9.812e+03 1.449e-10
 95.42902    -52.9 9.806e+03 1.599e-10
 95.47091    -52.7 9.750e+03 2.342e-10
 95.50110    -51.3 9.949e+03 3.412e-10
 95.51669    -50.6 1.006e+04 3.586e-10
 95.52839    -50.6 1.003e+04 3.465e-10
 95.54412    -50.1 1.020e+04 3.993e-10
 95.56496    -50.2 1.049e+04 4.246e-10
 95.58015    -50.8 1.084e+04 4.864e-10
 95.59062    -51.2 1.099e+04 5.712e-10
 95.60685    -51.7 1.110e+04 7.253e-10
 95.61903    -51.3 1.135e+04 9.291e-10
 95.62950    -51.0 1.139e+04 9.320e-10
 95.64258    -50.5 1.146e+04 1.068e-09
 95.65305    -50.4 1.188e+04 1.343e-09
 95.66968    -49.9 1.184e+04 1.402e-09
 95.69063    -49.0 1.169e+04 1.259e-09
 95.70501    -48.4 1.139e+04 1.027e-09
 95.71548    -48.6 1.162e+04 1.172e-09
 95.72669    -48.4 1.134e+04 9.736e-10
 95.73716    -48.0 1.139e+04 9.648e-10
 95.75346    -48.1 1.119e+04 8.308e-10
 95.76743    -48.3 1.093e+04 7.707e-10
 95.77790    -48.2 1.111e+04 8.936e-10
 95.79535    -47.7 1.103e+04 8.885e-10
 95.81629    -47.0 1.098e+04 9.324e-10
 95.82986    -46.0 1.088e+04 9.427e-10
 95.83744    -45.8 1.110e+04 1.071e-09
 95.84481    -45.3 1.116e+04 1.075e-09
 95.85818    -44.1 1.108e+04 1.032e-09
 95.87912    -42.9 1.088e+04 9.346e-10
 95.89229    -41.8 1.074e+04 8.095e-10
 95.90276    -41.6 1.084e+04 8.583e-10
 95.92101    -40.8 1.085e+04 7.139e-10
 95.94196    -40.4 1.063e+04 6.404e-10
 95.95471    -39.3 1.029e+04 4.678e-10
 95.96518    -39.0 1.022e+04 4.566e-10
 95.98384    -38.7 1.008e+04 4.377e-10
 96.00479    -37.2 9.863e+03 4.383e-10
 96.01714    -36.8 9.840e+03 4.356e-10
 96.02771    -36.8 9.799e+03 4.259e-10
 96.05734    -34.7 9.742e+03 4.204e-10
 96.09923    -32.6 9.697e+03 4.211e-10
 96.13055    -30.7 9.658e+03 4.121e-10
 96.14199    -30.0 9.789e+03 4.299e-10
 96.15256    -30.2 9.672e+03 4.250e-10
 96.16788    -28.9 9.813e+03 4.499e-10
 96.17825    -28.2 9.889e+03 4.470e-10
 96.19328    -27.6 9.916e+03 4.802e-10
 96.20442    -26.9 9.949e+03 5.316e-10
 96.21489    -26.3 9.932e+03 5.263e-10
 96.23517    -25.5 9.967e+03 5.811e-10
 96.25612    -24.8 1.019e+04 6.524e-10
 96.26685    -24.1 1.049e+04 7.205e-10
 96.27570    -23.5 1.044e+04 7.152e-10
 96.28591    -22.9 1.046e+04 7.594e-10
 96.29800    -22.2 1.087e+04 8.829e-10
 96.31880    -21.8 1.131e+04 1.029e-09
 96.32927    -21.1 1.132e+04 1.049e-09
 96.33989    -20.8 1.176e+04 1.239e-09
 96.36084    -20.4 1.192e+04 1.394e-09
 96.38123    -19.8 1.181e+04 1.502e-09
 96.39170    -19.0 1.201e+04 1.577e-09
 96.39357    -18.4 1.184e+04 1.550e-09
 96.40404    -17.9 1.286e+04 2.202e-09
 96.42367    -17.2 1.268e+04 2.144e-09
 96.44365    -16.6 1.228e+04 1.942e-09
 96.45413    -15.7 1.240e+04 2.013e-09
 96.46556    -14.8 1.178e+04 1.673e-09
 96.48650    -14.1 1.122e+04 1.264e-09
 96.50618    -13.4 1.105e+04 1.063e-09
 96.52722    -10.9 1.107e+04 1.162e-09
 96.56000     -9.4 1.028e+04 7.244e-10
 96.59860     -8.3 9.850e+03 5.655e-10
 96.61955     -6.8 1.046e+04 7.456e-10
 96.63113     -5.8 1.028e+04 6.974e-10
 96.65207     -2.5 1.062e+04 7.566e-10
 96.68566     -1.6 1.073e+04 8.152e-10
 96.72755     -0.7 1.105e+04 1.011e-09
 96.75598      0.2 1.111e+04 1.079e-09
 96.77693      3.9 1.177e+04 1.361e-09
 96.81133      4.9 1.163e+04 1.294e-09
 96.83486      5.9 1.111e+04 1.011e-09
 96.85580      7.9 1.183e+04 1.466e-09
 96.88084      8.6 1.117e+04 1.032e-09
 96.90178     12.7 1.204e+04 1.510e-09
 96.93699     13.0 1.139e+04 1.045e-09
 96.97888     12.3 1.093e+04 8.323e-10
 97.00569     12.1 1.041e+04 7.145e-10
 97.02663     16.7 1.125e+04 8.459e-10
 97.05017     16.3 1.035e+04 6.315e-10
 97.07112     19.0 1.117e+04 9.427e-10
 97.10454     18.5 1.094e+04 8.354e-10
 97.13054     16.6 1.089e+04 7.820e-10
 97.15149     21.7 1.121e+04 8.462e-10
 97.18832     18.5 1.131e+04 8.956e-10
 97.23021     14.2 1.143e+04 9.596e-10
 97.25530     10.4 1.208e+04 1.198e-09
 97.26567     11.9 1.261e+04 1.437e-09
 97.27576      8.9 1.261e+04 1.529e-09
 97.28623      8.2 1.269e+04 1.585e-09
 97.30332     -0.9 1.625e+04 2.673e-09
 97.31763    -11.8 2.043e+04 6.555e-09
 97.32282    -14.9 2.216e+04 1.030e-08
 97.32940    -18.1 2.208e+04 1.560e-08
 97.33473    -20.8 2.131e+04 2.311e-08
 97.33996    -21.4 2.052e+04 2.654e-08
 97.34874    -22.8 2.016e+04 3.301e-08
 97.35398    -23.9 2.024e+04 4.449e-08
 97.36082    -24.6 2.031e+04 4.509e-08
 97.37129    -26.0 2.162e+04 3.874e-08
 97.37996    -29.0 2.369e+04 2.965e-08
 97.38519    -33.3 2.631e+04 2.843e-08
 97.38856    -40.2 2.763e+04 1.752e-08
 97.39384    -40.7 2.726e+04 1.183e-08
 97.40804    -53.4 2.270e+04 5.964e-09
 97.42898    -61.8 1.814e+04 5.030e-09
 97.44248    -64.2 1.676e+04 5.361e-09
 97.45295    -68.2 1.526e+04 4.372e-09
 97.47087    -67.2 1.524e+04 4.545e-09
 97.49107    -66.2 1.536e+04 4.447e-09
 97.50155    -66.7 1.527e+04 4.295e-09
 97.50491    -66.0 1.563e+04 4.338e-09
 97.51538    -69.2 1.422e+04 2.513e-09
 97.53370    -69.6 1.393e+04 2.091e-09
 97.55465    -70.6 1.319e+04 1.622e-09
 97.56734    -71.7 1.224e+04 1.248e-09
 97.57781    -72.8 1.141e+04 1.037e-09
 97.59653    -72.7 1.094e+04 8.753e-10
 97.60920    -72.4 1.065e+04 7.771e-10
 97.61967    -72.0 1.075e+04 7.947e-10
 97.62976    -71.9 1.054e+04 6.914e-10
 97.64023    -72.1 1.038e+04 5.996e-10
 97.65937    -72.1 1.029e+04 5.506e-10
 97.68031    -71.9 1.029e+04 5.442e-10
 97.69219    -72.0 1.053e+04 5.906e-10
 97.70266    -72.9 1.056e+04 5.674e-10
 97.71686    -73.1 1.091e+04 7.159e-10
 97.72733    -72.6 1.071e+04 6.427e-10
 97.74314    -72.3 1.107e+04 8.527e-10
 97.75462    -71.7 1.142e+04 1.105e-09
 97.76509    -72.9 1.178e+04 1.167e-09
 97.78503    -71.9 1.220e+04 1.541e-09
 97.80597    -70.7 1.253e+04 1.839e-09
 97.81704    -69.6 1.274e+04 1.946e-09
 97.82511    -70.8 1.333e+04 2.437e-09
 97.83499    -70.3 1.324e+04 2.388e-09
 97.84786    -69.3 1.343e+04 2.509e-09
 97.86881    -68.7 1.356e+04 2.443e-09
 97.87947    -68.4 1.342e+04 2.130e-09
 97.88994    -69.7 1.418e+04 3.045e-09
 97.91069    -69.5 1.393e+04 2.503e-09
 97.93142    -69.3 1.350e+04 1.966e-09
 97.94190    -70.6 1.406e+04 2.594e-09
 97.94264    -70.6 1.341e+04 1.882e-09
 97.95312    -69.6 1.422e+04 2.833e-09
 97.97353    -69.8 1.356e+04 2.057e-09
 97.99385    -70.4 1.282e+04 1.564e-09
 98.00432    -71.7 1.284e+04 1.607e-09
 98.01541    -72.1 1.226e+04 1.338e-09
 98.03636    -72.2 1.197e+04 1.255e-09
 98.05030    -71.9 1.177e+04 1.199e-09
 98.05975    -70.9 1.205e+04 1.357e-09
 98.06675    -71.6 1.169e+04 1.167e-09
 98.07825    -71.2 1.142e+04 1.047e-09
 98.09919    -70.8 1.117e+04 9.375e-10
 98.11870    -70.3 1.086e+04 8.241e-10
 98.12918    -70.9 1.058e+04 7.320e-10
 98.14108    -70.3 1.032e+04 6.557e-10
 98.15796    -69.7 1.004e+04 5.730e-10
 98.16843    -68.9 1.021e+04 6.370e-10
 98.18113    -68.1 9.923e+03 5.398e-10
 98.19160    -68.4 9.797e+03 5.108e-10
 98.20391    -67.6 9.594e+03 4.334e-10
 98.23318    -66.3 9.515e+03 3.862e-10
 98.25422    -67.1 9.425e+03 3.749e-10
 98.27741    -66.0 9.173e+03 3.234e-10
 98.31930    -64.5 9.019e+03 3.039e-10
 98.35813    -63.0 8.979e+03 3.042e-10
 98.37908    -63.3 8.747e+03 2.742e-10
 98.38394    -61.8 8.707e+03 2.680e-10
 98.40488    -60.3 8.781e+03 2.825e-10
 98.44496    -58.9 8.883e+03 2.981e-10
 98.48299    -57.8 9.091e+03 3.393e-10
 98.50393    -57.7 8.636e+03 2.521e-10
 98.52874    -56.8 8.827e+03 2.986e-10
 98.57063    -55.7 9.100e+03 3.691e-10
 98.59925    -54.3 9.304e+03 4.113e-10
 98.61552    -52.8 9.106e+03 3.650e-10
 98.62879    -52.2 8.707e+03 2.951e-10
 98.65440    -51.1 8.680e+03 2.751e-10
 98.69629    -50.1 8.531e+03 2.231e-10
 98.73269    -49.4 8.366e+03 1.863e-10
 98.75364    -48.9 8.368e+03 1.856e-10
 98.78007    -48.1 8.259e+03 1.749e-10
 98.81456    -47.3 8.287e+03 1.809e-10
 98.83550    -45.8 8.147e+03 1.612e-10
 98.85755    -44.8 8.260e+03 1.739e-10
 98.87849    -44.9 8.408e+03 2.026e-10
 98.90573    -44.9 8.683e+03 2.139e-10
 98.94762    -45.8 9.202e+03 2.534e-10
 98.98240    -46.6 9.597e+03 3.865e-10
 99.00335    -47.1 9.642e+03 4.313e-10
 99.02987    -46.5 9.894e+03 5.458e-10
 99.05082    -45.1 9.715e+03 4.837e-10
 99.07328    -43.6 9.992e+03 5.635e-10
 99.10726    -42.5 9.837e+03 4.496e-10
 99.12820    -42.6 9.447e+03 3.232e-10
 99.15706    -41.9 9.109e+03 2.077e-10
 99.19895    -41.7 8.875e+03 1.677e-10
 99.23211    -41.2 9.113e+03 1.730e-10
 99.25305    -41.2 9.107e+03 1.683e-10
 99.26613    -40.4 9.427e+03 2.410e-10
 99.28707    -38.4 9.184e+03 1.932e-10
 99.32461    -37.5 9.519e+03 2.711e-10
 99.35696    -36.1 9.770e+03 3.716e-10
 99.37791    -35.9 9.748e+03 3.633e-10
 99.40839    -34.4 9.861e+03 3.831e-10
 99.45027    -33.2 9.859e+03 3.675e-10
 99.48144    -32.1 1.007e+04 3.806e-10
 99.49204    -30.2 9.966e+03 3.904e-10
 99.50276    -30.4 9.691e+03 3.218e-10
 99.53405    -29.4 9.946e+03 3.632e-10
 99.56537    -28.7 1.009e+04 4.078e-10
 99.58621    -28.7 1.012e+04 4.190e-10
 99.59938    -28.0 1.015e+04 5.122e-10
 99.60916    -27.5 1.015e+04 5.265e-10
 99.62752    -26.9 1.008e+04 4.675e-10
 99.64914    -25.4 1.016e+04 5.591e-10
 99.66890    -24.7 1.019e+04 5.396e-10
 99.67937    -24.8 1.002e+04 4.806e-10
 99.69666    -24.0 1.013e+04 4.504e-10
 99.71760    -22.6 1.012e+04 4.537e-10
 99.73142    -22.3 1.022e+04 3.968e-10
 99.75247    -21.6 9.929e+03 3.431e-10
 99.78538    -20.7 9.758e+03 3.331e-10
 99.82727    -19.6 9.774e+03 3.592e-10
 99.85638    -17.9 9.764e+03 3.692e-10
 99.87732    -17.0 9.509e+03 3.036e-10
 99.91104    -15.3 9.588e+03 3.087e-10
 99.93301    -14.0 9.609e+03 3.050e-10
 99.95396    -12.9 9.604e+03 3.223e-10
 99.98123    -11.9 9.592e+03 2.951e-10
100.00217    -10.8 9.463e+03 2.841e-10
