# Columns:
#   distance along LOS (in CHIMPs)
#   peculiar velocity  (in km/s)
#   temperature (K)
#   HI number density
# pos=(63.1329,205.01,245.335), angles=(1.33602,4.7771)
  0.00103     92.2 1.006e+04 2.285e-10
  0.02218     94.5 1.022e+04 2.516e-10
  0.06243     96.6 1.048e+04 3.053e-10
  0.09676     98.3 1.091e+04 4.121e-10
  0.11688     99.6 1.086e+04 3.845e-10
  0.14292    101.1 1.129e+04 5.069e-10
  0.18317    102.0 1.160e+04 6.069e-10
  0.22342    102.2 1.164e+04 6.351e-10
  0.26122    102.2 1.158e+04 6.423e-10
  0.28134    103.6 1.162e+04 7.522e-10
  0.28750    103.7 1.152e+04 7.574e-10
  0.30762    103.8 1.096e+04 5.518e-10
  0.34417    104.2 1.101e+04 5.760e-10
  0.38442    105.0 1.109e+04 5.915e-10
  0.42466    105.9 1.115e+04 5.954e-10
  0.44580    106.9 1.116e+04 5.825e-10
  0.46592    107.2 1.082e+04 4.345e-10
  0.50516    108.3 1.080e+04 4.197e-10
  0.54541    109.5 1.071e+04 4.041e-10
  0.58566    111.0 1.058e+04 3.854e-10
  0.61025    112.7 1.043e+04 3.708e-10
  0.63038    113.3 1.034e+04 3.797e-10
  0.66616    115.2 1.031e+04 3.804e-10
  0.70640    117.2 1.035e+04 3.943e-10
  0.74665    119.1 1.046e+04 4.210e-10
  0.77461    120.0 1.046e+04 4.290e-10
  0.79474    121.3 1.052e+04 4.156e-10
  0.81699    121.9 1.065e+04 4.734e-10
  0.83702    122.6 1.083e+04 5.604e-10
  0.85675    123.3 1.103e+04 6.610e-10
  0.86681    123.5 1.092e+04 6.322e-10
  0.87727    124.1 1.115e+04 7.522e-10
  0.89739    124.8 1.136e+04 8.815e-10
  0.90976    125.6 1.153e+04 1.006e-09
  0.91983    125.7 1.152e+04 9.980e-10
  0.93764    126.6 1.169e+04 1.127e-09
  0.94904    127.4 1.184e+04 1.222e-09
  0.95910    127.4 1.178e+04 1.037e-09
  0.97789    128.1 1.184e+04 1.035e-09
  0.99801    128.7 1.183e+04 1.026e-09
  1.01814    129.3 1.182e+04 9.944e-10
  1.03126    129.8 1.185e+04 9.757e-10
  1.04133    129.5 1.163e+04 8.657e-10
  1.05838    129.9 1.169e+04 8.803e-10
  1.07851    130.3 1.182e+04 9.281e-10
  1.09863    130.7 1.200e+04 1.022e-09
  1.11349    131.2 1.221e+04 1.162e-09
  1.12356    130.8 1.207e+04 1.075e-09
  1.13888    131.5 1.234e+04 1.230e-09
  1.15901    132.3 1.267e+04 1.414e-09
  1.17913    133.1 1.304e+04 1.600e-09
  1.19572    133.8 1.340e+04 1.730e-09
  1.20578    133.2 1.285e+04 1.352e-09
  1.21596    133.5 1.286e+04 1.340e-09
  1.22603    133.1 1.268e+04 1.127e-09
  1.23950    133.3 1.268e+04 1.094e-09
  1.25963    133.4 1.262e+04 1.026e-09
  1.27795    133.5 1.251e+04 9.446e-10
  1.28801    133.2 1.160e+04 9.314e-10
  1.29988    133.4 1.141e+04 8.686e-10
  1.32000    133.8 1.122e+04 8.002e-10
  1.34012    134.1 1.104e+04 7.364e-10
  1.36018    134.4 1.089e+04 6.885e-10
  1.38030    135.1 1.097e+04 6.107e-10
  1.40050    135.3 1.092e+04 5.773e-10
  1.42062    135.5 1.085e+04 5.615e-10
  1.44075    135.7 1.083e+04 5.612e-10
  1.45247    135.9 1.084e+04 5.644e-10
  1.46253    135.9 1.120e+04 5.057e-10
  1.48099    136.0 1.122e+04 5.278e-10
  1.50112    136.1 1.130e+04 5.777e-10
  1.52124    136.1 1.146e+04 6.577e-10
  1.53223    136.2 1.173e+04 7.755e-10
  1.53562    135.4 1.250e+04 1.215e-09
  1.54476    135.4 1.273e+04 1.590e-09
  1.56149    135.5 1.315e+04 1.933e-09
  1.58162    135.4 1.365e+04 2.327e-09
  1.60174    135.1 1.443e+04 2.884e-09
  1.61693    134.3 1.561e+04 3.865e-09
  1.62699    134.3 1.582e+04 4.463e-09
  1.64199    132.8 1.686e+04 6.088e-09
  1.66211    131.8 1.747e+04 7.528e-09
  1.67716    131.0 1.775e+04 7.933e-09
  1.68523    130.2 1.803e+04 8.521e-09
  1.69026    130.0 1.846e+04 1.090e-08
  1.69723    129.1 1.883e+04 1.236e-08
  1.70409    128.4 1.914e+04 1.403e-08
  1.70912    128.1 1.921e+04 1.386e-08
  1.71736    127.4 1.966e+04 1.551e-08
  1.72742    126.5 2.010e+04 1.661e-08
  1.73748    125.4 2.054e+04 1.658e-08
  1.74520    124.1 2.065e+04 1.629e-08
  1.75023    123.0 2.160e+04 1.739e-08
  1.75761    121.1 2.181e+04 1.683e-08
  1.76767    119.1 2.209e+04 1.512e-08
  1.77773    117.0 2.185e+04 1.279e-08
  1.78632    115.1 2.112e+04 1.052e-08
  1.79135    113.3 2.123e+04 1.217e-08
  1.80293    111.5 2.045e+04 1.061e-08
  1.82311    110.1 1.934e+04 8.626e-09
  1.83843    109.4 1.825e+04 6.622e-09
  1.84849    109.0 1.993e+04 1.069e-08
  1.86336    108.4 1.928e+04 8.458e-09
  1.87367    108.1 1.929e+04 7.324e-09
  1.88374    105.2 1.841e+04 7.525e-09
  1.90361    105.7 1.849e+04 7.644e-09
  1.91474    106.4 1.850e+04 6.760e-09
  1.91972    105.7 1.857e+04 7.401e-09
  1.92866    105.7 1.861e+04 7.316e-09
  1.93873    105.8 1.875e+04 7.636e-09
  1.94879    105.8 1.907e+04 8.483e-09
  1.95581    105.5 1.955e+04 9.982e-09
  1.96084    104.4 1.912e+04 1.253e-08
  1.96891    104.0 1.982e+04 1.540e-08
  1.97897    103.3 2.084e+04 2.075e-08
  1.98904    102.6 2.194e+04 3.198e-08
  1.99646    101.8 2.265e+04 5.359e-08
  1.99931    102.6 2.240e+04 9.920e-08
  2.00195    101.6 2.216e+04 9.397e-08
  2.00916    101.5 2.219e+04 1.650e-07
  2.01922    101.2 2.221e+04 2.687e-07
  2.02928     99.8 2.251e+04 3.228e-07
  2.03803     97.9 2.250e+04 3.010e-07
  2.04306     98.1 2.263e+04 3.511e-07
  2.04941     97.5 2.273e+04 2.732e-07
  2.05947     98.0 2.289e+04 1.566e-07
  2.06953     98.9 2.359e+04 7.543e-08
  2.07915     98.6 2.441e+04 3.661e-08
  2.08418     99.0 2.436e+04 4.492e-08
  2.08966     98.2 2.689e+04 2.021e-08
  2.09972     92.4 3.218e+04 1.921e-08
  2.10978     68.7 5.121e+04 2.773e-08
  2.11984     46.8 4.701e+04 7.721e-08
  2.12529     34.8 4.591e+04 8.678e-08
  2.13032     34.7 3.741e+04 2.125e-07
  2.13997     30.9 4.593e+04 8.089e-08
  2.14956     22.8 6.016e+04 1.450e-08
  2.15459     17.1 3.897e+04 3.025e-08
  2.16009     10.7 4.820e+04 5.982e-09
  2.16641    -12.0 4.838e+04 2.152e-09
  2.17144     -6.2 5.509e+04 2.447e-09
  2.18530    -34.8 1.779e+04 2.734e-09
  2.20259    -36.0 1.630e+04 2.834e-09
  2.21265    -33.9 1.642e+04 3.514e-09
  2.22559    -32.7 1.644e+04 3.643e-09
  2.24572    -31.3 1.665e+04 3.828e-09
  2.26584    -29.8 1.683e+04 4.063e-09
  2.28482    -28.0 1.692e+04 4.255e-09
  2.29488    -26.2 1.706e+04 5.058e-09
  2.30609    -24.8 1.702e+04 5.104e-09
  2.32622    -23.2 1.675e+04 4.884e-09
  2.34634    -21.7 1.650e+04 4.420e-09
  2.36646    -20.5 1.613e+04 3.881e-09
  2.37711    -19.4 1.553e+04 3.408e-09
  2.38717    -17.9 1.591e+04 4.084e-09
  2.40671    -17.0 1.528e+04 3.524e-09
  2.42684    -15.9 1.467e+04 3.018e-09
  2.44696    -14.5 1.428e+04 2.651e-09
  2.45934    -13.3 1.375e+04 2.254e-09
  2.46320    -12.2 1.412e+04 2.534e-09
  2.47095    -13.4 1.356e+04 1.925e-09
  2.48721    -11.9 1.316e+04 1.615e-09
  2.50733    -11.2 1.294e+04 1.444e-09
  2.52746    -10.1 1.259e+04 1.255e-09
  2.55774     -7.3 1.263e+04 1.287e-09
  2.59809     -5.2 1.235e+04 1.001e-09
  2.62399     -3.5 1.183e+04 6.321e-10
  2.64411     -2.4 1.163e+04 6.159e-10
  2.67859     -1.9 1.082e+04 4.643e-10
  2.70612     -4.1 9.961e+03 3.930e-10
  2.71608     -3.5 1.015e+04 4.193e-10
  2.72870     -2.1 1.015e+04 4.173e-10
  2.74883     -1.6 1.016e+04 4.014e-10
  2.76709     -1.2 1.018e+04 4.002e-10
  2.77715     -2.1 1.034e+04 4.742e-10
  2.78825     -2.3 1.040e+04 4.642e-10
  2.79831     -2.6 1.017e+04 4.496e-10
  2.80920     -3.9 1.160e+04 5.540e-10
  2.82932     -9.9 1.422e+04 1.284e-09
  2.84945    -13.3 1.446e+04 2.810e-09
  2.86957    -14.0 1.454e+04 4.585e-09
  2.88054    -12.8 1.513e+04 5.721e-09
  2.89060    -12.2 1.485e+04 5.060e-09
  2.90982    -10.9 1.527e+04 5.379e-09
  2.92994    -10.6 1.490e+04 3.801e-09
  2.95007    -14.7 1.345e+04 1.860e-09
  2.96277    -19.4 1.134e+04 1.005e-09
  2.97283    -17.7 1.151e+04 1.107e-09
  2.99032    -19.4 1.070e+04 8.500e-10
  3.01044    -20.4 1.047e+04 7.541e-10
  3.03057    -20.7 1.049e+04 7.375e-10
  3.04500    -21.0 1.070e+04 7.497e-10
  3.05506    -20.3 1.066e+04 8.045e-10
  3.07081    -20.9 1.089e+04 8.457e-10
  3.08335    -21.6 1.097e+04 8.606e-10
  3.09342    -23.2 1.086e+04 8.612e-10
  3.11106    -23.4 1.050e+04 8.122e-10
  3.12723    -23.4 1.016e+04 7.475e-10
  3.13729    -22.5 1.067e+04 8.828e-10
  3.15131    -22.6 1.052e+04 8.175e-10
  3.17144    -22.7 1.046e+04 7.599e-10
  3.19156    -23.1 1.044e+04 7.137e-10
  3.20946    -23.0 1.029e+04 6.434e-10
  3.21952    -22.6 1.003e+04 6.336e-10
  3.23181    -22.6 9.820e+03 5.299e-10
  3.25193    -22.4 9.906e+03 4.968e-10
  3.28172    -23.6 9.964e+03 4.608e-10
  3.30184    -24.4 1.036e+04 6.098e-10
  3.31231    -25.5 1.060e+04 6.491e-10
  3.33243    -26.5 1.090e+04 7.178e-10
  3.35256    -28.1 1.123e+04 8.695e-10
  3.37268    -29.1 1.153e+04 1.007e-09
  3.38397    -30.1 1.182e+04 1.185e-09
  3.39079    -30.0 1.175e+04 1.123e-09
  3.39962    -30.9 1.168e+04 1.126e-09
  3.41293    -32.0 1.171e+04 1.150e-09
  3.43305    -33.2 1.165e+04 1.126e-09
  3.45318    -34.4 1.136e+04 9.684e-10
  3.46620    -35.9 1.103e+04 7.922e-10
  3.47627    -35.9 1.089e+04 7.822e-10
  3.49343    -37.3 1.053e+04 6.484e-10
  3.51355    -38.3 1.019e+04 5.465e-10
  3.53367    -39.0 9.923e+03 4.708e-10
  3.54843    -39.2 9.721e+03 4.156e-10
  3.55849    -39.2 9.784e+03 4.327e-10
  3.57392    -39.3 9.726e+03 4.040e-10
  3.60421    -39.9 9.729e+03 3.811e-10
  3.63086    -40.3 9.471e+03 3.220e-10
  3.65098    -40.2 9.815e+03 4.420e-10
  3.68480    -40.4 9.465e+03 3.799e-10
  3.72505    -39.4 9.176e+03 3.179e-10
  3.76530    -38.5 8.990e+03 2.742e-10
  3.79531    -37.5 8.871e+03 2.453e-10
  3.81544    -37.0 9.054e+03 2.740e-10
  3.84580    -36.1 8.919e+03 2.360e-10
  3.88604    -35.5 8.923e+03 2.283e-10
  3.92629    -35.4 9.134e+03 2.428e-10
  3.95977    -35.8 9.590e+03 3.437e-10
  3.97989    -36.0 9.812e+03 3.835e-10
  4.00215    -36.1 1.037e+04 6.123e-10
  4.02228    -36.1 1.039e+04 6.227e-10
  4.04704    -35.5 1.084e+04 8.507e-10
  4.08729    -35.2 1.118e+04 9.598e-10
  4.12423    -35.8 1.141e+04 9.855e-10
  4.14435    -36.8 1.176e+04 1.075e-09
  4.16778    -39.2 1.221e+04 1.230e-09
  4.19787    -40.9 1.205e+04 1.241e-09
  4.21632    -41.3 1.236e+04 1.382e-09
  4.22638    -41.8 1.255e+04 1.618e-09
  4.23802    -42.8 1.267e+04 1.891e-09
  4.25815    -43.2 1.289e+04 2.133e-09
  4.27827    -43.7 1.305e+04 2.303e-09
  4.29840    -44.1 1.320e+04 2.398e-09
  4.30861    -44.6 1.337e+04 2.430e-09
  4.31837    -45.0 1.357e+04 2.402e-09
  4.32828    -45.2 1.418e+04 3.106e-09
  4.33865    -45.9 1.395e+04 2.637e-09
  4.35877    -46.9 1.358e+04 2.204e-09
  4.37889    -47.8 1.317e+04 1.862e-09
  4.39084    -48.6 1.275e+04 1.597e-09
  4.40090    -49.5 1.203e+04 1.195e-09
  4.41914    -49.9 1.172e+04 1.061e-09
  4.43927    -50.1 1.152e+04 9.811e-10
  4.45939    -50.3 1.145e+04 9.525e-10
  4.47307    -50.3 1.145e+04 9.494e-10
  4.48313    -50.7 1.125e+04 7.765e-10
  4.49964    -50.8 1.139e+04 8.363e-10
  4.51976    -50.7 1.163e+04 9.275e-10
  4.53989    -50.6 1.190e+04 1.035e-09
  4.55530    -50.5 1.215e+04 1.140e-09
  4.56536    -50.7 1.193e+04 1.026e-09
  4.58014    -50.6 1.224e+04 1.177e-09
  4.61042    -50.7 1.248e+04 1.294e-09
  4.63468    -50.5 1.251e+04 1.291e-09
  4.64176    -52.7 1.195e+04 9.128e-10
  4.65785    -53.7 1.114e+04 7.558e-10
  4.69102    -52.7 1.052e+04 5.797e-10
  4.73127    -51.8 9.832e+03 3.539e-10
  4.77151    -51.7 9.761e+03 2.703e-10
  4.80218    -52.3 1.028e+04 2.725e-10
  4.82230    -53.4 1.188e+04 3.874e-10
  4.84185    -52.7 1.146e+04 4.000e-10
  4.86188    -53.1 1.195e+04 6.554e-10
  4.88200    -53.2 1.260e+04 1.079e-09
  4.89427    -53.1 1.369e+04 1.746e-09
  4.90434    -52.9 1.434e+04 1.901e-09
  4.92225    -53.2 1.571e+04 2.988e-09
  4.94068    -53.8 1.706e+04 4.510e-09
  4.95074    -56.6 1.848e+04 6.481e-09
  4.96250    -57.9 1.961e+04 8.917e-09
  4.97650    -60.1 2.075e+04 1.223e-08
  4.98657    -61.4 2.161e+04 1.599e-08
  4.99767    -62.8 2.194e+04 2.034e-08
  5.00768    -64.4 2.209e+04 2.418e-08
  5.01752    -65.7 2.214e+04 2.886e-08
  5.02255    -66.5 2.246e+04 3.196e-08
  5.02781    -67.7 2.292e+04 3.880e-08
  5.03787    -69.0 2.352e+04 4.523e-08
  5.04793    -70.8 2.378e+04 4.723e-08
  5.05799    -72.7 2.355e+04 4.459e-08
  5.06367    -73.7 2.306e+04 3.541e-08
  5.06870    -75.1 2.316e+04 2.745e-08
  5.07812    -76.2 2.288e+04 2.138e-08
  5.08818    -77.7 2.254e+04 1.642e-08
  5.09824    -79.6 2.193e+04 1.227e-08
  5.10375    -82.2 2.086e+04 8.901e-09
  5.10525    -83.1 1.959e+04 8.082e-09
  5.10981    -84.7 1.786e+04 6.560e-09
  5.11837    -87.2 1.714e+04 5.171e-09
  5.12843    -89.5 1.676e+04 4.384e-09
  5.13849    -92.2 1.623e+04 3.642e-09
  5.14589    -93.6 1.612e+04 3.455e-09
  5.15097    -94.3 1.534e+04 3.217e-09
  5.16374    -97.5 1.505e+04 3.077e-09
  5.18387    -99.1 1.497e+04 3.101e-09
  5.20399   -100.0 1.488e+04 3.359e-09
  5.22319   -100.2 1.484e+04 3.449e-09
  5.23325    -99.8 1.527e+04 3.956e-09
  5.24424    -99.7 1.514e+04 3.955e-09
  5.25694    -99.2 1.464e+04 3.583e-09
  5.26701    -98.1 1.523e+04 4.132e-09
  5.28449    -97.5 1.454e+04 3.479e-09
  5.30461    -96.6 1.374e+04 2.769e-09
  5.31548    -95.6 1.300e+04 2.179e-09
  5.32554    -95.1 1.344e+04 2.374e-09
  5.34486    -94.0 1.277e+04 1.870e-09
  5.36499    -92.9 1.219e+04 1.487e-09
  5.38511    -91.8 1.169e+04 1.191e-09
  5.39771    -90.6 1.124e+04 9.603e-10
  5.40777    -90.4 1.146e+04 9.822e-10
  5.42536    -89.2 1.107e+04 7.967e-10
  5.44548    -88.1 1.074e+04 6.552e-10
  5.46561    -87.1 1.047e+04 5.477e-10
  5.47994    -86.1 1.021e+04 4.696e-10
  5.49000    -86.2 1.012e+04 4.358e-10
  5.50586    -85.2 9.834e+03 3.754e-10
  5.52598    -84.3 9.636e+03 3.379e-10
  5.54610    -83.4 9.516e+03 3.148e-10
  5.56217    -82.5 9.456e+03 3.026e-10
  5.56914    -82.6 9.454e+03 2.943e-10
  5.57321    -82.2 9.842e+03 3.412e-10
  5.58635    -81.4 9.618e+03 3.111e-10
  5.60648    -80.5 9.518e+03 2.955e-10
  5.62660    -79.8 9.502e+03 2.922e-10
  5.64439    -79.2 9.590e+03 2.988e-10
  5.65446    -79.3 9.254e+03 2.584e-10
  5.66685    -79.1 9.276e+03 2.588e-10
  5.68697    -79.1 9.435e+03 2.709e-10
  5.70710    -79.1 9.706e+03 3.002e-10
  5.72662    -80.6 1.026e+04 3.827e-10
  5.73668    -80.1 1.009e+04 3.416e-10
  5.74735    -82.4 1.094e+04 4.827e-10
  5.76747    -85.0 1.245e+04 9.509e-10
  5.78760    -86.7 1.407e+04 2.051e-09
  5.80772    -87.6 1.544e+04 3.720e-09
  5.81891    -88.0 1.637e+04 5.192e-09
  5.82898    -87.2 1.523e+04 3.620e-09
  5.84797    -87.6 1.587e+04 4.259e-09
  5.86809    -88.2 1.601e+04 4.316e-09
  5.87941    -89.1 1.560e+04 3.205e-09
  5.88947    -87.7 1.618e+04 4.314e-09
  5.90114    -88.8 1.521e+04 2.598e-09
  5.91120    -87.2 1.542e+04 2.954e-09
  5.92847    -88.7 1.406e+04 1.622e-09
  5.94859    -91.0 1.191e+04 8.987e-10
  5.96871    -92.2 1.086e+04 6.468e-10
  5.98337    -92.3 1.061e+04 5.813e-10
  5.99343    -91.7 1.066e+04 5.790e-10
  6.00896    -91.6 1.058e+04 5.684e-10
  6.02909    -91.5 1.060e+04 5.756e-10
  6.04921    -91.3 1.062e+04 5.910e-10
  6.06560    -90.8 1.062e+04 5.966e-10
  6.07566    -90.7 1.100e+04 7.049e-10
  6.08946    -90.4 1.102e+04 7.145e-10
  6.10958    -90.0 1.092e+04 7.069e-10
  6.12971    -89.4 1.065e+04 6.475e-10
  6.14783    -88.6 1.032e+04 5.633e-10
  6.15789    -88.6 1.091e+04 7.276e-10
  6.16996    -87.6 1.043e+04 5.785e-10
  6.18561    -86.4 9.981e+03 4.571e-10
  6.19567    -86.1 1.011e+04 4.955e-10
  6.21021    -85.0 9.781e+03 3.962e-10
  6.23006    -84.3 9.640e+03 3.451e-10
  6.24012    -84.2 9.737e+03 3.547e-10
  6.26061    -83.9 9.477e+03 2.986e-10
  6.30096    -82.0 8.971e+03 2.087e-10
  6.32254    -79.5 8.386e+03 1.343e-10
  6.34267    -80.0 8.661e+03 1.527e-10
  6.38146    -77.6 8.214e+03 1.036e-10
  6.42171    -75.3 8.011e+03 8.031e-11
  6.46196    -73.1 7.963e+03 7.344e-11
  6.48700    -70.8 7.954e+03 7.243e-11
  6.49692    -71.2 8.493e+03 1.296e-10
  6.51213    -70.5 8.524e+03 1.262e-10
  6.54245    -68.4 8.706e+03 1.549e-10
  6.58270    -66.2 8.922e+03 2.003e-10
  6.62295    -63.7 9.135e+03 2.569e-10
  6.65146    -61.2 9.314e+03 3.125e-10
  6.67158    -61.4 9.956e+03 5.300e-10
  6.70345    -58.7 9.946e+03 5.410e-10
  6.74370    -55.9 9.745e+03 5.202e-10
  6.78394    -53.1 9.468e+03 4.415e-10
  6.81591    -50.2 9.218e+03 3.568e-10
  6.83604    -50.5 9.586e+03 2.531e-10
  6.86444    -48.0 9.488e+03 2.188e-10
  6.90469    -45.4 9.464e+03 2.114e-10
  6.94494    -42.7 9.534e+03 2.155e-10
  6.98037    -40.1 9.703e+03 2.529e-10
  7.00049    -41.6 1.020e+04 2.844e-10
  7.02544    -38.6 1.021e+04 3.417e-10
  7.06568    -35.7 1.032e+04 4.005e-10
  7.10441    -32.8 1.037e+04 4.560e-10
  7.12453    -32.3 1.066e+04 5.312e-10
  7.14483    -29.6 1.077e+04 5.837e-10
  7.16495    -31.1 1.117e+04 6.605e-10
  7.18643    -28.6 1.134e+04 6.229e-10
  7.22668    -26.3 1.134e+04 5.906e-10
  7.26693    -24.1 1.137e+04 5.671e-10
  7.30718    -22.3 1.132e+04 5.589e-10
  7.32941    -20.7 1.133e+04 6.268e-10
  7.34953    -22.0 1.075e+04 4.716e-10
  7.38767    -19.7 1.057e+04 4.675e-10
  7.42792    -17.3 1.045e+04 4.523e-10
  7.46817    -14.8 1.045e+04 4.449e-10
  7.49387    -12.8 1.048e+04 4.432e-10
  7.51399    -13.2 9.911e+03 3.572e-10
  7.54867    -11.3 1.009e+04 3.926e-10
  7.58892     -9.0 1.024e+04 4.714e-10
  7.62916     -6.3 1.036e+04 5.316e-10
  7.65832     -3.8 1.044e+04 4.955e-10
  7.67845     -4.1 1.048e+04 6.991e-10
  7.70966     -1.4 1.046e+04 6.062e-10
  7.73693      0.6 1.028e+04 4.404e-10
  7.75706      1.0 1.025e+04 4.794e-10
  7.79016      3.0 9.862e+03 3.134e-10
  7.82278      4.9 9.461e+03 2.211e-10
  7.84290      5.5 9.326e+03 2.775e-10
  7.87066      7.4 9.048e+03 1.987e-10
  7.91091      9.6 8.836e+03 1.700e-10
  7.95115     12.3 8.774e+03 1.698e-10
  7.98724     15.0 8.802e+03 1.839e-10
  8.00736     15.6 8.589e+03 1.670e-10
  8.03165     18.5 8.598e+03 1.824e-10
  8.07190     21.3 8.709e+03 2.143e-10
  8.11215     24.1 8.914e+03 2.681e-10
  8.15169     26.8 9.168e+03 3.312e-10
  8.17182     27.0 8.947e+03 2.151e-10
  8.19265     29.5 9.167e+03 2.820e-10
  8.23289     32.0 9.349e+03 3.502e-10
  8.27314     34.5 9.359e+03 3.694e-10
  8.31339     37.0 9.281e+03 3.528e-10
  8.33628     39.5 9.109e+03 3.031e-10
  8.35209     39.1 9.018e+03 2.870e-10
  8.36946     40.2 9.271e+03 3.613e-10
  8.39389     42.5 9.144e+03 3.496e-10
  8.43414     45.0 9.004e+03 3.278e-10
  8.47439     47.5 8.879e+03 2.931e-10
  8.50073     50.0 8.711e+03 2.567e-10
  8.52086     50.6 8.964e+03 3.157e-10
  8.55488     53.0 8.827e+03 2.712e-10
  8.59513     55.2 8.737e+03 2.334e-10
  8.63538     57.3 8.808e+03 2.341e-10
  8.66519     59.0 8.983e+03 2.510e-10
  8.68531     59.6 8.837e+03 2.495e-10
  8.71588     61.4 9.143e+03 2.943e-10
  8.74597     62.1 9.159e+03 3.021e-10
  8.75729     62.9 9.267e+03 3.311e-10
  8.76735     63.4 9.095e+03 3.212e-10
  8.78612     64.3 9.302e+03 3.670e-10
  8.80624     65.1 9.660e+03 4.401e-10
  8.82637     65.5 1.013e+04 5.427e-10
  8.83951     65.7 1.063e+04 6.756e-10
  8.84958     66.5 1.029e+04 6.020e-10
  8.86661     66.5 1.072e+04 7.376e-10
  8.88674     66.4 1.108e+04 9.105e-10
  8.90686     66.4 1.145e+04 1.120e-09
  8.92174     66.8 1.182e+04 1.345e-09
  8.93180     67.7 1.147e+04 1.207e-09
  8.94711     67.8 1.193e+04 1.361e-09
  8.96724     68.1 1.209e+04 1.371e-09
  8.98176     68.1 1.199e+04 1.234e-09
  8.99182     69.2 1.228e+04 1.487e-09
  9.00397     69.2 1.228e+04 1.424e-09
  9.01403     71.2 1.187e+04 1.370e-09
  9.02761     71.6 1.176e+04 1.192e-09
  9.04773     71.9 1.151e+04 9.297e-10
  9.06786     72.0 1.118e+04 6.898e-10
  9.08620     71.5 1.077e+04 5.150e-10
  9.09626     72.5 1.067e+04 4.941e-10
  9.10811     71.5 1.017e+04 3.721e-10
  9.12823     70.6 9.728e+03 3.172e-10
  9.14835     70.0 9.631e+03 3.143e-10
  9.16843     69.9 9.615e+03 3.141e-10
  9.18855     70.6 9.607e+03 3.177e-10
  9.20873     70.2 9.746e+03 3.460e-10
  9.22885     69.6 9.927e+03 3.899e-10
  9.24898     69.0 1.015e+04 4.547e-10
  9.26072     67.9 1.051e+04 5.563e-10
  9.27078     67.4 1.068e+04 6.114e-10
  9.28786     65.7 1.129e+04 7.444e-10
  9.29792     66.0 1.175e+04 9.942e-10
  9.30178     60.1 1.542e+04 1.466e-09
  9.30677     60.1 1.533e+04 1.477e-09
  9.31428     57.4 1.724e+04 1.821e-09
  9.32434     45.3 2.536e+04 4.421e-09
  9.33441     36.8 2.649e+04 1.075e-08
  9.34285     32.9 2.410e+04 2.023e-08
  9.34788     29.6 2.224e+04 2.588e-08
  9.35453     27.2 2.183e+04 2.654e-08
  9.36459     24.3 2.196e+04 2.406e-08
  9.37466     22.7 2.199e+04 2.029e-08
  9.38980     17.1 2.298e+04 9.331e-09
  9.40997      7.4 1.909e+04 2.854e-09
  9.42518     -1.6 1.281e+04 1.317e-09
  9.43524     -4.0 1.190e+04 1.128e-09
  9.45022     -3.8 1.146e+04 9.308e-10
  9.47034     -3.6 1.123e+04 8.170e-10
  9.49047     -3.3 1.108e+04 7.752e-10
  9.50740     -2.7 1.089e+04 7.444e-10
  9.51747     -3.2 1.059e+04 6.649e-10
  9.53072     -1.9 1.052e+04 6.655e-10
  9.55084     -0.6 1.059e+04 6.912e-10
  9.57097      0.6 1.066e+04 7.172e-10
  9.58963      1.7 1.082e+04 7.733e-10
  9.59970      1.3 1.080e+04 7.432e-10
  9.60413      2.7 1.095e+04 7.904e-10
  9.61419      3.0 1.087e+04 7.663e-10
  9.64150      4.3 1.110e+04 8.599e-10
  9.67206      5.8 1.125e+04 9.354e-10
  9.69218      3.3 1.204e+04 1.120e-09
  9.71193      4.6 1.188e+04 1.180e-09
  9.73196      5.4 1.215e+04 1.294e-09
  9.75208      6.3 1.242e+04 1.339e-09
  9.76415      7.1 1.269e+04 1.407e-09
  9.77421      5.5 1.357e+04 1.868e-09
  9.79233      6.2 1.370e+04 1.969e-09
  9.81246      6.9 1.383e+04 2.128e-09
  9.83258      7.6 1.408e+04 2.400e-09
  9.84638      8.5 1.424e+04 2.699e-09
  9.85644      7.4 1.415e+04 2.983e-09
  9.87283      8.5 1.434e+04 3.221e-09
  9.89295      9.7 1.458e+04 3.575e-09
  9.91033     10.8 1.483e+04 3.997e-09
  9.92039     11.6 1.522e+04 4.154e-09
  9.92861     12.3 1.560e+04 4.996e-09
  9.93867     11.3 1.504e+04 3.772e-09
  9.95333     11.7 1.549e+04 3.877e-09
  9.97345     11.6 1.597e+04 3.921e-09
  9.98850     11.1 1.577e+04 3.108e-09
  9.99851     10.7 1.560e+04 2.893e-09
 10.00857      9.2 1.528e+04 2.508e-09
 10.01577      8.7 1.500e+04 2.390e-09
 10.02085      6.9 1.488e+04 2.245e-09
 10.03382      3.1 1.501e+04 2.466e-09
 10.05395     -0.7 1.479e+04 2.572e-09
 10.07407     -3.2 1.426e+04 2.606e-09
 10.09307     -5.1 1.339e+04 2.427e-09
 10.10313     -4.9 1.476e+04 3.954e-09
 10.11432     -5.8 1.413e+04 3.094e-09
 10.13445     -6.7 1.345e+04 2.077e-09
 10.15457     -8.0 1.271e+04 1.403e-09
 10.17469     -9.4 1.201e+04 1.012e-09
 10.18536    -10.8 1.163e+04 8.257e-10
 10.19542    -12.3 1.242e+04 1.094e-09
 10.21494    -13.1 1.246e+04 1.064e-09
 10.22659    -13.7 1.227e+04 1.146e-09
 10.23665    -13.8 1.229e+04 1.155e-09
 10.25519    -14.0 1.242e+04 1.310e-09
 10.26759    -13.9 1.252e+04 1.542e-09
 10.27765    -14.3 1.278e+04 1.905e-09
 10.29544    -14.3 1.278e+04 1.939e-09
 10.31556    -14.1 1.281e+04 2.025e-09
 10.33569    -14.2 1.300e+04 2.137e-09
 10.34981    -14.2 1.320e+04 2.224e-09
 10.35988    -14.9 1.298e+04 1.913e-09
 10.37594    -15.5 1.290e+04 1.885e-09
 10.39606    -15.8 1.262e+04 1.887e-09
 10.41619    -16.1 1.254e+04 1.840e-09
 10.43204    -16.3 1.252e+04 1.766e-09
 10.44211    -17.2 1.236e+04 1.652e-09
 10.45643    -17.5 1.236e+04 1.631e-09
 10.47656    -17.8 1.226e+04 1.602e-09
 10.49668    -18.1 1.214e+04 1.549e-09
 10.51427    -18.3 1.218e+04 1.498e-09
 10.52433    -18.8 1.208e+04 1.480e-09
 10.53279    -18.8 1.204e+04 1.454e-09
 10.54285    -19.8 1.236e+04 1.563e-09
 10.55706    -22.0 1.359e+04 2.100e-09
 10.57718    -25.3 1.542e+04 3.414e-09
 10.59650    -27.2 1.649e+04 6.192e-09
 10.60656    -28.4 1.668e+04 6.846e-09
 10.61743    -27.9 1.744e+04 1.138e-08
 10.63755    -26.7 1.812e+04 1.441e-08
 10.65768    -26.0 1.833e+04 1.481e-08
 10.67780    -25.4 1.814e+04 1.268e-08
 10.68879    -25.5 1.764e+04 8.857e-09
 10.69885    -26.3 1.730e+04 7.621e-09
 10.71805    -28.3 1.634e+04 4.864e-09
 10.73817    -30.4 1.470e+04 3.091e-09
 10.75830    -31.5 1.340e+04 2.177e-09
 10.77102    -31.4 1.272e+04 1.706e-09
 10.78108    -32.1 1.242e+04 1.576e-09
 10.79855    -31.9 1.190e+04 1.278e-09
 10.81867    -31.2 1.154e+04 1.064e-09
 10.83880    -31.0 1.133e+04 9.000e-10
 10.84905    -30.4 1.108e+04 8.122e-10
 10.85344    -31.4 1.102e+04 7.718e-10
 10.86331    -31.8 1.088e+04 6.971e-10
 10.88920    -32.1 1.061e+04 5.694e-10
 10.92955    -31.1 1.062e+04 5.736e-10
 10.96980    -30.1 1.092e+04 6.909e-10
 11.00784    -29.0 1.132e+04 9.138e-10
 11.02796    -30.4 1.130e+04 9.176e-10
 11.05030    -29.6 1.182e+04 1.175e-09
 11.09055    -28.8 1.222e+04 1.404e-09
 11.13079    -28.5 1.229e+04 1.428e-09
 11.17104    -28.0 1.198e+04 1.226e-09
 11.19242    -27.7 1.152e+04 1.001e-09
 11.21254    -29.3 1.125e+04 8.974e-10
 11.25154    -28.7 1.082e+04 7.509e-10
 11.29179    -27.9 1.058e+04 6.956e-10
 11.33204    -26.7 1.051e+04 7.060e-10
 11.35688    -25.2 1.045e+04 7.036e-10
 11.37700    -26.2 1.027e+04 6.340e-10
 11.41253    -24.5 1.008e+04 5.765e-10
 11.45159    -22.5 9.661e+03 4.486e-10
 11.47171    -23.1 9.077e+03 3.050e-10
 11.49303    -20.9 8.636e+03 2.064e-10
 11.52133    -18.9 8.300e+03 1.301e-10
 11.54146    -19.9 8.075e+03 1.012e-10
 11.57353    -18.4 7.922e+03 7.890e-11
 11.61378    -16.4 7.790e+03 7.408e-11
 11.65403    -14.3 7.809e+03 7.647e-11
 11.68579    -11.9 7.849e+03 8.470e-11
 11.70592    -12.2 7.811e+03 8.256e-11
 11.73452     -9.6 7.844e+03 9.120e-11
 11.77477     -6.9 7.895e+03 9.767e-11
 11.81502     -4.2 7.960e+03 1.005e-10
 11.85025     -1.7 8.023e+03 1.039e-10
 11.87037     -2.1 8.019e+03 1.034e-10
 11.89552      0.3 8.133e+03 1.103e-10
 11.93577      2.5 8.283e+03 1.241e-10
 11.97601      4.6 8.470e+03 1.545e-10
 12.01471      6.8 8.858e+03 2.182e-10
 12.03483      6.1 9.005e+03 2.542e-10
 12.05651      8.2 9.468e+03 3.406e-10
 12.08411      9.8 9.771e+03 4.143e-10
 12.10424      9.9 9.833e+03 4.421e-10
 12.12685     10.6 9.968e+03 4.686e-10
 12.14688     11.4 1.010e+04 4.887e-10
 12.16700     12.2 1.024e+04 5.098e-10
 12.18712     12.9 1.036e+04 5.304e-10
 12.19909     13.4 1.048e+04 5.528e-10
 12.20915     13.0 1.038e+04 5.198e-10
 12.22737     13.5 1.047e+04 5.387e-10
 12.24750     14.1 1.057e+04 5.639e-10
 12.26762     14.6 1.057e+04 5.731e-10
 12.28132     15.3 1.049e+04 5.598e-10
 12.29138     15.2 1.025e+04 4.814e-10
 12.30787     16.0 1.011e+04 4.383e-10
 12.32799     16.7 1.004e+04 3.921e-10
 12.34812     16.8 1.004e+04 3.634e-10
 12.36355     16.7 1.008e+04 3.655e-10
 12.37361     15.9 1.012e+04 3.650e-10
 12.38837     15.4 1.050e+04 3.964e-10
 12.40018     14.5 1.125e+04 5.581e-10
 12.41024     15.4 1.171e+04 6.443e-10
 12.42862     14.0 1.259e+04 1.086e-09
 12.44578     13.2 1.364e+04 2.043e-09
 12.45584     13.4 1.366e+04 2.203e-09
 12.46886     13.9 1.479e+04 3.743e-09
 12.48391     13.4 1.540e+04 4.924e-09
 12.49182     13.2 1.540e+04 5.217e-09
 12.49686     13.3 1.526e+04 4.932e-09
 12.50398     12.8 1.548e+04 5.196e-09
 12.51405     11.9 1.579e+04 5.396e-09
 12.52411      8.7 1.716e+04 6.370e-09
 12.53294     -1.7 2.318e+04 1.107e-08
 12.53797     -1.5 2.200e+04 9.569e-09
 12.54423     -9.0 2.321e+04 1.571e-08
 12.55318    -13.5 2.200e+04 1.623e-08
 12.55821    -16.0 2.384e+04 2.397e-08
 12.56436    -20.7 2.246e+04 2.473e-08
 12.57405    -24.0 2.198e+04 2.287e-08
 12.57908    -23.1 2.152e+04 1.792e-08
 12.58448    -25.5 2.250e+04 1.406e-08
 12.59454    -27.9 2.249e+04 1.148e-08
 12.60969    -32.1 2.178e+04 8.572e-09
 12.62030    -39.9 1.868e+04 6.875e-09
 12.63036    -37.2 1.833e+04 5.117e-09
 12.64998    -40.3 1.677e+04 5.869e-09
 12.67011    -40.9 1.680e+04 7.741e-09
 12.69023    -40.4 1.697e+04 9.391e-09
 12.70252    -40.1 1.716e+04 9.993e-09
 12.70861    -38.8 1.701e+04 9.013e-09
 12.71644    -39.8 1.849e+04 1.313e-08
 12.73048    -40.4 1.871e+04 1.155e-08
 12.75061    -42.1 1.854e+04 8.764e-09
 12.77073    -45.0 1.764e+04 6.210e-09
 12.78475    -47.9 1.608e+04 4.434e-09
 12.79482    -46.2 1.668e+04 5.823e-09
 12.81098    -48.7 1.601e+04 5.030e-09
 12.83110    -53.1 1.932e+04 5.771e-09
 12.85123    -60.9 2.391e+04 1.106e-08
 12.86446    -65.3 2.447e+04 1.922e-08
 12.86944    -66.7 2.406e+04 2.337e-08
 12.87192    -68.0 2.294e+04 3.598e-08
 12.87695    -67.7 2.293e+04 3.894e-08
 12.88635    -68.4 2.190e+04 5.447e-08
 12.89641    -68.4 2.170e+04 6.922e-08
 12.90647    -68.1 2.141e+04 7.773e-08
 12.91303    -68.4 2.128e+04 7.887e-08
 12.91806    -68.9 2.127e+04 7.871e-08
 12.92660    -69.3 2.080e+04 6.275e-08
 12.93666    -69.6 2.080e+04 4.055e-08
 12.94672    -70.8 2.149e+04 2.486e-08
 12.95414    -73.4 2.162e+04 1.479e-08
 12.95917    -74.5 2.145e+04 1.555e-08
 12.96684    -77.9 1.966e+04 8.875e-09
 12.97691    -80.3 1.795e+04 6.162e-09
 12.99205    -82.3 1.682e+04 4.564e-09
 13.01222    -85.0 1.462e+04 2.321e-09
 13.02264    -87.0 1.266e+04 1.527e-09
 13.03180    -89.7 1.185e+04 1.138e-09
 13.04150    -90.6 1.247e+04 1.447e-09
 13.05247    -90.8 1.244e+04 1.420e-09
 13.07259    -90.7 1.266e+04 1.457e-09
 13.09272    -90.9 1.289e+04 1.505e-09
 13.11284    -91.3 1.303e+04 1.569e-09
 13.12373    -91.6 1.309e+04 1.656e-09
 13.13379    -91.8 1.308e+04 1.719e-09
 13.15309    -91.7 1.300e+04 1.725e-09
 13.17322    -91.3 1.292e+04 1.736e-09
 13.19334    -90.8 1.286e+04 1.731e-09
 13.20596    -90.1 1.275e+04 1.661e-09
 13.21602    -89.8 1.256e+04 1.479e-09
 13.23359    -89.0 1.235e+04 1.302e-09
 13.25371    -88.3 1.215e+04 1.096e-09
 13.27384    -87.9 1.197e+04 8.976e-10
 13.28819    -87.9 1.173e+04 7.310e-10
 13.29825    -87.5 1.150e+04 6.500e-10
 13.31409    -87.7 1.126e+04 5.513e-10
 13.32884    -88.4 1.099e+04 5.008e-10
 13.33891    -91.3 1.035e+04 3.628e-10
 13.35433    -92.0 1.052e+04 4.350e-10
 13.37042    -92.9 1.092e+04 5.692e-10
 13.38048    -92.4 1.085e+04 5.247e-10
 13.39458    -93.7 1.140e+04 7.319e-10
 13.41471    -95.5 1.222e+04 1.098e-09
 13.43483    -98.0 1.348e+04 1.747e-09
 13.45264   -101.4 1.528e+04 2.937e-09
 13.46271    -99.1 1.430e+04 2.359e-09
 13.47508   -103.2 1.633e+04 3.919e-09
 13.49520   -108.1 1.811e+04 6.490e-09
 13.51025   -111.2 1.888e+04 8.767e-09
 13.52026   -112.3 1.926e+04 9.819e-09
 13.53032   -114.9 1.976e+04 1.266e-08
 13.53981   -116.6 2.022e+04 1.470e-08
 13.54484   -115.6 2.030e+04 1.489e-08
 13.55045   -117.8 2.078e+04 1.857e-08
 13.56051   -119.3 2.122e+04 2.100e-08
 13.57057   -121.1 2.165e+04 2.276e-08
 13.58063   -123.2 2.188e+04 2.352e-08
 13.58595   -126.1 2.178e+04 2.357e-08
 13.59098   -125.8 2.236e+04 2.762e-08
 13.60076   -128.0 2.221e+04 2.580e-08
 13.61082   -130.5 2.204e+04 2.240e-08
 13.62088   -132.6 2.209e+04 1.994e-08
 13.62711   -136.2 2.133e+04 1.685e-08
 13.63215   -134.5 2.215e+04 2.165e-08
 13.63998   -136.9 2.153e+04 1.967e-08
 13.64501   -135.2 2.132e+04 1.696e-08
 13.65615   -137.1 2.084e+04 1.546e-08
 13.67632   -140.0 1.964e+04 1.382e-08
 13.69645   -141.7 1.843e+04 1.128e-08
 13.70939   -142.5 1.729e+04 8.194e-09
 13.71945   -142.4 1.768e+04 8.888e-09
 13.73670   -143.0 1.649e+04 5.874e-09
 13.75682   -143.7 1.529e+04 3.872e-09
 13.77694   -144.6 1.400e+04 2.507e-09
 13.79162   -145.5 1.289e+04 1.689e-09
 13.80168   -146.0 1.316e+04 1.755e-09
 13.81719   -146.8 1.216e+04 1.260e-09
 13.83732   -147.1 1.155e+04 1.034e-09
 13.85744   -147.2 1.129e+04 9.364e-10
 13.87385   -146.8 1.111e+04 8.687e-10
 13.88391   -147.4 1.123e+04 9.157e-10
 13.89769   -147.0 1.112e+04 8.717e-10
 13.91781   -146.6 1.101e+04 8.324e-10
 13.93794   -146.2 1.089e+04 7.889e-10
 13.95131   -145.7 1.076e+04 7.458e-10
 13.95938   -144.8 1.032e+04 6.066e-10
 13.96614   -145.1 1.047e+04 6.555e-10
 13.97819   -144.5 1.025e+04 5.878e-10
 13.99831   -143.8 1.003e+04 5.276e-10
 14.01844   -143.1 9.858e+03 4.811e-10
 14.03831   -142.4 9.751e+03 4.501e-10
 14.04837   -142.5 9.797e+03 4.591e-10
 14.05868   -141.6 9.754e+03 4.332e-10
 14.07881   -140.6 9.771e+03 4.242e-10
 14.09893   -139.6 9.832e+03 4.216e-10
 14.11906   -138.6 9.958e+03 4.281e-10
 14.13060   -137.6 1.007e+04 4.421e-10
 14.14066   -137.8 9.985e+03 4.265e-10
 14.15931   -136.7 1.012e+04 4.442e-10
 14.17943   -135.7 1.028e+04 4.725e-10
 14.19955   -134.7 1.044e+04 5.116e-10
 14.21283   -133.8 1.059e+04 5.593e-10
 14.22289   -134.0 1.060e+04 5.576e-10
 14.23980   -133.1 1.079e+04 6.234e-10
 14.25751   -132.1 1.097e+04 7.058e-10
 14.26757   -132.1 1.028e+04 4.525e-10
 14.28005   -131.4 1.050e+04 5.223e-10
 14.29505   -130.3 1.076e+04 6.299e-10
 14.30512   -130.8 1.091e+04 6.833e-10
 14.32030   -129.8 1.122e+04 8.219e-10
 14.34043   -128.8 1.151e+04 9.812e-10
 14.36055   -127.9 1.177e+04 1.145e-09
 14.37728   -127.0 1.200e+04 1.297e-09
 14.38734   -127.6 1.204e+04 1.319e-09
 14.40080   -127.0 1.221e+04 1.434e-09
 14.42092   -126.4 1.235e+04 1.526e-09
 14.44105   -126.0 1.248e+04 1.599e-09
 14.45951   -125.7 1.260e+04 1.674e-09
 14.46957   -126.6 1.231e+04 1.556e-09
 14.48130   -126.5 1.233e+04 1.584e-09
 14.50142   -126.4 1.236e+04 1.605e-09
 14.52154   -126.3 1.241e+04 1.626e-09
 14.54167   -126.3 1.245e+04 1.643e-09
 14.56179   -126.6 1.199e+04 1.290e-09
 14.57377   -126.4 1.200e+04 1.283e-09
 14.58383   -126.5 1.153e+04 1.029e-09
 14.60204   -126.3 1.161e+04 1.041e-09
 14.62217   -126.0 1.169e+04 1.069e-09
 14.63403   -125.7 1.175e+04 1.101e-09
 14.64409   -125.9 1.149e+04 9.381e-10
 14.66241   -125.5 1.157e+04 9.716e-10
 14.68254   -125.0 1.163e+04 9.875e-10
 14.70266   -124.6 1.165e+04 9.898e-10
 14.71626   -124.1 1.166e+04 9.785e-10
 14.72632   -124.1 1.147e+04 8.511e-10
 14.74291   -123.6 1.144e+04 7.904e-10
 14.76304   -123.1 1.138e+04 7.136e-10
 14.78316   -122.7 1.131e+04 6.386e-10
 14.79849   -122.3 1.123e+04 5.738e-10
 14.80855   -122.2 1.108e+04 4.990e-10
 14.82341   -121.7 1.097e+04 4.532e-10
 14.84353   -121.1 1.086e+04 4.193e-10
 14.86366   -120.6 1.077e+04 3.999e-10
 14.87997   -120.0 1.073e+04 3.964e-10
 14.88697   -120.5 1.083e+04 4.486e-10
 14.89078   -120.0 1.070e+04 3.848e-10
 14.91407   -119.0 1.069e+04 3.709e-10
 14.95441   -117.9 1.065e+04 3.836e-10
 14.98450   -116.7 1.060e+04 3.785e-10
 15.00453   -116.2 1.058e+04 3.810e-10
 15.02465   -115.2 1.056e+04 3.864e-10
 15.04478   -114.8 1.055e+04 3.866e-10
 15.05524   -113.6 1.055e+04 3.893e-10
 15.07546   -113.3 1.050e+04 3.411e-10
 15.11541   -111.6 1.049e+04 3.419e-10
 15.15565   -109.9 1.046e+04 3.403e-10
 15.18637   -108.1 1.038e+04 3.369e-10
 15.20649   -109.0 1.042e+04 3.217e-10
 15.21989   -107.2 1.020e+04 2.832e-10
 15.24001   -106.7 1.024e+04 3.042e-10
 15.27640   -104.6 1.007e+04 2.819e-10
 15.31665   -102.6 9.978e+03 2.725e-10
 15.35690   -100.6 9.931e+03 2.672e-10
 15.38434    -98.7 9.889e+03 2.628e-10
 15.40447    -98.1 9.974e+03 2.928e-10
 15.43739    -96.4 9.961e+03 2.955e-10
 15.47764    -95.1 1.002e+04 3.077e-10
 15.51789    -94.0 1.019e+04 3.468e-10
 15.54880    -93.1 1.045e+04 4.194e-10
 15.56893    -93.4 1.078e+04 5.388e-10
 15.59839    -92.6 1.097e+04 6.039e-10
 15.63864    -91.9 1.104e+04 6.111e-10
 15.67889    -91.2 1.100e+04 5.902e-10
 15.71326    -90.5 1.081e+04 5.214e-10
 15.73338    -90.7 1.039e+04 3.607e-10
 15.75938    -89.8 1.009e+04 2.927e-10
 15.79877    -88.8 9.907e+03 2.562e-10
 15.81889    -90.4 9.888e+03 2.586e-10
 15.83988    -89.3 9.865e+03 2.535e-10
 15.87772    -88.5 9.929e+03 2.665e-10
 15.89784    -88.1 9.778e+03 2.165e-10
 15.92038    -87.4 9.983e+03 2.803e-10
 15.96063    -86.7 1.022e+04 3.697e-10
 16.00088    -86.2 1.039e+04 4.512e-10
 16.04112    -85.7 1.042e+04 4.810e-10
 16.06230    -85.2 1.040e+04 4.784e-10
 16.08242    -85.1 1.042e+04 4.894e-10
 16.11146    -84.6 1.011e+04 4.303e-10
 16.12490    -84.2 9.973e+03 3.781e-10
 16.13496    -84.6 9.957e+03 3.802e-10
 16.16177    -84.6 9.960e+03 3.429e-10
 16.20212    -84.7 1.000e+04 3.223e-10
 16.22675    -85.0 1.044e+04 3.822e-10
 16.24688    -85.1 1.028e+04 3.445e-10
 16.28262    -85.3 1.075e+04 5.046e-10
 16.32286    -84.8 1.113e+04 7.311e-10
 16.36311    -84.0 1.123e+04 8.542e-10
 16.39121    -82.9 1.115e+04 8.237e-10
 16.41134    -82.9 1.116e+04 8.253e-10
 16.43129    -82.0 1.093e+04 6.916e-10
 16.44126    -83.3 1.096e+04 7.026e-10
 16.45348    -82.9 1.081e+04 5.824e-10
 16.48376    -83.3 1.043e+04 4.311e-10
 16.52411    -82.6 1.023e+04 3.934e-10
 16.55567    -81.9 1.027e+04 4.086e-10
 16.57579    -82.1 1.021e+04 3.871e-10
 16.60460    -81.2 1.036e+04 4.472e-10
 16.64485    -80.4 1.044e+04 4.839e-10
 16.68510    -79.7 1.047e+04 4.904e-10
 16.72013    -80.0 1.094e+04 5.197e-10
 16.74025    -80.8 1.128e+04 5.212e-10
 16.76560    -84.2 1.288e+04 9.092e-10
 16.79569    -87.9 1.341e+04 1.769e-09
 16.81222    -89.2 1.378e+04 2.531e-09
 16.82228    -89.7 1.386e+04 2.906e-09
 16.83584    -90.0 1.394e+04 3.448e-09
 16.85596    -89.6 1.383e+04 3.436e-09
 16.87609    -89.3 1.337e+04 2.597e-09
 16.89445    -89.8 1.246e+04 1.501e-09
 16.90451    -91.2 1.165e+04 9.802e-10
 16.91634    -93.7 1.020e+04 5.189e-10
 16.93646    -95.4 9.416e+03 3.391e-10
 16.95658    -95.9 9.287e+03 2.975e-10
 16.97668    -96.0 9.305e+03 2.944e-10
 17.00696    -96.4 9.467e+03 3.102e-10
 17.04369    -96.8 9.606e+03 3.377e-10
 17.06382    -96.6 9.241e+03 2.760e-10
 17.06916    -96.5 9.325e+03 2.891e-10
 17.08929    -97.9 9.546e+03 3.249e-10
 17.12784    -98.0 9.773e+03 3.624e-10
 17.16809    -98.4 1.007e+04 4.201e-10
 17.19817    -99.5 1.040e+04 5.170e-10
 17.21820   -100.1 1.067e+04 6.206e-10
 17.23343   -100.7 1.094e+04 7.654e-10
 17.24349   -101.5 1.096e+04 7.892e-10
 17.25845   -101.7 1.119e+04 9.152e-10
 17.27857   -101.8 1.131e+04 9.986e-10
 17.29870   -102.0 1.133e+04 1.015e-09
 17.31565   -102.2 1.124e+04 9.917e-10
 17.32572   -102.9 1.105e+04 8.894e-10
 17.33895   -103.0 1.086e+04 8.031e-10
 17.35907   -102.9 1.064e+04 7.056e-10
 17.36982   -102.8 1.041e+04 5.999e-10
 17.37989   -102.5 1.041e+04 6.078e-10
 17.39788   -102.2 1.018e+04 4.968e-10
 17.40795   -102.8 1.005e+04 4.573e-10
 17.41944   -102.7 9.980e+03 4.057e-10
 17.44973   -103.0 9.921e+03 3.656e-10
 17.49007   -102.4 9.706e+03 3.053e-10
 17.53032   -101.4 9.490e+03 2.569e-10
 17.56254   -100.3 9.321e+03 2.200e-10
 17.58266   -100.9 9.310e+03 2.222e-10
 17.61082    -99.5 9.170e+03 1.885e-10
 17.65107    -98.1 9.074e+03 1.632e-10
 17.67622    -96.7 9.018e+03 1.486e-10
 17.69634    -96.2 8.968e+03 1.474e-10
 17.72699    -94.6 8.952e+03 1.416e-10
 17.74712    -95.1 8.821e+03 1.212e-10
 17.77181    -93.4 8.799e+03 1.168e-10
 17.81206    -91.6 8.789e+03 1.154e-10
 17.85231    -89.7 8.784e+03 1.159e-10
 17.89145    -87.8 8.788e+03 1.172e-10
 17.91157    -88.0 8.654e+03 1.016e-10
 17.93281    -86.1 8.697e+03 1.064e-10
 17.97306    -84.4 8.795e+03 1.145e-10
 18.01331    -82.9 8.945e+03 1.290e-10
 18.05355    -81.6 9.123e+03 1.599e-10
 18.07603    -80.3 9.338e+03 2.147e-10
 18.09616    -80.6 9.225e+03 2.034e-10
 18.13405    -79.2 9.427e+03 2.581e-10
 18.17430    -77.8 9.614e+03 3.056e-10
 18.21455    -76.5 9.795e+03 3.379e-10
 18.24049    -75.6 9.934e+03 3.563e-10
 18.26061    -76.3 9.761e+03 3.223e-10
 18.28862    -75.6 9.947e+03 3.675e-10
 18.30875    -75.3 1.012e+04 4.519e-10
 18.33529    -74.5 1.024e+04 5.022e-10
 18.37554    -73.6 1.025e+04 5.228e-10
 18.40495    -72.6 1.016e+04 5.042e-10
 18.42507    -72.9 9.805e+03 4.156e-10
 18.45604    -71.7 9.677e+03 3.613e-10
 18.49629    -70.7 9.678e+03 3.208e-10
 18.53654    -69.7 9.762e+03 3.073e-10
 18.56940    -68.9 9.872e+03 3.138e-10
 18.58953    -69.5 9.687e+03 2.978e-10
 18.61704    -68.8 9.972e+03 3.436e-10
 18.65728    -68.7 1.032e+04 4.174e-10
 18.69753    -68.9 1.074e+04 5.733e-10
 18.73386    -68.7 1.118e+04 8.017e-10
 18.75398    -69.6 1.112e+04 7.854e-10
 18.77803    -69.1 1.143e+04 8.919e-10
 18.80812    -68.5 1.138e+04 8.074e-10
 18.82596    -68.5 1.144e+04 7.622e-10
 18.83602    -68.9 1.139e+04 7.351e-10
 18.84827    -69.0 1.140e+04 6.699e-10
 18.86839    -69.1 1.141e+04 6.161e-10
 18.88852    -69.2 1.137e+04 5.730e-10
 18.90818    -69.1 1.135e+04 5.615e-10
 18.91825    -69.5 1.123e+04 5.335e-10
 18.92095    -69.3 1.122e+04 5.382e-10
 18.93101    -69.2 1.103e+04 4.584e-10
 18.94889    -69.0 1.108e+04 4.794e-10
 18.96902    -68.6 1.116e+04 5.166e-10
 18.98914    -68.1 1.127e+04 5.698e-10
 19.00047    -67.6 1.139e+04 6.390e-10
 19.01054    -67.8 1.135e+04 6.167e-10
 19.02939    -67.4 1.151e+04 6.988e-10
 19.04951    -67.1 1.166e+04 7.972e-10
 19.06964    -66.8 1.197e+04 9.321e-10
 19.08270    -66.6 1.236e+04 1.135e-09
 19.09276    -67.1 1.239e+04 1.130e-09
 19.10989    -67.1 1.278e+04 1.408e-09
 19.13001    -67.1 1.316e+04 1.766e-09
 19.15013    -67.1 1.351e+04 2.190e-09
 19.16493    -67.0 1.390e+04 2.668e-09
 19.17499    -67.6 1.392e+04 2.642e-09
 19.19038    -68.0 1.427e+04 3.054e-09
 19.21051    -68.3 1.468e+04 3.477e-09
 19.22715    -69.1 1.482e+04 3.607e-09
 19.23721    -67.9 1.470e+04 3.429e-09
 19.24716    -68.8 1.469e+04 3.314e-09
 19.25722    -69.7 1.480e+04 3.593e-09
 19.27088    -70.5 1.443e+04 3.139e-09
 19.29100    -71.2 1.399e+04 2.699e-09
 19.31113    -71.5 1.353e+04 2.335e-09
 19.32939    -71.3 1.312e+04 1.918e-09
 19.33945    -71.7 1.315e+04 1.793e-09
 19.35138    -71.6 1.276e+04 1.242e-09
 19.37150    -72.1 1.240e+04 8.207e-10
 19.39163    -73.2 1.188e+04 5.689e-10
 19.41162    -74.3 1.106e+04 4.663e-10
 19.42168    -75.2 1.077e+04 4.343e-10
 19.43187    -75.2 1.066e+04 4.111e-10
 19.46216    -75.1 1.053e+04 3.796e-10
 19.50250    -73.9 1.038e+04 3.521e-10
 19.53355    -72.9 1.044e+04 3.191e-10
 19.55357    -73.3 1.085e+04 3.550e-10
 19.57617    -72.4 1.100e+04 3.611e-10
 19.59639    -72.9 1.101e+04 3.738e-10
 19.62325    -71.9 1.098e+04 3.533e-10
 19.66350    -70.8 1.090e+04 3.437e-10
 19.70375    -69.3 1.084e+04 3.174e-10
 19.74073    -67.5 1.075e+04 2.685e-10
 19.76085    -67.9 1.081e+04 2.565e-10
 19.78424    -66.6 1.065e+04 2.246e-10
 19.82449    -65.2 1.058e+04 2.182e-10
 19.86474    -63.9 1.074e+04 2.437e-10
 19.90499    -62.0 1.073e+04 2.968e-10
 19.94524    -60.5 1.064e+04 3.460e-10
 19.98549    -58.1 1.054e+04 3.030e-10
 20.02574    -56.1 1.048e+04 2.304e-10
 20.06598    -54.6 1.037e+04 1.935e-10
 20.08977    -52.7 1.031e+04 1.906e-10
 20.10989    -53.3 1.021e+04 1.643e-10
 20.14595    -51.5 1.015e+04 1.849e-10
 20.16607    -51.5 1.023e+04 2.235e-10
 20.18673    -49.2 1.015e+04 2.742e-10
 20.22698    -46.8 1.011e+04 2.993e-10
 20.25422    -44.3 1.003e+04 2.802e-10
 20.27435    -44.7 9.810e+03 2.326e-10
 20.30748    -42.1 9.688e+03 1.971e-10
 20.34773    -39.8 9.603e+03 1.536e-10
 20.38797    -37.9 9.596e+03 1.239e-10
 20.41868    -36.0 9.502e+03 1.123e-10
 20.43880    -36.4 9.354e+03 9.371e-11
 20.46847    -34.3 9.322e+03 9.639e-11
 20.50872    -32.0 9.279e+03 1.030e-10
 20.54897    -29.6 9.250e+03 1.077e-10
 20.58314    -27.2 9.238e+03 1.071e-10
 20.60326    -27.2 9.123e+03 9.136e-11
 20.62947    -24.9 9.126e+03 8.975e-11
 20.66971    -22.7 9.149e+03 8.928e-11
 20.70996    -20.6 9.199e+03 9.196e-11
 20.74759    -18.6 9.279e+03 9.859e-11
 20.76772    -18.6 9.270e+03 9.895e-11
 20.77847    -16.7 9.365e+03 1.180e-10
 20.79860    -16.0 9.217e+03 9.118e-11
 20.83071    -14.2 9.325e+03 1.157e-10
 20.87096    -12.4 9.480e+03 1.597e-10
 20.91121    -10.4 9.698e+03 2.216e-10
 20.93217     -8.4 9.856e+03 2.830e-10
 20.95230     -8.2 9.842e+03 2.818e-10
 20.99170     -6.3 9.911e+03 3.185e-10
 21.03195     -4.6 9.917e+03 3.238e-10
 21.07220     -2.9 9.870e+03 3.089e-10
 21.09663     -1.3 9.789e+03 2.845e-10
 21.11676     -1.0 9.777e+03 2.940e-10
 21.15270      0.6 9.694e+03 2.671e-10
 21.19295      2.3 9.653e+03 2.519e-10
 21.23319      4.2 9.635e+03 2.524e-10
 21.26109      5.9 9.644e+03 2.631e-10
 21.28121      6.3 9.472e+03 2.332e-10
 21.31369      8.2 9.474e+03 2.416e-10
 21.35394     10.3 9.560e+03 2.679e-10
 21.39088     12.2 9.765e+03 3.127e-10
 21.41100     12.3 9.648e+03 2.780e-10
 21.42555     14.2 9.870e+03 3.345e-10
 21.44567     14.7 9.496e+03 2.316e-10
 21.47469     16.6 9.598e+03 2.656e-10
 21.51493     18.5 9.706e+03 3.030e-10
 21.55518     20.2 9.883e+03 3.498e-10
 21.59000     22.0 1.010e+04 4.060e-10
 21.61013     22.9 9.779e+03 3.054e-10
 21.63568     24.7 1.003e+04 3.662e-10
 21.67593     26.4 1.024e+04 4.245e-10
 21.71618     28.1 1.036e+04 4.647e-10
 21.75446     29.7 1.040e+04 4.836e-10
 21.77458     31.1 1.034e+04 4.570e-10
 21.79668     32.9 1.038e+04 4.707e-10
 21.83692     34.6 1.044e+04 4.910e-10
 21.87717     36.1 1.058e+04 5.383e-10
 21.91742     37.3 1.084e+04 6.367e-10
 21.93904     38.1 1.137e+04 8.554e-10
 21.94901     38.8 1.109e+04 6.995e-10
 21.96754     38.9 1.130e+04 7.864e-10
 21.98766     39.1 1.176e+04 9.661e-10
 22.00778     39.3 1.193e+04 1.077e-09
 22.02108     39.4 1.201e+04 1.149e-09
 22.02643     40.0 1.224e+04 1.229e-09
 22.04343     39.7 1.150e+04 8.970e-10
 22.06826     39.9 1.159e+04 9.433e-10
 22.08828     40.0 1.155e+04 9.222e-10
 22.10330     40.2 1.142e+04 8.592e-10
 22.11337     40.6 1.139e+04 8.258e-10
 22.12853     40.9 1.122e+04 7.386e-10
 22.14866     41.4 1.108e+04 6.632e-10
 22.16878     41.9 1.100e+04 6.067e-10
 22.18553     42.5 1.096e+04 5.682e-10
 22.19559     42.9 1.094e+04 5.519e-10
 22.20903     43.7 1.092e+04 5.334e-10
 22.22915     44.5 1.090e+04 5.234e-10
 22.24928     45.4 1.089e+04 5.223e-10
 22.26776     46.3 1.090e+04 5.287e-10
 22.27782     46.9 1.096e+04 5.463e-10
 22.28953     47.9 1.102e+04 5.771e-10
 22.30965     49.0 1.111e+04 6.214e-10
 22.32941     50.0 1.126e+04 6.821e-10
 22.33947     49.9 1.125e+04 7.148e-10
 22.34990     50.8 1.143e+04 8.027e-10
 22.37002     52.2 1.183e+04 1.031e-09
 22.39015     52.8 1.212e+04 1.227e-09
 22.41027     53.4 1.246e+04 1.492e-09
 22.43040     53.8 1.289e+04 1.852e-09
 22.44228     53.9 1.336e+04 2.319e-09
 22.45234     54.3 1.360e+04 2.481e-09
 22.47064     54.1 1.408e+04 3.080e-09
 22.49077     53.7 1.453e+04 3.792e-09
 22.51089     53.3 1.500e+04 4.551e-09
 22.52451     53.0 1.537e+04 5.215e-09
 22.53457     53.0 1.532e+04 5.061e-09
 22.55114     52.5 1.532e+04 5.024e-09
 22.57127     52.1 1.514e+04 4.649e-09
 22.59139     51.9 1.472e+04 3.812e-09
 22.60674     51.5 1.409e+04 2.803e-09
 22.61680     51.6 1.372e+04 2.403e-09
 22.63164     50.9 1.300e+04 1.691e-09
 22.64567     50.1 1.224e+04 1.203e-09
 22.65573     49.5 1.117e+04 8.516e-10
 22.67189     48.8 1.061e+04 6.470e-10
 22.68897     48.4 1.018e+04 5.254e-10
 22.69903     49.1 1.014e+04 5.036e-10
 22.71214     49.1 9.866e+03 4.333e-10
 22.73226     49.0 9.685e+03 3.849e-10
 22.75238     48.8 9.558e+03 3.448e-10
 22.77119     48.8 9.483e+03 3.265e-10
 22.78126     49.9 9.481e+03 3.261e-10
 22.79263     50.1 9.411e+03 3.139e-10
 22.81276     50.3 9.393e+03 3.129e-10
 22.83288     50.6 9.408e+03 3.180e-10
 22.85301     50.9 9.484e+03 3.349e-10
 22.88329     52.1 9.628e+03 3.708e-10
 22.92364     53.0 9.802e+03 4.278e-10
 22.94591     54.1 9.929e+03 4.516e-10
 22.96603     56.2 1.030e+04 5.637e-10
 22.99397     56.7 1.021e+04 5.389e-10
 23.01400     57.1 1.018e+04 5.239e-10
 23.02794     57.4 1.013e+04 5.214e-10
 23.03800     57.9 1.026e+04 5.824e-10
 23.05425     58.4 1.030e+04 6.066e-10
 23.07437     58.8 1.037e+04 6.355e-10
 23.09450     59.4 1.043e+04 6.727e-10
 23.11017     59.7 1.059e+04 7.248e-10
 23.12023     60.2 1.095e+04 8.777e-10
 23.13475     58.8 1.250e+04 1.225e-09
 23.15487     55.9 1.507e+04 2.128e-09
 23.16991     54.9 1.615e+04 3.076e-09
 23.17993     53.5 1.732e+04 4.497e-09
 23.18999     51.8 1.847e+04 6.890e-09
 23.19733     49.4 2.031e+04 1.123e-08
 23.20236     49.1 2.096e+04 1.319e-08
 23.21011     44.7 2.490e+04 2.499e-08
 23.22018     38.9 2.829e+04 5.462e-08
 23.23024     33.3 2.910e+04 9.300e-08
 23.23845     28.1 2.888e+04 9.475e-08
 23.24348     28.7 2.906e+04 8.825e-08
 23.25036     25.0 2.824e+04 6.096e-08
 23.26043     21.2 2.581e+04 2.930e-08
 23.26803     17.4 2.169e+04 1.284e-08
 23.27307     22.5 2.574e+04 2.571e-08
 23.27956     18.1 2.054e+04 1.083e-08
 23.28459     18.7 2.095e+04 9.441e-09
 23.29569     15.0 1.979e+04 4.911e-09
 23.31586      6.0 1.260e+04 1.443e-09
 23.33599      2.2 1.178e+04 6.657e-10
 23.35611      3.0 1.015e+04 5.718e-10
 23.36692      1.1 9.199e+03 4.520e-10
 23.37698      1.7 9.260e+03 5.035e-10
 23.40652      0.7 1.060e+04 4.304e-10
 23.43928      0.8 1.056e+04 4.571e-10
 23.45940      1.6 1.059e+04 4.608e-10
 23.48712      2.0 1.092e+04 5.522e-10
 23.52737      2.7 1.155e+04 7.706e-10
 23.55745      2.4 1.208e+04 9.827e-10
 23.57433      2.5 1.233e+04 1.161e-09
 23.58440      3.6 1.171e+04 8.651e-10
 23.59760      3.7 1.201e+04 9.485e-10
 23.61360      3.7 1.234e+04 1.046e-09
 23.62367      3.9 1.247e+04 1.042e-09
 23.63785      3.2 1.332e+04 1.215e-09
 23.65798      1.9 1.425e+04 1.457e-09
 23.67810      0.3 1.475e+04 1.744e-09
 23.69583     -1.0 1.405e+04 1.967e-09
 23.70589     -1.0 1.404e+04 2.043e-09
 23.71835     -1.8 1.359e+04 2.003e-09
 23.73848     -2.4 1.324e+04 1.849e-09
 23.75860     -3.9 1.313e+04 1.627e-09
 23.77806     -5.0 1.271e+04 1.254e-09
 23.78812     -4.9 1.252e+04 1.144e-09
 23.79885     -6.4 1.223e+04 9.383e-10
 23.81897     -7.9 1.186e+04 7.733e-10
 23.83910    -10.7 1.206e+04 7.869e-10
 23.85922    -13.5 1.217e+04 8.542e-10
 23.87035    -14.6 1.160e+04 9.791e-10
 23.88041    -14.3 1.130e+04 8.806e-10
 23.89060    -13.8 1.093e+04 8.450e-10
 23.90066    -12.4 1.144e+04 9.681e-10
 23.91959    -11.9 1.100e+04 8.532e-10
 23.93972    -11.9 1.070e+04 7.044e-10
 23.95258    -12.7 1.071e+04 5.369e-10
 23.96264    -12.6 1.057e+04 4.344e-10
 23.97997    -13.5 1.037e+04 3.527e-10
 24.01025    -14.1 1.034e+04 3.695e-10
 24.05060    -14.4 1.018e+04 3.984e-10
 24.09085    -13.4 9.697e+03 3.523e-10
 24.11723    -12.5 9.387e+03 2.748e-10
 24.13736    -11.5 9.192e+03 2.422e-10
 24.17134    -10.8 8.964e+03 1.785e-10
 24.21159    -10.1 8.690e+03 1.362e-10
 24.25184     -9.3 8.475e+03 1.118e-10
 24.28169     -8.5 8.344e+03 9.896e-11
 24.30181     -7.6 8.224e+03 8.814e-11
 24.33234     -6.7 8.198e+03 8.797e-11
 24.37259     -6.1 8.247e+03 9.418e-11
 24.41283     -5.4 8.352e+03 1.120e-10
 24.44615     -5.1 8.582e+03 1.400e-10
 24.46627     -5.3 8.696e+03 1.448e-10
 24.49313     -7.4 1.016e+04 2.935e-10
 24.51325     -2.2 8.996e+03 1.812e-10
 24.53358     -4.6 1.053e+04 3.862e-10
 24.57383     -6.6 1.184e+04 9.025e-10
 24.60392    -10.9 1.322e+04 1.617e-09
 24.62047    -13.3 1.393e+04 2.046e-09
 24.63053    -14.6 1.446e+04 2.351e-09
 24.64407    -20.0 1.621e+04 3.318e-09
 24.66419    -27.0 1.762e+04 4.822e-09
 24.68432    -32.7 1.735e+04 6.179e-09
 24.70270    -38.1 1.698e+04 6.201e-09
 24.71276    -41.4 1.756e+04 5.155e-09
 24.72457    -54.4 2.182e+04 5.846e-09
 24.74469    -71.7 2.212e+04 8.685e-09
 24.75973    -80.3 2.078e+04 1.655e-08
 24.76975    -82.2 2.178e+04 2.188e-08
 24.77981    -84.8 2.204e+04 2.325e-08
 24.78986    -87.4 2.175e+04 2.274e-08
 24.79992    -90.1 2.023e+04 1.519e-08
 24.81000    -92.3 1.911e+04 1.036e-08
 24.81921    -95.4 1.724e+04 5.761e-09
 24.82424    -95.0 1.760e+04 6.228e-09
 24.83012    -95.6 1.716e+04 4.754e-09
 24.84526   -101.9 1.374e+04 1.563e-09
 24.86544   -106.3 1.158e+04 6.289e-10
 24.87722   -108.9 1.046e+04 3.791e-10
 24.88728   -110.2 1.028e+04 3.402e-10
 24.90568   -111.4 1.000e+04 2.858e-10
 24.92581   -112.1 9.980e+03 2.712e-10
 24.94593   -112.3 1.001e+04 2.709e-10
 24.95955   -111.7 9.930e+03 2.683e-10
 24.97977   -114.2 1.050e+04 3.665e-10
 25.01656   -114.0 1.070e+04 4.368e-10
 25.05681   -114.1 1.090e+04 5.306e-10
 25.09706   -114.2 1.110e+04 6.109e-10
 25.12410   -114.5 1.130e+04 6.931e-10
 25.13257   -116.7 1.153e+04 8.079e-10
 25.14578   -119.4 1.153e+04 7.990e-10
 25.17756   -119.7 1.132e+04 7.751e-10
 25.21781   -119.9 1.102e+04 6.763e-10
 25.25806   -119.9 1.057e+04 5.373e-10
 25.28856   -119.8 1.001e+04 3.907e-10
 25.30868   -120.9 9.897e+03 3.558e-10
 25.33855   -120.2 9.308e+03 2.434e-10
 25.37880   -119.0 8.693e+03 1.549e-10
 25.41905   -117.7 8.255e+03 1.047e-10
 25.45301   -116.4 8.109e+03 8.620e-11
 25.47314   -116.5 8.113e+03 8.581e-11
 25.49955   -114.8 8.004e+03 7.632e-11
 25.53980   -113.0 7.935e+03 7.071e-11
 25.58004   -111.0 7.885e+03 6.870e-11
 25.61747   -108.9 7.859e+03 6.826e-11
 25.63760   -108.7 7.872e+03 6.839e-11
 25.66054   -106.4 7.862e+03 6.927e-11
 25.70079   -104.0 7.903e+03 7.186e-11
 25.73806   -101.8 8.005e+03 7.820e-11
 25.75818   -102.6 8.155e+03 9.785e-11
 25.78129   -100.5 8.312e+03 1.090e-10
 25.80205    -98.8 8.568e+03 1.377e-10
 25.82218    -98.1 8.606e+03 1.457e-10
 25.86178    -96.5 8.993e+03 2.096e-10
 25.90203    -95.0 9.581e+03 3.332e-10
 25.94228    -93.7 1.035e+04 5.398e-10
 25.96651    -92.5 1.110e+04 8.014e-10
 25.98663    -91.9 1.176e+04 1.126e-09
 26.01262    -90.5 1.177e+04 1.145e-09
 26.03265    -90.2 1.186e+04 1.182e-09
 26.04854    -89.9 1.184e+04 1.154e-09
 26.05860    -89.7 1.248e+04 1.539e-09
 26.06419    -89.4 1.242e+04 1.325e-09
 26.07425    -90.4 1.300e+04 1.931e-09
 26.09302    -90.1 1.264e+04 1.541e-09
 26.11314    -90.1 1.224e+04 1.222e-09
 26.13077    -90.0 1.187e+04 1.015e-09
 26.14083    -90.1 1.236e+04 1.399e-09
 26.15339    -90.1 1.201e+04 1.207e-09
 26.17352    -89.7 1.183e+04 1.125e-09
 26.19364    -89.0 1.180e+04 1.116e-09
 26.21300    -88.2 1.191e+04 1.162e-09
 26.22306    -88.6 1.219e+04 1.335e-09
 26.23389    -87.8 1.224e+04 1.361e-09
 26.25401    -87.0 1.229e+04 1.410e-09
 26.27414    -85.9 1.236e+04 1.476e-09
 26.29426    -84.9 1.249e+04 1.568e-09
 26.30529    -84.0 1.266e+04 1.663e-09
 26.31535    -84.4 1.238e+04 1.403e-09
 26.33451    -83.9 1.261e+04 1.435e-09
 26.35463    -84.0 1.300e+04 1.558e-09
 26.37039    -84.5 1.344e+04 1.864e-09
 26.38045    -85.3 1.281e+04 1.457e-09
 26.38752    -85.9 1.326e+04 1.977e-09
 26.39758    -86.1 1.252e+04 1.458e-09
 26.41501    -86.2 1.301e+04 2.087e-09
 26.43513    -86.0 1.352e+04 2.899e-09
 26.45526    -85.5 1.402e+04 3.683e-09
 26.46975    -85.2 1.436e+04 4.097e-09
 26.47981    -85.0 1.360e+04 3.079e-09
 26.49550    -84.9 1.381e+04 3.268e-09
 26.51563    -85.3 1.386e+04 3.279e-09
 26.53575    -85.9 1.380e+04 3.143e-09
 26.55198    -86.5 1.373e+04 3.025e-09
 26.56204    -85.7 1.342e+04 2.872e-09
 26.57600    -85.7 1.347e+04 2.872e-09
 26.59613    -85.8 1.353e+04 2.816e-09
 26.61625    -86.1 1.351e+04 2.682e-09
 26.63420    -86.6 1.341e+04 2.520e-09
 26.64427    -84.8 1.315e+04 2.314e-09
 26.65650    -85.4 1.294e+04 2.098e-09
 26.67659    -85.8 1.258e+04 1.926e-09
 26.69671    -85.5 1.183e+04 1.457e-09
 26.71643    -85.3 1.146e+04 1.340e-09
 26.72650    -84.1 1.116e+04 1.132e-09
 26.73700    -83.7 1.087e+04 1.042e-09
 26.75712    -83.2 1.060e+04 9.183e-10
 26.77725    -82.8 1.031e+04 7.779e-10
 26.79737    -82.6 1.003e+04 6.727e-10
 26.80882    -82.7 9.788e+03 6.044e-10
 26.82904    -80.3 9.610e+03 5.357e-10
 26.86800    -78.9 9.142e+03 4.243e-10
 26.90825    -77.5 8.814e+03 3.565e-10
 26.94850    -76.1 8.593e+03 3.101e-10
 26.97338    -74.6 8.345e+03 2.618e-10
 26.98774    -72.8 8.455e+03 2.834e-10
 27.00311    -72.4 8.457e+03 2.849e-10
 27.02899    -71.1 8.159e+03 2.294e-10
 27.06924    -69.8 7.761e+03 1.679e-10
 27.10949    -68.6 7.423e+03 1.257e-10
 27.13783    -67.1 7.328e+03 1.141e-10
 27.15796    -65.3 7.374e+03 1.195e-10
 27.18999    -63.6 7.332e+03 1.151e-10
 27.23024    -61.3 7.308e+03 1.155e-10
 27.27049    -58.6 7.304e+03 1.148e-10
 27.30229    -55.7 7.321e+03 1.123e-10
 27.32242    -54.5 7.370e+03 1.144e-10
 27.35098    -51.6 7.399e+03 1.142e-10
 27.39123    -48.7 7.487e+03 1.220e-10
 27.43148    -45.7 7.625e+03 1.391e-10
 27.46675    -42.5 7.786e+03 1.601e-10
 27.48687    -40.9 7.944e+03 1.809e-10
 27.51198    -37.4 8.064e+03 1.941e-10
 27.55223    -33.7 8.166e+03 1.996e-10
 27.59247    -30.2 8.253e+03 2.016e-10
 27.61551    -26.8 8.321e+03 2.073e-10
 27.63411    -26.5 8.290e+03 2.044e-10
 27.65133    -24.1 8.667e+03 2.259e-10
 27.67297    -20.5 8.926e+03 2.332e-10
 27.71322    -17.0 9.401e+03 2.623e-10
 27.75347    -12.5 9.965e+03 3.513e-10
 27.78356    -10.3 1.088e+04 4.712e-10
 27.80358     -8.1 1.082e+04 5.123e-10
 27.81559     -6.9 1.136e+04 6.039e-10
 27.82565     -3.6 1.271e+04 8.726e-10
 27.84383     -7.4 2.223e+04 9.196e-10
 27.85666    -35.9 4.805e+04 2.398e-09
 27.86164    -28.3 4.740e+04 1.910e-09
 27.86889    -43.2 4.315e+04 8.002e-09
 27.87895    -47.1 3.409e+04 6.108e-08
 27.88902    -59.3 2.880e+04 2.060e-07
 27.89772    -74.2 2.965e+04 2.155e-07
 27.90275    -66.6 2.859e+04 3.176e-07
 27.90914    -88.4 3.305e+04 6.657e-08
 27.91920   -112.8 2.470e+04 6.466e-09
 27.92645   -120.9 1.703e+04 3.225e-09
 27.93148   -117.3 1.809e+04 3.809e-09
 27.94441   -122.8 1.672e+04 2.352e-09
 27.96458   -133.5 1.313e+04 1.022e-09
 27.98005   -141.2 1.241e+04 7.880e-10
 27.99011   -148.0 1.347e+04 9.216e-10
 28.00483   -157.1 1.633e+04 1.067e-09
 28.02495   -164.1 1.769e+04 2.182e-09
 28.04508   -167.2 1.788e+04 4.092e-09
 28.06228   -168.6 1.795e+04 5.798e-09
 28.07234   -174.8 1.902e+04 6.325e-09
 28.08532   -175.0 1.844e+04 6.082e-09
 28.10545   -175.1 1.759e+04 4.738e-09
 28.12557   -175.3 1.629e+04 3.234e-09
 28.14451   -175.5 1.478e+04 2.168e-09
 28.15457   -181.1 1.441e+04 1.897e-09
 28.16582   -179.8 1.347e+04 1.509e-09
 28.18595   -177.9 1.276e+04 1.278e-09
 28.20607   -175.8 1.238e+04 1.157e-09
 28.22619   -173.6 1.215e+04 1.089e-09
 28.23680   -171.5 1.194e+04 1.041e-09
 28.23832   -173.1 1.213e+04 1.085e-09
 28.24784   -173.4 1.227e+04 1.079e-09
 28.26644   -170.9 1.199e+04 1.014e-09
 28.28657   -168.5 1.178e+04 9.689e-10
 28.30669   -166.3 1.162e+04 9.322e-10
 28.31902   -164.3 1.146e+04 8.956e-10
 28.32909   -165.2 1.166e+04 9.718e-10
 28.34694   -163.0 1.151e+04 9.378e-10
 28.36707   -160.7 1.143e+04 9.226e-10
 28.38719   -158.6 1.140e+04 9.177e-10
 28.40125   -156.8 1.136e+04 9.086e-10
 28.41132   -157.4 1.153e+04 9.891e-10
 28.42744   -155.5 1.149e+04 9.796e-10
 28.44756   -153.4 1.145e+04 9.680e-10
 28.46769   -151.5 1.143e+04 9.555e-10
 28.48348   -149.8 1.141e+04 9.339e-10
 28.49354   -150.4 1.158e+04 1.044e-09
 28.51810   -148.8 1.168e+04 1.094e-09
 28.55844   -145.5 1.176e+04 1.178e-09
 28.59869   -142.6 1.194e+04 1.296e-09
 28.63807   -139.7 1.217e+04 1.413e-09
 28.65820   -140.9 1.228e+04 1.509e-09
 28.66903   -139.0 1.263e+04 1.741e-09
 28.68905   -137.9 1.283e+04 1.889e-09
 28.70918   -136.8 1.311e+04 2.122e-09
 28.72930   -136.0 1.337e+04 2.401e-09
 28.74023   -135.1 1.363e+04 2.710e-09
 28.75029   -135.8 1.365e+04 2.769e-09
 28.76955   -134.9 1.381e+04 3.032e-09
 28.78968   -133.9 1.394e+04 3.277e-09
 28.80980   -133.0 1.402e+04 3.510e-09
 28.82246   -132.0 1.410e+04 3.719e-09
 28.83252   -132.2 1.374e+04 3.292e-09
 28.85005   -131.2 1.380e+04 3.396e-09
 28.86024   -130.1 1.381e+04 3.427e-09
 28.87030   -130.7 1.306e+04 2.331e-09
 28.89030   -129.7 1.294e+04 2.150e-09
 28.90469   -128.8 1.277e+04 1.909e-09
 28.91475   -129.2 1.212e+04 1.399e-09
 28.93055   -128.3 1.185e+04 1.187e-09
 28.95067   -127.4 1.155e+04 9.867e-10
 28.97079   -126.7 1.124e+04 8.131e-10
 28.98692   -126.0 1.094e+04 6.772e-10
 28.99698   -126.5 1.048e+04 5.413e-10
 29.01104   -125.7 1.026e+04 4.668e-10
 29.03117   -124.8 1.008e+04 4.146e-10
 29.05129   -123.8 9.955e+03 3.861e-10
 29.06914   -122.7 9.908e+03 3.785e-10
 29.07921   -122.6 9.818e+03 3.516e-10
 29.09154   -121.5 9.831e+03 3.519e-10
 29.11166   -120.3 9.878e+03 3.666e-10
 29.13179   -119.1 9.944e+03 3.843e-10
 29.15137   -117.7 1.008e+04 4.192e-10
 29.16143   -117.4 9.956e+03 3.742e-10
 29.16644   -116.5 1.005e+04 4.042e-10
 29.17650   -116.7 1.016e+04 4.546e-10
 29.19216   -115.3 1.030e+04 5.292e-10
 29.21229   -113.9 1.038e+04 5.905e-10
 29.23241   -112.3 1.050e+04 6.548e-10
 29.24366   -110.6 1.062e+04 7.004e-10
 29.25373   -110.6 1.043e+04 6.226e-10
 29.27266   -109.0 1.058e+04 6.629e-10
 29.29278   -107.5 1.067e+04 6.745e-10
 29.31291   -105.9 1.077e+04 6.777e-10
 29.32589   -104.5 1.089e+04 6.762e-10
 29.33595   -104.3 1.081e+04 6.591e-10
 29.35316   -103.0 1.089e+04 6.576e-10
 29.37328   -101.6 1.094e+04 6.508e-10
 29.39340   -100.1 1.099e+04 6.507e-10
 29.40812    -98.7 1.115e+04 6.703e-10
 29.41818    -98.6 1.100e+04 6.497e-10
 29.43365    -97.3 1.110e+04 6.629e-10
 29.45378    -95.9 1.117e+04 6.769e-10
 29.47264    -94.4 1.127e+04 7.033e-10
 29.48270    -94.4 1.127e+04 6.814e-10
 29.49035    -92.9 1.146e+04 7.554e-10
 29.50041    -92.7 1.126e+04 6.941e-10
 29.51415    -91.2 1.146e+04 7.674e-10
 29.53427    -89.7 1.160e+04 8.369e-10
 29.56456    -87.8 1.165e+04 8.589e-10
 29.60491    -84.8 1.182e+04 9.511e-10
 29.63499    -81.8 1.186e+04 9.346e-10
 29.65481    -81.4 1.186e+04 9.442e-10
 29.66497    -81.5 1.144e+04 7.158e-10
 29.67524    -78.8 1.161e+04 7.693e-10
 29.69527    -78.1 1.158e+04 7.656e-10
 29.71539    -76.2 1.164e+04 7.802e-10
 29.73552    -75.0 1.161e+04 7.849e-10
 29.74710    -73.4 1.174e+04 8.238e-10
 29.75716    -73.2 1.130e+04 5.927e-10
 29.77577    -72.1 1.133e+04 6.019e-10
 29.78890    -70.6 1.145e+04 6.282e-10
 29.79897    -70.4 1.152e+04 7.006e-10
 29.81601    -69.4 1.151e+04 7.015e-10
 29.82932    -67.8 1.175e+04 7.681e-10
 29.83939    -67.7 1.133e+04 5.751e-10
 29.85626    -66.8 1.134e+04 6.003e-10
 29.87639    -65.3 1.154e+04 6.655e-10
 29.89651    -64.1 1.160e+04 7.160e-10
 29.91155    -62.8 1.182e+04 8.260e-10
 29.92162    -62.7 1.143e+04 6.353e-10
 29.93676    -61.7 1.144e+04 6.956e-10
 29.95689    -60.4 1.151e+04 7.897e-10
 29.97701    -59.4 1.151e+04 8.942e-10
 29.99378    -58.2 1.154e+04 1.046e-09
 30.00384    -58.2 1.127e+04 8.507e-10
 30.01726    -56.7 1.124e+04 9.474e-10
 30.03738    -55.0 1.131e+04 9.845e-10
 30.05751    -53.3 1.139e+04 9.731e-10
 30.07601    -51.9 1.147e+04 8.674e-10
 30.08607    -52.1 1.123e+04 7.071e-10
 30.09510    -50.9 1.133e+04 6.300e-10
 30.10517    -50.9 1.167e+04 8.746e-10
 30.11788    -49.9 1.163e+04 8.466e-10
 30.13800    -49.0 1.171e+04 8.997e-10
 30.15813    -48.1 1.211e+04 9.994e-10
 30.16830    -47.7 1.268e+04 1.133e-09
 30.17836    -47.7 1.233e+04 8.861e-10
 30.19838    -47.1 1.240e+04 1.203e-09
 30.21850    -46.0 1.272e+04 1.763e-09
 30.23863    -44.7 1.383e+04 2.516e-09
 30.25053    -43.8 1.495e+04 3.349e-09
 30.26059    -44.0 1.448e+04 2.411e-09
 30.27887    -43.2 1.471e+04 3.621e-09
 30.29900    -42.1 1.533e+04 4.545e-09
 30.31912    -41.0 1.577e+04 5.461e-09
 30.33276    -39.9 1.597e+04 6.040e-09
 30.34282    -40.1 1.557e+04 4.999e-09
 30.35937    -39.4 1.597e+04 5.341e-09
 30.37950    -38.9 1.621e+04 5.223e-09
 30.39962    -38.7 1.616e+04 4.999e-09
 30.41137    -38.3 1.577e+04 4.730e-09
 30.41667    -39.0 1.564e+04 4.978e-09
 30.42505    -39.2 1.576e+04 5.322e-09
 30.43987    -38.6 1.584e+04 4.947e-09
 30.45999    -39.0 1.606e+04 4.197e-09
 30.48012    -39.9 1.597e+04 4.451e-09
 30.49722    -41.6 1.613e+04 5.124e-09
 30.50728    -41.8 1.616e+04 5.246e-09
 30.52037    -42.7 1.622e+04 6.210e-09
 30.54049    -42.5 1.609e+04 7.358e-09
 30.56061    -41.9 1.571e+04 6.992e-09
 30.57944    -41.0 1.548e+04 5.040e-09
 30.58951    -40.6 1.517e+04 4.097e-09
 30.60086    -41.8 1.494e+04 2.945e-09
 30.62099    -43.8 1.422e+04 2.243e-09
 30.64111    -45.3 1.383e+04 2.092e-09
 30.66124    -46.1 1.405e+04 2.319e-09
 30.67173    -46.7 1.431e+04 2.751e-09
 30.68180    -46.5 1.429e+04 2.735e-09
 30.70148    -46.8 1.441e+04 3.253e-09
 30.71757    -46.9 1.441e+04 3.719e-09
 30.72763    -46.4 1.369e+04 2.429e-09
 30.74173    -46.4 1.370e+04 2.787e-09
 30.75396    -46.0 1.380e+04 3.043e-09
 30.76403    -46.5 1.397e+04 3.143e-09
 30.78198    -46.3 1.415e+04 3.190e-09
 30.80211    -46.8 1.435e+04 2.876e-09
 30.82223    -47.7 1.426e+04 2.550e-09
 30.83619    -48.7 1.363e+04 2.145e-09
 30.84625    -49.2 1.337e+04 1.958e-09
 30.86248    -49.5 1.276e+04 1.557e-09
 30.88260    -49.4 1.223e+04 1.222e-09
 30.90273    -49.1 1.166e+04 9.322e-10
 30.91842    -48.5 1.117e+04 7.031e-10
 30.92848    -48.8 1.087e+04 5.765e-10
 30.94298    -48.3 1.055e+04 4.407e-10
 30.97326    -47.3 1.038e+04 3.639e-10
 31.00084    -45.6 1.013e+04 3.027e-10
 31.02097    -45.1 9.701e+03 2.312e-10
 31.05385    -42.6 9.318e+03 1.663e-10
 31.09410    -40.5 9.151e+03 1.226e-10
 31.13435    -39.1 9.090e+03 1.044e-10
 31.16530    -37.7 9.110e+03 1.138e-10
 31.18543    -37.2 9.052e+03 9.634e-11
 31.21485    -35.7 9.021e+03 1.346e-10
 31.25510    -33.5 9.027e+03 1.697e-10
 31.29535    -31.5 9.035e+03 1.646e-10
 31.32976    -30.0 8.989e+03 1.402e-10
 31.34445    -29.4 8.972e+03 1.395e-10
 31.35029    -28.3 8.974e+03 1.402e-10
 31.37584    -27.1 8.893e+03 1.167e-10
 31.41609    -26.2 8.825e+03 1.064e-10
 31.45634    -25.0 8.788e+03 1.099e-10
 31.49422    -23.7 8.787e+03 1.197e-10
 31.51434    -23.2 8.719e+03 1.114e-10
 31.53684    -21.8 8.731e+03 1.233e-10
 31.57709    -20.2 8.713e+03 1.301e-10
 31.61734    -18.6 8.690e+03 1.284e-10
 31.65758    -17.0 8.685e+03 1.208e-10
 31.67880    -15.6 8.686e+03 1.099e-10
 31.69892    -14.9 8.586e+03 9.957e-11
 31.73808    -13.4 8.611e+03 9.469e-11
 31.77833    -11.9 8.648e+03 9.755e-11
 31.81858    -10.5 8.743e+03 1.068e-10
 31.84325     -9.3 8.921e+03 1.291e-10
 31.86338     -8.8 8.813e+03 1.240e-10
 31.89908     -7.6 9.051e+03 1.667e-10
 31.93932     -6.2 9.282e+03 2.211e-10
 31.96269     -4.8 9.507e+03 2.664e-10
 31.98281     -3.7 9.511e+03 2.689e-10
 32.00771     -2.7 9.755e+03 3.032e-10
 32.02784     -1.8 9.458e+03 2.421e-10
 32.06007     -1.0 9.644e+03 2.630e-10
 32.10032     -0.2 9.681e+03 2.659e-10
 32.14057      0.7 9.615e+03 2.563e-10
 32.17217      1.7 9.657e+03 2.568e-10
 32.19229      3.0 9.589e+03 2.474e-10
 32.22106      3.4 9.822e+03 2.694e-10
 32.26131      3.2 1.030e+04 3.690e-10
 32.30156      2.9 1.099e+04 6.088e-10
 32.33663      2.7 1.152e+04 7.584e-10
 32.35675      3.7 1.194e+04 1.040e-09
 32.38206      3.1 1.201e+04 9.830e-10
 32.42231      2.9 1.175e+04 7.096e-10
 32.46256      2.3 1.115e+04 4.155e-10
 32.50108      1.6 1.059e+04 3.072e-10
 32.52121      2.4 1.120e+04 4.772e-10
 32.54305      2.4 1.093e+04 4.069e-10
 32.57509      2.8 1.078e+04 3.853e-10
 32.59522      3.3 1.079e+04 4.214e-10
 32.62355      3.9 1.093e+04 4.679e-10
 32.66380      4.4 1.117e+04 5.629e-10
 32.68566      5.0 1.115e+04 6.352e-10
 32.70579      4.6 1.151e+04 8.582e-10
 32.74430      5.4 1.119e+04 7.814e-10
 32.78455      6.5 1.059e+04 5.703e-10
 32.82479      7.7 9.974e+03 3.535e-10
 32.85012      8.9 9.514e+03 2.137e-10
 32.87025      8.5 9.512e+03 2.096e-10
 32.90529      9.4 9.272e+03 1.588e-10
 32.94554     10.8 9.264e+03 1.734e-10
 32.98579     12.6 9.293e+03 2.099e-10
 33.01458     14.7 9.403e+03 2.640e-10
 33.03470     14.5 9.529e+03 3.383e-10
 33.06629     16.7 9.656e+03 3.735e-10
 33.10653     18.6 9.661e+03 3.707e-10
 33.14678     20.6 9.602e+03 3.448e-10
 33.17904     22.6 9.449e+03 2.898e-10
 33.19916     22.4 9.444e+03 2.944e-10
 33.20762     24.3 9.270e+03 2.333e-10
 33.22774     24.5 9.207e+03 2.544e-10
 33.26753     26.3 9.112e+03 2.127e-10
 33.30778     28.1 9.051e+03 1.957e-10
 33.34349     30.0 9.053e+03 1.947e-10
 33.36362     29.8 8.998e+03 2.017e-10
 33.38827     31.7 9.024e+03 2.016e-10
 33.42852     33.5 9.071e+03 2.025e-10
 33.46877     35.3 9.049e+03 2.053e-10
 33.50795     37.0 9.028e+03 2.072e-10
 33.52807     36.9 8.874e+03 1.916e-10
 33.54927     38.7 8.875e+03 1.914e-10
 33.58952     40.5 8.901e+03 1.973e-10
 33.62977     42.3 8.974e+03 2.094e-10
 33.67001     44.0 9.084e+03 2.223e-10
 33.69253     45.7 9.197e+03 2.369e-10
 33.71266     45.7 8.954e+03 1.952e-10
 33.75051     47.4 9.065e+03 2.076e-10
 33.79076     49.1 9.262e+03 2.297e-10
 33.82002     50.6 9.583e+03 2.732e-10
 33.84014     50.7 9.432e+03 2.471e-10
 33.85699     51.6 9.777e+03 3.072e-10
 33.87711     52.0 9.703e+03 2.997e-10
 33.90135     52.1 9.926e+03 3.577e-10
 33.92137     52.0 1.024e+04 4.590e-10
 33.93902     51.7 1.078e+04 6.742e-10
 33.94908     52.1 1.061e+04 6.215e-10
 33.96162     51.7 1.138e+04 9.696e-10
 33.98175     50.8 1.248e+04 1.658e-09
 34.00187     50.2 1.369e+04 2.834e-09
 34.02125     49.7 1.466e+04 4.034e-09
 34.03131     50.1 1.460e+04 3.999e-09
 34.04212     49.2 1.513e+04 4.546e-09
 34.06224     48.2 1.502e+04 4.232e-09
 34.08237     47.3 1.456e+04 2.986e-09
 34.10249     45.6 1.380e+04 1.594e-09
 34.11354     42.7 1.265e+04 7.838e-10
 34.12360     43.9 1.320e+04 1.074e-09
 34.13609     40.6 1.174e+04 6.015e-10
 34.14615     41.5 1.204e+04 7.226e-10
 34.16286     39.4 1.106e+04 5.699e-10
 34.18299     39.2 1.094e+04 5.590e-10
 34.19577     39.2 1.094e+04 5.589e-10
 34.20583     39.2 1.113e+04 6.421e-10
 34.23340     39.4 1.126e+04 6.814e-10
 34.27374     39.6 1.139e+04 7.651e-10
 34.30383     39.4 1.171e+04 9.525e-10
 34.32386     39.4 1.188e+04 1.072e-09
 34.34398     39.2 1.210e+04 1.204e-09
 34.36023     39.1 1.226e+04 1.299e-09
 34.37029     38.7 1.238e+04 1.394e-09
 34.39439     38.7 1.255e+04 1.519e-09
 34.42458     38.5 1.271e+04 1.626e-09
 34.44229     37.9 1.302e+04 1.836e-09
 34.45020     37.3 1.304e+04 1.823e-09
 34.45252     36.6 1.325e+04 1.977e-09
 34.46473     35.8 1.347e+04 2.187e-09
 34.48485     35.0 1.361e+04 2.353e-09
 34.50498     34.2 1.367e+04 2.469e-09
 34.52468     33.6 1.350e+04 2.320e-09
 34.53475     33.1 1.320e+04 2.046e-09
 34.54523     32.7 1.277e+04 1.633e-09
 34.56535     32.0 1.224e+04 1.186e-09
 34.58548     30.9 1.160e+04 8.098e-10
 34.60560     29.2 1.093e+04 5.673e-10
 34.61697     27.3 1.044e+04 4.270e-10
 34.62704     26.7 1.034e+04 4.080e-10
 34.64585     26.0 1.021e+04 3.762e-10
 34.67613     25.5 1.002e+04 3.098e-10
 34.69940     25.2 9.827e+03 2.750e-10
 34.71952     25.4 9.806e+03 2.788e-10
 34.75673     24.2 9.934e+03 3.008e-10
 34.79698     22.5 1.023e+04 3.897e-10
 34.83722     21.0 1.026e+04 4.313e-10
 34.86385     20.4 1.008e+04 3.922e-10
 34.88398     21.2 1.002e+04 3.830e-10
 34.91772     21.1 9.635e+03 2.329e-10
 34.95797     20.5 9.284e+03 1.184e-10
 34.99822     19.6 9.205e+03 9.811e-11
 35.02831     19.0 9.234e+03 1.069e-10
 35.04844     19.7 9.158e+03 1.007e-10
 35.06494     19.7 9.353e+03 1.434e-10
 35.08507     20.2 9.224e+03 1.267e-10
 35.11896     20.5 9.476e+03 1.746e-10
 35.15921     20.8 9.625e+03 1.898e-10
 35.19277     21.2 9.630e+03 1.799e-10
 35.21289     22.2 9.634e+03 1.872e-10
 35.23971     22.6 9.651e+03 1.603e-10
 35.27996     22.8 9.669e+03 1.364e-10
 35.32021     22.9 9.693e+03 1.357e-10
 35.35723     22.9 9.780e+03 1.518e-10
 35.37735     23.8 1.003e+04 1.912e-10
 35.40070     23.8 1.015e+04 2.376e-10
 35.44095     23.8 1.028e+04 2.812e-10
 35.48120     23.5 1.041e+04 3.046e-10
 35.52145     22.9 1.058e+04 3.265e-10
 35.54181     22.1 1.075e+04 3.573e-10
 35.56193     22.7 1.075e+04 3.587e-10
 35.60195     21.9 1.078e+04 3.801e-10
 35.64220     21.8 1.075e+04 3.714e-10
 35.67735     22.0 1.070e+04 3.327e-10
 35.69747     22.2 1.058e+04 3.025e-10
 35.70626     22.3 1.055e+04 2.610e-10
 35.72639     22.6 1.058e+04 2.641e-10
 35.76294     22.5 1.072e+04 2.901e-10
 35.80319     22.5 1.100e+04 3.813e-10
 35.84344     23.0 1.122e+04 4.687e-10
 35.87072     23.5 1.119e+04 4.715e-10
 35.89085     23.5 1.138e+04 5.778e-10
 35.92394     24.2 1.114e+04 4.988e-10
 35.96419     24.8 1.078e+04 3.824e-10
 36.00443     25.4 1.042e+04 2.902e-10
 36.03518     26.2 1.013e+04 2.372e-10
 36.05530     26.5 1.002e+04 2.265e-10
 36.08493     27.8 9.791e+03 1.872e-10
 36.12518     29.3 9.645e+03 1.627e-10
 36.16543     31.0 9.517e+03 1.475e-10
 36.19964     32.8 9.420e+03 1.376e-10
 36.21976     33.4 9.293e+03 1.168e-10
 36.24593     35.3 9.222e+03 1.104e-10
 36.28617     37.4 9.158e+03 1.069e-10
 36.30987     39.5 9.148e+03 1.069e-10
 36.33000     39.6 8.996e+03 1.039e-10
 36.36409     41.7 8.996e+03 1.050e-10
 36.38422     42.3 8.905e+03 8.741e-11
 36.40692     44.0 8.949e+03 9.541e-11
 36.44717     45.4 9.081e+03 1.229e-10
 36.48742     46.6 9.361e+03 1.885e-10
 36.52767     47.7 9.771e+03 3.050e-10
 36.54867     48.1 1.017e+04 4.620e-10
 36.56880     48.7 1.012e+04 4.514e-10
 36.60816     48.6 1.062e+04 5.912e-10
 36.64841     47.7 1.142e+04 7.836e-10
 36.67850     47.0 1.162e+04 8.762e-10
 36.69853     46.8 1.168e+04 9.116e-10
 36.71294     45.8 1.229e+04 1.285e-09
 36.73316     46.3 1.222e+04 1.245e-09
 36.76916     46.0 1.260e+04 1.685e-09
 36.80941     45.9 1.241e+04 1.591e-09
 36.84965     46.1 1.178e+04 1.187e-09
 36.87759     46.4 1.095e+04 7.215e-10
 36.89771     47.3 1.074e+04 6.625e-10
 36.92227     47.8 9.911e+03 3.491e-10
 36.94240     48.6 9.850e+03 3.476e-10
 36.97040     48.9 9.183e+03 2.004e-10
 37.01065     49.5 8.755e+03 1.698e-10
 37.04205     50.9 8.743e+03 1.702e-10
 37.06217     51.5 8.593e+03 1.445e-10
 37.09115     53.1 8.665e+03 1.605e-10
 37.13139     54.7 8.797e+03 1.886e-10
 37.17164     56.2 8.863e+03 2.046e-10
 37.20650     57.6 8.853e+03 2.039e-10
 37.22663     58.2 8.718e+03 1.835e-10
 37.25214     59.6 8.657e+03 1.766e-10
 37.29239     61.1 8.538e+03 1.610e-10
 37.33264     62.6 8.412e+03 1.443e-10
 37.37096     64.2 8.310e+03 1.311e-10
 37.39108     64.9 8.224e+03 1.168e-10
 37.41314     66.6 8.172e+03 1.113e-10
 37.45338     68.2 8.131e+03 1.061e-10
 37.49363     69.9 8.091e+03 9.941e-11
 37.53388     71.5 8.030e+03 9.215e-11
 37.55480     73.0 7.987e+03 8.722e-11
 37.55633     72.6 7.965e+03 8.842e-11
 37.57567     73.4 7.956e+03 9.087e-11
 37.61438     75.0 7.979e+03 9.231e-11
 37.65463     76.5 8.026e+03 9.768e-11
 37.69488     78.0 8.095e+03 1.069e-10
 37.72000     79.6 8.177e+03 1.185e-10
 37.74012     80.4 8.241e+03 1.342e-10
 37.77537     82.0 8.330e+03 1.480e-10
 37.81562     83.6 8.412e+03 1.597e-10
 37.85587     85.2 8.490e+03 1.668e-10
 37.88446     86.9 8.555e+03 1.671e-10
 37.90458     87.8 8.563e+03 1.732e-10
 37.93637     89.4 8.557e+03 1.660e-10
 37.97662     91.1 8.549e+03 1.560e-10
 38.01686     92.8 8.539e+03 1.444e-10
 38.04891     94.5 8.530e+03 1.324e-10
 38.06904     95.5 8.544e+03 1.321e-10
 38.09736     97.0 8.595e+03 1.298e-10
 38.13761     98.5 8.626e+03 1.313e-10
 38.16720     99.9 8.707e+03 1.372e-10
 38.18732     98.9 8.821e+03 1.494e-10
 38.21337    100.2 8.917e+03 1.605e-10
 38.23349    100.8 9.141e+03 1.991e-10
 38.25836    102.1 9.223e+03 2.129e-10
 38.29860    103.4 9.306e+03 2.268e-10
 38.33885    104.7 9.378e+03 2.374e-10
 38.37783    106.0 9.442e+03 2.445e-10
 38.39795    106.6 9.607e+03 2.784e-10
 38.41935    107.9 9.634e+03 2.791e-10
 38.45960    109.3 9.683e+03 2.824e-10
 38.49985    110.7 9.777e+03 2.936e-10
 38.54010    112.1 1.000e+04 3.325e-10
 38.56241    113.4 1.035e+04 4.053e-10
 38.58253    114.0 1.047e+04 4.491e-10
 38.62059    114.8 1.099e+04 5.777e-10
 38.66084    115.4 1.140e+04 6.947e-10
 38.70109    115.3 1.162e+04 7.444e-10
 38.72677    114.3 1.152e+04 7.124e-10
 38.73673    113.7 1.169e+04 8.326e-10
 38.75121    113.2 1.165e+04 8.143e-10
 38.77133    112.9 1.152e+04 7.364e-10
 38.78947    112.6 1.136e+04 6.405e-10
 38.79953    111.6 1.154e+04 7.144e-10
 38.80890    111.0 1.157e+04 7.109e-10
 38.81896    110.6 1.216e+04 9.962e-10
 38.83170    109.6 1.236e+04 1.049e-09
 38.85183    108.6 1.267e+04 1.178e-09
 38.87195    107.8 1.302e+04 1.378e-09
 38.89113    107.4 1.331e+04 1.564e-09
 38.90119    107.0 1.375e+04 1.846e-09
 38.91220    106.6 1.373e+04 1.782e-09
 38.93232    106.2 1.360e+04 1.534e-09
 38.95245    105.6 1.321e+04 1.123e-09
 38.97257    104.1 1.275e+04 7.373e-10
 38.98342    100.2 1.256e+04 5.151e-10
 38.99348     98.6 1.258e+04 5.434e-10
 39.00774     96.7 1.259e+04 5.258e-10
 39.01776     90.6 2.172e+04 5.050e-10
 39.02443     58.4 5.448e+04 2.010e-09
 39.02947     55.8 5.251e+04 3.178e-09
 39.03534     36.8 4.438e+04 3.378e-08
 39.04035     29.6 2.799e+04 3.351e-07
 39.04792     26.7 2.158e+04 1.354e-06
 39.05800     21.7 2.222e+04 1.140e-06
 39.06555     14.4 3.475e+04 1.458e-07
 39.07058     13.6 3.731e+04 1.097e-07
 39.07813     -9.5 7.849e+04 1.842e-09
 39.08819    -20.5 5.709e+04 1.188e-09
 39.09825    -52.0 3.777e+04 8.255e-10
 39.10568    -68.3 1.692e+04 3.648e-09
 39.11579    -69.3 1.718e+04 4.019e-09
 39.13357    -74.7 1.909e+04 8.640e-09
 39.14788    -78.2 2.028e+04 1.416e-08
 39.15794    -77.4 2.063e+04 1.639e-08
 39.17382    -81.2 2.095e+04 1.850e-08
 39.19394    -85.4 2.016e+04 1.443e-08
 39.21406    -90.2 1.801e+04 5.905e-09
 39.23010    -96.9 1.435e+04 2.021e-09
 39.24017    -96.7 1.463e+04 2.179e-09
 39.25431   -102.3 1.205e+04 9.688e-10
 39.27444   -104.5 1.099e+04 6.724e-10
 39.29456   -105.4 1.053e+04 5.149e-10
 39.31233   -106.0 1.010e+04 4.168e-10
 39.32239   -106.3 1.010e+04 4.161e-10
 39.33481   -106.8 9.869e+03 3.577e-10
 39.35494   -107.0 9.741e+03 3.234e-10
 39.38460   -107.3 9.568e+03 2.896e-10
 39.40482   -108.4 9.868e+03 3.281e-10
 39.41213   -108.8 9.823e+03 3.174e-10
 39.43225   -109.7 1.023e+04 4.088e-10
 39.46581   -110.9 1.048e+04 4.744e-10
 39.50606   -112.2 1.101e+04 6.487e-10
 39.54631   -113.2 1.154e+04 8.928e-10
 39.56928   -114.1 1.185e+04 1.093e-09
 39.58940   -116.5 1.168e+04 9.749e-10
 39.62681   -117.5 1.161e+04 9.647e-10
 39.66706   -118.2 1.134e+04 8.420e-10
 39.70731   -118.8 1.098e+04 6.858e-10
 39.73373   -118.8 1.065e+04 5.752e-10
 39.75386   -121.2 1.067e+04 5.502e-10
 39.78780   -120.9 1.038e+04 4.960e-10
 39.82805   -120.3 1.019e+04 4.696e-10
 39.86830   -119.5 1.004e+04 4.535e-10
 39.89819   -118.4 9.851e+03 4.248e-10
 39.91831   -120.2 9.907e+03 4.327e-10
 39.94880   -118.9 9.723e+03 4.011e-10
 39.98905   -117.4 9.551e+03 3.652e-10
 40.02453   -115.8 9.444e+03 3.372e-10
 40.04465   -115.3 9.649e+03 3.952e-10
 40.06265   -113.8 9.621e+03 3.847e-10
 40.08277   -116.2 9.691e+03 3.833e-10
 40.10979   -115.8 1.006e+04 4.568e-10
 40.15004   -116.2 1.151e+04 8.299e-10
 40.18013   -118.1 1.249e+04 1.419e-09
 40.20016   -118.4 1.302e+04 1.878e-09
 40.22028   -118.7 1.343e+04 2.318e-09
 40.23697   -118.9 1.375e+04 2.622e-09
 40.24703   -121.1 1.380e+04 2.653e-09
 40.26053   -121.5 1.389e+04 2.734e-09
 40.28065   -122.1 1.387e+04 2.659e-09
 40.30078   -122.7 1.359e+04 2.235e-09
 40.31920   -123.9 1.317e+04 1.836e-09
 40.32926   -126.8 1.291e+04 1.613e-09
 40.34059   -127.8 1.265e+04 1.494e-09
 40.35066   -127.8 1.281e+04 1.625e-09
 40.36115   -128.5 1.262e+04 1.523e-09
 40.39143   -128.2 1.257e+04 1.501e-09
 40.43178   -133.2 1.218e+04 1.300e-09
 40.47203   -133.7 1.206e+04 1.202e-09
 40.49382   -132.4 1.210e+04 1.112e-09
 40.50378   -134.2 1.196e+04 1.048e-09
 40.52214   -134.3 1.183e+04 9.922e-10
 40.54227   -135.0 1.151e+04 8.733e-10
 40.56239   -135.7 1.150e+04 8.692e-10
 40.57595   -137.0 1.162e+04 9.127e-10
 40.58601   -138.6 1.154e+04 9.099e-10
 40.60264   -140.2 1.200e+04 1.138e-09
 40.62277   -141.6 1.249e+04 1.504e-09
 40.64289   -143.1 1.312e+04 1.973e-09
 40.65686   -144.9 1.372e+04 2.436e-09
 40.66208   -145.3 1.394e+04 2.626e-09
 40.66824   -145.5 1.331e+04 2.100e-09
 40.68314   -147.6 1.361e+04 2.343e-09
 40.70326   -149.8 1.366e+04 2.391e-09
 40.72339   -151.7 1.344e+04 2.260e-09
 40.74040   -153.3 1.285e+04 1.750e-09
 40.75047   -153.3 1.250e+04 1.482e-09
 40.76364   -154.7 1.187e+04 1.106e-09
 40.78376   -155.8 1.125e+04 8.228e-10
 40.80389   -156.5 1.079e+04 6.285e-10
 40.82263   -157.1 1.048e+04 5.074e-10
 40.83269   -156.6 1.046e+04 4.861e-10
 40.84413   -157.0 1.030e+04 4.214e-10
 40.86426   -157.3 1.026e+04 3.992e-10
 40.88438   -157.5 1.026e+04 3.962e-10
 40.90451   -158.0 1.035e+04 4.053e-10
 40.91492   -158.6 1.074e+04 5.090e-10
 40.92499   -157.6 1.050e+04 4.523e-10
 40.94476   -157.9 1.085e+04 5.878e-10
 40.96306   -158.0 1.127e+04 7.824e-10
 40.97312   -157.2 1.121e+04 7.542e-10
 40.98500   -157.4 1.173e+04 1.042e-09
 40.99715   -157.4 1.228e+04 1.438e-09
 41.00721   -156.5 1.184e+04 1.076e-09
 41.02525   -156.5 1.234e+04 1.439e-09
 41.04538   -156.4 1.278e+04 1.875e-09
 41.06550   -156.1 1.315e+04 2.309e-09
 41.07938   -155.6 1.339e+04 2.629e-09
 41.08944   -155.1 1.299e+04 2.113e-09
 41.10575   -154.6 1.312e+04 2.266e-09
 41.12587   -154.2 1.315e+04 2.295e-09
 41.14600   -153.9 1.314e+04 2.195e-09
 41.16161   -153.6 1.296e+04 1.825e-09
 41.17167   -152.9 1.264e+04 1.628e-09
 41.18625   -152.7 1.243e+04 1.312e-09
 41.20637   -152.9 1.216e+04 1.036e-09
 41.22650   -153.2 1.182e+04 8.209e-10
 41.24384   -153.5 1.143e+04 6.665e-10
 41.25390   -152.4 1.140e+04 6.550e-10
 41.26674   -152.6 1.108e+04 5.529e-10
 41.27932   -152.7 1.079e+04 4.940e-10
 41.28938   -152.2 1.137e+04 6.771e-10
 41.30699   -152.3 1.107e+04 6.039e-10
 41.32607   -152.1 1.083e+04 5.606e-10
 41.33613   -151.1 1.078e+04 5.194e-10
 41.34724   -150.9 1.062e+04 4.902e-10
 41.36737   -150.7 1.050e+04 4.613e-10
 41.38749   -150.4 1.038e+04 4.215e-10
 41.40761   -150.3 1.023e+04 3.704e-10
 41.41845   -150.3 1.003e+04 3.223e-10
 41.42852   -149.2 1.010e+04 3.346e-10
 41.44786   -149.0 9.945e+03 3.053e-10
 41.47815   -148.5 9.889e+03 2.915e-10
 41.51849   -148.3 9.807e+03 2.792e-10
 41.55874   -148.4 9.825e+03 2.907e-10
 41.58301   -148.9 1.009e+04 3.873e-10
 41.60313   -148.4 1.013e+04 3.940e-10
 41.63924   -149.2 1.033e+04 5.060e-10
 41.67949   -150.0 1.039e+04 5.776e-10
 41.71974   -150.5 1.038e+04 5.920e-10
 41.74747   -150.7 1.020e+04 5.708e-10
 41.76759   -151.1 1.006e+04 5.107e-10
 41.80023   -151.3 9.831e+03 4.464e-10
 41.84048   -150.9 9.574e+03 3.863e-10
 41.88073   -150.1 9.371e+03 3.517e-10
 41.90198   -149.2 9.292e+03 3.374e-10
 41.91305   -148.7 9.219e+03 3.259e-10
 41.93205   -149.4 9.226e+03 3.259e-10
 41.96123   -148.3 9.207e+03 3.232e-10
 42.00148   -147.2 9.278e+03 3.397e-10
 42.04173   -146.2 9.603e+03 4.206e-10
 42.07638   -145.1 9.968e+03 5.380e-10
 42.09650   -145.9 9.912e+03 5.270e-10
 42.12222   -145.0 1.015e+04 6.176e-10
 42.15231   -143.9 1.029e+04 6.697e-10
 42.16848   -143.6 1.029e+04 6.755e-10
 42.17854   -144.1 1.019e+04 6.450e-10
 42.19246   -143.6 1.011e+04 6.363e-10
 42.20798   -142.9 9.972e+03 5.894e-10
 42.21805   -142.8 9.963e+03 5.874e-10
 42.23271   -142.1 9.813e+03 5.278e-10
 42.25070   -141.3 9.654e+03 4.702e-10
 42.26077   -141.6 9.535e+03 4.357e-10
 42.28312   -140.8 9.485e+03 4.024e-10
 42.32347   -139.4 9.396e+03 3.700e-10
 42.36371   -137.9 9.278e+03 3.382e-10
 42.40396   -136.4 9.174e+03 3.105e-10
 42.42542   -134.9 9.093e+03 2.867e-10
 42.44554   -135.4 8.759e+03 2.286e-10
 42.48446   -133.8 8.654e+03 2.047e-10
 42.51438   -132.2 8.565e+03 1.864e-10
 42.53450   -131.5 8.801e+03 2.196e-10
 42.56496   -129.8 8.662e+03 1.914e-10
 42.58988   -128.0 8.490e+03 1.676e-10
 42.61000   -128.1 8.155e+03 1.259e-10
 42.64545   -126.0 8.109e+03 1.196e-10
 42.68570   -123.7 8.103e+03 1.187e-10
 42.72595   -121.4 8.142e+03 1.200e-10
 42.75433   -119.2 8.354e+03 1.400e-10
 42.77446   -119.1 8.357e+03 1.362e-10
 42.80645   -117.3 8.708e+03 2.009e-10
 42.84670   -115.6 9.296e+03 3.322e-10
 42.88695   -114.4 1.010e+04 5.742e-10
 42.91879   -113.8 1.105e+04 9.822e-10
 42.93891   -113.8 1.107e+04 1.044e-09
 42.96744   -113.4 1.163e+04 1.375e-09
 42.99753   -112.8 1.188e+04 1.524e-09
 43.01089   -112.6 1.201e+04 1.603e-09
 43.02095   -112.5 1.160e+04 1.342e-09
 43.03768   -112.0 1.159e+04 1.313e-09
 43.05781   -111.5 1.153e+04 1.238e-09
 43.07793   -111.0 1.145e+04 1.136e-09
 43.09311   -110.5 1.135e+04 1.035e-09
 43.10318   -110.2 1.077e+04 7.665e-10
 43.11818   -109.8 1.067e+04 6.901e-10
 43.13665   -109.3 1.057e+04 6.378e-10
 43.14671   -108.8 1.012e+04 4.774e-10
 43.15843   -108.2 1.005e+04 4.512e-10
 43.17534   -107.4 9.997e+03 4.412e-10
 43.18541   -106.5 9.726e+03 3.576e-10
 43.19868   -105.4 9.758e+03 3.587e-10
 43.21880   -104.9 9.754e+03 3.603e-10
 43.23893   -103.9 9.792e+03 3.701e-10
 43.25757   -103.8 9.796e+03 3.773e-10
 43.26773   -103.3 9.664e+03 3.249e-10
 43.28943   -101.6 9.422e+03 2.877e-10
 43.32968    -99.8 9.158e+03 2.470e-10
 43.36993    -97.9 9.000e+03 2.166e-10
 43.41018    -95.8 8.935e+03 1.968e-10
 43.43229    -93.7 8.918e+03 1.854e-10
 43.45241    -92.7 8.782e+03 1.668e-10
 43.49067    -90.6 8.774e+03 1.597e-10
 43.53092    -88.6 8.810e+03 1.596e-10
 43.57117    -86.9 8.991e+03 1.873e-10
 43.59674    -85.4 9.338e+03 2.685e-10
 43.61687    -84.2 9.028e+03 1.957e-10
 43.65167    -82.6 9.382e+03 2.838e-10
 43.69192    -81.2 9.899e+03 4.348e-10
 43.73217    -80.1 1.056e+04 6.749e-10
 43.75931    -79.4 1.128e+04 1.032e-09
 43.76822    -78.5 1.140e+04 1.133e-09
 43.78132    -77.8 1.114e+04 9.754e-10
 43.81266    -77.1 1.199e+04 1.487e-09
 43.85291    -76.9 1.236e+04 1.703e-09
 43.89316    -77.2 1.225e+04 1.551e-09
 43.92566    -77.0 1.140e+04 9.133e-10
 43.94578    -76.3 1.174e+04 1.157e-09
 43.97366    -76.2 1.080e+04 6.466e-10
 44.01391    -75.9 1.008e+04 3.911e-10
 44.05416    -74.6 9.644e+03 2.689e-10
 44.09011    -73.1 9.443e+03 2.100e-10
 44.11024    -72.6 9.439e+03 2.078e-10
 44.13465    -71.1 9.229e+03 1.492e-10
 44.17490    -69.5 9.103e+03 1.173e-10
 44.21515    -67.8 9.067e+03 1.082e-10
 44.25457    -66.0 9.093e+03 1.079e-10
 44.27470    -65.6 8.964e+03 8.846e-11
 44.29565    -63.9 9.019e+03 9.843e-11
 44.33590    -61.9 9.005e+03 1.197e-10
 44.37171    -59.7 9.040e+03 1.417e-10
 44.39183    -59.3 8.935e+03 1.170e-10
 44.41639    -57.1 8.982e+03 1.257e-10
 44.43915    -55.2 9.135e+03 1.350e-10
 44.45928    -54.5 8.969e+03 9.816e-11
 44.49689    -53.5 9.369e+03 1.200e-10
 44.53714    -53.0 9.598e+03 2.059e-10
 44.57739    -51.7 1.007e+04 3.988e-10
 44.60361    -50.3 1.079e+04 6.315e-10
 44.62373    -49.9 1.069e+04 6.059e-10
 44.65788    -49.3 1.126e+04 7.579e-10
 44.69813    -49.9 1.141e+04 7.963e-10
 44.73838    -50.2 1.139e+04 8.117e-10
 44.76807    -50.4 1.148e+04 7.278e-10
 44.78819    -49.9 1.150e+04 7.672e-10
 44.81888    -50.6 1.170e+04 7.353e-10
 44.85913    -51.8 1.187e+04 8.250e-10
 44.89938    -52.0 1.189e+04 9.431e-10
 44.93252    -51.6 1.170e+04 7.892e-10
 44.95265    -51.1 1.206e+04 1.136e-09
 44.97987    -50.4 1.159e+04 5.814e-10
 45.00423    -50.4 1.108e+04 2.237e-10
 45.02436    -51.7 1.099e+04 1.889e-10
 45.06037    -52.3 1.055e+04 1.277e-10
 45.09698    -51.4 1.046e+04 1.210e-10
 45.11711    -51.0 1.047e+04 1.415e-10
 45.14087    -49.8 1.040e+04 1.448e-10
 45.18112    -48.6 1.037e+04 1.527e-10
 45.22137    -47.2 1.035e+04 1.582e-10
 45.26144    -45.6 1.023e+04 1.572e-10
 45.30169    -42.8 1.011e+04 1.268e-10
 45.34211    -40.6 1.034e+04 8.616e-11
 45.38236    -39.6 1.070e+04 6.064e-11
 45.42261    -38.8 1.093e+04 5.920e-11
 45.44602    -38.7 1.069e+04 9.610e-11
 45.46614    -37.5 1.076e+04 1.085e-10
 45.50311    -36.0 1.060e+04 1.888e-10
 45.54335    -33.9 1.061e+04 3.005e-10
 45.58360    -31.7 1.067e+04 3.658e-10
 45.61048    -29.9 1.082e+04 3.238e-10
 45.62338    -29.4 1.087e+04 3.892e-10
 45.63676    -29.9 1.111e+04 3.815e-10
 45.66410    -29.1 1.120e+04 3.135e-10
 45.70435    -28.4 1.095e+04 2.951e-10
 45.74460    -26.9 1.067e+04 2.899e-10
 45.77493    -24.8 1.049e+04 2.589e-10
 45.79506    -24.1 1.054e+04 2.770e-10
 45.82509    -22.0 1.045e+04 2.161e-10
 45.86534    -20.3 1.051e+04 1.644e-10
 45.90559    -18.9 1.047e+04 1.402e-10
 45.93939    -17.2 1.032e+04 1.328e-10
 45.95952    -16.3 1.031e+04 1.510e-10
 45.98609    -14.3 1.017e+04 1.353e-10
 46.02634    -12.0 1.005e+04 1.153e-10
 46.06659    -10.0 1.001e+04 9.489e-11
 46.10385     -8.3 9.988e+03 8.210e-11
 46.12397     -7.4 9.981e+03 8.018e-11
 46.14708     -5.6 9.955e+03 7.880e-11
 46.18733     -3.8 9.972e+03 8.446e-11
 46.22758     -2.0 9.986e+03 9.515e-11
 46.24916     -0.0 1.004e+04 1.062e-10
 46.26928     -0.3 1.017e+04 1.295e-10
 46.28843      1.6 1.023e+04 1.476e-10
 46.30855      2.4 1.020e+04 1.318e-10
 46.34833      4.2 1.025e+04 1.461e-10
 46.38857      5.9 1.030e+04 1.593e-10
 46.42882      7.6 1.038e+04 1.763e-10
 46.45289      9.0 1.049e+04 2.063e-10
 46.47301      9.6 1.051e+04 2.021e-10
 46.50932     10.6 1.065e+04 2.638e-10
 46.54957     11.6 1.082e+04 3.743e-10
 46.58982     12.8 1.103e+04 4.578e-10
 46.61734     13.7 1.106e+04 4.474e-10
 46.63747     14.5 1.094e+04 3.659e-10
 46.67031     15.5 1.089e+04 2.981e-10
 46.71056     16.3 1.080e+04 2.073e-10
 46.75081     17.1 1.071e+04 1.371e-10
 46.78180     17.9 1.060e+04 9.495e-11
 46.80193     18.7 1.057e+04 8.902e-11
 46.83131     19.8 1.050e+04 7.133e-11
 46.86156     21.1 1.048e+04 5.986e-11
 46.88169     21.2 1.051e+04 5.734e-11
 46.91181     22.6 1.051e+04 4.973e-11
 46.94626     24.0 1.043e+04 4.893e-11
 46.96638     24.7 1.044e+04 4.891e-11
 46.99230     26.0 1.043e+04 4.975e-11
 47.03255     27.4 1.038e+04 5.362e-11
 47.07280     28.8 1.033e+04 6.147e-11
 47.11072     30.4 1.029e+04 7.142e-11
 47.13084     30.7 1.033e+04 7.247e-11
 47.15330     32.5 1.030e+04 8.290e-11
 47.19355     34.3 1.030e+04 9.088e-11
 47.23380     36.1 1.033e+04 9.515e-11
 47.27404     37.9 1.037e+04 9.807e-11
 47.29530     39.7 1.040e+04 1.021e-10
 47.31542     39.9 1.041e+04 1.064e-10
 47.35454     41.7 1.044e+04 1.112e-10
 47.39479     43.5 1.046e+04 1.186e-10
 47.43504     45.3 1.053e+04 1.221e-10
 47.45975     46.9 1.056e+04 1.198e-10
 47.47855     47.1 1.053e+04 1.052e-10
 47.49409     47.8 1.065e+04 1.064e-10
 47.51554     49.2 1.079e+04 1.026e-10
 47.55578     50.4 1.087e+04 1.042e-10
 47.59603     51.3 1.099e+04 1.101e-10
 47.62421     52.2 1.110e+04 1.165e-10
 47.64434     52.5 1.109e+04 1.176e-10
 47.67653     53.3 1.115e+04 1.189e-10
 47.71678     54.0 1.115e+04 1.189e-10
 47.75703     54.9 1.111e+04 1.200e-10
 47.78867     56.1 1.104e+04 1.244e-10
 47.80879     56.4 1.105e+04 1.177e-10
 47.83752     57.7 1.098e+04 1.158e-10
 47.87777     59.2 1.089e+04 1.078e-10
 47.91802     60.9 1.083e+04 9.111e-11
 47.95313     62.6 1.082e+04 7.178e-11
 47.97325     62.8 1.087e+04 6.518e-11
 47.99852     64.5 1.081e+04 5.562e-11
 48.03877     66.4 1.073e+04 5.466e-11
 48.07902     68.5 1.069e+04 5.602e-11
 48.10649     70.7 1.065e+04 6.094e-11
 48.12493     71.2 1.076e+04 5.617e-11
 48.13771     71.6 1.082e+04 5.487e-11
 48.15951     73.9 1.082e+04 5.746e-11
 48.19976     76.4 1.083e+04 6.025e-11
 48.24001     78.8 1.086e+04 6.241e-11
 48.28026     81.2 1.089e+04 6.427e-11
 48.30216     83.6 1.093e+04 6.678e-11
 48.32229     83.7 1.097e+04 6.536e-11
 48.36076     86.0 1.102e+04 6.988e-11
 48.40101     88.1 1.109e+04 8.302e-11
 48.44125     90.3 1.113e+04 1.071e-10
 48.46662     92.5 1.116e+04 1.435e-10
 48.48675     92.7 1.125e+04 1.943e-10
 48.52175     95.1 1.134e+04 2.487e-10
 48.56200     97.3 1.145e+04 2.979e-10
 48.60225     99.5 1.154e+04 3.362e-10
 48.63108    101.4 1.161e+04 3.646e-10
 48.65120    101.3 1.161e+04 3.586e-10
 48.68275    103.2 1.165e+04 3.722e-10
 48.71889    105.0 1.172e+04 3.934e-10
 48.73901    105.4 1.166e+04 3.481e-10
 48.76324    107.1 1.174e+04 3.692e-10
 48.79554    108.6 1.187e+04 4.081e-10
 48.81566    108.5 1.184e+04 3.963e-10
 48.84374    110.1 1.201e+04 4.530e-10
 48.88399    111.6 1.205e+04 4.622e-10
 48.92424    113.1 1.203e+04 4.523e-10
 48.95999    114.6 1.197e+04 4.094e-10
 48.98012    114.6 1.198e+04 4.082e-10
 49.00473    115.9 1.186e+04 3.499e-10
 49.04498    117.2 1.179e+04 3.292e-10
 49.08523    118.5 1.179e+04 3.332e-10
 49.12445    119.6 1.183e+04 3.687e-10
 49.14457    119.4 1.202e+04 4.594e-10
 49.16573    120.5 1.207e+04 5.830e-10
 49.20598    121.5 1.207e+04 6.836e-10
 49.24623    122.3 1.203e+04 6.813e-10
 49.28647    123.1 1.183e+04 6.320e-10
 49.30903    124.0 1.151e+04 5.016e-10
 49.32915    124.2 1.139e+04 4.541e-10
 49.35141    125.1 1.105e+04 3.031e-10
 49.37154    125.0 1.123e+04 3.136e-10
 49.40722    125.7 1.093e+04 1.968e-10
 49.44747    126.3 1.068e+04 1.657e-10
 49.47349    127.2 1.067e+04 1.656e-10
 49.49361    127.3 1.065e+04 1.687e-10
 49.52797    127.8 1.060e+04 2.079e-10
 49.56821    128.8 1.082e+04 3.130e-10
 49.59830    128.8 1.101e+04 3.980e-10
 49.61833    128.9 1.118e+04 4.922e-10
 49.63775    129.0 1.131e+04 5.973e-10
 49.64781    128.5 1.143e+04 7.115e-10
 49.65742    128.8 1.149e+04 7.818e-10
 49.66748    128.7 1.144e+04 7.937e-10
 49.67870    129.1 1.147e+04 8.345e-10
 49.69883    129.5 1.149e+04 8.389e-10
 49.71895    130.0 1.148e+04 8.352e-10
 49.73004    130.4 1.146e+04 8.302e-10
 49.74010    130.1 1.147e+04 8.336e-10
 49.75920    130.6 1.142e+04 8.132e-10
 49.77932    131.2 1.135e+04 7.919e-10
 49.79945    132.0 1.131e+04 7.538e-10
 49.81227    132.4 1.127e+04 7.280e-10
 49.82243    131.8 1.119e+04 7.064e-10
 49.84996    133.5 1.118e+04 6.769e-10
 49.89020    135.1 1.112e+04 6.370e-10
 49.93045    136.6 1.098e+04 5.874e-10
 49.96382    138.1 1.079e+04 5.295e-10
 49.98010    137.9 1.075e+04 5.542e-10
 49.98698    137.4 1.069e+04 5.523e-10
 50.01095    138.8 1.062e+04 5.378e-10
 50.05120    140.2 1.052e+04 5.145e-10
 50.09145    141.6 1.036e+04 4.675e-10
 50.13132    142.9 1.017e+04 4.055e-10
 50.15144    142.5 9.920e+03 3.431e-10
 50.17194    143.7 9.759e+03 2.995e-10
 50.21219    144.9 9.596e+03 2.633e-10
 50.25244    146.0 9.440e+03 2.395e-10
 50.29269    147.1 9.299e+03 2.312e-10
 50.31590    148.3 9.270e+03 2.318e-10
 50.33602    148.3 9.178e+03 2.244e-10
 50.37319    149.6 9.143e+03 2.243e-10
 50.41344    150.8 9.117e+03 2.281e-10
 50.45368    151.9 9.121e+03 2.345e-10
 50.48035    152.9 9.140e+03 2.400e-10
 50.50048    152.8 8.905e+03 2.032e-10
 50.53418    153.7 8.905e+03 2.054e-10
 50.57443    154.5 8.924e+03 2.113e-10
 50.59634    155.3 8.946e+03 2.204e-10
 50.61647    155.0 8.715e+03 1.798e-10
 50.64481    155.8 8.733e+03 1.894e-10
 50.66494    156.3 8.566e+03 1.666e-10
 50.69518    157.2 8.610e+03 1.783e-10
 50.73542    158.2 8.678e+03 1.938e-10
 50.77567    159.3 8.763e+03 2.119e-10
 50.80927    160.4 8.848e+03 2.284e-10
 50.82939    161.1 8.667e+03 1.986e-10
 50.85617    162.3 8.715e+03 2.047e-10
 50.89642    163.4 8.719e+03 2.043e-10
 50.93667    164.5 8.712e+03 2.011e-10
 50.97373    165.7 8.715e+03 2.004e-10
 50.99385    166.7 8.561e+03 1.784e-10
 51.01716    168.0 8.580e+03 1.812e-10
 51.05741    169.3 8.669e+03 1.937e-10
 51.09766    170.6 8.838e+03 2.162e-10
 51.13791    171.7 9.032e+03 2.403e-10
 51.15831    172.8 9.198e+03 2.465e-10
 51.17843    174.3 9.228e+03 2.553e-10
 51.20874    175.1 9.255e+03 2.530e-10
 51.22887    174.0 9.129e+03 2.246e-10
 51.25866    174.7 9.087e+03 2.011e-10
 51.29890    175.4 9.055e+03 1.839e-10
 51.32276    176.3 9.070e+03 1.806e-10
 51.34289    177.6 9.037e+03 1.757e-10
 51.37940    178.6 9.054e+03 1.765e-10
 51.41965    179.4 9.123e+03 1.820e-10
 51.44974    179.9 9.153e+03 1.879e-10
 51.46977    180.5 9.189e+03 1.921e-10
 51.48703    180.8 9.307e+03 2.068e-10
 51.49709    181.6 9.260e+03 1.995e-10
 51.51001    181.5 9.552e+03 2.388e-10
 51.52481    180.3 1.058e+04 3.464e-10
 51.53487    179.1 1.104e+04 3.651e-10
 51.54518    178.1 1.197e+04 4.504e-10
 51.55520    175.4 1.515e+04 7.358e-10
 51.56526    166.7 2.181e+04 3.081e-09
 51.57419    157.0 2.482e+04 1.738e-08
 51.57922    162.0 2.257e+04 6.384e-09
 51.58538    153.2 2.413e+04 2.550e-08
 51.59545    147.2 2.450e+04 5.276e-08
 51.60551    142.5 2.608e+04 5.627e-08
 51.61530    136.6 2.724e+04 4.987e-08
 51.62033    135.1 2.880e+04 4.889e-08
 51.62563    125.8 3.152e+04 3.570e-08
 51.63569    113.7 3.526e+04 1.753e-08
 51.64576    102.0 3.117e+04 1.014e-08
 51.65582     89.2 2.739e+04 7.440e-09
 51.66150     76.5 1.842e+04 9.022e-09
 51.67161     73.1 1.885e+04 9.270e-09
 51.68289     71.5 1.804e+04 9.561e-09
 51.68787     72.0 1.792e+04 9.550e-09
 51.69607     71.5 1.785e+04 1.010e-08
 51.70256     70.9 1.800e+04 1.063e-08
 51.70759     69.4 1.806e+04 9.395e-09
 51.71619     68.5 1.836e+04 9.283e-09
 51.72625     67.2 1.865e+04 9.057e-09
 51.73632     65.8 1.872e+04 8.746e-09
 51.74368     64.4 1.866e+04 8.466e-09
 51.74871     62.2 1.774e+04 7.095e-09
 51.75644     61.3 1.752e+04 7.116e-09
 51.77158     60.0 1.752e+04 7.601e-09
 51.79176     59.1 1.741e+04 7.674e-09
 51.81188     58.2 1.700e+04 7.515e-09
 51.82600     57.8 1.655e+04 7.129e-09
 51.83507     57.6 1.565e+04 5.742e-09
 51.84107     58.2 1.527e+04 4.973e-09
 51.85213     58.5 1.538e+04 5.275e-09
 51.87225     58.8 1.540e+04 5.356e-09
 51.89238     59.2 1.539e+04 5.307e-09
 51.90823     59.7 1.533e+04 5.195e-09
 51.91829     60.4 1.486e+04 4.519e-09
 51.93263     60.9 1.480e+04 4.344e-09
 51.95275     61.2 1.466e+04 3.999e-09
 51.97287     61.5 1.439e+04 3.479e-09
 51.99046     61.6 1.399e+04 2.881e-09
 52.00052     62.3 1.373e+04 2.693e-09
 52.01312     62.2 1.331e+04 2.218e-09
 52.03325     61.8 1.280e+04 1.779e-09
 52.05337     61.3 1.225e+04 1.433e-09
 52.07269     60.7 1.175e+04 1.207e-09
 52.08275     61.4 1.168e+04 1.179e-09
 52.09362     60.8 1.129e+04 1.046e-09
 52.11374     60.5 1.130e+04 1.056e-09
 52.13387     59.3 1.189e+04 1.167e-09
 52.14727     55.2 1.546e+04 1.816e-09
 52.15734     60.9 1.188e+04 1.311e-09
 52.16498     57.8 1.512e+04 1.874e-09
 52.17504     53.4 1.861e+04 3.013e-09
 52.19424     49.4 2.050e+04 7.027e-09
 52.21437     48.2 1.960e+04 1.294e-08
 52.23449     48.4 1.877e+04 1.455e-08
 52.24721     49.1 1.806e+04 1.388e-08
 52.25727     49.3 1.824e+04 1.630e-08
 52.27474     50.5 1.746e+04 1.145e-08
 52.29486     51.6 1.667e+04 6.646e-09
 52.31499     51.6 1.648e+04 3.077e-09
 52.32944     50.3 1.563e+04 1.206e-09
 52.33950     47.3 1.505e+04 7.353e-10
 52.35524     44.1 1.070e+04 3.210e-10
 52.37536     43.4 9.179e+03 2.217e-10
 52.39548     44.0 8.955e+03 2.063e-10
 52.41166     45.2 9.082e+03 2.089e-10
 52.42173     44.4 9.582e+03 2.575e-10
 52.43573     45.3 9.643e+03 2.677e-10
 52.45347     46.1 9.721e+03 2.905e-10
 52.46354     47.4 9.425e+03 2.431e-10
 52.47598     48.1 9.509e+03 2.634e-10
 52.49389     48.9 9.638e+03 2.993e-10
 52.50396     48.1 9.862e+03 3.909e-10
 52.51623     49.1 9.978e+03 4.536e-10
 52.53635     50.1 1.012e+04 5.282e-10
 52.55648     51.0 1.026e+04 6.066e-10
 52.57612     52.1 1.039e+04 6.842e-10
 52.58618     51.9 1.057e+04 7.688e-10
 52.59673     52.9 1.069e+04 8.272e-10
 52.61685     54.0 1.081e+04 8.820e-10
 52.63698     54.9 1.092e+04 9.281e-10
 52.65710     55.7 1.101e+04 9.550e-10
 52.66841     56.2 1.103e+04 9.575e-10
 52.67847     55.9 1.104e+04 9.599e-10
 52.69735     56.3 1.103e+04 9.526e-10
 52.71747     56.7 1.098e+04 9.269e-10
 52.73760     57.2 1.091e+04 8.908e-10
 52.75064     57.7 1.081e+04 8.486e-10
 52.76070     57.6 1.087e+04 8.599e-10
 52.76974     58.1 1.079e+04 8.165e-10
 52.77980     58.4 1.073e+04 7.865e-10
 52.79797     58.8 1.063e+04 7.334e-10
 52.81809     59.2 1.049e+04 6.697e-10
 52.83287     59.6 1.032e+04 5.982e-10
 52.84293     59.6 1.035e+04 5.937e-10
 52.85834     60.1 1.013e+04 4.983e-10
 52.87847     60.3 9.971e+03 4.381e-10
 52.90875     61.1 9.653e+03 3.470e-10
 52.94910     62.2 9.298e+03 2.759e-10
 52.98746     63.7 9.269e+03 2.713e-10
 53.00758     64.0 9.155e+03 2.327e-10
 53.02960     65.5 9.287e+03 2.488e-10
 53.06607     66.9 9.666e+03 3.096e-10
 53.08619     66.9 9.421e+03 2.576e-10
 53.11009     67.7 9.824e+03 3.481e-10
 53.14018     68.4 1.010e+04 4.353e-10
 53.16021     69.1 1.040e+04 5.640e-10
 53.17185     70.2 1.075e+04 7.208e-10
 53.19207     70.7 1.079e+04 6.823e-10
 53.23084     72.5 1.083e+04 7.300e-10
 53.27109     74.1 1.075e+04 6.991e-10
 53.31134     75.8 1.046e+04 5.725e-10
 53.33650     77.4 1.005e+04 4.118e-10
 53.35662     78.2 9.941e+03 3.843e-10
 53.39183     79.7 9.597e+03 2.972e-10
 53.43208     81.4 9.493e+03 2.813e-10
 53.47233     83.1 9.511e+03 2.845e-10
 53.50096     84.7 9.554e+03 3.004e-10
 53.52108     85.6 9.540e+03 2.966e-10
 53.55283     87.1 9.545e+03 3.160e-10
 53.59308     88.6 9.602e+03 3.448e-10
 53.63332     89.9 9.735e+03 3.737e-10
 53.66541     90.9 9.906e+03 3.773e-10
 53.68554     91.7 9.641e+03 3.251e-10
 53.69860     92.7 9.665e+03 3.166e-10
 53.71872     92.2 9.517e+03 3.145e-10
 53.75407     93.2 9.594e+03 3.243e-10
 53.79432     94.1 9.670e+03 3.302e-10
 53.82987     95.0 9.757e+03 3.347e-10
 53.84999     96.2 9.607e+03 3.141e-10
 53.87482     97.2 9.692e+03 3.234e-10
 53.91506     98.1 9.815e+03 3.489e-10
 53.95531     99.1 9.923e+03 3.792e-10
 53.99433    100.1 9.974e+03 3.924e-10
 54.01445    101.6 9.839e+03 3.821e-10
 54.03581    102.7 9.945e+03 3.889e-10
 54.07606    103.6 1.002e+04 3.818e-10
 54.11631    104.1 1.016e+04 3.473e-10
 54.14640    103.8 1.028e+04 3.181e-10
 54.16642    103.0 1.039e+04 3.199e-10
 54.17871    100.5 1.082e+04 3.557e-10
 54.18878    100.8 1.101e+04 3.920e-10
 54.20667     96.6 1.213e+04 6.157e-10
 54.22680     92.7 1.324e+04 1.253e-09
 54.24692     90.2 1.396e+04 2.347e-09
 54.26094     88.5 1.449e+04 3.208e-09
 54.27100     88.9 1.441e+04 3.103e-09
 54.28717     86.4 1.480e+04 3.085e-09
 54.30729     81.0 1.557e+04 3.102e-09
 54.32086     72.5 1.700e+04 3.248e-09
 54.33093     72.9 1.657e+04 2.910e-09
 54.34246     67.6 1.704e+04 3.128e-09
 54.34810     62.4 1.759e+04 3.854e-09
 54.35313     62.4 1.707e+04 3.396e-09
 54.36254     57.6 1.743e+04 4.625e-09
 54.37260     52.2 1.869e+04 7.550e-09
 54.38266     46.1 2.175e+04 1.431e-08
 54.38922     39.9 2.488e+04 2.648e-08
 54.39425     40.3 2.399e+04 1.825e-08
 54.40279     34.2 2.481e+04 2.364e-08
 54.41285     27.7 2.555e+04 2.637e-08
 54.42291      6.5 3.472e+04 3.862e-08
 54.43033    -16.8 3.416e+04 9.478e-08
 54.43536    -13.8 3.393e+04 9.049e-08
 54.44303    -28.0 2.672e+04 1.513e-07
 54.45310    -36.1 2.594e+04 6.486e-08
 54.46316    -44.9 2.954e+04 1.261e-08
 54.47145    -64.0 2.354e+04 1.358e-09
 54.47648    -62.8 2.409e+04 1.466e-09
 54.48836    -78.5 1.296e+04 5.189e-10
 54.50763    -83.8 9.754e+03 3.680e-10
 54.51769    -83.0 9.806e+03 3.744e-10
 54.52866    -84.6 9.656e+03 3.590e-10
 54.54878    -85.5 9.655e+03 3.608e-10
 54.56891    -86.1 9.692e+03 3.770e-10
 54.59919    -86.8 9.721e+03 3.917e-10
 54.63954    -88.4 9.620e+03 3.924e-10
 54.67228    -89.6 9.549e+03 3.841e-10
 54.69240    -90.0 9.392e+03 3.577e-10
 54.72004    -91.2 9.411e+03 3.550e-10
 54.76029    -94.6 1.074e+04 5.290e-10
 54.79037    -97.2 1.214e+04 9.532e-10
 54.81040    -99.9 1.400e+04 2.067e-09
 54.83052   -101.3 1.512e+04 3.720e-09
 54.84660   -102.0 1.583e+04 5.458e-09
 54.85667   -102.3 1.579e+04 5.016e-09
 54.87077   -103.0 1.628e+04 6.423e-09
 54.89090   -104.0 1.640e+04 6.741e-09
 54.91102   -105.6 1.626e+04 6.247e-09
 54.92883   -108.0 1.560e+04 4.276e-09
 54.93889   -107.4 1.615e+04 5.507e-09
 54.94333   -110.4 1.522e+04 3.469e-09
 54.95339   -108.8 1.549e+04 3.606e-09
 54.97140   -112.6 1.411e+04 2.101e-09
 54.99152   -116.2 1.262e+04 1.410e-09
 55.01106   -118.6 1.186e+04 1.179e-09
 55.02112   -118.1 1.243e+04 1.348e-09
 55.03177   -119.9 1.186e+04 1.164e-09
 55.05189   -121.1 1.161e+04 1.089e-09
 55.07202   -122.1 1.148e+04 1.044e-09
 55.09214   -123.1 1.134e+04 9.727e-10
 55.10335   -124.2 1.114e+04 8.750e-10
 55.11341   -124.3 1.110e+04 8.597e-10
 55.13239   -125.3 1.083e+04 7.428e-10
 55.15251   -126.3 1.060e+04 6.505e-10
 55.17264   -127.2 1.045e+04 5.919e-10
 55.18558   -127.8 1.039e+04 5.701e-10
 55.19564   -128.1 1.024e+04 5.148e-10
 55.21289   -128.7 1.023e+04 5.023e-10
 55.24317   -129.3 1.025e+04 4.961e-10
 55.28352   -129.9 1.037e+04 5.109e-10
 55.32377   -131.5 1.101e+04 6.491e-10
 55.35023   -132.6 1.199e+04 1.022e-09
 55.37036   -132.9 1.203e+04 1.091e-09
 55.40426   -133.0 1.266e+04 1.687e-09
 55.43236   -133.1 1.302e+04 2.219e-09
 55.44233   -132.8 1.293e+04 2.257e-09
 55.45438   -132.3 1.282e+04 2.290e-09
 55.47450   -131.7 1.240e+04 2.040e-09
 55.49463   -131.1 1.209e+04 1.707e-09
 55.51449   -130.6 1.166e+04 1.367e-09
 55.52456   -130.2 1.137e+04 1.180e-09
 55.53488   -129.7 1.099e+04 8.801e-10
 55.55500   -129.2 1.064e+04 6.518e-10
 55.56579   -128.9 1.036e+04 4.925e-10
 55.57585   -130.0 9.999e+03 3.353e-10
 55.60541   -129.6 9.740e+03 2.788e-10
 55.64575   -127.7 9.530e+03 2.452e-10
 55.67915   -125.7 9.507e+03 2.417e-10
 55.69927   -124.8 9.165e+03 1.824e-10
 55.72625   -123.1 9.361e+03 1.985e-10
 55.76650   -121.9 9.738e+03 2.575e-10
 55.80675   -120.9 1.006e+04 3.380e-10
 55.84360   -120.3 1.030e+04 4.224e-10
 55.86373   -120.0 1.026e+04 4.307e-10
 55.88725   -120.0 1.072e+04 5.721e-10
 55.91734   -121.2 1.098e+04 6.917e-10
 55.93570   -124.5 1.241e+04 1.011e-09
 55.94576   -125.2 1.315e+04 1.283e-09
 55.95749   -129.6 1.535e+04 2.335e-09
 55.97761   -133.7 1.686e+04 4.665e-09
 55.99773   -136.5 1.749e+04 7.293e-09
 56.01786   -138.8 1.761e+04 8.301e-09
 56.03798   -142.0 1.716e+04 7.271e-09
 56.05811   -145.4 1.594e+04 3.778e-09
 56.07823   -150.2 1.395e+04 1.703e-09
 56.09836   -154.4 1.233e+04 1.034e-09
 56.11022   -155.9 1.187e+04 8.988e-10
 56.12028   -156.8 1.197e+04 8.979e-10
 56.13860   -157.1 1.197e+04 8.845e-10
 56.15873   -157.4 1.217e+04 8.957e-10
 56.17819   -157.6 1.224e+04 1.002e-09
 56.18825   -159.2 1.218e+04 1.285e-09
 56.19245   -158.4 1.207e+04 1.455e-09
 56.20251   -158.4 1.181e+04 1.436e-09
 56.21910   -157.3 1.181e+04 1.525e-09
 56.23923   -156.1 1.181e+04 1.580e-09
 56.25935   -154.9 1.179e+04 1.602e-09
 56.27468   -153.7 1.167e+04 1.586e-09
 56.28474   -153.5 1.142e+04 1.365e-09
 56.29960   -152.3 1.130e+04 1.204e-09
 56.31972   -151.3 1.117e+04 1.017e-09
 56.33985   -150.5 1.104e+04 8.449e-10
 56.35690   -149.8 1.091e+04 6.997e-10
 56.36697   -149.8 1.075e+04 5.373e-10
 56.38010   -149.1 1.066e+04 4.541e-10
 56.40022   -148.5 1.052e+04 3.911e-10
 56.42035   -147.8 1.033e+04 3.456e-10
 56.45063   -147.1 1.013e+04 3.160e-10
 56.49098   -145.8 9.965e+03 3.047e-10
 56.52156   -144.2 9.770e+03 2.874e-10
 56.54168   -144.0 9.485e+03 2.361e-10
 56.57147   -142.3 9.351e+03 2.232e-10
 56.61172   -140.6 9.207e+03 1.994e-10
 56.65197   -138.9 9.066e+03 1.675e-10
 56.68601   -137.4 8.989e+03 1.376e-10
 56.70614   -136.9 8.853e+03 1.203e-10
 56.73247   -135.4 8.872e+03 1.024e-10
 56.77272   -134.2 8.958e+03 9.518e-11
 56.80085   -133.0 8.988e+03 9.450e-11
 56.82097   -134.5 9.551e+03 2.104e-10
 56.85047   -133.3 9.564e+03 2.393e-10
 56.87059   -132.0 9.279e+03 1.751e-10
 56.89346   -130.7 9.280e+03 1.988e-10
 56.93371   -129.4 9.362e+03 2.248e-10
 56.97396   -128.2 9.608e+03 2.588e-10
 57.01421   -127.2 1.006e+04 3.155e-10
 57.03505   -126.6 1.063e+04 4.138e-10
 57.05518   -125.5 1.039e+04 3.648e-10
 57.09470   -125.0 1.096e+04 5.216e-10
 57.11702   -124.8 1.127e+04 6.950e-10
 57.11937   -125.1 1.126e+04 6.715e-10
 57.12715   -124.3 1.122e+04 6.591e-10
 57.14482   -124.3 1.146e+04 7.679e-10
 57.16494   -124.4 1.180e+04 9.453e-10
 57.18507   -124.9 1.215e+04 1.093e-09
 57.19931   -125.7 1.256e+04 1.354e-09
 57.20938   -124.3 1.235e+04 1.234e-09
 57.22532   -125.0 1.267e+04 1.431e-09
 57.24544   -125.9 1.291e+04 1.666e-09
 57.26557   -126.8 1.306e+04 1.921e-09
 57.28154   -127.5 1.313e+04 2.170e-09
 57.29160   -126.0 1.296e+04 1.872e-09
 57.30581   -126.5 1.303e+04 2.038e-09
 57.32594   -127.1 1.302e+04 2.149e-09
 57.34606   -127.4 1.299e+04 2.171e-09
 57.36377   -127.7 1.284e+04 2.119e-09
 57.37383   -126.5 1.281e+04 1.952e-09
 57.38631   -126.8 1.273e+04 1.940e-09
 57.40644   -127.2 1.262e+04 1.785e-09
 57.42312   -127.7 1.249e+04 1.616e-09
 57.43318   -128.8 1.236e+04 1.431e-09
 57.44600   -129.4 1.216e+04 1.247e-09
 57.45606   -128.0 1.241e+04 1.467e-09
 57.46681   -128.6 1.223e+04 1.306e-09
 57.48693   -129.3 1.201e+04 1.161e-09
 57.50706   -129.9 1.181e+04 1.052e-09
 57.52718   -130.6 1.168e+04 9.885e-10
 57.53829   -131.2 1.163e+04 9.562e-10
 57.54835   -130.2 1.197e+04 1.154e-09
 57.56743   -130.8 1.191e+04 1.109e-09
 57.58755   -131.6 1.187e+04 1.062e-09
 57.60768   -132.3 1.183e+04 1.009e-09
 57.62052   -132.9 1.175e+04 9.558e-10
 57.63058   -132.3 1.202e+04 1.122e-09
 57.64793   -132.8 1.189e+04 1.047e-09
 57.66805   -133.2 1.172e+04 9.712e-10
 57.68818   -133.4 1.154e+04 8.900e-10
 57.70275   -133.5 1.135e+04 8.158e-10
 57.71291   -133.2 1.181e+04 1.027e-09
 57.73868   -133.3 1.129e+04 8.137e-10
 57.77893   -133.3 1.087e+04 6.466e-10
 57.81918   -132.6 1.032e+04 4.738e-10
 57.85734   -131.3 9.848e+03 3.338e-10
 57.87746   -130.8 1.023e+04 4.341e-10
 57.89968   -129.5 9.758e+03 2.968e-10
 57.93993   -128.1 9.385e+03 2.061e-10
 57.98017   -126.8 9.217e+03 1.604e-10
 58.02042   -125.3 9.177e+03 1.463e-10
 58.04192   -123.8 9.177e+03 1.446e-10
 58.04715   -123.7 9.280e+03 1.773e-10
 58.06590   -123.5 9.134e+03 1.376e-10
 58.10092   -121.9 9.140e+03 1.371e-10
 58.14117   -120.4 9.190e+03 1.473e-10
 58.18142   -118.8 9.222e+03 1.680e-10
 58.20638   -117.0 9.237e+03 1.884e-10
 58.22650   -116.6 9.059e+03 1.779e-10
 58.26191   -114.7 9.045e+03 1.797e-10
 58.30216   -112.8 9.019e+03 1.790e-10
 58.34241   -110.8 9.026e+03 1.773e-10
 58.37083   -108.9 9.075e+03 1.774e-10
 58.39096   -108.3 8.970e+03 1.419e-10
 58.42291   -106.4 9.067e+03 1.477e-10
 58.46316   -104.3 9.120e+03 1.507e-10
 58.50341   -102.2 9.130e+03 1.496e-10
 58.53529    -99.7 9.076e+03 1.378e-10
 58.55541    -98.8 9.049e+03 1.353e-10
 58.58390    -95.7 9.105e+03 1.288e-10
 58.62415    -93.3 9.212e+03 1.284e-10
 58.65818    -92.6 9.880e+03 1.371e-10
 58.67830    -90.0 1.023e+04 1.516e-10
 58.69449    -92.2 1.439e+04 1.027e-10
 58.70961   -101.5 1.870e+04 6.702e-10
 58.71968    -99.8 1.849e+04 7.305e-10
 58.73464   -104.6 2.056e+04 4.680e-09
 58.74968   -104.5 2.022e+04 1.348e-08
 58.75566   -104.4 2.065e+04 2.408e-08
 58.76069   -103.4 2.019e+04 2.630e-08
 58.76976   -103.3 2.051e+04 3.955e-08
 58.77982   -103.5 2.098e+04 4.675e-08
 58.78988   -104.4 2.109e+04 4.788e-08
 58.79678   -105.5 2.184e+04 3.937e-08
 58.80181   -105.1 2.203e+04 4.430e-08
 58.81001   -107.3 2.370e+04 2.452e-08
 58.82007   -111.9 2.445e+04 1.052e-08
 58.82608   -119.1 2.215e+04 4.613e-09
 58.83111   -122.9 2.109e+04 4.487e-09
 58.83789   -128.3 1.726e+04 3.279e-09
 58.84292   -128.8 1.821e+04 3.498e-09
 58.85026   -130.4 1.670e+04 3.143e-09
 58.86032   -131.0 1.632e+04 3.079e-09
 58.87402   -131.5 1.612e+04 3.120e-09
 58.88408   -133.6 1.722e+04 4.461e-09
 58.89559   -133.8 1.714e+04 5.119e-09
 58.91576   -133.6 1.639e+04 6.063e-09
 58.93588   -132.8 1.672e+04 6.914e-09
 58.95601   -132.1 1.671e+04 7.159e-09
 58.96636   -131.8 1.643e+04 6.799e-09
 58.97454   -132.1 1.636e+04 6.260e-09
 58.98431   -133.2 1.551e+04 4.530e-09
 58.99626   -133.1 1.465e+04 3.248e-09
 59.01638   -133.1 1.367e+04 2.197e-09
 59.03650   -133.5 1.271e+04 1.507e-09
 59.04859   -134.0 1.203e+04 1.136e-09
 59.05865   -133.8 1.171e+04 9.755e-10
 59.07675   -134.1 1.120e+04 7.772e-10
 59.09688   -134.2 1.103e+04 7.226e-10
 59.11700   -134.2 1.100e+04 7.151e-10
 59.13082   -134.2 1.110e+04 7.461e-10
 59.14088   -133.5 1.067e+04 6.166e-10
 59.15725   -133.4 1.073e+04 6.580e-10
 59.17737   -133.3 1.084e+04 7.356e-10
 59.19750   -133.0 1.092e+04 8.093e-10
 59.21305   -132.6 1.094e+04 8.554e-10
 59.22311   -131.9 1.070e+04 7.417e-10
 59.23775   -131.4 1.072e+04 7.797e-10
 59.25787   -130.9 1.071e+04 7.934e-10
 59.27800   -130.3 1.069e+04 7.955e-10
 59.29051   -129.8 1.051e+04 7.586e-10
 59.29773   -130.0 1.040e+04 6.954e-10
 59.30534   -129.3 1.048e+04 7.061e-10
 59.31824   -128.7 1.039e+04 6.908e-10
 59.33837   -128.2 1.024e+04 6.176e-10
 59.35849   -127.9 1.005e+04 5.238e-10
 59.37760   -127.8 9.746e+03 4.068e-10
 59.38766   -127.2 1.024e+04 6.220e-10
 59.39874   -126.9 1.005e+04 5.444e-10
 59.41887   -126.6 9.888e+03 4.775e-10
 59.43899   -126.1 9.799e+03 4.377e-10
 59.46927   -125.7 9.760e+03 4.151e-10
 59.50962   -125.3 9.537e+03 3.604e-10
 59.54216   -124.6 9.210e+03 2.943e-10
 59.56228   -123.6 9.699e+03 3.890e-10
 59.59012   -123.1 9.358e+03 3.110e-10
 59.63037   -122.0 8.976e+03 2.380e-10
 59.67062   -120.6 8.673e+03 1.847e-10
 59.70661   -119.1 8.514e+03 1.544e-10
 59.72674   -118.5 8.610e+03 1.615e-10
 59.75111   -117.3 8.596e+03 1.519e-10
 59.79136   -117.6 8.802e+03 1.529e-10
 59.83161   -122.5 1.116e+04 2.540e-10
 59.86170   -127.6 1.367e+04 1.593e-09
 59.88094   -128.0 1.518e+04 4.521e-09
 59.89100   -127.5 1.491e+04 5.053e-09
 59.90185   -127.1 1.583e+04 8.364e-09
 59.91297   -126.9 1.637e+04 1.012e-08
 59.92303   -127.1 1.617e+04 9.145e-09
 59.94210   -127.4 1.617e+04 8.517e-09
 59.96222   -127.8 1.557e+04 5.560e-09
 59.97323   -129.0 1.434e+04 2.955e-09
 59.98329   -130.6 1.283e+04 1.345e-09
 60.00247   -132.0 1.122e+04 7.714e-10
 60.02260   -132.4 1.035e+04 5.080e-10
 60.04272   -132.5 1.002e+04 3.737e-10
 60.05546   -132.0 9.805e+03 3.029e-10
 60.07568   -132.4 9.564e+03 2.336e-10
 60.11335   -131.3 9.213e+03 1.750e-10
 60.15360   -129.7 8.856e+03 1.266e-10
 60.19385   -128.1 8.640e+03 9.571e-11
 60.22011   -126.6 8.540e+03 7.706e-11
 60.24023   -126.3 8.419e+03 6.620e-11
 60.27434   -124.8 8.378e+03 5.945e-11
 60.31459   -123.3 8.380e+03 5.789e-11
 60.35484   -121.9 8.394e+03 5.775e-11
 60.38457   -120.7 8.506e+03 6.248e-11
 60.40469   -120.3 8.441e+03 5.792e-11
 60.43534   -119.1 8.540e+03 6.927e-11
 60.47559   -117.9 8.630e+03 8.398e-11
 60.51551   -116.6 8.738e+03 1.013e-10
 60.53563   -116.6 8.713e+03 1.128e-10
 60.54902   -115.2 8.849e+03 1.387e-10
 60.56915   -114.8 8.734e+03 1.082e-10
 60.59633   -113.6 8.899e+03 1.275e-10
 60.63658   -112.4 9.100e+03 1.540e-10
 60.67683   -111.5 9.335e+03 1.939e-10
 60.71348   -110.7 9.595e+03 2.524e-10
 60.73361   -110.6 9.383e+03 2.093e-10
 60.75733   -110.0 9.664e+03 2.811e-10
 60.79758   -109.5 9.924e+03 3.627e-10
 60.83783   -109.1 1.015e+04 4.409e-10
 60.87794   -108.7 1.034e+04 5.063e-10
 60.91819   -108.5 1.041e+04 4.878e-10
 60.95857   -108.2 1.047e+04 4.907e-10
 60.99882   -107.6 1.054e+04 4.650e-10
 61.03907   -107.0 1.052e+04 4.260e-10
 61.06252   -106.2 1.043e+04 3.841e-10
 61.08264   -107.0 1.029e+04 3.588e-10
 61.11957   -105.8 1.027e+04 3.507e-10
 61.14803   -104.6 1.029e+04 3.524e-10
 61.16816   -105.1 1.028e+04 3.543e-10
 61.20006   -103.9 1.045e+04 4.007e-10
 61.22698   -102.8 1.087e+04 5.440e-10
 61.24710   -103.2 1.077e+04 5.349e-10
 61.28056   -102.4 1.122e+04 6.718e-10
 61.32081   -102.6 1.192e+04 9.143e-10
 61.35090   -103.8 1.247e+04 1.209e-09
 61.37092   -104.7 1.321e+04 1.708e-09
 61.39105   -105.8 1.411e+04 2.650e-09
 61.40130   -106.5 1.501e+04 4.114e-09
 61.41136   -107.1 1.523e+04 4.951e-09
 61.43130   -107.5 1.577e+04 6.349e-09
 61.45142   -108.1 1.592e+04 6.777e-09
 61.46410   -108.6 1.582e+04 6.672e-09
 61.47416   -108.6 1.589e+04 6.883e-09
 61.48353   -108.8 1.535e+04 5.725e-09
 61.49359   -108.8 1.528e+04 5.793e-09
 61.51179   -108.9 1.459e+04 4.412e-09
 61.53192   -109.3 1.399e+04 3.463e-09
 61.55204   -109.5 1.354e+04 2.918e-09
 61.56576   -109.5 1.325e+04 2.639e-09
 61.57582   -109.2 1.317e+04 2.632e-09
 61.59229   -108.7 1.302e+04 2.478e-09
 61.61242   -108.0 1.297e+04 2.388e-09
 61.63254   -107.2 1.302e+04 2.326e-09
 61.64799   -106.5 1.306e+04 2.312e-09
 61.65805   -106.3 1.298e+04 2.130e-09
 61.67279   -105.9 1.306e+04 2.133e-09
 61.69291   -106.0 1.342e+04 2.190e-09
 61.71304   -109.8 1.754e+04 2.772e-09
 61.73021   -114.3 2.081e+04 7.970e-09
 61.74028   -110.8 1.784e+04 4.342e-09
 61.75329   -113.5 2.015e+04 1.117e-08
 61.76833   -114.7 2.130e+04 2.791e-08
 61.77523   -114.8 2.132e+04 3.674e-08
 61.77818   -114.6 2.174e+04 5.330e-08
 61.78129   -113.6 2.126e+04 3.407e-08
 61.78841   -113.7 2.148e+04 4.412e-08
 61.79847   -113.7 2.156e+04 4.795e-08
 61.80853   -114.1 2.150e+04 4.805e-08
 61.81738   -114.2 2.080e+04 3.824e-08
 61.82241   -113.9 2.060e+04 3.101e-08
 61.82865   -113.9 1.962e+04 2.302e-08
 61.83872   -113.9 1.871e+04 1.702e-08
 61.85386   -113.9 1.791e+04 1.244e-08
 61.87403   -114.1 1.618e+04 6.796e-09
 61.89416   -114.6 1.493e+04 4.408e-09
 61.90473   -115.1 1.356e+04 2.952e-09
 61.91480   -114.1 1.405e+04 3.041e-09
 61.93440   -114.1 1.314e+04 2.321e-09
 61.95453   -113.8 1.251e+04 1.884e-09
 61.97465   -112.5 1.206e+04 1.555e-09
 61.98696   -111.2 1.177e+04 1.297e-09
 61.99702   -110.9 1.188e+04 1.373e-09
 62.01490   -109.7 1.166e+04 1.183e-09
 62.03503   -108.6 1.150e+04 1.009e-09
 62.05515   -107.4 1.132e+04 8.551e-10
 62.06919   -106.1 1.116e+04 7.253e-10
 62.07925   -106.0 1.129e+04 8.952e-10
 62.08656   -105.0 1.117e+04 7.990e-10
 62.09662   -104.5 1.089e+04 6.966e-10
 62.11552   -103.4 1.072e+04 6.202e-10
 62.13565   -102.2 1.058e+04 5.559e-10
 62.15142   -100.8 1.051e+04 5.072e-10
 62.16148   -100.7 1.062e+04 5.982e-10
 62.17590    -99.2 1.053e+04 5.554e-10
 62.19602    -97.9 1.050e+04 5.220e-10
 62.21614    -96.8 1.048e+04 5.012e-10
 62.23365    -95.4 1.047e+04 4.838e-10
 62.24371    -95.1 1.039e+04 5.756e-10
 62.25639    -93.8 1.036e+04 5.590e-10
 62.27652    -92.3 1.036e+04 5.461e-10
 62.29664    -91.3 1.036e+04 5.356e-10
 62.31588    -89.7 1.036e+04 5.239e-10
 62.32594    -89.4 1.042e+04 5.109e-10
 62.33689    -88.4 1.042e+04 5.006e-10
 62.35701    -86.9 1.044e+04 4.908e-10
 62.37714    -86.0 1.046e+04 4.814e-10
 62.39276    -84.5 1.050e+04 4.716e-10
 62.40376    -83.6 1.052e+04 4.253e-10
 62.41843    -83.3 1.081e+04 3.579e-10
 62.44777    -81.1 1.087e+04 3.733e-10
 62.47786    -79.7 1.087e+04 3.838e-10
 62.49040    -78.6 1.085e+04 3.828e-10
 62.50046    -78.6 1.109e+04 3.925e-10
 62.51801    -77.5 1.121e+04 4.037e-10
 62.53813    -76.6 1.135e+04 4.135e-10
 62.55826    -75.7 1.149e+04 4.217e-10
 62.57262    -74.8 1.165e+04 4.319e-10
 62.58269    -75.0 1.201e+04 5.847e-10
 62.59851    -74.1 1.206e+04 6.400e-10
 62.61863    -73.2 1.203e+04 7.082e-10
 62.63875    -72.3 1.195e+04 7.876e-10
 62.65485    -71.4 1.191e+04 8.742e-10
 62.66492    -70.8 1.235e+04 1.050e-09
 62.67900    -69.8 1.234e+04 1.069e-09
 62.69896    -68.9 1.218e+04 1.056e-09
 62.70903    -68.7 1.226e+04 1.038e-09
 62.72712    -67.8 1.200e+04 1.031e-09
 62.74734    -66.9 1.225e+04 1.423e-09
 62.76976    -64.7 1.207e+04 1.163e-09
 62.79985    -62.5 1.191e+04 9.640e-10
 62.81931    -61.6 1.179e+04 8.245e-10
 62.82937    -61.5 1.177e+04 8.178e-10
 62.84000    -60.2 1.154e+04 6.255e-10
 62.86012    -59.5 1.145e+04 5.395e-10
 62.89041    -58.1 1.125e+04 3.773e-10
 62.91180    -55.4 1.104e+04 2.464e-10
 62.93192    -55.6 1.103e+04 3.021e-10
 62.97100    -53.4 1.095e+04 2.756e-10
 63.00536    -51.1 1.093e+04 2.722e-10
 63.02548    -50.2 1.109e+04 2.228e-10
 63.05150    -48.2 1.115e+04 2.228e-10
 63.07625    -46.6 1.131e+04 2.709e-10
 63.09638    -46.4 1.145e+04 4.630e-10
 63.13200    -44.5 1.156e+04 5.251e-10
 63.17224    -42.5 1.171e+04 5.883e-10
 63.21249    -40.5 1.183e+04 6.237e-10
 63.24071    -38.7 1.185e+04 6.258e-10
 63.26083    -38.2 1.157e+04 3.997e-10
 63.29299    -36.5 1.150e+04 3.171e-10
 63.33324    -34.6 1.136e+04 2.738e-10
 63.37349    -32.5 1.117e+04 2.464e-10
 63.40517    -30.1 1.096e+04 2.284e-10
 63.42529    -29.5 1.092e+04 1.244e-10
 63.45398    -26.9 1.091e+04 1.052e-10
 63.49423    -24.5 1.088e+04 9.008e-11
 63.53448    -22.2 1.081e+04 7.956e-11
 63.56962    -20.2 1.074e+04 7.492e-11
 63.58975    -20.3 1.070e+04 5.847e-11
 63.61498    -18.7 1.055e+04 7.825e-11
 63.63788    -17.0 1.061e+04 1.157e-10
 63.65801    -16.2 1.050e+04 1.642e-10
 63.69548    -14.1 1.075e+04 2.055e-10
 63.73408    -12.2 1.101e+04 2.442e-10
 63.75421    -11.7 1.081e+04 2.215e-10
 63.77597     -9.9 1.089e+04 2.346e-10
 63.81622     -8.2 1.093e+04 2.063e-10
 63.85647     -7.6 1.122e+04 1.586e-10
 63.89672     -8.1 1.104e+04 1.672e-10
 63.91866     -8.0 1.044e+04 2.942e-10
 63.93879     -7.3 1.046e+04 2.175e-10
 63.97722     -5.0 1.035e+04 3.347e-10
 64.01747     -3.6 1.045e+04 3.340e-10
 64.05771     -2.5 1.063e+04 2.053e-10
 64.08312     -2.7 1.044e+04 1.690e-10
 64.10324     -1.1 1.049e+04 2.151e-10
 64.13821     -1.1 1.075e+04 2.251e-10
 64.17846     -1.7 1.090e+04 3.908e-10
 64.21871      0.5 1.073e+04 6.941e-10
 64.24758      2.3 1.066e+04 6.524e-10
 64.25903      3.1 1.052e+04 5.600e-10
 64.27041      3.6 1.045e+04 5.709e-10
 64.29921      5.9 1.074e+04 3.332e-10
 64.33945      6.4 1.066e+04 1.698e-10
 64.37970      6.7 1.032e+04 1.016e-10
 64.41203      8.1 9.766e+03 8.359e-11
 64.43216      9.2 9.917e+03 7.061e-11
 64.46020     10.7 9.779e+03 6.296e-11
 64.50045     12.8 9.803e+03 6.358e-11
 64.54070     14.3 9.977e+03 7.190e-11
 64.57649     15.5 1.016e+04 1.014e-10
 64.59662     16.3 1.015e+04 9.830e-11
 64.62119     17.9 1.018e+04 1.771e-10
 64.66144     20.4 1.022e+04 2.877e-10
 64.70169     22.4 1.035e+04 3.267e-10
 64.74095     24.7 1.017e+04 2.892e-10
 64.76107     25.3 1.020e+04 3.084e-10
 64.78219     27.1 1.006e+04 2.404e-10
 64.82244     28.6 9.998e+03 1.854e-10
 64.86269     30.0 9.992e+03 1.576e-10
 64.90293     31.8 1.014e+04 2.008e-10
 64.92553     33.4 1.025e+04 2.090e-10
 64.94565     33.8 1.025e+04 2.143e-10
 64.98343     35.3 1.040e+04 2.220e-10
 65.02368     36.8 1.046e+04 2.291e-10
 65.06393     38.5 1.043e+04 2.185e-10
 65.08999     40.2 1.043e+04 1.840e-10
 65.11011     40.3 1.029e+04 1.327e-10
 65.14443     41.4 1.034e+04 1.028e-10
 65.18467     42.6 1.034e+04 9.924e-11
 65.22492     43.5 1.047e+04 1.060e-10
 65.25444     43.7 1.086e+04 1.430e-10
 65.27457     44.6 1.053e+04 1.288e-10
 65.30542     44.8 1.087e+04 1.650e-10
 65.34567     45.1 1.102e+04 2.468e-10
 65.38592     45.5 1.101e+04 3.294e-10
 65.41890     45.9 1.092e+04 3.491e-10
 65.43903     46.6 1.074e+04 2.786e-10
 65.46642     47.2 1.067e+04 2.731e-10
 65.49521     48.0 1.049e+04 2.370e-10
 65.51534     48.1 1.047e+04 2.408e-10
 65.54691     49.0 1.033e+04 1.887e-10
 65.58336     49.8 1.024e+04 1.396e-10
 65.60348     50.6 1.012e+04 1.244e-10
 65.62741     51.5 9.922e+03 1.164e-10
 65.66766     52.6 9.877e+03 1.203e-10
 65.70791     53.9 9.807e+03 1.368e-10
 65.74782     55.4 9.747e+03 1.584e-10
 65.76794     56.5 9.815e+03 1.677e-10
 65.78840     58.0 9.777e+03 1.722e-10
 65.82865     59.5 9.702e+03 1.648e-10
 65.86890     61.3 9.538e+03 1.376e-10
 65.90915     63.0 9.464e+03 1.002e-10
 65.93240     64.4 9.543e+03 6.696e-11
 65.95252     65.4 9.577e+03 6.845e-11
 65.98965     66.5 9.501e+03 4.931e-11
 66.02990     67.8 9.306e+03 4.716e-11
 66.07014     69.3 9.279e+03 4.813e-11
 66.09685     70.9 9.248e+03 5.382e-11
 66.11420     71.9 9.238e+03 5.394e-11
 66.12774     71.8 9.221e+03 5.340e-11
 66.15064     73.4 9.235e+03 6.557e-11
 66.19089     75.0 9.194e+03 8.471e-11
 66.23114     76.7 9.211e+03 1.232e-10
 66.26131     78.5 9.510e+03 2.061e-10
 66.28144     79.2 9.438e+03 1.906e-10
 66.31164     80.1 9.851e+03 3.301e-10
 66.35188     80.7 1.061e+04 6.662e-10
 66.39213     81.1 1.141e+04 1.210e-09
 66.42222     81.3 1.174e+04 1.505e-09
 66.43374     81.4 1.194e+04 1.609e-09
 66.43719     81.1 1.178e+04 1.379e-09
 66.44570     81.3 1.176e+04 1.375e-09
 66.46237     81.0 1.175e+04 1.320e-09
 66.48250     80.7 1.156e+04 1.141e-09
 66.50262     80.8 1.114e+04 8.348e-10
 66.51786     80.7 1.092e+04 7.189e-10
 66.52793     80.8 1.074e+04 6.403e-10
 66.55303     80.9 1.023e+04 4.135e-10
 66.59023     80.3 9.598e+03 2.539e-10
 66.61035     81.2 9.560e+03 2.690e-10
 66.63362     81.4 9.584e+03 2.787e-10
 66.67387     82.0 9.802e+03 3.576e-10
 66.70396     82.3 1.003e+04 4.807e-10
 66.72399     82.8 1.025e+04 6.417e-10
 66.73994     83.7 1.050e+04 8.048e-10
 66.75001     83.0 1.067e+04 8.699e-10
 66.76424     83.5 1.071e+04 8.672e-10
 66.77461     84.0 1.068e+04 8.386e-10
 66.79483     84.6 1.027e+04 6.369e-10
 66.83487     85.6 9.892e+03 4.711e-10
 66.87512     86.1 9.487e+03 3.558e-10
 66.91536     86.7 9.296e+03 3.343e-10
 66.93926     87.5 9.301e+03 3.407e-10
 66.95939     88.8 8.912e+03 2.485e-10
 66.99586     89.9 8.938e+03 2.538e-10
 67.03611     91.0 8.993e+03 2.614e-10
 67.07636     92.2 8.984e+03 2.601e-10
 67.10372     93.3 8.998e+03 2.633e-10
 67.12385     95.2 8.541e+03 1.604e-10
 67.15686     96.3 8.589e+03 1.673e-10
 67.19711     97.5 8.717e+03 1.915e-10
 67.23735     98.7 9.005e+03 2.474e-10
 67.26818     99.7 9.398e+03 3.304e-10
 67.28830    102.2 9.009e+03 2.307e-10
 67.31785    102.5 9.448e+03 3.218e-10
 67.34794    101.6 1.035e+04 5.821e-10
 67.36027    100.9 1.120e+04 9.949e-10
 67.36478    102.3 1.088e+04 7.992e-10
 67.37247    102.2 1.085e+04 7.193e-10
 67.38809    101.3 1.193e+04 1.392e-09
 67.40822    101.0 1.276e+04 2.308e-09
 67.42834    100.7 1.329e+04 2.825e-09
 67.44250    100.0 1.330e+04 2.740e-09
 67.45256    101.5 1.337e+04 2.841e-09
 67.46859    100.6 1.322e+04 2.540e-09
 67.48871     99.1 1.273e+04 1.774e-09
 67.50884     96.3 1.191e+04 1.077e-09
 67.52473     92.7 1.084e+04 7.569e-10
 67.53479     94.7 1.126e+04 8.552e-10
 67.54909     91.5 1.074e+04 8.047e-10
 67.56921     88.2 1.106e+04 9.047e-10
 67.58933     83.0 1.259e+04 1.579e-09
 67.60696     78.1 1.495e+04 3.830e-09
 67.61702     79.2 1.516e+04 3.869e-09
 67.62958     76.2 1.683e+04 8.206e-09
 67.64971     74.4 1.748e+04 1.058e-08
 67.66861     72.7 1.731e+04 1.003e-08
 67.67867     71.9 1.747e+04 9.850e-09
 67.68919     70.6 1.670e+04 6.865e-09
 67.69925     70.8 1.693e+04 7.173e-09
 67.71008     68.5 1.558e+04 4.162e-09
 67.73020     65.8 1.377e+04 2.366e-09
 67.75033     63.8 1.220e+04 1.528e-09
 67.77045     63.1 1.146e+04 1.172e-09
 67.78148     63.1 1.125e+04 1.008e-09
 67.79154     63.2 1.124e+04 9.852e-10
 67.81070     63.2 1.114e+04 8.981e-10
 67.83083     63.3 1.107e+04 8.778e-10
 67.85095     63.6 1.107e+04 8.854e-10
 67.86371     64.1 1.112e+04 9.121e-10
 67.87377     64.0 1.103e+04 8.712e-10
 67.89120     64.6 1.106e+04 8.890e-10
 67.91132     65.3 1.105e+04 8.869e-10
 67.93145     66.1 1.099e+04 8.602e-10
 67.94594     67.0 1.088e+04 7.916e-10
 67.95600     66.8 1.079e+04 7.727e-10
 67.97170     67.6 1.063e+04 6.914e-10
 67.98487     68.2 1.047e+04 6.033e-10
 67.99493     67.9 1.048e+04 5.989e-10
 68.01194     68.3 1.031e+04 5.126e-10
 68.02816     68.5 1.014e+04 4.510e-10
 68.03823     68.5 1.019e+04 4.726e-10
 68.05219     68.7 1.004e+04 4.474e-10
 68.07232     69.0 9.990e+03 4.488e-10
 68.09244     69.2 1.001e+04 4.605e-10
 68.11039     69.3 1.012e+04 4.883e-10
 68.12046     69.3 1.012e+04 5.039e-10
 68.13269     69.2 1.036e+04 5.567e-10
 68.15281     68.5 1.091e+04 6.855e-10
 68.17294     67.3 1.173e+04 9.800e-10
 68.19262     66.2 1.244e+04 1.485e-09
 68.20268     65.6 1.246e+04 1.508e-09
 68.21319     65.0 1.281e+04 2.119e-09
 68.23331     64.7 1.300e+04 2.634e-09
 68.25344     64.3 1.315e+04 2.940e-09
 68.27356     63.8 1.347e+04 3.098e-09
 68.28491     63.4 1.369e+04 2.975e-09
 68.29236     63.6 1.334e+04 2.527e-09
 68.30113     63.9 1.407e+04 4.043e-09
 68.31381     63.8 1.416e+04 3.883e-09
 68.33393     63.8 1.414e+04 3.325e-09
 68.35406     63.8 1.390e+04 2.480e-09
 68.36714     63.4 1.352e+04 1.776e-09
 68.37720     62.7 1.315e+04 1.527e-09
 68.39431     62.4 1.266e+04 1.067e-09
 68.41443     62.0 1.232e+04 9.254e-10
 68.43940     60.6 1.083e+04 5.402e-10
 68.45963     59.9 1.067e+04 5.551e-10
 68.48506     59.7 1.040e+04 5.052e-10
 68.52531     59.9 1.055e+04 5.530e-10
 68.56556     60.6 1.071e+04 6.127e-10
 68.59747     61.2 1.084e+04 6.439e-10
 68.61574     61.6 1.068e+04 5.352e-10
 68.62408     62.1 1.046e+04 4.585e-10
 68.64606     62.8 1.049e+04 4.594e-10
 68.68630     63.7 1.048e+04 4.403e-10
 68.72655     64.6 1.041e+04 4.010e-10
 68.76680     65.5 1.034e+04 3.877e-10
 68.78854     66.5 1.035e+04 3.989e-10
 68.80867     67.8 1.033e+04 3.844e-10
 68.84730     69.0 1.030e+04 4.054e-10
 68.88755     70.4 1.028e+04 4.345e-10
 68.92780     71.9 1.025e+04 4.490e-10
 68.95300     73.6 1.021e+04 4.488e-10
 68.97312     74.9 1.008e+04 3.841e-10
 69.00829     76.6 1.004e+04 3.822e-10
 69.04854     78.2 9.981e+03 3.641e-10
 69.08879     79.7 9.917e+03 3.348e-10
 69.11746     81.1 9.805e+03 3.027e-10
 69.13758     82.5 9.751e+03 2.980e-10
 69.16929     83.9 9.625e+03 2.784e-10
 69.20954     85.3 9.557e+03 2.558e-10
 69.22999     86.0 9.553e+03 2.433e-10
 69.25012     86.5 1.017e+04 3.819e-10
 69.28191     85.8 1.100e+04 5.163e-10
 69.30204     88.0 1.037e+04 4.106e-10
 69.33028     86.9 1.118e+04 5.782e-10
 69.37053     85.8 1.149e+04 8.021e-10
 69.41078     85.5 1.151e+04 9.201e-10
 69.44087     85.7 1.132e+04 8.208e-10
 69.45624     85.4 1.128e+04 7.877e-10
 69.46630     86.4 1.108e+04 6.965e-10
 69.48102     86.1 1.106e+04 6.722e-10
 69.50114     85.6 1.104e+04 6.442e-10
 69.52127     85.0 1.104e+04 6.344e-10
 69.53600     84.3 1.107e+04 6.455e-10
 69.54313     84.8 1.094e+04 5.883e-10
 69.54853     86.0 1.077e+04 5.148e-10
 69.56152     85.5 1.078e+04 5.212e-10
 69.58164     85.0 1.089e+04 5.486e-10
 69.60176     84.3 1.109e+04 6.027e-10
 69.62069     83.5 1.121e+04 6.759e-10
 69.63076     84.6 1.117e+04 6.099e-10
 69.64201     83.7 1.125e+04 7.384e-10
 69.66214     83.2 1.108e+04 8.884e-10
 69.68226     83.0 1.106e+04 9.272e-10
 69.70239     82.8 1.100e+04 8.738e-10
 69.71298     82.2 1.126e+04 7.661e-10
 69.72305     83.2 1.152e+04 1.008e-09
 69.74263     81.0 1.213e+04 1.053e-09
 69.76276     73.7 1.422e+04 1.533e-09
 69.78288     67.6 1.478e+04 2.788e-09
 69.79521     60.3 1.810e+04 6.799e-09
 69.80527     63.3 1.695e+04 5.123e-09
 69.82313     55.2 1.903e+04 8.593e-09
 69.84220     51.6 1.661e+04 7.626e-09
 69.85226     52.4 1.621e+04 6.618e-09
 69.86338     49.4 1.451e+04 3.452e-09
 69.87744     45.8 1.401e+04 1.441e-09
 69.88750     47.4 1.404e+04 2.275e-09
 69.90363     43.9 1.333e+04 1.029e-09
 69.92375     40.1 1.119e+04 5.579e-10
 69.94388     38.4 1.048e+04 4.470e-10
 69.95967     37.9 1.048e+04 4.576e-10
 69.96973     38.8 1.074e+04 5.560e-10
 69.98413     38.2 1.070e+04 5.740e-10
 70.00425     37.7 1.063e+04 6.205e-10
 70.02437     37.4 1.058e+04 6.803e-10
 70.04190     37.3 1.059e+04 7.326e-10
 70.05196     37.6 1.080e+04 8.268e-10
 70.06462     37.0 1.096e+04 8.704e-10
 70.08475     36.0 1.120e+04 9.022e-10
 70.10487     34.6 1.125e+04 9.571e-10
 70.12413     33.5 1.118e+04 1.021e-09
 70.13419     33.5 1.151e+04 1.284e-09
 70.14512     33.0 1.149e+04 1.296e-09
 70.15846     32.8 1.132e+04 1.176e-09
 70.16852     33.3 1.126e+04 1.219e-09
 70.18537     33.0 1.133e+04 9.871e-10
 70.20549     30.9 1.144e+04 8.065e-10
 70.21642     27.4 1.129e+04 7.309e-10
 70.22648     26.0 1.143e+04 8.385e-10
 70.24574     23.5 1.144e+04 9.807e-10
 70.26587     22.6 1.139e+04 1.200e-09
 70.28599     22.5 1.136e+04 1.321e-09
 70.29865     23.2 1.127e+04 1.320e-09
 70.30871     23.2 1.142e+04 1.344e-09
 70.32624     23.6 1.114e+04 9.699e-10
 70.34636     23.0 1.088e+04 6.241e-10
 70.36649     21.3 1.037e+04 3.933e-10
 70.38087     20.0 9.614e+03 2.750e-10
 70.39094     19.2 9.572e+03 2.752e-10
 70.41690     20.0 9.343e+03 2.223e-10
 70.45324     21.4 8.837e+03 1.448e-10
 70.47091     20.7 8.974e+03 1.787e-10
 70.47492     21.0 9.055e+03 1.754e-10
 70.49749     22.3 8.827e+03 1.302e-10
 70.53774     23.2 8.906e+03 1.090e-10
 70.57799     23.9 8.941e+03 1.056e-10
 70.61769     24.5 9.090e+03 1.324e-10
 70.63782     23.8 9.238e+03 1.907e-10
 70.65849     25.1 9.373e+03 2.658e-10
 70.69873     26.9 9.554e+03 3.331e-10
 70.73898     28.5 9.622e+03 3.571e-10
 70.77923     30.0 9.547e+03 3.137e-10
 70.80227     31.5 9.416e+03 2.320e-10
 70.82240     31.0 9.420e+03 2.305e-10
 70.85973     32.3 9.263e+03 1.636e-10
 70.89998     33.1 9.139e+03 1.225e-10
 70.94023     33.8 9.063e+03 1.122e-10
 70.96673     34.9 8.856e+03 1.307e-10
 70.98686     34.9 8.827e+03 1.434e-10
 71.02072     37.3 8.817e+03 1.738e-10
 71.06097     39.6 8.848e+03 1.751e-10
 71.08732     42.0 8.801e+03 1.525e-10
 71.10744     42.3 8.817e+03 1.389e-10
 71.13119     43.9 8.782e+03 1.018e-10
 71.15131     44.0 8.783e+03 1.082e-10
 71.18172     45.4 8.639e+03 9.597e-11
 71.22197     47.2 8.589e+03 9.755e-11
 71.26221     48.8 8.632e+03 1.086e-10
 71.29565     50.1 8.807e+03 1.351e-10
 71.31577     50.2 8.794e+03 1.370e-10
 71.34271     51.3 9.057e+03 1.993e-10
 71.38296     52.6 9.312e+03 3.043e-10
 71.42321     54.2 9.523e+03 4.074e-10
 71.46010     56.0 9.737e+03 4.459e-10
 71.48023     56.3 9.546e+03 4.304e-10
 71.50371     58.0 9.586e+03 4.081e-10
 71.54395     59.4 9.654e+03 3.813e-10
 71.58420     60.6 9.818e+03 4.065e-10
 71.62445     61.8 1.009e+04 4.864e-10
 71.66470     63.5 1.019e+04 5.316e-10
 71.69479     64.4 1.032e+04 6.287e-10
 71.70959     64.9 1.049e+04 7.030e-10
 71.71965     65.0 1.114e+04 1.044e-09
 71.72672     65.7 1.113e+04 1.027e-09
 71.73678     65.8 1.107e+04 1.004e-09
 71.75506     66.6 1.101e+04 9.665e-10
 71.77519     67.5 1.096e+04 9.205e-10
 71.79531     68.1 1.090e+04 8.662e-10
 71.80895     68.7 1.082e+04 8.094e-10
 71.81901     68.9 1.080e+04 8.085e-10
 71.83556     69.1 1.087e+04 8.152e-10
 71.86585     70.1 1.075e+04 7.671e-10
 71.90619     71.3 1.053e+04 6.949e-10
 71.94644     72.6 1.022e+04 5.888e-10
 71.97360     73.9 9.867e+03 4.660e-10
 71.99372     74.2 9.645e+03 3.946e-10
 72.02694     75.6 9.335e+03 3.127e-10
 72.06719     77.0 9.073e+03 2.516e-10
 72.10744     78.4 8.936e+03 2.146e-10
 72.13806     79.9 8.990e+03 2.152e-10
 72.15818     80.9 8.926e+03 2.130e-10
 72.18793     82.2 9.249e+03 2.361e-10
 72.22818     83.2 9.980e+03 3.009e-10
 72.25827     83.0 1.054e+04 4.557e-10
 72.27830     83.1 1.074e+04 6.402e-10
 72.29842     83.6 1.090e+04 8.360e-10
 72.31238     84.2 1.119e+04 1.055e-09
 72.32244     84.2 1.150e+04 1.214e-09
 72.33205     84.4 1.202e+04 1.580e-09
 72.34211     83.8 1.234e+04 1.928e-09
 72.35879     83.3 1.318e+04 2.471e-09
 72.37892     82.1 1.416e+04 3.348e-09
 72.39461     81.0 1.503e+04 4.715e-09
 72.40467     81.0 1.543e+04 5.592e-09
 72.41917     80.4 1.559e+04 5.811e-09
 72.43929     79.4 1.560e+04 5.507e-09
 72.45942     77.0 1.598e+04 4.645e-09
 72.47684     71.6 1.654e+04 4.336e-09
 72.48690     68.4 1.601e+04 3.648e-09
 72.49966     62.0 1.578e+04 3.866e-09
 72.51979     57.6 1.584e+04 4.765e-09
 72.53991     55.4 1.636e+04 5.773e-09
 72.55907     53.6 1.673e+04 6.010e-09
 72.56913     51.5 1.607e+04 4.747e-09
 72.58016     48.8 1.563e+04 4.751e-09
 72.60029     46.5 1.496e+04 4.535e-09
 72.62041     45.1 1.447e+04 4.155e-09
 72.63825     44.6 1.410e+04 3.541e-09
 72.64831     46.2 1.353e+04 3.033e-09
 72.65136     45.9 1.312e+04 2.381e-09
 72.66142     45.3 1.284e+04 2.088e-09
 72.68078     44.3 1.189e+04 1.397e-09
 72.70091     42.9 1.107e+04 9.154e-10
 72.72103     42.1 1.049e+04 7.571e-10
 72.73358     41.1 1.047e+04 6.721e-10
 72.74365     40.5 1.024e+04 6.033e-10
 72.76128     40.0 1.017e+04 6.049e-10
 72.78140     40.0 1.021e+04 7.129e-10
 72.80153     40.3 1.029e+04 7.434e-10
 72.81581     41.2 1.049e+04 8.300e-10
 72.82588     40.9 1.039e+04 7.801e-10
 72.84178     41.1 1.050e+04 8.037e-10
 72.87206     41.4 1.093e+04 6.932e-10
 72.91241     40.9 1.117e+04 7.594e-10
 72.94465     40.9 1.083e+04 8.186e-10
 72.96477     44.1 1.211e+04 1.132e-09
 72.98047     43.8 1.214e+04 1.267e-09
 73.00059     42.6 1.149e+04 1.026e-09
 73.03315     43.3 1.123e+04 1.041e-09
 73.07340     44.9 1.078e+04 8.766e-10
 73.11365     46.2 1.024e+04 6.292e-10
 73.14492     46.7 9.748e+03 4.558e-10
 73.16505     45.7 9.826e+03 5.158e-10
 73.19415     47.0 9.883e+03 5.711e-10
 73.23440     49.1 1.006e+04 6.611e-10
 73.27465     51.4 1.022e+04 7.115e-10
 73.30938     53.6 1.023e+04 6.977e-10
 73.32950     52.9 1.033e+04 7.356e-10
 73.35514     54.8 1.033e+04 7.250e-10
 73.39539     56.6 1.039e+04 7.556e-10
 73.42548     57.4 1.051e+04 8.469e-10
 73.44551     58.0 1.066e+04 9.489e-10
 73.46563     58.8 1.074e+04 1.033e-09
 73.48370     59.7 1.083e+04 1.092e-09
 73.49377     59.4 1.079e+04 1.044e-09
 73.50588     60.2 1.082e+04 1.041e-09
 73.52600     60.9 1.083e+04 1.005e-09
 73.54613     61.0 1.075e+04 9.037e-10
 73.56593     60.5 1.075e+04 8.208e-10
 73.57599     59.9 1.075e+04 8.215e-10
 73.57698     58.8 1.074e+04 8.131e-10
 73.58704     58.9 1.083e+04 8.448e-10
 73.60650     57.9 1.083e+04 8.767e-10
 73.62663     57.4 1.091e+04 9.291e-10
 73.64675     51.8 1.374e+04 1.586e-09
 73.65822     43.9 1.676e+04 4.195e-09
 73.66829     44.1 1.705e+04 3.798e-09
 73.68700     40.4 1.598e+04 5.794e-09
 73.69929     39.7 1.531e+04 6.420e-09
 73.70427     39.5 1.538e+04 6.422e-09
 73.71206     39.5 1.516e+04 6.362e-09
 73.72212     39.3 1.530e+04 5.839e-09
 73.72998     39.1 1.535e+04 5.671e-09
 73.73501     39.1 1.560e+04 5.986e-09
 73.74040     38.6 1.559e+04 4.466e-09
 73.75051     37.9 1.573e+04 4.949e-09
 73.76750     35.7 1.594e+04 3.184e-09
 73.78762     30.8 1.355e+04 1.334e-09
 73.80774     25.5 1.074e+04 6.990e-10
 73.82268     24.2 1.022e+04 5.761e-10
 73.83274     23.1 1.048e+04 6.579e-10
 73.84799     22.6 1.022e+04 6.025e-10
 73.86812     22.3 1.011e+04 5.693e-10
 73.88318     22.1 1.008e+04 5.598e-10
 73.89324     22.5 1.037e+04 6.154e-10
 73.90491     21.1 1.104e+04 7.041e-10
 73.91497     17.7 1.323e+04 1.284e-09
 73.92341     12.7 1.569e+04 1.956e-09
 73.93342     11.0 1.635e+04 2.155e-09
 73.94349      6.0 1.821e+04 4.329e-09
 73.95096      1.6 1.932e+04 7.110e-09
 73.95599     -0.3 1.990e+04 1.047e-08
 73.96361     -3.5 2.106e+04 2.106e-08
 73.97367     -7.7 2.228e+04 3.992e-08
 73.98373    -11.9 2.410e+04 7.305e-08
 73.99207    -17.2 2.608e+04 9.970e-08
 73.99710    -19.5 2.567e+04 1.201e-07
 74.00386    -26.6 2.774e+04 9.209e-08
 74.01392    -35.8 2.649e+04 4.431e-08
 74.02398    -44.7 2.142e+04 2.352e-08
 74.03319    -48.0 1.906e+04 1.796e-08
 74.03822    -48.3 1.861e+04 1.553e-08
 74.04121    -48.7 1.855e+04 1.354e-08
 74.04624    -49.5 1.912e+04 1.123e-08
 74.05417    -50.6 1.870e+04 8.766e-09
 74.06423    -51.7 1.772e+04 6.955e-09
 74.07429    -52.1 1.699e+04 6.225e-09
 74.08944    -53.1 1.583e+04 4.550e-09
 74.10961    -53.8 1.432e+04 3.236e-09
 74.12973    -54.0 1.295e+04 2.373e-09
 74.14986    -52.9 1.222e+04 1.852e-09
 74.16166    -51.6 1.165e+04 1.444e-09
 74.17172    -51.3 1.170e+04 1.491e-09
 74.18938    -50.0 1.106e+04 1.140e-09
 74.19944    -50.7 1.090e+04 1.089e-09
 74.21023    -49.2 1.034e+04 8.365e-10
 74.23035    -47.6 9.819e+03 6.360e-10
 74.24389    -46.1 9.369e+03 4.881e-10
 74.25395    -45.5 9.582e+03 5.439e-10
 74.27060    -44.1 9.195e+03 4.268e-10
 74.29073    -43.0 8.959e+03 3.634e-10
 74.31615    -41.8 8.805e+03 3.250e-10
 74.33637    -40.7 8.911e+03 3.478e-10
 74.36136    -38.3 8.692e+03 3.099e-10
 74.40161    -35.2 8.389e+03 2.736e-10
 74.44185    -32.2 8.307e+03 2.634e-10
 74.48070    -29.5 8.304e+03 2.635e-10
 74.50083    -28.6 8.313e+03 2.532e-10
 74.52235    -26.0 8.265e+03 2.310e-10
 74.56260    -23.4 8.134e+03 2.024e-10
 74.60285    -20.9 7.984e+03 1.772e-10
 74.64310    -18.4 7.855e+03 1.557e-10
 74.66529    -15.7 7.808e+03 1.454e-10
 74.68541    -14.6 7.926e+03 1.606e-10
 74.72359    -11.9 7.916e+03 1.558e-10
 74.76384     -9.3 8.003e+03 1.568e-10
 74.80198     -7.1 8.250e+03 1.780e-10
 74.82210     -6.9 8.243e+03 1.828e-10
 74.82974     -5.1 8.701e+03 2.447e-10
 74.84987     -3.1 8.727e+03 2.422e-10
 74.88459     -1.4 9.250e+03 3.268e-10
 74.91187     -1.0 9.618e+03 4.139e-10
 74.92184     -0.1 9.571e+03 3.791e-10
 74.93470      0.2 9.780e+03 4.550e-10
 74.95483      1.4 1.011e+04 5.628e-10
 74.97495      2.2 1.030e+04 6.387e-10
 74.99400      3.0 1.048e+04 6.938e-10
 75.00407      4.0 1.053e+04 7.017e-10
 75.01520      4.4 1.068e+04 7.291e-10
 75.03533      4.7 1.073e+04 7.363e-10
 75.05545      4.9 1.070e+04 7.069e-10
 75.07557      5.2 1.058e+04 6.572e-10
 75.08630      5.8 1.044e+04 5.890e-10
 75.09636      6.8 1.128e+04 7.826e-10
 75.11582      7.4 1.109e+04 6.939e-10
 75.12811      8.1 1.087e+04 5.977e-10
 75.13817      7.7 1.081e+04 7.144e-10
 75.15607      8.2 1.070e+04 6.048e-10
 75.16852      8.3 1.075e+04 5.209e-10
 75.17859      7.8 1.210e+04 8.701e-10
 75.19632      7.5 1.233e+04 8.474e-10
 75.21645      7.3 1.270e+04 8.693e-10
 75.23657      6.9 1.320e+04 1.026e-09
 75.25075      6.6 1.357e+04 1.363e-09
 75.25573      6.7 1.408e+04 1.642e-09
 75.26163      6.6 1.404e+04 1.692e-09
 75.27169      6.7 1.431e+04 2.177e-09
 75.28111      6.6 1.431e+04 2.226e-09
 75.28614      6.0 1.458e+04 2.389e-09
 75.29177      6.6 1.505e+04 2.980e-09
 75.30183      5.8 1.553e+04 3.512e-09
 75.31194      6.5 1.619e+04 4.079e-09
 75.32200      6.4 1.624e+04 4.126e-09
 75.33206      6.5 1.683e+04 4.539e-09
 75.33791      6.1 1.700e+04 4.618e-09
 75.34295      4.8 1.755e+04 5.286e-09
 75.35219      3.6 1.789e+04 5.377e-09
 75.36225      2.7 1.815e+04 5.431e-09
 75.37231     -0.2 1.834e+04 5.582e-09
 75.37903     -2.8 1.884e+04 6.374e-09
 75.38406     -4.0 1.843e+04 5.790e-09
 75.39244     -6.9 1.820e+04 6.328e-09
 75.40250     -8.5 1.839e+04 7.721e-09
 75.41256     -9.6 1.851e+04 9.215e-09
 75.42014    -10.1 1.879e+04 1.011e-08
 75.42517    -10.4 1.848e+04 6.038e-09
 75.43268    -11.2 1.878e+04 6.510e-09
 75.43924    -11.9 1.887e+04 6.462e-09
 75.44432    -12.0 1.822e+04 4.526e-09
 75.45794    -13.9 1.790e+04 3.800e-09
 75.47806    -16.8 1.615e+04 2.396e-09
 75.49744    -20.4 1.287e+04 1.308e-09
 75.50750    -22.4 1.141e+04 7.920e-10
 75.51831    -22.9 1.102e+04 7.919e-10
 75.53843    -22.8 1.088e+04 7.494e-10
 75.55856    -22.1 1.069e+04 6.322e-10
 75.57868    -21.3 1.043e+04 5.142e-10
 75.58973    -20.6 1.015e+04 4.203e-10
 75.59979    -20.8 1.068e+04 5.135e-10
 75.61893    -20.0 1.056e+04 4.440e-10
 75.63906    -19.3 1.055e+04 4.108e-10
 75.65918    -18.7 1.055e+04 4.025e-10
 75.67196    -18.2 1.066e+04 4.117e-10
 75.68202    -19.5 1.321e+04 9.343e-10
 75.69943    -19.1 1.327e+04 1.109e-09
 75.71955    -18.5 1.317e+04 1.378e-09
 75.73968    -17.5 1.286e+04 1.626e-09
 75.75057    -16.5 1.260e+04 1.846e-09
 75.75502    -15.9 1.155e+04 1.301e-09
 75.76425    -16.1 1.398e+04 2.827e-09
 75.77993    -14.8 1.417e+04 3.235e-09
 75.80005    -13.3 1.421e+04 3.391e-09
 75.82017    -11.9 1.413e+04 3.206e-09
 75.83641    -10.6 1.400e+04 2.712e-09
 75.84648    -11.3 1.642e+04 4.856e-09
 75.86042    -11.0 1.626e+04 3.884e-09
 75.88055    -11.3 1.610e+04 3.192e-09
 75.90067    -11.9 1.597e+04 2.845e-09
 75.91864    -12.5 1.607e+04 2.868e-09
 75.92870    -14.1 1.738e+04 7.589e-09
 75.94092    -14.1 1.770e+04 9.039e-09
 75.96104    -14.0 1.789e+04 1.060e-08
 75.98117    -13.5 1.796e+04 1.169e-08
 76.00087    -13.0 1.779e+04 1.227e-08
 76.01093    -12.7 1.806e+04 1.380e-08
 76.02142    -11.9 1.748e+04 1.172e-08
 76.04154    -10.9 1.692e+04 9.504e-09
 76.05677    -10.2 1.638e+04 7.343e-09
 76.06683     -9.7 1.589e+04 5.861e-09
 76.08179     -9.0 1.522e+04 4.456e-09
 76.09316     -8.2 1.463e+04 3.433e-09
 76.10322     -8.8 1.450e+04 2.792e-09
 76.12204     -8.4 1.389e+04 2.131e-09
 76.14216     -8.0 1.325e+04 1.713e-09
 76.16543     -6.6 1.276e+04 1.464e-09
 76.18565     -7.4 1.220e+04 1.017e-09
 76.21279     -5.1 1.163e+04 9.135e-10
 76.25304     -2.9 1.141e+04 8.705e-10
 76.29329     -1.0 1.147e+04 9.005e-10
 76.32998      0.3 1.192e+04 1.143e-09
 76.35011     -1.4 1.159e+04 8.471e-10
 76.37379      0.0 1.201e+04 1.248e-09
 76.41404      2.0 1.232e+04 1.588e-09
 76.45429      3.9 1.233e+04 1.655e-09
 76.49444      5.9 1.201e+04 1.373e-09
 76.53469      5.0 1.126e+04 7.048e-10
 76.57503      5.4 1.123e+04 6.731e-10
 76.61528      5.0 1.199e+04 8.877e-10
 76.65553      5.2 1.269e+04 1.480e-09
 76.67892      6.1 1.229e+04 1.685e-09
 76.68270      6.5 1.186e+04 1.585e-09
 76.69955      7.2 1.114e+04 7.742e-10
 76.73603      8.8 1.130e+04 1.108e-09
 76.77627     10.4 1.127e+04 1.206e-09
 76.81652     11.5 1.114e+04 1.032e-09
 76.84348     11.3 1.110e+04 8.255e-10
 76.86360     11.5 1.059e+04 6.138e-10
 76.89702     11.1 1.073e+04 6.695e-10
 76.93727     11.2 1.092e+04 8.879e-10
 76.97752     11.8 1.110e+04 1.011e-09
 77.00761     12.5 1.096e+04 1.022e-09
 77.01780     12.8 1.089e+04 9.969e-10
 77.02786     12.8 1.081e+04 9.436e-10
 77.05792     12.7 1.040e+04 7.530e-10
 77.09826     13.0 9.823e+03 4.960e-10
 77.13851     12.6 9.299e+03 3.530e-10
 77.17239     12.9 9.022e+03 3.055e-10
 77.19252     12.5 9.124e+03 3.134e-10
 77.21901     13.0 9.088e+03 2.928e-10
 77.25926     14.0 9.125e+03 3.371e-10
 77.29183     15.8 9.231e+03 3.950e-10
 77.31195     16.7 9.436e+03 4.338e-10
 77.33685     18.3 9.345e+03 4.127e-10
 77.35697     17.9 9.361e+03 4.156e-10
 77.36984     19.4 9.545e+03 4.433e-10
 77.38987     19.5 9.627e+03 4.508e-10
 77.40999     20.1 1.011e+04 5.926e-10
 77.42894     20.3 1.018e+04 6.067e-10
 77.43901     20.5 1.018e+04 6.062e-10
 77.46040     21.1 1.109e+04 9.537e-10
 77.49059     21.7 1.171e+04 1.245e-09
 77.51062     20.3 1.340e+04 2.101e-09
 77.52123     18.9 1.484e+04 3.505e-09
 77.53130     20.2 1.438e+04 2.774e-09
 77.55086     19.5 1.514e+04 4.407e-09
 77.57099     20.3 1.537e+04 6.222e-09
 77.59111     21.3 1.580e+04 7.609e-09
 77.60346     21.4 1.662e+04 8.383e-09
 77.61018     21.8 1.655e+04 8.016e-09
 77.61796     22.9 1.700e+04 9.688e-09
 77.63136     22.4 1.790e+04 1.027e-08
 77.65149     21.1 1.862e+04 1.101e-08
 77.67161     19.7 1.833e+04 1.106e-08
 77.68569     19.3 1.745e+04 1.036e-08
 77.69575     19.6 1.841e+04 1.421e-08
 77.71186     20.3 1.776e+04 1.480e-08
 77.73198     21.8 1.741e+04 1.310e-08
 77.75211     23.3 1.755e+04 1.079e-08
 77.76792     23.5 1.779e+04 8.845e-09
 77.77798     24.6 1.829e+04 1.150e-08
 77.79236     24.3 1.828e+04 8.910e-09
 77.80740     23.8 1.844e+04 7.362e-09
 77.81397     23.4 1.814e+04 6.806e-09
 77.81900     24.0 1.857e+04 7.718e-09
 77.82748     23.8 1.834e+04 7.071e-09
 77.83754     23.8 1.792e+04 6.683e-09
 77.84760     24.1 1.736e+04 6.311e-09
 77.85508     24.3 1.698e+04 6.042e-09
 77.86011     24.7 1.711e+04 6.472e-09
 77.87280     25.7 1.628e+04 6.082e-09
 77.89298     26.4 1.650e+04 6.175e-09
 77.91310     24.5 1.918e+04 7.822e-09
 77.92411     21.5 2.247e+04 1.387e-08
 77.92909     20.0 2.466e+04 1.986e-08
 77.93731     18.6 2.487e+04 2.782e-08
 77.94234     19.1 2.508e+04 2.874e-08
 77.94822     18.8 2.383e+04 4.234e-08
 77.95828     19.1 2.289e+04 5.336e-08
 77.96835     20.0 2.220e+04 6.592e-08
 77.97841     21.0 2.202e+04 7.961e-08
 77.98847     22.8 2.246e+04 1.095e-07
 77.99853     23.3 2.254e+04 9.682e-08
 78.00859     23.5 2.262e+04 7.251e-08
 78.01866     23.0 2.268e+04 5.193e-08
 78.02457     19.7 2.464e+04 3.877e-08
 78.02960     21.2 2.392e+04 4.331e-08
 78.03878     13.5 2.784e+04 3.844e-08
 78.04884      0.7 3.304e+04 4.146e-08
 78.05891     -9.9 3.141e+04 6.276e-08
 78.06568    -16.7 2.858e+04 8.204e-08
 78.07072    -13.5 2.952e+04 9.777e-08
 78.07716    -18.5 2.739e+04 1.104e-07
 78.08219    -20.4 2.642e+04 6.067e-08
 78.08909    -22.9 2.489e+04 4.804e-08
 78.09915    -25.3 2.410e+04 3.167e-08
 78.10680    -28.3 2.400e+04 1.853e-08
 78.11183    -28.2 2.595e+04 2.072e-08
 78.11928    -32.4 2.634e+04 1.093e-08
 78.12934    -37.6 2.560e+04 5.074e-09
 78.13940    -43.5 2.149e+04 2.291e-09
 78.14791    -48.5 1.540e+04 1.352e-09
 78.15294    -47.0 2.001e+04 1.657e-09
 78.15953    -49.8 1.511e+04 1.283e-09
 78.17467    -50.1 1.464e+04 1.175e-09
 78.18912    -50.8 1.233e+04 8.402e-10
 78.19919    -50.7 1.459e+04 1.332e-09
 78.21497    -50.5 1.312e+04 9.560e-10
 78.23036    -50.2 1.164e+04 8.250e-10
 78.24042    -51.6 9.856e+03 7.194e-10
 78.25521    -51.0 9.849e+03 7.311e-10
 78.27135    -50.6 1.004e+04 8.149e-10
 78.28142    -50.6 1.004e+04 8.183e-10
 78.29546    -50.1 1.024e+04 8.971e-10
 78.31559    -49.8 1.056e+04 9.903e-10
 78.33571    -49.7 1.101e+04 1.113e-09
 78.35358    -49.7 1.145e+04 1.261e-09
 78.36364    -49.9 1.133e+04 1.257e-09
 78.37596    -50.0 1.180e+04 1.450e-09
 78.39609    -50.0 1.214e+04 1.645e-09
 78.41621    -49.9 1.224e+04 1.783e-09
 78.43581    -49.6 1.222e+04 1.817e-09
 78.44587    -49.3 1.252e+04 2.073e-09
 78.45646    -48.8 1.243e+04 2.076e-09
 78.47658    -48.2 1.214e+04 1.966e-09
 78.49671    -47.5 1.182e+04 1.776e-09
 78.51683    -46.9 1.153e+04 1.584e-09
 78.52810    -46.3 1.130e+04 1.423e-09
 78.53777    -45.9 1.159e+04 1.547e-09
 78.54662    -46.6 1.122e+04 1.314e-09
 78.55708    -46.2 1.112e+04 1.269e-09
 78.57720    -45.8 1.107e+04 1.239e-09
 78.59733    -45.1 1.097e+04 1.194e-09
 78.61033    -44.3 1.081e+04 1.104e-09
 78.62039    -44.1 1.104e+04 1.273e-09
 78.63758    -43.1 1.085e+04 1.111e-09
 78.65770    -42.3 1.066e+04 9.225e-10
 78.67783    -41.8 1.050e+04 7.510e-10
 78.69256    -41.7 1.038e+04 6.166e-10
 78.70262    -41.4 1.057e+04 7.319e-10
 78.71807    -41.4 1.050e+04 6.375e-10
 78.73820    -41.4 1.044e+04 5.822e-10
 78.75832    -41.3 1.034e+04 5.364e-10
 78.77479    -41.1 1.018e+04 4.819e-10
 78.78485    -40.7 1.054e+04 6.539e-10
 78.79857    -40.3 1.035e+04 5.783e-10
 78.81870    -40.0 1.008e+04 4.823e-10
 78.83882    -39.7 9.812e+03 3.964e-10
 78.85711    -39.7 9.542e+03 3.008e-10
 78.86717    -39.2 9.752e+03 3.943e-10
 78.87907    -39.0 9.639e+03 3.335e-10
 78.89919    -38.9 9.609e+03 3.033e-10
 78.91932    -38.8 9.600e+03 2.950e-10
 78.93924    -38.8 9.616e+03 2.866e-10
 78.94931    -38.5 9.658e+03 3.098e-10
 78.95957    -38.6 9.660e+03 3.089e-10
 78.97969    -39.0 9.803e+03 3.232e-10
 78.99981    -41.3 1.044e+04 4.746e-10
 79.01994    -44.0 1.162e+04 8.780e-10
 79.03153    -46.5 1.294e+04 1.720e-09
 79.04160    -46.9 1.325e+04 1.910e-09
 79.06019    -48.7 1.423e+04 3.457e-09
 79.08031    -50.1 1.472e+04 4.808e-09
 79.10044    -51.6 1.479e+04 5.153e-09
 79.11376    -52.8 1.440e+04 4.874e-09
 79.12383    -52.6 1.459e+04 5.359e-09
 79.14068    -53.5 1.368e+04 3.490e-09
 79.15902    -55.4 1.272e+04 1.990e-09
 79.16909    -56.5 1.261e+04 1.580e-09
 79.18093    -59.2 1.178e+04 9.612e-10
 79.19599    -61.4 1.114e+04 6.702e-10
 79.20605    -62.3 1.125e+04 7.430e-10
 79.22118    -63.5 1.099e+04 6.402e-10
 79.24131    -64.3 1.086e+04 5.767e-10
 79.26143    -64.9 1.075e+04 5.219e-10
 79.27822    -65.4 1.069e+04 4.772e-10
 79.28828    -66.5 1.123e+04 6.962e-10
 79.30168    -67.0 1.117e+04 6.649e-10
 79.32180    -67.4 1.106e+04 6.348e-10
 79.34193    -67.6 1.086e+04 5.902e-10
 79.36045    -67.2 1.060e+04 5.316e-10
 79.37051    -68.3 1.076e+04 7.281e-10
 79.38218    -67.5 1.042e+04 5.811e-10
 79.40230    -66.8 1.025e+04 4.508e-10
 79.43258    -67.1 1.025e+04 3.438e-10
 79.47293    -67.1 1.016e+04 2.690e-10
 79.51318    -66.3 1.003e+04 2.299e-10
 79.53516    -65.3 1.002e+04 2.250e-10
 79.55529    -66.6 1.019e+04 2.614e-10
 79.58352    -65.0 1.016e+04 2.652e-10
 79.60354    -64.6 1.024e+04 2.889e-10
 79.61720    -63.6 1.037e+04 3.319e-10
 79.62726    -64.4 1.043e+04 3.886e-10
 79.64379    -63.6 1.044e+04 4.199e-10
 79.66392    -62.6 1.050e+04 4.496e-10
 79.68404    -61.6 1.064e+04 4.728e-10
 79.69942    -60.8 1.098e+04 5.250e-10
 79.70949    -63.7 1.309e+04 9.038e-10
 79.72429    -64.9 1.510e+04 1.602e-09
 79.74441    -66.0 1.696e+04 3.264e-09
 79.76454    -66.4 1.826e+04 6.662e-09
 79.78149    -66.1 1.926e+04 1.230e-08
 79.78854    -67.0 1.878e+04 1.280e-08
 79.79172    -67.2 1.867e+04 1.793e-08
 79.80479    -66.3 1.888e+04 1.976e-08
 79.82491    -65.1 1.901e+04 2.165e-08
 79.84504    -63.8 1.892e+04 2.034e-08
 79.86388    -62.4 1.933e+04 1.629e-08
 79.87394    -64.2 1.889e+04 4.304e-09
 79.88528    -65.8 1.982e+04 1.548e-09
 79.90541    -69.7 1.713e+04 5.963e-10
 79.92553    -73.1 1.248e+04 4.984e-10
 79.94566    -74.7 1.123e+04 4.139e-10
 79.95617    -74.8 1.094e+04 3.778e-10
 79.96623    -74.2 1.009e+04 3.473e-10
 79.98591    -73.0 1.011e+04 3.350e-10
 80.00603    -71.8 1.012e+04 3.325e-10
 80.02615    -70.7 1.023e+04 3.348e-10
 80.03840    -69.6 1.036e+04 3.474e-10
 80.04846    -68.9 1.031e+04 3.454e-10
 80.06640    -68.1 1.045e+04 3.674e-10
 80.08653    -67.5 1.063e+04 4.134e-10
 80.09775    -67.2 1.085e+04 5.118e-10
 80.10781    -67.5 1.074e+04 5.084e-10
 80.12063    -67.1 1.097e+04 6.593e-10
 80.13069    -66.7 1.090e+04 6.257e-10
 80.14690    -66.4 1.102e+04 7.820e-10
 80.16702    -66.7 1.168e+04 1.119e-09
 80.18715    -68.7 1.339e+04 2.002e-09
 80.20286    -71.6 1.571e+04 4.325e-09
 80.21292    -71.0 1.479e+04 3.336e-09
 80.22740    -73.4 1.707e+04 7.736e-09
 80.24752    -74.5 1.907e+04 1.644e-08
 80.26257    -74.4 1.955e+04 2.089e-08
 80.27258    -75.0 2.039e+04 2.642e-08
 80.28264    -76.2 2.092e+04 3.123e-08
 80.29002    -77.6 2.098e+04 3.191e-08
 80.29505    -76.9 2.026e+04 2.479e-08
 80.30277    -77.9 2.000e+04 2.330e-08
 80.31283    -78.3 1.966e+04 1.917e-08
 80.32797    -79.4 1.906e+04 1.367e-08
 80.34814    -81.4 1.719e+04 6.576e-09
 80.36732    -83.5 1.506e+04 3.356e-09
 80.37738    -83.0 1.504e+04 3.301e-09
 80.38839    -85.1 1.286e+04 1.807e-09
 80.40395    -85.9 1.148e+04 1.161e-09
 80.41401    -84.7 1.223e+04 1.485e-09
 80.42864    -84.9 1.121e+04 1.033e-09
 80.44876    -84.8 1.055e+04 7.592e-10
 80.45961    -84.5 1.012e+04 5.833e-10
 80.46967    -84.0 1.023e+04 6.202e-10
 80.48901    -83.7 9.928e+03 4.999e-10
 80.50914    -83.4 9.745e+03 4.295e-10
 80.52926    -83.1 9.646e+03 3.948e-10
 80.54183    -82.7 9.590e+03 3.840e-10
 80.55190    -82.4 9.644e+03 3.956e-10
 80.56951    -82.0 9.590e+03 3.858e-10
 80.58963    -81.5 9.556e+03 3.813e-10
 80.60976    -80.9 9.521e+03 3.793e-10
 80.64004    -80.1 9.583e+03 3.790e-10
 80.68039    -79.8 9.440e+03 3.255e-10
 80.70649    -79.6 9.284e+03 2.767e-10
 80.72661    -79.0 9.249e+03 2.383e-10
 80.76089    -78.7 9.162e+03 2.282e-10
 80.80113    -78.0 9.085e+03 2.347e-10
 80.84138    -76.7 9.033e+03 2.491e-10
 80.87094    -75.3 9.008e+03 2.530e-10
 80.89107    -74.4 8.996e+03 2.493e-10
 80.92188    -72.9 8.747e+03 2.447e-10
 80.96213    -71.2 8.542e+03 2.098e-10
 81.00238    -69.5 8.321e+03 1.710e-10
 81.02661    -67.5 8.121e+03 1.393e-10
 81.03951    -67.2 8.517e+03 2.250e-10
 81.05553    -66.5 8.584e+03 2.559e-10
 81.08288    -64.5 8.320e+03 2.121e-10
 81.12312    -62.4 8.032e+03 1.736e-10
 81.16337    -60.3 7.804e+03 1.427e-10
 81.19986    -58.1 7.646e+03 1.220e-10
 81.21998    -57.5 7.626e+03 1.224e-10
 81.24387    -55.4 7.518e+03 1.109e-10
 81.28412    -53.4 7.497e+03 1.083e-10
 81.32437    -51.7 7.524e+03 1.093e-10
 81.36432    -50.4 7.834e+03 1.380e-10
 81.38444    -50.0 7.862e+03 1.440e-10
 81.40486    -48.7 8.273e+03 2.236e-10
 81.44511    -47.3 8.683e+03 3.324e-10
 81.48536    -46.0 9.067e+03 4.423e-10
 81.52561    -44.7 9.361e+03 5.276e-10
 81.54890    -43.6 9.594e+03 5.706e-10
 81.56902    -42.9 9.498e+03 5.688e-10
 81.60611    -41.9 9.634e+03 5.682e-10
 81.63901    -41.1 9.817e+03 5.742e-10
 81.65913    -40.5 9.767e+03 6.319e-10
 81.68660    -39.9 1.019e+04 7.258e-10
 81.71335    -39.5 1.087e+04 9.738e-10
 81.73348    -39.4 1.074e+04 9.405e-10
 81.76710    -39.1 1.142e+04 1.294e-09
 81.80735    -38.9 1.191e+04 1.584e-09
 81.84760    -38.9 1.204e+04 1.650e-09
 81.87781    -39.1 1.189e+04 1.394e-09
 81.89794    -38.9 1.119e+04 9.875e-10
 81.92810    -40.1 1.112e+04 8.307e-10
 81.95518    -43.1 1.106e+04 8.153e-10
 81.96514    -42.0 1.092e+04 7.872e-10
 81.96991    -44.2 1.157e+04 8.391e-10
 81.97997    -44.7 1.167e+04 8.113e-10
 81.99834    -47.5 1.333e+04 8.937e-10
 82.01846    -53.6 1.580e+04 2.070e-09
 82.03858    -57.8 1.655e+04 4.809e-09
 82.05214    -59.9 1.679e+04 8.102e-09
 82.06220    -59.6 1.723e+04 1.067e-08
 82.07375    -60.6 1.722e+04 1.074e-08
 82.08377    -61.1 1.725e+04 1.080e-08
 82.09315    -61.9 1.693e+04 9.815e-09
 82.09818    -61.6 1.721e+04 1.096e-08
 82.10389    -62.4 1.649e+04 7.430e-09
 82.11903    -64.4 1.510e+04 4.427e-09
 82.13436    -66.4 1.359e+04 2.433e-09
 82.14443    -67.1 1.356e+04 2.352e-09
 82.15933    -69.1 1.149e+04 9.843e-10
 82.17945    -70.5 1.025e+04 4.741e-10
 82.19958    -71.1 9.860e+03 3.260e-10
 82.21659    -71.2 9.667e+03 2.828e-10
 82.22665    -70.9 9.687e+03 3.086e-10
 82.24999    -70.0 9.587e+03 2.906e-10
 82.27154    -68.7 9.341e+03 2.358e-10
 82.29166    -69.3 9.282e+03 1.538e-10
 82.33058    -67.8 9.081e+03 1.280e-10
 82.37083    -66.5 8.984e+03 1.194e-10
 82.39131    -65.4 8.942e+03 1.177e-10
 82.41143    -65.3 9.010e+03 1.235e-10
 82.45133    -64.3 8.967e+03 1.228e-10
 82.49158    -63.2 8.931e+03 1.226e-10
 82.53182    -62.1 8.909e+03 1.204e-10
 82.55576    -60.8 8.913e+03 1.177e-10
 82.57589    -60.9 8.933e+03 1.302e-10
 82.61232    -59.8 8.947e+03 1.299e-10
 82.65257    -59.1 9.141e+03 1.359e-10
 82.69282    -58.9 9.658e+03 1.984e-10
 82.72022    -58.3 1.017e+04 3.493e-10
 82.74035    -57.9 1.010e+04 3.258e-10
 82.77332    -57.0 1.046e+04 4.559e-10
 82.81357    -56.0 1.074e+04 5.719e-10
 82.85381    -55.1 1.086e+04 6.327e-10
 82.88394    -54.4 1.088e+04 6.487e-10
 82.89468    -54.7 1.101e+04 6.849e-10
 82.90480    -54.3 1.067e+04 4.746e-10
 82.93431    -53.8 1.088e+04 5.416e-10
 82.97456    -53.2 1.103e+04 6.263e-10
 83.01481    -52.3 1.115e+04 7.169e-10
 83.04914    -51.5 1.120e+04 8.017e-10
 83.06926    -50.9 1.141e+04 9.140e-10
 83.09531    -49.8 1.162e+04 1.082e-09
 83.13555    -48.7 1.177e+04 1.157e-09
 83.16564    -48.3 1.189e+04 1.233e-09
 83.18567    -48.2 1.186e+04 1.242e-09
 83.20000    -47.6 1.172e+04 1.227e-09
 83.21007    -48.3 1.146e+04 1.100e-09
 83.22346    -47.8 1.130e+04 1.037e-09
 83.23352    -47.4 1.138e+04 1.149e-09
 83.24604    -46.9 1.123e+04 9.866e-10
 83.26617    -46.4 1.108e+04 8.088e-10
 83.28629    -46.0 1.090e+04 6.525e-10
 83.30569    -45.8 1.076e+04 5.314e-10
 83.31575    -45.6 1.085e+04 5.653e-10
 83.32654    -45.4 1.073e+04 4.884e-10
 83.34666    -45.3 1.064e+04 4.564e-10
 83.36679    -45.1 1.060e+04 4.479e-10
 83.38691    -44.7 1.060e+04 4.547e-10
 83.39798    -44.3 1.071e+04 4.965e-10
 83.40804    -44.1 1.085e+04 5.653e-10
 83.42716    -43.6 1.094e+04 6.097e-10
 83.44729    -43.0 1.102e+04 6.323e-10
 83.46741    -42.4 1.105e+04 6.386e-10
 83.48021    -42.0 1.108e+04 6.218e-10
 83.49027    -41.9 1.116e+04 6.236e-10
 83.50620    -41.9 1.121e+04 6.102e-10
 83.51627    -43.1 1.162e+04 6.916e-10
 83.52778    -44.3 1.222e+04 7.837e-10
 83.54791    -45.6 1.265e+04 1.014e-09
 83.56244    -46.2 1.276e+04 1.391e-09
 83.57250    -47.1 1.309e+04 1.979e-09
 83.58816    -46.6 1.306e+04 2.479e-09
 83.60828    -45.6 1.303e+04 2.675e-09
 83.62840    -44.5 1.288e+04 2.447e-09
 83.64466    -43.7 1.262e+04 1.945e-09
 83.65473    -44.1 1.272e+04 1.818e-09
 83.66865    -44.1 1.253e+04 1.271e-09
 83.68878    -44.6 1.224e+04 8.922e-10
 83.70890    -45.1 1.188e+04 6.917e-10
 83.72689    -45.3 1.154e+04 5.916e-10
 83.73695    -46.1 1.151e+04 5.431e-10
 83.74915    -45.2 1.136e+04 5.144e-10
 83.76927    -44.3 1.124e+04 4.895e-10
 83.78940    -43.3 1.120e+04 4.663e-10
 83.81968    -42.4 1.125e+04 4.511e-10
 83.86003    -40.8 1.122e+04 4.148e-10
 83.89155    -38.9 1.109e+04 3.749e-10
 83.91167    -39.6 1.107e+04 3.689e-10
 83.94053    -37.7 1.098e+04 3.435e-10
 83.98077    -35.7 1.096e+04 3.373e-10
 84.02102    -33.8 1.094e+04 3.420e-10
 84.05600    -31.9 1.097e+04 3.623e-10
 84.07613    -32.8 1.087e+04 3.588e-10
 84.10152    -30.9 1.087e+04 3.780e-10
 84.12886    -29.2 1.086e+04 3.960e-10
 84.14899    -29.4 1.078e+04 3.606e-10
 84.18202    -27.7 1.078e+04 3.598e-10
 84.22046    -26.1 1.082e+04 3.641e-10
 84.24058    -26.9 1.056e+04 3.004e-10
 84.26252    -25.5 1.057e+04 3.018e-10
 84.30276    -24.4 1.057e+04 3.017e-10
 84.34301    -23.4 1.053e+04 3.061e-10
 84.38326    -22.6 1.048e+04 3.092e-10
 84.40504    -21.9 1.053e+04 3.088e-10
 84.42517    -21.6 1.007e+04 2.690e-10
 84.46376    -20.8 1.007e+04 2.385e-10
 84.50401    -20.0 1.013e+04 2.253e-10
 84.54426    -19.0 1.021e+04 2.366e-10
 84.56950    -18.1 1.040e+04 2.729e-10
 84.58962    -16.7 1.013e+04 2.091e-10
 84.62475    -16.1 1.055e+04 2.919e-10
 84.66500    -15.7 1.099e+04 4.688e-10
 84.70525    -15.4 1.146e+04 7.655e-10
 84.73395    -15.0 1.185e+04 1.039e-09
 84.74985    -13.6 1.218e+04 1.265e-09
 84.76139    -14.5 1.221e+04 1.495e-09
 84.77559    -14.6 1.216e+04 1.362e-09
 84.79561    -14.5 1.202e+04 1.214e-09
 84.81574    -14.9 1.189e+04 9.423e-10
 84.82605    -15.7 1.170e+04 7.399e-10
 84.83611    -15.0 1.196e+04 8.348e-10
 84.85599    -16.2 1.162e+04 6.904e-10
 84.87611    -17.1 1.147e+04 6.537e-10
 84.89624    -17.6 1.147e+04 6.568e-10
 84.90828    -18.3 1.159e+04 7.429e-10
 84.91834    -18.3 1.173e+04 7.774e-10
 84.93648    -18.7 1.184e+04 9.437e-10
 84.95661    -18.9 1.196e+04 1.128e-09
 84.97673    -18.9 1.206e+04 1.283e-09
 84.99051    -18.9 1.209e+04 1.356e-09
 85.00057    -18.8 1.228e+04 1.449e-09
 85.01698    -18.8 1.228e+04 1.457e-09
 85.03711    -18.9 1.214e+04 1.393e-09
 85.05723    -18.9 1.197e+04 1.298e-09
 85.06739    -18.9 1.177e+04 1.197e-09
 85.07284    -19.0 1.153e+04 1.056e-09
 85.08280    -19.0 1.164e+04 1.068e-09
 85.10764    -18.8 1.151e+04 1.006e-09
 85.14798    -17.8 1.125e+04 8.689e-10
 85.18823    -16.7 1.093e+04 6.898e-10
 85.22733    -15.8 1.061e+04 5.464e-10
 85.24745    -15.9 1.077e+04 5.458e-10
 85.26873    -15.1 1.068e+04 5.061e-10
 85.29882    -14.4 1.064e+04 4.986e-10
 85.31885    -14.1 1.068e+04 5.173e-10
 85.32948    -13.6 1.072e+04 5.479e-10
 85.33955    -13.7 1.084e+04 5.738e-10
 85.35909    -13.4 1.082e+04 5.901e-10
 85.37369    -12.7 1.078e+04 5.891e-10
 85.39391    -12.4 1.076e+04 5.825e-10
 85.41181    -11.8 1.078e+04 5.978e-10
 85.42177    -12.1 1.103e+04 6.792e-10
 85.43959    -11.6 1.086e+04 6.456e-10
 85.45972    -10.9 1.068e+04 5.796e-10
 85.47984    -10.2 1.054e+04 4.957e-10
 85.49394     -9.7 1.040e+04 4.352e-10
 85.50400    -10.1 1.064e+04 6.020e-10
 85.52009     -9.4 1.050e+04 5.190e-10
 85.54021     -8.9 1.039e+04 4.521e-10
 85.56034     -8.4 1.030e+04 4.124e-10
 85.57627     -7.5 1.023e+04 3.801e-10
 85.58633     -7.9 1.042e+04 4.743e-10
 85.60059     -7.5 1.040e+04 4.482e-10
 85.62071     -6.7 1.040e+04 4.292e-10
 85.64083     -6.4 1.039e+04 4.251e-10
 85.65840     -5.6 1.043e+04 4.272e-10
 85.66846     -6.3 1.055e+04 4.753e-10
 85.67980     -5.8 1.056e+04 4.773e-10
 85.68986     -5.8 1.053e+04 4.829e-10
 85.71137     -4.9 1.050e+04 4.618e-10
 85.74082     -3.9 1.054e+04 4.646e-10
 85.76095     -5.3 1.102e+04 6.117e-10
 85.79196     -4.9 1.107e+04 6.100e-10
 85.83221     -4.5 1.108e+04 6.140e-10
 85.87246     -4.2 1.106e+04 5.661e-10
 85.90255     -4.7 1.125e+04 5.578e-10
 85.91515     -4.8 1.131e+04 5.548e-10
 85.92521     -6.6 1.181e+04 7.473e-10
 85.94270     -7.1 1.182e+04 7.477e-10
 85.96282     -7.3 1.184e+04 7.577e-10
 85.98295     -7.8 1.195e+04 8.337e-10
 85.99606     -8.0 1.200e+04 9.170e-10
 86.00622     -8.0 1.217e+04 1.022e-09
 86.03345     -7.8 1.221e+04 1.076e-09
 86.06974     -7.3 1.195e+04 9.761e-10
 86.08986     -9.5 1.187e+04 9.422e-10
 86.11395     -8.6 1.123e+04 6.239e-10
 86.15420     -7.5 1.061e+04 3.499e-10
 86.19445     -6.5 1.020e+04 2.045e-10
 86.23419     -5.5 9.996e+03 1.446e-10
 86.25432     -6.1 9.791e+03 1.242e-10
 86.27495     -4.4 9.617e+03 1.039e-10
 86.31519     -2.4 9.544e+03 8.862e-11
 86.35544     -0.6 9.455e+03 8.075e-11
 86.39569      1.1 9.381e+03 7.902e-11
 86.41877      2.9 9.338e+03 8.657e-11
 86.43890      2.8 9.348e+03 8.814e-11
 86.47619      4.8 9.223e+03 1.127e-10
 86.51644      7.1 9.226e+03 1.365e-10
 86.55669      9.3 9.363e+03 1.472e-10
 86.58323     10.8 9.552e+03 1.562e-10
 86.60336     11.1 9.567e+03 1.714e-10
 86.61872     12.3 9.593e+03 1.894e-10
 86.63884     13.0 9.675e+03 2.027e-10
 86.67743     14.6 9.674e+03 2.535e-10
 86.71768     16.2 9.802e+03 2.802e-10
 86.74769     17.3 1.001e+04 3.015e-10
 86.76781     18.0 9.680e+03 2.187e-10
 86.79818     18.8 9.792e+03 2.473e-10
 86.83843     19.9 9.892e+03 3.295e-10
 86.87867     21.3 1.002e+04 4.214e-10
 86.91215     22.8 1.013e+04 4.760e-10
 86.93227     23.7 9.885e+03 3.937e-10
 86.95917     25.2 1.000e+04 4.276e-10
 86.99942     26.6 9.960e+03 4.135e-10
 87.03967     28.2 9.771e+03 3.531e-10
 87.07660     29.8 9.511e+03 2.744e-10
 87.09673     30.7 9.545e+03 2.736e-10
 87.12017     32.2 9.338e+03 2.117e-10
 87.16041     33.6 9.149e+03 1.689e-10
 87.20066     34.9 8.999e+03 1.434e-10
 87.23112     36.4 8.873e+03 1.261e-10
 87.25124     37.2 8.893e+03 1.490e-10
 87.28116     39.6 8.964e+03 1.504e-10
 87.32141     41.1 8.938e+03 1.217e-10
 87.36166     42.3 8.925e+03 1.083e-10
 87.40191     43.2 8.985e+03 1.144e-10
 87.42564     43.5 9.163e+03 1.528e-10
 87.44577     44.2 9.333e+03 1.736e-10
 87.48240     44.7 9.629e+03 2.823e-10
 87.52265     45.7 9.939e+03 4.149e-10
 87.56290     46.4 9.989e+03 4.299e-10
 87.59010     47.1 9.860e+03 3.814e-10
 87.61022     47.2 1.021e+04 5.358e-10
 87.64340     47.9 9.875e+03 4.242e-10
 87.68365     48.6 9.497e+03 3.055e-10
 87.72390     49.5 9.201e+03 2.124e-10
 87.75456     50.2 9.029e+03 1.545e-10
 87.77468     50.4 9.091e+03 1.634e-10
 87.80439     51.1 8.910e+03 1.311e-10
 87.84352     52.1 8.876e+03 1.306e-10
 87.86364     52.3 9.087e+03 1.818e-10
 87.88489     52.9 9.222e+03 2.063e-10
 87.91901     53.3 9.577e+03 3.018e-10
 87.93914     53.9 9.336e+03 2.424e-10
 87.96539     54.5 9.698e+03 3.595e-10
 88.00564     55.2 1.019e+04 5.398e-10
 88.04588     55.6 1.058e+04 6.400e-10
 88.08347     55.9 1.061e+04 6.045e-10
 88.10359     56.8 1.035e+04 4.887e-10
 88.12638     57.0 1.034e+04 4.439e-10
 88.16663     57.0 1.028e+04 4.191e-10
 88.20688     56.6 1.047e+04 4.604e-10
 88.24713     54.5 1.146e+04 7.828e-10
 88.26795     52.7 1.234e+04 1.300e-09
 88.27792     54.3 1.221e+04 1.160e-09
 88.29724     52.6 1.289e+04 1.964e-09
 88.31737     52.8 1.331e+04 2.849e-09
 88.33749     53.5 1.320e+04 3.071e-09
 88.35008     54.0 1.297e+04 2.642e-09
 88.36015     54.1 1.346e+04 3.160e-09
 88.37774     54.0 1.303e+04 2.428e-09
 88.39786     53.3 1.234e+04 1.538e-09
 88.41799     51.4 1.133e+04 9.220e-10
 88.43231     50.1 1.011e+04 5.487e-10
 88.44238     51.4 1.072e+04 7.506e-10
 88.45824     50.0 9.857e+03 5.132e-10
 88.47595     51.3 9.627e+03 4.156e-10
 88.49617     50.8 9.415e+03 3.755e-10
 88.52887     51.0 8.766e+03 2.066e-10
 88.56912     50.9 8.369e+03 1.207e-10
 88.59697     51.0 8.221e+03 1.086e-10
 88.61709     51.8 8.303e+03 1.420e-10
 88.64961     52.4 8.335e+03 1.503e-10
 88.68986     52.9 8.542e+03 1.908e-10
 88.73011     52.9 8.949e+03 2.606e-10
 88.76020     51.9 9.493e+03 3.597e-10
 88.77129     49.4 1.053e+04 6.244e-10
 88.78135     49.7 1.066e+04 7.140e-10
 88.79211     47.6 1.154e+04 1.326e-09
 88.80217     47.3 1.159e+04 1.568e-09
 88.82047     47.6 1.196e+04 2.147e-09
 88.84060     47.7 1.199e+04 2.164e-09
 88.85352     47.7 1.194e+04 1.979e-09
 88.86358     47.8 1.196e+04 1.973e-09
 88.88085     46.9 1.171e+04 1.523e-09
 88.90097     45.0 1.106e+04 1.062e-09
 88.92110     43.4 9.979e+03 6.861e-10
 88.93575     42.3 9.451e+03 5.757e-10
 88.94581     42.4 9.450e+03 5.779e-10
 88.97150     43.3 8.886e+03 3.988e-10
 89.01185     43.0 8.375e+03 2.501e-10
 89.05210     42.7 8.334e+03 2.322e-10
 89.08845     42.5 8.462e+03 2.705e-10
 89.10656     43.0 8.382e+03 2.490e-10
 89.11046     43.2 8.164e+03 1.961e-10
 89.13260     43.5 8.334e+03 2.544e-10
 89.17285     44.5 8.397e+03 2.953e-10
 89.21309     45.5 8.356e+03 2.899e-10
 89.25334     46.2 8.318e+03 2.627e-10
 89.27492     46.2 8.285e+03 2.258e-10
 89.29504     46.1 8.397e+03 2.611e-10
 89.33384     45.6 8.509e+03 2.424e-10
 89.37409     44.4 8.586e+03 2.338e-10
 89.41434     42.6 8.714e+03 2.441e-10
 89.43938     41.4 8.746e+03 2.627e-10
 89.45950     41.9 8.482e+03 2.159e-10
 89.49483     41.2 8.370e+03 2.129e-10
 89.53508     41.2 8.294e+03 2.138e-10
 89.57533     41.7 8.275e+03 2.076e-10
 89.60383     42.5 8.223e+03 1.958e-10
 89.62396     43.4 8.313e+03 2.156e-10
 89.65583     44.4 8.433e+03 2.323e-10
 89.69608     45.6 8.585e+03 2.568e-10
 89.72097     46.9 8.776e+03 2.902e-10
 89.74110     46.6 8.944e+03 3.167e-10
 89.76829     48.0 9.151e+03 3.564e-10
 89.78832     48.3 9.329e+03 4.124e-10
 89.80657     49.0 9.357e+03 4.309e-10
 89.82669     49.4 9.445e+03 4.578e-10
 89.84681     49.8 9.542e+03 4.947e-10
 89.86039     50.3 9.614e+03 5.225e-10
 89.87045     50.4 9.884e+03 6.597e-10
 89.88706     49.7 1.078e+04 8.147e-10
 89.90719     47.6 1.252e+04 1.210e-09
 89.92731     46.1 1.342e+04 1.801e-09
 89.94261     45.5 1.363e+04 2.451e-09
 89.95268     44.5 1.419e+04 3.425e-09
 89.96756     44.3 1.411e+04 3.824e-09
 89.98768     43.8 1.414e+04 3.909e-09
 90.00781     43.4 1.410e+04 3.936e-09
 90.02484     43.1 1.406e+04 3.676e-09
 90.03395     42.6 1.412e+04 3.466e-09
 90.03704     41.8 1.386e+04 2.192e-09
 90.04806     40.9 1.329e+04 1.635e-09
 90.06818     40.3 1.264e+04 1.247e-09
 90.08831     39.9 1.201e+04 9.670e-10
 90.10707     39.5 1.143e+04 7.802e-10
 90.11713     38.1 1.080e+04 6.997e-10
 90.12855     38.2 1.062e+04 6.392e-10
 90.14868     38.4 1.050e+04 5.900e-10
 90.16880     38.9 1.039e+04 5.440e-10
 90.18893     39.6 1.028e+04 5.015e-10
 90.19936     40.4 1.015e+04 4.249e-10
 90.20942     40.1 1.014e+04 4.108e-10
 90.22918     40.2 1.020e+04 4.014e-10
 90.25946     41.9 1.000e+04 3.502e-10
 90.28179     43.3 9.766e+03 2.659e-10
 90.30191     42.5 9.697e+03 2.317e-10
 90.33337     43.7 9.561e+03 1.817e-10
 90.35350     43.7 9.432e+03 1.289e-10
 90.38030     44.9 9.304e+03 1.041e-10
 90.42055     46.5 9.258e+03 1.022e-10
 90.44624     47.9 9.287e+03 1.080e-10
 90.46637     46.8 9.218e+03 1.017e-10
 90.50105     48.0 9.393e+03 1.394e-10
 90.54130     49.3 9.635e+03 2.131e-10
 90.58155     50.6 1.007e+04 3.504e-10
 90.61060     51.3 1.045e+04 5.161e-10
 90.62057     50.7 1.053e+04 5.354e-10
 90.63166     51.3 1.075e+04 6.327e-10
 90.64944     52.0 1.101e+04 6.747e-10
 90.65950     52.0 1.098e+04 6.170e-10
 90.67191     52.2 1.105e+04 6.492e-10
 90.69203     53.0 1.099e+04 6.053e-10
 90.70279     53.2 1.105e+04 6.036e-10
 90.71286     52.7 1.121e+04 6.414e-10
 90.73228     52.7 1.133e+04 6.686e-10
 90.75241     52.7 1.141e+04 6.953e-10
 90.77253     52.8 1.146e+04 7.327e-10
 90.78502     52.9 1.153e+04 7.650e-10
 90.79509     52.3 1.173e+04 8.311e-10
 90.81278     52.6 1.168e+04 8.049e-10
 90.83291     52.7 1.164e+04 7.764e-10
 90.85303     53.0 1.148e+04 7.057e-10
 90.86725     52.9 1.146e+04 6.839e-10
 90.87731     52.3 1.151e+04 6.333e-10
 90.90344     52.4 1.102e+04 5.204e-10
 90.93961     52.3 1.102e+04 5.209e-10
 90.95974     50.6 1.119e+04 5.391e-10
 90.96580     50.5 1.130e+04 5.613e-10
 90.97576     49.3 1.219e+04 6.418e-10
 90.99390     48.0 1.267e+04 8.685e-10
 91.01402     47.3 1.292e+04 1.222e-09
 91.03171     46.9 1.309e+04 1.652e-09
 91.04177     45.7 1.336e+04 2.207e-09
 91.05427     45.6 1.361e+04 2.687e-09
 91.07440     45.9 1.353e+04 2.888e-09
 91.09452     46.4 1.346e+04 2.657e-09
 91.11394     46.1 1.327e+04 2.133e-09
 91.12400     45.8 1.349e+04 2.128e-09
 91.14493     43.7 1.245e+04 1.054e-09
 91.18528     42.3 1.110e+04 4.605e-10
 91.22552     40.6 1.033e+04 2.560e-10
 91.26577     40.0 1.014e+04 2.353e-10
 91.28865     39.7 1.014e+04 2.612e-10
 91.30878     37.7 1.037e+04 3.627e-10
 91.34627     37.6 1.057e+04 4.547e-10
 91.38652     37.1 1.069e+04 5.086e-10
 91.42677     36.4 1.068e+04 5.464e-10
 91.45311     35.6 1.048e+04 5.079e-10
 91.47323     34.3 1.008e+04 3.402e-10
 91.50726     33.1 1.000e+04 2.947e-10
 91.54751     31.0 1.004e+04 3.195e-10
 91.57830     29.8 1.001e+04 4.242e-10
 91.59842     30.5 1.002e+04 3.622e-10
 91.61757     30.1 1.005e+04 4.651e-10
 91.63769     29.4 9.991e+03 4.500e-10
 91.66826     29.1 1.001e+04 4.467e-10
 91.70851     28.5 9.973e+03 4.199e-10
 91.74876     27.7 9.804e+03 3.866e-10
 91.78202     27.1 9.640e+03 3.065e-10
 91.80215     27.0 9.398e+03 2.011e-10
 91.82925     24.4 9.928e+03 2.146e-10
 91.86950     18.4 1.076e+04 4.759e-10
 91.90975     18.0 1.106e+04 1.262e-09
 91.94648     17.0 1.142e+04 1.227e-09
 91.96660     17.4 1.138e+04 1.280e-09
 91.99025     14.9 1.129e+04 9.943e-10
 92.03050     12.8 1.022e+04 7.406e-10
 92.07075     12.8 9.622e+03 5.317e-10
 92.11094     13.3 9.090e+03 3.005e-10
 92.15119     14.0 8.768e+03 1.983e-10
 92.19070     14.0 8.492e+03 1.414e-10
 92.21082     14.0 8.717e+03 1.940e-10
 92.23174     14.3 8.498e+03 1.651e-10
 92.27199     15.3 8.314e+03 1.638e-10
 92.29552     16.7 8.196e+03 1.581e-10
 92.31564     17.3 8.428e+03 1.944e-10
 92.35249     18.7 8.315e+03 1.687e-10
 92.39273     19.7 8.242e+03 1.390e-10
 92.43298     20.6 8.151e+03 1.154e-10
 92.45998     21.7 7.964e+03 1.026e-10
 92.48010     22.0 8.109e+03 1.145e-10
 92.51348     23.2 7.935e+03 9.852e-11
 92.55373     24.4 7.978e+03 9.002e-11
 92.59398     25.2 8.074e+03 9.716e-11
 92.62443     26.2 8.093e+03 1.191e-10
 92.64456     26.2 8.139e+03 1.311e-10
 92.67447     27.9 8.228e+03 1.579e-10
 92.71472     29.9 8.194e+03 1.529e-10
 92.75497     31.8 8.121e+03 1.326e-10
 92.78889     33.1 8.112e+03 1.081e-10
 92.80901     33.4 8.111e+03 9.283e-11
 92.82323     34.5 8.082e+03 8.557e-11
 92.84335     34.3 8.216e+03 1.031e-10
 92.87572     35.5 8.181e+03 1.065e-10
 92.91597     37.0 8.187e+03 1.132e-10
 92.95335     38.6 8.230e+03 1.193e-10
 92.97347     39.1 8.302e+03 1.343e-10
 92.99646     40.7 8.322e+03 1.329e-10
 93.03671     42.3 8.314e+03 1.242e-10
 93.07696     43.7 8.294e+03 1.117e-10
 93.11721     44.8 8.294e+03 1.013e-10
 93.13793     45.9 8.296e+03 1.003e-10
 93.15805     46.2 8.303e+03 1.012e-10
 93.19771     47.2 8.312e+03 1.044e-10
 93.23795     48.4 8.348e+03 1.118e-10
 93.27820     49.6 8.397e+03 1.175e-10
 93.30239     50.9 8.415e+03 1.183e-10
 93.32251     51.0 8.445e+03 1.156e-10
 93.35870     52.2 8.452e+03 1.171e-10
 93.39895     53.4 8.462e+03 1.208e-10
 93.43563     54.7 8.472e+03 1.269e-10
 93.45575     54.9 8.459e+03 1.203e-10
 93.46684     56.3 8.455e+03 1.183e-10
 93.48697     56.4 8.531e+03 1.298e-10
 93.51969     57.7 8.565e+03 1.345e-10
 93.55994     58.8 8.665e+03 1.475e-10
 93.60019     59.8 8.832e+03 1.740e-10
 93.63130     60.7 9.028e+03 2.137e-10
 93.65142     61.0 9.103e+03 2.206e-10
 93.68069     61.7 9.225e+03 2.450e-10
 93.72094     62.4 9.334e+03 2.619e-10
 93.76119     63.1 9.371e+03 2.610e-10
 93.79576     63.8 9.351e+03 2.480e-10
 93.81588     64.0 9.339e+03 2.253e-10
 93.84168     64.8 9.304e+03 2.118e-10
 93.88193     65.8 9.241e+03 1.886e-10
 93.92218     66.7 9.181e+03 1.616e-10
 93.96021     67.4 9.118e+03 1.413e-10
 93.98034     67.4 9.307e+03 1.823e-10
 94.00268     68.1 9.301e+03 1.863e-10
 94.04293     68.7 9.340e+03 1.996e-10
 94.06815     69.4 9.441e+03 2.138e-10
 94.08828     69.6 9.542e+03 2.295e-10
 94.12342     70.1 9.820e+03 2.925e-10
 94.14480     70.5 1.012e+04 3.390e-10
 94.16492     70.0 1.057e+04 5.170e-10
 94.19376     69.9 1.055e+04 4.670e-10
 94.21379     69.8 1.061e+04 4.337e-10
 94.22683     69.6 1.070e+04 4.316e-10
 94.23689     69.1 1.094e+04 5.923e-10
 94.25404     68.4 1.121e+04 6.551e-10
 94.27416     67.2 1.168e+04 8.159e-10
 94.29429     65.1 1.225e+04 1.231e-09
 94.30906     63.6 1.263e+04 1.933e-09
 94.31912     64.0 1.282e+04 2.454e-09
 94.33453     64.3 1.312e+04 3.212e-09
 94.35466     64.9 1.326e+04 3.350e-09
 94.37416     65.4 1.321e+04 3.142e-09
 94.38422     65.7 1.327e+04 2.916e-09
 94.40507     65.5 1.261e+04 1.661e-09
 94.44541     64.3 1.170e+04 5.944e-10
 94.47371     61.2 1.044e+04 2.477e-10
 94.49383     60.7 1.001e+04 2.199e-10
 94.52591     60.7 9.814e+03 2.126e-10
 94.56616     61.5 9.726e+03 2.092e-10
 94.60641     62.6 9.645e+03 2.033e-10
 94.63817     63.8 9.532e+03 1.838e-10
 94.65829     64.4 9.509e+03 1.635e-10
 94.68055     65.5 9.390e+03 1.352e-10
 94.70068     65.4 9.346e+03 1.051e-10
 94.72715     66.4 9.250e+03 9.603e-11
 94.76740     67.5 9.240e+03 9.734e-11
 94.80262     68.7 9.254e+03 1.053e-10
 94.82275     69.4 9.209e+03 9.843e-11
 94.84790     70.8 9.297e+03 1.084e-10
 94.88815     72.0 9.424e+03 1.100e-10
 94.92840     72.9 9.464e+03 1.069e-10
 94.96708     73.8 9.549e+03 1.009e-10
 94.98721     74.6 9.495e+03 9.252e-11
 95.00889     75.4 9.553e+03 9.318e-11
 95.04914     75.5 9.697e+03 1.006e-10
 95.08939     75.3 9.984e+03 1.372e-10
 95.12964     74.8 1.035e+04 2.663e-10
 95.15166     74.3 1.086e+04 5.108e-10
 95.17179     75.6 1.055e+04 3.373e-10
 95.21014     74.9 1.097e+04 5.182e-10
 95.25039     74.3 1.118e+04 5.968e-10
 95.28047     73.9 1.122e+04 5.395e-10
 95.30050     73.4 1.123e+04 5.110e-10
 95.31288     72.7 1.124e+04 4.624e-10
 95.31834     71.7 1.126e+04 3.738e-10
 95.33624     73.4 1.109e+04 3.466e-10
 95.37113     72.3 1.116e+04 3.112e-10
 95.41138     71.1 1.128e+04 3.221e-10
 95.44147     71.1 1.137e+04 3.428e-10
 95.46150     70.5 1.146e+04 3.805e-10
 95.48038     69.6 1.163e+04 4.414e-10
 95.49044     71.0 1.160e+04 3.761e-10
 95.50174     70.1 1.168e+04 4.271e-10
 95.52187     69.0 1.174e+04 4.924e-10
 95.54199     68.7 1.162e+04 5.300e-10
 95.57228     68.6 1.169e+04 5.996e-10
 95.61262     67.6 1.164e+04 6.931e-10
 95.64503     66.8 1.151e+04 6.788e-10
 95.66516     68.6 1.154e+04 7.037e-10
 95.69312     68.1 1.121e+04 5.932e-10
 95.73337     67.7 1.090e+04 4.667e-10
 95.77362     67.7 1.066e+04 4.168e-10
 95.80949     68.2 1.047e+04 3.847e-10
 95.82962     69.3 1.038e+04 3.475e-10
 95.85411     70.2 1.025e+04 3.295e-10
 95.89436     71.4 1.009e+04 2.891e-10
 95.92548     72.9 9.915e+03 2.331e-10
 95.94560     73.1 9.921e+03 2.314e-10
 95.97395     74.5 9.801e+03 1.628e-10
 95.99407     75.4 9.769e+03 1.751e-10
 96.01511     76.5 9.687e+03 1.236e-10
 96.05536     77.3 9.552e+03 9.413e-11
 96.09561     78.0 9.542e+03 9.155e-11
 96.13585     78.6 9.661e+03 9.512e-11
 96.15853     78.7 9.931e+03 1.178e-10
 96.17865     80.3 9.908e+03 1.185e-10
 96.21635     80.5 1.015e+04 1.851e-10
 96.25660     80.7 1.047e+04 3.314e-10
 96.29685     81.3 1.088e+04 5.872e-10
 96.32299     81.9 1.135e+04 8.930e-10
 96.34311     83.2 1.140e+04 8.984e-10
 96.37735     83.5 1.172e+04 1.103e-09
 96.41759     83.4 1.191e+04 1.214e-09
 96.45784     83.0 1.189e+04 1.140e-09
 96.48744     82.3 1.183e+04 1.033e-09
 96.50757     83.9 1.173e+04 1.015e-09
 96.53788     83.2 1.172e+04 9.516e-10
 96.55801     81.8 1.120e+04 6.585e-10
 96.57859     81.6 1.127e+04 6.969e-10
 96.60868     81.9 1.140e+04 8.018e-10
 96.62870     81.8 1.152e+04 9.098e-10
 96.64883     81.8 1.166e+04 1.017e-09
 96.66177     81.7 1.184e+04 1.072e-09
 96.67183     82.7 1.175e+04 1.068e-09
 96.68908     82.7 1.185e+04 1.064e-09
 96.70920     82.7 1.185e+04 1.022e-09
 96.72933     82.6 1.182e+04 9.095e-10
 96.74400     82.4 1.176e+04 7.683e-10
 96.75406     83.4 1.179e+04 8.206e-10
 96.76957     83.0 1.172e+04 6.795e-10
 96.78970     82.5 1.157e+04 5.578e-10
 96.80982     81.9 1.136e+04 4.508e-10
 96.82623     81.4 1.116e+04 3.958e-10
 96.83629     82.3 1.117e+04 4.158e-10
 96.86023     83.1 1.097e+04 3.754e-10
 96.90058     83.6 1.059e+04 2.966e-10
 96.94083     84.5 1.034e+04 2.417e-10
 96.98082     85.5 1.019e+04 1.981e-10
 97.00094     86.4 1.018e+04 1.962e-10
 97.02132     87.3 1.009e+04 1.654e-10
 97.06157     88.4 1.008e+04 1.590e-10
 97.10182     89.6 1.007e+04 1.618e-10
 97.14207     90.9 1.011e+04 1.756e-10
 97.16540     92.4 1.017e+04 1.919e-10
 97.17361     93.2 1.017e+04 1.915e-10
 97.19053     92.9 9.997e+03 1.326e-10
 97.22257     94.2 9.975e+03 1.307e-10
 97.26282     95.6 9.877e+03 1.209e-10
 97.30306     97.0 9.807e+03 1.001e-10
 97.32985     98.3 9.762e+03 7.732e-11
 97.34998     99.1 9.724e+03 7.940e-11
 97.38356    100.2 9.674e+03 6.302e-11
 97.42381    101.4 9.595e+03 5.833e-11
 97.46406    102.9 9.591e+03 5.867e-11
 97.49431    104.5 9.606e+03 6.153e-11
 97.51444    105.3 9.573e+03 6.479e-11
 97.54456    107.0 9.635e+03 7.263e-11
 97.58480    108.7 9.732e+03 8.607e-11
 97.62505    110.5 9.841e+03 1.057e-10
 97.65877    112.2 9.959e+03 1.297e-10
 97.67889    112.7 9.976e+03 1.429e-10
 97.70555    114.3 1.015e+04 1.779e-10
 97.74580    115.8 1.041e+04 2.214e-10
 97.78281    117.1 1.072e+04 2.756e-10
 97.80293    116.8 1.067e+04 2.723e-10
 97.82323    117.8 1.100e+04 3.394e-10
 97.84335    117.9 1.111e+04 3.927e-10
 97.86654    118.4 1.122e+04 4.411e-10
 97.90679    118.7 1.126e+04 4.615e-10
 97.93688    119.4 1.141e+04 5.241e-10
 97.95691    119.6 1.149e+04 5.563e-10
 97.97703    119.6 1.155e+04 5.800e-10
 97.99716    119.7 1.159e+04 5.950e-10
 98.00761    119.7 1.160e+04 5.921e-10
 98.01767    119.6 1.153e+04 5.407e-10
 98.03741    119.5 1.155e+04 5.431e-10
 98.05753    119.3 1.160e+04 5.531e-10
 98.07765    118.9 1.167e+04 5.773e-10
 98.08984    118.4 1.177e+04 6.292e-10
 98.09990    118.2 1.191e+04 6.707e-10
 98.10894    117.6 1.208e+04 7.990e-10
 98.11900    117.2 1.180e+04 6.677e-10
 98.13803    116.8 1.201e+04 8.335e-10
 98.15815    116.6 1.221e+04 1.003e-09
 98.17207    116.5 1.237e+04 1.091e-09
 98.18213    116.2 1.241e+04 1.088e-09
 98.19840    115.9 1.241e+04 1.066e-09
 98.21852    115.3 1.239e+04 9.184e-10
 98.23865    114.6 1.246e+04 8.255e-10
 98.25430    113.5 1.262e+04 8.235e-10
 98.26436    112.8 1.239e+04 6.974e-10
 98.27890    111.1 1.279e+04 7.493e-10
 98.29902    108.7 1.354e+04 1.014e-09
 98.31915    106.3 1.412e+04 1.703e-09
 98.33653    104.5 1.452e+04 2.800e-09
 98.34659    104.2 1.425e+04 2.443e-09
 98.35939    103.1 1.459e+04 3.300e-09
 98.37952    102.0 1.460e+04 3.279e-09
 98.39964    101.0 1.434e+04 2.809e-09
 98.41514     99.7 1.373e+04 1.964e-09
 98.42419    101.1 1.435e+04 2.668e-09
 98.42882    101.0 1.427e+04 2.472e-09
 98.43989     99.3 1.350e+04 1.542e-09
 98.46002     96.8 1.260e+04 9.874e-10
 98.48014     94.8 1.184e+04 7.526e-10
 98.50026     93.9 1.150e+04 6.652e-10
 98.51104     93.8 1.138e+04 6.390e-10
 98.52111     93.7 1.157e+04 7.437e-10
 98.54051     93.7 1.145e+04 7.181e-10
 98.56064     94.0 1.135e+04 6.902e-10
 98.58076     94.4 1.125e+04 6.496e-10
 98.59327     94.9 1.115e+04 6.002e-10
 98.60334     94.8 1.120e+04 6.467e-10
 98.62101     95.2 1.109e+04 5.836e-10
 98.64114     95.5 1.101e+04 5.351e-10
 98.66126     95.9 1.097e+04 5.079e-10
 98.67550     96.5 1.094e+04 4.926e-10
 98.68556     96.3 1.088e+04 4.740e-10
 98.70151     96.9 1.086e+04 4.561e-10
 98.72134     97.5 1.082e+04 4.435e-10
 98.73140     96.8 1.053e+04 3.332e-10
 98.74176     97.8 1.051e+04 3.338e-10
 98.75773     98.5 1.052e+04 3.381e-10
 98.76779     98.5 1.050e+04 3.384e-10
 98.78201     99.4 1.055e+04 3.561e-10
 98.80213    100.0 1.059e+04 3.825e-10
 98.82225    100.9 1.066e+04 4.367e-10
 98.83996    101.8 1.080e+04 5.241e-10
 98.85002    101.8 1.080e+04 5.235e-10
 98.86250    102.5 1.102e+04 6.512e-10
 98.88263    103.2 1.135e+04 8.391e-10
 98.90275    103.9 1.181e+04 1.104e-09
 98.92219    104.3 1.236e+04 1.454e-09
 98.93225    104.3 1.204e+04 1.272e-09
 98.94300    104.8 1.249e+04 1.556e-09
 98.96312    105.1 1.289e+04 1.768e-09
 98.98325    105.2 1.299e+04 1.781e-09
 99.00337    105.1 1.293e+04 1.701e-09
 99.01448    104.7 1.297e+04 1.573e-09
 99.02454    104.7 1.233e+04 1.194e-09
 99.03760    103.6 1.248e+04 1.217e-09
 99.04766    104.2 1.201e+04 9.482e-10
 99.06375    101.7 1.280e+04 1.150e-09
 99.08387     97.9 1.441e+04 2.043e-09
 99.09671     95.0 1.542e+04 3.988e-09
 99.10677     96.4 1.481e+04 2.975e-09
 99.12412     94.8 1.532e+04 4.795e-09
 99.14424     93.8 1.525e+04 5.010e-09
 99.16437     93.1 1.493e+04 4.401e-09
 99.17894     92.0 1.439e+04 2.947e-09
 99.18900     92.9 1.442e+04 3.313e-09
 99.20462     90.9 1.376e+04 2.136e-09
 99.22474     88.1 1.280e+04 1.435e-09
 99.24486     86.1 1.186e+04 1.183e-09
 99.26116     85.5 1.142e+04 1.125e-09
 99.27123     86.5 1.196e+04 1.384e-09
 99.28511     86.2 1.174e+04 1.349e-09
 99.30524     86.2 1.164e+04 1.327e-09
 99.32536     86.2 1.159e+04 1.300e-09
 99.34339     86.2 1.157e+04 1.271e-09
 99.35177     86.8 1.201e+04 1.641e-09
 99.35386     87.0 1.181e+04 1.531e-09
 99.36561     87.2 1.169e+04 1.422e-09
 99.38573     87.5 1.154e+04 1.281e-09
 99.40586     87.7 1.136e+04 1.121e-09
 99.42562     88.0 1.114e+04 9.405e-10
 99.43568     88.2 1.131e+04 9.436e-10
 99.44611     88.2 1.096e+04 7.786e-10
 99.46623     88.4 1.059e+04 6.329e-10
 99.48636     88.6 1.039e+04 5.650e-10
 99.50648     89.5 1.014e+04 4.897e-10
 99.51791     89.8 1.004e+04 4.571e-10
 99.52797     89.8 1.006e+04 4.568e-10
 99.55689     91.2 1.005e+04 4.494e-10
 99.59723     93.3 9.863e+03 3.974e-10
 99.63748     95.7 9.648e+03 3.409e-10
 99.66026     98.4 9.399e+03 2.818e-10
 99.67515     99.2 8.997e+03 2.102e-10
 99.69263     99.2 8.986e+03 2.052e-10
 99.71798    102.1 8.851e+03 1.732e-10
 99.75823    104.9 8.745e+03 1.469e-10
 99.79848    107.8 8.619e+03 1.288e-10
 99.83696    111.0 8.557e+03 1.257e-10
 99.85708    111.2 8.585e+03 1.300e-10
 99.87898    114.6 8.592e+03 1.312e-10
 99.91922    118.1 8.666e+03 1.404e-10
 99.95947    121.8 8.981e+03 1.706e-10
 99.99972    125.5 9.362e+03 2.097e-10
