# Columns:
#   distance along LOS (in CHIMPs)
#   peculiar velocity  (in km/s)
#   temperature (K)
#   HI number density
# pos=(221.115,213.361,2.38021), angles=(1.60399,4.74162)
  0.00885     42.4 8.846e+03 1.265e-10
  0.03725     43.1 8.817e+03 1.195e-10
  0.07635     43.9 8.797e+03 1.202e-10
  0.11545     44.8 8.846e+03 1.267e-10
  0.15455     45.6 9.012e+03 1.472e-10
  0.19365     46.2 9.242e+03 1.983e-10
  0.23275     46.6 9.462e+03 3.109e-10
  0.27185     47.4 9.885e+03 5.029e-10
  0.30108     47.7 1.007e+04 5.918e-10
  0.32053     48.0 1.021e+04 6.426e-10
  0.34008     48.1 1.036e+04 6.819e-10
  0.35963     48.1 1.054e+04 7.054e-10
  0.37918     47.9 1.073e+04 7.084e-10
  0.39873     47.2 1.110e+04 6.825e-10
  0.41828     45.9 1.157e+04 6.831e-10
  0.43783     44.3 1.186e+04 7.332e-10
  0.45738     42.5 1.171e+04 8.559e-10
  0.47693     41.3 1.154e+04 1.039e-09
  0.49648     40.7 1.145e+04 1.278e-09
  0.51603     40.6 1.204e+04 1.276e-09
  0.53558     40.2 1.227e+04 1.212e-09
  0.55513     38.7 1.259e+04 1.021e-09
  0.57469     35.6 1.256e+04 9.292e-10
  0.59424     32.2 1.208e+04 9.490e-10
  0.60866     29.1 1.180e+04 1.137e-09
  0.61843     30.1 1.274e+04 1.745e-09
  0.63334     29.2 1.224e+04 1.818e-09
  0.65289     29.5 1.198e+04 1.728e-09
  0.67244     29.8 1.179e+04 1.532e-09
  0.70186     30.4 1.136e+04 9.903e-10
  0.74106     29.3 1.017e+04 2.903e-10
  0.78016     28.8 9.476e+03 2.053e-10
  0.81926     29.7 9.312e+03 2.062e-10
  0.85836     31.4 9.445e+03 2.550e-10
  0.89746     32.9 9.905e+03 3.666e-10
  0.92669     32.9 1.033e+04 5.078e-10
  0.94614     33.4 1.056e+04 6.533e-10
  0.96569     34.2 1.073e+04 8.104e-10
  0.98524     35.0 1.090e+04 9.539e-10
  1.00479     35.8 1.106e+04 1.114e-09
  1.02434     36.6 1.112e+04 1.212e-09
  1.04389     37.5 1.112e+04 1.183e-09
  1.06344     38.3 1.111e+04 1.085e-09
  1.08299     38.5 1.111e+04 9.351e-10
  1.10255     38.1 1.114e+04 7.866e-10
  1.12210     36.8 1.125e+04 7.151e-10
  1.14165     33.1 1.181e+04 8.248e-10
  1.16120     26.7 1.305e+04 1.440e-09
  1.18075     23.9 1.274e+04 2.396e-09
  1.19620     24.6 1.228e+04 2.411e-09
  1.20598     25.3 1.337e+04 3.016e-09
  1.21985     26.0 1.233e+04 2.580e-09
  1.23940     26.6 1.164e+04 1.943e-09
  1.25895     26.3 1.117e+04 1.189e-09
  1.27850     23.7 1.062e+04 5.977e-10
  1.29805     19.5 8.975e+03 2.782e-10
  1.32747     18.0 7.976e+03 2.206e-10
  1.36667     18.5 7.111e+03 1.394e-10
  1.40577     18.7 6.866e+03 1.037e-10
  1.44487     18.8 6.661e+03 8.326e-11
  1.48397     19.2 6.597e+03 8.062e-11
  1.52307     19.5 6.670e+03 8.708e-11
  1.56217     20.1 6.842e+03 1.044e-10
  1.60127     20.5 7.141e+03 1.341e-10
  1.64038     20.4 7.608e+03 1.920e-10
  1.67948     20.4 8.227e+03 3.051e-10
  1.71858     21.2 8.639e+03 4.273e-10
  1.75768     22.1 8.932e+03 4.870e-10
  1.78395     22.6 9.039e+03 4.947e-10
  1.80350     22.8 8.862e+03 4.477e-10
  1.83588     23.4 8.786e+03 4.084e-10
  1.87498     23.9 8.700e+03 3.630e-10
  1.91408     24.2 8.713e+03 3.423e-10
  1.95318     24.6 8.705e+03 3.309e-10
  1.99228     25.3 8.605e+03 2.989e-10
  2.03138     26.3 8.413e+03 2.437e-10
  2.05498     27.4 8.221e+03 1.896e-10
  2.07453     27.0 8.458e+03 2.442e-10
  2.10958     28.1 8.296e+03 1.832e-10
  2.14868     29.4 8.401e+03 1.674e-10
  2.18779     29.7 8.849e+03 1.977e-10
  2.22689     28.7 1.008e+04 3.880e-10
  2.26599     27.9 1.125e+04 9.890e-10
  2.30509     28.6 1.184e+04 1.728e-09
  2.34419     29.0 1.192e+04 1.777e-09
  2.38329     29.9 1.148e+04 1.418e-09
  2.42239     31.1 1.066e+04 6.892e-10
  2.46149     31.0 9.880e+03 2.838e-10
  2.50059     30.8 9.278e+03 1.489e-10
  2.53969     31.5 8.892e+03 1.119e-10
  2.57879     33.2 8.762e+03 1.000e-10
  2.61789     35.1 8.749e+03 9.092e-11
  2.65699     37.0 8.735e+03 8.130e-11
  2.69609     38.7 8.666e+03 7.468e-11
  2.73520     40.5 8.567e+03 7.356e-11
  2.77430     42.3 8.624e+03 7.599e-11
  2.81340     44.0 8.706e+03 8.635e-11
  2.85250     45.8 8.781e+03 1.045e-10
  2.89160     47.7 8.865e+03 1.259e-10
  2.93070     49.7 8.948e+03 1.429e-10
  2.95904     51.6 8.988e+03 1.505e-10
  2.97859     52.0 8.801e+03 1.173e-10
  3.00890     54.0 8.848e+03 1.253e-10
  3.04800     56.0 8.883e+03 1.325e-10
  3.08710     58.1 8.929e+03 1.404e-10
  3.12620     60.1 8.992e+03 1.510e-10
  3.16530     62.2 9.064e+03 1.652e-10
  3.20440     64.3 9.140e+03 1.781e-10
  3.24350     66.2 9.214e+03 1.884e-10
  3.28261     68.0 9.321e+03 1.930e-10
  3.32171     69.6 9.342e+03 1.910e-10
  3.36081     71.1 9.348e+03 1.795e-10
  3.38841     72.5 9.299e+03 1.525e-10
  3.40796     71.9 9.154e+03 9.423e-11
  3.43901     73.0 9.152e+03 7.533e-11
  3.47811     73.8 9.038e+03 6.067e-11
  3.51721     74.4 8.681e+03 5.864e-11
  3.55631     75.2 8.648e+03 5.919e-11
  3.59541     76.0 8.592e+03 6.306e-11
  3.63451     76.9 8.566e+03 7.384e-11
  3.67361     77.9 8.597e+03 9.252e-11
  3.71271     79.0 8.678e+03 1.229e-10
  3.75181     80.3 8.824e+03 1.707e-10
  3.79092     81.7 9.039e+03 2.380e-10
  3.83002     83.1 9.258e+03 3.074e-10
  3.86912     84.3 9.373e+03 3.279e-10
  3.90822     85.3 9.353e+03 3.192e-10
  3.94732     86.3 9.225e+03 2.734e-10
  3.98642     87.5 8.978e+03 2.050e-10
  4.02552     88.6 8.626e+03 1.526e-10
  4.06462     89.8 8.290e+03 1.397e-10
  4.10372     91.4 8.269e+03 1.424e-10
  4.13413     93.1 8.317e+03 1.647e-10
  4.15368     93.3 8.403e+03 1.913e-10
  4.18192     95.1 8.691e+03 2.611e-10
  4.22102     95.7 9.080e+03 3.593e-10
  4.25025     95.8 9.378e+03 4.556e-10
  4.26970     96.0 9.830e+03 6.301e-10
  4.28925     96.1 1.042e+04 9.287e-10
  4.30880     96.3 1.102e+04 1.330e-09
  4.32835     96.6 1.153e+04 1.705e-09
  4.34791     96.5 1.178e+04 1.797e-09
  4.36746     96.1 1.174e+04 1.752e-09
  4.38701     95.5 1.143e+04 1.502e-09
  4.40656     94.8 1.077e+04 1.076e-09
  4.42611     93.6 9.962e+03 7.031e-10
  4.44566     91.8 9.125e+03 4.425e-10
  4.46521     90.8 8.796e+03 3.643e-10
  4.49463     89.7 8.575e+03 3.420e-10
  4.53383     89.5 8.602e+03 3.517e-10
  4.57293     89.5 8.703e+03 3.794e-10
  4.60216     89.6 8.746e+03 3.924e-10
  4.62161     89.7 8.839e+03 4.140e-10
  4.64116     89.5 9.075e+03 4.801e-10
  4.66071     89.2 9.337e+03 5.623e-10
  4.68026     88.4 9.709e+03 6.728e-10
  4.69981     86.3 1.049e+04 8.997e-10
  4.71936     83.4 1.161e+04 1.386e-09
  4.73126     81.1 1.251e+04 2.172e-09
  4.73355     80.6 1.229e+04 2.052e-09
  4.74120     80.2 1.256e+04 2.334e-09
  4.75846     78.7 1.258e+04 2.394e-09
  4.77801     77.9 1.235e+04 2.173e-09
  4.80744     77.2 1.158e+04 1.217e-09
  4.84663     74.7 9.650e+03 3.210e-10
  4.88574     71.2 8.085e+03 1.058e-10
  4.92484     70.9 7.914e+03 1.010e-10
  4.96394     71.6 7.907e+03 1.028e-10
  5.00304     72.9 8.009e+03 1.185e-10
  5.04214     74.3 8.342e+03 1.601e-10
  5.08124     75.6 8.750e+03 2.216e-10
  5.12034     76.2 9.110e+03 2.823e-10
  5.14957     75.9 9.719e+03 3.901e-10
  5.16902     75.8 1.008e+04 4.752e-10
  5.19844     76.2 1.043e+04 5.672e-10
  5.23764     76.4 1.073e+04 7.086e-10
  5.27674     76.2 1.097e+04 8.529e-10
  5.30923     75.9 1.122e+04 1.004e-09
  5.32878     74.0 1.145e+04 1.088e-09
  5.35494     73.7 1.154e+04 1.154e-09
  5.39404     73.5 1.165e+04 1.246e-09
  5.43315     73.4 1.169e+04 1.256e-09
  5.47225     73.5 1.163e+04 1.167e-09
  5.51135     73.8 1.144e+04 9.337e-10
  5.55045     74.0 1.116e+04 6.766e-10
  5.58955     74.2 1.078e+04 4.981e-10
  5.62865     74.8 1.031e+04 3.901e-10
  5.66775     76.1 9.843e+03 3.071e-10
  5.70685     77.9 9.470e+03 2.259e-10
  5.74595     79.7 9.252e+03 1.487e-10
  5.78505     81.1 9.176e+03 9.225e-11
  5.82415     82.1 9.052e+03 6.988e-11
  5.86325     83.1 9.061e+03 7.151e-11
  5.90235     83.8 9.149e+03 9.393e-11
  5.94145     84.6 9.538e+03 1.669e-10
  5.98056     85.2 1.005e+04 2.861e-10
  6.00978     85.2 1.026e+04 3.429e-10
  6.02924     84.9 1.051e+04 4.172e-10
  6.04879     84.5 1.075e+04 5.335e-10
  6.06485     84.1 1.095e+04 6.768e-10
  6.07463     83.4 1.079e+04 6.235e-10
  6.08789     83.2 1.099e+04 7.598e-10
  6.10744     83.1 1.119e+04 8.914e-10
  6.12699     82.9 1.142e+04 9.801e-10
  6.14654     82.6 1.156e+04 9.858e-10
  6.16609     82.2 1.157e+04 9.740e-10
  6.18564     81.7 1.155e+04 9.210e-10
  6.20519     81.3 1.147e+04 8.236e-10
  6.22474     80.9 1.135e+04 7.126e-10
  6.24429     80.4 1.119e+04 6.181e-10
  6.26384     79.9 1.101e+04 5.635e-10
  6.28339     79.6 1.090e+04 5.576e-10
  6.30294     79.4 1.089e+04 5.619e-10
  6.32249     79.2 1.089e+04 5.821e-10
  6.34204     78.9 1.092e+04 6.382e-10
  6.37147     78.6 1.102e+04 6.989e-10
  6.41066     78.5 1.109e+04 7.902e-10
  6.44976     78.6 1.103e+04 7.711e-10
  6.48432     78.6 1.081e+04 6.728e-10
  6.50387     78.5 1.091e+04 7.542e-10
  6.52797     78.5 1.063e+04 6.118e-10
  6.56707     78.0 1.041e+04 5.151e-10
  6.60617     77.2 1.042e+04 5.211e-10
  6.64527     76.1 1.046e+04 5.474e-10
  6.68437     74.7 1.039e+04 5.378e-10
  6.72347     74.4 1.004e+04 4.581e-10
  6.76257     74.5 9.520e+03 3.066e-10
  6.80167     74.9 9.006e+03 1.690e-10
  6.84077     75.1 8.592e+03 8.509e-11
  6.87987     75.3 8.319e+03 5.978e-11
  6.91897     76.0 8.292e+03 5.989e-11
  6.95807     77.0 8.279e+03 6.471e-11
  6.99717     78.0 8.338e+03 8.110e-11
  7.03628     79.0 8.463e+03 1.044e-10
  7.07538     79.9 8.555e+03 1.131e-10
  7.11448     80.6 8.554e+03 1.106e-10
  7.15358     81.3 8.527e+03 9.813e-11
  7.19268     81.9 8.467e+03 8.025e-11
  7.23178     82.4 8.408e+03 7.081e-11
  7.27088     83.0 8.404e+03 7.084e-11
  7.30998     83.5 8.432e+03 7.454e-11
  7.34908     84.0 8.538e+03 8.991e-11
  7.38818     84.6 8.714e+03 1.223e-10
  7.40825     85.1 8.944e+03 1.710e-10
  7.42780     85.2 8.990e+03 1.766e-10
  7.46638     85.7 9.275e+03 2.428e-10
  7.50548     85.8 9.539e+03 2.904e-10
  7.54458     85.8 9.737e+03 3.088e-10
  7.58369     85.6 9.852e+03 3.149e-10
  7.62279     85.2 9.930e+03 3.236e-10
  7.65941     84.8 9.993e+03 3.443e-10
  7.67897     85.1 9.917e+03 3.343e-10
  7.70099     84.8 1.001e+04 3.687e-10
  7.74009     84.5 1.013e+04 4.005e-10
  7.77919     84.3 1.018e+04 4.087e-10
  7.80842     84.2 1.014e+04 3.905e-10
  7.82787     84.1 1.014e+04 3.875e-10
  7.84742     84.2 1.013e+04 3.854e-10
  7.86697     84.1 1.013e+04 3.829e-10
  7.88652     84.1 1.014e+04 3.856e-10
  7.90607     84.1 1.015e+04 3.879e-10
  7.92562     83.9 1.022e+04 4.064e-10
  7.94517     83.8 1.027e+04 4.183e-10
  7.97459     83.3 1.040e+04 4.526e-10
  8.01379     82.1 1.068e+04 5.831e-10
  8.05289     80.4 1.129e+04 9.208e-10
  8.09199     78.6 1.180e+04 1.280e-09
  8.13110     76.5 1.180e+04 1.272e-09
  8.17020     74.9 1.141e+04 1.004e-09
  8.20930     73.4 1.070e+04 5.641e-10
  8.24840     71.6 9.931e+03 2.922e-10
  8.28750     70.3 9.531e+03 2.253e-10
  8.32660     70.2 9.476e+03 2.158e-10
  8.36570     70.2 9.457e+03 2.114e-10
  8.40480     70.2 9.423e+03 2.079e-10
  8.44390     70.1 9.421e+03 2.143e-10
  8.48300     70.1 9.441e+03 2.351e-10
  8.52210     70.0 9.534e+03 2.660e-10
  8.56120     69.9 9.657e+03 3.011e-10
  8.60030     69.6 9.841e+03 3.515e-10
  8.63940     69.3 1.006e+04 4.273e-10
  8.67851     68.9 1.010e+04 4.460e-10
  8.71761     68.8 1.004e+04 4.306e-10
  8.74168     68.9 9.782e+03 3.597e-10
  8.76123     69.1 9.944e+03 4.331e-10
  8.79581     69.4 9.610e+03 3.142e-10
  8.83451     69.6 9.272e+03 2.182e-10
  8.85406     68.9 9.211e+03 2.134e-10
  8.87401     69.4 8.932e+03 1.641e-10
  8.91311     70.3 8.798e+03 1.589e-10
  8.95221     71.6 8.796e+03 1.622e-10
  8.99131     72.9 8.853e+03 1.790e-10
  9.03041     74.4 9.020e+03 2.126e-10
  9.06951     75.8 9.225e+03 2.596e-10
  9.10861     77.2 9.419e+03 3.124e-10
  9.14771     78.6 9.618e+03 3.699e-10
  9.18682     79.9 9.785e+03 4.264e-10
  9.22592     81.2 9.959e+03 4.679e-10
  9.26502     82.5 1.008e+04 4.862e-10
  9.30412     83.6 1.009e+04 4.819e-10
  9.34322     84.8 1.009e+04 4.618e-10
  9.38232     86.0 1.004e+04 4.204e-10
  9.42142     87.3 9.968e+03 3.752e-10
  9.46052     88.8 9.889e+03 3.446e-10
  9.49962     90.6 9.907e+03 3.470e-10
  9.53872     92.5 1.006e+04 3.715e-10
  9.57782     93.7 1.026e+04 4.179e-10
  9.60705     94.5 1.039e+04 4.676e-10
  9.62650     95.4 1.059e+04 5.368e-10
  9.64605     96.3 1.083e+04 6.292e-10
  9.66560     97.0 1.107e+04 7.404e-10
  9.68515     97.8 1.131e+04 8.777e-10
  9.70470     98.7 1.157e+04 1.052e-09
  9.72425     99.5 1.186e+04 1.267e-09
  9.74381    100.3 1.217e+04 1.528e-09
  9.76336    101.1 1.249e+04 1.841e-09
  9.78291    101.9 1.279e+04 2.198e-09
  9.80246    102.8 1.307e+04 2.563e-09
  9.82201    103.8 1.333e+04 2.882e-09
  9.84156    104.8 1.358e+04 3.064e-09
  9.86111    105.6 1.370e+04 3.067e-09
  9.88066    106.3 1.374e+04 3.009e-09
  9.90021    107.1 1.380e+04 2.898e-09
  9.91976    107.8 1.388e+04 2.832e-09
  9.93931    108.5 1.391e+04 2.830e-09
  9.95886    109.4 1.405e+04 2.888e-09
  9.97841    110.5 1.430e+04 3.077e-09
  9.99796    111.5 1.465e+04 3.410e-09
 10.01751    112.6 1.502e+04 3.878e-09
 10.02896    113.9 1.534e+04 4.440e-09
 10.03873    113.9 1.488e+04 2.563e-09
 10.05661    115.1 1.535e+04 2.760e-09
 10.07492    116.4 1.578e+04 3.003e-09
 10.08464    117.2 1.776e+04 4.720e-09
 10.09073    117.6 1.887e+04 5.510e-09
 10.10050    117.7 2.019e+04 6.522e-09
 10.11028    117.6 2.194e+04 7.899e-09
 10.12005    117.3 2.388e+04 9.601e-09
 10.12983    116.6 2.624e+04 1.217e-08
 10.13960    115.9 2.778e+04 1.652e-08
 10.14938    115.7 2.805e+04 2.680e-08
 10.15915    115.8 2.705e+04 5.377e-08
 10.16893    115.7 2.603e+04 1.040e-07
 10.17870    114.8 2.640e+04 1.510e-07
 10.18848    111.7 2.746e+04 1.472e-07
 10.19825    108.0 2.821e+04 1.278e-07
 10.20803    104.8 2.863e+04 9.530e-08
 10.21780    102.6 2.769e+04 7.061e-08
 10.22758    101.6 2.568e+04 5.521e-08
 10.23735    101.4 2.342e+04 4.571e-08
 10.24713    101.2 2.175e+04 3.914e-08
 10.25690    101.1 2.110e+04 3.444e-08
 10.26668    100.7 2.105e+04 3.054e-08
 10.27645    100.3 2.100e+04 2.677e-08
 10.28623    100.4 2.082e+04 2.360e-08
 10.29601    100.4 2.066e+04 2.056e-08
 10.31072    100.4 2.002e+04 1.422e-08
 10.33032    100.2 1.936e+04 1.008e-08
 10.34987    100.1 1.846e+04 7.032e-09
 10.36942    100.1 1.739e+04 5.084e-09
 10.38897    100.0 1.630e+04 3.849e-09
 10.40852     99.9 1.527e+04 3.067e-09
 10.42807    100.0 1.441e+04 2.552e-09
 10.44762    100.3 1.375e+04 2.179e-09
 10.46717    100.9 1.326e+04 1.877e-09
 10.48672    101.6 1.288e+04 1.623e-09
 10.50627    102.4 1.256e+04 1.414e-09
 10.52582    103.3 1.233e+04 1.255e-09
 10.54537    104.0 1.215e+04 1.138e-09
 10.56492    104.8 1.199e+04 1.065e-09
 10.58447    105.6 1.189e+04 1.050e-09
 10.60402    106.4 1.188e+04 1.050e-09
 10.61650    107.3 1.187e+04 1.057e-09
 10.62628    107.1 1.152e+04 8.706e-10
 10.64312    108.1 1.151e+04 8.954e-10
 10.66267    109.1 1.154e+04 9.269e-10
 10.68222    110.0 1.158e+04 9.549e-10
 10.70177    110.9 1.161e+04 9.851e-10
 10.72132    111.7 1.170e+04 1.013e-09
 10.74087    112.3 1.185e+04 1.039e-09
 10.75141    112.4 1.203e+04 1.087e-09
 10.76118    112.2 1.264e+04 1.644e-09
 10.77997    112.0 1.306e+04 1.842e-09
 10.79952    111.3 1.353e+04 2.217e-09
 10.81907    110.5 1.395e+04 2.809e-09
 10.83863    109.8 1.422e+04 3.565e-09
 10.85818    109.6 1.442e+04 4.273e-09
 10.87773    109.5 1.474e+04 4.529e-09
 10.89728    109.2 1.488e+04 4.480e-09
 10.91683    108.6 1.511e+04 4.089e-09
 10.93638    107.2 1.528e+04 3.139e-09
 10.95593    104.9 1.482e+04 2.126e-09
 10.97548    102.2 1.353e+04 1.448e-09
 10.99503     99.5 1.192e+04 1.100e-09
 11.01458     98.9 1.120e+04 9.622e-10
 11.03413     98.0 1.054e+04 8.437e-10
 11.06355     99.4 1.047e+04 8.003e-10
 11.10275     99.3 1.004e+04 6.789e-10
 11.14185     99.0 9.810e+03 5.718e-10
 11.18095     98.8 9.521e+03 4.795e-10
 11.20425     98.7 9.153e+03 4.007e-10
 11.22380     98.0 8.502e+03 2.701e-10
 11.25915     98.5 8.104e+03 2.001e-10
 11.29825     99.1 7.765e+03 1.415e-10
 11.33735     99.8 7.450e+03 9.905e-11
 11.37646    100.6 7.154e+03 7.525e-11
 11.40854    101.8 6.980e+03 6.899e-11
 11.42809    101.9 6.965e+03 6.799e-11
 11.45466    103.5 6.962e+03 6.874e-11
 11.49376    105.3 6.997e+03 7.389e-11
 11.53286    107.3 7.104e+03 8.523e-11
 11.57196    109.3 7.248e+03 1.010e-10
 11.61106    111.4 7.407e+03 1.195e-10
 11.65016    113.5 7.570e+03 1.392e-10
 11.68926    115.4 7.737e+03 1.587e-10
 11.72836    117.3 7.919e+03 1.786e-10
 11.76746    119.2 8.168e+03 2.040e-10
 11.80656    121.3 8.541e+03 2.440e-10
 11.84566    122.9 8.959e+03 3.023e-10
 11.87489    123.3 9.169e+03 3.426e-10
 11.89434    123.2 9.507e+03 4.124e-10
 11.91390    123.2 1.017e+04 5.829e-10
 11.93345    123.3 1.103e+04 9.056e-10
 11.95300    123.5 1.191e+04 1.413e-09
 11.97255    123.6 1.274e+04 2.059e-09
 11.99210    123.4 1.351e+04 2.748e-09
 12.01165    122.8 1.423e+04 3.339e-09
 12.03120    121.0 1.471e+04 3.655e-09
 12.05075    118.1 1.475e+04 3.666e-09
 12.07030    114.7 1.462e+04 3.649e-09
 12.08484    111.6 1.436e+04 3.658e-09
 12.09461    112.0 1.323e+04 2.498e-09
 12.10940    110.0 1.316e+04 2.610e-09
 12.12895    109.0 1.313e+04 2.586e-09
 12.14850    108.9 1.309e+04 2.464e-09
 12.16805    108.9 1.297e+04 2.107e-09
 12.18760    108.8 1.280e+04 1.601e-09
 12.20715    107.8 1.254e+04 1.105e-09
 12.22670    105.7 1.187e+04 7.341e-10
 12.24625    102.9 1.078e+04 5.378e-10
 12.26580    100.6 9.930e+03 5.229e-10
 12.28535     98.7 9.984e+03 5.758e-10
 12.30490     95.4 1.078e+04 9.065e-10
 12.32445     90.5 1.332e+04 2.065e-09
 12.34400     86.0 1.558e+04 4.580e-09
 12.36355     82.2 1.684e+04 7.537e-09
 12.37915     78.2 1.803e+04 8.370e-09
 12.38892     79.5 1.687e+04 7.318e-09
 12.40265     75.2 1.704e+04 6.991e-09
 12.42220     68.1 1.798e+04 6.092e-09
 12.43682     62.8 1.892e+04 6.704e-09
 12.44654     58.6 1.956e+04 7.911e-09
 12.45632     53.8 2.057e+04 1.081e-08
 12.46610     48.8 2.207e+04 1.693e-08
 12.47587     44.7 2.298e+04 2.960e-08
 12.48565     42.3 2.257e+04 5.310e-08
 12.49542     41.1 2.172e+04 8.781e-08
 12.50520     41.0 2.120e+04 1.074e-07
 12.51497     40.9 2.112e+04 1.037e-07
 12.52475     41.0 2.091e+04 8.394e-08
 12.53452     41.2 2.054e+04 5.251e-08
 12.54430     41.0 2.032e+04 2.730e-08
 12.55407     40.3 2.038e+04 1.565e-08
 12.56385     39.2 2.015e+04 7.082e-09
 12.57856     37.5 2.002e+04 2.769e-09
 12.59816     29.7 1.339e+04 7.524e-10
 12.61771     30.5 1.148e+04 5.809e-10
 12.63726     28.4 8.929e+03 3.888e-10
 12.66668     28.7 9.597e+03 3.025e-10
 12.70588     30.3 9.527e+03 2.727e-10
 12.74197     32.3 9.624e+03 2.780e-10
 12.76152     33.2 9.707e+03 2.897e-10
 12.78408     35.3 9.920e+03 3.190e-10
 12.81331     36.7 1.034e+04 4.025e-10
 12.83276     37.4 1.053e+04 4.483e-10
 12.85231     38.5 1.073e+04 5.079e-10
 12.87186     39.7 1.085e+04 5.518e-10
 12.89141     40.8 1.099e+04 5.958e-10
 12.91096     41.9 1.116e+04 6.417e-10
 12.93051     42.8 1.138e+04 6.936e-10
 12.95006     43.6 1.161e+04 7.584e-10
 12.96669     44.1 1.187e+04 8.455e-10
 12.97647     43.8 1.295e+04 1.303e-09
 12.98917     44.1 1.350e+04 1.641e-09
 13.00872     44.4 1.397e+04 2.128e-09
 13.02827     44.7 1.433e+04 2.715e-09
 13.04782     45.4 1.463e+04 3.243e-09
 13.06737     46.2 1.484e+04 3.425e-09
 13.08692     46.9 1.486e+04 3.342e-09
 13.10647     47.4 1.473e+04 2.948e-09
 13.12602     47.5 1.455e+04 2.282e-09
 13.14557     47.2 1.426e+04 1.624e-09
 13.16512     46.3 1.372e+04 1.141e-09
 13.18467     45.4 1.298e+04 8.683e-10
 13.20422     44.9 1.238e+04 6.863e-10
 13.22377     44.7 1.183e+04 5.695e-10
 13.24332     44.8 1.140e+04 5.186e-10
 13.26287     44.9 1.143e+04 5.281e-10
 13.28242     44.3 1.200e+04 6.222e-10
 13.30197     41.7 1.385e+04 1.140e-09
 13.32152     38.2 1.575e+04 2.677e-09
 13.34107     37.0 1.705e+04 6.463e-09
 13.35569     37.2 1.782e+04 9.992e-09
 13.36541     37.6 1.848e+04 1.468e-08
 13.37519     38.4 1.921e+04 2.095e-08
 13.38496     38.5 2.014e+04 2.799e-08
 13.39474     37.9 2.109e+04 3.379e-08
 13.40451     36.0 2.237e+04 3.915e-08
 13.41429     32.3 2.428e+04 5.013e-08
 13.42306     29.0 2.486e+04 6.412e-08
 13.42794     29.0 2.509e+04 6.916e-08
 13.43384     26.8 2.381e+04 8.636e-08
 13.44361     24.9 2.193e+04 9.926e-08
 13.45339     23.5 2.046e+04 1.194e-07
 13.46316     23.9 1.988e+04 1.700e-07
 13.47294     25.0 2.019e+04 1.785e-07
 13.48271     27.2 1.976e+04 1.419e-07
 13.49249     29.4 1.932e+04 8.258e-08
 13.50226     29.2 1.971e+04 4.325e-08
 13.51204     27.9 2.111e+04 2.294e-08
 13.52181     25.9 2.312e+04 1.197e-08
 13.53159     24.2 2.572e+04 5.661e-09
 13.54137     21.5 2.839e+04 2.842e-09
 13.55114     18.7 2.830e+04 1.126e-09
 13.55903     15.6 2.229e+04 7.007e-10
 13.56392     20.1 2.907e+04 2.151e-09
 13.57563     15.7 2.165e+04 2.376e-09
 13.59523      8.4 1.313e+04 1.023e-09
 13.61478      7.8 1.118e+04 9.121e-10
 13.63433      8.7 1.081e+04 9.143e-10
 13.65388      9.5 1.098e+04 9.317e-10
 13.67343      9.6 1.116e+04 9.169e-10
 13.69298      6.3 1.325e+04 1.207e-09
 13.71253     -3.7 1.815e+04 3.020e-09
 13.73208     -8.2 1.814e+04 8.869e-09
 13.75163     -8.0 1.806e+04 1.972e-08
 13.76624     -6.7 1.806e+04 2.410e-08
 13.77597     -6.1 1.814e+04 2.477e-08
 13.79068     -5.2 1.844e+04 2.179e-08
 13.81028     -5.5 1.873e+04 1.111e-08
 13.82983    -11.9 1.689e+04 4.521e-09
 13.84938    -20.0 1.399e+04 2.671e-09
 13.86893    -23.2 1.384e+04 2.537e-09
 13.88848    -27.0 1.483e+04 3.355e-09
 13.90803    -29.2 1.519e+04 4.811e-09
 13.92758    -29.7 1.543e+04 6.332e-09
 13.94713    -29.6 1.564e+04 7.045e-09
 13.96668    -29.4 1.551e+04 6.838e-09
 13.98623    -28.9 1.480e+04 4.669e-09
 14.00578    -29.9 1.356e+04 2.790e-09
 14.02533    -31.6 1.219e+04 1.656e-09
 14.04488    -32.2 1.113e+04 1.065e-09
 14.06444    -32.3 1.047e+04 7.325e-10
 14.08399    -32.1 9.899e+03 5.041e-10
 14.09485    -32.0 9.290e+03 3.324e-10
 14.10463    -32.0 9.412e+03 3.680e-10
 14.12309    -31.6 9.196e+03 3.155e-10
 14.15251    -30.8 9.006e+03 2.647e-10
 14.19171    -29.1 8.631e+03 1.994e-10
 14.23081    -27.7 8.525e+03 1.840e-10
 14.26991    -26.4 8.569e+03 1.922e-10
 14.30901    -25.1 8.757e+03 2.330e-10
 14.34811    -23.5 8.944e+03 2.634e-10
 14.38721    -22.3 9.074e+03 2.703e-10
 14.42631    -21.8 9.218e+03 2.628e-10
 14.46541    -22.0 9.420e+03 2.739e-10
 14.50451    -22.6 9.651e+03 3.692e-10
 14.53374    -22.3 9.934e+03 5.204e-10
 14.55319    -22.6 9.991e+03 5.629e-10
 14.58262    -22.0 1.035e+04 7.403e-10
 14.62182    -21.9 1.053e+04 7.532e-10
 14.66092    -22.8 1.030e+04 6.192e-10
 14.70002    -23.1 9.884e+03 5.001e-10
 14.72953    -23.1 9.606e+03 4.279e-10
 14.74908    -22.9 9.246e+03 3.192e-10
 14.77822    -22.3 9.212e+03 3.100e-10
 14.81732    -22.1 9.321e+03 3.108e-10
 14.85642    -22.3 9.522e+03 3.586e-10
 14.89552    -22.5 9.859e+03 4.902e-10
 14.93462    -22.6 1.027e+04 6.743e-10
 14.97372    -23.1 1.073e+04 8.375e-10
 15.01282    -25.0 1.122e+04 9.823e-10
 15.05192    -27.9 1.189e+04 1.236e-09
 15.08115    -30.7 1.255e+04 1.726e-09
 15.10060    -31.9 1.278e+04 2.004e-09
 15.12015    -33.1 1.276e+04 2.128e-09
 15.13970    -33.8 1.254e+04 1.940e-09
 15.15926    -34.7 1.214e+04 1.512e-09
 15.17881    -36.0 1.156e+04 1.041e-09
 15.19836    -37.6 1.084e+04 6.781e-10
 15.21791    -39.2 1.032e+04 4.621e-10
 15.23746    -40.7 1.004e+04 3.611e-10
 15.25701    -41.4 9.928e+03 3.363e-10
 15.28643    -41.9 9.881e+03 3.315e-10
 15.32563    -42.1 9.778e+03 3.187e-10
 15.36473    -42.1 9.669e+03 2.987e-10
 15.40383    -42.0 9.558e+03 2.691e-10
 15.42838    -42.0 9.528e+03 2.371e-10
 15.44793    -41.5 9.330e+03 1.989e-10
 15.48203    -41.5 9.455e+03 2.054e-10
 15.52113    -41.5 9.624e+03 2.203e-10
 15.56023    -41.5 9.813e+03 2.408e-10
 15.59933    -41.6 9.943e+03 2.616e-10
 15.63843    -41.7 9.950e+03 2.739e-10
 15.67754    -41.9 9.876e+03 2.735e-10
 15.71664    -42.2 9.765e+03 2.662e-10
 15.75574    -42.4 9.645e+03 2.558e-10
 15.79484    -42.4 9.518e+03 2.372e-10
 15.83394    -42.3 9.389e+03 2.093e-10
 15.87304    -42.0 9.264e+03 1.794e-10
 15.90462    -41.7 9.178e+03 1.612e-10
 15.92417    -41.5 9.362e+03 1.827e-10
 15.95124    -41.2 9.319e+03 1.756e-10
 15.99034    -40.6 9.359e+03 1.765e-10
 16.02944    -40.3 9.521e+03 2.005e-10
 16.06854    -39.8 9.717e+03 2.481e-10
 16.10764    -39.3 9.962e+03 3.101e-10
 16.14674    -38.7 1.019e+04 3.659e-10
 16.18584    -38.0 1.027e+04 3.835e-10
 16.22495    -37.2 1.025e+04 3.488e-10
 16.26405    -36.3 1.015e+04 2.568e-10
 16.30315    -35.8 1.014e+04 1.852e-10
 16.34225    -35.6 1.022e+04 1.628e-10
 16.38135    -35.3 1.023e+04 1.730e-10
 16.42045    -34.6 1.012e+04 2.214e-10
 16.45955    -33.3 1.003e+04 2.467e-10
 16.49865    -31.6 9.829e+03 1.848e-10
 16.53775    -29.9 9.575e+03 1.108e-10
 16.57685    -28.5 9.452e+03 6.200e-11
 16.61595    -27.6 9.492e+03 3.696e-11
 16.65505    -26.7 9.365e+03 2.967e-11
 16.69415    -25.2 9.277e+03 2.884e-11
 16.73325    -23.6 9.281e+03 3.137e-11
 16.76181    -21.7 9.375e+03 3.599e-11
 16.78136    -21.9 9.175e+03 3.521e-11
 16.81146    -19.8 9.290e+03 3.849e-11
 16.85056    -17.7 9.345e+03 4.003e-11
 16.88966    -15.6 9.388e+03 3.911e-11
 16.92876    -13.7 9.454e+03 3.546e-11
 16.96786    -12.1 9.508e+03 3.278e-11
 17.00696    -10.7 9.613e+03 3.258e-11
 17.04606     -9.9 9.551e+03 4.133e-11
 17.07972     -8.6 9.352e+03 6.272e-11
 17.09927     -8.2 9.396e+03 5.588e-11
 17.12426     -6.1 9.408e+03 8.734e-11
 17.16336     -4.2 9.708e+03 1.063e-10
 17.20246     -3.4 1.008e+04 1.108e-10
 17.24156     -3.1 1.023e+04 1.192e-10
 17.28066     -2.6 1.018e+04 1.382e-10
 17.31977     -2.2 1.013e+04 1.562e-10
 17.35887     -2.1 1.014e+04 1.760e-10
 17.39797     -1.8 1.020e+04 2.350e-10
 17.43707     -1.1 1.045e+04 2.911e-10
 17.47617     -0.5 1.064e+04 3.151e-10
 17.51527     -0.4 1.064e+04 3.099e-10
 17.55437     -0.0 1.058e+04 2.923e-10
 17.59347      0.2 1.073e+04 2.495e-10
 17.63257      0.6 1.064e+04 2.418e-10
 17.67167      1.4 1.081e+04 2.542e-10
 17.71077      1.5 1.124e+04 2.294e-10
 17.74987      0.9 1.117e+04 3.004e-10
 17.78897      1.8 1.117e+04 4.068e-10
 17.82808      2.5 1.134e+04 4.296e-10
 17.86718      2.8 1.136e+04 3.883e-10
 17.90628      3.1 1.133e+04 3.324e-10
 17.94538      3.2 1.102e+04 2.622e-10
 17.98448      3.5 1.079e+04 2.196e-10
 18.02358      3.7 1.080e+04 1.994e-10
 18.06268      3.7 1.112e+04 2.336e-10
 18.09191      4.1 1.110e+04 3.300e-10
 18.10482      3.8 1.136e+04 3.923e-10
 18.11460      4.7 1.139e+04 4.208e-10
 18.13091      5.3 1.131e+04 6.230e-10
 18.15046      4.7 1.246e+04 8.936e-10
 18.17001     -1.2 1.625e+04 2.366e-09
 18.18956     -6.3 1.848e+04 8.114e-09
 18.20418     -7.8 1.893e+04 1.455e-08
 18.21390     -9.0 1.974e+04 1.695e-08
 18.22368    -10.6 2.053e+04 2.441e-08
 18.23345    -11.7 2.086e+04 2.701e-08
 18.24323    -13.5 2.036e+04 2.573e-08
 18.25300    -14.0 2.037e+04 2.161e-08
 18.26278    -16.6 1.894e+04 1.340e-08
 18.26918    -18.3 1.831e+04 9.493e-09
 18.27407    -17.2 1.897e+04 1.127e-08
 18.28726    -21.1 1.690e+04 6.329e-09
 18.30686    -24.5 1.389e+04 2.399e-09
 18.32641    -26.7 1.180e+04 9.917e-10
 18.34596    -28.3 1.058e+04 5.196e-10
 18.36551    -29.9 9.497e+03 2.990e-10
 18.38507    -30.7 9.104e+03 2.441e-10
 18.41449    -30.3 8.990e+03 2.309e-10
 18.45369    -29.5 8.625e+03 2.008e-10
 18.49279    -29.0 8.410e+03 1.901e-10
 18.53189    -28.7 8.350e+03 1.913e-10
 18.57099    -28.6 8.298e+03 1.999e-10
 18.61009    -28.4 8.220e+03 2.023e-10
 18.64919    -28.4 8.153e+03 1.988e-10
 18.68829    -28.4 8.112e+03 1.946e-10
 18.72739    -28.4 8.068e+03 1.931e-10
 18.76649    -28.2 8.027e+03 1.923e-10
 18.80559    -28.0 8.045e+03 2.001e-10
 18.84469    -27.5 8.081e+03 2.209e-10
 18.88379    -26.7 8.092e+03 2.322e-10
 18.92290    -25.6 8.093e+03 2.385e-10
 18.96200    -24.2 8.089e+03 2.418e-10
 19.00110    -22.6 8.072e+03 2.346e-10
 19.04020    -21.2 8.108e+03 2.327e-10
 19.07930    -20.1 8.356e+03 2.673e-10
 19.11840    -18.8 8.817e+03 3.663e-10
 19.14763    -17.2 9.168e+03 4.675e-10
 19.16708    -16.7 9.256e+03 5.290e-10
 19.18663    -15.5 9.611e+03 6.388e-10
 19.20618    -15.4 1.014e+04 8.002e-10
 19.22573    -18.2 1.274e+04 1.326e-09
 19.24528    -22.9 1.575e+04 3.175e-09
 19.26483    -25.6 1.768e+04 8.299e-09
 19.27945    -25.5 1.857e+04 1.417e-08
 19.28917    -25.8 1.947e+04 2.177e-08
 19.29895    -25.8 2.042e+04 3.605e-08
 19.30872    -25.9 2.109e+04 5.581e-08
 19.31850    -25.7 2.150e+04 7.244e-08
 19.32827    -25.7 2.177e+04 8.109e-08
 19.33805    -25.9 2.228e+04 8.390e-08
 19.34782    -26.7 2.291e+04 8.228e-08
 19.35760    -28.2 2.348e+04 8.064e-08
 19.36737    -30.6 2.319e+04 7.025e-08
 19.37715    -32.7 2.356e+04 5.327e-08
 19.38692    -35.7 2.506e+04 4.471e-08
 19.39670    -39.7 2.598e+04 4.962e-08
 19.40647    -43.5 2.583e+04 5.660e-08
 19.41625    -46.7 2.547e+04 5.624e-08
 19.42602    -49.4 2.513e+04 3.515e-08
 19.43580    -51.8 2.383e+04 2.441e-08
 19.44304    -53.5 2.220e+04 1.856e-08
 19.44663    -53.7 2.292e+04 4.949e-08
 19.44916    -53.0 2.299e+04 4.545e-08
 19.45535    -54.1 2.198e+04 2.848e-08
 19.46512    -54.8 2.111e+04 2.004e-08
 19.47490    -55.1 2.036e+04 1.527e-08
 19.48468    -55.3 1.969e+04 1.203e-08
 19.49445    -55.5 1.899e+04 9.642e-09
 19.50423    -55.8 1.828e+04 7.972e-09
 19.51894    -56.3 1.745e+04 6.591e-09
 19.53854    -55.9 1.654e+04 5.315e-09
 19.55809    -55.8 1.607e+04 4.706e-09
 19.57764    -55.7 1.579e+04 4.025e-09
 19.59719    -55.7 1.548e+04 3.452e-09
 19.61674    -56.1 1.518e+04 2.916e-09
 19.63629    -57.1 1.471e+04 2.578e-09
 19.65584    -58.5 1.434e+04 2.290e-09
 19.67539    -59.9 1.408e+04 2.006e-09
 19.69494    -61.2 1.381e+04 1.751e-09
 19.71449    -62.5 1.350e+04 1.580e-09
 19.73404    -63.7 1.325e+04 1.476e-09
 19.75359    -65.0 1.326e+04 1.334e-09
 19.77314    -66.8 1.357e+04 1.194e-09
 19.79269    -68.8 1.387e+04 1.151e-09
 19.81224    -70.8 1.413e+04 1.208e-09
 19.83179    -72.2 1.412e+04 1.364e-09
 19.85134    -72.9 1.396e+04 1.539e-09
 19.87089    -73.0 1.377e+04 1.668e-09
 19.89044    -73.0 1.363e+04 1.722e-09
 19.90999    -72.8 1.348e+04 1.709e-09
 19.92954    -72.3 1.335e+04 1.643e-09
 19.94909    -71.9 1.323e+04 1.552e-09
 19.96864    -71.4 1.312e+04 1.457e-09
 19.98819    -70.9 1.301e+04 1.372e-09
 20.00775    -70.3 1.291e+04 1.306e-09
 20.02703    -69.8 1.286e+04 1.271e-09
 20.03681    -69.3 1.289e+04 1.276e-09
 20.04685    -68.8 1.290e+04 1.283e-09
 20.06640    -68.4 1.290e+04 1.289e-09
 20.08595    -67.9 1.285e+04 1.276e-09
 20.10497    -67.4 1.278e+04 1.235e-09
 20.11474    -67.0 1.287e+04 1.258e-09
 20.12505    -66.5 1.284e+04 1.268e-09
 20.14460    -65.8 1.283e+04 1.245e-09
 20.16415    -65.2 1.285e+04 1.183e-09
 20.18370    -64.8 1.292e+04 1.080e-09
 20.20325    -64.7 1.289e+04 9.602e-10
 20.22280    -64.8 1.282e+04 8.556e-10
 20.24235    -65.0 1.275e+04 7.929e-10
 20.26190    -65.1 1.268e+04 7.689e-10
 20.28145    -64.7 1.257e+04 7.544e-10
 20.30100    -63.1 1.238e+04 7.339e-10
 20.32055    -60.9 1.219e+04 7.002e-10
 20.34010    -58.9 1.215e+04 6.667e-10
 20.35965    -59.3 1.383e+04 6.344e-10
 20.37920    -64.2 2.422e+04 8.365e-10
 20.39875    -69.7 2.709e+04 3.308e-09
 20.41337    -73.4 2.593e+04 6.197e-09
 20.42309    -76.6 2.526e+04 1.027e-08
 20.43287    -79.1 2.382e+04 1.623e-08
 20.44264    -81.3 2.363e+04 1.920e-08
 20.44800    -87.1 2.361e+04 2.443e-08
 20.45289    -91.2 2.846e+04 4.173e-08
 20.46219   -100.8 2.932e+04 4.802e-08
 20.47197   -108.8 2.971e+04 4.637e-08
 20.48174   -115.7 2.807e+04 3.698e-08
 20.49152   -120.4 2.524e+04 2.820e-08
 20.50129   -122.7 2.277e+04 2.306e-08
 20.51107   -123.2 2.137e+04 2.032e-08
 20.52084   -122.4 2.049e+04 1.839e-08
 20.53062   -121.5 1.979e+04 1.674e-08
 20.54039   -120.6 1.919e+04 1.519e-08
 20.55017   -119.8 1.868e+04 1.375e-08
 20.55995   -119.0 1.826e+04 1.244e-08
 20.56972   -118.0 1.788e+04 1.122e-08
 20.57950   -116.9 1.746e+04 9.906e-09
 20.59421   -115.8 1.697e+04 8.348e-09
 20.61381   -113.8 1.617e+04 6.796e-09
 20.62435   -112.5 1.546e+04 5.386e-09
 20.63413   -113.0 1.547e+04 5.356e-09
 20.65291   -112.0 1.483e+04 4.276e-09
 20.67246   -110.8 1.421e+04 3.424e-09
 20.69201   -109.7 1.368e+04 2.810e-09
 20.71156   -108.8 1.326e+04 2.385e-09
 20.73111   -107.8 1.294e+04 2.086e-09
 20.75066   -106.8 1.271e+04 1.886e-09
 20.77021   -105.7 1.259e+04 1.757e-09
 20.78146   -104.7 1.252e+04 1.665e-09
 20.79123   -104.6 1.253e+04 1.638e-09
 20.80931   -103.6 1.244e+04 1.547e-09
 20.82886   -102.7 1.238e+04 1.467e-09
 20.84841   -101.9 1.230e+04 1.397e-09
 20.86796   -101.2 1.221e+04 1.343e-09
 20.88751   -100.5 1.215e+04 1.309e-09
 20.90706    -99.9 1.213e+04 1.292e-09
 20.92661    -99.3 1.217e+04 1.285e-09
 20.94616    -98.8 1.224e+04 1.300e-09
 20.96571    -98.5 1.236e+04 1.341e-09
 20.98526    -98.2 1.252e+04 1.419e-09
 21.00481    -98.0 1.273e+04 1.549e-09
 21.02436    -97.7 1.294e+04 1.702e-09
 21.04391    -97.6 1.309e+04 1.853e-09
 21.06346    -97.3 1.326e+04 2.042e-09
 21.08301    -97.1 1.332e+04 2.097e-09
 21.10257    -97.0 1.336e+04 2.154e-09
 21.12212    -97.1 1.336e+04 2.119e-09
 21.15154    -97.4 1.319e+04 1.864e-09
 21.19074    -97.3 1.281e+04 1.442e-09
 21.22984    -96.5 1.237e+04 1.055e-09
 21.25907    -95.0 1.207e+04 8.199e-10
 21.27852    -94.6 1.194e+04 7.029e-10
 21.29807    -94.2 1.172e+04 5.242e-10
 21.31762    -94.3 1.162e+04 4.570e-10
 21.34704    -94.6 1.163e+04 4.682e-10
 21.38624    -94.5 1.168e+04 5.090e-10
 21.42534    -94.5 1.200e+04 7.213e-10
 21.46444    -94.7 1.244e+04 1.052e-09
 21.49367    -94.6 1.259e+04 1.226e-09
 21.51312    -95.2 1.272e+04 1.328e-09
 21.53267    -95.9 1.276e+04 1.375e-09
 21.55222    -96.6 1.275e+04 1.381e-09
 21.57177    -97.3 1.252e+04 1.311e-09
 21.59132    -97.8 1.221e+04 1.161e-09
 21.61087    -98.1 1.193e+04 1.019e-09
 21.63043    -98.3 1.171e+04 9.126e-10
 21.65985    -98.5 1.156e+04 8.255e-10
 21.69905    -98.3 1.107e+04 5.756e-10
 21.73815    -98.9 1.066e+04 4.142e-10
 21.77725    -99.7 1.056e+04 3.752e-10
 21.79964   -100.6 1.100e+04 4.132e-10
 21.81919    -98.5 1.022e+04 3.223e-10
 21.85545    -99.0 1.079e+04 3.727e-10
 21.89455   -100.0 1.178e+04 5.843e-10
 21.93365   -101.7 1.265e+04 1.011e-09
 21.97275   -103.5 1.318e+04 1.696e-09
 22.01185   -105.2 1.331e+04 2.186e-09
 22.04108   -106.5 1.338e+04 2.407e-09
 22.06053   -107.0 1.303e+04 2.190e-09
 22.08008   -107.5 1.263e+04 1.786e-09
 22.09963   -107.8 1.225e+04 1.433e-09
 22.11489   -108.1 1.194e+04 1.176e-09
 22.12466   -107.7 1.191e+04 1.179e-09
 22.13873   -107.8 1.165e+04 9.861e-10
 22.15828   -107.9 1.146e+04 8.323e-10
 22.17784   -107.9 1.132e+04 7.143e-10
 22.19739   -107.9 1.122e+04 6.297e-10
 22.21694   -107.9 1.117e+04 5.773e-10
 22.23649   -108.2 1.121e+04 5.524e-10
 22.25604   -108.6 1.129e+04 5.493e-10
 22.27559   -109.4 1.159e+04 5.913e-10
 22.29514   -110.1 1.178e+04 7.090e-10
 22.31469   -110.7 1.191e+04 8.510e-10
 22.33424   -111.2 1.196e+04 9.471e-10
 22.35379   -111.8 1.196e+04 9.727e-10
 22.37334   -112.2 1.182e+04 9.113e-10
 22.38699   -112.7 1.159e+04 7.442e-10
 22.39677   -112.6 1.157e+04 7.438e-10
 22.41244   -113.2 1.137e+04 5.708e-10
 22.43199   -113.8 1.115e+04 4.356e-10
 22.45154   -114.0 1.106e+04 3.821e-10
 22.48096   -114.0 1.108e+04 3.534e-10
 22.52016   -114.7 1.102e+04 3.356e-10
 22.55926   -114.9 1.100e+04 3.343e-10
 22.59836   -114.9 1.103e+04 3.387e-10
 22.63746   -114.7 1.110e+04 3.304e-10
 22.67656   -114.1 1.107e+04 2.748e-10
 22.71567   -113.2 1.097e+04 2.025e-10
 22.75477   -112.0 1.089e+04 1.452e-10
 22.79387   -110.7 1.090e+04 1.075e-10
 22.83297   -109.2 1.094e+04 8.610e-11
 22.87207   -107.6 1.095e+04 7.521e-11
 22.91117   -105.8 1.094e+04 7.006e-11
 22.95027   -104.0 1.090e+04 6.790e-11
 22.97473   -102.1 1.087e+04 6.684e-11
 22.99429   -102.0 1.093e+04 7.469e-11
 23.02847   -100.0 1.092e+04 7.398e-11
 23.06757    -98.2 1.093e+04 7.437e-11
 23.10667    -96.5 1.097e+04 7.626e-11
 23.14577    -95.1 1.100e+04 9.201e-11
 23.18487    -93.7 1.102e+04 1.199e-10
 23.22397    -92.4 1.107e+04 1.598e-10
 23.26308    -91.1 1.117e+04 2.149e-10
 23.30218    -89.9 1.129e+04 2.910e-10
 23.34128    -88.9 1.144e+04 3.893e-10
 23.38038    -88.2 1.154e+04 4.871e-10
 23.41948    -87.6 1.160e+04 5.455e-10
 23.44851    -87.4 1.160e+04 5.606e-10
 23.46806    -87.0 1.152e+04 4.979e-10
 23.49768    -86.8 1.144e+04 4.921e-10
 23.53678    -86.7 1.138e+04 4.848e-10
 23.57588    -86.6 1.138e+04 4.886e-10
 23.61498    -86.8 1.156e+04 5.204e-10
 23.64421    -87.1 1.176e+04 6.026e-10
 23.66366    -87.7 1.182e+04 6.710e-10
 23.68321    -88.1 1.184e+04 7.458e-10
 23.70276    -88.3 1.187e+04 7.779e-10
 23.72231    -88.5 1.190e+04 7.977e-10
 23.74186    -88.8 1.190e+04 8.036e-10
 23.76141    -89.1 1.188e+04 8.074e-10
 23.78096    -89.4 1.186e+04 8.130e-10
 23.80052    -89.5 1.175e+04 8.456e-10
 23.82007    -89.7 1.175e+04 8.952e-10
 23.83962    -89.9 1.184e+04 9.635e-10
 23.85917    -90.3 1.203e+04 1.079e-09
 23.87872    -91.2 1.229e+04 1.280e-09
 23.89827    -92.1 1.258e+04 1.595e-09
 23.91782    -93.0 1.286e+04 2.008e-09
 23.93737    -93.7 1.298e+04 2.419e-09
 23.95692    -94.3 1.301e+04 2.595e-09
 23.97647    -94.8 1.298e+04 2.621e-09
 23.99602    -94.9 1.270e+04 2.436e-09
 24.01557    -95.0 1.237e+04 2.020e-09
 24.03512    -95.1 1.206e+04 1.613e-09
 24.05467    -95.2 1.179e+04 1.297e-09
 24.07422    -95.2 1.155e+04 1.064e-09
 24.09377    -95.1 1.136e+04 9.048e-10
 24.11332    -94.7 1.125e+04 8.099e-10
 24.12481    -94.2 1.124e+04 7.763e-10
 24.13458    -94.2 1.139e+04 9.185e-10
 24.14963    -93.5 1.138e+04 9.161e-10
 24.15941    -94.0 1.139e+04 8.824e-10
 24.17197    -93.4 1.142e+04 8.902e-10
 24.19152    -92.9 1.151e+04 9.578e-10
 24.21107    -92.3 1.161e+04 1.074e-09
 24.23062    -91.6 1.173e+04 1.223e-09
 24.25017    -90.8 1.190e+04 1.373e-09
 24.26972    -90.1 1.214e+04 1.477e-09
 24.28927    -89.5 1.233e+04 1.503e-09
 24.30882    -89.4 1.251e+04 1.405e-09
 24.32838    -89.5 1.267e+04 1.268e-09
 24.34793    -91.0 1.282e+04 1.190e-09
 24.36748    -93.1 1.321e+04 1.167e-09
 24.38703    -95.0 1.351e+04 1.367e-09
 24.40658    -96.7 1.399e+04 1.720e-09
 24.42613    -98.3 1.456e+04 2.346e-09
 24.44568    -99.8 1.519e+04 3.278e-09
 24.46523   -100.9 1.565e+04 4.627e-09
 24.48478   -101.6 1.600e+04 6.470e-09
 24.50433   -101.8 1.612e+04 8.494e-09
 24.52388   -101.6 1.614e+04 9.654e-09
 24.54343   -101.4 1.608e+04 9.925e-09
 24.56298   -101.3 1.589e+04 8.789e-09
 24.58253   -101.2 1.561e+04 7.538e-09
 24.60208   -101.2 1.529e+04 6.498e-09
 24.62163   -101.2 1.493e+04 5.315e-09
 24.64118   -101.2 1.450e+04 4.097e-09
 24.66073   -101.1 1.404e+04 3.006e-09
 24.68028   -101.1 1.354e+04 2.216e-09
 24.69983   -101.0 1.310e+04 1.680e-09
 24.71938   -100.8 1.276e+04 1.333e-09
 24.73718   -100.4 1.250e+04 1.129e-09
 24.74696   -100.6 1.254e+04 1.145e-09
 24.75848   -100.0 1.240e+04 1.028e-09
 24.77803    -99.3 1.231e+04 9.588e-10
 24.79152    -98.6 1.224e+04 9.123e-10
 24.80130    -98.8 1.224e+04 9.336e-10
 24.81713    -98.2 1.220e+04 9.089e-10
 24.83668    -97.6 1.220e+04 9.027e-10
 24.85623    -97.1 1.222e+04 9.020e-10
 24.87579    -96.7 1.227e+04 9.213e-10
 24.89534    -96.3 1.232e+04 9.587e-10
 24.91489    -95.9 1.236e+04 1.005e-09
 24.93444    -95.5 1.242e+04 1.059e-09
 24.95399    -95.2 1.249e+04 1.123e-09
 24.97354    -94.8 1.257e+04 1.201e-09
 24.99309    -94.4 1.268e+04 1.288e-09
 25.01264    -94.1 1.278e+04 1.369e-09
 25.03219    -93.8 1.285e+04 1.425e-09
 25.06161    -94.0 1.294e+04 1.473e-09
 25.10081    -93.9 1.330e+04 1.849e-09
 25.13004    -93.6 1.350e+04 2.241e-09
 25.14949    -93.9 1.382e+04 2.653e-09
 25.16904    -94.0 1.419e+04 3.359e-09
 25.18859    -94.1 1.433e+04 3.722e-09
 25.20814    -94.1 1.435e+04 3.796e-09
 25.22769    -94.2 1.426e+04 3.626e-09
 25.24724    -94.2 1.405e+04 3.187e-09
 25.26679    -94.5 1.381e+04 2.837e-09
 25.28634    -94.9 1.363e+04 2.611e-09
 25.30589    -95.5 1.354e+04 2.444e-09
 25.32051    -96.5 1.473e+04 2.636e-09
 25.32952    -98.6 1.740e+04 3.174e-09
 25.33440    -98.0 1.665e+04 2.943e-09
 25.34001   -100.6 2.005e+04 4.139e-09
 25.34978   -102.9 2.299e+04 7.183e-09
 25.35956   -104.9 2.353e+04 1.227e-08
 25.36933   -106.0 2.289e+04 1.870e-08
 25.37911   -106.1 2.204e+04 2.639e-08
 25.38888   -105.6 2.106e+04 3.384e-08
 25.39866   -105.6 1.994e+04 4.183e-08
 25.40843   -105.7 1.975e+04 4.834e-08
 25.41821   -105.7 2.004e+04 5.861e-08
 25.42799   -105.6 2.000e+04 7.656e-08
 25.43776   -105.4 2.005e+04 9.486e-08
 25.44754   -105.3 2.017e+04 1.051e-07
 25.45731   -105.3 2.027e+04 1.060e-07
 25.46303   -105.4 2.033e+04 9.170e-08
 25.46791   -105.5 2.062e+04 2.807e-08
 25.48180   -106.0 2.118e+04 1.502e-08
 25.50140   -106.6 2.278e+04 5.869e-09
 25.52095   -109.2 2.406e+04 2.031e-09
 25.54050   -113.6 1.935e+04 1.414e-09
 25.56005   -116.6 1.617e+04 1.390e-09
 25.57960   -118.2 1.461e+04 1.825e-09
 25.59915   -119.2 1.491e+04 2.263e-09
 25.61870   -120.3 1.543e+04 2.981e-09
 25.63825   -121.5 1.599e+04 4.002e-09
 25.65780   -122.8 1.649e+04 5.398e-09
 25.67735   -124.1 1.683e+04 6.818e-09
 25.69690   -125.5 1.694e+04 7.516e-09
 25.71645   -126.9 1.672e+04 7.400e-09
 25.73600   -127.9 1.606e+04 6.069e-09
 25.75555   -128.5 1.524e+04 4.486e-09
 25.77510   -128.8 1.442e+04 3.216e-09
 25.79465   -129.0 1.378e+04 2.419e-09
 25.81420   -129.0 1.341e+04 1.968e-09
 25.84363   -128.5 1.315e+04 1.626e-09
 25.87295   -127.3 1.252e+04 1.224e-09
 25.89240   -126.9 1.237e+04 1.143e-09
 25.91195   -125.6 1.190e+04 8.955e-10
 25.92205   -124.5 1.172e+04 7.407e-10
 25.93182   -124.4 1.184e+04 7.994e-10
 25.95106   -123.3 1.175e+04 6.998e-10
 25.97061   -122.3 1.179e+04 6.477e-10
 26.00003   -121.7 1.186e+04 6.003e-10
 26.03923   -120.6 1.181e+04 5.338e-10
 26.07833   -119.4 1.170e+04 4.821e-10
 26.11537   -118.4 1.161e+04 4.347e-10
 26.13492   -118.3 1.150e+04 4.229e-10
 26.15653   -117.5 1.141e+04 3.522e-10
 26.19563   -116.8 1.137e+04 3.041e-10
 26.23473   -116.2 1.130e+04 2.798e-10
 26.27383   -115.6 1.124e+04 2.691e-10
 26.31293   -114.8 1.120e+04 2.595e-10
 26.35203   -114.0 1.120e+04 2.406e-10
 26.39113   -113.1 1.117e+04 2.142e-10
 26.43023   -112.2 1.111e+04 1.827e-10
 26.46934   -111.2 1.104e+04 1.523e-10
 26.50002   -110.2 1.094e+04 1.285e-10
 26.51957   -109.9 1.095e+04 1.376e-10
 26.54754   -108.9 1.085e+04 1.236e-10
 26.58664   -107.8 1.080e+04 1.172e-10
 26.62574   -106.7 1.078e+04 1.148e-10
 26.66484   -105.6 1.078e+04 1.137e-10
 26.70394   -104.6 1.082e+04 1.138e-10
 26.74304   -103.6 1.084e+04 1.170e-10
 26.78214   -102.8 1.087e+04 1.236e-10
 26.82124   -102.1 1.090e+04 1.372e-10
 26.86034   -101.5 1.091e+04 1.639e-10
 26.89944   -100.7 1.090e+04 2.063e-10
 26.93854    -99.9 1.093e+04 2.584e-10
 26.97764    -98.9 1.099e+04 3.067e-10
 27.01675    -98.0 1.107e+04 3.404e-10
 27.05585    -97.1 1.118e+04 3.585e-10
 27.09495    -96.2 1.124e+04 3.588e-10
 27.13405    -95.4 1.128e+04 3.441e-10
 27.17315    -94.6 1.130e+04 3.282e-10
 27.21225    -93.7 1.129e+04 3.138e-10
 27.25135    -92.7 1.125e+04 2.963e-10
 27.29045    -91.5 1.122e+04 2.728e-10
 27.32955    -90.2 1.118e+04 2.469e-10
 27.36865    -88.9 1.113e+04 2.129e-10
 27.40775    -87.5 1.107e+04 1.834e-10
 27.44685    -86.2 1.099e+04 1.624e-10
 27.46835    -84.8 1.096e+04 1.491e-10
 27.48790    -84.4 1.103e+04 1.620e-10
 27.52505    -83.0 1.101e+04 1.578e-10
 27.56416    -81.6 1.100e+04 1.586e-10
 27.60326    -80.1 1.100e+04 1.605e-10
 27.64236    -78.7 1.099e+04 1.591e-10
 27.67511    -77.3 1.101e+04 1.522e-10
 27.69466    -77.1 1.098e+04 1.266e-10
 27.72056    -75.7 1.102e+04 1.112e-10
 27.75966    -74.5 1.106e+04 9.677e-11
 27.79876    -73.5 1.106e+04 8.755e-11
 27.83786    -72.4 1.103e+04 8.423e-11
 27.87696    -71.3 1.098e+04 8.621e-11
 27.91606    -70.2 1.098e+04 9.736e-11
 27.95516    -69.1 1.100e+04 1.160e-10
 27.99426    -67.8 1.102e+04 1.444e-10
 28.03336    -66.5 1.106e+04 1.851e-10
 28.07246    -65.1 1.113e+04 2.360e-10
 28.11157    -63.7 1.122e+04 2.895e-10
 28.15067    -62.4 1.134e+04 3.216e-10
 28.18977    -61.1 1.139e+04 3.278e-10
 28.22887    -59.7 1.137e+04 3.160e-10
 28.26797    -58.3 1.124e+04 2.701e-10
 28.30707    -56.8 1.107e+04 2.231e-10
 28.34617    -55.2 1.095e+04 1.874e-10
 28.38527    -53.7 1.089e+04 1.630e-10
 28.42437    -52.1 1.087e+04 1.501e-10
 28.46347    -50.6 1.087e+04 1.466e-10
 28.50257    -49.0 1.089e+04 1.476e-10
 28.54167    -47.4 1.091e+04 1.570e-10
 28.58077    -45.8 1.090e+04 1.662e-10
 28.61987    -44.2 1.090e+04 1.685e-10
 28.65898    -42.5 1.092e+04 1.614e-10
 28.69808    -40.9 1.094e+04 1.441e-10
 28.73718    -39.5 1.094e+04 1.295e-10
 28.77628    -38.1 1.095e+04 1.250e-10
 28.80178    -36.9 1.097e+04 1.262e-10
 28.82133    -36.3 1.096e+04 1.396e-10
 28.85020    -35.2 1.101e+04 1.567e-10
 28.86975    -35.8 1.093e+04 1.488e-10
 28.89358    -34.6 1.091e+04 1.680e-10
 28.93268    -33.3 1.089e+04 1.773e-10
 28.97178    -32.0 1.083e+04 1.725e-10
 29.01088    -30.8 1.072e+04 1.517e-10
 29.04998    -29.7 1.057e+04 1.249e-10
 29.08908    -28.7 1.036e+04 1.091e-10
 29.12818    -27.5 1.034e+04 9.785e-11
 29.16728    -26.3 1.034e+04 9.117e-11
 29.20639    -25.1 1.035e+04 9.004e-11
 29.24549    -23.9 1.032e+04 9.658e-11
 29.28459    -22.6 1.027e+04 1.076e-10
 29.32369    -21.1 1.026e+04 1.115e-10
 29.36279    -19.9 1.025e+04 1.089e-10
 29.40189    -19.3 1.028e+04 1.017e-10
 29.44099    -19.4 1.039e+04 1.040e-10
 29.48009    -19.5 1.043e+04 1.560e-10
 29.51919    -18.5 1.049e+04 2.327e-10
 29.55829    -17.0 1.063e+04 2.624e-10
 29.59739    -16.3 1.072e+04 2.341e-10
 29.63649    -16.1 1.062e+04 1.676e-10
 29.67559    -16.5 1.036e+04 1.441e-10
 29.71470    -16.0 1.026e+04 1.427e-10
 29.75380    -15.1 1.018e+04 1.499e-10
 29.79290    -14.1 1.021e+04 1.488e-10
 29.83200    -13.5 1.025e+04 1.416e-10
 29.87110    -13.2 1.025e+04 1.412e-10
 29.91020    -13.2 1.034e+04 1.652e-10
 29.94930    -13.5 1.045e+04 2.011e-10
 29.98840    -13.9 1.061e+04 2.427e-10
 30.02530    -14.0 1.089e+04 2.801e-10
 30.04485    -13.5 1.107e+04 3.182e-10
 30.06660    -14.4 1.152e+04 3.528e-10
 30.09583    -15.7 1.175e+04 3.498e-10
 30.11528    -15.9 1.186e+04 3.645e-10
 30.13483    -17.7 1.229e+04 4.591e-10
 30.14479    -19.5 1.239e+04 6.355e-10
 30.15457    -18.5 1.230e+04 4.890e-10
 30.17393    -20.7 1.222e+04 8.414e-10
 30.19348    -21.2 1.232e+04 9.698e-10
 30.21303    -21.6 1.251e+04 9.860e-10
 30.23258    -22.9 1.278e+04 8.999e-10
 30.25213    -25.5 1.300e+04 8.441e-10
 30.27169    -29.6 1.382e+04 9.041e-10
 30.29124    -33.9 1.414e+04 1.529e-09
 30.31079    -36.4 1.417e+04 2.666e-09
 30.33034    -37.6 1.430e+04 3.552e-09
 30.34989    -38.7 1.432e+04 3.752e-09
 30.36944    -39.9 1.382e+04 3.119e-09
 30.38899    -42.1 1.295e+04 1.913e-09
 30.40854    -45.2 1.204e+04 1.239e-09
 30.42809    -47.5 1.145e+04 1.015e-09
 30.44764    -48.6 1.121e+04 9.406e-10
 30.46719    -49.1 1.109e+04 8.652e-10
 30.48674    -49.6 1.098e+04 7.478e-10
 30.50629    -50.2 1.082e+04 6.154e-10
 30.53571    -51.5 1.053e+04 4.616e-10
 30.57491    -52.1 1.038e+04 4.069e-10
 30.61401    -52.7 1.042e+04 4.091e-10
 30.64324    -53.7 1.077e+04 5.301e-10
 30.66269    -54.0 1.101e+04 6.449e-10
 30.68224    -54.3 1.118e+04 8.089e-10
 30.70179    -54.2 1.132e+04 9.175e-10
 30.72134    -54.2 1.145e+04 9.912e-10
 30.74089    -54.2 1.168e+04 9.792e-10
 30.76044    -54.5 1.192e+04 8.843e-10
 30.77999    -55.1 1.189e+04 7.887e-10
 30.79954    -55.4 1.178e+04 7.097e-10
 30.81151    -55.3 1.170e+04 6.742e-10
 30.82128    -54.9 1.168e+04 6.447e-10
 30.84852    -54.4 1.167e+04 6.361e-10
 30.88772    -54.5 1.159e+04 6.098e-10
 30.92682    -54.5 1.154e+04 5.511e-10
 30.96592    -54.3 1.144e+04 4.483e-10
 31.00502    -54.0 1.125e+04 3.274e-10
 31.04412    -53.7 1.100e+04 2.292e-10
 31.08322    -53.4 1.068e+04 1.838e-10
 31.12232    -52.8 1.053e+04 1.751e-10
 31.16142    -52.1 1.056e+04 1.858e-10
 31.20039    -51.4 1.056e+04 2.132e-10
 31.23949    -52.1 1.055e+04 2.759e-10
 31.27872    -51.4 1.066e+04 3.478e-10
 31.31782    -50.6 1.077e+04 3.996e-10
 31.35693    -50.0 1.080e+04 4.117e-10
 31.39603    -49.6 1.075e+04 3.694e-10
 31.43513    -49.3 1.067e+04 3.150e-10
 31.46864    -49.0 1.063e+04 2.976e-10
 31.48819    -48.4 1.086e+04 3.546e-10
 31.51333    -47.8 1.100e+04 3.658e-10
 31.55243    -47.6 1.119e+04 4.014e-10
 31.58166    -47.2 1.134e+04 4.249e-10
 31.60111    -47.9 1.165e+04 4.911e-10
 31.63053    -49.7 1.228e+04 8.652e-10
 31.66973    -50.6 1.282e+04 1.480e-09
 31.69896    -50.2 1.291e+04 1.814e-09
 31.71841    -50.5 1.301e+04 1.907e-09
 31.74784    -51.4 1.313e+04 2.136e-09
 31.78703    -52.2 1.267e+04 1.610e-09
 31.82613    -53.1 1.192e+04 8.869e-10
 31.86523    -53.7 1.108e+04 4.240e-10
 31.90434    -53.9 1.024e+04 2.203e-10
 31.94344    -53.4 9.858e+03 1.795e-10
 31.98254    -52.0 9.679e+03 1.618e-10
 32.02164    -50.4 9.580e+03 1.525e-10
 32.06074    -48.6 9.556e+03 1.511e-10
 32.09984    -46.7 9.588e+03 1.553e-10
 32.13894    -45.0 9.654e+03 1.620e-10
 32.17804    -43.3 9.733e+03 1.705e-10
 32.21714    -41.9 9.846e+03 1.854e-10
 32.25624    -40.7 1.003e+04 2.221e-10
 32.29534    -39.8 1.035e+04 3.071e-10
 32.33444    -38.7 1.078e+04 4.541e-10
 32.36367    -38.3 1.115e+04 5.980e-10
 32.38312    -38.4 1.123e+04 6.981e-10
 32.39484    -38.3 1.139e+04 9.060e-10
 32.40462    -38.7 1.148e+04 9.210e-10
 32.42222    -38.6 1.165e+04 1.106e-09
 32.44178    -38.3 1.183e+04 1.258e-09
 32.46133    -38.1 1.195e+04 1.323e-09
 32.48088    -38.2 1.198e+04 1.337e-09
 32.50043    -38.2 1.188e+04 1.268e-09
 32.51998    -38.3 1.172e+04 1.149e-09
 32.53953    -38.3 1.151e+04 1.014e-09
 32.55908    -38.4 1.127e+04 8.743e-10
 32.57863    -38.1 1.105e+04 7.739e-10
 32.59818    -37.8 1.086e+04 6.761e-10
 32.61773    -37.4 1.078e+04 6.125e-10
 32.64715    -36.9 1.068e+04 5.426e-10
 32.68635    -36.0 1.039e+04 4.524e-10
 32.72545    -35.0 1.025e+04 3.991e-10
 32.76455    -33.8 1.022e+04 3.838e-10
 32.80207    -32.5 1.029e+04 4.064e-10
 32.82162    -33.9 1.049e+04 5.216e-10
 32.84275    -32.5 1.069e+04 6.249e-10
 32.88185    -31.1 1.085e+04 7.406e-10
 32.92095    -29.5 1.098e+04 8.453e-10
 32.96006    -28.0 1.112e+04 9.074e-10
 32.99916    -26.5 1.121e+04 8.841e-10
 33.03826    -25.5 1.134e+04 7.696e-10
 33.07736    -25.5 1.149e+04 6.648e-10
 33.11646    -26.3 1.162e+04 6.836e-10
 33.15556    -26.8 1.180e+04 1.152e-09
 33.19466    -25.8 1.205e+04 1.542e-09
 33.23376    -25.3 1.209e+04 1.580e-09
 33.27286    -24.7 1.173e+04 9.661e-10
 33.31196    -24.4 1.118e+04 4.067e-10
 33.35106    -24.5 1.073e+04 2.427e-10
 33.39016    -22.4 1.063e+04 2.134e-10
 33.42926    -20.1 1.060e+04 2.150e-10
 33.46836    -17.8 1.062e+04 2.438e-10
 33.50747    -15.4 1.065e+04 2.788e-10
 33.54657    -13.1 1.072e+04 3.078e-10
 33.57013    -11.0 1.082e+04 3.290e-10
 33.58968    -11.4 1.109e+04 4.223e-10
 33.62477     -9.2 1.125e+04 4.747e-10
 33.66387     -7.0 1.129e+04 4.725e-10
 33.70297     -4.9 1.135e+04 3.920e-10
 33.74207     -3.2 1.154e+04 3.219e-10
 33.78117     -2.0 1.165e+04 3.019e-10
 33.82027     -0.7 1.181e+04 3.426e-10
 33.85937      0.5 1.186e+04 4.600e-10
 33.88860      2.2 1.178e+04 5.912e-10
 33.90805      2.3 1.190e+04 6.242e-10
 33.93748      3.9 1.260e+04 1.377e-09
 33.96680      5.1 1.293e+04 1.849e-09
 33.98625      5.1 1.302e+04 1.886e-09
 34.00580      5.4 1.342e+04 2.698e-09
 34.02535      5.5 1.380e+04 3.018e-09
 34.04490      5.5 1.400e+04 3.881e-09
 34.06446      6.0 1.416e+04 4.208e-09
 34.08401      6.2 1.440e+04 4.436e-09
 34.10356      6.0 1.463e+04 4.694e-09
 34.12311      5.5 1.490e+04 5.109e-09
 34.14266      4.8 1.511e+04 5.715e-09
 34.15486      4.7 1.516e+04 6.388e-09
 34.15991      5.1 1.500e+04 6.228e-09
 34.16726      4.3 1.536e+04 6.885e-09
 34.18176      4.3 1.555e+04 6.678e-09
 34.20131      4.2 1.538e+04 5.934e-09
 34.22086      3.9 1.484e+04 4.960e-09
 34.24041      3.8 1.426e+04 4.159e-09
 34.25996      4.2 1.382e+04 3.600e-09
 34.28938      4.8 1.333e+04 2.485e-09
 34.32858      6.2 1.269e+04 1.677e-09
 34.36768      8.0 1.210e+04 1.079e-09
 34.40678      9.6 1.178e+04 7.614e-10
 34.44588     11.3 1.159e+04 6.439e-10
 34.48498     13.4 1.154e+04 6.428e-10
 34.52408     15.4 1.160e+04 6.908e-10
 34.55331     16.2 1.176e+04 8.596e-10
 34.57276     17.3 1.181e+04 9.694e-10
 34.59232     18.3 1.192e+04 1.067e-09
 34.61187     19.2 1.207e+04 1.181e-09
 34.63142     19.9 1.221e+04 1.323e-09
 34.65097     20.5 1.233e+04 1.452e-09
 34.67052     21.2 1.247e+04 1.595e-09
 34.69007     22.0 1.258e+04 1.673e-09
 34.70962     22.7 1.260e+04 1.646e-09
 34.72917     23.5 1.254e+04 1.512e-09
 34.74503     23.9 1.252e+04 1.304e-09
 34.75480     22.7 1.240e+04 1.052e-09
 34.76827     22.6 1.245e+04 9.707e-10
 34.78782     21.6 1.273e+04 1.132e-09
 34.80737     21.6 1.276e+04 1.186e-09
 34.83679     20.6 1.336e+04 2.200e-09
 34.87599     20.5 1.388e+04 3.074e-09
 34.91509     21.0 1.379e+04 2.884e-09
 34.95419     21.5 1.340e+04 1.435e-09
 34.99329     19.3 1.278e+04 5.410e-10
 35.03239     16.7 1.168e+04 4.507e-10
 35.07149     16.6 1.151e+04 4.519e-10
 35.11059     17.1 1.160e+04 5.087e-10
 35.14970     17.5 1.200e+04 7.013e-10
 35.18880     18.0 1.242e+04 1.036e-09
 35.22790     18.8 1.267e+04 1.271e-09
 35.26700     19.5 1.278e+04 1.329e-09
 35.30610     20.4 1.264e+04 1.134e-09
 35.34520     21.4 1.236e+04 8.019e-10
 35.38430     22.2 1.208e+04 5.742e-10
 35.42340     23.0 1.187e+04 4.785e-10
 35.46250     24.5 1.171e+04 4.594e-10
 35.48848     26.4 1.167e+04 4.540e-10
 35.50803     25.9 1.174e+04 5.265e-10
 35.54070     27.8 1.166e+04 4.815e-10
 35.57980     29.6 1.156e+04 4.504e-10
 35.61890     31.6 1.147e+04 4.272e-10
 35.65801     33.6 1.136e+04 4.046e-10
 35.69711     35.8 1.126e+04 3.698e-10
 35.73621     38.0 1.118e+04 3.238e-10
 35.77531     40.0 1.114e+04 2.748e-10
 35.81441     42.0 1.109e+04 2.593e-10
 35.85351     44.0 1.113e+04 2.648e-10
 35.89261     46.0 1.135e+04 3.002e-10
 35.92032     47.5 1.156e+04 3.863e-10
 35.93987     46.9 1.159e+04 4.135e-10
 35.96094     48.2 1.161e+04 4.845e-10
 35.98039     49.3 1.175e+04 6.146e-10
 35.99994     50.6 1.201e+04 7.871e-10
 36.01949     51.7 1.230e+04 9.687e-10
 36.03904     52.6 1.255e+04 1.141e-09
 36.05859     53.5 1.277e+04 1.309e-09
 36.07814     54.1 1.298e+04 1.487e-09
 36.09769     54.7 1.319e+04 1.711e-09
 36.11724     55.3 1.341e+04 2.008e-09
 36.13679     55.9 1.363e+04 2.358e-09
 36.15500     56.6 1.382e+04 2.706e-09
 36.16478     56.0 1.381e+04 2.693e-09
 36.17589     56.6 1.399e+04 2.961e-09
 36.19544     57.2 1.418e+04 3.222e-09
 36.21500     57.8 1.432e+04 3.447e-09
 36.23455     58.3 1.444e+04 3.561e-09
 36.25410     58.9 1.443e+04 3.580e-09
 36.27365     59.5 1.443e+04 3.584e-09
 36.29320     60.2 1.441e+04 3.514e-09
 36.31275     60.9 1.434e+04 3.374e-09
 36.33230     61.7 1.433e+04 3.186e-09
 36.35185     62.5 1.439e+04 3.150e-09
 36.37140     62.6 1.462e+04 3.205e-09
 36.39095     62.3 1.531e+04 3.572e-09
 36.41050     61.6 1.628e+04 4.709e-09
 36.43005     61.3 1.729e+04 6.851e-09
 36.44960     61.3 1.820e+04 9.851e-09
 36.46915     61.2 1.891e+04 1.245e-08
 36.48870     60.8 1.931e+04 1.300e-08
 36.50767     59.9 1.942e+04 1.233e-08
 36.51744     58.6 1.849e+04 4.524e-09
 36.52780     57.8 1.866e+04 3.622e-09
 36.54735     56.9 1.864e+04 2.948e-09
 36.56690     56.3 1.834e+04 2.413e-09
 36.58645     56.3 1.789e+04 1.957e-09
 36.60600     56.3 1.738e+04 1.569e-09
 36.62555     56.5 1.684e+04 1.271e-09
 36.64510     56.8 1.644e+04 1.079e-09
 36.66465     57.3 1.632e+04 9.596e-10
 36.68420     58.0 1.644e+04 8.997e-10
 36.70375     58.8 1.615e+04 8.381e-10
 36.72330     59.4 1.537e+04 8.226e-10
 36.74285     60.1 1.466e+04 8.481e-10
 36.76241     60.9 1.402e+04 9.211e-10
 36.78196     61.6 1.332e+04 9.579e-10
 36.80151     62.4 1.284e+04 9.658e-10
 36.82106     62.9 1.256e+04 9.636e-10
 36.83149     63.5 1.248e+04 9.416e-10
 36.84127     63.6 1.267e+04 8.148e-10
 36.86016     63.9 1.233e+04 7.367e-10
 36.87971     64.3 1.215e+04 6.747e-10
 36.89926     64.5 1.195e+04 6.695e-10
 36.91881     64.8 1.190e+04 6.667e-10
 36.93836     65.0 1.191e+04 6.760e-10
 36.95791     65.3 1.192e+04 7.110e-10
 36.97746     65.5 1.194e+04 8.232e-10
 36.99701     65.8 1.208e+04 9.535e-10
 37.01656     66.2 1.247e+04 1.179e-09
 37.03611     66.5 1.281e+04 1.389e-09
 37.05566     66.8 1.321e+04 1.513e-09
 37.07521     66.9 1.349e+04 1.696e-09
 37.09476     67.0 1.370e+04 1.911e-09
 37.10499     66.9 1.391e+04 2.110e-09
 37.11477     66.4 1.384e+04 1.954e-09
 37.13386     66.2 1.402e+04 2.144e-09
 37.15341     65.9 1.412e+04 2.210e-09
 37.17296     65.6 1.411e+04 2.184e-09
 37.19251     65.4 1.400e+04 2.059e-09
 37.21206     65.4 1.379e+04 1.750e-09
 37.23161     65.4 1.360e+04 1.330e-09
 37.25116     65.2 1.357e+04 9.295e-10
 37.27071     64.5 1.363e+04 6.402e-10
 37.29027     63.3 1.332e+04 5.206e-10
 37.30982     62.5 1.311e+04 5.219e-10
 37.32937     61.3 1.301e+04 5.720e-10
 37.34892     59.7 1.320e+04 7.799e-10
 37.36847     58.0 1.373e+04 1.198e-09
 37.38802     56.6 1.418e+04 1.839e-09
 37.40757     55.9 1.447e+04 2.542e-09
 37.42712     55.4 1.452e+04 2.749e-09
 37.44667     55.0 1.443e+04 2.678e-09
 37.46622     54.6 1.412e+04 2.354e-09
 37.48577     54.2 1.372e+04 1.855e-09
 37.49821     53.7 1.333e+04 1.418e-09
 37.50798     54.2 1.323e+04 1.303e-09
 37.52487     53.7 1.291e+04 1.036e-09
 37.54442     53.3 1.269e+04 9.240e-10
 37.56397     53.4 1.267e+04 9.216e-10
 37.58352     53.5 1.270e+04 9.447e-10
 37.60307     53.8 1.277e+04 1.012e-09
 37.62262     54.2 1.288e+04 1.103e-09
 37.64217     54.4 1.305e+04 1.221e-09
 37.66172     54.3 1.324e+04 1.388e-09
 37.68127     54.2 1.339e+04 1.621e-09
 37.69254     54.3 1.341e+04 1.859e-09
 37.70231     53.9 1.340e+04 2.094e-09
 37.72037     54.2 1.316e+04 2.003e-09
 37.73992     54.6 1.286e+04 1.852e-09
 37.75947     55.0 1.254e+04 1.628e-09
 37.77902     55.4 1.230e+04 1.380e-09
 37.79857     55.5 1.213e+04 1.158e-09
 37.81812     55.4 1.206e+04 9.838e-10
 37.83768     55.4 1.210e+04 8.716e-10
 37.85723     55.3 1.213e+04 8.121e-10
 37.87678     55.2 1.209e+04 7.866e-10
 37.89633     55.2 1.201e+04 7.774e-10
 37.91588     55.2 1.190e+04 7.857e-10
 37.93543     55.3 1.184e+04 8.003e-10
 37.95498     55.3 1.179e+04 8.214e-10
 37.97453     55.2 1.175e+04 8.462e-10
 37.99408     55.1 1.169e+04 8.760e-10
 38.01363     55.0 1.167e+04 9.247e-10
 38.03318     54.8 1.174e+04 1.021e-09
 38.05273     54.5 1.185e+04 1.201e-09
 38.07228     54.3 1.205e+04 1.487e-09
 38.09183     54.4 1.232e+04 1.866e-09
 38.11138     54.7 1.257e+04 2.222e-09
 38.13093     55.1 1.270e+04 2.303e-09
 38.15048     55.5 1.268e+04 2.242e-09
 38.16492     55.9 1.256e+04 1.991e-09
 38.17470     55.9 1.292e+04 2.360e-09
 38.18958     56.0 1.263e+04 1.797e-09
 38.20913     55.5 1.234e+04 1.391e-09
 38.22868     55.3 1.188e+04 1.050e-09
 38.24823     54.9 1.144e+04 8.300e-10
 38.26778     55.1 1.101e+04 6.246e-10
 38.28008     55.1 1.067e+04 4.770e-10
 38.28986     54.5 1.049e+04 3.894e-10
 38.31676     54.3 1.025e+04 2.394e-10
 38.35596     54.3 9.768e+03 1.291e-10
 38.39506     54.6 9.383e+03 1.111e-10
 38.43416     55.7 9.337e+03 1.137e-10
 38.47326     57.2 9.355e+03 1.290e-10
 38.51236     58.9 9.446e+03 1.526e-10
 38.55146     60.6 9.515e+03 1.695e-10
 38.59056     62.3 9.519e+03 1.696e-10
 38.62966     63.8 9.476e+03 1.650e-10
 38.66876     65.3 9.370e+03 1.534e-10
 38.70786     66.5 9.201e+03 1.432e-10
 38.74696     67.7 9.114e+03 1.428e-10
 38.78606     68.9 9.105e+03 1.480e-10
 38.82516     69.9 9.142e+03 1.736e-10
 38.86426     70.9 9.326e+03 2.261e-10
 38.90337     71.6 9.599e+03 2.970e-10
 38.94247     71.6 9.817e+03 3.617e-10
 38.97169     71.3 9.889e+03 4.006e-10
 38.99115     71.0 9.958e+03 4.373e-10
 39.01070     70.4 1.012e+04 4.981e-10
 39.03025     69.5 1.032e+04 5.707e-10
 39.04980     68.4 1.052e+04 6.592e-10
 39.06935     67.5 1.076e+04 7.671e-10
 39.08890     66.8 1.101e+04 8.334e-10
 39.10845     66.0 1.106e+04 8.295e-10
 39.12800     65.2 1.115e+04 7.806e-10
 39.14755     63.9 1.122e+04 6.520e-10
 39.16710     61.6 1.117e+04 5.531e-10
 39.18665     58.3 1.116e+04 5.549e-10
 39.20620     54.8 1.108e+04 6.176e-10
 39.22575     52.3 1.106e+04 8.060e-10
 39.24530     51.1 1.129e+04 1.075e-09
 39.26485     50.7 1.178e+04 1.282e-09
 39.28440     50.1 1.205e+04 1.278e-09
 39.30395     49.1 1.216e+04 1.153e-09
 39.32350     47.4 1.214e+04 8.775e-10
 39.34305     44.9 1.186e+04 6.640e-10
 39.36260     42.3 1.178e+04 6.530e-10
 39.38215     39.7 1.208e+04 7.304e-10
 39.40170     37.6 1.268e+04 9.865e-10
 39.42125     36.2 1.309e+04 1.392e-09
 39.44080     35.6 1.333e+04 1.820e-09
 39.45518     35.4 1.363e+04 2.121e-09
 39.46495     37.0 1.322e+04 1.814e-09
 39.47991     37.2 1.348e+04 2.280e-09
 39.49835     37.5 1.389e+04 2.430e-09
 39.50813     36.6 1.402e+04 2.464e-09
 39.51901     36.6 1.393e+04 2.164e-09
 39.53856     36.2 1.340e+04 1.694e-09
 39.55811     35.3 1.264e+04 1.224e-09
 39.57766     34.8 1.183e+04 9.220e-10
 39.59721     34.6 1.164e+04 7.248e-10
 39.61676     34.6 1.135e+04 5.913e-10
 39.63631     34.7 1.111e+04 4.854e-10
 39.65586     34.7 1.069e+04 4.137e-10
 39.67541     35.0 1.042e+04 3.707e-10
 39.69496     35.2 1.021e+04 3.485e-10
 39.71451     35.6 1.013e+04 3.391e-10
 39.73406     36.0 1.002e+04 3.330e-10
 39.75361     36.5 9.987e+03 3.369e-10
 39.77316     36.9 1.001e+04 3.507e-10
 39.79271     37.4 1.015e+04 3.708e-10
 39.81226     37.3 1.084e+04 4.382e-10
 39.83181     35.1 1.363e+04 7.570e-10
 39.85136     29.9 1.752e+04 2.491e-09
 39.87091     27.4 1.818e+04 6.008e-09
 39.88553     26.6 1.891e+04 1.068e-08
 39.89525     27.8 1.861e+04 1.370e-08
 39.90503     29.0 1.858e+04 1.677e-08
 39.91480     29.9 1.871e+04 1.806e-08
 39.92952     30.4 1.791e+04 1.527e-08
 39.94911     30.1 1.750e+04 1.278e-08
 39.96866     28.3 1.667e+04 8.984e-09
 39.98821     26.2 1.532e+04 6.317e-09
 40.00777     24.9 1.435e+04 4.758e-09
 40.02732     24.9 1.402e+04 3.902e-09
 40.04272     24.9 1.377e+04 3.208e-09
 40.05250     23.3 1.311e+04 2.647e-09
 40.06642     23.7 1.250e+04 2.182e-09
 40.08597     24.1 1.189e+04 1.748e-09
 40.10552     24.6 1.137e+04 1.363e-09
 40.12507     25.0 1.098e+04 1.055e-09
 40.14462     25.2 1.068e+04 8.212e-10
 40.16417     25.1 1.037e+04 6.505e-10
 40.17484     25.0 1.006e+04 5.408e-10
 40.18462     24.3 1.014e+04 6.069e-10
 40.20327     24.3 9.945e+03 5.530e-10
 40.22282     24.4 9.751e+03 5.128e-10
 40.24237     24.6 9.608e+03 4.968e-10
 40.26192     25.2 9.529e+03 4.804e-10
 40.28147     25.7 9.528e+03 4.819e-10
 40.31089     27.2 9.549e+03 4.471e-10
 40.34022     28.0 9.614e+03 4.192e-10
 40.35967     28.0 9.749e+03 3.830e-10
 40.37922     27.7 9.859e+03 3.672e-10
 40.39877     27.7 9.873e+03 3.687e-10
 40.42820     28.0 1.006e+04 4.300e-10
 40.46739     28.0 1.042e+04 5.526e-10
 40.50649     27.7 1.099e+04 7.804e-10
 40.54560     26.4 1.194e+04 1.241e-09
 40.58470     25.5 1.241e+04 1.598e-09
 40.61392     24.3 1.258e+04 1.652e-09
 40.63027     24.0 1.258e+04 1.580e-09
 40.64005     23.2 1.305e+04 1.868e-09
 40.65293     22.1 1.320e+04 1.772e-09
 40.67248     20.6 1.330e+04 1.781e-09
 40.69203     19.3 1.304e+04 1.875e-09
 40.71158     19.4 1.276e+04 2.181e-09
 40.74100     20.2 1.235e+04 2.102e-09
 40.77033     21.3 1.183e+04 1.725e-09
 40.78978     22.2 1.168e+04 1.550e-09
 40.80933     22.8 1.143e+04 1.298e-09
 40.82888     22.8 1.157e+04 1.214e-09
 40.84165     23.5 1.137e+04 1.090e-09
 40.85143     23.0 1.151e+04 1.271e-09
 40.86798     23.4 1.158e+04 1.295e-09
 40.89740     25.0 1.178e+04 1.349e-09
 40.92673     27.7 1.127e+04 9.955e-10
 40.94618     28.2 1.138e+04 8.792e-10
 40.96573     29.7 1.121e+04 7.087e-10
 40.98528     31.1 1.099e+04 5.799e-10
 41.00483     30.9 1.213e+04 4.919e-10
 41.02438     29.1 1.402e+04 5.752e-10
 41.04393     26.6 1.567e+04 9.615e-10
 41.06348     25.9 1.548e+04 1.595e-09
 41.08304     26.0 1.475e+04 2.374e-09
 41.10259     26.5 1.393e+04 2.911e-09
 41.12214     26.6 1.343e+04 3.182e-09
 41.14169     26.9 1.301e+04 3.243e-09
 41.16124     27.4 1.310e+04 3.052e-09
 41.18079     28.5 1.333e+04 2.805e-09
 41.20034     29.0 1.379e+04 2.437e-09
 41.21782     28.7 1.457e+04 1.884e-09
 41.22759     25.5 1.393e+04 1.215e-09
 41.23944     24.1 1.224e+04 9.162e-10
 41.25899     23.5 1.146e+04 7.945e-10
 41.27854     24.2 1.117e+04 6.764e-10
 41.29809     24.7 1.122e+04 6.592e-10
 41.32751     24.7 1.068e+04 5.012e-10
 41.36671     24.8 1.031e+04 4.072e-10
 41.40581     25.0 1.011e+04 3.684e-10
 41.44491     25.6 1.002e+04 3.566e-10
 41.48401     26.6 9.952e+03 3.468e-10
 41.52311     27.8 9.873e+03 3.342e-10
 41.56221     29.2 9.765e+03 3.217e-10
 41.60132     31.0 9.632e+03 3.021e-10
 41.64042     32.9 9.536e+03 2.765e-10
 41.67952     35.1 9.504e+03 2.447e-10
 41.71862     37.3 9.485e+03 2.155e-10
 41.75772     39.5 9.458e+03 2.015e-10
 41.79579     41.8 9.465e+03 2.053e-10
 41.81534     42.0 9.468e+03 2.355e-10
 41.83592     44.3 9.499e+03 2.554e-10
 41.87502     46.7 9.545e+03 2.843e-10
 41.91412     49.3 9.625e+03 3.236e-10
 41.95322     51.9 9.738e+03 3.682e-10
 41.99232     54.4 9.840e+03 4.071e-10
 42.03142     57.5 1.004e+04 4.550e-10
 42.06065     58.8 1.009e+04 4.556e-10
 42.08010     59.9 1.011e+04 4.594e-10
 42.09965     60.9 1.016e+04 4.738e-10
 42.11920     61.9 1.023e+04 4.975e-10
 42.13875     62.8 1.032e+04 5.304e-10
 42.15831     63.6 1.045e+04 5.785e-10
 42.17499     64.4 1.061e+04 6.504e-10
 42.18476     64.6 1.050e+04 5.467e-10
 42.19741     65.3 1.070e+04 6.351e-10
 42.21696     66.0 1.088e+04 7.480e-10
 42.23651     66.8 1.109e+04 8.895e-10
 42.25606     67.6 1.134e+04 1.064e-09
 42.27561     68.5 1.161e+04 1.258e-09
 42.29516     69.4 1.187e+04 1.446e-09
 42.31471     70.5 1.205e+04 1.582e-09
 42.33426     71.4 1.216e+04 1.612e-09
 42.35381     72.3 1.214e+04 1.583e-09
 42.37336     73.2 1.204e+04 1.469e-09
 42.39291     74.2 1.190e+04 1.291e-09
 42.41246     75.8 1.190e+04 1.273e-09
 42.43201     76.7 1.185e+04 1.137e-09
 42.45156     77.5 1.185e+04 1.005e-09
 42.47111     78.3 1.187e+04 8.892e-10
 42.49066     79.1 1.188e+04 7.980e-10
 42.51021     79.8 1.183e+04 7.280e-10
 42.52976     80.4 1.167e+04 6.769e-10
 42.54931     81.1 1.147e+04 6.627e-10
 42.56886     81.8 1.143e+04 6.689e-10
 42.58841     82.5 1.141e+04 6.998e-10
 42.60796     83.2 1.148e+04 7.541e-10
 42.62751     84.1 1.158e+04 8.351e-10
 42.64706     85.1 1.181e+04 9.347e-10
 42.66661     85.8 1.202e+04 1.004e-09
 42.68616     86.9 1.223e+04 1.055e-09
 42.70572     87.6 1.231e+04 1.060e-09
 42.73514     88.8 1.265e+04 1.114e-09
 42.77434     90.6 1.245e+04 1.078e-09
 42.80356     91.5 1.216e+04 1.036e-09
 42.82302     92.3 1.193e+04 1.003e-09
 42.84170     93.1 1.172e+04 9.749e-10
 42.85148     93.1 1.193e+04 1.088e-09
 42.86212     94.1 1.170e+04 1.088e-09
 42.88167     95.1 1.150e+04 1.100e-09
 42.90122     96.0 1.140e+04 1.113e-09
 42.92077     96.8 1.132e+04 1.116e-09
 42.94032     97.7 1.123e+04 1.110e-09
 42.95987     98.6 1.114e+04 1.084e-09
 42.97942     99.6 1.103e+04 1.029e-09
 42.99023    100.6 1.089e+04 9.460e-10
 43.00001    101.0 1.088e+04 8.712e-10
 43.01852    102.0 1.075e+04 8.291e-10
 43.03807    103.1 1.063e+04 7.739e-10
 43.05762    104.2 1.054e+04 7.138e-10
 43.07717    105.3 1.050e+04 6.531e-10
 43.09672    106.4 1.051e+04 5.957e-10
 43.11627    107.5 1.054e+04 5.487e-10
 43.13582    108.7 1.058e+04 5.128e-10
 43.15537    109.7 1.067e+04 4.836e-10
 43.17492    110.9 1.072e+04 4.812e-10
 43.19447    112.1 1.081e+04 4.861e-10
 43.21402    113.3 1.096e+04 5.085e-10
 43.23358    114.4 1.110e+04 5.652e-10
 43.25313    115.6 1.132e+04 6.554e-10
 43.27268    116.9 1.160e+04 7.861e-10
 43.29223    118.3 1.192e+04 9.641e-10
 43.31178    119.8 1.227e+04 1.190e-09
 43.33133    121.2 1.271e+04 1.455e-09
 43.35088    122.8 1.323e+04 1.772e-09
 43.37043    124.4 1.386e+04 2.151e-09
 43.38998    126.1 1.483e+04 2.565e-09
 43.40953    128.0 1.604e+04 3.016e-09
 43.42414    128.8 1.657e+04 3.175e-09
 43.43387    129.3 1.744e+04 3.463e-09
 43.44364    129.2 1.923e+04 4.136e-09
 43.45342    128.7 2.210e+04 5.434e-09
 43.46319    127.7 2.580e+04 7.455e-09
 43.47297    126.6 2.984e+04 1.027e-08
 43.48274    126.0 3.312e+04 1.404e-08
 43.49252    126.1 3.515e+04 1.925e-08
 43.50229    126.8 3.612e+04 2.581e-08
 43.51207    127.9 3.678e+04 3.189e-08
 43.51809    128.8 3.741e+04 3.166e-08
 43.52298    129.5 3.867e+04 2.797e-08
 43.53162    130.4 4.017e+04 2.759e-08
 43.54140    130.4 3.971e+04 2.539e-08
 43.55117    128.9 3.687e+04 2.305e-08
 43.56095    124.1 3.407e+04 2.461e-08
 43.57072    117.0 3.514e+04 2.499e-08
 43.57768    109.2 3.441e+04 2.792e-08
 43.58257    107.5 2.949e+04 4.597e-07
 43.59027     99.8 2.944e+04 2.972e-07
 43.60005     95.2 2.906e+04 1.620e-07
 43.60982     91.9 2.697e+04 8.779e-08
 43.61960     89.4 2.347e+04 5.499e-08
 43.62937     88.7 2.079e+04 4.126e-08
 43.63915     88.9 1.975e+04 3.328e-08
 43.64892     89.8 1.953e+04 2.627e-08
 43.65870     90.8 1.958e+04 1.994e-08
 43.66847     91.6 1.964e+04 1.511e-08
 43.67825     92.3 1.935e+04 1.125e-08
 43.68802     92.9 1.894e+04 8.239e-09
 43.70273     92.3 1.917e+04 5.663e-09
 43.72233     90.7 1.742e+04 2.662e-09
 43.74188     87.0 1.478e+04 2.047e-09
 43.76143     83.7 1.419e+04 2.113e-09
 43.78099     81.2 1.429e+04 2.902e-09
 43.80054     79.7 1.485e+04 4.480e-09
 43.81515     79.1 1.516e+04 5.640e-09
 43.82488     78.7 1.546e+04 7.598e-09
 43.83465     78.8 1.584e+04 1.070e-08
 43.84443     79.4 1.649e+04 1.435e-08
 43.85914     79.9 1.740e+04 1.872e-08
 43.87874     79.8 1.739e+04 1.801e-08
 43.89829     79.6 1.725e+04 1.458e-08
 43.91784     78.4 1.719e+04 1.011e-08
 43.93739     75.1 1.683e+04 6.685e-09
 43.95694     71.2 1.582e+04 5.219e-09
 43.97649     68.2 1.508e+04 4.758e-09
 43.99604     66.6 1.474e+04 4.515e-09
 44.01559     65.7 1.453e+04 4.120e-09
 44.03514     65.1 1.427e+04 3.392e-09
 44.05469     64.5 1.377e+04 2.494e-09
 44.07424     63.8 1.300e+04 1.711e-09
 44.09379     63.1 1.209e+04 1.185e-09
 44.11334     62.6 1.135e+04 8.876e-10
 44.13289     62.4 1.103e+04 7.381e-10
 44.15244     62.4 1.119e+04 6.379e-10
 44.16533     62.4 1.150e+04 6.032e-10
 44.17510     63.6 1.028e+04 4.298e-10
 44.18491     63.8 1.046e+04 4.166e-10
 44.19468     63.8 1.060e+04 4.718e-10
 44.21109     63.9 1.087e+04 4.853e-10
 44.23064     64.0 1.108e+04 5.179e-10
 44.25019     64.1 1.113e+04 5.620e-10
 44.26974     64.4 1.110e+04 6.243e-10
 44.28929     64.8 1.104e+04 7.018e-10
 44.30884     65.2 1.096e+04 7.841e-10
 44.32840     65.7 1.101e+04 8.844e-10
 44.34795     66.2 1.109e+04 9.929e-10
 44.36750     66.8 1.116e+04 1.020e-09
 44.38705     67.3 1.115e+04 1.014e-09
 44.41647     68.5 1.097e+04 9.043e-10
 44.45567     69.5 1.076e+04 8.122e-10
 44.49477     70.6 1.040e+04 6.612e-10
 44.52400     71.0 1.017e+04 5.854e-10
 44.54345     71.3 1.002e+04 5.446e-10
 44.56300     71.9 9.873e+03 5.050e-10
 44.58255     72.5 9.780e+03 4.847e-10
 44.61197     73.8 9.597e+03 4.168e-10
 44.65117     75.3 9.427e+03 3.693e-10
 44.69027     76.7 9.298e+03 3.295e-10
 44.72937     78.3 9.205e+03 2.989e-10
 44.76847     79.9 9.166e+03 2.801e-10
 44.80757     81.6 9.180e+03 2.775e-10
 44.84204     83.4 9.191e+03 2.815e-10
 44.86159     84.0 9.310e+03 3.260e-10
 44.88578     86.0 9.348e+03 3.312e-10
 44.92488     87.9 9.444e+03 3.484e-10
 44.96398     89.9 9.581e+03 3.735e-10
 45.00308     91.8 9.740e+03 3.998e-10
 45.03231     92.7 9.862e+03 4.351e-10
 45.05176     93.7 1.000e+04 4.735e-10
 45.07131     94.8 1.013e+04 5.075e-10
 45.09086     95.8 1.023e+04 5.321e-10
 45.11041     96.6 1.034e+04 5.547e-10
 45.12996     97.3 1.053e+04 5.873e-10
 45.14951     97.7 1.083e+04 6.469e-10
 45.16906     98.0 1.119e+04 7.490e-10
 45.18861     98.1 1.150e+04 9.096e-10
 45.20816     98.4 1.171e+04 1.124e-09
 45.22771     99.0 1.187e+04 1.341e-09
 45.24726     99.8 1.185e+04 1.470e-09
 45.26681    100.8 1.177e+04 1.456e-09
 45.28636    101.9 1.159e+04 1.353e-09
 45.30591    102.9 1.137e+04 1.139e-09
 45.32546    103.8 1.117e+04 8.761e-10
 45.34042    104.0 1.099e+04 6.230e-10
 45.35020    102.8 1.114e+04 4.711e-10
 45.36456    102.4 1.083e+04 3.396e-10
 45.38411    102.0 1.036e+04 2.762e-10
 45.40367    102.0 9.983e+03 2.599e-10
 45.42322    102.5 9.879e+03 2.593e-10
 45.44277    103.3 9.879e+03 2.609e-10
 45.46232    104.2 9.878e+03 2.689e-10
 45.48187    105.0 9.955e+03 2.845e-10
 45.50142    105.8 1.007e+04 3.114e-10
 45.51834    106.5 1.026e+04 3.579e-10
 45.52811    106.1 1.056e+04 3.813e-10
 45.54052    106.6 1.126e+04 4.973e-10
 45.56007    106.9 1.224e+04 7.209e-10
 45.57962    107.2 1.334e+04 1.132e-09
 45.59917    107.8 1.440e+04 1.868e-09
 45.61872    108.6 1.522e+04 2.973e-09
 45.63827    109.4 1.608e+04 4.679e-09
 45.65288    109.9 1.632e+04 5.330e-09
 45.66261    110.3 1.659e+04 6.011e-09
 45.67239    110.8 1.691e+04 7.190e-09
 45.68216    111.4 1.721e+04 8.691e-09
 45.69194    112.0 1.751e+04 1.026e-08
 45.70171    112.6 1.785e+04 1.198e-08
 45.71149    113.2 1.816e+04 1.356e-08
 45.72126    113.4 1.837e+04 1.461e-08
 45.73104    113.3 1.836e+04 1.467e-08
 45.74081    113.4 1.824e+04 1.439e-08
 45.75059    113.7 1.813e+04 1.380e-08
 45.76036    114.0 1.809e+04 1.326e-08
 45.77014    114.2 1.804e+04 1.289e-08
 45.77991    114.2 1.798e+04 1.257e-08
 45.78969    114.2 1.795e+04 1.228e-08
 45.79946    114.3 1.787e+04 1.209e-08
 45.80924    114.4 1.771e+04 1.197e-08
 45.81901    114.6 1.748e+04 1.189e-08
 45.82879    114.9 1.733e+04 1.180e-08
 45.83856    115.3 1.736e+04 1.176e-08
 45.84834    115.5 1.744e+04 1.187e-08
 45.85648    115.7 1.760e+04 1.216e-08
 45.86137    114.9 1.770e+04 1.315e-08
 45.86789    115.0 1.796e+04 1.373e-08
 45.87766    115.2 1.826e+04 1.468e-08
 45.88744    115.4 1.881e+04 1.578e-08
 45.89721    115.5 1.937e+04 1.695e-08
 45.90699    115.6 1.997e+04 1.841e-08
 45.91676    115.9 2.054e+04 2.006e-08
 45.92654    115.9 2.108e+04 2.148e-08
 45.93276    115.9 2.157e+04 2.185e-08
 45.93765    116.6 2.039e+04 3.374e-08
 45.94609    116.8 2.063e+04 3.516e-08
 45.95587    117.0 2.117e+04 3.536e-08
 45.96564    117.0 2.149e+04 3.355e-08
 45.97542    116.8 2.171e+04 3.057e-08
 45.98519    116.9 2.193e+04 2.735e-08
 45.99497    116.9 2.205e+04 2.418e-08
 46.00474    116.9 2.228e+04 2.111e-08
 46.01452    116.9 2.234e+04 1.856e-08
 46.02923    117.7 2.203e+04 1.903e-08
 46.04883    117.1 2.225e+04 1.473e-08
 46.06838    116.0 2.203e+04 1.136e-08
 46.08793    114.9 2.085e+04 9.129e-09
 46.10748    114.1 1.930e+04 7.557e-09
 46.12703    113.5 1.794e+04 6.442e-09
 46.14658    113.1 1.694e+04 5.553e-09
 46.16613    112.8 1.628e+04 4.769e-09
 46.18505    112.5 1.582e+04 4.027e-09
 46.19483    112.1 1.546e+04 3.803e-09
 46.20523    111.6 1.509e+04 3.152e-09
 46.22478    111.0 1.474e+04 2.573e-09
 46.24433    110.0 1.492e+04 2.073e-09
 46.26388    108.7 1.622e+04 2.134e-09
 46.28343    107.2 1.850e+04 2.568e-09
 46.30298    104.7 2.090e+04 3.884e-09
 46.32253    100.6 2.438e+04 7.443e-09
 46.33715     99.8 2.479e+04 7.821e-09
 46.34687     98.1 2.558e+04 1.069e-08
 46.35665     97.1 2.590e+04 1.538e-08
 46.36642     96.1 2.577e+04 2.251e-08
 46.37620     95.5 2.527e+04 2.976e-08
 46.38597     95.2 2.472e+04 3.446e-08
 46.39575     95.0 2.423e+04 3.699e-08
 46.40552     94.7 2.398e+04 3.696e-08
 46.41530     94.1 2.387e+04 3.563e-08
 46.42507     93.2 2.399e+04 3.314e-08
 46.43485     92.1 2.356e+04 3.097e-08
 46.44462     91.0 2.251e+04 2.868e-08
 46.45440     89.8 2.167e+04 2.534e-08
 46.46417     88.8 2.098e+04 2.290e-08
 46.47395     88.0 2.047e+04 2.111e-08
 46.48373     87.6 2.010e+04 1.991e-08
 46.49844     87.1 1.935e+04 1.616e-08
 46.51552     86.9 1.860e+04 1.272e-08
 46.52529     86.8 1.997e+04 1.863e-08
 46.53759     86.6 1.907e+04 1.401e-08
 46.55714     86.3 1.788e+04 9.059e-09
 46.57669     85.5 1.653e+04 5.405e-09
 46.59624     84.2 1.510e+04 3.243e-09
 46.61579     83.0 1.382e+04 2.114e-09
 46.63534     82.5 1.290e+04 1.614e-09
 46.65489     82.5 1.247e+04 1.398e-09
 46.67444     83.1 1.226e+04 1.292e-09
 46.69399     83.8 1.215e+04 1.228e-09
 46.71354     84.6 1.204e+04 1.173e-09
 46.73309     85.4 1.193e+04 1.124e-09
 46.75264     86.2 1.182e+04 1.077e-09
 46.77219     86.9 1.175e+04 1.050e-09
 46.79174     87.8 1.169e+04 1.040e-09
 46.81129     88.7 1.169e+04 1.044e-09
 46.83084     89.6 1.167e+04 1.055e-09
 46.85039     90.6 1.166e+04 1.071e-09
 46.86154     91.7 1.166e+04 1.099e-09
 46.87132     91.2 1.185e+04 1.119e-09
 46.88949     92.1 1.182e+04 1.150e-09
 46.90904     93.2 1.187e+04 1.217e-09
 46.92859     94.2 1.197e+04 1.312e-09
 46.94814     95.2 1.207e+04 1.428e-09
 46.96769     96.3 1.219e+04 1.561e-09
 46.98724     97.2 1.233e+04 1.718e-09
 47.00679     98.2 1.246e+04 1.891e-09
 47.02635     99.2 1.262e+04 2.086e-09
 47.04590    100.2 1.276e+04 2.281e-09
 47.06545    101.3 1.285e+04 2.422e-09
 47.08500    102.5 1.287e+04 2.460e-09
 47.10306    103.7 1.284e+04 2.421e-09
 47.11284    103.8 1.306e+04 2.609e-09
 47.12410    105.0 1.303e+04 2.577e-09
 47.14365    106.5 1.290e+04 2.431e-09
 47.16320    108.2 1.272e+04 2.213e-09
 47.18275    109.9 1.242e+04 1.967e-09
 47.20230    111.3 1.233e+04 1.743e-09
 47.22185    112.8 1.245e+04 1.739e-09
 47.24140    113.6 1.329e+04 1.903e-09
 47.26095    112.8 1.597e+04 2.594e-09
 47.27556    111.2 1.723e+04 3.147e-09
 47.28529    109.3 1.869e+04 4.044e-09
 47.29507    107.1 1.980e+04 6.090e-09
 47.30484    105.6 2.008e+04 9.325e-09
 47.31462    104.7 1.984e+04 1.213e-08
 47.32439    103.8 1.977e+04 1.218e-08
 47.33417    102.2 1.956e+04 1.131e-08
 47.34394     99.7 1.925e+04 8.648e-09
 47.35372     95.2 1.955e+04 5.249e-09
 47.36349     89.4 1.974e+04 2.967e-09
 47.37327     80.1 2.115e+04 1.285e-09
 47.38304     76.6 2.080e+04 9.874e-10
 47.39775     64.6 2.285e+04 4.685e-10
 47.41735     60.6 1.351e+04 3.232e-10
 47.43690     59.6 8.754e+03 3.416e-10
 47.45645     60.7 8.669e+03 3.498e-10
 47.47600     62.6 8.704e+03 3.866e-10
 47.49555     64.6 8.901e+03 4.418e-10
 47.51510     66.5 9.127e+03 5.016e-10
 47.52826     68.2 9.363e+03 5.667e-10
 47.53803     68.4 9.480e+03 5.987e-10
 47.55421     70.0 9.756e+03 6.798e-10
 47.57376     71.4 9.997e+03 7.661e-10
 47.59331     72.6 1.021e+04 8.624e-10
 47.61286     73.6 1.040e+04 9.682e-10
 47.63241     74.4 1.057e+04 1.073e-09
 47.65196     75.2 1.073e+04 1.165e-09
 47.67151     75.6 1.086e+04 1.219e-09
 47.69061     75.7 1.094e+04 1.234e-09
 47.70038     76.0 1.097e+04 1.216e-09
 47.71061     75.9 1.096e+04 1.186e-09
 47.73016     75.4 1.096e+04 1.165e-09
 47.74971     74.7 1.091e+04 1.128e-09
 47.76926     74.0 1.074e+04 1.039e-09
 47.78881     73.4 1.046e+04 8.973e-10
 47.80836     72.6 1.019e+04 7.359e-10
 47.82791     71.3 1.001e+04 5.957e-10
 47.84746     69.6 9.970e+03 5.300e-10
 47.86701     67.9 9.983e+03 5.331e-10
 47.88656     66.4 1.005e+04 5.609e-10
 47.90611     65.5 1.019e+04 6.267e-10
 47.92566     64.9 1.034e+04 7.078e-10
 47.94521     64.8 1.046e+04 7.768e-10
 47.96476     64.8 1.054e+04 8.122e-10
 47.98431     64.8 1.056e+04 8.161e-10
 48.00386     64.8 1.052e+04 7.972e-10
 48.02341     64.7 1.043e+04 7.574e-10
 48.04296     64.7 1.027e+04 6.877e-10
 48.06251     64.7 1.005e+04 6.053e-10
 48.08206     64.7 9.782e+03 4.878e-10
 48.10162     64.6 9.701e+03 4.578e-10
 48.13104     65.3 9.576e+03 4.222e-10
 48.17024     65.9 9.385e+03 3.617e-10
 48.20934     66.8 9.257e+03 3.182e-10
 48.24844     67.6 9.191e+03 2.861e-10
 48.28754     68.4 9.208e+03 2.568e-10
 48.31677     68.4 9.208e+03 2.435e-10
 48.33622     68.3 9.204e+03 2.332e-10
 48.35577     67.8 9.288e+03 2.390e-10
 48.37532     66.2 9.728e+03 2.833e-10
 48.39487     62.7 1.112e+04 5.324e-10
 48.41442     60.0 1.235e+04 1.191e-09
 48.43397     59.0 1.328e+04 2.200e-09
 48.45352     58.6 1.412e+04 2.960e-09
 48.47307     57.6 1.443e+04 2.990e-09
 48.49262     56.2 1.433e+04 2.715e-09
 48.51217     54.6 1.375e+04 2.043e-09
 48.53172     53.0 1.299e+04 1.524e-09
 48.55127     52.3 1.228e+04 1.172e-09
 48.57082     52.0 1.204e+04 1.042e-09
 48.59037     52.2 1.179e+04 8.889e-10
 48.60992     52.3 1.170e+04 8.084e-10
 48.62947     52.4 1.160e+04 7.491e-10
 48.64903     52.7 1.155e+04 7.264e-10
 48.66858     53.1 1.158e+04 7.323e-10
 48.68813     53.5 1.172e+04 7.670e-10
 48.70768     53.7 1.195e+04 8.545e-10
 48.72723     53.9 1.217e+04 9.963e-10
 48.74678     54.2 1.236e+04 1.187e-09
 48.76633     54.5 1.255e+04 1.404e-09
 48.78588     54.7 1.273e+04 1.595e-09
 48.80543     54.7 1.273e+04 1.606e-09
 48.82498     54.7 1.260e+04 1.534e-09
 48.84453     54.9 1.224e+04 1.333e-09
 48.86169     55.2 1.183e+04 1.089e-09
 48.87146     55.6 1.192e+04 1.133e-09
 48.87548     55.8 1.158e+04 9.366e-10
 48.88525     54.6 1.142e+04 8.373e-10
 48.90318     54.8 1.116e+04 6.986e-10
 48.92273     55.0 1.095e+04 5.956e-10
 48.94228     55.3 1.077e+04 5.215e-10
 48.96183     55.6 1.061e+04 4.707e-10
 48.98138     56.1 1.046e+04 4.381e-10
 49.00093     56.7 1.033e+04 4.235e-10
 49.02048     57.5 1.030e+04 4.265e-10
 49.04003     58.3 1.030e+04 4.387e-10
 49.05958     59.1 1.035e+04 4.612e-10
 49.07913     60.0 1.043e+04 4.957e-10
 49.09868     60.9 1.055e+04 5.403e-10
 49.11823     61.7 1.064e+04 5.947e-10
 49.13778     62.5 1.075e+04 6.588e-10
 49.15733     63.4 1.089e+04 7.394e-10
 49.17689     64.2 1.104e+04 8.281e-10
 49.19644     65.1 1.117e+04 9.162e-10
 49.21599     65.9 1.129e+04 9.949e-10
 49.23554     66.8 1.138e+04 1.056e-09
 49.25509     67.6 1.147e+04 1.100e-09
 49.27464     68.2 1.154e+04 1.129e-09
 49.29419     68.8 1.160e+04 1.149e-09
 49.31374     69.3 1.168e+04 1.177e-09
 49.33329     69.6 1.181e+04 1.230e-09
 49.35284     69.7 1.198e+04 1.326e-09
 49.37239     69.6 1.219e+04 1.480e-09
 49.39194     69.6 1.244e+04 1.690e-09
 49.41149     69.5 1.266e+04 1.896e-09
 49.43104     69.5 1.276e+04 2.009e-09
 49.45059     69.4 1.275e+04 1.997e-09
 49.46303     69.4 1.265e+04 1.900e-09
 49.47280     69.4 1.252e+04 1.825e-09
 49.48969     69.4 1.252e+04 1.798e-09
 49.50924     69.5 1.249e+04 1.714e-09
 49.52840     69.5 1.241e+04 1.571e-09
 49.53818     68.6 1.246e+04 1.523e-09
 49.54834     68.6 1.229e+04 1.317e-09
 49.56789     68.6 1.206e+04 1.132e-09
 49.58744     68.6 1.180e+04 9.880e-10
 49.60699     68.8 1.153e+04 8.822e-10
 49.62654     69.0 1.130e+04 8.066e-10
 49.64609     69.3 1.110e+04 7.530e-10
 49.66564     69.7 1.093e+04 7.137e-10
 49.68519     70.1 1.075e+04 6.769e-10
 49.70474     70.4 1.063e+04 6.474e-10
 49.73417     71.4 1.061e+04 6.705e-10
 49.77337     72.6 1.037e+04 6.219e-10
 49.81247     73.9 1.013e+04 5.614e-10
 49.85157     75.3 9.889e+03 4.931e-10
 49.89067     76.7 9.670e+03 4.290e-10
 49.92977     78.1 9.476e+03 3.792e-10
 49.96887     79.6 9.392e+03 3.621e-10
 50.00797     81.2 9.415e+03 3.656e-10
 50.04099     82.5 9.489e+03 3.809e-10
 50.06054     82.6 9.654e+03 4.522e-10
 50.07630     83.1 9.685e+03 4.609e-10
 50.09575     83.5 9.727e+03 4.772e-10
 50.11530     84.0 9.807e+03 5.141e-10
 50.13485     84.3 9.927e+03 5.596e-10
 50.15440     84.5 1.007e+04 6.089e-10
 50.17395     84.5 1.021e+04 6.611e-10
 50.19350     84.3 1.040e+04 7.278e-10
 50.20489     84.0 1.060e+04 7.982e-10
 50.21467     84.2 1.076e+04 8.838e-10
 50.23260     83.6 1.097e+04 9.700e-10
 50.25216     82.8 1.104e+04 1.017e-09
 50.27171     81.8 1.101e+04 1.015e-09
 50.29126     81.4 1.096e+04 1.008e-09
 50.32068     80.6 1.084e+04 9.765e-10
 50.35988     79.7 1.051e+04 8.301e-10
 50.39898     78.8 9.985e+03 6.023e-10
 50.43808     77.9 9.318e+03 3.929e-10
 50.47718     77.2 8.939e+03 3.099e-10
 50.51628     76.9 8.931e+03 3.064e-10
 50.55538     76.7 8.941e+03 3.054e-10
 50.59448     76.5 8.905e+03 2.915e-10
 50.63358     76.5 8.761e+03 2.430e-10
 50.67268     76.5 8.525e+03 1.715e-10
 50.71178     76.2 8.302e+03 1.149e-10
 50.75088     75.6 8.249e+03 9.331e-11
 50.78999     75.1 8.272e+03 9.393e-11
 50.82909     74.4 8.417e+03 1.041e-10
 50.86819     73.6 8.698e+03 1.403e-10
 50.90729     72.8 8.999e+03 1.938e-10
 50.94639     71.9 9.127e+03 2.178e-10
 50.98549     71.5 9.088e+03 2.107e-10
 51.02459     71.6 8.966e+03 1.770e-10
 51.06369     71.8 8.861e+03 1.221e-10
 51.10279     71.8 8.848e+03 7.311e-11
 51.14189     71.5 8.907e+03 4.798e-11
 51.18099     71.4 8.928e+03 4.670e-11
 51.21609     71.4 8.935e+03 5.065e-11
 51.23564     70.4 8.961e+03 5.668e-11
 51.25919     70.7 9.025e+03 8.502e-11
 51.29829     71.4 9.151e+03 1.348e-10
 51.33740     72.4 9.274e+03 1.784e-10
 51.37650     73.1 9.286e+03 1.819e-10
 51.41560     74.0 9.158e+03 1.610e-10
 51.45470     75.1 8.920e+03 1.068e-10
 51.49380     76.2 8.714e+03 5.772e-11
 51.52874     76.9 8.587e+03 3.050e-11
 51.54829     77.3 8.580e+03 3.904e-11
 51.57200     78.0 8.409e+03 2.533e-11
 51.61110     79.0 8.236e+03 2.146e-11
 51.65020     80.4 8.135e+03 2.049e-11
 51.68930     82.1 8.107e+03 2.040e-11
 51.72840     83.8 8.109e+03 2.047e-11
 51.76750     85.4 8.119e+03 2.081e-11
 51.80660     87.0 8.147e+03 2.202e-11
 51.84570     88.4 8.182e+03 2.474e-11
 51.88481     89.9 8.235e+03 2.932e-11
 51.92391     91.3 8.314e+03 3.588e-11
 51.96301     92.8 8.419e+03 4.448e-11
 52.00211     94.2 8.543e+03 5.500e-11
 52.04121     95.6 8.674e+03 6.756e-11
 52.08031     96.8 8.799e+03 8.320e-11
 52.11941     98.0 8.918e+03 1.045e-10
 52.15851     99.2 9.065e+03 1.354e-10
 52.19761    100.3 9.272e+03 1.763e-10
 52.23671    101.3 9.533e+03 2.216e-10
 52.27581    101.9 9.795e+03 2.582e-10
 52.31491    101.9 9.976e+03 2.797e-10
 52.35401    101.8 1.010e+04 2.938e-10
 52.39118    101.7 1.019e+04 3.123e-10
 52.41073    100.4 1.056e+04 4.612e-10
 52.43222    100.3 1.064e+04 4.909e-10
 52.47132    100.4 1.069e+04 5.021e-10
 52.51042    100.5 1.077e+04 4.946e-10
 52.54952    100.8 1.084e+04 4.939e-10
 52.57875    101.3 1.086e+04 4.986e-10
 52.59820    101.5 1.097e+04 5.218e-10
 52.61775    101.5 1.111e+04 5.618e-10
 52.63730    101.5 1.122e+04 6.028e-10
 52.65685    101.5 1.130e+04 6.424e-10
 52.67640    101.7 1.140e+04 6.856e-10
 52.69595    102.0 1.154e+04 7.346e-10
 52.71550    102.2 1.170e+04 7.776e-10
 52.73505    102.3 1.185e+04 7.971e-10
 52.75460    102.2 1.204e+04 8.223e-10
 52.77415    100.7 1.322e+04 9.496e-10
 52.79370     91.2 1.990e+04 1.835e-09
 52.80832     80.1 2.394e+04 5.294e-09
 52.81804     74.2 2.280e+04 1.772e-08
 52.82782     74.4 2.111e+04 4.515e-08
 52.83759     75.9 2.027e+04 6.654e-08
 52.84737     77.7 2.021e+04 6.666e-08
 52.85714     79.3 2.029e+04 6.042e-08
 52.86692     79.5 2.095e+04 3.965e-08
 52.87654     78.8 2.273e+04 1.756e-08
 52.88143     78.3 2.250e+04 1.633e-08
 52.89141     73.5 2.523e+04 5.021e-09
 52.91100     59.4 2.270e+04 9.125e-10
 52.93055     49.9 1.284e+04 8.603e-10
 52.95010     48.7 1.197e+04 8.572e-10
 52.96966     48.4 1.198e+04 8.954e-10
 52.98831     48.5 1.209e+04 9.814e-10
 52.99808     47.8 1.206e+04 9.941e-10
 53.00876     47.9 1.210e+04 1.207e-09
 53.02831     48.2 1.209e+04 1.446e-09
 53.04786     48.8 1.206e+04 1.665e-09
 53.06741     49.5 1.212e+04 1.832e-09
 53.08696     50.1 1.224e+04 1.820e-09
 53.10651     50.2 1.235e+04 1.774e-09
 53.13593     50.9 1.243e+04 1.643e-09
 53.17513     51.9 1.213e+04 1.387e-09
 53.21423     52.8 1.179e+04 9.999e-10
 53.25333     53.7 1.148e+04 6.678e-10
 53.28256     54.1 1.136e+04 5.525e-10
 53.30201     54.1 1.139e+04 4.992e-10
 53.32156     54.1 1.144e+04 4.787e-10
 53.34111     54.3 1.142e+04 4.759e-10
 53.36066     54.5 1.134e+04 4.785e-10
 53.38021     54.8 1.119e+04 4.842e-10
 53.39976     55.2 1.108e+04 4.931e-10
 53.41931     55.4 1.103e+04 5.090e-10
 53.43886     55.3 1.107e+04 5.330e-10
 53.45841     55.0 1.130e+04 5.928e-10
 53.47796     54.0 1.191e+04 7.487e-10
 53.49752     52.8 1.272e+04 1.063e-09
 53.51707     52.1 1.324e+04 1.495e-09
 53.53662     51.8 1.326e+04 1.739e-09
 53.54824     51.7 1.315e+04 1.691e-09
 53.55802     51.7 1.322e+04 1.769e-09
 53.57572     51.4 1.298e+04 1.620e-09
 53.58563     50.5 1.265e+04 1.316e-09
 53.59540     50.1 1.231e+04 1.248e-09
 53.61482     49.3 1.209e+04 1.128e-09
 53.63437     48.6 1.209e+04 1.131e-09
 53.65392     46.8 1.286e+04 1.335e-09
 53.67347     39.5 1.675e+04 3.301e-09
 53.69302     33.5 1.936e+04 9.893e-09
 53.70763     32.9 1.961e+04 1.579e-08
 53.71736     33.1 1.996e+04 2.189e-08
 53.72713     33.3 2.040e+04 2.352e-08
 53.73691     33.1 2.043e+04 2.311e-08
 53.75162     32.6 1.987e+04 1.842e-08
 53.77122     30.8 1.855e+04 8.797e-09
 53.79077     26.5 1.570e+04 3.505e-09
 53.81032     22.2 1.250e+04 1.700e-09
 53.82987     22.1 1.208e+04 1.196e-09
 53.84942     21.8 1.147e+04 8.422e-10
 53.87884     21.4 1.146e+04 6.916e-10
 53.91804     20.9 1.093e+04 5.036e-10
 53.94727     20.8 1.054e+04 4.474e-10
 53.96672     21.0 1.048e+04 4.997e-10
 53.98627     22.1 1.019e+04 4.888e-10
 54.00582     22.3 1.024e+04 5.015e-10
 54.03525     23.6 9.987e+03 4.475e-10
 54.07445     24.6 9.984e+03 3.910e-10
 54.11355     25.2 1.000e+04 3.409e-10
 54.15265     25.8 9.944e+03 3.179e-10
 54.17327     26.0 1.007e+04 3.335e-10
 54.18295     26.4 9.844e+03 3.240e-10
 54.20133     26.9 9.871e+03 3.314e-10
 54.21496     26.8 1.006e+04 3.617e-10
 54.22473     27.0 1.003e+04 3.703e-10
 54.24043     27.2 1.021e+04 4.189e-10
 54.25998     27.0 1.047e+04 5.345e-10
 54.27953     27.3 1.058e+04 6.757e-10
 54.29908     27.4 1.089e+04 8.932e-10
 54.31863     27.6 1.124e+04 1.173e-09
 54.33818     28.1 1.154e+04 1.462e-09
 54.35773     28.5 1.191e+04 1.780e-09
 54.38715     29.7 1.175e+04 1.561e-09
 54.42635     31.3 1.104e+04 1.102e-09
 54.46545     32.5 1.006e+04 5.672e-10
 54.50455     33.1 9.226e+03 2.560e-10
 54.54365     33.0 8.756e+03 1.309e-10
 54.58276     33.2 8.387e+03 9.688e-11
 54.62186     34.0 8.146e+03 9.139e-11
 54.66096     35.0 8.149e+03 9.345e-11
 54.70006     35.5 8.238e+03 1.051e-10
 54.73916     34.7 8.642e+03 1.472e-10
 54.76092     32.9 9.718e+03 3.506e-10
 54.78047     34.6 8.955e+03 1.853e-10
 54.81736     33.3 9.785e+03 3.842e-10
 54.85646     32.6 1.026e+04 6.087e-10
 54.89556     31.5 1.059e+04 6.259e-10
 54.93466     29.5 1.065e+04 5.974e-10
 54.96389     27.7 1.114e+04 6.555e-10
 54.98334     25.9 1.147e+04 7.638e-10
 55.00289     24.9 1.130e+04 8.565e-10
 55.02244     24.6 1.108e+04 8.949e-10
 55.04199     24.5 1.098e+04 8.712e-10
 55.06154     24.5 1.088e+04 8.011e-10
 55.08109     24.3 1.078e+04 7.104e-10
 55.10064     22.9 1.131e+04 6.626e-10
 55.12020     15.4 1.594e+04 1.173e-09
 55.13975      8.8 1.687e+04 3.339e-09
 55.15930      6.8 1.601e+04 7.162e-09
 55.17885      6.8 1.708e+04 9.567e-09
 55.19346      6.8 1.776e+04 8.866e-09
 55.20319      6.3 1.786e+04 9.040e-09
 55.21790      2.3 1.910e+04 4.844e-09
 55.23750     -5.3 1.626e+04 2.121e-09
 55.25705    -12.0 1.229e+04 1.181e-09
 55.27660    -13.4 1.129e+04 9.625e-10
 55.29615    -13.4 1.105e+04 8.286e-10
 55.31570    -13.3 1.099e+04 6.164e-10
 55.33525    -14.2 1.084e+04 4.146e-10
 55.34827    -15.8 1.030e+04 2.882e-10
 55.35804    -14.1 1.082e+04 3.786e-10
 55.37435    -15.6 1.022e+04 2.884e-10
 55.40377    -16.0 9.781e+03 2.489e-10
 55.44297    -15.6 9.520e+03 2.383e-10
 55.48207    -14.7 9.235e+03 2.197e-10
 55.52117    -13.4 8.999e+03 1.701e-10
 55.54858    -12.2 8.851e+03 1.181e-10
 55.56813    -13.2 8.889e+03 1.192e-10
 55.59937    -12.5 8.744e+03 8.607e-11
 55.63848    -11.8 8.705e+03 7.890e-11
 55.67758    -11.5 9.020e+03 8.962e-11
 55.71668    -11.9 9.279e+03 1.546e-10
 55.75578    -12.0 9.703e+03 3.054e-10
 55.79488    -11.3 1.022e+04 5.285e-10
 55.83398    -10.6 1.061e+04 6.547e-10
 55.87308    -11.0 1.053e+04 5.980e-10
 55.91218    -11.6 1.012e+04 3.907e-10
 55.93601    -13.5 1.011e+04 3.480e-10
 55.95556    -13.3 1.005e+04 3.093e-10
 55.99038    -16.9 1.125e+04 5.941e-10
 56.01961    -20.1 1.250e+04 1.518e-09
 56.03906    -20.9 1.322e+04 2.346e-09
 56.05861    -21.1 1.411e+04 3.764e-09
 56.07816    -21.1 1.443e+04 4.110e-09
 56.09771    -21.2 1.465e+04 3.834e-09
 56.11726    -22.9 1.408e+04 2.113e-09
 56.13681    -25.8 1.276e+04 1.200e-09
 56.15636    -26.9 1.223e+04 1.012e-09
 56.18579    -27.6 1.151e+04 7.970e-10
 56.22499    -27.2 1.083e+04 5.670e-10
 56.26409    -25.8 1.043e+04 4.330e-10
 56.30319    -24.6 1.027e+04 3.742e-10
 56.34229    -23.2 1.018e+04 3.564e-10
 56.38139    -21.6 1.010e+04 3.448e-10
 56.42049    -20.1 1.006e+04 3.348e-10
 56.45959    -18.5 1.010e+04 3.403e-10
 56.49869    -16.9 1.008e+04 3.632e-10
 56.53779    -15.2 1.005e+04 3.744e-10
 56.57689    -13.5 1.003e+04 3.664e-10
 56.61599    -11.8 1.001e+04 3.533e-10
 56.65509    -10.1 9.933e+03 3.188e-10
 56.69419     -8.5 9.788e+03 2.584e-10
 56.73330     -7.1 9.639e+03 2.069e-10
 56.77240     -5.7 9.520e+03 1.746e-10
 56.81150     -4.2 9.425e+03 1.566e-10
 56.85060     -2.6 9.319e+03 1.411e-10
 56.88201     -0.9 9.217e+03 1.243e-10
 56.90156     -1.3 9.128e+03 1.223e-10
 56.92880      0.5 9.098e+03 1.119e-10
 56.96790      2.4 8.997e+03 9.563e-11
 57.00700      4.4 8.973e+03 7.799e-11
 57.04610      6.2 9.032e+03 6.249e-11
 57.08520      7.6 9.065e+03 5.338e-11
 57.11111      9.1 9.070e+03 5.047e-11
 57.13066      9.4 9.096e+03 5.512e-11
 57.16340     11.3 8.961e+03 5.809e-11
 57.20250     13.4 9.035e+03 5.336e-11
 57.24160     15.1 9.173e+03 5.257e-11
 57.28071     16.0 9.354e+03 5.921e-11
 57.31981     16.5 9.579e+03 8.661e-11
 57.35891     16.8 9.919e+03 1.629e-10
 57.39801     17.5 1.022e+04 3.219e-10
 57.43711     18.7 1.050e+04 4.302e-10
 57.47621     19.4 1.061e+04 4.080e-10
 57.51531     20.0 1.071e+04 3.002e-10
 57.55441     19.9 1.093e+04 2.197e-10
 57.59351     20.3 1.090e+04 2.140e-10
 57.63261     21.1 1.102e+04 2.267e-10
 57.67171     21.9 1.119e+04 2.742e-10
 57.71081     22.4 1.141e+04 3.740e-10
 57.74991     22.6 1.174e+04 5.744e-10
 57.78901     21.6 1.236e+04 9.029e-10
 57.81824     19.6 1.274e+04 1.006e-09
 57.83770     17.0 1.317e+04 1.160e-09
 57.85725     14.8 1.396e+04 1.224e-09
 57.87680     11.2 1.431e+04 1.734e-09
 57.89635      9.2 1.381e+04 2.234e-09
 57.91590      8.1 1.358e+04 2.369e-09
 57.94532      6.8 1.287e+04 1.814e-09
 57.98452      5.9 1.193e+04 8.925e-10
 58.02362      5.0 1.071e+04 4.424e-10
 58.06272      4.8 9.868e+03 2.824e-10
 58.10182      5.4 9.612e+03 2.008e-10
 58.14092      5.4 9.498e+03 1.611e-10
 58.18002      5.3 9.359e+03 1.603e-10
 58.21544      6.1 9.064e+03 2.018e-10
 58.23499      6.2 9.073e+03 2.023e-10
 58.25822      7.5 8.861e+03 1.898e-10
 58.28620      8.6 8.793e+03 1.467e-10
 58.30575      9.4 8.982e+03 1.714e-10
 58.33642      9.3 8.834e+03 1.086e-10
 58.37553      8.8 8.737e+03 9.622e-11
 58.41463      8.6 8.640e+03 1.159e-10
 58.45373      9.4 8.546e+03 1.464e-10
 58.49283     10.4 8.620e+03 1.623e-10
 58.53193     11.0 8.769e+03 1.692e-10
 58.57103     10.7 8.982e+03 2.005e-10
 58.61013      8.7 9.814e+03 3.340e-10
 58.64923      7.8 1.038e+04 7.454e-10
 58.68833      9.0 1.060e+04 1.093e-09
 58.72743      9.7 1.068e+04 5.785e-10
 58.76653      5.8 1.087e+04 4.683e-10
 58.80563      1.6 1.098e+04 7.474e-10
 58.84473      0.6 1.159e+04 1.354e-09
 58.87365      0.6 1.183e+04 1.587e-09
 58.88333      0.7 1.188e+04 1.540e-09
 58.89174      1.0 1.182e+04 1.418e-09
 58.90151      1.7 1.186e+04 1.451e-09
 58.91297      0.9 1.168e+04 7.742e-10
 58.93252     -1.0 1.119e+04 5.419e-10
 58.96194     -4.4 1.019e+04 2.851e-10
 59.00114     -5.6 9.767e+03 2.357e-10
 59.04024     -5.6 9.681e+03 2.272e-10
 59.07934     -5.0 9.586e+03 1.955e-10
 59.11844     -4.3 9.508e+03 1.369e-10
 59.15754     -3.9 9.468e+03 8.686e-11
 59.19664     -3.9 9.369e+03 6.693e-11
 59.23574     -3.7 9.321e+03 6.465e-11
 59.27484     -3.4 9.164e+03 7.932e-11
 59.31394     -2.9 9.115e+03 9.936e-11
 59.35304     -2.6 9.169e+03 1.196e-10
 59.39214     -2.4 9.262e+03 1.382e-10
 59.43125     -2.2 9.264e+03 1.534e-10
 59.46129     -2.0 9.153e+03 1.569e-10
 59.48084     -0.4 8.994e+03 1.158e-10
 59.50945     -0.2 8.903e+03 1.145e-10
 59.54855      0.1 8.906e+03 1.135e-10
 59.56842      0.1 9.088e+03 1.181e-10
 59.58797     -0.2 9.136e+03 1.173e-10
 59.62675     -1.1 9.339e+03 1.608e-10
 59.66585     -1.2 9.413e+03 2.603e-10
 59.70495     -0.5 9.452e+03 3.275e-10
 59.74405      0.3 9.408e+03 3.389e-10
 59.78315      1.0 8.956e+03 2.509e-10
 59.82225      1.4 8.430e+03 1.575e-10
 59.86135      2.2 7.969e+03 1.055e-10
 59.90045      3.5 7.650e+03 7.624e-11
 59.93955      5.0 7.454e+03 5.707e-11
 59.97866      6.5 7.378e+03 4.376e-11
 60.01776      7.5 7.336e+03 3.767e-11
 60.05686      8.8 7.249e+03 4.026e-11
 60.09596     10.4 7.203e+03 4.935e-11
 60.13506     12.4 7.211e+03 5.894e-11
 60.17416     14.3 7.248e+03 6.378e-11
 60.21326     15.9 7.367e+03 6.705e-11
 60.25236     16.9 7.634e+03 8.006e-11
 60.29146     16.7 8.100e+03 1.231e-10
 60.33056     16.8 8.675e+03 2.402e-10
 60.36966     17.9 9.073e+03 3.811e-10
 60.40876     19.0 9.258e+03 4.180e-10
 60.44786     19.2 9.252e+03 3.633e-10
 60.48696     18.6 9.173e+03 3.326e-10
 60.52607     18.0 9.179e+03 3.585e-10
 60.56517     17.6 9.399e+03 4.652e-10
 60.60427     16.2 1.081e+04 7.801e-10
 60.63349     15.6 1.208e+04 1.130e-09
 60.64597      9.6 1.495e+04 2.564e-09
 60.65574     12.9 1.376e+04 1.848e-09
 60.67250      7.6 1.678e+04 3.912e-09
 60.69205      3.7 1.777e+04 9.376e-09
 60.71160      2.5 1.805e+04 1.347e-08
 60.73115      1.9 1.725e+04 1.157e-08
 60.74576      0.0 1.633e+04 4.896e-09
 60.75549     -0.4 1.607e+04 4.460e-09
 60.77020     -2.8 1.616e+04 2.566e-09
 60.78980    -12.9 1.349e+04 1.109e-09
 60.80935    -19.4 1.290e+04 9.335e-10
 60.82890    -22.6 1.311e+04 1.504e-09
 60.84845    -23.8 1.305e+04 2.287e-09
 60.86800    -24.0 1.342e+04 2.798e-09
 60.88755    -24.4 1.374e+04 2.893e-09
 60.90166    -27.2 1.453e+04 2.415e-09
 60.91143    -28.1 1.468e+04 2.595e-09
 60.92665    -32.6 1.342e+04 1.831e-09
 60.94620    -35.9 1.264e+04 1.686e-09
 60.96575    -36.9 1.232e+04 1.805e-09
 60.98530    -37.6 1.283e+04 2.094e-09
 61.00485    -38.9 1.358e+04 2.299e-09
 61.02440    -40.9 1.447e+04 2.615e-09
 61.04395    -43.3 1.522e+04 3.153e-09
 61.06351    -45.4 1.565e+04 3.949e-09
 61.08306    -47.0 1.587e+04 4.825e-09
 61.10261    -48.4 1.592e+04 5.510e-09
 61.12216    -49.6 1.591e+04 5.910e-09
 61.14171    -50.4 1.589e+04 6.147e-09
 61.16126    -51.1 1.592e+04 6.249e-09
 61.18081    -51.7 1.584e+04 6.142e-09
 61.20036    -52.2 1.549e+04 5.129e-09
 61.21991    -53.1 1.493e+04 3.733e-09
 61.23351    -54.4 1.426e+04 2.568e-09
 61.24329    -54.6 1.404e+04 2.244e-09
 61.25901    -56.4 1.322e+04 1.631e-09
 61.27856    -57.3 1.263e+04 1.398e-09
 61.29811    -57.4 1.244e+04 1.322e-09
 61.31766    -57.8 1.221e+04 1.241e-09
 61.33721    -58.0 1.220e+04 1.236e-09
 61.35676    -58.9 1.229e+04 1.213e-09
 61.37631    -60.4 1.239e+04 1.205e-09
 61.39586    -62.2 1.239e+04 1.286e-09
 61.41541    -63.6 1.230e+04 1.480e-09
 61.43496    -64.5 1.227e+04 1.623e-09
 61.45451    -65.2 1.224e+04 1.649e-09
 61.47406    -65.7 1.197e+04 1.502e-09
 61.49361    -66.2 1.157e+04 1.161e-09
 61.51316    -67.1 1.114e+04 8.447e-10
 61.53271    -68.4 1.069e+04 6.288e-10
 61.55226    -69.5 1.034e+04 5.114e-10
 61.56837    -70.0 1.017e+04 4.594e-10
 61.57815    -69.5 1.059e+04 6.482e-10
 61.59136    -69.7 1.045e+04 5.851e-10
 61.61092    -69.7 1.042e+04 5.413e-10
 61.63047    -69.5 1.036e+04 4.999e-10
 61.65002    -69.5 1.019e+04 4.389e-10
 61.66957    -69.8 9.879e+03 3.706e-10
 61.69899    -70.0 9.540e+03 3.183e-10
 61.73819    -69.7 9.091e+03 2.572e-10
 61.77729    -68.7 8.634e+03 1.986e-10
 61.81148    -67.7 8.318e+03 1.572e-10
 61.83103    -67.9 8.265e+03 1.429e-10
 61.85549    -67.0 8.195e+03 1.353e-10
 61.89459    -66.3 8.166e+03 1.336e-10
 61.93369    -65.8 8.154e+03 1.372e-10
 61.97279    -65.5 8.183e+03 1.511e-10
 62.01189    -65.4 8.217e+03 1.665e-10
 62.05099    -65.5 8.231e+03 1.803e-10
 62.09009    -65.7 8.266e+03 1.965e-10
 62.12920    -66.2 8.369e+03 2.206e-10
 62.16830    -66.9 8.589e+03 2.610e-10
 62.20740    -67.7 8.888e+03 3.167e-10
 62.23528    -68.6 9.101e+03 3.614e-10
 62.25483    -68.8 9.330e+03 4.034e-10
 62.28560    -70.0 9.305e+03 3.990e-10
 62.32470    -70.9 9.112e+03 3.447e-10
 62.36380    -71.9 9.035e+03 3.110e-10
 62.40290    -73.4 9.094e+03 3.117e-10
 62.44200    -75.6 9.962e+03 4.819e-10
 62.48110    -77.3 1.107e+04 9.635e-10
 62.52020    -78.5 1.181e+04 1.540e-09
 62.55930    -79.8 1.208e+04 1.767e-09
 62.58853    -80.4 1.193e+04 1.713e-09
 62.60798    -80.7 1.183e+04 1.611e-09
 62.62753    -81.4 1.136e+04 1.322e-09
 62.64708    -81.6 1.122e+04 1.222e-09
 62.67651    -82.1 1.082e+04 1.004e-09
 62.71571    -81.3 1.079e+04 9.569e-10
 62.75481    -80.6 1.111e+04 9.999e-10
 62.79391    -80.5 1.148e+04 1.145e-09
 62.82314    -80.7 1.206e+04 1.578e-09
 62.84259    -81.2 1.227e+04 1.789e-09
 62.86214    -81.6 1.250e+04 2.006e-09
 62.88169    -82.2 1.275e+04 2.219e-09
 62.90124    -82.8 1.300e+04 2.440e-09
 62.91158    -83.5 1.323e+04 2.599e-09
 62.92135    -84.0 1.292e+04 2.159e-09
 62.94034    -85.0 1.323e+04 2.365e-09
 62.95989    -86.2 1.343e+04 2.478e-09
 62.97944    -87.7 1.351e+04 2.415e-09
 62.99615    -89.2 1.335e+04 2.217e-09
 63.00593    -89.6 1.283e+04 1.678e-09
 63.01854    -90.8 1.256e+04 1.442e-09
 63.03809    -91.8 1.234e+04 1.275e-09
 63.05764    -92.8 1.218e+04 1.171e-09
 63.07719    -93.6 1.207e+04 1.127e-09
 63.09674    -94.3 1.202e+04 1.125e-09
 63.11629    -94.7 1.202e+04 1.140e-09
 63.13584    -95.0 1.199e+04 1.138e-09
 63.15539    -95.2 1.196e+04 1.109e-09
 63.17494    -95.3 1.194e+04 1.028e-09
 63.19449    -95.6 1.188e+04 9.081e-10
 63.21404    -95.9 1.175e+04 7.839e-10
 63.23360    -96.3 1.155e+04 6.811e-10
 63.26302    -96.3 1.129e+04 6.175e-10
 63.30222    -95.7 1.088e+04 5.599e-10
 63.34132    -94.7 1.080e+04 5.632e-10
 63.37055    -94.1 1.081e+04 6.303e-10
 63.39000    -94.1 1.097e+04 7.395e-10
 63.40955    -94.0 1.120e+04 8.962e-10
 63.42910    -94.0 1.146e+04 1.074e-09
 63.44865    -94.0 1.170e+04 1.260e-09
 63.46820    -94.0 1.193e+04 1.414e-09
 63.48775    -94.1 1.211e+04 1.505e-09
 63.50730    -94.7 1.219e+04 1.526e-09
 63.52685    -95.9 1.222e+04 1.498e-09
 63.54640    -97.9 1.219e+04 1.459e-09
 63.56595   -100.5 1.250e+04 1.719e-09
 63.57829   -103.3 1.329e+04 2.366e-09
 63.58627   -104.2 1.325e+04 2.372e-09
 63.59348   -104.8 1.323e+04 2.368e-09
 63.60505   -106.8 1.398e+04 3.285e-09
 63.62460   -108.5 1.468e+04 4.374e-09
 63.64415   -110.3 1.515e+04 5.173e-09
 63.66370   -112.4 1.527e+04 5.387e-09
 63.68325   -114.4 1.520e+04 5.280e-09
 63.70280   -116.0 1.468e+04 4.246e-09
 63.72235   -117.2 1.401e+04 3.151e-09
 63.74190   -118.2 1.347e+04 2.489e-09
 63.76146   -118.8 1.322e+04 2.191e-09
 63.78101   -119.0 1.316e+04 2.087e-09
 63.81043   -119.2 1.322e+04 2.088e-09
 63.84963   -119.5 1.331e+04 2.087e-09
 63.88873   -120.0 1.340e+04 2.120e-09
 63.92783   -120.6 1.344e+04 1.988e-09
 63.96693   -120.8 1.322e+04 1.654e-09
 64.00603   -120.8 1.283e+04 1.192e-09
 64.04513   -120.3 1.238e+04 7.899e-10
 64.08423   -119.4 1.200e+04 5.240e-10
 64.12333   -118.3 1.176e+04 3.672e-10
 64.16167   -117.2 1.164e+04 2.842e-10
 64.18122   -116.8 1.161e+04 2.763e-10
 64.20153   -115.5 1.154e+04 2.392e-10
 64.24063   -114.1 1.149e+04 2.271e-10
 64.27974   -112.6 1.149e+04 2.251e-10
 64.31884   -111.3 1.150e+04 2.291e-10
 64.35794   -110.0 1.149e+04 2.503e-10
 64.39704   -108.6 1.145e+04 2.730e-10
 64.43614   -107.2 1.139e+04 2.841e-10
 64.47524   -105.6 1.137e+04 2.857e-10
 64.51434   -103.9 1.121e+04 2.815e-10
 64.55344   -102.1 1.106e+04 2.590e-10
 64.59254   -100.4 1.099e+04 2.334e-10
 64.63164    -98.6 1.093e+04 2.121e-10
 64.67074    -96.8 1.086e+04 1.956e-10
 64.70984    -95.1 1.080e+04 1.826e-10
 64.74894    -93.3 1.076e+04 1.764e-10
 64.78804    -91.6 1.074e+04 1.753e-10
 64.82715    -90.0 1.076e+04 1.770e-10
 64.86625    -88.4 1.078e+04 1.867e-10
 64.90214    -86.9 1.077e+04 2.000e-10
 64.92169    -86.6 1.067e+04 1.329e-10
 64.94445    -85.2 1.066e+04 1.531e-10
 64.98355    -83.9 1.066e+04 1.776e-10
 65.02265    -82.5 1.066e+04 2.041e-10
 65.06175    -81.2 1.068e+04 2.318e-10
 65.10085    -80.0 1.071e+04 2.643e-10
 65.13995    -78.9 1.074e+04 2.974e-10
 65.17905    -77.9 1.083e+04 3.312e-10
 65.21815    -77.0 1.090e+04 3.593e-10
 65.25725    -76.3 1.092e+04 3.686e-10
 65.29635    -75.5 1.090e+04 3.652e-10
 65.33545    -74.6 1.079e+04 3.236e-10
 65.35631    -73.8 1.066e+04 2.735e-10
 65.37586    -72.6 1.061e+04 2.694e-10
 65.41366    -71.7 1.052e+04 2.406e-10
 65.45276    -70.8 1.048e+04 2.193e-10
 65.49186    -70.0 1.048e+04 2.048e-10
 65.53096    -69.2 1.051e+04 1.952e-10
 65.57006    -68.5 1.054e+04 1.909e-10
 65.60916    -67.9 1.056e+04 1.917e-10
 65.64826    -67.1 1.053e+04 1.951e-10
 65.68736    -66.2 1.045e+04 1.957e-10
 65.72646    -65.0 1.031e+04 1.886e-10
 65.76556    -63.6 1.017e+04 1.705e-10
 65.80466    -62.1 1.008e+04 1.448e-10
 65.84376    -60.6 1.001e+04 1.220e-10
 65.88286    -59.1 9.978e+03 1.072e-10
 65.92197    -57.6 9.982e+03 1.006e-10
 65.96107    -56.1 1.000e+04 9.865e-11
 66.00017    -54.7 1.005e+04 9.903e-11
 66.03927    -53.3 1.007e+04 1.001e-10
 66.07837    -52.1 1.009e+04 1.002e-10
 66.11747    -50.9 1.013e+04 9.990e-11
 66.15657    -49.7 1.022e+04 1.001e-10
 66.19567    -48.7 1.032e+04 1.036e-10
 66.23477    -47.8 1.038e+04 1.138e-10
 66.25512    -47.2 1.045e+04 1.356e-10
 66.27467    -46.9 1.044e+04 1.419e-10
 66.31297    -46.7 1.053e+04 1.768e-10
 66.35207    -46.7 1.080e+04 2.611e-10
 66.39117    -46.9 1.125e+04 4.295e-10
 66.43027    -47.3 1.167e+04 6.527e-10
 66.46938    -48.7 1.194e+04 8.278e-10
 66.50848    -51.6 1.223e+04 9.332e-10
 66.53141    -55.8 1.285e+04 1.187e-09
 66.55096    -54.1 1.291e+04 1.203e-09
 66.57680    -58.1 1.374e+04 1.735e-09
 66.59626    -60.4 1.422e+04 2.415e-09
 66.61581    -62.1 1.430e+04 2.759e-09
 66.63536    -63.2 1.415e+04 2.694e-09
 66.65491    -64.0 1.365e+04 1.899e-09
 66.67446    -65.4 1.294e+04 1.070e-09
 66.69401    -67.3 1.212e+04 6.143e-10
 66.71356    -69.0 1.149e+04 4.247e-10
 66.73311    -69.9 1.115e+04 3.695e-10
 66.75266    -70.1 1.104e+04 3.578e-10
 66.78208    -69.6 1.102e+04 3.597e-10
 66.82128    -69.4 1.142e+04 4.657e-10
 66.85051    -69.7 1.209e+04 6.775e-10
 66.86996    -70.4 1.245e+04 9.095e-10
 66.88951    -70.6 1.301e+04 1.296e-09
 66.90906    -70.9 1.332e+04 1.580e-09
 66.92164    -71.4 1.344e+04 1.711e-09
 66.93142    -71.3 1.337e+04 1.605e-09
 66.94816    -71.7 1.330e+04 1.592e-09
 66.96771    -71.9 1.293e+04 1.329e-09
 66.98726    -72.2 1.248e+04 9.874e-10
 67.00682    -72.5 1.207e+04 7.135e-10
 67.02637    -72.9 1.171e+04 5.232e-10
 67.04592    -73.3 1.142e+04 4.094e-10
 67.06547    -73.4 1.121e+04 3.608e-10
 67.09489    -73.0 1.111e+04 3.458e-10
 67.13409    -72.1 1.103e+04 3.360e-10
 67.17319    -71.0 1.100e+04 3.615e-10
 67.21229    -70.1 1.111e+04 4.074e-10
 67.25139    -69.4 1.126e+04 4.506e-10
 67.29049    -68.9 1.139e+04 4.956e-10
 67.32959    -68.6 1.155e+04 5.590e-10
 67.36869    -68.4 1.174e+04 6.514e-10
 67.39792    -67.6 1.182e+04 7.410e-10
 67.41737    -67.7 1.182e+04 8.040e-10
 67.43692    -67.5 1.177e+04 8.301e-10
 67.45647    -67.2 1.169e+04 8.138e-10
 67.47602    -66.8 1.159e+04 7.686e-10
 67.49557    -66.4 1.146e+04 6.875e-10
 67.51512    -65.9 1.129e+04 5.879e-10
 67.53467    -65.5 1.111e+04 4.864e-10
 67.55423    -65.2 1.097e+04 3.984e-10
 67.57378    -65.0 1.090e+04 3.455e-10
 67.58845    -64.7 1.090e+04 3.248e-10
 67.60810    -64.0 1.098e+04 3.262e-10
 67.64240    -63.3 1.087e+04 2.938e-10
 67.68150    -61.8 1.074e+04 2.868e-10
 67.70650    -60.1 1.069e+04 3.047e-10
 67.72605    -59.4 1.074e+04 3.066e-10
 67.75970    -57.8 1.081e+04 3.431e-10
 67.79880    -56.3 1.088e+04 3.616e-10
 67.83790    -54.8 1.092e+04 3.597e-10
 67.87700    -53.6 1.097e+04 3.553e-10
 67.91610    -52.4 1.099e+04 3.566e-10
 67.95520    -51.1 1.092e+04 3.713e-10
 67.99430    -49.8 1.090e+04 3.787e-10
 68.03340    -48.4 1.073e+04 3.744e-10
 68.07251    -46.9 1.051e+04 3.315e-10
 68.11161    -45.1 1.026e+04 2.824e-10
 68.15071    -43.2 1.002e+04 2.372e-10
 68.18981    -41.1 9.794e+03 2.000e-10
 68.22891    -39.0 9.603e+03 1.733e-10
 68.26801    -36.8 9.445e+03 1.561e-10
 68.30711    -34.6 9.334e+03 1.486e-10
 68.34621    -32.3 9.294e+03 1.472e-10
 68.38531    -29.9 9.286e+03 1.525e-10
 68.42441    -27.5 9.274e+03 1.566e-10
 68.46351    -25.1 9.254e+03 1.604e-10
 68.50261    -22.8 9.265e+03 1.680e-10
 68.54171    -20.7 9.449e+03 1.931e-10
 68.58081    -18.9 9.781e+03 2.534e-10
 68.61992    -17.3 1.011e+04 3.476e-10
 68.65902    -15.3 1.031e+04 4.377e-10
 68.69812    -13.3 1.032e+04 4.571e-10
 68.72734    -11.1 1.032e+04 4.614e-10
 68.74680    -10.9 1.024e+04 4.373e-10
 68.77622     -9.1 1.012e+04 3.775e-10
 68.81542     -6.9 9.915e+03 3.334e-10
 68.85452     -4.4 9.827e+03 3.195e-10
 68.88159     -1.8 9.799e+03 3.207e-10
 68.90114     -1.2 9.922e+03 3.552e-10
 68.92188      1.2 1.008e+04 3.833e-10
 68.93156      1.5 1.004e+04 3.728e-10
 68.94230      1.6 1.003e+04 3.720e-10
 68.96185      3.7 1.023e+04 4.658e-10
 68.98140      4.3 1.041e+04 5.382e-10
 69.00095      5.3 1.061e+04 6.198e-10
 69.02050      6.3 1.074e+04 7.101e-10
 69.04005      7.3 1.095e+04 8.313e-10
 69.05960      8.1 1.130e+04 9.497e-10
 69.07915      8.4 1.180e+04 1.110e-09
 69.09870      7.9 1.229e+04 1.315e-09
 69.11825      6.9 1.270e+04 1.722e-09
 69.13780      5.5 1.328e+04 2.315e-09
 69.15736      4.8 1.441e+04 3.342e-09
 69.17691      3.8 1.525e+04 4.517e-09
 69.19646      3.4 1.543e+04 5.511e-09
 69.21601      3.3 1.543e+04 5.868e-09
 69.23556      3.8 1.516e+04 5.638e-09
 69.25511      4.3 1.474e+04 4.657e-09
 69.27466      4.3 1.420e+04 3.507e-09
 69.29421      3.9 1.361e+04 2.547e-09
 69.31376      3.5 1.295e+04 1.928e-09
 69.33331      3.6 1.249e+04 1.568e-09
 69.35286      4.2 1.214e+04 1.315e-09
 69.37241      4.8 1.205e+04 1.153e-09
 69.39196      5.3 1.204e+04 1.040e-09
 69.41151      5.8 1.201e+04 9.522e-10
 69.43106      6.2 1.193e+04 8.816e-10
 69.45061      6.6 1.180e+04 8.160e-10
 69.46894      7.1 1.162e+04 7.560e-10
 69.47872      6.8 1.162e+04 7.633e-10
 69.48971      7.4 1.141e+04 7.192e-10
 69.50926      8.0 1.123e+04 6.953e-10
 69.52881      8.9 1.111e+04 7.016e-10
 69.54836      9.8 1.105e+04 7.226e-10
 69.56791     10.7 1.100e+04 7.513e-10
 69.58746     11.4 1.113e+04 8.660e-10
 69.59828     11.4 1.173e+04 1.045e-09
 69.60805     11.6 1.236e+04 1.313e-09
 69.62656     11.4 1.324e+04 1.695e-09
 69.64611     11.2 1.361e+04 2.280e-09
 69.66566     12.2 1.349e+04 3.041e-09
 69.68521     14.0 1.367e+04 3.506e-09
 69.70477     16.0 1.385e+04 3.734e-09
 69.72432     17.5 1.398e+04 3.644e-09
 69.74387     18.9 1.412e+04 3.340e-09
 69.76342     20.0 1.402e+04 2.784e-09
 69.78297     20.6 1.334e+04 2.274e-09
 69.79758     21.2 1.290e+04 1.872e-09
 69.80731     21.1 1.306e+04 1.853e-09
 69.81708     21.8 1.371e+04 1.588e-09
 69.82686     21.8 1.522e+04 1.507e-09
 69.83663     22.7 1.734e+04 1.332e-09
 69.84641     22.9 1.990e+04 1.341e-09
 69.85618     24.0 2.332e+04 1.318e-09
 69.86596     24.3 2.582e+04 1.533e-09
 69.87573     25.4 2.725e+04 1.847e-09
 69.88551     26.0 2.824e+04 2.283e-09
 69.89528     27.0 2.921e+04 2.864e-09
 69.90506     27.9 2.977e+04 3.716e-09
 69.91483     29.4 2.954e+04 4.855e-09
 69.92461     30.7 2.948e+04 6.116e-09
 69.93154     32.0 2.922e+04 7.583e-09
 69.93642     33.1 3.090e+04 1.395e-09
 69.94416     33.4 3.212e+04 1.855e-09
 69.95393     34.2 3.219e+04 2.568e-09
 69.96371     35.0 3.198e+04 3.895e-09
 69.97348     36.2 3.176e+04 5.784e-09
 69.98326     37.3 3.149e+04 8.582e-09
 69.99304     38.7 3.046e+04 1.290e-08
 70.00281     39.8 2.936e+04 1.977e-08
 70.01259     40.8 2.807e+04 2.978e-08
 70.02236     41.4 2.716e+04 4.438e-08
 70.03214     41.7 2.618e+04 6.519e-08
 70.04191     42.4 2.518e+04 9.652e-08
 70.05169     43.8 2.407e+04 1.256e-07
 70.06128     45.7 2.323e+04 1.585e-07
 70.06617     46.0 2.229e+04 1.796e-07
 70.07124     48.2 2.200e+04 1.834e-07
 70.08101     50.1 2.168e+04 1.860e-07
 70.09079     51.4 2.239e+04 1.634e-07
 70.10056     51.7 2.684e+04 1.079e-07
 70.11034     46.1 3.889e+04 5.883e-08
 70.12011     37.2 5.367e+04 2.327e-08
 70.12989     24.3 7.101e+04 8.242e-09
 70.13966     10.6 7.856e+04 3.673e-09
 70.14944     -3.1 6.074e+04 3.453e-09
 70.15921    -12.0 2.916e+04 6.365e-09
 70.17393    -17.1 2.056e+04 6.354e-09
 70.19352    -31.7 1.922e+04 3.120e-09
 70.21307    -49.9 1.376e+04 1.668e-09
 70.23262    -56.7 1.269e+04 1.511e-09
 70.25218    -63.8 1.482e+04 2.005e-09
 70.26499    -78.6 2.263e+04 3.634e-09
 70.27477    -79.1 2.328e+04 4.482e-09
 70.29128    -95.7 2.507e+04 1.088e-08
 70.30589   -106.1 2.292e+04 1.670e-08
 70.31562   -108.0 2.285e+04 1.816e-08
 70.32539   -114.6 2.229e+04 2.037e-08
 70.33517   -118.8 2.245e+04 1.974e-08
 70.34494   -124.2 2.234e+04 1.192e-08
 70.35472   -131.3 2.177e+04 4.682e-09
 70.36943   -141.2 1.874e+04 2.006e-09
 70.38903   -149.2 1.580e+04 1.241e-09
 70.40858   -156.5 1.324e+04 8.749e-10
 70.42813   -158.9 1.271e+04 8.126e-10
 70.44768   -159.6 1.264e+04 8.115e-10
 70.46723   -159.8 1.263e+04 8.403e-10
 70.48678   -159.8 1.266e+04 8.570e-10
 70.50633   -159.2 1.264e+04 8.405e-10
 70.52588   -158.7 1.258e+04 7.976e-10
 70.54543   -158.1 1.251e+04 7.464e-10
 70.56498   -157.3 1.246e+04 6.968e-10
 70.58453   -156.5 1.246e+04 6.713e-10
 70.60408   -155.9 1.248e+04 6.688e-10
 70.62363   -155.8 1.268e+04 6.639e-10
 70.64318   -156.5 1.324e+04 8.085e-10
 70.65381   -157.9 1.424e+04 1.276e-09
 70.66359   -158.4 1.418e+04 1.468e-09
 70.68228   -158.7 1.509e+04 2.217e-09
 70.70183   -158.6 1.597e+04 3.234e-09
 70.72138   -158.5 1.671e+04 4.085e-09
 70.74093   -158.5 1.708e+04 4.440e-09
 70.76048   -159.2 1.732e+04 4.257e-09
 70.78004   -160.2 1.697e+04 3.196e-09
 70.79959   -161.2 1.591e+04 2.038e-09
 70.81914   -162.2 1.458e+04 1.310e-09
 70.83869   -162.7 1.355e+04 9.673e-10
 70.85824   -162.8 1.304e+04 8.286e-10
 70.87779   -162.2 1.276e+04 7.642e-10
 70.89734   -161.2 1.262e+04 7.227e-10
 70.91689   -160.2 1.252e+04 6.791e-10
 70.93171   -159.3 1.240e+04 6.340e-10
 70.94148   -160.2 1.239e+04 6.342e-10
 70.95599   -159.3 1.227e+04 5.914e-10
 70.97554   -158.5 1.215e+04 5.571e-10
 70.99509   -157.6 1.204e+04 5.340e-10
 71.01464   -156.7 1.197e+04 5.234e-10
 71.03419   -155.6 1.195e+04 5.226e-10
 71.05374   -154.6 1.194e+04 5.251e-10
 71.07329   -153.6 1.193e+04 5.460e-10
 71.09284   -152.7 1.200e+04 5.817e-10
 71.11239   -151.9 1.214e+04 6.380e-10
 71.13194   -151.1 1.232e+04 7.224e-10
 71.15149   -150.4 1.254e+04 8.341e-10
 71.17104   -149.6 1.274e+04 9.554e-10
 71.19059   -148.8 1.289e+04 1.063e-09
 71.21014   -148.2 1.297e+04 1.185e-09
 71.22969   -147.6 1.302e+04 1.275e-09
 71.24136   -147.1 1.302e+04 1.295e-09
 71.25114   -147.5 1.305e+04 1.269e-09
 71.26879   -147.1 1.298e+04 1.233e-09
 71.28834   -146.7 1.287e+04 1.177e-09
 71.30789   -146.4 1.273e+04 1.108e-09
 71.32745   -146.0 1.257e+04 1.054e-09
 71.34700   -145.6 1.241e+04 1.014e-09
 71.36655   -145.1 1.227e+04 9.806e-10
 71.38610   -144.4 1.215e+04 9.419e-10
 71.40565   -143.8 1.204e+04 8.915e-10
 71.42520   -143.1 1.195e+04 8.316e-10
 71.44475   -142.4 1.186e+04 7.720e-10
 71.46430   -141.7 1.178e+04 7.230e-10
 71.48385   -141.0 1.169e+04 6.851e-10
 71.50340   -140.1 1.162e+04 6.530e-10
 71.52295   -139.2 1.157e+04 6.181e-10
 71.54250   -138.2 1.156e+04 5.794e-10
 71.56205   -137.4 1.160e+04 5.453e-10
 71.58160   -136.6 1.167e+04 5.282e-10
 71.59842   -136.1 1.169e+04 5.261e-10
 71.60820   -137.8 1.177e+04 5.466e-10
 71.62070   -137.5 1.183e+04 6.135e-10
 71.64025   -136.9 1.185e+04 7.291e-10
 71.65980   -136.1 1.189e+04 8.770e-10
 71.67935   -135.1 1.199e+04 1.033e-09
 71.69890   -134.2 1.218e+04 1.153e-09
 71.71845   -133.6 1.235e+04 1.254e-09
 71.74788   -133.3 1.248e+04 1.311e-09
 71.78707   -131.8 1.240e+04 1.238e-09
 71.82617   -130.3 1.207e+04 1.071e-09
 71.86528   -128.7 1.167e+04 8.935e-10
 71.90438   -127.0 1.136e+04 7.405e-10
 71.94348   -125.1 1.116e+04 6.304e-10
 71.98258   -123.3 1.108e+04 5.645e-10
 72.02168   -121.3 1.104e+04 5.303e-10
 72.06078   -119.2 1.100e+04 5.084e-10
 72.09988   -116.9 1.094e+04 4.830e-10
 72.13898   -114.6 1.086e+04 4.480e-10
 72.17808   -112.4 1.073e+04 3.949e-10
 72.21718   -110.1 1.057e+04 3.281e-10
 72.25628   -107.9 1.041e+04 2.616e-10
 72.29538   -105.7 1.027e+04 2.084e-10
 72.33448   -103.5 1.018e+04 1.752e-10
 72.37358   -101.2 1.015e+04 1.596e-10
 72.40687    -98.8 1.014e+04 1.556e-10
 72.42643    -99.6 1.014e+04 1.633e-10
 72.45179    -97.1 1.015e+04 1.641e-10
 72.49089    -94.8 1.015e+04 1.655e-10
 72.52999    -92.5 1.021e+04 1.727e-10
 72.56909    -90.4 1.028e+04 1.796e-10
 72.60819    -88.9 1.051e+04 1.892e-10
 72.64729    -88.0 1.091e+04 2.407e-10
 72.68639    -87.3 1.134e+04 4.095e-10
 72.72549    -86.7 1.183e+04 7.409e-10
 72.76459    -86.3 1.233e+04 1.155e-09
 72.80369    -86.2 1.267e+04 1.414e-09
 72.84279    -86.1 1.275e+04 1.464e-09
 72.87202    -85.9 1.294e+04 1.518e-09
 72.89147    -85.9 1.283e+04 1.324e-09
 72.91102    -86.7 1.240e+04 8.907e-10
 72.93057    -87.5 1.224e+04 6.668e-10
 72.94172    -87.9 1.197e+04 4.881e-10
 72.95150    -88.3 1.203e+04 4.905e-10
 72.96968    -88.6 1.186e+04 4.119e-10
 72.99910    -88.7 1.154e+04 3.110e-10
 73.03830    -86.9 1.112e+04 2.115e-10
 73.07740    -85.0 1.094e+04 1.589e-10
 73.11650    -83.2 1.092e+04 1.447e-10
 73.15560    -81.4 1.091e+04 1.433e-10
 73.19470    -79.6 1.092e+04 1.634e-10
 73.23380    -77.7 1.098e+04 2.119e-10
 73.27290    -75.7 1.115e+04 2.859e-10
 73.31200    -73.8 1.139e+04 3.795e-10
 73.35110    -72.0 1.162e+04 4.694e-10
 73.39020    -70.5 1.174e+04 5.275e-10
 73.42930    -69.3 1.175e+04 5.578e-10
 73.46841    -68.1 1.176e+04 5.940e-10
 73.50751    -66.9 1.185e+04 6.688e-10
 73.54661    -65.8 1.204e+04 8.000e-10
 73.58197    -64.9 1.224e+04 9.559e-10
 73.60152    -66.0 1.231e+04 1.037e-09
 73.62481    -65.4 1.245e+04 1.128e-09
 73.66391    -64.9 1.250e+04 1.147e-09
 73.70301    -64.5 1.239e+04 1.020e-09
 73.74211    -63.9 1.210e+04 7.408e-10
 73.78121    -63.2 1.173e+04 4.927e-10
 73.82031    -62.2 1.141e+04 3.449e-10
 73.85941    -60.9 1.120e+04 2.669e-10
 73.89851    -59.2 1.108e+04 2.227e-10
 73.93761    -57.3 1.104e+04 1.915e-10
 73.97671    -55.4 1.105e+04 1.674e-10
 74.01582    -53.7 1.111e+04 1.518e-10
 74.05492    -52.1 1.113e+04 1.463e-10
 74.09402    -50.5 1.113e+04 1.549e-10
 74.13312    -48.9 1.117e+04 1.819e-10
 74.17222    -47.1 1.119e+04 2.066e-10
 74.21132    -45.3 1.120e+04 2.202e-10
 74.25042    -43.6 1.122e+04 2.228e-10
 74.27525    -42.0 1.124e+04 2.221e-10
 74.29480    -42.4 1.120e+04 1.804e-10
 74.32862    -41.6 1.129e+04 2.078e-10
 74.36772    -41.6 1.154e+04 3.047e-10
 74.40682    -42.2 1.190e+04 5.185e-10
 74.44592    -43.1 1.224e+04 8.200e-10
 74.48502    -44.0 1.230e+04 9.491e-10
 74.52412    -44.9 1.193e+04 7.846e-10
 74.56323    -45.8 1.120e+04 4.053e-10
 74.60233    -46.8 1.025e+04 1.746e-10
 74.64143    -47.3 9.667e+03 1.150e-10
 74.68053    -46.8 9.500e+03 1.101e-10
 74.71963    -45.5 9.433e+03 1.228e-10
 74.75706    -44.2 9.406e+03 1.475e-10
 74.77661    -45.0 9.340e+03 1.553e-10
 74.79783    -43.7 9.345e+03 1.808e-10
 74.83693    -42.3 9.353e+03 1.870e-10
 74.87603    -41.0 9.248e+03 1.802e-10
 74.91513    -39.5 9.084e+03 1.468e-10
 74.95423    -38.2 8.928e+03 1.136e-10
 74.99333    -36.8 8.776e+03 9.177e-11
 75.03243    -35.2 8.673e+03 7.745e-11
 75.07153    -33.5 8.560e+03 6.978e-11
 75.11064    -31.7 8.518e+03 6.787e-11
 75.14974    -29.9 8.637e+03 6.932e-11
 75.18884    -28.4 8.769e+03 8.543e-11
 75.22794    -26.7 8.884e+03 1.207e-10
 75.26704    -24.7 9.071e+03 1.769e-10
 75.30614    -22.6 9.319e+03 2.512e-10
 75.34524    -20.7 9.569e+03 3.343e-10
 75.38434    -19.1 9.818e+03 4.202e-10
 75.42344    -17.7 1.007e+04 5.146e-10
 75.46254    -16.2 1.049e+04 6.496e-10
 75.50164    -15.4 1.115e+04 8.523e-10
 75.54074    -15.5 1.200e+04 1.194e-09
 75.56997    -18.7 1.327e+04 2.074e-09
 75.58942    -20.6 1.434e+04 3.284e-09
 75.60849    -21.5 1.530e+04 5.361e-09
 75.61826    -22.4 1.531e+04 5.471e-09
 75.62852    -22.4 1.593e+04 7.126e-09
 75.64808    -22.0 1.626e+04 7.615e-09
 75.66763    -21.9 1.617e+04 5.624e-09
 75.68718    -23.1 1.539e+04 2.866e-09
 75.70673    -25.7 1.364e+04 1.314e-09
 75.72628    -27.2 1.220e+04 8.438e-10
 75.74583    -29.0 1.139e+04 6.364e-10
 75.77525    -29.4 1.143e+04 6.980e-10
 75.81445    -28.1 1.094e+04 5.954e-10
 75.85355    -26.2 1.079e+04 5.348e-10
 75.88278    -25.4 1.047e+04 4.415e-10
 75.90223    -25.1 1.045e+04 4.924e-10
 75.92178    -24.5 1.060e+04 5.854e-10
 75.94133    -24.0 1.074e+04 6.572e-10
 75.95151    -23.6 1.093e+04 7.404e-10
 75.96129    -24.5 1.105e+04 8.127e-10
 75.98043    -24.4 1.118e+04 8.893e-10
 75.99998    -24.4 1.122e+04 9.390e-10
 76.01953    -24.7 1.121e+04 9.489e-10
 76.03908    -25.0 1.118e+04 9.498e-10
 76.05863    -25.7 1.117e+04 9.050e-10
 76.08806    -26.9 1.090e+04 7.728e-10
 76.11738    -25.4 1.045e+04 5.823e-10
 76.13683    -25.4 1.050e+04 5.729e-10
 76.16626    -25.7 1.001e+04 4.468e-10
 76.20546    -24.6 9.465e+03 3.377e-10
 76.24456    -23.2 9.244e+03 2.891e-10
 76.28366    -21.4 9.170e+03 2.612e-10
 76.32276    -19.4 9.323e+03 2.557e-10
 76.36186    -18.5 9.832e+03 3.136e-10
 76.40096    -18.4 1.110e+04 5.440e-10
 76.44006    -18.5 1.234e+04 1.079e-09
 76.46929    -17.4 1.258e+04 1.363e-09
 76.48874    -16.7 1.280e+04 1.806e-09
 76.50829    -16.1 1.301e+04 2.333e-09
 76.52784    -15.4 1.303e+04 2.705e-09
 76.53906    -14.1 1.306e+04 3.155e-09
 76.54883    -14.7 1.281e+04 2.761e-09
 76.56694    -13.4 1.255e+04 2.173e-09
 76.58649    -13.0 1.227e+04 1.658e-09
 76.60604    -12.2 1.186e+04 1.139e-09
 76.63547    -11.0 1.177e+04 8.030e-10
 76.67466    -10.7 1.066e+04 2.816e-10
 76.71377    -10.4 9.256e+03 1.288e-10
 76.75287     -8.9 8.669e+03 1.030e-10
 76.79197     -6.5 8.519e+03 9.837e-11
 76.83107     -3.9 8.489e+03 9.687e-11
 76.87017     -1.4 8.596e+03 1.003e-10
 76.90927      0.9 8.719e+03 1.122e-10
 76.94211      3.0 8.826e+03 1.335e-10
 76.96166      3.0 8.976e+03 1.830e-10
 76.98747      5.4 9.093e+03 2.214e-10
 77.02657      7.8 9.242e+03 2.492e-10
 77.06567     10.1 9.333e+03 2.523e-10
 77.10477     12.2 9.418e+03 2.499e-10
 77.12680     13.7 9.627e+03 2.759e-10
 77.14635     12.9 9.946e+03 3.018e-10
 77.18297     13.9 1.033e+04 3.768e-10
 77.22207     14.8 1.103e+04 5.529e-10
 77.26118     15.8 1.169e+04 8.828e-10
 77.30028     17.4 1.204e+04 1.220e-09
 77.33938     19.4 1.196e+04 1.218e-09
 77.37848     21.5 1.153e+04 9.485e-10
 77.41758     23.1 1.115e+04 6.571e-10
 77.45668     24.4 1.101e+04 4.921e-10
 77.49578     26.1 1.092e+04 4.610e-10
 77.53488     28.1 1.100e+04 4.963e-10
 77.57398     30.3 1.138e+04 6.308e-10
 77.60321     31.5 1.131e+04 6.198e-10
 77.61841     32.3 1.139e+04 6.410e-10
 77.62818     32.2 1.176e+04 8.145e-10
 77.64221     32.9 1.199e+04 9.123e-10
 77.66176     33.6 1.220e+04 1.058e-09
 77.68131     34.4 1.239e+04 1.242e-09
 77.70086     35.4 1.255e+04 1.441e-09
 77.71415     36.5 1.268e+04 1.597e-09
 77.72393     36.3 1.222e+04 1.331e-09
 77.73996     37.1 1.228e+04 1.364e-09
 77.75951     38.2 1.239e+04 1.371e-09
 77.77906     39.1 1.251e+04 1.374e-09
 77.80849     40.5 1.253e+04 1.265e-09
 77.84769     42.2 1.255e+04 1.123e-09
 77.88679     43.5 1.282e+04 1.178e-09
 77.91601     43.3 1.326e+04 1.349e-09
 77.93547     43.4 1.368e+04 1.771e-09
 77.95502     43.6 1.392e+04 2.497e-09
 77.97457     44.2 1.423e+04 3.596e-09
 77.99412     45.1 1.471e+04 4.992e-09
 78.01367     46.0 1.523e+04 6.384e-09
 78.03322     46.8 1.552e+04 7.023e-09
 78.05277     47.3 1.559e+04 7.008e-09
 78.07232     47.8 1.558e+04 6.701e-09
 78.09187     48.4 1.549e+04 5.937e-09
 78.11142     48.8 1.535e+04 4.938e-09
 78.13097     48.6 1.555e+04 4.008e-09
 78.15052     47.4 1.595e+04 4.022e-09
 78.17007     45.0 1.673e+04 4.434e-09
 78.18962     42.7 1.676e+04 5.504e-09
 78.20917     41.1 1.641e+04 7.044e-09
 78.22872     40.0 1.634e+04 7.884e-09
 78.24827     39.2 1.634e+04 7.689e-09
 78.26782     38.4 1.623e+04 6.491e-09
 78.28512     36.5 1.586e+04 4.513e-09
 78.29490     36.3 1.460e+04 3.372e-09
 78.30170     33.2 1.377e+04 2.101e-09
 78.31147     30.6 1.314e+04 1.779e-09
 78.32647     28.2 1.210e+04 1.252e-09
 78.34603     27.7 1.122e+04 9.319e-10
 78.36558     27.7 1.067e+04 7.186e-10
 78.38513     28.1 1.033e+04 5.238e-10
 78.40468     28.2 1.021e+04 3.944e-10
 78.43410     28.4 1.003e+04 3.054e-10
 78.47330     29.2 9.700e+03 2.501e-10
 78.51240     30.3 9.761e+03 2.612e-10
 78.55150     30.0 9.989e+03 3.128e-10
 78.58073     29.7 1.007e+04 4.109e-10
 78.60018     29.9 1.032e+04 5.796e-10
 78.61973     30.3 1.073e+04 8.174e-10
 78.63928     30.7 1.112e+04 1.061e-09
 78.65883     31.0 1.145e+04 1.297e-09
 78.67838     31.0 1.183e+04 1.481e-09
 78.69793     29.9 1.292e+04 1.876e-09
 78.71748     26.4 1.498e+04 3.433e-09
 78.73210     24.3 1.565e+04 4.731e-09
 78.74182     24.2 1.544e+04 5.293e-09
 78.75160     24.2 1.542e+04 5.939e-09
 78.76137     20.2 1.969e+04 8.124e-09
 78.77115      5.0 3.143e+04 2.443e-08
 78.78092     -3.7 2.621e+04 9.609e-08
 78.79070     -7.2 2.298e+04 1.638e-07
 78.80047     -8.4 2.136e+04 1.734e-07
 78.81025     -8.9 2.086e+04 1.160e-07
 78.82002     -8.7 2.073e+04 8.186e-08
 78.82980     -8.1 2.187e+04 5.223e-08
 78.83957     -9.2 2.404e+04 2.629e-08
 78.85429    -13.8 2.336e+04 9.779e-09
 78.87388    -22.0 1.672e+04 3.237e-09
 78.88925    -23.8 1.350e+04 2.037e-09
 78.89902    -21.9 1.470e+04 2.672e-09
 78.91299    -22.6 1.316e+04 1.948e-09
 78.93254    -21.6 1.255e+04 1.695e-09
 78.95184    -20.2 1.228e+04 1.525e-09
 78.96161    -20.2 1.237e+04 1.589e-09
 78.97164    -18.8 1.199e+04 1.382e-09
 78.99119    -17.4 1.156e+04 1.143e-09
 79.01074    -16.1 1.125e+04 9.365e-10
 79.03029    -14.6 1.111e+04 7.703e-10
 79.04984    -13.3 1.111e+04 6.191e-10
 79.06939    -12.1 1.119e+04 5.042e-10
 79.08894    -11.5 1.114e+04 3.949e-10
 79.10849    -10.9 1.095e+04 3.320e-10
 79.12804    -10.1 1.082e+04 2.863e-10
 79.14759     -9.8 1.061e+04 2.637e-10
 79.16714     -8.7 1.060e+04 2.629e-10
 79.18669     -8.3 1.050e+04 2.584e-10
 79.20624     -7.3 1.051e+04 2.743e-10
 79.22579     -6.8 1.035e+04 2.767e-10
 79.24534     -5.7 1.036e+04 2.965e-10
 79.26489     -5.1 1.045e+04 3.050e-10
 79.28444     -4.6 1.076e+04 3.306e-10
 79.30399     -4.6 1.115e+04 3.685e-10
 79.32354     -4.8 1.151e+04 4.749e-10
 79.34309     -5.1 1.188e+04 6.848e-10
 79.36264     -5.3 1.243e+04 1.033e-09
 79.38219     -5.6 1.306e+04 1.565e-09
 79.40174     -5.6 1.351e+04 2.246e-09
 79.42130     -4.8 1.354e+04 2.907e-09
 79.44085     -3.6 1.332e+04 3.187e-09
 79.46040     -2.0 1.287e+04 3.023e-09
 79.47679     -0.4 1.249e+04 2.358e-09
 79.48657     -0.5 1.217e+04 1.974e-09
 79.49950      0.5 1.200e+04 1.534e-09
 79.52892      0.3 1.124e+04 9.132e-10
 79.56812      0.9 1.026e+04 5.510e-10
 79.60722      1.8 9.754e+03 4.448e-10
 79.62852      3.5 9.595e+03 4.155e-10
 79.64807      3.1 9.905e+03 5.012e-10
 79.68542      5.0 9.707e+03 4.682e-10
 79.72452      6.9 9.567e+03 4.100e-10
 79.76362      8.5 9.475e+03 3.277e-10
 79.80272      9.2 9.615e+03 3.213e-10
 79.84182      9.2 9.848e+03 4.291e-10
 79.87105      9.6 9.986e+03 5.576e-10
 79.89050     10.4 1.014e+04 6.241e-10
 79.91005     10.8 1.037e+04 6.885e-10
 79.92960     11.3 1.053e+04 7.306e-10
 79.94915     11.7 1.046e+04 6.961e-10
 79.96871     12.3 1.032e+04 5.921e-10
 79.98826     12.0 1.027e+04 4.879e-10
 80.00781     10.9 1.054e+04 4.157e-10
 80.02736      8.0 1.110e+04 4.660e-10
 80.04691      5.0 1.155e+04 5.757e-10
 80.06434      3.7 1.087e+04 8.403e-10
 80.07411      3.3 1.078e+04 8.370e-10
 80.08601      4.1 1.078e+04 9.791e-10
 80.10556      4.4 1.133e+04 8.058e-10
 80.12511      3.8 1.130e+04 6.889e-10
 80.14466      2.2 1.116e+04 3.993e-10
 80.16421      0.6 1.057e+04 3.279e-10
 80.19363     -1.1 1.021e+04 2.537e-10
 80.23283     -1.7 9.660e+03 1.947e-10
 80.27193     -1.6 9.498e+03 1.580e-10
 80.31103     -1.2 9.359e+03 1.364e-10
 80.35013     -0.7 9.361e+03 1.267e-10
 80.38923     -0.4 9.468e+03 1.268e-10
 80.42833     -0.3 9.488e+03 1.503e-10
 80.46743      0.4 9.439e+03 2.040e-10
 80.50654      1.9 9.548e+03 2.579e-10
 80.54564      3.0 9.745e+03 2.710e-10
 80.58474      3.8 9.800e+03 2.674e-10
 80.62384      4.7 9.725e+03 2.718e-10
 80.65208      5.8 9.697e+03 2.982e-10
 80.67163      6.9 9.555e+03 2.008e-10
 80.70204      7.6 9.632e+03 2.530e-10
 80.74114      8.8 9.636e+03 3.363e-10
 80.78024     10.5 9.707e+03 3.977e-10
 80.81934     12.1 9.796e+03 4.065e-10
 80.85844     13.4 9.808e+03 3.337e-10
 80.89754     14.1 9.664e+03 2.601e-10
 80.93664     14.9 9.292e+03 2.060e-10
 80.96195     16.4 8.977e+03 1.670e-10
 80.98150     16.1 9.236e+03 2.211e-10
 81.01484     18.0 9.017e+03 1.793e-10
 81.05395     20.1 8.843e+03 1.370e-10
 81.09305     21.9 8.800e+03 9.623e-11
 81.13215     23.3 8.812e+03 7.730e-11
 81.17125     24.4 8.874e+03 8.259e-11
 81.21035     25.3 9.040e+03 1.152e-10
 81.24945     26.7 9.296e+03 1.889e-10
 81.28855     28.5 9.634e+03 2.839e-10
 81.32765     30.3 9.851e+03 3.574e-10
 81.36675     31.6 1.007e+04 4.172e-10
 81.40585     32.7 1.025e+04 4.825e-10
 81.44495     33.8 1.039e+04 5.514e-10
 81.48405     35.1 1.051e+04 6.159e-10
 81.52315     36.4 1.061e+04 6.389e-10
 81.56226     37.6 1.065e+04 6.191e-10
 81.60136     38.6 1.061e+04 5.877e-10
 81.64046     39.8 1.053e+04 5.572e-10
 81.67956     41.1 1.050e+04 5.408e-10
 81.71866     42.5 1.050e+04 5.440e-10
 81.75776     44.2 1.048e+04 5.379e-10
 81.79686     46.0 1.040e+04 5.073e-10
 81.82718     47.9 1.026e+04 4.411e-10
 81.84673     47.6 1.043e+04 4.897e-10
 81.87506     49.7 1.021e+04 3.845e-10
 81.91416     51.7 1.001e+04 2.902e-10
 81.95326     53.6 9.858e+03 2.224e-10
 81.99236     55.5 9.696e+03 1.885e-10
 82.03146     57.6 9.600e+03 1.844e-10
 82.07056     59.8 9.595e+03 1.855e-10
 82.10967     62.1 9.613e+03 1.931e-10
 82.14877     64.2 9.674e+03 2.122e-10
 82.18787     66.3 9.751e+03 2.407e-10
 82.22697     68.4 9.840e+03 2.742e-10
 82.26607     70.4 9.983e+03 3.033e-10
 82.29538     72.3 1.013e+04 3.061e-10
 82.31493     72.4 1.017e+04 3.053e-10
 82.34427     74.1 1.019e+04 3.014e-10
 82.38337     75.7 1.019e+04 2.831e-10
 82.42247     77.3 1.013e+04 2.505e-10
 82.46157     79.0 1.003e+04 2.158e-10
 82.50067     80.7 9.922e+03 1.928e-10
 82.53977     82.4 9.887e+03 1.903e-10
 82.57887     84.3 9.904e+03 1.960e-10
 82.61797     86.2 9.942e+03 2.104e-10
 82.65708     88.0 9.976e+03 2.253e-10
 82.69618     89.9 9.988e+03 2.333e-10
 82.73528     91.7 9.986e+03 2.334e-10
 82.77438     93.5 9.970e+03 2.287e-10
 82.81348     95.3 9.936e+03 2.208e-10
 82.85258     97.1 9.886e+03 2.135e-10
 82.89168     98.9 9.819e+03 2.069e-10
 82.93078    100.7 9.745e+03 2.006e-10
 82.96988    102.5 9.664e+03 1.945e-10
 83.00227    104.2 9.585e+03 1.874e-10
 83.02182    103.6 9.462e+03 1.577e-10
 83.04808    105.3 9.427e+03 1.564e-10
 83.08718    107.0 9.371e+03 1.545e-10
 83.12628    108.6 9.318e+03 1.492e-10
 83.16538    110.1 9.252e+03 1.379e-10
 83.20449    111.5 9.215e+03 1.217e-10
 83.24359    112.6 9.207e+03 1.036e-10
 83.28269    113.5 9.138e+03 9.103e-11
 83.32179    114.3 9.032e+03 8.910e-11
 83.36089    115.4 9.003e+03 9.081e-11
 83.39999    116.6 8.936e+03 9.808e-11
 83.43909    117.8 8.920e+03 1.176e-10
 83.47819    119.0 9.023e+03 1.533e-10
 83.51729    120.3 9.227e+03 2.054e-10
 83.55639    121.0 9.409e+03 2.523e-10
 83.59549    120.9 9.463e+03 2.643e-10
 83.62881    120.7 9.459e+03 2.629e-10
 83.64836    121.0 9.443e+03 2.693e-10
 83.67369    120.7 9.381e+03 2.618e-10
 83.71279    120.3 9.243e+03 2.489e-10
 83.75190    119.9 9.105e+03 2.345e-10
 83.79100    119.9 9.002e+03 2.225e-10
 83.83010    119.9 8.891e+03 2.109e-10
 83.86920    120.3 8.739e+03 1.893e-10
 83.90830    120.8 8.553e+03 1.547e-10
 83.94740    121.6 8.353e+03 1.149e-10
 83.98650    122.3 8.152e+03 8.098e-11
 84.02560    122.9 7.974e+03 6.133e-11
 84.06470    123.7 7.937e+03 5.867e-11
 84.10380    124.7 7.955e+03 5.964e-11
 84.14290    125.5 8.046e+03 6.633e-11
 84.17736    126.1 8.222e+03 8.493e-11
 84.19691    125.2 8.475e+03 1.181e-10
 84.22110    125.8 8.799e+03 1.683e-10
 84.26020    126.2 9.204e+03 2.386e-10
 84.29931    126.2 9.588e+03 3.158e-10
 84.32853    126.2 9.746e+03 3.513e-10
 84.34799    126.0 9.904e+03 3.938e-10
 84.36754    125.6 1.017e+04 4.909e-10
 84.38709    125.0 1.049e+04 6.381e-10
 84.40664    124.4 1.082e+04 8.030e-10
 84.42619    123.5 1.116e+04 9.567e-10
 84.44574    122.1 1.163e+04 1.107e-09
 84.46529    119.9 1.241e+04 1.312e-09
 84.48484    116.8 1.332e+04 1.661e-09
 84.50439    113.6 1.396e+04 2.182e-09
 84.52394    111.1 1.408e+04 2.614e-09
 84.54349    109.2 1.396e+04 2.635e-09
 84.56304    107.7 1.367e+04 2.403e-09
 84.58259    106.6 1.328e+04 1.909e-09
 84.60214    105.4 1.280e+04 1.375e-09
 84.62169    104.3 1.242e+04 1.017e-09
 84.65111    103.4 1.195e+04 7.662e-10
 84.69031    101.4 1.124e+04 5.890e-10
 84.72941    100.1 1.113e+04 5.932e-10
 84.76851     99.7 1.117e+04 6.545e-10
 84.79774     99.2 1.110e+04 6.416e-10
 84.81719     99.1 1.107e+04 6.314e-10
 84.83675     98.9 1.113e+04 6.491e-10
 84.85630     98.7 1.122e+04 6.772e-10
 84.87585     98.5 1.122e+04 6.858e-10
 84.89540     98.5 1.118e+04 6.720e-10
 84.91495     98.5 1.112e+04 6.273e-10
 84.93450     98.4 1.106e+04 5.704e-10
 84.95405     98.2 1.108e+04 5.369e-10
 84.97182     97.8 1.112e+04 5.394e-10
 84.98160     97.1 1.103e+04 5.017e-10
 84.99315     96.6 1.117e+04 5.410e-10
 85.01270     95.9 1.137e+04 6.279e-10
 85.03225     95.1 1.161e+04 7.782e-10
 85.05180     94.3 1.189e+04 1.005e-09
 85.07135     93.7 1.221e+04 1.303e-09
 85.09090     93.2 1.253e+04 1.613e-09
 85.11045     92.7 1.275e+04 1.765e-09
 85.13000     92.0 1.276e+04 1.743e-09
 85.14955     91.4 1.267e+04 1.594e-09
 85.16910     90.6 1.246e+04 1.289e-09
 85.18865     89.6 1.222e+04 9.539e-10
 85.20820     88.2 1.197e+04 7.081e-10
 85.22775     86.3 1.163e+04 6.186e-10
 85.24730     85.1 1.154e+04 6.204e-10
 85.26685     83.7 1.164e+04 7.410e-10
 85.28640     83.4 1.170e+04 8.114e-10
 85.31583     82.6 1.187e+04 1.043e-09
 85.35246     81.8 1.184e+04 1.095e-09
 85.37201     83.8 1.140e+04 8.402e-10
 85.39413     83.2 1.134e+04 8.259e-10
 85.43323     82.8 1.105e+04 7.112e-10
 85.47233     82.5 1.066e+04 5.453e-10
 85.51143     82.4 1.028e+04 4.176e-10
 85.55053     82.4 1.000e+04 3.383e-10
 85.58963     82.8 9.778e+03 2.894e-10
 85.62873     83.6 9.640e+03 2.574e-10
 85.66783     84.8 9.555e+03 2.356e-10
 85.70693     86.0 9.483e+03 2.127e-10
 85.74603     87.2 9.496e+03 1.800e-10
 85.78513     88.5 9.545e+03 1.470e-10
 85.82423     89.8 9.586e+03 1.329e-10
 85.86333     91.2 9.625e+03 1.343e-10
 85.90244     92.5 9.816e+03 1.468e-10
 85.94154     93.8 1.021e+04 1.881e-10
 85.98064     94.9 1.060e+04 2.631e-10
 86.01974     95.8 1.091e+04 3.597e-10
 86.05884     96.6 1.111e+04 4.463e-10
 86.08807     97.3 1.115e+04 4.818e-10
 86.10752     98.2 1.117e+04 5.052e-10
 86.13694     98.4 1.116e+04 4.511e-10
 86.17614     99.0 1.109e+04 3.620e-10
 86.21524     99.0 1.084e+04 2.856e-10
 86.25434     99.1 1.051e+04 2.727e-10
 86.29344     99.3 1.047e+04 2.777e-10
 86.31522     99.7 1.047e+04 2.992e-10
 86.32490     99.7 1.055e+04 3.059e-10
 86.34212     99.9 1.052e+04 3.180e-10
 86.36167    100.3 1.053e+04 3.355e-10
 86.38122    100.5 1.056e+04 3.466e-10
 86.40077    100.9 1.058e+04 3.563e-10
 86.42032    101.2 1.058e+04 3.612e-10
 86.43988    101.7 1.058e+04 3.689e-10
 86.45943    101.9 1.059e+04 3.767e-10
 86.47898    102.4 1.060e+04 3.934e-10
 86.49853    102.9 1.067e+04 4.287e-10
 86.51808    103.3 1.077e+04 4.811e-10
 86.53713    103.7 1.087e+04 5.445e-10
 86.54691    104.0 1.090e+04 5.684e-10
 86.55718    104.5 1.105e+04 6.373e-10
 86.57673    104.9 1.123e+04 7.081e-10
 86.59628    105.4 1.145e+04 7.748e-10
 86.61583    105.9 1.170e+04 8.355e-10
 86.63538    106.3 1.203e+04 9.076e-10
 86.65493    106.5 1.242e+04 9.962e-10
 86.67448    106.5 1.278e+04 1.090e-09
 86.69403    106.5 1.303e+04 1.174e-09
 86.71358    106.3 1.313e+04 1.246e-09
 86.73313    105.8 1.303e+04 1.305e-09
 86.75268    104.9 1.292e+04 1.315e-09
 86.77223    103.8 1.277e+04 1.312e-09
 86.79178    102.9 1.266e+04 1.292e-09
 86.81133    102.2 1.258e+04 1.262e-09
 86.84076    101.5 1.221e+04 1.123e-09
 86.87995    101.5 1.179e+04 8.935e-10
 86.91905    101.8 1.124e+04 6.035e-10
 86.95815    102.4 1.067e+04 3.559e-10
 86.99726    102.9 1.018e+04 2.172e-10
 87.03636    103.7 1.006e+04 1.965e-10
 87.07546    104.9 1.010e+04 2.026e-10
 87.11456    105.3 1.028e+04 2.335e-10
 87.13455    104.9 1.041e+04 2.574e-10
 87.14423    105.1 1.036e+04 2.564e-10
 87.16324    104.9 1.045e+04 2.865e-10
 87.18279    104.5 1.076e+04 3.610e-10
 87.20234    102.9 1.163e+04 5.812e-10
 87.22189    100.3 1.286e+04 1.191e-09
 87.24144     97.7 1.411e+04 2.565e-09
 87.26099     95.2 1.556e+04 4.814e-09
 87.28054     91.9 1.724e+04 6.793e-09
 87.30009     87.1 1.800e+04 6.849e-09
 87.31964     81.7 1.773e+04 6.024e-09
 87.33919     76.9 1.615e+04 4.217e-09
 87.35874     73.2 1.409e+04 2.640e-09
 87.37829     71.6 1.288e+04 1.779e-09
 87.39784     70.2 1.215e+04 1.282e-09
 87.42727     70.0 1.182e+04 9.328e-10
 87.46646     69.7 1.122e+04 5.411e-10
 87.50557     69.6 1.068e+04 3.487e-10
 87.54467     70.2 1.026e+04 2.647e-10
 87.58377     71.6 1.002e+04 2.330e-10
 87.62287     73.4 9.903e+03 2.270e-10
 87.64865     75.3 9.866e+03 2.294e-10
 87.66820     75.2 9.626e+03 2.161e-10
 87.70107     77.1 9.664e+03 2.314e-10
 87.72219     79.1 9.691e+03 2.407e-10
 87.74174     79.6 9.471e+03 1.802e-10
 87.77927     81.5 9.488e+03 1.864e-10
 87.81837     83.4 9.509e+03 1.936e-10
 87.85747     85.2 9.517e+03 2.029e-10
 87.89657     87.0 9.505e+03 2.138e-10
 87.93567     88.6 9.469e+03 2.235e-10
 87.97477     90.2 9.456e+03 2.239e-10
 88.01387     91.6 9.439e+03 2.198e-10
 88.05298     92.8 9.423e+03 2.043e-10
 88.09208     93.8 9.445e+03 1.873e-10
 88.13118     94.8 9.471e+03 1.845e-10
 88.17028     95.6 9.501e+03 1.892e-10
 88.20938     96.4 9.570e+03 2.088e-10
 88.24848     97.2 9.669e+03 2.363e-10
 88.28758     98.0 9.783e+03 2.563e-10
 88.32668     98.6 9.881e+03 2.672e-10
 88.36578     99.2 1.003e+04 2.782e-10
 88.40488     99.4 1.020e+04 2.915e-10
 88.44398     99.5 1.030e+04 3.102e-10
 88.48308     99.7 1.024e+04 3.178e-10
 88.52218    100.1 1.022e+04 3.081e-10
 88.56128    100.6 1.003e+04 2.747e-10
 88.60039    101.1 9.783e+03 2.229e-10
 88.63949    101.6 9.574e+03 1.896e-10
 88.67859    102.2 9.560e+03 1.891e-10
 88.71769    102.4 9.606e+03 2.041e-10
 88.75679    102.3 9.830e+03 2.748e-10
 88.79589    102.2 1.024e+04 4.182e-10
 88.83499    102.2 1.062e+04 5.696e-10
 88.87409    101.8 1.077e+04 6.027e-10
 88.89729    101.1 1.070e+04 5.750e-10
 88.91684    101.5 1.150e+04 1.050e-09
 88.95229    101.4 1.114e+04 8.525e-10
 88.98208    101.6 1.055e+04 5.621e-10
 89.00163    102.3 1.068e+04 5.510e-10
 89.03049    102.5 9.997e+03 3.163e-10
 89.06959    102.7 9.326e+03 2.093e-10
 89.10869    103.4 8.844e+03 1.816e-10
 89.14780    104.8 8.674e+03 1.730e-10
 89.18690    106.6 8.582e+03 1.622e-10
 89.22600    108.4 8.462e+03 1.433e-10
 89.26510    110.1 8.359e+03 1.214e-10
 89.30420    111.7 8.369e+03 1.152e-10
 89.34330    113.2 8.417e+03 1.181e-10
 89.38240    114.3 8.612e+03 1.362e-10
 89.42150    115.4 8.963e+03 1.885e-10
 89.46060    116.4 9.331e+03 2.697e-10
 89.49970    117.5 9.662e+03 3.494e-10
 89.53880    118.6 9.764e+03 3.854e-10
 89.57790    119.6 9.775e+03 3.827e-10
 89.61700    120.8 9.766e+03 3.591e-10
 89.65610    122.0 9.680e+03 3.135e-10
 89.69521    123.1 9.506e+03 2.712e-10
 89.73431    124.3 9.300e+03 2.318e-10
 89.77341    125.5 9.185e+03 2.320e-10
 89.81251    127.0 9.191e+03 2.416e-10
 89.85161    128.7 9.206e+03 2.648e-10
 89.89071    130.4 9.242e+03 2.866e-10
 89.92981    132.3 9.228e+03 2.995e-10
 89.96891    134.1 9.193e+03 2.957e-10
 90.00801    136.0 9.119e+03 2.876e-10
 90.04711    138.0 9.101e+03 2.866e-10
 90.07238    140.0 9.111e+03 2.899e-10
 90.09193    139.3 9.009e+03 2.439e-10
 90.12531    141.2 9.014e+03 2.505e-10
 90.16441    143.1 9.074e+03 2.804e-10
 90.20351    145.0 9.251e+03 3.355e-10
 90.24262    147.0 9.513e+03 3.945e-10
 90.27184    148.0 9.603e+03 4.188e-10
 90.29130    148.9 9.672e+03 4.363e-10
 90.31085    149.5 9.755e+03 4.534e-10
 90.32509    150.1 9.845e+03 4.674e-10
 90.33496    150.7 9.707e+03 4.263e-10
 90.35005    151.2 9.717e+03 4.321e-10
 90.36950    151.6 9.749e+03 4.380e-10
 90.38905    151.8 9.777e+03 4.431e-10
 90.40860    152.0 9.796e+03 4.503e-10
 90.42815    152.1 9.816e+03 4.650e-10
 90.44770    152.1 9.855e+03 4.920e-10
 90.46725    152.1 9.926e+03 5.327e-10
 90.48680    152.0 1.002e+04 5.859e-10
 90.50635    152.1 1.014e+04 6.485e-10
 90.52590    152.2 1.027e+04 7.161e-10
 90.54545    152.4 1.042e+04 7.849e-10
 90.56500    152.6 1.058e+04 8.514e-10
 90.58455    152.8 1.079e+04 9.342e-10
 90.60410    152.8 1.100e+04 1.011e-09
 90.62365    152.7 1.115e+04 1.063e-09
 90.64320    152.4 1.125e+04 1.102e-09
 90.65973    151.8 1.133e+04 1.142e-09
 90.66951    152.3 1.103e+04 1.007e-09
 90.68230    151.6 1.107e+04 1.034e-09
 90.70185    150.9 1.107e+04 1.043e-09
 90.72140    150.3 1.107e+04 1.034e-09
 90.74095    149.6 1.130e+04 1.063e-09
 90.76050    148.1 1.277e+04 1.167e-09
 90.78006    145.8 1.523e+04 1.554e-09
 90.79961    143.6 1.672e+04 2.376e-09
 90.81916    142.2 1.710e+04 3.620e-09
 90.83871    142.3 1.709e+04 5.220e-09
 90.85826    142.6 1.724e+04 7.036e-09
 90.87781    143.1 1.789e+04 8.658e-09
 90.89736    143.8 1.883e+04 1.001e-08
 90.91197    143.6 1.980e+04 1.042e-08
 90.92170    143.4 2.020e+04 1.088e-08
 90.93147    143.3 2.085e+04 1.082e-08
 90.94125    143.2 2.083e+04 1.060e-08
 90.95596    144.2 2.060e+04 1.006e-08
 90.97556    143.7 2.002e+04 8.218e-09
 90.99181    142.5 1.848e+04 5.993e-09
 91.00158    143.8 1.894e+04 7.583e-09
 91.01466    142.5 1.739e+04 5.324e-09
 91.03421    140.1 1.579e+04 3.355e-09
 91.05376    136.3 1.476e+04 2.304e-09
 91.07331    131.5 1.397e+04 2.019e-09
 91.09286    126.8 1.394e+04 2.145e-09
 91.11241    123.0 1.388e+04 2.496e-09
 91.13196    119.7 1.397e+04 2.773e-09
 91.15151    116.4 1.402e+04 2.758e-09
 91.17106    112.9 1.395e+04 2.560e-09
 91.19061    109.1 1.354e+04 2.113e-09
 91.21016    105.4 1.279e+04 1.631e-09
 91.22971    102.4 1.191e+04 1.221e-09
 91.24728    100.2 1.116e+04 9.292e-10
 91.25706     98.5 1.149e+04 1.030e-09
 91.26881     96.8 1.096e+04 8.267e-10
 91.28836     95.9 1.083e+04 7.496e-10
 91.30792     95.1 1.094e+04 7.674e-10
 91.32747     94.3 1.149e+04 9.001e-10
 91.34702     93.5 1.259e+04 1.196e-09
 91.36657     92.8 1.388e+04 1.710e-09
 91.38612     92.7 1.463e+04 2.282e-09
 91.40073     93.8 1.437e+04 2.188e-09
 91.41046     94.3 1.430e+04 2.137e-09
 91.42023     94.3 1.442e+04 2.248e-09
 91.43001     93.5 1.520e+04 2.764e-09
 91.43978     90.6 1.817e+04 4.547e-09
 91.44956     85.6 2.255e+04 9.571e-09
 91.45933     80.7 2.467e+04 2.232e-08
 91.46911     77.5 2.460e+04 4.715e-08
 91.47888     75.9 2.401e+04 7.854e-08
 91.48866     74.8 2.391e+04 9.062e-08
 91.49843     73.9 2.383e+04 8.275e-08
 91.50821     73.1 2.378e+04 6.289e-08
 91.51798     71.8 2.382e+04 3.730e-08
 91.52776     69.6 2.332e+04 1.934e-08
 91.54247     62.5 1.968e+04 6.624e-09
 91.56207     55.1 1.361e+04 2.303e-09
 91.58162     51.0 1.191e+04 1.202e-09
 91.60117     50.2 1.162e+04 1.006e-09
 91.62072     49.7 1.140e+04 9.434e-10
 91.64027     49.3 1.127e+04 9.456e-10
 91.65852     49.1 1.128e+04 9.836e-10
 91.66830     48.2 1.216e+04 1.482e-09
 91.67937     48.3 1.231e+04 1.626e-09
 91.69892     48.7 1.252e+04 1.709e-09
 91.71847     49.1 1.258e+04 1.701e-09
 91.73802     49.5 1.258e+04 1.612e-09
 91.75757     49.5 1.236e+04 1.416e-09
 91.77712     49.2 1.202e+04 1.220e-09
 91.79667     48.8 1.164e+04 1.064e-09
 91.81622     48.4 1.131e+04 9.582e-10
 91.83483     48.1 1.114e+04 8.944e-10
 91.84460     48.1 1.141e+04 9.658e-10
 91.85533     47.6 1.129e+04 9.342e-10
 91.87488     47.4 1.129e+04 9.357e-10
 91.89443     47.2 1.135e+04 9.727e-10
 91.91398     46.8 1.148e+04 1.051e-09
 91.93353     46.2 1.172e+04 1.162e-09
 91.95308     45.1 1.213e+04 1.318e-09
 91.97263     43.6 1.266e+04 1.531e-09
 91.99218     41.7 1.317e+04 1.780e-09
 92.01173     39.6 1.365e+04 2.111e-09
 92.03128     37.7 1.358e+04 2.179e-09
 92.05083     36.1 1.334e+04 2.078e-09
 92.07038     35.3 1.266e+04 1.749e-09
 92.08993     34.6 1.210e+04 1.426e-09
 92.10948     34.7 1.145e+04 1.045e-09
 92.12903     34.4 1.098e+04 8.013e-10
 92.14858     34.9 1.032e+04 5.491e-10
 92.16813     34.9 1.023e+04 5.021e-10
 92.19755     36.2 9.735e+03 3.816e-10
 92.23675     37.6 9.580e+03 3.267e-10
 92.27585     39.3 9.613e+03 3.339e-10
 92.31495     40.8 9.669e+03 3.608e-10
 92.35405     42.3 9.620e+03 3.591e-10
 92.39316     43.4 9.580e+03 3.456e-10
 92.42257     44.0 9.576e+03 3.312e-10
 92.44212     41.8 9.650e+03 2.929e-10
 92.46148     41.8 9.812e+03 3.440e-10
 92.48094     41.7 9.919e+03 3.792e-10
 92.50049     41.8 1.003e+04 4.465e-10
 92.52004     42.0 1.002e+04 4.820e-10
 92.54946     42.7 9.978e+03 4.495e-10
 92.58866     43.6 9.800e+03 3.497e-10
 92.62776     43.5 9.671e+03 2.758e-10
 92.66686     43.5 9.667e+03 2.811e-10
 92.70596     43.7 9.722e+03 3.359e-10
 92.74506     44.5 9.793e+03 4.275e-10
 92.78416     45.6 9.852e+03 4.517e-10
 92.82326     46.6 9.853e+03 4.138e-10
 92.86236     47.0 9.857e+03 3.430e-10
 92.90146     47.0 9.803e+03 3.029e-10
 92.94057     47.3 9.685e+03 2.836e-10
 92.97967     47.8 9.454e+03 2.530e-10
 93.00192     48.4 9.293e+03 2.331e-10
 93.02147     48.4 9.306e+03 2.210e-10
 93.05787     48.6 9.318e+03 2.214e-10
 93.09697     48.4 9.588e+03 2.521e-10
 93.13607     46.9 1.039e+04 4.462e-10
 93.17517     45.9 1.128e+04 9.051e-10
 93.21427     46.0 1.167e+04 1.280e-09
 93.24350     46.0 1.169e+04 1.272e-09
 93.26295     45.7 1.167e+04 1.147e-09
 93.28250     45.1 1.144e+04 9.160e-10
 93.30205     44.0 1.110e+04 7.252e-10
 93.32160     42.8 1.090e+04 6.215e-10
 93.34115     41.8 1.078e+04 5.902e-10
 93.36070     41.2 1.069e+04 5.841e-10
 93.38025     40.9 1.060e+04 5.871e-10
 93.39980     40.7 1.055e+04 5.966e-10
 93.41935     40.5 1.057e+04 6.157e-10
 93.43890     40.2 1.064e+04 6.545e-10
 93.45845     40.0 1.073e+04 7.117e-10
 93.47801     39.9 1.078e+04 7.710e-10
 93.49756     39.9 1.073e+04 7.984e-10
 93.51711     39.9 1.066e+04 7.888e-10
 93.53666     39.9 1.052e+04 7.549e-10
 93.55621     39.8 1.035e+04 7.052e-10
 93.57576     39.8 1.019e+04 6.643e-10
 93.59531     40.0 1.006e+04 6.126e-10
 93.60724     40.3 9.961e+03 5.659e-10
 93.61702     40.7 9.831e+03 5.119e-10
 93.64428     41.5 9.777e+03 4.489e-10
 93.68348     42.3 9.616e+03 3.545e-10
 93.72258     42.7 9.606e+03 3.106e-10
 93.76168     43.0 9.710e+03 3.288e-10
 93.80078     43.7 9.927e+03 3.755e-10
 93.83988     44.5 1.011e+04 4.131e-10
 93.86911     44.5 1.018e+04 4.179e-10
 93.88856     44.6 1.015e+04 4.136e-10
 93.90811     44.6 1.018e+04 4.190e-10
 93.92766     44.5 1.020e+04 4.293e-10
 93.94721     44.4 1.026e+04 4.578e-10
 93.96676     44.2 1.032e+04 5.066e-10
 93.98631     44.2 1.039e+04 5.759e-10
 94.00587     44.3 1.048e+04 6.560e-10
 94.02542     44.7 1.059e+04 7.182e-10
 94.04497     45.1 1.061e+04 7.210e-10
 94.06452     45.6 1.059e+04 6.960e-10
 94.08407     45.9 1.052e+04 6.301e-10
 94.10362     45.9 1.042e+04 4.624e-10
 94.12317     45.7 1.032e+04 4.002e-10
 94.15259     45.9 1.009e+04 3.337e-10
 94.19179     46.0 1.003e+04 3.390e-10
 94.23089     46.5 9.971e+03 3.810e-10
 94.26999     47.5 9.889e+03 3.842e-10
 94.30909     48.8 9.773e+03 3.514e-10
 94.33535     49.8 9.666e+03 3.034e-10
 94.35490     49.8 9.868e+03 3.379e-10
 94.38729     50.5 9.899e+03 3.405e-10
 94.42639     51.1 9.908e+03 3.719e-10
 94.46549     52.3 9.841e+03 4.458e-10
 94.50459     53.9 9.904e+03 5.374e-10
 94.54370     55.3 9.954e+03 5.733e-10
 94.58280     56.7 9.911e+03 5.549e-10
 94.62190     58.2 9.773e+03 5.008e-10
 94.66100     59.8 9.584e+03 4.370e-10
 94.70010     61.6 9.360e+03 3.842e-10
 94.73920     63.4 9.156e+03 3.416e-10
 94.77276     65.5 8.980e+03 3.102e-10
 94.79231     65.7 8.956e+03 2.990e-10
 94.81740     67.9 8.825e+03 2.787e-10
 94.85650     70.1 8.715e+03 2.623e-10
 94.89560     72.4 8.607e+03 2.443e-10
 94.93470     74.6 8.477e+03 2.205e-10
 94.97380     76.8 8.316e+03 1.898e-10
 95.01290     79.0 8.128e+03 1.547e-10
 95.05200     81.1 7.930e+03 1.208e-10
 95.09111     83.1 7.752e+03 9.353e-11
 95.13021     85.0 7.596e+03 7.397e-11
 95.16931     86.6 7.418e+03 6.423e-11
 95.20841     88.4 7.349e+03 6.362e-11
 95.24751     90.3 7.343e+03 6.435e-11
 95.28661     92.1 7.341e+03 6.831e-11
 95.32571     93.8 7.366e+03 7.643e-11
 95.36481     95.5 7.469e+03 8.926e-11
 95.40391     97.0 7.621e+03 1.093e-10
 95.44301     98.5 7.792e+03 1.358e-10
 95.48211     99.8 7.961e+03 1.660e-10
 95.52121    101.1 8.111e+03 1.960e-10
 95.56031    102.2 8.237e+03 2.221e-10
 95.59941    103.1 8.349e+03 2.447e-10
 95.63852    103.9 8.451e+03 2.666e-10
 95.66878    104.5 8.564e+03 2.926e-10
 95.68833    104.5 8.809e+03 3.427e-10
 95.71672    105.1 8.972e+03 3.812e-10
 95.75582    105.5 8.997e+03 3.965e-10
 95.78505    106.0 8.950e+03 3.932e-10
 95.80450    106.4 8.974e+03 4.139e-10
 95.82405    106.8 9.035e+03 4.512e-10
 95.84360    106.8 9.140e+03 5.097e-10
 95.86315    105.0 1.116e+04 6.035e-10
 95.87776     98.1 1.929e+04 8.627e-10
 95.88749     83.0 2.893e+04 4.019e-09
 95.89726     72.5 2.569e+04 1.906e-08
 95.90704     70.6 2.220e+04 5.325e-08
 95.91682     70.2 2.127e+04 9.427e-08
 95.92659     69.2 2.297e+04 9.645e-08
 95.93637     67.1 2.465e+04 7.566e-08
 95.94614     64.3 3.244e+04 2.558e-08
 95.95738     52.9 4.920e+04 2.846e-09
 95.96716     53.1 5.090e+04 2.522e-09
 95.98040     34.7 4.506e+04 7.020e-10
 96.00000     12.7 1.094e+04 6.972e-10
 96.01955     11.3 9.818e+03 5.793e-10
 96.03910     11.1 9.712e+03 5.595e-10
 96.06853     12.1 9.563e+03 5.260e-10
 96.10772     12.9 9.315e+03 4.506e-10
 96.14683     13.9 9.053e+03 3.648e-10
 96.18593     14.9 8.859e+03 2.974e-10
 96.22503     15.6 8.764e+03 2.598e-10
 96.26413     16.6 8.775e+03 2.610e-10
 96.30323     17.8 8.920e+03 2.942e-10
 96.34233     19.2 9.102e+03 3.486e-10
 96.38143     20.7 9.309e+03 4.055e-10
 96.42053     22.0 9.527e+03 4.727e-10
 96.45963     23.2 9.748e+03 5.374e-10
 96.49873     24.1 1.001e+04 6.039e-10
 96.53783     24.6 1.024e+04 6.709e-10
 96.57693     25.1 1.042e+04 7.478e-10
 96.61603     26.0 1.061e+04 7.750e-10
 96.64526     27.2 1.065e+04 8.044e-10
 96.66471     27.3 1.060e+04 7.523e-10
 96.68426     27.6 1.045e+04 6.743e-10
 96.70382     27.4 1.048e+04 6.328e-10
 96.72337     27.6 1.040e+04 5.937e-10
 96.74292     27.5 1.046e+04 6.005e-10
 96.76247     27.7 1.046e+04 6.142e-10
 96.78202     27.5 1.054e+04 6.393e-10
 96.81144     27.8 1.035e+04 6.082e-10
 96.85064     29.0 1.050e+04 6.785e-10
 96.88974     30.1 1.053e+04 6.669e-10
 96.92884     30.6 1.060e+04 6.311e-10
 96.96794     31.0 1.058e+04 5.880e-10
 97.00221     31.7 1.046e+04 5.457e-10
 97.02176     32.7 1.070e+04 6.147e-10
 97.04614     33.7 1.058e+04 5.097e-10
 97.08524     34.3 1.043e+04 4.402e-10
 97.11447     32.9 1.138e+04 5.276e-10
 97.13252     32.2 1.174e+04 5.736e-10
 97.14240     35.7 1.103e+04 4.837e-10
 97.15357     29.7 1.316e+04 1.005e-09
 97.17302     28.2 1.324e+04 2.119e-09
 97.19257     29.5 1.318e+04 3.193e-09
 97.21212     31.1 1.329e+04 3.024e-09
 97.23167     32.5 1.325e+04 2.166e-09
 97.25123     30.5 1.334e+04 1.237e-09
 97.28065     28.8 1.225e+04 6.979e-10
 97.31985     26.9 1.058e+04 3.062e-10
 97.35895     27.3 1.015e+04 2.124e-10
 97.39805     28.9 9.874e+03 1.767e-10
 97.43715     30.9 9.730e+03 1.468e-10
 97.47625     32.7 9.723e+03 1.183e-10
 97.51535     34.3 9.786e+03 1.011e-10
 97.55445     35.6 9.829e+03 1.037e-10
 97.59355     36.7 9.932e+03 1.187e-10
 97.63265     37.8 1.005e+04 1.466e-10
 97.67175     38.9 1.017e+04 1.829e-10
 97.71085     39.9 1.036e+04 2.201e-10
 97.74995     40.7 1.051e+04 2.335e-10
 97.78906     41.3 1.048e+04 2.214e-10
 97.82816     42.0 1.040e+04 1.771e-10
 97.86726     42.0 1.035e+04 1.273e-10
 97.90636     41.7 1.041e+04 1.078e-10
 97.94546     41.1 1.050e+04 1.115e-10
 97.98456     40.4 1.077e+04 1.334e-10
 98.02366     40.3 1.096e+04 1.748e-10
 98.06276     40.5 1.088e+04 1.899e-10
 98.10186     40.5 1.084e+04 1.806e-10
 98.14096     40.3 1.081e+04 1.701e-10
 98.18006     39.3 1.091e+04 1.820e-10
 98.21916     38.1 1.102e+04 2.524e-10
 98.25826     37.8 1.094e+04 3.570e-10
 98.29736     38.3 1.076e+04 3.425e-10
 98.31759     39.6 1.043e+04 2.508e-10
 98.33631     40.2 1.053e+04 2.815e-10
 98.35519     40.2 1.070e+04 3.351e-10
 98.37557     40.8 1.051e+04 1.893e-10
 98.41467     40.2 1.051e+04 1.081e-10
 98.45377     39.9 1.040e+04 1.027e-10
 98.49287     40.2 1.034e+04 1.108e-10
 98.53197     41.2 1.035e+04 1.255e-10
 98.57107     42.3 1.041e+04 1.382e-10
 98.61017     43.5 1.047e+04 1.450e-10
 98.64927     44.3 1.055e+04 1.527e-10
 98.68837     44.7 1.062e+04 1.806e-10
 98.72747     45.4 1.062e+04 2.327e-10
 98.76657     46.2 1.064e+04 2.650e-10
 98.80567     47.1 1.058e+04 2.567e-10
 98.84477     48.0 1.049e+04 2.169e-10
 98.88388     48.5 1.047e+04 1.671e-10
 98.92298     48.7 1.037e+04 1.531e-10
 98.96208     49.1 1.030e+04 1.595e-10
 99.00118     49.8 1.020e+04 1.703e-10
 99.04028     50.7 1.016e+04 1.693e-10
 99.07938     51.5 1.009e+04 1.621e-10
 99.11848     52.3 1.004e+04 1.478e-10
 99.15758     53.1 9.965e+03 1.319e-10
 99.19668     54.2 9.858e+03 1.186e-10
 99.23578     55.4 9.753e+03 1.076e-10
 99.27488     56.7 9.653e+03 9.984e-11
 99.31398     58.1 9.596e+03 9.861e-11
 99.35308     59.6 9.594e+03 1.009e-10
 99.39219     61.1 9.610e+03 1.089e-10
 99.43129     62.5 9.661e+03 1.237e-10
 99.47039     63.9 9.747e+03 1.473e-10
 99.49268     65.2 9.846e+03 1.819e-10
 99.51223     67.1 9.792e+03 1.678e-10
 99.54859     68.4 9.932e+03 2.177e-10
 99.58769     69.8 1.007e+04 2.765e-10
 99.62679     71.1 1.021e+04 3.357e-10
 99.66589     72.4 1.025e+04 3.717e-10
 99.68862     73.7 1.017e+04 3.374e-10
 99.70817     73.6 1.008e+04 3.158e-10
 99.74409     74.8 9.916e+03 2.542e-10
 99.78319     75.8 9.724e+03 1.916e-10
 99.82229     76.7 9.551e+03 1.472e-10
 99.86139     77.8 9.427e+03 1.225e-10
 99.90049     79.2 9.444e+03 1.137e-10
 99.93960     80.7 9.456e+03 1.174e-10
 99.97870     82.1 9.543e+03 1.321e-10
100.01780     83.5 9.718e+03 1.665e-10
