# Columns:
#   distance along LOS (in CHIMPs)
#   peculiar velocity  (in km/s)
#   temperature (K)
#   HI number density
# pos=(37.9978,73.9075,230.782), angles=(1.51523,4.80112)
  0.00208     91.1 1.559e+04 2.594e-09
  0.00473     91.0 1.609e+04 3.225e-09
  0.01512     92.2 1.555e+04 2.548e-09
  0.03476     93.5 1.501e+04 2.059e-09
  0.05440     94.9 1.453e+04 1.718e-09
  0.07404     96.4 1.414e+04 1.491e-09
  0.09368     97.8 1.386e+04 1.341e-09
  0.11331     99.2 1.364e+04 1.239e-09
  0.13295    100.6 1.349e+04 1.177e-09
  0.15259    102.0 1.342e+04 1.160e-09
  0.17223    103.3 1.340e+04 1.173e-09
  0.19187    104.5 1.341e+04 1.214e-09
  0.21151    105.6 1.345e+04 1.291e-09
  0.22312    106.9 1.353e+04 1.407e-09
  0.23294    106.3 1.451e+04 2.163e-09
  0.25079    107.6 1.449e+04 2.357e-09
  0.26174    109.0 1.436e+04 2.469e-09
  0.27156    109.0 1.425e+04 2.003e-09
  0.29006    110.6 1.417e+04 2.053e-09
  0.30970    112.2 1.405e+04 2.032e-09
  0.32934    113.9 1.382e+04 1.916e-09
  0.34898    115.5 1.351e+04 1.703e-09
  0.36862    117.1 1.312e+04 1.430e-09
  0.38826    118.6 1.274e+04 1.150e-09
  0.40789    120.1 1.238e+04 9.161e-10
  0.42753    121.3 1.208e+04 7.492e-10
  0.44151    122.5 1.181e+04 6.433e-10
  0.45133    121.5 1.184e+04 6.496e-10
  0.46681    122.6 1.154e+04 5.923e-10
  0.48645    124.0 1.130e+04 5.682e-10
  0.50609    125.4 1.120e+04 5.681e-10
  0.52573    126.9 1.116e+04 5.769e-10
  0.54537    128.4 1.111e+04 5.968e-10
  0.56500    130.1 1.111e+04 6.265e-10
  0.58464    131.8 1.118e+04 6.645e-10
  0.60428    133.4 1.130e+04 7.067e-10
  0.61432    134.9 1.147e+04 7.390e-10
  0.62414    134.7 1.173e+04 7.358e-10
  0.64356    135.8 1.209e+04 7.432e-10
  0.65990    135.8 1.235e+04 6.234e-10
  0.66972    135.2 1.191e+04 6.285e-10
  0.68284    136.1 1.183e+04 6.441e-10
  0.70248    137.7 1.131e+04 7.546e-10
  0.72211    138.8 1.104e+04 7.628e-10
  0.74175    139.6 1.080e+04 7.301e-10
  0.76139    140.4 1.063e+04 7.281e-10
  0.78103    141.9 1.067e+04 7.326e-10
  0.80067    143.0 1.043e+04 7.149e-10
  0.82031    144.0 1.006e+04 6.626e-10
  0.83995    145.7 1.005e+04 6.271e-10
  0.85958    147.1 1.028e+04 5.151e-10
  0.87829    149.1 1.017e+04 4.846e-10
  0.88820    148.8 1.073e+04 5.161e-10
  0.90888    152.0 1.051e+04 4.345e-10
  0.94815    155.2 1.021e+04 3.694e-10
  0.98743    158.2 1.003e+04 3.325e-10
  1.02671    161.5 9.920e+03 3.240e-10
  1.06599    164.9 9.828e+03 3.231e-10
  1.10526    168.5 9.818e+03 3.271e-10
  1.14454    172.8 1.017e+04 3.501e-10
  1.17390    173.9 1.052e+04 3.701e-10
  1.19344    175.2 1.056e+04 3.817e-10
  1.21308    177.0 1.052e+04 3.879e-10
  1.23272    179.0 1.046e+04 3.912e-10
  1.25236    181.1 1.039e+04 3.935e-10
  1.27200    183.1 1.035e+04 3.951e-10
  1.29164    185.1 1.034e+04 3.957e-10
  1.30966    187.0 1.034e+04 3.972e-10
  1.31948    187.3 1.033e+04 3.862e-10
  1.32488    189.3 1.035e+04 3.912e-10
  1.33470    189.4 1.030e+04 3.910e-10
  1.35055    191.3 1.033e+04 4.019e-10
  1.37019    193.2 1.037e+04 4.167e-10
  1.38983    195.1 1.042e+04 4.354e-10
  1.40947    197.0 1.049e+04 4.590e-10
  1.42911    198.9 1.059e+04 4.887e-10
  1.44875    200.6 1.073e+04 5.254e-10
  1.46838    202.3 1.091e+04 5.714e-10
  1.48802    203.8 1.112e+04 6.309e-10
  1.50766    205.1 1.139e+04 7.079e-10
  1.52730    206.3 1.169e+04 8.056e-10
  1.54327    207.3 1.202e+04 9.264e-10
  1.55309    207.2 1.228e+04 1.041e-09
  1.56658    208.1 1.272e+04 1.240e-09
  1.58622    209.0 1.315e+04 1.473e-09
  1.60586    209.9 1.355e+04 1.723e-09
  1.62549    210.8 1.389e+04 1.952e-09
  1.64513    211.6 1.410e+04 2.052e-09
  1.66224    212.3 1.411e+04 2.039e-09
  1.67206    212.6 1.391e+04 1.892e-09
  1.68441    213.2 1.388e+04 1.853e-09
  1.70405    213.8 1.374e+04 1.690e-09
  1.72369    214.5 1.342e+04 1.454e-09
  1.74333    215.2 1.303e+04 1.233e-09
  1.76166    215.8 1.269e+04 1.034e-09
  1.77148    215.6 1.293e+04 1.071e-09
  1.78260    216.0 1.261e+04 8.875e-10
  1.80224    216.3 1.246e+04 8.293e-10
  1.82188    216.9 1.249e+04 8.286e-10
  1.84152    217.6 1.257e+04 8.315e-10
  1.86116    218.3 1.270e+04 8.523e-10
  1.88080    219.1 1.286e+04 9.146e-10
  1.90044    219.8 1.303e+04 1.016e-09
  1.92007    220.5 1.316e+04 1.149e-09
  1.93971    221.0 1.316e+04 1.313e-09
  1.95935    221.0 1.352e+04 1.596e-09
  1.97899    220.0 1.528e+04 2.253e-09
  1.98987    217.6 1.723e+04 3.045e-09
  1.99473    216.3 1.772e+04 3.188e-09
  2.00344    215.9 1.820e+04 3.621e-09
  2.01326    214.6 1.903e+04 4.493e-09
  2.01964    212.0 2.056e+04 6.279e-09
  2.02455    215.1 1.990e+04 5.074e-09
  2.03290    211.0 2.207e+04 7.965e-09
  2.04272    206.2 2.378e+04 1.406e-08
  2.05254    202.0 2.454e+04 2.470e-08
  2.06236    199.0 2.470e+04 3.744e-08
  2.07218    196.6 2.455e+04 4.182e-08
  2.08200    194.9 2.450e+04 4.092e-08
  2.09182    193.9 2.438e+04 3.557e-08
  2.09897    193.4 2.421e+04 2.635e-08
  2.10388    191.5 2.438e+04 2.413e-08
  2.11641    191.6 2.404e+04 1.220e-08
  2.13610    186.9 2.351e+04 3.174e-09
  2.15574    179.1 1.808e+04 1.326e-09
  2.17538    172.6 1.534e+04 1.308e-09
  2.19502    169.3 1.533e+04 1.356e-09
  2.20826    167.2 1.602e+04 1.678e-09
  2.21808    165.1 1.679e+04 2.173e-09
  2.23429    162.9 1.789e+04 3.217e-09
  2.25393    160.7 1.878e+04 4.530e-09
  2.27357    158.4 1.963e+04 5.579e-09
  2.29321    155.3 2.049e+04 5.817e-09
  2.31285    151.1 2.080e+04 5.599e-09
  2.33249    145.8 2.103e+04 4.751e-09
  2.35213    139.7 2.049e+04 3.836e-09
  2.36741    133.5 1.951e+04 3.175e-09
  2.37722    137.0 2.015e+04 3.684e-09
  2.39140    131.5 1.949e+04 3.197e-09
  2.41104    126.7 1.875e+04 2.688e-09
  2.42665    122.3 1.794e+04 2.139e-09
  2.43647    120.3 1.721e+04 1.754e-09
  2.45032    116.0 1.646e+04 1.305e-09
  2.46996    110.7 1.650e+04 1.078e-09
  2.48960    103.5 1.682e+04 1.114e-09
  2.50924     92.8 1.826e+04 1.430e-09
  2.52887     82.0 1.970e+04 2.527e-09
  2.54851     74.4 1.976e+04 3.488e-09
  2.56815     69.0 1.956e+04 3.425e-09
  2.58779     64.0 1.916e+04 2.810e-09
  2.60743     57.7 1.865e+04 1.688e-09
  2.62707     49.5 1.726e+04 7.933e-10
  2.64504     40.9 1.451e+04 3.416e-10
  2.65486     40.1 1.422e+04 3.505e-10
  2.66635     33.4 1.394e+04 3.257e-10
  2.68598     26.4 1.497e+04 4.140e-10
  2.70562     21.3 1.547e+04 5.895e-10
  2.71999     17.8 1.595e+04 8.643e-10
  2.72981     19.2 1.595e+04 8.927e-10
  2.74490     17.2 1.679e+04 1.269e-09
  2.76454     15.8 1.799e+04 1.701e-09
  2.78418     14.2 2.306e+04 1.589e-09
  2.80382     12.1 3.019e+04 1.288e-09
  2.82345      8.7 2.158e+04 1.458e-09
  2.84309      3.6 2.009e+04 1.612e-09
  2.86273     -0.8 1.974e+04 1.755e-09
  2.87324     -2.7 1.990e+04 2.017e-09
  2.88306      0.0 1.880e+04 1.521e-09
  2.90201     -1.1 1.895e+04 1.493e-09
  2.92165     -2.3 1.879e+04 1.315e-09
  2.94129     -4.3 1.826e+04 1.064e-09
  2.96093     -6.5 1.746e+04 8.616e-10
  2.98056     -8.4 1.686e+04 7.386e-10
  3.00020     -9.8 1.671e+04 6.973e-10
  3.01984    -11.2 1.675e+04 6.676e-10
  3.03948    -12.6 1.661e+04 6.259e-10
  3.05912    -14.2 1.655e+04 5.889e-10
  3.07257    -16.8 1.743e+04 6.342e-10
  3.08239    -12.3 1.796e+04 7.471e-10
  3.09163    -16.6 2.010e+04 9.258e-10
  3.10145    -15.0 2.037e+04 1.391e-09
  3.11804    -20.6 2.285e+04 2.139e-09
  3.13767    -27.6 2.579e+04 3.621e-09
  3.15235    -36.7 2.590e+04 5.452e-09
  3.16212    -44.5 3.444e+04 7.144e-09
  3.17194    -67.6 7.032e+04 7.979e-09
  3.18176    -90.3 4.792e+04 1.231e-07
  3.19158   -110.6 3.196e+04 7.922e-07
  3.20073   -133.7 2.678e+04 1.025e-06
  3.20564   -116.4 3.136e+04 9.051e-07
  3.21122   -141.2 2.535e+04 8.557e-07
  3.22104   -171.6 2.598e+04 6.299e-08
  3.23086   -198.9 6.050e+04 1.745e-09
  3.24068   -221.3 2.031e+05 1.523e-10
  3.24876   -236.6 3.619e+05 6.539e-11
  3.25367   -244.4 8.856e+05 2.787e-11
  3.26032   -244.0 9.297e+05 2.344e-11
  3.27014   -238.8 9.707e+05 1.973e-11
  3.27996   -233.2 1.017e+06 1.784e-11
  3.29473   -236.3 1.036e+06 1.652e-11
  3.31002   -225.8 1.207e+06 1.322e-11
  3.31984   -215.9 1.227e+06 1.433e-11
  3.33406   -191.4 1.336e+06 1.293e-11
  3.35370   -154.3 1.435e+06 1.250e-11
  3.37334   -122.1 1.426e+06 1.391e-11
  3.39298   -105.4 1.478e+06 1.347e-11
  3.41262    -98.5 1.578e+06 8.989e-12
  3.42515   -145.5 1.115e+06 6.777e-12
  3.43497    -51.3 1.689e+06 9.920e-12
  3.45189   -142.4 9.589e+05 8.162e-12
  3.47153   -218.0 5.160e+04 1.295e-10
  3.49117   -219.7 1.528e+04 3.164e-10
  3.51081   -217.8 1.513e+04 3.239e-10
  3.52841   -216.2 1.503e+04 3.479e-10
  3.53823   -217.0 1.495e+04 3.503e-10
  3.55009   -215.1 1.510e+04 3.925e-10
  3.56973   -212.8 1.528e+04 4.479e-10
  3.58936   -210.4 1.547e+04 5.217e-10
  3.60900   -207.9 1.563e+04 6.257e-10
  3.62864   -205.8 1.578e+04 7.844e-10
  3.64828   -205.8 1.802e+04 9.592e-10
  3.66792   -208.6 3.384e+04 9.521e-10
  3.68260   -220.5 4.575e+04 3.285e-09
  3.69237   -220.5 4.763e+04 3.848e-09
  3.70219   -224.8 3.929e+04 2.047e-08
  3.71201   -226.7 3.450e+04 6.127e-08
  3.72183   -229.0 3.149e+04 1.389e-07
  3.73165   -231.2 2.943e+04 2.368e-07
  3.74147   -233.6 2.813e+04 3.157e-07
  3.75129   -236.1 2.758e+04 3.468e-07
  3.75652   -239.0 2.712e+04 3.612e-07
  3.76143   -240.4 2.835e+04 3.011e-07
  3.77092   -243.4 2.691e+04 2.908e-07
  3.77763   -246.7 2.574e+04 2.283e-07
  3.78254   -254.3 2.411e+04 5.165e-08
  3.79056   -256.4 2.324e+04 2.586e-08
  3.80038   -257.7 2.253e+04 1.443e-08
  3.81020   -258.3 2.199e+04 9.594e-09
  3.82002   -258.4 2.161e+04 7.506e-09
  3.82984   -258.3 2.138e+04 6.588e-09
  3.83966   -258.1 2.122e+04 6.213e-09
  3.84948   -257.7 2.105e+04 6.139e-09
  3.85930   -257.3 2.091e+04 6.203e-09
  3.86572   -256.7 2.083e+04 6.293e-09
  3.87063   -255.8 2.069e+04 6.496e-09
  3.87894   -255.1 2.067e+04 6.487e-09
  3.88876   -254.3 2.064e+04 6.517e-09
  3.89858   -253.6 2.059e+04 6.577e-09
  3.90840   -252.9 2.049e+04 6.638e-09
  3.91821   -252.2 2.035e+04 6.675e-09
  3.92803   -251.3 2.026e+04 6.731e-09
  3.93785   -250.2 2.021e+04 6.919e-09
  3.94767   -249.0 2.026e+04 7.229e-09
  3.95392   -248.0 2.037e+04 7.607e-09
  3.95883   -248.5 2.010e+04 6.776e-09
  3.96731   -247.5 2.019e+04 7.192e-09
  3.97491   -246.5 2.024e+04 7.596e-09
  3.97982   -245.7 2.003e+04 7.261e-09
  3.98695   -244.6 2.008e+04 7.623e-09
  3.99677   -243.3 2.019e+04 7.899e-09
  4.00659   -242.0 2.029e+04 8.182e-09
  4.01641   -240.9 2.041e+04 8.467e-09
  4.02623   -239.8 2.051e+04 8.699e-09
  4.03605   -238.8 2.058e+04 8.892e-09
  4.04587   -237.6 2.065e+04 9.102e-09
  4.05569   -236.5 2.075e+04 9.315e-09
  4.06550   -235.5 2.079e+04 9.454e-09
  4.08028   -234.4 2.068e+04 9.601e-09
  4.09997   -231.6 2.077e+04 9.939e-09
  4.11961   -229.0 2.090e+04 1.024e-08
  4.13031   -226.5 2.100e+04 1.057e-08
  4.14013   -226.2 2.103e+04 1.061e-08
  4.15889   -223.5 2.114e+04 1.098e-08
  4.17852   -220.9 2.188e+04 1.143e-08
  4.19321   -218.8 2.243e+04 1.151e-08
  4.19821   -217.4 2.343e+04 1.267e-08
  4.20317   -218.6 2.135e+04 1.234e-08
  4.21780   -216.0 2.279e+04 1.291e-08
  4.23248   -213.5 2.408e+04 1.356e-08
  4.24225   -212.1 2.464e+04 1.362e-08
  4.25207   -210.7 2.503e+04 1.330e-08
  4.26189   -209.8 2.565e+04 1.273e-08
  4.27171   -209.2 2.626e+04 1.229e-08
  4.28153   -208.9 2.664e+04 1.236e-08
  4.29135   -208.7 2.645e+04 1.368e-08
  4.30117   -208.3 2.679e+04 1.390e-08
  4.30650   -208.0 2.827e+04 1.214e-08
  4.30783   -207.8 3.072e+04 1.467e-08
  4.31231   -207.6 2.888e+04 4.076e-09
  4.32081   -209.2 3.041e+04 2.308e-09
  4.33063   -212.5 3.076e+04 1.464e-09
  4.34045   -216.8 2.971e+04 1.299e-09
  4.35027   -221.0 2.866e+04 1.319e-09
  4.36009   -223.4 2.979e+04 1.341e-09
  4.36990   -224.9 3.149e+04 1.613e-09
  4.37972   -225.7 3.454e+04 2.318e-09
  4.38954   -226.3 3.614e+04 3.604e-09
  4.39936   -227.7 3.675e+04 5.286e-09
  4.40918   -229.3 3.688e+04 7.275e-09
  4.41660   -230.7 3.618e+04 9.250e-09
  4.42156   -227.3 2.246e+04 1.902e-09
  4.43383   -228.9 2.740e+04 2.392e-09
  4.45347   -229.9 2.804e+04 3.505e-09
  4.47307   -230.1 2.617e+04 4.812e-09
  4.49271   -230.9 2.393e+04 7.499e-09
  4.51238   -228.5 2.266e+04 6.538e-09
  4.53202   -225.4 2.140e+04 5.729e-09
  4.55166   -222.4 2.016e+04 5.082e-09
  4.57130   -219.9 1.903e+04 4.567e-09
  4.59094   -217.6 1.815e+04 4.129e-09
  4.61058   -215.3 1.734e+04 3.752e-09
  4.63018   -213.1 1.665e+04 3.407e-09
  4.64982   -210.0 1.540e+04 2.759e-09
  4.66949   -207.8 1.506e+04 2.668e-09
  4.68913   -205.5 1.475e+04 2.547e-09
  4.70877   -203.3 1.450e+04 2.391e-09
  4.72841   -201.1 1.421e+04 2.202e-09
  4.74805   -199.1 1.390e+04 1.998e-09
  4.76769   -197.0 1.356e+04 1.798e-09
  4.78732   -194.8 1.322e+04 1.625e-09
  4.80696   -192.6 1.294e+04 1.490e-09
  4.82565   -190.5 1.272e+04 1.387e-09
  4.83547   -190.8 1.246e+04 1.288e-09
  4.84624   -188.8 1.231e+04 1.226e-09
  4.85839   -186.8 1.216e+04 1.169e-09
  4.86820   -186.2 1.227e+04 1.287e-09
  4.88552   -184.2 1.213e+04 1.232e-09
  4.90516   -182.1 1.204e+04 1.197e-09
  4.92480   -179.8 1.201e+04 1.188e-09
  4.94443   -177.7 1.204e+04 1.196e-09
  4.96407   -175.8 1.212e+04 1.230e-09
  4.98371   -174.0 1.219e+04 1.267e-09
  5.00335   -172.2 1.228e+04 1.311e-09
  5.02299   -170.5 1.243e+04 1.392e-09
  5.04263   -169.0 1.269e+04 1.538e-09
  5.06227   -167.9 1.310e+04 1.771e-09
  5.07677   -167.0 1.364e+04 2.105e-09
  5.08659   -167.1 1.423e+04 2.635e-09
  5.10154   -166.5 1.494e+04 3.187e-09
  5.12118   -166.0 1.543e+04 3.572e-09
  5.13586   -165.7 1.559e+04 3.589e-09
  5.14563   -165.7 1.574e+04 3.670e-09
  5.15545   -166.0 1.608e+04 3.841e-09
  5.16527   -166.4 1.623e+04 3.900e-09
  5.17509   -167.0 1.655e+04 4.024e-09
  5.18305   -167.4 1.664e+04 4.058e-09
  5.18796   -166.2 1.665e+04 4.178e-09
  5.19078   -166.8 1.677e+04 4.188e-09
  5.19569   -167.9 1.690e+04 4.378e-09
  5.20455   -168.6 1.697e+04 4.327e-09
  5.21437   -169.3 1.688e+04 4.207e-09
  5.22419   -169.7 1.673e+04 4.029e-09
  5.23897   -169.3 1.646e+04 3.671e-09
  5.25865   -170.6 1.525e+04 3.028e-09
  5.27829   -172.1 1.384e+04 2.405e-09
  5.29516   -173.3 1.301e+04 1.918e-09
  5.30498   -175.3 1.298e+04 1.940e-09
  5.31757   -175.6 1.241e+04 1.540e-09
  5.33721   -175.6 1.197e+04 1.270e-09
  5.35685   -175.2 1.160e+04 1.083e-09
  5.37649   -174.7 1.130e+04 9.475e-10
  5.39612   -174.2 1.104e+04 8.459e-10
  5.41576   -173.7 1.082e+04 7.673e-10
  5.43540   -173.3 1.061e+04 7.032e-10
  5.45504   -172.9 1.043e+04 6.494e-10
  5.47468   -172.4 1.027e+04 6.046e-10
  5.49432   -171.8 1.012e+04 5.687e-10
  5.51355   -171.2 1.000e+04 5.420e-10
  5.52337   -171.5 1.003e+04 5.464e-10
  5.53082   -170.9 9.969e+03 5.368e-10
  5.54064   -170.0 9.878e+03 4.898e-10
  5.55323   -169.4 9.843e+03 4.867e-10
  5.57287   -168.7 9.833e+03 4.920e-10
  5.59251   -168.0 9.875e+03 5.076e-10
  5.61215   -167.2 9.954e+03 5.302e-10
  5.63179   -166.5 1.006e+04 5.574e-10
  5.65143   -165.8 1.017e+04 5.880e-10
  5.67107   -165.0 1.028e+04 6.220e-10
  5.69070   -164.3 1.038e+04 6.594e-10
  5.71034   -163.5 1.046e+04 6.957e-10
  5.72998   -162.6 1.050e+04 7.192e-10
  5.74176   -161.6 1.050e+04 7.265e-10
  5.75158   -161.8 1.047e+04 7.148e-10
  5.76926   -160.7 1.043e+04 6.669e-10
  5.78890   -159.8 1.038e+04 5.874e-10
  5.80854   -159.2 1.030e+04 4.927e-10
  5.82818   -158.9 1.017e+04 4.152e-10
  5.85773   -158.8 1.005e+04 3.646e-10
  5.89711   -157.7 9.741e+03 2.970e-10
  5.93638   -156.6 9.457e+03 2.589e-10
  5.97566   -155.4 9.381e+03 2.479e-10
  6.01494   -154.0 9.335e+03 2.377e-10
  6.05422   -152.6 9.314e+03 2.283e-10
  6.09349   -151.3 9.316e+03 2.208e-10
  6.13277   -149.9 9.329e+03 2.178e-10
  6.16891   -148.6 9.363e+03 2.171e-10
  6.18855   -149.3 9.568e+03 2.361e-10
  6.21133   -148.2 9.796e+03 2.554e-10
  6.23617   -147.3 1.002e+04 2.811e-10
  6.25581   -146.8 1.023e+04 3.042e-10
  6.28988   -145.8 1.044e+04 3.327e-10
  6.31924   -145.2 1.047e+04 3.437e-10
  6.33878   -145.1 1.065e+04 4.138e-10
  6.35842   -145.0 1.086e+04 5.082e-10
  6.37806   -144.8 1.111e+04 6.400e-10
  6.39693   -144.6 1.145e+04 8.153e-10
  6.40675   -144.9 1.155e+04 9.233e-10
  6.41734   -144.6 1.189e+04 1.105e-09
  6.43698   -144.4 1.215e+04 1.248e-09
  6.45661   -144.4 1.232e+04 1.331e-09
  6.47625   -144.3 1.237e+04 1.362e-09
  6.49589   -144.5 1.238e+04 1.368e-09
  6.51553   -145.3 1.243e+04 1.375e-09
  6.53517   -148.9 1.358e+04 1.483e-09
  6.55481   -154.6 1.712e+04 2.633e-09
  6.57445   -159.6 1.910e+04 5.883e-09
  6.58856   -163.3 1.963e+04 1.036e-08
  6.59838   -161.2 1.960e+04 8.181e-09
  6.61372   -164.7 1.963e+04 1.184e-08
  6.62514   -167.3 1.940e+04 1.282e-08
  6.63496   -166.0 1.867e+04 1.000e-08
  6.65300   -167.7 1.794e+04 9.356e-09
  6.67264   -168.5 1.688e+04 6.088e-09
  6.69228   -169.5 1.555e+04 2.726e-09
  6.71192   -171.4 1.377e+04 9.350e-10
  6.73156   -174.0 1.153e+04 3.256e-10
  6.75119   -175.8 1.001e+04 1.950e-10
  6.77083   -176.0 9.553e+03 1.754e-10
  6.80039   -175.7 9.452e+03 1.684e-10
  6.83976   -173.9 9.276e+03 1.593e-10
  6.87904   -172.0 9.174e+03 1.543e-10
  6.91832   -170.0 9.137e+03 1.570e-10
  6.94134   -168.2 9.227e+03 1.690e-10
  6.96098   -167.5 9.077e+03 1.493e-10
  6.99687   -165.9 9.136e+03 1.579e-10
  7.03615   -164.3 9.290e+03 1.790e-10
  7.06211   -162.8 9.458e+03 2.059e-10
  7.08175   -163.1 9.477e+03 2.132e-10
  7.11471   -161.9 9.578e+03 2.340e-10
  7.14407   -161.0 9.633e+03 2.514e-10
  7.16361   -160.7 9.727e+03 2.721e-10
  7.18325   -160.6 9.960e+03 3.193e-10
  7.20288   -161.0 1.051e+04 4.243e-10
  7.22252   -161.6 1.153e+04 6.289e-10
  7.24216   -162.4 1.277e+04 1.006e-09
  7.26180   -163.0 1.389e+04 1.665e-09
  7.28030   -163.1 1.490e+04 2.654e-09
  7.29012   -163.2 1.376e+04 2.090e-09
  7.29372   -163.0 1.425e+04 2.783e-09
  7.30354   -162.1 1.322e+04 1.631e-09
  7.32072   -161.9 1.376e+04 2.235e-09
  7.34036   -161.5 1.415e+04 2.815e-09
  7.35999   -160.9 1.442e+04 3.157e-09
  7.37963   -160.4 1.455e+04 3.221e-09
  7.39927   -160.1 1.436e+04 2.822e-09
  7.41891   -159.9 1.406e+04 2.327e-09
  7.43855   -160.0 1.371e+04 1.855e-09
  7.45819   -159.8 1.329e+04 1.546e-09
  7.47783   -159.5 1.270e+04 1.175e-09
  7.49879   -159.7 1.196e+04 8.487e-10
  7.51853   -159.0 1.126e+04 6.457e-10
  7.54676   -157.0 1.045e+04 4.730e-10
  7.58603   -154.3 9.948e+03 3.653e-10
  7.62531   -151.5 9.726e+03 3.040e-10
  7.64650   -148.6 9.649e+03 2.778e-10
  7.66614   -147.9 9.797e+03 3.227e-10
  7.70387   -145.2 9.719e+03 3.002e-10
  7.74314   -142.5 9.694e+03 2.959e-10
  7.78242   -140.0 9.855e+03 3.399e-10
  7.82170   -137.6 1.032e+04 4.545e-10
  7.86098   -135.3 1.103e+04 6.538e-10
  7.90025   -133.3 1.171e+04 9.124e-10
  7.93567   -131.4 1.216e+04 1.111e-09
  7.95530   -131.0 1.119e+04 7.015e-10
  7.97881   -129.3 1.132e+04 7.117e-10
  8.01809   -127.5 1.129e+04 6.454e-10
  8.05736   -125.6 1.104e+04 5.462e-10
  8.09664   -123.6 1.083e+04 4.760e-10
  8.13592   -121.6 1.080e+04 4.596e-10
  8.17520   -119.7 1.085e+04 4.634e-10
  8.21447   -117.9 1.108e+04 5.168e-10
  8.25375   -116.3 1.130e+04 6.041e-10
  8.29303   -114.6 1.144e+04 6.799e-10
  8.33202   -113.0 1.146e+04 7.059e-10
  8.35166   -112.4 1.123e+04 6.321e-10
  8.37158   -110.7 1.123e+04 6.359e-10
  8.39208   -109.0 1.104e+04 5.639e-10
  8.41172   -107.7 1.047e+04 3.842e-10
  8.45014   -106.1 1.035e+04 3.530e-10
  8.48941   -104.5 1.025e+04 3.252e-10
  8.52869   -103.0 1.021e+04 3.184e-10
  8.56797   -101.5 1.025e+04 3.275e-10
  8.60725   -100.0 1.034e+04 3.444e-10
  8.64652    -98.6 1.041e+04 3.578e-10
  8.68580    -97.2 1.042e+04 3.614e-10
  8.72508    -95.7 1.034e+04 3.537e-10
  8.76436    -94.0 1.017e+04 3.088e-10
  8.80363    -92.2 9.982e+03 2.541e-10
  8.82886    -90.4 9.804e+03 2.018e-10
  8.84850    -90.0 9.663e+03 1.840e-10
  8.88219    -88.3 9.488e+03 1.524e-10
  8.92147    -86.7 9.386e+03 1.306e-10
  8.96074    -85.0 9.353e+03 1.133e-10
  9.00002    -83.3 9.365e+03 1.049e-10
  9.03718    -81.6 9.373e+03 1.035e-10
  9.05682    -81.6 9.466e+03 1.191e-10
  9.07858    -80.1 9.573e+03 1.263e-10
  9.11785    -78.7 9.667e+03 1.466e-10
  9.15713    -77.3 9.758e+03 1.737e-10
  9.19641    -76.2 9.881e+03 2.047e-10
  9.23569    -75.3 1.005e+04 2.409e-10
  9.26564    -74.7 1.026e+04 2.854e-10
  9.28528    -74.7 1.041e+04 3.248e-10
  9.31424    -74.3 1.073e+04 4.065e-10
  9.34360    -73.8 1.087e+04 4.465e-10
  9.36314    -73.8 1.090e+04 4.610e-10
  9.38278    -73.6 1.106e+04 5.406e-10
  9.39939    -73.6 1.116e+04 5.976e-10
  9.40921    -74.0 1.120e+04 6.074e-10
  9.42206    -74.1 1.132e+04 6.353e-10
  9.44170    -74.4 1.146e+04 6.467e-10
  9.46133    -76.5 1.201e+04 7.123e-10
  9.48097    -78.8 1.260e+04 8.342e-10
  9.49365    -82.7 1.383e+04 1.526e-09
  9.50347    -81.8 1.315e+04 1.103e-09
  9.52025    -83.9 1.428e+04 2.062e-09
  9.53989    -85.1 1.537e+04 3.656e-09
  9.55953    -86.0 1.618e+04 5.273e-09
  9.57917    -87.3 1.641e+04 5.765e-09
  9.59881    -88.8 1.615e+04 5.241e-09
  9.61844    -90.4 1.509e+04 3.349e-09
  9.63808    -92.4 1.365e+04 1.920e-09
  9.65772    -94.1 1.246e+04 1.270e-09
  9.67736    -94.9 1.197e+04 1.070e-09
  9.69700    -95.0 1.184e+04 1.028e-09
  9.71204    -94.9 1.181e+04 1.026e-09
  9.72186    -94.5 1.197e+04 1.117e-09
  9.73628    -94.4 1.199e+04 1.147e-09
  9.75197    -94.1 1.214e+04 1.226e-09
  9.76179    -94.3 1.220e+04 1.242e-09
  9.77555    -94.1 1.227e+04 1.284e-09
  9.79519    -93.9 1.224e+04 1.277e-09
  9.81483    -93.9 1.208e+04 1.197e-09
  9.83447    -93.9 1.179e+04 1.081e-09
  9.85411    -94.1 1.146e+04 9.681e-10
  9.87375    -94.3 1.118e+04 8.805e-10
  9.89339    -94.4 1.098e+04 8.124e-10
  9.91302    -94.4 1.095e+04 7.424e-10
  9.94258    -94.3 1.124e+04 6.473e-10
  9.98196    -93.3 1.124e+04 6.058e-10
 10.02123    -91.7 1.091e+04 5.169e-10
 10.06051    -89.8 1.052e+04 4.212e-10
 10.09979    -87.7 1.038e+04 3.650e-10
 10.13907    -85.1 1.019e+04 3.129e-10
 10.17834    -82.0 9.221e+03 1.686e-10
 10.21762    -79.3 9.179e+03 1.608e-10
 10.25690    -76.9 9.122e+03 1.596e-10
 10.29617    -74.9 9.315e+03 1.888e-10
 10.33545    -73.3 9.737e+03 2.782e-10
 10.37473    -71.9 1.058e+04 4.280e-10
 10.41401    -70.6 1.134e+04 6.479e-10
 10.44751    -69.4 1.206e+04 9.412e-10
 10.46715    -68.7 1.160e+04 7.554e-10
 10.48264    -67.8 1.205e+04 9.891e-10
 10.50219    -67.4 1.220e+04 1.091e-09
 10.52182    -66.8 1.234e+04 1.188e-09
 10.54146    -66.5 1.228e+04 1.179e-09
 10.57102    -66.1 1.220e+04 1.134e-09
 10.59561    -65.1 1.179e+04 9.358e-10
 10.61525    -64.3 1.139e+04 7.912e-10
 10.63975    -63.9 1.082e+04 5.960e-10
 10.65930    -63.7 1.054e+04 4.721e-10
 10.67893    -64.1 1.029e+04 4.030e-10
 10.69857    -64.6 1.025e+04 3.887e-10
 10.71821    -65.0 1.030e+04 3.952e-10
 10.73785    -65.1 1.054e+04 4.895e-10
 10.75749    -64.8 1.076e+04 6.226e-10
 10.77713    -64.1 1.094e+04 7.345e-10
 10.79677    -63.3 1.108e+04 8.052e-10
 10.80971    -62.7 1.117e+04 8.347e-10
 10.81693    -62.1 1.092e+04 6.943e-10
 10.82363    -61.8 1.060e+04 5.689e-10
 10.83604    -61.2 1.062e+04 5.722e-10
 10.85568    -60.7 1.064e+04 5.729e-10
 10.87532    -60.3 1.067e+04 5.790e-10
 10.89496    -59.8 1.072e+04 6.008e-10
 10.91460    -59.3 1.081e+04 6.430e-10
 10.93424    -58.7 1.095e+04 7.074e-10
 10.95388    -58.1 1.115e+04 7.950e-10
 10.97351    -57.5 1.140e+04 9.115e-10
 10.99315    -57.0 1.169e+04 1.055e-09
 11.01279    -56.3 1.201e+04 1.221e-09
 11.03220    -55.7 1.234e+04 1.399e-09
 11.04201    -55.4 1.196e+04 1.182e-09
 11.05207    -54.9 1.216e+04 1.284e-09
 11.07171    -54.3 1.231e+04 1.367e-09
 11.09135    -53.7 1.239e+04 1.430e-09
 11.11099    -53.1 1.241e+04 1.460e-09
 11.13062    -52.5 1.236e+04 1.458e-09
 11.15026    -51.7 1.222e+04 1.404e-09
 11.16230    -51.0 1.210e+04 1.335e-09
 11.17211    -50.3 1.188e+04 1.203e-09
 11.18954    -49.5 1.183e+04 1.175e-09
 11.20918    -48.8 1.178e+04 1.144e-09
 11.22882    -47.9 1.171e+04 1.092e-09
 11.24846    -47.1 1.165e+04 1.060e-09
 11.26040    -46.2 1.159e+04 1.033e-09
 11.27022    -46.1 1.153e+04 1.011e-09
 11.28773    -45.2 1.143e+04 9.615e-10
 11.30737    -44.2 1.133e+04 8.990e-10
 11.32701    -43.3 1.127e+04 8.407e-10
 11.34665    -42.6 1.124e+04 7.958e-10
 11.36629    -42.0 1.126e+04 7.731e-10
 11.38593    -41.4 1.134e+04 7.910e-10
 11.40557    -41.0 1.143e+04 8.251e-10
 11.42520    -40.8 1.156e+04 8.898e-10
 11.44484    -41.2 1.217e+04 1.106e-09
 11.46448    -44.9 1.570e+04 2.061e-09
 11.47879    -48.7 1.893e+04 4.696e-09
 11.48861    -48.8 2.085e+04 8.957e-09
 11.49880    -49.2 2.112e+04 9.441e-09
 11.50857    -51.7 2.214e+04 1.400e-08
 11.51478    -53.8 2.248e+04 2.109e-08
 11.51969    -51.4 2.253e+04 1.681e-08
 11.52821    -53.2 2.274e+04 2.379e-08
 11.53803    -54.5 2.270e+04 2.933e-08
 11.54785    -55.6 2.272e+04 3.063e-08
 11.55767    -56.8 2.253e+04 2.836e-08
 11.56749    -58.5 2.238e+04 2.104e-08
 11.57731    -61.1 2.192e+04 1.388e-08
 11.58713    -63.4 2.118e+04 9.661e-09
 11.60190    -65.3 2.080e+04 7.317e-09
 11.62159    -72.4 1.675e+04 2.685e-09
 11.64123    -77.6 1.281e+04 1.176e-09
 11.66087    -79.5 1.126e+04 8.366e-10
 11.68051    -79.9 1.104e+04 7.257e-10
 11.69718    -80.2 1.083e+04 6.469e-10
 11.70700    -81.0 1.126e+04 8.186e-10
 11.71979    -81.4 1.113e+04 7.751e-10
 11.73942    -81.7 1.111e+04 7.704e-10
 11.75906    -82.2 1.128e+04 7.976e-10
 11.77870    -82.9 1.172e+04 9.555e-10
 11.79834    -83.5 1.220e+04 1.225e-09
 11.81798    -84.0 1.267e+04 1.542e-09
 11.83762    -84.5 1.305e+04 1.842e-09
 11.85726    -85.0 1.328e+04 2.018e-09
 11.86746    -85.5 1.334e+04 2.058e-09
 11.87728    -84.4 1.332e+04 2.022e-09
 11.89653    -84.9 1.327e+04 2.014e-09
 11.91557    -85.3 1.301e+04 1.892e-09
 11.92539    -86.8 1.340e+04 2.210e-09
 11.93581    -87.6 1.348e+04 2.137e-09
 11.95545    -89.0 1.426e+04 2.296e-09
 11.97509    -90.7 1.574e+04 2.611e-09
 11.99473    -92.3 1.655e+04 2.986e-09
 12.01437    -94.0 1.689e+04 3.351e-09
 12.03400    -96.0 1.725e+04 3.879e-09
 12.05364    -98.6 1.788e+04 4.875e-09
 12.07328   -101.6 1.865e+04 6.634e-09
 12.09292   -104.4 1.927e+04 9.466e-09
 12.11256   -106.4 1.973e+04 1.338e-08
 12.13220   -107.8 2.011e+04 1.721e-08
 12.14378   -109.2 2.035e+04 1.925e-08
 12.15360   -110.5 2.054e+04 1.930e-08
 12.17148   -112.2 2.060e+04 1.952e-08
 12.19111   -114.1 2.048e+04 1.706e-08
 12.21022   -116.4 2.002e+04 1.238e-08
 12.22004   -116.5 2.145e+04 1.805e-08
 12.23039   -119.6 2.101e+04 1.374e-08
 12.25003   -123.4 2.019e+04 1.043e-08
 12.26967   -127.1 1.907e+04 7.882e-09
 12.28931   -130.5 1.772e+04 5.965e-09
 12.30895   -133.1 1.643e+04 4.537e-09
 12.32858   -135.0 1.524e+04 3.470e-09
 12.34822   -136.6 1.420e+04 2.716e-09
 12.36217   -138.1 1.351e+04 2.262e-09
 12.37199   -137.8 1.475e+04 3.615e-09
 12.38750   -139.3 1.413e+04 2.986e-09
 12.40714   -140.7 1.396e+04 2.812e-09
 12.42678   -142.1 1.397e+04 2.830e-09
 12.44642   -143.5 1.428e+04 3.100e-09
 12.46606   -145.1 1.461e+04 3.426e-09
 12.48569   -147.1 1.471e+04 3.576e-09
 12.50533   -149.4 1.466e+04 3.532e-09
 12.52497   -151.9 1.422e+04 2.845e-09
 12.54461   -154.8 1.347e+04 1.987e-09
 12.56280   -158.0 1.268e+04 1.425e-09
 12.57262   -158.4 1.312e+04 1.689e-09
 12.58056   -161.5 1.247e+04 1.360e-09
 12.59038   -162.1 1.315e+04 1.770e-09
 12.60353   -164.0 1.267e+04 1.548e-09
 12.62317   -165.0 1.240e+04 1.439e-09
 12.64280   -165.4 1.225e+04 1.370e-09
 12.66244   -165.5 1.221e+04 1.319e-09
 12.68208   -165.6 1.220e+04 1.261e-09
 12.70172   -165.8 1.217e+04 1.192e-09
 12.72136   -165.9 1.215e+04 1.130e-09
 12.74100   -166.1 1.220e+04 1.093e-09
 12.76064   -166.3 1.222e+04 1.086e-09
 12.78027   -166.7 1.228e+04 1.083e-09
 12.79895   -167.2 1.257e+04 1.129e-09
 12.80877   -166.3 1.226e+04 9.974e-10
 12.81955   -166.8 1.258e+04 1.112e-09
 12.83919   -167.0 1.293e+04 1.319e-09
 12.85883   -167.1 1.332e+04 1.597e-09
 12.87847   -167.0 1.372e+04 1.909e-09
 12.89811   -166.8 1.407e+04 2.205e-09
 12.91538   -166.5 1.439e+04 2.485e-09
 12.92520   -166.3 1.473e+04 2.673e-09
 12.93738   -165.9 1.503e+04 3.027e-09
 12.95702   -165.3 1.511e+04 3.167e-09
 12.97666   -164.7 1.505e+04 3.083e-09
 12.99630   -164.0 1.480e+04 2.714e-09
 13.01594   -163.3 1.436e+04 2.161e-09
 13.02715   -162.9 1.376e+04 1.607e-09
 13.03697   -161.2 1.510e+04 3.082e-09
 13.05522   -161.4 1.570e+04 2.961e-09
 13.07486   -165.9 2.012e+04 2.744e-09
 13.08954   -171.4 2.172e+04 1.463e-09
 13.09648   -177.1 2.556e+04 1.827e-09
 13.10139   -177.2 2.807e+04 1.938e-09
 13.10913   -187.2 2.994e+04 3.590e-09
 13.11894   -193.3 2.829e+04 7.489e-09
 13.12876   -200.0 2.469e+04 2.210e-08
 13.13625   -202.8 2.296e+04 4.312e-08
 13.14116   -202.0 2.359e+04 6.042e-08
 13.14840   -204.0 2.331e+04 6.931e-08
 13.15822   -205.5 2.334e+04 7.046e-08
 13.16804   -207.1 2.399e+04 5.338e-08
 13.17786   -209.4 2.490e+04 2.787e-08
 13.18768   -213.6 2.452e+04 1.006e-08
 13.19750   -219.4 2.083e+04 3.120e-09
 13.20732   -224.2 1.512e+04 1.607e-09
 13.21714   -225.5 1.309e+04 1.367e-09
 13.23192   -225.6 1.252e+04 1.279e-09
 13.24554   -225.5 1.137e+04 1.015e-09
 13.25536   -225.0 1.106e+04 8.226e-10
 13.26796   -223.7 1.056e+04 6.666e-10
 13.27778   -224.2 1.069e+04 5.622e-10
 13.29088   -222.8 1.058e+04 5.343e-10
 13.31052   -221.3 1.049e+04 5.163e-10
 13.33016   -219.9 1.035e+04 4.926e-10
 13.34980   -218.4 1.019e+04 4.643e-10
 13.36944   -216.9 1.003e+04 4.345e-10
 13.38907   -215.6 9.923e+03 4.069e-10
 13.40871   -214.6 9.880e+03 3.859e-10
 13.42835   -213.8 9.870e+03 3.720e-10
 13.44799   -213.0 9.866e+03 3.624e-10
 13.47755   -212.1 9.852e+03 3.519e-10
 13.51692   -210.7 9.615e+03 3.284e-10
 13.55620   -209.2 9.538e+03 3.183e-10
 13.59548   -207.6 9.516e+03 3.183e-10
 13.63475   -206.2 9.493e+03 3.291e-10
 13.67270   -204.8 9.577e+03 3.650e-10
 13.69234   -203.4 9.650e+03 3.823e-10
 13.71331   -202.1 9.739e+03 4.186e-10
 13.75259   -200.6 9.806e+03 4.307e-10
 13.79186   -199.1 9.845e+03 4.291e-10
 13.83114   -197.8 9.880e+03 4.164e-10
 13.87042   -196.8 9.899e+03 4.063e-10
 13.90970   -195.5 9.916e+03 4.061e-10
 13.94897   -194.2 1.003e+04 4.274e-10
 13.97332   -192.9 1.026e+04 4.920e-10
 13.99296   -193.8 1.019e+04 4.689e-10
 14.02753   -192.6 1.043e+04 5.575e-10
 14.06680   -191.7 1.059e+04 6.377e-10
 14.10608   -190.8 1.062e+04 6.631e-10
 14.12911   -189.9 1.061e+04 6.661e-10
 14.14875   -188.8 1.060e+04 6.488e-10
 14.18464   -187.8 1.050e+04 6.400e-10
 14.22391   -186.4 1.031e+04 5.978e-10
 14.26319   -184.7 1.013e+04 5.449e-10
 14.30247   -183.0 9.963e+03 4.925e-10
 14.34175   -181.2 9.822e+03 4.437e-10
 14.38102   -179.5 9.721e+03 3.960e-10
 14.42030   -177.7 9.621e+03 3.533e-10
 14.45958   -175.9 9.488e+03 3.172e-10
 14.49886   -173.9 9.379e+03 2.881e-10
 14.53813   -171.9 9.287e+03 2.666e-10
 14.56589   -169.9 9.209e+03 2.492e-10
 14.58553   -169.2 9.385e+03 2.737e-10
 14.61669   -167.2 9.300e+03 2.543e-10
 14.65597   -165.2 9.184e+03 2.283e-10
 14.67848   -163.1 9.054e+03 1.992e-10
 14.69812   -163.8 8.924e+03 1.781e-10
 14.73452   -161.6 8.800e+03 1.531e-10
 14.77380   -159.2 8.728e+03 1.366e-10
 14.81308   -156.7 8.714e+03 1.279e-10
 14.85235   -154.2 8.727e+03 1.249e-10
 14.89163   -151.6 8.743e+03 1.242e-10
 14.93091   -149.0 8.811e+03 1.253e-10
 14.97019   -146.5 8.899e+03 1.286e-10
 15.00267   -144.0 9.013e+03 1.352e-10
 15.02231   -144.0 9.203e+03 1.604e-10
 15.04874   -141.6 9.352e+03 1.847e-10
 15.08802   -139.2 9.497e+03 2.136e-10
 15.12729   -136.7 9.635e+03 2.453e-10
 15.16657   -134.3 9.756e+03 2.770e-10
 15.20585   -131.9 9.847e+03 3.039e-10
 15.24513   -129.5 9.884e+03 3.194e-10
 15.28440   -127.2 9.943e+03 3.325e-10
 15.32368   -124.9 9.949e+03 3.435e-10
 15.36296   -122.7 9.935e+03 3.470e-10
 15.38364   -120.5 9.880e+03 3.403e-10
 15.40328   -121.4 9.631e+03 2.696e-10
 15.43945   -119.0 9.524e+03 2.502e-10
 15.45909   -119.1 9.291e+03 1.866e-10
 15.48079   -116.7 9.181e+03 1.694e-10
 15.52007   -114.2 9.058e+03 1.506e-10
 15.55935   -111.7 8.924e+03 1.298e-10
 15.59862   -109.1 8.779e+03 1.091e-10
 15.63790   -106.5 8.628e+03 9.133e-11
 15.67718   -103.9 8.494e+03 7.756e-11
 15.71646   -101.3 8.423e+03 6.949e-11
 15.75573    -98.7 8.337e+03 6.378e-11
 15.79501    -96.0 8.304e+03 5.972e-11
 15.83429    -93.2 8.278e+03 5.750e-11
 15.87357    -90.5 8.250e+03 5.619e-11
 15.89587    -87.7 8.238e+03 5.554e-11
 15.91550    -87.3 8.214e+03 5.802e-11
 15.95212    -84.5 8.217e+03 5.777e-11
 15.99140    -81.7 8.225e+03 5.802e-11
 16.03067    -78.9 8.246e+03 5.939e-11
 16.06917    -76.2 8.274e+03 6.189e-11
 16.08881    -76.2 8.292e+03 6.347e-11
 16.10923    -73.5 8.342e+03 6.770e-11
 16.14851    -70.9 8.398e+03 7.434e-11
 16.18778    -68.3 8.468e+03 8.340e-11
 16.22706    -65.8 8.548e+03 9.533e-11
 16.26634    -63.4 8.643e+03 1.099e-10
 16.30562    -61.0 8.748e+03 1.262e-10
 16.33264    -58.6 8.847e+03 1.412e-10
 16.35228    -58.2 8.671e+03 1.181e-10
 16.38417    -55.8 8.725e+03 1.242e-10
 16.42345    -53.5 8.742e+03 1.253e-10
 16.46273    -51.1 8.732e+03 1.208e-10
 16.50200    -48.6 8.722e+03 1.076e-10
 16.54128    -46.2 8.755e+03 9.668e-11
 16.58056    -43.8 8.788e+03 9.320e-11
 16.61984    -41.6 8.951e+03 9.755e-11
 16.65911    -39.6 9.171e+03 1.290e-10
 16.69839    -37.5 9.376e+03 1.898e-10
 16.73767    -35.0 9.597e+03 2.677e-10
 16.76942    -32.5 9.808e+03 3.288e-10
 16.78645    -32.2 9.548e+03 2.693e-10
 16.79397    -32.1 9.472e+03 2.492e-10
 16.81622    -29.7 9.717e+03 3.101e-10
 16.85550    -27.4 9.830e+03 3.309e-10
 16.89478    -25.4 9.867e+03 3.213e-10
 16.93405    -23.4 9.840e+03 2.861e-10
 16.97333    -21.4 9.788e+03 2.499e-10
 17.01261    -19.4 9.738e+03 2.246e-10
 17.05189    -17.3 9.720e+03 2.148e-10
 17.09116    -15.2 9.766e+03 2.141e-10
 17.13044    -13.2 9.923e+03 2.595e-10
 17.16972    -11.2 1.023e+04 3.407e-10
 17.19908     -9.8 1.047e+04 4.253e-10
 17.21582     -9.6 1.049e+04 4.554e-10
 17.22564     -9.9 1.041e+04 4.228e-10
 17.23826     -8.9 1.077e+04 5.786e-10
 17.25790     -8.4 1.085e+04 7.064e-10
 17.27754     -7.2 1.112e+04 8.841e-10
 17.29718     -6.3 1.131e+04 1.016e-09
 17.31681     -5.3 1.156e+04 1.117e-09
 17.33645     -4.7 1.163e+04 1.139e-09
 17.35609     -4.3 1.161e+04 1.125e-09
 17.37573     -4.2 1.157e+04 1.110e-09
 17.39537     -4.1 1.155e+04 1.120e-09
 17.41501     -4.0 1.160e+04 1.163e-09
 17.43421     -4.0 1.161e+04 1.211e-09
 17.44403     -4.2 1.166e+04 1.176e-09
 17.45429     -4.2 1.179e+04 1.209e-09
 17.47392     -4.2 1.193e+04 1.281e-09
 17.48912     -4.6 1.209e+04 1.342e-09
 17.49894     -4.3 1.223e+04 1.468e-09
 17.51320     -5.0 1.240e+04 1.606e-09
 17.53284     -5.7 1.259e+04 1.762e-09
 17.55248     -6.6 1.279e+04 1.949e-09
 17.57212     -7.3 1.303e+04 2.170e-09
 17.59176     -7.9 1.317e+04 2.344e-09
 17.61139     -8.1 1.322e+04 2.428e-09
 17.63103     -8.2 1.322e+04 2.450e-09
 17.65067     -8.2 1.326e+04 2.432e-09
 17.66242     -8.4 1.314e+04 2.287e-09
 17.67224     -8.6 1.316e+04 2.135e-09
 17.68995     -9.0 1.306e+04 2.066e-09
 17.70959     -9.2 1.296e+04 2.052e-09
 17.72923     -9.3 1.294e+04 2.088e-09
 17.74887     -9.0 1.291e+04 2.100e-09
 17.76850     -8.7 1.285e+04 2.028e-09
 17.78814     -8.3 1.277e+04 1.922e-09
 17.80778     -7.9 1.263e+04 1.734e-09
 17.83734     -7.5 1.226e+04 1.317e-09
 17.87671     -7.2 1.167e+04 9.553e-10
 17.91599     -6.4 1.107e+04 7.383e-10
 17.95527     -4.5 1.073e+04 6.180e-10
 17.99454     -2.4 1.045e+04 4.988e-10
 18.03382     -0.0 1.015e+04 3.522e-10
 18.07310      2.2 9.904e+03 2.269e-10
 18.09940      3.7 9.705e+03 1.675e-10
 18.11903      3.4 9.707e+03 1.720e-10
 18.15165      5.3 9.581e+03 1.581e-10
 18.18466      7.2 9.476e+03 1.806e-10
 18.20429      7.7 9.837e+03 2.292e-10
 18.23021     10.1 9.893e+03 2.609e-10
 18.26949     12.5 1.004e+04 2.762e-10
 18.30876     14.8 9.994e+03 2.780e-10
 18.34804     17.2 9.913e+03 2.699e-10
 18.38732     19.8 9.824e+03 2.485e-10
 18.42660     22.7 9.730e+03 2.067e-10
 18.46587     25.6 9.711e+03 1.556e-10
 18.50515     28.2 9.728e+03 1.130e-10
 18.53617     30.6 9.720e+03 8.681e-11
 18.55581     30.4 9.705e+03 8.584e-11
 18.58371     33.0 9.594e+03 8.353e-11
 18.62298     35.8 9.588e+03 8.707e-11
 18.66226     38.6 9.638e+03 1.017e-10
 18.70154     41.3 9.743e+03 1.301e-10
 18.74082     44.2 9.957e+03 1.733e-10
 18.78009     46.9 1.029e+04 2.316e-10
 18.81937     49.5 1.061e+04 2.923e-10
 18.85865     51.9 1.076e+04 3.245e-10
 18.88982     54.2 1.086e+04 3.333e-10
 18.90946     54.1 1.077e+04 3.083e-10
 18.93720     56.3 1.104e+04 3.661e-10
 18.96656     57.8 1.126e+04 4.557e-10
 18.98258     59.0 1.153e+04 5.333e-10
 18.99249     58.7 1.169e+04 7.415e-10
 19.01576     60.8 1.232e+04 1.007e-09
 19.04512     61.8 1.266e+04 1.141e-09
 19.06466     62.5 1.289e+04 1.391e-09
 19.08430     63.3 1.313e+04 1.730e-09
 19.10394     64.1 1.346e+04 2.094e-09
 19.12357     64.6 1.385e+04 2.456e-09
 19.14321     64.7 1.419e+04 2.761e-09
 19.16285     64.7 1.448e+04 3.081e-09
 19.18249     64.8 1.461e+04 3.268e-09
 19.20096     64.9 1.455e+04 3.213e-09
 19.21078     64.9 1.569e+04 5.251e-09
 19.22177     65.1 1.559e+04 5.064e-09
 19.24141     65.6 1.526e+04 4.283e-09
 19.25202     66.1 1.481e+04 3.184e-09
 19.26184     66.4 1.486e+04 3.510e-09
 19.28068     66.7 1.436e+04 2.460e-09
 19.30032     66.6 1.385e+04 1.698e-09
 19.31996     66.2 1.328e+04 1.229e-09
 19.33960     66.0 1.266e+04 9.937e-10
 19.35924     66.2 1.227e+04 9.372e-10
 19.37888     66.7 1.221e+04 9.524e-10
 19.39852     67.3 1.223e+04 1.004e-09
 19.41815     68.0 1.233e+04 1.096e-09
 19.42917     68.8 1.242e+04 1.204e-09
 19.43899     69.0 1.290e+04 1.491e-09
 19.45743     69.7 1.301e+04 1.668e-09
 19.47707     70.7 1.309e+04 1.826e-09
 19.49671     71.6 1.320e+04 1.928e-09
 19.51635     72.5 1.329e+04 1.949e-09
 19.53599     73.2 1.344e+04 1.898e-09
 19.55563     73.4 1.365e+04 1.841e-09
 19.57526     73.2 1.393e+04 1.841e-09
 19.59478     72.7 1.424e+04 1.973e-09
 19.60460     72.7 1.532e+04 3.371e-09
 19.61454     72.2 1.556e+04 3.855e-09
 19.63418     71.9 1.560e+04 4.274e-09
 19.64756     71.9 1.554e+04 4.529e-09
 19.65738     71.6 1.714e+04 9.140e-09
 19.67346     71.8 1.671e+04 8.108e-09
 19.69310     72.1 1.619e+04 6.677e-09
 19.71274     72.5 1.563e+04 5.230e-09
 19.73237     72.8 1.516e+04 3.888e-09
 19.75201     73.0 1.458e+04 2.772e-09
 19.77165     73.2 1.396e+04 2.027e-09
 19.79129     73.3 1.344e+04 1.542e-09
 19.81093     73.4 1.299e+04 1.224e-09
 19.83057     73.8 1.260e+04 1.043e-09
 19.85021     74.2 1.230e+04 9.878e-10
 19.86595     74.8 1.215e+04 9.799e-10
 19.87577     74.1 1.224e+04 1.047e-09
 19.88948     75.0 1.221e+04 1.055e-09
 19.90912     75.9 1.223e+04 1.110e-09
 19.92876     76.4 1.230e+04 1.172e-09
 19.95832     77.0 1.240e+04 1.300e-09
 19.99769     77.7 1.252e+04 1.494e-09
 20.03697     78.5 1.250e+04 1.507e-09
 20.07625     79.2 1.236e+04 1.423e-09
 20.11552     80.1 1.193e+04 1.143e-09
 20.15480     80.9 1.140e+04 8.172e-10
 20.19408     81.8 1.094e+04 5.940e-10
 20.23336     82.9 1.067e+04 4.738e-10
 20.26272     83.8 1.064e+04 4.765e-10
 20.28226     84.2 1.066e+04 4.790e-10
 20.30004     85.3 1.051e+04 4.059e-10
 20.30986     85.1 1.081e+04 5.722e-10
 20.31255     85.9 1.074e+04 5.553e-10
 20.32247     85.9 1.107e+04 6.839e-10
 20.34127     86.8 1.092e+04 6.396e-10
 20.36081     87.6 1.085e+04 6.051e-10
 20.38045     88.2 1.084e+04 5.732e-10
 20.40009     88.8 1.083e+04 5.425e-10
 20.41973     89.1 1.082e+04 5.173e-10
 20.43937     89.5 1.079e+04 4.948e-10
 20.45901     89.9 1.077e+04 4.751e-10
 20.47864     90.3 1.076e+04 4.563e-10
 20.49828     90.7 1.079e+04 4.380e-10
 20.51792     91.1 1.081e+04 4.144e-10
 20.53094     91.4 1.080e+04 3.901e-10
 20.54076     92.2 1.078e+04 3.932e-10
 20.55720     92.5 1.079e+04 3.627e-10
 20.57684     92.5 1.084e+04 3.596e-10
 20.59648     92.5 1.089e+04 3.725e-10
 20.61612     92.4 1.095e+04 4.147e-10
 20.63575     92.5 1.101e+04 4.881e-10
 20.65253     92.6 1.106e+04 5.845e-10
 20.66235     93.2 1.110e+04 5.996e-10
 20.67503     93.6 1.119e+04 6.783e-10
 20.69467     94.0 1.129e+04 7.067e-10
 20.71431     94.3 1.131e+04 7.001e-10
 20.73395     94.5 1.129e+04 6.678e-10
 20.74933     94.6 1.120e+04 6.117e-10
 20.75915     95.4 1.130e+04 6.697e-10
 20.77323     95.4 1.116e+04 5.938e-10
 20.79286     95.3 1.099e+04 5.331e-10
 20.81250     95.2 1.081e+04 5.084e-10
 20.83214     95.3 1.079e+04 5.100e-10
 20.85178     95.5 1.081e+04 5.231e-10
 20.87142     95.8 1.094e+04 5.755e-10
 20.89106     96.0 1.128e+04 6.949e-10
 20.91070     96.0 1.184e+04 9.162e-10
 20.93033     96.0 1.255e+04 1.283e-09
 20.94997     96.0 1.350e+04 1.921e-09
 20.96772     96.1 1.445e+04 2.880e-09
 20.97754     96.0 1.408e+04 2.483e-09
 20.98925     96.0 1.489e+04 3.298e-09
 21.00511     96.0 1.563e+04 4.060e-09
 21.01493     97.5 1.500e+04 3.453e-09
 21.02853     97.6 1.570e+04 4.248e-09
 21.04817     97.5 1.636e+04 4.901e-09
 21.06781     97.3 1.689e+04 5.319e-09
 21.08744     96.9 1.731e+04 5.656e-09
 21.10708     96.5 1.779e+04 5.735e-09
 21.12672     95.9 1.791e+04 5.332e-09
 21.14636     95.0 1.762e+04 4.380e-09
 21.16600     93.3 1.669e+04 3.251e-09
 21.18564     90.7 1.538e+04 2.495e-09
 21.19592     87.6 1.441e+04 2.267e-09
 21.20574     86.8 1.344e+04 1.494e-09
 21.22492     84.9 1.347e+04 1.687e-09
 21.24455     83.7 1.366e+04 2.123e-09
 21.26419     83.1 1.400e+04 2.545e-09
 21.28383     82.5 1.411e+04 2.588e-09
 21.30347     81.6 1.406e+04 2.493e-09
 21.32311     80.7 1.376e+04 2.169e-09
 21.34275     79.3 1.322e+04 1.781e-09
 21.35769     78.1 1.275e+04 1.573e-09
 21.36751     79.2 1.253e+04 1.314e-09
 21.38202     77.9 1.222e+04 1.201e-09
 21.41158     76.1 1.206e+04 1.189e-09
 21.45096     74.8 1.185e+04 1.191e-09
 21.49023     74.1 1.184e+04 1.210e-09
 21.52951     73.3 1.189e+04 1.267e-09
 21.56879     72.3 1.211e+04 1.436e-09
 21.60807     71.4 1.193e+04 1.489e-09
 21.63290     71.4 1.151e+04 1.322e-09
 21.65254     72.0 1.223e+04 1.705e-09
 21.68662     72.4 1.156e+04 1.364e-09
 21.71047     72.7 1.078e+04 9.276e-10
 21.73011     74.0 1.133e+04 1.149e-09
 21.75526     73.7 1.069e+04 8.454e-10
 21.77480     73.6 1.017e+04 6.571e-10
 21.79444     73.4 9.704e+03 5.153e-10
 21.81408     73.4 9.402e+03 4.389e-10
 21.84363     73.9 9.424e+03 4.386e-10
 21.88301     74.9 9.294e+03 4.184e-10
 21.92228     76.1 9.247e+03 4.081e-10
 21.96156     77.4 9.225e+03 3.985e-10
 22.00084     79.0 9.162e+03 3.739e-10
 22.04012     80.6 9.048e+03 3.379e-10
 22.06968     82.2 8.921e+03 3.069e-10
 22.08931     82.3 9.309e+03 3.926e-10
 22.11867     84.1 9.276e+03 3.811e-10
 22.15795     85.8 9.290e+03 3.851e-10
 22.18731     87.0 9.244e+03 3.843e-10
 22.20685     87.4 9.267e+03 3.936e-10
 22.22649     88.3 9.409e+03 4.426e-10
 22.24613     89.4 9.663e+03 5.299e-10
 22.26577     90.6 9.983e+03 6.482e-10
 22.28540     91.8 1.037e+04 7.918e-10
 22.29769     92.6 1.086e+04 9.722e-10
 22.30751     92.6 1.146e+04 1.206e-09
 22.32468     92.4 1.258e+04 1.710e-09
 22.34432     91.6 1.387e+04 2.628e-09
 22.35900     91.1 1.434e+04 3.142e-09
 22.36877     90.7 1.465e+04 3.367e-09
 22.37859     89.2 1.595e+04 4.448e-09
 22.38841     87.0 1.766e+04 6.872e-09
 22.39823     85.0 1.900e+04 1.122e-08
 22.40679     83.7 1.986e+04 1.775e-08
 22.41170     82.9 2.033e+04 2.593e-08
 22.41534     82.4 2.080e+04 3.647e-08
 22.42025     81.6 2.104e+04 3.211e-08
 22.42769     80.8 2.138e+04 4.204e-08
 22.43751     80.2 2.171e+04 5.104e-08
 22.44733     79.5 2.207e+04 5.722e-08
 22.45715     78.8 2.242e+04 5.698e-08
 22.46697     77.9 2.296e+04 4.904e-08
 22.47678     76.6 2.377e+04 3.690e-08
 22.48660     74.5 2.457e+04 2.573e-08
 22.49642     72.0 2.465e+04 1.841e-08
 22.50624     69.1 2.392e+04 1.487e-08
 22.51598     66.8 2.263e+04 1.349e-08
 22.52089     64.7 2.150e+04 1.098e-08
 22.52588     63.3 2.121e+04 1.118e-08
 22.53570     62.2 2.115e+04 1.145e-08
 22.54552     61.6 2.174e+04 1.253e-08
 22.55534     61.0 2.278e+04 1.510e-08
 22.56516     60.7 2.375e+04 1.838e-08
 22.57498     60.6 2.393e+04 2.614e-08
 22.58480     61.1 2.358e+04 3.787e-08
 22.59163     62.0 2.624e+04 2.700e-08
 22.59654     60.8 2.395e+04 5.890e-08
 22.60444     59.7 2.772e+04 2.694e-08
 22.61426     55.5 2.814e+04 1.681e-08
 22.62407     51.8 2.491e+04 1.644e-08
 22.63885     43.6 1.969e+04 1.034e-08
 22.65854     40.4 1.709e+04 9.948e-09
 22.67818     40.1 1.673e+04 8.464e-09
 22.69782     40.6 1.702e+04 7.040e-09
 22.71746     40.9 1.705e+04 5.861e-09
 22.73447     40.7 1.668e+04 4.755e-09
 22.74429     40.8 1.660e+04 4.925e-09
 22.75673     40.1 1.584e+04 4.292e-09
 22.76801     39.6 1.541e+04 3.898e-09
 22.77783     40.0 1.712e+04 5.717e-09
 22.79601     39.4 1.682e+04 5.639e-09
 22.81565     38.7 1.675e+04 5.839e-09
 22.83529     38.5 1.679e+04 6.602e-09
 22.85493     38.6 1.714e+04 7.852e-09
 22.87457     39.1 1.772e+04 9.507e-09
 22.89420     39.4 1.874e+04 1.158e-08
 22.91384     39.1 1.966e+04 1.362e-08
 22.93348     38.5 2.016e+04 1.554e-08
 22.95286     37.5 2.018e+04 1.784e-08
 22.96268     36.1 2.002e+04 1.584e-08
 22.97276     35.5 1.927e+04 1.538e-08
 22.99240     35.5 1.838e+04 1.389e-08
 23.01204     36.2 1.757e+04 1.037e-08
 23.03168     36.7 1.658e+04 6.477e-09
 23.05131     36.8 1.526e+04 3.609e-09
 23.07095     36.3 1.348e+04 1.860e-09
 23.09059     35.4 1.162e+04 9.704e-10
 23.11023     34.5 1.066e+04 5.912e-10
 23.12060     34.2 1.034e+04 4.205e-10
 23.13042     34.4 1.041e+04 5.346e-10
 23.14951     34.3 1.009e+04 4.324e-10
 23.16915     34.4 9.784e+03 3.877e-10
 23.18106     34.8 9.604e+03 3.731e-10
 23.19088     34.2 9.685e+03 3.951e-10
 23.20842     34.6 9.709e+03 4.375e-10
 23.22806     35.4 9.862e+03 5.108e-10
 23.24770     36.5 1.011e+04 5.995e-10
 23.26734     37.6 1.042e+04 6.878e-10
 23.28698     38.5 1.086e+04 7.733e-10
 23.30662     38.9 1.145e+04 8.657e-10
 23.32626     38.9 1.199e+04 9.583e-10
 23.34589     38.5 1.241e+04 1.070e-09
 23.36553     37.9 1.269e+04 1.232e-09
 23.38517     37.3 1.293e+04 1.490e-09
 23.39945     37.0 1.322e+04 1.892e-09
 23.40927     35.4 1.366e+04 2.618e-09
 23.42445     35.9 1.393e+04 3.231e-09
 23.44409     36.8 1.420e+04 3.827e-09
 23.46336     37.9 1.445e+04 4.247e-09
 23.47318     37.1 1.367e+04 3.364e-09
 23.48337     37.7 1.401e+04 3.552e-09
 23.50300     37.7 1.451e+04 3.782e-09
 23.52264     36.5 1.622e+04 4.346e-09
 23.54228     28.1 2.408e+04 7.857e-09
 23.55696     16.8 2.854e+04 2.403e-08
 23.56673     13.9 2.690e+04 3.680e-08
 23.57655     11.1 2.525e+04 4.783e-08
 23.58637      8.5 2.360e+04 5.048e-08
 23.59619      6.4 2.279e+04 4.567e-08
 23.60601      5.0 2.274e+04 3.676e-08
 23.61583      3.8 2.354e+04 2.592e-08
 23.62265      2.2 2.473e+04 1.589e-08
 23.62756      0.4 2.393e+04 1.160e-08
 23.64043     -4.2 2.144e+04 8.161e-09
 23.66011     -9.9 1.717e+04 4.136e-09
 23.67975    -13.2 1.438e+04 2.423e-09
 23.69939    -13.7 1.396e+04 2.049e-09
 23.71903    -13.9 1.381e+04 1.895e-09
 23.73867    -13.9 1.337e+04 1.730e-09
 23.75831    -13.9 1.284e+04 1.604e-09
 23.77795    -13.7 1.254e+04 1.550e-09
 23.79758    -13.5 1.248e+04 1.569e-09
 23.81594    -13.5 1.246e+04 1.615e-09
 23.82576    -13.4 1.332e+04 2.031e-09
 23.83623    -13.7 1.318e+04 2.087e-09
 23.84605    -14.1 1.302e+04 2.255e-09
 23.85650    -14.1 1.297e+04 2.448e-09
 23.87614    -13.9 1.298e+04 2.654e-09
 23.89578    -13.3 1.307e+04 2.721e-09
 23.91542    -12.6 1.315e+04 2.679e-09
 23.93506    -12.1 1.301e+04 2.404e-09
 23.95469    -11.5 1.261e+04 1.922e-09
 23.97433    -11.0 1.216e+04 1.444e-09
 23.99397    -11.0 1.161e+04 1.040e-09
 24.01361    -11.2 1.098e+04 7.556e-10
 24.03325    -11.4 1.049e+04 5.929e-10
 24.05289    -11.2 1.014e+04 5.000e-10
 24.06444    -10.8 9.996e+03 4.525e-10
 24.07426    -11.1 9.873e+03 4.296e-10
 24.09217    -10.5 9.806e+03 4.144e-10
 24.12172    -10.2 9.719e+03 3.969e-10
 24.16110     -9.1 9.836e+03 4.508e-10
 24.19046     -8.8 9.942e+03 4.451e-10
 24.21000     -8.2 1.015e+04 5.046e-10
 24.23955     -8.0 1.044e+04 6.495e-10
 24.27321     -7.4 1.054e+04 7.316e-10
 24.29284     -8.2 1.036e+04 6.346e-10
 24.31821     -7.3 1.041e+04 7.346e-10
 24.35748     -6.4 1.042e+04 7.509e-10
 24.39676     -5.9 1.029e+04 7.041e-10
 24.43604     -5.8 1.023e+04 6.831e-10
 24.47531     -5.4 1.022e+04 7.404e-10
 24.51148     -4.6 1.022e+04 7.681e-10
 24.53112     -5.1 9.808e+03 5.276e-10
 24.55387     -4.2 9.612e+03 5.087e-10
 24.59315     -2.8 9.309e+03 4.312e-10
 24.63242     -1.3 9.027e+03 3.246e-10
 24.67170     -0.2 8.839e+03 2.318e-10
 24.70998      0.2 8.746e+03 1.905e-10
 24.72962     -0.1 8.607e+03 1.543e-10
 24.75026      0.5 8.668e+03 1.589e-10
 24.78953      1.0 8.719e+03 2.160e-10
 24.82881      2.9 8.848e+03 2.677e-10
 24.86809      4.5 8.842e+03 2.702e-10
 24.90737      6.6 8.700e+03 2.156e-10
 24.94664      7.8 8.615e+03 1.477e-10
 24.98592      8.3 8.478e+03 1.060e-10
 25.02520      9.3 8.280e+03 9.707e-11
 25.06448     10.7 8.268e+03 1.001e-10
 25.10375     12.4 8.290e+03 1.074e-10
 25.14303     14.2 8.377e+03 1.081e-10
 25.16640     15.9 8.466e+03 1.056e-10
 25.18604     15.6 8.527e+03 1.191e-10
 25.21664     16.4 8.753e+03 1.336e-10
 25.23628     14.6 9.190e+03 1.742e-10
 25.26086     15.3 9.441e+03 2.872e-10
 25.30014     17.0 9.604e+03 4.265e-10
 25.33942     18.8 9.793e+03 4.893e-10
 25.37870     20.0 9.941e+03 4.670e-10
 25.41797     20.4 1.018e+04 4.632e-10
 25.45725     20.1 1.033e+04 5.065e-10
 25.49653     20.5 1.023e+04 5.870e-10
 25.53580     21.6 1.019e+04 6.333e-10
 25.57508     22.5 1.032e+04 6.601e-10
 25.60318     23.2 1.050e+04 6.977e-10
 25.62282     22.7 1.054e+04 6.643e-10
 25.65364     23.2 1.094e+04 7.706e-10
 25.68300     22.1 1.148e+04 9.231e-10
 25.70254     22.4 1.152e+04 9.769e-10
 25.72218     21.6 1.201e+04 1.165e-09
 25.74182     20.3 1.270e+04 1.474e-09
 25.76145     19.0 1.310e+04 1.959e-09
 25.78109     19.0 1.322e+04 2.452e-09
 25.80073     19.3 1.318e+04 2.589e-09
 25.82037     20.1 1.302e+04 2.467e-09
 25.83119     20.0 1.289e+04 2.116e-09
 25.84101     19.8 1.299e+04 2.469e-09
 25.85965     19.7 1.263e+04 1.821e-09
 25.87929     17.7 1.269e+04 1.438e-09
 25.89893     17.1 1.220e+04 1.212e-09
 25.92170     16.8 1.183e+04 1.071e-09
 25.94144     13.6 1.137e+04 9.233e-10
 25.95794     13.5 1.109e+04 8.602e-10
 25.97748     14.3 1.087e+04 8.029e-10
 25.99712     14.8 1.073e+04 6.818e-10
 26.01676     15.1 1.074e+04 6.588e-10
 26.03986     14.6 1.057e+04 5.939e-10
 26.05960     13.9 1.044e+04 5.199e-10
 26.08569     14.1 1.013e+04 4.935e-10
 26.12497     14.9 9.912e+03 4.659e-10
 26.16424     15.8 9.732e+03 4.284e-10
 26.20352     17.0 9.490e+03 3.812e-10
 26.24280     18.5 9.258e+03 3.214e-10
 26.28208     20.0 9.082e+03 2.717e-10
 26.32135     21.4 8.947e+03 2.373e-10
 26.36063     22.7 8.820e+03 2.171e-10
 26.39991     23.7 8.895e+03 2.086e-10
 26.43918     24.6 9.222e+03 2.493e-10
 26.47673     26.0 9.299e+03 3.247e-10
 26.49637     25.8 9.064e+03 2.664e-10
 26.51774     27.6 9.147e+03 3.298e-10
 26.55702     29.8 9.194e+03 3.603e-10
 26.59629     32.0 9.172e+03 3.571e-10
 26.62696     34.1 9.107e+03 3.352e-10
 26.64660     33.0 9.035e+03 2.937e-10
 26.67485     35.1 8.922e+03 2.768e-10
 26.71413     37.3 8.909e+03 2.775e-10
 26.75340     39.7 8.917e+03 2.862e-10
 26.79268     42.2 8.952e+03 2.966e-10
 26.83196     44.7 8.988e+03 3.043e-10
 26.87124     47.0 9.054e+03 3.129e-10
 26.91051     49.2 9.174e+03 3.316e-10
 26.93315     51.1 9.395e+03 3.782e-10
 26.95279     51.6 9.380e+03 3.681e-10
 26.98907     53.2 9.723e+03 4.495e-10
 27.02835     54.5 1.026e+04 6.198e-10
 27.06762     55.8 1.090e+04 8.982e-10
 27.10690     57.2 1.135e+04 1.179e-09
 27.14618     58.6 1.139e+04 1.205e-09
 27.18546     60.2 1.114e+04 1.042e-09
 27.22473     61.7 1.065e+04 7.894e-10
 27.26401     63.0 1.012e+04 5.516e-10
 27.30329     64.3 9.695e+03 4.078e-10
 27.33213     65.8 9.419e+03 3.306e-10
 27.35177     64.6 9.315e+03 3.021e-10
 27.36993     66.5 9.255e+03 2.884e-10
 27.38957     66.3 9.468e+03 3.182e-10
 27.42112     68.2 9.474e+03 3.234e-10
 27.46040     70.2 9.511e+03 3.373e-10
 27.49967     72.2 9.644e+03 3.647e-10
 27.53895     74.1 9.857e+03 4.152e-10
 27.57823     76.1 1.025e+04 5.217e-10
 27.61751     77.8 1.065e+04 6.757e-10
 27.65678     79.6 1.135e+04 9.658e-10
 27.68461     80.2 1.177e+04 1.216e-09
 27.69433     79.8 1.186e+04 1.277e-09
 27.70569     80.5 1.215e+04 1.489e-09
 27.72532     81.5 1.243e+04 1.673e-09
 27.74496     82.5 1.253e+04 1.596e-09
 27.76460     83.0 1.274e+04 1.444e-09
 27.78424     83.0 1.290e+04 1.273e-09
 27.80388     82.6 1.297e+04 1.145e-09
 27.81633     81.9 1.279e+04 1.101e-09
 27.82615     82.4 1.342e+04 1.742e-09
 27.84316     82.0 1.312e+04 1.594e-09
 27.86280     81.9 1.277e+04 1.492e-09
 27.88243     82.0 1.252e+04 1.422e-09
 27.90207     82.0 1.236e+04 1.367e-09
 27.93163     83.2 1.223e+04 1.246e-09
 27.97100     84.0 1.161e+04 8.930e-10
 28.01028     84.8 1.099e+04 5.963e-10
 28.03729     85.7 1.048e+04 4.050e-10
 28.05693     84.7 1.019e+04 3.191e-10
 28.08884     85.8 9.924e+03 2.560e-10
 28.12811     87.1 9.760e+03 2.255e-10
 28.16739     88.5 9.644e+03 2.073e-10
 28.20667     90.0 9.574e+03 2.015e-10
 28.24349     91.4 9.572e+03 2.025e-10
 28.26312     92.2 9.620e+03 2.191e-10
 28.28522     93.6 9.681e+03 2.418e-10
 28.32450     94.8 9.778e+03 2.744e-10
 28.36378     96.0 9.940e+03 3.067e-10
 28.40305     97.1 9.979e+03 3.102e-10
 28.44233     98.0 9.974e+03 3.043e-10
 28.48161     98.8 9.965e+03 2.933e-10
 28.52089     99.6 9.974e+03 2.946e-10
 28.56016    100.4 1.008e+04 3.091e-10
 28.59944    100.9 1.026e+04 3.450e-10
 28.63872    101.2 1.038e+04 3.892e-10
 28.66808    101.8 1.043e+04 4.202e-10
 28.68762    102.4 1.052e+04 4.771e-10
 28.69971    103.1 1.061e+04 5.388e-10
 28.70953    103.8 1.081e+04 5.729e-10
 28.72690    104.2 1.085e+04 6.290e-10
 28.74226    104.5 1.083e+04 6.287e-10
 28.75207    104.3 1.070e+04 5.948e-10
 28.76618    104.5 1.064e+04 5.803e-10
 28.78581    104.5 1.052e+04 5.290e-10
 28.80545    104.5 1.039e+04 4.799e-10
 28.82509    104.4 1.024e+04 4.217e-10
 28.84473    104.3 1.014e+04 3.896e-10
 28.86437    104.1 1.015e+04 3.909e-10
 28.88401    103.6 1.028e+04 4.140e-10
 28.90365    102.8 1.060e+04 5.015e-10
 28.91810    102.1 1.099e+04 6.918e-10
 28.92792    102.7 1.139e+04 8.792e-10
 28.94292    102.1 1.180e+04 1.175e-09
 28.96256    102.0 1.208e+04 1.379e-09
 28.99212    101.6 1.197e+04 1.286e-09
 29.03149    101.2 1.172e+04 1.107e-09
 29.07077    100.9 1.101e+04 6.408e-10
 29.11005    100.4 9.968e+03 2.743e-10
 29.13668     99.6 9.054e+03 1.518e-10
 29.15632     99.7 9.012e+03 1.450e-10
 29.18860    100.0 8.992e+03 1.457e-10
 29.22788    101.0 8.993e+03 1.564e-10
 29.26716    102.3 9.108e+03 1.941e-10
 29.30643    103.7 9.245e+03 2.341e-10
 29.34571    105.1 9.343e+03 2.449e-10
 29.38499    106.4 9.320e+03 2.353e-10
 29.42427    107.6 9.271e+03 2.116e-10
 29.44761    108.7 9.176e+03 1.843e-10
 29.46725    108.2 9.072e+03 1.633e-10
 29.50282    109.1 9.035e+03 1.523e-10
 29.54210    110.0 9.047e+03 1.536e-10
 29.57346    110.7 9.097e+03 1.602e-10
 29.59310    110.1 9.631e+03 2.573e-10
 29.62065    110.5 9.726e+03 2.803e-10
 29.65993    110.9 9.870e+03 3.254e-10
 29.68929    111.3 9.885e+03 3.438e-10
 29.70883    111.7 9.929e+03 3.635e-10
 29.72847    112.0 1.007e+04 4.225e-10
 29.74811    112.5 1.024e+04 4.726e-10
 29.77767    112.5 1.069e+04 5.868e-10
 29.81704    113.1 1.064e+04 5.536e-10
 29.85632    113.7 1.040e+04 4.396e-10
 29.89560    114.2 1.005e+04 3.110e-10
 29.93487    114.6 9.703e+03 2.084e-10
 29.97415    114.9 9.411e+03 1.416e-10
 30.01024    115.2 9.116e+03 1.150e-10
 30.02988    114.3 9.042e+03 1.128e-10
 30.05271    115.3 8.988e+03 1.123e-10
 30.09198    116.5 8.986e+03 1.158e-10
 30.13126    117.7 9.065e+03 1.336e-10
 30.15278    118.8 9.399e+03 1.780e-10
 30.17241    119.8 9.386e+03 1.749e-10
 30.20981    120.5 9.804e+03 2.513e-10
 30.24909    120.6 1.008e+04 3.283e-10
 30.27845    120.5 1.029e+04 4.146e-10
 30.29799    120.9 1.054e+04 5.353e-10
 30.31763    121.6 1.083e+04 6.861e-10
 30.33727    122.2 1.116e+04 8.237e-10
 30.35691    122.6 1.145e+04 9.050e-10
 30.37655    122.7 1.159e+04 8.994e-10
 30.39619    122.7 1.162e+04 8.622e-10
 30.41583    122.6 1.159e+04 7.874e-10
 30.43546    122.5 1.145e+04 6.907e-10
 30.45510    122.5 1.124e+04 5.906e-10
 30.46646    122.6 1.100e+04 5.045e-10
 30.47628    122.4 1.147e+04 7.147e-10
 30.49438    122.5 1.116e+04 5.998e-10
 30.50516    122.7 1.086e+04 5.083e-10
 30.51498    123.0 1.122e+04 6.324e-10
 30.53366    123.2 1.085e+04 5.244e-10
 30.55330    123.7 1.054e+04 4.366e-10
 30.57294    124.0 1.035e+04 3.894e-10
 30.59257    124.8 1.023e+04 3.650e-10
 30.61221    125.4 1.020e+04 3.546e-10
 30.63185    126.3 1.020e+04 3.554e-10
 30.65149    127.0 1.021e+04 3.598e-10
 30.67113    127.9 1.020e+04 3.659e-10
 30.68485    128.5 1.020e+04 3.701e-10
 30.69467    128.3 1.025e+04 4.206e-10
 30.71041    129.2 1.025e+04 4.226e-10
 30.73005    130.1 1.023e+04 4.219e-10
 30.74968    130.9 1.022e+04 4.191e-10
 30.76932    131.8 1.021e+04 4.170e-10
 30.78896    132.6 1.020e+04 4.173e-10
 30.80860    133.5 1.019e+04 4.192e-10
 30.82824    134.4 1.019e+04 4.279e-10
 30.84788    134.9 1.026e+04 4.468e-10
 30.86752    135.4 1.086e+04 5.746e-10
 30.88715    134.5 1.154e+04 7.504e-10
 30.90324    132.5 1.281e+04 1.229e-09
 30.91306    132.2 1.332e+04 1.577e-09
 30.92643    130.6 1.457e+04 2.792e-09
 30.94607    129.8 1.563e+04 4.706e-09
 30.96571    129.4 1.627e+04 6.320e-09
 30.98535    128.5 1.631e+04 6.399e-09
 31.00499    127.8 1.607e+04 5.797e-09
 31.02463    127.7 1.537e+04 4.296e-09
 31.04426    127.3 1.444e+04 2.680e-09
 31.06390    125.7 1.334e+04 1.571e-09
 31.08354    123.3 1.217e+04 1.035e-09
 31.10318    121.5 1.130e+04 8.664e-10
 31.12163    121.1 1.118e+04 8.613e-10
 31.13145    121.1 1.160e+04 1.025e-09
 31.14246    121.1 1.155e+04 1.015e-09
 31.16210    121.2 1.147e+04 9.833e-10
 31.18174    121.3 1.134e+04 9.313e-10
 31.20050    121.4 1.120e+04 8.694e-10
 31.21032    120.9 1.130e+04 8.766e-10
 31.22101    120.8 1.110e+04 8.059e-10
 31.24065    120.7 1.093e+04 7.407e-10
 31.26029    120.6 1.073e+04 6.752e-10
 31.27993    120.6 1.051e+04 6.075e-10
 31.29957    120.7 1.028e+04 5.373e-10
 31.31921    120.8 1.007e+04 4.674e-10
 31.33884    120.6 9.897e+03 4.012e-10
 31.34983    120.3 9.816e+03 3.716e-10
 31.35965    119.9 9.793e+03 3.698e-10
 31.37812    119.6 9.648e+03 3.333e-10
 31.39776    119.4 9.572e+03 3.188e-10
 31.41740    119.0 9.501e+03 3.114e-10
 31.43704    118.7 9.494e+03 3.123e-10
 31.45668    118.3 9.497e+03 3.191e-10
 31.47632    117.6 9.589e+03 3.538e-10
 31.49595    116.7 9.907e+03 4.405e-10
 31.51559    115.4 1.053e+04 6.178e-10
 31.53523    114.0 1.142e+04 9.410e-10
 31.55309    112.6 1.245e+04 1.452e-09
 31.56290    114.0 1.162e+04 1.049e-09
 31.56822    113.2 1.250e+04 1.523e-09
 31.57804    113.2 1.245e+04 1.530e-09
 31.59415    112.1 1.329e+04 1.945e-09
 31.61379    109.7 1.432e+04 2.348e-09
 31.63343    105.9 1.550e+04 2.962e-09
 31.65306    101.5 1.638e+04 4.054e-09
 31.67270     98.3 1.649e+04 5.632e-09
 31.69234     95.6 1.708e+04 7.902e-09
 31.71198     91.2 2.006e+04 1.131e-08
 31.72666     86.5 2.285e+04 1.477e-08
 31.73419     82.1 2.501e+04 1.927e-08
 31.73910     85.9 2.341e+04 1.683e-08
 31.74625     81.8 2.557e+04 2.252e-08
 31.75607     77.8 2.564e+04 3.267e-08
 31.76589     74.4 2.376e+04 4.113e-08
 31.77571     71.8 2.306e+04 4.094e-08
 31.78553     70.0 2.201e+04 3.708e-08
 31.79142     69.0 2.102e+04 3.026e-08
 31.79633     69.1 2.115e+04 2.824e-08
 31.81012     66.6 2.047e+04 1.592e-08
 31.82981     62.4 2.030e+04 7.403e-09
 31.84945     55.4 1.870e+04 3.675e-09
 31.86909     49.6 1.513e+04 2.538e-09
 31.88873     47.7 1.377e+04 2.271e-09
 31.90567     47.8 1.343e+04 2.107e-09
 31.91549     49.4 1.353e+04 2.143e-09
 31.92801     49.3 1.333e+04 1.969e-09
 31.94764     49.6 1.301e+04 1.663e-09
 31.97720     48.3 1.205e+04 9.656e-10
 32.01658     47.7 1.066e+04 4.748e-10
 32.05585     47.6 9.680e+03 2.473e-10
 32.09513     48.1 9.293e+03 1.487e-10
 32.13441     49.2 9.157e+03 1.178e-10
 32.17368     50.9 9.126e+03 1.173e-10
 32.21296     52.5 9.118e+03 1.245e-10
 32.23341     54.3 9.144e+03 1.502e-10
 32.24943     53.6 9.199e+03 1.826e-10
 32.26826     53.7 9.549e+03 2.641e-10
 32.29152     55.8 9.610e+03 2.625e-10
 32.33079     57.7 9.660e+03 2.517e-10
 32.37007     59.4 9.656e+03 2.367e-10
 32.40935     60.9 9.644e+03 2.309e-10
 32.44863     62.4 9.664e+03 2.355e-10
 32.48790     63.7 9.771e+03 2.569e-10
 32.52718     65.1 9.947e+03 2.999e-10
 32.56646     66.4 1.017e+04 3.588e-10
 32.59582     66.9 1.015e+04 3.844e-10
 32.61083     67.9 1.015e+04 4.004e-10
 32.62065     67.8 1.045e+04 4.531e-10
 32.63500     68.7 1.058e+04 4.788e-10
 32.65464     69.2 1.061e+04 4.807e-10
 32.66999     69.5 1.055e+04 4.747e-10
 32.67981     69.0 1.069e+04 5.505e-10
 32.69391     68.8 1.082e+04 5.704e-10
 32.71355     68.2 1.125e+04 6.370e-10
 32.73319     67.0 1.187e+04 7.794e-10
 32.75283     65.7 1.222e+04 9.978e-10
 32.77247     64.7 1.228e+04 1.273e-09
 32.79211     64.5 1.232e+04 1.610e-09
 32.81175     63.7 1.328e+04 2.163e-09
 32.83139     61.4 1.661e+04 3.352e-09
 32.85102     57.8 1.985e+04 5.746e-09
 32.87066     54.6 2.117e+04 9.437e-09
 32.88838     52.4 2.108e+04 1.294e-08
 32.89820     52.0 1.953e+04 1.452e-08
 32.90994     51.0 1.916e+04 1.403e-08
 32.92958     50.7 1.888e+04 1.246e-08
 32.94922     50.5 1.877e+04 1.025e-08
 32.96341     50.1 1.874e+04 8.418e-09
 32.97323     47.3 1.843e+04 6.185e-09
 32.98850     46.0 1.695e+04 3.547e-09
 33.00813     44.6 1.444e+04 2.037e-09
 33.02777     43.5 1.222e+04 1.249e-09
 33.04741     42.9 1.133e+04 9.510e-10
 33.06705     43.3 1.123e+04 7.812e-10
 33.08669     44.0 1.116e+04 6.765e-10
 33.10633     44.5 1.105e+04 6.102e-10
 33.11659     44.7 1.091e+04 5.563e-10
 33.12650     42.3 1.072e+04 5.093e-10
 33.15562     40.4 1.110e+04 5.218e-10
 33.18498     40.1 1.161e+04 5.630e-10
 33.20452     37.9 1.301e+04 8.488e-10
 33.22416     35.5 1.366e+04 1.557e-09
 33.24380     33.5 1.425e+04 2.739e-09
 33.26344     28.0 1.816e+04 5.892e-09
 33.28308     21.2 2.147e+04 1.379e-08
 33.30271     15.5 2.183e+04 1.791e-08
 33.31599      8.9 2.192e+04 1.647e-08
 33.32581      3.8 2.054e+04 1.504e-08
 33.33497     -1.4 1.899e+04 9.186e-09
 33.34479     -0.1 1.899e+04 9.624e-09
 33.36163     -5.1 1.663e+04 5.086e-09
 33.38127     -9.4 1.432e+04 2.898e-09
 33.40091    -12.1 1.315e+04 1.979e-09
 33.42055    -14.4 1.257e+04 1.590e-09
 33.44019    -16.5 1.237e+04 1.433e-09
 33.45982    -17.9 1.247e+04 1.435e-09
 33.47946    -19.1 1.264e+04 1.580e-09
 33.49910    -19.8 1.277e+04 1.749e-09
 33.51874    -20.1 1.281e+04 1.863e-09
 33.53838    -20.1 1.283e+04 1.915e-09
 33.55336    -20.0 1.277e+04 1.926e-09
 33.56318    -19.5 1.285e+04 1.649e-09
 33.57766    -20.0 1.280e+04 1.552e-09
 33.59730    -20.9 1.298e+04 1.495e-09
 33.61693    -22.3 1.303e+04 1.478e-09
 33.63657    -23.6 1.289e+04 1.567e-09
 33.65621    -24.2 1.284e+04 1.788e-09
 33.66857    -24.3 1.328e+04 2.195e-09
 33.67839    -25.0 1.322e+04 2.140e-09
 33.69549    -24.9 1.384e+04 2.583e-09
 33.71513    -25.6 1.444e+04 3.043e-09
 33.73477    -26.7 1.468e+04 3.397e-09
 33.75440    -27.4 1.461e+04 3.595e-09
 33.77175    -27.6 1.451e+04 3.649e-09
 33.78157    -27.8 1.398e+04 3.013e-09
 33.79368    -27.3 1.382e+04 3.005e-09
 33.81332    -26.6 1.347e+04 2.593e-09
 33.83296    -26.5 1.318e+04 2.020e-09
 33.85260    -28.0 1.308e+04 1.590e-09
 33.87224    -31.0 1.287e+04 1.348e-09
 33.89188    -33.6 1.283e+04 1.323e-09
 33.91151    -35.9 1.330e+04 1.593e-09
 33.93115    -37.4 1.415e+04 2.089e-09
 33.95079    -39.0 1.495e+04 2.548e-09
 33.97043    -40.8 1.574e+04 2.989e-09
 33.99007    -42.7 1.606e+04 3.314e-09
 34.00971    -43.3 1.605e+04 3.830e-09
 34.02115    -44.6 1.633e+04 4.443e-09
 34.03097    -42.7 1.565e+04 4.171e-09
 34.04899    -43.6 1.647e+04 4.770e-09
 34.06862    -45.2 1.715e+04 5.556e-09
 34.08826    -47.4 1.737e+04 6.578e-09
 34.10790    -49.6 1.772e+04 8.271e-09
 34.12754    -51.1 1.848e+04 1.111e-08
 34.14718    -51.9 1.924e+04 1.517e-08
 34.16682    -52.6 1.979e+04 1.815e-08
 34.18646    -53.7 1.985e+04 1.845e-08
 34.20609    -54.5 1.910e+04 1.410e-08
 34.21835    -55.5 1.777e+04 8.728e-09
 34.22817    -56.2 1.750e+04 8.327e-09
 34.24537    -57.6 1.606e+04 5.409e-09
 34.26501    -58.4 1.506e+04 4.133e-09
 34.28465    -58.6 1.452e+04 3.547e-09
 34.30429    -58.2 1.406e+04 3.129e-09
 34.32393    -57.3 1.371e+04 2.785e-09
 34.34357    -56.4 1.352e+04 2.463e-09
 34.36320    -55.4 1.343e+04 2.177e-09
 34.37373    -54.7 1.342e+04 1.926e-09
 34.38355    -56.4 1.243e+04 1.052e-09
 34.40248    -56.3 1.231e+04 9.509e-10
 34.42212    -56.3 1.227e+04 9.243e-10
 34.43674    -56.6 1.215e+04 9.868e-10
 34.44656    -57.6 1.170e+04 9.418e-10
 34.46140    -57.6 1.184e+04 1.163e-09
 34.48104    -57.1 1.208e+04 1.452e-09
 34.50068    -56.2 1.238e+04 1.742e-09
 34.52031    -55.0 1.266e+04 1.923e-09
 34.53995    -54.0 1.275e+04 1.959e-09
 34.55959    -53.1 1.279e+04 1.811e-09
 34.57923    -52.4 1.243e+04 1.401e-09
 34.59887    -52.3 1.188e+04 1.036e-09
 34.61851    -52.4 1.130e+04 8.009e-10
 34.63815    -52.5 1.090e+04 7.011e-10
 34.65513    -51.8 1.077e+04 6.780e-10
 34.66495    -52.3 1.062e+04 6.148e-10
 34.67742    -50.9 1.076e+04 6.928e-10
 34.69706    -49.6 1.110e+04 7.943e-10
 34.72662    -48.8 1.136e+04 8.296e-10
 34.76599    -46.6 1.130e+04 8.186e-10
 34.80527    -44.8 1.188e+04 7.764e-10
 34.84455    -43.1 1.252e+04 8.332e-10
 34.87371    -41.5 1.301e+04 9.403e-10
 34.88343    -43.3 1.325e+04 1.404e-09
 34.89345    -42.7 1.345e+04 1.559e-09
 34.91309    -42.0 1.357e+04 1.899e-09
 34.93273    -41.3 1.394e+04 2.299e-09
 34.95237    -40.7 1.446e+04 2.979e-09
 34.97200    -40.3 1.500e+04 3.806e-09
 34.99164    -39.9 1.543e+04 4.809e-09
 35.01128    -39.3 1.568e+04 5.817e-09
 35.03092    -38.4 1.576e+04 6.693e-09
 35.05056    -37.3 1.572e+04 7.117e-09
 35.06908    -36.0 1.553e+04 7.150e-09
 35.07890    -36.3 1.546e+04 7.201e-09
 35.08984    -34.7 1.520e+04 6.564e-09
 35.10173    -33.3 1.512e+04 5.620e-09
 35.11155    -32.6 1.510e+04 4.443e-09
 35.12911    -32.4 1.482e+04 3.209e-09
 35.14875    -32.8 1.397e+04 2.220e-09
 35.16839    -33.3 1.289e+04 1.617e-09
 35.18803    -33.3 1.212e+04 1.315e-09
 35.20767    -32.5 1.190e+04 1.197e-09
 35.23722    -31.7 1.185e+04 1.158e-09
 35.27660    -29.8 1.102e+04 7.714e-10
 35.31049    -28.0 1.038e+04 5.247e-10
 35.33013    -28.5 1.018e+04 4.446e-10
 35.35515    -26.3 9.807e+03 3.724e-10
 35.39443    -23.8 9.545e+03 3.201e-10
 35.43371    -20.9 9.271e+03 2.495e-10
 35.47299    -18.2 8.963e+03 1.804e-10
 35.51226    -15.4 8.689e+03 1.326e-10
 35.55154    -12.5 8.492e+03 1.024e-10
 35.59082     -9.8 8.353e+03 8.219e-11
 35.63010     -7.1 8.244e+03 7.186e-11
 35.66937     -4.2 8.199e+03 7.090e-11
 35.70865     -1.5 8.196e+03 7.604e-11
 35.74727      1.5 8.193e+03 8.527e-11
 35.76691      2.0 8.187e+03 7.771e-11
 35.77444      4.7 8.286e+03 8.786e-11
 35.79407      4.8 8.284e+03 7.405e-11
 35.82648      7.5 8.346e+03 9.020e-11
 35.86576     10.5 8.422e+03 1.166e-10
 35.90504     13.7 8.508e+03 1.411e-10
 35.94431     16.8 8.540e+03 1.428e-10
 35.98359     19.6 8.589e+03 1.293e-10
 36.02287     21.9 8.550e+03 1.141e-10
 36.06215     24.0 8.476e+03 1.121e-10
 36.10142     26.1 8.468e+03 1.140e-10
 36.14070     28.5 8.480e+03 1.178e-10
 36.17998     31.1 8.473e+03 1.173e-10
 36.20369     33.8 8.452e+03 1.124e-10
 36.22332     33.9 8.570e+03 1.178e-10
 36.25853     36.7 8.521e+03 1.024e-10
 36.29781     39.4 8.462e+03 9.544e-11
 36.33709     42.2 8.452e+03 9.501e-11
 36.37637     45.1 8.470e+03 9.691e-11
 36.41564     48.0 8.515e+03 1.026e-10
 36.45492     50.9 8.583e+03 1.116e-10
 36.47960     53.9 8.679e+03 1.242e-10
 36.49924     53.2 8.806e+03 1.309e-10
 36.53348     56.2 8.903e+03 1.480e-10
 36.57275     59.3 8.984e+03 1.656e-10
 36.61203     62.4 9.068e+03 1.839e-10
 36.64046     65.5 9.172e+03 2.024e-10
 36.66010     65.3 9.338e+03 2.470e-10
 36.69059     68.5 9.449e+03 2.539e-10
 36.72986     71.6 9.560e+03 2.538e-10
 36.76914     74.6 9.632e+03 2.544e-10
 36.80842     77.6 9.745e+03 2.576e-10
 36.84769     80.5 9.931e+03 2.717e-10
 36.88697     83.3 1.016e+04 3.051e-10
 36.92625     86.2 1.043e+04 3.544e-10
 36.95561     86.8 1.051e+04 3.934e-10
 36.97515     87.6 1.059e+04 4.394e-10
 36.99479     88.6 1.061e+04 5.216e-10
 37.01443     89.7 1.076e+04 6.311e-10
 37.03407     90.6 1.103e+04 7.764e-10
 37.05371     91.3 1.139e+04 9.748e-10
 37.07334     91.9 1.186e+04 1.257e-09
 37.08687     92.1 1.243e+04 1.661e-09
 37.09669     92.3 1.223e+04 1.697e-09
 37.11262     92.8 1.272e+04 2.047e-09
 37.13226     93.1 1.330e+04 2.474e-09
 37.15190     93.4 1.393e+04 2.894e-09
 37.17154     93.5 1.451e+04 3.080e-09
 37.18456     93.5 1.457e+04 3.001e-09
 37.19438     92.2 1.406e+04 2.280e-09
 37.21082     92.0 1.378e+04 2.006e-09
 37.23045     91.7 1.321e+04 1.692e-09
 37.25009     91.6 1.248e+04 1.408e-09
 37.26973     91.7 1.178e+04 1.195e-09
 37.28937     92.1 1.131e+04 1.056e-09
 37.30526     92.8 1.103e+04 9.659e-10
 37.31507     93.2 1.079e+04 8.709e-10
 37.32865     94.2 1.063e+04 8.042e-10
 37.34829     95.1 1.047e+04 7.273e-10
 37.36793     96.0 1.031e+04 6.483e-10
 37.38756     96.8 1.014e+04 5.632e-10
 37.40720     97.6 1.001e+04 4.947e-10
 37.43676     98.1 9.842e+03 4.229e-10
 37.47613     99.7 9.700e+03 3.747e-10
 37.51402    101.4 9.578e+03 3.491e-10
 37.53366    102.2 9.331e+03 2.908e-10
 37.55469    103.6 9.393e+03 3.011e-10
 37.59397    103.9 9.488e+03 3.246e-10
 37.62333    103.6 9.516e+03 3.364e-10
 37.64287    103.6 9.533e+03 3.417e-10
 37.66251    103.6 9.671e+03 3.749e-10
 37.68214    103.3 1.000e+04 4.511e-10
 37.70178    102.6 1.048e+04 5.795e-10
 37.72142    101.4 1.098e+04 7.622e-10
 37.74106    100.2 1.144e+04 9.958e-10
 37.75185     98.9 1.188e+04 1.251e-09
 37.76167     99.6 1.187e+04 1.189e-09
 37.78034     97.8 1.230e+04 1.403e-09
 37.79998     95.3 1.265e+04 1.569e-09
 37.81962     92.3 1.277e+04 1.664e-09
 37.83925     89.1 1.269e+04 1.651e-09
 37.85889     86.3 1.252e+04 1.603e-09
 37.87853     84.1 1.234e+04 1.502e-09
 37.88973     82.4 1.220e+04 1.337e-09
 37.89955     82.0 1.223e+04 1.337e-09
 37.91781     80.2 1.211e+04 1.148e-09
 37.93745     78.5 1.198e+04 1.034e-09
 37.95709     77.0 1.195e+04 1.032e-09
 37.97024     75.8 1.204e+04 1.074e-09
 37.98006     75.5 1.225e+04 1.124e-09
 37.99636     73.7 1.280e+04 1.371e-09
 38.01600     71.9 1.388e+04 2.053e-09
 38.03564     70.6 1.503e+04 3.303e-09
 38.05528     70.0 1.608e+04 4.900e-09
 38.07492     69.2 1.692e+04 6.024e-09
 38.09456     67.7 1.744e+04 6.240e-09
 38.11420     65.9 1.755e+04 5.896e-09
 38.13383     64.0 1.738e+04 4.762e-09
 38.15347     61.9 1.677e+04 3.537e-09
 38.17311     59.9 1.587e+04 2.658e-09
 38.18863     58.3 1.500e+04 2.140e-09
 38.19845     56.9 1.571e+04 2.378e-09
 38.21239     56.0 1.510e+04 2.055e-09
 38.23203     55.9 1.473e+04 1.883e-09
 38.24231     55.9 1.442e+04 1.758e-09
 38.25213     57.1 1.564e+04 3.311e-09
 38.27131     57.3 1.528e+04 2.969e-09
 38.29094     57.8 1.491e+04 2.595e-09
 38.31058     58.2 1.452e+04 2.207e-09
 38.33022     58.6 1.408e+04 1.828e-09
 38.34986     59.0 1.357e+04 1.489e-09
 38.36950     59.1 1.303e+04 1.216e-09
 38.38914     59.0 1.257e+04 1.039e-09
 38.40702     58.8 1.244e+04 1.003e-09
 38.41684     58.4 1.232e+04 9.995e-10
 38.42841     58.2 1.243e+04 1.021e-09
 38.44805     57.9 1.280e+04 1.126e-09
 38.46769     57.8 1.312e+04 1.291e-09
 38.48733     57.6 1.336e+04 1.533e-09
 38.50697     57.2 1.387e+04 1.949e-09
 38.52661     56.2 1.494e+04 2.632e-09
 38.54625     53.9 1.640e+04 3.748e-09
 38.56589     50.9 1.785e+04 6.137e-09
 38.58507     48.5 1.888e+04 8.935e-09
 38.59489     51.3 1.951e+04 8.903e-09
 38.60516     48.8 2.017e+04 1.282e-08
 38.62480     47.7 1.951e+04 1.537e-08
 38.63523     47.7 1.899e+04 1.427e-08
 38.64505     49.1 1.877e+04 1.301e-08
 38.66408     49.1 1.844e+04 8.862e-09
 38.68372     47.6 1.904e+04 4.530e-09
 38.70336     42.5 2.103e+04 1.487e-09
 38.72300     29.8 1.800e+04 9.766e-10
 38.74263     17.4 1.447e+04 1.459e-09
 38.76227     12.6 1.399e+04 2.590e-09
 38.78191     11.0 1.594e+04 3.979e-09
 38.80155      9.4 1.747e+04 4.940e-09
 38.82119      7.0 1.765e+04 5.190e-09
 38.84083      5.0 1.706e+04 4.950e-09
 38.85362      3.9 1.636e+04 4.544e-09
 38.86344      3.4 1.661e+04 5.069e-09
 38.88010      2.9 1.634e+04 4.599e-09
 38.89974      2.6 1.606e+04 4.024e-09
 38.91938      2.2 1.564e+04 3.520e-09
 38.93765      2.1 1.506e+04 2.998e-09
 38.94747      0.0 1.505e+04 3.016e-09
 38.95866      0.6 1.438e+04 2.551e-09
 38.97830      2.2 1.362e+04 2.076e-09
 38.99794      2.7 1.336e+04 1.789e-09
 39.01758      3.5 1.309e+04 1.619e-09
 39.04713      5.4 1.271e+04 1.481e-09
 39.08651      7.4 1.221e+04 1.233e-09
 39.12578      9.9 1.165e+04 9.861e-10
 39.16506     12.6 1.113e+04 7.600e-10
 39.20434     15.2 1.074e+04 5.861e-10
 39.24362     17.4 1.047e+04 4.886e-10
 39.28061     19.6 1.039e+04 4.849e-10
 39.30025     18.4 9.834e+03 3.475e-10
 39.32217     20.9 9.824e+03 3.573e-10
 39.36145     23.6 9.956e+03 4.000e-10
 39.40073     25.6 1.004e+04 4.300e-10
 39.44000     28.3 9.939e+03 4.158e-10
 39.47928     31.0 9.790e+03 3.841e-10
 39.51856     33.7 9.579e+03 3.378e-10
 39.55784     36.3 9.358e+03 2.867e-10
 39.59711     38.8 9.155e+03 2.386e-10
 39.63639     41.3 8.986e+03 1.990e-10
 39.67567     43.6 8.856e+03 1.725e-10
 39.71494     46.1 8.763e+03 1.637e-10
 39.73719     48.6 8.739e+03 1.634e-10
 39.75683     49.3 8.729e+03 1.612e-10
 39.79350     51.9 8.744e+03 1.637e-10
 39.83278     54.5 8.773e+03 1.647e-10
 39.87205     57.0 8.784e+03 1.632e-10
 39.91133     59.6 8.801e+03 1.609e-10
 39.95061     62.0 8.818e+03 1.615e-10
 39.98577     64.4 8.880e+03 1.668e-10
 40.00541     64.6 8.895e+03 1.721e-10
 40.02916     66.9 9.027e+03 1.908e-10
 40.06844     69.2 9.264e+03 2.382e-10
 40.10772     71.5 9.582e+03 3.137e-10
 40.14700     73.9 9.923e+03 4.005e-10
 40.17397     76.2 1.019e+04 4.478e-10
 40.19360     76.4 1.010e+04 4.292e-10
 40.22555     78.5 1.011e+04 4.234e-10
 40.26483     80.7 1.006e+04 3.853e-10
 40.30411     82.9 9.923e+03 3.101e-10
 40.34338     85.0 9.741e+03 2.284e-10
 40.38266     87.1 9.549e+03 1.651e-10
 40.42194     89.1 9.358e+03 1.299e-10
 40.46122     91.3 9.249e+03 1.226e-10
 40.50049     93.8 9.242e+03 1.241e-10
 40.53977     96.3 9.259e+03 1.320e-10
 40.57905     98.9 9.340e+03 1.464e-10
 40.61074    101.3 9.437e+03 1.621e-10
 40.63038    101.9 9.347e+03 1.563e-10
 40.65760    104.3 9.463e+03 1.749e-10
 40.69093    106.6 9.533e+03 1.877e-10
 40.71057    106.6 9.598e+03 2.007e-10
 40.73616    108.8 9.649e+03 2.114e-10
 40.77543    111.0 9.647e+03 2.157e-10
 40.81471    113.0 9.634e+03 2.165e-10
 40.85399    115.0 9.608e+03 2.169e-10
 40.89327    117.0 9.601e+03 2.192e-10
 40.93254    118.8 9.616e+03 2.303e-10
 40.97182    120.5 9.676e+03 2.553e-10
 41.01110    121.8 9.753e+03 2.902e-10
 41.04752    123.0 9.821e+03 3.307e-10
 41.06716    124.0 9.877e+03 3.294e-10
 41.08965    124.8 9.857e+03 3.630e-10
 41.12893    125.3 9.746e+03 3.704e-10
 41.16821    125.9 9.643e+03 3.653e-10
 41.20749    126.8 9.598e+03 3.583e-10
 41.24676    127.5 9.627e+03 3.567e-10
 41.28604    128.4 9.589e+03 3.446e-10
 41.32532    129.6 9.617e+03 3.411e-10
 41.35468    129.6 9.642e+03 3.476e-10
 41.37422    129.7 9.673e+03 3.557e-10
 41.39386    129.8 9.686e+03 3.680e-10
 41.40572    129.9 9.704e+03 3.867e-10
 41.41554    130.1 9.889e+03 4.329e-10
 41.43314    129.8 1.028e+04 5.183e-10
 41.45277    129.2 1.099e+04 6.600e-10
 41.47241    128.3 1.182e+04 8.795e-10
 41.49205    127.3 1.255e+04 1.192e-09
 41.50374    126.5 1.310e+04 1.601e-09
 41.51356    124.8 1.359e+04 2.177e-09
 41.53133    124.9 1.373e+04 2.493e-09
 41.55097    125.1 1.380e+04 2.690e-09
 41.57061    125.3 1.383e+04 2.700e-09
 41.59025    125.2 1.382e+04 2.578e-09
 41.60988    124.7 1.388e+04 2.378e-09
 41.62952    123.4 1.412e+04 2.256e-09
 41.64916    121.4 1.422e+04 2.248e-09
 41.66880    118.7 1.430e+04 2.288e-09
 41.68844    115.7 1.421e+04 2.332e-09
 41.70808    112.9 1.399e+04 2.308e-09
 41.72213    110.6 1.364e+04 2.211e-09
 41.73195    108.4 1.310e+04 2.000e-09
 41.74735    107.3 1.327e+04 2.025e-09
 41.75830    106.7 1.339e+04 2.058e-09
 41.76812    105.3 1.460e+04 2.616e-09
 41.78663    105.1 1.457e+04 2.658e-09
 41.80627    105.0 1.465e+04 2.790e-09
 41.82591    104.9 1.484e+04 3.069e-09
 41.84555    104.8 1.514e+04 3.563e-09
 41.86519    104.8 1.562e+04 4.280e-09
 41.88483    104.9 1.613e+04 5.257e-09
 41.90446    105.0 1.670e+04 6.269e-09
 41.92410    104.9 1.715e+04 6.605e-09
 41.94052    104.6 1.718e+04 6.500e-09
 41.95034    104.9 1.744e+04 7.178e-09
 41.96338    104.8 1.731e+04 6.394e-09
 41.98302    104.3 1.688e+04 4.922e-09
 42.00266    103.3 1.610e+04 3.341e-09
 42.02230    101.5 1.491e+04 2.103e-09
 42.04194     99.6 1.350e+04 1.353e-09
 42.06157     98.2 1.242e+04 9.602e-10
 42.08121     97.6 1.184e+04 7.563e-10
 42.10085     97.2 1.164e+04 6.431e-10
 42.11088     97.0 1.169e+04 5.981e-10
 42.12070     97.8 1.194e+04 6.186e-10
 42.14013     97.3 1.181e+04 5.944e-10
 42.15891     96.6 1.145e+04 5.495e-10
 42.16873     96.5 1.141e+04 5.400e-10
 42.17941     96.1 1.088e+04 4.818e-10
 42.19904     95.8 1.070e+04 4.653e-10
 42.21868     95.5 1.071e+04 4.685e-10
 42.23832     94.9 1.079e+04 4.897e-10
 42.25796     94.2 1.100e+04 5.481e-10
 42.27760     93.2 1.137e+04 6.543e-10
 42.29724     92.0 1.185e+04 8.219e-10
 42.31688     90.7 1.236e+04 1.053e-09
 42.33652     89.4 1.287e+04 1.327e-09
 42.35615     88.0 1.329e+04 1.587e-09
 42.37579     86.4 1.359e+04 1.781e-09
 42.38712     84.2 1.397e+04 2.016e-09
 42.39694     84.6 1.390e+04 1.995e-09
 42.41507     80.0 1.532e+04 2.862e-09
 42.43471     73.4 1.829e+04 5.558e-09
 42.45364     67.1 2.007e+04 9.841e-09
 42.46346     63.7 2.083e+04 1.251e-08
 42.47399     58.2 2.053e+04 1.235e-08
 42.49363     54.3 1.939e+04 9.651e-09
 42.51326     50.4 1.766e+04 5.373e-09
 42.53290     45.2 1.548e+04 2.548e-09
 42.55254     39.8 1.317e+04 1.343e-09
 42.57218     36.8 1.178e+04 9.281e-10
 42.59182     36.5 1.135e+04 7.736e-10
 42.60551     36.7 1.110e+04 6.582e-10
 42.61533     37.9 1.069e+04 5.128e-10
 42.63110     38.4 1.034e+04 4.106e-10
 42.65073     38.9 1.009e+04 3.392e-10
 42.67037     39.5 1.010e+04 3.194e-10
 42.69993     39.9 9.960e+03 3.065e-10
 42.73930     41.3 9.466e+03 2.518e-10
 42.77858     43.3 9.150e+03 2.193e-10
 42.80642     45.7 8.971e+03 2.008e-10
 42.82247     43.8 9.092e+03 2.277e-10
 42.83391     44.3 8.993e+03 2.086e-10
 42.85714     46.9 8.934e+03 1.997e-10
 42.89641     49.5 8.867e+03 1.892e-10
 42.93569     52.1 8.877e+03 1.864e-10
 42.97497     54.5 8.951e+03 1.950e-10
 43.01425     56.6 9.218e+03 2.321e-10
 43.05352     58.6 9.782e+03 3.276e-10
 43.09280     60.5 1.053e+04 5.091e-10
 43.13208     62.5 1.135e+04 7.898e-10
 43.17136     64.2 1.213e+04 1.154e-09
 43.21063     65.5 1.279e+04 1.490e-09
 43.24991     66.6 1.322e+04 1.708e-09
 43.27059     66.4 1.321e+04 1.684e-09
 43.29023     65.6 1.264e+04 1.293e-09
 43.31855     65.7 1.268e+04 1.323e-09
 43.33809     65.6 1.275e+04 1.342e-09
 43.35773     64.6 1.327e+04 1.488e-09
 43.37737     62.6 1.424e+04 1.883e-09
 43.39701     60.4 1.525e+04 2.625e-09
 43.41664     58.6 1.578e+04 3.438e-09
 43.43628     56.8 1.596e+04 3.858e-09
 43.45592     55.1 1.601e+04 3.706e-09
 43.47556     52.0 1.598e+04 3.338e-09
 43.48888     47.9 1.613e+04 3.412e-09
 43.49870     48.8 1.462e+04 2.075e-09
 43.51139     45.2 1.467e+04 2.149e-09
 43.52121     43.8 1.464e+04 2.224e-09
 43.53448     40.9 1.470e+04 2.600e-09
 43.55412     39.0 1.507e+04 3.267e-09
 43.57375     37.6 1.563e+04 4.120e-09
 43.59339     36.2 1.634e+04 4.966e-09
 43.61303     34.3 1.702e+04 5.458e-09
 43.63267     31.7 1.737e+04 5.517e-09
 43.65231     28.6 1.738e+04 5.270e-09
 43.67195     25.3 1.704e+04 4.920e-09
 43.69159     22.3 1.664e+04 4.710e-09
 43.70727     20.0 1.628e+04 4.513e-09
 43.71709     22.8 1.632e+04 4.457e-09
 43.73086     20.9 1.595e+04 4.298e-09
 43.75050     19.7 1.561e+04 3.927e-09
 43.77014     18.7 1.537e+04 3.471e-09
 43.78978     17.4 1.512e+04 2.915e-09
 43.80942     15.8 1.465e+04 2.319e-09
 43.82906     14.1 1.405e+04 1.852e-09
 43.84870     12.6 1.378e+04 1.665e-09
 43.86397     11.6 1.377e+04 1.627e-09
 43.87379     11.5 1.383e+04 1.587e-09
 43.88797     10.4 1.406e+04 1.647e-09
 43.90761      8.6 1.503e+04 2.051e-09
 43.92566      5.8 1.672e+04 3.150e-09
 43.93548      9.9 1.508e+04 1.930e-09
 43.94689      6.8 1.674e+04 3.140e-09
 43.96653      4.8 1.737e+04 5.026e-09
 43.98617      4.3 1.782e+04 7.100e-09
 44.00581      3.8 1.868e+04 8.260e-09
 44.02544      2.5 1.913e+04 7.969e-09
 44.04508      1.0 1.911e+04 6.373e-09
 44.06472     -1.1 1.763e+04 4.221e-09
 44.08436     -3.3 1.531e+04 2.637e-09
 44.10400     -5.3 1.398e+04 1.905e-09
 44.12364     -6.6 1.375e+04 1.560e-09
 44.14328     -7.9 1.355e+04 1.386e-09
 44.15387     -9.1 1.304e+04 1.197e-09
 44.16369     -6.6 1.301e+04 1.130e-09
 44.18255     -7.6 1.292e+04 1.077e-09
 44.20219     -8.2 1.262e+04 1.018e-09
 44.21655     -8.6 1.212e+04 9.323e-10
 44.22637     -8.1 1.211e+04 9.269e-10
 44.24147     -8.1 1.170e+04 8.287e-10
 44.26111     -7.9 1.144e+04 7.342e-10
 44.28075     -7.6 1.129e+04 6.588e-10
 44.30039     -7.4 1.126e+04 6.088e-10
 44.32002     -7.3 1.136e+04 5.764e-10
 44.33966     -7.5 1.152e+04 5.667e-10
 44.35930     -7.9 1.162e+04 5.871e-10
 44.37226     -8.3 1.159e+04 6.565e-10
 44.38208     -4.9 1.160e+04 5.706e-10
 44.39858     -5.3 1.170e+04 6.334e-10
 44.41822     -5.7 1.178e+04 7.711e-10
 44.43786     -5.8 1.213e+04 9.873e-10
 44.45750     -6.0 1.288e+04 1.329e-09
 44.47713     -6.0 1.375e+04 1.742e-09
 44.49677     -6.2 1.461e+04 2.258e-09
 44.51641     -9.0 1.783e+04 3.653e-09
 44.53109    -14.0 2.126e+04 6.719e-09
 44.54086    -14.7 2.187e+04 7.127e-09
 44.55068    -18.4 2.454e+04 1.092e-08
 44.56050    -25.7 2.948e+04 2.206e-08
 44.56903    -32.4 2.797e+04 5.337e-08
 44.57394    -30.1 2.806e+04 3.003e-08
 44.58014    -35.1 2.656e+04 4.745e-08
 44.58996    -38.8 2.531e+04 5.609e-08
 44.59546    -41.6 2.394e+04 5.257e-08
 44.60037    -39.0 2.487e+04 6.181e-08
 44.60960    -41.9 2.348e+04 4.708e-08
 44.61942    -44.7 2.257e+04 2.938e-08
 44.62924    -47.6 2.204e+04 1.677e-08
 44.63906    -51.1 2.083e+04 9.538e-09
 44.64887    -54.8 1.895e+04 5.992e-09
 44.65869    -55.6 1.867e+04 5.193e-09
 44.67347    -58.4 1.759e+04 3.381e-09
 44.69316    -65.3 1.446e+04 1.424e-09
 44.71280    -69.5 1.230e+04 9.573e-10
 44.73244    -70.8 1.204e+04 9.092e-10
 44.75208    -71.8 1.198e+04 8.990e-10
 44.77171    -72.7 1.193e+04 8.977e-10
 44.79135    -73.4 1.186e+04 8.911e-10
 44.80904    -73.9 1.172e+04 8.545e-10
 44.81886    -73.9 1.191e+04 9.191e-10
 44.83063    -74.3 1.171e+04 8.196e-10
 44.85027    -74.5 1.142e+04 7.122e-10
 44.86991    -74.6 1.110e+04 6.031e-10
 44.88955    -74.4 1.072e+04 4.940e-10
 44.90919    -73.7 1.038e+04 4.018e-10
 44.92171    -73.0 1.023e+04 3.538e-10
 44.94145    -73.0 1.022e+04 3.333e-10
 44.97812    -72.6 1.016e+04 3.198e-10
 45.01739    -71.3 1.012e+04 3.153e-10
 45.03744    -69.5 1.009e+04 3.196e-10
 45.05708    -68.8 1.015e+04 3.225e-10
 45.09595    -66.7 1.019e+04 3.293e-10
 45.13523    -64.4 1.022e+04 3.343e-10
 45.17450    -62.1 1.025e+04 3.342e-10
 45.21378    -59.9 1.020e+04 3.272e-10
 45.25306    -57.9 1.016e+04 3.118e-10
 45.29234    -55.5 1.016e+04 3.049e-10
 45.33161    -53.0 1.026e+04 3.130e-10
 45.37089    -50.7 1.046e+04 3.319e-10
 45.41017    -48.7 1.109e+04 3.855e-10
 45.44944    -46.9 1.211e+04 5.288e-10
 45.47422    -45.4 1.298e+04 7.566e-10
 45.49386    -43.8 1.181e+04 4.958e-10
 45.51808    -42.9 1.249e+04 6.632e-10
 45.53762    -41.8 1.242e+04 6.674e-10
 45.55726    -40.7 1.224e+04 7.367e-10
 45.57690    -39.8 1.247e+04 8.410e-10
 45.59654    -38.9 1.268e+04 9.681e-10
 45.61618    -37.9 1.303e+04 1.123e-09
 45.62687    -36.9 1.342e+04 1.280e-09
 45.63669    -37.6 1.382e+04 1.420e-09
 45.65546    -36.8 1.453e+04 1.611e-09
 45.67509    -36.2 1.550e+04 1.852e-09
 45.69241    -35.8 1.667e+04 2.201e-09
 45.70223    -34.5 1.409e+04 1.275e-09
 45.71437    -33.7 1.521e+04 1.426e-09
 45.73401    -33.0 1.652e+04 1.653e-09
 45.75365    -32.5 1.787e+04 2.022e-09
 45.77329    -31.9 1.912e+04 2.568e-09
 45.79293    -30.9 1.973e+04 3.265e-09
 45.81257    -29.6 2.003e+04 4.109e-09
 45.83220    -32.3 2.372e+04 5.731e-09
 45.84688    -54.6 4.162e+04 4.764e-09
 45.85665    -74.6 4.390e+04 3.265e-08
 45.86345    -87.3 2.819e+04 6.342e-07
 45.86588    -85.8 3.274e+04 2.400e-07
 45.86888    -88.8 2.951e+04 4.714e-07
 45.87379    -89.1 2.870e+04 5.798e-07
 45.87870    -92.6 2.713e+04 9.336e-07
 45.88361    -96.0 2.470e+04 1.581e-06
 45.88852   -100.1 2.248e+04 2.466e-06
 45.89116   -109.2 2.294e+04 2.231e-06
 45.89362   -112.2 2.370e+04 1.838e-06
 45.89834   -127.9 3.067e+04 4.241e-07
 45.90325   -148.8 4.187e+04 3.274e-08
 45.90816   -163.1 3.603e+04 1.065e-08
 45.91555   -172.8 2.806e+04 7.181e-09
 45.92539   -182.1 2.216e+04 8.421e-09
 45.93521   -184.4 2.153e+04 8.415e-09
 45.94503   -186.1 2.181e+04 9.040e-09
 45.95485   -188.3 2.193e+04 9.218e-09
 45.96467   -190.6 2.191e+04 9.228e-09
 45.97445   -192.8 2.162e+04 9.193e-09
 45.98427   -194.0 2.069e+04 8.078e-09
 45.99413   -196.1 2.022e+04 7.592e-09
 46.00395   -198.2 1.975e+04 6.976e-09
 46.01376   -200.2 1.933e+04 6.329e-09
 46.02358   -202.1 1.898e+04 5.723e-09
 46.02972   -203.8 1.864e+04 5.197e-09
 46.03463   -205.5 1.900e+04 5.516e-09
 46.04322   -206.4 1.847e+04 4.837e-09
 46.05304   -206.9 1.812e+04 4.423e-09
 46.06782   -207.3 1.774e+04 3.987e-09
 46.08751   -209.4 1.698e+04 3.099e-09
 46.10715   -211.3 1.609e+04 2.290e-09
 46.12678   -212.6 1.535e+04 1.745e-09
 46.13901   -213.5 1.474e+04 1.382e-09
 46.14883   -215.5 1.387e+04 1.048e-09
 46.16606   -216.0 1.338e+04 9.145e-10
 46.18570   -216.2 1.299e+04 8.279e-10
 46.20534   -216.3 1.274e+04 7.731e-10
 46.22498   -216.0 1.259e+04 7.419e-10
 46.24462   -215.5 1.252e+04 7.246e-10
 46.26426   -214.9 1.247e+04 7.151e-10
 46.28389   -214.3 1.244e+04 7.058e-10
 46.30353   -213.6 1.239e+04 6.933e-10
 46.32222   -212.8 1.234e+04 6.765e-10
 46.33204   -213.0 1.234e+04 6.727e-10
 46.34281   -212.2 1.229e+04 6.542e-10
 46.35740   -211.4 1.223e+04 6.341e-10
 46.36722   -211.7 1.219e+04 6.142e-10
 46.38209   -211.0 1.215e+04 5.875e-10
 46.40173   -210.3 1.215e+04 5.602e-10
 46.42137   -209.9 1.216e+04 5.326e-10
 46.44100   -209.5 1.216e+04 5.055e-10
 46.46064   -209.2 1.213e+04 4.849e-10
 46.48028   -208.9 1.207e+04 4.697e-10
 46.50984   -208.7 1.198e+04 4.526e-10
 46.54921   -207.3 1.193e+04 4.405e-10
 46.58849   -206.4 1.183e+04 4.210e-10
 46.62777   -205.5 1.169e+04 3.907e-10
 46.66704   -204.5 1.148e+04 3.540e-10
 46.70632   -203.4 1.127e+04 3.258e-10
 46.74560   -202.2 1.120e+04 3.189e-10
 46.78455   -200.8 1.136e+04 3.507e-10
 46.80419   -202.4 1.139e+04 3.460e-10
 46.82415   -200.8 1.160e+04 4.053e-10
 46.86343   -199.2 1.184e+04 4.741e-10
 46.90271   -197.4 1.204e+04 5.477e-10
 46.94199   -195.7 1.223e+04 6.264e-10
 46.98126   -194.0 1.245e+04 7.227e-10
 47.01775   -192.8 1.276e+04 8.606e-10
 47.03739   -193.2 1.286e+04 8.842e-10
 47.05982   -192.0 1.329e+04 1.075e-09
 47.08918   -191.1 1.363e+04 1.261e-09
 47.10872   -190.7 1.384e+04 1.378e-09
 47.12836   -190.6 1.392e+04 1.440e-09
 47.14800   -190.7 1.392e+04 1.450e-09
 47.16764   -190.6 1.369e+04 1.414e-09
 47.18727   -190.4 1.345e+04 1.305e-09
 47.20691   -190.2 1.323e+04 1.197e-09
 47.22655   -190.0 1.308e+04 1.118e-09
 47.24078   -189.6 1.302e+04 1.089e-09
 47.25060   -191.1 1.316e+04 1.151e-09
 47.26583   -190.7 1.319e+04 1.160e-09
 47.28547   -190.5 1.333e+04 1.236e-09
 47.30511   -190.3 1.354e+04 1.360e-09
 47.32475   -190.1 1.378e+04 1.536e-09
 47.34438   -189.9 1.405e+04 1.775e-09
 47.36402   -189.6 1.437e+04 2.087e-09
 47.37996   -189.1 1.470e+04 2.470e-09
 47.38978   -189.3 1.453e+04 2.348e-09
 47.40330   -188.7 1.489e+04 2.752e-09
 47.42294   -188.2 1.517e+04 3.110e-09
 47.44258   -187.7 1.534e+04 3.334e-09
 47.45916   -187.2 1.538e+04 3.399e-09
 47.46898   -188.8 1.547e+04 3.447e-09
 47.48185   -188.3 1.549e+04 3.462e-09
 47.50149   -187.8 1.546e+04 3.363e-09
 47.52113   -187.2 1.540e+04 3.176e-09
 47.54077   -186.6 1.533e+04 3.014e-09
 47.56041   -186.1 1.525e+04 2.902e-09
 47.58005   -185.4 1.514e+04 2.834e-09
 47.59969   -184.6 1.503e+04 2.802e-09
 47.61933   -183.7 1.487e+04 2.794e-09
 47.63896   -182.6 1.476e+04 2.755e-09
 47.65860   -181.4 1.463e+04 2.713e-09
 47.67755   -180.2 1.449e+04 2.605e-09
 47.68737   -181.2 1.451e+04 2.615e-09
 47.69788   -179.9 1.432e+04 2.400e-09
 47.71752   -178.4 1.413e+04 2.150e-09
 47.73254   -177.1 1.394e+04 1.878e-09
 47.74236   -176.9 1.458e+04 2.470e-09
 47.75680   -175.6 1.440e+04 2.168e-09
 47.77644   -174.3 1.422e+04 1.861e-09
 47.79607   -173.1 1.405e+04 1.596e-09
 47.81571   -172.0 1.389e+04 1.389e-09
 47.83535   -171.1 1.372e+04 1.240e-09
 47.85499   -170.1 1.354e+04 1.150e-09
 47.87463   -169.1 1.336e+04 1.116e-09
 47.89427   -168.1 1.326e+04 1.104e-09
 47.90576   -167.2 1.323e+04 1.092e-09
 47.91558   -168.0 1.287e+04 1.103e-09
 47.93354   -166.8 1.278e+04 1.081e-09
 47.95318   -165.7 1.270e+04 1.056e-09
 47.97282   -164.7 1.268e+04 1.043e-09
 47.99246   -163.8 1.270e+04 1.047e-09
 48.01210   -163.0 1.273e+04 1.087e-09
 48.03174   -162.1 1.275e+04 1.161e-09
 48.05138   -161.2 1.276e+04 1.254e-09
 48.07102   -160.4 1.277e+04 1.357e-09
 48.08512   -159.5 1.275e+04 1.438e-09
 48.09494   -159.4 1.297e+04 1.584e-09
 48.11029   -158.6 1.294e+04 1.601e-09
 48.12415   -157.9 1.274e+04 1.588e-09
 48.13397   -157.6 1.264e+04 1.388e-09
 48.14957   -156.9 1.231e+04 1.293e-09
 48.16921   -156.4 1.202e+04 1.138e-09
 48.18885   -155.9 1.173e+04 9.779e-10
 48.20849   -155.5 1.147e+04 8.364e-10
 48.22813   -155.2 1.125e+04 7.267e-10
 48.24776   -154.8 1.108e+04 6.547e-10
 48.26740   -154.3 1.099e+04 6.181e-10
 48.28704   -153.7 1.096e+04 6.081e-10
 48.30668   -153.0 1.095e+04 6.069e-10
 48.32632   -152.2 1.095e+04 6.102e-10
 48.34254   -151.2 1.099e+04 6.156e-10
 48.35236   -152.4 1.106e+04 6.345e-10
 48.36560   -151.5 1.112e+04 6.402e-10
 48.38523   -150.5 1.119e+04 6.447e-10
 48.40487   -149.6 1.128e+04 6.511e-10
 48.42451   -148.6 1.137e+04 6.643e-10
 48.43770   -147.6 1.147e+04 6.863e-10
 48.44752   -147.8 1.134e+04 6.577e-10
 48.46379   -146.8 1.139e+04 6.816e-10
 48.48343   -145.7 1.142e+04 7.041e-10
 48.50307   -144.5 1.143e+04 7.212e-10
 48.52271   -143.4 1.143e+04 7.273e-10
 48.54234   -142.1 1.139e+04 7.260e-10
 48.56093   -141.0 1.136e+04 7.051e-10
 48.57075   -142.1 1.168e+04 8.252e-10
 48.58162   -141.1 1.182e+04 8.100e-10
 48.60126   -140.2 1.200e+04 8.126e-10
 48.62090   -139.5 1.220e+04 8.367e-10
 48.64054   -138.7 1.236e+04 8.806e-10
 48.66018   -137.9 1.244e+04 9.370e-10
 48.67982   -137.0 1.239e+04 9.976e-10
 48.69945   -136.0 1.230e+04 1.038e-09
 48.71909   -134.8 1.206e+04 1.055e-09
 48.73873   -133.5 1.182e+04 1.037e-09
 48.75837   -132.2 1.161e+04 9.798e-10
 48.77801   -130.8 1.147e+04 8.706e-10
 48.78914   -129.7 1.130e+04 7.371e-10
 48.79159   -130.1 1.122e+04 6.911e-10
 48.80010   -129.8 1.126e+04 7.336e-10
 48.82720   -128.5 1.107e+04 6.126e-10
 48.86658   -126.3 1.071e+04 4.951e-10
 48.90586   -123.7 1.027e+04 3.768e-10
 48.94513   -121.2 9.932e+03 2.912e-10
 48.98441   -118.6 9.669e+03 2.281e-10
 49.00772   -116.0 9.476e+03 1.813e-10
 49.02736   -117.8 9.401e+03 1.597e-10
 49.06297   -115.2 9.229e+03 1.377e-10
 49.10224   -112.6 9.078e+03 1.196e-10
 49.13324   -110.0 8.956e+03 1.058e-10
 49.15288   -109.8 9.079e+03 1.271e-10
 49.18080   -107.2 8.977e+03 1.137e-10
 49.22007   -104.7 8.897e+03 1.052e-10
 49.25935   -102.3 8.848e+03 1.022e-10
 49.29863   -100.0 8.829e+03 1.021e-10
 49.33791    -97.9 8.823e+03 1.154e-10
 49.37718    -95.7 8.943e+03 1.477e-10
 49.41646    -93.4 9.066e+03 1.934e-10
 49.44450    -90.8 9.174e+03 2.400e-10
 49.46414    -91.6 9.139e+03 2.445e-10
 49.49502    -89.0 9.157e+03 2.514e-10
 49.53429    -86.5 9.159e+03 2.499e-10
 49.57357    -84.1 9.119e+03 2.354e-10
 49.61285    -81.7 9.123e+03 2.240e-10
 49.65213    -79.5 9.179e+03 2.208e-10
 49.69140    -77.6 9.316e+03 2.280e-10
 49.73068    -76.2 9.565e+03 2.683e-10
 49.76996    -75.5 1.005e+04 3.820e-10
 49.80924    -74.8 1.075e+04 6.371e-10
 49.83840    -73.9 1.149e+04 1.037e-09
 49.85804    -73.9 1.168e+04 1.125e-09
 49.88128    -73.5 1.205e+04 1.398e-09
 49.90092    -74.3 1.190e+04 1.414e-09
 49.92707    -74.2 1.200e+04 1.493e-09
 49.96635    -74.1 1.165e+04 1.263e-09
 50.00562    -74.0 1.108e+04 8.985e-10
 50.04490    -74.2 1.068e+04 7.361e-10
 50.08418    -73.8 1.058e+04 7.200e-10
 50.10939    -73.1 1.055e+04 7.557e-10
 50.11911    -73.1 1.080e+04 8.409e-10
 50.13308    -72.4 1.072e+04 8.309e-10
 50.15272    -71.7 1.050e+04 7.493e-10
 50.17236    -71.0 1.022e+04 6.311e-10
 50.20191    -70.2 9.893e+03 4.995e-10
 50.24129    -68.5 9.296e+03 3.253e-10
 50.28056    -66.8 8.744e+03 1.999e-10
 50.31806    -64.9 8.340e+03 1.367e-10
 50.33770    -65.0 8.380e+03 1.312e-10
 50.35912    -63.1 8.224e+03 1.142e-10
 50.39840    -60.8 8.178e+03 1.115e-10
 50.43767    -58.4 8.170e+03 1.136e-10
 50.47695    -56.2 8.253e+03 1.261e-10
 50.51623    -54.1 8.392e+03 1.418e-10
 50.54357    -52.1 8.551e+03 1.605e-10
 50.56320    -51.7 8.661e+03 1.808e-10
 50.59478    -50.0 8.841e+03 2.152e-10
 50.63406    -48.7 9.122e+03 2.707e-10
 50.67334    -48.4 9.781e+03 3.918e-10
 50.70270    -48.5 1.047e+04 5.320e-10
 50.72224    -50.8 1.132e+04 8.105e-10
 50.74188    -51.8 1.207e+04 1.476e-09
 50.76152    -51.8 1.279e+04 2.297e-09
 50.77428    -50.9 1.332e+04 2.914e-09
 50.78410    -51.1 1.349e+04 2.918e-09
 50.80079    -50.4 1.363e+04 3.034e-09
 50.82043    -49.8 1.343e+04 2.530e-09
 50.84007    -49.8 1.250e+04 1.568e-09
 50.85971    -51.4 1.139e+04 9.668e-10
 50.87935    -52.1 1.063e+04 6.833e-10
 50.89595    -52.2 1.032e+04 5.505e-10
 50.90577    -52.0 1.026e+04 5.379e-10
 50.91863    -51.9 1.009e+04 4.759e-10
 50.93827    -51.5 1.005e+04 4.537e-10
 50.95790    -50.9 1.004e+04 4.430e-10
 50.97754    -49.9 1.011e+04 4.334e-10
 50.99267    -49.7 1.013e+04 4.440e-10
 51.00249    -49.6 1.010e+04 4.172e-10
 51.01682    -48.6 1.018e+04 4.548e-10
 51.03646    -48.3 1.018e+04 4.710e-10
 51.05610    -47.3 1.021e+04 5.058e-10
 51.07574    -46.6 1.022e+04 5.296e-10
 51.09538    -45.5 1.025e+04 5.601e-10
 51.11501    -44.6 1.026e+04 5.708e-10
 51.13465    -43.5 1.026e+04 5.771e-10
 51.15429    -42.7 1.024e+04 5.794e-10
 51.17393    -41.8 1.028e+04 5.865e-10
 51.19357    -41.1 1.030e+04 5.933e-10
 51.21106    -40.4 1.037e+04 6.233e-10
 51.22088    -40.3 1.047e+04 7.188e-10
 51.23285    -39.4 1.063e+04 7.691e-10
 51.24853    -38.6 1.086e+04 8.284e-10
 51.25835    -38.3 1.071e+04 7.750e-10
 51.27212    -37.4 1.092e+04 8.341e-10
 51.29176    -36.5 1.113e+04 8.752e-10
 51.31140    -35.8 1.123e+04 8.844e-10
 51.33104    -35.0 1.128e+04 8.887e-10
 51.35068    -34.3 1.125e+04 8.521e-10
 51.37032    -33.8 1.108e+04 7.894e-10
 51.38996    -33.3 1.087e+04 7.225e-10
 51.40959    -32.8 1.070e+04 6.661e-10
 51.42923    -32.3 1.063e+04 6.326e-10
 51.45879    -31.2 1.073e+04 6.682e-10
 51.49816    -29.7 1.064e+04 6.383e-10
 51.53744    -27.5 1.042e+04 5.232e-10
 51.57672    -25.9 1.007e+04 3.389e-10
 51.61600    -24.7 9.635e+03 2.555e-10
 51.64803    -23.5 9.534e+03 2.243e-10
 51.66767    -23.5 9.982e+03 2.913e-10
 51.69455    -22.6 1.027e+04 3.002e-10
 51.72391    -21.9 1.026e+04 3.240e-10
 51.74345    -22.4 1.048e+04 4.272e-10
 51.76309    -22.1 1.074e+04 5.680e-10
 51.78273    -21.5 1.082e+04 7.216e-10
 51.81229    -19.8 1.086e+04 8.977e-10
 51.85166    -17.8 1.088e+04 6.992e-10
 51.89094    -17.2 1.040e+04 3.752e-10
 51.93022    -17.3 9.502e+03 2.546e-10
 51.95389    -16.0 8.935e+03 1.995e-10
 51.97353    -15.3 9.235e+03 2.443e-10
 52.00877    -13.4 9.044e+03 2.033e-10
 52.04805    -11.7 9.076e+03 1.775e-10
 52.08481    -10.0 9.110e+03 1.782e-10
 52.10445     -9.6 8.819e+03 1.349e-10
 52.12660     -7.8 8.881e+03 1.402e-10
 52.16588     -6.0 9.101e+03 1.682e-10
 52.20516     -4.0 9.420e+03 2.382e-10
 52.24443     -1.9 9.870e+03 3.724e-10
 52.28371     -0.1 1.027e+04 5.471e-10
 52.30637      0.8 1.042e+04 6.720e-10
 52.31594      0.7 1.042e+04 6.986e-10
 52.32264      0.7 1.058e+04 7.381e-10
 52.33261      2.1 1.075e+04 8.970e-10
 52.35225      3.5 1.100e+04 1.050e-09
 52.37189      4.9 1.119e+04 1.131e-09
 52.39153      6.1 1.120e+04 1.096e-09
 52.41117      7.2 1.121e+04 1.002e-09
 52.43081      8.0 1.120e+04 8.838e-10
 52.45045      8.4 1.111e+04 7.701e-10
 52.47008      8.6 1.093e+04 6.773e-10
 52.48972      8.8 1.072e+04 6.162e-10
 52.50936      8.9 1.050e+04 5.936e-10
 52.52900      9.1 1.042e+04 5.972e-10
 52.54103      9.3 1.044e+04 6.367e-10
 52.55085     10.1 1.024e+04 4.870e-10
 52.56828     10.1 1.024e+04 5.237e-10
 52.58792     10.3 1.032e+04 5.903e-10
 52.60756     10.9 1.045e+04 6.786e-10
 52.62719     11.6 1.063e+04 7.793e-10
 52.64683     12.2 1.083e+04 8.517e-10
 52.65895     12.8 1.066e+04 7.487e-10
 52.67869     13.1 1.085e+04 8.344e-10
 52.71576     12.8 1.084e+04 7.685e-10
 52.74512     12.0 1.063e+04 6.711e-10
 52.75942     11.1 1.028e+04 5.893e-10
 52.76924     11.4 1.036e+04 5.670e-10
 52.78430     10.6 1.001e+04 5.010e-10
 52.80394     10.1 9.577e+03 4.296e-10
 52.83350      9.6 9.546e+03 3.829e-10
 52.87287      9.2 9.138e+03 2.853e-10
 52.91215      8.6 8.863e+03 2.430e-10
 52.95143      8.2 8.946e+03 2.520e-10
 52.97791      8.2 9.082e+03 2.712e-10
 52.98763      8.4 9.220e+03 3.188e-10
 53.00033      8.1 9.268e+03 3.420e-10
 53.01144      7.3 9.557e+03 4.402e-10
 53.02126      7.9 9.436e+03 3.923e-10
 53.03961      7.2 9.948e+03 5.359e-10
 53.05925      6.0 1.089e+04 8.326e-10
 53.07888      4.2 1.228e+04 1.446e-09
 53.09852      3.1 1.342e+04 2.394e-09
 53.11816      3.2 1.414e+04 3.255e-09
 53.13780      2.8 1.420e+04 3.367e-09
 53.15744      2.5 1.381e+04 2.796e-09
 53.17708      1.4 1.288e+04 1.811e-09
 53.19620     -0.9 1.162e+04 1.048e-09
 53.20602     -0.7 1.197e+04 1.193e-09
 53.21635     -3.3 1.076e+04 7.915e-10
 53.23599     -5.0 1.030e+04 6.292e-10
 53.25563     -5.7 1.024e+04 5.801e-10
 53.27527     -6.4 1.028e+04 5.905e-10
 53.29491     -7.0 1.038e+04 6.421e-10
 53.31455     -7.4 1.059e+04 7.402e-10
 53.33419     -7.4 1.079e+04 8.518e-10
 53.35383     -7.1 1.090e+04 9.448e-10
 53.36402     -6.8 1.088e+04 9.792e-10
 53.37384     -5.7 1.068e+04 8.926e-10
 53.39310     -5.3 1.061e+04 8.694e-10
 53.41274     -4.8 1.053e+04 8.122e-10
 53.42441     -4.5 1.047e+04 7.479e-10
 53.43422     -4.7 1.076e+04 7.993e-10
 53.45202     -4.8 1.072e+04 7.444e-10
 53.47166     -5.0 1.072e+04 7.168e-10
 53.49130     -4.9 1.073e+04 7.204e-10
 53.51094     -5.0 1.088e+04 7.675e-10
 53.53057     -5.3 1.118e+04 8.704e-10
 53.55021     -5.5 1.155e+04 1.051e-09
 53.56985     -5.4 1.191e+04 1.307e-09
 53.58949     -5.1 1.216e+04 1.572e-09
 53.60913     -4.5 1.241e+04 1.778e-09
 53.62877     -3.8 1.261e+04 1.895e-09
 53.64279     -3.4 1.267e+04 1.916e-09
 53.65261     -3.7 1.277e+04 1.821e-09
 53.66804     -3.6 1.272e+04 1.660e-09
 53.68768     -3.6 1.267e+04 1.475e-09
 53.70678     -3.8 1.265e+04 1.351e-09
 53.71660     -2.4 1.254e+04 1.349e-09
 53.72696     -2.6 1.247e+04 1.246e-09
 53.74660     -2.7 1.237e+04 1.214e-09
 53.76624     -2.6 1.241e+04 1.255e-09
 53.78588     -6.7 1.501e+04 2.085e-09
 53.80056    -13.9 1.970e+04 5.311e-09
 53.81033    -18.1 2.148e+04 9.290e-09
 53.82015    -19.6 2.019e+04 1.733e-08
 53.82997    -19.0 1.918e+04 2.507e-08
 53.83979    -17.4 1.898e+04 3.199e-08
 53.84961    -15.8 1.907e+04 3.582e-08
 53.85942    -14.1 1.911e+04 3.319e-08
 53.86600    -12.6 1.987e+04 2.431e-08
 53.87090    -12.7 1.957e+04 2.555e-08
 53.88402    -13.4 2.016e+04 1.291e-08
 53.90371    -16.9 1.969e+04 3.168e-09
 53.92335    -25.9 1.384e+04 6.839e-10
 53.94299    -29.6 1.010e+04 3.357e-10
 53.96263    -29.3 1.010e+04 2.816e-10
 53.98226    -28.4 1.009e+04 2.778e-10
 54.01182    -28.3 9.945e+03 2.564e-10
 54.04974    -26.0 9.646e+03 2.075e-10
 54.06938    -24.1 9.650e+03 2.073e-10
 54.09047    -22.4 9.461e+03 1.741e-10
 54.12975    -20.8 9.224e+03 1.555e-10
 54.16903    -18.8 9.268e+03 1.599e-10
 54.20830    -17.8 9.586e+03 2.012e-10
 54.24758    -16.8 9.797e+03 2.809e-10
 54.28686    -14.3 9.873e+03 3.660e-10
 54.30798    -12.0 1.013e+04 4.492e-10
 54.32761    -11.1 1.029e+04 5.358e-10
 54.36541     -8.9 1.035e+04 4.474e-10
 54.40469     -7.6 1.011e+04 3.535e-10
 54.44397     -6.5 9.904e+03 3.213e-10
 54.48325     -4.8 9.789e+03 3.050e-10
 54.52252     -2.8 9.783e+03 2.953e-10
 54.56180     -0.8 9.780e+03 2.895e-10
 54.60108      1.5 9.811e+03 2.973e-10
 54.64036      3.6 9.963e+03 3.275e-10
 54.66972      5.6 1.005e+04 3.726e-10
 54.68926      6.1 1.014e+04 3.972e-10
 54.70890      6.6 1.054e+04 4.995e-10
 54.72853      7.9 1.058e+04 5.589e-10
 54.74456      8.8 1.068e+04 6.151e-10
 54.75438      8.8 1.070e+04 6.130e-10
 54.76452      9.7 1.085e+04 6.883e-10
 54.77434     10.5 1.069e+04 6.179e-10
 54.78745     11.5 1.078e+04 6.580e-10
 54.80709     12.4 1.089e+04 6.896e-10
 54.82673     13.4 1.087e+04 6.842e-10
 54.84637     14.2 1.093e+04 6.800e-10
 54.86601     15.2 1.092e+04 6.547e-10
 54.88564     16.0 1.095e+04 6.331e-10
 54.90528     16.9 1.084e+04 5.890e-10
 54.92492     17.7 1.073e+04 5.531e-10
 54.94456     18.7 1.056e+04 5.077e-10
 54.96295     19.6 1.048e+04 4.822e-10
 54.97277     19.9 1.055e+04 5.019e-10
 54.98384     21.1 1.041e+04 4.692e-10
 55.00348     22.0 1.039e+04 4.594e-10
 55.02311     23.3 1.034e+04 4.490e-10
 55.04275     24.1 1.034e+04 4.489e-10
 55.06239     25.7 1.032e+04 4.507e-10
 55.08203     26.7 1.038e+04 4.625e-10
 55.10167     28.3 1.038e+04 4.707e-10
 55.11711     29.4 1.041e+04 4.805e-10
 55.12693     29.4 1.028e+04 4.395e-10
 55.14095     31.3 1.034e+04 4.650e-10
 55.16059     32.0 1.041e+04 4.836e-10
 55.18022     33.8 1.051e+04 5.246e-10
 55.19116     34.9 1.056e+04 5.413e-10
 55.20098     35.4 1.071e+04 5.820e-10
 55.21950     37.1 1.073e+04 5.851e-10
 55.23914     38.9 1.064e+04 5.629e-10
 55.25878     41.3 1.046e+04 4.772e-10
 55.27842     42.0 1.042e+04 4.487e-10
 55.30797     44.3 1.033e+04 3.753e-10
 55.34735     46.7 1.014e+04 3.128e-10
 55.38663     49.4 9.991e+03 2.786e-10
 55.42590     52.4 9.904e+03 2.628e-10
 55.46006     55.7 9.938e+03 2.546e-10
 55.47970     55.6 9.682e+03 2.086e-10
 55.50446     59.0 9.736e+03 2.050e-10
 55.54374     62.4 9.847e+03 2.063e-10
 55.58301     65.9 1.006e+04 2.133e-10
 55.61831     69.2 1.039e+04 2.278e-10
 55.63795     66.0 1.045e+04 2.586e-10
 55.65165     68.4 1.061e+04 2.702e-10
 55.67119     69.9 1.091e+04 3.004e-10
 55.69083     71.6 1.133e+04 3.602e-10
 55.71047     73.3 1.184e+04 4.586e-10
 55.73011     75.0 1.238e+04 5.908e-10
 55.74975     77.0 1.295e+04 7.532e-10
 55.76939     79.1 1.352e+04 9.337e-10
 55.78902     81.5 1.408e+04 1.120e-09
 55.80866     84.1 1.464e+04 1.288e-09
 55.82227     86.6 1.510e+04 1.413e-09
 55.83209     84.5 1.455e+04 1.210e-09
 55.84632     86.7 1.511e+04 1.321e-09
 55.85614     82.3 1.502e+04 1.408e-09
 55.86758     81.9 1.538e+04 1.401e-09
 55.88722     79.1 2.401e+04 1.061e-09
 55.90686     58.7 1.113e+05 3.545e-10
 55.92154     17.1 2.805e+05 2.240e-10
 55.93131    -11.4 2.489e+05 5.325e-10
 55.94113    -41.6 2.199e+05 1.268e-09
 55.94847    -31.8 3.354e+05 3.912e-10
 55.95335    -34.5 3.263e+05 4.852e-10
 55.95826    -45.3 1.906e+05 2.463e-09
 55.96274    -66.1 5.957e+04 1.575e-07
 55.96519    -68.8 5.986e+04 1.076e-07
 55.96808    -85.2 2.746e+04 2.132e-06
 55.97299    -95.9 2.059e+04 4.482e-06
 55.97790   -101.4 1.902e+04 4.695e-06
 55.98281   -103.2 1.970e+04 2.924e-06
 55.98772   -103.0 2.084e+04 2.039e-06
 55.99263    -98.3 2.389e+04 1.730e-06
 55.99754    -91.9 2.758e+04 1.782e-06
 56.00087    -85.7 2.851e+04 2.127e-06
 56.00332    -85.6 3.000e+04 1.293e-06
 56.00736    -80.1 2.926e+04 1.715e-06
 56.01227    -75.8 2.868e+04 1.844e-06
 56.01718    -72.1 2.906e+04 1.316e-06
 56.01979    -69.9 2.903e+04 8.623e-07
 56.02224    -81.5 2.426e+04 2.405e-07
 56.02700    -85.2 2.198e+04 1.819e-07
 56.03191    -86.7 1.916e+04 2.912e-07
 56.03682    -83.0 1.852e+04 1.301e-06
 56.04173    -74.5 1.822e+04 3.268e-06
 56.04664    -67.2 1.802e+04 4.964e-06
 56.05155    -62.4 1.795e+04 4.866e-06
 56.05645    -59.6 2.119e+04 1.464e-06
 56.06136    -58.3 4.965e+04 6.579e-08
 56.06627    -68.6 8.226e+04 4.946e-09
 56.07118    -77.6 9.361e+04 2.117e-09
 56.07441   -106.7 4.870e+04 1.941e-09
 56.07934   -106.5 4.501e+04 2.471e-09
 56.08842   -116.7 2.001e+04 2.883e-09
 56.09824   -116.1 1.806e+04 2.935e-09
 56.10806   -112.0 1.761e+04 2.962e-09
 56.12283   -108.9 1.739e+04 3.133e-09
 56.14252   -104.4 1.676e+04 3.309e-09
 56.16216   -100.5 1.611e+04 3.277e-09
 56.17485    -96.7 1.599e+04 3.235e-09
 56.18467    -97.3 1.514e+04 2.392e-09
 56.20144    -94.0 1.519e+04 2.379e-09
 56.22108    -91.1 1.490e+04 2.233e-09
 56.24071    -88.6 1.457e+04 2.035e-09
 56.26035    -86.6 1.422e+04 1.845e-09
 56.27999    -84.9 1.386e+04 1.681e-09
 56.29292    -83.5 1.354e+04 1.553e-09
 56.30274    -83.3 1.395e+04 1.736e-09
 56.31927    -82.3 1.361e+04 1.590e-09
 56.33891    -81.2 1.331e+04 1.473e-09
 56.35855    -80.2 1.304e+04 1.375e-09
 56.37819    -79.1 1.275e+04 1.279e-09
 56.39782    -77.9 1.246e+04 1.176e-09
 56.41746    -76.7 1.216e+04 1.065e-09
 56.43710    -75.4 1.186e+04 9.538e-10
 56.45674    -73.9 1.157e+04 8.540e-10
 56.47638    -72.5 1.131e+04 7.707e-10
 56.49602    -71.0 1.108e+04 6.996e-10
 56.51131    -69.4 1.087e+04 6.422e-10
 56.52113    -70.3 1.101e+04 6.754e-10
 56.52743    -68.5 1.085e+04 6.347e-10
 56.53725    -69.3 1.077e+04 5.857e-10
 56.55493    -67.6 1.058e+04 5.463e-10
 56.57457    -65.8 1.041e+04 5.181e-10
 56.59421    -64.1 1.030e+04 5.058e-10
 56.61385    -62.5 1.027e+04 5.034e-10
 56.63349    -61.0 1.024e+04 5.074e-10
 56.65313    -59.7 1.029e+04 5.415e-10
 56.67277    -58.4 1.048e+04 6.127e-10
 56.69240    -57.1 1.075e+04 7.251e-10
 56.71204    -55.8 1.105e+04 8.739e-10
 56.72970    -54.3 1.133e+04 1.053e-09
 56.73952    -54.7 1.159e+04 1.231e-09
 56.75132    -52.8 1.187e+04 1.411e-09
 56.77096    -51.1 1.211e+04 1.521e-09
 56.79060    -49.4 1.225e+04 1.591e-09
 56.81024    -47.9 1.234e+04 1.626e-09
 56.82988    -46.3 1.238e+04 1.611e-09
 56.84951    -44.9 1.232e+04 1.502e-09
 56.86915    -43.6 1.211e+04 1.335e-09
 56.88001    -42.2 1.188e+04 1.180e-09
 56.88983    -42.1 1.181e+04 1.175e-09
 56.90843    -40.7 1.165e+04 1.066e-09
 56.92807    -39.5 1.154e+04 9.966e-10
 56.94771    -38.4 1.143e+04 9.536e-10
 56.95791    -37.1 1.140e+04 9.451e-10
 56.96773    -37.6 1.095e+04 7.748e-10
 56.98698    -36.3 1.117e+04 8.394e-10
 57.00662    -35.0 1.134e+04 8.986e-10
 57.03618    -33.2 1.145e+04 9.054e-10
 57.07555    -30.2 1.175e+04 1.021e-09
 57.11483    -27.4 1.173e+04 1.018e-09
 57.15411    -24.7 1.113e+04 8.260e-10
 57.19339    -22.3 9.935e+03 5.885e-10
 57.23266    -20.3 8.651e+03 4.122e-10
 57.27194    -18.3 8.731e+03 3.376e-10
 57.31122    -16.2 9.111e+03 3.613e-10
 57.34058    -14.0 8.669e+03 2.635e-10
 57.36012    -13.4 8.728e+03 2.895e-10
 57.37976    -11.8 9.210e+03 3.670e-10
 57.39469    -11.2 9.235e+03 3.835e-10
 57.40451    -10.8 8.901e+03 2.903e-10
 57.41904     -9.1 9.263e+03 3.625e-10
 57.43867     -8.5 9.334e+03 3.925e-10
 57.45831     -7.2 9.618e+03 4.880e-10
 57.47795     -6.9 9.991e+03 5.907e-10
 57.49759     -6.8 1.086e+04 8.556e-10
 57.51723     -6.9 1.174e+04 1.221e-09
 57.53687     -6.7 1.255e+04 1.750e-09
 57.55651     -6.1 1.313e+04 2.281e-09
 57.57535     -5.3 1.347e+04 2.604e-09
 57.58517     -5.6 1.301e+04 2.172e-09
 57.59578     -5.1 1.307e+04 2.154e-09
 57.61307     -5.0 1.283e+04 1.850e-09
 57.62289     -4.4 1.237e+04 1.635e-09
 57.63506     -4.4 1.215e+04 1.425e-09
 57.65470     -4.5 1.178e+04 1.180e-09
 57.67434     -4.5 1.139e+04 9.891e-10
 57.69398     -4.2 1.099e+04 8.215e-10
 57.71362     -3.4 1.066e+04 6.792e-10
 57.73326     -2.5 1.042e+04 5.573e-10
 57.75289     -1.6 1.025e+04 4.542e-10
 57.77253     -0.8 1.006e+04 3.707e-10
 57.79217     -0.1 9.895e+03 3.191e-10
 57.81181      0.6 9.815e+03 3.025e-10
 57.83145      1.4 9.968e+03 3.098e-10
 57.85109      2.0 1.032e+04 3.598e-10
 57.87073      2.0 1.065e+04 4.484e-10
 57.89036      2.0 1.091e+04 6.153e-10
 57.91000      2.2 1.130e+04 8.703e-10
 57.92794      2.9 1.184e+04 1.245e-09
 57.93775      2.9 1.164e+04 1.181e-09
 57.94928      3.9 1.211e+04 1.545e-09
 57.96892      5.0 1.247e+04 1.783e-09
 57.98856      5.9 1.260e+04 1.839e-09
 58.00820      6.6 1.252e+04 1.651e-09
 58.02784      7.1 1.226e+04 1.345e-09
 58.04747      7.2 1.170e+04 9.920e-10
 58.05967      7.6 1.129e+04 7.888e-10
 58.06949      7.8 1.113e+04 7.025e-10
 58.08675      7.8 1.089e+04 5.596e-10
 58.10639      8.0 1.075e+04 5.286e-10
 58.12603      8.6 1.052e+04 4.582e-10
 58.14567      8.9 1.045e+04 4.505e-10
 58.16531     10.0 1.037e+04 4.413e-10
 58.18495     10.4 1.038e+04 4.507e-10
 58.20458     11.6 1.029e+04 4.718e-10
 58.22422     12.5 1.031e+04 4.809e-10
 58.24386     13.9 1.030e+04 4.917e-10
 58.26350     14.8 1.028e+04 4.947e-10
 58.27806     16.3 1.022e+04 4.792e-10
 58.28526     16.5 1.023e+04 4.821e-10
 58.30025     17.3 9.949e+03 3.684e-10
 58.33243     19.2 1.000e+04 3.575e-10
 58.37171     20.4 1.003e+04 3.921e-10
 58.41099     22.5 1.007e+04 5.052e-10
 58.45026     25.2 1.010e+04 5.751e-10
 58.48954     28.2 9.965e+03 5.037e-10
 58.52882     30.3 9.839e+03 3.961e-10
 58.56810     32.3 9.505e+03 2.983e-10
 58.60737     34.5 9.116e+03 2.268e-10
 58.64665     37.1 8.779e+03 1.719e-10
 58.68593     39.7 8.550e+03 1.316e-10
 58.71503     42.2 8.425e+03 1.056e-10
 58.73467     42.3 8.595e+03 1.359e-10
 58.76448     44.8 8.484e+03 1.135e-10
 58.80376     47.2 8.412e+03 1.022e-10
 58.84304     49.6 8.359e+03 9.864e-11
 58.88231     52.1 8.330e+03 9.869e-11
 58.92159     54.7 8.316e+03 9.926e-11
 58.96087     57.2 8.306e+03 9.929e-11
 58.98587     59.8 8.312e+03 9.864e-11
 59.00551     59.9 8.197e+03 8.618e-11
 59.03942     62.4 8.212e+03 8.404e-11
 59.07870     64.6 8.240e+03 8.171e-11
 59.11798     66.8 8.267e+03 8.342e-11
 59.15181     69.0 8.276e+03 8.648e-11
 59.17145     69.1 8.175e+03 7.713e-11
 59.19653     71.4 8.161e+03 7.974e-11
 59.23581     73.7 8.145e+03 8.407e-11
 59.27509     76.2 8.138e+03 8.829e-11
 59.31437     78.7 8.128e+03 8.973e-11
 59.35364     81.3 8.139e+03 8.966e-11
 59.39292     83.8 8.152e+03 9.018e-11
 59.43220     86.2 8.183e+03 9.198e-11
 59.47148     88.6 8.229e+03 9.646e-11
 59.51075     90.9 8.298e+03 1.052e-10
 59.55003     93.1 8.406e+03 1.210e-10
 59.58859     95.3 8.607e+03 1.522e-10
 59.60823     95.4 8.582e+03 1.463e-10
 59.62859     97.6 8.881e+03 1.926e-10
 59.66786     99.7 9.299e+03 2.646e-10
 59.69104    101.2 9.662e+03 3.442e-10
 59.71068    101.8 9.627e+03 3.349e-10
 59.73650    102.1 9.816e+03 3.966e-10
 59.75604    102.9 9.988e+03 4.668e-10
 59.77568    103.9 1.029e+04 5.825e-10
 59.79532    104.8 1.076e+04 7.484e-10
 59.81496    105.3 1.132e+04 9.687e-10
 59.82642    105.6 1.184e+04 1.247e-09
 59.83624    105.6 1.177e+04 1.181e-09
 59.85423    105.8 1.228e+04 1.539e-09
 59.87387    106.1 1.272e+04 1.944e-09
 59.89351    106.5 1.311e+04 2.335e-09
 59.91315    106.9 1.329e+04 2.587e-09
 59.93279    107.2 1.330e+04 2.534e-09
 59.95243    107.3 1.323e+04 2.365e-09
 59.97207    107.2 1.309e+04 2.129e-09
 59.99171    106.8 1.294e+04 1.991e-09
 60.01134    106.2 1.292e+04 1.992e-09
 60.03098    105.5 1.298e+04 2.051e-09
 60.04342    104.7 1.321e+04 2.226e-09
 60.04743    105.8 1.365e+04 2.472e-09
 60.05463    103.9 1.479e+04 3.527e-09
 60.07026    102.6 1.515e+04 3.956e-09
 60.08990    101.4 1.544e+04 4.331e-09
 60.10954    100.2 1.556e+04 4.491e-09
 60.12918     99.1 1.551e+04 4.300e-09
 60.14882     98.2 1.517e+04 3.757e-09
 60.16845     97.4 1.469e+04 3.276e-09
 60.18809     96.9 1.431e+04 2.943e-09
 60.20773     96.7 1.406e+04 2.709e-09
 60.22737     96.5 1.391e+04 2.509e-09
 60.24701     96.4 1.374e+04 2.298e-09
 60.26320     96.4 1.357e+04 2.113e-09
 60.27302     94.2 1.316e+04 1.718e-09
 60.28629     94.2 1.289e+04 1.659e-09
 60.30592     94.4 1.278e+04 1.621e-09
 60.32556     94.3 1.290e+04 1.661e-09
 60.34520     94.1 1.303e+04 1.683e-09
 60.36484     93.5 1.305e+04 1.618e-09
 60.38448     93.3 1.301e+04 1.611e-09
 60.39600     93.3 1.298e+04 1.638e-09
 60.40582     95.0 1.320e+04 1.899e-09
 60.42376     94.9 1.321e+04 1.915e-09
 60.44340     94.6 1.328e+04 1.947e-09
 60.46303     94.1 1.340e+04 1.992e-09
 60.48159     93.5 1.350e+04 2.009e-09
 60.49141     91.2 1.290e+04 1.677e-09
 60.50231     90.7 1.271e+04 1.593e-09
 60.52195     90.1 1.241e+04 1.479e-09
 60.54159     89.7 1.206e+04 1.334e-09
 60.56123     89.1 1.176e+04 1.153e-09
 60.58087     88.5 1.163e+04 1.010e-09
 60.60051     87.7 1.133e+04 8.462e-10
 60.62014     87.7 1.116e+04 7.418e-10
 60.63978     87.4 1.096e+04 6.295e-10
 60.65942     86.9 1.064e+04 5.438e-10
 60.67906     86.3 1.035e+04 4.962e-10
 60.69870     85.7 1.019e+04 4.703e-10
 60.70980     84.7 1.032e+04 4.617e-10
 60.71962     82.8 1.007e+04 4.422e-10
 60.73798     81.4 1.013e+04 4.476e-10
 60.74858     79.4 1.039e+04 4.806e-10
 60.75840     81.5 1.051e+04 5.514e-10
 60.77725     76.7 1.129e+04 6.881e-10
 60.79689     66.5 1.351e+04 1.613e-09
 60.81653     58.7 1.562e+04 4.843e-09
 60.83617     55.1 1.662e+04 7.172e-09
 60.85581     53.1 1.657e+04 6.752e-09
 60.87545     51.0 1.633e+04 4.703e-09
 60.89509     46.4 1.563e+04 2.308e-09
 60.91472     40.2 1.309e+04 1.067e-09
 60.92819     36.6 1.083e+04 7.062e-10
 60.93801     38.4 1.181e+04 9.513e-10
 60.95400     36.8 1.104e+04 8.050e-10
 60.97364     36.4 1.113e+04 7.969e-10
 60.99328     35.6 1.134e+04 8.299e-10
 61.01292     34.5 1.158e+04 9.115e-10
 61.03256     33.0 1.188e+04 1.085e-09
 61.05220     31.8 1.219e+04 1.343e-09
 61.07183     31.1 1.251e+04 1.670e-09
 61.09135     30.7 1.291e+04 2.094e-09
 61.10117     32.1 1.268e+04 1.745e-09
 61.11111     31.8 1.310e+04 1.947e-09
 61.13075     31.4 1.338e+04 2.011e-09
 61.14658     31.2 1.333e+04 1.921e-09
 61.15640     30.5 1.376e+04 2.323e-09
 61.17003     30.4 1.344e+04 1.943e-09
 61.18967     29.6 1.295e+04 1.572e-09
 61.20930     28.4 1.237e+04 1.245e-09
 61.22894     26.7 1.213e+04 1.105e-09
 61.24858     25.1 1.208e+04 1.104e-09
 61.26822     23.7 1.197e+04 1.173e-09
 61.28786     23.0 1.192e+04 1.302e-09
 61.30750     22.8 1.204e+04 1.425e-09
 61.32714     22.4 1.242e+04 1.520e-09
 61.34678     21.0 1.298e+04 1.618e-09
 61.36497     19.5 1.359e+04 1.696e-09
 61.37479     17.8 1.367e+04 1.743e-09
 61.39597     13.0 1.312e+04 1.548e-09
 61.43535     10.9 1.154e+04 8.436e-10
 61.47462      9.7 9.819e+03 2.686e-10
 61.51390      6.0 8.363e+03 8.150e-11
 61.55318      4.1 7.932e+03 5.716e-11
 61.59245      4.3 7.907e+03 5.529e-11
 61.63173      4.3 7.952e+03 7.246e-11
 61.67101      5.0 8.008e+03 9.509e-11
 61.71029      5.8 8.064e+03 1.169e-10
 61.74956      6.0 8.296e+03 1.390e-10
 61.78688      3.8 9.217e+03 2.126e-10
 61.80652      4.8 8.944e+03 1.609e-10
 61.81176     -0.3 1.021e+04 3.997e-10
 61.83140     -0.4 1.013e+04 3.827e-10
 61.86740     -2.3 1.077e+04 8.644e-10
 61.90667     -0.7 1.164e+04 1.357e-09
 61.94595     -2.8 1.190e+04 1.126e-09
 61.98523     -6.3 1.072e+04 6.251e-10
 62.02451     -9.6 9.984e+03 4.473e-10
 62.06378    -11.3 9.869e+03 4.225e-10
 62.10306    -12.7 9.951e+03 4.364e-10
 62.14234    -14.3 1.012e+04 4.759e-10
 62.18162    -16.5 1.038e+04 5.660e-10
 62.22089    -18.5 1.085e+04 7.681e-10
 62.24854    -20.3 1.131e+04 9.681e-10
 62.26818    -19.6 1.136e+04 9.465e-10
 62.29945    -22.4 1.194e+04 1.216e-09
 62.32881    -24.9 1.194e+04 1.202e-09
 62.34835    -25.2 1.197e+04 1.205e-09
 62.36799    -28.6 1.159e+04 1.109e-09
 62.38763    -30.5 1.192e+04 1.182e-09
 62.40727    -33.7 1.219e+04 1.317e-09
 62.42690    -36.2 1.256e+04 1.553e-09
 62.44654    -38.5 1.266e+04 1.684e-09
 62.46618    -40.6 1.263e+04 1.696e-09
 62.47655    -42.7 1.241e+04 1.465e-09
 62.48637    -43.4 1.272e+04 1.666e-09
 62.50167    -45.7 1.256e+04 1.300e-09
 62.51149    -46.3 1.283e+04 1.614e-09
 62.52510    -48.9 1.260e+04 1.321e-09
 62.54474    -51.8 1.231e+04 1.178e-09
 62.56438    -54.2 1.219e+04 1.149e-09
 62.58401    -56.2 1.215e+04 1.167e-09
 62.60365    -58.0 1.228e+04 1.279e-09
 62.62329    -59.6 1.251e+04 1.392e-09
 62.64293    -61.2 1.274e+04 1.485e-09
 62.66257    -62.9 1.292e+04 1.554e-09
 62.68221    -64.5 1.301e+04 1.593e-09
 62.69494    -66.0 1.301e+04 1.602e-09
 62.70476    -66.5 1.322e+04 1.659e-09
 62.72148    -67.8 1.303e+04 1.589e-09
 62.74112    -68.9 1.259e+04 1.476e-09
 62.76076    -69.7 1.204e+04 1.303e-09
 62.78040    -70.3 1.152e+04 1.101e-09
 62.80004    -70.5 1.111e+04 9.227e-10
 62.81968    -70.6 1.084e+04 7.718e-10
 62.83932    -70.7 1.069e+04 6.404e-10
 62.85425    -70.9 1.058e+04 5.276e-10
 62.86407    -71.9 1.037e+04 4.554e-10
 62.88851    -72.1 1.016e+04 3.754e-10
 62.92789    -72.7 9.946e+03 3.421e-10
 62.96716    -72.6 9.787e+03 3.277e-10
 63.00644    -72.0 9.804e+03 3.389e-10
 63.04572    -71.3 9.823e+03 3.495e-10
 63.07508    -71.1 9.805e+03 3.523e-10
 63.09462    -70.4 9.838e+03 3.532e-10
 63.12200    -70.1 9.918e+03 3.340e-10
 63.14163    -72.8 1.258e+04 3.534e-10
 63.15354    -72.9 1.886e+04 2.903e-10
 63.17317    -79.8 3.826e+04 3.337e-10
 63.19281    -87.4 4.708e+04 8.727e-10
 63.20678    -92.3 4.414e+04 2.014e-09
 63.21165    -95.3 3.648e+04 6.649e-09
 63.21726    -97.2 3.031e+04 1.671e-08
 63.22708    -98.5 2.543e+04 3.973e-08
 63.23690    -98.9 2.284e+04 7.639e-08
 63.24572    -99.0 2.205e+04 1.170e-07
 63.25063    -99.1 2.283e+04 1.141e-07
 63.25654    -99.0 2.412e+04 1.116e-07
 63.26636    -99.6 2.790e+04 7.636e-08
 63.27618   -103.0 3.537e+04 3.348e-08
 63.28600   -109.7 4.375e+04 9.465e-09
 63.29582   -119.7 4.561e+04 2.192e-09
 63.30564   -131.4 2.588e+04 1.112e-09
 63.31546   -137.4 1.382e+04 1.196e-09
 63.32528   -138.7 1.255e+04 1.230e-09
 63.33510   -139.3 1.273e+04 1.380e-09
 63.34492   -139.6 1.334e+04 1.597e-09
 63.35474   -139.6 1.387e+04 1.794e-09
 63.35988   -139.5 1.404e+04 1.883e-09
 63.36975   -139.5 1.209e+04 1.182e-09
 63.38920   -139.2 1.212e+04 1.191e-09
 63.40884   -138.9 1.235e+04 1.220e-09
 63.42848   -138.8 1.278e+04 1.298e-09
 63.44812   -138.9 1.347e+04 1.492e-09
 63.46776   -139.0 1.422e+04 1.848e-09
 63.48739   -139.1 1.491e+04 2.402e-09
 63.50703   -139.0 1.548e+04 3.144e-09
 63.52667   -138.8 1.588e+04 3.962e-09
 63.54631   -138.6 1.610e+04 4.647e-09
 63.55941   -138.4 1.611e+04 4.959e-09
 63.56923   -138.0 1.541e+04 3.563e-09
 63.57831   -137.7 1.542e+04 3.648e-09
 63.58813   -137.6 1.444e+04 2.624e-09
 63.60523   -137.1 1.445e+04 2.654e-09
 63.62486   -136.4 1.427e+04 2.615e-09
 63.64450   -135.7 1.393e+04 2.381e-09
 63.66414   -134.9 1.352e+04 2.079e-09
 63.68378   -134.1 1.308e+04 1.791e-09
 63.70342   -133.2 1.263e+04 1.534e-09
 63.72306   -132.2 1.221e+04 1.309e-09
 63.74270   -131.1 1.181e+04 1.116e-09
 63.76234   -129.9 1.143e+04 9.536e-10
 63.78197   -128.7 1.109e+04 8.227e-10
 63.79670   -127.4 1.077e+04 7.180e-10
 63.80652   -127.1 1.102e+04 8.251e-10
 63.82125   -125.9 1.076e+04 7.172e-10
 63.84089   -124.6 1.054e+04 6.343e-10
 63.86053   -123.2 1.035e+04 5.742e-10
 63.88017   -121.9 1.018e+04 5.267e-10
 63.89981   -120.6 1.003e+04 4.855e-10
 63.91200   -119.3 9.888e+03 4.512e-10
 63.92181   -119.0 1.025e+04 5.007e-10
 63.93908   -117.6 1.009e+04 4.727e-10
 63.95872   -116.2 9.955e+03 4.529e-10
 63.97836   -115.0 9.835e+03 4.380e-10
 63.99800   -113.7 9.778e+03 4.270e-10
 64.01509   -112.3 9.792e+03 4.236e-10
 64.02491   -112.2 1.073e+04 5.522e-10
 64.03728   -110.9 1.120e+04 6.073e-10
 64.06683   -109.4 1.170e+04 6.784e-10
 64.10621   -106.4 1.139e+04 5.869e-10
 64.14549   -103.8 1.094e+04 5.073e-10
 64.18476   -101.2 1.057e+04 4.543e-10
 64.22404    -98.7 1.028e+04 4.308e-10
 64.26332    -96.3 1.012e+04 4.258e-10
 64.30260    -94.2 1.014e+04 4.511e-10
 64.34187    -92.2 1.045e+04 5.418e-10
 64.38115    -90.1 1.078e+04 6.599e-10
 64.42043    -88.0 1.105e+04 7.752e-10
 64.45207    -85.8 1.127e+04 8.517e-10
 64.47171    -86.5 1.190e+04 1.134e-09
 64.49898    -84.4 1.191e+04 1.128e-09
 64.53826    -82.8 1.215e+04 1.156e-09
 64.56762    -81.9 1.266e+04 1.461e-09
 64.58716    -81.3 1.286e+04 1.589e-09
 64.60680    -80.8 1.309e+04 1.777e-09
 64.61716    -80.2 1.320e+04 1.930e-09
 64.62698    -80.5 1.400e+04 3.412e-09
 64.64608    -79.7 1.399e+04 3.524e-09
 64.66572    -78.7 1.392e+04 3.538e-09
 64.68008    -77.5 1.370e+04 3.331e-09
 64.68990    -77.4 1.396e+04 3.693e-09
 64.70499    -76.2 1.358e+04 3.130e-09
 64.72463    -75.2 1.311e+04 2.551e-09
 64.74427    -73.9 1.268e+04 2.103e-09
 64.76391    -72.9 1.241e+04 1.814e-09
 64.78355    -72.0 1.227e+04 1.626e-09
 64.81310    -71.4 1.200e+04 1.391e-09
 64.85248    -68.9 1.148e+04 1.078e-09
 64.88884    -66.2 1.085e+04 7.485e-10
 64.90848    -66.0 1.065e+04 6.693e-10
 64.93103    -63.3 1.003e+04 4.426e-10
 64.97031    -60.8 9.617e+03 3.210e-10
 65.00959    -58.2 9.377e+03 2.637e-10
 65.04887    -55.6 9.217e+03 2.368e-10
 65.08814    -52.9 9.153e+03 2.257e-10
 65.12742    -50.4 9.144e+03 2.235e-10
 65.16670    -48.2 9.244e+03 2.441e-10
 65.20598    -46.2 9.562e+03 3.227e-10
 65.24525    -44.1 9.962e+03 4.528e-10
 65.28453    -42.0 1.031e+04 5.918e-10
 65.31270    -39.9 1.060e+04 7.191e-10
 65.33233    -38.6 1.042e+04 6.326e-10
 65.34526    -36.5 1.072e+04 7.539e-10
 65.36490    -35.8 1.011e+04 5.055e-10
 65.39245    -34.8 1.028e+04 5.931e-10
 65.41199    -34.1 1.025e+04 5.931e-10
 65.43163    -33.1 1.040e+04 6.358e-10
 65.45126    -32.2 1.064e+04 6.850e-10
 65.47090    -31.3 1.092e+04 7.712e-10
 65.49054    -30.6 1.142e+04 9.501e-10
 65.51018    -30.5 1.231e+04 1.332e-09
 65.52982    -31.3 1.380e+04 2.089e-09
 65.54946    -32.0 1.518e+04 3.676e-09
 65.56346    -32.0 1.613e+04 6.467e-09
 65.57327    -30.4 1.554e+04 3.938e-09
 65.58873    -30.1 1.629e+04 6.246e-09
 65.60837    -29.0 1.683e+04 8.571e-09
 65.62801    -27.7 1.697e+04 1.035e-08
 65.64765    -27.1 1.711e+04 1.054e-08
 65.66508    -27.3 1.702e+04 9.244e-09
 65.67490    -27.0 1.699e+04 8.535e-09
 65.68693    -27.7 1.698e+04 8.687e-09
 65.70657    -27.9 1.688e+04 8.849e-09
 65.72621    -27.6 1.700e+04 9.636e-09
 65.74584    -26.4 1.705e+04 1.006e-08
 65.76548    -25.1 1.700e+04 9.690e-09
 65.78184    -23.7 1.676e+04 7.808e-09
 65.79166    -23.1 1.666e+04 8.104e-09
 65.80476    -22.3 1.644e+04 6.350e-09
 65.82440    -22.3 1.588e+04 4.800e-09
 65.84404    -22.9 1.513e+04 3.911e-09
 65.86368    -23.1 1.447e+04 3.413e-09
 65.88332    -22.3 1.394e+04 3.130e-09
 65.90295    -21.2 1.370e+04 3.035e-09
 65.92259    -20.4 1.363e+04 2.971e-09
 65.94223    -20.1 1.372e+04 2.920e-09
 65.96187    -20.1 1.400e+04 2.950e-09
 65.98151    -20.6 1.424e+04 3.221e-09
 66.00023    -20.7 1.424e+04 3.849e-09
 66.01005    -20.3 1.441e+04 4.380e-09
 66.01766    -19.0 1.454e+04 4.970e-09
 66.02748    -18.7 1.457e+04 4.983e-09
 66.04042    -17.0 1.479e+04 5.329e-09
 66.06006    -15.6 1.484e+04 4.996e-09
 66.07970    -14.4 1.493e+04 4.035e-09
 66.09934    -14.3 1.459e+04 2.874e-09
 66.11898    -15.8 1.387e+04 2.012e-09
 66.13862    -17.0 1.283e+04 1.542e-09
 66.15826    -16.6 1.270e+04 1.526e-09
 66.17790    -16.4 1.266e+04 1.558e-09
 66.19753    -15.8 1.257e+04 1.563e-09
 66.21872    -15.4 1.250e+04 1.551e-09
 66.23846    -14.7 1.216e+04 1.289e-09
 66.26647    -13.1 1.242e+04 1.498e-09
 66.29583    -13.1 1.238e+04 1.597e-09
 66.31537    -11.6 1.258e+04 1.619e-09
 66.33501    -11.2 1.272e+04 1.620e-09
 66.35464    -10.9 1.270e+04 1.627e-09
 66.37024    -10.4 1.257e+04 1.658e-09
 66.38006    -10.3 1.245e+04 1.374e-09
 66.39392     -9.5 1.229e+04 1.470e-09
 66.41356     -8.3 1.221e+04 1.527e-09
 66.43320     -7.0 1.221e+04 1.512e-09
 66.46275     -6.0 1.231e+04 1.448e-09
 66.50213     -5.6 1.198e+04 1.186e-09
 66.54141     -5.0 1.145e+04 9.505e-10
 66.58068     -3.9 1.083e+04 7.135e-10
 66.61996     -2.4 1.043e+04 5.639e-10
 66.65560     -1.0 9.833e+03 3.818e-10
 66.67523     -0.7 9.877e+03 3.320e-10
 66.69852     -0.5 9.410e+03 2.427e-10
 66.72302      0.7 9.270e+03 2.559e-10
 66.74266      1.2 9.056e+03 2.219e-10
 66.77707      2.3 9.310e+03 3.028e-10
 66.81635      3.6 9.995e+03 4.705e-10
 66.85563      5.4 1.069e+04 7.442e-10
 66.89490      7.7 1.097e+04 9.195e-10
 66.93418     10.2 1.072e+04 8.178e-10
 66.97346     12.7 1.020e+04 6.208e-10
 67.01274     14.8 9.690e+03 4.500e-10
 67.05201     16.7 9.294e+03 3.537e-10
 67.09129     19.0 9.040e+03 3.136e-10
 67.11201     21.8 8.922e+03 2.956e-10
 67.13165     22.5 8.612e+03 2.280e-10
 67.16985     25.2 8.543e+03 2.203e-10
 67.20912     27.8 8.604e+03 2.272e-10
 67.24840     29.7 8.859e+03 2.610e-10
 67.28768     31.1 9.405e+03 3.538e-10
 67.32695     32.6 1.039e+04 5.766e-10
 67.35632     33.2 1.060e+04 6.286e-10
 67.37586     33.8 1.083e+04 7.230e-10
 67.39549     34.5 1.104e+04 8.219e-10
 67.41513     35.1 1.123e+04 8.908e-10
 67.42799     35.4 1.133e+04 9.121e-10
 67.43781     35.8 1.157e+04 1.027e-09
 67.45441     36.2 1.158e+04 1.003e-09
 67.47405     36.3 1.152e+04 9.523e-10
 67.49369     36.3 1.142e+04 8.955e-10
 67.51333     36.3 1.128e+04 8.407e-10
 67.53297     36.4 1.109e+04 7.913e-10
 67.54860     36.6 1.091e+04 7.569e-10
 67.55841     37.6 1.102e+04 7.774e-10
 67.57224     37.7 1.092e+04 7.700e-10
 67.59188     38.1 1.081e+04 7.634e-10
 67.61152     38.6 1.072e+04 7.534e-10
 67.63116     39.4 1.056e+04 7.133e-10
 67.65080     40.2 1.040e+04 6.680e-10
 67.67044     41.2 1.017e+04 5.818e-10
 67.69008     42.2 9.983e+03 5.171e-10
 67.71963     43.9 9.848e+03 4.642e-10
 67.75901     45.9 9.427e+03 3.268e-10
 67.79828     47.5 9.011e+03 2.176e-10
 67.83756     48.8 8.596e+03 1.578e-10
 67.87684     50.2 8.317e+03 1.473e-10
 67.91612     51.9 8.329e+03 1.578e-10
 67.95539     54.0 8.412e+03 1.848e-10
 67.98557     56.2 8.519e+03 2.165e-10
 68.00521     56.7 8.865e+03 2.793e-10
 68.03395     58.8 8.934e+03 3.034e-10
 68.07323     60.9 9.014e+03 3.213e-10
 68.11250     62.9 9.102e+03 3.373e-10
 68.13335     64.7 9.250e+03 3.649e-10
 68.14307     63.3 9.348e+03 3.873e-10
 68.16140     63.8 9.356e+03 3.910e-10
 68.18104     64.7 9.392e+03 4.053e-10
 68.20068     65.6 9.568e+03 4.514e-10
 68.21358     66.2 9.825e+03 5.209e-10
 68.22340     66.1 1.003e+04 5.735e-10
 68.23996     66.7 1.035e+04 6.801e-10
 68.25960     67.2 1.069e+04 8.130e-10
 68.27924     67.6 1.102e+04 9.633e-10
 68.29888     68.1 1.130e+04 1.117e-09
 68.31851     68.7 1.152e+04 1.245e-09
 68.33815     69.2 1.161e+04 1.302e-09
 68.35779     69.7 1.157e+04 1.288e-09
 68.37743     70.3 1.145e+04 1.238e-09
 68.39707     71.0 1.121e+04 1.132e-09
 68.41671     71.8 1.090e+04 9.573e-10
 68.43197     72.5 1.057e+04 7.793e-10
 68.44179     72.1 1.040e+04 6.635e-10
 68.45598     72.5 1.009e+04 5.269e-10
 68.47562     73.2 9.799e+03 4.207e-10
 68.50518     72.9 9.337e+03 3.095e-10
 68.54455     74.4 9.143e+03 2.928e-10
 68.58383     76.1 9.164e+03 2.959e-10
 68.62311     78.0 9.284e+03 3.120e-10
 68.66239     79.1 9.362e+03 3.265e-10
 68.69175     79.7 9.340e+03 3.346e-10
 68.71129     80.5 9.368e+03 3.556e-10
 68.73093     81.2 9.600e+03 4.079e-10
 68.75057     81.6 9.901e+03 4.973e-10
 68.77020     81.7 1.042e+04 6.537e-10
 68.78984     81.8 1.104e+04 8.771e-10
 68.80948     81.9 1.169e+04 1.169e-09
 68.82849     82.2 1.225e+04 1.507e-09
 68.83831     81.1 1.274e+04 1.801e-09
 68.84876     81.6 1.297e+04 1.998e-09
 68.86840     81.9 1.296e+04 1.992e-09
 68.87857     82.1 1.282e+04 1.897e-09
 68.88839     82.3 1.287e+04 1.906e-09
 68.90767     82.6 1.251e+04 1.657e-09
 68.92731     82.7 1.206e+04 1.367e-09
 68.94695     82.7 1.156e+04 1.092e-09
 68.96659     82.6 1.106e+04 8.714e-10
 68.98623     82.5 1.062e+04 7.068e-10
 69.00587     82.5 1.028e+04 5.932e-10
 69.02551     82.6 9.996e+03 5.206e-10
 69.04515     82.8 9.811e+03 4.830e-10
 69.06478     83.3 9.780e+03 4.763e-10
 69.08442     83.8 9.788e+03 4.786e-10
 69.09696     84.4 9.847e+03 4.930e-10
 69.10678     84.6 1.010e+04 5.759e-10
 69.12370     85.0 1.027e+04 6.246e-10
 69.14334     85.3 1.055e+04 7.121e-10
 69.16298     85.3 1.097e+04 8.584e-10
 69.18107     85.4 1.148e+04 1.079e-09
 69.19089     85.3 1.149e+04 1.086e-09
 69.20226     85.5 1.205e+04 1.382e-09
 69.22189     85.9 1.267e+04 1.779e-09
 69.24153     86.1 1.370e+04 2.344e-09
 69.26117     86.6 1.452e+04 2.952e-09
 69.28081     87.3 1.529e+04 3.591e-09
 69.29549     87.6 1.526e+04 3.693e-09
 69.30526     88.1 1.535e+04 3.798e-09
 69.31508     88.5 1.571e+04 4.025e-09
 69.32016     88.6 1.639e+04 4.421e-09
 69.32507     87.3 1.767e+04 5.629e-09
 69.33472     86.7 1.885e+04 7.016e-09
 69.34454     85.6 2.025e+04 9.253e-09
 69.35436     83.5 2.292e+04 1.327e-08
 69.36218     80.4 2.584e+04 2.266e-08
 69.36709     82.8 2.401e+04 2.427e-08
 69.37400     80.7 2.561e+04 4.128e-08
 69.38382     78.7 2.577e+04 8.878e-08
 69.39363     77.4 2.413e+04 2.266e-07
 69.40345     76.2 2.272e+04 4.832e-07
 69.41327     74.9 2.197e+04 7.231e-07
 69.42309     73.4 2.190e+04 7.202e-07
 69.42935     72.4 2.197e+04 5.407e-07
 69.43426     72.3 2.265e+04 3.170e-07
 69.44273     71.8 2.381e+04 1.707e-07
 69.45255     70.5 2.586e+04 7.750e-08
 69.46237     68.0 2.799e+04 3.260e-08
 69.47219     64.8 2.744e+04 1.652e-08
 69.48201     61.4 2.562e+04 9.577e-09
 69.49679     57.0 2.157e+04 4.673e-09
 69.51647     54.6 1.615e+04 3.038e-09
 69.53366     55.0 1.359e+04 2.370e-09
 69.54347     59.6 1.863e+04 4.052e-09
 69.55575     59.6 1.571e+04 2.514e-09
 69.57539     59.4 1.301e+04 1.696e-09
 69.59503     59.7 1.196e+04 1.273e-09
 69.61467     60.3 1.163e+04 1.031e-09
 69.63431     60.8 1.144e+04 8.846e-10
 69.65395     61.0 1.126e+04 7.845e-10
 69.67358     61.2 1.104e+04 7.055e-10
 69.69322     61.4 1.082e+04 6.441e-10
 69.71286     61.6 1.063e+04 5.977e-10
 69.73250     61.9 1.048e+04 5.514e-10
 69.75212     62.0 1.034e+04 4.981e-10
 69.77176     61.1 1.025e+04 4.497e-10
 69.79142     60.4 1.011e+04 4.000e-10
 69.81105     59.5 9.937e+03 3.614e-10
 69.83069     58.6 9.816e+03 3.547e-10
 69.85033     57.7 9.874e+03 3.683e-10
 69.86997     56.8 1.010e+04 4.258e-10
 69.88624     55.7 1.057e+04 5.555e-10
 69.89606     55.2 1.123e+04 7.942e-10
 69.90925     54.0 1.174e+04 1.081e-09
 69.92889     53.1 1.229e+04 1.507e-09
 69.94853     52.5 1.285e+04 2.056e-09
 69.96816     52.2 1.343e+04 2.699e-09
 69.98033     52.1 1.377e+04 3.273e-09
 69.99015     50.9 1.383e+04 3.126e-09
 70.00744     48.4 1.672e+04 3.850e-09
 70.02708     36.0 2.490e+04 8.772e-09
 70.04176     30.3 2.761e+04 1.484e-08
 70.05153     23.9 2.759e+04 2.998e-08
 70.06135     20.2 2.383e+04 4.972e-08
 70.06734     19.4 2.235e+04 5.134e-08
 70.07225     18.9 2.141e+04 4.840e-08
 70.08099     19.6 2.093e+04 3.856e-08
 70.08943     19.3 2.142e+04 2.605e-08
 70.09434     17.8 2.164e+04 2.066e-08
 70.10559     17.1 2.140e+04 1.138e-08
 70.12527      6.9 2.088e+04 2.302e-09
 70.14491     -9.3 1.386e+04 6.535e-10
 70.16455    -13.6 1.104e+04 6.430e-10
 70.18419    -14.5 1.136e+04 8.129e-10
 70.19872    -14.9 1.156e+04 9.772e-10
 70.20854    -15.1 1.143e+04 9.826e-10
 70.22347    -14.3 1.179e+04 1.185e-09
 70.23882    -14.1 1.185e+04 1.267e-09
 70.24864    -15.2 1.235e+04 1.583e-09
 70.26274    -14.7 1.209e+04 1.617e-09
 70.28238    -13.5 1.232e+04 1.740e-09
 70.30202    -16.8 1.650e+04 2.485e-09
 70.32166    -28.3 2.449e+04 8.126e-09
 70.33634    -33.8 2.540e+04 1.866e-08
 70.34611    -35.4 2.428e+04 4.057e-08
 70.35593    -36.0 2.331e+04 6.708e-08
 70.36575    -36.1 2.299e+04 8.666e-08
 70.37557    -36.2 2.326e+04 9.186e-08
 70.38539    -37.3 2.399e+04 8.787e-08
 70.39521    -39.7 2.595e+04 6.021e-08
 70.40503    -43.4 2.787e+04 3.492e-08
 70.41485    -49.7 2.780e+04 1.665e-08
 70.41992    -58.9 2.108e+04 7.997e-09
 70.42209    -61.9 1.921e+04 8.558e-09
 70.42683    -61.2 1.966e+04 1.074e-08
 70.43449    -63.4 1.772e+04 8.837e-09
 70.44431    -63.6 1.743e+04 8.276e-09
 70.45412    -63.5 1.718e+04 7.606e-09
 70.46394    -63.2 1.684e+04 6.830e-09
 70.47872    -62.9 1.646e+04 5.940e-09
 70.49841    -62.3 1.570e+04 4.447e-09
 70.51805    -62.2 1.497e+04 3.522e-09
 70.53769    -62.1 1.458e+04 3.163e-09
 70.55733    -61.4 1.429e+04 3.026e-09
 70.57696    -60.4 1.418e+04 3.011e-09
 70.59140    -59.2 1.413e+04 3.022e-09
 70.60122    -60.0 1.412e+04 3.069e-09
 70.61624    -58.7 1.397e+04 2.994e-09
 70.63550    -57.2 1.373e+04 2.844e-09
 70.64532    -56.9 1.381e+04 2.840e-09
 70.65552    -55.6 1.361e+04 2.692e-09
 70.67516    -54.3 1.337e+04 2.515e-09
 70.69480    -53.2 1.304e+04 2.295e-09
 70.71443    -52.0 1.275e+04 2.055e-09
 70.73407    -50.8 1.253e+04 1.822e-09
 70.75371    -49.7 1.229e+04 1.597e-09
 70.77335    -48.8 1.203e+04 1.408e-09
 70.79299    -47.9 1.176e+04 1.276e-09
 70.82255    -45.9 1.147e+04 1.125e-09
 70.86192    -43.0 1.057e+04 7.201e-10
 70.89128    -41.3 9.747e+03 4.784e-10
 70.91082    -40.1 9.528e+03 3.927e-10
 70.93426    -39.3 9.360e+03 3.339e-10
 70.95399    -39.9 9.379e+03 3.315e-10
 70.97975    -38.2 9.019e+03 2.581e-10
 71.01903    -36.5 8.740e+03 2.110e-10
 71.05831    -35.0 8.601e+03 1.906e-10
 71.08229    -33.6 8.563e+03 1.860e-10
 71.10193    -33.5 8.671e+03 1.920e-10
 71.13686    -32.4 8.661e+03 1.915e-10
 71.17614    -31.4 8.709e+03 2.044e-10
 71.21542    -30.7 8.779e+03 2.262e-10
 71.25469    -30.0 8.852e+03 2.454e-10
 71.29397    -29.3 8.867e+03 2.494e-10
 71.33325    -28.8 8.751e+03 2.298e-10
 71.37253    -28.4 8.667e+03 2.136e-10
 71.41180    -28.1 8.830e+03 2.263e-10
 71.45108    -28.0 9.169e+03 2.972e-10
 71.49036    -27.4 9.566e+03 3.996e-10
 71.51907    -26.7 9.856e+03 4.856e-10
 71.53871    -27.5 9.785e+03 4.661e-10
 71.56891    -26.8 9.842e+03 4.731e-10
 71.60819    -26.4 9.705e+03 4.040e-10
 71.63952    -26.4 9.413e+03 3.191e-10
 71.65916    -27.2 9.228e+03 2.718e-10
 71.68675    -26.7 9.099e+03 2.444e-10
 71.72602    -25.9 9.000e+03 2.144e-10
 71.76530    -25.2 8.901e+03 1.883e-10
 71.80458    -24.5 8.865e+03 1.826e-10
 71.84386    -23.5 8.995e+03 2.007e-10
 71.88313    -22.2 9.161e+03 2.286e-10
 71.92241    -20.8 9.294e+03 2.493e-10
 71.95585    -19.1 9.353e+03 2.582e-10
 71.97549    -19.9 9.523e+03 2.685e-10
 72.00096    -18.2 9.516e+03 2.379e-10
 72.04024    -16.8 9.526e+03 2.107e-10
 72.07952    -15.7 9.631e+03 2.095e-10
 72.11880    -15.7 9.981e+03 2.757e-10
 72.15807    -17.9 1.147e+04 5.291e-10
 72.18396    -19.0 1.146e+04 7.747e-10
 72.19368    -21.7 1.228e+04 1.246e-09
 72.20698    -27.2 1.545e+04 2.988e-09
 72.22661    -30.9 1.829e+04 6.557e-09
 72.24625    -34.0 2.019e+04 9.834e-09
 72.26589    -39.1 2.125e+04 1.068e-08
 72.28057    -45.6 2.235e+04 9.020e-09
 72.29034    -50.3 2.132e+04 7.751e-09
 72.29787    -55.8 1.849e+04 6.448e-09
 72.30278    -56.9 1.812e+04 6.521e-09
 72.30998    -58.7 1.764e+04 6.469e-09
 72.31980    -60.0 1.730e+04 6.452e-09
 72.32962    -60.8 1.714e+04 6.476e-09
 72.34440    -62.4 1.656e+04 6.251e-09
 72.36409    -65.4 1.612e+04 5.744e-09
 72.38372    -66.8 1.567e+04 4.629e-09
 72.40225    -68.7 1.523e+04 3.580e-09
 72.41207    -71.3 1.571e+04 3.532e-09
 72.42300    -74.0 1.485e+04 2.743e-09
 72.44264    -76.0 1.387e+04 2.234e-09
 72.46228    -77.1 1.300e+04 1.888e-09
 72.48192    -77.6 1.230e+04 1.597e-09
 72.50156    -77.7 1.178e+04 1.323e-09
 72.52120    -77.8 1.136e+04 1.076e-09
 72.54083    -77.8 1.101e+04 8.832e-10
 72.56047    -78.0 1.072e+04 7.464e-10
 72.58011    -78.1 1.050e+04 6.608e-10
 72.59975    -78.1 1.044e+04 6.304e-10
 72.61939    -78.2 1.044e+04 6.250e-10
 72.63046    -78.3 1.047e+04 6.246e-10
 72.64028    -79.3 1.046e+04 6.400e-10
 72.65867    -80.2 1.084e+04 7.743e-10
 72.67830    -82.0 1.170e+04 1.090e-09
 72.69707    -84.3 1.296e+04 1.719e-09
 72.70689    -84.6 1.258e+04 1.519e-09
 72.71758    -87.0 1.384e+04 2.459e-09
 72.73722    -89.0 1.486e+04 3.794e-09
 72.75686    -90.8 1.553e+04 4.987e-09
 72.77650    -92.7 1.573e+04 5.352e-09
 72.79614    -94.9 1.559e+04 5.002e-09
 72.81578    -97.4 1.486e+04 3.194e-09
 72.83541   -101.1 1.348e+04 1.643e-09
 72.84885   -105.3 1.173e+04 8.778e-10
 72.85867   -105.1 1.159e+04 7.883e-10
 72.87469   -108.2 1.037e+04 5.029e-10
 72.89433   -109.5 9.992e+03 4.176e-10
 72.91397   -110.0 9.839e+03 3.770e-10
 72.94352   -110.2 9.628e+03 3.301e-10
 72.98290   -110.3 9.397e+03 2.905e-10
 73.02218   -110.7 9.127e+03 2.522e-10
 73.04984   -110.8 9.005e+03 2.376e-10
 73.06948   -111.3 8.996e+03 2.343e-10
 73.10073   -111.3 8.894e+03 2.186e-10
 73.14001   -110.9 8.833e+03 2.096e-10
 73.17929   -110.4 8.760e+03 1.968e-10
 73.21856   -109.9 8.670e+03 1.808e-10
 73.25784   -109.4 8.577e+03 1.660e-10
 73.28582   -108.7 8.505e+03 1.552e-10
 73.30546   -108.3 8.419e+03 1.443e-10
 73.33640   -107.7 8.410e+03 1.425e-10
 73.37567   -107.5 8.441e+03 1.433e-10
 73.41495   -107.8 8.762e+03 1.691e-10
 73.45423   -108.3 9.364e+03 2.460e-10
 73.49351   -108.8 9.940e+03 3.684e-10
 73.51393   -108.6 9.989e+03 4.133e-10
 73.52366   -108.7 1.001e+04 4.259e-10
 73.54241   -108.8 1.003e+04 4.406e-10
 73.56205   -108.8 1.003e+04 4.566e-10
 73.58168   -108.8 9.977e+03 4.452e-10
 73.60132   -108.9 9.870e+03 4.051e-10
 73.62096   -108.9 9.844e+03 3.840e-10
 73.65052   -109.6 9.817e+03 3.425e-10
 73.68989   -110.0 9.805e+03 3.204e-10
 73.72260   -110.1 9.838e+03 3.191e-10
 73.74214   -110.3 9.911e+03 3.309e-10
 73.75481   -110.8 1.007e+04 3.683e-10
 73.76463   -110.1 9.900e+03 3.033e-10
 73.77807   -110.6 1.008e+04 3.435e-10
 73.79771   -111.4 1.034e+04 4.291e-10
 73.81735   -112.0 1.063e+04 5.449e-10
 73.83699   -112.4 1.095e+04 6.822e-10
 73.85663   -112.8 1.129e+04 8.294e-10
 73.87627   -113.3 1.165e+04 9.896e-10
 73.89590   -113.8 1.200e+04 1.167e-09
 73.91554   -114.5 1.234e+04 1.361e-09
 73.93518   -115.1 1.263e+04 1.565e-09
 73.95061   -115.7 1.285e+04 1.761e-09
 73.96043   -116.4 1.317e+04 2.091e-09
 73.97446   -116.9 1.318e+04 2.202e-09
 73.99410   -117.3 1.316e+04 2.230e-09
 74.01374   -117.5 1.307e+04 2.221e-09
 74.03337   -117.6 1.293e+04 2.138e-09
 74.05301   -117.6 1.278e+04 1.992e-09
 74.07265   -117.6 1.260e+04 1.805e-09
 74.09229   -117.5 1.241e+04 1.599e-09
 74.10739   -117.5 1.217e+04 1.378e-09
 74.11721   -117.4 1.190e+04 1.203e-09
 74.13157   -117.2 1.170e+04 1.055e-09
 74.15928   -117.1 1.146e+04 8.871e-10
 74.17892   -116.7 1.107e+04 7.676e-10
 74.19048   -116.1 1.076e+04 6.418e-10
 74.21012   -115.3 1.048e+04 5.240e-10
 74.22976   -114.4 1.034e+04 4.349e-10
 74.24940   -114.0 1.032e+04 4.008e-10
 74.27896   -113.7 1.027e+04 3.617e-10
 74.31833   -112.4 1.008e+04 3.127e-10
 74.35761   -110.9 9.956e+03 2.852e-10
 74.39689   -109.5 9.936e+03 2.793e-10
 74.43616   -108.2 9.977e+03 2.825e-10
 74.46017   -107.2 1.014e+04 3.145e-10
 74.47981   -106.8 1.014e+04 3.182e-10
 74.51472   -106.0 1.032e+04 3.751e-10
 74.55400   -105.2 1.053e+04 4.371e-10
 74.59327   -104.8 1.064e+04 4.635e-10
 74.61580   -104.7 1.067e+04 4.544e-10
 74.63543   -104.8 1.055e+04 4.046e-10
 74.67183   -104.8 1.043e+04 3.145e-10
 74.71111   -104.9 1.016e+04 2.045e-10
 74.75038   -105.1 9.880e+03 1.448e-10
 74.78966   -104.9 9.729e+03 1.291e-10
 74.82894   -103.9 9.689e+03 1.277e-10
 74.86821   -102.6 9.717e+03 1.309e-10
 74.90749   -101.4 9.744e+03 1.329e-10
 74.94677   -100.2 9.732e+03 1.286e-10
 74.98605    -98.8 9.698e+03 1.172e-10
 75.02532    -97.5 9.714e+03 1.127e-10
 75.05257    -96.3 9.791e+03 1.125e-10
 75.07221    -97.1 9.856e+03 1.349e-10
 75.10388    -96.0 1.011e+04 1.617e-10
 75.14316    -94.8 1.035e+04 2.181e-10
 75.16533    -93.6 1.058e+04 2.913e-10
 75.18497    -94.6 1.070e+04 3.189e-10
 75.22171    -93.5 1.089e+04 4.005e-10
 75.26099    -92.4 1.111e+04 4.816e-10
 75.30027    -91.4 1.133e+04 5.548e-10
 75.33954    -90.5 1.146e+04 5.879e-10
 75.37882    -89.7 1.149e+04 5.884e-10
 75.41810    -88.9 1.142e+04 5.174e-10
 75.45738    -88.3 1.130e+04 4.323e-10
 75.48935    -87.4 1.120e+04 3.702e-10
 75.50899    -87.7 1.126e+04 4.467e-10
 75.53593    -86.5 1.107e+04 3.461e-10
 75.57521    -85.3 1.090e+04 2.754e-10
 75.61449    -83.8 1.076e+04 2.345e-10
 75.65376    -82.3 1.067e+04 2.144e-10
 75.69304    -80.6 1.064e+04 2.053e-10
 75.73232    -78.9 1.062e+04 2.025e-10
 75.77160    -77.3 1.066e+04 2.028e-10
 75.81087    -75.8 1.074e+04 2.109e-10
 75.85015    -74.5 1.084e+04 2.324e-10
 75.87049    -73.3 1.095e+04 2.643e-10
 75.89013    -73.8 1.068e+04 2.312e-10
 75.92613    -72.5 1.074e+04 2.524e-10
 75.94577    -72.7 1.094e+04 2.790e-10
 75.96798    -71.5 1.097e+04 2.941e-10
 76.00726    -70.4 1.098e+04 3.007e-10
 76.04654    -69.2 1.103e+04 3.112e-10
 76.08581    -68.4 1.122e+04 3.485e-10
 76.12509    -67.8 1.147e+04 4.650e-10
 76.16437    -67.0 1.163e+04 6.165e-10
 76.20365    -65.9 1.168e+04 6.634e-10
 76.24292    -64.5 1.143e+04 5.418e-10
 76.28220    -63.3 1.118e+04 3.847e-10
 76.32148    -61.9 1.088e+04 2.641e-10
 76.36076    -59.9 1.055e+04 1.680e-10
 76.38255    -57.9 1.039e+04 1.121e-10
 76.40219    -58.1 1.044e+04 1.043e-10
 76.43931    -56.2 1.042e+04 8.419e-11
 76.47859    -54.1 1.038e+04 7.762e-11
 76.51787    -52.0 1.036e+04 7.641e-11
 76.55602    -49.8 1.037e+04 7.775e-11
 76.57565    -50.0 1.030e+04 7.191e-11
 76.59642    -47.8 1.029e+04 7.708e-11
 76.63570    -45.6 1.030e+04 8.280e-11
 76.67498    -43.4 1.034e+04 8.696e-11
 76.71425    -41.2 1.038e+04 9.019e-11
 76.75353    -39.2 1.041e+04 9.482e-11
 76.79281    -37.3 1.045e+04 1.015e-10
 76.81933    -35.5 1.045e+04 1.117e-10
 76.83896    -35.6 1.057e+04 1.144e-10
 76.87136    -34.0 1.059e+04 1.317e-10
 76.91064    -32.1 1.055e+04 1.532e-10
 76.94992    -30.1 1.048e+04 1.716e-10
 76.98919    -27.9 1.043e+04 1.768e-10
 77.02847    -26.0 1.048e+04 1.677e-10
 77.06775    -24.5 1.065e+04 1.662e-10
 77.10703    -23.9 1.091e+04 2.109e-10
 77.14630    -23.5 1.135e+04 3.298e-10
 77.17566    -24.3 1.169e+04 4.861e-10
 77.19521    -24.5 1.207e+04 6.713e-10
 77.21484    -24.5 1.230e+04 8.949e-10
 77.23448    -24.6 1.266e+04 1.024e-09
 77.25412    -25.2 1.286e+04 1.050e-09
 77.26573    -25.8 1.266e+04 1.008e-09
 77.27259    -25.6 1.266e+04 9.885e-10
 77.28062    -25.9 1.257e+04 9.687e-10
 77.29340    -26.5 1.230e+04 8.255e-10
 77.31304    -27.0 1.211e+04 7.081e-10
 77.33268    -28.0 1.196e+04 6.018e-10
 77.35231    -29.1 1.196e+04 5.648e-10
 77.37195    -30.8 1.226e+04 5.615e-10
 77.39159    -33.4 1.281e+04 7.439e-10
 77.42115    -34.9 1.298e+04 1.312e-09
 77.46052    -34.8 1.314e+04 1.725e-09
 77.49980    -34.9 1.285e+04 1.487e-09
 77.53908    -34.7 1.225e+04 8.853e-10
 77.57836    -34.5 1.156e+04 4.612e-10
 77.61763    -33.8 1.108e+04 2.853e-10
 77.65691    -32.2 1.089e+04 2.192e-10
 77.69288    -30.2 1.079e+04 1.765e-10
 77.71252    -30.8 1.091e+04 2.130e-10
 77.73546    -28.6 1.081e+04 1.678e-10
 77.77474    -26.4 1.071e+04 1.416e-10
 77.81402    -24.1 1.059e+04 1.294e-10
 77.85330    -21.6 1.049e+04 1.241e-10
 77.89257    -19.1 1.060e+04 1.154e-10
 77.93185    -16.7 1.074e+04 1.093e-10
 77.96634    -15.0 1.080e+04 1.212e-10
 77.98598    -15.2 1.081e+04 1.090e-10
 78.01041    -13.0 1.078e+04 1.388e-10
 78.04968    -10.5 1.085e+04 1.739e-10
 78.08896     -8.5 1.110e+04 2.100e-10
 78.12824     -7.6 1.150e+04 3.085e-10
 78.14930     -7.2 1.198e+04 5.981e-10
 78.16894     -6.9 1.244e+04 8.116e-10
 78.20679     -6.3 1.319e+04 1.681e-09
 78.24607     -5.9 1.331e+04 1.844e-09
 78.28535     -4.4 1.280e+04 1.287e-09
 78.32463     -3.7 1.218e+04 5.829e-10
 78.36390     -4.6 1.181e+04 2.974e-10
 78.40318     -4.4 1.107e+04 2.401e-10
 78.44246     -2.7 1.093e+04 2.399e-10
 78.48174     -0.8 1.092e+04 2.526e-10
 78.52101      1.1 1.090e+04 2.599e-10
 78.56029      3.0 1.086e+04 2.536e-10
 78.58608      4.7 1.078e+04 2.320e-10
 78.60571      4.8 1.078e+04 2.345e-10
 78.63884      6.3 1.073e+04 2.200e-10
 78.67150      7.4 1.078e+04 2.316e-10
 78.69114      7.3 1.080e+04 2.326e-10
 78.71740      8.3 1.094e+04 2.930e-10
 78.75668      9.6 1.106e+04 3.731e-10
 78.79595     11.0 1.104e+04 3.721e-10
 78.83523     12.4 1.094e+04 3.246e-10
 78.87451     13.4 1.088e+04 2.518e-10
 78.91379     14.1 1.074e+04 2.171e-10
 78.95306     15.1 1.062e+04 2.174e-10
 78.99234     16.3 1.059e+04 2.183e-10
 79.02285     17.7 1.053e+04 2.098e-10
 79.04249     17.5 1.056e+04 2.031e-10
 79.07090     18.8 1.051e+04 1.810e-10
 79.11017     20.1 1.046e+04 1.474e-10
 79.14945     21.4 1.041e+04 1.150e-10
 79.18873     22.6 1.012e+04 1.049e-10
 79.22801     24.1 1.007e+04 1.045e-10
 79.26728     25.8 1.009e+04 1.072e-10
 79.30656     27.1 1.016e+04 1.215e-10
 79.34584     27.8 1.046e+04 1.775e-10
 79.37666     28.6 1.112e+04 3.899e-10
 79.39630     27.7 1.146e+04 4.924e-10
 79.42439     28.8 1.222e+04 1.013e-09
 79.45963     29.7 1.287e+04 1.575e-09
 79.47927     29.5 1.303e+04 1.704e-09
 79.50295     29.8 1.325e+04 1.832e-09
 79.54223     30.0 1.313e+04 1.728e-09
 79.58150     30.5 1.279e+04 1.454e-09
 79.62078     31.2 1.243e+04 1.174e-09
 79.66006     32.1 1.212e+04 9.798e-10
 79.69933     33.3 1.187e+04 8.460e-10
 79.73861     34.7 1.169e+04 7.563e-10
 79.77789     36.0 1.157e+04 6.870e-10
 79.81717     37.3 1.147e+04 6.253e-10
 79.85644     38.6 1.136e+04 5.658e-10
 79.89572     39.9 1.124e+04 5.067e-10
 79.91605     41.2 1.111e+04 4.495e-10
 79.93569     41.3 1.118e+04 4.611e-10
 79.97428     42.6 1.102e+04 3.972e-10
 80.01355     44.1 1.088e+04 3.427e-10
 80.05283     45.7 1.076e+04 2.968e-10
 80.08183     47.5 1.068e+04 2.590e-10
 80.10147     47.1 1.082e+04 2.821e-10
 80.13139     48.9 1.071e+04 2.427e-10
 80.17066     50.9 1.063e+04 2.328e-10
 80.20994     53.0 1.063e+04 2.335e-10
 80.24922     55.1 1.066e+04 2.379e-10
 80.28850     57.1 1.075e+04 2.527e-10
 80.32777     58.9 1.091e+04 2.945e-10
 80.35283     60.4 1.119e+04 3.890e-10
 80.37247     61.0 1.119e+04 3.871e-10
 80.40633     62.5 1.167e+04 5.729e-10
 80.44561     63.9 1.241e+04 9.517e-10
 80.47497     63.8 1.293e+04 1.252e-09
 80.49451     63.5 1.354e+04 1.677e-09
 80.51415     62.9 1.428e+04 2.412e-09
 80.53378     62.3 1.486e+04 3.430e-09
 80.55342     62.1 1.515e+04 4.143e-09
 80.57102     62.0 1.528e+04 4.361e-09
 80.58084     62.4 1.534e+04 4.560e-09
 80.59270     62.4 1.527e+04 4.317e-09
 80.61234     62.3 1.517e+04 3.937e-09
 80.63198     62.0 1.504e+04 3.515e-09
 80.65162     61.7 1.484e+04 3.069e-09
 80.67125     61.5 1.465e+04 2.694e-09
 80.69089     61.4 1.458e+04 2.450e-09
 80.71053     61.2 1.465e+04 2.433e-09
 80.73017     60.7 1.493e+04 2.582e-09
 80.74981     60.1 1.546e+04 3.053e-09
 80.76945     59.6 1.610e+04 3.859e-09
 80.78413     59.1 1.641e+04 4.164e-09
 80.79161     59.0 1.649e+04 4.240e-09
 80.79656     58.1 1.646e+04 3.994e-09
 80.79918     58.3 1.663e+04 4.535e-09
 80.80900     59.3 1.616e+04 3.375e-09
 80.82836     58.9 1.674e+04 4.299e-09
 80.84304     57.8 1.797e+04 6.407e-09
 80.85282     57.1 1.847e+04 8.917e-09
 80.86263     56.8 1.859e+04 1.220e-08
 80.87245     56.6 1.854e+04 1.548e-08
 80.88227     56.5 1.879e+04 1.870e-08
 80.89209     56.5 1.906e+04 2.369e-08
 80.90191     56.5 1.932e+04 2.968e-08
 80.90833     56.6 1.971e+04 3.475e-08
 80.91324     56.4 1.998e+04 4.971e-08
 80.92155     56.8 2.041e+04 6.046e-08
 80.93137     56.7 2.056e+04 5.994e-08
 80.94119     57.0 2.057e+04 5.009e-08
 80.95101     57.3 2.038e+04 3.521e-08
 80.96579     57.1 1.959e+04 1.161e-08
 80.98547     55.5 1.850e+04 3.501e-09
 81.00511     51.6 1.516e+04 1.314e-09
 81.01762     49.9 1.298e+04 1.116e-09
 81.02744     50.9 1.533e+04 1.984e-09
 81.04439     50.0 1.353e+04 1.629e-09
 81.06403     50.4 1.325e+04 1.495e-09
 81.08367     50.8 1.313e+04 1.431e-09
 81.11322     51.5 1.278e+04 1.092e-09
 81.15260     52.9 1.260e+04 9.127e-10
 81.19188     53.9 1.232e+04 7.371e-10
 81.22638     54.8 1.199e+04 6.071e-10
 81.24602     54.9 1.278e+04 7.762e-10
 81.27043     55.8 1.246e+04 6.208e-10
 81.30971     56.8 1.222e+04 5.648e-10
 81.34899     58.0 1.205e+04 5.186e-10
 81.38826     59.2 1.188e+04 4.593e-10
 81.42754     60.4 1.176e+04 3.908e-10
 81.46682     61.7 1.157e+04 3.311e-10
 81.49215     63.1 1.135e+04 2.877e-10
 81.51179     62.8 1.160e+04 3.132e-10
 81.54537     64.1 1.158e+04 2.982e-10
 81.58465     65.4 1.161e+04 3.082e-10
 81.62393     66.6 1.173e+04 3.479e-10
 81.66316     67.6 1.216e+04 4.900e-10
 81.69252     68.0 1.291e+04 7.891e-10
 81.71211     67.7 1.335e+04 9.877e-10
 81.73174     67.2 1.405e+04 1.520e-09
 81.75138     66.6 1.475e+04 2.498e-09
 81.77102     66.2 1.536e+04 3.892e-09
 81.79066     66.2 1.598e+04 5.376e-09
 81.81030     66.1 1.602e+04 6.117e-09
 81.82994     66.0 1.589e+04 5.620e-09
 81.84454     65.8 1.537e+04 4.220e-09
 81.85436     65.2 1.470e+04 3.059e-09
 81.86922     64.5 1.387e+04 1.933e-09
 81.88885     63.8 1.285e+04 1.142e-09
 81.90099     63.1 1.190e+04 7.015e-10
 81.91081     62.2 1.161e+04 6.571e-10
 81.92813     62.0 1.104e+04 4.524e-10
 81.94777     61.9 1.079e+04 3.590e-10
 81.96741     62.4 1.064e+04 3.250e-10
 81.98705     62.6 1.064e+04 3.254e-10
 82.01660     64.3 1.049e+04 3.050e-10
 82.05598     66.4 1.027e+04 2.821e-10
 82.09526     68.4 1.006e+04 2.594e-10
 82.11958     70.2 9.875e+03 2.362e-10
 82.13922     69.5 9.578e+03 1.978e-10
 82.17381     71.3 9.411e+03 1.780e-10
 82.19731     73.1 9.249e+03 1.591e-10
 82.21695     73.0 9.209e+03 1.492e-10
 82.25237     74.7 9.035e+03 1.359e-10
 82.29164     76.4 8.907e+03 1.334e-10
 82.33092     78.2 8.900e+03 1.345e-10
 82.37020     79.9 8.885e+03 1.418e-10
 82.40948     81.5 8.914e+03 1.593e-10
 82.44875     83.0 9.006e+03 1.873e-10
 82.48803     84.4 9.172e+03 2.266e-10
 82.52731     85.5 9.404e+03 2.883e-10
 82.55636     86.0 9.719e+03 3.766e-10
 82.57600     86.1 9.744e+03 3.992e-10
 82.59595     86.2 9.949e+03 4.657e-10
 82.61549     86.2 1.014e+04 5.399e-10
 82.64504     86.5 1.022e+04 5.919e-10
 82.68442     86.9 1.020e+04 5.914e-10
 82.72369     87.1 1.010e+04 5.592e-10
 82.76297     87.6 9.956e+03 5.120e-10
 82.80225     88.8 9.945e+03 4.921e-10
 82.83161     89.2 1.000e+04 5.027e-10
 82.85115     89.2 1.016e+04 5.311e-10
 82.87079     89.0 1.042e+04 6.021e-10
 82.89043     88.2 1.101e+04 8.055e-10
 82.90228     86.4 1.235e+04 1.379e-09
 82.91210     87.2 1.154e+04 1.031e-09
 82.92971     85.6 1.292e+04 1.834e-09
 82.94934     84.5 1.429e+04 3.349e-09
 82.96898     84.0 1.529e+04 5.480e-09
 82.98862     83.6 1.582e+04 6.702e-09
 83.00276     83.0 1.583e+04 6.591e-09
 83.01258     83.1 1.546e+04 5.819e-09
 83.02790     82.2 1.508e+04 4.810e-09
 83.04754     81.1 1.410e+04 3.071e-09
 83.06718     79.6 1.295e+04 1.759e-09
 83.08681     78.0 1.183e+04 1.036e-09
 83.11637     75.5 1.023e+04 5.169e-10
 83.15575     74.0 8.849e+03 2.745e-10
 83.19502     74.4 8.618e+03 2.308e-10
 83.23430     75.6 8.549e+03 2.138e-10
 83.27358     77.4 8.507e+03 2.031e-10
 83.31286     79.2 8.482e+03 1.923e-10
 83.35213     80.8 8.488e+03 1.838e-10
 83.39141     82.3 8.521e+03 1.851e-10
 83.42991     83.7 8.574e+03 1.897e-10
 83.44955     83.4 8.790e+03 2.388e-10
 83.46996     84.7 8.825e+03 2.420e-10
 83.50924     86.0 8.850e+03 2.397e-10
 83.54852     87.3 8.880e+03 2.331e-10
 83.58780     88.7 8.886e+03 2.269e-10
 83.60764     90.2 8.912e+03 2.218e-10
 83.62728     90.9 8.843e+03 1.999e-10
 83.66635     92.6 8.839e+03 1.828e-10
 83.70563     94.4 8.821e+03 1.661e-10
 83.74491     96.2 8.854e+03 1.548e-10
 83.78418     98.2 8.909e+03 1.579e-10
 83.82346    100.2 8.993e+03 1.677e-10
 83.86274    102.2 9.105e+03 1.887e-10
 83.88633    104.3 9.263e+03 2.236e-10
 83.90597    103.5 9.610e+03 3.014e-10
 83.94129    105.6 9.833e+03 3.556e-10
 83.98057    107.7 1.009e+04 4.156e-10
 84.01985    109.5 1.028e+04 4.633e-10
 84.05913    111.1 1.040e+04 5.021e-10
 84.08849    112.4 1.039e+04 5.283e-10
 84.10452    113.5 1.047e+04 5.598e-10
 84.11434    112.9 1.057e+04 5.795e-10
 84.12767    113.9 1.070e+04 6.098e-10
 84.14730    114.7 1.083e+04 6.420e-10
 84.16694    115.5 1.095e+04 6.776e-10
 84.18658    116.3 1.107e+04 7.220e-10
 84.20622    117.1 1.122e+04 7.691e-10
 84.22586    117.9 1.137e+04 8.199e-10
 84.24550    118.6 1.150e+04 8.744e-10
 84.26514    119.4 1.166e+04 9.345e-10
 84.28478    120.1 1.184e+04 1.003e-09
 84.30279    120.7 1.203e+04 1.079e-09
 84.31260    120.8 1.191e+04 1.041e-09
 84.32291    121.3 1.210e+04 1.132e-09
 84.33273    120.6 1.199e+04 1.037e-09
 84.34369    121.1 1.225e+04 1.152e-09
 84.36333    121.5 1.258e+04 1.323e-09
 84.38297    121.4 1.296e+04 1.543e-09
 84.40261    121.2 1.346e+04 1.828e-09
 84.42225    120.5 1.412e+04 2.235e-09
 84.44189    119.4 1.493e+04 2.854e-09
 84.46152    118.2 1.563e+04 3.649e-09
 84.48116    117.2 1.605e+04 4.288e-09
 84.50080    116.1 1.607e+04 4.335e-09
 84.52044    115.2 1.595e+04 4.178e-09
 84.54008    114.5 1.558e+04 3.605e-09
 84.55112    113.8 1.503e+04 2.761e-09
 84.56094    113.2 1.489e+04 2.552e-09
 84.57936    112.3 1.419e+04 1.761e-09
 84.59899    111.1 1.335e+04 1.266e-09
 84.61863    110.3 1.289e+04 1.078e-09
 84.63827    110.4 1.286e+04 1.063e-09
 84.65537    110.9 1.288e+04 1.064e-09
 84.66519    111.5 1.304e+04 1.191e-09
 84.67755    112.1 1.323e+04 1.239e-09
 84.69719    112.6 1.359e+04 1.360e-09
 84.71683    112.7 1.406e+04 1.564e-09
 84.73647    112.8 1.461e+04 1.869e-09
 84.75610    113.0 1.517e+04 2.260e-09
 84.76951    113.5 1.559e+04 2.667e-09
 84.77933    113.3 1.404e+04 1.751e-09
 84.79538    114.0 1.423e+04 1.895e-09
 84.81502    114.9 1.445e+04 1.968e-09
 84.83466    115.9 1.444e+04 1.947e-09
 84.85430    117.1 1.438e+04 1.831e-09
 84.87394    118.6 1.416e+04 1.589e-09
 84.89358    120.3 1.379e+04 1.290e-09
 84.91321    122.1 1.334e+04 9.967e-10
 84.93285    123.9 1.285e+04 7.515e-10
 84.95249    125.8 1.240e+04 5.708e-10
 84.97213    127.7 1.204e+04 4.452e-10
 84.98790    129.7 1.177e+04 3.666e-10
 84.99772    129.3 1.184e+04 3.889e-10
 85.00795    131.1 1.173e+04 3.385e-10
 85.01777    129.1 1.152e+04 3.047e-10
 85.03105    130.9 1.151e+04 2.851e-10
 85.05068    132.8 1.152e+04 2.779e-10
 85.07032    134.5 1.154e+04 2.779e-10
 85.08996    135.7 1.161e+04 2.794e-10
 85.10960    138.0 1.180e+04 2.851e-10
 85.12924    133.6 1.890e+04 2.453e-10
 85.14392    123.3 4.335e+04 2.141e-10
 85.15369     73.6 9.878e+04 6.906e-10
 85.16351     32.5 4.727e+04 4.266e-08
 85.17085     20.4 2.900e+04 3.324e-07
 85.17573     15.8 2.375e+04 7.590e-07
 85.18064     10.0 2.378e+04 9.056e-07
 85.18555      4.6 2.807e+04 5.071e-07
 85.18900      1.5 4.897e+04 5.889e-08
 85.19394      0.1 5.219e+04 3.921e-08
 85.20279    -14.7 9.319e+04 3.307e-09
 85.21110    -42.6 1.897e+05 2.820e-10
 85.21601    -66.7 1.716e+05 1.650e-10
 85.22243   -121.7 3.491e+04 2.192e-10
 85.23224   -129.5 1.473e+04 3.188e-10
 85.24702   -131.5 1.321e+04 3.121e-10
 85.26671   -133.3 1.332e+04 2.949e-10
 85.28635   -133.8 1.332e+04 2.878e-10
 85.31590   -132.8 1.328e+04 2.914e-10
 85.35528   -133.4 1.297e+04 2.917e-10
 85.39456   -130.7 1.270e+04 3.189e-10
 85.43383   -127.2 1.267e+04 3.585e-10
 85.46320   -122.5 1.231e+04 3.765e-10
 85.48274   -122.3 1.226e+04 3.931e-10
 85.50237   -120.6 1.214e+04 4.402e-10
 85.52201   -120.1 1.233e+04 5.043e-10
 85.55157   -119.6 1.234e+04 5.737e-10
 85.59094   -116.1 1.213e+04 5.600e-10
 85.63022   -112.6 1.174e+04 5.149e-10
 85.65308   -109.5 1.141e+04 4.440e-10
 85.67272   -108.9 1.226e+04 6.687e-10
 85.70349   -106.0 1.205e+04 6.067e-10
 85.72312   -104.2 1.240e+04 7.722e-10
 85.74805   -101.7 1.223e+04 7.144e-10
 85.78733    -99.2 1.179e+04 5.913e-10
 85.82661    -96.7 1.115e+04 4.404e-10
 85.86589    -94.1 1.045e+04 3.102e-10
 85.90516    -91.6 9.816e+03 2.152e-10
 85.94444    -89.2 9.293e+03 1.561e-10
 85.98372    -86.9 8.963e+03 1.303e-10
 86.02300    -84.7 8.851e+03 1.251e-10
 86.06227    -82.3 8.865e+03 1.389e-10
 86.08986    -79.9 8.965e+03 1.657e-10
 86.10950    -78.7 8.939e+03 1.564e-10
 86.14083    -76.3 9.038e+03 1.836e-10
 86.18011    -73.9 9.168e+03 2.132e-10
 86.21938    -71.7 9.311e+03 2.469e-10
 86.25866    -70.1 9.646e+03 3.137e-10
 86.29794    -69.0 1.055e+04 4.666e-10
 86.33721    -68.4 1.191e+04 7.952e-10
 86.36658    -67.4 1.287e+04 1.382e-09
 86.38612    -67.9 1.364e+04 1.894e-09
 86.40575    -68.6 1.496e+04 2.808e-09
 86.41827    -71.0 1.674e+04 4.469e-09
 86.42809    -71.8 1.758e+04 5.630e-09
 86.44503    -74.6 1.893e+04 7.821e-09
 86.46467    -78.0 1.925e+04 8.869e-09
 86.48431    -81.5 1.874e+04 8.894e-09
 86.50395    -83.7 1.742e+04 7.210e-09
 86.52359    -85.2 1.633e+04 5.186e-09
 86.53626    -86.8 1.526e+04 3.654e-09
 86.54608    -86.7 1.508e+04 3.095e-09
 86.56286    -88.9 1.360e+04 1.943e-09
 86.58250    -90.0 1.256e+04 1.404e-09
 86.60214    -90.3 1.200e+04 1.132e-09
 86.62178    -90.4 1.162e+04 9.657e-10
 86.64142    -90.3 1.132e+04 8.563e-10
 86.66106    -90.1 1.109e+04 7.903e-10
 86.68070    -89.6 1.090e+04 7.451e-10
 86.70034    -89.0 1.069e+04 6.929e-10
 86.71997    -88.2 1.042e+04 6.075e-10
 86.73961    -87.2 1.012e+04 4.948e-10
 86.76917    -86.1 9.876e+03 3.856e-10
 86.80854    -85.3 9.533e+03 3.150e-10
 86.84782    -83.9 9.107e+03 2.538e-10
 86.88710    -82.4 8.867e+03 2.325e-10
 86.92638    -80.9 8.817e+03 2.302e-10
 86.96342    -79.4 8.803e+03 2.347e-10
 86.98305    -79.1 8.484e+03 1.863e-10
 87.00493    -77.8 8.547e+03 1.984e-10
 87.04421    -76.5 8.582e+03 2.034e-10
 87.08349    -75.3 8.605e+03 2.048e-10
 87.11381    -74.4 8.709e+03 2.121e-10
 87.13345    -74.2 8.548e+03 1.943e-10
 87.16204    -73.6 8.876e+03 2.265e-10
 87.20132    -73.2 9.421e+03 3.252e-10
 87.23068    -72.3 9.813e+03 4.407e-10
 87.25022    -72.8 9.892e+03 4.883e-10
 87.26986    -73.0 1.016e+04 6.798e-10
 87.28950    -72.7 1.044e+04 8.254e-10
 87.30914    -72.0 1.070e+04 9.307e-10
 87.32877    -71.8 1.093e+04 9.647e-10
 87.34841    -71.7 1.104e+04 9.544e-10
 87.36805    -72.0 1.115e+04 8.697e-10
 87.38769    -72.8 1.106e+04 7.935e-10
 87.40733    -73.5 1.091e+04 7.511e-10
 87.41964    -73.8 1.084e+04 7.395e-10
 87.42946    -73.1 1.113e+04 8.122e-10
 87.44661    -73.4 1.102e+04 7.892e-10
 87.46620    -73.4 1.098e+04 7.964e-10
 87.48584    -72.9 1.072e+04 6.944e-10
 87.50552    -72.5 1.074e+04 7.009e-10
 87.52516    -72.3 1.082e+04 7.193e-10
 87.54480    -72.8 1.114e+04 8.492e-10
 87.56444    -76.0 1.432e+04 1.692e-09
 87.58408    -78.6 1.728e+04 3.843e-09
 87.59876    -79.2 1.888e+04 6.964e-09
 87.60853    -80.0 1.951e+04 8.002e-09
 87.61835    -80.6 2.041e+04 1.245e-08
 87.62817    -80.5 2.073e+04 1.718e-08
 87.63793    -80.3 2.069e+04 2.230e-08
 87.64780    -79.7 1.935e+04 1.164e-08
 87.66263    -79.5 1.972e+04 1.407e-08
 87.68227    -79.2 1.935e+04 1.436e-08
 87.70191    -79.4 1.896e+04 1.264e-08
 87.72155    -80.4 1.852e+04 1.057e-08
 87.74119    -81.4 1.801e+04 8.042e-09
 87.76083    -82.4 1.733e+04 5.982e-09
 87.78046    -83.4 1.679e+04 4.892e-09
 87.80010    -84.4 1.624e+04 4.307e-09
 87.81878    -85.1 1.576e+04 4.080e-09
 87.82860    -83.4 1.654e+04 4.933e-09
 87.83938    -84.0 1.612e+04 4.738e-09
 87.85642    -84.1 1.570e+04 4.501e-09
 87.86623    -82.8 1.676e+04 6.080e-09
 87.87866    -82.8 1.614e+04 5.136e-09
 87.89830    -82.6 1.525e+04 3.348e-09
 87.91793    -82.5 1.393e+04 1.784e-09
 87.93757    -83.3 1.245e+04 9.190e-10
 87.95721    -84.6 1.122e+04 5.733e-10
 87.97685    -85.0 1.084e+04 5.022e-10
 87.99649    -84.6 1.069e+04 4.675e-10
 88.01613    -83.8 1.064e+04 4.546e-10
 88.03577    -83.2 1.059e+04 4.470e-10
 88.05541    -82.7 1.062e+04 4.470e-10
 88.07480    -82.2 1.086e+04 4.834e-10
 88.08462    -82.2 1.095e+04 5.103e-10
 88.09468    -81.5 1.108e+04 5.540e-10
 88.11432    -80.9 1.117e+04 6.020e-10
 88.13396    -80.2 1.122e+04 6.511e-10
 88.15360    -79.7 1.128e+04 6.985e-10
 88.17136    -79.6 1.145e+04 7.662e-10
 88.18118    -80.1 1.190e+04 8.065e-10
 88.19288    -81.1 1.317e+04 1.099e-09
 88.21252    -82.7 1.483e+04 1.780e-09
 88.23215    -83.9 1.623e+04 3.085e-09
 88.25179    -84.5 1.707e+04 5.025e-09
 88.27143    -84.6 1.739e+04 7.288e-09
 88.29107    -84.7 1.755e+04 8.760e-09
 88.30301    -85.3 1.783e+04 9.723e-09
 88.31283    -82.9 1.734e+04 5.423e-09
 88.33035    -83.3 1.744e+04 5.606e-09
 88.34999    -84.4 1.789e+04 6.027e-09
 88.36962    -86.4 1.999e+04 8.381e-09
 88.38430    -87.7 2.180e+04 1.259e-08
 88.39408    -88.9 2.254e+04 1.772e-08
 88.40389    -89.8 2.223e+04 2.902e-08
 88.41211    -90.0 2.159e+04 4.035e-08
 88.41702    -89.4 2.249e+04 2.469e-08
 88.42353    -89.5 2.193e+04 3.693e-08
 88.43335    -89.4 2.141e+04 4.912e-08
 88.44317    -89.1 2.102e+04 5.648e-08
 88.45299    -88.6 2.085e+04 5.819e-08
 88.46281    -87.6 2.032e+04 5.814e-08
 88.47263    -86.3 1.989e+04 5.238e-08
 88.48245    -85.0 1.978e+04 4.205e-08
 88.49227    -84.0 2.009e+04 3.070e-08
 88.50209    -83.3 2.073e+04 2.010e-08
 88.51191    -82.7 2.181e+04 1.192e-08
 88.52130    -82.5 2.341e+04 6.265e-09
 88.52621    -81.6 2.046e+04 1.687e-08
 88.52875    -81.1 2.189e+04 9.826e-09
 88.53366    -80.8 2.168e+04 9.861e-09
 88.54137    -80.9 2.387e+04 5.171e-09
 88.55119    -81.9 2.581e+04 2.657e-09
 88.56100    -83.9 2.492e+04 1.243e-09
 88.57082    -84.8 2.260e+04 7.715e-10
 88.58560    -84.3 2.200e+04 5.685e-10
 88.60529    -87.9 1.388e+04 2.713e-10
 88.62493    -88.8 1.042e+04 2.089e-10
 88.64457    -88.3 9.816e+03 2.004e-10
 88.66421    -87.3 9.814e+03 2.043e-10
 88.68384    -86.4 9.916e+03 2.186e-10
 88.70348    -85.6 1.006e+04 2.401e-10
 88.72312    -84.9 1.016e+04 2.629e-10
 88.73979    -84.5 1.017e+04 2.866e-10
 88.74961    -84.2 1.008e+04 2.678e-10
 88.76240    -83.6 1.008e+04 2.926e-10
 88.78204    -83.0 1.003e+04 3.124e-10
 88.80168    -82.2 1.008e+04 3.321e-10
 88.82131    -82.0 1.037e+04 3.611e-10
 88.84095    -82.1 1.110e+04 4.326e-10
 88.86059    -83.0 1.207e+04 6.025e-10
 88.87652    -84.0 1.277e+04 9.453e-10
 88.88634    -83.1 1.235e+04 7.003e-10
 88.89987    -83.5 1.268e+04 1.086e-09
 88.91951    -83.5 1.286e+04 1.616e-09
 88.93915    -83.0 1.303e+04 2.161e-09
 88.95818    -82.2 1.316e+04 2.515e-09
 88.96800    -81.9 1.301e+04 2.066e-09
 88.97842    -81.1 1.308e+04 2.391e-09
 88.99806    -80.2 1.310e+04 2.471e-09
 89.01770    -79.4 1.301e+04 2.344e-09
 89.03734    -78.6 1.284e+04 1.944e-09
 89.05698    -78.1 1.265e+04 1.475e-09
 89.07662    -78.1 1.238e+04 1.064e-09
 89.09626    -78.3 1.189e+04 7.689e-10
 89.11590    -78.6 1.132e+04 5.883e-10
 89.13553    -78.6 1.084e+04 4.880e-10
 89.15517    -78.3 1.048e+04 4.267e-10
 89.17481    -77.7 1.024e+04 3.862e-10
 89.18649    -76.8 1.003e+04 3.479e-10
 89.19631    -75.9 1.033e+04 4.000e-10
 89.21409    -75.2 1.026e+04 3.857e-10
 89.22920    -73.4 1.027e+04 3.725e-10
 89.24894    -71.6 1.052e+04 4.479e-10
 89.28302    -69.4 1.041e+04 4.142e-10
 89.32230    -67.4 1.028e+04 3.721e-10
 89.36157    -65.9 1.004e+04 3.247e-10
 89.40085    -64.4 9.781e+03 2.876e-10
 89.44013    -63.1 9.476e+03 2.543e-10
 89.47941    -61.5 9.232e+03 2.291e-10
 89.51868    -59.7 9.066e+03 2.049e-10
 89.55796    -57.7 8.959e+03 1.790e-10
 89.59724    -55.6 8.830e+03 1.500e-10
 89.62336    -53.5 8.672e+03 1.209e-10
 89.64300    -52.8 8.863e+03 1.427e-10
 89.67579    -50.6 8.637e+03 1.081e-10
 89.71507    -48.5 8.406e+03 8.503e-11
 89.75435    -46.2 8.206e+03 7.355e-11
 89.79363    -43.8 8.118e+03 6.705e-11
 89.83290    -41.3 8.087e+03 6.233e-11
 89.87218    -38.9 8.072e+03 5.944e-11
 89.91146    -36.3 8.068e+03 5.765e-11
 89.93446    -33.7 8.060e+03 5.562e-11
 89.95410    -33.2 8.157e+03 5.638e-11
 89.99001    -30.5 8.192e+03 5.594e-11
 90.02929    -27.8 8.175e+03 5.438e-11
 90.06014    -25.1 8.159e+03 5.097e-11
 90.07978    -24.3 8.344e+03 7.100e-11
 90.10784    -21.6 8.322e+03 6.826e-11
 90.14712    -18.9 8.287e+03 6.471e-11
 90.18640    -16.4 8.269e+03 6.415e-11
 90.22568    -13.9 8.232e+03 7.002e-11
 90.26495    -11.1 8.224e+03 8.266e-11
 90.30423     -8.1 8.280e+03 9.739e-11
 90.34351     -5.0 8.394e+03 1.053e-10
 90.38279     -2.3 8.516e+03 1.116e-10
 90.42206      0.3 8.604e+03 1.257e-10
 90.46134      2.9 8.718e+03 1.499e-10
 90.49692      5.8 8.890e+03 1.777e-10
 90.51656      6.6 9.115e+03 2.241e-10
 90.53990      9.5 9.295e+03 2.466e-10
 90.57917     12.2 9.412e+03 2.579e-10
 90.61845     14.7 9.523e+03 2.664e-10
 90.63962     16.9 9.665e+03 2.823e-10
 90.65926     17.7 9.532e+03 2.577e-10
 90.69701     19.9 9.723e+03 2.867e-10
 90.73628     22.0 9.933e+03 3.209e-10
 90.77556     24.1 1.016e+04 3.631e-10
 90.80492     26.0 1.030e+04 3.888e-10
 90.82446     26.6 1.043e+04 4.260e-10
 90.84410     27.6 1.054e+04 5.054e-10
 90.86374     28.9 1.070e+04 5.986e-10
 90.88338     30.1 1.094e+04 6.958e-10
 90.90302     31.1 1.117e+04 7.905e-10
 90.92266     32.1 1.144e+04 9.023e-10
 90.94229     33.1 1.173e+04 1.059e-09
 90.95314     34.1 1.200e+04 1.200e-09
 90.96296     34.6 1.203e+04 1.264e-09
 90.98157     35.7 1.234e+04 1.466e-09
 90.99201     36.7 1.262e+04 1.649e-09
 91.00183     37.2 1.221e+04 1.403e-09
 91.02085     38.3 1.243e+04 1.523e-09
 91.04049     39.3 1.260e+04 1.618e-09
 91.06013     40.4 1.275e+04 1.703e-09
 91.07977     41.3 1.284e+04 1.766e-09
 91.09940     42.5 1.290e+04 1.825e-09
 91.11904     43.8 1.302e+04 1.915e-09
 91.13868     45.1 1.317e+04 2.021e-09
 91.15832     46.3 1.337e+04 2.137e-09
 91.17153     47.7 1.370e+04 2.312e-09
 91.18135     47.8 1.428e+04 2.862e-09
 91.19760     48.9 1.500e+04 3.426e-09
 91.21724     49.9 1.581e+04 4.299e-09
 91.23687     50.9 1.655e+04 5.272e-09
 91.25651     51.9 1.727e+04 6.383e-09
 91.27119     52.8 1.729e+04 6.230e-09
 91.28063     53.0 1.742e+04 6.405e-09
 91.28554     53.2 1.779e+04 6.873e-09
 91.29078     53.4 1.824e+04 7.946e-09
 91.30060     53.7 1.860e+04 9.272e-09
 91.31042     53.9 1.902e+04 1.089e-08
 91.32024     54.2 1.944e+04 1.310e-08
 91.33006     54.5 1.989e+04 1.586e-08
 91.33958     54.7 2.035e+04 1.922e-08
 91.34449     55.4 1.954e+04 1.258e-08
 91.34970     55.6 1.998e+04 1.535e-08
 91.35952     55.8 2.032e+04 1.840e-08
 91.36934     56.1 2.065e+04 2.163e-08
 91.37916     56.4 2.104e+04 2.505e-08
 91.38898     56.7 2.139e+04 2.816e-08
 91.39473     57.1 2.166e+04 3.046e-08
 91.39964     56.9 2.211e+04 3.554e-08
 91.40862     57.3 2.225e+04 3.690e-08
 91.41843     57.8 2.248e+04 3.775e-08
 91.42825     58.1 2.287e+04 3.830e-08
 91.43807     58.0 2.321e+04 3.823e-08
 91.44789     58.0 2.335e+04 3.734e-08
 91.45771     58.1 2.338e+04 3.612e-08
 91.46753     58.2 2.337e+04 3.614e-08
 91.47735     58.3 2.340e+04 3.660e-08
 91.48717     58.4 2.338e+04 3.763e-08
 91.49699     58.4 2.343e+04 3.945e-08
 91.50392     58.4 2.350e+04 4.232e-08
 91.50883     58.0 2.390e+04 4.518e-08
 91.51587     58.0 2.387e+04 4.801e-08
 91.52078     59.0 2.383e+04 4.950e-08
 91.52645     59.3 2.382e+04 5.401e-08
 91.53627     59.7 2.391e+04 5.982e-08
 91.54609     59.8 2.405e+04 6.647e-08
 91.55591     59.7 2.416e+04 7.222e-08
 91.56573     59.6 2.415e+04 7.445e-08
 91.57554     59.5 2.406e+04 7.263e-08
 91.58536     59.6 2.389e+04 6.602e-08
 91.59518     59.9 2.364e+04 5.586e-08
 91.60500     60.4 2.341e+04 4.546e-08
 91.61312     60.5 2.328e+04 3.686e-08
 91.61803     60.3 2.314e+04 3.246e-08
 91.62464     60.2 2.283e+04 2.582e-08
 91.63446     60.3 2.246e+04 2.143e-08
 91.64924     60.2 2.154e+04 1.480e-08
 91.66893     60.6 2.052e+04 1.181e-08
 91.68735     61.3 1.960e+04 9.844e-09
 91.69717     62.6 2.003e+04 1.066e-08
 91.70820     63.4 1.923e+04 8.867e-09
 91.72784     64.5 1.859e+04 7.392e-09
 91.74748     65.6 1.804e+04 6.139e-09
 91.76712     66.8 1.753e+04 5.105e-09
 91.78676     68.0 1.705e+04 4.292e-09
 91.80640     69.1 1.658e+04 3.722e-09
 91.82604     70.2 1.623e+04 3.285e-09
 91.83652     71.4 1.591e+04 2.899e-09
 91.84633     71.6 1.598e+04 2.909e-09
 91.86531     72.9 1.571e+04 2.544e-09
 91.88495     74.2 1.543e+04 2.224e-09
 91.90459     75.5 1.522e+04 1.940e-09
 91.92423     76.8 1.498e+04 1.712e-09
 91.94387     78.1 1.468e+04 1.559e-09
 91.96351     79.3 1.431e+04 1.485e-09
 91.98315     80.8 1.392e+04 1.455e-09
 92.00278     82.3 1.364e+04 1.457e-09
 92.02242     83.9 1.344e+04 1.490e-09
 92.03993     85.5 1.333e+04 1.553e-09
 92.04975     87.0 1.599e+04 2.802e-09
 92.05490     88.6 1.615e+04 3.143e-09
 92.06472     88.4 1.689e+04 3.265e-09
 92.08134     89.7 1.727e+04 3.793e-09
 92.10098     91.0 1.790e+04 4.537e-09
 92.12062     92.3 1.857e+04 5.361e-09
 92.14025     93.2 1.907e+04 6.197e-09
 92.15989     94.0 1.955e+04 7.425e-09
 92.17953     94.3 1.999e+04 8.955e-09
 92.19421     93.1 1.957e+04 9.570e-09
 92.20398     92.6 1.982e+04 1.097e-08
 92.21380     92.4 2.046e+04 1.317e-08
 92.22103     92.1 2.129e+04 1.612e-08
 92.22594     94.0 2.184e+04 1.785e-08
 92.23344     93.3 2.272e+04 2.115e-08
 92.24326     89.7 2.603e+04 3.298e-08
 92.25308     76.4 2.969e+04 1.470e-07
 92.26042     65.0 2.916e+04 3.764e-07
 92.26531     57.7 2.917e+04 6.000e-07
 92.27021     52.9 4.297e+04 1.631e-07
 92.27512     45.9 4.977e+04 8.443e-08
 92.27806     38.0 4.758e+04 1.004e-07
 92.28299     28.9 3.306e+04 2.034e-07
 92.29236     18.3 2.885e+04 1.245e-07
 92.30218     10.7 2.614e+04 4.661e-08
 92.31200      6.7 2.456e+04 2.075e-08
 92.32182      5.1 2.236e+04 1.381e-08
 92.33163      6.0 2.142e+04 8.794e-09
 92.34145      6.1 2.126e+04 8.586e-09
 92.35623      7.0 1.855e+04 4.755e-09
 92.37592      6.1 1.477e+04 2.327e-09
 92.39251      6.4 1.263e+04 1.451e-09
 92.40233      7.5 1.256e+04 1.414e-09
 92.41520      9.7 1.146e+04 1.030e-09
 92.43484     11.4 1.134e+04 9.626e-10
 92.45447     14.8 1.072e+04 7.812e-10
 92.47411     16.8 1.061e+04 6.973e-10
 92.49168     19.2 1.023e+04 5.606e-10
 92.50150     19.4 1.017e+04 5.379e-10
 92.51339     20.4 1.004e+04 4.812e-10
 92.53303     22.4 9.566e+03 3.748e-10
 92.55267     23.6 9.482e+03 3.329e-10
 92.58222     25.3 9.324e+03 3.068e-10
 92.62160     28.1 9.165e+03 2.877e-10
 92.66088     30.8 9.200e+03 2.980e-10
 92.70015     33.2 9.387e+03 3.418e-10
 92.72009     35.5 9.764e+03 4.414e-10
 92.73576     36.1 9.794e+03 4.406e-10
 92.75511     35.9 9.678e+03 4.041e-10
 92.76879     37.1 9.790e+03 4.610e-10
 92.78833     38.3 9.932e+03 5.162e-10
 92.80797     39.4 1.011e+04 5.779e-10
 92.82761     40.4 1.027e+04 6.380e-10
 92.84725     41.5 1.042e+04 6.963e-10
 92.86689     42.6 1.054e+04 7.411e-10
 92.88653     43.6 1.061e+04 7.541e-10
 92.90616     44.5 1.062e+04 7.495e-10
 92.92580     45.4 1.063e+04 7.342e-10
 92.93828     46.2 1.062e+04 7.123e-10
 92.94810     47.0 1.082e+04 7.879e-10
 92.96508     47.8 1.077e+04 7.482e-10
 92.98472     48.4 1.069e+04 7.038e-10
 93.00436     49.1 1.061e+04 6.652e-10
 93.02400     49.8 1.057e+04 6.424e-10
 93.04363     50.7 1.059e+04 6.430e-10
 93.06327     51.5 1.065e+04 6.540e-10
 93.08291     52.3 1.079e+04 6.874e-10
 93.09768     52.9 1.098e+04 7.438e-10
 93.10749     52.9 1.131e+04 8.127e-10
 93.12219     53.4 1.161e+04 9.129e-10
 93.14183     53.9 1.205e+04 1.059e-09
 93.15667     54.5 1.242e+04 1.236e-09
 93.16649     53.9 1.471e+04 2.884e-09
 93.18111     55.0 1.502e+04 3.468e-09
 93.20074     56.0 1.505e+04 3.701e-09
 93.22038     57.0 1.500e+04 3.673e-09
 93.24002     57.9 1.483e+04 3.527e-09
 93.25966     58.4 1.463e+04 3.331e-09
 93.27930     58.4 1.447e+04 3.232e-09
 93.29894     58.2 1.449e+04 3.374e-09
 93.31858     57.9 1.462e+04 3.682e-09
 93.33822     57.8 1.485e+04 4.142e-09
 93.35785     57.7 1.515e+04 4.636e-09
 93.37506     57.4 1.551e+04 4.922e-09
 93.38483     56.9 1.572e+04 5.104e-09
 93.39212     56.5 1.574e+04 5.032e-09
 93.40194     56.2 1.577e+04 4.967e-09
 93.41176     55.4 1.589e+04 4.869e-09
 93.42158     54.4 1.608e+04 4.895e-09
 93.43140     52.4 1.680e+04 5.197e-09
 93.44122     49.9 1.774e+04 5.861e-09
 93.45016     47.3 1.842e+04 6.670e-09
 93.45507     46.3 1.840e+04 6.894e-09
 93.46086     44.6 1.791e+04 7.504e-09
 93.47068     43.4 1.747e+04 8.052e-09
 93.48050     42.8 1.718e+04 8.498e-09
 93.48906     42.4 1.702e+04 8.879e-09
 93.49397     42.3 1.752e+04 1.086e-08
 93.50014     42.0 1.740e+04 1.047e-08
 93.50996     42.0 1.718e+04 9.676e-09
 93.51978     42.0 1.696e+04 8.601e-09
 93.52960     41.8 1.692e+04 7.411e-09
 93.53941     41.1 1.692e+04 6.306e-09
 93.54923     39.4 1.693e+04 5.437e-09
 93.55905     37.5 1.672e+04 4.745e-09
 93.56887     35.1 1.675e+04 4.650e-09
 93.57869     32.9 1.691e+04 4.779e-09
 93.58851     29.4 1.796e+04 5.744e-09
 93.59826     26.3 1.899e+04 7.422e-09
 93.60317     24.2 1.989e+04 1.017e-08
 93.60815     22.6 1.970e+04 1.242e-08
 93.61797     22.5 1.944e+04 1.494e-08
 93.62645     23.0 1.928e+04 1.708e-08
 93.63136     23.0 1.917e+04 1.588e-08
 93.63761     23.1 1.926e+04 1.689e-08
 93.64743     23.5 1.902e+04 1.594e-08
 93.65725     23.4 1.889e+04 1.474e-08
 93.67202     23.5 1.844e+04 1.192e-08
 93.69171     22.6 1.707e+04 7.131e-09
 93.71135     20.4 1.539e+04 3.995e-09
 93.73099     18.2 1.368e+04 2.469e-09
 93.75063     17.6 1.260e+04 1.778e-09
 93.77027     18.0 1.204e+04 1.429e-09
 93.78991     18.9 1.162e+04 1.178e-09
 93.80284     20.0 1.128e+04 9.811e-10
 93.81266     20.2 1.130e+04 9.735e-10
 93.82166     21.1 1.103e+04 7.961e-10
 93.83147     21.0 1.075e+04 7.407e-10
 93.84882     22.4 1.038e+04 5.994e-10
 93.86846     23.7 1.004e+04 4.581e-10
 93.88810     24.3 1.006e+04 4.126e-10
 93.91765     25.7 9.764e+03 3.300e-10
 93.95703     28.0 9.358e+03 2.473e-10
 93.99631     30.5 9.052e+03 1.928e-10
 94.03042     32.9 8.824e+03 1.584e-10
 94.05006     33.2 8.790e+03 1.520e-10
 94.07486     35.6 8.631e+03 1.448e-10
 94.11414     38.3 8.625e+03 1.470e-10
 94.14579     40.8 8.639e+03 1.580e-10
 94.16543     40.6 8.561e+03 1.468e-10
 94.19269     43.1 8.599e+03 1.638e-10
 94.23197     45.6 8.646e+03 1.838e-10
 94.27125     48.2 8.703e+03 2.031e-10
 94.31053     50.6 8.748e+03 2.165e-10
 94.34980     53.0 8.736e+03 2.169e-10
 94.38908     55.2 8.716e+03 2.117e-10
 94.42836     57.4 8.701e+03 2.027e-10
 94.46720     59.4 8.708e+03 1.958e-10
 94.48684     59.5 8.429e+03 1.439e-10
 94.50691     61.4 8.424e+03 1.399e-10
 94.54619     63.2 8.447e+03 1.412e-10
 94.58547     64.8 8.555e+03 1.527e-10
 94.62475     66.1 8.770e+03 1.860e-10
 94.66402     67.3 9.071e+03 2.432e-10
 94.70330     68.2 9.399e+03 3.146e-10
 94.74258     68.9 9.668e+03 3.834e-10
 94.78186     69.1 9.829e+03 4.327e-10
 94.81122     69.0 9.890e+03 4.612e-10
 94.83076     69.2 9.917e+03 4.778e-10
 94.85040     69.6 9.935e+03 4.751e-10
 94.86058     69.9 9.932e+03 4.709e-10
 94.87050     69.6 9.931e+03 4.480e-10
 94.89969     70.3 9.927e+03 4.067e-10
 94.92362     70.7 9.813e+03 3.345e-10
 94.94325     69.8 9.885e+03 3.484e-10
 94.97824     69.8 9.729e+03 2.946e-10
 95.01752     70.0 9.709e+03 2.927e-10
 95.05680     70.1 9.781e+03 3.112e-10
 95.09607     70.3 9.949e+03 3.570e-10
 95.13535     70.7 1.009e+04 4.031e-10
 95.17463     71.4 1.021e+04 4.203e-10
 95.21391     72.0 1.027e+04 4.159e-10
 95.25318     72.4 1.029e+04 3.886e-10
 95.29246     72.9 1.017e+04 3.442e-10
 95.33174     73.5 1.002e+04 3.182e-10
 95.36039     74.3 1.001e+04 3.209e-10
 95.38003     73.0 9.998e+03 3.467e-10
 95.41029     74.0 1.001e+04 3.528e-10
 95.44957     75.3 1.008e+04 3.701e-10
 95.48885     76.4 1.014e+04 3.904e-10
 95.51821     77.8 1.026e+04 4.141e-10
 95.53775     78.3 1.036e+04 4.373e-10
 95.55592     79.0 1.062e+04 4.979e-10
 95.56574     79.4 1.035e+04 4.254e-10
 95.57703     79.9 1.049e+04 4.561e-10
 95.60658     81.0 1.019e+04 4.027e-10
 95.64596     81.3 1.027e+04 4.181e-10
 95.68524     81.5 1.040e+04 4.466e-10
 95.72451     81.7 1.056e+04 5.045e-10
 95.76379     82.2 1.068e+04 5.749e-10
 95.79717     82.9 1.074e+04 6.251e-10
 95.81681     83.3 1.053e+04 5.260e-10
 95.84234     84.2 1.060e+04 5.674e-10
 95.88162     85.4 1.047e+04 5.236e-10
 95.92090     86.8 1.009e+04 3.923e-10
 95.96018     88.4 9.518e+03 2.361e-10
 95.99945     89.9 8.873e+03 1.230e-10
 96.03873     91.3 8.353e+03 6.733e-11
 96.07801     92.8 8.121e+03 4.536e-11
 96.11729     94.6 8.030e+03 3.896e-11
 96.15656     97.0 8.009e+03 3.852e-11
 96.19584     99.5 8.010e+03 3.863e-11
 96.23395    102.1 8.028e+03 3.928e-11
 96.25359    101.2 8.236e+03 5.414e-11
 96.26128    103.6 8.386e+03 6.349e-11
 96.28092    103.2 8.511e+03 7.180e-11
 96.31367    105.6 8.711e+03 9.857e-11
 96.35295    108.0 8.939e+03 1.421e-10
 96.39223    110.5 9.209e+03 2.070e-10
 96.43151    113.0 9.516e+03 2.926e-10
 96.47078    115.6 9.815e+03 3.805e-10
 96.51006    118.0 1.005e+04 4.435e-10
 96.54934    120.1 1.013e+04 4.531e-10
 96.58862    122.1 1.012e+04 4.441e-10
 96.62789    123.9 1.004e+04 4.018e-10
 96.66717    125.5 9.854e+03 3.260e-10
 96.69037    126.8 9.628e+03 2.661e-10
 96.71001    125.5 9.466e+03 2.297e-10
 96.74572    126.9 9.374e+03 2.253e-10
 96.78500    128.3 9.403e+03 2.334e-10
 96.82428    129.7 9.527e+03 2.605e-10
 96.86356    130.9 9.790e+03 3.086e-10
 96.90283    131.9 1.013e+04 3.816e-10
 96.93219    131.2 1.041e+04 4.658e-10
 96.95174    131.0 1.071e+04 5.901e-10
 96.96625    131.1 1.102e+04 7.558e-10
 96.97607    129.8 1.120e+04 8.743e-10
 96.99101    130.3 1.142e+04 1.028e-09
 97.01065    130.7 1.153e+04 1.103e-09
 97.03029    131.1 1.148e+04 1.093e-09
 97.04993    131.5 1.129e+04 9.936e-10
 97.06957    132.0 1.097e+04 8.021e-10
 97.08921    132.4 1.060e+04 5.823e-10
 97.10885    132.4 1.025e+04 4.332e-10
 97.12705    132.7 9.891e+03 3.197e-10
 97.14678    130.6 9.906e+03 3.440e-10
 97.17778    131.4 9.566e+03 3.008e-10
 97.21705    132.6 9.410e+03 3.001e-10
 97.25633    134.0 9.405e+03 3.030e-10
 97.29561    135.4 9.455e+03 3.158e-10
 97.33489    136.5 9.729e+03 3.371e-10
 97.37416    136.8 1.018e+04 3.551e-10
 97.41344    136.4 1.026e+04 3.536e-10
 97.44280    135.5 1.023e+04 3.499e-10
 97.46234    134.7 1.023e+04 3.578e-10
 97.48198    133.2 1.031e+04 4.023e-10
 97.50162    130.4 1.085e+04 5.719e-10
 97.52126    127.0 1.211e+04 1.008e-09
 97.54090    124.2 1.331e+04 1.836e-09
 97.56054    122.5 1.419e+04 2.897e-09
 97.57355    121.1 1.485e+04 3.384e-09
 97.58337    119.5 1.487e+04 3.386e-09
 97.59981    117.2 1.497e+04 3.260e-09
 97.61945    113.9 1.528e+04 2.547e-09
 97.63909    108.5 1.509e+04 1.702e-09
 97.65873    100.3 1.408e+04 1.582e-09
 97.67141     91.4 1.484e+04 2.030e-09
 97.68123     86.9 1.665e+04 3.469e-09
 97.69801     81.2 1.815e+04 6.596e-09
 97.71765     77.0 1.925e+04 9.789e-09
 97.73728     72.3 1.985e+04 9.659e-09
 97.75196     70.3 1.991e+04 9.421e-09
 97.76173     68.1 1.995e+04 8.427e-09
 97.77155     64.4 1.954e+04 5.937e-09
 97.78137     62.0 1.862e+04 4.824e-09
 97.79189     56.8 1.672e+04 2.916e-09
 97.80176     56.9 1.737e+04 3.487e-09
 97.81584     50.1 1.453e+04 2.003e-09
 97.83548     44.4 1.300e+04 1.514e-09
 97.85512     40.3 1.314e+04 1.522e-09
 97.87475     36.7 1.325e+04 1.614e-09
 97.89439     33.5 1.329e+04 1.737e-09
 97.91403     30.4 1.355e+04 1.896e-09
 97.93367     27.1 1.382e+04 1.948e-09
 97.95331     23.0 1.391e+04 1.886e-09
 97.97295     18.4 1.378e+04 1.659e-09
 97.99259     13.0 1.366e+04 1.536e-09
 98.01033      6.5 1.408e+04 1.648e-09
 98.02014      5.0 1.412e+04 1.550e-09
 98.02399     -3.6 1.549e+04 2.289e-09
 98.03381     -5.7 1.495e+04 2.142e-09
 98.05150    -10.6 1.491e+04 2.516e-09
 98.07114    -13.6 1.445e+04 2.469e-09
 98.09078    -15.5 1.393e+04 2.017e-09
 98.11042    -18.1 1.352e+04 1.370e-09
 98.13006    -22.3 1.268e+04 8.518e-10
 98.14970    -27.0 1.194e+04 6.145e-10
 98.16934    -30.6 1.181e+04 5.749e-10
 98.18897    -34.0 1.225e+04 6.745e-10
 98.20861    -37.0 1.269e+04 9.000e-10
 98.22825    -39.2 1.320e+04 1.188e-09
 98.23853    -40.8 1.382e+04 1.498e-09
 98.24835    -41.7 1.409e+04 1.601e-09
 98.26753    -43.5 1.457e+04 1.833e-09
 98.28717    -45.7 1.468e+04 1.887e-09
 98.30681    -48.1 1.453e+04 1.791e-09
 98.32644    -50.5 1.436e+04 1.614e-09
 98.34608    -53.4 1.409e+04 1.405e-09
 98.36572    -56.4 1.383e+04 1.259e-09
 98.37657    -59.7 1.376e+04 1.217e-09
 98.38639    -58.4 1.404e+04 1.391e-09
 98.40500    -63.4 1.463e+04 1.429e-09
 98.42464    -72.3 1.731e+04 2.425e-09
 98.44428    -80.9 1.889e+04 5.217e-09
 98.45692    -87.0 1.950e+04 8.266e-09
 98.46674    -88.9 2.018e+04 9.198e-09
 98.48355    -93.5 2.037e+04 1.014e-08
 98.50319    -97.4 2.010e+04 8.302e-09
 98.52283   -102.0 1.835e+04 3.313e-09
 98.54247   -108.7 1.448e+04 9.598e-10
 98.56211   -112.7 1.208e+04 4.893e-10
 98.58175   -113.6 1.144e+04 3.805e-10
 98.60139   -113.9 1.141e+04 3.197e-10
 98.62103   -114.5 1.146e+04 2.719e-10
 98.64066   -116.3 1.156e+04 2.589e-10
 98.67022   -120.2 1.234e+04 3.381e-10
 98.70959   -123.5 1.391e+04 7.114e-10
 98.73896   -125.5 1.473e+04 1.662e-09
 98.75850   -125.8 1.481e+04 1.982e-09
 98.77813   -126.0 1.475e+04 2.130e-09
 98.79777   -126.1 1.475e+04 2.195e-09
 98.81741   -126.2 1.477e+04 2.220e-09
 98.83705   -126.5 1.487e+04 2.310e-09
 98.85669   -126.8 1.499e+04 2.412e-09
 98.87633   -127.0 1.506e+04 2.468e-09
 98.89370   -127.2 1.506e+04 2.525e-09
 98.90352   -127.7 1.478e+04 2.328e-09
 98.91561   -127.8 1.462e+04 2.249e-09
 98.93524   -127.6 1.435e+04 2.099e-09
 98.95488   -127.2 1.400e+04 1.875e-09
 98.97452   -126.6 1.358e+04 1.594e-09
 98.99416   -125.9 1.307e+04 1.283e-09
 99.01380   -125.2 1.250e+04 9.837e-10
 99.03344   -124.3 1.192e+04 7.330e-10
 99.05308   -123.4 1.144e+04 5.457e-10
 99.07192   -122.5 1.112e+04 4.239e-10
 99.08174   -122.3 1.101e+04 3.795e-10
 99.10227   -121.5 1.101e+04 3.320e-10
 99.14165   -120.6 1.088e+04 3.000e-10
 99.18092   -118.8 1.055e+04 2.552e-10
 99.22020   -116.4 1.029e+04 2.183e-10
 99.25948   -114.1 1.012e+04 1.921e-10
 99.29876   -111.9 1.005e+04 1.767e-10
 99.33067   -109.6 9.990e+03 1.664e-10
 99.35031   -109.3 9.885e+03 1.581e-10
 99.37731   -106.9 9.820e+03 1.504e-10
 99.41659   -104.5 9.741e+03 1.426e-10
 99.45587   -102.1 9.668e+03 1.357e-10
 99.49514    -99.6 9.611e+03 1.313e-10
 99.53442    -97.2 9.580e+03 1.300e-10
 99.57370    -94.8 9.572e+03 1.300e-10
 99.61297    -92.4 9.592e+03 1.319e-10
 99.65225    -90.1 9.605e+03 1.333e-10
 99.69153    -87.9 9.606e+03 1.346e-10
 99.73081    -85.7 9.650e+03 1.390e-10
 99.76745    -83.7 9.747e+03 1.477e-10
 99.78709    -83.3 9.717e+03 1.364e-10
 99.80936    -81.4 9.885e+03 1.507e-10
 99.84864    -79.7 1.007e+04 1.822e-10
 99.88792    -78.1 1.031e+04 2.363e-10
 99.92719    -76.7 1.061e+04 3.133e-10
 99.95655    -75.8 1.082e+04 3.892e-10
 99.97610    -75.4 1.089e+04 4.533e-10
 99.99547    -74.5 1.107e+04 5.723e-10
