# Columns:
#   distance along LOS (in CHIMPs)
#   peculiar velocity  (in km/s)
#   temperature (K)
#   HI number density
# pos=(48.5543,214.867,178.555), angles=(1.66716,1.37327)
  0.01088    183.9 1.067e+04 7.792e-10
  0.04177    186.0 1.092e+04 9.100e-10
  0.07584    187.8 1.114e+04 1.016e-09
  0.09585    188.3 1.120e+04 1.020e-09
  0.12182    189.9 1.123e+04 1.031e-09
  0.14938    191.3 1.119e+04 1.003e-09
  0.16939    191.7 1.118e+04 1.007e-09
  0.20187    193.1 1.109e+04 9.536e-10
  0.24189    194.5 1.084e+04 8.377e-10
  0.28191    196.0 1.049e+04 6.873e-10
  0.32193    197.7 1.010e+04 5.362e-10
  0.34942    199.4 9.721e+03 4.066e-10
  0.36943    199.7 9.780e+03 4.514e-10
  0.40198    201.4 9.527e+03 3.741e-10
  0.44200    203.2 9.315e+03 3.081e-10
  0.47894    204.9 9.151e+03 2.559e-10
  0.49895    206.0 9.226e+03 2.741e-10
  0.52205    207.7 9.160e+03 2.439e-10
  0.54946    209.3 9.121e+03 2.194e-10
  0.56948    209.5 9.354e+03 2.842e-10
  0.60209    210.9 9.356e+03 2.664e-10
  0.64212    212.2 9.355e+03 2.493e-10
  0.68214    213.3 9.344e+03 2.345e-10
  0.72216    214.3 9.340e+03 2.228e-10
  0.74951    215.4 9.347e+03 2.130e-10
  0.76952    215.2 9.577e+03 2.723e-10
  0.80221    216.2 9.530e+03 2.477e-10
  0.84223    217.2 9.493e+03 2.270e-10
  0.88205    218.2 9.465e+03 2.074e-10
  0.90206    218.8 9.388e+03 1.876e-10
  0.92228    219.8 9.387e+03 1.737e-10
  0.94955    220.8 9.370e+03 1.553e-10
  0.96957    220.4 9.326e+03 1.625e-10
  1.00232    221.4 9.250e+03 1.348e-10
  1.04235    222.5 9.183e+03 1.066e-10
  1.08237    223.6 9.133e+03 8.141e-11
  1.12239    224.7 9.092e+03 6.349e-11
  1.14960    225.8 9.056e+03 5.760e-11
  1.16961    226.0 9.073e+03 6.340e-11
  1.20244    227.2 9.085e+03 6.266e-11
  1.24246    228.5 9.095e+03 6.295e-11
  1.28248    229.7 9.142e+03 6.469e-11
  1.30516    230.9 9.208e+03 6.799e-11
  1.32517    230.9 9.278e+03 7.544e-11
  1.34964    231.9 9.334e+03 7.963e-11
  1.36965    232.0 9.422e+03 9.075e-11
  1.40255    233.0 9.475e+03 9.671e-11
  1.44257    234.0 9.511e+03 1.029e-10
  1.48260    235.1 9.546e+03 1.098e-10
  1.52262    236.2 9.603e+03 1.200e-10
  1.54969    237.3 9.705e+03 1.380e-10
  1.56970    237.2 1.002e+04 1.990e-10
  1.60267    238.3 1.038e+04 2.630e-10
  1.64269    239.1 1.087e+04 3.803e-10
  1.68271    239.7 1.148e+04 5.824e-10
  1.70827    239.7 1.203e+04 8.699e-10
  1.72828    239.3 1.242e+04 1.023e-09
  1.74973    239.3 1.272e+04 1.213e-09
  1.75964    238.7 1.259e+04 1.141e-09
  1.77257    238.6 1.261e+04 1.144e-09
  1.79258    238.2 1.260e+04 1.134e-09
  1.81259    238.0 1.258e+04 1.122e-09
  1.83260    237.7 1.250e+04 1.064e-09
  1.84956    237.5 1.240e+04 1.012e-09
  1.85956    237.6 1.235e+04 9.815e-10
  1.87262    237.5 1.220e+04 9.080e-10
  1.89264    237.5 1.200e+04 8.190e-10
  1.90962    237.5 1.179e+04 7.320e-10
  1.91963    237.5 1.177e+04 7.175e-10
  1.93266    237.6 1.159e+04 6.561e-10
  1.94958    237.8 1.137e+04 5.852e-10
  1.95959    238.2 1.138e+04 5.811e-10
  1.97268    238.6 1.117e+04 5.236e-10
  1.99269    238.9 1.099e+04 4.780e-10
  2.01270    239.6 1.082e+04 4.353e-10
  2.04282    240.8 1.071e+04 4.006e-10
  2.08294    242.4 1.052e+04 3.614e-10
  2.11137    244.3 1.031e+04 3.182e-10
  2.13138    244.0 1.083e+04 4.328e-10
  2.14982    245.9 1.070e+04 4.029e-10
  2.16983    246.5 1.102e+04 4.786e-10
  2.20301    248.6 1.091e+04 4.525e-10
  2.24303    250.6 1.082e+04 4.252e-10
  2.28305    252.7 1.071e+04 3.951e-10
  2.32308    254.8 1.060e+04 3.623e-10
  2.34987    257.0 1.048e+04 3.282e-10
  2.36988    257.5 1.069e+04 3.357e-10
  2.40312    259.7 1.050e+04 2.969e-10
  2.44315    261.9 1.032e+04 2.631e-10
  2.48317    264.2 1.016e+04 2.385e-10
  2.51448    266.5 9.986e+03 2.271e-10
  2.53449    266.0 1.018e+04 2.285e-10
  2.54991    268.5 1.017e+04 2.297e-10
  2.56992    269.1 1.026e+04 2.248e-10
  2.60324    271.7 1.026e+04 2.297e-10
  2.64326    274.2 1.030e+04 2.438e-10
  2.68328    276.6 1.042e+04 2.669e-10
  2.72331    278.8 1.059e+04 2.971e-10
  2.74995    280.7 1.076e+04 3.278e-10
  2.76997    281.1 1.085e+04 3.162e-10
  2.80335    282.5 1.093e+04 3.381e-10
  2.84337    283.8 1.089e+04 3.500e-10
  2.87329    285.1 1.084e+04 3.616e-10
  2.89321    287.2 1.089e+04 3.962e-10
  2.91322    289.0 1.110e+04 4.604e-10
  2.92739    290.4 1.136e+04 5.429e-10
  2.93740    290.3 1.169e+04 6.232e-10
  2.94980    291.2 1.191e+04 7.071e-10
  2.95981    291.2 1.179e+04 6.562e-10
  2.97325    292.1 1.201e+04 7.443e-10
  2.99326    293.0 1.222e+04 8.356e-10
  3.01328    293.7 1.244e+04 9.347e-10
  3.03329    294.2 1.267e+04 1.051e-09
  3.04983    294.4 1.294e+04 1.191e-09
  3.05983    294.3 1.301e+04 1.183e-09
  3.07331    294.3 1.333e+04 1.350e-09
  3.09332    294.1 1.371e+04 1.562e-09
  3.11333    293.7 1.413e+04 1.830e-09
  3.12894    293.1 1.456e+04 2.147e-09
  3.13895    292.3 1.510e+04 2.481e-09
  3.14985    291.7 1.540e+04 2.809e-09
  3.15985    291.6 1.521e+04 2.724e-09
  3.17337    290.9 1.523e+04 2.762e-09
  3.19338    290.2 1.519e+04 2.722e-09
  3.21339    289.4 1.509e+04 2.594e-09
  3.23340    288.5 1.497e+04 2.424e-09
  3.24987    287.5 1.483e+04 2.238e-09
  3.25988    287.5 1.446e+04 1.901e-09
  3.27342    286.4 1.434e+04 1.751e-09
  3.29344    285.3 1.415e+04 1.587e-09
  3.31345    284.1 1.386e+04 1.400e-09
  3.33049    282.9 1.346e+04 1.195e-09
  3.34050    282.5 1.321e+04 1.109e-09
  3.34989    281.2 1.284e+04 9.564e-10
  3.35990    281.7 1.285e+04 9.870e-10
  3.37348    280.3 1.249e+04 8.799e-10
  3.39349    278.9 1.236e+04 8.653e-10
  3.41350    277.5 1.237e+04 8.729e-10
  3.43352    275.9 1.247e+04 9.264e-10
  3.44992    274.1 1.279e+04 1.080e-09
  3.45992    274.3 1.298e+04 1.181e-09
  3.47354    272.3 1.351e+04 1.483e-09
  3.49355    270.3 1.406e+04 1.859e-09
  3.51356    268.4 1.450e+04 2.229e-09
  3.53205    266.4 1.481e+04 2.507e-09
  3.54205    265.6 1.517e+04 2.811e-09
  3.54994    263.6 1.530e+04 2.880e-09
  3.55994    263.5 1.534e+04 2.868e-09
  3.57360    261.3 1.532e+04 2.812e-09
  3.59361    258.8 1.535e+04 2.760e-09
  3.61362    256.2 1.535e+04 2.688e-09
  3.63363    253.5 1.527e+04 2.566e-09
  3.64996    250.8 1.505e+04 2.338e-09
  3.65997    250.4 1.454e+04 1.901e-09
  3.67365    247.8 1.415e+04 1.622e-09
  3.69366    245.3 1.362e+04 1.276e-09
  3.71368    242.8 1.303e+04 9.562e-10
  3.73360    240.2 1.244e+04 7.712e-10
  3.74989    238.4 1.198e+04 6.634e-10
  3.75999    239.0 1.182e+04 6.137e-10
  3.77371    237.4 1.180e+04 6.164e-10
  3.79372    236.4 1.181e+04 6.460e-10
  3.81373    236.0 1.199e+04 7.492e-10
  3.83374    236.0 1.232e+04 9.241e-10
  3.85000    236.2 1.269e+04 1.150e-09
  3.86001    236.2 1.243e+04 9.588e-10
  3.87377    236.0 1.298e+04 1.220e-09
  3.89378    235.2 1.395e+04 1.731e-09
  3.91379    233.8 1.524e+04 2.559e-09
  3.93380    231.7 1.698e+04 4.170e-09
  3.94516    230.0 1.871e+04 7.156e-09
  3.95011    229.0 1.901e+04 7.304e-09
  3.95493    228.4 1.975e+04 9.340e-09
  3.95994    225.9 2.114e+04 1.208e-08
  3.96872    224.7 2.216e+04 1.556e-08
  3.97873    224.0 2.282e+04 1.774e-08
  3.98873    222.6 2.334e+04 1.889e-08
  3.99874    221.8 2.346e+04 1.894e-08
  4.01380    218.9 2.364e+04 1.823e-08
  4.03386    216.6 2.315e+04 1.289e-08
  4.05005    214.4 2.188e+04 7.143e-09
  4.06005    207.7 2.056e+04 4.043e-09
  4.07388    204.0 1.727e+04 1.978e-09
  4.09389    200.8 1.422e+04 1.152e-09
  4.11390    198.9 1.295e+04 7.419e-10
  4.13392    197.7 1.253e+04 4.902e-10
  4.14671    196.4 1.195e+04 3.416e-10
  4.15286    195.0 1.283e+04 5.060e-10
  4.16008    193.4 1.347e+04 6.791e-10
  4.17394    192.1 1.279e+04 5.690e-10
  4.19395    191.2 1.254e+04 5.613e-10
  4.21396    190.7 1.254e+04 5.671e-10
  4.23397    190.4 1.262e+04 6.098e-10
  4.25009    190.1 1.301e+04 7.594e-10
  4.26010    189.9 1.350e+04 9.305e-10
  4.27400    189.8 1.412e+04 1.224e-09
  4.29401    189.9 1.495e+04 1.709e-09
  4.31402    190.0 1.596e+04 2.421e-09
  4.33403    190.0 1.701e+04 3.354e-09
  4.34826    189.8 1.789e+04 4.316e-09
  4.35434    189.3 1.782e+04 4.088e-09
  4.36012    188.4 1.643e+04 3.177e-09
  4.37405    187.4 1.639e+04 3.073e-09
  4.39406    186.2 1.614e+04 2.700e-09
  4.41408    184.5 1.550e+04 2.144e-09
  4.43409    182.2 1.454e+04 1.574e-09
  4.45014    179.5 1.332e+04 1.094e-09
  4.46014    179.1 1.285e+04 8.939e-10
  4.47411    176.5 1.234e+04 7.092e-10
  4.49412    174.1 1.198e+04 6.304e-10
  4.51413    172.4 1.213e+04 6.419e-10
  4.53414    170.2 1.342e+04 7.260e-10
  4.54981    166.7 1.697e+04 1.124e-09
  4.55582    168.5 1.673e+04 1.144e-09
  4.56017    172.7 1.231e+04 6.558e-10
  4.57417    170.3 1.474e+04 8.784e-10
  4.59418    166.7 1.845e+04 1.746e-09
  4.61419    163.2 2.022e+04 3.987e-09
  4.63420    160.6 2.100e+04 7.665e-09
  4.65018    159.0 2.176e+04 1.153e-08
  4.66019    162.6 1.971e+04 5.776e-09
  4.67422    161.0 2.062e+04 9.152e-09
  4.69424    159.9 2.232e+04 9.988e-09
  4.71425    158.6 2.264e+04 9.621e-09
  4.73426    157.1 2.310e+04 8.249e-09
  4.75021    155.3 2.266e+04 6.042e-09
  4.75730    159.9 2.201e+04 7.475e-09
  4.76137    161.3 2.235e+04 8.420e-09
  4.77428    159.6 2.301e+04 6.340e-09
  4.79429    157.4 2.215e+04 4.286e-09
  4.81430    155.0 1.970e+04 2.992e-09
  4.83432    153.0 1.728e+04 2.329e-09
  4.85023    151.6 1.596e+04 1.856e-09
  4.86023    155.2 1.790e+04 2.076e-09
  4.87434    153.1 1.592e+04 1.606e-09
  4.89435    151.5 1.486e+04 1.346e-09
  4.91436    150.3 1.452e+04 1.191e-09
  4.93437    149.1 1.462e+04 1.136e-09
  4.95025    147.8 1.467e+04 1.143e-09
  4.95879    149.5 1.478e+04 1.265e-09
  4.96292    150.0 1.483e+04 1.263e-09
  4.97440    148.3 1.529e+04 1.426e-09
  4.99441    146.4 1.592e+04 1.681e-09
  5.01442    144.4 1.640e+04 1.956e-09
  5.03443    142.6 1.662e+04 2.170e-09
  5.05027    140.9 1.671e+04 2.305e-09
  5.06028    142.4 1.806e+04 3.760e-09
  5.07445    140.2 1.841e+04 4.210e-09
  5.09446    136.5 1.973e+04 5.074e-09
  5.11448    131.7 2.151e+04 6.669e-09
  5.12944    129.4 2.232e+04 8.697e-09
  5.13939    127.8 2.271e+04 1.050e-08
  5.14940    126.4 2.307e+04 1.263e-08
  5.15520    125.2 2.345e+04 1.539e-08
  5.16017    126.4 2.405e+04 1.506e-08
  5.16938    124.3 2.490e+04 2.088e-08
  5.17941    122.9 2.494e+04 2.417e-08
  5.18942    121.6 2.478e+04 2.446e-08
  5.19943    120.9 2.419e+04 2.391e-08
  5.20521    120.3 2.370e+04 2.240e-08
  5.21021    121.1 2.453e+04 2.258e-08
  5.21944    119.0 2.539e+04 2.267e-08
  5.22944    114.5 3.146e+04 2.274e-08
  5.23692    110.8 3.612e+04 2.513e-08
  5.24190    103.2 4.690e+04 3.105e-08
  5.24690     91.9 4.673e+04 9.159e-08
  5.25191     83.0 3.200e+04 6.591e-07
  5.25517     76.2 2.377e+04 2.415e-06
  5.25767     80.8 2.538e+04 1.954e-06
  5.26191     75.0 2.135e+04 3.872e-06
  5.26510     71.0 2.130e+04 3.098e-06
  5.26760     65.3 2.474e+04 1.066e-06
  5.27192     62.7 3.383e+04 2.527e-07
  5.27692     59.5 4.890e+04 4.168e-08
  5.28018     57.8 5.054e+04 3.013e-08
  5.28268     59.4 5.388e+04 3.126e-08
  5.28945     53.8 6.295e+04 1.059e-08
  5.29948     44.9 6.407e+04 3.880e-09
  5.30523     31.6 4.049e+04 2.868e-09
  5.31024     37.9 6.131e+04 3.068e-09
  5.31949     24.7 3.040e+04 3.057e-09
  5.32950     19.6 2.310e+04 3.619e-09
  5.33951     18.5 2.432e+04 4.163e-09
  5.34951     16.6 2.501e+04 5.700e-09
  5.35524     15.8 2.559e+04 6.818e-09
  5.36025     14.3 2.572e+04 8.603e-09
  5.36593     13.3 2.539e+04 1.145e-08
  5.37093     10.2 2.368e+04 1.187e-08
  5.37953      9.8 2.416e+04 1.388e-08
  5.38953      9.1 2.371e+04 1.826e-08
  5.39954      9.0 2.391e+04 2.164e-08
  5.40526      8.9 2.337e+04 2.701e-08
  5.41026      8.2 2.381e+04 3.306e-08
  5.41955      7.9 2.384e+04 3.501e-08
  5.42956      7.7 2.431e+04 3.749e-08
  5.43956      7.2 2.471e+04 3.931e-08
  5.44957      6.4 2.530e+04 3.891e-08
  5.45527      5.5 2.580e+04 3.556e-08
  5.46027      3.8 2.632e+04 3.012e-08
  5.46670      2.3 2.712e+04 2.597e-08
  5.47171     -0.5 2.657e+04 1.575e-08
  5.47959     -1.4 2.600e+04 1.384e-08
  5.48959     -2.4 2.537e+04 1.192e-08
  5.49960     -2.8 2.466e+04 1.078e-08
  5.50528     -4.1 2.378e+04 9.491e-09
  5.51028     -5.7 2.326e+04 8.665e-09
  5.51961     -6.5 2.240e+04 8.009e-09
  5.52961     -7.0 2.206e+04 7.861e-09
  5.53962     -7.1 2.221e+04 8.161e-09
  5.54963     -7.5 2.285e+04 8.954e-09
  5.55529     -7.3 2.309e+04 9.144e-09
  5.56034     -7.4 2.374e+04 1.006e-08
  5.56758     -7.3 2.396e+04 1.130e-08
  5.57758    -10.8 2.153e+04 9.737e-09
  5.59475    -10.8 2.117e+04 1.142e-08
  5.61476    -10.1 2.113e+04 1.273e-08
  5.63477     -8.7 2.115e+04 1.347e-08
  5.65041     -7.4 2.116e+04 1.366e-08
  5.66041     -8.0 2.110e+04 1.274e-08
  5.67480     -7.0 2.101e+04 1.112e-08
  5.69481     -6.5 2.079e+04 9.177e-09
  5.71482     -6.6 2.052e+04 8.196e-09
  5.73483     -7.5 2.060e+04 8.217e-09
  5.75043     -8.8 2.080e+04 9.369e-09
  5.76043     -9.6 2.056e+04 9.183e-09
  5.76913    -10.0 2.117e+04 1.230e-08
  5.77914    -11.5 2.137e+04 1.355e-08
  5.79486    -10.6 2.177e+04 1.924e-08
  5.81488     -9.9 2.217e+04 2.373e-08
  5.83489    -10.6 2.176e+04 2.340e-08
  5.85045     -9.2 2.106e+04 1.632e-08
  5.86046     -9.6 2.112e+04 1.485e-08
  5.87491     -9.1 2.070e+04 9.372e-09
  5.89492    -10.6 1.946e+04 5.887e-09
  5.91493    -13.4 1.734e+04 3.771e-09
  5.93494    -14.7 1.650e+04 3.206e-09
  5.95047    -15.8 1.618e+04 2.994e-09
  5.96048    -16.3 1.605e+04 2.865e-09
  5.97068    -16.6 1.608e+04 2.897e-09
  5.98069    -18.2 1.603e+04 3.133e-09
  5.99498    -18.9 1.581e+04 3.221e-09
  6.01499    -19.0 1.611e+04 3.592e-09
  6.03500    -19.1 1.644e+04 3.801e-09
  6.05049    -21.3 1.660e+04 3.854e-09
  6.06050    -21.3 1.626e+04 3.558e-09
  6.07502    -24.1 1.645e+04 3.681e-09
  6.09504    -28.6 1.805e+04 4.972e-09
  6.11505    -34.0 1.939e+04 7.259e-09
  6.13506    -39.1 1.983e+04 9.268e-09
  6.15002    -43.3 1.954e+04 9.530e-09
  6.15542    -43.6 1.957e+04 9.544e-09
  6.16043    -43.7 1.994e+04 1.043e-08
  6.16998    -46.8 1.924e+04 9.854e-09
  6.17714    -48.1 1.897e+04 8.695e-09
  6.18214    -48.1 1.866e+04 8.252e-09
  6.18999    -50.3 1.826e+04 6.903e-09
  6.20000    -52.4 1.813e+04 5.866e-09
  6.20543    -54.9 1.766e+04 4.972e-09
  6.21044    -54.8 1.813e+04 5.658e-09
  6.22001    -57.0 1.767e+04 4.932e-09
  6.23507    -60.5 1.665e+04 3.967e-09
  6.25054    -65.0 1.564e+04 3.319e-09
  6.26055    -66.0 1.643e+04 4.209e-09
  6.27514    -68.3 1.613e+04 4.012e-09
  6.29515    -69.3 1.615e+04 4.029e-09
  6.31516    -70.1 1.627e+04 4.123e-09
  6.33517    -70.6 1.641e+04 4.176e-09
  6.35056    -71.0 1.669e+04 4.318e-09
  6.36057    -72.2 1.778e+04 5.665e-09
  6.37379    -72.6 1.806e+04 6.001e-09
  6.38379    -73.0 1.826e+04 6.165e-09
  6.39521    -73.4 1.828e+04 6.556e-09
  6.41522    -73.4 1.817e+04 6.969e-09
  6.43523    -72.6 1.809e+04 7.342e-09
  6.45058    -71.8 1.809e+04 7.530e-09
  6.46059    -72.1 1.844e+04 8.637e-09
  6.47525    -71.2 1.809e+04 7.657e-09
  6.49526    -70.5 1.756e+04 6.196e-09
  6.51528    -70.1 1.682e+04 4.781e-09
  6.53529    -69.9 1.590e+04 3.661e-09
  6.55061    -69.6 1.488e+04 2.863e-09
  6.56061    -69.5 1.494e+04 2.805e-09
  6.57531    -67.9 1.400e+04 2.224e-09
  6.59532    -66.7 1.329e+04 1.767e-09
  6.61533    -64.8 1.285e+04 1.435e-09
  6.63534    -63.4 1.249e+04 1.141e-09
  6.65063    -62.6 1.205e+04 8.835e-10
  6.66063    -62.7 1.212e+04 9.024e-10
  6.67537    -62.1 1.161e+04 7.227e-10
  6.69538    -61.4 1.122e+04 6.381e-10
  6.71539    -60.3 1.108e+04 6.184e-10
  6.73540    -59.0 1.106e+04 6.179e-10
  6.75065    -57.6 1.110e+04 6.437e-10
  6.76066    -57.2 1.145e+04 7.684e-10
  6.77542    -55.8 1.153e+04 7.952e-10
  6.78690    -54.6 1.162e+04 8.264e-10
  6.79690    -55.6 1.158e+04 9.432e-10
  6.81545    -54.4 1.161e+04 9.712e-10
  6.83546    -53.1 1.160e+04 9.886e-10
  6.85067    -51.8 1.159e+04 9.967e-10
  6.86068    -51.4 1.173e+04 1.087e-09
  6.87548    -50.0 1.165e+04 1.055e-09
  6.89549    -48.6 1.152e+04 9.975e-10
  6.91550    -47.2 1.133e+04 9.234e-10
  6.93552    -45.7 1.116e+04 8.426e-10
  6.95070    -44.5 1.103e+04 7.665e-10
  6.96070    -43.9 1.110e+04 7.835e-10
  6.97554    -42.9 1.103e+04 7.185e-10
  6.98845    -42.1 1.098e+04 6.805e-10
  6.99845    -43.4 1.099e+04 6.759e-10
  7.01556    -43.0 1.099e+04 6.661e-10
  7.03557    -42.9 1.111e+04 6.728e-10
  7.05072    -42.7 1.137e+04 7.244e-10
  7.06072    -42.4 1.169e+04 8.391e-10
  7.07560    -42.1 1.200e+04 9.591e-10
  7.09561    -41.8 1.226e+04 1.083e-09
  7.11562    -41.4 1.242e+04 1.177e-09
  7.13563    -40.9 1.245e+04 1.222e-09
  7.15074    -40.4 1.238e+04 1.215e-09
  7.16075    -39.4 1.276e+04 1.433e-09
  7.17565    -38.8 1.249e+04 1.297e-09
  7.19000    -38.5 1.214e+04 1.103e-09
  7.20001    -40.0 1.203e+04 1.052e-09
  7.21568    -40.1 1.149e+04 7.921e-10
  7.23569    -41.0 1.113e+04 6.144e-10
  7.25076    -42.8 1.113e+04 5.687e-10
  7.26077    -42.4 1.102e+04 5.471e-10
  7.27571    -45.7 1.165e+04 5.675e-10
  7.29572    -50.1 1.273e+04 8.310e-10
  7.31573    -52.9 1.322e+04 1.365e-09
  7.33574    -54.2 1.370e+04 2.064e-09
  7.35078    -56.0 1.514e+04 2.973e-09
  7.36079    -56.1 1.562e+04 3.362e-09
  7.37577    -60.9 1.858e+04 5.534e-09
  7.39073    -66.7 2.024e+04 7.791e-09
  7.39646    -67.5 2.045e+04 8.063e-09
  7.40151    -68.3 2.047e+04 8.354e-09
  7.41074    -73.4 2.088e+04 1.061e-08
  7.42069    -76.4 2.102e+04 1.122e-08
  7.43070    -80.7 2.048e+04 1.140e-08
  7.44071    -83.5 1.977e+04 1.062e-08
  7.45071    -86.4 1.898e+04 8.735e-09
  7.46071    -88.5 1.902e+04 7.924e-09
  7.47072    -91.6 1.849e+04 5.570e-09
  7.48073    -94.8 1.783e+04 4.050e-09
  7.49579    -98.3 1.681e+04 3.016e-09
  7.51585   -104.9 1.449e+04 1.710e-09
  7.53586   -109.8 1.250e+04 1.075e-09
  7.55083   -110.8 1.192e+04 9.316e-10
  7.56083   -111.2 1.218e+04 1.032e-09
  7.57588   -111.3 1.197e+04 9.698e-10
  7.59310   -111.3 1.183e+04 9.275e-10
  7.60311   -109.4 1.176e+04 9.206e-10
  7.61590   -109.3 1.163e+04 8.832e-10
  7.63592   -108.9 1.153e+04 8.481e-10
  7.65085   -108.4 1.142e+04 8.107e-10
  7.66086   -108.8 1.151e+04 8.368e-10
  7.67594   -108.2 1.139e+04 7.987e-10
  7.69595   -107.5 1.126e+04 7.565e-10
  7.71596   -106.8 1.109e+04 7.071e-10
  7.73597   -106.0 1.089e+04 6.518e-10
  7.75087   -105.2 1.066e+04 5.903e-10
  7.76088   -105.4 1.082e+04 6.477e-10
  7.77600   -104.5 1.060e+04 5.821e-10
  7.79466   -103.6 1.038e+04 5.164e-10
  7.80466   -102.9 1.028e+04 4.908e-10
  7.81602   -101.9 1.000e+04 4.175e-10
  7.83603   -100.9 9.786e+03 3.615e-10
  7.85090    -99.8 9.728e+03 3.333e-10
  7.86090   -100.5 9.827e+03 3.814e-10
  7.87605    -99.5 9.772e+03 3.572e-10
  7.89606    -98.7 9.835e+03 3.507e-10
  7.91608    -98.1 9.952e+03 3.520e-10
  7.93609    -97.7 9.999e+03 3.539e-10
  7.95092    -97.2 1.005e+04 3.588e-10
  7.96092    -97.1 9.957e+03 3.744e-10
  7.97611    -96.4 9.985e+03 3.699e-10
  7.99612    -95.7 1.004e+04 3.685e-10
  8.01613    -94.6 1.012e+04 3.557e-10
  8.03614    -93.9 1.018e+04 3.581e-10
  8.05094    -93.9 1.018e+04 3.583e-10
  8.06095    -93.3 1.017e+04 3.601e-10
  8.07617    -93.0 1.018e+04 3.639e-10
  8.09618    -92.7 1.018e+04 3.715e-10
  8.11619    -92.7 1.021e+04 4.201e-10
  8.13620    -92.6 1.056e+04 5.209e-10
  8.15096    -92.4 1.104e+04 6.872e-10
  8.16097    -91.2 1.106e+04 6.826e-10
  8.17622    -90.9 1.155e+04 9.118e-10
  8.19624    -90.2 1.203e+04 1.193e-09
  8.20777    -89.4 1.250e+04 1.495e-09
  8.21777    -89.4 1.214e+04 1.241e-09
  8.23626    -88.7 1.258e+04 1.514e-09
  8.25099    -88.1 1.298e+04 1.767e-09
  8.26099    -87.6 1.323e+04 1.911e-09
  8.27628    -87.1 1.356e+04 2.151e-09
  8.29629    -86.7 1.378e+04 2.295e-09
  8.31630    -86.3 1.390e+04 2.337e-09
  8.33631    -86.0 1.402e+04 2.371e-09
  8.35101    -85.7 1.411e+04 2.343e-09
  8.36101    -84.9 1.399e+04 2.219e-09
  8.37634    -84.7 1.397e+04 1.989e-09
  8.39635    -84.8 1.398e+04 1.737e-09
  8.40932    -85.3 1.408e+04 1.513e-09
  8.41932    -85.4 1.558e+04 3.165e-09
  8.43637    -86.3 1.638e+04 3.487e-09
  8.45103    -87.5 1.722e+04 3.828e-09
  8.46104    -88.1 1.715e+04 3.015e-09
  8.47639    -90.0 1.760e+04 3.093e-09
  8.49641    -91.9 1.770e+04 3.097e-09
  8.51642    -93.3 1.727e+04 3.004e-09
  8.53643    -94.5 1.657e+04 2.900e-09
  8.55105    -95.7 1.630e+04 3.039e-09
  8.56106    -96.5 1.598e+04 2.821e-09
  8.57645    -98.5 1.677e+04 3.580e-09
  8.59646   -100.8 1.783e+04 5.100e-09
  8.61087   -102.8 1.877e+04 7.604e-09
  8.62088   -104.6 1.936e+04 9.414e-09
  8.63649   -105.9 1.980e+04 1.188e-08
  8.65107   -107.1 2.012e+04 1.364e-08
  8.66108   -108.3 2.035e+04 1.368e-08
  8.67651   -110.1 2.045e+04 1.362e-08
  8.69652   -112.3 2.030e+04 1.117e-08
  8.71653   -115.6 1.970e+04 8.250e-09
  8.73654   -119.9 1.859e+04 6.354e-09
  8.75110   -123.8 1.734e+04 5.445e-09
  8.76110   -127.0 1.700e+04 5.418e-09
  8.77657   -128.5 1.629e+04 4.978e-09
  8.79658   -129.0 1.595e+04 4.665e-09
  8.81242   -128.9 1.578e+04 4.301e-09
  8.82243   -129.2 1.464e+04 2.883e-09
  8.83660   -129.1 1.422e+04 2.281e-09
  8.85112   -129.4 1.331e+04 1.614e-09
  8.86112   -131.4 1.260e+04 1.211e-09
  8.87662   -131.7 1.186e+04 9.050e-10
  8.89663   -131.9 1.132e+04 7.226e-10
  8.91665   -131.8 1.094e+04 6.253e-10
  8.93666   -131.2 1.076e+04 5.974e-10
  8.95114   -130.4 1.074e+04 5.994e-10
  8.96115   -131.2 1.078e+04 6.075e-10
  8.97668   -130.5 1.105e+04 7.005e-10
  8.99669   -129.7 1.142e+04 8.536e-10
  9.01397   -128.8 1.185e+04 1.061e-09
  9.02398   -129.1 1.135e+04 8.136e-10
  9.03671   -128.3 1.170e+04 9.792e-10
  9.05116   -127.3 1.205e+04 1.165e-09
  9.06117   -128.1 1.230e+04 1.333e-09
  9.07674   -127.1 1.253e+04 1.501e-09
  9.09675   -126.1 1.263e+04 1.602e-09
  9.11676   -125.2 1.265e+04 1.628e-09
  9.13677   -124.3 1.260e+04 1.623e-09
  9.15119   -123.2 1.240e+04 1.523e-09
  9.16119   -123.7 1.218e+04 1.405e-09
  9.17679   -122.7 1.189e+04 1.224e-09
  9.19681   -121.7 1.164e+04 1.066e-09
  9.21553   -120.8 1.143e+04 9.388e-10
  9.22553   -121.0 1.088e+04 7.289e-10
  9.23683   -120.1 1.076e+04 6.595e-10
  9.25121   -119.1 1.068e+04 6.060e-10
  9.26121   -119.7 1.037e+04 4.922e-10
  9.27685   -118.8 1.032e+04 4.656e-10
  9.29686   -118.0 1.029e+04 4.486e-10
  9.31687   -117.2 1.025e+04 4.360e-10
  9.33689   -116.4 1.022e+04 4.273e-10
  9.35123   -115.5 1.019e+04 4.212e-10
  9.36124   -116.2 1.003e+04 3.869e-10
  9.37691   -115.5 9.996e+03 3.839e-10
  9.39692   -114.1 9.976e+03 3.854e-10
  9.41693   -113.4 9.919e+03 3.772e-10
  9.42718   -111.7 9.826e+03 3.666e-10
  9.44729   -112.3 9.721e+03 3.356e-10
  9.48717   -110.1 9.531e+03 3.029e-10
  9.52719   -108.0 9.365e+03 2.751e-10
  9.55147   -105.7 9.261e+03 2.580e-10
  9.57148   -106.4 9.177e+03 2.541e-10
  9.60724   -104.0 9.133e+03 2.455e-10
  9.64726   -101.6 9.128e+03 2.390e-10
  9.68728    -99.4 9.136e+03 2.316e-10
  9.72730    -97.2 9.155e+03 2.233e-10
  9.75151    -95.1 9.178e+03 2.144e-10
  9.77153    -95.7 9.159e+03 2.122e-10
  9.80735    -93.9 9.110e+03 1.994e-10
  9.83038    -92.2 9.040e+03 1.902e-10
  9.85039    -92.0 9.307e+03 2.453e-10
  9.88740    -90.4 9.124e+03 2.258e-10
  9.92742    -88.9 9.185e+03 2.193e-10
  9.95156    -87.4 9.198e+03 2.341e-10
  9.97157    -88.4 9.233e+03 2.382e-10
 10.00746    -86.7 9.218e+03 2.402e-10
 10.04749    -84.9 9.151e+03 2.369e-10
 10.08751    -83.2 9.088e+03 2.132e-10
 10.12753    -81.8 9.016e+03 1.781e-10
 10.15160    -81.0 9.008e+03 1.439e-10
 10.17162    -83.2 9.156e+03 1.489e-10
 10.20758    -83.5 9.202e+03 1.433e-10
 10.23349    -83.2 9.480e+03 1.883e-10
 10.25350    -84.7 1.040e+04 3.552e-10
 10.28762    -83.3 1.019e+04 3.642e-10
 10.32765    -81.6 9.878e+03 3.295e-10
 10.35165    -79.6 9.698e+03 2.963e-10
 10.37166    -80.0 9.785e+03 2.923e-10
 10.40769    -77.6 9.597e+03 2.472e-10
 10.44772    -75.0 9.449e+03 2.087e-10
 10.48774    -72.3 9.368e+03 1.748e-10
 10.52776    -69.6 9.281e+03 1.446e-10
 10.55169    -67.1 9.136e+03 1.174e-10
 10.57170    -67.4 9.123e+03 9.711e-11
 10.60781    -64.8 8.976e+03 8.867e-11
 10.63659    -62.1 8.882e+03 8.580e-11
 10.65660    -63.2 8.877e+03 9.367e-11
 10.68785    -60.5 8.862e+03 1.003e-10
 10.72788    -57.7 9.012e+03 1.170e-10
 10.75174    -54.7 9.153e+03 1.404e-10
 10.77175    -53.9 9.229e+03 1.473e-10
 10.80792    -50.9 9.342e+03 1.645e-10
 10.84794    -48.0 9.479e+03 1.847e-10
 10.88797    -45.1 9.627e+03 2.094e-10
 10.92799    -42.3 9.748e+03 2.347e-10
 10.95178    -39.5 9.858e+03 2.557e-10
 10.97179    -38.8 1.007e+04 2.821e-10
 11.00804    -35.8 1.013e+04 3.104e-10
 11.03970    -32.8 1.013e+04 3.143e-10
 11.05971    -34.0 1.019e+04 3.201e-10
 11.08808    -31.1 1.008e+04 2.988e-10
 11.12810    -28.3 1.006e+04 2.513e-10
 11.15183    -25.9 9.961e+03 2.244e-10
 11.17184    -24.9 9.949e+03 2.183e-10
 11.20815    -22.6 9.947e+03 2.175e-10
 11.24817    -20.7 1.008e+04 2.710e-10
 11.28820    -18.1 1.038e+04 3.620e-10
 11.32822    -15.5 1.071e+04 4.461e-10
 11.35187    -13.4 1.093e+04 4.779e-10
 11.37188    -11.8 1.047e+04 3.375e-10
 11.40826    -10.2 1.056e+04 3.351e-10
 11.44280     -8.7 1.053e+04 3.536e-10
 11.46281     -9.0 1.054e+04 3.577e-10
 11.48831     -6.9 1.040e+04 3.719e-10
 11.52833     -4.2 1.024e+04 3.465e-10
 11.55192     -1.5 1.008e+04 2.902e-10
 11.57193      0.1 1.001e+04 2.705e-10
 11.60838      2.8 9.913e+03 2.373e-10
 11.64840      5.5 9.808e+03 1.934e-10
 11.68842      8.1 9.705e+03 1.587e-10
 11.72845     10.7 9.547e+03 1.416e-10
 11.75196     13.6 9.477e+03 1.399e-10
 11.77197     15.3 9.878e+03 1.946e-10
 11.80849     18.4 9.906e+03 1.991e-10
 11.84590     21.4 1.003e+04 2.159e-10
 11.86592     21.2 1.012e+04 2.283e-10
 11.88854     23.9 1.037e+04 2.780e-10
 11.92856     26.0 1.059e+04 3.342e-10
 11.95191     27.2 1.069e+04 3.756e-10
 11.96182     28.4 1.080e+04 4.971e-10
 11.97839     30.0 1.093e+04 5.730e-10
 11.99841     31.5 1.117e+04 6.539e-10
 12.01842     32.6 1.148e+04 7.480e-10
 12.03843     33.3 1.175e+04 8.510e-10
 12.05183     33.7 1.193e+04 9.623e-10
 12.06066     35.2 1.256e+04 1.184e-09
 12.06727     35.6 1.238e+04 1.191e-09
 12.07845     35.9 1.248e+04 1.274e-09
 12.09846     36.1 1.249e+04 1.345e-09
 12.11847     36.0 1.248e+04 1.352e-09
 12.13849     35.8 1.245e+04 1.330e-09
 12.15185     35.4 1.239e+04 1.250e-09
 12.16186     36.5 1.273e+04 1.469e-09
 12.17851     35.6 1.255e+04 1.322e-09
 12.19852     34.5 1.227e+04 1.128e-09
 12.21853     33.4 1.190e+04 9.378e-10
 12.23854     32.2 1.153e+04 7.911e-10
 12.25188     31.1 1.131e+04 6.929e-10
 12.26188     31.1 1.175e+04 8.309e-10
 12.26882     29.7 1.178e+04 8.201e-10
 12.27883     31.6 1.147e+04 7.052e-10
 12.29858     30.3 1.157e+04 7.235e-10
 12.31859     29.0 1.187e+04 7.976e-10
 12.33860     27.7 1.221e+04 9.319e-10
 12.35190     26.7 1.256e+04 1.116e-09
 12.36190     25.2 1.317e+04 1.540e-09
 12.37862     24.1 1.346e+04 1.764e-09
 12.39863     22.8 1.393e+04 2.083e-09
 12.41865     20.9 1.466e+04 2.582e-09
 12.43866     18.5 1.555e+04 3.320e-09
 12.45192     16.6 1.614e+04 4.172e-09
 12.46193     13.5 1.611e+04 4.135e-09
 12.47038     12.2 1.602e+04 4.222e-09
 12.48038     13.9 1.641e+04 4.537e-09
 12.49869     13.0 1.612e+04 4.247e-09
 12.51870     11.9 1.584e+04 3.698e-09
 12.53871     10.4 1.565e+04 3.236e-09
 12.55194      7.9 1.576e+04 3.099e-09
 12.56195     -0.6 1.840e+04 4.739e-09
 12.57874     -7.1 2.230e+04 7.340e-09
 12.59875    -13.7 2.467e+04 1.229e-08
 12.61371    -19.6 2.477e+04 1.934e-08
 12.62367    -21.7 2.444e+04 2.383e-08
 12.63367    -24.2 2.469e+04 2.674e-08
 12.64368    -27.6 2.522e+04 2.797e-08
 12.65187    -32.3 2.572e+04 2.502e-08
 12.65687    -36.3 2.427e+04 1.840e-08
 12.66369    -41.6 2.416e+04 1.766e-08
 12.67188    -49.7 2.182e+04 1.381e-08
 12.68193    -54.2 2.030e+04 1.106e-08
 12.69881    -59.3 1.832e+04 8.320e-09
 12.71882    -62.1 1.729e+04 6.662e-09
 12.73883    -64.0 1.696e+04 5.653e-09
 12.75199    -65.8 1.668e+04 4.819e-09
 12.76199    -67.6 1.651e+04 4.313e-09
 12.77885    -69.2 1.607e+04 3.863e-09
 12.79886    -71.3 1.528e+04 3.321e-09
 12.81887    -71.9 1.482e+04 2.970e-09
 12.83889    -72.2 1.443e+04 2.635e-09
 12.85201    -72.2 1.387e+04 2.197e-09
 12.86202    -72.7 1.437e+04 2.482e-09
 12.87348    -72.8 1.340e+04 1.808e-09
 12.88349    -74.4 1.314e+04 1.691e-09
 12.89892    -74.1 1.242e+04 1.309e-09
 12.91893    -73.4 1.172e+04 1.001e-09
 12.93894    -72.3 1.121e+04 7.809e-10
 12.95203    -71.3 1.073e+04 6.049e-10
 12.96204    -72.5 1.063e+04 5.825e-10
 12.97897    -71.5 1.023e+04 4.657e-10
 12.99898    -71.0 1.012e+04 3.986e-10
 13.01899    -71.1 1.019e+04 3.650e-10
 13.04910    -72.4 9.869e+03 3.288e-10
 13.07523    -72.3 1.071e+04 4.478e-10
 13.09524    -77.1 1.295e+04 9.659e-10
 13.11914    -75.3 1.285e+04 9.673e-10
 13.13906    -74.7 1.298e+04 1.090e-09
 13.15208    -74.1 1.305e+04 1.234e-09
 13.16208    -74.5 1.306e+04 1.265e-09
 13.17908    -73.8 1.317e+04 1.408e-09
 13.19909    -73.3 1.334e+04 1.574e-09
 13.21910    -72.5 1.354e+04 1.819e-09
 13.23911    -71.9 1.375e+04 2.002e-09
 13.25210    -70.8 1.404e+04 2.296e-09
 13.26210    -71.0 1.388e+04 2.182e-09
 13.27658    -70.3 1.413e+04 2.362e-09
 13.28659    -71.6 1.457e+04 2.685e-09
 13.29915    -70.7 1.483e+04 2.947e-09
 13.31916    -70.0 1.505e+04 3.184e-09
 13.33917    -69.0 1.525e+04 3.390e-09
 13.35212    -68.0 1.553e+04 3.583e-09
 13.36213    -68.1 1.518e+04 3.035e-09
 13.37919    -67.4 1.544e+04 3.097e-09
 13.39921    -66.7 1.568e+04 3.159e-09
 13.41922    -66.2 1.597e+04 3.243e-09
 13.43923    -65.7 1.618e+04 3.341e-09
 13.45214    -65.2 1.637e+04 3.460e-09
 13.46215    -65.0 1.614e+04 3.009e-09
 13.47814    -64.7 1.634e+04 3.199e-09
 13.48814    -65.5 1.738e+04 5.427e-09
 13.49926    -65.3 1.744e+04 5.498e-09
 13.51927    -65.2 1.757e+04 5.571e-09
 13.53929    -65.9 1.800e+04 6.065e-09
 13.55217    -67.2 1.837e+04 6.964e-09
 13.56217    -67.8 1.861e+04 7.624e-09
 13.57931    -68.7 1.887e+04 9.451e-09
 13.59932    -69.0 1.917e+04 1.153e-08
 13.61933    -68.9 1.933e+04 1.288e-08
 13.63934    -69.0 1.920e+04 1.291e-08
 13.65219    -68.0 1.831e+04 1.066e-08
 13.66219    -67.6 1.819e+04 1.051e-08
 13.67937    -66.0 1.696e+04 7.245e-09
 13.68969    -64.8 1.571e+04 4.250e-09
 13.69970    -65.5 1.503e+04 3.292e-09
 13.71939    -65.6 1.363e+04 1.809e-09
 13.73940    -66.0 1.237e+04 1.067e-09
 13.75221    -65.9 1.150e+04 7.306e-10
 13.76222    -65.9 1.114e+04 6.456e-10
 13.77942    -65.3 1.064e+04 5.052e-10
 13.79943    -64.4 1.024e+04 4.151e-10
 13.81945    -63.0 9.939e+03 3.571e-10
 13.83946    -61.4 9.857e+03 3.343e-10
 13.85223    -61.0 9.838e+03 3.319e-10
 13.86224    -60.9 9.806e+03 3.255e-10
 13.88134    -59.1 9.927e+03 3.434e-10
 13.90145    -59.2 9.827e+03 3.215e-10
 13.92970    -57.8 9.745e+03 3.236e-10
 13.95245    -56.6 1.004e+04 4.092e-10
 13.97246    -56.2 9.657e+03 3.194e-10
 14.00975    -55.3 1.013e+04 4.468e-10
 14.03967    -54.8 1.060e+04 6.019e-10
 14.05228    -54.6 1.076e+04 6.469e-10
 14.06228    -54.7 1.056e+04 5.824e-10
 14.07959    -54.6 1.092e+04 7.082e-10
 14.09280    -54.8 1.107e+04 7.665e-10
 14.10280    -55.0 1.124e+04 8.361e-10
 14.11962    -55.2 1.130e+04 8.972e-10
 14.13963    -55.2 1.128e+04 9.040e-10
 14.15230    -55.2 1.099e+04 7.966e-10
 14.16231    -54.9 1.076e+04 6.936e-10
 14.17965    -54.7 1.057e+04 5.771e-10
 14.19966    -55.4 1.024e+04 4.438e-10
 14.21967    -56.3 1.002e+04 3.554e-10
 14.24979    -57.2 9.904e+03 3.072e-10
 14.28454    -58.4 9.952e+03 3.109e-10
 14.30455    -59.2 9.942e+03 3.099e-10
 14.32993    -60.1 1.012e+04 3.370e-10
 14.35254    -61.0 1.030e+04 3.660e-10
 14.37255    -59.6 1.005e+04 3.154e-10
 14.40998    -60.8 1.020e+04 3.366e-10
 14.45000    -62.2 1.038e+04 3.937e-10
 14.49002    -64.2 1.073e+04 4.871e-10
 14.51994    -66.1 1.111e+04 6.476e-10
 14.53986    -67.1 1.145e+04 7.232e-10
 14.55239    -69.3 1.181e+04 8.592e-10
 14.56239    -68.4 1.169e+04 8.873e-10
 14.57988    -69.8 1.190e+04 9.739e-10
 14.59989    -71.5 1.207e+04 1.074e-09
 14.61990    -72.9 1.229e+04 1.168e-09
 14.63991    -74.1 1.255e+04 1.237e-09
 14.65241    -75.2 1.272e+04 1.263e-09
 14.66242    -73.9 1.225e+04 9.742e-10
 14.67994    -75.3 1.244e+04 9.742e-10
 14.69745    -76.9 1.255e+04 9.895e-10
 14.70746    -78.4 1.254e+04 1.044e-09
 14.71996    -79.5 1.245e+04 1.105e-09
 14.73997    -80.2 1.241e+04 1.229e-09
 14.75243    -80.5 1.236e+04 1.299e-09
 14.76244    -80.0 1.245e+04 1.372e-09
 14.77999    -79.9 1.247e+04 1.419e-09
 14.80001    -79.7 1.241e+04 1.336e-09
 14.82002    -79.7 1.222e+04 1.119e-09
 14.84003    -80.0 1.191e+04 8.757e-10
 14.85246    -80.5 1.152e+04 6.842e-10
 14.86246    -79.6 1.169e+04 7.145e-10
 14.88005    -80.2 1.124e+04 5.551e-10
 14.89901    -80.5 1.086e+04 4.628e-10
 14.90901    -81.0 1.065e+04 3.996e-10
 14.92007    -80.9 1.052e+04 3.672e-10
 14.94009    -80.7 1.049e+04 3.574e-10
 14.95258    -80.3 1.058e+04 3.562e-10
 14.97268    -79.5 1.066e+04 3.420e-10
 15.01032    -79.8 1.058e+04 3.126e-10
 15.05034    -80.1 1.052e+04 2.786e-10
 15.09037    -81.0 1.051e+04 2.675e-10
 15.11076    -82.3 1.064e+04 3.082e-10
 15.13077    -82.5 1.040e+04 2.746e-10
 15.15272    -83.4 1.038e+04 3.921e-10
 15.16263    -83.4 1.039e+04 3.810e-10
 15.18022    -84.0 1.055e+04 5.180e-10
 15.20023    -84.3 1.077e+04 7.284e-10
 15.22025    -84.0 1.100e+04 8.039e-10
 15.24026    -84.1 1.104e+04 8.128e-10
 15.25254    -84.4 1.083e+04 7.048e-10
 15.26255    -84.4 1.094e+04 7.404e-10
 15.28028    -84.8 1.053e+04 5.444e-10
 15.30029    -85.5 1.021e+04 4.170e-10
 15.33041    -86.2 9.995e+03 3.497e-10
 15.35276    -86.9 9.657e+03 2.859e-10
 15.37277    -87.0 9.664e+03 2.699e-10
 15.41055    -87.0 9.295e+03 2.268e-10
 15.45057    -86.2 8.974e+03 1.971e-10
 15.49060    -85.0 8.752e+03 1.758e-10
 15.51386    -83.8 8.586e+03 1.596e-10
 15.53387    -82.3 8.574e+03 1.541e-10
 15.55281    -80.9 8.497e+03 1.478e-10
 15.57282    -80.8 8.590e+03 1.586e-10
 15.61066    -79.3 8.604e+03 1.651e-10
 15.65069    -77.9 8.648e+03 1.892e-10
 15.69071    -76.4 8.720e+03 2.175e-10
 15.73073    -74.9 8.915e+03 2.589e-10
 15.75285    -73.3 9.100e+03 2.972e-10
 15.77286    -72.9 8.860e+03 2.461e-10
 15.81078    -71.6 8.894e+03 2.454e-10
 15.85080    -70.5 8.919e+03 2.441e-10
 15.89082    -69.7 8.998e+03 2.799e-10
 15.91697    -68.6 9.124e+03 3.612e-10
 15.93698    -67.6 9.502e+03 4.431e-10
 15.95290    -66.2 9.541e+03 4.941e-10
 15.97291    -66.0 9.724e+03 5.497e-10
 16.01089    -64.4 9.741e+03 5.722e-10
 16.05092    -63.0 9.428e+03 4.850e-10
 16.09094    -62.1 9.043e+03 3.633e-10
 16.13096    -61.9 8.873e+03 3.350e-10
 16.15294    -61.6 8.882e+03 3.422e-10
 16.17295    -61.6 8.903e+03 3.469e-10
 16.20090    -61.3 8.871e+03 3.708e-10
 16.22082    -61.1 9.100e+03 4.289e-10
 16.24083    -61.3 9.386e+03 5.101e-10
 16.25277    -62.3 9.960e+03 6.694e-10
 16.26277    -62.4 1.013e+04 6.943e-10
 16.28085    -64.3 1.111e+04 1.037e-09
 16.30086    -66.4 1.219e+04 1.652e-09
 16.31988    -67.8 1.306e+04 2.481e-09
 16.32988    -67.5 1.299e+04 2.385e-09
 16.34089    -68.6 1.363e+04 3.162e-09
 16.35279    -69.8 1.404e+04 3.504e-09
 16.36280    -69.5 1.385e+04 3.475e-09
 16.38091    -71.0 1.395e+04 3.147e-09
 16.40092    -74.1 1.349e+04 2.006e-09
 16.42093    -79.9 1.178e+04 1.140e-09
 16.44094    -84.2 1.076e+04 8.893e-10
 16.45281    -85.9 1.057e+04 8.503e-10
 16.46282    -84.8 1.039e+04 7.238e-10
 16.48097    -85.8 1.033e+04 7.179e-10
 16.50098    -86.7 1.028e+04 6.811e-10
 16.52099    -87.8 1.018e+04 5.985e-10
 16.53143    -89.0 1.003e+04 5.353e-10
 16.54144    -89.4 1.007e+04 5.367e-10
 16.55283    -90.1 9.934e+03 5.188e-10
 16.56284    -89.1 9.933e+03 5.132e-10
 16.58102    -89.3 9.879e+03 5.256e-10
 16.60103    -89.3 9.985e+03 5.687e-10
 16.62105    -88.8 1.008e+04 5.809e-10
 16.64106    -88.1 1.014e+04 5.778e-10
 16.65286    -87.5 1.028e+04 5.197e-10
 16.66286    -86.6 1.040e+04 6.636e-10
 16.68108    -86.2 1.058e+04 5.801e-10
 16.70109    -86.2 1.058e+04 5.054e-10
 16.72110    -86.7 1.059e+04 4.872e-10
 16.73299    -87.7 1.081e+04 5.214e-10
 16.74299    -87.2 1.075e+04 4.999e-10
 16.75288    -88.7 1.171e+04 7.301e-10
 16.76288    -86.8 1.127e+04 6.652e-10
 16.78114    -88.1 1.240e+04 1.032e-09
 16.80115    -89.0 1.406e+04 1.835e-09
 16.82116    -89.4 1.565e+04 3.288e-09
 16.84117    -89.2 1.691e+04 5.459e-09
 16.85290    -88.8 1.776e+04 7.981e-09
 16.86291    -87.8 1.714e+04 5.327e-09
 16.88119    -87.7 1.782e+04 6.913e-09
 16.90121    -87.6 1.803e+04 7.741e-09
 16.92122    -87.5 1.795e+04 7.665e-09
 16.93454    -87.4 1.764e+04 6.415e-09
 16.94454    -86.2 1.854e+04 9.604e-09
 16.95292    -86.5 1.822e+04 7.174e-09
 16.96293    -85.9 1.804e+04 7.284e-09
 16.98125    -86.2 1.763e+04 5.428e-09
 17.00126    -87.0 1.721e+04 3.876e-09
 17.02127    -88.2 1.677e+04 2.979e-09
 17.04129    -89.2 1.656e+04 2.657e-09
 17.05295    -89.5 1.658e+04 2.606e-09
 17.06295    -88.9 1.639e+04 2.393e-09
 17.08131    -89.2 1.643e+04 2.392e-09
 17.10132    -89.3 1.653e+04 2.553e-09
 17.12133    -89.2 1.664e+04 2.859e-09
 17.13609    -89.0 1.670e+04 3.195e-09
 17.14610    -89.6 1.674e+04 3.814e-09
 17.15297    -89.5 1.661e+04 3.890e-09
 17.16297    -89.1 1.712e+04 4.354e-09
 17.18137    -88.9 1.702e+04 4.488e-09
 17.20138    -88.6 1.697e+04 4.640e-09
 17.22139    -88.5 1.709e+04 4.871e-09
 17.24140    -88.6 1.732e+04 5.283e-09
 17.25299    -89.1 1.784e+04 6.093e-09
 17.26300    -88.3 1.789e+04 5.993e-09
 17.28142    -89.0 1.893e+04 7.271e-09
 17.30143    -90.2 2.047e+04 9.189e-09
 17.31639    -90.4 2.053e+04 1.115e-08
 17.32635    -90.7 2.067e+04 1.205e-08
 17.33636    -91.2 2.109e+04 1.477e-08
 17.34255    -91.9 2.175e+04 1.746e-08
 17.34755    -91.0 2.019e+04 1.376e-08
 17.35292    -91.3 2.053e+04 1.527e-08
 17.35792    -92.7 2.274e+04 2.022e-08
 17.36637    -93.6 2.376e+04 2.486e-08
 17.37638    -94.3 2.463e+04 3.111e-08
 17.38638    -95.1 2.529e+04 3.971e-08
 17.39639    -96.2 2.565e+04 5.298e-08
 17.40293    -97.7 2.555e+04 7.389e-08
 17.40793   -100.0 2.654e+04 1.012e-07
 17.41640   -101.2 2.599e+04 1.258e-07
 17.42641   -101.9 2.557e+04 1.542e-07
 17.43641   -102.5 2.541e+04 1.896e-07
 17.44332   -103.8 2.538e+04 2.280e-07
 17.44833   -102.7 2.379e+04 2.435e-07
 17.45294   -104.5 2.472e+04 2.652e-07
 17.45794   -106.3 2.593e+04 2.220e-07
 17.46643   -110.1 2.736e+04 1.921e-07
 17.47644   -114.9 3.208e+04 1.038e-07
 17.48644   -121.1 3.986e+04 3.626e-08
 17.49645   -129.2 4.814e+04 1.049e-08
 17.50295   -138.9 4.653e+04 4.649e-09
 17.50795   -145.6 3.814e+04 3.499e-09
 17.52151   -153.4 2.744e+04 3.886e-09
 17.53919   -162.7 1.766e+04 3.994e-09
 17.54920   -156.1 2.540e+04 3.861e-09
 17.55306   -164.8 1.752e+04 3.657e-09
 17.56306   -167.8 1.546e+04 3.527e-09
 17.58159   -169.3 1.495e+04 3.494e-09
 17.60161   -170.6 1.454e+04 3.393e-09
 17.62162   -171.4 1.434e+04 3.048e-09
 17.64163   -171.7 1.413e+04 2.619e-09
 17.65308   -171.9 1.377e+04 2.210e-09
 17.66309   -171.7 1.392e+04 2.326e-09
 17.68165   -171.7 1.347e+04 1.972e-09
 17.70166   -171.2 1.300e+04 1.666e-09
 17.72167   -170.3 1.258e+04 1.423e-09
 17.74075   -169.2 1.227e+04 1.246e-09
 17.75075   -169.2 1.226e+04 1.252e-09
 17.75310   -168.1 1.203e+04 1.118e-09
 17.76311   -168.0 1.209e+04 1.157e-09
 17.78171   -166.9 1.184e+04 1.026e-09
 17.80172   -165.3 1.163e+04 9.100e-10
 17.82173   -163.6 1.155e+04 8.007e-10
 17.85185   -161.9 1.149e+04 6.906e-10
 17.89197   -159.1 1.136e+04 6.525e-10
 17.93199   -156.2 1.129e+04 6.391e-10
 17.95250   -153.4 1.129e+04 6.496e-10
 17.95384   -153.3 1.131e+04 6.765e-10
 17.97335   -153.2 1.094e+04 5.381e-10
 18.01203   -150.4 1.095e+04 5.476e-10
 18.05206   -147.9 1.116e+04 6.331e-10
 18.09208   -145.3 1.150e+04 7.820e-10
 18.13210   -143.0 1.183e+04 9.672e-10
 18.15339   -140.8 1.210e+04 1.149e-09
 18.17340   -140.3 1.153e+04 8.054e-10
 18.21215   -138.0 1.171e+04 8.810e-10
 18.25217   -135.5 1.177e+04 9.023e-10
 18.29219   -133.0 1.177e+04 8.949e-10
 18.33222   -130.2 1.173e+04 8.701e-10
 18.35343   -127.6 1.171e+04 8.622e-10
 18.35681   -127.0 1.156e+04 6.913e-10
 18.37561   -126.6 1.177e+04 8.941e-10
 18.41226   -124.3 1.195e+04 9.603e-10
 18.45229   -122.1 1.227e+04 1.143e-09
 18.49231   -120.1 1.265e+04 1.409e-09
 18.52223   -119.1 1.333e+04 1.881e-09
 18.54214   -118.3 1.378e+04 2.330e-09
 18.55328   -117.3 1.420e+04 2.897e-09
 18.55809   -117.6 1.448e+04 3.428e-09
 18.56697   -116.9 1.400e+04 2.765e-09
 18.58217   -115.9 1.418e+04 3.107e-09
 18.60218   -114.8 1.433e+04 3.391e-09
 18.62219   -113.9 1.454e+04 3.736e-09
 18.64220   -113.2 1.480e+04 4.142e-09
 18.65330   -112.5 1.508e+04 4.518e-09
 18.66331   -112.5 1.461e+04 3.209e-09
 18.68222   -111.9 1.472e+04 3.130e-09
 18.70223   -111.4 1.477e+04 3.062e-09
 18.72225   -110.8 1.474e+04 2.979e-09
 18.74226   -110.1 1.465e+04 2.848e-09
 18.75332   -109.2 1.449e+04 2.627e-09
 18.75957   -110.2 1.355e+04 1.658e-09
 18.76852   -109.5 1.400e+04 2.091e-09
 18.78228   -108.8 1.382e+04 1.949e-09
 18.80229   -108.2 1.353e+04 1.756e-09
 18.82230   -107.7 1.323e+04 1.600e-09
 18.84231   -107.3 1.302e+04 1.509e-09
 18.85335   -106.8 1.289e+04 1.452e-09
 18.86335   -107.4 1.302e+04 1.487e-09
 18.88234   -107.0 1.303e+04 1.495e-09
 18.90235   -106.6 1.306e+04 1.496e-09
 18.93246   -106.2 1.311e+04 1.490e-09
 18.95347   -106.1 1.326e+04 1.586e-09
 18.96106   -105.8 1.339e+04 1.724e-09
 18.97007   -105.6 1.321e+04 1.642e-09
 18.98239   -105.5 1.326e+04 1.636e-09
 19.00241   -105.4 1.333e+04 1.638e-09
 19.02242   -105.4 1.339e+04 1.644e-09
 19.04243   -105.5 1.356e+04 1.671e-09
 19.05339   -105.9 1.385e+04 1.799e-09
 19.06340   -105.7 1.368e+04 1.811e-09
 19.08245   -105.8 1.386e+04 1.848e-09
 19.10246   -105.8 1.419e+04 1.959e-09
 19.12247   -105.9 1.469e+04 2.192e-09
 19.14249   -106.1 1.514e+04 2.547e-09
 19.15341   -106.1 1.542e+04 3.001e-09
 19.16254   -105.4 1.505e+04 2.151e-09
 19.17162   -104.8 1.416e+04 1.365e-09
 19.18251   -104.9 1.457e+04 1.652e-09
 19.20252   -104.8 1.485e+04 2.110e-09
 19.22253   -104.7 1.508e+04 2.774e-09
 19.24254   -104.2 1.532e+04 3.557e-09
 19.25344   -103.5 1.567e+04 4.253e-09
 19.26344   -102.9 1.583e+04 4.191e-09
 19.28257   -102.0 1.631e+04 5.415e-09
 19.30258   -101.1 1.686e+04 6.399e-09
 19.32259   -100.5 1.736e+04 6.640e-09
 19.34260   -100.1 1.808e+04 6.019e-09
 19.35346   -100.4 1.870e+04 4.383e-09
 19.36346    -99.1 1.986e+04 1.054e-08
 19.37317    -99.9 2.121e+04 8.219e-09
 19.38318   -100.1 2.111e+04 1.183e-08
 19.40263   -101.6 2.217e+04 9.235e-09
 19.42265   -103.0 2.258e+04 6.068e-09
 19.44266   -104.4 2.213e+04 3.644e-09
 19.45348   -105.8 2.083e+04 2.167e-09
 19.46349   -103.9 2.201e+04 6.561e-09
 19.48268   -105.4 2.127e+04 3.776e-09
 19.50269   -106.6 1.957e+04 2.805e-09
 19.52270   -107.3 1.779e+04 2.556e-09
 19.54271   -107.3 1.651e+04 2.353e-09
 19.55350   -107.1 1.568e+04 2.214e-09
 19.56351   -106.5 1.719e+04 3.294e-09
 19.57473   -106.1 1.618e+04 2.743e-09
 19.58473   -106.6 1.750e+04 4.739e-09
 19.60275   -106.1 1.649e+04 3.681e-09
 19.62276   -105.5 1.582e+04 3.120e-09
 19.64277   -104.8 1.532e+04 2.756e-09
 19.65353   -104.0 1.489e+04 2.483e-09
 19.66353   -103.8 1.514e+04 2.627e-09
 19.68279   -102.9 1.468e+04 2.302e-09
 19.70281   -102.1 1.432e+04 2.073e-09
 19.72282   -101.1 1.407e+04 1.862e-09
 19.74283   -100.2 1.389e+04 1.687e-09
 19.75365   -100.1 1.365e+04 1.491e-09
 19.77375    -99.8 1.357e+04 1.412e-09
 19.81306    -98.1 1.306e+04 1.108e-09
 19.85309    -95.8 1.235e+04 8.017e-10
 19.89311    -93.6 1.184e+04 5.719e-10
 19.93313    -91.5 1.145e+04 4.287e-10
 19.95379    -89.2 1.110e+04 3.325e-10
 19.96866    -88.6 1.108e+04 3.418e-10
 19.98803    -88.8 1.081e+04 2.672e-10
 20.01318    -86.5 1.060e+04 2.159e-10
 20.05320    -84.2 1.047e+04 1.822e-10
 20.09322    -81.8 1.043e+04 1.636e-10
 20.13325    -79.4 1.044e+04 1.550e-10
 20.15383    -77.3 1.045e+04 1.524e-10
 20.17384    -76.4 1.050e+04 2.024e-10
 20.21329    -74.3 1.057e+04 2.251e-10
 20.25331    -72.4 1.068e+04 2.877e-10
 20.29334    -70.2 1.085e+04 3.882e-10
 20.33336    -68.0 1.105e+04 4.926e-10
 20.35388    -66.0 1.129e+04 5.720e-10
 20.37163    -65.0 1.155e+04 7.082e-10
 20.39114    -66.2 1.107e+04 5.287e-10
 20.41341    -64.9 1.137e+04 6.557e-10
 20.45343    -64.1 1.176e+04 8.541e-10
 20.49345    -63.6 1.218e+04 1.152e-09
 20.52337    -63.1 1.268e+04 1.544e-09
 20.54328    -63.1 1.284e+04 1.785e-09
 20.55373    -62.5 1.299e+04 2.102e-09
 20.56373    -62.0 1.307e+04 2.136e-09
 20.58249    -61.6 1.309e+04 2.238e-09
 20.59249    -61.7 1.241e+04 1.667e-09
 20.60332    -61.1 1.234e+04 1.646e-09
 20.62333    -60.4 1.213e+04 1.465e-09
 20.64334    -59.7 1.190e+04 1.196e-09
 20.65375    -59.3 1.166e+04 9.329e-10
 20.66375    -59.4 1.181e+04 1.157e-09
 20.68336    -58.8 1.160e+04 9.423e-10
 20.70338    -58.3 1.154e+04 7.901e-10
 20.73349    -58.0 1.165e+04 7.364e-10
 20.75397    -56.6 1.143e+04 6.582e-10
 20.77398    -56.7 1.211e+04 1.072e-09
 20.79424    -54.8 1.191e+04 1.003e-09
 20.81425    -54.7 1.119e+04 7.224e-10
 20.85366    -52.8 1.114e+04 7.346e-10
 20.89368    -50.7 1.123e+04 7.785e-10
 20.93370    -48.3 1.109e+04 7.272e-10
 20.95401    -46.3 1.103e+04 6.513e-10
 20.97402    -46.2 1.130e+04 7.744e-10
 21.01375    -44.3 1.130e+04 7.315e-10
 21.05377    -42.3 1.148e+04 7.816e-10
 21.09379    -40.4 1.175e+04 9.432e-10
 21.13382    -39.0 1.224e+04 1.159e-09
 21.15405    -37.9 1.289e+04 1.463e-09
 21.17407    -37.0 1.282e+04 1.537e-09
 21.19725    -37.1 1.287e+04 1.729e-09
 21.20715    -37.4 1.242e+04 1.592e-09
 21.22367    -36.3 1.259e+04 1.757e-09
 21.24368    -35.6 1.285e+04 1.932e-09
 21.25388    -35.7 1.341e+04 1.958e-09
 21.26389    -34.8 1.289e+04 1.812e-09
 21.28371    -35.8 1.373e+04 1.772e-09
 21.30372    -38.8 1.533e+04 2.212e-09
 21.32373    -41.7 1.533e+04 2.940e-09
 21.34374    -42.7 1.431e+04 3.874e-09
 21.35390    -42.1 1.438e+04 4.425e-09
 21.36391    -41.8 1.391e+04 3.677e-09
 21.38376    -40.6 1.429e+04 4.011e-09
 21.39870    -40.1 1.489e+04 3.861e-09
 21.40871    -40.0 1.412e+04 2.611e-09
 21.42379    -41.1 1.448e+04 2.048e-09
 21.44380    -44.2 1.327e+04 1.438e-09
 21.45393    -46.3 1.260e+04 1.193e-09
 21.46393    -45.0 1.310e+04 1.469e-09
 21.48382    -46.6 1.287e+04 1.392e-09
 21.50383    -47.6 1.311e+04 1.466e-09
 21.52384    -48.8 1.303e+04 1.458e-09
 21.54386    -50.1 1.255e+04 1.341e-09
 21.56387    -50.8 1.278e+04 1.491e-09
 21.58388    -52.1 1.234e+04 1.340e-09
 21.60025    -52.9 1.215e+04 1.250e-09
 21.61026    -52.5 1.213e+04 1.224e-09
 21.62390    -53.2 1.205e+04 1.168e-09
 21.64391    -53.9 1.188e+04 1.075e-09
 21.66392    -54.5 1.163e+04 9.153e-10
 21.68394    -55.1 1.143e+04 7.926e-10
 21.70395    -55.8 1.123e+04 6.758e-10
 21.72396    -56.6 1.096e+04 5.716e-10
 21.74397    -57.1 1.084e+04 5.005e-10
 21.76398    -58.2 1.052e+04 4.341e-10
 21.78399    -58.4 1.044e+04 4.115e-10
 21.80180    -58.6 1.035e+04 3.946e-10
 21.81181    -58.9 1.034e+04 3.897e-10
 21.82402    -58.8 1.028e+04 3.808e-10
 21.85413    -58.9 1.021e+04 3.680e-10
 21.89425    -59.3 9.994e+03 3.401e-10
 21.93422    -59.5 9.850e+03 3.168e-10
 21.97424    -59.9 9.450e+03 2.302e-10
 22.00355    -60.2 9.707e+03 2.646e-10
 22.02356    -60.5 9.640e+03 2.404e-10
 22.05434    -60.9 9.926e+03 3.171e-10
 22.08426    -61.0 1.001e+04 3.795e-10
 22.10418    -61.3 1.006e+04 4.201e-10
 22.12419    -61.8 1.017e+04 5.115e-10
 22.14408    -62.0 1.050e+04 5.642e-10
 22.15408    -63.1 1.108e+04 7.439e-10
 22.16421    -64.0 1.128e+04 8.625e-10
 22.18422    -64.7 1.119e+04 9.747e-10
 22.20423    -64.9 1.105e+04 1.089e-09
 22.21491    -64.6 1.102e+04 1.143e-09
 22.22492    -64.8 1.092e+04 1.102e-09
 22.24410    -64.3 1.104e+04 1.130e-09
 22.25410    -64.3 1.118e+04 1.141e-09
 22.26427    -64.3 1.134e+04 1.011e-09
 22.28428    -65.1 1.146e+04 8.801e-10
 22.30429    -66.6 1.123e+04 7.805e-10
 22.32430    -67.6 1.081e+04 7.382e-10
 22.34412    -68.1 1.065e+04 7.268e-10
 22.35413    -69.1 1.001e+04 5.426e-10
 22.36432    -68.6 9.973e+03 5.510e-10
 22.38434    -68.1 9.971e+03 5.434e-10
 22.40435    -67.5 9.847e+03 4.674e-10
 22.41647    -67.3 9.720e+03 3.792e-10
 22.42647    -67.1 9.700e+03 3.661e-10
 22.45447    -67.4 9.629e+03 3.036e-10
 22.49459    -67.8 9.383e+03 2.368e-10
 22.53436    -68.0 9.222e+03 2.095e-10
 22.55437    -69.2 9.146e+03 2.113e-10
 22.57464    -69.0 9.321e+03 2.457e-10
 22.61466    -69.0 9.742e+03 3.225e-10
 22.64429    -68.7 9.958e+03 3.460e-10
 22.65419    -69.4 1.003e+04 4.037e-10
 22.66450    -70.2 1.031e+04 5.373e-10
 22.68451    -70.6 1.069e+04 7.320e-10
 22.70452    -70.7 1.114e+04 9.440e-10
 22.72453    -70.8 1.148e+04 1.132e-09
 22.74421    -70.9 1.162e+04 1.203e-09
 22.75422    -71.5 1.167e+04 1.269e-09
 22.76455    -71.7 1.154e+04 1.220e-09
 22.78456    -71.7 1.123e+04 1.021e-09
 22.80458    -71.8 1.088e+04 7.894e-10
 22.81957    -72.2 1.052e+04 5.823e-10
 22.82958    -71.8 1.062e+04 6.038e-10
 22.84423    -72.3 1.026e+04 4.331e-10
 22.85424    -72.9 1.005e+04 3.909e-10
 22.86461    -73.2 9.909e+03 3.294e-10
 22.89473    -73.6 9.871e+03 2.874e-10
 22.93444    -74.2 9.738e+03 2.594e-10
 22.95446    -74.3 9.762e+03 2.851e-10
 22.97487    -74.4 9.781e+03 2.893e-10
 23.01489    -74.6 9.929e+03 3.496e-10
 23.05491    -74.6 1.012e+04 4.345e-10
 23.08483    -74.4 1.034e+04 5.061e-10
 23.10475    -74.4 1.041e+04 5.220e-10
 23.12476    -74.6 1.042e+04 5.321e-10
 23.14430    -74.8 1.039e+04 5.368e-10
 23.15430    -74.9 1.055e+04 6.303e-10
 23.16478    -75.0 1.054e+04 6.344e-10
 23.18479    -74.9 1.050e+04 6.341e-10
 23.20480    -74.8 1.040e+04 6.061e-10
 23.22267    -74.4 1.028e+04 5.726e-10
 23.23268    -74.1 1.025e+04 5.515e-10
 23.24432    -73.5 1.011e+04 4.977e-10
 23.25433    -73.4 1.017e+04 5.269e-10
 23.26484    -72.8 9.991e+03 4.567e-10
 23.28485    -72.3 9.925e+03 4.179e-10
 23.30486    -71.8 9.910e+03 4.092e-10
 23.33444    -70.9 9.922e+03 3.917e-10
 23.35445    -70.4 9.953e+03 4.247e-10
 23.36490    -69.7 1.008e+04 4.571e-10
 23.38491    -68.9 1.019e+04 4.950e-10
 23.40492    -67.8 1.028e+04 5.357e-10
 23.42423    -66.5 1.034e+04 5.607e-10
 23.43423    -66.4 1.023e+04 5.126e-10
 23.44437    -65.3 1.041e+04 5.567e-10
 23.45437    -65.4 1.048e+04 6.254e-10
 23.46495    -67.4 1.261e+04 8.992e-10
 23.48496    -74.0 1.764e+04 2.571e-09
 23.49933    -77.6 1.990e+04 5.351e-09
 23.50429    -78.9 2.033e+04 6.698e-09
 23.50988    -82.3 2.113e+04 1.347e-08
 23.51989    -83.5 2.093e+04 3.475e-08
 23.52989    -83.1 2.116e+04 7.090e-08
 23.53990    -81.4 2.145e+04 9.846e-08
 23.54929    -80.7 2.208e+04 1.296e-07
 23.55430    -79.6 2.266e+04 1.425e-07
 23.55991    -80.0 2.282e+04 1.407e-07
 23.56992    -79.8 2.321e+04 9.729e-08
 23.57992    -79.8 2.451e+04 5.082e-08
 23.58993    -82.3 2.544e+04 2.230e-08
 23.60498    -89.3 2.157e+04 7.610e-09
 23.62504    -93.7 1.763e+04 4.322e-09
 23.63578    -95.5 1.443e+04 2.726e-09
 23.64514    -91.8 1.603e+04 3.589e-09
 23.65442    -93.3 1.443e+04 2.638e-09
 23.66507    -93.2 1.384e+04 2.284e-09
 23.68508    -92.3 1.378e+04 2.150e-09
 23.70509    -91.5 1.366e+04 2.054e-09
 23.72510    -90.7 1.361e+04 2.025e-09
 23.74443    -89.9 1.359e+04 2.037e-09
 23.75444    -90.2 1.338e+04 1.780e-09
 23.76512    -89.4 1.340e+04 1.798e-09
 23.78514    -88.4 1.339e+04 1.813e-09
 23.80515    -87.5 1.337e+04 1.804e-09
 23.82516    -86.5 1.328e+04 1.789e-09
 23.83734    -85.6 1.319e+04 1.755e-09
 23.84663    -84.0 1.352e+04 2.006e-09
 23.85446    -84.9 1.333e+04 1.778e-09
 23.86518    -84.1 1.322e+04 1.757e-09
 23.88519    -83.1 1.317e+04 1.783e-09
 23.90520    -82.3 1.310e+04 1.763e-09
 23.93457    -81.3 1.303e+04 1.699e-09
 23.95468    -82.9 1.272e+04 1.575e-09
 23.97544    -81.3 1.275e+04 1.594e-09
 24.01546    -80.2 1.277e+04 1.561e-09
 24.03899    -78.2 1.287e+04 1.587e-09
 24.04811    -76.4 1.296e+04 1.747e-09
 24.05451    -78.1 1.288e+04 1.652e-09
 24.06530    -78.1 1.291e+04 1.653e-09
 24.08531    -78.3 1.297e+04 1.682e-09
 24.10532    -79.0 1.311e+04 1.805e-09
 24.12533    -79.8 1.333e+04 2.029e-09
 24.14452    -80.4 1.361e+04 2.310e-09
 24.15453    -82.6 1.386e+04 2.581e-09
 24.16535    -83.2 1.410e+04 2.718e-09
 24.18536    -84.2 1.417e+04 2.697e-09
 24.20538    -85.4 1.410e+04 2.503e-09
 24.22539    -86.9 1.398e+04 2.283e-09
 24.24044    -88.3 1.373e+04 2.122e-09
 24.24959    -87.4 1.362e+04 1.997e-09
 24.25455    -90.3 1.316e+04 1.763e-09
 24.26541    -91.0 1.273e+04 1.562e-09
 24.28542    -91.3 1.235e+04 1.336e-09
 24.30543    -91.6 1.197e+04 1.074e-09
 24.32544    -92.1 1.160e+04 8.177e-10
 24.34457    -93.4 1.126e+04 6.113e-10
 24.35457    -95.9 1.082e+04 4.562e-10
 24.36547    -97.5 1.052e+04 3.747e-10
 24.38548    -98.9 1.038e+04 3.464e-10
 24.40549   -100.1 1.035e+04 3.408e-10
 24.42550   -101.5 1.048e+04 3.616e-10
 24.44199   -103.0 1.076e+04 4.349e-10
 24.45107   -103.0 1.076e+04 4.320e-10
 24.45459   -104.6 1.070e+04 4.063e-10
 24.46552   -106.2 1.103e+04 5.065e-10
 24.48554   -107.8 1.146e+04 6.476e-10
 24.50555   -109.4 1.187e+04 7.950e-10
 24.52556   -110.8 1.220e+04 9.156e-10
 24.54461   -111.8 1.238e+04 9.863e-10
 24.55471   -112.5 1.194e+04 8.279e-10
 24.57578   -115.3 1.205e+04 9.078e-10
 24.60570   -117.0 1.222e+04 9.875e-10
 24.62562   -119.5 1.271e+04 1.057e-09
 24.64354   -126.3 1.571e+04 1.480e-09
 24.65256   -130.9 1.748e+04 1.975e-09
 24.65464   -128.5 1.576e+04 1.434e-09
 24.66564   -134.6 1.838e+04 4.444e-09
 24.68565   -137.8 1.960e+04 1.068e-08
 24.70566   -140.0 2.041e+04 1.625e-08
 24.72567   -142.9 2.062e+04 1.746e-08
 24.74466   -145.4 2.005e+04 1.308e-08
 24.75466   -143.1 1.984e+04 1.363e-08
 24.76570   -146.2 1.853e+04 7.544e-09
 24.78571   -150.1 1.616e+04 3.612e-09
 24.80572   -152.9 1.431e+04 2.263e-09
 24.82573   -153.5 1.363e+04 1.921e-09
 24.84468   -153.4 1.339e+04 1.789e-09
 24.85404   -152.2 1.318e+04 1.635e-09
 24.85510   -152.7 1.330e+04 1.675e-09
 24.86575   -152.4 1.307e+04 1.525e-09
 24.88576   -151.8 1.283e+04 1.370e-09
 24.90578   -151.2 1.263e+04 1.231e-09
 24.92579   -150.5 1.248e+04 1.123e-09
 24.94470   -149.7 1.240e+04 1.050e-09
 24.95471   -149.3 1.231e+04 9.653e-10
 24.96581   -148.6 1.232e+04 9.559e-10
 24.98582   -147.9 1.237e+04 9.669e-10
 25.00583   -147.0 1.248e+04 1.004e-09
 25.02584   -146.2 1.265e+04 1.069e-09
 25.04472   -145.4 1.283e+04 1.151e-09
 25.05473   -145.6 1.315e+04 1.384e-09
 25.05665   -145.0 1.335e+04 1.596e-09
 25.06666   -145.0 1.395e+04 2.080e-09
 25.08588   -144.4 1.405e+04 2.288e-09
 25.10589   -143.8 1.415e+04 2.515e-09
 25.12590   -143.1 1.424e+04 2.750e-09
 25.14474   -142.5 1.431e+04 2.952e-09
 25.15475   -143.0 1.439e+04 3.113e-09
 25.16592   -142.2 1.431e+04 3.130e-09
 25.18594   -141.2 1.410e+04 3.010e-09
 25.20595   -140.1 1.383e+04 2.681e-09
 25.22596   -139.1 1.352e+04 2.275e-09
 25.24477   -138.2 1.316e+04 1.866e-09
 25.25477   -139.1 1.235e+04 1.243e-09
 25.25821   -138.6 1.197e+04 1.022e-09
 25.26821   -138.0 1.209e+04 1.034e-09
 25.28599   -137.5 1.170e+04 8.625e-10
 25.30600   -137.0 1.137e+04 7.487e-10
 25.32602   -136.4 1.121e+04 6.900e-10
 25.34479   -135.6 1.118e+04 6.786e-10
 25.35489   -136.6 1.077e+04 5.543e-10
 25.37624   -134.9 1.045e+04 5.095e-10
 25.41626   -133.5 1.028e+04 4.813e-10
 25.45629   -132.3 1.026e+04 4.559e-10
 25.49631   -131.2 1.025e+04 4.245e-10
 25.53502   -130.2 1.017e+04 4.037e-10
 25.55504   -131.6 9.849e+03 3.376e-10
 25.57635   -130.4 9.797e+03 3.375e-10
 25.61638   -129.0 9.828e+03 3.431e-10
 25.65150   -127.5 9.948e+03 3.476e-10
 25.67151   -126.5 1.004e+04 3.712e-10
 25.69642   -125.7 1.021e+04 3.784e-10
 25.73507   -125.0 1.056e+04 4.049e-10
 25.75508   -126.6 1.049e+04 3.879e-10
 25.76636   -125.6 1.093e+04 4.708e-10
 25.78628   -126.4 1.142e+04 5.890e-10
 25.80629   -128.7 1.306e+04 1.110e-09
 25.82630   -130.8 1.464e+04 2.391e-09
 25.84490   -131.3 1.600e+04 4.950e-09
 25.85491   -131.5 1.510e+04 3.630e-09
 25.86286   -131.9 1.630e+04 5.768e-09
 25.87287   -130.9 1.699e+04 7.079e-09
 25.88634   -131.0 1.825e+04 1.060e-08
 25.90635   -131.8 1.956e+04 1.243e-08
 25.92636   -135.5 2.013e+04 1.236e-08
 25.94492   -141.5 2.039e+04 8.677e-09
 25.95493   -143.7 1.897e+04 6.390e-09
 25.96638   -151.0 1.681e+04 4.623e-09
 25.98639   -156.9 1.451e+04 3.651e-09
 26.00640   -160.1 1.378e+04 3.000e-09
 26.02642   -161.5 1.351e+04 2.523e-09
 26.04495   -162.2 1.269e+04 1.998e-09
 26.05495   -162.4 1.239e+04 1.737e-09
 26.06441   -162.9 1.189e+04 1.388e-09
 26.07442   -163.1 1.198e+04 1.509e-09
 26.08645   -163.2 1.162e+04 1.212e-09
 26.10646   -163.2 1.134e+04 1.038e-09
 26.12647   -163.2 1.108e+04 9.123e-10
 26.14497   -163.3 1.090e+04 8.203e-10
 26.15497   -163.1 1.086e+04 8.217e-10
 26.16650   -163.4 1.082e+04 7.706e-10
 26.18651   -164.2 1.076e+04 7.245e-10
 26.20652   -165.1 1.060e+04 6.522e-10
 26.22653   -165.9 1.033e+04 5.663e-10
 26.25664   -166.9 1.012e+04 4.812e-10
 26.29677   -169.7 1.020e+04 4.093e-10
 26.32668   -174.0 1.157e+04 4.080e-10
 26.34501   -176.6 1.451e+04 9.198e-10
 26.35512   -171.7 1.175e+04 3.912e-10
 26.36671   -176.7 1.593e+04 1.662e-09
 26.38662   -176.9 1.697e+04 3.845e-09
 26.40663   -176.3 1.749e+04 6.525e-09
 26.42664   -175.4 1.772e+04 8.708e-09
 26.44503   -174.4 1.775e+04 9.738e-09
 26.45504   -173.8 1.780e+04 9.120e-09
 26.46667   -173.1 1.793e+04 1.039e-08
 26.47752   -172.6 1.810e+04 1.098e-08
 26.48753   -173.7 1.832e+04 1.199e-08
 26.50669   -173.3 1.824e+04 1.129e-08
 26.52670   -173.2 1.805e+04 9.921e-09
 26.54506   -173.2 1.762e+04 8.117e-09
 26.55506   -172.7 1.850e+04 1.276e-08
 26.56672   -172.6 1.801e+04 1.060e-08
 26.58674   -172.5 1.725e+04 8.010e-09
 26.60675   -172.4 1.630e+04 5.705e-09
 26.62676   -172.0 1.529e+04 4.056e-09
 26.64508   -171.4 1.435e+04 2.953e-09
 26.65508   -170.7 1.467e+04 3.614e-09
 26.66678   -170.0 1.379e+04 2.528e-09
 26.67908   -169.3 1.314e+04 1.888e-09
 26.68908   -169.1 1.290e+04 1.753e-09
 26.70680   -168.1 1.249e+04 1.442e-09
 26.72682   -166.8 1.221e+04 1.242e-09
 26.74510   -165.5 1.202e+04 1.111e-09
 26.75511   -165.1 1.195e+04 1.054e-09
 26.76684   -163.8 1.179e+04 9.422e-10
 26.78685   -162.6 1.168e+04 8.555e-10
 26.80686   -161.2 1.160e+04 7.883e-10
 26.82687   -159.9 1.154e+04 7.411e-10
 26.84512   -158.5 1.151e+04 7.108e-10
 26.85513   -158.2 1.136e+04 6.373e-10
 26.86690   -156.9 1.133e+04 6.080e-10
 26.88063   -155.5 1.130e+04 5.873e-10
 26.89063   -154.7 1.147e+04 6.444e-10
 26.90692   -153.4 1.148e+04 6.378e-10
 26.92693   -152.0 1.155e+04 6.365e-10
 26.94515   -150.7 1.162e+04 6.536e-10
 26.95515   -150.3 1.152e+04 5.797e-10
 26.96695   -149.1 1.158e+04 5.911e-10
 26.98696   -148.0 1.167e+04 6.061e-10
 27.00698   -147.1 1.180e+04 6.250e-10
 27.02699   -146.2 1.197e+04 6.542e-10
 27.04517   -145.5 1.212e+04 7.006e-10
 27.05517   -145.4 1.205e+04 6.251e-10
 27.06701   -144.8 1.220e+04 6.867e-10
 27.08218   -144.1 1.232e+04 7.477e-10
 27.09219   -143.2 1.278e+04 1.039e-09
 27.10703   -142.5 1.287e+04 1.105e-09
 27.12704   -141.9 1.290e+04 1.127e-09
 27.14519   -141.4 1.290e+04 1.125e-09
 27.15520   -141.5 1.283e+04 1.084e-09
 27.16707   -141.1 1.265e+04 1.009e-09
 27.18708   -140.7 1.230e+04 8.820e-10
 27.20709   -140.5 1.188e+04 7.541e-10
 27.22710   -140.3 1.150e+04 6.491e-10
 27.24521   -140.0 1.128e+04 5.672e-10
 27.25522   -140.1 1.122e+04 5.558e-10
 27.26712   -139.6 1.114e+04 4.936e-10
 27.28383   -139.2 1.106e+04 4.303e-10
 27.29384   -138.7 1.113e+04 4.959e-10
 27.30715   -138.1 1.108e+04 4.533e-10
 27.33533   -137.3 1.107e+04 4.283e-10
 27.35544   -137.0 1.091e+04 3.973e-10
 27.37738   -135.1 1.063e+04 3.158e-10
 27.41741   -133.0 1.022e+04 2.336e-10
 27.45743   -130.7 9.892e+03 1.768e-10
 27.49745   -128.4 9.735e+03 1.414e-10
 27.53547   -126.1 9.644e+03 1.201e-10
 27.55548   -125.4 9.669e+03 1.153e-10
 27.57750   -123.2 9.585e+03 1.004e-10
 27.61752   -121.0 9.517e+03 9.369e-11
 27.65754   -118.7 9.506e+03 9.124e-11
 27.68703   -116.3 9.498e+03 9.090e-11
 27.70704   -116.2 9.597e+03 1.192e-10
 27.73551   -113.8 9.562e+03 1.192e-10
 27.75553   -113.6 1.001e+04 1.380e-10
 27.77761   -111.4 9.915e+03 1.445e-10
 27.81763   -109.1 9.898e+03 1.821e-10
 27.85766   -106.7 9.989e+03 2.499e-10
 27.89768   -104.4 1.020e+04 3.427e-10
 27.93556   -102.1 1.046e+04 4.490e-10
 27.95557   -101.7 1.071e+04 5.469e-10
 27.97773    -99.5 1.092e+04 6.413e-10
 28.01775    -97.3 1.110e+04 7.134e-10
 28.05777    -95.2 1.124e+04 7.683e-10
 28.09014    -93.3 1.133e+04 8.077e-10
 28.11015    -92.8 1.148e+04 9.534e-10
 28.13560    -90.7 1.161e+04 1.032e-09
 28.15552    -89.8 1.147e+04 9.514e-10
 28.16764    -88.7 1.151e+04 9.674e-10
 28.18765    -87.5 1.153e+04 9.815e-10
 28.21776    -86.1 1.162e+04 1.018e-09
 28.25789    -84.1 1.152e+04 9.711e-10
 28.29791    -82.2 1.132e+04 8.900e-10
 28.33565    -80.1 1.104e+04 7.716e-10
 28.35566    -79.3 1.121e+04 8.484e-10
 28.37795    -77.3 1.103e+04 7.742e-10
 28.41798    -75.3 1.081e+04 6.984e-10
 28.45800    -73.1 1.051e+04 6.009e-10
 28.49324    -70.9 1.015e+04 4.795e-10
 28.51325    -70.6 1.046e+04 6.499e-10
 28.53569    -68.4 1.000e+04 4.738e-10
 28.55570    -67.5 1.028e+04 5.552e-10
 28.57807    -65.4 9.824e+03 3.898e-10
 28.61809    -63.6 9.411e+03 2.681e-10
 28.65811    -61.9 9.045e+03 2.110e-10
 28.69814    -60.0 8.865e+03 1.996e-10
 28.73574    -57.8 8.835e+03 1.973e-10
 28.75575    -57.9 9.128e+03 2.264e-10
 28.77818    -55.7 9.129e+03 2.269e-10
 28.81821    -53.7 9.222e+03 2.247e-10
 28.85823    -52.2 9.362e+03 2.443e-10
 28.89634    -51.5 9.801e+03 3.559e-10
 28.91636    -50.9 9.799e+03 3.600e-10
 28.93578    -50.0 1.044e+04 6.186e-10
 28.95579    -50.7 1.088e+04 8.282e-10
 28.97830    -49.1 1.175e+04 1.363e-09
 29.01832    -48.5 1.228e+04 1.663e-09
 29.04571    -48.7 1.208e+04 1.527e-09
 29.05562    -48.8 1.208e+04 1.537e-09
 29.06815    -48.8 1.204e+04 1.509e-09
 29.08816    -49.2 1.160e+04 1.251e-09
 29.10771    -49.0 1.146e+04 1.153e-09
 29.11771    -49.1 1.183e+04 1.407e-09
 29.12819    -49.5 1.150e+04 1.253e-09
 29.14564    -49.5 1.131e+04 1.178e-09
 29.15564    -49.5 1.106e+04 9.802e-10
 29.16821    -49.7 1.080e+04 9.122e-10
 29.18822    -49.6 1.069e+04 8.900e-10
 29.20823    -49.3 1.050e+04 8.384e-10
 29.22824    -48.8 1.034e+04 7.529e-10
 29.25836    -48.3 1.008e+04 6.120e-10
 29.29848    -47.9 9.763e+03 5.012e-10
 29.31946    -47.8 9.520e+03 4.272e-10
 29.33684    -48.8 9.441e+03 3.950e-10
 29.35588    -47.8 9.371e+03 3.779e-10
 29.37853    -47.4 9.523e+03 4.230e-10
 29.41855    -47.5 1.002e+04 5.795e-10
 29.45857    -48.5 1.096e+04 9.038e-10
 29.48849    -50.7 1.165e+04 1.330e-09
 29.50840    -51.7 1.192e+04 1.790e-09
 29.52082    -51.9 1.225e+04 2.338e-09
 29.53082    -51.9 1.204e+04 2.159e-09
 29.54573    -52.0 1.219e+04 2.245e-09
 29.55573    -51.4 1.210e+04 2.193e-09
 29.56844    -51.5 1.225e+04 2.084e-09
 29.58845    -53.4 1.222e+04 1.775e-09
 29.60846    -56.3 1.189e+04 1.585e-09
 29.62847    -59.0 1.193e+04 1.599e-09
 29.64575    -61.8 1.264e+04 2.087e-09
 29.65575    -60.8 1.239e+04 1.903e-09
 29.66850    -63.5 1.327e+04 2.776e-09
 29.68851    -65.9 1.420e+04 3.981e-09
 29.70852    -68.4 1.508e+04 5.223e-09
 29.72237    -71.3 1.553e+04 5.780e-09
 29.73237    -72.1 1.603e+04 6.792e-09
 29.74577    -75.3 1.598e+04 6.858e-09
 29.75578    -75.0 1.593e+04 6.851e-09
 29.76855    -77.4 1.494e+04 5.004e-09
 29.78856    -80.0 1.375e+04 3.014e-09
 29.80858    -82.8 1.258e+04 1.800e-09
 29.82859    -85.5 1.161e+04 1.176e-09
 29.84579    -87.2 1.090e+04 8.800e-10
 29.85580    -87.1 1.052e+04 7.169e-10
 29.86861    -87.7 1.017e+04 6.037e-10
 29.88862    -87.9 9.909e+03 5.141e-10
 29.90863    -88.1 9.692e+03 4.392e-10
 29.93591    -88.6 9.572e+03 3.889e-10
 29.95602    -87.9 9.488e+03 3.549e-10
 29.97887    -88.1 9.206e+03 2.960e-10
 30.01889    -87.5 8.864e+03 2.340e-10
 30.05891    -86.5 8.645e+03 1.904e-10
 30.09894    -85.3 8.572e+03 1.649e-10
 30.12567    -84.0 8.536e+03 1.474e-10
 30.14277    -84.3 8.467e+03 1.353e-10
 30.15606    -83.7 8.473e+03 1.425e-10
 30.17898    -82.1 8.416e+03 1.267e-10
 30.21900    -80.5 8.376e+03 1.102e-10
 30.25903    -78.8 8.350e+03 9.543e-11
 30.29905    -77.1 8.343e+03 8.525e-11
 30.33609    -75.5 8.347e+03 8.147e-11
 30.35610    -74.7 8.311e+03 7.728e-11
 30.37910    -73.1 8.316e+03 7.623e-11
 30.41912    -71.6 8.413e+03 7.986e-11
 30.45914    -70.3 8.513e+03 9.454e-11
 30.49916    -69.0 8.624e+03 1.143e-10
 30.52877    -67.8 8.772e+03 1.334e-10
 30.54573    -67.3 8.764e+03 1.310e-10
 30.55615    -66.6 8.767e+03 1.313e-10
 30.57921    -65.4 8.886e+03 1.445e-10
 30.61923    -64.3 8.915e+03 1.473e-10
 30.65926    -63.1 8.879e+03 1.371e-10
 30.69928    -61.7 8.818e+03 1.122e-10
 30.73618    -60.6 8.830e+03 9.404e-11
 30.75619    -60.1 8.867e+03 9.260e-11
 30.77932    -59.1 8.896e+03 8.937e-11
 30.81935    -58.7 9.179e+03 1.018e-10
 30.85937    -58.3 9.328e+03 1.645e-10
 30.89939    -57.4 9.492e+03 2.553e-10
 30.93188    -56.5 9.631e+03 3.089e-10
 30.94870    -56.5 9.776e+03 3.526e-10
 30.95624    -56.1 9.726e+03 3.585e-10
 30.97944    -55.6 9.736e+03 3.695e-10
 31.01946    -55.2 9.457e+03 3.064e-10
 31.05948    -54.9 9.145e+03 2.253e-10
 31.09951    -54.4 8.864e+03 1.712e-10
 31.13627    -53.3 8.640e+03 1.341e-10
 31.15628    -52.9 8.632e+03 1.395e-10
 31.17955    -51.7 8.461e+03 1.224e-10
 31.21958    -50.1 8.359e+03 1.183e-10
 31.25960    -48.3 8.295e+03 1.172e-10
 31.29962    -46.3 8.238e+03 1.135e-10
 31.33498    -44.3 8.222e+03 1.018e-10
 31.35166    -44.4 8.257e+03 1.081e-10
 31.35633    -43.9 8.280e+03 1.171e-10
 31.37967    -42.0 8.271e+03 1.074e-10
 31.41969    -40.2 8.223e+03 9.073e-11
 31.45971    -38.7 8.183e+03 7.364e-11
 31.49974    -37.4 8.149e+03 6.385e-11
 31.53636    -36.2 8.129e+03 6.252e-11
 31.55637    -35.9 8.072e+03 5.388e-11
 31.57978    -34.7 8.072e+03 7.332e-11
 31.61980    -33.1 8.204e+03 1.044e-10
 31.65983    -31.5 8.465e+03 1.425e-10
 31.69985    -30.3 8.720e+03 1.897e-10
 31.73641    -29.5 9.038e+03 2.595e-10
 31.75463    -28.9 8.940e+03 2.604e-10
 31.75810    -29.1 9.249e+03 3.028e-10
 31.77990    -28.6 9.671e+03 4.362e-10
 31.81992    -28.1 1.005e+04 6.181e-10
 31.85994    -27.4 1.033e+04 7.546e-10
 31.89996    -27.0 1.033e+04 7.560e-10
 31.93645    -26.3 1.015e+04 6.467e-10
 31.95646    -25.6 9.820e+03 5.882e-10
 31.98001    -24.9 9.630e+03 4.673e-10
 32.02003    -24.1 9.476e+03 3.602e-10
 32.06006    -24.0 9.383e+03 3.071e-10
 32.10008    -24.4 9.820e+03 3.799e-10
 32.13000    -25.4 1.039e+04 5.863e-10
 32.14630    -25.6 1.050e+04 6.090e-10
 32.15631    -24.5 1.035e+04 5.156e-10
 32.16100    -24.6 1.076e+04 7.984e-10
 32.17101    -24.3 1.055e+04 7.046e-10
 32.18994    -24.4 1.080e+04 7.712e-10
 32.20995    -24.4 1.092e+04 1.095e-09
 32.22996    -23.6 1.108e+04 1.208e-09
 32.24633    -23.2 1.133e+04 1.259e-09
 32.25633    -23.4 1.120e+04 1.343e-09
 32.26998    -23.0 1.155e+04 1.394e-09
 32.28999    -23.3 1.224e+04 1.319e-09
 32.31000    -24.4 1.252e+04 1.459e-09
 32.33002    -25.7 1.285e+04 1.673e-09
 32.34635    -27.0 1.341e+04 2.227e-09
 32.35635    -25.7 1.326e+04 2.192e-09
 32.36256    -28.2 1.452e+04 3.138e-09
 32.37256    -28.5 1.592e+04 4.606e-09
 32.39005    -34.5 2.014e+04 1.107e-08
 32.40131    -37.6 2.122e+04 1.415e-08
 32.40627    -39.0 2.157e+04 1.628e-08
 32.41497    -41.1 2.190e+04 1.935e-08
 32.42497    -42.7 2.181e+04 2.097e-08
 32.43498    -44.4 2.147e+04 2.101e-08
 32.44498    -45.3 2.067e+04 1.931e-08
 32.45128    -46.9 2.010e+04 1.564e-08
 32.45628    -46.8 2.020e+04 1.586e-08
 32.47005    -50.0 1.951e+04 8.658e-09
 32.49011    -56.4 1.610e+04 2.986e-09
 32.51012    -61.8 1.281e+04 1.150e-09
 32.53013    -63.3 1.160e+04 8.102e-10
 32.54639    -63.4 1.132e+04 7.079e-10
 32.55640    -63.4 1.134e+04 6.966e-10
 32.56421    -62.7 1.114e+04 6.220e-10
 32.58432    -64.4 1.094e+04 5.046e-10
 32.61027    -63.1 1.092e+04 4.833e-10
 32.63019    -63.0 1.089e+04 4.780e-10
 32.64642    -62.7 1.089e+04 4.823e-10
 32.65642    -62.3 1.085e+04 4.656e-10
 32.67021    -62.0 1.090e+04 4.973e-10
 32.69022    -61.7 1.100e+04 5.461e-10
 32.71023    -61.3 1.110e+04 6.001e-10
 32.73024    -61.1 1.121e+04 6.557e-10
 32.74644    -60.9 1.132e+04 7.084e-10
 32.75644    -60.7 1.129e+04 6.550e-10
 32.76566    -60.7 1.139e+04 7.062e-10
 32.77567    -61.5 1.148e+04 7.337e-10
 32.79028    -61.5 1.156e+04 7.765e-10
 32.81029    -61.5 1.167e+04 8.209e-10
 32.83030    -61.3 1.179e+04 8.605e-10
 32.84646    -61.3 1.183e+04 8.830e-10
 32.85647    -61.4 1.179e+04 8.846e-10
 32.87032    -61.3 1.179e+04 9.047e-10
 32.90044    -60.9 1.180e+04 9.314e-10
 32.93667    -60.4 1.154e+04 8.283e-10
 32.95659    -60.9 1.154e+04 8.277e-10
 32.96731    -60.7 1.134e+04 7.292e-10
 32.98742    -61.6 1.094e+04 5.454e-10
 33.02060    -61.1 1.063e+04 4.208e-10
 33.06063    -60.7 1.047e+04 3.671e-10
 33.10065    -60.3 1.040e+04 3.369e-10
 33.13672    -59.8 1.036e+04 3.030e-10
 33.15673    -60.5 1.054e+04 3.571e-10
 33.18070    -60.3 1.054e+04 3.645e-10
 33.22072    -60.1 1.047e+04 3.751e-10
 33.26074    -60.0 1.034e+04 3.785e-10
 33.30076    -60.1 1.029e+04 3.813e-10
 33.33676    -61.5 1.063e+04 4.172e-10
 33.35677    -61.6 1.066e+04 4.347e-10
 33.37051    -64.0 1.118e+04 5.807e-10
 33.39052    -65.4 1.147e+04 7.405e-10
 33.42083    -67.5 1.163e+04 8.971e-10
 33.46086    -69.2 1.152e+04 8.470e-10
 33.49078    -70.0 1.112e+04 6.276e-10
 33.51069    -70.7 1.096e+04 5.299e-10
 33.53070    -71.9 1.063e+04 4.200e-10
 33.54662    -72.3 1.058e+04 4.021e-10
 33.55672    -72.7 1.051e+04 3.786e-10
 33.58092    -73.2 1.043e+04 3.624e-10
 33.62095    -73.3 1.047e+04 3.865e-10
 33.66097    -73.3 1.051e+04 4.076e-10
 33.70099    -73.2 1.051e+04 3.945e-10
 33.73685    -73.1 1.036e+04 3.382e-10
 33.75686    -73.3 1.031e+04 3.676e-10
 33.77362    -73.0 1.015e+04 3.281e-10
 33.79363    -73.5 1.016e+04 3.162e-10
 33.82106    -73.3 1.005e+04 2.926e-10
 33.86108    -73.1 9.992e+03 2.744e-10
 33.90111    -72.7 9.872e+03 2.534e-10
 33.93690    -72.5 9.698e+03 2.319e-10
 33.95691    -72.8 9.882e+03 3.153e-10
 33.98115    -72.5 9.696e+03 2.988e-10
 34.02118    -71.8 9.552e+03 2.884e-10
 34.06120    -70.9 9.402e+03 2.706e-10
 34.10122    -69.8 9.239e+03 2.409e-10
 34.13694    -68.6 9.018e+03 1.954e-10
 34.15695    -69.3 8.846e+03 1.583e-10
 34.17672    -68.5 8.702e+03 1.310e-10
 34.19673    -68.3 8.697e+03 1.171e-10
 34.22129    -67.3 8.674e+03 1.141e-10
 34.26131    -66.4 8.722e+03 1.243e-10
 34.30134    -65.3 8.820e+03 1.528e-10
 34.33698    -64.0 8.881e+03 1.751e-10
 34.35700    -64.8 8.939e+03 2.071e-10
 34.38138    -63.4 8.923e+03 2.136e-10
 34.42140    -61.9 8.841e+03 2.082e-10
 34.46143    -60.3 8.737e+03 1.964e-10
 34.50145    -58.7 8.654e+03 1.836e-10
 34.53703    -57.1 8.602e+03 1.720e-10
 34.55704    -57.7 8.556e+03 1.728e-10
 34.57982    -55.9 8.463e+03 1.535e-10
 34.59984    -55.2 8.369e+03 1.312e-10
 34.62152    -53.5 8.308e+03 1.177e-10
 34.66154    -51.8 8.248e+03 1.041e-10
 34.70156    -50.1 8.171e+03 9.338e-11
 34.73707    -48.3 8.095e+03 8.557e-11
 34.75708    -49.0 8.052e+03 8.059e-11
 34.78161    -47.1 7.998e+03 7.481e-11
 34.82163    -45.2 7.957e+03 7.010e-11
 34.86166    -43.4 7.925e+03 6.809e-11
 34.90168    -41.6 7.915e+03 6.975e-11
 34.93712    -39.9 7.909e+03 7.592e-11
 34.95713    -40.4 7.813e+03 7.165e-11
 34.98172    -38.2 7.755e+03 7.819e-11
 35.00294    -35.7 7.746e+03 8.144e-11
 35.02295    -35.0 7.769e+03 7.677e-11
 35.06177    -32.7 7.808e+03 7.200e-11
 35.10179    -30.9 7.845e+03 6.475e-11
 35.13716    -29.1 7.878e+03 6.553e-11
 35.15717    -29.7 7.869e+03 6.461e-11
 35.18184    -27.9 7.866e+03 7.101e-11
 35.22186    -25.9 7.880e+03 7.853e-11
 35.26188    -23.8 7.932e+03 8.398e-11
 35.30191    -22.0 8.011e+03 8.842e-11
 35.33721    -20.4 8.127e+03 9.748e-11
 35.35722    -21.0 8.146e+03 9.961e-11
 35.38195    -19.7 8.268e+03 1.187e-10
 35.40604    -18.4 8.420e+03 1.544e-10
 35.42606    -17.6 8.373e+03 1.337e-10
 35.46200    -16.3 8.529e+03 1.709e-10
 35.50202    -14.8 8.730e+03 2.025e-10
 35.53725    -13.3 8.812e+03 2.008e-10
 35.55726    -13.9 8.743e+03 1.840e-10
 35.58207    -12.4 8.731e+03 1.530e-10
 35.62209    -11.3 8.763e+03 1.204e-10
 35.66211    -10.3 8.759e+03 1.093e-10
 35.70214     -9.3 8.822e+03 1.149e-10
 35.73730     -8.3 8.977e+03 1.395e-10
 35.75731     -8.9 8.945e+03 1.367e-10
 35.78218     -7.4 9.103e+03 1.688e-10
 35.80915     -5.8 9.254e+03 1.916e-10
 35.82916     -4.8 9.310e+03 2.153e-10
 35.86223     -3.3 9.442e+03 2.239e-10
 35.90225     -2.0 9.477e+03 2.273e-10
 35.93734     -0.7 9.517e+03 2.373e-10
 35.95735     -1.2 9.402e+03 2.179e-10
 35.98230      0.3 9.443e+03 2.458e-10
 36.02232      2.1 9.520e+03 2.773e-10
 36.06234      3.9 9.561e+03 2.930e-10
 36.10236      5.7 9.630e+03 3.001e-10
 36.13739      7.4 9.678e+03 2.989e-10
 36.15740      7.1 9.695e+03 3.026e-10
 36.18241      8.7 9.778e+03 3.159e-10
 36.21225     10.2 9.878e+03 3.390e-10
 36.23226     11.2 1.015e+04 4.461e-10
 36.26246     12.8 1.028e+04 4.922e-10
 36.30248     14.4 1.029e+04 5.007e-10
 36.33743     16.0 1.026e+04 4.942e-10
 36.35744     15.6 1.026e+04 4.971e-10
 36.38252     17.2 1.020e+04 4.823e-10
 36.42255     18.8 1.021e+04 4.853e-10
 36.46257     20.4 1.032e+04 5.131e-10
 36.50259     21.9 1.048e+04 5.558e-10
 36.53747     23.3 1.072e+04 6.100e-10
 36.55739     23.1 1.065e+04 5.976e-10
 36.57244     23.7 1.068e+04 6.183e-10
 36.59245     24.6 1.068e+04 6.310e-10
 36.61246     25.2 1.073e+04 6.456e-10
 36.62517     25.8 1.076e+04 6.700e-10
 36.63517     26.0 1.051e+04 5.501e-10
 36.64731     26.4 1.054e+04 5.634e-10
 36.65731     25.8 1.041e+04 5.361e-10
 36.67249     25.7 1.051e+04 5.802e-10
 36.69251     25.2 1.100e+04 7.263e-10
 36.71252     24.5 1.199e+04 1.023e-09
 36.73253     24.5 1.259e+04 1.408e-09
 36.74733     24.6 1.275e+04 1.691e-09
 36.75734     23.7 1.277e+04 1.795e-09
 36.77255     23.9 1.285e+04 1.937e-09
 36.79256     24.1 1.294e+04 1.947e-09
 36.81257     24.6 1.287e+04 1.810e-09
 36.82672     24.7 1.262e+04 1.490e-09
 36.83672     25.9 1.204e+04 1.134e-09
 36.86270     25.3 1.182e+04 9.659e-10
 36.90282     26.1 1.106e+04 6.579e-10
 36.93756     27.5 1.053e+04 5.085e-10
 36.95758     27.0 1.044e+04 4.995e-10
 36.98287     29.1 1.030e+04 4.475e-10
 37.01846     31.4 1.019e+04 4.048e-10
 37.03847     33.5 1.023e+04 4.160e-10
 37.06291     35.7 1.012e+04 3.729e-10
 37.10294     37.8 1.001e+04 3.295e-10
 37.13761     40.0 9.925e+03 3.017e-10
 37.15762     40.1 9.959e+03 3.033e-10
 37.18298     42.4 9.944e+03 3.038e-10
 37.22300     44.7 9.995e+03 3.236e-10
 37.26303     47.0 1.013e+04 3.619e-10
 37.30305     49.2 1.031e+04 4.074e-10
 37.33765     51.2 1.049e+04 4.517e-10
 37.35766     51.3 1.072e+04 5.429e-10
 37.38310     53.1 1.092e+04 6.022e-10
 37.42156     54.6 1.102e+04 6.101e-10
 37.44158     56.6 1.120e+04 7.118e-10
 37.46314     57.9 1.142e+04 7.708e-10
 37.50316     58.8 1.151e+04 7.613e-10
 37.53770     59.4 1.155e+04 7.493e-10
 37.55771     58.7 1.190e+04 8.638e-10
 37.58321     58.6 1.189e+04 8.900e-10
 37.62323     58.7 1.197e+04 1.003e-09
 37.66326     59.0 1.192e+04 1.046e-09
 37.70328     59.6 1.177e+04 9.813e-10
 37.73774     60.5 1.134e+04 7.926e-10
 37.75775     59.9 1.086e+04 5.893e-10
 37.78332     61.1 1.029e+04 4.013e-10
 37.82335     62.5 9.875e+03 2.788e-10
 37.84468     64.1 9.596e+03 1.986e-10
 37.86469     65.4 9.801e+03 2.387e-10
 37.90339     66.7 9.476e+03 1.772e-10
 37.93779     68.3 9.186e+03 1.439e-10
 37.95780     68.4 9.027e+03 1.078e-10
 37.98344     70.3 8.957e+03 1.089e-10
 38.02346     72.4 8.994e+03 1.134e-10
 38.06348     74.7 9.040e+03 1.177e-10
 38.10351     77.2 9.036e+03 1.168e-10
 38.13783     79.6 8.986e+03 1.125e-10
 38.15784     80.2 8.944e+03 1.052e-10
 38.18355     82.7 8.874e+03 1.001e-10
 38.22358     85.2 8.797e+03 9.603e-11
 38.24778     87.6 8.758e+03 9.500e-11
 38.26780     88.5 8.808e+03 9.494e-11
 38.30362     90.9 8.759e+03 9.355e-11
 38.33788     93.2 8.756e+03 9.456e-11
 38.35789     94.0 8.790e+03 9.644e-11
 38.38367     96.2 8.804e+03 1.024e-10
 38.42369     98.3 8.849e+03 1.153e-10
 38.46371    100.3 8.916e+03 1.319e-10
 38.50374    102.1 8.979e+03 1.457e-10
 38.53792    103.5 9.032e+03 1.509e-10
 38.55793    104.3 9.066e+03 1.512e-10
 38.58378    105.4 9.068e+03 1.504e-10
 38.62380    106.2 9.095e+03 1.515e-10
 38.65089    106.5 9.215e+03 1.627e-10
 38.67090    107.9 9.557e+03 2.343e-10
 38.70385    108.2 9.753e+03 2.491e-10
 38.73377    107.9 9.811e+03 2.483e-10
 38.74778    107.1 9.979e+03 2.703e-10
 38.75778    106.9 1.021e+04 3.035e-10
 38.77369    104.5 1.087e+04 4.539e-10
 38.79371    101.3 1.208e+04 8.517e-10
 38.81372     97.9 1.338e+04 1.677e-09
 38.83373     94.7 1.450e+04 2.955e-09
 38.84780     91.4 1.538e+04 4.232e-09
 38.85631     89.8 1.608e+04 4.864e-09
 38.86225     91.3 1.663e+04 6.105e-09
 38.87375     87.0 1.685e+04 5.987e-09
 38.89376     81.6 1.691e+04 5.119e-09
 38.91377     75.4 1.608e+04 3.691e-09
 38.93379     69.3 1.441e+04 2.607e-09
 38.94782     64.6 1.282e+04 1.938e-09
 38.95783     62.6 1.252e+04 1.861e-09
 38.97381     60.3 1.181e+04 1.454e-09
 38.99382     58.8 1.135e+04 1.107e-09
 39.01383     57.4 1.090e+04 8.290e-10
 39.03384     55.9 1.042e+04 6.146e-10
 39.04784     54.4 9.973e+03 4.746e-10
 39.05779     52.8 9.972e+03 4.731e-10
 39.07381     52.5 9.873e+03 4.363e-10
 39.10398     53.2 9.499e+03 3.743e-10
 39.13805     53.4 9.268e+03 3.511e-10
 39.15807     51.2 9.451e+03 3.721e-10
 39.18412     52.0 9.371e+03 3.383e-10
 39.22415     52.7 9.733e+03 3.457e-10
 39.26417     53.3 1.051e+04 4.418e-10
 39.30419     54.0 1.147e+04 6.814e-10
 39.33411     53.0 1.267e+04 1.102e-09
 39.34791     52.3 1.388e+04 1.825e-09
 39.35791     50.3 1.525e+04 3.631e-09
 39.37404     50.3 1.630e+04 5.745e-09
 39.39405     50.6 1.726e+04 8.605e-09
 39.41406     51.1 1.795e+04 1.138e-08
 39.43407     51.1 1.820e+04 1.235e-08
 39.44793     51.2 1.806e+04 1.192e-08
 39.45794     50.0 1.796e+04 1.197e-08
 39.46691     50.6 1.732e+04 9.929e-09
 39.47691     50.6 1.703e+04 7.862e-09
 39.49411     50.7 1.613e+04 5.383e-09
 39.51412     50.3 1.518e+04 3.676e-09
 39.53413     49.7 1.428e+04 2.680e-09
 39.54795     49.3 1.357e+04 2.239e-09
 39.55796     48.8 1.339e+04 2.186e-09
 39.57415     49.3 1.336e+04 2.185e-09
 39.59416     49.8 1.340e+04 2.235e-09
 39.61417     50.2 1.353e+04 2.417e-09
 39.63419     50.7 1.372e+04 2.736e-09
 39.64798     51.4 1.393e+04 3.046e-09
 39.65798     51.7 1.395e+04 3.085e-09
 39.66846     52.2 1.396e+04 3.077e-09
 39.67846     50.9 1.337e+04 2.396e-09
 39.69422     51.1 1.327e+04 2.275e-09
 39.71423     51.2 1.304e+04 2.011e-09
 39.73424     51.2 1.270e+04 1.681e-09
 39.74800     51.0 1.232e+04 1.387e-09
 39.75800     51.1 1.271e+04 1.557e-09
 39.77427     50.8 1.231e+04 1.300e-09
 39.79428     50.5 1.208e+04 1.184e-09
 39.81429     50.5 1.205e+04 1.177e-09
 39.83430     50.8 1.207e+04 1.191e-09
 39.84802     51.1 1.212e+04 1.228e-09
 39.85803     50.3 1.274e+04 1.621e-09
 39.87001     50.7 1.279e+04 1.685e-09
 39.88002     49.6 1.252e+04 1.434e-09
 39.89433     49.9 1.257e+04 1.519e-09
 39.91435     50.3 1.265e+04 1.640e-09
 39.93436     50.6 1.273e+04 1.794e-09
 39.94804     51.0 1.280e+04 1.962e-09
 39.95805     50.7 1.292e+04 2.132e-09
 39.97438     51.2 1.290e+04 2.149e-09
 39.99439     51.8 1.288e+04 2.128e-09
 40.01440     52.2 1.282e+04 2.048e-09
 40.03441     52.5 1.262e+04 1.834e-09
 40.04806     52.7 1.228e+04 1.516e-09
 40.05807     52.6 1.218e+04 1.462e-09
 40.07156     52.5 1.177e+04 1.158e-09
 40.08157     51.3 1.148e+04 9.926e-10
 40.09445     51.0 1.109e+04 7.988e-10
 40.11446     50.7 1.088e+04 7.309e-10
 40.13818     51.6 1.086e+04 7.152e-10
 40.15829     51.6 1.108e+04 7.997e-10
 40.18470     51.5 1.157e+04 1.011e-09
 40.22472     51.5 1.207e+04 1.283e-09
 40.24821     51.0 1.208e+04 1.310e-09
 40.25812     50.9 1.222e+04 1.413e-09
 40.27312     50.6 1.230e+04 1.490e-09
 40.28322     50.1 1.189e+04 1.246e-09
 40.29466     49.7 1.233e+04 1.412e-09
 40.31457     45.1 1.611e+04 1.987e-09
 40.33459     31.1 2.402e+04 5.158e-09
 40.34808     22.9 2.544e+04 1.278e-08
 40.35304     20.4 2.466e+04 2.240e-08
 40.35950     18.5 2.319e+04 4.380e-08
 40.36951     17.6 2.202e+04 6.219e-08
 40.37880     17.2 2.177e+04 6.198e-08
 40.38380     17.3 2.149e+04 8.496e-08
 40.38952     17.1 2.132e+04 6.791e-08
 40.39805     16.4 2.162e+04 4.392e-08
 40.40305     18.0 2.221e+04 4.342e-08
 40.40953     15.3 2.369e+04 1.855e-08
 40.41954      9.0 2.349e+04 6.519e-09
 40.42954      0.1 1.806e+04 2.471e-09
 40.43955     -3.7 1.479e+04 1.967e-09
 40.44811     -6.3 1.252e+04 1.363e-09
 40.45816    -10.0 1.085e+04 9.558e-10
 40.47467    -10.9 1.034e+04 7.763e-10
 40.49468    -10.3 1.030e+04 7.579e-10
 40.51469    -10.3 1.025e+04 7.196e-10
 40.53470    -10.4 1.018e+04 6.928e-10
 40.54818    -10.4 1.012e+04 6.771e-10
 40.55818    -10.6 1.020e+04 7.151e-10
 40.57472    -10.2 1.010e+04 6.883e-10
 40.59473     -9.7 9.964e+03 6.544e-10
 40.61475     -8.7 9.710e+03 5.695e-10
 40.63476     -8.2 9.563e+03 5.027e-10
 40.66487     -7.3 9.299e+03 4.254e-10
 40.68642     -5.7 8.758e+03 2.905e-10
 40.70643     -4.9 8.710e+03 2.785e-10
 40.73841     -3.4 8.369e+03 2.060e-10
 40.75842     -2.8 8.568e+03 2.516e-10
 40.78504     -1.3 8.388e+03 2.183e-10
 40.82506      0.6 8.378e+03 2.175e-10
 40.86508      2.6 8.422e+03 2.236e-10
 40.90511      4.5 8.533e+03 2.367e-10
 40.93845      6.4 8.658e+03 2.505e-10
 40.95847      7.2 8.990e+03 3.388e-10
 40.98515      9.0 9.209e+03 3.798e-10
 41.02518     10.6 9.421e+03 4.100e-10
 41.06520     11.8 9.578e+03 4.174e-10
 41.08952     12.8 9.575e+03 4.098e-10
 41.10954     12.6 9.284e+03 3.375e-10
 41.13850     13.5 9.280e+03 3.281e-10
 41.15851     14.4 9.808e+03 4.635e-10
 41.18527     15.3 9.682e+03 4.126e-10
 41.22529     16.2 9.524e+03 3.557e-10
 41.26531     17.4 9.310e+03 2.905e-10
 41.30534     18.7 9.050e+03 2.261e-10
 41.33854     20.0 8.833e+03 1.706e-10
 41.35856     20.3 8.868e+03 1.698e-10
 41.38538     21.3 8.654e+03 1.328e-10
 41.42540     22.6 8.626e+03 1.312e-10
 41.46543     23.8 8.702e+03 1.399e-10
 41.49263     24.7 9.026e+03 1.869e-10
 41.51264     25.9 8.829e+03 1.476e-10
 41.53859     26.7 9.219e+03 2.193e-10
 41.55860     26.3 9.395e+03 2.438e-10
 41.58550     27.0 9.735e+03 3.422e-10
 41.62552     27.5 1.006e+04 4.083e-10
 41.64852     27.2 1.033e+04 4.254e-10
 41.65843     27.0 1.041e+04 4.153e-10
 41.67535     26.8 1.041e+04 4.136e-10
 41.69399     26.4 1.049e+04 4.115e-10
 41.70399     26.9 1.053e+04 4.344e-10
 41.71537     26.8 1.054e+04 4.341e-10
 41.73539     26.2 1.056e+04 4.234e-10
 41.74844     25.8 1.052e+04 4.138e-10
 41.75855     25.5 1.044e+04 3.782e-10
 41.78561     25.1 1.031e+04 3.645e-10
 41.82563     25.0 1.017e+04 3.532e-10
 41.86565     25.1 1.010e+04 3.555e-10
 41.89573     25.3 1.006e+04 3.602e-10
 41.91574     24.9 1.057e+04 5.199e-10
 41.93868     25.4 1.053e+04 5.348e-10
 41.95869     25.6 1.088e+04 6.775e-10
 41.98572     26.3 1.080e+04 6.581e-10
 42.02575     27.0 1.060e+04 5.976e-10
 42.06577     27.9 1.049e+04 5.543e-10
 42.09569     28.6 1.042e+04 5.211e-10
 42.10710     28.6 1.051e+04 5.385e-10
 42.11710     28.0 1.076e+04 6.627e-10
 42.13561     27.6 1.111e+04 8.075e-10
 42.14853     26.9 1.162e+04 1.090e-09
 42.15854     27.6 1.167e+04 1.119e-09
 42.17564     26.9 1.240e+04 1.653e-09
 42.19565     26.1 1.321e+04 2.540e-09
 42.21566     24.5 1.463e+04 3.591e-09
 42.23567     22.0 1.595e+04 4.529e-09
 42.24855     19.5 1.611e+04 4.763e-09
 42.25856     17.8 1.744e+04 7.440e-09
 42.27569     16.8 1.700e+04 6.978e-09
 42.29571     15.8 1.613e+04 5.108e-09
 42.30865     13.5 1.502e+04 3.377e-09
 42.31865     12.1 1.443e+04 2.994e-09
 42.33573     10.6 1.383e+04 2.629e-09
 42.34858     10.3 1.388e+04 2.673e-09
 42.35858      8.5 1.413e+04 2.912e-09
 42.37575      8.3 1.438e+04 3.171e-09
 42.39576      8.2 1.507e+04 3.827e-09
 42.41577      7.6 1.614e+04 5.055e-09
 42.43579      7.0 1.736e+04 7.166e-09
 42.44860      6.5 1.849e+04 1.042e-08
 42.45861      5.1 1.757e+04 7.934e-09
 42.47581      5.2 1.776e+04 8.426e-09
 42.49582      5.4 1.812e+04 9.132e-09
 42.51015      5.0 1.738e+04 6.629e-09
 42.51510      4.8 1.836e+04 8.478e-09
 42.52074      4.4 1.821e+04 7.858e-09
 42.53074      3.9 1.795e+04 7.088e-09
 42.54075      3.3 1.763e+04 6.406e-09
 42.54852      2.7 1.725e+04 5.829e-09
 42.55353      1.7 1.587e+04 4.222e-09
 42.56076      1.3 1.558e+04 4.044e-09
 42.57582      0.5 1.515e+04 3.966e-09
 42.59588      0.4 1.491e+04 3.949e-09
 42.61589      0.4 1.463e+04 3.801e-09
 42.63590      0.5 1.431e+04 3.526e-09
 42.64864      0.6 1.419e+04 3.436e-09
 42.65865      0.4 1.348e+04 2.759e-09
 42.67592      0.3 1.367e+04 2.938e-09
 42.69593      0.3 1.390e+04 3.251e-09
 42.71175      0.5 1.395e+04 3.383e-09
 42.72176      0.7 1.363e+04 3.004e-09
 42.73596      0.8 1.357e+04 2.907e-09
 42.74867      1.0 1.337e+04 2.670e-09
 42.75867      1.3 1.321e+04 2.533e-09
 42.77598      1.5 1.283e+04 2.155e-09
 42.79599      1.7 1.234e+04 1.731e-09
 42.81600      1.8 1.178e+04 1.324e-09
 42.83601      1.9 1.121e+04 9.854e-10
 42.84869      1.9 1.074e+04 7.280e-10
 42.85869      2.3 1.073e+04 6.930e-10
 42.87604      1.9 1.044e+04 5.387e-10
 42.90615      1.8 1.026e+04 4.367e-10
 42.93890      2.1 9.793e+03 3.450e-10
 42.95891      2.9 1.002e+04 4.212e-10
 42.98629      3.8 9.748e+03 3.714e-10
 43.02632      5.1 9.602e+03 3.439e-10
 43.06634      6.5 9.522e+03 3.231e-10
 43.10505      8.0 9.407e+03 2.890e-10
 43.12506      8.0 9.221e+03 2.396e-10
 43.13895      9.6 9.252e+03 2.329e-10
 43.15896     10.1 9.337e+03 2.451e-10
 43.18641     11.7 9.421e+03 2.611e-10
 43.22643     13.0 9.635e+03 2.828e-10
 43.26645     14.0 1.003e+04 3.422e-10
 43.29637     15.0 9.987e+03 3.281e-10
 43.31629     15.1 1.014e+04 3.458e-10
 43.32641     14.9 1.044e+04 3.910e-10
 43.33642     14.5 1.104e+04 6.649e-10
 43.34880     14.2 1.139e+04 8.134e-10
 43.35881     14.7 1.145e+04 7.906e-10
 43.37632     14.0 1.183e+04 9.994e-10
 43.39633     13.2 1.216e+04 1.311e-09
 43.41635     12.6 1.250e+04 1.726e-09
 43.43636     12.2 1.283e+04 2.216e-09
 43.44882     11.9 1.313e+04 2.596e-09
 43.45883     12.3 1.353e+04 2.989e-09
 43.47638     11.7 1.377e+04 3.101e-09
 43.49639     10.7 1.379e+04 3.033e-09
 43.51640      9.4 1.375e+04 2.746e-09
 43.52797      8.0 1.351e+04 2.377e-09
 43.53797      7.5 1.408e+04 3.261e-09
 43.54884      6.6 1.366e+04 2.787e-09
 43.55885      7.2 1.369e+04 2.719e-09
 43.57644      6.3 1.304e+04 2.123e-09
 43.59645      5.7 1.235e+04 1.606e-09
 43.61646      5.1 1.166e+04 1.217e-09
 43.63647      4.8 1.108e+04 9.495e-10
 43.64887      4.8 1.067e+04 7.815e-10
 43.65887      5.2 1.075e+04 8.108e-10
 43.67649      5.4 1.050e+04 7.157e-10
 43.69651      5.7 1.032e+04 6.448e-10
 43.71652      5.9 1.020e+04 6.124e-10
 43.73898      6.6 9.974e+03 5.265e-10
 43.75899      7.5 1.019e+04 6.085e-10
 43.78665      8.6 1.018e+04 6.204e-10
 43.82677      9.9 9.893e+03 5.482e-10
 43.86680     11.0 9.533e+03 4.339e-10
 43.90682     11.8 9.152e+03 3.174e-10
 43.93126     12.2 8.854e+03 2.477e-10
 43.94356     12.4 8.321e+03 1.571e-10
 43.95913     12.8 8.867e+03 2.443e-10
 43.98687     13.0 8.721e+03 2.301e-10
 44.02689     13.4 8.679e+03 2.379e-10
 44.06691     14.1 8.624e+03 2.453e-10
 44.10693     15.0 8.536e+03 2.343e-10
 44.13917     16.1 8.351e+03 2.035e-10
 44.15918     16.0 8.372e+03 1.999e-10
 44.18698     17.0 8.130e+03 1.506e-10
 44.22700     17.8 7.901e+03 1.095e-10
 44.26703     18.3 7.703e+03 8.474e-11
 44.30705     19.0 7.595e+03 7.687e-11
 44.33437     20.1 7.574e+03 7.693e-11
 44.34652     20.1 7.515e+03 7.205e-11
 44.35922     19.9 7.508e+03 7.163e-11
 44.38709     21.2 7.506e+03 7.105e-11
 44.42712     22.6 7.510e+03 6.926e-11
 44.46714     23.8 7.531e+03 6.639e-11
 44.50716     25.0 7.550e+03 6.559e-11
 44.53926     26.0 7.569e+03 6.623e-11
 44.55927     25.8 7.520e+03 6.009e-11
 44.58721     26.8 7.552e+03 6.304e-11
 44.62723     27.5 7.689e+03 7.557e-11
 44.66725     27.4 7.991e+03 1.080e-10
 44.70728     27.1 8.545e+03 1.826e-10
 44.73747     26.5 9.246e+03 3.156e-10
 44.74949     25.8 9.430e+03 3.555e-10
 44.75931     25.9 9.254e+03 3.272e-10
 44.78732     25.3 9.702e+03 4.525e-10
 44.81724     24.8 9.915e+03 5.293e-10
 44.83716     24.3 9.916e+03 5.248e-10
 44.86727     23.2 9.832e+03 4.307e-10
 44.90739     22.0 9.389e+03 3.021e-10
 44.93935     19.7 9.206e+03 2.857e-10
 44.95936     18.7 9.682e+03 3.886e-10
 44.98744     15.4 1.039e+04 5.278e-10
 45.01736     13.4 1.088e+04 7.013e-10
 45.03727     11.9 1.130e+04 9.871e-10
 45.04918     11.1 1.150e+04 1.245e-09
 45.05918     10.6 1.163e+04 1.363e-09
 45.07729     10.2 1.153e+04 1.313e-09
 45.09731      9.8 1.133e+04 1.135e-09
 45.11732      9.0 1.105e+04 8.548e-10
 45.13733      7.5 1.076e+04 6.367e-10
 45.14920      5.5 1.046e+04 4.958e-10
 45.15225      3.7 1.036e+04 4.591e-10
 45.16039      3.5 1.048e+04 5.650e-10
 45.17735      1.7 1.037e+04 5.265e-10
 45.19736      0.0 1.059e+04 5.622e-10
 45.21737     -1.4 1.096e+04 6.633e-10
 45.23738     -2.9 1.134e+04 8.405e-10
 45.24922     -4.6 1.184e+04 1.119e-09
 45.25923     -5.8 1.190e+04 1.282e-09
 45.27741     -7.4 1.234e+04 1.582e-09
 45.29742     -8.7 1.265e+04 1.886e-09
 45.31743     -9.8 1.264e+04 1.919e-09
 45.33744    -11.2 1.277e+04 1.758e-09
 45.34925    -13.3 1.298e+04 1.501e-09
 45.35374    -14.2 1.259e+04 1.214e-09
 45.36195    -16.9 1.420e+04 2.174e-09
 45.37746    -18.5 1.410e+04 2.192e-09
 45.39748    -19.4 1.392e+04 2.147e-09
 45.41749    -19.9 1.365e+04 1.965e-09
 45.43750    -20.3 1.323e+04 1.704e-09
 45.44927    -20.6 1.269e+04 1.441e-09
 45.45927    -20.9 1.224e+04 1.255e-09
 45.47752    -21.0 1.175e+04 1.072e-09
 45.49753    -20.9 1.135e+04 9.274e-10
 45.51754    -20.6 1.104e+04 8.168e-10
 45.53756    -20.2 1.083e+04 7.361e-10
 45.54929    -19.8 1.066e+04 6.684e-10
 45.55522    -19.6 1.048e+04 5.630e-10
 45.56350    -20.0 1.060e+04 7.004e-10
 45.57758    -19.4 1.043e+04 6.493e-10
 45.59759    -18.8 1.035e+04 6.209e-10
 45.61760    -18.4 1.027e+04 6.030e-10
 45.63761    -17.9 1.025e+04 6.048e-10
 45.64931    -17.4 1.027e+04 6.269e-10
 45.65932    -17.0 1.015e+04 5.831e-10
 45.67764    -16.5 1.026e+04 6.360e-10
 45.69765    -15.9 1.039e+04 7.154e-10
 45.71766    -15.4 1.051e+04 7.945e-10
 45.73767    -15.0 1.072e+04 8.503e-10
 45.74933    -14.7 1.093e+04 8.834e-10
 45.75670    -14.3 1.091e+04 9.083e-10
 45.76505    -13.9 1.058e+04 6.991e-10
 45.77769    -13.8 1.063e+04 7.046e-10
 45.79770    -13.7 1.062e+04 6.988e-10
 45.81772    -13.3 1.048e+04 6.613e-10
 45.83773    -12.9 1.033e+04 6.074e-10
 45.86784    -12.1 1.022e+04 5.377e-10
 45.90796    -10.8 9.814e+03 3.838e-10
 45.93957     -9.4 9.545e+03 2.774e-10
 45.95838     -8.4 9.465e+03 2.540e-10
 45.96680     -7.3 9.295e+03 2.295e-10
 45.98801     -5.8 9.248e+03 1.911e-10
 46.02803     -4.0 9.268e+03 1.817e-10
 46.06805     -2.1 9.327e+03 1.865e-10
 46.10808     -0.3 9.480e+03 2.128e-10
 46.13961      1.6 9.764e+03 2.804e-10
 46.15962      1.8 9.983e+03 3.660e-10
 46.18812      3.9 1.042e+04 5.239e-10
 46.22815      5.8 1.081e+04 6.931e-10
 46.26817      7.7 1.107e+04 8.202e-10
 46.30819      9.5 1.128e+04 9.006e-10
 46.33811     10.6 1.132e+04 9.482e-10
 46.34947     11.6 1.137e+04 9.536e-10
 46.35947     11.4 1.120e+04 8.546e-10
 46.36971     12.4 1.120e+04 8.157e-10
 46.37971     13.0 1.139e+04 9.332e-10
 46.39805     13.9 1.143e+04 8.925e-10
 46.41806     14.6 1.141e+04 8.362e-10
 46.43807     15.3 1.134e+04 7.628e-10
 46.44949     15.9 1.127e+04 6.816e-10
 46.45950     15.4 1.105e+04 5.975e-10
 46.47809     15.7 1.096e+04 5.511e-10
 46.49810     16.0 1.085e+04 5.409e-10
 46.51812     16.4 1.083e+04 5.463e-10
 46.53813     16.9 1.083e+04 5.616e-10
 46.54951     17.5 1.085e+04 5.754e-10
 46.55952     17.4 1.067e+04 5.079e-10
 46.57126     18.0 1.067e+04 4.953e-10
 46.58126     18.6 1.082e+04 5.294e-10
 46.59816     19.2 1.082e+04 5.196e-10
 46.61817     19.9 1.080e+04 4.929e-10
 46.63818     20.3 1.074e+04 4.677e-10
 46.64954     21.1 1.063e+04 4.536e-10
 46.65954     21.1 1.040e+04 3.812e-10
 46.67821     21.4 1.042e+04 3.846e-10
 46.70832     22.6 1.039e+04 4.094e-10
 46.73975     24.1 1.030e+04 4.141e-10
 46.75976     24.7 1.008e+04 3.127e-10
 46.77300     26.1 1.015e+04 3.692e-10
 46.79302     27.0 1.044e+04 4.998e-10
 46.82849     28.5 1.058e+04 6.131e-10
 46.86851     30.0 1.068e+04 6.929e-10
 46.90853     31.3 1.064e+04 6.763e-10
 46.93979     32.6 1.045e+04 6.073e-10
 46.95980     33.3 1.072e+04 7.297e-10
 46.98858     34.8 1.039e+04 6.140e-10
 47.02860     36.4 9.942e+03 4.454e-10
 47.06863     37.9 9.488e+03 3.023e-10
 47.10865     39.2 9.087e+03 2.121e-10
 47.13984     40.5 8.772e+03 1.776e-10
 47.15985     41.2 9.152e+03 2.388e-10
 47.17611     42.5 8.997e+03 2.246e-10
 47.19612     43.5 8.740e+03 1.798e-10
 47.22872     44.8 8.670e+03 1.781e-10
 47.26874     46.1 8.627e+03 1.807e-10
 47.30876     47.2 8.639e+03 1.926e-10
 47.33988     48.1 8.676e+03 2.039e-10
 47.35989     48.4 8.679e+03 2.037e-10
 47.38881     49.2 8.683e+03 2.065e-10
 47.42883     49.8 8.698e+03 2.159e-10
 47.46885     50.4 8.781e+03 2.423e-10
 47.50888     51.1 8.918e+03 2.788e-10
 47.53993     51.9 9.052e+03 3.067e-10
 47.55994     52.4 8.878e+03 2.564e-10
 47.57921     53.3 8.930e+03 2.550e-10
 47.59922     54.8 9.204e+03 3.369e-10
 47.62895     55.6 9.253e+03 3.346e-10
 47.66897     56.3 9.281e+03 3.298e-10
 47.69889     56.5 9.257e+03 3.208e-10
 47.71880     56.6 9.277e+03 3.303e-10
 47.73881     56.5 9.484e+03 4.024e-10
 47.74978     56.2 1.002e+04 5.792e-10
 47.75979     56.9 9.577e+03 4.265e-10
 47.77884     56.8 1.012e+04 6.167e-10
 47.79058     56.9 1.076e+04 9.157e-10
 47.80058     57.8 1.079e+04 9.260e-10
 47.81886     57.9 1.150e+04 1.331e-09
 47.83887     58.2 1.206e+04 1.788e-09
 47.84980     58.4 1.247e+04 2.107e-09
 47.85981     58.9 1.181e+04 1.567e-09
 47.87889     59.0 1.208e+04 1.666e-09
 47.89890     58.4 1.210e+04 1.607e-09
 47.91892     58.0 1.199e+04 1.522e-09
 47.93992     56.1 1.197e+04 1.440e-09
 47.96003     58.0 1.170e+04 1.340e-09
 47.97905     56.5 1.194e+04 1.467e-09
 47.99213     54.9 1.218e+04 1.623e-09
 48.00213     55.2 1.255e+04 1.863e-09
 48.01897     53.1 1.290e+04 2.302e-09
 48.03898     51.8 1.317e+04 2.796e-09
 48.04985     50.9 1.320e+04 2.935e-09
 48.05985     51.9 1.322e+04 2.972e-09
 48.07901     51.4 1.317e+04 2.917e-09
 48.09902     51.3 1.296e+04 2.646e-09
 48.11903     51.1 1.256e+04 2.092e-09
 48.13996     49.6 1.164e+04 1.044e-09
 48.16007     51.4 1.205e+04 1.491e-09
 48.18927     49.9 1.080e+04 6.981e-10
 48.22929     48.5 9.239e+03 3.268e-10
 48.26931     48.0 8.443e+03 2.293e-10
 48.30933     48.5 8.344e+03 2.143e-10
 48.34010     49.3 8.298e+03 2.023e-10
 48.36012     50.7 8.308e+03 2.013e-10
 48.38542     51.7 8.230e+03 1.822e-10
 48.40543     52.6 8.211e+03 1.828e-10
 48.42940     53.9 8.109e+03 1.567e-10
 48.46943     55.4 7.989e+03 1.324e-10
 48.50945     56.9 7.883e+03 1.130e-10
 48.54015     58.4 7.811e+03 9.925e-11
 48.56016     59.4 7.801e+03 9.414e-11
 48.58949     61.1 7.806e+03 9.262e-11
 48.62952     63.0 7.815e+03 9.265e-11
 48.66954     64.8 7.858e+03 9.522e-11
 48.70956     66.6 7.957e+03 1.030e-10
 48.74019     68.3 8.097e+03 1.183e-10
 48.76020     69.5 8.092e+03 1.149e-10
 48.78853     71.2 8.284e+03 1.401e-10
 48.80854     72.4 8.052e+03 1.026e-10
 48.82963     74.0 8.242e+03 1.273e-10
 48.86965     75.3 8.510e+03 1.689e-10
 48.90968     76.5 8.910e+03 2.396e-10
 48.94024     77.3 9.439e+03 3.586e-10
 48.96025     78.8 9.168e+03 2.819e-10
 48.98972     79.3 9.588e+03 3.857e-10
 49.02975     79.8 9.998e+03 4.972e-10
 49.06977     80.1 1.033e+04 5.506e-10
 49.10979     80.0 1.042e+04 5.375e-10
 49.14028     79.5 1.044e+04 4.585e-10
 49.16029     80.6 1.052e+04 4.982e-10
 49.18984     79.6 1.064e+04 5.123e-10
 49.21164     78.5 1.072e+04 5.395e-10
 49.23165     79.1 1.103e+04 7.072e-10
 49.26988     77.9 1.102e+04 7.360e-10
 49.30991     76.9 1.107e+04 8.288e-10
 49.34033     76.2 1.104e+04 8.739e-10
 49.36034     77.6 1.069e+04 6.729e-10
 49.38995     77.5 1.033e+04 5.612e-10
 49.42997     77.8 9.990e+03 4.586e-10
 49.47000     78.1 9.610e+03 3.591e-10
 49.51002     78.7 9.205e+03 2.724e-10
 49.54037     79.5 8.843e+03 2.127e-10
 49.56038     81.3 8.798e+03 1.981e-10
 49.59007     82.5 8.609e+03 1.848e-10
 49.61474     83.8 8.531e+03 1.805e-10
 49.63476     83.8 8.672e+03 1.892e-10
 49.67011     85.1 8.620e+03 1.859e-10
 49.71013     86.4 8.564e+03 1.769e-10
 49.74042     87.7 8.472e+03 1.594e-10
 49.76043     89.6 8.937e+03 2.536e-10
 49.79018     90.6 8.872e+03 2.344e-10
 49.83020     91.5 8.704e+03 2.002e-10
 49.87023     92.3 8.451e+03 1.655e-10
 49.91025     92.9 8.186e+03 1.443e-10
 49.94046     93.5 8.075e+03 1.432e-10
 49.96047     95.5 8.350e+03 1.836e-10
 49.99029     96.0 8.235e+03 1.793e-10
 50.01785     96.7 8.222e+03 1.856e-10
 50.03786     96.7 8.170e+03 1.846e-10
 50.07034     97.4 8.164e+03 1.841e-10
 50.11036     97.7 8.129e+03 1.782e-10
 50.14050     97.9 8.015e+03 1.587e-10
 50.16052     99.7 8.156e+03 1.717e-10
 50.19041     99.8 8.022e+03 1.467e-10
 50.23043     99.4 7.821e+03 1.162e-10
 50.27045     98.7 7.611e+03 9.481e-11
 50.31048     97.8 7.579e+03 9.304e-11
 50.34055     96.4 7.671e+03 9.953e-11
 50.36056     98.1 8.017e+03 1.397e-10
 50.39052     96.0 8.315e+03 1.703e-10
 50.42044     94.3 8.505e+03 1.935e-10
 50.43076     92.8 8.768e+03 2.329e-10
 50.44077     92.9 8.935e+03 2.647e-10
 50.46037     91.4 9.542e+03 4.285e-10
 50.48038     87.8 1.105e+04 8.478e-10
 50.50039     83.2 1.330e+04 1.938e-09
 50.52040     78.3 1.520e+04 3.892e-09
 50.54040     73.2 1.632e+04 5.026e-09
 50.56041     68.0 1.668e+04 5.352e-09
 50.58044     62.0 1.616e+04 3.910e-09
 50.60045     55.0 1.494e+04 2.402e-09
 50.62046     48.6 1.337e+04 1.632e-09
 50.63232     43.8 1.232e+04 1.249e-09
 50.64227     43.8 1.254e+04 1.376e-09
 50.67054     38.5 1.187e+04 9.990e-10
 50.71071     34.0 1.084e+04 5.605e-10
 50.74064     31.0 1.006e+04 2.991e-10
 50.76065     31.7 1.077e+04 5.002e-10
 50.79075     28.9 1.017e+04 3.163e-10
 50.82067     26.8 1.015e+04 2.894e-10
 50.83387     26.0 1.010e+04 3.015e-10
 50.84375     25.9 1.000e+04 2.925e-10
 50.85047     26.0 1.015e+04 3.395e-10
 50.86060     25.7 1.036e+04 4.353e-10
 50.88061     25.5 1.050e+04 5.685e-10
 50.90062     24.7 1.131e+04 8.231e-10
 50.92063     22.4 1.338e+04 1.493e-09
 50.94049     20.2 1.448e+04 2.709e-09
 50.95049     20.9 1.458e+04 2.410e-09
 50.96065     18.9 1.531e+04 4.038e-09
 50.98066     17.3 1.591e+04 5.976e-09
 51.00068     15.9 1.663e+04 7.939e-09
 51.02069     14.6 1.749e+04 8.445e-09
 51.03542     12.7 1.779e+04 7.738e-09
 51.04524     11.9 1.788e+04 5.807e-09
 51.05052     11.7 1.817e+04 7.696e-09
 51.06071      7.6 1.692e+04 4.303e-09
 51.08072      3.0 1.414e+04 2.201e-09
 51.10073      0.3 1.232e+04 1.455e-09
 51.12074     -0.7 1.208e+04 1.139e-09
 51.14053     -1.9 1.217e+04 9.504e-10
 51.15054     -3.3 1.185e+04 7.417e-10
 51.16077     -5.0 1.158e+04 6.704e-10
 51.18078     -6.5 1.137e+04 6.680e-10
 51.20079     -7.5 1.120e+04 6.736e-10
 51.22080     -7.9 1.117e+04 7.364e-10
 51.23697     -8.0 1.133e+04 8.200e-10
 51.24672     -6.3 1.098e+04 6.885e-10
 51.25056     -6.4 1.117e+04 7.957e-10
 51.27093     -7.2 1.142e+04 7.842e-10
 51.31105     -7.6 1.118e+04 6.818e-10
 51.34067     -9.8 1.142e+04 7.601e-10
 51.35058    -10.2 1.178e+04 8.912e-10
 51.36088    -10.2 1.180e+04 8.918e-10
 51.38089    -12.0 1.206e+04 1.026e-09
 51.40090    -12.6 1.213e+04 1.116e-09
 51.42092    -13.9 1.263e+04 1.415e-09
 51.43852    -18.1 1.424e+04 2.268e-09
 51.44820    -17.8 1.495e+04 2.516e-09
 51.45060    -22.4 1.660e+04 3.975e-09
 51.45589    -27.2 1.868e+04 6.392e-09
 51.46584    -31.7 2.085e+04 1.067e-08
 51.47585    -33.8 2.174e+04 1.529e-08
 51.48586    -37.8 2.379e+04 2.245e-08
 51.49552    -41.2 2.621e+04 3.097e-08
 51.50052    -46.1 2.796e+04 3.449e-08
 51.50587    -50.4 2.807e+04 3.763e-08
 51.51587    -54.8 2.770e+04 3.723e-08
 51.52588    -59.3 2.592e+04 3.386e-08
 51.53588    -63.6 2.470e+04 3.009e-08
 51.54421    -66.2 2.475e+04 2.855e-08
 51.54884    -66.5 2.516e+04 3.112e-08
 51.55053    -71.8 2.670e+04 2.592e-08
 51.55590    -74.1 2.761e+04 2.351e-08
 51.56590    -76.8 2.753e+04 2.077e-08
 51.57591    -79.7 2.609e+04 1.799e-08
 51.58591    -82.3 2.439e+04 1.547e-08
 51.59554    -84.5 2.290e+04 1.362e-08
 51.60054    -89.2 2.077e+04 1.092e-08
 51.60592    -90.0 2.019e+04 9.986e-09
 51.62098    -90.3 1.956e+04 9.639e-09
 51.64008    -92.8 1.811e+04 7.099e-09
 51.64968    -95.9 1.895e+04 7.530e-09
 51.65065   -102.7 1.625e+04 4.260e-09
 51.66105   -104.4 1.468e+04 2.998e-09
 51.68106   -105.4 1.322e+04 2.099e-09
 51.70108   -105.9 1.224e+04 1.522e-09
 51.72109   -106.0 1.167e+04 1.185e-09
 51.74067   -105.6 1.132e+04 9.977e-10
 51.75067   -106.4 1.107e+04 8.832e-10
 51.76111   -105.8 1.080e+04 7.829e-10
 51.78112   -105.0 1.057e+04 7.168e-10
 51.80113   -104.1 1.042e+04 6.781e-10
 51.82114   -103.2 1.033e+04 6.564e-10
 51.84069   -102.3 1.031e+04 6.491e-10
 51.85069   -102.4 1.002e+04 5.618e-10
 51.85163   -101.5 1.008e+04 5.700e-10
 51.86164   -102.9 1.050e+04 6.633e-10
 51.88118   -102.5 1.092e+04 7.991e-10
 51.90119   -102.4 1.142e+04 1.031e-09
 51.92120   -102.1 1.198e+04 1.403e-09
 51.94071   -101.3 1.261e+04 1.950e-09
 51.95072   -101.5 1.245e+04 1.801e-09
 51.96122   -100.3 1.320e+04 2.578e-09
 51.98124    -98.8 1.383e+04 3.338e-09
 52.00125    -97.4 1.424e+04 3.842e-09
 52.02126    -96.5 1.431e+04 3.929e-09
 52.04073    -95.3 1.382e+04 3.288e-09
 52.05074    -95.4 1.390e+04 3.424e-09
 52.05319    -93.7 1.302e+04 2.393e-09
 52.06319    -94.1 1.306e+04 2.418e-09
 52.08129    -93.0 1.211e+04 1.536e-09
 52.10130    -92.4 1.109e+04 9.027e-10
 52.12132    -92.1 1.012e+04 5.251e-10
 52.14085    -92.1 9.359e+03 3.186e-10
 52.16096    -90.9 9.393e+03 3.363e-10
 52.19155    -90.3 8.917e+03 2.380e-10
 52.23157    -87.8 8.388e+03 1.650e-10
 52.27160    -85.4 8.184e+03 1.359e-10
 52.31162    -83.1 8.142e+03 1.288e-10
 52.34099    -80.9 8.144e+03 1.279e-10
 52.36101    -80.7 8.102e+03 1.214e-10
 52.39167    -78.7 8.217e+03 1.306e-10
 52.43169    -76.8 8.332e+03 1.413e-10
 52.45649    -75.3 8.504e+03 1.625e-10
 52.47650    -76.4 8.615e+03 1.754e-10
 52.51173    -76.0 8.970e+03 2.394e-10
 52.54104    -76.2 9.493e+03 3.748e-10
 52.56105    -75.9 9.418e+03 3.431e-10
 52.59178    -76.8 1.031e+04 6.221e-10
 52.62170    -76.7 1.086e+04 8.823e-10
 52.64087    -77.5 1.148e+04 1.134e-09
 52.65087    -77.3 1.147e+04 1.150e-09
 52.65784    -78.3 1.201e+04 1.378e-09
 52.66785    -79.7 1.224e+04 1.426e-09
 52.68164    -81.9 1.243e+04 1.451e-09
 52.70165    -84.6 1.244e+04 1.448e-09
 52.72166    -87.4 1.215e+04 1.448e-09
 52.74089    -89.3 1.190e+04 1.458e-09
 52.75089    -88.8 1.180e+04 1.327e-09
 52.76168    -90.1 1.154e+04 1.358e-09
 52.78169    -90.8 1.143e+04 1.314e-09
 52.80170    -91.4 1.118e+04 1.109e-09
 52.82172    -92.3 1.081e+04 8.076e-10
 52.84091    -93.7 1.024e+04 5.207e-10
 52.85092    -92.3 1.048e+04 6.173e-10
 52.85939    -94.0 9.764e+03 3.861e-10
 52.87950    -95.8 9.275e+03 2.922e-10
 52.91196    -96.7 8.700e+03 2.253e-10
 52.94113    -97.2 8.492e+03 1.891e-10
 52.96114    -94.9 8.470e+03 1.841e-10
 52.99201    -94.8 8.415e+03 1.662e-10
 53.03203    -94.6 8.406e+03 1.643e-10
 53.07205    -94.5 8.589e+03 1.929e-10
 53.11208    -94.4 8.925e+03 2.568e-10
 53.14117    -94.3 9.238e+03 3.307e-10
 53.16118    -92.0 9.120e+03 2.918e-10
 53.19212    -92.0 9.405e+03 3.584e-10
 53.23215    -92.1 9.485e+03 3.719e-10
 53.26269    -92.3 9.318e+03 3.073e-10
 53.28270    -93.6 9.407e+03 3.245e-10
 53.31219    -94.2 8.834e+03 1.961e-10
 53.34122    -94.9 8.616e+03 1.495e-10
 53.36123    -92.8 8.636e+03 1.462e-10
 53.39224    -93.5 8.504e+03 1.259e-10
 53.43226    -93.5 8.468e+03 1.234e-10
 53.47228    -93.3 8.662e+03 1.588e-10
 53.51231    -92.9 8.958e+03 2.166e-10
 53.54126    -92.5 9.221e+03 2.662e-10
 53.56127    -91.1 9.022e+03 2.247e-10
 53.59235    -90.8 9.241e+03 2.582e-10
 53.63237    -90.6 9.330e+03 2.667e-10
 53.66580    -90.4 9.381e+03 2.529e-10
 53.68581    -91.7 9.518e+03 2.637e-10
 53.71242    -91.5 9.601e+03 2.513e-10
 53.74131    -91.1 9.650e+03 2.505e-10
 53.76132    -89.4 9.435e+03 2.082e-10
 53.79247    -89.1 9.482e+03 2.112e-10
 53.83249    -89.0 9.712e+03 2.763e-10
 53.87251    -89.4 1.039e+04 4.758e-10
 53.91253    -90.0 1.135e+04 9.010e-10
 53.94135    -90.7 1.220e+04 1.498e-09
 53.96136    -88.9 1.205e+04 1.359e-09
 53.99258    -89.5 1.261e+04 1.842e-09
 54.02250    -90.8 1.247e+04 1.716e-09
 54.04118    -90.8 1.226e+04 1.542e-09
 54.05118    -90.2 1.234e+04 1.606e-09
 54.06880    -91.3 1.168e+04 1.139e-09
 54.08891    -91.9 1.186e+04 1.214e-09
 54.11265    -94.2 1.156e+04 9.818e-10
 54.14140    -97.0 1.151e+04 9.287e-10
 54.16141    -93.1 1.136e+04 8.695e-10
 54.19269    -96.0 1.142e+04 8.770e-10
 54.23272    -99.3 1.161e+04 9.591e-10
 54.27274   -102.8 1.185e+04 1.067e-09
 54.31276   -106.5 1.192e+04 1.141e-09
 54.34144   -109.7 1.165e+04 1.136e-09
 54.36145   -108.3 1.162e+04 1.060e-09
 54.39281   -111.6 1.092e+04 8.422e-10
 54.43283   -114.2 1.013e+04 5.738e-10
 54.47201   -115.7 9.485e+03 3.955e-10
 54.49202   -119.2 9.448e+03 3.820e-10
 54.51288   -119.7 9.170e+03 3.207e-10
 54.54149   -118.7 9.092e+03 3.095e-10
 54.56150   -119.7 9.059e+03 2.981e-10
 54.59292   -118.4 9.163e+03 3.207e-10
 54.63294   -117.1 9.558e+03 4.121e-10
 54.67297   -115.6 9.964e+03 5.409e-10
 54.71299   -114.1 1.037e+04 6.870e-10
 54.74143   -113.4 1.081e+04 8.286e-10
 54.76144   -114.1 1.116e+04 9.126e-10
 54.78293   -113.0 1.130e+04 9.786e-10
 54.80285   -112.2 1.129e+04 9.897e-10
 54.82286   -111.3 1.136e+04 1.025e-09
 54.84136   -110.6 1.151e+04 1.077e-09
 54.85136   -111.8 1.190e+04 1.281e-09
 54.86288   -110.9 1.200e+04 1.336e-09
 54.88289   -110.0 1.204e+04 1.365e-09
 54.89493   -108.9 1.207e+04 1.370e-09
 54.90493   -109.3 1.225e+04 1.467e-09
 54.92292   -108.2 1.227e+04 1.463e-09
 54.94138   -107.2 1.228e+04 1.420e-09
 54.95138   -108.4 1.237e+04 1.489e-09
 54.96294   -107.5 1.230e+04 1.417e-09
 54.99305   -106.8 1.227e+04 1.380e-09
 55.03317   -103.9 1.211e+04 1.324e-09
 55.07320   -101.2 1.207e+04 1.305e-09
 55.11322    -98.9 1.223e+04 1.369e-09
 55.14162    -96.8 1.239e+04 1.405e-09
 55.16163    -97.6 1.124e+04 7.838e-10
 55.19326    -95.4 1.127e+04 7.750e-10
 55.22318    -94.0 1.145e+04 8.407e-10
 55.24145    -93.3 1.144e+04 8.293e-10
 55.25145    -93.8 1.090e+04 6.500e-10
 55.26311    -92.5 1.094e+04 6.448e-10
 55.28312    -92.1 1.089e+04 6.350e-10
 55.29803    -90.8 1.085e+04 6.045e-10
 55.30804    -91.1 1.111e+04 7.103e-10
 55.32314    -90.1 1.103e+04 6.528e-10
 55.34147    -89.1 1.102e+04 6.112e-10
 55.35147    -89.4 1.063e+04 5.004e-10
 55.36317    -88.7 1.058e+04 4.708e-10
 55.38318    -87.7 1.059e+04 4.451e-10
 55.40319    -87.0 1.056e+04 4.371e-10
 55.42320    -86.2 1.065e+04 4.373e-10
 55.44149    -85.8 1.075e+04 4.609e-10
 55.45150    -86.1 1.050e+04 3.998e-10
 55.47333    -85.1 1.106e+04 5.227e-10
 55.51345    -83.9 1.142e+04 6.806e-10
 55.54171    -83.0 1.179e+04 8.987e-10
 55.56172    -82.8 1.097e+04 5.307e-10
 55.59349    -82.0 1.131e+04 6.925e-10
 55.63352    -81.3 1.153e+04 7.918e-10
 55.66344    -80.5 1.145e+04 7.580e-10
 55.68335    -80.4 1.150e+04 7.701e-10
 55.70113    -80.2 1.166e+04 7.993e-10
 55.71114    -80.4 1.173e+04 8.268e-10
 55.72337    -80.3 1.192e+04 8.711e-10
 55.74156    -80.3 1.218e+04 9.583e-10
 55.75156    -79.4 1.187e+04 8.431e-10
 55.76340    -79.5 1.210e+04 9.257e-10
 55.78341    -79.6 1.232e+04 1.080e-09
 55.80342    -79.5 1.236e+04 1.189e-09
 55.82343    -79.3 1.234e+04 1.245e-09
 55.84158    -79.0 1.213e+04 1.153e-09
 55.85159    -78.3 1.215e+04 1.154e-09
 55.86345    -77.9 1.186e+04 1.034e-09
 55.88346    -77.1 1.143e+04 8.596e-10
 55.90269    -76.2 1.104e+04 6.617e-10
 55.91269    -76.1 1.095e+04 6.065e-10
 55.92349    -75.4 1.069e+04 4.393e-10
 55.94170    -75.1 1.046e+04 3.286e-10
 55.96181    -73.6 1.055e+04 3.796e-10
 55.99372    -72.7 1.024e+04 2.796e-10
 56.03374    -71.5 9.851e+03 2.139e-10
 56.07377    -70.3 9.685e+03 1.988e-10
 56.10443    -69.2 9.607e+03 1.966e-10
 56.12444    -69.0 9.540e+03 1.796e-10
 56.14184    -67.8 9.446e+03 1.893e-10
 56.16185    -66.7 9.430e+03 1.803e-10
 56.19384    -65.4 9.296e+03 1.680e-10
 56.23386    -64.0 9.182e+03 1.540e-10
 56.27388    -62.5 9.107e+03 1.447e-10
 56.31390    -61.0 9.043e+03 1.364e-10
 56.34189    -59.5 8.970e+03 1.294e-10
 56.36190    -58.7 8.948e+03 1.228e-10
 56.39395    -57.0 8.869e+03 1.184e-10
 56.43397    -55.2 8.792e+03 1.099e-10
 56.47400    -53.5 8.741e+03 9.928e-11
 56.50754    -51.9 8.687e+03 9.205e-11
 56.52755    -51.4 8.601e+03 7.931e-11
 56.54193    -49.9 8.569e+03 7.799e-11
 56.56194    -49.2 8.606e+03 7.842e-11
 56.59406    -47.7 8.636e+03 8.153e-11
 56.63409    -46.2 8.692e+03 8.421e-11
 56.67411    -45.0 8.695e+03 8.704e-11
 56.71413    -43.8 8.668e+03 9.174e-11
 56.74198    -42.5 8.720e+03 9.472e-11
 56.76199    -41.8 8.746e+03 9.395e-11
 56.79418    -40.9 8.774e+03 8.944e-11
 56.83420    -39.8 8.783e+03 9.280e-11
 56.87422    -38.6 8.801e+03 1.075e-10
 56.91064    -37.3 8.903e+03 1.244e-10
 56.93065    -36.8 8.776e+03 1.135e-10
 56.94202    -35.8 8.991e+03 1.314e-10
 56.96203    -35.5 9.050e+03 1.222e-10
 56.99429    -35.4 9.237e+03 1.559e-10
 57.03432    -35.1 9.448e+03 2.362e-10
 57.07434    -34.4 1.003e+04 3.529e-10
 57.10426    -34.5 1.041e+04 4.527e-10
 57.12200    -34.7 1.077e+04 5.319e-10
 57.13201    -34.5 1.073e+04 5.233e-10
 57.14187    -34.7 1.086e+04 6.467e-10
 57.15187    -33.9 1.074e+04 5.932e-10
 57.16420    -33.6 1.086e+04 6.311e-10
 57.18421    -33.4 1.079e+04 6.245e-10
 57.20422    -33.0 1.071e+04 5.938e-10
 57.23433    -32.8 1.060e+04 4.301e-10
 57.27445    -32.8 1.040e+04 3.720e-10
 57.31375    -32.1 1.010e+04 3.027e-10
 57.33376    -31.4 9.934e+03 2.608e-10
 57.34211    -30.7 9.724e+03 2.141e-10
 57.36212    -28.9 9.721e+03 2.190e-10
 57.39452    -28.2 9.711e+03 1.919e-10
 57.43454    -27.8 9.995e+03 2.041e-10
 57.47457    -27.8 1.044e+04 2.947e-10
 57.50449    -27.6 1.063e+04 4.304e-10
 57.52440    -27.7 1.095e+04 5.167e-10
 57.53511    -30.0 1.236e+04 9.015e-10
 57.54267    -30.3 1.246e+04 9.007e-10
 57.55196    -28.4 1.170e+04 7.387e-10
 57.56442    -31.8 1.400e+04 1.357e-09
 57.58443    -34.2 1.440e+04 2.425e-09
 57.60445    -34.4 1.372e+04 3.452e-09
 57.62446    -33.2 1.361e+04 3.672e-09
 57.64198    -32.4 1.501e+04 1.957e-09
 57.65199    -31.5 1.415e+04 2.497e-09
 57.66448    -34.4 1.569e+04 1.221e-09
 57.68449    -42.2 1.242e+04 7.318e-10
 57.70450    -44.8 1.164e+04 6.921e-10
 57.72451    -45.9 1.199e+04 8.131e-10
 57.73667    -47.2 1.230e+04 9.434e-10
 57.74415    -47.1 1.204e+04 8.117e-10
 57.75201    -46.6 1.230e+04 9.512e-10
 57.76454    -48.1 1.253e+04 1.127e-09
 57.78455    -49.4 1.264e+04 1.289e-09
 57.80456    -50.4 1.277e+04 1.372e-09
 57.82457    -51.4 1.282e+04 1.374e-09
 57.84203    -52.4 1.265e+04 1.220e-09
 57.85203    -51.5 1.289e+04 1.681e-09
 57.86459    -52.6 1.263e+04 1.306e-09
 57.88461    -53.9 1.233e+04 1.009e-09
 57.90462    -55.3 1.199e+04 8.082e-10
 57.92463    -56.3 1.166e+04 6.826e-10
 57.93822    -56.9 1.146e+04 6.132e-10
 57.94563    -57.1 1.148e+04 6.178e-10
 57.95205    -57.0 1.131e+04 5.643e-10
 57.96465    -57.3 1.120e+04 5.043e-10
 57.98466    -57.9 1.100e+04 4.412e-10
 58.00467    -58.1 1.085e+04 4.074e-10
 58.02469    -58.3 1.072e+04 3.872e-10
 58.04207    -58.3 1.071e+04 3.839e-10
 58.05208    -57.7 1.058e+04 3.649e-10
 58.06471    -57.6 1.060e+04 3.635e-10
 58.08472    -57.8 1.073e+04 3.809e-10
 58.10473    -58.1 1.094e+04 4.148e-10
 58.12474    -58.5 1.117e+04 4.834e-10
 58.13977    -59.2 1.148e+04 6.140e-10
 58.14711    -59.7 1.165e+04 6.924e-10
 58.15210    -58.3 1.105e+04 5.044e-10
 58.16477    -60.2 1.216e+04 7.258e-10
 58.18478    -63.3 1.377e+04 1.287e-09
 58.20479    -66.1 1.496e+04 2.411e-09
 58.22480    -67.9 1.549e+04 3.847e-09
 58.24211    -69.0 1.561e+04 4.589e-09
 58.25212    -68.3 1.491e+04 3.289e-09
 58.26482    -69.5 1.477e+04 3.294e-09
 58.28483    -70.9 1.401e+04 2.432e-09
 58.30485    -72.8 1.311e+04 1.605e-09
 58.32486    -74.7 1.221e+04 1.109e-09
 58.34132    -75.3 1.165e+04 8.866e-10
 58.34860    -76.7 1.126e+04 7.172e-10
 58.35214    -76.0 1.119e+04 6.841e-10
 58.36488    -75.9 1.086e+04 5.650e-10
 58.38489    -75.6 1.041e+04 4.417e-10
 58.40490    -75.3 1.017e+04 3.864e-10
 58.43502    -74.0 9.977e+03 3.446e-10
 58.47514    -72.8 9.738e+03 2.943e-10
 58.51516    -71.5 9.525e+03 2.512e-10
 58.54238    -70.0 9.444e+03 2.321e-10
 58.55027    -69.4 9.265e+03 2.016e-10
 58.56308    -69.9 9.179e+03 1.809e-10
 58.59521    -68.3 9.258e+03 1.924e-10
 58.63523    -66.7 9.430e+03 2.354e-10
 58.67525    -64.9 9.631e+03 2.992e-10
 58.71528    -63.0 9.838e+03 3.752e-10
 58.74242    -61.2 1.005e+04 4.579e-10
 58.76243    -60.9 9.761e+03 3.307e-10
 58.79532    -59.5 9.972e+03 3.988e-10
 58.83534    -58.3 1.018e+04 5.019e-10
 58.86526    -56.9 1.025e+04 5.827e-10
 58.88518    -56.4 1.038e+04 6.590e-10
 58.90519    -55.3 1.056e+04 7.654e-10
 58.92520    -54.7 1.065e+04 8.173e-10
 58.94237    -53.7 1.069e+04 8.526e-10
 58.95324    -53.0 9.849e+03 4.693e-10
 58.96609    -52.4 1.010e+04 6.170e-10
 58.99534    -51.1 9.944e+03 5.159e-10
 59.03546    -48.8 9.367e+03 3.280e-10
 59.07548    -47.1 8.942e+03 2.046e-10
 59.11550    -45.7 8.701e+03 1.630e-10
 59.14251    -43.9 8.670e+03 1.588e-10
 59.16252    -43.8 8.486e+03 1.314e-10
 59.19555    -41.8 8.652e+03 1.671e-10
 59.23557    -39.5 8.858e+03 2.096e-10
 59.27560    -37.2 9.079e+03 2.502e-10
 59.31562    -35.3 9.312e+03 2.846e-10
 59.34255    -33.8 9.665e+03 3.382e-10
 59.35620    -33.4 9.799e+03 4.240e-10
 59.36929    -34.0 9.802e+03 4.186e-10
 59.39566    -33.5 1.054e+04 6.312e-10
 59.43569    -35.4 1.242e+04 1.479e-09
 59.46561    -37.0 1.417e+04 3.668e-09
 59.48552    -37.2 1.489e+04 6.545e-09
 59.50553    -35.3 1.558e+04 9.476e-09
 59.52554    -33.5 1.592e+04 1.057e-08
 59.54240    -31.7 1.530e+04 7.896e-09
 59.55241    -31.5 1.552e+04 8.333e-09
 59.56064    -30.4 1.501e+04 4.635e-09
 59.57065    -31.4 1.478e+04 3.895e-09
 59.58558    -34.9 1.395e+04 2.067e-09
 59.60559    -38.3 1.243e+04 1.287e-09
 59.62560    -39.4 1.182e+04 1.075e-09
 59.64243    -39.1 1.171e+04 1.021e-09
 59.65243    -39.3 1.174e+04 1.038e-09
 59.66562    -39.1 1.148e+04 9.214e-10
 59.68563    -38.5 1.128e+04 8.284e-10
 59.70565    -38.2 1.101e+04 6.741e-10
 59.72566    -37.8 1.089e+04 6.412e-10
 59.74245    -37.4 1.043e+04 4.813e-10
 59.75245    -37.7 1.036e+04 4.452e-10
 59.76219    -37.5 1.024e+04 4.110e-10
 59.77230    -38.8 1.006e+04 3.365e-10
 59.79589    -37.7 9.959e+03 3.130e-10
 59.83592    -37.0 9.883e+03 3.024e-10
 59.87594    -36.5 9.980e+03 3.340e-10
 59.90586    -36.4 1.009e+04 3.642e-10
 59.92577    -36.8 1.023e+04 3.790e-10
 59.94249    -37.6 1.038e+04 4.729e-10
 59.95250    -37.6 1.048e+04 4.573e-10
 59.96374    -38.3 1.064e+04 5.859e-10
 59.97375    -38.6 1.036e+04 4.902e-10
 59.98581    -38.7 1.061e+04 6.532e-10
 60.00582    -38.6 1.087e+04 7.693e-10
 60.02583    -38.6 1.111e+04 8.307e-10
 60.04252    -38.7 1.118e+04 8.460e-10
 60.05252    -38.5 1.125e+04 9.252e-10
 60.06585    -38.7 1.126e+04 8.566e-10
 60.08586    -38.9 1.107e+04 7.568e-10
 60.10587    -38.9 1.082e+04 6.517e-10
 60.12589    -38.7 1.058e+04 5.330e-10
 60.14264    -38.8 1.039e+04 3.902e-10
 60.16213    -38.4 1.036e+04 4.126e-10
 60.17550    -38.0 1.029e+04 3.928e-10
 60.19612    -37.2 9.945e+03 2.922e-10
 60.23614    -35.7 9.511e+03 1.993e-10
 60.27617    -34.3 9.277e+03 1.332e-10
 60.31619    -33.0 9.107e+03 1.028e-10
 60.34278    -31.4 9.000e+03 8.990e-11
 60.36279    -30.5 9.002e+03 1.015e-10
 60.39624    -28.5 8.976e+03 9.699e-11
 60.43626    -26.4 9.093e+03 9.081e-11
 60.47628    -24.9 9.291e+03 9.553e-11
 60.51630    -24.2 9.554e+03 1.230e-10
 60.54282    -22.7 9.538e+03 2.131e-10
 60.56283    -21.9 9.538e+03 1.927e-10
 60.57860    -19.3 9.685e+03 2.952e-10
 60.59861    -18.7 9.512e+03 2.586e-10
 60.63637    -16.6 9.692e+03 2.527e-10
 60.67640    -14.6 9.833e+03 1.951e-10
 60.71642    -13.4 1.006e+04 1.745e-10
 60.74287    -13.5 1.059e+04 2.306e-10
 60.76288    -11.2 1.052e+04 1.957e-10
 60.78006    -13.0 1.154e+04 3.170e-10
 60.78996    -12.0 1.109e+04 2.733e-10
 60.80627    -13.4 1.147e+04 4.365e-10
 60.82629    -13.8 1.181e+04 9.092e-10
 60.84269    -12.0 1.186e+04 1.499e-09
 60.85270    -11.7 1.192e+04 1.517e-09
 60.86631     -9.5 1.231e+04 1.959e-09
 60.88632     -8.0 1.266e+04 1.930e-09
 60.90633     -7.6 1.287e+04 1.511e-09
 60.92634     -8.1 1.258e+04 1.009e-09
 60.94272     -9.3 1.157e+04 6.804e-10
 60.95272     -8.0 1.214e+04 7.789e-10
 60.96637     -9.6 1.132e+04 5.345e-10
 60.98151    -11.1 1.087e+04 4.452e-10
 60.99152    -10.4 1.077e+04 4.292e-10
 61.00639    -11.5 1.074e+04 4.463e-10
 61.02640    -12.8 1.091e+04 5.571e-10
 61.04274    -13.7 1.143e+04 7.531e-10
 61.05274    -13.3 1.150e+04 7.875e-10
 61.06642    -15.6 1.288e+04 1.238e-09
 61.08138    -18.2 1.486e+04 2.199e-09
 61.08719    -18.4 1.507e+04 2.283e-09
 61.09219    -18.1 1.473e+04 2.107e-09
 61.09765    -20.1 1.553e+04 3.109e-09
 61.10266    -20.6 1.607e+04 3.457e-09
 61.11135    -24.1 1.823e+04 5.189e-09
 61.12136    -29.0 2.055e+04 1.112e-08
 61.13136    -32.7 2.207e+04 2.068e-08
 61.14137    -34.5 2.214e+04 3.747e-08
 61.14767    -34.9 2.197e+04 6.060e-08
 61.15267    -34.4 2.269e+04 6.489e-08
 61.16138    -34.5 2.249e+04 7.559e-08
 61.17139    -34.9 2.224e+04 7.323e-08
 61.18139    -34.9 2.189e+04 5.003e-08
 61.18797    -35.1 2.187e+04 2.845e-08
 61.19297    -35.0 2.159e+04 3.587e-08
 61.19768    -35.9 2.155e+04 2.193e-08
 61.20268    -36.7 2.139e+04 1.761e-08
 61.21141    -39.5 2.038e+04 9.671e-09
 61.22647    -42.2 1.853e+04 7.138e-09
 61.24278    -45.9 1.490e+04 2.745e-09
 61.25279    -46.8 1.393e+04 2.006e-09
 61.26654    -47.6 1.219e+04 1.515e-09
 61.28655    -46.5 1.160e+04 1.356e-09
 61.30656    -45.1 1.140e+04 1.271e-09
 61.32657    -43.7 1.122e+04 1.175e-09
 61.34280    -42.2 1.112e+04 1.062e-09
 61.35281    -42.0 1.143e+04 1.378e-09
 61.36659    -40.6 1.149e+04 1.314e-09
 61.38461    -39.2 1.159e+04 1.232e-09
 61.39462    -38.8 1.109e+04 9.079e-10
 61.40662    -37.9 1.072e+04 7.460e-10
 61.42663    -37.5 1.029e+04 6.272e-10
 61.44283    -38.3 1.018e+04 5.870e-10
 61.45283    -36.6 1.285e+04 1.154e-09
 61.46665    -38.6 1.407e+04 1.314e-09
 61.48666    -40.8 1.451e+04 1.826e-09
 61.50667    -41.4 1.387e+04 2.348e-09
 61.52669    -41.1 1.300e+04 2.574e-09
 61.54285    -40.2 1.259e+04 2.583e-09
 61.55286    -39.5 1.383e+04 3.683e-09
 61.56671    -38.8 1.320e+04 3.517e-09
 61.58617    -37.9 1.290e+04 3.134e-09
 61.59617    -37.3 1.246e+04 2.494e-09
 61.60673    -36.9 1.229e+04 2.130e-09
 61.62674    -37.8 1.193e+04 1.672e-09
 61.64287    -39.3 1.126e+04 1.334e-09
 61.65288    -38.6 1.169e+04 1.572e-09
 61.66677    -39.4 1.119e+04 1.365e-09
 61.68678    -39.4 1.114e+04 1.340e-09
 61.70679    -39.0 1.128e+04 1.381e-09
 61.72680    -38.6 1.137e+04 1.401e-09
 61.74289    -38.3 1.137e+04 1.370e-09
 61.75290    -37.8 1.158e+04 1.517e-09
 61.76682    -37.4 1.142e+04 1.380e-09
 61.78683    -37.2 1.115e+04 1.176e-09
 61.79772    -37.2 1.088e+04 9.663e-10
 61.80773    -37.3 1.094e+04 1.016e-09
 61.82686    -38.4 1.060e+04 7.819e-10
 61.84292    -39.3 1.052e+04 7.027e-10
 61.85292    -40.2 1.071e+04 7.315e-10
 61.86688    -41.3 1.035e+04 6.435e-10
 61.88689    -41.7 1.039e+04 6.377e-10
 61.91701    -41.6 1.090e+04 7.083e-10
 61.94313    -40.8 1.091e+04 7.382e-10
 61.95304    -42.2 1.086e+04 7.929e-10
 61.96694    -41.5 1.104e+04 8.516e-10
 61.99705    -40.2 1.126e+04 9.195e-10
 62.03717    -37.7 1.101e+04 7.966e-10
 62.07720    -35.8 1.088e+04 6.842e-10
 62.10711    -34.2 1.085e+04 6.042e-10
 62.12703    -34.1 1.084e+04 6.131e-10
 62.14308    -32.6 1.111e+04 7.348e-10
 62.16319    -32.5 1.147e+04 9.936e-10
 62.19102    -30.6 1.179e+04 1.237e-09
 62.21103    -30.4 1.137e+04 8.846e-10
 62.23729    -28.2 1.190e+04 1.122e-09
 62.27731    -26.7 1.217e+04 1.149e-09
 62.31733    -25.8 1.196e+04 9.560e-10
 62.34322    -25.1 1.153e+04 7.740e-10
 62.36323    -24.3 1.208e+04 1.073e-09
 62.39738    -23.2 1.159e+04 7.613e-10
 62.43740    -22.3 1.122e+04 5.570e-10
 62.47742    -21.1 1.110e+04 4.938e-10
 62.50734    -19.8 1.113e+04 4.944e-10
 62.52726    -19.1 1.111e+04 4.998e-10
 62.54307    -18.1 1.100e+04 5.154e-10
 62.56318    -17.1 1.099e+04 4.605e-10
 62.59412    -14.8 1.102e+04 5.131e-10
 62.61413    -15.6 1.110e+04 5.627e-10
 62.63752    -13.2 1.099e+04 5.811e-10
 62.67754    -11.1 1.100e+04 5.505e-10
 62.71756     -9.4 1.104e+04 5.721e-10
 62.74331     -8.0 1.134e+04 7.102e-10
 62.75322     -6.9 1.189e+04 9.895e-10
 62.76739     -6.8 1.209e+04 1.045e-09
 62.78741     -6.7 1.224e+04 1.364e-09
 62.80548     -5.8 1.220e+04 1.594e-09
 62.81549     -5.8 1.172e+04 1.111e-09
 62.82743     -5.1 1.170e+04 1.150e-09
 62.84314     -4.2 1.164e+04 1.126e-09
 62.85314     -3.6 1.202e+04 1.284e-09
 62.86745     -3.0 1.191e+04 1.177e-09
 62.88746     -2.6 1.179e+04 1.036e-09
 62.90747     -2.5 1.169e+04 8.928e-10
 62.92749     -2.6 1.156e+04 8.107e-10
 62.94316     -2.4 1.140e+04 7.440e-10
 62.95317     -2.4 1.163e+04 8.452e-10
 62.96751     -2.4 1.156e+04 8.058e-10
 62.98752     -2.5 1.156e+04 8.048e-10
 63.00704     -2.5 1.155e+04 8.190e-10
 63.01704     -2.5 1.132e+04 7.638e-10
 63.02754     -2.4 1.125e+04 7.750e-10
 63.04318     -1.8 1.107e+04 7.402e-10
 63.05319     -1.2 1.127e+04 8.559e-10
 63.06757     -0.4 1.102e+04 7.538e-10
 63.08758      0.3 1.085e+04 5.973e-10
 63.11769     -0.1 1.053e+04 3.675e-10
 63.14340     -0.7 1.025e+04 2.528e-10
 63.16341      0.7 1.037e+04 2.665e-10
 63.19784      0.2 1.021e+04 2.387e-10
 63.23786     -0.2 1.029e+04 2.643e-10
 63.27788     -0.4 1.043e+04 3.241e-10
 63.31790     -0.4 1.049e+04 3.449e-10
 63.34335     -0.3 1.055e+04 3.355e-10
 63.35326      0.5 1.059e+04 3.513e-10
 63.36774     -0.3 1.076e+04 3.379e-10
 63.38775     -3.5 1.167e+04 4.098e-10
 63.40776     -8.5 1.325e+04 6.860e-10
 63.42015    -11.8 1.262e+04 1.244e-09
 63.43015    -11.6 1.310e+04 1.264e-09
 63.44327    -11.9 1.255e+04 2.103e-09
 63.45328    -11.6 1.243e+04 1.916e-09
 63.46779    -11.0 1.229e+04 2.230e-09
 63.48781    -10.3 1.273e+04 1.365e-09
 63.50782    -13.4 1.266e+04 7.788e-10
 63.52783    -18.0 1.100e+04 4.384e-10
 63.54330    -20.0 1.026e+04 3.528e-10
 63.55330    -19.4 1.034e+04 3.602e-10
 63.56785    -20.0 1.011e+04 3.377e-10
 63.59797    -19.8 1.004e+04 3.330e-10
 63.63809    -19.7 9.977e+03 3.214e-10
 63.67811    -19.8 9.974e+03 2.916e-10
 63.71813    -20.5 1.014e+04 2.951e-10
 63.74353    -21.6 1.027e+04 4.075e-10
 63.76355    -20.9 1.061e+04 5.067e-10
 63.79818    -20.7 1.089e+04 7.536e-10
 63.82345    -20.1 1.117e+04 9.046e-10
 63.84346    -20.7 1.057e+04 6.234e-10
 63.87822    -21.1 1.062e+04 6.065e-10
 63.91825    -23.0 1.102e+04 6.429e-10
 63.94358    -27.1 1.216e+04 1.053e-09
 63.96359    -26.0 1.224e+04 1.034e-09
 63.98819    -28.8 1.314e+04 2.053e-09
 64.00810    -29.9 1.349e+04 2.828e-09
 64.02480    -30.1 1.369e+04 3.183e-09
 64.03481    -30.6 1.381e+04 3.488e-09
 64.04341    -30.6 1.366e+04 2.789e-09
 64.05341    -30.6 1.400e+04 3.419e-09
 64.06814    -30.7 1.333e+04 1.820e-09
 64.08815    -35.4 1.175e+04 8.216e-10
 64.10816    -38.3 1.032e+04 5.021e-10
 64.12817    -39.1 9.863e+03 4.156e-10
 64.14343    -39.7 9.680e+03 3.569e-10
 64.15343    -39.3 9.862e+03 4.138e-10
 64.16819    -39.6 9.733e+03 3.735e-10
 64.18821    -39.7 9.686e+03 3.606e-10
 64.20822    -39.7 9.673e+03 3.585e-10
 64.22645    -39.6 9.731e+03 3.708e-10
 64.24656    -39.8 9.461e+03 3.007e-10
 64.27845    -39.2 9.155e+03 2.508e-10
 64.31848    -38.2 8.830e+03 1.885e-10
 64.34367    -37.2 8.510e+03 1.292e-10
 64.36368    -36.9 8.446e+03 1.135e-10
 64.39852    -36.2 8.184e+03 7.227e-11
 64.43854    -35.8 8.015e+03 5.447e-11
 64.47857    -35.3 7.924e+03 5.065e-11
 64.51859    -34.4 7.865e+03 5.513e-11
 64.54371    -33.4 7.903e+03 6.678e-11
 64.56372    -32.9 7.899e+03 7.077e-11
 64.59864    -31.3 8.031e+03 8.452e-11
 64.62965    -30.0 8.158e+03 9.020e-11
 64.64967    -30.8 8.333e+03 1.137e-10
 64.67868    -29.9 8.378e+03 1.156e-10
 64.71870    -29.2 8.365e+03 1.136e-10
 64.74376    -28.5 8.371e+03 1.208e-10
 64.76377    -27.3 8.446e+03 1.274e-10
 64.79875    -26.8 8.615e+03 1.498e-10
 64.83877    -26.7 8.924e+03 1.917e-10
 64.87880    -26.7 9.270e+03 2.714e-10
 64.91882    -26.2 9.706e+03 3.979e-10
 64.94370    -26.1 1.030e+04 5.366e-10
 64.95361    -25.7 1.047e+04 6.216e-10
 64.96865    -25.6 1.043e+04 6.248e-10
 64.98866    -26.7 1.082e+04 6.892e-10
 65.00867    -30.5 1.253e+04 8.935e-10
 65.02869    -34.8 1.376e+04 1.517e-09
 65.04257    -37.1 1.426e+04 2.444e-09
 65.04751    -39.3 1.473e+04 3.104e-09
 65.05363    -41.8 1.675e+04 6.192e-09
 65.06871    -42.2 1.665e+04 5.803e-09
 65.08872    -46.0 1.844e+04 5.349e-09
 65.10368    -58.1 3.074e+04 6.434e-09
 65.11364    -73.9 4.446e+04 1.090e-08
 65.12364    -82.2 3.562e+04 1.042e-07
 65.13112    -83.9 2.181e+04 1.494e-06
 65.13610    -86.7 1.965e+04 4.202e-06
 65.14110    -91.7 1.883e+04 9.012e-06
 65.14484    -97.7 1.832e+04 1.044e-05
 65.14693    -99.5 1.858e+04 1.078e-05
 65.14809    -97.8 1.881e+04 7.204e-06
 65.14851    -97.7 2.086e+04 2.124e-06
 65.15111   -102.4 2.053e+04 2.625e-06
 65.15611   -105.4 2.090e+04 2.418e-06
 65.16111   -107.9 2.238e+04 1.499e-06
 65.16612   -110.0 2.463e+04 7.233e-07
 65.17365   -112.4 2.612e+04 3.227e-07
 65.18368   -118.2 2.821e+04 7.734e-08
 65.19357   -124.2 2.355e+04 2.809e-08
 65.19857   -126.9 2.052e+04 2.235e-08
 65.20369   -127.4 1.894e+04 1.908e-08
 65.21369   -127.0 1.837e+04 1.649e-08
 65.22370   -126.2 1.772e+04 1.364e-08
 65.23371   -125.8 1.712e+04 1.113e-08
 65.24358   -125.5 1.676e+04 8.917e-09
 65.24858   -125.5 1.657e+04 9.447e-09
 65.24903   -125.3 1.632e+04 7.898e-09
 65.25403   -124.3 1.668e+04 9.508e-09
 65.26372   -124.2 1.634e+04 7.726e-09
 65.27373   -124.2 1.602e+04 6.217e-09
 65.28373   -124.4 1.562e+04 5.210e-09
 65.29359   -124.4 1.524e+04 4.576e-09
 65.29859   -124.6 1.510e+04 4.561e-09
 65.30880   -123.8 1.488e+04 4.101e-09
 65.32886   -123.5 1.435e+04 3.188e-09
 65.34370   -123.2 1.378e+04 2.628e-09
 65.35370   -122.9 1.397e+04 2.833e-09
 65.36888   -122.2 1.397e+04 2.633e-09
 65.38889   -121.6 1.439e+04 2.621e-09
 65.40890   -121.1 1.505e+04 2.921e-09
 65.42891   -120.8 1.589e+04 3.653e-09
 65.44372   -120.8 1.672e+04 5.021e-09
 65.45047   -121.8 1.675e+04 5.550e-09
 65.45568   -119.3 1.582e+04 3.246e-09
 65.46894   -119.6 1.680e+04 5.158e-09
 65.48895   -119.5 1.759e+04 8.437e-09
 65.50896   -118.4 1.821e+04 1.279e-08
 65.52897   -117.4 1.858e+04 1.624e-08
 65.54374   -116.7 1.862e+04 1.704e-08
 65.55375   -116.5 1.911e+04 2.064e-08
 65.56899   -116.0 1.912e+04 2.086e-08
 65.58901   -115.3 1.861e+04 1.662e-08
 65.60902   -114.8 1.778e+04 1.060e-08
 65.62903   -114.5 1.670e+04 6.088e-09
 65.64376   -115.2 1.547e+04 3.488e-09
 65.65195   -115.4 1.513e+04 2.530e-09
 65.65723   -113.2 1.642e+04 4.780e-09
 65.66905   -114.2 1.483e+04 2.549e-09
 65.68906   -115.7 1.320e+04 1.680e-09
 65.70907   -116.4 1.219e+04 1.413e-09
 65.72909   -116.3 1.191e+04 1.360e-09
 65.74379   -115.7 1.192e+04 1.405e-09
 65.76389   -115.3 1.165e+04 1.122e-09
 65.79932   -114.1 1.195e+04 1.321e-09
 65.83897   -113.1 1.215e+04 1.452e-09
 65.85888   -112.3 1.257e+04 1.787e-09
 65.86917   -112.0 1.265e+04 1.881e-09
 65.88918   -111.7 1.264e+04 1.820e-09
 65.90919   -111.5 1.265e+04 1.777e-09
 65.92920   -111.5 1.256e+04 1.612e-09
 65.94383   -111.6 1.247e+04 1.471e-09
 65.95384   -111.7 1.272e+04 1.987e-09
 65.96922   -111.8 1.276e+04 1.960e-09
 65.98923   -112.0 1.281e+04 1.935e-09
 66.00925   -112.2 1.292e+04 1.993e-09
 66.02926   -112.3 1.294e+04 2.084e-09
 66.04385   -112.4 1.292e+04 2.119e-09
 66.05386   -112.0 1.327e+04 2.712e-09
 66.06033   -111.9 1.326e+04 2.733e-09
 66.07034   -111.4 1.333e+04 2.789e-09
 66.08929   -111.2 1.331e+04 2.812e-09
 66.10930   -110.9 1.314e+04 2.697e-09
 66.12931   -110.4 1.290e+04 2.382e-09
 66.14387   -109.9 1.262e+04 1.955e-09
 66.15388   -110.0 1.311e+04 2.539e-09
 66.16934   -109.6 1.279e+04 2.116e-09
 66.18935   -109.3 1.243e+04 1.715e-09
 66.20936   -109.0 1.208e+04 1.394e-09
 66.22937   -108.7 1.178e+04 1.161e-09
 66.24390   -108.3 1.155e+04 1.008e-09
 66.25390   -108.1 1.188e+04 1.316e-09
 66.26189   -107.5 1.174e+04 1.172e-09
 66.27189   -107.1 1.174e+04 1.180e-09
 66.28941   -106.5 1.164e+04 1.083e-09
 66.30942   -105.9 1.159e+04 1.031e-09
 66.32943   -105.2 1.159e+04 1.015e-09
 66.34392   -104.4 1.161e+04 1.015e-09
 66.35392   -104.5 1.154e+04 9.934e-10
 66.36945   -103.7 1.161e+04 1.006e-09
 66.38946   -103.4 1.184e+04 1.115e-09
 66.40947   -103.3 1.214e+04 1.350e-09
 66.42949   -103.3 1.265e+04 1.761e-09
 66.44394   -103.4 1.346e+04 2.531e-09
 66.45395   -102.4 1.252e+04 1.592e-09
 66.46344   -102.4 1.330e+04 2.165e-09
 66.47344   -102.3 1.326e+04 2.160e-09
 66.48952   -102.4 1.424e+04 3.114e-09
 66.50953   -102.5 1.518e+04 4.441e-09
 66.52954   -102.8 1.590e+04 6.000e-09
 66.54396   -103.2 1.636e+04 7.484e-09
 66.55397   -102.5 1.524e+04 3.920e-09
 66.56957   -103.0 1.584e+04 5.180e-09
 66.58958   -103.5 1.614e+04 6.706e-09
 66.60959   -103.8 1.637e+04 8.384e-09
 66.62960   -104.2 1.672e+04 1.010e-08
 66.64399   -104.8 1.722e+04 1.201e-08
 66.65399   -105.0 1.722e+04 1.006e-08
 66.66499   -106.2 1.785e+04 1.347e-08
 66.67500   -105.5 1.680e+04 8.836e-09
 66.68963   -106.7 1.726e+04 1.111e-08
 66.70965   -107.2 1.758e+04 1.331e-08
 66.72461   -107.4 1.792e+04 1.549e-08
 66.73456   -107.4 1.813e+04 1.776e-08
 66.74391   -107.2 1.820e+04 2.005e-08
 66.74891   -106.9 1.815e+04 1.630e-08
 66.75457   -106.9 1.818e+04 1.661e-08
 66.76458   -106.7 1.798e+04 1.649e-08
 66.77067   -105.9 1.740e+04 1.423e-08
 66.77567   -106.1 1.727e+04 1.249e-08
 66.78459   -105.3 1.678e+04 1.058e-08
 66.79392   -104.8 1.623e+04 8.015e-09
 66.79892   -105.0 1.610e+04 7.417e-09
 66.80965   -104.6 1.566e+04 5.964e-09
 66.82971   -104.3 1.465e+04 3.373e-09
 66.84403   -104.2 1.421e+04 2.041e-09
 66.85404   -106.4 1.316e+04 8.438e-10
 66.86654   -108.6 1.174e+04 5.432e-10
 66.87655   -107.2 1.205e+04 5.722e-10
 66.88975   -108.9 1.064e+04 4.473e-10
 66.90976   -109.7 1.006e+04 4.200e-10
 66.92977   -109.9 9.907e+03 4.235e-10
 66.94405   -109.9 9.936e+03 4.909e-10
 66.95406   -109.7 9.301e+03 3.664e-10
 66.96979   -109.7 9.423e+03 3.956e-10
 66.98981   -109.7 9.546e+03 4.201e-10
 67.00982   -109.9 9.648e+03 4.353e-10
 67.02983   -110.2 9.686e+03 4.395e-10
 67.04407   -110.4 9.740e+03 4.201e-10
 67.05408   -110.3 9.724e+03 4.065e-10
 67.06819   -110.7 9.602e+03 3.759e-10
 67.08830   -109.8 9.718e+03 4.155e-10
 67.12007   -109.7 9.395e+03 3.162e-10
 67.14429   -109.5 9.013e+03 2.296e-10
 67.16430   -109.1 8.886e+03 2.033e-10
 67.20012   -108.7 8.665e+03 1.537e-10
 67.24014   -107.9 8.469e+03 1.196e-10
 67.28017   -106.9 8.349e+03 1.022e-10
 67.32019   -105.8 8.300e+03 9.479e-11
 67.34434   -104.4 8.299e+03 9.028e-11
 67.36435   -104.7 8.314e+03 9.217e-11
 67.40023   -103.4 8.316e+03 9.026e-11
 67.44026   -102.2 8.356e+03 9.216e-11
 67.47139   -101.1 8.455e+03 1.002e-10
 67.49141   -100.0 8.403e+03 8.871e-11
 67.52030    -99.0 8.535e+03 1.009e-10
 67.54438    -98.0 8.677e+03 1.227e-10
 67.56439    -98.5 8.722e+03 1.301e-10
 67.60035    -97.6 8.937e+03 1.602e-10
 67.64037    -97.0 9.240e+03 1.998e-10
 67.68039    -96.7 9.677e+03 2.654e-10
 67.72042    -96.5 1.021e+04 3.872e-10
 67.74433    -96.0 1.055e+04 5.385e-10
 67.75424    -97.2 1.077e+04 7.309e-10
 67.77025    -96.9 1.093e+04 9.185e-10
 67.79026    -96.2 1.105e+04 1.048e-09
 67.81027    -95.5 1.111e+04 1.074e-09
 67.83029    -94.8 1.107e+04 1.071e-09
 67.84425    -93.9 1.104e+04 9.324e-10
 67.85426    -94.6 1.107e+04 7.682e-10
 67.87031    -94.1 1.105e+04 5.990e-10
 67.88431    -93.6 1.098e+04 4.691e-10
 67.89431    -93.1 1.092e+04 5.061e-10
 67.91033    -92.5 1.084e+04 4.173e-10
 67.93034    -91.8 1.082e+04 3.826e-10
 67.94437    -91.1 1.081e+04 3.680e-10
 67.96448    -92.3 1.048e+04 3.133e-10
 68.00058    -90.2 1.033e+04 2.742e-10
 68.04060    -87.9 1.032e+04 2.381e-10
 68.08062    -85.5 1.036e+04 2.040e-10
 68.12065    -83.0 1.046e+04 1.721e-10
 68.14452    -80.5 1.055e+04 1.476e-10
 68.16453    -80.9 1.026e+04 1.172e-10
 68.20069    -78.2 1.030e+04 1.099e-10
 68.24071    -75.5 1.039e+04 1.052e-10
 68.27760    -72.9 1.046e+04 1.036e-10
 68.29761    -72.4 1.033e+04 9.056e-11
 68.32076    -69.8 1.038e+04 8.988e-11
 68.34456    -67.4 1.067e+04 9.193e-11
 68.36457    -67.5 1.097e+04 9.722e-11
 68.40081    -65.3 1.123e+04 1.110e-10
 68.44083    -63.2 1.145e+04 1.357e-10
 68.48085    -61.3 1.181e+04 1.666e-10
 68.52087    -59.8 1.249e+04 2.000e-10
 68.54460    -59.1 1.340e+04 2.482e-10
 68.56462    -62.3 1.360e+04 8.273e-10
 68.60092    -61.5 1.327e+04 1.209e-09
 68.64094    -60.1 1.307e+04 1.404e-09
 68.67086    -59.3 1.326e+04 1.534e-09
 68.69052    -58.7 1.322e+04 1.483e-09
 68.70052    -59.0 1.353e+04 1.642e-09
 68.71079    -58.4 1.370e+04 1.585e-09
 68.73080    -58.1 1.395e+04 1.486e-09
 68.74445    -58.0 1.415e+04 1.426e-09
 68.76456    -59.8 1.347e+04 1.245e-09
 68.79093    -59.1 1.327e+04 1.159e-09
 68.81085    -58.6 1.309e+04 1.115e-09
 68.83086    -58.2 1.292e+04 1.077e-09
 68.84448    -57.9 1.275e+04 1.045e-09
 68.85448    -58.1 1.276e+04 1.037e-09
 68.87088    -57.6 1.275e+04 1.058e-09
 68.89089    -57.2 1.273e+04 1.061e-09
 68.92101    -56.8 1.257e+04 1.006e-09
 68.94469    -55.3 1.244e+04 8.545e-10
 68.96470    -56.2 1.244e+04 1.280e-09
 69.00115    -54.9 1.208e+04 1.099e-09
 69.04117    -53.4 1.189e+04 8.409e-10
 69.07109    -52.9 1.157e+04 5.808e-10
 69.09101    -52.6 1.157e+04 5.639e-10
 69.10363    -51.9 1.161e+04 5.345e-10
 69.11363    -52.0 1.140e+04 4.226e-10
 69.13103    -51.2 1.136e+04 4.066e-10
 69.14464    -50.1 1.113e+04 3.480e-10
 69.15465    -50.4 1.132e+04 6.533e-10
 69.17105    -49.5 1.128e+04 6.240e-10
 69.19106    -48.6 1.126e+04 5.992e-10
 69.21107    -47.8 1.126e+04 5.781e-10
 69.23109    -46.8 1.131e+04 5.591e-10
 69.24457    -45.9 1.138e+04 5.525e-10
 69.25457    -45.9 1.144e+04 5.445e-10
 69.27111    -45.3 1.151e+04 5.324e-10
 69.29112    -44.8 1.164e+04 5.310e-10
 69.30518    -44.6 1.187e+04 5.644e-10
 69.31518    -44.4 1.183e+04 5.607e-10
 69.33114    -44.2 1.195e+04 6.359e-10
 69.34459    -44.0 1.202e+04 7.466e-10
 69.35459    -44.3 1.196e+04 7.047e-10
 69.37117    -44.0 1.214e+04 8.718e-10
 69.39118    -43.6 1.231e+04 1.062e-09
 69.41119    -42.9 1.244e+04 1.227e-09
 69.43120    -42.2 1.248e+04 1.295e-09
 69.44461    -41.5 1.239e+04 1.288e-09
 69.45462    -41.3 1.262e+04 1.475e-09
 69.47122    -40.5 1.240e+04 1.278e-09
 69.49123    -40.0 1.212e+04 9.627e-10
 69.50673    -39.8 1.169e+04 6.626e-10
 69.51674    -39.7 1.169e+04 6.669e-10
 69.53126    -39.5 1.145e+04 5.004e-10
 69.54473    -39.5 1.099e+04 3.181e-10
 69.56484    -39.2 1.104e+04 3.772e-10
 69.60149    -38.7 1.066e+04 2.969e-10
 69.64151    -37.3 1.060e+04 2.950e-10
 69.68154    -36.1 1.071e+04 3.500e-10
 69.72156    -35.0 1.086e+04 4.009e-10
 69.74487    -34.1 1.101e+04 4.556e-10
 69.76488    -33.4 1.114e+04 5.661e-10
 69.80161    -32.6 1.122e+04 5.883e-10
 69.84163    -32.4 1.138e+04 6.824e-10
 69.87155    -32.3 1.160e+04 7.895e-10
 69.89146    -32.8 1.186e+04 9.440e-10
 69.90983    -33.5 1.238e+04 1.359e-09
 69.91984    -33.5 1.212e+04 1.328e-09
 69.93148    -33.9 1.246e+04 1.747e-09
 69.94472    -34.1 1.291e+04 2.229e-09
 69.95473    -34.1 1.302e+04 2.324e-09
 69.97151    -34.3 1.322e+04 2.745e-09
 69.99152    -34.3 1.332e+04 2.878e-09
 70.01153    -34.4 1.301e+04 2.689e-09
 70.03154    -34.2 1.252e+04 2.021e-09
 70.04474    -34.7 1.192e+04 1.340e-09
 70.05475    -34.2 1.220e+04 1.440e-09
 70.07156    -35.3 1.139e+04 8.887e-10
 70.09158    -36.2 1.075e+04 5.780e-10
 70.11139    -36.8 1.031e+04 4.138e-10
 70.12139    -36.6 1.009e+04 3.622e-10
 70.13160    -36.9 9.946e+03 3.248e-10
 70.14486    -37.4 9.674e+03 2.597e-10
 70.16497    -37.1 9.737e+03 2.507e-10
 70.20183    -37.2 9.494e+03 1.980e-10
 70.24186    -36.5 9.535e+03 2.056e-10
 70.28188    -35.7 9.759e+03 2.815e-10
 70.31313    -35.0 1.003e+04 4.319e-10
 70.33315    -35.4 9.328e+03 2.468e-10
 70.34501    -34.2 9.589e+03 3.810e-10
 70.36502    -33.8 9.367e+03 2.686e-10
 70.40195    -32.4 9.544e+03 3.835e-10
 70.44197    -30.4 9.661e+03 4.522e-10
 70.47189    -28.6 9.939e+03 5.139e-10
 70.49180    -27.7 9.733e+03 4.472e-10
 70.51182    -26.9 9.419e+03 3.183e-10
 70.52450    -26.3 9.375e+03 2.775e-10
 70.53450    -26.9 9.135e+03 2.374e-10
 70.54495    -25.9 9.228e+03 1.977e-10
 70.56506    -25.7 9.094e+03 2.414e-10
 70.60206    -24.5 8.998e+03 2.070e-10
 70.64209    -23.3 8.953e+03 1.930e-10
 70.68211    -21.9 8.989e+03 2.079e-10
 70.71624    -20.1 9.063e+03 2.591e-10
 70.73625    -19.4 8.660e+03 1.865e-10
 70.74509    -17.4 8.776e+03 2.066e-10
 70.76511    -16.8 8.919e+03 2.317e-10
 70.80218    -15.4 9.180e+03 2.646e-10
 70.84220    -14.6 9.527e+03 3.380e-10
 70.87212    -14.2 9.965e+03 5.610e-10
 70.89203    -13.4 1.014e+04 6.632e-10
 70.91204    -12.0 1.035e+04 8.731e-10
 70.92760    -11.4 1.057e+04 9.393e-10
 70.93761    -11.1 1.030e+04 8.077e-10
 70.94504    -10.4 1.080e+04 1.053e-09
 70.96515     -9.7 1.065e+04 8.565e-10
 71.00229     -9.5 1.086e+04 8.830e-10
 71.04231     -8.9 1.084e+04 1.106e-09
 71.08234     -7.3 1.052e+04 1.112e-09
 71.11934     -4.4 9.986e+03 7.955e-10
 71.13935     -3.8 1.019e+04 9.278e-10
 71.14518     -1.7 9.527e+03 5.494e-10
 71.16520     -1.4 9.446e+03 5.098e-10
 71.20241      0.3 9.130e+03 3.192e-10
 71.24243      1.4 8.789e+03 2.201e-10
 71.28245      3.2 8.555e+03 2.034e-10
 71.32247      4.9 8.689e+03 2.245e-10
 71.34523      5.9 9.117e+03 3.387e-10
 71.36524      6.5 9.696e+03 5.054e-10
 71.39242      7.9 1.043e+04 8.466e-10
 71.41233      8.5 1.057e+04 9.007e-10
 71.43234      8.3 1.117e+04 1.260e-09
 71.44506      7.1 1.256e+04 2.016e-09
 71.45506      6.5 1.287e+04 2.260e-09
 71.47236      4.5 1.422e+04 4.043e-09
 71.49238      4.9 1.491e+04 6.594e-09
 71.51239      6.0 1.521e+04 8.023e-09
 71.53226      7.9 1.480e+04 7.069e-09
 71.54226      8.2 1.461e+04 6.908e-09
 71.54508      9.4 1.411e+04 4.619e-09
 71.55508      9.3 1.383e+04 3.279e-09
 71.57242      7.9 1.344e+04 1.722e-09
 71.59243      4.1 1.204e+04 8.368e-10
 71.61244      0.3 1.033e+04 4.963e-10
 71.63246     -0.6 9.902e+03 4.263e-10
 71.64510     -0.6 9.785e+03 4.298e-10
 71.65511     -0.2 9.879e+03 4.204e-10
 71.67248     -0.1 9.794e+03 4.281e-10
 71.69249     -0.0 9.730e+03 4.446e-10
 71.71250     -0.0 9.716e+03 4.746e-10
 71.73251     -0.4 9.958e+03 5.385e-10
 71.74381     -1.4 1.052e+04 6.950e-10
 71.74642     -0.3 9.977e+03 5.477e-10
 71.75513     -1.0 1.026e+04 6.509e-10
 71.77254     -1.7 1.063e+04 8.795e-10
 71.79255     -1.6 1.098e+04 1.205e-09
 71.81256     -0.5 1.113e+04 1.417e-09
 71.83257      0.4 1.139e+04 1.397e-09
 71.84514      1.1 1.125e+04 1.275e-09
 71.85515      1.4 1.125e+04 1.293e-09
 71.88270      1.7 1.073e+04 7.041e-10
 71.92282      1.3 1.014e+04 2.968e-10
 71.94536      0.6 9.554e+03 2.225e-10
 71.94810      0.5 9.469e+03 1.644e-10
 71.96557      1.9 9.631e+03 2.600e-10
 72.00286      1.9 9.686e+03 2.727e-10
 72.04289      1.8 1.034e+04 3.615e-10
 72.08291      1.9 1.103e+04 5.280e-10
 72.12293      1.9 1.137e+04 7.410e-10
 72.14541      2.2 1.148e+04 9.393e-10
 72.16542      2.0 1.158e+04 1.048e-09
 72.20298      2.7 1.144e+04 1.029e-09
 72.24300      4.0 1.105e+04 7.822e-10
 72.28302      4.8 1.085e+04 4.943e-10
 72.32305      4.4 1.077e+04 2.988e-10
 72.34545      4.5 1.073e+04 2.581e-10
 72.35106      4.1 1.094e+04 3.960e-10
 72.36868      3.4 1.134e+04 9.233e-10
 72.39299      3.8 1.110e+04 8.181e-10
 72.41290      4.1 1.109e+04 8.611e-10
 72.43291      4.4 1.127e+04 9.398e-10
 72.44528      4.7 1.153e+04 1.049e-09
 72.45528      4.6 1.169e+04 1.128e-09
 72.47294      3.6 1.252e+04 1.442e-09
 72.49295      2.0 1.347e+04 2.021e-09
 72.51296      1.4 1.388e+04 2.829e-09
 72.53297      2.3 1.408e+04 3.600e-09
 72.54530      3.1 1.425e+04 3.696e-09
 72.55235      3.8 1.378e+04 3.264e-09
 72.56003      3.3 1.284e+04 1.867e-09
 72.57299      2.4 1.344e+04 1.582e-09
 72.59300      0.6 1.377e+04 1.374e-09
 72.61302     -1.7 1.355e+04 1.342e-09
 72.63303     -3.2 1.311e+04 1.472e-09
 72.64532     -3.6 1.266e+04 1.752e-09
 72.65533     -3.4 1.243e+04 1.343e-09
 72.67305     -3.1 1.219e+04 1.667e-09
 72.69306     -2.3 1.187e+04 1.912e-09
 72.71307     -1.4 1.181e+04 2.065e-09
 72.73308     -0.5 1.176e+04 2.093e-09
 72.74534      0.4 1.182e+04 2.083e-09
 72.75383      0.8 1.176e+04 1.878e-09
 72.76158      1.1 1.169e+04 1.726e-09
 72.77311      2.1 1.155e+04 1.642e-09
 72.79312      2.7 1.159e+04 1.552e-09
 72.81313      3.3 1.180e+04 1.492e-09
 72.83314      3.7 1.192e+04 1.436e-09
 72.84537      4.1 1.200e+04 1.458e-09
 72.85537      4.8 1.159e+04 1.255e-09
 72.87316      5.2 1.188e+04 1.379e-09
 72.89318      5.8 1.234e+04 1.571e-09
 72.91319      5.6 1.309e+04 1.875e-09
 72.93320      3.8 1.520e+04 2.793e-09
 72.94534      1.8 1.694e+04 4.268e-09
 72.95029      3.1 1.689e+04 4.407e-09
 72.95803      2.6 1.776e+04 4.856e-09
 72.96308      3.8 1.639e+04 4.420e-09
 72.96817      1.8 1.847e+04 6.937e-09
 72.97813      1.5 1.922e+04 7.494e-09
 72.99318      0.6 1.969e+04 1.080e-08
 73.01324     -1.3 1.933e+04 1.453e-08
 73.03326     -3.2 1.957e+04 1.653e-08
 73.04541     -5.7 1.990e+04 1.446e-08
 73.05037     -4.7 2.021e+04 1.817e-08
 73.05817     -5.8 2.034e+04 1.544e-08
 73.06381     -7.8 2.118e+04 1.110e-08
 73.06881     -8.0 2.205e+04 1.738e-08
 73.07818     -9.1 2.298e+04 1.316e-08
 73.09324    -12.4 2.455e+04 5.838e-09
 73.11330    -16.8 2.505e+04 1.910e-09
 73.13331    -23.3 1.673e+04 7.829e-10
 73.14553    -28.2 1.100e+04 5.081e-10
 73.15554    -30.4 1.167e+04 6.940e-10
 73.16468    -31.8 1.108e+04 6.263e-10
 73.17469    -32.7 1.120e+04 6.947e-10
 73.19335    -32.4 1.121e+04 6.825e-10
 73.21336    -33.2 1.081e+04 6.379e-10
 73.23337    -33.7 1.091e+04 6.420e-10
 73.24546    -33.7 1.092e+04 6.463e-10
 73.25546    -33.9 1.093e+04 6.825e-10
 73.27339    -34.0 1.091e+04 6.959e-10
 73.29340    -34.0 1.085e+04 7.150e-10
 73.32352    -34.2 1.099e+04 7.917e-10
 73.34567    -33.4 1.076e+04 7.785e-10
 73.36569    -33.9 1.086e+04 8.834e-10
 73.40366    -32.6 1.035e+04 6.811e-10
 73.44369    -31.5 9.891e+03 5.324e-10
 73.48371    -30.1 9.524e+03 4.579e-10
 73.52373    -28.2 9.259e+03 4.001e-10
 73.54572    -26.1 8.988e+03 3.340e-10
 73.55995    -25.8 8.776e+03 2.991e-10
 73.57799    -26.3 8.690e+03 2.556e-10
 73.60378    -24.1 8.452e+03 2.058e-10
 73.64380    -22.2 8.258e+03 1.730e-10
 73.68382    -20.4 8.125e+03 1.620e-10
 73.72385    -18.4 8.083e+03 1.609e-10
 73.74576    -16.3 8.094e+03 1.714e-10
 73.76577    -16.0 7.944e+03 1.325e-10
 73.80389    -13.8 8.036e+03 1.512e-10
 73.84391    -11.6 8.156e+03 1.601e-10
 73.88394     -9.6 8.189e+03 1.589e-10
 73.92396     -8.1 8.143e+03 1.491e-10
 73.94581     -6.6 8.067e+03 1.451e-10
 73.96292     -6.1 8.198e+03 1.706e-10
 73.98109     -6.4 8.114e+03 1.349e-10
 74.00401     -4.4 8.073e+03 1.537e-10
 74.04403     -2.5 8.074e+03 1.468e-10
 74.08405     -0.5 7.978e+03 1.195e-10
 74.12407      0.9 7.927e+03 8.760e-11
 74.14585      1.5 7.916e+03 6.932e-11
 74.16586      2.1 8.074e+03 8.328e-11
 74.20412      2.6 8.083e+03 7.814e-11
 74.24414      2.7 8.204e+03 9.070e-11
 74.28417      3.1 8.351e+03 1.247e-10
 74.32419      3.8 8.549e+03 1.621e-10
 74.34590      4.2 8.877e+03 2.017e-10
 74.36588      4.1 8.940e+03 2.045e-10
 74.40421      4.8 9.306e+03 2.075e-10
 74.43415      3.1 9.860e+03 3.975e-10
 74.44572      3.1 1.019e+04 4.526e-10
 74.45573      2.9 1.032e+04 4.497e-10
 74.47408      1.9 1.059e+04 7.252e-10
 74.49409      2.9 1.064e+04 9.555e-10
 74.52420      3.7 1.088e+04 1.086e-09
 74.54594      4.9 1.042e+04 8.118e-10
 74.56595      3.4 1.009e+04 5.708e-10
 74.60435      0.5 1.037e+04 4.299e-10
 74.64437     -3.4 1.016e+04 5.381e-10
 74.68439     -3.3 1.015e+04 8.465e-10
 74.72442     -3.1 1.017e+04 7.773e-10
 74.74599     -5.1 1.048e+04 7.023e-10
 74.76600     -6.0 9.342e+03 2.976e-10
 74.78730     -7.9 9.204e+03 3.335e-10
 74.80731     -7.9 8.709e+03 2.295e-10
 74.84449     -8.5 9.001e+03 3.298e-10
 74.88451     -9.4 9.644e+03 5.030e-10
 74.92453    -11.3 1.057e+04 8.521e-10
 74.94603    -12.2 1.131e+04 1.390e-09
 74.96604    -12.8 1.130e+04 1.499e-09
 75.00458    -11.5 1.191e+04 2.188e-09
 75.04460    -11.4 1.205e+04 1.795e-09
 75.08462    -12.4 1.117e+04 1.128e-09
 75.12465    -12.7 1.018e+04 6.146e-10
 75.14607    -12.8 9.587e+03 3.177e-10
 75.16609    -12.4 9.988e+03 4.540e-10
 75.19041    -12.7 9.572e+03 2.826e-10
 75.21042    -12.7 9.468e+03 2.601e-10
 75.24471    -12.8 9.183e+03 2.270e-10
 75.28474    -11.4 9.061e+03 2.307e-10
 75.32476     -9.9 9.237e+03 2.385e-10
 75.34612     -9.0 9.642e+03 2.527e-10
 75.36613     -8.9 9.731e+03 2.942e-10
 75.40481     -8.8 9.973e+03 3.582e-10
 75.44483     -7.6 9.992e+03 4.271e-10
 75.48485     -5.9 9.997e+03 4.313e-10
 75.52487     -4.1 1.034e+04 2.611e-10
 75.54616     -4.2 1.020e+04 1.708e-10
 75.56618     -4.0 9.894e+03 9.717e-11
 75.59351     -5.1 9.535e+03 7.163e-11
 75.61352     -4.1 9.609e+03 6.789e-11
 75.64494     -4.0 9.143e+03 7.871e-11
 75.68497     -3.0 8.986e+03 1.117e-10
 75.72499     -2.1 9.354e+03 1.494e-10
 75.74621     -1.5 9.633e+03 2.114e-10
 75.76622     -2.8 1.010e+04 4.581e-10
 75.80503     -2.0 1.072e+04 6.677e-10
 75.84506     -2.8 1.152e+04 9.240e-10
 75.88508     -5.0 1.258e+04 1.506e-09
 75.91500     -7.5 1.319e+04 2.309e-09
 75.93491     -8.3 1.355e+04 2.542e-09
 75.94606    -10.4 1.419e+04 2.427e-09
 75.95606    -13.2 1.440e+04 1.801e-09
 75.97494    -17.5 1.408e+04 1.600e-09
 75.99495    -22.4 1.287e+04 1.381e-09
 76.00642    -25.1 1.250e+04 1.327e-09
 76.01643    -26.4 1.241e+04 1.292e-09
 76.03497    -28.8 1.276e+04 1.374e-09
 76.04608    -32.4 1.427e+04 1.701e-09
 76.05609    -35.7 1.532e+04 2.286e-09
 76.07499    -39.9 1.629e+04 3.625e-09
 76.09500    -42.3 1.679e+04 5.977e-09
 76.11502    -42.8 1.692e+04 9.162e-09
 76.13503    -41.7 1.726e+04 1.112e-08
 76.14605    -41.0 1.668e+04 8.961e-09
 76.15101    -41.7 1.559e+04 5.970e-09
 76.15994    -41.5 1.544e+04 5.301e-09
 76.17500    -41.5 1.530e+04 3.581e-09
 76.19506    -43.1 1.463e+04 2.091e-09
 76.20798    -46.6 1.294e+04 1.062e-09
 76.21798    -46.3 1.252e+04 1.053e-09
 76.23508    -48.8 1.144e+04 6.882e-10
 76.24612    -50.5 1.096e+04 6.005e-10
 76.25613    -51.1 1.091e+04 5.770e-10
 76.27511    -52.3 1.110e+04 6.133e-10
 76.29512    -53.6 1.155e+04 8.452e-10
 76.31513    -54.3 1.185e+04 1.181e-09
 76.33514    -54.3 1.208e+04 1.570e-09
 76.34615    -53.8 1.231e+04 1.898e-09
 76.35615    -54.0 1.255e+04 2.109e-09
 76.37516    -53.7 1.272e+04 2.173e-09
 76.39518    -53.7 1.283e+04 2.120e-09
 76.40953    -54.2 1.285e+04 1.821e-09
 76.41953    -52.9 1.217e+04 1.512e-09
 76.43520    -53.7 1.214e+04 1.288e-09
 76.44617    -54.8 1.175e+04 1.109e-09
 76.45618    -55.8 1.141e+04 1.089e-09
 76.47522    -56.0 1.088e+04 9.869e-10
 76.49523    -55.5 1.041e+04 8.803e-10
 76.51524    -54.6 1.016e+04 7.614e-10
 76.53526    -53.9 1.001e+04 6.443e-10
 76.54619    -53.3 9.971e+03 5.174e-10
 76.56630    -53.5 9.855e+03 4.481e-10
 76.60549    -52.8 9.600e+03 3.274e-10
 76.64551    -51.9 9.247e+03 2.332e-10
 76.68554    -50.8 8.915e+03 1.733e-10
 76.72556    -49.4 8.725e+03 1.360e-10
 76.74643    -47.9 8.692e+03 1.135e-10
 76.76644    -47.8 8.576e+03 1.034e-10
 76.80282    -46.4 8.624e+03 1.005e-10
 76.82283    -46.4 8.684e+03 1.184e-10
 76.84563    -46.1 9.060e+03 1.531e-10
 76.88565    -45.7 9.465e+03 2.824e-10
 76.92567    -44.4 9.994e+03 4.931e-10
 76.94648    -42.9 1.055e+04 6.997e-10
 76.96649    -42.1 1.030e+04 6.050e-10
 77.00572    -40.8 1.054e+04 6.397e-10
 77.04574    -40.2 1.074e+04 6.172e-10
 77.08577    -40.6 1.124e+04 6.149e-10
 77.11568    -43.3 1.218e+04 8.584e-10
 77.13560    -44.6 1.278e+04 1.228e-09
 77.14633    -45.4 1.377e+04 2.139e-09
 77.15633    -45.4 1.339e+04 1.927e-09
 77.17562    -45.4 1.423e+04 2.681e-09
 77.19563    -45.4 1.457e+04 2.977e-09
 77.21564    -45.7 1.437e+04 2.854e-09
 77.23566    -47.0 1.267e+04 1.695e-09
 77.24635    -46.8 1.226e+04 1.277e-09
 77.25635    -46.8 1.216e+04 1.130e-09
 77.27568    -46.5 1.181e+04 8.384e-10
 77.29569    -46.1 1.150e+04 6.386e-10
 77.31570    -45.6 1.123e+04 5.058e-10
 77.33571    -45.0 1.101e+04 4.276e-10
 77.34637    -44.3 1.088e+04 3.870e-10
 77.35638    -44.3 1.074e+04 3.647e-10
 77.37574    -43.4 1.060e+04 3.446e-10
 77.40585    -42.1 1.037e+04 3.130e-10
 77.44597    -39.7 1.030e+04 3.336e-10
 77.48599    -37.3 1.026e+04 3.750e-10
 77.52602    -34.7 1.026e+04 4.049e-10
 77.54661    -32.1 1.026e+04 4.134e-10
 77.56662    -31.7 1.019e+04 4.044e-10
 77.60606    -28.8 1.005e+04 3.384e-10
 77.62904    -26.0 9.894e+03 2.415e-10
 77.64905    -26.3 9.649e+03 2.004e-10
 77.68611    -24.0 9.683e+03 1.788e-10
 77.72613    -21.7 9.747e+03 1.768e-10
 77.74665    -19.8 9.811e+03 2.136e-10
 77.76667    -19.6 9.800e+03 1.989e-10
 77.80618    -17.2 9.899e+03 2.767e-10
 77.84620    -14.5 1.013e+04 3.695e-10
 77.88622    -11.8 1.022e+04 4.365e-10
 77.92625     -9.4 1.010e+04 4.607e-10
 77.94670     -6.3 9.928e+03 4.218e-10
 77.96671     -6.6 1.001e+04 4.585e-10
 78.00629     -3.8 9.900e+03 3.881e-10
 78.03215     -1.6 9.680e+03 3.208e-10
 78.05216     -1.6 9.448e+03 2.611e-10
 78.08634      0.6 9.274e+03 2.395e-10
 78.12636      2.8 9.390e+03 2.629e-10
 78.14674      4.7 9.644e+03 3.472e-10
 78.16675      4.4 9.572e+03 3.398e-10
 78.20641      6.8 9.744e+03 4.545e-10
 78.24643      9.8 9.958e+03 5.838e-10
 78.28645     12.8 1.006e+04 6.143e-10
 78.32647     15.5 1.004e+04 5.945e-10
 78.34679     18.1 9.918e+03 5.424e-10
 78.36680     18.0 9.668e+03 4.679e-10
 78.40652     20.7 9.797e+03 4.891e-10
 78.43515     22.0 9.814e+03 4.734e-10
 78.45516     21.3 9.356e+03 3.643e-10
 78.48657     23.4 9.362e+03 4.011e-10
 78.51648     25.8 9.406e+03 4.342e-10
 78.53640     26.9 9.427e+03 4.423e-10
 78.54673     28.8 9.367e+03 4.239e-10
 78.56684     29.1 9.232e+03 3.867e-10
 78.60663     31.9 9.105e+03 3.571e-10
 78.64666     34.7 8.895e+03 3.095e-10
 78.68668     37.6 8.759e+03 2.717e-10
 78.72670     40.7 8.801e+03 2.740e-10
 78.76672     44.6 9.412e+03 3.403e-10
 78.79664     47.6 9.509e+03 3.534e-10
 78.81656     50.5 9.608e+03 3.738e-10
 78.83657     53.8 9.780e+03 4.061e-10
 78.84670     57.4 1.001e+04 4.441e-10
 78.84829     57.2 1.014e+04 4.807e-10
 78.85817     57.2 1.021e+04 4.880e-10
 78.87659     61.7 1.048e+04 5.293e-10
 78.89660     66.7 1.074e+04 5.688e-10
 78.91662     72.5 1.105e+04 5.987e-10
 78.93663     79.0 1.136e+04 6.273e-10
 78.95664     84.9 2.458e+04 7.749e-10
 78.97160     65.4 6.676e+04 5.794e-10
 78.98155     56.7 8.542e+04 9.072e-10
 78.99156     50.9 1.059e+05 1.905e-09
 78.99664     41.9 8.195e+04 1.249e-08
 79.00164     32.9 1.193e+05 5.522e-09
 79.00905     28.8 1.493e+05 3.435e-09
 79.01402     17.0 7.641e+04 4.491e-08
 79.01903      5.3 2.896e+04 3.718e-06
 79.02160      1.4 1.653e+04 5.043e-05
 79.02410     -4.3 1.234e+04 1.611e-03
 79.02903     -1.6 1.444e+04 2.139e-04
 79.03404      1.5 1.913e+04 1.251e-05
 79.03904      8.5 2.666e+04 1.681e-06
 79.04404      4.2 4.025e+04 3.937e-07
 79.04660     -8.0 1.243e+05 5.223e-09
 79.04910    -15.2 1.833e+05 1.726e-09
 79.05207    -21.5 3.762e+05 1.961e-10
 79.05457    -26.6 3.283e+05 2.054e-10
 79.06158    -71.9 2.689e+05 1.345e-10
 79.07161   -150.8 4.809e+04 3.952e-10
 79.08161   -160.7 1.716e+04 8.283e-10
 79.09667   -159.4 1.606e+04 9.400e-10
 79.11673   -158.2 1.464e+04 1.206e-09
 79.13674   -157.2 1.480e+04 1.448e-09
 79.15675   -155.1 1.525e+04 1.673e-09
 79.17676   -153.3 1.522e+04 1.739e-09
 79.19678   -151.5 1.482e+04 1.737e-09
 79.21679   -149.8 1.454e+04 1.640e-09
 79.23679   -148.0 1.422e+04 1.459e-09
 79.25126   -145.0 1.347e+04 1.177e-09
 79.26127   -141.6 1.372e+04 1.417e-09
 79.27682   -140.4 1.337e+04 1.280e-09
 79.29683   -139.2 1.302e+04 1.162e-09
 79.31684   -137.8 1.268e+04 1.068e-09
 79.33681   -136.4 1.237e+04 9.861e-10
 79.35682   -134.0 1.219e+04 1.007e-09
 79.37688   -132.4 1.197e+04 9.549e-10
 79.39689   -130.7 1.178e+04 9.076e-10
 79.41690   -129.1 1.163e+04 8.653e-10
 79.43683   -127.5 1.154e+04 8.359e-10
 79.45274   -125.9 1.195e+04 9.957e-10
 79.46283   -124.2 1.138e+04 8.258e-10
 79.47694   -122.9 1.137e+04 8.184e-10
 79.49695   -121.7 1.143e+04 8.381e-10
 79.51696   -120.5 1.155e+04 8.832e-10
 79.53685   -119.4 1.169e+04 9.508e-10
 79.54686   -119.4 1.217e+04 1.176e-09
 79.55698   -118.2 1.226e+04 1.260e-09
 79.57699   -116.9 1.235e+04 1.347e-09
 79.59700   -115.7 1.243e+04 1.431e-09
 79.61702   -114.4 1.250e+04 1.501e-09
 79.63688   -113.2 1.253e+04 1.534e-09
 79.64688   -113.4 1.276e+04 1.693e-09
 79.65437   -112.3 1.266e+04 1.633e-09
 79.66438   -111.1 1.245e+04 1.499e-09
 79.67705   -110.0 1.237e+04 1.468e-09
 79.69706   -108.8 1.222e+04 1.392e-09
 79.71707   -107.7 1.199e+04 1.269e-09
 79.73690   -106.5 1.172e+04 1.128e-09
 79.74690   -106.6 1.160e+04 1.068e-09
 79.75710   -105.3 1.124e+04 8.961e-10
 79.77711   -104.0 1.091e+04 7.439e-10
 79.79712   -102.5 1.065e+04 6.125e-10
 79.81713   -101.1 1.045e+04 4.993e-10
 79.84724    -99.0 1.023e+04 3.977e-10
 79.88736    -96.1 9.895e+03 3.056e-10
 79.92713    -92.7 9.459e+03 2.094e-10
 79.94714    -92.5 9.185e+03 1.369e-10
 79.96741    -89.2 9.007e+03 1.061e-10
 80.00743    -85.9 8.956e+03 9.780e-11
 80.04746    -82.4 8.879e+03 9.356e-11
 80.06768    -78.9 8.785e+03 9.183e-11
 80.08769    -77.8 8.783e+03 9.135e-11
 80.12718    -74.2 8.687e+03 8.958e-11
 80.14719    -74.5 9.059e+03 9.081e-11
 80.16752    -70.9 9.505e+03 8.986e-11
 80.20755    -67.4 9.963e+03 9.421e-11
 80.24757    -63.9 1.042e+04 1.029e-10
 80.28759    -60.4 1.072e+04 1.221e-10
 80.32722    -56.8 1.099e+04 1.645e-10
 80.34714    -56.7 1.304e+04 6.371e-10
 80.35744    -55.0 1.294e+04 6.848e-10
 80.37745    -53.6 1.318e+04 8.707e-10
 80.39746    -52.3 1.368e+04 1.172e-09
 80.41747    -51.0 1.450e+04 1.652e-09
 80.43705    -49.9 1.556e+04 2.467e-09
 80.44706    -52.2 1.923e+04 6.969e-09
 80.45750    -51.2 2.047e+04 1.006e-08
 80.47054    -49.3 2.027e+04 1.180e-08
 80.47549    -49.2 2.061e+04 1.262e-08
 80.48241    -48.2 2.075e+04 1.631e-08
 80.49197    -47.4 2.114e+04 2.019e-08
 80.49697    -49.2 2.386e+04 3.624e-08
 80.50242    -48.5 2.444e+04 4.566e-08
 80.51243    -47.9 2.497e+04 5.529e-08
 80.52243    -47.4 2.554e+04 6.580e-08
 80.53244    -47.2 2.654e+04 8.192e-08
 80.54198    -47.5 2.754e+04 9.959e-08
 80.54699    -51.5 2.840e+04 1.210e-07
 80.55245    -52.8 2.863e+04 1.257e-07
 80.56246    -54.0 2.866e+04 1.184e-07
 80.57127    -54.7 2.860e+04 1.065e-07
 80.57627    -56.4 2.823e+04 1.242e-07
 80.58247    -56.6 2.785e+04 1.043e-07
 80.59199    -56.9 2.730e+04 8.279e-08
 80.59700    -61.4 2.453e+04 4.385e-08
 80.60248    -61.4 2.339e+04 3.031e-08
 80.61249    -61.5 2.212e+04 2.070e-08
 80.62249    -61.6 2.100e+04 1.422e-08
 80.63250    -62.2 1.988e+04 9.279e-09
 80.64200    -62.6 1.939e+04 6.137e-09
 80.64701    -65.4 1.818e+04 4.526e-09
 80.65251    -68.4 1.700e+04 2.928e-09
 80.66251    -69.2 1.667e+04 2.404e-09
 80.67209    -71.9 1.563e+04 1.432e-09
 80.68214    -72.0 1.697e+04 2.320e-09
 80.69763    -73.9 1.665e+04 1.746e-09
 80.71764    -76.1 1.644e+04 1.382e-09
 80.73712    -79.0 1.610e+04 1.181e-09
 80.74713    -81.9 1.406e+04 9.775e-10
 80.75767    -84.0 1.363e+04 9.592e-10
 80.77768    -85.9 1.349e+04 1.123e-09
 80.79769    -87.7 1.367e+04 1.415e-09
 80.81770    -89.3 1.412e+04 1.871e-09
 80.83714    -90.7 1.466e+04 2.462e-09
 80.84715    -88.8 1.423e+04 2.337e-09
 80.85772    -89.2 1.479e+04 3.009e-09
 80.87369    -89.0 1.529e+04 3.827e-09
 80.88370    -88.4 1.537e+04 3.446e-09
 80.89775    -88.1 1.589e+04 4.215e-09
 80.91776    -87.2 1.634e+04 5.024e-09
 80.93717    -86.0 1.660e+04 5.776e-09
 80.94717    -84.5 1.669e+04 6.603e-09
 80.95778    -83.2 1.727e+04 7.819e-09
 80.97779    -82.1 1.779e+04 9.095e-09
 80.99780    -80.9 1.840e+04 1.023e-08
 81.01782    -79.7 1.897e+04 1.144e-08
 81.03719    -78.6 1.943e+04 1.280e-08
 81.04719    -77.8 1.961e+04 1.467e-08
 81.05784    -76.5 2.010e+04 1.653e-08
 81.07524    -75.3 2.054e+04 1.885e-08
 81.08525    -74.0 2.040e+04 1.911e-08
 81.09215    -73.7 2.088e+04 2.175e-08
 81.09711    -73.3 2.088e+04 2.278e-08
 81.10277    -72.8 2.126e+04 2.595e-08
 81.11277    -72.1 2.177e+04 3.250e-08
 81.12278    -71.4 2.225e+04 4.116e-08
 81.13278    -70.6 2.275e+04 5.197e-08
 81.14212    -70.2 2.296e+04 5.960e-08
 81.14712    -70.6 2.267e+04 5.963e-08
 81.15279    -70.0 2.264e+04 6.304e-08
 81.16280    -69.3 2.244e+04 6.164e-08
 81.17281    -68.2 2.247e+04 5.915e-08
 81.18092    -67.2 2.250e+04 5.276e-08
 81.18593    -67.3 2.239e+04 8.822e-08
 81.19213    -66.3 2.225e+04 8.228e-08
 81.19713    -66.3 2.167e+04 7.204e-08
 81.20282    -65.5 2.193e+04 6.836e-08
 81.21283    -64.9 2.221e+04 5.968e-08
 81.22283    -64.5 2.242e+04 4.490e-08
 81.23284    -64.4 2.250e+04 3.121e-08
 81.24214    -64.2 2.224e+04 2.113e-08
 81.24714    -64.7 2.185e+04 2.013e-08
 81.25790    -66.2 2.040e+04 1.084e-08
 81.27680    -66.4 1.869e+04 7.175e-09
 81.28675    -64.1 2.053e+04 1.253e-08
 81.29793    -64.2 2.026e+04 1.143e-08
 81.31799    -65.1 1.886e+04 8.121e-09
 81.33726    -66.3 1.721e+04 6.161e-09
 81.34726    -67.4 1.741e+04 7.288e-09
 81.35801    -68.3 1.651e+04 6.912e-09
 81.37802    -68.6 1.630e+04 7.100e-09
 81.39803    -68.5 1.646e+04 7.291e-09
 81.41804    -68.3 1.650e+04 7.195e-09
 81.43728    -68.1 1.626e+04 6.491e-09
 81.44728    -68.3 1.643e+04 7.335e-09
 81.45807    -68.5 1.608e+04 6.414e-09
 81.47808    -68.8 1.560e+04 5.516e-09
 81.48835    -69.1 1.545e+04 4.757e-09
 81.49836    -72.4 1.782e+04 5.879e-09
 81.51810    -74.8 1.905e+04 6.859e-09
 81.53730    -76.3 1.934e+04 8.832e-09
 81.54731    -75.6 1.789e+04 7.554e-09
 81.55812    -75.8 1.775e+04 8.416e-09
 81.57814    -75.5 1.749e+04 8.908e-09
 81.59815    -74.6 1.718e+04 8.889e-09
 81.61816    -73.4 1.692e+04 8.610e-09
 81.63732    -72.1 1.654e+04 7.711e-09
 81.64733    -71.6 1.530e+04 4.996e-09
 81.65818    -70.4 1.485e+04 4.363e-09
 81.67819    -69.2 1.435e+04 3.798e-09
 81.68991    -67.9 1.393e+04 3.260e-09
 81.69991    -69.1 1.361e+04 2.554e-09
 81.71822    -68.0 1.276e+04 1.838e-09
 81.73734    -67.0 1.205e+04 1.366e-09
 81.74735    -66.1 1.175e+04 1.271e-09
 81.75824    -64.8 1.126e+04 9.995e-10
 81.77825    -63.5 1.087e+04 8.105e-10
 81.79826    -62.2 1.055e+04 6.718e-10
 81.81827    -60.6 1.023e+04 5.595e-10
 81.83737    -59.0 9.970e+03 4.620e-10
 81.84737    -58.2 1.011e+04 4.841e-10
 81.85830    -56.7 9.889e+03 4.252e-10
 81.87831    -54.7 9.708e+03 3.721e-10
 81.89146    -53.7 9.564e+03 3.486e-10
 81.90146    -54.3 8.986e+03 2.383e-10
 81.91833    -51.2 8.863e+03 2.112e-10
 81.93739    -50.9 8.775e+03 2.036e-10
 81.94739    -50.1 8.942e+03 2.245e-10
 81.95835    -47.2 8.991e+03 2.091e-10
 81.97836    -46.9 8.958e+03 2.067e-10
 81.99838    -44.3 9.035e+03 2.034e-10
 82.01839    -44.0 9.000e+03 2.021e-10
 82.03741    -41.6 9.050e+03 2.048e-10
 82.04742    -41.3 9.244e+03 2.232e-10
 82.05841    -40.8 9.239e+03 2.239e-10
 82.07842    -38.7 9.168e+03 2.514e-10
 82.09301    -38.2 9.286e+03 2.482e-10
 82.10311    -38.6 8.486e+03 1.769e-10
 82.12762    -35.9 8.708e+03 2.037e-10
 82.14763    -35.6 8.875e+03 2.153e-10
 82.15856    -34.1 9.520e+03 2.869e-10
 82.17848    -33.6 9.825e+03 3.133e-10
 82.19849    -33.1 1.001e+04 4.006e-10
 82.21850    -32.4 1.028e+04 5.322e-10
 82.23746    -31.5 1.052e+04 6.665e-10
 82.24746    -31.4 1.063e+04 7.219e-10
 82.25852    -30.4 1.098e+04 8.989e-10
 82.27853    -29.4 1.133e+04 1.084e-09
 82.29456    -28.6 1.167e+04 1.257e-09
 82.30457    -28.9 1.128e+04 1.043e-09
 82.31856    -28.4 1.159e+04 1.148e-09
 82.33748    -27.9 1.175e+04 1.238e-09
 82.34748    -28.2 1.191e+04 1.367e-09
 82.35858    -27.7 1.185e+04 1.378e-09
 82.37859    -27.1 1.170e+04 1.328e-09
 82.39860    -26.4 1.146e+04 1.206e-09
 82.41861    -25.7 1.115e+04 1.059e-09
 82.43750    -24.5 1.064e+04 8.521e-10
 82.44751    -24.6 1.051e+04 8.083e-10
 82.45864    -23.5 1.014e+04 6.293e-10
 82.47865    -22.5 1.002e+04 4.762e-10
 82.49611    -22.4 1.002e+04 3.765e-10
 82.50612    -23.8 9.889e+03 3.106e-10
 82.52761    -22.9 9.402e+03 2.420e-10
 82.54763    -23.3 9.735e+03 2.809e-10
 82.55869    -22.0 9.625e+03 2.853e-10
 82.57871    -21.6 9.706e+03 2.973e-10
 82.59872    -20.3 9.733e+03 3.398e-10
 82.61873    -19.8 9.861e+03 3.689e-10
 82.63755    -18.5 9.751e+03 4.009e-10
 82.64755    -19.1 9.795e+03 4.407e-10
 82.65875    -18.2 9.792e+03 4.817e-10
 82.67876    -17.1 9.846e+03 5.103e-10
 82.69767    -16.1 9.892e+03 5.160e-10
 82.70767    -16.4 9.912e+03 5.104e-10
 82.71879    -15.2 9.877e+03 4.709e-10
 82.73757    -14.9 9.881e+03 4.627e-10
 82.74757    -15.6 9.788e+03 4.383e-10
 82.75881    -14.4 9.609e+03 3.959e-10
 82.77882    -14.1 9.625e+03 3.968e-10
 82.79883    -13.0 9.579e+03 3.940e-10
 82.81884    -12.5 9.620e+03 4.096e-10
 82.83759    -11.7 9.692e+03 4.498e-10
 82.84760    -12.1 9.533e+03 4.014e-10
 82.85887    -11.5 9.715e+03 4.588e-10
 82.87888    -11.0 9.991e+03 5.606e-10
 82.89889    -10.4 1.028e+04 6.862e-10
 82.90922     -9.8 1.064e+04 8.416e-10
 82.91923     -9.0 1.008e+04 5.736e-10
 82.93761     -8.4 1.039e+04 7.065e-10
 82.94762     -8.5 1.020e+04 6.089e-10
 82.95892     -8.0 1.053e+04 7.413e-10
 82.97893     -7.6 1.089e+04 8.878e-10
 82.99895     -7.3 1.129e+04 1.049e-09
 83.01896     -7.1 1.165e+04 1.212e-09
 83.03763     -6.9 1.189e+04 1.326e-09
 83.04764     -7.1 1.183e+04 1.309e-09
 83.05898     -6.9 1.204e+04 1.376e-09
 83.07899     -6.6 1.207e+04 1.308e-09
 83.09900     -6.5 1.192e+04 1.120e-09
 83.11078     -6.7 1.160e+04 9.135e-10
 83.12078     -4.9 1.230e+04 1.214e-09
 83.13766     -5.2 1.193e+04 8.761e-10
 83.14766     -5.2 1.192e+04 9.511e-10
 83.15904     -5.9 1.133e+04 7.372e-10
 83.17905     -6.9 1.083e+04 6.256e-10
 83.19906     -7.8 1.056e+04 5.483e-10
 83.21907     -8.4 1.041e+04 5.160e-10
 83.23768     -9.1 1.047e+04 5.375e-10
 83.24768     -9.1 1.069e+04 6.179e-10
 83.25909    -10.1 1.099e+04 7.305e-10
 83.27911    -11.0 1.129e+04 9.159e-10
 83.29912    -11.9 1.175e+04 1.212e-09
 83.31233    -12.9 1.233e+04 1.577e-09
 83.32233    -13.7 1.267e+04 1.786e-09
 83.33770    -15.9 1.379e+04 2.868e-09
 83.34771    -16.6 1.410e+04 3.109e-09
 83.35915    -18.5 1.474e+04 4.318e-09
 83.37916    -19.8 1.485e+04 4.928e-09
 83.39917    -19.7 1.432e+04 4.181e-09
 83.41919    -20.3 1.379e+04 3.095e-09
 83.43772    -20.7 1.290e+04 1.901e-09
 83.44773    -21.8 1.236e+04 1.424e-09
 83.45921    -23.3 1.180e+04 1.067e-09
 83.47922    -23.7 1.114e+04 7.090e-10
 83.49923    -24.0 1.103e+04 6.784e-10
 83.52784    -24.3 1.104e+04 5.654e-10
 83.54795    -24.1 1.026e+04 4.060e-10
 83.55936    -23.7 1.021e+04 3.344e-10
 83.57928    -23.6 1.034e+04 3.323e-10
 83.59929    -22.8 1.032e+04 2.898e-10
 83.61930    -22.7 1.062e+04 2.921e-10
 83.63777    -22.6 1.086e+04 2.813e-10
 83.64777    -22.5 1.076e+04 2.567e-10
 83.65932    -22.7 1.107e+04 2.639e-10
 83.67933    -22.8 1.137e+04 2.996e-10
 83.69935    -22.8 1.168e+04 3.240e-10
 83.71543    -23.2 1.197e+04 4.185e-10
 83.72544    -25.9 1.588e+04 2.000e-09
 83.73779    -25.7 1.648e+04 2.379e-09
 83.74780    -25.4 1.556e+04 1.869e-09
 83.75938    -25.1 1.598e+04 1.952e-09
 83.77939    -24.8 1.600e+04 1.859e-09
 83.79940    -24.6 1.554e+04 1.688e-09
 83.81941    -24.6 1.474e+04 1.498e-09
 83.83781    -24.8 1.382e+04 1.365e-09
 83.84782    -24.4 1.334e+04 1.213e-09
 83.85944    -24.5 1.273e+04 1.211e-09
 83.87945    -24.4 1.241e+04 1.266e-09
 83.89946    -24.1 1.246e+04 1.312e-09
 83.91698    -23.6 1.246e+04 1.301e-09
 83.92699    -24.5 1.254e+04 1.274e-09
 83.93783    -24.0 1.241e+04 1.197e-09
 83.94784    -23.6 1.223e+04 1.092e-09
 83.95949    -23.0 1.201e+04 1.009e-09
 83.97951    -22.6 1.179e+04 9.323e-10
 83.99952    -21.8 1.156e+04 8.478e-10
 84.01953    -21.0 1.148e+04 7.830e-10
 84.03786    -20.0 1.140e+04 7.072e-10
 84.04786    -19.3 1.143e+04 7.639e-10
 84.05955    -18.4 1.138e+04 6.938e-10
 84.07956    -17.4 1.121e+04 6.043e-10
 84.09957    -16.5 1.103e+04 5.245e-10
 84.11854    -15.6 1.088e+04 4.688e-10
 84.12854    -16.6 1.076e+04 3.842e-10
 84.13788    -15.5 1.071e+04 3.748e-10
 84.14788    -14.8 1.072e+04 3.917e-10
 84.15961    -13.8 1.068e+04 3.847e-10
 84.17962    -12.9 1.069e+04 3.871e-10
 84.19963    -12.3 1.076e+04 4.029e-10
 84.21964    -12.0 1.086e+04 4.360e-10
 84.23790    -11.9 1.102e+04 4.961e-10
 84.24791    -11.3 1.107e+04 4.918e-10
 84.25967    -11.5 1.129e+04 5.929e-10
 84.27968    -11.7 1.158e+04 7.396e-10
 84.29969    -12.0 1.195e+04 9.536e-10
 84.31970    -12.2 1.226e+04 1.202e-09
 84.33009    -12.0 1.243e+04 1.407e-09
 84.33831    -12.5 1.242e+04 1.370e-09
 84.34793    -11.5 1.208e+04 1.103e-09
 84.35972    -11.5 1.208e+04 1.093e-09
 84.37973    -11.5 1.206e+04 1.047e-09
 84.39975    -11.6 1.206e+04 9.986e-10
 84.41976    -12.0 1.214e+04 1.004e-09
 84.43795    -13.8 1.269e+04 1.061e-09
 84.44795    -12.1 1.213e+04 9.360e-10
 84.45978    -15.2 1.362e+04 1.257e-09
 84.47979    -17.2 1.418e+04 2.229e-09
 84.49980    -17.0 1.427e+04 3.330e-09
 84.51981    -16.2 1.408e+04 3.366e-09
 84.53165    -15.2 1.378e+04 2.937e-09
 84.53979    -15.4 1.391e+04 2.993e-09
 84.54797    -14.8 1.387e+04 3.087e-09
 84.55984    -14.1 1.347e+04 2.132e-09
 84.57985    -14.1 1.284e+04 1.213e-09
 84.59986    -14.6 1.213e+04 6.930e-10
 84.61987    -16.2 1.168e+04 4.654e-10
 84.64999    -15.4 1.125e+04 3.234e-10
 84.69011    -14.2 1.100e+04 2.955e-10
 84.72820    -12.6 1.111e+04 3.209e-10
 84.74821    -11.0 1.077e+04 2.791e-10
 84.77015     -9.2 1.097e+04 3.292e-10
 84.81018     -7.6 1.127e+04 4.140e-10
 84.83813     -7.5 1.149e+04 5.138e-10
 84.84804     -6.7 1.137e+04 4.903e-10
 84.86001     -6.6 1.151e+04 5.601e-10
 84.88002     -6.4 1.171e+04 6.381e-10
 84.90003     -6.1 1.180e+04 7.016e-10
 84.92004     -5.4 1.177e+04 7.294e-10
 84.93475     -4.6 1.169e+04 7.008e-10
 84.94276     -4.9 1.161e+04 6.569e-10
 84.94806     -4.1 1.165e+04 6.713e-10
 84.96007     -3.9 1.161e+04 5.358e-10
 84.98008     -4.6 1.147e+04 4.300e-10
 85.01019     -4.2 1.101e+04 3.284e-10
 85.05031     -3.8 1.048e+04 2.867e-10
 85.09034     -2.8 1.010e+04 2.659e-10
 85.12829     -1.1 9.835e+03 2.231e-10
 85.14830      0.4 9.870e+03 2.260e-10
 85.17038      2.2 9.701e+03 1.767e-10
 85.21040      3.8 9.597e+03 1.271e-10
 85.25043      4.9 9.538e+03 9.523e-11
 85.29045      6.0 9.448e+03 8.821e-11
 85.32804      7.5 9.434e+03 8.803e-11
 85.34592      6.6 9.335e+03 9.143e-11
 85.34835      8.1 9.480e+03 9.606e-11
 85.37050      9.4 9.449e+03 9.539e-11
 85.41052     10.4 9.566e+03 1.018e-10
 85.45054     10.9 9.816e+03 1.208e-10
 85.49056     11.0 1.012e+04 1.718e-10
 85.52838     11.2 1.046e+04 2.780e-10
 85.54839     11.9 1.068e+04 3.695e-10
 85.57061     12.4 1.112e+04 5.525e-10
 85.61063     13.0 1.140e+04 6.544e-10
 85.63831     12.8 1.120e+04 4.901e-10
 85.64822     12.9 1.124e+04 5.197e-10
 85.66047     12.5 1.111e+04 4.636e-10
 85.69058     13.3 1.088e+04 3.845e-10
 85.72843     13.7 1.049e+04 2.909e-10
 85.74844     13.8 1.060e+04 3.158e-10
 85.75116     14.2 1.024e+04 2.506e-10
 85.77117     12.9 1.018e+04 2.441e-10
 85.81075     13.0 1.023e+04 2.505e-10
 85.85077     13.1 1.058e+04 3.131e-10
 85.88069     13.9 1.064e+04 3.555e-10
 85.90060     13.9 1.074e+04 3.940e-10
 85.92061     14.0 1.084e+04 4.621e-10
 85.93828     14.1 1.090e+04 5.046e-10
 85.94838     14.6 1.073e+04 4.098e-10
 85.97084     14.7 1.074e+04 4.208e-10
 86.01086     14.6 1.065e+04 3.956e-10
 86.05088     14.0 1.069e+04 3.475e-10
 86.09091     12.6 1.117e+04 4.033e-10
 86.12851     11.5 1.165e+04 5.677e-10
 86.14853     13.1 1.162e+04 5.581e-10
 86.15416     11.2 1.228e+04 8.938e-10
 86.16407      9.7 1.279e+04 1.279e-09
 86.18076      8.7 1.295e+04 1.611e-09
 86.20077      8.1 1.297e+04 1.747e-09
 86.22079      7.7 1.292e+04 1.693e-09
 86.23835      7.4 1.278e+04 1.537e-09
 86.24835      8.2 1.312e+04 1.920e-09
 86.26081      8.0 1.292e+04 1.648e-09
 86.28082      7.7 1.267e+04 1.372e-09
 86.30083      7.2 1.242e+04 1.160e-09
 86.32084      6.7 1.219e+04 1.020e-09
 86.33837      6.4 1.198e+04 9.247e-10
 86.34838      7.0 1.208e+04 9.742e-10
 86.35562      7.1 1.190e+04 9.213e-10
 86.36563      6.3 1.185e+04 8.885e-10
 86.38088      6.2 1.180e+04 8.405e-10
 86.41099      7.3 1.190e+04 8.661e-10
 86.45111      7.1 1.186e+04 8.171e-10
 86.49114      7.0 1.160e+04 7.502e-10
 86.52860      7.4 1.122e+04 6.117e-10
 86.54852      8.4 1.155e+04 7.566e-10
 86.55727      9.5 1.120e+04 5.717e-10
 86.57738      8.6 1.100e+04 5.220e-10
 86.61120      9.0 1.061e+04 3.852e-10
 86.65123      9.5 1.031e+04 3.190e-10
 86.69125     10.3 1.023e+04 3.130e-10
 86.72865     11.2 1.030e+04 3.284e-10
 86.74866     13.2 1.033e+04 3.231e-10
 86.77130     13.6 1.053e+04 3.812e-10
 86.81132     13.9 1.089e+04 5.520e-10
 86.85134     14.5 1.129e+04 8.032e-10
 86.89136     14.8 1.164e+04 1.014e-09
 86.92869     14.7 1.205e+04 1.052e-09
 86.94870     17.5 1.225e+04 1.270e-09
 86.96047     16.4 1.311e+04 1.427e-09
 86.97038     15.2 1.282e+04 1.325e-09
 86.98122     12.1 1.362e+04 1.577e-09
 87.00123      9.4 1.399e+04 2.093e-09
 87.02124      7.8 1.371e+04 2.821e-09
 87.03853      7.8 1.342e+04 2.754e-09
 87.04853      9.0 1.387e+04 3.537e-09
 87.06127      9.3 1.347e+04 3.193e-09
 87.08128      9.7 1.307e+04 2.315e-09
 87.10129      9.5 1.258e+04 1.377e-09
 87.12130      8.4 1.166e+04 7.239e-10
 87.13855      6.7 1.039e+04 4.080e-10
 87.14855      8.5 1.112e+04 5.285e-10
 87.16132      6.9 1.015e+04 3.286e-10
 87.17183      6.0 1.000e+04 2.729e-10
 87.18184      5.5 9.930e+03 2.679e-10
 87.21145      6.5 9.932e+03 2.773e-10
 87.25157      7.2 1.008e+04 3.230e-10
 87.29159      8.2 1.027e+04 3.859e-10
 87.32151      9.0 1.043e+04 4.304e-10
 87.33859      9.4 1.060e+04 4.801e-10
 87.34860     10.2 1.046e+04 4.270e-10
 87.36144     10.5 1.061e+04 4.731e-10
 87.37339     10.8 1.076e+04 5.337e-10
 87.38339     10.2 1.081e+04 5.354e-10
 87.40146     10.6 1.098e+04 6.347e-10
 87.42147     10.7 1.129e+04 7.980e-10
 87.43861     10.1 1.222e+04 1.171e-09
 87.44862     10.3 1.223e+04 1.069e-09
 87.46149      8.1 1.385e+04 2.063e-09
 87.48151      6.4 1.527e+04 4.286e-09
 87.50152      6.6 1.638e+04 7.600e-09
 87.52153      6.8 1.711e+04 9.495e-09
 87.53864      6.9 1.721e+04 9.303e-09
 87.54864      5.2 1.748e+04 9.242e-09
 87.56155      4.8 1.725e+04 8.261e-09
 87.57494      3.3 1.681e+04 6.252e-09
 87.58494      3.0 1.590e+04 4.477e-09
 87.60157     -0.1 1.494e+04 3.337e-09
 87.62159     -2.6 1.394e+04 2.942e-09
 87.63866     -3.5 1.360e+04 2.905e-09
 87.64866     -3.1 1.340e+04 2.958e-09
 87.66161     -3.2 1.339e+04 2.824e-09
 87.68162     -3.7 1.376e+04 2.766e-09
 87.70163     -4.9 1.422e+04 2.830e-09
 87.72164     -6.3 1.420e+04 2.838e-09
 87.73868     -7.5 1.425e+04 2.848e-09
 87.74869     -7.4 1.335e+04 1.988e-09
 87.76167    -10.9 1.580e+04 2.807e-09
 87.77649    -19.5 2.077e+04 7.053e-09
 87.78650    -21.8 2.099e+04 9.481e-09
 87.80169    -22.6 1.918e+04 2.067e-08
 87.82170    -22.9 1.913e+04 2.298e-08
 87.83870    -23.5 1.999e+04 1.728e-08
 87.84866    -22.7 2.045e+04 2.541e-08
 87.85662    -24.1 2.215e+04 1.640e-08
 87.86663    -28.2 2.123e+04 1.135e-08
 87.88169    -34.7 1.761e+04 5.686e-09
 87.90175    -39.4 1.380e+04 3.510e-09
 87.92176    -39.2 1.318e+04 3.054e-09
 87.93873    -38.1 1.248e+04 2.282e-09
 87.94873    -38.5 1.226e+04 2.061e-09
 87.96178    -37.6 1.174e+04 1.395e-09
 87.97804    -37.4 1.148e+04 8.696e-10
 87.98805    -38.0 1.115e+04 6.678e-10
 88.00180    -39.6 1.047e+04 3.805e-10
 88.02181    -40.4 9.754e+03 2.894e-10
 88.05193    -39.0 9.428e+03 2.525e-10
 88.09205    -36.4 9.328e+03 2.154e-10
 88.12896    -34.9 9.275e+03 1.813e-10
 88.14897    -35.1 9.293e+03 1.865e-10
 88.16978    -34.0 9.742e+03 2.215e-10
 88.18979    -34.4 9.282e+03 1.774e-10
 88.21212    -32.9 9.663e+03 2.494e-10
 88.25214    -31.2 9.851e+03 3.311e-10
 88.29216    -29.7 9.937e+03 3.973e-10
 88.32900    -28.8 1.023e+04 4.209e-10
 88.34902    -29.1 1.021e+04 3.573e-10
 88.37221    -28.1 9.917e+03 4.094e-10
 88.40213    -26.3 9.765e+03 4.439e-10
 88.42204    -25.8 1.010e+04 4.108e-10
 88.43884    -25.6 1.025e+04 3.803e-10
 88.44884    -26.0 1.051e+04 3.958e-10
 88.46207    -25.5 1.007e+04 4.454e-10
 88.48208    -24.8 1.013e+04 4.109e-10
 88.50209    -24.1 1.002e+04 4.202e-10
 88.52210    -23.5 1.008e+04 4.121e-10
 88.53886    -23.4 1.032e+04 4.332e-10
 88.54887    -25.1 1.147e+04 5.615e-10
 88.56212    -26.8 1.232e+04 7.445e-10
 88.58213    -28.6 1.262e+04 1.130e-09
 88.59270    -29.7 1.256e+04 1.657e-09
 88.60271    -29.3 1.348e+04 1.890e-09
 88.62216    -29.4 1.337e+04 2.908e-09
 88.63888    -28.3 1.343e+04 3.623e-09
 88.64889    -29.9 1.491e+04 4.026e-09
 88.66218    -31.5 1.529e+04 3.731e-09
 88.68219    -34.3 1.456e+04 3.073e-09
 88.70220    -37.7 1.330e+04 2.482e-09
 88.72221    -40.2 1.285e+04 2.268e-09
 88.73890    -40.8 1.313e+04 2.340e-09
 88.74891    -42.0 1.377e+04 2.341e-09
 88.76224    -42.8 1.378e+04 2.284e-09
 88.78225    -43.6 1.368e+04 2.262e-09
 88.79426    -44.3 1.334e+04 2.260e-09
 88.80426    -45.0 1.295e+04 1.977e-09
 88.82227    -45.2 1.248e+04 1.952e-09
 88.83893    -44.3 1.202e+04 1.802e-09
 88.84893    -44.8 1.186e+04 1.557e-09
 88.86229    -44.0 1.139e+04 1.298e-09
 88.88231    -43.5 1.112e+04 9.781e-10
 88.90232    -43.6 1.106e+04 6.729e-10
 88.92233    -44.5 1.108e+04 4.874e-10
 88.93895    -45.9 1.073e+04 3.783e-10
 88.94895    -44.9 1.075e+04 4.327e-10
 88.96235    -45.9 1.036e+04 3.632e-10
 88.98236    -46.3 9.959e+03 3.434e-10
 88.99581    -46.2 9.927e+03 3.457e-10
 89.00581    -46.3 9.940e+03 3.357e-10
 89.02239    -46.6 9.805e+03 3.184e-10
 89.05250    -45.1 9.930e+03 3.196e-10
 89.09262    -44.1 9.648e+03 2.883e-10
 89.12918    -42.4 9.548e+03 2.638e-10
 89.14919    -42.0 1.015e+04 3.378e-10
 89.17267    -40.8 1.015e+04 3.008e-10
 89.21269    -39.5 9.987e+03 3.243e-10
 89.25271    -37.2 1.023e+04 3.908e-10
 89.29274    -35.5 1.033e+04 4.588e-10
 89.32265    -34.4 1.026e+04 4.757e-10
 89.33904    -34.1 1.025e+04 4.907e-10
 89.34904    -34.2 1.021e+04 4.771e-10
 89.36258    -32.9 1.027e+04 4.861e-10
 89.38259    -32.4 1.007e+04 5.160e-10
 89.39891    -30.4 1.009e+04 4.379e-10
 89.41902    -30.3 9.971e+03 3.906e-10
 89.45283    -28.3 9.909e+03 3.278e-10
 89.49285    -26.9 9.854e+03 2.945e-10
 89.52927    -25.2 9.804e+03 2.906e-10
 89.54928    -25.4 9.796e+03 3.003e-10
 89.57290    -23.4 9.801e+03 2.872e-10
 89.61292    -21.5 9.871e+03 2.643e-10
 89.65294    -19.6 9.791e+03 2.345e-10
 89.69296    -17.9 9.695e+03 2.129e-10
 89.72932    -16.2 9.647e+03 2.005e-10
 89.74933    -16.1 9.679e+03 2.049e-10
 89.77301    -14.1 9.621e+03 1.937e-10
 89.80221    -11.9 9.507e+03 1.834e-10
 89.82222    -11.1 9.465e+03 1.749e-10
 89.85306     -8.9 9.310e+03 1.589e-10
 89.89308     -6.6 9.183e+03 1.406e-10
 89.92936     -4.4 9.093e+03 1.222e-10
 89.94937     -4.3 9.118e+03 1.263e-10
 89.97312     -2.3 9.044e+03 1.127e-10
 90.01315     -0.3 8.968e+03 1.067e-10
 90.05317      1.7 8.944e+03 1.083e-10
 90.09319      3.8 8.916e+03 1.137e-10
 90.12941      6.0 8.908e+03 1.209e-10
 90.14942      6.0 8.985e+03 1.467e-10
 90.17324      8.3 8.983e+03 1.470e-10
 90.20531     10.5 8.982e+03 1.434e-10
 90.22533     10.4 8.981e+03 1.431e-10
 90.25328     12.5 8.982e+03 1.342e-10
 90.29331     14.5 8.956e+03 1.247e-10
 90.32945     16.4 8.896e+03 1.209e-10
 90.34946     16.4 8.868e+03 1.204e-10
 90.37335     18.5 8.857e+03 1.210e-10
 90.41338     20.6 8.842e+03 1.239e-10
 90.45340     22.9 8.844e+03 1.273e-10
 90.49342     25.2 8.861e+03 1.309e-10
 90.52949     27.5 8.913e+03 1.368e-10
 90.54951     27.3 8.837e+03 1.257e-10
 90.57347     29.6 8.883e+03 1.302e-10
 90.60842     31.9 9.041e+03 1.486e-10
 90.62843     31.0 9.075e+03 1.600e-10
 90.65351     33.5 9.402e+03 2.031e-10
 90.69354     35.6 9.868e+03 2.739e-10
 90.72345     36.6 1.008e+04 3.170e-10
 90.73935     37.0 1.027e+04 3.897e-10
 90.74936     36.0 1.027e+04 3.830e-10
 90.76338     36.4 1.057e+04 5.185e-10
 90.78339     37.2 1.091e+04 6.903e-10
 90.80340     38.2 1.124e+04 8.771e-10
 90.81978     39.2 1.152e+04 1.065e-09
 90.82979     38.9 1.130e+04 9.806e-10
 90.83937     39.9 1.155e+04 1.152e-09
 90.84938     39.3 1.139e+04 1.183e-09
 90.86344     40.4 1.152e+04 1.276e-09
 90.88345     41.4 1.166e+04 1.329e-09
 90.90346     42.4 1.182e+04 1.368e-09
 90.92347     43.2 1.200e+04 1.394e-09
 90.93939     44.0 1.215e+04 1.410e-09
 90.94940     42.8 1.145e+04 9.760e-10
 90.96349     43.4 1.146e+04 9.617e-10
 90.98351     44.0 1.143e+04 9.576e-10
 91.00352     44.6 1.142e+04 9.668e-10
 91.02133     45.0 1.149e+04 1.015e-09
 91.03134     45.3 1.111e+04 8.086e-10
 91.03942     45.4 1.129e+04 8.876e-10
 91.04942     43.3 1.109e+04 7.700e-10
 91.06355     42.8 1.154e+04 9.780e-10
 91.08356     42.0 1.217e+04 1.328e-09
 91.10357     41.0 1.303e+04 1.914e-09
 91.12359     39.8 1.398e+04 2.806e-09
 91.13944     38.5 1.493e+04 3.963e-09
 91.14944     37.9 1.414e+04 2.961e-09
 91.16361     36.4 1.490e+04 3.500e-09
 91.18362     34.5 1.509e+04 3.565e-09
 91.20363     32.5 1.494e+04 3.281e-09
 91.22289     31.0 1.437e+04 2.665e-09
 91.23289     32.5 1.475e+04 3.009e-09
 91.23946     31.0 1.405e+04 2.346e-09
 91.24947     30.9 1.349e+04 2.053e-09
 91.26367     30.2 1.288e+04 1.621e-09
 91.28368     30.1 1.225e+04 1.105e-09
 91.30369     30.0 1.170e+04 6.783e-10
 91.32370     29.5 1.119e+04 4.143e-10
 91.33948     28.8 1.057e+04 2.945e-10
 91.34949     30.3 1.113e+04 3.907e-10
 91.36372     29.6 1.066e+04 3.092e-10
 91.38373     29.4 1.025e+04 3.004e-10
 91.40375     29.5 1.015e+04 3.087e-10
 91.42376     29.8 1.008e+04 3.400e-10
 91.43444     29.8 1.016e+04 3.881e-10
 91.44019     30.0 1.019e+04 3.785e-10
 91.44951     30.4 1.047e+04 4.217e-10
 91.46378     30.2 1.051e+04 4.654e-10
 91.48379     29.3 1.080e+04 5.770e-10
 91.50380     27.2 1.156e+04 8.631e-10
 91.52381     24.5 1.250e+04 1.497e-09
 91.53953     22.5 1.318e+04 2.442e-09
 91.54953     22.8 1.301e+04 2.281e-09
 91.56384     21.3 1.321e+04 2.442e-09
 91.58385     19.4 1.318e+04 2.241e-09
 91.60386     16.5 1.302e+04 1.587e-09
 91.62387     11.8 1.236e+04 9.567e-10
 91.63600      6.6 1.096e+04 6.432e-10
 91.64167      8.2 1.108e+04 6.443e-10
 91.64956      8.8 1.072e+04 5.430e-10
 91.66389      5.4 9.767e+03 4.608e-10
 91.68391      4.2 9.612e+03 4.567e-10
 91.70392      3.7 9.729e+03 4.816e-10
 91.72393      3.1 9.975e+03 5.210e-10
 91.73957      2.3 1.021e+04 5.654e-10
 91.74958      3.7 1.008e+04 5.483e-10
 91.76395      2.9 1.029e+04 6.002e-10
 91.78396      2.0 1.052e+04 6.879e-10
 91.80397      1.1 1.086e+04 8.463e-10
 91.82399     -0.4 1.175e+04 1.200e-09
 91.83755     -2.8 1.337e+04 2.091e-09
 91.84315     -1.8 1.326e+04 1.867e-09
 91.84960      0.5 1.223e+04 1.436e-09
 91.86401     -1.8 1.390e+04 2.660e-09
 91.88402     -2.7 1.475e+04 4.388e-09
 91.90403     -3.0 1.489e+04 5.273e-09
 91.92404     -3.6 1.492e+04 5.055e-09
 91.93962     -5.0 1.491e+04 4.440e-09
 91.94962     -4.1 1.478e+04 4.395e-09
 91.96407     -4.7 1.405e+04 3.496e-09
 91.98408     -6.2 1.342e+04 2.796e-09
 92.00409     -5.4 1.254e+04 1.904e-09
 92.02410     -5.7 1.218e+04 1.566e-09
 92.05421     -4.6 1.167e+04 1.075e-09
 92.09433     -4.7 1.120e+04 7.157e-10
 92.12985     -3.8 1.078e+04 5.763e-10
 92.14986     -2.1 1.089e+04 5.938e-10
 92.17438     -1.7 1.064e+04 4.658e-10
 92.21440     -0.9 1.052e+04 4.041e-10
 92.24085      0.2 1.057e+04 4.160e-10
 92.26086      1.8 1.045e+04 3.933e-10
 92.29445      2.9 1.065e+04 4.533e-10
 92.32990      4.2 1.098e+04 5.470e-10
 92.34991      4.8 1.070e+04 4.575e-10
 92.37449      6.1 1.078e+04 4.715e-10
 92.41452      7.3 1.081e+04 4.616e-10
 92.45454      8.6 1.089e+04 4.492e-10
 92.48446      9.5 1.091e+04 4.563e-10
 92.50437      9.9 1.093e+04 4.616e-10
 92.52439     10.5 1.089e+04 4.563e-10
 92.53975     11.2 1.087e+04 4.620e-10
 92.54976     11.3 1.095e+04 4.586e-10
 92.56441     12.0 1.095e+04 4.789e-10
 92.58442     12.8 1.093e+04 5.086e-10
 92.60443     13.6 1.099e+04 5.549e-10
 92.62444     14.5 1.112e+04 6.168e-10
 92.63977     15.1 1.127e+04 6.966e-10
 92.64908     15.2 1.132e+04 6.548e-10
 92.65376     15.5 1.114e+04 5.563e-10
 92.66447     16.1 1.128e+04 6.139e-10
 92.68448     16.8 1.143e+04 6.958e-10
 92.70449     17.4 1.162e+04 8.050e-10
 92.72450     18.2 1.182e+04 8.970e-10
 92.73980     18.7 1.207e+04 9.574e-10
 92.74980     18.4 1.211e+04 9.277e-10
 92.77463     18.9 1.222e+04 9.219e-10
 92.81475     20.3 1.213e+04 8.812e-10
 92.85477     21.6 1.205e+04 7.979e-10
 92.89479     22.9 1.194e+04 6.766e-10
 92.93003     24.3 1.178e+04 5.700e-10
 92.95004     24.5 1.209e+04 8.494e-10
 92.97484     26.2 1.200e+04 6.990e-10
 93.01486     28.0 1.202e+04 5.873e-10
 93.04706     29.8 1.208e+04 5.187e-10
 93.06707     30.6 1.213e+04 6.781e-10
 93.09491     32.5 1.218e+04 6.450e-10
 93.13007     34.5 1.218e+04 6.209e-10
 93.15009     34.9 1.248e+04 8.807e-10
 93.17495     36.9 1.257e+04 8.781e-10
 93.21497     38.8 1.281e+04 9.197e-10
 93.25500     39.8 1.331e+04 1.033e-09
 93.28492     39.1 1.434e+04 1.489e-09
 93.30483     38.6 1.497e+04 2.115e-09
 93.32484     38.1 1.536e+04 3.214e-09
 93.33993     37.8 1.566e+04 4.689e-09
 93.34993     37.7 1.659e+04 7.740e-09
 93.36487     37.6 1.711e+04 9.667e-09
 93.38488     37.6 1.727e+04 1.010e-08
 93.40489     37.8 1.704e+04 9.463e-09
 93.42490     38.3 1.648e+04 7.513e-09
 93.43995     38.7 1.577e+04 4.962e-09
 93.44996     38.4 1.571e+04 4.074e-09
 93.45997     37.7 1.486e+04 2.260e-09
 93.46998     36.8 1.403e+04 1.474e-09
 93.48493     35.7 1.317e+04 9.080e-10
 93.50495     35.1 1.250e+04 6.599e-10
 93.52496     34.9 1.207e+04 5.451e-10
 93.53997     35.0 1.188e+04 4.840e-10
 93.54998     34.4 1.215e+04 5.394e-10
 93.56498     35.1 1.207e+04 5.290e-10
 93.58499     35.9 1.206e+04 5.325e-10
 93.60500     36.7 1.204e+04 5.394e-10
 93.62501     37.6 1.205e+04 5.514e-10
 93.64000     38.4 1.207e+04 5.593e-10
 93.65000     38.2 1.211e+04 6.243e-10
 93.66152     38.7 1.204e+04 6.197e-10
 93.67153     38.9 1.180e+04 5.268e-10
 93.68505     39.9 1.175e+04 5.342e-10
 93.70506     40.4 1.180e+04 5.428e-10
 93.73011     41.9 1.210e+04 6.216e-10
 93.75022     41.8 1.208e+04 7.109e-10
 93.76519     43.1 1.214e+04 7.477e-10
 93.78511     43.8 1.222e+04 8.054e-10
 93.80512     44.5 1.230e+04 8.887e-10
 93.82513     45.3 1.234e+04 9.661e-10
 93.85317     46.1 1.274e+04 1.248e-09
 93.87318     46.8 1.196e+04 8.159e-10
 93.89527     48.4 1.191e+04 7.316e-10
 93.93025     50.1 1.193e+04 7.667e-10
 93.95026     50.2 1.201e+04 8.316e-10
 93.97541     51.8 1.186e+04 7.610e-10
 94.01543     53.4 1.165e+04 6.089e-10
 94.05545     55.0 1.141e+04 4.354e-10
 94.09548     56.3 1.113e+04 3.133e-10
 94.13030     57.9 1.084e+04 2.819e-10
 94.15031     57.6 1.087e+04 2.794e-10
 94.17552     59.4 1.085e+04 2.806e-10
 94.21555     61.3 1.085e+04 3.002e-10
 94.25557     63.2 1.095e+04 3.577e-10
 94.27638     65.2 1.123e+04 4.804e-10
 94.29639     65.7 1.123e+04 4.714e-10
 94.32551     66.6 1.136e+04 5.549e-10
 94.34015     67.2 1.151e+04 6.448e-10
 94.35026     67.1 1.142e+04 5.846e-10
 94.36553     67.8 1.169e+04 7.377e-10
 94.38545     68.2 1.200e+04 9.424e-10
 94.40546     68.7 1.233e+04 1.237e-09
 94.42547     69.1 1.277e+04 1.655e-09
 94.44017     69.6 1.324e+04 2.193e-09
 94.45018     69.6 1.306e+04 1.940e-09
 94.46549     70.1 1.347e+04 2.430e-09
 94.47774     70.6 1.372e+04 2.688e-09
 94.48774     70.9 1.351e+04 2.554e-09
 94.50552     71.2 1.363e+04 2.627e-09
 94.52553     71.4 1.359e+04 2.540e-09
 94.54020     71.5 1.343e+04 2.338e-09
 94.55030     71.3 1.306e+04 1.901e-09
 94.57575     71.9 1.262e+04 1.546e-09
 94.61577     73.1 1.196e+04 1.011e-09
 94.65580     74.6 1.123e+04 5.558e-10
 94.67948     76.1 1.055e+04 2.849e-10
 94.69949     77.2 1.113e+04 5.163e-10
 94.73043     78.8 1.060e+04 3.050e-10
 94.75044     79.6 1.044e+04 2.028e-10
 94.77587     81.2 1.005e+04 1.422e-10
 94.81589     83.1 9.798e+03 1.306e-10
 94.85591     85.3 9.690e+03 1.323e-10
 94.89593     87.5 9.628e+03 1.430e-10
 94.93048     89.8 9.645e+03 1.600e-10
 94.95049     90.6 9.585e+03 1.322e-10
 94.97598     92.7 9.664e+03 1.515e-10
 95.01600     94.8 9.724e+03 1.662e-10
 95.05603     96.8 9.786e+03 1.764e-10
 95.08259     98.7 9.832e+03 1.816e-10
 95.10260     99.4 9.674e+03 1.296e-10
 95.13052    101.5 9.640e+03 1.236e-10
 95.15053    102.2 9.622e+03 1.493e-10
 95.17609    104.2 9.641e+03 1.499e-10
 95.21612    106.0 9.647e+03 1.500e-10
 95.25614    107.8 9.658e+03 1.498e-10
 95.29616    109.6 9.678e+03 1.511e-10
 95.33056    111.4 9.707e+03 1.556e-10
 95.35058    112.0 9.679e+03 1.706e-10
 95.37621    113.7 9.726e+03 1.750e-10
 95.41623    115.5 9.800e+03 1.826e-10
 95.45625    117.1 9.859e+03 1.878e-10
 95.48569    118.9 9.865e+03 1.876e-10
 95.50570    120.3 9.869e+03 1.870e-10
 95.53061    122.1 9.870e+03 1.854e-10
 95.55062    122.6 9.834e+03 2.049e-10
 95.57632    124.5 9.819e+03 1.993e-10
 95.61635    126.4 9.789e+03 1.868e-10
 95.65637    128.3 9.738e+03 1.712e-10
 95.69639    130.4 9.645e+03 1.572e-10
 95.73065    132.5 9.549e+03 1.500e-10
 95.75066    133.2 9.510e+03 1.375e-10
 95.77644    135.6 9.479e+03 1.358e-10
 95.81646    138.3 9.474e+03 1.373e-10
 95.85648    141.1 9.490e+03 1.481e-10
 95.88880    144.0 9.710e+03 1.829e-10
 95.90881    145.8 1.000e+04 2.425e-10
 95.93070    148.5 1.047e+04 3.282e-10
 95.95071    150.0 1.026e+04 2.790e-10
 95.96645    150.7 1.043e+04 3.166e-10
 95.98636    151.3 1.062e+04 3.612e-10
 96.00637    152.0 1.090e+04 4.373e-10
 96.02638    152.7 1.127e+04 5.556e-10
 96.04053    153.4 1.168e+04 7.269e-10
 96.05054    154.3 1.150e+04 6.474e-10
 96.06641    154.7 1.204e+04 8.621e-10
 96.08642    154.9 1.256e+04 1.159e-09
 96.10016    155.1 1.306e+04 1.553e-09
 96.11016    155.9 1.393e+04 2.514e-09
 96.12644    156.1 1.453e+04 3.327e-09
 96.14055    156.1 1.515e+04 4.258e-09
 96.15056    156.5 1.583e+04 5.055e-09
 96.16646    156.3 1.655e+04 6.439e-09
 96.18648    155.6 1.724e+04 7.804e-09
 96.20649    154.6 1.787e+04 9.099e-09
 96.22650    153.5 1.841e+04 1.033e-08
 96.24058    152.2 1.877e+04 1.118e-08
 96.25058    151.4 1.990e+04 1.216e-08
 96.26652    150.0 2.033e+04 1.319e-08
 96.28653    148.9 2.056e+04 1.387e-08
 96.30149    147.7 2.092e+04 1.490e-08
 96.30661    146.8 2.119e+04 1.589e-08
 96.31162    145.9 2.211e+04 1.674e-08
 96.32146    145.7 2.186e+04 1.666e-08
 96.33146    145.6 2.153e+04 1.619e-08
 96.34050    145.7 2.159e+04 1.453e-08
 96.34550    145.6 2.030e+04 2.097e-08
 96.35147    145.8 2.041e+04 1.924e-08
 96.36148    146.0 2.093e+04 1.618e-08
 96.37148    146.1 2.106e+04 1.323e-08
 96.38149    146.2 2.103e+04 1.064e-08
 96.39051    146.1 2.093e+04 8.487e-09
 96.39551    146.8 2.035e+04 1.244e-08
 96.40150    146.7 2.062e+04 9.743e-09
 96.40739    146.4 2.086e+04 7.954e-09
 96.41239    144.7 1.959e+04 4.583e-09
 96.42151    144.4 1.856e+04 3.972e-09
 96.43152    144.1 1.759e+04 3.633e-09
 96.44052    143.8 1.646e+04 3.497e-09
 96.44552    145.1 1.938e+04 5.388e-09
 96.45153    144.9 1.848e+04 4.967e-09
 96.46154    144.4 1.797e+04 4.964e-09
 96.47154    143.6 1.800e+04 5.147e-09
 96.48155    142.5 1.840e+04 5.902e-09
 96.49053    141.2 1.928e+04 7.330e-09
 96.49554    139.1 2.415e+04 1.714e-08
 96.50156    138.4 2.395e+04 2.146e-08
 96.50817    138.0 2.298e+04 2.422e-08
 96.51317    137.5 2.177e+04 1.819e-08
 96.52157    137.2 2.137e+04 1.792e-08
 96.53158    136.8 2.066e+04 1.647e-08
 96.54054    136.1 1.968e+04 1.379e-08
 96.54555    136.2 2.081e+04 2.356e-08
 96.55159    135.8 1.983e+04 1.888e-08
 96.56664    135.5 1.888e+04 1.461e-08
 96.58670    135.1 1.722e+04 8.189e-09
 96.60672    134.2 1.510e+04 4.498e-09
 96.62673    132.7 1.360e+04 3.038e-09
 96.64066    132.2 1.321e+04 2.572e-09
 96.65067    131.1 1.275e+04 2.006e-09
 96.66675    131.5 1.250e+04 1.914e-09
 96.68676    132.8 1.235e+04 1.849e-09
 96.70481    134.6 1.224e+04 1.814e-09
 96.71482    136.1 1.183e+04 1.344e-09
 96.72678    137.7 1.178e+04 1.403e-09
 96.74069    139.4 1.177e+04 1.471e-09
 96.75069    139.4 1.200e+04 1.051e-09
 96.76681    141.1 1.190e+04 1.061e-09
 96.78682    142.8 1.173e+04 1.041e-09
 96.80683    144.5 1.160e+04 9.796e-10
 96.82684    146.2 1.154e+04 9.204e-10
 96.84071    147.8 1.146e+04 8.640e-10
 96.85071    147.5 1.121e+04 6.324e-10
 96.86686    149.1 1.108e+04 6.036e-10
 96.88688    150.6 1.095e+04 5.790e-10
 96.90637    152.2 1.083e+04 5.612e-10
 96.91637    152.7 1.104e+04 5.901e-10
 96.92690    154.2 1.096e+04 5.797e-10
 96.94073    155.8 1.096e+04 5.794e-10
 96.95074    155.5 1.055e+04 5.475e-10
 96.96692    157.1 1.070e+04 5.908e-10
 96.98693    158.5 1.093e+04 6.561e-10
 97.00694    159.6 1.122e+04 7.576e-10
 97.02696    160.7 1.162e+04 9.320e-10
 97.04075    161.9 1.233e+04 1.273e-09
 97.05076    161.9 1.204e+04 1.536e-09
 97.06698    163.6 1.293e+04 2.157e-09
 97.08699    165.4 1.416e+04 3.216e-09
 97.10700    166.2 1.518e+04 4.449e-09
 97.11787    166.1 1.549e+04 4.783e-09
 97.12788    165.1 1.556e+04 4.604e-09
 97.14073    165.1 1.588e+04 5.113e-09
 97.14568    164.3 1.579e+04 4.705e-09
 97.15193    164.0 1.610e+04 5.011e-09
 97.16194    163.3 1.658e+04 5.576e-09
 97.17194    162.1 1.723e+04 6.499e-09
 97.18195    160.6 1.795e+04 7.798e-09
 97.19069    158.9 1.861e+04 9.349e-09
 97.19569    157.8 1.858e+04 9.008e-09
 97.20196    155.9 1.900e+04 1.028e-08
 97.21196    154.0 1.905e+04 1.056e-08
 97.21860    151.8 1.902e+04 1.050e-08
 97.22360    152.3 1.811e+04 8.787e-09
 97.23198    150.4 1.797e+04 8.438e-09
 97.24070    148.5 1.772e+04 7.618e-09
 97.24570    147.9 1.783e+04 7.680e-09
 97.25199    146.2 1.744e+04 6.770e-09
 97.26199    144.6 1.697e+04 5.775e-09
 97.27200    143.0 1.638e+04 4.868e-09
 97.28200    141.0 1.565e+04 3.795e-09
 97.29071    139.9 1.537e+04 3.282e-09
 97.29571    140.1 1.532e+04 3.359e-09
 97.30202    137.6 1.621e+04 2.681e-09
 97.31202    136.0 1.645e+04 2.603e-09
 97.31938    133.3 1.739e+04 2.652e-09
 97.32943    134.0 1.652e+04 2.092e-09
 97.34082    129.9 1.842e+04 2.713e-09
 97.35083    133.8 1.674e+04 2.302e-09
 97.36210    130.4 1.920e+04 3.340e-09
 97.37206    128.5 1.976e+04 4.672e-09
 97.38206    126.8 1.994e+04 7.301e-09
 97.39073    125.4 1.974e+04 1.045e-08
 97.39574    126.6 2.015e+04 8.627e-09
 97.40207    125.6 2.013e+04 1.231e-08
 97.41208    124.8 2.016e+04 1.671e-08
 97.42015    124.3 2.032e+04 2.147e-08
 97.42516    125.2 1.995e+04 1.651e-08
 97.43209    124.8 2.017e+04 2.180e-08
 97.44074    124.6 2.061e+04 2.669e-08
 97.44575    125.3 2.061e+04 2.754e-08
 97.45210    124.8 2.102e+04 3.251e-08
 97.46211    124.4 2.151e+04 3.211e-08
 97.47211    124.3 2.158e+04 3.073e-08
 97.48212    124.2 2.172e+04 2.719e-08
 97.49076    124.2 2.197e+04 2.253e-08
 97.49576    125.1 2.199e+04 3.420e-08
 97.50213    124.7 2.250e+04 2.732e-08
 97.51214    124.2 2.277e+04 2.008e-08
 97.52098    122.4 2.216e+04 7.166e-09
 97.52598    125.1 2.279e+04 2.009e-08
 97.53215    124.4 2.302e+04 1.354e-08
 97.54082    123.6 2.268e+04 6.888e-09
 97.54582    124.4 2.344e+04 1.408e-08
 97.55216    123.4 2.406e+04 7.042e-09
 97.56216    122.9 2.310e+04 5.166e-09
 97.57217    121.5 2.239e+04 2.120e-09
 97.58723    121.6 2.102e+04 2.053e-09
 97.60729    118.7 1.501e+04 6.904e-10
 97.62730    116.6 1.122e+04 5.076e-10
 97.64089    116.9 1.080e+04 3.845e-10
 97.65089    117.7 1.110e+04 3.809e-10
 97.66732    117.2 9.504e+03 2.986e-10
 97.69744    119.7 1.025e+04 3.272e-10
 97.73110    122.3 9.954e+03 3.212e-10
 97.75111    123.9 1.010e+04 2.582e-10
 97.77758    127.1 9.737e+03 2.515e-10
 97.81760    129.9 9.727e+03 2.620e-10
 97.85763    133.2 9.968e+03 2.969e-10
 97.88755    134.9 1.012e+04 3.036e-10
 97.90746    136.3 1.017e+04 3.138e-10
 97.92413    137.6 1.024e+04 3.477e-10
 97.93414    137.8 1.017e+04 3.388e-10
 97.94095    139.1 1.027e+04 3.963e-10
 97.95096    140.4 1.007e+04 3.129e-10
 97.96749    141.7 1.017e+04 3.733e-10
 97.98750    143.1 1.038e+04 4.607e-10
 98.00752    144.6 1.062e+04 5.726e-10
 98.02753    146.1 1.088e+04 7.015e-10
 98.04098    147.7 1.111e+04 8.392e-10
 98.05098    149.0 1.098e+04 7.265e-10
 98.06755    150.7 1.125e+04 8.821e-10
 98.08756    152.5 1.154e+04 1.036e-09
 98.10757    154.3 1.178e+04 1.183e-09
 98.12568    156.1 1.206e+04 1.240e-09
 98.13569    156.4 1.196e+04 1.173e-09
 98.14100    158.0 1.201e+04 1.165e-09
 98.15100    159.9 1.234e+04 1.438e-09
 98.16761    161.9 1.258e+04 1.431e-09
 98.18762    163.7 1.260e+04 1.411e-09
 98.20763    165.1 1.261e+04 1.359e-09
 98.22764    165.9 1.256e+04 1.301e-09
 98.24102    166.5 1.267e+04 1.314e-09
 98.25103    170.6 1.439e+04 1.924e-09
 98.26766    171.5 1.511e+04 1.949e-09
 98.28262    170.3 1.578e+04 2.011e-09
 98.29093    169.3 1.558e+04 2.036e-09
 98.29594    172.4 1.567e+04 2.192e-09
 98.30259    170.7 1.992e+04 2.062e-09
 98.31259    163.6 4.033e+04 1.571e-09
 98.32260    153.3 5.960e+04 2.120e-09
 98.33214    142.5 5.149e+04 9.331e-09
 98.33714    130.1 3.215e+04 1.478e-07
 98.34095    121.9 2.580e+04 5.134e-07
 98.34595    120.4 2.433e+04 8.170e-07
 98.35262    111.7 2.339e+04 1.027e-06
 98.36262    101.3 2.452e+04 9.010e-07
 98.37263     89.6 2.776e+04 4.283e-07
 98.38263     76.8 3.171e+04 1.094e-07
 98.39096     66.0 2.822e+04 4.385e-08
 98.39596     63.1 2.715e+04 2.676e-08
 98.40264     59.7 2.389e+04 3.053e-08
 98.41265     59.3 2.424e+04 3.129e-08
 98.42266     58.8 2.416e+04 3.154e-08
 98.43266     58.0 2.379e+04 3.110e-08
 98.43792     57.0 2.325e+04 2.955e-08
 98.44122     57.4 2.283e+04 2.465e-08
 98.44597     56.8 2.278e+04 2.197e-08
 98.45267     56.0 2.244e+04 2.233e-08
 98.46268     55.2 2.222e+04 2.216e-08
 98.47268     54.4 2.200e+04 2.162e-08
 98.48269     53.5 2.167e+04 1.951e-08
 98.49098     53.0 2.135e+04 1.791e-08
 98.49598     52.8 2.165e+04 1.937e-08
 98.50270     51.9 2.138e+04 1.772e-08
 98.51271     51.0 2.107e+04 1.598e-08
 98.52271     49.3 2.138e+04 1.437e-08
 98.53272     47.8 2.164e+04 1.299e-08
 98.53870     44.6 2.221e+04 1.300e-08
 98.54196     47.1 2.192e+04 1.302e-08
 98.54599     47.3 2.372e+04 1.603e-08
 98.55273     44.0 2.511e+04 1.529e-08
 98.56274     40.3 2.614e+04 1.542e-08
 98.57274     36.6 2.626e+04 1.558e-08
 98.58275     33.0 2.643e+04 1.665e-08
 98.59100     29.6 2.633e+04 2.088e-08
 98.59600     25.1 2.880e+04 4.926e-08
 98.60276     23.2 2.781e+04 7.026e-08
 98.61276     22.3 2.712e+04 1.038e-07
 98.62277     21.7 2.646e+04 1.500e-07
 98.63278     21.6 2.565e+04 1.942e-07
 98.63947     21.9 2.495e+04 2.314e-07
 98.64271     22.5 2.328e+04 3.789e-07
 98.64602     20.2 2.276e+04 5.310e-07
 98.65279     20.9 2.255e+04 5.605e-07
 98.66279     21.7 2.235e+04 6.252e-07
 98.67280     22.0 2.230e+04 6.845e-07
 98.68280     21.6 2.243e+04 7.114e-07
 98.69102     20.3 2.266e+04 6.679e-07
 98.69603     17.3 2.415e+04 3.835e-07
 98.70282     16.5 2.489e+04 2.713e-07
 98.71282     16.5 2.548e+04 1.803e-07
 98.72283     17.1 2.597e+04 1.236e-07
 98.73283     17.8 2.648e+04 9.097e-08
 98.74025     18.6 2.703e+04 6.733e-08
 98.74345     19.0 3.188e+04 1.569e-08
 98.74604      9.9 2.583e+04 2.071e-09
 98.75284      7.8 2.080e+04 1.587e-09
 98.76285      6.2 1.737e+04 1.162e-09
 98.77286      4.7 1.628e+04 1.003e-09
 98.78286      1.9 1.976e+04 9.046e-10
 98.79105     -3.2 2.971e+04 1.222e-09
 98.79605      0.2 1.440e+04 6.267e-10
 98.80287     -2.0 1.996e+04 6.040e-10
 98.81288     -1.6 2.127e+04 7.926e-10
 98.82288     -1.0 2.008e+04 8.537e-10
 98.83289     -0.8 1.877e+04 7.815e-10
 98.84102     -1.4 1.762e+04 6.847e-10
 98.85108     -1.8 1.110e+04 3.475e-10
 98.86801     -2.3 1.126e+04 3.654e-10
 98.88802     -2.6 1.221e+04 4.477e-10
 98.90803     -2.3 1.323e+04 6.138e-10
 98.92299     -1.3 1.304e+04 7.386e-10
 98.93295     -1.0 1.316e+04 7.633e-10
 98.94108     -0.3 1.389e+04 1.018e-09
 98.94493     -0.5 1.248e+04 5.991e-10
 98.95185      1.3 1.170e+04 4.536e-10
 98.96806      1.4 1.279e+04 6.807e-10
 98.98808      1.9 1.388e+04 1.044e-09
 99.00809      3.1 1.479e+04 1.510e-09
 99.02305      3.7 1.579e+04 2.393e-09
 99.03300      4.3 1.626e+04 2.748e-09
 99.04110      5.4 1.688e+04 3.797e-09
 99.04567      5.3 1.717e+04 3.205e-09
 99.04758      6.8 1.557e+04 2.107e-09
 99.05302      7.2 1.582e+04 2.262e-09
 99.06302      8.3 1.669e+04 3.248e-09
 99.07303      8.8 1.694e+04 3.515e-09
 99.08808      9.4 1.829e+04 6.547e-09
 99.10814     11.5 1.886e+04 7.917e-09
 99.12816     13.4 1.919e+04 7.901e-09
 99.14122     14.9 1.902e+04 6.674e-09
 99.14651     15.2 1.985e+04 1.090e-08
 99.15346     16.9 1.748e+04 6.803e-09
 99.16818     18.6 1.778e+04 7.271e-09
 99.18819     20.0 1.791e+04 6.760e-09
 99.20820     21.1 1.758e+04 5.925e-09
 99.22821     22.1 1.703e+04 5.362e-09
 99.24124     23.0 1.665e+04 5.152e-09
 99.25125     23.7 1.742e+04 6.837e-09
 99.26824     24.3 1.698e+04 6.225e-09
 99.28825     25.2 1.666e+04 5.933e-09
 99.30826     26.1 1.640e+04 5.785e-09
 99.32827     27.3 1.613e+04 5.500e-09
 99.34127     28.8 1.578e+04 4.841e-09
 99.34799     28.7 1.575e+04 3.922e-09
 99.35501     29.7 1.724e+04 6.978e-09
 99.36829     31.1 1.684e+04 5.618e-09
 99.38830     32.3 1.632e+04 3.882e-09
 99.40832     33.1 1.556e+04 2.215e-09
 99.42833     33.0 1.441e+04 1.018e-09
 99.45844     30.6 1.103e+04 3.097e-10
 99.49856     31.0 9.788e+03 2.041e-10
 99.53150     32.3 9.267e+03 1.727e-10
 99.54967     31.8 9.080e+03 1.571e-10
 99.55676     33.2 1.076e+04 1.943e-10
 99.57861     34.5 9.266e+03 1.614e-10
 99.61863     36.7 9.022e+03 1.714e-10
 99.65865     39.1 9.018e+03 1.968e-10
 99.69868     41.6 9.131e+03 2.363e-10
 99.73154     43.9 9.357e+03 3.073e-10
 99.75156     44.1 9.512e+03 3.412e-10
 99.77872     46.3 9.873e+03 4.847e-10
 99.81875     48.5 1.030e+04 6.845e-10
 99.85877     50.6 1.055e+04 7.886e-10
 99.89879     52.4 1.055e+04 7.801e-10
 99.93159     54.1 1.047e+04 7.342e-10
 99.95160     54.2 1.096e+04 9.314e-10
 99.95986     56.0 1.078e+04 8.493e-10
 99.96977     55.7 1.089e+04 9.196e-10
 99.98865     56.6 1.081e+04 8.951e-10
100.00866     57.4 1.073e+04 8.761e-10
