# Columns:
#   distance along LOS (in CHIMPs)
#   peculiar velocity  (in km/s)
#   temperature (K)
#   HI number density
# pos=(132.497,94.3428,74.2955), angles=(1.85114,4.71851)
  0.00774    -66.7 1.044e+04 3.091e-10
  0.02077    -65.4 1.091e+04 5.147e-10
  0.04110    -64.6 1.111e+04 6.188e-10
  0.07065    -63.1 1.189e+04 1.056e-09
  0.09082    -64.0 1.216e+04 1.220e-09
  0.10669    -63.0 1.269e+04 1.635e-09
  0.12707    -62.5 1.302e+04 1.937e-09
  0.14740    -62.1 1.331e+04 2.224e-09
  0.16231    -61.7 1.353e+04 2.516e-09
  0.17257    -61.6 1.282e+04 1.619e-09
  0.19841    -60.8 1.294e+04 1.741e-09
  0.23906    -60.1 1.248e+04 1.453e-09
  0.27971    -59.3 1.157e+04 9.069e-10
  0.30423    -58.6 1.066e+04 5.380e-10
  0.32455    -57.7 1.048e+04 4.909e-10
  0.36101    -56.9 9.913e+03 3.532e-10
  0.40166    -56.1 9.537e+03 3.003e-10
  0.43579    -55.0 9.317e+03 2.844e-10
  0.45612    -54.4 9.439e+03 3.210e-10
  0.48296    -53.3 9.298e+03 3.111e-10
  0.52361    -52.3 9.133e+03 2.965e-10
  0.56426    -51.1 8.979e+03 2.802e-10
  0.58768    -49.8 8.862e+03 2.658e-10
  0.60801    -49.2 8.873e+03 2.791e-10
  0.64556    -47.8 8.669e+03 2.425e-10
  0.68621    -46.7 8.501e+03 2.145e-10
  0.71925    -45.6 8.430e+03 2.031e-10
  0.73958    -45.3 8.421e+03 2.042e-10
  0.76751    -44.5 8.452e+03 2.076e-10
  0.80816    -44.2 8.851e+03 2.774e-10
  0.84881    -43.9 9.461e+03 4.298e-10
  0.87104    -43.3 9.893e+03 5.993e-10
  0.88111    -42.9 9.875e+03 5.901e-10
  0.89943    -42.7 1.025e+04 7.338e-10
  0.91975    -42.4 1.065e+04 9.097e-10
  0.93673    -42.3 1.090e+04 1.022e-09
  0.94689    -42.0 1.072e+04 9.421e-10
  0.96040    -41.9 1.089e+04 1.016e-09
  0.98073    -41.9 1.099e+04 1.049e-09
  1.00105    -42.1 1.100e+04 1.047e-09
  1.01267    -42.6 1.092e+04 9.832e-10
  1.02293    -42.2 1.077e+04 8.953e-10
  1.05206    -43.9 1.083e+04 8.765e-10
  1.09271    -49.3 1.191e+04 1.015e-09
  1.12310    -54.7 1.310e+04 1.629e-09
  1.14333    -58.3 1.371e+04 2.512e-09
  1.15440    -61.2 1.398e+04 3.250e-09
  1.16456    -61.3 1.442e+04 3.598e-09
  1.18398    -65.0 1.484e+04 4.031e-09
  1.20430    -72.3 1.706e+04 4.049e-09
  1.22018    -86.3 2.626e+04 4.061e-09
  1.23035    -83.2 2.080e+04 4.358e-09
  1.23982    -98.7 3.075e+04 5.389e-09
  1.24994   -105.0 3.181e+04 9.064e-09
  1.25806   -111.0 2.914e+04 2.663e-08
  1.26314   -109.0 3.122e+04 1.451e-08
  1.27026   -113.3 2.774e+04 4.053e-08
  1.28042   -116.4 2.485e+04 7.981e-08
  1.29059   -117.9 2.306e+04 1.098e-07
  1.29603   -118.2 2.254e+04 1.186e-07
  1.30111   -117.7 2.297e+04 8.310e-08
  1.31091   -117.8 2.237e+04 8.970e-08
  1.32107   -117.5 2.144e+04 9.113e-08
  1.32892   -117.5 2.151e+04 7.963e-08
  1.33400   -117.6 2.194e+04 7.774e-08
  1.34140   -117.7 2.195e+04 7.321e-08
  1.35156   -118.2 2.208e+04 6.482e-08
  1.36173   -119.1 2.171e+04 5.394e-08
  1.36690   -119.7 2.121e+04 4.173e-08
  1.37198   -119.5 2.144e+04 4.924e-08
  1.38205   -119.7 2.092e+04 4.034e-08
  1.39221   -120.0 2.052e+04 3.304e-08
  1.39979   -120.3 2.009e+04 2.692e-08
  1.40487   -119.8 2.044e+04 3.275e-08
  1.41254   -119.9 1.983e+04 2.734e-08
  1.42270   -119.9 1.927e+04 2.288e-08
  1.43268   -119.8 1.878e+04 1.945e-08
  1.43776   -119.2 1.903e+04 2.171e-08
  1.44303   -119.0 1.863e+04 1.885e-08
  1.45319   -118.8 1.829e+04 1.666e-08
  1.46335   -118.6 1.798e+04 1.477e-08
  1.47065   -118.3 1.773e+04 1.309e-08
  1.47573   -117.8 1.806e+04 1.445e-08
  1.48368   -117.4 1.783e+04 1.298e-08
  1.49384   -117.0 1.767e+04 1.158e-08
  1.50354   -116.8 1.745e+04 1.004e-08
  1.50862   -116.2 1.782e+04 1.110e-08
  1.51416   -116.1 1.748e+04 9.513e-09
  1.52433   -116.3 1.689e+04 7.863e-09
  1.53449   -116.4 1.614e+04 6.443e-09
  1.54152   -116.3 1.553e+04 5.510e-09
  1.54660   -115.5 1.622e+04 6.011e-09
  1.55481   -115.5 1.586e+04 5.288e-09
  1.56937   -115.5 1.579e+04 4.825e-09
  1.57959   -113.8 1.687e+04 5.029e-09
  1.59048   -113.6 1.623e+04 4.035e-09
  1.61081   -113.4 1.465e+04 2.935e-09
  1.63113   -113.2 1.391e+04 2.441e-09
  1.64537   -112.9 1.347e+04 2.110e-09
  1.65553   -111.6 1.367e+04 1.718e-09
  1.67178   -111.1 1.327e+04 1.440e-09
  1.69211   -110.5 1.284e+04 1.203e-09
  1.71115   -109.9 1.240e+04 9.994e-10
  1.72131   -109.0 1.224e+04 8.262e-10
  1.73276   -108.6 1.181e+04 7.118e-10
  1.75308   -108.2 1.147e+04 6.337e-10
  1.77341   -107.9 1.130e+04 5.992e-10
  1.78710   -107.7 1.128e+04 5.922e-10
  1.79726   -106.8 1.106e+04 5.032e-10
  1.81406   -106.9 1.104e+04 5.070e-10
  1.83438   -107.2 1.112e+04 5.670e-10
  1.85288   -107.4 1.135e+04 6.705e-10
  1.86304   -106.7 1.111e+04 5.601e-10
  1.87503   -107.0 1.133e+04 6.673e-10
  1.89536   -107.2 1.150e+04 7.861e-10
  1.91568   -107.4 1.161e+04 8.945e-10
  1.92882   -107.4 1.165e+04 9.665e-10
  1.93899   -106.9 1.139e+04 8.678e-10
  1.95633   -106.9 1.145e+04 9.052e-10
  1.97666   -106.8 1.145e+04 9.113e-10
  1.99461   -106.6 1.142e+04 8.820e-10
  2.00477   -106.3 1.150e+04 8.657e-10
  2.01731   -106.0 1.145e+04 8.439e-10
  2.03763   -105.6 1.143e+04 8.116e-10
  2.05796   -105.2 1.140e+04 7.840e-10
  2.07055   -104.8 1.138e+04 7.633e-10
  2.08072   -104.4 1.144e+04 8.199e-10
  2.09861   -103.9 1.138e+04 7.869e-10
  2.11893   -103.5 1.129e+04 7.458e-10
  2.13634   -103.1 1.118e+04 7.007e-10
  2.14650   -102.6 1.111e+04 6.743e-10
  2.15958   -102.1 1.096e+04 6.026e-10
  2.17991   -101.7 1.081e+04 5.469e-10
  2.20023   -101.2 1.067e+04 5.065e-10
  2.21228   -100.7 1.052e+04 4.702e-10
  2.22244   -100.2 1.041e+04 4.123e-10
  2.24088    -99.5 1.033e+04 3.939e-10
  2.26800    -98.8 1.031e+04 3.835e-10
  2.28842    -98.2 1.028e+04 3.555e-10
  2.31222    -96.9 1.024e+04 3.545e-10
  2.35287    -95.6 1.017e+04 3.359e-10
  2.39352    -94.4 1.009e+04 3.053e-10
  2.41999    -93.1 1.000e+04 2.820e-10
  2.44031    -92.1 1.004e+04 3.021e-10
  2.47482    -90.9 1.000e+04 2.956e-10
  2.51547    -89.7 1.001e+04 2.993e-10
  2.55155    -88.5 1.016e+04 3.413e-10
  2.57188    -87.7 1.004e+04 3.286e-10
  2.58651    -87.3 1.023e+04 3.937e-10
  2.60673    -86.8 1.033e+04 4.364e-10
  2.62706    -86.4 1.048e+04 4.859e-10
  2.63746    -86.0 1.066e+04 5.398e-10
  2.64763    -85.5 1.066e+04 5.239e-10
  2.66771    -85.1 1.088e+04 5.830e-10
  2.68804    -84.7 1.106e+04 6.401e-10
  2.70325    -84.3 1.117e+04 6.848e-10
  2.71341    -83.9 1.116e+04 6.505e-10
  2.72869    -83.5 1.117e+04 6.601e-10
  2.74901    -83.0 1.113e+04 6.585e-10
  2.76903    -82.3 1.098e+04 6.276e-10
  2.77919    -82.1 1.092e+04 5.693e-10
  2.78966    -81.4 1.078e+04 5.282e-10
  2.80999    -80.7 1.067e+04 4.955e-10
  2.83031    -80.0 1.061e+04 4.793e-10
  2.84498    -79.3 1.060e+04 4.764e-10
  2.85514    -79.1 1.054e+04 4.263e-10
  2.87096    -78.4 1.055e+04 4.265e-10
  2.89129    -77.9 1.069e+04 4.374e-10
  2.91076    -77.4 1.087e+04 4.824e-10
  2.92092    -77.2 1.075e+04 4.072e-10
  2.93194    -76.8 1.094e+04 4.613e-10
  2.95226    -76.7 1.119e+04 5.486e-10
  2.97259    -76.7 1.150e+04 6.847e-10
  2.98670    -76.7 1.187e+04 8.778e-10
  2.99687    -76.3 1.157e+04 6.366e-10
  3.01324    -76.3 1.188e+04 7.999e-10
  3.03356    -76.3 1.217e+04 1.004e-09
  3.05249    -76.2 1.242e+04 1.236e-09
  3.06265    -75.8 1.199e+04 8.736e-10
  3.07421    -75.6 1.213e+04 1.045e-09
  3.09454    -75.2 1.224e+04 1.225e-09
  3.11486    -74.9 1.233e+04 1.380e-09
  3.12843    -74.4 1.240e+04 1.498e-09
  3.13859    -73.8 1.205e+04 1.223e-09
  3.15551    -73.4 1.214e+04 1.348e-09
  3.17584    -73.0 1.224e+04 1.443e-09
  3.19421    -72.7 1.233e+04 1.516e-09
  3.20438    -71.9 1.216e+04 1.385e-09
  3.21649    -71.5 1.229e+04 1.499e-09
  3.23681    -71.2 1.237e+04 1.588e-09
  3.25714    -70.8 1.244e+04 1.650e-09
  3.27016    -70.5 1.245e+04 1.670e-09
  3.28032    -69.8 1.264e+04 1.831e-09
  3.29779    -69.7 1.272e+04 1.910e-09
  3.31811    -69.6 1.278e+04 1.957e-09
  3.33594    -69.7 1.282e+04 1.989e-09
  3.34610    -69.2 1.321e+04 2.362e-09
  3.35876    -69.7 1.323e+04 2.398e-09
  3.37909    -70.3 1.323e+04 2.409e-09
  3.39871    -70.8 1.319e+04 2.416e-09
  3.40887    -70.0 1.320e+04 2.408e-09
  3.41189    -70.6 1.322e+04 2.441e-09
  3.42205    -70.4 1.347e+04 2.751e-09
  3.44006    -70.9 1.336e+04 2.678e-09
  3.46039    -71.3 1.316e+04 2.501e-09
  3.47767    -71.7 1.287e+04 2.219e-09
  3.48783    -71.5 1.284e+04 2.207e-09
  3.50104    -71.9 1.240e+04 1.818e-09
  3.52136    -72.2 1.193e+04 1.488e-09
  3.54169    -72.6 1.149e+04 1.228e-09
  3.55362    -72.9 1.112e+04 1.028e-09
  3.56378    -72.8 1.105e+04 9.987e-10
  3.58234    -72.9 1.083e+04 8.577e-10
  3.60266    -72.9 1.062e+04 7.328e-10
  3.61940    -72.8 1.041e+04 6.209e-10
  3.62956    -72.8 1.059e+04 6.794e-10
  3.64331    -72.7 1.042e+04 5.967e-10
  3.66364    -72.4 1.024e+04 5.239e-10
  3.68396    -72.0 1.004e+04 4.614e-10
  3.69534    -71.4 9.867e+03 4.153e-10
  3.70551    -71.6 1.016e+04 5.222e-10
  3.72461    -71.0 9.979e+03 4.735e-10
  3.74494    -70.1 9.829e+03 4.336e-10
  3.76113    -69.3 9.729e+03 4.051e-10
  3.77129    -69.3 9.910e+03 4.946e-10
  3.78559    -68.4 9.763e+03 4.479e-10
  3.80592    -67.5 9.652e+03 4.114e-10
  3.82624    -66.6 9.591e+03 3.881e-10
  3.83717    -65.5 9.581e+03 3.637e-10
  3.84733    -65.5 9.605e+03 4.049e-10
  3.86689    -64.9 9.556e+03 3.880e-10
  3.88722    -63.9 9.539e+03 3.712e-10
  3.90285    -63.4 9.506e+03 3.615e-10
  3.91302    -63.3 9.523e+03 3.764e-10
  3.92787    -62.4 9.515e+03 3.645e-10
  3.94819    -61.7 9.521e+03 3.592e-10
  3.96852    -60.8 9.534e+03 3.573e-10
  3.97880    -60.2 9.622e+03 3.599e-10
  3.98896    -60.3 9.640e+03 3.801e-10
  4.00917    -59.7 9.785e+03 3.976e-10
  4.02949    -59.4 9.982e+03 4.344e-10
  4.04458    -59.3 1.025e+04 5.101e-10
  4.05474    -59.9 1.038e+04 5.934e-10
  4.07014    -60.1 1.078e+04 7.814e-10
  4.09047    -60.5 1.132e+04 1.119e-09
  4.11037    -60.7 1.203e+04 1.690e-09
  4.12053    -60.9 1.219e+04 1.911e-09
  4.13112    -60.6 1.287e+04 2.643e-09
  4.15144    -60.2 1.350e+04 3.382e-09
  4.17177    -59.9 1.397e+04 3.914e-09
  4.18631    -59.7 1.414e+04 4.077e-09
  4.19647    -60.0 1.370e+04 3.155e-09
  4.21242    -60.2 1.362e+04 2.763e-09
  4.23274    -60.6 1.326e+04 2.231e-09
  4.25209    -61.1 1.269e+04 1.765e-09
  4.26226    -62.1 1.185e+04 1.232e-09
  4.27339    -62.3 1.147e+04 1.054e-09
  4.29372    -62.0 1.128e+04 9.557e-10
  4.31404    -61.5 1.127e+04 9.177e-10
  4.32804    -61.0 1.130e+04 9.107e-10
  4.33820    -61.7 1.081e+04 6.816e-10
  4.35469    -61.7 1.085e+04 6.785e-10
  4.37502    -63.2 1.159e+04 7.450e-10
  4.39382    -66.7 1.432e+04 1.497e-09
  4.40398    -67.2 1.342e+04 8.693e-10
  4.41567    -70.1 1.517e+04 2.061e-09
  4.43599    -71.4 1.602e+04 4.251e-09
  4.45632    -71.9 1.649e+04 6.775e-09
  4.46977    -72.4 1.671e+04 8.284e-09
  4.47993    -72.8 1.608e+04 7.587e-09
  4.49697    -73.1 1.617e+04 7.890e-09
  4.51729    -73.2 1.586e+04 7.201e-09
  4.53555    -73.2 1.503e+04 5.120e-09
  4.54571    -73.0 1.482e+04 4.949e-09
  4.55794    -72.9 1.385e+04 3.269e-09
  4.57827    -72.9 1.303e+04 2.229e-09
  4.59859    -72.9 1.241e+04 1.637e-09
  4.62918    -72.5 1.190e+04 1.251e-09
  4.66731    -69.9 1.144e+04 9.743e-10
  4.68764    -69.1 1.114e+04 9.206e-10
  4.71058    -66.3 1.094e+04 7.618e-10
  4.75123    -63.5 1.077e+04 6.487e-10
  4.79188    -60.6 1.069e+04 5.888e-10
  4.81920    -57.7 1.069e+04 5.717e-10
  4.83953    -56.8 1.060e+04 5.553e-10
  4.87318    -54.0 1.071e+04 5.623e-10
  4.91383    -51.4 1.104e+04 6.313e-10
  4.95077    -49.0 1.155e+04 8.231e-10
  4.97109    -48.2 1.131e+04 7.375e-10
  4.99513    -46.0 1.201e+04 1.023e-09
  5.02552    -45.0 1.258e+04 1.270e-09
  5.03668    -44.1 1.293e+04 1.569e-09
  5.04684    -43.4 1.259e+04 1.253e-09
  5.06607    -42.8 1.261e+04 1.315e-09
  5.08640    -42.0 1.280e+04 1.567e-09
  5.10246    -41.2 1.284e+04 1.740e-09
  5.12288    -39.9 1.218e+04 1.055e-09
  5.15773    -38.6 1.200e+04 1.066e-09
  5.19838    -37.3 1.160e+04 9.643e-10
  5.23422    -35.6 1.121e+04 7.897e-10
  5.25455    -34.1 1.054e+04 4.187e-10
  5.27968    -31.9 1.043e+04 3.681e-10
  5.32033    -29.7 1.055e+04 3.111e-10
  5.36098    -27.7 1.077e+04 2.703e-10
  5.38611    -25.9 1.086e+04 2.537e-10
  5.40644    -24.5 1.088e+04 1.932e-10
  5.44228    -22.9 1.104e+04 2.309e-10
  5.48293    -21.2 1.091e+04 3.562e-10
  5.51768    -19.2 1.102e+04 5.661e-10
  5.53800    -17.6 1.143e+04 7.209e-10
  5.55397    -16.3 1.155e+04 9.568e-10
  5.57420    -16.3 1.159e+04 1.004e-09
  5.59343    -15.5 1.182e+04 1.181e-09
  5.60359    -15.0 1.214e+04 1.455e-09
  5.61485    -14.0 1.224e+04 1.562e-09
  5.63517    -12.8 1.229e+04 1.596e-09
  5.65550    -11.6 1.234e+04 1.505e-09
  5.66937    -10.5 1.245e+04 1.270e-09
  5.67954     -9.9 1.269e+04 1.398e-09
  5.69615     -9.5 1.271e+04 1.069e-09
  5.71647     -9.6 1.256e+04 8.327e-10
  5.73516     -9.8 1.224e+04 6.708e-10
  5.74532     -9.6 1.222e+04 6.816e-10
  5.75712     -9.8 1.165e+04 5.483e-10
  5.77745     -9.8 1.104e+04 4.447e-10
  5.79777     -9.6 1.062e+04 3.769e-10
  5.81110     -9.1 1.034e+04 3.306e-10
  5.82126     -8.4 1.040e+04 3.482e-10
  5.83842     -7.9 1.025e+04 3.056e-10
  5.85875     -7.4 1.024e+04 2.780e-10
  5.87688     -7.2 1.029e+04 2.705e-10
  5.88705     -6.7 1.050e+04 2.841e-10
  5.89940     -6.8 1.101e+04 2.908e-10
  5.91972     -7.6 1.198e+04 3.576e-10
  5.94005     -8.3 1.260e+04 5.091e-10
  5.95283     -8.5 1.267e+04 7.788e-10
  5.96299     -7.8 1.265e+04 7.971e-10
  5.98070     -7.5 1.252e+04 1.193e-09
  6.00103     -6.7 1.256e+04 1.700e-09
  6.01861     -6.1 1.302e+04 2.296e-09
  6.02877     -5.0 1.296e+04 2.301e-09
  6.04168     -4.7 1.373e+04 2.922e-09
  6.06200     -5.4 1.488e+04 3.836e-09
  6.08233     -6.7 1.597e+04 5.403e-09
  6.09456     -7.7 1.667e+04 7.691e-09
  6.10472     -6.1 1.596e+04 5.206e-09
  6.12298     -6.9 1.619e+04 6.419e-09
  6.14330     -7.2 1.626e+04 7.411e-09
  6.16034     -7.5 1.628e+04 7.777e-09
  6.17050     -6.5 1.543e+04 4.999e-09
  6.18395     -6.8 1.531e+04 5.031e-09
  6.20428     -7.1 1.487e+04 4.421e-09
  6.22460     -7.4 1.431e+04 3.561e-09
  6.23629     -7.5 1.371e+04 2.719e-09
  6.24645     -6.4 1.353e+04 2.280e-09
  6.26525     -6.7 1.297e+04 1.752e-09
  6.28558     -7.3 1.225e+04 1.351e-09
  6.30207     -6.9 1.205e+04 1.275e-09
  6.31223     -5.7 1.199e+04 1.211e-09
  6.33649     -5.6 1.121e+04 9.188e-10
  6.36805     -4.5 1.044e+04 6.253e-10
  6.38837     -2.6 1.060e+04 6.447e-10
  6.41789     -1.8 1.020e+04 4.773e-10
  6.45854     -1.2 1.009e+04 4.267e-10
  6.49919     -1.0 1.000e+04 4.229e-10
  6.51994     -0.3 9.901e+03 4.421e-10
  6.53000      0.2 9.890e+03 4.580e-10
  6.54980      0.5 9.885e+03 4.577e-10
  6.58039      1.9 9.936e+03 4.647e-10
  6.62114      2.4 9.858e+03 4.042e-10
  6.65150      2.4 9.716e+03 3.596e-10
  6.67183      3.6 9.874e+03 3.880e-10
  6.70244      3.4 9.829e+03 3.847e-10
  6.72715      3.3 9.936e+03 4.400e-10
  6.74748      1.9 9.978e+03 4.652e-10
  6.77348      2.1 9.995e+03 5.227e-10
  6.79304      1.7 1.027e+04 5.614e-10
  6.80320      2.0 1.042e+04 6.089e-10
  6.81403      1.4 1.066e+04 6.659e-10
  6.83435      0.6 1.081e+04 7.283e-10
  6.85468     -0.1 1.087e+04 7.859e-10
  6.86898     -0.5 1.089e+04 8.344e-10
  6.87914     -0.3 1.101e+04 9.351e-10
  6.89533     -0.5 1.099e+04 9.625e-10
  6.91565     -0.6 1.099e+04 9.729e-10
  6.93476     -0.6 1.100e+04 9.616e-10
  6.94493     -0.2 1.107e+04 9.955e-10
  6.95630     -0.3 1.109e+04 9.414e-10
  6.97663     -0.7 1.113e+04 9.312e-10
  6.99695     -4.0 1.197e+04 1.037e-09
  7.01071    -11.7 1.513e+04 2.390e-09
  7.02087    -14.6 1.663e+04 3.504e-09
  7.03247    -17.8 1.783e+04 7.386e-09
  7.04259    -18.9 1.843e+04 8.837e-09
  7.04858    -21.4 1.990e+04 1.717e-08
  7.05366    -23.0 2.065e+04 2.371e-08
  7.06291    -24.0 2.140e+04 3.560e-08
  7.07308    -24.6 2.191e+04 4.238e-08
  7.08147    -25.7 2.207e+04 4.296e-08
  7.08656    -26.5 2.230e+04 5.055e-08
  7.09340    -28.1 2.264e+04 2.766e-08
  7.10356    -33.0 2.213e+04 1.096e-08
  7.11886    -41.9 1.823e+04 3.511e-09
  7.13923    -50.1 1.373e+04 1.486e-09
  7.15244    -57.1 1.099e+04 7.201e-10
  7.16260    -61.4 1.185e+04 6.561e-10
  7.17988    -63.9 1.236e+04 6.168e-10
  7.20021    -66.1 1.470e+04 7.959e-10
  7.21822    -68.1 1.648e+04 1.382e-09
  7.22838    -71.5 1.798e+04 2.889e-09
  7.24086    -72.3 1.802e+04 4.655e-09
  7.26118    -72.9 1.834e+04 6.884e-09
  7.28151    -73.8 1.899e+04 9.575e-09
  7.29416    -75.0 1.986e+04 1.245e-08
  7.30433    -77.8 2.134e+04 1.543e-08
  7.31703    -76.9 2.055e+04 1.504e-08
  7.32696    -77.4 2.082e+04 1.609e-08
  7.33204    -79.0 2.181e+04 1.772e-08
  7.33730    -79.8 2.256e+04 1.986e-08
  7.34747    -81.0 2.354e+04 2.296e-08
  7.35763    -82.2 2.448e+04 2.713e-08
  7.36493    -83.4 2.510e+04 3.107e-08
  7.37001    -86.6 2.636e+04 4.165e-08
  7.37795    -87.5 2.611e+04 4.403e-08
  7.38812    -88.2 2.558e+04 4.213e-08
  7.39782    -88.9 2.535e+04 3.760e-08
  7.40290    -91.7 2.405e+04 3.563e-08
  7.40844    -92.5 2.333e+04 3.047e-08
  7.41860    -93.3 2.247e+04 2.648e-08
  7.42877    -94.3 2.159e+04 2.321e-08
  7.43579    -95.2 2.069e+04 2.067e-08
  7.44088    -97.6 1.993e+04 1.798e-08
  7.44909    -98.2 1.980e+04 1.652e-08
  7.45925    -98.6 2.001e+04 1.564e-08
  7.46869    -99.0 2.030e+04 1.531e-08
  7.47377   -100.6 2.058e+04 1.316e-08
  7.47958   -100.6 2.089e+04 1.336e-08
  7.48974   -100.6 2.118e+04 1.407e-08
  7.50163   -100.6 2.182e+04 1.546e-08
  7.51184   -103.3 2.151e+04 1.184e-08
  7.52541   -103.6 2.132e+04 1.296e-08
  7.54573   -103.8 2.089e+04 1.445e-08
  7.56606   -104.1 2.068e+04 1.741e-08
  7.57757   -104.0 2.032e+04 1.729e-08
  7.58773   -104.6 1.979e+04 9.624e-09
  7.60671   -104.2 2.043e+04 1.206e-08
  7.62703   -103.6 2.091e+04 1.557e-08
  7.64340   -102.9 2.119e+04 1.923e-08
  7.65357   -104.9 2.336e+04 6.620e-09
  7.66768   -103.8 2.361e+04 8.499e-09
  7.68801   -102.8 2.365e+04 1.021e-08
  7.70833   -101.4 2.379e+04 1.195e-08
  7.71935    -99.9 2.397e+04 1.429e-08
  7.72951   -102.7 2.568e+04 4.512e-09
  7.74898   -101.1 2.622e+04 5.089e-09
  7.76931    -99.8 2.674e+04 5.328e-09
  7.78513    -98.5 2.706e+04 5.370e-09
  7.79529   -102.1 2.183e+04 1.540e-09
  7.80996   -101.0 2.177e+04 1.478e-09
  7.83028   -100.2 2.087e+04 1.453e-09
  7.85061    -99.6 1.943e+04 1.421e-09
  7.86108    -99.1 1.800e+04 1.376e-09
  7.87124   -101.6 1.168e+04 1.059e-09
  7.89126   -101.0 1.154e+04 1.049e-09
  7.91158   -100.4 1.136e+04 1.022e-09
  7.92686   -100.0 1.117e+04 9.659e-10
  7.93702   -100.2 1.112e+04 9.886e-10
  7.95223    -99.9 1.095e+04 9.357e-10
  7.97256    -99.6 1.076e+04 8.805e-10
  7.99264    -99.3 1.057e+04 8.227e-10
  8.00280    -99.2 1.094e+04 9.949e-10
  8.01321    -98.7 1.080e+04 9.515e-10
  8.03353    -98.2 1.066e+04 9.100e-10
  8.05386    -97.6 1.054e+04 8.756e-10
  8.06859    -97.0 1.048e+04 8.600e-10
  8.07875    -96.9 1.077e+04 1.013e-09
  8.09451    -96.5 1.075e+04 1.007e-09
  8.11483    -96.4 1.077e+04 1.010e-09
  8.13437    -97.2 1.120e+04 1.154e-09
  8.14453    -98.1 1.175e+04 1.397e-09
  8.15549    -99.6 1.294e+04 2.220e-09
  8.17581   -100.0 1.400e+04 3.614e-09
  8.19614   -100.1 1.477e+04 5.178e-09
  8.21032   -100.3 1.506e+04 5.964e-09
  8.22048   -100.4 1.506e+04 6.033e-09
  8.23679   -100.9 1.502e+04 6.065e-09
  8.25711   -100.9 1.441e+04 5.067e-09
  8.27610   -100.8 1.347e+04 3.464e-09
  8.28626   -101.1 1.317e+04 3.108e-09
  8.29776   -101.9 1.223e+04 2.124e-09
  8.31809   -102.7 1.142e+04 1.526e-09
  8.33841   -103.3 1.084e+04 1.215e-09
  8.35204   -103.6 1.053e+04 1.052e-09
  8.36221   -103.9 1.073e+04 1.162e-09
  8.37906   -103.9 1.069e+04 1.141e-09
  8.39939   -103.7 1.071e+04 1.145e-09
  8.41783   -103.5 1.086e+04 1.205e-09
  8.42799   -104.1 1.134e+04 1.506e-09
  8.44004   -104.0 1.156e+04 1.643e-09
  8.46036   -103.9 1.174e+04 1.742e-09
  8.48069   -103.7 1.185e+04 1.792e-09
  8.49377   -103.5 1.189e+04 1.805e-09
  8.50393   -104.2 1.237e+04 2.283e-09
  8.52134   -103.9 1.237e+04 2.267e-09
  8.54166   -103.5 1.225e+04 2.104e-09
  8.55955   -103.0 1.205e+04 1.869e-09
  8.56972   -104.1 1.240e+04 2.115e-09
  8.58231   -103.9 1.215e+04 1.797e-09
  8.60264   -103.9 1.188e+04 1.509e-09
  8.62296   -103.8 1.162e+04 1.294e-09
  8.63550   -103.6 1.141e+04 1.165e-09
  8.64566   -105.2 1.154e+04 1.365e-09
  8.66361   -104.8 1.135e+04 1.294e-09
  8.68394   -104.1 1.121e+04 1.252e-09
  8.70128   -103.3 1.112e+04 1.217e-09
  8.71144   -104.0 1.112e+04 1.233e-09
  8.72459   -103.1 1.098e+04 1.138e-09
  8.74491   -102.2 1.084e+04 1.033e-09
  8.76524   -101.3 1.067e+04 9.116e-10
  8.77723   -100.5 1.050e+04 7.891e-10
  8.78739   -101.2 1.035e+04 5.977e-10
  8.80589   -100.6 1.025e+04 4.799e-10
  8.82621   -100.1 1.018e+04 3.991e-10
  8.85680    -99.5 1.010e+04 3.379e-10
  8.89755    -98.1 1.001e+04 2.953e-10
  8.91915    -96.6 9.912e+03 2.517e-10
  8.93948    -97.0 9.794e+03 2.072e-10
  8.97885    -95.1 9.793e+03 1.782e-10
  9.01950    -93.1 9.859e+03 1.546e-10
  9.05072    -91.1 9.933e+03 1.350e-10
  9.07104    -90.6 9.920e+03 1.225e-10
  9.10080    -88.6 9.944e+03 1.093e-10
  9.14145    -86.7 9.930e+03 9.807e-11
  9.18210    -84.7 9.906e+03 8.835e-11
  9.22275    -82.2 9.889e+03 8.237e-11
  9.26340    -80.2 9.878e+03 7.742e-11
  9.30405    -78.2 9.864e+03 7.622e-11
  9.33417    -76.3 9.865e+03 7.632e-11
  9.35450    -75.7 9.861e+03 7.813e-11
  9.38535    -73.8 9.868e+03 7.873e-11
  9.42600    -72.0 9.883e+03 8.102e-11
  9.46574    -70.2 9.913e+03 8.327e-11
  9.48606    -69.5 9.934e+03 8.533e-11
  9.50730    -67.6 9.928e+03 8.592e-11
  9.54795    -65.8 9.923e+03 8.567e-11
  9.58860    -63.8 9.918e+03 8.458e-11
  9.61763    -61.8 9.928e+03 8.087e-11
  9.63795    -60.9 9.937e+03 8.165e-11
  9.66990    -58.8 9.958e+03 7.587e-11
  9.71055    -56.6 9.991e+03 6.953e-11
  9.74919    -54.5 1.003e+04 6.555e-11
  9.76952    -53.5 1.008e+04 7.040e-11
  9.79185    -51.4 1.011e+04 6.927e-11
  9.83250    -49.6 1.025e+04 7.039e-11
  9.87315    -47.8 1.037e+04 8.497e-11
  9.90108    -46.0 1.038e+04 1.135e-10
  9.92141    -45.1 1.044e+04 1.258e-10
  9.95445    -43.2 1.047e+04 1.606e-10
  9.99510    -41.2 1.056e+04 1.931e-10
 10.03265    -39.4 1.069e+04 2.120e-10
 10.05298    -38.7 1.070e+04 2.155e-10
 10.07640    -37.0 1.079e+04 2.159e-10
 10.11705    -35.3 1.087e+04 2.133e-10
 10.15770    -33.6 1.092e+04 2.173e-10
 10.18454    -31.8 1.096e+04 2.256e-10
 10.20487    -31.1 1.082e+04 1.787e-10
 10.23900    -29.3 1.083e+04 1.806e-10
 10.27965    -28.0 1.090e+04 2.031e-10
 10.31611    -27.8 1.111e+04 3.416e-10
 10.33643    -27.3 1.111e+04 3.191e-10
 10.36095    -27.1 1.162e+04 7.451e-10
 10.40160    -26.2 1.243e+04 1.490e-09
 10.44225    -25.3 1.294e+04 2.250e-09
 10.46800    -24.8 1.291e+04 2.250e-09
 10.48832    -24.1 1.251e+04 1.862e-09
 10.51329    -24.0 1.196e+04 1.395e-09
 10.53352    -23.6 1.165e+04 1.107e-09
 10.56411    -23.5 1.067e+04 6.123e-10
 10.59956    -23.0 1.006e+04 4.515e-10
 10.61979    -21.9 1.014e+04 4.332e-10
 10.64541    -20.7 9.987e+03 4.311e-10
 10.68615    -18.8 9.957e+03 4.939e-10
 10.71654    -16.9 9.933e+03 5.419e-10
 10.73677    -16.8 9.915e+03 5.400e-10
 10.75126    -15.4 1.005e+04 5.801e-10
 10.76142    -14.8 1.009e+04 5.877e-10
 10.77742    -14.6 1.013e+04 6.079e-10
 10.79775    -13.7 1.022e+04 6.682e-10
 10.81704    -13.1 1.022e+04 6.906e-10
 10.82720    -12.6 1.028e+04 6.963e-10
 10.83840    -11.7 1.027e+04 7.159e-10
 10.85872    -10.9 1.021e+04 6.541e-10
 10.88292    -10.5 1.002e+04 5.422e-10
 10.90334     -9.7 1.026e+04 6.342e-10
 10.93006     -8.6 1.004e+04 5.584e-10
 10.97071     -7.4 1.003e+04 5.543e-10
 11.01136     -6.9 1.023e+04 6.007e-10
 11.03491     -6.8 1.073e+04 8.197e-10
 11.05523     -5.9 1.064e+04 7.412e-10
 11.09266     -6.0 1.118e+04 1.071e-09
 11.13331     -5.5 1.160e+04 1.559e-09
 11.16647     -4.7 1.170e+04 1.709e-09
 11.18680     -3.9 1.146e+04 1.454e-09
 11.21461     -3.0 1.100e+04 1.169e-09
 11.25526     -1.8 1.013e+04 7.084e-10
 11.29591     -0.9 9.226e+03 3.974e-10
 11.31836      0.2 8.694e+03 2.823e-10
 11.33869      1.2 8.749e+03 2.781e-10
 11.37721      3.2 8.552e+03 2.490e-10
 11.41786      5.5 8.486e+03 2.418e-10
 11.44993      7.8 8.489e+03 2.480e-10
 11.47026      8.8 8.494e+03 2.328e-10
 11.49916     10.9 8.557e+03 2.412e-10
 11.53981     12.8 8.746e+03 2.694e-10
 11.58046     14.3 8.987e+03 3.268e-10
 11.60182     16.5 9.173e+03 4.279e-10
 11.62215     17.3 9.048e+03 3.632e-10
 11.66176     19.8 9.088e+03 4.132e-10
 11.70241     22.2 9.034e+03 3.454e-10
 11.73339     23.7 8.877e+03 2.445e-10
 11.75371     24.5 8.805e+03 2.290e-10
 11.78371     26.1 8.740e+03 2.175e-10
 11.82436     27.5 8.851e+03 2.445e-10
 11.86495     29.4 9.043e+03 3.001e-10
 11.90560     32.3 9.231e+03 3.276e-10
 11.94631     34.1 9.383e+03 3.628e-10
 11.98696     36.0 9.288e+03 3.430e-10
 12.01684     38.3 9.004e+03 2.732e-10
 12.03717     39.5 9.015e+03 2.752e-10
 12.06826     41.7 8.724e+03 1.949e-10
 12.10891     43.4 8.526e+03 1.392e-10
 12.14841     45.1 8.335e+03 1.171e-10
 12.16873     46.2 8.445e+03 1.293e-10
 12.19021     48.2 8.381e+03 1.300e-10
 12.23086     50.5 8.330e+03 1.305e-10
 12.27151     52.8 8.312e+03 1.304e-10
 12.30030     55.1 8.280e+03 1.244e-10
 12.32062     56.1 8.468e+03 1.550e-10
 12.35281     58.4 8.390e+03 1.402e-10
 12.39346     60.8 8.305e+03 1.180e-10
 12.43186     63.0 8.248e+03 9.798e-11
 12.45219     63.9 8.408e+03 1.181e-10
 12.47476     66.0 8.358e+03 1.019e-10
 12.51541     68.2 8.322e+03 9.909e-11
 12.55606     70.5 8.328e+03 1.000e-10
 12.58375     72.8 8.369e+03 1.041e-10
 12.60408     73.6 8.506e+03 1.204e-10
 12.63736     75.8 8.591e+03 1.337e-10
 12.67801     78.1 8.699e+03 1.542e-10
 12.71532     80.3 8.826e+03 1.824e-10
 12.73565     81.0 8.971e+03 2.046e-10
 12.75931     83.2 9.154e+03 2.455e-10
 12.79996     85.3 9.354e+03 2.949e-10
 12.84061     87.3 9.556e+03 3.294e-10
 12.86721     89.1 9.688e+03 3.369e-10
 12.88754     89.3 9.994e+03 4.313e-10
 12.92191     90.8 1.013e+04 4.233e-10
 12.96257     92.1 1.021e+04 3.712e-10
 12.99878     93.1 1.015e+04 3.194e-10
 13.01910     93.1 1.067e+04 4.931e-10
 13.04387     94.3 1.057e+04 4.463e-10
 13.08452     95.5 1.049e+04 4.229e-10
 13.12517     96.9 1.050e+04 4.315e-10
 13.15067     98.5 1.062e+04 4.704e-10
 13.17099     98.9 1.107e+04 6.333e-10
 13.20647    100.4 1.144e+04 7.898e-10
 13.24712    101.9 1.196e+04 1.077e-09
 13.28223    103.6 1.243e+04 1.444e-09
 13.30256    103.8 1.305e+04 1.917e-09
 13.32842    105.3 1.320e+04 1.974e-09
 13.36333    106.7 1.315e+04 1.893e-09
 13.38365    105.1 1.302e+04 1.751e-09
 13.40972    106.9 1.272e+04 1.325e-09
 13.43412    108.9 1.235e+04 9.005e-10
 13.45445    109.2 1.223e+04 6.733e-10
 13.49102    111.3 1.190e+04 4.483e-10
 13.53167    113.5 1.164e+04 3.169e-10
 13.56569    115.9 1.144e+04 2.383e-10
 13.58601    116.4 1.144e+04 2.478e-10
 13.61297    118.9 1.131e+04 2.163e-10
 13.65362    121.6 1.120e+04 2.055e-10
 13.69427    124.5 1.119e+04 2.085e-10
 13.71758    127.3 1.121e+04 2.170e-10
 13.73790    128.0 1.137e+04 2.736e-10
 13.77557    130.7 1.163e+04 3.229e-10
 13.81622    133.2 1.201e+04 4.155e-10
 13.84914    134.9 1.217e+04 5.026e-10
 13.86937    136.0 1.225e+04 6.145e-10
 13.88716    137.0 1.235e+04 8.055e-10
 13.90749    138.2 1.248e+04 1.042e-09
 13.92489    139.4 1.263e+04 1.300e-09
 13.93506    139.8 1.271e+04 1.459e-09
 13.94814    141.0 1.294e+04 1.724e-09
 13.96846    142.1 1.306e+04 1.998e-09
 13.98879    143.3 1.294e+04 2.194e-09
 14.00084    144.4 1.298e+04 2.031e-09
 14.01100    144.9 1.300e+04 2.020e-09
 14.02944    145.7 1.291e+04 1.645e-09
 14.04976    146.4 1.282e+04 1.203e-09
 14.06662    146.8 1.272e+04 8.601e-10
 14.07678    146.9 1.261e+04 7.447e-10
 14.09041    146.9 1.240e+04 5.087e-10
 14.11074    146.7 1.218e+04 3.759e-10
 14.13250    146.5 1.175e+04 2.822e-10
 14.15293    147.1 1.156e+04 2.586e-10
 14.18207    148.3 1.132e+04 2.549e-10
 14.22272    149.9 1.128e+04 2.554e-10
 14.26337    151.7 1.124e+04 2.503e-10
 14.28449    153.6 1.125e+04 2.427e-10
 14.30482    154.7 1.121e+04 2.454e-10
 14.34467    156.7 1.123e+04 2.342e-10
 14.38532    158.6 1.124e+04 2.273e-10
 14.41606    160.5 1.126e+04 2.294e-10
 14.43638    161.6 1.124e+04 2.647e-10
 14.46662    163.5 1.128e+04 2.811e-10
 14.50727    165.3 1.138e+04 3.205e-10
 14.54762    166.9 1.155e+04 3.856e-10
 14.56795    168.0 1.167e+04 4.607e-10
 14.58857    168.9 1.180e+04 5.243e-10
 14.62922    170.3 1.177e+04 5.448e-10
 14.66987    171.9 1.172e+04 5.444e-10
 14.69951    173.5 1.167e+04 5.286e-10
 14.71984    174.3 1.180e+04 5.812e-10
 14.75117    176.0 1.165e+04 4.979e-10
 14.79182    177.8 1.150e+04 4.108e-10
 14.83108    179.7 1.133e+04 3.329e-10
 14.85140    180.6 1.137e+04 3.298e-10
 14.87312    182.8 1.124e+04 2.764e-10
 14.91377    185.0 1.115e+04 2.328e-10
 14.95442    187.4 1.107e+04 1.983e-10
 14.98297    189.9 1.098e+04 1.764e-10
 15.00329    190.8 1.104e+04 2.118e-10
 15.03572    193.3 1.098e+04 2.011e-10
 15.07637    195.7 1.092e+04 1.955e-10
 15.11453    198.2 1.087e+04 1.954e-10
 15.13486    198.8 1.093e+04 2.213e-10
 15.15768    201.2 1.087e+04 2.189e-10
 15.19833    203.5 1.082e+04 2.183e-10
 15.23898    205.8 1.078e+04 2.174e-10
 15.26642    208.0 1.076e+04 2.146e-10
 15.28675    208.5 1.072e+04 2.131e-10
 15.32028    210.7 1.071e+04 2.088e-10
 15.36093    212.8 1.071e+04 2.040e-10
 15.39799    214.8 1.072e+04 1.957e-10
 15.41832    215.4 1.067e+04 2.029e-10
 15.44223    217.4 1.068e+04 1.959e-10
 15.48288    219.4 1.067e+04 1.854e-10
 15.52353    221.3 1.064e+04 1.734e-10
 15.54988    223.4 1.061e+04 1.621e-10
 15.57021    224.0 1.060e+04 1.912e-10
 15.60483    226.0 1.059e+04 1.820e-10
 15.64548    228.1 1.054e+04 1.781e-10
 15.68145    230.2 1.052e+04 1.765e-10
 15.70177    230.7 1.057e+04 2.040e-10
 15.72678    232.7 1.053e+04 1.962e-10
 15.76743    234.8 1.049e+04 1.892e-10
 15.80808    236.8 1.044e+04 1.851e-10
 15.83334    238.8 1.043e+04 1.869e-10
 15.85366    238.9 1.039e+04 1.714e-10
 15.88938    240.6 1.039e+04 1.714e-10
 15.93003    242.1 1.038e+04 1.780e-10
 15.96490    243.6 1.045e+04 1.962e-10
 15.98523    243.2 1.034e+04 1.641e-10
 16.01133    244.2 1.040e+04 1.821e-10
 16.05198    245.0 1.076e+04 2.335e-10
 16.09263    246.2 1.116e+04 3.080e-10
 16.11670    246.5 1.119e+04 3.193e-10
 16.13702    245.8 1.124e+04 3.687e-10
 16.16367    245.8 1.138e+04 4.060e-10
 16.18238    245.4 1.154e+04 4.819e-10
 16.19254    245.4 1.146e+04 4.571e-10
 16.20422    244.9 1.154e+04 5.505e-10
 16.22455    244.8 1.158e+04 6.410e-10
 16.24487    244.7 1.163e+04 7.121e-10
 16.25833    244.6 1.167e+04 7.533e-10
 16.26849    244.4 1.156e+04 7.195e-10
 16.28552    244.4 1.158e+04 7.318e-10
 16.30585    244.4 1.156e+04 7.252e-10
 16.32411    244.5 1.150e+04 7.097e-10
 16.33427    244.4 1.145e+04 7.002e-10
 16.34650    244.5 1.140e+04 6.875e-10
 16.36682    244.7 1.134e+04 6.748e-10
 16.38715    244.9 1.129e+04 6.655e-10
 16.40005    245.2 1.123e+04 6.576e-10
 16.41022    244.9 1.125e+04 6.567e-10
 16.42780    245.3 1.120e+04 6.496e-10
 16.44812    245.7 1.115e+04 6.406e-10
 16.46584    246.2 1.111e+04 6.345e-10
 16.47600    245.7 1.115e+04 6.481e-10
 16.48877    246.2 1.115e+04 6.589e-10
 16.50910    246.6 1.118e+04 6.763e-10
 16.52942    247.1 1.124e+04 7.035e-10
 16.54178    247.5 1.137e+04 7.463e-10
 16.55194    246.2 1.163e+04 8.440e-10
 16.57007    245.8 1.191e+04 9.667e-10
 16.59040    245.0 1.240e+04 1.199e-09
 16.60756    243.5 1.318e+04 1.659e-09
 16.61773    241.2 1.356e+04 2.041e-09
 16.63105    239.3 1.432e+04 2.838e-09
 16.65137    237.4 1.501e+04 3.686e-09
 16.67170    235.3 1.531e+04 4.037e-09
 16.68351    233.2 1.523e+04 3.801e-09
 16.69303    232.1 1.446e+04 2.659e-09
 16.70154    231.0 1.431e+04 2.339e-09
 16.71235    229.3 1.386e+04 1.600e-09
 16.74293    226.5 1.301e+04 7.202e-10
 16.78368    220.9 1.092e+04 2.193e-10
 16.81527    216.5 9.095e+03 1.302e-10
 16.83560    216.5 8.965e+03 1.196e-10
 16.86498    216.6 8.886e+03 1.183e-10
 16.90563    217.3 8.873e+03 1.190e-10
 16.94628    218.8 8.931e+03 1.281e-10
 16.96716    220.7 9.463e+03 1.649e-10
 16.98749    222.1 9.613e+03 1.757e-10
 17.01732    221.8 1.018e+04 2.020e-10
 17.03275    221.5 1.082e+04 2.687e-10
 17.04291    222.1 1.094e+04 2.838e-10
 17.05788    221.7 1.164e+04 4.641e-10
 17.07820    221.3 1.226e+04 8.155e-10
 17.09853    221.1 1.291e+04 1.427e-09
 17.11885    221.7 1.398e+04 2.590e-09
 17.13918    222.0 1.484e+04 3.994e-09
 17.15950    222.0 1.551e+04 5.204e-09
 17.17443    222.2 1.591e+04 5.916e-09
 17.17946    222.6 1.610e+04 6.285e-09
 17.18481    222.5 1.660e+04 7.301e-09
 17.19497    222.2 1.698e+04 7.334e-09
 17.20514    221.8 1.698e+04 7.242e-09
 17.21235    221.1 1.692e+04 6.753e-09
 17.21743    221.3 1.733e+04 7.469e-09
 17.22546    220.6 1.724e+04 7.010e-09
 17.24021    219.7 1.679e+04 5.832e-09
 17.25042    219.4 1.762e+04 6.946e-09
 17.26113    217.2 1.739e+04 6.167e-09
 17.28145    214.1 1.722e+04 5.926e-09
 17.30178    210.9 1.732e+04 6.356e-09
 17.31620    208.0 1.794e+04 8.319e-09
 17.32637    206.4 1.812e+04 8.228e-09
 17.34243    204.0 1.926e+04 1.110e-08
 17.35413    203.1 2.002e+04 1.296e-08
 17.35916    202.0 2.007e+04 1.231e-08
 17.36774    199.6 2.157e+04 1.462e-08
 17.37790    196.3 2.328e+04 2.066e-08
 17.38697    192.5 2.424e+04 3.217e-08
 17.39205    190.2 2.383e+04 2.284e-08
 17.39822    186.4 2.409e+04 3.311e-08
 17.40839    182.6 2.381e+04 4.311e-08
 17.41855    179.1 2.328e+04 4.798e-08
 17.42494    176.2 2.290e+04 4.753e-08
 17.43002    174.9 2.223e+04 2.597e-08
 17.43887    172.8 2.180e+04 2.448e-08
 17.44904    170.9 2.148e+04 2.159e-08
 17.45783    169.3 2.113e+04 1.858e-08
 17.46805    165.4 1.976e+04 1.066e-08
 17.48470    161.4 1.824e+04 7.763e-09
 17.50503    158.4 1.655e+04 5.405e-09
 17.52372    156.3 1.489e+04 3.651e-09
 17.53388    155.5 1.386e+04 2.765e-09
 17.54568    155.2 1.296e+04 1.900e-09
 17.56600    154.8 1.228e+04 1.372e-09
 17.59659    153.0 1.086e+04 6.572e-10
 17.62708    152.7 1.043e+04 5.569e-10
 17.64730    152.7 1.013e+04 5.190e-10
 17.66544    153.0 1.009e+04 5.211e-10
 17.67561    152.9 9.791e+03 4.440e-10
 17.68795    153.5 9.893e+03 4.757e-10
 17.70828    154.2 1.006e+04 5.235e-10
 17.72860    154.8 1.033e+04 5.930e-10
 17.74139    155.3 1.066e+04 6.892e-10
 17.75155    155.4 1.035e+04 5.806e-10
 17.76925    155.9 1.065e+04 6.670e-10
 17.78958    156.3 1.098e+04 7.815e-10
 17.80717    156.7 1.125e+04 9.049e-10
 17.81733    157.1 1.072e+04 6.716e-10
 17.83023    157.6 1.096e+04 7.720e-10
 17.85055    158.1 1.112e+04 8.522e-10
 17.87088    158.7 1.121e+04 9.049e-10
 17.88312    159.3 1.128e+04 9.365e-10
 17.89328    159.8 1.086e+04 7.248e-10
 17.91153    160.6 1.091e+04 7.436e-10
 17.93186    161.5 1.098e+04 7.617e-10
 17.94890    162.4 1.108e+04 7.872e-10
 17.95906    162.9 1.069e+04 6.164e-10
 17.97251    163.9 1.080e+04 6.404e-10
 17.99283    164.9 1.096e+04 6.839e-10
 18.01316    166.0 1.118e+04 7.530e-10
 18.02484    167.0 1.142e+04 8.527e-10
 18.03501    167.5 1.109e+04 6.910e-10
 18.05381    168.6 1.144e+04 8.183e-10
 18.07413    169.8 1.187e+04 1.016e-09
 18.09063    171.0 1.237e+04 1.310e-09
 18.10079    171.3 1.217e+04 1.148e-09
 18.11478    172.4 1.285e+04 1.574e-09
 18.13511    173.6 1.357e+04 2.202e-09
 18.15543    174.8 1.436e+04 3.059e-09
 18.16657    176.1 1.520e+04 4.237e-09
 18.17674    176.1 1.498e+04 3.910e-09
 18.19608    177.2 1.597e+04 5.637e-09
 18.21641    178.6 1.710e+04 8.164e-09
 18.23236    180.3 1.848e+04 1.178e-08
 18.24252    180.2 1.769e+04 9.561e-09
 18.25706    181.2 1.891e+04 1.325e-08
 18.27028    181.1 2.020e+04 1.879e-08
 18.27531    181.5 1.964e+04 1.643e-08
 18.28237    181.1 2.053e+04 2.266e-08
 18.29253    180.7 2.124e+04 3.462e-08
 18.30269    180.3 2.180e+04 5.546e-08
 18.30820    179.9 2.215e+04 1.011e-07
 18.31328    180.1 2.176e+04 6.649e-08
 18.32302    179.5 2.179e+04 1.234e-07
 18.33318    178.6 2.181e+04 2.154e-07
 18.34109    176.9 2.205e+04 2.918e-07
 18.34618    175.8 2.275e+04 1.343e-07
 18.35350    172.8 2.287e+04 1.308e-07
 18.36049    170.2 2.295e+04 1.096e-07
 18.36557    169.7 2.307e+04 4.423e-08
 18.37383    167.5 2.253e+04 3.466e-08
 18.37907    165.6 2.164e+04 2.603e-08
 18.38415    163.7 2.061e+04 1.961e-08
 18.39415    162.7 1.984e+04 1.745e-08
 18.40432    161.8 1.937e+04 1.492e-08
 18.41196    161.1 1.932e+04 1.223e-08
 18.41704    161.0 1.882e+04 1.277e-08
 18.42464    160.4 1.866e+04 1.059e-08
 18.43480    159.5 1.835e+04 8.667e-09
 18.44485    158.3 1.786e+04 7.253e-09
 18.44993    158.9 1.788e+04 7.036e-09
 18.45513    157.7 1.736e+04 5.877e-09
 18.46529    156.7 1.688e+04 5.350e-09
 18.47545    156.3 1.663e+04 5.207e-09
 18.48282    156.3 1.661e+04 5.202e-09
 18.48790    156.3 1.634e+04 4.565e-09
 18.49578    156.4 1.620e+04 4.422e-09
 18.50594    156.5 1.614e+04 4.375e-09
 18.51576    156.8 1.647e+04 5.258e-09
 18.52597    156.6 1.556e+04 3.123e-09
 18.54161    156.8 1.519e+04 2.540e-09
 18.56193    156.8 1.491e+04 2.084e-09
 18.58159    156.7 1.470e+04 1.873e-09
 18.59176    155.7 1.258e+04 8.980e-10
 18.60258    156.0 1.262e+04 9.128e-10
 18.62291    156.5 1.280e+04 9.786e-10
 18.64323    156.9 1.317e+04 1.143e-09
 18.65754    157.2 1.357e+04 1.410e-09
 18.66770    157.2 1.190e+04 8.491e-10
 18.68388    157.4 1.250e+04 1.068e-09
 18.70421    157.6 1.299e+04 1.353e-09
 18.72332    157.6 1.342e+04 1.694e-09
 18.73348    157.6 1.226e+04 1.232e-09
 18.74486    157.7 1.265e+04 1.510e-09
 18.76518    157.7 1.281e+04 1.665e-09
 18.78551    157.8 1.272e+04 1.656e-09
 18.79927    158.1 1.254e+04 1.568e-09
 18.80943    158.8 1.241e+04 1.468e-09
 18.82616    159.2 1.225e+04 1.376e-09
 18.84648    159.7 1.198e+04 1.195e-09
 18.86505    160.0 1.174e+04 9.910e-10
 18.87521    160.7 1.174e+04 9.990e-10
 18.88713    160.9 1.155e+04 8.605e-10
 18.90746    161.1 1.156e+04 8.311e-10
 18.92778    161.0 1.159e+04 8.477e-10
 18.94100    160.6 1.219e+04 9.446e-10
 18.95116    161.9 1.158e+04 8.425e-10
 18.96843    161.5 1.204e+04 1.020e-09
 18.98876    161.3 1.329e+04 1.429e-09
 19.00678    161.3 1.459e+04 2.097e-09
 19.01694    162.7 1.297e+04 1.385e-09
 19.02941    162.9 1.379e+04 1.741e-09
 19.04974    163.1 1.453e+04 2.059e-09
 19.07006    163.4 1.514e+04 2.213e-09
 19.08272    163.7 1.561e+04 2.251e-09
 19.09289    164.6 1.367e+04 1.079e-09
 19.11071    164.7 1.397e+04 1.056e-09
 19.13104    164.9 1.454e+04 1.091e-09
 19.14851    165.3 1.525e+04 1.203e-09
 19.15867    165.1 1.241e+04 5.430e-10
 19.17169    165.4 1.289e+04 6.089e-10
 19.19201    166.0 1.384e+04 8.248e-10
 19.21234    166.6 1.496e+04 1.217e-09
 19.22445    166.9 1.696e+04 1.774e-09
 19.23461    165.2 1.341e+04 1.316e-09
 19.25299    165.4 1.493e+04 2.101e-09
 19.26818    164.9 1.495e+04 2.421e-09
 19.27829    164.5 1.507e+04 2.693e-09
 19.28846    164.3 1.550e+04 3.032e-09
 19.29522    162.7 2.049e+04 4.193e-09
 19.30030    162.5 1.627e+04 3.415e-09
 19.30878    157.6 2.299e+04 6.734e-09
 19.31895    146.2 2.809e+04 3.873e-08
 19.32811    135.7 2.476e+04 2.707e-07
 19.33319    134.0 2.445e+04 1.912e-07
 19.33927    127.8 2.247e+04 5.269e-07
 19.34943    124.6 2.183e+04 5.770e-07
 19.35960    123.9 2.172e+04 4.645e-07
 19.36608    123.6 2.286e+04 2.056e-07
 19.37116    119.7 2.668e+04 6.020e-08
 19.37992    117.8 3.117e+04 1.730e-08
 19.39521    105.7 3.319e+04 3.277e-09
 19.41559     91.8 1.732e+04 1.858e-09
 19.43196     90.2 1.337e+04 2.084e-09
 19.44212     91.0 1.353e+04 2.224e-09
 19.45624     91.7 1.374e+04 2.259e-09
 19.47656     92.3 1.403e+04 2.458e-09
 19.49689     92.5 1.427e+04 2.735e-09
 19.50791     92.7 1.443e+04 3.079e-09
 19.51807     92.8 1.465e+04 3.301e-09
 19.53754     93.1 1.491e+04 3.743e-09
 19.55786     93.4 1.498e+04 3.952e-09
 19.57369     93.7 1.493e+04 3.912e-09
 19.58385     93.5 1.497e+04 3.888e-09
 19.59851     93.9 1.471e+04 3.658e-09
 19.61884     94.3 1.432e+04 3.204e-09
 19.63916     94.8 1.386e+04 2.617e-09
 19.64964     95.1 1.331e+04 2.008e-09
 19.65980     94.5 1.313e+04 1.714e-09
 19.67981     94.3 1.257e+04 1.257e-09
 19.70014     93.8 1.209e+04 9.659e-10
 19.71542     93.3 1.172e+04 8.346e-10
 19.72558     92.2 1.150e+04 7.824e-10
 19.74079     92.1 1.144e+04 7.823e-10
 19.76111     92.2 1.143e+04 7.943e-10
 19.78120     92.4 1.148e+04 8.426e-10
 19.79136     91.6 1.144e+04 8.267e-10
 19.80176     91.9 1.155e+04 8.604e-10
 19.82209     92.2 1.165e+04 8.592e-10
 19.84241     92.2 1.173e+04 8.229e-10
 19.85715     91.9 1.179e+04 7.581e-10
 19.86731     90.7 1.162e+04 6.366e-10
 19.88306     89.9 1.158e+04 5.776e-10
 19.90339     89.0 1.145e+04 5.423e-10
 19.92293     88.2 1.128e+04 5.351e-10
 19.93309     87.1 1.112e+04 4.717e-10
 19.94404     86.8 1.108e+04 4.810e-10
 19.96436     86.6 1.109e+04 4.999e-10
 19.98469     86.8 1.113e+04 5.172e-10
 19.99887     87.2 1.117e+04 5.283e-10
 20.00904     85.9 1.103e+04 4.791e-10
 20.01963     86.3 1.101e+04 4.770e-10
 20.02979     87.0 1.110e+04 4.816e-10
 20.04566     87.4 1.106e+04 4.730e-10
 20.06466     87.9 1.095e+04 4.421e-10
 20.08508     86.8 1.087e+04 3.703e-10
 20.11700     87.8 1.077e+04 3.536e-10
 20.15765     89.0 1.072e+04 3.471e-10
 20.19642     90.4 1.071e+04 3.535e-10
 20.21674     89.7 1.066e+04 3.483e-10
 20.22869     90.9 1.079e+04 3.946e-10
 20.24892     92.0 1.093e+04 4.362e-10
 20.26924     92.9 1.107e+04 4.778e-10
 20.28233     93.8 1.117e+04 5.172e-10
 20.29249     93.8 1.121e+04 5.224e-10
 20.30989     94.8 1.131e+04 5.635e-10
 20.33022     95.8 1.143e+04 6.121e-10
 20.34811     96.7 1.157e+04 6.682e-10
 20.35828     96.6 1.171e+04 6.999e-10
 20.37087     97.5 1.188e+04 7.704e-10
 20.39119     98.3 1.206e+04 8.395e-10
 20.41152     99.0 1.222e+04 8.962e-10
 20.42406     99.6 1.233e+04 9.375e-10
 20.43422     99.7 1.253e+04 1.025e-09
 20.45217    100.3 1.260e+04 1.046e-09
 20.47249    100.6 1.267e+04 1.084e-09
 20.48984    100.8 1.278e+04 1.189e-09
 20.50000    100.5 1.319e+04 1.289e-09
 20.51314    100.3 1.360e+04 1.592e-09
 20.53347    100.2 1.426e+04 2.161e-09
 20.55379    100.1 1.502e+04 3.081e-09
 20.56579    100.2 1.586e+04 4.429e-09
 20.57595     99.5 1.654e+04 5.778e-09
 20.59444    100.1 1.736e+04 8.031e-09
 20.61477    100.7 1.821e+04 1.012e-08
 20.63157    100.7 1.891e+04 1.107e-08
 20.64173     99.7 1.923e+04 1.229e-08
 20.65542     99.4 1.955e+04 1.256e-08
 20.67574     99.3 1.962e+04 1.213e-08
 20.69607     99.1 1.958e+04 1.076e-08
 20.70751     98.8 1.934e+04 8.907e-09
 20.71768     97.4 1.919e+04 1.120e-08
 20.73672     97.3 1.870e+04 8.540e-09
 20.75704     97.0 1.807e+04 6.015e-09
 20.77330     96.4 1.735e+04 4.214e-09
 20.78346     94.3 1.727e+04 5.225e-09
 20.79769     93.5 1.668e+04 4.340e-09
 20.81122     93.1 1.597e+04 3.498e-09
 20.81625     92.3 1.613e+04 3.977e-09
 20.82300     91.8 1.625e+04 4.123e-09
 20.83316     91.2 1.675e+04 4.581e-09
 20.84333     90.3 1.744e+04 5.408e-09
 20.84914     89.2 1.824e+04 6.983e-09
 20.85423     87.4 1.862e+04 9.887e-09
 20.86365     86.6 1.912e+04 1.318e-08
 20.87381     86.0 1.975e+04 1.869e-08
 20.88204     85.5 2.066e+04 2.788e-08
 20.88712     84.1 2.165e+04 2.832e-08
 20.89414     83.3 2.224e+04 3.992e-08
 20.90430     82.5 2.252e+04 5.772e-08
 20.91446     82.0 2.267e+04 8.396e-08
 20.92001     81.4 2.299e+04 1.163e-07
 20.92509     78.6 2.604e+04 5.354e-08
 20.93479     76.6 2.729e+04 5.008e-08
 20.94495     73.9 2.884e+04 3.991e-08
 20.95290     70.2 2.964e+04 2.787e-08
 20.95798     65.5 2.811e+04 1.182e-08
 20.96528     61.5 2.446e+04 1.151e-08
 20.97544     58.0 2.231e+04 1.211e-08
 20.98560     55.6 2.071e+04 1.264e-08
 20.99092     52.3 2.015e+04 1.438e-08
 21.00113     52.7 1.793e+04 9.589e-09
 21.02127     52.4 1.856e+04 1.251e-08
 21.04159     52.7 1.911e+04 1.483e-08
 21.05675     52.8 1.925e+04 1.444e-08
 21.06692     54.6 1.849e+04 1.044e-08
 21.08224     54.7 1.818e+04 9.712e-09
 21.10257     54.6 1.789e+04 8.463e-09
 21.12254     54.7 1.754e+04 7.981e-09
 21.13270     55.8 1.675e+04 6.053e-09
 21.14322     56.1 1.667e+04 6.412e-09
 21.16354     56.7 1.670e+04 6.875e-09
 21.18387     57.6 1.671e+04 7.163e-09
 21.19848     58.9 1.673e+04 6.827e-09
 21.20864     60.1 1.656e+04 7.489e-09
 21.22452     61.5 1.659e+04 7.243e-09
 21.24485     62.8 1.662e+04 6.515e-09
 21.26426     63.7 1.648e+04 5.534e-09
 21.27443     64.9 1.670e+04 7.127e-09
 21.28550     65.8 1.668e+04 6.103e-09
 21.30582     66.3 1.635e+04 5.232e-09
 21.32615     66.5 1.568e+04 4.350e-09
 21.34021     66.7 1.478e+04 3.558e-09
 21.35037     68.6 1.597e+04 4.661e-09
 21.36680     68.4 1.519e+04 3.742e-09
 21.38712     68.0 1.426e+04 3.017e-09
 21.40599     67.5 1.377e+04 2.646e-09
 21.41615     69.0 1.431e+04 2.780e-09
 21.42777     67.8 1.366e+04 2.289e-09
 21.44810     66.7 1.326e+04 2.127e-09
 21.46842     65.4 1.330e+04 2.173e-09
 21.48194     63.8 1.378e+04 2.467e-09
 21.49210     64.7 1.320e+04 2.023e-09
 21.50907     63.3 1.399e+04 2.519e-09
 21.52940     62.3 1.492e+04 3.388e-09
 21.54772     61.5 1.577e+04 4.586e-09
 21.55788     62.4 1.551e+04 3.931e-09
 21.57005     61.7 1.637e+04 5.378e-09
 21.59037     61.3 1.699e+04 6.858e-09
 21.61070     61.0 1.739e+04 7.790e-09
 21.62367     60.6 1.770e+04 8.160e-09
 21.63383     61.2 1.837e+04 9.102e-09
 21.65135     60.0 1.922e+04 1.016e-08
 21.67167     57.4 2.041e+04 1.255e-08
 21.68371     53.5 2.198e+04 1.692e-08
 21.68874     54.0 2.218e+04 1.810e-08
 21.69443     51.0 2.310e+04 2.543e-08
 21.69951     49.3 2.409e+04 3.690e-08
 21.70714     47.2 2.318e+04 5.656e-08
 21.71731     46.8 2.233e+04 9.146e-08
 21.72732     47.2 2.185e+04 1.330e-07
 21.73240     47.1 2.175e+04 2.186e-07
 21.73763     47.9 2.179e+04 2.123e-07
 21.74779     48.6 2.198e+04 1.541e-07
 21.75796     49.3 2.233e+04 8.118e-08
 21.76530     48.9 2.310e+04 3.720e-08
 21.77038     48.7 2.334e+04 3.267e-08
 21.77828     47.7 2.402e+04 1.489e-08
 21.79357     42.6 2.339e+04 4.165e-09
 21.81395     36.6 1.731e+04 1.512e-09
 21.83118     34.2 1.232e+04 1.069e-09
 21.84134     32.4 1.178e+04 8.783e-10
 21.85460     33.5 1.199e+04 8.990e-10
 21.87492     34.1 1.149e+04 8.828e-10
 21.89706     35.2 1.172e+04 1.006e-09
 21.91748     33.1 1.092e+04 7.756e-10
 21.94626     35.5 1.083e+04 7.681e-10
 21.98691     37.6 1.091e+04 7.773e-10
 22.02756     39.3 1.110e+04 8.341e-10
 22.04904     40.7 1.135e+04 9.681e-10
 22.06937     40.0 1.054e+04 6.648e-10
 22.10886     41.8 1.085e+04 8.037e-10
 22.14951     43.7 1.125e+04 1.020e-09
 22.18061     45.7 1.158e+04 1.244e-09
 22.20094     45.9 1.107e+04 9.412e-10
 22.23081     48.2 1.144e+04 1.145e-09
 22.27146     50.4 1.167e+04 1.297e-09
 22.31211     52.5 1.172e+04 1.323e-09
 22.35276     55.2 1.227e+04 1.603e-09
 22.38315     56.1 1.216e+04 1.579e-09
 22.39809     56.6 1.215e+04 1.574e-09
 22.40825     57.2 1.244e+04 1.791e-09
 22.42370     57.7 1.262e+04 1.889e-09
 22.44403     58.0 1.280e+04 1.950e-09
 22.46387     58.1 1.299e+04 2.015e-09
 22.47403     58.3 1.365e+04 2.533e-09
 22.48468     58.2 1.382e+04 2.650e-09
 22.50500     58.0 1.393e+04 2.738e-09
 22.52533     57.9 1.399e+04 2.811e-09
 22.53982     57.9 1.393e+04 2.831e-09
 22.54998     57.8 1.443e+04 3.505e-09
 22.56598     58.1 1.418e+04 3.321e-09
 22.58630     58.6 1.380e+04 2.973e-09
 22.60560     59.2 1.333e+04 2.500e-09
 22.61576     59.3 1.363e+04 2.837e-09
 22.62695     59.9 1.307e+04 2.164e-09
 22.64728     60.1 1.249e+04 1.610e-09
 22.66760     60.3 1.200e+04 1.223e-09
 22.68154     60.2 1.164e+04 9.832e-10
 22.69171     59.9 1.174e+04 9.883e-10
 22.70825     59.9 1.150e+04 8.914e-10
 22.72858     60.4 1.149e+04 8.931e-10
 22.74733     60.9 1.160e+04 9.460e-10
 22.75749     60.6 1.154e+04 9.223e-10
 22.76923     61.0 1.179e+04 1.027e-09
 22.78955     61.4 1.220e+04 1.216e-09
 22.80988     62.0 1.285e+04 1.549e-09
 22.82327     62.3 1.364e+04 2.057e-09
 22.83343     62.3 1.343e+04 1.783e-09
 22.85053     62.3 1.425e+04 2.374e-09
 22.87085     61.8 1.522e+04 3.378e-09
 22.88906     60.4 1.679e+04 5.419e-09
 22.89922     60.4 1.731e+04 6.316e-09
 22.90637     58.1 1.899e+04 9.811e-09
 22.91649     56.5 1.988e+04 1.260e-08
 22.92665     54.3 2.040e+04 2.196e-08
 22.93201     54.4 2.024e+04 4.098e-08
 22.93709     54.6 2.029e+04 6.315e-08
 22.94697     56.8 2.049e+04 1.264e-07
 22.95714     58.2 2.103e+04 1.744e-07
 22.96490     58.6 2.109e+04 1.664e-07
 22.96998     58.4 2.186e+04 2.909e-07
 22.97746     59.5 2.136e+04 1.683e-07
 22.98762     60.8 2.112e+04 7.236e-08
 22.99779     60.6 2.130e+04 2.772e-08
 23.01308     57.5 2.116e+04 8.628e-09
 23.03078     51.2 1.718e+04 2.638e-09
 23.04095     50.2 1.703e+04 3.135e-09
 23.05378     48.4 1.390e+04 2.029e-09
 23.07410     48.8 1.273e+04 1.525e-09
 23.09443     49.7 1.214e+04 1.169e-09
 23.10673     50.4 1.160e+04 9.079e-10
 23.11689     50.4 1.197e+04 1.005e-09
 23.13508     50.8 1.140e+04 8.053e-10
 23.15540     51.2 1.097e+04 6.689e-10
 23.17251     51.7 1.068e+04 5.753e-10
 23.18267     51.6 1.094e+04 6.764e-10
 23.19605     52.2 1.080e+04 6.211e-10
 23.21638     52.9 1.067e+04 5.814e-10
 23.24696     53.8 1.085e+04 6.247e-10
 23.28771     54.6 1.104e+04 6.919e-10
 23.31443     55.6 1.128e+04 8.249e-10
 23.33476     55.8 1.149e+04 9.461e-10
 23.36901     56.7 1.138e+04 8.999e-10
 23.40966     57.6 1.101e+04 7.481e-10
 23.44600     58.4 1.050e+04 5.554e-10
 23.46633     58.3 1.026e+04 4.722e-10
 23.49096     58.7 9.938e+03 3.873e-10
 23.53161     59.2 9.740e+03 3.463e-10
 23.57226     59.8 9.626e+03 3.254e-10
 23.59789     60.3 9.522e+03 3.084e-10
 23.61822     60.8 9.599e+03 3.254e-10
 23.65356     61.5 9.467e+03 3.024e-10
 23.69421     62.2 9.278e+03 2.697e-10
 23.72946     63.0 9.072e+03 2.356e-10
 23.74978     63.4 9.230e+03 2.629e-10
 23.77551     64.2 9.042e+03 2.319e-10
 23.81616     65.2 8.888e+03 2.054e-10
 23.85682     66.2 8.730e+03 1.794e-10
 23.88135     67.0 8.629e+03 1.630e-10
 23.90167     67.7 8.821e+03 1.877e-10
 23.93812     68.4 8.875e+03 1.905e-10
 23.97877     68.4 9.105e+03 2.163e-10
 24.01291     68.0 9.464e+03 2.846e-10
 24.03324     68.6 9.597e+03 3.286e-10
 24.04981     68.8 9.698e+03 3.764e-10
 24.07003     68.7 9.855e+03 4.271e-10
 24.08866     68.6 1.016e+04 5.346e-10
 24.09882     69.0 1.050e+04 6.777e-10
 24.11068     69.1 1.090e+04 8.472e-10
 24.13101     69.2 1.125e+04 9.857e-10
 24.15133     68.8 1.149e+04 1.057e-09
 24.16461     68.2 1.156e+04 1.051e-09
 24.17477     68.8 1.179e+04 1.150e-09
 24.19198     68.0 1.177e+04 1.063e-09
 24.21231     66.8 1.168e+04 1.007e-09
 24.23039     65.5 1.161e+04 9.487e-10
 24.24055     66.3 1.173e+04 1.003e-09
 24.25296     65.1 1.156e+04 9.022e-10
 24.27328     63.6 1.132e+04 7.780e-10
 24.29361     61.5 1.117e+04 7.044e-10
 24.30634     57.8 1.134e+04 7.269e-10
 24.31650     59.3 1.124e+04 6.826e-10
 24.32913     55.4 1.227e+04 7.758e-10
 24.33913     39.3 3.608e+04 8.086e-10
 24.34421     38.2 3.986e+04 7.702e-10
 24.34941      8.9 5.538e+04 5.427e-09
 24.35957     -4.1 3.101e+04 9.304e-08
 24.36973     -8.9 2.302e+04 3.258e-07
 24.37710    -11.5 2.203e+04 3.745e-07
 24.38218    -11.6 2.192e+04 3.750e-07
 24.39006    -14.8 2.504e+04 1.632e-07
 24.40022    -25.2 3.499e+04 1.415e-08
 24.41551    -45.4 2.767e+04 1.860e-09
 24.43588    -61.9 1.275e+04 8.594e-10
 24.44806    -64.8 1.144e+04 7.530e-10
 24.45823    -65.6 1.168e+04 8.530e-10
 24.47654    -66.4 1.172e+04 8.503e-10
 24.49686    -67.6 1.191e+04 9.096e-10
 24.51385    -68.7 1.229e+04 1.116e-09
 24.52401    -68.4 1.218e+04 1.122e-09
 24.53751    -68.8 1.250e+04 1.312e-09
 24.55784    -68.9 1.281e+04 1.532e-09
 24.57816    -68.8 1.304e+04 1.711e-09
 24.58979    -68.8 1.312e+04 1.780e-09
 24.59995    -68.9 1.246e+04 1.239e-09
 24.62907    -69.2 1.239e+04 1.199e-09
 24.66982    -68.9 1.227e+04 1.169e-09
 24.71047    -68.9 1.213e+04 1.107e-09
 24.73171    -69.7 1.251e+04 1.334e-09
 24.75204    -69.9 1.247e+04 1.244e-09
 24.78151    -70.7 1.305e+04 1.803e-09
 24.79730    -71.4 1.399e+04 2.663e-09
 24.80746    -71.1 1.383e+04 2.367e-09
 24.82206    -72.1 1.517e+04 3.723e-09
 24.84239    -73.9 1.686e+04 6.133e-09
 24.86271    -76.6 1.874e+04 1.012e-08
 24.87325    -80.0 2.054e+04 1.619e-08
 24.88341    -79.8 1.957e+04 1.202e-08
 24.90336    -83.6 2.117e+04 1.887e-08
 24.91856    -86.6 2.173e+04 2.343e-08
 24.92867    -88.6 2.200e+04 2.581e-08
 24.93883    -90.6 2.207e+04 2.641e-08
 24.94401    -92.6 2.189e+04 2.608e-08
 24.94910    -92.1 2.197e+04 2.657e-08
 24.95916    -93.9 2.158e+04 2.504e-08
 24.96932    -95.5 2.093e+04 2.140e-08
 24.97691    -96.5 2.035e+04 1.799e-08
 24.98199    -96.1 2.059e+04 1.970e-08
 24.98965    -97.4 1.985e+04 1.544e-08
 25.00476    -99.3 1.873e+04 1.074e-08
 25.01493    -98.7 1.879e+04 1.140e-08
 25.02526   -101.0 1.736e+04 7.635e-09
 25.04564   -103.5 1.520e+04 4.188e-09
 25.06596   -105.1 1.408e+04 2.738e-09
 25.08076   -106.2 1.316e+04 1.843e-09
 25.09092   -105.0 1.344e+04 2.055e-09
 25.10661   -105.8 1.264e+04 1.343e-09
 25.12694   -106.8 1.204e+04 8.768e-10
 25.14654   -108.0 1.160e+04 5.786e-10
 25.15670   -107.0 1.161e+04 5.854e-10
 25.16759   -108.6 1.109e+04 4.024e-10
 25.18791   -110.4 1.041e+04 3.219e-10
 25.20824   -111.7 9.859e+03 3.051e-10
 25.22249   -112.2 9.699e+03 3.016e-10
 25.23265   -111.3 9.725e+03 3.027e-10
 25.24889   -111.5 9.656e+03 3.028e-10
 25.27820   -111.8 9.604e+03 3.049e-10
 25.29863   -110.0 9.656e+03 3.157e-10
 25.32022   -109.7 9.462e+03 3.146e-10
 25.36087   -108.9 9.083e+03 2.606e-10
 25.40152   -107.8 8.648e+03 1.871e-10
 25.43019   -106.5 8.257e+03 1.295e-10
 25.45052   -105.3 8.315e+03 1.352e-10
 25.48282   -104.1 7.958e+03 9.510e-11
 25.52347   -102.7 7.742e+03 7.532e-11
 25.56176   -101.2 7.654e+03 6.897e-11
 25.58208   -100.1 7.670e+03 7.466e-11
 25.60477    -98.4 7.637e+03 7.311e-11
 25.64542    -96.6 7.630e+03 7.297e-11
 25.68607    -95.0 7.659e+03 7.675e-11
 25.71365    -93.7 7.712e+03 8.751e-11
 25.73397    -92.3 7.729e+03 8.883e-11
 25.76737    -91.7 7.809e+03 1.088e-10
 25.80802    -91.6 8.458e+03 1.749e-10
 25.84521    -92.4 9.914e+03 3.612e-10
 25.86554    -91.2 1.002e+04 3.854e-10
 25.88932    -92.1 1.131e+04 8.163e-10
 25.92997    -93.2 1.217e+04 1.339e-09
 25.97062    -94.8 1.253e+04 1.575e-09
 25.99710    -96.6 1.257e+04 1.580e-09
 26.01743    -94.8 1.264e+04 1.592e-09
 26.04166    -96.6 1.242e+04 1.316e-09
 26.06189    -97.3 1.219e+04 1.123e-09
 26.07285    -98.5 1.170e+04 8.541e-10
 26.08302    -97.8 1.168e+04 8.227e-10
 26.10254    -98.9 1.128e+04 6.619e-10
 26.12287   -100.1 1.079e+04 5.604e-10
 26.13864   -100.6 1.062e+04 5.396e-10
 26.14880   -100.3 1.063e+04 5.457e-10
 26.16352   -100.4 1.061e+04 5.436e-10
 26.18384   -100.4 1.062e+04 5.523e-10
 26.20417   -100.3 1.066e+04 5.652e-10
 26.21458   -100.2 1.068e+04 5.702e-10
 26.22475    -99.8 1.065e+04 5.691e-10
 26.24482    -99.6 1.060e+04 5.365e-10
 26.26514    -99.2 1.050e+04 4.900e-10
 26.28037    -98.8 1.040e+04 4.425e-10
 26.29053    -98.5 1.034e+04 4.189e-10
 26.30579    -98.3 1.031e+04 3.935e-10
 26.33638    -98.0 1.030e+04 3.724e-10
 26.37713    -96.9 1.013e+04 3.321e-10
 26.41213    -95.1 9.879e+03 2.875e-10
 26.43245    -94.5 9.901e+03 3.044e-10
 26.45843    -92.6 9.789e+03 2.886e-10
 26.49908    -90.7 9.769e+03 2.837e-10
 26.53973    -88.9 9.851e+03 2.952e-10
 26.56402    -87.3 1.005e+04 3.256e-10
 26.58434    -87.0 1.027e+04 4.174e-10
 26.62103    -85.4 1.050e+04 4.831e-10
 26.65600    -84.0 1.069e+04 5.500e-10
 26.67632    -83.3 1.079e+04 7.007e-10
 26.69558    -81.9 1.096e+04 7.883e-10
 26.71591    -81.7 1.105e+04 8.047e-10
 26.74298    -80.6 1.106e+04 8.129e-10
 26.78363    -79.4 1.091e+04 7.375e-10
 26.82428    -78.1 1.065e+04 5.866e-10
 26.84747    -77.0 1.049e+04 4.782e-10
 26.86780    -76.8 1.025e+04 3.775e-10
 26.90558    -75.7 1.022e+04 3.478e-10
 26.94623    -74.5 1.029e+04 3.502e-10
 26.97904    -73.7 1.069e+04 4.459e-10
 26.99936    -73.1 1.032e+04 3.322e-10
 27.02753    -72.2 1.087e+04 5.308e-10
 27.06818    -71.2 1.142e+04 8.089e-10
 27.10883    -70.2 1.190e+04 1.073e-09
 27.13093    -69.3 1.225e+04 1.255e-09
 27.14099    -69.2 1.220e+04 1.222e-09
 27.15945    -69.3 1.228e+04 1.261e-09
 27.17977    -69.1 1.237e+04 1.321e-09
 27.19652    -68.3 1.231e+04 1.310e-09
 27.20668    -68.2 1.216e+04 1.212e-09
 27.22042    -67.5 1.216e+04 1.193e-09
 27.24075    -67.1 1.223e+04 1.192e-09
 27.26107    -67.3 1.256e+04 1.186e-09
 27.27246    -69.0 1.351e+04 1.510e-09
 27.28262    -70.9 1.369e+04 1.742e-09
 27.30172    -72.6 1.455e+04 2.952e-09
 27.32205    -73.2 1.540e+04 5.229e-09
 27.33824    -73.0 1.660e+04 8.568e-09
 27.34841    -73.3 1.609e+04 6.961e-09
 27.36270    -72.9 1.673e+04 8.312e-09
 27.38302    -72.9 1.694e+04 8.565e-09
 27.40335    -73.3 1.682e+04 7.104e-09
 27.41419    -73.9 1.613e+04 4.432e-09
 27.42435    -76.6 1.377e+04 2.145e-09
 27.44400    -78.5 1.206e+04 1.315e-09
 27.46432    -79.7 1.106e+04 9.835e-10
 27.47997    -80.0 1.071e+04 8.633e-10
 27.49013    -79.8 1.059e+04 8.060e-10
 27.50497    -79.0 1.042e+04 7.436e-10
 27.52530    -78.1 1.037e+04 7.041e-10
 27.54562    -77.1 1.034e+04 6.746e-10
 27.55592    -76.2 1.032e+04 6.463e-10
 27.56608    -76.2 9.995e+03 5.300e-10
 27.58627    -75.4 9.941e+03 4.989e-10
 27.60660    -74.6 9.898e+03 4.788e-10
 27.63718    -73.5 9.856e+03 4.603e-10
 27.67752    -71.4 9.749e+03 4.247e-10
 27.69784    -71.3 9.368e+03 3.494e-10
 27.71858    -69.4 9.355e+03 3.319e-10
 27.75923    -67.5 9.340e+03 3.104e-10
 27.79988    -65.7 9.340e+03 2.900e-10
 27.82941    -63.9 9.361e+03 2.829e-10
 27.84973    -63.6 9.350e+03 2.725e-10
 27.88118    -61.8 9.375e+03 2.617e-10
 27.92183    -60.2 9.438e+03 2.630e-10
 27.96097    -58.7 9.653e+03 2.828e-10
 27.98130    -58.5 9.459e+03 2.477e-10
 28.00313    -57.1 9.599e+03 2.571e-10
 28.04378    -55.6 9.731e+03 2.678e-10
 28.08443    -54.2 9.772e+03 2.704e-10
 28.11286    -52.7 9.857e+03 2.525e-10
 28.13319    -52.5 9.704e+03 2.030e-10
 28.16573    -51.2 9.732e+03 1.876e-10
 28.20639    -50.0 9.734e+03 1.721e-10
 28.24443    -48.9 9.731e+03 1.583e-10
 28.26475    -48.7 9.854e+03 1.829e-10
 28.28769    -47.4 9.943e+03 1.956e-10
 28.32834    -46.1 1.004e+04 2.054e-10
 28.36899    -44.8 1.012e+04 2.104e-10
 28.39632    -43.7 1.021e+04 2.158e-10
 28.41664    -43.8 1.064e+04 3.140e-10
 28.44003    -43.0 1.057e+04 2.891e-10
 28.46025    -42.9 1.061e+04 3.044e-10
 28.47207    -42.6 1.071e+04 3.498e-10
 28.48223    -43.0 1.093e+04 4.247e-10
 28.50090    -42.9 1.109e+04 5.144e-10
 28.52123    -42.7 1.136e+04 6.606e-10
 28.53785    -42.6 1.162e+04 8.097e-10
 28.54801    -43.1 1.195e+04 1.005e-09
 28.56188    -43.0 1.209e+04 1.214e-09
 28.58220    -42.9 1.209e+04 1.405e-09
 28.60253    -42.6 1.201e+04 1.519e-09
 28.61380    -42.2 1.184e+04 1.485e-09
 28.62396    -42.5 1.171e+04 1.426e-09
 28.64318    -41.9 1.151e+04 1.251e-09
 28.66350    -41.6 1.136e+04 1.051e-09
 28.67958    -41.6 1.124e+04 8.645e-10
 28.68974    -42.3 1.110e+04 7.072e-10
 28.70415    -42.4 1.095e+04 5.813e-10
 28.72448    -42.4 1.075e+04 4.914e-10
 28.74480    -42.2 1.051e+04 4.270e-10
 28.75552    -41.8 1.024e+04 3.777e-10
 28.76569    -42.1 1.007e+04 3.589e-10
 28.78545    -41.5 9.877e+03 3.320e-10
 28.80578    -41.0 9.767e+03 3.136e-10
 28.82131    -40.7 9.724e+03 3.076e-10
 28.83147    -40.9 9.824e+03 3.209e-10
 28.84643    -40.7 9.888e+03 3.396e-10
 28.86676    -40.7 1.002e+04 3.901e-10
 28.89734    -40.5 1.025e+04 4.769e-10
 28.93809    -40.0 1.069e+04 6.958e-10
 28.96323    -39.7 1.106e+04 9.181e-10
 28.98356    -39.3 1.109e+04 9.267e-10
 29.01939    -39.5 1.123e+04 1.018e-09
 29.06004    -39.6 1.116e+04 1.008e-09
 29.09043    -39.5 1.071e+04 8.578e-10
 29.10476    -39.4 1.053e+04 7.565e-10
 29.11493    -39.1 1.063e+04 7.725e-10
 29.13098    -39.5 1.038e+04 6.772e-10
 29.15131    -39.7 1.023e+04 6.428e-10
 29.17055    -39.7 1.002e+04 6.114e-10
 29.18071    -39.6 1.036e+04 7.117e-10
 29.19196    -39.5 1.018e+04 6.967e-10
 29.21228    -39.1 9.983e+03 6.753e-10
 29.23261    -38.4 9.821e+03 6.453e-10
 29.24649    -37.8 9.691e+03 5.988e-10
 29.25665    -37.9 1.018e+04 7.766e-10
 29.27326    -37.4 1.007e+04 7.056e-10
 29.29358    -37.1 9.962e+03 6.315e-10
 29.31227    -36.7 9.859e+03 5.758e-10
 29.32244    -36.9 1.035e+04 7.578e-10
 29.33423    -36.5 1.027e+04 7.195e-10
 29.35456    -36.2 1.026e+04 7.130e-10
 29.37488    -36.0 1.030e+04 7.183e-10
 29.38822    -36.0 1.045e+04 7.790e-10
 29.39838    -36.3 1.082e+04 9.554e-10
 29.41553    -36.4 1.100e+04 1.073e-09
 29.43586    -36.3 1.120e+04 1.218e-09
 29.45400    -36.3 1.141e+04 1.377e-09
 29.46416    -36.8 1.161e+04 1.453e-09
 29.47651    -37.0 1.186e+04 1.628e-09
 29.49683    -37.6 1.223e+04 1.844e-09
 29.51716    -38.8 1.274e+04 2.131e-09
 29.52995    -40.5 1.331e+04 2.531e-09
 29.54011    -42.8 1.366e+04 2.864e-09
 29.55781    -44.4 1.392e+04 3.310e-09
 29.57813    -45.6 1.397e+04 3.471e-09
 29.59573    -46.5 1.376e+04 3.462e-09
 29.60589    -47.5 1.335e+04 2.919e-09
 29.61878    -48.4 1.290e+04 2.125e-09
 29.63911    -50.0 1.222e+04 1.381e-09
 29.65943    -52.5 1.130e+04 8.794e-10
 29.67168    -55.5 1.064e+04 7.021e-10
 29.68184    -58.5 1.065e+04 6.975e-10
 29.70008    -61.6 1.121e+04 8.237e-10
 29.72041    -64.2 1.210e+04 1.237e-09
 29.73746    -65.8 1.262e+04 1.816e-09
 29.74762    -67.4 1.322e+04 2.723e-09
 29.76106    -67.6 1.317e+04 3.072e-09
 29.78138    -67.4 1.305e+04 3.119e-09
 29.80171    -66.8 1.243e+04 2.483e-09
 29.81340    -66.2 1.171e+04 1.817e-09
 29.82357    -67.0 1.146e+04 1.423e-09
 29.84236    -67.2 1.067e+04 8.405e-10
 29.86268    -68.2 9.786e+03 4.717e-10
 29.87919    -69.4 8.955e+03 2.957e-10
 29.88935    -71.0 8.511e+03 2.456e-10
 29.91360    -70.3 8.221e+03 2.072e-10
 29.94516    -68.8 7.534e+03 1.468e-10
 29.96549    -69.1 7.587e+03 1.537e-10
 29.99499    -66.9 7.387e+03 1.312e-10
 30.03564    -64.8 7.295e+03 1.207e-10
 30.07629    -62.8 7.262e+03 1.178e-10
 30.09705    -60.7 7.256e+03 1.174e-10
 30.11738    -60.6 7.484e+03 1.411e-10
 30.15759    -58.6 7.541e+03 1.478e-10
 30.19824    -56.6 7.633e+03 1.597e-10
 30.22862    -54.7 7.711e+03 1.720e-10
 30.24895    -54.3 8.339e+03 2.768e-10
 30.27954    -52.2 8.468e+03 3.071e-10
 30.32019    -50.1 8.717e+03 3.571e-10
 30.36019    -48.5 9.259e+03 4.673e-10
 30.38051    -49.1 1.112e+04 1.060e-09
 30.39123    -48.4 1.087e+04 9.516e-10
 30.41146    -49.2 1.157e+04 1.252e-09
 30.43179    -50.0 1.225e+04 1.798e-09
 30.44610    -50.6 1.305e+04 2.634e-09
 30.45626    -50.0 1.434e+04 4.401e-09
 30.47244    -49.9 1.511e+04 5.535e-09
 30.49276    -50.1 1.598e+04 6.786e-09
 30.51188    -51.1 1.684e+04 8.064e-09
 30.52204    -50.7 1.697e+04 7.808e-09
 30.53341    -52.5 1.720e+04 8.239e-09
 30.55374    -54.0 1.714e+04 8.352e-09
 30.57406    -55.0 1.677e+04 7.932e-09
 30.58783    -55.3 1.613e+04 7.019e-09
 30.59799    -55.7 1.493e+04 4.365e-09
 30.61471    -55.7 1.438e+04 3.539e-09
 30.63504    -55.8 1.379e+04 2.682e-09
 30.65361    -56.2 1.316e+04 1.993e-09
 30.66377    -57.1 1.202e+04 1.348e-09
 30.67569    -57.5 1.141e+04 1.092e-09
 30.69601    -57.6 1.090e+04 9.262e-10
 30.71634    -57.5 1.061e+04 8.322e-10
 30.72955    -57.1 1.051e+04 7.906e-10
 30.73972    -56.8 1.024e+04 7.110e-10
 30.75699    -56.2 1.023e+04 6.877e-10
 30.77731    -55.6 1.025e+04 6.763e-10
 30.79534    -55.0 1.027e+04 6.752e-10
 30.80550    -55.2 1.009e+04 6.347e-10
 30.81796    -54.7 1.012e+04 6.341e-10
 30.83829    -54.3 1.025e+04 6.500e-10
 30.85861    -54.0 1.045e+04 7.045e-10
 30.87128    -53.7 1.068e+04 8.048e-10
 30.88144    -54.2 1.053e+04 7.677e-10
 30.89926    -54.1 1.081e+04 9.015e-10
 30.91959    -53.8 1.111e+04 1.098e-09
 30.93707    -53.3 1.148e+04 1.359e-09
 30.94723    -53.9 1.131e+04 1.279e-09
 30.96024    -53.4 1.169e+04 1.549e-09
 30.98056    -53.0 1.208e+04 1.848e-09
 31.00089    -52.8 1.248e+04 2.155e-09
 31.01301    -52.7 1.286e+04 2.459e-09
 31.02317    -52.7 1.211e+04 1.723e-09
 31.04154    -52.5 1.235e+04 1.757e-09
 31.06187    -52.4 1.251e+04 1.750e-09
 31.07879    -52.3 1.255e+04 1.644e-09
 31.08896    -53.3 1.147e+04 8.991e-10
 31.10252    -54.0 1.126e+04 7.954e-10
 31.12284    -54.8 1.093e+04 7.102e-10
 31.14317    -55.5 1.065e+04 6.638e-10
 31.15474    -55.8 1.053e+04 6.488e-10
 31.16490    -55.6 1.027e+04 5.671e-10
 31.18382    -55.3 1.039e+04 5.858e-10
 31.20414    -55.0 1.052e+04 5.969e-10
 31.22052    -54.7 1.066e+04 5.986e-10
 31.23068    -54.1 1.051e+04 5.559e-10
 31.24479    -53.7 1.061e+04 5.569e-10
 31.26512    -53.4 1.066e+04 5.525e-10
 31.28544    -53.0 1.071e+04 5.410e-10
 31.29647    -52.5 1.075e+04 5.378e-10
 31.30663    -52.1 1.071e+04 5.306e-10
 31.33635    -51.8 1.077e+04 5.402e-10
 31.36244    -50.5 1.066e+04 5.184e-10
 31.38277    -49.0 1.069e+04 4.800e-10
 31.41775    -48.4 1.085e+04 5.511e-10
 31.45840    -48.2 1.118e+04 7.339e-10
 31.49401    -48.5 1.192e+04 1.121e-09
 31.51434    -47.8 1.256e+04 1.555e-09
 31.52944    -48.7 1.289e+04 2.047e-09
 31.54967    -48.9 1.307e+04 2.475e-09
 31.56976    -49.0 1.309e+04 3.007e-09
 31.57992    -48.0 1.348e+04 3.248e-09
 31.59032    -47.3 1.328e+04 2.994e-09
 31.61064    -46.0 1.269e+04 2.146e-09
 31.63097    -45.5 1.221e+04 1.237e-09
 31.64571    -45.8 1.175e+04 6.270e-10
 31.65587    -46.3 1.165e+04 4.613e-10
 31.67162    -48.1 1.078e+04 2.619e-10
 31.70220    -48.8 1.003e+04 1.969e-10
 31.74295    -48.8 9.568e+03 1.472e-10
 31.77747    -47.7 9.137e+03 1.101e-10
 31.79779    -47.2 9.125e+03 1.145e-10
 31.82425    -46.2 9.012e+03 1.063e-10
 31.86490    -45.3 8.970e+03 1.065e-10
 31.90555    -44.3 8.930e+03 1.136e-10
 31.92936    -43.3 8.934e+03 1.257e-10
 31.94968    -42.8 8.955e+03 1.560e-10
 31.98685    -41.8 8.972e+03 1.600e-10
 32.02750    -41.0 9.038e+03 1.627e-10
 32.06092    -40.4 9.091e+03 1.620e-10
 32.08125    -40.1 9.031e+03 1.561e-10
 32.10880    -39.8 9.059e+03 1.493e-10
 32.14945    -39.6 9.075e+03 1.433e-10
 32.19010    -39.4 9.046e+03 1.372e-10
 32.21281    -39.2 8.982e+03 1.323e-10
 32.23314    -39.1 9.056e+03 1.594e-10
 32.27140    -38.8 8.961e+03 1.548e-10
 32.31205    -38.3 8.879e+03 1.420e-10
 32.34438    -38.0 8.839e+03 1.332e-10
 32.36470    -37.6 8.815e+03 1.262e-10
 32.39335    -37.3 8.791e+03 1.191e-10
 32.43400    -36.9 8.794e+03 1.184e-10
 32.47465    -36.7 8.882e+03 1.187e-10
 32.49627    -36.7 9.007e+03 1.268e-10
 32.51659    -36.7 9.083e+03 1.320e-10
 32.55596    -37.3 9.271e+03 1.559e-10
 32.59661    -38.1 9.481e+03 1.958e-10
 32.62783    -38.9 9.736e+03 2.631e-10
 32.64816    -39.1 1.013e+04 3.822e-10
 32.67791    -39.6 1.030e+04 4.559e-10
 32.71856    -39.9 1.049e+04 5.472e-10
 32.75921    -40.1 1.070e+04 6.571e-10
 32.79986    -40.2 1.070e+04 6.816e-10
 32.84051    -39.9 1.060e+04 6.784e-10
 32.88116    -39.2 1.037e+04 5.732e-10
 32.91129    -38.6 1.009e+04 4.295e-10
 32.93162    -38.1 9.760e+03 3.447e-10
 32.96246    -37.8 9.654e+03 2.849e-10
 33.00311    -37.6 9.637e+03 2.728e-10
 33.04286    -37.4 9.774e+03 3.060e-10
 33.06318    -36.6 9.717e+03 3.042e-10
 33.08441    -36.3 9.987e+03 3.883e-10
 33.12506    -36.0 1.015e+04 4.500e-10
 33.16571    -35.8 1.017e+04 4.605e-10
 33.19475    -35.4 1.001e+04 4.012e-10
 33.21507    -34.7 9.983e+03 3.890e-10
 33.24701    -34.1 9.705e+03 2.765e-10
 33.28766    -33.5 9.453e+03 1.859e-10
 33.31250    -32.8 9.283e+03 1.321e-10
 33.33083    -33.3 9.368e+03 1.399e-10
 33.34664    -32.8 9.426e+03 1.509e-10
 33.36896    -32.0 9.405e+03 1.378e-10
 33.40961    -31.0 9.398e+03 1.366e-10
 33.45026    -29.9 9.393e+03 1.395e-10
 33.47820    -28.7 9.317e+03 1.453e-10
 33.49853    -28.0 9.456e+03 1.523e-10
 33.53156    -26.6 9.401e+03 1.604e-10
 33.57221    -25.2 9.360e+03 1.624e-10
 33.60977    -23.6 9.213e+03 1.606e-10
 33.63009    -22.9 9.344e+03 1.619e-10
 33.65351    -21.3 9.210e+03 1.522e-10
 33.69416    -19.8 9.070e+03 1.366e-10
 33.73481    -18.2 8.950e+03 1.205e-10
 33.76166    -16.6 8.846e+03 1.067e-10
 33.78198    -15.9 8.901e+03 1.208e-10
 33.81611    -14.2 8.802e+03 1.080e-10
 33.85676    -12.4 8.737e+03 9.480e-11
 33.89322    -10.8 8.702e+03 8.550e-11
 33.91355     -9.9 8.725e+03 9.100e-11
 33.93806     -8.4 8.694e+03 8.491e-11
 33.97871     -7.0 8.675e+03 8.536e-11
 34.01936     -5.5 8.636e+03 9.500e-11
 34.04511     -3.9 8.598e+03 1.033e-10
 34.06544     -3.0 8.609e+03 1.003e-10
 34.10066     -1.4 8.589e+03 1.043e-10
 34.14131      0.0 8.554e+03 1.023e-10
 34.17668      1.1 8.568e+03 9.998e-11
 34.19701      1.7 8.664e+03 1.167e-10
 34.22261      2.2 8.705e+03 1.349e-10
 34.26326      2.8 8.812e+03 1.729e-10
 34.30391      3.7 9.085e+03 2.193e-10
 34.32857      4.2 9.252e+03 2.387e-10
 34.34890      4.9 9.254e+03 2.393e-10
 34.38521      4.7 9.205e+03 2.077e-10
 34.42586      3.9 9.130e+03 1.965e-10
 34.46014      3.6 9.101e+03 2.234e-10
 34.48046      4.3 9.100e+03 2.277e-10
 34.50716      4.3 9.232e+03 2.847e-10
 34.54781      5.2 9.266e+03 3.115e-10
 34.58846      6.1 9.135e+03 2.869e-10
 34.61203      6.9 8.827e+03 2.192e-10
 34.63235      7.6 9.040e+03 2.799e-10
 34.66976      8.5 8.700e+03 1.991e-10
 34.71041      9.5 8.437e+03 1.448e-10
 34.74359     10.7 8.287e+03 1.125e-10
 34.76392     11.0 8.627e+03 1.694e-10
 34.79172     12.2 8.487e+03 1.460e-10
 34.83237     13.6 8.386e+03 1.378e-10
 34.87302     15.3 8.334e+03 1.371e-10
 34.89548     17.0 8.303e+03 1.481e-10
 34.91581     17.5 8.593e+03 2.045e-10
 34.95432     19.2 8.620e+03 2.091e-10
 34.99497     20.9 8.733e+03 2.179e-10
 35.02705     22.6 8.808e+03 2.467e-10
 35.04737     22.6 8.806e+03 2.338e-10
 35.07627     24.3 8.849e+03 2.506e-10
 35.11692     26.2 8.845e+03 2.539e-10
 35.15757     28.0 8.808e+03 2.291e-10
 35.17894     29.6 8.695e+03 1.977e-10
 35.19926     29.6 8.594e+03 1.442e-10
 35.23887     31.1 8.437e+03 1.342e-10
 35.27952     32.8 8.245e+03 1.251e-10
 35.31050     34.8 8.108e+03 1.140e-10
 35.33083     35.1 8.123e+03 1.135e-10
 35.36082     37.0 8.089e+03 1.133e-10
 35.40147     38.9 8.057e+03 1.159e-10
 35.44207     40.9 8.051e+03 1.191e-10
 35.48272     43.2 8.288e+03 1.686e-10
 35.52342     45.0 8.333e+03 1.832e-10
 35.56407     46.8 8.400e+03 1.942e-10
 35.59396     48.5 8.464e+03 1.997e-10
 35.61429     49.0 8.641e+03 2.495e-10
 35.64537     50.5 8.671e+03 2.427e-10
 35.68602     51.9 8.656e+03 2.362e-10
 35.72553     53.4 8.584e+03 2.278e-10
 35.74585     53.7 8.714e+03 2.581e-10
 35.76732     55.1 8.604e+03 2.327e-10
 35.80797     56.3 8.533e+03 2.127e-10
 35.84862     57.5 8.562e+03 2.148e-10
 35.87742     58.3 8.663e+03 2.381e-10
 35.89774     58.3 8.959e+03 3.027e-10
 35.92992     59.4 9.167e+03 3.837e-10
 35.97057     60.8 9.264e+03 4.397e-10
 36.00898     61.8 9.319e+03 4.433e-10
 36.02931     62.0 9.426e+03 4.565e-10
 36.05187     62.6 9.313e+03 3.980e-10
 36.09252     62.9 9.267e+03 3.575e-10
 36.13317     63.2 9.282e+03 3.601e-10
 36.16087     63.6 9.434e+03 4.074e-10
 36.18120     63.7 9.802e+03 5.558e-10
 36.21447     64.6 1.011e+04 6.832e-10
 36.25512     65.4 1.031e+04 7.332e-10
 36.29244     66.2 1.029e+04 6.823e-10
 36.31276     66.2 1.027e+04 6.585e-10
 36.33642     66.9 1.003e+04 4.810e-10
 36.37707     67.0 9.797e+03 3.287e-10
 36.41772     66.9 9.769e+03 2.971e-10
 36.44433     66.6 9.850e+03 3.241e-10
 36.46465     66.8 9.382e+03 2.066e-10
 36.49902     66.9 9.570e+03 2.520e-10
 36.53967     67.2 9.647e+03 2.833e-10
 36.57589     67.6 9.646e+03 2.762e-10
 36.59622     68.1 9.369e+03 2.408e-10
 36.62097     68.8 9.353e+03 2.282e-10
 36.66162     69.5 9.358e+03 1.912e-10
 36.70227     70.0 9.414e+03 1.610e-10
 36.72778     70.6 9.432e+03 1.611e-10
 36.74811     71.4 9.309e+03 1.474e-10
 36.78357     72.2 9.274e+03 1.444e-10
 36.82422     73.1 9.271e+03 1.432e-10
 36.85935     74.2 9.299e+03 1.404e-10
 36.87968     75.1 9.235e+03 1.393e-10
 36.90552     76.4 9.249e+03 1.329e-10
 36.94618     77.7 9.320e+03 1.223e-10
 36.98683     79.0 9.431e+03 1.181e-10
 37.01124     80.4 9.477e+03 1.230e-10
 37.03157     81.6 9.417e+03 1.003e-10
 37.06813     83.0 9.459e+03 1.053e-10
 37.10878     84.5 9.512e+03 1.198e-10
 37.14281     86.1 9.567e+03 1.439e-10
 37.16313     87.2 9.479e+03 1.125e-10
 37.19008     89.0 9.524e+03 1.399e-10
 37.23073     90.9 9.591e+03 1.633e-10
 37.27138     92.8 9.655e+03 1.707e-10
 37.29470     94.6 9.659e+03 1.647e-10
 37.31502     95.7 9.630e+03 1.594e-10
 37.35268     97.4 9.646e+03 1.555e-10
 37.39333     99.1 9.666e+03 1.574e-10
 37.42626    100.8 9.780e+03 1.749e-10
 37.44659    101.9 9.810e+03 1.779e-10
 37.47463    103.2 1.020e+04 2.370e-10
 37.51528    103.2 1.058e+04 3.258e-10
 37.54567    103.4 1.101e+04 5.347e-10
 37.56590    103.7 1.138e+04 8.175e-10
 37.57796    104.4 1.178e+04 1.120e-09
 37.58812    104.8 1.171e+04 1.074e-09
 37.60655    105.2 1.194e+04 1.144e-09
 37.62687    105.3 1.191e+04 1.110e-09
 37.64374    105.5 1.175e+04 9.586e-10
 37.65390    105.9 1.162e+04 8.944e-10
 37.66752    106.0 1.132e+04 6.540e-10
 37.68785    105.6 1.101e+04 4.821e-10
 37.70817    105.5 1.060e+04 3.386e-10
 37.71969    105.5 1.048e+04 3.095e-10
 37.72995    106.3 1.056e+04 3.393e-10
 37.75918    106.5 1.008e+04 2.407e-10
 37.79983    107.3 1.003e+04 2.402e-10
 37.84048    108.2 1.014e+04 2.718e-10
 37.86161    109.0 1.052e+04 3.923e-10
 37.88193    110.2 1.036e+04 3.514e-10
 37.92178    111.1 1.083e+04 5.354e-10
 37.96243    112.1 1.126e+04 7.622e-10
 37.99317    112.9 1.143e+04 8.932e-10
 38.01350    114.1 1.138e+04 8.510e-10
 38.04373    114.9 1.134e+04 8.514e-10
 38.08438    115.7 1.121e+04 7.624e-10
 38.12474    116.6 1.097e+04 6.101e-10
 38.14506    117.9 1.101e+04 6.305e-10
 38.16568    118.9 1.073e+04 5.219e-10
 38.20633    120.1 1.065e+04 5.143e-10
 38.24698    121.3 1.070e+04 5.599e-10
 38.27663    122.4 1.089e+04 7.011e-10
 38.29696    124.1 1.091e+04 6.980e-10
 38.32828    125.1 1.125e+04 9.192e-10
 38.36893    125.9 1.150e+04 1.135e-09
 38.40820    126.5 1.159e+04 1.210e-09
 38.42842    127.2 1.187e+04 1.405e-09
 38.45013    128.3 1.192e+04 1.442e-09
 38.49088    128.5 1.139e+04 1.157e-09
 38.53153    128.9 1.064e+04 8.015e-10
 38.56009    129.4 9.918e+03 5.336e-10
 38.58041    130.3 1.013e+04 5.930e-10
 38.61283    130.8 9.395e+03 3.830e-10
 38.65348    131.7 8.947e+03 2.963e-10
 38.69165    133.0 8.871e+03 2.921e-10
 38.71198    133.5 8.880e+03 2.957e-10
 38.73478    135.2 8.883e+03 2.997e-10
 38.77543    136.9 8.946e+03 3.188e-10
 38.81608    138.6 9.126e+03 3.646e-10
 38.84354    140.1 9.360e+03 4.282e-10
 38.86387    140.6 9.413e+03 4.441e-10
 38.89738    142.1 9.563e+03 4.848e-10
 38.93803    143.3 9.602e+03 4.853e-10
 38.97511    144.4 9.581e+03 4.675e-10
 38.99543    144.9 9.437e+03 4.241e-10
 39.01933    145.9 9.365e+03 3.917e-10
 39.05998    147.0 9.380e+03 3.828e-10
 39.10064    147.8 9.462e+03 3.920e-10
 39.12690    147.8 9.514e+03 4.078e-10
 39.14723    148.5 9.555e+03 4.203e-10
 39.17168    148.1 9.875e+03 5.365e-10
 39.19190    148.2 1.016e+04 6.507e-10
 39.20275    148.1 1.043e+04 7.708e-10
 39.21291    148.4 1.043e+04 7.710e-10
 39.23255    148.2 1.066e+04 8.708e-10
 39.25288    147.8 1.097e+04 8.897e-10
 39.26853    146.8 1.103e+04 8.803e-10
 39.27869    147.0 1.106e+04 8.952e-10
 39.30379    146.2 1.118e+04 8.921e-10
 39.34454    144.0 1.117e+04 8.185e-10
 39.38519    141.6 1.104e+04 7.381e-10
 39.41045    139.0 1.088e+04 6.942e-10
 39.43078    139.9 1.072e+04 6.226e-10
 39.46649    137.8 1.066e+04 6.213e-10
 39.50714    135.8 1.082e+04 6.594e-10
 39.54202    133.7 1.141e+04 8.058e-10
 39.56235    136.3 1.074e+04 6.413e-10
 39.58844    135.0 1.141e+04 8.077e-10
 39.61787    133.1 1.231e+04 1.075e-09
 39.62793    134.8 1.156e+04 8.442e-10
 39.63905    134.1 1.222e+04 1.029e-09
 39.65938    134.1 1.274e+04 1.232e-09
 39.67970    133.2 1.381e+04 1.781e-09
 39.69372    132.1 1.489e+04 2.783e-09
 39.70388    134.3 1.377e+04 1.701e-09
 39.72036    133.0 1.489e+04 2.694e-09
 39.74068    131.9 1.576e+04 4.138e-09
 39.75950    131.3 1.632e+04 5.895e-09
 39.76966    132.7 1.577e+04 4.190e-09
 39.78133    132.3 1.628e+04 5.895e-09
 39.80166    131.9 1.636e+04 6.739e-09
 39.82198    131.7 1.612e+04 6.432e-09
 39.83544    132.0 1.536e+04 5.160e-09
 39.84561    133.1 1.527e+04 4.844e-09
 39.86263    133.3 1.447e+04 3.564e-09
 39.88296    133.2 1.361e+04 2.428e-09
 39.90123    132.5 1.277e+04 1.681e-09
 39.91139    133.6 1.275e+04 1.698e-09
 39.92361    132.9 1.205e+04 1.302e-09
 39.94393    132.5 1.142e+04 1.028e-09
 39.95864    132.3 1.096e+04 8.534e-10
 39.96880    132.1 1.070e+04 7.627e-10
 39.97717    132.0 1.040e+04 6.799e-10
 39.98733    133.2 1.052e+04 7.249e-10
 40.00491    133.1 1.032e+04 6.758e-10
 40.02523    132.9 1.035e+04 6.815e-10
 40.04295    132.4 1.059e+04 7.329e-10
 40.05312    133.6 1.042e+04 6.988e-10
 40.06588    132.8 1.084e+04 8.015e-10
 40.08621    131.6 1.149e+04 1.053e-09
 40.10653    130.3 1.217e+04 1.481e-09
 40.11890    129.2 1.280e+04 2.050e-09
 40.12906    130.1 1.257e+04 1.771e-09
 40.14718    129.0 1.307e+04 2.326e-09
 40.16751    128.0 1.330e+04 2.615e-09
 40.18468    127.1 1.323e+04 2.530e-09
 40.19484    127.7 1.334e+04 2.653e-09
 40.20816    126.9 1.318e+04 2.451e-09
 40.22848    126.1 1.274e+04 1.935e-09
 40.24881    125.0 1.212e+04 1.355e-09
 40.26063    123.6 1.144e+04 8.985e-10
 40.27079    124.5 1.188e+04 1.150e-09
 40.28946    122.8 1.116e+04 7.550e-10
 40.30978    121.1 1.048e+04 5.611e-10
 40.32641    119.8 1.014e+04 5.302e-10
 40.33657    120.5 1.032e+04 5.662e-10
 40.35043    119.6 1.025e+04 5.685e-10
 40.37076    118.9 1.030e+04 6.052e-10
 40.39108    118.3 1.057e+04 7.232e-10
 40.40236    117.8 1.096e+04 9.190e-10
 40.41252    118.2 1.106e+04 9.651e-10
 40.43173    117.9 1.148e+04 1.239e-09
 40.45206    117.8 1.190e+04 1.532e-09
 40.46814    117.6 1.234e+04 1.806e-09
 40.47830    118.2 1.244e+04 1.879e-09
 40.49271    117.7 1.291e+04 2.114e-09
 40.51303    115.6 1.402e+04 2.602e-09
 40.53336    111.9 1.592e+04 4.006e-09
 40.54408    108.5 1.711e+04 6.602e-09
 40.55425    109.3 1.718e+04 6.414e-09
 40.57401    107.3 1.758e+04 9.605e-09
 40.58920    107.0 1.760e+04 1.112e-08
 40.59932    106.7 1.768e+04 1.158e-08
 40.60948    106.7 1.743e+04 1.090e-08
 40.61485    106.4 1.715e+04 1.011e-08
 40.61993    106.3 1.734e+04 1.062e-08
 40.62981    106.5 1.669e+04 8.569e-09
 40.63997    106.3 1.652e+04 7.927e-09
 40.65526    106.2 1.629e+04 6.495e-09
 40.67563    103.7 1.580e+04 4.295e-09
 40.69596    100.5 1.504e+04 3.426e-09
 40.71628     97.5 1.389e+04 2.909e-09
 40.73661     96.0 1.337e+04 2.736e-09
 40.75159     95.3 1.315e+04 2.600e-09
 40.76176     95.1 1.307e+04 2.536e-09
 40.77726     94.7 1.271e+04 2.224e-09
 40.79759     94.4 1.219e+04 1.763e-09
 40.81738     93.9 1.161e+04 1.292e-09
 40.82754     93.6 1.140e+04 1.149e-09
 40.83824     92.8 1.079e+04 7.475e-10
 40.85856     91.2 1.021e+04 4.923e-10
 40.87889     90.6 9.810e+03 3.883e-10
 40.89332     90.5 9.782e+03 3.832e-10
 40.90348     89.9 9.439e+03 3.237e-10
 40.92980     89.3 9.385e+03 3.167e-10
 40.95930     86.2 1.003e+04 4.413e-10
 40.97963     87.0 9.547e+03 3.629e-10
 41.00093     85.6 9.818e+03 5.198e-10
 41.02116     85.3 9.752e+03 5.360e-10
 41.05175     85.9 9.497e+03 4.334e-10
 41.09087     84.8 9.269e+03 3.228e-10
 41.11119     85.7 9.228e+03 3.213e-10
 41.13314     84.5 9.022e+03 2.912e-10
 41.17379     84.3 8.955e+03 2.919e-10
 41.21444     84.5 8.929e+03 2.966e-10
 41.24276     84.9 8.791e+03 2.704e-10
 41.26308     85.2 8.799e+03 2.710e-10
 41.29575     85.3 8.615e+03 2.214e-10
 41.33640     85.3 8.566e+03 1.883e-10
 41.37432     84.8 8.709e+03 1.990e-10
 41.39465     84.2 8.815e+03 2.262e-10
 41.41770     81.5 9.651e+03 3.352e-10
 41.45835     78.2 1.100e+04 7.327e-10
 41.49900     76.3 1.164e+04 1.014e-09
 41.52621     74.1 1.139e+04 8.769e-10
 41.54654     74.0 1.046e+04 4.931e-10
 41.58030     72.5 1.011e+04 4.438e-10
 41.62095     71.9 1.039e+04 4.559e-10
 41.65134     71.0 1.104e+04 6.433e-10
 41.66775     67.8 1.249e+04 1.123e-09
 41.67791     68.6 1.219e+04 9.406e-10
 41.69189     65.9 1.313e+04 1.729e-09
 41.71221     65.1 1.330e+04 2.683e-09
 41.73254     65.8 1.338e+04 3.213e-09
 41.74369     66.3 1.322e+04 3.204e-09
 41.75385     66.3 1.322e+04 3.189e-09
 41.77319     66.5 1.340e+04 2.457e-09
 41.79351     64.3 1.381e+04 1.755e-09
 41.80947     60.0 1.229e+04 1.071e-09
 41.81964     60.6 1.251e+04 1.119e-09
 41.83416     56.7 1.116e+04 7.988e-10
 41.85449     54.6 1.084e+04 7.268e-10
 41.87481     51.9 1.139e+04 7.926e-10
 41.88542     46.8 1.258e+04 1.123e-09
 41.89558     46.2 1.276e+04 1.280e-09
 41.91547     42.2 1.333e+04 2.104e-09
 41.93579     40.2 1.366e+04 2.976e-09
 41.95120     39.1 1.391e+04 3.275e-09
 41.96136     39.0 1.388e+04 3.180e-09
 41.97644     37.0 1.390e+04 2.588e-09
 41.99677     32.0 1.305e+04 1.333e-09
 42.01698     24.0 1.137e+04 8.348e-10
 42.02715     23.7 1.134e+04 8.127e-10
 42.03742     18.7 1.117e+04 7.857e-10
 42.05774     15.0 1.181e+04 1.078e-09
 42.07807     12.2 1.225e+04 1.512e-09
 42.09293     10.1 1.229e+04 1.722e-09
 42.10309      9.7 1.250e+04 1.937e-09
 42.11872      8.2 1.245e+04 1.982e-09
 42.13904      6.8 1.222e+04 1.841e-09
 42.15871      4.5 1.205e+04 1.439e-09
 42.16887      4.0 1.242e+04 1.535e-09
 42.17969     -0.8 1.218e+04 1.200e-09
 42.20002     -6.2 1.203e+04 1.129e-09
 42.22034    -10.3 1.198e+04 1.257e-09
 42.23466    -12.6 1.231e+04 1.677e-09
 42.24482    -13.6 1.270e+04 2.080e-09
 42.26099    -14.1 1.289e+04 2.347e-09
 42.28132    -14.5 1.297e+04 2.348e-09
 42.30044    -14.9 1.267e+04 1.959e-09
 42.31060    -15.7 1.271e+04 1.807e-09
 42.32197    -17.0 1.227e+04 1.258e-09
 42.34229    -18.5 1.170e+04 8.459e-10
 42.36262    -20.1 1.109e+04 5.925e-10
 42.37639    -21.4 1.053e+04 4.407e-10
 42.38655    -23.0 1.023e+04 3.857e-10
 42.40327    -23.5 9.882e+03 3.358e-10
 42.43385    -23.2 9.657e+03 3.065e-10
 42.47460    -21.3 9.265e+03 2.454e-10
 42.50815    -19.9 8.868e+03 1.908e-10
 42.52847    -21.1 8.812e+03 1.690e-10
 42.55590    -19.7 8.508e+03 1.387e-10
 42.59655    -18.2 8.429e+03 1.254e-10
 42.63720    -16.6 8.376e+03 1.185e-10
 42.66004    -15.1 8.366e+03 1.168e-10
 42.68036    -15.8 8.679e+03 1.485e-10
 42.71850    -14.3 9.021e+03 1.784e-10
 42.75915    -12.9 9.442e+03 2.342e-10
 42.79160    -11.1 9.995e+03 3.339e-10
 42.81183    -10.9 1.011e+04 3.685e-10
 42.83009     -9.7 1.036e+04 4.427e-10
 42.85042     -9.6 1.058e+04 5.344e-10
 42.86735     -9.1 1.076e+04 6.597e-10
 42.87751     -9.6 1.083e+04 7.443e-10
 42.89107     -9.0 1.087e+04 8.064e-10
 42.91139     -8.3 1.090e+04 8.452e-10
 42.93172     -7.6 1.093e+04 8.695e-10
 42.94330     -6.8 1.097e+04 8.954e-10
 42.95346     -7.5 1.111e+04 9.633e-10
 42.97237     -7.5 1.133e+04 1.028e-09
 42.99270     -8.7 1.217e+04 1.256e-09
 43.00908    -11.6 1.374e+04 1.946e-09
 43.01924    -13.7 1.415e+04 2.296e-09
 43.03335    -16.9 1.561e+04 3.977e-09
 43.05367    -19.6 1.689e+04 6.216e-09
 43.07400    -22.1 1.797e+04 7.806e-09
 43.08503    -24.8 1.867e+04 8.323e-09
 43.09519    -27.8 1.818e+04 7.531e-09
 43.10952    -30.7 1.787e+04 6.914e-09
 43.11782    -32.7 1.791e+04 6.522e-09
 43.12290    -34.8 1.755e+04 6.095e-09
 43.13492    -38.4 1.694e+04 5.409e-09
 43.15081    -45.5 1.592e+04 4.482e-09
 43.16092    -48.1 1.611e+04 4.696e-09
 43.17044    -52.4 1.549e+04 4.482e-09
 43.18060    -53.4 1.552e+04 4.526e-09
 43.18868    -56.0 1.533e+04 4.559e-09
 43.19376    -56.6 1.561e+04 5.058e-09
 43.20093    -57.8 1.577e+04 5.360e-09
 43.21109    -59.5 1.579e+04 5.661e-09
 43.22125    -60.4 1.591e+04 5.885e-09
 43.22666    -61.8 1.593e+04 5.996e-09
 43.23174    -62.8 1.644e+04 7.112e-09
 43.24158    -64.0 1.633e+04 6.747e-09
 43.25174    -65.3 1.622e+04 6.009e-09
 43.25955    -66.6 1.620e+04 5.486e-09
 43.26463    -67.8 1.624e+04 5.445e-09
 43.27668    -68.3 1.600e+04 4.917e-09
 43.28689    -68.1 1.591e+04 4.768e-09
 43.29254    -70.4 1.527e+04 3.647e-09
 43.30270    -73.6 1.533e+04 3.253e-09
 43.31790    -75.9 1.401e+04 2.278e-09
 43.33822    -76.8 1.316e+04 1.736e-09
 43.35832    -76.8 1.269e+04 1.404e-09
 43.36848    -78.9 1.261e+04 1.290e-09
 43.37887    -78.4 1.243e+04 1.137e-09
 43.39920    -78.0 1.238e+04 1.057e-09
 43.41952    -77.6 1.244e+04 1.032e-09
 43.43426    -77.1 1.254e+04 1.046e-09
 43.44443    -78.0 1.255e+04 1.078e-09
 43.46017    -77.2 1.253e+04 1.076e-09
 43.48998    -75.0 1.263e+04 1.110e-09
 43.51040    -76.4 1.264e+04 1.110e-09
 43.53151    -74.3 1.276e+04 1.164e-09
 43.57216    -72.7 1.289e+04 1.214e-09
 43.61281    -71.3 1.299e+04 1.237e-09
 43.64197    -70.1 1.301e+04 1.241e-09
 43.66230    -71.3 1.279e+04 1.052e-09
 43.69411    -70.2 1.271e+04 1.023e-09
 43.73476    -69.5 1.240e+04 8.916e-10
 43.77354    -68.8 1.194e+04 7.085e-10
 43.79386    -69.5 1.184e+04 6.511e-10
 43.81606    -68.7 1.146e+04 5.557e-10
 43.85671    -67.6 1.105e+04 4.377e-10
 43.89736    -66.2 1.065e+04 3.294e-10
 43.92543    -64.6 1.028e+04 2.406e-10
 43.94575    -64.6 1.027e+04 2.421e-10
 43.97866    -62.8 9.958e+03 1.698e-10
 44.01931    -60.9 9.734e+03 1.262e-10
 44.05699    -59.0 9.569e+03 1.052e-10
 44.07732    -58.7 9.561e+03 1.021e-10
 44.10061    -56.6 9.466e+03 9.609e-11
 44.14126    -54.4 9.442e+03 9.512e-11
 44.18191    -52.2 9.436e+03 9.599e-11
 44.20888    -50.2 9.437e+03 1.031e-10
 44.22921    -49.9 9.465e+03 1.018e-10
 44.26321    -47.9 9.462e+03 1.134e-10
 44.30386    -45.8 9.450e+03 1.246e-10
 44.34045    -43.8 9.438e+03 1.339e-10
 44.36077    -43.7 9.477e+03 1.342e-10
 44.38516    -41.6 9.463e+03 1.413e-10
 44.42581    -39.6 9.473e+03 1.462e-10
 44.46646    -37.6 9.476e+03 1.507e-10
 44.49234    -35.6 9.504e+03 1.559e-10
 44.51266    -35.5 9.531e+03 1.559e-10
 44.54776    -33.5 9.583e+03 1.607e-10
 44.58841    -31.7 9.640e+03 1.725e-10
 44.62390    -29.9 9.759e+03 2.009e-10
 44.64423    -29.7 9.805e+03 1.944e-10
 44.66971    -27.9 9.949e+03 2.418e-10
 44.71036    -26.1 1.015e+04 3.125e-10
 44.75101    -24.2 1.036e+04 3.877e-10
 44.77579    -22.2 1.049e+04 4.284e-10
 44.79612    -21.9 1.058e+04 4.547e-10
 44.83231    -20.0 1.066e+04 4.765e-10
 44.87296    -18.2 1.068e+04 4.810e-10
 44.90736    -16.3 1.066e+04 4.617e-10
 44.92769    -15.3 1.084e+04 4.999e-10
 44.94400    -14.0 1.078e+04 4.700e-10
 44.96423    -13.7 1.075e+04 4.628e-10
 44.99481    -11.9 1.069e+04 4.402e-10
 45.03556    -10.2 1.052e+04 3.926e-10
 45.05925     -8.5 1.047e+04 3.640e-10
 45.07958     -7.8 1.058e+04 4.001e-10
 45.11686     -6.1 1.058e+04 3.884e-10
 45.15751     -4.6 1.059e+04 3.850e-10
 45.19082     -3.1 1.063e+04 3.963e-10
 45.21114     -2.6 1.101e+04 4.969e-10
 45.23881     -1.2 1.107e+04 5.454e-10
 45.27946      0.1 1.107e+04 5.575e-10
 45.30985      0.9 1.115e+04 6.238e-10
 45.33008      1.3 1.102e+04 5.897e-10
 45.34251      1.7 1.091e+04 5.558e-10
 45.35267      1.7 1.113e+04 6.836e-10
 45.37073      1.8 1.100e+04 6.417e-10
 45.40132      2.6 1.092e+04 6.187e-10
 45.44206      3.9 1.060e+04 5.423e-10
 45.47427      5.0 1.040e+04 4.698e-10
 45.49460      5.0 1.051e+04 5.249e-10
 45.52336      5.9 1.033e+04 4.418e-10
 45.56401      6.9 1.028e+04 4.157e-10
 45.60466      8.0 1.028e+04 4.129e-10
 45.62616      9.2 1.028e+04 4.257e-10
 45.64649      9.2 1.025e+04 4.156e-10
 45.68597     10.5 1.036e+04 4.733e-10
 45.72662     12.0 1.050e+04 5.441e-10
 45.75773     13.5 1.063e+04 6.048e-10
 45.77805     13.0 1.100e+04 7.535e-10
 45.80792     13.9 1.133e+04 8.843e-10
 45.83358     15.4 1.157e+04 9.461e-10
 45.84364     14.1 1.193e+04 1.108e-09
 45.85853     12.5 1.313e+04 1.451e-09
 45.87886     10.5 1.505e+04 2.563e-09
 45.89918      8.4 1.671e+04 4.786e-09
 45.91951      5.5 1.778e+04 8.104e-09
 45.93983      4.3 1.821e+04 1.019e-08
 45.96016      3.1 1.811e+04 1.026e-08
 45.97521      2.1 1.756e+04 8.744e-09
 45.98537      0.3 1.626e+04 5.908e-09
 46.00081     -0.6 1.532e+04 4.356e-09
 46.02113     -1.6 1.410e+04 2.805e-09
 46.04099     -2.8 1.320e+04 1.844e-09
 46.05115     -3.7 1.302e+04 1.742e-09
 46.06178     -4.2 1.248e+04 1.362e-09
 46.08211     -4.5 1.209e+04 1.158e-09
 46.10243     -4.5 1.191e+04 1.070e-09
 46.11693     -4.4 1.188e+04 1.040e-09
 46.12710     -4.9 1.181e+04 1.021e-09
 46.14308     -4.9 1.178e+04 1.011e-09
 46.16341     -4.8 1.178e+04 1.009e-09
 46.18272     -4.8 1.178e+04 1.015e-09
 46.19298     -5.0 1.172e+04 1.030e-09
 46.21442     -4.3 1.171e+04 1.023e-09
 46.25507     -3.6 1.149e+04 8.521e-10
 46.29572     -3.1 1.103e+04 5.805e-10
 46.32464     -2.8 1.056e+04 3.889e-10
 46.34497     -2.9 1.042e+04 3.790e-10
 46.37702     -2.3 1.024e+04 3.085e-10
 46.41767     -1.3 1.012e+04 2.842e-10
 46.45621      0.0 1.005e+04 2.786e-10
 46.47653     -0.1 1.019e+04 3.275e-10
 46.49897      1.3 1.005e+04 3.137e-10
 46.53962      2.8 9.932e+03 2.984e-10
 46.58027      4.4 9.834e+03 2.811e-10
 46.60517      6.1 9.752e+03 2.605e-10
 46.61267      5.3 9.622e+03 2.268e-10
 46.62842      4.7 9.622e+03 2.288e-10
 46.66157      6.2 9.572e+03 2.177e-10
 46.70222      7.7 9.578e+03 2.164e-10
 46.73966      9.0 9.665e+03 2.377e-10
 46.75999      8.0 9.787e+03 2.845e-10
 46.78352      9.1 9.969e+03 3.537e-10
 46.82417     10.2 1.019e+04 4.301e-10
 46.86482     10.9 1.040e+04 4.948e-10
 46.89155     11.3 1.051e+04 5.158e-10
 46.90162     11.0 1.060e+04 5.589e-10
 46.91544     10.9 1.062e+04 5.600e-10
 46.94602     10.4 1.058e+04 5.255e-10
 46.98677     10.5 1.044e+04 4.903e-10
 47.02312     10.7 1.020e+04 4.241e-10
 47.04344      9.4 1.032e+04 4.557e-10
 47.06807      9.7 1.008e+04 3.741e-10
 47.10872     10.2 9.905e+03 2.979e-10
 47.14937     10.6 9.746e+03 2.437e-10
 47.17501     10.8 9.704e+03 2.268e-10
 47.19533      9.4 9.833e+03 2.465e-10
 47.23067      9.8 9.836e+03 2.515e-10
 47.27132     10.3 9.901e+03 2.882e-10
 47.30657     11.0 1.002e+04 3.252e-10
 47.32690     10.1 9.976e+03 3.146e-10
 47.35262     10.6 1.012e+04 3.334e-10
 47.39327     10.6 1.025e+04 3.606e-10
 47.43392     10.4 1.040e+04 4.271e-10
 47.45846     10.5 1.052e+04 5.224e-10
 47.47879      9.9 1.067e+04 5.848e-10
 47.50496     10.7 1.096e+04 7.467e-10
 47.52405     10.4 1.094e+04 7.878e-10
 47.53421      9.9 1.093e+04 7.846e-10
 47.54552     10.4 1.094e+04 8.058e-10
 47.56584     10.5 1.075e+04 7.071e-10
 47.58617     10.0 1.055e+04 5.546e-10
 47.60000      9.9 1.042e+04 5.058e-10
 47.61026      9.1 1.031e+04 4.622e-10
 47.63717      8.9 9.847e+03 3.444e-10
 47.67782      8.9 9.583e+03 2.841e-10
 47.71847      9.1 9.441e+03 2.551e-10
 47.74192      9.7 9.373e+03 2.471e-10
 47.76225      9.6 9.092e+03 1.904e-10
 47.79977     10.4 9.054e+03 1.878e-10
 47.84043     11.3 9.088e+03 2.134e-10
 47.87349     12.0 9.288e+03 2.736e-10
 47.89381     11.9 9.045e+03 2.119e-10
 47.92173     12.5 9.450e+03 2.965e-10
 47.94933     13.0 9.864e+03 3.965e-10
 47.95940     12.9 9.859e+03 3.743e-10
 47.97234     12.6 9.895e+03 3.955e-10
 47.99267     12.7 1.019e+04 5.198e-10
 48.01299     12.0 1.037e+04 6.092e-10
 48.02518     12.2 1.096e+04 8.028e-10
 48.03534     11.9 1.101e+04 8.275e-10
 48.05364     11.2 1.129e+04 9.782e-10
 48.07397     11.3 1.178e+04 1.227e-09
 48.09096     11.1 1.205e+04 1.387e-09
 48.10113     11.2 1.202e+04 1.298e-09
 48.11462     11.1 1.227e+04 1.354e-09
 48.13494     10.6 1.234e+04 1.366e-09
 48.15684     10.4 1.207e+04 1.248e-09
 48.17727      9.9 1.154e+04 9.604e-10
 48.20628     10.3 1.115e+04 8.332e-10
 48.24693     11.1 1.073e+04 6.040e-10
 48.28758     11.7 1.028e+04 3.953e-10
 48.30883     12.3 9.980e+03 3.073e-10
 48.32916     12.5 9.643e+03 2.069e-10
 48.36888     13.6 9.606e+03 2.010e-10
 48.40953     14.7 9.700e+03 2.476e-10
 48.44040     16.4 9.923e+03 3.195e-10
 48.46072     16.2 9.548e+03 2.197e-10
 48.49083     17.8 9.780e+03 2.756e-10
 48.53148     19.2 9.951e+03 3.103e-10
 48.57196     20.7 1.000e+04 3.227e-10
 48.61261     21.4 1.013e+04 2.969e-10
 48.64317     21.1 1.053e+04 3.854e-10
 48.65788     19.4 1.147e+04 5.704e-10
 48.66804     19.3 1.121e+04 5.559e-10
 48.68372     18.5 1.173e+04 8.613e-10
 48.70405     18.4 1.213e+04 1.288e-09
 48.72366     19.3 1.242e+04 1.767e-09
 48.73382     20.1 1.189e+04 1.311e-09
 48.74470     20.8 1.246e+04 1.451e-09
 48.76502     17.6 1.517e+04 1.705e-09
 48.78535      8.0 1.915e+04 3.980e-09
 48.79960      2.0 1.883e+04 1.042e-08
 48.80977      1.3 1.875e+04 9.521e-09
 48.82087      1.3 1.902e+04 1.874e-08
 48.83098      0.3 1.917e+04 2.459e-08
 48.83748      1.4 1.994e+04 3.913e-08
 48.84256      1.4 1.994e+04 3.904e-08
 48.85131      1.7 2.026e+04 4.333e-08
 48.86147      2.7 2.055e+04 4.301e-08
 48.87037      3.2 2.076e+04 2.598e-08
 48.87545      3.2 2.073e+04 2.671e-08
 48.88692      1.4 2.016e+04 1.393e-08
 48.90730     -7.1 1.736e+04 4.300e-09
 48.92762    -18.0 1.623e+04 2.938e-09
 48.94133    -27.4 2.005e+04 5.777e-09
 48.95149    -24.2 1.952e+04 3.493e-09
 48.96314    -30.5 2.087e+04 1.012e-08
 48.97326    -32.8 2.144e+04 1.516e-08
 48.97921    -35.0 2.204e+04 2.430e-08
 48.98429    -34.2 2.176e+04 2.206e-08
 48.99358    -36.5 2.259e+04 3.301e-08
 49.00374    -38.7 2.308e+04 4.050e-08
 49.01210    -41.3 2.322e+04 4.141e-08
 49.01718    -39.7 2.305e+04 4.388e-08
 49.02407    -42.4 2.345e+04 3.743e-08
 49.03423    -46.5 2.328e+04 2.108e-08
 49.04439    -53.0 2.116e+04 1.011e-08
 49.05007    -59.4 1.767e+04 5.561e-09
 49.05515    -57.2 1.856e+04 5.857e-09
 49.06472    -61.9 1.636e+04 4.135e-09
 49.07488    -63.7 1.583e+04 3.709e-09
 49.08301    -65.6 1.573e+04 3.480e-09
 49.09322    -63.7 1.530e+04 3.246e-09
 49.11055    -65.8 1.502e+04 2.963e-09
 49.13087    -68.4 1.426e+04 2.460e-09
 49.14884    -70.2 1.399e+04 2.133e-09
 49.15901    -67.5 1.395e+04 2.208e-09
 49.17152    -69.1 1.387e+04 2.057e-09
 49.19185    -70.7 1.379e+04 2.025e-09
 49.21217    -72.1 1.379e+04 2.160e-09
 49.22479    -72.9 1.388e+04 2.483e-09
 49.23495    -70.9 1.392e+04 2.472e-09
 49.25282    -71.5 1.420e+04 2.953e-09
 49.27315    -71.9 1.449e+04 3.269e-09
 49.29057    -72.3 1.474e+04 3.416e-09
 49.30073    -70.9 1.512e+04 3.974e-09
 49.31380    -71.4 1.543e+04 4.173e-09
 49.33412    -72.0 1.565e+04 4.307e-09
 49.35445    -72.8 1.575e+04 4.416e-09
 49.36652    -73.6 1.577e+04 4.575e-09
 49.37155    -72.5 1.570e+04 4.455e-09
 49.37976    -72.7 1.571e+04 4.479e-09
 49.38992    -73.3 1.560e+04 4.427e-09
 49.39931    -73.5 1.566e+04 4.536e-09
 49.40439    -73.2 1.571e+04 4.596e-09
 49.41025    -73.8 1.571e+04 4.715e-09
 49.42041    -74.0 1.582e+04 4.858e-09
 49.43057    -74.5 1.598e+04 5.101e-09
 49.43728    -74.7 1.619e+04 5.384e-09
 49.44236    -74.4 1.605e+04 5.075e-09
 49.45090    -75.0 1.635e+04 5.475e-09
 49.46106    -75.3 1.670e+04 6.008e-09
 49.47017    -75.9 1.710e+04 6.765e-09
 49.47526    -76.0 1.681e+04 6.045e-09
 49.48138    -76.6 1.717e+04 6.653e-09
 49.49668    -77.9 1.777e+04 8.300e-09
 49.50824    -79.9 1.813e+04 9.808e-09
 49.51841    -80.5 1.817e+04 9.724e-09
 49.53738    -82.4 1.854e+04 1.212e-08
 49.55770    -83.8 1.869e+04 1.332e-08
 49.57290    -84.4 1.841e+04 1.202e-08
 49.57901    -84.8 1.856e+04 1.247e-08
 49.58409    -85.1 1.869e+04 1.248e-08
 49.59317    -86.3 1.883e+04 1.307e-08
 49.60333    -87.5 1.889e+04 1.322e-08
 49.61190    -88.7 1.874e+04 1.255e-08
 49.61698    -88.9 1.856e+04 1.169e-08
 49.62366    -89.8 1.844e+04 1.135e-08
 49.63895    -90.9 1.842e+04 1.146e-08
 49.64997    -93.7 1.766e+04 9.189e-09
 49.66013    -94.6 1.695e+04 7.092e-09
 49.67965    -96.7 1.607e+04 5.671e-09
 49.69998    -98.3 1.514e+04 4.325e-09
 49.71576    -99.4 1.425e+04 3.158e-09
 49.72592    -99.7 1.348e+04 2.276e-09
 49.74063   -100.3 1.287e+04 1.709e-09
 49.76095   -100.8 1.231e+04 1.283e-09
 49.78128   -101.3 1.183e+04 9.874e-10
 49.79170   -101.7 1.145e+04 7.976e-10
 49.80186   -101.8 1.125e+04 7.170e-10
 49.82193   -102.0 1.103e+04 6.479e-10
 49.84225   -102.0 1.088e+04 6.085e-10
 49.85748   -101.8 1.077e+04 5.878e-10
 49.86765   -101.6 1.072e+04 5.744e-10
 49.88290   -101.2 1.067e+04 5.672e-10
 49.90323   -100.8 1.064e+04 5.634e-10
 49.92306   -100.3 1.060e+04 5.589e-10
 49.93294   -101.3 1.060e+04 5.571e-10
 49.93343   -101.2 1.057e+04 5.399e-10
 49.94388   -100.7 1.053e+04 5.303e-10
 49.96420   -100.0 1.049e+04 5.165e-10
 49.98453    -99.3 1.044e+04 4.930e-10
 49.99921    -98.7 1.037e+04 4.580e-10
 50.00937    -98.6 1.031e+04 4.255e-10
 50.03544    -97.3 1.023e+04 3.935e-10
 50.07619    -95.7 1.001e+04 3.416e-10
 50.11684    -94.1 9.745e+03 2.867e-10
 50.14113    -92.4 9.504e+03 2.377e-10
 50.16146    -92.1 9.296e+03 1.933e-10
 50.19814    -90.3 9.139e+03 1.655e-10
 50.23879    -88.5 9.034e+03 1.463e-10
 50.27270    -86.4 8.983e+03 1.347e-10
 50.29303    -86.0 8.993e+03 1.321e-10
 50.32009    -83.8 8.979e+03 1.298e-10
 50.36074    -81.6 8.979e+03 1.287e-10
 50.40139    -79.3 8.988e+03 1.286e-10
 50.42459    -77.1 9.100e+03 1.313e-10
 50.44492    -76.7 9.187e+03 1.420e-10
 50.48269    -74.6 9.302e+03 1.568e-10
 50.52334    -72.6 9.422e+03 1.781e-10
 50.55616    -70.7 9.549e+03 2.007e-10
 50.57648    -70.4 9.599e+03 2.074e-10
 50.60464    -68.7 9.672e+03 2.215e-10
 50.64529    -66.9 9.698e+03 2.274e-10
 50.68594    -65.1 9.673e+03 2.252e-10
 50.70805    -63.0 9.580e+03 1.963e-10
 50.72837    -62.8 9.492e+03 1.776e-10
 50.76724    -60.6 9.372e+03 1.416e-10
 50.80789    -58.3 9.275e+03 1.125e-10
 50.83961    -55.9 9.208e+03 9.179e-11
 50.85994    -55.7 9.163e+03 8.744e-11
 50.88919    -53.3 9.120e+03 7.782e-11
 50.92984    -50.8 9.107e+03 7.255e-11
 50.97049    -48.2 9.107e+03 7.022e-11
 50.99150    -45.5 9.112e+03 6.976e-11
 51.01183    -45.2 9.142e+03 7.731e-11
 51.05179    -42.5 9.198e+03 8.289e-11
 51.09244    -39.8 9.248e+03 9.293e-11
 51.12307    -37.1 9.315e+03 1.084e-10
 51.14339    -37.0 9.504e+03 1.436e-10
 51.17374    -34.3 9.682e+03 1.780e-10
 51.21439    -31.6 9.878e+03 2.209e-10
 51.25463    -28.9 1.008e+04 2.753e-10
 51.27496    -28.9 1.050e+04 3.727e-10
 51.29569    -26.4 1.059e+04 4.081e-10
 51.33634    -24.0 1.064e+04 4.240e-10
 51.37699    -21.7 1.063e+04 4.112e-10
 51.40652    -19.4 1.059e+04 3.916e-10
 51.41659    -20.6 1.055e+04 3.723e-10
 51.42761    -20.1 1.051e+04 3.668e-10
 51.44793    -18.4 1.048e+04 3.640e-10
 51.46826    -18.0 1.044e+04 3.602e-10
 51.49884    -16.1 1.038e+04 3.717e-10
 51.53809    -13.8 1.033e+04 3.714e-10
 51.55841    -14.8 1.023e+04 3.524e-10
 51.58024    -12.4 1.014e+04 3.347e-10
 51.62089    -10.0 1.000e+04 3.038e-10
 51.66154     -7.6 9.859e+03 2.682e-10
 51.68998     -5.1 9.687e+03 2.299e-10
 51.71031     -6.2 9.463e+03 2.040e-10
 51.74284     -3.7 9.274e+03 1.787e-10
 51.78349     -1.0 9.138e+03 1.614e-10
 51.82155      1.7 9.065e+03 1.518e-10
 51.84187      1.0 9.136e+03 1.610e-10
 51.86479      3.8 9.207e+03 1.660e-10
 51.90544      6.4 9.400e+03 1.958e-10
 51.94609      9.0 9.696e+03 2.551e-10
 51.97344     11.6 9.896e+03 3.172e-10
 51.98350     10.4 1.051e+04 4.583e-10
 51.99671     10.6 1.054e+04 4.758e-10
 52.01704     13.0 1.097e+04 6.637e-10
 52.03736     13.6 1.094e+04 6.805e-10
 52.04919     16.1 1.074e+04 6.965e-10
 52.05935     15.2 1.142e+04 9.965e-10
 52.07801     16.1 1.165e+04 1.145e-09
 52.09834     17.1 1.220e+04 1.381e-09
 52.11497     17.7 1.261e+04 1.583e-09
 52.12513     16.1 1.367e+04 2.590e-09
 52.13899     16.8 1.410e+04 2.960e-09
 52.15931     17.0 1.437e+04 3.243e-09
 52.17964     17.2 1.452e+04 3.431e-09
 52.19091     17.2 1.460e+04 3.574e-09
 52.20108     15.6 1.455e+04 3.516e-09
 52.22029     15.9 1.452e+04 3.544e-09
 52.24061     16.5 1.441e+04 3.480e-09
 52.25670     17.3 1.426e+04 3.254e-09
 52.26686     16.0 1.339e+04 2.115e-09
 52.28126     16.9 1.299e+04 1.698e-09
 52.30159     17.5 1.242e+04 1.246e-09
 52.32191     18.0 1.204e+04 1.019e-09
 52.35250     17.9 1.088e+04 6.056e-10
 52.38846     18.3 9.774e+03 3.619e-10
 52.40878     15.7 9.203e+03 3.029e-10
 52.43390     17.5 8.832e+03 2.342e-10
 52.47455     19.8 8.564e+03 1.882e-10
 52.51520     22.3 8.399e+03 1.542e-10
 52.54035     24.5 8.301e+03 1.281e-10
 52.56067     24.1 8.143e+03 1.069e-10
 52.59650     25.9 8.098e+03 1.016e-10
 52.63715     27.6 8.146e+03 1.153e-10
 52.67191     29.5 8.176e+03 1.550e-10
 52.69224     29.2 8.180e+03 1.582e-10
 52.71845     31.9 8.320e+03 1.958e-10
 52.75910     34.0 8.525e+03 2.045e-10
 52.79975     35.1 8.627e+03 1.922e-10
 52.82380     35.6 8.582e+03 2.065e-10
 52.84413     35.1 8.571e+03 2.077e-10
 52.88105     36.2 8.573e+03 2.428e-10
 52.92170     38.0 8.605e+03 2.524e-10
 52.95537     39.7 8.574e+03 2.428e-10
 52.97570     39.7 8.702e+03 2.676e-10
 53.00300     41.1 8.607e+03 2.376e-10
 53.04365     41.9 8.638e+03 2.201e-10
 53.08430     42.1 8.854e+03 2.457e-10
 53.10726     42.4 9.244e+03 3.189e-10
 53.11733     42.0 9.408e+03 3.559e-10
 53.13492     41.9 9.540e+03 3.864e-10
 53.15524     41.7 9.908e+03 5.268e-10
 53.17285     42.0 1.027e+04 6.593e-10
 53.18301     42.4 1.069e+04 8.368e-10
 53.19589     42.6 1.106e+04 9.882e-10
 53.21622     41.2 1.200e+04 1.317e-09
 53.23141     34.8 1.612e+04 2.169e-09
 53.24153     26.3 2.289e+04 3.413e-09
 53.24870     16.7 2.512e+04 1.074e-08
 53.25330     14.7 2.507e+04 1.642e-08
 53.25630     14.4 2.453e+04 1.444e-08
 53.26185     11.7 2.160e+04 2.493e-08
 53.27201     11.0 2.008e+04 3.291e-08
 53.28159     10.8 1.964e+04 3.515e-08
 53.28667     10.9 1.962e+04 3.716e-08
 53.29234     11.5 1.994e+04 3.036e-08
 53.30250     11.7 2.127e+04 1.953e-08
 53.31453      8.7 2.176e+04 1.027e-08
 53.32474      6.3 2.269e+04 6.692e-09
 53.33817     -8.8 1.493e+04 1.078e-09
 53.35849    -13.9 1.102e+04 5.834e-10
 53.37882    -14.0 1.086e+04 4.975e-10
 53.39052    -14.4 1.062e+04 3.966e-10
 53.40068    -14.4 1.069e+04 4.338e-10
 53.41947    -14.5 1.053e+04 3.740e-10
 53.43979    -14.6 1.041e+04 3.365e-10
 53.45630    -14.5 1.036e+04 3.206e-10
 53.46647    -13.9 1.039e+04 3.383e-10
 53.48044    -13.6 1.037e+04 3.250e-10
 53.50077    -13.3 1.042e+04 3.293e-10
 53.52109    -13.0 1.064e+04 3.644e-10
 53.53225    -12.6 1.093e+04 4.413e-10
 53.54241    -12.0 1.084e+04 3.839e-10
 53.56174    -11.8 1.113e+04 4.799e-10
 53.58207    -12.0 1.161e+04 6.641e-10
 53.59803    -13.3 1.276e+04 1.159e-09
 53.60819    -12.7 1.246e+04 9.305e-10
 53.62272    -15.0 1.421e+04 2.045e-09
 53.64304    -17.0 1.603e+04 4.624e-09
 53.66337    -18.1 1.754e+04 8.923e-09
 53.67398    -18.9 1.851e+04 1.279e-08
 53.68414    -18.4 1.827e+04 1.197e-08
 53.70402    -19.6 1.862e+04 1.325e-08
 53.72434    -21.3 1.836e+04 1.107e-08
 53.73976    -24.3 1.701e+04 5.278e-09
 53.74992    -23.3 1.714e+04 5.934e-09
 53.76499    -27.8 1.547e+04 2.971e-09
 53.78532    -33.0 1.366e+04 1.903e-09
 53.80554    -35.3 1.314e+04 1.691e-09
 53.81571    -34.2 1.335e+04 1.862e-09
 53.82597    -35.3 1.317e+04 1.769e-09
 53.84629    -35.9 1.304e+04 1.721e-09
 53.86662    -36.2 1.286e+04 1.581e-09
 53.88149    -36.4 1.262e+04 1.321e-09
 53.89165    -35.9 1.276e+04 1.418e-09
 53.90727    -36.3 1.249e+04 1.178e-09
 53.92760    -36.8 1.221e+04 9.976e-10
 53.94727    -37.2 1.194e+04 8.880e-10
 53.95743    -36.9 1.210e+04 1.034e-09
 53.96825    -36.9 1.192e+04 9.734e-10
 53.98857    -36.9 1.175e+04 9.401e-10
 54.00890    -36.6 1.160e+04 9.134e-10
 54.02322    -36.1 1.146e+04 8.890e-10
 54.03338    -35.7 1.158e+04 9.533e-10
 54.04955    -35.1 1.138e+04 8.685e-10
 54.06987    -34.5 1.114e+04 7.625e-10
 54.08900    -33.8 1.091e+04 6.535e-10
 54.09916    -33.6 1.095e+04 6.224e-10
 54.11052    -32.9 1.067e+04 5.077e-10
 54.13085    -32.2 1.044e+04 4.176e-10
 54.15117    -31.6 1.030e+04 3.610e-10
 54.18176    -31.0 1.020e+04 3.276e-10
 54.22076    -29.2 9.933e+03 2.868e-10
 54.24108    -28.2 9.828e+03 2.726e-10
 54.26315    -25.9 9.583e+03 2.383e-10
 54.30380    -23.9 9.465e+03 2.207e-10
 54.34446    -21.9 9.381e+03 2.109e-10
 54.37265    -19.9 9.371e+03 2.085e-10
 54.39298    -18.6 9.442e+03 2.161e-10
 54.42576    -17.1 9.515e+03 2.367e-10
 54.46641    -16.2 9.946e+03 3.348e-10
 54.50422    -15.7 1.054e+04 5.135e-10
 54.52454    -13.9 1.038e+04 5.137e-10
 54.54771    -12.9 1.090e+04 7.393e-10
 54.57810    -12.6 1.147e+04 9.410e-10
 54.59013    -12.7 1.156e+04 9.758e-10
 54.60029    -11.6 1.131e+04 9.337e-10
 54.61865    -11.5 1.153e+04 1.022e-09
 54.63897    -12.3 1.167e+04 1.051e-09
 54.65591    -13.2 1.174e+04 1.066e-09
 54.66607    -11.8 1.168e+04 1.084e-09
 54.67962    -15.0 1.254e+04 1.171e-09
 54.69995    -20.2 1.427e+04 1.690e-09
 54.72027    -25.1 1.558e+04 3.063e-09
 54.73186    -28.5 1.581e+04 4.726e-09
 54.74202    -28.4 1.698e+04 7.242e-09
 54.76092    -30.3 1.636e+04 7.238e-09
 54.78125    -31.7 1.541e+04 5.741e-09
 54.79764    -32.8 1.437e+04 3.769e-09
 54.80780    -33.2 1.459e+04 3.704e-09
 54.82190    -35.1 1.307e+04 1.963e-09
 54.84222    -37.4 1.158e+04 1.055e-09
 54.86255    -39.4 1.051e+04 6.943e-10
 54.87358    -40.1 1.001e+04 5.984e-10
 54.88375    -40.9 9.999e+03 6.107e-10
 54.90320    -40.6 9.904e+03 5.944e-10
 54.92352    -40.1 9.908e+03 5.955e-10
 54.93937    -39.9 1.004e+04 6.322e-10
 54.94953    -40.3 1.009e+04 6.871e-10
 54.96418    -40.3 1.027e+04 7.633e-10
 54.98450    -40.5 1.053e+04 8.886e-10
 55.00483    -40.9 1.095e+04 1.077e-09
 55.01531    -41.3 1.143e+04 1.366e-09
 55.02547    -41.7 1.155e+04 1.531e-09
 55.04548    -42.0 1.213e+04 1.949e-09
 55.06580    -42.2 1.258e+04 2.378e-09
 55.08110    -42.4 1.282e+04 2.655e-09
 55.09126    -42.8 1.274e+04 2.572e-09
 55.10645    -43.0 1.277e+04 2.630e-09
 55.12678    -43.2 1.272e+04 2.622e-09
 55.14688    -42.9 1.237e+04 2.374e-09
 55.15704    -43.3 1.207e+04 2.074e-09
 55.16743    -42.8 1.158e+04 1.715e-09
 55.18775    -42.2 1.106e+04 1.375e-09
 55.20808    -41.5 1.060e+04 1.092e-09
 55.22282    -40.9 1.020e+04 8.563e-10
 55.23299    -41.7 9.945e+03 6.970e-10
 55.24873    -41.6 9.588e+03 5.344e-10
 55.27931    -41.2 9.135e+03 4.032e-10
 55.32006    -39.3 8.729e+03 3.312e-10
 55.35458    -37.0 8.368e+03 2.785e-10
 55.37491    -37.2 8.090e+03 2.331e-10
 55.40136    -34.7 7.930e+03 2.105e-10
 55.44201    -32.2 7.849e+03 1.984e-10
 55.48266    -29.6 7.829e+03 1.950e-10
 55.50647    -27.1 7.836e+03 1.956e-10
 55.52680    -27.0 7.733e+03 1.753e-10
 55.56396    -24.4 7.757e+03 1.801e-10
 55.60461    -21.7 7.754e+03 1.806e-10
 55.63804    -18.9 7.690e+03 1.702e-10
 55.65837    -18.7 7.623e+03 1.607e-10
 55.68591    -15.8 7.523e+03 1.438e-10
 55.72656    -12.9 7.417e+03 1.252e-10
 55.76721    -10.1 7.333e+03 1.095e-10
 55.78993     -7.2 7.278e+03 9.863e-11
 55.81026     -6.8 7.198e+03 8.842e-11
 55.84851     -3.9 7.182e+03 8.310e-11
 55.88916     -1.0 7.187e+03 8.017e-11
 55.92150      2.0 7.201e+03 7.882e-11
 55.94182      2.5 7.188e+03 7.818e-11
 55.97046      5.6 7.218e+03 7.839e-11
 56.01111      8.6 7.247e+03 7.831e-11
 56.05176     11.6 7.303e+03 7.814e-11
 56.07339     14.3 7.427e+03 8.059e-11
 56.09371     15.1 7.413e+03 8.069e-11
 56.13306     17.7 7.554e+03 8.841e-11
 56.17371     20.1 7.751e+03 1.105e-10
 56.20495     22.5 8.033e+03 1.632e-10
 56.22528     23.3 7.992e+03 1.471e-10
 56.25501     25.8 8.341e+03 2.236e-10
 56.29566     28.5 8.779e+03 3.290e-10
 56.33631     31.0 9.211e+03 4.324e-10
 56.35684     33.2 9.537e+03 4.907e-10
 56.37717     33.8 9.463e+03 4.555e-10
 56.41761     35.4 9.652e+03 4.878e-10
 56.45826     37.2 9.666e+03 5.063e-10
 56.48841     39.4 9.556e+03 4.661e-10
 56.50873     39.9 9.534e+03 4.495e-10
 56.53957     42.5 9.403e+03 3.803e-10
 56.58022     44.9 9.249e+03 2.894e-10
 56.61997     47.0 9.089e+03 2.203e-10
 56.64030     47.7 9.325e+03 2.692e-10
 56.66152     49.7 9.242e+03 2.304e-10
 56.70217     52.0 9.187e+03 2.072e-10
 56.74282     54.4 9.093e+03 1.855e-10
 56.77186     57.0 9.003e+03 1.592e-10
 56.79219     57.7 9.413e+03 2.252e-10
 56.82412     60.2 9.339e+03 1.849e-10
 56.86477     62.3 9.237e+03 1.460e-10
 56.90343     64.3 9.149e+03 1.269e-10
 56.92375     64.8 9.736e+03 1.991e-10
 56.94607     67.0 9.643e+03 1.830e-10
 56.98672     69.3 9.654e+03 1.836e-10
 57.02737     71.5 9.710e+03 1.888e-10
 57.05532     73.3 9.895e+03 2.157e-10
 57.06539     72.8 1.031e+04 2.516e-10
 57.07798     73.3 1.046e+04 2.679e-10
 57.09831     74.0 1.064e+04 3.045e-10
 57.11863     74.6 1.082e+04 3.383e-10
 57.13107     75.1 1.093e+04 3.687e-10
 57.14123     74.1 1.239e+04 6.879e-10
 57.15929     74.5 1.244e+04 7.828e-10
 57.17961     74.9 1.253e+04 9.110e-10
 57.19685     75.3 1.278e+04 1.094e-09
 57.20702     73.7 1.516e+04 2.995e-09
 57.22026     73.4 1.595e+04 4.007e-09
 57.24059     73.1 1.679e+04 5.513e-09
 57.26091     72.6 1.759e+04 7.694e-09
 57.27275     72.8 1.798e+04 9.392e-09
 57.27778     71.9 1.876e+04 1.260e-08
 57.28622     72.1 1.894e+04 1.337e-08
 57.29638     72.1 1.907e+04 1.439e-08
 57.30559     72.1 1.918e+04 1.544e-08
 57.31067     71.1 1.955e+04 1.587e-08
 57.31671     71.2 1.937e+04 1.559e-08
 57.32687     71.1 1.930e+04 1.540e-08
 57.33703     71.6 1.897e+04 1.463e-08
 57.34356     71.6 1.896e+04 1.460e-08
 57.34869     70.9 1.868e+04 1.229e-08
 57.36254     71.8 1.814e+04 1.003e-08
 57.38286     72.4 1.777e+04 8.016e-09
 57.40319     72.9 1.731e+04 5.860e-09
 57.41453     73.3 1.671e+04 3.982e-09
 57.42469     70.2 1.525e+04 1.140e-09
 57.44384     69.5 1.404e+04 7.974e-10
 57.46416     68.6 1.245e+04 6.301e-10
 57.48031     67.8 1.125e+04 6.455e-10
 57.49047     63.8 1.018e+04 5.646e-10
 57.51507     64.5 1.065e+04 7.907e-10
 57.55582     66.6 1.120e+04 1.010e-09
 57.59647     68.7 1.133e+04 1.072e-09
 57.62223     70.9 1.118e+04 9.846e-10
 57.64256     67.1 9.640e+03 6.152e-10
 57.67777     68.1 9.449e+03 4.893e-10
 57.71842     68.8 9.279e+03 4.019e-10
 57.75380     69.4 9.251e+03 3.604e-10
 57.77412     64.1 9.375e+03 4.328e-10
 57.79972     64.1 9.697e+03 4.860e-10
 57.84037     64.0 1.027e+04 6.230e-10
 57.88102     64.4 1.062e+04 8.095e-10
 57.90569     64.7 1.083e+04 9.799e-10
 57.92601     61.4 1.147e+04 1.255e-09
 57.96232     61.2 1.130e+04 1.097e-09
 58.00297     61.1 1.106e+04 9.429e-10
 58.03725     60.9 1.068e+04 7.742e-10
 58.05758     58.0 9.500e+03 3.843e-10
 58.08427     57.7 9.007e+03 2.952e-10
 58.12492     57.6 8.830e+03 2.710e-10
 58.16557     57.5 8.833e+03 2.762e-10
 58.18914     57.6 8.944e+03 2.990e-10
 58.20947     57.0 8.784e+03 2.706e-10
 58.24687     57.2 9.091e+03 3.229e-10
 58.28752     57.4 9.262e+03 3.453e-10
 58.32071     57.6 9.156e+03 3.199e-10
 58.34104     57.2 9.464e+03 3.770e-10
 58.36882     57.6 9.325e+03 3.250e-10
 58.40947     57.7 9.053e+03 2.390e-10
 58.45012     57.4 8.931e+03 1.965e-10
 58.47260     57.2 9.134e+03 2.081e-10
 58.49293     57.4 9.851e+03 3.320e-10
 58.52116     56.4 9.962e+03 3.519e-10
 58.53819     55.8 1.007e+04 4.206e-10
 58.54835     56.0 1.030e+04 5.155e-10
 58.56172     53.3 1.175e+04 7.211e-10
 58.58204     40.5 1.703e+04 2.476e-09
 58.60237     36.0 1.695e+04 7.148e-09
 58.61413     36.3 1.662e+04 1.010e-08
 58.62430     36.9 1.636e+04 8.865e-09
 58.64302     37.0 1.615e+04 6.909e-09
 58.66334     35.0 1.671e+04 3.546e-09
 58.67992     28.8 1.568e+04 1.460e-09
 58.69008     25.7 1.476e+04 1.269e-09
 58.70399     21.5 1.264e+04 1.041e-09
 58.72432     20.9 1.270e+04 1.124e-09
 58.74464     20.9 1.282e+04 1.308e-09
 58.75586     21.2 1.291e+04 1.483e-09
 58.76602     21.0 1.316e+04 1.926e-09
 58.78529     21.6 1.327e+04 2.069e-09
 58.80562     22.3 1.333e+04 2.075e-09
 58.82164     22.9 1.340e+04 2.050e-09
 58.83181     22.7 1.327e+04 1.991e-09
 58.84627     23.2 1.326e+04 1.893e-09
 58.86659     23.6 1.321e+04 1.809e-09
 58.88692     24.2 1.313e+04 1.735e-09
 58.89759     24.6 1.312e+04 1.698e-09
 58.90775     24.3 1.281e+04 1.531e-09
 58.92757     25.1 1.280e+04 1.557e-09
 58.94789     26.2 1.286e+04 1.616e-09
 58.96337     27.4 1.287e+04 1.622e-09
 58.97353     27.5 1.257e+04 1.416e-09
 58.98854     28.8 1.260e+04 1.434e-09
 59.00887     30.3 1.267e+04 1.472e-09
 59.02915     31.8 1.285e+04 1.529e-09
 59.04948     33.5 1.271e+04 1.377e-09
 59.06984     35.0 1.286e+04 1.457e-09
 59.09017     36.8 1.317e+04 1.615e-09
 59.10510     37.9 1.394e+04 1.955e-09
 59.11526     38.7 1.354e+04 1.701e-09
 59.13082     38.8 1.486e+04 2.488e-09
 59.15114     38.8 1.759e+04 5.707e-09
 59.16634     38.5 1.928e+04 9.119e-09
 59.17587     36.9 2.123e+04 1.672e-08
 59.18095     38.7 2.119e+04 1.351e-08
 59.18662     37.2 2.274e+04 2.727e-08
 59.19678     35.1 2.409e+04 5.955e-08
 59.20694     32.3 2.384e+04 1.744e-07
 59.21384     30.6 2.224e+04 4.401e-07
 59.21892     32.6 2.179e+04 6.631e-07
 59.22470     31.2 2.159e+04 9.429e-07
 59.22976     31.0 2.116e+04 1.057e-06
 59.23278     28.7 2.175e+04 9.502e-07
 59.23532     29.2 2.028e+04 2.507e-06
 59.23992     27.2 2.047e+04 2.074e-06
 59.24671     25.2 2.186e+04 6.848e-07
 59.25179     24.0 2.124e+04 1.235e-06
 59.25773     23.5 2.206e+04 5.279e-07
 59.26792     22.0 2.528e+04 8.575e-08
 59.27808     18.8 2.787e+04 1.834e-08
 59.28470     18.4 2.857e+04 6.774e-09
 59.28978     19.0 3.001e+04 7.400e-09
 59.29840     16.1 3.084e+04 2.482e-09
 59.31256      2.9 2.420e+04 6.425e-10
 59.32277      7.2 3.154e+04 1.093e-09
 59.33407     -4.8 1.327e+04 5.132e-10
 59.35440     -6.0 1.110e+04 3.800e-10
 59.37472     -4.9 1.085e+04 3.158e-10
 59.38856     -3.7 1.088e+04 2.775e-10
 59.39872     -3.8 1.091e+04 3.125e-10
 59.41537     -2.7 1.101e+04 2.814e-10
 59.43570     -2.5 1.072e+04 2.591e-10
 59.45444     -0.6 1.072e+04 2.800e-10
 59.46460     -0.5 1.074e+04 2.888e-10
 59.47635     -0.2 1.066e+04 2.857e-10
 59.50693      1.7 1.074e+04 3.129e-10
 59.54768      4.0 1.069e+04 2.972e-10
 59.58610      6.4 1.048e+04 2.976e-10
 59.60642      6.7 1.058e+04 3.687e-10
 59.62898      9.2 1.059e+04 3.296e-10
 59.66963     11.5 1.055e+04 2.820e-10
 59.71028     13.3 1.052e+04 2.453e-10
 59.73799     15.3 1.023e+04 2.444e-10
 59.75832     15.8 1.036e+04 2.497e-10
 59.79158     18.3 1.016e+04 2.099e-10
 59.83223     20.4 1.022e+04 2.040e-10
 59.86956     21.9 1.038e+04 2.202e-10
 59.88978     22.9 1.043e+04 2.288e-10
 59.89765     24.1 1.042e+04 2.521e-10
 59.90781     25.0 1.043e+04 2.501e-10
 59.92350     25.2 1.057e+04 2.719e-10
 59.94382     25.6 1.075e+04 3.317e-10
 59.95547     25.9 1.100e+04 4.210e-10
 59.96563     25.5 1.145e+04 5.360e-10
 59.98447     25.4 1.205e+04 7.600e-10
 60.00480     25.5 1.244e+04 1.034e-09
 60.02125     26.2 1.257e+04 1.297e-09
 60.03141     25.7 1.335e+04 1.989e-09
 60.04545     26.2 1.332e+04 2.057e-09
 60.06577     27.7 1.282e+04 1.652e-09
 60.08610     27.3 1.274e+04 1.499e-09
 60.11668     28.1 1.248e+04 1.217e-09
 60.15301     27.7 1.193e+04 8.670e-10
 60.17324     25.3 1.223e+04 9.081e-10
 60.18772     26.1 1.185e+04 7.970e-10
 60.20805     26.2 1.194e+04 8.066e-10
 60.22837     27.5 1.149e+04 6.720e-10
 60.23892     27.5 1.168e+04 6.699e-10
 60.24909     26.2 1.193e+04 9.235e-10
 60.27928     28.8 1.177e+04 8.429e-10
 60.30490     30.3 1.165e+04 8.564e-10
 60.32523     28.8 1.240e+04 1.322e-09
 60.36068     30.5 1.224e+04 1.242e-09
 60.40133     32.0 1.205e+04 1.063e-09
 60.43647     32.9 1.179e+04 8.698e-10
 60.45679     31.2 1.185e+04 1.004e-09
 60.48263     32.3 1.175e+04 9.284e-10
 60.52328     33.6 1.167e+04 8.739e-10
 60.56393     35.3 1.145e+04 7.636e-10
 60.58836     37.0 1.119e+04 6.002e-10
 60.60868     36.7 1.091e+04 4.941e-10
 60.64523     38.3 1.085e+04 4.524e-10
 60.68588     40.1 1.083e+04 4.438e-10
 60.71992     42.0 1.091e+04 4.608e-10
 60.74025     42.4 1.102e+04 5.208e-10
 60.76718     44.4 1.114e+04 5.798e-10
 60.80783     46.4 1.123e+04 6.308e-10
 60.84848     48.5 1.132e+04 6.936e-10
 60.87181     50.6 1.139e+04 7.480e-10
 60.89214     51.1 1.110e+04 5.558e-10
 60.92979     52.9 1.117e+04 5.724e-10
 60.97044     54.2 1.143e+04 6.362e-10
 61.00083     54.7 1.163e+04 6.945e-10
 61.01335     55.2 1.193e+04 8.002e-10
 61.02351     55.0 1.189e+04 8.023e-10
 61.04138     54.9 1.238e+04 1.009e-09
 61.06170     54.5 1.305e+04 1.378e-09
 61.07913     53.8 1.389e+04 2.029e-09
 61.08929     52.9 1.420e+04 2.257e-09
 61.10235     52.0 1.516e+04 3.476e-09
 61.12268     51.4 1.600e+04 5.137e-09
 61.14300     51.3 1.655e+04 6.896e-09
 61.15508     51.4 1.678e+04 7.935e-09
 61.16524     50.4 1.654e+04 7.012e-09
 61.18365     50.0 1.656e+04 6.859e-09
 61.20398     49.3 1.651e+04 6.288e-09
 61.22086     48.6 1.627e+04 5.445e-09
 61.23102     46.8 1.555e+04 3.691e-09
 61.24463     46.5 1.477e+04 2.902e-09
 61.26495     46.4 1.398e+04 2.223e-09
 61.28528     46.4 1.332e+04 1.670e-09
 61.29680     46.3 1.282e+04 1.241e-09
 61.30697     44.2 1.164e+04 6.714e-10
 61.32593     43.7 1.123e+04 5.317e-10
 61.34625     43.2 1.073e+04 4.724e-10
 61.36259     43.1 1.040e+04 4.591e-10
 61.37275     42.4 9.794e+03 3.588e-10
 61.38690     43.0 9.832e+03 3.828e-10
 61.40723     43.6 9.963e+03 4.200e-10
 61.42755     44.3 1.009e+04 4.498e-10
 61.43853     45.0 1.023e+04 4.645e-10
 61.45895     45.0 9.935e+03 3.388e-10
 61.49889     45.6 9.974e+03 3.312e-10
 61.52928     44.6 9.949e+03 3.324e-10
 61.54951     44.1 1.001e+04 3.586e-10
 61.56983     44.2 1.039e+04 4.714e-10
 61.58026     44.4 1.061e+04 5.168e-10
 61.59042     44.2 1.034e+04 5.530e-10
 61.61048     44.2 1.059e+04 6.601e-10
 61.63081     44.3 1.083e+04 7.693e-10
 61.64604     44.3 1.100e+04 8.217e-10
 61.65620     44.2 1.119e+04 9.019e-10
 61.67146     44.3 1.128e+04 9.089e-10
 61.69178     44.6 1.124e+04 8.581e-10
 61.71182     44.7 1.112e+04 7.104e-10
 61.72199     45.1 1.114e+04 9.290e-10
 61.74269     45.7 1.121e+04 7.303e-10
 61.78344     45.7 1.071e+04 3.574e-10
 61.82409     45.2 1.002e+04 1.586e-10
 61.85375     44.7 9.279e+03 1.087e-10
 61.87407     44.8 9.726e+03 1.420e-10
 61.90539     44.7 9.505e+03 1.406e-10
 61.94604     44.5 9.649e+03 1.704e-10
 61.98531     43.6 1.025e+04 2.907e-10
 62.00554     42.1 1.045e+04 4.729e-10
 62.02724     42.1 1.121e+04 8.277e-10
 62.06799     41.2 1.166e+04 9.817e-10
 62.10864     39.5 1.148e+04 8.205e-10
 62.13720     36.5 1.095e+04 4.805e-10
 62.15753     35.4 1.092e+04 5.501e-10
 62.18994     31.2 1.045e+04 4.407e-10
 62.23059     28.0 1.054e+04 4.804e-10
 62.26877     25.5 1.102e+04 6.217e-10
 62.28900     24.0 1.128e+04 7.843e-10
 62.30153     22.6 1.148e+04 8.971e-10
 62.32186     21.3 1.169e+04 1.018e-09
 62.34218     20.1 1.181e+04 1.092e-09
 62.35468     18.9 1.188e+04 1.126e-09
 62.36484     17.9 1.231e+04 1.340e-09
 62.38283     16.0 1.256e+04 1.404e-09
 62.40316     13.0 1.330e+04 1.669e-09
 62.42046     10.0 1.397e+04 2.148e-09
 62.43063      7.1 1.490e+04 3.277e-09
 62.44381      4.3 1.556e+04 4.096e-09
 62.46413      0.8 1.636e+04 4.855e-09
 62.48446     -2.6 1.607e+04 4.862e-09
 62.49641     -4.7 1.496e+04 4.250e-09
 62.50657     -7.3 1.452e+04 3.531e-09
 62.52511     -9.5 1.416e+04 2.356e-09
 62.54543    -13.1 1.384e+04 1.395e-09
 62.56219    -18.1 1.233e+04 8.552e-10
 62.57236    -21.8 1.184e+04 8.152e-10
 62.58609    -24.9 1.151e+04 7.387e-10
 62.60641    -27.3 1.177e+04 7.903e-10
 62.62674    -30.5 1.213e+04 9.534e-10
 62.63814    -33.2 1.243e+04 1.290e-09
 62.64830    -34.4 1.242e+04 1.427e-09
 62.66739    -35.4 1.276e+04 1.789e-09
 62.68771    -36.6 1.302e+04 1.952e-09
 62.70392    -38.1 1.322e+04 1.991e-09
 62.71408    -39.7 1.315e+04 1.836e-09
 62.72836    -42.3 1.287e+04 1.589e-09
 62.74869    -44.9 1.240e+04 1.392e-09
 62.76901    -46.6 1.221e+04 1.292e-09
 62.79960    -49.8 1.214e+04 1.211e-09
 62.83008    -51.6 1.172e+04 1.104e-09
 62.84565    -52.5 1.169e+04 1.058e-09
 62.85581    -53.2 1.163e+04 1.047e-09
 62.87064    -54.6 1.168e+04 1.001e-09
 62.89096    -56.2 1.220e+04 1.071e-09
 62.91129    -57.9 1.279e+04 1.300e-09
 62.92159    -59.2 1.349e+04 1.763e-09
 62.93176    -60.2 1.477e+04 2.260e-09
 62.95194    -60.8 1.532e+04 2.926e-09
 62.97226    -61.3 1.590e+04 3.625e-09
 62.98738    -62.0 1.646e+04 4.532e-09
 62.99754    -63.2 1.939e+04 8.256e-09
 63.01291    -63.4 1.963e+04 9.843e-09
 63.03324    -63.4 1.948e+04 1.068e-08
 63.05316    -63.4 1.929e+04 1.043e-08
 63.06327    -64.7 2.042e+04 1.241e-08
 63.07384    -64.9 2.056e+04 1.271e-08
 63.09421    -65.2 1.990e+04 1.064e-08
 63.10941    -65.9 1.883e+04 7.733e-09
 63.11952    -65.9 1.872e+04 7.623e-09
 63.12901    -66.3 1.825e+04 7.211e-09
 63.13409    -67.6 1.774e+04 7.437e-09
 63.13985    -67.9 1.752e+04 7.360e-09
 63.15001    -68.3 1.738e+04 7.300e-09
 63.16017    -68.8 1.739e+04 7.615e-09
 63.16698    -69.6 1.782e+04 8.375e-09
 63.17206    -70.6 1.738e+04 8.122e-09
 63.18050    -71.5 1.794e+04 9.312e-09
 63.19066    -72.6 1.866e+04 1.119e-08
 63.19987    -73.6 1.969e+04 1.434e-08
 63.20495    -74.0 1.908e+04 1.187e-08
 63.21098    -74.9 2.056e+04 1.511e-08
 63.22072    -76.0 2.203e+04 1.891e-08
 63.22580    -74.5 1.938e+04 1.365e-08
 63.23131    -75.5 2.071e+04 1.675e-08
 63.23784    -76.8 2.190e+04 1.998e-08
 63.24293    -77.3 2.128e+04 1.516e-08
 63.25163    -78.8 2.228e+04 1.759e-08
 63.26180    -80.5 2.297e+04 1.959e-08
 63.27074    -82.4 2.331e+04 2.074e-08
 63.27582    -83.4 2.219e+04 1.631e-08
 63.28212    -85.0 2.225e+04 1.676e-08
 63.29228    -86.6 2.223e+04 1.721e-08
 63.30245    -88.3 2.255e+04 1.774e-08
 63.30871    -90.3 2.295e+04 1.857e-08
 63.31379    -89.9 2.236e+04 1.632e-08
 63.32277    -92.4 2.282e+04 1.738e-08
 63.33293    -95.5 2.290e+04 1.781e-08
 63.34160    -99.0 2.255e+04 1.741e-08
 63.34668    -98.6 2.215e+04 1.621e-08
 63.35326   -102.0 2.142e+04 1.518e-08
 63.36342   -105.2 2.089e+04 1.454e-08
 63.37358   -107.9 2.055e+04 1.458e-08
 63.37957   -110.2 2.091e+04 1.576e-08
 63.38465   -109.1 2.016e+04 1.384e-08
 63.39391   -111.0 2.094e+04 1.551e-08
 63.40407   -113.0 2.225e+04 1.862e-08
 63.41246   -115.3 2.363e+04 2.394e-08
 63.41754   -113.7 2.284e+04 1.942e-08
 63.42440   -116.0 2.419e+04 2.583e-08
 63.43456   -118.3 2.482e+04 3.490e-08
 63.44472   -120.2 2.466e+04 4.501e-08
 63.45044   -121.6 2.414e+04 5.301e-08
 63.45552   -120.2 2.446e+04 4.788e-08
 63.46505   -121.3 2.382e+04 5.537e-08
 63.47521   -121.9 2.278e+04 5.685e-08
 63.48333   -122.4 2.220e+04 5.234e-08
 63.48841   -121.4 2.236e+04 5.549e-08
 63.49554   -121.8 2.197e+04 5.139e-08
 63.50570   -121.8 2.148e+04 4.666e-08
 63.51586   -121.8 2.117e+04 4.001e-08
 63.52130   -121.9 2.109e+04 3.107e-08
 63.52638   -120.9 2.096e+04 3.888e-08
 63.53619   -120.9 2.085e+04 2.812e-08
 63.54635   -121.3 2.084e+04 1.910e-08
 63.55424   -122.1 2.074e+04 1.417e-08
 63.55932   -119.6 2.077e+04 1.884e-08
 63.56667   -120.0 2.069e+04 1.398e-08
 63.58197   -119.9 2.055e+04 1.277e-08
 63.60234   -120.9 2.006e+04 6.366e-09
 63.62007   -122.7 1.849e+04 2.222e-09
 63.63023   -119.2 1.983e+04 4.959e-09
 63.64299   -121.1 1.816e+04 1.935e-09
 63.66331   -122.8 1.480e+04 9.773e-10
 63.68364   -123.3 1.234e+04 8.038e-10
 63.69602   -124.1 1.163e+04 8.010e-10
 63.70618   -121.5 1.211e+04 8.029e-10
 63.72429   -121.5 1.168e+04 8.528e-10
 63.74462   -121.5 1.129e+04 9.006e-10
 63.77520   -120.9 1.131e+04 9.754e-10
 63.81595   -120.2 1.136e+04 1.030e-09
 63.83794   -119.2 1.119e+04 9.346e-10
 63.85827   -116.2 1.145e+04 1.094e-09
 63.89725   -115.2 1.108e+04 8.422e-10
 63.93790   -113.9 1.030e+04 4.900e-10
 63.96951   -112.5 9.546e+03 2.806e-10
 63.98983   -110.4 1.017e+04 4.204e-10
 64.01920   -109.1 9.561e+03 2.570e-10
 64.05985   -107.4 9.340e+03 2.135e-10
 64.10050   -105.5 9.288e+03 2.063e-10
 64.12140   -103.5 9.321e+03 2.126e-10
 64.14172   -102.2 9.277e+03 2.187e-10
 64.18180   -100.2 9.319e+03 2.194e-10
 64.22245    -98.2 9.506e+03 2.434e-10
 64.25296    -96.2 9.714e+03 2.903e-10
 64.27329    -95.0 9.691e+03 2.400e-10
 64.30375    -93.1 9.993e+03 3.111e-10
 64.34440    -91.2 1.035e+04 4.268e-10
 64.38453    -89.1 1.074e+04 5.798e-10
 64.40485    -88.5 1.077e+04 6.153e-10
 64.42570    -86.4 1.122e+04 8.352e-10
 64.46635    -84.5 1.166e+04 1.029e-09
 64.50700    -82.8 1.202e+04 1.146e-09
 64.53632    -81.7 1.226e+04 1.213e-09
 64.54639    -80.8 1.234e+04 1.365e-09
 64.55762    -80.3 1.243e+04 1.378e-09
 64.57794    -79.8 1.245e+04 1.380e-09
 64.59827    -79.4 1.247e+04 1.361e-09
 64.61217    -79.0 1.248e+04 1.326e-09
 64.62233    -78.7 1.271e+04 1.415e-09
 64.63892    -78.5 1.263e+04 1.339e-09
 64.66789    -78.4 1.251e+04 1.218e-09
 64.68831    -77.4 1.312e+04 1.563e-09
 64.71025    -76.7 1.285e+04 1.279e-09
 64.75090    -76.2 1.241e+04 9.698e-10
 64.79155    -75.8 1.188e+04 7.052e-10
 64.81987    -75.8 1.157e+04 6.004e-10
 64.84020    -75.5 1.227e+04 9.076e-10
 64.87285    -76.3 1.234e+04 9.537e-10
 64.89572    -77.0 1.252e+04 1.131e-09
 64.90579    -77.2 1.295e+04 1.469e-09
 64.92347    -77.2 1.324e+04 1.857e-09
 64.94380    -77.0 1.349e+04 2.320e-09
 64.96141    -76.4 1.364e+04 2.701e-09
 64.97157    -76.0 1.382e+04 3.036e-09
 64.98445    -75.3 1.382e+04 3.101e-09
 65.00477    -74.7 1.377e+04 3.106e-09
 65.02510    -73.9 1.349e+04 2.968e-09
 65.03735    -73.0 1.316e+04 2.628e-09
 65.04751    -72.7 1.300e+04 2.325e-09
 65.06575    -72.0 1.272e+04 2.029e-09
 65.08607    -71.3 1.245e+04 1.777e-09
 65.10313    -70.4 1.223e+04 1.585e-09
 65.12356    -70.0 1.192e+04 1.309e-09
 65.15740    -67.7 1.168e+04 1.213e-09
 65.19805    -65.9 1.149e+04 1.130e-09
 65.23490    -63.9 1.121e+04 9.900e-10
 65.25522    -63.2 1.113e+04 9.003e-10
 65.27936    -61.0 1.081e+04 7.687e-10
 65.32001    -58.7 1.042e+04 5.869e-10
 65.36066    -56.3 1.000e+04 4.182e-10
 65.38679    -54.0 9.646e+03 2.915e-10
 65.40711    -53.0 9.574e+03 2.696e-10
 65.44196    -50.7 9.309e+03 1.959e-10
 65.48261    -48.4 9.111e+03 1.548e-10
 65.51835    -46.1 9.005e+03 1.368e-10
 65.53868    -45.2 9.036e+03 1.433e-10
 65.56391    -42.8 8.997e+03 1.392e-10
 65.60456    -40.4 9.024e+03 1.406e-10
 65.64521    -38.3 9.216e+03 1.697e-10
 65.67024    -36.1 9.450e+03 2.309e-10
 65.69057    -35.3 9.568e+03 2.557e-10
 65.72651    -33.0 9.804e+03 3.248e-10
 65.76716    -30.7 1.005e+04 4.046e-10
 65.79755    -28.8 1.014e+04 4.493e-10
 65.81178    -28.4 1.017e+04 4.646e-10
 65.82194    -28.1 1.024e+04 4.872e-10
 65.84836    -26.8 1.046e+04 5.628e-10
 65.88911    -25.0 1.059e+04 6.316e-10
 65.92976    -23.0 1.068e+04 6.879e-10
 65.95370    -21.3 1.071e+04 7.003e-10
 65.97402    -20.8 1.059e+04 6.301e-10
 66.01106    -19.2 1.041e+04 5.505e-10
 66.05171    -17.6 1.023e+04 4.699e-10
 66.08526    -15.9 9.991e+03 3.976e-10
 66.10559    -15.8 9.936e+03 3.812e-10
 66.13301    -13.9 9.713e+03 3.322e-10
 66.17366    -11.7 9.479e+03 2.730e-10
 66.21431     -9.3 9.268e+03 2.099e-10
 66.23715     -6.9 9.104e+03 1.539e-10
 66.25748     -6.5 9.166e+03 1.726e-10
 66.29561     -4.1 9.023e+03 1.247e-10
 66.33626     -2.0 8.936e+03 9.845e-11
 66.36872      0.1 8.831e+03 8.924e-11
 66.38905      0.6 8.888e+03 9.234e-11
 66.41756      2.9 8.885e+03 9.043e-11
 66.45821      5.0 8.928e+03 1.011e-10
 66.49886      7.3 8.977e+03 1.181e-10
 66.52061      9.6 9.032e+03 1.362e-10
 66.53544     10.2 8.978e+03 1.282e-10
 66.55434     10.4 8.986e+03 1.184e-10
 66.58016     12.8 9.048e+03 1.153e-10
 66.62081     14.9 9.192e+03 1.021e-10
 66.65218     16.7 9.183e+03 8.923e-11
 66.67250     16.8 9.181e+03 6.776e-11
 66.70211     18.5 9.091e+03 5.904e-11
 66.74276     20.3 9.030e+03 5.268e-11
 66.78341     22.2 9.003e+03 4.793e-11
 66.80407     24.1 8.958e+03 4.490e-11
 66.82439     24.5 9.110e+03 4.909e-11
 66.86471     26.6 9.158e+03 5.146e-11
 66.90536     28.6 9.213e+03 5.852e-11
 66.93563     30.8 9.254e+03 7.267e-11
 66.95596     31.6 9.278e+03 7.545e-11
 66.98666     33.9 9.321e+03 9.111e-11
 67.02731     36.3 9.369e+03 1.084e-10
 67.06720     38.7 9.429e+03 1.224e-10
 67.08752     39.7 9.487e+03 1.234e-10
 67.10861     42.0 9.546e+03 1.364e-10
 67.14926     44.1 9.616e+03 1.483e-10
 67.18991     46.1 9.670e+03 1.553e-10
 67.21909     47.9 9.714e+03 1.581e-10
 67.23941     49.1 9.855e+03 1.842e-10
 67.27121     50.9 9.909e+03 1.918e-10
 67.31186     52.5 9.998e+03 2.042e-10
 67.35065     54.0 1.012e+04 2.221e-10
 67.37098     54.9 1.034e+04 2.642e-10
 67.39316     56.0 1.048e+04 3.051e-10
 67.42355     57.1 1.060e+04 3.181e-10
 67.43657     57.6 1.069e+04 3.301e-10
 67.44673     57.9 1.080e+04 4.004e-10
 67.46411     58.8 1.082e+04 4.006e-10
 67.48443     59.5 1.084e+04 3.941e-10
 67.50245     60.8 1.074e+04 3.299e-10
 67.51261     60.9 1.091e+04 4.316e-10
 67.52508     61.5 1.083e+04 3.892e-10
 67.54541     62.6 1.069e+04 3.190e-10
 67.56573     62.9 1.064e+04 2.823e-10
 67.59632     64.3 1.068e+04 2.488e-10
 67.63411     65.9 1.059e+04 2.237e-10
 67.65434     66.1 1.085e+04 2.527e-10
 67.66736     67.2 1.090e+04 2.617e-10
 67.68768     67.8 1.098e+04 2.753e-10
 67.70801     68.8 1.112e+04 3.194e-10
 67.72002     69.4 1.119e+04 3.428e-10
 67.73018     69.6 1.171e+04 4.796e-10
 67.74866     70.4 1.180e+04 5.354e-10
 67.76898     71.3 1.183e+04 5.924e-10
 67.78580     72.1 1.183e+04 6.387e-10
 67.79597     72.5 1.253e+04 1.019e-09
 67.80963     73.3 1.251e+04 1.030e-09
 67.82996     74.1 1.248e+04 1.012e-09
 67.85028     74.7 1.241e+04 9.659e-10
 67.86175     75.2 1.234e+04 8.792e-10
 67.87191     75.4 1.360e+04 1.628e-09
 67.89093     75.7 1.355e+04 1.488e-09
 67.91126     75.9 1.342e+04 1.337e-09
 67.92753     75.9 1.322e+04 1.186e-09
 67.93770     76.0 1.528e+04 2.888e-09
 67.95191     75.9 1.513e+04 2.546e-09
 67.97223     75.6 1.483e+04 2.258e-09
 67.99256     75.4 1.443e+04 2.035e-09
 68.00348     75.6 1.403e+04 1.847e-09
 68.01364     75.5 1.583e+04 4.371e-09
 68.03321     75.8 1.532e+04 3.825e-09
 68.05354     76.4 1.467e+04 3.060e-09
 68.06926     77.3 1.394e+04 2.159e-09
 68.07942     77.2 1.517e+04 4.640e-09
 68.09419     78.2 1.426e+04 3.119e-09
 68.11451     79.1 1.342e+04 1.973e-09
 68.13484     79.6 1.271e+04 1.216e-09
 68.14521     79.8 1.209e+04 7.890e-10
 68.15537     80.2 1.275e+04 1.526e-09
 68.17549     80.4 1.225e+04 1.081e-09
 68.19581     80.7 1.186e+04 8.489e-10
 68.21099     81.3 1.151e+04 7.322e-10
 68.22115     81.8 1.216e+04 1.212e-09
 68.23646     82.6 1.192e+04 1.054e-09
 68.25679     83.3 1.175e+04 9.743e-10
 68.27677     84.0 1.165e+04 9.329e-10
 68.28693     84.3 1.218e+04 1.281e-09
 68.29744     84.8 1.216e+04 1.209e-09
 68.31776     85.1 1.218e+04 1.224e-09
 68.33809     85.3 1.226e+04 1.281e-09
 68.35272     85.5 1.240e+04 1.402e-09
 68.36288     85.1 1.281e+04 1.537e-09
 68.37874     85.2 1.292e+04 1.645e-09
 68.39906     85.3 1.315e+04 1.852e-09
 68.41850     85.2 1.349e+04 2.223e-09
 68.42866     84.4 1.347e+04 2.002e-09
 68.43971     84.1 1.383e+04 2.385e-09
 68.46004     83.9 1.421e+04 2.938e-09
 68.48036     83.9 1.458e+04 3.635e-09
 68.49445     84.0 1.484e+04 4.176e-09
 68.50461     83.4 1.379e+04 2.388e-09
 68.52101     83.5 1.372e+04 2.340e-09
 68.54134     83.7 1.351e+04 2.122e-09
 68.57192     83.5 1.245e+04 1.111e-09
 68.61267     84.2 1.146e+04 6.829e-10
 68.63637     85.2 1.052e+04 3.905e-10
 68.65669     84.9 9.397e+03 1.930e-10
 68.69397     86.7 9.059e+03 1.484e-10
 68.73462     89.0 8.867e+03 1.343e-10
 68.76793     91.6 8.905e+03 1.358e-10
 68.78826     92.1 8.639e+03 1.116e-10
 68.81592     94.5 8.703e+03 1.168e-10
 68.85657     96.3 9.089e+03 1.508e-10
 68.89722     96.8 9.683e+03 2.162e-10
 68.91973     96.7 1.005e+04 2.974e-10
 68.92979     96.5 1.001e+04 3.008e-10
 68.94784     96.0 1.051e+04 4.852e-10
 68.96816     96.1 1.102e+04 8.142e-10
 68.98541     96.8 1.145e+04 1.177e-09
 68.99557     96.6 1.148e+04 1.224e-09
 69.00881     97.4 1.181e+04 1.357e-09
 69.02914     97.8 1.184e+04 1.329e-09
 69.04946     97.8 1.178e+04 1.171e-09
 69.06136     97.4 1.158e+04 9.214e-10
 69.07152     97.3 1.154e+04 9.067e-10
 69.09011     96.1 1.115e+04 6.971e-10
 69.11044     94.8 1.063e+04 5.727e-10
 69.12714     94.0 1.026e+04 5.083e-10
 69.13730     94.1 1.027e+04 4.965e-10
 69.15109     93.8 1.018e+04 4.743e-10
 69.17142     93.8 1.017e+04 4.508e-10
 69.19174     93.7 1.017e+04 4.327e-10
 69.20309     93.7 1.013e+04 3.957e-10
 69.22351     94.5 1.001e+04 3.390e-10
 69.26307     94.5 9.855e+03 2.896e-10
 69.29346     94.8 9.736e+03 2.681e-10
 69.31369     94.9 9.644e+03 2.566e-10
 69.33402     95.2 9.561e+03 2.528e-10
 69.34481     95.6 9.601e+03 2.568e-10
 69.35498     96.7 9.531e+03 2.550e-10
 69.37467     97.0 9.567e+03 2.592e-10
 69.39499     96.7 1.013e+04 3.179e-10
 69.41060     94.1 1.309e+04 8.434e-10
 69.42076     96.6 1.159e+04 4.733e-10
 69.43564     93.0 1.610e+04 1.928e-09
 69.44852     93.2 1.683e+04 2.979e-09
 69.45355     93.8 1.614e+04 2.378e-09
 69.46095     93.7 1.687e+04 3.335e-09
 69.47111     92.3 1.882e+04 5.906e-09
 69.48128     90.5 2.045e+04 1.149e-08
 69.48644     89.2 2.124e+04 2.355e-08
 69.49152     89.5 2.116e+04 1.668e-08
 69.50160     88.7 2.176e+04 3.661e-08
 69.51176     88.4 2.207e+04 7.603e-08
 69.51933     88.0 2.233e+04 1.284e-07
 69.52442     87.1 2.221e+04 7.761e-08
 69.53209     86.6 2.277e+04 9.844e-08
 69.54225     85.3 2.369e+04 9.537e-08
 69.55223     82.9 2.471e+04 8.090e-08
 69.55731     82.0 2.380e+04 6.530e-08
 69.56258     79.6 2.474e+04 5.110e-08
 69.57274     77.1 2.567e+04 3.582e-08
 69.58290     74.0 2.552e+04 2.599e-08
 69.59020     71.5 2.376e+04 2.024e-08
 69.59528     72.7 2.380e+04 1.806e-08
 69.60323     70.3 2.273e+04 1.520e-08
 69.61806     66.3 2.005e+04 1.261e-08
 69.62827     69.1 2.052e+04 9.671e-09
 69.63889     67.1 1.864e+04 8.811e-09
 69.65409     66.2 1.843e+04 9.367e-09
 69.66106     65.8 1.853e+04 9.990e-09
 69.66614     66.9 1.806e+04 8.442e-09
 69.67436     66.5 1.829e+04 9.098e-09
 69.68453     66.0 1.879e+04 1.014e-08
 69.69395     65.3 1.935e+04 1.140e-08
 69.69904     66.5 1.871e+04 9.610e-09
 69.70485     65.9 1.951e+04 1.153e-08
 69.71501     64.2 2.061e+04 1.329e-08
 69.72518     63.5 2.034e+04 1.375e-08
 69.73193     60.6 2.090e+04 1.540e-08
 69.73701     61.3 2.171e+04 1.760e-08
 69.74550     59.5 2.186e+04 1.957e-08
 69.75566     57.5 2.125e+04 2.189e-08
 69.76482     56.6 2.074e+04 2.150e-08
 69.76990     56.5 2.137e+04 3.173e-08
 69.77599     56.1 2.056e+04 3.020e-08
 69.78615     55.5 2.004e+04 2.752e-08
 69.79631     55.1 1.960e+04 2.081e-08
 69.80279     54.4 1.940e+04 1.682e-08
 69.80787     55.4 2.018e+04 2.592e-08
 69.82177     53.8 1.973e+04 1.254e-08
 69.83578     50.0 1.814e+04 4.573e-09
 69.84594     51.0 1.984e+04 5.399e-09
 69.86207     43.8 1.447e+04 1.706e-09
 69.87224     47.2 1.607e+04 2.200e-09
 69.88279     42.0 1.168e+04 9.682e-10
 69.90156     41.8 1.046e+04 6.081e-10
 69.91173     40.6 1.018e+04 4.920e-10
 69.92344     40.9 9.876e+03 3.780e-10
 69.94377     41.6 9.468e+03 2.785e-10
 69.96409     41.4 9.357e+03 2.696e-10
 69.99468     41.9 8.992e+03 2.236e-10
 70.03332     43.0 8.694e+03 2.001e-10
 70.05365     42.5 8.690e+03 2.045e-10
 70.07608     43.0 8.691e+03 2.105e-10
 70.11673     43.0 8.716e+03 2.385e-10
 70.15738     43.3 8.663e+03 2.453e-10
 70.18521     43.3 8.509e+03 2.266e-10
 70.20554     43.3 8.408e+03 2.148e-10
 70.23868     42.8 8.413e+03 2.031e-10
 70.27933     41.0 8.768e+03 2.443e-10
 70.31678     39.9 9.147e+03 3.499e-10
 70.33710     41.1 9.201e+03 3.492e-10
 70.35037     41.3 9.278e+03 4.284e-10
 70.37060     41.4 9.385e+03 4.840e-10
 70.39092     41.6 9.628e+03 5.963e-10
 70.40269     41.9 9.813e+03 6.653e-10
 70.41285     42.5 1.000e+04 7.351e-10
 70.43157     42.6 1.015e+04 7.730e-10
 70.45190     42.4 1.016e+04 7.818e-10
 70.46847     42.5 1.006e+04 7.680e-10
 70.47864     43.0 1.019e+04 7.961e-10
 70.49255     43.1 1.008e+04 7.670e-10
 70.51287     43.5 9.837e+03 6.991e-10
 70.53320     43.8 9.706e+03 6.547e-10
 70.54442     44.5 9.473e+03 5.500e-10
 70.55458     44.7 9.484e+03 5.363e-10
 70.57385     44.8 9.403e+03 4.989e-10
 70.59417     45.1 9.193e+03 4.329e-10
 70.61020     45.1 9.164e+03 4.210e-10
 70.62037     45.2 9.164e+03 4.095e-10
 70.64508     46.0 9.040e+03 3.879e-10
 70.68583     47.3 8.715e+03 2.880e-10
 70.72648     48.1 8.417e+03 2.130e-10
 70.75213     48.6 8.266e+03 1.962e-10
 70.77245     49.0 8.595e+03 2.381e-10
 70.80778     50.0 8.641e+03 2.659e-10
 70.84843     51.8 8.641e+03 2.892e-10
 70.88369     53.5 8.635e+03 2.858e-10
 70.90402     53.9 8.978e+03 3.670e-10
 70.92973     55.3 8.945e+03 3.364e-10
 70.97038     56.3 8.961e+03 3.214e-10
 71.01103     57.3 9.020e+03 3.315e-10
 71.03558     58.5 9.051e+03 3.411e-10
 71.05591     59.1 9.120e+03 3.461e-10
 71.09233     60.6 9.106e+03 3.447e-10
 71.13298     62.3 9.054e+03 3.313e-10
 71.16715     64.2 8.940e+03 2.956e-10
 71.18747     64.9 9.179e+03 3.462e-10
 71.21428     66.8 9.076e+03 3.145e-10
 71.25493     68.7 8.924e+03 2.668e-10
 71.29558     70.5 8.755e+03 2.198e-10
 71.31904     72.2 8.606e+03 1.860e-10
 71.33936     73.2 8.988e+03 2.614e-10
 71.37688     75.0 8.848e+03 2.267e-10
 71.41753     76.7 8.813e+03 2.205e-10
 71.45060     78.3 8.852e+03 2.307e-10
 71.47093     79.2 9.206e+03 2.972e-10
 71.49883     80.9 9.306e+03 3.277e-10
 71.53948     82.2 9.552e+03 3.916e-10
 71.58013     83.3 9.713e+03 4.284e-10
 71.60249     84.7 9.709e+03 4.254e-10
 71.62282     85.5 1.011e+04 5.466e-10
 71.66143     86.6 9.998e+03 4.963e-10
 71.70208     87.9 9.676e+03 3.608e-10
 71.73406     88.8 9.316e+03 2.342e-10
 71.75439     89.6 9.643e+03 2.981e-10
 71.78339     90.4 9.236e+03 2.033e-10
 71.82404     91.5 9.134e+03 1.937e-10
 71.86469     92.9 9.205e+03 2.059e-10
 71.88595     94.2 9.538e+03 2.559e-10
 71.90628     95.1 9.736e+03 3.022e-10
 71.93573     95.1 9.895e+03 3.417e-10
 71.95154     95.1 9.943e+03 3.556e-10
 71.96170     95.6 1.006e+04 3.985e-10
 71.97628     96.0 1.030e+04 4.890e-10
 71.99660     96.5 1.058e+04 6.139e-10
 72.01693     96.9 1.089e+04 7.574e-10
 72.02748     97.3 1.124e+04 9.170e-10
 72.03765     97.5 1.152e+04 1.063e-09
 72.05758     97.6 1.189e+04 1.253e-09
 72.07790     97.6 1.228e+04 1.446e-09
 72.09327     97.3 1.271e+04 1.652e-09
 72.10343     97.1 1.314e+04 1.959e-09
 72.11855     96.1 1.371e+04 2.288e-09
 72.13888     94.2 1.445e+04 2.879e-09
 72.15905     92.0 1.529e+04 3.979e-09
 72.16921     91.6 1.582e+04 5.118e-09
 72.17953     90.2 1.656e+04 7.121e-09
 72.19985     89.2 1.695e+04 8.295e-09
 72.22018     88.4 1.689e+04 8.026e-09
 72.23499     87.7 1.649e+04 6.829e-09
 72.24516     87.6 1.641e+04 6.415e-09
 72.26083     86.5 1.570e+04 4.453e-09
 72.28115     84.8 1.474e+04 2.902e-09
 72.30078     83.0 1.368e+04 1.967e-09
 72.31094     82.4 1.344e+04 1.839e-09
 72.32180     81.8 1.283e+04 1.500e-09
 72.34213     82.0 1.259e+04 1.261e-09
 72.36245     82.1 1.250e+04 1.166e-09
 72.39304     81.9 1.202e+04 8.870e-10
 72.43254     81.9 1.157e+04 7.531e-10
 72.45286     81.3 1.153e+04 7.403e-10
 72.47444     81.6 1.142e+04 7.490e-10
 72.51509     82.4 1.149e+04 8.328e-10
 72.55574     83.4 1.162e+04 9.286e-10
 72.58443     84.6 1.167e+04 9.441e-10
 72.60475     84.0 1.160e+04 8.967e-10
 72.63704     85.1 1.156e+04 8.699e-10
 72.67769     86.3 1.142e+04 7.780e-10
 72.71599     87.4 1.125e+04 6.814e-10
 72.73632     86.8 1.102e+04 5.935e-10
 72.75899     88.0 1.088e+04 5.447e-10
 72.79964     89.3 1.076e+04 4.981e-10
 72.84029     90.9 1.060e+04 4.376e-10
 72.86788     92.6 1.042e+04 3.605e-10
 72.88821     92.1 1.013e+04 2.699e-10
 72.92159     93.7 9.902e+03 1.992e-10
 72.96224     95.2 9.654e+03 1.545e-10
 72.99945     96.8 9.632e+03 1.335e-10
 73.01977     96.3 9.189e+03 1.258e-10
 73.04354     98.1 9.303e+03 1.201e-10
 73.08419     99.9 9.328e+03 1.219e-10
 73.12484    101.7 9.390e+03 1.249e-10
 73.15134    103.5 9.497e+03 1.289e-10
 73.17167    102.7 9.302e+03 1.025e-10
 73.19052    104.2 9.295e+03 1.028e-10
 73.21084    104.4 9.282e+03 1.014e-10
 73.24679    105.5 9.318e+03 1.087e-10
 73.28291    106.4 9.543e+03 1.331e-10
 73.30323    105.7 9.404e+03 1.271e-10
 73.32809    106.6 9.678e+03 1.547e-10
 73.36874    107.3 9.828e+03 1.659e-10
 73.40939    107.8 9.818e+03 1.652e-10
 73.43480    108.4 9.754e+03 1.613e-10
 73.45512    107.9 9.641e+03 1.582e-10
 73.49069    108.8 9.669e+03 1.608e-10
 73.53134    109.9 9.785e+03 1.725e-10
 73.56636    111.1 9.988e+03 2.065e-10
 73.58669    110.7 1.001e+04 2.339e-10
 73.61264    111.9 1.031e+04 3.048e-10
 73.65329    113.0 1.061e+04 3.808e-10
 73.69394    113.8 1.091e+04 4.577e-10
 73.71825    114.5 1.117e+04 5.355e-10
 73.73858    114.0 1.086e+04 4.334e-10
 73.77524    114.7 1.101e+04 4.477e-10
 73.81589    115.3 1.116e+04 4.664e-10
 73.84982    115.8 1.131e+04 4.893e-10
 73.87014    115.6 1.069e+04 2.977e-10
 73.89719    116.4 1.083e+04 3.041e-10
 73.93784    117.3 1.090e+04 3.143e-10
 73.97850    118.5 1.094e+04 3.287e-10
 74.00171    120.0 1.097e+04 3.511e-10
 74.02203    120.1 1.059e+04 2.443e-10
 74.05980    121.9 1.076e+04 2.800e-10
 74.10045    124.0 1.097e+04 3.355e-10
 74.13084    125.1 1.095e+04 3.309e-10
 74.14324    126.1 1.102e+04 3.580e-10
 74.15350    125.6 1.106e+04 3.376e-10
 74.17149    126.7 1.111e+04 3.797e-10
 74.19171    127.8 1.123e+04 4.475e-10
 74.20902    128.9 1.142e+04 5.316e-10
 74.21919    128.6 1.134e+04 4.795e-10
 74.23236    129.6 1.154e+04 5.585e-10
 74.25269    130.5 1.179e+04 6.415e-10
 74.27301    131.4 1.210e+04 7.398e-10
 74.28497    132.1 1.247e+04 8.720e-10
 74.29513    131.5 1.230e+04 7.674e-10
 74.31366    132.0 1.265e+04 9.075e-10
 74.33399    132.5 1.302e+04 1.103e-09
 74.35075    133.1 1.340e+04 1.365e-09
 74.36091    132.5 1.281e+04 9.678e-10
 74.37464    133.1 1.302e+04 1.081e-09
 74.39496    133.8 1.321e+04 1.164e-09
 74.41529    134.3 1.339e+04 1.208e-09
 74.42670    134.6 1.360e+04 1.219e-09
 74.43686    132.4 1.256e+04 6.376e-10
 74.45594    131.6 1.260e+04 6.421e-10
 74.47626    130.3 1.270e+04 6.865e-10
 74.49248    128.7 1.273e+04 8.893e-10
 74.50264    126.2 1.240e+04 8.838e-10
 74.51691    125.5 1.269e+04 1.257e-09
 74.53724    125.2 1.296e+04 1.645e-09
 74.55757    124.8 1.317e+04 1.791e-09
 74.56843    124.0 1.319e+04 1.757e-09
 74.57859    122.9 1.316e+04 1.744e-09
 74.59822    121.8 1.304e+04 1.550e-09
 74.61854    120.5 1.277e+04 1.249e-09
 74.63421    118.7 1.237e+04 1.002e-09
 74.64437    118.0 1.247e+04 1.078e-09
 74.65919    116.6 1.219e+04 1.036e-09
 74.67952    115.6 1.219e+04 1.043e-09
 74.69984    115.1 1.224e+04 1.087e-09
 74.71015    114.8 1.236e+04 1.158e-09
 74.72032    114.3 1.261e+04 1.365e-09
 74.74049    114.0 1.276e+04 1.449e-09
 74.76082    113.5 1.306e+04 1.571e-09
 74.77594    112.5 1.376e+04 1.786e-09
 74.78610    108.9 1.627e+04 3.608e-09
 74.80147    106.7 1.757e+04 5.393e-09
 74.82179    105.0 1.839e+04 7.985e-09
 74.84172    104.5 1.886e+04 1.127e-08
 74.85188    103.7 1.974e+04 1.885e-08
 74.86244    103.5 1.974e+04 1.900e-08
 74.88277    103.3 1.952e+04 1.738e-08
 74.90309    103.2 1.896e+04 1.406e-08
 74.91766    103.3 1.813e+04 1.023e-08
 74.92783    101.7 1.740e+04 7.342e-09
 74.94374    101.4 1.626e+04 4.905e-09
 74.96407    100.8 1.510e+04 3.468e-09
 74.98345    100.4 1.405e+04 2.670e-09
 74.99361     98.6 1.286e+04 1.835e-09
 75.00472     99.6 1.258e+04 1.742e-09
 75.02504    100.9 1.257e+04 1.741e-09
 75.04537    102.2 1.262e+04 1.768e-09
 75.05939    103.6 1.265e+04 1.794e-09
 75.06955    103.0 1.203e+04 1.269e-09
 75.08602    104.5 1.206e+04 1.288e-09
 75.10634    105.8 1.208e+04 1.296e-09
 75.12517    107.1 1.206e+04 1.287e-09
 75.13534    106.0 1.101e+04 7.346e-10
 75.14699    107.4 1.094e+04 7.169e-10
 75.16732    108.9 1.089e+04 7.019e-10
 75.18764    110.3 1.084e+04 6.872e-10
 75.20112    111.6 1.078e+04 6.694e-10
 75.21128    110.0 9.713e+03 3.885e-10
 75.22829    111.4 9.685e+03 3.845e-10
 75.24862    112.8 9.643e+03 3.774e-10
 75.26690    114.2 9.580e+03 3.656e-10
 75.27707    112.3 9.009e+03 2.389e-10
 75.28927    113.9 9.014e+03 2.421e-10
 75.30959    115.4 9.038e+03 2.487e-10
 75.32992    117.0 9.056e+03 2.564e-10
 75.34285    118.5 9.065e+03 2.622e-10
 75.35301    117.6 8.885e+03 2.350e-10
 75.37057    119.0 8.913e+03 2.449e-10
 75.39089    120.5 8.936e+03 2.565e-10
 75.40863    122.1 8.993e+03 2.725e-10
 75.41879    120.9 9.382e+03 3.163e-10
 75.43154    122.2 9.935e+03 3.825e-10
 75.45187    122.2 1.152e+04 5.739e-10
 75.47219    121.3 1.423e+04 1.131e-09
 75.48453    121.4 1.520e+04 1.706e-09
 75.48956    115.6 2.080e+04 5.216e-09
 75.49750    115.4 2.243e+04 6.995e-09
 75.50767    115.3 2.381e+04 9.382e-09
 75.51737    115.4 2.477e+04 1.234e-08
 75.52245    111.0 2.712e+04 3.007e-08
 75.52799    111.9 2.677e+04 3.658e-08
 75.53815    112.9 2.665e+04 4.337e-08
 75.54832    113.8 2.688e+04 5.101e-08
 75.55534    114.1 2.757e+04 5.898e-08
 75.56042    106.6 3.503e+04 6.669e-08
 75.56864    104.4 4.025e+04 5.878e-08
 75.57880    101.7 4.533e+04 4.997e-08
 75.58823     98.4 4.950e+04 4.190e-08
 75.59332     77.4 5.339e+04 2.826e-08
 75.59913     73.4 4.828e+04 2.975e-08
 75.60929     69.7 4.108e+04 3.358e-08
 75.61945     66.8 3.313e+04 3.969e-08
 75.62621     65.2 2.792e+04 4.464e-08
 75.63129     61.5 2.255e+04 5.057e-08
 75.63978     62.2 2.213e+04 5.651e-08
 75.64994     62.8 2.192e+04 6.128e-08
 75.65910     63.3 2.178e+04 6.158e-08
 75.66418     62.4 2.229e+04 5.218e-08
 75.67027     63.1 2.216e+04 4.290e-08
 75.68043     63.7 2.185e+04 3.280e-08
 75.69059     64.2 2.158e+04 2.424e-08
 75.69707     64.5 2.140e+04 1.862e-08
 75.70215     61.6 2.045e+04 7.590e-09
 75.71605     61.4 2.005e+04 4.866e-09
 75.73642     61.4 1.933e+04 3.156e-09
 75.75675     61.7 1.911e+04 2.264e-09
 75.76803     61.4 1.869e+04 1.485e-09
 75.77819     52.2 1.187e+04 3.150e-10
 75.79740     52.2 1.101e+04 2.929e-10
 75.81772     52.9 1.055e+04 3.036e-10
 75.83381     53.7 1.032e+04 3.223e-10
 75.84398     52.9 9.900e+03 2.989e-10
 75.85837     53.9 1.007e+04 3.391e-10
 75.87870     54.8 1.027e+04 3.864e-10
 75.89902     55.5 1.054e+04 4.467e-10
 75.90976     55.8 1.086e+04 5.285e-10
 75.91992     54.2 1.099e+04 5.417e-10
 75.93967     54.1 1.145e+04 6.700e-10
 75.96000     54.0 1.173e+04 9.237e-10
 75.97554     53.9 1.228e+04 1.413e-09
 75.98571     51.3 1.553e+04 2.998e-09
 76.00065     51.6 1.652e+04 3.906e-09
 76.02097     51.8 1.716e+04 4.604e-09
 76.04130     51.9 1.748e+04 5.023e-09
 76.06162     49.7 1.888e+04 7.935e-09
 76.08195     49.6 1.855e+04 7.519e-09
 76.10227     49.6 1.819e+04 7.062e-09
 76.11727     49.7 1.781e+04 6.587e-09
 76.12743     47.8 1.792e+04 7.345e-09
 76.14292     48.3 1.749e+04 6.624e-09
 76.16325     48.8 1.713e+04 5.967e-09
 76.18305     49.4 1.685e+04 5.353e-09
 76.19322     48.1 1.639e+04 5.268e-09
 76.20390     48.8 1.584e+04 4.598e-09
 76.22422     49.3 1.545e+04 3.914e-09
 76.24455     49.6 1.492e+04 3.321e-09
 76.25900     50.0 1.453e+04 2.925e-09
 76.26916     49.0 1.369e+04 2.283e-09
 76.28520     49.6 1.368e+04 2.272e-09
 76.30552     50.1 1.381e+04 2.354e-09
 76.32478     50.2 1.431e+04 2.682e-09
 76.33494     49.1 1.324e+04 2.023e-09
 76.34617     49.1 1.382e+04 2.496e-09
 76.36650     49.3 1.461e+04 3.245e-09
 76.38682     49.6 1.543e+04 3.798e-09
 76.40068     49.4 1.537e+04 3.624e-09
 76.41084     48.3 1.521e+04 3.311e-09
 76.42747     47.7 1.549e+04 3.390e-09
 76.43865     46.8 1.566e+04 3.440e-09
 76.44368     45.1 1.597e+04 3.401e-09
 76.45278     44.3 1.591e+04 3.379e-09
 76.46294     43.3 1.580e+04 3.371e-09
 76.47149     42.0 1.583e+04 3.389e-09
 76.47657     40.2 1.712e+04 3.341e-09
 76.48327     38.6 1.730e+04 3.403e-09
 76.49343     36.8 1.735e+04 3.554e-09
 76.50360     34.8 1.744e+04 3.856e-09
 76.50947     32.7 1.777e+04 4.309e-09
 76.51418     30.9 2.069e+04 6.091e-09
 76.51848     30.5 2.055e+04 7.005e-09
 76.52392     28.9 2.080e+04 8.035e-09
 76.53408     27.3 2.124e+04 9.379e-09
 76.54236     25.7 2.228e+04 1.098e-08
 76.54744     26.4 2.351e+04 2.575e-08
 76.55441     25.0 2.435e+04 2.676e-08
 76.56457     23.4 2.481e+04 2.744e-08
 76.57473     21.2 2.521e+04 2.942e-08
 76.58033     18.6 2.577e+04 3.428e-08
 76.58541     19.0 2.532e+04 5.963e-08
 76.59506     16.3 2.525e+04 7.474e-08
 76.60522     14.2 2.486e+04 9.279e-08
 76.61322     12.2 2.467e+04 9.602e-08
 76.61830     12.5 2.419e+04 1.247e-07
 76.62555     10.6 2.416e+04 1.203e-07
 76.63571      9.3 2.413e+04 1.013e-07
 76.64587      8.7 2.406e+04 7.218e-08
 76.65119      8.5 2.387e+04 4.640e-08
 76.65628      8.5 2.379e+04 4.867e-08
 76.66620      8.1 2.332e+04 3.022e-08
 76.67636      7.4 2.255e+04 2.001e-08
 76.68413      6.8 2.099e+04 1.188e-08
 76.69435      7.1 2.015e+04 1.101e-08
 76.71202      7.2 1.816e+04 6.330e-09
 76.73235      7.2 1.601e+04 3.546e-09
 76.74997      7.1 1.430e+04 2.202e-09
 76.76013      7.1 1.305e+04 1.177e-09
 76.77300      7.2 1.221e+04 8.961e-10
 76.79333      8.1 1.182e+04 7.843e-10
 76.81365      9.7 1.163e+04 7.450e-10
 76.82591     11.8 1.155e+04 7.557e-10
 76.83607     12.4 1.109e+04 5.126e-10
 76.85430     14.1 1.119e+04 5.629e-10
 76.87463     15.8 1.131e+04 6.406e-10
 76.89169     17.3 1.147e+04 7.591e-10
 76.90186     17.8 1.106e+04 5.363e-10
 76.91528     19.2 1.128e+04 6.792e-10
 76.93560     20.6 1.148e+04 8.644e-10
 76.95593     22.1 1.169e+04 1.067e-09
 76.96764     23.7 1.190e+04 1.267e-09
 76.97780     24.0 1.164e+04 1.046e-09
 76.99658     25.5 1.193e+04 1.267e-09
 77.01690     26.9 1.223e+04 1.466e-09
 77.03342     28.1 1.256e+04 1.626e-09
 77.04358     28.2 1.250e+04 1.551e-09
 77.05755     29.0 1.304e+04 1.828e-09
 77.07788     29.4 1.373e+04 2.164e-09
 77.09820     29.4 1.445e+04 2.516e-09
 77.10937     29.4 1.508e+04 2.863e-09
 77.11953     29.4 1.538e+04 3.734e-09
 77.13885     29.4 1.592e+04 4.271e-09
 77.15918     29.3 1.618e+04 4.517e-09
 77.17515     29.1 1.617e+04 4.522e-09
 77.18531     29.2 1.627e+04 5.400e-09
 77.19983     29.3 1.624e+04 5.407e-09
 77.22015     29.7 1.612e+04 5.372e-09
 77.24048     30.2 1.592e+04 5.244e-09
 77.25110     31.0 1.566e+04 4.995e-09
 77.26126     31.3 1.573e+04 5.231e-09
 77.28113     32.1 1.536e+04 4.678e-09
 77.30145     33.1 1.486e+04 3.853e-09
 77.31688     34.2 1.417e+04 2.834e-09
 77.32704     34.3 1.403e+04 2.564e-09
 77.34210     35.2 1.310e+04 1.524e-09
 77.36243     35.3 1.291e+04 1.345e-09
 77.38266     36.4 1.240e+04 1.042e-09
 77.40299     38.0 1.148e+04 6.280e-10
 77.42340     39.5 1.096e+04 4.342e-10
 77.44373     40.5 1.071e+04 3.357e-10
 77.47431     42.0 1.056e+04 2.853e-10
 77.51442     44.7 1.032e+04 2.511e-10
 77.53475     45.2 1.008e+04 2.202e-10
 77.55571     48.4 9.972e+03 2.153e-10
 77.59636     51.6 9.983e+03 2.206e-10
 77.63701     54.7 1.003e+04 2.351e-10
 77.66631     57.6 1.011e+04 2.531e-10
 77.68664     57.6 9.852e+03 2.180e-10
 77.71831     60.4 9.924e+03 2.331e-10
 77.75896     62.9 1.000e+04 2.485e-10
 77.79788     65.4 1.006e+04 2.614e-10
 77.81820     65.3 9.863e+03 2.266e-10
 77.84026     67.7 9.918e+03 2.325e-10
 77.88091     69.9 9.976e+03 2.340e-10
 77.92156     72.1 1.003e+04 2.340e-10
 77.94977     74.2 1.007e+04 2.339e-10
 77.97009     74.1 9.888e+03 2.145e-10
 78.00286     76.2 9.953e+03 2.184e-10
 78.04351     78.3 1.005e+04 2.253e-10
 78.08133     80.2 1.023e+04 2.412e-10
 78.10166     80.0 1.011e+04 2.374e-10
 78.12481     81.8 1.040e+04 2.740e-10
 78.16546     82.7 1.058e+04 3.238e-10
 78.19585     83.1 1.063e+04 3.580e-10
 78.21608     83.4 1.075e+04 4.343e-10
 78.23303     83.9 1.105e+04 6.019e-10
 78.24319     83.7 1.083e+04 5.250e-10
 78.25673     84.5 1.122e+04 7.161e-10
 78.27706     85.3 1.167e+04 9.498e-10
 78.29738     86.0 1.209e+04 1.173e-09
 78.30897     86.4 1.243e+04 1.283e-09
 78.31914     86.3 1.207e+04 1.019e-09
 78.33803     86.3 1.217e+04 1.029e-09
 78.35836     86.3 1.218e+04 1.026e-09
 78.37476     86.1 1.220e+04 1.027e-09
 78.38492     86.0 1.195e+04 8.703e-10
 78.39901     85.8 1.202e+04 9.110e-10
 78.41933     85.3 1.221e+04 1.006e-09
 78.43966     84.4 1.265e+04 1.310e-09
 78.45070     83.0 1.420e+04 2.257e-09
 78.46086     82.9 1.399e+04 2.080e-09
 78.48031     82.5 1.471e+04 2.963e-09
 78.49550     82.1 1.520e+04 3.364e-09
 78.50562     80.7 1.713e+04 4.420e-09
 78.51578     76.6 2.140e+04 9.018e-09
 78.52147     72.0 2.346e+04 2.686e-08
 78.52655     71.6 2.273e+04 1.901e-08
 78.53610     67.7 2.271e+04 5.026e-08
 78.54627     66.7 2.200e+04 1.070e-07
 78.55436     66.5 2.137e+04 1.592e-07
 78.55944     66.3 2.109e+04 8.530e-08
 78.56659     66.2 2.094e+04 8.822e-08
 78.57675     66.3 2.082e+04 8.424e-08
 78.58692     66.7 2.055e+04 6.694e-08
 78.59233     66.7 2.031e+04 3.895e-08
 78.59741     66.0 1.971e+04 2.463e-08
 78.60724     65.3 1.932e+04 1.658e-08
 78.62253     64.4 1.880e+04 8.039e-09
 78.64291     61.3 1.785e+04 2.094e-09
 78.65821     55.5 1.362e+04 6.964e-10
 78.66838     57.7 1.429e+04 9.389e-10
 78.68356     54.9 1.146e+04 6.897e-10
 78.70388     55.3 1.116e+04 6.652e-10
 78.72400     56.1 1.112e+04 6.617e-10
 78.73416     57.3 1.120e+04 7.295e-10
 78.74453     58.1 1.119e+04 7.308e-10
 78.76486     59.0 1.120e+04 7.462e-10
 78.78518     59.8 1.125e+04 7.883e-10
 78.79994     60.4 1.134e+04 8.519e-10
 78.81010     61.2 1.130e+04 8.718e-10
 78.82583     61.6 1.139e+04 9.394e-10
 78.84616     61.9 1.146e+04 1.001e-09
 78.86572     62.2 1.150e+04 1.049e-09
 78.87589     63.0 1.149e+04 1.052e-09
 78.88681     63.2 1.151e+04 1.084e-09
 78.90713     63.3 1.150e+04 1.102e-09
 78.92746     63.2 1.147e+04 1.110e-09
 78.94167     63.1 1.144e+04 1.112e-09
 78.95183     63.9 1.139e+04 1.098e-09
 78.96811     63.7 1.137e+04 1.097e-09
 78.98844     63.5 1.132e+04 1.086e-09
 79.00745     63.2 1.121e+04 1.055e-09
 79.01761     63.9 1.110e+04 9.939e-10
 79.02909     63.6 1.093e+04 9.342e-10
 79.04941     63.2 1.064e+04 8.227e-10
 79.06974     62.8 1.031e+04 7.013e-10
 79.08340     62.3 9.863e+03 5.559e-10
 79.10382     63.1 9.828e+03 5.450e-10
 79.14107     63.4 9.263e+03 4.254e-10
 79.18172     63.8 8.993e+03 3.818e-10
 79.21516     64.1 9.024e+03 3.876e-10
 79.23548     64.8 8.995e+03 3.890e-10
 79.25276     64.4 9.031e+03 4.027e-10
 79.27299     64.1 9.139e+03 4.417e-10
 79.29091     63.8 9.359e+03 5.201e-10
 79.30107     64.0 9.248e+03 4.958e-10
 79.31364     63.7 9.482e+03 5.917e-10
 79.33396     63.2 9.795e+03 7.165e-10
 79.35429     61.8 1.041e+04 9.237e-10
 79.36685     59.2 1.138e+04 1.341e-09
 79.37702     59.2 1.123e+04 1.312e-09
 79.39494     54.8 1.262e+04 2.234e-09
 79.41526     48.3 1.560e+04 4.701e-09
 79.43264     40.8 1.842e+04 9.400e-09
 79.44280     38.4 1.916e+04 1.125e-08
 79.45591     30.8 1.973e+04 1.246e-08
 79.47624     24.3 1.907e+04 1.074e-08
 79.49656     19.0 1.715e+04 6.420e-09
 79.50858     14.0 1.444e+04 3.028e-09
 79.51874     12.6 1.348e+04 2.360e-09
 79.53721      7.5 1.066e+04 1.072e-09
 79.55754      3.7 8.924e+03 6.107e-10
 79.57436      1.9 8.817e+03 4.372e-10
 79.58453      1.6 8.781e+03 3.927e-10
 79.59819      1.0 8.783e+03 3.611e-10
 79.62877      0.9 8.753e+03 3.467e-10
 79.65050      0.8 8.668e+03 3.269e-10
 79.67083      0.9 8.650e+03 3.272e-10
 79.71017      0.7 8.658e+03 3.270e-10
 79.75082      0.5 8.688e+03 3.299e-10
 79.78207      0.2 8.736e+03 3.255e-10
 79.80240      0.0 8.727e+03 3.232e-10
 79.82669     -1.0 8.810e+03 3.244e-10
 79.84702     -1.3 8.744e+03 3.062e-10
 79.85792     -1.9 8.875e+03 3.198e-10
 79.86798     -2.2 8.949e+03 3.266e-10
 79.88274     -3.5 9.196e+03 3.708e-10
 79.90306     -5.0 9.517e+03 4.563e-10
 79.92339     -6.4 9.907e+03 5.938e-10
 79.93377     -7.6 1.038e+04 7.895e-10
 79.94393     -7.7 1.022e+04 7.288e-10
 79.96404     -8.8 1.068e+04 9.331e-10
 79.98436    -10.0 1.118e+04 1.206e-09
 79.99955    -11.0 1.171e+04 1.557e-09
 80.00971    -11.4 1.145e+04 1.363e-09
 80.02502    -12.3 1.198e+04 1.727e-09
 80.04534    -13.3 1.236e+04 1.909e-09
 80.06543    -14.7 1.223e+04 1.634e-09
 80.08585    -14.9 1.210e+04 1.612e-09
 80.11667    -16.5 1.163e+04 1.182e-09
 80.15732    -18.3 1.080e+04 7.346e-10
 80.19709    -19.1 9.936e+03 4.450e-10
 80.21742    -18.6 9.998e+03 4.645e-10
 80.23862    -18.4 9.360e+03 2.742e-10
 80.27927    -18.1 8.947e+03 1.603e-10
 80.31992    -17.6 8.738e+03 1.352e-10
 80.34898    -16.6 8.737e+03 1.378e-10
 80.36931    -16.4 8.747e+03 1.299e-10
 80.40122    -15.2 8.795e+03 1.454e-10
 80.44187    -14.0 8.946e+03 1.760e-10
 80.48055    -12.8 9.154e+03 2.161e-10
 80.50087    -12.7 9.116e+03 2.081e-10
 80.52318    -11.8 9.339e+03 2.576e-10
 80.56383    -11.1 9.662e+03 3.228e-10
 80.60448    -10.6 1.001e+04 3.895e-10
 80.63244    -10.3 1.029e+04 4.265e-10
 80.65276    -10.1 1.008e+04 3.573e-10
 80.68578    -10.1 1.016e+04 3.577e-10
 80.72643     -9.8 1.013e+04 3.369e-10
 80.76400     -9.3 9.973e+03 3.013e-10
 80.78433     -8.5 9.643e+03 2.319e-10
 80.80773     -7.8 9.448e+03 2.049e-10
 80.84838     -6.9 9.341e+03 1.909e-10
 80.88903     -6.0 9.351e+03 1.918e-10
 80.91589     -5.0 9.430e+03 2.022e-10
 80.93622     -4.5 9.490e+03 2.151e-10
 80.97033     -3.7 9.705e+03 2.568e-10
 81.01098     -2.9 9.973e+03 3.176e-10
 81.04746     -2.1 1.027e+04 4.014e-10
 81.06778     -2.1 1.059e+04 5.258e-10
 81.09228     -1.3 1.075e+04 6.128e-10
 81.13293     -0.6 1.078e+04 6.110e-10
 81.17358     -0.0 1.077e+04 5.719e-10
 81.19935      0.5 1.089e+04 5.769e-10
 81.21968     -0.4 1.089e+04 5.458e-10
 81.24462     -0.5 1.116e+04 5.903e-10
 81.26485     -2.2 1.195e+04 7.414e-10
 81.28517     -5.3 1.258e+04 1.122e-09
 81.30550     -6.1 1.277e+04 1.592e-09
 81.32582     -6.1 1.273e+04 1.846e-09
 81.34088     -5.9 1.265e+04 1.783e-09
 81.35105     -6.0 1.233e+04 1.470e-09
 81.36647     -5.9 1.208e+04 1.203e-09
 81.38680     -6.3 1.185e+04 8.399e-10
 81.40667     -7.7 1.167e+04 5.043e-10
 81.41683     -8.4 1.142e+04 4.099e-10
 81.42745    -10.3 1.099e+04 2.739e-10
 81.45803    -12.1 1.054e+04 1.989e-10
 81.48281    -12.8 9.720e+03 1.348e-10
 81.50313    -12.0 9.692e+03 1.309e-10
 81.53943    -12.4 9.296e+03 1.070e-10
 81.58008    -12.3 9.112e+03 9.987e-11
 81.61437    -11.8 9.046e+03 9.851e-11
 81.63470    -11.0 9.020e+03 9.445e-11
 81.66138    -10.2 8.994e+03 9.199e-11
 81.70203     -9.2 8.993e+03 9.163e-11
 81.74268     -8.1 9.000e+03 9.324e-11
 81.76626     -6.9 9.025e+03 9.758e-11
 81.78659     -6.2 8.997e+03 8.723e-11
 81.82398     -4.8 9.048e+03 9.366e-11
 81.86463     -3.5 9.131e+03 1.062e-10
 81.89783     -2.0 9.310e+03 1.304e-10
 81.91815     -1.3 9.259e+03 1.189e-10
 81.94593      0.2 9.566e+03 1.611e-10
 81.98658      1.8 1.002e+04 2.351e-10
 82.02723      2.8 1.035e+04 3.261e-10
 82.04962      4.0 1.055e+04 3.996e-10
 82.06995      5.0 1.053e+04 3.748e-10
 82.10853      6.5 1.071e+04 4.398e-10
 82.14918      7.6 1.098e+04 4.861e-10
 82.18128      8.4 1.113e+04 4.821e-10
 82.20161      9.9 1.086e+04 3.939e-10
 82.23048     10.6 1.104e+04 4.047e-10
 82.27113     11.1 1.111e+04 4.117e-10
 82.31178     11.8 1.107e+04 4.178e-10
 82.33317     12.6 1.104e+04 4.371e-10
 82.35350     13.6 1.114e+04 4.693e-10
 82.39308     14.0 1.149e+04 5.964e-10
 82.43373     13.4 1.217e+04 8.428e-10
 82.46412     12.0 1.310e+04 1.436e-09
 82.47471     10.9 1.377e+04 2.250e-09
 82.48487     10.8 1.366e+04 2.381e-09
 82.50468     10.7 1.412e+04 3.238e-09
 82.52500     10.8 1.449e+04 3.972e-09
 82.54049     10.7 1.474e+04 4.378e-09
 82.55065     10.7 1.408e+04 3.361e-09
 82.56565     10.1 1.423e+04 3.297e-09
 82.58598      9.1 1.427e+04 3.197e-09
 82.60627      8.1 1.420e+04 3.082e-09
 82.62660      7.2 1.346e+04 2.438e-09
 82.64695      6.8 1.335e+04 2.343e-09
 82.66728      6.3 1.325e+04 2.144e-09
 82.68222      5.3 1.324e+04 1.929e-09
 82.69238      4.9 1.339e+04 1.994e-09
 82.70793      3.0 1.376e+04 2.139e-09
 82.72825      1.1 1.407e+04 2.452e-09
 82.74800     -0.4 1.427e+04 2.831e-09
 82.75816     -0.9 1.471e+04 3.316e-09
 82.76890     -2.1 1.484e+04 3.444e-09
 82.78923     -3.4 1.507e+04 3.389e-09
 82.80955     -4.9 1.515e+04 3.293e-09
 82.82395     -6.3 1.508e+04 3.097e-09
 82.83411     -7.2 1.472e+04 2.759e-09
 82.85020     -8.0 1.418e+04 2.446e-09
 82.87053     -8.3 1.374e+04 2.181e-09
 82.88973     -8.5 1.347e+04 1.945e-09
 82.89989     -9.1 1.303e+04 1.642e-09
 82.91118     -9.3 1.296e+04 1.493e-09
 82.93150     -9.7 1.300e+04 1.413e-09
 82.95183    -10.3 1.316e+04 1.398e-09
 82.96567    -10.9 1.336e+04 1.431e-09
 82.97584    -11.5 1.309e+04 1.259e-09
 82.99248    -12.1 1.330e+04 1.330e-09
 83.01280    -12.5 1.340e+04 1.398e-09
 83.03146    -12.9 1.338e+04 1.413e-09
 83.04162    -13.3 1.310e+04 1.317e-09
 83.05345    -13.7 1.302e+04 1.355e-09
 83.07378    -14.2 1.309e+04 1.458e-09
 83.09410    -15.9 1.355e+04 1.605e-09
 83.10740    -19.3 1.510e+04 2.200e-09
 83.11756    -21.8 1.569e+04 2.722e-09
 83.13475    -24.4 1.603e+04 4.144e-09
 83.15475    -25.3 1.590e+04 5.281e-09
 83.16491    -25.1 1.641e+04 7.598e-09
 83.17318    -25.0 1.608e+04 7.002e-09
 83.18335    -25.8 1.569e+04 6.117e-09
 83.19573    -26.0 1.503e+04 4.406e-09
 83.21605    -26.7 1.427e+04 2.863e-09
 83.23638    -27.9 1.325e+04 1.787e-09
 83.24913    -28.9 1.220e+04 1.181e-09
 83.25929    -30.0 1.171e+04 1.000e-09
 83.27703    -29.9 1.106e+04 7.572e-10
 83.29736    -29.3 1.066e+04 6.080e-10
 83.31491    -28.2 1.033e+04 4.732e-10
 83.32508    -28.5 1.014e+04 4.139e-10
 83.33801    -28.4 1.013e+04 3.786e-10
 83.36859    -26.9 9.881e+03 2.996e-10
 83.40934    -24.9 9.659e+03 2.348e-10
 83.44667    -23.1 9.505e+03 2.081e-10
 83.46700    -23.6 9.356e+03 2.011e-10
 83.49064    -21.4 9.315e+03 1.998e-10
 83.53129    -19.2 9.289e+03 2.010e-10
 83.57194    -17.0 9.284e+03 2.089e-10
 83.59856    -14.8 9.309e+03 2.181e-10
 83.61889    -15.0 9.159e+03 1.984e-10
 83.65324    -12.8 9.151e+03 1.949e-10
 83.69389    -10.7 9.140e+03 1.869e-10
 83.73013     -8.7 9.116e+03 1.743e-10
 83.75045     -9.1 9.033e+03 1.651e-10
 83.77519     -7.1 9.039e+03 1.595e-10
 83.81584     -5.2 9.074e+03 1.621e-10
 83.85649     -3.4 9.167e+03 1.719e-10
 83.88202     -2.1 9.584e+03 2.169e-10
 83.90235     -2.9 1.002e+04 2.991e-10
 83.93779     -1.6 1.058e+04 4.686e-10
 83.96818     -1.2 1.084e+04 6.131e-10
 83.98841     -0.8 1.096e+04 7.177e-10
 84.00873     -0.2 1.096e+04 7.590e-10
 84.02355      0.6 1.092e+04 7.281e-10
 84.03372      0.4 1.101e+04 7.583e-10
 84.04938      0.9 1.093e+04 6.495e-10
 84.06971      0.9 1.077e+04 5.410e-10
 84.08934      0.6 1.046e+04 4.680e-10
 84.09950     -0.0 1.080e+04 4.833e-10
 84.11036     -0.1 1.058e+04 4.726e-10
 84.13068     -0.0 1.059e+04 4.804e-10
 84.15101     -0.2 1.068e+04 5.186e-10
 84.16528     -0.6 1.098e+04 6.371e-10
 84.17544     -0.8 1.131e+04 7.566e-10
 84.19166     -1.7 1.200e+04 1.049e-09
 84.21198     -3.3 1.302e+04 1.712e-09
 84.23106     -4.0 1.406e+04 2.932e-09
 84.24123     -4.2 1.405e+04 2.851e-09
 84.25263     -4.1 1.478e+04 4.236e-09
 84.27296     -4.2 1.504e+04 4.846e-09
 84.29328     -4.3 1.496e+04 4.725e-09
 84.30701     -4.1 1.449e+04 3.958e-09
 84.31717     -4.4 1.428e+04 3.773e-09
 84.33393     -4.4 1.342e+04 2.667e-09
 84.35426     -5.4 1.359e+04 2.259e-09
 84.37279    -10.9 1.579e+04 2.671e-09
 84.38295    -11.7 1.674e+04 3.053e-09
 84.39491    -20.5 2.000e+04 6.486e-09
 84.41011    -21.8 1.990e+04 7.921e-09
 84.41575    -23.1 1.964e+04 1.063e-08
 84.42083    -23.8 2.034e+04 1.235e-08
 84.43038    -24.5 1.993e+04 1.514e-08
 84.44054    -25.3 1.977e+04 1.544e-08
 84.44864    -26.2 1.946e+04 1.470e-08
 84.45372    -26.5 2.004e+04 1.695e-08
 84.46087    -27.2 1.958e+04 1.424e-08
 84.47103    -28.6 1.944e+04 1.087e-08
 84.48119    -30.8 1.920e+04 8.090e-09
 84.48661    -34.9 1.874e+04 5.783e-09
 84.49169    -35.6 1.876e+04 5.769e-09
 84.50152    -37.2 1.818e+04 5.207e-09
 84.51447    -40.3 1.625e+04 4.086e-09
 84.52468    -41.3 1.631e+04 4.150e-09
 84.53719    -44.4 1.645e+04 4.556e-09
 84.55751    -45.9 1.767e+04 6.208e-09
 84.57784    -47.2 1.897e+04 9.154e-09
 84.59047    -48.1 1.978e+04 1.352e-08
 84.60063    -48.9 1.978e+04 1.437e-08
 84.61849    -49.1 2.038e+04 2.009e-08
 84.63881    -49.8 2.060e+04 2.097e-08
 84.65625    -50.3 2.023e+04 1.873e-08
 84.66641    -49.9 1.934e+04 1.742e-08
 84.67946    -50.0 1.884e+04 1.374e-08
 84.69979    -50.4 1.836e+04 1.073e-08
 84.72011    -51.1 1.816e+04 9.105e-09
 84.73219    -51.6 1.825e+04 8.057e-09
 84.74236    -52.2 1.674e+04 5.256e-09
 84.75563    -51.9 1.582e+04 4.289e-09
 84.76499    -53.0 1.573e+04 3.937e-09
 84.77007    -53.4 1.514e+04 3.415e-09
 84.77591    -56.1 1.596e+04 3.754e-09
 84.78607    -57.3 1.651e+04 3.744e-09
 84.79623    -60.6 1.819e+04 4.667e-09
 84.80296    -62.0 1.833e+04 4.988e-09
 84.80804    -61.5 1.658e+04 4.223e-09
 84.81656    -63.2 1.645e+04 4.991e-09
 84.82386    -64.0 1.622e+04 5.256e-09
 84.82894    -64.2 1.856e+04 5.340e-09
 84.83585    -65.1 1.773e+04 5.982e-09
 84.84093    -64.1 1.654e+04 5.000e-09
 84.84705    -64.2 1.663e+04 5.191e-09
 84.85721    -64.0 1.661e+04 5.295e-09
 84.86737    -64.1 1.675e+04 5.475e-09
 84.87382    -64.7 1.729e+04 5.598e-09
 84.87890    -63.8 1.644e+04 4.376e-09
 84.88770    -64.4 1.693e+04 4.590e-09
 84.89786    -66.0 1.785e+04 4.621e-09
 84.90671    -66.6 1.809e+04 4.834e-09
 84.91180    -65.5 1.725e+04 3.714e-09
 84.91818    -67.5 1.699e+04 3.831e-09
 84.92835    -67.8 1.687e+04 3.868e-09
 84.93966    -69.2 1.597e+04 5.336e-09
 84.94987    -67.6 1.501e+04 2.892e-09
 84.96401    -66.0 1.436e+04 3.153e-09
 84.98434    -64.3 1.476e+04 2.511e-09
 85.00466    -64.1 1.517e+04 1.880e-09
 85.01565    -65.1 1.478e+04 1.398e-09
 85.02581    -63.7 1.411e+04 8.243e-10
 85.04531    -65.2 1.315e+04 6.949e-10
 85.06564    -66.3 1.217e+04 7.044e-10
 85.08143    -66.6 1.185e+04 8.235e-10
 85.09159    -65.8 1.114e+04 5.599e-10
 85.10629    -65.4 1.149e+04 7.094e-10
 85.12661    -64.8 1.185e+04 8.539e-10
 85.14694    -64.5 1.212e+04 8.927e-10
 85.15738    -64.7 1.215e+04 9.376e-10
 85.16754    -63.6 1.207e+04 9.035e-10
 85.18759    -63.6 1.202e+04 9.492e-10
 85.20791    -63.6 1.209e+04 9.798e-10
 85.22316    -63.7 1.218e+04 1.046e-09
 85.23332    -62.4 1.209e+04 1.002e-09
 85.24856    -62.5 1.227e+04 1.072e-09
 85.26889    -62.7 1.250e+04 1.198e-09
 85.28894    -62.6 1.263e+04 1.460e-09
 85.29911    -61.5 1.239e+04 1.281e-09
 85.30954    -61.3 1.274e+04 1.463e-09
 85.32986    -61.0 1.286e+04 1.784e-09
 85.35019    -60.6 1.317e+04 2.044e-09
 85.36489    -60.2 1.329e+04 2.285e-09
 85.37505    -59.3 1.310e+04 2.046e-09
 85.39084    -58.8 1.324e+04 2.291e-09
 85.41116    -58.2 1.319e+04 2.390e-09
 85.43067    -57.5 1.320e+04 2.264e-09
 85.44083    -56.7 1.324e+04 2.366e-09
 85.45182    -55.9 1.325e+04 2.264e-09
 85.47214    -55.5 1.333e+04 1.938e-09
 85.49247    -55.9 1.333e+04 1.692e-09
 85.50662    -56.6 1.321e+04 1.422e-09
 85.51678    -55.6 1.345e+04 1.631e-09
 85.53312    -56.3 1.319e+04 1.452e-09
 85.55344    -56.6 1.302e+04 1.276e-09
 85.57240    -56.9 1.289e+04 1.208e-09
 85.58256    -56.4 1.300e+04 1.167e-09
 85.59409    -56.8 1.281e+04 1.131e-09
 85.61442    -57.4 1.294e+04 1.172e-09
 85.63474    -58.0 1.296e+04 1.265e-09
 85.64834    -57.8 1.285e+04 1.483e-09
 85.65851    -57.6 1.283e+04 1.395e-09
 85.67539    -57.0 1.246e+04 1.451e-09
 85.69572    -55.7 1.230e+04 1.338e-09
 85.71413    -54.8 1.226e+04 1.066e-09
 85.72429    -54.5 1.224e+04 9.727e-10
 85.73637    -54.2 1.192e+04 7.429e-10
 85.75669    -54.5 1.182e+04 5.251e-10
 85.77702    -55.1 1.126e+04 4.465e-10
 85.79007    -55.2 1.116e+04 3.652e-10
 85.80023    -54.8 1.118e+04 3.596e-10
 85.81767    -54.6 1.081e+04 3.510e-10
 85.83799    -53.9 1.088e+04 3.240e-10
 85.85585    -53.8 1.085e+04 3.269e-10
 85.86602    -53.5 1.097e+04 3.288e-10
 85.87864    -53.4 1.090e+04 3.336e-10
 85.89897    -53.3 1.088e+04 3.365e-10
 85.91929    -53.1 1.065e+04 3.589e-10
 85.93180    -53.0 1.062e+04 3.573e-10
 85.94196    -52.9 1.071e+04 3.952e-10
 85.97020    -52.8 1.072e+04 3.680e-10
 85.99778    -52.8 1.058e+04 3.253e-10
 86.01810    -52.1 1.060e+04 3.670e-10
 86.05160    -51.9 1.033e+04 2.992e-10
 86.09225    -51.3 1.021e+04 2.573e-10
 86.12934    -50.3 1.007e+04 2.533e-10
 86.14967    -49.8 1.003e+04 2.510e-10
 86.17355    -48.5 9.882e+03 2.414e-10
 86.21420    -47.0 9.790e+03 2.336e-10
 86.25485    -45.3 9.722e+03 2.119e-10
 86.28123    -43.9 9.715e+03 1.932e-10
 86.30156    -43.1 9.595e+03 1.820e-10
 86.33615    -41.8 9.550e+03 1.739e-10
 86.37680    -40.5 9.538e+03 1.791e-10
 86.41280    -39.0 9.600e+03 1.983e-10
 86.43312    -37.9 9.339e+03 1.540e-10
 86.45810    -36.3 9.472e+03 1.742e-10
 86.48319    -34.6 9.688e+03 2.174e-10
 86.50352    -33.8 1.010e+04 3.079e-10
 86.53940    -32.2 1.021e+04 3.519e-10
 86.56469    -30.7 1.042e+04 4.021e-10
 86.58502    -29.5 1.034e+04 3.946e-10
 86.62070    -27.6 1.058e+04 4.430e-10
 86.66135    -25.9 1.069e+04 4.524e-10
 86.69626    -24.0 1.066e+04 4.378e-10
 86.71658    -22.9 1.066e+04 4.333e-10
 86.74265    -21.0 1.068e+04 4.175e-10
 86.77210    -20.4 1.063e+04 3.960e-10
 86.78217    -20.0 1.066e+04 3.962e-10
 86.79327    -19.7 1.078e+04 4.296e-10
 86.81360    -19.5 1.094e+04 5.215e-10
 86.83392    -19.0 1.110e+04 6.721e-10
 86.84795    -18.2 1.132e+04 8.742e-10
 86.85811    -17.8 1.134e+04 8.782e-10
 86.87457    -16.8 1.165e+04 1.116e-09
 86.89490    -15.9 1.180e+04 1.189e-09
 86.91373    -15.7 1.180e+04 1.186e-09
 86.92390    -15.3 1.167e+04 1.107e-09
 86.93555    -14.7 1.145e+04 1.024e-09
 86.95587    -14.1 1.117e+04 9.077e-10
 86.97620    -13.0 1.077e+04 7.250e-10
 86.98968    -12.2 1.047e+04 5.616e-10
 86.99984    -11.7 1.043e+04 5.359e-10
 87.02711    -10.7 1.014e+04 3.755e-10
 87.06786     -9.3 9.518e+03 2.151e-10
 87.10851     -8.0 9.216e+03 1.789e-10
 87.13160     -6.2 9.222e+03 1.871e-10
 87.15193     -5.2 9.244e+03 1.863e-10
 87.18981     -4.3 9.453e+03 2.446e-10
 87.23046     -3.4 1.040e+04 4.694e-10
 87.26317     -2.7 1.141e+04 8.383e-10
 87.28340     -3.8 1.241e+04 1.452e-09
 87.30140     -4.2 1.329e+04 2.143e-09
 87.32172     -5.3 1.444e+04 3.352e-09
 87.33892     -6.8 1.559e+04 5.081e-09
 87.34908     -7.9 1.589e+04 5.596e-09
 87.36237     -9.5 1.657e+04 7.059e-09
 87.38270    -10.6 1.664e+04 7.451e-09
 87.40302    -11.3 1.609e+04 6.224e-09
 87.41486    -11.9 1.511e+04 4.219e-09
 87.42503    -12.5 1.406e+04 2.951e-09
 87.44367    -14.1 1.294e+04 1.715e-09
 87.46400    -16.2 1.181e+04 1.013e-09
 87.48065    -17.9 1.091e+04 7.037e-10
 87.49081    -17.9 1.050e+04 5.519e-10
 87.50465    -17.8 1.017e+04 4.862e-10
 87.52497    -17.4 1.004e+04 4.738e-10
 87.54530    -16.1 1.002e+04 4.716e-10
 87.55659    -15.4 1.011e+04 4.842e-10
 87.56675    -14.8 9.980e+03 4.298e-10
 87.59621    -12.8 9.839e+03 4.045e-10
 87.63696    -10.1 9.775e+03 3.992e-10
 87.67761     -7.2 9.723e+03 3.924e-10
 87.69851     -4.3 9.659e+03 3.720e-10
 87.71884     -3.6 9.883e+03 4.132e-10
 87.75891     -0.8 9.997e+03 4.359e-10
 87.79956      1.9 1.012e+04 4.604e-10
 87.83008      4.7 1.023e+04 4.819e-10
 87.85041      4.9 1.101e+04 7.368e-10
 87.88086      7.5 1.122e+04 8.042e-10
 87.92151     10.2 1.145e+04 8.535e-10
 87.96165     12.7 1.162e+04 8.902e-10
 87.98197     11.8 1.264e+04 1.399e-09
 88.00281     14.0 1.280e+04 1.476e-09
 88.03320     16.1 1.264e+04 1.421e-09
 88.04756     17.3 1.276e+04 1.495e-09
 88.05772     16.6 1.326e+04 1.857e-09
 88.07375     17.8 1.333e+04 1.894e-09
 88.09408     18.9 1.334e+04 1.889e-09
 88.11334     20.0 1.333e+04 1.864e-09
 88.12350     19.1 1.344e+04 2.007e-09
 88.13473     20.2 1.331e+04 1.887e-09
 88.15505     21.2 1.322e+04 1.795e-09
 88.17538     22.3 1.306e+04 1.715e-09
 88.18929     23.5 1.293e+04 1.637e-09
 88.19945     22.8 1.259e+04 1.438e-09
 88.21603     23.9 1.247e+04 1.333e-09
 88.23635     24.9 1.237e+04 1.253e-09
 88.25507     26.0 1.229e+04 1.195e-09
 88.26523     25.2 1.171e+04 8.890e-10
 88.27700     26.2 1.162e+04 8.424e-10
 88.29733     27.2 1.156e+04 8.253e-10
 88.31765     28.3 1.156e+04 8.274e-10
 88.33101     29.5 1.158e+04 8.360e-10
 88.34118     28.6 1.093e+04 5.805e-10
 88.35830     29.7 1.099e+04 6.028e-10
 88.37863     31.0 1.106e+04 6.309e-10
 88.39680     32.3 1.111e+04 6.540e-10
 88.40696     31.3 1.061e+04 4.972e-10
 88.41928     32.7 1.066e+04 5.176e-10
 88.43960     33.9 1.071e+04 5.375e-10
 88.45993     35.2 1.076e+04 5.550e-10
 88.47274     36.5 1.081e+04 5.684e-10
 88.48290     35.5 1.059e+04 5.107e-10
 88.50058     36.8 1.071e+04 5.342e-10
 88.52090     37.9 1.085e+04 5.568e-10
 88.53852     39.1 1.087e+04 5.595e-10
 88.54869     38.0 1.080e+04 5.414e-10
 88.56155     39.4 1.078e+04 5.370e-10
 88.58188     40.8 1.081e+04 5.396e-10
 88.60220     41.9 1.087e+04 5.466e-10
 88.61447     42.9 1.095e+04 5.575e-10
 88.62463     41.7 1.096e+04 5.583e-10
 88.64285     42.4 1.113e+04 5.881e-10
 88.66318     43.0 1.137e+04 6.448e-10
 88.68025     43.4 1.167e+04 7.310e-10
 88.69042     42.0 1.172e+04 7.611e-10
 88.70383     42.5 1.199e+04 8.727e-10
 88.72416     43.2 1.226e+04 9.979e-10
 88.74448     43.8 1.257e+04 1.140e-09
 88.75620     43.6 1.293e+04 1.274e-09
 88.76636     42.2 1.315e+04 1.377e-09
 88.78513     41.4 1.400e+04 1.704e-09
 88.80546     39.6 1.528e+04 2.317e-09
 88.82198     37.2 1.683e+04 3.505e-09
 88.83214     34.7 1.780e+04 5.110e-09
 88.84611     33.1 1.924e+04 8.732e-09
 88.86643     32.0 2.054e+04 1.383e-08
 88.88163     30.5 2.204e+04 2.191e-08
 88.89174     29.7 2.264e+04 2.614e-08
 88.89783     28.5 2.320e+04 2.865e-08
 88.90291     27.5 2.320e+04 2.961e-08
 88.91206     25.9 2.318e+04 2.930e-08
 88.92223     24.8 2.286e+04 2.664e-08
 88.93072     24.1 2.255e+04 2.358e-08
 88.93580     23.8 2.188e+04 2.118e-08
 88.94768     23.2 2.185e+04 1.641e-08
 88.96371     21.0 2.119e+04 1.168e-08
 88.97387     19.6 1.986e+04 8.869e-09
 88.98838     15.5 1.963e+04 7.027e-09
 89.00871     10.0 2.032e+04 7.294e-09
 89.02903      4.3 2.152e+04 8.431e-09
 89.03961      0.0 2.277e+04 1.026e-08
 89.04464     -0.4 2.197e+04 9.112e-09
 89.05434     -4.1 2.349e+04 1.284e-08
 89.06450     -8.4 2.486e+04 1.927e-08
 89.07245    -12.7 2.573e+04 2.633e-08
 89.07753    -11.8 2.505e+04 2.348e-08
 89.08483    -16.0 2.580e+04 2.822e-08
 89.09499    -20.2 2.596e+04 2.566e-08
 89.10515    -26.5 2.619e+04 2.151e-08
 89.11042    -33.5 2.479e+04 1.598e-08
 89.11550    -31.9 2.469e+04 1.592e-08
 89.12548    -40.8 2.370e+04 1.444e-08
 89.13564    -45.3 2.169e+04 1.194e-08
 89.14331    -49.3 2.109e+04 1.187e-08
 89.14839    -48.0 2.116e+04 1.178e-08
 89.15597    -49.5 2.034e+04 1.103e-08
 89.16613    -52.4 1.990e+04 1.045e-08
 89.17620    -53.5 1.945e+04 1.006e-08
 89.18128    -52.0 1.959e+04 9.538e-09
 89.19158    -54.1 1.936e+04 7.900e-09
 89.21196    -59.6 1.802e+04 6.458e-09
 89.23228    -64.1 1.737e+04 5.451e-09
 89.24712    -65.4 1.581e+04 4.416e-09
 89.25728    -65.7 1.557e+04 3.592e-09
 89.26780    -66.3 1.512e+04 3.510e-09
 89.27792    -66.6 1.659e+04 3.346e-09
 89.28504    -68.0 2.174e+04 4.159e-09
 89.29012    -66.3 1.529e+04 2.686e-09
 89.29824    -68.5 2.173e+04 3.221e-09
 89.30840    -76.5 3.995e+04 1.019e-08
 89.31793    -85.3 3.471e+04 1.246e-07
 89.32301    -88.1 4.712e+04 1.980e-08
 89.32616    -94.7 3.221e+04 2.429e-07
 89.33122    -99.0 2.358e+04 1.571e-06
 89.33630   -101.5 1.753e+04 1.607e-05
 89.33941   -102.2 1.543e+04 8.178e-05
 89.34195   -104.8 1.657e+04 3.282e-05
 89.34646   -106.1 1.583e+04 6.781e-05
 89.35155   -109.2 1.622e+04 4.510e-05
 89.35586   -113.6 1.873e+04 9.841e-06
 89.35840   -112.9 1.843e+04 1.091e-05
 89.36171   -117.7 2.184e+04 2.714e-06
 89.36679   -121.9 2.539e+04 1.104e-06
 89.37187   -125.2 2.811e+04 6.490e-07
 89.37952   -126.0 2.917e+04 5.263e-07
 89.38880   -130.4 3.254e+04 2.647e-07
 89.39388   -124.3 3.209e+04 3.929e-07
 89.39987   -127.9 3.412e+04 2.620e-07
 89.41003   -132.0 3.393e+04 1.608e-07
 89.42019   -135.3 2.867e+04 1.190e-07
 89.42677   -137.1 2.444e+04 1.011e-07
 89.43185   -135.1 2.984e+04 1.059e-07
 89.44052   -137.0 2.529e+04 8.733e-08
 89.45068   -138.0 2.476e+04 7.497e-08
 89.45966   -139.2 2.510e+04 6.614e-08
 89.46474   -138.8 2.567e+04 7.390e-08
 89.47100   -140.2 2.580e+04 6.998e-08
 89.48117   -141.8 2.606e+04 6.297e-08
 89.49133   -143.5 2.585e+04 5.451e-08
 89.49763   -145.0 2.536e+04 4.548e-08
 89.50271   -144.3 2.631e+04 6.351e-08
 89.51165   -146.0 2.585e+04 5.291e-08
 89.52182   -147.5 2.528e+04 4.369e-08
 89.53052   -149.0 2.471e+04 3.634e-08
 89.53560   -148.6 2.562e+04 4.701e-08
 89.54214   -150.2 2.507e+04 3.812e-08
 89.55230   -151.7 2.441e+04 3.098e-08
 89.56247   -152.8 2.373e+04 2.557e-08
 89.56850   -153.7 2.319e+04 2.175e-08
 89.57358   -153.9 2.396e+04 2.432e-08
 89.58279   -154.7 2.338e+04 2.061e-08
 89.59296   -155.2 2.284e+04 1.787e-08
 89.60139   -155.6 2.221e+04 1.561e-08
 89.60647   -156.3 2.217e+04 1.593e-08
 89.61841   -157.7 2.133e+04 1.361e-08
 89.63878   -158.7 2.051e+04 1.031e-08
 89.65911   -159.1 2.038e+04 8.631e-09
 89.67235   -159.4 2.002e+04 7.507e-09
 89.68251   -161.5 1.902e+04 6.583e-09
 89.69976   -161.1 1.845e+04 5.884e-09
 89.71027   -159.7 1.840e+04 6.155e-09
 89.71531   -160.6 1.760e+04 5.426e-09
 89.72507   -160.5 1.731e+04 5.359e-09
 89.73523   -160.1 1.682e+04 5.224e-09
 89.74312   -159.5 1.673e+04 5.180e-09
 89.74825   -160.7 1.590e+04 4.358e-09
 89.76073   -159.1 1.584e+04 4.358e-09
 89.78106   -157.3 1.580e+04 4.355e-09
 89.80108   -155.6 1.577e+04 4.287e-09
 89.81125   -153.5 1.673e+04 5.479e-09
 89.81408   -151.9 1.681e+04 5.729e-09
 89.82424   -152.5 1.567e+04 3.942e-09
 89.84204   -151.2 1.578e+04 3.948e-09
 89.86236   -149.8 1.622e+04 4.159e-09
 89.87986   -148.6 1.679e+04 4.564e-09
 89.89002   -149.6 1.579e+04 2.368e-09
 89.90301   -148.5 1.656e+04 2.713e-09
 89.92334   -147.5 1.734e+04 3.247e-09
 89.94366   -146.6 1.802e+04 3.969e-09
 89.95581   -145.8 1.852e+04 4.872e-09
 89.96597   -147.5 1.632e+04 2.040e-09
 89.98431   -146.8 1.662e+04 2.477e-09
 90.00464   -146.1 1.704e+04 3.010e-09
 90.02159   -145.1 1.765e+04 3.679e-09
 90.03175   -147.2 1.457e+04 2.133e-09
 90.04529   -146.0 1.516e+04 2.444e-09
 90.06561   -144.7 1.568e+04 2.747e-09
 90.08594   -143.3 1.615e+04 2.932e-09
 90.09753   -142.0 1.634e+04 2.999e-09
 90.10770   -143.7 1.360e+04 2.466e-09
 90.12659   -142.5 1.347e+04 2.400e-09
 90.14691   -141.2 1.332e+04 2.233e-09
 90.16332   -139.9 1.322e+04 2.019e-09
 90.17348   -140.6 1.279e+04 1.973e-09
 90.18756   -139.4 1.248e+04 1.743e-09
 90.20789   -138.2 1.212e+04 1.502e-09
 90.22821   -137.0 1.178e+04 1.267e-09
 90.23926   -135.8 1.152e+04 1.063e-09
 90.24942   -136.1 1.157e+04 1.179e-09
 90.26886   -135.0 1.132e+04 1.005e-09
 90.28919   -133.9 1.107e+04 8.828e-10
 90.30504   -132.8 1.101e+04 8.219e-10
 90.31521   -132.8 1.098e+04 8.491e-10
 90.32984   -131.6 1.095e+04 8.121e-10
 90.35016   -130.6 1.099e+04 8.056e-10
 90.37049   -129.8 1.117e+04 8.367e-10
 90.38099   -129.0 1.143e+04 9.099e-10
 90.39115   -128.5 1.113e+04 8.510e-10
 90.41114   -127.7 1.141e+04 9.085e-10
 90.43146   -126.9 1.147e+04 1.002e-09
 90.44677   -126.1 1.160e+04 1.088e-09
 90.45693   -125.7 1.136e+04 9.871e-10
 90.47211   -124.9 1.157e+04 1.066e-09
 90.49244   -124.3 1.182e+04 1.152e-09
 90.51255   -123.7 1.202e+04 1.234e-09
 90.52272   -122.9 1.190e+04 1.177e-09
 90.53309   -122.3 1.206e+04 1.231e-09
 90.55341   -121.9 1.208e+04 1.238e-09
 90.57374   -121.6 1.210e+04 1.177e-09
 90.58850   -122.1 1.226e+04 1.104e-09
 90.59866   -120.6 1.209e+04 1.142e-09
 90.61439   -121.3 1.218e+04 1.076e-09
 90.63471   -122.7 1.235e+04 1.057e-09
 90.65428   -124.5 1.423e+04 1.089e-09
 90.66445   -121.9 1.248e+04 1.095e-09
 90.67536   -123.6 1.325e+04 1.201e-09
 90.69569   -127.7 1.932e+04 1.295e-09
 90.71601   -134.4 2.868e+04 2.125e-09
 90.73023   -140.8 3.065e+04 5.023e-09
 90.74039   -133.4 2.848e+04 2.334e-09
 90.75666   -139.7 3.007e+04 5.484e-09
 90.76815   -143.5 2.848e+04 8.804e-09
 90.77318   -140.6 2.933e+04 6.247e-09
 90.78197   -142.2 2.883e+04 8.254e-09
 90.79214   -144.6 2.775e+04 1.195e-08
 90.80099   -146.7 2.659e+04 1.702e-08
 90.80608   -145.0 2.812e+04 1.325e-08
 90.81246   -147.2 2.694e+04 1.855e-08
 90.82262   -149.7 2.574e+04 2.561e-08
 90.83279   -152.3 2.511e+04 3.313e-08
 90.83897   -155.0 2.474e+04 4.232e-08
 90.84405   -153.8 2.526e+04 3.940e-08
 90.85311   -156.5 2.460e+04 5.139e-08
 90.86327   -158.9 2.462e+04 6.423e-08
 90.87186   -161.0 2.537e+04 7.482e-08
 90.87694   -160.1 2.394e+04 8.417e-08
 90.88360   -161.9 2.460e+04 9.611e-08
 90.89376   -163.7 2.575e+04 9.751e-08
 90.90392   -165.4 2.647e+04 9.527e-08
 90.90983   -167.3 2.864e+04 7.443e-08
 90.91491   -166.2 2.546e+04 1.121e-07
 90.92425   -168.1 2.828e+04 7.827e-08
 90.93441   -170.2 2.890e+04 5.480e-08
 90.94272   -172.5 2.782e+04 4.034e-08
 90.94780   -170.9 2.826e+04 5.443e-08
 90.95474   -172.9 2.717e+04 3.992e-08
 90.96490   -174.4 2.510e+04 3.333e-08
 90.97506   -175.1 2.352e+04 3.207e-08
 90.98069   -175.2 2.296e+04 3.248e-08
 90.98578   -174.9 2.300e+04 2.885e-08
 90.99539   -175.0 2.248e+04 2.846e-08
 91.00555   -174.9 2.233e+04 3.055e-08
 91.01359   -174.7 2.275e+04 3.312e-08
 91.01867   -174.5 2.133e+04 2.209e-08
 91.02587   -174.2 2.196e+04 2.328e-08
 91.03604   -174.5 2.318e+04 2.690e-08
 91.04620   -175.8 2.434e+04 3.645e-08
 91.05156   -177.3 2.471e+04 5.657e-08
 91.05664   -176.5 2.435e+04 2.946e-08
 91.06652   -178.2 2.460e+04 4.784e-08
 91.07669   -179.6 2.417e+04 7.478e-08
 91.08445   -180.7 2.359e+04 1.011e-07
 91.08953   -180.4 2.387e+04 6.183e-08
 91.09701   -181.2 2.327e+04 7.929e-08
 91.10717   -181.7 2.298e+04 8.520e-08
 91.11734   -181.7 2.234e+04 8.326e-08
 91.12750   -181.4 2.188e+04 6.266e-08
 91.13766   -181.2 2.169e+04 4.570e-08
 91.14782   -181.1 2.194e+04 2.802e-08
 91.15531   -182.7 2.245e+04 1.446e-08
 91.16040   -181.2 2.192e+04 2.103e-08
 91.16815   -184.3 2.224e+04 1.052e-08
 91.17831   -189.3 2.040e+04 4.500e-09
 91.18821   -194.0 1.605e+04 2.350e-09
 91.19329   -191.4 1.856e+04 3.410e-09
 91.20377   -196.4 1.388e+04 1.858e-09
 91.22119   -198.3 1.296e+04 1.693e-09
 91.23136   -197.1 1.362e+04 2.057e-09
 91.24447   -198.7 1.290e+04 1.933e-09
 91.26479   -199.1 1.276e+04 1.938e-09
 91.28512   -199.0 1.275e+04 2.128e-09
 91.29714   -198.6 1.275e+04 2.222e-09
 91.30730   -198.4 1.272e+04 2.230e-09
 91.32577   -197.6 1.251e+04 2.230e-09
 91.34609   -196.5 1.225e+04 1.930e-09
 91.36292   -195.4 1.180e+04 1.543e-09
 91.37309   -195.0 1.167e+04 1.433e-09
 91.38674   -193.9 1.122e+04 1.083e-09
 91.40707   -192.9 1.076e+04 7.756e-10
 91.42739   -191.9 1.034e+04 5.418e-10
 91.45798   -191.0 9.785e+03 3.464e-10
 91.49468   -189.9 9.502e+03 2.784e-10
 91.51501   -188.6 9.489e+03 2.851e-10
 91.53938   -186.2 9.139e+03 2.274e-10
 91.58003   -183.7 8.860e+03 1.788e-10
 91.62068   -181.4 8.662e+03 1.454e-10
 91.64657   -179.2 8.561e+03 1.242e-10
 91.66690   -178.0 8.694e+03 1.494e-10
 91.70198   -175.9 8.644e+03 1.366e-10
 91.74263   -174.0 8.629e+03 1.310e-10
 91.77814   -172.0 8.624e+03 1.296e-10
 91.79846   -171.1 8.731e+03 1.515e-10
 91.82393   -169.3 8.711e+03 1.485e-10
 91.86458   -167.5 8.695e+03 1.436e-10
 91.90523   -165.7 8.661e+03 1.363e-10
 91.93003   -163.8 8.612e+03 1.260e-10
 91.95036   -163.2 8.648e+03 1.356e-10
 91.98653   -161.3 8.604e+03 1.215e-10
 92.02718   -159.5 8.571e+03 1.101e-10
 92.06160   -157.8 8.570e+03 1.050e-10
 92.08192   -157.7 8.903e+03 1.466e-10
 92.10848   -156.1 9.018e+03 1.609e-10
 92.14913   -154.2 9.117e+03 1.813e-10
 92.18978   -152.2 9.164e+03 2.008e-10
 92.21349   -150.1 9.179e+03 2.181e-10
 92.23381   -150.1 9.523e+03 3.065e-10
 92.27108   -147.8 9.409e+03 3.028e-10
 92.31173   -145.3 9.312e+03 2.885e-10
 92.34505   -142.8 9.238e+03 2.715e-10
 92.36538   -142.9 9.236e+03 2.719e-10
 92.39303   -140.3 9.176e+03 2.511e-10
 92.43368   -137.9 9.153e+03 2.339e-10
 92.47433   -135.4 9.150e+03 2.218e-10
 92.49694   -133.0 9.136e+03 2.120e-10
 92.51727   -132.8 9.038e+03 1.910e-10
 92.55563   -130.3 9.049e+03 1.890e-10
 92.59628   -127.8 9.074e+03 1.891e-10
 92.62851   -125.2 9.096e+03 1.904e-10
 92.64883   -124.9 9.085e+03 1.846e-10
 92.67758   -122.3 9.128e+03 1.905e-10
 92.71823   -119.6 9.202e+03 1.980e-10
 92.75888   -117.1 9.303e+03 2.092e-10
 92.78040   -114.5 9.418e+03 2.244e-10
 92.80072   -114.5 9.670e+03 2.934e-10
 92.84018   -112.0 9.866e+03 3.448e-10
 92.88083   -109.7 1.012e+04 4.156e-10
 92.91196   -107.5 1.043e+04 5.161e-10
 92.93229   -107.6 1.081e+04 6.734e-10
 92.96213   -105.7 1.128e+04 8.766e-10
 93.00278   -104.0 1.176e+04 1.115e-09
 93.04343   -102.7 1.216e+04 1.334e-09
 93.08408   -102.8 1.266e+04 1.592e-09
 93.11937   -102.3 1.272e+04 1.611e-09
 93.13969   -101.5 1.279e+04 1.714e-09
 93.16538   -101.1 1.279e+04 1.683e-09
 93.19542   -100.6 1.246e+04 1.355e-09
 93.21575   -101.6 1.205e+04 1.004e-09
 93.24668   -101.0 1.127e+04 6.061e-10
 93.28733   -100.4 1.057e+04 3.778e-10
 93.32699    -99.6 1.013e+04 2.709e-10
 93.34731   -100.0 9.649e+03 1.831e-10
 93.36863    -98.5 9.235e+03 1.326e-10
 93.40928    -96.9 8.971e+03 1.022e-10
 93.44993    -95.3 8.835e+03 8.398e-11
 93.47888    -93.7 8.789e+03 7.589e-11
 93.49920    -93.4 8.735e+03 6.383e-11
 93.53123    -91.7 8.753e+03 6.360e-11
 93.57189    -89.9 8.837e+03 7.005e-11
 93.61044    -88.2 8.916e+03 8.582e-11
 93.63077    -87.9 8.899e+03 8.496e-11
 93.65319    -86.0 8.944e+03 1.063e-10
 93.69384    -84.0 8.998e+03 1.297e-10
 93.73449    -81.8 9.072e+03 1.559e-10
 93.76233    -79.7 9.177e+03 1.875e-10
 93.78266    -79.2 9.161e+03 1.728e-10
 93.81579    -77.1 9.273e+03 2.007e-10
 93.85644    -75.2 9.430e+03 2.446e-10
 93.89390    -73.3 9.660e+03 3.138e-10
 93.91422    -73.1 9.691e+03 2.930e-10
 93.93774    -71.7 1.016e+04 4.375e-10
 93.97839    -70.7 1.088e+04 6.889e-10
 94.01904    -70.3 1.175e+04 1.082e-09
 94.04579    -70.4 1.251e+04 1.574e-09
 94.05585    -70.6 1.287e+04 1.959e-09
 94.06965    -70.6 1.329e+04 2.414e-09
 94.08998    -70.4 1.358e+04 2.758e-09
 94.11030    -70.1 1.372e+04 2.928e-09
 94.12154    -69.9 1.374e+04 2.947e-09
 94.13170    -69.5 1.420e+04 3.613e-09
 94.15095    -69.2 1.387e+04 3.007e-09
 94.17128    -69.2 1.326e+04 2.189e-09
 94.18732    -69.5 1.253e+04 1.555e-09
 94.19748    -69.1 1.269e+04 1.638e-09
 94.22219    -69.2 1.202e+04 1.208e-09
 94.26294    -68.5 1.128e+04 8.709e-10
 94.29333    -67.1 1.115e+04 8.205e-10
 94.31356    -66.4 1.109e+04 8.009e-10
 94.32905    -65.5 1.105e+04 7.925e-10
 94.33921    -65.2 1.133e+04 8.919e-10
 94.35421    -64.4 1.130e+04 8.975e-10
 94.37453    -63.4 1.124e+04 8.937e-10
 94.39483    -62.5 1.121e+04 8.897e-10
 94.41516    -61.4 1.140e+04 9.572e-10
 94.43551    -61.3 1.163e+04 1.004e-09
 94.45583    -64.4 1.354e+04 1.668e-09
 94.47078    -68.1 1.586e+04 3.943e-09
 94.48094    -66.7 1.558e+04 3.308e-09
 94.49648    -68.7 1.722e+04 7.168e-09
 94.51681    -69.3 1.846e+04 1.243e-08
 94.53656    -70.1 1.924e+04 1.554e-08
 94.54672    -68.8 1.876e+04 1.361e-08
 94.55746    -69.9 1.895e+04 1.445e-08
 94.57778    -71.2 1.845e+04 1.195e-08
 94.59811    -73.1 1.716e+04 7.651e-09
 94.61250    -74.9 1.589e+04 5.323e-09
 94.62267    -73.2 1.595e+04 5.514e-09
 94.63876    -74.0 1.506e+04 4.369e-09
 94.65908    -73.9 1.468e+04 3.819e-09
 94.67829    -73.4 1.431e+04 3.250e-09
 94.68845    -72.3 1.433e+04 3.418e-09
 94.69973    -71.3 1.390e+04 2.842e-09
 94.72006    -70.2 1.350e+04 2.338e-09
 94.74038    -69.3 1.313e+04 1.915e-09
 94.75423    -68.3 1.275e+04 1.613e-09
 94.76440    -67.1 1.275e+04 1.639e-09
 94.79129    -65.4 1.257e+04 1.513e-09
 94.83204    -62.6 1.244e+04 1.385e-09
 94.86243    -59.4 1.230e+04 1.312e-09
 94.88266    -57.9 1.264e+04 1.431e-09
 94.89596    -56.0 1.325e+04 1.658e-09
 94.90612    -55.0 1.292e+04 1.550e-09
 94.92331    -52.6 1.392e+04 1.908e-09
 94.94363    -50.2 1.529e+04 2.523e-09
 94.96174    -47.6 1.711e+04 3.494e-09
 94.97191    -44.9 1.582e+04 2.871e-09
 94.98428    -39.9 1.746e+04 3.697e-09
 95.00461    -35.8 2.171e+04 5.582e-09
 95.01980    -32.9 2.772e+04 9.216e-09
 95.02992    -33.6 4.265e+04 1.101e-08
 95.03759    -40.7 7.155e+04 1.135e-08
 95.04267    -54.1 7.324e+04 2.856e-08
 95.04768    -55.8 6.705e+04 6.104e-08
 95.05273    -56.5 6.228e+04 1.103e-07
 95.05653    -58.7 4.955e+04 3.447e-07
 95.05907    -62.8 5.291e+04 3.789e-07
 95.06290    -74.2 4.783e+04 6.155e-07
 95.06798    -90.3 4.100e+04 9.021e-07
 95.07297   -108.4 5.176e+04 2.089e-07
 95.07552   -129.3 7.085e+04 5.086e-08
 95.08071   -147.4 5.271e+04 9.462e-08
 95.09089   -168.3 6.643e+04 3.907e-09
 95.10106   -187.0 3.095e+04 8.149e-10
 95.10846   -189.0 1.502e+04 9.170e-10
 95.11354   -187.6 1.406e+04 8.285e-10
 95.12651   -184.6 1.279e+04 7.137e-10
 95.14688   -182.0 1.120e+04 5.912e-10
 95.16721   -180.2 1.102e+04 5.903e-10
 95.17942   -179.3 1.104e+04 6.252e-10
 95.18958   -178.1 1.066e+04 5.173e-10
 95.20786   -177.6 1.065e+04 5.361e-10
 95.22818   -177.2 1.068e+04 5.568e-10
 95.24520   -176.8 1.073e+04 5.836e-10
 95.25536   -175.7 1.029e+04 4.536e-10
 95.26884   -175.2 1.034e+04 4.784e-10
 95.28916   -174.7 1.042e+04 5.109e-10
 95.30949   -174.0 1.052e+04 5.480e-10
 95.32115   -173.1 1.062e+04 5.889e-10
 95.33131   -172.3 1.014e+04 4.433e-10
 95.35014   -171.3 1.022e+04 4.648e-10
 95.37046   -170.4 1.030e+04 4.849e-10
 95.38693   -169.4 1.037e+04 5.047e-10
 95.39709   -168.6 9.933e+03 3.883e-10
 95.41111   -167.9 1.000e+04 4.007e-10
 95.43144   -166.9 1.009e+04 4.207e-10
 95.45176   -166.3 1.019e+04 4.452e-10
 95.46287   -165.4 1.033e+04 4.902e-10
 95.47304   -164.7 9.995e+03 3.906e-10
 95.49241   -164.0 1.015e+04 4.282e-10
 95.51274   -163.3 1.031e+04 4.772e-10
 95.52866   -162.5 1.047e+04 5.322e-10
 95.53882   -161.8 1.012e+04 4.155e-10
 95.55339   -160.7 1.027e+04 4.560e-10
 95.57371   -160.2 1.038e+04 4.937e-10
 95.59404   -159.4 1.048e+04 5.436e-10
 95.60460   -158.6 1.053e+04 5.695e-10
 95.61476   -157.8 1.022e+04 4.455e-10
 95.63469   -157.1 1.026e+04 4.683e-10
 95.65501   -156.3 1.028e+04 4.837e-10
 95.67038   -155.5 1.029e+04 4.978e-10
 95.68055   -154.5 1.005e+04 4.111e-10
 95.69566   -154.0 1.007e+04 4.230e-10
 95.71599   -152.9 1.007e+04 4.392e-10
 95.73617   -152.2 1.010e+04 4.536e-10
 95.74643   -151.7 9.889e+03 3.742e-10
 95.75673   -150.5 9.996e+03 4.245e-10
 95.77696   -149.6 1.004e+04 4.428e-10
 95.79729   -148.6 1.011e+04 4.672e-10
 95.81211   -147.7 1.018e+04 4.883e-10
 95.82227   -147.0 1.004e+04 4.500e-10
 95.83794   -145.9 1.015e+04 4.830e-10
 95.85826   -145.1 1.023e+04 5.056e-10
 95.87789   -144.1 1.029e+04 5.268e-10
 95.88806   -143.5 1.024e+04 5.115e-10
 95.89891   -142.6 1.029e+04 5.281e-10
 95.91924   -141.7 1.030e+04 5.356e-10
 95.93956   -140.6 1.024e+04 5.293e-10
 95.95384   -139.3 1.022e+04 4.809e-10
 95.96400   -138.9 1.023e+04 5.076e-10
 95.98021   -137.7 1.018e+04 4.550e-10
 96.00956   -136.9 1.013e+04 4.121e-10
 96.02998   -135.6 1.011e+04 4.468e-10
 96.05155   -133.9 1.007e+04 4.049e-10
 96.09220   -131.7 9.950e+03 3.599e-10
 96.13285   -129.4 9.843e+03 3.252e-10
 96.16155   -127.0 9.715e+03 2.960e-10
 96.18187   -126.0 9.767e+03 3.369e-10
 96.21415   -123.7 9.635e+03 2.990e-10
 96.25480   -121.4 9.503e+03 2.593e-10
 96.29311   -119.1 9.391e+03 2.228e-10
 96.31344   -118.1 9.431e+03 2.517e-10
 96.33610   -115.9 9.366e+03 2.193e-10
 96.37675   -113.7 9.336e+03 1.954e-10
 96.41740   -111.6 9.338e+03 1.842e-10
 96.44500   -109.5 9.345e+03 1.822e-10
 96.46533   -108.7 9.351e+03 1.931e-10
 96.49870   -106.7 9.377e+03 1.930e-10
 96.53935   -104.7 9.515e+03 2.035e-10
 96.57657   -102.8 9.635e+03 2.182e-10
 96.59689   -102.1 9.611e+03 2.287e-10
 96.62065   -100.2 9.717e+03 2.421e-10
 96.66130    -98.5 9.757e+03 2.444e-10
 96.70195    -96.7 9.787e+03 2.352e-10
 96.72846    -95.1 9.835e+03 2.075e-10
 96.74878    -94.4 9.888e+03 2.385e-10
 96.78325    -93.0 9.998e+03 2.227e-10
 96.82390    -91.8 1.010e+04 2.197e-10
 96.86002    -91.0 1.047e+04 2.296e-10
 96.88035    -90.8 1.075e+04 3.421e-10
 96.90520    -90.0 1.111e+04 4.466e-10
 96.94585    -89.1 1.148e+04 5.993e-10
 96.98650    -88.1 1.182e+04 7.880e-10
 97.01191    -87.1 1.206e+04 9.404e-10
 97.03224    -86.8 1.255e+04 1.261e-09
 97.06780    -86.1 1.260e+04 1.279e-09
 97.10845    -85.6 1.263e+04 1.225e-09
 97.14348    -85.4 1.265e+04 1.187e-09
 97.16371    -85.3 1.324e+04 1.545e-09
 97.17939    -85.3 1.350e+04 1.682e-09
 97.19972    -85.9 1.426e+04 2.114e-09
 97.21923    -87.1 1.544e+04 3.072e-09
 97.22939    -88.3 1.748e+04 5.181e-09
 97.24037    -90.1 1.918e+04 9.128e-09
 97.25556    -90.7 1.943e+04 1.033e-08
 97.26219    -91.7 2.013e+04 1.406e-08
 97.26727    -92.7 2.086e+04 2.036e-08
 97.27584    -93.4 2.125e+04 2.704e-08
 97.28600    -93.9 2.155e+04 3.328e-08
 97.29508    -94.6 2.166e+04 3.822e-08
 97.30016    -95.2 2.186e+04 5.437e-08
 97.30633    -95.9 2.176e+04 5.547e-08
 97.31649    -96.2 2.129e+04 5.043e-08
 97.32665    -96.2 2.074e+04 4.167e-08
 97.33305    -96.2 2.020e+04 3.188e-08
 97.33813    -96.6 2.021e+04 3.303e-08
 97.34698    -96.8 1.965e+04 2.462e-08
 97.35714    -97.3 1.910e+04 1.870e-08
 97.36594    -97.9 1.848e+04 1.413e-08
 97.37102    -98.4 1.818e+04 1.269e-08
 97.37747    -99.3 1.734e+04 9.091e-09
 97.38763   -100.3 1.629e+04 6.459e-09
 97.40292   -101.7 1.470e+04 4.133e-09
 97.42329   -102.1 1.385e+04 2.911e-09
 97.43690   -102.4 1.257e+04 1.661e-09
 97.44707   -103.1 1.180e+04 1.182e-09
 97.46395   -103.0 1.103e+04 7.266e-10
 97.48427   -103.0 1.049e+04 4.701e-10
 97.50269   -103.1 1.012e+04 3.368e-10
 97.51285   -103.1 9.993e+03 2.953e-10
 97.52492   -103.0 9.902e+03 2.755e-10
 97.55551   -102.7 9.883e+03 2.655e-10
 97.57883   -102.5 9.726e+03 2.353e-10
 97.59915   -102.2 9.520e+03 1.926e-10
 97.63690   -101.3 9.398e+03 1.788e-10
 97.67755   -100.4 9.379e+03 1.769e-10
 97.71039    -99.7 9.444e+03 1.900e-10
 97.73072    -98.8 9.320e+03 1.594e-10
 97.75885    -98.1 9.600e+03 2.070e-10
 97.79950    -97.7 9.968e+03 2.921e-10
 97.82989    -97.2 1.014e+04 3.494e-10
 97.85012    -97.5 1.029e+04 3.962e-10
 97.86209    -97.9 1.068e+04 5.566e-10
 97.87225    -97.1 1.063e+04 5.398e-10
 97.89077    -97.5 1.107e+04 7.624e-10
 97.91110    -97.7 1.156e+04 1.071e-09
 97.92787    -97.8 1.198e+04 1.400e-09
 97.93803    -96.9 1.196e+04 1.392e-09
 97.95175    -96.7 1.235e+04 1.779e-09
 97.97207    -96.5 1.261e+04 2.126e-09
 97.99240    -96.2 1.271e+04 2.330e-09
 98.00382    -95.8 1.271e+04 2.376e-09
 98.01398    -94.8 1.285e+04 2.548e-09
 98.03305    -94.3 1.279e+04 2.560e-09
 98.05337    -93.5 1.251e+04 2.342e-09
 98.06960    -92.7 1.220e+04 1.966e-09
 98.07976    -91.8 1.239e+04 2.163e-09
 98.09402    -90.9 1.206e+04 1.778e-09
 98.11435    -90.2 1.175e+04 1.385e-09
 98.13467    -89.7 1.153e+04 1.044e-09
 98.14554    -89.3 1.137e+04 8.120e-10
 98.15571    -88.0 1.137e+04 9.404e-10
 98.17532    -87.5 1.126e+04 7.779e-10
 98.19565    -87.1 1.123e+04 7.081e-10
 98.21133    -86.6 1.122e+04 6.936e-10
 98.22149    -85.3 1.117e+04 7.280e-10
 98.23630    -84.6 1.118e+04 7.258e-10
 98.25662    -83.8 1.124e+04 7.736e-10
 98.27695    -82.8 1.132e+04 8.675e-10
 98.28727    -81.7 1.143e+04 9.570e-10
 98.29743    -80.7 1.150e+04 9.662e-10
 98.31760    -79.7 1.164e+04 1.024e-09
 98.33792    -78.9 1.176e+04 1.045e-09
 98.35305    -78.4 1.182e+04 1.052e-09
 98.36322    -78.2 1.181e+04 1.051e-09
 98.37857    -78.0 1.178e+04 1.049e-09
 98.39890    -77.5 1.210e+04 1.129e-09
 98.41884    -78.5 1.289e+04 1.340e-09
 98.42900    -77.2 1.262e+04 1.293e-09
 98.43955    -78.4 1.334e+04 1.611e-09
 98.45987    -79.5 1.389e+04 2.140e-09
 98.48020    -79.9 1.416e+04 2.897e-09
 98.49478    -79.6 1.431e+04 3.632e-09
 98.50494    -78.8 1.421e+04 2.960e-09
 98.52085    -78.6 1.421e+04 3.214e-09
 98.54118    -78.4 1.415e+04 3.237e-09
 98.56056    -78.0 1.372e+04 2.802e-09
 98.57073    -77.3 1.369e+04 2.662e-09
 98.58183    -76.8 1.330e+04 2.067e-09
 98.60215    -76.7 1.297e+04 1.555e-09
 98.62248    -77.4 1.286e+04 1.289e-09
 98.63651    -78.3 1.286e+04 1.232e-09
 98.64667    -77.1 1.281e+04 1.196e-09
 98.66313    -77.9 1.290e+04 1.199e-09
 98.68345    -78.8 1.318e+04 1.396e-09
 98.70229    -79.4 1.335e+04 1.686e-09
 98.71246    -77.9 1.334e+04 1.606e-09
 98.72410    -78.2 1.346e+04 1.799e-09
 98.74443    -78.3 1.347e+04 1.831e-09
 98.76475    -78.6 1.335e+04 1.622e-09
 98.77824    -79.4 1.309e+04 1.145e-09
 98.78840    -77.4 1.338e+04 1.342e-09
 98.80540    -78.7 1.306e+04 8.815e-10
 98.82573    -80.7 1.257e+04 6.316e-10
 98.84402    -82.4 1.212e+04 5.146e-10
 98.85418    -80.3 1.241e+04 5.782e-10
 98.86638    -81.7 1.200e+04 5.079e-10
 98.88670    -82.4 1.185e+04 4.709e-10
 98.90703    -83.0 1.180e+04 4.345e-10
 98.91997    -83.5 1.175e+04 3.882e-10
 98.93013    -82.3 1.189e+04 4.684e-10
 98.94768    -82.8 1.179e+04 4.051e-10
 98.96800    -83.2 1.159e+04 3.415e-10
 98.98575    -83.5 1.134e+04 3.006e-10
 98.99591    -82.7 1.162e+04 3.631e-10
 99.00865    -82.7 1.133e+04 3.119e-10
 99.02898    -82.6 1.115e+04 2.862e-10
 99.04930    -82.1 1.109e+04 2.745e-10
 99.06169    -81.8 1.103e+04 2.706e-10
 99.07186    -81.7 1.108e+04 2.738e-10
 99.10021    -80.9 1.094e+04 2.610e-10
 99.12767    -79.5 1.079e+04 2.355e-10
 99.14800    -79.0 1.094e+04 2.413e-10
 99.18161    -77.6 1.082e+04 2.252e-10
 99.22226    -76.1 1.069e+04 2.134e-10
 99.25924    -74.5 1.059e+04 2.053e-10
 99.27956    -74.3 1.073e+04 2.402e-10
 99.30356    -72.8 1.064e+04 2.331e-10
 99.34421    -71.3 1.064e+04 2.311e-10
 99.37460    -70.7 1.080e+04 2.264e-10
 99.39483    -70.7 1.083e+04 2.310e-10
 99.41093    -70.9 1.121e+04 2.607e-10
 99.42110    -72.5 1.177e+04 3.276e-10
 99.43548    -73.6 1.226e+04 4.686e-10
 99.45580    -74.4 1.255e+04 7.280e-10
 99.47613    -74.7 1.273e+04 1.124e-09
 99.48688    -74.4 1.283e+04 1.589e-09
 99.49704    -73.8 1.285e+04 2.033e-09
 99.51678    -73.0 1.287e+04 2.205e-09
 99.53710    -72.2 1.284e+04 2.227e-09
 99.55266    -71.2 1.253e+04 2.009e-09
 99.56282    -71.0 1.230e+04 1.667e-09
 99.57775    -70.6 1.201e+04 1.153e-09
 99.59808    -70.6 1.159e+04 7.130e-10
 99.61841    -71.0 1.106e+04 4.354e-10
 99.63873    -71.9 1.054e+04 3.094e-10
 99.66932    -71.1 1.041e+04 2.930e-10
 99.69458    -70.0 1.019e+04 2.553e-10
 99.71491    -69.7 1.027e+04 2.886e-10
 99.75071    -68.4 1.009e+04 2.503e-10
 99.77587    -67.2 9.959e+03 2.251e-10
 99.79619    -68.6 9.821e+03 1.797e-10
 99.82615    -67.3 9.800e+03 1.789e-10
 99.84647    -67.1 9.922e+03 2.202e-10
 99.87266    -65.9 9.917e+03 2.273e-10
 99.91331    -64.8 1.015e+04 2.790e-10
 99.95396    -63.9 1.053e+04 3.771e-10
 99.97794    -63.8 1.079e+04 4.751e-10
 99.98801    -63.9 1.064e+04 4.453e-10
100.00458    -64.0 1.076e+04 5.256e-10
