# Columns:
#   distance along LOS (in CHIMPs)
#   peculiar velocity  (in km/s)
#   temperature (K)
#   HI number density
# pos=(176.965,195.137,63.3849), angles=(2.0037,4.66729)
  0.01196    281.4 9.113e+03 2.464e-10
  0.03728    282.7 9.247e+03 2.617e-10
  0.05882    284.3 9.430e+03 3.351e-10
  0.08854    285.8 9.575e+03 3.513e-10
  0.12691    287.0 9.627e+03 3.433e-10
  0.14845    289.5 1.010e+04 4.801e-10
  0.17470    290.4 1.010e+04 4.486e-10
  0.21655    291.1 1.001e+04 3.704e-10
  0.23808    293.8 1.061e+04 5.273e-10
  0.26085    294.7 1.051e+04 4.102e-10
  0.30392    294.9 1.033e+04 3.196e-10
  0.32772    294.4 1.016e+04 2.946e-10
  0.33765    295.9 1.080e+04 3.922e-10
  0.34606    295.7 1.050e+04 3.255e-10
  0.35757    295.3 1.034e+04 3.158e-10
  0.37234    294.5 1.031e+04 3.205e-10
  0.38311    296.3 1.059e+04 3.696e-10
  0.40065    295.7 1.038e+04 3.690e-10
  0.41716    295.2 1.030e+04 3.779e-10
  0.42793    297.4 1.066e+04 4.966e-10
  0.44372    296.6 1.059e+04 5.097e-10
  0.46197    295.6 1.064e+04 5.534e-10
  0.47274    297.2 1.114e+04 6.752e-10
  0.48680    295.8 1.113e+04 6.762e-10
  0.50679    294.0 1.114e+04 6.844e-10
  0.51756    295.5 1.148e+04 7.584e-10
  0.52988    293.4 1.149e+04 7.625e-10
  0.55141    290.3 1.177e+04 8.441e-10
  0.56238    281.8 1.444e+04 1.252e-09
  0.57315    277.8 1.669e+04 1.739e-09
  0.58379    272.9 1.762e+04 2.363e-09
  0.58480    273.2 1.740e+04 2.301e-09
  0.59007    272.8 1.779e+04 2.418e-09
  0.59978    268.2 1.896e+04 3.724e-09
  0.60710    262.1 2.028e+04 6.820e-09
  0.61248    259.3 2.101e+04 9.236e-09
  0.62131    253.3 2.184e+04 1.548e-08
  0.62950    247.1 2.308e+04 2.303e-08
  0.63489    244.7 2.354e+04 2.727e-08
  0.64285    237.2 2.536e+04 3.511e-08
  0.65191    229.0 2.620e+04 4.001e-08
  0.65730    225.2 2.635e+04 4.321e-08
  0.66439    217.0 2.591e+04 4.305e-08
  0.67432    210.6 2.453e+04 4.035e-08
  0.67970    207.6 2.398e+04 4.010e-08
  0.68593    204.1 2.264e+04 3.321e-08
  0.69670    201.7 2.205e+04 2.497e-08
  0.70752    198.9 2.181e+04 1.839e-08
  0.72372    194.3 2.187e+04 8.123e-09
  0.74164    188.5 2.122e+04 2.839e-09
  0.75241    185.6 2.048e+04 1.773e-09
  0.76679    178.1 1.492e+04 1.142e-09
  0.78646    174.0 1.309e+04 1.164e-09
  0.79723    172.9 1.282e+04 9.410e-10
  0.80987    172.3 1.292e+04 1.112e-09
  0.82161    171.7 1.345e+04 1.493e-09
  0.83225    170.4 1.413e+04 2.274e-09
  0.84205    169.2 1.434e+04 2.190e-09
  0.85295    168.5 1.484e+04 3.073e-09
  0.87448    167.8 1.532e+04 4.133e-09
  0.88686    167.2 1.584e+04 5.172e-09
  0.89763    166.5 1.626e+04 6.087e-09
  0.91756    165.7 1.703e+04 7.707e-09
  0.93168    164.6 1.772e+04 9.214e-09
  0.94245    163.6 1.822e+04 1.105e-08
  0.96063    162.2 1.877e+04 1.278e-08
  0.97650    160.6 1.891e+04 1.281e-08
  0.98727    159.9 1.926e+04 1.578e-08
  1.00371    158.7 1.911e+04 1.489e-08
  1.02131    157.8 1.856e+04 1.192e-08
  1.03208    157.3 1.867e+04 1.412e-08
  1.04679    157.3 1.765e+04 9.192e-09
  1.06613    157.4 1.636e+04 4.718e-09
  1.07690    157.3 1.627e+04 5.526e-09
  1.08986    157.4 1.497e+04 2.631e-09
  1.11095    157.0 1.385e+04 1.137e-09
  1.12172    157.2 1.406e+04 1.640e-09
  1.13294    157.3 1.320e+04 8.884e-10
  1.15586    157.3 1.168e+04 3.223e-10
  1.17750    159.1 1.296e+04 7.788e-10
  1.20852    160.7 1.156e+04 3.878e-10
  1.24559    162.5 1.031e+04 2.550e-10
  1.26713    165.4 1.195e+04 4.986e-10
  1.29467    167.2 1.064e+04 3.404e-10
  1.33523    169.1 1.023e+04 3.286e-10
  1.35676    171.5 1.102e+04 4.590e-10
  1.38082    173.2 1.064e+04 4.600e-10
  1.42390    174.7 1.062e+04 4.675e-10
  1.44640    175.4 1.073e+04 5.024e-10
  1.46794    177.6 1.114e+04 6.526e-10
  1.51005    177.9 1.114e+04 6.513e-10
  1.53603    178.0 1.104e+04 6.076e-10
  1.54670    178.4 1.117e+04 6.814e-10
  1.56370    178.4 1.108e+04 6.452e-10
  1.58065    178.3 1.096e+04 5.836e-10
  1.59142    178.9 1.109e+04 6.317e-10
  1.60677    178.5 1.097e+04 5.778e-10
  1.62557    178.6 1.094e+04 5.379e-10
  1.63634    178.8 1.104e+04 5.915e-10
  1.64985    178.6 1.100e+04 5.808e-10
  1.67029    178.2 1.107e+04 5.871e-10
  1.68106    178.6 1.117e+04 6.341e-10
  1.69293    178.2 1.131e+04 6.459e-10
  1.71446    177.9 1.145e+04 6.698e-10
  1.72587    177.6 1.162e+04 7.161e-10
  1.73664    178.0 1.185e+04 8.246e-10
  1.75754    177.7 1.209e+04 8.926e-10
  1.77069    177.2 1.238e+04 1.026e-09
  1.77508    177.6 1.260e+04 1.193e-09
  1.78347    176.7 1.223e+04 9.868e-10
  1.80062    175.9 1.263e+04 1.164e-09
  1.81551    174.9 1.310e+04 1.458e-09
  1.82627    175.3 1.328e+04 1.656e-09
  1.84369    174.3 1.376e+04 2.092e-09
  1.86032    173.1 1.427e+04 2.617e-09
  1.87109    173.9 1.445e+04 2.892e-09
  1.88677    172.6 1.489e+04 3.248e-09
  1.90514    170.8 1.525e+04 3.337e-09
  1.91591    171.4 1.554e+04 3.548e-09
  1.92984    169.0 1.565e+04 3.472e-09
  1.94996    166.1 1.566e+04 3.478e-09
  1.96073    166.4 1.634e+04 3.944e-09
  1.97292    163.0 1.620e+04 4.206e-09
  1.99446    160.0 1.575e+04 4.881e-09
  2.00554    157.7 1.549e+04 5.075e-09
  2.01631    157.6 1.607e+04 5.823e-09
  2.03753    155.8 1.548e+04 5.585e-09
  2.05036    154.7 1.474e+04 4.531e-09
  2.06113    154.5 1.472e+04 4.525e-09
  2.08061    153.8 1.377e+04 2.980e-09
  2.09518    152.7 1.272e+04 1.742e-09
  2.10594    152.2 1.257e+04 1.611e-09
  2.12368    150.3 1.145e+04 9.143e-10
  2.13999    148.4 1.049e+04 5.655e-10
  2.15076    148.1 1.049e+04 5.718e-10
  2.16676    147.1 1.001e+04 4.329e-10
  2.18491    147.5 9.908e+03 4.013e-10
  2.20654    147.3 9.953e+03 4.172e-10
  2.24234    147.4 9.445e+03 3.090e-10
  2.27464    148.1 9.078e+03 2.755e-10
  2.29618    147.8 9.156e+03 2.869e-10
  2.32849    148.6 9.066e+03 2.841e-10
  2.36427    149.2 9.076e+03 2.898e-10
  2.38581    148.7 9.109e+03 2.959e-10
  2.41464    149.1 9.099e+03 2.969e-10
  2.45391    149.4 9.068e+03 2.939e-10
  2.47544    148.4 9.120e+03 3.043e-10
  2.50079    148.4 9.071e+03 2.979e-10
  2.54354    148.4 9.080e+03 2.982e-10
  2.56508    147.4 9.266e+03 3.480e-10
  2.58695    147.4 9.336e+03 3.611e-10
  2.63002    147.8 9.388e+03 3.751e-10
  2.65461    148.2 9.527e+03 4.318e-10
  2.66528    148.1 9.744e+03 5.046e-10
  2.68367    148.4 9.954e+03 5.711e-10
  2.69933    148.6 1.018e+04 6.493e-10
  2.71010    148.4 1.041e+04 7.416e-10
  2.72379    148.6 1.068e+04 8.551e-10
  2.73456    148.1 1.072e+04 8.409e-10
  2.74415    148.3 1.099e+04 9.584e-10
  2.75492    148.2 1.124e+04 1.108e-09
  2.76982    148.4 1.149e+04 1.237e-09
  2.78897    148.6 1.167e+04 1.311e-09
  2.79973    148.6 1.189e+04 1.500e-09
  2.81290    148.8 1.197e+04 1.522e-09
  2.83378    149.1 1.199e+04 1.490e-09
  2.84455    149.2 1.222e+04 1.695e-09
  2.85597    149.5 1.224e+04 1.594e-09
  2.87751    149.7 1.226e+04 1.405e-09
  2.88937    149.8 1.229e+04 1.153e-09
  2.90014    149.7 1.282e+04 1.440e-09
  2.92059    149.5 1.308e+04 1.130e-09
  2.93419    148.9 1.334e+04 8.058e-10
  2.94495    148.7 1.423e+04 1.147e-09
  2.96366    147.3 1.427e+04 7.635e-10
  2.97900    144.8 1.307e+04 5.507e-10
  2.98977    142.8 1.427e+04 9.388e-10
  3.00674    138.9 1.276e+04 1.026e-09
  3.02382    135.6 1.233e+04 1.454e-09
  3.03459    132.1 1.454e+04 2.867e-09
  3.04982    130.0 1.529e+04 4.183e-09
  3.06864    128.4 1.620e+04 5.638e-09
  3.07940    125.4 1.657e+04 5.762e-09
  3.09289    124.0 1.657e+04 5.670e-09
  3.11345    122.8 1.634e+04 4.743e-09
  3.12422    119.2 1.514e+04 2.615e-09
  3.13597    116.7 1.407e+04 1.514e-09
  3.15751    114.1 1.262e+04 9.090e-10
  3.16904    111.1 1.106e+04 6.286e-10
  3.17981    109.0 1.011e+04 5.515e-10
  3.19933    108.8 1.004e+04 5.506e-10
  3.21010    109.2 9.945e+03 5.418e-10
  3.21385    109.3 9.955e+03 5.489e-10
  3.23549    108.9 9.987e+03 5.553e-10
  3.27616    109.9 1.043e+04 6.933e-10
  3.30359    110.0 1.068e+04 7.885e-10
  3.32512    109.3 1.061e+04 7.459e-10
  3.34840    109.5 1.089e+04 8.418e-10
  3.35907    109.0 1.078e+04 8.042e-10
  3.37289    108.8 1.095e+04 8.582e-10
  3.39312    108.6 1.111e+04 9.145e-10
  3.41476    107.5 1.097e+04 8.744e-10
  3.43760    106.5 1.145e+04 1.068e-09
  3.44871    105.6 1.195e+04 1.330e-09
  3.45948    105.2 1.185e+04 1.305e-09
  3.48058    104.6 1.234e+04 1.674e-09
  3.49352    104.5 1.291e+04 2.249e-09
  3.50439    104.8 1.213e+04 1.559e-09
  3.53462    104.7 1.251e+04 1.823e-09
  3.57258    104.6 1.229e+04 1.588e-09
  3.59412    103.4 1.124e+04 9.271e-10
  3.62077    103.5 1.065e+04 6.254e-10
  3.66222    103.8 9.926e+03 3.610e-10
  3.68376    103.4 9.795e+03 3.844e-10
  3.68584    104.5 9.423e+03 2.566e-10
  3.70738    103.5 9.335e+03 2.139e-10
  3.74999    104.8 9.146e+03 1.674e-10
  3.77339    106.4 9.120e+03 1.579e-10
  3.79493    106.8 9.314e+03 2.268e-10
  3.83615    108.5 9.319e+03 2.146e-10
  3.86302    110.1 9.349e+03 2.189e-10
  3.88456    110.4 9.576e+03 3.083e-10
  3.92230    112.0 9.602e+03 3.001e-10
  3.95266    113.6 9.651e+03 2.990e-10
  3.97420    113.7 9.703e+03 3.370e-10
  4.00845    115.2 9.703e+03 3.081e-10
  4.04229    116.5 9.688e+03 2.824e-10
  4.06383    116.6 9.607e+03 2.847e-10
  4.09460    118.0 9.609e+03 2.652e-10
  4.13192    119.4 9.640e+03 2.543e-10
  4.15346    119.8 9.654e+03 2.882e-10
  4.18075    121.0 9.821e+03 3.146e-10
  4.22156    122.1 1.011e+04 3.710e-10
  4.24310    122.6 1.057e+04 5.607e-10
  4.26691    123.2 1.121e+04 7.862e-10
  4.30998    123.2 1.175e+04 1.045e-09
  4.33273    123.0 1.203e+04 1.177e-09
  4.35427    123.3 1.258e+04 1.546e-09
  4.39613    122.3 1.241e+04 1.358e-09
  4.42236    121.2 1.183e+04 8.799e-10
  4.44390    120.9 1.186e+04 8.636e-10
  4.48229    119.2 1.084e+04 4.367e-10
  4.51200    117.4 9.783e+03 2.208e-10
  4.53353    117.2 9.798e+03 2.744e-10
  4.56844    116.6 9.333e+03 1.960e-10
  4.60163    116.7 9.204e+03 1.633e-10
  4.62317    117.1 9.508e+03 2.290e-10
  4.63693    117.6 9.389e+03 1.895e-10
  4.65847    117.9 9.214e+03 1.936e-10
  4.69126    118.8 9.264e+03 1.853e-10
  4.71280    119.2 9.479e+03 2.392e-10
  4.74074    120.0 9.546e+03 2.330e-10
  4.78090    120.9 9.638e+03 2.333e-10
  4.80244    121.1 9.950e+03 3.063e-10
  4.82689    121.7 1.005e+04 3.082e-10
  4.85910    121.7 1.026e+04 3.445e-10
  4.88054    121.8 1.050e+04 4.016e-10
  4.89187    122.0 1.074e+04 4.892e-10
  4.90264    122.0 1.098e+04 6.462e-10
  4.92362    122.5 1.121e+04 7.737e-10
  4.93669    123.1 1.145e+04 9.071e-10
  4.94746    123.1 1.162e+04 1.065e-09
  4.96669    123.6 1.194e+04 1.211e-09
  4.98151    123.4 1.239e+04 1.425e-09
  4.99228    122.9 1.259e+04 1.591e-09
  5.00977    122.1 1.341e+04 2.115e-09
  5.02632    120.8 1.438e+04 3.166e-09
  5.03709    119.9 1.435e+04 3.391e-09
  5.05285    119.4 1.531e+04 5.104e-09
  5.07114    119.2 1.622e+04 7.400e-09
  5.08191    118.5 1.610e+04 6.853e-09
  5.09592    117.9 1.680e+04 6.918e-09
  5.11228    116.5 1.693e+04 6.282e-09
  5.12155    117.1 1.812e+04 9.203e-09
  5.12673    115.0 1.710e+04 6.751e-09
  5.13900    112.5 1.699e+04 4.911e-09
  5.16054    109.2 1.592e+04 2.619e-09
  5.17154    104.9 1.333e+04 1.143e-09
  5.18231    103.2 1.164e+04 8.607e-10
  5.21448    101.1 1.040e+04 4.777e-10
  5.25060    100.6 9.666e+03 2.976e-10
  5.27214    100.4 9.402e+03 2.430e-10
  5.30073    100.2 9.296e+03 2.227e-10
  5.34024    100.7 9.284e+03 2.233e-10
  5.36178    100.2 9.247e+03 2.235e-10
  5.38688    101.0 9.358e+03 2.453e-10
  5.42987    101.9 9.605e+03 2.881e-10
  5.47295    101.5 9.915e+03 3.524e-10
  5.49613    102.1 1.001e+04 4.134e-10
  5.50680    101.8 1.011e+04 4.248e-10
  5.52668    102.4 1.037e+04 5.113e-10
  5.54085    102.9 1.080e+04 6.342e-10
  5.55162    101.7 1.101e+04 6.262e-10
  5.56976    101.0 1.191e+04 8.451e-10
  5.58566     99.6 1.322e+04 1.291e-09
  5.59297     97.4 1.322e+04 1.290e-09
  5.59860     97.1 1.425e+04 1.981e-09
  5.61283     96.1 1.524e+04 3.098e-09
  5.63048     95.4 1.616e+04 4.633e-09
  5.64125     93.5 1.572e+04 3.669e-09
  5.65591     92.6 1.642e+04 4.595e-09
  5.67530     89.6 1.743e+04 5.255e-09
  5.68602     86.2 1.666e+04 4.253e-09
  5.69350     84.5 1.721e+04 4.698e-09
  5.70299     78.7 2.031e+04 6.416e-09
  5.70838     71.1 2.395e+04 8.428e-09
  5.71504     58.8 2.825e+04 2.463e-08
  5.72540     52.7 2.510e+04 5.944e-08
  5.73079     50.1 2.279e+04 7.522e-08
  5.73658     48.8 2.197e+04 7.901e-08
  5.74735     45.2 2.308e+04 8.336e-08
  5.75319     37.1 2.808e+04 6.823e-08
  5.75858     32.5 3.070e+04 4.900e-08
  5.76888     23.3 3.759e+04 1.478e-08
  5.77560      3.0 2.622e+04 6.053e-09
  5.78099     -7.5 1.766e+04 5.804e-09
  5.79042    -12.5 1.738e+04 5.554e-09
  5.79801    -15.0 1.950e+04 5.540e-09
  5.80340    -15.5 1.989e+04 5.687e-09
  5.81196    -16.5 2.074e+04 5.808e-09
  5.82047    -27.0 1.822e+04 3.442e-09
  5.83129    -31.7 1.549e+04 2.610e-09
  5.84975    -36.2 1.247e+04 1.742e-09
  5.86533    -36.3 1.265e+04 1.551e-09
  5.87610    -37.7 1.258e+04 1.104e-09
  5.89283    -39.4 1.250e+04 8.329e-10
  5.91015    -41.5 1.212e+04 6.630e-10
  5.92092    -44.0 1.120e+04 4.707e-10
  5.93590    -45.2 1.066e+04 5.005e-10
  5.95497    -45.7 1.065e+04 5.844e-10
  5.96574    -46.3 1.053e+04 5.646e-10
  5.97898    -45.6 1.072e+04 6.811e-10
  5.99978    -44.6 1.086e+04 7.743e-10
  6.01055    -44.7 1.086e+04 7.768e-10
  6.02205    -43.5 1.092e+04 8.273e-10
  6.04359    -42.5 1.089e+04 8.337e-10
  6.05537    -41.5 1.070e+04 7.695e-10
  6.06438    -41.3 1.069e+04 7.788e-10
  6.07414    -42.0 1.075e+04 7.485e-10
  6.08667    -41.1 1.061e+04 6.369e-10
  6.10019    -40.6 1.044e+04 5.303e-10
  6.11096    -40.2 1.042e+04 5.388e-10
  6.12974    -39.8 1.026e+04 4.485e-10
  6.14500    -39.6 1.012e+04 3.916e-10
  6.15577    -39.1 1.011e+04 3.970e-10
  6.17282    -39.0 9.973e+03 3.705e-10
  6.18992    -38.7 9.918e+03 3.548e-10
  6.20069    -38.0 1.007e+04 3.881e-10
  6.21590    -37.5 1.006e+04 4.079e-10
  6.24830    -37.0 9.999e+03 4.168e-10
  6.27965    -36.2 1.018e+04 4.779e-10
  6.30119    -35.0 1.041e+04 5.553e-10
  6.33455    -34.4 1.055e+04 5.809e-10
  6.36928    -34.6 1.055e+04 5.452e-10
  6.39082    -32.9 1.072e+04 5.531e-10
  6.42070    -33.6 1.067e+04 5.324e-10
  6.45892    -33.8 1.064e+04 5.753e-10
  6.48045    -32.6 1.071e+04 5.103e-10
  6.50685    -32.5 1.069e+04 5.345e-10
  6.53912    -32.3 1.056e+04 4.495e-10
  6.55918    -32.4 1.180e+04 6.341e-10
  6.56989    -31.6 1.203e+04 6.561e-10
  6.58204    -31.6 1.170e+04 5.480e-10
  6.60358    -31.5 1.149e+04 5.116e-10
  6.61471    -31.6 1.112e+04 4.736e-10
  6.62548    -30.7 1.113e+04 4.372e-10
  6.64665    -30.2 1.102e+04 4.260e-10
  6.65953    -30.1 1.087e+04 4.640e-10
  6.67030    -29.0 1.114e+04 4.061e-10
  6.68973    -28.9 1.131e+04 4.662e-10
  6.70434    -29.1 1.136e+04 5.754e-10
  6.71511    -28.7 1.126e+04 5.331e-10
  6.73281    -28.6 1.146e+04 7.337e-10
  6.74926    -27.8 1.193e+04 1.208e-09
  6.77089    -27.4 1.216e+04 1.173e-09
  6.79407    -26.6 1.267e+04 1.767e-09
  6.80475    -26.4 1.272e+04 1.775e-09
  6.81896    -26.1 1.306e+04 2.210e-09
  6.83879    -25.3 1.385e+04 3.227e-09
  6.84956    -24.9 1.420e+04 3.495e-09
  6.86203    -24.9 1.520e+04 4.581e-09
  6.88357    -24.9 1.633e+04 6.123e-09
  6.90511    -25.3 1.680e+04 8.100e-09
  6.92665    -25.3 1.679e+04 8.818e-09
  6.93920    -25.1 1.670e+04 8.906e-09
  6.94997    -24.6 1.652e+04 8.975e-09
  6.96972    -24.2 1.640e+04 8.102e-09
  6.98401    -24.1 1.604e+04 6.714e-09
  6.99478    -23.6 1.609e+04 6.925e-09
  7.01280    -24.2 1.569e+04 5.893e-09
  7.02523    -24.8 1.520e+04 5.332e-09
  7.03050    -25.5 1.438e+04 3.324e-09
  7.03960    -25.0 1.429e+04 3.273e-09
  7.05588    -25.8 1.397e+04 2.898e-09
  7.07365    -26.3 1.358e+04 2.639e-09
  7.08442    -25.7 1.341e+04 2.580e-09
  7.09895    -25.9 1.299e+04 2.404e-09
  7.11846    -25.9 1.255e+04 2.184e-09
  7.12923    -25.5 1.243e+04 2.254e-09
  7.14203    -25.0 1.207e+04 1.972e-09
  7.16328    -24.6 1.166e+04 1.605e-09
  7.17405    -24.3 1.166e+04 1.565e-09
  7.18510    -24.1 1.136e+04 1.202e-09
  7.20664    -24.1 1.106e+04 8.676e-10
  7.21887    -24.3 1.077e+04 6.308e-10
  7.22964    -23.3 1.063e+04 5.788e-10
  7.24972    -23.3 1.050e+04 4.371e-10
  7.26368    -23.6 1.004e+04 3.325e-10
  7.27445    -23.2 9.909e+03 3.170e-10
  7.29279    -23.0 9.814e+03 2.975e-10
  7.30860    -23.3 9.466e+03 2.826e-10
  7.33023    -22.4 9.656e+03 2.378e-10
  7.36837    -21.1 9.665e+03 2.539e-10
  7.39833    -19.3 9.892e+03 3.231e-10
  7.41987    -18.5 1.003e+04 2.873e-10
  7.45452    -16.6 1.021e+04 3.598e-10
  7.48796    -14.7 1.040e+04 3.993e-10
  7.50211    -14.8 1.071e+04 4.327e-10
  7.51174    -15.5 1.064e+04 6.567e-10
  7.54067    -13.6 1.147e+04 9.878e-10
  7.57288    -12.7 1.210e+04 1.161e-09
  7.58817    -12.2 1.235e+04 1.345e-09
  7.59894    -11.9 1.253e+04 1.498e-09
  7.61586    -12.2 1.288e+04 1.783e-09
  7.63299    -13.0 1.298e+04 2.203e-09
  7.64376    -13.6 1.354e+04 2.617e-09
  7.65894    -14.0 1.371e+04 3.392e-09
  7.67780    -13.3 1.392e+04 4.167e-09
  7.68857    -13.4 1.421e+04 4.630e-09
  7.70201    -12.0 1.440e+04 4.915e-09
  7.72262    -11.1 1.431e+04 4.530e-09
  7.73339    -10.5 1.440e+04 4.006e-09
  7.74509    -10.5 1.439e+04 2.913e-09
  7.76663    -13.5 1.439e+04 2.026e-09
  7.77821    -18.1 1.380e+04 1.477e-09
  7.78897    -22.3 1.315e+04 1.143e-09
  7.80970    -28.9 1.257e+04 1.189e-09
  7.82302    -35.6 1.424e+04 2.488e-09
  7.83379    -37.4 1.539e+04 3.265e-09
  7.85278    -40.3 1.724e+04 5.954e-09
  7.86784    -42.5 1.826e+04 7.651e-09
  7.87861    -43.5 1.827e+04 7.555e-09
  7.89586    -46.8 1.785e+04 6.534e-09
  7.91266    -50.0 1.683e+04 4.603e-09
  7.92343    -50.8 1.661e+04 4.634e-09
  7.93893    -53.0 1.586e+04 3.648e-09
  7.95747    -54.7 1.546e+04 3.168e-09
  7.96824    -55.5 1.641e+04 4.420e-09
  7.97633    -57.4 1.663e+04 4.775e-09
  7.98709    -59.8 1.654e+04 4.945e-09
  8.00229    -60.6 1.688e+04 6.132e-09
  8.01306    -61.3 1.772e+04 1.050e-08
  8.02508    -61.4 1.804e+04 1.412e-08
  8.04662    -60.8 1.838e+04 1.810e-08
  8.05788    -60.2 1.860e+04 2.059e-08
  8.06321    -59.9 1.920e+04 3.350e-08
  8.07345    -59.7 1.877e+04 3.114e-08
  8.08019    -59.6 1.872e+04 2.969e-08
  8.08557    -59.3 1.842e+04 2.736e-08
  8.09498    -59.3 1.850e+04 2.584e-08
  8.10259    -59.3 1.859e+04 2.535e-08
  8.10798    -59.1 1.890e+04 2.141e-08
  8.11652    -59.3 1.894e+04 2.054e-08
  8.12500    -59.4 1.906e+04 1.987e-08
  8.13039    -59.7 1.874e+04 1.421e-08
  8.13806    -60.0 1.844e+04 1.291e-08
  8.14741    -60.1 1.805e+04 1.152e-08
  8.15823    -60.8 1.674e+04 7.515e-09
  8.17585    -60.4 1.602e+04 5.994e-09
  8.19233    -60.0 1.545e+04 4.822e-09
  8.20310    -59.7 1.415e+04 2.764e-09
  8.21892    -59.3 1.384e+04 2.320e-09
  8.23714    -58.9 1.357e+04 2.029e-09
  8.24791    -58.6 1.281e+04 1.378e-09
  8.26200    -58.2 1.252e+04 1.268e-09
  8.28196    -57.5 1.229e+04 1.224e-09
  8.29273    -56.8 1.177e+04 9.258e-10
  8.30508    -56.1 1.174e+04 9.296e-10
  8.32661    -55.5 1.170e+04 9.933e-10
  8.33755    -54.7 1.171e+04 1.079e-09
  8.34831    -53.5 1.131e+04 8.331e-10
  8.36969    -52.9 1.133e+04 8.682e-10
  8.40209    -51.6 1.138e+04 9.597e-10
  8.42737    -49.7 1.148e+04 1.060e-09
  8.44494    -48.3 1.125e+04 9.869e-10
  8.46284    -48.2 1.111e+04 9.588e-10
  8.48834    -46.3 1.112e+04 9.904e-10
  8.51701    -44.4 1.097e+04 9.309e-10
  8.53855    -42.8 1.081e+04 8.244e-10
  8.57450    -40.8 1.066e+04 7.406e-10
  8.60664    -38.9 1.052e+04 6.618e-10
  8.62818    -37.4 1.040e+04 5.405e-10
  8.66065    -35.5 1.033e+04 5.057e-10
  8.69628    -33.5 1.025e+04 4.762e-10
  8.71781    -32.3 1.011e+04 4.444e-10
  8.74680    -30.3 1.003e+04 4.281e-10
  8.78591    -28.2 9.881e+03 3.987e-10
  8.80745    -26.5 9.761e+03 3.708e-10
  8.83295    -24.4 9.643e+03 3.428e-10
  8.87554    -22.5 9.543e+03 3.151e-10
  8.89708    -21.0 9.490e+03 2.910e-10
  8.91910    -19.2 9.402e+03 2.729e-10
  8.96218    -17.5 9.449e+03 2.760e-10
  8.98671    -15.7 9.550e+03 3.000e-10
  9.00825    -14.5 9.355e+03 2.588e-10
  9.04833    -13.1 9.494e+03 2.787e-10
  9.07635    -12.2 9.753e+03 3.592e-10
  9.09789    -10.7 9.424e+03 2.537e-10
  9.13448    -10.0 9.755e+03 3.838e-10
  9.16598     -8.7 1.019e+04 5.915e-10
  9.18752     -7.5 9.637e+03 3.516e-10
  9.22063     -5.9 1.003e+04 4.865e-10
  9.25561     -4.8 1.024e+04 5.402e-10
  9.27715     -4.3 9.715e+03 3.576e-10
  9.30679     -3.5 9.726e+03 3.761e-10
  9.34525     -2.7 9.583e+03 3.448e-10
  9.36679     -1.7 9.523e+03 3.260e-10
  9.39239     -0.9 9.502e+03 2.829e-10
  9.41393     -1.5 9.813e+03 3.203e-10
  9.43488     -1.6 9.707e+03 2.940e-10
  9.45642     -0.8 9.972e+03 3.540e-10
  9.47909     -0.4 9.859e+03 3.742e-10
  9.52217      0.4 9.870e+03 4.014e-10
  9.54605      0.6 1.003e+04 3.921e-10
  9.56759      0.5 1.027e+04 4.743e-10
  9.60832     -0.6 1.044e+04 5.543e-10
  9.63569     -2.3 1.135e+04 9.027e-10
  9.65723     -2.7 1.163e+04 1.011e-09
  9.68041     -4.8 1.254e+04 1.447e-09
  9.69108     -4.9 1.256e+04 1.480e-09
  9.70504     -7.1 1.308e+04 1.898e-09
  9.72513    -10.2 1.353e+04 2.601e-09
  9.73589    -10.6 1.372e+04 2.614e-09
  9.74812    -16.5 1.664e+04 4.081e-09
  9.76422    -23.9 1.979e+04 6.658e-09
  9.77494    -26.1 2.053e+04 8.404e-09
  9.78061    -30.8 2.064e+04 1.309e-08
  9.78600    -32.8 2.199e+04 1.880e-08
  9.79648    -34.3 2.148e+04 2.523e-08
  9.80302    -34.9 2.116e+04 3.061e-08
  9.80841    -35.7 2.092e+04 4.807e-08
  9.81802    -35.6 2.082e+04 4.956e-08
  9.82543    -35.0 2.046e+04 4.426e-08
  9.83082    -34.0 1.993e+04 6.385e-08
  9.83956    -33.2 2.004e+04 3.737e-08
  9.84784    -34.1 2.025e+04 2.075e-08
  9.85322    -33.6 2.071e+04 2.028e-08
  9.86110    -37.4 1.938e+04 1.277e-08
  9.87030    -40.5 1.725e+04 9.378e-09
  9.87568    -39.9 1.678e+04 7.648e-09
  9.88263    -40.3 1.630e+04 7.078e-09
  9.88918    -41.9 1.502e+04 5.623e-09
  9.90000    -41.8 1.471e+04 4.176e-09
  9.91516    -42.2 1.404e+04 3.536e-09
  9.92593    -42.1 1.378e+04 2.804e-09
  9.94196    -41.2 1.352e+04 2.635e-09
  9.95998    -40.3 1.329e+04 2.402e-09
  9.97075    -40.8 1.300e+04 1.969e-09
  9.98504    -40.1 1.275e+04 1.819e-09
 10.00480    -39.4 1.245e+04 1.644e-09
 10.01556    -39.3 1.218e+04 1.478e-09
 10.02811    -38.4 1.200e+04 1.400e-09
 10.04961    -37.4 1.186e+04 1.312e-09
 10.07115    -36.3 1.175e+04 1.199e-09
 10.09273    -35.2 1.158e+04 1.086e-09
 10.10520    -34.1 1.137e+04 9.674e-10
 10.11597    -33.6 1.120e+04 8.617e-10
 10.13580    -32.8 1.104e+04 7.852e-10
 10.15001    -31.0 1.103e+04 6.975e-10
 10.16078    -30.9 1.106e+04 6.931e-10
 10.17888    -30.3 1.102e+04 6.704e-10
 10.19493    -28.6 1.089e+04 6.294e-10
 10.21656    -28.1 1.072e+04 5.505e-10
 10.25446    -26.6 1.115e+04 5.900e-10
 10.28466    -25.3 1.190e+04 8.902e-10
 10.30620    -24.9 1.171e+04 8.430e-10
 10.32938    -23.7 1.236e+04 1.301e-09
 10.34005    -23.4 1.227e+04 1.212e-09
 10.35118    -22.4 1.262e+04 1.478e-09
 10.36482    -21.2 1.296e+04 1.799e-09
 10.37559    -21.1 1.335e+04 2.067e-09
 10.38487    -20.5 1.391e+04 2.496e-09
 10.39564    -21.1 1.456e+04 2.332e-09
 10.41580    -30.9 2.400e+04 4.874e-09
 10.42964    -40.7 2.864e+04 1.271e-08
 10.43497    -43.3 2.724e+04 2.061e-08
 10.44262    -44.4 2.403e+04 6.176e-08
 10.45200    -44.0 2.261e+04 1.524e-07
 10.45738    -44.3 2.199e+04 2.091e-07
 10.46416    -42.8 2.153e+04 3.827e-07
 10.47440    -42.2 2.161e+04 5.426e-07
 10.47979    -42.8 2.155e+04 4.202e-07
 10.48570    -42.1 2.171e+04 3.965e-07
 10.49647    -41.1 2.234e+04 2.974e-07
 10.50220    -40.2 2.365e+04 1.814e-07
 10.50758    -39.7 2.454e+04 8.895e-08
 10.51800    -39.5 2.665e+04 3.542e-08
 10.52461    -42.4 2.824e+04 1.004e-08
 10.52999    -46.8 2.672e+04 5.127e-09
 10.53954    -55.4 1.774e+04 1.983e-09
 10.54701    -58.2 1.332e+04 1.423e-09
 10.55240    -58.7 1.292e+04 1.405e-09
 10.56409    -57.8 1.242e+04 1.175e-09
 10.57490    -56.4 1.216e+04 1.158e-09
 10.58810    -54.6 1.167e+04 9.125e-10
 10.60895    -53.3 1.149e+04 7.968e-10
 10.61972    -52.2 1.152e+04 8.351e-10
 10.63118    -50.6 1.140e+04 7.359e-10
 10.65271    -49.1 1.131e+04 6.468e-10
 10.66454    -47.7 1.122e+04 5.732e-10
 10.67531    -47.1 1.137e+04 6.338e-10
 10.69579    -45.9 1.130e+04 5.788e-10
 10.70935    -44.6 1.125e+04 5.357e-10
 10.72012    -44.0 1.144e+04 6.438e-10
 10.73886    -42.9 1.143e+04 6.266e-10
 10.75417    -41.9 1.143e+04 6.152e-10
 10.76494    -41.4 1.164e+04 7.765e-10
 10.78194    -40.4 1.170e+04 7.935e-10
 10.79899    -39.3 1.171e+04 8.099e-10
 10.80976    -38.7 1.195e+04 1.053e-09
 10.82502    -37.6 1.193e+04 1.074e-09
 10.84037    -36.3 1.188e+04 1.068e-09
 10.84839    -35.8 1.207e+04 1.164e-09
 10.85457    -35.1 1.238e+04 1.431e-09
 10.86809    -33.8 1.246e+04 1.471e-09
 10.88862    -32.6 1.250e+04 1.466e-09
 10.89939    -32.2 1.290e+04 1.824e-09
 10.91117    -31.0 1.300e+04 1.778e-09
 10.93271    -30.0 1.312e+04 1.650e-09
 10.94421    -29.4 1.329e+04 1.460e-09
 10.95498    -29.1 1.378e+04 2.019e-09
 10.97578    -28.6 1.399e+04 1.778e-09
 10.98902    -28.3 1.400e+04 1.506e-09
 10.99979    -27.7 1.464e+04 2.202e-09
 11.01886    -27.4 1.438e+04 1.760e-09
 11.03384    -27.1 1.372e+04 1.350e-09
 11.04461    -26.3 1.438e+04 1.840e-09
 11.06193    -25.9 1.341e+04 1.257e-09
 11.07866    -25.4 1.233e+04 8.337e-10
 11.08943    -24.8 1.292e+04 9.552e-10
 11.10501    -24.5 1.171e+04 5.746e-10
 11.12347    -24.5 1.082e+04 3.707e-10
 11.13424    -24.2 1.079e+04 3.546e-10
 11.15895    -24.5 9.975e+03 2.398e-10
 11.20213    -23.3 9.535e+03 1.734e-10
 11.22407    -21.9 9.336e+03 1.476e-10
 11.24561    -21.7 9.279e+03 1.471e-10
 11.28828    -20.8 9.287e+03 1.448e-10
 11.31371    -21.2 9.441e+03 2.033e-10
 11.32000    -21.1 9.611e+03 2.368e-10
 11.33765    -24.1 1.038e+04 2.933e-10
 11.35843    -25.6 1.168e+04 6.861e-10
 11.36910    -25.1 1.170e+04 7.250e-10
 11.38500    -25.8 1.280e+04 1.419e-09
 11.40314    -26.1 1.378e+04 2.460e-09
 11.41391    -25.7 1.377e+04 2.405e-09
 11.42808    -26.0 1.486e+04 3.789e-09
 11.44796    -26.2 1.571e+04 5.298e-09
 11.45873    -26.2 1.547e+04 5.114e-09
 11.47116    -26.1 1.580e+04 5.566e-09
 11.49269    -26.0 1.591e+04 4.963e-09
 11.51423    -25.9 1.593e+04 3.631e-09
 11.53577    -27.2 1.538e+04 2.041e-09
 11.54836    -29.5 1.424e+04 1.141e-09
 11.55913    -30.0 1.454e+04 1.347e-09
 11.57884    -31.9 1.332e+04 9.701e-10
 11.59318    -32.9 1.277e+04 8.665e-10
 11.60395    -33.7 1.353e+04 1.239e-09
 11.62192    -34.8 1.357e+04 1.314e-09
 11.63800    -35.6 1.381e+04 1.535e-09
 11.64877    -37.6 1.524e+04 2.827e-09
 11.66500    -37.7 1.501e+04 3.079e-09
 11.68281    -37.2 1.488e+04 3.157e-09
 11.69358    -37.9 1.566e+04 4.750e-09
 11.70807    -37.1 1.537e+04 4.189e-09
 11.72763    -36.5 1.515e+04 3.438e-09
 11.73840    -37.8 1.572e+04 3.944e-09
 11.75115    -37.8 1.506e+04 2.961e-09
 11.77245    -38.0 1.441e+04 2.274e-09
 11.78322    -39.8 1.414e+04 2.311e-09
 11.79146    -40.0 1.367e+04 1.894e-09
 11.80223    -39.6 1.279e+04 1.343e-09
 11.81576    -39.5 1.238e+04 1.147e-09
 11.82803    -39.4 1.219e+04 1.057e-09
 11.83880    -39.9 1.217e+04 1.074e-09
 11.85884    -39.8 1.209e+04 1.038e-09
 11.87285    -39.6 1.207e+04 1.037e-09
 11.88362    -39.6 1.210e+04 1.069e-09
 11.90191    -39.2 1.209e+04 1.100e-09
 11.91767    -38.7 1.207e+04 1.134e-09
 11.92844    -38.7 1.205e+04 1.133e-09
 11.94499    -38.2 1.196e+04 1.134e-09
 11.96248    -37.6 1.184e+04 1.116e-09
 11.97325    -37.4 1.182e+04 1.128e-09
 11.98807    -36.7 1.158e+04 1.070e-09
 12.00730    -35.9 1.131e+04 9.750e-10
 12.01807    -35.7 1.149e+04 1.031e-09
 12.03114    -34.9 1.126e+04 9.161e-10
 12.05212    -34.1 1.099e+04 7.994e-10
 12.06289    -33.6 1.096e+04 7.986e-10
 12.07422    -33.1 1.077e+04 6.946e-10
 12.10662    -32.0 1.023e+04 5.054e-10
 12.14195    -29.7 9.706e+03 3.502e-10
 12.16348    -28.6 9.775e+03 3.775e-10
 12.19287    -26.7 9.398e+03 2.707e-10
 12.23158    -24.8 9.055e+03 2.108e-10
 12.25312    -23.6 9.107e+03 2.399e-10
 12.26720    -21.5 8.825e+03 1.974e-10
 12.28874    -19.8 9.175e+03 2.411e-10
 12.32121    -17.7 9.004e+03 2.076e-10
 12.34275    -16.2 8.940e+03 2.143e-10
 12.36518    -14.1 8.714e+03 1.748e-10
 12.40825    -12.1 8.555e+03 1.509e-10
 12.43239    -10.3 8.502e+03 1.350e-10
 12.45392     -9.1 8.612e+03 1.505e-10
 12.49440     -7.5 8.575e+03 1.401e-10
 12.52202     -5.8 8.482e+03 1.326e-10
 12.54356     -4.3 8.648e+03 1.713e-10
 12.58055     -2.1 8.505e+03 1.640e-10
 12.61165      0.4 8.400e+03 1.275e-10
 12.63319      2.1 8.625e+03 1.732e-10
 12.66671      3.7 8.654e+03 1.152e-10
 12.70129      4.3 8.582e+03 9.209e-11
 12.72282      5.7 8.972e+03 1.512e-10
 12.75286      6.9 9.372e+03 1.939e-10
 12.79092      8.4 9.666e+03 3.016e-10
 12.81236      9.8 9.839e+03 3.079e-10
 12.82805     11.4 9.966e+03 4.257e-10
 12.84631     11.4 1.007e+04 4.642e-10
 12.85708     11.8 1.022e+04 5.026e-10
 12.88046     14.0 1.041e+04 7.063e-10
 12.90209     14.9 1.119e+04 1.148e-09
 12.92516     17.2 1.108e+04 1.058e-09
 12.96824     19.1 1.092e+04 9.443e-10
 12.99173     20.6 1.087e+04 9.098e-10
 13.01326     21.2 1.149e+04 1.222e-09
 13.05439     23.1 1.153e+04 1.237e-09
 13.08136     24.7 1.185e+04 1.431e-09
 13.09203     24.4 1.227e+04 1.670e-09
 13.10804     24.9 1.245e+04 1.774e-09
 13.12598     25.5 1.286e+04 2.066e-09
 13.13675     25.4 1.312e+04 2.255e-09
 13.15112     26.0 1.334e+04 2.564e-09
 13.17080     26.7 1.354e+04 2.849e-09
 13.18157     26.5 1.352e+04 2.935e-09
 13.19419     27.3 1.356e+04 3.107e-09
 13.21561     27.8 1.359e+04 3.103e-09
 13.22638     27.6 1.370e+04 3.167e-09
 13.22886     26.8 1.420e+04 3.422e-09
 13.23963     28.3 1.514e+04 5.238e-09
 13.25881     26.7 1.587e+04 5.657e-09
 13.27120     24.8 1.633e+04 6.369e-09
 13.28197     23.5 1.703e+04 7.695e-09
 13.30188     23.7 1.638e+04 8.571e-09
 13.31602     24.9 1.595e+04 9.057e-09
 13.32679     25.1 1.619e+04 9.268e-09
 13.34496     26.7 1.579e+04 8.629e-09
 13.36083     27.8 1.554e+04 7.357e-09
 13.37160     27.5 1.542e+04 6.514e-09
 13.38803     27.0 1.502e+04 5.030e-09
 13.40565     25.7 1.468e+04 4.039e-09
 13.41642     23.7 1.408e+04 3.335e-09
 13.43111     22.4 1.387e+04 3.226e-09
 13.45047     20.5 1.438e+04 3.700e-09
 13.46124     19.6 1.408e+04 3.509e-09
 13.47418     17.9 1.526e+04 4.877e-09
 13.49528     16.9 1.576e+04 6.398e-09
 13.50605     16.2 1.567e+04 5.892e-09
 13.51726     16.0 1.610e+04 7.404e-09
 13.53880     15.0 1.728e+04 8.658e-09
 13.55087     13.0 1.846e+04 9.228e-09
 13.56164     11.4 1.807e+04 9.008e-09
 13.58187      9.2 1.741e+04 8.151e-09
 13.59569      7.9 1.528e+04 6.760e-09
 13.60646      8.4 1.551e+04 7.245e-09
 13.62495      8.2 1.455e+04 6.203e-09
 13.64050      8.8 1.452e+04 5.609e-09
 13.65127      9.0 1.458e+04 5.490e-09
 13.66803      8.0 1.651e+04 5.609e-09
 13.68532      4.6 1.768e+04 6.154e-09
 13.69609      4.2 1.748e+04 5.865e-09
 13.70441     -0.0 1.597e+04 6.339e-09
 13.71518      4.3 1.746e+04 5.304e-09
 13.73014      1.1 1.607e+04 6.061e-09
 13.74091      0.6 1.609e+04 6.804e-09
 13.75418     -0.4 1.580e+04 9.171e-09
 13.77495     -0.1 1.618e+04 1.114e-08
 13.78572      0.2 1.668e+04 1.351e-08
 13.79725      0.4 1.673e+04 1.358e-08
 13.80808      0.5 1.632e+04 1.105e-08
 13.81342      0.8 1.672e+04 1.242e-08
 13.82408      1.2 1.661e+04 1.086e-08
 13.83044      1.1 1.626e+04 8.490e-09
 13.83583      1.7 1.666e+04 8.552e-09
 13.84562      2.2 1.622e+04 7.287e-09
 13.86182      1.7 1.537e+04 5.268e-09
 13.87536      0.8 1.407e+04 3.161e-09
 13.88613      1.1 1.441e+04 2.656e-09
 13.90494     -0.8 1.237e+04 1.445e-09
 13.92017     -1.9 1.091e+04 9.732e-10
 13.93094     -2.2 1.054e+04 7.422e-10
 13.94802     -1.1 1.013e+04 6.472e-10
 13.96499      0.0 9.899e+03 5.866e-10
 13.97576     -0.1 9.772e+03 4.742e-10
 13.99110      0.9 9.562e+03 4.270e-10
 14.00981      1.9 9.325e+03 3.851e-10
 14.02067      1.0 8.973e+03 2.758e-10
 14.04514      3.1 8.707e+03 2.448e-10
 14.08821      5.0 8.451e+03 2.090e-10
 14.11040      6.5 8.213e+03 1.863e-10
 14.13194      6.7 7.971e+03 1.526e-10
 14.16938      8.1 7.916e+03 1.513e-10
 14.19092      8.8 8.229e+03 2.348e-10
 14.20004     10.0 8.139e+03 2.035e-10
 14.22158      9.6 7.973e+03 1.668e-10
 14.26052      9.6 8.108e+03 1.735e-10
 14.28967      9.3 8.251e+03 2.080e-10
 14.31121      9.6 8.110e+03 1.934e-10
 14.34667     10.2 8.146e+03 2.212e-10
 14.37931     10.3 8.189e+03 2.229e-10
 14.40084     10.6 7.950e+03 1.715e-10
 14.43282      9.3 7.976e+03 1.660e-10
 14.46894      6.1 8.886e+03 2.692e-10
 14.49048      7.6 8.637e+03 2.388e-10
 14.51897      3.4 1.010e+04 5.404e-10
 14.55118      1.3 1.083e+04 9.973e-10
 14.56915     -0.6 1.127e+04 1.308e-09
 14.57992      0.1 1.113e+04 1.275e-09
 14.59416     -4.5 1.536e+04 2.049e-09
 14.61396    -15.2 2.142e+04 4.882e-09
 14.62473    -12.1 2.001e+04 3.707e-09
 14.63723    -21.7 2.071e+04 8.630e-09
 14.65550    -27.4 1.888e+04 1.257e-08
 14.66627    -29.3 1.967e+04 1.837e-08
 14.68031    -29.6 1.846e+04 1.543e-08
 14.70185    -30.2 1.769e+04 1.081e-08
 14.71437    -32.7 1.648e+04 4.272e-09
 14.72513    -31.2 1.624e+04 4.825e-09
 14.74492    -36.1 1.360e+04 1.264e-09
 14.75918    -40.5 1.030e+04 4.954e-10
 14.76995    -38.9 1.067e+04 5.331e-10
 14.78800    -40.2 9.422e+03 3.714e-10
 14.80400    -40.2 9.174e+03 3.311e-10
 14.81477    -39.2 9.237e+03 3.353e-10
 14.83108    -39.2 9.128e+03 3.120e-10
 14.84891    -39.1 8.941e+03 2.737e-10
 14.87055    -37.1 9.019e+03 2.859e-10
 14.90665    -36.3 8.666e+03 2.259e-10
 14.93865    -35.5 8.454e+03 1.858e-10
 14.96018    -33.8 8.548e+03 2.064e-10
 14.99281    -33.1 8.465e+03 1.861e-10
 15.02828    -32.3 8.425e+03 1.767e-10
 15.04982    -30.6 8.458e+03 1.835e-10
 15.07896    -29.7 8.382e+03 1.631e-10
 15.11791    -28.7 8.267e+03 1.336e-10
 15.13789    -27.2 8.264e+03 1.251e-10
 15.14201    -27.0 8.092e+03 9.793e-11
 15.16511    -26.1 8.000e+03 7.966e-11
 15.20755    -25.3 7.932e+03 6.522e-11
 15.22908    -24.1 7.952e+03 6.666e-11
 15.25126    -23.5 7.968e+03 6.228e-11
 15.29434    -23.0 8.019e+03 6.228e-11
 15.31872    -22.7 8.240e+03 7.633e-11
 15.34026    -21.7 8.355e+03 8.967e-11
 15.38049    -21.3 8.566e+03 1.182e-10
 15.40835    -20.8 8.804e+03 1.459e-10
 15.42989    -20.0 8.861e+03 1.509e-10
 15.46664    -20.0 9.010e+03 1.657e-10
 15.49798    -20.2 9.118e+03 1.789e-10
 15.51952    -19.8 9.130e+03 1.806e-10
 15.55279    -20.2 9.288e+03 2.100e-10
 15.58762    -20.5 9.480e+03 2.561e-10
 15.60916    -20.4 9.596e+03 2.956e-10
 15.63894    -20.3 9.772e+03 3.561e-10
 15.67725    -20.0 9.886e+03 3.856e-10
 15.69879    -19.7 9.952e+03 4.005e-10
 15.72510    -19.6 9.960e+03 3.762e-10
 15.76689    -19.8 9.997e+03 3.553e-10
 15.78842    -20.1 9.955e+03 3.226e-10
 15.81125    -20.9 1.011e+04 3.513e-10
 15.85432    -21.4 1.045e+04 4.858e-10
 15.87796    -21.0 1.070e+04 6.298e-10
 15.88863    -21.2 1.068e+04 6.340e-10
 15.90797    -21.1 1.088e+04 7.208e-10
 15.92268    -21.1 1.097e+04 7.915e-10
 15.93345    -21.3 1.086e+04 7.496e-10
 15.95105    -21.3 1.086e+04 7.588e-10
 15.96759    -21.2 1.079e+04 7.201e-10
 15.97836    -21.1 1.079e+04 7.303e-10
 15.99412    -20.9 1.071e+04 6.902e-10
 16.01231    -20.8 1.055e+04 6.165e-10
 16.02308    -21.0 1.058e+04 6.009e-10
 16.03720    -21.3 1.058e+04 5.598e-10
 16.05713    -21.7 1.050e+04 5.345e-10
 16.06790    -23.0 1.061e+04 5.581e-10
 16.08028    -23.4 1.064e+04 5.938e-10
 16.09290    -23.5 1.069e+04 6.505e-10
 16.10367    -21.9 1.084e+04 6.611e-10
 16.11271    -22.1 1.101e+04 7.356e-10
 16.12348    -23.1 1.110e+04 8.295e-10
 16.14686    -22.5 1.116e+04 8.833e-10
 16.16840    -23.9 1.128e+04 9.978e-10
 16.19883    -23.8 1.123e+04 9.859e-10
 16.23659    -22.8 1.121e+04 8.758e-10
 16.25813    -25.4 1.006e+04 4.776e-10
 16.28508    -24.9 9.280e+03 2.755e-10
 16.32623    -25.2 8.422e+03 1.634e-10
 16.34776    -27.3 8.021e+03 8.974e-11
 16.37123    -26.4 8.012e+03 8.360e-11
 16.41431    -25.3 8.082e+03 8.378e-11
 16.43740    -24.4 8.226e+03 9.731e-11
 16.45893    -26.1 8.031e+03 7.931e-11
 16.50046    -25.7 8.195e+03 1.075e-10
 16.52703    -25.4 8.460e+03 1.516e-10
 16.54857    -27.2 8.225e+03 1.160e-10
 16.58661    -27.4 8.312e+03 1.507e-10
 16.61666    -28.3 8.503e+03 2.036e-10
 16.63820    -32.5 9.167e+03 2.224e-10
 16.67277    -42.3 1.292e+04 5.307e-10
 16.70497    -50.2 1.413e+04 1.339e-09
 16.71687    -53.6 1.503e+04 2.725e-09
 16.72764    -55.4 1.516e+04 3.453e-09
 16.74795    -57.4 1.545e+04 4.155e-09
 16.76169    -59.5 1.539e+04 4.081e-09
 16.77246    -62.6 1.477e+04 2.527e-09
 16.79103    -66.8 1.338e+04 1.074e-09
 16.80651    -72.2 1.083e+04 3.839e-10
 16.81727    -75.5 9.085e+03 2.175e-10
 16.84497    -77.3 8.512e+03 1.480e-10
 16.88557    -77.9 8.208e+03 1.083e-10
 16.90710    -78.5 8.068e+03 9.093e-11
 16.93122    -78.7 7.964e+03 8.109e-11
 16.97430    -79.1 7.982e+03 8.058e-11
 16.99674    -80.7 8.240e+03 1.009e-10
 17.01827    -83.2 9.172e+03 2.065e-10
 17.04419    -85.0 1.063e+04 5.567e-10
 17.06573    -83.1 1.037e+04 4.872e-10
 17.08637    -84.5 1.144e+04 9.792e-10
 17.10791    -86.8 1.172e+04 1.176e-09
 17.14660    -89.0 1.185e+04 1.264e-09
 17.17600    -91.2 1.164e+04 1.132e-09
 17.19754    -94.0 1.100e+04 7.203e-10
 17.23275    -96.4 1.080e+04 5.814e-10
 17.26564    -98.6 1.080e+04 5.714e-10
 17.28718   -101.0 1.086e+04 6.013e-10
 17.31890   -102.3 1.157e+04 9.598e-10
 17.35527   -103.5 1.210e+04 1.285e-09
 17.37681   -105.1 1.226e+04 1.335e-09
 17.40506   -106.9 1.229e+04 1.341e-09
 17.44490   -108.4 1.202e+04 1.061e-09
 17.46644   -110.5 1.144e+04 6.970e-10
 17.49121   -112.0 1.093e+04 4.417e-10
 17.53428   -113.4 1.066e+04 3.208e-10
 17.55608   -114.6 1.058e+04 2.859e-10
 17.57761   -115.4 1.031e+04 2.472e-10
 17.62044   -116.2 1.032e+04 2.450e-10
 17.64571   -117.4 1.045e+04 2.469e-10
 17.66725   -117.2 1.036e+04 2.422e-10
 17.70659   -118.3 1.064e+04 2.597e-10
 17.73534   -119.6 1.095e+04 3.277e-10
 17.75688   -119.1 1.078e+04 2.823e-10
 17.79274   -120.3 1.100e+04 3.689e-10
 17.82498   -121.5 1.130e+04 5.416e-10
 17.84652   -121.2 1.097e+04 4.348e-10
 17.87889   -122.2 1.127e+04 6.483e-10
 17.91461   -123.1 1.156e+04 8.887e-10
 17.93615   -122.5 1.106e+04 6.618e-10
 17.96504   -123.1 1.116e+04 7.801e-10
 17.99528   -123.7 1.115e+04 8.071e-10
 18.01294   -123.0 1.139e+04 9.206e-10
 18.02578   -122.1 1.069e+04 5.796e-10
 18.05119   -122.1 1.066e+04 5.850e-10
 18.09388   -121.8 1.052e+04 5.801e-10
 18.11542   -120.9 9.950e+03 3.643e-10
 18.13735   -120.5 9.902e+03 3.734e-10
 18.18042   -119.4 9.905e+03 3.760e-10
 18.20505   -118.5 9.706e+03 3.526e-10
 18.22659   -117.6 9.402e+03 2.770e-10
 18.26657   -116.4 9.241e+03 2.791e-10
 18.29468   -115.1 9.108e+03 2.705e-10
 18.31622   -114.0 8.976e+03 2.300e-10
 18.35273   -112.6 8.868e+03 2.187e-10
 18.38432   -111.1 8.759e+03 2.006e-10
 18.40585   -110.1 8.732e+03 1.863e-10
 18.43888   -108.6 8.674e+03 1.742e-10
 18.47395   -107.2 8.657e+03 1.681e-10
 18.49549   -106.6 8.759e+03 1.924e-10
 18.52503   -105.4 8.755e+03 1.971e-10
 18.56358   -104.4 8.826e+03 2.262e-10
 18.58512   -103.6 8.950e+03 3.039e-10
 18.61118   -102.6 9.099e+03 3.479e-10
 18.65322   -101.7 9.312e+03 4.094e-10
 18.67476   -101.0 9.161e+03 4.041e-10
 18.69733   -100.0 9.311e+03 4.450e-10
 18.74041    -99.1 9.410e+03 4.825e-10
 18.76439    -98.2 9.440e+03 4.941e-10
 18.78593    -97.7 8.979e+03 3.424e-10
 18.82656    -96.6 8.952e+03 3.422e-10
 18.85402    -95.5 8.893e+03 3.326e-10
 18.87556    -94.9 8.486e+03 2.520e-10
 18.91271    -93.6 8.542e+03 2.599e-10
 18.94366    -92.5 8.610e+03 2.679e-10
 18.95578    -92.0 8.424e+03 2.467e-10
 18.96791    -91.3 8.443e+03 2.503e-10
 18.99886    -89.9 8.635e+03 2.796e-10
 19.03329    -89.0 8.937e+03 3.298e-10
 19.05483    -87.9 8.846e+03 3.375e-10
 19.07415    -87.3 9.120e+03 3.768e-10
 19.08868    -87.7 9.278e+03 4.013e-10
 19.09945    -87.2 9.208e+03 3.860e-10
 19.11713    -88.2 1.014e+04 5.378e-10
 19.13350    -90.1 1.125e+04 9.214e-10
 19.14427    -89.3 1.142e+04 8.523e-10
 19.16020    -91.0 1.244e+04 1.579e-09
 19.17831    -91.8 1.307e+04 2.448e-09
 19.18908    -91.9 1.383e+04 2.781e-09
 19.20328    -92.4 1.411e+04 3.596e-09
 19.22313    -92.8 1.414e+04 3.795e-09
 19.23390    -92.9 1.509e+04 5.121e-09
 19.24636    -93.0 1.493e+04 5.091e-09
 19.26789    -93.0 1.419e+04 3.851e-09
 19.28943    -93.6 1.410e+04 3.353e-09
 19.31097    -95.0 1.277e+04 1.988e-09
 19.32353    -96.4 1.189e+04 1.400e-09
 19.33430    -96.2 1.256e+04 1.955e-09
 19.35405    -97.0 1.199e+04 1.635e-09
 19.36835    -97.1 1.181e+04 1.557e-09
 19.37912    -97.0 1.213e+04 1.863e-09
 19.39712    -97.0 1.204e+04 1.832e-09
 19.41317    -96.8 1.201e+04 1.826e-09
 19.42394    -97.1 1.212e+04 1.863e-09
 19.43249    -97.1 1.210e+04 1.863e-09
 19.44326    -97.6 1.221e+04 1.867e-09
 19.45798    -98.1 1.238e+04 1.979e-09
 19.46875    -99.5 1.256e+04 1.967e-09
 19.48327   -101.1 1.294e+04 2.324e-09
 19.50280   -102.4 1.355e+04 2.914e-09
 19.51357   -103.9 1.383e+04 2.811e-09
 19.52635   -105.5 1.430e+04 3.049e-09
 19.54762   -107.8 1.448e+04 3.079e-09
 19.55839   -109.9 1.374e+04 2.261e-09
 19.56942   -113.3 1.340e+04 1.722e-09
 19.59096   -117.1 1.296e+04 1.363e-09
 19.60320   -120.4 1.265e+04 1.233e-09
 19.61397   -121.0 1.204e+04 1.009e-09
 19.63404   -122.7 1.200e+04 9.964e-10
 19.64802   -124.1 1.207e+04 1.000e-09
 19.65879   -123.9 1.174e+04 9.124e-10
 19.67711   -124.8 1.172e+04 9.436e-10
 19.69284   -125.5 1.176e+04 1.060e-09
 19.70361   -124.5 1.153e+04 8.999e-10
 19.72019   -125.0 1.169e+04 1.011e-09
 19.73765   -125.2 1.181e+04 1.128e-09
 19.74842   -124.7 1.166e+04 9.464e-10
 19.76327   -124.9 1.169e+04 1.008e-09
 19.78247   -124.8 1.168e+04 1.019e-09
 19.79324   -124.1 1.144e+04 8.525e-10
 19.80634   -123.9 1.137e+04 8.358e-10
 19.82729   -123.7 1.114e+04 6.831e-10
 19.83806   -123.3 1.095e+04 6.396e-10
 19.84942   -123.3 1.076e+04 4.769e-10
 19.87096   -123.5 1.058e+04 3.606e-10
 19.88297   -123.5 1.041e+04 2.942e-10
 19.89861   -122.1 1.037e+04 2.987e-10
 19.91900   -122.0 1.025e+04 2.557e-10
 19.94653   -121.2 9.877e+03 1.613e-10
 19.97270   -120.1 9.563e+03 1.064e-10
 19.99424   -118.6 9.724e+03 1.498e-10
 20.03269   -117.4 9.595e+03 1.115e-10
 20.06234   -115.9 9.534e+03 9.434e-11
 20.08387   -114.5 9.587e+03 1.341e-10
 20.11884   -112.8 9.551e+03 1.211e-10
 20.15197   -111.0 9.542e+03 1.186e-10
 20.17351   -109.7 9.617e+03 1.451e-10
 20.20499   -107.7 9.614e+03 1.441e-10
 20.24160   -105.6 9.644e+03 1.497e-10
 20.26314   -104.4 9.764e+03 1.522e-10
 20.29114   -102.4 9.843e+03 1.633e-10
 20.33124   -100.3 9.939e+03 1.817e-10
 20.35277    -99.5 1.007e+04 1.688e-10
 20.37729    -97.4 1.020e+04 1.930e-10
 20.42037    -95.7 1.048e+04 2.402e-10
 20.44241    -94.7 1.107e+04 3.497e-10
 20.46395    -93.9 1.081e+04 2.818e-10
 20.50652    -93.3 1.156e+04 4.370e-10
 20.53204    -93.3 1.258e+04 8.386e-10
 20.55358    -92.2 1.186e+04 5.497e-10
 20.59267    -92.7 1.292e+04 1.092e-09
 20.62158    -93.0 1.339e+04 1.652e-09
 20.63225    -92.5 1.307e+04 1.284e-09
 20.64632    -92.6 1.358e+04 1.775e-09
 20.66630    -92.8 1.421e+04 2.542e-09
 20.67707    -91.8 1.358e+04 1.802e-09
 20.68940    -92.0 1.441e+04 2.542e-09
 20.71094    -92.6 1.528e+04 3.217e-09
 20.72188    -94.1 1.591e+04 3.653e-09
 20.73265    -92.3 1.609e+04 3.392e-09
 20.75401    -94.2 1.701e+04 3.945e-09
 20.76670    -96.8 1.728e+04 4.190e-09
 20.77747    -95.3 2.000e+04 5.841e-09
 20.79709    -98.3 2.111e+04 6.583e-09
 20.81152   -101.2 2.133e+04 6.806e-09
 20.81685   -100.8 2.425e+04 9.919e-09
 20.82391   -102.3 2.458e+04 1.000e-08
 20.83383   -103.6 2.443e+04 9.271e-09
 20.83921   -103.4 2.631e+04 1.679e-08
 20.84545   -104.5 2.615e+04 1.504e-08
 20.85622   -105.2 2.460e+04 1.217e-08
 20.86441   -105.8 2.478e+04 1.373e-08
 20.86980   -105.7 2.279e+04 1.021e-08
 20.88319   -107.1 2.022e+04 8.169e-09
 20.90115   -108.9 1.583e+04 3.923e-09
 20.91187   -110.1 1.752e+04 6.048e-09
 20.92627   -110.2 1.700e+04 4.642e-09
 20.94597   -109.8 1.554e+04 2.283e-09
 20.95674   -109.7 1.699e+04 5.108e-09
 20.96939   -109.1 1.561e+04 2.531e-09
 20.99078   -108.6 1.431e+04 1.339e-09
 21.00155   -108.3 1.520e+04 2.854e-09
 21.01247   -107.8 1.440e+04 1.740e-09
 21.03401   -107.1 1.350e+04 1.098e-09
 21.04637   -106.4 1.261e+04 7.369e-10
 21.05714   -105.6 1.358e+04 1.380e-09
 21.07708   -104.8 1.283e+04 8.972e-10
 21.09119   -103.9 1.213e+04 6.209e-10
 21.10196   -103.2 1.282e+04 1.050e-09
 21.12016   -102.3 1.221e+04 7.137e-10
 21.13600   -101.3 1.167e+04 5.124e-10
 21.14677   -100.7 1.219e+04 8.114e-10
 21.16323    -99.7 1.171e+04 5.748e-10
 21.18082    -98.5 1.130e+04 4.248e-10
 21.19159    -98.1 1.171e+04 6.420e-10
 21.20631    -97.0 1.137e+04 4.766e-10
 21.22564    -95.9 1.111e+04 3.830e-10
 21.23641    -95.5 1.137e+04 5.217e-10
 21.24939    -94.5 1.109e+04 4.020e-10
 21.27055    -93.5 1.087e+04 3.300e-10
 21.28132    -93.2 1.112e+04 4.458e-10
 21.29246    -92.4 1.096e+04 3.888e-10
 21.31400    -91.3 1.087e+04 3.677e-10
 21.32604    -90.6 1.084e+04 3.653e-10
 21.33594    -90.2 1.089e+04 3.897e-10
 21.34544    -90.2 1.090e+04 3.876e-10
 21.36018    -89.3 1.083e+04 3.636e-10
 21.38172    -88.4 1.092e+04 4.494e-10
 21.40015    -87.5 1.083e+04 4.244e-10
 21.41567    -86.6 1.079e+04 4.134e-10
 21.42644    -86.2 1.083e+04 4.614e-10
 21.44982    -85.4 1.080e+04 4.127e-10
 21.47136    -84.3 1.077e+04 4.367e-10
 21.49717    -83.3 1.080e+04 3.972e-10
 21.53955    -82.3 1.074e+04 3.633e-10
 21.56109    -81.8 1.086e+04 3.745e-10
 21.58342    -80.7 1.064e+04 3.253e-10
 21.62649    -79.1 1.039e+04 2.870e-10
 21.65072    -77.5 1.031e+04 2.716e-10
 21.67226    -76.9 1.038e+04 2.726e-10
 21.71265    -75.4 1.036e+04 2.663e-10
 21.74035    -73.8 1.035e+04 2.595e-10
 21.76189    -73.2 1.046e+04 2.645e-10
 21.79880    -71.8 1.046e+04 2.613e-10
 21.82118    -70.3 1.044e+04 2.548e-10
 21.83083    -70.3 1.052e+04 2.884e-10
 21.85153    -69.8 1.062e+04 3.126e-10
 21.88495    -68.4 1.059e+04 3.118e-10
 21.91962    -66.9 1.041e+04 2.906e-10
 21.94116    -66.4 1.049e+04 3.047e-10
 21.97110    -64.6 1.032e+04 2.670e-10
 22.00926    -62.8 1.015e+04 2.219e-10
 22.03079    -62.3 1.018e+04 2.208e-10
 22.05725    -60.5 1.008e+04 1.866e-10
 22.09889    -58.7 9.982e+03 1.609e-10
 22.12043    -58.3 1.002e+04 1.664e-10
 22.14341    -56.6 9.954e+03 1.510e-10
 22.18648    -54.9 9.908e+03 1.412e-10
 22.21006    -53.1 9.880e+03 1.350e-10
 22.23160    -52.8 9.912e+03 1.438e-10
 22.27263    -50.9 9.880e+03 1.359e-10
 22.29969    -49.1 9.859e+03 1.276e-10
 22.32123    -48.7 9.894e+03 1.330e-10
 22.35878    -46.9 9.880e+03 1.194e-10
 22.38933    -45.0 9.893e+03 1.102e-10
 22.41087    -44.6 9.899e+03 1.028e-10
 22.44494    -42.7 9.935e+03 9.827e-11
 22.47896    -40.9 9.953e+03 9.785e-11
 22.50050    -40.4 9.967e+03 8.528e-11
 22.53109    -38.8 1.012e+04 9.057e-11
 22.56860    -37.4 1.023e+04 1.083e-10
 22.59013    -36.9 1.023e+04 9.323e-11
 22.61724    -35.5 1.032e+04 1.159e-10
 22.65823    -34.2 1.042e+04 1.393e-10
 22.67977    -33.8 1.040e+04 1.267e-10
 22.70339    -32.6 1.052e+04 1.556e-10
 22.74647    -31.7 1.067e+04 1.830e-10
 22.76940    -31.3 1.084e+04 2.094e-10
 22.77367    -31.2 1.095e+04 2.638e-10
 22.79381    -31.9 1.100e+04 2.988e-10
 22.83262    -32.1 1.122e+04 3.461e-10
 22.85903    -33.4 1.161e+04 4.234e-10
 22.88057    -33.4 1.196e+04 5.674e-10
 22.91877    -35.8 1.238e+04 6.688e-10
 22.94857    -37.9 1.264e+04 8.089e-10
 22.95924    -38.4 1.275e+04 9.556e-10
 22.97242    -39.9 1.269e+04 9.707e-10
 22.99329    -41.3 1.247e+04 8.663e-10
 23.00406    -41.3 1.254e+04 9.095e-10
 23.01550    -43.1 1.262e+04 6.489e-10
 23.03704    -45.6 1.260e+04 4.570e-10
 23.04887    -47.8 1.236e+04 3.541e-10
 23.05964    -47.6 1.233e+04 3.916e-10
 23.09098    -48.9 1.205e+04 3.465e-10
 23.12793    -49.9 1.176e+04 2.600e-10
 23.14947    -49.3 1.196e+04 3.131e-10
 23.17723    -50.0 1.162e+04 1.936e-10
 23.21757    -50.3 1.134e+04 1.241e-10
 23.23911    -49.8 1.150e+04 1.539e-10
 23.26338    -49.8 1.140e+04 1.192e-10
 23.30645    -49.2 1.139e+04 1.135e-10
 23.32874    -48.5 1.144e+04 1.168e-10
 23.35028    -47.6 1.142e+04 1.466e-10
 23.39261    -46.9 1.153e+04 1.687e-10
 23.41837    -46.2 1.164e+04 2.370e-10
 23.43991    -45.1 1.165e+04 2.469e-10
 23.47876    -44.4 1.179e+04 3.263e-10
 23.50801    -43.7 1.190e+04 3.945e-10
 23.52955    -42.7 1.186e+04 3.656e-10
 23.56491    -42.1 1.188e+04 3.808e-10
 23.59764    -41.6 1.184e+04 3.747e-10
 23.61918    -40.6 1.177e+04 2.988e-10
 23.65106    -40.1 1.168e+04 2.566e-10
 23.68727    -39.6 1.158e+04 2.253e-10
 23.70881    -38.7 1.155e+04 2.163e-10
 23.72336    -38.2 1.146e+04 2.123e-10
 23.74490    -38.0 1.140e+04 1.931e-10
 23.77691    -37.3 1.137e+04 1.931e-10
 23.79845    -36.4 1.138e+04 2.021e-10
 23.82337    -35.7 1.135e+04 2.004e-10
 23.86644    -34.9 1.134e+04 1.946e-10
 23.90952    -33.9 1.144e+04 2.530e-10
 23.95259    -33.3 1.143e+04 2.539e-10
 23.97771    -32.4 1.141e+04 2.458e-10
 23.99925    -32.3 1.157e+04 3.150e-10
 24.03875    -31.5 1.157e+04 2.815e-10
 24.06735    -30.9 1.157e+04 2.609e-10
 24.08888    -31.0 1.167e+04 2.991e-10
 24.12490    -30.5 1.168e+04 3.036e-10
 24.15698    -30.2 1.172e+04 3.234e-10
 24.17852    -30.1 1.173e+04 3.270e-10
 24.21105    -29.7 1.178e+04 3.431e-10
 24.24661    -29.5 1.184e+04 3.539e-10
 24.26815    -29.0 1.174e+04 3.196e-10
 24.29720    -28.8 1.178e+04 3.162e-10
 24.33625    -28.9 1.190e+04 3.268e-10
 24.35779    -28.3 1.187e+04 3.107e-10
 24.38335    -28.7 1.225e+04 4.477e-10
 24.42588    -29.2 1.265e+04 7.624e-10
 24.44742    -28.4 1.271e+04 7.496e-10
 24.46950    -29.0 1.318e+04 1.206e-09
 24.51258    -29.9 1.334e+04 1.533e-09
 24.53705    -31.1 1.325e+04 1.586e-09
 24.55859    -30.6 1.325e+04 1.506e-09
 24.59873    -31.5 1.261e+04 1.241e-09
 24.62669    -31.8 1.178e+04 7.354e-10
 24.64822    -31.1 1.179e+04 7.232e-10
 24.67445    -31.1 1.114e+04 3.993e-10
 24.69599    -30.6 1.115e+04 3.869e-10
 24.71632    -30.4 1.081e+04 2.637e-10
 24.73786    -29.4 1.087e+04 3.019e-10
 24.77104    -29.1 1.062e+04 2.383e-10
 24.80595    -28.1 1.039e+04 2.020e-10
 24.82749    -27.0 1.051e+04 2.446e-10
 24.85719    -25.8 1.037e+04 2.095e-10
 24.89559    -24.5 1.030e+04 1.885e-10
 24.91713    -23.5 1.036e+04 1.905e-10
 24.94334    -22.3 1.029e+04 1.732e-10
 24.98522    -21.0 1.023e+04 1.637e-10
 25.00676    -20.0 1.025e+04 1.620e-10
 25.02949    -18.5 1.019e+04 1.523e-10
 25.07257    -17.0 1.012e+04 1.373e-10
 25.09639    -15.3 1.007e+04 1.194e-10
 25.11793    -14.3 1.010e+04 1.203e-10
 25.15872    -12.7 1.007e+04 1.056e-10
 25.18603    -11.1 1.008e+04 1.008e-10
 25.20756    -10.2 1.009e+04 1.016e-10
 25.24487     -8.7 1.010e+04 1.016e-10
 25.27566     -7.3 1.022e+04 1.111e-10
 25.29720     -6.5 1.018e+04 1.124e-10
 25.33102     -5.5 1.031e+04 1.399e-10
 25.36529     -4.8 1.045e+04 1.906e-10
 25.38683     -3.6 1.040e+04 1.931e-10
 25.41717     -3.1 1.062e+04 2.664e-10
 25.45493     -2.8 1.101e+04 4.292e-10
 25.47647     -1.4 1.079e+04 3.490e-10
 25.50333     -1.2 1.111e+04 5.056e-10
 25.54456     -0.9 1.141e+04 7.170e-10
 25.56610      0.2 1.107e+04 5.058e-10
 25.58948      0.4 1.122e+04 6.254e-10
 25.62554      0.8 1.126e+04 6.671e-10
 25.64708      0.6 1.160e+04 7.858e-10
 25.65573      1.0 1.121e+04 5.293e-10
 25.67727      2.2 1.114e+04 4.961e-10
 25.71871      2.7 1.090e+04 3.447e-10
 25.74537      3.4 1.070e+04 2.287e-10
 25.76690      4.9 1.073e+04 2.598e-10
 25.80486      5.8 1.053e+04 1.843e-10
 25.83500      6.8 1.042e+04 1.436e-10
 25.85654      8.2 1.045e+04 1.657e-10
 25.89101      9.5 1.039e+04 1.393e-10
 25.92463     10.8 1.039e+04 1.311e-10
 25.94617     12.1 1.042e+04 1.463e-10
 25.97716     13.5 1.043e+04 1.387e-10
 26.01427     14.9 1.046e+04 1.350e-10
 26.03580     16.0 1.050e+04 1.509e-10
 26.06331     17.2 1.054e+04 1.485e-10
 26.10390     18.3 1.059e+04 1.515e-10
 26.12544     19.1 1.065e+04 1.890e-10
 26.14946     20.0 1.086e+04 2.205e-10
 26.19254     20.7 1.109e+04 2.657e-10
 26.21507     21.3 1.129e+04 3.174e-10
 26.23661     21.5 1.154e+04 3.791e-10
 26.27869     21.9 1.159e+04 3.756e-10
 26.30471     22.6 1.150e+04 2.932e-10
 26.32624     22.1 1.147e+04 2.559e-10
 26.36484     22.8 1.120e+04 1.598e-10
 26.39434     23.5 1.103e+04 1.079e-10
 26.41588     22.7 1.100e+04 1.111e-10
 26.45100     23.5 1.088e+04 9.738e-11
 26.48397     24.8 1.083e+04 9.567e-11
 26.50551     24.2 1.087e+04 1.166e-10
 26.53715     25.6 1.084e+04 1.186e-10
 26.57361     27.1 1.083e+04 1.211e-10
 26.59156     26.4 1.084e+04 1.198e-10
 26.59817     26.7 1.067e+04 1.137e-10
 26.62330     28.3 1.066e+04 1.141e-10
 26.66324     29.8 1.065e+04 1.118e-10
 26.68478     29.1 1.049e+04 9.917e-11
 26.70945     30.7 1.044e+04 9.532e-11
 26.75253     32.2 1.039e+04 9.124e-11
 26.77441     33.7 1.038e+04 9.002e-11
 26.79595     33.5 1.036e+04 9.069e-11
 26.83868     34.8 1.057e+04 9.446e-11
 26.86405     35.0 1.094e+04 1.407e-10
 26.88558     35.5 1.090e+04 1.431e-10
 26.92483     35.8 1.109e+04 2.843e-10
 26.95368     36.6 1.162e+04 6.195e-10
 26.97522     36.9 1.149e+04 5.296e-10
 27.01098     37.7 1.219e+04 9.732e-10
 27.04331     38.0 1.291e+04 1.460e-09
 27.06485     38.1 1.265e+04 1.280e-09
 27.09713     37.9 1.318e+04 1.637e-09
 27.13295     37.0 1.332e+04 1.690e-09
 27.15448     37.5 1.315e+04 1.481e-09
 27.18329     36.1 1.326e+04 1.426e-09
 27.22258     33.4 1.346e+04 1.415e-09
 27.24412     33.6 1.374e+04 1.433e-09
 27.25857     30.4 1.405e+04 1.886e-09
 27.27797     28.3 1.435e+04 2.505e-09
 27.28874     28.2 1.445e+04 2.817e-09
 27.30155     27.2 1.447e+04 3.095e-09
 27.32279     26.4 1.423e+04 2.949e-09
 27.33356     26.9 1.421e+04 3.047e-09
 27.34463     25.9 1.352e+04 1.702e-09
 27.36616     23.5 1.274e+04 7.903e-10
 27.37837     20.2 1.196e+04 4.080e-10
 27.38914     19.6 1.172e+04 3.502e-10
 27.40924     17.3 1.104e+04 2.768e-10
 27.42329     16.2 1.081e+04 2.526e-10
 27.44492     16.7 1.088e+04 2.829e-10
 27.48482     15.5 1.080e+04 3.101e-10
 27.51302     14.1 1.079e+04 3.548e-10
 27.53439     14.5 1.092e+04 4.038e-10
 27.57080     13.2 1.068e+04 3.911e-10
 27.60265     11.2 1.061e+04 3.960e-10
 27.62419     11.5 1.062e+04 3.886e-10
 27.65712      9.6 1.049e+04 4.108e-10
 27.69229      7.8 1.043e+04 4.495e-10
 27.71373      7.9 1.043e+04 4.540e-10
 27.74318      7.1 1.030e+04 4.255e-10
 27.78192      6.1 9.998e+03 3.421e-10
 27.80346      6.7 1.016e+04 3.695e-10
 27.82942      5.8 9.825e+03 2.960e-10
 27.87155      5.4 9.666e+03 2.682e-10
 27.89309      5.7 9.870e+03 3.010e-10
 27.91558      5.6 9.847e+03 2.994e-10
 27.95865      5.9 9.932e+03 3.523e-10
 27.98263      6.1 1.010e+04 4.090e-10
 27.99330      6.0 1.015e+04 4.168e-10
 28.01230      5.9 1.021e+04 4.454e-10
 28.02461      6.1 1.031e+04 5.181e-10
 28.02889      6.0 1.038e+04 6.042e-10
 28.03812      6.0 1.044e+04 6.096e-10
 28.05538      6.4 1.059e+04 6.534e-10
 28.07216      6.6 1.076e+04 6.884e-10
 28.08293      6.5 1.070e+04 6.196e-10
 28.09845      6.5 1.082e+04 5.980e-10
 28.13086      6.4 1.082e+04 5.551e-10
 28.16199      6.7 1.087e+04 5.522e-10
 28.18353      6.2 1.052e+04 4.050e-10
 28.21711      6.4 1.047e+04 3.793e-10
 28.25163      6.7 1.029e+04 3.356e-10
 28.27316      6.7 9.867e+03 2.434e-10
 28.30326      7.2 9.737e+03 2.088e-10
 28.34126      7.7 9.636e+03 1.843e-10
 28.36280      7.9 9.421e+03 1.563e-10
 28.38941      8.6 9.438e+03 1.641e-10
 28.43089      9.4 9.442e+03 1.734e-10
 28.45243     10.1 9.408e+03 1.748e-10
 28.47556     11.3 9.390e+03 1.845e-10
 28.50035     12.6 9.384e+03 1.909e-10
 28.52189     12.8 9.425e+03 1.889e-10
 28.54206     14.2 9.463e+03 1.949e-10
 28.56360     14.9 9.470e+03 1.996e-10
 28.60479     16.2 9.459e+03 1.995e-10
 28.63170     17.5 9.381e+03 1.934e-10
 28.65324     18.2 9.351e+03 1.941e-10
 28.69094     19.4 9.293e+03 1.859e-10
 28.72133     20.7 9.256e+03 1.829e-10
 28.74287     21.2 9.204e+03 1.860e-10
 28.77709     22.5 9.182e+03 1.883e-10
 28.81097     23.9 9.229e+03 1.975e-10
 28.83250     24.3 9.205e+03 1.958e-10
 28.86325     25.5 9.306e+03 2.122e-10
 28.90060     26.6 9.453e+03 2.382e-10
 28.92214     26.9 9.268e+03 1.923e-10
 28.94940     27.9 9.343e+03 1.964e-10
 28.99023     28.7 9.390e+03 1.983e-10
 29.01177     28.9 8.990e+03 1.361e-10
 29.03555     29.7 8.997e+03 1.413e-10
 29.07863     30.8 9.008e+03 1.455e-10
 29.10140     31.9 9.009e+03 1.412e-10
 29.12294     32.4 8.994e+03 1.416e-10
 29.16478     33.5 9.035e+03 1.208e-10
 29.19104     34.6 9.021e+03 1.033e-10
 29.21258     34.9 9.042e+03 1.088e-10
 29.25093     35.9 9.063e+03 9.932e-11
 29.28067     37.2 9.073e+03 9.660e-11
 29.30221     37.3 9.107e+03 9.671e-11
 29.33708     38.6 9.205e+03 9.709e-11
 29.37030     40.0 9.383e+03 1.095e-10
 29.39184     40.0 9.396e+03 1.088e-10
 29.42323     41.2 9.556e+03 1.277e-10
 29.45145     42.4 9.725e+03 1.527e-10
 29.46661     42.4 9.712e+03 1.433e-10
 29.48148     42.3 9.698e+03 1.446e-10
 29.50938     43.2 9.736e+03 1.787e-10
 29.54957     44.4 9.766e+03 2.267e-10
 29.57111     44.4 9.769e+03 2.352e-10
 29.59554     45.5 9.868e+03 2.775e-10
 29.63861     46.3 9.905e+03 2.958e-10
 29.66074     46.7 9.860e+03 3.014e-10
 29.68228     46.4 9.900e+03 3.152e-10
 29.72476     47.1 9.775e+03 3.226e-10
 29.75038     48.2 9.742e+03 3.236e-10
 29.77192     48.1 9.777e+03 3.206e-10
 29.81092     49.2 9.699e+03 2.815e-10
 29.84001     50.2 9.649e+03 2.566e-10
 29.86155     49.4 9.774e+03 2.485e-10
 29.89707     50.4 9.878e+03 2.854e-10
 29.92964     51.9 1.021e+04 3.987e-10
 29.95108     51.7 1.028e+04 4.226e-10
 29.97226     53.7 1.070e+04 5.769e-10
 29.98503     53.8 1.073e+04 5.913e-10
 29.99580     53.3 1.094e+04 6.553e-10
 30.01533     54.4 1.120e+04 7.793e-10
 30.02985     55.3 1.136e+04 8.444e-10
 30.04062     54.5 1.156e+04 9.476e-10
 30.05841     55.5 1.173e+04 1.037e-09
 30.07467     56.5 1.187e+04 1.097e-09
 30.08544     55.5 1.209e+04 1.180e-09
 30.10148     56.2 1.236e+04 1.280e-09
 30.11949     56.4 1.283e+04 1.474e-09
 30.13025     54.4 1.320e+04 1.670e-09
 30.14456     53.6 1.413e+04 2.392e-09
 30.16430     52.4 1.539e+04 3.856e-09
 30.17507     47.4 1.743e+04 6.302e-09
 30.18763     45.9 1.927e+04 1.137e-08
 30.20912     44.3 2.109e+04 1.814e-08
 30.22522     39.1 2.240e+04 2.794e-08
 30.23600     37.6 2.294e+04 3.105e-08
 30.24220     35.7 2.350e+04 3.544e-08
 30.24758     33.0 2.326e+04 3.247e-08
 30.25754     30.5 2.395e+04 3.366e-08
 30.26461     27.4 2.436e+04 3.361e-08
 30.26999     24.3 2.334e+04 2.505e-08
 30.27907     21.1 2.317e+04 2.436e-08
 30.28702     17.6 2.227e+04 2.400e-08
 30.29240     15.8 2.107e+04 1.980e-08
 30.30061     13.9 2.100e+04 2.151e-08
 30.30942     11.8 2.068e+04 2.206e-08
 30.31481     10.9 2.050e+04 2.017e-08
 30.32215      9.4 2.037e+04 2.123e-08
 30.33183      7.8 2.018e+04 2.219e-08
 30.33722      6.9 2.019e+04 2.196e-08
 30.34369      5.1 2.033e+04 2.401e-08
 30.35424      3.3 2.070e+04 2.676e-08
 30.35963      2.7 2.072e+04 2.802e-08
 30.36523      0.9 2.102e+04 3.335e-08
 30.37599     -0.6 2.157e+04 3.861e-08
 30.38203     -2.0 2.226e+04 4.152e-08
 30.38742     -1.5 2.198e+04 5.443e-08
 30.39753     -2.5 2.251e+04 5.980e-08
 30.40444     -3.6 2.272e+04 5.988e-08
 30.40915     -3.0 2.291e+04 7.116e-08
 30.41301     -4.2 2.342e+04 9.863e-08
 30.41907     -4.9 2.325e+04 8.580e-08
 30.42685     -4.9 2.358e+04 7.114e-08
 30.43223     -4.9 2.354e+04 6.941e-08
 30.44061     -5.3 2.386e+04 5.913e-08
 30.44926     -5.6 2.380e+04 4.980e-08
 30.45464     -5.7 2.353e+04 4.410e-08
 30.46215     -6.0 2.329e+04 3.796e-08
 30.47167     -6.2 2.288e+04 3.249e-08
 30.47705     -6.4 2.230e+04 2.877e-08
 30.48368     -6.5 2.189e+04 2.551e-08
 30.49408     -6.5 2.140e+04 2.214e-08
 30.49951     -7.0 2.091e+04 2.134e-08
 30.51070     -6.9 2.057e+04 1.896e-08
 30.53224     -6.5 1.977e+04 1.528e-08
 30.54437     -5.9 1.877e+04 1.164e-08
 30.55514     -6.1 1.853e+04 1.184e-08
 30.57532     -5.4 1.782e+04 9.788e-09
 30.58919     -4.7 1.715e+04 7.599e-09
 30.59996     -4.5 1.710e+04 7.897e-09
 30.61839     -4.0 1.647e+04 6.199e-09
 30.63401     -3.5 1.573e+04 4.628e-09
 30.64478     -3.4 1.569e+04 4.579e-09
 30.66147     -3.2 1.505e+04 3.495e-09
 30.67883     -3.1 1.448e+04 2.829e-09
 30.68959     -3.5 1.434e+04 2.650e-09
 30.70455     -3.3 1.404e+04 2.307e-09
 30.72364     -2.9 1.398e+04 2.203e-09
 30.73441     -3.7 1.354e+04 1.921e-09
 30.74762     -3.2 1.358e+04 1.886e-09
 30.76846     -2.7 1.390e+04 1.939e-09
 30.77923     -4.0 1.321e+04 1.895e-09
 30.79070     -3.8 1.359e+04 2.074e-09
 30.81224     -4.1 1.414e+04 2.365e-09
 30.82404     -4.6 1.477e+04 2.793e-09
 30.83481     -5.6 1.398e+04 2.660e-09
 30.85531     -6.0 1.436e+04 3.066e-09
 30.86886     -6.4 1.472e+04 3.540e-09
 30.87963     -6.4 1.372e+04 2.706e-09
 30.88866     -6.7 1.399e+04 2.823e-09
 30.89942     -7.7 1.350e+04 2.234e-09
 30.91368     -7.9 1.385e+04 2.227e-09
 30.92445     -8.1 1.303e+04 1.174e-09
 30.94146     -8.7 1.329e+04 1.099e-09
 30.95849     -9.2 1.364e+04 1.108e-09
 30.98013    -10.4 1.270e+04 5.898e-10
 31.00341    -10.8 1.313e+04 8.399e-10
 31.01408    -11.5 1.177e+04 3.960e-10
 31.02761    -11.6 1.196e+04 5.185e-10
 31.04813    -11.6 1.236e+04 8.247e-10
 31.06976    -11.8 1.179e+04 5.886e-10
 31.10319    -10.9 1.251e+04 1.101e-09
 31.13796    -10.0 1.298e+04 1.723e-09
 31.15950     -9.4 1.236e+04 1.119e-09
 31.17848     -8.9 1.303e+04 1.929e-09
 31.19335     -8.4 1.339e+04 2.441e-09
 31.20412     -8.0 1.304e+04 1.877e-09
 31.22146     -7.5 1.337e+04 2.368e-09
 31.23816     -6.6 1.373e+04 2.839e-09
 31.24903     -6.7 1.283e+04 1.387e-09
 31.27550     -5.2 1.316e+04 1.842e-09
 31.31722     -3.8 1.303e+04 1.785e-09
 31.33876     -3.6 1.227e+04 9.906e-10
 31.35363     -2.0 1.211e+04 1.023e-09
 31.37516     -2.3 1.192e+04 8.839e-10
 31.40472     -0.4 1.154e+04 7.884e-10
 31.42840      1.8 1.113e+04 5.959e-10
 31.44993      2.5 1.111e+04 5.894e-10
 31.49088      4.6 1.090e+04 5.144e-10
 31.51803      6.8 1.066e+04 4.274e-10
 31.53957      7.6 1.099e+04 5.746e-10
 31.57703      9.8 1.080e+04 4.948e-10
 31.60766     12.0 1.056e+04 3.894e-10
 31.62920     12.4 1.098e+04 5.870e-10
 31.66318     14.5 1.071e+04 4.570e-10
 31.69730     16.5 1.044e+04 3.417e-10
 31.71883     16.7 1.081e+04 4.974e-10
 31.74933     18.5 1.050e+04 3.806e-10
 31.78693     20.5 1.018e+04 3.011e-10
 31.80847     20.7 1.043e+04 3.878e-10
 31.83548     22.9 1.007e+04 3.030e-10
 31.87656     25.3 9.744e+03 2.216e-10
 31.89810     25.4 9.833e+03 2.322e-10
 31.92164     27.6 9.541e+03 1.462e-10
 31.96471     29.6 9.393e+03 9.402e-11
 31.98774     31.3 9.257e+03 6.997e-11
 32.00927     31.3 9.264e+03 7.129e-11
 32.05086     33.1 9.157e+03 6.547e-11
 32.07737     35.3 9.056e+03 7.085e-11
 32.09891     35.3 9.121e+03 8.770e-11
 32.13701     38.0 9.007e+03 1.133e-10
 32.16700     40.8 9.011e+03 1.206e-10
 32.18854     40.7 9.145e+03 1.566e-10
 32.22317     43.3 9.162e+03 1.490e-10
 32.25664     45.3 9.195e+03 1.513e-10
 32.27817     44.5 9.489e+03 2.496e-10
 32.30472     46.3 9.560e+03 2.931e-10
 32.32626     45.6 9.557e+03 2.946e-10
 32.34627     47.5 9.645e+03 3.286e-10
 32.36781     46.0 1.022e+04 5.094e-10
 32.39547     46.7 1.040e+04 5.677e-10
 32.43590     47.0 1.063e+04 7.428e-10
 32.45744     44.8 1.060e+04 7.994e-10
 32.48162     46.1 1.066e+04 9.322e-10
 32.52470     48.0 1.050e+04 8.937e-10
 32.54708     50.0 1.003e+04 6.815e-10
 32.56861     48.3 9.443e+03 4.687e-10
 32.61085     49.5 8.910e+03 3.321e-10
 32.63671     50.9 8.606e+03 2.790e-10
 32.65825     49.7 8.648e+03 2.992e-10
 32.69700     51.8 8.606e+03 3.025e-10
 32.72634     54.1 8.653e+03 3.178e-10
 32.74788     53.1 9.099e+03 4.300e-10
 32.77106     55.6 9.041e+03 4.115e-10
 32.78173     54.7 9.457e+03 5.447e-10
 32.79084     55.8 9.633e+03 6.004e-10
 32.80161     55.5 9.616e+03 5.925e-10
 32.81526     56.7 9.766e+03 6.527e-10
 32.82655     57.8 9.931e+03 7.162e-10
 32.83732     57.1 1.037e+04 9.345e-10
 32.85834     58.3 1.052e+04 1.004e-09
 32.87137     59.4 1.069e+04 1.094e-09
 32.88214     58.4 1.094e+04 1.147e-09
 32.90142     59.7 1.104e+04 1.189e-09
 32.91618     60.5 1.125e+04 1.264e-09
 32.92695     59.1 1.123e+04 1.236e-09
 32.94449     59.6 1.143e+04 1.312e-09
 32.96100     60.2 1.172e+04 1.425e-09
 32.97177     58.1 1.156e+04 1.263e-09
 32.98757     58.1 1.185e+04 1.382e-09
 33.00582     58.1 1.208e+04 1.516e-09
 33.01659     55.7 1.184e+04 1.426e-09
 33.03064     55.7 1.192e+04 1.557e-09
 33.05063     55.7 1.197e+04 1.599e-09
 33.06140     53.7 1.202e+04 1.620e-09
 33.07372     52.5 1.235e+04 1.693e-09
 33.09526     48.5 1.384e+04 2.179e-09
 33.10622     42.3 1.547e+04 3.472e-09
 33.11699     38.5 1.599e+04 5.658e-09
 33.13833     38.2 1.521e+04 6.694e-09
 33.15104     39.1 1.486e+04 6.330e-09
 33.16181     37.3 1.638e+04 7.951e-09
 33.18141     32.4 1.972e+04 8.031e-09
 33.19585     24.2 2.131e+04 7.208e-09
 33.20662     16.6 1.941e+04 9.678e-09
 33.22449     10.5 1.653e+04 9.536e-09
 33.24067      7.7 1.722e+04 9.696e-09
 33.25144      4.5 1.868e+04 1.386e-08
 33.26638      1.7 1.796e+04 1.090e-08
 33.27715      2.9 1.785e+04 1.095e-08
 33.28549     -1.4 1.649e+04 7.890e-09
 33.29626     -3.3 1.697e+04 7.573e-09
 33.31064     -8.0 1.688e+04 6.004e-09
 33.33030    -12.0 1.648e+04 5.414e-09
 33.34107    -15.0 1.580e+04 4.162e-09
 33.35371    -18.0 1.487e+04 3.967e-09
 33.37512    -19.3 1.432e+04 4.087e-09
 33.38589    -20.9 1.429e+04 3.537e-09
 33.39679    -21.0 1.442e+04 3.770e-09
 33.41833    -21.1 1.428e+04 3.627e-09
 33.43071    -21.4 1.341e+04 2.642e-09
 33.44148    -22.6 1.285e+04 2.535e-09
 33.46140    -22.7 1.233e+04 1.807e-09
 33.47552    -23.7 1.175e+04 1.259e-09
 33.48629    -23.3 1.181e+04 1.247e-09
 33.50448    -24.4 1.125e+04 9.262e-10
 33.52034    -25.3 1.098e+04 8.214e-10
 33.53111    -25.4 1.084e+04 7.253e-10
 33.54756    -25.9 1.081e+04 7.132e-10
 33.56516    -26.7 1.101e+04 7.672e-10
 33.57593    -26.7 1.085e+04 6.655e-10
 33.59063    -27.7 1.129e+04 8.257e-10
 33.60997    -28.6 1.173e+04 1.095e-09
 33.62074    -28.6 1.168e+04 9.621e-10
 33.63371    -29.4 1.216e+04 1.315e-09
 33.65479    -30.0 1.270e+04 1.821e-09
 33.66556    -30.4 1.288e+04 1.797e-09
 33.67678    -30.8 1.360e+04 2.587e-09
 33.69832    -31.1 1.429e+04 3.494e-09
 33.71038    -31.5 1.481e+04 4.286e-09
 33.72115    -31.5 1.526e+04 4.798e-09
 33.74140    -31.7 1.549e+04 5.435e-09
 33.75270    -31.9 1.547e+04 5.582e-09
 33.75572    -30.9 1.529e+04 5.348e-09
 33.76596    -30.7 1.557e+04 5.689e-09
 33.78447    -30.3 1.565e+04 6.078e-09
 33.80001    -29.8 1.574e+04 6.346e-09
 33.81078    -29.5 1.565e+04 6.374e-09
 33.82755    -28.9 1.557e+04 6.229e-09
 33.84483    -28.6 1.556e+04 5.852e-09
 33.85560    -27.9 1.492e+04 5.115e-09
 33.87062    -27.8 1.491e+04 4.781e-09
 33.88964    -28.2 1.528e+04 4.767e-09
 33.90041    -27.1 1.416e+04 3.655e-09
 33.91370    -27.4 1.451e+04 3.734e-09
 33.93446    -27.9 1.514e+04 4.312e-09
 33.94523    -26.7 1.377e+04 2.857e-09
 33.95678    -27.1 1.408e+04 3.202e-09
 33.97831    -27.2 1.428e+04 3.523e-09
 33.99005    -27.0 1.448e+04 3.641e-09
 34.00082    -27.1 1.306e+04 2.531e-09
 34.02139    -27.2 1.271e+04 2.424e-09
 34.03486    -27.2 1.244e+04 2.029e-09
 34.04563    -26.9 1.184e+04 1.795e-09
 34.06447    -26.9 1.144e+04 1.411e-09
 34.07968    -27.3 1.097e+04 1.035e-09
 34.09045    -26.3 1.090e+04 1.056e-09
 34.10754    -26.7 1.035e+04 7.476e-10
 34.12450    -27.1 9.731e+03 5.277e-10
 34.13527    -26.4 9.765e+03 5.460e-10
 34.15062    -26.8 9.186e+03 3.971e-10
 34.16931    -26.9 8.860e+03 3.240e-10
 34.18008    -26.7 8.973e+03 3.351e-10
 34.19369    -26.8 8.801e+03 2.989e-10
 34.21413    -26.5 8.746e+03 2.904e-10
 34.22490    -26.6 8.862e+03 3.081e-10
 34.22824    -25.9 8.845e+03 3.072e-10
 34.23901    -25.8 9.104e+03 3.923e-10
 34.25831    -25.4 9.051e+03 4.076e-10
 34.26972    -26.7 1.252e+04 7.872e-10
 34.28048    -27.6 1.036e+04 9.246e-10
 34.29208    -29.4 1.209e+04 1.493e-09
 34.29741    -29.7 1.232e+04 1.562e-09
 34.30667    -29.7 1.216e+04 1.653e-09
 34.31444    -32.5 1.460e+04 2.940e-09
 34.31982    -33.2 1.437e+04 3.396e-09
 34.32821    -33.5 1.498e+04 4.325e-09
 34.33684    -34.1 2.230e+04 7.653e-09
 34.34223    -34.1 1.524e+04 5.483e-09
 34.34975    -35.5 1.594e+04 6.437e-09
 34.35925    -39.2 2.061e+04 1.079e-08
 34.36464    -36.6 1.657e+04 7.198e-09
 34.37128    -40.2 2.117e+04 1.073e-08
 34.38166    -43.6 2.505e+04 2.401e-08
 34.38704    -40.7 2.295e+04 1.187e-08
 34.39282    -43.1 2.584e+04 2.235e-08
 34.40359    -44.8 2.484e+04 3.604e-08
 34.40945    -46.9 2.380e+04 4.207e-08
 34.41484    -45.6 2.454e+04 2.319e-08
 34.42513    -47.5 2.275e+04 2.685e-08
 34.43186    -48.9 2.080e+04 2.911e-08
 34.43725    -48.0 2.174e+04 1.887e-08
 34.44667    -49.0 2.002e+04 2.065e-08
 34.45427    -49.4 1.888e+04 2.110e-08
 34.45965    -48.5 1.943e+04 1.308e-08
 34.46592    -48.3 1.838e+04 1.398e-08
 34.47130    -48.8 1.813e+04 1.859e-08
 34.47668    -47.8 1.763e+04 1.737e-08
 34.48206    -47.7 1.770e+04 1.310e-08
 34.48974    -46.7 1.732e+04 1.287e-08
 34.49909    -45.9 1.732e+04 1.244e-08
 34.50447    -45.6 1.711e+04 8.147e-09
 34.51128    -44.9 1.699e+04 8.039e-09
 34.52150    -44.6 1.691e+04 7.305e-09
 34.52688    -45.0 1.635e+04 6.387e-09
 34.53825    -44.4 1.631e+04 5.852e-09
 34.54939    -43.6 1.607e+04 4.958e-09
 34.56015    -42.4 1.474e+04 3.846e-09
 34.58138    -41.3 1.470e+04 3.143e-09
 34.59420    -40.5 1.409e+04 2.216e-09
 34.60497    -39.2 1.343e+04 1.937e-09
 34.62445    -38.8 1.316e+04 1.447e-09
 34.63902    -38.7 1.228e+04 1.046e-09
 34.64979    -37.4 1.209e+04 9.356e-10
 34.66753    -37.2 1.143e+04 7.209e-10
 34.68384    -36.8 1.087e+04 5.995e-10
 34.69461    -35.7 1.072e+04 5.901e-10
 34.70379    -35.2 1.039e+04 5.046e-10
 34.71456    -35.6 1.034e+04 5.175e-10
 34.72865    -34.8 9.990e+03 4.681e-10
 34.73942    -33.7 1.006e+04 4.641e-10
 34.75368    -33.0 9.817e+03 4.203e-10
 34.77347    -32.1 9.599e+03 3.903e-10
 34.78424    -31.2 9.697e+03 3.956e-10
 34.80762    -29.5 9.606e+03 3.764e-10
 34.85080    -28.4 9.441e+03 3.564e-10
 34.87407    -26.9 9.183e+03 3.006e-10
 34.89561    -25.3 9.416e+03 3.720e-10
 34.93695    -23.9 9.183e+03 3.199e-10
 34.96370    -22.3 8.931e+03 2.572e-10
 34.98524    -21.1 9.320e+03 3.535e-10
 35.02310    -19.1 9.127e+03 2.919e-10
 35.05334    -17.0 8.975e+03 2.427e-10
 35.07487    -16.2 9.430e+03 3.429e-10
 35.10925    -13.9 9.202e+03 2.731e-10
 35.14297    -11.6 9.105e+03 2.439e-10
 35.16451    -11.1 9.520e+03 3.266e-10
 35.17953     -8.7 9.469e+03 3.046e-10
 35.20107     -8.2 9.036e+03 2.126e-10
 35.23260     -5.7 9.178e+03 2.254e-10
 35.25414     -5.4 9.497e+03 3.011e-10
 35.28156     -2.9 9.762e+03 3.436e-10
 35.32224     -0.4 1.003e+04 4.136e-10
 35.34377      0.3 1.041e+04 5.833e-10
 35.36771      2.8 1.065e+04 6.489e-10
 35.41078      5.3 1.085e+04 7.126e-10
 35.43341      7.6 1.098e+04 7.704e-10
 35.45495      8.6 1.141e+04 9.880e-10
 35.49694     10.9 1.156e+04 1.018e-09
 35.52304     13.1 1.170e+04 1.031e-09
 35.53371     13.0 1.247e+04 1.503e-09
 35.55058     13.6 1.255e+04 1.535e-09
 35.56766     15.1 1.277e+04 1.560e-09
 35.57843     15.0 1.362e+04 2.452e-09
 35.59366     16.1 1.384e+04 2.522e-09
 35.61248     17.2 1.397e+04 2.492e-09
 35.62325     17.4 1.507e+04 4.446e-09
 35.63674     18.6 1.510e+04 4.162e-09
 35.65488     19.7 1.482e+04 3.555e-09
 35.66467     20.2 1.417e+04 2.597e-09
 35.66807     20.6 1.573e+04 5.025e-09
 35.67981     21.8 1.538e+04 4.097e-09
 35.70135     22.8 1.442e+04 3.072e-09
 35.71288     23.7 1.346e+04 2.367e-09
 35.72365     24.7 1.515e+04 3.890e-09
 35.74443     25.7 1.397e+04 2.715e-09
 35.75770     26.7 1.302e+04 1.958e-09
 35.76847     27.2 1.482e+04 3.157e-09
 35.78750     27.5 1.436e+04 2.376e-09
 35.80252     27.4 1.456e+04 2.161e-09
 35.81328     25.7 1.841e+04 6.280e-09
 35.83058     25.5 1.897e+04 7.154e-09
 35.84733     25.5 1.953e+04 7.897e-09
 35.85805     24.8 2.011e+04 2.365e-08
 35.86817     25.0 2.049e+04 2.388e-08
 35.87503     24.8 2.079e+04 2.406e-08
 35.88041     25.3 2.077e+04 4.293e-08
 35.88971     24.8 2.107e+04 4.022e-08
 35.89744     24.4 2.103e+04 3.772e-08
 35.90028     24.6 2.102e+04 4.805e-08
 35.90332     24.6 2.054e+04 3.047e-08
 35.91125     24.2 2.074e+04 3.224e-08
 35.91984     23.9 2.104e+04 3.499e-08
 35.92523     23.6 2.129e+04 4.025e-08
 35.93279     23.1 2.148e+04 4.477e-08
 35.94225     22.7 2.128e+04 4.727e-08
 35.94764     22.4 2.123e+04 4.590e-08
 35.95432     22.3 2.105e+04 5.182e-08
 35.96466     22.4 2.103e+04 5.785e-08
 35.97005     22.1 2.096e+04 5.262e-08
 35.97586     22.4 2.092e+04 5.692e-08
 35.98663     23.0 2.081e+04 5.664e-08
 35.99245     23.7 2.086e+04 5.241e-08
 35.99784     23.4 2.080e+04 4.297e-08
 36.00817     24.1 2.088e+04 3.831e-08
 36.01486     24.8 2.105e+04 2.868e-08
 36.02025     24.0 2.057e+04 2.173e-08
 36.02971     23.9 1.991e+04 1.676e-08
 36.03732     24.1 1.940e+04 1.104e-08
 36.04814     23.3 1.838e+04 8.035e-09
 36.06750     22.1 1.676e+04 3.949e-09
 36.08219     19.9 1.491e+04 2.126e-09
 36.09295     19.6 1.486e+04 2.167e-09
 36.11057     18.7 1.380e+04 1.600e-09
 36.12700     19.1 1.315e+04 1.518e-09
 36.13609     19.3 1.353e+04 1.675e-09
 36.14119     20.0 1.379e+04 1.771e-09
 36.15365     20.5 1.359e+04 1.622e-09
 36.17182     21.2 1.335e+04 1.719e-09
 36.18259     21.6 1.366e+04 1.886e-09
 36.19672     22.2 1.331e+04 1.908e-09
 36.21664     23.1 1.315e+04 1.939e-09
 36.22740     23.4 1.336e+04 1.931e-09
 36.23980     24.4 1.287e+04 1.883e-09
 36.26134     25.3 1.308e+04 1.646e-09
 36.27222     25.8 1.299e+04 1.644e-09
 36.28299     25.4 1.309e+04 1.474e-09
 36.30441     26.5 1.252e+04 1.349e-09
 36.31704     27.6 1.209e+04 1.203e-09
 36.32781     27.1 1.195e+04 1.047e-09
 36.34749     28.2 1.181e+04 9.172e-10
 36.36186     29.1 1.171e+04 8.660e-10
 36.37262     28.7 1.163e+04 8.042e-10
 36.39056     29.8 1.137e+04 7.168e-10
 36.40667     30.9 1.128e+04 6.535e-10
 36.41744     30.7 1.126e+04 6.489e-10
 36.44082     32.7 1.148e+04 7.486e-10
 36.46245     32.6 1.126e+04 7.566e-10
 36.48768     35.3 1.102e+04 6.666e-10
 36.53055     37.8 1.106e+04 6.899e-10
 36.55209     38.2 1.086e+04 6.335e-10
 36.57383     40.5 1.101e+04 6.772e-10
 36.61691     42.4 1.131e+04 8.195e-10
 36.64172     43.8 1.172e+04 1.050e-09
 36.66326     44.0 1.127e+04 8.000e-10
 36.70306     45.2 1.154e+04 9.370e-10
 36.73135     46.2 1.163e+04 9.698e-10
 36.75289     46.9 1.114e+04 7.233e-10
 36.78921     47.9 1.110e+04 6.331e-10
 36.82099     48.7 1.101e+04 5.602e-10
 36.84253     49.4 1.063e+04 3.791e-10
 36.87536     50.3 1.054e+04 3.734e-10
 36.91062     51.6 1.049e+04 3.894e-10
 36.93216     52.4 1.014e+04 2.842e-10
 36.96152     54.0 1.009e+04 3.031e-10
 37.00025     55.9 1.009e+04 3.276e-10
 37.02179     56.9 9.734e+03 2.437e-10
 37.04767     59.0 9.744e+03 2.593e-10
 37.08171     61.1 9.786e+03 2.679e-10
 37.10239     61.3 9.764e+03 2.628e-10
 37.11143     62.4 9.514e+03 2.055e-10
 37.13382     64.4 9.519e+03 1.919e-10
 37.17690     66.4 9.544e+03 1.698e-10
 37.20106     68.2 9.581e+03 1.467e-10
 37.22260     69.2 9.294e+03 1.029e-10
 37.26305     70.9 9.248e+03 9.174e-11
 37.29069     72.7 9.252e+03 9.134e-11
 37.31223     73.8 8.893e+03 8.687e-11
 37.34920     75.7 8.921e+03 8.874e-11
 37.38033     77.6 9.024e+03 9.500e-11
 37.40187     78.9 8.962e+03 9.542e-11
 37.43535     80.8 9.059e+03 1.038e-10
 37.46996     82.6 9.152e+03 1.120e-10
 37.49150     83.7 9.135e+03 1.168e-10
 37.52150     85.6 9.211e+03 1.259e-10
 37.55959     87.4 9.295e+03 1.349e-10
 37.58113     88.3 9.338e+03 1.417e-10
 37.60765     90.0 9.420e+03 1.464e-10
 37.64923     91.7 9.509e+03 1.491e-10
 37.67077     92.3 9.509e+03 1.429e-10
 37.69381     94.0 9.567e+03 1.358e-10
 37.73688     95.7 9.647e+03 1.313e-10
 37.76040     97.4 9.713e+03 1.291e-10
 37.78194     97.8 9.703e+03 1.115e-10
 37.82303     99.5 9.753e+03 1.100e-10
 37.85003    101.3 9.808e+03 1.070e-10
 37.87157    101.5 9.726e+03 9.628e-11
 37.90919    103.2 9.741e+03 9.292e-11
 37.93967    104.8 9.719e+03 8.961e-11
 37.96120    104.9 9.686e+03 9.193e-11
 37.99534    106.3 9.688e+03 9.368e-11
 38.02930    107.6 9.685e+03 1.010e-10
 38.04523    107.6 9.624e+03 1.182e-10
 38.05434    107.5 9.658e+03 1.285e-10
 38.08149    108.7 9.668e+03 1.414e-10
 38.11893    109.8 9.706e+03 1.583e-10
 38.14047    110.0 9.684e+03 1.683e-10
 38.16764    110.9 9.683e+03 1.673e-10
 38.20857    111.6 9.693e+03 1.693e-10
 38.23011    112.0 9.571e+03 1.436e-10
 38.25379    112.6 9.591e+03 1.461e-10
 38.29687    113.1 9.706e+03 1.672e-10
 38.31974    113.3 1.001e+04 2.383e-10
 38.34128    114.2 9.791e+03 1.941e-10
 38.38302    114.7 1.009e+04 2.976e-10
 38.40937    115.1 1.043e+04 4.006e-10
 38.43091    116.5 1.037e+04 3.972e-10
 38.45409    116.3 1.059e+04 4.344e-10
 38.46476    116.7 1.056e+04 4.471e-10
 38.47975    116.8 1.075e+04 4.797e-10
 38.49881    116.8 1.087e+04 4.801e-10
 38.50958    117.4 1.099e+04 5.504e-10
 38.51892    117.3 1.110e+04 5.453e-10
 38.52969    117.3 1.098e+04 5.145e-10
 38.54363    117.1 1.111e+04 4.828e-10
 38.55440    117.2 1.149e+04 6.429e-10
 38.56590    116.4 1.178e+04 6.657e-10
 38.58744    114.8 1.225e+04 7.569e-10
 38.59921    112.8 1.273e+04 9.961e-10
 38.60998    112.0 1.356e+04 1.848e-09
 38.63051    110.9 1.376e+04 2.534e-09
 38.64403    110.3 1.381e+04 3.168e-09
 38.65480    110.9 1.443e+04 4.499e-09
 38.67359    110.9 1.425e+04 4.205e-09
 38.68885    110.7 1.371e+04 3.107e-09
 38.69962    110.8 1.376e+04 2.986e-09
 38.71666    109.4 1.271e+04 1.426e-09
 38.73366    108.3 1.223e+04 1.049e-09
 38.74443    107.3 1.172e+04 8.338e-10
 38.76781    106.4 1.087e+04 4.843e-10
 38.78945    104.8 1.057e+04 4.670e-10
 38.81378    103.4 9.612e+03 2.549e-10
 38.85686    102.1 9.537e+03 2.255e-10
 38.87908    100.6 9.586e+03 2.341e-10
 38.90062    100.5 9.461e+03 2.069e-10
 38.94301     98.7 9.706e+03 2.522e-10
 38.96871     96.9 1.001e+04 3.296e-10
 38.98806     97.0 9.643e+03 2.502e-10
 39.00543     96.6 9.471e+03 2.136e-10
 39.02916     94.9 9.518e+03 2.236e-10
 39.05835     93.4 9.527e+03 2.239e-10
 39.07988     93.4 9.502e+03 2.213e-10
 39.11531     91.5 9.609e+03 2.300e-10
 39.14798     89.5 9.950e+03 2.695e-10
 39.16952     89.0 1.003e+04 2.927e-10
 39.19060     87.5 1.035e+04 3.719e-10
 39.20337     86.0 1.069e+04 5.045e-10
 39.21414     85.6 1.076e+04 5.407e-10
 39.23357     84.3 1.107e+04 7.175e-10
 39.24819     83.0 1.137e+04 8.959e-10
 39.25896     82.5 1.146e+04 9.286e-10
 39.27665     81.1 1.172e+04 1.075e-09
 39.29300     79.6 1.199e+04 1.194e-09
 39.30377     78.9 1.198e+04 1.138e-09
 39.32715     77.0 1.203e+04 1.099e-09
 39.34879     75.2 1.181e+04 8.615e-10
 39.37377     72.0 1.142e+04 6.405e-10
 39.41684     69.7 1.078e+04 4.349e-10
 39.45992     67.2 1.000e+04 2.728e-10
 39.50299     66.1 9.755e+03 1.984e-10
 39.52805     65.4 9.674e+03 1.859e-10
 39.54959     65.2 9.772e+03 2.103e-10
 39.58915     64.8 9.812e+03 2.237e-10
 39.61769     64.5 9.951e+03 2.666e-10
 39.63922     64.6 1.015e+04 3.070e-10
 39.67530     64.4 1.030e+04 3.342e-10
 39.70732     64.0 1.035e+04 3.333e-10
 39.72886     64.2 1.040e+04 3.346e-10
 39.76145     63.8 1.039e+04 3.109e-10
 39.79695     63.3 1.035e+04 2.924e-10
 39.81849     63.6 1.048e+04 3.154e-10
 39.84760     62.8 1.056e+04 3.416e-10
 39.88659     61.9 1.061e+04 3.690e-10
 39.90803     61.3 1.088e+04 5.154e-10
 39.92279     60.6 1.101e+04 5.719e-10
 39.94198     59.8 1.108e+04 5.971e-10
 39.95275     59.7 1.139e+04 7.290e-10
 39.95632     58.5 1.146e+04 7.054e-10
 39.96709     57.5 1.137e+04 6.546e-10
 39.98679     55.7 1.151e+04 5.790e-10
 39.99756     54.1 1.196e+04 6.658e-10
 40.01981     49.8 1.116e+04 5.876e-10
 40.06298     47.7 1.048e+04 4.620e-10
 40.08739     45.6 1.024e+04 3.493e-10
 40.10893     43.3 1.013e+04 3.061e-10
 40.14913     41.7 9.728e+03 2.334e-10
 40.17703     41.2 9.442e+03 2.137e-10
 40.19856     39.7 9.276e+03 1.798e-10
 40.23528     40.3 9.196e+03 1.707e-10
 40.26666     41.2 9.062e+03 1.486e-10
 40.28820     40.1 8.967e+03 1.370e-10
 40.32144     41.1 8.870e+03 1.158e-10
 40.35629     42.1 8.798e+03 9.965e-11
 40.37783     41.1 8.847e+03 1.123e-10
 40.40759     42.2 8.775e+03 1.083e-10
 40.44593     43.5 8.716e+03 1.101e-10
 40.46746     42.5 8.991e+03 1.665e-10
 40.49374     44.2 8.884e+03 1.664e-10
 40.53556     45.8 8.826e+03 1.677e-10
 40.55710     45.3 9.055e+03 2.141e-10
 40.57989     46.7 9.035e+03 2.042e-10
 40.62297     47.8 9.060e+03 2.026e-10
 40.64673     48.7 9.106e+03 2.098e-10
 40.66827     47.0 9.404e+03 2.576e-10
 40.70912     47.7 9.512e+03 2.923e-10
 40.73637     48.5 9.569e+03 3.384e-10
 40.75790     47.3 9.939e+03 5.145e-10
 40.79527     48.5 9.857e+03 4.962e-10
 40.82600     49.7 9.692e+03 4.306e-10
 40.84754     48.9 9.630e+03 4.091e-10
 40.88142     49.8 9.402e+03 3.241e-10
 40.90761     50.6 9.284e+03 2.891e-10
 40.92028     50.0 8.916e+03 2.162e-10
 40.93717     49.9 8.917e+03 2.023e-10
 40.96757     50.8 9.030e+03 2.229e-10
 41.00527     51.7 9.296e+03 2.944e-10
 41.02680     51.7 9.558e+03 3.409e-10
 41.04286     51.7 9.755e+03 4.154e-10
 41.06066     51.8 9.945e+03 4.945e-10
 41.07143     51.7 1.007e+04 5.841e-10
 41.08584     52.0 1.020e+04 6.623e-10
 41.10547     52.2 1.033e+04 6.854e-10
 41.11624     51.5 1.101e+04 9.534e-10
 41.12891     51.5 1.099e+04 9.510e-10
 41.15029     51.6 1.097e+04 9.346e-10
 41.16106     51.8 1.131e+04 1.155e-09
 41.17199     52.0 1.101e+04 1.020e-09
 41.19353     52.5 1.075e+04 8.938e-10
 41.20588     53.0 1.054e+04 7.717e-10
 41.21664     52.9 1.078e+04 8.175e-10
 41.23660     53.1 1.066e+04 6.888e-10
 41.25069     53.2 1.064e+04 6.126e-10
 41.26146     52.5 1.081e+04 6.400e-10
 41.27968     52.8 1.070e+04 6.105e-10
 41.29551     53.3 1.057e+04 5.903e-10
 41.30628     53.2 1.058e+04 6.443e-10
 41.32276     53.9 1.052e+04 6.344e-10
 41.34033     54.6 1.047e+04 6.160e-10
 41.35110     54.8 1.076e+04 7.006e-10
 41.36583     55.4 1.095e+04 6.733e-10
 41.38296     55.2 1.131e+04 6.747e-10
 41.39150     53.9 1.214e+04 7.312e-10
 41.39591     44.2 2.097e+04 2.744e-09
 41.40891     41.1 2.132e+04 4.118e-09
 41.42996     38.6 1.891e+04 5.623e-09
 41.44073     37.9 1.947e+04 1.831e-08
 41.45198     38.7 1.760e+04 1.512e-08
 41.47352     39.6 1.653e+04 1.208e-08
 41.48555     40.6 1.623e+04 9.152e-09
 41.49631     41.6 1.969e+04 4.880e-09
 41.51660     40.1 1.992e+04 2.307e-09
 41.53036     37.9 1.884e+04 1.261e-09
 41.54113     31.1 1.307e+04 4.751e-10
 41.55967     29.6 1.086e+04 4.104e-10
 41.57518     30.1 1.074e+04 3.693e-10
 41.58595     30.0 1.069e+04 3.126e-10
 41.60275     30.8 1.064e+04 3.102e-10
 41.62000     31.5 1.070e+04 3.182e-10
 41.63077     30.6 1.064e+04 2.791e-10
 41.64582     31.2 1.088e+04 3.470e-10
 41.66481     31.6 1.105e+04 3.993e-10
 41.67558     30.4 1.101e+04 3.925e-10
 41.68890     30.3 1.154e+04 6.064e-10
 41.70963     30.6 1.182e+04 8.039e-10
 41.72040     29.8 1.210e+04 9.239e-10
 41.74284     31.3 1.254e+04 1.365e-09
 41.76541     33.1 1.313e+04 1.891e-09
 41.78695     31.3 1.329e+04 2.017e-09
 41.82909     32.3 1.315e+04 1.650e-09
 41.85504     33.4 1.271e+04 1.158e-09
 41.86302     31.7 1.237e+04 9.356e-10
 41.86927     30.9 1.236e+04 9.801e-10
 41.88274     31.3 1.213e+04 8.541e-10
 41.89967     32.2 1.190e+04 7.277e-10
 41.91044     32.0 1.183e+04 6.937e-10
 41.92582     32.5 1.194e+04 7.062e-10
 41.94458     33.7 1.178e+04 7.049e-10
 41.96622     33.2 1.158e+04 5.596e-10
 42.00140     35.9 1.172e+04 5.691e-10
 42.03361     37.3 1.174e+04 5.756e-10
 42.04489     38.3 1.185e+04 6.039e-10
 42.05565     37.8 1.159e+04 5.130e-10
 42.07658     38.6 1.183e+04 6.024e-10
 42.08970     39.2 1.214e+04 7.597e-10
 42.10047     39.1 1.172e+04 6.460e-10
 42.11966     39.9 1.191e+04 8.212e-10
 42.13452     40.9 1.225e+04 1.052e-09
 42.14529     41.3 1.178e+04 7.174e-10
 42.16274     42.4 1.221e+04 8.084e-10
 42.17934     43.2 1.287e+04 8.838e-10
 42.19010     42.6 1.233e+04 5.249e-10
 42.20581     42.2 1.268e+04 5.289e-10
 42.22415     41.6 1.289e+04 5.907e-10
 42.23492     40.7 1.196e+04 4.483e-10
 42.24889     40.1 1.213e+04 5.688e-10
 42.26897     39.6 1.241e+04 7.759e-10
 42.27974     39.5 1.215e+04 7.122e-10
 42.29196     39.4 1.263e+04 1.002e-09
 42.31350     39.3 1.315e+04 1.414e-09
 42.32456     39.2 1.362e+04 1.919e-09
 42.33434     39.0 1.323e+04 1.655e-09
 42.34482     38.2 1.363e+04 2.074e-09
 42.35658     38.4 1.392e+04 2.505e-09
 42.36937     38.6 1.415e+04 2.897e-09
 42.38014     38.5 1.364e+04 2.227e-09
 42.39965     38.7 1.379e+04 2.325e-09
 42.41419     38.8 1.389e+04 2.380e-09
 42.42496     38.4 1.321e+04 1.707e-09
 42.44273     38.3 1.331e+04 1.725e-09
 42.45901     38.2 1.351e+04 1.809e-09
 42.46977     37.6 1.272e+04 1.340e-09
 42.48581     37.2 1.308e+04 1.543e-09
 42.50382     36.5 1.367e+04 1.977e-09
 42.51459     36.4 1.288e+04 1.567e-09
 42.52888     35.6 1.357e+04 2.195e-09
 42.54864     35.1 1.431e+04 3.261e-09
 42.55941     35.7 1.347e+04 2.340e-09
 42.57196     36.0 1.406e+04 3.214e-09
 42.59346     36.4 1.445e+04 3.942e-09
 42.61499     36.8 1.361e+04 2.568e-09
 42.63657     36.8 1.355e+04 2.484e-09
 42.64904     36.7 1.327e+04 2.185e-09
 42.65981     36.3 1.258e+04 1.595e-09
 42.68319     36.6 1.249e+04 1.555e-09
 42.70482     36.8 1.175e+04 1.144e-09
 42.73369     37.6 1.141e+04 1.003e-09
 42.77292     38.6 1.089e+04 7.179e-10
 42.79446     39.8 1.074e+04 6.940e-10
 42.80979     41.1 1.025e+04 4.445e-10
 42.83133     40.5 9.892e+03 2.795e-10
 42.86255     41.6 9.435e+03 1.441e-10
 42.88409     42.8 9.473e+03 1.430e-10
 42.90599     43.4 8.973e+03 8.079e-11
 42.94907     44.1 8.529e+03 7.234e-11
 42.97372     45.4 8.482e+03 7.198e-11
 42.99526     46.2 8.519e+03 7.339e-11
 43.03522     47.2 8.532e+03 8.065e-11
 43.06336     47.9 8.589e+03 1.133e-10
 43.08490     48.1 8.782e+03 1.518e-10
 43.12137     49.0 8.991e+03 2.351e-10
 43.15299     50.0 9.277e+03 3.454e-10
 43.17453     50.0 9.400e+03 3.812e-10
 43.20752     50.7 9.472e+03 4.094e-10
 43.24262     51.3 9.437e+03 3.997e-10
 43.26416     50.9 9.342e+03 3.642e-10
 43.29367     51.5 9.166e+03 3.206e-10
 43.33226     52.3 8.963e+03 2.696e-10
 43.35380     51.9 8.916e+03 2.648e-10
 43.37983     53.1 8.755e+03 2.290e-10
 43.42189     54.5 8.612e+03 1.838e-10
 43.44343     54.4 8.676e+03 2.146e-10
 43.46598     55.9 8.538e+03 1.716e-10
 43.50905     57.3 8.411e+03 1.396e-10
 43.53306     59.0 8.380e+03 1.310e-10
 43.55460     59.0 8.469e+03 1.703e-10
 43.59520     60.7 8.541e+03 1.763e-10
 43.62270     62.5 8.745e+03 2.033e-10
 43.64424     62.4 9.034e+03 2.734e-10
 43.68136     64.1 9.437e+03 3.557e-10
 43.71233     65.1 9.668e+03 4.260e-10
 43.72300     64.1 9.678e+03 4.790e-10
 43.73501     64.8 9.812e+03 5.567e-10
 43.75654     65.8 1.005e+04 6.610e-10
 43.76772     66.7 1.032e+04 7.664e-10
 43.77186     66.8 1.023e+04 7.195e-10
 43.78223     66.4 1.031e+04 7.141e-10
 43.79962     66.8 1.048e+04 7.331e-10
 43.81254     67.0 1.063e+04 7.531e-10
 43.82331     66.3 1.038e+04 6.105e-10
 43.84270     66.1 1.045e+04 6.454e-10
 43.85735     65.9 1.054e+04 7.073e-10
 43.86812     65.2 1.027e+04 6.404e-10
 43.88577     65.2 1.049e+04 7.338e-10
 43.90217     65.2 1.078e+04 8.375e-10
 43.91294     64.7 1.078e+04 8.335e-10
 43.92885     64.5 1.109e+04 9.292e-10
 43.94699     64.2 1.133e+04 9.970e-10
 43.95776     63.7 1.143e+04 1.061e-09
 43.97192     63.3 1.151e+04 1.098e-09
 43.99181     62.6 1.153e+04 1.118e-09
 44.00257     62.4 1.143e+04 1.177e-09
 44.01500     61.8 1.146e+04 1.198e-09
 44.03654     60.9 1.161e+04 1.300e-09
 44.05808     60.8 1.166e+04 1.318e-09
 44.07961     60.4 1.199e+04 1.440e-09
 44.09221     60.0 1.209e+04 1.456e-09
 44.11384     60.2 1.127e+04 1.048e-09
 44.15519     60.7 1.100e+04 8.825e-10
 44.18204     61.8 1.043e+04 5.774e-10
 44.20357     64.1 9.729e+03 4.373e-10
 44.24134     65.3 9.333e+03 2.769e-10
 44.27167     66.7 8.965e+03 1.674e-10
 44.29321     69.1 8.884e+03 1.682e-10
 44.32750     70.9 8.593e+03 1.122e-10
 44.36130     73.1 8.414e+03 1.050e-10
 44.38284     75.3 8.373e+03 8.583e-11
 44.41365     77.6 8.310e+03 8.482e-11
 44.45094     80.2 8.289e+03 9.142e-11
 44.47248     82.1 8.208e+03 7.420e-11
 44.49980     84.7 8.241e+03 7.972e-11
 44.54057     87.4 8.352e+03 9.529e-11
 44.56211     89.0 8.217e+03 7.931e-11
 44.58595     91.5 8.348e+03 9.259e-11
 44.62903     94.1 8.482e+03 1.093e-10
 44.65174     96.5 8.568e+03 1.255e-10
 44.67328     98.1 8.499e+03 1.202e-10
 44.71197    100.5 8.593e+03 1.375e-10
 44.73351    100.5 8.525e+03 1.107e-10
 44.74138    103.0 8.607e+03 1.263e-10
 44.76291    104.5 8.547e+03 1.210e-10
 44.80133    106.8 8.640e+03 1.369e-10
 44.83101    109.2 8.747e+03 1.535e-10
 44.85255    110.7 8.647e+03 1.440e-10
 44.88748    112.9 8.746e+03 1.592e-10
 44.92064    115.1 8.877e+03 1.733e-10
 44.94218    116.4 8.868e+03 1.543e-10
 44.97363    118.4 8.945e+03 1.667e-10
 45.01028    120.3 9.049e+03 1.751e-10
 45.03182    121.5 9.142e+03 1.667e-10
 45.05979    123.2 9.138e+03 1.717e-10
 45.09991    124.9 9.155e+03 1.751e-10
 45.12145    126.0 9.301e+03 1.878e-10
 45.14594    127.7 9.287e+03 1.882e-10
 45.18901    129.3 9.311e+03 1.928e-10
 45.21108    130.9 9.401e+03 2.102e-10
 45.23262    131.9 9.619e+03 2.383e-10
 45.27517    133.4 9.708e+03 2.516e-10
 45.30072    134.9 9.866e+03 2.561e-10
 45.32225    135.5 1.013e+04 3.116e-10
 45.36132    136.9 1.015e+04 3.044e-10
 45.39035    138.1 1.017e+04 2.912e-10
 45.41189    139.0 1.055e+04 4.228e-10
 45.44747    140.3 1.050e+04 3.880e-10
 45.47998    141.5 1.038e+04 3.318e-10
 45.50152    142.9 1.081e+04 5.167e-10
 45.53362    144.2 1.060e+04 3.985e-10
 45.56962    145.5 1.032e+04 2.723e-10
 45.59115    147.0 1.069e+04 3.768e-10
 45.61977    148.3 1.041e+04 2.408e-10
 45.65925    149.6 1.013e+04 1.403e-10
 45.68079    151.0 1.039e+04 2.034e-10
 45.68460    152.4 1.017e+04 1.240e-10
 45.70614    152.2 1.032e+04 2.274e-10
 45.74888    153.6 1.009e+04 1.454e-10
 45.79196    156.7 1.009e+04 1.501e-10
 45.83515    158.2 9.968e+03 1.122e-10
 45.86006    159.6 9.834e+03 9.125e-11
 45.88159    161.6 1.011e+04 1.523e-10
 45.92130    163.1 1.002e+04 1.294e-10
 45.94969    164.6 9.914e+03 1.123e-10
 45.97123    166.5 1.021e+04 1.696e-10
 46.00746    168.0 1.009e+04 1.373e-10
 46.03932    169.6 9.946e+03 1.124e-10
 46.06086    171.4 1.016e+04 1.440e-10
 46.09361    172.9 9.986e+03 1.121e-10
 46.12896    174.5 9.846e+03 9.986e-11
 46.15049    176.2 9.972e+03 1.072e-10
 46.17976    177.8 9.875e+03 1.004e-10
 46.21859    179.4 9.886e+03 1.009e-10
 46.24013    181.1 9.933e+03 1.048e-10
 46.26591    182.7 9.966e+03 1.071e-10
 46.30822    184.2 1.012e+04 1.179e-10
 46.32976    186.1 1.011e+04 1.240e-10
 46.35206    187.0 1.026e+04 1.403e-10
 46.39514    187.7 1.047e+04 1.739e-10
 46.41940    188.1 1.067e+04 2.283e-10
 46.44093    190.2 1.043e+04 2.034e-10
 46.48129    190.3 1.059e+04 2.511e-10
 46.50903    190.3 1.074e+04 2.967e-10
 46.53057    192.5 1.066e+04 2.966e-10
 46.56744    192.2 1.079e+04 3.397e-10
 46.59866    191.6 1.079e+04 3.407e-10
 46.62020    193.7 1.102e+04 4.113e-10
 46.63569    193.1 1.098e+04 4.083e-10
 46.65723    193.1 1.056e+04 3.133e-10
 46.68830    191.8 1.047e+04 3.014e-10
 46.70983    194.8 1.071e+04 3.701e-10
 46.73975    193.2 1.059e+04 3.491e-10
 46.77793    191.3 1.040e+04 2.962e-10
 46.79947    194.3 1.075e+04 4.002e-10
 46.82590    191.7 1.045e+04 3.014e-10
 46.86756    188.9 9.965e+03 2.092e-10
 46.88910    191.9 1.049e+04 2.943e-10
 46.91205    188.6 9.810e+03 2.120e-10
 46.95513    185.3 9.727e+03 2.118e-10
 46.97874    183.1 9.877e+03 2.434e-10
 47.00027    185.0 9.924e+03 2.590e-10
 47.02345    183.1 1.038e+04 3.424e-10
 47.03413    183.7 1.029e+04 3.338e-10
 47.05185    182.4 1.099e+04 5.094e-10
 47.06817    180.6 1.178e+04 8.296e-10
 47.07894    181.6 1.157e+04 7.500e-10
 47.09493    179.7 1.228e+04 1.111e-09
 47.11104    177.7 1.289e+04 1.490e-09
 47.11834    178.5 1.236e+04 1.159e-09
 47.12376    179.6 1.213e+04 1.044e-09
 47.13800    177.4 1.278e+04 1.304e-09
 47.15781    174.7 1.321e+04 1.365e-09
 47.16858    175.8 1.314e+04 1.354e-09
 47.18108    172.7 1.322e+04 1.348e-09
 47.20262    169.4 1.317e+04 1.293e-09
 47.22415    167.0 1.308e+04 1.289e-09
 47.24569    163.5 1.285e+04 1.236e-09
 47.25821    160.1 1.266e+04 1.193e-09
 47.26898    161.1 1.284e+04 1.295e-09
 47.28877    157.9 1.267e+04 1.237e-09
 47.30303    155.0 1.249e+04 1.161e-09
 47.31380    155.7 1.265e+04 1.226e-09
 47.33184    152.9 1.244e+04 1.119e-09
 47.34784    150.4 1.219e+04 1.008e-09
 47.35861    150.7 1.230e+04 1.030e-09
 47.37492    148.3 1.198e+04 9.106e-10
 47.39266    146.2 1.166e+04 7.917e-10
 47.40343    146.3 1.168e+04 7.903e-10
 47.41800    144.4 1.134e+04 6.794e-10
 47.43748    142.6 1.109e+04 6.002e-10
 47.44825    142.4 1.109e+04 6.148e-10
 47.46107    140.6 1.107e+04 6.134e-10
 47.48229    138.9 1.112e+04 6.353e-10
 47.49306    138.5 1.121e+04 6.697e-10
 47.50415    136.7 1.144e+04 7.923e-10
 47.52569    134.9 1.171e+04 9.809e-10
 47.53788    133.4 1.198e+04 1.196e-09
 47.54865    132.7 1.223e+04 1.339e-09
 47.56876    131.2 1.260e+04 1.624e-09
 47.58270    129.5 1.303e+04 1.902e-09
 47.58975    128.0 1.344e+04 2.270e-09
 47.59736    128.2 1.371e+04 2.669e-09
 47.61184    126.5 1.423e+04 3.277e-09
 47.62751    124.8 1.446e+04 3.442e-09
 47.63828    123.4 1.474e+04 3.818e-09
 47.65491    121.5 1.457e+04 3.474e-09
 47.67233    119.7 1.411e+04 2.812e-09
 47.68310    118.1 1.396e+04 2.550e-09
 47.69799    115.9 1.323e+04 1.774e-09
 47.71715    113.5 1.242e+04 1.218e-09
 47.72792    111.2 1.197e+04 1.053e-09
 47.74107    109.5 1.104e+04 7.394e-10
 47.76196    108.3 1.077e+04 5.684e-10
 47.77273    105.7 1.152e+04 6.584e-10
 47.78414     96.1 1.600e+04 1.133e-09
 47.79509     90.5 1.773e+04 1.823e-09
 47.80043     88.1 1.816e+04 2.420e-09
 47.81097     84.7 1.860e+04 3.887e-09
 47.81745     82.4 1.880e+04 6.275e-09
 47.82284     80.4 1.809e+04 9.572e-09
 47.82965     77.5 1.981e+04 1.602e-08
 47.83503     78.9 1.946e+04 1.420e-08
 47.83986     73.7 2.344e+04 2.818e-08
 47.84524     67.7 2.618e+04 4.467e-08
 47.85404     63.7 2.685e+04 7.619e-08
 47.86227     60.8 2.614e+04 1.062e-07
 47.86765     56.3 2.699e+04 5.966e-08
 47.87558     51.7 2.713e+04 3.715e-08
 47.88468     43.5 2.723e+04 1.827e-08
 47.89006     35.8 2.208e+04 1.045e-08
 47.89712     28.6 2.172e+04 7.290e-09
 47.90713     20.3 2.293e+04 5.561e-09
 47.91795     14.7 1.709e+04 3.131e-09
 47.93491      8.9 1.622e+04 3.349e-09
 47.95200      7.0 1.723e+04 5.324e-09
 47.96277      5.2 1.767e+04 5.122e-09
 47.97798      3.9 1.980e+04 9.500e-09
 47.99682      3.3 2.053e+04 1.733e-08
 48.00759      3.6 1.915e+04 1.190e-08
 48.02106      4.9 1.918e+04 1.645e-08
 48.04163      6.1 1.900e+04 2.096e-08
 48.05240      7.3 1.743e+04 8.314e-09
 48.06213      8.0 1.771e+04 7.680e-09
 48.07290      8.4 1.820e+04 6.351e-09
 48.08567      9.5 1.758e+04 5.037e-09
 48.09722      8.5 1.611e+04 3.232e-09
 48.10799      6.5 1.403e+04 1.131e-09
 48.12875      5.5 1.278e+04 9.011e-10
 48.16115      4.3 1.135e+04 7.283e-10
 48.18705      6.8 1.085e+04 6.909e-10
 48.20859      5.4 1.011e+04 3.042e-10
 48.24740      7.8 9.764e+03 3.000e-10
 48.27668     10.2 9.421e+03 2.467e-10
 48.29822      9.2 9.006e+03 2.412e-10
 48.33355     11.6 8.947e+03 2.116e-10
 48.36632     13.9 8.793e+03 1.789e-10
 48.38785     13.9 8.549e+03 1.749e-10
 48.41971     16.1 8.491e+03 1.613e-10
 48.45595     18.6 8.475e+03 1.521e-10
 48.47749     18.5 8.199e+03 1.221e-10
 48.50586     20.6 8.346e+03 1.194e-10
 48.53787     22.6 8.511e+03 1.263e-10
 48.55606     22.5 8.399e+03 1.070e-10
 48.56712     21.7 8.144e+03 8.764e-11
 48.59201     23.5 8.360e+03 9.864e-11
 48.63509     24.9 8.737e+03 1.311e-10
 48.67816     25.7 8.972e+03 2.006e-10
 48.72124     28.0 9.338e+03 2.813e-10
 48.74639     30.4 9.645e+03 3.258e-10
 48.76793     29.6 9.067e+03 1.968e-10
 48.80739     31.4 9.060e+03 1.601e-10
 48.83602     32.6 8.938e+03 1.304e-10
 48.85756     31.8 8.701e+03 9.600e-11
 48.89354     33.3 8.725e+03 1.001e-10
 48.92565     35.2 8.947e+03 1.299e-10
 48.94719     34.8 8.869e+03 1.342e-10
 48.97969     37.1 9.363e+03 2.074e-10
 49.01190     38.0 9.548e+03 2.610e-10
 49.02399     38.8 9.806e+03 3.322e-10
 49.02728     39.1 9.760e+03 2.988e-10
 49.03663     38.8 9.719e+03 3.043e-10
 49.05488     38.7 1.013e+04 4.167e-10
 49.07068     37.7 1.125e+04 7.351e-10
 49.08145     35.7 1.233e+04 9.615e-10
 49.09796     32.8 1.455e+04 2.380e-09
 49.11550     31.4 1.630e+04 5.285e-09
 49.12626     29.0 1.743e+04 8.475e-09
 49.14103     29.7 1.813e+04 1.287e-08
 49.16031     29.5 1.838e+04 1.331e-08
 49.17108     28.6 1.879e+04 1.889e-08
 49.18411     27.5 1.879e+04 1.590e-08
 49.20513     25.3 1.853e+04 1.035e-08
 49.21590     22.8 1.989e+04 1.475e-08
 49.22718     19.7 1.873e+04 9.024e-09
 49.24872     17.4 1.668e+04 4.647e-09
 49.26072     15.7 1.424e+04 2.231e-09
 49.27148     16.3 1.678e+04 4.920e-09
 49.29180     15.5 1.470e+04 1.978e-09
 49.30553     13.0 1.213e+04 8.752e-10
 49.31630     13.4 1.471e+04 1.524e-09
 49.33487      9.4 1.123e+04 6.838e-10
 49.35035      8.6 1.069e+04 6.410e-10
 49.36112      7.0 1.165e+04 8.745e-10
 49.37795      6.9 1.141e+04 8.899e-10
 49.39517      7.4 1.136e+04 9.402e-10
 49.40593      6.4 1.231e+04 1.269e-09
 49.42103      6.7 1.231e+04 1.341e-09
 49.43998      6.3 1.249e+04 1.606e-09
 49.45075      5.5 1.328e+04 1.910e-09
 49.46410      5.1 1.319e+04 2.091e-09
 49.48480      5.0 1.319e+04 2.471e-09
 49.49557      4.2 1.381e+04 2.757e-09
 49.49954      4.2 1.357e+04 2.758e-09
 49.51031      4.1 1.357e+04 2.522e-09
 49.52872      4.5 1.318e+04 2.322e-09
 49.54039      4.7 1.271e+04 2.028e-09
 49.55115      4.2 1.327e+04 2.462e-09
 49.57179      4.4 1.276e+04 2.080e-09
 49.58520      4.5 1.219e+04 1.715e-09
 49.59597      4.2 1.270e+04 2.195e-09
 49.61487      4.4 1.218e+04 1.819e-09
 49.63002      4.8 1.171e+04 1.516e-09
 49.64079      5.0 1.213e+04 1.871e-09
 49.66416      5.8 1.138e+04 1.345e-09
 49.68580      6.7 1.218e+04 1.780e-09
 49.71198      8.3 1.122e+04 1.160e-09
 49.75390      9.9 1.037e+04 7.249e-10
 49.77543      9.7 1.110e+04 9.041e-10
 49.79813     10.8 1.018e+04 5.314e-10
 49.84121     11.8 9.345e+03 3.544e-10
 49.86507     13.4 9.153e+03 3.372e-10
 49.88660     11.7 1.102e+04 7.423e-10
 49.92736     13.1 1.075e+04 7.396e-10
 49.95470     14.5 1.072e+04 8.396e-10
 49.97624     13.6 1.182e+04 1.595e-09
 50.01351     15.3 1.159e+04 1.540e-09
 50.04433     17.2 1.132e+04 1.489e-09
 50.06587     17.5 1.146e+04 1.311e-09
 50.09967     19.6 1.077e+04 8.805e-10
 50.13397     21.4 1.015e+04 5.281e-10
 50.15551     18.7 9.645e+03 2.751e-10
 50.18582     19.3 9.028e+03 2.000e-10
 50.22360     20.7 8.659e+03 1.832e-10
 50.24514     20.7 8.605e+03 1.992e-10
 50.27197     23.0 8.567e+03 2.015e-10
 50.31324     25.3 8.540e+03 1.997e-10
 50.33477     25.8 8.354e+03 1.574e-10
 50.35812     28.3 8.234e+03 1.307e-10
 50.40120     30.5 8.112e+03 1.030e-10
 50.42441     32.6 7.999e+03 7.919e-11
 50.44173     32.3 7.932e+03 6.480e-11
 50.46159     31.5 8.000e+03 5.322e-11
 50.48735     33.4 7.996e+03 4.603e-11
 50.51404     35.4 7.918e+03 4.452e-11
 50.53558     35.6 7.984e+03 5.075e-11
 50.57350     37.7 7.985e+03 5.103e-11
 50.60367     40.0 7.987e+03 5.156e-11
 50.62521     40.2 8.022e+03 5.867e-11
 50.65965     42.5 7.995e+03 5.788e-11
 50.69331     44.9 7.958e+03 5.568e-11
 50.71485     45.2 7.951e+03 6.010e-11
 50.74580     47.7 7.925e+03 5.540e-11
 50.78294     50.1 7.922e+03 4.989e-11
 50.80448     50.2 8.076e+03 5.314e-11
 50.83196     52.4 8.156e+03 4.837e-11
 50.87257     54.6 8.197e+03 4.799e-11
 50.89411     54.4 8.358e+03 6.667e-11
 50.91811     56.7 8.365e+03 7.492e-11
 50.96118     59.0 8.394e+03 8.682e-11
 50.98375     61.5 8.460e+03 1.025e-10
 51.00528     62.1 8.667e+03 1.519e-10
 51.04734     64.7 8.809e+03 1.659e-10
 51.07338     67.2 8.964e+03 1.768e-10
 51.09492     67.4 9.105e+03 1.815e-10
 51.13349     69.6 9.235e+03 1.803e-10
 51.16301     71.8 9.330e+03 1.810e-10
 51.18455     71.2 9.381e+03 1.331e-10
 51.21964     73.2 9.454e+03 1.394e-10
 51.25265     75.3 9.614e+03 1.602e-10
 51.27419     74.2 9.480e+03 1.350e-10
 51.30579     76.5 9.754e+03 1.734e-10
 51.34228     79.0 1.015e+04 2.286e-10
 51.36382     77.8 1.009e+04 2.003e-10
 51.39115     79.8 1.049e+04 2.560e-10
 51.41259     77.4 1.105e+04 3.230e-10
 51.42405     77.9 1.140e+04 4.003e-10
 51.44249     78.2 1.172e+04 5.210e-10
 51.45326     77.0 1.160e+04 6.614e-10
 51.46713     77.6 1.171e+04 8.537e-10
 51.48730     78.5 1.186e+04 1.070e-09
 51.49807     78.2 1.180e+04 1.161e-09
 51.51021     79.4 1.193e+04 1.331e-09
 51.53174     80.6 1.231e+04 1.326e-09
 51.54289     81.6 1.235e+04 1.289e-09
 51.55366     81.0 1.201e+04 9.453e-10
 51.57482     81.3 1.194e+04 7.912e-10
 51.58771     81.3 1.175e+04 6.420e-10
 51.59848     79.9 1.112e+04 4.288e-10
 51.61790     79.7 1.083e+04 3.794e-10
 51.63252     79.6 1.066e+04 3.751e-10
 51.64329     79.1 1.050e+04 3.167e-10
 51.66097     79.5 1.054e+04 3.308e-10
 51.67734     79.9 1.066e+04 3.695e-10
 51.68811     79.4 1.064e+04 3.598e-10
 51.70405     79.8 1.081e+04 4.325e-10
 51.72216     80.2 1.102e+04 5.383e-10
 51.73293     79.9 1.109e+04 5.986e-10
 51.74712     80.3 1.147e+04 7.852e-10
 51.76697     80.7 1.196e+04 1.042e-09
 51.77774     80.3 1.235e+04 1.268e-09
 51.79020     80.5 1.305e+04 1.738e-09
 51.81174     80.6 1.372e+04 2.317e-09
 51.83328     80.0 1.486e+04 3.764e-09
 51.85481     79.9 1.522e+04 4.281e-09
 51.86738     79.7 1.540e+04 4.378e-09
 51.87815     78.9 1.558e+04 5.201e-09
 51.88803     78.7 1.550e+04 4.982e-09
 51.89880     78.5 1.546e+04 5.251e-09
 51.91219     78.4 1.515e+04 4.384e-09
 51.92296     77.8 1.530e+04 4.800e-09
 51.94097     77.4 1.499e+04 3.600e-09
 51.95701     76.6 1.478e+04 2.594e-09
 51.96778     74.5 1.589e+04 2.959e-09
 51.98404     72.2 1.610e+04 2.562e-09
 52.00183     70.0 1.610e+04 2.588e-09
 52.01260     67.1 1.612e+04 3.554e-09
 52.02712     65.8 1.587e+04 3.632e-09
 52.04664     65.2 1.558e+04 3.884e-09
 52.05741     64.2 1.507e+04 4.143e-09
 52.07019     64.4 1.469e+04 4.275e-09
 52.09146     64.8 1.453e+04 4.161e-09
 52.10223     64.4 1.395e+04 2.689e-09
 52.11327     64.4 1.359e+04 2.103e-09
 52.13481     63.8 1.310e+04 1.545e-09
 52.14705     63.0 1.275e+04 1.106e-09
 52.15782     59.6 1.139e+04 5.622e-10
 52.17788     58.6 1.109e+04 4.734e-10
 52.19186     57.7 1.106e+04 4.615e-10
 52.20263     56.0 1.063e+04 4.192e-10
 52.22096     55.6 1.069e+04 4.315e-10
 52.23668     55.4 1.081e+04 4.813e-10
 52.24745     54.9 1.071e+04 5.380e-10
 52.26403     54.9 1.080e+04 6.140e-10
 52.28150     55.2 1.089e+04 6.886e-10
 52.29227     55.1 1.101e+04 7.323e-10
 52.30711     55.3 1.100e+04 7.317e-10
 52.32631     55.5 1.095e+04 7.141e-10
 52.33708     55.3 1.097e+04 7.011e-10
 52.35019     55.4 1.080e+04 6.374e-10
 52.36358     55.5 1.059e+04 5.556e-10
 52.37376     55.6 1.066e+04 5.786e-10
 52.38190     55.4 1.065e+04 5.624e-10
 52.39326     55.3 1.050e+04 5.120e-10
 52.42567     55.6 1.029e+04 4.520e-10
 52.46096     56.5 9.845e+03 3.396e-10
 52.48250     56.1 1.002e+04 3.605e-10
 52.51192     56.4 9.742e+03 2.864e-10
 52.55059     56.9 9.604e+03 2.616e-10
 52.57213     56.0 1.023e+04 3.680e-10
 52.59807     57.0 1.009e+04 3.362e-10
 52.64023     58.2 1.013e+04 3.513e-10
 52.66167     57.4 1.037e+04 4.382e-10
 52.68412     58.7 1.050e+04 5.000e-10
 52.72730     60.8 1.059e+04 5.997e-10
 52.75140     62.0 1.100e+04 7.792e-10
 52.77294     62.7 1.173e+04 1.025e-09
 52.79612     62.4 1.185e+04 1.160e-09
 52.80679     62.5 1.222e+04 1.382e-09
 52.82402     62.4 1.249e+04 1.628e-09
 52.83913     62.3 1.253e+04 1.742e-09
 52.84517     63.1 1.268e+04 1.723e-09
 52.85161     62.5 1.448e+04 2.617e-09
 52.86710     61.5 1.573e+04 3.646e-09
 52.88565     60.5 1.670e+04 4.521e-09
 52.89642     59.4 1.932e+04 9.856e-09
 52.91017     58.3 1.983e+04 1.119e-08
 52.93047     56.6 1.985e+04 1.079e-08
 52.94119     55.4 2.082e+04 1.705e-08
 52.94777     54.4 2.049e+04 1.551e-08
 52.95817     53.2 1.994e+04 1.301e-08
 52.96355     53.1 2.096e+04 2.109e-08
 52.96931     51.7 2.025e+04 1.693e-08
 52.98007     50.4 1.956e+04 1.371e-08
 52.98601     48.6 1.861e+04 9.777e-09
 52.99139     48.5 1.987e+04 1.572e-08
 53.00161     46.7 1.940e+04 1.250e-08
 53.00837     45.3 1.945e+04 1.090e-08
 53.01375     44.0 2.154e+04 1.591e-08
 53.02315     42.9 2.148e+04 1.354e-08
 53.03082     42.9 2.120e+04 1.053e-08
 53.03621     41.5 2.333e+04 1.699e-08
 53.04469     41.1 2.298e+04 1.433e-08
 53.06089     39.7 2.348e+04 1.420e-08
 53.07569     38.6 2.263e+04 1.232e-08
 53.08646     35.8 2.318e+04 1.444e-08
 53.10402     34.2 2.195e+04 1.407e-08
 53.12051     33.0 2.155e+04 1.438e-08
 53.13128     31.3 2.011e+04 1.205e-08
 53.14166     31.1 1.981e+04 1.166e-08
 53.14820     30.8 1.914e+04 1.105e-08
 53.15359     30.2 1.839e+04 9.088e-09
 53.16315     30.3 1.833e+04 9.221e-09
 53.17061     30.4 1.834e+04 9.433e-09
 53.17600     29.4 1.717e+04 5.998e-09
 53.18468     29.5 1.713e+04 5.894e-09
 53.19302     29.6 1.712e+04 5.829e-09
 53.19840     28.7 1.600e+04 4.022e-09
 53.20622     29.0 1.603e+04 3.999e-09
 53.21543     29.2 1.613e+04 4.049e-09
 53.22086     28.4 1.507e+04 3.077e-09
 53.23324     28.9 1.458e+04 2.753e-09
 53.25478     29.2 1.376e+04 2.273e-09
 53.26573     29.1 1.284e+04 1.810e-09
 53.27650     27.5 1.148e+04 1.280e-09
 53.29786     28.1 1.141e+04 1.257e-09
 53.31054     28.9 1.142e+04 1.259e-09
 53.31659     28.7 1.133e+04 1.227e-09
 53.32544     28.6 1.120e+04 1.171e-09
 53.34093     29.3 1.130e+04 1.224e-09
 53.35536     30.0 1.141e+04 1.280e-09
 53.36613     29.9 1.142e+04 1.291e-09
 53.38401     30.5 1.151e+04 1.346e-09
 53.40018     31.1 1.158e+04 1.383e-09
 53.41095     30.9 1.149e+04 1.362e-09
 53.42708     31.3 1.152e+04 1.376e-09
 53.44499     31.7 1.152e+04 1.373e-09
 53.45576     31.3 1.127e+04 1.230e-09
 53.47016     31.4 1.134e+04 1.244e-09
 53.48981     31.2 1.144e+04 1.273e-09
 53.50058     30.5 1.128e+04 1.180e-09
 53.51324     30.0 1.144e+04 1.253e-09
 53.53463     29.4 1.156e+04 1.314e-09
 53.54540     28.6 1.155e+04 1.320e-09
 53.55631     27.8 1.169e+04 1.404e-09
 53.57785     26.5 1.210e+04 1.587e-09
 53.59021     24.2 1.329e+04 2.049e-09
 53.60098     24.5 1.279e+04 1.884e-09
 53.62093     22.1 1.398e+04 2.500e-09
 53.63503     19.9 1.504e+04 3.498e-09
 53.64580     20.6 1.428e+04 2.887e-09
 53.66400     18.8 1.511e+04 3.925e-09
 53.67985     17.4 1.561e+04 4.818e-09
 53.69062     17.9 1.504e+04 4.060e-09
 53.70708     16.8 1.525e+04 4.372e-09
 53.72466     15.7 1.530e+04 4.153e-09
 53.73543     16.6 1.495e+04 3.853e-09
 53.75015     15.4 1.489e+04 3.381e-09
 53.76948     13.8 1.463e+04 2.779e-09
 53.78025     15.0 1.463e+04 2.896e-09
 53.79022     13.4 1.433e+04 2.299e-09
 53.80098     15.8 1.463e+04 2.933e-09
 53.81430     14.3 1.445e+04 2.483e-09
 53.82507     15.4 1.490e+04 2.857e-09
 53.83631     14.0 1.448e+04 2.257e-09
 53.85784     12.5 1.377e+04 1.737e-09
 53.86988     11.1 1.282e+04 1.360e-09
 53.88065     12.1 1.338e+04 1.451e-09
 53.90092     10.9 1.204e+04 1.071e-09
 53.91470     10.3 1.095e+04 7.972e-10
 53.92547     10.9 1.107e+04 7.622e-10
 53.94400     10.4 1.025e+04 5.253e-10
 53.95952      9.9 1.004e+04 3.596e-10
 53.98115     10.1 1.014e+04 3.170e-10
 54.01957     10.5 9.521e+03 1.828e-10
 54.04935     11.2 9.072e+03 1.150e-10
 54.07088     11.9 9.116e+03 1.080e-10
 54.10573     12.7 8.893e+03 9.660e-11
 54.13898     14.2 8.877e+03 9.956e-11
 54.16052     14.3 8.914e+03 9.868e-11
 54.19188     15.6 8.964e+03 1.180e-10
 54.22861     17.0 9.204e+03 1.783e-10
 54.25015     16.6 9.311e+03 1.886e-10
 54.26596     18.5 9.875e+03 3.354e-10
 54.28749     19.2 9.480e+03 2.158e-10
 54.31825     20.7 9.915e+03 3.308e-10
 54.33969     19.7 1.001e+04 3.923e-10
 54.35322     20.2 1.008e+04 4.819e-10
 54.37364     21.0 1.010e+04 5.573e-10
 54.38441     20.4 1.004e+04 5.218e-10
 54.39629     21.2 1.007e+04 5.344e-10
 54.41783     21.8 1.010e+04 5.342e-10
 54.42922     22.3 1.012e+04 5.267e-10
 54.43999     21.2 1.013e+04 5.197e-10
 54.46091     21.5 1.017e+04 5.157e-10
 54.47404     21.7 1.022e+04 5.231e-10
 54.48481     20.5 1.033e+04 5.676e-10
 54.50398     20.7 1.036e+04 6.005e-10
 54.51886     21.1 1.037e+04 6.394e-10
 54.52963     20.2 1.037e+04 6.698e-10
 54.54706     20.7 1.037e+04 7.022e-10
 54.56367     21.3 1.041e+04 7.368e-10
 54.57444     20.7 1.036e+04 7.316e-10
 54.59013     21.2 1.040e+04 7.570e-10
 54.60849     21.7 1.051e+04 7.514e-10
 54.61926     20.8 1.042e+04 6.703e-10
 54.63321     21.1 1.055e+04 6.806e-10
 54.65331     21.3 1.067e+04 6.914e-10
 54.66408     20.4 1.050e+04 6.302e-10
 54.67629     20.7 1.054e+04 6.431e-10
 54.69782     21.2 1.056e+04 6.445e-10
 54.70889     21.7 1.058e+04 6.492e-10
 54.71966     21.3 1.032e+04 5.993e-10
 54.75177     22.4 1.056e+04 6.658e-10
 54.78407     22.8 1.060e+04 7.331e-10
 54.79853     23.2 1.066e+04 8.080e-10
 54.80930     22.8 1.060e+04 8.003e-10
 54.82705     23.4 1.079e+04 9.043e-10
 54.84334     24.2 1.097e+04 1.026e-09
 54.85411     23.9 1.105e+04 1.087e-09
 54.87013     25.0 1.137e+04 1.281e-09
 54.88816     26.1 1.176e+04 1.526e-09
 54.89893     25.9 1.210e+04 1.673e-09
 54.91320     26.8 1.255e+04 2.000e-09
 54.93298     27.7 1.299e+04 2.360e-09
 54.94375     27.1 1.330e+04 2.604e-09
 54.95628     27.9 1.373e+04 3.050e-09
 54.97779     28.6 1.413e+04 3.506e-09
 54.99933     28.6 1.457e+04 3.969e-09
 55.02089     29.1 1.500e+04 4.340e-09
 55.03338     29.3 1.554e+04 4.791e-09
 55.04415     28.4 1.525e+04 4.080e-09
 55.06397     28.3 1.577e+04 4.490e-09
 55.07820     28.0 1.625e+04 5.023e-09
 55.08896     26.7 1.511e+04 3.730e-09
 55.10704     26.4 1.512e+04 3.964e-09
 55.12301     26.2 1.505e+04 3.978e-09
 55.13378     24.9 1.388e+04 3.109e-09
 55.15012     24.6 1.376e+04 3.041e-09
 55.16783     24.1 1.357e+04 2.798e-09
 55.17860     23.0 1.339e+04 2.648e-09
 55.19320     22.5 1.324e+04 2.397e-09
 55.21265     21.8 1.305e+04 2.174e-09
 55.22342     21.4 1.304e+04 2.207e-09
 55.22762     20.7 1.292e+04 2.200e-09
 55.23839     20.5 1.285e+04 2.140e-09
 55.25746     19.8 1.286e+04 2.153e-09
 55.26823     19.7 1.294e+04 2.237e-09
 55.27935     19.3 1.292e+04 2.224e-09
 55.30089     19.1 1.288e+04 2.204e-09
 55.31305     18.9 1.282e+04 2.144e-09
 55.32382     18.8 1.273e+04 1.969e-09
 55.34396     18.4 1.250e+04 1.797e-09
 55.35787     18.0 1.225e+04 1.616e-09
 55.36863     17.6 1.213e+04 1.507e-09
 55.38704     16.9 1.208e+04 1.447e-09
 55.40268     16.0 1.213e+04 1.465e-09
 55.41345     15.7 1.212e+04 1.461e-09
 55.43011     14.1 1.242e+04 1.588e-09
 55.44750     12.1 1.302e+04 2.010e-09
 55.45827     11.9 1.311e+04 2.086e-09
 55.47319     10.4 1.371e+04 2.837e-09
 55.49232      9.6 1.401e+04 3.378e-09
 55.50309      9.6 1.401e+04 3.410e-09
 55.51627      9.0 1.396e+04 3.361e-09
 55.53713      8.8 1.357e+04 2.950e-09
 55.54790      9.1 1.350e+04 2.913e-09
 55.55934      8.7 1.270e+04 1.843e-09
 55.58088      7.7 1.196e+04 1.228e-09
 55.61328      6.5 1.101e+04 7.586e-10
 55.63773      5.2 9.810e+03 4.689e-10
 55.65927      5.6 1.027e+04 6.019e-10
 55.69953      5.7 9.936e+03 5.133e-10
 55.72736      6.4 9.810e+03 4.705e-10
 55.73804      6.2 1.005e+04 5.331e-10
 55.75318      6.2 9.939e+03 4.979e-10
 55.77199      6.5 9.756e+03 4.462e-10
 55.78275      6.5 9.758e+03 4.471e-10
 55.79626      6.4 9.704e+03 4.256e-10
 55.81690      7.1 9.593e+03 3.914e-10
 55.83854      6.8 9.620e+03 3.935e-10
 55.87184      7.4 9.499e+03 3.564e-10
 55.90663      8.1 9.365e+03 3.127e-10
 55.92817      7.9 9.233e+03 2.779e-10
 55.95799      8.4 8.973e+03 2.174e-10
 55.99627      8.6 8.715e+03 1.721e-10
 56.01780      8.4 8.552e+03 1.498e-10
 56.04414      8.8 8.384e+03 1.324e-10
 56.08590      9.3 8.315e+03 1.265e-10
 56.10744      9.4 8.236e+03 1.103e-10
 56.13029     10.2 8.244e+03 1.079e-10
 56.16814     11.0 8.265e+03 1.085e-10
 56.18968     11.7 8.066e+03 8.242e-11
 56.19707     12.6 8.100e+03 8.368e-11
 56.21861     12.8 8.117e+03 7.934e-11
 56.25952     13.4 8.219e+03 8.906e-11
 56.28670     13.6 8.486e+03 1.118e-10
 56.30824     13.8 8.591e+03 1.198e-10
 56.34567     13.5 8.987e+03 1.731e-10
 56.37634     13.2 9.404e+03 2.445e-10
 56.39788     13.7 9.493e+03 2.560e-10
 56.43182     13.1 9.905e+03 3.252e-10
 56.46597     11.8 1.024e+04 3.724e-10
 56.48751     12.0 1.036e+04 4.100e-10
 56.51798     10.1 1.046e+04 4.773e-10
 56.55561      8.5 1.038e+04 5.025e-10
 56.57714      8.9 1.073e+04 6.171e-10
 56.60413      7.8 1.043e+04 5.567e-10
 56.64524      7.2 1.001e+04 4.460e-10
 56.66678      7.8 9.966e+03 4.369e-10
 56.69028      7.3 9.443e+03 3.041e-10
 56.73336      6.9 9.223e+03 2.430e-10
 56.75641      6.7 9.250e+03 2.424e-10
 56.77795      7.1 9.120e+03 2.137e-10
 56.81951      6.7 9.297e+03 2.342e-10
 56.84604      6.1 9.690e+03 3.021e-10
 56.86758      6.0 9.725e+03 3.026e-10
 56.89076      5.2 1.001e+04 3.727e-10
 56.90143      5.1 1.010e+04 3.915e-10
 56.91623      4.3 1.034e+04 4.883e-10
 56.93548      3.8 1.053e+04 5.903e-10
 56.94625      3.8 1.060e+04 6.210e-10
 56.95931      3.3 1.080e+04 7.170e-10
 56.99171      2.6 1.103e+04 7.840e-10
 57.02531      1.4 1.137e+04 9.459e-10
 57.04685      1.2 1.141e+04 9.472e-10
 57.07796     -0.3 1.171e+04 1.068e-09
 57.11494     -2.3 1.209e+04 1.245e-09
 57.13467     -2.7 1.183e+04 1.096e-09
 57.14067     -3.3 1.157e+04 1.031e-09
 57.15315     -3.9 1.159e+04 1.059e-09
 57.17034     -4.6 1.154e+04 1.045e-09
 57.18110     -4.6 1.133e+04 9.302e-10
 57.19623     -4.9 1.115e+04 8.573e-10
 57.21515     -5.2 1.094e+04 7.705e-10
 57.22592     -5.0 1.072e+04 6.701e-10
 57.23930     -5.0 1.043e+04 5.437e-10
 57.25997     -5.0 1.027e+04 4.818e-10
 57.27074     -4.7 1.013e+04 4.315e-10
 57.29324     -4.4 9.801e+03 3.315e-10
 57.31575     -3.8 9.296e+03 2.063e-10
 57.33729     -2.9 8.975e+03 1.490e-10
 57.37949     -2.0 8.737e+03 1.061e-10
 57.40538     -0.7 8.610e+03 8.198e-11
 57.42692      0.6 8.523e+03 7.142e-11
 57.46565      2.2 8.452e+03 6.125e-11
 57.49502      3.8 8.357e+03 5.841e-11
 57.51656      5.4 8.354e+03 5.659e-11
 57.55180      7.3 8.357e+03 5.728e-11
 57.58465      9.2 8.356e+03 6.068e-11
 57.60619     10.8 8.366e+03 6.059e-11
 57.63795     12.7 8.369e+03 6.788e-11
 57.67428     14.8 8.370e+03 7.729e-11
 57.69582     16.4 8.412e+03 7.781e-11
 57.72410     18.5 8.402e+03 8.367e-11
 57.76392     20.7 8.390e+03 8.369e-11
 57.78546     22.3 8.476e+03 8.551e-11
 57.81025     24.4 8.411e+03 8.156e-11
 57.85333     26.5 8.359e+03 7.546e-11
 57.87509     28.5 8.310e+03 7.049e-11
 57.89663     29.9 8.385e+03 7.189e-11
 57.93948     31.9 8.329e+03 6.950e-11
 57.96472     34.0 8.320e+03 6.935e-11
 57.98626     35.3 8.366e+03 7.018e-11
 58.02563     37.4 8.349e+03 7.026e-11
 58.05436     39.7 8.336e+03 7.289e-11
 58.07589     40.7 8.396e+03 7.371e-11
 58.09186     43.1 8.404e+03 7.872e-11
 58.11340     43.1 8.504e+03 9.341e-11
 58.14399     45.4 8.526e+03 9.834e-11
 58.16553     46.1 8.624e+03 1.005e-10
 58.19794     48.6 8.650e+03 1.064e-10
 58.23362     51.1 8.694e+03 1.121e-10
 58.25516     51.6 8.987e+03 1.366e-10
 58.28409     54.2 8.973e+03 1.390e-10
 58.32326     56.8 8.980e+03 1.404e-10
 58.34480     57.3 9.234e+03 1.858e-10
 58.37024     60.0 9.221e+03 1.843e-10
 58.41289     62.7 9.208e+03 1.822e-10
 58.43443     63.2 9.441e+03 2.340e-10
 58.45639     66.0 9.432e+03 2.312e-10
 58.49947     68.7 9.422e+03 2.265e-10
 58.52406     71.5 9.408e+03 2.198e-10
 58.54560     72.1 9.769e+03 2.994e-10
 58.58562     74.9 9.881e+03 3.118e-10
 58.61370     77.6 1.004e+04 3.272e-10
 58.63523     78.0 1.062e+04 4.923e-10
 58.67177     80.3 1.099e+04 5.753e-10
 58.70323     80.7 1.144e+04 7.570e-10
 58.71390     80.1 1.193e+04 1.105e-09
 58.72542     80.8 1.235e+04 1.401e-09
 58.74696     81.5 1.282e+04 1.768e-09
 58.75872     82.2 1.337e+04 2.248e-09
 58.76949     81.9 1.373e+04 2.545e-09
 58.79003     82.3 1.447e+04 3.175e-09
 58.80354     82.1 1.550e+04 4.161e-09
 58.81431     80.9 1.563e+04 4.182e-09
 58.83311     80.2 1.638e+04 4.863e-09
 58.84831     78.5 1.691e+04 5.054e-09
 58.85364     76.9 1.687e+04 4.548e-09
 58.85993     75.7 1.722e+04 4.814e-09
 58.87066     74.2 1.761e+04 5.160e-09
 58.88143     70.3 1.746e+04 4.973e-09
 58.89224     68.3 1.762e+04 5.350e-09
 58.89846     66.1 1.784e+04 5.870e-09
 58.90384     64.0 1.700e+04 5.155e-09
 58.91378     61.6 1.712e+04 5.635e-09
 58.92087     58.8 1.739e+04 6.384e-09
 58.92625     57.4 1.680e+04 5.749e-09
 58.93532     54.3 1.721e+04 6.626e-09
 58.94327     51.5 1.745e+04 7.493e-09
 58.94866     51.2 1.697e+04 6.634e-09
 58.96229     48.1 1.718e+04 6.972e-09
 58.98280     43.7 1.720e+04 6.889e-09
 58.99357     43.1 1.605e+04 4.837e-09
 59.00541     38.7 1.562e+04 4.262e-09
 59.02695     34.8 1.481e+04 3.317e-09
 59.03839     31.3 1.386e+04 2.293e-09
 59.04342     32.0 1.319e+04 1.906e-09
 59.05352     31.9 1.352e+04 2.055e-09
 59.07003     28.3 1.274e+04 1.364e-09
 59.08321     24.5 1.185e+04 9.815e-10
 59.09398     25.8 1.161e+04 8.811e-10
 59.11310     22.6 1.095e+04 7.995e-10
 59.12802     20.7 1.086e+04 8.054e-10
 59.13879     21.9 1.053e+04 6.860e-10
 59.15618     20.7 1.053e+04 7.043e-10
 59.17284     19.8 1.065e+04 7.660e-10
 59.18361     21.0 1.019e+04 6.019e-10
 59.19926     20.3 1.037e+04 6.529e-10
 59.21766     19.4 1.067e+04 7.280e-10
 59.22843     20.8 1.011e+04 5.381e-10
 59.24233     19.8 1.044e+04 6.089e-10
 59.26247     18.5 1.087e+04 7.234e-10
 59.27324     19.9 1.030e+04 5.307e-10
 59.28541     18.4 1.081e+04 6.717e-10
 59.30694     17.0 1.132e+04 8.796e-10
 59.31806     15.9 1.175e+04 1.127e-09
 59.32883     16.9 1.147e+04 9.482e-10
 59.35002     15.9 1.196e+04 1.254e-09
 59.36288     15.0 1.233e+04 1.479e-09
 59.37365     15.9 1.233e+04 1.460e-09
 59.39310     14.7 1.271e+04 1.712e-09
 59.40769     12.7 1.318e+04 1.963e-09
 59.41846     12.8 1.364e+04 2.362e-09
 59.43617      4.0 1.751e+04 4.448e-09
 59.45228     -1.6 1.956e+04 6.948e-09
 59.45780     -6.0 2.062e+04 9.520e-09
 59.46318     -8.1 2.201e+04 1.193e-08
 59.47377    -16.5 2.520e+04 2.098e-08
 59.48021    -24.8 2.651e+04 3.629e-08
 59.48559    -26.7 2.633e+04 4.148e-08
 59.49530    -33.2 2.531e+04 5.253e-08
 59.50261    -39.2 2.466e+04 4.971e-08
 59.50800    -40.5 2.394e+04 4.319e-08
 59.51684    -47.2 2.339e+04 3.492e-08
 59.52359    -53.9 2.448e+04 3.043e-08
 59.52638    -52.9 2.409e+04 2.639e-08
 59.53041    -53.3 2.366e+04 2.238e-08
 59.53838    -60.7 2.484e+04 2.150e-08
 59.54743    -68.4 2.327e+04 1.908e-08
 59.55282    -69.2 2.257e+04 1.671e-08
 59.55992    -74.4 2.083e+04 1.586e-08
 59.56984    -75.9 2.110e+04 1.861e-08
 59.57522    -75.1 2.071e+04 1.649e-08
 59.58689    -79.7 2.032e+04 2.138e-08
 59.60848    -81.0 1.958e+04 1.962e-08
 59.63001    -83.1 1.975e+04 1.225e-08
 59.64250    -86.6 1.847e+04 5.312e-09
 59.64783    -85.3 1.840e+04 5.429e-09
 59.65684    -86.0 1.832e+04 4.436e-09
 59.67304    -92.8 1.403e+04 1.925e-09
 59.68736    -95.4 1.223e+04 1.343e-09
 59.69813    -93.6 1.205e+04 1.301e-09
 59.71617    -94.0 1.168e+04 1.154e-09
 59.73218    -94.1 1.148e+04 1.040e-09
 59.74295    -92.4 1.142e+04 1.068e-09
 59.75924    -92.6 1.126e+04 9.565e-10
 59.77700    -92.8 1.109e+04 8.625e-10
 59.78777    -91.2 1.123e+04 9.528e-10
 59.80232    -91.5 1.108e+04 8.562e-10
 59.82181    -91.9 1.079e+04 7.554e-10
 59.83258    -90.3 1.110e+04 8.818e-10
 59.84539    -90.6 1.074e+04 7.537e-10
 59.86663    -90.8 1.028e+04 6.375e-10
 59.87740    -89.3 1.067e+04 7.437e-10
 59.88847    -89.4 1.015e+04 5.959e-10
 59.91001    -89.4 9.713e+03 4.916e-10
 59.92222    -89.4 9.421e+03 4.188e-10
 59.93299    -88.5 9.652e+03 4.644e-10
 59.95308    -88.7 9.452e+03 4.123e-10
 59.96703    -88.8 9.364e+03 3.794e-10
 59.97780    -88.6 9.677e+03 4.557e-10
 59.99384    -88.9 9.627e+03 4.410e-10
 60.00461    -88.2 9.387e+03 3.786e-10
 60.01185    -88.3 9.366e+03 3.735e-10
 60.02262    -88.2 9.771e+03 4.875e-10
 60.03924    -88.3 9.771e+03 4.960e-10
 60.05667    -88.3 9.827e+03 5.189e-10
 60.06744    -88.2 1.022e+04 6.739e-10
 60.08231    -87.9 1.020e+04 6.765e-10
 60.10148    -87.6 1.017e+04 6.644e-10
 60.11225    -87.4 1.036e+04 7.390e-10
 60.13625    -87.0 1.016e+04 6.544e-10
 60.16856    -86.5 1.002e+04 6.224e-10
 60.19000    -86.2 9.932e+03 5.988e-10
 60.20189    -85.6 9.857e+03 5.741e-10
 60.22352    -85.3 9.763e+03 5.353e-10
 60.24680    -84.8 9.859e+03 5.796e-10
 60.25747    -84.8 9.770e+03 5.419e-10
 60.27615    -84.7 9.871e+03 5.637e-10
 60.29152    -84.5 1.006e+04 6.238e-10
 60.30229    -84.7 9.951e+03 5.977e-10
 60.31923    -84.6 1.015e+04 6.744e-10
 60.33634    -84.5 1.040e+04 7.788e-10
 60.34711    -84.5 1.032e+04 7.508e-10
 60.36230    -84.2 1.055e+04 8.379e-10
 60.38115    -84.1 1.073e+04 9.021e-10
 60.39192    -84.1 1.063e+04 8.552e-10
 60.40538    -84.0 1.070e+04 8.727e-10
 60.42597    -84.0 1.069e+04 8.566e-10
 60.43674    -84.1 1.062e+04 8.161e-10
 60.44846    -84.0 1.045e+04 7.119e-10
 60.46939    -84.1 1.025e+04 5.969e-10
 60.48016    -83.7 1.020e+04 5.721e-10
 60.48156    -83.9 9.959e+03 4.591e-10
 60.49233    -84.0 9.883e+03 4.358e-10
 60.51307    -84.3 9.753e+03 3.774e-10
 60.52637    -84.5 9.751e+03 3.692e-10
 60.53714    -84.5 9.742e+03 3.702e-10
 60.56052    -84.9 9.784e+03 3.716e-10
 60.58215    -85.2 9.770e+03 3.675e-10
 60.61019    -85.1 9.733e+03 3.562e-10
 60.65025    -84.7 9.726e+03 3.466e-10
 60.67179    -84.7 9.469e+03 2.777e-10
 60.69634    -84.0 9.339e+03 2.299e-10
 60.73941    -83.1 9.149e+03 1.770e-10
 60.76142    -82.1 8.954e+03 1.352e-10
 60.78296    -82.4 8.844e+03 1.091e-10
 60.82557    -81.3 8.830e+03 9.904e-11
 60.85106    -80.4 8.876e+03 9.823e-11
 60.87259    -81.0 8.956e+03 9.747e-11
 60.91172    -80.8 9.357e+03 1.241e-10
 60.94069    -80.4 9.670e+03 2.027e-10
 60.95256    -80.9 9.981e+03 2.841e-10
 60.96667    -81.2 9.906e+03 2.645e-10
 60.99787    -80.4 1.032e+04 4.011e-10
 61.03032    -80.1 1.074e+04 5.574e-10
 61.05186    -81.2 1.117e+04 7.374e-10
 61.08402    -81.4 1.158e+04 9.916e-10
 61.11996    -81.5 1.189e+04 1.227e-09
 61.14149    -82.6 1.233e+04 1.598e-09
 61.17017    -82.9 1.244e+04 1.693e-09
 61.20238    -83.6 1.231e+04 1.609e-09
 61.22016    -83.7 1.225e+04 1.595e-09
 61.23103    -84.5 1.219e+04 1.577e-09
 61.24546    -84.4 1.186e+04 1.424e-09
 61.26498    -84.2 1.165e+04 1.341e-09
 61.27575    -84.5 1.130e+04 1.135e-09
 61.28844    -84.3 1.107e+04 1.028e-09
 61.30980    -84.0 1.092e+04 9.591e-10
 61.32057    -84.3 1.052e+04 7.743e-10
 61.33151    -83.9 1.037e+04 7.251e-10
 61.35305    -83.3 1.019e+04 6.697e-10
 61.36538    -82.7 9.993e+03 5.935e-10
 61.37615    -82.8 9.718e+03 4.845e-10
 61.39613    -82.4 9.631e+03 4.498e-10
 61.41030    -81.9 9.639e+03 4.185e-10
 61.43193    -82.0 9.428e+03 3.628e-10
 61.47170    -81.1 9.309e+03 3.132e-10
 61.50003    -80.4 9.143e+03 2.597e-10
 61.52157    -80.8 9.312e+03 3.046e-10
 61.55786    -80.5 9.399e+03 3.136e-10
 61.58966    -80.2 9.505e+03 3.298e-10
 61.61120    -80.9 9.947e+03 4.678e-10
 61.64401    -80.6 9.891e+03 4.512e-10
 61.67930    -80.1 9.839e+03 4.419e-10
 61.70083    -80.9 9.967e+03 4.800e-10
 61.73016    -80.2 9.758e+03 4.144e-10
 61.76893    -79.3 9.575e+03 3.475e-10
 61.79047    -80.3 9.548e+03 3.232e-10
 61.81631    -79.3 9.349e+03 2.521e-10
 61.85856    -78.4 9.190e+03 2.039e-10
 61.88010    -79.2 9.148e+03 1.872e-10
 61.89622    -78.0 9.021e+03 1.597e-10
 61.91776    -77.7 8.941e+03 1.545e-10
 61.94554    -76.1 8.936e+03 1.460e-10
 61.96973    -74.5 8.927e+03 1.375e-10
 61.99127    -74.7 8.850e+03 1.191e-10
 62.03169    -73.1 8.865e+03 1.111e-10
 62.05937    -71.5 8.908e+03 1.054e-10
 62.08091    -71.5 8.881e+03 9.728e-11
 62.11784    -69.8 8.991e+03 9.656e-11
 62.14900    -68.3 9.046e+03 1.017e-10
 62.17054    -68.0 9.061e+03 1.015e-10
 62.20399    -66.5 9.127e+03 1.169e-10
 62.23864    -64.9 9.201e+03 1.432e-10
 62.26017    -64.3 9.255e+03 1.495e-10
 62.29015    -62.5 9.289e+03 1.787e-10
 62.32827    -60.8 9.385e+03 2.096e-10
 62.34981    -60.0 9.451e+03 2.126e-10
 62.37630    -58.8 9.824e+03 2.470e-10
 62.41790    -59.2 1.128e+04 3.284e-10
 62.43944    -59.3 1.182e+04 3.783e-10
 62.45158    -61.4 1.347e+04 8.340e-10
 62.47302    -62.9 1.409e+04 1.565e-09
 62.48406    -63.9 1.437e+04 3.087e-09
 62.49483    -63.5 1.453e+04 3.390e-09
 62.51610    -63.3 1.475e+04 4.895e-09
 62.52888    -62.0 1.490e+04 5.732e-09
 62.53965    -61.4 1.475e+04 5.564e-09
 62.55918    -60.0 1.463e+04 5.261e-09
 62.57370    -58.6 1.446e+04 4.121e-09
 62.58446    -58.2 1.420e+04 3.634e-09
 62.60225    -58.2 1.395e+04 2.538e-09
 62.61851    -60.3 1.343e+04 1.707e-09
 62.62928    -59.9 1.317e+04 1.570e-09
 62.64533    -61.2 1.244e+04 1.198e-09
 62.67773    -60.7 1.212e+04 1.084e-09
 62.70834    -61.6 1.201e+04 1.164e-09
 62.72988    -60.8 1.168e+04 1.002e-09
 62.75306    -61.5 1.193e+04 1.301e-09
 62.77450    -61.5 1.186e+04 1.272e-09
 62.79609    -61.2 1.229e+04 1.556e-09
 62.80855    -61.2 1.247e+04 1.606e-09
 62.81932    -61.4 1.242e+04 1.514e-09
 62.83917    -62.0 1.246e+04 1.509e-09
 62.85337    -62.6 1.217e+04 1.371e-09
 62.86131    -63.7 1.214e+04 1.374e-09
 62.86865    -65.4 1.149e+04 1.075e-09
 62.88224    -65.8 1.129e+04 1.026e-09
 62.89818    -65.8 1.099e+04 8.846e-10
 62.90895    -66.6 1.111e+04 9.746e-10
 62.92532    -66.7 1.078e+04 7.599e-10
 62.94300    -67.2 1.041e+04 5.692e-10
 62.95377    -68.3 1.055e+04 6.113e-10
 62.96840    -69.1 1.021e+04 4.769e-10
 62.98782    -69.9 1.002e+04 4.106e-10
 62.99858    -71.7 1.029e+04 4.747e-10
 63.01147    -72.8 1.025e+04 4.664e-10
 63.03263    -73.6 1.039e+04 5.132e-10
 63.04340    -75.2 1.075e+04 6.898e-10
 63.05455    -75.6 1.092e+04 8.169e-10
 63.07609    -75.7 1.104e+04 9.497e-10
 63.08822    -75.5 1.108e+04 1.041e-09
 63.09899    -76.0 1.120e+04 1.147e-09
 63.11916    -75.6 1.109e+04 1.126e-09
 63.13304    -75.3 1.094e+04 1.058e-09
 63.14380    -75.8 1.093e+04 1.047e-09
 63.16224    -76.0 1.091e+04 9.691e-10
 63.17785    -77.5 1.126e+04 9.630e-10
 63.18862    -79.5 1.147e+04 9.680e-10
 63.20531    -82.9 1.212e+04 1.295e-09
 63.22267    -85.1 1.237e+04 1.804e-09
 63.23344    -86.0 1.223e+04 1.909e-09
 63.24839    -86.6 1.230e+04 2.159e-09
 63.26749    -86.7 1.215e+04 2.147e-09
 63.27825    -87.3 1.191e+04 1.957e-09
 63.29147    -87.3 1.138e+04 1.373e-09
 63.31230    -89.7 1.085e+04 8.535e-10
 63.32307    -91.7 1.081e+04 7.953e-10
 63.33343    -97.1 1.006e+04 5.556e-10
 63.34420    -96.8 9.445e+03 4.375e-10
 63.35608   -100.6 9.287e+03 4.030e-10
 63.36789   -104.4 1.002e+04 5.132e-10
 63.37866   -107.9 1.125e+04 8.226e-10
 63.39916   -109.9 1.204e+04 1.428e-09
 63.41271   -110.9 1.284e+04 2.223e-09
 63.42347   -112.5 1.337e+04 2.877e-09
 63.44223   -113.1 1.380e+04 3.434e-09
 63.45752   -113.8 1.406e+04 3.721e-09
 63.46829   -114.9 1.386e+04 3.572e-09
 63.48531   -115.4 1.362e+04 3.211e-09
 63.50234   -116.0 1.321e+04 2.625e-09
 63.51311   -117.4 1.220e+04 1.620e-09
 63.52838   -118.3 1.160e+04 1.218e-09
 63.54716   -119.2 1.105e+04 9.459e-10
 63.55792   -120.9 1.015e+04 6.279e-10
 63.57146   -121.3 9.924e+03 5.663e-10
 63.59197   -121.4 9.857e+03 5.493e-10
 63.60274   -121.8 9.505e+03 4.404e-10
 63.61454   -121.4 9.532e+03 4.427e-10
 63.63607   -121.0 9.571e+03 4.512e-10
 63.64756   -120.1 9.620e+03 4.584e-10
 63.66919   -120.2 9.380e+03 3.811e-10
 63.71165   -118.6 9.418e+03 3.783e-10
 63.73739   -116.9 9.431e+03 3.685e-10
 63.75892   -117.1 9.130e+03 2.920e-10
 63.79780   -115.1 9.054e+03 2.652e-10
 63.81994   -113.1 8.934e+03 2.343e-10
 63.82762   -112.3 8.906e+03 2.299e-10
 63.84856   -112.0 8.607e+03 1.760e-10
 63.88395   -109.9 8.539e+03 1.618e-10
 63.91665   -107.8 8.530e+03 1.592e-10
 63.93819   -107.2 8.384e+03 1.329e-10
 63.97011   -105.4 8.511e+03 1.386e-10
 64.00629   -104.0 8.797e+03 1.798e-10
 64.02783   -103.4 8.726e+03 1.562e-10
 64.05626   -102.1 9.068e+03 2.377e-10
 64.09592   -100.7 9.471e+03 3.466e-10
 64.11746   -100.1 9.442e+03 3.380e-10
 64.14241    -98.7 9.821e+03 4.326e-10
 64.18549    -97.8 9.918e+03 4.548e-10
 64.22856    -95.7 9.751e+03 3.916e-10
 64.27164    -94.2 9.358e+03 2.489e-10
 64.29673    -93.1 9.052e+03 1.535e-10
 64.31826    -92.0 9.068e+03 1.534e-10
 64.35779    -91.1 8.828e+03 1.124e-10
 64.38636    -89.8 8.698e+03 1.024e-10
 64.40790    -88.9 8.723e+03 1.024e-10
 64.44394    -87.4 8.661e+03 9.850e-11
 64.47599    -85.7 8.588e+03 9.614e-11
 64.49753    -84.8 8.579e+03 9.544e-11
 64.53009    -83.0 8.509e+03 9.189e-11
 64.56563    -81.3 8.474e+03 8.825e-11
 64.58717    -80.3 8.462e+03 8.624e-11
 64.61625    -78.7 8.456e+03 8.431e-11
 64.65526    -77.1 8.515e+03 9.150e-11
 64.67680    -76.3 8.518e+03 9.002e-11
 64.70240    -74.9 8.587e+03 1.116e-10
 64.74489    -73.5 8.756e+03 1.429e-10
 64.76643    -73.1 8.914e+03 1.549e-10
 64.77103    -71.7 9.176e+03 2.171e-10
 64.79257    -71.1 9.115e+03 1.926e-10
 64.83162    -69.8 9.313e+03 2.382e-10
 64.85607    -68.8 9.572e+03 3.001e-10
 64.87760    -68.3 9.629e+03 3.135e-10
 64.91778    -67.5 9.886e+03 4.184e-10
 64.94570    -66.5 1.011e+04 5.602e-10
 64.96724    -65.9 1.007e+04 5.652e-10
 65.00393    -64.7 1.008e+04 6.198e-10
 65.03533    -63.5 9.875e+03 5.161e-10
 65.05687    -62.9 9.699e+03 4.714e-10
 65.09008    -62.4 9.343e+03 3.473e-10
 65.12497    -61.8 8.930e+03 2.793e-10
 65.14651    -60.9 8.766e+03 2.626e-10
 65.17623    -59.4 8.424e+03 2.048e-10
 65.21460    -57.8 8.172e+03 1.573e-10
 65.23614    -56.9 8.148e+03 1.403e-10
 65.26238    -55.8 7.984e+03 1.109e-10
 65.30423    -54.7 7.848e+03 1.058e-10
 65.32577    -53.9 7.800e+03 9.986e-11
 65.34854    -52.5 7.803e+03 1.054e-10
 65.39161    -51.1 7.879e+03 1.236e-10
 65.41541    -49.8 8.083e+03 1.587e-10
 65.43694    -49.3 8.097e+03 1.583e-10
 65.47776    -48.5 8.459e+03 2.228e-10
 65.50504    -48.2 9.079e+03 3.505e-10
 65.52658    -48.7 9.509e+03 4.498e-10
 65.54976    -48.0 1.006e+04 6.692e-10
 65.56043    -48.5 1.029e+04 7.605e-10
 65.57449    -48.0 1.052e+04 9.170e-10
 65.59448    -47.4 1.083e+04 1.106e-09
 65.60525    -47.6 1.107e+04 1.247e-09
 65.61756    -47.2 1.113e+04 1.272e-09
 65.63910    -46.3 1.098e+04 1.175e-09
 65.65006    -46.3 1.092e+04 1.100e-09
 65.66083    -47.0 1.092e+04 1.098e-09
 65.68218    -46.7 1.057e+04 9.348e-10
 65.69488    -46.9 1.062e+04 9.062e-10
 65.70565    -47.9 1.063e+04 9.169e-10
 65.72193    -48.0 1.057e+04 9.132e-10
 65.73270    -46.7 1.061e+04 9.175e-10
 65.73970    -46.5 1.061e+04 9.481e-10
 65.75047    -47.1 1.059e+04 9.541e-10
 65.76833    -45.9 1.047e+04 9.411e-10
 65.78451    -46.1 1.086e+04 1.033e-09
 65.79528    -50.8 1.342e+04 1.533e-09
 65.81141    -56.7 1.813e+04 4.101e-09
 65.82933    -60.1 2.030e+04 1.178e-08
 65.84010    -62.2 2.014e+04 1.700e-08
 65.84905    -62.9 2.024e+04 2.565e-08
 65.85703    -62.5 2.016e+04 3.061e-08
 65.86241    -62.8 1.962e+04 2.816e-08
 65.87054    -62.3 1.955e+04 2.844e-08
 65.87943    -61.9 1.971e+04 2.621e-08
 65.88482    -63.0 1.973e+04 2.053e-08
 65.89208    -63.4 2.062e+04 1.546e-08
 65.90184    -65.0 2.149e+04 1.072e-08
 65.90723    -68.0 2.107e+04 6.839e-09
 65.91361    -73.7 2.016e+04 3.028e-09
 65.92425    -78.9 1.686e+04 2.096e-09
 65.92964    -80.8 1.556e+04 1.759e-09
 65.94059    -88.5 1.252e+04 1.121e-09
 65.96217    -94.4 1.053e+04 9.879e-10
 65.97455    -96.4 1.100e+04 1.250e-09
 65.98532    -96.8 1.086e+04 1.181e-09
 66.00525    -98.3 1.128e+04 1.397e-09
 66.01937    -99.7 1.144e+04 1.502e-09
 66.03014    -99.9 1.127e+04 1.398e-09
 66.04832   -101.4 1.125e+04 1.405e-09
 66.06418   -102.7 1.093e+04 1.269e-09
 66.07495   -102.7 1.088e+04 1.231e-09
 66.09140   -103.7 1.059e+04 1.040e-09
 66.10900   -104.6 1.027e+04 8.236e-10
 66.11977   -104.5 1.029e+04 8.280e-10
 66.13448   -105.6 9.882e+03 6.335e-10
 66.15382   -106.8 9.412e+03 4.973e-10
 66.16459   -106.6 9.378e+03 4.890e-10
 66.17755   -107.4 9.022e+03 4.118e-10
 66.19747   -107.7 8.904e+03 3.856e-10
 66.20779   -107.9 9.061e+03 4.058e-10
 66.20940   -107.5 8.941e+03 3.753e-10
 66.22063   -107.5 8.882e+03 3.586e-10
 66.24217   -107.3 8.871e+03 3.551e-10
 66.25422   -107.2 8.973e+03 3.757e-10
 66.26499   -106.5 8.766e+03 3.278e-10
 66.28524   -106.1 8.845e+03 3.432e-10
 66.29904   -106.0 8.983e+03 3.764e-10
 66.30981   -105.3 8.738e+03 3.179e-10
 66.32832   -105.1 8.983e+03 3.641e-10
 66.34385   -105.1 9.292e+03 4.350e-10
 66.35462   -104.5 9.066e+03 3.662e-10
 66.37139   -104.4 9.468e+03 4.576e-10
 66.38867   -104.2 9.912e+03 5.734e-10
 66.39944   -103.9 9.755e+03 5.202e-10
 66.41447   -103.4 1.011e+04 6.498e-10
 66.43349   -102.6 1.030e+04 7.606e-10
 66.44426   -102.1 1.024e+04 7.408e-10
 66.45754   -101.0 1.033e+04 8.060e-10
 66.47830    -99.8 1.032e+04 8.056e-10
 66.48907    -99.6 1.038e+04 8.272e-10
 66.51149    -98.6 1.029e+04 7.500e-10
 66.53409    -97.4 1.034e+04 6.867e-10
 66.55562    -98.6 1.180e+04 1.158e-09
 66.59774    -97.6 1.166e+04 1.169e-09
 66.62372    -96.5 1.138e+04 1.025e-09
 66.63439    -97.4 1.273e+04 1.781e-09
 66.65139    -97.0 1.230e+04 1.467e-09
 66.67311    -96.5 1.194e+04 1.219e-09
 66.69475    -97.7 1.199e+04 1.186e-09
 66.71335    -96.5 1.136e+04 8.670e-10
 66.73489    -98.2 1.171e+04 1.065e-09
 66.77004    -97.1 1.131e+04 7.931e-10
 66.80299    -97.0 1.108e+04 6.244e-10
 66.82452    -98.9 1.136e+04 7.167e-10
 66.85619   -100.1 1.138e+04 6.800e-10
 66.88840   -102.7 1.245e+04 9.292e-10
 66.90319   -105.7 1.334e+04 1.618e-09
 66.91396   -106.9 1.356e+04 1.889e-09
 66.93138   -108.5 1.433e+04 3.278e-09
 66.94801   -109.7 1.488e+04 4.376e-09
 66.95878   -110.3 1.490e+04 4.421e-09
 66.97446   -111.3 1.504e+04 4.669e-09
 66.99283   -112.3 1.449e+04 3.668e-09
 67.00360   -112.6 1.416e+04 3.101e-09
 67.01753   -114.2 1.326e+04 1.899e-09
 67.03764   -116.2 1.239e+04 1.211e-09
 67.04841   -116.4 1.213e+04 1.032e-09
 67.06061   -117.8 1.157e+04 7.579e-10
 67.08215   -118.8 1.132e+04 6.299e-10
 67.09323   -119.6 1.128e+04 5.998e-10
 67.10400   -119.1 1.116e+04 5.588e-10
 67.12522   -119.7 1.122e+04 5.582e-10
 67.13805   -120.8 1.152e+04 6.482e-10
 67.14882   -119.8 1.142e+04 5.774e-10
 67.15933   -120.8 1.176e+04 7.492e-10
 67.17010   -120.8 1.158e+04 6.707e-10
 67.18286   -121.4 1.182e+04 9.365e-10
 67.19363   -120.8 1.175e+04 7.583e-10
 67.21137   -121.3 1.201e+04 1.073e-09
 67.22768   -121.3 1.238e+04 1.465e-09
 67.23845   -120.9 1.211e+04 1.204e-09
 67.25445   -120.8 1.242e+04 1.540e-09
 67.27250   -120.7 1.263e+04 1.711e-09
 67.28327   -120.1 1.235e+04 1.492e-09
 67.29752   -120.0 1.242e+04 1.539e-09
 67.31731   -120.2 1.234e+04 1.446e-09
 67.32808   -119.5 1.220e+04 1.365e-09
 67.34060   -119.6 1.196e+04 1.165e-09
 67.36213   -119.9 1.169e+04 9.522e-10
 67.38367   -119.2 1.141e+04 7.786e-10
 67.40521   -119.5 1.118e+04 6.758e-10
 67.41772   -119.6 1.107e+04 6.464e-10
 67.42849   -118.5 1.096e+04 5.970e-10
 67.44829   -118.4 1.090e+04 5.862e-10
 67.46253   -118.1 1.093e+04 6.124e-10
 67.47330   -117.0 1.078e+04 5.480e-10
 67.49137   -116.5 1.084e+04 5.805e-10
 67.50735   -115.9 1.096e+04 6.202e-10
 67.51812   -114.9 1.079e+04 5.604e-10
 67.53444   -114.3 1.097e+04 5.962e-10
 67.55217   -113.9 1.140e+04 6.471e-10
 67.56294   -112.7 1.112e+04 5.921e-10
 67.57752   -112.9 1.203e+04 7.036e-10
 67.59698   -114.6 1.321e+04 1.064e-09
 67.60775   -113.1 1.310e+04 9.337e-10
 67.62059   -115.2 1.402e+04 1.772e-09
 67.63488   -115.8 1.459e+04 3.424e-09
 67.64531   -116.2 1.458e+04 3.269e-09
 67.65257   -115.8 1.472e+04 3.276e-09
 67.66367   -115.6 1.574e+04 6.644e-09
 67.68521   -114.5 1.653e+04 9.956e-09
 67.69739   -113.8 1.677e+04 1.089e-08
 67.70816   -113.2 1.727e+04 1.329e-08
 67.72828   -112.8 1.701e+04 1.179e-08
 67.74220   -112.1 1.570e+04 5.583e-09
 67.75297   -111.6 1.625e+04 7.739e-09
 67.77136   -111.4 1.443e+04 2.742e-09
 67.78702   -113.7 1.260e+04 9.991e-10
 67.79779   -112.3 1.306e+04 1.289e-09
 67.81444   -113.8 1.151e+04 6.000e-10
 67.83184   -113.9 1.078e+04 4.060e-10
 67.84261   -113.1 1.084e+04 4.167e-10
 67.85751   -112.6 1.047e+04 3.160e-10
 67.88992   -111.3 1.024e+04 2.548e-10
 67.92167   -109.5 9.906e+03 1.900e-10
 67.94320   -108.1 9.787e+03 1.717e-10
 67.97617   -106.1 9.557e+03 1.386e-10
 68.01130   -104.4 9.533e+03 1.374e-10
 68.03284   -102.8 9.416e+03 1.093e-10
 68.06232   -101.2 9.400e+03 1.249e-10
 68.10093    -99.7 9.479e+03 1.703e-10
 68.12247    -98.1 9.317e+03 1.229e-10
 68.14847    -96.5 9.436e+03 1.713e-10
 68.19057    -94.7 9.632e+03 2.234e-10
 68.21210    -93.2 9.438e+03 1.750e-10
 68.23462    -91.6 9.637e+03 2.231e-10
 68.27770    -90.1 9.758e+03 2.574e-10
 68.30174    -88.8 9.773e+03 2.736e-10
 68.32328    -87.2 9.709e+03 2.612e-10
 68.36385    -86.1 9.704e+03 2.844e-10
 68.39137    -85.5 9.739e+03 3.095e-10
 68.41291    -83.7 9.765e+03 3.113e-10
 68.45000    -83.3 9.843e+03 3.489e-10
 68.48101    -83.4 1.023e+04 4.549e-10
 68.50254    -81.8 1.026e+04 5.010e-10
 68.53615    -82.2 1.072e+04 6.219e-10
 68.57064    -83.2 1.098e+04 6.222e-10
 68.58834    -82.1 1.173e+04 1.043e-09
 68.59683    -82.0 1.248e+04 1.762e-09
 68.61134    -81.6 1.277e+04 1.751e-09
 68.62603    -81.7 1.320e+04 1.243e-09
 68.63680    -81.2 1.372e+04 1.896e-09
 68.65442    -82.4 1.351e+04 1.110e-09
 68.67085    -85.4 1.148e+04 5.992e-10
 68.68162    -84.7 1.205e+04 8.143e-10
 68.69749    -86.2 1.068e+04 5.767e-10
 68.71566    -86.4 1.033e+04 5.294e-10
 68.72643    -86.1 1.059e+04 5.972e-10
 68.74981    -86.2 1.038e+04 5.300e-10
 68.77144    -85.6 1.059e+04 5.991e-10
 68.79461    -84.6 1.007e+04 4.652e-10
 68.83768    -83.3 9.851e+03 4.178e-10
 68.86108    -81.7 9.698e+03 3.957e-10
 68.88262    -81.2 9.692e+03 3.500e-10
 68.92384    -79.5 9.509e+03 3.195e-10
 68.95071    -77.6 9.311e+03 2.827e-10
 68.97225    -77.3 9.318e+03 2.750e-10
 69.00999    -75.4 9.123e+03 2.476e-10
 69.04034    -73.4 8.966e+03 2.188e-10
 69.06188    -73.2 8.935e+03 2.194e-10
 69.09614    -71.1 8.744e+03 1.856e-10
 69.12998    -69.2 8.610e+03 1.530e-10
 69.15152    -69.2 8.535e+03 1.350e-10
 69.18229    -67.6 8.487e+03 1.191e-10
 69.21961    -66.3 8.531e+03 1.184e-10
 69.24115    -66.7 8.475e+03 1.066e-10
 69.26844    -66.1 8.618e+03 1.529e-10
 69.30925    -64.8 8.781e+03 2.388e-10
 69.33078    -65.0 8.672e+03 2.269e-10
 69.35459    -62.8 8.857e+03 2.765e-10
 69.39767    -61.3 8.793e+03 2.681e-10
 69.42042    -60.1 8.589e+03 1.987e-10
 69.44196    -60.1 8.402e+03 1.686e-10
 69.48382    -60.0 8.243e+03 1.423e-10
 69.51005    -59.7 8.267e+03 1.468e-10
 69.53117    -59.2 8.216e+03 1.474e-10
 69.54802    -59.2 8.150e+03 1.371e-10
 69.56997    -58.9 8.333e+03 1.973e-10
 69.59968    -57.9 8.698e+03 2.853e-10
 69.62122    -56.9 8.619e+03 2.675e-10
 69.65613    -56.3 9.024e+03 3.533e-10
 69.68932    -56.3 9.303e+03 4.197e-10
 69.71086    -55.1 9.292e+03 4.157e-10
 69.73141    -56.0 9.478e+03 4.619e-10
 69.74471    -57.7 1.004e+04 5.493e-10
 69.75548    -56.8 9.992e+03 5.414e-10
 69.77439    -59.3 1.066e+04 7.158e-10
 69.78953    -61.7 1.107e+04 9.713e-10
 69.80029    -60.6 1.101e+04 9.281e-10
 69.81747    -62.2 1.113e+04 1.155e-09
 69.83434    -62.9 1.114e+04 1.256e-09
 69.84511    -62.1 1.106e+04 1.196e-09
 69.86054    -63.0 1.131e+04 1.216e-09
 69.87916    -74.1 2.872e+04 8.715e-10
 69.88993    -77.7 3.584e+04 9.538e-10
 69.89818    -94.1 4.637e+04 1.203e-09
 69.90685   -106.2 3.949e+04 4.247e-09
 69.91224   -107.0 3.906e+04 5.031e-09
 69.91967   -114.3 2.811e+04 1.767e-08
 69.92926   -117.1 2.265e+04 5.308e-08
 69.93465   -117.5 2.239e+04 5.390e-08
 69.94121   -118.4 2.142e+04 8.098e-08
 69.95167   -118.5 2.140e+04 8.714e-08
 69.95706   -118.9 2.118e+04 7.153e-08
 69.96275   -119.0 2.122e+04 6.022e-08
 69.97352   -119.6 2.212e+04 3.411e-08
 69.97946   -123.8 2.312e+04 1.513e-08
 69.98485   -125.4 2.305e+04 1.214e-08
 69.99506   -131.4 2.072e+04 4.825e-09
 70.00187   -136.7 1.625e+04 2.453e-09
 70.00726   -138.1 1.562e+04 2.354e-09
 70.01659   -139.9 1.420e+04 1.866e-09
 70.02332   -140.8 1.355e+04 1.541e-09
 70.02563   -138.7 1.513e+04 2.548e-09
 70.03510   -139.9 1.515e+04 2.914e-09
 70.05438   -141.0 1.480e+04 2.623e-09
 70.06920   -142.1 1.423e+04 2.281e-09
 70.07996   -143.0 1.472e+04 2.761e-09
 70.09746   -143.4 1.453e+04 2.669e-09
 70.11401   -143.8 1.438e+04 2.811e-09
 70.12478   -144.5 1.465e+04 3.157e-09
 70.14053   -144.8 1.470e+04 3.669e-09
 70.15883   -144.9 1.496e+04 4.325e-09
 70.16960   -145.6 1.515e+04 4.679e-09
 70.18361   -145.9 1.549e+04 5.499e-09
 70.20365   -146.4 1.582e+04 6.229e-09
 70.21441   -147.4 1.603e+04 6.621e-09
 70.22669   -148.1 1.629e+04 7.095e-09
 70.24822   -149.1 1.642e+04 7.208e-09
 70.25923   -150.3 1.647e+04 7.128e-09
 70.27000   -150.8 1.615e+04 6.498e-09
 70.29130   -152.0 1.593e+04 5.522e-09
 70.30405   -153.3 1.555e+04 4.466e-09
 70.31482   -153.8 1.485e+04 3.414e-09
 70.33438   -155.1 1.424e+04 2.551e-09
 70.34887   -156.3 1.362e+04 1.948e-09
 70.35963   -156.6 1.300e+04 1.488e-09
 70.37745   -157.5 1.258e+04 1.254e-09
 70.39368   -158.3 1.230e+04 1.158e-09
 70.40445   -158.2 1.204e+04 1.034e-09
 70.42053   -158.6 1.199e+04 1.043e-09
 70.43850   -158.7 1.203e+04 1.160e-09
 70.44927   -158.4 1.198e+04 1.157e-09
 70.46360   -158.2 1.214e+04 1.344e-09
 70.48332   -157.7 1.223e+04 1.431e-09
 70.49408   -157.2 1.226e+04 1.513e-09
 70.49892   -156.8 1.230e+04 1.544e-09
 70.50969   -156.2 1.285e+04 2.088e-09
 70.52813   -155.9 1.280e+04 2.075e-09
 70.54967   -154.9 1.253e+04 1.874e-09
 70.57129   -154.4 1.211e+04 1.499e-09
 70.58372   -154.1 1.158e+04 1.092e-09
 70.59449   -153.6 1.171e+04 1.181e-09
 70.61437   -153.3 1.122e+04 8.538e-10
 70.62853   -153.0 1.078e+04 6.118e-10
 70.63930   -152.5 1.093e+04 6.804e-10
 70.65745   -152.1 1.056e+04 5.054e-10
 70.67335   -151.8 1.026e+04 4.011e-10
 70.68412   -151.5 1.040e+04 4.369e-10
 70.70052   -151.2 1.019e+04 3.799e-10
 70.71827   -151.0 1.003e+04 3.381e-10
 70.72904   -150.3 1.017e+04 3.734e-10
 70.74360   -149.9 1.008e+04 3.564e-10
 70.77600   -149.2 1.007e+04 3.525e-10
 70.80800   -147.9 9.837e+03 3.125e-10
 70.82954   -147.5 1.038e+04 4.289e-10
 70.86225   -146.6 1.028e+04 4.099e-10
 70.89763   -146.1 1.029e+04 4.164e-10
 70.91917   -146.6 1.097e+04 6.096e-10
 70.94840   -146.7 1.127e+04 7.198e-10
 70.98726   -147.2 1.183e+04 9.766e-10
 71.00880   -148.4 1.194e+04 1.018e-09
 71.03455   -149.7 1.233e+04 1.308e-09
 71.07690   -151.1 1.268e+04 1.620e-09
 71.09834   -152.1 1.241e+04 1.263e-09
 71.10974   -152.8 1.252e+04 1.396e-09
 71.13128   -153.5 1.255e+04 1.514e-09
 71.14306   -153.8 1.251e+04 1.554e-09
 71.15383   -155.1 1.265e+04 1.560e-09
 71.17436   -155.2 1.259e+04 1.567e-09
 71.18787   -155.4 1.251e+04 1.570e-09
 71.19864   -156.5 1.285e+04 1.671e-09
 71.21743   -156.6 1.263e+04 1.550e-09
 71.23269   -156.6 1.251e+04 1.441e-09
 71.24346   -158.8 1.387e+04 2.099e-09
 71.26051   -159.0 1.385e+04 2.021e-09
 71.27751   -159.2 1.389e+04 1.965e-09
 71.28828   -161.3 1.535e+04 3.585e-09
 71.30358   -161.2 1.560e+04 3.863e-09
 71.32232   -161.1 1.576e+04 4.000e-09
 71.33309   -162.5 1.678e+04 6.977e-09
 71.34666   -162.7 1.683e+04 7.110e-09
 71.36714   -162.6 1.659e+04 6.707e-09
 71.37791   -164.2 1.689e+04 8.114e-09
 71.38974   -163.7 1.644e+04 7.120e-09
 71.41127   -163.2 1.599e+04 6.075e-09
 71.42273   -162.7 1.562e+04 5.202e-09
 71.43350   -164.4 1.567e+04 5.564e-09
 71.45001   -164.0 1.529e+04 4.880e-09
 71.46078   -164.2 1.521e+04 4.692e-09
 71.46754   -163.5 1.485e+04 4.111e-09
 71.47831   -165.0 1.461e+04 4.086e-09
 71.49743   -164.2 1.434e+04 3.575e-09
 71.51236   -163.4 1.400e+04 3.014e-09
 71.52313   -164.5 1.351e+04 2.769e-09
 71.54050   -163.6 1.329e+04 2.377e-09
 71.55718   -162.7 1.307e+04 2.017e-09
 71.56795   -163.7 1.277e+04 1.849e-09
 71.58358   -162.8 1.266e+04 1.659e-09
 71.60199   -161.9 1.258e+04 1.482e-09
 71.61276   -162.8 1.248e+04 1.470e-09
 71.62665   -162.0 1.248e+04 1.398e-09
 71.64681   -161.3 1.247e+04 1.330e-09
 71.65758   -162.3 1.251e+04 1.446e-09
 71.66973   -161.8 1.252e+04 1.429e-09
 71.69127   -161.4 1.250e+04 1.413e-09
 71.70240   -161.1 1.244e+04 1.400e-09
 71.71317   -161.7 1.256e+04 1.529e-09
 71.73434   -161.3 1.244e+04 1.471e-09
 71.74721   -161.0 1.230e+04 1.406e-09
 71.75798   -161.3 1.235e+04 1.375e-09
 71.77742   -160.8 1.215e+04 1.208e-09
 71.79203   -160.4 1.194e+04 1.040e-09
 71.80280   -160.7 1.198e+04 9.286e-10
 71.82049   -160.2 1.172e+04 7.483e-10
 71.83685   -159.7 1.148e+04 6.116e-10
 71.84762   -160.1 1.153e+04 5.667e-10
 71.86357   -159.5 1.130e+04 4.652e-10
 71.88166   -158.8 1.107e+04 3.937e-10
 71.89243   -158.9 1.111e+04 3.832e-10
 71.90665   -158.1 1.094e+04 3.322e-10
 71.92555   -157.1 1.086e+04 3.072e-10
 71.93462   -157.0 1.081e+04 2.968e-10
 71.93725   -157.0 1.086e+04 2.966e-10
 71.94972   -156.2 1.085e+04 2.971e-10
 71.98213   -155.2 1.093e+04 3.075e-10
 72.01631   -152.9 1.096e+04 3.167e-10
 72.03785   -153.2 1.134e+04 3.473e-10
 72.06838   -150.7 1.116e+04 3.323e-10
 72.10594   -148.3 1.112e+04 3.277e-10
 72.12748   -148.5 1.160e+04 4.363e-10
 72.15453   -146.1 1.137e+04 3.662e-10
 72.19558   -143.9 1.115e+04 3.152e-10
 72.21712   -143.9 1.132e+04 3.724e-10
 72.24068   -141.7 1.105e+04 2.960e-10
 72.28376   -139.5 1.079e+04 2.506e-10
 72.30675   -137.2 1.060e+04 2.233e-10
 72.32829   -137.3 1.065e+04 2.495e-10
 72.36991   -135.0 1.057e+04 2.407e-10
 72.39638   -132.8 1.056e+04 2.398e-10
 72.40623   -133.2 1.061e+04 2.751e-10
 72.42283   -133.3 1.048e+04 2.767e-10
 72.45606   -131.5 1.055e+04 3.179e-10
 72.48602   -129.9 1.070e+04 3.842e-10
 72.50755   -130.4 1.069e+04 4.006e-10
 72.54221   -129.1 1.084e+04 4.715e-10
 72.57565   -128.2 1.097e+04 5.249e-10
 72.59719   -129.0 1.098e+04 5.093e-10
 72.62836   -128.7 1.103e+04 5.118e-10
 72.66528   -128.7 1.091e+04 4.985e-10
 72.68682   -129.8 1.095e+04 5.005e-10
 72.71451   -129.9 1.076e+04 4.754e-10
 72.75492   -129.9 1.057e+04 4.324e-10
 72.77646   -131.0 1.093e+04 5.367e-10
 72.80067   -130.9 1.084e+04 5.249e-10
 72.84374   -130.6 1.075e+04 5.025e-10
 72.86609   -130.3 1.062e+04 4.802e-10
 72.88763   -131.3 1.074e+04 5.352e-10
 72.92989   -130.7 1.039e+04 4.303e-10
 72.95572   -130.0 1.003e+04 3.396e-10
 72.97726   -130.8 9.961e+03 3.149e-10
 73.01605   -129.9 9.734e+03 2.710e-10
 73.04536   -128.8 9.614e+03 2.520e-10
 73.06689   -129.5 9.690e+03 2.632e-10
 73.10220   -128.5 9.694e+03 2.766e-10
 73.13499   -127.7 9.667e+03 2.845e-10
 73.15653   -128.6 9.868e+03 3.327e-10
 73.18835   -127.8 9.704e+03 3.295e-10
 73.22462   -127.0 9.433e+03 2.903e-10
 73.24616   -128.0 9.604e+03 3.249e-10
 73.27450   -127.2 9.378e+03 2.828e-10
 73.31426   -126.2 9.222e+03 2.666e-10
 73.33579   -127.3 9.465e+03 3.049e-10
 73.35239   -126.2 9.296e+03 2.903e-10
 73.37392   -126.4 9.673e+03 3.934e-10
 73.40373   -125.1 9.357e+03 3.428e-10
 73.44681   -124.4 9.305e+03 3.256e-10
 73.48988   -122.8 9.036e+03 2.588e-10
 73.51506   -121.3 8.863e+03 2.187e-10
 73.53660   -122.2 9.339e+03 2.871e-10
 73.57603   -120.9 9.376e+03 2.861e-10
 73.60470   -120.0 9.714e+03 3.533e-10
 73.62623   -121.1 1.026e+04 5.550e-10
 73.66218   -120.1 1.078e+04 8.069e-10
 73.69433   -119.3 1.132e+04 1.099e-09
 73.71587   -120.0 1.166e+04 1.303e-09
 73.74834   -119.7 1.200e+04 1.435e-09
 73.78396   -119.9 1.212e+04 1.472e-09
 73.80550   -120.6 1.221e+04 1.482e-09
 73.83449   -121.1 1.228e+04 1.469e-09
 73.87360   -121.7 1.225e+04 1.465e-09
 73.89513   -122.3 1.236e+04 1.474e-09
 73.92064   -122.5 1.212e+04 1.414e-09
 73.96323   -122.3 1.179e+04 1.254e-09
 73.98477   -122.6 1.182e+04 1.252e-09
 74.00679   -122.0 1.158e+04 1.087e-09
 74.04987   -121.7 1.155e+04 1.053e-09
 74.07430   -121.6 1.221e+04 1.166e-09
 74.08498   -122.2 1.212e+04 1.100e-09
 74.10352   -124.9 1.336e+04 1.683e-09
 74.11902   -127.5 1.495e+04 3.447e-09
 74.12979   -127.9 1.447e+04 2.929e-09
 74.14659   -129.5 1.565e+04 4.993e-09
 74.16384   -130.6 1.676e+04 7.117e-09
 74.17461   -131.0 1.591e+04 4.968e-09
 74.18967   -133.4 1.630e+04 5.293e-09
 74.20866   -136.8 1.601e+04 4.669e-09
 74.21943   -138.1 1.509e+04 3.448e-09
 74.23275   -142.3 1.368e+04 2.499e-09
 74.25347   -145.4 1.267e+04 1.905e-09
 74.26424   -145.6 1.242e+04 1.687e-09
 74.27582   -147.8 1.212e+04 1.304e-09
 74.29736   -150.2 1.187e+04 9.551e-10
 74.30906   -153.1 1.144e+04 6.978e-10
 74.31498   -153.6 1.121e+04 6.026e-10
 74.32482   -153.6 1.159e+04 7.734e-10
 74.34043   -156.3 1.102e+04 5.862e-10
 74.35388   -158.3 1.068e+04 5.007e-10
 74.36465   -158.7 1.052e+04 4.469e-10
 74.38351   -160.0 1.040e+04 4.156e-10
 74.39869   -161.0 1.034e+04 3.959e-10
 74.40946   -161.2 1.032e+04 3.744e-10
 74.42659   -161.7 1.035e+04 3.709e-10
 74.44351   -162.2 1.038e+04 3.696e-10
 74.45428   -162.6 1.040e+04 3.675e-10
 74.48053   -163.6 1.043e+04 3.595e-10
 74.52257   -164.3 1.030e+04 3.042e-10
 74.54411   -166.5 1.131e+04 4.077e-10
 74.56678   -167.8 1.169e+04 4.746e-10
 74.60985   -169.9 1.254e+04 7.237e-10
 74.63364   -172.3 1.341e+04 1.470e-09
 74.64432   -173.4 1.404e+04 2.292e-09
 74.66350   -174.2 1.428e+04 2.733e-09
 74.67836   -175.0 1.458e+04 3.124e-09
 74.68913   -176.6 1.487e+04 3.529e-09
 74.70658   -177.8 1.501e+04 3.775e-09
 74.72318   -179.1 1.513e+04 4.028e-09
 74.73395   -180.7 1.506e+04 4.001e-09
 74.74966   -181.8 1.502e+04 4.051e-09
 74.76800   -182.5 1.480e+04 3.973e-09
 74.77877   -183.6 1.448e+04 3.560e-09
 74.78960   -183.9 1.407e+04 2.983e-09
 74.80036   -183.5 1.441e+04 3.511e-09
 74.81281   -183.6 1.392e+04 2.788e-09
 74.82358   -184.5 1.355e+04 2.309e-09
 74.83581   -184.4 1.299e+04 1.646e-09
 74.85735   -184.3 1.246e+04 1.132e-09
 74.86840   -184.3 1.198e+04 7.854e-10
 74.87917   -184.9 1.174e+04 6.926e-10
 74.90042   -184.7 1.143e+04 5.323e-10
 74.91322   -184.4 1.124e+04 4.446e-10
 74.92398   -184.7 1.122e+04 4.408e-10
 74.94350   -184.3 1.114e+04 4.019e-10
 74.95803   -183.8 1.111e+04 3.905e-10
 74.96880   -184.0 1.112e+04 3.947e-10
 74.98657   -183.3 1.108e+04 3.904e-10
 75.00285   -182.4 1.105e+04 3.893e-10
 75.01362   -182.4 1.103e+04 3.901e-10
 75.04052   -181.5 1.100e+04 3.803e-10
 75.08191   -180.1 1.095e+04 3.564e-10
 75.10345   -180.3 1.082e+04 3.271e-10
 75.12677   -178.7 1.072e+04 2.951e-10
 75.16984   -177.0 1.063e+04 2.759e-10
 75.19308   -175.4 1.060e+04 2.681e-10
 75.21462   -175.0 1.041e+04 2.393e-10
 75.25457   -173.3 1.046e+04 2.414e-10
 75.27610   -173.2 1.067e+04 2.899e-10
 75.28271   -171.7 1.076e+04 3.136e-10
 75.30425   -171.4 1.076e+04 3.192e-10
 75.34215   -169.9 1.087e+04 3.468e-10
 75.37235   -168.5 1.099e+04 3.630e-10
 75.39389   -168.1 1.096e+04 3.657e-10
 75.42830   -166.8 1.105e+04 3.779e-10
 75.46198   -165.6 1.114e+04 3.860e-10
 75.48352   -165.0 1.105e+04 3.799e-10
 75.51445   -163.9 1.115e+04 3.853e-10
 75.55162   -162.8 1.116e+04 3.867e-10
 75.57315   -162.3 1.113e+04 3.878e-10
 75.58973   -161.3 1.112e+04 3.820e-10
 75.60701   -161.0 1.114e+04 3.794e-10
 75.61777   -160.8 1.113e+04 3.793e-10
 75.63271   -160.0 1.115e+04 3.770e-10
 75.65182   -159.8 1.121e+04 3.783e-10
 75.66259   -159.5 1.121e+04 3.795e-10
 75.67579   -159.0 1.135e+04 3.753e-10
 75.69664   -158.6 1.154e+04 3.905e-10
 75.70741   -158.4 1.153e+04 3.912e-10
 75.71886   -158.0 1.171e+04 4.238e-10
 75.74040   -157.7 1.187e+04 4.801e-10
 75.75145   -157.4 1.204e+04 5.637e-10
 75.75251   -157.8 1.215e+04 6.792e-10
 75.76299   -157.5 1.207e+04 6.434e-10
 75.78348   -157.1 1.221e+04 7.566e-10
 75.79704   -156.6 1.235e+04 8.849e-10
 75.80781   -156.3 1.222e+04 8.102e-10
 75.82655   -155.7 1.237e+04 9.234e-10
 75.84186   -155.1 1.247e+04 1.005e-09
 75.85263   -154.8 1.235e+04 9.133e-10
 75.86963   -154.2 1.237e+04 9.487e-10
 75.88668   -153.6 1.234e+04 9.549e-10
 75.89744   -153.2 1.224e+04 8.662e-10
 75.91271   -152.4 1.209e+04 8.418e-10
 75.93149   -151.5 1.195e+04 7.414e-10
 75.94226   -151.2 1.182e+04 6.883e-10
 75.95578   -150.2 1.171e+04 5.714e-10
 75.98819   -149.1 1.152e+04 3.969e-10
 76.02132   -148.5 1.117e+04 2.692e-10
 76.04286   -147.5 1.111e+04 2.688e-10
 76.07444   -145.9 1.067e+04 1.872e-10
 76.11096   -144.0 1.045e+04 1.364e-10
 76.13249   -143.2 1.048e+04 1.586e-10
 76.16059   -141.3 1.041e+04 1.343e-10
 76.20059   -139.3 1.033e+04 1.201e-10
 76.22213   -138.5 1.039e+04 1.483e-10
 76.22720   -136.4 1.027e+04 1.357e-10
 76.24873   -136.4 1.030e+04 1.646e-10
 76.28981   -134.1 1.021e+04 1.484e-10
 76.31176   -131.9 1.013e+04 1.234e-10
 76.33330   -131.1 1.016e+04 1.480e-10
 76.37597   -129.0 1.007e+04 1.173e-10
 76.40139   -127.0 9.965e+03 9.511e-11
 76.42293   -126.1 9.977e+03 1.078e-10
 76.46212   -124.1 9.826e+03 9.383e-11
 76.49103   -122.1 9.747e+03 9.066e-11
 76.51257   -121.1 9.735e+03 9.585e-11
 76.54827   -119.0 9.683e+03 9.505e-11
 76.58066   -116.9 9.631e+03 1.007e-10
 76.60220   -115.9 9.628e+03 1.007e-10
 76.63442   -113.8 9.603e+03 1.091e-10
 76.67029   -112.0 9.586e+03 1.170e-10
 76.69183   -111.3 9.631e+03 1.185e-10
 76.72057   -110.6 9.801e+03 1.349e-10
 76.75993   -111.1 1.021e+04 1.940e-10
 76.78147   -112.0 1.056e+04 3.275e-10
 76.80673   -112.1 1.102e+04 5.848e-10
 76.84956   -111.5 1.113e+04 8.167e-10
 76.87110   -111.8 1.130e+04 9.648e-10
 76.89288   -111.2 1.091e+04 8.672e-10
 76.93595   -110.2 1.056e+04 6.493e-10
 76.96064   -109.9 1.023e+04 4.296e-10
 76.97131   -110.2 1.019e+04 4.000e-10
 76.98960   -110.1 1.010e+04 3.783e-10
 77.02201   -109.8 9.836e+03 3.173e-10
 77.05037   -108.8 9.655e+03 2.958e-10
 77.07191   -108.5 9.484e+03 2.728e-10
 77.10826   -107.0 9.373e+03 3.105e-10
 77.14000   -105.2 9.366e+03 3.501e-10
 77.16154   -104.6 9.161e+03 2.964e-10
 77.17829   -102.9 9.141e+03 2.953e-10
 77.19982   -102.0 9.122e+03 2.863e-10
 77.22963   -100.2 9.159e+03 2.900e-10
 77.25117    -99.6 8.993e+03 2.467e-10
 77.28056    -98.0 9.006e+03 2.455e-10
 77.31927    -96.2 8.913e+03 2.438e-10
 77.34081    -95.5 8.720e+03 2.125e-10
 77.36671    -93.7 8.666e+03 1.963e-10
 77.40890    -92.3 8.699e+03 1.789e-10
 77.43044    -91.5 8.564e+03 1.490e-10
 77.45286    -90.0 8.485e+03 1.487e-10
 77.49594    -88.3 8.413e+03 1.493e-10
 77.52007    -86.4 8.376e+03 1.430e-10
 77.54161    -85.5 8.240e+03 1.212e-10
 77.58209    -83.7 8.250e+03 1.118e-10
 77.60971    -82.1 8.268e+03 1.065e-10
 77.63124    -81.0 8.172e+03 9.154e-11
 77.66824    -79.4 8.198e+03 9.300e-11
 77.69934    -77.9 8.251e+03 1.040e-10
 77.72088    -76.6 8.132e+03 8.570e-11
 77.75440    -74.9 8.174e+03 1.028e-10
 77.78897    -73.1 8.262e+03 1.295e-10
 77.81051    -71.8 8.152e+03 1.075e-10
 77.84055    -69.8 8.280e+03 1.348e-10
 77.87861    -67.8 8.429e+03 1.537e-10
 77.90015    -66.6 8.412e+03 1.496e-10
 77.92670    -64.7 8.532e+03 1.690e-10
 77.96824    -63.0 8.655e+03 1.719e-10
 77.98978    -61.7 8.704e+03 1.911e-10
 78.01285    -60.2 8.763e+03 1.893e-10
 78.05593    -58.8 8.782e+03 1.805e-10
 78.07941    -57.4 8.784e+03 1.699e-10
 78.10095    -56.4 8.892e+03 1.975e-10
 78.12938    -55.1 8.925e+03 1.966e-10
 78.15091    -54.3 8.909e+03 1.696e-10
 78.16905    -53.0 8.940e+03 1.724e-10
 78.19058    -52.3 9.142e+03 2.171e-10
 78.22823    -51.2 9.213e+03 2.280e-10
 78.25868    -50.3 9.368e+03 2.733e-10
 78.28022    -49.9 9.471e+03 3.177e-10
 78.31438    -48.5 9.633e+03 4.073e-10
 78.34831    -47.3 9.941e+03 5.093e-10
 78.36985    -47.3 9.781e+03 4.667e-10
 78.38967    -46.9 9.840e+03 5.130e-10
 78.40370    -46.4 9.938e+03 5.662e-10
 78.41447    -46.2 9.731e+03 4.788e-10
 78.43265    -45.5 9.772e+03 5.021e-10
 78.44852    -45.0 9.850e+03 5.241e-10
 78.45929    -44.9 9.626e+03 4.319e-10
 78.47572    -44.2 9.632e+03 4.339e-10
 78.49334    -43.9 9.681e+03 4.419e-10
 78.50411    -43.8 9.511e+03 3.839e-10
 78.51880    -43.4 9.477e+03 3.826e-10
 78.53815    -43.1 9.536e+03 3.982e-10
 78.54902    -42.8 9.353e+03 3.323e-10
 78.56197    -42.6 9.410e+03 3.606e-10
 78.58297    -42.5 9.517e+03 3.940e-10
 78.59374    -41.8 9.312e+03 3.280e-10
 78.60473    -41.9 9.431e+03 3.657e-10
 78.61550    -42.2 9.510e+03 3.765e-10
 78.62649    -42.8 1.003e+04 5.129e-10
 78.63856    -44.5 1.154e+04 9.677e-10
 78.64933    -42.8 1.032e+04 5.665e-10
 78.66956    -44.7 1.208e+04 1.204e-09
 78.68337    -46.3 1.383e+04 2.845e-09
 78.69414    -44.6 1.268e+04 1.580e-09
 78.71264    -46.0 1.422e+04 3.710e-09
 78.72819    -46.5 1.525e+04 6.903e-09
 78.73896    -45.5 1.450e+04 4.749e-09
 78.75572    -45.5 1.543e+04 7.648e-09
 78.77301    -45.6 1.614e+04 7.908e-09
 78.78378    -44.4 1.554e+04 7.705e-09
 78.79879    -44.5 1.591e+04 7.196e-09
 78.81782    -44.9 1.579e+04 5.596e-09
 78.82859    -43.6 1.562e+04 6.339e-09
 78.84187    -44.2 1.546e+04 4.180e-09
 78.86264    -44.5 1.434e+04 2.255e-09
 78.87341    -43.1 1.485e+04 3.163e-09
 78.88494    -43.7 1.358e+04 1.588e-09
 78.90756    -45.7 1.273e+04 8.180e-10
 78.92909    -43.5 1.241e+04 7.183e-10
 78.96042    -45.1 1.178e+04 5.132e-10
 78.99729    -46.2 1.067e+04 3.488e-10
 79.01883    -44.0 1.080e+04 3.558e-10
 79.04667    -43.7 1.048e+04 2.782e-10
 79.08047    -42.5 1.041e+04 2.364e-10
 79.09918    -42.3 1.026e+04 1.747e-10
 79.10846    -41.1 1.026e+04 1.725e-10
 79.13282    -39.5 1.028e+04 1.581e-10
 79.17590    -37.9 1.030e+04 1.456e-10
 79.19809    -36.3 1.036e+04 1.336e-10
 79.21963    -35.2 1.034e+04 1.322e-10
 79.26205    -33.7 1.043e+04 1.237e-10
 79.28773    -32.1 1.047e+04 1.249e-10
 79.30926    -31.1 1.043e+04 1.243e-10
 79.34820    -29.6 1.054e+04 1.286e-10
 79.37736    -28.2 1.071e+04 1.407e-10
 79.39890    -27.2 1.066e+04 1.430e-10
 79.43436    -25.9 1.084e+04 1.629e-10
 79.46699    -24.5 1.097e+04 2.036e-10
 79.48853    -24.0 1.105e+04 2.102e-10
 79.52051    -22.9 1.126e+04 2.692e-10
 79.55663    -22.4 1.169e+04 3.566e-10
 79.57816    -22.6 1.189e+04 4.262e-10
 79.59579    -22.1 1.209e+04 4.481e-10
 79.61202    -22.6 1.265e+04 5.645e-10
 79.62279    -22.9 1.279e+04 6.610e-10
 79.63877    -24.5 1.372e+04 9.694e-10
 79.65683    -27.5 1.481e+04 2.129e-09
 79.66760    -27.7 1.474e+04 2.417e-09
 79.68185    -29.3 1.512e+04 4.795e-09
 79.70165    -30.1 1.563e+04 7.284e-09
 79.71242    -29.6 1.545e+04 6.859e-09
 79.72492    -30.4 1.595e+04 7.335e-09
 79.74646    -31.4 1.612e+04 6.109e-09
 79.76800    -34.4 1.579e+04 3.105e-09
 79.78954    -39.1 1.524e+04 1.888e-09
 79.80205    -43.4 1.393e+04 1.578e-09
 79.81282    -42.9 1.374e+04 1.441e-09
 79.83261    -44.8 1.302e+04 1.364e-09
 79.84687    -45.9 1.279e+04 1.288e-09
 79.85764    -45.1 1.265e+04 1.137e-09
 79.87569    -45.7 1.248e+04 1.081e-09
 79.90809    -45.3 1.205e+04 8.068e-10
 79.93670    -46.0 1.188e+04 5.961e-10
 79.95824    -44.4 1.173e+04 4.109e-10
 79.99434    -45.3 1.156e+04 3.499e-10
 80.02633    -45.3 1.144e+04 3.180e-10
 80.04201    -43.5 1.122e+04 2.496e-10
 80.05310    -43.5 1.108e+04 1.930e-10
 80.08049    -42.6 1.109e+04 1.386e-10
 80.11597    -42.4 1.127e+04 1.104e-10
 80.13750    -40.5 1.124e+04 9.439e-11
 80.16665    -40.2 1.124e+04 9.722e-11
 80.20560    -40.0 1.127e+04 1.205e-10
 80.22714    -38.2 1.123e+04 1.015e-10
 80.25280    -37.5 1.120e+04 1.481e-10
 80.29523    -36.9 1.143e+04 2.385e-10
 80.31677    -35.0 1.124e+04 1.979e-10
 80.33895    -34.8 1.159e+04 3.781e-10
 80.38203    -34.2 1.190e+04 6.153e-10
 80.40641    -33.6 1.192e+04 6.326e-10
 80.42794    -31.9 1.189e+04 6.800e-10
 80.46818    -30.5 1.159e+04 5.538e-10
 80.49604    -29.6 1.142e+04 3.221e-10
 80.51758    -27.8 1.137e+04 3.819e-10
 80.55433    -27.3 1.127e+04 2.119e-10
 80.58567    -26.7 1.109e+04 1.281e-10
 80.60721    -24.7 1.111e+04 1.478e-10
 80.64048    -23.7 1.090e+04 9.310e-11
 80.67531    -22.3 1.077e+04 6.333e-11
 80.69684    -20.4 1.087e+04 6.753e-11
 80.72663    -19.3 1.088e+04 4.732e-11
 80.76494    -18.1 1.072e+04 4.171e-11
 80.78648    -16.4 1.076e+04 4.226e-11
 80.81278    -14.8 1.066e+04 4.222e-11
 80.85457    -13.0 1.065e+04 4.359e-11
 80.87611    -11.3 1.064e+04 4.514e-11
 80.89894     -9.5 1.063e+04 4.748e-11
 80.94201     -7.6 1.063e+04 4.912e-11
 80.96574     -5.7 1.062e+04 4.979e-11
 80.98484     -3.9 1.062e+04 4.977e-11
 81.00419     -3.8 1.059e+04 5.274e-11
 81.02816     -2.1 1.061e+04 5.008e-11
 81.05538     -0.3 1.063e+04 4.984e-11
 81.07692      1.4 1.060e+04 4.854e-11
 81.11432      3.0 1.062e+04 4.955e-11
 81.14501      4.6 1.064e+04 5.446e-11
 81.16655      6.4 1.060e+04 5.259e-11
 81.20047      7.9 1.059e+04 6.136e-11
 81.23465      9.6 1.058e+04 7.243e-11
 81.25618     11.4 1.055e+04 6.876e-11
 81.28662     13.0 1.057e+04 7.693e-11
 81.32428     14.5 1.061e+04 8.149e-11
 81.34582     16.4 1.054e+04 7.878e-11
 81.37277     17.8 1.055e+04 8.229e-11
 81.41391     19.1 1.059e+04 8.543e-11
 81.43545     21.0 1.059e+04 8.565e-11
 81.45892     22.2 1.074e+04 9.025e-11
 81.50200     23.2 1.086e+04 1.087e-10
 81.52508     24.4 1.086e+04 1.410e-10
 81.54662     26.2 1.089e+04 1.832e-10
 81.58815     27.7 1.091e+04 2.361e-10
 81.61472     29.4 1.098e+04 2.693e-10
 81.63626     31.0 1.117e+04 4.115e-10
 81.67430     32.5 1.138e+04 4.491e-10
 81.70435     33.6 1.159e+04 4.638e-10
 81.72589     35.1 1.191e+04 8.389e-10
 81.76045     35.9 1.217e+04 9.409e-10
 81.79399     36.5 1.253e+04 1.094e-09
 81.81552     38.1 1.304e+04 1.909e-09
 81.83574     38.1 1.314e+04 1.765e-09
 81.84938     37.6 1.343e+04 1.925e-09
 81.86014     38.2 1.372e+04 2.479e-09
 81.87872     37.4 1.416e+04 2.915e-09
 81.89419     36.7 1.460e+04 3.714e-09
 81.90496     37.4 1.487e+04 4.645e-09
 81.92179     37.0 1.512e+04 5.374e-09
 81.93901     36.5 1.503e+04 5.448e-09
 81.94978     37.3 1.511e+04 5.599e-09
 81.95508     37.0 1.482e+04 5.039e-09
 81.96585     36.9 1.455e+04 4.469e-09
 81.98383     36.8 1.421e+04 3.999e-09
 81.99460     37.4 1.410e+04 3.409e-09
 82.01881     37.4 1.353e+04 2.602e-09
 82.06199     37.7 1.299e+04 1.996e-09
 82.08442     38.5 1.244e+04 1.394e-09
 82.10596     39.8 1.208e+04 1.049e-09
 82.14814     40.8 1.184e+04 9.047e-10
 82.17406     42.2 1.167e+04 7.738e-10
 82.19560     43.7 1.160e+04 6.933e-10
 82.23429     45.0 1.167e+04 8.054e-10
 82.26369     46.4 1.190e+04 1.022e-09
 82.28523     48.0 1.197e+04 1.084e-09
 82.32044     49.1 1.258e+04 1.682e-09
 82.35333     50.1 1.306e+04 2.295e-09
 82.37477     50.7 1.329e+04 2.859e-09
 82.39563     51.1 1.339e+04 2.892e-09
 82.40872     51.7 1.338e+04 2.800e-09
 82.41948     52.5 1.330e+04 2.942e-09
 82.43063     53.3 1.328e+04 2.617e-09
 82.44140     53.6 1.362e+04 3.567e-09
 82.45353     54.3 1.357e+04 3.078e-09
 82.46430     55.3 1.344e+04 3.047e-09
 82.48178     55.4 1.339e+04 2.499e-09
 82.49835     55.4 1.329e+04 2.037e-09
 82.50912     55.9 1.304e+04 1.953e-09
 82.52486     55.8 1.301e+04 1.793e-09
 82.54317     55.8 1.290e+04 1.749e-09
 82.55393     56.6 1.285e+04 1.841e-09
 82.56793     56.6 1.298e+04 2.049e-09
 82.58798     56.6 1.322e+04 2.395e-09
 82.59875     57.2 1.339e+04 2.713e-09
 82.61101     56.9 1.397e+04 3.752e-09
 82.63255     56.5 1.467e+04 5.403e-09
 82.64357     56.1 1.538e+04 7.579e-09
 82.65434     57.3 1.567e+04 8.478e-09
 82.67562     57.1 1.633e+04 1.120e-08
 82.68839     56.7 1.689e+04 1.364e-08
 82.69915     57.8 1.644e+04 9.905e-09
 82.71870     56.9 1.654e+04 9.365e-09
 82.73320     55.5 1.660e+04 8.315e-09
 82.74397     54.3 1.614e+04 5.663e-09
 82.76177     51.9 1.589e+04 5.627e-09
 82.77802     50.1 1.548e+04 5.525e-09
 82.78879     49.6 1.519e+04 5.422e-09
 82.80485     49.0 1.514e+04 5.402e-09
 82.82284     48.7 1.501e+04 5.187e-09
 82.83360     49.1 1.509e+04 5.348e-09
 82.84793     49.0 1.489e+04 4.816e-09
 82.86765     49.0 1.447e+04 3.766e-09
 82.87842     49.3 1.433e+04 3.543e-09
 82.89100     49.0 1.380e+04 2.500e-09
 82.90627     48.8 1.313e+04 1.646e-09
 82.91697     49.0 1.314e+04 1.665e-09
 82.93411     49.6 1.279e+04 1.329e-09
 82.96658     50.2 1.219e+04 9.073e-10
 83.00230     51.1 1.186e+04 6.499e-10
 83.02384     52.2 1.159e+04 5.257e-10
 83.05273     53.4 1.151e+04 4.705e-10
 83.09193     54.9 1.155e+04 4.598e-10
 83.11347     56.2 1.121e+04 3.077e-10
 83.13888     57.7 1.127e+04 3.457e-10
 83.18157     59.1 1.140e+04 4.124e-10
 83.20310     60.4 1.111e+04 2.455e-10
 83.22504     61.9 1.123e+04 3.130e-10
 83.26811     63.3 1.137e+04 4.036e-10
 83.29274     64.7 1.152e+04 5.189e-10
 83.31428     66.0 1.109e+04 2.649e-10
 83.35426     67.2 1.117e+04 3.443e-10
 83.38237     68.5 1.124e+04 4.352e-10
 83.40391     69.8 1.087e+04 2.644e-10
 83.44041     71.1 1.094e+04 3.491e-10
 83.47200     72.5 1.099e+04 4.045e-10
 83.49354     74.2 1.077e+04 3.243e-10
 83.52657     75.6 1.083e+04 3.472e-10
 83.56164     77.0 1.078e+04 3.303e-10
 83.58318     78.7 1.069e+04 2.976e-10
 83.61272     80.1 1.063e+04 2.560e-10
 83.65127     81.6 1.050e+04 1.947e-10
 83.67281     83.2 1.053e+04 1.973e-10
 83.69887     84.5 1.042e+04 1.379e-10
 83.74091     86.0 1.008e+04 1.111e-10
 83.76244     87.3 1.021e+04 1.241e-10
 83.78502     88.8 9.937e+03 1.054e-10
 83.82810     90.6 9.766e+03 1.047e-10
 83.85208     92.6 9.711e+03 1.063e-10
 83.85990     93.7 9.705e+03 1.156e-10
 83.87900     93.4 9.572e+03 1.048e-10
 83.91425     95.4 9.478e+03 1.046e-10
 83.94171     97.4 9.456e+03 1.041e-10
 83.96325     98.4 9.441e+03 9.442e-11
 84.00040    100.4 9.365e+03 9.069e-11
 84.03134    102.4 9.335e+03 8.688e-11
 84.05288    103.3 9.263e+03 8.122e-11
 84.08655    105.3 9.205e+03 7.797e-11
 84.12098    107.4 9.079e+03 7.799e-11
 84.14252    108.4 9.086e+03 8.150e-11
 84.17271    110.5 9.058e+03 8.223e-11
 84.21061    112.7 9.022e+03 8.407e-11
 84.23215    113.8 9.061e+03 9.481e-11
 84.25886    115.9 9.015e+03 9.867e-11
 84.30024    118.1 8.979e+03 1.024e-10
 84.32178    119.3 9.028e+03 1.222e-10
 84.34501    121.5 8.994e+03 1.243e-10
 84.38808    123.6 8.974e+03 1.257e-10
 84.41142    125.7 8.963e+03 1.272e-10
 84.43295    127.0 8.971e+03 1.393e-10
 84.47424    129.0 8.955e+03 1.397e-10
 84.50105    131.0 8.945e+03 1.404e-10
 84.52259    132.2 8.936e+03 1.399e-10
 84.56039    134.1 8.900e+03 1.392e-10
 84.59068    136.0 8.853e+03 1.376e-10
 84.61222    137.3 8.802e+03 1.320e-10
 84.64654    139.1 8.745e+03 1.303e-10
 84.68032    141.0 8.720e+03 1.306e-10
 84.70186    142.5 8.718e+03 1.286e-10
 84.73269    144.2 8.707e+03 1.337e-10
 84.76995    145.8 8.692e+03 1.435e-10
 84.79149    147.4 8.720e+03 1.516e-10
 84.80855    148.8 8.746e+03 1.682e-10
 84.83009    149.1 8.734e+03 1.685e-10
 84.85958    150.4 8.778e+03 1.878e-10
 84.88112    151.9 8.835e+03 2.015e-10
 84.90500    153.0 8.846e+03 2.110e-10
 84.94807    154.0 8.844e+03 2.111e-10
 84.97076    155.0 8.812e+03 2.079e-10
 84.99229    156.3 8.852e+03 2.167e-10
 85.03422    157.4 8.749e+03 2.056e-10
 85.06039    158.5 8.684e+03 2.024e-10
 85.08193    159.9 8.813e+03 2.228e-10
 85.12037    161.2 8.818e+03 2.242e-10
 85.15002    162.4 8.861e+03 2.359e-10
 85.17156    163.9 9.091e+03 2.751e-10
 85.20653    164.7 9.192e+03 3.059e-10
 85.23966    165.0 9.318e+03 3.535e-10
 85.26119    166.2 9.363e+03 3.689e-10
 85.28181    165.9 9.355e+03 3.863e-10
 85.29467    165.9 9.447e+03 4.340e-10
 85.29723    166.3 9.445e+03 4.523e-10
 85.30582    167.3 9.571e+03 4.931e-10
 85.32479    167.2 9.825e+03 5.949e-10
 85.33986    166.9 1.010e+04 7.230e-10
 85.35063    167.5 1.019e+04 7.530e-10
 85.36787    167.0 1.045e+04 9.066e-10
 85.38468    166.5 1.073e+04 1.091e-09
 85.39545    166.8 1.083e+04 1.144e-09
 85.41094    166.2 1.118e+04 1.386e-09
 85.42950    165.5 1.161e+04 1.681e-09
 85.44027    165.0 1.207e+04 1.959e-09
 85.45402    163.8 1.294e+04 2.625e-09
 85.47431    162.5 1.384e+04 3.513e-09
 85.48508    161.4 1.466e+04 5.065e-09
 85.49709    160.8 1.536e+04 6.575e-09
 85.51863    160.5 1.560e+04 6.922e-09
 85.52990    159.9 1.555e+04 6.763e-09
 85.54067    159.9 1.564e+04 7.652e-09
 85.56171    159.2 1.526e+04 6.325e-09
 85.57472    158.7 1.447e+04 4.264e-09
 85.58549    158.8 1.420e+04 4.006e-09
 85.60478    158.0 1.308e+04 2.325e-09
 85.61953    156.6 1.171e+04 1.247e-09
 85.63030    156.4 1.143e+04 1.172e-09
 85.64786    155.0 1.039e+04 7.528e-10
 85.66435    154.1 9.831e+03 5.827e-10
 85.67512    155.0 9.916e+03 6.265e-10
 85.69094    155.0 9.775e+03 5.721e-10
 85.70917    155.2 9.768e+03 5.700e-10
 85.71994    156.2 9.885e+03 6.012e-10
 85.73401    156.4 9.891e+03 6.022e-10
 85.75398    156.3 9.932e+03 6.120e-10
 85.76475    157.3 1.004e+04 6.527e-10
 85.77021    157.0 1.020e+04 6.973e-10
 85.78098    157.1 1.021e+04 7.116e-10
 85.79863    156.7 1.045e+04 8.146e-10
 85.80957    156.3 1.071e+04 9.595e-10
 85.82034    157.1 1.090e+04 1.070e-09
 85.84170    156.7 1.118e+04 1.256e-09
 85.85439    156.4 1.132e+04 1.324e-09
 85.86516    157.2 1.171e+04 1.634e-09
 85.88478    156.8 1.178e+04 1.646e-09
 85.89920    156.4 1.175e+04 1.600e-09
 85.90997    157.1 1.234e+04 2.082e-09
 85.92785    156.6 1.225e+04 1.921e-09
 85.94402    156.0 1.193e+04 1.541e-09
 85.95479    156.6 1.271e+04 2.199e-09
 85.97093    155.8 1.223e+04 1.600e-09
 85.98884    154.6 1.155e+04 1.081e-09
 85.99961    155.4 1.232e+04 1.530e-09
 86.01400    153.9 1.140e+04 1.016e-09
 86.03365    152.5 1.058e+04 8.026e-10
 86.04442    153.0 1.091e+04 9.514e-10
 86.05708    152.4 1.058e+04 8.630e-10
 86.07847    152.4 1.054e+04 8.414e-10
 86.08924    152.6 1.067e+04 8.960e-10
 86.10016    152.6 1.064e+04 8.628e-10
 86.12169    152.8 1.059e+04 8.179e-10
 86.13406    153.0 1.049e+04 7.487e-10
 86.14483    153.2 1.048e+04 7.294e-10
 86.16477    153.5 1.033e+04 6.323e-10
 86.17887    153.6 1.016e+04 5.338e-10
 86.18964    153.8 1.009e+04 4.889e-10
 86.20785    153.9 9.972e+03 4.405e-10
 86.22369    154.5 9.875e+03 4.082e-10
 86.23446    154.5 9.809e+03 3.892e-10
 86.24576    154.7 9.804e+03 3.862e-10
 86.25653    155.5 9.871e+03 4.295e-10
 86.26851    156.2 9.857e+03 4.268e-10
 86.27928    156.5 9.848e+03 4.303e-10
 86.29400    157.3 9.869e+03 4.377e-10
 86.31332    158.2 9.919e+03 4.509e-10
 86.32409    158.3 1.007e+04 5.120e-10
 86.33707    159.2 1.021e+04 5.576e-10
 86.35814    160.2 1.034e+04 6.008e-10
 86.36891    160.0 1.058e+04 7.646e-10
 86.38015    161.0 1.074e+04 8.401e-10
 86.40169    162.1 1.089e+04 9.028e-10
 86.41373    163.1 1.108e+04 9.627e-10
 86.42450    163.1 1.136e+04 1.232e-09
 86.44476    163.3 1.173e+04 1.374e-09
 86.45854    162.9 1.259e+04 1.779e-09
 86.46931    161.8 1.343e+04 2.304e-09
 86.48784    160.7 1.430e+04 3.023e-09
 86.50331    158.3 1.599e+04 4.586e-09
 86.50865    155.3 1.762e+04 6.082e-09
 86.51466    151.5 1.980e+04 1.085e-08
 86.52543    148.1 2.136e+04 2.053e-08
 86.53106    145.8 2.228e+04 3.815e-08
 86.53644    143.8 2.242e+04 5.538e-08
 86.54697    142.7 2.298e+04 8.498e-08
 86.55346    140.7 2.357e+04 9.222e-08
 86.55885    138.5 2.320e+04 8.482e-08
 86.56851    136.1 2.311e+04 7.422e-08
 86.57587    134.1 2.274e+04 5.011e-08
 86.58126    132.7 2.197e+04 3.206e-08
 86.59005    130.2 2.125e+04 1.886e-08
 86.59828    126.6 2.028e+04 1.107e-08
 86.60371    127.1 1.941e+04 7.828e-09
 86.61707    120.0 1.641e+04 3.673e-09
 86.63781    114.8 1.496e+04 3.342e-09
 86.64858    113.3 1.333e+04 1.485e-09
 86.66014    111.9 1.345e+04 1.604e-09
 86.68168    110.9 1.396e+04 2.078e-09
 86.69340    110.1 1.457e+04 2.929e-09
 86.70417    110.2 1.306e+04 1.316e-09
 86.72131    109.6 1.372e+04 1.835e-09
 86.73207    109.8 1.496e+04 3.967e-09
 86.73821    109.5 1.551e+04 5.108e-09
 86.74898    109.3 1.399e+04 2.306e-09
 86.76783    108.1 1.479e+04 3.228e-09
 86.78303    105.3 1.575e+04 3.781e-09
 86.79380    103.9 1.465e+04 2.273e-09
 86.80539     99.1 1.607e+04 3.244e-09
 86.81073     99.0 1.590e+04 3.120e-09
 86.81620     97.1 1.612e+04 3.445e-09
 86.82696     94.2 1.686e+04 4.550e-09
 86.83313     92.0 1.734e+04 6.647e-09
 86.83852     92.8 1.617e+04 5.116e-09
 86.85394     91.2 1.693e+04 7.632e-09
 86.87266     89.3 1.686e+04 7.347e-09
 86.88343     87.3 1.583e+04 4.799e-09
 86.89706     82.9 1.573e+04 3.472e-09
 86.91748     75.9 1.473e+04 1.883e-09
 86.92825     74.5 1.316e+04 1.402e-09
 86.94014     67.7 1.120e+04 9.861e-10
 86.96167     64.0 1.049e+04 9.394e-10
 86.97307     62.7 1.047e+04 9.456e-10
 86.98384     63.7 1.033e+04 8.647e-10
 87.00475     62.8 1.039e+04 8.701e-10
 87.01788     61.7 1.053e+04 8.738e-10
 87.02865     62.7 1.021e+04 7.800e-10
 87.04783     61.6 1.042e+04 7.990e-10
 87.06270     60.1 1.085e+04 8.673e-10
 87.07347     61.5 1.046e+04 7.919e-10
 87.09090     60.1 1.100e+04 9.163e-10
 87.10752     58.5 1.136e+04 1.109e-09
 87.11829     60.3 1.128e+04 1.037e-09
 87.13398     58.7 1.183e+04 1.313e-09
 87.15233     57.6 1.179e+04 1.622e-09
 87.16310     58.7 1.236e+04 1.669e-09
 87.17705     57.6 1.235e+04 2.149e-09
 87.19685     57.2 1.243e+04 2.527e-09
 87.20618     56.2 1.276e+04 2.896e-09
 87.20792     56.3 1.342e+04 3.422e-09
 87.22013     56.3 1.352e+04 3.942e-09
 87.24167     56.5 1.345e+04 3.811e-09
 87.25274     57.1 1.319e+04 3.242e-09
 87.26351     57.6 1.368e+04 4.272e-09
 87.28474     58.0 1.314e+04 3.117e-09
 87.29765     57.5 1.189e+04 1.439e-09
 87.30842     58.2 1.266e+04 2.231e-09
 87.32782     57.7 1.180e+04 1.468e-09
 87.36022     57.4 1.057e+04 7.794e-10
 87.38738     56.3 8.875e+03 3.442e-10
 87.40892     57.0 8.948e+03 3.653e-10
 87.44647     57.1 8.209e+03 2.244e-10
 87.47702     58.0 7.955e+03 1.716e-10
 87.49855     58.9 8.139e+03 2.106e-10
 87.53263     60.4 8.034e+03 1.852e-10
 87.56665     61.8 7.967e+03 1.642e-10
 87.58819     62.9 8.218e+03 2.243e-10
 87.61878     64.1 8.184e+03 2.086e-10
 87.65628     65.3 8.177e+03 1.986e-10
 87.67779     66.5 8.472e+03 2.677e-10
 87.70490     66.8 8.526e+03 2.762e-10
 87.74592     68.0 8.393e+03 2.269e-10
 87.76745     69.0 8.599e+03 2.795e-10
 87.79108     70.2 8.367e+03 1.993e-10
 87.83416     71.1 8.145e+03 1.305e-10
 87.85709     71.8 7.994e+03 9.846e-11
 87.87863     72.8 8.100e+03 1.235e-10
 87.92031     73.7 8.082e+03 1.184e-10
 87.94672     74.7 8.117e+03 1.222e-10
 87.96826     76.0 8.260e+03 1.555e-10
 88.00646     77.0 8.415e+03 1.701e-10
 88.03636     77.9 8.788e+03 2.127e-10
 88.05789     79.4 8.905e+03 2.452e-10
 88.09261     79.9 9.373e+03 3.135e-10
 88.12482     80.5 9.605e+03 3.636e-10
 88.13656     80.5 9.850e+03 4.211e-10
 88.14733     81.5 9.871e+03 4.282e-10
 88.15871     81.2 1.030e+04 5.704e-10
 88.16948     80.9 1.045e+04 6.140e-10
 88.18138     81.0 1.085e+04 7.970e-10
 88.19215     81.8 1.087e+04 7.999e-10
 88.21088     81.8 1.129e+04 1.029e-09
 88.22620     81.7 1.178e+04 1.299e-09
 88.23697     82.6 1.184e+04 1.359e-09
 88.25395     82.3 1.248e+04 1.736e-09
 88.27101     81.8 1.317e+04 2.174e-09
 88.28178     82.8 1.334e+04 2.402e-09
 88.29703     82.3 1.403e+04 2.997e-09
 88.31583     81.8 1.457e+04 3.569e-09
 88.32660     83.0 1.495e+04 4.098e-09
 88.34010     82.3 1.555e+04 4.629e-09
 88.36065     81.3 1.605e+04 4.900e-09
 88.37142     82.2 1.664e+04 5.982e-09
 88.38318     80.7 1.728e+04 6.746e-09
 88.40472     79.1 1.777e+04 8.138e-09
 88.41623     77.7 1.801e+04 9.592e-09
 88.42700     78.1 1.885e+04 1.352e-08
 88.44779     77.2 1.875e+04 1.406e-08
 88.46105     76.8 1.837e+04 1.250e-08
 88.47182     76.9 1.940e+04 1.743e-08
 88.49087     75.2 1.952e+04 1.337e-08
 88.50587     71.5 2.054e+04 1.094e-08
 88.51120     70.2 2.142e+04 1.203e-08
 88.51769     69.1 2.154e+04 1.149e-08
 88.52818     65.8 2.165e+04 1.172e-08
 88.53356     64.6 2.212e+04 1.525e-08
 88.53923     62.6 2.164e+04 1.565e-08
 88.55000     61.5 2.094e+04 1.603e-08
 88.55597     60.5 2.040e+04 1.635e-08
 88.56135     60.1 2.042e+04 1.881e-08
 88.57154     59.8 1.999e+04 1.909e-08
 88.57838     59.7 1.959e+04 1.753e-08
 88.58376     59.3 1.952e+04 1.800e-08
 88.59545     59.9 1.920e+04 1.639e-08
 88.60627     59.3 1.879e+04 1.411e-08
 88.62010     59.5 1.744e+04 8.612e-09
 88.63426     59.3 1.630e+04 5.130e-09
 88.64371     57.7 1.539e+04 3.631e-09
 88.65109     56.8 1.483e+04 2.816e-09
 88.66317     56.2 1.402e+04 1.824e-09
 88.68471     56.0 1.330e+04 1.299e-09
 88.69590     56.1 1.279e+04 1.043e-09
 88.70677     55.3 1.259e+04 9.583e-10
 88.73875     56.6 1.181e+04 6.733e-10
 88.77496     58.2 1.115e+04 4.600e-10
 88.79650     58.2 1.108e+04 4.534e-10
 88.82490     59.7 1.052e+04 2.974e-10
 88.86460     61.2 9.814e+03 1.427e-10
 88.88613     60.9 9.875e+03 1.508e-10
 88.91105     61.3 9.663e+03 9.068e-11
 88.95413     61.8 9.368e+03 7.542e-11
 88.99721     63.6 9.432e+03 8.998e-11
 89.04028     65.3 9.327e+03 8.725e-11
 89.06540     67.2 9.274e+03 7.987e-11
 89.08694     68.1 9.408e+03 1.088e-10
 89.12643     70.1 9.328e+03 8.236e-11
 89.15503     71.8 9.245e+03 6.643e-11
 89.17657     72.7 9.340e+03 7.918e-11
 89.21259     74.3 9.273e+03 7.090e-11
 89.24467     76.1 9.287e+03 7.485e-11
 89.26621     77.0 9.360e+03 9.280e-11
 89.29874     78.7 9.424e+03 1.085e-10
 89.33430     80.5 9.620e+03 1.441e-10
 89.35584     81.4 9.963e+03 1.900e-10
 89.38489     82.9 1.024e+04 2.359e-10
 89.42394     84.1 1.051e+04 2.809e-10
 89.44538     84.3 1.069e+04 3.210e-10
 89.46008     84.7 1.086e+04 3.668e-10
 89.47933     84.8 1.104e+04 4.372e-10
 89.49009     84.8 1.120e+04 5.258e-10
 89.50315     84.9 1.140e+04 6.771e-10
 89.52414     85.1 1.163e+04 8.863e-10
 89.53491     85.2 1.210e+04 1.178e-09
 89.54623     85.6 1.238e+04 1.470e-09
 89.56777     86.2 1.265e+04 1.715e-09
 89.57973     86.7 1.283e+04 1.793e-09
 89.58654     86.7 1.329e+04 2.131e-09
 89.59612     86.3 1.387e+04 3.286e-09
 89.61084     86.7 1.381e+04 3.136e-09
 89.62455     86.9 1.368e+04 2.811e-09
 89.63531     86.7 1.408e+04 3.250e-09
 89.65392     86.6 1.382e+04 2.756e-09
 89.66936     86.4 1.355e+04 2.386e-09
 89.68013     86.0 1.379e+04 2.740e-09
 89.69699     86.1 1.344e+04 2.486e-09
 89.71418     86.6 1.325e+04 2.434e-09
 89.72495     86.7 1.354e+04 2.753e-09
 89.74007     87.3 1.360e+04 2.811e-09
 89.75900     87.5 1.375e+04 3.033e-09
 89.76976     87.5 1.383e+04 3.068e-09
 89.78315     88.0 1.408e+04 3.623e-09
 89.80381     88.6 1.472e+04 4.847e-09
 89.81458     88.8 1.465e+04 4.577e-09
 89.82622     89.3 1.541e+04 6.376e-09
 89.84776     90.0 1.606e+04 8.521e-09
 89.85940     90.7 1.656e+04 1.044e-08
 89.87017     90.8 1.610e+04 8.364e-09
 89.89084     91.3 1.659e+04 1.025e-08
 89.90422     91.7 1.691e+04 1.140e-08
 89.91498     91.3 1.670e+04 9.961e-09
 89.93391     91.7 1.697e+04 1.132e-08
 89.94903     92.1 1.709e+04 1.181e-08
 89.95980     91.8 1.687e+04 1.090e-08
 89.97699     92.2 1.712e+04 1.180e-08
 89.99385     92.5 1.727e+04 1.211e-08
 90.00462     92.6 1.692e+04 1.046e-08
 90.02006     92.9 1.703e+04 1.021e-08
 90.03867     93.0 1.709e+04 9.009e-09
 90.04943     93.1 1.637e+04 5.875e-09
 90.06089     93.0 1.629e+04 4.627e-09
 90.07166     91.2 1.486e+04 1.845e-09
 90.08348     90.1 1.392e+04 1.428e-09
 90.09425     89.4 1.298e+04 9.855e-10
 90.10622     89.4 1.271e+04 9.286e-10
 90.12775     89.2 1.227e+04 8.158e-10
 90.16016     90.1 1.165e+04 6.946e-10
 90.18408     91.2 1.113e+04 5.403e-10
 90.20562     91.6 1.060e+04 3.734e-10
 90.24641     93.3 1.049e+04 3.203e-10
 90.27371     95.0 1.039e+04 2.765e-10
 90.29525     95.8 1.018e+04 2.362e-10
 90.33256     97.6 1.021e+04 2.397e-10
 90.36335     99.1 1.031e+04 2.672e-10
 90.38489     99.9 1.020e+04 2.377e-10
 90.41871    101.3 1.041e+04 3.190e-10
 90.45298    102.7 1.067e+04 4.651e-10
 90.47452    103.4 1.058e+04 4.050e-10
 90.50486    104.5 1.085e+04 5.640e-10
 90.53663    105.3 1.101e+04 6.668e-10
 90.55285    104.7 1.101e+04 6.662e-10
 90.56415    105.2 1.096e+04 6.131e-10
 90.59101    105.6 1.105e+04 6.895e-10
 90.63225    105.8 1.098e+04 6.934e-10
 90.65379    106.2 1.105e+04 7.347e-10
 90.67717    106.1 1.100e+04 7.305e-10
 90.72024    106.1 1.077e+04 6.623e-10
 90.74342    106.3 1.038e+04 4.975e-10
 90.76496    106.7 1.048e+04 5.252e-10
 90.80639    107.0 1.003e+04 3.507e-10
 90.83305    107.1 9.610e+03 2.279e-10
 90.85459    107.8 9.658e+03 2.334e-10
 90.89255    108.2 9.312e+03 1.930e-10
 90.92269    109.1 9.288e+03 1.937e-10
 90.94423    110.0 9.389e+03 2.041e-10
 90.97870    111.2 9.398e+03 2.212e-10
 91.01232    112.3 9.495e+03 2.578e-10
 91.03386    113.1 9.587e+03 2.745e-10
 91.06485    114.1 9.766e+03 3.422e-10
 91.10195    115.2 9.930e+03 4.069e-10
 91.12349    115.9 1.005e+04 4.559e-10
 91.15100    116.9 1.019e+04 5.151e-10
 91.19159    117.9 1.028e+04 5.215e-10
 91.21313    118.3 1.050e+04 6.033e-10
 91.23715    118.9 1.051e+04 5.965e-10
 91.28023    119.4 1.053e+04 5.816e-10
 91.30276    119.7 1.060e+04 5.789e-10
 91.32430    119.5 1.070e+04 5.938e-10
 91.36638    119.6 1.066e+04 5.212e-10
 91.39239    119.7 1.064e+04 4.414e-10
 91.41393    119.3 1.042e+04 3.120e-10
 91.45253    119.0 1.021e+04 2.322e-10
 91.48203    118.8 1.005e+04 2.193e-10
 91.49568    118.7 9.919e+03 2.125e-10
 91.50926    118.3 9.928e+03 2.363e-10
 91.53868    118.8 9.925e+03 2.407e-10
 91.57166    119.7 9.977e+03 2.597e-10
 91.59320    120.4 9.976e+03 2.666e-10
 91.62484    121.7 1.013e+04 3.103e-10
 91.66129    123.0 1.035e+04 3.653e-10
 91.68283    123.5 1.039e+04 3.969e-10
 91.70012    124.2 1.044e+04 4.435e-10
 91.71668    124.9 1.053e+04 4.978e-10
 91.72745    125.7 1.067e+04 5.857e-10
 91.74310    126.5 1.084e+04 6.483e-10
 91.76150    127.1 1.100e+04 6.793e-10
 91.77227    127.7 1.135e+04 7.857e-10
 91.78618    128.1 1.138e+04 7.813e-10
 91.80632    128.4 1.139e+04 7.549e-10
 91.81709    128.8 1.191e+04 9.346e-10
 91.82925    129.0 1.184e+04 8.375e-10
 91.85079    129.0 1.171e+04 7.338e-10
 91.86190    129.0 1.154e+04 6.477e-10
 91.87267    129.3 1.206e+04 7.728e-10
 91.89387    129.2 1.185e+04 6.682e-10
 91.90672    129.2 1.164e+04 6.076e-10
 91.91749    129.1 1.219e+04 7.248e-10
 91.93694    129.0 1.203e+04 7.018e-10
 91.95154    129.0 1.202e+04 7.073e-10
 91.96231    128.6 1.267e+04 9.049e-10
 91.97384    128.4 1.270e+04 9.489e-10
 91.98461    128.6 1.212e+04 7.122e-10
 91.99635    128.3 1.240e+04 7.962e-10
 92.00712    127.8 1.297e+04 1.192e-09
 92.02309    127.0 1.345e+04 1.544e-09
 92.04117    126.2 1.390e+04 2.203e-09
 92.05194    125.6 1.475e+04 3.426e-09
 92.06617    125.6 1.531e+04 4.853e-09
 92.08599    125.8 1.581e+04 6.359e-09
 92.09676    125.6 1.657e+04 8.227e-09
 92.10924    125.3 1.661e+04 8.156e-09
 92.13078    124.9 1.640e+04 7.142e-09
 92.15232    123.3 1.581e+04 4.897e-09
 92.17386    121.9 1.497e+04 3.002e-09
 92.18639    119.4 1.397e+04 1.803e-09
 92.19716    117.8 1.383e+04 1.851e-09
 92.21693    115.1 1.293e+04 1.227e-09
 92.23121    112.6 1.223e+04 1.069e-09
 92.24198    112.7 1.241e+04 1.259e-09
 92.26001    110.9 1.234e+04 1.248e-09
 92.27602    109.1 1.242e+04 1.309e-09
 92.28679    109.6 1.266e+04 1.475e-09
 92.30309    107.8 1.275e+04 1.578e-09
 92.32084    106.2 1.289e+04 1.819e-09
 92.33161    106.6 1.288e+04 1.793e-09
 92.34616    105.3 1.292e+04 1.994e-09
 92.36566    104.4 1.299e+04 2.246e-09
 92.37643    104.8 1.285e+04 2.083e-09
 92.38924    104.2 1.287e+04 2.054e-09
 92.41047    103.8 1.294e+04 1.907e-09
 92.42124    104.3 1.300e+04 1.876e-09
 92.43231    103.5 1.311e+04 1.540e-09
 92.44939    101.5 1.321e+04 1.101e-09
 92.46016    103.3 1.335e+04 2.059e-09
 92.46606    101.7 1.355e+04 1.425e-09
 92.47683    100.8 1.380e+04 1.449e-09
 92.49693     96.7 1.356e+04 8.381e-10
 92.51088     91.8 1.228e+04 5.053e-10
 92.52165     88.6 1.248e+04 6.252e-10
 92.54000     85.4 1.107e+04 5.554e-10
 92.55569     84.3 1.070e+04 5.371e-10
 92.56646     82.5 1.110e+04 6.698e-10
 92.58308     82.1 1.096e+04 6.545e-10
 92.60061     82.1 1.094e+04 6.535e-10
 92.62224     77.7 1.213e+04 8.788e-10
 92.65866     78.1 1.152e+04 7.564e-10
 92.69034     78.9 1.105e+04 6.849e-10
 92.71188     76.1 1.107e+04 8.023e-10
 92.74481     77.8 1.071e+04 7.373e-10
 92.77997     79.6 1.041e+04 6.636e-10
 92.80151     79.1 1.036e+04 6.905e-10
 92.83096     81.0 1.004e+04 5.723e-10
 92.86961     82.8 9.678e+03 4.603e-10
 92.89115     82.7 9.554e+03 4.360e-10
 92.91711     84.5 9.250e+03 3.616e-10
 92.95924     86.3 8.972e+03 3.085e-10
 92.98078     86.5 8.847e+03 2.947e-10
 93.00327     88.5 8.679e+03 2.666e-10
 93.04634     90.7 8.508e+03 2.361e-10
 93.07041     93.0 8.345e+03 2.040e-10
 93.09195     93.2 8.296e+03 1.998e-10
 93.13249     95.3 8.174e+03 1.730e-10
 93.16005     97.4 8.055e+03 1.505e-10
 93.18158     97.4 8.046e+03 1.565e-10
 93.21864     99.4 8.024e+03 1.485e-10
 93.24968    101.3 8.038e+03 1.491e-10
 93.27122    101.1 8.166e+03 1.796e-10
 93.30480    102.6 8.373e+03 2.030e-10
 93.33931    103.8 8.732e+03 2.483e-10
 93.36085    103.0 9.153e+03 3.559e-10
 93.38008    103.7 9.375e+03 3.699e-10
 93.39470    103.8 9.567e+03 4.067e-10
 93.40443    102.8 1.001e+04 5.847e-10
 93.41125    101.1 1.068e+04 8.643e-10
 93.42306    100.9 1.102e+04 9.873e-10
 93.43952    100.6 1.136e+04 1.115e-09
 93.45029     99.3 1.215e+04 1.449e-09
 93.46614     99.1 1.242e+04 1.580e-09
 93.48434     98.7 1.266e+04 1.684e-09
 93.49511     97.3 1.288e+04 1.753e-09
 93.50921     96.8 1.279e+04 1.690e-09
 93.52915     96.4 1.265e+04 1.584e-09
 93.54002     93.6 1.195e+04 1.285e-09
 93.56325     92.6 1.114e+04 9.602e-10
 93.60633     92.1 1.034e+04 6.947e-10
 93.62975     92.3 9.790e+03 5.041e-10
 93.65129     90.8 9.074e+03 3.034e-10
 93.69248     90.9 8.764e+03 2.156e-10
 93.71939     90.7 8.743e+03 1.998e-10
 93.74092     89.0 8.350e+03 1.332e-10
 93.77863     87.8 8.694e+03 1.701e-10
 93.80902     86.2 9.277e+03 2.383e-10
 93.81969     85.4 8.972e+03 2.132e-10
 93.83228     84.5 9.363e+03 2.692e-10
 93.85364     82.1 1.018e+04 4.448e-10
 93.86441     80.9 1.045e+04 5.493e-10
 93.87536     78.3 1.126e+04 9.889e-10
 93.88679     76.1 1.194e+04 1.536e-09
 93.89756     76.0 1.187e+04 1.496e-09
 93.90923     74.0 1.225e+04 1.605e-09
 93.92000     73.6 1.233e+04 1.724e-09
 93.93997     71.5 1.227e+04 1.598e-09
 93.95404     69.2 1.197e+04 1.249e-09
 93.96481     68.9 1.199e+04 1.202e-09
 93.98305     65.9 1.146e+04 7.962e-10
 93.99886     62.6 1.085e+04 5.760e-10
 94.00963     62.2 1.068e+04 5.388e-10
 94.02612     58.8 1.056e+04 5.301e-10
 94.04368     57.0 1.045e+04 5.306e-10
 94.05445     56.8 1.046e+04 5.346e-10
 94.06920     55.2 1.051e+04 5.784e-10
 94.08849     53.6 1.081e+04 6.858e-10
 94.09936     54.4 1.048e+04 5.955e-10
 94.11237     52.7 1.066e+04 7.280e-10
 94.13331     51.4 1.111e+04 9.697e-10
 94.14408     52.1 1.094e+04 8.460e-10
 94.15535     50.9 1.130e+04 1.016e-09
 94.17689     49.6 1.186e+04 1.180e-09
 94.18890     48.0 1.231e+04 1.298e-09
 94.19967     49.5 1.158e+04 9.830e-10
 94.21996     48.0 1.197e+04 1.082e-09
 94.23371     46.6 1.207e+04 1.170e-09
 94.24448     47.9 1.188e+04 1.006e-09
 94.26304     46.6 1.188e+04 1.157e-09
 94.27853     45.9 1.183e+04 1.275e-09
 94.28930     46.7 1.201e+04 1.314e-09
 94.30612     46.2 1.208e+04 1.493e-09
 94.32335     45.9 1.221e+04 1.483e-09
 94.33412     46.7 1.262e+04 1.898e-09
 94.34919     46.4 1.271e+04 1.863e-09
 94.36234     45.8 1.273e+04 1.670e-09
 94.37054     46.6 1.267e+04 1.644e-09
 94.37893     47.7 1.321e+04 2.235e-09
 94.39227     46.5 1.315e+04 1.913e-09
 94.41298     44.3 1.320e+04 1.919e-09
 94.42375     44.7 1.392e+04 2.484e-09
 94.43534     40.8 1.433e+04 2.937e-09
 94.45688     37.9 1.463e+04 4.126e-09
 94.46857     37.9 1.515e+04 5.938e-09
 94.47934     38.5 1.506e+04 5.748e-09
 94.49996     39.3 1.536e+04 6.687e-09
 94.51338     40.0 1.547e+04 6.645e-09
 94.52415     40.1 1.482e+04 4.538e-09
 94.54303     39.8 1.469e+04 3.626e-09
 94.55820     38.7 1.425e+04 2.690e-09
 94.56897     36.2 1.272e+04 1.671e-09
 94.58611     35.4 1.195e+04 1.399e-09
 94.60302     34.8 1.157e+04 1.248e-09
 94.61379     33.7 1.073e+04 1.018e-09
 94.63716     33.4 1.082e+04 9.672e-10
 94.65870     33.8 1.070e+04 9.458e-10
 94.67226     34.2 1.053e+04 8.690e-10
 94.69265     34.4 1.042e+04 8.139e-10
 94.70342     34.4 1.051e+04 8.493e-10
 94.71534     34.7 1.033e+04 7.819e-10
 94.73687     35.0 1.018e+04 7.203e-10
 94.74824     35.3 1.010e+04 6.748e-10
 94.75900     35.3 1.021e+04 7.182e-10
 94.77995     35.5 1.014e+04 6.701e-10
 94.79305     35.7 1.016e+04 6.605e-10
 94.80382     35.6 1.032e+04 7.275e-10
 94.82303     35.2 1.040e+04 7.465e-10
 94.83787     34.5 1.060e+04 8.194e-10
 94.84864     33.0 1.039e+04 8.710e-10
 94.86610     32.8 1.051e+04 9.963e-10
 94.88269     32.9 1.064e+04 1.134e-09
 94.89346     33.3 1.069e+04 1.172e-09
 94.90918     33.7 1.087e+04 1.230e-09
 94.92750     33.8 1.090e+04 1.208e-09
 94.93827     34.0 1.089e+04 1.180e-09
 94.95225     33.8 1.083e+04 1.067e-09
 94.97232     32.8 1.070e+04 9.311e-10
 94.98309     32.9 1.065e+04 8.935e-10
 94.99533     31.1 1.046e+04 8.182e-10
 95.01687     28.9 1.056e+04 8.585e-10
 95.02791     26.8 1.082e+04 1.011e-09
 95.03867     27.1 1.072e+04 9.735e-10
 95.05994     26.1 1.095e+04 1.173e-09
 95.07272     24.7 1.167e+04 1.469e-09
 95.08349     25.1 1.180e+04 1.428e-09
 95.10302     19.3 1.505e+04 2.939e-09
 95.11754     14.7 1.625e+04 4.861e-09
 95.12831     15.1 1.589e+04 4.364e-09
 95.14610     13.4 1.533e+04 6.241e-09
 95.16236     13.2 1.582e+04 6.504e-09
 95.17313     14.4 1.539e+04 5.499e-09
 95.18917     12.7 1.682e+04 4.044e-09
 95.20717      7.9 1.458e+04 2.121e-09
 95.21794      8.5 1.442e+04 1.916e-09
 95.23225      3.2 1.112e+04 1.040e-09
 95.25199      3.4 1.086e+04 9.374e-10
 95.26276      4.2 1.097e+04 9.626e-10
 95.28614      3.4 1.037e+04 7.218e-10
 95.31357      5.4 9.615e+03 4.240e-10
 95.33516      6.7 9.852e+03 5.019e-10
 95.37244      6.2 9.545e+03 3.992e-10
 95.39740      6.0 9.507e+03 3.959e-10
 95.41894      7.7 9.594e+03 3.745e-10
 95.45859      7.4 9.819e+03 4.791e-10
 95.48704      7.6 1.031e+04 6.265e-10
 95.49771      7.9 1.034e+04 6.154e-10
 95.51224      7.7 1.043e+04 6.369e-10
 95.53166      7.1 1.093e+04 7.799e-10
 95.54243      7.1 1.118e+04 8.967e-10
 95.55532      6.5 1.156e+04 1.011e-09
 95.57648      5.8 1.170e+04 1.068e-09
 95.58725      6.6 1.183e+04 1.189e-09
 95.59839      6.1 1.165e+04 1.048e-09
 95.63080      5.9 1.141e+04 8.843e-10
 95.66631      3.7 1.130e+04 6.325e-10
 95.68784      4.1 1.082e+04 3.976e-10
 95.71705      0.7 1.046e+04 3.586e-10
 95.75594     -1.3 1.084e+04 6.034e-10
 95.77748      0.2 1.109e+04 6.306e-10
 95.80320     -0.7 1.221e+04 1.193e-09
 95.83541     -1.8 1.292e+04 1.719e-09
 95.85615     -3.5 1.350e+04 2.174e-09
 95.86692     -3.8 1.405e+04 2.658e-09
 95.87839     -5.4 1.457e+04 3.345e-09
 95.89992     -7.0 1.488e+04 4.046e-09
 95.91173     -8.6 1.542e+04 4.992e-09
 95.92250    -13.0 1.742e+04 6.762e-09
 95.93409    -13.5 1.788e+04 7.353e-09
 95.93943    -16.2 1.887e+04 8.703e-09
 95.94829    -19.0 2.008e+04 1.039e-08
 95.95650    -22.3 2.144e+04 1.359e-08
 95.96732    -28.0 2.201e+04 1.767e-08
 95.97891    -29.1 2.155e+04 1.818e-08
 95.98424    -31.8 2.149e+04 1.743e-08
 95.99136    -33.6 2.137e+04 1.850e-08
 96.00127    -34.8 2.126e+04 1.863e-08
 96.01209    -39.5 2.123e+04 1.295e-08
 96.02915    -41.8 2.027e+04 9.393e-09
 96.04618    -43.7 1.926e+04 6.304e-09
 96.05695    -48.3 1.634e+04 3.471e-09
 96.07223    -49.0 1.479e+04 2.443e-09
 96.09100    -49.5 1.340e+04 1.779e-09
 96.10177    -50.9 1.239e+04 1.529e-09
 96.11530    -50.3 1.210e+04 1.299e-09
 96.13582    -49.7 1.199e+04 1.169e-09
 96.14659    -51.1 1.351e+04 1.542e-09
 96.15838    -50.6 1.350e+04 1.500e-09
 96.17992    -50.0 1.369e+04 1.493e-09
 96.19140    -49.6 1.400e+04 1.605e-09
 96.20217    -51.6 1.494e+04 2.356e-09
 96.22299    -51.3 1.522e+04 2.721e-09
 96.23622    -50.9 1.551e+04 3.225e-09
 96.24699    -50.9 1.514e+04 4.698e-09
 96.26452    -50.5 1.563e+04 5.415e-09
 96.27529    -51.2 1.520e+04 4.860e-09
 96.28104    -50.9 1.587e+04 5.964e-09
 96.29180    -50.8 1.565e+04 7.441e-09
 96.30915    -50.6 1.609e+04 8.532e-09
 96.32585    -50.2 1.639e+04 9.054e-09
 96.33662    -50.0 1.594e+04 8.360e-09
 96.35222    -50.0 1.598e+04 8.391e-09
 96.37067    -49.9 1.589e+04 7.498e-09
 96.38144    -50.3 1.493e+04 5.497e-09
 96.39530    -50.7 1.451e+04 4.525e-09
 96.41549    -51.3 1.397e+04 3.688e-09
 96.42625    -52.0 1.363e+04 2.672e-09
 96.43837    -52.3 1.319e+04 2.294e-09
 96.45991    -52.3 1.278e+04 1.977e-09
 96.47107    -52.1 1.240e+04 1.713e-09
 96.48184    -52.4 1.200e+04 1.273e-09
 96.50299    -52.1 1.163e+04 1.083e-09
 96.51589    -51.8 1.128e+04 8.907e-10
 96.52666    -52.6 1.058e+04 6.272e-10
 96.54606    -52.3 1.023e+04 5.063e-10
 96.56071    -52.1 9.888e+03 4.054e-10
 96.57147    -52.3 9.579e+03 3.542e-10
 96.58914    -52.0 9.495e+03 3.142e-10
 96.60562    -51.5 9.531e+03 2.996e-10
 96.62726    -51.1 9.254e+03 3.051e-10
 96.66472    -49.9 9.158e+03 2.861e-10
 96.69535    -48.9 9.228e+03 2.895e-10
 96.71689    -47.8 9.129e+03 3.118e-10
 96.75087    -47.0 9.620e+03 4.207e-10
 96.78498    -46.0 1.022e+04 6.115e-10
 96.80652    -44.4 9.814e+03 5.097e-10
 96.83702    -43.2 1.023e+04 6.249e-10
 96.87462    -42.2 1.055e+04 7.144e-10
 96.89616    -40.8 9.740e+03 4.460e-10
 96.92317    -39.9 9.964e+03 4.778e-10
 96.96425    -39.2 1.038e+04 6.132e-10
 96.98579    -38.2 9.583e+03 3.740e-10
 97.00932    -37.8 1.067e+04 6.659e-10
 97.04153    -38.0 1.148e+04 1.019e-09
 97.06297    -39.8 1.343e+04 1.897e-09
 97.07523    -41.3 1.542e+04 4.251e-09
 97.08600    -39.5 1.484e+04 3.334e-09
 97.10605    -40.2 1.662e+04 7.826e-09
 97.12004    -39.7 1.784e+04 1.425e-08
 97.13081    -39.1 1.783e+04 1.237e-08
 97.14913    -39.0 1.889e+04 2.006e-08
 97.16481    -38.4 1.916e+04 2.207e-08
 97.17015    -39.7 2.069e+04 3.275e-08
 97.17595    -39.3 2.099e+04 3.544e-08
 97.18672    -39.2 2.096e+04 3.513e-08
 97.19256    -39.0 2.070e+04 2.689e-08
 97.19794    -40.1 2.056e+04 5.959e-08
 97.20826    -38.9 2.002e+04 3.805e-08
 97.21497    -37.7 1.974e+04 1.785e-08
 97.22035    -37.4 1.895e+04 2.951e-08
 97.22628    -36.9 1.911e+04 9.743e-09
 97.23167    -37.8 1.983e+04 8.083e-09
 97.23737    -42.2 1.750e+04 3.218e-09
 97.24276    -41.1 1.824e+04 4.625e-09
 97.25133    -45.1 1.432e+04 2.150e-09
 97.25978    -46.1 1.229e+04 1.399e-09
 97.26517    -45.9 1.341e+04 1.861e-09
 97.27830    -46.1 1.251e+04 1.356e-09
 97.29931    -45.9 1.074e+04 7.266e-10
 97.31008    -45.7 1.241e+04 9.740e-10
 97.32143    -45.7 1.096e+04 6.754e-10
 97.34297    -44.5 1.066e+04 5.899e-10
 97.35490    -43.3 1.062e+04 5.531e-10
 97.36567    -43.5 1.149e+04 8.440e-10
 97.38604    -42.3 1.146e+04 8.410e-10
 97.39971    -41.2 1.146e+04 8.577e-10
 97.41048    -41.5 1.247e+04 1.434e-09
 97.42912    -40.4 1.258e+04 1.525e-09
 97.44453    -39.3 1.266e+04 1.577e-09
 97.45530    -39.2 1.343e+04 2.539e-09
 97.47219    -38.0 1.358e+04 2.665e-09
 97.48935    -37.0 1.361e+04 2.676e-09
 97.50012    -36.5 1.418e+04 3.685e-09
 97.51527    -35.4 1.416e+04 3.653e-09
 97.53417    -34.2 1.389e+04 3.169e-09
 97.54493    -33.9 1.424e+04 3.784e-09
 97.55835    -32.7 1.398e+04 3.265e-09
 97.57898    -31.9 1.358e+04 2.556e-09
 97.58975    -31.4 1.373e+04 2.868e-09
 97.60142    -30.7 1.347e+04 2.336e-09
 97.62296    -30.1 1.311e+04 1.844e-09
 97.63457    -29.8 1.261e+04 1.463e-09
 97.64534    -29.1 1.308e+04 1.676e-09
 97.66604    -28.9 1.260e+04 1.319e-09
 97.67938    -28.9 1.207e+04 1.059e-09
 97.69015    -28.3 1.273e+04 1.193e-09
 97.70192    -28.7 1.208e+04 9.330e-10
 97.71269    -27.7 1.285e+04 1.339e-09
 97.72420    -28.2 1.219e+04 1.058e-09
 97.73497    -27.6 1.275e+04 1.188e-09
 97.75219    -28.6 1.177e+04 8.806e-10
 97.76902    -29.6 1.108e+04 6.890e-10
 97.77979    -30.0 1.132e+04 6.675e-10
 97.79526    -31.5 1.115e+04 5.815e-10
 97.81384    -32.6 1.114e+04 5.579e-10
 97.82460    -33.8 1.122e+04 5.595e-10
 97.83834    -34.8 1.121e+04 5.508e-10
 97.85865    -35.7 1.121e+04 5.823e-10
 97.86942    -37.6 1.192e+04 6.647e-10
 97.88142    -39.3 1.283e+04 8.579e-10
 97.90295    -41.0 1.410e+04 1.181e-09
 97.91424    -42.1 1.505e+04 1.596e-09
 97.92501    -46.9 1.658e+04 3.430e-09
 97.94603    -46.8 1.575e+04 3.595e-09
 97.95905    -46.1 1.492e+04 3.487e-09
 97.96982    -45.4 1.444e+04 5.184e-09
 97.98911    -45.0 1.379e+04 4.020e-09
 98.00387    -45.0 1.318e+04 3.112e-09
 98.01464    -44.9 1.323e+04 2.808e-09
 98.03218    -45.0 1.276e+04 2.220e-09
 98.04869    -45.1 1.250e+04 1.925e-09
 98.05946    -45.9 1.249e+04 1.767e-09
 98.08283    -45.3 1.233e+04 1.731e-09
 98.10447    -46.8 1.203e+04 1.125e-09
 98.12930    -45.7 1.195e+04 1.112e-09
 98.16690    -45.1 1.178e+04 1.065e-09
 98.18843    -45.5 1.196e+04 1.101e-09
 98.21545    -46.4 1.106e+04 7.649e-10
 98.25853    -46.2 1.075e+04 6.224e-10
 98.28374    -46.0 1.035e+04 4.416e-10
 98.30527    -46.6 1.026e+04 4.385e-10
 98.34468    -46.4 9.927e+03 3.182e-10
 98.37337    -46.2 9.519e+03 2.079e-10
 98.39491    -45.9 9.741e+03 3.289e-10
 98.43083    -45.6 9.455e+03 2.204e-10
 98.46300    -45.7 9.391e+03 1.647e-10
 98.48454    -47.1 1.110e+04 4.031e-10
 98.51698    -47.9 1.153e+04 4.558e-10
 98.55264    -48.0 1.149e+04 5.693e-10
 98.57408    -49.6 1.302e+04 1.184e-09
 98.59217    -49.3 1.284e+04 1.184e-09
 98.60803    -49.1 1.272e+04 1.281e-09
 98.61880    -49.5 1.337e+04 1.658e-09
 98.64217    -49.8 1.277e+04 1.329e-09
 98.66371    -51.7 1.277e+04 1.949e-09
 98.67832    -51.6 1.256e+04 1.793e-09
 98.69766    -51.4 1.241e+04 1.699e-09
 98.70843    -51.7 1.242e+04 1.832e-09
 98.72140    -51.3 1.237e+04 1.790e-09
 98.74248    -50.8 1.234e+04 1.751e-09
 98.75325    -51.3 1.191e+04 1.693e-09
 98.76447    -50.9 1.182e+04 1.680e-09
 98.78601    -50.2 1.172e+04 1.622e-09
 98.79806    -49.6 1.156e+04 1.513e-09
 98.80883    -49.6 1.113e+04 1.231e-09
 98.82909    -48.9 1.097e+04 1.203e-09
 98.84288    -48.3 1.086e+04 1.129e-09
 98.85365    -48.3 1.063e+04 8.373e-10
 98.87216    -47.8 1.051e+04 8.603e-10
 98.88770    -47.2 1.047e+04 8.699e-10
 98.89847    -47.2 1.040e+04 6.638e-10
 98.91524    -46.6 1.040e+04 7.592e-10
 98.93251    -45.9 1.045e+04 8.759e-10
 98.94328    -45.8 1.034e+04 6.836e-10
 98.95831    -45.0 1.054e+04 8.588e-10
 98.97733    -44.3 1.102e+04 1.123e-09
 98.98810    -44.4 1.077e+04 8.002e-10
 99.00139    -44.4 1.152e+04 1.213e-09
 99.02215    -44.6 1.229e+04 1.872e-09
 99.03292    -45.0 1.204e+04 1.301e-09
 99.04447    -45.1 1.294e+04 2.296e-09
 99.06600    -44.9 1.379e+04 3.866e-09
 99.07773    -44.3 1.463e+04 5.800e-09
 99.08850    -44.9 1.533e+04 3.983e-09
 99.10908    -46.3 1.751e+04 6.513e-09
 99.12255    -49.2 1.977e+04 1.086e-08
 99.13126    -53.1 2.022e+04 9.428e-09
 99.13933    -51.8 1.926e+04 5.705e-09
 99.15215    -54.9 1.993e+04 9.898e-09
 99.16737    -56.5 1.954e+04 1.567e-08
 99.17814    -57.4 1.806e+04 1.392e-08
 99.19523    -57.3 1.823e+04 1.677e-08
 99.21134    -57.0 1.791e+04 1.642e-08
 99.21747    -56.5 1.745e+04 1.499e-08
 99.22286    -56.3 1.683e+04 1.238e-08
 99.23282    -56.1 1.649e+04 1.022e-08
 99.23988    -55.9 1.638e+04 7.984e-09
 99.24526    -56.4 1.616e+04 6.952e-09
 99.25436    -56.9 1.587e+04 5.319e-09
 99.26229    -57.5 1.563e+04 4.268e-09
 99.26772    -58.1 1.495e+04 4.680e-09
 99.28138    -58.9 1.412e+04 2.871e-09
 99.30182    -60.3 1.329e+04 1.453e-09
 99.31259    -59.8 1.248e+04 1.701e-09
 99.32446    -60.2 1.206e+04 1.003e-09
 99.34600    -60.3 1.148e+04 6.038e-10
 99.35740    -60.1 1.041e+04 4.389e-10
 99.36817    -59.1 1.085e+04 4.865e-10
 99.38907    -58.9 1.010e+04 3.430e-10
 99.40222    -58.3 9.626e+03 2.812e-10
 99.41299    -57.4 9.929e+03 2.959e-10
 99.43215    -56.7 9.512e+03 2.424e-10
 99.46455    -55.5 9.394e+03 2.171e-10
 99.49205    -54.4 8.988e+03 1.676e-10
 99.50272    -53.5 9.625e+03 2.374e-10
 99.51830    -53.1 9.582e+03 2.314e-10
 99.55070    -52.7 9.680e+03 2.433e-10
 99.58168    -51.7 9.436e+03 2.079e-10
 99.59235    -52.3 1.039e+04 5.239e-10
 99.60411    -51.6 1.030e+04 5.365e-10
 99.61488    -51.6 1.017e+04 4.825e-10
 99.63686    -50.8 1.025e+04 5.488e-10
 99.67132    -48.6 9.557e+03 4.183e-10
 99.69285    -47.9 1.054e+04 8.431e-10
 99.72311    -45.8 9.884e+03 5.650e-10
 99.76095    -43.7 9.531e+03 4.328e-10
 99.78249    -43.7 1.022e+04 5.825e-10
 99.80926    -41.0 9.544e+03 3.891e-10
 99.85058    -38.8 9.270e+03 3.345e-10
 99.87212    -38.2 9.943e+03 4.042e-10
 99.89541    -35.9 9.728e+03 3.663e-10
 99.93849    -34.8 9.847e+03 4.532e-10
 99.96176    -34.4 1.061e+04 7.979e-10
 99.98329    -34.5 1.151e+04 9.541e-10
