# Columns:
#   distance along LOS (in CHIMPs)
#   peculiar velocity  (in km/s)
#   temperature (K)
#   HI number density
# pos=(235.358,175.37,19.2356), angles=(1.52046,4.30267)
  0.01046     25.2 1.053e+04 2.017e-10
  0.03194     26.3 1.048e+04 1.890e-10
  0.04401     27.1 1.037e+04 1.608e-10
  0.05430     27.5 1.030e+04 2.438e-10
  0.08488     28.8 1.035e+04 2.432e-10
  0.12368     30.1 1.046e+04 2.488e-10
  0.14500     30.9 1.037e+04 2.253e-10
  0.17017     32.1 1.055e+04 2.481e-10
  0.21281     33.2 1.072e+04 2.567e-10
  0.23673     34.0 1.076e+04 2.532e-10
  0.25805     35.1 1.074e+04 2.571e-10
  0.29809     35.8 1.074e+04 2.493e-10
  0.32847     36.4 1.067e+04 2.313e-10
  0.34979     37.5 1.066e+04 2.333e-10
  0.38337     38.1 1.056e+04 2.135e-10
  0.42020     38.6 1.046e+04 1.931e-10
  0.44152     39.8 1.044e+04 1.971e-10
  0.46865     40.4 1.036e+04 1.790e-10
  0.51130     41.0 1.026e+04 1.584e-10
  0.53325     41.8 1.012e+04 1.445e-10
  0.55457     43.0 1.008e+04 1.424e-10
  0.59658     43.8 1.003e+04 1.415e-10
  0.62499     44.6 1.003e+04 1.497e-10
  0.64631     45.7 1.003e+04 1.471e-10
  0.68186     46.1 1.010e+04 1.900e-10
  0.71672     46.6 1.019e+04 2.685e-10
  0.73804     47.7 1.029e+04 3.060e-10
  0.76714     48.2 1.039e+04 3.867e-10
  0.80494     48.3 1.050e+04 4.136e-10
  0.82493     48.6 1.060e+04 4.018e-10
  0.82977     49.6 1.068e+04 4.263e-10
  0.85243     49.2 1.079e+04 4.633e-10
  0.89507     48.3 1.104e+04 5.887e-10
  0.92151     47.3 1.147e+04 8.748e-10
  0.94283     48.0 1.161e+04 9.587e-10
  0.98035     47.1 1.200e+04 1.363e-09
  1.01324     46.4 1.202e+04 1.427e-09
  1.03456     46.9 1.202e+04 1.455e-09
  1.06563     46.8 1.188e+04 1.384e-09
  1.10497     46.9 1.151e+04 1.133e-09
  1.12629     47.8 1.112e+04 9.681e-10
  1.15092     48.5 1.072e+04 6.800e-10
  1.19356     49.2 1.039e+04 4.438e-10
  1.21803     50.0 1.016e+04 2.899e-10
  1.23935     51.0 1.005e+04 2.205e-10
  1.27884     51.9 9.914e+03 1.684e-10
  1.30976     52.9 9.794e+03 1.401e-10
  1.33108     53.9 9.679e+03 1.228e-10
  1.36412     55.1 9.614e+03 1.126e-10
  1.40150     56.3 9.584e+03 1.036e-10
  1.42282     57.4 9.511e+03 9.960e-11
  1.44941     58.5 9.516e+03 9.578e-11
  1.49205     59.5 9.535e+03 9.220e-11
  1.51455     60.6 9.572e+03 9.152e-11
  1.53587     61.6 9.498e+03 1.117e-10
  1.57690     62.6 9.559e+03 1.148e-10
  1.59822     62.4 9.530e+03 8.823e-11
  1.60628     63.3 9.520e+03 9.017e-11
  1.62760     64.2 9.527e+03 1.215e-10
  1.66261     65.0 9.562e+03 1.284e-10
  1.69802     65.6 9.659e+03 1.613e-10
  1.71934     66.4 9.718e+03 2.077e-10
  1.74790     66.7 9.975e+03 3.049e-10
  1.78975     67.2 1.035e+04 4.786e-10
  1.81107     67.8 1.045e+04 5.323e-10
  1.83318     68.1 1.074e+04 6.428e-10
  1.87582     68.1 1.076e+04 6.320e-10
  1.90280     68.3 1.068e+04 5.228e-10
  1.92412     68.6 1.064e+04 4.744e-10
  1.96110     68.4 1.053e+04 3.049e-10
  1.99454     67.8 1.030e+04 1.957e-10
  2.01586     67.6 1.028e+04 2.180e-10
  2.04639     67.3 1.022e+04 2.199e-10
  2.08627     67.2 1.021e+04 2.322e-10
  2.10759     67.2 1.043e+04 3.150e-10
  2.13167     67.1 1.057e+04 3.265e-10
  2.17431     66.7 1.061e+04 3.217e-10
  2.19932     66.4 1.069e+04 2.925e-10
  2.22065     66.3 1.082e+04 3.599e-10
  2.25959     65.8 1.085e+04 2.715e-10
  2.29106     65.1 1.084e+04 1.983e-10
  2.31238     64.8 1.078e+04 2.135e-10
  2.34488     64.1 1.058e+04 1.619e-10
  2.37018     63.7 1.025e+04 1.421e-10
  2.38677     63.5 1.037e+04 2.261e-10
  2.40411     63.3 1.027e+04 2.194e-10
  2.43016     63.6 9.889e+03 1.577e-10
  2.47280     64.4 9.684e+03 1.162e-10
  2.49585     65.5 9.674e+03 8.855e-11
  2.51717     65.6 9.713e+03 8.097e-11
  2.55808     66.7 9.797e+03 6.563e-11
  2.58758     67.9 9.846e+03 6.345e-11
  2.60890     67.9 9.767e+03 7.237e-11
  2.64337     69.1 9.736e+03 8.027e-11
  2.67931     70.4 9.753e+03 1.114e-10
  2.70063     70.8 9.858e+03 1.608e-10
  2.72865     72.1 1.032e+04 2.434e-10
  2.75606     72.2 1.055e+04 3.059e-10
  2.76662     72.2 1.053e+04 2.952e-10
  2.78151     72.0 1.075e+04 3.580e-10
  2.79217     71.7 1.083e+04 3.919e-10
  2.80308     71.6 1.106e+04 4.814e-10
  2.82440     71.4 1.132e+04 5.881e-10
  2.83804     71.1 1.163e+04 7.009e-10
  2.84870     70.5 1.160e+04 6.956e-10
  2.86704     70.1 1.192e+04 7.984e-10
  2.88390     69.4 1.221e+04 8.776e-10
  2.89456     69.1 1.216e+04 8.635e-10
  2.90968     68.4 1.239e+04 8.794e-10
  2.92977     67.5 1.249e+04 8.749e-10
  2.94043     67.6 1.249e+04 8.934e-10
  2.95232     66.7 1.248e+04 8.796e-10
  2.97574     65.5 1.269e+04 8.629e-10
  2.99715     66.0 1.257e+04 9.128e-10
  3.02714     64.5 1.274e+04 9.425e-10
  3.05902     63.0 1.335e+04 1.104e-09
  3.07803     61.6 1.387e+04 1.393e-09
  3.08869     61.4 1.392e+04 1.518e-09
  3.10157     60.6 1.408e+04 1.924e-09
  3.12289     60.3 1.414e+04 2.276e-09
  3.13456     60.2 1.411e+04 2.297e-09
  3.14295     60.4 1.403e+04 2.276e-09
  3.15260     60.0 1.403e+04 2.344e-09
  3.16553     59.7 1.369e+04 1.959e-09
  3.18052     59.1 1.302e+04 1.253e-09
  3.20194     59.3 1.261e+04 9.649e-10
  3.24035     58.9 1.180e+04 4.389e-10
  3.27235     58.3 1.106e+04 1.898e-10
  3.29367     58.7 1.080e+04 1.611e-10
  3.32563     58.6 1.033e+04 1.340e-10
  3.36409     59.6 1.027e+04 1.342e-10
  3.38541     60.6 1.013e+04 1.203e-10
  3.41091     62.1 1.009e+04 1.298e-10
  3.45355     63.4 1.014e+04 1.534e-10
  3.47714     64.7 1.027e+04 1.871e-10
  3.49846     65.5 1.012e+04 1.523e-10
  3.53884     66.5 1.030e+04 1.857e-10
  3.56888     67.4 1.052e+04 2.321e-10
  3.59020     67.9 1.040e+04 2.065e-10
  3.62412     68.6 1.073e+04 2.820e-10
  3.66061     69.1 1.097e+04 3.656e-10
  3.68193     69.8 1.098e+04 3.961e-10
  3.70940     70.2 1.110e+04 4.543e-10
  3.74128     70.6 1.117e+04 4.350e-10
  3.76251     70.9 1.121e+04 4.393e-10
  3.77347     71.2 1.125e+04 4.414e-10
  3.78413     71.8 1.126e+04 4.666e-10
  3.80515     72.0 1.134e+04 4.749e-10
  3.81933     71.9 1.145e+04 4.922e-10
  3.82999     72.5 1.157e+04 5.222e-10
  3.84779     72.2 1.181e+04 5.748e-10
  3.86520     71.6 1.211e+04 6.967e-10
  3.87586     71.9 1.239e+04 7.900e-10
  3.89043     70.9 1.277e+04 1.115e-09
  3.91107     69.8 1.312e+04 1.693e-09
  3.92173     70.0 1.354e+04 2.104e-09
  3.92456     69.8 1.409e+04 3.235e-09
  3.93522     69.9 1.349e+04 2.795e-09
  3.95439     69.9 1.393e+04 3.123e-09
  3.96759     69.8 1.396e+04 3.038e-09
  3.97826     70.3 1.429e+04 3.542e-09
  3.99704     70.1 1.418e+04 2.927e-09
  4.01346     69.4 1.380e+04 2.180e-09
  4.02412     69.5 1.390e+04 2.156e-09
  4.04877     68.0 1.276e+04 1.179e-09
  4.07018     67.9 1.289e+04 1.196e-09
  4.09317     67.0 1.192e+04 7.923e-10
  4.13581     66.9 1.125e+04 5.156e-10
  4.16192     67.7 1.084e+04 3.030e-10
  4.18324     68.8 1.086e+04 3.200e-10
  4.22110     69.6 1.067e+04 1.677e-10
  4.25365     70.2 1.041e+04 1.191e-10
  4.27497     71.2 1.039e+04 1.288e-10
  4.30638     72.5 1.037e+04 1.292e-10
  4.34538     73.8 1.033e+04 1.364e-10
  4.36670     75.2 1.038e+04 1.459e-10
  4.39166     76.4 1.040e+04 1.821e-10
  4.43430     77.5 1.051e+04 2.422e-10
  4.45844     78.6 1.064e+04 3.026e-10
  4.47976     79.8 1.078e+04 3.578e-10
  4.51959     80.4 1.087e+04 3.774e-10
  4.55017     80.8 1.085e+04 3.707e-10
  4.57149     82.0 1.097e+04 4.418e-10
  4.60487     82.3 1.086e+04 4.004e-10
  4.64191     82.7 1.069e+04 3.566e-10
  4.66323     84.0 1.072e+04 3.830e-10
  4.68605     84.4 1.070e+04 3.842e-10
  4.70737     84.7 1.045e+04 2.965e-10
  4.73279     85.2 1.055e+04 3.507e-10
  4.75496     85.7 1.082e+04 4.894e-10
  4.77628     86.7 1.074e+04 5.039e-10
  4.81808     87.5 1.109e+04 7.247e-10
  4.84669     88.3 1.145e+04 9.566e-10
  4.85726     89.0 1.143e+04 8.947e-10
  4.87118     89.3 1.169e+04 1.076e-09
  4.90326     90.1 1.154e+04 9.393e-10
  4.93843     90.6 1.152e+04 9.291e-10
  4.95965     91.6 1.143e+04 7.061e-10
  4.98855     91.9 1.102e+04 5.396e-10
  5.03016     92.0 1.100e+04 5.428e-10
  5.05148     92.7 1.067e+04 2.881e-10
  5.07393     92.5 1.067e+04 3.186e-10
  5.11657     92.3 1.065e+04 3.485e-10
  5.14321     92.1 1.073e+04 3.783e-10
  5.16453     93.1 1.038e+04 2.273e-10
  5.20185     92.8 1.056e+04 2.472e-10
  5.23495     92.3 1.071e+04 2.661e-10
  5.25627     93.1 1.059e+04 1.793e-10
  5.28713     92.5 1.060e+04 2.021e-10
  5.32668     92.1 1.052e+04 2.280e-10
  5.34800     93.0 1.052e+04 2.005e-10
  5.37242     92.8 1.052e+04 2.544e-10
  5.41506     92.7 1.059e+04 3.173e-10
  5.43973     92.6 1.071e+04 3.766e-10
  5.46106     93.3 1.097e+04 4.915e-10
  5.47933     93.1 1.113e+04 5.881e-10
  5.50065     93.9 1.112e+04 5.900e-10
  5.53147     93.5 1.125e+04 6.327e-10
  5.55279     94.0 1.150e+04 8.134e-10
  5.58562     93.4 1.140e+04 7.751e-10
  5.62320     93.2 1.111e+04 6.428e-10
  5.64452     93.9 1.113e+04 6.232e-10
  5.67091     93.5 1.074e+04 4.269e-10
  5.71355     92.7 1.047e+04 3.153e-10
  5.73626     92.1 1.026e+04 2.658e-10
  5.75758     92.4 1.013e+04 2.683e-10
  5.79883     92.4 1.001e+04 2.503e-10
  5.82799     92.6 9.882e+03 2.227e-10
  5.84931     93.5 9.867e+03 2.416e-10
  5.88411     94.0 9.740e+03 1.973e-10
  5.91972     94.5 9.620e+03 1.494e-10
  5.94104     95.5 9.604e+03 1.408e-10
  5.96939     95.8 9.432e+03 1.012e-10
  6.01146     96.1 9.248e+03 9.292e-11
  6.03278     97.0 9.177e+03 8.583e-11
  6.05468     97.7 9.167e+03 8.658e-11
  6.09732     98.5 9.157e+03 9.345e-11
  6.12451     99.3 9.204e+03 1.159e-10
  6.14583    100.5 9.193e+03 1.064e-10
  6.18260    101.4 9.344e+03 1.404e-10
  6.21624    102.1 9.640e+03 1.966e-10
  6.23756    103.1 9.603e+03 1.765e-10
  6.25129    103.1 9.979e+03 2.564e-10
  6.27261    102.8 1.022e+04 2.913e-10
  6.29977    102.6 1.054e+04 4.013e-10
  6.31844    102.2 1.089e+04 5.608e-10
  6.32910    102.6 1.089e+04 5.819e-10
  6.34231    102.2 1.120e+04 8.042e-10
  6.36363    101.6 1.160e+04 9.903e-10
  6.37497     98.7 1.309e+04 1.388e-09
  6.38563     97.7 1.392e+04 1.942e-09
  6.40627     90.9 1.678e+04 4.317e-09
  6.42084     85.5 1.762e+04 8.074e-09
  6.43150     85.5 1.784e+04 1.035e-08
  6.44892     82.6 1.761e+04 1.029e-08
  6.46670     80.6 1.704e+04 8.040e-09
  6.47736     81.4 1.743e+04 8.332e-09
  6.49156     76.9 1.735e+04 3.561e-09
  6.51257     67.5 1.599e+04 1.172e-09
  6.52323     65.5 1.541e+04 9.881e-10
  6.53420     56.7 1.090e+04 7.619e-10
  6.55552     54.2 1.083e+04 7.555e-10
  6.56910     53.1 1.106e+04 7.574e-10
  6.57976     53.2 1.135e+04 8.607e-10
  6.60440     50.5 1.139e+04 7.746e-10
  6.62582     49.7 1.193e+04 1.045e-09
  6.65166     45.6 1.176e+04 1.056e-09
  6.69430     42.3 1.133e+04 9.771e-10
  6.71755     39.9 1.079e+04 7.903e-10
  6.73887     39.4 1.072e+04 7.527e-10
  6.77958     37.4 1.054e+04 7.220e-10
  6.80929     35.8 1.073e+04 8.514e-10
  6.83061     36.0 1.060e+04 8.193e-10
  6.86486     35.6 1.087e+04 1.003e-09
  6.90102     35.2 1.083e+04 9.830e-10
  6.92234     35.6 1.053e+04 7.976e-10
  6.95015     35.0 1.030e+04 6.755e-10
  6.99275     33.8 1.008e+04 5.652e-10
  7.02321     32.3 9.808e+03 4.722e-10
  7.04457     33.3 1.047e+04 7.209e-10
  7.07807     31.0 1.042e+04 7.074e-10
  7.10581     29.6 9.766e+03 5.594e-10
  7.12713     30.6 9.452e+03 4.823e-10
  7.16335     29.8 8.639e+03 2.739e-10
  7.19754     28.2 8.051e+03 1.504e-10
  7.21886     29.1 7.953e+03 1.361e-10
  7.24864     28.3 7.614e+03 1.198e-10
  7.28927     28.3 7.676e+03 1.280e-10
  7.31059     29.8 7.564e+03 1.220e-10
  7.33392     29.4 7.853e+03 1.529e-10
  7.37656     28.6 8.843e+03 3.349e-10
  7.40223     26.2 1.050e+04 6.261e-10
  7.42355     25.4 1.146e+04 8.185e-10
  7.44810     21.1 1.315e+04 3.024e-09
  7.45866     20.3 1.362e+04 2.983e-09
  7.47231     16.4 1.609e+04 6.921e-09
  7.49363     15.0 1.708e+04 1.119e-08
  7.50453     13.3 1.699e+04 1.148e-08
  7.50981     13.9 1.719e+04 1.323e-08
  7.52018     14.1 1.688e+04 1.256e-08
  7.53622     13.8 1.616e+04 8.133e-09
  7.55039     11.5 1.528e+04 3.427e-09
  7.56105     13.5 1.603e+04 3.291e-09
  7.57891      6.4 1.270e+04 9.992e-10
  7.59626      2.2 1.041e+04 5.109e-10
  7.60692      1.8 1.010e+04 4.158e-10
  7.63231      2.4 9.915e+03 3.550e-10
  7.67505      3.2 9.515e+03 2.258e-10
  7.69885      3.5 9.125e+03 1.671e-10
  7.72017      4.1 9.194e+03 1.744e-10
  7.76033      5.0 9.016e+03 1.572e-10
  7.79058      6.2 8.931e+03 1.489e-10
  7.80413      6.8 9.085e+03 1.626e-10
  7.81653      5.8 8.971e+03 1.451e-10
  7.84562      6.6 8.994e+03 1.491e-10
  7.88231      6.8 9.135e+03 1.717e-10
  7.90364      6.5 9.559e+03 2.519e-10
  7.93090      6.6 9.991e+03 3.755e-10
  7.96278      6.5 1.018e+04 6.124e-10
  7.98401      6.8 1.037e+04 7.221e-10
  7.99517      7.5 1.059e+04 8.365e-10
  8.00583      7.4 1.086e+04 9.294e-10
  8.02665      7.5 1.082e+04 8.953e-10
  8.04104      7.4 1.060e+04 8.051e-10
  8.05170      6.9 1.053e+04 7.754e-10
  8.06929      6.8 1.043e+04 6.658e-10
  8.08691      6.4 1.032e+04 5.727e-10
  8.09757      5.6 1.022e+04 5.356e-10
  8.11193      4.7 1.034e+04 5.087e-10
  8.13277      2.8 1.085e+04 5.562e-10
  8.14343      1.6 1.097e+04 5.847e-10
  8.15457     -0.4 1.128e+04 7.826e-10
  8.17589     -1.5 1.143e+04 1.075e-09
  8.18930     -1.9 1.172e+04 1.384e-09
  8.19440     -2.2 1.177e+04 1.378e-09
  8.20231     -2.8 1.208e+04 1.515e-09
  8.21853     -3.2 1.227e+04 1.560e-09
  8.23517     -4.7 1.226e+04 1.394e-09
  8.24583     -5.8 1.215e+04 1.328e-09
  8.26117     -7.7 1.189e+04 1.232e-09
  8.28103     -9.3 1.153e+04 1.170e-09
  8.29169     -9.7 1.138e+04 1.154e-09
  8.31457    -10.0 1.141e+04 1.247e-09
  8.35731    -10.6 1.148e+04 1.373e-09
  8.38362    -10.7 1.135e+04 1.315e-09
  8.40494    -10.3 1.098e+04 1.039e-09
  8.44260    -10.3 1.050e+04 7.337e-10
  8.47536    -10.8 1.000e+04 5.370e-10
  8.49668    -10.3 9.739e+03 4.488e-10
  8.52788     -9.8 9.628e+03 4.236e-10
  8.56709     -9.6 9.878e+03 4.855e-10
  8.58841     -7.8 9.154e+03 2.939e-10
  8.61316     -7.9 9.686e+03 3.914e-10
  8.65580     -8.2 1.055e+04 6.640e-10
  8.68005     -8.1 1.168e+04 1.285e-09
  8.70137     -7.0 1.153e+04 1.292e-09
  8.72591     -6.3 1.225e+04 2.216e-09
  8.73648     -5.4 1.226e+04 2.118e-09
  8.75155     -4.9 1.225e+04 2.173e-09
  8.77178     -4.4 1.218e+04 1.774e-09
  8.79320     -3.2 1.179e+04 1.478e-09
  8.82637     -3.3 1.092e+04 9.067e-10
  8.86361     -3.6 1.069e+04 7.730e-10
  8.88493     -1.9 1.041e+04 6.406e-10
  8.91165     -2.2 1.096e+04 7.220e-10
  8.94353     -5.1 1.246e+04 1.143e-09
  8.96361     -6.9 1.363e+04 2.264e-09
  8.97427     -6.3 1.360e+04 2.301e-09
  8.97647     -7.8 1.437e+04 4.887e-09
  8.98713     -7.2 1.444e+04 4.998e-09
  9.00740     -5.5 1.522e+04 8.360e-09
  9.02234     -2.9 1.568e+04 9.854e-09
  9.03300     -2.0 1.563e+04 9.714e-09
  9.05004      0.4 1.546e+04 8.840e-09
  9.06820      2.9 1.499e+04 4.666e-09
  9.07886      3.8 1.494e+04 4.418e-09
  9.09268      1.7 1.367e+04 1.555e-09
  9.12476     -3.0 1.129e+04 7.817e-10
  9.16013     -2.3 1.043e+04 5.558e-10
  9.18136     -0.8 1.014e+04 4.314e-10
  9.21004      0.6 9.900e+03 3.514e-10
  9.25187      1.7 9.839e+03 3.253e-10
  9.27319      3.4 9.687e+03 3.135e-10
  9.29542      4.7 9.846e+03 3.326e-10
  9.33807      5.7 1.012e+04 4.061e-10
  9.36044      6.5 1.041e+04 5.348e-10
  9.36598      7.4 1.045e+04 5.131e-10
  9.37548      8.4 1.045e+04 5.050e-10
  9.39117      8.2 1.049e+04 5.252e-10
  9.41059      9.0 1.083e+04 7.052e-10
  9.42125      9.7 1.084e+04 6.897e-10
  9.43381      9.6 1.090e+04 7.441e-10
  9.45513     10.6 1.108e+04 8.864e-10
  9.46712     11.2 1.104e+04 8.970e-10
  9.47778     12.0 1.105e+04 8.877e-10
  9.49778     13.1 1.093e+04 8.573e-10
  9.51298     14.3 1.065e+04 6.910e-10
  9.52365     14.9 1.074e+04 7.052e-10
  9.54042     15.6 1.063e+04 5.304e-10
  9.55885     15.6 1.044e+04 3.877e-10
  9.56951     16.3 1.051e+04 4.091e-10
  9.59382     16.8 1.025e+04 3.257e-10
  9.63656     17.6 9.875e+03 2.778e-10
  9.66144     18.9 9.699e+03 3.017e-10
  9.68276     20.5 9.984e+03 3.518e-10
  9.72184     21.8 1.019e+04 4.000e-10
  9.74633     22.7 1.041e+04 4.436e-10
  9.75624     22.5 1.047e+04 4.956e-10
  9.76364     23.0 1.053e+04 5.074e-10
  9.77494     23.0 1.069e+04 5.508e-10
  9.79626     23.3 1.082e+04 6.420e-10
  9.80951     23.4 1.088e+04 7.128e-10
  9.82017     24.0 1.083e+04 7.144e-10
  9.83891     24.6 1.087e+04 7.976e-10
  9.85537     25.2 1.099e+04 8.249e-10
  9.86603     25.8 1.094e+04 8.005e-10
  9.88155     26.2 1.097e+04 7.778e-10
  9.90124     26.6 1.095e+04 7.103e-10
  9.91190     27.1 1.094e+04 7.055e-10
  9.92419     27.2 1.088e+04 6.239e-10
  9.94551     26.9 1.091e+04 5.555e-10
  9.95777     26.1 1.117e+04 5.383e-10
  9.96843     26.7 1.116e+04 5.473e-10
  9.98815     25.0 1.176e+04 6.354e-10
 10.00363     20.6 1.346e+04 1.135e-09
 10.01429     21.3 1.355e+04 1.133e-09
 10.03079     14.5 1.614e+04 3.066e-09
 10.04950      9.3 1.777e+04 7.497e-09
 10.06016      9.4 1.798e+04 7.837e-09
 10.07343      6.2 1.868e+04 1.166e-08
 10.09475      2.2 1.842e+04 1.073e-08
 10.10603     -2.5 1.693e+04 4.130e-09
 10.11669     -1.9 1.704e+04 3.892e-09
 10.13221    -12.7 1.361e+04 1.074e-09
 10.14287    -15.0 1.236e+04 8.578e-10
 10.15189    -22.8 9.723e+03 3.913e-10
 10.16255    -22.6 9.526e+03 3.495e-10
 10.18004    -24.4 9.014e+03 2.800e-10
 10.19776    -25.6 8.913e+03 2.573e-10
 10.20842    -25.5 8.812e+03 2.409e-10
 10.23306    -27.5 9.001e+03 2.567e-10
 10.25448    -25.9 8.493e+03 2.063e-10
 10.27618    -29.0 8.705e+03 2.342e-10
 10.31882    -34.7 1.110e+04 5.146e-10
 10.34612    -37.5 1.172e+04 6.361e-10
 10.36744    -36.6 1.162e+04 7.030e-10
 10.39199    -40.6 1.294e+04 1.497e-09
 10.40255    -38.9 1.215e+04 9.934e-10
 10.41457    -41.0 1.314e+04 1.819e-09
 10.43589    -42.2 1.396e+04 2.871e-09
 10.44841    -43.5 1.463e+04 3.978e-09
 10.45907    -42.5 1.415e+04 3.167e-09
 10.47853    -43.9 1.465e+04 4.140e-09
 10.49428    -45.3 1.475e+04 4.442e-09
 10.50494    -44.3 1.465e+04 4.257e-09
 10.51819    -45.7 1.466e+04 4.379e-09
 10.52885    -45.4 1.398e+04 3.352e-09
 10.54015    -46.7 1.357e+04 2.972e-09
 10.55081    -45.7 1.385e+04 3.313e-09
 10.56381    -46.9 1.329e+04 2.811e-09
 10.58513    -47.7 1.257e+04 2.179e-09
 10.59668    -48.4 1.182e+04 1.613e-09
 10.60734    -47.5 1.229e+04 1.928e-09
 10.62777    -48.1 1.155e+04 1.363e-09
 10.64254    -48.6 1.092e+04 9.569e-10
 10.65320    -47.9 1.133e+04 1.124e-09
 10.67041    -48.5 1.069e+04 7.700e-10
 10.68841    -48.9 1.014e+04 5.507e-10
 10.69907    -48.4 1.033e+04 6.197e-10
 10.71306    -48.7 9.783e+03 4.622e-10
 10.73428    -48.9 9.436e+03 3.793e-10
 10.74494    -48.4 9.599e+03 4.355e-10
 10.75570    -48.4 9.391e+03 3.804e-10
 10.77702    -48.3 9.311e+03 3.582e-10
 10.79080    -48.0 9.299e+03 3.537e-10
 10.80146    -47.8 9.513e+03 4.215e-10
 10.81966    -47.7 9.529e+03 4.212e-10
 10.83667    -47.6 9.677e+03 4.396e-10
 10.84733    -47.7 1.006e+04 5.681e-10
 10.86230    -47.7 1.018e+04 6.031e-10
 10.88254    -47.6 1.033e+04 6.470e-10
 10.89320    -47.8 1.084e+04 8.494e-10
 10.90417    -47.7 1.089e+04 8.631e-10
 10.91483    -47.3 1.077e+04 8.012e-10
 10.92626    -47.1 1.082e+04 8.168e-10
 10.93906    -46.9 1.085e+04 8.051e-10
 10.94972    -47.5 1.112e+04 9.220e-10
 10.96890    -47.3 1.104e+04 8.522e-10
 10.98493    -47.2 1.092e+04 7.742e-10
 10.99559    -48.2 1.119e+04 9.175e-10
 11.01154    -48.1 1.102e+04 8.360e-10
 11.03080    -48.0 1.086e+04 7.686e-10
 11.04146    -49.0 1.113e+04 9.649e-10
 11.05419    -48.7 1.098e+04 9.052e-10
 11.07551    -48.2 1.085e+04 8.547e-10
 11.08732    -47.7 1.072e+04 8.098e-10
 11.09798    -48.4 1.102e+04 1.009e-09
 11.11815    -47.7 1.089e+04 9.497e-10
 11.13319    -47.1 1.076e+04 8.934e-10
 11.14385    -47.7 1.099e+04 1.051e-09
 11.16079    -46.9 1.083e+04 9.783e-10
 11.17906    -46.0 1.067e+04 9.117e-10
 11.18972    -46.4 1.080e+04 1.014e-09
 11.20343    -45.4 1.062e+04 9.335e-10
 11.22475    -44.3 1.047e+04 8.643e-10
 11.23558    -43.2 1.037e+04 8.118e-10
 11.24624    -43.4 1.043e+04 8.505e-10
 11.26739    -42.4 1.034e+04 7.973e-10
 11.28145    -41.3 1.026e+04 7.557e-10
 11.29211    -41.6 1.038e+04 7.806e-10
 11.30081    -40.4 1.040e+04 7.570e-10
 11.31147    -40.0 9.942e+03 5.889e-10
 11.32732    -38.9 1.001e+04 5.877e-10
 11.34874    -38.9 1.046e+04 7.093e-10
 11.38485    -36.0 1.044e+04 7.063e-10
 11.41925    -33.4 1.068e+04 7.712e-10
 11.44057    -33.5 1.091e+04 8.751e-10
 11.45938    -32.3 1.144e+04 9.996e-10
 11.47558    -32.2 1.198e+04 1.220e-09
 11.48624    -32.7 1.241e+04 1.483e-09
 11.50192    -32.5 1.352e+04 2.431e-09
 11.52144    -32.1 1.448e+04 3.721e-09
 11.53210    -31.8 1.453e+04 4.165e-09
 11.54456    -30.8 1.524e+04 5.376e-09
 11.56588    -30.1 1.575e+04 6.218e-09
 11.57797    -29.4 1.596e+04 6.511e-09
 11.58863    -29.1 1.554e+04 5.833e-09
 11.60852    -28.4 1.558e+04 5.312e-09
 11.62384    -28.1 1.533e+04 4.267e-09
 11.63450    -28.2 1.453e+04 3.101e-09
 11.65117    -28.8 1.406e+04 2.353e-09
 11.66970    -29.8 1.339e+04 1.802e-09
 11.68037    -30.1 1.263e+04 1.494e-09
 11.68678    -30.4 1.235e+04 1.338e-09
 11.69745    -31.1 1.209e+04 1.180e-09
 11.71567    -31.2 1.197e+04 1.084e-09
 11.73699    -30.2 1.175e+04 9.903e-10
 11.75777    -29.8 1.138e+04 8.249e-10
 11.77210    -29.3 1.118e+04 7.309e-10
 11.78276    -28.1 1.107e+04 6.980e-10
 11.80041    -27.3 1.069e+04 5.342e-10
 11.81797    -26.9 1.044e+04 4.057e-10
 11.82863    -26.0 1.049e+04 4.271e-10
 11.84305    -25.7 1.031e+04 3.409e-10
 11.86383    -25.2 1.027e+04 3.152e-10
 11.87449    -24.3 1.035e+04 3.327e-10
 11.89645    -24.0 1.033e+04 2.967e-10
 11.92055    -22.8 1.028e+04 2.612e-10
 11.94188    -21.4 1.055e+04 3.160e-10
 11.98183    -20.4 1.061e+04 2.907e-10
 12.01229    -19.6 1.060e+04 2.668e-10
 12.03361    -19.1 1.064e+04 2.731e-10
 12.06711    -18.5 1.052e+04 2.598e-10
 12.09900    -18.4 1.047e+04 2.516e-10
 12.11449    -18.3 1.042e+04 2.565e-10
 12.12515    -19.1 1.051e+04 2.712e-10
 12.14154    -18.8 1.058e+04 2.950e-10
 12.16035    -18.6 1.071e+04 3.194e-10
 12.17101    -23.1 1.269e+04 6.553e-10
 12.18418    -23.0 1.331e+04 8.309e-10
 12.20550    -22.3 1.343e+04 9.391e-10
 12.21688    -21.7 1.347e+04 1.020e-09
 12.22754    -26.3 1.590e+04 3.212e-09
 12.24815    -25.5 1.618e+04 3.849e-09
 12.26275    -25.0 1.633e+04 4.473e-09
 12.27341    -26.5 1.709e+04 8.466e-09
 12.29079    -25.7 1.692e+04 7.606e-09
 12.30861    -25.5 1.680e+04 6.365e-09
 12.31927    -27.5 1.689e+04 6.178e-09
 12.33343    -28.4 1.703e+04 5.347e-09
 12.35448    -34.7 2.060e+04 5.288e-09
 12.36514    -39.0 2.022e+04 4.119e-09
 12.37607    -50.9 2.398e+04 7.075e-09
 12.38803    -57.8 2.315e+04 1.031e-08
 12.39331    -58.2 2.289e+04 1.060e-08
 12.40262    -60.9 2.279e+04 1.501e-08
 12.41091    -64.8 2.186e+04 2.084e-08
 12.41624    -64.5 2.230e+04 2.502e-08
 12.42394    -66.4 2.195e+04 2.691e-08
 12.43384    -67.5 2.050e+04 2.608e-08
 12.43917    -66.5 2.086e+04 3.193e-08
 12.44526    -67.3 1.986e+04 2.006e-08
 12.45592    -69.5 1.892e+04 9.004e-09
 12.46211    -73.5 1.745e+04 3.496e-09
 12.46483    -72.2 1.790e+04 3.890e-09
 12.46931    -70.4 1.787e+04 5.367e-09
 12.47725    -74.0 1.596e+04 2.492e-09
 12.48504    -75.8 1.506e+04 1.794e-09
 12.49037    -76.2 1.474e+04 1.621e-09
 12.50269    -78.5 1.389e+04 1.157e-09
 12.51340    -77.8 1.369e+04 1.103e-09
 12.52531    -83.0 1.123e+04 5.407e-10
 12.54664    -86.7 1.029e+04 4.084e-10
 12.55927    -89.1 1.028e+04 3.995e-10
 12.56993    -88.4 1.056e+04 4.633e-10
 12.58928    -90.9 1.160e+04 7.175e-10
 12.60513    -92.5 1.255e+04 1.351e-09
 12.61579    -92.0 1.287e+04 1.598e-09
 12.63192    -93.0 1.344e+04 2.419e-09
 12.65100    -94.0 1.369e+04 2.870e-09
 12.66166    -93.7 1.389e+04 3.127e-09
 12.67456    -94.8 1.387e+04 3.178e-09
 12.69588    -95.6 1.333e+04 2.734e-09
 12.70753    -96.1 1.241e+04 1.813e-09
 12.71819    -96.0 1.226e+04 1.713e-09
 12.73852    -97.0 1.113e+04 1.010e-09
 12.75339    -98.3 1.012e+04 6.076e-10
 12.76406    -98.2 9.956e+03 5.812e-10
 12.78116    -99.2 9.336e+03 4.064e-10
 12.79926    -99.6 9.062e+03 3.369e-10
 12.80992    -99.1 9.011e+03 3.382e-10
 12.83456    -99.0 8.844e+03 2.979e-10
 12.87730    -97.9 8.473e+03 2.327e-10
 12.90185    -96.4 8.259e+03 1.970e-10
 12.92317    -96.1 8.296e+03 2.138e-10
 12.96258    -95.0 8.272e+03 2.080e-10
 12.99358    -94.4 8.281e+03 2.079e-10
 13.01490    -95.1 8.622e+03 2.646e-10
 13.04787    -95.8 9.361e+03 3.786e-10
 13.07975    -97.3 1.039e+04 6.451e-10
 13.09578    -98.4 1.127e+04 9.921e-10
 13.10644   -100.2 1.175e+04 1.300e-09
 13.12229   -101.1 1.234e+04 1.739e-09
 13.14165   -101.9 1.269e+04 2.053e-09
 13.15231   -103.8 1.285e+04 2.230e-09
 13.16494   -104.8 1.287e+04 2.260e-09
 13.18626   -105.8 1.266e+04 2.181e-09
 13.19818   -106.8 1.232e+04 1.928e-09
 13.20884   -108.1 1.209e+04 1.827e-09
 13.22890   -109.0 1.177e+04 1.606e-09
 13.24136   -109.7 1.153e+04 1.462e-09
 13.24585   -109.5 1.122e+04 1.253e-09
 13.25470   -110.4 1.083e+04 1.058e-09
 13.27154   -110.8 1.067e+04 9.865e-10
 13.28991   -111.1 1.057e+04 9.429e-10
 13.30057   -111.6 1.009e+04 7.067e-10
 13.31418   -111.8 1.003e+04 6.542e-10
 13.33550   -112.2 9.986e+03 6.058e-10
 13.34644   -112.8 9.940e+03 5.666e-10
 13.35710   -113.2 9.767e+03 5.056e-10
 13.38174   -113.4 9.956e+03 5.581e-10
 13.40316   -113.0 9.033e+03 3.179e-10
 13.43164   -113.1 9.112e+03 3.282e-10
 13.47357   -113.6 9.266e+03 3.571e-10
 13.49489   -112.5 8.632e+03 1.951e-10
 13.51692   -112.9 8.907e+03 2.334e-10
 13.55956   -113.3 9.141e+03 2.930e-10
 13.58663   -113.4 9.344e+03 3.615e-10
 13.60795   -112.1 8.955e+03 2.502e-10
 13.64485   -112.1 9.236e+03 3.339e-10
 13.67836   -112.0 9.509e+03 4.146e-10
 13.69968   -110.6 9.478e+03 3.987e-10
 13.73013   -110.7 9.772e+03 4.909e-10
 13.77009   -111.2 9.885e+03 5.216e-10
 13.79141   -109.8 1.011e+04 5.988e-10
 13.81541   -110.7 1.013e+04 6.065e-10
 13.85805   -111.4 1.006e+04 5.757e-10
 13.88315   -111.8 9.927e+03 4.796e-10
 13.90447   -110.8 9.992e+03 5.004e-10
 13.94334   -111.1 9.732e+03 3.574e-10
 13.97488   -111.3 9.522e+03 2.485e-10
 13.99620   -110.2 9.440e+03 2.413e-10
 14.01352   -110.4 9.241e+03 1.682e-10
 14.03484   -110.2 9.132e+03 1.474e-10
 14.06661   -110.4 9.179e+03 1.245e-10
 14.08793   -109.0 9.046e+03 1.209e-10
 14.11390   -109.0 9.059e+03 1.127e-10
 14.15654   -108.8 9.123e+03 1.120e-10
 14.17967   -108.8 9.591e+03 1.371e-10
 14.20099   -106.7 9.254e+03 1.172e-10
 14.24183   -106.7 9.676e+03 1.624e-10
 14.27140   -106.7 9.945e+03 2.324e-10
 14.29272   -104.6 9.737e+03 2.134e-10
 14.32711   -104.6 9.970e+03 2.979e-10
 14.36313   -104.8 1.021e+04 3.819e-10
 14.38446   -102.6 1.028e+04 4.335e-10
 14.41239   -102.7 1.067e+04 5.703e-10
 14.45487   -102.9 1.119e+04 7.406e-10
 14.48675   -102.3 1.188e+04 1.060e-09
 14.50814   -103.1 1.228e+04 1.266e-09
 14.52186   -104.1 1.278e+04 1.587e-09
 14.53252   -103.4 1.283e+04 1.669e-09
 14.55078   -104.3 1.322e+04 1.986e-09
 14.56773   -105.3 1.345e+04 2.205e-09
 14.57839   -104.5 1.344e+04 2.198e-09
 14.59342   -105.5 1.349e+04 2.263e-09
 14.61359   -106.4 1.339e+04 2.225e-09
 14.62425   -105.6 1.334e+04 2.188e-09
 14.63606   -106.2 1.304e+04 1.905e-09
 14.65738   -106.9 1.281e+04 1.598e-09
 14.67012   -108.3 1.286e+04 1.483e-09
 14.68078   -107.4 1.285e+04 1.495e-09
 14.70003   -110.3 1.301e+04 1.493e-09
 14.71599   -114.8 1.474e+04 1.850e-09
 14.72665   -113.8 1.482e+04 1.863e-09
 14.74267   -117.8 1.620e+04 3.521e-09
 14.76185   -120.9 1.686e+04 5.960e-09
 14.77251   -120.1 1.668e+04 5.264e-09
 14.78528   -123.3 1.677e+04 6.331e-09
 14.80660   -126.7 1.573e+04 4.051e-09
 14.81838   -129.5 1.515e+04 3.440e-09
 14.82904   -129.8 1.488e+04 2.923e-09
 14.84927   -132.6 1.410e+04 1.980e-09
 14.86425   -135.0 1.330e+04 1.307e-09
 14.87491   -135.3 1.324e+04 1.300e-09
 14.89191   -137.1 1.273e+04 9.895e-10
 14.91011   -138.2 1.238e+04 8.440e-10
 14.92078   -138.5 1.248e+04 9.126e-10
 14.93455   -139.2 1.224e+04 8.241e-10
 14.95587   -139.5 1.204e+04 7.544e-10
 14.96664   -139.7 1.186e+04 6.853e-10
 14.97730   -140.0 1.197e+04 7.609e-10
 14.99852   -140.1 1.176e+04 6.749e-10
 15.01251   -139.9 1.154e+04 5.848e-10
 15.02317   -140.0 1.163e+04 6.436e-10
 15.04116   -139.6 1.141e+04 5.420e-10
 15.05838   -139.1 1.130e+04 4.635e-10
 15.06904   -139.3 1.140e+04 4.726e-10
 15.09456   -138.8 1.140e+04 4.159e-10
 15.13730   -138.5 1.141e+04 4.032e-10
 15.16096   -138.2 1.143e+04 4.033e-10
 15.18228   -138.5 1.139e+04 3.878e-10
 15.22258   -138.3 1.145e+04 4.121e-10
 15.25270   -138.3 1.150e+04 4.508e-10
 15.27402   -138.1 1.130e+04 4.211e-10
 15.30786   -138.1 1.138e+04 4.750e-10
 15.34443   -138.2 1.150e+04 5.428e-10
 15.36575   -137.8 1.149e+04 5.460e-10
 15.39314   -138.0 1.170e+04 6.355e-10
 15.43579   -138.6 1.190e+04 7.194e-10
 15.45749   -139.4 1.202e+04 7.734e-10
 15.47881   -139.1 1.209e+04 8.117e-10
 15.52107   -140.2 1.211e+04 8.261e-10
 15.54922   -141.2 1.204e+04 8.064e-10
 15.56426   -140.9 1.206e+04 8.119e-10
 15.57875   -141.5 1.206e+04 8.092e-10
 15.60635   -142.0 1.184e+04 6.491e-10
 15.64095   -142.3 1.164e+04 4.935e-10
 15.66227   -142.0 1.163e+04 4.720e-10
 15.69163   -142.0 1.147e+04 3.430e-10
 15.73269   -142.2 1.129e+04 2.458e-10
 15.75401   -141.9 1.127e+04 2.363e-10
 15.77692   -141.9 1.117e+04 1.885e-10
 15.81956   -141.4 1.115e+04 1.756e-10
 15.84574   -140.6 1.115e+04 1.749e-10
 15.86706   -140.6 1.115e+04 1.832e-10
 15.90484   -140.0 1.127e+04 1.897e-10
 15.93747   -139.6 1.142e+04 2.139e-10
 15.95879   -139.7 1.137e+04 2.176e-10
 15.99012   -139.3 1.145e+04 2.307e-10
 16.02921   -139.0 1.150e+04 2.392e-10
 16.05053   -139.2 1.142e+04 2.165e-10
 16.07541   -138.9 1.142e+04 2.098e-10
 16.11805   -138.6 1.141e+04 2.053e-10
 16.14226   -138.2 1.141e+04 2.052e-10
 16.16358   -138.2 1.132e+04 2.003e-10
 16.20333   -137.8 1.134e+04 2.058e-10
 16.23399   -137.4 1.135e+04 2.159e-10
 16.25531   -137.2 1.134e+04 2.183e-10
 16.28861   -136.7 1.134e+04 2.229e-10
 16.32573   -136.1 1.129e+04 2.169e-10
 16.34518   -135.8 1.126e+04 2.040e-10
 16.35071   -135.8 1.129e+04 2.497e-10
 16.37390   -134.9 1.118e+04 2.116e-10
 16.41654   -133.9 1.110e+04 1.685e-10
 16.43878   -132.9 1.105e+04 1.303e-10
 16.46010   -132.5 1.103e+04 1.148e-10
 16.50182   -131.3 1.096e+04 9.301e-11
 16.53052   -129.9 1.086e+04 8.312e-11
 16.55184   -129.4 1.082e+04 8.455e-11
 16.58710   -127.7 1.077e+04 8.201e-11
 16.62225   -126.0 1.076e+04 8.195e-11
 16.64357   -125.4 1.078e+04 8.928e-11
 16.67239   -123.9 1.080e+04 9.026e-11
 16.71398   -123.0 1.106e+04 9.459e-11
 16.73530   -122.6 1.117e+04 1.119e-10
 16.75767   -122.1 1.131e+04 1.605e-10
 16.80031   -122.1 1.146e+04 2.636e-10
 16.82704   -122.1 1.179e+04 4.518e-10
 16.84836   -121.5 1.187e+04 5.143e-10
 16.88559   -121.9 1.247e+04 8.196e-10
 16.91877   -123.6 1.320e+04 1.260e-09
 16.93999   -124.3 1.351e+04 1.500e-09
 16.96002   -126.9 1.390e+04 1.931e-09
 16.97510   -129.2 1.427e+04 2.393e-09
 16.98576   -130.4 1.462e+04 2.980e-09
 17.00266   -132.8 1.478e+04 3.485e-09
 17.02097   -135.1 1.480e+04 3.678e-09
 17.03163   -136.0 1.508e+04 3.973e-09
 17.04530   -138.0 1.494e+04 3.988e-09
 17.06662   -139.5 1.451e+04 3.699e-09
 17.07749   -140.5 1.410e+04 3.187e-09
 17.08816   -141.0 1.403e+04 3.088e-09
 17.10926   -141.6 1.360e+04 2.538e-09
 17.12247   -142.0 1.318e+04 2.042e-09
 17.12591   -141.2 1.312e+04 1.849e-09
 17.13402   -141.3 1.295e+04 1.573e-09
 17.15191   -141.4 1.268e+04 1.225e-09
 17.16923   -141.4 1.242e+04 9.115e-10
 17.17989   -141.6 1.227e+04 7.087e-10
 17.19455   -141.7 1.205e+04 5.539e-10
 17.21519   -141.6 1.187e+04 4.694e-10
 17.23661   -141.6 1.162e+04 3.711e-10
 17.26937   -140.2 1.125e+04 2.580e-10
 17.30702   -138.7 1.096e+04 1.854e-10
 17.32834   -138.0 1.087e+04 1.732e-10
 17.35465   -136.3 1.087e+04 1.537e-10
 17.39729   -134.4 1.090e+04 1.451e-10
 17.42008   -132.4 1.091e+04 1.437e-10
 17.44140   -131.5 1.091e+04 1.437e-10
 17.48257   -129.4 1.092e+04 1.441e-10
 17.51181   -127.3 1.100e+04 1.466e-10
 17.53313   -126.3 1.095e+04 1.484e-10
 17.56785   -124.3 1.111e+04 1.596e-10
 17.60354   -122.5 1.130e+04 1.946e-10
 17.62487   -121.6 1.132e+04 1.996e-10
 17.65314   -120.1 1.155e+04 2.890e-10
 17.69528   -118.8 1.178e+04 4.394e-10
 17.71660   -118.3 1.197e+04 5.696e-10
 17.73842   -117.3 1.228e+04 8.767e-10
 17.78106   -116.4 1.256e+04 1.191e-09
 17.80833   -115.5 1.277e+04 1.439e-09
 17.82965   -115.7 1.302e+04 1.660e-09
 17.86634   -115.4 1.305e+04 1.726e-09
 17.89463   -114.9 1.302e+04 1.740e-09
 17.90703   -113.9 1.221e+04 1.021e-09
 17.92139   -114.0 1.211e+04 9.219e-10
 17.95163   -113.0 1.202e+04 8.686e-10
 17.99180   -112.0 1.197e+04 8.040e-10
 18.01312   -111.8 1.169e+04 5.440e-10
 18.03691   -110.6 1.162e+04 4.769e-10
 18.07955   -109.4 1.156e+04 4.220e-10
 18.10485   -108.1 1.153e+04 3.781e-10
 18.12617   -107.7 1.124e+04 3.156e-10
 18.16483   -106.2 1.125e+04 3.084e-10
 18.19659   -104.7 1.131e+04 2.999e-10
 18.21791   -103.9 1.113e+04 2.927e-10
 18.25012   -102.2 1.118e+04 2.772e-10
 18.28832   -100.6 1.123e+04 2.669e-10
 18.30964    -99.8 1.110e+04 2.523e-10
 18.33540    -98.2 1.112e+04 2.382e-10
 18.37804    -96.7 1.114e+04 2.328e-10
 18.40137    -95.2 1.116e+04 2.350e-10
 18.42269    -94.6 1.104e+04 2.040e-10
 18.46332    -93.3 1.106e+04 1.959e-10
 18.49311    -91.9 1.108e+04 1.905e-10
 18.51443    -91.5 1.090e+04 1.594e-10
 18.54861    -90.2 1.083e+04 1.562e-10
 18.58484    -88.7 1.081e+04 1.563e-10
 18.60616    -88.4 1.075e+04 1.554e-10
 18.63389    -87.0 1.077e+04 1.585e-10
 18.66659    -85.7 1.082e+04 1.764e-10
 18.68791    -85.5 1.083e+04 1.575e-10
 18.71917    -84.1 1.081e+04 1.992e-10
 18.76181    -83.2 1.084e+04 2.448e-10
 18.78963    -82.4 1.089e+04 2.915e-10
 18.81095    -82.2 1.084e+04 3.032e-10
 18.84710    -81.7 1.093e+04 3.382e-10
 18.88136    -81.2 1.106e+04 3.714e-10
 18.90268    -80.8 1.106e+04 3.835e-10
 18.93238    -80.3 1.124e+04 4.082e-10
 18.97310    -79.8 1.141e+04 4.335e-10
 18.99442    -79.4 1.143e+04 4.242e-10
 19.01766    -78.7 1.147e+04 4.299e-10
 19.06030    -77.8 1.146e+04 4.265e-10
 19.08615    -76.5 1.133e+04 3.834e-10
 19.10747    -75.8 1.125e+04 3.316e-10
 19.14559    -74.3 1.113e+04 2.696e-10
 19.17788    -72.6 1.102e+04 2.102e-10
 19.19920    -71.8 1.099e+04 1.836e-10
 19.23087    -70.0 1.092e+04 1.445e-10
 19.26962    -68.2 1.084e+04 1.162e-10
 19.29094    -67.3 1.082e+04 1.121e-10
 19.31615    -65.3 1.074e+04 9.903e-11
 19.35879    -63.2 1.069e+04 9.161e-11
 19.38267    -61.2 1.069e+04 8.883e-11
 19.40399    -60.3 1.070e+04 9.105e-11
 19.43854    -58.3 1.070e+04 9.015e-11
 19.45986    -58.3 1.083e+04 9.181e-11
 19.47440    -56.7 1.093e+04 9.162e-11
 19.49572    -56.0 1.089e+04 9.566e-11
 19.52936    -54.9 1.096e+04 1.267e-10
 19.56614    -53.9 1.081e+04 2.225e-10
 19.58746    -53.3 1.081e+04 2.883e-10
 19.61464    -52.2 1.091e+04 4.986e-10
 19.65728    -51.1 1.107e+04 7.467e-10
 19.67919    -50.2 1.120e+04 9.256e-10
 19.70051    -50.0 1.122e+04 9.961e-10
 19.74257    -49.3 1.120e+04 1.003e-09
 19.77092    -48.6 1.095e+04 8.686e-10
 19.79225    -48.3 1.078e+04 7.652e-10
 19.82785    -47.3 1.046e+04 5.760e-10
 19.86266    -46.2 1.011e+04 4.475e-10
 19.88398    -45.8 9.997e+03 3.922e-10
 19.91313    -44.6 9.804e+03 3.555e-10
 19.95439    -43.2 9.707e+03 3.431e-10
 19.97571    -42.7 9.713e+03 3.424e-10
 19.99841    -41.2 9.600e+03 3.279e-10
 20.04106    -39.7 9.478e+03 3.069e-10
 20.06745    -38.2 9.349e+03 2.817e-10
 20.08877    -37.6 9.353e+03 2.823e-10
 20.12634    -36.1 9.212e+03 2.589e-10
 20.15918    -34.5 9.067e+03 2.402e-10
 20.18050    -33.9 9.144e+03 2.602e-10
 20.21050    -32.2 9.024e+03 2.516e-10
 20.23182    -32.5 8.696e+03 1.748e-10
 20.25091    -30.7 8.648e+03 1.730e-10
 20.27223    -30.1 8.797e+03 2.073e-10
 20.29690    -28.2 8.728e+03 2.075e-10
 20.33955    -26.3 8.640e+03 1.993e-10
 20.36397    -24.3 8.535e+03 1.862e-10
 20.38529    -23.8 8.766e+03 2.329e-10
 20.42483    -22.0 8.709e+03 2.243e-10
 20.45570    -20.2 8.696e+03 2.228e-10
 20.47702    -19.7 9.023e+03 3.059e-10
 20.51011    -18.0 9.124e+03 3.415e-10
 20.54743    -16.5 9.303e+03 4.092e-10
 20.56875    -16.2 9.564e+03 5.048e-10
 20.58464    -15.2 9.593e+03 5.323e-10
 20.60377    -15.1 9.659e+03 5.707e-10
 20.61443    -15.0 9.874e+03 6.828e-10
 20.61761    -14.4 1.004e+04 8.126e-10
 20.62827    -14.6 1.006e+04 8.406e-10
 20.64850    -14.0 1.015e+04 9.129e-10
 20.66029    -13.4 1.017e+04 9.400e-10
 20.67095    -13.3 1.038e+04 1.046e-09
 20.69114    -12.7 1.025e+04 1.027e-09
 20.70616    -12.0 1.003e+04 9.357e-10
 20.71682    -11.9 1.014e+04 9.926e-10
 20.73378    -11.1 9.874e+03 8.543e-10
 20.75203    -10.4 9.562e+03 7.038e-10
 20.76269    -10.4 9.703e+03 7.601e-10
 20.77642     -9.6 9.370e+03 6.146e-10
 20.79775     -8.8 9.103e+03 5.100e-10
 20.80855     -8.3 9.029e+03 4.783e-10
 20.81921     -8.1 9.040e+03 4.838e-10
 20.84386     -7.4 8.966e+03 4.437e-10
 20.86528     -7.0 9.015e+03 4.766e-10
 20.89388     -5.5 8.850e+03 4.235e-10
 20.93569     -3.7 8.663e+03 3.861e-10
 20.95701     -3.2 8.760e+03 4.173e-10
 20.97917     -1.3 8.635e+03 3.925e-10
 21.00378      0.7 8.578e+03 3.846e-10
 21.02510      0.7 8.530e+03 3.810e-10
 21.04874      2.6 8.523e+03 3.830e-10
 21.07006      3.1 8.528e+03 3.893e-10
 21.10709      5.1 8.514e+03 3.894e-10
 21.14048      7.2 8.470e+03 3.870e-10
 21.16180      7.9 8.490e+03 3.951e-10
 21.19237     10.1 8.386e+03 3.720e-10
 21.23221     12.5 8.238e+03 3.340e-10
 21.25353     13.1 8.343e+03 3.539e-10
 21.27766     15.6 8.167e+03 3.137e-10
 21.32030     18.1 8.027e+03 2.850e-10
 21.34526     20.8 7.984e+03 2.747e-10
 21.36658     21.4 8.022e+03 2.782e-10
 21.40558     24.2 8.009e+03 2.738e-10
 21.43700     27.1 8.072e+03 2.794e-10
 21.45832     27.7 8.084e+03 2.802e-10
 21.49086     30.6 8.186e+03 3.000e-10
 21.52873     33.4 8.252e+03 3.145e-10
 21.54995     33.4 8.191e+03 3.042e-10
 21.56529     34.9 8.188e+03 3.019e-10
 21.58506     35.0 8.371e+03 3.185e-10
 21.59572     32.7 9.254e+03 4.349e-10
 21.60793     27.5 1.244e+04 1.167e-09
 21.62925     23.5 1.426e+04 3.030e-09
 21.64154     22.4 1.503e+04 5.229e-09
 21.64682     22.3 1.526e+04 5.837e-09
 21.65581     21.9 1.564e+04 7.125e-09
 21.66442     22.0 1.623e+04 9.928e-09
 21.66975     22.5 1.659e+04 1.114e-08
 21.67713     22.6 1.692e+04 1.200e-08
 21.68736     22.6 1.725e+04 1.230e-08
 21.69269     22.9 1.735e+04 1.224e-08
 21.69845     22.6 1.754e+04 1.115e-08
 21.70911     20.9 1.827e+04 9.168e-09
 21.71562     18.6 1.979e+04 8.668e-09
 21.72095     19.0 1.914e+04 7.585e-09
 21.73327      9.4 2.077e+04 6.670e-09
 21.74398     10.3 1.843e+04 4.250e-09
 21.75718     -3.3 2.014e+04 4.755e-09
 21.77554    -10.3 2.095e+04 1.305e-08
 21.78620     -8.0 2.042e+04 1.030e-08
 21.78980    -10.7 2.100e+04 2.045e-08
 21.79508    -10.5 2.156e+04 2.241e-08
 21.80505    -11.8 2.155e+04 3.534e-08
 21.81269    -12.9 2.135e+04 4.863e-08
 21.81802    -12.1 2.191e+04 6.095e-08
 21.82637    -12.8 2.184e+04 6.888e-08
 21.83562    -13.9 2.175e+04 6.854e-08
 21.84095    -13.2 2.249e+04 7.741e-08
 21.84769    -14.4 2.205e+04 5.809e-08
 21.85835    -16.1 2.156e+04 3.094e-08
 21.86388    -19.0 2.052e+04 1.509e-08
 21.86921    -18.3 2.075e+04 1.548e-08
 21.87967    -21.6 1.914e+04 8.907e-09
 21.88682    -24.0 1.769e+04 6.315e-09
 21.89215    -23.3 1.787e+04 6.277e-09
 21.90637    -25.6 1.675e+04 4.429e-09
 21.92745    -31.5 1.350e+04 2.155e-09
 21.93811    -32.3 1.324e+04 1.858e-09
 21.94906    -35.3 1.200e+04 1.403e-09
 21.97038    -36.4 1.176e+04 1.299e-09
 21.98398    -37.5 1.170e+04 1.253e-09
 21.99464    -38.3 1.169e+04 1.193e-09
 22.01303    -39.8 1.167e+04 1.206e-09
 22.02984    -41.2 1.164e+04 1.225e-09
 22.04050    -42.4 1.181e+04 1.283e-09
 22.05567    -44.1 1.190e+04 1.364e-09
 22.07571    -45.8 1.200e+04 1.484e-09
 22.08637    -47.9 1.310e+04 2.155e-09
 22.09831    -49.4 1.340e+04 2.482e-09
 22.11963    -50.8 1.360e+04 2.764e-09
 22.13224    -52.0 1.371e+04 2.954e-09
 22.14290    -53.8 1.543e+04 5.043e-09
 22.16152    -55.1 1.544e+04 5.070e-09
 22.17218    -55.6 1.569e+04 5.549e-09
 22.17810    -56.9 1.536e+04 4.977e-09
 22.18876    -59.5 1.727e+04 8.676e-09
 22.20491    -61.0 1.684e+04 7.390e-09
 22.22397    -62.4 1.620e+04 5.845e-09
 22.23463    -65.1 1.807e+04 1.087e-08
 22.24755    -66.2 1.742e+04 8.673e-09
 22.26887    -67.2 1.665e+04 6.350e-09
 22.28050    -68.1 1.577e+04 4.406e-09
 22.29116    -70.6 1.760e+04 8.857e-09
 22.31151    -71.5 1.691e+04 6.769e-09
 22.32636    -72.3 1.623e+04 5.272e-09
 22.33702    -74.3 1.757e+04 8.883e-09
 22.35416    -74.9 1.714e+04 7.958e-09
 22.37223    -75.2 1.670e+04 7.130e-09
 22.38289    -76.6 1.751e+04 8.375e-09
 22.39680    -76.7 1.715e+04 7.747e-09
 22.41810    -76.6 1.672e+04 7.011e-09
 22.43942    -77.7 1.630e+04 6.018e-09
 22.46076    -77.4 1.584e+04 5.316e-09
 22.47462    -77.0 1.537e+04 4.640e-09
 22.48529    -78.1 1.511e+04 3.709e-09
 22.50340    -77.9 1.464e+04 3.252e-09
 22.52049    -77.5 1.416e+04 2.842e-09
 22.53115    -78.6 1.353e+04 2.002e-09
 22.54604    -78.3 1.323e+04 1.896e-09
 22.55816    -77.9 1.300e+04 1.842e-09
 22.56782    -77.7 1.295e+04 1.804e-09
 22.57702    -78.9 1.244e+04 1.520e-09
 22.58868    -78.5 1.243e+04 1.591e-09
 22.61000    -78.0 1.247e+04 1.673e-09
 22.62289    -77.6 1.254e+04 1.755e-09
 22.63355    -78.6 1.249e+04 1.779e-09
 22.65265    -78.3 1.256e+04 1.894e-09
 22.66875    -78.1 1.265e+04 2.023e-09
 22.67941    -79.0 1.266e+04 2.095e-09
 22.69529    -78.8 1.271e+04 2.151e-09
 22.71462    -78.7 1.275e+04 2.189e-09
 22.72528    -79.6 1.250e+04 2.017e-09
 22.73793    -79.4 1.234e+04 1.895e-09
 22.75925    -79.1 1.213e+04 1.724e-09
 22.77115    -78.8 1.187e+04 1.512e-09
 22.78181    -79.7 1.123e+04 1.115e-09
 22.80189    -79.6 1.092e+04 9.438e-10
 22.81701    -79.6 1.063e+04 8.100e-10
 22.82767    -80.7 1.032e+04 7.251e-10
 22.84453    -80.6 1.029e+04 7.109e-10
 22.86288    -80.3 1.028e+04 7.049e-10
 22.87354    -80.7 1.028e+04 7.155e-10
 22.88717    -80.3 1.033e+04 7.341e-10
 22.90849    -79.8 1.043e+04 7.682e-10
 22.91941    -79.3 1.053e+04 8.051e-10
 22.93007    -79.5 1.066e+04 8.761e-10
 22.94414    -79.1 1.073e+04 9.061e-10
 22.95480    -79.6 1.067e+04 9.010e-10
 22.96527    -79.2 1.067e+04 9.051e-10
 22.97593    -79.2 1.076e+04 9.610e-10
 22.99378    -78.7 1.072e+04 9.600e-10
 23.01114    -78.1 1.064e+04 9.454e-10
 23.02180    -78.0 1.075e+04 9.938e-10
 23.03642    -77.4 1.066e+04 9.580e-10
 23.05701    -76.8 1.053e+04 8.959e-10
 23.06767    -76.8 1.072e+04 9.743e-10
 23.07906    -76.2 1.060e+04 9.090e-10
 23.10038    -75.7 1.046e+04 8.334e-10
 23.11353    -75.2 1.032e+04 7.558e-10
 23.12419    -75.4 1.071e+04 9.383e-10
 23.14302    -75.0 1.061e+04 8.782e-10
 23.15940    -74.5 1.051e+04 8.245e-10
 23.17006    -74.7 1.101e+04 1.094e-09
 23.18566    -74.3 1.088e+04 1.033e-09
 23.20527    -73.8 1.073e+04 9.687e-10
 23.21593    -74.0 1.106e+04 1.164e-09
 23.22830    -73.4 1.080e+04 1.018e-09
 23.24963    -72.8 1.056e+04 8.512e-10
 23.26179    -72.3 1.028e+04 7.175e-10
 23.27245    -73.0 1.022e+04 6.574e-10
 23.29227    -72.6 9.989e+03 5.224e-10
 23.30766    -72.3 9.836e+03 4.237e-10
 23.31832    -73.4 9.621e+03 3.531e-10
 23.33012    -73.2 9.527e+03 3.114e-10
 23.34088    -74.7 9.399e+03 2.826e-10
 23.36708    -73.4 9.257e+03 2.575e-10
 23.39959    -71.8 8.992e+03 2.270e-10
 23.42091    -73.0 9.002e+03 2.349e-10
 23.45237    -71.1 8.734e+03 1.990e-10
 23.49132    -69.0 8.506e+03 1.649e-10
 23.51264    -69.5 8.555e+03 1.753e-10
 23.53765    -67.2 8.335e+03 1.391e-10
 23.58029    -64.8 8.194e+03 1.144e-10
 23.60438    -62.4 8.115e+03 9.787e-11
 23.62570    -62.2 8.130e+03 1.015e-10
 23.66557    -59.9 8.091e+03 8.970e-11
 23.69611    -57.5 8.067e+03 8.115e-11
 23.71743    -57.2 8.153e+03 9.376e-11
 23.75086    -54.7 8.115e+03 8.558e-11
 23.78784    -52.3 8.080e+03 7.796e-11
 23.80916    -52.0 8.301e+03 1.064e-10
 23.83614    -49.5 8.248e+03 9.719e-11
 23.87878    -47.0 8.205e+03 8.895e-11
 23.90090    -44.5 8.181e+03 8.306e-11
 23.92222    -43.9 8.393e+03 1.145e-10
 23.96406    -41.3 8.369e+03 1.101e-10
 23.99263    -38.8 8.371e+03 1.099e-10
 24.01395    -38.3 8.569e+03 1.398e-10
 24.04935    -35.8 8.606e+03 1.431e-10
 24.08436    -33.3 8.728e+03 1.587e-10
 24.10531    -32.9 8.917e+03 1.668e-10
 24.11294    -33.4 8.952e+03 1.712e-10
 24.13463    -31.0 9.048e+03 1.951e-10
 24.17610    -28.8 9.200e+03 2.297e-10
 24.19742    -28.6 9.230e+03 2.231e-10
 24.21991    -26.6 9.449e+03 2.739e-10
 24.26255    -24.8 9.748e+03 3.526e-10
 24.28915    -23.2 1.012e+04 4.760e-10
 24.31047    -23.3 1.013e+04 4.732e-10
 24.34784    -21.7 1.053e+04 6.378e-10
 24.38089    -20.5 1.085e+04 7.760e-10
 24.40221    -20.8 1.079e+04 7.323e-10
 24.43312    -19.8 1.087e+04 7.636e-10
 24.47262    -18.8 1.085e+04 7.102e-10
 24.49394    -18.8 1.057e+04 5.703e-10
 24.51840    -17.6 1.044e+04 4.666e-10
 24.56104    -16.4 1.044e+04 4.071e-10
 24.58567    -15.5 1.051e+04 3.972e-10
 24.60699    -15.0 1.023e+04 3.424e-10
 24.64633    -14.5 1.059e+04 3.652e-10
 24.67741    -14.3 1.108e+04 4.834e-10
 24.69873    -13.7 1.081e+04 4.349e-10
 24.73161    -13.6 1.125e+04 6.557e-10
 24.76914    -13.6 1.156e+04 8.664e-10
 24.79046    -12.7 1.158e+04 8.853e-10
 24.81689    -12.8 1.165e+04 9.518e-10
 24.85953    -12.4 1.156e+04 8.161e-10
 24.88210    -12.5 1.127e+04 4.666e-10
 24.88604    -12.0 1.131e+04 4.933e-10
 24.89536    -12.8 1.129e+04 4.506e-10
 24.91264    -12.6 1.127e+04 3.915e-10
 24.94472    -12.5 1.118e+04 3.045e-10
 24.97393    -12.3 1.101e+04 2.251e-10
 24.99525    -11.6 1.116e+04 2.801e-10
 25.03010    -10.9 1.107e+04 2.190e-10
 25.06566     -9.6 1.107e+04 1.946e-10
 25.08698     -9.0 1.117e+04 2.405e-10
 25.11538     -7.7 1.117e+04 2.118e-10
 25.15739     -6.3 1.119e+04 1.853e-10
 25.17872     -5.3 1.130e+04 2.191e-10
 25.20066     -3.9 1.124e+04 1.745e-10
 25.24331     -2.5 1.121e+04 1.432e-10
 25.27045     -1.0 1.117e+04 1.255e-10
 25.29177     -0.1 1.117e+04 1.294e-10
 25.32859      1.3 1.112e+04 1.208e-10
 25.36218      2.7 1.112e+04 1.206e-10
 25.38350      3.8 1.111e+04 1.255e-10
 25.41387      5.3 1.116e+04 1.373e-10
 25.45392      6.8 1.115e+04 1.672e-10
 25.47524      7.9 1.120e+04 1.762e-10
 25.49915      9.6 1.117e+04 2.012e-10
 25.54180     11.4 1.115e+04 2.083e-10
 25.56697     13.3 1.105e+04 1.993e-10
 25.58829     14.5 1.111e+04 2.118e-10
 25.62708     16.3 1.100e+04 1.750e-10
 25.65685     18.0 1.096e+04 1.484e-10
 25.66716     17.9 1.092e+04 1.284e-10
 25.68002     19.0 1.097e+04 1.402e-10
 25.71236     20.6 1.098e+04 1.393e-10
 25.75044     22.3 1.102e+04 1.517e-10
 25.77176     23.4 1.104e+04 1.628e-10
 25.79764     25.1 1.110e+04 1.869e-10
 25.84029     26.7 1.118e+04 2.247e-10
 25.86349     28.3 1.123e+04 2.682e-10
 25.88481     29.4 1.125e+04 2.644e-10
 25.92557     31.0 1.129e+04 3.192e-10
 25.95522     32.5 1.133e+04 3.699e-10
 25.97654     33.7 1.137e+04 3.861e-10
 26.01085     35.2 1.157e+04 4.341e-10
 26.04696     36.1 1.170e+04 4.494e-10
 26.06828     37.1 1.171e+04 4.909e-10
 26.08538     36.7 1.170e+04 4.528e-10
 26.10329     36.4 1.170e+04 4.996e-10
 26.11395     36.8 1.168e+04 5.846e-10
 26.12792     37.0 1.172e+04 7.802e-10
 26.14916     37.4 1.187e+04 9.470e-10
 26.17048     38.5 1.229e+04 1.156e-09
 26.19188     38.7 1.239e+04 1.178e-09
 26.20568     38.5 1.247e+04 1.104e-09
 26.21634     39.0 1.252e+04 1.098e-09
 26.23452     38.8 1.237e+04 9.624e-10
 26.25155     38.9 1.217e+04 8.453e-10
 26.26221     39.3 1.220e+04 8.401e-10
 26.27716     39.7 1.202e+04 7.095e-10
 26.29742     40.0 1.187e+04 5.632e-10
 26.30808     40.3 1.189e+04 5.568e-10
 26.31981     40.3 1.188e+04 5.224e-10
 26.34338     40.2 1.173e+04 4.344e-10
 26.36480     41.2 1.167e+04 4.049e-10
 26.39462     42.5 1.148e+04 3.199e-10
 26.42881     44.2 1.136e+04 2.714e-10
 26.44808     45.0 1.133e+04 2.681e-10
 26.45653     46.0 1.135e+04 2.579e-10
 26.47991     47.9 1.126e+04 2.337e-10
 26.52255     49.9 1.116e+04 2.108e-10
 26.54827     52.0 1.111e+04 1.840e-10
 26.56959     53.2 1.117e+04 2.017e-10
 26.60783     55.3 1.117e+04 1.802e-10
 26.64000     57.2 1.120e+04 1.688e-10
 26.66132     58.5 1.128e+04 1.876e-10
 26.69311     60.3 1.137e+04 1.900e-10
 26.73173     61.4 1.148e+04 2.304e-10
 26.75305     62.8 1.155e+04 2.438e-10
 26.77840     63.5 1.190e+04 3.536e-10
 26.81028     64.1 1.201e+04 4.953e-10
 26.82525     64.2 1.236e+04 6.319e-10
 26.83591     65.0 1.223e+04 5.320e-10
 26.84459     65.5 1.225e+04 7.315e-10
 26.85525     66.1 1.228e+04 7.098e-10
 26.87414     66.7 1.245e+04 8.256e-10
 26.89046     67.4 1.222e+04 9.512e-10
 26.90112     67.9 1.224e+04 8.828e-10
 26.91679     68.8 1.209e+04 8.606e-10
 26.93632     69.6 1.228e+04 6.748e-10
 26.94699     70.0 1.219e+04 6.326e-10
 26.95943     70.5 1.188e+04 5.572e-10
 26.99151     70.9 1.196e+04 3.590e-10
 27.02825     71.6 1.143e+04 2.521e-10
 27.04957     72.9 1.151e+04 2.701e-10
 27.07689     74.4 1.109e+04 2.502e-10
 27.11953     76.4 1.085e+04 2.372e-10
 27.14131     78.7 1.067e+04 2.022e-10
 27.16263     79.8 1.093e+04 2.392e-10
 27.20077     81.6 1.077e+04 1.932e-10
 27.22209     82.9 1.115e+04 2.510e-10
 27.23304     84.7 1.101e+04 2.091e-10
 27.25436     85.7 1.132e+04 2.565e-10
 27.29009     87.4 1.112e+04 2.266e-10
 27.32477     89.0 1.095e+04 2.127e-10
 27.34600     89.3 1.105e+04 2.333e-10
 27.36452     90.5 1.095e+04 2.331e-10
 27.38111     90.6 1.101e+04 2.340e-10
 27.39177     90.8 1.106e+04 2.452e-10
 27.40716     91.5 1.129e+04 2.816e-10
 27.42697     91.7 1.140e+04 2.997e-10
 27.43763     91.4 1.203e+04 3.420e-10
 27.44980     91.9 1.234e+04 4.738e-10
 27.47112     92.4 1.261e+04 5.904e-10
 27.48350     93.2 1.270e+04 6.772e-10
 27.49416     92.7 1.342e+04 1.116e-09
 27.51377     93.6 1.347e+04 1.338e-09
 27.52937     94.4 1.349e+04 1.520e-09
 27.54003     94.2 1.408e+04 2.532e-09
 27.55641     95.0 1.400e+04 2.573e-09
 27.57523     95.6 1.390e+04 2.632e-09
 27.58589     95.5 1.445e+04 3.897e-09
 27.59721     96.2 1.432e+04 3.915e-09
 27.60787     96.2 1.451e+04 4.618e-09
 27.62037     97.0 1.436e+04 4.483e-09
 27.63176     97.9 1.424e+04 4.541e-09
 27.64242     98.2 1.474e+04 4.592e-09
 27.66301     99.3 1.446e+04 4.239e-09
 27.67763    100.4 1.440e+04 3.762e-09
 27.68829    100.4 1.444e+04 3.216e-09
 27.70565    101.2 1.422e+04 2.677e-09
 27.72349    102.1 1.387e+04 2.185e-09
 27.73415    101.8 1.364e+04 1.603e-09
 27.74829    102.5 1.327e+04 1.319e-09
 27.76936    103.3 1.294e+04 1.129e-09
 27.78002    102.8 1.247e+04 8.424e-10
 27.79093    103.7 1.216e+04 7.607e-10
 27.81226    104.6 1.190e+04 7.137e-10
 27.82589    105.5 1.179e+04 7.029e-10
 27.83655    105.4 1.146e+04 6.406e-10
 27.85490    106.4 1.140e+04 6.781e-10
 27.87175    107.4 1.146e+04 7.131e-10
 27.88241    107.5 1.146e+04 7.253e-10
 27.89754    108.4 1.152e+04 7.523e-10
 27.91762    109.2 1.162e+04 7.710e-10
 27.92828    109.4 1.159e+04 8.034e-10
 27.94018    110.1 1.160e+04 8.020e-10
 27.96150    110.8 1.159e+04 7.910e-10
 27.97415    111.5 1.162e+04 7.782e-10
 27.98481    112.0 1.154e+04 7.575e-10
 27.99385    112.7 1.155e+04 7.318e-10
 28.00451    113.3 1.118e+04 5.417e-10
 28.02001    114.0 1.127e+04 5.182e-10
 28.03068    114.6 1.120e+04 4.870e-10
 28.04678    115.3 1.130e+04 4.723e-10
 28.06588    115.7 1.142e+04 4.935e-10
 28.07654    116.2 1.131e+04 4.289e-10
 28.10018    117.4 1.118e+04 4.302e-10
 28.12260    118.9 1.108e+04 4.293e-10
 28.14392    119.9 1.092e+04 3.682e-10
 28.18556    121.5 1.082e+04 3.717e-10
 28.21434    123.0 1.074e+04 3.691e-10
 28.23566    124.4 1.073e+04 3.693e-10
 28.27085    126.2 1.065e+04 3.574e-10
 28.30607    128.0 1.054e+04 3.301e-10
 28.32739    129.6 1.064e+04 3.717e-10
 28.35613    131.4 1.060e+04 3.588e-10
 28.39780    133.2 1.052e+04 3.425e-10
 28.41912    134.8 1.072e+04 4.171e-10
 28.44141    136.7 1.071e+04 4.076e-10
 28.48405    138.6 1.067e+04 3.953e-10
 28.51086    140.6 1.068e+04 3.975e-10
 28.53218    141.7 1.072e+04 4.401e-10
 28.55663    143.3 1.065e+04 4.142e-10
 28.56719    144.0 1.067e+04 4.333e-10
 28.57980    144.8 1.074e+04 4.500e-10
 28.60112    145.7 1.088e+04 4.979e-10
 28.61306    146.6 1.110e+04 5.928e-10
 28.62372    147.3 1.111e+04 6.224e-10
 28.64376    148.0 1.138e+04 7.716e-10
 28.65892    148.7 1.170e+04 9.944e-10
 28.66958    149.4 1.167e+04 9.872e-10
 28.68640    150.0 1.200e+04 1.280e-09
 28.70479    150.8 1.231e+04 1.623e-09
 28.71545    151.3 1.219e+04 1.515e-09
 28.72905    152.0 1.255e+04 1.888e-09
 28.75037    152.7 1.290e+04 2.290e-09
 28.76132    153.2 1.316e+04 2.541e-09
 28.76610    153.5 1.301e+04 2.400e-09
 28.77647    154.4 1.331e+04 2.745e-09
 28.79301    154.7 1.367e+04 3.198e-09
 28.80718    154.8 1.394e+04 3.438e-09
 28.81784    155.1 1.366e+04 3.100e-09
 28.83565    154.9 1.398e+04 3.373e-09
 28.85305    154.3 1.436e+04 3.738e-09
 28.86371    154.7 1.391e+04 3.219e-09
 28.87829    154.0 1.428e+04 3.641e-09
 28.89892    153.4 1.440e+04 3.799e-09
 28.90958    154.2 1.383e+04 2.930e-09
 28.92093    153.6 1.380e+04 2.886e-09
 28.94225    153.4 1.348e+04 2.580e-09
 28.95544    153.4 1.298e+04 2.080e-09
 28.96610    154.1 1.267e+04 1.740e-09
 28.98489    154.0 1.223e+04 1.379e-09
 29.00131    154.0 1.169e+04 9.920e-10
 29.01197    154.7 1.166e+04 9.701e-10
 29.02753    154.6 1.120e+04 7.603e-10
 29.04718    154.6 1.078e+04 6.013e-10
 29.05784    155.6 1.083e+04 6.543e-10
 29.07018    155.8 1.061e+04 5.511e-10
 29.09150    155.8 1.049e+04 4.669e-10
 29.10380    155.8 1.026e+04 3.603e-10
 29.11446    157.2 1.047e+04 4.538e-10
 29.13414    157.1 1.036e+04 4.000e-10
 29.16622    158.8 1.023e+04 3.764e-10
 29.19563    160.6 1.006e+04 3.494e-10
 29.20620    161.4 1.020e+04 3.920e-10
 29.21942    161.5 1.016e+04 3.821e-10
 29.25150    163.4 1.012e+04 3.849e-10
 29.28737    165.2 1.004e+04 3.716e-10
 29.30859    166.3 1.016e+04 4.253e-10
 29.32602    167.6 1.015e+04 4.228e-10
 29.34370    168.1 1.018e+04 4.223e-10
 29.35436    169.5 1.039e+04 5.333e-10
 29.36867    170.6 1.040e+04 5.279e-10
 29.38957    171.4 1.042e+04 5.151e-10
 29.40023    172.8 1.075e+04 6.975e-10
 29.41131    173.7 1.076e+04 6.642e-10
 29.43263    174.6 1.077e+04 6.315e-10
 29.44609    175.4 1.079e+04 6.187e-10
 29.45675    176.3 1.106e+04 7.547e-10
 29.47527    176.9 1.104e+04 7.206e-10
 29.49196    177.3 1.100e+04 7.147e-10
 29.50262    177.9 1.117e+04 7.705e-10
 29.51791    178.3 1.111e+04 7.696e-10
 29.53777    178.6 1.111e+04 7.889e-10
 29.54843    180.4 1.146e+04 9.297e-10
 29.56055    180.6 1.144e+04 9.527e-10
 29.58187    181.0 1.146e+04 1.023e-09
 29.59435    181.5 1.157e+04 1.123e-09
 29.60501    181.3 1.172e+04 1.205e-09
 29.62451    181.3 1.198e+04 1.371e-09
 29.64022    180.7 1.267e+04 1.676e-09
 29.65088    179.6 1.310e+04 2.080e-09
 29.66716    177.2 1.486e+04 3.484e-09
 29.68609    173.7 1.764e+04 7.713e-09
 29.69675    173.6 1.741e+04 8.013e-09
 29.70980    170.5 1.938e+04 1.337e-08
 29.72574    167.0 2.099e+04 1.703e-08
 29.73599    164.3 2.189e+04 1.954e-08
 29.74132    166.1 2.113e+04 1.680e-08
 29.74252    163.7 2.195e+04 1.814e-08
 29.74785    162.9 2.185e+04 1.621e-08
 29.75767    160.4 2.218e+04 1.714e-08
 29.76545    157.5 2.232e+04 1.854e-08
 29.77078    157.0 2.186e+04 1.658e-08
 29.77899    154.3 2.163e+04 1.839e-08
 29.78838    152.2 2.086e+04 2.028e-08
 29.79371    151.6 2.078e+04 1.903e-08
 29.80031    150.4 2.012e+04 2.122e-08
 29.81097    149.7 1.974e+04 2.140e-08
 29.81665    149.4 1.932e+04 2.057e-08
 29.82198    148.7 1.960e+04 2.224e-08
 29.83229    148.6 1.929e+04 2.043e-08
 29.83958    148.4 1.918e+04 1.764e-08
 29.84491    147.7 1.942e+04 2.091e-08
 29.85361    147.1 1.923e+04 1.620e-08
 29.86251    146.4 1.898e+04 1.403e-08
 29.86784    146.0 1.926e+04 1.692e-08
 29.88016    145.6 1.854e+04 1.146e-08
 29.89087    145.2 1.929e+04 1.638e-08
 29.90168    144.0 1.827e+04 9.076e-09
 29.92300    141.8 1.629e+04 4.563e-09
 29.93441    139.6 1.397e+04 2.730e-09
 29.93748    140.2 1.513e+04 3.119e-09
 29.94740    139.4 1.506e+04 2.793e-09
 29.96565    137.7 1.360e+04 2.063e-09
 29.98261    137.8 1.377e+04 2.000e-09
 29.99327    136.6 1.231e+04 1.147e-09
 30.00829    137.5 1.267e+04 1.136e-09
 30.02847    138.1 1.533e+04 1.383e-09
 30.03913    136.5 1.095e+04 6.214e-10
 30.05093    136.9 1.307e+04 7.189e-10
 30.07225    136.8 1.782e+04 9.658e-10
 30.08500    136.6 2.307e+04 2.015e-09
 30.09566    136.2 1.276e+04 9.011e-10
 30.11489    135.7 1.656e+04 1.031e-09
 30.13087    134.1 1.858e+04 1.680e-09
 30.14153    135.3 1.169e+04 9.562e-10
 30.15753    134.1 1.259e+04 1.080e-09
 30.17673    133.0 1.458e+04 2.535e-09
 30.18740    135.7 1.134e+04 9.738e-10
 30.20017    135.4 1.261e+04 1.655e-09
 30.22149    136.1 1.370e+04 2.447e-09
 30.23326    137.3 1.422e+04 2.970e-09
 30.24392    138.7 1.260e+04 1.506e-09
 30.26414    139.7 1.310e+04 1.810e-09
 30.27913    140.9 1.332e+04 1.956e-09
 30.28979    142.1 1.220e+04 1.225e-09
 30.30678    143.1 1.241e+04 1.369e-09
 30.32039    144.0 1.250e+04 1.479e-09
 30.32795    145.6 1.363e+04 2.394e-09
 30.33566    146.6 1.323e+04 2.057e-09
 30.34942    147.7 1.334e+04 2.047e-09
 30.37074    148.6 1.324e+04 1.932e-09
 30.38152    149.4 1.295e+04 1.791e-09
 30.39218    150.4 1.290e+04 1.853e-09
 30.41338    151.1 1.261e+04 1.775e-09
 30.42739    151.9 1.259e+04 1.722e-09
 30.43805    152.8 1.247e+04 1.727e-09
 30.45602    153.5 1.241e+04 1.640e-09
 30.47326    154.1 1.263e+04 1.623e-09
 30.48392    154.9 1.206e+04 1.351e-09
 30.49866    155.2 1.227e+04 1.213e-09
 30.51912    155.1 1.256e+04 1.148e-09
 30.52978    155.7 1.160e+04 7.002e-10
 30.54130    155.0 1.166e+04 5.929e-10
 30.56263    154.6 1.162e+04 5.993e-10
 30.57565    154.7 1.166e+04 6.351e-10
 30.58631    154.1 1.039e+04 2.934e-10
 30.60527    154.2 1.063e+04 3.281e-10
 30.62152    154.5 1.089e+04 3.668e-10
 30.63218    153.8 9.443e+03 1.901e-10
 30.64791    154.4 9.718e+03 2.096e-10
 30.66738    154.9 1.008e+04 2.432e-10
 30.67804    154.4 8.887e+03 1.629e-10
 30.69055    154.8 8.980e+03 1.754e-10
 30.70637    155.2 9.263e+03 2.099e-10
 30.71703    154.8 9.877e+03 2.471e-10
 30.72391    155.4 1.013e+04 3.459e-10
 30.73457    155.1 9.456e+03 2.316e-10
 30.75451    156.1 9.599e+03 2.731e-10
 30.76978    157.2 9.699e+03 3.467e-10
 30.78044    157.1 9.609e+03 3.118e-10
 30.79715    158.3 9.724e+03 3.652e-10
 30.81564    159.4 9.926e+03 4.269e-10
 30.82630    159.6 9.860e+03 4.234e-10
 30.83979    160.8 1.006e+04 4.853e-10
 30.86111    161.9 1.033e+04 5.500e-10
 30.87217    162.7 1.064e+04 6.148e-10
 30.88283    163.5 1.061e+04 6.145e-10
 30.90376    164.1 1.089e+04 6.781e-10
 30.91804    164.6 1.111e+04 7.496e-10
 30.92870    165.4 1.110e+04 7.602e-10
 30.94640    165.9 1.125e+04 8.464e-10
 30.96390    166.5 1.131e+04 9.379e-10
 30.97456    167.3 1.136e+04 9.621e-10
 30.98904    167.9 1.129e+04 9.934e-10
 31.00977    168.4 1.121e+04 9.694e-10
 31.02043    169.4 1.125e+04 9.792e-10
 31.03168    169.7 1.107e+04 8.886e-10
 31.05300    169.6 1.098e+04 7.858e-10
 31.06630    169.1 1.095e+04 7.214e-10
 31.07696    170.0 1.095e+04 7.231e-10
 31.09235    169.2 1.094e+04 7.185e-10
 31.10301    169.6 1.122e+04 8.577e-10
 31.11216    168.6 1.123e+04 8.684e-10
 31.12282    169.3 1.171e+04 9.762e-10
 31.13828    167.9 1.173e+04 1.048e-09
 31.15803    166.7 1.169e+04 1.147e-09
 31.16869    166.4 1.264e+04 1.538e-09
 31.18093    165.6 1.251e+04 1.630e-09
 31.20225    164.5 1.259e+04 1.704e-09
 31.21456    163.1 1.296e+04 1.811e-09
 31.22522    161.8 1.427e+04 2.771e-09
 31.24489    159.7 1.513e+04 3.277e-09
 31.26042    157.7 1.563e+04 3.875e-09
 31.27109    156.7 1.676e+04 6.185e-09
 31.28753    156.2 1.656e+04 7.242e-09
 31.30629    156.3 1.633e+04 7.357e-09
 31.31695    155.5 1.714e+04 8.724e-09
 31.33017    156.0 1.682e+04 8.376e-09
 31.35149    156.8 1.639e+04 7.435e-09
 31.36282    157.6 1.595e+04 6.124e-09
 31.37348    156.3 1.606e+04 6.029e-09
 31.39413    157.0 1.556e+04 4.671e-09
 31.40869    157.3 1.503e+04 3.510e-09
 31.41935    155.7 1.495e+04 3.220e-09
 31.43677    155.9 1.423e+04 2.469e-09
 31.45455    156.4 1.354e+04 1.969e-09
 31.46521    155.3 1.318e+04 1.758e-09
 31.47832    156.3 1.279e+04 1.537e-09
 31.48899    155.0 1.290e+04 1.582e-09
 31.50042    156.4 1.277e+04 1.476e-09
 31.51108    156.0 1.269e+04 1.344e-09
 31.52206    157.6 1.264e+04 1.300e-09
 31.54338    159.1 1.257e+04 1.268e-09
 31.55695    160.5 1.250e+04 1.250e-09
 31.56761    160.3 1.250e+04 1.199e-09
 31.58602    161.8 1.244e+04 1.233e-09
 31.60281    163.4 1.242e+04 1.272e-09
 31.61347    163.5 1.242e+04 1.272e-09
 31.62866    165.2 1.245e+04 1.349e-09
 31.64868    166.9 1.248e+04 1.425e-09
 31.65934    167.1 1.246e+04 1.425e-09
 31.67130    168.9 1.251e+04 1.491e-09
 31.69262    170.7 1.251e+04 1.517e-09
 31.70521    172.6 1.247e+04 1.507e-09
 31.71587    172.9 1.246e+04 1.495e-09
 31.73526    174.7 1.241e+04 1.477e-09
 31.75107    176.5 1.239e+04 1.471e-09
 31.76173    176.8 1.230e+04 1.392e-09
 31.77790    178.4 1.228e+04 1.378e-09
 31.79694    179.9 1.223e+04 1.364e-09
 31.80760    180.3 1.204e+04 1.190e-09
 31.82055    181.9 1.196e+04 1.166e-09
 31.84187    183.4 1.192e+04 1.164e-09
 31.85347    185.0 1.194e+04 1.186e-09
 31.86413    185.4 1.166e+04 9.612e-10
 31.87496    186.9 1.167e+04 9.712e-10
 31.88562    186.2 1.145e+04 7.418e-10
 31.89933    187.8 1.148e+04 7.538e-10
 31.90999    188.1 1.117e+04 6.047e-10
 31.92715    189.7 1.118e+04 6.078e-10
 31.94520    191.3 1.124e+04 6.121e-10
 31.95586    191.6 1.094e+04 5.349e-10
 31.96979    193.2 1.095e+04 5.373e-10
 31.99107    194.7 1.096e+04 5.422e-10
 32.01239    197.0 1.094e+04 5.292e-10
 32.03375    198.1 1.103e+04 5.322e-10
 32.04769    200.6 1.120e+04 5.258e-10
 32.05835    200.8 1.099e+04 5.283e-10
 32.07639    201.4 1.105e+04 5.303e-10
 32.10847    204.3 1.109e+04 5.561e-10
 32.13943    206.2 1.118e+04 6.045e-10
 32.16075    207.9 1.136e+04 6.548e-10
 32.18310    210.0 1.154e+04 7.337e-10
 32.19585    211.7 1.173e+04 8.284e-10
 32.20651    211.8 1.176e+04 8.322e-10
 32.22564    213.5 1.198e+04 9.719e-10
 32.24172    215.1 1.229e+04 1.159e-09
 32.25238    215.1 1.238e+04 1.184e-09
 32.26094    216.7 1.279e+04 1.456e-09
 32.27160    216.3 1.316e+04 1.769e-09
 32.28759    217.9 1.368e+04 2.348e-09
 32.29825    217.7 1.400e+04 2.312e-09
 32.31092    219.5 1.465e+04 3.144e-09
 32.33224    221.5 1.529e+04 4.386e-09
 32.34411    224.0 1.619e+04 6.374e-09
 32.35478    223.0 1.641e+04 6.338e-09
 32.37488    225.3 1.744e+04 9.230e-09
 32.38998    228.0 1.879e+04 1.379e-08
 32.40064    226.5 1.880e+04 1.329e-08
 32.41753    228.4 2.001e+04 1.891e-08
 32.43347    228.2 2.077e+04 2.452e-08
 32.44108    228.4 2.132e+04 3.286e-08
 32.44641    227.7 2.097e+04 2.706e-08
 32.45384    228.2 2.143e+04 3.674e-08
 32.45917    227.8 2.138e+04 3.674e-08
 32.46401    228.4 2.172e+04 5.101e-08
 32.46934    227.2 2.141e+04 3.522e-08
 32.47606    227.2 2.180e+04 4.749e-08
 32.48672    226.7 2.210e+04 6.061e-08
 32.49228    225.7 2.236e+04 7.467e-08
 32.49761    223.7 2.207e+04 3.984e-08
 32.50804    221.8 2.226e+04 4.883e-08
 32.51521    219.4 2.223e+04 6.163e-08
 32.52054    218.0 2.229e+04 2.397e-08
 32.52936    215.5 2.280e+04 2.494e-08
 32.53814    212.4 2.361e+04 2.217e-08
 32.54885    207.4 2.342e+04 4.008e-09
 32.56677    199.2 2.672e+04 3.074e-09
 32.58411    191.9 2.901e+04 2.806e-09
 32.59477    193.7 1.568e+04 1.875e-09
 32.60941    190.6 1.851e+04 1.628e-09
 32.62998    190.0 1.952e+04 2.015e-09
 32.64064    192.0 1.451e+04 1.296e-09
 32.64692    192.4 1.596e+04 1.363e-09
 32.65758    191.5 1.328e+04 1.388e-09
 32.67337    192.7 1.363e+04 1.388e-09
 32.68650    194.5 1.448e+04 1.381e-09
 32.69716    196.0 1.318e+04 1.335e-09
 32.71602    197.5 1.308e+04 1.271e-09
 32.73237    198.8 1.304e+04 1.211e-09
 32.75379    201.6 1.263e+04 1.160e-09
 32.79083    204.7 1.234e+04 1.034e-09
 32.82272    206.8 1.220e+04 1.002e-09
 32.83476    208.4 1.221e+04 1.010e-09
 32.84552    209.6 1.228e+04 1.023e-09
 32.87612    212.4 1.249e+04 1.119e-09
 32.90800    213.7 1.281e+04 1.329e-09
 32.92650    214.4 1.337e+04 1.741e-09
 32.93716    215.4 1.317e+04 1.584e-09
 32.95054    216.0 1.389e+04 2.221e-09
 32.97186    216.7 1.470e+04 3.314e-09
 32.98302    217.4 1.549e+04 4.874e-09
 32.99368    218.2 1.525e+04 4.207e-09
 33.01451    218.8 1.598e+04 5.987e-09
 33.02889    219.2 1.650e+04 7.594e-09
 33.03663    220.2 1.634e+04 6.837e-09
 33.04356    220.2 1.661e+04 7.276e-09
 33.05715    220.5 1.709e+04 8.959e-09
 33.07476    220.8 1.732e+04 9.864e-09
 33.08542    221.7 1.727e+04 9.489e-09
 33.09979    222.1 1.758e+04 1.062e-08
 33.12062    222.4 1.765e+04 1.106e-08
 33.13128    223.2 1.794e+04 1.173e-08
 33.14243    223.7 1.813e+04 1.265e-08
 33.16375    224.0 1.800e+04 1.100e-08
 33.17715    224.1 1.759e+04 7.937e-09
 33.18781    224.8 1.848e+04 1.233e-08
 33.20639    224.9 1.810e+04 9.747e-09
 33.22233    225.1 1.803e+04 9.278e-09
 33.22825    225.3 1.784e+04 7.632e-09
 33.23363    225.9 1.838e+04 1.169e-08
 33.24365    225.9 1.829e+04 9.770e-09
 33.25118    225.8 1.823e+04 7.903e-09
 33.25651    226.4 1.861e+04 1.068e-08
 33.26493    226.4 1.877e+04 8.965e-09
 33.27412    226.1 1.870e+04 7.401e-09
 33.27945    226.9 1.916e+04 1.010e-08
 33.28625    226.7 1.917e+04 8.665e-09
 33.29691    226.4 1.885e+04 7.641e-09
 33.30238    225.8 1.826e+04 7.016e-09
 33.30771    227.1 1.931e+04 9.159e-09
 33.31823    226.6 1.877e+04 8.545e-09
 33.32531    226.3 1.813e+04 8.243e-09
 33.33064    227.5 1.920e+04 1.008e-08
 33.33955    227.1 1.859e+04 9.528e-09
 33.34825    226.8 1.799e+04 9.065e-09
 33.35358    227.8 1.895e+04 1.049e-08
 33.36087    227.3 1.825e+04 9.697e-09
 33.37118    226.9 1.766e+04 8.908e-09
 33.37651    227.9 1.843e+04 9.980e-09
 33.38219    227.5 1.778e+04 9.079e-09
 33.39285    227.3 1.734e+04 8.269e-09
 33.39944    227.1 1.705e+04 7.677e-09
 33.40477    227.8 1.745e+04 8.404e-09
 33.41710    227.7 1.718e+04 7.419e-09
 33.42704    228.1 1.761e+04 8.240e-09
 33.42944    229.3 1.815e+04 8.680e-09
 33.44087    230.0 1.860e+04 9.066e-09
 33.46224    229.7 1.768e+04 7.551e-09
 33.47367    229.3 1.637e+04 5.716e-09
 33.48433    230.6 1.851e+04 9.293e-09
 33.50488    230.2 1.711e+04 7.205e-09
 33.51954    230.1 1.634e+04 5.720e-09
 33.53020    231.0 1.780e+04 9.098e-09
 33.54752    230.9 1.699e+04 7.384e-09
 33.56541    231.2 1.653e+04 5.896e-09
 33.57607    231.4 1.732e+04 8.357e-09
 33.59016    231.9 1.681e+04 6.838e-09
 33.61127    232.5 1.623e+04 5.369e-09
 33.62193    232.5 1.683e+04 6.827e-09
 33.63281    233.4 1.630e+04 5.811e-09
 33.65413    234.4 1.570e+04 4.700e-09
 33.66780    235.5 1.507e+04 3.724e-09
 33.67846    235.6 1.589e+04 5.187e-09
 33.69677    236.8 1.549e+04 4.409e-09
 33.71367    237.9 1.509e+04 3.712e-09
 33.72433    238.3 1.589e+04 5.130e-09
 33.73941    239.4 1.576e+04 4.637e-09
 33.75953    240.4 1.563e+04 4.217e-09
 33.77019    240.9 1.637e+04 5.629e-09
 33.78205    241.9 1.653e+04 5.317e-09
 33.80337    242.7 1.659e+04 5.215e-09
 33.81547    243.1 1.682e+04 5.528e-09
 33.81745    242.8 1.781e+04 7.138e-09
 33.82129    243.5 1.796e+04 7.559e-09
 33.82992    243.6 1.823e+04 8.028e-09
 33.83890    243.6 1.842e+04 8.696e-09
 33.84423    244.3 1.859e+04 8.928e-09
 33.85125    244.4 1.875e+04 9.531e-09
 33.86183    244.4 1.875e+04 1.007e-08
 33.86716    245.2 1.883e+04 1.006e-08
 33.87257    245.1 1.851e+04 1.049e-08
 33.88323    245.1 1.831e+04 1.056e-08
 33.89009    245.1 1.807e+04 1.056e-08
 33.89542    245.8 1.818e+04 1.014e-08
 33.90455    245.7 1.786e+04 9.860e-09
 33.91303    245.8 1.753e+04 9.464e-09
 33.91836    246.5 1.770e+04 9.099e-09
 33.92587    246.6 1.736e+04 8.801e-09
 33.93596    246.7 1.709e+04 8.570e-09
 33.94129    247.2 1.716e+04 8.559e-09
 33.94719    247.1 1.694e+04 8.371e-09
 33.95785    247.2 1.677e+04 8.186e-09
 33.96422    247.2 1.667e+04 8.026e-09
 33.96955    247.5 1.687e+04 8.316e-09
 33.97917    247.3 1.688e+04 8.414e-09
 33.98716    247.1 1.695e+04 8.518e-09
 33.99249    247.1 1.728e+04 9.487e-09
 34.00049    246.7 1.742e+04 9.765e-09
 34.00841    246.4 1.757e+04 9.689e-09
 34.01268    246.1 1.723e+04 8.153e-09
 34.01542    245.9 1.756e+04 9.567e-09
 34.02181    245.3 1.780e+04 9.634e-09
 34.03247    244.7 1.801e+04 9.564e-09
 34.03835    243.8 1.814e+04 9.468e-09
 34.04368    242.6 1.886e+04 1.158e-08
 34.05379    241.5 1.901e+04 1.125e-08
 34.06129    240.6 1.915e+04 1.080e-08
 34.06662    238.7 1.990e+04 1.322e-08
 34.07511    237.8 1.970e+04 1.243e-08
 34.08422    237.6 1.962e+04 1.224e-08
 34.08955    235.5 2.013e+04 1.438e-08
 34.10181    235.2 1.978e+04 1.340e-08
 34.12318    231.2 2.001e+04 1.748e-08
 34.14450    230.5 1.949e+04 1.680e-08
 34.15845    229.4 1.906e+04 1.560e-08
 34.16911    227.5 1.962e+04 1.843e-08
 34.18714    226.3 1.880e+04 1.469e-08
 34.20150    225.5 1.779e+04 1.066e-08
 34.20801    224.9 1.737e+04 7.845e-09
 34.21497    223.9 1.736e+04 7.431e-09
 34.22979    223.1 1.624e+04 5.495e-09
 34.25018    222.8 1.536e+04 4.282e-09
 34.26084    222.6 1.536e+04 4.431e-09
 34.27243    222.8 1.471e+04 3.811e-09
 34.29375    223.3 1.426e+04 3.340e-09
 34.30671    224.1 1.425e+04 3.066e-09
 34.31737    224.5 1.405e+04 3.217e-09
 34.33639    225.3 1.420e+04 3.105e-09
 34.35257    226.1 1.430e+04 3.176e-09
 34.36323    226.5 1.409e+04 3.090e-09
 34.37903    227.4 1.431e+04 3.230e-09
 34.39844    228.1 1.466e+04 3.514e-09
 34.40910    228.5 1.425e+04 3.184e-09
 34.42167    229.4 1.461e+04 3.511e-09
 34.44299    230.2 1.510e+04 3.989e-09
 34.45497    230.9 1.564e+04 4.606e-09
 34.46563    231.4 1.483e+04 3.730e-09
 34.48563    232.1 1.530e+04 4.247e-09
 34.50083    232.8 1.578e+04 4.870e-09
 34.51150    233.2 1.481e+04 3.711e-09
 34.52828    233.7 1.529e+04 4.284e-09
 34.54670    234.2 1.574e+04 4.977e-09
 34.55736    234.3 1.483e+04 3.882e-09
 34.57092    234.7 1.530e+04 4.683e-09
 34.58748    235.1 1.570e+04 5.608e-09
 34.59814    235.5 1.674e+04 6.382e-09
 34.60323    235.9 1.730e+04 7.845e-09
 34.61389    235.8 1.642e+04 6.560e-09
 34.63488    236.5 1.708e+04 8.180e-09
 34.64910    236.7 1.728e+04 8.907e-09
 34.65976    236.7 1.690e+04 8.382e-09
 34.67752    236.6 1.687e+04 8.383e-09
 34.69496    236.7 1.658e+04 7.894e-09
 34.70562    236.8 1.641e+04 7.567e-09
 34.72016    237.2 1.596e+04 6.731e-09
 34.74083    237.8 1.535e+04 5.642e-09
 34.75149    237.7 1.551e+04 5.905e-09
 34.76280    238.1 1.498e+04 5.071e-09
 34.78412    238.5 1.445e+04 4.306e-09
 34.79736    239.0 1.396e+04 3.646e-09
 34.80802    238.8 1.432e+04 4.185e-09
 34.82676    239.5 1.387e+04 3.550e-09
 34.84322    240.3 1.348e+04 2.994e-09
 34.85388    240.1 1.373e+04 3.266e-09
 34.86941    240.7 1.338e+04 2.725e-09
 34.88909    241.2 1.314e+04 2.310e-09
 34.89975    240.8 1.329e+04 2.447e-09
 34.91205    241.1 1.313e+04 2.166e-09
 34.93337    241.2 1.300e+04 2.037e-09
 34.94562    241.5 1.293e+04 1.999e-09
 34.95628    240.8 1.293e+04 2.049e-09
 34.97346    241.3 1.284e+04 2.006e-09
 34.98412    242.1 1.419e+04 2.952e-09
 34.99148    242.5 1.433e+04 2.982e-09
 35.00214    241.7 1.393e+04 2.727e-09
 35.01865    242.1 1.391e+04 2.613e-09
 35.03735    242.5 1.399e+04 2.551e-09
 35.04801    241.8 1.334e+04 2.088e-09
 35.06129    242.3 1.338e+04 2.075e-09
 35.08261    242.7 1.350e+04 2.099e-09
 35.09388    243.1 1.374e+04 2.220e-09
 35.10454    242.5 1.298e+04 1.738e-09
 35.12525    243.0 1.337e+04 1.968e-09
 35.13974    243.6 1.395e+04 2.429e-09
 35.15040    243.0 1.318e+04 1.838e-09
 35.16790    243.9 1.401e+04 2.450e-09
 35.18561    245.5 1.497e+04 3.395e-09
 35.19627    244.2 1.426e+04 2.575e-09
 35.21054    245.8 1.543e+04 3.757e-09
 35.23148    247.2 1.624e+04 4.840e-09
 35.24214    245.7 1.563e+04 4.051e-09
 35.24780    246.3 1.620e+04 4.767e-09
 35.25841    246.8 1.649e+04 5.194e-09
 35.26497    247.2 1.709e+04 5.788e-09
 35.27030    245.7 1.662e+04 5.241e-09
 35.27973    245.8 1.716e+04 5.810e-09
 35.28791    244.9 1.851e+04 6.849e-09
 35.29324    242.0 1.812e+04 6.293e-09
 35.30105    240.0 1.979e+04 7.768e-09
 35.31084    237.7 2.128e+04 9.504e-09
 35.31617    232.6 2.168e+04 1.015e-08
 35.32237    229.1 2.297e+04 1.294e-08
 35.33303    225.5 2.384e+04 1.631e-08
 35.33910    221.4 2.454e+04 2.047e-08
 35.34443    215.4 2.455e+04 2.299e-08
 35.35435    211.1 2.516e+04 2.591e-08
 35.36204    206.4 2.563e+04 2.602e-08
 35.36702    201.0 2.517e+04 2.351e-08
 35.37000    201.2 2.539e+04 2.377e-08
 35.37568    196.1 2.528e+04 1.946e-08
 35.38497    190.0 2.441e+04 1.364e-08
 35.39030    185.6 2.339e+04 1.123e-08
 35.40237    174.4 1.867e+04 6.816e-09
 35.42374    167.2 1.569e+04 5.146e-09
 35.43626    164.6 1.545e+04 4.462e-09
 35.44692    162.3 1.506e+04 3.692e-09
 35.46639    160.8 1.457e+04 3.066e-09
 35.48213    158.6 1.382e+04 2.208e-09
 35.49279    154.5 1.350e+04 1.432e-09
 35.50903    150.6 1.254e+04 9.785e-10
 35.52800    146.1 1.178e+04 8.369e-10
 35.53866    143.4 1.137e+04 7.191e-10
 35.55167    140.2 1.150e+04 7.483e-10
 35.57299    136.9 1.190e+04 8.646e-10
 35.58452    133.7 1.233e+04 1.060e-09
 35.59519    133.0 1.194e+04 9.324e-10
 35.61563    130.2 1.216e+04 1.098e-09
 35.63039    127.5 1.234e+04 1.165e-09
 35.64105    127.2 1.197e+04 1.054e-09
 35.65827    124.7 1.197e+04 1.043e-09
 35.67626    122.3 1.184e+04 9.732e-10
 35.68692    122.8 1.156e+04 8.797e-10
 35.70091    120.7 1.127e+04 7.253e-10
 35.72213    118.3 1.097e+04 5.717e-10
 35.73279    119.2 1.066e+04 4.921e-10
 35.74355    116.4 1.041e+04 4.165e-10
 35.75608    113.9 1.027e+04 4.123e-10
 35.76674    113.1 1.026e+04 3.904e-10
 35.77865    110.7 1.030e+04 4.291e-10
 35.78931    111.9 1.020e+04 3.990e-10
 35.80752    109.2 1.067e+04 5.835e-10
 35.82452    106.2 1.201e+04 1.051e-09
 35.83518    108.3 1.166e+04 9.294e-10
 35.85016    105.8 1.304e+04 1.656e-09
 35.87039    103.4 1.432e+04 2.713e-09
 35.88105    105.4 1.388e+04 2.359e-09
 35.89280    103.1 1.477e+04 3.266e-09
 35.91412    100.6 1.491e+04 3.378e-09
 35.92691     98.5 1.452e+04 3.080e-09
 35.93757    100.0 1.448e+04 3.049e-09
 35.95676     98.2 1.367e+04 2.427e-09
 35.97278     96.7 1.266e+04 1.742e-09
 35.98344     97.8 1.283e+04 1.828e-09
 35.99940     96.4 1.185e+04 1.270e-09
 36.01865     95.1 1.108e+04 8.986e-10
 36.02931     95.9 1.118e+04 9.417e-10
 36.04204     94.7 1.057e+04 6.774e-10
 36.06337     93.5 1.011e+04 5.203e-10
 36.07517     92.7 9.705e+03 4.389e-10
 36.08583     92.9 9.724e+03 4.423e-10
 36.10601     92.4 9.585e+03 4.335e-10
 36.12104     92.3 9.597e+03 4.402e-10
 36.13170     92.3 9.604e+03 4.427e-10
 36.14206     92.2 9.715e+03 4.672e-10
 36.15272     92.3 9.880e+03 4.904e-10
 36.16691     92.4 9.959e+03 5.080e-10
 36.17757     92.2 9.968e+03 5.106e-10
 36.19129     92.3 1.003e+04 5.271e-10
 36.21261     92.4 1.005e+04 5.399e-10
 36.22343     92.5 1.012e+04 5.628e-10
 36.23409     92.2 1.013e+04 5.655e-10
 36.25525     92.2 1.023e+04 6.012e-10
 36.26930     92.5 1.030e+04 6.242e-10
 36.27996     92.2 1.033e+04 6.239e-10
 36.29789     92.2 1.039e+04 6.292e-10
 36.31517     92.6 1.027e+04 5.976e-10
 36.32583     92.3 1.028e+04 5.943e-10
 36.34053     93.0 1.016e+04 5.492e-10
 36.36113     93.7 9.957e+03 4.645e-10
 36.38255     93.4 1.006e+04 4.627e-10
 36.41535     94.5 9.615e+03 3.276e-10
 36.45296     95.5 9.236e+03 2.294e-10
 36.47428     95.5 9.429e+03 2.580e-10
 36.50063     96.7 9.167e+03 2.154e-10
 36.52823     98.3 9.113e+03 2.022e-10
 36.54955     99.3 9.226e+03 2.239e-10
 36.56602    100.9 9.247e+03 2.238e-10
 36.58734    101.0 9.465e+03 2.495e-10
 36.62856    102.3 9.582e+03 2.608e-10
 36.65775    103.3 9.907e+03 3.101e-10
 36.67907    102.7 1.011e+04 3.429e-10
 36.70308    103.0 1.021e+04 3.783e-10
 36.71408    103.6 1.046e+04 4.501e-10
 36.72474    103.1 1.067e+04 5.091e-10
 36.74563    103.1 1.111e+04 6.554e-10
 36.75995    102.4 1.182e+04 8.999e-10
 36.77061    101.7 1.211e+04 1.049e-09
 36.78827    100.0 1.302e+04 1.613e-09
 36.80582     98.8 1.389e+04 2.583e-09
 36.81648     99.0 1.380e+04 2.616e-09
 36.83091     98.9 1.413e+04 3.210e-09
 36.85168     98.3 1.420e+04 3.166e-09
 36.86234     97.9 1.394e+04 2.865e-09
 36.87355     96.9 1.363e+04 2.486e-09
 36.89487     95.9 1.298e+04 1.959e-09
 36.92695     95.0 1.226e+04 1.319e-09
 36.95427     93.5 1.125e+04 7.660e-10
 36.97559     94.1 1.112e+04 7.463e-10
 37.01233     93.9 1.040e+04 4.636e-10
 37.04600     94.2 1.012e+04 3.821e-10
 37.06733     94.7 9.876e+03 3.113e-10
 37.09761     95.3 9.838e+03 3.041e-10
 37.13774     96.2 9.894e+03 3.338e-10
 37.15906     96.4 9.523e+03 2.312e-10
 37.18290     97.6 9.544e+03 2.686e-10
 37.22554     99.1 9.500e+03 3.015e-10
 37.25079    100.9 9.408e+03 2.981e-10
 37.27211    101.2 9.133e+03 2.406e-10
 37.30019    103.2 9.061e+03 2.318e-10
 37.32151    103.1 8.965e+03 2.194e-10
 37.34253    105.1 8.855e+03 1.916e-10
 37.36385    105.6 8.722e+03 1.807e-10
 37.39610    107.5 8.652e+03 1.619e-10
 37.43426    109.5 8.634e+03 1.541e-10
 37.45558    110.1 8.546e+03 1.501e-10
 37.48139    112.1 8.573e+03 1.510e-10
 37.52403    113.9 8.660e+03 1.625e-10
 37.54731    115.8 8.812e+03 1.933e-10
 37.56863    116.3 8.711e+03 1.761e-10
 37.60931    118.2 8.873e+03 2.073e-10
 37.63905    119.9 8.962e+03 2.227e-10
 37.66037    120.3 8.876e+03 2.082e-10
 37.69459    122.0 8.904e+03 2.106e-10
 37.73078    123.7 8.860e+03 1.988e-10
 37.75210    124.1 8.921e+03 2.098e-10
 37.77988    125.7 8.918e+03 2.001e-10
 37.82251    127.2 8.902e+03 1.863e-10
 37.86515    128.9 9.215e+03 2.415e-10
 37.90780    130.5 9.212e+03 2.367e-10
 37.93557    132.1 9.196e+03 2.291e-10
 37.95689    131.7 9.587e+03 3.145e-10
 37.99308    133.2 9.523e+03 2.971e-10
 38.02730    134.6 9.443e+03 2.786e-10
 38.04862    134.1 9.676e+03 3.333e-10
 38.07215    135.3 9.515e+03 2.921e-10
 38.09347    135.0 9.643e+03 3.177e-10
 38.11903    136.2 9.520e+03 2.848e-10
 38.14035    135.6 9.590e+03 2.872e-10
 38.16365    136.9 9.388e+03 2.503e-10
 38.20629    138.3 9.208e+03 2.302e-10
 38.23209    139.9 9.148e+03 2.285e-10
 38.25341    139.6 9.247e+03 2.370e-10
 38.29157    141.4 9.326e+03 2.508e-10
 38.32382    143.0 9.533e+03 2.917e-10
 38.34514    142.5 9.738e+03 3.255e-10
 38.37686    143.3 9.847e+03 3.770e-10
 38.40874    144.1 1.000e+04 4.604e-10
 38.42602    145.0 1.033e+04 5.814e-10
 38.43668    144.8 1.057e+04 6.568e-10
 38.45128    145.3 1.095e+04 8.034e-10
 38.46859    145.5 1.132e+04 9.594e-10
 38.47853    145.5 1.114e+04 8.542e-10
 38.48255    145.0 1.120e+04 8.783e-10
 38.49392    145.2 1.141e+04 9.702e-10
 38.51525    145.2 1.159e+04 1.030e-09
 38.52841    144.9 1.170e+04 1.041e-09
 38.53907    144.0 1.150e+04 1.008e-09
 38.55789    143.4 1.144e+04 9.717e-10
 38.57428    142.6 1.134e+04 9.031e-10
 38.58494    141.6 1.120e+04 8.776e-10
 38.60053    140.6 1.100e+04 7.745e-10
 38.62015    139.5 1.079e+04 6.740e-10
 38.63081    138.6 1.070e+04 6.555e-10
 38.64317    137.3 1.050e+04 5.766e-10
 38.66449    136.1 1.039e+04 5.534e-10
 38.67667    135.0 1.040e+04 5.578e-10
 38.68733    133.8 1.043e+04 5.675e-10
 38.70713    132.7 1.049e+04 5.999e-10
 38.72254    131.8 1.059e+04 6.632e-10
 38.73320    130.3 1.079e+04 7.569e-10
 38.74977    129.1 1.117e+04 8.998e-10
 38.76841    127.9 1.159e+04 1.062e-09
 38.77907    125.4 1.230e+04 1.317e-09
 38.79241    124.1 1.251e+04 1.455e-09
 38.81374    123.1 1.252e+04 1.501e-09
 38.82493    122.2 1.247e+04 1.466e-09
 38.83560    120.1 1.268e+04 1.626e-09
 38.85457    119.7 1.245e+04 1.484e-09
 38.86533    118.3 1.270e+04 1.582e-09
 38.88855    117.6 1.176e+04 1.080e-09
 38.91686    117.2 1.096e+04 7.945e-10
 38.93818    115.2 1.046e+04 6.243e-10
 38.97384    115.9 1.008e+04 5.458e-10
 39.00860    116.8 9.880e+03 5.007e-10
 39.02992    115.8 9.556e+03 4.078e-10
 39.05912    116.9 9.376e+03 3.671e-10
 39.10033    117.9 9.091e+03 3.012e-10
 39.12165    117.2 8.824e+03 2.497e-10
 39.14440    117.9 8.507e+03 2.000e-10
 39.18704    118.5 8.376e+03 1.843e-10
 39.21338    119.1 8.431e+03 1.903e-10
 39.23471    118.2 8.553e+03 2.039e-10
 39.27233    117.1 9.056e+03 2.627e-10
 39.30421    115.6 9.409e+03 3.230e-10
 39.31558    114.3 9.789e+03 4.139e-10
 39.32624    113.1 1.007e+04 4.814e-10
 39.34675    111.2 1.081e+04 7.257e-10
 39.36145    109.4 1.142e+04 1.094e-09
 39.37211    108.0 1.167e+04 1.200e-09
 39.38939    103.2 1.359e+04 2.150e-09
 39.40534     95.3 1.746e+04 3.948e-09
 39.41255     90.3 1.841e+04 5.758e-09
 39.41788     89.0 1.848e+04 5.522e-09
 39.42661     83.3 1.944e+04 7.903e-09
 39.43548     77.3 2.051e+04 1.072e-08
 39.44081     74.6 2.081e+04 1.096e-08
 39.44410     65.1 2.354e+04 1.682e-08
 39.44943     65.3 2.335e+04 1.620e-08
 39.45842     53.4 2.684e+04 2.119e-08
 39.46375     48.0 2.888e+04 2.440e-08
 39.46925     29.3 3.410e+04 3.020e-08
 39.47991      9.6 3.311e+04 2.861e-08
 39.48668     -7.9 2.574e+04 1.789e-08
 39.49201    -12.2 2.355e+04 1.520e-08
 39.50123    -21.2 2.013e+04 9.892e-09
 39.50961    -26.8 1.849e+04 7.070e-09
 39.52032    -30.0 1.765e+04 5.641e-09
 39.53864    -37.2 1.578e+04 3.564e-09
 39.55558    -44.4 1.349e+04 1.991e-09
 39.56624    -46.6 1.326e+04 1.706e-09
 39.58128    -50.2 1.280e+04 1.326e-09
 39.60144    -53.1 1.210e+04 1.156e-09
 39.61210    -54.0 1.210e+04 1.172e-09
 39.62392    -55.3 1.188e+04 1.065e-09
 39.63719    -56.4 1.168e+04 9.648e-10
 39.64785    -56.5 1.157e+04 9.140e-10
 39.65797    -57.4 1.130e+04 7.849e-10
 39.66863    -57.5 1.108e+04 6.863e-10
 39.68788    -58.2 1.080e+04 5.640e-10
 39.70384    -58.8 1.058e+04 4.770e-10
 39.71450    -59.0 1.033e+04 3.563e-10
 39.74128    -59.9 1.011e+04 3.015e-10
 39.78402    -60.3 9.964e+03 2.796e-10
 39.80643    -60.3 9.922e+03 2.806e-10
 39.82775    -59.8 9.443e+03 1.625e-10
 39.86931    -60.8 9.324e+03 1.870e-10
 39.89806    -68.2 1.146e+04 5.359e-10
 39.90862    -70.0 1.305e+04 6.049e-10
 39.92241    -74.3 1.622e+04 1.963e-09
 39.94373    -76.9 1.843e+04 7.217e-09
 39.95444    -78.5 1.967e+04 1.727e-08
 39.95972    -79.1 1.985e+04 2.241e-08
 39.97029    -79.6 2.030e+04 3.019e-08
 39.97733    -80.1 2.098e+04 3.898e-08
 39.98266    -80.6 2.118e+04 3.846e-08
 39.99161    -82.3 2.143e+04 3.941e-08
 40.00026    -85.0 2.268e+04 3.278e-08
 40.00559    -87.2 2.290e+04 2.094e-08
 40.01293    -92.6 2.267e+04 1.219e-08
 40.02312   -100.4 2.072e+04 6.924e-09
 40.03383   -101.9 2.060e+04 7.200e-09
 40.04623   -112.3 1.629e+04 3.805e-09
 40.05689   -113.8 1.440e+04 2.605e-09
 40.07166   -117.0 1.336e+04 2.157e-09
 40.09209   -118.8 1.298e+04 1.790e-09
 40.10275   -118.1 1.271e+04 1.705e-09
 40.11430   -119.5 1.228e+04 1.394e-09
 40.13562   -120.5 1.180e+04 1.093e-09
 40.14862   -121.0 1.132e+04 8.443e-10
 40.15928   -120.6 1.138e+04 8.906e-10
 40.17826   -120.9 1.097e+04 6.978e-10
 40.19449   -121.0 1.062e+04 5.443e-10
 40.20515   -120.8 1.075e+04 6.032e-10
 40.22090   -120.8 1.044e+04 4.752e-10
 40.24035   -120.6 1.018e+04 3.864e-10
 40.25101   -120.5 1.028e+04 4.219e-10
 40.26354   -120.3 1.010e+04 3.555e-10
 40.28632   -120.4 9.992e+03 3.141e-10
 40.30773   -120.5 1.003e+04 3.302e-10
 40.33836   -120.9 9.897e+03 2.895e-10
 40.37815   -121.3 9.797e+03 2.725e-10
 40.39947   -122.2 1.004e+04 3.144e-10
 40.40934   -122.9 1.002e+04 3.234e-10
 40.41991   -122.8 1.006e+04 3.070e-10
 40.43411   -123.3 1.007e+04 3.212e-10
 40.44514   -123.8 1.006e+04 3.468e-10
 40.45580   -124.5 1.012e+04 3.785e-10
 40.47675   -125.1 1.021e+04 4.101e-10
 40.49101   -126.0 1.039e+04 4.480e-10
 40.50167   -127.8 1.066e+04 4.910e-10
 40.51939   -129.6 1.124e+04 5.698e-10
 40.53687   -131.4 1.174e+04 6.723e-10
 40.54753   -133.8 1.224e+04 8.525e-10
 40.56203   -135.0 1.220e+04 9.669e-10
 40.58274   -135.8 1.209e+04 1.006e-09
 40.59340   -137.2 1.199e+04 1.170e-09
 40.60467   -137.4 1.161e+04 1.039e-09
 40.62599   -137.5 1.130e+04 8.664e-10
 40.63927   -137.8 1.105e+04 7.056e-10
 40.64993   -139.1 1.099e+04 5.818e-10
 40.66864   -139.8 1.077e+04 4.553e-10
 40.68513   -140.4 1.052e+04 3.779e-10
 40.69579   -142.6 1.012e+04 3.215e-10
 40.72204   -143.4 9.863e+03 2.959e-10
 40.76477   -143.7 9.828e+03 3.071e-10
 40.78763   -144.4 9.998e+03 3.841e-10
 40.80895   -145.8 9.979e+03 3.896e-10
 40.83349   -146.5 1.038e+04 5.043e-10
 40.84405   -146.9 1.037e+04 4.847e-10
 40.86052   -147.3 1.060e+04 5.640e-10
 40.87926   -148.0 1.094e+04 6.933e-10
 40.88992   -150.8 1.137e+04 6.382e-10
 40.90316   -151.4 1.166e+04 7.837e-10
 40.92448   -152.1 1.191e+04 9.691e-10
 40.93579   -152.5 1.202e+04 1.109e-09
 40.94645   -154.1 1.229e+04 1.224e-09
 40.96713   -154.9 1.264e+04 1.523e-09
 40.98165   -155.4 1.286e+04 1.720e-09
 40.99232   -157.0 1.325e+04 2.130e-09
 41.00977   -157.3 1.326e+04 2.160e-09
 41.02752   -157.2 1.303e+04 2.097e-09
 41.03818   -157.5 1.298e+04 2.242e-09
 41.05241   -156.8 1.244e+04 1.727e-09
 41.07339   -156.1 1.193e+04 1.293e-09
 41.08405   -156.5 1.183e+04 1.192e-09
 41.09505   -156.2 1.134e+04 8.844e-10
 41.11637   -155.8 1.089e+04 6.832e-10
 41.12992   -155.4 1.055e+04 5.548e-10
 41.14058   -155.8 1.049e+04 5.255e-10
 41.15901   -155.2 1.029e+04 4.544e-10
 41.17578   -154.5 1.019e+04 4.091e-10
 41.18731   -154.9 1.010e+04 3.466e-10
 41.20252   -154.4 1.027e+04 3.961e-10
 41.22165   -153.8 1.021e+04 3.613e-10
 41.23231   -154.0 1.028e+04 3.521e-10
 41.24430   -153.4 1.023e+04 3.384e-10
 41.26761   -152.7 1.024e+04 3.320e-10
 41.28903   -153.3 1.010e+04 3.211e-10
 41.31911   -151.0 9.837e+03 2.736e-10
 41.35944   -148.7 9.760e+03 2.561e-10
 41.38076   -148.7 9.685e+03 2.293e-10
 41.40440   -146.3 9.664e+03 2.203e-10
 41.44704   -143.9 9.682e+03 2.198e-10
 41.47250   -141.6 9.848e+03 2.292e-10
 41.49382   -141.3 1.003e+04 2.105e-10
 41.53232   -139.2 1.040e+04 2.564e-10
 41.56423   -137.4 1.066e+04 3.365e-10
 41.58555   -139.4 1.197e+04 5.597e-10
 41.61760   -138.3 1.243e+04 7.863e-10
 41.65596   -137.1 1.288e+04 1.035e-09
 41.67719   -138.9 1.396e+04 2.703e-09
 41.69203   -138.0 1.429e+04 3.247e-09
 41.71230   -137.0 1.459e+04 3.745e-09
 41.72296   -136.7 1.469e+04 5.520e-09
 41.73467   -135.7 1.506e+04 5.999e-09
 41.75599   -135.1 1.532e+04 6.210e-09
 41.76882   -134.5 1.533e+04 6.234e-09
 41.77948   -134.6 1.540e+04 7.077e-09
 41.79863   -134.1 1.536e+04 6.666e-09
 41.81469   -133.8 1.528e+04 5.954e-09
 41.82535   -134.3 1.518e+04 5.821e-09
 41.84127   -134.4 1.513e+04 5.645e-09
 41.86056   -134.4 1.508e+04 5.509e-09
 41.87122   -134.5 1.458e+04 5.075e-09
 41.88392   -134.2 1.460e+04 5.189e-09
 41.90524   -133.8 1.463e+04 5.252e-09
 41.91708   -133.3 1.464e+04 5.208e-09
 41.92774   -133.1 1.414e+04 4.332e-09
 41.94788   -132.6 1.403e+04 4.119e-09
 41.96295   -132.0 1.382e+04 3.757e-09
 41.96814   -131.9 1.334e+04 2.812e-09
 41.97438   -131.7 1.332e+04 2.821e-09
 41.99052   -131.0 1.301e+04 2.512e-09
 42.00882   -130.0 1.265e+04 2.178e-09
 42.01948   -129.9 1.200e+04 1.626e-09
 42.03316   -128.9 1.182e+04 1.494e-09
 42.05448   -127.9 1.177e+04 1.418e-09
 42.06534   -127.4 1.181e+04 1.401e-09
 42.07601   -127.7 1.184e+04 1.233e-09
 42.09712   -127.9 1.293e+04 1.543e-09
 42.11121   -128.4 1.421e+04 2.249e-09
 42.12187   -128.9 1.463e+04 2.573e-09
 42.13976   -129.0 1.563e+04 4.101e-09
 42.15708   -128.3 1.624e+04 6.194e-09
 42.16774   -127.9 1.631e+04 6.814e-09
 42.18241   -127.0 1.651e+04 8.487e-09
 42.20294   -126.4 1.651e+04 8.977e-09
 42.21361   -125.9 1.627e+04 8.727e-09
 42.22505   -125.0 1.573e+04 7.346e-09
 42.24637   -124.1 1.506e+04 5.714e-09
 42.25947   -123.4 1.452e+04 4.342e-09
 42.27013   -122.6 1.399e+04 3.669e-09
 42.28901   -122.1 1.334e+04 2.418e-09
 42.30534   -121.9 1.266e+04 1.511e-09
 42.31600   -121.8 1.230e+04 1.369e-09
 42.33165   -122.1 1.166e+04 9.190e-10
 42.34970   -122.1 1.125e+04 7.491e-10
 42.35860   -121.2 1.199e+04 1.144e-09
 42.36187   -120.3 1.159e+04 9.362e-10
 42.38505   -120.4 1.114e+04 7.210e-10
 42.42779   -119.9 1.082e+04 6.464e-10
 42.45379   -119.6 1.085e+04 6.801e-10
 42.47512   -118.6 1.067e+04 6.073e-10
 42.51307   -118.7 1.117e+04 7.812e-10
 42.54553   -118.6 1.141e+04 1.030e-09
 42.56685   -117.9 1.183e+04 1.285e-09
 42.59835   -117.6 1.185e+04 1.439e-09
 42.63726   -117.3 1.168e+04 1.426e-09
 42.65848   -116.7 1.190e+04 1.607e-09
 42.68354   -115.9 1.149e+04 1.403e-09
 42.72522   -114.5 1.087e+04 1.054e-09
 42.74654   -115.5 1.113e+04 1.153e-09
 42.75032   -113.5 1.034e+04 7.962e-10
 42.77164   -113.3 1.087e+04 1.006e-09
 42.81156   -110.8 1.009e+04 6.887e-10
 42.84205   -108.2 9.407e+03 4.634e-10
 42.86337   -108.0 9.856e+03 5.754e-10
 42.89684   -105.8 9.381e+03 4.171e-10
 42.93378   -103.4 8.851e+03 2.994e-10
 42.95510   -103.3 9.331e+03 3.822e-10
 42.98213   -100.6 8.853e+03 2.914e-10
 43.02477    -98.1 8.533e+03 2.357e-10
 43.04684    -95.5 8.357e+03 2.021e-10
 43.06816    -94.8 8.498e+03 2.291e-10
 43.11005    -92.2 8.370e+03 2.013e-10
 43.13857    -89.7 8.346e+03 1.902e-10
 43.15989    -88.9 8.440e+03 2.049e-10
 43.19533    -86.5 8.436e+03 2.020e-10
 43.23030    -84.2 8.455e+03 2.024e-10
 43.25162    -83.5 8.640e+03 2.301e-10
 43.28062    -81.5 8.687e+03 2.340e-10
 43.32204    -79.6 8.784e+03 2.485e-10
 43.34336    -79.0 9.045e+03 2.935e-10
 43.36590    -77.3 9.086e+03 2.974e-10
 43.40854    -75.8 9.112e+03 2.987e-10
 43.43509    -74.3 9.127e+03 2.985e-10
 43.45641    -73.8 9.363e+03 3.278e-10
 43.49382    -72.6 9.295e+03 3.085e-10
 43.51850    -71.4 9.225e+03 2.914e-10
 43.53018    -70.7 9.695e+03 4.588e-10
 43.54814    -70.6 9.965e+03 5.048e-10
 43.57911    -69.7 9.731e+03 4.294e-10
 43.61856    -68.8 9.550e+03 3.738e-10
 43.63988    -69.1 9.812e+03 4.605e-10
 43.66439    -68.0 9.640e+03 4.197e-10
 43.70703    -66.5 9.464e+03 3.739e-10
 43.73161    -64.9 9.293e+03 3.237e-10
 43.75293    -64.7 9.536e+03 3.825e-10
 43.79231    -63.2 9.406e+03 3.265e-10
 43.82335    -61.7 9.308e+03 2.906e-10
 43.84467    -62.0 9.635e+03 3.870e-10
 43.87760    -60.3 9.563e+03 3.755e-10
 43.91508    -58.5 9.474e+03 3.611e-10
 43.93640    -58.4 9.744e+03 4.242e-10
 43.96288    -56.5 9.627e+03 3.813e-10
 44.00552    -54.8 9.496e+03 3.344e-10
 44.02813    -53.1 9.366e+03 2.918e-10
 44.04945    -53.2 9.437e+03 2.866e-10
 44.09080    -51.8 9.384e+03 2.660e-10
 44.11987    -50.5 9.316e+03 2.518e-10
 44.14119    -50.6 9.460e+03 2.771e-10
 44.17609    -49.1 9.440e+03 2.823e-10
 44.21160    -47.6 9.404e+03 2.761e-10
 44.23292    -47.5 9.608e+03 3.218e-10
 44.26137    -45.9 9.513e+03 3.012e-10
 44.29045    -44.3 9.383e+03 2.732e-10
 44.31110    -44.5 9.306e+03 2.444e-10
 44.32465    -44.2 9.446e+03 2.452e-10
 44.34665    -42.5 9.303e+03 2.018e-10
 44.38929    -40.6 9.250e+03 1.815e-10
 44.41639    -38.8 9.253e+03 1.778e-10
 44.43771    -38.5 9.381e+03 1.809e-10
 44.47458    -37.7 9.714e+03 2.145e-10
 44.50812    -37.6 1.053e+04 3.923e-10
 44.52944    -38.4 1.126e+04 6.926e-10
 44.55986    -36.7 1.208e+04 1.333e-09
 44.59985    -35.2 1.270e+04 1.973e-09
 44.62117    -34.9 1.235e+04 1.561e-09
 44.64514    -33.7 1.256e+04 1.623e-09
 44.66694    -33.0 1.278e+04 1.956e-09
 44.67682    -33.0 1.251e+04 1.444e-09
 44.68690    -33.2 1.259e+04 1.453e-09
 44.69825    -32.9 1.276e+04 1.525e-09
 44.71271    -32.8 1.295e+04 1.692e-09
 44.72337    -32.8 1.240e+04 9.429e-10
 44.74089    -33.0 1.263e+04 1.193e-09
 44.75858    -32.9 1.279e+04 1.563e-09
 44.76924    -33.2 1.234e+04 9.395e-10
 44.78353    -32.8 1.260e+04 1.290e-09
 44.80445    -32.4 1.291e+04 1.668e-09
 44.81511    -32.2 1.225e+04 9.446e-10
 44.82617    -32.2 1.242e+04 1.086e-09
 44.84749    -31.7 1.290e+04 1.541e-09
 44.86097    -31.5 1.301e+04 1.728e-09
 44.87163    -31.9 1.286e+04 1.544e-09
 44.89628    -31.1 1.328e+04 2.016e-09
 44.91770    -31.4 1.277e+04 1.468e-09
 44.94363    -30.8 1.299e+04 1.787e-09
 44.98627    -30.4 1.296e+04 1.773e-09
 45.00933    -29.8 1.240e+04 1.347e-09
 45.03065    -29.0 1.188e+04 9.598e-10
 45.06241    -28.1 1.152e+04 6.880e-10
 45.08373    -28.0 1.114e+04 5.187e-10
 45.10116    -27.2 1.111e+04 4.686e-10
 45.12248    -26.8 1.053e+04 2.605e-10
 45.15684    -25.6 1.065e+04 2.835e-10
 45.19290    -24.3 1.078e+04 3.754e-10
 45.21422    -23.1 1.028e+04 2.509e-10
 45.24212    -21.3 1.042e+04 3.143e-10
 45.28463    -19.4 1.052e+04 3.807e-10
 45.32727    -16.2 1.019e+04 2.124e-10
 45.37005    -14.6 1.032e+04 2.379e-10
 45.39768    -13.0 1.039e+04 2.776e-10
 45.41900    -12.0 1.015e+04 1.615e-10
 45.45533     -9.9 1.022e+04 2.051e-10
 45.48942     -7.8 1.034e+04 2.532e-10
 45.51074     -6.5 1.006e+04 1.803e-10
 45.54061     -4.7 1.029e+04 2.058e-10
 45.58115     -3.7 1.067e+04 2.750e-10
 45.60247     -2.6 1.038e+04 2.191e-10
 45.62589     -2.2 1.065e+04 3.488e-10
 45.66854     -1.3 1.116e+04 6.523e-10
 45.69420      0.1 1.189e+04 1.107e-09
 45.71553      0.2 1.164e+04 9.479e-10
 45.75382      1.3 1.222e+04 1.270e-09
 45.78570      1.7 1.199e+04 1.050e-09
 45.79640      1.9 1.203e+04 1.089e-09
 45.80716      1.8 1.213e+04 1.246e-09
 45.83437      2.8 1.210e+04 1.170e-09
 45.85569      2.9 1.105e+04 6.291e-10
 45.87767      3.9 1.106e+04 6.034e-10
 45.89899      4.6 1.044e+04 2.838e-10
 45.92438      5.1 1.034e+04 1.989e-10
 45.96702      5.5 9.934e+03 1.510e-10
 45.99073      7.1 9.697e+03 1.447e-10
 46.01205      7.8 9.297e+03 1.081e-10
 46.05231     10.4 9.602e+03 9.044e-11
 46.08246     12.2 9.718e+03 7.780e-11
 46.10378     13.1 9.627e+03 7.409e-11
 46.13759     13.9 9.860e+03 9.129e-11
 46.17419     14.5 1.018e+04 1.986e-10
 46.19551     15.2 1.003e+04 1.940e-10
 46.22287     17.7 1.041e+04 4.484e-10
 46.26551     20.1 1.103e+04 6.528e-10
 46.28725     21.1 1.182e+04 7.723e-10
 46.30857     21.3 1.137e+04 6.518e-10
 46.33302     20.8 1.193e+04 8.373e-10
 46.34358     21.2 1.168e+04 7.763e-10
 46.36126     21.2 1.187e+04 8.338e-10
 46.37878     20.8 1.217e+04 1.039e-09
 46.38944     21.4 1.185e+04 9.071e-10
 46.40390     21.9 1.189e+04 1.003e-09
 46.42465     22.6 1.201e+04 1.077e-09
 46.43531     23.1 1.168e+04 8.213e-10
 46.44655     23.3 1.182e+04 7.998e-10
 46.46787     23.2 1.193e+04 7.999e-10
 46.48118     22.8 1.205e+04 8.284e-10
 46.49184     22.9 1.154e+04 5.882e-10
 46.51051     22.1 1.157e+04 7.152e-10
 46.52704     22.0 1.161e+04 7.413e-10
 46.53771     22.1 1.153e+04 6.833e-10
 46.56235     22.2 1.177e+04 1.000e-09
 46.58377     23.0 1.099e+04 5.611e-10
 46.60633     23.7 1.095e+04 5.749e-10
 46.62765     24.5 1.086e+04 5.311e-10
 46.64929     25.6 1.072e+04 4.525e-10
 46.67550     26.5 1.050e+04 3.452e-10
 46.69682     27.3 1.018e+04 2.645e-10
 46.73457     28.7 1.004e+04 2.178e-10
 46.76723     30.0 1.000e+04 1.663e-10
 46.78855     31.4 9.838e+03 1.622e-10
 46.81985     32.6 9.860e+03 1.335e-10
 46.85897     33.8 9.915e+03 1.207e-10
 46.88029     35.4 9.815e+03 1.197e-10
 46.90514     36.5 9.858e+03 1.222e-10
 46.94778     37.5 1.001e+04 1.501e-10
 46.97202     38.8 1.013e+04 2.009e-10
 46.99334     40.2 1.005e+04 1.675e-10
 47.03306     41.5 1.016e+04 2.101e-10
 47.06376     42.9 1.028e+04 2.402e-10
 47.08508     44.1 1.025e+04 2.197e-10
 47.11834     45.3 1.038e+04 2.470e-10
 47.15549     46.2 1.054e+04 2.837e-10
 47.17681     47.3 1.056e+04 2.711e-10
 47.20363     47.9 1.079e+04 3.579e-10
 47.24627     48.6 1.084e+04 4.356e-10
 47.26845     49.6 1.084e+04 4.963e-10
 47.28977     50.4 1.118e+04 5.826e-10
 47.33155     51.3 1.117e+04 5.857e-10
 47.36028     52.2 1.105e+04 5.316e-10
 47.38160     52.8 1.105e+04 5.179e-10
 47.39961     53.4 1.091e+04 4.112e-10
 47.42093     54.1 1.059e+04 3.752e-10
 47.45201     54.5 1.041e+04 3.145e-10
 47.47333     55.1 1.032e+04 2.662e-10
 47.50212     55.7 1.019e+04 2.451e-10
 47.54374     56.6 1.010e+04 2.364e-10
 47.56506     57.2 1.006e+04 2.119e-10
 47.58740     58.3 9.980e+03 2.003e-10
 47.63004     59.2 9.912e+03 1.645e-10
 47.65680     59.7 9.890e+03 1.294e-10
 47.67812     60.3 9.877e+03 1.141e-10
 47.71532     60.2 9.887e+03 1.127e-10
 47.74853     59.8 9.967e+03 1.324e-10
 47.76985     60.3 9.966e+03 1.327e-10
 47.80061     59.5 1.025e+04 2.085e-10
 47.84026     58.7 1.066e+04 3.323e-10
 47.86158     58.8 1.075e+04 3.821e-10
 47.87513     58.2 1.102e+04 5.000e-10
 47.89635     58.1 1.104e+04 5.168e-10
 47.92843     56.3 1.142e+04 6.649e-10
 47.95332     53.0 1.202e+04 9.477e-10
 47.97464     53.4 1.172e+04 7.459e-10
 48.01381     49.7 1.246e+04 1.359e-09
 48.04505     47.1 1.263e+04 1.834e-09
 48.06637     47.5 1.218e+04 1.503e-09
 48.09909     46.9 1.184e+04 1.282e-09
 48.13678     45.5 1.130e+04 7.995e-10
 48.15801     45.8 1.101e+04 6.368e-10
 48.17147     43.7 1.051e+04 5.569e-10
 48.19289     46.1 1.016e+04 3.652e-10
 48.22702     44.4 9.809e+03 3.982e-10
 48.24984     44.2 9.963e+03 5.033e-10
 48.27116     44.9 1.002e+04 5.052e-10
 48.31230     44.5 1.040e+04 6.881e-10
 48.34157     44.5 1.047e+04 7.860e-10
 48.36289     45.1 1.055e+04 8.240e-10
 48.39758     46.1 1.002e+04 6.599e-10
 48.43331     47.3 9.367e+03 3.579e-10
 48.45463     47.9 9.310e+03 3.174e-10
 48.48287     46.8 8.760e+03 1.587e-10
 48.52504     46.1 8.334e+03 1.324e-10
 48.54636     46.8 8.321e+03 1.368e-10
 48.56815     47.5 8.206e+03 1.443e-10
 48.61079     48.4 8.339e+03 1.706e-10
 48.63809     49.3 8.573e+03 2.094e-10
 48.65941     50.6 8.431e+03 1.866e-10
 48.69607     51.4 8.532e+03 1.968e-10
 48.72983     51.8 8.646e+03 2.055e-10
 48.75115     53.2 8.518e+03 1.824e-10
 48.78136     53.4 8.710e+03 2.120e-10
 48.82156     53.8 8.876e+03 2.685e-10
 48.84288     55.3 9.145e+03 3.095e-10
 48.86664     56.3 9.330e+03 3.983e-10
 48.90928     57.6 9.292e+03 3.852e-10
 48.93461     58.1 9.230e+03 2.825e-10
 48.94754     59.9 9.557e+03 3.773e-10
 48.96475     60.4 9.635e+03 4.760e-10
 48.99447     61.7 9.755e+03 4.072e-10
 49.02635     60.6 9.827e+03 2.742e-10
 49.04767     62.4 1.015e+04 2.917e-10
 49.07985     59.4 9.572e+03 2.455e-10
 49.11808     57.7 9.364e+03 3.471e-10
 49.13940     58.3 9.371e+03 3.228e-10
 49.16513     58.9 9.600e+03 4.868e-10
 49.20777     59.6 9.790e+03 5.049e-10
 49.23114     60.0 9.789e+03 4.622e-10
 49.25246     60.9 9.766e+03 4.746e-10
 49.29305     61.3 9.545e+03 3.731e-10
 49.32287     61.8 9.218e+03 2.715e-10
 49.34419     62.6 9.199e+03 2.428e-10
 49.37834     62.7 9.026e+03 1.777e-10
 49.41460     62.8 9.103e+03 1.832e-10
 49.43592     63.6 8.790e+03 1.549e-10
 49.46362     64.4 8.803e+03 1.733e-10
 49.50626     65.6 8.740e+03 1.778e-10
 49.54890     68.5 8.483e+03 1.559e-10
 49.59154     70.2 8.355e+03 1.220e-10
 49.61939     71.4 8.262e+03 8.722e-11
 49.64071     72.5 8.256e+03 9.707e-11
 49.67683     73.6 8.218e+03 8.742e-11
 49.71112     74.7 8.242e+03 9.101e-11
 49.72846     76.0 8.281e+03 1.041e-10
 49.73680     76.2 8.267e+03 1.229e-10
 49.76211     77.4 8.335e+03 1.406e-10
 49.80286     78.8 8.454e+03 1.629e-10
 49.82418     80.0 8.459e+03 1.665e-10
 49.84739     81.3 8.540e+03 1.687e-10
 49.89003     82.5 8.599e+03 1.599e-10
 49.91591     83.4 8.656e+03 1.467e-10
 49.93723     84.7 8.655e+03 1.421e-10
 49.97532     85.5 8.698e+03 1.382e-10
 50.00764     86.1 8.733e+03 1.404e-10
 50.02896     87.7 8.751e+03 1.373e-10
 50.06060     88.5 8.831e+03 1.482e-10
 50.09938     89.4 8.964e+03 1.704e-10
 50.12070     91.1 8.992e+03 1.637e-10
 50.14588     92.1 9.137e+03 1.960e-10
 50.18852     93.2 9.300e+03 2.288e-10
 50.21243     94.4 9.469e+03 2.542e-10
 50.23375     95.9 9.452e+03 2.584e-10
 50.27381     96.6 9.592e+03 2.765e-10
 50.30417     96.8 9.872e+03 3.235e-10
 50.32549     98.5 9.661e+03 2.895e-10
 50.35909     98.4 9.967e+03 3.532e-10
 50.39590     98.3 1.033e+04 4.910e-10
 50.41722    100.2 9.832e+03 3.288e-10
 50.44437    100.3 1.013e+04 4.353e-10
 50.48701    100.5 1.053e+04 5.965e-10
 50.50876    100.9 1.084e+04 7.555e-10
 50.53008    102.4 1.035e+04 5.380e-10
 50.57230    103.3 1.066e+04 7.334e-10
 50.60069    104.4 1.062e+04 7.505e-10
 50.62201    106.8 1.051e+04 7.104e-10
 50.65758    108.1 1.042e+04 6.794e-10
 50.69242    109.6 1.012e+04 5.647e-10
 50.71374    111.9 1.027e+04 6.208e-10
 50.74286    113.3 9.910e+03 4.689e-10
 50.78415    114.5 9.481e+03 2.913e-10
 50.80547    116.9 9.729e+03 3.981e-10
 50.82814    117.9 9.389e+03 2.685e-10
 50.87079    119.0 9.376e+03 2.389e-10
 50.89721    119.8 9.533e+03 2.560e-10
 50.91853    122.5 9.594e+03 3.016e-10
 50.95607    122.4 1.019e+04 4.075e-10
 50.98894    120.5 1.185e+04 9.774e-10
 51.01026    123.9 1.161e+04 8.450e-10
 51.03059    122.0 1.272e+04 1.669e-09
 51.04527    121.5 1.320e+04 2.287e-09
 51.05593    122.9 1.322e+04 2.258e-09
 51.07314    122.4 1.328e+04 2.352e-09
 51.09114    122.1 1.300e+04 2.031e-09
 51.10180    123.1 1.320e+04 2.212e-09
 51.11578    122.6 1.268e+04 1.572e-09
 51.13701    121.1 1.209e+04 9.492e-10
 51.15833    120.6 1.158e+04 6.634e-10
 51.17974    118.3 1.074e+04 5.048e-10
 51.19353    117.1 1.047e+04 4.950e-10
 51.20419    118.6 1.049e+04 4.962e-10
 51.22238    117.9 1.048e+04 5.079e-10
 51.23940    117.4 1.041e+04 5.493e-10
 51.25006    118.7 1.052e+04 5.463e-10
 51.26502    118.7 1.042e+04 6.116e-10
 51.28053    118.6 1.034e+04 5.864e-10
 51.29011    119.1 1.028e+04 5.558e-10
 51.29593    120.5 1.039e+04 5.906e-10
 51.30766    120.7 1.030e+04 6.431e-10
 51.32899    120.9 1.031e+04 6.222e-10
 51.34179    121.0 1.026e+04 5.848e-10
 51.35245    122.6 1.037e+04 6.925e-10
 51.37163    122.7 1.037e+04 6.262e-10
 51.38766    122.6 1.033e+04 5.475e-10
 51.39832    124.3 1.044e+04 6.766e-10
 51.41427    124.0 1.045e+04 5.829e-10
 51.43353    123.6 1.038e+04 5.037e-10
 51.44419    125.3 1.060e+04 6.424e-10
 51.45691    124.7 1.052e+04 5.725e-10
 51.47823    124.1 1.036e+04 5.243e-10
 51.49005    123.4 1.022e+04 4.991e-10
 51.50071    125.0 1.054e+04 6.170e-10
 51.52087    124.1 1.045e+04 5.882e-10
 51.53592    123.2 1.044e+04 5.783e-10
 51.54658    124.3 1.063e+04 6.382e-10
 51.56351    123.2 1.054e+04 6.093e-10
 51.58179    122.3 1.042e+04 5.992e-10
 51.59245    122.9 1.048e+04 6.211e-10
 51.60615    122.3 1.043e+04 6.229e-10
 51.62748    121.6 1.064e+04 6.625e-10
 51.63831    117.7 1.302e+04 1.063e-09
 51.64897    118.7 1.240e+04 1.067e-09
 51.66650    109.8 1.572e+04 2.932e-09
 51.67717    109.6 1.600e+04 4.063e-09
 51.68418    110.3 1.656e+04 9.248e-09
 51.69484    110.9 1.645e+04 8.059e-09
 51.71276    112.1 1.608e+04 9.465e-09
 51.73005    113.6 1.576e+04 8.616e-09
 51.74071    114.1 1.547e+04 7.480e-09
 51.75540    114.9 1.485e+04 4.931e-09
 51.77591    113.7 1.463e+04 2.499e-09
 51.78657    114.0 1.448e+04 2.243e-09
 51.79804    108.9 1.322e+04 9.886e-10
 51.81936    102.7 1.252e+04 9.590e-10
 51.83244     96.8 1.357e+04 1.546e-09
 51.84310     97.2 1.340e+04 1.474e-09
 51.86200     95.2 1.338e+04 2.522e-09
 51.87831     95.6 1.355e+04 3.677e-09
 51.88897     96.5 1.333e+04 3.540e-09
 51.90464     97.1 1.353e+04 3.631e-09
 51.92417     97.6 1.353e+04 2.805e-09
 51.93484     98.3 1.356e+04 2.745e-09
 51.94729     96.0 1.388e+04 1.769e-09
 51.96861     91.3 1.219e+04 9.799e-10
 51.98070     87.3 1.065e+04 6.916e-10
 51.99136     87.3 1.070e+04 7.176e-10
 52.01125     86.3 1.061e+04 7.597e-10
 52.02657     85.8 1.056e+04 8.211e-10
 52.03723     85.8 1.086e+04 9.699e-10
 52.05248     86.0 1.087e+04 1.051e-09
 52.06314     86.2 1.094e+04 1.089e-09
 52.07244     86.6 1.087e+04 1.087e-09
 52.08310     86.7 1.125e+04 1.320e-09
 52.09653     87.3 1.106e+04 1.140e-09
 52.11785     87.2 1.068e+04 8.369e-10
 52.14993     85.9 1.007e+04 4.956e-10
 52.17502     84.5 9.265e+03 2.740e-10
 52.19634     82.5 9.287e+03 2.766e-10
 52.23531     81.4 9.099e+03 2.495e-10
 52.26676     80.8 9.400e+03 3.429e-10
 52.28808     78.9 9.509e+03 3.732e-10
 52.32059     78.9 9.970e+03 5.239e-10
 52.35849     78.4 1.055e+04 6.991e-10
 52.37981     77.2 1.016e+04 5.381e-10
 52.40588     76.2 1.038e+04 5.119e-10
 52.44852     74.6 1.036e+04 4.574e-10
 52.47155     72.6 9.952e+03 3.705e-10
 52.49287     71.5 8.479e+03 1.684e-10
 52.53380     69.7 8.548e+03 1.424e-10
 52.56328     68.0 8.596e+03 1.479e-10
 52.58460     68.1 8.591e+03 1.489e-10
 52.61908     66.7 8.668e+03 1.809e-10
 52.65501     65.4 9.040e+03 2.492e-10
 52.67633     65.4 9.410e+03 3.153e-10
 52.70437     63.2 1.007e+04 4.084e-10
 52.73625     60.3 1.026e+04 4.340e-10
 52.75721     59.2 1.037e+04 4.515e-10
 52.76787     57.6 1.035e+04 4.537e-10
 52.77879     54.6 1.019e+04 4.506e-10
 52.80011     52.5 1.016e+04 4.121e-10
 52.81374     49.6 1.006e+04 3.859e-10
 52.82440     47.8 1.029e+04 4.601e-10
 52.83510     44.6 1.042e+04 4.939e-10
 52.84576     44.3 1.038e+04 4.778e-10
 52.85960     41.3 1.066e+04 5.936e-10
 52.87026     39.4 1.090e+04 7.340e-10
 52.88540     37.2 1.114e+04 8.823e-10
 52.90547     35.3 1.139e+04 1.028e-09
 52.91613     33.7 1.137e+04 1.013e-09
 52.92804     32.1 1.159e+04 1.132e-09
 52.94936     30.6 1.179e+04 1.249e-09
 52.96200     29.4 1.196e+04 1.340e-09
 52.97266     27.7 1.152e+04 1.080e-09
 52.99200     26.5 1.165e+04 1.126e-09
 53.00786     25.3 1.177e+04 1.174e-09
 53.01853     23.7 1.136e+04 9.770e-10
 53.03464     22.8 1.154e+04 1.059e-09
 53.05373     22.0 1.168e+04 1.163e-09
 53.06439     21.1 1.141e+04 1.064e-09
 53.07728     20.8 1.156e+04 1.178e-09
 53.09860     20.9 1.163e+04 1.267e-09
 53.11026     21.2 1.164e+04 1.315e-09
 53.12092     20.8 1.155e+04 1.224e-09
 53.14124     20.8 1.161e+04 1.269e-09
 53.15613     20.6 1.181e+04 1.333e-09
 53.16679     19.7 1.205e+04 1.348e-09
 53.18389     18.5 1.255e+04 1.621e-09
 53.20199     17.2 1.306e+04 2.109e-09
 53.21265     15.9 1.351e+04 2.564e-09
 53.22108     15.4 1.395e+04 3.498e-09
 53.23174     15.7 1.363e+04 2.633e-09
 53.24785     15.4 1.409e+04 3.780e-09
 53.26917     15.7 1.474e+04 5.455e-09
 53.29049     16.6 1.502e+04 5.872e-09
 53.30439     16.8 1.515e+04 5.542e-09
 53.31505     16.6 1.507e+04 5.018e-09
 53.33313     16.5 1.486e+04 3.603e-09
 53.35025     14.7 1.425e+04 2.349e-09
 53.36091     13.2 1.377e+04 1.776e-09
 53.37577     10.5 1.233e+04 1.224e-09
 53.39612      9.3 1.163e+04 1.068e-09
 53.40678      8.5 1.143e+04 1.004e-09
 53.41841      8.6 1.146e+04 1.035e-09
 53.43973      8.9 1.154e+04 1.068e-09
 53.45265      9.1 1.156e+04 1.069e-09
 53.46331      8.8 1.156e+04 1.063e-09
 53.48238      9.0 1.149e+04 1.009e-09
 53.49851      9.1 1.141e+04 9.462e-10
 53.50917      8.6 1.138e+04 9.423e-10
 53.52502      8.6 1.136e+04 8.874e-10
 53.54438      8.6 1.138e+04 8.548e-10
 53.55504      7.9 1.139e+04 8.742e-10
 53.56766      7.8 1.141e+04 8.697e-10
 53.58898      7.5 1.148e+04 8.736e-10
 53.60091      6.2 1.207e+04 9.818e-10
 53.60833      6.0 1.174e+04 9.618e-10
 53.61772      5.4 1.240e+04 1.299e-09
 53.63162      4.3 1.318e+04 1.652e-09
 53.64677      3.5 1.426e+04 2.403e-09
 53.65743      3.9 1.301e+04 1.577e-09
 53.67426      3.2 1.408e+04 2.062e-09
 53.69264      2.1 1.550e+04 2.951e-09
 53.70330      2.2 1.353e+04 1.498e-09
 53.71690     -0.4 1.552e+04 2.255e-09
 53.73822     -4.0 1.732e+04 4.244e-09
 53.74917     -7.3 1.847e+04 8.305e-09
 53.75983     -8.0 1.753e+04 5.347e-09
 53.78087    -10.1 1.880e+04 1.090e-08
 53.79503    -11.4 1.983e+04 1.702e-08
 53.80569    -11.8 1.916e+04 1.255e-08
 53.82351    -13.6 2.013e+04 1.634e-08
 53.84090    -16.6 2.032e+04 1.690e-08
 53.85156    -17.6 1.982e+04 1.208e-08
 53.86615    -21.9 1.971e+04 1.141e-08
 53.88677    -26.9 1.840e+04 8.594e-09
 53.89743    -29.0 1.755e+04 6.458e-09
 53.90879    -32.3 1.606e+04 5.005e-09
 53.93011    -34.0 1.504e+04 3.810e-09
 53.94329    -35.0 1.424e+04 2.746e-09
 53.95395    -36.4 1.338e+04 1.718e-09
 53.97275    -37.7 1.268e+04 1.136e-09
 53.98916    -38.9 1.228e+04 8.165e-10
 53.99879    -42.1 1.220e+04 7.846e-10
 54.00370    -43.5 1.216e+04 8.456e-10
 54.01539    -45.2 1.214e+04 8.061e-10
 54.03503    -47.1 1.217e+04 8.785e-10
 54.04569    -49.8 1.243e+04 1.374e-09
 54.05803    -50.6 1.283e+04 1.885e-09
 54.07936    -50.9 1.326e+04 2.540e-09
 54.09155    -50.9 1.369e+04 3.154e-09
 54.10222    -51.8 1.417e+04 3.458e-09
 54.12200    -52.2 1.420e+04 3.451e-09
 54.13742    -52.8 1.434e+04 3.259e-09
 54.14808    -55.0 1.419e+04 2.540e-09
 54.16464    -56.7 1.376e+04 1.911e-09
 54.18329    -58.7 1.297e+04 1.350e-09
 54.19395    -61.7 1.182e+04 9.959e-10
 54.20728    -63.0 1.106e+04 8.078e-10
 54.22860    -63.5 1.086e+04 7.448e-10
 54.23982    -63.6 1.079e+04 6.962e-10
 54.25048    -64.3 1.086e+04 7.274e-10
 54.27124    -64.8 1.111e+04 7.415e-10
 54.28568    -65.7 1.160e+04 8.509e-10
 54.29634    -67.3 1.226e+04 1.148e-09
 54.31388    -68.2 1.274e+04 1.553e-09
 54.33155    -68.7 1.303e+04 2.068e-09
 54.34221    -69.2 1.355e+04 2.883e-09
 54.35652    -69.0 1.370e+04 3.392e-09
 54.37742    -69.0 1.385e+04 3.656e-09
 54.38808    -69.4 1.458e+04 4.673e-09
 54.38968    -71.5 1.551e+04 4.887e-09
 54.40034    -71.7 1.493e+04 3.995e-09
 54.42049    -78.4 1.820e+04 5.838e-09
 54.43394    -86.1 2.050e+04 1.183e-08
 54.44460    -88.0 2.069e+04 1.436e-08
 54.45683    -92.1 2.128e+04 2.438e-08
 54.46211    -92.6 2.126e+04 2.526e-08
 54.46836    -94.5 2.096e+04 3.284e-08
 54.47902    -96.1 2.070e+04 3.556e-08
 54.48504    -96.9 2.038e+04 3.574e-08
 54.49037    -97.0 2.041e+04 3.308e-08
 54.50034    -97.4 2.007e+04 2.664e-08
 54.50798    -98.6 2.011e+04 1.855e-08
 54.51331   -100.3 2.048e+04 1.650e-08
 54.52166   -103.7 2.017e+04 1.086e-08
 54.53091   -107.9 1.913e+04 7.360e-09
 54.53624   -110.2 1.877e+04 7.178e-09
 54.54298   -113.2 1.728e+04 5.733e-09
 54.55364   -114.9 1.634e+04 5.071e-09
 54.56968   -115.6 1.571e+04 4.642e-09
 54.58220   -116.0 1.508e+04 4.237e-09
 54.59286   -116.8 1.489e+04 4.252e-09
 54.61237   -116.4 1.403e+04 3.361e-09
 54.62807   -115.6 1.337e+04 2.651e-09
 54.63873   -115.7 1.305e+04 2.252e-09
 54.65501   -115.0 1.250e+04 1.693e-09
 54.67394   -114.4 1.204e+04 1.292e-09
 54.68460   -115.0 1.166e+04 1.009e-09
 54.69766   -114.5 1.130e+04 7.977e-10
 54.71898   -114.0 1.101e+04 6.596e-10
 54.73046   -113.5 1.079e+04 5.671e-10
 54.74112   -114.2 1.055e+04 5.033e-10
 54.76162   -113.5 1.050e+04 4.711e-10
 54.77566   -112.8 1.051e+04 4.599e-10
 54.77971   -112.7 1.049e+04 4.510e-10
 54.78699   -113.3 1.049e+04 4.603e-10
 54.80426   -112.8 1.055e+04 4.576e-10
 54.82220   -112.3 1.061e+04 4.643e-10
 54.83286   -113.3 1.079e+04 5.456e-10
 54.84690   -113.1 1.094e+04 5.928e-10
 54.86806   -112.6 1.105e+04 6.367e-10
 54.87872   -113.3 1.123e+04 7.559e-10
 54.88954   -113.0 1.128e+04 7.955e-10
 54.91086   -112.4 1.129e+04 8.254e-10
 54.92459   -111.7 1.128e+04 8.269e-10
 54.93525   -112.3 1.123e+04 8.059e-10
 54.95350   -111.6 1.106e+04 7.167e-10
 54.97046   -111.1 1.086e+04 6.009e-10
 54.98112   -111.9 1.062e+04 4.912e-10
 55.00576   -110.8 1.049e+04 4.285e-10
 55.02718   -112.5 1.012e+04 3.052e-10
 55.04964   -110.7 9.812e+03 2.213e-10
 55.09228   -109.4 9.633e+03 1.672e-10
 55.11891   -108.4 9.575e+03 1.450e-10
 55.14023   -109.9 9.278e+03 1.272e-10
 55.16183   -109.1 9.513e+03 1.432e-10
 55.18315   -108.7 9.719e+03 1.969e-10
 55.21065   -107.8 9.895e+03 2.342e-10
 55.23197   -109.1 9.957e+03 2.805e-10
 55.26285   -108.1 1.017e+04 3.461e-10
 55.30238   -107.2 1.034e+04 3.974e-10
 55.32370   -108.4 1.052e+04 5.076e-10
 55.33737   -107.3 1.052e+04 4.754e-10
 55.35860   -107.2 1.052e+04 4.972e-10
 55.36937   -106.7 1.050e+04 5.025e-10
 55.38003   -107.6 1.057e+04 5.907e-10
 55.40124   -107.2 1.055e+04 5.823e-10
 55.41524   -106.7 1.050e+04 5.618e-10
 55.42590   -107.3 1.056e+04 6.212e-10
 55.44388   -106.8 1.050e+04 5.854e-10
 55.46111   -106.3 1.044e+04 5.459e-10
 55.47177   -107.0 1.045e+04 5.564e-10
 55.48652   -106.5 1.038e+04 5.144e-10
 55.50697   -106.0 1.034e+04 4.750e-10
 55.52839   -106.9 1.033e+04 4.714e-10
 55.56134   -106.0 1.031e+04 4.313e-10
 55.59890   -105.2 1.031e+04 4.027e-10
 55.62022   -106.4 1.032e+04 4.343e-10
 55.64662   -105.6 1.036e+04 4.208e-10
 55.68926   -104.6 1.040e+04 4.090e-10
 55.71196   -103.4 1.042e+04 4.001e-10
 55.73328   -104.1 1.040e+04 3.976e-10
 55.77455   -102.5 1.041e+04 3.923e-10
 55.80369   -101.0 1.044e+04 3.919e-10
 55.82501   -101.4 1.025e+04 3.513e-10
 55.85983   -100.0 1.056e+04 3.934e-10
 55.89542    -98.7 1.088e+04 4.921e-10
 55.91674    -99.1 1.066e+04 4.159e-10
 55.93379    -97.8 1.095e+04 5.373e-10
 55.95511    -97.2 1.081e+04 4.766e-10
 55.98716    -96.0 1.095e+04 5.308e-10
 56.00848    -96.3 1.071e+04 4.472e-10
 56.03039    -95.2 1.088e+04 5.095e-10
 56.07304    -94.2 1.109e+04 5.861e-10
 56.10021    -93.4 1.142e+04 7.186e-10
 56.12153    -93.5 1.139e+04 7.427e-10
 56.15832    -93.1 1.197e+04 1.018e-09
 56.19194    -93.1 1.267e+04 1.429e-09
 56.21317    -93.5 1.276e+04 1.554e-09
 56.23275    -93.8 1.316e+04 1.918e-09
 56.24827    -94.2 1.355e+04 2.310e-09
 56.25894    -94.3 1.366e+04 2.474e-09
 56.27539    -94.6 1.385e+04 2.702e-09
 56.29414    -94.9 1.388e+04 2.740e-09
 56.30480    -95.0 1.403e+04 2.875e-09
 56.31803    -95.1 1.384e+04 2.560e-09
 56.33024    -95.1 1.350e+04 1.950e-09
 56.34090    -94.6 1.359e+04 1.903e-09
 56.35067    -95.1 1.327e+04 1.418e-09
 56.36133    -96.0 1.349e+04 1.457e-09
 56.38199    -97.3 1.347e+04 1.279e-09
 56.39654    -98.5 1.348e+04 1.250e-09
 56.40720   -100.0 1.376e+04 1.492e-09
 56.42463   -101.1 1.365e+04 1.734e-09
 56.44240   -101.6 1.385e+04 2.428e-09
 56.45306   -101.9 1.374e+04 2.702e-09
 56.46727   -101.5 1.396e+04 3.193e-09
 56.48827   -101.0 1.420e+04 3.603e-09
 56.49893   -101.4 1.367e+04 2.815e-09
 56.50991   -101.5 1.366e+04 2.637e-09
 56.53124   -101.8 1.355e+04 2.409e-09
 56.54480   -102.3 1.337e+04 2.148e-09
 56.55546   -103.7 1.267e+04 1.495e-09
 56.57388   -104.3 1.253e+04 1.464e-09
 56.59066   -104.7 1.248e+04 1.479e-09
 56.60132   -105.4 1.214e+04 1.275e-09
 56.61652   -105.1 1.222e+04 1.420e-09
 56.63653   -104.6 1.231e+04 1.517e-09
 56.64719   -104.6 1.213e+04 1.357e-09
 56.65916   -104.0 1.214e+04 1.368e-09
 56.68048   -103.3 1.210e+04 1.333e-09
 56.69306   -102.6 1.195e+04 1.180e-09
 56.70372   -102.6 1.179e+04 1.026e-09
 56.71621   -102.0 1.160e+04 8.603e-10
 56.72688   -101.8 1.133e+04 6.545e-10
 56.73892   -101.4 1.114e+04 5.274e-10
 56.74958   -101.7 1.116e+04 4.430e-10
 56.76576   -101.1 1.096e+04 3.818e-10
 56.78479   -100.4 1.078e+04 3.398e-10
 56.79545   -100.5 1.080e+04 3.421e-10
 56.80840    -99.7 1.064e+04 3.140e-10
 56.82973    -98.8 1.050e+04 2.951e-10
 56.84132    -97.9 1.042e+04 2.863e-10
 56.85198    -97.7 1.047e+04 3.035e-10
 56.87237    -96.8 1.044e+04 3.010e-10
 56.88718    -96.0 1.043e+04 3.020e-10
 56.89784    -95.7 1.052e+04 3.451e-10
 56.91501    -94.9 1.053e+04 3.493e-10
 56.93305    -94.2 1.064e+04 3.787e-10
 56.94371    -94.0 1.087e+04 4.307e-10
 56.95765    -93.4 1.100e+04 4.872e-10
 56.97892    -92.8 1.113e+04 5.761e-10
 57.00024    -92.1 1.149e+04 8.163e-10
 57.02161    -91.5 1.163e+04 9.699e-10
 57.03544    -90.9 1.176e+04 1.126e-09
 57.04610    -90.6 1.204e+04 1.355e-09
 57.06425    -90.0 1.217e+04 1.518e-09
 57.08131    -89.5 1.221e+04 1.619e-09
 57.09197    -89.1 1.262e+04 2.004e-09
 57.10219    -88.7 1.262e+04 2.026e-09
 57.11285    -88.3 1.216e+04 1.503e-09
 57.12718    -87.9 1.196e+04 1.394e-09
 57.13784    -87.5 1.226e+04 1.542e-09
 57.14954    -86.9 1.198e+04 1.394e-09
 57.17086    -86.3 1.166e+04 1.239e-09
 57.18370    -85.6 1.132e+04 1.094e-09
 57.19436    -85.2 1.138e+04 1.095e-09
 57.21350    -84.4 1.098e+04 9.470e-10
 57.22957    -83.6 1.065e+04 8.218e-10
 57.24023    -83.2 1.059e+04 7.836e-10
 57.25614    -82.3 1.028e+04 6.762e-10
 57.27544    -81.3 1.005e+04 5.879e-10
 57.28610    -81.0 1.002e+04 5.672e-10
 57.29878    -80.0 9.861e+03 5.133e-10
 57.32010    -79.2 9.756e+03 4.820e-10
 57.35218    -78.3 9.662e+03 4.486e-10
 57.37803    -76.3 9.335e+03 3.667e-10
 57.39935    -75.0 9.185e+03 3.413e-10
 57.43756    -72.8 8.877e+03 2.686e-10
 57.46976    -70.7 8.662e+03 2.159e-10
 57.48859    -69.5 8.592e+03 2.018e-10
 57.49903    -69.4 8.601e+03 2.014e-10
 57.52284    -67.4 8.381e+03 1.608e-10
 57.56149    -65.3 8.167e+03 1.259e-10
 57.58281    -64.0 8.135e+03 1.244e-10
 57.60813    -61.9 7.965e+03 9.941e-11
 57.65077    -59.8 7.835e+03 8.007e-11
 57.67455    -57.8 7.773e+03 6.863e-11
 57.69587    -56.5 7.760e+03 7.008e-11
 57.73605    -54.5 7.754e+03 6.667e-11
 57.76628    -52.6 7.761e+03 6.629e-11
 57.78760    -51.4 7.755e+03 6.851e-11
 57.82133    -49.7 7.883e+03 7.609e-11
 57.85801    -48.2 8.075e+03 1.065e-10
 57.87934    -46.9 8.056e+03 1.038e-10
 57.90662    -45.3 8.236e+03 1.460e-10
 57.94926    -43.6 8.375e+03 1.881e-10
 57.97107    -41.9 8.444e+03 2.099e-10
 57.99239    -40.7 8.426e+03 2.035e-10
 58.03454    -39.2 8.447e+03 2.097e-10
 58.06280    -37.6 8.412e+03 2.050e-10
 58.08412    -36.5 8.410e+03 2.009e-10
 58.11982    -35.0 8.315e+03 1.791e-10
 58.15454    -33.8 8.230e+03 1.557e-10
 58.17586    -32.7 8.276e+03 1.638e-10
 58.20511    -31.8 8.272e+03 1.595e-10
 58.24627    -31.2 8.363e+03 1.694e-10
 58.26759    -30.4 8.579e+03 2.119e-10
 58.27099    -29.9 8.880e+03 2.852e-10
 58.29231    -29.9 8.718e+03 2.440e-10
 58.33303    -29.4 8.885e+03 2.760e-10
 58.35932    -29.2 8.929e+03 2.834e-10
 58.38064    -28.4 9.353e+03 3.877e-10
 58.41831    -28.3 9.214e+03 3.352e-10
 58.45106    -28.3 8.918e+03 2.512e-10
 58.47238    -28.2 9.258e+03 3.146e-10
 58.50360    -28.5 8.936e+03 2.400e-10
 58.54279    -28.6 8.802e+03 2.157e-10
 58.56411    -29.5 9.201e+03 2.838e-10
 58.58888    -29.6 9.392e+03 3.157e-10
 58.62076    -30.2 9.841e+03 4.309e-10
 58.64198    -30.6 1.010e+04 5.405e-10
 58.65565    -30.8 1.039e+04 7.168e-10
 58.65977    -31.7 1.073e+04 9.326e-10
 58.66743    -31.8 1.060e+04 8.703e-10
 58.68463    -31.5 1.085e+04 1.009e-09
 58.70152    -31.2 1.113e+04 1.105e-09
 58.71218    -32.2 1.113e+04 1.089e-09
 58.72727    -31.9 1.135e+04 1.166e-09
 58.74748    -31.3 1.165e+04 1.288e-09
 58.76890    -34.2 1.113e+04 9.106e-10
 58.80209    -34.0 1.103e+04 8.523e-10
 58.83931    -33.8 1.082e+04 7.636e-10
 58.86063    -36.7 9.674e+03 4.894e-10
 58.88737    -36.1 9.258e+03 4.194e-10
 58.93001    -35.2 9.022e+03 3.740e-10
 58.95237    -34.1 8.965e+03 3.503e-10
 58.97369    -35.0 8.765e+03 3.067e-10
 59.01529    -33.6 8.807e+03 3.097e-10
 59.04295    -32.4 8.983e+03 3.401e-10
 59.05043    -33.1 8.915e+03 3.348e-10
 59.06542    -33.7 8.700e+03 2.763e-10
 59.10058    -32.4 8.882e+03 3.213e-10
 59.13583    -31.2 8.956e+03 3.413e-10
 59.15715    -31.8 8.616e+03 2.602e-10
 59.18586    -30.6 8.607e+03 2.607e-10
 59.22757    -29.2 8.457e+03 2.225e-10
 59.24889    -29.4 8.231e+03 1.818e-10
 59.27114    -28.0 8.035e+03 1.346e-10
 59.31378    -26.7 7.884e+03 1.002e-10
 59.34062    -25.6 7.812e+03 8.215e-11
 59.36194    -25.4 7.903e+03 9.379e-11
 59.39906    -24.3 7.914e+03 9.208e-11
 59.43235    -23.4 8.075e+03 1.087e-10
 59.45367    -23.4 8.614e+03 1.952e-10
 59.48435    -22.2 8.840e+03 2.487e-10
 59.52409    -20.8 8.976e+03 2.935e-10
 59.54541    -20.6 9.482e+03 4.399e-10
 59.56963    -19.1 9.330e+03 3.957e-10
 59.61227    -17.6 9.069e+03 3.040e-10
 59.63714    -16.1 8.813e+03 2.111e-10
 59.65846    -16.2 8.838e+03 1.972e-10
 59.69755    -15.0 8.611e+03 1.338e-10
 59.72887    -13.8 8.503e+03 1.125e-10
 59.75019    -13.8 8.521e+03 1.135e-10
 59.78284    -12.2 8.500e+03 1.112e-10
 59.81490    -10.9 8.619e+03 1.266e-10
 59.83135    -11.4 8.746e+03 1.529e-10
 59.84193    -11.1 8.875e+03 1.689e-10
 59.86812     -9.7 9.055e+03 2.087e-10
 59.91076     -8.3 9.276e+03 2.542e-10
 59.93366     -7.2 9.530e+03 3.043e-10
 59.95498     -6.8 9.598e+03 3.120e-10
 59.99604     -6.2 9.749e+03 3.303e-10
 60.02539     -5.8 9.884e+03 3.486e-10
 60.04672     -5.5 9.791e+03 3.043e-10
 60.08133     -5.1 9.782e+03 2.981e-10
 60.11713     -4.2 9.666e+03 2.819e-10
 60.13845     -4.0 9.532e+03 2.436e-10
 60.16661     -2.5 9.310e+03 1.979e-10
 60.20886     -0.8 9.074e+03 1.358e-10
 60.23018     -0.3 9.028e+03 1.273e-10
 60.25189      1.4 8.884e+03 8.223e-11
 60.29453      3.0 8.794e+03 5.593e-11
 60.32192      4.5 8.665e+03 4.741e-11
 60.34324      4.9 8.651e+03 4.767e-11
 60.37982      6.7 8.610e+03 4.612e-11
 60.41365      8.4 8.650e+03 5.003e-11
 60.43497      8.9 8.629e+03 5.144e-11
 60.46510     10.4 8.724e+03 6.368e-11
 60.50538     11.7 8.888e+03 8.539e-11
 60.52670     12.3 8.818e+03 9.115e-11
 60.55038     13.6 8.929e+03 1.263e-10
 60.58686     15.2 8.944e+03 1.716e-10
 60.60818     15.0 8.815e+03 1.395e-10
 60.61844     16.7 8.800e+03 1.468e-10
 60.63976     17.4 8.768e+03 1.289e-10
 60.67831     19.2 8.593e+03 1.149e-10
 60.71017     21.1 8.475e+03 9.066e-11
 60.73149     21.7 8.430e+03 8.337e-11
 60.76359     23.4 8.395e+03 6.698e-11
 60.80190     24.8 8.482e+03 6.025e-11
 60.82322     25.7 8.442e+03 5.886e-11
 60.84887     27.3 8.531e+03 6.418e-11
 60.89151     28.6 8.727e+03 8.344e-11
 60.91496     30.8 8.960e+03 1.408e-10
 60.93628     31.7 8.734e+03 1.126e-10
 60.97680     34.1 8.878e+03 1.461e-10
 61.00669     36.2 9.041e+03 1.679e-10
 61.02801     36.7 9.059e+03 1.674e-10
 61.06208     38.4 9.313e+03 1.880e-10
 61.09842     39.7 9.660e+03 2.222e-10
 61.11975     40.7 9.490e+03 2.074e-10
 61.14736     42.3 9.680e+03 2.108e-10
 61.19000     43.6 1.010e+04 2.335e-10
 61.23264     44.2 1.015e+04 1.699e-10
 61.27529     44.2 1.066e+04 2.856e-10
 61.30321     44.2 1.104e+04 5.504e-10
 61.32453     44.4 1.078e+04 5.515e-10
 61.34898     42.6 1.172e+04 8.843e-10
 61.35954     43.1 1.152e+04 8.653e-10
 61.36929     42.9 1.197e+04 1.055e-09
 61.37995     42.4 1.231e+04 1.216e-09
 61.39235     39.8 1.480e+04 1.720e-09
 61.40541     36.9 1.688e+04 3.364e-09
 61.41607     37.0 1.740e+04 2.738e-09
 61.43500     35.0 1.801e+04 5.299e-09
 61.45128     34.3 1.808e+04 7.589e-09
 61.46194     33.9 1.827e+04 7.917e-09
 61.47764     33.6 1.823e+04 9.895e-09
 61.49714     33.7 1.808e+04 9.797e-09
 61.50780     33.9 1.817e+04 1.048e-08
 61.52028     34.3 1.783e+04 9.254e-09
 61.54160     34.5 1.728e+04 7.814e-09
 61.55367     34.7 1.662e+04 6.033e-09
 61.56433     35.2 1.662e+04 6.053e-09
 61.58424     35.4 1.581e+04 4.014e-09
 61.59954     35.4 1.485e+04 2.499e-09
 61.61020     35.9 1.480e+04 2.487e-09
 61.62688     36.1 1.369e+04 1.551e-09
 61.64540     36.1 1.283e+04 1.030e-09
 61.65606     36.7 1.289e+04 1.010e-09
 61.66952     37.1 1.195e+04 7.404e-10
 61.69084     37.7 1.147e+04 5.713e-10
 61.70193     38.3 1.141e+04 5.006e-10
 61.71259     38.6 1.135e+04 4.558e-10
 61.73349     39.3 1.113e+04 4.635e-10
 61.74780     40.3 1.105e+04 5.058e-10
 61.75846     40.5 1.088e+04 4.485e-10
 61.76592     41.4 1.095e+04 4.883e-10
 61.77659     40.3 1.091e+04 4.640e-10
 61.79366     41.4 1.104e+04 5.385e-10
 61.80433     41.6 1.082e+04 4.359e-10
 61.81877     43.1 1.094e+04 5.237e-10
 61.83953     44.0 1.095e+04 5.790e-10
 61.85019     44.0 1.082e+04 4.905e-10
 61.86141     45.8 1.073e+04 5.062e-10
 61.88273     46.3 1.079e+04 5.178e-10
 61.89606     48.1 1.062e+04 4.743e-10
 61.91748     49.2 1.043e+04 3.924e-10
 61.95755     51.7 1.009e+04 3.287e-10
 61.98799     54.0 9.724e+03 2.438e-10
 62.00931     54.9 9.478e+03 1.855e-10
 62.04283     57.4 9.226e+03 1.341e-10
 62.07972     59.9 9.035e+03 9.464e-11
 62.10104     61.1 8.823e+03 9.211e-11
 62.12811     63.6 8.716e+03 7.219e-11
 62.15210     66.0 8.623e+03 6.038e-11
 62.17342     65.3 8.477e+03 4.537e-11
 62.19278     67.8 8.399e+03 4.327e-11
 62.21410     69.2 8.393e+03 4.329e-11
 62.25604     71.9 8.397e+03 4.353e-11
 62.28451     74.4 8.429e+03 4.524e-11
 62.30583     75.9 8.431e+03 4.553e-11
 62.34132     78.3 8.493e+03 5.100e-11
 62.37624     80.7 8.558e+03 6.166e-11
 62.39756     82.1 8.574e+03 6.690e-11
 62.42660     84.5 8.660e+03 8.733e-11
 62.46798     87.0 8.758e+03 1.110e-10
 62.48930     88.3 8.875e+03 1.331e-10
 62.51189     90.8 9.055e+03 1.634e-10
 62.55453     93.1 9.195e+03 1.692e-10
 62.58103     95.1 9.200e+03 1.663e-10
 62.60235     96.4 9.558e+03 2.332e-10
 62.63981     98.2 9.518e+03 2.122e-10
 62.67276     99.9 9.410e+03 1.826e-10
 62.69408    100.9 9.781e+03 2.456e-10
 62.72509    102.5 9.594e+03 1.995e-10
 62.76450    104.1 9.435e+03 1.693e-10
 62.78582    104.8 9.780e+03 2.183e-10
 62.81038    106.4 9.595e+03 1.876e-10
 62.85302    108.1 9.433e+03 1.716e-10
 62.87755    109.6 9.334e+03 1.710e-10
 62.89887    110.1 9.715e+03 2.215e-10
 62.92406    111.5 9.623e+03 2.263e-10
 62.93462    111.5 9.788e+03 2.487e-10
 62.94877    112.2 9.646e+03 2.439e-10
 62.96909    112.6 9.538e+03 2.423e-10
 62.97975    112.9 9.847e+03 3.379e-10
 62.99141    113.2 9.800e+03 3.219e-10
 63.01273    113.1 9.843e+03 3.398e-10
 63.02562    112.0 9.950e+03 3.979e-10
 63.03628    111.4 1.112e+04 7.003e-10
 63.05537    109.9 1.183e+04 9.736e-10
 63.07148    108.5 1.271e+04 1.506e-09
 63.08214    109.0 1.419e+04 2.450e-09
 63.09801    107.8 1.494e+04 3.414e-09
 63.11735    106.8 1.581e+04 4.877e-09
 63.12801    107.0 1.752e+04 7.200e-09
 63.14065    106.1 1.812e+04 9.293e-09
 63.16197    105.4 1.882e+04 1.177e-08
 63.17388    104.6 1.960e+04 1.433e-08
 63.18454    105.4 2.007e+04 1.630e-08
 63.20461    104.5 2.055e+04 1.776e-08
 63.21974    103.7 2.083e+04 1.870e-08
 63.22502    104.1 2.088e+04 1.906e-08
 63.23117    103.8 2.092e+04 1.913e-08
 63.24183    103.3 2.110e+04 1.952e-08
 63.24791    103.0 2.106e+04 1.951e-08
 63.25324    103.2 2.117e+04 1.952e-08
 63.26315    102.9 2.108e+04 1.937e-08
 63.27084    102.8 2.082e+04 1.894e-08
 63.27617    103.2 2.079e+04 1.822e-08
 63.28447    103.3 2.057e+04 1.776e-08
 63.29378    103.3 2.033e+04 1.711e-08
 63.29911    103.8 2.028e+04 1.625e-08
 63.30579    104.0 2.010e+04 1.547e-08
 63.31507    103.9 1.987e+04 1.484e-08
 63.32040    103.3 1.956e+04 1.359e-08
 63.32209    103.2 1.928e+04 1.249e-08
 63.32742    104.2 1.926e+04 1.161e-08
 63.33777    104.2 1.909e+04 1.126e-08
 63.35381    104.9 1.875e+04 9.390e-09
 63.36800    104.8 1.924e+04 1.035e-08
 63.37866    106.6 1.841e+04 6.586e-09
 63.39650    103.8 2.000e+04 7.820e-09
 63.41244    101.8 2.043e+04 7.907e-09
 63.41910     95.5 2.367e+04 1.004e-08
 63.42443     94.2 2.518e+04 8.037e-09
 63.43371     82.9 3.221e+04 1.840e-08
 63.44204     75.2 2.729e+04 9.473e-08
 63.44737     71.7 2.967e+04 9.076e-08
 63.45503     66.6 2.568e+04 2.597e-07
 63.46497     60.0 2.445e+04 4.926e-07
 63.47027     52.8 2.471e+04 7.088e-07
 63.47364     47.9 2.628e+04 6.187e-07
 63.47897     46.0 2.691e+04 6.021e-07
 63.48172     36.4 3.062e+04 3.909e-07
 63.48438     30.2 2.724e+04 8.561e-07
 63.48963     23.1 3.225e+04 3.326e-07
 63.49318     12.8 3.370e+04 1.327e-07
 63.49585      6.4 2.949e+04 2.130e-07
 63.50029      2.8 2.946e+04 1.700e-07
 63.50465     -3.0 2.805e+04 1.421e-07
 63.50732     -5.3 2.598e+04 1.966e-07
 63.51068     -6.9 2.632e+04 1.876e-07
 63.51337     -5.7 2.607e+04 1.523e-07
 63.51617    -10.8 2.533e+04 1.306e-07
 63.52150    -12.4 2.436e+04 2.211e-07
 63.52966    -17.2 2.346e+04 1.592e-07
 63.53910    -20.5 2.241e+04 1.363e-07
 63.54443    -20.8 2.244e+04 1.328e-07
 63.55098    -21.9 2.171e+04 1.238e-07
 63.56164    -22.1 2.148e+04 1.087e-07
 63.56736    -22.2 2.157e+04 7.579e-08
 63.57269    -21.8 2.197e+04 5.772e-08
 63.58296    -22.6 2.227e+04 3.461e-08
 63.59030    -24.5 2.241e+04 2.077e-08
 63.59563    -25.1 2.289e+04 1.386e-08
 63.60795    -28.3 2.158e+04 1.159e-08
 63.61866    -30.1 2.143e+04 3.563e-09
 63.63103    -33.7 1.787e+04 3.220e-09
 63.65235    -35.6 1.577e+04 3.116e-09
 63.66452    -36.5 1.466e+04 3.179e-09
 63.67518    -38.2 1.354e+04 2.454e-09
 63.69499    -38.2 1.422e+04 3.340e-09
 63.70648    -38.3 1.467e+04 3.990e-09
 63.71122    -36.4 1.458e+04 3.963e-09
 63.72105    -37.8 1.526e+04 4.498e-09
 63.73763    -38.8 1.590e+04 5.168e-09
 63.75626    -40.0 1.632e+04 5.589e-09
 63.76692    -42.6 1.677e+04 6.183e-09
 63.78027    -44.6 1.687e+04 5.930e-09
 63.80159    -46.6 1.654e+04 5.334e-09
 63.81278    -48.3 1.622e+04 4.654e-09
 63.82345    -52.2 1.529e+04 2.781e-09
 63.84424    -54.2 1.462e+04 2.064e-09
 63.85865    -56.3 1.373e+04 1.546e-09
 63.86931    -61.2 1.102e+04 9.169e-10
 63.88688    -62.4 1.057e+04 8.530e-10
 63.90452    -62.8 1.053e+04 8.357e-10
 63.91518    -63.6 1.047e+04 7.841e-10
 63.92952    -63.4 1.060e+04 8.243e-10
 63.95038    -63.4 1.063e+04 8.347e-10
 63.96105    -64.5 1.059e+04 7.803e-10
 63.97216    -64.6 1.059e+04 7.814e-10
 63.99348    -64.7 1.051e+04 7.575e-10
 64.00691    -64.8 1.040e+04 7.117e-10
 64.01757    -66.1 1.039e+04 7.135e-10
 64.03612    -66.1 1.030e+04 6.778e-10
 64.05278    -66.0 1.019e+04 6.394e-10
 64.06344    -67.1 1.017e+04 6.637e-10
 64.07876    -66.9 1.006e+04 6.217e-10
 64.09246    -66.7 1.000e+04 5.797e-10
 64.10168    -66.1 1.001e+04 5.975e-10
 64.10931    -67.1 1.001e+04 5.913e-10
 64.12140    -67.0 9.910e+03 5.279e-10
 64.14272    -66.9 9.795e+03 4.683e-10
 64.15527    -66.6 9.673e+03 4.156e-10
 64.17669    -69.1 9.603e+03 3.628e-10
 64.21754    -68.4 9.367e+03 3.108e-10
 64.24710    -67.5 9.244e+03 2.781e-10
 64.26842    -69.9 9.379e+03 3.116e-10
 64.30283    -68.8 9.653e+03 3.363e-10
 64.33471    -68.4 1.002e+04 4.067e-10
 64.34930    -68.3 1.019e+04 4.701e-10
 64.35996    -70.2 1.065e+04 6.647e-10
 64.37725    -69.8 1.087e+04 7.844e-10
 64.39517    -69.4 1.121e+04 9.515e-10
 64.40583    -71.1 1.191e+04 1.267e-09
 64.41989    -70.9 1.244e+04 1.560e-09
 64.44103    -70.9 1.306e+04 1.972e-09
 64.45169    -72.5 1.314e+04 2.186e-09
 64.46254    -72.5 1.359e+04 2.604e-09
 64.47844    -72.3 1.403e+04 3.101e-09
 64.48910    -71.9 1.400e+04 3.184e-09
 64.49756    -71.6 1.441e+04 3.814e-09
 64.50822    -72.5 1.396e+04 3.014e-09
 64.52650    -72.3 1.421e+04 3.248e-09
 64.54343    -72.1 1.429e+04 3.357e-09
 64.55409    -73.5 1.355e+04 2.099e-09
 64.56914    -73.4 1.362e+04 2.136e-09
 64.58929    -73.2 1.362e+04 2.152e-09
 64.59995    -75.0 1.255e+04 1.393e-09
 64.61178    -74.6 1.275e+04 1.530e-09
 64.63310    -74.2 1.289e+04 1.677e-09
 64.64582    -73.6 1.296e+04 1.829e-09
 64.65648    -75.2 1.271e+04 1.604e-09
 64.67574    -74.8 1.308e+04 1.924e-09
 64.69169    -74.2 1.341e+04 2.306e-09
 64.70235    -75.9 1.337e+04 2.231e-09
 64.71838    -75.3 1.382e+04 2.818e-09
 64.73755    -74.5 1.425e+04 3.397e-09
 64.74821    -75.9 1.467e+04 3.367e-09
 64.76103    -75.1 1.507e+04 3.959e-09
 64.78235    -74.3 1.541e+04 4.363e-09
 64.79408    -73.5 1.554e+04 4.663e-09
 64.80474    -76.6 1.528e+04 2.998e-09
 64.82499    -76.2 1.544e+04 3.112e-09
 64.83995    -75.9 1.572e+04 3.177e-09
 64.85061    -81.3 1.363e+04 1.512e-09
 64.86442    -81.7 1.363e+04 1.487e-09
 64.87508    -80.4 1.419e+04 1.653e-09
 64.88581    -81.1 1.508e+04 1.798e-09
 64.89647    -86.0 1.305e+04 1.297e-09
 64.91027    -87.7 1.333e+04 1.433e-09
 64.93159    -89.5 1.369e+04 1.725e-09
 64.95291    -93.0 1.295e+04 1.533e-09
 64.97423    -94.3 1.288e+04 1.462e-09
 64.98821    -95.7 1.274e+04 1.269e-09
 64.99887    -97.1 1.213e+04 9.798e-10
 65.01687    -98.2 1.186e+04 8.412e-10
 65.03407    -99.1 1.166e+04 7.491e-10
 65.04474    -99.8 1.136e+04 6.104e-10
 65.05952   -100.0 1.131e+04 5.788e-10
 65.07994   -100.2 1.130e+04 5.650e-10
 65.09060   -100.7 1.098e+04 4.793e-10
 65.10216   -100.5 1.101e+04 4.808e-10
 65.12348   -100.4 1.104e+04 4.905e-10
 65.13647   -100.1 1.107e+04 5.006e-10
 65.14713   -100.4 1.092e+04 4.811e-10
 65.16612   -100.0 1.100e+04 5.053e-10
 65.18234    -99.6 1.103e+04 5.204e-10
 65.19300    -99.9 1.108e+04 5.547e-10
 65.20876    -99.5 1.115e+04 5.779e-10
 65.22820    -99.0 1.117e+04 5.848e-10
 65.23886    -99.5 1.140e+04 6.652e-10
 65.25040    -99.1 1.145e+04 6.723e-10
 65.26106    -98.5 1.119e+04 6.050e-10
 65.27272    -98.0 1.121e+04 5.882e-10
 65.28473    -97.6 1.130e+04 5.667e-10
 65.29539    -98.4 1.168e+04 7.206e-10
 65.31536    -98.3 1.187e+04 7.557e-10
 65.33060    -98.4 1.213e+04 8.391e-10
 65.34126    -99.2 1.243e+04 1.127e-09
 65.35800    -99.3 1.270e+04 1.358e-09
 65.37646    -99.4 1.302e+04 1.693e-09
 65.38712    -99.7 1.308e+04 1.804e-09
 65.40065    -99.7 1.341e+04 2.189e-09
 65.42197    -99.7 1.371e+04 2.545e-09
 65.43299    -99.6 1.388e+04 2.758e-09
 65.44365   -100.0 1.331e+04 1.873e-09
 65.46461   -100.1 1.327e+04 1.783e-09
 65.47886   -100.3 1.302e+04 1.521e-09
 65.48952   -101.4 1.239e+04 9.126e-10
 65.50725   -101.6 1.208e+04 7.577e-10
 65.52472   -101.9 1.172e+04 6.104e-10
 65.53538   -102.8 1.140e+04 4.870e-10
 65.54989   -102.8 1.117e+04 4.307e-10
 65.57059   -102.6 1.092e+04 3.899e-10
 65.58125   -102.9 1.090e+04 3.828e-10
 65.59253   -102.6 1.079e+04 3.568e-10
 65.61655   -101.8 1.075e+04 3.359e-10
 65.63797   -102.4 1.073e+04 3.604e-10
 65.66735   -101.6 1.059e+04 3.468e-10
 65.70839   -100.5 1.056e+04 3.419e-10
 65.72971   -101.1 1.040e+04 3.426e-10
 65.75263    -99.9 1.027e+04 3.392e-10
 65.79527    -98.8 1.024e+04 3.333e-10
 65.82144    -97.7 1.018e+04 3.341e-10
 65.84276    -98.2 9.927e+03 2.606e-10
 65.88056    -97.0 9.920e+03 2.602e-10
 65.91317    -95.8 9.997e+03 2.679e-10
 65.93449    -96.2 9.618e+03 1.799e-10
 65.96584    -95.2 9.781e+03 1.923e-10
 66.00491    -94.2 9.895e+03 2.276e-10
 66.02623    -94.7 9.572e+03 1.851e-10
 66.03321    -93.7 9.656e+03 2.367e-10
 66.05453    -92.5 9.973e+03 2.656e-10
 66.09376    -91.6 9.941e+03 2.839e-10
 66.11796    -90.7 9.896e+03 2.902e-10
 66.13928    -90.8 9.761e+03 2.732e-10
 66.17905    -89.8 9.624e+03 2.612e-10
 66.20969    -88.6 9.475e+03 2.418e-10
 66.23101    -88.4 9.246e+03 1.973e-10
 66.26433    -87.1 9.066e+03 1.673e-10
 66.30143    -85.8 8.920e+03 1.488e-10
 66.32275    -85.6 8.747e+03 1.096e-10
 66.34961    -84.1 8.628e+03 9.708e-11
 66.39225    -82.5 8.563e+03 8.858e-11
 66.41448    -80.9 8.520e+03 8.353e-11
 66.43580    -80.6 8.499e+03 8.132e-11
 66.47754    -78.8 8.488e+03 8.163e-11
 66.50621    -76.9 8.490e+03 8.284e-11
 66.52754    -76.5 8.611e+03 9.745e-11
 66.56282    -74.5 8.648e+03 1.017e-10
 66.59795    -72.5 8.721e+03 1.043e-10
 66.61927    -72.4 8.903e+03 1.292e-10
 66.64810    -71.0 9.123e+03 1.465e-10
 66.68968    -70.0 9.477e+03 2.044e-10
 66.71100    -70.0 9.496e+03 2.436e-10
 66.73339    -68.8 9.884e+03 3.657e-10
 66.77603    -67.3 1.030e+04 5.507e-10
 66.80274    -65.7 1.061e+04 6.583e-10
 66.81056    -65.3 9.995e+03 4.101e-10
 66.82649    -64.6 1.034e+04 5.369e-10
 66.86131    -63.7 1.041e+04 5.258e-10
 66.89447    -63.4 1.034e+04 4.676e-10
 66.91579    -63.9 9.733e+03 3.038e-10
 66.94659    -64.3 9.784e+03 3.254e-10
 66.98620    -64.9 9.883e+03 3.625e-10
 67.00752    -64.7 9.821e+03 3.758e-10
 67.03187    -65.7 1.013e+04 4.440e-10
 67.07452    -68.0 1.060e+04 5.117e-10
 67.09926    -71.8 1.117e+04 6.147e-10
 67.12058    -69.9 1.049e+04 5.062e-10
 67.14503    -71.5 1.049e+04 4.926e-10
 67.15559    -70.9 1.036e+04 4.440e-10
 67.17026    -72.8 1.048e+04 4.082e-10
 67.19079    -75.3 1.052e+04 3.974e-10
 67.20082    -74.8 1.055e+04 3.538e-10
 67.20161    -77.0 1.121e+04 4.431e-10
 67.21291    -80.1 1.236e+04 6.261e-10
 67.23423    -83.1 1.257e+04 9.580e-10
 67.24732    -84.0 1.273e+04 1.471e-09
 67.25798    -83.5 1.271e+04 1.250e-09
 67.27687    -84.0 1.287e+04 1.979e-09
 67.29319    -83.8 1.317e+04 2.367e-09
 67.30385    -83.8 1.346e+04 2.621e-09
 67.31951    -83.7 1.386e+04 3.055e-09
 67.33906    -83.8 1.413e+04 3.168e-09
 67.34972    -83.6 1.491e+04 4.376e-09
 67.36215    -83.8 1.524e+04 4.530e-09
 67.38347    -84.5 1.552e+04 4.409e-09
 67.39558    -85.7 1.564e+04 3.951e-09
 67.40624    -84.8 1.695e+04 6.530e-09
 67.42611    -86.6 1.693e+04 5.685e-09
 67.44145    -89.0 1.623e+04 4.585e-09
 67.45211    -88.9 1.870e+04 8.513e-09
 67.46875    -91.6 1.771e+04 6.752e-09
 67.48732    -93.8 1.618e+04 5.266e-09
 67.49798    -93.6 1.870e+04 1.020e-08
 67.51140    -95.1 1.681e+04 7.338e-09
 67.53272    -96.0 1.539e+04 5.286e-09
 67.54384    -97.6 1.465e+04 3.772e-09
 67.55450    -99.5 1.753e+04 7.117e-09
 67.57536   -102.6 1.732e+04 6.632e-09
 67.58759   -104.7 1.736e+04 6.808e-09
 67.59128   -105.3 1.629e+04 5.512e-09
 67.60037   -106.7 1.802e+04 1.055e-08
 67.61800   -107.0 1.744e+04 1.025e-08
 67.63558   -107.1 1.659e+04 8.068e-09
 67.64619   -106.9 1.740e+04 1.041e-08
 67.65521   -107.0 1.684e+04 8.350e-09
 67.66374   -107.2 1.642e+04 7.144e-09
 67.66907   -107.3 1.659e+04 7.332e-09
 67.67653   -107.9 1.589e+04 5.908e-09
 67.68668   -108.1 1.547e+04 5.286e-09
 67.69201   -108.5 1.553e+04 5.136e-09
 67.70323   -108.9 1.499e+04 4.356e-09
 67.72460   -108.9 1.418e+04 3.502e-09
 67.73797   -108.5 1.360e+04 2.978e-09
 67.74863   -108.9 1.316e+04 2.214e-09
 67.76724   -108.2 1.287e+04 2.046e-09
 67.78384   -107.4 1.272e+04 1.958e-09
 67.79450   -107.5 1.214e+04 1.253e-09
 67.80989   -106.5 1.204e+04 1.233e-09
 67.82970   -105.6 1.198e+04 1.212e-09
 67.84036   -105.7 1.143e+04 8.190e-10
 67.85253   -104.8 1.141e+04 8.082e-10
 67.87385   -104.0 1.136e+04 7.810e-10
 67.88623   -103.1 1.125e+04 7.427e-10
 67.89689   -103.0 1.082e+04 5.691e-10
 67.91649   -102.0 1.070e+04 5.260e-10
 67.93210   -101.0 1.050e+04 4.780e-10
 67.94276   -100.6 1.023e+04 3.881e-10
 67.95913    -99.6 1.008e+04 3.479e-10
 67.97357    -98.7 1.004e+04 3.400e-10
 67.98175    -98.9 1.010e+04 3.451e-10
 67.98862    -99.0 1.003e+04 3.097e-10
 68.01253    -97.7 9.963e+03 2.921e-10
 68.05527    -95.8 9.685e+03 2.628e-10
 68.08055    -93.6 9.498e+03 2.487e-10
 68.10187    -93.4 9.328e+03 2.073e-10
 68.14055    -91.2 9.252e+03 2.021e-10
 68.17229    -89.0 9.229e+03 2.133e-10
 68.19361    -88.7 9.068e+03 1.724e-10
 68.22583    -86.6 9.111e+03 1.934e-10
 68.26402    -84.5 9.235e+03 2.270e-10
 68.28534    -84.1 8.949e+03 1.711e-10
 68.31112    -81.9 9.038e+03 1.956e-10
 68.34909    -79.8 9.147e+03 2.174e-10
 68.37041    -79.8 9.133e+03 2.046e-10
 68.37707    -77.8 9.282e+03 2.241e-10
 68.39839    -77.1 8.935e+03 1.661e-10
 68.43904    -75.2 9.086e+03 1.836e-10
 68.46881    -73.4 9.306e+03 2.123e-10
 68.49013    -72.6 8.993e+03 1.637e-10
 68.52432    -70.9 9.247e+03 1.972e-10
 68.56054    -69.3 9.594e+03 2.584e-10
 68.58186    -68.4 9.179e+03 1.870e-10
 68.60961    -66.9 9.556e+03 2.418e-10
 68.65225    -65.4 9.981e+03 3.351e-10
 68.69489    -63.1 9.756e+03 2.553e-10
 68.73753    -61.8 1.008e+04 3.449e-10
 68.76533    -60.3 1.041e+04 4.333e-10
 68.78665    -60.0 9.994e+03 3.094e-10
 68.81110    -58.3 1.045e+04 4.406e-10
 68.82166    -58.2 1.046e+04 4.254e-10
 68.83328    -58.2 1.045e+04 4.374e-10
 68.85460    -57.3 1.050e+04 5.538e-10
 68.86753    -56.8 1.056e+04 5.877e-10
 68.87819    -56.8 1.063e+04 6.681e-10
 68.89724    -56.0 1.088e+04 7.505e-10
 68.91339    -55.5 1.115e+04 8.000e-10
 68.92405    -55.9 1.151e+04 1.060e-09
 68.93988    -55.5 1.188e+04 1.214e-09
 68.95926    -55.3 1.226e+04 1.335e-09
 68.96992    -55.6 1.280e+04 1.903e-09
 68.98252    -55.4 1.318e+04 2.125e-09
 69.00384    -55.3 1.343e+04 2.220e-09
 69.01579    -55.7 1.354e+04 2.216e-09
 69.02645    -56.0 1.361e+04 2.438e-09
 69.04649    -56.4 1.355e+04 2.374e-09
 69.06165    -56.8 1.348e+04 2.375e-09
 69.07231    -56.6 1.298e+04 1.923e-09
 69.08913    -56.9 1.290e+04 1.792e-09
 69.10752    -57.1 1.289e+04 1.723e-09
 69.11818    -57.3 1.187e+04 8.285e-10
 69.13151    -57.6 1.170e+04 7.642e-10
 69.14217    -57.9 1.185e+04 8.966e-10
 69.15309    -58.0 1.160e+04 8.572e-10
 69.16405    -57.9 1.146e+04 8.113e-10
 69.17471    -58.5 1.045e+04 3.840e-10
 69.19573    -58.4 1.039e+04 3.458e-10
 69.20991    -58.6 1.052e+04 3.309e-10
 69.22057    -58.7 9.908e+03 2.182e-10
 69.23837    -58.8 9.919e+03 2.153e-10
 69.25578    -59.1 1.013e+04 2.339e-10
 69.26654    -58.5 9.623e+03 1.804e-10
 69.29187    -58.1 9.908e+03 2.252e-10
 69.33451    -57.1 1.019e+04 3.214e-10
 69.35827    -55.3 1.030e+04 3.704e-10
 69.37959    -54.5 9.997e+03 3.043e-10
 69.40414    -53.7 1.067e+04 4.047e-10
 69.41470    -52.6 1.021e+04 3.202e-10
 69.43026    -53.1 1.071e+04 3.681e-10
 69.44991    -53.8 1.150e+04 5.345e-10
 69.46057    -52.1 1.092e+04 3.742e-10
 69.47290    -53.5 1.162e+04 5.560e-10
 69.49422    -54.4 1.187e+04 9.183e-10
 69.50644    -54.6 1.212e+04 1.483e-09
 69.51710    -54.3 1.200e+04 1.080e-09
 69.52815    -54.4 1.261e+04 1.797e-09
 69.53881    -54.4 1.283e+04 2.035e-09
 69.55230    -54.4 1.367e+04 2.885e-09
 69.56296    -54.6 1.348e+04 2.618e-09
 69.57950    -54.8 1.441e+04 3.409e-09
 69.59817    -56.1 1.475e+04 3.610e-09
 69.60883    -55.9 1.506e+04 4.107e-09
 69.62214    -57.5 1.513e+04 4.045e-09
 69.64347    -59.3 1.443e+04 3.370e-09
 69.65470    -60.6 1.380e+04 2.746e-09
 69.66536    -60.5 1.452e+04 3.904e-09
 69.68611    -61.3 1.409e+04 3.292e-09
 69.70056    -61.7 1.383e+04 2.520e-09
 69.71122    -61.4 1.430e+04 3.865e-09
 69.72875    -61.5 1.403e+04 2.804e-09
 69.74643    -61.7 1.349e+04 1.706e-09
 69.75709    -61.0 1.407e+04 2.786e-09
 69.77139    -61.4 1.349e+04 1.642e-09
 69.79230    -62.1 1.253e+04 9.175e-10
 69.80296    -61.3 1.345e+04 1.616e-09
 69.81403    -61.6 1.277e+04 9.423e-10
 69.83535    -61.8 1.200e+04 5.698e-10
 69.84882    -62.0 1.105e+04 3.825e-10
 69.85948    -61.0 1.253e+04 6.201e-10
 69.87799    -61.3 1.161e+04 4.124e-10
 69.89469    -61.3 1.066e+04 3.322e-10
 69.90535    -60.8 1.218e+04 4.935e-10
 69.91413    -60.9 1.139e+04 4.050e-10
 69.92479    -60.6 1.047e+04 3.323e-10
 69.94056    -60.4 1.011e+04 3.230e-10
 69.95122    -60.2 1.128e+04 4.437e-10
 69.96328    -59.9 1.082e+04 4.387e-10
 69.98460    -59.4 1.058e+04 4.474e-10
 69.99708    -58.8 1.049e+04 4.485e-10
 70.00774    -59.4 1.125e+04 6.936e-10
 70.02724    -58.6 1.109e+04 6.692e-10
 70.04295    -57.9 1.107e+04 5.803e-10
 70.05361    -58.2 1.164e+04 1.043e-09
 70.06988    -57.8 1.152e+04 8.600e-10
 70.08882    -57.5 1.137e+04 6.731e-10
 70.09948    -57.5 1.174e+04 1.195e-09
 70.11252    -57.2 1.141e+04 9.560e-10
 70.13384    -56.6 1.108e+04 7.358e-10
 70.14534    -55.7 1.087e+04 5.383e-10
 70.15600    -55.3 1.104e+04 9.096e-10
 70.17648    -54.3 1.081e+04 6.566e-10
 70.19121    -53.6 1.062e+04 4.535e-10
 70.20187    -53.3 1.087e+04 6.214e-10
 70.21912    -52.9 1.068e+04 4.242e-10
 70.23708    -52.6 1.053e+04 3.608e-10
 70.24774    -52.1 1.085e+04 4.779e-10
 70.26177    -51.8 1.071e+04 4.214e-10
 70.28294    -51.3 1.058e+04 3.992e-10
 70.29360    -51.2 1.087e+04 5.199e-10
 70.30011    -50.7 1.086e+04 5.231e-10
 70.31077    -50.5 1.079e+04 4.963e-10
 70.32573    -50.0 1.084e+04 5.403e-10
 70.33947    -49.4 1.091e+04 6.140e-10
 70.35013    -49.0 1.118e+04 7.713e-10
 70.36837    -48.2 1.128e+04 8.561e-10
 70.38534    -47.2 1.144e+04 9.215e-10
 70.39600    -47.0 1.158e+04 9.961e-10
 70.41101    -46.3 1.159e+04 1.025e-09
 70.43120    -45.3 1.167e+04 1.047e-09
 70.44187    -44.9 1.164e+04 1.055e-09
 70.45365    -44.3 1.150e+04 9.871e-10
 70.47497    -43.2 1.151e+04 9.216e-10
 70.48773    -42.3 1.144e+04 8.292e-10
 70.49839    -42.0 1.133e+04 8.194e-10
 70.51761    -41.1 1.140e+04 7.717e-10
 70.53360    -40.2 1.136e+04 7.074e-10
 70.54426    -39.9 1.123e+04 6.861e-10
 70.56026    -39.0 1.131e+04 6.872e-10
 70.57947    -38.2 1.132e+04 6.807e-10
 70.59013    -37.8 1.129e+04 6.794e-10
 70.60290    -37.0 1.143e+04 7.337e-10
 70.62422    -36.2 1.152e+04 7.785e-10
 70.63599    -35.4 1.158e+04 8.269e-10
 70.64665    -35.0 1.167e+04 8.865e-10
 70.66686    -34.4 1.180e+04 9.773e-10
 70.68186    -33.7 1.185e+04 1.054e-09
 70.69043    -33.5 1.208e+04 1.182e-09
 70.69675    -33.4 1.193e+04 1.126e-09
 70.70950    -32.9 1.203e+04 1.188e-09
 70.72773    -32.5 1.199e+04 1.215e-09
 70.73839    -32.3 1.233e+04 1.500e-09
 70.75214    -31.8 1.216e+04 1.572e-09
 70.77346    -30.8 1.196e+04 1.551e-09
 70.78425    -29.9 1.213e+04 1.370e-09
 70.79491    -29.3 1.241e+04 1.795e-09
 70.81610    -28.7 1.236e+04 1.604e-09
 70.83012    -28.5 1.220e+04 1.367e-09
 70.84078    -27.9 1.259e+04 1.677e-09
 70.85874    -28.1 1.256e+04 1.591e-09
 70.87599    -28.3 1.257e+04 1.568e-09
 70.88665    -27.9 1.302e+04 1.808e-09
 70.90139    -27.8 1.304e+04 1.928e-09
 70.92185    -27.5 1.299e+04 1.991e-09
 70.93251    -27.3 1.331e+04 2.147e-09
 70.94403    -26.7 1.302e+04 2.110e-09
 70.96535    -25.9 1.266e+04 1.822e-09
 70.97838    -25.3 1.243e+04 1.411e-09
 70.98904    -25.1 1.250e+04 1.419e-09
 71.00799    -25.3 1.206e+04 1.163e-09
 71.02425    -25.5 1.163e+04 9.115e-10
 71.03491    -25.3 1.155e+04 8.609e-10
 71.05063    -25.5 1.111e+04 7.603e-10
 71.07011    -25.3 1.079e+04 6.872e-10
 71.08077    -25.1 1.074e+04 6.326e-10
 71.08273    -24.8 1.048e+04 5.976e-10
 71.09339    -24.4 1.045e+04 5.858e-10
 71.11459    -23.9 1.029e+04 5.121e-10
 71.12664    -23.5 1.001e+04 4.648e-10
 71.13730    -23.5 9.949e+03 4.607e-10
 71.15723    -23.1 9.930e+03 3.788e-10
 71.17251    -22.9 9.746e+03 3.457e-10
 71.18317    -24.6 1.072e+04 3.983e-10
 71.19988    -26.3 1.159e+04 4.101e-10
 71.21837    -28.3 1.180e+04 5.252e-10
 71.22903    -30.2 1.208e+04 9.825e-10
 71.24252    -30.9 1.160e+04 1.205e-09
 71.26384    -30.6 1.142e+04 1.475e-09
 71.27490    -29.6 1.123e+04 1.607e-09
 71.28556    -29.1 1.151e+04 1.836e-09
 71.30648    -28.0 1.133e+04 1.693e-09
 71.32077    -27.4 1.126e+04 1.369e-09
 71.33143    -27.7 1.134e+04 1.088e-09
 71.34912    -28.6 1.083e+04 7.719e-10
 71.36663    -30.0 1.018e+04 5.531e-10
 71.37729    -31.8 9.808e+03 4.356e-10
 71.39176    -32.2 9.457e+03 4.051e-10
 71.41250    -32.0 9.289e+03 3.916e-10
 71.42316    -33.0 9.358e+03 3.976e-10
 71.43440    -33.0 9.620e+03 4.140e-10
 71.45572    -33.0 9.786e+03 4.381e-10
 71.46871    -33.1 9.828e+03 4.663e-10
 71.47135    -32.5 9.805e+03 4.261e-10
 71.47969    -33.3 9.810e+03 5.453e-10
 71.49837    -32.8 9.736e+03 5.514e-10
 71.51489    -32.4 9.714e+03 5.536e-10
 71.52556    -32.7 9.717e+03 6.258e-10
 71.54101    -32.1 9.625e+03 6.079e-10
 71.56076    -31.3 9.501e+03 5.643e-10
 71.57142    -31.6 9.362e+03 5.347e-10
 71.59441    -30.6 9.325e+03 4.622e-10
 71.61748    -29.6 9.047e+03 3.669e-10
 71.63880    -30.5 9.004e+03 3.521e-10
 71.67979    -29.8 8.829e+03 3.016e-10
 71.70922    -29.1 8.799e+03 2.868e-10
 71.73054    -30.4 8.966e+03 3.074e-10
 71.76507    -29.5 9.028e+03 3.273e-10
 71.80095    -28.6 9.183e+03 3.651e-10
 71.82227    -31.4 1.076e+04 5.958e-10
 71.85035    -30.8 1.095e+04 6.817e-10
 71.89268    -29.7 1.109e+04 8.555e-10
 71.91391    -31.2 1.206e+04 1.687e-09
 71.92478    -30.2 1.225e+04 1.657e-09
 71.94610    -30.9 1.294e+04 1.751e-09
 71.95968    -35.0 1.592e+04 2.578e-09
 71.97034    -38.7 1.728e+04 5.181e-09
 71.98874    -42.7 1.821e+04 9.190e-09
 72.00468    -43.4 1.830e+04 1.432e-08
 72.01078    -43.2 1.843e+04 1.513e-08
 72.01611    -42.6 1.790e+04 1.534e-08
 72.02596    -41.7 1.738e+04 1.705e-08
 72.03371    -40.9 1.787e+04 1.755e-08
 72.03904    -41.2 1.754e+04 1.266e-08
 72.04728    -41.0 1.858e+04 1.092e-08
 72.05291    -40.9 1.920e+04 9.323e-09
 72.05694    -41.1 1.863e+04 8.465e-09
 72.06197    -43.4 1.698e+04 5.139e-09
 72.07398    -47.1 1.556e+04 2.556e-09
 72.09535    -49.7 1.374e+04 1.560e-09
 72.10794    -53.4 1.092e+04 7.435e-10
 72.11860    -53.9 1.010e+04 6.024e-10
 72.13799    -53.7 1.002e+04 5.277e-10
 72.15380    -53.2 9.961e+03 4.727e-10
 72.16446    -53.1 9.757e+03 4.039e-10
 72.18063    -52.8 9.732e+03 3.906e-10
 72.19967    -52.6 9.714e+03 3.923e-10
 72.21043    -52.9 9.530e+03 3.381e-10
 72.23020    -52.0 9.617e+03 3.994e-10
 72.25152    -51.7 9.726e+03 4.171e-10
 72.25629    -50.7 9.849e+03 4.902e-10
 72.26686    -50.7 9.752e+03 4.603e-10
 72.28723    -50.2 9.804e+03 4.860e-10
 72.30206    -49.2 9.932e+03 5.380e-10
 72.31272    -49.3 9.789e+03 4.917e-10
 72.32987    -48.7 9.890e+03 4.989e-10
 72.34793    -48.1 9.932e+03 5.077e-10
 72.35859    -48.3 9.721e+03 4.467e-10
 72.37251    -48.3 9.707e+03 4.452e-10
 72.39390    -46.6 9.938e+03 5.285e-10
 72.41531    -46.8 9.639e+03 4.098e-10
 72.44733    -45.5 9.717e+03 4.494e-10
 72.48573    -44.0 9.971e+03 5.202e-10
 72.50705    -44.6 9.615e+03 3.969e-10
 72.53262    -43.4 9.898e+03 4.647e-10
 72.57526    -42.7 1.017e+04 5.829e-10
 72.59878    -41.8 1.052e+04 7.749e-10
 72.62010    -42.0 1.025e+04 6.388e-10
 72.66054    -40.6 1.036e+04 7.461e-10
 72.69051    -39.3 1.034e+04 7.319e-10
 72.71183    -39.7 1.005e+04 5.935e-10
 72.74582    -38.5 9.917e+03 5.357e-10
 72.78225    -37.2 9.708e+03 4.308e-10
 72.80357    -37.3 9.415e+03 3.643e-10
 72.83110    -35.6 9.106e+03 2.599e-10
 72.87375    -33.8 8.796e+03 1.685e-10
 72.89530    -32.3 8.663e+03 1.069e-10
 72.91662    -32.3 8.631e+03 1.023e-10
 72.95903    -31.2 8.533e+03 7.461e-11
 72.98703    -29.7 8.381e+03 7.071e-11
 73.00836    -29.8 8.472e+03 8.529e-11
 73.02348    -28.0 8.497e+03 8.711e-11
 73.04480    -27.3 8.378e+03 6.817e-11
 73.07877    -25.5 8.436e+03 7.645e-11
 73.10009    -25.6 8.634e+03 1.039e-10
 73.12959    -23.8 8.681e+03 1.078e-10
 73.17050    -22.0 8.719e+03 1.116e-10
 73.19182    -22.1 8.828e+03 1.310e-10
 73.21488    -20.5 8.823e+03 1.200e-10
 73.25752    -19.1 8.851e+03 1.203e-10
 73.28356    -17.8 8.922e+03 1.324e-10
 73.30488    -18.3 8.928e+03 1.210e-10
 73.34280    -17.1 9.029e+03 1.437e-10
 73.37529    -15.9 9.162e+03 1.819e-10
 73.39661    -16.3 9.044e+03 1.542e-10
 73.42808    -14.8 9.127e+03 1.773e-10
 73.46702    -13.4 9.225e+03 1.895e-10
 73.48834    -13.4 9.009e+03 1.346e-10
 73.51337    -12.1 9.050e+03 1.346e-10
 73.55601    -10.8 9.158e+03 1.391e-10
 73.58008    -10.0 9.477e+03 1.666e-10
 73.60140    -10.5 9.387e+03 1.377e-10
 73.64129    -10.1 1.001e+04 2.645e-10
 73.67171     -9.9 1.038e+04 3.977e-10
 73.68227     -9.9 1.035e+04 3.869e-10
 73.69440     -9.7 1.066e+04 5.508e-10
 73.71572     -9.1 1.124e+04 8.224e-10
 73.72814     -8.8 1.142e+04 9.246e-10
 73.73880     -8.9 1.133e+04 8.771e-10
 73.76345     -8.9 1.164e+04 9.898e-10
 73.78486     -8.8 1.120e+04 7.507e-10
 73.79544     -8.4 1.125e+04 7.493e-10
 73.80600     -7.9 1.152e+04 9.046e-10
 73.81988     -7.7 1.148e+04 8.575e-10
 73.83054     -7.7 1.121e+04 7.214e-10
 73.84364     -7.3 1.115e+04 6.830e-10
 73.86496     -7.1 1.110e+04 6.325e-10
 73.87650     -6.3 1.115e+04 5.447e-10
 73.88716     -6.4 1.084e+04 4.989e-10
 73.90760     -6.0 1.083e+04 4.422e-10
 73.93968     -5.1 1.075e+04 3.768e-10
 73.96833     -3.9 1.066e+04 3.675e-10
 73.98965     -3.4 1.067e+04 3.684e-10
 74.01410     -2.8 1.080e+04 4.274e-10
 74.02466     -2.5 1.086e+04 4.546e-10
 74.03553     -2.2 1.091e+04 4.870e-10
 74.05685     -1.4 1.106e+04 5.970e-10
 74.07053     -1.1 1.117e+04 6.494e-10
 74.08129     -1.0 1.115e+04 6.517e-10
 74.11035     -0.1 1.141e+04 7.808e-10
 74.15180      0.6 1.153e+04 7.910e-10
 74.17312     -0.3 1.212e+04 1.018e-09
 74.19563     -0.5 1.248e+04 1.140e-09
 74.21889      0.4 1.222e+04 1.072e-09
 74.22945     -0.1 1.243e+04 1.158e-09
 74.24874     -0.1 1.250e+04 1.207e-09
 74.26466      0.0 1.267e+04 1.355e-09
 74.27532     -1.1 1.298e+04 1.630e-09
 74.29138     -0.9 1.308e+04 1.757e-09
 74.31052     -0.7 1.318e+04 1.893e-09
 74.32118     -1.7 1.317e+04 1.928e-09
 74.33402     -1.3 1.310e+04 2.012e-09
 74.35534     -0.8 1.299e+04 1.929e-09
 74.36705     -0.2 1.280e+04 1.806e-09
 74.37771     -1.0 1.222e+04 1.293e-09
 74.39798     -0.3 1.203e+04 1.125e-09
 74.41292      0.4 1.186e+04 9.744e-10
 74.42358     -0.7 1.128e+04 6.696e-10
 74.44062     -0.1 1.111e+04 5.729e-10
 74.45878      0.4 1.098e+04 5.071e-10
 74.46944     -0.8 1.067e+04 4.284e-10
 74.48326     -0.4 1.068e+04 4.344e-10
 74.50458     -0.2 1.074e+04 4.627e-10
 74.52591     -1.0 1.077e+04 5.180e-10
 74.54723     -0.7 1.086e+04 6.116e-10
 74.56118     -0.4 1.099e+04 7.278e-10
 74.57049     -1.4 1.094e+04 7.551e-10
 74.57786     -1.1 1.094e+04 7.632e-10
 74.58987     -0.8 1.112e+04 8.902e-10
 74.60704     -0.9 1.131e+04 9.938e-10
 74.61770     -2.1 1.124e+04 9.572e-10
 74.63251     -3.0 1.149e+04 1.048e-09
 74.65291     -4.3 1.172e+04 1.177e-09
 74.66357     -5.7 1.165e+04 1.174e-09
 74.67515     -6.9 1.163e+04 1.260e-09
 74.69647     -8.1 1.156e+04 1.238e-09
 74.70944     -9.3 1.138e+04 1.135e-09
 74.72010     -9.9 1.124e+04 1.032e-09
 74.73911    -11.5 1.102e+04 8.186e-10
 74.75530    -13.9 1.073e+04 6.240e-10
 74.76597    -14.4 1.057e+04 5.446e-10
 74.78175    -17.1 1.011e+04 4.311e-10
 74.80117    -19.5 9.796e+03 4.108e-10
 74.81183    -19.8 9.866e+03 3.910e-10
 74.82439    -21.7 9.928e+03 4.128e-10
 74.84572    -23.7 1.016e+04 4.679e-10
 74.85770    -25.7 1.042e+04 5.541e-10
 74.86836    -26.2 1.052e+04 5.841e-10
 74.88836    -27.6 1.048e+04 6.880e-10
 74.90357    -28.6 1.044e+04 7.602e-10
 74.91423    -28.4 1.041e+04 7.923e-10
 74.93100    -29.2 1.046e+04 7.850e-10
 74.94943    -30.7 1.069e+04 8.071e-10
 74.96009    -30.5 1.070e+04 7.995e-10
 74.96384    -33.8 1.141e+04 9.062e-10
 74.97450    -32.7 1.083e+04 7.080e-10
 74.99496    -35.9 1.143e+04 9.318e-10
 75.00596    -38.0 1.115e+04 1.154e-09
 75.01662    -37.8 1.094e+04 1.046e-09
 75.03760    -38.4 1.065e+04 1.016e-09
 75.05183    -39.0 1.054e+04 9.185e-10
 75.06249    -38.5 1.042e+04 8.417e-10
 75.08024    -40.1 1.065e+04 6.964e-10
 75.09769    -42.9 1.070e+04 6.023e-10
 75.10835    -42.8 1.068e+04 5.839e-10
 75.12288    -46.4 1.080e+04 6.433e-10
 75.14356    -50.8 1.158e+04 9.562e-10
 75.15422    -51.5 1.182e+04 1.051e-09
 75.16553    -53.9 1.209e+04 1.620e-09
 75.18685    -54.1 1.191e+04 2.049e-09
 75.20009    -53.8 1.157e+04 2.035e-09
 75.21075    -53.2 1.156e+04 1.898e-09
 75.22949    -53.8 1.184e+04 1.469e-09
 75.24595    -56.6 1.210e+04 1.092e-09
 75.25661    -57.3 1.187e+04 9.943e-10
 75.27213    -61.0 1.093e+04 7.672e-10
 75.29182    -63.0 1.023e+04 6.755e-10
 75.30248    -63.0 1.035e+04 7.238e-10
 75.31477    -63.4 1.019e+04 7.319e-10
 75.33609    -63.6 1.016e+04 6.905e-10
 75.34835    -64.2 1.024e+04 6.102e-10
 75.35141    -64.4 1.056e+04 7.590e-10
 75.36048    -63.9 1.054e+04 7.251e-10
 75.37873    -65.2 1.058e+04 6.367e-10
 75.39421    -66.9 1.053e+04 6.026e-10
 75.40487    -66.9 1.087e+04 7.846e-10
 75.42137    -68.5 1.078e+04 7.570e-10
 75.44008    -69.9 1.084e+04 8.076e-10
 75.45074    -69.6 1.105e+04 8.891e-10
 75.46402    -71.0 1.103e+04 9.075e-10
 75.48534    -72.0 1.098e+04 9.992e-10
 75.49661    -72.4 1.098e+04 1.051e-09
 75.50727    -72.4 1.091e+04 9.960e-10
 75.52798    -72.6 1.085e+04 9.918e-10
 75.54257    -72.6 1.087e+04 9.422e-10
 75.56399    -72.2 1.072e+04 8.399e-10
 75.60280    -72.1 1.029e+04 5.852e-10
 75.63440    -71.9 9.707e+03 3.356e-10
 75.65572    -71.0 9.806e+03 3.484e-10
 75.68808    -70.9 9.358e+03 2.038e-10
 75.72614    -70.8 9.072e+03 1.604e-10
 75.74746    -69.9 9.377e+03 1.905e-10
 75.77336    -68.8 9.075e+03 1.649e-10
 75.81600    -67.3 8.911e+03 1.538e-10
 75.83919    -65.3 8.797e+03 1.426e-10
 75.86051    -64.9 8.842e+03 1.461e-10
 75.90129    -62.9 8.737e+03 1.279e-10
 75.93092    -60.9 8.698e+03 1.147e-10
 75.95224    -60.6 8.678e+03 1.157e-10
 75.98657    -58.7 8.682e+03 1.079e-10
 76.02266    -56.9 8.748e+03 1.045e-10
 76.04398    -56.6 8.629e+03 1.002e-10
 76.07185    -54.8 8.717e+03 1.011e-10
 76.11131    -53.0 8.705e+03 1.183e-10
 76.13253    -52.6 8.787e+03 1.311e-10
 76.15703    -49.7 8.517e+03 1.034e-10
 76.19978    -47.3 8.534e+03 9.273e-11
 76.22744    -45.3 8.607e+03 8.718e-11
 76.24877    -45.1 8.396e+03 6.245e-11
 76.28506    -43.5 8.442e+03 6.594e-11
 76.31918    -41.7 8.458e+03 7.942e-11
 76.34050    -41.1 8.271e+03 5.967e-11
 76.37034    -39.1 8.291e+03 7.473e-11
 76.41091    -36.9 8.381e+03 9.310e-11
 76.43223    -36.3 8.287e+03 7.496e-11
 76.45562    -34.1 8.388e+03 8.776e-11
 76.49826    -32.0 8.503e+03 9.626e-11
 76.52397    -30.1 8.605e+03 1.010e-10
 76.54529    -29.4 8.509e+03 8.741e-11
 76.58355    -27.4 8.563e+03 9.143e-11
 76.61570    -25.6 8.630e+03 1.003e-10
 76.63702    -25.0 8.510e+03 8.782e-11
 76.66883    -23.2 8.606e+03 1.056e-10
 76.70743    -21.6 8.786e+03 1.407e-10
 76.72875    -21.2 8.648e+03 1.254e-10
 76.75411    -19.6 8.909e+03 1.891e-10
 76.79675    -18.0 9.327e+03 2.982e-10
 76.82049    -16.2 9.750e+03 4.425e-10
 76.84181    -15.8 9.446e+03 4.089e-10
 76.88204    -14.1 9.825e+03 5.448e-10
 76.90459    -12.6 1.003e+04 6.050e-10
 76.91345    -11.7 1.023e+04 6.603e-10
 76.93354    -11.4 9.830e+03 5.555e-10
 76.96732    -10.2 9.868e+03 5.565e-10
 77.00395     -9.2 9.788e+03 5.265e-10
 77.02527     -8.7 9.272e+03 3.729e-10
 77.05260     -7.6 9.128e+03 3.421e-10
 77.09524     -6.5 8.950e+03 3.049e-10
 77.11701     -5.3 8.777e+03 2.691e-10
 77.13833     -4.4 8.394e+03 1.913e-10
 77.18053     -2.8 8.239e+03 1.679e-10
 77.20874     -1.1 8.086e+03 1.455e-10
 77.23006      0.1 7.827e+03 1.008e-10
 77.26581      1.9 7.712e+03 8.315e-11
 77.30047      3.6 7.599e+03 6.941e-11
 77.32179      4.7 7.492e+03 5.269e-11
 77.35109      6.3 7.434e+03 5.039e-11
 77.39221      8.1 7.440e+03 5.121e-11
 77.41353      9.4 7.369e+03 4.607e-11
 77.43638     11.0 7.399e+03 5.073e-11
 77.47902     12.4 7.495e+03 6.832e-11
 77.50526     13.9 7.676e+03 1.029e-10
 77.52658     15.6 7.603e+03 9.414e-11
 77.56430     17.3 7.833e+03 1.394e-10
 77.59700     19.0 8.051e+03 1.818e-10
 77.61832     20.9 8.044e+03 1.772e-10
 77.64958     22.2 8.129e+03 1.889e-10
 77.67655     23.3 8.115e+03 1.876e-10
 77.69437     23.7 8.078e+03 1.694e-10
 77.71005     25.7 8.086e+03 1.683e-10
 77.73487     26.9 8.056e+03 1.656e-10
 77.77751     27.9 8.089e+03 1.702e-10
 77.80178     28.7 8.207e+03 2.007e-10
 77.82310     29.5 8.530e+03 2.604e-10
 77.86279     30.5 9.036e+03 4.023e-10
 77.89352     32.1 9.529e+03 5.947e-10
 77.91484     32.7 9.778e+03 6.959e-10
 77.94807     34.5 1.003e+04 7.958e-10
 77.98525     36.4 1.024e+04 8.565e-10
 78.00647     36.1 9.992e+03 7.570e-10
 78.02250     36.7 1.000e+04 7.644e-10
 78.04158     37.3 1.008e+04 8.028e-10
 78.05224     37.1 9.935e+03 7.443e-10
 78.06233     37.8 1.005e+04 8.084e-10
 78.07299     38.9 1.032e+04 9.609e-10
 78.08646     39.7 1.048e+04 1.066e-09
 78.09811     40.5 1.069e+04 1.224e-09
 78.10877     40.2 1.047e+04 1.068e-09
 78.12910     41.0 1.087e+04 1.250e-09
 78.14398     41.4 1.147e+04 1.649e-09
 78.15464     38.0 1.259e+04 1.660e-09
 78.17174     34.2 1.533e+04 3.091e-09
 78.18769     30.5 1.692e+04 4.505e-09
 78.19507     26.5 1.859e+04 6.861e-09
 78.20040     24.1 1.825e+04 7.647e-09
 78.20896     20.7 1.875e+04 1.155e-08
 78.21801     19.5 1.844e+04 1.633e-08
 78.22334     19.9 1.797e+04 1.598e-08
 78.23028     20.0 1.792e+04 1.853e-08
 78.24094     20.2 1.774e+04 1.829e-08
 78.25160     17.6 1.949e+04 1.466e-08
 78.26055     13.8 2.235e+04 1.308e-08
 78.26588     14.8 2.130e+04 1.116e-08
 78.27830      1.6 2.784e+04 1.076e-08
 78.29219    -11.6 2.604e+04 1.071e-08
 78.30285    -17.9 2.210e+04 1.086e-08
 78.32099    -22.5 1.734e+04 9.969e-09
 78.33693    -23.3 1.687e+04 9.055e-09
 78.34333    -23.9 1.742e+04 7.790e-09
 78.34867    -25.3 1.848e+04 6.616e-09
 78.35820    -30.1 2.016e+04 4.178e-09
 78.36627    -32.4 1.963e+04 3.390e-09
 78.37160    -36.9 2.056e+04 3.208e-09
 78.38392    -43.7 1.847e+04 2.365e-09
 78.39463    -55.1 1.785e+04 2.858e-09
 78.40627    -60.8 1.701e+04 4.230e-09
 78.42759    -63.7 1.720e+04 6.247e-09
 78.44050    -65.9 1.722e+04 7.619e-09
 78.45055    -68.2 1.681e+04 7.785e-09
 78.45897    -68.5 1.727e+04 9.609e-09
 78.47023    -68.7 1.618e+04 8.017e-09
 78.48636    -68.7 1.526e+04 5.342e-09
 78.49702    -70.8 1.344e+04 2.034e-09
 78.51288    -72.4 1.225e+04 9.371e-10
 78.53223    -75.1 1.100e+04 4.328e-10
 78.54289    -77.9 9.608e+03 2.348e-10
 78.55552    -78.7 9.182e+03 2.042e-10
 78.57684    -78.0 9.127e+03 2.060e-10
 78.58876    -78.0 9.097e+03 2.068e-10
 78.59951    -77.8 9.041e+03 1.886e-10
 78.63033    -76.6 9.232e+03 2.229e-10
 78.67002    -75.2 9.404e+03 2.920e-10
 78.69135    -74.5 9.131e+03 2.495e-10
 78.71562    -71.9 9.336e+03 3.458e-10
 78.75826    -70.0 9.480e+03 3.315e-10
 78.78308    -68.0 9.307e+03 2.596e-10
 78.80440    -66.7 9.115e+03 2.455e-10
 78.84354    -65.1 8.934e+03 1.803e-10
 78.87481    -63.4 8.718e+03 1.402e-10
 78.89613    -62.3 8.625e+03 1.323e-10
 78.92882    -60.3 8.506e+03 1.067e-10
 78.96655    -58.3 8.511e+03 9.103e-11
 78.98787    -57.3 8.449e+03 8.453e-11
 79.01411    -55.3 8.518e+03 7.885e-11
 79.05675    -53.3 8.581e+03 7.924e-11
 79.07960    -51.4 8.719e+03 8.206e-11
 79.10092    -50.8 8.720e+03 8.359e-11
 79.14203    -49.0 8.875e+03 9.746e-11
 79.17133    -47.1 9.060e+03 1.137e-10
 79.19265    -46.6 9.097e+03 1.395e-10
 79.22046    -44.7 9.269e+03 1.431e-10
 79.24179    -44.3 9.305e+03 1.506e-10
 79.26307    -42.4 9.283e+03 1.426e-10
 79.28439    -41.9 9.423e+03 1.770e-10
 79.31260    -40.0 9.436e+03 1.502e-10
 79.35480    -38.5 9.444e+03 1.201e-10
 79.37612    -38.3 9.569e+03 1.507e-10
 79.39788    -37.0 9.511e+03 1.388e-10
 79.44052    -35.8 9.520e+03 1.421e-10
 79.46785    -34.6 9.587e+03 1.616e-10
 79.48918    -34.4 9.635e+03 1.818e-10
 79.52580    -33.0 9.693e+03 2.133e-10
 79.55959    -31.4 9.794e+03 2.509e-10
 79.58091    -31.0 9.753e+03 2.326e-10
 79.61109    -29.5 9.761e+03 2.341e-10
 79.65132    -28.2 9.761e+03 2.347e-10
 79.67264    -27.7 9.653e+03 1.979e-10
 79.69637    -26.6 9.670e+03 2.049e-10
 79.73901    -25.4 9.701e+03 2.214e-10
 79.76438    -24.1 9.752e+03 2.432e-10
 79.78570    -23.6 9.685e+03 2.106e-10
 79.82429    -22.3 9.744e+03 2.287e-10
 79.85611    -21.0 9.809e+03 2.489e-10
 79.87743    -20.6 9.730e+03 2.164e-10
 79.90958    -19.4 9.842e+03 2.554e-10
 79.94784    -18.3 1.017e+04 3.492e-10
 79.96916    -17.9 1.011e+04 3.055e-10
 79.99242    -17.3 1.085e+04 5.327e-10
 80.01250    -17.5 1.094e+04 5.793e-10
 80.01483    -17.3 1.074e+04 5.000e-10
 80.02665    -17.7 1.114e+04 8.199e-10
 80.04797    -17.5 1.165e+04 1.292e-09
 80.06070    -17.1 1.222e+04 1.795e-09
 80.07136    -16.7 1.182e+04 1.454e-09
 80.09061    -16.5 1.234e+04 1.727e-09
 80.10657    -16.7 1.281e+04 1.821e-09
 80.11723    -16.4 1.236e+04 1.389e-09
 80.13325    -17.0 1.244e+04 1.374e-09
 80.15243    -17.7 1.240e+04 1.261e-09
 80.16309    -17.3 1.199e+04 9.866e-10
 80.17589    -17.8 1.184e+04 8.865e-10
 80.19721    -18.1 1.164e+04 7.711e-10
 80.20896    -18.4 1.149e+04 6.660e-10
 80.21962    -17.7 1.136e+04 6.005e-10
 80.23985    -17.9 1.132e+04 5.391e-10
 80.25483    -18.2 1.128e+04 5.044e-10
 80.26549    -17.4 1.127e+04 4.924e-10
 80.29325    -17.0 1.112e+04 4.788e-10
 80.33599    -17.0 1.102e+04 4.826e-10
 80.37863    -15.5 1.103e+04 4.832e-10
 80.42127    -15.1 1.082e+04 4.467e-10
 80.44915    -14.5 1.058e+04 3.671e-10
 80.47047    -13.3 1.061e+04 3.607e-10
 80.50656    -12.6 1.034e+04 2.641e-10
 80.54088    -11.7 1.012e+04 1.965e-10
 80.56220    -10.6 1.017e+04 1.925e-10
 80.59184     -9.7 1.002e+04 1.542e-10
 80.63262     -8.7 9.966e+03 1.323e-10
 80.65394     -7.8 1.005e+04 1.357e-10
 80.67712     -6.5 9.965e+03 1.224e-10
 80.71976     -5.1 9.890e+03 1.067e-10
 80.74567     -3.7 9.841e+03 8.980e-11
 80.76699     -2.7 9.873e+03 9.127e-11
 80.78570     -1.2 9.836e+03 7.417e-11
 80.80702     -1.3 9.863e+03 8.709e-11
 80.83741      0.2 9.834e+03 7.274e-11
 80.85873      1.2 9.847e+03 7.303e-11
 80.89033      2.5 9.931e+03 5.845e-11
 80.92914      3.6 1.009e+04 4.665e-11
 80.95046      4.1 1.017e+04 5.476e-11
 80.97561      5.1 1.013e+04 5.291e-11
 81.01825      6.2 1.009e+04 5.222e-11
 81.04219      7.4 1.011e+04 5.265e-11
 81.06351      7.8 1.024e+04 7.771e-11
 81.10354      8.4 1.037e+04 8.279e-11
 81.13393      8.6 1.060e+04 1.069e-10
 81.15525      8.2 1.095e+04 1.718e-10
 81.18882      8.2 1.124e+04 2.490e-10
 81.22566      7.7 1.165e+04 3.743e-10
 81.24698      6.4 1.218e+04 5.200e-10
 81.26334      4.2 1.321e+04 8.346e-10
 81.28199      0.9 1.447e+04 1.816e-09
 81.29265      0.2 1.447e+04 2.197e-09
 81.30589     -1.1 1.508e+04 3.862e-09
 81.32721     -1.8 1.501e+04 4.130e-09
 81.33852     -2.4 1.494e+04 3.713e-09
 81.34918     -2.9 1.467e+04 2.983e-09
 81.36985     -4.6 1.432e+04 1.990e-09
 81.40193     -7.2 1.339e+04 1.100e-09
 81.43045     -9.2 1.229e+04 7.040e-10
 81.45177     -9.2 1.216e+04 7.090e-10
 81.48731     -9.2 1.187e+04 6.875e-10
 81.52218     -8.6 1.176e+04 6.945e-10
 81.54350     -8.3 1.139e+04 6.116e-10
 81.55766     -7.3 1.123e+04 5.872e-10
 81.57898     -7.1 1.164e+04 6.892e-10
 81.61391     -5.7 1.142e+04 6.405e-10
 81.63523     -5.3 1.108e+04 5.405e-10
 81.65787     -3.8 1.087e+04 4.283e-10
 81.70052     -2.2 1.069e+04 3.284e-10
 81.72697     -0.6 1.054e+04 2.538e-10
 81.74829     -0.3 1.034e+04 1.710e-10
 81.78580      1.3 1.020e+04 1.510e-10
 81.81870      3.0 1.019e+04 1.517e-10
 81.84002      3.4 1.004e+04 1.117e-10
 81.87108      5.3 1.004e+04 1.183e-10
 81.91043      7.0 1.006e+04 1.384e-10
 81.93176      7.5 9.921e+03 1.035e-10
 81.95636      9.2 9.939e+03 1.284e-10
 81.99901     10.9 1.001e+04 1.700e-10
 82.02349     12.5 1.016e+04 2.333e-10
 82.04481     13.0 9.909e+03 1.524e-10
 82.08429     14.5 1.002e+04 1.910e-10
 82.11522     15.9 1.017e+04 2.330e-10
 82.13654     16.2 9.955e+03 1.622e-10
 82.16957     17.4 1.004e+04 1.763e-10
 82.20696     18.5 1.014e+04 1.873e-10
 82.22828     18.7 9.978e+03 1.599e-10
 82.25485     19.7 1.003e+04 1.692e-10
 82.29749     20.8 1.008e+04 1.857e-10
 82.32001     22.1 1.015e+04 2.089e-10
 82.33081     22.5 1.005e+04 2.002e-10
 82.35094     22.7 1.010e+04 2.075e-10
 82.38278     24.0 1.012e+04 2.121e-10
 82.41174     25.2 1.010e+04 2.057e-10
 82.43306     25.8 1.005e+04 2.012e-10
 82.46806     27.1 9.991e+03 1.807e-10
 82.50348     28.3 9.885e+03 1.499e-10
 82.52480     28.8 9.912e+03 1.539e-10
 82.55334     29.8 9.788e+03 1.295e-10
 82.59521     30.9 9.636e+03 1.234e-10
 82.61653     31.0 9.710e+03 1.293e-10
 82.63863     31.8 9.677e+03 1.300e-10
 82.68127     32.3 9.684e+03 1.429e-10
 82.70826     32.6 9.910e+03 2.041e-10
 82.72959     31.6 1.027e+04 2.871e-10
 82.75403     32.1 1.034e+04 3.207e-10
 82.76460     31.5 1.050e+04 3.743e-10
 82.77702     31.3 1.061e+04 4.533e-10
 82.79834     31.2 1.071e+04 5.622e-10
 82.81046     31.2 1.091e+04 6.984e-10
 82.82112     30.1 1.125e+04 8.474e-10
 82.84098     29.9 1.167e+04 1.052e-09
 82.85633     29.7 1.212e+04 1.297e-09
 82.86699     28.4 1.238e+04 1.465e-09
 82.88362     28.1 1.259e+04 1.655e-09
 82.90220     28.0 1.277e+04 1.817e-09
 82.91286     27.0 1.254e+04 1.627e-09
 82.92626     26.9 1.245e+04 1.521e-09
 82.94758     26.8 1.235e+04 1.378e-09
 82.95872     26.4 1.226e+04 1.252e-09
 82.96938     25.1 1.197e+04 1.008e-09
 82.99022     24.7 1.201e+04 9.722e-10
 83.00459     24.2 1.207e+04 9.800e-10
 83.01525     22.8 1.186e+04 8.231e-10
 83.03286     22.4 1.201e+04 8.791e-10
 83.05046     22.1 1.213e+04 9.615e-10
 83.06112     20.6 1.196e+04 9.007e-10
 83.07551     20.4 1.213e+04 1.027e-09
 83.09632     20.4 1.226e+04 1.126e-09
 83.10698     18.7 1.228e+04 1.240e-09
 83.11204     18.8 1.247e+04 1.469e-09
 83.12270     18.0 1.306e+04 1.999e-09
 83.13947     18.1 1.311e+04 2.120e-09
 83.15285     18.3 1.330e+04 2.284e-09
 83.16351     17.3 1.322e+04 2.393e-09
 83.18211     17.6 1.357e+04 2.567e-09
 83.19872     18.1 1.376e+04 2.831e-09
 83.20938     17.9 1.338e+04 2.609e-09
 83.22475     18.7 1.355e+04 2.685e-09
 83.24458     19.6 1.370e+04 2.713e-09
 83.25524     19.4 1.342e+04 2.281e-09
 83.26739     20.3 1.365e+04 2.283e-09
 83.28871     21.1 1.415e+04 2.441e-09
 83.30111     20.7 1.483e+04 2.849e-09
 83.31177     18.9 1.569e+04 2.952e-09
 83.33135     17.3 1.787e+04 4.607e-09
 83.34698     14.8 1.997e+04 7.737e-09
 83.35226     14.2 2.043e+04 9.817e-09
 83.35791     11.9 2.158e+04 1.529e-08
 83.36857      9.9 2.202e+04 2.708e-08
 83.37514      8.4 2.170e+04 6.112e-08
 83.38047      8.1 2.170e+04 1.255e-07
 83.38989      8.1 2.133e+04 2.651e-07
 83.39808      8.1 2.134e+04 3.869e-07
 83.40341      6.7 2.143e+04 4.318e-07
 83.41121      5.8 2.133e+04 3.978e-07
 83.42101      6.2 2.094e+04 2.757e-07
 83.42634      6.8 2.054e+04 1.812e-07
 83.43253      8.9 2.012e+04 7.965e-08
 83.44319      9.1 1.991e+04 3.052e-08
 83.44927      7.6 1.920e+04 1.270e-08
 83.45998      5.4 1.841e+04 8.127e-09
 83.48060      2.3 1.595e+04 3.351e-09
 83.49524     -0.9 1.320e+04 1.707e-09
 83.50200     -2.8 1.188e+04 1.254e-09
 83.50868     -3.3 1.193e+04 1.177e-09
 83.52324     -2.8 1.167e+04 1.125e-09
 83.54110     -1.5 1.166e+04 1.124e-09
 83.55177     -1.9 1.143e+04 9.711e-10
 83.56588     -0.7 1.160e+04 1.011e-09
 83.58697     -0.4 1.198e+04 1.170e-09
 83.59763     -2.1 1.198e+04 1.138e-09
 83.60852     -2.8 1.256e+04 1.563e-09
 83.62984     -3.6 1.337e+04 2.430e-09
 83.64350     -4.6 1.489e+04 4.217e-09
 83.65416     -6.4 1.506e+04 4.245e-09
 83.66638     -5.9 1.545e+04 5.015e-09
 83.67166     -6.9 1.549e+04 4.921e-09
 83.67772     -7.4 1.601e+04 5.543e-09
 83.68838     -8.5 1.737e+04 6.706e-09
 83.69460    -10.5 1.937e+04 8.663e-09
 83.69713    -11.0 1.881e+04 7.746e-09
 83.70157    -12.4 2.043e+04 1.102e-08
 83.70970    -14.1 2.119e+04 1.388e-08
 83.71753    -15.6 2.142e+04 1.684e-08
 83.72286    -15.6 2.025e+04 1.292e-08
 83.73102    -16.7 1.980e+04 1.455e-08
 83.74046    -17.5 1.919e+04 1.569e-08
 83.74579    -17.5 1.847e+04 1.181e-08
 83.75234    -18.1 1.824e+04 1.193e-08
 83.76300    -18.7 1.798e+04 1.185e-08
 83.77904    -18.5 1.744e+04 1.047e-08
 83.79176    -18.3 1.682e+04 9.738e-09
 83.80242    -18.2 1.596e+04 6.638e-09
 83.82173    -18.2 1.521e+04 5.506e-09
 83.83763    -18.1 1.452e+04 4.114e-09
 83.84829    -18.2 1.393e+04 3.376e-09
 83.86437    -18.0 1.352e+04 2.590e-09
 83.88349    -17.8 1.318e+04 1.859e-09
 83.89246    -17.4 1.287e+04 1.739e-09
 83.89466    -18.6 1.243e+04 1.143e-09
 83.90701    -18.5 1.184e+04 8.145e-10
 83.92833    -18.4 1.115e+04 6.306e-10
 83.94002    -17.9 1.062e+04 5.435e-10
 83.95068    -17.2 1.058e+04 4.630e-10
 83.97097    -16.5 1.029e+04 4.171e-10
 83.98589    -15.6 1.027e+04 4.127e-10
 83.99655    -15.2 1.016e+04 3.368e-10
 84.01362    -14.4 1.014e+04 3.370e-10
 84.03175    -13.8 1.018e+04 3.462e-10
 84.04241    -13.5 1.006e+04 2.873e-10
 84.05626    -13.0 1.012e+04 3.057e-10
 84.07758    -12.5 1.026e+04 3.570e-10
 84.09890    -11.7 1.016e+04 3.431e-10
 84.12022    -11.2 1.034e+04 4.093e-10
 84.13415    -10.7 1.054e+04 4.780e-10
 84.14481    -10.3 1.028e+04 3.788e-10
 84.16286     -9.9 1.046e+04 4.271e-10
 84.18001     -9.4 1.061e+04 4.674e-10
 84.19067     -8.9 1.034e+04 3.778e-10
 84.20550     -8.4 1.046e+04 4.072e-10
 84.22588     -7.8 1.057e+04 4.394e-10
 84.23654     -7.1 1.032e+04 3.593e-10
 84.24814     -6.5 1.042e+04 3.891e-10
 84.26946     -5.9 1.061e+04 4.314e-10
 84.28064     -5.7 1.094e+04 4.959e-10
 84.28292     -6.9 1.152e+04 6.528e-10
 84.29307     -6.1 1.112e+04 4.903e-10
 84.31211     -6.1 1.149e+04 6.487e-10
 84.32827     -6.2 1.192e+04 9.046e-10
 84.33893     -5.5 1.147e+04 6.818e-10
 84.35475     -5.7 1.195e+04 9.926e-10
 84.37414     -6.0 1.251e+04 1.489e-09
 84.38480     -5.2 1.200e+04 1.118e-09
 84.39739     -5.4 1.252e+04 1.672e-09
 84.41871     -5.1 1.304e+04 2.352e-09
 84.43067     -4.8 1.336e+04 2.773e-09
 84.44133     -4.1 1.279e+04 2.163e-09
 84.46135     -4.0 1.293e+04 2.185e-09
 84.47653     -4.0 1.291e+04 2.117e-09
 84.48719     -3.4 1.244e+04 1.695e-09
 84.50399     -3.4 1.223e+04 1.436e-09
 84.52240     -3.6 1.197e+04 1.242e-09
 84.53306     -3.0 1.176e+04 1.132e-09
 84.54663     -2.8 1.152e+04 9.387e-10
 84.56795     -2.8 1.133e+04 8.205e-10
 84.57903     -2.5 1.130e+04 7.598e-10
 84.58969     -1.6 1.107e+04 6.896e-10
 84.61060     -1.5 1.097e+04 6.326e-10
 84.62480     -1.0 1.087e+04 5.887e-10
 84.63546     -0.3 1.086e+04 5.802e-10
 84.65324      0.0 1.077e+04 5.492e-10
 84.66672      0.8 1.092e+04 5.905e-10
 84.67358      0.1 1.043e+04 4.919e-10
 84.69218      1.7 1.032e+04 4.162e-10
 84.72805      2.6 1.027e+04 4.184e-10
 84.76259      3.6 1.032e+04 4.495e-10
 84.78391      4.9 1.015e+04 3.638e-10
 84.81334      6.1 1.019e+04 3.837e-10
 84.85432      7.2 1.031e+04 4.416e-10
 84.87564      8.9 1.006e+04 3.352e-10
 84.89862     10.0 1.033e+04 4.232e-10
 84.94126     11.1 1.070e+04 5.965e-10
 84.96738     12.2 1.102e+04 8.147e-10
 84.98870     14.0 1.107e+04 7.659e-10
 85.02654     15.1 1.131e+04 9.801e-10
 85.05911     15.9 1.130e+04 9.762e-10
 85.08043     17.8 1.148e+04 1.053e-09
 85.11183     18.2 1.141e+04 1.006e-09
 85.15084     18.7 1.106e+04 8.699e-10
 85.17217     20.5 1.187e+04 1.213e-09
 85.18635     20.2 1.142e+04 9.590e-10
 85.20718     20.1 1.118e+04 8.445e-10
 85.21784     20.5 1.137e+04 9.045e-10
 85.22890     20.4 1.113e+04 7.927e-10
 85.25022     20.2 1.089e+04 6.812e-10
 85.26370     19.8 1.074e+04 6.034e-10
 85.27436     19.3 1.113e+04 6.568e-10
 85.29286     18.5 1.119e+04 6.327e-10
 85.30957     17.4 1.135e+04 6.490e-10
 85.32023     13.5 1.480e+04 1.738e-09
 85.33550     11.1 1.525e+04 2.131e-09
 85.35544      9.0 1.588e+04 2.967e-09
 85.36610      7.1 1.872e+04 1.067e-08
 85.37814      6.5 1.842e+04 1.051e-08
 85.39946      6.4 1.772e+04 8.400e-09
 85.41196      5.9 1.672e+04 5.730e-09
 85.42262      4.5 1.739e+04 6.482e-09
 85.43858      2.1 1.590e+04 3.721e-09
 85.44924      1.0 1.524e+04 2.933e-09
 85.45783     -1.6 1.394e+04 2.024e-09
 85.46849     -4.2 1.338e+04 1.590e-09
 85.48474     -4.9 1.276e+04 1.301e-09
 85.50370     -5.0 1.260e+04 1.132e-09
 85.51436     -6.2 1.245e+04 9.527e-10
 85.52739     -5.9 1.241e+04 8.225e-10
 85.54871     -5.7 1.233e+04 7.018e-10
 85.56022     -5.6 1.220e+04 6.067e-10
 85.57088     -6.5 1.204e+04 5.385e-10
 85.59135     -6.4 1.188e+04 4.780e-10
 85.60609     -6.4 1.170e+04 4.395e-10
 85.61675     -7.0 1.156e+04 3.935e-10
 85.63399     -6.8 1.141e+04 3.876e-10
 85.65196     -6.4 1.144e+04 3.915e-10
 85.66262     -6.8 1.135e+04 3.586e-10
 85.67663     -6.9 1.150e+04 3.801e-10
 85.69782     -7.2 1.176e+04 4.278e-10
 85.70849     -7.6 1.174e+04 4.105e-10
 85.71927     -8.2 1.202e+04 4.932e-10
 85.74059     -9.0 1.225e+04 6.205e-10
 85.75435     -9.7 1.242e+04 7.870e-10
 85.76501    -10.1 1.244e+04 7.607e-10
 85.78323    -10.5 1.261e+04 9.024e-10
 85.80022    -11.0 1.269e+04 9.330e-10
 85.81088    -11.4 1.274e+04 9.373e-10
 85.82456    -11.9 1.275e+04 9.267e-10
 85.83522    -12.9 1.274e+04 9.037e-10
 85.84609    -13.4 1.263e+04 8.528e-10
 85.85675    -13.7 1.268e+04 9.247e-10
 85.86852    -13.9 1.239e+04 8.027e-10
 85.88984    -14.1 1.205e+04 6.605e-10
 85.90261    -14.3 1.172e+04 5.026e-10
 85.91327    -14.3 1.170e+04 5.127e-10
 85.93248    -14.7 1.149e+04 4.169e-10
 85.94858    -14.3 1.125e+04 3.295e-10
 85.97000    -13.7 1.108e+04 3.299e-10
 86.00730    -12.8 1.073e+04 2.656e-10
 86.04041    -11.3 1.073e+04 2.671e-10
 86.06173    -10.5 1.050e+04 2.403e-10
 86.09258     -8.8 1.061e+04 2.543e-10
 86.13214     -7.1 1.069e+04 2.862e-10
 86.15346     -6.1 1.055e+04 2.684e-10
 86.17786     -4.4 1.061e+04 2.966e-10
 86.20975     -3.2 1.065e+04 3.165e-10
 86.22120     -2.6 1.071e+04 3.430e-10
 86.23186     -3.1 1.087e+04 3.581e-10
 86.24500     -2.9 1.103e+04 4.159e-10
 86.25566     -2.4 1.100e+04 3.891e-10
 86.27361     -2.4 1.126e+04 4.858e-10
 86.29087     -2.7 1.187e+04 6.951e-10
 86.30153     -2.0 1.157e+04 6.323e-10
 86.31625     -2.3 1.224e+04 9.473e-10
 86.33673     -2.8 1.335e+04 1.653e-09
 86.34739     -1.7 1.248e+04 1.228e-09
 86.35889     -1.9 1.342e+04 1.919e-09
 86.38021     -2.1 1.446e+04 3.065e-09
 86.39326     -2.2 1.534e+04 4.607e-09
 86.40392     -1.1 1.413e+04 2.647e-09
 86.42285     -1.5 1.488e+04 3.600e-09
 86.43913     -2.0 1.538e+04 4.519e-09
 86.44979     -1.2 1.438e+04 2.684e-09
 86.46550     -1.8 1.481e+04 3.389e-09
 86.48499     -2.2 1.498e+04 3.927e-09
 86.49565     -1.6 1.435e+04 2.758e-09
 86.50814     -1.9 1.454e+04 3.305e-09
 86.52946     -1.9 1.458e+04 3.379e-09
 86.54152     -1.9 1.446e+04 3.047e-09
 86.55218     -1.2 1.426e+04 2.910e-09
 86.57210     -1.3 1.419e+04 2.664e-09
 86.58739     -1.4 1.390e+04 2.229e-09
 86.59805     -0.7 1.385e+04 2.237e-09
 86.60717     -0.6 1.356e+04 1.802e-09
 86.61784     -1.7 1.340e+04 1.570e-09
 86.63325     -1.8 1.302e+04 1.235e-09
 86.64391     -1.0 1.300e+04 1.251e-09
 86.65738     -0.8 1.265e+04 1.050e-09
 86.67870     -0.4 1.243e+04 8.998e-10
 86.68978     -0.1 1.232e+04 7.733e-10
 86.70044      0.8 1.232e+04 7.826e-10
 86.72134      1.0 1.228e+04 6.666e-10
 86.73565      1.1 1.223e+04 5.821e-10
 86.74631      1.8 1.223e+04 5.839e-10
 86.76399      1.9 1.211e+04 5.366e-10
 86.78151      2.2 1.209e+04 5.354e-10
 86.79218      2.9 1.201e+04 5.234e-10
 86.80663      3.1 1.202e+04 5.290e-10
 86.82738      3.3 1.210e+04 5.565e-10
 86.83804      4.0 1.194e+04 5.158e-10
 86.84927      4.3 1.205e+04 5.522e-10
 86.87059      4.5 1.224e+04 6.218e-10
 86.88391      4.6 1.248e+04 7.420e-10
 86.89457      5.4 1.218e+04 5.926e-10
 86.91323      5.6 1.239e+04 7.019e-10
 86.92978      5.5 1.265e+04 9.054e-10
 86.94044      6.6 1.231e+04 6.470e-10
 86.95587      6.6 1.249e+04 7.918e-10
 86.97564      6.9 1.263e+04 9.523e-10
 86.98630      7.4 1.248e+04 7.981e-10
 86.99315      7.5 1.260e+04 9.210e-10
 87.00391      6.8 1.243e+04 8.013e-10
 87.02170      7.5 1.261e+04 1.085e-09
 87.04302      8.9 1.236e+04 7.861e-10
 87.07333      9.4 1.250e+04 1.020e-09
 87.11344      9.6 1.245e+04 1.068e-09
 87.13476     11.4 1.222e+04 8.594e-10
 87.15861     11.8 1.216e+04 8.909e-10
 87.20126     12.6 1.197e+04 8.135e-10
 87.22649     13.5 1.178e+04 7.026e-10
 87.24781     15.1 1.186e+04 7.202e-10
 87.28654     15.8 1.183e+04 7.196e-10
 87.31823     16.7 1.176e+04 7.061e-10
 87.33955     18.1 1.192e+04 8.089e-10
 87.37182     19.1 1.200e+04 8.446e-10
 87.40996     20.2 1.199e+04 7.910e-10
 87.43118     20.8 1.230e+04 9.722e-10
 87.45701     22.2 1.228e+04 9.156e-10
 87.49975     23.3 1.200e+04 7.543e-10
 87.52301     24.5 1.154e+04 5.403e-10
 87.54433     25.8 1.193e+04 7.374e-10
 87.58503     27.0 1.151e+04 5.380e-10
 87.61475     28.2 1.114e+04 3.674e-10
 87.63607     29.7 1.151e+04 5.281e-10
 87.67031     30.9 1.124e+04 3.872e-10
 87.70648     32.1 1.097e+04 2.780e-10
 87.72780     33.7 1.142e+04 4.260e-10
 87.75465     34.8 1.117e+04 3.278e-10
 87.77597     34.3 1.103e+04 2.822e-10
 87.79821     35.3 1.078e+04 2.286e-10
 87.84085     38.0 1.085e+04 2.573e-10
 87.88352     39.0 1.058e+04 2.174e-10
 87.91127     39.9 1.038e+04 1.867e-10
 87.93259     41.7 1.062e+04 2.183e-10
 87.96880     42.3 1.038e+04 1.730e-10
 88.00300     42.6 1.017e+04 1.443e-10
 88.02432     44.7 1.053e+04 1.715e-10
 88.05408     44.6 1.040e+04 1.541e-10
 88.09473     44.1 1.044e+04 1.602e-10
 88.11605     46.3 1.093e+04 2.105e-10
 88.13937     45.0 1.108e+04 2.459e-10
 88.16182     43.8 1.114e+04 2.765e-10
 88.17239     43.6 1.118e+04 2.894e-10
 88.19247     41.8 1.147e+04 3.990e-10
 88.20759     39.8 1.187e+04 6.081e-10
 88.21825     39.7 1.235e+04 8.479e-10
 88.23511     38.2 1.268e+04 1.188e-09
 88.25346     37.0 1.287e+04 1.443e-09
 88.26412     37.2 1.337e+04 1.850e-09
 88.27776     36.1 1.330e+04 1.779e-09
 88.29908     34.7 1.312e+04 1.597e-09
 88.30999     33.3 1.286e+04 1.359e-09
 88.32065     33.0 1.284e+04 1.309e-09
 88.34172     31.5 1.236e+04 1.029e-09
 88.35585     30.4 1.193e+04 8.150e-10
 88.36651     29.9 1.176e+04 7.572e-10
 88.38436     29.2 1.149e+04 6.128e-10
 88.40172     28.5 1.132e+04 4.992e-10
 88.41238     28.3 1.126e+04 4.823e-10
 88.42700     27.4 1.110e+04 3.871e-10
 88.44759     27.1 1.100e+04 3.590e-10
 88.45825     27.1 1.097e+04 3.501e-10
 88.46964     26.8 1.086e+04 3.337e-10
 88.49096     26.7 1.083e+04 3.307e-10
 88.50411     26.6 1.082e+04 3.315e-10
 88.51477     26.7 1.083e+04 3.102e-10
 88.53360     26.6 1.085e+04 3.137e-10
 88.54773     26.0 1.094e+04 3.422e-10
 88.55345     26.5 1.091e+04 3.350e-10
 88.56064     26.4 1.093e+04 3.286e-10
 88.57625     25.6 1.108e+04 3.855e-10
 88.59585     24.0 1.177e+04 5.312e-10
 88.60651     22.9 1.202e+04 5.715e-10
 88.61889     18.5 1.362e+04 1.402e-09
 88.64021     14.5 1.592e+04 4.242e-09
 88.65237     12.2 1.748e+04 8.933e-09
 88.66303     11.8 1.729e+04 7.880e-09
 88.68285      9.4 1.759e+04 7.951e-09
 88.69824      6.9 1.751e+04 5.799e-09
 88.70890      5.5 1.676e+04 4.520e-09
 88.72549      0.5 1.605e+04 2.080e-09
 88.74411     -6.6 1.395e+04 9.590e-10
 88.75477     -6.0 1.358e+04 9.897e-10
 88.76813    -11.0 1.197e+04 6.873e-10
 88.78945    -11.9 1.164e+04 6.419e-10
 88.80063    -13.3 1.104e+04 5.043e-10
 88.82205    -12.5 1.101e+04 4.854e-10
 88.86427    -13.7 1.041e+04 3.299e-10
 88.89256    -14.2 1.018e+04 2.983e-10
 88.91388    -13.3 9.848e+03 2.023e-10
 88.94955    -13.4 9.803e+03 2.094e-10
 88.98430    -13.2 9.783e+03 2.306e-10
 89.00562    -12.2 9.658e+03 1.883e-10
 89.03484    -11.8 9.651e+03 2.225e-10
 89.07603    -11.1 9.571e+03 2.445e-10
 89.09735     -9.9 9.684e+03 2.583e-10
 89.12012     -9.3 9.687e+03 2.881e-10
 89.16276     -8.6 9.624e+03 2.790e-10
 89.18908     -7.7 9.489e+03 2.344e-10
 89.21040     -7.3 1.002e+04 3.786e-10
 89.24804     -6.3 9.743e+03 2.921e-10
 89.28082     -5.3 9.423e+03 2.013e-10
 89.30214     -4.7 9.823e+03 3.123e-10
 89.31988     -3.8 9.455e+03 1.996e-10
 89.34121     -3.0 9.407e+03 1.876e-10
 89.37255     -2.2 9.101e+03 1.458e-10
 89.39387     -1.9 9.444e+03 2.008e-10
 89.41861     -0.9 9.284e+03 1.888e-10
 89.46125      0.5 9.283e+03 1.962e-10
 89.48561      1.8 9.354e+03 2.216e-10
 89.50693      2.1 9.530e+03 2.506e-10
 89.54653      3.4 9.613e+03 2.690e-10
 89.57734      4.4 9.718e+03 3.068e-10
 89.59866      4.5 9.681e+03 2.850e-10
 89.63182      5.5 9.791e+03 3.121e-10
 89.66907      6.3 9.950e+03 3.401e-10
 89.69039      6.2 9.735e+03 2.699e-10
 89.71710      6.9 9.758e+03 2.644e-10
 89.75974      7.5 9.778e+03 2.411e-10
 89.78213      7.8 9.804e+03 2.263e-10
 89.80345      7.5 9.631e+03 1.933e-10
 89.84502      7.7 9.666e+03 2.016e-10
 89.87386      8.1 9.752e+03 2.222e-10
 89.89518      8.2 9.663e+03 1.899e-10
 89.93030      8.8 9.740e+03 1.945e-10
 89.96559      9.3 9.817e+03 2.000e-10
 89.98691      9.3 9.666e+03 1.485e-10
 90.01559      9.7 9.789e+03 1.700e-10
 90.05733     10.3 1.000e+04 2.124e-10
 90.07865     10.4 9.945e+03 1.853e-10
 90.09184     11.1 1.036e+04 2.673e-10
 90.11316     11.2 1.046e+04 3.117e-10
 90.12442     11.1 1.063e+04 3.557e-10
 90.13498     11.1 1.072e+04 3.658e-10
 90.15398     10.5 1.095e+04 4.497e-10
 90.17019      9.6 1.134e+04 6.310e-10
 90.18085      9.4 1.151e+04 7.197e-10
 90.19662      9.3 1.179e+04 9.403e-10
 90.22870      9.0 1.222e+04 1.213e-09
 90.26211      8.8 1.202e+04 1.123e-09
 90.28343      8.8 1.232e+04 1.308e-09
 90.31408      9.5 1.153e+04 7.296e-10
 90.34596      9.3 1.101e+04 3.797e-10
 90.36431      8.9 1.085e+04 3.032e-10
 90.37507      9.4 1.080e+04 2.970e-10
 90.39936      9.1 1.041e+04 1.881e-10
 90.44200      9.5 1.019e+04 1.776e-10
 90.46690     10.7 1.011e+04 1.778e-10
 90.48822     11.4 1.011e+04 1.660e-10
 90.52728     12.8 1.001e+04 1.582e-10
 90.55863     14.3 9.852e+03 1.461e-10
 90.57996     15.2 9.901e+03 1.308e-10
 90.61257     16.6 9.739e+03 1.071e-10
 90.65037     17.9 9.477e+03 9.456e-11
 90.67169     18.8 9.543e+03 8.077e-11
 90.69785     20.2 9.471e+03 8.130e-11
 90.74049     21.7 9.443e+03 8.785e-11
 90.76342     23.2 9.460e+03 1.053e-10
 90.78474     23.7 9.487e+03 1.051e-10
 90.82577     25.2 9.598e+03 1.440e-10
 90.85516     26.7 9.796e+03 2.099e-10
 90.87186     27.2 9.980e+03 2.234e-10
 90.88512     27.8 9.984e+03 2.211e-10
 90.91106     29.0 1.027e+04 3.031e-10
 90.94689     29.8 1.062e+04 4.086e-10
 90.96821     30.0 1.053e+04 3.500e-10
 90.99634     30.7 1.076e+04 4.327e-10
 91.03862     31.4 1.096e+04 5.303e-10
 91.05994     32.1 1.093e+04 4.427e-10
 91.07086     32.4 1.110e+04 5.392e-10
 91.09209     32.7 1.122e+04 6.117e-10
 91.10561     33.2 1.127e+04 6.583e-10
 91.11628     33.3 1.122e+04 6.056e-10
 91.13473     33.8 1.129e+04 6.411e-10
 91.15148     34.3 1.139e+04 6.867e-10
 91.16214     34.2 1.134e+04 6.607e-10
 91.17737     34.8 1.144e+04 7.305e-10
 91.19735     35.4 1.165e+04 8.295e-10
 91.20801     34.2 1.216e+04 8.764e-10
 91.22001     32.4 1.393e+04 1.324e-09
 91.24133     29.9 1.546e+04 2.466e-09
 91.25388     28.7 1.643e+04 4.748e-09
 91.26213     27.1 1.672e+04 7.758e-09
 91.27091     27.3 1.621e+04 4.882e-09
 91.27676     26.5 1.678e+04 6.313e-09
 91.28204     25.9 1.695e+04 7.626e-09
 91.28921     24.7 1.750e+04 1.029e-08
 91.29964     23.8 1.767e+04 1.298e-08
 91.30497     24.4 1.749e+04 1.353e-08
 91.31053     24.2 1.768e+04 1.478e-08
 91.32119     24.1 1.812e+04 1.548e-08
 91.32791     23.7 1.894e+04 1.517e-08
 91.33324     24.0 1.914e+04 1.123e-08
 91.34251     21.8 2.041e+04 1.030e-08
 91.35084     18.1 2.098e+04 9.689e-09
 91.35617     16.4 1.988e+04 6.524e-09
 91.36383     11.9 1.919e+04 6.752e-09
 91.37377      9.3 1.876e+04 7.166e-09
 91.37910      9.2 1.770e+04 5.836e-09
 91.38515      6.4 1.847e+04 7.722e-09
 91.39581      4.1 1.942e+04 1.177e-08
 91.40204      2.8 1.978e+04 1.870e-08
 91.40737      3.5 1.926e+04 1.554e-08
 91.41713      3.9 1.970e+04 2.416e-08
 91.42497      4.4 2.013e+04 3.516e-08
 91.43030      4.6 1.949e+04 2.466e-08
 91.43845      4.6 1.960e+04 2.676e-08
 91.44790      4.9 1.939e+04 2.527e-08
 91.45861      5.4 1.870e+04 1.816e-08
 91.47586      5.3 1.810e+04 1.407e-08
 91.49387      3.9 1.743e+04 9.086e-09
 91.50453      3.1 1.712e+04 8.503e-09
 91.51850      0.9 1.655e+04 7.011e-09
 91.53974     -0.6 1.581e+04 5.314e-09
 91.56106     -0.6 1.541e+04 4.789e-09
 91.58246     -1.7 1.487e+04 2.857e-09
 91.59626     -4.1 1.382e+04 1.549e-09
 91.60692     -2.4 1.423e+04 1.727e-09
 91.62511     -5.5 1.247e+04 8.156e-10
 91.64213     -8.2 1.134e+04 5.316e-10
 91.65259     -6.5 1.183e+04 5.051e-10
 91.65689     -7.5 1.215e+04 8.527e-10
 91.66775     -8.6 1.182e+04 8.242e-10
 91.68800     -9.5 1.151e+04 7.661e-10
 91.69866     -9.4 1.133e+04 6.855e-10
 91.72115     -9.6 1.173e+04 9.053e-10
 91.74472     -9.1 1.095e+04 6.180e-10
 91.76604     -9.2 1.068e+04 5.561e-10
 91.80653     -8.0 1.008e+04 3.840e-10
 91.83645     -6.5 9.654e+03 2.663e-10
 91.85777     -5.6 9.625e+03 2.505e-10
 91.89181     -3.9 9.387e+03 1.723e-10
 91.92819     -2.3 9.210e+03 1.307e-10
 91.94951     -1.5 9.294e+03 1.184e-10
 91.97709      0.2 9.061e+03 1.069e-10
 92.01973      2.3 8.993e+03 1.072e-10
 92.06237      5.4 9.050e+03 1.033e-10
 92.10502      7.6 9.036e+03 1.060e-10
 92.13297      9.7 9.030e+03 1.081e-10
 92.15429     10.8 9.069e+03 1.060e-10
 92.19030     13.0 9.070e+03 1.071e-10
 92.22471     15.1 9.072e+03 1.085e-10
 92.24603     16.1 9.297e+03 1.177e-10
 92.27558     18.2 9.338e+03 1.203e-10
 92.31644     20.0 9.415e+03 1.309e-10
 92.33776     21.1 9.635e+03 1.824e-10
 92.36086     22.9 9.729e+03 2.252e-10
 92.40351     24.7 9.903e+03 2.856e-10
 92.42904     26.4 1.016e+04 3.612e-10
 92.43371     26.1 1.032e+04 4.183e-10
 92.45081     27.4 1.108e+04 7.122e-10
 92.48879     28.6 1.118e+04 7.423e-10
 92.52123     29.9 1.111e+04 7.019e-10
 92.54245     31.2 1.154e+04 8.998e-10
 92.56322     32.0 1.137e+04 7.547e-10
 92.57756     32.4 1.112e+04 5.986e-10
 92.58822     32.9 1.136e+04 6.447e-10
 92.61286     33.0 1.081e+04 4.343e-10
 92.63428     34.2 1.131e+04 4.932e-10
 92.65935     34.5 1.055e+04 3.217e-10
 92.70200     35.2 1.022e+04 2.948e-10
 92.72602     36.4 1.016e+04 2.972e-10
 92.74734     37.1 1.011e+04 2.831e-10
 92.78728     38.4 1.015e+04 2.883e-10
 92.81775     39.3 1.030e+04 3.172e-10
 92.83907     40.7 1.027e+04 3.007e-10
 92.86180     41.0 1.034e+04 3.228e-10
 92.87408     41.1 1.041e+04 3.454e-10
 92.88474     41.5 1.040e+04 3.414e-10
 92.90435     41.7 1.055e+04 3.973e-10
 92.91995     41.8 1.071e+04 4.676e-10
 92.93061     42.2 1.084e+04 4.831e-10
 92.94699     42.2 1.102e+04 5.737e-10
 92.96581     42.1 1.117e+04 6.699e-10
 92.97647     42.6 1.136e+04 7.597e-10
 92.98963     42.5 1.146e+04 8.343e-10
 93.01095     42.3 1.147e+04 8.422e-10
 93.02244     42.2 1.127e+04 7.916e-10
 93.04386     43.4 1.150e+04 9.216e-10
 93.08577     44.0 1.111e+04 7.248e-10
 93.11417     44.6 1.096e+04 6.741e-10
 93.12473     45.8 1.094e+04 6.136e-10
 93.13887     46.0 1.088e+04 6.115e-10
 93.15994     46.4 1.073e+04 5.856e-10
 93.17060     46.9 1.072e+04 5.462e-10
 93.18152     47.2 1.065e+04 5.377e-10
 93.20080     47.6 1.054e+04 5.226e-10
 93.21453     48.2 1.078e+04 6.749e-10
 93.22732     49.9 1.051e+04 5.069e-10
 93.25633     51.0 1.035e+04 4.904e-10
 93.29774     52.1 1.027e+04 4.749e-10
 93.31906     53.7 1.030e+04 4.183e-10
 93.34162     54.7 1.024e+04 4.480e-10
 93.38426     55.7 1.034e+04 5.267e-10
 93.41079     56.9 1.056e+04 6.336e-10
 93.43211     58.7 1.100e+04 7.729e-10
 93.45656     58.8 1.129e+04 9.856e-10
 93.46712     59.1 1.132e+04 9.914e-10
 93.48001     59.6 1.157e+04 1.197e-09
 93.50133     60.0 1.177e+04 1.387e-09
 93.51299     60.4 1.180e+04 1.428e-09
 93.52365     61.5 1.200e+04 1.550e-09
 93.54397     61.8 1.196e+04 1.526e-09
 93.55886     62.2 1.181e+04 1.410e-09
 93.56952     63.2 1.190e+04 1.339e-09
 93.58661     63.6 1.173e+04 1.242e-09
 93.59744     63.9 1.151e+04 1.080e-09
 93.60489     64.5 1.130e+04 1.014e-09
 93.61538     65.5 1.140e+04 1.039e-09
 93.62925     65.7 1.124e+04 9.098e-10
 93.65057     65.7 1.109e+04 7.969e-10
 93.67189     66.3 1.129e+04 8.047e-10
 93.69321     65.9 1.134e+04 8.151e-10
 93.70712     65.5 1.146e+04 8.620e-10
 93.71778     66.6 1.185e+04 9.565e-10
 93.73585     66.0 1.195e+04 1.028e-09
 93.75298     65.3 1.209e+04 1.139e-09
 93.76364     66.1 1.199e+04 1.107e-09
 93.77850     65.2 1.212e+04 1.261e-09
 93.79885     64.5 1.213e+04 1.413e-09
 93.80951     65.4 1.214e+04 1.416e-09
 93.82114     64.7 1.208e+04 1.412e-09
 93.84246     64.5 1.191e+04 1.357e-09
 93.85538     64.0 1.228e+04 1.288e-09
 93.86604     62.7 1.362e+04 1.463e-09
 93.88510     60.2 1.512e+04 1.696e-09
 93.90124     57.3 1.594e+04 2.199e-09
 93.91190     55.2 1.546e+04 3.094e-09
 93.92774     54.1 1.477e+04 4.159e-09
 93.94711     54.0 1.484e+04 5.785e-09
 93.95777     54.2 1.494e+04 6.433e-09
 93.97038     54.7 1.576e+04 7.868e-09
 93.98342     54.5 1.678e+04 8.121e-09
 93.99408     53.4 1.778e+04 1.365e-08
 94.00364     53.2 1.868e+04 1.474e-08
 94.01430     52.4 1.872e+04 1.195e-08
 94.03434     51.9 1.861e+04 8.810e-09
 94.04950     50.4 1.770e+04 5.033e-09
 94.06016     46.7 1.581e+04 2.729e-09
 94.07699     43.1 1.304e+04 1.661e-09
 94.09537     41.5 1.218e+04 1.470e-09
 94.10603     41.1 1.195e+04 1.362e-09
 94.11963     41.0 1.204e+04 1.386e-09
 94.14095     40.9 1.220e+04 1.464e-09
 94.15190     40.9 1.242e+04 1.600e-09
 94.16256     40.5 1.233e+04 1.543e-09
 94.18359     40.3 1.256e+04 1.729e-09
 94.19776     40.2 1.277e+04 1.968e-09
 94.20842     39.7 1.255e+04 1.897e-09
 94.22623     39.7 1.265e+04 2.119e-09
 94.24363     39.8 1.276e+04 2.326e-09
 94.25429     39.8 1.241e+04 2.161e-09
 94.26887     40.0 1.241e+04 2.191e-09
 94.28950     40.4 1.236e+04 2.171e-09
 94.30016     40.4 1.202e+04 1.889e-09
 94.31151     40.6 1.196e+04 1.751e-09
 94.33283     40.4 1.186e+04 1.528e-09
 94.34602     39.7 1.191e+04 1.313e-09
 94.35669     38.8 1.186e+04 1.228e-09
 94.36940     37.4 1.192e+04 1.227e-09
 94.38006     37.2 1.178e+04 9.570e-10
 94.39189     36.0 1.177e+04 9.637e-10
 94.40255     35.6 1.211e+04 1.073e-09
 94.41812     34.8 1.214e+04 1.068e-09
 94.43776     34.4 1.206e+04 1.018e-09
 94.44842     34.3 1.246e+04 1.105e-09
 94.46076     33.8 1.195e+04 9.112e-10
 94.48208     32.9 1.130e+04 7.262e-10
 94.49429     31.7 1.078e+04 5.982e-10
 94.50495     30.9 1.067e+04 5.220e-10
 94.52472     29.8 1.039e+04 4.497e-10
 94.54015     29.2 1.030e+04 4.081e-10
 94.55081     28.5 1.009e+04 3.534e-10
 94.56736     28.1 1.006e+04 3.305e-10
 94.58602     27.8 1.001e+04 3.167e-10
 94.59678     27.4 9.953e+03 2.793e-10
 94.62086     27.2 1.005e+04 2.730e-10
 94.66350     26.4 1.021e+04 3.029e-10
 94.68851     25.5 1.034e+04 3.871e-10
 94.70983     25.3 1.029e+04 3.860e-10
 94.74491     25.1 1.061e+04 5.929e-10
 94.76623     26.6 1.054e+04 5.000e-10
 94.78034     26.2 1.076e+04 5.765e-10
 94.80166     25.7 1.070e+04 5.683e-10
 94.83407     24.5 1.105e+04 6.766e-10
 94.87207     22.7 1.159e+04 9.708e-10
 94.89340     22.8 1.173e+04 1.088e-09
 94.91935     21.5 1.167e+04 1.102e-09
 94.96199     21.4 1.136e+04 9.132e-10
 94.98513     21.0 1.089e+04 5.190e-10
 95.00645     20.5 1.068e+04 4.148e-10
 95.04727     18.1 1.060e+04 3.254e-10
 95.07686     15.3 1.059e+04 4.013e-10
 95.09818     15.0 1.060e+04 4.597e-10
 95.13256     13.8 1.029e+04 4.913e-10
 95.16860     13.6 1.003e+04 3.935e-10
 95.18992     13.3 9.835e+03 2.712e-10
 95.21784     11.3 9.528e+03 1.446e-10
 95.26033      9.1 9.093e+03 1.042e-10
 95.30297      7.9 9.057e+03 1.059e-10
 95.34576      6.8 9.212e+03 1.340e-10
 95.37338      5.8 9.533e+03 2.270e-10
 95.39470      5.2 1.008e+04 3.558e-10
 95.43105      4.7 1.064e+04 5.966e-10
 95.46512      4.5 1.101e+04 7.894e-10
 95.48644      4.0 1.164e+04 1.190e-09
 95.50557      4.1 1.185e+04 1.250e-09
 95.52145      0.6 1.396e+04 1.823e-09
 95.53211     -1.0 1.446e+04 2.268e-09
 95.53800     -8.4 1.682e+04 4.634e-09
 95.54866     -9.2 1.892e+04 9.121e-09
 95.56406     -8.5 1.748e+04 1.151e-08
 95.57255     -7.9 1.697e+04 1.121e-08
 95.57788     -7.3 1.639e+04 8.404e-09
 95.58533     -6.5 1.558e+04 7.349e-09
 95.59548     -6.7 1.530e+04 6.864e-09
 95.60081     -6.8 1.476e+04 5.395e-09
 95.61203     -4.2 1.412e+04 4.412e-09
 95.62384     -5.1 1.357e+04 1.772e-09
 95.63450     -8.8 1.270e+04 8.362e-10
 95.65472    -11.6 1.164e+04 5.448e-10
 95.66981    -14.8 1.006e+04 3.940e-10
 95.69122    -15.6 9.395e+03 2.934e-10
 95.72953    -14.9 8.954e+03 2.837e-10
 95.76164    -13.2 8.717e+03 2.448e-10
 95.78296    -13.3 8.658e+03 2.085e-10
 95.81482    -12.2 8.605e+03 1.639e-10
 95.85337    -11.8 8.574e+03 1.370e-10
 95.87469    -12.2 8.545e+03 1.354e-10
 95.90010    -12.2 8.660e+03 1.486e-10
 95.94274    -12.4 8.936e+03 2.168e-10
 95.96643    -11.7 9.144e+03 3.498e-10
 95.98775    -11.5 9.001e+03 2.929e-10
 96.02802    -10.4 9.119e+03 3.647e-10
 96.05816     -9.6 9.079e+03 3.677e-10
 96.07948     -9.5 8.898e+03 3.028e-10
 96.11331     -9.0 8.897e+03 3.076e-10
 96.14989     -8.8 9.027e+03 3.483e-10
 96.17121     -8.9 9.014e+03 3.266e-10
 96.19859     -8.4 9.322e+03 4.323e-10
 96.24123     -7.6 9.630e+03 5.504e-10
 96.26295     -6.8 9.936e+03 6.557e-10
 96.28427     -7.3 1.004e+04 6.417e-10
 96.31015     -6.9 1.027e+04 7.622e-10
 96.33147     -6.4 1.022e+04 7.426e-10
 96.35468     -5.5 1.019e+04 7.249e-10
 96.37600     -6.3 1.063e+04 9.359e-10
 96.41180     -5.6 1.053e+04 8.401e-10
 96.44641     -5.3 1.053e+04 7.741e-10
 96.46773     -6.8 1.068e+04 8.298e-10
 96.49708     -6.9 1.079e+04 8.737e-10
 96.53815     -7.0 1.114e+04 1.069e-09
 96.55947     -8.9 1.083e+04 8.835e-10
 96.58236     -9.5 1.148e+04 1.221e-09
 96.62500     -9.8 1.202e+04 1.622e-09
 96.65120     -9.1 1.180e+04 1.506e-09
 96.67252    -10.0 1.056e+04 8.218e-10
 96.71029     -8.4 9.938e+03 5.247e-10
 96.74293     -7.8 9.260e+03 2.527e-10
 96.76425     -8.6 8.751e+03 1.594e-10
 96.79557     -8.4 8.417e+03 8.887e-11
 96.83467     -7.8 8.131e+03 6.130e-11
 96.85599     -8.0 8.047e+03 5.722e-11
 96.88085     -6.9 7.869e+03 4.652e-11
 96.92349     -5.5 7.743e+03 4.153e-11
 96.94772     -4.0 7.669e+03 3.928e-11
 96.96904     -4.1 7.654e+03 4.118e-11
 97.00878     -2.6 7.659e+03 4.112e-11
 97.03945     -1.7 7.721e+03 4.350e-11
 97.06078     -2.5 7.904e+03 6.045e-11
 97.08211     -2.3 8.167e+03 8.448e-11
 97.10343     -1.6 8.004e+03 7.091e-11
 97.13119     -1.3 8.276e+03 1.032e-10
 97.15251     -2.6 8.757e+03 1.829e-10
 97.17934     -2.1 8.916e+03 2.256e-10
 97.22198     -1.7 8.978e+03 2.413e-10
 97.24424     -1.6 8.963e+03 2.360e-10
 97.26556     -3.0 9.090e+03 2.602e-10
 97.30727     -3.2 8.918e+03 2.355e-10
 97.33598     -3.3 8.885e+03 2.371e-10
 97.35730     -4.9 8.833e+03 2.305e-10
 97.39255     -5.2 8.913e+03 2.518e-10
 97.42771     -5.8 9.253e+03 3.159e-10
 97.44903     -7.2 9.243e+03 3.140e-10
 97.47783     -7.7 9.518e+03 3.672e-10
 97.50972     -9.2 9.727e+03 4.297e-10
 97.52991    -10.3 9.778e+03 4.373e-10
 97.54057    -11.2 9.781e+03 4.347e-10
 97.55226    -12.4 9.862e+03 4.433e-10
 97.57358    -17.3 1.264e+04 5.133e-10
 97.58639    -33.8 2.063e+04 1.852e-09
 97.59167    -35.7 2.070e+04 2.189e-09
 97.60013    -37.8 2.208e+04 2.735e-09
 97.60927    -42.2 1.896e+04 8.470e-09
 97.61460    -41.5 1.815e+04 7.859e-09
 97.62145    -41.3 1.675e+04 1.287e-08
 97.63211    -40.7 1.656e+04 1.622e-08
 97.63753    -39.9 1.717e+04 1.917e-08
 97.64286    -38.9 1.622e+04 1.515e-08
 97.65343    -37.8 1.720e+04 1.630e-08
 97.66047    -37.4 1.939e+04 1.470e-08
 97.66580    -36.5 1.823e+04 1.162e-08
 97.67145    -38.2 2.291e+04 8.365e-09
 97.67678    -39.6 2.372e+04 6.765e-09
 97.68340    -49.7 2.505e+04 5.748e-09
 97.68873    -48.5 2.349e+04 4.435e-09
 97.70146    -63.8 2.179e+04 3.307e-09
 97.71745    -74.5 2.234e+04 8.177e-09
 97.72806    -76.9 2.392e+04 1.266e-08
 97.73460    -81.5 2.435e+04 2.897e-08
 97.73993    -80.1 2.298e+04 1.763e-08
 97.74938    -83.3 2.357e+04 2.838e-08
 97.75753    -86.8 2.382e+04 3.724e-08
 97.76286    -86.0 2.303e+04 2.677e-08
 97.77070    -90.5 2.399e+04 3.033e-08
 97.78046    -96.3 2.449e+04 3.100e-08
 97.78579    -95.7 2.465e+04 2.556e-08
 97.79202   -103.1 2.498e+04 2.370e-08
 97.80268   -111.1 2.249e+04 1.623e-08
 97.80873   -117.6 1.874e+04 1.134e-08
 97.81406   -117.2 1.887e+04 1.135e-08
 97.82400   -120.5 1.703e+04 8.505e-09
 97.83166   -122.1 1.655e+04 6.302e-09
 97.83699   -121.9 1.650e+04 6.058e-09
 97.85070   -124.1 1.589e+04 3.602e-09
 97.86453   -128.8 1.493e+04 1.592e-09
 97.87519   -129.5 1.454e+04 1.356e-09
 97.88296   -139.4 1.146e+04 3.521e-10
 97.89362   -139.7 1.153e+04 3.449e-10
 97.91471   -145.8 9.983e+03 2.283e-10
 97.92882   -147.6 9.932e+03 2.253e-10
 97.93948   -148.3 9.978e+03 2.318e-10
 97.95735   -149.7 1.044e+04 3.091e-10
 97.98943   -151.7 1.076e+04 4.109e-10
 98.02075   -155.4 1.083e+04 5.407e-10
 98.04207   -155.8 1.072e+04 5.123e-10
 98.07481   -159.5 1.041e+04 5.048e-10
 98.11248   -161.9 9.734e+03 3.366e-10
 98.13381   -161.6 9.486e+03 2.698e-10
 98.16009   -163.3 9.173e+03 1.806e-10
 98.20274   -164.3 9.149e+03 1.628e-10
 98.22554   -165.1 9.181e+03 1.614e-10
 98.24686   -164.5 9.114e+03 1.488e-10
 98.28802   -165.4 9.552e+03 1.843e-10
 98.31727   -166.0 9.976e+03 2.847e-10
 98.33859   -165.3 9.944e+03 2.796e-10
 98.37330   -165.5 1.029e+04 4.178e-10
 98.40901   -165.7 1.055e+04 5.400e-10
 98.43033   -164.9 1.048e+04 5.330e-10
 98.45858   -164.9 1.069e+04 6.289e-10
 98.50074   -164.7 1.080e+04 6.788e-10
 98.52206   -163.8 1.079e+04 6.936e-10
 98.54387   -163.7 1.100e+04 7.683e-10
 98.58651   -163.6 1.120e+04 8.286e-10
 98.61379   -164.0 1.129e+04 8.462e-10
 98.63199   -163.2 1.168e+04 1.024e-09
 98.64735   -163.7 1.195e+04 1.202e-09
 98.67179   -164.4 1.217e+04 1.296e-09
 98.70553   -165.3 1.222e+04 1.306e-09
 98.72685   -164.9 1.244e+04 1.488e-09
 98.75707   -165.6 1.240e+04 1.416e-09
 98.78896   -165.6 1.217e+04 1.276e-09
 98.80772   -165.6 1.200e+04 1.140e-09
 98.81839   -165.2 1.210e+04 1.242e-09
 98.83150   -165.2 1.192e+04 1.086e-09
 98.85282   -165.0 1.174e+04 9.367e-10
 98.88490   -164.8 1.148e+04 7.589e-10
 98.91031   -163.9 1.089e+04 4.624e-10
 98.93163   -162.7 1.100e+04 5.500e-10
 98.97028   -161.5 1.056e+04 3.546e-10
 99.00205   -160.3 1.025e+04 2.373e-10
 99.02337   -159.1 1.040e+04 2.954e-10
 99.05556   -157.9 1.024e+04 2.231e-10
 99.09378   -156.7 1.013e+04 1.779e-10
 99.11510   -155.5 1.027e+04 2.169e-10
 99.14085   -154.4 1.016e+04 1.788e-10
 99.18349   -153.3 1.007e+04 1.551e-10
 99.20684   -152.2 1.001e+04 1.425e-10
 99.22816   -151.0 1.012e+04 1.553e-10
 99.26877   -149.9 1.007e+04 1.470e-10
 99.29857   -148.7 1.004e+04 1.417e-10
 99.31989   -147.5 1.013e+04 1.483e-10
 99.35405   -146.2 1.009e+04 1.412e-10
 99.39030   -145.0 1.007e+04 1.331e-10
 99.41162   -143.7 1.014e+04 1.366e-10
 99.41930   -142.4 1.014e+04 1.277e-10
 99.44063   -142.5 1.013e+04 1.586e-10
 99.48198   -141.3 1.020e+04 1.628e-10
 99.52462   -139.1 1.037e+04 1.749e-10
 99.56726   -138.3 1.049e+04 2.043e-10
 99.59509   -138.1 1.058e+04 2.362e-10
 99.61641   -137.2 1.053e+04 2.443e-10
 99.65254   -137.4 1.093e+04 3.705e-10
 99.68682   -139.0 1.213e+04 7.010e-10
 99.70814   -138.4 1.227e+04 8.606e-10
 99.72707   -140.4 1.333e+04 1.453e-09
 99.74315   -141.9 1.420e+04 2.046e-09
 99.75381   -141.4 1.419e+04 2.252e-09
 99.76961   -143.3 1.516e+04 3.023e-09
 99.78902   -145.7 1.592e+04 3.504e-09
 99.79968   -145.1 1.590e+04 3.668e-09
 99.80509   -147.6 1.633e+04 3.820e-09
 99.81575   -146.2 1.551e+04 3.138e-09
 99.83357   -148.7 1.570e+04 3.115e-09
 99.84555   -151.2 1.596e+04 2.798e-09
 99.85621   -150.7 1.614e+04 2.789e-09
 99.87622   -153.1 1.552e+04 2.548e-09
 99.89142   -154.9 1.471e+04 2.300e-09
 99.90208   -154.8 1.508e+04 2.398e-09
 99.91886   -156.0 1.430e+04 2.113e-09
 99.93728   -156.7 1.366e+04 1.753e-09
 99.94794   -156.7 1.389e+04 1.976e-09
 99.96150   -156.9 1.334e+04 1.585e-09
 99.98282   -157.0 1.289e+04 1.210e-09
 99.99381   -156.9 1.253e+04 8.667e-10
100.00447   -156.8 1.261e+04 1.017e-09
