# Columns:
#   distance along LOS (in CHIMPs)
#   peculiar velocity  (in km/s)
#   temperature (K)
#   HI number density
# pos=(81.014,200.091,224.931), angles=(2.99413,2.84602)
  0.00448     -9.9 1.047e+04 4.572e-10
  0.01238     -8.5 1.052e+04 4.711e-10
  0.02225     -8.1 1.043e+04 4.300e-10
  0.03859     -6.7 1.058e+04 4.481e-10
  0.05833     -5.6 1.081e+04 4.843e-10
  0.07808     -4.9 1.105e+04 5.239e-10
  0.09782     -5.1 1.134e+04 5.592e-10
  0.11676     -4.7 1.104e+04 7.187e-10
  0.12663     -4.6 1.158e+04 8.592e-10
  0.13732     -3.8 1.152e+04 9.647e-10
  0.15096     -2.3 1.140e+04 1.127e-09
  0.16084     -1.8 1.143e+04 1.101e-09
  0.17681      0.0 1.122e+04 1.197e-09
  0.19655      1.8 1.135e+04 1.247e-09
  0.21630      3.4 1.182e+04 1.256e-09
  0.23604      4.2 1.228e+04 1.229e-09
  0.25579      3.4 1.282e+04 1.175e-09
  0.27553      1.6 1.282e+04 1.117e-09
  0.28955     -0.3 1.247e+04 1.078e-09
  0.29942      1.9 1.294e+04 1.225e-09
  0.31502      0.8 1.257e+04 1.358e-09
  0.33477      0.0 1.297e+04 1.551e-09
  0.35452     -0.5 1.343e+04 1.939e-09
  0.37426     -0.9 1.370e+04 2.095e-09
  0.39401     -1.1 1.353e+04 2.203e-09
  0.41375     -1.0 1.388e+04 2.066e-09
  0.42814     -1.3 1.435e+04 1.790e-09
  0.43801      0.2 1.459e+04 2.027e-09
  0.45324     -1.2 1.473e+04 1.625e-09
  0.47299     -4.2 1.337e+04 1.112e-09
  0.49273     -7.2 1.190e+04 8.443e-10
  0.51248     -8.5 1.147e+04 8.040e-10
  0.53223     -8.9 1.166e+04 8.666e-10
  0.55197    -10.1 1.173e+04 9.049e-10
  0.56673    -11.2 1.202e+04 1.010e-09
  0.57660    -10.6 1.222e+04 1.080e-09
  0.58188    -11.9 1.236e+04 1.154e-09
  0.59175    -13.1 1.283e+04 1.399e-09
  0.61121    -13.6 1.324e+04 1.569e-09
  0.63095    -15.1 1.299e+04 1.504e-09
  0.65070    -15.3 1.334e+04 1.614e-09
  0.67044    -16.7 1.316e+04 1.473e-09
  0.69019    -16.2 1.368e+04 1.501e-09
  0.70531    -19.3 1.293e+04 1.095e-09
  0.71519    -19.3 1.262e+04 1.017e-09
  0.72968    -19.3 1.300e+04 1.065e-09
  0.75940    -24.2 1.258e+04 9.172e-10
  0.78902    -28.5 1.207e+04 7.122e-10
  0.80866    -33.8 1.431e+04 1.052e-09
  0.82841    -42.4 1.615e+04 2.241e-09
  0.84390    -46.1 1.708e+04 5.009e-09
  0.85377    -46.7 1.699e+04 4.717e-09
  0.86790    -47.7 1.760e+04 7.314e-09
  0.88765    -48.5 1.789e+04 8.179e-09
  0.90739    -49.5 1.773e+04 7.146e-09
  0.92714    -50.6 1.716e+04 3.603e-09
  0.94688    -57.9 1.561e+04 1.292e-09
  0.96663    -66.8 1.197e+04 5.514e-10
  0.98249    -69.4 1.087e+04 4.209e-10
  0.99236    -70.0 1.095e+04 4.397e-10
  1.00612    -70.8 1.086e+04 4.142e-10
  1.02586    -71.7 1.088e+04 3.775e-10
  1.03713    -72.9 1.079e+04 3.296e-10
  1.04701    -73.8 1.062e+04 3.050e-10
  1.07533    -75.0 1.049e+04 2.866e-10
  1.11140    -76.8 1.017e+04 2.712e-10
  1.13105    -78.4 1.033e+04 3.295e-10
  1.15431    -79.2 1.034e+04 3.385e-10
  1.19390    -79.7 1.024e+04 3.420e-10
  1.23339    -79.6 1.039e+04 3.828e-10
  1.27288    -79.4 1.066e+04 4.407e-10
  1.31237    -79.1 1.095e+04 5.208e-10
  1.34189    -79.3 1.097e+04 5.510e-10
  1.36154    -78.4 1.115e+04 6.200e-10
  1.38848    -78.1 1.124e+04 6.762e-10
  1.40832    -79.9 1.113e+04 6.214e-10
  1.43084    -78.1 1.127e+04 6.939e-10
  1.47033    -76.8 1.139e+04 7.219e-10
  1.49258    -75.5 1.160e+04 7.505e-10
  1.51233    -75.9 1.109e+04 6.217e-10
  1.54932    -75.2 1.154e+04 7.437e-10
  1.58881    -74.5 1.220e+04 9.934e-10
  1.62830    -73.8 1.286e+04 1.348e-09
  1.65782    -73.7 1.321e+04 1.581e-09
  1.67543    -73.3 1.327e+04 1.638e-09
  1.68530    -74.3 1.323e+04 1.663e-09
  1.69721    -74.4 1.322e+04 1.682e-09
  1.71696    -74.3 1.312e+04 1.655e-09
  1.73670    -74.4 1.297e+04 1.585e-09
  1.75645    -74.8 1.292e+04 1.551e-09
  1.77620    -75.4 1.290e+04 1.547e-09
  1.79594    -76.0 1.287e+04 1.594e-09
  1.81401    -76.4 1.287e+04 1.716e-09
  1.82389    -76.9 1.291e+04 1.913e-09
  1.83543    -77.0 1.283e+04 1.912e-09
  1.85518    -76.9 1.263e+04 1.868e-09
  1.87492    -76.7 1.239e+04 1.719e-09
  1.89467    -76.4 1.216e+04 1.534e-09
  1.91441    -76.4 1.194e+04 1.348e-09
  1.93416    -76.4 1.171e+04 1.184e-09
  1.94764    -76.4 1.150e+04 1.054e-09
  1.95621    -75.8 1.161e+04 1.145e-09
  1.96247    -76.0 1.114e+04 8.878e-10
  1.97365    -75.9 1.096e+04 8.056e-10
  1.99340    -75.9 1.079e+04 7.457e-10
  2.01314    -75.8 1.068e+04 7.053e-10
  2.03289    -75.8 1.058e+04 6.691e-10
  2.05263    -75.8 1.043e+04 6.279e-10
  2.07238    -75.8 1.031e+04 5.958e-10
  2.10209    -76.1 1.017e+04 5.625e-10
  2.14168    -75.7 1.017e+04 5.532e-10
  2.18117    -76.7 1.074e+04 5.780e-10
  2.21069    -78.2 1.166e+04 6.656e-10
  2.22978    -82.3 1.356e+04 1.198e-09
  2.23965    -79.7 1.242e+04 9.357e-10
  2.25009    -82.8 1.380e+04 1.659e-09
  2.26983    -84.6 1.524e+04 3.557e-09
  2.28958    -84.8 1.634e+04 6.170e-09
  2.30933    -84.6 1.714e+04 8.066e-09
  2.32907    -84.7 1.738e+04 8.462e-09
  2.34882    -85.0 1.733e+04 7.031e-09
  2.36836    -86.2 1.656e+04 4.303e-09
  2.37824    -83.6 1.726e+04 6.051e-09
  2.38831    -85.3 1.656e+04 3.716e-09
  2.40289    -87.9 1.485e+04 2.370e-09
  2.41276    -87.2 1.482e+04 2.611e-09
  2.42780    -88.9 1.322e+04 1.947e-09
  2.44754    -89.3 1.271e+04 1.777e-09
  2.46729    -89.3 1.272e+04 1.763e-09
  2.48703    -89.4 1.331e+04 1.978e-09
  2.50678    -89.7 1.407e+04 2.434e-09
  2.51682    -90.0 1.468e+04 3.093e-09
  2.52670    -88.1 1.422e+04 2.757e-09
  2.54627    -88.2 1.487e+04 3.565e-09
  2.56602    -88.1 1.531e+04 4.400e-09
  2.58576    -87.8 1.553e+04 5.065e-09
  2.60551    -87.6 1.553e+04 5.368e-09
  2.62525    -87.5 1.542e+04 5.327e-09
  2.64500    -87.7 1.530e+04 4.989e-09
  2.65541    -88.5 1.526e+04 4.721e-09
  2.66528    -87.2 1.590e+04 5.538e-09
  2.68449    -88.4 1.562e+04 5.386e-09
  2.70424    -89.3 1.546e+04 5.398e-09
  2.72398    -89.8 1.517e+04 5.860e-09
  2.74373    -89.8 1.524e+04 6.123e-09
  2.76347    -89.7 1.518e+04 6.095e-09
  2.78322    -89.3 1.465e+04 5.005e-09
  2.79400    -88.8 1.391e+04 3.621e-09
  2.80387    -87.7 1.390e+04 3.647e-09
  2.82271    -87.6 1.321e+04 2.608e-09
  2.84245    -88.3 1.263e+04 2.005e-09
  2.85814    -89.0 1.222e+04 1.746e-09
  2.86802    -88.8 1.193e+04 1.381e-09
  2.88195    -89.0 1.174e+04 1.317e-09
  2.90169    -88.9 1.170e+04 1.311e-09
  2.92144    -88.6 1.174e+04 1.422e-09
  2.93259    -88.1 1.209e+04 1.660e-09
  2.94246    -88.5 1.224e+04 1.585e-09
  2.96093    -87.9 1.265e+04 1.888e-09
  2.98067    -87.2 1.297e+04 2.141e-09
  3.00042    -86.3 1.318e+04 2.300e-09
  3.02016    -85.4 1.327e+04 2.354e-09
  3.03991    -84.3 1.330e+04 2.349e-09
  3.05966    -83.2 1.326e+04 2.253e-09
  3.07117    -82.0 1.316e+04 2.106e-09
  3.08105    -82.5 1.339e+04 2.581e-09
  3.09915    -81.3 1.329e+04 2.418e-09
  3.11889    -80.1 1.312e+04 2.193e-09
  3.13864    -78.9 1.290e+04 1.938e-09
  3.15838    -77.8 1.264e+04 1.704e-09
  3.17813    -76.8 1.240e+04 1.528e-09
  3.19787    -75.8 1.227e+04 1.447e-09
  3.20976    -74.6 1.225e+04 1.434e-09
  3.21963    -75.1 1.285e+04 1.879e-09
  3.23737    -74.1 1.282e+04 1.881e-09
  3.25711    -73.0 1.274e+04 1.964e-09
  3.27686    -71.6 1.280e+04 2.100e-09
  3.29660    -70.2 1.295e+04 2.254e-09
  3.31340    -69.0 1.306e+04 2.339e-09
  3.32327    -68.3 1.298e+04 2.238e-09
  3.33609    -67.1 1.305e+04 2.293e-09
  3.34835    -66.2 1.310e+04 2.306e-09
  3.35822    -66.3 1.360e+04 2.543e-09
  3.37558    -65.8 1.385e+04 2.655e-09
  3.39533    -65.6 1.416e+04 2.825e-09
  3.41508    -65.6 1.446e+04 3.094e-09
  3.43482    -65.5 1.469e+04 3.447e-09
  3.45457    -65.4 1.482e+04 3.784e-09
  3.47431    -65.3 1.484e+04 3.955e-09
  3.48693    -65.1 1.480e+04 3.976e-09
  3.49681    -64.9 1.470e+04 4.607e-09
  3.51380    -64.5 1.440e+04 4.075e-09
  3.53355    -64.1 1.397e+04 3.247e-09
  3.55329    -63.9 1.334e+04 2.456e-09
  3.57304    -64.0 1.261e+04 1.804e-09
  3.59279    -64.1 1.184e+04 1.304e-09
  3.61253    -64.0 1.116e+04 9.414e-10
  3.62552    -63.9 1.064e+04 7.054e-10
  3.63540    -64.0 1.114e+04 8.958e-10
  3.65202    -64.0 1.086e+04 7.514e-10
  3.67177    -64.3 1.077e+04 6.980e-10
  3.69151    -65.0 1.079e+04 6.893e-10
  3.71126    -66.7 1.153e+04 7.842e-10
  3.73100    -68.9 1.243e+04 1.156e-09
  3.75075    -70.4 1.308e+04 1.735e-09
  3.76411    -70.8 1.353e+04 2.325e-09
  3.77214    -70.8 1.390e+04 2.730e-09
  3.77852    -70.0 1.391e+04 2.690e-09
  3.79024    -70.1 1.431e+04 3.325e-09
  3.80999    -70.2 1.445e+04 3.514e-09
  3.82973    -70.3 1.437e+04 3.281e-09
  3.84948    -70.7 1.434e+04 2.726e-09
  3.86922    -73.1 1.453e+04 2.538e-09
  3.88897    -77.1 1.547e+04 2.635e-09
  3.90270    -81.0 1.678e+04 4.123e-09
  3.91257    -77.4 1.524e+04 2.359e-09
  3.92846    -80.0 1.710e+04 4.022e-09
  3.94821    -82.1 1.899e+04 6.931e-09
  3.96297    -83.5 1.976e+04 8.283e-09
  3.97189    -84.7 2.123e+04 1.010e-08
  3.97683    -83.9 2.033e+04 8.882e-09
  3.98266    -85.5 2.187e+04 1.147e-08
  3.99254    -86.7 2.333e+04 1.394e-08
  4.00111    -88.6 2.458e+04 1.879e-08
  4.00605    -89.6 2.497e+04 2.786e-08
  4.01228    -91.2 2.503e+04 2.991e-08
  4.02215    -93.4 2.428e+04 3.061e-08
  4.03203    -96.2 2.400e+04 2.790e-08
  4.04119    -99.2 2.336e+04 2.605e-08
  4.04612    -96.9 2.467e+04 3.434e-08
  4.05177   -100.3 2.374e+04 3.239e-08
  4.06164   -103.2 2.342e+04 2.853e-08
  4.07152   -105.8 2.355e+04 2.348e-08
  4.08139   -108.5 2.367e+04 1.798e-08
  4.09126   -111.4 2.327e+04 1.248e-08
  4.10114   -114.3 2.185e+04 8.262e-09
  4.11048   -117.0 1.959e+04 5.762e-09
  4.11542   -116.4 2.118e+04 7.286e-09
  4.12088   -119.2 1.851e+04 4.913e-09
  4.13075   -121.1 1.633e+04 3.715e-09
  4.14063   -122.2 1.528e+04 3.139e-09
  4.15050   -122.5 1.496e+04 2.978e-09
  4.16536   -122.2 1.480e+04 2.882e-09
  4.17987   -121.6 1.399e+04 2.147e-09
  4.18974   -123.6 1.415e+04 2.084e-09
  4.20490   -122.2 1.310e+04 1.395e-09
  4.22390   -121.1 1.217e+04 9.356e-10
  4.23377   -122.4 1.096e+04 5.313e-10
  4.24439   -121.2 1.039e+04 4.142e-10
  4.26413   -120.0 1.004e+04 3.441e-10
  4.28388   -118.6 9.810e+03 3.031e-10
  4.30363   -117.3 9.668e+03 2.829e-10
  4.31846   -116.1 9.583e+03 2.771e-10
  4.32833   -116.5 9.451e+03 2.621e-10
  4.34312   -115.3 9.441e+03 2.612e-10
  4.36286   -114.2 9.443e+03 2.627e-10
  4.39258   -113.0 9.477e+03 2.702e-10
  4.43217   -110.3 9.519e+03 2.971e-10
  4.45724   -108.4 9.726e+03 3.336e-10
  4.46702   -109.1 9.741e+03 3.434e-10
  4.48134   -108.2 9.845e+03 3.725e-10
  4.50108   -107.1 9.983e+03 4.126e-10
  4.52083   -106.2 1.013e+04 4.495e-10
  4.54057   -105.1 1.028e+04 4.931e-10
  4.56032   -104.2 1.039e+04 5.294e-10
  4.58006   -103.0 1.050e+04 5.693e-10
  4.59563   -102.1 1.057e+04 5.943e-10
  4.60551   -102.3 1.060e+04 6.413e-10
  4.61955   -101.2 1.061e+04 6.451e-10
  4.63930   -100.2 1.059e+04 6.403e-10
  4.65905    -99.1 1.054e+04 6.075e-10
  4.67879    -98.0 1.047e+04 5.654e-10
  4.68903    -97.1 1.039e+04 5.103e-10
  4.69890    -97.1 1.010e+04 3.793e-10
  4.71828    -96.3 1.007e+04 3.479e-10
  4.73422    -95.4 1.008e+04 3.391e-10
  4.74409    -96.1 1.008e+04 3.144e-10
  4.75777    -95.3 1.009e+04 3.140e-10
  4.78749    -94.4 1.008e+04 3.143e-10
  4.82708    -92.2 1.015e+04 3.259e-10
  4.86657    -90.6 1.053e+04 4.142e-10
  4.90606    -88.8 1.089e+04 5.407e-10
  4.94555    -86.8 1.124e+04 6.850e-10
  4.98504    -84.7 1.153e+04 8.167e-10
  5.01149    -83.3 1.138e+04 8.003e-10
  5.02127    -83.6 1.168e+04 8.989e-10
  5.03421    -82.6 1.179e+04 9.330e-10
  5.05396    -81.5 1.185e+04 9.515e-10
  5.07370    -80.5 1.195e+04 9.635e-10
  5.09345    -79.5 1.204e+04 9.762e-10
  5.11319    -78.4 1.213e+04 9.849e-10
  5.13294    -77.4 1.216e+04 9.880e-10
  5.14428    -76.3 1.223e+04 9.892e-10
  5.15145    -76.7 1.146e+04 6.986e-10
  5.15986    -76.8 1.119e+04 6.636e-10
  5.18240    -75.5 1.139e+04 6.734e-10
  5.22199    -72.9 1.150e+04 6.776e-10
  5.26148    -71.0 1.194e+04 7.666e-10
  5.28877    -69.5 1.246e+04 1.038e-09
  5.30851    -69.0 1.117e+04 5.844e-10
  5.34046    -67.8 1.187e+04 8.767e-10
  5.36998    -66.8 1.257e+04 1.479e-09
  5.38963    -66.2 1.276e+04 1.772e-09
  5.40938    -65.5 1.299e+04 2.106e-09
  5.42716    -64.7 1.316e+04 2.294e-09
  5.43703    -64.9 1.283e+04 1.979e-09
  5.44887    -64.1 1.299e+04 2.154e-09
  5.46861    -63.5 1.305e+04 2.191e-09
  5.48836    -62.9 1.297e+04 2.036e-09
  5.50810    -62.6 1.274e+04 1.629e-09
  5.52785    -62.6 1.237e+04 1.226e-09
  5.54759    -63.2 1.195e+04 9.278e-10
  5.56575    -63.7 1.157e+04 7.364e-10
  5.57562    -63.8 1.356e+04 1.509e-09
  5.58709    -64.3 1.307e+04 1.242e-09
  5.59953    -64.5 1.249e+04 1.028e-09
  5.60940    -64.4 1.155e+04 8.105e-10
  5.62658    -64.4 1.127e+04 7.107e-10
  5.64632    -63.8 1.102e+04 6.266e-10
  5.66607    -63.0 1.080e+04 5.479e-10
  5.68581    -62.0 1.056e+04 4.688e-10
  5.70433    -60.8 1.036e+04 3.989e-10
  5.71421    -61.1 1.072e+04 4.931e-10
  5.72530    -59.8 1.044e+04 4.012e-10
  5.74505    -58.9 1.028e+04 3.456e-10
  5.77477    -58.1 1.011e+04 2.995e-10
  5.81435    -56.0 9.717e+03 2.321e-10
  5.84312    -53.5 9.417e+03 1.916e-10
  5.86286    -52.9 9.522e+03 2.380e-10
  5.89334    -50.5 9.314e+03 1.997e-10
  5.93283    -48.1 9.289e+03 1.918e-10
  5.97232    -45.9 9.409e+03 2.043e-10
  6.01181    -43.8 9.635e+03 2.559e-10
  6.04511    -41.6 9.845e+03 3.152e-10
  6.06485    -41.5 9.474e+03 2.164e-10
  6.09079    -39.3 9.544e+03 2.239e-10
  6.12029    -37.4 9.591e+03 2.182e-10
  6.14004    -36.9 9.201e+03 1.918e-10
  6.16977    -35.0 9.133e+03 1.818e-10
  6.20927    -33.4 9.099e+03 1.715e-10
  6.24876    -32.0 9.090e+03 1.681e-10
  6.28825    -30.8 9.088e+03 1.848e-10
  6.32774    -30.3 9.267e+03 2.396e-10
  6.36723    -30.3 9.755e+03 3.643e-10
  6.39747    -31.0 1.056e+04 6.281e-10
  6.41721    -29.9 9.940e+03 3.212e-10
  6.44621    -31.1 1.064e+04 6.131e-10
  6.48570    -31.5 1.118e+04 8.927e-10
  6.52519    -32.1 1.128e+04 9.232e-10
  6.56469    -33.0 1.060e+04 5.374e-10
  6.60418    -34.3 9.365e+03 2.215e-10
  6.64367    -35.6 8.916e+03 1.283e-10
  6.67464    -36.6 8.816e+03 1.058e-10
  6.69439    -35.6 8.807e+03 1.085e-10
  6.72265    -36.4 8.789e+03 1.039e-10
  6.76214    -37.7 8.774e+03 1.382e-10
  6.80163    -39.7 9.813e+03 2.836e-10
  6.84112    -41.9 1.102e+04 6.152e-10
  6.88061    -43.5 1.199e+04 1.211e-09
  6.92011    -44.8 1.265e+04 1.713e-09
  6.95182    -46.5 1.284e+04 1.818e-09
  6.96748    -46.2 1.259e+04 1.645e-09
  6.97516    -47.5 1.225e+04 1.360e-09
  6.98902    -48.3 1.170e+04 9.867e-10
  7.00876    -48.6 1.123e+04 7.774e-10
  7.03848    -50.3 1.050e+04 5.561e-10
  7.07807    -50.5 1.050e+04 5.353e-10
  7.11756    -50.6 1.098e+04 6.231e-10
  7.14708    -50.8 1.099e+04 8.799e-10
  7.16673    -54.2 1.317e+04 1.766e-09
  7.18647    -57.6 1.619e+04 4.146e-09
  7.20622    -59.9 1.923e+04 1.123e-08
  7.22098    -59.9 2.015e+04 1.640e-08
  7.23080    -60.8 2.124e+04 2.238e-08
  7.23857    -61.9 2.211e+04 2.702e-08
  7.24351    -60.7 2.105e+04 1.879e-08
  7.25055    -61.4 2.148e+04 2.020e-08
  7.26541    -62.7 2.169e+04 1.748e-08
  7.28520    -65.8 2.126e+04 9.951e-09
  7.30495    -70.7 1.828e+04 4.269e-09
  7.32469    -76.1 1.410e+04 1.879e-09
  7.34444    -77.7 1.223e+04 1.307e-09
  7.36418    -77.8 1.172e+04 1.121e-09
  7.37726    -77.6 1.144e+04 1.039e-09
  7.38713    -76.7 1.171e+04 1.049e-09
  7.40368    -76.1 1.148e+04 1.124e-09
  7.42054    -75.4 1.155e+04 1.177e-09
  7.43041    -74.8 1.155e+04 1.177e-09
  7.44317    -74.2 1.161e+04 1.227e-09
  7.46291    -73.6 1.170e+04 1.224e-09
  7.48266    -73.3 1.175e+04 1.181e-09
  7.50240    -73.0 1.169e+04 1.098e-09
  7.51584    -72.8 1.151e+04 9.941e-10
  7.52572    -71.4 1.242e+04 1.564e-09
  7.54189    -71.1 1.225e+04 1.395e-09
  7.56164    -71.1 1.188e+04 1.177e-09
  7.58139    -71.3 1.136e+04 9.570e-10
  7.60113    -71.3 1.082e+04 7.716e-10
  7.62088    -71.2 1.042e+04 6.323e-10
  7.64062    -70.9 1.018e+04 5.390e-10
  7.67034    -70.6 9.874e+03 4.524e-10
  7.70993    -69.9 9.155e+03 3.269e-10
  7.74942    -69.3 8.927e+03 2.769e-10
  7.78334    -68.4 8.790e+03 2.506e-10
  7.80309    -67.0 8.804e+03 2.486e-10
  7.82840    -65.9 8.704e+03 2.247e-10
  7.86612    -64.6 8.586e+03 2.088e-10
  7.88586    -63.7 8.488e+03 1.763e-10
  7.90738    -62.4 8.410e+03 1.638e-10
  7.94687    -61.0 8.377e+03 1.597e-10
  7.98636    -59.6 8.374e+03 1.594e-10
  8.02586    -58.2 8.460e+03 1.662e-10
  8.06052    -56.9 8.623e+03 1.853e-10
  8.08026    -54.8 8.332e+03 1.391e-10
  8.10484    -53.4 8.513e+03 1.586e-10
  8.14433    -51.9 8.714e+03 1.861e-10
  8.18382    -50.6 8.910e+03 2.204e-10
  8.22331    -49.2 9.069e+03 2.586e-10
  8.26280    -48.0 9.167e+03 2.929e-10
  8.30229    -46.9 9.231e+03 3.204e-10
  8.33769    -45.9 9.252e+03 3.382e-10
  8.35744    -43.5 9.432e+03 3.822e-10
  8.38128    -42.6 9.519e+03 4.224e-10
  8.42077    -42.0 9.477e+03 4.130e-10
  8.46026    -41.5 9.226e+03 3.485e-10
  8.49975    -41.2 8.850e+03 2.683e-10
  8.53924    -40.8 8.487e+03 2.054e-10
  8.57873    -40.2 8.204e+03 1.620e-10
  8.61487    -39.3 7.975e+03 1.309e-10
  8.63461    -37.3 8.037e+03 1.445e-10
  8.65771    -36.3 7.862e+03 1.218e-10
  8.69720    -35.0 7.755e+03 1.076e-10
  8.73670    -33.6 7.686e+03 9.926e-11
  8.77619    -32.1 7.653e+03 9.613e-11
  8.79637    -30.4 7.644e+03 9.530e-11
  8.81611    -28.7 7.637e+03 9.131e-11
  8.85517    -27.0 7.671e+03 9.447e-11
  8.89204    -25.3 7.739e+03 1.033e-10
  8.91179    -23.5 7.754e+03 1.071e-10
  8.93415    -21.8 7.828e+03 1.145e-10
  8.97364    -20.3 7.939e+03 1.249e-10
  9.01313    -19.2 8.192e+03 1.533e-10
  9.05262    -18.2 8.564e+03 2.145e-10
  9.09212    -17.1 8.959e+03 3.096e-10
  9.13161    -16.1 9.264e+03 4.048e-10
  9.16922    -15.2 9.367e+03 4.419e-10
  9.18896    -13.4 9.296e+03 4.077e-10
  9.21059    -12.8 9.373e+03 4.354e-10
  9.25008    -12.2 9.352e+03 4.369e-10
  9.28957    -11.5 9.304e+03 4.248e-10
  9.32906    -11.1 9.291e+03 4.219e-10
  9.36855    -10.5 9.360e+03 4.380e-10
  9.40804     -9.7 9.615e+03 4.941e-10
  9.43756     -8.4 9.638e+03 4.986e-10
  9.45607     -8.4 9.717e+03 5.178e-10
  9.46594     -7.8 9.842e+03 5.577e-10
  9.47696     -7.7 9.948e+03 6.068e-10
  9.49670     -7.7 1.002e+04 6.472e-10
  9.51645     -7.5 1.003e+04 6.766e-10
  9.53619     -7.3 1.004e+04 6.850e-10
  9.55594     -6.9 1.003e+04 6.731e-10
  9.57569     -6.6 9.986e+03 6.549e-10
  9.59465     -6.3 9.868e+03 5.936e-10
  9.60453     -6.0 9.788e+03 5.541e-10
  9.61518     -6.0 9.608e+03 4.736e-10
  9.64489     -6.5 9.391e+03 4.001e-10
  9.68448     -6.0 9.090e+03 3.382e-10
  9.70687     -5.4 8.707e+03 2.740e-10
  9.72621     -3.7 8.952e+03 3.094e-10
  9.74331     -3.4 8.862e+03 2.922e-10
  9.76346     -2.8 8.486e+03 2.353e-10
  9.80296     -1.9 8.170e+03 1.864e-10
  9.84245     -0.8 7.885e+03 1.459e-10
  9.88194      0.3 7.657e+03 1.180e-10
  9.92143      1.4 7.508e+03 1.022e-10
  9.96092      2.8 7.423e+03 9.472e-11
 10.00041      4.3 7.390e+03 9.179e-11
 10.02049      5.8 7.386e+03 9.099e-11
 10.04023      4.9 7.531e+03 1.048e-10
 10.07939      5.7 7.702e+03 1.174e-10
 10.11888      5.8 8.127e+03 1.542e-10
 10.15837      5.5 8.746e+03 2.333e-10
 10.18790      5.4 9.387e+03 3.539e-10
 10.20754      4.9 9.619e+03 3.971e-10
 10.22729      3.9 1.041e+04 6.035e-10
 10.24703      2.9 1.116e+04 7.906e-10
 10.27675      2.0 1.178e+04 9.717e-10
 10.29756     -1.1 1.243e+04 1.321e-09
 10.30734     -2.9 1.242e+04 1.384e-09
 10.32602     -4.2 1.280e+04 1.652e-09
 10.34576     -5.3 1.337e+04 2.096e-09
 10.36551     -6.4 1.427e+04 2.648e-09
 10.38525     -7.6 1.503e+04 3.160e-09
 10.40500     -9.2 1.543e+04 3.447e-09
 10.42474    -11.5 1.564e+04 3.616e-09
 10.43605    -15.7 1.648e+04 4.237e-09
 10.44592    -19.7 1.672e+04 4.203e-09
 10.46424    -26.2 1.920e+04 6.934e-09
 10.47900    -30.1 2.060e+04 9.861e-09
 10.48882    -33.5 2.123e+04 1.406e-08
 10.49869    -36.2 2.147e+04 1.883e-08
 10.50525    -38.6 2.197e+04 2.242e-08
 10.51018    -39.9 2.194e+04 2.239e-08
 10.51844    -43.4 2.215e+04 2.294e-08
 10.52831    -47.4 2.212e+04 2.069e-08
 10.53818    -52.2 2.234e+04 1.828e-08
 10.54806    -59.4 2.479e+04 1.773e-08
 10.55793    -70.8 2.789e+04 1.939e-08
 10.56780    -85.5 2.817e+04 2.037e-08
 10.57454    -98.4 2.665e+04 2.131e-08
 10.57948   -100.8 2.615e+04 2.185e-08
 10.58755   -109.2 2.540e+04 2.268e-08
 10.59742   -116.7 2.478e+04 1.987e-08
 10.60729   -124.8 2.339e+04 1.330e-08
 10.61708   -132.8 2.069e+04 8.182e-09
 10.62202   -136.0 1.965e+04 6.622e-09
 10.62704   -140.9 1.777e+04 4.943e-09
 10.63691   -143.7 1.712e+04 4.278e-09
 10.64384   -145.5 1.672e+04 3.899e-09
 10.64877   -145.9 1.664e+04 3.939e-09
 10.66164   -148.1 1.604e+04 3.409e-09
 10.68144   -152.5 1.429e+04 2.457e-09
 10.70118   -155.0 1.294e+04 1.757e-09
 10.71323   -156.1 1.235e+04 1.320e-09
 10.72310   -156.0 1.214e+04 1.142e-09
 10.74067   -156.8 1.162e+04 8.276e-10
 10.76042   -157.5 1.102e+04 5.850e-10
 10.78016   -158.0 1.045e+04 4.125e-10
 10.79991   -158.3 1.002e+04 3.165e-10
 10.82963   -158.5 9.779e+03 2.755e-10
 10.85201   -158.2 9.591e+03 2.532e-10
 10.87176   -157.8 9.719e+03 2.782e-10
 10.90871   -156.9 9.757e+03 2.928e-10
 10.94820   -155.8 9.940e+03 3.374e-10
 10.97772   -154.8 9.991e+03 3.498e-10
 10.99040   -154.5 1.019e+04 4.001e-10
 11.00027   -154.6 1.044e+04 4.780e-10
 11.01711   -154.0 1.065e+04 5.401e-10
 11.03686   -153.6 1.082e+04 5.902e-10
 11.05660   -153.3 1.095e+04 6.295e-10
 11.07243   -153.1 1.103e+04 6.520e-10
 11.08231   -152.5 1.083e+04 6.108e-10
 11.09609   -152.4 1.086e+04 6.199e-10
 11.11584   -152.4 1.088e+04 6.235e-10
 11.12899   -152.4 1.088e+04 6.242e-10
 11.13886   -152.5 1.106e+04 6.796e-10
 11.15533   -152.6 1.101e+04 6.574e-10
 11.17508   -152.8 1.090e+04 6.147e-10
 11.19482   -153.0 1.073e+04 5.608e-10
 11.21457   -153.2 1.052e+04 5.016e-10
 11.23431   -153.3 1.028e+04 4.420e-10
 11.25406   -153.4 1.008e+04 3.943e-10
 11.26758   -153.6 9.957e+03 3.654e-10
 11.27745   -153.4 9.967e+03 3.731e-10
 11.30352   -154.0 9.845e+03 3.393e-10
 11.34311   -153.8 9.493e+03 2.786e-10
 11.38260   -153.0 9.177e+03 2.324e-10
 11.40636   -151.8 9.029e+03 2.078e-10
 11.42611   -150.9 9.007e+03 2.083e-10
 11.46158   -149.6 8.983e+03 2.041e-10
 11.50107   -148.1 8.980e+03 2.062e-10
 11.52788   -146.5 9.002e+03 2.162e-10
 11.54763   -145.2 8.505e+03 1.453e-10
 11.58005   -143.4 8.491e+03 1.453e-10
 11.61955   -142.1 8.495e+03 1.494e-10
 11.65904   -141.6 8.560e+03 1.734e-10
 11.68353   -142.0 9.567e+03 3.895e-10
 11.70328   -140.6 8.956e+03 3.106e-10
 11.72805   -142.2 1.154e+04 9.529e-10
 11.74770   -142.3 1.279e+04 1.632e-09
 11.76744   -142.2 1.407e+04 2.729e-09
 11.78719   -142.4 1.522e+04 4.073e-09
 11.80693   -143.3 1.599e+04 5.216e-09
 11.82193   -144.7 1.634e+04 5.682e-09
 11.83180   -144.7 1.666e+04 6.136e-09
 11.84642   -146.3 1.670e+04 6.167e-09
 11.86617   -147.8 1.654e+04 5.636e-09
 11.88591   -149.2 1.617e+04 4.843e-09
 11.90566   -150.5 1.592e+04 4.454e-09
 11.92541   -151.3 1.589e+04 4.410e-09
 11.94515   -151.7 1.702e+04 5.181e-09
 11.96051   -152.0 1.932e+04 7.770e-09
 11.97039   -151.5 1.593e+04 3.063e-09
 11.98294   -152.6 1.810e+04 3.383e-09
 11.99281   -153.0 1.221e+04 8.577e-10
 12.00439   -155.6 1.490e+04 6.939e-10
 12.02413   -159.3 2.150e+04 8.749e-10
 12.04388   -162.3 2.303e+04 2.107e-09
 12.06362   -163.8 2.164e+04 4.712e-09
 12.08337   -164.0 2.058e+04 6.987e-09
 12.09910   -163.8 1.990e+04 8.258e-09
 12.10897   -161.9 1.941e+04 3.262e-09
 12.12286   -161.1 1.902e+04 4.328e-09
 12.14261   -160.3 1.886e+04 5.127e-09
 12.16235   -159.6 1.874e+04 5.717e-09
 12.18210   -158.9 1.847e+04 5.997e-09
 12.20184   -158.3 1.812e+04 6.017e-09
 12.22159   -157.8 1.800e+04 5.917e-09
 12.23769   -157.7 1.777e+04 5.910e-09
 12.24756   -154.1 1.834e+04 6.090e-09
 12.26108   -154.2 1.837e+04 6.323e-09
 12.28083   -154.9 1.836e+04 6.350e-09
 12.30057   -156.2 1.827e+04 6.087e-09
 12.32032   -158.2 1.810e+04 5.499e-09
 12.34006   -160.7 1.769e+04 4.778e-09
 12.35981   -163.5 1.706e+04 4.036e-09
 12.37628   -166.3 1.630e+04 3.323e-09
 12.38615   -163.5 1.722e+04 4.390e-09
 12.39930   -167.2 1.609e+04 3.502e-09
 12.41904   -170.7 1.527e+04 2.826e-09
 12.43819   -174.1 1.505e+04 2.345e-09
 12.44806   -173.2 1.735e+04 3.790e-09
 12.45854   -176.2 1.753e+04 3.350e-09
 12.47330   -177.9 1.749e+04 2.844e-09
 12.48312   -178.5 1.702e+04 2.643e-09
 12.49299   -179.7 1.649e+04 2.409e-09
 12.50287   -180.8 1.635e+04 2.301e-09
 12.51274   -182.1 1.621e+04 2.255e-09
 12.51970   -183.5 1.612e+04 2.253e-09
 12.52464   -184.8 1.815e+04 2.560e-09
 12.53248   -187.1 1.996e+04 2.697e-09
 12.54236   -189.2 2.233e+04 2.947e-09
 12.55223   -191.4 2.526e+04 3.465e-09
 12.56210   -194.7 3.125e+04 4.464e-09
 12.57197   -200.2 3.912e+04 6.681e-09
 12.58185   -205.5 4.226e+04 1.278e-08
 12.58900   -209.1 3.813e+04 3.204e-08
 12.59144   -215.6 3.309e+04 1.264e-07
 12.59414   -217.7 2.832e+04 3.337e-07
 12.59908   -220.5 2.413e+04 1.035e-06
 12.60401   -223.2 2.129e+04 2.854e-06
 12.60895   -226.2 1.922e+04 7.169e-06
 12.61389   -229.8 1.835e+04 1.291e-05
 12.61882   -233.2 1.823e+04 1.644e-05
 12.62359   -236.6 1.839e+04 1.654e-05
 12.62606   -249.6 2.111e+04 8.373e-06
 12.62869   -253.2 2.591e+04 3.080e-06
 12.63363   -256.8 3.455e+04 7.512e-07
 12.63857   -260.8 4.561e+04 1.512e-07
 12.64350   -265.6 5.537e+04 3.755e-08
 12.64844   -270.6 5.388e+04 1.868e-08
 12.65338   -273.4 4.128e+04 1.947e-08
 12.65824   -274.2 3.583e+04 1.882e-08
 12.66320   -277.6 2.152e+04 1.365e-08
 12.67066   -276.9 1.983e+04 1.015e-08
 12.68053   -275.8 1.899e+04 8.486e-09
 12.69045   -275.0 1.818e+04 6.854e-09
 12.70032   -274.4 1.746e+04 5.776e-09
 12.71019   -273.6 1.699e+04 5.039e-09
 12.72007   -272.9 1.662e+04 4.511e-09
 12.72758   -272.3 1.627e+04 4.077e-09
 12.73252   -272.5 1.611e+04 3.949e-09
 12.73981   -271.8 1.584e+04 3.625e-09
 12.75467   -271.2 1.532e+04 3.122e-09
 12.77446   -269.4 1.389e+04 2.205e-09
 12.79204   -268.3 1.303e+04 1.730e-09
 12.80191   -270.0 1.214e+04 1.175e-09
 12.81396   -268.9 1.173e+04 1.034e-09
 12.83370   -267.9 1.144e+04 9.474e-10
 12.85345   -266.7 1.121e+04 8.838e-10
 12.87319   -265.6 1.102e+04 8.259e-10
 12.89294   -264.5 1.083e+04 7.636e-10
 12.90332   -263.4 1.062e+04 6.971e-10
 12.91319   -263.5 1.066e+04 6.950e-10
 12.93063   -262.4 1.046e+04 6.320e-10
 12.94050   -262.9 9.826e+03 5.160e-10
 12.95217   -261.7 9.648e+03 4.667e-10
 12.97192   -260.5 9.503e+03 4.202e-10
 12.99167   -259.4 9.402e+03 3.842e-10
 13.01141   -258.3 9.380e+03 3.627e-10
 13.03116   -257.3 9.387e+03 3.560e-10
 13.05090   -256.5 9.393e+03 3.553e-10
 13.06921   -255.9 9.442e+03 3.565e-10
 13.08906   -255.3 9.069e+03 2.922e-10
 13.12021   -254.2 9.273e+03 3.135e-10
 13.15970   -253.3 9.505e+03 3.358e-10
 13.19919   -252.6 9.599e+03 3.414e-10
 13.23868   -252.6 9.574e+03 3.215e-10
 13.27817   -252.7 9.510e+03 2.845e-10
 13.30769   -253.2 9.558e+03 2.810e-10
 13.32734   -254.0 9.597e+03 2.805e-10
 13.34639   -254.9 9.908e+03 2.954e-10
 13.35626   -256.5 1.007e+04 3.445e-10
 13.35857   -257.1 1.033e+04 4.364e-10
 13.36844   -257.6 1.057e+04 5.618e-10
 13.38658   -258.2 1.127e+04 7.791e-10
 13.40632   -259.0 1.226e+04 1.072e-09
 13.42607   -260.1 1.346e+04 1.455e-09
 13.44581   -261.6 1.468e+04 1.955e-09
 13.46556   -263.1 1.578e+04 2.596e-09
 13.48498   -264.7 1.676e+04 3.410e-09
 13.49485   -268.0 1.719e+04 4.265e-09
 13.50505   -269.0 1.775e+04 5.041e-09
 13.51981   -268.8 1.789e+04 5.383e-09
 13.52963   -269.6 1.841e+04 5.856e-09
 13.53951   -270.7 1.901e+04 6.470e-09
 13.54938   -271.6 1.955e+04 6.946e-09
 13.55911   -273.4 2.026e+04 7.742e-09
 13.56404   -274.7 2.041e+04 7.326e-09
 13.56912   -276.7 2.062e+04 7.488e-09
 13.57900   -278.7 2.077e+04 7.557e-09
 13.58610   -280.7 2.070e+04 7.376e-09
 13.59103   -282.1 1.987e+04 5.963e-09
 13.59874   -283.7 1.966e+04 5.691e-09
 13.60862   -285.4 1.959e+04 5.605e-09
 13.61849   -287.0 1.970e+04 5.811e-09
 13.62836   -288.3 1.990e+04 6.325e-09
 13.64322   -290.4 1.873e+04 4.195e-09
 13.66301   -293.1 1.844e+04 3.702e-09
 13.68276   -295.8 1.786e+04 3.128e-09
 13.70251   -297.6 1.728e+04 2.567e-09
 13.72225   -298.9 1.657e+04 2.091e-09
 13.74200   -299.6 1.594e+04 1.770e-09
 13.76174   -300.2 1.558e+04 1.611e-09
 13.77202   -300.6 1.550e+04 1.576e-09
 13.78190   -299.3 1.437e+04 9.927e-10
 13.80123   -299.5 1.445e+04 1.151e-09
 13.81382   -299.9 1.503e+04 1.498e-09
 13.82370   -301.6 1.432e+04 1.429e-09
 13.84072   -302.0 1.586e+04 2.133e-09
 13.86047   -302.4 1.733e+04 3.359e-09
 13.88021   -302.5 1.862e+04 5.371e-09
 13.89996   -302.5 1.966e+04 8.432e-09
 13.91061   -302.4 2.040e+04 1.247e-08
 13.92048   -300.9 1.951e+04 8.469e-09
 13.93945   -300.9 2.020e+04 1.230e-08
 13.95920   -300.9 2.057e+04 1.624e-08
 13.97894   -301.2 2.059e+04 1.873e-08
 13.99869   -301.5 2.055e+04 1.929e-08
 14.01843   -301.4 2.011e+04 1.902e-08
 14.03818   -301.0 1.941e+04 1.635e-08
 14.04920   -300.3 1.873e+04 1.300e-08
 14.05907   -298.9 1.922e+04 1.627e-08
 14.07767   -298.6 1.868e+04 1.325e-08
 14.09742   -298.3 1.798e+04 9.992e-09
 14.11716   -298.2 1.705e+04 7.006e-09
 14.13691   -298.2 1.591e+04 4.636e-09
 14.15665   -298.1 1.466e+04 3.019e-09
 14.17640   -297.9 1.348e+04 2.003e-09
 14.18779   -297.6 1.250e+04 1.407e-09
 14.19766   -296.2 1.323e+04 1.959e-09
 14.21589   -295.8 1.226e+04 1.385e-09
 14.23563   -295.1 1.162e+04 1.081e-09
 14.25538   -294.2 1.135e+04 9.411e-10
 14.26907   -293.3 1.130e+04 9.010e-10
 14.27895   -292.9 1.186e+04 1.205e-09
 14.29487   -292.0 1.189e+04 1.176e-09
 14.31462   -291.0 1.195e+04 1.174e-09
 14.32637   -290.0 1.215e+04 1.193e-09
 14.33625   -289.1 1.208e+04 1.148e-09
 14.35411   -288.4 1.233e+04 1.179e-09
 14.38382   -287.8 1.254e+04 1.216e-09
 14.42341   -285.9 1.262e+04 1.259e-09
 14.45528   -284.5 1.253e+04 1.288e-09
 14.47503   -281.9 1.210e+04 1.013e-09
 14.50239   -280.6 1.226e+04 1.069e-09
 14.54189   -279.2 1.236e+04 1.187e-09
 14.58138   -277.4 1.225e+04 1.306e-09
 14.62087   -275.7 1.216e+04 1.332e-09
 14.66036   -273.8 1.193e+04 1.294e-09
 14.68988   -271.7 1.168e+04 1.180e-09
 14.70953   -271.1 1.161e+04 1.136e-09
 14.72433   -270.0 1.148e+04 1.063e-09
 14.73420   -270.9 1.178e+04 1.196e-09
 14.74214   -270.2 1.167e+04 1.134e-09
 14.75211   -269.2 1.151e+04 1.012e-09
 14.77883   -267.1 1.128e+04 9.467e-10
 14.80835   -265.9 1.115e+04 9.140e-10
 14.82800   -264.9 1.103e+04 8.558e-10
 14.84775   -263.9 1.088e+04 7.854e-10
 14.86749   -262.8 1.074e+04 7.020e-10
 14.88072   -261.6 1.058e+04 5.970e-10
 14.89060   -260.9 1.074e+04 6.858e-10
 14.90698   -259.6 1.061e+04 5.708e-10
 14.92673   -258.3 1.044e+04 4.617e-10
 14.94647   -257.2 1.031e+04 4.038e-10
 14.97619   -256.1 1.023e+04 3.718e-10
 15.00963   -253.9 9.887e+03 2.959e-10
 15.02938   -252.4 1.026e+04 3.540e-10
 15.05527   -250.4 9.931e+03 2.837e-10
 15.09476   -247.9 9.611e+03 2.353e-10
 15.13425   -245.4 9.471e+03 2.157e-10
 15.16990   -242.9 9.439e+03 2.108e-10
 15.18965   -244.2 9.500e+03 2.242e-10
 15.21323   -241.6 9.559e+03 2.347e-10
 15.25273   -238.9 9.694e+03 2.579e-10
 15.28681   -236.2 9.874e+03 2.946e-10
 15.30655   -235.7 1.037e+04 4.353e-10
 15.33171   -233.2 1.051e+04 4.915e-10
 15.36123   -230.8 1.045e+04 4.616e-10
 15.38088   -229.8 1.053e+04 5.111e-10
 15.40062   -228.5 1.059e+04 5.486e-10
 15.42037   -227.4 1.067e+04 5.832e-10
 15.43507   -226.1 1.073e+04 6.273e-10
 15.44495   -226.1 1.090e+04 7.297e-10
 15.45986   -225.0 1.088e+04 7.285e-10
 15.48957   -223.8 1.084e+04 7.051e-10
 15.52916   -221.1 1.081e+04 7.092e-10
 15.56398   -218.8 1.071e+04 6.768e-10
 15.58373   -218.6 1.124e+04 8.985e-10
 15.60815   -216.0 1.111e+04 8.556e-10
 15.64764   -213.7 1.098e+04 7.908e-10
 15.68713   -211.4 1.088e+04 7.369e-10
 15.72662   -209.2 1.082e+04 6.978e-10
 15.76611   -207.1 1.079e+04 6.850e-10
 15.80560   -204.9 1.079e+04 6.845e-10
 15.84116   -202.7 1.081e+04 7.039e-10
 15.86090   -203.1 1.139e+04 9.895e-10
 15.88458   -201.0 1.133e+04 9.812e-10
 15.92407   -198.9 1.130e+04 9.798e-10
 15.96357   -196.7 1.125e+04 9.547e-10
 16.00306   -194.5 1.113e+04 8.872e-10
 16.04255   -192.2 1.094e+04 7.690e-10
 16.08041   -189.7 1.067e+04 6.307e-10
 16.10015   -189.8 1.049e+04 5.268e-10
 16.11833   -187.2 1.021e+04 4.136e-10
 16.13808   -187.4 9.885e+03 2.853e-10
 16.16102   -184.7 9.639e+03 2.170e-10
 16.20051   -181.9 9.467e+03 1.704e-10
 16.24000   -179.1 9.376e+03 1.414e-10
 16.27949   -176.4 9.361e+03 1.248e-10
 16.31899   -173.7 9.425e+03 1.172e-10
 16.35848   -171.1 9.584e+03 1.154e-10
 16.39551   -168.5 9.549e+03 1.406e-10
 16.41525   -168.6 9.531e+03 1.404e-10
 16.43746   -166.0 9.664e+03 1.726e-10
 16.47695   -163.4 9.834e+03 2.208e-10
 16.51644   -160.8 1.006e+04 2.884e-10
 16.55593   -158.3 1.033e+04 3.789e-10
 16.59542   -155.8 1.064e+04 4.944e-10
 16.63491   -153.3 1.096e+04 6.322e-10
 16.67268   -151.0 1.128e+04 7.841e-10
 16.69243   -151.5 1.142e+04 8.237e-10
 16.71390   -149.4 1.182e+04 1.049e-09
 16.75339   -147.4 1.218e+04 1.275e-09
 16.79288   -145.4 1.248e+04 1.470e-09
 16.83237   -143.4 1.270e+04 1.593e-09
 16.86189   -142.1 1.304e+04 1.772e-09
 16.88154   -141.3 1.315e+04 1.817e-09
 16.90128   -140.5 1.325e+04 1.877e-09
 16.92103   -139.6 1.334e+04 1.951e-09
 16.94077   -138.5 1.347e+04 2.052e-09
 16.95953   -137.5 1.360e+04 2.167e-09
 16.96941   -137.7 1.331e+04 1.856e-09
 16.98027   -136.5 1.347e+04 1.945e-09
 17.00001   -135.4 1.361e+04 2.038e-09
 17.01046   -134.3 1.377e+04 2.145e-09
 17.02034   -134.7 1.457e+04 3.043e-09
 17.03950   -134.0 1.500e+04 3.545e-09
 17.05925   -133.4 1.562e+04 4.342e-09
 17.07899   -132.8 1.640e+04 5.562e-09
 17.09812   -132.1 1.730e+04 7.304e-09
 17.10799   -132.4 1.659e+04 5.049e-09
 17.11848   -131.7 1.740e+04 6.769e-09
 17.13823   -131.1 1.819e+04 8.704e-09
 17.15798   -130.8 1.872e+04 9.636e-09
 17.17772   -130.8 1.884e+04 9.568e-09
 17.19248   -130.4 1.763e+04 6.617e-09
 17.20231   -130.5 1.789e+04 6.804e-09
 17.21218   -130.5 1.807e+04 7.073e-09
 17.22205   -130.5 1.831e+04 7.627e-09
 17.23192   -130.4 1.854e+04 8.462e-09
 17.23799   -130.1 1.881e+04 9.689e-09
 17.24268   -130.2 1.900e+04 1.198e-08
 17.24653   -129.8 1.769e+04 7.373e-09
 17.25670   -128.9 1.769e+04 7.398e-09
 17.27645   -128.1 1.790e+04 7.907e-09
 17.29619   -127.4 1.824e+04 8.840e-09
 17.31594   -126.7 1.853e+04 1.053e-08
 17.33569   -126.0 1.881e+04 1.286e-08
 17.35543   -125.2 1.914e+04 1.560e-08
 17.37518   -124.4 1.936e+04 1.807e-08
 17.38517   -123.7 1.951e+04 1.940e-08
 17.39504   -123.3 1.863e+04 1.397e-08
 17.41467   -122.6 1.873e+04 1.442e-08
 17.43441   -121.9 1.881e+04 1.448e-08
 17.45416   -121.2 1.888e+04 1.431e-08
 17.46571   -120.6 1.897e+04 1.313e-08
 17.47559   -121.6 1.828e+04 8.064e-09
 17.49365   -121.7 1.823e+04 6.200e-09
 17.51340   -122.2 1.796e+04 4.741e-09
 17.52376   -122.8 1.730e+04 3.731e-09
 17.53363   -123.2 1.772e+04 5.796e-09
 17.55289   -123.4 1.692e+04 5.265e-09
 17.57263   -123.5 1.622e+04 4.961e-09
 17.59238   -122.8 1.573e+04 4.761e-09
 17.61212   -121.9 1.543e+04 4.588e-09
 17.63187   -120.9 1.514e+04 4.485e-09
 17.65161   -119.9 1.498e+04 4.395e-09
 17.66234   -118.7 1.489e+04 4.360e-09
 17.67222   -118.2 1.503e+04 4.778e-09
 17.69111   -117.1 1.492e+04 4.543e-09
 17.71085   -116.3 1.487e+04 4.417e-09
 17.73060   -115.4 1.489e+04 4.402e-09
 17.75034   -114.7 1.496e+04 4.411e-09
 17.77009   -114.3 1.507e+04 4.187e-09
 17.78983   -114.2 1.515e+04 3.743e-09
 17.80093   -114.3 1.521e+04 3.217e-09
 17.81080   -114.1 1.551e+04 4.144e-09
 17.82932   -114.8 1.573e+04 3.937e-09
 17.84907   -115.8 1.574e+04 3.763e-09
 17.86882   -116.7 1.561e+04 3.615e-09
 17.88856   -117.5 1.536e+04 3.564e-09
 17.90831   -117.9 1.517e+04 3.582e-09
 17.92097   -117.9 1.502e+04 3.670e-09
 17.93084   -117.8 1.504e+04 3.490e-09
 17.93952   -117.7 1.509e+04 3.859e-09
 17.94939   -116.9 1.526e+04 4.674e-09
 17.96754   -116.6 1.512e+04 4.622e-09
 17.98729   -116.2 1.494e+04 4.248e-09
 18.00703   -115.6 1.475e+04 3.875e-09
 18.02678   -114.8 1.450e+04 3.430e-09
 18.04653   -114.0 1.423e+04 2.947e-09
 18.06627   -113.2 1.395e+04 2.497e-09
 18.07811   -112.3 1.367e+04 2.122e-09
 18.08798   -112.1 1.360e+04 1.983e-09
 18.10576   -111.1 1.337e+04 1.733e-09
 18.12551   -110.0 1.318e+04 1.539e-09
 18.14525   -108.9 1.300e+04 1.387e-09
 18.16500   -107.7 1.283e+04 1.270e-09
 18.18474   -106.5 1.273e+04 1.189e-09
 18.20449   -105.3 1.267e+04 1.130e-09
 18.21669   -104.1 1.265e+04 1.067e-09
 18.22657   -103.9 1.259e+04 8.662e-10
 18.24398   -102.7 1.254e+04 8.247e-10
 18.26373   -101.5 1.249e+04 8.085e-10
 18.28347   -100.4 1.248e+04 7.999e-10
 18.30322    -99.5 1.247e+04 7.984e-10
 18.33293    -98.4 1.245e+04 8.131e-10
 18.35548    -95.9 1.239e+04 7.970e-10
 18.37522    -95.7 1.217e+04 6.119e-10
 18.41201    -93.9 1.232e+04 7.060e-10
 18.45150    -92.3 1.256e+04 8.588e-10
 18.49100    -91.1 1.286e+04 1.073e-09
 18.53049    -90.0 1.320e+04 1.354e-09
 18.56998    -89.2 1.349e+04 1.659e-09
 18.60947    -88.6 1.362e+04 1.913e-09
 18.63265    -88.0 1.362e+04 1.997e-09
 18.65240    -88.2 1.305e+04 1.480e-09
 18.68845    -87.7 1.286e+04 1.476e-09
 18.72794    -86.8 1.226e+04 1.164e-09
 18.76743    -85.4 1.161e+04 7.271e-10
 18.80692    -83.8 1.106e+04 3.862e-10
 18.83167    -82.3 1.077e+04 2.208e-10
 18.85141    -82.4 1.040e+04 1.710e-10
 18.88591    -80.8 1.035e+04 1.389e-10
 18.90983    -79.1 1.037e+04 1.328e-10
 18.92957    -79.4 1.013e+04 1.183e-10
 18.96489    -77.7 1.018e+04 1.167e-10
 19.00438    -76.5 1.062e+04 1.375e-10
 19.04387    -75.2 1.084e+04 2.236e-10
 19.08336    -73.8 1.098e+04 3.545e-10
 19.12285    -72.5 1.111e+04 4.873e-10
 19.16234    -71.3 1.121e+04 5.775e-10
 19.18700    -70.5 1.127e+04 6.227e-10
 19.20675    -70.6 1.096e+04 4.342e-10
 19.24133    -70.2 1.102e+04 4.900e-10
 19.28082    -70.2 1.126e+04 5.934e-10
 19.32031    -70.2 1.173e+04 8.142e-10
 19.35980    -70.2 1.209e+04 1.042e-09
 19.39929    -70.1 1.213e+04 1.092e-09
 19.43878    -69.7 1.183e+04 9.656e-10
 19.46418    -68.9 1.134e+04 6.343e-10
 19.48392    -68.6 1.121e+04 5.806e-10
 19.51776    -67.9 1.086e+04 4.297e-10
 19.55725    -67.0 1.062e+04 3.572e-10
 19.59675    -65.7 1.050e+04 3.327e-10
 19.63624    -63.9 1.047e+04 3.203e-10
 19.67573    -62.0 1.043e+04 3.134e-10
 19.71522    -59.8 1.043e+04 3.038e-10
 19.74135    -57.6 1.047e+04 2.903e-10
 19.74856    -57.7 1.039e+04 1.839e-10
 19.76192    -58.3 1.050e+04 1.815e-10
 19.79420    -56.2 1.057e+04 1.563e-10
 19.83369    -54.0 1.060e+04 1.499e-10
 19.87318    -52.0 1.067e+04 1.495e-10
 19.91267    -50.2 1.077e+04 1.891e-10
 19.95217    -48.3 1.076e+04 2.799e-10
 19.99166    -46.0 1.089e+04 3.998e-10
 20.01853    -43.6 1.108e+04 5.298e-10
 20.03827    -44.0 1.078e+04 3.975e-10
 20.07064    -41.7 1.084e+04 4.384e-10
 20.11013    -39.6 1.085e+04 4.478e-10
 20.14962    -37.6 1.081e+04 4.328e-10
 20.18911    -35.7 1.082e+04 4.103e-10
 20.22860    -34.0 1.081e+04 3.824e-10
 20.26809    -32.5 1.086e+04 3.658e-10
 20.29570    -31.2 1.092e+04 3.626e-10
 20.31545    -32.0 1.060e+04 2.236e-10
 20.34708    -30.8 1.073e+04 2.423e-10
 20.38657    -30.2 1.098e+04 2.551e-10
 20.42606    -30.3 1.107e+04 3.179e-10
 20.45558    -31.3 1.115e+04 4.150e-10
 20.47523    -31.7 1.138e+04 5.617e-10
 20.49497    -32.0 1.167e+04 7.545e-10
 20.51472    -32.1 1.193e+04 9.815e-10
 20.53446    -32.2 1.210e+04 1.201e-09
 20.55421    -32.2 1.214e+04 1.374e-09
 20.57268    -32.1 1.211e+04 1.448e-09
 20.58255    -32.5 1.226e+04 1.670e-09
 20.59370    -32.3 1.214e+04 1.520e-09
 20.61345    -32.4 1.203e+04 1.273e-09
 20.63319    -32.9 1.193e+04 1.064e-09
 20.65248    -33.6 1.183e+04 9.269e-10
 20.66236    -33.6 1.203e+04 9.704e-10
 20.67268    -34.2 1.190e+04 8.610e-10
 20.69243    -34.8 1.182e+04 8.290e-10
 20.71127    -35.3 1.185e+04 8.265e-10
 20.72114    -36.6 1.203e+04 9.154e-10
 20.73192    -37.1 1.205e+04 9.603e-10
 20.75166    -37.6 1.200e+04 9.986e-10
 20.77141    -38.0 1.193e+04 9.996e-10
 20.79116    -38.4 1.190e+04 9.372e-10
 20.81090    -38.9 1.193e+04 8.413e-10
 20.83065    -39.6 1.186e+04 7.471e-10
 20.84986    -40.3 1.162e+04 6.816e-10
 20.85973    -41.7 1.141e+04 6.870e-10
 20.87014    -42.3 1.121e+04 6.576e-10
 20.88988    -42.6 1.113e+04 6.552e-10
 20.90963    -42.9 1.111e+04 7.083e-10
 20.92937    -42.8 1.114e+04 7.886e-10
 20.94912    -42.6 1.110e+04 8.359e-10
 20.97884    -42.4 1.100e+04 8.502e-10
 21.01843    -41.3 1.091e+04 8.736e-10
 21.05792    -39.9 1.068e+04 7.992e-10
 21.09741    -38.2 1.024e+04 6.411e-10
 21.12723    -36.5 9.844e+03 4.899e-10
 21.14697    -37.5 9.626e+03 3.879e-10
 21.17639    -35.5 9.271e+03 3.015e-10
 21.21588    -33.2 8.934e+03 2.270e-10
 21.25537    -30.9 8.672e+03 1.654e-10
 21.29486    -28.9 8.547e+03 1.288e-10
 21.33435    -27.1 8.507e+03 1.196e-10
 21.37384    -25.3 8.555e+03 1.387e-10
 21.40440    -23.1 8.737e+03 1.975e-10
 21.42415    -23.1 8.495e+03 1.263e-10
 21.45283    -20.3 8.653e+03 1.526e-10
 21.49232    -17.4 8.678e+03 1.607e-10
 21.53181    -14.8 8.601e+03 1.551e-10
 21.56318    -12.3 8.533e+03 1.467e-10
 21.58293    -11.3 8.376e+03 1.440e-10
 21.61079     -9.1 8.331e+03 1.396e-10
 21.65028     -6.9 8.361e+03 1.582e-10
 21.68158     -4.5 8.465e+03 1.974e-10
 21.70132     -4.4 8.750e+03 2.674e-10
 21.72926     -1.0 9.261e+03 3.751e-10
 21.75879      1.0 9.408e+03 3.987e-10
 21.77843      1.6 9.451e+03 4.035e-10
 21.79818      2.9 9.406e+03 4.217e-10
 21.81792      3.6 9.446e+03 4.444e-10
 21.82984      4.5 9.422e+03 4.507e-10
 21.83971      4.4 9.976e+03 5.562e-10
 21.85742      5.3 9.829e+03 5.886e-10
 21.87716      6.1 1.001e+04 6.069e-10
 21.89691      6.7 1.018e+04 6.423e-10
 21.91665      7.1 1.033e+04 7.031e-10
 21.93640      7.7 1.045e+04 7.579e-10
 21.95614      8.4 1.054e+04 8.079e-10
 21.96843      9.2 1.054e+04 8.469e-10
 21.97830      8.8 1.089e+04 9.708e-10
 21.99563      9.5 1.082e+04 9.505e-10
 22.01538     10.1 1.066e+04 9.151e-10
 22.02811     10.7 1.044e+04 8.369e-10
 22.03799     10.7 1.080e+04 9.615e-10
 22.05487     11.2 1.051e+04 8.670e-10
 22.07462     11.7 1.031e+04 7.749e-10
 22.09436     12.0 1.025e+04 7.135e-10
 22.10701     12.1 1.031e+04 6.789e-10
 22.11689     11.4 1.076e+04 8.050e-10
 22.13385     11.1 1.068e+04 7.771e-10
 22.15360     10.8 1.067e+04 8.121e-10
 22.17334     10.3 1.085e+04 9.531e-10
 22.19309      9.7 1.135e+04 1.240e-09
 22.21284      9.3 1.198e+04 1.696e-09
 22.23258      9.5 1.251e+04 2.261e-09
 22.24560      9.5 1.310e+04 2.916e-09
 22.25548      9.9 1.317e+04 2.359e-09
 22.27207      7.7 1.526e+04 3.490e-09
 22.29182      3.2 1.840e+04 6.540e-09
 22.31156      0.2 1.853e+04 1.014e-08
 22.33131      0.8 1.769e+04 1.526e-08
 22.35105      2.5 1.717e+04 1.753e-08
 22.37080      5.0 1.709e+04 1.473e-08
 22.38419      6.0 1.779e+04 9.552e-09
 22.39406      5.6 1.784e+04 1.020e-08
 22.41029      3.3 1.887e+04 6.236e-09
 22.43004     -1.3 1.670e+04 3.646e-09
 22.44978     -4.2 1.382e+04 2.607e-09
 22.46953     -3.9 1.317e+04 2.243e-09
 22.48337     -3.0 1.291e+04 1.837e-09
 22.49324     -3.8 1.241e+04 1.646e-09
 22.51300     -4.9 1.107e+04 9.688e-10
 22.53285     -2.5 1.163e+04 1.106e-09
 22.55858     -2.0 1.023e+04 4.870e-10
 22.59807     -1.6 9.313e+03 2.314e-10
 22.63756     -1.2 8.750e+03 1.450e-10
 22.67705     -0.1 8.369e+03 1.130e-10
 22.71654      1.6 8.132e+03 1.081e-10
 22.75603      3.6 8.126e+03 1.156e-10
 22.79027      5.7 8.247e+03 1.237e-10
 22.81002      6.5 8.374e+03 1.274e-10
 22.83502      8.4 8.421e+03 1.285e-10
 22.87451     10.6 8.309e+03 1.359e-10
 22.91400     13.1 8.212e+03 1.286e-10
 22.95349     15.6 8.105e+03 1.060e-10
 22.99298     17.7 8.050e+03 8.344e-11
 23.03247     19.7 7.988e+03 6.586e-11
 23.06745     21.5 7.869e+03 5.492e-11
 23.08719     22.3 7.723e+03 5.040e-11
 23.11145     24.2 7.625e+03 4.706e-11
 23.15094     26.3 7.628e+03 4.808e-11
 23.19044     28.2 7.670e+03 5.336e-11
 23.22993     30.5 7.704e+03 6.683e-11
 23.26942     33.1 7.716e+03 8.563e-11
 23.30891     35.8 7.835e+03 1.012e-10
 23.34462     38.5 7.955e+03 1.096e-10
 23.36437     38.9 8.143e+03 1.280e-10
 23.38419     41.3 8.280e+03 1.443e-10
 23.40394     41.3 8.415e+03 1.592e-10
 23.42738     43.5 8.597e+03 1.845e-10
 23.46687     45.7 8.779e+03 2.212e-10
 23.50636     48.1 8.970e+03 2.712e-10
 23.54586     50.7 9.123e+03 3.189e-10
 23.58535     53.2 9.189e+03 3.346e-10
 23.62180     55.6 9.184e+03 3.278e-10
 23.64154     56.0 9.207e+03 3.377e-10
 23.66433     58.1 9.136e+03 3.023e-10
 23.70382     60.1 9.161e+03 2.993e-10
 23.74331     62.1 9.216e+03 3.082e-10
 23.78280     64.0 9.341e+03 3.401e-10
 23.82229     65.9 9.454e+03 3.843e-10
 23.86178     67.7 9.442e+03 3.940e-10
 23.89897     69.5 9.384e+03 3.818e-10
 23.91872     69.7 9.459e+03 4.252e-10
 23.94077     71.5 9.364e+03 4.167e-10
 23.98026     73.5 9.294e+03 4.040e-10
 24.00978     74.6 9.218e+03 3.881e-10
 24.02943     75.3 9.171e+03 3.726e-10
 24.05914     76.8 9.216e+03 3.826e-10
 24.09873     78.4 9.218e+03 3.796e-10
 24.12825     79.4 9.265e+03 4.023e-10
 24.14790     80.2 9.283e+03 4.100e-10
 24.16764     80.8 9.284e+03 4.131e-10
 24.18583     81.5 9.305e+03 4.254e-10
 24.19570     81.6 9.471e+03 4.712e-10
 24.20714     82.1 9.578e+03 5.002e-10
 24.22688     82.4 9.816e+03 5.655e-10
 24.24663     82.5 1.027e+04 6.968e-10
 24.26637     82.6 1.094e+04 9.295e-10
 24.28612     82.6 1.167e+04 1.290e-09
 24.30438     82.7 1.229e+04 1.759e-09
 24.31425     84.2 1.111e+04 1.012e-09
 24.32441     84.4 1.164e+04 1.326e-09
 24.33429     83.7 1.221e+04 1.597e-09
 24.34535     84.1 1.255e+04 2.002e-09
 24.36510     84.8 1.251e+04 2.252e-09
 24.38485     85.7 1.244e+04 2.236e-09
 24.40459     86.6 1.226e+04 2.117e-09
 24.42434     87.6 1.200e+04 1.860e-09
 24.44408     88.5 1.170e+04 1.520e-09
 24.46300     89.1 1.142e+04 1.238e-09
 24.47287     88.7 1.143e+04 1.305e-09
 24.48357     89.1 1.119e+04 1.051e-09
 24.50332     89.3 1.088e+04 8.567e-10
 24.52306     89.6 1.060e+04 7.904e-10
 24.54281     89.9 1.060e+04 7.964e-10
 24.56256     90.3 1.059e+04 8.132e-10
 24.58230     90.6 1.069e+04 8.729e-10
 24.60159     90.9 1.081e+04 9.601e-10
 24.61146     89.8 1.109e+04 1.101e-09
 24.62179     90.2 1.120e+04 1.215e-09
 24.64154     90.6 1.126e+04 1.265e-09
 24.66128     91.0 1.142e+04 1.311e-09
 24.68103     91.0 1.189e+04 1.399e-09
 24.70077     90.7 1.273e+04 1.492e-09
 24.72052     90.5 1.308e+04 1.485e-09
 24.74018     90.3 1.316e+04 1.417e-09
 24.75954     87.9 1.364e+04 1.988e-09
 24.76950     86.9 1.315e+04 1.695e-09
 24.77976     88.0 1.218e+04 1.589e-09
 24.80947     89.8 1.158e+04 1.562e-09
 24.84906     92.0 1.075e+04 1.175e-09
 24.88855     94.4 1.014e+04 8.208e-10
 24.92804     96.8 9.654e+03 5.291e-10
 24.96753     99.1 9.258e+03 3.270e-10
 25.00703    101.3 8.905e+03 2.061e-10
 25.02742    103.3 8.530e+03 1.413e-10
 25.04716    101.8 7.802e+03 1.111e-10
 25.08601    104.3 7.677e+03 9.575e-11
 25.12550    107.1 7.687e+03 9.378e-11
 25.16499    109.9 7.696e+03 9.425e-11
 25.20448    112.6 7.736e+03 9.689e-11
 25.22495    115.3 7.837e+03 1.058e-10
 25.24469    114.1 8.418e+03 1.821e-10
 25.28346    116.7 8.693e+03 2.209e-10
 25.30459    119.4 9.051e+03 2.742e-10
 25.32434    118.4 9.481e+03 3.709e-10
 25.35247    119.8 9.511e+03 3.778e-10
 25.37212    121.3 9.560e+03 3.837e-10
 25.39187    122.8 9.730e+03 4.139e-10
 25.41161    123.9 9.967e+03 4.732e-10
 25.43136    125.0 1.014e+04 5.409e-10
 25.44299    126.1 1.026e+04 6.088e-10
 25.45286    125.5 1.038e+04 6.679e-10
 25.47085    126.5 1.044e+04 7.146e-10
 25.49060    127.5 1.053e+04 7.533e-10
 25.51034    128.6 1.065e+04 7.875e-10
 25.53009    129.5 1.078e+04 8.157e-10
 25.54983    130.5 1.091e+04 8.386e-10
 25.56958    131.5 1.106e+04 8.552e-10
 25.58157    132.5 1.123e+04 8.595e-10
 25.59145    131.4 1.112e+04 7.497e-10
 25.60907    132.3 1.125e+04 7.461e-10
 25.62881    133.2 1.134e+04 7.424e-10
 25.64856    134.1 1.137e+04 7.358e-10
 25.66831    135.0 1.144e+04 7.091e-10
 25.68001    135.9 1.144e+04 6.668e-10
 25.68988    134.5 1.094e+04 5.294e-10
 25.70780    135.2 1.082e+04 4.939e-10
 25.72016    135.8 1.067e+04 4.649e-10
 25.73003    134.9 1.054e+04 4.584e-10
 25.74729    135.8 1.039e+04 4.304e-10
 25.76703    136.5 1.024e+04 4.050e-10
 25.78678    137.4 1.008e+04 3.753e-10
 25.80652    138.2 9.933e+03 3.515e-10
 25.82627    139.4 9.800e+03 3.300e-10
 25.84602    140.1 9.630e+03 3.114e-10
 25.85885    142.2 9.696e+03 3.045e-10
 25.87869    141.7 9.421e+03 2.699e-10
 25.91532    144.0 9.389e+03 2.621e-10
 25.95481    146.4 9.403e+03 2.640e-10
 25.99430    148.6 9.506e+03 2.756e-10
 26.03379    150.6 9.696e+03 2.997e-10
 26.07328    152.4 9.867e+03 3.286e-10
 26.11278    154.1 9.959e+03 3.523e-10
 26.13545    155.7 9.971e+03 3.646e-10
 26.13905    155.1 9.978e+03 3.497e-10
 26.15586    155.2 9.607e+03 2.769e-10
 26.19176    157.2 9.645e+03 2.884e-10
 26.23125    159.3 9.674e+03 2.983e-10
 26.27074    161.5 9.708e+03 3.076e-10
 26.31023    163.7 9.760e+03 3.185e-10
 26.34972    166.0 9.837e+03 3.327e-10
 26.38921    168.3 9.946e+03 3.501e-10
 26.41329    170.5 1.004e+04 3.694e-10
 26.43304    171.0 9.950e+03 3.465e-10
 26.46820    172.8 1.005e+04 3.719e-10
 26.49772    174.7 1.020e+04 4.202e-10
 26.51736    176.4 1.039e+04 4.809e-10
 26.53711    177.9 1.060e+04 5.440e-10
 26.55169    179.2 1.079e+04 6.020e-10
 26.56156    179.2 1.077e+04 6.194e-10
 26.57660    180.4 1.096e+04 6.912e-10
 26.59051    181.9 1.116e+04 7.606e-10
 26.60038    182.1 1.105e+04 7.623e-10
 26.61609    183.8 1.126e+04 8.535e-10
 26.63584    184.9 1.157e+04 9.675e-10
 26.65558    184.8 1.224e+04 1.191e-09
 26.67533    183.6 1.396e+04 1.887e-09
 26.69027    181.7 1.605e+04 3.759e-09
 26.70015    180.4 1.660e+04 5.691e-09
 26.71482    178.7 1.835e+04 1.107e-08
 26.72958    177.9 1.894e+04 1.444e-08
 26.73940    177.1 1.936e+04 1.688e-08
 26.74928    176.1 1.978e+04 1.828e-08
 26.75915    174.7 1.999e+04 1.826e-08
 26.76441    173.2 2.021e+04 1.737e-08
 26.76934    171.3 2.180e+04 1.664e-08
 26.77890    169.6 2.287e+04 1.316e-08
 26.79375    168.4 2.408e+04 9.935e-09
 26.81355    162.9 2.406e+04 4.524e-09
 26.82886    154.0 2.011e+04 2.344e-09
 26.83873    146.3 1.887e+04 4.500e-09
 26.85304    143.5 1.645e+04 4.948e-09
 26.87278    143.5 1.584e+04 5.632e-09
 26.89253    143.8 1.573e+04 6.365e-09
 26.91228    143.9 1.581e+04 6.356e-09
 26.93202    143.8 1.584e+04 5.920e-09
 26.95177    143.4 1.632e+04 5.355e-09
 26.96745    141.9 1.668e+04 5.319e-09
 26.97732    141.8 1.864e+04 8.104e-09
 26.99126    139.9 2.033e+04 8.324e-09
 27.01100    137.6 2.190e+04 8.227e-09
 27.03075    134.8 2.234e+04 7.330e-09
 27.04576    132.0 2.141e+04 5.422e-09
 27.05559    131.9 2.647e+04 1.336e-08
 27.06521    129.9 2.534e+04 1.074e-08
 27.07508    127.7 2.458e+04 8.098e-09
 27.08994    124.4 2.734e+04 4.957e-09
 27.10604    119.6 2.938e+04 2.113e-09
 27.11586    115.3 3.864e+04 2.067e-09
 27.12444    113.3 3.558e+04 1.985e-09
 27.13432    111.2 3.145e+04 1.898e-09
 27.14917    107.2 2.469e+04 5.097e-09
 27.16897    103.5 2.138e+04 6.584e-09
 27.18871    100.9 1.948e+04 1.287e-08
 27.20347     99.8 1.992e+04 1.970e-08
 27.21330     99.2 2.038e+04 3.044e-08
 27.22317     98.8 2.064e+04 4.802e-08
 27.23304     98.7 2.092e+04 6.991e-08
 27.24292     99.0 2.109e+04 9.332e-08
 27.24946     99.3 2.146e+04 1.090e-07
 27.25440     98.5 2.207e+04 1.346e-07
 27.26266     98.6 2.202e+04 1.258e-07
 27.27253     99.0 2.183e+04 1.002e-07
 27.27823     99.7 2.156e+04 7.063e-08
 27.28316    100.0 2.158e+04 5.340e-08
 27.29228    100.0 2.145e+04 3.468e-08
 27.30215     99.7 2.106e+04 2.274e-08
 27.31202     99.3 2.035e+04 1.537e-08
 27.32688     98.9 1.913e+04 1.164e-08
 27.34668     98.7 1.769e+04 7.399e-09
 27.36642     97.9 1.603e+04 4.637e-09
 27.38321     96.8 1.438e+04 3.200e-09
 27.39308     94.5 1.245e+04 1.963e-09
 27.40591     95.1 1.209e+04 1.763e-09
 27.42566     96.3 1.203e+04 1.630e-09
 27.44541     97.5 1.199e+04 1.501e-09
 27.46515     98.5 1.188e+04 1.370e-09
 27.48490     99.8 1.164e+04 1.188e-09
 27.50102    100.3 1.138e+04 1.061e-09
 27.51089    100.6 1.150e+04 1.076e-09
 27.52190    102.5 1.151e+04 1.055e-09
 27.54174    102.1 1.064e+04 7.123e-10
 27.57395    104.3 1.016e+04 5.402e-10
 27.61344    106.1 9.829e+03 4.339e-10
 27.65293    107.7 9.576e+03 3.651e-10
 27.69242    109.2 9.370e+03 3.049e-10
 27.73191    110.7 9.161e+03 2.563e-10
 27.77140    112.0 9.019e+03 2.339e-10
 27.79917    113.3 9.097e+03 2.421e-10
 27.81891    113.8 9.907e+03 4.100e-10
 27.84041    114.3 9.781e+03 3.746e-10
 27.86006    114.3 9.884e+03 3.822e-10
 27.87981    113.7 1.032e+04 4.436e-10
 27.89955    112.7 1.098e+04 5.962e-10
 27.91930    111.7 1.155e+04 8.467e-10
 27.93756    111.2 1.197e+04 1.174e-09
 27.94743    110.5 1.252e+04 1.683e-09
 27.95627    110.5 1.262e+04 1.925e-09
 27.96614    110.0 1.281e+04 2.059e-09
 27.97853    110.1 1.265e+04 2.143e-09
 27.99828    110.2 1.276e+04 2.079e-09
 28.01803    110.0 1.283e+04 1.875e-09
 28.03777    109.3 1.289e+04 1.616e-09
 28.05752    108.1 1.290e+04 1.417e-09
 28.07615    106.5 1.265e+04 1.330e-09
 28.08602    104.1 1.134e+04 9.271e-10
 28.09701    103.2 1.115e+04 9.495e-10
 28.11675    102.7 1.102e+04 1.014e-09
 28.13650    102.5 1.106e+04 1.064e-09
 28.15624    102.2 1.117e+04 1.057e-09
 28.17599    101.7 1.121e+04 1.036e-09
 28.19574    100.8 1.129e+04 9.718e-10
 28.21473     99.5 1.135e+04 9.192e-10
 28.22461     99.0 1.079e+04 6.920e-10
 28.23523     97.5 1.083e+04 6.998e-10
 28.25497     95.8 1.097e+04 7.469e-10
 28.27472     94.3 1.123e+04 8.666e-10
 28.29446     92.9 1.156e+04 1.055e-09
 28.31421     91.8 1.187e+04 1.288e-09
 28.33395     91.1 1.210e+04 1.517e-09
 28.35332     90.8 1.224e+04 1.691e-09
 28.36319     91.5 1.189e+04 1.429e-09
 28.37345     91.3 1.200e+04 1.513e-09
 28.39319     91.4 1.203e+04 1.513e-09
 28.41152     91.6 1.201e+04 1.479e-09
 28.42139     92.9 1.198e+04 1.506e-09
 28.43268     93.1 1.198e+04 1.500e-09
 28.45243     93.3 1.192e+04 1.446e-09
 28.47217     93.7 1.175e+04 1.315e-09
 28.49191     94.2 1.152e+04 1.145e-09
 28.51166     95.2 1.128e+04 9.804e-10
 28.53141     95.7 1.114e+04 8.584e-10
 28.55116     96.2 1.109e+04 7.478e-10
 28.57090     96.7 1.117e+04 6.916e-10
 28.59065     97.2 1.112e+04 6.498e-10
 28.61039     97.7 1.114e+04 6.497e-10
 28.63014     98.4 1.108e+04 6.448e-10
 28.64037     99.2 1.107e+04 6.500e-10
 28.65024     99.3 1.123e+04 7.466e-10
 28.66963    100.1 1.117e+04 7.585e-10
 28.68937    101.0 1.114e+04 7.921e-10
 28.70912    102.0 1.125e+04 8.473e-10
 28.72887    103.0 1.145e+04 9.312e-10
 28.74861    104.0 1.170e+04 1.046e-09
 28.76836    104.9 1.194e+04 1.190e-09
 28.77896    105.8 1.216e+04 1.388e-09
 28.78883    105.5 1.216e+04 1.397e-09
 28.80785    106.2 1.242e+04 1.688e-09
 28.82759    106.9 1.290e+04 2.186e-09
 28.84734    107.9 1.379e+04 3.054e-09
 28.86677    109.0 1.482e+04 4.293e-09
 28.87665    109.0 1.475e+04 3.713e-09
 28.88683    109.7 1.545e+04 4.753e-09
 28.90159    109.5 1.566e+04 5.285e-09
 28.91141    109.3 1.597e+04 5.987e-09
 28.91745    109.2 1.644e+04 7.094e-09
 28.92238    108.6 1.593e+04 6.125e-09
 28.93116    108.2 1.648e+04 7.228e-09
 28.94103    107.3 1.734e+04 8.927e-09
 28.95091    106.0 1.846e+04 1.133e-08
 28.96078    104.6 1.962e+04 1.418e-08
 28.97065    103.3 2.073e+04 1.697e-08
 28.98052    102.1 2.168e+04 1.837e-08
 28.98674    100.8 2.191e+04 1.830e-08
 28.99168    100.6 2.077e+04 1.339e-08
 29.00027     99.2 2.066e+04 1.261e-08
 29.01014     98.4 2.037e+04 1.181e-08
 29.02500     97.1 2.030e+04 1.137e-08
 29.04479     95.4 1.901e+04 7.330e-09
 29.05613     92.6 1.677e+04 3.890e-09
 29.06600     92.1 1.561e+04 3.398e-09
 29.08429     89.2 1.356e+04 2.300e-09
 29.10403     87.4 1.275e+04 1.929e-09
 29.12378     86.7 1.269e+04 1.874e-09
 29.14352     86.3 1.269e+04 1.847e-09
 29.16327     85.9 1.266e+04 1.790e-09
 29.18301     85.4 1.249e+04 1.672e-09
 29.19472     85.0 1.215e+04 1.486e-09
 29.20459     85.2 1.210e+04 1.416e-09
 29.22250     85.1 1.161e+04 1.147e-09
 29.24225     85.0 1.110e+04 8.894e-10
 29.26200     84.9 1.063e+04 6.708e-10
 29.28174     84.7 1.022e+04 5.006e-10
 29.30149     84.4 9.916e+03 3.812e-10
 29.32123     83.8 9.710e+03 3.088e-10
 29.33190     83.2 9.647e+03 2.908e-10
 29.33410     82.2 9.609e+03 2.863e-10
 29.34318     82.2 9.672e+03 2.917e-10
 29.36072     82.3 9.699e+03 2.962e-10
 29.39044     82.8 9.698e+03 3.037e-10
 29.43003     83.7 9.820e+03 3.457e-10
 29.46222     84.8 9.935e+03 3.973e-10
 29.48196     85.2 9.973e+03 3.954e-10
 29.49904     85.8 1.004e+04 4.311e-10
 29.51869     86.4 1.007e+04 4.537e-10
 29.53843     87.3 1.021e+04 4.568e-10
 29.55818     87.9 1.022e+04 4.532e-10
 29.57792     88.7 1.026e+04 4.402e-10
 29.59767     89.2 1.024e+04 4.158e-10
 29.62739     91.0 1.028e+04 4.092e-10
 29.66697     92.5 1.017e+04 3.594e-10
 29.70647     93.9 1.000e+04 3.078e-10
 29.73939     95.5 9.850e+03 2.684e-10
 29.75914     96.2 9.755e+03 2.508e-10
 29.77747     97.9 9.695e+03 2.450e-10
 29.79722     96.6 1.015e+04 3.240e-10
 29.82494     98.4 1.008e+04 3.159e-10
 29.86443    100.2 1.004e+04 3.140e-10
 29.90392    101.7 1.004e+04 3.184e-10
 29.94341    103.0 1.009e+04 3.436e-10
 29.98290    104.2 1.025e+04 4.081e-10
 30.01657    105.3 1.040e+04 4.892e-10
 30.03631    106.0 1.029e+04 4.803e-10
 30.06189    107.1 1.036e+04 4.976e-10
 30.10138    108.1 1.037e+04 4.801e-10
 30.14087    109.1 1.032e+04 4.374e-10
 30.18036    110.1 1.030e+04 3.854e-10
 30.21985    111.2 1.031e+04 3.495e-10
 30.25934    112.2 1.033e+04 3.172e-10
 30.29374    113.2 1.039e+04 3.051e-10
 30.31349    113.9 1.059e+04 3.693e-10
 30.33832    114.8 1.107e+04 4.842e-10
 30.37781    115.9 1.140e+04 6.228e-10
 30.41730    117.3 1.161e+04 7.585e-10
 30.45680    118.9 1.179e+04 8.940e-10
 30.49629    120.5 1.199e+04 1.043e-09
 30.53578    122.3 1.226e+04 1.223e-09
 30.57092    123.9 1.252e+04 1.400e-09
 30.59066    124.2 1.294e+04 1.700e-09
 30.60479    124.7 1.314e+04 1.823e-09
 30.62444    125.2 1.324e+04 1.859e-09
 30.64418    125.5 1.328e+04 1.855e-09
 30.66393    125.7 1.327e+04 1.810e-09
 30.68367    126.0 1.323e+04 1.702e-09
 30.69766    126.4 1.316e+04 1.594e-09
 30.70753    126.0 1.318e+04 1.743e-09
 30.71918    126.4 1.304e+04 1.595e-09
 30.72905    125.6 1.342e+04 1.871e-09
 30.74291    126.3 1.325e+04 1.751e-09
 30.76266    127.0 1.317e+04 1.693e-09
 30.78240    127.9 1.313e+04 1.670e-09
 30.80215    128.9 1.315e+04 1.653e-09
 30.82189    129.9 1.317e+04 1.651e-09
 30.84164    130.6 1.317e+04 1.630e-09
 30.85777    131.3 1.319e+04 1.654e-09
 30.86764    130.9 1.342e+04 1.856e-09
 30.88113    131.5 1.340e+04 1.867e-09
 30.90088    132.3 1.336e+04 1.867e-09
 30.92062    133.1 1.328e+04 1.848e-09
 30.94037    133.9 1.316e+04 1.787e-09
 30.96011    134.8 1.300e+04 1.690e-09
 30.97986    135.6 1.282e+04 1.569e-09
 30.99636    136.4 1.262e+04 1.436e-09
 31.00623    136.5 1.266e+04 1.439e-09
 31.01935    137.4 1.248e+04 1.333e-09
 31.03909    138.3 1.231e+04 1.233e-09
 31.05884    139.2 1.215e+04 1.142e-09
 31.07859    140.1 1.201e+04 1.040e-09
 31.09833    140.6 1.192e+04 9.857e-10
 31.11808    141.3 1.173e+04 8.760e-10
 31.13494    141.8 1.157e+04 7.951e-10
 31.14491    141.5 1.236e+04 1.052e-09
 31.16764    142.7 1.236e+04 9.739e-10
 31.20713    143.9 1.218e+04 9.493e-10
 31.24662    145.1 1.194e+04 9.320e-10
 31.28611    146.5 1.170e+04 9.066e-10
 31.32560    147.9 1.144e+04 8.814e-10
 31.36509    149.3 1.122e+04 8.665e-10
 31.40244    151.0 1.104e+04 8.344e-10
 31.42219    150.0 1.114e+04 8.505e-10
 31.44407    152.1 1.088e+04 7.682e-10
 31.47359    153.0 1.079e+04 7.234e-10
 31.49324    153.8 1.074e+04 6.928e-10
 31.51299    154.5 1.071e+04 6.662e-10
 31.53273    155.1 1.068e+04 6.320e-10
 31.55071    155.5 1.061e+04 5.924e-10
 31.56058    154.2 1.032e+04 5.087e-10
 31.57222    154.3 1.012e+04 4.871e-10
 31.59197    154.4 1.002e+04 4.898e-10
 31.60816    154.4 9.994e+03 5.034e-10
 31.61803    152.5 9.641e+03 4.236e-10
 31.63146    152.7 9.645e+03 4.565e-10
 31.65121    153.0 9.689e+03 5.000e-10
 31.67095    153.2 9.748e+03 5.410e-10
 31.68929    153.4 9.776e+03 5.528e-10
 31.69917    152.6 9.648e+03 5.172e-10
 31.71044    152.7 9.559e+03 5.007e-10
 31.73019    152.8 9.474e+03 4.735e-10
 31.74993    152.5 9.455e+03 4.454e-10
 31.76968    151.9 9.406e+03 4.225e-10
 31.78943    150.6 9.531e+03 4.005e-10
 31.80917    149.0 1.021e+04 4.019e-10
 31.82788    147.2 1.155e+04 4.731e-10
 31.83775    143.0 1.358e+04 1.218e-09
 31.84866    142.3 1.398e+04 1.798e-09
 31.86841    141.9 1.427e+04 2.438e-09
 31.88815    141.8 1.449e+04 3.061e-09
 31.90790    141.7 1.470e+04 3.552e-09
 31.92764    141.5 1.487e+04 3.788e-09
 31.94739    141.2 1.494e+04 3.743e-09
 31.96647    140.8 1.485e+04 3.634e-09
 31.97634    137.4 1.490e+04 3.320e-09
 31.98688    136.6 1.446e+04 2.766e-09
 32.00663    135.8 1.388e+04 2.265e-09
 32.02637    134.9 1.326e+04 1.919e-09
 32.04612    134.2 1.277e+04 1.734e-09
 32.06341    133.6 1.254e+04 1.605e-09
 32.07329    133.5 1.193e+04 1.170e-09
 32.08561    133.0 1.170e+04 1.145e-09
 32.10506    132.9 1.172e+04 1.186e-09
 32.11493    131.3 1.200e+04 1.474e-09
 32.12510    131.5 1.213e+04 1.585e-09
 32.14484    131.7 1.223e+04 1.679e-09
 32.16459    131.9 1.228e+04 1.730e-09
 32.18434    132.0 1.228e+04 1.711e-09
 32.20408    132.0 1.224e+04 1.649e-09
 32.22383    131.8 1.211e+04 1.514e-09
 32.24357    131.4 1.189e+04 1.335e-09
 32.26332    129.1 1.161e+04 1.097e-09
 32.28306    128.2 1.126e+04 9.519e-10
 32.30281    127.4 1.089e+04 8.313e-10
 32.32255    126.9 1.058e+04 7.395e-10
 32.34230    126.6 1.038e+04 6.964e-10
 32.36205    126.3 1.037e+04 6.779e-10
 32.38179    126.1 1.045e+04 6.856e-10
 32.39210    125.7 1.071e+04 7.201e-10
 32.40198    123.2 1.152e+04 9.464e-10
 32.42128    122.1 1.218e+04 1.163e-09
 32.44103    120.8 1.287e+04 1.537e-09
 32.46077    119.8 1.346e+04 2.084e-09
 32.48052    119.0 1.386e+04 2.744e-09
 32.50026    118.6 1.405e+04 3.308e-09
 32.51867    118.4 1.421e+04 3.530e-09
 32.52854    118.8 1.396e+04 3.178e-09
 32.53069    118.7 1.397e+04 3.165e-09
 32.54056    117.3 1.362e+04 3.057e-09
 32.55950    117.4 1.315e+04 2.495e-09
 32.57925    117.3 1.261e+04 1.789e-09
 32.59899    116.8 1.196e+04 1.174e-09
 32.61874    115.8 1.124e+04 7.613e-10
 32.63848    114.3 1.059e+04 5.444e-10
 32.65823    112.7 1.023e+04 4.718e-10
 32.66928    111.2 1.031e+04 5.022e-10
 32.67915    108.8 1.021e+04 4.800e-10
 32.69772    107.6 1.056e+04 5.854e-10
 32.71747    106.5 1.088e+04 7.336e-10
 32.73721    105.5 1.107e+04 8.579e-10
 32.75696    104.5 1.108e+04 8.687e-10
 32.77670    103.6 1.103e+04 8.324e-10
 32.79645    102.7 1.090e+04 7.341e-10
 32.80787    101.6 1.074e+04 6.094e-10
 32.81774     99.7 1.054e+04 4.878e-10
 32.83594     98.1 1.038e+04 4.084e-10
 32.85568     96.4 1.031e+04 3.944e-10
 32.87543     94.8 1.035e+04 4.125e-10
 32.89518     93.3 1.052e+04 4.739e-10
 32.91492     92.0 1.078e+04 5.818e-10
 32.93467     91.1 1.104e+04 7.112e-10
 32.94645     90.4 1.125e+04 8.230e-10
 32.95633     89.3 1.116e+04 7.977e-10
 32.97392     88.7 1.119e+04 7.669e-10
 32.98379     88.9 1.107e+04 6.939e-10
 32.99390     88.1 1.112e+04 6.322e-10
 33.01365     86.8 1.112e+04 5.078e-10
 33.03339     85.1 1.103e+04 3.906e-10
 33.05314     83.2 1.088e+04 3.340e-10
 33.07289     81.3 1.080e+04 3.292e-10
 33.08504     79.7 1.079e+04 3.463e-10
 33.09491     78.0 1.078e+04 3.485e-10
 33.11238     76.8 1.086e+04 4.297e-10
 33.13212     75.8 1.102e+04 5.424e-10
 33.15187     74.8 1.118e+04 6.493e-10
 33.17161     73.8 1.113e+04 6.873e-10
 33.19136     72.5 1.107e+04 6.555e-10
 33.21110     71.2 1.095e+04 6.110e-10
 33.22363     69.8 1.078e+04 5.753e-10
 33.23350     68.4 1.053e+04 4.510e-10
 33.25060     67.3 1.040e+04 4.345e-10
 33.27034     66.5 1.033e+04 4.331e-10
 33.29009     65.7 1.030e+04 4.367e-10
 33.30983     65.1 1.026e+04 4.434e-10
 33.32958     64.5 1.023e+04 4.542e-10
 33.34932     64.0 1.020e+04 4.678e-10
 33.36222     63.6 1.020e+04 4.991e-10
 33.37209     63.3 1.004e+04 4.151e-10
 33.38881     63.0 1.006e+04 4.437e-10
 33.40856     62.7 1.020e+04 5.001e-10
 33.42831     62.2 1.043e+04 5.713e-10
 33.43904     61.7 1.069e+04 6.433e-10
 33.44892     62.2 1.048e+04 5.953e-10
 33.46780     61.6 1.077e+04 6.828e-10
 33.48754     60.8 1.108e+04 7.944e-10
 33.50080     59.8 1.146e+04 9.645e-10
 33.51068     60.2 1.131e+04 9.326e-10
 33.52703     59.2 1.174e+04 1.173e-09
 33.54678     58.3 1.223e+04 1.500e-09
 33.56652     57.2 1.273e+04 1.883e-09
 33.58627     56.0 1.316e+04 2.227e-09
 33.60602     54.7 1.344e+04 2.466e-09
 33.62576     53.3 1.349e+04 2.454e-09
 33.63939     51.7 1.344e+04 2.296e-09
 33.64926     52.4 1.328e+04 2.211e-09
 33.66525     50.4 1.301e+04 1.899e-09
 33.69497     49.2 1.237e+04 1.449e-09
 33.73456     46.7 1.106e+04 8.293e-10
 33.77405     45.2 1.004e+04 5.718e-10
 33.81354     45.3 9.993e+03 5.662e-10
 33.85303     45.6 1.002e+04 6.073e-10
 33.89252     46.3 1.019e+04 7.005e-10
 33.91676     47.0 1.063e+04 8.372e-10
 33.93651     49.2 9.835e+03 5.224e-10
 33.96153     49.6 1.018e+04 6.253e-10
 33.98118     50.1 1.032e+04 6.688e-10
 34.00093     50.2 1.047e+04 7.253e-10
 34.02067     50.2 1.063e+04 7.898e-10
 34.04042     50.1 1.080e+04 8.657e-10
 34.05515     50.1 1.100e+04 9.531e-10
 34.06503     51.2 1.053e+04 7.493e-10
 34.07991     51.1 1.082e+04 8.644e-10
 34.09965     50.9 1.112e+04 9.955e-10
 34.11940     50.6 1.143e+04 1.140e-09
 34.13915     50.3 1.174e+04 1.293e-09
 34.15889     49.8 1.202e+04 1.407e-09
 34.17864     49.2 1.218e+04 1.424e-09
 34.19374     48.3 1.220e+04 1.406e-09
 34.20361     50.1 1.219e+04 1.409e-09
 34.21813     49.2 1.220e+04 1.327e-09
 34.23787     47.9 1.218e+04 1.207e-09
 34.25762     46.1 1.222e+04 1.171e-09
 34.27736     43.6 1.235e+04 1.214e-09
 34.29711     40.5 1.284e+04 1.425e-09
 34.31685     37.3 1.353e+04 1.847e-09
 34.33233     34.6 1.389e+04 2.161e-09
 34.34220     35.8 1.456e+04 3.006e-09
 34.34955     33.4 1.453e+04 3.002e-09
 34.35942     33.3 1.527e+04 4.183e-09
 34.37609     31.4 1.497e+04 3.816e-09
 34.39584     29.8 1.425e+04 2.872e-09
 34.41558     28.0 1.338e+04 1.927e-09
 34.43533     25.9 1.259e+04 1.278e-09
 34.45507     23.6 1.200e+04 9.771e-10
 34.47091     21.9 1.184e+04 9.492e-10
 34.48079     23.1 1.187e+04 9.670e-10
 34.49456     22.1 1.189e+04 9.814e-10
 34.51431     21.0 1.209e+04 1.076e-09
 34.53406     19.4 1.266e+04 1.349e-09
 34.55380     17.7 1.339e+04 1.872e-09
 34.57355     16.3 1.398e+04 2.652e-09
 34.59329     15.6 1.439e+04 3.459e-09
 34.60950     15.3 1.458e+04 3.660e-09
 34.61937     16.7 1.456e+04 3.654e-09
 34.63278     16.5 1.457e+04 3.605e-09
 34.65253     16.3 1.448e+04 3.326e-09
 34.67227     16.2 1.417e+04 2.673e-09
 34.69202     15.8 1.373e+04 1.982e-09
 34.72174     14.4 1.313e+04 1.108e-09
 34.74828     13.8 1.252e+04 5.931e-10
 34.76803     16.6 1.323e+04 1.302e-09
 34.80082     16.5 1.299e+04 9.059e-10
 34.84031     16.5 1.242e+04 4.800e-10
 34.87980     15.8 1.109e+04 2.490e-10
 34.91929     14.7 1.054e+04 2.586e-10
 34.94881     13.8 1.081e+04 3.215e-10
 34.96846     13.1 1.096e+04 4.093e-10
 34.98820     12.6 1.163e+04 7.466e-10
 35.00795     12.9 1.183e+04 9.107e-10
 35.02536     12.3 1.273e+04 1.500e-09
 35.03523     13.5 1.240e+04 1.133e-09
 35.04744     12.9 1.287e+04 1.572e-09
 35.06719     12.4 1.324e+04 2.061e-09
 35.08693     12.0 1.349e+04 2.234e-09
 35.10668     11.6 1.349e+04 2.088e-09
 35.12642     10.4 1.377e+04 1.720e-09
 35.14617      7.1 1.412e+04 1.728e-09
 35.16385      2.0 1.471e+04 2.108e-09
 35.17372      2.3 1.542e+04 2.505e-09
 35.18566     -1.1 1.492e+04 3.592e-09
 35.20540     -1.4 1.460e+04 4.086e-09
 35.22515     -1.4 1.446e+04 3.769e-09
 35.24490     -1.9 1.456e+04 2.864e-09
 35.26005     -4.5 1.451e+04 2.006e-09
 35.26993     -4.5 1.416e+04 1.605e-09
 35.28439     -7.6 1.332e+04 1.211e-09
 35.30244    -10.0 1.277e+04 1.121e-09
 35.31231    -10.3 1.277e+04 1.122e-09
 35.32388    -11.5 1.272e+04 1.168e-09
 35.34362    -12.1 1.270e+04 1.158e-09
 35.36337    -12.2 1.247e+04 1.061e-09
 35.38311    -11.7 1.190e+04 7.640e-10
 35.40286    -12.4 1.181e+04 5.905e-10
 35.42261    -12.0 1.133e+04 4.051e-10
 35.44103    -12.7 1.135e+04 3.185e-10
 35.45090    -12.7 1.136e+04 3.178e-10
 35.47207    -12.2 1.097e+04 2.277e-10
 35.51166    -11.8 1.063e+04 1.555e-10
 35.55115    -11.0 1.034e+04 1.379e-10
 35.57981     -9.8 1.032e+04 1.433e-10
 35.59956     -9.7 1.038e+04 1.441e-10
 35.63013     -8.7 1.046e+04 1.762e-10
 35.66962     -7.5 1.060e+04 2.379e-10
 35.70911     -6.6 1.092e+04 3.525e-10
 35.74860     -6.0 1.138e+04 5.829e-10
 35.78809     -5.1 1.178e+04 8.636e-10
 35.82758     -4.4 1.179e+04 8.664e-10
 35.85698     -3.4 1.157e+04 7.209e-10
 35.87673     -2.8 1.161e+04 7.388e-10
 35.90657     -2.0 1.136e+04 5.280e-10
 35.94606     -1.6 1.108e+04 3.403e-10
 35.98555     -1.2 1.073e+04 2.117e-10
 36.02504     -0.7 1.039e+04 1.579e-10
 36.06453      0.2 1.038e+04 1.401e-10
 36.10402      1.3 1.040e+04 1.406e-10
 36.13416      2.3 1.050e+04 1.516e-10
 36.15390      2.6 1.051e+04 1.511e-10
 36.17075      3.5 1.062e+04 1.846e-10
 36.19050      4.1 1.068e+04 2.161e-10
 36.22250      4.9 1.085e+04 2.823e-10
 36.26199      5.6 1.108e+04 3.693e-10
 36.30148      6.2 1.132e+04 4.634e-10
 36.34097      6.4 1.160e+04 6.076e-10
 36.38046      6.4 1.209e+04 8.788e-10
 36.41133      6.2 1.256e+04 1.104e-09
 36.43108      6.1 1.220e+04 8.811e-10
 36.44947      6.3 1.220e+04 8.943e-10
 36.46912      6.7 1.214e+04 7.923e-10
 36.48887      6.9 1.222e+04 6.343e-10
 36.50861      6.6 1.243e+04 4.848e-10
 36.52836      5.5 1.248e+04 4.181e-10
 36.54810      4.0 1.241e+04 4.246e-10
 36.55960      2.6 1.215e+04 4.677e-10
 36.56947      3.5 1.210e+04 4.646e-10
 36.58759      3.2 1.182e+04 5.508e-10
 36.61731      3.5 1.195e+04 7.741e-10
 36.65690      3.9 1.196e+04 7.567e-10
 36.68851      3.5 1.196e+04 7.011e-10
 36.70825      4.1 1.203e+04 7.595e-10
 36.73588      2.7 1.207e+04 8.403e-10
 36.77537      2.1 1.190e+04 8.972e-10
 36.81486      2.5 1.163e+04 7.908e-10
 36.85435      2.9 1.132e+04 5.863e-10
 36.89384      2.7 1.110e+04 4.397e-10
 36.93334      2.7 1.094e+04 4.123e-10
 36.96568      3.0 1.090e+04 4.357e-10
 36.98543      2.7 1.057e+04 3.814e-10
 37.01232      3.7 1.053e+04 4.052e-10
 37.05181      4.7 1.055e+04 4.341e-10
 37.08126      5.7 1.060e+04 4.569e-10
 37.10100      6.1 1.060e+04 4.313e-10
 37.13079      6.6 1.061e+04 4.257e-10
 37.17028      7.4 1.055e+04 3.928e-10
 37.20977      8.7 1.035e+04 3.199e-10
 37.24286     10.2 1.004e+04 2.123e-10
 37.26260     10.3 9.919e+03 1.819e-10
 37.28875     11.3 9.793e+03 1.126e-10
 37.32825     12.0 9.584e+03 8.429e-11
 37.36774     13.2 9.485e+03 8.314e-11
 37.40723     14.7 9.494e+03 8.671e-11
 37.44672     16.3 9.580e+03 1.015e-10
 37.48621     17.7 9.769e+03 1.360e-10
 37.52003     19.0 1.009e+04 2.092e-10
 37.53978     18.3 1.008e+04 2.090e-10
 37.56519     19.5 1.043e+04 3.330e-10
 37.60468     20.6 1.074e+04 4.760e-10
 37.64417     21.6 1.099e+04 5.747e-10
 37.68367     22.3 1.109e+04 5.806e-10
 37.72316     22.9 1.109e+04 5.667e-10
 37.76265     23.7 1.109e+04 5.470e-10
 37.79721     24.4 1.124e+04 5.717e-10
 37.81695     24.2 1.075e+04 4.332e-10
 37.84163     24.9 1.118e+04 6.231e-10
 37.88112     25.8 1.181e+04 9.509e-10
 37.92061     26.8 1.232e+04 1.296e-09
 37.96010     27.5 1.248e+04 1.381e-09
 37.99176     28.1 1.237e+04 1.300e-09
 38.01151     28.9 1.243e+04 1.359e-09
 38.03909     29.9 1.205e+04 1.076e-09
 38.07438     31.1 1.152e+04 6.980e-10
 38.09413     31.0 1.128e+04 6.578e-10
 38.11807     31.8 1.093e+04 4.097e-10
 38.15756     32.5 1.055e+04 2.814e-10
 38.19705     33.5 1.029e+04 2.485e-10
 38.23654     34.9 1.026e+04 2.490e-10
 38.27603     36.5 1.027e+04 2.604e-10
 38.31552     37.9 1.037e+04 2.916e-10
 38.35156     39.4 1.048e+04 3.313e-10
 38.37130     39.3 1.047e+04 3.295e-10
 38.39451     40.8 1.052e+04 3.468e-10
 38.43400     42.1 1.050e+04 3.432e-10
 38.47349     43.5 1.044e+04 3.223e-10
 38.51298     44.7 1.032e+04 2.848e-10
 38.55247     45.8 1.020e+04 2.434e-10
 38.59196     46.7 1.009e+04 2.086e-10
 38.62873     47.6 9.986e+03 1.916e-10
 38.64848     47.8 1.004e+04 1.928e-10
 38.67094     48.5 1.002e+04 1.932e-10
 38.71043     49.1 1.005e+04 2.036e-10
 38.74993     49.5 1.013e+04 2.464e-10
 38.78942     50.1 1.034e+04 3.316e-10
 38.82891     51.0 1.055e+04 4.157e-10
 38.86840     51.8 1.067e+04 4.361e-10
 38.90227     52.6 1.065e+04 4.131e-10
 38.92003     53.3 1.066e+04 4.476e-10
 38.92565     53.2 1.069e+04 4.609e-10
 38.94738     54.3 1.051e+04 3.606e-10
 38.98687     55.4 1.030e+04 2.545e-10
 39.02636     56.6 1.014e+04 1.764e-10
 39.06585     57.8 9.978e+03 1.382e-10
 39.10535     59.2 9.889e+03 1.331e-10
 39.14484     60.9 9.887e+03 1.333e-10
 39.18308     62.6 9.913e+03 1.354e-10
 39.20283     62.6 9.927e+03 1.354e-10
 39.22382     64.0 1.003e+04 1.422e-10
 39.26331     65.2 1.021e+04 1.573e-10
 39.30280     66.2 1.039e+04 1.839e-10
 39.34229     67.2 1.051e+04 2.134e-10
 39.38178     68.2 1.058e+04 2.371e-10
 39.42127     69.1 1.064e+04 2.544e-10
 39.46026     70.1 1.073e+04 2.700e-10
 39.48000     69.0 1.084e+04 2.792e-10
 39.50026     69.9 1.091e+04 2.779e-10
 39.53975     70.8 1.098e+04 2.717e-10
 39.57924     71.8 1.115e+04 2.627e-10
 39.61873     72.5 1.129e+04 2.586e-10
 39.65822     72.4 1.148e+04 2.562e-10
 39.68774     71.9 1.155e+04 2.623e-10
 39.70739     71.5 1.166e+04 3.059e-10
 39.72713     71.4 1.184e+04 4.336e-10
 39.74688     71.6 1.212e+04 6.470e-10
 39.75698     71.9 1.247e+04 9.314e-10
 39.76686     71.3 1.243e+04 8.489e-10
 39.78637     71.4 1.276e+04 1.134e-09
 39.80612     71.4 1.305e+04 1.370e-09
 39.82245     71.3 1.322e+04 1.420e-09
 39.83232     71.2 1.328e+04 1.410e-09
 39.84561     70.7 1.331e+04 1.394e-09
 39.86535     70.2 1.324e+04 1.324e-09
 39.88510     69.7 1.309e+04 1.202e-09
 39.89557     69.2 1.294e+04 1.078e-09
 39.90544     68.8 1.305e+04 1.138e-09
 39.92459     68.2 1.294e+04 1.020e-09
 39.94434     67.8 1.282e+04 9.529e-10
 39.96408     67.6 1.277e+04 9.411e-10
 39.98383     67.5 1.275e+04 9.451e-10
 40.00357     67.6 1.277e+04 9.565e-10
 40.02332     67.9 1.277e+04 9.516e-10
 40.03416     68.2 1.278e+04 9.352e-10
 40.04403     67.8 1.279e+04 9.058e-10
 40.06281     68.2 1.282e+04 8.656e-10
 40.08255     68.5 1.282e+04 8.253e-10
 40.10230     68.8 1.278e+04 7.889e-10
 40.12205     69.1 1.279e+04 7.856e-10
 40.14179     69.5 1.285e+04 8.075e-10
 40.16154     69.8 1.298e+04 8.967e-10
 40.17275     70.3 1.315e+04 1.064e-09
 40.18262     69.6 1.320e+04 1.200e-09
 40.20103     70.3 1.340e+04 1.422e-09
 40.22077     71.3 1.375e+04 1.702e-09
 40.24052     71.5 1.432e+04 2.118e-09
 40.26026     71.2 1.544e+04 2.973e-09
 40.27770     70.8 1.668e+04 4.123e-09
 40.28758     71.0 1.650e+04 3.573e-09
 40.29477     70.4 1.732e+04 4.427e-09
 40.30459     68.5 1.950e+04 6.036e-09
 40.31123     63.5 2.377e+04 1.263e-08
 40.31617     63.8 2.289e+04 9.969e-09
 40.32434     59.2 2.468e+04 4.075e-08
 40.33421     57.0 2.309e+04 2.073e-07
 40.34409     55.1 2.185e+04 5.817e-07
 40.35396     52.0 2.167e+04 6.535e-07
 40.36383     50.2 2.160e+04 5.223e-07
 40.37370     50.4 2.183e+04 2.604e-07
 40.38053     51.0 2.235e+04 8.438e-08
 40.38546     49.0 2.179e+04 5.309e-08
 40.39345     48.5 2.218e+04 1.864e-08
 40.40332     47.4 2.191e+04 9.602e-09
 40.41818     42.8 2.017e+04 2.354e-09
 40.43797     34.9 1.358e+04 1.012e-09
 40.44992     34.1 1.196e+04 8.015e-10
 40.45979     35.2 1.221e+04 8.973e-10
 40.47747     35.5 1.163e+04 7.859e-10
 40.49721     36.7 1.142e+04 7.255e-10
 40.51696     38.2 1.131e+04 6.718e-10
 40.53670     39.5 1.122e+04 6.196e-10
 40.55645     40.5 1.110e+04 5.685e-10
 40.57619     41.6 1.096e+04 5.222e-10
 40.58851     42.6 1.087e+04 4.854e-10
 40.59838     42.7 1.084e+04 4.880e-10
 40.61568     43.6 1.073e+04 4.601e-10
 40.63543     44.6 1.067e+04 4.482e-10
 40.65518     45.8 1.068e+04 4.494e-10
 40.67492     46.7 1.075e+04 4.614e-10
 40.69467     47.5 1.081e+04 4.999e-10
 40.71441     48.3 1.090e+04 5.660e-10
 40.72709     49.0 1.112e+04 6.642e-10
 40.73577     48.7 1.110e+04 6.682e-10
 40.74283     48.9 1.105e+04 6.455e-10
 40.75390     48.9 1.143e+04 7.948e-10
 40.77365     48.7 1.200e+04 1.036e-09
 40.79339     48.0 1.285e+04 1.459e-09
 40.81314     47.0 1.384e+04 2.198e-09
 40.83289     46.0 1.467e+04 3.300e-09
 40.85263     45.2 1.523e+04 4.517e-09
 40.86568     44.1 1.561e+04 5.273e-09
 40.87555     44.2 1.502e+04 4.086e-09
 40.89212     42.1 1.571e+04 4.876e-09
 40.91187     38.1 1.708e+04 6.227e-09
 40.93161     32.1 1.907e+04 8.882e-09
 40.95136     26.1 2.051e+04 1.233e-08
 40.96547     21.5 2.138e+04 2.317e-08
 40.97036     22.0 2.099e+04 1.807e-08
 40.97594     20.3 2.069e+04 2.038e-08
 40.98582     19.5 2.030e+04 2.044e-08
 40.99569     18.8 1.996e+04 1.869e-08
 41.00422     17.8 1.915e+04 1.078e-08
 41.00916     18.7 2.014e+04 2.768e-08
 41.01543     18.7 1.980e+04 1.835e-08
 41.03029     18.6 1.938e+04 9.898e-09
 41.05009     14.5 1.692e+04 2.164e-09
 41.06983     12.9 1.314e+04 1.278e-09
 41.08958     10.2 1.084e+04 6.343e-10
 41.11929      9.5 1.061e+04 5.392e-10
 41.14305     10.3 1.043e+04 4.730e-10
 41.16280     10.2 1.060e+04 5.632e-10
 41.19837     11.7 1.067e+04 5.729e-10
 41.23786     13.0 1.093e+04 6.426e-10
 41.27736     13.4 1.132e+04 7.856e-10
 41.30688     13.3 1.175e+04 1.001e-09
 41.32652     12.9 1.200e+04 1.180e-09
 41.34627     12.5 1.209e+04 1.312e-09
 41.36601     12.1 1.223e+04 1.398e-09
 41.38576     11.3 1.247e+04 1.484e-09
 41.40551     10.3 1.269e+04 1.582e-09
 41.42003      9.1 1.270e+04 1.622e-09
 41.42990      9.1 1.254e+04 1.532e-09
 41.44500      8.6 1.213e+04 1.398e-09
 41.46474      8.5 1.165e+04 1.171e-09
 41.48449      8.3 1.129e+04 8.907e-10
 41.50423      7.5 1.121e+04 6.319e-10
 41.52398      5.4 1.120e+04 4.468e-10
 41.54372      2.7 1.085e+04 3.887e-10
 41.55862      0.3 1.072e+04 3.971e-10
 41.56849      0.4 1.087e+04 3.976e-10
 41.58322     -1.4 1.086e+04 4.651e-10
 41.60296     -2.0 1.080e+04 5.967e-10
 41.62271     -1.9 1.076e+04 7.028e-10
 41.64245     -1.7 1.073e+04 7.025e-10
 41.65333     -1.5 1.058e+04 6.545e-10
 41.66321     -0.8 1.052e+04 6.748e-10
 41.68194     -0.8 1.036e+04 5.481e-10
 41.69730     -1.7 1.021e+04 3.937e-10
 41.71715     -1.6 1.022e+04 4.094e-10
 41.75125     -3.0 1.000e+04 3.810e-10
 41.78077     -3.8 1.005e+04 4.249e-10
 41.80042     -3.8 1.009e+04 4.932e-10
 41.82016     -3.4 1.022e+04 5.630e-10
 41.83579     -3.0 1.043e+04 6.085e-10
 41.84567     -3.0 1.043e+04 6.087e-10
 41.85965     -2.9 1.059e+04 6.292e-10
 41.87940     -3.1 1.075e+04 6.527e-10
 41.89914     -3.5 1.094e+04 6.958e-10
 41.91889     -4.0 1.105e+04 7.596e-10
 41.93864     -4.0 1.105e+04 8.324e-10
 41.95838     -3.7 1.095e+04 8.258e-10
 41.97438     -3.3 1.086e+04 7.890e-10
 41.98425     -3.1 1.077e+04 7.529e-10
 41.99787     -3.0 1.074e+04 6.797e-10
 42.01762     -3.3 1.092e+04 6.468e-10
 42.03736     -3.6 1.092e+04 6.495e-10
 42.05711     -4.3 1.103e+04 6.962e-10
 42.07685     -4.6 1.111e+04 8.005e-10
 42.10657     -4.3 1.153e+04 1.090e-09
 42.13619     -4.6 1.214e+04 1.463e-09
 42.15584     -5.4 1.291e+04 2.070e-09
 42.17558     -6.5 1.369e+04 2.825e-09
 42.19533     -8.8 1.484e+04 3.915e-09
 42.21507    -11.2 1.564e+04 4.709e-09
 42.23482    -13.6 1.562e+04 4.400e-09
 42.25156    -16.1 1.501e+04 3.599e-09
 42.26143    -14.3 1.549e+04 4.707e-09
 42.27431    -17.0 1.469e+04 3.308e-09
 42.29406    -19.8 1.361e+04 2.180e-09
 42.31380    -21.7 1.275e+04 1.572e-09
 42.33355    -22.6 1.235e+04 1.187e-09
 42.35329    -22.9 1.194e+04 9.706e-10
 42.38301    -24.2 1.209e+04 7.702e-10
 42.42260    -25.9 1.196e+04 7.107e-10
 42.46209    -26.8 1.226e+04 8.492e-10
 42.50158    -26.8 1.253e+04 1.067e-09
 42.52893    -26.3 1.250e+04 1.211e-09
 42.54867    -27.2 1.308e+04 1.754e-09
 42.56403    -26.8 1.254e+04 1.496e-09
 42.58378    -25.1 1.243e+04 1.386e-09
 42.62005    -23.8 1.220e+04 1.282e-09
 42.65954    -22.3 1.194e+04 1.139e-09
 42.69903    -20.4 1.167e+04 9.493e-10
 42.73853    -18.7 1.160e+04 8.210e-10
 42.77802    -17.0 1.166e+04 8.277e-10
 42.80610    -15.6 1.192e+04 9.727e-10
 42.82585    -15.6 1.152e+04 8.820e-10
 42.85700    -13.6 1.186e+04 1.145e-09
 42.89649    -11.2 1.220e+04 1.420e-09
 42.93598     -8.9 1.254e+04 1.560e-09
 42.97547     -7.1 1.265e+04 1.537e-09
 43.01496     -5.4 1.270e+04 1.458e-09
 43.05445     -3.8 1.269e+04 1.401e-09
 43.08328     -2.3 1.272e+04 1.420e-09
 43.10302     -2.2 1.234e+04 1.243e-09
 43.13344     -0.7 1.270e+04 1.472e-09
 43.17293      0.6 1.307e+04 1.723e-09
 43.20245      1.6 1.337e+04 1.946e-09
 43.22167      2.1 1.352e+04 2.112e-09
 43.23154      2.0 1.352e+04 2.170e-09
 43.24184      2.6 1.371e+04 2.338e-09
 43.26159      3.2 1.379e+04 2.398e-09
 43.28133      3.9 1.383e+04 2.361e-09
 43.30108      4.4 1.383e+04 2.268e-09
 43.32082      4.7 1.376e+04 2.144e-09
 43.34057      4.8 1.361e+04 2.048e-09
 43.36026      4.9 1.352e+04 2.013e-09
 43.38000      5.2 1.334e+04 1.994e-09
 43.39981      5.8 1.332e+04 2.014e-09
 43.41955      6.4 1.332e+04 2.010e-09
 43.44927      7.8 1.302e+04 1.756e-09
 43.47454      9.2 1.286e+04 1.558e-09
 43.49428      9.4 1.301e+04 1.601e-09
 43.52835     10.7 1.267e+04 1.342e-09
 43.56784     12.1 1.245e+04 1.174e-09
 43.60733     13.5 1.218e+04 9.916e-10
 43.63763     15.0 1.183e+04 8.179e-10
 43.65737     15.4 1.216e+04 1.120e-09
 43.68631     16.8 1.167e+04 8.468e-10
 43.72580     18.3 1.119e+04 6.131e-10
 43.76529     19.9 1.079e+04 4.578e-10
 43.80479     21.8 1.043e+04 3.387e-10
 43.84428     23.7 1.019e+04 2.787e-10
 43.88377     25.9 1.018e+04 2.780e-10
 43.91480     28.4 1.027e+04 2.964e-10
 43.93455     28.4 9.925e+03 2.183e-10
 43.96275     30.8 1.012e+04 2.553e-10
 44.00224     32.6 1.030e+04 3.023e-10
 44.03176     33.6 1.045e+04 3.616e-10
 44.05141     34.3 1.072e+04 4.571e-10
 44.06307     34.9 1.111e+04 6.329e-10
 44.07294     35.3 1.067e+04 4.595e-10
 44.09090     36.2 1.099e+04 6.067e-10
 44.11065     37.1 1.131e+04 7.765e-10
 44.13039     38.0 1.157e+04 9.295e-10
 44.15014     38.9 1.183e+04 1.043e-09
 44.16988     39.4 1.202e+04 1.102e-09
 44.19188     39.2 1.241e+04 1.323e-09
 44.21172     40.4 1.164e+04 8.667e-10
 44.23919     41.6 1.168e+04 9.097e-10
 44.27868     43.0 1.162e+04 8.941e-10
 44.31817     44.3 1.148e+04 8.086e-10
 44.35766     45.6 1.126e+04 7.006e-10
 44.38504     47.0 1.113e+04 6.848e-10
 44.40479     48.0 1.096e+04 6.052e-10
 44.43664     49.4 1.097e+04 6.246e-10
 44.46915     50.8 1.102e+04 6.806e-10
 44.48890     52.3 1.103e+04 6.908e-10
 44.51562     53.7 1.105e+04 7.417e-10
 44.55512     55.0 1.101e+04 7.403e-10
 44.59461     56.5 1.084e+04 6.974e-10
 44.63410     58.1 1.050e+04 5.725e-10
 44.67359     59.9 1.004e+04 4.001e-10
 44.71308     61.7 9.580e+03 2.505e-10
 44.74633     63.5 9.159e+03 1.566e-10
 44.76607     64.8 9.440e+03 2.196e-10
 44.79206     66.6 9.081e+03 1.516e-10
 44.83155     68.5 8.810e+03 1.220e-10
 44.87104     70.6 8.694e+03 1.204e-10
 44.91054     72.9 8.674e+03 1.240e-10
 44.95003     75.2 8.684e+03 1.312e-10
 44.98952     77.5 8.720e+03 1.384e-10
 45.02350     79.7 8.758e+03 1.444e-10
 45.04325     80.5 8.764e+03 1.452e-10
 45.06850     82.7 8.791e+03 1.500e-10
 45.10799     84.8 8.784e+03 1.501e-10
 45.14748     86.8 8.761e+03 1.477e-10
 45.18697     88.8 8.703e+03 1.412e-10
 45.22646     90.8 8.620e+03 1.320e-10
 45.26596     92.9 8.527e+03 1.222e-10
 45.29555     95.0 8.443e+03 1.137e-10
 45.31052     95.7 8.477e+03 1.261e-10
 45.32042     96.5 8.496e+03 1.307e-10
 45.34494     98.6 8.419e+03 1.221e-10
 45.38443    100.8 8.349e+03 1.172e-10
 45.42392    103.0 8.319e+03 1.168e-10
 45.46341    105.2 8.316e+03 1.176e-10
 45.50290    107.4 8.318e+03 1.198e-10
 45.54239    109.6 8.332e+03 1.243e-10
 45.57785    111.8 8.357e+03 1.305e-10
 45.59760    112.5 8.348e+03 1.284e-10
 45.62138    114.7 8.376e+03 1.352e-10
 45.66087    116.9 8.396e+03 1.396e-10
 45.70036    119.1 8.411e+03 1.413e-10
 45.73985    121.4 8.435e+03 1.412e-10
 45.77934    123.6 8.434e+03 1.393e-10
 45.81883    125.7 8.426e+03 1.349e-10
 45.85503    127.7 8.432e+03 1.303e-10
 45.87477    128.1 8.284e+03 1.103e-10
 45.89781    130.1 8.251e+03 1.080e-10
 45.93730    132.0 8.260e+03 1.104e-10
 45.97680    133.9 8.292e+03 1.170e-10
 46.01629    135.8 8.344e+03 1.284e-10
 46.05578    137.7 8.418e+03 1.441e-10
 46.09527    139.6 8.507e+03 1.625e-10
 46.13220    141.5 8.605e+03 1.807e-10
 46.15195    142.0 8.567e+03 1.755e-10
 46.17425    144.0 8.672e+03 1.927e-10
 46.20605    146.0 8.778e+03 2.065e-10
 46.22580    147.3 8.575e+03 1.775e-10
 46.25323    149.3 8.741e+03 2.014e-10
 46.29272    151.2 8.939e+03 2.278e-10
 46.33221    152.9 9.126e+03 2.586e-10
 46.37171    154.4 9.340e+03 2.950e-10
 46.40937    155.8 9.525e+03 3.235e-10
 46.42912    156.4 9.579e+03 3.375e-10
 46.45069    157.7 9.592e+03 3.365e-10
 46.49018    158.9 9.585e+03 3.267e-10
 46.52967    160.1 9.573e+03 3.116e-10
 46.56916    161.3 9.604e+03 3.036e-10
 46.60865    162.6 9.657e+03 3.065e-10
 46.64814    163.5 9.821e+03 3.213e-10
 46.67108    163.5 1.004e+04 3.578e-10
 46.68086    164.5 9.882e+03 3.351e-10
 46.69623    164.7 1.009e+04 3.788e-10
 46.70610    164.9 1.007e+04 3.677e-10
 46.71706    164.7 1.056e+04 4.745e-10
 46.73680    164.0 1.125e+04 6.983e-10
 46.75655    163.1 1.196e+04 1.090e-09
 46.77629    162.5 1.256e+04 1.641e-09
 46.79604    162.2 1.303e+04 2.227e-09
 46.81579    162.0 1.317e+04 2.331e-09
 46.83481    161.6 1.313e+04 2.241e-09
 46.84469    162.0 1.297e+04 2.106e-09
 46.85528    161.5 1.282e+04 1.739e-09
 46.87502    160.6 1.247e+04 1.176e-09
 46.89477    159.0 1.192e+04 6.681e-10
 46.91451    156.6 1.109e+04 3.589e-10
 46.93426    154.1 1.002e+04 2.415e-10
 46.96363    152.7 9.672e+03 2.396e-10
 46.98347    154.5 9.492e+03 2.135e-10
 47.00356    155.1 9.407e+03 2.156e-10
 47.04305    156.2 9.401e+03 2.269e-10
 47.08255    157.3 9.514e+03 2.596e-10
 47.11656    158.3 9.672e+03 3.025e-10
 47.13630    158.2 9.687e+03 3.082e-10
 47.15156    159.2 9.752e+03 3.332e-10
 47.17121    159.9 9.826e+03 3.494e-10
 47.19095    160.6 9.958e+03 3.762e-10
 47.21070    161.2 1.009e+04 4.003e-10
 47.23044    161.9 1.024e+04 4.266e-10
 47.25019    162.4 1.031e+04 4.346e-10
 47.26045    162.9 1.028e+04 4.206e-10
 47.28029    163.8 1.026e+04 4.054e-10
 47.31949    164.8 1.019e+04 3.738e-10
 47.35898    165.8 1.011e+04 3.417e-10
 47.39847    166.9 1.010e+04 3.248e-10
 47.43797    168.1 1.008e+04 3.147e-10
 47.47746    169.3 1.007e+04 3.046e-10
 47.51695    170.2 1.010e+04 3.016e-10
 47.53772    170.5 1.009e+04 3.002e-10
 47.54750    170.7 1.009e+04 2.954e-10
 47.56612    170.7 1.013e+04 3.004e-10
 47.58149    170.7 1.027e+04 3.206e-10
 47.59136    171.4 1.009e+04 2.860e-10
 47.60561    171.3 1.026e+04 3.126e-10
 47.62535    171.0 1.046e+04 3.802e-10
 47.64510    170.3 1.077e+04 5.244e-10
 47.66484    169.0 1.166e+04 8.408e-10
 47.67621    166.8 1.357e+04 1.659e-09
 47.68608    165.5 1.442e+04 2.071e-09
 47.70434    162.6 1.661e+04 4.813e-09
 47.72408    160.8 1.784e+04 8.132e-09
 47.73884    159.6 1.839e+04 9.877e-09
 47.74541    158.6 1.883e+04 1.107e-08
 47.75034    158.4 1.916e+04 1.265e-08
 47.75854    157.2 1.962e+04 1.362e-08
 47.76841    155.7 1.967e+04 1.355e-08
 47.77828    154.1 1.969e+04 1.285e-08
 47.78816    152.3 1.968e+04 1.086e-08
 47.79803    149.2 1.939e+04 8.201e-09
 47.80790    147.1 1.891e+04 6.799e-09
 47.81475    144.7 1.802e+04 5.485e-09
 47.82467    146.3 1.800e+04 5.047e-09
 47.84255    141.1 1.643e+04 3.623e-09
 47.86230    136.0 1.463e+04 3.003e-09
 47.88205    132.7 1.373e+04 2.765e-09
 47.90179    130.5 1.354e+04 2.306e-09
 47.92154    128.9 1.340e+04 1.858e-09
 47.95125    128.0 1.279e+04 1.303e-09
 47.99084    125.4 1.175e+04 7.390e-10
 48.02706    122.4 1.045e+04 3.770e-10
 48.04681    124.5 1.115e+04 4.760e-10
 48.06982    121.3 9.894e+03 2.745e-10
 48.09217    119.4 9.661e+03 2.621e-10
 48.11192    122.1 1.034e+04 4.026e-10
 48.14881    120.5 1.031e+04 4.083e-10
 48.18830    119.4 1.032e+04 4.405e-10
 48.22779    118.7 1.030e+04 4.550e-10
 48.26728    118.4 1.020e+04 4.377e-10
 48.30677    118.6 9.955e+03 3.816e-10
 48.34626    118.9 9.626e+03 3.057e-10
 48.36934    119.4 9.318e+03 2.440e-10
 48.38909    120.2 9.354e+03 2.502e-10
 48.42524    120.8 9.168e+03 2.179e-10
 48.46473    121.8 9.074e+03 1.998e-10
 48.50423    122.9 8.990e+03 1.806e-10
 48.54372    124.0 8.895e+03 1.594e-10
 48.58321    125.0 8.830e+03 1.425e-10
 48.62270    126.0 8.842e+03 1.384e-10
 48.64652    127.0 8.876e+03 1.404e-10
 48.66626    127.8 9.014e+03 1.619e-10
 48.70168    128.7 9.105e+03 1.673e-10
 48.74117    129.1 9.283e+03 1.838e-10
 48.78066    129.3 9.510e+03 2.089e-10
 48.82015    129.3 9.701e+03 2.319e-10
 48.85964    128.9 9.943e+03 2.467e-10
 48.89914    128.0 1.028e+04 2.559e-10
 48.92369    126.5 1.072e+04 2.667e-10
 48.94238    127.8 1.068e+04 2.611e-10
 48.95731    130.1 1.093e+04 2.850e-10
 48.97812    128.1 1.126e+04 2.976e-10
 49.00764    126.4 1.117e+04 2.943e-10
 49.02729    125.2 1.116e+04 3.173e-10
 49.04703    124.0 1.135e+04 3.985e-10
 49.06209    123.0 1.175e+04 5.313e-10
 49.07196    123.5 1.178e+04 5.799e-10
 49.08652    122.8 1.219e+04 7.284e-10
 49.10627    122.2 1.262e+04 9.222e-10
 49.12601    121.8 1.305e+04 1.177e-09
 49.14576    121.6 1.350e+04 1.476e-09
 49.16551    121.4 1.396e+04 1.797e-09
 49.18525    121.3 1.444e+04 2.132e-09
 49.20067    121.0 1.494e+04 2.510e-09
 49.21055    121.8 1.444e+04 1.879e-09
 49.22474    121.6 1.494e+04 2.073e-09
 49.24449    121.1 1.573e+04 2.417e-09
 49.26423    120.1 1.711e+04 3.210e-09
 49.28398    118.2 1.908e+04 5.126e-09
 49.30372    115.8 2.088e+04 8.983e-09
 49.32347    113.4 2.249e+04 1.402e-08
 49.33823    112.9 2.325e+04 1.603e-08
 49.34410    111.7 2.406e+04 1.936e-08
 49.34904    112.9 2.395e+04 1.966e-08
 49.35793    110.9 2.466e+04 2.716e-08
 49.36780    107.8 2.665e+04 3.612e-08
 49.37767     87.6 4.912e+04 4.304e-08
 49.38505     43.6 3.523e+04 1.199e-06
 49.38996     18.5 1.462e+04 2.622e-04
 49.39490     -7.5 1.937e+04 1.963e-05
 49.39984    -42.9 6.231e+04 7.677e-08
 49.40477    -97.0 4.359e+04 1.984e-08
 49.40971   -107.9 2.598e+04 2.151e-08
 49.41225   -108.7 2.520e+04 2.082e-08
 49.41344   -111.2 2.541e+04 2.092e-08
 49.41833   -114.5 2.535e+04 1.652e-08
 49.42704   -118.7 2.527e+04 1.561e-08
 49.43691   -122.1 2.783e+04 1.580e-08
 49.44678   -126.7 3.049e+04 2.098e-08
 49.45665   -131.7 3.093e+04 3.584e-08
 49.46653   -135.9 2.947e+04 6.441e-08
 49.47640   -139.1 2.745e+04 9.856e-08
 49.48269   -141.3 2.620e+04 1.220e-07
 49.48762   -143.6 2.541e+04 1.275e-07
 49.49615   -145.0 2.515e+04 1.299e-07
 49.50602   -146.7 2.600e+04 8.558e-08
 49.51589   -150.2 2.879e+04 3.261e-08
 49.52576   -157.3 3.203e+04 7.500e-09
 49.53564   -167.7 2.706e+04 2.176e-09
 49.54551   -175.9 1.815e+04 1.606e-09
 49.56037   -180.1 1.576e+04 1.310e-09
 49.58016   -183.2 1.371e+04 9.017e-10
 49.59991   -185.5 1.205e+04 6.177e-10
 49.61644   -186.0 1.160e+04 5.260e-10
 49.62631   -187.0 1.172e+04 5.687e-10
 49.63940   -186.9 1.152e+04 5.105e-10
 49.65914   -186.8 1.131e+04 4.572e-10
 49.67889   -186.8 1.113e+04 4.153e-10
 49.69864   -186.7 1.105e+04 3.889e-10
 49.72835   -186.3 1.107e+04 3.751e-10
 49.75522   -186.3 1.111e+04 3.813e-10
 49.76499   -186.7 1.108e+04 4.009e-10
 49.77762   -186.6 1.116e+04 4.184e-10
 49.79736   -186.7 1.123e+04 4.312e-10
 49.81711   -186.7 1.125e+04 4.381e-10
 49.84682   -186.4 1.125e+04 4.269e-10
 49.86782   -185.6 1.089e+04 3.575e-10
 49.88756   -187.7 1.082e+04 3.269e-10
 49.92590   -186.6 1.015e+04 2.185e-10
 49.96540   -185.5 9.484e+03 1.423e-10
 50.00489   -184.4 9.117e+03 1.069e-10
 50.03239   -183.4 9.060e+03 1.001e-10
 50.05214   -183.2 9.164e+03 1.131e-10
 50.08387   -182.7 9.124e+03 1.094e-10
 50.12336   -182.6 9.136e+03 1.171e-10
 50.16285   -182.9 9.693e+03 1.820e-10
 50.20234   -183.3 1.046e+04 3.084e-10
 50.24183   -183.9 1.113e+04 4.840e-10
 50.28132   -184.3 1.165e+04 6.653e-10
 50.30957   -184.1 1.200e+04 7.924e-10
 50.32931   -183.5 1.150e+04 6.345e-10
 50.35034   -183.5 1.195e+04 7.639e-10
 50.36998   -184.5 1.207e+04 8.121e-10
 50.38973   -185.9 1.221e+04 8.829e-10
 50.40947   -187.2 1.230e+04 9.305e-10
 50.42922   -188.5 1.235e+04 9.907e-10
 50.44796   -189.7 1.240e+04 1.094e-09
 50.45783   -188.8 1.241e+04 1.073e-09
 50.46871   -189.7 1.244e+04 1.193e-09
 50.48846   -190.3 1.246e+04 1.311e-09
 50.50820   -190.7 1.245e+04 1.374e-09
 50.52795   -191.1 1.231e+04 1.390e-09
 50.54769   -191.6 1.220e+04 1.254e-09
 50.56744   -192.2 1.182e+04 1.053e-09
 50.58655   -192.9 1.139e+04 8.608e-10
 50.59642   -192.4 1.139e+04 8.567e-10
 50.60693   -193.0 1.099e+04 7.118e-10
 50.62668   -193.4 1.070e+04 6.233e-10
 50.64642   -193.4 1.056e+04 5.835e-10
 50.67614   -193.2 1.050e+04 5.653e-10
 50.71573   -193.0 1.041e+04 5.517e-10
 50.75522   -193.6 1.041e+04 5.585e-10
 50.77832   -194.2 1.050e+04 5.949e-10
 50.79807   -196.3 1.016e+04 4.966e-10
 50.83420   -196.5 1.019e+04 5.064e-10
 50.86392   -196.5 1.014e+04 4.997e-10
 50.88366   -196.0 1.014e+04 5.019e-10
 50.91318   -196.0 9.901e+03 4.237e-10
 50.95267   -195.8 9.533e+03 3.174e-10
 50.99216   -195.5 9.067e+03 2.268e-10
 51.03165   -195.2 8.675e+03 1.746e-10
 51.07115   -195.1 8.595e+03 1.599e-10
 51.11064   -195.3 8.616e+03 1.608e-10
 51.14109   -196.5 9.878e+03 2.586e-10
 51.16084   -196.0 9.487e+03 2.179e-10
 51.18962   -197.3 1.091e+04 4.292e-10
 51.22911   -198.5 1.182e+04 7.435e-10
 51.26860   -199.6 1.240e+04 1.079e-09
 51.30809   -199.8 1.275e+04 1.341e-09
 51.33761   -198.8 1.246e+04 1.180e-09
 51.35726   -198.7 1.270e+04 1.314e-09
 51.37701   -198.6 1.298e+04 1.517e-09
 51.39675   -198.3 1.326e+04 1.747e-09
 51.41650   -197.9 1.354e+04 2.039e-09
 51.42795   -197.6 1.374e+04 2.273e-09
 51.43782   -197.2 1.342e+04 1.936e-09
 51.45599   -196.7 1.365e+04 2.212e-09
 51.47573   -196.1 1.380e+04 2.381e-09
 51.49548   -195.6 1.387e+04 2.436e-09
 51.51523   -195.2 1.391e+04 2.442e-09
 51.53497   -195.0 1.395e+04 2.429e-09
 51.55472   -195.3 1.435e+04 2.455e-09
 51.56653   -196.4 1.568e+04 2.760e-09
 51.57641   -194.7 1.620e+04 3.378e-09
 51.59421   -195.7 1.808e+04 4.535e-09
 51.61395   -196.7 1.983e+04 6.478e-09
 51.63370   -198.0 2.111e+04 8.905e-09
 51.65344   -200.4 2.183e+04 1.132e-08
 51.67319   -203.5 2.189e+04 1.197e-08
 51.68863   -206.6 2.098e+04 1.149e-08
 51.69851   -203.5 2.083e+04 5.760e-09
 51.70512   -206.7 1.972e+04 4.861e-09
 51.71001   -206.8 2.284e+04 8.584e-09
 51.71752   -209.1 2.201e+04 8.002e-09
 51.73238   -210.7 2.224e+04 8.859e-09
 51.75217   -211.2 2.026e+04 7.878e-09
 51.77192   -211.1 1.880e+04 6.365e-09
 51.79166   -210.5 1.738e+04 5.103e-09
 51.81141   -209.5 1.661e+04 4.440e-09
 51.83115   -208.5 1.626e+04 4.271e-09
 51.84371   -207.6 1.611e+04 4.264e-09
 51.85358   -207.7 1.683e+04 5.980e-09
 51.87065   -206.7 1.680e+04 5.953e-09
 51.89039   -206.1 1.686e+04 6.133e-09
 51.91014   -205.7 1.708e+04 6.506e-09
 51.92988   -205.6 1.733e+04 6.909e-09
 51.94963   -205.6 1.757e+04 7.302e-09
 51.96937   -205.9 1.778e+04 7.651e-09
 51.98230   -206.6 1.791e+04 7.945e-09
 51.99217   -206.7 1.861e+04 1.249e-08
 52.00886   -207.5 1.854e+04 1.249e-08
 52.02861   -208.2 1.819e+04 1.158e-08
 52.04836   -208.8 1.769e+04 9.958e-09
 52.06810   -209.4 1.710e+04 8.148e-09
 52.08785   -209.9 1.646e+04 6.366e-09
 52.10759   -210.4 1.576e+04 4.827e-09
 52.12088   -211.0 1.500e+04 3.564e-09
 52.13076   -210.8 1.464e+04 3.450e-09
 52.14389   -211.5 1.390e+04 2.542e-09
 52.15376   -211.4 1.431e+04 2.515e-09
 52.16683   -212.2 1.337e+04 1.772e-09
 52.18657   -212.7 1.251e+04 1.293e-09
 52.20632   -213.0 1.178e+04 9.741e-10
 52.22607   -213.2 1.115e+04 7.496e-10
 52.24581   -213.2 1.061e+04 5.916e-10
 52.25947   -213.2 1.015e+04 4.817e-10
 52.26934   -212.6 1.022e+04 4.802e-10
 52.28530   -212.5 9.814e+03 4.066e-10
 52.30505   -212.2 9.525e+03 3.545e-10
 52.32479   -211.6 9.307e+03 3.159e-10
 52.34454   -210.5 9.176e+03 2.891e-10
 52.37425   -208.9 9.170e+03 2.728e-10
 52.41384   -206.8 9.187e+03 2.700e-10
 52.44336   -204.9 9.259e+03 2.720e-10
 52.46301   -204.5 9.355e+03 2.801e-10
 52.48276   -203.8 9.590e+03 3.110e-10
 52.50250   -203.6 9.967e+03 3.774e-10
 52.52225   -203.2 1.045e+04 5.127e-10
 52.53664   -202.6 1.089e+04 6.960e-10
 52.54652   -201.4 1.040e+04 5.119e-10
 52.56174   -200.8 1.084e+04 6.958e-10
 52.58148   -200.1 1.120e+04 9.183e-10
 52.59914   -199.3 1.147e+04 1.143e-09
 52.60901   -199.0 1.180e+04 1.317e-09
 52.62098   -198.2 1.195e+04 1.501e-09
 52.64072   -197.5 1.197e+04 1.565e-09
 52.66047   -196.8 1.196e+04 1.571e-09
 52.67523   -196.1 1.176e+04 1.483e-09
 52.68511   -195.1 1.201e+04 1.589e-09
 52.69996   -194.6 1.183e+04 1.521e-09
 52.71970   -194.0 1.154e+04 1.334e-09
 52.73945   -193.5 1.122e+04 1.097e-09
 52.75919   -193.3 1.090e+04 8.691e-10
 52.77894   -193.2 1.057e+04 6.786e-10
 52.79869   -193.1 1.020e+04 5.377e-10
 52.81382   -193.1 9.872e+03 4.439e-10
 52.82369   -191.7 1.040e+04 6.139e-10
 52.83818   -191.8 1.006e+04 5.079e-10
 52.85792   -191.8 9.785e+03 4.508e-10
 52.87767   -191.7 9.665e+03 4.344e-10
 52.89741   -191.3 9.642e+03 4.325e-10
 52.91716   -190.9 9.634e+03 4.401e-10
 52.93690   -190.6 9.558e+03 4.678e-10
 52.95241   -190.4 9.741e+03 5.277e-10
 52.96228   -189.2 9.758e+03 5.595e-10
 52.97640   -189.0 9.975e+03 6.436e-10
 52.99614   -189.5 1.088e+04 8.194e-10
 53.01589   -190.7 1.239e+04 1.196e-09
 53.03563   -192.2 1.387e+04 1.947e-09
 53.05439   -193.8 1.499e+04 3.188e-09
 53.06426   -195.5 1.553e+04 4.692e-09
 53.07512   -196.8 1.631e+04 6.424e-09
 53.09099   -198.3 1.714e+04 7.681e-09
 53.10087   -196.9 1.681e+04 7.150e-09
 53.11461   -198.6 1.745e+04 7.938e-09
 53.13436   -200.6 1.788e+04 8.003e-09
 53.15411   -202.8 1.820e+04 7.700e-09
 53.17385   -205.0 1.841e+04 6.534e-09
 53.19360   -206.8 1.797e+04 5.574e-09
 53.20836   -207.6 1.749e+04 5.005e-09
 53.21818   -208.3 1.753e+04 4.820e-09
 53.22953   -209.6 1.709e+04 4.423e-09
 53.23945   -208.8 1.541e+04 3.492e-09
 53.25283   -209.8 1.474e+04 2.761e-09
 53.27258   -210.4 1.436e+04 2.309e-09
 53.29232   -210.6 1.444e+04 2.063e-09
 53.31207   -210.6 1.475e+04 1.966e-09
 53.33182   -210.5 1.518e+04 2.035e-09
 53.35156   -210.3 1.575e+04 2.183e-09
 53.36817   -210.0 1.612e+04 2.464e-09
 53.37804   -209.0 1.247e+04 1.154e-09
 53.39105   -208.6 1.285e+04 1.258e-09
 53.41080   -208.1 1.333e+04 1.445e-09
 53.43054   -207.5 1.377e+04 1.698e-09
 53.45029   -206.8 1.406e+04 1.982e-09
 53.47003   -206.0 1.417e+04 2.241e-09
 53.48978   -205.2 1.416e+04 2.442e-09
 53.50676   -204.4 1.408e+04 2.584e-09
 53.51663   -204.0 1.277e+04 1.745e-09
 53.51952   -203.4 1.285e+04 1.838e-09
 53.52939   -203.3 1.414e+04 2.545e-09
 53.54902   -202.5 1.445e+04 2.780e-09
 53.56876   -201.8 1.485e+04 3.040e-09
 53.58851   -201.0 1.530e+04 3.289e-09
 53.60825   -200.4 1.556e+04 3.382e-09
 53.62800   -200.0 1.556e+04 3.262e-09
 53.64276   -199.4 1.409e+04 2.635e-09
 53.65018   -199.3 1.406e+04 2.609e-09
 53.65517   -199.7 1.364e+04 2.358e-09
 53.66250   -199.0 1.316e+04 2.248e-09
 53.67233   -198.9 1.339e+04 2.340e-09
 53.68220   -198.7 1.380e+04 2.470e-09
 53.69207   -198.7 1.435e+04 2.617e-09
 53.70195   -198.5 1.516e+04 2.907e-09
 53.71182   -198.5 1.611e+04 3.245e-09
 53.71948   -198.3 1.729e+04 3.768e-09
 53.72441   -197.8 1.472e+04 3.021e-09
 53.73157   -197.8 1.515e+04 3.281e-09
 53.74144   -197.6 1.583e+04 3.695e-09
 53.74705   -197.5 1.690e+04 4.194e-09
 53.75198   -198.6 2.064e+04 6.879e-09
 53.76118   -198.3 2.121e+04 7.976e-09
 53.77106   -197.8 2.151e+04 9.179e-09
 53.78093   -197.3 2.155e+04 1.040e-08
 53.78877   -196.8 2.141e+04 1.151e-08
 53.79371   -196.6 1.969e+04 6.768e-09
 53.80067   -196.2 2.005e+04 7.687e-09
 53.81055   -195.7 2.005e+04 8.542e-09
 53.82042   -195.3 1.978e+04 9.226e-09
 53.83029   -194.9 1.934e+04 9.483e-09
 53.84017   -194.5 1.913e+04 9.299e-09
 53.85004   -194.1 1.895e+04 8.841e-09
 53.86490   -193.7 1.884e+04 8.269e-09
 53.88469   -193.2 1.877e+04 8.995e-09
 53.90444   -193.1 1.895e+04 9.954e-09
 53.92252   -193.1 1.901e+04 1.105e-08
 53.93239   -193.1 1.671e+04 6.007e-09
 53.94393   -193.1 1.705e+04 6.872e-09
 53.96367   -193.6 1.711e+04 7.347e-09
 53.97477   -194.1 1.702e+04 7.418e-09
 53.98464   -194.7 1.768e+04 9.458e-09
 54.00316   -195.0 1.678e+04 7.818e-09
 54.02291   -195.1 1.576e+04 5.789e-09
 54.04266   -195.1 1.476e+04 4.168e-09
 54.06111   -195.1 1.390e+04 3.040e-09
 54.07098   -194.4 1.383e+04 3.267e-09
 54.08215   -194.4 1.318e+04 2.600e-09
 54.10189   -194.4 1.269e+04 2.085e-09
 54.12164   -194.1 1.225e+04 1.678e-09
 54.14138   -193.6 1.189e+04 1.355e-09
 54.16113   -193.1 1.169e+04 1.080e-09
 54.18087   -192.7 1.154e+04 8.414e-10
 54.19969   -192.3 1.130e+04 6.475e-10
 54.20957   -191.4 1.149e+04 1.094e-09
 54.22037   -190.8 1.124e+04 8.280e-10
 54.24011   -190.3 1.089e+04 6.076e-10
 54.25986   -189.7 1.041e+04 4.410e-10
 54.27960   -188.9 9.895e+03 3.315e-10
 54.29935   -187.8 9.500e+03 2.792e-10
 54.31909   -186.4 9.402e+03 2.636e-10
 54.33828   -185.1 9.401e+03 2.620e-10
 54.34815   -184.9 9.481e+03 2.703e-10
 54.35858   -184.0 9.478e+03 2.671e-10
 54.38830   -183.0 9.524e+03 2.648e-10
 54.42034   -180.5 9.529e+03 2.614e-10
 54.43999   -180.2 9.649e+03 2.902e-10
 54.45731   -178.7 9.754e+03 3.071e-10
 54.47687   -177.8 9.882e+03 3.264e-10
 54.48684   -178.0 9.462e+03 2.961e-10
 54.50687   -175.5 9.613e+03 3.192e-10
 54.53639   -173.4 9.688e+03 3.236e-10
 54.55604   -172.7 9.870e+03 3.559e-10
 54.57579   -171.7 1.011e+04 4.077e-10
 54.59553   -171.3 1.033e+04 4.694e-10
 54.61528   -170.4 1.056e+04 5.677e-10
 54.62533   -169.5 1.073e+04 6.342e-10
 54.63520   -168.8 1.023e+04 4.887e-10
 54.65477   -167.9 1.042e+04 5.471e-10
 54.67451   -167.2 1.058e+04 5.989e-10
 54.69426   -166.4 1.070e+04 6.401e-10
 54.71400   -165.6 1.080e+04 6.665e-10
 54.73375   -164.8 1.087e+04 6.831e-10
 54.75349   -164.1 1.093e+04 6.963e-10
 54.76392   -163.3 1.096e+04 7.056e-10
 54.77379   -162.7 1.045e+04 5.822e-10
 54.79299   -161.9 1.044e+04 5.809e-10
 54.81273   -161.1 1.042e+04 5.713e-10
 54.83248   -160.2 1.039e+04 5.574e-10
 54.85222   -159.4 1.037e+04 5.441e-10
 54.87197   -158.5 1.034e+04 5.336e-10
 54.88527   -157.6 1.033e+04 5.279e-10
 54.89515   -157.7 1.074e+04 6.261e-10
 54.90250   -156.7 1.073e+04 6.277e-10
 54.91238   -156.4 1.035e+04 5.444e-10
 54.93120   -155.4 1.039e+04 5.596e-10
 54.95095   -154.4 1.045e+04 5.838e-10
 54.97070   -153.3 1.052e+04 6.134e-10
 54.99044   -152.2 1.058e+04 6.464e-10
 55.01019   -151.2 1.065e+04 6.800e-10
 55.02993   -150.1 1.070e+04 7.105e-10
 55.04109   -149.0 1.075e+04 7.351e-10
 55.05096   -148.7 1.060e+04 7.351e-10
 55.06942   -147.7 1.064e+04 7.573e-10
 55.08917   -146.6 1.067e+04 7.714e-10
 55.10891   -145.6 1.068e+04 7.777e-10
 55.12866   -144.5 1.068e+04 7.780e-10
 55.14841   -143.3 1.063e+04 7.646e-10
 55.16815   -142.1 1.058e+04 7.467e-10
 55.17968   -140.9 1.051e+04 7.179e-10
 55.18955   -140.7 1.055e+04 7.431e-10
 55.20764   -139.6 1.053e+04 7.097e-10
 55.22739   -138.5 1.044e+04 6.650e-10
 55.24713   -137.6 1.030e+04 6.129e-10
 55.26688   -136.7 1.011e+04 5.505e-10
 55.29660   -135.9 9.849e+03 4.669e-10
 55.31846   -133.8 9.598e+03 3.991e-10
 55.32824   -133.4 9.751e+03 4.397e-10
 55.34053   -132.6 9.738e+03 4.290e-10
 55.35050   -132.1 1.037e+04 5.265e-10
 55.36570   -131.0 1.009e+04 4.578e-10
 55.38535   -130.1 1.001e+04 4.464e-10
 55.40510   -128.7 9.855e+03 4.339e-10
 55.42484   -128.2 9.798e+03 4.319e-10
 55.44459   -127.6 9.698e+03 4.321e-10
 55.45685   -127.2 9.643e+03 4.421e-10
 55.46673   -127.6 9.781e+03 4.740e-10
 55.48408   -127.3 9.855e+03 5.025e-10
 55.50383   -127.2 9.930e+03 5.280e-10
 55.52357   -127.3 9.998e+03 5.466e-10
 55.54332   -127.6 1.005e+04 5.565e-10
 55.56306   -128.0 1.008e+04 5.615e-10
 55.58281   -128.4 1.013e+04 5.688e-10
 55.59544   -129.0 1.025e+04 5.909e-10
 55.60531   -129.6 1.093e+04 8.396e-10
 55.62230   -129.9 1.090e+04 8.732e-10
 55.64204   -130.3 1.083e+04 9.747e-10
 55.66179   -131.4 1.155e+04 1.212e-09
 55.68154   -133.1 1.375e+04 1.697e-09
 55.70128   -134.8 1.620e+04 2.619e-09
 55.71604   -136.1 1.788e+04 3.840e-09
 55.72587   -136.6 1.878e+04 5.352e-09
 55.73393   -137.0 1.922e+04 7.367e-09
 55.73887   -136.0 1.915e+04 5.295e-09
 55.74561   -136.3 1.954e+04 6.979e-09
 55.75548   -136.5 1.949e+04 8.964e-09
 55.76536   -136.5 1.912e+04 1.106e-08
 55.77523   -136.2 1.858e+04 1.306e-08
 55.78510   -135.6 1.813e+04 1.435e-08
 55.79497   -134.8 1.780e+04 1.550e-08
 55.80062   -134.1 1.758e+04 1.627e-08
 55.80393   -134.2 1.774e+04 1.743e-08
 55.80816   -134.7 1.789e+04 1.581e-08
 55.81472   -134.4 1.776e+04 1.505e-08
 55.82459   -134.2 1.750e+04 1.421e-08
 55.83447   -133.9 1.730e+04 1.327e-08
 55.84434   -133.5 1.709e+04 1.256e-08
 55.85421   -133.1 1.704e+04 1.204e-08
 55.86408   -132.8 1.706e+04 1.165e-08
 55.87252   -132.7 1.710e+04 1.114e-08
 55.87745   -133.5 1.727e+04 1.086e-08
 55.88383   -133.5 1.706e+04 1.022e-08
 55.89370   -133.4 1.672e+04 9.186e-09
 55.90358   -133.2 1.637e+04 8.192e-09
 55.91345   -133.1 1.608e+04 7.353e-09
 55.92332   -133.1 1.587e+04 6.686e-09
 55.93319   -133.1 1.570e+04 6.169e-09
 55.94181   -133.1 1.560e+04 5.776e-09
 55.94675   -133.1 1.554e+04 5.728e-09
 55.95792   -133.0 1.550e+04 5.369e-09
 55.97772   -132.8 1.528e+04 4.673e-09
 55.99746   -132.9 1.500e+04 4.192e-09
 56.01120   -132.7 1.485e+04 4.017e-09
 56.02108   -132.7 1.455e+04 4.044e-09
 56.03696   -131.9 1.460e+04 3.976e-09
 56.05670   -131.2 1.465e+04 3.943e-09
 56.07645   -130.4 1.470e+04 3.912e-09
 56.09619   -129.7 1.475e+04 3.886e-09
 56.11594   -129.2 1.476e+04 3.925e-09
 56.13568   -128.7 1.480e+04 4.023e-09
 56.14979   -128.4 1.489e+04 4.251e-09
 56.15966   -128.4 1.440e+04 3.255e-09
 56.17517   -128.3 1.478e+04 3.705e-09
 56.19492   -128.0 1.518e+04 4.388e-09
 56.21467   -127.6 1.560e+04 5.244e-09
 56.23441   -127.0 1.597e+04 6.122e-09
 56.25103   -126.5 1.623e+04 6.796e-09
 56.26090   -126.3 1.610e+04 7.092e-09
 56.27390   -125.9 1.622e+04 7.344e-09
 56.28838   -125.5 1.622e+04 7.357e-09
 56.29825   -125.4 1.586e+04 5.799e-09
 56.31339   -124.3 1.541e+04 4.956e-09
 56.33314   -123.1 1.491e+04 3.869e-09
 56.35288   -122.2 1.438e+04 2.884e-09
 56.37263   -121.4 1.382e+04 2.098e-09
 56.39238   -120.8 1.322e+04 1.507e-09
 56.41212   -120.3 1.255e+04 1.075e-09
 56.42697   -119.7 1.179e+04 7.717e-10
 56.43684   -121.2 9.309e+03 4.564e-10
 56.45161   -120.3 8.961e+03 3.737e-10
 56.47136   -119.2 8.741e+03 3.226e-10
 56.49110   -118.1 8.611e+03 2.909e-10
 56.51085   -116.9 8.548e+03 2.723e-10
 56.53059   -115.7 8.533e+03 2.646e-10
 56.55034   -114.5 8.532e+03 2.632e-10
 56.56555   -113.3 8.561e+03 2.637e-10
 56.57543   -113.8 8.700e+03 2.845e-10
 56.58983   -112.8 8.731e+03 2.896e-10
 56.60958   -111.7 8.755e+03 2.970e-10
 56.62932   -110.6 8.797e+03 3.081e-10
 56.64907   -109.6 8.852e+03 3.199e-10
 56.66881   -108.7 8.978e+03 3.413e-10
 56.68856   -107.9 9.086e+03 3.678e-10
 56.70414   -107.1 9.213e+03 4.024e-10
 56.72398   -107.5 9.250e+03 4.437e-10
 56.75786   -105.6 9.618e+03 5.544e-10
 56.79735   -103.8 9.890e+03 6.552e-10
 56.83685   -102.2 1.001e+04 7.150e-10
 56.87634   -100.8 1.002e+04 7.246e-10
 56.91583    -99.4 9.905e+03 6.854e-10
 56.95532    -97.9 9.754e+03 6.274e-10
 56.98151    -96.3 9.636e+03 5.788e-10
 57.00126    -96.5 9.663e+03 6.005e-10
 57.03430    -94.9 9.709e+03 6.086e-10
 57.07379    -93.3 9.795e+03 6.366e-10
 57.11328    -91.7 9.895e+03 6.636e-10
 57.15186    -90.2 9.909e+03 6.638e-10
 57.17160    -89.7 1.005e+04 7.154e-10
 57.19227    -88.3 1.006e+04 7.153e-10
 57.23176    -86.9 9.945e+03 6.482e-10
 57.25869    -85.4 9.755e+03 5.499e-10
 57.27843    -85.1 1.013e+04 7.417e-10
 57.31074    -84.0 9.748e+03 5.579e-10
 57.35023    -83.3 9.630e+03 4.835e-10
 57.38972    -82.9 9.648e+03 4.748e-10
 57.42921    -82.9 1.006e+04 5.658e-10
 57.46870    -83.4 1.069e+04 8.080e-10
 57.50819    -84.2 1.132e+04 1.124e-09
 57.53586    -85.9 1.187e+04 1.401e-09
 57.55561    -85.5 1.128e+04 1.073e-09
 57.58718    -87.6 1.154e+04 1.135e-09
 57.62667    -89.8 1.168e+04 1.142e-09
 57.66616    -91.8 1.192e+04 1.163e-09
 57.70565    -94.3 1.236e+04 1.339e-09
 57.73517    -95.5 1.280e+04 1.672e-09
 57.75482    -96.7 1.293e+04 1.899e-09
 57.77456    -97.6 1.298e+04 2.042e-09
 57.79431    -98.2 1.286e+04 2.024e-09
 57.81284    -98.3 1.244e+04 1.711e-09
 57.82271    -98.2 1.273e+04 1.973e-09
 57.83380    -98.2 1.211e+04 1.406e-09
 57.85355    -98.2 1.143e+04 9.374e-10
 57.87329    -98.4 1.077e+04 6.274e-10
 57.89304    -98.3 1.024e+04 4.441e-10
 57.91278    -98.0 9.897e+03 3.440e-10
 57.93253    -97.3 9.819e+03 3.019e-10
 57.95143    -96.6 9.820e+03 2.911e-10
 57.96130    -96.5 9.885e+03 2.981e-10
 57.98199    -96.0 9.828e+03 2.834e-10
 58.02158    -94.3 9.685e+03 2.675e-10
 58.06107    -92.5 9.668e+03 2.639e-10
 58.08211    -90.9 9.756e+03 2.748e-10
 58.09151    -90.6 9.538e+03 2.588e-10
 58.10996    -90.5 1.028e+04 3.939e-10
 58.14005    -88.9 1.024e+04 4.116e-10
 58.17954    -87.5 1.020e+04 4.331e-10
 58.21903    -86.1 1.017e+04 4.584e-10
 58.25852    -84.7 1.017e+04 4.813e-10
 58.29802    -83.3 1.017e+04 4.951e-10
 58.33751    -82.1 1.018e+04 5.021e-10
 58.36739    -81.1 1.018e+04 5.077e-10
 58.38713    -80.3 1.019e+04 4.970e-10
 58.41649    -79.4 1.021e+04 5.308e-10
 58.44601    -78.8 1.031e+04 6.127e-10
 58.46566    -78.2 1.041e+04 6.471e-10
 58.48540    -77.6 1.054e+04 6.854e-10
 58.50515    -77.1 1.067e+04 7.211e-10
 58.51565    -76.7 1.083e+04 7.560e-10
 58.52552    -76.6 1.067e+04 6.510e-10
 58.53717    -76.1 1.089e+04 6.921e-10
 58.54704    -75.8 1.082e+04 6.893e-10
 58.56439    -75.5 1.103e+04 7.462e-10
 58.58413    -75.2 1.128e+04 8.143e-10
 58.61385    -75.1 1.159e+04 9.127e-10
 58.64456    -74.4 1.220e+04 1.112e-09
 58.66431    -73.5 1.215e+04 9.818e-10
 58.69293    -72.8 1.284e+04 1.350e-09
 58.73242    -72.1 1.349e+04 1.717e-09
 58.76194    -72.4 1.365e+04 2.070e-09
 58.78159    -72.1 1.358e+04 2.131e-09
 58.79282    -71.7 1.359e+04 2.232e-09
 58.80270    -70.7 1.370e+04 2.401e-09
 58.82108    -70.4 1.373e+04 2.437e-09
 58.84082    -70.0 1.382e+04 2.532e-09
 58.86057    -69.7 1.390e+04 2.656e-09
 58.88031    -69.2 1.396e+04 2.753e-09
 58.90006    -68.8 1.398e+04 2.792e-09
 58.91981    -68.2 1.401e+04 2.808e-09
 58.93141    -67.9 1.409e+04 2.836e-09
 58.94129    -67.0 1.383e+04 2.571e-09
 58.95930    -66.8 1.403e+04 2.597e-09
 58.97904    -67.0 1.454e+04 2.927e-09
 58.99242    -67.5 1.520e+04 3.872e-09
 59.00229    -67.7 1.536e+04 3.936e-09
 59.01853    -67.9 1.623e+04 5.737e-09
 59.03828    -67.7 1.731e+04 8.654e-09
 59.05802    -67.6 1.838e+04 1.274e-08
 59.07000    -68.0 1.917e+04 1.720e-08
 59.07987    -67.4 1.914e+04 1.668e-08
 59.09752    -68.0 1.949e+04 2.008e-08
 59.11726    -68.2 1.963e+04 2.182e-08
 59.13701    -68.6 1.966e+04 2.213e-08
 59.15675    -68.8 1.901e+04 1.819e-08
 59.17650    -68.5 1.776e+04 1.144e-08
 59.19624    -68.0 1.656e+04 6.487e-09
 59.20859    -67.9 1.564e+04 3.571e-09
 59.21846    -67.4 1.566e+04 3.816e-09
 59.23573    -68.3 1.533e+04 2.266e-09
 59.25548    -69.3 1.504e+04 1.426e-09
 59.27523    -70.0 1.488e+04 1.018e-09
 59.29497    -70.5 1.512e+04 9.145e-10
 59.31472    -71.1 1.539e+04 9.114e-10
 59.33446    -72.1 1.560e+04 1.101e-09
 59.34717    -73.0 1.554e+04 1.567e-09
 59.35705    -72.7 1.567e+04 1.788e-09
 59.37395    -73.2 1.552e+04 2.413e-09
 59.39370    -73.2 1.540e+04 3.050e-09
 59.41344    -73.0 1.530e+04 3.402e-09
 59.43319    -72.7 1.515e+04 3.387e-09
 59.44767    -72.4 1.496e+04 3.271e-09
 59.45754    -70.8 1.482e+04 3.208e-09
 59.47268    -70.3 1.469e+04 3.240e-09
 59.48576    -69.7 1.467e+04 3.153e-09
 59.49563    -70.0 1.444e+04 2.480e-09
 59.51217    -69.9 1.402e+04 1.947e-09
 59.53192    -70.1 1.331e+04 1.476e-09
 59.55166    -70.6 1.250e+04 1.163e-09
 59.57141    -71.3 1.207e+04 1.045e-09
 59.59115    -71.9 1.194e+04 1.045e-09
 59.61090    -72.5 1.190e+04 1.051e-09
 59.62435    -72.9 1.206e+04 1.145e-09
 59.63422    -74.3 1.259e+04 1.518e-09
 59.65039    -74.3 1.288e+04 1.844e-09
 59.67014    -74.3 1.316e+04 2.190e-09
 59.68988    -74.5 1.350e+04 2.565e-09
 59.70963    -74.7 1.394e+04 2.994e-09
 59.72937    -74.9 1.444e+04 3.545e-09
 59.74912    -75.1 1.498e+04 4.178e-09
 59.76294    -75.4 1.541e+04 4.730e-09
 59.77281    -76.5 1.551e+04 4.934e-09
 59.78861    -77.1 1.550e+04 4.939e-09
 59.80835    -77.8 1.536e+04 4.706e-09
 59.82810    -78.9 1.528e+04 4.496e-09
 59.84785    -80.5 1.534e+04 4.469e-09
 59.86759    -82.9 1.589e+04 4.867e-09
 59.88734    -85.3 1.644e+04 5.817e-09
 59.90152    -87.2 1.675e+04 6.687e-09
 59.90724    -89.3 1.713e+04 7.899e-09
 59.91280    -88.7 1.784e+04 8.771e-09
 59.92683    -90.2 1.773e+04 8.813e-09
 59.94657    -91.2 1.711e+04 7.647e-09
 59.96632    -92.5 1.639e+04 5.477e-09
 59.98606    -94.8 1.547e+04 3.500e-09
 60.00581    -98.1 1.427e+04 2.098e-09
 60.02556   -101.3 1.275e+04 1.284e-09
 60.04011   -103.6 1.157e+04 9.026e-10
 60.04998   -106.1 1.094e+04 7.057e-10
 60.06505   -106.8 1.058e+04 5.709e-10
 60.08479   -107.3 1.038e+04 4.800e-10
 60.10454   -107.9 1.026e+04 4.132e-10
 60.12428   -109.0 1.028e+04 3.920e-10
 60.14403   -112.9 1.099e+04 3.880e-10
 60.16377   -120.6 1.454e+04 6.129e-10
 60.17870   -126.8 1.601e+04 1.759e-09
 60.18857   -129.2 1.571e+04 2.129e-09
 60.20327   -131.9 1.601e+04 3.918e-09
 60.22301   -134.1 1.601e+04 4.751e-09
 60.24276   -136.5 1.587e+04 4.794e-09
 60.26250   -138.9 1.482e+04 3.384e-09
 60.28225   -142.5 1.315e+04 1.543e-09
 60.30199   -147.2 1.099e+04 5.971e-10
 60.31729   -151.3 9.477e+03 2.827e-10
 60.32716   -151.0 9.281e+03 2.519e-10
 60.34148   -151.9 8.957e+03 2.098e-10
 60.35818   -152.1 8.917e+03 2.048e-10
 60.36805   -154.0 8.898e+03 2.156e-10
 60.38098   -154.0 8.907e+03 2.144e-10
 60.40072   -154.1 8.932e+03 2.138e-10
 60.42047   -154.6 9.047e+03 2.376e-10
 60.44021   -155.4 9.401e+03 3.113e-10
 60.45587   -156.3 1.029e+04 4.632e-10
 60.46575   -154.7 9.646e+03 3.717e-10
 60.47970   -155.0 1.020e+04 5.079e-10
 60.49945   -155.2 1.095e+04 7.101e-10
 60.51919   -155.4 1.181e+04 1.009e-09
 60.53894   -155.6 1.268e+04 1.445e-09
 60.55869   -156.2 1.380e+04 2.112e-09
 60.57843   -157.3 1.546e+04 3.284e-09
 60.59446   -158.6 1.768e+04 5.317e-09
 60.60433   -155.2 1.367e+04 2.176e-09
 60.61792   -156.0 1.505e+04 3.208e-09
 60.63767   -156.7 1.703e+04 5.033e-09
 60.65741   -157.0 1.881e+04 8.057e-09
 60.67716   -156.8 1.992e+04 1.206e-08
 60.69690   -156.4 2.028e+04 1.581e-08
 60.71665   -155.9 2.013e+04 1.754e-08
 60.73305   -155.0 1.986e+04 1.771e-08
 60.74292   -152.8 1.992e+04 1.700e-08
 60.75614   -151.7 1.984e+04 1.754e-08
 60.77090   -150.9 1.927e+04 1.741e-08
 60.78073   -150.4 1.888e+04 1.581e-08
 60.79060   -149.8 1.844e+04 1.374e-08
 60.80047   -149.2 1.815e+04 1.160e-08
 60.80718   -148.7 1.785e+04 9.469e-09
 60.81212   -148.5 1.899e+04 1.168e-08
 60.81827   -147.9 1.873e+04 9.415e-09
 60.82320   -147.9 1.934e+04 9.669e-09
 60.83009   -147.5 1.918e+04 7.513e-09
 60.83996   -147.2 1.895e+04 5.663e-09
 60.84983   -146.9 1.856e+04 4.096e-09
 60.85971   -147.1 1.796e+04 2.934e-09
 60.87159   -147.6 1.704e+04 2.051e-09
 60.88146   -145.2 1.862e+04 3.891e-09
 60.88933   -145.4 1.794e+04 2.848e-09
 60.89920   -145.5 1.718e+04 2.251e-09
 60.90907   -145.4 1.680e+04 1.965e-09
 60.91894   -145.1 1.658e+04 1.789e-09
 60.93380   -144.9 1.607e+04 1.471e-09
 60.95360   -143.8 1.426e+04 9.646e-10
 60.97334   -142.9 1.248e+04 6.964e-10
 60.99309   -141.9 1.155e+04 5.662e-10
 61.01022   -140.6 1.119e+04 5.180e-10
 61.02010   -140.4 1.457e+04 1.080e-09
 61.03258   -139.6 1.413e+04 9.959e-10
 61.05232   -139.5 1.424e+04 1.027e-09
 61.07207   -139.6 1.490e+04 1.266e-09
 61.08441   -140.2 1.513e+04 1.450e-09
 61.08929   -140.4 1.573e+04 1.605e-09
 61.09665   -140.8 1.630e+04 1.905e-09
 61.10653   -141.3 1.701e+04 2.371e-09
 61.11640   -141.8 1.775e+04 3.070e-09
 61.12627   -142.2 1.837e+04 4.087e-09
 61.13615   -142.5 1.885e+04 5.250e-09
 61.14602   -142.6 1.920e+04 6.586e-09
 61.15365   -142.6 1.946e+04 7.907e-09
 61.15859   -142.5 2.000e+04 1.174e-08
 61.16576   -142.5 1.983e+04 1.245e-08
 61.17564   -142.4 1.975e+04 1.276e-08
 61.18551   -142.4 1.973e+04 1.285e-08
 61.19538   -142.4 1.976e+04 1.266e-08
 61.20525   -142.7 1.978e+04 1.237e-08
 61.21513   -143.2 1.966e+04 1.193e-08
 61.22294   -143.9 1.940e+04 1.129e-08
 61.22788   -144.2 1.891e+04 1.130e-08
 61.23487   -145.0 1.852e+04 1.040e-08
 61.24475   -145.5 1.827e+04 9.806e-09
 61.25462   -145.6 1.824e+04 9.629e-09
 61.26863   -145.5 1.835e+04 9.621e-09
 61.27855   -147.5 1.827e+04 1.056e-08
 61.28740   -147.5 1.816e+04 1.069e-08
 61.29727   -147.3 1.757e+04 7.439e-09
 61.30902   -147.2 1.754e+04 7.401e-09
 61.32876   -146.9 1.756e+04 7.529e-09
 61.34851   -146.2 1.751e+04 7.751e-09
 61.36825   -145.4 1.746e+04 7.893e-09
 61.38800   -144.5 1.730e+04 7.738e-09
 61.40774   -143.5 1.714e+04 6.999e-09
 61.42599   -142.6 1.675e+04 5.735e-09
 61.43586   -142.9 1.624e+04 2.340e-09
 61.44724   -142.3 1.544e+04 1.879e-09
 61.46698   -141.9 1.435e+04 1.460e-09
 61.48673   -141.5 1.322e+04 1.160e-09
 61.50647   -140.9 1.226e+04 9.981e-10
 61.52622   -140.0 1.175e+04 9.322e-10
 61.54596   -138.7 1.157e+04 9.130e-10
 61.56457   -137.3 1.156e+04 9.060e-10
 61.57445   -136.5 1.115e+04 7.524e-10
 61.58545   -134.9 1.126e+04 7.777e-10
 61.60520   -133.4 1.138e+04 7.863e-10
 61.62494   -131.8 1.144e+04 7.853e-10
 61.64469   -130.3 1.149e+04 7.758e-10
 61.66444   -129.0 1.155e+04 7.577e-10
 61.68418   -127.7 1.160e+04 7.437e-10
 61.70316   -126.6 1.164e+04 7.398e-10
 61.71303   -125.8 1.169e+04 7.892e-10
 61.72367   -124.9 1.202e+04 8.309e-10
 61.73381   -124.5 1.254e+04 9.312e-10
 61.74368   -127.0 1.444e+04 1.647e-09
 61.76316   -126.7 1.565e+04 2.659e-09
 61.78291   -126.0 1.652e+04 4.148e-09
 61.80265   -125.2 1.706e+04 5.757e-09
 61.82240   -124.5 1.726e+04 6.548e-09
 61.84175   -123.9 1.704e+04 6.524e-09
 61.85162   -123.5 1.695e+04 6.017e-09
 61.85691   -122.6 1.606e+04 4.586e-09
 61.86673   -122.1 1.587e+04 4.561e-09
 61.88159   -121.4 1.567e+04 4.902e-09
 61.90138   -120.7 1.522e+04 4.625e-09
 61.92113   -119.9 1.464e+04 4.047e-09
 61.94087   -119.1 1.410e+04 3.431e-09
 61.96062   -118.5 1.382e+04 3.108e-09
 61.98034   -118.0 1.377e+04 3.023e-09
 62.00008   -117.6 1.348e+04 2.661e-09
 62.01986   -117.2 1.366e+04 3.102e-09
 62.03960   -116.5 1.399e+04 3.710e-09
 62.05935   -115.6 1.437e+04 4.392e-09
 62.07909   -114.8 1.468e+04 4.964e-09
 62.09884   -114.1 1.485e+04 5.326e-09
 62.11858   -113.5 1.488e+04 5.412e-09
 62.12880   -112.8 1.484e+04 5.378e-09
 62.13867   -112.7 1.464e+04 4.483e-09
 62.15807   -112.0 1.448e+04 4.239e-09
 62.17782   -111.1 1.423e+04 3.815e-09
 62.18906   -110.3 1.399e+04 3.395e-09
 62.19893   -110.4 1.381e+04 2.752e-09
 62.21731   -109.7 1.358e+04 2.331e-09
 62.23706   -109.0 1.338e+04 1.968e-09
 62.25680   -108.5 1.320e+04 1.665e-09
 62.26738   -108.2 1.300e+04 1.410e-09
 62.27726   -109.5 1.336e+04 1.658e-09
 62.29629   -109.4 1.323e+04 1.558e-09
 62.31604   -109.1 1.309e+04 1.492e-09
 62.33578   -108.6 1.295e+04 1.459e-09
 62.35553   -107.8 1.276e+04 1.451e-09
 62.37528   -106.8 1.248e+04 1.431e-09
 62.39502   -105.6 1.217e+04 1.357e-09
 62.40597   -104.2 1.187e+04 1.265e-09
 62.41584   -104.3 1.175e+04 1.386e-09
 62.43451   -103.0 1.152e+04 1.185e-09
 62.45426   -101.8 1.135e+04 1.021e-09
 62.47400   -100.7 1.120e+04 8.807e-10
 62.49375    -99.7 1.107e+04 7.602e-10
 62.51349    -98.7 1.095e+04 6.643e-10
 62.53324    -97.6 1.087e+04 5.980e-10
 62.54456    -96.6 1.083e+04 5.563e-10
 62.55443    -97.7 1.069e+04 4.763e-10
 62.57273    -96.7 1.061e+04 4.568e-10
 62.59248    -95.6 1.058e+04 4.518e-10
 62.61222    -94.6 1.060e+04 4.540e-10
 62.63197    -93.7 1.068e+04 4.940e-10
 62.64431    -92.7 1.082e+04 5.605e-10
 62.65418    -93.0 1.035e+04 5.086e-10
 62.67146    -91.8 1.053e+04 5.673e-10
 62.68315    -90.6 1.071e+04 6.471e-10
 62.69302    -91.4 1.055e+04 6.746e-10
 62.71095    -90.1 1.084e+04 7.855e-10
 62.73070    -88.9 1.117e+04 9.141e-10
 62.75044    -87.8 1.158e+04 1.069e-09
 62.77019    -86.8 1.210e+04 1.267e-09
 62.78993    -85.9 1.270e+04 1.540e-09
 62.80968    -85.0 1.331e+04 1.918e-09
 62.82173    -84.3 1.388e+04 2.401e-09
 62.83161    -85.3 1.395e+04 2.632e-09
 62.84917    -84.4 1.440e+04 3.168e-09
 62.86891    -83.7 1.481e+04 3.724e-09
 62.88866    -83.1 1.510e+04 4.237e-09
 62.90841    -82.3 1.524e+04 4.650e-09
 62.92815    -81.5 1.526e+04 4.833e-09
 62.94790    -80.8 1.518e+04 4.805e-09
 62.96032    -80.3 1.509e+04 4.703e-09
 62.97019    -81.6 1.520e+04 5.035e-09
 62.98739    -82.2 1.710e+04 6.080e-09
 63.00713    -84.0 2.023e+04 8.115e-09
 63.02189    -85.3 2.180e+04 1.033e-08
 63.02952    -86.2 2.278e+04 1.236e-08
 63.03445    -87.8 2.394e+04 1.809e-08
 63.04159    -88.6 2.450e+04 2.477e-08
 63.05146    -88.8 2.381e+04 3.248e-08
 63.06134    -88.9 2.299e+04 4.301e-08
 63.07121    -89.0 2.207e+04 5.155e-08
 63.08108    -89.0 2.149e+04 5.449e-08
 63.09095    -88.3 2.073e+04 5.464e-08
 63.09881    -87.6 2.042e+04 5.296e-08
 63.10239    -88.0 2.026e+04 6.629e-08
 63.10440    -87.5 2.002e+04 6.336e-08
 63.11070    -87.3 2.011e+04 5.551e-08
 63.12057    -87.3 2.001e+04 4.544e-08
 63.13045    -87.1 1.961e+04 3.428e-08
 63.14032    -86.9 1.914e+04 2.490e-08
 63.15019    -86.9 1.879e+04 1.819e-08
 63.16505    -87.5 1.830e+04 1.282e-08
 63.18484    -87.4 1.745e+04 7.904e-09
 63.20459    -87.1 1.688e+04 5.378e-09
 63.22433    -87.1 1.604e+04 3.343e-09
 63.23750    -87.1 1.533e+04 2.290e-09
 63.24737    -90.1 1.388e+04 1.326e-09
 63.26383    -90.2 1.270e+04 9.930e-10
 63.28357    -90.0 1.190e+04 8.324e-10
 63.30332    -89.3 1.169e+04 7.715e-10
 63.32306    -88.4 1.158e+04 7.498e-10
 63.34281    -87.3 1.145e+04 7.323e-10
 63.36255    -86.1 1.136e+04 7.166e-10
 63.37608    -84.4 1.135e+04 7.193e-10
 63.39593    -84.8 1.142e+04 7.142e-10
 63.43186    -81.6 1.140e+04 7.169e-10
 63.47135    -78.5 1.160e+04 7.672e-10
 63.50087    -76.1 1.157e+04 7.922e-10
 63.51467    -74.6 1.156e+04 8.132e-10
 63.52454    -75.2 1.191e+04 9.089e-10
 63.54026    -73.0 1.185e+04 9.430e-10
 63.55482    -71.4 1.183e+04 9.684e-10
 63.56469    -71.6 1.139e+04 8.411e-10
 63.57975    -70.0 1.135e+04 8.253e-10
 63.59950    -68.5 1.131e+04 8.061e-10
 63.61925    -67.2 1.133e+04 7.993e-10
 63.63899    -66.8 1.162e+04 8.277e-10
 63.65326    -67.0 1.207e+04 1.037e-09
 63.66313    -68.4 1.350e+04 1.264e-09
 63.67848    -68.7 1.384e+04 1.747e-09
 63.69823    -68.7 1.417e+04 2.512e-09
 63.71797    -68.3 1.466e+04 3.604e-09
 63.73772    -67.6 1.543e+04 5.030e-09
 63.75746    -66.8 1.633e+04 6.866e-09
 63.77721    -66.5 1.728e+04 8.503e-09
 63.79185    -66.6 1.805e+04 9.661e-09
 63.80172    -66.8 1.792e+04 6.434e-09
 63.81670    -67.9 1.821e+04 6.807e-09
 63.83645    -70.0 1.815e+04 7.530e-09
 63.85619    -74.4 1.984e+04 1.072e-08
 63.87095    -79.9 2.298e+04 1.885e-08
 63.88078    -84.0 2.422e+04 3.027e-08
 63.89065    -87.2 2.431e+04 4.704e-08
 63.90052    -89.5 2.369e+04 5.887e-08
 63.91039    -91.1 2.340e+04 6.119e-08
 63.92027    -91.9 2.276e+04 5.649e-08
 63.93014    -92.8 2.299e+04 3.802e-08
 63.93527    -94.9 2.288e+04 2.124e-08
 63.94021    -94.9 2.234e+04 2.483e-08
 63.94989    -98.2 2.125e+04 1.201e-08
 63.95976   -101.3 1.872e+04 7.107e-09
 63.97462   -103.3 1.650e+04 4.727e-09
 63.99441   -104.4 1.390e+04 2.758e-09
 64.01007   -104.4 1.269e+04 1.712e-09
 64.01994   -104.6 1.318e+04 1.992e-09
 64.03390   -103.8 1.241e+04 1.472e-09
 64.05365   -102.9 1.178e+04 1.178e-09
 64.06902   -101.8 1.123e+04 9.898e-10
 64.07889   -103.0 1.069e+04 7.446e-10
 64.09314   -101.6 1.039e+04 7.040e-10
 64.11288   -100.2 1.018e+04 6.704e-10
 64.13263    -98.9 1.008e+04 6.434e-10
 64.15237    -97.5 1.003e+04 6.319e-10
 64.17212    -96.3 1.002e+04 6.285e-10
 64.19187    -95.3 1.010e+04 6.363e-10
 64.20761    -94.4 1.022e+04 6.588e-10
 64.21748    -95.1 1.046e+04 7.703e-10
 64.23136    -94.3 1.061e+04 8.217e-10
 64.25110    -93.5 1.070e+04 8.556e-10
 64.27085    -92.9 1.073e+04 8.681e-10
 64.29059    -92.4 1.068e+04 8.618e-10
 64.31034    -91.9 1.054e+04 8.240e-10
 64.33008    -91.3 1.034e+04 7.687e-10
 64.34620    -90.4 1.015e+04 7.022e-10
 64.35607    -90.8 1.011e+04 6.919e-10
 64.36958    -89.8 9.884e+03 6.069e-10
 64.38932    -88.7 9.730e+03 5.341e-10
 64.41904    -87.7 9.599e+03 4.668e-10
 64.45564    -85.9 9.198e+03 3.561e-10
 64.47539    -87.0 9.032e+03 3.192e-10
 64.48498    -85.3 8.727e+03 2.535e-10
 64.50472    -86.5 8.936e+03 2.680e-10
 64.53761    -85.0 8.977e+03 2.636e-10
 64.57710    -83.4 9.104e+03 2.773e-10
 64.61659    -81.5 9.213e+03 2.934e-10
 64.65608    -79.5 9.358e+03 3.131e-10
 64.69557    -77.6 9.630e+03 3.567e-10
 64.73506    -75.8 1.005e+04 4.585e-10
 64.76215    -74.0 1.058e+04 6.577e-10
 64.78190    -74.9 1.096e+04 8.307e-10
 64.81405    -72.8 1.140e+04 1.080e-09
 64.85354    -70.5 1.192e+04 1.428e-09
 64.89303    -68.2 1.239e+04 1.775e-09
 64.93252    -65.9 1.261e+04 1.902e-09
 64.97201    -63.7 1.267e+04 1.771e-09
 65.00153    -62.0 1.216e+04 1.232e-09
 65.02118    -61.6 1.203e+04 1.164e-09
 65.03913    -60.7 1.176e+04 9.965e-10
 65.04900    -60.7 1.145e+04 8.325e-10
 65.06067    -60.1 1.132e+04 7.936e-10
 65.08042    -58.8 1.123e+04 7.709e-10
 65.10016    -57.8 1.122e+04 7.696e-10
 65.11991    -57.1 1.137e+04 8.003e-10
 65.13965    -56.9 1.174e+04 8.756e-10
 65.15940    -57.5 1.250e+04 1.130e-09
 65.17772    -59.2 1.330e+04 1.793e-09
 65.18759    -59.7 1.319e+04 1.731e-09
 65.19889    -60.6 1.398e+04 3.267e-09
 65.21863    -60.4 1.490e+04 5.995e-09
 65.23838    -58.9 1.579e+04 9.204e-09
 65.25813    -57.5 1.642e+04 1.108e-08
 65.27787    -56.6 1.653e+04 1.123e-08
 65.29762    -55.7 1.629e+04 8.222e-09
 65.31631    -55.8 1.556e+04 4.588e-09
 65.32618    -56.2 1.557e+04 4.791e-09
 65.33711    -58.1 1.446e+04 2.788e-09
 65.35685    -59.3 1.324e+04 1.957e-09
 65.37583    -59.6 1.248e+04 1.627e-09
 65.38570    -60.1 1.206e+04 1.382e-09
 65.39634    -58.8 1.185e+04 1.298e-09
 65.41609    -57.6 1.174e+04 1.233e-09
 65.43584    -56.4 1.162e+04 1.156e-09
 65.45489    -55.3 1.151e+04 1.072e-09
 65.46477    -55.5 1.119e+04 8.819e-10
 65.47533    -54.5 1.109e+04 7.993e-10
 65.49507    -53.5 1.098e+04 7.258e-10
 65.51482    -52.5 1.086e+04 6.655e-10
 65.53456    -51.4 1.081e+04 6.329e-10
 65.55431    -50.5 1.080e+04 6.155e-10
 65.57405    -49.5 1.079e+04 6.048e-10
 65.59348    -48.6 1.081e+04 5.980e-10
 65.60335    -49.2 1.058e+04 4.823e-10
 65.61355    -48.3 1.059e+04 4.788e-10
 65.63329    -47.5 1.060e+04 4.772e-10
 65.65304    -46.7 1.059e+04 4.770e-10
 65.67278    -45.9 1.071e+04 4.793e-10
 65.69253    -45.2 1.077e+04 4.781e-10
 65.71227    -44.6 1.076e+04 4.785e-10
 65.73202    -44.2 1.065e+04 4.800e-10
 65.75176    -44.4 1.027e+04 4.388e-10
 65.77151    -43.8 1.027e+04 4.491e-10
 65.79126    -43.4 1.042e+04 4.740e-10
 65.81100    -43.4 1.072e+04 5.070e-10
 65.83075    -44.0 1.120e+04 5.616e-10
 65.84095    -45.5 1.183e+04 6.808e-10
 65.85082    -47.0 1.175e+04 7.589e-10
 65.87024    -48.0 1.206e+04 1.047e-09
 65.88053    -48.7 1.236e+04 1.451e-09
 65.89040    -49.4 1.268e+04 1.863e-09
 65.90973    -49.4 1.290e+04 2.251e-09
 65.92947    -49.3 1.301e+04 2.458e-09
 65.94922    -49.1 1.302e+04 2.489e-09
 65.96897    -48.8 1.282e+04 2.258e-09
 65.98871    -48.6 1.245e+04 1.800e-09
 66.00846    -48.6 1.207e+04 1.357e-09
 66.01912    -48.8 1.174e+04 1.018e-09
 66.02899    -48.5 1.169e+04 1.010e-09
 66.04795    -48.5 1.136e+04 7.835e-10
 66.06769    -48.5 1.100e+04 6.546e-10
 66.08744    -48.3 1.084e+04 6.112e-10
 66.10718    -48.8 1.135e+04 6.239e-10
 66.12693    -51.1 1.345e+04 9.339e-10
 66.14667    -53.3 1.429e+04 1.705e-09
 66.15770    -54.0 1.400e+04 2.908e-09
 66.16758    -54.2 1.422e+04 2.913e-09
 66.18617    -54.2 1.402e+04 4.158e-09
 66.20591    -53.2 1.398e+04 4.792e-09
 66.22566    -52.0 1.428e+04 5.165e-09
 66.24540    -51.1 1.464e+04 4.853e-09
 66.26515    -51.0 1.482e+04 3.196e-09
 66.28489    -53.0 1.419e+04 2.008e-09
 66.29620    -54.8 1.253e+04 1.341e-09
 66.30608    -53.2 1.397e+04 2.118e-09
 66.32438    -54.5 1.230e+04 1.388e-09
 66.34413    -54.8 1.175e+04 1.188e-09
 66.36388    -54.0 1.165e+04 1.151e-09
 66.38362    -53.5 1.158e+04 1.176e-09
 66.40337    -53.2 1.170e+04 1.254e-09
 66.42311    -53.1 1.220e+04 1.445e-09
 66.43488    -53.5 1.285e+04 1.817e-09
 66.44475    -54.9 1.327e+04 2.261e-09
 66.46260    -55.5 1.399e+04 3.052e-09
 66.48235    -56.1 1.470e+04 4.150e-09
 66.50209    -56.6 1.529e+04 5.389e-09
 66.52184    -56.8 1.568e+04 6.449e-09
 66.54159    -57.0 1.582e+04 6.881e-09
 66.56133    -57.3 1.576e+04 6.854e-09
 66.57347    -57.3 1.532e+04 5.919e-09
 66.58334    -58.0 1.509e+04 5.723e-09
 66.60082    -58.5 1.450e+04 4.419e-09
 66.62057    -59.5 1.377e+04 3.233e-09
 66.64031    -60.5 1.300e+04 2.296e-09
 66.66006    -61.5 1.231e+04 1.666e-09
 66.67980    -62.5 1.172e+04 1.267e-09
 66.69955    -63.5 1.122e+04 1.015e-09
 66.71205    -64.2 1.090e+04 8.721e-10
 66.72193    -64.3 1.091e+04 8.423e-10
 66.73904    -64.7 1.076e+04 7.730e-10
 66.75146    -65.2 1.073e+04 7.360e-10
 66.76133    -65.3 1.065e+04 7.045e-10
 66.77853    -66.2 1.051e+04 6.331e-10
 66.79828    -67.3 1.028e+04 5.520e-10
 66.81802    -68.4 1.008e+04 4.819e-10
 66.83777    -69.4 9.945e+03 4.214e-10
 66.85064    -70.3 9.835e+03 3.725e-10
 66.86051    -70.1 1.000e+04 4.049e-10
 66.87726    -70.8 9.861e+03 3.583e-10
 66.90698    -71.3 9.683e+03 3.073e-10
 66.94656    -72.2 9.234e+03 2.359e-10
 66.97955    -73.0 9.023e+03 1.999e-10
 66.99930    -72.8 9.214e+03 2.170e-10
 67.02555    -73.4 9.134e+03 2.079e-10
 67.06504    -74.0 9.118e+03 2.080e-10
 67.10453    -74.9 9.220e+03 2.233e-10
 67.14402    -76.2 9.456e+03 2.621e-10
 67.18351    -77.8 9.887e+03 3.562e-10
 67.20690    -79.0 1.024e+04 5.014e-10
 67.21668    -80.3 1.073e+04 7.382e-10
 67.23268    -80.4 1.072e+04 7.459e-10
 67.25243    -80.8 1.064e+04 7.551e-10
 67.26640    -81.3 1.062e+04 7.506e-10
 67.27628    -81.4 1.089e+04 8.738e-10
 67.29192    -81.9 1.087e+04 7.833e-10
 67.31166    -82.8 1.092e+04 6.660e-10
 67.33141    -84.4 1.092e+04 5.808e-10
 67.35115    -86.2 1.084e+04 5.510e-10
 67.38087    -87.8 1.075e+04 5.985e-10
 67.42046    -88.3 1.061e+04 6.148e-10
 67.45995    -88.6 1.034e+04 6.067e-10
 67.49944    -88.5 1.003e+04 5.394e-10
 67.53390    -88.1 9.702e+03 4.355e-10
 67.55365    -89.1 9.662e+03 4.353e-10
 67.57842    -88.3 9.269e+03 3.228e-10
 67.61791    -87.4 8.966e+03 2.482e-10
 67.65740    -86.3 8.790e+03 2.174e-10
 67.69690    -84.9 8.727e+03 2.103e-10
 67.73639    -83.3 8.707e+03 2.089e-10
 67.77588    -81.7 8.697e+03 2.085e-10
 67.81108    -80.1 8.685e+03 2.067e-10
 67.83082    -80.1 8.585e+03 1.904e-10
 67.85486    -78.5 8.569e+03 1.856e-10
 67.89435    -76.8 8.532e+03 1.774e-10
 67.93384    -75.2 8.491e+03 1.652e-10
 67.97333    -73.6 8.432e+03 1.501e-10
 68.01282    -72.0 8.371e+03 1.351e-10
 68.05232    -70.4 8.313e+03 1.245e-10
 68.08825    -68.7 8.285e+03 1.193e-10
 68.10800    -68.5 8.201e+03 1.049e-10
 68.11741    -66.9 8.201e+03 1.032e-10
 68.13716    -66.6 8.285e+03 1.058e-10
 68.17079    -65.0 8.364e+03 1.147e-10
 68.21028    -63.3 8.489e+03 1.357e-10
 68.24977    -61.5 8.713e+03 1.705e-10
 68.28926    -59.8 9.062e+03 2.252e-10
 68.32875    -58.3 9.494e+03 3.111e-10
 68.35827    -56.9 9.684e+03 3.704e-10
 68.37510    -56.9 9.705e+03 3.857e-10
 68.38507    -56.6 9.575e+03 3.466e-10
 68.39776    -55.6 9.818e+03 4.406e-10
 68.41741    -55.4 9.903e+03 4.980e-10
 68.43716    -54.4 1.014e+04 6.128e-10
 68.45690    -53.6 1.027e+04 6.502e-10
 68.47665    -52.9 1.035e+04 6.680e-10
 68.49639    -52.3 1.040e+04 6.747e-10
 68.51369    -51.9 1.049e+04 6.925e-10
 68.52356    -51.5 1.041e+04 6.739e-10
 68.53589    -51.2 1.055e+04 7.095e-10
 68.55563    -50.9 1.074e+04 7.813e-10
 68.57247    -50.7 1.095e+04 8.891e-10
 68.58234    -50.3 1.094e+04 8.978e-10
 68.59512    -49.9 1.110e+04 1.021e-09
 68.61487    -49.3 1.121e+04 1.113e-09
 68.63461    -48.6 1.125e+04 1.160e-09
 68.65228    -47.8 1.121e+04 1.143e-09
 68.66215    -47.9 1.141e+04 1.284e-09
 68.67410    -47.1 1.137e+04 1.254e-09
 68.69385    -46.6 1.131e+04 1.165e-09
 68.72357    -46.0 1.128e+04 1.136e-09
 68.76316    -44.4 1.092e+04 9.423e-10
 68.80265    -42.7 1.082e+04 8.698e-10
 68.84214    -41.8 1.142e+04 1.049e-09
 68.87166    -41.4 1.204e+04 1.527e-09
 68.89131    -41.5 1.208e+04 1.594e-09
 68.91105    -40.7 1.311e+04 3.017e-09
 68.92945    -40.7 1.336e+04 3.842e-09
 68.93933    -40.8 1.247e+04 2.502e-09
 68.95054    -39.2 1.292e+04 3.032e-09
 68.97029    -38.1 1.327e+04 3.352e-09
 68.99003    -37.0 1.349e+04 3.470e-09
 69.00978    -36.3 1.360e+04 3.236e-09
 69.02772    -36.1 1.359e+04 2.881e-09
 69.03759    -35.3 1.427e+04 3.879e-09
 69.04927    -35.7 1.417e+04 3.536e-09
 69.06804    -36.5 1.420e+04 3.501e-09
 69.07791    -36.9 1.297e+04 1.919e-09
 69.08876    -38.5 1.369e+04 2.460e-09
 69.10851    -40.1 1.448e+04 3.617e-09
 69.12825    -40.9 1.502e+04 5.157e-09
 69.14800    -40.8 1.553e+04 6.581e-09
 69.16774    -40.2 1.579e+04 7.110e-09
 69.18749    -39.9 1.535e+04 5.924e-09
 69.20663    -39.8 1.445e+04 3.877e-09
 69.21650    -39.9 1.379e+04 2.719e-09
 69.22698    -40.6 1.296e+04 1.753e-09
 69.24673    -41.0 1.228e+04 1.252e-09
 69.26647    -40.8 1.191e+04 9.557e-10
 69.28622    -40.3 1.170e+04 7.687e-10
 69.31593    -39.7 1.127e+04 5.903e-10
 69.35552    -37.5 1.081e+04 4.573e-10
 69.39501    -35.5 1.073e+04 4.109e-10
 69.43450    -33.5 1.073e+04 3.922e-10
 69.47399    -31.4 1.076e+04 3.879e-10
 69.51349    -29.2 1.067e+04 3.382e-10
 69.55298    -27.3 1.069e+04 3.733e-10
 69.59247    -25.1 1.070e+04 4.297e-10
 69.63196    -22.6 1.082e+04 4.828e-10
 69.67145    -20.3 1.084e+04 5.147e-10
 69.71094    -18.1 1.093e+04 5.559e-10
 69.75043    -16.0 1.113e+04 6.103e-10
 69.77105    -14.0 1.131e+04 7.008e-10
 69.79079    -14.0 1.135e+04 7.103e-10
 69.81944    -12.5 1.141e+04 7.774e-10
 69.83909    -11.7 1.155e+04 8.176e-10
 69.85884    -10.8 1.169e+04 8.456e-10
 69.87858    -10.3 1.184e+04 8.657e-10
 69.89833     -9.5 1.196e+04 8.694e-10
 69.90944     -9.1 1.221e+04 9.139e-10
 69.91931     -9.5 1.220e+04 9.120e-10
 69.93782     -9.3 1.231e+04 9.970e-10
 69.94810     -9.0 1.247e+04 1.126e-09
 69.95797     -8.5 1.250e+04 1.038e-09
 69.97731     -8.5 1.259e+04 1.228e-09
 69.99706     -8.2 1.254e+04 1.398e-09
 70.01680     -7.7 1.269e+04 1.648e-09
 70.03655     -7.3 1.280e+04 1.746e-09
 70.04812     -5.9 1.260e+04 1.622e-09
 70.06797     -6.8 1.252e+04 1.625e-09
 70.10585     -5.1 1.193e+04 1.098e-09
 70.14534     -4.1 1.154e+04 6.629e-10
 70.18483     -3.5 1.131e+04 4.493e-10
 70.22433     -2.3 1.121e+04 4.150e-10
 70.26382     -0.7 1.124e+04 4.335e-10
 70.30331      1.3 1.122e+04 4.803e-10
 70.32540      3.4 1.118e+04 5.350e-10
 70.34514      2.6 1.113e+04 5.326e-10
 70.38229      4.5 1.115e+04 6.080e-10
 70.42178      6.3 1.124e+04 7.551e-10
 70.46127      8.2 1.138e+04 9.834e-10
 70.50076     10.2 1.144e+04 1.054e-09
 70.54025     12.0 1.141e+04 9.961e-10
 70.56977     12.8 1.109e+04 8.175e-10
 70.58942     13.3 1.086e+04 7.206e-10
 70.60238     13.9 1.065e+04 6.227e-10
 70.61225     13.6 1.048e+04 5.065e-10
 70.62891     14.0 1.043e+04 4.832e-10
 70.65863     15.1 1.038e+04 4.536e-10
 70.69822     16.4 1.033e+04 4.389e-10
 70.72774     17.1 1.031e+04 4.438e-10
 70.74096     17.4 1.037e+04 4.600e-10
 70.75084     17.4 1.041e+04 4.425e-10
 70.77710     17.5 1.062e+04 5.287e-10
 70.81669     16.9 1.113e+04 7.902e-10
 70.84621     16.2 1.153e+04 1.153e-09
 70.85860     16.2 1.158e+04 1.294e-09
 70.86857     16.2 1.180e+04 1.379e-09
 70.87975     16.1 1.160e+04 1.255e-09
 70.88952     16.2 1.211e+04 1.642e-09
 70.90535     16.0 1.202e+04 1.584e-09
 70.93507     16.3 1.160e+04 1.271e-09
 70.97466     16.0 1.091e+04 7.834e-10
 71.01415     15.3 1.027e+04 4.886e-10
 71.05364     14.7 9.826e+03 3.819e-10
 71.09313     14.8 9.604e+03 3.503e-10
 71.13262     15.3 9.451e+03 3.286e-10
 71.15692     16.0 9.368e+03 3.017e-10
 71.17667     14.8 9.445e+03 2.958e-10
 71.21160     15.2 9.459e+03 2.914e-10
 71.25109     15.8 9.451e+03 2.884e-10
 71.29059     16.6 9.368e+03 2.734e-10
 71.33008     17.6 9.243e+03 2.374e-10
 71.36957     18.5 9.142e+03 1.837e-10
 71.40906     19.2 9.076e+03 1.474e-10
 71.43409     20.0 9.078e+03 1.328e-10
 71.45384     19.1 9.120e+03 1.192e-10
 71.48804     20.1 9.133e+03 1.170e-10
 71.52753     21.3 9.146e+03 1.152e-10
 71.56702     22.5 9.167e+03 1.112e-10
 71.60651     23.7 9.190e+03 1.044e-10
 71.64600     25.1 9.225e+03 9.601e-11
 71.68550     26.4 9.285e+03 8.724e-11
 71.71127     27.6 9.385e+03 8.077e-11
 71.73102     27.5 9.400e+03 7.423e-11
 71.75943     28.6 9.495e+03 7.687e-11
 71.77918     28.5 9.539e+03 7.638e-11
 71.80397     29.4 9.634e+03 8.636e-11
 71.84346     30.3 9.743e+03 1.056e-10
 71.88295     31.4 9.851e+03 1.292e-10
 71.92244     32.7 9.985e+03 1.510e-10
 71.96193     34.1 1.009e+04 1.547e-10
 71.98844     35.4 1.012e+04 1.471e-10
 72.00819     35.5 1.008e+04 1.245e-10
 72.04092     36.9 1.004e+04 1.072e-10
 72.08041     38.3 9.966e+03 9.052e-11
 72.11990     39.7 9.871e+03 7.752e-11
 72.15939     41.2 9.758e+03 7.085e-11
 72.19888     42.8 9.733e+03 7.094e-11
 72.23837     44.3 9.731e+03 7.404e-11
 72.26562     45.9 9.743e+03 8.539e-11
 72.28537     45.9 9.746e+03 8.467e-11
 72.31735     47.5 9.761e+03 1.053e-10
 72.35684     49.0 9.789e+03 1.332e-10
 72.39634     50.6 9.815e+03 1.633e-10
 72.43583     52.3 9.830e+03 1.837e-10
 72.47532     53.8 9.798e+03 1.856e-10
 72.51481     55.3 9.760e+03 1.783e-10
 72.54279     56.7 9.683e+03 1.658e-10
 72.56254     56.9 9.609e+03 1.320e-10
 72.59379     58.4 9.600e+03 1.298e-10
 72.63328     59.7 9.626e+03 1.332e-10
 72.66993     60.9 9.682e+03 1.494e-10
 72.68968     61.3 9.770e+03 1.785e-10
 72.71226     62.4 9.868e+03 2.120e-10
 72.75176     63.5 9.854e+03 2.328e-10
 72.79125     64.5 9.830e+03 2.311e-10
 72.81997     65.4 9.822e+03 2.258e-10
 72.83971     66.0 1.004e+04 2.627e-10
 72.87023     66.8 1.006e+04 2.719e-10
 72.90972     67.4 1.009e+04 2.894e-10
 72.94921     67.8 1.015e+04 3.274e-10
 72.98870     68.3 1.027e+04 3.887e-10
 73.02819     68.9 1.043e+04 4.709e-10
 73.06768     69.4 1.064e+04 5.661e-10
 73.09714     70.0 1.084e+04 6.562e-10
 73.11689     69.5 1.091e+04 6.448e-10
 73.14667     69.9 1.101e+04 6.557e-10
 73.18616     70.2 1.102e+04 6.481e-10
 73.22565     70.6 1.100e+04 6.196e-10
 73.26514     71.1 1.095e+04 5.616e-10
 73.30463     71.4 1.087e+04 4.916e-10
 73.34412     71.5 1.083e+04 4.246e-10
 73.37432     71.5 1.086e+04 4.241e-10
 73.39406     70.9 1.139e+04 6.090e-10
 73.42310     70.9 1.140e+04 6.359e-10
 73.46260     71.0 1.130e+04 6.237e-10
 73.50209     71.3 1.111e+04 5.693e-10
 73.54158     71.6 1.088e+04 4.894e-10
 73.58044     71.9 1.067e+04 4.283e-10
 73.60019     71.7 1.052e+04 3.540e-10
 73.62056     72.1 1.043e+04 3.523e-10
 73.65149     72.9 1.041e+04 3.651e-10
 73.67124     72.9 1.027e+04 2.961e-10
 73.69954     74.0 1.027e+04 3.061e-10
 73.73903     75.2 1.031e+04 3.094e-10
 73.77852     76.3 1.033e+04 3.069e-10
 73.81801     77.5 1.035e+04 2.969e-10
 73.85751     78.7 1.036e+04 2.827e-10
 73.89700     80.0 1.035e+04 2.662e-10
 73.92867     81.2 1.034e+04 2.484e-10
 73.94841     81.8 1.037e+04 2.513e-10
 73.97598     83.0 1.039e+04 2.454e-10
 74.01547     84.2 1.040e+04 2.392e-10
 74.05496     85.4 1.042e+04 2.295e-10
 74.09445     86.5 1.045e+04 2.181e-10
 74.13394     87.5 1.046e+04 2.048e-10
 74.17343     88.6 1.045e+04 1.910e-10
 74.20584     89.6 1.046e+04 1.816e-10
 74.22559     90.0 1.074e+04 2.768e-10
 74.25242     91.0 1.076e+04 2.753e-10
 74.29191     91.9 1.078e+04 2.780e-10
 74.33140     92.8 1.084e+04 2.928e-10
 74.37089     93.9 1.098e+04 3.573e-10
 74.41038     95.1 1.134e+04 4.988e-10
 74.44987     96.0 1.190e+04 7.355e-10
 74.47939     95.8 1.228e+04 9.563e-10
 74.49270     95.2 1.275e+04 1.376e-09
 74.50257     95.4 1.267e+04 1.428e-09
 74.51050     95.3 1.320e+04 2.234e-09
 74.52037     95.8 1.289e+04 1.640e-09
 74.53853     96.0 1.335e+04 2.463e-09
 74.55828     96.4 1.389e+04 3.279e-09
 74.57802     96.4 1.442e+04 3.506e-09
 74.59777     96.2 1.447e+04 3.402e-09
 74.61751     95.8 1.441e+04 2.871e-09
 74.64723     95.3 1.342e+04 1.389e-09
 74.68682     94.7 1.258e+04 6.480e-10
 74.72631     93.9 1.194e+04 2.698e-10
 74.76019     93.4 1.137e+04 1.611e-10
 74.77994     95.2 1.166e+04 2.337e-10
 74.80529     95.3 1.136e+04 1.719e-10
 74.84478     95.8 1.115e+04 1.688e-10
 74.88427     96.6 1.103e+04 1.832e-10
 74.92377     97.5 1.106e+04 2.163e-10
 74.96326     98.1 1.122e+04 2.681e-10
 75.00275     98.5 1.140e+04 3.314e-10
 75.03737     98.6 1.162e+04 3.786e-10
 75.05711     99.2 1.198e+04 5.837e-10
 75.08173     99.1 1.236e+04 6.567e-10
 75.12122     98.3 1.256e+04 6.636e-10
 75.16071     96.8 1.261e+04 6.622e-10
 75.20020     94.7 1.258e+04 6.612e-10
 75.23969     92.4 1.245e+04 6.413e-10
 75.27919     89.9 1.214e+04 5.763e-10
 75.31454     87.7 1.174e+04 4.567e-10
 75.33429     87.7 1.179e+04 4.600e-10
 75.35817     85.8 1.133e+04 2.757e-10
 75.39766     84.2 1.084e+04 1.578e-10
 75.42120     83.1 1.045e+04 1.072e-10
 75.44094     83.3 1.043e+04 1.102e-10
 75.47664     83.2 1.041e+04 1.105e-10
 75.51613     83.1 1.040e+04 1.208e-10
 75.55562     83.1 1.044e+04 1.629e-10
 75.59172     83.4 1.059e+04 2.461e-10
 75.61146     83.0 1.056e+04 2.472e-10
 75.63461     83.5 1.076e+04 3.375e-10
 75.67410     83.7 1.086e+04 3.502e-10
 75.71359     83.8 1.085e+04 3.352e-10
 75.75308     83.9 1.074e+04 2.910e-10
 75.79257     84.0 1.053e+04 2.402e-10
 75.83206     84.2 1.029e+04 2.003e-10
 75.86889     84.5 1.006e+04 1.705e-10
 75.88864     83.9 9.896e+03 1.660e-10
 75.91104     84.6 9.722e+03 1.444e-10
 75.95053     85.4 9.552e+03 1.276e-10
 75.99002     86.4 9.386e+03 1.262e-10
 76.02952     87.6 9.379e+03 1.276e-10
 76.06901     88.8 9.357e+03 1.356e-10
 76.10850     89.9 9.360e+03 1.535e-10
 76.14607     90.9 9.395e+03 1.793e-10
 76.16581     90.3 9.332e+03 1.990e-10
 76.18748     91.2 9.419e+03 2.359e-10
 76.22697     91.9 9.478e+03 2.731e-10
 76.26646     92.4 9.574e+03 2.988e-10
 76.30595     92.7 9.450e+03 3.143e-10
 76.33170     93.1 9.347e+03 3.066e-10
 76.35145     92.9 9.255e+03 2.689e-10
 76.38494     93.4 9.087e+03 2.407e-10
 76.42324     94.0 8.880e+03 1.997e-10
 76.44299     93.5 8.633e+03 1.552e-10
 76.46392     94.4 8.402e+03 1.220e-10
 76.50341     95.4 8.203e+03 9.876e-11
 76.54290     96.6 8.060e+03 8.545e-11
 76.58239     97.9 8.008e+03 7.882e-11
 76.62188     99.3 8.022e+03 7.517e-11
 76.66137    100.8 8.041e+03 7.348e-11
 76.70042    102.2 8.069e+03 7.432e-11
 76.72016    102.2 8.032e+03 7.931e-11
 76.74036    103.6 8.110e+03 8.480e-11
 76.77985    104.9 8.224e+03 9.816e-11
 76.81934    106.2 8.388e+03 1.249e-10
 76.85883    107.5 8.629e+03 1.706e-10
 76.89832    108.9 8.964e+03 2.391e-10
 76.93781    110.2 9.356e+03 3.301e-10
 76.97730    111.2 9.724e+03 4.263e-10
 76.99734    111.7 9.968e+03 4.966e-10
 77.01708    110.7 9.845e+03 4.942e-10
 77.04631    111.1 9.789e+03 5.138e-10
 77.06596    111.5 9.727e+03 5.114e-10
 77.08571    111.8 9.706e+03 5.107e-10
 77.10545    111.9 9.728e+03 5.157e-10
 77.12520    111.8 9.806e+03 5.364e-10
 77.13573    111.5 9.950e+03 5.786e-10
 77.14560    110.3 9.916e+03 5.775e-10
 77.16469    109.7 1.009e+04 6.518e-10
 77.18444    108.4 1.047e+04 8.275e-10
 77.20418    105.1 1.157e+04 1.444e-09
 77.22393     99.6 1.451e+04 3.377e-09
 77.24201     93.7 1.720e+04 7.748e-09
 77.25188     93.5 1.699e+04 7.520e-09
 77.26342     87.9 1.826e+04 1.050e-08
 77.27432     81.7 1.834e+04 1.010e-08
 77.28419     80.2 1.785e+04 9.341e-09
 77.30291     74.4 1.715e+04 6.155e-09
 77.32265     67.0 1.549e+04 2.573e-09
 77.34240     56.9 1.221e+04 1.328e-09
 77.36215     45.8 1.213e+04 1.430e-09
 77.38189     34.4 1.447e+04 2.675e-09
 77.40164     25.7 1.586e+04 4.548e-09
 77.41290     19.1 1.560e+04 4.358e-09
 77.42278     17.7 1.586e+04 4.731e-09
 77.44113     12.2 1.423e+04 2.606e-09
 77.46087      5.4 1.176e+04 1.104e-09
 77.48062     -1.2 9.576e+03 5.580e-10
 77.50036     -4.4 9.133e+03 4.755e-10
 77.52011     -6.1 9.178e+03 4.939e-10
 77.53985     -7.7 9.400e+03 5.702e-10
 77.55149     -9.3 9.917e+03 7.385e-10
 77.56137     -9.8 9.968e+03 7.803e-10
 77.57935    -10.8 1.035e+04 9.729e-10
 77.59909    -11.8 1.070e+04 1.181e-09
 77.61884    -12.4 1.064e+04 1.171e-09
 77.63858    -12.2 1.030e+04 1.054e-09
 77.65833    -12.6 1.011e+04 8.928e-10
 77.67807    -13.3 9.856e+03 6.678e-10
 77.69008    -14.8 9.679e+03 4.949e-10
 77.69940    -15.4 9.755e+03 5.351e-10
 77.70714    -15.4 9.402e+03 4.595e-10
 77.71756    -16.9 9.129e+03 3.550e-10
 77.73731    -18.1 8.879e+03 3.095e-10
 77.75706    -18.5 8.780e+03 3.065e-10
 77.77680    -18.9 8.906e+03 3.254e-10
 77.79655    -19.7 9.183e+03 3.879e-10
 77.81629    -20.6 9.631e+03 5.101e-10
 77.82867    -21.4 1.009e+04 7.131e-10
 77.83854    -21.8 9.959e+03 6.853e-10
 77.85578    -22.2 1.037e+04 9.521e-10
 77.87553    -22.7 1.103e+04 1.318e-09
 77.89527    -23.1 1.159e+04 1.746e-09
 77.91502    -22.7 1.178e+04 2.075e-09
 77.93477    -22.6 1.167e+04 2.145e-09
 77.95451    -22.1 1.144e+04 1.935e-09
 77.96725    -22.6 1.160e+04 1.663e-09
 77.97713    -22.7 1.134e+04 1.512e-09
 77.99400    -25.3 1.271e+04 1.586e-09
 78.01375    -30.1 1.422e+04 1.947e-09
 78.03349    -33.4 1.354e+04 2.538e-09
 78.05324    -34.0 1.288e+04 3.154e-09
 78.07298    -33.1 1.279e+04 3.248e-09
 78.09273    -32.0 1.276e+04 2.537e-09
 78.10584    -33.0 1.267e+04 1.550e-09
 78.11571    -31.9 1.258e+04 1.611e-09
 78.13222    -34.7 1.169e+04 9.198e-10
 78.15261    -37.0 1.034e+04 5.468e-10
 78.17246    -36.3 1.038e+04 5.423e-10
 78.20153    -37.4 9.716e+03 3.697e-10
 78.24102    -37.5 9.559e+03 3.253e-10
 78.28051    -37.4 9.524e+03 3.201e-10
 78.32000    -37.2 9.591e+03 3.447e-10
 78.35949    -37.0 9.723e+03 3.863e-10
 78.38321    -36.9 9.898e+03 4.306e-10
 78.40296    -36.0 9.850e+03 4.063e-10
 78.43847    -35.8 1.003e+04 4.604e-10
 78.46799    -36.1 1.015e+04 5.278e-10
 78.48764    -36.1 1.022e+04 5.462e-10
 78.50739    -36.1 1.024e+04 5.587e-10
 78.52160    -36.0 1.024e+04 5.365e-10
 78.53148    -35.3 1.018e+04 5.272e-10
 78.55685    -35.6 1.011e+04 4.701e-10
 78.59644    -35.6 9.956e+03 3.771e-10
 78.63593    -35.6 9.837e+03 3.178e-10
 78.66039    -35.3 9.705e+03 2.965e-10
 78.68013    -33.8 9.776e+03 2.823e-10
 78.71491    -33.2 9.761e+03 2.790e-10
 78.75440    -33.0 1.008e+04 3.204e-10
 78.79389    -32.9 1.057e+04 4.860e-10
 78.83338    -33.1 1.129e+04 8.123e-10
 78.87287    -34.1 1.217e+04 1.239e-09
 78.91237    -34.9 1.278e+04 1.708e-09
 78.93756    -36.0 1.271e+04 1.389e-09
 78.94734    -34.5 1.344e+04 2.606e-09
 78.96153    -34.7 1.330e+04 2.116e-09
 78.99125    -34.9 1.296e+04 1.151e-09
 79.03084    -40.6 1.064e+04 3.566e-10
 79.06322    -42.0 9.790e+03 2.612e-10
 79.08296    -41.6 1.005e+04 3.248e-10
 79.10982    -41.7 9.777e+03 2.386e-10
 79.14931    -41.5 9.549e+03 1.672e-10
 79.18880    -41.6 9.372e+03 1.276e-10
 79.21474    -41.8 9.308e+03 1.194e-10
 79.23448    -41.9 9.346e+03 1.198e-10
 79.26779    -42.1 9.438e+03 1.414e-10
 79.30728    -42.1 9.508e+03 1.906e-10
 79.34677    -41.6 9.687e+03 2.201e-10
 79.38626    -41.5 9.745e+03 2.241e-10
 79.42575    -41.6 9.792e+03 2.168e-10
 79.46524    -42.0 9.825e+03 2.319e-10
 79.49191    -42.1 9.873e+03 2.896e-10
 79.51166    -42.3 9.730e+03 2.349e-10
 79.54422    -41.5 9.758e+03 2.571e-10
 79.58371    -40.7 9.787e+03 2.588e-10
 79.62321    -40.1 9.856e+03 2.028e-10
 79.66270    -40.0 9.979e+03 1.419e-10
 79.70219    -40.4 1.002e+04 1.094e-10
 79.74168    -40.8 1.002e+04 9.722e-11
 79.76909    -41.0 1.002e+04 9.620e-11
 79.78883    -41.3 1.009e+04 9.618e-11
 79.82066    -41.4 1.012e+04 9.567e-11
 79.86015    -41.1 1.015e+04 8.527e-11
 79.89964    -40.6 1.017e+04 7.080e-11
 79.93913    -40.1 1.017e+04 6.005e-11
 79.97372    -39.4 1.020e+04 5.579e-11
 79.99347    -39.0 1.019e+04 8.279e-11
 80.01812    -37.9 1.015e+04 7.572e-11
 80.04626    -36.6 1.013e+04 6.823e-11
 80.06601    -36.9 1.017e+04 6.841e-11
 80.09710    -35.6 1.022e+04 5.852e-11
 80.13659    -34.3 1.018e+04 5.366e-11
 80.17608    -33.0 1.014e+04 5.253e-11
 80.21557    -31.6 1.014e+04 5.494e-11
 80.25506    -30.3 1.014e+04 6.040e-11
 80.29455    -28.7 1.014e+04 6.861e-11
 80.32344    -26.9 1.012e+04 7.683e-11
 80.34318    -27.1 1.005e+04 7.060e-11
 80.37354    -25.3 1.009e+04 6.912e-11
 80.41303    -24.0 1.036e+04 7.104e-11
 80.45252    -23.9 1.048e+04 9.047e-11
 80.49201    -23.0 1.009e+04 1.640e-10
 80.53150    -20.6 1.002e+04 2.508e-10
 80.57099    -18.7 1.015e+04 2.472e-10
 80.60061    -16.9 1.026e+04 1.764e-10
 80.62036    -17.2 1.023e+04 1.621e-10
 80.64997    -16.4 1.027e+04 1.168e-10
 80.68946    -15.8 1.002e+04 9.251e-11
 80.72896    -14.9 9.895e+03 8.104e-11
 80.76845    -14.2 1.000e+04 8.626e-11
 80.80794    -14.1 1.035e+04 1.150e-10
 80.84743    -13.4 1.040e+04 1.973e-10
 80.87779    -12.1 1.054e+04 3.119e-10
 80.89484    -12.4 1.054e+04 3.211e-10
 80.90397    -12.1 1.046e+04 2.519e-10
 80.92641    -11.6 1.078e+04 3.311e-10
 80.96590    -11.5 1.105e+04 4.795e-10
 81.00539    -11.1 1.122e+04 5.934e-10
 81.04488     -9.7 1.098e+04 5.053e-10
 81.08438     -7.8 1.074e+04 2.762e-10
 81.12387     -8.2 1.090e+04 1.332e-10
 81.15496     -8.4 1.044e+04 1.041e-10
 81.17471     -8.4 1.033e+04 8.806e-11
 81.20285     -7.4 1.008e+04 8.285e-11
 81.24234     -5.9 1.011e+04 8.415e-11
 81.28183     -4.6 1.016e+04 9.010e-11
 81.32132     -3.0 1.012e+04 9.983e-11
 81.36081     -1.2 1.012e+04 1.059e-10
 81.40030      0.6 1.022e+04 1.080e-10
 81.43214      2.3 1.033e+04 1.098e-10
 81.45188      2.4 1.028e+04 9.843e-11
 81.47929      4.0 1.034e+04 1.027e-10
 81.51878      5.7 1.043e+04 1.044e-10
 81.55827      7.5 1.052e+04 1.029e-10
 81.59776      9.1 1.068e+04 9.754e-11
 81.63725     10.6 1.085e+04 9.558e-11
 81.67674     12.0 1.098e+04 1.020e-10
 81.70931     13.6 1.105e+04 1.143e-10
 81.72906     13.6 1.104e+04 1.191e-10
 81.75572     15.3 1.108e+04 1.292e-10
 81.79473     16.9 1.113e+04 1.400e-10
 81.81448     17.2 1.114e+04 1.387e-10
 81.83471     18.8 1.119e+04 1.600e-10
 81.87420     20.1 1.125e+04 1.940e-10
 81.91369     21.1 1.136e+04 2.588e-10
 81.95318     21.8 1.163e+04 3.800e-10
 81.98649     22.3 1.191e+04 5.787e-10
 82.00623     21.9 1.169e+04 5.063e-10
 82.03216     22.5 1.187e+04 6.580e-10
 82.07165     22.7 1.197e+04 6.980e-10
 82.11114     22.7 1.197e+04 6.773e-10
 82.15064     22.7 1.189e+04 6.102e-10
 82.19013     22.6 1.176e+04 5.036e-10
 82.22962     22.5 1.164e+04 4.046e-10
 82.26366     22.6 1.153e+04 3.125e-10
 82.28341     22.2 1.147e+04 2.993e-10
 82.30860     22.7 1.138e+04 2.137e-10
 82.34809     23.1 1.128e+04 1.498e-10
 82.38758     23.4 1.110e+04 1.193e-10
 82.42707     23.9 1.110e+04 1.207e-10
 82.46656     23.8 1.115e+04 1.348e-10
 82.50606     23.6 1.121e+04 1.773e-10
 82.54084     23.4 1.133e+04 2.556e-10
 82.56058     23.3 1.134e+04 2.824e-10
 82.58504     23.0 1.136e+04 2.929e-10
 82.62453     22.6 1.132e+04 2.629e-10
 82.66402     22.0 1.124e+04 1.920e-10
 82.70351     21.0 1.119e+04 1.324e-10
 82.72498     20.2 1.111e+04 1.014e-10
 82.74473     20.9 1.111e+04 8.648e-11
 82.78249     20.7 1.103e+04 7.269e-11
 82.81801     20.8 1.101e+04 7.139e-11
 82.83776     20.1 1.108e+04 7.179e-11
 82.86147     20.3 1.119e+04 7.355e-11
 82.90097     20.4 1.127e+04 8.611e-11
 82.94046     20.8 1.117e+04 1.151e-10
 82.97995     21.5 1.110e+04 1.577e-10
 83.01944     22.4 1.108e+04 2.089e-10
 83.05893     23.2 1.109e+04 2.410e-10
 83.09518     24.0 1.105e+04 2.376e-10
 83.11493     23.3 1.100e+04 2.219e-10
 83.13791     24.5 1.082e+04 1.860e-10
 83.17740     25.7 1.071e+04 1.320e-10
 83.21689     26.6 1.070e+04 8.848e-11
 83.25639     27.2 1.054e+04 7.023e-11
 83.29588     28.2 1.047e+04 6.973e-11
 83.33537     29.3 1.041e+04 7.370e-11
 83.37236     30.4 1.028e+04 8.939e-11
 83.39211     29.8 1.021e+04 8.586e-11
 83.41435     31.0 1.013e+04 1.050e-10
 83.45384     32.4 1.006e+04 1.209e-10
 83.49333     33.9 9.952e+03 1.300e-10
 83.53282     35.3 9.906e+03 1.271e-10
 83.57231     36.8 9.818e+03 1.197e-10
 83.61181     38.4 9.724e+03 1.103e-10
 83.63549     40.1 9.634e+03 1.003e-10
 83.65347     40.5 9.652e+03 1.198e-10
 83.66928     40.3 9.600e+03 9.707e-11
 83.69079     42.1 9.537e+03 8.294e-11
 83.73028     44.0 9.511e+03 6.994e-11
 83.76977     45.8 9.497e+03 5.968e-11
 83.80926     47.5 9.490e+03 5.225e-11
 83.84875     49.3 9.483e+03 4.711e-11
 83.88824     51.0 9.439e+03 4.417e-11
 83.92671     52.9 9.343e+03 4.372e-11
 83.94646     52.8 9.348e+03 3.909e-11
 83.96723     54.7 9.333e+03 3.915e-11
 84.00672     56.8 9.318e+03 3.971e-11
 84.04621     58.8 9.297e+03 4.170e-11
 84.08570     60.9 9.288e+03 4.497e-11
 84.12519     63.0 9.292e+03 4.866e-11
 84.16468     65.1 9.310e+03 5.150e-11
 84.20388     67.1 9.333e+03 5.238e-11
 84.22363     67.0 9.332e+03 4.896e-11
 84.24366     69.0 9.343e+03 4.984e-11
 84.28315     71.0 9.348e+03 5.005e-11
 84.32265     72.9 9.350e+03 5.030e-11
 84.36214     74.8 9.351e+03 5.075e-11
 84.40163     76.8 9.352e+03 5.163e-11
 84.44112     78.7 9.358e+03 5.249e-11
 84.48061     80.6 9.366e+03 5.280e-11
 84.50080     82.5 9.361e+03 5.221e-11
 84.52055     82.6 9.350e+03 5.111e-11
 84.54599     84.5 9.364e+03 4.813e-11
 84.56574     84.6 9.413e+03 4.148e-11
 84.59908     86.4 9.436e+03 3.797e-11
 84.63857     88.2 9.440e+03 3.576e-11
 84.67807     90.1 9.426e+03 3.543e-11
 84.71756     91.9 9.424e+03 3.588e-11
 84.75705     93.8 9.422e+03 3.778e-11
 84.77798     95.7 9.443e+03 4.160e-11
 84.79773     95.6 9.511e+03 4.259e-11
 84.83603     97.4 9.558e+03 5.146e-11
 84.87552     99.3 9.607e+03 6.429e-11
 84.91501    101.1 9.667e+03 8.013e-11
 84.95450    102.8 9.736e+03 9.642e-11
 84.99399    104.5 9.835e+03 1.084e-10
 85.03348    106.0 9.935e+03 1.125e-10
 85.05515    107.4 9.964e+03 1.116e-10
 85.07490    107.2 9.978e+03 1.143e-10
 85.11247    108.4 1.003e+04 1.076e-10
 85.15196    109.7 1.008e+04 9.578e-11
 85.19145    110.8 1.011e+04 8.587e-11
 85.23094    112.1 1.008e+04 8.266e-11
 85.27043    113.4 1.007e+04 8.306e-11
 85.30992    114.9 1.008e+04 8.515e-11
 85.33233    116.4 1.012e+04 9.148e-11
 85.35207    116.2 1.010e+04 8.829e-11
 85.38890    117.8 1.015e+04 9.605e-11
 85.42840    119.4 1.023e+04 1.064e-10
 85.45650    120.9 1.033e+04 1.208e-10
 85.47624    120.9 1.040e+04 1.235e-10
 85.50738    122.5 1.053e+04 1.455e-10
 85.54687    123.9 1.066e+04 1.733e-10
 85.58636    125.3 1.077e+04 2.077e-10
 85.60950    126.6 1.086e+04 2.440e-10
 85.62925    126.4 1.084e+04 2.286e-10
 85.66534    127.7 1.089e+04 2.538e-10
 85.70483    129.0 1.089e+04 2.555e-10
 85.74432    130.1 1.086e+04 2.510e-10
 85.78382    131.4 1.081e+04 2.397e-10
 85.82331    132.6 1.080e+04 2.342e-10
 85.86280    134.0 1.081e+04 2.366e-10
 85.88668    135.3 1.089e+04 2.493e-10
 85.90642    135.2 1.088e+04 2.363e-10
 85.94178    136.4 1.103e+04 2.751e-10
 85.98127    137.5 1.117e+04 3.316e-10
 86.02076    138.5 1.129e+04 3.953e-10
 86.06025    139.5 1.139e+04 4.420e-10
 86.09974    140.2 1.144e+04 4.451e-10
 86.13924    140.8 1.146e+04 4.389e-10
 86.16385    141.4 1.149e+04 4.101e-10
 86.18360    141.6 1.146e+04 3.635e-10
 86.21822    142.3 1.143e+04 3.145e-10
 86.25771    143.0 1.138e+04 2.714e-10
 86.29720    143.8 1.132e+04 2.436e-10
 86.33669    144.7 1.121e+04 2.382e-10
 86.36700    145.8 1.120e+04 2.398e-10
 86.38675    146.4 1.127e+04 2.630e-10
 86.41567    147.6 1.126e+04 2.750e-10
 86.44103    148.8 1.120e+04 3.010e-10
 86.46077    149.1 1.123e+04 3.123e-10
 86.49466    150.3 1.121e+04 3.703e-10
 86.53415    151.5 1.122e+04 4.416e-10
 86.57364    152.7 1.126e+04 5.114e-10
 86.61313    153.8 1.136e+04 5.654e-10
 86.65262    154.8 1.148e+04 5.875e-10
 86.69211    155.6 1.154e+04 5.853e-10
 86.71820    156.3 1.158e+04 5.828e-10
 86.73795    156.4 1.158e+04 5.623e-10
 86.77109    157.2 1.165e+04 5.480e-10
 86.81058    158.1 1.172e+04 5.239e-10
 86.85008    158.9 1.171e+04 4.987e-10
 86.88957    159.9 1.166e+04 4.715e-10
 86.92906    161.2 1.158e+04 4.315e-10
 86.96855    162.7 1.144e+04 3.890e-10
 86.99538    164.4 1.136e+04 3.513e-10
 87.01512    164.7 1.139e+04 3.317e-10
 87.04753    166.7 1.132e+04 2.922e-10
 87.08702    168.7 1.128e+04 2.646e-10
 87.12651    170.7 1.125e+04 2.487e-10
 87.16600    172.8 1.122e+04 2.413e-10
 87.20550    174.9 1.119e+04 2.372e-10
 87.24499    177.0 1.116e+04 2.312e-10
 87.27255    179.1 1.114e+04 2.208e-10
 87.28533    179.5 1.105e+04 1.950e-10
 87.29725    179.3 1.099e+04 1.808e-10
 87.32397    181.5 1.099e+04 1.816e-10
 87.36346    183.5 1.099e+04 1.798e-10
 87.40295    185.5 1.100e+04 1.741e-10
 87.44244    187.4 1.101e+04 1.656e-10
 87.48193    189.3 1.097e+04 1.596e-10
 87.52142    191.2 1.092e+04 1.582e-10
 87.54973    193.1 1.092e+04 1.571e-10
 87.56947    193.4 1.091e+04 1.573e-10
 87.60041    195.3 1.090e+04 1.574e-10
 87.63990    197.2 1.091e+04 1.607e-10
 87.67939    199.1 1.092e+04 1.697e-10
 87.71888    201.0 1.094e+04 1.845e-10
 87.75837    202.8 1.097e+04 2.004e-10
 87.79786    204.7 1.096e+04 2.166e-10
 87.82690    206.5 1.096e+04 2.329e-10
 87.84665    206.7 1.098e+04 2.533e-10
 87.87684    208.5 1.101e+04 2.707e-10
 87.91633    210.4 1.103e+04 2.781e-10
 87.95583    212.2 1.103e+04 2.744e-10
 87.99532    214.1 1.098e+04 2.619e-10
 88.03481    216.0 1.090e+04 2.499e-10
 88.07430    218.0 1.087e+04 2.462e-10
 88.10408    220.2 1.086e+04 2.499e-10
 88.12382    220.4 1.104e+04 3.342e-10
 88.15328    222.6 1.109e+04 3.553e-10
 88.18801    224.8 1.115e+04 3.865e-10
 88.20776    224.7 1.108e+04 3.305e-10
 88.23226    227.0 1.122e+04 3.849e-10
 88.27175    228.5 1.125e+04 4.248e-10
 88.30128    229.6 1.117e+04 4.423e-10
 88.32092    231.1 1.111e+04 4.616e-10
 88.34067    232.7 1.115e+04 4.900e-10
 88.36041    234.2 1.126e+04 5.201e-10
 88.38016    235.5 1.140e+04 5.512e-10
 88.39093    236.7 1.155e+04 5.852e-10
 88.40080    236.6 1.136e+04 5.007e-10
 88.41965    237.8 1.148e+04 5.312e-10
 88.43940    239.0 1.160e+04 5.698e-10
 88.45914    240.0 1.173e+04 6.176e-10
 88.47889    241.1 1.187e+04 6.774e-10
 88.49863    242.1 1.205e+04 7.558e-10
 88.51838    243.0 1.226e+04 8.624e-10
 88.52952    243.8 1.252e+04 1.009e-09
 88.53939    243.7 1.222e+04 8.679e-10
 88.55787    244.5 1.251e+04 1.046e-09
 88.57762    245.3 1.285e+04 1.265e-09
 88.59736    246.0 1.321e+04 1.519e-09
 88.61711    246.7 1.356e+04 1.781e-09
 88.63685    247.4 1.385e+04 2.009e-09
 88.65294    248.0 1.402e+04 2.155e-09
 88.66281    246.8 1.368e+04 1.916e-09
 88.66811    247.4 1.364e+04 1.925e-09
 88.67798    247.5 1.304e+04 1.461e-09
 88.69609    248.2 1.298e+04 1.462e-09
 88.71583    248.9 1.293e+04 1.472e-09
 88.73558    249.8 1.285e+04 1.525e-09
 88.75533    250.7 1.286e+04 1.627e-09
 88.77507    251.8 1.298e+04 1.782e-09
 88.79482    253.0 1.318e+04 1.993e-09
 88.80669    254.2 1.345e+04 2.256e-09
 88.81657    254.3 1.281e+04 1.649e-09
 88.83431    255.5 1.307e+04 1.815e-09
 88.85405    256.7 1.337e+04 1.965e-09
 88.87380    257.8 1.367e+04 2.067e-09
 88.89354    258.8 1.396e+04 2.104e-09
 88.91329    259.5 1.419e+04 2.100e-09
 88.93303    259.7 1.437e+04 2.103e-09
 88.94528    259.5 1.466e+04 2.157e-09
 88.95515    260.0 1.334e+04 1.300e-09
 88.97253    259.6 1.378e+04 1.431e-09
 88.99227    258.0 1.526e+04 1.966e-09
 89.01202    255.8 1.751e+04 3.309e-09
 89.02678    254.6 1.839e+04 4.412e-09
 89.03660    253.4 1.907e+04 6.040e-09
 89.04647    252.1 1.972e+04 9.138e-09
 89.05635    251.0 2.004e+04 1.398e-08
 89.06622    250.7 2.021e+04 2.067e-08
 89.07609    250.7 2.037e+04 2.776e-08
 89.08377    250.9 2.062e+04 3.139e-08
 89.08871    251.4 2.019e+04 2.829e-08
 89.09584    252.0 2.039e+04 2.910e-08
 89.10571    252.6 2.043e+04 2.883e-08
 89.11303    253.0 2.059e+04 2.702e-08
 89.11802    251.4 2.026e+04 2.012e-08
 89.13049    251.4 2.004e+04 1.334e-08
 89.15024    250.7 1.984e+04 5.892e-09
 89.16998    248.3 1.848e+04 2.152e-09
 89.18973    244.3 1.419e+04 1.355e-09
 89.20947    241.1 1.278e+04 1.389e-09
 89.22245    239.6 1.271e+04 1.452e-09
 89.23233    242.1 1.265e+04 1.391e-09
 89.24896    241.3 1.264e+04 1.535e-09
 89.26871    241.0 1.304e+04 1.878e-09
 89.28845    240.4 1.361e+04 2.185e-09
 89.30820    239.5 1.395e+04 2.204e-09
 89.32795    238.0 1.396e+04 2.070e-09
 89.34769    236.2 1.377e+04 1.620e-09
 89.36104    233.9 1.330e+04 1.071e-09
 89.37092    237.6 1.424e+04 1.500e-09
 89.38718    234.9 1.371e+04 9.214e-10
 89.40693    231.8 1.292e+04 5.220e-10
 89.42667    228.4 1.202e+04 3.249e-10
 89.44642    225.1 1.029e+04 3.294e-10
 89.46616    222.4 1.016e+04 3.324e-10
 89.48591    220.1 1.012e+04 3.421e-10
 89.49963    218.1 1.008e+04 3.849e-10
 89.50950    219.2 1.016e+04 4.189e-10
 89.52540    217.5 1.033e+04 4.994e-10
 89.54515    215.7 1.054e+04 6.196e-10
 89.56345    213.7 1.093e+04 8.134e-10
 89.57332    215.0 1.081e+04 7.245e-10
 89.58464    212.3 1.163e+04 1.093e-09
 89.60438    209.0 1.299e+04 1.832e-09
 89.62413    205.6 1.461e+04 3.200e-09
 89.63822    202.3 1.602e+04 5.158e-09
 89.64809    202.1 1.620e+04 5.714e-09
 89.66362    198.7 1.722e+04 7.178e-09
 89.68337    194.9 1.749e+04 7.252e-09
 89.70311    190.9 1.741e+04 6.958e-09
 89.72286    186.6 1.734e+04 6.597e-09
 89.74260    182.3 1.741e+04 6.722e-09
 89.76235    178.4 1.767e+04 7.609e-09
 89.77680    175.4 1.799e+04 9.341e-09
 89.78668    174.3 1.801e+04 9.053e-09
 89.80184    172.4 1.787e+04 9.130e-09
 89.82158    171.2 1.737e+04 8.526e-09
 89.84133    170.7 1.650e+04 6.515e-09
 89.86108    170.2 1.533e+04 4.083e-09
 89.88082    169.3 1.383e+04 2.220e-09
 89.90057    167.6 1.206e+04 1.199e-09
 89.91539    165.8 1.072e+04 7.961e-10
 89.92526    165.7 1.050e+04 7.018e-10
 89.94006    165.5 1.028e+04 6.369e-10
 89.95980    165.7 1.020e+04 6.164e-10
 89.97955    166.2 1.016e+04 6.007e-10
 89.99929    166.7 1.013e+04 5.810e-10
 90.01870    166.8 1.009e+04 5.538e-10
 90.02857    167.3 1.021e+04 6.363e-10
 90.03879    167.3 1.014e+04 6.006e-10
 90.05398    167.2 1.005e+04 5.630e-10
 90.06385    167.5 9.859e+03 4.913e-10
 90.07828    167.4 9.812e+03 4.804e-10
 90.09802    167.2 9.815e+03 4.817e-10
 90.11777    166.9 9.856e+03 4.914e-10
 90.13751    166.5 9.971e+03 5.260e-10
 90.15726    165.7 1.015e+04 6.197e-10
 90.17700    163.8 1.078e+04 8.840e-10
 90.19257    160.5 1.255e+04 1.629e-09
 90.20244    161.8 1.233e+04 1.539e-09
 90.21650    157.9 1.475e+04 3.338e-09
 90.23624    153.8 1.674e+04 6.538e-09
 90.25599    149.6 1.789e+04 8.556e-09
 90.27573    144.7 1.799e+04 8.333e-09
 90.29548    139.6 1.769e+04 6.579e-09
 90.31522    134.3 1.656e+04 3.721e-09
 90.33115    128.4 1.440e+04 1.733e-09
 90.34103    129.2 1.467e+04 1.833e-09
 90.35471    123.1 1.164e+04 9.283e-10
 90.37446    119.4 1.097e+04 6.418e-10
 90.39421    118.3 1.084e+04 5.937e-10
 90.41395    118.1 1.078e+04 5.604e-10
 90.43370    117.9 1.067e+04 5.073e-10
 90.45344    117.5 1.046e+04 4.462e-10
 90.46974    116.9 1.022e+04 4.114e-10
 90.47961    117.9 1.050e+04 4.718e-10
 90.48382    117.4 1.042e+04 4.669e-10
 90.49370    118.3 1.021e+04 4.350e-10
 90.51268    117.9 1.022e+04 4.381e-10
 90.53242    117.4 1.029e+04 4.593e-10
 90.55217    116.7 1.050e+04 5.284e-10
 90.57192    115.9 1.080e+04 6.438e-10
 90.59166    115.0 1.109e+04 7.969e-10
 90.60833    114.0 1.138e+04 9.986e-10
 90.61820    115.6 1.135e+04 9.700e-10
 90.63115    114.5 1.174e+04 1.212e-09
 90.65090    112.6 1.274e+04 1.667e-09
 90.67064    110.0 1.436e+04 2.576e-09
 90.69039    107.2 1.583e+04 4.028e-09
 90.71013    104.5 1.666e+04 5.430e-09
 90.72988    101.9 1.680e+04 5.542e-09
 90.74692     99.3 1.671e+04 4.892e-09
 90.75679    102.0 1.678e+04 5.377e-09
 90.76937     99.1 1.670e+04 4.218e-09
 90.78912     94.6 1.646e+04 2.479e-09
 90.80886     87.9 1.531e+04 1.359e-09
 90.82861     80.5 1.287e+04 1.106e-09
 90.84835     75.2 1.224e+04 1.133e-09
 90.86810     71.5 1.224e+04 1.221e-09
 90.88550     66.2 1.340e+04 1.632e-09
 90.89538     63.7 1.515e+04 2.306e-09
 90.90759     55.1 1.785e+04 4.847e-09
 90.92734     48.8 1.785e+04 7.032e-09
 90.93908     44.6 1.728e+04 6.817e-09
 90.94895     44.6 1.777e+04 8.294e-09
 90.96683     42.0 1.647e+04 6.073e-09
 90.98657     39.8 1.516e+04 3.733e-09
 91.00632     37.2 1.398e+04 2.108e-09
 91.02409     34.2 1.317e+04 1.256e-09
 91.03396     32.0 1.318e+04 1.219e-09
 91.04581     29.5 1.266e+04 9.470e-10
 91.06555     27.0 1.274e+04 9.169e-10
 91.08530     25.5 1.273e+04 9.107e-10
 91.10505     24.4 1.252e+04 8.710e-10
 91.12479     23.8 1.275e+04 9.881e-10
 91.14454     22.4 1.325e+04 1.426e-09
 91.16268     21.6 1.390e+04 2.117e-09
 91.17255     20.8 1.494e+04 3.473e-09
 91.18403     19.8 1.611e+04 5.183e-09
 91.20377     18.7 1.727e+04 7.155e-09
 91.22352     17.9 1.795e+04 8.520e-09
 91.24326     17.0 1.805e+04 8.671e-09
 91.26301     16.0 1.813e+04 7.610e-09
 91.28275     13.7 1.819e+04 5.562e-09
 91.30127     10.0 1.737e+04 3.439e-09
 91.31114      7.5 1.629e+04 2.740e-09
 91.32225      3.7 1.381e+04 1.753e-09
 91.34199      1.7 1.206e+04 1.222e-09
 91.36174      0.7 1.155e+04 9.315e-10
 91.38148     -0.2 1.139e+04 7.046e-10
 91.39433     -2.1 1.126e+04 5.547e-10
 91.40420     -5.2 1.093e+04 4.206e-10
 91.42097     -7.8 1.090e+04 4.310e-10
 91.43985    -10.4 1.115e+04 5.630e-10
 91.44973    -12.1 1.147e+04 6.719e-10
 91.46046    -15.8 1.269e+04 1.139e-09
 91.48021    -19.4 1.411e+04 1.973e-09
 91.49996    -22.6 1.485e+04 2.902e-09
 91.51970    -28.8 1.633e+04 4.131e-09
 91.53945    -38.8 1.926e+04 6.083e-09
 91.55919    -48.9 1.966e+04 7.151e-09
 91.57844    -56.9 1.702e+04 5.123e-09
 91.58831    -58.3 1.640e+04 4.747e-09
 91.59868    -66.9 1.523e+04 2.037e-09
 91.61843    -80.6 1.220e+04 5.753e-10
 91.63817    -91.2 1.022e+04 3.940e-10
 91.65792    -95.8 1.025e+04 3.999e-10
 91.67767   -100.4 1.077e+04 5.828e-10
 91.69741   -104.7 1.123e+04 8.024e-10
 91.71703   -108.8 1.162e+04 9.899e-10
 91.72690   -110.1 1.157e+04 9.702e-10
 91.73690   -114.2 1.168e+04 1.043e-09
 91.75665   -118.2 1.167e+04 1.050e-09
 91.77639   -122.0 1.145e+04 9.585e-10
 91.79614   -125.9 1.110e+04 7.708e-10
 91.81588   -129.6 1.065e+04 6.043e-10
 91.83563   -132.9 1.021e+04 4.998e-10
 91.84958   -135.4 1.002e+04 4.665e-10
 91.85945   -136.0 1.031e+04 6.111e-10
 91.86549   -138.6 1.027e+04 6.035e-10
 91.87536   -139.1 1.027e+04 6.040e-10
 91.89487   -143.0 1.064e+04 6.455e-10
 91.91461   -148.0 1.256e+04 1.070e-09
 91.93436   -151.8 1.440e+04 2.139e-09
 91.95410   -154.2 1.554e+04 3.669e-09
 91.97385   -156.0 1.605e+04 4.829e-09
 91.99359   -157.8 1.612e+04 5.099e-09
 92.00408   -159.2 1.580e+04 4.878e-09
 92.01395   -159.3 1.587e+04 4.991e-09
 92.03309   -160.3 1.491e+04 3.507e-09
 92.05283   -161.6 1.368e+04 2.109e-09
 92.07258   -163.2 1.244e+04 1.256e-09
 92.09232   -164.6 1.146e+04 8.091e-10
 92.11207   -165.6 1.084e+04 5.851e-10
 92.13181   -165.9 1.050e+04 4.682e-10
 92.14266   -166.0 1.029e+04 4.011e-10
 92.15254   -165.6 1.017e+04 3.669e-10
 92.17130   -165.6 9.994e+03 3.101e-10
 92.19105   -165.4 9.940e+03 2.790e-10
 92.21080   -165.3 9.954e+03 2.695e-10
 92.23054   -165.4 9.961e+03 2.671e-10
 92.25029   -165.5 9.972e+03 2.645e-10
 92.27003   -165.5 1.004e+04 2.665e-10
 92.28125   -165.7 1.015e+04 2.752e-10
 92.30109   -165.4 1.006e+04 2.420e-10
 92.32937   -165.3 1.016e+04 2.611e-10
 92.34901   -165.3 1.032e+04 2.809e-10
 92.36876   -165.3 1.050e+04 3.037e-10
 92.38851   -165.5 1.066e+04 3.271e-10
 92.40825   -165.8 1.086e+04 3.569e-10
 92.41984   -166.1 1.102e+04 3.883e-10
 92.42971   -165.2 1.086e+04 3.488e-10
 92.44774   -165.5 1.096e+04 3.751e-10
 92.46749   -165.9 1.100e+04 4.027e-10
 92.48723   -166.4 1.095e+04 4.243e-10
 92.50698   -166.8 1.093e+04 4.318e-10
 92.52672   -167.1 1.080e+04 4.321e-10
 92.54647   -167.4 1.068e+04 4.132e-10
 92.55852   -168.0 1.058e+04 3.793e-10
 92.57837   -166.9 1.068e+04 3.837e-10
 92.61577   -168.3 1.060e+04 3.492e-10
 92.65527   -170.4 1.057e+04 3.279e-10
 92.69476   -173.0 1.056e+04 3.254e-10
 92.73425   -175.5 1.053e+04 3.300e-10
 92.76028   -177.7 1.040e+04 3.336e-10
 92.78003   -177.3 1.054e+04 3.402e-10
 92.81323   -179.0 1.015e+04 3.264e-10
 92.83580   -179.8 9.720e+03 2.495e-10
 92.85554   -181.2 9.984e+03 3.145e-10
 92.89221   -181.6 9.583e+03 2.228e-10
 92.93170   -181.8 9.344e+03 1.724e-10
 92.97119   -181.6 9.261e+03 1.568e-10
 93.01069   -180.8 9.250e+03 1.547e-10
 93.05018   -180.1 9.296e+03 1.608e-10
 93.08967   -179.6 9.404e+03 1.866e-10
 93.11297   -179.0 9.517e+03 2.211e-10
 93.13272   -180.1 9.691e+03 2.733e-10
 93.16865   -179.7 9.826e+03 3.111e-10
 93.20814   -179.5 9.986e+03 3.532e-10
 93.24763   -179.6 1.015e+04 4.004e-10
 93.28712   -179.7 1.029e+04 4.484e-10
 93.32661   -179.9 1.042e+04 4.929e-10
 93.36611   -180.2 1.047e+04 5.284e-10
 93.39015   -180.6 1.042e+04 5.324e-10
 93.40989   -181.3 1.011e+04 4.613e-10
 93.44509   -181.2 9.942e+03 4.163e-10
 93.48458   -181.1 9.822e+03 3.795e-10
 93.52407   -180.9 9.794e+03 3.632e-10
 93.56356   -180.7 9.795e+03 3.594e-10
 93.60305   -180.6 9.804e+03 3.579e-10
 93.64254   -180.6 9.792e+03 3.421e-10
 93.66732   -180.3 9.706e+03 2.997e-10
 93.67582   -179.7 9.605e+03 2.820e-10
 93.69053   -179.3 9.588e+03 2.628e-10
 93.72153   -178.7 9.530e+03 2.392e-10
 93.76102   -177.9 9.460e+03 2.058e-10
 93.80051   -177.0 9.411e+03 1.761e-10
 93.84000   -176.2 9.357e+03 1.480e-10
 93.87949   -175.4 9.352e+03 1.274e-10
 93.91898   -175.0 9.386e+03 1.208e-10
 93.94450   -174.9 9.429e+03 1.219e-10
 93.96424   -174.1 9.475e+03 1.406e-10
 93.99796   -174.0 9.665e+03 1.572e-10
 94.03745   -174.0 9.934e+03 2.272e-10
 94.07694   -173.9 1.014e+04 3.199e-10
 94.11644   -173.8 1.021e+04 3.847e-10
 94.15593   -173.5 1.021e+04 3.997e-10
 94.19542   -173.1 1.010e+04 3.884e-10
 94.22167   -172.4 9.883e+03 3.324e-10
 94.24142   -171.5 9.634e+03 2.505e-10
 94.27440   -170.7 9.607e+03 2.410e-10
 94.31389   -170.0 9.634e+03 2.406e-10
 94.35338   -169.5 9.705e+03 2.443e-10
 94.39287   -169.3 9.846e+03 2.545e-10
 94.43236   -169.5 1.014e+04 3.069e-10
 94.47186   -170.5 1.092e+04 4.930e-10
 94.49885   -171.9 1.199e+04 9.233e-10
 94.51859   -171.8 1.158e+04 7.736e-10
 94.55084   -172.9 1.228e+04 1.183e-09
 94.58036   -173.8 1.279e+04 1.525e-09
 94.59097   -174.9 1.295e+04 1.670e-09
 94.60094   -174.9 1.286e+04 1.560e-09
 94.61985   -175.9 1.303e+04 1.777e-09
 94.63724   -176.7 1.292e+04 1.763e-09
 94.64711   -176.3 1.272e+04 1.568e-09
 94.65924   -176.7 1.237e+04 1.357e-09
 94.67899   -176.8 1.198e+04 9.651e-10
 94.69873   -177.0 1.159e+04 6.276e-10
 94.71848   -177.2 1.122e+04 4.161e-10
 94.73823   -177.4 1.093e+04 3.067e-10
 94.75797   -177.4 1.080e+04 2.704e-10
 94.77592   -177.5 1.074e+04 2.600e-10
 94.79577   -177.2 1.082e+04 2.451e-10
 94.82728   -177.2 1.059e+04 2.052e-10
 94.86677   -176.6 1.033e+04 1.757e-10
 94.90626   -175.7 1.019e+04 1.612e-10
 94.94575   -174.6 1.016e+04 1.588e-10
 94.98524   -173.5 1.016e+04 1.608e-10
 95.02473   -172.7 1.030e+04 1.931e-10
 95.05320   -172.0 1.061e+04 2.658e-10
 95.07294   -171.4 1.051e+04 1.921e-10
 95.10371   -171.1 1.083e+04 2.877e-10
 95.14320   -170.9 1.123e+04 4.349e-10
 95.18270   -170.7 1.165e+04 6.164e-10
 95.21222   -170.3 1.200e+04 7.815e-10
 95.23186   -170.6 1.215e+04 8.546e-10
 95.25161   -170.9 1.230e+04 9.527e-10
 95.27136   -171.2 1.234e+04 9.774e-10
 95.29110   -171.6 1.235e+04 1.003e-09
 95.31085   -171.7 1.235e+04 9.994e-10
 95.33027   -172.0 1.227e+04 9.863e-10
 95.35012   -172.3 1.232e+04 1.038e-09
 95.38015   -172.1 1.195e+04 8.562e-10
 95.41964   -171.3 1.158e+04 6.743e-10
 95.45913   -170.2 1.121e+04 5.212e-10
 95.48865   -168.9 1.093e+04 4.344e-10
 95.50147   -168.4 1.088e+04 4.178e-10
 95.51144   -168.2 1.117e+04 5.366e-10
 95.52814   -167.0 1.097e+04 4.779e-10
 95.54779   -166.6 1.095e+04 4.742e-10
 95.56754   -165.8 1.095e+04 4.742e-10
 95.58728   -165.4 1.095e+04 4.751e-10
 95.60703   -164.6 1.098e+04 4.886e-10
 95.61722   -164.3 1.097e+04 5.044e-10
 95.62719   -164.6 1.098e+04 4.953e-10
 95.65659   -163.7 1.105e+04 5.840e-10
 95.69608   -162.8 1.115e+04 7.061e-10
 95.73557   -161.8 1.124e+04 8.207e-10
 95.77506   -160.8 1.124e+04 8.674e-10
 95.81455   -159.4 1.120e+04 8.683e-10
 95.84407   -158.1 1.097e+04 8.016e-10
 95.86372   -157.5 1.083e+04 7.469e-10
 95.88347   -156.4 1.062e+04 6.571e-10
 95.89440   -155.5 1.044e+04 5.783e-10
 95.90427   -155.7 1.032e+04 5.503e-10
 95.92296   -154.4 1.011e+04 4.656e-10
 95.94270   -153.5 1.003e+04 4.228e-10
 95.97242   -152.4 9.874e+03 3.622e-10
 96.01201   -150.3 9.604e+03 2.949e-10
 96.05150   -148.1 9.480e+03 2.697e-10
 96.09099   -146.0 9.464e+03 2.654e-10
 96.13048   -143.7 9.456e+03 2.830e-10
 96.16189   -141.5 9.768e+03 3.483e-10
 96.18164   -140.6 9.132e+03 2.244e-10
 96.20946   -138.1 9.484e+03 2.824e-10
 96.24896   -135.5 9.951e+03 3.660e-10
 96.27848   -133.9 1.030e+04 4.616e-10
 96.29812   -133.0 1.054e+04 5.584e-10
 96.31016   -131.8 1.079e+04 6.941e-10
 96.32003   -130.8 1.048e+04 5.358e-10
 96.33761   -129.8 1.077e+04 6.638e-10
 96.35736   -128.8 1.104e+04 8.155e-10
 96.37711   -128.0 1.128e+04 9.861e-10
 96.39685   -127.1 1.155e+04 1.193e-09
 96.41198   -126.3 1.187e+04 1.430e-09
 96.42185   -125.9 1.185e+04 1.366e-09
 96.43634   -125.3 1.219e+04 1.600e-09
 96.44875   -124.7 1.250e+04 1.839e-09
 96.45862   -124.0 1.255e+04 1.871e-09
 96.47583   -123.5 1.288e+04 2.175e-09
 96.49558   -123.1 1.306e+04 2.358e-09
 96.51532   -122.8 1.310e+04 2.394e-09
 96.53507   -122.6 1.305e+04 2.329e-09
 96.55482   -122.3 1.278e+04 2.023e-09
 96.57456   -122.0 1.244e+04 1.670e-09
 96.58733   -121.9 1.209e+04 1.371e-09
 96.59721   -121.6 1.245e+04 1.703e-09
 96.61405   -121.5 1.215e+04 1.445e-09
 96.63380   -121.5 1.195e+04 1.282e-09
 96.65354   -121.5 1.182e+04 1.193e-09
 96.67329   -121.4 1.173e+04 1.142e-09
 96.69303   -121.3 1.168e+04 1.106e-09
 96.71278   -121.3 1.166e+04 1.066e-09
 96.72592   -121.3 1.163e+04 1.012e-09
 96.73579   -121.8 1.204e+04 1.347e-09
 96.75227   -121.9 1.195e+04 1.274e-09
 96.77202   -121.9 1.184e+04 1.193e-09
 96.79176   -122.0 1.174e+04 1.126e-09
 96.81151   -122.0 1.170e+04 1.106e-09
 96.83125   -121.9 1.168e+04 1.103e-09
 96.85100   -121.8 1.177e+04 1.156e-09
 96.86451   -121.7 1.195e+04 1.248e-09
 96.87087   -122.2 1.192e+04 1.246e-09
 96.87710   -121.9 1.201e+04 1.350e-09
 96.89049   -121.7 1.215e+04 1.392e-09
 96.92021   -121.7 1.228e+04 1.404e-09
 96.94982   -121.6 1.237e+04 1.467e-09
 96.96947   -121.6 1.236e+04 1.441e-09
 96.98922   -121.5 1.231e+04 1.378e-09
 97.00310   -121.4 1.223e+04 1.278e-09
 97.01297   -122.1 1.195e+04 1.168e-09
 97.02871   -122.0 1.191e+04 1.104e-09
 97.04845   -122.1 1.189e+04 1.061e-09
 97.06820   -122.2 1.187e+04 1.039e-09
 97.08795   -122.2 1.186e+04 1.033e-09
 97.10769   -122.2 1.185e+04 1.030e-09
 97.12744   -122.0 1.182e+04 1.024e-09
 97.14168   -121.7 1.175e+04 1.004e-09
 97.15156   -122.1 1.175e+04 1.007e-09
 97.16693   -121.8 1.166e+04 9.604e-10
 97.18667   -121.4 1.158e+04 8.916e-10
 97.20642   -121.0 1.148e+04 8.237e-10
 97.22616   -120.6 1.139e+04 7.611e-10
 97.24591   -120.0 1.130e+04 7.076e-10
 97.26566   -119.4 1.122e+04 6.571e-10
 97.28027   -118.8 1.113e+04 6.080e-10
 97.29014   -119.4 1.120e+04 6.670e-10
 97.30515   -118.7 1.109e+04 6.034e-10
 97.32248   -118.2 1.098e+04 5.499e-10
 97.33236   -118.3 1.071e+04 4.232e-10
 97.35461   -118.1 1.061e+04 3.970e-10
 97.39420   -116.0 1.031e+04 3.598e-10
 97.43369   -114.0 1.026e+04 3.575e-10
 97.47318   -111.9 1.028e+04 3.813e-10
 97.51267   -109.6 1.049e+04 4.564e-10
 97.54777   -107.4 1.072e+04 5.490e-10
 97.56751   -107.0 1.095e+04 6.068e-10
 97.59165   -104.7 1.139e+04 7.917e-10
 97.63114   -102.6 1.189e+04 1.008e-09
 97.67063   -101.0 1.235e+04 1.232e-09
 97.69613   -101.4 1.243e+04 1.304e-09
 97.70591   -100.1 1.259e+04 1.498e-09
 97.71980    -99.2 1.258e+04 1.551e-09
 97.73955    -98.4 1.256e+04 1.573e-09
 97.75929    -99.8 1.319e+04 1.767e-09
 97.77774   -104.0 1.602e+04 2.737e-09
 97.78761    -98.5 1.383e+04 2.384e-09
 97.79879   -102.4 1.694e+04 4.270e-09
 97.81853   -105.8 1.960e+04 7.956e-09
 97.83462   -108.9 2.148e+04 1.251e-08
 97.84449   -109.4 2.290e+04 1.630e-08
 97.85304   -113.9 2.219e+04 1.514e-08
 97.86286   -115.7 2.223e+04 1.472e-08
 97.87273   -119.9 2.212e+04 1.258e-08
 97.88261   -122.9 2.213e+04 1.144e-08
 97.89248   -129.0 2.139e+04 9.122e-09
 97.90235   -132.2 2.098e+04 8.450e-09
 97.90875   -138.5 1.974e+04 7.473e-09
 97.91369   -139.6 1.913e+04 7.102e-09
 97.92210   -142.5 1.885e+04 6.981e-09
 97.93197   -146.6 1.846e+04 6.943e-09
 97.94184   -148.9 1.825e+04 7.369e-09
 97.95172   -150.8 1.817e+04 7.723e-09
 97.96159   -152.0 1.816e+04 7.853e-09
 97.97146   -152.9 1.795e+04 7.816e-09
 97.97805   -153.7 1.789e+04 7.526e-09
 97.98298   -155.6 1.791e+04 7.754e-09
 97.99121   -156.5 1.796e+04 7.660e-09
 98.00108   -157.9 1.810e+04 7.635e-09
 98.01020   -160.2 1.904e+04 7.883e-09
 98.01514   -161.4 1.992e+04 8.744e-09
 98.02082   -164.1 2.084e+04 9.665e-09
 98.03070   -166.7 2.148e+04 1.115e-08
 98.04057   -168.8 2.179e+04 1.299e-08
 98.04734   -170.7 2.198e+04 1.541e-08
 98.05228   -172.5 2.186e+04 1.703e-08
 98.06032   -174.2 2.201e+04 1.985e-08
 98.07019   -176.1 2.204e+04 2.272e-08
 98.08006   -178.3 2.192e+04 2.424e-08
 98.08993   -180.1 2.175e+04 2.453e-08
 98.09981   -181.4 2.086e+04 2.294e-08
 98.10968   -182.4 2.003e+04 1.760e-08
 98.11663   -183.9 1.914e+04 1.186e-08
 98.12157   -184.9 1.875e+04 1.026e-08
 98.12943   -187.0 1.760e+04 6.392e-09
 98.13930   -189.1 1.625e+04 4.230e-09
 98.15416   -190.7 1.522e+04 3.148e-09
 98.17395   -192.4 1.415e+04 2.061e-09
 98.19370   -194.2 1.250e+04 1.139e-09
 98.21344   -195.0 1.138e+04 7.486e-10
 98.23299   -195.2 1.100e+04 5.693e-10
 98.24286   -196.2 1.107e+04 6.067e-10
 98.25038   -195.9 1.085e+04 4.982e-10
 98.26026   -196.1 1.084e+04 4.819e-10
 98.27268   -195.7 1.063e+04 4.005e-10
 98.29242   -195.7 1.061e+04 3.453e-10
 98.31217   -195.8 1.068e+04 3.279e-10
 98.33191   -196.2 1.096e+04 3.246e-10
 98.35166   -197.0 1.143e+04 3.699e-10
 98.37141   -197.9 1.189e+04 4.773e-10
 98.38897   -198.7 1.220e+04 6.538e-10
 98.39884   -200.2 1.249e+04 8.754e-10
 98.41090   -200.7 1.267e+04 1.130e-09
 98.43064   -201.0 1.277e+04 1.344e-09
 98.45039   -201.3 1.279e+04 1.436e-09
 98.47013   -201.5 1.269e+04 1.423e-09
 98.48988   -201.6 1.253e+04 1.327e-09
 98.50962   -201.6 1.234e+04 1.217e-09
 98.52756   -201.8 1.211e+04 1.074e-09
 98.53743   -203.1 1.195e+04 9.662e-10
 98.54912   -203.1 1.168e+04 8.276e-10
 98.56886   -202.9 1.143e+04 7.147e-10
 98.58861   -202.7 1.122e+04 6.303e-10
 98.60835   -202.3 1.105e+04 5.720e-10
 98.62810   -202.0 1.094e+04 5.371e-10
 98.64784   -201.5 1.089e+04 5.233e-10
 98.66615   -201.2 1.088e+04 5.215e-10
 98.67602   -201.7 1.082e+04 5.106e-10
 98.68733   -201.3 1.092e+04 5.464e-10
 98.69811   -200.8 1.105e+04 5.988e-10
 98.70799   -202.0 1.095e+04 5.898e-10
 98.72683   -201.2 1.100e+04 6.402e-10
 98.74657   -200.7 1.097e+04 7.134e-10
 98.76632   -200.7 1.091e+04 8.968e-10
 98.78606   -201.7 1.193e+04 1.361e-09
 98.80473   -204.0 1.480e+04 2.444e-09
 98.81461   -207.0 1.699e+04 3.441e-09
 98.82555   -209.4 1.966e+04 7.932e-09
 98.84530   -212.2 2.109e+04 1.559e-08
 98.86504   -215.2 2.149e+04 2.191e-08
 98.88479   -218.1 2.138e+04 2.252e-08
 98.90454   -220.7 2.080e+04 1.802e-08
 98.92428   -223.1 1.992e+04 1.215e-08
 98.94332   -227.3 1.836e+04 6.850e-09
 98.95319   -230.2 1.756e+04 5.782e-09
 98.96377   -233.8 1.494e+04 3.197e-09
 98.98352   -235.6 1.316e+04 2.191e-09
 99.00326   -236.1 1.258e+04 1.759e-09
 99.02301   -236.2 1.226e+04 1.461e-09
 99.04275   -235.9 1.182e+04 1.206e-09
 99.06250   -235.6 1.140e+04 9.895e-10
 99.08191   -235.4 1.106e+04 8.250e-10
 99.09178   -236.2 1.080e+04 7.363e-10
 99.10199   -235.9 1.057e+04 6.474e-10
 99.12174   -235.6 1.043e+04 5.868e-10
 99.14148   -235.4 1.037e+04 5.519e-10
 99.15337   -235.1 1.040e+04 5.312e-10
 99.16324   -235.6 1.046e+04 5.842e-10
 99.18097   -235.6 1.068e+04 6.003e-10
 99.21069   -236.0 1.085e+04 6.194e-10
 99.25028   -236.4 1.078e+04 5.605e-10
 99.28977   -236.3 1.064e+04 5.228e-10
 99.32926   -236.0 1.045e+04 5.029e-10
 99.36875   -235.4 1.027e+04 4.908e-10
 99.40824   -234.6 1.015e+04 4.676e-10
 99.44773   -234.2 1.008e+04 4.241e-10
 99.48722   -234.1 9.907e+03 3.630e-10
 99.50774   -233.7 9.674e+03 3.040e-10
 99.52748   -233.6 9.676e+03 3.069e-10
 99.56621   -232.8 9.405e+03 2.583e-10
 99.60570   -231.9 9.157e+03 2.160e-10
 99.64519   -230.8 8.953e+03 1.799e-10
 99.68468   -229.6 8.792e+03 1.515e-10
 99.72417   -228.5 8.675e+03 1.317e-10
 99.76366   -227.3 8.595e+03 1.196e-10
 99.78491   -226.2 8.535e+03 1.125e-10
 99.80466   -225.8 8.644e+03 1.258e-10
 99.84264   -224.7 8.573e+03 1.164e-10
 99.88214   -223.5 8.483e+03 1.063e-10
 99.92163   -222.3 8.381e+03 9.631e-11
 99.96112   -220.9 8.299e+03 8.634e-11
100.00061   -219.3 8.233e+03 7.834e-11
