# Columns:
#   distance along LOS (in CHIMPs)
#   peculiar velocity  (in km/s)
#   temperature (K)
#   HI number density
# pos=(111.59,167.969,17.5295), angles=(1.33868,1.60137)
  0.00257      4.9 1.086e+04 5.588e-10
  0.01518      4.9 1.078e+04 5.598e-10
  0.03526      5.0 1.073e+04 5.543e-10
  0.05518      5.5 1.068e+04 5.377e-10
  0.06522      5.4 1.071e+04 5.620e-10
  0.07542      5.6 1.072e+04 5.628e-10
  0.09550      6.3 1.075e+04 5.666e-10
  0.11558      6.5 1.076e+04 5.691e-10
  0.13565      7.2 1.079e+04 5.690e-10
  0.14783      7.3 1.081e+04 5.722e-10
  0.15797      7.2 1.086e+04 6.114e-10
  0.17591      7.3 1.091e+04 6.276e-10
  0.19589      7.6 1.088e+04 6.272e-10
  0.21597      8.1 1.087e+04 6.368e-10
  0.23044      8.5 1.091e+04 6.564e-10
  0.24048      8.4 1.091e+04 6.753e-10
  0.25613      8.9 1.091e+04 6.920e-10
  0.27621      9.4 1.089e+04 7.226e-10
  0.29629     10.7 1.089e+04 7.218e-10
  0.31305     11.0 1.090e+04 7.279e-10
  0.32319     11.0 1.080e+04 6.686e-10
  0.34668     12.9 1.073e+04 6.479e-10
  0.38684     14.7 1.057e+04 5.922e-10
  0.42699     16.5 1.039e+04 5.016e-10
  0.45895     18.1 1.020e+04 4.031e-10
  0.47903     16.6 9.856e+03 2.673e-10
  0.48851     18.3 9.784e+03 2.535e-10
  0.50859     17.8 9.505e+03 1.836e-10
  0.54747     19.9 9.574e+03 2.169e-10
  0.58762     22.8 1.001e+04 2.983e-10
  0.61764     24.2 1.011e+04 3.318e-10
  0.63763     24.7 1.014e+04 3.420e-10
  0.65353     25.6 1.018e+04 3.776e-10
  0.66357     25.3 1.010e+04 3.464e-10
  0.67778     26.2 1.018e+04 4.017e-10
  0.69786     27.2 1.036e+04 4.940e-10
  0.71794     28.3 1.067e+04 6.156e-10
  0.73614     29.1 1.118e+04 7.911e-10
  0.74618     28.8 1.107e+04 7.038e-10
  0.75810     29.1 1.181e+04 9.714e-10
  0.77818     28.8 1.277e+04 1.458e-09
  0.79826     27.8 1.452e+04 2.599e-09
  0.81834     26.0 1.674e+04 5.570e-09
  0.82879     25.1 1.833e+04 1.192e-08
  0.83883     24.9 1.759e+04 9.557e-09
  0.85849     24.8 1.872e+04 1.690e-08
  0.87857     24.8 1.946e+04 2.303e-08
  0.89865     24.7 1.980e+04 2.431e-08
  0.91140     24.3 1.988e+04 1.869e-08
  0.92144     23.4 1.949e+04 1.724e-08
  0.93881     21.3 1.950e+04 1.096e-08
  0.95889     17.6 1.799e+04 6.278e-09
  0.97897     14.1 1.546e+04 4.120e-09
  0.99401     12.5 1.393e+04 3.183e-09
  1.00405     12.2 1.421e+04 3.483e-09
  1.01912     11.4 1.453e+04 3.561e-09
  1.03920      8.9 1.594e+04 4.488e-09
  1.05928      5.7 1.763e+04 7.321e-09
  1.07662      4.6 1.826e+04 1.105e-08
  1.08666      4.3 1.881e+04 1.441e-08
  1.09944      4.5 1.878e+04 1.485e-08
  1.11829      5.1 1.833e+04 1.307e-08
  1.12833      4.9 1.872e+04 1.565e-08
  1.13960      5.6 1.771e+04 9.718e-09
  1.15923      5.1 1.638e+04 4.970e-09
  1.16927      4.7 1.658e+04 6.251e-09
  1.17975      3.5 1.499e+04 3.246e-09
  1.19983      2.4 1.346e+04 1.802e-09
  1.21991      2.3 1.242e+04 1.154e-09
  1.23999      2.7 1.202e+04 8.872e-10
  1.27021      4.8 1.206e+04 8.626e-10
  1.31046      6.6 1.156e+04 6.013e-10
  1.33469      8.2 1.122e+04 5.186e-10
  1.35477      8.5 1.194e+04 9.164e-10
  1.39078     10.1 1.195e+04 9.529e-10
  1.43094     11.9 1.203e+04 1.017e-09
  1.47109     13.9 1.192e+04 1.000e-09
  1.49991     16.1 1.167e+04 9.089e-10
  1.51999     16.3 1.248e+04 1.484e-09
  1.55141     18.7 1.197e+04 1.035e-09
  1.59157     20.9 1.135e+04 6.310e-10
  1.63172     22.6 1.076e+04 4.230e-10
  1.66513     24.6 1.059e+04 3.973e-10
  1.68521     24.3 1.093e+04 4.589e-10
  1.71204     26.5 1.082e+04 4.459e-10
  1.75220     28.9 1.076e+04 4.493e-10
  1.77802     31.3 1.073e+04 4.458e-10
  1.79810     31.2 1.123e+04 6.899e-10
  1.83035     33.5 1.128e+04 7.213e-10
  1.85043     33.1 1.103e+04 5.888e-10
  1.87267     35.4 1.103e+04 5.792e-10
  1.91283     37.6 1.109e+04 5.851e-10
  1.95299     39.4 1.120e+04 6.057e-10
  1.98301     40.5 1.110e+04 5.733e-10
  2.00299     41.4 1.112e+04 5.885e-10
  2.01545     42.1 1.120e+04 6.413e-10
  2.02549     41.8 1.111e+04 6.230e-10
  2.04315     42.7 1.120e+04 7.006e-10
  2.06322     43.7 1.126e+04 7.765e-10
  2.08330     44.6 1.129e+04 8.245e-10
  2.09806     45.6 1.129e+04 8.304e-10
  2.10810     45.3 1.126e+04 8.164e-10
  2.12346     46.2 1.120e+04 7.914e-10
  2.14354     47.1 1.104e+04 7.133e-10
  2.16362     47.8 1.082e+04 6.188e-10
  2.18067     48.7 1.057e+04 5.134e-10
  2.19071     48.3 1.054e+04 4.843e-10
  2.20378     48.8 1.036e+04 4.129e-10
  2.23399     50.2 9.991e+03 2.869e-10
  2.27425     52.3 9.600e+03 1.952e-10
  2.31441     54.2 9.255e+03 1.419e-10
  2.34609     56.3 8.931e+03 1.116e-10
  2.36617     55.5 8.762e+03 8.846e-11
  2.39472     57.9 8.490e+03 8.283e-11
  2.43488     60.6 8.427e+03 8.197e-11
  2.47504     63.3 8.423e+03 8.251e-11
  2.51131     66.0 8.415e+03 8.585e-11
  2.53139     65.7 8.421e+03 8.563e-11
  2.55535     68.3 8.446e+03 9.544e-11
  2.59551     70.7 8.503e+03 1.133e-10
  2.63567     73.1 8.597e+03 1.407e-10
  2.67583     75.4 8.738e+03 1.760e-10
  2.69661     77.7 8.916e+03 2.179e-10
  2.71668     77.1 8.919e+03 2.220e-10
  2.75614     79.1 9.074e+03 2.636e-10
  2.79630     81.0 9.240e+03 3.023e-10
  2.83646     82.7 9.389e+03 3.396e-10
  2.86183     84.3 9.526e+03 3.766e-10
  2.88190     83.8 9.305e+03 3.218e-10
  2.91677     85.3 9.323e+03 3.314e-10
  2.95693     86.8 9.314e+03 3.385e-10
  2.99709     88.3 9.348e+03 3.557e-10
  3.02705     89.6 9.479e+03 3.884e-10
  3.04712     89.3 9.457e+03 3.866e-10
  3.06727     89.9 9.544e+03 4.201e-10
  3.08686     90.4 9.657e+03 4.699e-10
  3.09690     90.9 9.508e+03 4.052e-10
  3.10733     91.1 9.731e+03 4.857e-10
  3.11950     91.2 9.953e+03 5.893e-10
  3.12954     91.3 9.970e+03 6.196e-10
  3.14748     91.4 1.023e+04 7.491e-10
  3.16756     91.4 1.053e+04 9.024e-10
  3.18764     91.4 1.083e+04 1.057e-09
  3.20211     91.2 1.103e+04 1.127e-09
  3.21215     90.7 1.186e+04 1.303e-09
  3.22780     90.1 1.185e+04 1.286e-09
  3.24788     89.4 1.172e+04 1.182e-09
  3.26796     88.5 1.136e+04 9.702e-10
  3.28472     87.2 1.075e+04 7.356e-10
  3.29476     86.5 1.239e+04 1.271e-09
  3.30811     85.3 1.126e+04 9.964e-10
  3.32819     84.2 1.041e+04 8.448e-10
  3.34827     83.6 1.024e+04 8.100e-10
  3.36733     83.5 1.035e+04 8.379e-10
  3.37737     83.0 1.052e+04 1.027e-09
  3.38843     82.9 1.065e+04 1.054e-09
  3.40851     82.9 1.089e+04 1.123e-09
  3.42859     82.9 1.111e+04 1.219e-09
  3.44867     82.8 1.130e+04 1.323e-09
  3.45998     82.7 1.146e+04 1.422e-09
  3.47002     81.7 1.151e+04 1.440e-09
  3.48882     81.3 1.158e+04 1.437e-09
  3.50890     80.9 1.157e+04 1.398e-09
  3.52898     80.4 1.145e+04 1.287e-09
  3.54259     79.8 1.122e+04 1.137e-09
  3.55263     78.1 1.106e+04 1.039e-09
  3.56914     77.5 1.074e+04 8.987e-10
  3.58922     76.9 1.046e+04 7.924e-10
  3.60930     76.5 1.023e+04 7.151e-10
  3.62520     76.2 1.006e+04 6.536e-10
  3.63524     75.0 1.002e+04 6.447e-10
  3.64946     75.1 9.856e+03 5.836e-10
  3.66953     75.3 9.684e+03 5.169e-10
  3.68961     75.4 9.494e+03 4.474e-10
  3.70781     75.4 9.321e+03 3.872e-10
  3.71785     74.9 9.190e+03 3.624e-10
  3.72977     74.8 9.040e+03 3.233e-10
  3.74639     74.7 8.972e+03 3.111e-10
  3.75643     74.8 9.109e+03 3.366e-10
  3.76993     74.6 9.114e+03 3.371e-10
  3.79001     74.5 9.147e+03 3.416e-10
  3.80046     74.1 9.238e+03 3.564e-10
  3.81050     73.1 9.342e+03 3.637e-10
  3.83016     71.2 9.963e+03 4.328e-10
  3.85024     68.4 1.081e+04 6.166e-10
  3.87032     66.5 1.226e+04 1.019e-09
  3.88307     65.6 1.313e+04 1.529e-09
  3.89311     64.2 1.430e+04 2.591e-09
  3.91048     64.1 1.469e+04 3.507e-09
  3.93056     64.2 1.466e+04 3.812e-09
  3.95064     64.4 1.443e+04 3.547e-09
  3.96568     64.5 1.391e+04 2.801e-09
  3.97572     63.9 1.397e+04 2.816e-09
  4.00093     64.4 1.284e+04 1.608e-09
  4.03845     64.6 1.169e+04 9.116e-10
  4.05852     62.9 1.145e+04 6.842e-10
  4.08135     62.9 1.039e+04 4.113e-10
  4.12150     64.0 9.904e+03 3.373e-10
  4.16166     65.9 9.851e+03 3.350e-10
  4.20182     67.8 9.854e+03 3.393e-10
  4.22374     69.7 9.913e+03 3.568e-10
  4.24382     69.9 9.976e+03 3.484e-10
  4.28213     71.6 1.010e+04 3.644e-10
  4.30626     72.1 1.015e+04 3.871e-10
  4.31620     72.1 1.019e+04 3.866e-10
  4.33214     72.7 1.025e+04 4.038e-10
  4.35222     73.3 1.043e+04 4.195e-10
  4.37229     73.5 1.054e+04 4.255e-10
  4.38887     74.6 1.064e+04 4.422e-10
  4.40252     74.6 1.089e+04 4.839e-10
  4.41616     73.3 1.178e+04 8.575e-10
  4.44277     74.4 1.194e+04 9.612e-10
  4.48292     75.6 1.220e+04 1.157e-09
  4.52308     76.8 1.252e+04 1.386e-09
  4.55418     77.8 1.281e+04 1.564e-09
  4.57426     78.4 1.295e+04 1.771e-09
  4.60340     79.2 1.317e+04 1.947e-09
  4.64355     80.0 1.320e+04 1.924e-09
  4.68371     81.1 1.300e+04 1.673e-09
  4.71373     82.0 1.269e+04 1.461e-09
  4.72925     83.0 1.237e+04 1.220e-09
  4.73929     83.4 1.286e+04 1.513e-09
  4.75379     83.7 1.260e+04 1.209e-09
  4.77387     83.6 1.237e+04 1.005e-09
  4.79395     83.5 1.233e+04 9.708e-10
  4.81186     83.5 1.235e+04 9.764e-10
  4.82190     83.1 1.323e+04 1.473e-09
  4.83411     82.9 1.329e+04 1.525e-09
  4.85419     82.7 1.346e+04 1.695e-09
  4.87427     82.5 1.374e+04 2.017e-09
  4.89434     82.1 1.407e+04 2.492e-09
  4.90451     81.9 1.445e+04 3.105e-09
  4.91455     81.2 1.489e+04 3.696e-09
  4.93450     81.1 1.509e+04 4.111e-09
  4.95458     81.0 1.522e+04 4.456e-09
  4.97466     80.9 1.522e+04 4.276e-09
  4.98712     80.7 1.517e+04 3.927e-09
  4.99716     79.3 1.471e+04 3.120e-09
  5.01482     78.6 1.442e+04 2.725e-09
  5.03490     77.7 1.421e+04 2.541e-09
  5.05498     76.9 1.415e+04 2.535e-09
  5.06546     75.9 1.416e+04 2.583e-09
  5.07018     75.2 1.378e+04 2.309e-09
  5.07977     74.8 1.309e+04 1.782e-09
  5.09513     74.2 1.332e+04 1.939e-09
  5.11521     73.4 1.365e+04 2.202e-09
  5.13529     72.5 1.402e+04 2.515e-09
  5.15234     71.4 1.437e+04 2.808e-09
  5.16238     72.1 1.345e+04 1.852e-09
  5.17545     70.9 1.380e+04 2.064e-09
  5.19553     69.2 1.420e+04 2.355e-09
  5.21561     67.1 1.469e+04 2.808e-09
  5.23495     64.5 1.532e+04 3.526e-09
  5.24499     65.6 1.481e+04 2.866e-09
  5.25576     63.0 1.589e+04 4.195e-09
  5.27584     60.3 1.687e+04 5.734e-09
  5.29592     57.5 1.756e+04 7.074e-09
  5.31600     54.9 1.760e+04 7.166e-09
  5.32760     52.6 1.727e+04 6.528e-09
  5.33764     54.0 1.787e+04 7.755e-09
  5.35616     52.0 1.728e+04 6.611e-09
  5.37624     50.3 1.646e+04 4.909e-09
  5.39632     48.8 1.565e+04 3.265e-09
  5.41021     47.1 1.487e+04 1.998e-09
  5.42025     48.5 1.595e+04 3.423e-09
  5.43647     47.0 1.529e+04 2.093e-09
  5.45655     45.1 1.413e+04 1.243e-09
  5.47663     42.9 1.255e+04 9.404e-10
  5.49282     40.7 1.244e+04 9.813e-10
  5.50286     41.3 1.361e+04 1.422e-09
  5.51679     37.5 1.405e+04 1.738e-09
  5.53687     33.7 1.550e+04 3.210e-09
  5.55695     31.6 1.699e+04 6.717e-09
  5.57543     31.0 1.802e+04 1.137e-08
  5.58547     31.5 1.828e+04 1.122e-08
  5.59710     30.2 1.844e+04 1.182e-08
  5.61718     28.8 1.828e+04 1.090e-08
  5.63726     27.2 1.763e+04 7.964e-09
  5.65734     25.0 1.641e+04 4.922e-09
  5.66808     22.3 1.482e+04 3.024e-09
  5.67812     21.5 1.431e+04 2.484e-09
  5.69750     19.5 1.302e+04 1.795e-09
  5.71496     19.1 1.249e+04 1.509e-09
  5.72500     18.9 1.256e+04 1.539e-09
  5.73766     19.1 1.234e+04 1.376e-09
  5.75069     19.6 1.213e+04 1.218e-09
  5.76073     19.7 1.205e+04 1.168e-09
  5.77781     20.0 1.181e+04 1.032e-09
  5.79789     20.2 1.157e+04 9.057e-10
  5.81797     20.3 1.135e+04 8.167e-10
  5.83330     20.4 1.116e+04 7.458e-10
  5.84334     20.6 1.117e+04 7.693e-10
  5.85813     20.8 1.107e+04 7.353e-10
  5.88835     21.3 1.072e+04 5.663e-10
  5.91610     21.4 1.049e+04 5.124e-10
  5.93618     22.0 1.074e+04 6.005e-10
  5.96876     22.1 1.052e+04 5.221e-10
  6.00892     21.8 1.022e+04 4.011e-10
  6.04907     20.8 9.764e+03 2.749e-10
  6.08132     18.8 9.389e+03 1.974e-10
  6.10140     17.6 1.033e+04 2.761e-10
  6.12939     13.7 1.061e+04 2.846e-10
  6.15941     11.1 1.080e+04 2.936e-10
  6.17378      7.8 1.138e+04 4.428e-10
  6.18382      6.5 1.163e+04 6.219e-10
  6.19947      5.2 1.154e+04 9.417e-10
  6.21955      5.3 1.135e+04 1.130e-09
  6.23963      6.1 1.119e+04 1.098e-09
  6.25639      7.1 1.096e+04 9.152e-10
  6.26643      6.9 1.090e+04 7.321e-10
  6.27979      6.5 1.081e+04 4.588e-10
  6.29987      5.0 1.067e+04 2.826e-10
  6.33008      3.3 1.010e+04 2.522e-10
  6.37034      3.0 9.757e+03 2.557e-10
  6.41049      3.5 9.688e+03 2.918e-10
  6.43184      4.4 9.821e+03 3.436e-10
  6.45192      4.8 9.644e+03 3.038e-10
  6.49081      5.6 9.786e+03 3.366e-10
  6.53097      6.5 9.815e+03 3.639e-10
  6.57113      7.1 9.954e+03 4.232e-10
  6.59706      7.6 1.005e+04 4.695e-10
  6.61714      8.5 9.666e+03 3.482e-10
  6.65144      9.3 9.640e+03 3.423e-10
  6.69160     10.1 9.565e+03 3.135e-10
  6.73176     10.9 9.565e+03 2.854e-10
  6.76228     11.4 9.652e+03 2.923e-10
  6.78236     12.3 9.462e+03 2.494e-10
  6.81207     12.7 9.758e+03 3.123e-10
  6.85223     13.3 1.004e+04 4.102e-10
  6.89239     14.1 1.016e+04 4.715e-10
  6.92750     14.9 1.025e+04 4.798e-10
  6.94758     15.8 1.019e+04 4.575e-10
  6.97270     16.4 1.031e+04 4.750e-10
  7.01286     16.6 1.052e+04 5.236e-10
  7.03423     16.6 1.101e+04 6.909e-10
  7.05431     17.5 1.132e+04 8.863e-10
  7.09272     17.8 1.204e+04 1.245e-09
  7.11280     17.7 1.226e+04 1.350e-09
  7.12320     16.8 1.289e+04 1.787e-09
  7.14318     16.3 1.353e+04 2.516e-09
  7.16326     16.4 1.415e+04 3.534e-09
  7.18334     17.1 1.465e+04 4.352e-09
  7.19522     17.4 1.478e+04 4.416e-09
  7.20526     17.3 1.468e+04 4.363e-09
  7.22349     18.0 1.453e+04 4.042e-09
  7.24357     18.6 1.422e+04 3.260e-09
  7.26365     18.7 1.375e+04 2.376e-09
  7.27783     18.4 1.308e+04 1.677e-09
  7.28787     18.2 1.265e+04 1.400e-09
  7.30381     17.7 1.224e+04 1.229e-09
  7.33402     18.2 1.198e+04 1.168e-09
  7.37428     19.2 1.209e+04 1.242e-09
  7.40430     19.3 1.223e+04 1.325e-09
  7.42428     19.3 1.255e+04 1.495e-09
  7.44305     18.8 1.303e+04 1.806e-09
  7.45309     19.4 1.303e+04 1.820e-09
  7.46444     18.2 1.400e+04 2.526e-09
  7.48452     15.7 1.551e+04 4.029e-09
  7.50460     13.2 1.696e+04 6.634e-09
  7.52468     11.2 1.755e+04 8.376e-09
  7.53570      9.6 1.740e+04 8.092e-09
  7.54574     10.1 1.819e+04 1.127e-08
  7.56483      9.5 1.741e+04 8.831e-09
  7.58491      8.7 1.638e+04 5.415e-09
  7.60499      6.5 1.541e+04 3.024e-09
  7.61831      3.2 1.428e+04 1.856e-09
  7.62835      3.8 1.458e+04 2.087e-09
  7.64515      1.1 1.321e+04 1.699e-09
  7.66523      0.9 1.296e+04 1.664e-09
  7.68353      1.0 1.291e+04 1.645e-09
  7.69357      2.2 1.295e+04 1.655e-09
  7.70092      2.5 1.286e+04 1.587e-09
  7.71096      2.6 1.290e+04 1.733e-09
  7.72546      3.0 1.281e+04 1.612e-09
  7.74554      3.6 1.265e+04 1.392e-09
  7.77358      4.2 1.214e+04 8.854e-10
  7.79366      5.0 1.251e+04 9.620e-10
  7.81592      5.8 1.224e+04 6.195e-10
  7.85617      7.3 1.162e+04 3.924e-10
  7.89633      9.2 1.092e+04 3.590e-10
  7.93649     11.7 1.076e+04 3.681e-10
  7.95898     14.4 1.068e+04 3.988e-10
  7.97906     14.4 1.089e+04 4.895e-10
  8.01680     17.1 1.086e+04 4.843e-10
  8.05696     19.6 1.087e+04 4.670e-10
  8.09712     22.0 1.086e+04 4.489e-10
  8.12420     24.2 1.084e+04 4.255e-10
  8.14428     23.9 1.089e+04 3.923e-10
  8.16730     25.2 1.079e+04 3.938e-10
  8.18728     26.2 1.069e+04 3.830e-10
  8.20662     27.2 1.063e+04 3.812e-10
  8.21666     27.2 1.063e+04 3.656e-10
  8.22744     28.2 1.059e+04 3.672e-10
  8.24751     29.2 1.056e+04 3.713e-10
  8.26759     30.1 1.051e+04 3.784e-10
  8.28767     31.0 1.048e+04 3.882e-10
  8.29927     31.9 1.045e+04 3.968e-10
  8.30930     31.9 1.043e+04 3.816e-10
  8.32783     32.8 1.036e+04 3.852e-10
  8.34306     33.7 1.032e+04 3.879e-10
  8.35310     33.3 1.099e+04 6.173e-10
  8.37813     34.8 1.092e+04 6.255e-10
  8.41838     37.2 1.099e+04 6.717e-10
  8.45464     38.4 1.139e+04 8.049e-10
  8.47462     38.3 1.153e+04 8.030e-10
  8.48846     37.6 1.224e+04 1.058e-09
  8.50854     35.6 1.357e+04 1.865e-09
  8.52862     34.4 1.502e+04 3.761e-09
  8.54710     34.7 1.630e+04 7.008e-09
  8.55713     35.0 1.682e+04 8.711e-09
  8.56878     35.7 1.777e+04 1.209e-08
  8.58886     35.5 1.782e+04 1.208e-08
  8.60893     35.6 1.755e+04 1.058e-08
  8.62901     35.2 1.691e+04 7.771e-09
  8.63974     33.7 1.604e+04 5.398e-09
  8.64978     34.1 1.590e+04 5.075e-09
  8.66917     32.0 1.462e+04 3.535e-09
  8.68925     31.0 1.370e+04 2.990e-09
  8.70933     31.3 1.348e+04 2.835e-09
  8.72235     32.0 1.338e+04 2.724e-09
  8.73239     32.5 1.283e+04 2.163e-09
  8.74949     33.6 1.273e+04 2.044e-09
  8.76957     34.6 1.261e+04 1.880e-09
  8.78964     35.6 1.243e+04 1.641e-09
  8.80496     36.5 1.214e+04 1.358e-09
  8.81500     37.0 1.189e+04 1.239e-09
  8.82980     37.8 1.163e+04 1.050e-09
  8.84988     38.3 1.138e+04 9.026e-10
  8.86996     38.8 1.118e+04 8.264e-10
  8.88757     39.3 1.116e+04 8.229e-10
  8.89761     40.3 1.118e+04 8.299e-10
  8.91012     41.0 1.121e+04 8.431e-10
  8.93020     41.4 1.139e+04 9.113e-10
  8.95028     41.9 1.148e+04 9.678e-10
  8.97028     42.8 1.180e+04 1.179e-09
  8.99046     44.6 1.199e+04 1.250e-09
  9.02075     45.4 1.234e+04 1.494e-09
  9.06090     46.0 1.256e+04 1.612e-09
  9.10106     46.4 1.259e+04 1.572e-09
  9.13560     46.6 1.243e+04 1.366e-09
  9.15558     47.4 1.308e+04 1.892e-09
  9.17114     47.2 1.297e+04 1.770e-09
  9.19122     46.9 1.281e+04 1.635e-09
  9.21130     46.8 1.263e+04 1.511e-09
  9.22805     46.8 1.241e+04 1.380e-09
  9.23809     47.1 1.291e+04 1.742e-09
  9.25146     47.2 1.258e+04 1.523e-09
  9.27154     47.2 1.230e+04 1.327e-09
  9.29162     46.8 1.236e+04 1.328e-09
  9.31066     45.1 1.290e+04 1.461e-09
  9.32070     45.0 1.332e+04 1.735e-09
  9.33177     41.9 1.477e+04 2.387e-09
  9.35185     39.4 1.638e+04 4.180e-09
  9.37193     38.5 1.734e+04 6.896e-09
  9.39201     38.2 1.809e+04 9.420e-09
  9.40331     37.7 1.872e+04 1.012e-08
  9.41335     38.1 1.831e+04 8.886e-09
  9.43217     37.3 1.844e+04 8.698e-09
  9.45225     36.3 1.853e+04 8.073e-09
  9.47233     35.4 1.822e+04 7.116e-09
  9.48592     35.5 1.755e+04 6.003e-09
  9.49596     35.5 1.732e+04 5.142e-09
  9.51248     35.8 1.681e+04 4.468e-09
  9.53256     36.7 1.607e+04 3.689e-09
  9.55264     37.7 1.532e+04 2.905e-09
  9.56853     38.9 1.459e+04 2.252e-09
  9.57857     39.3 1.465e+04 2.259e-09
  9.59280     40.7 1.396e+04 1.769e-09
  9.61288     42.3 1.327e+04 1.377e-09
  9.63296     44.0 1.274e+04 1.094e-09
  9.65114     45.8 1.233e+04 8.858e-10
  9.66024     46.3 1.226e+04 8.844e-10
  9.66213     46.7 1.284e+04 1.150e-09
  9.67311     48.5 1.236e+04 9.217e-10
  9.69319     50.2 1.192e+04 7.520e-10
  9.71327     52.1 1.158e+04 6.436e-10
  9.73335     54.2 1.141e+04 5.953e-10
  9.74379     56.3 1.142e+04 5.877e-10
  9.75383     56.9 1.123e+04 5.722e-10
  9.77351     58.9 1.123e+04 5.670e-10
  9.79359     61.1 1.130e+04 5.752e-10
  9.81367     63.3 1.138e+04 6.055e-10
  9.82640     65.5 1.162e+04 6.586e-10
  9.83644     66.4 1.119e+04 5.699e-10
  9.85382     68.7 1.144e+04 6.247e-10
  9.87390     70.8 1.179e+04 7.075e-10
  9.89398     72.9 1.218e+04 8.245e-10
  9.90901     75.2 1.262e+04 9.786e-10
  9.91905     76.5 1.189e+04 7.413e-10
  9.93414     78.9 1.228e+04 8.699e-10
  9.95422     81.3 1.268e+04 1.028e-09
  9.97430     83.6 1.307e+04 1.208e-09
  9.99162     85.8 1.361e+04 1.420e-09
 10.00166     87.5 1.260e+04 9.988e-10
 10.01445     89.8 1.296e+04 1.132e-09
 10.03453     91.8 1.344e+04 1.273e-09
 10.05461     93.4 1.409e+04 1.426e-09
 10.07423     94.2 1.480e+04 1.596e-09
 10.08427     97.2 1.336e+04 1.087e-09
 10.09477     97.8 1.403e+04 1.202e-09
 10.11485     97.4 1.472e+04 1.350e-09
 10.13493     96.0 1.536e+04 1.511e-09
 10.15501     93.6 1.537e+04 1.701e-09
 10.16688     90.4 1.649e+04 1.629e-09
 10.17692     93.4 1.792e+04 1.218e-09
 10.19010     68.0 6.603e+04 8.547e-10
 10.20009     -3.6 7.976e+04 8.551e-09
 10.20809    -40.9 2.570e+04 1.214e-06
 10.21311    -42.5 2.392e+04 1.542e-06
 10.21763    -62.2 2.533e+04 2.188e-06
 10.22263    -93.4 6.951e+04 1.967e-08
 10.23018   -130.6 9.151e+04 1.921e-09
 10.24024   -191.0 2.473e+04 1.476e-09
 10.24940   -197.1 1.579e+04 1.844e-09
 10.25442   -198.8 1.560e+04 1.690e-09
 10.26032   -200.5 1.561e+04 1.727e-09
 10.27543   -203.6 1.544e+04 1.705e-09
 10.29556   -207.2 1.519e+04 1.890e-09
 10.31163   -208.7 1.551e+04 2.078e-09
 10.32167   -209.9 1.501e+04 1.649e-09
 10.33210   -210.4 1.505e+04 1.803e-09
 10.34214   -212.3 1.473e+04 1.551e-09
 10.35580   -211.9 1.482e+04 1.700e-09
 10.37587   -211.3 1.484e+04 1.811e-09
 10.39595   -210.8 1.479e+04 1.866e-09
 10.41471   -210.2 1.475e+04 1.880e-09
 10.42475   -210.5 1.452e+04 1.723e-09
 10.43611   -209.8 1.448e+04 1.741e-09
 10.45619   -209.2 1.442e+04 1.771e-09
 10.47627   -208.8 1.442e+04 1.825e-09
 10.49635   -208.4 1.442e+04 1.901e-09
 10.50736   -208.0 1.438e+04 1.969e-09
 10.51740   -207.5 1.438e+04 1.910e-09
 10.53651   -207.2 1.433e+04 1.982e-09
 10.55658   -207.0 1.428e+04 1.997e-09
 10.57666   -207.0 1.406e+04 1.963e-09
 10.58997   -207.0 1.379e+04 1.855e-09
 10.60001   -206.6 1.414e+04 2.022e-09
 10.61682   -206.8 1.387e+04 1.924e-09
 10.63690   -206.9 1.358e+04 1.768e-09
 10.65698   -207.0 1.328e+04 1.570e-09
 10.67258   -207.0 1.296e+04 1.357e-09
 10.68262   -207.0 1.334e+04 1.555e-09
 10.69714   -206.9 1.292e+04 1.277e-09
 10.71721   -206.8 1.246e+04 1.023e-09
 10.73729   -206.7 1.198e+04 8.140e-10
 10.75519   -206.5 1.151e+04 6.576e-10
 10.76523   -206.4 1.169e+04 6.796e-10
 10.77745   -206.0 1.120e+04 5.451e-10
 10.79753   -205.3 1.077e+04 4.576e-10
 10.81761   -204.2 1.053e+04 3.872e-10
 10.83769   -202.8 1.041e+04 3.454e-10
 10.84794   -202.1 1.040e+04 3.254e-10
 10.86812   -202.2 1.039e+04 3.231e-10
 10.90816   -201.0 1.025e+04 3.020e-10
 10.94832   -199.3 1.005e+04 2.792e-10
 10.97136   -197.6 9.891e+03 2.614e-10
 10.99144   -196.8 9.788e+03 2.548e-10
 11.01326   -194.9 9.574e+03 2.224e-10
 11.03334   -194.4 9.550e+03 2.184e-10
 11.06879   -192.3 9.399e+03 1.946e-10
 11.10895   -190.2 9.348e+03 1.853e-10
 11.14911   -188.1 9.341e+03 1.839e-10
 11.17848   -185.9 9.345e+03 1.847e-10
 11.19856   -185.8 9.472e+03 1.904e-10
 11.22942   -184.4 9.739e+03 2.102e-10
 11.26958   -183.5 1.044e+04 3.021e-10
 11.30974   -182.7 1.143e+04 5.275e-10
 11.34370   -181.7 1.237e+04 9.396e-10
 11.36378   -182.9 1.286e+04 1.369e-09
 11.39005   -182.4 1.319e+04 1.768e-09
 11.42007   -181.1 1.359e+04 2.326e-09
 11.43615   -180.1 1.364e+04 2.429e-09
 11.44619   -180.9 1.347e+04 2.174e-09
 11.46013   -180.2 1.335e+04 2.087e-09
 11.48021   -179.9 1.306e+04 1.907e-09
 11.50029   -180.1 1.293e+04 1.770e-09
 11.51876   -180.9 1.360e+04 1.724e-09
 11.52880   -182.8 1.364e+04 1.335e-09
 11.54045   -189.6 2.273e+04 1.666e-09
 11.56053   -196.0 2.420e+04 6.169e-09
 11.57554   -198.5 2.294e+04 9.790e-09
 11.58553   -199.3 2.242e+04 1.281e-08
 11.59557   -200.5 2.144e+04 1.775e-08
 11.60561   -201.3 2.073e+04 2.168e-08
 11.61131   -201.7 2.022e+04 2.385e-08
 11.61633   -200.9 1.995e+04 1.553e-08
 11.62559   -201.3 1.970e+04 1.602e-08
 11.63065   -200.6 1.958e+04 9.261e-09
 11.63577   -201.5 1.914e+04 1.146e-08
 11.64576   -201.8 1.870e+04 1.168e-08
 11.65262   -202.1 1.828e+04 1.144e-08
 11.65764   -202.0 1.777e+04 8.911e-09
 11.66584   -202.2 1.770e+04 8.474e-09
 11.67588   -202.6 1.756e+04 7.322e-09
 11.68592   -203.1 1.751e+04 5.957e-09
 11.69392   -203.6 1.735e+04 4.952e-09
 11.70401   -203.1 1.664e+04 4.752e-09
 11.72116   -204.5 1.593e+04 3.387e-09
 11.74124   -206.5 1.483e+04 2.186e-09
 11.76132   -208.6 1.387e+04 1.555e-09
 11.77663   -210.6 1.345e+04 1.372e-09
 11.78667   -209.3 1.346e+04 1.363e-09
 11.80147   -211.3 1.343e+04 1.348e-09
 11.82155   -213.2 1.351e+04 1.431e-09
 11.84163   -215.0 1.352e+04 1.535e-09
 11.85924   -216.4 1.348e+04 1.582e-09
 11.86928   -216.5 1.400e+04 1.764e-09
 11.88179   -217.6 1.351e+04 1.652e-09
 11.90187   -218.1 1.309e+04 1.402e-09
 11.92195   -218.3 1.267e+04 1.063e-09
 11.94185   -218.5 1.224e+04 7.625e-10
 11.95189   -219.0 1.211e+04 7.160e-10
 11.96210   -219.2 1.169e+04 5.143e-10
 11.98218   -219.3 1.132e+04 3.900e-10
 12.00226   -218.8 1.102e+04 3.192e-10
 12.02234   -217.9 1.093e+04 2.926e-10
 12.03450   -216.9 1.094e+04 2.892e-10
 12.04454   -217.0 1.092e+04 2.838e-10
 12.07264   -216.7 1.094e+04 2.787e-10
 12.11289   -215.8 1.095e+04 2.764e-10
 12.15305   -214.7 1.099e+04 2.856e-10
 12.18988   -213.5 1.105e+04 3.092e-10
 12.20996   -214.1 1.078e+04 2.699e-10
 12.23336   -212.6 1.083e+04 3.004e-10
 12.27035   -210.9 1.090e+04 3.339e-10
 12.29043   -211.3 1.090e+04 3.213e-10
 12.31368   -209.5 1.090e+04 3.262e-10
 12.35384   -207.8 1.089e+04 3.171e-10
 12.37518   -206.1 1.084e+04 2.955e-10
 12.39526   -206.3 1.057e+04 2.336e-10
 12.43415   -204.7 1.051e+04 2.211e-10
 12.47431   -203.1 1.044e+04 2.125e-10
 12.51447   -201.6 1.039e+04 2.112e-10
 12.54040   -199.9 1.036e+04 2.180e-10
 12.56048   -200.2 1.035e+04 2.168e-10
 12.59478   -198.6 1.035e+04 2.234e-10
 12.63494   -196.9 1.035e+04 2.326e-10
 12.67510   -195.2 1.037e+04 2.457e-10
 12.70562   -193.6 1.040e+04 2.605e-10
 12.72570   -194.0 1.040e+04 2.603e-10
 12.75541   -192.5 1.043e+04 2.753e-10
 12.79557   -191.0 1.046e+04 2.939e-10
 12.83573   -189.6 1.048e+04 3.157e-10
 12.87084   -188.2 1.050e+04 3.363e-10
 12.89092   -188.7 1.048e+04 3.622e-10
 12.91605   -187.1 1.047e+04 3.712e-10
 12.95620   -185.6 1.047e+04 3.730e-10
 12.99636   -184.1 1.045e+04 3.727e-10
 13.03606   -183.1 1.052e+04 3.786e-10
 13.05614   -183.3 1.038e+04 3.562e-10
 13.07668   -183.4 1.053e+04 3.781e-10
 13.11683   -184.4 1.171e+04 7.091e-10
 13.13865   -185.7 1.291e+04 1.355e-09
 13.14859   -186.1 1.291e+04 1.351e-09
 13.16684   -186.5 1.367e+04 1.996e-09
 13.18692   -187.3 1.447e+04 3.223e-09
 13.20699   -188.0 1.517e+04 4.553e-09
 13.22116   -188.7 1.558e+04 5.571e-09
 13.23120   -189.2 1.540e+04 5.380e-09
 13.24715   -189.8 1.553e+04 5.789e-09
 13.26723   -190.3 1.549e+04 5.820e-09
 13.28731   -190.7 1.511e+04 4.944e-09
 13.30377   -191.1 1.450e+04 3.540e-09
 13.31381   -191.2 1.437e+04 3.537e-09
 13.32747   -191.5 1.368e+04 2.337e-09
 13.34755   -192.0 1.296e+04 1.516e-09
 13.36762   -192.4 1.227e+04 1.023e-09
 13.38638   -192.6 1.166e+04 7.489e-10
 13.39642   -192.4 1.169e+04 7.332e-10
 13.40778   -192.5 1.119e+04 5.898e-10
 13.42786   -192.1 1.087e+04 5.247e-10
 13.44794   -191.4 1.076e+04 5.013e-10
 13.47816   -190.5 1.069e+04 4.757e-10
 13.51841   -188.8 1.017e+04 3.865e-10
 13.55180   -187.5 9.921e+03 3.376e-10
 13.57188   -187.1 1.006e+04 3.830e-10
 13.58943   -185.8 9.911e+03 3.590e-10
 13.60951   -187.4 9.522e+03 2.706e-10
 13.63888   -186.1 9.269e+03 2.249e-10
 13.67904   -184.7 8.995e+03 1.809e-10
 13.71702   -183.3 8.770e+03 1.504e-10
 13.73710   -182.8 8.801e+03 1.634e-10
 13.75936   -181.3 8.561e+03 1.279e-10
 13.79952   -179.6 8.374e+03 1.057e-10
 13.83967   -177.9 8.215e+03 9.077e-11
 13.87983   -176.1 8.090e+03 8.469e-11
 13.90232   -174.2 8.047e+03 8.344e-11
 13.92239   -173.7 7.981e+03 7.633e-11
 13.96015   -171.7 7.950e+03 7.594e-11
 14.00030   -169.6 7.934e+03 7.850e-11
 14.04046   -167.6 7.954e+03 8.475e-11
 14.06754   -165.5 7.995e+03 9.211e-11
 14.08761   -164.9 7.864e+03 7.915e-11
 14.12078   -162.9 7.889e+03 8.366e-11
 14.16094   -161.0 7.941e+03 8.955e-11
 14.20109   -159.4 8.057e+03 1.014e-10
 14.23276   -158.1 8.284e+03 1.257e-10
 14.25283   -157.5 8.178e+03 1.141e-10
 14.28141   -156.6 8.549e+03 1.657e-10
 14.32157   -155.9 8.989e+03 2.464e-10
 14.36172   -155.5 9.385e+03 3.429e-10
 14.39798   -155.3 9.659e+03 4.094e-10
 14.41805   -154.7 9.742e+03 4.469e-10
 14.44204   -154.6 9.876e+03 4.744e-10
 14.48220   -154.6 9.896e+03 4.733e-10
 14.52235   -154.5 9.889e+03 4.192e-10
 14.56251   -154.1 9.904e+03 3.587e-10
 14.58327   -153.5 9.969e+03 3.414e-10
 14.60335   -153.0 1.020e+04 4.151e-10
 14.64283   -152.4 1.045e+04 4.171e-10
 14.68299   -151.8 1.091e+04 4.864e-10
 14.72314   -151.0 1.128e+04 6.245e-10
 14.74849   -150.0 1.156e+04 8.040e-10
 14.76857   -150.2 1.180e+04 9.166e-10
 14.80346   -149.0 1.199e+04 1.120e-09
 14.84362   -147.8 1.213e+04 1.289e-09
 14.88377   -146.5 1.224e+04 1.406e-09
 14.90850   -145.2 1.224e+04 1.430e-09
 14.91836   -142.6 1.190e+04 1.107e-09
 14.93379   -142.6 1.167e+04 9.897e-10
 14.96409   -141.2 1.179e+04 1.061e-09
 15.00425   -139.8 1.180e+04 1.066e-09
 15.04441   -138.4 1.172e+04 1.017e-09
 15.07894   -137.0 1.145e+04 8.922e-10
 15.09901   -137.3 1.178e+04 9.819e-10
 15.12472   -135.9 1.169e+04 9.507e-10
 15.16488   -134.2 1.155e+04 8.958e-10
 15.20504   -132.5 1.138e+04 8.114e-10
 15.23506   -131.2 1.127e+04 7.465e-10
 15.25400   -130.4 1.113e+04 6.844e-10
 15.26404   -131.1 1.147e+04 8.498e-10
 15.27512   -129.7 1.130e+04 7.393e-10
 15.29520   -128.7 1.119e+04 6.864e-10
 15.31527   -127.6 1.109e+04 6.588e-10
 15.33535   -126.4 1.103e+04 6.440e-10
 15.34665   -125.3 1.102e+04 6.322e-10
 15.35669   -126.0 1.109e+04 6.581e-10
 15.37551   -124.9 1.109e+04 6.430e-10
 15.39559   -123.8 1.111e+04 6.426e-10
 15.41567   -122.7 1.108e+04 6.578e-10
 15.42926   -121.6 1.104e+04 6.662e-10
 15.43930   -122.4 1.105e+04 6.654e-10
 15.45583   -121.3 1.098e+04 6.574e-10
 15.47591   -120.2 1.091e+04 6.444e-10
 15.49598   -119.1 1.087e+04 6.316e-10
 15.51187   -118.2 1.089e+04 6.209e-10
 15.52191   -119.2 1.167e+04 6.938e-10
 15.53614   -118.6 1.215e+04 7.100e-10
 15.55622   -118.2 1.297e+04 7.454e-10
 15.56784   -118.0 1.408e+04 8.314e-10
 15.57788   -116.3 1.034e+04 4.062e-10
 15.59448   -115.8 1.068e+04 3.948e-10
 15.60452   -116.9 1.282e+04 6.081e-10
 15.61646   -116.5 1.376e+04 7.517e-10
 15.63654   -116.0 1.459e+04 1.005e-09
 15.65662   -115.3 1.517e+04 1.350e-09
 15.67669   -114.5 1.538e+04 1.726e-09
 15.68713   -113.6 1.537e+04 2.146e-09
 15.69717   -113.1 1.563e+04 3.095e-09
 15.71685   -112.1 1.551e+04 3.360e-09
 15.73693   -110.9 1.544e+04 3.729e-09
 15.75701   -109.8 1.556e+04 4.469e-09
 15.76974   -108.9 1.588e+04 5.694e-09
 15.77978   -108.1 1.620e+04 5.805e-09
 15.79717   -107.8 1.687e+04 7.538e-09
 15.81725   -107.7 1.819e+04 1.089e-08
 15.83733   -108.1 2.006e+04 1.826e-08
 15.85230   -108.7 2.148e+04 3.009e-08
 15.86229   -109.6 2.272e+04 4.401e-08
 15.87237   -110.0 2.393e+04 6.213e-08
 15.88240   -111.0 2.502e+04 7.839e-08
 15.89244   -113.4 2.549e+04 8.282e-08
 15.89858   -115.0 2.475e+04 1.709e-07
 15.90360   -115.3 2.413e+04 1.671e-07
 15.91252   -117.3 2.433e+04 1.375e-07
 15.92256   -119.5 2.468e+04 8.636e-08
 15.93260   -122.0 2.456e+04 5.019e-08
 15.93988   -124.7 2.314e+04 3.137e-08
 15.94490   -125.0 2.300e+04 2.961e-08
 15.95268   -127.4 2.097e+04 2.017e-08
 15.96272   -129.0 1.930e+04 1.503e-08
 15.97276   -129.9 1.825e+04 1.205e-08
 15.98119   -130.2 1.763e+04 1.023e-08
 15.98621   -130.8 1.743e+04 9.564e-09
 15.99284   -130.9 1.705e+04 8.407e-09
 16.00288   -130.9 1.671e+04 7.430e-09
 16.01292   -130.8 1.639e+04 6.576e-09
 16.02249   -130.6 1.607e+04 5.916e-09
 16.02751   -131.3 1.601e+04 5.730e-09
 16.03806   -131.2 1.557e+04 4.999e-09
 16.05819   -130.4 1.530e+04 4.729e-09
 16.07827   -129.3 1.491e+04 4.328e-09
 16.09835   -128.1 1.462e+04 4.122e-09
 16.11022   -126.6 1.455e+04 4.040e-09
 16.12026   -127.1 1.442e+04 3.913e-09
 16.13851   -125.6 1.440e+04 3.924e-09
 16.15859   -124.4 1.438e+04 3.952e-09
 16.17867   -123.0 1.433e+04 3.966e-09
 16.19283   -121.4 1.431e+04 4.030e-09
 16.20287   -121.8 1.433e+04 3.848e-09
 16.21733   -120.5 1.438e+04 3.898e-09
 16.22737   -120.4 1.393e+04 3.165e-09
 16.23890   -119.2 1.386e+04 3.094e-09
 16.25898   -117.7 1.368e+04 2.908e-09
 16.27544   -116.4 1.352e+04 2.719e-09
 16.28548   -116.7 1.331e+04 2.171e-09
 16.29914   -115.5 1.315e+04 2.012e-09
 16.31922   -114.3 1.299e+04 1.873e-09
 16.33930   -113.2 1.287e+04 1.768e-09
 16.35805   -112.2 1.275e+04 1.686e-09
 16.36809   -112.6 1.238e+04 1.234e-09
 16.37945   -111.5 1.225e+04 1.202e-09
 16.39953   -110.4 1.220e+04 1.203e-09
 16.41961   -109.3 1.220e+04 1.258e-09
 16.43969   -108.3 1.222e+04 1.333e-09
 16.45070   -107.2 1.223e+04 1.428e-09
 16.46074   -107.6 1.192e+04 1.062e-09
 16.47985   -106.4 1.202e+04 1.188e-09
 16.49993   -105.3 1.212e+04 1.339e-09
 16.52001   -104.2 1.220e+04 1.480e-09
 16.53331   -103.1 1.225e+04 1.587e-09
 16.54335   -103.4 1.206e+04 1.373e-09
 16.56016   -102.2 1.210e+04 1.479e-09
 16.58024   -101.0 1.206e+04 1.533e-09
 16.60032    -99.8 1.198e+04 1.513e-09
 16.61592    -98.6 1.186e+04 1.405e-09
 16.62596    -98.6 1.180e+04 1.340e-09
 16.64048    -97.2 1.169e+04 1.212e-09
 16.66056    -95.8 1.162e+04 1.096e-09
 16.68064    -94.9 1.163e+04 1.027e-09
 16.69853    -94.8 1.185e+04 1.011e-09
 16.70857    -94.5 1.182e+04 1.006e-09
 16.72080    -94.8 1.270e+04 1.000e-09
 16.74087    -95.3 1.469e+04 1.106e-09
 16.76095    -95.6 1.618e+04 1.602e-09
 16.78103    -95.5 1.662e+04 2.574e-09
 16.79118    -94.8 1.674e+04 3.849e-09
 16.80122    -94.2 1.672e+04 3.716e-09
 16.82119    -93.2 1.674e+04 4.954e-09
 16.84127    -92.0 1.669e+04 5.970e-09
 16.86135    -90.8 1.664e+04 6.529e-09
 16.87379    -89.5 1.664e+04 6.669e-09
 16.87927    -89.1 1.641e+04 6.430e-09
 16.88691    -87.2 1.669e+04 5.822e-09
 16.90150    -86.2 1.689e+04 6.676e-09
 16.92158    -84.9 1.692e+04 7.540e-09
 16.94166    -83.3 1.670e+04 7.572e-09
 16.95640    -81.7 1.654e+04 6.707e-09
 16.96644    -81.2 1.622e+04 6.554e-09
 16.98182    -79.8 1.605e+04 5.324e-09
 17.00190    -78.9 1.587e+04 4.042e-09
 17.02198    -78.0 1.557e+04 2.936e-09
 17.03901    -76.8 1.529e+04 2.211e-09
 17.04905    -75.8 1.535e+04 2.264e-09
 17.06214    -75.5 1.431e+04 1.656e-09
 17.08221    -75.8 1.380e+04 1.417e-09
 17.10229    -76.1 1.356e+04 1.374e-09
 17.12162    -76.2 1.333e+04 1.446e-09
 17.13166    -75.8 1.322e+04 1.352e-09
 17.14245    -75.5 1.326e+04 1.494e-09
 17.16253    -75.1 1.326e+04 1.708e-09
 17.18261    -74.3 1.332e+04 1.911e-09
 17.20269    -73.2 1.330e+04 2.065e-09
 17.21427    -72.2 1.322e+04 2.124e-09
 17.22431    -72.0 1.313e+04 1.953e-09
 17.24285    -71.0 1.300e+04 1.966e-09
 17.26292    -69.9 1.274e+04 1.858e-09
 17.28300    -69.0 1.245e+04 1.689e-09
 17.29688    -68.2 1.220e+04 1.521e-09
 17.30692    -68.0 1.225e+04 1.495e-09
 17.32316    -67.3 1.204e+04 1.366e-09
 17.34324    -66.6 1.187e+04 1.255e-09
 17.36332    -65.9 1.178e+04 1.197e-09
 17.37949    -65.2 1.176e+04 1.171e-09
 17.38953    -64.9 1.180e+04 1.185e-09
 17.40348    -64.1 1.176e+04 1.177e-09
 17.42356    -63.0 1.176e+04 1.179e-09
 17.44363    -61.9 1.186e+04 1.231e-09
 17.46210    -60.9 1.200e+04 1.305e-09
 17.47214    -60.5 1.201e+04 1.282e-09
 17.48379    -59.6 1.210e+04 1.360e-09
 17.50387    -58.6 1.219e+04 1.460e-09
 17.52395    -57.5 1.242e+04 1.667e-09
 17.53641    -56.6 1.269e+04 1.962e-09
 17.54645    -56.9 1.274e+04 1.827e-09
 17.55475    -55.9 1.297e+04 2.059e-09
 17.56479    -55.6 1.300e+04 2.039e-09
 17.58419    -54.6 1.325e+04 2.267e-09
 17.60427    -53.6 1.333e+04 2.535e-09
 17.62434    -52.5 1.348e+04 2.728e-09
 17.63736    -51.3 1.352e+04 2.824e-09
 17.64740    -51.2 1.385e+04 3.035e-09
 17.66450    -50.0 1.389e+04 3.096e-09
 17.68458    -48.9 1.391e+04 2.936e-09
 17.70466    -47.9 1.383e+04 2.647e-09
 17.71997    -47.0 1.368e+04 2.371e-09
 17.73001    -46.7 1.399e+04 2.755e-09
 17.74482    -45.8 1.378e+04 2.515e-09
 17.76490    -44.8 1.366e+04 2.398e-09
 17.78497    -43.9 1.361e+04 2.364e-09
 17.80258    -42.8 1.369e+04 2.409e-09
 17.81262    -42.5 1.409e+04 2.773e-09
 17.82513    -41.5 1.415e+04 2.860e-09
 17.84521    -40.5 1.415e+04 2.974e-09
 17.86529    -39.4 1.425e+04 3.109e-09
 17.88519    -38.5 1.459e+04 3.295e-09
 17.89523    -38.4 1.510e+04 3.959e-09
 17.90545    -37.7 1.549e+04 4.230e-09
 17.92553    -37.0 1.583e+04 4.592e-09
 17.94561    -36.3 1.591e+04 4.764e-09
 17.96568    -35.6 1.582e+04 4.795e-09
 17.97784    -34.7 1.577e+04 4.753e-09
 17.98788    -34.3 1.617e+04 5.604e-09
 18.00584    -33.6 1.588e+04 5.435e-09
 18.02592    -33.0 1.561e+04 5.057e-09
 18.04600    -32.3 1.510e+04 4.811e-09
 18.06045    -31.5 1.471e+04 4.710e-09
 18.07049    -31.5 1.502e+04 5.126e-09
 18.08616    -30.5 1.484e+04 4.897e-09
 18.10624    -29.2 1.460e+04 4.667e-09
 18.12632    -27.5 1.430e+04 4.249e-09
 18.14306    -26.5 1.469e+04 4.215e-09
 18.15310    -28.0 1.800e+04 5.200e-09
 18.16647    -31.4 2.434e+04 5.998e-09
 18.18148    -38.2 3.221e+04 8.759e-09
 18.18928    -42.1 2.681e+04 5.484e-08
 18.19365    -42.4 2.468e+04 1.456e-07
 18.19584    -42.3 2.337e+04 3.881e-07
 18.19898    -41.3 2.075e+04 1.213e-06
 18.20397    -41.4 1.980e+04 2.386e-06
 18.20899    -39.9 1.807e+04 7.780e-06
 18.21240    -39.0 1.782e+04 1.021e-05
 18.21491    -38.8 1.610e+04 4.024e-05
 18.21903    -39.0 1.839e+04 7.176e-06
 18.22405    -41.1 2.039e+04 2.088e-06
 18.23056    -45.2 2.214e+04 7.113e-07
 18.23561    -46.5 2.243e+04 6.771e-07
 18.24167    -49.2 2.290e+04 1.511e-07
 18.25171    -50.4 2.188e+04 7.106e-08
 18.26175    -50.4 2.072e+04 4.629e-08
 18.27179    -49.8 2.022e+04 3.512e-08
 18.27691    -49.3 2.009e+04 2.621e-08
 18.28193    -50.4 2.034e+04 1.675e-08
 18.29187    -49.9 2.054e+04 1.340e-08
 18.30191    -50.3 2.087e+04 7.917e-09
 18.31195    -50.4 2.081e+04 7.033e-09
 18.31827    -50.4 2.200e+04 4.675e-09
 18.32836    -54.0 1.863e+04 1.867e-09
 18.34718    -57.0 1.603e+04 1.050e-09
 18.36726    -58.9 1.180e+04 7.439e-10
 18.38734    -60.0 9.063e+03 5.017e-10
 18.40093    -58.9 9.265e+03 4.129e-10
 18.41097    -58.5 9.298e+03 4.024e-10
 18.42750    -57.6 9.516e+03 3.510e-10
 18.44758    -56.9 9.508e+03 3.244e-10
 18.46766    -56.4 9.477e+03 3.040e-10
 18.48354    -55.9 9.489e+03 2.878e-10
 18.49358    -55.8 9.603e+03 2.938e-10
 18.50781    -55.4 9.721e+03 3.071e-10
 18.52789    -54.9 9.808e+03 3.367e-10
 18.54797    -54.1 9.888e+03 3.722e-10
 18.56615    -53.1 9.974e+03 4.085e-10
 18.57619    -53.1 1.010e+04 4.638e-10
 18.58813    -52.1 1.013e+04 4.953e-10
 18.60821    -50.9 1.015e+04 5.134e-10
 18.62829    -49.8 1.018e+04 5.209e-10
 18.64837    -48.8 1.022e+04 5.102e-10
 18.65880    -47.7 1.025e+04 4.959e-10
 18.66884    -47.6 1.034e+04 5.136e-10
 18.68852    -46.8 1.040e+04 4.982e-10
 18.70860    -46.1 1.025e+04 4.769e-10
 18.72868    -44.7 1.021e+04 4.756e-10
 18.74141    -43.9 1.019e+04 4.705e-10
 18.75145    -44.0 1.014e+04 4.544e-10
 18.76884    -42.4 1.000e+04 4.777e-10
 18.78892    -41.8 1.002e+04 4.742e-10
 18.80900    -40.1 9.895e+03 5.307e-10
 18.82402    -39.4 9.824e+03 5.343e-10
 18.83406    -39.4 9.781e+03 5.197e-10
 18.84544    -36.8 9.758e+03 5.020e-10
 18.86561    -37.7 9.449e+03 3.811e-10
 18.89955    -35.0 9.541e+03 3.484e-10
 18.93970    -33.3 9.911e+03 3.813e-10
 18.96973    -30.6 1.004e+04 3.970e-10
 18.98924    -30.9 1.046e+04 4.459e-10
 18.99928    -31.4 1.097e+04 5.897e-10
 19.00979    -31.9 1.169e+04 9.398e-10
 19.02986    -31.7 1.254e+04 1.532e-09
 19.04994    -31.5 1.348e+04 2.439e-09
 19.07002    -30.9 1.428e+04 3.538e-09
 19.08189    -30.5 1.516e+04 4.664e-09
 19.09192    -30.4 1.558e+04 5.378e-09
 19.11018    -31.3 1.697e+04 7.039e-09
 19.13026    -33.4 1.826e+04 8.424e-09
 19.15034    -35.6 1.790e+04 7.986e-09
 19.16450    -36.9 1.602e+04 6.245e-09
 19.17453    -36.5 1.638e+04 6.870e-09
 19.19050    -37.4 1.467e+04 4.922e-09
 19.21057    -38.2 1.375e+04 3.541e-09
 19.23065    -39.2 1.284e+04 2.375e-09
 19.24711    -40.5 1.182e+04 1.604e-09
 19.25714    -40.5 1.164e+04 1.521e-09
 19.27081    -40.9 1.081e+04 1.087e-09
 19.29089    -40.7 1.036e+04 8.583e-10
 19.31097    -40.6 1.020e+04 7.252e-10
 19.32972    -41.3 1.052e+04 6.940e-10
 19.33976    -40.0 1.002e+04 6.162e-10
 19.35113    -41.4 1.067e+04 6.418e-10
 19.38134    -41.7 1.061e+04 7.412e-10
 19.42160    -41.3 1.085e+04 1.017e-09
 19.46176    -40.8 1.100e+04 1.024e-09
 19.49513    -41.9 1.121e+04 8.629e-10
 19.51521    -39.9 1.195e+04 1.358e-09
 19.54207    -42.2 1.237e+04 1.007e-09
 19.58223    -45.0 1.115e+04 6.121e-10
 19.62239    -49.7 9.454e+03 5.035e-10
 19.66035    -54.5 9.211e+03 4.206e-10
 19.68043    -53.7 1.079e+04 7.382e-10
 19.70270    -57.1 9.800e+03 5.158e-10
 19.74286    -58.8 9.141e+03 3.485e-10
 19.78302    -59.5 8.767e+03 2.641e-10
 19.82317    -59.9 8.591e+03 2.347e-10
 19.84565    -59.7 8.561e+03 2.303e-10
 19.86573    -60.1 8.687e+03 2.519e-10
 19.90349    -59.8 8.863e+03 2.907e-10
 19.94365    -59.4 9.079e+03 3.693e-10
 19.98381    -58.7 9.388e+03 4.557e-10
 20.01077    -57.4 9.641e+03 5.063e-10
 20.02071    -57.1 9.630e+03 5.044e-10
 20.03381    -57.1 9.536e+03 4.868e-10
 20.06402    -56.4 9.446e+03 4.387e-10
 20.10428    -56.0 9.430e+03 3.764e-10
 20.14444    -56.1 9.498e+03 3.563e-10
 20.17609    -54.6 9.589e+03 3.758e-10
 20.19617    -54.0 9.564e+03 3.730e-10
 20.22475    -53.1 9.696e+03 4.226e-10
 20.26491    -51.9 9.760e+03 4.596e-10
 20.30507    -50.6 9.773e+03 4.649e-10
 20.34131    -48.9 9.655e+03 3.710e-10
 20.36139    -48.0 9.367e+03 3.276e-10
 20.38538    -46.4 9.351e+03 2.632e-10
 20.42554    -45.2 9.409e+03 2.361e-10
 20.46570    -44.0 9.577e+03 2.497e-10
 20.50586    -42.8 9.838e+03 3.219e-10
 20.52651    -41.0 1.010e+04 3.902e-10
 20.54659    -40.2 9.908e+03 3.279e-10
 20.58617    -38.7 1.026e+04 3.707e-10
 20.60912    -38.2 1.064e+04 5.447e-10
 20.61906    -37.5 1.041e+04 4.150e-10
 20.63617    -37.4 1.048e+04 4.239e-10
 20.65625    -36.6 1.064e+04 5.602e-10
 20.67633    -36.3 1.070e+04 5.693e-10
 20.69163    -35.1 1.083e+04 6.204e-10
 20.70167    -34.7 1.061e+04 5.442e-10
 20.71649    -34.6 1.065e+04 5.517e-10
 20.74670    -33.3 1.083e+04 5.261e-10
 20.78696    -32.3 1.096e+04 5.084e-10
 20.81410    -32.2 1.101e+04 5.303e-10
 20.82404    -31.2 1.098e+04 5.192e-10
 20.83696    -31.3 1.098e+04 5.259e-10
 20.85685    -31.1 1.106e+04 5.707e-10
 20.86689    -29.9 1.079e+04 4.469e-10
 20.87712    -29.8 1.080e+04 4.649e-10
 20.89720    -29.3 1.091e+04 4.936e-10
 20.91728    -29.1 1.093e+04 5.422e-10
 20.93736    -28.6 1.078e+04 6.159e-10
 20.94950    -28.1 1.071e+04 6.623e-10
 20.95954    -27.3 1.064e+04 4.897e-10
 20.97751    -26.8 1.073e+04 6.062e-10
 20.99759    -26.4 1.095e+04 6.650e-10
 21.01767    -26.2 1.113e+04 6.976e-10
 21.03211    -25.9 1.119e+04 7.223e-10
 21.04215    -25.0 1.122e+04 7.355e-10
 21.05783    -24.8 1.135e+04 8.136e-10
 21.07791    -24.4 1.129e+04 8.621e-10
 21.09799    -23.9 1.124e+04 8.417e-10
 21.11472    -23.9 1.116e+04 7.846e-10
 21.12476    -22.8 1.151e+04 9.923e-10
 21.13814    -22.7 1.178e+04 8.910e-10
 21.15822    -22.8 1.178e+04 8.866e-10
 21.18739    -25.2 1.134e+04 5.455e-10
 21.20757    -23.4 1.274e+04 1.082e-09
 21.21856    -25.9 1.251e+04 8.815e-10
 21.23854    -28.6 1.258e+04 1.120e-09
 21.25862    -30.9 1.299e+04 1.683e-09
 21.27870    -32.4 1.345e+04 2.432e-09
 21.28998    -32.5 1.394e+04 3.586e-09
 21.30002    -32.6 1.487e+04 5.814e-09
 21.31885    -31.5 1.527e+04 6.877e-09
 21.33893    -31.9 1.583e+04 6.188e-09
 21.35901    -34.5 1.637e+04 5.307e-09
 21.37259    -38.4 1.548e+04 4.506e-09
 21.38263    -38.0 1.561e+04 4.864e-09
 21.39917    -40.0 1.449e+04 4.287e-09
 21.41925    -40.0 1.410e+04 4.218e-09
 21.43933    -39.5 1.389e+04 3.731e-09
 21.45520    -39.5 1.345e+04 3.121e-09
 21.46524    -38.9 1.327e+04 2.628e-09
 21.47354    -39.5 1.273e+04 1.985e-09
 21.48358    -40.4 1.259e+04 1.756e-09
 21.50970    -41.8 1.174e+04 1.253e-09
 21.53801    -41.2 1.073e+04 8.057e-10
 21.55809    -39.9 1.053e+04 7.242e-10
 21.59011    -38.7 9.930e+03 5.092e-10
 21.63027    -37.4 9.427e+03 3.405e-10
 21.67043    -36.0 9.040e+03 2.291e-10
 21.70323    -34.6 8.778e+03 1.736e-10
 21.72331    -33.5 8.845e+03 1.873e-10
 21.75075    -32.1 8.740e+03 1.754e-10
 21.79090    -30.6 8.664e+03 1.708e-10
 21.83106    -29.1 8.685e+03 1.605e-10
 21.86845    -27.9 8.736e+03 1.484e-10
 21.88853    -27.0 9.044e+03 2.398e-10
 21.91138    -26.1 9.073e+03 2.319e-10
 21.95153    -24.9 8.951e+03 2.197e-10
 21.99169    -23.6 8.852e+03 1.955e-10
 22.03185    -22.4 8.846e+03 1.733e-10
 22.05375    -21.4 8.904e+03 1.701e-10
 22.07383    -20.8 9.015e+03 1.804e-10
 22.11217    -19.8 8.938e+03 1.921e-10
 22.15232    -18.3 8.962e+03 2.061e-10
 22.19248    -16.9 9.101e+03 2.231e-10
 22.21897    -15.5 9.221e+03 2.567e-10
 22.23905    -14.8 9.112e+03 2.073e-10
 22.27280    -13.2 9.193e+03 2.214e-10
 22.31295    -11.6 9.322e+03 2.356e-10
 22.35311    -10.1 9.455e+03 2.615e-10
 22.38419     -8.4 9.574e+03 2.994e-10
 22.40427     -8.1 9.613e+03 3.116e-10
 22.43343     -6.1 9.709e+03 3.461e-10
 22.47358     -3.9 9.798e+03 3.676e-10
 22.51374     -1.7 9.894e+03 3.894e-10
 22.54941      0.5 1.003e+04 4.172e-10
 22.56949      1.1 9.918e+03 3.442e-10
 22.59406      3.1 1.017e+04 3.951e-10
 22.63422      5.1 1.057e+04 5.482e-10
 22.67437      7.3 1.102e+04 7.942e-10
 22.71453      9.4 1.151e+04 1.061e-09
 22.75469     12.1 1.183e+04 1.274e-09
 22.78277     14.1 1.234e+04 1.506e-09
 22.80285     14.1 1.219e+04 1.355e-09
 22.81722     14.4 1.260e+04 1.630e-09
 22.82716     14.6 1.251e+04 1.557e-09
 22.84485     14.7 1.298e+04 1.942e-09
 22.86493     14.6 1.362e+04 2.639e-09
 22.88501     14.7 1.430e+04 3.727e-09
 22.89973     15.0 1.498e+04 5.176e-09
 22.90977     15.3 1.468e+04 4.754e-09
 22.92516     16.1 1.534e+04 6.237e-09
 22.94524     16.9 1.571e+04 6.617e-09
 22.96532     17.5 1.569e+04 6.406e-09
 22.98234     18.0 1.551e+04 5.577e-09
 22.99238     18.6 1.501e+04 4.380e-09
 23.00548     18.7 1.489e+04 3.637e-09
 23.02556     18.6 1.467e+04 2.943e-09
 23.04564     18.4 1.432e+04 2.454e-09
 23.06495     18.6 1.383e+04 1.987e-09
 23.07499     18.9 1.364e+04 1.795e-09
 23.08579     19.1 1.348e+04 1.688e-09
 23.11601     19.8 1.304e+04 1.332e-09
 23.15627     20.7 1.279e+04 1.089e-09
 23.19642     21.6 1.258e+04 8.502e-10
 23.23037     22.5 1.240e+04 6.987e-10
 23.25045     23.4 1.261e+04 8.675e-10
 23.27674     24.2 1.260e+04 7.807e-10
 23.31690     25.1 1.262e+04 7.682e-10
 23.35705     25.8 1.269e+04 8.231e-10
 23.39559     26.5 1.292e+04 1.041e-09
 23.41567     27.2 1.279e+04 9.143e-10
 23.43737     27.9 1.289e+04 1.088e-09
 23.47753     28.8 1.285e+04 1.115e-09
 23.51769     30.1 1.255e+04 9.327e-10
 23.55784     31.8 1.202e+04 5.756e-10
 23.58089     33.5 1.161e+04 3.034e-10
 23.60097     34.7 1.157e+04 3.108e-10
 23.63816     36.0 1.141e+04 1.734e-10
 23.67832     37.3 1.114e+04 1.395e-10
 23.71847     39.2 1.110e+04 1.407e-10
 23.74611     41.3 1.110e+04 1.515e-10
 23.76619     42.3 1.118e+04 1.608e-10
 23.79879     44.3 1.126e+04 1.946e-10
 23.83895     46.4 1.141e+04 2.664e-10
 23.87911     48.5 1.168e+04 3.634e-10
 23.91133     50.3 1.194e+04 4.558e-10
 23.93141     50.9 1.193e+04 3.885e-10
 23.95942     52.6 1.198e+04 3.928e-10
 23.99958     54.2 1.197e+04 3.663e-10
 24.03974     55.7 1.193e+04 2.866e-10
 24.07655     56.8 1.192e+04 2.112e-10
 24.09663     57.5 1.186e+04 1.852e-10
 24.10184     58.5 1.190e+04 1.857e-10
 24.12192     57.2 1.212e+04 2.116e-10
 24.16021     57.4 1.230e+04 2.527e-10
 24.19023     57.9 1.236e+04 2.899e-10
 24.21021     57.9 1.249e+04 3.518e-10
 24.23029     57.9 1.259e+04 4.857e-10
 24.25037     57.9 1.271e+04 6.727e-10
 24.26165     58.0 1.293e+04 8.940e-10
 24.27169     58.4 1.287e+04 8.364e-10
 24.29053     58.2 1.325e+04 1.081e-09
 24.31061     57.6 1.367e+04 1.396e-09
 24.33068     56.9 1.400e+04 1.740e-09
 24.34426     56.1 1.425e+04 2.021e-09
 24.35430     56.1 1.442e+04 2.162e-09
 24.37084     54.9 1.490e+04 2.509e-09
 24.39092     53.3 1.546e+04 2.740e-09
 24.41100     51.4 1.574e+04 2.923e-09
 24.42687     49.5 1.567e+04 2.927e-09
 24.43691     48.9 1.647e+04 4.116e-09
 24.45116     48.0 1.599e+04 3.897e-09
 24.47124     48.0 1.526e+04 3.324e-09
 24.49132     48.2 1.447e+04 2.531e-09
 24.50948     48.7 1.371e+04 1.738e-09
 24.51952     48.6 1.421e+04 2.139e-09
 24.53147     48.6 1.345e+04 1.281e-09
 24.55155     48.3 1.253e+04 7.262e-10
 24.57163     47.9 1.199e+04 5.596e-10
 24.59219     48.7 1.107e+04 3.480e-10
 24.61237     48.9 1.104e+04 3.896e-10
 24.64210     50.6 1.046e+04 2.865e-10
 24.68226     52.6 1.029e+04 2.479e-10
 24.72242     54.6 1.021e+04 2.227e-10
 24.75751     56.6 1.014e+04 1.979e-10
 24.77759     57.2 1.020e+04 2.135e-10
 24.80273     59.1 1.012e+04 1.804e-10
 24.84289     60.7 9.983e+03 1.487e-10
 24.88305     62.1 9.867e+03 1.359e-10
 24.92273     63.2 9.890e+03 1.367e-10
 24.94281     64.0 9.905e+03 1.380e-10
 24.96336     64.2 9.988e+03 1.475e-10
 24.99338     62.7 1.065e+04 2.182e-10
 25.01337     61.4 1.117e+04 3.752e-10
 25.02522     61.3 1.149e+04 6.517e-10
 25.03526     62.1 1.138e+04 6.113e-10
 25.05352     62.4 1.153e+04 9.148e-10
 25.07360     63.2 1.169e+04 1.147e-09
 25.09368     63.9 1.175e+04 1.161e-09
 25.10783     64.4 1.173e+04 1.097e-09
 25.11787     65.0 1.170e+04 1.070e-09
 25.13384     65.5 1.153e+04 9.368e-10
 25.16405     67.0 1.123e+04 7.570e-10
 25.20431     67.5 1.061e+04 4.760e-10
 25.24447     67.9 9.858e+03 2.687e-10
 25.27325     68.2 9.200e+03 1.567e-10
 25.29332     69.7 9.690e+03 2.176e-10
 25.32478     70.0 9.182e+03 1.505e-10
 25.36494     70.8 9.214e+03 1.553e-10
 25.40083     71.3 9.448e+03 1.896e-10
 25.42091     68.2 9.643e+03 2.447e-10
 25.43512     68.5 9.863e+03 2.993e-10
 25.44831     68.4 1.017e+04 3.849e-10
 25.45835     68.9 1.022e+04 4.123e-10
 25.47518     68.8 1.058e+04 5.764e-10
 25.49526     68.9 1.100e+04 8.078e-10
 25.51534     69.0 1.144e+04 9.839e-10
 25.53092     68.9 1.149e+04 9.784e-10
 25.54096     69.3 1.167e+04 1.090e-09
 25.56563     68.2 1.133e+04 7.979e-10
 25.60369     68.0 1.069e+04 4.593e-10
 25.62376     68.8 1.102e+04 5.965e-10
 25.64605     68.5 1.010e+04 2.808e-10
 25.68620     68.0 9.237e+03 1.367e-10
 25.72636     68.0 8.732e+03 8.872e-11
 25.76652     68.7 8.507e+03 7.400e-11
 25.78898     69.9 8.383e+03 6.851e-11
 25.80906     70.8 8.425e+03 7.593e-11
 25.84683     72.0 8.296e+03 6.587e-11
 25.88699     73.1 8.175e+03 5.800e-11
 25.92715     74.1 8.100e+03 5.395e-11
 25.95420     75.1 8.092e+03 5.443e-11
 25.97428     75.7 8.065e+03 4.950e-11
 26.00746     76.6 8.057e+03 5.278e-11
 26.04762     77.3 8.076e+03 6.409e-11
 26.08778     78.0 8.222e+03 8.668e-11
 26.11942     78.8 8.487e+03 1.218e-10
 26.13950     79.3 8.476e+03 1.186e-10
 26.16810     80.1 8.813e+03 1.589e-10
 26.20825     80.6 9.168e+03 2.004e-10
 26.24841     80.9 9.502e+03 2.386e-10
 26.28464     80.8 9.800e+03 2.780e-10
 26.30472     80.8 9.956e+03 3.145e-10
 26.32873     80.5 1.009e+04 3.654e-10
 26.35875     80.1 1.009e+04 3.637e-10
 26.37710     80.0 1.006e+04 3.622e-10
 26.38714     80.1 1.009e+04 3.794e-10
 26.39881     80.0 1.012e+04 3.814e-10
 26.41889     80.0 1.017e+04 3.860e-10
 26.43896     79.7 1.029e+04 4.086e-10
 26.45904     79.3 1.043e+04 4.602e-10
 26.46975     78.8 1.064e+04 5.599e-10
 26.47979     78.5 1.084e+04 6.599e-10
 26.49920     78.5 1.114e+04 8.504e-10
 26.51928     78.8 1.157e+04 1.131e-09
 26.53936     79.1 1.182e+04 1.294e-09
 26.55236     79.4 1.197e+04 1.389e-09
 26.56240     79.3 1.209e+04 1.454e-09
 26.57952     79.3 1.210e+04 1.457e-09
 26.59960     79.4 1.202e+04 1.416e-09
 26.61967     79.6 1.190e+04 1.360e-09
 26.63497     80.1 1.159e+04 1.175e-09
 26.64501     80.1 1.172e+04 1.276e-09
 26.65983     80.6 1.139e+04 1.079e-09
 26.67991     81.2 1.101e+04 8.550e-10
 26.69999     81.4 1.079e+04 7.427e-10
 26.71758     82.1 1.042e+04 5.850e-10
 26.72726     82.0 1.053e+04 6.215e-10
 26.73988     82.4 1.031e+04 5.191e-10
 26.76032     83.0 1.002e+04 4.329e-10
 26.78031     83.6 9.831e+03 3.771e-10
 26.80029     84.6 9.696e+03 3.347e-10
 26.81033     84.4 9.905e+03 4.245e-10
 26.82046     85.3 9.878e+03 4.186e-10
 26.84054     86.1 9.884e+03 4.208e-10
 26.86062     86.9 9.909e+03 4.323e-10
 26.88070     87.7 9.966e+03 4.577e-10
 26.89284     88.6 1.005e+04 4.994e-10
 26.90288     89.0 1.020e+04 5.520e-10
 26.92086     89.9 1.028e+04 5.804e-10
 26.94094     90.9 1.032e+04 5.990e-10
 26.96102     91.7 1.032e+04 5.971e-10
 26.97545     92.6 1.031e+04 5.885e-10
 26.98549     92.9 1.031e+04 5.728e-10
 27.00117     93.6 1.025e+04 5.397e-10
 27.02125     94.3 1.017e+04 5.046e-10
 27.04133     95.1 1.009e+04 4.677e-10
 27.05806     95.8 1.001e+04 4.273e-10
 27.06810     96.0 1.002e+04 4.300e-10
 27.09163     96.8 9.930e+03 3.830e-10
 27.13082     98.3 9.847e+03 3.441e-10
 27.15081     99.8 9.953e+03 3.817e-10
 27.16180    100.6 9.989e+03 3.725e-10
 27.18188    100.8 1.001e+04 3.621e-10
 27.20196    100.9 9.998e+03 3.511e-10
 27.22204    100.7 9.964e+03 3.392e-10
 27.23332    100.0 9.918e+03 3.307e-10
 27.24336    100.7 9.913e+03 3.443e-10
 27.26220     98.8 9.930e+03 3.483e-10
 27.28228     96.7 1.008e+04 3.665e-10
 27.30236     93.3 1.105e+04 4.151e-10
 27.31588     87.7 1.812e+04 3.808e-10
 27.32085     68.6 4.166e+04 9.638e-10
 27.32736     57.5 3.629e+04 5.115e-09
 27.33740     50.9 3.011e+04 1.942e-08
 27.34744     47.3 2.674e+04 4.555e-08
 27.35714     45.5 2.572e+04 6.866e-08
 27.36216     42.9 2.554e+04 8.173e-08
 27.36751     42.0 2.681e+04 7.186e-08
 27.37755     40.5 2.888e+04 4.259e-08
 27.38417     37.4 3.020e+04 1.777e-08
 27.38919     39.1 2.926e+04 2.343e-08
 27.39763     35.0 2.789e+04 9.042e-09
 27.40346     29.6 2.252e+04 3.784e-09
 27.40848     23.1 1.499e+04 1.860e-09
 27.41771     23.3 1.385e+04 1.712e-09
 27.42775     23.8 1.377e+04 1.768e-09
 27.44286     25.7 1.390e+04 1.792e-09
 27.46299     27.2 1.348e+04 1.688e-09
 27.48115     28.1 1.255e+04 1.485e-09
 27.49119     27.5 1.120e+04 8.717e-10
 27.50314     28.9 1.135e+04 8.375e-10
 27.52322     30.4 1.133e+04 8.166e-10
 27.54330     31.7 1.127e+04 7.991e-10
 27.56338     32.7 1.115e+04 7.842e-10
 27.57380     33.8 1.101e+04 7.828e-10
 27.58384     33.8 1.015e+04 4.644e-10
 27.60354     34.9 1.006e+04 4.636e-10
 27.62362     35.9 1.017e+04 4.685e-10
 27.64370     36.4 1.048e+04 5.093e-10
 27.65641     36.6 1.100e+04 6.453e-10
 27.66645     37.8 9.951e+03 3.914e-10
 27.68385     38.1 1.029e+04 4.918e-10
 27.70393     37.8 1.113e+04 7.407e-10
 27.72401     37.2 1.251e+04 1.234e-09
 27.73902     36.6 1.382e+04 2.119e-09
 27.74906     38.5 1.240e+04 1.182e-09
 27.76417     37.6 1.379e+04 2.163e-09
 27.78425     37.0 1.475e+04 3.587e-09
 27.80433     36.9 1.535e+04 4.702e-09
 27.82163     36.7 1.549e+04 4.684e-09
 27.83167     38.2 1.551e+04 5.069e-09
 27.84449     38.1 1.553e+04 4.752e-09
 27.86456     37.7 1.526e+04 3.491e-09
 27.88464     36.6 1.440e+04 1.955e-09
 27.90424     34.5 1.264e+04 9.862e-10
 27.91428     37.5 1.406e+04 1.469e-09
 27.92480     34.7 1.184e+04 7.064e-10
 27.94488     32.6 1.029e+04 4.684e-10
 27.96496     32.6 1.015e+04 4.143e-10
 27.98504     33.0 1.009e+04 3.887e-10
 27.99689     33.5 1.001e+04 3.523e-10
 28.00693     34.2 1.001e+04 3.495e-10
 28.02520     34.5 1.008e+04 3.328e-10
 28.03878     34.9 1.005e+04 3.229e-10
 28.05896     36.2 1.013e+04 2.975e-10
 28.09567     37.2 1.018e+04 3.058e-10
 28.12569     37.8 1.017e+04 3.220e-10
 28.14567     38.3 1.017e+04 3.521e-10
 28.16211     38.7 1.023e+04 4.049e-10
 28.17215     39.2 1.033e+04 4.113e-10
 28.18583     39.6 1.048e+04 4.764e-10
 28.20590     39.8 1.069e+04 5.610e-10
 28.22598     40.0 1.089e+04 6.625e-10
 28.24472     40.2 1.103e+04 7.686e-10
 28.25476     40.1 1.128e+04 9.389e-10
 28.26614     40.6 1.143e+04 1.071e-09
 28.28622     41.1 1.145e+04 1.088e-09
 28.30630     41.7 1.139e+04 1.052e-09
 28.32638     42.5 1.126e+04 9.243e-10
 28.33737     42.9 1.117e+04 7.456e-10
 28.34741     42.7 1.159e+04 9.204e-10
 28.36654     42.4 1.151e+04 7.565e-10
 28.38661     41.8 1.142e+04 7.434e-10
 28.40669     41.2 1.137e+04 7.749e-10
 28.41998     41.0 1.136e+04 9.060e-10
 28.43002     40.4 1.143e+04 1.022e-09
 28.44685     40.7 1.148e+04 1.199e-09
 28.46693     41.5 1.164e+04 1.377e-09
 28.48701     42.2 1.185e+04 1.475e-09
 28.50259     42.1 1.211e+04 1.566e-09
 28.51263     41.9 1.168e+04 1.288e-09
 28.52717     41.6 1.187e+04 1.331e-09
 28.54725     40.5 1.257e+04 1.573e-09
 28.56732     38.7 1.404e+04 2.306e-09
 28.58520     37.9 1.460e+04 3.245e-09
 28.59524     39.0 1.274e+04 2.045e-09
 28.60748     38.6 1.362e+04 3.197e-09
 28.62756     38.9 1.462e+04 4.820e-09
 28.64764     39.7 1.542e+04 6.160e-09
 28.66772     40.6 1.573e+04 6.261e-09
 28.68780     42.7 1.508e+04 5.395e-09
 28.69832     43.9 1.515e+04 4.571e-09
 28.70836     43.6 1.489e+04 3.590e-09
 28.72796     44.0 1.440e+04 2.637e-09
 28.74803     44.2 1.391e+04 1.938e-09
 28.76046     44.5 1.340e+04 1.505e-09
 28.77050     45.6 1.347e+04 1.660e-09
 28.78819     46.0 1.315e+04 1.409e-09
 28.80827     46.7 1.285e+04 1.275e-09
 28.82835     47.6 1.267e+04 1.258e-09
 28.84307     48.8 1.266e+04 1.259e-09
 28.85311     49.4 1.288e+04 1.277e-09
 28.86851     50.4 1.295e+04 1.301e-09
 28.88859     51.3 1.313e+04 1.375e-09
 28.90867     52.0 1.358e+04 1.537e-09
 28.92568     52.4 1.443e+04 1.862e-09
 28.93572     52.0 1.512e+04 2.232e-09
 28.94882     52.5 1.636e+04 3.088e-09
 28.96890     53.2 1.737e+04 4.176e-09
 28.98898     54.1 1.790e+04 5.038e-09
 29.00829     54.9 1.785e+04 5.033e-09
 29.01833     55.1 1.790e+04 5.909e-09
 29.02914     55.9 1.767e+04 5.641e-09
 29.04922     56.8 1.712e+04 4.790e-09
 29.06930     57.6 1.643e+04 3.751e-09
 29.08937     58.1 1.560e+04 2.890e-09
 29.10094     58.3 1.475e+04 2.321e-09
 29.11098     58.6 1.511e+04 2.606e-09
 29.12953     59.0 1.434e+04 2.264e-09
 29.14961     59.9 1.379e+04 2.027e-09
 29.17360     60.9 1.329e+04 1.669e-09
 29.19378     61.7 1.354e+04 1.881e-09
 29.22008     63.1 1.305e+04 1.390e-09
 29.26024     64.6 1.268e+04 1.038e-09
 29.30040     66.3 1.239e+04 7.269e-10
 29.33042     67.3 1.222e+04 6.053e-10
 29.34781     68.1 1.210e+04 5.341e-10
 29.35622     68.6 1.204e+04 5.072e-10
 29.35881     69.0 1.203e+04 4.993e-10
 29.38062     70.1 1.180e+04 4.100e-10
 29.42087     71.6 1.166e+04 3.712e-10
 29.46103     73.5 1.153e+04 3.600e-10
 29.50119     75.4 1.152e+04 3.751e-10
 29.52422     77.3 1.158e+04 4.295e-10
 29.54430     78.1 1.132e+04 2.821e-10
 29.58150     79.8 1.140e+04 3.217e-10
 29.62166     81.2 1.161e+04 4.529e-10
 29.66182     82.5 1.196e+04 7.076e-10
 29.68944     83.7 1.248e+04 1.123e-09
 29.70952     84.6 1.242e+04 9.815e-10
 29.73200     84.8 1.277e+04 1.409e-09
 29.75198     85.0 1.302e+04 1.774e-09
 29.77186     85.4 1.326e+04 2.151e-09
 29.78190     86.0 1.314e+04 2.086e-09
 29.79213     86.6 1.331e+04 2.336e-09
 29.81221     87.2 1.338e+04 2.366e-09
 29.83229     87.7 1.339e+04 2.363e-09
 29.85237     88.3 1.342e+04 2.348e-09
 29.86451     89.0 1.348e+04 2.346e-09
 29.87455     89.5 1.334e+04 1.758e-09
 29.89253     90.1 1.348e+04 1.811e-09
 29.91261     90.6 1.360e+04 1.864e-09
 29.94282     91.4 1.357e+04 1.786e-09
 29.98308     92.4 1.339e+04 1.667e-09
 30.01988     93.4 1.281e+04 1.211e-09
 30.03996     93.8 1.247e+04 8.516e-10
 30.06339     94.7 1.198e+04 6.392e-10
 30.10355     95.5 1.150e+04 4.748e-10
 30.14371     96.6 1.112e+04 4.213e-10
 30.18387     98.2 1.104e+04 4.207e-10
 30.20518    100.1 1.098e+04 4.209e-10
 30.22526    100.2 1.087e+04 3.456e-10
 30.26418    101.9 1.072e+04 3.072e-10
 30.30434    103.7 1.053e+04 2.667e-10
 30.34450    105.5 1.034e+04 2.318e-10
 30.37040    107.3 1.019e+04 2.095e-10
 30.39048    107.1 1.013e+04 1.559e-10
 30.42481    109.1 1.007e+04 1.678e-10
 30.46497    111.1 1.004e+04 1.919e-10
 30.50513    113.1 1.007e+04 2.192e-10
 30.53562    115.1 1.011e+04 2.488e-10
 30.55570    115.1 1.034e+04 2.926e-10
 30.58545    117.0 1.037e+04 3.377e-10
 30.62560    118.9 1.035e+04 3.696e-10
 30.65704    120.9 1.031e+04 3.939e-10
 30.67712    121.0 1.050e+04 4.563e-10
 30.70084    123.1 1.046e+04 4.603e-10
 30.72092    123.1 1.063e+04 4.812e-10
 30.74608    125.4 1.058e+04 4.859e-10
 30.78623    127.6 1.055e+04 5.151e-10
 30.82639    129.9 1.066e+04 5.738e-10
 30.86606    132.1 1.086e+04 6.506e-10
 30.88614    131.8 1.065e+04 4.382e-10
 30.90671    133.8 1.073e+04 4.558e-10
 30.94686    135.7 1.082e+04 4.727e-10
 30.98702    137.4 1.089e+04 4.944e-10
 31.02718    139.0 1.100e+04 5.351e-10
 31.05136    140.3 1.119e+04 6.186e-10
 31.07144    140.1 1.072e+04 4.411e-10
 31.10750    141.2 1.109e+04 5.987e-10
 31.14765    141.9 1.157e+04 8.617e-10
 31.18781    142.1 1.202e+04 1.196e-09
 31.21658    142.2 1.230e+04 1.421e-09
 31.23666    142.8 1.225e+04 1.445e-09
 31.26813    142.8 1.235e+04 1.487e-09
 31.30828    142.5 1.227e+04 1.434e-09
 31.34844    142.6 1.194e+04 1.189e-09
 31.38180    142.9 1.136e+04 7.849e-10
 31.40188    143.8 1.159e+04 1.020e-09
 31.42876    144.0 1.106e+04 7.199e-10
 31.46892    144.2 1.052e+04 4.870e-10
 31.50907    144.4 1.012e+04 3.553e-10
 31.54702    144.7 9.876e+03 3.016e-10
 31.56710    145.4 1.008e+04 3.831e-10
 31.58939    145.5 9.770e+03 3.060e-10
 31.62955    145.6 9.635e+03 2.919e-10
 31.66970    145.7 9.628e+03 2.929e-10
 31.70986    145.7 9.629e+03 3.021e-10
 31.73232    145.7 9.700e+03 3.320e-10
 31.75240    146.0 9.682e+03 3.260e-10
 31.78004    145.8 9.759e+03 3.520e-10
 31.80002    145.6 9.852e+03 3.892e-10
 31.81473    145.3 9.985e+03 4.508e-10
 31.82477    145.3 1.011e+04 4.740e-10
 31.84018    145.0 1.022e+04 5.469e-10
 31.86026    144.9 1.029e+04 6.012e-10
 31.88034    144.8 1.035e+04 6.137e-10
 31.89734    144.6 1.032e+04 6.044e-10
 31.91752    144.5 1.026e+04 5.800e-10
 31.95081    144.5 9.983e+03 4.903e-10
 31.97611    144.7 9.635e+03 3.907e-10
 31.99619    144.7 9.617e+03 3.986e-10
 32.03112    145.0 9.200e+03 2.960e-10
 32.06276    145.5 8.821e+03 2.228e-10
 32.08284    145.6 8.661e+03 1.976e-10
 32.11144    146.3 8.658e+03 1.861e-10
 32.15160    146.9 8.704e+03 1.903e-10
 32.18162    146.9 8.820e+03 2.053e-10
 32.20160    146.8 9.090e+03 2.463e-10
 32.22168    146.3 9.638e+03 3.528e-10
 32.23782    145.5 1.059e+04 5.979e-10
 32.24786    146.0 1.053e+04 6.458e-10
 32.26184    145.4 1.162e+04 1.102e-09
 32.28191    144.6 1.304e+04 1.960e-09
 32.30199    143.5 1.457e+04 3.456e-09
 32.32043    142.4 1.595e+04 5.534e-09
 32.33047    143.2 1.585e+04 5.373e-09
 32.34215    141.6 1.706e+04 7.797e-09
 32.36223    139.7 1.769e+04 8.489e-09
 32.38231    137.3 1.769e+04 8.184e-09
 32.40239    134.5 1.745e+04 6.698e-09
 32.41308    131.0 1.671e+04 4.520e-09
 32.42312    131.4 1.750e+04 7.101e-09
 32.44254    127.4 1.639e+04 4.691e-09
 32.46262    122.5 1.516e+04 3.703e-09
 32.48270    117.6 1.498e+04 3.746e-09
 32.49569    113.1 1.506e+04 4.260e-09
 32.50573    113.2 1.587e+04 5.322e-09
 32.52286    109.3 1.627e+04 6.847e-09
 32.54294    106.4 1.705e+04 8.756e-09
 32.56302    103.7 1.743e+04 9.000e-09
 32.57830    100.9 1.746e+04 8.068e-09
 32.58834    100.7 1.755e+04 8.761e-09
 32.60318     97.1 1.753e+04 5.665e-09
 32.62325     90.6 1.733e+04 2.989e-09
 32.63545     81.9 1.510e+04 2.036e-09
 32.64549     88.9 1.622e+04 1.904e-09
 32.66091     80.7 1.320e+04 1.658e-09
 32.67095     80.8 1.364e+04 1.884e-09
 32.68349     76.7 1.295e+04 1.971e-09
 32.70357     76.1 1.299e+04 2.240e-09
 32.72365     76.2 1.336e+04 2.515e-09
 32.74352     76.3 1.354e+04 2.551e-09
 32.75356     76.8 1.379e+04 2.730e-09
 32.76381     76.9 1.399e+04 2.578e-09
 32.78389     76.0 1.625e+04 2.634e-09
 32.80396     73.0 2.213e+04 3.332e-09
 32.82404     66.9 2.947e+04 6.917e-09
 32.83612     61.2 3.044e+04 1.813e-08
 32.84110     64.4 3.094e+04 1.234e-08
 32.84904     60.7 2.850e+04 2.850e-08
 32.85908     61.3 2.636e+04 4.532e-08
 32.86912     62.6 2.320e+04 5.716e-08
 32.87738     63.4 2.239e+04 4.898e-08
 32.88240     64.1 2.299e+04 5.506e-08
 32.88920     64.3 2.276e+04 4.129e-08
 32.89924     63.9 2.391e+04 2.497e-08
 32.90928     62.8 2.632e+04 1.346e-08
 32.91869     60.8 2.882e+04 6.838e-09
 32.92371     61.6 2.878e+04 8.248e-09
 32.92936     58.1 3.066e+04 4.365e-09
 32.93940     52.8 3.226e+04 2.026e-09
 32.94944     45.8 3.457e+04 7.022e-10
 32.95948     38.5 2.933e+04 2.824e-10
 32.96501     33.2 1.767e+04 2.492e-10
 32.96563     34.7 2.132e+04 2.426e-10
 32.97014     46.1 4.393e+04 2.908e-10
 32.98463     28.2 1.126e+04 3.203e-10
 33.00139     26.9 9.422e+03 3.357e-10
 33.01143     27.1 9.475e+03 3.526e-10
 33.02483     27.1 9.513e+03 3.851e-10
 33.04491     27.2 9.627e+03 4.348e-10
 33.06499     27.2 9.817e+03 4.995e-10
 33.08400     27.0 1.006e+04 5.789e-10
 33.09404     27.3 1.018e+04 5.902e-10
 33.10515     26.6 1.041e+04 6.553e-10
 33.12523     25.6 1.065e+04 7.343e-10
 33.14531     24.0 1.106e+04 8.764e-10
 33.16538     21.0 1.222e+04 1.315e-09
 33.17665     16.9 1.373e+04 2.309e-09
 33.18669     14.7 1.448e+04 2.934e-09
 33.20554     14.6 1.492e+04 4.594e-09
 33.22562     15.3 1.509e+04 5.654e-09
 33.24570     16.0 1.500e+04 5.513e-09
 33.25926     16.2 1.464e+04 4.683e-09
 33.26930     16.7 1.488e+04 5.541e-09
 33.28495     16.1 1.463e+04 4.274e-09
 33.29499     14.4 1.496e+04 4.292e-09
 33.30594     12.2 1.449e+04 3.382e-09
 33.32601     10.0 1.356e+04 2.730e-09
 33.34187      9.3 1.304e+04 2.436e-09
 33.35191      9.6 1.296e+04 2.215e-09
 33.36617      9.9 1.265e+04 1.989e-09
 33.38625     10.3 1.237e+04 1.738e-09
 33.40633     10.7 1.199e+04 1.432e-09
 33.42448     10.7 1.150e+04 1.123e-09
 33.43452     10.3 1.133e+04 1.066e-09
 33.44649     10.2 1.089e+04 8.932e-10
 33.46657     10.2 1.057e+04 7.799e-10
 33.48665     10.3 1.038e+04 7.168e-10
 33.50672     10.6 1.042e+04 7.114e-10
 33.51713     10.8 1.060e+04 7.412e-10
 33.52717     11.5 1.080e+04 8.417e-10
 33.54688     11.8 1.108e+04 9.187e-10
 33.56696     11.9 1.131e+04 1.029e-09
 33.58704     11.9 1.149e+04 1.162e-09
 33.59974     12.0 1.173e+04 1.310e-09
 33.60978     13.0 1.208e+04 1.515e-09
 33.62720     12.8 1.234e+04 1.702e-09
 33.64728     12.9 1.253e+04 1.854e-09
 33.66736     12.9 1.273e+04 1.986e-09
 33.68235     12.9 1.274e+04 2.042e-09
 33.69239     13.1 1.293e+04 2.219e-09
 33.70751     12.8 1.289e+04 2.237e-09
 33.72759     12.5 1.288e+04 2.204e-09
 33.74767     12.1 1.287e+04 2.113e-09
 33.76496     11.7 1.282e+04 2.009e-09
 33.77500     11.4 1.291e+04 2.369e-09
 33.78783     11.2 1.287e+04 2.259e-09
 33.80791     10.9 1.292e+04 2.179e-09
 33.82799     10.3 1.288e+04 2.118e-09
 33.84757     10.0 1.261e+04 2.002e-09
 33.85761     10.3 1.268e+04 2.030e-09
 33.86814     10.0 1.244e+04 1.756e-09
 33.88822      9.8 1.214e+04 1.437e-09
 33.90830      8.8 1.211e+04 1.177e-09
 33.92838      6.3 1.264e+04 1.044e-09
 33.94022      1.0 1.373e+04 1.356e-09
 33.94628      0.1 1.322e+04 1.447e-09
 33.95452     -3.3 1.437e+04 1.662e-09
 33.96854     -7.2 1.492e+04 3.140e-09
 33.98862     -8.5 1.497e+04 5.651e-09
 34.00870     -8.3 1.625e+04 8.723e-09
 34.02283     -8.8 1.808e+04 1.112e-08
 34.03287    -10.5 1.943e+04 1.584e-08
 34.04885    -13.7 2.071e+04 1.590e-08
 34.06893    -18.0 1.941e+04 1.294e-08
 34.08901    -21.3 1.775e+04 1.014e-08
 34.10544    -22.5 1.671e+04 8.728e-09
 34.11548    -23.3 1.683e+04 8.728e-09
 34.12917    -23.7 1.617e+04 6.878e-09
 34.14925    -24.1 1.574e+04 5.103e-09
 34.16933    -25.0 1.511e+04 3.553e-09
 34.18805    -26.2 1.398e+04 2.341e-09
 34.19809    -28.1 1.295e+04 1.866e-09
 34.20948    -28.4 1.208e+04 1.386e-09
 34.22956    -28.3 1.149e+04 1.066e-09
 34.24964    -28.2 1.096e+04 8.080e-10
 34.26972    -27.9 1.045e+04 5.953e-10
 34.28070    -27.5 1.023e+04 4.894e-10
 34.29074    -27.7 1.028e+04 5.064e-10
 34.32002    -26.7 1.034e+04 4.604e-10
 34.36027    -25.5 9.440e+03 2.193e-10
 34.40043    -25.1 9.121e+03 1.328e-10
 34.43608    -24.1 8.985e+03 1.160e-10
 34.45616    -24.7 8.898e+03 1.115e-10
 34.48074    -23.6 8.901e+03 1.131e-10
 34.52090    -22.1 8.806e+03 1.339e-10
 34.56106    -20.0 8.848e+03 1.711e-10
 34.59417    -17.6 8.975e+03 1.983e-10
 34.61425    -20.4 9.134e+03 2.094e-10
 34.64138    -21.0 9.853e+03 2.269e-10
 34.68153    -22.3 1.054e+04 3.310e-10
 34.72169    -23.6 1.091e+04 5.902e-10
 34.76185    -23.7 1.163e+04 8.943e-10
 34.78660    -24.7 1.196e+04 9.520e-10
 34.80668    -27.4 1.204e+04 1.076e-09
 34.84216    -31.7 1.171e+04 6.586e-10
 34.88232    -39.0 1.156e+04 5.292e-10
 34.91234    -46.1 1.289e+04 7.577e-10
 34.93232    -51.0 1.386e+04 1.206e-09
 34.95162    -55.0 1.447e+04 2.237e-09
 34.96166    -57.3 1.440e+04 2.531e-09
 34.97248    -60.7 1.508e+04 3.226e-09
 34.99256    -64.9 1.536e+04 3.406e-09
 35.01264    -70.2 1.523e+04 2.960e-09
 35.03272    -76.4 1.424e+04 2.128e-09
 35.04427    -82.4 1.310e+04 1.531e-09
 35.05431    -84.1 1.289e+04 1.463e-09
 35.07288    -88.6 1.277e+04 1.330e-09
 35.09295    -92.8 1.282e+04 1.302e-09
 35.11303    -96.7 1.283e+04 1.312e-09
 35.12688   -100.1 1.278e+04 1.328e-09
 35.13692   -101.2 1.365e+04 2.048e-09
 35.15319   -103.6 1.362e+04 2.069e-09
 35.17327   -105.5 1.335e+04 1.997e-09
 35.19335   -107.2 1.291e+04 1.593e-09
 35.20949   -109.1 1.231e+04 1.129e-09
 35.21953   -109.6 1.369e+04 1.708e-09
 35.23351   -112.0 1.308e+04 1.150e-09
 35.25351   -114.3 1.243e+04 8.330e-10
 35.27359   -116.5 1.210e+04 7.795e-10
 35.29210   -117.3 1.195e+04 7.511e-10
 35.30214   -118.4 1.286e+04 1.248e-09
 35.31382   -118.8 1.282e+04 1.234e-09
 35.33390   -119.0 1.286e+04 1.253e-09
 35.35398   -119.5 1.328e+04 1.394e-09
 35.37406   -120.2 1.393e+04 1.649e-09
 35.38475   -121.1 1.466e+04 2.063e-09
 35.39479   -122.4 1.571e+04 3.466e-09
 35.41422   -123.0 1.637e+04 4.660e-09
 35.43430   -123.2 1.693e+04 6.146e-09
 35.45437   -123.0 1.739e+04 7.620e-09
 35.46736   -122.8 1.760e+04 8.530e-09
 35.47740   -123.3 1.796e+04 9.696e-09
 35.49453   -123.1 1.791e+04 9.643e-09
 35.51461   -122.7 1.755e+04 8.369e-09
 35.53469   -122.3 1.704e+04 6.738e-09
 35.54997   -122.3 1.644e+04 5.133e-09
 35.56001   -123.0 1.592e+04 3.765e-09
 35.57485   -123.3 1.501e+04 2.699e-09
 35.59493   -123.6 1.419e+04 2.053e-09
 35.61501   -123.7 1.359e+04 1.689e-09
 35.63258   -123.5 1.320e+04 1.499e-09
 35.64262   -124.4 1.268e+04 1.167e-09
 35.65516   -123.7 1.262e+04 1.151e-09
 35.67524   -123.0 1.261e+04 1.162e-09
 35.69532   -122.3 1.264e+04 1.204e-09
 35.71519   -121.7 1.276e+04 1.270e-09
 35.72523   -122.7 1.259e+04 1.239e-09
 35.73548   -122.7 1.318e+04 1.426e-09
 35.75556   -124.0 1.448e+04 1.900e-09
 35.77564   -125.9 1.619e+04 3.046e-09
 35.79572   -127.1 1.763e+04 5.456e-09
 35.80784   -127.4 1.870e+04 9.725e-09
 35.81788   -128.6 1.862e+04 9.756e-09
 35.83587   -128.1 1.921e+04 1.498e-08
 35.85595   -127.2 1.946e+04 1.831e-08
 35.87603   -126.6 1.951e+04 1.890e-08
 35.89045   -126.2 1.942e+04 1.744e-08
 35.90049   -127.6 1.842e+04 1.254e-08
 35.91305   -127.4 1.851e+04 1.176e-08
 35.92304   -125.8 1.768e+04 9.241e-09
 35.93115   -125.8 1.771e+04 9.217e-09
 35.93668   -126.0 1.785e+04 9.303e-09
 35.94170   -126.9 1.753e+04 7.590e-09
 35.95123   -127.5 1.808e+04 8.363e-09
 35.96127   -128.1 1.846e+04 9.043e-09
 35.97131   -129.2 1.927e+04 1.105e-08
 35.97798   -130.1 2.017e+04 1.269e-08
 35.98305   -130.8 1.879e+04 9.823e-09
 35.99144   -132.3 2.017e+04 1.443e-08
 36.00143   -133.9 2.166e+04 1.905e-08
 36.01147   -135.8 2.311e+04 2.797e-08
 36.01929   -137.7 2.399e+04 4.016e-08
 36.02431   -136.7 2.286e+04 2.460e-08
 36.03154   -138.2 2.380e+04 3.257e-08
 36.04158   -139.5 2.420e+04 3.981e-08
 36.05162   -140.4 2.408e+04 4.369e-08
 36.06059   -141.0 2.375e+04 4.473e-08
 36.06561   -139.9 2.392e+04 2.947e-08
 36.07170   -140.4 2.292e+04 3.008e-08
 36.08174   -140.8 2.219e+04 2.668e-08
 36.09178   -140.9 2.108e+04 2.349e-08
 36.10182   -140.8 2.014e+04 2.029e-08
 36.10692   -140.7 1.948e+04 1.726e-08
 36.11194   -140.3 1.905e+04 1.557e-08
 36.12190   -139.9 1.865e+04 1.437e-08
 36.13194   -139.3 1.846e+04 1.285e-08
 36.14198   -138.8 1.819e+04 1.161e-08
 36.14827   -138.1 1.804e+04 1.049e-08
 36.15329   -137.5 1.789e+04 1.072e-08
 36.16206   -136.7 1.772e+04 9.989e-09
 36.17716   -135.7 1.769e+04 9.395e-09
 36.19729   -134.6 1.762e+04 8.778e-09
 36.21737   -133.9 1.762e+04 8.667e-09
 36.23093   -133.5 1.770e+04 8.791e-09
 36.24097   -132.5 1.793e+04 9.248e-09
 36.25753   -132.7 1.841e+04 1.084e-08
 36.27761   -132.7 1.893e+04 1.382e-08
 36.29769   -132.6 1.956e+04 1.796e-08
 36.31270   -132.2 2.035e+04 2.455e-08
 36.31846   -132.3 2.056e+04 2.679e-08
 36.32348   -132.0 2.073e+04 2.794e-08
 36.33273   -132.3 2.095e+04 3.102e-08
 36.34277   -132.7 2.094e+04 3.156e-08
 36.35281   -132.7 2.081e+04 3.142e-08
 36.35977   -132.5 2.053e+04 2.916e-08
 36.36479   -132.1 2.053e+04 2.966e-08
 36.37288   -131.9 2.037e+04 2.641e-08
 36.38292   -132.1 2.017e+04 2.296e-08
 36.39610   -132.4 1.977e+04 1.949e-08
 36.40614   -131.5 1.971e+04 1.879e-08
 36.41811   -131.3 1.962e+04 1.733e-08
 36.43824   -130.8 1.963e+04 1.571e-08
 36.45832   -130.4 1.974e+04 1.545e-08
 36.47840   -129.8 2.016e+04 1.591e-08
 36.48875   -129.3 2.106e+04 2.066e-08
 36.49372   -129.9 2.166e+04 2.370e-08
 36.50340   -129.6 2.200e+04 2.800e-08
 36.51344   -129.7 2.230e+04 3.665e-08
 36.52348   -130.5 2.248e+04 5.775e-08
 36.53001   -131.3 2.258e+04 1.033e-07
 36.53503   -131.7 2.252e+04 1.330e-07
 36.54356   -132.3 2.264e+04 2.121e-07
 36.55359   -133.4 2.311e+04 2.642e-07
 36.56363   -135.5 2.338e+04 2.746e-07
 36.57131   -137.8 2.350e+04 2.392e-07
 36.57515   -138.2 2.256e+04 1.999e-07
 36.57748   -139.7 2.199e+04 4.418e-07
 36.58115   -140.9 2.195e+04 3.054e-07
 36.58617   -141.3 2.218e+04 2.014e-07
 36.59373   -141.9 2.227e+04 1.051e-07
 36.60379   -142.0 2.157e+04 5.069e-08
 36.61262   -141.9 2.081e+04 3.552e-08
 36.61764   -142.1 2.037e+04 2.501e-08
 36.62387   -142.1 1.965e+04 1.953e-08
 36.63391   -142.2 1.913e+04 1.601e-08
 36.64395   -142.3 1.875e+04 1.355e-08
 36.65392   -142.4 1.844e+04 1.176e-08
 36.65894   -142.9 1.782e+04 9.133e-09
 36.66403   -143.1 1.752e+04 8.342e-09
 36.67407   -143.2 1.726e+04 7.834e-09
 36.68411   -143.3 1.701e+04 7.552e-09
 36.69415   -143.4 1.679e+04 7.324e-09
 36.70025   -143.4 1.654e+04 7.008e-09
 36.70527   -143.6 1.625e+04 6.248e-09
 36.71929   -143.6 1.617e+04 6.454e-09
 36.73663   -143.2 1.573e+04 6.036e-09
 36.74667   -143.6 1.486e+04 4.270e-09
 36.75950   -143.1 1.449e+04 3.890e-09
 36.77958   -142.6 1.412e+04 3.374e-09
 36.79966   -142.4 1.365e+04 2.774e-09
 36.81924   -142.3 1.310e+04 2.202e-09
 36.82928   -142.8 1.242e+04 1.586e-09
 36.83982   -142.9 1.194e+04 1.304e-09
 36.85989   -143.0 1.150e+04 1.108e-09
 36.87997   -143.0 1.115e+04 9.911e-10
 36.90005   -142.8 1.091e+04 9.328e-10
 36.91189   -142.2 1.077e+04 9.126e-10
 36.92193   -142.3 1.049e+04 7.557e-10
 36.94021   -141.6 1.046e+04 7.550e-10
 36.96029   -140.8 1.041e+04 7.558e-10
 36.98037   -140.0 1.030e+04 7.552e-10
 36.99450   -139.1 1.019e+04 7.179e-10
 37.00454   -139.0 9.893e+03 5.878e-10
 37.02053   -138.0 9.737e+03 5.408e-10
 37.04060   -136.9 9.565e+03 4.872e-10
 37.06068   -135.8 9.393e+03 4.360e-10
 37.09090   -134.4 9.242e+03 3.819e-10
 37.13115   -132.4 9.180e+03 3.624e-10
 37.15991   -130.4 9.140e+03 3.454e-10
 37.17999   -130.3 8.858e+03 2.785e-10
 37.21147   -128.2 8.811e+03 2.634e-10
 37.23232   -126.0 8.801e+03 2.544e-10
 37.25240   -126.5 8.812e+03 2.477e-10
 37.29179   -124.6 8.796e+03 2.377e-10
 37.32513   -122.6 8.802e+03 2.295e-10
 37.34521   -122.0 8.787e+03 2.275e-10
 37.37210   -120.0 8.844e+03 2.250e-10
 37.41226   -118.1 8.857e+03 2.167e-10
 37.45242   -116.7 8.909e+03 2.094e-10
 37.49035   -116.1 8.966e+03 2.083e-10
 37.51043   -114.7 9.348e+03 2.665e-10
 37.53273   -114.6 9.827e+03 2.858e-10
 37.57289   -116.4 1.097e+04 4.470e-10
 37.61305   -119.0 1.175e+04 7.799e-10
 37.64307   -119.3 1.187e+04 9.648e-10
 37.66305   -121.4 1.184e+04 1.004e-09
 37.67546   -123.3 1.152e+04 9.806e-10
 37.68550   -122.0 1.144e+04 9.335e-10
 37.70321   -124.1 1.125e+04 7.553e-10
 37.72329   -127.2 1.076e+04 5.247e-10
 37.74336   -130.7 1.010e+04 3.559e-10
 37.75807   -133.6 9.490e+03 2.723e-10
 37.76811   -132.5 9.607e+03 2.767e-10
 37.78352   -135.2 9.256e+03 2.370e-10
 37.80360   -137.4 9.161e+03 2.273e-10
 37.82368   -139.5 9.157e+03 2.258e-10
 37.84068   -142.0 9.320e+03 2.297e-10
 37.85072   -142.0 9.461e+03 2.281e-10
 37.86384   -144.6 9.816e+03 2.797e-10
 37.88162   -146.9 1.016e+04 3.711e-10
 37.89166   -145.5 9.722e+03 3.066e-10
 37.90400   -146.7 1.007e+04 3.863e-10
 37.92329   -147.7 1.027e+04 4.782e-10
 37.93333   -147.9 1.025e+04 5.042e-10
 37.94415   -148.4 1.033e+04 5.804e-10
 37.96423   -149.3 1.059e+04 6.906e-10
 37.98431   -150.2 1.198e+04 8.391e-10
 38.00439   -151.6 1.404e+04 1.112e-09
 38.01594   -153.1 1.601e+04 1.631e-09
 38.02598   -155.2 1.748e+04 3.166e-09
 38.04455   -156.0 1.769e+04 4.533e-09
 38.06463   -156.3 1.753e+04 6.145e-09
 38.08471   -156.2 1.734e+04 7.801e-09
 38.09855   -155.7 1.725e+04 9.055e-09
 38.10859   -155.7 1.722e+04 9.344e-09
 38.12486   -155.2 1.719e+04 9.452e-09
 38.14494   -154.8 1.683e+04 8.451e-09
 38.16502   -154.5 1.623e+04 6.519e-09
 38.18116   -154.6 1.537e+04 4.576e-09
 38.19120   -155.1 1.488e+04 2.994e-09
 38.20518   -155.8 1.365e+04 2.006e-09
 38.22526   -156.3 1.249e+04 1.414e-09
 38.24534   -156.4 1.167e+04 1.095e-09
 38.26377   -156.2 1.116e+04 9.192e-10
 38.27381   -155.9 1.096e+04 7.306e-10
 38.28549   -155.4 1.056e+04 6.435e-10
 38.30557   -154.7 1.023e+04 5.756e-10
 38.32565   -153.9 1.002e+04 5.289e-10
 38.34573   -153.1 9.953e+03 5.103e-10
 38.35642   -152.4 9.946e+03 5.076e-10
 38.36646   -151.5 9.607e+03 3.875e-10
 38.38589   -150.8 9.604e+03 3.875e-10
 38.40597   -150.1 9.758e+03 4.074e-10
 38.42605   -149.8 1.009e+04 4.790e-10
 38.43903   -149.5 1.051e+04 5.961e-10
 38.44907   -148.3 9.877e+03 4.226e-10
 38.46620   -148.0 1.027e+04 5.139e-10
 38.48628   -147.7 1.075e+04 6.575e-10
 38.50636   -147.7 1.132e+04 8.809e-10
 38.52164   -147.7 1.192e+04 1.226e-09
 38.53168   -146.3 1.115e+04 7.758e-10
 38.54115   -146.5 1.182e+04 1.102e-09
 38.55119   -147.1 1.190e+04 1.272e-09
 38.56660   -147.3 1.243e+04 1.770e-09
 38.58668   -147.3 1.295e+04 2.433e-09
 38.60425   -147.2 1.343e+04 3.194e-09
 38.61429   -146.4 1.319e+04 2.640e-09
 38.62683   -146.3 1.372e+04 3.526e-09
 38.64691   -146.1 1.415e+04 4.293e-09
 38.66699   -146.1 1.436e+04 4.671e-09
 38.68686   -146.1 1.438e+04 4.756e-09
 38.69690   -145.1 1.465e+04 4.990e-09
 38.70715   -145.1 1.461e+04 4.988e-09
 38.72723   -145.1 1.421e+04 4.312e-09
 38.74731   -145.2 1.358e+04 3.277e-09
 38.76739   -145.3 1.288e+04 2.380e-09
 38.77951   -145.6 1.222e+04 1.747e-09
 38.78955   -144.1 1.261e+04 2.094e-09
 38.80754   -144.3 1.200e+04 1.575e-09
 38.82762   -144.5 1.158e+04 1.258e-09
 38.84770   -144.6 1.135e+04 1.071e-09
 38.86212   -144.6 1.123e+04 9.619e-10
 38.87216   -143.0 1.142e+04 1.063e-09
 38.88786   -143.0 1.136e+04 9.759e-10
 38.90794   -142.8 1.133e+04 9.271e-10
 38.92802   -142.6 1.135e+04 9.006e-10
 38.94473   -142.3 1.138e+04 8.894e-10
 38.95477   -140.9 1.163e+04 9.560e-10
 38.96818   -140.7 1.167e+04 9.500e-10
 38.98825   -140.6 1.176e+04 9.481e-10
 39.00833   -140.9 1.192e+04 9.022e-10
 39.02734   -141.3 1.187e+04 8.474e-10
 39.03747   -138.9 1.246e+04 1.123e-09
 39.05873   -139.1 1.245e+04 1.097e-09
 39.09888   -139.4 1.188e+04 8.953e-10
 39.13904   -139.4 1.105e+04 7.176e-10
 39.17920   -139.2 1.039e+04 5.967e-10
 39.20279   -138.9 1.005e+04 5.299e-10
 39.22287   -136.6 1.055e+04 6.628e-10
 39.25951   -136.5 1.031e+04 6.075e-10
 39.29967   -136.3 1.023e+04 5.836e-10
 39.33983   -136.4 1.021e+04 5.785e-10
 39.36801   -136.8 1.028e+04 5.906e-10
 39.38809   -136.6 1.069e+04 7.236e-10
 39.42015   -137.7 1.100e+04 8.439e-10
 39.46030   -138.9 1.129e+04 9.840e-10
 39.50046   -140.0 1.138e+04 1.054e-09
 39.53323   -140.7 1.136e+04 1.062e-09
 39.55331   -141.8 1.189e+04 1.363e-09
 39.58078   -141.8 1.155e+04 1.191e-09
 39.62093   -140.9 1.110e+04 9.302e-10
 39.66109   -139.5 1.068e+04 7.144e-10
 39.69845   -138.0 1.024e+04 5.426e-10
 39.71853   -138.1 1.113e+04 8.564e-10
 39.74141   -136.4 1.060e+04 6.830e-10
 39.78156   -134.9 1.027e+04 5.756e-10
 39.82172   -133.3 9.969e+03 4.931e-10
 39.85038   -131.5 9.738e+03 4.273e-10
 39.87046   -132.6 9.541e+03 4.086e-10
 39.88375   -130.8 9.288e+03 3.434e-10
 39.90383   -130.3 9.544e+03 4.334e-10
 39.94220   -128.6 9.208e+03 3.342e-10
 39.98235   -126.7 8.936e+03 2.610e-10
 40.02251   -124.8 8.734e+03 2.102e-10
 40.04897   -122.9 8.575e+03 1.716e-10
 40.06905   -122.4 8.727e+03 1.939e-10
 40.10283   -120.5 8.634e+03 1.693e-10
 40.14298   -118.7 8.631e+03 1.588e-10
 40.18314   -117.0 8.642e+03 1.567e-10
 40.21419   -115.6 8.819e+03 1.594e-10
 40.23427   -115.3 9.087e+03 2.084e-10
 40.25332   -114.7 9.361e+03 2.333e-10
 40.27330   -114.3 9.690e+03 2.894e-10
 40.29338   -113.9 9.991e+03 3.618e-10
 40.30665   -113.4 1.027e+04 4.605e-10
 40.31669   -113.2 1.037e+04 5.222e-10
 40.33354   -112.6 1.058e+04 6.355e-10
 40.35362   -111.7 1.069e+04 7.346e-10
 40.37370   -110.8 1.068e+04 7.952e-10
 40.38926   -109.8 1.065e+04 8.118e-10
 40.39930   -109.5 1.068e+04 8.174e-10
 40.41385   -108.3 1.050e+04 7.920e-10
 40.43393   -107.0 1.034e+04 7.100e-10
 40.45401   -105.7 1.019e+04 6.218e-10
 40.47187   -104.4 1.008e+04 5.237e-10
 40.48191   -104.2 1.005e+04 4.857e-10
 40.50431   -102.9 9.988e+03 4.204e-10
 40.54456   -101.2 9.935e+03 3.624e-10
 40.58472    -98.6 9.710e+03 2.745e-10
 40.62488    -96.4 9.565e+03 2.435e-10
 40.66503    -94.1 9.508e+03 2.347e-10
 40.70519    -91.7 9.502e+03 2.354e-10
 40.72993    -89.4 9.549e+03 2.503e-10
 40.75001    -88.6 9.485e+03 2.359e-10
 40.78551    -86.2 9.537e+03 2.541e-10
 40.82567    -83.6 9.557e+03 2.625e-10
 40.86582    -80.9 9.543e+03 2.612e-10
 40.89515    -78.0 9.477e+03 2.192e-10
 40.91523    -77.2 9.472e+03 2.240e-10
 40.94614    -74.4 9.421e+03 1.990e-10
 40.98630    -71.6 9.346e+03 1.725e-10
 41.02645    -68.9 9.259e+03 1.499e-10
 41.06037    -66.2 9.218e+03 1.336e-10
 41.08045    -65.2 9.159e+03 1.652e-10
 41.10677    -62.5 9.110e+03 1.493e-10
 41.14693    -59.8 9.122e+03 1.438e-10
 41.16945    -57.5 9.201e+03 1.450e-10
 41.18953    -56.5 8.887e+03 1.197e-10
 41.22559    -54.4 9.084e+03 1.453e-10
 41.24567    -53.0 9.028e+03 1.351e-10
 41.26740    -51.9 9.766e+03 2.273e-10
 41.30756    -50.7 1.065e+04 5.228e-10
 41.34772    -48.8 1.148e+04 1.067e-09
 41.38787    -46.7 1.207e+04 1.529e-09
 41.41089    -45.0 1.218e+04 1.579e-09
 41.43097    -43.9 1.253e+04 2.035e-09
 41.46819    -42.1 1.240e+04 1.414e-09
 41.50835    -41.6 1.172e+04 5.899e-10
 41.54850    -43.6 1.100e+04 3.077e-10
 41.57611    -45.8 1.041e+04 2.397e-10
 41.59619    -45.6 1.035e+04 2.187e-10
 41.62882    -46.8 1.039e+04 3.647e-10
 41.66898    -47.5 1.063e+04 5.381e-10
 41.70914    -48.0 1.067e+04 6.558e-10
 41.74133    -48.3 1.062e+04 6.805e-10
 41.76141    -47.4 1.081e+04 7.897e-10
 41.78945    -47.7 1.064e+04 7.868e-10
 41.82961    -48.0 1.040e+04 6.587e-10
 41.86977    -48.8 1.006e+04 5.030e-10
 41.90655    -49.5 9.593e+03 3.923e-10
 41.92663    -48.3 9.605e+03 3.774e-10
 41.95008    -48.8 9.139e+03 2.859e-10
 41.99024    -48.8 8.872e+03 2.344e-10
 42.03040    -48.5 8.705e+03 1.949e-10
 42.07056    -48.0 8.499e+03 1.582e-10
 42.09185    -47.5 8.254e+03 1.306e-10
 42.11193    -47.1 8.377e+03 1.361e-10
 42.15087    -46.5 8.103e+03 1.169e-10
 42.19103    -45.7 7.992e+03 1.108e-10
 42.23119    -44.8 7.985e+03 1.112e-10
 42.25707    -44.3 8.126e+03 1.392e-10
 42.27715    -44.9 8.256e+03 1.788e-10
 42.31150    -44.8 8.678e+03 3.203e-10
 42.35166    -44.8 9.544e+03 5.902e-10
 42.39182    -45.5 1.120e+04 1.153e-09
 42.42184    -46.3 1.216e+04 1.791e-09
 42.43213    -47.5 1.322e+04 2.378e-09
 42.44217    -46.8 1.238e+04 1.995e-09
 42.46190    -47.9 1.271e+04 2.148e-09
 42.47829    -49.0 1.278e+04 2.145e-09
 42.48833    -48.7 1.290e+04 2.055e-09
 42.50206    -49.7 1.300e+04 1.986e-09
 42.51474    -50.6 1.254e+04 1.511e-09
 42.52478    -50.3 1.162e+04 1.261e-09
 42.54221    -51.3 1.114e+04 9.485e-10
 42.56229    -52.2 1.077e+04 7.343e-10
 42.58237    -53.2 1.031e+04 5.914e-10
 42.59735    -53.6 1.016e+04 5.533e-10
 42.60749    -52.5 1.052e+04 6.351e-10
 42.63276    -53.3 1.029e+04 5.842e-10
 42.67292    -53.4 1.022e+04 5.909e-10
 42.71308    -53.4 1.017e+04 6.189e-10
 42.75273    -52.9 9.907e+03 5.857e-10
 42.77281    -53.0 9.315e+03 3.413e-10
 42.79339    -52.9 9.082e+03 3.029e-10
 42.83355    -52.7 8.959e+03 2.624e-10
 42.87371    -52.4 8.954e+03 2.287e-10
 42.91387    -52.1 8.955e+03 1.986e-10
 42.93803    -51.7 8.918e+03 1.749e-10
 42.95811    -51.4 8.713e+03 1.530e-10
 42.99418    -50.8 8.667e+03 1.212e-10
 43.03434    -50.2 8.636e+03 1.107e-10
 43.07450    -49.8 8.625e+03 1.105e-10
 43.10325    -49.4 8.594e+03 1.388e-10
 43.12333    -48.7 8.482e+03 1.036e-10
 43.15481    -48.0 8.542e+03 1.612e-10
 43.19497    -47.0 8.820e+03 2.445e-10
 43.23513    -46.5 9.546e+03 3.551e-10
 43.26847    -46.6 1.055e+04 5.238e-10
 43.28855    -44.5 9.702e+03 3.540e-10
 43.31544    -45.0 1.068e+04 5.256e-10
 43.35560    -45.7 1.132e+04 8.005e-10
 43.39576    -46.0 1.147e+04 1.039e-09
 43.43369    -45.9 1.143e+04 1.091e-09
 43.45377    -44.6 1.161e+04 1.092e-09
 43.47608    -44.4 1.161e+04 1.149e-09
 43.51623    -44.2 1.129e+04 9.920e-10
 43.55639    -44.0 1.081e+04 7.505e-10
 43.59655    -43.5 1.041e+04 5.948e-10
 43.61899    -42.8 1.026e+04 5.469e-10
 43.63907    -42.5 1.070e+04 6.940e-10
 43.67686    -41.7 1.067e+04 6.802e-10
 43.71702    -40.7 1.075e+04 7.075e-10
 43.75718    -39.5 1.078e+04 7.270e-10
 43.78421    -38.1 1.066e+04 7.096e-10
 43.79415    -38.9 1.081e+04 7.905e-10
 43.79736    -38.3 1.068e+04 7.546e-10
 43.80740    -38.4 1.070e+04 7.711e-10
 43.82726    -37.5 1.052e+04 7.126e-10
 43.84734    -36.6 1.040e+04 6.635e-10
 43.86662    -35.7 1.024e+04 6.140e-10
 43.87666    -36.0 1.012e+04 6.067e-10
 43.88750    -35.0 9.974e+03 5.451e-10
 43.91771    -33.7 9.792e+03 4.736e-10
 43.94943    -32.2 9.509e+03 3.976e-10
 43.96951    -32.5 9.314e+03 3.304e-10
 43.99813    -30.1 8.879e+03 2.463e-10
 44.03828    -28.0 8.669e+03 2.108e-10
 44.07844    -25.8 8.492e+03 1.919e-10
 44.11465    -23.5 8.323e+03 1.785e-10
 44.13473    -23.4 8.202e+03 1.563e-10
 44.15876    -20.9 8.123e+03 1.528e-10
 44.19891    -18.4 8.068e+03 1.501e-10
 44.23907    -16.0 8.011e+03 1.467e-10
 44.27923    -13.5 7.942e+03 1.424e-10
 44.29995    -11.1 7.864e+03 1.365e-10
 44.32003    -10.8 7.904e+03 1.384e-10
 44.35955     -8.5 7.852e+03 1.337e-10
 44.39970     -6.2 7.809e+03 1.325e-10
 44.43986     -4.0 7.745e+03 1.340e-10
 44.46517     -1.3 7.670e+03 1.373e-10
 44.48525     -0.8 7.705e+03 1.497e-10
 44.52018      2.3 7.644e+03 1.273e-10
 44.56033      5.0 7.496e+03 1.009e-10
 44.60049      7.4 7.366e+03 8.281e-11
 44.63039      9.7 7.236e+03 7.608e-11
 44.65047      9.9 7.347e+03 8.247e-11
 44.68081     12.3 7.391e+03 8.917e-11
 44.72097     14.8 7.519e+03 1.043e-10
 44.76112     17.2 7.689e+03 1.266e-10
 44.79561     19.6 7.924e+03 1.590e-10
 44.81569     19.7 8.349e+03 2.194e-10
 44.84144     22.1 8.666e+03 2.836e-10
 44.88160     24.6 8.938e+03 3.463e-10
 44.92175     26.9 9.159e+03 3.817e-10
 44.96083     29.1 9.221e+03 3.767e-10
 44.98081     28.6 9.268e+03 3.907e-10
 44.99183     29.3 9.249e+03 3.833e-10
 45.01191     30.2 9.235e+03 3.816e-10
 45.03199     31.1 9.316e+03 3.908e-10
 45.05207     31.0 9.866e+03 4.555e-10
 45.06332     28.8 1.195e+04 7.635e-10
 45.07336     22.9 1.448e+04 2.028e-09
 45.09223     21.7 1.508e+04 3.935e-09
 45.10639     22.8 1.551e+04 6.828e-09
 45.11643     23.1 1.467e+04 6.211e-09
 45.13239     25.4 1.498e+04 7.788e-09
 45.14593     27.3 1.531e+04 8.007e-09
 45.15597     27.6 1.562e+04 8.500e-09
 45.17254     27.9 1.584e+04 7.067e-09
 45.19262     27.0 1.595e+04 5.178e-09
 45.21270     25.1 1.523e+04 3.447e-09
 45.22854     22.8 1.370e+04 2.341e-09
 45.23858     19.3 1.232e+04 1.973e-09
 45.25286     19.0 1.196e+04 1.738e-09
 45.27294     19.2 1.209e+04 1.704e-09
 45.29302     19.3 1.217e+04 1.719e-09
 45.31115     19.3 1.232e+04 1.801e-09
 45.32119     17.7 1.256e+04 2.262e-09
 45.33318     17.8 1.264e+04 2.424e-09
 45.35325     18.2 1.279e+04 2.662e-09
 45.37333     18.5 1.313e+04 3.041e-09
 45.39341     18.7 1.346e+04 3.443e-09
 45.40380     19.0 1.381e+04 3.855e-09
 45.41384     18.2 1.415e+04 4.815e-09
 45.43357     18.4 1.437e+04 5.185e-09
 45.45365     18.7 1.433e+04 5.148e-09
 45.47373     19.0 1.416e+04 4.808e-09
 45.48641     19.0 1.385e+04 4.105e-09
 45.49645     18.8 1.419e+04 4.571e-09
 45.51388     18.6 1.392e+04 3.773e-09
 45.53396     17.5 1.367e+04 3.256e-09
 45.55404     16.4 1.316e+04 2.906e-09
 45.56902     16.1 1.277e+04 2.794e-09
 45.57906     16.4 1.291e+04 2.892e-09
 45.59420     16.8 1.276e+04 2.872e-09
 45.61428     17.6 1.259e+04 2.796e-09
 45.63436     18.4 1.262e+04 2.614e-09
 45.65163     18.8 1.283e+04 2.525e-09
 45.66167     18.6 1.297e+04 2.468e-09
 45.67452     18.4 1.326e+04 2.584e-09
 45.69459     18.2 1.351e+04 2.792e-09
 45.71467     18.2 1.370e+04 3.083e-09
 45.73424     18.5 1.387e+04 3.399e-09
 45.74428     19.0 1.394e+04 3.812e-09
 45.75483     19.8 1.405e+04 3.817e-09
 45.76593     20.5 1.415e+04 3.686e-09
 45.77597     21.2 1.488e+04 4.596e-09
 45.79499     21.9 1.492e+04 4.345e-09
 45.81507     22.5 1.481e+04 3.840e-09
 45.82689     22.5 1.455e+04 3.432e-09
 45.83693     22.5 1.426e+04 2.548e-09
 45.85523     21.7 1.370e+04 2.285e-09
 45.87530     21.1 1.359e+04 2.373e-09
 45.89538     20.5 1.402e+04 3.041e-09
 45.90945     19.3 1.514e+04 4.290e-09
 45.91949     19.9 1.504e+04 3.526e-09
 45.93047     17.8 1.682e+04 5.891e-09
 45.94046     18.0 1.762e+04 8.351e-09
 45.95050     17.8 1.903e+04 1.232e-08
 45.95573     17.3 2.045e+04 1.890e-08
 45.96075     17.7 2.011e+04 1.537e-08
 45.97058     17.5 2.102e+04 2.334e-08
 45.98062     17.7 2.153e+04 3.471e-08
 45.99066     18.2 2.170e+04 4.819e-08
 45.99703     18.6 2.180e+04 6.286e-08
 46.00205     19.0 2.146e+04 4.982e-08
 46.01074     19.6 2.151e+04 6.452e-08
 46.02078     20.3 2.158e+04 8.290e-08
 46.03082     20.3 2.215e+04 1.038e-07
 46.03834     19.4 2.257e+04 1.071e-07
 46.04336     20.5 2.238e+04 1.117e-07
 46.05090     19.6 2.277e+04 1.137e-07
 46.06094     19.1 2.294e+04 1.019e-07
 46.07098     18.4 2.362e+04 7.858e-08
 46.07964     17.8 2.437e+04 5.288e-08
 46.08466     18.7 2.458e+04 7.518e-08
 46.09058     17.9 2.549e+04 4.520e-08
 46.09560     19.1 2.325e+04 9.497e-08
 46.10109     19.0 2.345e+04 5.686e-08
 46.11113     18.2 2.418e+04 3.094e-08
 46.12095     17.4 2.455e+04 1.691e-08
 46.12597     18.7 2.573e+04 2.386e-08
 46.13628     14.5 2.502e+04 4.944e-09
 46.15641     10.2 2.158e+04 1.557e-09
 46.16737      5.4 1.423e+04 6.804e-10
 46.17741      4.1 1.471e+04 6.362e-10
 46.20670      0.2 1.005e+04 3.210e-10
 46.24696      0.7 9.377e+03 2.444e-10
 46.28712      3.0 9.274e+03 2.505e-10
 46.32275      5.9 9.373e+03 2.654e-10
 46.34283      4.7 9.491e+03 1.853e-10
 46.36743      7.6 9.636e+03 2.055e-10
 46.40558     10.3 9.711e+03 2.353e-10
 46.42566     10.3 1.164e+04 5.606e-10
 46.44775     12.8 1.209e+04 6.736e-10
 46.48791     15.0 1.260e+04 8.927e-10
 46.51793     17.6 1.301e+04 1.059e-09
 46.53791     18.5 1.317e+04 1.068e-09
 46.55799     19.7 1.335e+04 1.139e-09
 46.57806     20.9 1.346e+04 1.164e-09
 46.59046     21.7 1.304e+04 1.255e-09
 46.60050     21.9 1.323e+04 1.276e-09
 46.61822     22.9 1.293e+04 1.215e-09
 46.64844     24.0 1.264e+04 1.508e-09
 46.67327     25.5 1.191e+04 1.224e-09
 46.69334     25.9 1.222e+04 1.392e-09
 46.72885     27.7 1.158e+04 1.151e-09
 46.76901     29.7 1.114e+04 9.308e-10
 46.80917     31.6 1.099e+04 7.292e-10
 46.83849     33.0 1.123e+04 5.723e-10
 46.85856     33.9 1.130e+04 8.565e-10
 46.88948     34.9 1.150e+04 8.791e-10
 46.92964     35.4 1.171e+04 9.636e-10
 46.96980     35.9 1.171e+04 1.123e-09
 47.00371     36.6 1.160e+04 1.138e-09
 47.02378     37.7 1.194e+04 1.486e-09
 47.05011     38.2 1.133e+04 1.103e-09
 47.09027     38.4 1.072e+04 7.450e-10
 47.13043     38.6 1.017e+04 5.239e-10
 47.16893     39.1 9.653e+03 4.618e-10
 47.18901     38.9 9.522e+03 4.644e-10
 47.21074     40.2 9.477e+03 4.716e-10
 47.25090     41.6 9.468e+03 5.120e-10
 47.29106     43.0 9.535e+03 5.840e-10
 47.33122     44.6 9.657e+03 6.707e-10
 47.35423     46.2 9.790e+03 7.602e-10
 47.37430     46.1 9.914e+03 8.181e-10
 47.41153     47.6 9.887e+03 8.039e-10
 47.45169     49.1 9.727e+03 7.259e-10
 47.49185     50.7 9.442e+03 5.846e-10
 47.51945     52.2 9.127e+03 4.430e-10
 47.53952     52.1 8.867e+03 3.729e-10
 47.57216     53.5 8.522e+03 2.609e-10
 47.61232     54.7 8.188e+03 1.888e-10
 47.65248     55.8 7.888e+03 1.471e-10
 47.68467     57.3 7.703e+03 1.308e-10
 47.70474     57.3 7.487e+03 1.214e-10
 47.72465     59.2 7.428e+03 1.154e-10
 47.74473     59.3 7.488e+03 1.062e-10
 47.77295     61.3 7.517e+03 1.065e-10
 47.81311     63.2 7.608e+03 1.101e-10
 47.84989     65.0 7.779e+03 1.236e-10
 47.86996     65.4 7.521e+03 1.007e-10
 47.89343     67.3 7.714e+03 1.251e-10
 47.93358     69.2 7.957e+03 1.672e-10
 47.97374     71.2 8.189e+03 2.208e-10
 48.01390     73.1 8.394e+03 2.628e-10
 48.03518     74.9 8.655e+03 2.687e-10
 48.05526     75.5 8.605e+03 2.804e-10
 48.09421     76.9 8.770e+03 2.827e-10
 48.13437     78.2 8.931e+03 2.894e-10
 48.17453     79.3 9.188e+03 3.173e-10
 48.20040     80.1 9.471e+03 3.698e-10
 48.21035     79.4 9.544e+03 4.110e-10
 48.22453     79.6 9.708e+03 4.571e-10
 48.24461     79.9 9.907e+03 5.265e-10
 48.26469     80.5 1.010e+04 6.021e-10
 48.28282     81.2 1.028e+04 6.625e-10
 48.29286     81.5 1.039e+04 6.843e-10
 48.30485     82.1 1.044e+04 6.821e-10
 48.32493     82.9 1.042e+04 6.572e-10
 48.34500     83.6 1.034e+04 5.994e-10
 48.36508     84.3 1.022e+04 5.286e-10
 48.37547     84.9 1.004e+04 4.620e-10
 48.38561     84.0 9.715e+03 3.452e-10
 48.41548     85.1 9.407e+03 2.873e-10
 48.45563     86.1 9.212e+03 2.716e-10
 48.48565     87.3 8.952e+03 2.361e-10
 48.50564     88.2 8.897e+03 2.180e-10
 48.52571     89.0 8.944e+03 2.095e-10
 48.54069     89.8 8.959e+03 2.028e-10
 48.55073     89.7 8.755e+03 1.995e-10
 48.56587     90.3 8.713e+03 1.921e-10
 48.58595     90.9 8.694e+03 1.886e-10
 48.60603     91.5 8.728e+03 1.904e-10
 48.62330     92.0 8.783e+03 1.944e-10
 48.63334     92.2 8.732e+03 1.874e-10
 48.64619     92.8 8.892e+03 1.987e-10
 48.66627     93.3 9.147e+03 2.149e-10
 48.68635     93.8 9.679e+03 2.450e-10
 48.70591     94.2 1.050e+04 2.995e-10
 48.71595     94.4 1.062e+04 2.823e-10
 48.72650     94.8 1.160e+04 3.682e-10
 48.74658     95.2 1.261e+04 5.098e-10
 48.76666     95.5 1.357e+04 7.531e-10
 48.78674     95.8 1.430e+04 1.166e-09
 48.79856     96.5 1.482e+04 1.837e-09
 48.80860     96.8 1.431e+04 1.975e-09
 48.82690     97.9 1.507e+04 3.147e-09
 48.84698     98.9 1.585e+04 4.687e-09
 48.86199     99.0 1.619e+04 5.380e-09
 48.87198     98.9 1.667e+04 6.138e-09
 48.88107     98.7 1.725e+04 7.518e-09
 48.88609     98.2 1.706e+04 7.431e-09
 48.89206     98.1 1.749e+04 9.568e-09
 48.90210     97.9 1.790e+04 1.249e-08
 48.91213     97.5 1.845e+04 1.647e-08
 48.92217     96.9 1.893e+04 2.254e-08
 48.92740     96.2 1.922e+04 3.429e-08
 48.93242     96.3 1.932e+04 3.626e-08
 48.94225     95.9 1.967e+04 6.353e-08
 48.95229     95.5 2.017e+04 1.080e-07
 48.96233     94.4 2.048e+04 1.320e-07
 48.96870     93.1 2.039e+04 1.270e-07
 48.97372     93.6 2.028e+04 9.049e-08
 48.98241     93.1 2.015e+04 7.780e-08
 48.99245     92.5 2.032e+04 5.860e-08
 49.00249     91.5 2.108e+04 4.218e-08
 49.01001     89.8 2.210e+04 3.111e-08
 49.01503     90.7 2.186e+04 2.967e-08
 49.02257     89.1 2.242e+04 2.440e-08
 49.03261     87.7 2.254e+04 2.090e-08
 49.04348     86.5 2.272e+04 1.952e-08
 49.05219     85.7 1.850e+04 1.242e-08
 49.05643     87.2 1.888e+04 1.232e-08
 49.06784     86.2 1.773e+04 1.140e-08
 49.08792     86.1 1.693e+04 1.088e-08
 49.10800     86.3 1.650e+04 1.036e-08
 49.12808     86.6 1.619e+04 9.569e-09
 49.13904     87.0 1.581e+04 8.404e-09
 49.14908     87.7 1.625e+04 9.218e-09
 49.16824     87.9 1.583e+04 8.094e-09
 49.18832     88.2 1.529e+04 6.665e-09
 49.20840     88.4 1.476e+04 5.305e-09
 49.22165     88.5 1.432e+04 4.199e-09
 49.23169     89.0 1.518e+04 5.517e-09
 49.24855     88.9 1.511e+04 4.733e-09
 49.26863     88.6 1.520e+04 4.526e-09
 49.28871     88.5 1.524e+04 4.571e-09
 49.30426     88.6 1.542e+04 4.882e-09
 49.31425     88.6 1.622e+04 6.038e-09
 49.32375     88.6 1.640e+04 6.461e-09
 49.33379     88.5 1.655e+04 7.033e-09
 49.34383     88.5 1.649e+04 7.680e-09
 49.35049     88.6 1.628e+04 8.340e-09
 49.35551     88.9 1.656e+04 9.659e-09
 49.36391     89.0 1.652e+04 1.057e-08
 49.37320     89.1 1.662e+04 1.173e-08
 49.37822     89.0 1.696e+04 9.555e-09
 49.38399     88.8 1.724e+04 1.090e-08
 49.39179     88.1 1.790e+04 1.309e-08
 49.39681     88.1 1.857e+04 1.468e-08
 49.40407     86.6 1.956e+04 1.890e-08
 49.41411     84.7 2.033e+04 2.667e-08
 49.42415     83.0 2.066e+04 4.196e-08
 49.43310     82.2 2.081e+04 6.721e-08
 49.43812     82.3 2.111e+04 8.458e-08
 49.44422     81.7 2.116e+04 1.190e-07
 49.45426     80.7 2.107e+04 1.189e-07
 49.46430     80.6 2.070e+04 1.026e-07
 49.47434     80.9 2.023e+04 6.969e-08
 49.47942     81.2 1.993e+04 4.092e-08
 49.48444     81.1 2.032e+04 4.884e-08
 49.49442     80.9 2.026e+04 2.397e-08
 49.50953     78.8 2.037e+04 1.039e-08
 49.52966     73.5 1.765e+04 4.044e-09
 49.54974     70.0 1.418e+04 3.349e-09
 49.56213     70.0 1.363e+04 3.243e-09
 49.57217     70.4 1.358e+04 3.874e-09
 49.58989     70.6 1.357e+04 3.933e-09
 49.60997     71.0 1.362e+04 4.236e-09
 49.63005     71.5 1.376e+04 4.609e-09
 49.64474     71.9 1.392e+04 4.721e-09
 49.65478     72.8 1.383e+04 4.555e-09
 49.67021     73.0 1.385e+04 4.418e-09
 49.69029     73.1 1.377e+04 4.108e-09
 49.70306     73.1 1.358e+04 3.690e-09
 49.71310     72.9 1.329e+04 2.975e-09
 49.72735     72.9 1.304e+04 2.606e-09
 49.73739     73.7 1.295e+04 2.500e-09
 49.75052     73.7 1.263e+04 2.100e-09
 49.78074     73.9 1.204e+04 1.616e-09
 49.82100     74.3 1.125e+04 1.062e-09
 49.86115     75.1 1.066e+04 6.568e-10
 49.89276     76.0 1.022e+04 3.919e-10
 49.91274     77.3 9.932e+03 3.656e-10
 49.94137     78.4 1.009e+04 3.690e-10
 49.98163     78.9 9.747e+03 2.556e-10
 50.02178     79.3 9.237e+03 2.084e-10
 50.05798     79.9 9.106e+03 2.121e-10
 50.07796     80.8 9.224e+03 2.368e-10
 50.09187     80.9 9.276e+03 2.575e-10
 50.11194     81.0 9.320e+03 2.744e-10
 50.13202     80.9 9.469e+03 3.102e-10
 50.15044     80.8 9.644e+03 3.732e-10
 50.16048     81.3 9.818e+03 4.155e-10
 50.17218     81.3 1.005e+04 5.164e-10
 50.19226     81.3 1.022e+04 6.262e-10
 50.21234     81.3 1.042e+04 7.399e-10
 50.23242     81.2 1.060e+04 8.472e-10
 50.24309     80.8 1.088e+04 9.879e-10
 50.25313     81.5 1.089e+04 9.653e-10
 50.27258     80.7 1.136e+04 1.168e-09
 50.29265     79.2 1.220e+04 1.627e-09
 50.31273     77.9 1.301e+04 2.461e-09
 50.32570     77.9 1.362e+04 3.610e-09
 50.33574     78.2 1.366e+04 3.120e-09
 50.35256     78.3 1.388e+04 4.033e-09
 50.36260     78.6 1.327e+04 2.567e-09
 50.37297     78.6 1.311e+04 2.680e-09
 50.39305     78.6 1.296e+04 2.591e-09
 50.40840     78.9 1.213e+04 1.844e-09
 50.41844     79.0 1.248e+04 1.834e-09
 50.43321     78.9 1.211e+04 1.687e-09
 50.45329     79.0 1.192e+04 1.618e-09
 50.47336     79.2 1.176e+04 1.585e-09
 50.49092     79.6 1.163e+04 1.577e-09
 50.50096     79.3 1.206e+04 1.647e-09
 50.51352     79.9 1.197e+04 1.732e-09
 50.53360     80.7 1.192e+04 1.838e-09
 50.55368     81.7 1.192e+04 1.968e-09
 50.57353     82.8 1.183e+04 2.025e-09
 50.58357     83.0 1.178e+04 1.705e-09
 50.59384     83.9 1.176e+04 1.905e-09
 50.61392     85.0 1.170e+04 1.896e-09
 50.63399     86.1 1.159e+04 1.828e-09
 50.65407     87.0 1.142e+04 1.677e-09
 50.66618     88.1 1.118e+04 1.497e-09
 50.67622     88.2 1.105e+04 1.373e-09
 50.69423     89.4 1.088e+04 1.233e-09
 50.71431     90.4 1.076e+04 1.124e-09
 50.73439     91.1 1.062e+04 1.038e-09
 50.74879     92.1 1.055e+04 1.016e-09
 50.75883     91.9 1.054e+04 8.385e-10
 50.77455     92.7 1.060e+04 8.584e-10
 50.79463     93.1 1.081e+04 9.488e-10
 50.81470     92.9 1.114e+04 1.145e-09
 50.83140     92.4 1.183e+04 1.624e-09
 50.84144     91.7 1.201e+04 1.382e-09
 50.85486     91.0 1.269e+04 2.231e-09
 50.86987     91.0 1.291e+04 2.616e-09
 50.87762     90.7 1.324e+04 2.908e-09
 50.88264     90.1 1.343e+04 2.833e-09
 50.88990     87.9 1.516e+04 3.605e-09
 50.89994     79.6 2.105e+04 8.158e-09
 50.90998     71.2 2.346e+04 2.723e-08
 50.91893     67.1 2.232e+04 5.458e-08
 50.92395     67.0 2.281e+04 4.013e-08
 50.93006     65.0 2.196e+04 4.681e-08
 50.94010     63.3 2.183e+04 4.574e-08
 50.95014     59.1 2.431e+04 3.564e-08
 50.96018     52.2 3.082e+04 1.975e-08
 50.96525     38.8 3.846e+04 7.305e-09
 50.97027     41.7 3.660e+04 9.844e-09
 50.98026     33.2 3.346e+04 4.694e-09
 50.99537     16.3 1.755e+04 3.490e-09
 51.00666     10.0 1.330e+04 2.774e-09
 51.01330     11.5 1.398e+04 3.649e-09
 51.02214     10.7 1.393e+04 3.603e-09
 51.03557      8.1 1.283e+04 2.407e-09
 51.05565      6.1 1.192e+04 1.530e-09
 51.07573      4.2 1.096e+04 9.493e-10
 51.08927      2.2 9.931e+03 6.160e-10
 51.09931      2.4 1.004e+04 6.422e-10
 51.11589      1.1 9.263e+03 4.523e-10
 51.13597      1.0 9.163e+03 4.003e-10
 51.15605      0.7 8.929e+03 3.411e-10
 51.18626      1.1 8.754e+03 3.192e-10
 51.22652      1.1 8.428e+03 2.554e-10
 51.25468      1.3 8.243e+03 2.098e-10
 51.27476      2.1 8.304e+03 2.333e-10
 51.30683      2.1 8.089e+03 1.813e-10
 51.34699      2.1 7.861e+03 1.527e-10
 51.38715      2.6 7.611e+03 1.358e-10
 51.41990      3.9 7.456e+03 1.228e-10
 51.43998      4.6 7.441e+03 1.167e-10
 51.46746      5.9 7.302e+03 9.436e-11
 51.50762      7.1 7.183e+03 7.348e-11
 51.54778      8.1 7.072e+03 6.378e-11
 51.58512      9.6 7.044e+03 6.257e-11
 51.60520     10.2 7.021e+03 6.107e-11
 51.62809     11.8 7.025e+03 6.139e-11
 51.66179     13.3 7.100e+03 6.267e-11
 51.68187     13.2 7.107e+03 6.090e-11
 51.70841     14.6 7.170e+03 6.210e-11
 51.74857     15.9 7.173e+03 6.719e-11
 51.77042     17.6 7.196e+03 7.177e-11
 51.79050     18.2 7.094e+03 6.648e-11
 51.82888     19.9 7.211e+03 6.822e-11
 51.86904     21.3 7.385e+03 6.449e-11
 51.90920     21.9 7.742e+03 6.933e-11
 51.93564     21.0 8.195e+03 1.154e-10
 51.95572     22.4 8.003e+03 8.725e-11
 51.98951     22.6 8.510e+03 2.028e-10
 52.02967     23.0 9.281e+03 4.066e-10
 52.05969     22.9 1.004e+04 6.420e-10
 52.07967     22.4 1.056e+04 8.617e-10
 52.09975     22.3 1.092e+04 1.160e-09
 52.11071     22.1 1.137e+04 1.405e-09
 52.12074     22.2 1.168e+04 1.617e-09
 52.13991     21.2 1.265e+04 2.188e-09
 52.15999     19.0 1.437e+04 2.971e-09
 52.18007     16.7 1.491e+04 3.763e-09
 52.19332     15.2 1.441e+04 4.205e-09
 52.20335     15.8 1.421e+04 3.965e-09
 52.22023     15.4 1.359e+04 3.966e-09
 52.24030     15.6 1.339e+04 3.597e-09
 52.26038     15.4 1.361e+04 2.790e-09
 52.27593     13.2 1.330e+04 1.955e-09
 52.28596     12.4 1.285e+04 1.734e-09
 52.31068     10.5 1.133e+04 1.146e-09
 52.35093     11.2 1.013e+04 5.896e-10
 52.39109     11.4 9.358e+03 2.560e-10
 52.43125     10.6 8.743e+03 1.424e-10
 52.47141     10.9 8.377e+03 1.325e-10
 52.51156     12.3 8.273e+03 1.305e-10
 52.55172     13.8 8.183e+03 1.232e-10
 52.59188     15.1 8.200e+03 1.064e-10
 52.61660     16.2 8.159e+03 1.016e-10
 52.63668     16.7 8.046e+03 9.031e-11
 52.67219     17.9 8.092e+03 9.294e-11
 52.71235     18.9 8.150e+03 1.090e-10
 52.75251     20.3 8.249e+03 1.361e-10
 52.78182     22.4 8.372e+03 1.713e-10
 52.80190     23.4 8.270e+03 1.489e-10
 52.83283     25.2 8.353e+03 1.475e-10
 52.87298     27.3 8.329e+03 1.222e-10
 52.91314     28.8 8.256e+03 9.354e-11
 52.94704     30.3 8.117e+03 7.306e-11
 52.96712     31.3 8.093e+03 7.497e-11
 52.98086     33.0 8.018e+03 6.305e-11
 53.00094     32.6 7.929e+03 5.726e-11
 53.03361     34.4 7.905e+03 5.216e-11
 53.07377     36.2 7.922e+03 5.090e-11
 53.11226     37.9 7.954e+03 5.221e-11
 53.13234     38.8 8.042e+03 6.545e-11
 53.15409     40.6 8.094e+03 7.163e-11
 53.19425     42.4 8.143e+03 7.749e-11
 53.23440     44.3 8.175e+03 8.138e-11
 53.27456     46.1 8.176e+03 8.069e-11
 53.29756     47.8 8.180e+03 7.893e-11
 53.31764     48.2 8.360e+03 1.036e-10
 53.35488     49.8 8.368e+03 1.051e-10
 53.39503     51.5 8.403e+03 1.092e-10
 53.43519     53.2 8.479e+03 1.183e-10
 53.46278     54.9 8.603e+03 1.357e-10
 53.48286     55.1 8.794e+03 1.633e-10
 53.51551     56.7 8.958e+03 1.828e-10
 53.55566     58.2 9.104e+03 2.108e-10
 53.59582     59.8 9.225e+03 2.492e-10
 53.62800     61.3 9.348e+03 2.831e-10
 53.64808     61.0 9.284e+03 2.557e-10
 53.67614     62.5 9.301e+03 2.634e-10
 53.71630     63.9 9.290e+03 2.580e-10
 53.75645     65.1 9.260e+03 2.404e-10
 53.79322     66.0 9.194e+03 2.163e-10
 53.81330     65.4 9.161e+03 1.827e-10
 53.83677     65.8 9.287e+03 1.915e-10
 53.87693     65.8 9.451e+03 2.202e-10
 53.91708     65.7 9.659e+03 2.771e-10
 53.95724     65.9 9.713e+03 3.128e-10
 53.97852     66.3 9.650e+03 2.913e-10
 53.99860     65.7 9.627e+03 2.659e-10
 54.03756     65.8 9.356e+03 1.555e-10
 54.07772     65.1 8.999e+03 8.719e-11
 54.11787     64.5 8.857e+03 8.117e-11
 54.14374     64.6 8.928e+03 8.952e-11
 54.16382     62.5 8.782e+03 6.954e-11
 54.18805     62.4 9.120e+03 8.267e-11
 54.20803     56.6 1.469e+04 1.819e-10
 54.22615     41.5 1.879e+04 1.697e-09
 54.23619     45.7 1.790e+04 8.874e-10
 54.24819     41.1 1.756e+04 4.193e-09
 54.26827     41.4 1.792e+04 1.022e-08
 54.28835     41.1 1.886e+04 1.276e-08
 54.29974     39.4 1.924e+04 1.104e-08
 54.30977     39.2 1.886e+04 1.183e-08
 54.31880     36.7 1.873e+04 8.638e-09
 54.32884     37.8 1.752e+04 7.138e-09
 54.34858     33.9 1.633e+04 4.590e-09
 54.36866     30.8 1.471e+04 3.163e-09
 54.38874     29.8 1.377e+04 2.526e-09
 54.40141     29.9 1.332e+04 2.219e-09
 54.41145     31.1 1.326e+04 2.199e-09
 54.42890     31.2 1.292e+04 1.938e-09
 54.44898     31.0 1.276e+04 1.832e-09
 54.46906     29.9 1.304e+04 2.048e-09
 54.48402     28.2 1.357e+04 2.635e-09
 54.49406     29.6 1.371e+04 2.604e-09
 54.50922     28.1 1.416e+04 3.709e-09
 54.52929     28.0 1.483e+04 5.736e-09
 54.54937     28.1 1.598e+04 6.994e-09
 54.56663     27.5 1.673e+04 6.762e-09
 54.57667     29.2 1.680e+04 7.800e-09
 54.58953     28.8 1.647e+04 6.474e-09
 54.60961     27.2 1.532e+04 3.767e-09
 54.62969     24.0 1.374e+04 1.677e-09
 54.64924     20.5 1.119e+04 7.522e-10
 54.65928     22.0 1.180e+04 8.361e-10
 54.66985     19.1 9.985e+03 4.907e-10
 54.68993     18.6 9.523e+03 4.123e-10
 54.71000     18.8 9.479e+03 3.976e-10
 54.73008     18.8 9.423e+03 3.883e-10
 54.74189     18.9 9.510e+03 4.046e-10
 54.75193     19.5 9.547e+03 4.155e-10
 54.77024     19.5 9.692e+03 4.523e-10
 54.79032     19.8 1.004e+04 5.397e-10
 54.81040     19.4 1.033e+04 6.241e-10
 54.82460     19.6 1.100e+04 8.334e-10
 54.84478     21.1 1.086e+04 8.587e-10
 54.87073     20.3 1.128e+04 1.079e-09
 54.89071     19.7 1.158e+04 1.124e-09
 54.90711     18.9 1.243e+04 1.320e-09
 54.91715     20.0 1.158e+04 1.033e-09
 54.93087     19.3 1.186e+04 1.094e-09
 54.94923     18.3 1.226e+04 1.268e-09
 54.95927     18.7 1.283e+04 1.563e-09
 54.97103     18.1 1.349e+04 1.954e-09
 54.98972     17.3 1.384e+04 2.260e-09
 54.99976     17.9 1.288e+04 1.417e-09
 55.01119     17.3 1.316e+04 1.692e-09
 55.03127     16.8 1.315e+04 1.960e-09
 55.05134     16.8 1.309e+04 2.090e-09
 55.07142     17.2 1.300e+04 2.160e-09
 55.08237     17.7 1.280e+04 2.020e-09
 55.09241     18.4 1.277e+04 1.956e-09
 55.11158     19.1 1.253e+04 1.809e-09
 55.13166     19.9 1.236e+04 1.541e-09
 55.15504     19.5 1.161e+04 9.802e-10
 55.17522     21.2 1.165e+04 1.007e-09
 55.20213     20.9 1.099e+04 6.656e-10
 55.24229     20.7 1.079e+04 6.107e-10
 55.28245     20.5 1.122e+04 7.904e-10
 55.31247     21.0 1.196e+04 1.228e-09
 55.33020     20.3 1.225e+04 1.376e-09
 55.34024     20.4 1.266e+04 1.697e-09
 55.35253     20.0 1.341e+04 2.781e-09
 55.37261     19.7 1.395e+04 3.743e-09
 55.39269     19.8 1.443e+04 4.612e-09
 55.41276     20.3 1.482e+04 5.149e-09
 55.43284     21.1 1.550e+04 5.489e-09
 55.45292     20.3 1.508e+04 3.747e-09
 55.47300     18.5 1.357e+04 2.322e-09
 55.49308     17.7 1.230e+04 1.540e-09
 55.50546     17.6 1.161e+04 1.065e-09
 55.51550     17.9 1.157e+04 1.031e-09
 55.53324     18.1 1.111e+04 7.046e-10
 55.55332     18.2 1.077e+04 4.962e-10
 55.57340     17.9 1.039e+04 3.737e-10
 55.59883     18.3 1.015e+04 3.313e-10
 55.61900     18.6 9.897e+03 2.685e-10
 55.64387     19.5 9.558e+03 2.363e-10
 55.67088     20.8 9.440e+03 2.341e-10
 55.69096     22.1 9.524e+03 2.554e-10
 55.72418     23.3 9.414e+03 2.796e-10
 55.76434     24.7 9.390e+03 3.014e-10
 55.80450     26.2 9.384e+03 3.055e-10
 55.83610     27.7 9.326e+03 2.686e-10
 55.85618     28.6 9.569e+03 3.265e-10
 55.88481     29.8 9.452e+03 2.667e-10
 55.92497     30.9 9.308e+03 2.208e-10
 55.96513     32.0 9.166e+03 1.986e-10
 56.00132     33.2 9.191e+03 1.782e-10
 56.02140     34.6 9.008e+03 1.514e-10
 56.04544     35.3 8.927e+03 1.242e-10
 56.08560     35.5 9.068e+03 1.320e-10
 56.12576     35.9 9.759e+03 2.076e-10
 56.16592     37.2 1.025e+04 3.430e-10
 56.18662     38.7 1.059e+04 4.931e-10
 56.20670     40.9 1.022e+04 3.707e-10
 56.24623     42.5 1.063e+04 5.382e-10
 56.28639     43.9 1.108e+04 7.590e-10
 56.32655     45.2 1.165e+04 1.094e-09
 56.35174     46.6 1.210e+04 1.411e-09
 56.36168     47.8 1.209e+04 1.346e-09
 56.37655     48.4 1.237e+04 1.649e-09
 56.39663     49.3 1.264e+04 1.874e-09
 56.41671     50.1 1.281e+04 2.011e-09
 56.43425     50.6 1.286e+04 1.998e-09
 56.44429     51.9 1.304e+04 2.125e-09
 56.45687     52.3 1.301e+04 2.104e-09
 56.47694     52.6 1.288e+04 1.950e-09
 56.49702     52.7 1.277e+04 1.829e-09
 56.51686     52.5 1.290e+04 1.776e-09
 56.52690     54.2 1.321e+04 2.042e-09
 56.53718     53.7 1.330e+04 2.104e-09
 56.55726     53.6 1.307e+04 2.196e-09
 56.57734     53.9 1.294e+04 2.246e-09
 56.59742     54.3 1.283e+04 2.176e-09
 56.60951     55.0 1.261e+04 1.969e-09
 56.61955     55.4 1.322e+04 2.614e-09
 56.63758     55.9 1.294e+04 2.265e-09
 56.65765     56.7 1.234e+04 1.824e-09
 56.67773     57.8 1.169e+04 1.322e-09
 56.69212     56.8 1.167e+04 9.752e-10
 56.70216     57.6 1.199e+04 1.202e-09
 56.72803     58.2 1.149e+04 9.606e-10
 56.76828     58.4 1.085e+04 7.274e-10
 56.80844     59.6 1.037e+04 5.619e-10
 56.84750     61.1 1.005e+04 4.185e-10
 56.86758     61.4 9.552e+03 2.850e-10
 56.88876     62.7 9.313e+03 2.254e-10
 56.91799     64.4 9.167e+03 2.097e-10
 56.93807     63.8 9.266e+03 2.235e-10
 56.96907     65.9 9.281e+03 2.376e-10
 57.00923     68.4 9.223e+03 2.386e-10
 57.03280     70.8 9.175e+03 2.329e-10
 57.05288     71.3 8.534e+03 1.489e-10
 57.08954     73.6 8.573e+03 1.561e-10
 57.12970     75.9 8.682e+03 1.707e-10
 57.16986     78.6 8.977e+03 2.072e-10
 57.19792     80.6 8.994e+03 2.149e-10
 57.20786     81.1 8.992e+03 2.150e-10
 57.21986     81.8 9.055e+03 2.239e-10
 57.23994     82.6 9.167e+03 2.490e-10
 57.26002     82.2 9.614e+03 3.020e-10
 57.28010     78.8 1.194e+04 6.040e-10
 57.29047     68.7 1.693e+04 3.355e-09
 57.30051     68.8 1.663e+04 3.125e-09
 57.32026     65.0 1.763e+04 1.051e-08
 57.34034     65.4 1.747e+04 1.087e-08
 57.36041     64.3 1.802e+04 6.821e-09
 57.37308     57.7 1.896e+04 2.176e-09
 57.38312     57.4 1.825e+04 2.173e-09
 57.40057     45.2 1.245e+04 7.553e-10
 57.42065     42.0 1.041e+04 6.057e-10
 57.44073     41.8 1.031e+04 5.564e-10
 57.45569     41.5 1.017e+04 4.799e-10
 57.46573     41.7 1.026e+04 5.050e-10
 57.48089     41.1 1.010e+04 4.339e-10
 57.50097     40.3 9.863e+03 3.701e-10
 57.52836     40.2 9.720e+03 3.268e-10
 57.54844     40.2 9.706e+03 3.462e-10
 57.57134     40.6 9.687e+03 3.426e-10
 57.61160     40.7 9.543e+03 3.244e-10
 57.65175     41.7 9.331e+03 3.312e-10
 57.69191     43.2 9.387e+03 3.461e-10
 57.71376     44.5 9.462e+03 3.317e-10
 57.73383     45.1 9.482e+03 3.378e-10
 57.77223     46.2 9.541e+03 3.251e-10
 57.81238     46.6 9.834e+03 3.701e-10
 57.85254     46.8 1.053e+04 6.086e-10
 57.87898     47.6 1.170e+04 1.166e-09
 57.89905     48.1 1.160e+04 1.155e-09
 57.92272     48.9 1.214e+04 1.767e-09
 57.94270     49.9 1.260e+04 2.045e-09
 57.96139     50.4 1.287e+04 1.970e-09
 57.97143     50.6 1.283e+04 1.956e-09
 57.98286     50.6 1.297e+04 1.781e-09
 58.00294     50.1 1.305e+04 1.582e-09
 58.02302     49.2 1.302e+04 1.512e-09
 58.04310     48.5 1.299e+04 1.651e-09
 58.05404     48.3 1.305e+04 1.816e-09
 58.06408     49.2 1.285e+04 1.657e-09
 58.08325     49.3 1.295e+04 1.885e-09
 58.10333     49.9 1.298e+04 2.079e-09
 58.12341     50.6 1.288e+04 2.203e-09
 58.13665     51.5 1.279e+04 2.163e-09
 58.14669     52.3 1.266e+04 1.946e-09
 58.16357     53.2 1.250e+04 1.901e-09
 58.18365     53.8 1.245e+04 1.749e-09
 58.20373     54.6 1.237e+04 1.595e-09
 58.21926     55.4 1.210e+04 1.400e-09
 58.22930     56.2 1.211e+04 1.397e-09
 58.23687     57.0 1.190e+04 1.209e-09
 58.24691     57.7 1.207e+04 1.301e-09
 58.26396     58.5 1.176e+04 1.208e-09
 58.28404     59.1 1.168e+04 1.059e-09
 58.30187     59.8 1.158e+04 1.051e-09
 58.31191     60.6 1.164e+04 1.044e-09
 58.32420     61.4 1.169e+04 1.042e-09
 58.34428     62.0 1.182e+04 1.088e-09
 58.36436     62.9 1.187e+04 1.169e-09
 58.38444     63.6 1.220e+04 1.287e-09
 58.40452     64.6 1.275e+04 1.572e-09
 58.42459     64.8 1.316e+04 1.892e-09
 58.44467     65.2 1.337e+04 2.335e-09
 58.46475     66.1 1.339e+04 2.800e-09
 58.47713     67.3 1.346e+04 3.193e-09
 58.48717     68.1 1.370e+04 3.205e-09
 58.50491     69.1 1.391e+04 3.276e-09
 58.52499     70.3 1.396e+04 3.151e-09
 58.54507     70.7 1.398e+04 2.880e-09
 58.55974     70.0 1.418e+04 2.753e-09
 58.56978     69.7 1.489e+04 3.243e-09
 58.58522     68.5 1.538e+04 3.669e-09
 58.60530     67.4 1.558e+04 4.410e-09
 58.62538     67.5 1.538e+04 5.141e-09
 58.64235     68.3 1.517e+04 5.392e-09
 58.65239     68.7 1.530e+04 5.403e-09
 58.66554     69.6 1.504e+04 5.179e-09
 58.68562     70.6 1.477e+04 4.487e-09
 58.70570     71.0 1.438e+04 3.427e-09
 58.72496     71.1 1.362e+04 2.335e-09
 58.73500     71.2 1.339e+04 2.094e-09
 58.74586     71.0 1.244e+04 1.440e-09
 58.76593     71.1 1.155e+04 1.023e-09
 58.78601     71.4 1.101e+04 8.109e-10
 58.80609     72.7 1.031e+04 6.032e-10
 58.81761     73.2 1.028e+04 5.366e-10
 58.82765     73.8 1.036e+04 5.424e-10
 58.84625     75.8 9.865e+03 4.005e-10
 58.86633     76.1 9.887e+03 3.805e-10
 58.88637     78.5 9.505e+03 2.959e-10
 58.90018     79.9 9.794e+03 3.347e-10
 58.91036     80.3 9.737e+03 3.321e-10
 58.93680     83.4 9.533e+03 2.777e-10
 58.97696     86.8 9.623e+03 2.765e-10
 59.00698     89.6 9.763e+03 2.926e-10
 59.02696     90.8 1.003e+04 3.142e-10
 59.04704     91.7 1.039e+04 3.799e-10
 59.06544     92.5 1.083e+04 5.199e-10
 59.07548     94.0 1.045e+04 4.266e-10
 59.08720     94.9 1.100e+04 5.985e-10
 59.10728     95.7 1.176e+04 9.019e-10
 59.12735     96.0 1.284e+04 1.507e-09
 59.14743     95.9 1.431e+04 2.688e-09
 59.15809     96.2 1.573e+04 4.712e-09
 59.16813     97.2 1.561e+04 4.227e-09
 59.18759     98.1 1.690e+04 7.310e-09
 59.20767     99.5 1.791e+04 1.077e-08
 59.22775    100.6 1.865e+04 1.354e-08
 59.24070    101.6 1.915e+04 1.478e-08
 59.25074    103.5 1.906e+04 1.456e-08
 59.26791    104.5 1.937e+04 1.394e-08
 59.28798    104.9 1.984e+04 1.228e-08
 59.30300    104.9 2.106e+04 1.305e-08
 59.31299    103.1 2.241e+04 1.391e-08
 59.32303     97.7 2.637e+04 1.804e-08
 59.32823     88.2 3.030e+04 3.965e-08
 59.33325     90.3 3.100e+04 3.550e-08
 59.34310     84.8 2.844e+04 7.304e-08
 59.35314     84.6 2.338e+04 1.412e-07
 59.36318     85.7 2.187e+04 1.657e-07
 59.36954     87.1 2.206e+04 1.531e-07
 59.37456     86.8 2.227e+04 1.811e-07
 59.38326     88.3 2.267e+04 1.443e-07
 59.39330     89.1 2.434e+04 8.021e-08
 59.40334     88.2 2.956e+04 2.809e-08
 59.41084     80.8 3.624e+04 6.538e-09
 59.41586     81.8 3.644e+04 7.509e-09
 59.42342     65.4 2.794e+04 1.672e-09
 59.43346     52.8 1.380e+04 1.069e-09
 59.44857     50.0 1.314e+04 8.916e-10
 59.46869     42.5 1.492e+04 1.058e-09
 59.48853     33.6 1.610e+04 2.404e-09
 59.49857     33.7 1.574e+04 1.741e-09
 59.50885     29.1 1.608e+04 4.430e-09
 59.52893     27.7 1.669e+04 7.322e-09
 59.54590     26.5 1.720e+04 8.185e-09
 59.55594     28.4 1.781e+04 9.952e-09
 59.56909     25.6 1.821e+04 8.352e-09
 59.58118     19.0 1.691e+04 3.330e-09
 59.59122     19.3 1.705e+04 3.522e-09
 59.60925      8.2 1.338e+04 1.508e-09
 59.62933      1.5 1.243e+04 1.280e-09
 59.64940     -2.2 1.307e+04 1.528e-09
 59.66379     -5.6 1.358e+04 2.092e-09
 59.67383     -4.9 1.337e+04 1.930e-09
 59.68956     -7.5 1.345e+04 2.055e-09
 59.70964     -9.6 1.337e+04 1.995e-09
 59.72972    -11.6 1.310e+04 1.615e-09
 59.74640    -14.3 1.252e+04 1.095e-09
 59.75644    -15.3 1.180e+04 7.397e-10
 59.76988    -19.0 1.063e+04 4.483e-10
 59.78996    -22.2 9.674e+03 3.110e-10
 59.81004    -24.2 9.439e+03 2.764e-10
 59.82901    -26.0 9.460e+03 2.738e-10
 59.83905    -26.5 9.512e+03 2.783e-10
 59.85019    -29.6 1.004e+04 3.413e-10
 59.87027    -33.4 1.083e+04 5.053e-10
 59.89035    -36.8 1.156e+04 7.895e-10
 59.91043    -39.6 1.224e+04 1.165e-09
 59.92166    -42.5 1.297e+04 1.551e-09
 59.93170    -43.4 1.311e+04 1.593e-09
 59.95059    -47.4 1.396e+04 1.885e-09
 59.97067    -52.6 1.515e+04 2.283e-09
 59.99075    -58.2 1.638e+04 3.046e-09
 60.00427    -63.0 1.719e+04 4.317e-09
 60.01431    -63.8 1.691e+04 3.674e-09
 60.03090    -67.0 1.729e+04 4.826e-09
 60.05098    -69.1 1.738e+04 5.629e-09
 60.07106    -70.7 1.734e+04 5.828e-09
 60.08688    -72.1 1.678e+04 5.304e-09
 60.09692    -72.8 1.611e+04 3.954e-09
 60.11122    -73.8 1.516e+04 2.947e-09
 60.13130    -75.0 1.408e+04 1.876e-09
 60.15138    -76.4 1.303e+04 1.105e-09
 60.16949    -78.0 1.200e+04 6.441e-10
 60.17953    -78.4 1.167e+04 4.998e-10
 60.19153    -79.1 1.146e+04 4.351e-10
 60.22175    -79.9 1.111e+04 3.743e-10
 60.25229    -79.1 1.070e+04 3.300e-10
 60.27237    -78.3 1.022e+04 2.514e-10
 60.30216    -78.2 1.018e+04 2.506e-10
 60.34232    -78.8 1.085e+04 3.973e-10
 60.38248    -80.6 1.270e+04 9.296e-10
 60.41250    -82.3 1.416e+04 1.862e-09
 60.42736    -84.2 1.480e+04 2.623e-09
 60.43740    -84.6 1.490e+04 2.622e-09
 60.45256    -86.6 1.518e+04 3.165e-09
 60.47264    -88.4 1.523e+04 3.248e-09
 60.49272    -89.7 1.511e+04 3.203e-09
 60.50997    -90.8 1.448e+04 2.745e-09
 60.52001    -92.1 1.451e+04 2.734e-09
 60.53287    -93.6 1.384e+04 2.311e-09
 60.55295    -94.9 1.329e+04 2.006e-09
 60.57303    -95.9 1.290e+04 1.767e-09
 60.59258    -96.5 1.258e+04 1.546e-09
 60.60262    -98.4 1.275e+04 1.679e-09
 60.61319    -98.8 1.246e+04 1.455e-09
 60.63327    -99.3 1.212e+04 1.225e-09
 60.65335    -99.7 1.178e+04 1.035e-09
 60.67343   -100.1 1.154e+04 9.291e-10
 60.68523   -100.5 1.149e+04 9.014e-10
 60.69527   -102.8 1.183e+04 1.038e-09
 60.71358   -103.5 1.210e+04 1.152e-09
 60.73366   -104.2 1.265e+04 1.453e-09
 60.75374   -104.7 1.332e+04 1.963e-09
 60.76784   -104.9 1.403e+04 2.668e-09
 60.77788   -106.7 1.422e+04 2.951e-09
 60.79390   -106.7 1.476e+04 3.502e-09
 60.81398   -106.8 1.529e+04 4.088e-09
 60.83406   -107.1 1.558e+04 4.398e-09
 60.85045   -107.5 1.567e+04 4.436e-09
 60.86049   -109.5 1.483e+04 3.151e-09
 60.86497   -109.9 1.433e+04 2.705e-09
 60.87501   -111.5 1.421e+04 2.754e-09
 60.89429   -111.7 1.346e+04 2.140e-09
 60.91437   -111.7 1.263e+04 1.606e-09
 60.93306   -111.8 1.191e+04 1.174e-09
 60.94310   -113.5 1.128e+04 8.992e-10
 60.95453   -113.7 1.101e+04 6.802e-10
 60.98475   -114.3 1.064e+04 4.771e-10
 61.02500   -112.6 1.024e+04 3.757e-10
 61.06516   -110.3 9.867e+03 3.147e-10
 61.09847   -107.9 9.649e+03 2.800e-10
 61.11855   -108.1 1.001e+04 3.598e-10
 61.14548   -106.2 9.975e+03 3.410e-10
 61.18563   -104.4 1.001e+04 3.372e-10
 61.21565   -103.4 1.013e+04 3.949e-10
 61.23563   -103.0 1.016e+04 4.205e-10
 61.25571   -102.3 1.020e+04 4.605e-10
 61.27354   -101.6 1.023e+04 4.887e-10
 61.28358   -102.1 1.031e+04 5.403e-10
 61.29587   -101.2 1.035e+04 5.505e-10
 61.31595   -100.2 1.037e+04 5.532e-10
 61.33603    -99.2 1.039e+04 5.477e-10
 61.35611    -98.2 1.042e+04 5.407e-10
 61.37619    -97.8 1.050e+04 5.390e-10
 61.39627    -97.1 1.055e+04 5.367e-10
 61.41634    -96.4 1.072e+04 5.628e-10
 61.43642    -95.9 1.095e+04 6.322e-10
 61.44880    -95.4 1.119e+04 7.434e-10
 61.45884    -96.0 1.127e+04 7.647e-10
 61.47658    -95.3 1.152e+04 9.122e-10
 61.49666    -94.6 1.176e+04 1.067e-09
 61.51447    -93.8 1.194e+04 1.193e-09
 61.52451    -94.8 1.201e+04 1.316e-09
 61.53141    -94.1 1.203e+04 1.329e-09
 61.54145    -94.6 1.201e+04 1.302e-09
 61.55690    -94.0 1.198e+04 1.223e-09
 61.57698    -93.3 1.184e+04 1.110e-09
 61.59705    -92.8 1.168e+04 9.861e-10
 61.61402    -92.3 1.152e+04 8.785e-10
 61.63419    -92.6 1.157e+04 8.704e-10
 61.66753    -91.0 1.134e+04 7.556e-10
 61.70768    -89.6 1.109e+04 6.430e-10
 61.74784    -88.3 1.083e+04 5.469e-10
 61.77943    -87.0 1.052e+04 4.490e-10
 61.79951    -87.2 1.033e+04 4.266e-10
 61.82816    -85.6 1.004e+04 3.549e-10
 61.86831    -83.9 9.929e+03 3.245e-10
 61.90847    -82.2 9.921e+03 3.203e-10
 61.94465    -80.7 1.014e+04 3.700e-10
 61.96473    -80.4 1.015e+04 3.717e-10
 61.98879    -79.1 1.045e+04 4.669e-10
 62.02895    -78.1 1.072e+04 5.812e-10
 62.05897    -77.3 1.098e+04 7.034e-10
 62.07895    -77.1 1.110e+04 7.548e-10
 62.09903    -76.8 1.119e+04 7.943e-10
 62.11910    -76.6 1.121e+04 8.034e-10
 62.12976    -76.3 1.121e+04 8.044e-10
 62.13980    -76.3 1.129e+04 8.510e-10
 62.15926    -75.9 1.118e+04 8.157e-10
 62.17401    -75.3 1.100e+04 7.263e-10
 62.18405    -75.3 1.098e+04 7.125e-10
 62.19942    -74.6 1.078e+04 5.965e-10
 62.21237    -74.0 1.058e+04 4.899e-10
 62.22241    -74.1 1.061e+04 4.984e-10
 62.23958    -73.4 1.045e+04 4.245e-10
 62.26979    -72.6 1.028e+04 3.637e-10
 62.29517    -70.5 9.861e+03 2.632e-10
 62.31525    -70.4 9.942e+03 2.720e-10
 62.35021    -68.1 9.574e+03 2.060e-10
 62.39036    -65.8 9.327e+03 1.683e-10
 62.43052    -63.5 9.191e+03 1.473e-10
 62.46039    -61.2 9.112e+03 1.362e-10
 62.48047    -61.3 9.403e+03 1.766e-10
 62.51084    -59.0 9.385e+03 1.754e-10
 62.55100    -56.8 9.376e+03 1.799e-10
 62.59115    -54.5 9.441e+03 1.917e-10
 62.62561    -52.3 9.491e+03 2.097e-10
 62.64569    -52.8 9.885e+03 2.909e-10
 62.67147    -50.7 9.919e+03 3.061e-10
 62.71163    -48.6 9.940e+03 3.200e-10
 62.75178    -46.5 9.945e+03 3.301e-10
 62.79083    -44.4 9.939e+03 3.365e-10
 62.81091    -45.1 1.012e+04 3.701e-10
 62.83210    -42.9 1.011e+04 3.704e-10
 62.87226    -40.7 1.008e+04 3.685e-10
 62.91242    -38.5 1.001e+04 3.599e-10
 62.95257    -36.1 9.935e+03 3.443e-10
 62.97613    -33.7 9.897e+03 3.346e-10
 62.99621    -34.4 1.011e+04 3.776e-10
 63.03289    -32.0 1.020e+04 3.919e-10
 63.07305    -30.0 1.032e+04 4.241e-10
 63.11320    -28.1 1.039e+04 4.673e-10
 63.14135    -25.8 1.047e+04 5.406e-10
 63.16143    -26.9 1.060e+04 5.747e-10
 63.19352    -24.9 1.067e+04 6.341e-10
 63.23368    -23.0 1.074e+04 6.788e-10
 63.27383    -21.4 1.070e+04 6.638e-10
 63.30657    -19.9 1.050e+04 5.946e-10
 63.32665    -21.1 1.041e+04 5.444e-10
 63.35415    -19.3 1.023e+04 4.994e-10
 63.39431    -17.3 1.006e+04 4.425e-10
 63.42433    -15.7 1.008e+04 4.317e-10
 63.44431    -14.9 9.981e+03 4.145e-10
 63.46439    -13.5 9.915e+03 4.014e-10
 63.48164    -12.1 9.865e+03 3.910e-10
 63.49025    -12.3 9.947e+03 4.004e-10
 63.49308    -12.2 1.001e+04 4.113e-10
 63.50455    -10.6 1.003e+04 4.083e-10
 63.52463     -9.1 1.007e+04 4.063e-10
 63.54470     -7.5 1.006e+04 4.058e-10
 63.56425     -6.0 1.009e+04 4.096e-10
 63.57428     -6.8 1.032e+04 4.336e-10
 63.58486     -8.3 1.215e+04 6.452e-10
 63.60494    -12.6 1.640e+04 1.478e-09
 63.61554    -12.9 1.672e+04 2.200e-09
 63.62051    -15.6 1.752e+04 2.934e-09
 63.62994    -17.9 1.877e+04 5.113e-09
 63.63998    -18.9 1.940e+04 9.397e-09
 63.65002    -19.2 1.972e+04 1.253e-08
 63.65680    -19.4 2.036e+04 2.008e-08
 63.66182    -19.7 2.012e+04 2.047e-08
 63.67010    -19.3 2.037e+04 2.489e-08
 63.68014    -18.8 2.065e+04 2.875e-08
 63.69018    -18.7 2.072e+04 2.854e-08
 63.69810    -18.6 2.067e+04 2.419e-08
 63.70312    -19.6 2.021e+04 1.881e-08
 63.71026    -20.4 2.004e+04 1.398e-08
 63.72536    -21.8 1.997e+04 8.909e-09
 63.73951    -26.2 1.763e+04 4.298e-09
 63.74954    -29.6 1.466e+04 3.074e-09
 63.76557    -30.8 1.363e+04 2.483e-09
 63.78565    -30.4 1.340e+04 2.278e-09
 63.80573    -29.6 1.325e+04 2.177e-09
 63.82212    -28.5 1.322e+04 2.160e-09
 63.83215    -28.1 1.330e+04 2.222e-09
 63.84589    -27.3 1.333e+04 2.254e-09
 63.86597    -26.5 1.336e+04 2.337e-09
 63.88604    -25.6 1.343e+04 2.478e-09
 63.90473    -24.7 1.354e+04 2.638e-09
 63.91476    -24.5 1.345e+04 2.516e-09
 63.92620    -23.8 1.346e+04 2.557e-09
 63.94628    -22.9 1.343e+04 2.547e-09
 63.96636    -22.1 1.338e+04 2.469e-09
 63.98644    -21.3 1.333e+04 2.340e-09
 63.99737    -20.7 1.325e+04 2.183e-09
 64.00741    -20.4 1.285e+04 1.910e-09
 64.02660    -19.9 1.271e+04 1.778e-09
 64.04668    -19.2 1.261e+04 1.701e-09
 64.06675    -18.5 1.257e+04 1.681e-09
 64.07998    -17.8 1.259e+04 1.708e-09
 64.09002    -17.2 1.229e+04 1.492e-09
 64.10691    -16.3 1.232e+04 1.537e-09
 64.12699    -15.3 1.241e+04 1.629e-09
 64.14257    -14.3 1.258e+04 1.775e-09
 64.15261    -14.6 1.281e+04 2.078e-09
 64.16259    -13.7 1.297e+04 2.282e-09
 64.17263    -13.1 1.279e+04 2.069e-09
 64.18723    -12.0 1.302e+04 2.362e-09
 64.20731    -11.1 1.317e+04 2.560e-09
 64.22739    -10.2 1.322e+04 2.716e-09
 64.24520     -9.0 1.313e+04 2.732e-09
 64.25524     -8.4 1.339e+04 2.893e-09
 64.26754     -7.3 1.336e+04 3.016e-09
 64.28762     -6.3 1.323e+04 2.952e-09
 64.30770     -5.2 1.315e+04 2.883e-09
 64.32778     -4.2 1.303e+04 2.787e-09
 64.34786     -2.7 1.347e+04 3.393e-09
 64.36794     -1.7 1.322e+04 3.143e-09
 64.38802     -0.6 1.295e+04 2.754e-09
 64.40810      0.4 1.268e+04 2.320e-09
 64.42046      1.3 1.247e+04 1.935e-09
 64.43050      2.1 1.307e+04 2.629e-09
 64.44825      2.5 1.301e+04 2.258e-09
 64.46833      2.5 1.298e+04 2.056e-09
 64.48841      2.4 1.298e+04 1.978e-09
 64.50307      2.0 1.340e+04 2.148e-09
 64.51311      2.2 1.464e+04 3.186e-09
 64.52857      1.1 1.551e+04 3.731e-09
 64.54358     -0.7 1.625e+04 4.342e-09
 64.54930     -1.8 1.698e+04 5.000e-09
 64.55432     -2.9 1.810e+04 6.419e-09
 64.56361     -4.9 1.882e+04 8.523e-09
 64.57365     -6.3 1.893e+04 1.056e-08
 64.58369     -6.8 1.872e+04 1.229e-08
 64.59061     -7.0 1.851e+04 1.322e-08
 64.59563     -7.6 1.882e+04 1.422e-08
 64.60377     -7.7 1.847e+04 1.424e-08
 64.61381     -7.8 1.815e+04 1.340e-08
 64.62385     -7.9 1.784e+04 1.180e-08
 64.63191     -8.1 1.746e+04 9.686e-09
 64.63693     -8.7 1.758e+04 9.436e-09
 64.64392     -9.0 1.730e+04 7.827e-09
 64.65396     -9.2 1.717e+04 6.551e-09
 64.66825    -10.9 1.651e+04 4.259e-09
 64.67833    -13.0 1.642e+04 3.864e-09
 64.68920    -16.7 1.457e+04 2.306e-09
 64.70928    -19.8 1.258e+04 1.447e-09
 64.72936    -20.9 1.145e+04 1.179e-09
 64.74944    -20.9 1.105e+04 1.072e-09
 64.76094    -20.5 1.084e+04 9.720e-10
 64.77098    -21.3 1.123e+04 1.094e-09
 64.78959    -21.0 1.103e+04 9.585e-10
 64.80211    -21.0 1.079e+04 8.033e-10
 64.81215    -22.0 9.983e+03 5.482e-10
 64.82975    -22.4 9.670e+03 4.695e-10
 64.84355    -22.8 9.480e+03 4.460e-10
 64.85359    -23.5 9.690e+03 4.963e-10
 64.86991    -23.8 9.608e+03 5.105e-10
 64.88999    -24.1 9.879e+03 6.282e-10
 64.91007    -24.2 1.026e+04 8.084e-10
 64.92616    -24.0 1.068e+04 1.039e-09
 64.93620    -24.5 1.097e+04 1.206e-09
 64.95022    -24.2 1.142e+04 1.488e-09
 64.97030    -23.9 1.170e+04 1.703e-09
 64.99038    -23.7 1.182e+04 1.784e-09
 65.00877    -23.6 1.181e+04 1.789e-09
 65.01881    -24.2 1.194e+04 1.798e-09
 65.03054    -24.2 1.185e+04 1.654e-09
 65.05062    -24.4 1.164e+04 1.417e-09
 65.07070    -25.0 1.134e+04 1.156e-09
 65.09078    -25.9 1.093e+04 9.244e-10
 65.10142    -27.0 1.061e+04 7.777e-10
 65.11146    -28.2 1.061e+04 7.707e-10
 65.13093    -29.2 1.058e+04 7.445e-10
 65.15101    -30.0 1.067e+04 7.430e-10
 65.17109    -30.5 1.086e+04 7.936e-10
 65.18403    -30.8 1.098e+04 8.611e-10
 65.19407    -32.0 1.099e+04 8.732e-10
 65.21125    -31.9 1.098e+04 8.854e-10
 65.23133    -31.4 1.072e+04 8.645e-10
 65.25141    -30.6 1.044e+04 7.613e-10
 65.26664    -30.1 1.018e+04 6.197e-10
 65.27668    -31.1 1.020e+04 6.292e-10
 65.29157    -30.9 9.978e+03 4.956e-10
 65.31164    -31.0 9.805e+03 3.981e-10
 65.33172    -30.9 9.602e+03 3.281e-10
 65.34935    -30.3 9.290e+03 2.617e-10
 65.36953    -31.4 9.642e+03 3.597e-10
 65.40219    -29.6 9.276e+03 3.026e-10
 65.44235    -27.7 9.071e+03 2.758e-10
 65.48251    -25.8 9.010e+03 2.636e-10
 65.51467    -23.8 8.953e+03 2.540e-10
 65.53475    -24.6 9.225e+03 3.141e-10
 65.56283    -22.3 9.130e+03 2.971e-10
 65.60298    -20.0 9.072e+03 2.862e-10
 65.64314    -17.7 9.059e+03 2.832e-10
 65.67989    -15.4 9.119e+03 2.923e-10
 65.69997    -15.8 9.364e+03 3.638e-10
 65.72346    -13.5 9.566e+03 4.108e-10
 65.76361    -11.6 9.883e+03 4.967e-10
 65.80377     -9.8 1.028e+04 6.373e-10
 65.84393     -8.2 1.072e+04 8.597e-10
 65.86509     -7.1 1.117e+04 1.170e-09
 65.87503     -7.3 1.134e+04 1.188e-09
 65.89393     -6.8 1.157e+04 1.316e-09
 65.91401     -6.2 1.183e+04 1.433e-09
 65.93409     -6.1 1.192e+04 1.466e-09
 65.94760     -6.0 1.194e+04 1.454e-09
 65.95764     -6.5 1.195e+04 1.456e-09
 65.97425     -6.5 1.182e+04 1.386e-09
 65.99433     -6.4 1.163e+04 1.262e-09
 66.01440     -6.3 1.137e+04 1.094e-09
 66.03021     -6.2 1.112e+04 9.206e-10
 66.04025     -6.6 1.110e+04 9.134e-10
 66.05456     -6.3 1.083e+04 7.390e-10
 66.07464     -6.1 1.052e+04 5.747e-10
 66.09472     -6.0 1.029e+04 4.497e-10
 66.11124     -6.1 9.957e+03 3.295e-10
 66.13142     -5.9 9.983e+03 3.288e-10
 66.16519     -5.6 9.892e+03 2.857e-10
 66.19563     -5.6 1.015e+04 3.048e-10
 66.21571     -5.4 9.973e+03 2.628e-10
 66.24551     -5.3 1.052e+04 4.235e-10
 66.27553     -5.3 1.067e+04 6.446e-10
 66.28808     -4.5 1.089e+04 7.934e-10
 66.29812     -4.6 1.084e+04 7.127e-10
 66.31559     -4.1 1.104e+04 8.030e-10
 66.33567     -3.5 1.108e+04 8.486e-10
 66.35574     -2.9 1.103e+04 7.939e-10
 66.37069     -2.2 1.090e+04 6.539e-10
 66.38073     -2.7 1.112e+04 7.867e-10
 66.39590     -2.0 1.097e+04 6.389e-10
 66.41598     -1.4 1.083e+04 4.852e-10
 66.43606     -1.0 1.074e+04 3.560e-10
 66.45330     -0.8 1.071e+04 3.190e-10
 66.46334     -0.4 1.081e+04 3.662e-10
 66.48636     -0.3 1.065e+04 2.826e-10
 66.52607      1.2 1.043e+04 2.451e-10
 66.54615      0.9 1.067e+04 3.059e-10
 66.56677      3.0 1.043e+04 2.571e-10
 66.60693      5.3 1.026e+04 2.241e-10
 66.64708      7.6 1.024e+04 2.133e-10
 66.68724     10.1 1.034e+04 2.186e-10
 66.71137     12.1 1.054e+04 2.316e-10
 66.73145     12.2 1.056e+04 2.296e-10
 66.76756     14.0 1.072e+04 2.839e-10
 66.80771     16.1 1.087e+04 4.030e-10
 66.84787     18.5 1.105e+04 5.474e-10
 66.87659     21.2 1.118e+04 6.214e-10
 66.89667     21.6 1.117e+04 5.444e-10
 66.92819     24.1 1.112e+04 4.750e-10
 66.96835     26.0 1.109e+04 3.304e-10
 67.00850     27.3 1.087e+04 2.665e-10
 67.04181     29.1 1.067e+04 2.402e-10
 67.06189     30.0 1.065e+04 2.444e-10
 67.08882     32.3 1.049e+04 2.095e-10
 67.12898     34.5 1.045e+04 1.706e-10
 67.16913     36.5 1.039e+04 1.574e-10
 67.20703     38.5 1.032e+04 1.610e-10
 67.22711     39.4 1.034e+04 1.594e-10
 67.24945     41.6 1.029e+04 1.783e-10
 67.28961     43.9 1.030e+04 2.015e-10
 67.32976     46.3 1.033e+04 2.173e-10
 67.36992     48.5 1.035e+04 2.168e-10
 67.39233     50.6 1.029e+04 2.076e-10
 67.41241     51.9 1.037e+04 2.195e-10
 67.43041     53.7 1.037e+04 2.261e-10
 67.45049     54.1 1.047e+04 2.271e-10
 67.49040     55.6 1.072e+04 2.807e-10
 67.53055     56.5 1.104e+04 4.031e-10
 67.55745     57.2 1.103e+04 5.153e-10
 67.56739     57.8 1.128e+04 5.856e-10
 67.58056     58.5 1.130e+04 7.628e-10
 67.60063     59.5 1.139e+04 9.184e-10
 67.62071     60.5 1.150e+04 9.344e-10
 67.63996     61.3 1.157e+04 8.828e-10
 67.65000     61.8 1.196e+04 1.239e-09
 67.66087     62.4 1.207e+04 1.085e-09
 67.68095     62.5 1.208e+04 8.591e-10
 67.70103     62.1 1.202e+04 6.807e-10
 67.72111     61.7 1.172e+04 5.545e-10
 67.73261     61.5 1.139e+04 4.919e-10
 67.74265     61.8 1.198e+04 7.691e-10
 67.76127     61.9 1.168e+04 7.166e-10
 67.78134     62.3 1.152e+04 6.784e-10
 67.80142     62.9 1.141e+04 6.198e-10
 67.81522     63.7 1.134e+04 5.463e-10
 67.82526     63.6 1.209e+04 1.083e-09
 67.84158     64.5 1.196e+04 9.072e-10
 67.86166     65.3 1.181e+04 6.958e-10
 67.88174     65.6 1.163e+04 5.018e-10
 67.89783     65.4 1.145e+04 3.622e-10
 67.90787     66.7 1.240e+04 7.318e-10
 67.92190     66.1 1.218e+04 4.665e-10
 67.94198     65.1 1.174e+04 3.493e-10
 67.96205     64.4 1.127e+04 3.240e-10
 67.98044     64.1 1.122e+04 3.394e-10
 67.99048     63.9 1.173e+04 4.655e-10
 68.00221     63.2 1.173e+04 5.155e-10
 68.02229     63.1 1.179e+04 6.130e-10
 68.04237     63.0 1.199e+04 8.029e-10
 68.06245     63.4 1.221e+04 9.911e-10
 68.07319     63.9 1.232e+04 1.203e-09
 68.09337     63.0 1.283e+04 1.666e-09
 68.13292     64.7 1.231e+04 1.341e-09
 68.17308     66.8 1.158e+04 7.300e-10
 68.21323     68.2 1.113e+04 3.189e-10
 68.23851     68.5 1.097e+04 1.439e-10
 68.25859     68.3 1.095e+04 1.662e-10
 68.29355     69.2 1.039e+04 1.333e-10
 68.33371     70.9 1.034e+04 1.347e-10
 68.37387     72.8 1.028e+04 1.473e-10
 68.40373     74.6 1.027e+04 1.795e-10
 68.42381     74.9 1.029e+04 2.015e-10
 68.45418     76.6 1.032e+04 2.307e-10
 68.49434     78.1 1.035e+04 2.525e-10
 68.53450     79.5 1.035e+04 2.519e-10
 68.56895     80.7 1.034e+04 2.423e-10
 68.58903     81.1 1.027e+04 2.353e-10
 68.61481     82.3 1.019e+04 2.037e-10
 68.65497     83.5 1.011e+04 1.735e-10
 68.69513     84.6 9.992e+03 1.622e-10
 68.72940     85.8 9.966e+03 1.644e-10
 68.74836     86.3 9.929e+03 1.632e-10
 68.75425     86.9 9.892e+03 1.490e-10
 68.77544     88.1 9.862e+03 1.525e-10
 68.81560     89.3 9.834e+03 1.642e-10
 68.85576     90.5 9.829e+03 1.815e-10
 68.89592     91.6 9.852e+03 2.045e-10
 68.91947     92.5 9.892e+03 2.277e-10
 68.93954     93.4 9.962e+03 2.284e-10
 68.97623     94.0 1.000e+04 2.441e-10
 69.01639     94.6 9.919e+03 2.475e-10
 69.05655     95.1 9.852e+03 2.408e-10
 69.08469     95.6 9.861e+03 2.436e-10
 69.10476     96.4 1.003e+04 2.810e-10
 69.13686     96.5 1.019e+04 3.220e-10
 69.16688     96.0 1.030e+04 3.506e-10
 69.17714     95.8 1.033e+04 3.658e-10
 69.18718     95.8 1.041e+04 4.208e-10
 69.20694     95.1 1.067e+04 5.668e-10
 69.22702     94.6 1.100e+04 8.074e-10
 69.24710     94.3 1.134e+04 1.105e-09
 69.25975     94.2 1.159e+04 1.308e-09
 69.26979     94.2 1.183e+04 1.489e-09
 69.28726     93.9 1.181e+04 1.461e-09
 69.30734     93.7 1.163e+04 1.299e-09
 69.32742     93.4 1.134e+04 9.859e-10
 69.34236     92.7 1.112e+04 6.571e-10
 69.35240     92.1 1.120e+04 6.492e-10
 69.36757     90.1 1.091e+04 4.204e-10
 69.38765     88.0 1.048e+04 3.355e-10
 69.39878     86.4 1.043e+04 3.384e-10
 69.40882     86.9 1.047e+04 3.227e-10
 69.42497     86.1 1.045e+04 3.320e-10
 69.43501     85.2 1.047e+04 3.647e-10
 69.45803     83.0 1.091e+04 5.774e-10
 69.49828     81.7 1.118e+04 8.147e-10
 69.53844     80.2 1.123e+04 8.543e-10
 69.57860     78.8 1.099e+04 7.095e-10
 69.60042     77.1 1.052e+04 4.755e-10
 69.62050     75.6 1.033e+04 3.906e-10
 69.65891     73.7 9.706e+03 2.693e-10
 69.69907     72.8 9.626e+03 2.663e-10
 69.73923     71.9 9.769e+03 2.982e-10
 69.76565     71.1 1.015e+04 4.337e-10
 69.78572     70.8 9.691e+03 3.069e-10
 69.81954     70.6 1.001e+04 4.306e-10
 69.85970     70.4 1.014e+04 4.969e-10
 69.89986     70.0 1.014e+04 5.003e-10
 69.93087     69.6 1.012e+04 5.004e-10
 69.95094     69.9 9.791e+03 3.921e-10
 69.98017     69.5 9.962e+03 4.554e-10
 70.02033     69.5 1.019e+04 5.622e-10
 70.04837     69.6 1.025e+04 6.158e-10
 70.05832     69.6 1.027e+04 6.187e-10
 70.07033     69.9 1.030e+04 6.446e-10
 70.09041     70.1 1.022e+04 5.759e-10
 70.10593     70.1 1.014e+04 5.091e-10
 70.11597     70.3 1.006e+04 4.868e-10
 70.13057     69.6 1.003e+04 3.920e-10
 70.15065     68.9 9.967e+03 3.542e-10
 70.17073     67.8 9.943e+03 3.505e-10
 70.18854     66.4 1.001e+04 3.721e-10
 70.19858     66.3 1.006e+04 3.921e-10
 70.21089     64.2 1.054e+04 5.242e-10
 70.23097     62.2 1.121e+04 7.900e-10
 70.25104     60.7 1.170e+04 1.132e-09
 70.27112     59.8 1.198e+04 1.393e-09
 70.29120     57.8 1.258e+04 1.716e-09
 70.31128     56.4 1.260e+04 1.636e-09
 70.33136     54.3 1.268e+04 1.554e-09
 70.35144     52.6 1.251e+04 1.442e-09
 70.36380     50.3 1.270e+04 1.523e-09
 70.37384     49.6 1.257e+04 1.454e-09
 70.39160     48.4 1.242e+04 1.450e-09
 70.41168     47.0 1.249e+04 1.541e-09
 70.43175     46.2 1.251e+04 1.588e-09
 70.44641     45.1 1.265e+04 1.686e-09
 70.45645     43.9 1.255e+04 1.583e-09
 70.47191     43.2 1.264e+04 1.746e-09
 70.49199     42.6 1.282e+04 1.928e-09
 70.51207     42.1 1.295e+04 1.995e-09
 70.52902     41.5 1.301e+04 2.014e-09
 70.53906     41.0 1.282e+04 1.892e-09
 70.55223     40.9 1.250e+04 1.659e-09
 70.57231     40.8 1.199e+04 1.284e-09
 70.59238     40.5 1.150e+04 9.387e-10
 70.61173     40.4 1.123e+04 6.406e-10
 70.63190     38.7 1.061e+04 4.205e-10
 70.66286     38.1 9.837e+03 2.538e-10
 70.70301     37.9 9.452e+03 1.862e-10
 70.74317     38.3 9.311e+03 1.505e-10
 70.77704     39.1 9.223e+03 1.268e-10
 70.79712     38.7 9.230e+03 1.400e-10
 70.82349     39.7 9.129e+03 1.327e-10
 70.86364     40.8 9.099e+03 1.323e-10
 70.90380     41.6 9.195e+03 1.420e-10
 70.94226     42.4 9.360e+03 1.757e-10
 70.96234     42.3 9.360e+03 1.815e-10
 70.98412     43.3 9.578e+03 2.290e-10
 71.02428     44.3 1.002e+04 3.158e-10
 71.04486     44.5 1.020e+04 3.906e-10
 71.05480     44.1 1.024e+04 3.867e-10
 71.07428     44.4 1.036e+04 4.757e-10
 71.09436     44.9 1.064e+04 6.050e-10
 71.11444     44.8 1.113e+04 7.980e-10
 71.12737     44.1 1.192e+04 1.176e-09
 71.13741     43.5 1.211e+04 1.406e-09
 71.15459     42.6 1.285e+04 2.279e-09
 71.17467     42.6 1.362e+04 3.583e-09
 71.19475     42.8 1.443e+04 4.986e-09
 71.20998     42.3 1.551e+04 6.383e-09
 71.22002     41.8 1.558e+04 6.282e-09
 71.23491     40.4 1.609e+04 7.072e-09
 71.24992     39.1 1.606e+04 7.412e-09
 71.25621     38.9 1.591e+04 7.327e-09
 71.26123     38.6 1.568e+04 6.938e-09
 71.26995     38.0 1.549e+04 6.498e-09
 71.27999     37.1 1.563e+04 6.333e-09
 71.29003     34.3 1.670e+04 6.788e-09
 71.29751     29.3 1.920e+04 8.324e-09
 71.30253     26.7 2.019e+04 9.382e-09
 71.31011     22.7 1.970e+04 1.212e-08
 71.32015     22.2 1.985e+04 1.259e-08
 71.33525     18.2 1.888e+04 1.876e-08
 71.35538     16.5 1.899e+04 1.931e-08
 71.36735     15.0 1.899e+04 1.261e-08
 71.37713     12.6 1.761e+04 1.014e-08
 71.38524     11.8 1.649e+04 5.540e-09
 71.39554      9.0 1.448e+04 3.197e-09
 71.41562      7.8 1.342e+04 2.082e-09
 71.43570      6.6 1.313e+04 1.424e-09
 71.45578      5.4 1.255e+04 1.086e-09
 71.46785      4.3 1.214e+04 9.712e-10
 71.47799      5.1 1.185e+04 7.504e-10
 71.50617      4.3 1.166e+04 8.104e-10
 71.54633      4.2 1.173e+04 1.043e-09
 71.58648      4.8 1.192e+04 1.252e-09
 71.61650      5.3 1.180e+04 1.175e-09
 71.63307      5.5 1.169e+04 1.115e-09
 71.64311      6.0 1.191e+04 1.231e-09
 71.65656      6.2 1.163e+04 9.917e-10
 71.67664      6.3 1.139e+04 7.995e-10
 71.69672      5.7 1.107e+04 6.402e-10
 71.71568      5.0 1.102e+04 5.972e-10
 71.72572      4.5 1.173e+04 6.283e-10
 71.73688     -0.0 1.439e+04 8.833e-10
 71.75696     -5.1 1.580e+04 2.014e-09
 71.77704     -7.9 1.607e+04 4.469e-09
 71.79205     -9.4 1.650e+04 6.469e-09
 71.80204    -10.2 1.637e+04 8.417e-09
 71.80823    -10.0 1.611e+04 1.069e-08
 71.81325     -9.1 1.595e+04 1.098e-08
 71.82212     -8.3 1.609e+04 1.139e-08
 71.83216     -7.7 1.629e+04 1.128e-08
 71.84220     -7.3 1.654e+04 9.734e-09
 71.84953     -7.1 1.686e+04 7.737e-09
 71.85455     -7.3 1.731e+04 5.930e-09
 71.86228     -8.3 1.765e+04 4.095e-09
 71.87738    -10.7 1.723e+04 2.680e-09
 71.89094    -14.8 1.581e+04 1.334e-09
 71.90098    -18.2 1.368e+04 6.544e-10
 71.91759    -21.1 1.165e+04 4.496e-10
 71.93767    -22.2 1.103e+04 4.089e-10
 71.95775    -22.7 1.096e+04 4.104e-10
 71.97355    -22.9 1.099e+04 4.347e-10
 71.98359    -23.2 1.092e+04 3.631e-10
 71.99791    -23.1 1.104e+04 3.860e-10
 72.02812    -22.8 1.113e+04 4.125e-10
 72.06838    -22.4 1.128e+04 5.214e-10
 72.10853    -22.0 1.156e+04 6.774e-10
 72.13856    -21.7 1.186e+04 8.037e-10
 72.14881    -22.2 1.213e+04 9.077e-10
 72.15885    -22.9 1.219e+04 9.552e-10
 72.17862    -23.6 1.266e+04 1.285e-09
 72.19869    -24.2 1.308e+04 1.722e-09
 72.21877    -24.6 1.343e+04 2.305e-09
 72.23142    -24.8 1.380e+04 2.895e-09
 72.24146    -24.7 1.366e+04 2.657e-09
 72.25893    -25.0 1.383e+04 2.765e-09
 72.27901    -25.7 1.397e+04 2.531e-09
 72.29909    -26.8 1.398e+04 2.018e-09
 72.31403    -28.7 1.362e+04 1.547e-09
 72.32407    -29.7 1.324e+04 1.235e-09
 72.34938    -32.1 1.260e+04 1.137e-09
 72.38964    -33.0 1.189e+04 9.696e-10
 72.42980    -33.1 1.131e+04 7.258e-10
 72.46940    -33.0 1.081e+04 4.731e-10
 72.48948    -33.6 1.068e+04 3.851e-10
 72.51011    -33.5 1.050e+04 2.906e-10
 72.55027    -33.3 1.044e+04 2.725e-10
 72.59043    -33.4 1.064e+04 2.968e-10
 72.63058    -33.7 1.109e+04 4.069e-10
 72.65470    -34.1 1.155e+04 5.940e-10
 72.67057    -34.6 1.201e+04 8.549e-10
 72.68661    -32.8 1.144e+04 5.179e-10
 72.71090    -33.2 1.198e+04 8.581e-10
 72.75106    -33.7 1.241e+04 1.225e-09
 72.79122    -34.4 1.258e+04 1.381e-09
 72.81992    -35.0 1.238e+04 1.323e-09
 72.84000    -35.6 1.237e+04 1.243e-09
 72.86139    -36.0 1.159e+04 6.929e-10
 72.88138    -35.9 1.144e+04 5.999e-10
 72.90145    -36.6 1.081e+04 3.154e-10
 72.91238    -36.5 1.066e+04 2.678e-10
 72.92242    -36.8 1.061e+04 2.531e-10
 72.95175    -36.6 1.038e+04 1.927e-10
 72.98514    -36.9 9.961e+03 1.448e-10
 73.00522    -37.7 1.002e+04 1.636e-10
 73.03216    -37.3 9.955e+03 1.588e-10
 73.07232    -37.3 1.015e+04 1.734e-10
 73.11248    -37.5 1.039e+04 2.505e-10
 73.15036    -37.6 1.052e+04 3.767e-10
 73.17044    -38.6 1.062e+04 4.371e-10
 73.18266    -38.1 1.054e+04 4.888e-10
 73.20264    -38.1 1.051e+04 4.941e-10
 73.23285    -37.8 1.035e+04 4.826e-10
 73.27311    -37.4 1.009e+04 3.678e-10
 73.31327    -37.0 9.728e+03 2.468e-10
 73.33566    -36.4 9.315e+03 1.684e-10
 73.35574    -37.0 9.397e+03 1.940e-10
 73.39358    -36.1 9.265e+03 1.770e-10
 73.43374    -35.1 9.257e+03 1.770e-10
 73.47390    -34.4 9.524e+03 2.069e-10
 73.50088    -34.0 9.984e+03 3.073e-10
 73.52096    -33.7 9.796e+03 2.495e-10
 73.55421    -33.4 1.026e+04 3.380e-10
 73.59437    -33.4 1.080e+04 4.955e-10
 73.63453    -33.8 1.137e+04 7.529e-10
 73.66610    -34.2 1.190e+04 1.071e-09
 73.68618    -34.1 1.130e+04 6.903e-10
 73.71484    -34.1 1.186e+04 1.017e-09
 73.75500    -34.2 1.216e+04 1.154e-09
 73.79516    -34.5 1.221e+04 1.081e-09
 73.83132    -34.5 1.199e+04 7.860e-10
 73.85140    -34.1 1.191e+04 7.920e-10
 73.87547    -34.2 1.167e+04 5.872e-10
 73.91563    -34.3 1.147e+04 4.385e-10
 73.95579    -34.0 1.126e+04 3.278e-10
 73.98561    -33.1 1.106e+04 2.436e-10
 74.00569    -34.1 1.102e+04 2.656e-10
 74.01662    -33.0 1.085e+04 1.821e-10
 74.03670    -32.8 1.089e+04 2.252e-10
 74.07626    -31.9 1.078e+04 1.601e-10
 74.11642    -31.0 1.071e+04 1.309e-10
 74.15658    -30.1 1.069e+04 1.251e-10
 74.18184    -29.2 1.065e+04 1.301e-10
 74.20192    -29.2 1.078e+04 1.751e-10
 74.23689    -28.3 1.080e+04 2.014e-10
 74.27705    -27.1 1.083e+04 2.196e-10
 74.31721    -25.9 1.084e+04 2.235e-10
 74.34706    -24.6 1.080e+04 2.091e-10
 74.36714    -24.8 1.085e+04 2.406e-10
 74.39752    -23.5 1.082e+04 1.927e-10
 74.43768    -22.3 1.086e+04 1.574e-10
 74.47784    -21.4 1.092e+04 1.486e-10
 74.51228    -21.1 1.107e+04 1.646e-10
 74.53236    -21.8 1.108e+04 2.093e-10
 74.55816    -21.7 1.129e+04 3.798e-10
 74.59831    -20.9 1.169e+04 6.375e-10
 74.63847    -20.2 1.214e+04 8.477e-10
 74.67750    -20.1 1.250e+04 8.137e-10
 74.69758    -21.0 1.217e+04 4.241e-10
 74.71879    -23.0 1.197e+04 2.452e-10
 74.75894    -25.9 1.111e+04 1.965e-10
 74.79910    -28.4 1.090e+04 1.959e-10
 74.83926    -30.0 1.097e+04 2.377e-10
 74.86280    -30.8 1.090e+04 2.697e-10
 74.88288    -30.6 1.097e+04 3.042e-10
 74.91958    -31.0 1.093e+04 3.236e-10
 74.95973    -31.0 1.069e+04 2.797e-10
 74.99989    -31.2 1.058e+04 1.848e-10
 75.02802    -31.9 1.055e+04 1.366e-10
 75.04810    -32.3 1.069e+04 1.796e-10
 75.08021    -33.1 1.064e+04 1.701e-10
 75.12036    -33.5 1.068e+04 1.979e-10
 75.16052    -33.4 1.079e+04 2.615e-10
 75.19324    -32.7 1.082e+04 3.051e-10
 75.21332    -32.8 1.086e+04 2.902e-10
 75.24084    -32.2 1.075e+04 2.636e-10
 75.28099    -31.8 1.072e+04 2.476e-10
 75.30468    -31.5 1.073e+04 2.520e-10
 75.32476    -31.7 1.080e+04 3.068e-10
 75.35846    -31.5 1.089e+04 3.912e-10
 75.37854    -31.7 1.083e+04 3.286e-10
 75.40147    -31.0 1.101e+04 4.403e-10
 75.44163    -30.7 1.143e+04 5.404e-10
 75.48178    -32.4 1.255e+04 7.296e-10
 75.51180    -37.9 1.494e+04 1.343e-09
 75.53179    -41.1 1.546e+04 2.845e-09
 75.54356    -41.9 1.537e+04 5.015e-09
 75.55360    -42.2 1.597e+04 7.747e-09
 75.57194    -40.8 1.590e+04 8.346e-09
 75.59202    -39.5 1.510e+04 5.994e-09
 75.61210    -38.6 1.408e+04 2.920e-09
 75.62617    -38.6 1.321e+04 9.056e-10
 75.63621    -40.2 1.325e+04 6.490e-10
 75.65226    -45.9 1.160e+04 2.119e-10
 75.67234    -48.5 1.040e+04 1.507e-10
 75.69242    -48.7 1.013e+04 1.448e-10
 75.70888    -48.3 1.005e+04 1.426e-10
 75.72906    -47.9 9.993e+03 1.436e-10
 75.76289    -46.7 9.798e+03 1.373e-10
 75.80305    -45.8 9.736e+03 1.333e-10
 75.84320    -44.9 9.677e+03 1.293e-10
 75.87420    -44.0 9.634e+03 1.240e-10
 75.89428    -43.2 9.680e+03 1.298e-10
 75.92352    -42.2 9.635e+03 1.259e-10
 75.96368    -41.2 9.617e+03 1.167e-10
 76.00383    -40.1 9.589e+03 1.055e-10
 76.03942    -39.1 9.530e+03 9.528e-11
 76.05950    -38.1 9.569e+03 9.758e-11
 76.08415    -37.1 9.498e+03 8.913e-11
 76.12431    -36.1 9.415e+03 8.578e-11
 76.16446    -35.0 9.347e+03 8.602e-11
 76.20462    -33.9 9.292e+03 9.160e-11
 76.24478    -31.3 9.351e+03 1.262e-10
 76.28494    -29.9 9.365e+03 1.300e-10
 76.32510    -28.5 9.357e+03 1.297e-10
 76.36525    -27.2 9.341e+03 1.225e-10
 76.38994    -26.1 9.348e+03 1.135e-10
 76.41002    -24.9 9.410e+03 1.279e-10
 76.44557    -24.0 9.421e+03 1.218e-10
 76.48573    -23.2 9.461e+03 1.234e-10
 76.52588    -22.5 9.488e+03 1.419e-10
 76.55516    -21.8 9.505e+03 1.625e-10
 76.57524    -20.5 9.549e+03 1.578e-10
 76.60367    -20.0 9.574e+03 1.737e-10
 76.62375    -19.6 9.452e+03 1.387e-10
 76.64636    -19.1 9.472e+03 1.467e-10
 76.68652    -18.8 9.511e+03 1.588e-10
 76.72038    -18.5 9.607e+03 1.746e-10
 76.74046    -17.4 9.639e+03 1.872e-10
 76.76683    -17.2 9.741e+03 1.963e-10
 76.80699    -17.5 9.851e+03 2.020e-10
 76.84715    -17.9 9.939e+03 2.232e-10
 76.88560    -18.3 9.938e+03 2.631e-10
 76.90568    -17.1 9.862e+03 2.279e-10
 76.92746    -17.3 9.847e+03 2.562e-10
 76.96762    -17.5 9.812e+03 2.614e-10
 77.00778    -17.9 9.683e+03 2.400e-10
 77.04793    -18.4 9.600e+03 2.275e-10
 77.07090    -19.0 9.562e+03 2.314e-10
 77.09098    -18.4 9.808e+03 2.693e-10
 77.12825    -18.9 1.008e+04 3.379e-10
 77.16841    -19.3 1.009e+04 3.870e-10
 77.20857    -19.3 1.004e+04 4.045e-10
 77.23612    -18.9 9.740e+03 3.434e-10
 77.25620    -18.8 9.924e+03 3.535e-10
 77.28888    -18.5 9.311e+03 2.114e-10
 77.32904    -17.4 8.786e+03 1.225e-10
 77.36920    -16.0 8.605e+03 8.213e-11
 77.40134    -14.8 8.543e+03 7.070e-11
 77.42142    -14.7 8.578e+03 7.241e-11
 77.44951    -13.0 8.512e+03 6.721e-11
 77.48967    -11.3 8.498e+03 6.438e-11
 77.52983     -9.6 8.502e+03 6.340e-11
 77.56656     -7.9 8.496e+03 6.443e-11
 77.58664     -7.4 8.443e+03 5.057e-11
 77.61014     -5.8 8.409e+03 4.933e-11
 77.65030     -4.2 8.383e+03 4.861e-11
 77.69046     -2.6 8.366e+03 4.735e-11
 77.73062     -1.1 8.372e+03 4.537e-11
 77.75186      0.2 8.374e+03 4.467e-11
 77.77194      0.5 8.350e+03 4.468e-11
 77.81093      1.7 8.318e+03 5.264e-11
 77.85109      3.0 8.289e+03 6.644e-11
 77.89125      4.6 8.309e+03 8.339e-11
 77.91708      6.4 8.381e+03 9.290e-11
 77.92849      6.8 8.451e+03 1.015e-10
 77.94282      7.2 8.538e+03 1.243e-10
 77.97156      8.7 8.593e+03 1.061e-10
 78.01172      9.7 8.674e+03 7.916e-11
 78.05188      9.8 8.710e+03 6.930e-11
 78.08230      9.7 8.847e+03 7.827e-11
 78.10238      9.7 8.846e+03 8.371e-11
 78.13219     10.2 8.763e+03 1.294e-10
 78.17235     11.9 8.924e+03 1.667e-10
 78.21251     13.2 9.062e+03 1.741e-10
 78.24752     14.0 9.212e+03 1.373e-10
 78.26760     13.9 9.250e+03 1.052e-10
 78.29282     13.6 9.164e+03 9.067e-11
 78.33298     13.9 9.000e+03 9.754e-11
 78.37314     14.6 9.063e+03 1.166e-10
 78.41274     15.3 9.186e+03 1.276e-10
 78.43282     15.6 9.134e+03 1.032e-10
 78.45346     16.2 9.163e+03 9.310e-11
 78.49361     16.9 9.048e+03 7.892e-11
 78.53377     17.7 8.821e+03 6.093e-11
 78.57393     18.8 8.568e+03 5.085e-11
 78.59804     20.4 8.524e+03 3.845e-11
 78.61812     21.0 8.516e+03 3.807e-11
 78.65424     22.6 8.539e+03 2.921e-11
 78.69440     24.0 8.518e+03 2.574e-11
 78.73456     25.7 8.442e+03 2.771e-11
 78.76326     27.8 8.414e+03 3.278e-11
 78.78334     28.3 8.458e+03 3.152e-11
 78.81487     30.6 8.487e+03 3.826e-11
 78.85503     32.9 8.582e+03 4.726e-11
 78.89519     35.1 8.716e+03 5.843e-11
 78.92848     37.1 8.908e+03 7.532e-11
 78.94856     37.4 8.909e+03 6.910e-11
 78.97551     38.9 9.147e+03 1.021e-10
 79.01566     40.4 9.439e+03 1.832e-10
 79.05582     42.0 9.872e+03 3.298e-10
 79.09370     43.8 1.032e+04 4.967e-10
 79.11378     44.1 1.003e+04 4.068e-10
 79.13614     45.5 1.023e+04 4.465e-10
 79.17629     46.5 1.029e+04 4.220e-10
 79.21645     47.2 1.039e+04 4.267e-10
 79.24181     47.6 1.057e+04 4.801e-10
 79.26189     47.7 1.076e+04 5.736e-10
 79.27900     48.5 1.083e+04 6.291e-10
 79.29908     48.8 1.054e+04 5.177e-10
 79.33693     49.7 1.057e+04 5.537e-10
 79.37708     50.7 1.041e+04 5.103e-10
 79.41724     51.8 1.011e+04 4.199e-10
 79.44422     52.9 9.822e+03 3.235e-10
 79.46430     52.9 9.829e+03 3.431e-10
 79.49756     54.1 9.567e+03 2.614e-10
 79.53771     55.4 9.372e+03 2.069e-10
 79.57787     56.7 9.357e+03 1.904e-10
 79.60944     58.0 9.456e+03 2.070e-10
 79.62952     57.6 9.242e+03 1.477e-10
 79.65819     58.9 9.325e+03 1.603e-10
 79.69834     60.4 9.396e+03 1.728e-10
 79.73850     61.7 9.299e+03 1.683e-10
 79.77466     62.0 9.223e+03 1.747e-10
 79.79474     61.5 8.885e+03 1.195e-10
 79.81882     61.9 9.001e+03 1.692e-10
 79.85898     62.8 1.001e+04 3.718e-10
 79.88900     63.4 1.031e+04 4.539e-10
 79.90115     63.1 1.098e+04 6.583e-10
 79.91119     61.7 1.153e+04 9.114e-10
 79.92906     60.4 1.262e+04 1.628e-09
 79.94914     59.4 1.378e+04 2.960e-09
 79.95976     59.5 1.476e+04 4.727e-09
 79.96980     59.6 1.484e+04 5.238e-09
 79.98929     60.2 1.524e+04 6.224e-09
 80.00937     60.5 1.515e+04 5.838e-09
 80.02945     60.3 1.488e+04 4.710e-09
 80.04237     59.3 1.447e+04 3.360e-09
 80.05241     60.2 1.438e+04 3.126e-09
 80.06961     57.8 1.367e+04 1.871e-09
 80.08969     55.5 1.277e+04 1.334e-09
 80.10977     53.4 1.211e+04 1.054e-09
 80.12498     52.6 1.195e+04 1.037e-09
 80.14516     52.8 1.161e+04 7.292e-10
 80.18024     51.0 1.087e+04 5.682e-10
 80.22040     50.9 1.026e+04 4.257e-10
 80.26055     51.0 9.854e+03 3.067e-10
 80.29040     51.1 9.602e+03 2.322e-10
 80.31047     52.5 9.495e+03 2.243e-10
 80.34087     53.0 9.549e+03 2.082e-10
 80.38103     53.0 9.718e+03 2.226e-10
 80.42118     50.8 1.050e+04 3.624e-10
 80.45562     47.2 1.208e+04 1.286e-09
 80.47569     49.1 1.165e+04 9.660e-10
 80.50150     47.3 1.206e+04 1.595e-09
 80.53152     45.5 1.191e+04 1.336e-09
 80.54807     45.1 1.179e+04 1.294e-09
 80.55726     45.4 1.164e+04 1.221e-09
 80.56079     44.6 1.226e+04 1.537e-09
 80.58181     39.6 1.188e+04 1.198e-09
 80.61184     36.9 1.113e+04 1.076e-09
 80.63068     36.3 1.059e+04 9.815e-10
 80.64072     37.1 1.056e+04 9.726e-10
 80.65190     36.7 1.028e+04 7.715e-10
 80.67197     36.2 1.007e+04 6.832e-10
 80.70219     34.6 9.708e+03 3.985e-10
 80.74245     32.5 9.022e+03 3.315e-10
 80.78260     32.2 8.956e+03 3.705e-10
 80.80613     32.6 9.142e+03 4.278e-10
 80.82621     33.1 9.055e+03 4.114e-10
 80.86292     33.7 9.211e+03 4.746e-10
 80.90308     34.4 9.055e+03 4.664e-10
 80.94323     35.7 8.768e+03 3.753e-10
 80.97135     35.6 8.453e+03 2.450e-10
 80.99143     35.9 8.587e+03 2.776e-10
 81.01341     35.2 8.587e+03 2.385e-10
 81.03339     31.4 9.571e+03 3.496e-10
 81.05347     28.4 1.031e+04 6.399e-10
 81.06381     27.2 1.072e+04 1.091e-09
 81.07385     27.8 1.069e+04 1.133e-09
 81.09363     28.4 1.128e+04 1.705e-09
 81.11371     29.0 1.220e+04 2.158e-09
 81.13379     22.9 1.805e+04 2.848e-09
 81.14642      7.0 2.438e+04 8.275e-09
 81.15646      7.0 2.424e+04 7.933e-09
 81.16888     -1.5 2.165e+04 2.601e-08
 81.17887     -2.2 2.044e+04 5.478e-08
 81.18763     -1.4 2.023e+04 8.964e-08
 81.19265     -1.5 1.998e+04 7.679e-08
 81.19895      0.8 2.018e+04 9.385e-08
 81.20899      2.6 2.025e+04 9.854e-08
 81.21511      4.9 1.984e+04 8.678e-08
 81.22013      3.7 2.007e+04 1.303e-07
 81.22893      6.8 1.977e+04 7.471e-08
 81.23395      7.0 1.966e+04 7.024e-08
 81.23910      8.7 2.130e+04 3.090e-08
 81.24914      8.0 2.520e+04 8.356e-09
 81.25918     -6.1 2.299e+04 1.875e-09
 81.27429    -18.6 1.286e+04 7.125e-10
 81.29442    -23.0 9.885e+03 4.629e-10
 81.31164    -24.4 9.868e+03 4.493e-10
 81.32168    -25.5 1.045e+04 5.394e-10
 81.33458    -28.5 1.098e+04 7.248e-10
 81.35466    -30.3 1.115e+04 1.016e-09
 81.37473    -30.7 1.121e+04 1.274e-09
 81.39425    -30.7 1.121e+04 1.354e-09
 81.40429    -30.7 1.172e+04 1.757e-09
 81.41489    -30.2 1.141e+04 1.532e-09
 81.43497    -30.0 1.101e+04 9.553e-10
 81.45505    -31.7 1.050e+04 5.842e-10
 81.47513    -34.4 9.885e+03 3.967e-10
 81.48700    -35.8 9.456e+03 3.389e-10
 81.50717    -37.1 9.369e+03 3.381e-10
 81.54560    -37.2 9.280e+03 3.323e-10
 81.58576    -37.1 9.271e+03 3.311e-10
 81.62592    -37.0 9.199e+03 2.892e-10
 81.65231    -37.3 8.922e+03 2.111e-10
 81.67239    -37.9 8.683e+03 1.638e-10
 81.70623    -38.6 8.626e+03 1.524e-10
 81.74639    -39.2 8.619e+03 1.511e-10
 81.78655    -39.4 8.720e+03 1.776e-10
 81.81753    -39.3 8.889e+03 2.284e-10
 81.83761    -38.6 9.315e+03 3.319e-10
 81.85988    -37.9 9.462e+03 3.940e-10
 81.87996    -37.8 9.507e+03 4.241e-10
 81.90702    -37.1 9.547e+03 4.358e-10
 81.94718    -36.2 9.479e+03 3.993e-10
 81.98275    -35.2 9.300e+03 3.199e-10
 82.00283    -34.8 9.707e+03 4.370e-10
 82.02749    -33.8 9.472e+03 3.415e-10
 82.06765    -32.7 9.346e+03 2.924e-10
 82.10781    -31.2 9.288e+03 2.682e-10
 82.14797    -29.5 9.307e+03 2.580e-10
 82.18812    -27.4 9.450e+03 2.775e-10
 82.22828    -25.5 9.487e+03 2.663e-10
 82.26844    -23.7 9.541e+03 2.646e-10
 82.30860    -21.9 9.637e+03 2.728e-10
 82.33327    -20.1 9.755e+03 2.948e-10
 82.35335    -19.5 9.691e+03 2.835e-10
 82.38891    -17.6 9.836e+03 3.201e-10
 82.42907    -15.7 1.001e+04 3.789e-10
 82.46923    -13.8 1.024e+04 4.619e-10
 82.49849    -11.9 1.057e+04 5.878e-10
 82.51857    -11.3 1.057e+04 5.846e-10
 82.54954     -9.6 1.105e+04 7.958e-10
 82.58970     -8.1 1.170e+04 1.144e-09
 82.62986     -6.7 1.240e+04 1.640e-09
 82.66371     -5.4 1.285e+04 2.117e-09
 82.68379     -4.9 1.286e+04 2.076e-09
 82.71017     -3.5 1.305e+04 2.266e-09
 82.75033     -2.5 1.284e+04 1.865e-09
 82.79049     -1.8 1.235e+04 1.347e-09
 82.82893     -0.6 1.176e+04 9.337e-10
 82.84901      0.1 1.188e+04 1.002e-09
 82.87081      1.6 1.153e+04 8.014e-10
 82.91096      3.5 1.118e+04 6.187e-10
 82.95112      5.7 1.080e+04 4.439e-10
 82.99128      8.0 1.049e+04 3.181e-10
 83.01423     10.3 1.026e+04 2.477e-10
 83.03431     10.7 1.050e+04 3.134e-10
 83.07159     13.0 1.034e+04 2.840e-10
 83.11175     15.4 1.024e+04 2.731e-10
 83.15191     17.9 1.015e+04 2.740e-10
 83.17895     20.4 1.016e+04 2.857e-10
 83.18641     20.2 1.024e+04 2.813e-10
 83.19953     21.0 1.057e+04 3.883e-10
 83.23222     23.2 1.079e+04 4.645e-10
 83.27238     25.4 1.099e+04 5.681e-10
 83.30240     27.3 1.121e+04 6.243e-10
 83.32238     28.0 1.123e+04 5.825e-10
 83.34246     28.9 1.137e+04 4.922e-10
 83.35452     29.1 1.146e+04 4.562e-10
 83.36456     29.3 1.185e+04 6.814e-10
 83.38262     29.4 1.195e+04 6.392e-10
 83.40270     29.4 1.177e+04 6.522e-10
 83.42278     29.5 1.172e+04 7.140e-10
 83.43713     29.5 1.206e+04 7.739e-10
 83.44717     29.5 1.257e+04 1.054e-09
 83.46294     29.3 1.267e+04 1.185e-09
 83.48302     29.3 1.258e+04 1.280e-09
 83.50309     30.3 1.208e+04 1.303e-09
 83.51974     32.0 1.165e+04 1.119e-09
 83.52978     32.2 1.183e+04 1.146e-09
 83.54325     33.6 1.191e+04 7.406e-10
 83.56333     33.9 1.222e+04 4.162e-10
 83.58341     33.1 1.203e+04 2.630e-10
 83.60235     31.8 1.134e+04 2.032e-10
 83.61239     31.8 1.134e+04 2.051e-10
 83.63370     32.7 1.128e+04 1.935e-10
 83.67396     34.8 1.057e+04 1.722e-10
 83.69519     36.9 1.078e+04 1.305e-10
 83.71527     37.0 1.105e+04 1.601e-10
 83.75428     38.7 1.094e+04 1.805e-10
 83.79443     40.4 1.116e+04 2.156e-10
 83.82445     41.4 1.121e+04 2.856e-10
 83.83829     41.7 1.134e+04 3.250e-10
 83.84833     41.9 1.121e+04 3.017e-10
 83.86022     42.8 1.130e+04 3.796e-10
 83.87026     43.1 1.130e+04 3.785e-10
 83.88459     43.9 1.156e+04 4.365e-10
 83.90467     44.9 1.170e+04 5.332e-10
 83.92475     45.5 1.181e+04 5.840e-10
 83.95497     46.8 1.174e+04 6.280e-10
 83.99522     48.5 1.164e+04 6.177e-10
 84.02563     50.4 1.155e+04 5.636e-10
 84.04571     50.2 1.162e+04 5.306e-10
 84.06540     52.0 1.163e+04 5.141e-10
 84.08538     52.1 1.167e+04 5.197e-10
 84.10546     53.8 1.149e+04 4.629e-10
 84.11809     54.0 1.162e+04 4.706e-10
 84.12813     54.0 1.168e+04 5.066e-10
 84.14562     55.4 1.133e+04 4.582e-10
 84.16570     56.0 1.150e+04 4.471e-10
 84.18578     57.1 1.136e+04 4.024e-10
 84.20070     57.7 1.142e+04 3.788e-10
 84.21074     57.7 1.148e+04 4.191e-10
 84.22593     58.5 1.143e+04 3.941e-10
 84.24601     59.4 1.139e+04 3.909e-10
 84.26609     60.1 1.142e+04 3.986e-10
 84.28331     60.7 1.151e+04 4.308e-10
 84.29335     60.7 1.162e+04 4.625e-10
 84.31639     61.8 1.179e+04 5.885e-10
 84.35607     63.5 1.219e+04 8.537e-10
 84.37615     63.6 1.223e+04 8.439e-10
 84.38666     64.4 1.243e+04 9.941e-10
 84.40664     65.2 1.263e+04 1.151e-09
 84.42672     66.0 1.281e+04 1.298e-09
 84.44680     66.7 1.299e+04 1.423e-09
 84.45857     67.2 1.314e+04 1.542e-09
 84.46861     67.3 1.324e+04 1.563e-09
 84.48696     67.5 1.357e+04 1.807e-09
 84.49783     67.2 1.408e+04 2.356e-09
 84.50787     68.2 1.363e+04 1.790e-09
 84.52712     67.9 1.412e+04 2.375e-09
 84.54118     67.8 1.459e+04 3.298e-09
 84.55122     67.8 1.496e+04 3.777e-09
 84.56727     68.3 1.538e+04 5.175e-09
 84.58735     69.2 1.535e+04 5.348e-09
 84.60743     70.2 1.518e+04 4.902e-09
 84.62379     71.2 1.468e+04 3.516e-09
 84.63383     71.2 1.471e+04 3.496e-09
 84.64759     71.0 1.420e+04 2.340e-09
 84.67781     71.4 1.351e+04 1.437e-09
 84.70659     71.6 1.265e+04 6.767e-10
 84.72667     71.5 1.267e+04 6.777e-10
 84.75822     71.9 1.202e+04 3.809e-10
 84.79838     72.7 1.163e+04 3.032e-10
 84.83853     74.1 1.158e+04 3.164e-10
 84.87181     75.6 1.163e+04 3.432e-10
 84.89189     76.0 1.220e+04 5.631e-10
 84.91885     77.4 1.217e+04 5.408e-10
 84.95901     78.6 1.213e+04 5.092e-10
 84.99916     79.9 1.203e+04 4.282e-10
 85.03703     81.0 1.201e+04 3.757e-10
 85.05711     80.7 1.234e+04 4.597e-10
 85.07948     81.8 1.225e+04 4.466e-10
 85.11964     83.1 1.221e+04 4.703e-10
 85.15980     84.5 1.222e+04 5.084e-10
 85.19995     85.7 1.240e+04 5.464e-10
 85.22233     86.5 1.281e+04 6.769e-10
 85.23227     86.4 1.291e+04 7.223e-10
 85.24996     86.7 1.291e+04 7.382e-10
 85.27003     87.4 1.314e+04 9.137e-10
 85.29011     87.7 1.322e+04 9.847e-10
 85.30475     88.8 1.324e+04 1.126e-09
 85.31478     88.7 1.345e+04 1.225e-09
 85.33027     89.3 1.351e+04 1.317e-09
 85.36049     89.9 1.357e+04 1.472e-09
 85.38755     91.9 1.331e+04 1.390e-09
 85.40763     91.3 1.349e+04 1.487e-09
 85.44090     93.3 1.295e+04 1.095e-09
 85.48106     95.5 1.251e+04 7.796e-10
 85.52122     97.7 1.218e+04 6.089e-10
 85.55277    100.0 1.177e+04 5.618e-10
 85.57285    100.1 1.130e+04 3.426e-10
 85.60153    102.9 1.106e+04 3.352e-10
 85.64169    105.9 1.108e+04 3.450e-10
 85.68185    108.7 1.112e+04 3.863e-10
 85.71799    111.5 1.152e+04 5.096e-10
 85.73807    112.1 1.098e+04 3.395e-10
 85.76216    114.7 1.139e+04 4.453e-10
 85.79701    116.5 1.237e+04 6.808e-10
 85.81709    117.4 1.194e+04 6.992e-10
 85.83234    117.8 1.242e+04 8.241e-10
 85.85232    117.4 1.355e+04 1.395e-09
 85.87240    117.3 1.494e+04 3.032e-09
 85.89248    118.0 1.629e+04 6.392e-09
 85.90309    119.0 1.749e+04 1.134e-08
 85.91313    119.2 1.663e+04 7.724e-09
 85.93264    119.8 1.751e+04 1.163e-08
 85.95272    120.1 1.771e+04 1.242e-08
 85.97279    120.4 1.752e+04 1.172e-08
 85.98570    120.8 1.700e+04 9.789e-09
 85.99574    121.2 1.671e+04 8.716e-09
 86.01295    121.5 1.618e+04 7.133e-09
 86.03303    121.6 1.567e+04 5.873e-09
 86.05311    121.6 1.520e+04 5.068e-09
 86.06831    121.9 1.482e+04 4.542e-09
 86.07835    122.3 1.487e+04 4.437e-09
 86.09327    122.7 1.468e+04 4.155e-09
 86.11335    123.3 1.451e+04 3.779e-09
 86.13343    124.2 1.427e+04 3.304e-09
 86.15092    125.1 1.394e+04 2.727e-09
 86.16096    125.1 1.415e+04 2.943e-09
 86.17358    126.0 1.371e+04 2.309e-09
 86.19366    126.7 1.317e+04 1.737e-09
 86.21374    127.3 1.258e+04 1.300e-09
 86.23353    127.8 1.202e+04 1.008e-09
 86.24357    127.6 1.207e+04 1.016e-09
 86.25390    128.2 1.158e+04 8.315e-10
 86.27398    129.0 1.125e+04 7.279e-10
 86.29406    129.9 1.102e+04 6.660e-10
 86.31413    131.1 1.088e+04 6.208e-10
 86.32618    132.3 1.079e+04 5.880e-10
 86.33622    132.0 1.080e+04 6.152e-10
 86.35429    133.3 1.075e+04 5.832e-10
 86.37437    134.4 1.071e+04 5.472e-10
 86.39445    135.7 1.064e+04 4.923e-10
 86.40879    136.6 1.059e+04 4.615e-10
 86.41883    136.6 1.063e+04 4.797e-10
 86.43461    137.9 1.054e+04 4.142e-10
 86.45469    138.5 1.046e+04 3.788e-10
 86.46639    140.1 1.034e+04 3.370e-10
 86.47643    141.1 1.076e+04 5.043e-10
 86.49140    142.0 1.066e+04 4.470e-10
 86.50144    141.8 1.067e+04 4.487e-10
 86.51492    142.8 1.052e+04 3.959e-10
 86.53500    143.7 1.039e+04 3.581e-10
 86.55508    144.7 1.026e+04 3.291e-10
 86.57401    145.6 1.018e+04 3.105e-10
 86.58405    145.4 1.015e+04 3.177e-10
 86.60538    146.9 9.987e+03 3.060e-10
 86.64563    149.3 9.958e+03 3.181e-10
 86.68579    151.8 1.000e+04 3.359e-10
 86.71581    153.4 9.998e+03 3.588e-10
 86.73579    154.7 1.003e+04 3.746e-10
 86.74927    156.0 1.011e+04 3.970e-10
 86.75931    156.3 1.008e+04 4.188e-10
 86.77595    157.6 1.017e+04 4.397e-10
 86.79603    158.8 1.026e+04 4.685e-10
 86.81611    160.1 1.035e+04 4.930e-10
 86.83188    161.2 1.048e+04 5.162e-10
 86.84192    161.4 1.035e+04 5.106e-10
 86.85626    162.4 1.040e+04 5.171e-10
 86.87634    163.4 1.041e+04 5.165e-10
 86.89642    164.3 1.043e+04 5.100e-10
 86.91449    165.3 1.042e+04 4.935e-10
 86.92453    165.5 1.042e+04 4.950e-10
 86.93658    166.4 1.038e+04 4.716e-10
 86.95666    167.4 1.032e+04 4.449e-10
 86.97674    168.4 1.025e+04 4.190e-10
 86.99682    169.4 1.018e+04 3.962e-10
 87.00714    170.4 1.012e+04 3.763e-10
 87.01718    170.6 1.020e+04 4.032e-10
 87.03697    171.7 1.015e+04 3.838e-10
 87.05705    172.7 1.009e+04 3.658e-10
 87.07713    173.8 1.012e+04 3.510e-10
 87.08975    174.6 1.013e+04 3.425e-10
 87.09979    174.9 1.024e+04 3.756e-10
 87.11589    175.8 1.021e+04 3.667e-10
 87.12593    175.8 1.003e+04 3.510e-10
 87.13737    176.4 1.001e+04 3.437e-10
 87.15745    177.6 9.982e+03 3.443e-10
 87.17236    178.3 9.978e+03 3.464e-10
 87.18240    178.8 1.012e+04 3.886e-10
 87.19760    179.7 1.009e+04 3.954e-10
 87.21768    180.7 1.008e+04 4.105e-10
 87.23776    181.7 1.012e+04 4.347e-10
 87.25497    182.7 1.017e+04 4.645e-10
 87.26501    182.9 1.028e+04 4.964e-10
 87.27792    183.8 1.029e+04 5.121e-10
 87.29800    184.8 1.031e+04 5.288e-10
 87.31808    185.8 1.033e+04 5.446e-10
 87.33758    186.9 1.036e+04 5.571e-10
 87.34762    186.9 1.040e+04 5.600e-10
 87.35824    188.0 1.043e+04 5.715e-10
 87.37831    189.1 1.048e+04 5.898e-10
 87.39839    190.1 1.056e+04 6.150e-10
 87.41847    191.2 1.065e+04 6.568e-10
 87.43023    192.2 1.080e+04 7.192e-10
 87.44027    192.3 1.077e+04 6.896e-10
 87.45863    193.3 1.090e+04 7.515e-10
 87.47871    194.4 1.105e+04 8.305e-10
 87.49879    195.3 1.123e+04 9.242e-10
 87.51284    196.3 1.141e+04 1.024e-09
 87.52288    196.7 1.121e+04 9.051e-10
 87.53895    197.7 1.133e+04 9.735e-10
 87.55902    198.7 1.141e+04 1.030e-09
 87.57910    199.7 1.145e+04 1.068e-09
 87.59545    200.7 1.146e+04 1.089e-09
 87.60549    201.4 1.123e+04 9.399e-10
 87.61926    202.4 1.124e+04 9.574e-10
 87.63934    203.4 1.127e+04 9.786e-10
 87.65942    204.4 1.132e+04 1.016e-09
 87.67806    205.3 1.144e+04 1.086e-09
 87.68810    206.2 1.124e+04 9.524e-10
 87.69958    207.0 1.143e+04 1.056e-09
 87.71966    207.7 1.175e+04 1.242e-09
 87.73973    208.3 1.222e+04 1.542e-09
 87.75981    208.6 1.275e+04 1.951e-09
 87.77071    208.9 1.327e+04 2.432e-09
 87.77629    210.0 1.304e+04 2.146e-09
 87.78546    210.9 1.319e+04 2.301e-09
 87.79997    211.1 1.381e+04 2.941e-09
 87.82005    211.3 1.432e+04 3.559e-09
 87.84013    211.0 1.482e+04 4.067e-09
 87.85332    210.2 1.539e+04 4.559e-09
 87.86336    211.2 1.535e+04 4.454e-09
 87.88029    209.9 1.593e+04 5.040e-09
 87.89458    208.1 1.633e+04 5.523e-09
 87.89955    208.4 1.634e+04 5.509e-09
 87.90529    207.6 1.651e+04 5.798e-09
 87.92040    206.5 1.701e+04 6.905e-09
 87.93593    204.1 1.707e+04 6.952e-09
 87.94597    204.8 1.763e+04 8.045e-09
 87.96060    201.8 1.751e+04 7.810e-09
 87.98068    199.0 1.689e+04 6.422e-09
 88.00076    196.7 1.565e+04 4.105e-09
 88.01854    194.7 1.394e+04 2.089e-09
 88.02858    195.3 1.447e+04 2.522e-09
 88.04092    192.8 1.216e+04 1.005e-09
 88.06100    188.8 9.925e+03 3.830e-10
 88.08107    184.4 9.592e+03 2.777e-10
 88.10115    181.3 9.476e+03 2.738e-10
 88.12123    178.9 9.536e+03 3.052e-10
 88.14131    176.8 9.663e+03 3.510e-10
 88.16139    174.5 1.012e+04 4.860e-10
 88.18147    172.1 1.073e+04 7.199e-10
 88.19380    169.7 1.131e+04 1.034e-09
 88.20384    169.0 1.154e+04 1.136e-09
 88.22163    166.6 1.198e+04 1.451e-09
 88.24171    164.3 1.215e+04 1.553e-09
 88.26178    162.0 1.212e+04 1.520e-09
 88.27641    160.0 1.193e+04 1.360e-09
 88.28645    158.1 1.198e+04 1.372e-09
 88.30194    156.0 1.161e+04 1.129e-09
 88.32202    153.6 1.122e+04 9.770e-10
 88.34210    151.2 1.121e+04 9.952e-10
 88.35902    148.9 1.168e+04 1.164e-09
 88.36906    145.4 1.309e+04 1.901e-09
 88.38226    143.5 1.387e+04 2.419e-09
 88.39727    142.9 1.446e+04 2.825e-09
 88.40525    142.6 1.479e+04 3.058e-09
 88.41027    140.7 1.593e+04 4.130e-09
 88.42237    140.7 1.680e+04 5.309e-09
 88.43496    140.7 1.741e+04 7.219e-09
 88.44414    139.7 1.790e+04 9.157e-09
 88.45167    137.3 1.964e+04 1.753e-08
 88.46257    138.0 1.967e+04 1.738e-08
 88.48265    138.6 1.940e+04 1.458e-08
 88.50273    139.2 1.881e+04 1.200e-08
 88.52281    139.8 1.828e+04 1.009e-08
 88.53428    140.6 1.785e+04 8.506e-09
 88.54432    138.1 1.731e+04 5.662e-09
 88.56297    138.9 1.658e+04 4.165e-09
 88.58305    139.8 1.580e+04 3.031e-09
 88.60313    140.9 1.495e+04 2.225e-09
 88.61689    141.9 1.411e+04 1.702e-09
 88.62693    138.8 1.120e+04 6.999e-10
 88.64328    139.8 1.063e+04 6.315e-10
 88.66336    140.9 1.036e+04 6.161e-10
 88.68344    142.3 1.030e+04 6.256e-10
 88.69950    143.9 1.033e+04 6.546e-10
 88.70954    142.5 9.639e+03 5.011e-10
 88.72360    144.2 9.819e+03 5.381e-10
 88.74368    145.5 1.007e+04 5.919e-10
 88.76376    146.1 1.034e+04 7.318e-10
 88.78211    145.8 1.158e+04 1.036e-09
 88.79215    144.8 1.162e+04 1.054e-09
 88.80391    144.3 1.315e+04 1.627e-09
 88.82399    143.9 1.437e+04 2.524e-09
 88.84407    143.4 1.524e+04 3.654e-09
 88.85908    143.2 1.539e+04 3.923e-09
 88.86907    142.8 1.571e+04 4.372e-09
 88.87466    142.2 1.615e+04 4.917e-09
 88.87968    142.1 1.650e+04 5.288e-09
 88.88915    140.7 1.735e+04 6.582e-09
 88.89919    139.0 1.813e+04 8.348e-09
 88.90923    137.6 1.866e+04 1.039e-08
 88.91597    136.5 1.900e+04 1.240e-08
 88.92099    136.0 1.937e+04 1.422e-08
 88.92931    135.1 1.941e+04 1.579e-08
 88.93935    134.5 1.932e+04 1.666e-08
 88.94939    134.2 1.913e+04 1.637e-08
 88.95727    134.0 1.885e+04 1.491e-08
 88.96229    134.0 1.907e+04 1.557e-08
 88.96947    133.7 1.862e+04 1.246e-08
 88.97951    133.3 1.815e+04 9.165e-09
 88.98955    132.4 1.744e+04 6.536e-09
 88.99858    131.2 1.669e+04 4.573e-09
 89.00360    130.4 1.685e+04 4.029e-09
 89.00962    129.0 1.584e+04 2.958e-09
 89.02473    128.5 1.526e+04 2.467e-09
 89.03998    126.3 1.421e+04 1.654e-09
 89.05002    122.9 1.258e+04 1.158e-09
 89.06494    121.3 1.126e+04 8.991e-10
 89.08446    121.2 1.105e+04 8.712e-10
 89.09450    122.4 1.189e+04 1.150e-09
 89.10510    122.3 1.162e+04 1.112e-09
 89.12259    122.8 1.160e+04 1.116e-09
 89.13263    121.7 1.105e+04 8.889e-10
 89.14525    122.2 1.114e+04 8.722e-10
 89.16533    122.7 1.123e+04 8.302e-10
 89.18541    122.9 1.124e+04 7.795e-10
 89.20520    123.1 1.118e+04 7.406e-10
 89.21524    121.2 1.109e+04 7.399e-10
 89.22557    121.5 1.106e+04 7.327e-10
 89.24565    122.0 1.106e+04 7.349e-10
 89.26573    122.7 1.111e+04 7.490e-10
 89.28581    123.6 1.123e+04 7.786e-10
 89.29785    124.6 1.142e+04 8.273e-10
 89.30789    123.1 1.203e+04 1.122e-09
 89.32596    124.1 1.233e+04 1.240e-09
 89.34604    125.3 1.271e+04 1.406e-09
 89.36612    126.5 1.320e+04 1.660e-09
 89.38046    127.7 1.382e+04 2.045e-09
 89.39050    125.5 1.446e+04 2.935e-09
 89.40628    126.6 1.489e+04 3.470e-09
 89.42636    128.2 1.527e+04 3.953e-09
 89.44644    130.2 1.556e+04 4.333e-09
 89.46307    128.8 1.723e+04 4.758e-09
 89.47311    126.7 1.645e+04 3.668e-09
 89.48660    119.2 2.701e+04 3.185e-09
 89.50161     98.6 5.094e+04 2.973e-09
 89.50930     82.8 5.225e+04 5.931e-09
 89.51432     84.9 5.223e+04 4.007e-09
 89.52164     77.2 4.380e+04 1.082e-08
 89.53167     70.9 2.972e+04 5.509e-08
 89.54171     70.3 2.275e+04 1.927e-07
 89.55060     71.4 2.091e+04 3.643e-07
 89.55562     72.4 2.136e+04 3.888e-07
 89.56179     73.5 2.060e+04 5.752e-07
 89.57183     74.7 2.077e+04 5.325e-07
 89.58187     75.2 2.176e+04 3.431e-07
 89.59191     74.8 2.482e+04 1.457e-07
 89.60195     74.5 3.054e+04 7.236e-08
 89.61199     65.3 4.465e+04 8.040e-09
 89.62203     48.9 3.234e+04 1.544e-09
 89.63207     39.5 1.335e+04 1.735e-09
 89.63828     39.8 1.237e+04 1.483e-09
 89.64330     39.4 1.269e+04 1.642e-09
 89.65215     39.4 1.276e+04 1.661e-09
 89.66726     39.8 1.227e+04 1.456e-09
 89.68738     40.7 1.188e+04 1.236e-09
 89.70746     42.0 1.153e+04 1.060e-09
 89.72094     43.4 1.118e+04 8.870e-10
 89.73098     42.4 1.087e+04 7.259e-10
 89.74399     43.9 1.050e+04 5.780e-10
 89.75403     43.7 1.028e+04 5.233e-10
 89.76770     44.8 9.918e+03 4.214e-10
 89.78778     45.7 9.550e+03 3.470e-10
 89.80355     47.5 9.287e+03 3.048e-10
 89.81359     46.8 9.226e+03 3.014e-10
 89.82794     47.3 9.276e+03 3.040e-10
 89.85815     49.3 9.174e+03 2.845e-10
 89.89841     51.7 9.075e+03 2.613e-10
 89.93856     54.0 9.068e+03 2.554e-10
 89.96897     56.1 9.117e+03 2.635e-10
 89.98895     56.2 9.702e+03 3.910e-10
 90.00865     57.7 9.724e+03 4.071e-10
 90.02872     58.4 9.761e+03 4.170e-10
 90.04880     60.0 9.744e+03 4.278e-10
 90.06142     60.8 9.761e+03 4.326e-10
 90.07146     60.9 1.027e+04 6.247e-10
 90.08896     62.0 1.023e+04 6.099e-10
 90.10904     63.1 1.018e+04 5.930e-10
 90.12912     64.3 1.011e+04 5.723e-10
 90.14403     65.2 1.008e+04 5.572e-10
 90.15407     65.0 1.042e+04 6.969e-10
 90.16928     66.0 1.031e+04 6.487e-10
 90.18936     66.9 1.023e+04 6.048e-10
 90.20943     68.1 1.013e+04 5.553e-10
 90.22664     68.4 1.012e+04 5.453e-10
 90.23668     68.2 1.016e+04 5.571e-10
 90.25973     69.5 9.870e+03 4.564e-10
 90.29941     71.1 9.671e+03 4.014e-10
 90.31949     70.4 9.584e+03 3.896e-10
 90.34014     72.2 9.498e+03 3.640e-10
 90.38030     74.0 9.541e+03 3.743e-10
 90.42046     75.6 9.765e+03 4.280e-10
 90.46062     77.0 1.019e+04 5.419e-10
 90.48471     78.5 1.085e+04 7.472e-10
 90.50478     78.8 9.791e+03 4.122e-10
 90.54093     80.0 1.028e+04 5.402e-10
 90.56722     80.5 1.063e+04 6.892e-10
 90.57716     80.7 1.051e+04 6.430e-10
 90.59093     81.3 1.065e+04 6.947e-10
 90.61101     81.9 1.075e+04 7.599e-10
 90.63109     82.6 1.091e+04 8.449e-10
 90.64973     83.3 1.106e+04 9.215e-10
 90.66991     84.8 1.066e+04 7.082e-10
 90.69142     85.1 1.094e+04 8.696e-10
 90.71141     85.5 1.117e+04 9.843e-10
 90.73148     85.7 1.137e+04 1.084e-09
 90.74238     85.6 1.162e+04 1.204e-09
 90.75242     86.6 1.144e+04 1.117e-09
 90.77164     86.2 1.194e+04 1.324e-09
 90.79172     84.7 1.295e+04 1.825e-09
 90.81180     82.9 1.402e+04 2.780e-09
 90.82499     81.6 1.471e+04 3.984e-09
 90.83503     83.1 1.437e+04 3.293e-09
 90.85196     82.0 1.476e+04 4.085e-09
 90.87204     80.9 1.482e+04 4.094e-09
 90.89212     79.7 1.477e+04 3.709e-09
 90.90760     77.6 1.469e+04 2.803e-09
 90.91764     79.5 1.449e+04 3.066e-09
 90.93227     77.0 1.425e+04 2.210e-09
 90.95235     73.8 1.356e+04 1.634e-09
 90.97243     71.1 1.267e+04 1.415e-09
 90.99021     69.6 1.223e+04 1.373e-09
 91.00025     71.4 1.243e+04 1.411e-09
 91.01259     70.4 1.221e+04 1.388e-09
 91.03267     69.8 1.208e+04 1.356e-09
 91.05275     69.4 1.189e+04 1.263e-09
 91.06306     69.1 1.157e+04 1.094e-09
 91.07310     68.8 1.136e+04 9.719e-10
 91.09290     69.6 1.123e+04 8.795e-10
 91.11298     69.0 1.084e+04 7.310e-10
 91.13306     68.5 1.056e+04 6.403e-10
 91.15314     68.2 1.043e+04 5.938e-10
 91.16547     68.1 1.037e+04 5.630e-10
 91.17551     69.0 1.037e+04 5.662e-10
 91.19330     68.9 1.039e+04 5.542e-10
 91.21338     68.6 1.048e+04 5.635e-10
 91.23346     67.9 1.076e+04 6.098e-10
 91.24808     67.0 1.103e+04 7.073e-10
 91.25812     68.2 1.102e+04 6.730e-10
 91.27361     67.4 1.124e+04 8.044e-10
 91.29369     66.9 1.134e+04 9.193e-10
 91.31377     66.3 1.150e+04 9.538e-10
 91.33069     65.0 1.180e+04 9.680e-10
 91.34073     66.1 1.204e+04 1.133e-09
 91.35393     63.8 1.266e+04 1.224e-09
 91.37401     61.0 1.263e+04 1.243e-09
 91.39409     58.8 1.231e+04 1.205e-09
 91.41330     57.1 1.197e+04 1.125e-09
 91.42334     58.3 1.228e+04 1.344e-09
 91.43424     57.1 1.182e+04 1.115e-09
 91.45432     56.2 1.144e+04 8.596e-10
 91.47440     55.4 1.096e+04 6.464e-10
 91.49448     54.4 1.044e+04 4.092e-10
 91.50595     53.7 1.016e+04 3.457e-10
 91.51599     54.0 1.025e+04 3.601e-10
 91.54478     54.6 9.960e+03 2.937e-10
 91.58503     54.9 9.537e+03 2.121e-10
 91.62519     55.4 9.269e+03 1.687e-10
 91.66133     56.1 9.159e+03 1.557e-10
 91.68140     57.7 9.446e+03 1.965e-10
 91.70550     58.3 9.290e+03 1.755e-10
 91.74566     59.1 9.253e+03 1.773e-10
 91.78582     60.2 9.209e+03 1.760e-10
 91.82598     61.6 9.125e+03 1.718e-10
 91.84662     63.3 9.012e+03 1.590e-10
 91.86670     64.0 9.013e+03 1.599e-10
 91.90629     65.8 8.923e+03 1.441e-10
 91.94645     67.6 8.855e+03 1.268e-10
 91.98661     69.4 8.810e+03 1.120e-10
 92.01184     71.2 8.786e+03 9.996e-11
 92.03192     71.9 8.807e+03 1.025e-10
 92.06692     73.6 8.740e+03 9.454e-11
 92.10708     75.3 8.733e+03 9.474e-11
 92.14724     76.9 8.767e+03 9.993e-11
 92.17706     78.3 8.876e+03 1.208e-10
 92.19714     78.9 8.865e+03 1.209e-10
 92.22756     80.3 9.141e+03 1.700e-10
 92.26771     81.6 9.633e+03 2.620e-10
 92.30787     82.1 1.010e+04 3.812e-10
 92.33789     82.4 1.029e+04 4.663e-10
 92.35213     82.9 1.049e+04 5.474e-10
 92.36217     83.0 1.045e+04 5.410e-10
 92.37210     83.5 1.059e+04 5.688e-10
 92.38214     83.6 1.064e+04 5.822e-10
 92.39803     83.8 1.064e+04 5.717e-10
 92.41811     83.9 1.058e+04 5.120e-10
 92.43474     83.8 1.050e+04 4.511e-10
 92.44478     83.9 1.042e+04 4.271e-10
 92.46840     84.2 1.025e+04 3.716e-10
 92.50751     84.8 9.880e+03 2.813e-10
 92.52758     84.9 9.840e+03 2.811e-10
 92.54882     85.8 9.621e+03 2.243e-10
 92.58897     86.9 9.489e+03 1.904e-10
 92.62913     88.4 9.437e+03 1.810e-10
 92.66929     90.1 9.437e+03 1.814e-10
 92.69280     92.0 9.445e+03 1.858e-10
 92.71288     92.4 9.447e+03 1.848e-10
 92.74961     94.3 9.477e+03 1.951e-10
 92.78976     96.4 9.500e+03 2.108e-10
 92.82992     98.4 9.502e+03 2.293e-10
 92.85802    100.4 9.494e+03 2.478e-10
 92.87810    100.3 9.568e+03 2.603e-10
 92.91024    102.1 9.577e+03 2.847e-10
 92.95039    103.8 9.608e+03 3.183e-10
 92.99055    105.3 9.710e+03 3.735e-10
 93.02324    106.5 9.909e+03 4.485e-10
 93.04332    105.5 1.008e+04 4.954e-10
 93.07087    106.1 1.041e+04 6.244e-10
 93.11103    106.0 1.080e+04 7.828e-10
 93.15118    105.8 1.099e+04 8.999e-10
 93.18846    105.5 1.095e+04 8.945e-10
 93.20854    103.8 1.064e+04 7.553e-10
 93.23150    103.5 1.017e+04 5.960e-10
 93.27166    103.0 9.599e+03 4.284e-10
 93.31181    102.5 9.037e+03 2.891e-10
 93.35197    102.1 8.499e+03 1.919e-10
 93.37376    102.1 8.169e+03 1.470e-10
 93.39384    101.9 8.180e+03 1.486e-10
 93.43229    102.3 8.182e+03 1.480e-10
 93.47244    102.2 8.344e+03 1.692e-10
 93.51260    101.8 8.738e+03 2.341e-10
 93.53889    101.4 8.996e+03 2.921e-10
 93.54883    101.2 9.120e+03 3.120e-10
 93.56260    100.8 9.429e+03 3.733e-10
 93.58268     98.9 1.048e+04 5.693e-10
 93.60276     94.3 1.300e+04 1.425e-09
 93.62140     90.7 1.478e+04 3.526e-09
 93.63144     91.6 1.421e+04 2.608e-09
 93.64292     89.6 1.474e+04 4.267e-09
 93.66300     88.4 1.465e+04 4.301e-09
 93.68113     87.7 1.416e+04 3.675e-09
 93.69117     87.9 1.439e+04 4.088e-09
 93.70316     86.6 1.373e+04 2.502e-09
 93.71405     83.8 1.291e+04 1.331e-09
 93.72409     84.4 1.291e+04 1.456e-09
 93.74331     80.7 1.199e+04 8.228e-10
 93.76339     80.0 1.161e+04 7.505e-10
 93.79361     77.7 1.094e+04 5.904e-10
 93.83386     77.4 1.035e+04 4.902e-10
 93.86942     78.1 1.013e+04 4.143e-10
 93.88950     79.6 1.021e+04 4.152e-10
 93.91418     80.5 1.010e+04 3.548e-10
 93.95434     81.6 1.011e+04 2.973e-10
 93.99450     83.0 1.023e+04 2.956e-10
 94.03464     84.5 1.036e+04 3.112e-10
 94.06466     86.0 1.035e+04 3.510e-10
 94.08465     86.6 1.034e+04 3.840e-10
 94.10473     87.8 1.052e+04 4.828e-10
 94.12481     89.2 1.082e+04 6.115e-10
 94.13714     90.5 1.114e+04 7.373e-10
 94.14718     90.7 1.140e+04 8.858e-10
 94.16497     91.7 1.164e+04 9.675e-10
 94.18505     92.4 1.174e+04 9.798e-10
 94.20513     93.0 1.175e+04 9.659e-10
 94.21975     93.1 1.179e+04 9.544e-10
 94.22979     92.5 1.199e+04 1.061e-09
 94.24529     91.7 1.220e+04 1.103e-09
 94.26536     89.8 1.271e+04 1.267e-09
 94.28544     87.0 1.323e+04 1.687e-09
 94.30236     84.5 1.347e+04 2.273e-09
 94.31240     83.9 1.371e+04 2.592e-09
 94.32560     82.2 1.365e+04 2.706e-09
 94.34066     81.1 1.345e+04 2.550e-09
 94.35070     81.1 1.439e+04 3.429e-09
 94.36576     79.3 1.373e+04 2.993e-09
 94.38497     77.4 1.355e+04 2.060e-09
 94.39501     78.8 1.349e+04 2.203e-09
 94.40592     76.8 1.267e+04 1.440e-09
 94.42600     75.1 1.162e+04 9.806e-10
 94.44607     74.6 1.115e+04 7.908e-10
 94.46615     74.7 1.155e+04 7.375e-10
 94.47762     74.9 1.254e+04 7.684e-10
 94.48766     76.3 1.055e+04 6.014e-10
 94.50631     76.7 1.104e+04 5.549e-10
 94.52639     76.8 1.211e+04 6.113e-10
 94.54647     76.9 1.353e+04 8.701e-10
 94.56023     77.2 1.440e+04 1.399e-09
 94.57027     78.6 1.142e+04 5.456e-10
 94.58663     78.9 1.264e+04 8.110e-10
 94.60671     79.2 1.352e+04 1.316e-09
 94.62678     79.9 1.396e+04 1.971e-09
 94.64284     80.9 1.420e+04 2.655e-09
 94.65288     81.1 1.298e+04 1.406e-09
 94.66694     82.1 1.349e+04 2.054e-09
 94.68702     83.2 1.388e+04 2.697e-09
 94.70710     84.4 1.417e+04 3.210e-09
 94.72545     85.5 1.443e+04 3.556e-09
 94.73549     85.8 1.401e+04 3.059e-09
 94.74726     86.9 1.452e+04 3.708e-09
 94.76734     87.9 1.491e+04 4.283e-09
 94.78742     89.0 1.532e+04 4.933e-09
 94.80749     90.0 1.577e+04 5.607e-09
 94.81810     90.7 1.609e+04 5.931e-09
 94.82814     91.0 1.619e+04 6.360e-09
 94.84765     91.7 1.642e+04 6.747e-09
 94.86773     92.4 1.644e+04 6.653e-09
 94.88781     93.2 1.628e+04 6.116e-09
 94.90071     94.0 1.583e+04 5.046e-09
 94.91075     94.0 1.609e+04 5.943e-09
 94.92797     94.6 1.560e+04 4.868e-09
 94.94805     95.0 1.475e+04 3.575e-09
 94.96812     95.0 1.384e+04 2.612e-09
 94.98332     94.6 1.301e+04 1.979e-09
 94.99336     95.0 1.323e+04 2.168e-09
 95.00020     94.2 1.264e+04 1.713e-09
 95.01024     95.3 1.222e+04 1.410e-09
 95.02836     94.8 1.225e+04 1.399e-09
 95.04844     93.6 1.257e+04 1.510e-09
 95.06593     90.8 1.364e+04 2.044e-09
 95.07597     90.4 1.385e+04 2.152e-09
 95.08860     87.4 1.507e+04 3.654e-09
 95.10868     85.4 1.593e+04 6.107e-09
 95.12876     85.1 1.672e+04 9.084e-09
 95.14854     84.9 1.728e+04 1.070e-08
 95.15858     84.0 1.762e+04 1.127e-08
 95.16891     83.6 1.757e+04 1.061e-08
 95.18899     83.2 1.730e+04 8.595e-09
 95.20907     82.4 1.679e+04 6.099e-09
 95.22915     80.6 1.597e+04 4.055e-09
 95.24119     78.3 1.496e+04 2.694e-09
 95.25123     74.9 1.510e+04 2.859e-09
 95.26931     72.7 1.424e+04 2.352e-09
 95.28939     71.4 1.367e+04 2.267e-09
 95.30947     71.4 1.348e+04 2.334e-09
 95.32380     71.5 1.340e+04 2.574e-09
 95.33384     71.5 1.426e+04 3.713e-09
 95.34962     71.6 1.435e+04 3.853e-09
 95.36970     71.4 1.461e+04 4.071e-09
 95.38978     70.3 1.522e+04 4.545e-09
 95.40641     68.7 1.596e+04 5.466e-09
 95.41645     67.5 1.643e+04 6.368e-09
 95.42994     67.0 1.632e+04 6.772e-09
 95.45002     67.1 1.600e+04 6.446e-09
 95.47010     67.4 1.549e+04 5.483e-09
 95.48902     67.3 1.487e+04 4.191e-09
 95.49906     66.8 1.487e+04 4.186e-09
 95.51025     66.2 1.411e+04 3.004e-09
 95.53033     65.4 1.313e+04 2.107e-09
 95.55041     65.3 1.250e+04 1.695e-09
 95.57049     65.4 1.204e+04 1.414e-09
 95.58176     65.6 1.157e+04 1.109e-09
 95.60194     65.5 1.154e+04 1.116e-09
 95.64096     66.4 1.057e+04 6.872e-10
 95.68112     67.1 9.657e+03 4.042e-10
 95.72128     67.1 9.190e+03 2.743e-10
 95.74708     67.8 9.159e+03 2.646e-10
 95.76716     68.4 9.171e+03 2.661e-10
 95.79146     68.6 9.141e+03 2.619e-10
 95.81144     68.9 9.095e+03 2.563e-10
 95.82950     69.4 9.105e+03 2.617e-10
 95.83954     70.2 9.117e+03 2.630e-10
 95.85159     68.7 1.034e+04 3.367e-10
 95.87167     55.4 1.874e+04 1.340e-09
 95.88668     46.9 1.976e+04 4.450e-09
 95.89667     46.7 1.822e+04 6.987e-09
 95.90671     47.2 1.703e+04 1.089e-08
 95.91675     48.3 1.598e+04 1.288e-08
 95.92205     49.7 1.617e+04 1.217e-08
 95.92707     50.5 1.643e+04 1.338e-08
 95.93683     50.6 1.667e+04 1.219e-08
 95.95194     51.3 1.667e+04 7.162e-09
 95.97207     46.5 1.755e+04 2.034e-09
 96.00228     37.8 1.264e+04 6.011e-10
 96.04254     32.1 9.743e+03 3.603e-10
 96.07752     32.7 9.479e+03 3.266e-10
 96.09760     33.1 9.484e+03 3.150e-10
 96.12285     34.1 9.509e+03 3.238e-10
 96.16301     35.1 9.640e+03 3.587e-10
 96.20317     36.1 9.694e+03 3.999e-10
 96.24274     37.3 9.603e+03 3.928e-10
 96.26282     37.7 9.656e+03 3.992e-10
 96.28349     39.4 9.453e+03 3.321e-10
 96.30943     40.9 9.199e+03 2.606e-10
 96.32951     40.3 9.332e+03 3.220e-10
 96.36380     42.0 9.079e+03 2.303e-10
 96.40396     43.4 8.862e+03 1.660e-10
 96.42804     44.7 8.710e+03 1.361e-10
 96.44812     45.7 8.717e+03 1.356e-10
 96.48427     47.3 8.699e+03 1.170e-10
 96.52443     48.9 8.696e+03 1.131e-10
 96.56459     50.7 8.670e+03 1.169e-10
 96.59326     52.7 8.654e+03 1.169e-10
 96.61334     53.6 8.654e+03 1.161e-10
 96.64491     55.6 8.653e+03 1.118e-10
 96.68506     57.5 8.673e+03 1.108e-10
 96.72522     59.2 8.723e+03 1.150e-10
 96.75848     60.8 8.813e+03 1.321e-10
 96.77856     61.6 8.849e+03 1.340e-10
 96.80554     63.0 9.020e+03 1.782e-10
 96.84569     64.7 9.231e+03 2.483e-10
 96.88585     66.6 9.469e+03 3.160e-10
 96.92370     68.1 9.617e+03 3.281e-10
 96.94378     68.6 9.794e+03 3.693e-10
 96.96617     69.9 9.787e+03 3.561e-10
 97.00632     70.9 9.734e+03 3.264e-10
 97.04648     71.8 9.680e+03 3.026e-10
 97.08664     72.9 9.612e+03 2.851e-10
 97.10900     74.1 9.531e+03 2.688e-10
 97.12908     74.3 9.542e+03 2.666e-10
 97.16696     75.8 9.462e+03 2.412e-10
 97.20711     77.3 9.373e+03 2.053e-10
 97.24727     78.7 9.297e+03 1.700e-10
 97.27422     80.1 9.238e+03 1.452e-10
 97.29430     80.7 9.222e+03 1.400e-10
 97.32759     82.2 9.197e+03 1.349e-10
 97.36774     83.8 9.209e+03 1.369e-10
 97.40790     85.6 9.272e+03 1.465e-10
 97.43944     87.4 9.390e+03 1.651e-10
 97.45952     88.2 9.443e+03 1.781e-10
 97.48822     90.0 9.583e+03 2.061e-10
 97.52838     91.7 9.738e+03 2.320e-10
 97.56853     93.3 9.864e+03 2.526e-10
 97.60466     94.8 9.991e+03 2.551e-10
 97.62447     95.5 9.977e+03 2.582e-10
 97.62850     95.4 9.932e+03 2.587e-10
 97.64885     96.8 9.960e+03 2.492e-10
 97.68901     98.2 9.943e+03 2.283e-10
 97.72916     99.4 9.939e+03 2.028e-10
 97.76932    100.5 9.955e+03 1.816e-10
 97.78996    101.4 9.948e+03 1.702e-10
 97.81004    102.2 1.012e+04 2.013e-10
 97.84964    103.3 1.006e+04 1.790e-10
 97.88979    104.2 9.987e+03 1.592e-10
 97.92995    104.5 9.912e+03 1.572e-10
 97.95518    104.5 9.936e+03 1.632e-10
 97.97526    105.4 9.966e+03 1.547e-10
 98.01027    104.8 1.003e+04 1.711e-10
 98.05043    104.0 1.031e+04 2.210e-10
 98.09058    103.4 1.060e+04 2.859e-10
 98.12040    102.8 1.078e+04 3.090e-10
 98.14048    102.7 1.106e+04 3.494e-10
 98.17090    101.9 1.105e+04 3.298e-10
 98.21106    101.5 1.096e+04 2.750e-10
 98.25121    101.3 1.089e+04 2.206e-10
 98.28562    101.1 1.063e+04 2.029e-10
 98.30570    100.6 1.066e+04 1.964e-10
 98.33153    101.1 1.060e+04 1.989e-10
 98.37169    102.0 1.055e+04 2.173e-10
 98.41185    103.0 1.050e+04 2.453e-10
 98.45084    104.1 1.047e+04 2.508e-10
 98.47092    104.2 1.069e+04 2.630e-10
 98.49216    105.4 1.063e+04 2.621e-10
 98.53232    106.5 1.058e+04 2.464e-10
 98.57248    107.6 1.053e+04 2.285e-10
 98.61263    108.6 1.054e+04 2.302e-10
 98.63614    109.6 1.059e+04 2.439e-10
 98.65622    109.7 1.087e+04 3.125e-10
 98.68281    110.3 1.073e+04 2.945e-10
 98.70279    110.5 1.075e+04 3.015e-10
 98.71855    110.4 1.080e+04 3.275e-10
 98.72859    110.8 1.096e+04 3.943e-10
 98.74295    110.7 1.106e+04 4.359e-10
 98.76303    110.5 1.125e+04 5.094e-10
 98.78311    110.0 1.147e+04 6.047e-10
 98.80116    109.5 1.162e+04 6.929e-10
 98.81120    109.5 1.207e+04 8.944e-10
 98.82327    109.2 1.206e+04 9.083e-10
 98.84335    109.2 1.198e+04 8.671e-10
 98.86342    109.3 1.182e+04 7.542e-10
 98.88350    109.4 1.165e+04 6.124e-10
 98.89381    109.4 1.146e+04 4.792e-10
 98.90385    109.1 1.170e+04 5.528e-10
 98.92366    109.1 1.144e+04 4.217e-10
 98.93734    109.1 1.122e+04 3.372e-10
 98.94737    110.1 1.122e+04 3.708e-10
 98.96382    109.9 1.121e+04 3.324e-10
 98.97642    109.9 1.121e+04 3.247e-10
 98.98646    110.1 1.120e+04 3.271e-10
 99.01411    111.3 1.122e+04 3.387e-10
 99.05437    112.2 1.114e+04 3.209e-10
 99.09453    113.0 1.096e+04 2.976e-10
 99.13180    113.9 1.084e+04 2.890e-10
 99.15188    114.4 1.082e+04 2.638e-10
 99.17484    115.3 1.084e+04 2.720e-10
 99.20486    115.4 1.086e+04 3.023e-10
 99.22425    115.7 1.083e+04 3.207e-10
 99.23429    116.1 1.074e+04 2.960e-10
 99.24492    116.8 1.081e+04 3.695e-10
 99.26500    117.5 1.100e+04 4.592e-10
 99.29522    118.6 1.146e+04 6.471e-10
 99.31710    119.3 1.188e+04 9.293e-10
 99.33718    119.6 1.233e+04 1.030e-09
 99.36549    119.6 1.267e+04 1.264e-09
 99.38547    119.6 1.290e+04 1.398e-09
 99.39951    119.6 1.326e+04 1.651e-09
 99.40955    119.5 1.367e+04 1.894e-09
 99.42563    119.6 1.391e+04 2.133e-09
 99.44571    119.8 1.407e+04 2.294e-09
 99.46579    119.9 1.417e+04 2.383e-09
 99.48212    120.2 1.426e+04 2.433e-09
 99.49216    120.4 1.443e+04 2.567e-09
 99.50595    120.7 1.461e+04 2.640e-09
 99.52603    120.9 1.494e+04 2.844e-09
 99.54611    121.1 1.545e+04 3.284e-09
 99.56473    121.3 1.613e+04 4.059e-09
 99.57477    121.7 1.655e+04 4.576e-09
 99.58626    122.0 1.742e+04 6.096e-09
 99.59687    122.4 1.836e+04 8.262e-09
 99.60691    122.9 1.679e+04 4.169e-09
 99.62642    123.2 1.762e+04 5.149e-09
 99.64650    123.6 1.826e+04 5.947e-09
 99.65738    123.7 1.855e+04 6.257e-09
 99.66742    124.2 1.969e+04 1.070e-08
 99.68666    124.2 1.984e+04 1.122e-08
 99.70674    123.7 2.005e+04 1.218e-08
 99.72682    122.9 2.014e+04 1.287e-08
 99.73999    121.9 1.996e+04 1.265e-08
 99.74496    122.5 2.093e+04 1.955e-08
 99.75182    122.2 2.064e+04 1.829e-08
 99.76692    121.9 2.017e+04 1.635e-08
 99.78705    121.8 1.897e+04 1.208e-08
 99.80713    121.9 1.794e+04 9.217e-09
 99.82214    121.8 1.750e+04 8.200e-09
 99.82752    121.7 1.720e+04 7.307e-09
 99.83254    122.1 1.752e+04 8.128e-09
 99.84217    121.9 1.716e+04 7.137e-09
 99.85221    121.7 1.692e+04 6.421e-09
 99.86225    121.5 1.657e+04 5.601e-09
 99.86883    121.4 1.643e+04 5.454e-09
 99.87385    121.5 1.671e+04 5.534e-09
 99.88740    121.7 1.615e+04 5.390e-09
 99.90521    121.9 1.562e+04 5.272e-09
 99.91525    122.4 1.605e+04 5.028e-09
 99.92760    122.5 1.594e+04 5.078e-09
 99.94768    122.5 1.594e+04 5.188e-09
 99.96776    122.4 1.593e+04 5.408e-09
 99.98782    122.4 1.589e+04 5.376e-09
100.00790    122.7 1.620e+04 5.588e-09
