# Columns:
#   distance along LOS (in CHIMPs)
#   peculiar velocity  (in km/s)
#   temperature (K)
#   HI number density
# pos=(139.448,158.501,235.818), angles=(1.67776,4.70526)
  0.00020     44.1 1.808e+04 5.473e-09
  0.01022     38.9 1.591e+04 3.798e-09
  0.02986     36.3 1.403e+04 3.373e-09
  0.04951     36.3 1.381e+04 3.394e-09
  0.06915     36.5 1.376e+04 3.309e-09
  0.08879     36.6 1.372e+04 3.115e-09
  0.09941     36.5 1.364e+04 2.825e-09
  0.10923     37.2 1.300e+04 2.369e-09
  0.12808     36.8 1.278e+04 1.956e-09
  0.14773     36.3 1.254e+04 1.606e-09
  0.16737     35.6 1.231e+04 1.338e-09
  0.18701     35.1 1.212e+04 1.167e-09
  0.20666     34.8 1.188e+04 1.026e-09
  0.22630     34.7 1.171e+04 9.473e-10
  0.25587     33.8 1.086e+04 6.890e-10
  0.29525     33.9 1.035e+04 6.023e-10
  0.33454     34.1 9.961e+03 5.413e-10
  0.37383     34.3 9.923e+03 5.436e-10
  0.41312     34.2 1.019e+04 6.691e-10
  0.44952     34.6 1.097e+04 9.454e-10
  0.46916     35.0 1.054e+04 6.974e-10
  0.48177     35.1 1.104e+04 9.552e-10
  0.50132     35.1 1.160e+04 1.227e-09
  0.52096     34.6 1.232e+04 1.628e-09
  0.54061     34.5 1.274e+04 2.193e-09
  0.56025     35.1 1.284e+04 2.684e-09
  0.57990     35.9 1.288e+04 2.766e-09
  0.59954     36.5 1.292e+04 2.627e-09
  0.61918     36.9 1.273e+04 2.303e-09
  0.63883     37.0 1.227e+04 1.746e-09
  0.64884     36.6 1.171e+04 1.372e-09
  0.65866     37.8 1.279e+04 2.005e-09
  0.67812     37.2 1.195e+04 1.440e-09
  0.69776     36.6 1.116e+04 1.108e-09
  0.71740     36.8 1.062e+04 9.235e-10
  0.73705     37.3 1.037e+04 8.148e-10
  0.75669     38.1 1.024e+04 7.380e-10
  0.77634     39.0 1.009e+04 6.644e-10
  0.79598     40.0 9.945e+03 5.896e-10
  0.81562     40.9 9.843e+03 5.223e-10
  0.82871     41.5 9.760e+03 4.662e-10
  0.83853     42.1 1.013e+04 5.977e-10
  0.85491     42.8 1.001e+04 5.285e-10
  0.87456     43.5 1.000e+04 5.134e-10
  0.89420     44.2 1.004e+04 5.203e-10
  0.91384     44.8 1.016e+04 5.474e-10
  0.93349     45.5 1.038e+04 6.199e-10
  0.95313     46.2 1.065e+04 7.289e-10
  0.97278     47.1 1.095e+04 8.784e-10
  0.99242     48.0 1.144e+04 1.110e-09
  1.00858     48.1 1.268e+04 1.745e-09
  1.01840     49.8 1.190e+04 1.329e-09
  1.03171     50.2 1.402e+04 2.286e-09
  1.04639     48.6 1.600e+04 3.627e-09
  1.05616     46.6 1.825e+04 6.048e-09
  1.06599     44.8 2.050e+04 1.061e-08
  1.07581     43.4 2.225e+04 1.803e-08
  1.08563     42.6 2.345e+04 3.184e-08
  1.09545     42.1 2.386e+04 5.442e-08
  1.10333     40.7 2.442e+04 8.457e-08
  1.10824     43.0 2.535e+04 1.294e-07
  1.11510     37.8 2.576e+04 2.227e-07
  1.12492     30.7 2.664e+04 1.766e-07
  1.13474     22.8 2.813e+04 7.993e-08
  1.14456     14.6 2.335e+04 3.865e-08
  1.15439     11.0 1.916e+04 2.837e-08
  1.16421     11.1 1.882e+04 2.537e-08
  1.17403     11.9 1.893e+04 2.351e-08
  1.18840     12.1 1.904e+04 1.808e-08
  1.19822     11.8 1.948e+04 2.069e-08
  1.20845     12.2 1.894e+04 1.535e-08
  1.22815     12.2 1.761e+04 1.039e-08
  1.24779     12.8 1.603e+04 7.259e-09
  1.26744     14.0 1.493e+04 5.095e-09
  1.28708     15.4 1.407e+04 3.587e-09
  1.30672     16.2 1.337e+04 2.615e-09
  1.32637     16.5 1.265e+04 1.859e-09
  1.34601     17.2 1.174e+04 1.264e-09
  1.36566     17.5 1.131e+04 9.985e-10
  1.37814     18.0 1.093e+04 8.283e-10
  1.38796     18.3 1.102e+04 8.497e-10
  1.40494     18.9 1.070e+04 7.408e-10
  1.42459     19.8 1.027e+04 6.612e-10
  1.44423     20.5 1.024e+04 6.659e-10
  1.46388     21.0 1.031e+04 7.073e-10
  1.48352     21.9 1.030e+04 7.450e-10
  1.50316     22.3 1.058e+04 8.766e-10
  1.52281     23.1 1.073e+04 9.874e-10
  1.54245     23.7 1.092e+04 1.071e-09
  1.55801     24.4 1.116e+04 1.148e-09
  1.56783     24.4 1.128e+04 1.224e-09
  1.58174     24.9 1.142e+04 1.289e-09
  1.60132     25.6 1.156e+04 1.279e-09
  1.62097     24.9 1.169e+04 1.122e-09
  1.64067     24.9 1.167e+04 1.108e-09
  1.67024     24.4 1.206e+04 1.267e-09
  1.70962     22.9 1.231e+04 1.406e-09
  1.73798     21.4 1.206e+04 1.379e-09
  1.74770     22.7 1.202e+04 1.320e-09
  1.75854     22.1 1.169e+04 1.272e-09
  1.77818     22.0 1.168e+04 1.289e-09
  1.79782     21.1 1.201e+04 1.402e-09
  1.81747     19.8 1.237e+04 1.563e-09
  1.83711     18.6 1.240e+04 1.711e-09
  1.85676     17.7 1.259e+04 1.886e-09
  1.87640     16.9 1.324e+04 2.112e-09
  1.89604     15.1 1.449e+04 2.578e-09
  1.91569     11.8 1.594e+04 3.328e-09
  1.92757      8.2 1.679e+04 4.762e-09
  1.93740      9.1 1.711e+04 5.949e-09
  1.95498      7.5 1.682e+04 7.313e-09
  1.97462      7.4 1.686e+04 9.122e-09
  1.99426      7.9 1.730e+04 1.053e-08
  2.01391      8.0 1.761e+04 1.053e-08
  2.03355      8.5 1.733e+04 8.838e-09
  2.05320      8.1 1.652e+04 6.766e-09
  2.07284      7.4 1.542e+04 4.541e-09
  2.09248      6.9 1.440e+04 3.229e-09
  2.10744      6.9 1.356e+04 2.385e-09
  2.11727      7.7 1.433e+04 3.649e-09
  2.13177      8.2 1.355e+04 2.764e-09
  2.15142      8.9 1.239e+04 2.098e-09
  2.17106      9.9 1.171e+04 1.485e-09
  2.19070     11.2 1.128e+04 1.249e-09
  2.22027     12.1 1.069e+04 8.492e-10
  2.25965     13.8 1.019e+04 7.180e-10
  2.28751     16.3 9.902e+03 6.451e-10
  2.30715     16.1 9.585e+03 4.887e-10
  2.33823     19.0 9.277e+03 4.172e-10
  2.37752     21.6 9.082e+03 3.519e-10
  2.41681     24.1 8.895e+03 2.949e-10
  2.45609     26.4 8.747e+03 2.541e-10
  2.49538     28.9 8.601e+03 2.205e-10
  2.53467     31.3 8.457e+03 1.931e-10
  2.57396     33.7 8.356e+03 1.745e-10
  2.61325     36.0 8.352e+03 1.709e-10
  2.64725     38.2 8.364e+03 1.793e-10
  2.66689     37.7 8.332e+03 1.770e-10
  2.69182     40.0 8.391e+03 1.953e-10
  2.73111     42.5 8.466e+03 2.042e-10
  2.77040     44.8 8.475e+03 2.012e-10
  2.80969     47.0 8.482e+03 1.853e-10
  2.84897     49.0 8.516e+03 1.650e-10
  2.88826     50.8 8.547e+03 1.623e-10
  2.92755     52.5 8.577e+03 1.675e-10
  2.96684     54.2 8.711e+03 1.853e-10
  3.00613     56.0 8.851e+03 2.118e-10
  3.02663     57.8 8.979e+03 2.389e-10
  3.04628     58.0 8.765e+03 1.975e-10
  3.08470     59.7 8.868e+03 2.100e-10
  3.12399     61.3 8.986e+03 2.330e-10
  3.16328     62.8 9.146e+03 2.761e-10
  3.20257     64.4 9.322e+03 3.409e-10
  3.24185     66.0 9.549e+03 4.096e-10
  3.28114     67.6 9.731e+03 4.717e-10
  3.32043     69.1 9.877e+03 5.010e-10
  3.35972     70.5 9.991e+03 5.143e-10
  3.38637     71.8 1.008e+04 5.328e-10
  3.40602     72.6 1.036e+04 6.224e-10
  3.43830     73.9 1.040e+04 6.309e-10
  3.47758     75.4 1.045e+04 6.285e-10
  3.50695     76.2 1.044e+04 6.269e-10
  3.52650     77.0 1.042e+04 6.099e-10
  3.54614     77.7 1.037e+04 5.896e-10
  3.56579     78.5 1.035e+04 5.780e-10
  3.57587     79.4 1.034e+04 5.752e-10
  3.58569     79.5 1.045e+04 6.131e-10
  3.60507     80.5 1.045e+04 6.170e-10
  3.63464     81.5 1.048e+04 6.173e-10
  3.67402     83.1 1.061e+04 6.760e-10
  3.71331     84.5 1.086e+04 8.058e-10
  3.74611     85.8 1.108e+04 8.824e-10
  3.76576     86.2 1.096e+04 8.369e-10
  3.79189     87.2 1.092e+04 7.869e-10
  3.83118     87.9 1.082e+04 6.794e-10
  3.87046     88.2 1.069e+04 5.722e-10
  3.90975     88.4 1.070e+04 5.704e-10
  3.94904     88.7 1.082e+04 6.096e-10
  3.97841     89.1 1.079e+04 6.160e-10
  3.99795     89.4 1.082e+04 6.413e-10
  4.01760     89.7 1.089e+04 6.775e-10
  4.03724     90.1 1.100e+04 7.231e-10
  4.05689     90.4 1.115e+04 7.822e-10
  4.07653     90.7 1.132e+04 8.533e-10
  4.09617     90.9 1.149e+04 9.226e-10
  4.11548     91.3 1.167e+04 9.721e-10
  4.12530     92.0 1.152e+04 9.470e-10
  4.13546     92.4 1.171e+04 1.009e-09
  4.15511     92.7 1.183e+04 1.004e-09
  4.17475     93.0 1.186e+04 9.869e-10
  4.19439     93.2 1.186e+04 9.309e-10
  4.21404     93.5 1.178e+04 8.504e-10
  4.23368     93.7 1.165e+04 7.628e-10
  4.25333     93.9 1.149e+04 6.838e-10
  4.27297     94.0 1.133e+04 6.250e-10
  4.29261     94.1 1.119e+04 5.906e-10
  4.30517     94.2 1.107e+04 5.758e-10
  4.31499     95.0 1.115e+04 5.866e-10
  4.33190     95.1 1.107e+04 5.833e-10
  4.35155     95.4 1.101e+04 5.837e-10
  4.36459     95.7 1.094e+04 5.787e-10
  4.37441     95.8 1.116e+04 7.228e-10
  4.39083     96.2 1.110e+04 7.163e-10
  4.41048     96.6 1.098e+04 6.811e-10
  4.43012     97.0 1.083e+04 6.182e-10
  4.44977     97.3 1.070e+04 5.435e-10
  4.46941     97.5 1.061e+04 4.843e-10
  4.48504     97.8 1.050e+04 4.445e-10
  4.49486     98.5 1.083e+04 5.864e-10
  4.50870     98.7 1.075e+04 5.504e-10
  4.53826     99.5 1.098e+04 6.484e-10
  4.57765     99.8 1.084e+04 6.312e-10
  4.61694     99.8 1.083e+04 6.621e-10
  4.65622     99.5 1.082e+04 6.736e-10
  4.69551     99.0 1.072e+04 6.343e-10
  4.73480     98.5 1.041e+04 5.077e-10
  4.77409     98.0 9.984e+03 3.463e-10
  4.81338     97.3 9.513e+03 2.207e-10
  4.84498     96.7 9.246e+03 1.697e-10
  4.86462     97.1 9.128e+03 1.507e-10
  4.89195     97.0 9.118e+03 1.431e-10
  4.93124     97.0 9.137e+03 1.464e-10
  4.97053     97.0 9.191e+03 1.591e-10
  5.00982     97.1 9.247e+03 1.779e-10
  5.04910     97.3 9.278e+03 1.908e-10
  5.08839     97.5 9.267e+03 1.888e-10
  5.12768     97.8 9.233e+03 1.778e-10
  5.16697     98.2 9.168e+03 1.625e-10
  5.20472     98.7 9.087e+03 1.524e-10
  5.22436     99.3 8.736e+03 9.065e-11
  5.24554     99.9 8.725e+03 9.828e-11
  5.28483    100.9 8.747e+03 1.157e-10
  5.32412    102.2 8.787e+03 1.355e-10
  5.36341    103.7 8.872e+03 1.427e-10
  5.40270    105.1 8.891e+03 1.413e-10
  5.44198    106.6 8.919e+03 1.326e-10
  5.48127    107.9 8.890e+03 1.188e-10
  5.52056    109.3 8.862e+03 1.118e-10
  5.55985    110.6 8.867e+03 1.128e-10
  5.58410    111.8 8.910e+03 1.198e-10
  5.60374    112.4 8.728e+03 1.097e-10
  5.63842    113.7 8.815e+03 1.218e-10
  5.67771    115.1 8.927e+03 1.473e-10
  5.71700    116.5 9.128e+03 1.953e-10
  5.75629    118.0 9.342e+03 2.561e-10
  5.79558    119.3 9.549e+03 2.982e-10
  5.83487    120.2 9.704e+03 3.111e-10
  5.87415    120.8 9.755e+03 3.096e-10
  5.91344    121.2 9.818e+03 3.034e-10
  5.94384    121.2 9.882e+03 2.917e-10
  5.96348    121.8 9.881e+03 2.969e-10
  5.99202    121.8 9.884e+03 2.782e-10
  6.03131    121.9 9.850e+03 2.624e-10
  6.07059    122.1 9.851e+03 2.621e-10
  6.10988    122.6 9.900e+03 2.685e-10
  6.14917    123.3 1.002e+04 2.858e-10
  6.18846    124.3 1.017e+04 3.064e-10
  6.22775    125.4 1.035e+04 3.356e-10
  6.26703    126.6 1.057e+04 3.793e-10
  6.30358    128.0 1.089e+04 4.759e-10
  6.32322    129.2 1.042e+04 3.409e-10
  6.34561    130.6 1.056e+04 3.827e-10
  6.38490    132.1 1.071e+04 4.270e-10
  6.41427    132.7 1.071e+04 4.431e-10
  6.43381    133.2 1.068e+04 4.486e-10
  6.45346    133.9 1.066e+04 4.481e-10
  6.47310    134.7 1.064e+04 4.421e-10
  6.49274    135.5 1.063e+04 4.251e-10
  6.50290    136.1 1.065e+04 4.069e-10
  6.51272    136.8 1.056e+04 4.277e-10
  6.53203    137.6 1.059e+04 4.261e-10
  6.55168    138.3 1.066e+04 4.270e-10
  6.57132    138.8 1.076e+04 4.356e-10
  6.59096    139.2 1.086e+04 4.621e-10
  6.61061    139.5 1.095e+04 5.137e-10
  6.63025    139.8 1.107e+04 5.967e-10
  6.64990    140.0 1.124e+04 7.108e-10
  6.66954    140.1 1.155e+04 8.790e-10
  6.68277    139.9 1.224e+04 1.158e-09
  6.69259    141.5 1.178e+04 1.045e-09
  6.70883    141.1 1.266e+04 1.413e-09
  6.72847    139.8 1.412e+04 2.146e-09
  6.74812    137.9 1.555e+04 3.391e-09
  6.76776    136.2 1.645e+04 4.789e-09
  6.78244    135.4 1.698e+04 5.481e-09
  6.79222    134.4 1.716e+04 6.399e-09
  6.80204    133.5 1.707e+04 6.539e-09
  6.81186    132.9 1.693e+04 6.382e-09
  6.82168    132.3 1.656e+04 5.769e-09
  6.83151    131.7 1.598e+04 4.911e-09
  6.84629    131.0 1.556e+04 3.942e-09
  6.86264    129.5 1.454e+04 2.341e-09
  6.87246    131.7 1.613e+04 3.938e-09
  6.88562    129.6 1.483e+04 2.122e-09
  6.90527    126.4 1.271e+04 9.279e-10
  6.92491    123.0 1.049e+04 4.209e-10
  6.94456    121.5 9.813e+03 3.156e-10
  6.96420    121.6 9.659e+03 2.972e-10
  6.98384    121.8 9.687e+03 2.938e-10
  7.01341    122.9 9.655e+03 2.827e-10
  7.04270    124.6 9.516e+03 2.721e-10
  7.06235    124.3 9.693e+03 2.864e-10
  7.09208    126.4 9.624e+03 2.848e-10
  7.13137    128.4 9.648e+03 2.953e-10
  7.17066    130.3 9.793e+03 3.392e-10
  7.20995    132.1 1.002e+04 4.059e-10
  7.23230    132.6 1.011e+04 4.458e-10
  7.24202    132.7 1.011e+04 4.420e-10
  7.25886    133.6 1.017e+04 4.790e-10
  7.27851    134.7 1.025e+04 5.286e-10
  7.29815    135.7 1.033e+04 5.735e-10
  7.31779    136.6 1.040e+04 6.031e-10
  7.33744    137.3 1.047e+04 6.242e-10
  7.35708    138.0 1.053e+04 6.429e-10
  7.37673    138.6 1.060e+04 6.601e-10
  7.39637    139.2 1.066e+04 6.663e-10
  7.41207    139.8 1.066e+04 6.629e-10
  7.42189    140.1 1.076e+04 7.131e-10
  7.43566    140.7 1.074e+04 6.989e-10
  7.45530    141.3 1.066e+04 6.581e-10
  7.47495    141.9 1.055e+04 5.864e-10
  7.49459    142.2 1.042e+04 5.105e-10
  7.52415    143.1 1.026e+04 4.376e-10
  7.56354    143.9 9.916e+03 3.265e-10
  7.60283    144.6 9.591e+03 2.464e-10
  7.64211    145.3 9.413e+03 2.120e-10
  7.68140    146.1 9.404e+03 2.110e-10
  7.72069    147.2 9.450e+03 2.165e-10
  7.75998    147.7 9.640e+03 2.430e-10
  7.78183    147.6 9.884e+03 2.935e-10
  7.80147    148.1 9.908e+03 3.123e-10
  7.82864    147.7 1.001e+04 3.461e-10
  7.84818    147.5 1.023e+04 4.214e-10
  7.86783    147.4 1.060e+04 5.835e-10
  7.88747    147.2 1.101e+04 8.171e-10
  7.90711    147.1 1.135e+04 1.058e-09
  7.92676    146.9 1.160e+04 1.129e-09
  7.94640    146.4 1.160e+04 1.119e-09
  7.96150    145.7 1.155e+04 1.038e-09
  7.97132    146.4 1.192e+04 1.280e-09
  7.98569    145.5 1.177e+04 1.065e-09
  8.00533    144.1 1.159e+04 8.248e-10
  8.02498    142.0 1.158e+04 7.452e-10
  8.04462    139.4 1.166e+04 7.689e-10
  8.06427    135.9 1.227e+04 9.500e-10
  8.08391    131.5 1.364e+04 1.717e-09
  8.10355    127.9 1.525e+04 3.687e-09
  8.12320    125.7 1.658e+04 6.992e-09
  8.14137    124.1 1.762e+04 9.415e-09
  8.15119    122.8 1.854e+04 1.127e-08
  8.16249    120.2 1.874e+04 9.942e-09
  8.18213    116.3 1.857e+04 6.886e-09
  8.20177    110.4 1.798e+04 4.011e-09
  8.22142    103.7 1.600e+04 2.778e-09
  8.24106     98.8 1.431e+04 2.655e-09
  8.26071     96.5 1.404e+04 2.696e-09
  8.28035     95.4 1.401e+04 2.716e-09
  8.29999     94.5 1.394e+04 2.633e-09
  8.31964     93.7 1.362e+04 2.311e-09
  8.33106     92.9 1.319e+04 1.905e-09
  8.34089     91.8 1.312e+04 1.852e-09
  8.35893     91.0 1.263e+04 1.473e-09
  8.38849     89.2 1.188e+04 1.053e-09
  8.42788     87.7 1.089e+04 6.955e-10
  8.46716     87.2 1.010e+04 4.628e-10
  8.50131     87.1 9.494e+03 3.054e-10
  8.52095     86.2 9.488e+03 2.872e-10
  8.54574     86.2 9.035e+03 2.031e-10
  8.58503     86.3 8.715e+03 1.639e-10
  8.62432     86.6 8.621e+03 1.593e-10
  8.66360     87.1 8.635e+03 1.638e-10
  8.70289     87.2 8.815e+03 1.918e-10
  8.74218     86.9 9.230e+03 2.566e-10
  8.78147     86.2 9.653e+03 3.346e-10
  8.81084     85.4 9.955e+03 4.239e-10
  8.83038     84.6 1.043e+04 5.831e-10
  8.85003     83.4 1.110e+04 8.417e-10
  8.86967     81.9 1.184e+04 1.209e-09
  8.88050     80.5 1.255e+04 1.673e-09
  8.89032     79.6 1.273e+04 1.800e-09
  8.90896     78.0 1.315e+04 1.952e-09
  8.92860     76.0 1.316e+04 1.888e-09
  8.94825     73.7 1.295e+04 1.584e-09
  8.96789     71.3 1.236e+04 1.124e-09
  8.98753     68.8 1.150e+04 7.189e-10
  9.01710     64.5 1.051e+04 4.212e-10
  9.05648     61.5 9.616e+03 2.575e-10
  9.09577     59.0 9.099e+03 1.845e-10
  9.13506     56.3 9.199e+03 1.935e-10
  9.17435     53.2 9.630e+03 2.677e-10
  9.21364     50.9 1.005e+04 4.269e-10
  9.24043     49.1 1.042e+04 5.258e-10
  9.26008     47.4 1.048e+04 5.863e-10
  9.29221     44.9 1.092e+04 5.867e-10
  9.32158     44.3 1.060e+04 5.692e-10
  9.34113     38.1 1.397e+04 9.438e-10
  9.36077     28.2 1.692e+04 2.880e-09
  9.38041     24.4 1.621e+04 5.928e-09
  9.39510     23.5 1.615e+04 7.113e-09
  9.40487     23.6 1.624e+04 7.707e-09
  9.41965     22.6 1.687e+04 7.912e-09
  9.42993     17.2 1.931e+04 6.011e-09
  9.43975     17.2 1.801e+04 4.011e-09
  9.45899      2.2 1.747e+04 2.541e-09
  9.47863     -9.6 1.580e+04 2.832e-09
  9.49828    -14.4 1.521e+04 3.710e-09
  9.51792    -18.5 1.557e+04 4.127e-09
  9.53757    -25.3 1.926e+04 4.021e-09
  9.55721    -37.4 2.067e+04 4.360e-09
  9.57685    -46.7 1.791e+04 6.077e-09
  9.59650    -49.3 1.764e+04 8.716e-09
  9.60980    -50.4 1.761e+04 9.426e-09
  9.61962    -49.5 1.810e+04 1.114e-08
  9.63579    -50.3 1.787e+04 1.103e-08
  9.65543    -51.0 1.733e+04 8.013e-09
  9.67508    -53.0 1.602e+04 3.892e-09
  9.69472    -56.6 1.337e+04 1.579e-09
  9.71436    -60.0 1.083e+04 7.514e-10
  9.73401    -61.1 9.892e+03 5.232e-10
  9.75365    -61.2 9.522e+03 4.436e-10
  9.77330    -60.4 9.350e+03 4.031e-10
  9.78967    -59.4 9.306e+03 3.822e-10
  9.79949    -59.7 9.534e+03 4.649e-10
  9.81258    -58.7 9.469e+03 4.379e-10
  9.84215    -57.7 9.367e+03 3.897e-10
  9.87167    -56.3 9.299e+03 3.750e-10
  9.89131    -55.1 9.374e+03 3.819e-10
  9.92082    -53.6 9.150e+03 3.438e-10
  9.95991    -52.2 9.065e+03 3.280e-10
  9.97956    -51.7 9.255e+03 3.641e-10
  9.99940    -50.2 9.230e+03 3.589e-10
 10.03868    -48.9 9.349e+03 3.806e-10
 10.07797    -47.9 9.488e+03 4.209e-10
 10.11726    -46.7 9.619e+03 4.580e-10
 10.15655    -45.8 9.646e+03 4.713e-10
 10.19584    -44.5 9.499e+03 4.216e-10
 10.23512    -43.1 9.225e+03 3.299e-10
 10.27441    -41.8 8.984e+03 2.573e-10
 10.31370    -40.7 8.833e+03 2.191e-10
 10.33930    -39.7 8.794e+03 2.108e-10
 10.35894    -38.9 9.178e+03 2.787e-10
 10.39228    -38.1 9.223e+03 2.798e-10
 10.43157    -37.7 9.527e+03 3.267e-10
 10.47085    -37.6 9.798e+03 4.101e-10
 10.50022    -37.5 9.924e+03 5.021e-10
 10.51897    -37.3 9.989e+03 5.275e-10
 10.52879    -36.9 1.003e+04 5.482e-10
 10.53941    -37.7 1.028e+04 5.908e-10
 10.55906    -40.0 1.141e+04 7.305e-10
 10.57870    -42.9 1.332e+04 1.136e-09
 10.59834    -45.2 1.421e+04 1.809e-09
 10.61799    -46.4 1.432e+04 2.519e-09
 10.63763    -46.9 1.409e+04 2.895e-09
 10.65728    -47.0 1.368e+04 2.802e-09
 10.67692    -47.0 1.326e+04 2.459e-09
 10.69656    -46.6 1.273e+04 1.982e-09
 10.70866    -46.1 1.221e+04 1.376e-09
 10.71848    -45.9 1.239e+04 1.393e-09
 10.73585    -45.8 1.181e+04 8.589e-10
 10.75550    -46.0 1.118e+04 5.264e-10
 10.77514    -46.1 1.062e+04 3.471e-10
 10.79478    -46.0 1.033e+04 2.826e-10
 10.82435    -44.6 1.026e+04 2.649e-10
 10.86373    -42.9 1.011e+04 2.335e-10
 10.90302    -41.2 9.850e+03 1.930e-10
 10.94231    -39.6 9.653e+03 1.677e-10
 10.98160    -38.0 9.563e+03 1.593e-10
 11.02089    -36.4 9.546e+03 1.613e-10
 11.05878    -35.0 9.538e+03 1.675e-10
 11.07842    -34.4 9.551e+03 1.770e-10
 11.09946    -33.0 9.538e+03 1.818e-10
 11.13875    -31.6 9.494e+03 1.801e-10
 11.17804    -30.5 9.474e+03 1.786e-10
 11.21733    -29.9 9.549e+03 1.860e-10
 11.25661    -29.9 9.881e+03 2.562e-10
 11.29590    -30.4 1.062e+04 4.577e-10
 11.32527    -32.7 1.098e+04 7.152e-10
 11.34482    -35.0 1.224e+04 1.040e-09
 11.36446    -35.0 1.324e+04 1.317e-09
 11.38410    -39.5 1.515e+04 2.229e-09
 11.40375    -43.6 1.588e+04 3.517e-09
 11.42339    -47.2 1.582e+04 4.617e-09
 11.43796    -50.2 1.567e+04 5.028e-09
 11.44779    -49.3 1.555e+04 4.484e-09
 11.46268    -52.5 1.557e+04 4.835e-09
 11.48232    -56.0 1.543e+04 4.699e-09
 11.50197    -59.6 1.486e+04 3.872e-09
 11.52161    -63.0 1.392e+04 2.940e-09
 11.54126    -65.6 1.290e+04 2.182e-09
 11.56090    -67.3 1.209e+04 1.598e-09
 11.58054    -68.8 1.141e+04 1.135e-09
 11.60019    -70.3 1.072e+04 7.839e-10
 11.61783    -71.5 1.005e+04 5.527e-10
 11.62766    -70.8 1.017e+04 5.923e-10
 11.63948    -71.7 9.651e+03 4.469e-10
 11.65912    -72.1 9.477e+03 3.933e-10
 11.67876    -72.4 9.440e+03 3.824e-10
 11.69841    -72.9 9.491e+03 3.839e-10
 11.71805    -74.5 9.778e+03 4.287e-10
 11.73770    -77.7 1.106e+04 8.224e-10
 11.75734    -80.7 1.360e+04 2.009e-09
 11.77698    -82.7 1.603e+04 4.713e-09
 11.79663    -84.0 1.807e+04 9.636e-09
 11.80753    -85.1 1.964e+04 1.680e-08
 11.81735    -84.1 1.946e+04 1.542e-08
 11.83096    -85.6 2.042e+04 2.113e-08
 11.84073    -86.7 2.078e+04 2.557e-08
 11.85055    -87.8 2.080e+04 2.850e-08
 11.86037    -88.6 2.072e+04 2.875e-08
 11.87020    -89.0 2.017e+04 2.618e-08
 11.88002    -89.2 1.956e+04 2.024e-08
 11.88984    -89.9 1.896e+04 1.462e-08
 11.89736    -91.0 1.832e+04 1.032e-08
 11.90227    -91.7 1.772e+04 8.467e-09
 11.90948    -93.3 1.681e+04 6.244e-09
 11.91931    -95.2 1.594e+04 4.846e-09
 11.93409    -96.7 1.532e+04 4.065e-09
 11.95378    -98.6 1.446e+04 3.188e-09
 11.97343   -100.9 1.348e+04 2.476e-09
 11.98740   -102.7 1.298e+04 2.189e-09
 11.99722   -102.6 1.302e+04 2.210e-09
 12.01271   -103.8 1.278e+04 2.065e-09
 12.03236   -104.6 1.258e+04 1.899e-09
 12.05200   -105.2 1.231e+04 1.675e-09
 12.07165   -105.8 1.197e+04 1.420e-09
 12.09129   -106.3 1.159e+04 1.185e-09
 12.11093   -106.5 1.123e+04 9.923e-10
 12.13058   -106.6 1.094e+04 8.436e-10
 12.15022   -106.6 1.068e+04 7.186e-10
 12.16727   -106.5 1.043e+04 6.063e-10
 12.17709   -107.0 1.030e+04 5.596e-10
 12.18951   -106.8 1.006e+04 4.564e-10
 12.20915   -106.8 9.854e+03 3.803e-10
 12.23872   -106.7 9.680e+03 3.291e-10
 12.27810   -105.5 9.494e+03 2.887e-10
 12.31739   -104.2 9.387e+03 2.720e-10
 12.35668   -102.8 9.388e+03 2.739e-10
 12.39597   -101.4 9.517e+03 2.940e-10
 12.43525   -100.0 9.655e+03 3.171e-10
 12.47454    -98.6 9.752e+03 3.301e-10
 12.51383    -97.3 9.805e+03 3.320e-10
 12.53702    -96.1 9.816e+03 3.326e-10
 12.55667    -96.9 9.882e+03 3.629e-10
 12.59241    -95.7 9.958e+03 3.742e-10
 12.63169    -94.6 1.003e+04 3.829e-10
 12.67098    -93.5 1.007e+04 3.852e-10
 12.71027    -92.3 1.007e+04 3.701e-10
 12.74956    -91.2 9.951e+03 3.326e-10
 12.78885    -90.0 9.773e+03 2.851e-10
 12.82814    -88.8 9.621e+03 2.440e-10
 12.86742    -87.6 9.581e+03 2.248e-10
 12.89676    -86.5 9.619e+03 2.226e-10
 12.91641    -87.1 9.314e+03 1.858e-10
 12.94600    -86.1 9.592e+03 1.972e-10
 12.98529    -85.9 1.005e+04 2.556e-10
 13.01466    -87.1 1.060e+04 3.933e-10
 13.03420    -88.9 1.141e+04 7.157e-10
 13.05385    -89.8 1.231e+04 1.341e-09
 13.07349    -90.0 1.318e+04 2.294e-09
 13.08626    -89.9 1.390e+04 3.373e-09
 13.09608    -89.9 1.388e+04 3.340e-09
 13.11278    -90.0 1.428e+04 3.923e-09
 13.13242    -90.3 1.437e+04 4.053e-09
 13.15207    -90.7 1.433e+04 3.874e-09
 13.17171    -91.2 1.425e+04 3.503e-09
 13.19135    -92.1 1.421e+04 3.271e-09
 13.21100    -93.0 1.418e+04 3.212e-09
 13.23064    -93.5 1.412e+04 3.200e-09
 13.25029    -93.6 1.400e+04 3.140e-09
 13.26613    -93.7 1.381e+04 2.966e-09
 13.27595    -94.2 1.348e+04 2.464e-09
 13.28957    -93.9 1.338e+04 2.451e-09
 13.30922    -93.5 1.331e+04 2.311e-09
 13.32886    -93.2 1.323e+04 2.123e-09
 13.34851    -92.9 1.323e+04 1.886e-09
 13.36815    -92.9 1.311e+04 1.646e-09
 13.38779    -92.8 1.289e+04 1.446e-09
 13.41736    -92.1 1.266e+04 1.276e-09
 13.45674    -90.9 1.244e+04 1.115e-09
 13.49603    -89.6 1.235e+04 1.015e-09
 13.53532    -88.2 1.227e+04 9.055e-10
 13.57461    -87.2 1.218e+04 8.162e-10
 13.61390    -86.4 1.212e+04 7.757e-10
 13.63589    -85.7 1.209e+04 7.708e-10
 13.65553    -85.3 1.192e+04 6.787e-10
 13.69247    -84.6 1.186e+04 6.640e-10
 13.73176    -84.0 1.179e+04 6.512e-10
 13.77105    -83.2 1.164e+04 6.150e-10
 13.81034    -82.2 1.132e+04 5.142e-10
 13.84962    -80.8 1.090e+04 3.735e-10
 13.88891    -79.3 1.052e+04 2.637e-10
 13.92820    -77.5 1.024e+04 2.001e-10
 13.96749    -75.6 1.009e+04 1.685e-10
 13.99563    -73.6 9.979e+03 1.527e-10
 14.01527    -73.3 1.000e+04 1.608e-10
 14.04606    -71.3 9.922e+03 1.497e-10
 14.08535    -69.3 9.867e+03 1.433e-10
 14.12464    -67.1 9.828e+03 1.394e-10
 14.16393    -65.0 9.797e+03 1.359e-10
 14.20322    -62.8 9.760e+03 1.302e-10
 14.24250    -60.6 9.717e+03 1.193e-10
 14.28179    -58.4 9.665e+03 1.049e-10
 14.32108    -56.2 9.600e+03 9.192e-11
 14.35537    -54.0 9.549e+03 8.316e-11
 14.37501    -54.0 9.460e+03 6.854e-11
 14.39966    -51.7 9.450e+03 6.645e-11
 14.43894    -49.5 9.472e+03 6.654e-11
 14.47823    -47.4 9.530e+03 7.471e-11
 14.51752    -45.4 9.585e+03 9.081e-11
 14.55681    -43.2 9.668e+03 1.110e-10
 14.59610    -41.2 9.788e+03 1.341e-10
 14.63538    -39.2 9.926e+03 1.613e-10
 14.67467    -37.4 1.006e+04 1.932e-10
 14.71396    -35.7 1.017e+04 2.257e-10
 14.73475    -34.0 1.023e+04 2.459e-10
 14.75440    -34.3 1.004e+04 1.881e-10
 14.79254    -32.8 1.002e+04 1.893e-10
 14.83182    -31.1 9.927e+03 1.830e-10
 14.87111    -29.7 9.900e+03 1.751e-10
 14.91040    -28.7 1.020e+04 1.971e-10
 14.94969    -28.4 1.067e+04 2.758e-10
 14.97906    -28.6 1.121e+04 4.074e-10
 14.99860    -30.0 1.196e+04 6.261e-10
 15.01825    -31.3 1.307e+04 1.127e-09
 15.03789    -33.3 1.424e+04 1.989e-09
 15.05754    -35.4 1.527e+04 3.338e-09
 15.07718    -37.8 1.630e+04 4.534e-09
 15.09430    -40.9 1.706e+04 5.219e-09
 15.10412    -42.4 1.621e+04 3.850e-09
 15.11647    -46.9 1.595e+04 3.032e-09
 15.13611    -52.0 1.487e+04 2.167e-09
 15.15576    -56.4 1.351e+04 1.543e-09
 15.17540    -59.6 1.249e+04 1.134e-09
 15.19504    -61.6 1.189e+04 8.690e-10
 15.21469    -62.6 1.151e+04 6.750e-10
 15.23433    -63.4 1.120e+04 5.343e-10
 15.25398    -63.9 1.091e+04 4.274e-10
 15.27362    -64.3 1.068e+04 3.681e-10
 15.30318    -64.3 1.065e+04 3.619e-10
 15.34257    -63.4 1.047e+04 3.290e-10
 15.37855    -62.6 1.074e+04 3.654e-10
 15.39819    -62.5 1.023e+04 2.657e-10
 15.42115    -62.0 1.103e+04 4.319e-10
 15.45423    -61.4 1.179e+04 7.613e-10
 15.47388    -60.6 1.105e+04 4.791e-10
 15.49972    -60.0 1.177e+04 8.485e-10
 15.52909    -60.0 1.237e+04 1.289e-09
 15.54864    -59.9 1.249e+04 1.415e-09
 15.57820    -59.5 1.265e+04 1.602e-09
 15.61759    -59.0 1.276e+04 1.704e-09
 15.65687    -58.3 1.260e+04 1.580e-09
 15.69616    -57.4 1.222e+04 1.326e-09
 15.73545    -55.9 1.176e+04 1.078e-09
 15.77474    -53.9 1.137e+04 8.896e-10
 15.81397    -51.7 1.106e+04 7.524e-10
 15.85326    -49.3 1.086e+04 6.629e-10
 15.89260    -46.7 1.058e+04 5.611e-10
 15.93189    -44.0 1.031e+04 4.675e-10
 15.97118    -41.3 1.007e+04 3.832e-10
 16.01047    -38.6 9.849e+03 3.104e-10
 16.04975    -35.9 9.647e+03 2.478e-10
 16.08904    -33.3 9.475e+03 1.996e-10
 16.12833    -30.7 9.340e+03 1.748e-10
 16.16762    -28.2 9.304e+03 1.723e-10
 16.19336    -25.8 9.290e+03 1.899e-10
 16.21300    -26.3 9.335e+03 1.945e-10
 16.24619    -24.0 9.474e+03 2.288e-10
 16.28548    -21.7 9.662e+03 2.719e-10
 16.32477    -19.4 9.887e+03 3.205e-10
 16.36406    -17.4 1.018e+04 3.796e-10
 16.40335    -15.8 1.047e+04 4.565e-10
 16.44263    -14.7 1.073e+04 5.639e-10
 16.48192    -13.7 1.104e+04 7.207e-10
 16.52121    -12.9 1.140e+04 8.687e-10
 16.55310    -12.5 1.164e+04 9.296e-10
 16.57274    -13.3 1.135e+04 8.184e-10
 16.59979    -13.6 1.144e+04 7.803e-10
 16.63907    -15.1 1.162e+04 8.064e-10
 16.67836    -16.7 1.182e+04 1.022e-09
 16.71765    -17.3 1.189e+04 1.280e-09
 16.74269    -17.0 1.181e+04 1.323e-09
 16.75241    -17.7 1.205e+04 1.493e-09
 16.76657    -17.7 1.191e+04 1.457e-09
 16.78621    -17.9 1.153e+04 1.262e-09
 16.80585    -18.2 1.120e+04 1.049e-09
 16.82550    -18.7 1.076e+04 8.621e-10
 16.84514    -18.9 1.046e+04 7.288e-10
 16.86479    -19.2 1.014e+04 6.278e-10
 16.88443    -19.1 9.899e+03 5.625e-10
 16.90407    -18.9 9.675e+03 5.140e-10
 16.92246    -18.3 9.518e+03 4.772e-10
 16.93228    -18.8 9.690e+03 5.141e-10
 16.94336    -18.1 9.539e+03 4.615e-10
 16.96301    -17.6 9.388e+03 4.087e-10
 16.99257    -17.5 9.227e+03 3.538e-10
 17.03195    -16.6 8.981e+03 3.089e-10
 17.07124    -15.9 8.945e+03 3.018e-10
 17.11053    -15.4 9.036e+03 3.316e-10
 17.13990    -15.0 9.268e+03 4.180e-10
 17.15945    -14.9 9.412e+03 4.702e-10
 17.17909    -14.6 9.620e+03 5.355e-10
 17.19873    -14.5 9.794e+03 5.762e-10
 17.21838    -14.5 9.957e+03 5.970e-10
 17.23802    -14.8 1.003e+04 5.960e-10
 17.25767    -15.2 1.009e+04 5.973e-10
 17.27731    -15.8 1.014e+04 6.026e-10
 17.29202    -16.2 1.025e+04 6.531e-10
 17.30185    -16.9 1.040e+04 6.932e-10
 17.31660    -17.0 1.057e+04 7.628e-10
 17.34616    -17.5 1.084e+04 8.601e-10
 17.37563    -18.1 1.146e+04 1.105e-09
 17.39517    -18.7 1.169e+04 1.192e-09
 17.41482    -21.0 1.267e+04 1.743e-09
 17.43446    -23.2 1.352e+04 2.443e-09
 17.45411    -24.9 1.419e+04 3.144e-09
 17.47189    -26.7 1.443e+04 3.365e-09
 17.48172    -26.8 1.472e+04 3.655e-09
 17.49339    -29.0 1.473e+04 3.602e-09
 17.51304    -31.5 1.404e+04 2.469e-09
 17.53268    -35.0 1.271e+04 1.293e-09
 17.55233    -39.3 1.095e+04 6.533e-10
 17.57197    -42.7 1.019e+04 4.281e-10
 17.59161    -44.5 1.009e+04 3.790e-10
 17.61126    -46.0 1.011e+04 3.717e-10
 17.63090    -48.0 1.046e+04 3.803e-10
 17.65186    -53.7 1.180e+04 5.094e-10
 17.67151    -52.5 1.122e+04 5.198e-10
 17.68983    -60.0 1.453e+04 1.076e-09
 17.70948    -67.9 1.732e+04 2.835e-09
 17.72912    -74.4 1.846e+04 6.535e-09
 17.74877    -79.3 1.897e+04 1.096e-08
 17.76841    -83.4 1.954e+04 1.330e-08
 17.78805    -88.0 1.993e+04 1.350e-08
 17.80770    -93.4 1.990e+04 1.138e-08
 17.82734    -99.2 1.907e+04 8.753e-09
 17.84146   -104.2 1.783e+04 7.076e-09
 17.85128   -105.1 1.674e+04 5.710e-09
 17.86663   -107.6 1.629e+04 5.448e-09
 17.88627   -109.0 1.601e+04 5.315e-09
 17.90592   -109.8 1.575e+04 5.054e-09
 17.92556   -110.4 1.540e+04 4.319e-09
 17.94521   -111.3 1.488e+04 3.405e-09
 17.96485   -112.4 1.422e+04 2.613e-09
 17.98449   -113.6 1.348e+04 2.039e-09
 18.00414   -114.7 1.284e+04 1.672e-09
 18.02133   -115.7 1.244e+04 1.466e-09
 18.03115   -114.5 1.412e+04 2.492e-09
 18.04343   -115.5 1.386e+04 2.380e-09
 18.06307   -116.2 1.375e+04 2.357e-09
 18.08271   -116.8 1.367e+04 2.350e-09
 18.10236   -117.0 1.361e+04 2.321e-09
 18.12200   -117.0 1.343e+04 2.162e-09
 18.14162   -117.0 1.305e+04 1.844e-09
 18.16126   -116.3 1.251e+04 1.452e-09
 18.18093   -116.4 1.191e+04 1.106e-09
 18.20058   -116.6 1.126e+04 8.296e-10
 18.21102   -116.8 1.067e+04 6.448e-10
 18.22084   -115.5 1.196e+04 1.235e-09
 18.23987   -116.0 1.127e+04 9.342e-10
 18.25951   -116.3 1.078e+04 7.752e-10
 18.27915   -116.4 1.052e+04 7.012e-10
 18.29880   -116.3 1.042e+04 6.709e-10
 18.31844   -116.3 1.038e+04 6.565e-10
 18.33809   -116.2 1.037e+04 6.466e-10
 18.35773   -116.3 1.039e+04 6.413e-10
 18.37737   -116.4 1.045e+04 6.475e-10
 18.39089   -116.6 1.051e+04 6.629e-10
 18.40071   -116.2 1.093e+04 8.007e-10
 18.41666   -116.5 1.097e+04 8.168e-10
 18.43631   -116.8 1.103e+04 8.575e-10
 18.45595   -117.0 1.112e+04 9.231e-10
 18.47559   -117.1 1.119e+04 9.837e-10
 18.49524   -117.3 1.120e+04 1.011e-09
 18.51488   -117.4 1.119e+04 1.015e-09
 18.53453   -117.4 1.108e+04 9.956e-10
 18.55417   -117.4 1.092e+04 9.104e-10
 18.57076   -117.2 1.069e+04 7.936e-10
 18.58058   -117.1 1.103e+04 9.403e-10
 18.59346   -116.8 1.072e+04 7.838e-10
 18.61310   -116.4 1.038e+04 6.294e-10
 18.63275   -115.8 1.003e+04 4.886e-10
 18.65239   -114.9 9.744e+03 3.832e-10
 18.68195   -113.5 9.650e+03 3.170e-10
 18.72134   -112.2 9.665e+03 2.918e-10
 18.75082   -110.3 9.655e+03 2.794e-10
 18.77037   -109.8 9.684e+03 2.962e-10
 18.78990   -108.4 9.756e+03 2.959e-10
 18.80954   -108.0 9.788e+03 2.971e-10
 18.82919   -107.3 1.000e+04 3.106e-10
 18.84883   -107.3 1.026e+04 3.595e-10
 18.86847   -107.3 1.066e+04 4.552e-10
 18.88812   -107.2 1.108e+04 6.058e-10
 18.90776   -106.8 1.150e+04 8.197e-10
 18.92741   -106.1 1.189e+04 1.076e-09
 18.94032   -105.1 1.225e+04 1.327e-09
 18.95014   -105.4 1.272e+04 1.764e-09
 18.96670   -104.2 1.291e+04 1.975e-09
 18.98634   -103.0 1.314e+04 1.908e-09
 19.00598   -102.1 1.303e+04 1.758e-09
 19.02563   -101.5 1.290e+04 1.523e-09
 19.04527   -100.9 1.260e+04 1.297e-09
 19.07483    -99.3 1.234e+04 1.184e-09
 19.11056    -97.4 1.204e+04 1.049e-09
 19.13021    -99.0 1.253e+04 1.155e-09
 19.15351    -97.6 1.231e+04 1.082e-09
 19.19280    -95.9 1.228e+04 1.099e-09
 19.22216    -94.4 1.221e+04 1.093e-09
 19.24171    -94.2 1.242e+04 1.199e-09
 19.26136    -93.6 1.267e+04 1.374e-09
 19.28100    -93.4 1.296e+04 1.564e-09
 19.30006    -93.0 1.345e+04 2.007e-09
 19.30988    -94.8 1.419e+04 2.544e-09
 19.32029    -94.4 1.477e+04 3.082e-09
 19.33993    -94.2 1.534e+04 3.591e-09
 19.35958    -94.3 1.575e+04 3.996e-09
 19.37922    -94.5 1.605e+04 4.300e-09
 19.39886    -94.8 1.619e+04 4.468e-09
 19.41851    -95.1 1.618e+04 4.465e-09
 19.43815    -95.3 1.604e+04 4.276e-09
 19.45780    -95.5 1.582e+04 3.898e-09
 19.47744    -95.4 1.546e+04 3.345e-09
 19.48975    -95.3 1.499e+04 2.683e-09
 19.49957    -96.0 1.389e+04 1.304e-09
 19.51673    -95.9 1.355e+04 1.061e-09
 19.53637    -95.5 1.321e+04 9.295e-10
 19.55602    -95.1 1.292e+04 8.198e-10
 19.58558    -94.8 1.255e+04 7.394e-10
 19.62496    -93.1 1.230e+04 7.194e-10
 19.66425    -91.0 1.222e+04 7.481e-10
 19.70354    -88.6 1.228e+04 7.950e-10
 19.74283    -86.1 1.234e+04 8.322e-10
 19.78212    -83.6 1.236e+04 8.424e-10
 19.82141    -81.1 1.229e+04 8.241e-10
 19.84969    -78.6 1.207e+04 7.537e-10
 19.86933    -80.1 1.013e+04 3.202e-10
 19.89998    -77.6 9.843e+03 2.905e-10
 19.93927    -74.9 9.493e+03 2.600e-10
 19.97856    -72.3 9.192e+03 2.319e-10
 20.01785    -69.4 8.964e+03 2.053e-10
 20.05713    -66.5 8.793e+03 1.781e-10
 20.09642    -63.4 8.694e+03 1.509e-10
 20.13571    -60.4 8.660e+03 1.312e-10
 20.17500    -57.5 8.660e+03 1.227e-10
 20.20943    -54.5 8.685e+03 1.210e-10
 20.22907    -54.4 8.572e+03 1.183e-10
 20.25357    -51.3 8.598e+03 1.181e-10
 20.29286    -48.5 8.715e+03 1.223e-10
 20.33215    -45.8 8.897e+03 1.363e-10
 20.37144    -43.2 9.226e+03 1.676e-10
 20.41073    -40.7 9.749e+03 2.281e-10
 20.45001    -38.4 1.053e+04 3.433e-10
 20.48930    -36.5 1.154e+04 5.735e-10
 20.52859    -36.1 1.283e+04 1.098e-09
 20.55796    -36.1 1.346e+04 1.549e-09
 20.57750    -37.3 1.488e+04 3.140e-09
 20.58862    -37.6 1.616e+04 6.175e-09
 20.59844    -37.3 1.600e+04 4.216e-09
 20.61679    -37.3 1.739e+04 9.130e-09
 20.63644    -36.3 1.850e+04 1.556e-08
 20.65608    -34.7 1.947e+04 2.277e-08
 20.67076    -32.9 1.941e+04 2.197e-08
 20.67845    -32.4 1.968e+04 2.008e-08
 20.68336    -32.9 2.034e+04 3.041e-08
 20.69036    -32.7 2.082e+04 2.812e-08
 20.70018    -33.1 2.149e+04 2.281e-08
 20.71000    -34.2 2.234e+04 1.789e-08
 20.71983    -36.0 2.260e+04 1.259e-08
 20.72965    -39.1 2.161e+04 8.242e-09
 20.73947    -43.0 1.925e+04 5.483e-09
 20.74929    -45.9 1.711e+04 4.220e-09
 20.75911    -47.5 1.618e+04 3.878e-09
 20.76839    -48.9 1.583e+04 3.824e-09
 20.77330    -48.7 1.709e+04 5.214e-09
 20.77876    -49.7 1.644e+04 4.827e-09
 20.78858    -50.5 1.595e+04 4.502e-09
 20.79840    -51.0 1.582e+04 4.464e-09
 20.81318    -52.1 1.550e+04 4.499e-09
 20.83288    -52.7 1.450e+04 3.154e-09
 20.85252    -53.3 1.317e+04 1.836e-09
 20.87216    -54.4 1.198e+04 1.071e-09
 20.89181    -55.4 1.124e+04 7.195e-10
 20.90488    -55.8 1.076e+04 5.514e-10
 20.91470    -54.5 1.075e+04 5.512e-10
 20.93110    -54.7 1.041e+04 4.658e-10
 20.94836    -54.0 1.016e+04 4.112e-10
 20.95818    -54.7 1.022e+04 4.266e-10
 20.97038    -53.5 1.011e+04 3.951e-10
 20.99003    -52.3 1.006e+04 3.641e-10
 21.00967    -51.1 1.004e+04 3.384e-10
 21.03924    -49.9 1.008e+04 3.224e-10
 21.07862    -47.6 9.832e+03 2.702e-10
 21.11791    -44.8 9.537e+03 2.177e-10
 21.15720    -42.1 9.286e+03 1.786e-10
 21.19649    -39.5 9.082e+03 1.563e-10
 21.23577    -37.1 8.991e+03 1.498e-10
 21.27506    -35.0 9.086e+03 1.491e-10
 21.30829    -33.6 9.628e+03 1.539e-10
 21.32784    -38.0 1.412e+04 2.127e-10
 21.34362    -34.5 1.258e+04 3.022e-10
 21.36327    -34.3 1.311e+04 4.156e-10
 21.38291    -33.3 1.372e+04 7.228e-10
 21.40255    -33.3 1.445e+04 1.080e-09
 21.42220    -32.5 1.529e+04 1.776e-09
 21.44184    -32.4 1.591e+04 2.491e-09
 21.46149    -32.3 1.623e+04 3.619e-09
 21.48113    -32.5 1.638e+04 4.688e-09
 21.49779    -32.4 1.652e+04 6.047e-09
 21.50761    -33.4 1.740e+04 9.029e-09
 21.52042    -33.0 1.750e+04 9.219e-09
 21.54006    -32.6 1.764e+04 9.160e-09
 21.55971    -32.2 1.782e+04 8.914e-09
 21.57439    -31.7 1.792e+04 8.837e-09
 21.58416    -31.5 1.798e+04 8.057e-09
 21.59254    -31.5 1.780e+04 7.017e-09
 21.59745    -32.5 1.709e+04 5.585e-09
 21.60381    -32.5 1.665e+04 5.015e-09
 21.61363    -32.3 1.633e+04 4.557e-09
 21.62345    -32.3 1.625e+04 4.447e-09
 21.63823    -31.8 1.616e+04 4.104e-09
 21.65793    -32.0 1.538e+04 2.962e-09
 21.67757    -32.5 1.420e+04 2.108e-09
 21.69721    -33.7 1.252e+04 1.534e-09
 21.71686    -32.9 1.252e+04 1.525e-09
 21.73650    -32.2 1.270e+04 1.615e-09
 21.75615    -31.4 1.302e+04 1.719e-09
 21.77579    -30.5 1.331e+04 1.868e-09
 21.79543    -29.4 1.363e+04 2.073e-09
 21.81508    -28.4 1.398e+04 2.290e-09
 21.83472    -27.3 1.437e+04 2.494e-09
 21.85437    -26.0 1.463e+04 2.734e-09
 21.86735    -24.8 1.471e+04 2.981e-09
 21.87717    -24.9 1.437e+04 3.593e-09
 21.89365    -23.9 1.480e+04 4.016e-09
 21.91330    -22.8 1.518e+04 4.502e-09
 21.93294    -21.6 1.573e+04 5.261e-09
 21.95259    -20.4 1.641e+04 6.411e-09
 21.97223    -19.6 1.696e+04 7.985e-09
 21.99187    -18.8 1.758e+04 1.062e-08
 22.01152    -17.7 1.886e+04 1.548e-08
 22.02620    -16.2 2.017e+04 2.344e-08
 22.03598    -17.4 2.022e+04 3.019e-08
 22.04580    -16.6 2.090e+04 4.904e-08
 22.05203    -17.2 2.072e+04 7.613e-08
 22.05694    -17.1 2.060e+04 8.272e-08
 22.06544    -16.0 2.070e+04 1.849e-07
 22.07526    -14.6 2.073e+04 4.477e-07
 22.08509    -14.0 2.088e+04 8.696e-07
 22.09491    -17.4 2.110e+04 9.937e-07
 22.10473    -21.3 2.174e+04 5.556e-07
 22.11455    -23.2 2.187e+04 3.017e-07
 22.12437    -23.7 2.187e+04 1.950e-07
 22.13420    -23.7 2.183e+04 1.290e-07
 22.14197    -23.7 2.185e+04 9.462e-08
 22.14688    -24.0 2.150e+04 6.929e-08
 22.15384    -24.1 2.151e+04 5.582e-08
 22.16366    -24.6 2.175e+04 4.771e-08
 22.17348    -25.3 2.212e+04 4.305e-08
 22.18331    -26.4 2.256e+04 4.019e-08
 22.19313    -27.8 2.284e+04 3.911e-08
 22.20295    -29.2 2.306e+04 3.983e-08
 22.21277    -30.6 2.299e+04 4.150e-08
 22.22259    -31.7 2.269e+04 4.230e-08
 22.23190    -32.6 2.206e+04 4.197e-08
 22.23681    -32.2 2.252e+04 2.820e-08
 22.24224    -32.9 2.200e+04 2.918e-08
 22.25206    -33.4 2.124e+04 2.894e-08
 22.26188    -33.9 2.037e+04 2.756e-08
 22.27170    -33.9 1.951e+04 2.503e-08
 22.28150    -33.8 1.871e+04 2.164e-08
 22.29132    -33.5 1.804e+04 1.990e-08
 22.30117    -33.1 1.742e+04 1.548e-08
 22.31099    -32.8 1.693e+04 1.195e-08
 22.32081    -32.6 1.665e+04 9.460e-09
 22.32675    -32.6 1.650e+04 7.716e-09
 22.33166    -32.8 1.671e+04 7.438e-09
 22.34046    -33.3 1.635e+04 6.170e-09
 22.35028    -33.8 1.594e+04 5.284e-09
 22.36506    -34.2 1.547e+04 4.715e-09
 22.38475    -34.4 1.498e+04 4.242e-09
 22.40440    -34.5 1.493e+04 4.153e-09
 22.41678    -34.7 1.495e+04 4.409e-09
 22.42660    -34.6 1.561e+04 4.280e-09
 22.44369    -34.4 1.539e+04 4.840e-09
 22.46333    -33.6 1.520e+04 5.165e-09
 22.48297    -32.6 1.500e+04 5.169e-09
 22.50262    -31.1 1.445e+04 4.629e-09
 22.52226    -29.5 1.389e+04 3.615e-09
 22.54191    -28.3 1.332e+04 2.621e-09
 22.56155    -27.7 1.298e+04 1.698e-09
 22.58119    -27.7 1.266e+04 1.071e-09
 22.59665    -28.4 1.213e+04 7.209e-10
 22.60647    -27.5 1.209e+04 9.328e-10
 22.62048    -27.7 1.159e+04 7.291e-10
 22.64013    -27.5 1.128e+04 6.518e-10
 22.65977    -26.5 1.114e+04 6.035e-10
 22.67941    -25.6 1.106e+04 5.526e-10
 22.69906    -24.8 1.100e+04 4.817e-10
 22.71870    -24.5 1.085e+04 3.844e-10
 22.73835    -26.1 1.097e+04 3.445e-10
 22.75799    -28.9 1.106e+04 3.517e-10
 22.77652    -31.9 1.125e+04 4.483e-10
 22.78634    -31.1 1.201e+04 5.178e-10
 22.79728    -33.3 1.157e+04 8.016e-10
 22.81692    -33.9 1.175e+04 1.199e-09
 22.83657    -34.0 1.210e+04 1.485e-09
 22.85621    -33.9 1.232e+04 1.616e-09
 22.87585    -34.0 1.246e+04 1.643e-09
 22.89550    -34.8 1.263e+04 1.550e-09
 22.91514    -36.2 1.269e+04 1.452e-09
 22.93479    -37.8 1.264e+04 1.420e-09
 22.95443    -39.1 1.248e+04 1.425e-09
 22.96621    -39.7 1.229e+04 1.382e-09
 22.97604    -39.4 1.220e+04 1.220e-09
 22.99372    -39.5 1.193e+04 1.152e-09
 23.01336    -39.4 1.160e+04 9.181e-10
 23.03301    -39.5 1.121e+04 6.326e-10
 23.05265    -40.3 1.078e+04 4.113e-10
 23.08221    -41.1 1.017e+04 2.691e-10
 23.12160    -41.0 9.795e+03 2.077e-10
 23.14628    -40.7 9.716e+03 1.941e-10
 23.16592    -39.9 1.005e+04 2.322e-10
 23.20018    -40.3 1.036e+04 2.702e-10
 23.23946    -41.5 1.110e+04 4.837e-10
 23.27875    -41.9 1.169e+04 7.721e-10
 23.31804    -42.8 1.190e+04 8.848e-10
 23.35733    -43.6 1.158e+04 6.837e-10
 23.39662    -44.3 1.074e+04 3.918e-10
 23.43590    -44.4 1.041e+04 2.937e-10
 23.47519    -44.0 1.023e+04 2.502e-10
 23.50602    -43.2 1.021e+04 2.413e-10
 23.52566    -42.7 1.052e+04 3.055e-10
 23.55377    -41.9 1.052e+04 2.985e-10
 23.59306    -41.1 1.073e+04 3.690e-10
 23.63234    -40.1 1.113e+04 5.692e-10
 23.67163    -38.8 1.160e+04 8.394e-10
 23.69561    -37.5 1.205e+04 1.026e-09
 23.70534    -37.3 1.192e+04 9.783e-10
 23.72055    -37.3 1.194e+04 9.876e-10
 23.74019    -36.7 1.214e+04 1.030e-09
 23.75984    -36.8 1.227e+04 1.041e-09
 23.77948    -36.9 1.255e+04 1.121e-09
 23.79912    -37.0 1.274e+04 1.328e-09
 23.81877    -36.7 1.290e+04 1.541e-09
 23.83841    -36.6 1.303e+04 1.676e-09
 23.86566    -35.9 1.329e+04 1.937e-09
 23.88540    -35.1 1.262e+04 1.422e-09
 23.90736    -34.5 1.255e+04 1.371e-09
 23.94665    -33.9 1.202e+04 9.934e-10
 23.98594    -33.4 1.141e+04 6.835e-10
 24.02522    -32.8 1.101e+04 5.238e-10
 24.06451    -31.8 1.078e+04 4.477e-10
 24.10380    -30.8 1.067e+04 4.054e-10
 24.14309    -30.0 1.053e+04 3.659e-10
 24.18238    -29.5 1.040e+04 3.166e-10
 24.22166    -29.1 1.035e+04 3.166e-10
 24.24514    -28.4 1.044e+04 3.419e-10
 24.26479    -27.7 1.052e+04 3.875e-10
 24.30024    -26.9 1.056e+04 4.291e-10
 24.33953    -26.2 1.049e+04 4.344e-10
 24.37882    -25.3 1.026e+04 3.876e-10
 24.41811    -24.2 1.005e+04 3.344e-10
 24.45739    -22.9 9.884e+03 3.011e-10
 24.49668    -21.4 9.725e+03 2.800e-10
 24.53597    -20.0 9.611e+03 2.682e-10
 24.57526    -18.5 9.581e+03 2.745e-10
 24.60488    -16.9 9.604e+03 2.967e-10
 24.62453    -16.5 9.417e+03 2.635e-10
 24.65383    -14.8 9.342e+03 2.597e-10
 24.69312    -12.8 9.158e+03 2.253e-10
 24.73241    -10.8 8.928e+03 1.660e-10
 24.77170     -9.4 8.676e+03 1.158e-10
 24.81099     -8.1 8.506e+03 9.766e-11
 24.85027     -6.3 8.483e+03 9.608e-11
 24.88956     -4.5 8.491e+03 1.084e-10
 24.92885     -2.6 8.486e+03 1.294e-10
 24.96462     -0.5 8.620e+03 1.566e-10
 24.98427     -0.3 8.606e+03 1.560e-10
 25.00743      1.4 8.794e+03 1.873e-10
 25.04671      2.8 8.973e+03 2.231e-10
 25.08600      4.0 9.308e+03 2.834e-10
 25.12529      5.4 9.731e+03 4.045e-10
 25.15422      7.1 1.015e+04 5.230e-10
 25.16394      7.0 1.015e+04 5.242e-10
 25.17420      6.5 1.037e+04 5.836e-10
 25.19385      7.1 1.060e+04 7.478e-10
 25.21349      7.3 1.086e+04 8.265e-10
 25.23314      8.0 1.112e+04 1.048e-09
 25.25278      8.5 1.131e+04 1.109e-09
 25.27242      9.0 1.132e+04 1.154e-09
 25.29207      9.2 1.132e+04 1.149e-09
 25.31171      9.8 1.138e+04 1.087e-09
 25.33136     10.4 1.134e+04 1.030e-09
 25.34381     10.4 1.132e+04 8.251e-10
 25.35363      9.9 1.129e+04 8.299e-10
 25.37064      9.5 1.110e+04 8.094e-10
 25.39029      9.1 1.100e+04 7.490e-10
 25.40993      9.1 1.085e+04 7.612e-10
 25.42958      9.1 1.084e+04 7.463e-10
 25.44922      9.4 1.073e+04 7.510e-10
 25.46886      9.6 1.086e+04 7.206e-10
 25.48851      9.7 1.077e+04 7.364e-10
 25.50815      9.5 1.104e+04 7.035e-10
 25.52368      8.6 1.120e+04 7.983e-10
 25.53350      6.1 1.214e+04 1.042e-09
 25.54744      2.1 1.382e+04 1.559e-09
 25.56708     -1.4 1.442e+04 2.647e-09
 25.58673     -2.5 1.426e+04 3.718e-09
 25.60637     -1.8 1.387e+04 4.250e-09
 25.62602     -0.7 1.367e+04 3.681e-09
 25.64566      0.1 1.366e+04 2.556e-09
 25.66530     -1.2 1.425e+04 1.250e-09
 25.68495     -5.9 1.362e+04 5.104e-10
 25.70355    -11.3 1.080e+04 2.848e-10
 25.71337    -14.0 9.951e+03 2.555e-10
 25.72424    -14.2 9.793e+03 2.466e-10
 25.75380    -12.9 9.843e+03 2.578e-10
 25.79319    -12.3 9.786e+03 2.612e-10
 25.83247    -11.7 9.707e+03 2.647e-10
 25.87176    -10.5 9.607e+03 2.510e-10
 25.91105     -9.3 9.406e+03 1.995e-10
 25.95034     -8.3 9.213e+03 1.597e-10
 25.98963     -7.1 9.086e+03 1.386e-10
 26.02891     -6.1 9.042e+03 1.278e-10
 26.06349     -5.1 9.089e+03 1.342e-10
 26.08313     -6.9 9.319e+03 1.796e-10
 26.10749     -5.4 9.359e+03 2.262e-10
 26.14678     -3.4 9.456e+03 2.552e-10
 26.18607     -1.4 9.535e+03 2.339e-10
 26.22535     -0.0 9.576e+03 1.775e-10
 26.26464      0.8 9.484e+03 1.341e-10
 26.30393      1.6 9.133e+03 1.259e-10
 26.34322      2.7 9.018e+03 1.517e-10
 26.38251      3.5 9.263e+03 1.888e-10
 26.41196      4.2 9.698e+03 2.673e-10
 26.43160      3.3 9.429e+03 2.352e-10
 26.44287      5.0 9.558e+03 3.037e-10
 26.46251      3.6 9.306e+03 2.692e-10
 26.50037      5.9 9.172e+03 2.144e-10
 26.53966      7.5 9.022e+03 1.453e-10
 26.57895      8.2 8.915e+03 1.134e-10
 26.61823      9.7 8.825e+03 1.159e-10
 26.65752     11.2 8.901e+03 1.436e-10
 26.69681     13.0 9.039e+03 2.026e-10
 26.73610     15.2 9.453e+03 3.370e-10
 26.77539     17.6 1.013e+04 5.318e-10
 26.80261     19.4 1.097e+04 8.352e-10
 26.82225     18.9 1.040e+04 5.074e-10
 26.85396     20.3 1.098e+04 7.615e-10
 26.88333     21.6 1.136e+04 1.025e-09
 26.90288     22.6 1.150e+04 1.085e-09
 26.92252     23.3 1.159e+04 1.071e-09
 26.94217     23.8 1.163e+04 1.044e-09
 26.96181     24.3 1.158e+04 1.011e-09
 26.98145     25.0 1.147e+04 9.954e-10
 26.99211     25.7 1.126e+04 9.779e-10
 27.00193     25.7 1.107e+04 8.330e-10
 27.02074     26.4 1.103e+04 8.560e-10
 27.04039     27.3 1.117e+04 9.013e-10
 27.06003     28.1 1.147e+04 9.838e-10
 27.07967     28.4 1.188e+04 1.125e-09
 27.09932     27.8 1.284e+04 1.554e-09
 27.11896     25.5 1.456e+04 2.739e-09
 27.13861     23.0 1.601e+04 5.644e-09
 27.15825     22.8 1.706e+04 1.084e-08
 27.17193     22.5 1.749e+04 1.314e-08
 27.17679     20.7 1.834e+04 1.694e-08
 27.18271     21.2 1.846e+04 1.937e-08
 27.19253     22.3 1.837e+04 1.922e-08
 27.20235     22.1 1.855e+04 1.869e-08
 27.21217     22.4 1.862e+04 1.601e-08
 27.22200     21.7 1.905e+04 1.312e-08
 27.23182     19.7 1.807e+04 9.197e-09
 27.24164     18.3 1.723e+04 8.222e-09
 27.25642     16.3 1.537e+04 5.817e-09
 27.27611     14.4 1.344e+04 3.884e-09
 27.29576     14.5 1.282e+04 3.029e-09
 27.31540     15.0 1.261e+04 2.484e-09
 27.33505     15.3 1.241e+04 2.071e-09
 27.35185     15.5 1.228e+04 1.794e-09
 27.36167     14.8 1.218e+04 1.361e-09
 27.37433     14.9 1.199e+04 1.183e-09
 27.39398     15.3 1.194e+04 1.102e-09
 27.41362     15.8 1.207e+04 1.068e-09
 27.43327     16.1 1.219e+04 1.077e-09
 27.45291     16.2 1.248e+04 1.137e-09
 27.47255     16.1 1.267e+04 1.257e-09
 27.49220     16.1 1.269e+04 1.422e-09
 27.51184     16.5 1.274e+04 1.575e-09
 27.53149     17.1 1.268e+04 1.578e-09
 27.54154     18.4 1.250e+04 1.451e-09
 27.55136     18.1 1.229e+04 1.424e-09
 27.57077     19.5 1.223e+04 1.272e-09
 27.59042     20.6 1.231e+04 1.040e-09
 27.61006     21.2 1.253e+04 8.180e-10
 27.62971     21.4 1.272e+04 6.733e-10
 27.64935     21.7 1.264e+04 6.537e-10
 27.66899     21.8 1.272e+04 6.775e-10
 27.68864     21.9 1.290e+04 7.858e-10
 27.70828     22.4 1.285e+04 9.974e-10
 27.72141     23.3 1.289e+04 1.324e-09
 27.73123     23.5 1.290e+04 1.215e-09
 27.74757     24.6 1.293e+04 1.522e-09
 27.76721     25.8 1.315e+04 1.819e-09
 27.78686     27.0 1.341e+04 1.980e-09
 27.80650     28.0 1.341e+04 1.916e-09
 27.82615     28.9 1.331e+04 1.733e-09
 27.84579     29.5 1.309e+04 1.478e-09
 27.86543     30.0 1.276e+04 1.243e-09
 27.88508     30.6 1.245e+04 1.066e-09
 27.90128     31.3 1.217e+04 9.196e-10
 27.91110     30.9 1.199e+04 9.169e-10
 27.92437     31.9 1.176e+04 8.117e-10
 27.94401     33.0 1.155e+04 6.985e-10
 27.96365     34.2 1.134e+04 5.773e-10
 27.98330     35.4 1.115e+04 4.703e-10
 28.00294     36.2 1.115e+04 3.824e-10
 28.03251     37.2 1.096e+04 2.975e-10
 28.07189     39.1 1.056e+04 2.600e-10
 28.11118     41.5 1.040e+04 2.637e-10
 28.15047     43.9 1.039e+04 2.871e-10
 28.18976     46.1 1.028e+04 3.151e-10
 28.21912     47.8 1.003e+04 3.079e-10
 28.23867     48.9 1.005e+04 3.233e-10
 28.25832     49.8 1.024e+04 3.658e-10
 28.27084     50.7 1.051e+04 4.400e-10
 28.28066     50.3 9.947e+03 3.051e-10
 28.29760     51.0 1.017e+04 3.806e-10
 28.31725     51.8 1.042e+04 4.964e-10
 28.33689     52.5 1.070e+04 6.370e-10
 28.35654     53.0 1.101e+04 8.024e-10
 28.37618     53.2 1.129e+04 1.002e-09
 28.39582     53.4 1.152e+04 1.240e-09
 28.41547     53.9 1.165e+04 1.451e-09
 28.43511     54.4 1.164e+04 1.477e-09
 28.45071     55.2 1.153e+04 1.422e-09
 28.46053     55.5 1.129e+04 1.298e-09
 28.47440     56.3 1.101e+04 1.138e-09
 28.49404     57.1 1.064e+04 8.937e-10
 28.51369     57.5 1.029e+04 6.574e-10
 28.53333     57.5 9.967e+03 4.677e-10
 28.55298     57.3 9.735e+03 3.444e-10
 28.57262     57.3 9.523e+03 2.878e-10
 28.59226     57.5 9.506e+03 2.858e-10
 28.61191     58.3 9.449e+03 2.911e-10
 28.63058     58.7 9.462e+03 2.956e-10
 28.64040     59.7 9.304e+03 3.016e-10
 28.65120     60.3 9.290e+03 3.170e-10
 28.67084     61.0 9.317e+03 3.512e-10
 28.69048     61.7 9.422e+03 3.984e-10
 28.71013     62.3 9.607e+03 4.576e-10
 28.72977     62.7 9.881e+03 5.364e-10
 28.74942     62.7 1.027e+04 6.545e-10
 28.76906     62.6 1.077e+04 8.376e-10
 28.78870     62.6 1.136e+04 1.112e-09
 28.80835     62.7 1.199e+04 1.494e-09
 28.82027     63.1 1.257e+04 1.961e-09
 28.83010     63.1 1.288e+04 2.345e-09
 28.84764     63.9 1.346e+04 3.027e-09
 28.86728     65.0 1.389e+04 3.540e-09
 28.88692     66.2 1.413e+04 3.675e-09
 28.90657     67.3 1.415e+04 3.618e-09
 28.92621     68.6 1.405e+04 3.291e-09
 28.94586     69.7 1.377e+04 2.722e-09
 28.96550     70.6 1.331e+04 2.160e-09
 28.98514     71.5 1.274e+04 1.751e-09
 29.00014     72.2 1.232e+04 1.457e-09
 29.00997     73.6 1.562e+04 2.399e-09
 29.02443     74.2 1.478e+04 1.920e-09
 29.04408     74.6 1.402e+04 1.800e-09
 29.06372     75.0 1.367e+04 1.861e-09
 29.08336     74.9 1.371e+04 2.205e-09
 29.10301     74.3 1.472e+04 3.046e-09
 29.12265     73.2 1.631e+04 4.684e-09
 29.14230     71.6 1.849e+04 7.962e-09
 29.16194     70.2 2.057e+04 1.264e-08
 29.17498     67.9 2.186e+04 1.734e-08
 29.17984     65.6 2.173e+04 1.830e-08
 29.18483     65.0 2.236e+04 2.104e-08
 29.18974     63.6 2.267e+04 2.993e-08
 29.19622     63.1 2.259e+04 3.330e-08
 29.20604     62.6 2.246e+04 3.531e-08
 29.21586     62.1 2.235e+04 3.550e-08
 29.22569     61.7 2.224e+04 3.376e-08
 29.23551     61.1 2.261e+04 3.069e-08
 29.24533     60.3 2.306e+04 2.802e-08
 29.25515     58.9 2.402e+04 2.420e-08
 29.26497     57.7 2.463e+04 2.106e-08
 29.27476     56.2 2.541e+04 1.787e-08
 29.28458     52.3 2.557e+04 1.266e-08
 29.29444     51.0 2.560e+04 1.104e-08
 29.30426     49.7 2.554e+04 1.013e-08
 29.31904     48.9 2.506e+04 8.631e-09
 29.33874     46.7 2.539e+04 7.575e-09
 29.35838     44.9 2.684e+04 7.360e-09
 29.36971     43.8 2.737e+04 7.164e-09
 29.37953     39.1 1.553e+04 5.101e-09
 29.39767     38.9 1.502e+04 5.188e-09
 29.41235     38.6 1.497e+04 5.243e-09
 29.42213     38.7 1.496e+04 5.305e-09
 29.43195     38.7 1.503e+04 5.413e-09
 29.44177     38.9 1.510e+04 5.446e-09
 29.45159     38.9 1.527e+04 5.534e-09
 29.45954     38.8 1.552e+04 5.689e-09
 29.46445     39.1 1.538e+04 5.085e-09
 29.47124     38.4 1.573e+04 5.269e-09
 29.48106     37.9 1.598e+04 5.464e-09
 29.49088     36.9 1.649e+04 6.116e-09
 29.50070     36.0 1.726e+04 7.371e-09
 29.51052     35.2 1.772e+04 9.186e-09
 29.52035     34.6 1.818e+04 1.102e-08
 29.53017     33.9 1.882e+04 1.308e-08
 29.53999     33.2 1.940e+04 1.583e-08
 29.54948     32.4 2.001e+04 1.909e-08
 29.55439     31.2 2.055e+04 1.955e-08
 29.55963     30.3 2.092e+04 2.344e-08
 29.56946     29.2 2.108e+04 2.769e-08
 29.57928     28.0 2.105e+04 3.214e-08
 29.58910     27.0 2.090e+04 3.713e-08
 29.59892     26.1 2.088e+04 4.346e-08
 29.60874     25.2 2.100e+04 4.742e-08
 29.61857     24.2 2.104e+04 4.719e-08
 29.62839     22.7 2.149e+04 4.517e-08
 29.63821     19.9 2.269e+04 4.312e-08
 29.64432     14.4 2.497e+04 4.471e-08
 29.64923     11.9 2.647e+04 3.193e-08
 29.65785      7.1 2.586e+04 2.946e-08
 29.66768      1.7 2.412e+04 2.938e-08
 29.67750     -3.1 2.251e+04 2.962e-08
 29.68732     -7.0 2.251e+04 3.087e-08
 29.69714    -10.0 2.353e+04 3.084e-08
 29.70696    -13.6 2.500e+04 2.631e-08
 29.71679    -17.6 2.545e+04 2.265e-08
 29.72661    -24.0 2.212e+04 1.383e-08
 29.73426    -25.1 2.128e+04 1.293e-08
 29.73922    -25.2 2.095e+04 1.285e-08
 29.75126    -31.5 1.616e+04 5.832e-09
 29.77090    -34.4 1.471e+04 2.728e-09
 29.79055    -39.1 1.323e+04 1.063e-09
 29.81019    -45.0 1.116e+04 4.855e-10
 29.82984    -48.3 1.045e+04 3.818e-10
 29.84948    -50.1 1.039e+04 3.702e-10
 29.86912    -52.2 1.049e+04 3.845e-10
 29.88877    -54.6 1.067e+04 4.483e-10
 29.90841    -56.8 1.102e+04 5.474e-10
 29.91914    -58.7 1.146e+04 7.169e-10
 29.92896    -58.2 1.142e+04 7.014e-10
 29.94770    -59.9 1.178e+04 8.886e-10
 29.96734    -61.5 1.194e+04 1.002e-09
 29.98699    -63.2 1.196e+04 1.027e-09
 30.00663    -64.6 1.177e+04 1.022e-09
 30.02628    -65.6 1.149e+04 9.226e-10
 30.04592    -66.6 1.120e+04 7.578e-10
 30.07548    -67.9 1.086e+04 5.830e-10
 30.09920    -68.5 1.017e+04 3.853e-10
 30.11885    -68.0 1.065e+04 5.592e-10
 30.15416    -68.1 1.008e+04 3.941e-10
 30.19345    -68.0 9.530e+03 2.742e-10
 30.23273    -67.3 9.133e+03 2.117e-10
 30.27202    -66.5 8.959e+03 1.939e-10
 30.31131    -65.4 8.887e+03 1.922e-10
 30.35060    -64.1 8.836e+03 1.990e-10
 30.38989    -62.7 8.783e+03 1.998e-10
 30.42917    -61.2 8.662e+03 1.935e-10
 30.45894    -59.5 8.525e+03 1.811e-10
 30.47859    -59.0 8.477e+03 1.771e-10
 30.50775    -57.2 8.341e+03 1.627e-10
 30.54704    -55.3 8.254e+03 1.533e-10
 30.58633    -53.4 8.206e+03 1.470e-10
 30.62561    -51.5 8.189e+03 1.432e-10
 30.66490    -49.8 8.190e+03 1.423e-10
 30.70419    -48.3 8.256e+03 1.489e-10
 30.74348    -47.1 8.407e+03 1.711e-10
 30.78277    -45.9 8.573e+03 2.021e-10
 30.81868    -44.9 8.702e+03 2.282e-10
 30.83833    -43.8 8.647e+03 2.216e-10
 30.86134    -43.0 8.689e+03 2.276e-10
 30.90063    -42.6 8.692e+03 2.264e-10
 30.93992    -42.4 8.685e+03 2.285e-10
 30.97921    -42.3 8.882e+03 2.763e-10
 31.01849    -41.7 9.243e+03 3.647e-10
 31.04786    -40.5 9.295e+03 3.883e-10
 31.06741    -40.5 9.428e+03 4.279e-10
 31.08705    -40.1 9.639e+03 5.098e-10
 31.10670    -40.0 9.773e+03 5.622e-10
 31.12634    -39.7 9.933e+03 6.569e-10
 31.14599    -39.4 9.987e+03 6.940e-10
 31.16563    -39.1 9.996e+03 7.059e-10
 31.18527    -38.7 9.931e+03 6.578e-10
 31.19787    -38.5 9.807e+03 5.781e-10
 31.20769    -37.8 9.837e+03 6.180e-10
 31.22456    -37.4 9.757e+03 5.554e-10
 31.24421    -37.2 9.675e+03 4.831e-10
 31.26385    -37.1 9.583e+03 4.239e-10
 31.28349    -37.2 9.463e+03 3.607e-10
 31.30314    -37.3 9.407e+03 3.368e-10
 31.32278    -37.7 9.178e+03 2.859e-10
 31.34243    -37.7 9.095e+03 2.780e-10
 31.36207    -38.6 8.967e+03 2.693e-10
 31.37774    -40.6 9.704e+03 3.257e-10
 31.38756    -39.0 9.538e+03 3.131e-10
 31.40136    -43.2 1.111e+04 5.887e-10
 31.42100    -46.7 1.241e+04 1.277e-09
 31.44065    -48.6 1.335e+04 2.425e-09
 31.46029    -49.2 1.416e+04 3.778e-09
 31.47993    -49.6 1.475e+04 4.581e-09
 31.49958    -51.0 1.517e+04 4.410e-09
 31.51922    -53.6 1.477e+04 3.559e-09
 31.53887    -56.8 1.393e+04 2.676e-09
 31.55761    -59.4 1.311e+04 2.125e-09
 31.56743    -58.5 1.344e+04 2.299e-09
 31.57815    -60.1 1.274e+04 1.880e-09
 31.59780    -60.9 1.235e+04 1.614e-09
 31.61744    -61.5 1.204e+04 1.434e-09
 31.64701    -61.5 1.202e+04 1.395e-09
 31.67647    -62.5 1.201e+04 1.351e-09
 31.69602    -64.3 1.267e+04 1.641e-09
 31.71566    -66.3 1.340e+04 2.381e-09
 31.73531    -67.6 1.415e+04 3.574e-09
 31.74730    -68.1 1.478e+04 4.886e-09
 31.75713    -68.1 1.512e+04 5.311e-09
 31.77459    -68.2 1.550e+04 6.173e-09
 31.79424    -68.7 1.555e+04 6.240e-09
 31.81388    -69.2 1.524e+04 4.889e-09
 31.83353    -70.5 1.441e+04 2.914e-09
 31.85317    -72.9 1.322e+04 1.688e-09
 31.87281    -75.0 1.218e+04 1.143e-09
 31.89246    -75.8 1.169e+04 9.386e-10
 31.91210    -75.9 1.148e+04 8.437e-10
 31.92717    -75.8 1.129e+04 7.578e-10
 31.93371    -75.3 1.106e+04 6.742e-10
 31.93829    -75.9 1.123e+04 8.004e-10
 31.95139    -75.2 1.101e+04 7.166e-10
 31.97103    -74.5 1.082e+04 6.319e-10
 31.99068    -73.7 1.068e+04 5.485e-10
 32.01032    -72.9 1.059e+04 4.798e-10
 32.02997    -72.1 1.055e+04 4.316e-10
 32.04961    -71.6 1.054e+04 4.152e-10
 32.06925    -70.7 1.055e+04 4.070e-10
 32.08890    -70.3 1.058e+04 4.081e-10
 32.10704    -70.0 1.077e+04 4.292e-10
 32.11687    -69.3 1.062e+04 4.314e-10
 32.12819    -68.9 1.083e+04 4.765e-10
 32.14783    -68.6 1.108e+04 5.456e-10
 32.16747    -68.5 1.137e+04 6.520e-10
 32.18712    -68.4 1.175e+04 8.267e-10
 32.20676    -68.4 1.217e+04 1.094e-09
 32.22641    -68.3 1.258e+04 1.463e-09
 32.24605    -68.2 1.295e+04 1.910e-09
 32.26569    -67.7 1.328e+04 2.352e-09
 32.28534    -67.2 1.358e+04 2.675e-09
 32.29674    -66.6 1.375e+04 2.768e-09
 32.30656    -66.1 1.332e+04 2.687e-09
 32.32463    -65.6 1.348e+04 2.821e-09
 32.34427    -65.1 1.351e+04 2.823e-09
 32.36391    -64.7 1.356e+04 2.498e-09
 32.38356    -64.5 1.353e+04 2.088e-09
 32.40320    -64.9 1.351e+04 1.756e-09
 32.42285    -65.4 1.320e+04 1.538e-09
 32.44249    -65.8 1.278e+04 1.366e-09
 32.46213    -65.9 1.232e+04 1.221e-09
 32.47661    -65.9 1.191e+04 1.079e-09
 32.48643    -65.2 1.283e+04 1.446e-09
 32.50142    -65.3 1.241e+04 1.272e-09
 32.52107    -65.4 1.197e+04 1.082e-09
 32.54071    -65.6 1.157e+04 9.067e-10
 32.56035    -66.0 1.126e+04 7.785e-10
 32.58000    -66.4 1.110e+04 7.070e-10
 32.59964    -66.8 1.106e+04 6.848e-10
 32.61929    -66.9 1.107e+04 6.838e-10
 32.63893    -67.0 1.120e+04 7.250e-10
 32.65648    -66.9 1.137e+04 8.054e-10
 32.66630    -66.2 1.121e+04 7.148e-10
 32.67822    -66.0 1.132e+04 7.320e-10
 32.69786    -65.7 1.137e+04 7.645e-10
 32.71751    -65.4 1.135e+04 8.009e-10
 32.73715    -64.9 1.127e+04 8.252e-10
 32.75679    -64.2 1.110e+04 8.378e-10
 32.77644    -63.2 1.092e+04 8.188e-10
 32.79608    -62.2 1.079e+04 7.469e-10
 32.82565    -61.4 1.062e+04 6.206e-10
 32.86503    -59.5 1.042e+04 5.091e-10
 32.90432    -57.3 1.011e+04 3.615e-10
 32.94361    -55.4 9.802e+03 2.535e-10
 32.98290    -53.4 9.481e+03 1.845e-10
 33.01641    -51.6 9.163e+03 1.538e-10
 33.03605    -50.7 9.978e+03 3.254e-10
 33.06147    -48.8 9.778e+03 2.842e-10
 33.10076    -46.9 9.537e+03 2.610e-10
 33.14005    -44.8 9.300e+03 2.437e-10
 33.17934    -42.6 9.107e+03 2.246e-10
 33.21862    -40.5 8.982e+03 2.057e-10
 33.25791    -38.5 8.991e+03 1.915e-10
 33.29720    -36.8 8.977e+03 1.889e-10
 33.33649    -35.1 8.928e+03 1.947e-10
 33.37578    -33.3 8.889e+03 1.986e-10
 33.39579    -31.3 8.793e+03 1.857e-10
 33.41544    -30.6 8.999e+03 1.997e-10
 33.45435    -28.9 8.803e+03 1.533e-10
 33.49364    -27.2 8.665e+03 1.146e-10
 33.53293    -25.6 8.581e+03 9.420e-11
 33.57222    -23.7 8.559e+03 8.973e-11
 33.61150    -21.7 8.614e+03 9.261e-11
 33.65079    -19.7 8.700e+03 1.144e-10
 33.69008    -17.4 8.793e+03 1.472e-10
 33.72937    -15.0 9.057e+03 1.964e-10
 33.75553    -12.6 9.340e+03 2.624e-10
 33.77518    -13.1 9.594e+03 3.701e-10
 33.80795    -10.5 9.782e+03 4.510e-10
 33.84723     -8.2 9.863e+03 4.860e-10
 33.88652     -5.9 9.873e+03 4.983e-10
 33.92581     -3.7 9.835e+03 5.027e-10
 33.96510     -1.7 9.888e+03 4.755e-10
 34.00439     -0.0 9.923e+03 4.659e-10
 34.04367      1.9 9.883e+03 4.655e-10
 34.08296      4.1 9.691e+03 4.336e-10
 34.11527      6.5 9.558e+03 3.672e-10
 34.13492      6.4 9.031e+03 1.669e-10
 34.16154      8.6 9.099e+03 1.592e-10
 34.20083     10.7 9.167e+03 1.625e-10
 34.24011     12.6 9.269e+03 1.751e-10
 34.27940     14.4 9.334e+03 2.099e-10
 34.31869     16.5 9.393e+03 2.660e-10
 34.35798     18.8 9.528e+03 3.207e-10
 34.39727     21.2 9.705e+03 3.287e-10
 34.43655     23.2 9.841e+03 3.130e-10
 34.47501     24.8 9.893e+03 3.048e-10
 34.49466     25.2 1.008e+04 4.063e-10
 34.51513     26.9 1.009e+04 3.686e-10
 34.55442     28.6 1.003e+04 3.280e-10
 34.59371     30.4 1.000e+04 2.841e-10
 34.63299     32.0 9.949e+03 2.421e-10
 34.67228     33.8 9.943e+03 2.342e-10
 34.71157     35.6 1.001e+04 2.467e-10
 34.75086     37.3 1.018e+04 3.003e-10
 34.79015     39.2 1.040e+04 3.950e-10
 34.82943     41.3 1.064e+04 4.892e-10
 34.85440     43.3 1.080e+04 5.346e-10
 34.87404     43.6 1.096e+04 5.963e-10
 34.90801     45.5 1.102e+04 5.990e-10
 34.94730     47.5 1.102e+04 5.707e-10
 34.98659     49.6 1.098e+04 4.925e-10
 35.02587     51.6 1.094e+04 4.184e-10
 35.06516     53.6 1.086e+04 3.744e-10
 35.10445     55.8 1.078e+04 3.659e-10
 35.14374     58.2 1.080e+04 3.780e-10
 35.18303     60.5 1.087e+04 4.051e-10
 35.21239     61.7 1.091e+04 4.285e-10
 35.22376     62.8 1.095e+04 4.637e-10
 35.23359     63.3 1.117e+04 5.815e-10
 35.25159     64.5 1.129e+04 6.335e-10
 35.27123     65.6 1.142e+04 6.743e-10
 35.29087     66.6 1.154e+04 7.047e-10
 35.31052     67.5 1.166e+04 7.317e-10
 35.33016     68.3 1.174e+04 7.699e-10
 35.34981     69.0 1.185e+04 8.365e-10
 35.36945     69.5 1.205e+04 9.408e-10
 35.38909     69.9 1.229e+04 1.071e-09
 35.40363     70.1 1.253e+04 1.214e-09
 35.41346     70.9 1.276e+04 1.262e-09
 35.42838     71.1 1.305e+04 1.438e-09
 35.44803     71.1 1.335e+04 1.644e-09
 35.46767     71.1 1.351e+04 1.812e-09
 35.48731     71.2 1.354e+04 1.878e-09
 35.50696     71.3 1.341e+04 1.773e-09
 35.52660     71.3 1.313e+04 1.578e-09
 35.54625     71.2 1.264e+04 1.254e-09
 35.56589     70.9 1.219e+04 1.037e-09
 35.58350     70.7 1.190e+04 8.751e-10
 35.59333     71.7 1.284e+04 1.064e-09
 35.60518     71.0 1.183e+04 7.572e-10
 35.62482     70.6 1.117e+04 6.090e-10
 35.65439     71.9 1.203e+04 5.898e-10
 35.69377     71.7 1.090e+04 4.269e-10
 35.73306     72.5 1.065e+04 4.155e-10
 35.77235     73.9 1.062e+04 4.395e-10
 35.81163     75.3 1.069e+04 4.941e-10
 35.85092     76.5 1.077e+04 5.513e-10
 35.89021     77.8 1.078e+04 5.854e-10
 35.91958     78.4 1.062e+04 5.386e-10
 35.93913     78.8 1.061e+04 5.486e-10
 35.95307     79.3 1.068e+04 5.977e-10
 35.96289     79.5 1.052e+04 5.310e-10
 35.97841     79.7 1.070e+04 6.010e-10
 35.99806     79.7 1.093e+04 6.996e-10
 36.01770     79.7 1.122e+04 8.425e-10
 36.03735     79.6 1.155e+04 1.037e-09
 36.05699     79.4 1.186e+04 1.248e-09
 36.07663     79.2 1.205e+04 1.359e-09
 36.09628     78.9 1.205e+04 1.351e-09
 36.11592     78.6 1.198e+04 1.281e-09
 36.13294     78.2 1.185e+04 1.144e-09
 36.14276     78.6 1.198e+04 1.244e-09
 36.15521     77.9 1.188e+04 1.102e-09
 36.17485     77.0 1.174e+04 9.794e-10
 36.19450     75.9 1.157e+04 9.094e-10
 36.21414     75.0 1.138e+04 8.883e-10
 36.23379     74.5 1.128e+04 8.875e-10
 36.25343     74.3 1.123e+04 8.991e-10
 36.27307     74.4 1.121e+04 9.308e-10
 36.29272     74.5 1.121e+04 9.613e-10
 36.31236     74.6 1.125e+04 9.888e-10
 36.32263     74.7 1.131e+04 1.025e-09
 36.33245     75.2 1.151e+04 1.158e-09
 36.35165     75.4 1.162e+04 1.220e-09
 36.37129     75.4 1.176e+04 1.314e-09
 36.39094     75.5 1.188e+04 1.444e-09
 36.41058     75.7 1.197e+04 1.599e-09
 36.43023     76.0 1.208e+04 1.742e-09
 36.44987     76.4 1.217e+04 1.856e-09
 36.46951     76.5 1.230e+04 1.851e-09
 36.48916     76.6 1.233e+04 1.816e-09
 36.50250     76.5 1.237e+04 1.746e-09
 36.51232     76.9 1.276e+04 2.152e-09
 36.52845     76.7 1.279e+04 2.049e-09
 36.54809     76.4 1.267e+04 1.833e-09
 36.56773     75.9 1.237e+04 1.547e-09
 36.58738     75.4 1.194e+04 1.269e-09
 36.60702     74.8 1.153e+04 1.035e-09
 36.62667     74.2 1.113e+04 8.786e-10
 36.64631     73.7 1.085e+04 7.806e-10
 36.66595     73.6 1.068e+04 7.134e-10
 36.68237     73.7 1.057e+04 6.597e-10
 36.69219     73.8 1.021e+04 4.755e-10
 36.70524     73.9 1.014e+04 4.135e-10
 36.72489     73.9 1.007e+04 3.637e-10
 36.75445     73.8 9.802e+03 2.740e-10
 36.79384     73.9 9.669e+03 2.570e-10
 36.83312     73.9 9.713e+03 2.677e-10
 36.86234     73.7 9.794e+03 3.102e-10
 36.87206     73.9 9.676e+03 2.775e-10
 36.88204     73.8 9.665e+03 3.003e-10
 36.90168     73.6 9.826e+03 3.617e-10
 36.92133     73.2 1.020e+04 4.700e-10
 36.94097     72.2 1.085e+04 6.657e-10
 36.96061     70.7 1.160e+04 1.024e-09
 36.98026     69.6 1.225e+04 1.578e-09
 36.99990     69.1 1.271e+04 2.103e-09
 37.01955     68.6 1.277e+04 2.109e-09
 37.03919     68.1 1.273e+04 1.963e-09
 37.05193     67.3 1.262e+04 1.543e-09
 37.06175     68.4 1.289e+04 2.001e-09
 37.07848     67.1 1.279e+04 1.489e-09
 37.09812     64.7 1.258e+04 1.086e-09
 37.11777     61.9 1.213e+04 9.065e-10
 37.13741     59.5 1.198e+04 9.016e-10
 37.15705     57.6 1.197e+04 9.343e-10
 37.17670     56.1 1.192e+04 9.913e-10
 37.19634     54.8 1.178e+04 1.019e-09
 37.21599     53.7 1.158e+04 1.008e-09
 37.23180     52.8 1.137e+04 9.770e-10
 37.24162     53.2 1.182e+04 1.158e-09
 37.25527     52.7 1.138e+04 1.029e-09
 37.27492     52.3 1.106e+04 9.153e-10
 37.29456     52.2 1.068e+04 7.402e-10
 37.31421     51.9 1.034e+04 5.985e-10
 37.34377     52.5 9.843e+03 4.175e-10
 37.38316     52.6 9.231e+03 2.469e-10
 37.41187     52.6 8.810e+03 1.577e-10
 37.43151     52.8 8.806e+03 1.550e-10
 37.44536     52.7 8.450e+03 1.246e-10
 37.46501     51.3 8.436e+03 1.247e-10
 37.50102     52.0 8.314e+03 1.199e-10
 37.54031     53.1 8.277e+03 1.195e-10
 37.57960     54.2 8.266e+03 1.189e-10
 37.61888     55.3 8.252e+03 1.167e-10
 37.65817     56.2 8.258e+03 1.158e-10
 37.69746     57.0 8.286e+03 1.191e-10
 37.73675     57.6 8.405e+03 1.351e-10
 37.77161     58.0 8.771e+03 1.818e-10
 37.79125     57.6 9.055e+03 2.419e-10
 37.80540     58.0 9.128e+03 2.562e-10
 37.82495     57.9 9.230e+03 2.729e-10
 37.84460     57.5 9.603e+03 3.583e-10
 37.86424     56.7 1.019e+04 5.467e-10
 37.88388     55.4 1.110e+04 9.053e-10
 37.90353     53.4 1.266e+04 1.626e-09
 37.92317     50.8 1.439e+04 2.969e-09
 37.94282     48.4 1.568e+04 4.786e-09
 37.96110     46.3 1.634e+04 5.717e-09
 37.97092     45.7 1.602e+04 5.368e-09
 37.98210     43.3 1.579e+04 4.451e-09
 38.00175     40.7 1.465e+04 2.882e-09
 38.02139     37.5 1.278e+04 1.653e-09
 38.04104     35.8 1.164e+04 1.070e-09
 38.06068     33.9 1.079e+04 7.168e-10
 38.09024     30.9 1.021e+04 4.825e-10
 38.12963     28.7 9.071e+03 2.690e-10
 38.15099     28.8 8.695e+03 1.950e-10
 38.17063     30.1 8.383e+03 1.600e-10
 38.20820     31.0 8.148e+03 1.200e-10
 38.24749     32.0 8.003e+03 9.930e-11
 38.28678     33.3 7.936e+03 9.875e-11
 38.32607     34.8 7.950e+03 1.027e-10
 38.36536     36.6 7.994e+03 1.083e-10
 38.40465     38.4 8.042e+03 1.113e-10
 38.44393     40.2 8.080e+03 1.123e-10
 38.48322     42.0 8.125e+03 1.141e-10
 38.51073     43.6 8.207e+03 1.188e-10
 38.53037     44.5 8.069e+03 1.061e-10
 38.56180     45.9 8.206e+03 1.143e-10
 38.60109     46.9 8.500e+03 1.514e-10
 38.64037     48.0 8.919e+03 2.427e-10
 38.67966     49.6 9.369e+03 3.805e-10
 38.71895     51.4 9.783e+03 5.042e-10
 38.75824     52.7 1.006e+04 5.430e-10
 38.78761     53.4 9.988e+03 5.213e-10
 38.80715     53.9 9.918e+03 4.889e-10
 38.82680     54.3 9.895e+03 4.421e-10
 38.84644     54.4 9.915e+03 4.263e-10
 38.87037     54.7 9.921e+03 4.218e-10
 38.89011     54.9 1.008e+04 4.652e-10
 38.91539     55.2 1.015e+04 4.847e-10
 38.95468     55.4 1.036e+04 5.556e-10
 38.99397     55.7 1.062e+04 6.722e-10
 39.03325     56.1 1.085e+04 7.698e-10
 39.07254     56.5 1.088e+04 7.736e-10
 39.11183     56.8 1.080e+04 7.095e-10
 39.15112     56.9 1.073e+04 6.603e-10
 39.19041     56.8 1.079e+04 6.839e-10
 39.22969     56.7 1.107e+04 8.161e-10
 39.24985     56.8 1.149e+04 1.012e-09
 39.26950     57.8 1.149e+04 1.028e-09
 39.30827     58.0 1.155e+04 1.051e-09
 39.34756     58.3 1.139e+04 9.478e-10
 39.38685     59.0 1.095e+04 6.681e-10
 39.42613     59.7 1.037e+04 3.884e-10
 39.46542     60.3 9.814e+03 2.089e-10
 39.50471     61.0 9.411e+03 1.314e-10
 39.54400     62.2 9.160e+03 9.919e-11
 39.58329     64.0 9.017e+03 8.380e-11
 39.60959     66.0 8.943e+03 7.428e-11
 39.62924     66.5 8.913e+03 7.318e-11
 39.66186     68.6 8.900e+03 6.945e-11
 39.70115     70.7 8.910e+03 6.629e-11
 39.74044     72.8 8.925e+03 6.625e-11
 39.77973     74.8 8.954e+03 6.766e-11
 39.81901     76.8 9.005e+03 7.102e-11
 39.85830     78.8 9.085e+03 7.666e-11
 39.89759     80.6 9.201e+03 8.554e-11
 39.93688     82.3 9.324e+03 1.011e-10
 39.96933     83.8 9.447e+03 1.279e-10
 39.98898     84.2 9.537e+03 1.463e-10
 40.01545     85.7 9.666e+03 1.816e-10
 40.05474     87.0 9.800e+03 2.186e-10
 40.09403     88.3 1.002e+04 2.348e-10
 40.13332     89.3 1.014e+04 2.331e-10
 40.17261     90.2 1.020e+04 2.270e-10
 40.21189     91.0 1.029e+04 2.181e-10
 40.25118     91.8 1.036e+04 2.182e-10
 40.29047     92.7 1.049e+04 2.302e-10
 40.32907     93.6 1.065e+04 2.651e-10
 40.34872     92.9 1.074e+04 2.842e-10
 40.36905     93.5 1.098e+04 3.541e-10
 40.40833     94.0 1.134e+04 5.064e-10
 40.44762     94.4 1.182e+04 7.756e-10
 40.48691     94.9 1.225e+04 1.088e-09
 40.52620     95.0 1.239e+04 1.152e-09
 40.56549     95.0 1.232e+04 1.087e-09
 40.60478     95.2 1.198e+04 8.341e-10
 40.64406     95.5 1.144e+04 5.420e-10
 40.68335     95.9 1.099e+04 4.148e-10
 40.70846     96.9 1.100e+04 4.218e-10
 40.72810     95.9 1.072e+04 3.783e-10
 40.76193     97.2 1.075e+04 4.037e-10
 40.80122     98.6 1.093e+04 4.796e-10
 40.84050    100.3 1.112e+04 5.763e-10
 40.87979    101.8 1.117e+04 5.869e-10
 40.91908    103.4 1.110e+04 5.499e-10
 40.95837    105.1 1.088e+04 4.322e-10
 40.99766    106.9 1.055e+04 2.805e-10
 41.03694    108.6 1.024e+04 1.661e-10
 41.06820    110.0 9.839e+03 1.021e-10
 41.08784    109.3 9.573e+03 8.058e-11
 41.11552    111.2 9.436e+03 7.903e-11
 41.15481    113.5 9.415e+03 7.979e-11
 41.19410    115.9 9.387e+03 8.401e-11
 41.23338    118.2 9.418e+03 9.103e-11
 41.27267    120.5 9.526e+03 1.026e-10
 41.31196    122.5 9.743e+03 1.250e-10
 41.35125    124.5 9.993e+03 1.591e-10
 41.39054    126.1 1.029e+04 2.098e-10
 41.42794    127.1 1.050e+04 2.701e-10
 41.44758    128.3 1.023e+04 2.248e-10
 41.45919    128.7 1.051e+04 2.951e-10
 41.47874    129.2 1.074e+04 3.832e-10
 41.49838    130.1 1.101e+04 5.332e-10
 41.51803    130.6 1.121e+04 6.603e-10
 41.54759    132.2 1.121e+04 7.064e-10
 41.58698    133.8 1.135e+04 8.605e-10
 41.62626    135.2 1.136e+04 9.272e-10
 41.66555    136.6 1.135e+04 9.207e-10
 41.70484    138.0 1.129e+04 8.741e-10
 41.74413    139.4 1.136e+04 8.603e-10
 41.78342    140.7 1.140e+04 8.580e-10
 41.80732    141.9 1.141e+04 8.704e-10
 41.82697    141.9 1.180e+04 1.004e-09
 41.85207    142.5 1.167e+04 9.304e-10
 41.87162    142.9 1.158e+04 9.111e-10
 41.89126    143.4 1.157e+04 9.124e-10
 41.91091    144.0 1.158e+04 9.265e-10
 41.93055    144.4 1.165e+04 9.580e-10
 41.95019    145.0 1.172e+04 1.010e-09
 41.96984    145.5 1.179e+04 1.070e-09
 41.98700    146.2 1.184e+04 1.131e-09
 41.99682    146.2 1.173e+04 1.037e-09
 42.00913    147.0 1.177e+04 1.067e-09
 42.02877    147.7 1.181e+04 1.088e-09
 42.04841    148.3 1.183e+04 1.097e-09
 42.06806    149.0 1.182e+04 1.096e-09
 42.08770    149.5 1.182e+04 1.089e-09
 42.10735    150.1 1.179e+04 1.071e-09
 42.12699    150.7 1.175e+04 1.031e-09
 42.14664    151.4 1.166e+04 9.779e-10
 42.16628    152.0 1.153e+04 8.984e-10
 42.17669    152.6 1.137e+04 8.005e-10
 42.18651    153.0 1.126e+04 7.119e-10
 42.20557    153.6 1.109e+04 6.357e-10
 42.22521    154.2 1.089e+04 5.479e-10
 42.24486    154.8 1.072e+04 4.716e-10
 42.26450    155.3 1.056e+04 4.016e-10
 42.28414    155.7 1.040e+04 3.604e-10
 42.30379    156.1 1.029e+04 3.558e-10
 42.32343    156.6 1.028e+04 3.561e-10
 42.34308    157.1 1.026e+04 3.597e-10
 42.35656    157.5 1.021e+04 3.729e-10
 42.36638    158.4 1.032e+04 3.607e-10
 42.38236    158.9 1.033e+04 4.059e-10
 42.40201    159.5 1.042e+04 4.646e-10
 42.42165    160.2 1.051e+04 5.261e-10
 42.44130    160.9 1.060e+04 5.718e-10
 42.46094    161.6 1.065e+04 5.897e-10
 42.48058    162.2 1.068e+04 5.856e-10
 42.50023    162.8 1.070e+04 5.833e-10
 42.51987    163.1 1.076e+04 5.859e-10
 42.53643    163.1 1.089e+04 6.024e-10
 42.54625    163.8 1.107e+04 6.874e-10
 42.55916    163.1 1.167e+04 8.107e-10
 42.57880    160.3 1.364e+04 1.461e-09
 42.59845    157.6 1.520e+04 2.636e-09
 42.61313    156.5 1.568e+04 3.181e-09
 42.62290    155.0 1.656e+04 4.109e-09
 42.63118    152.6 1.786e+04 6.471e-09
 42.63609    152.5 1.817e+04 7.671e-09
 42.64255    150.1 1.917e+04 1.347e-08
 42.65237    148.4 2.002e+04 2.406e-08
 42.66219    147.1 2.089e+04 4.112e-08
 42.67201    145.7 2.181e+04 6.034e-08
 42.68184    144.0 2.296e+04 6.496e-08
 42.69166    141.8 2.320e+04 6.245e-08
 42.70148    139.2 2.368e+04 5.063e-08
 42.71130    135.9 2.373e+04 3.340e-08
 42.72111    132.5 2.297e+04 2.075e-08
 42.73589    126.4 2.034e+04 8.641e-09
 42.75560    120.4 1.617e+04 3.734e-09
 42.77524    115.9 1.268e+04 2.014e-09
 42.79489    113.3 1.162e+04 1.320e-09
 42.81453    112.6 1.128e+04 9.589e-10
 42.83418    112.5 1.085e+04 7.132e-10
 42.85382    112.4 1.032e+04 5.329e-10
 42.87346    112.3 9.859e+03 4.003e-10
 42.89311    112.1 9.557e+03 3.165e-10
 42.90599    112.1 9.304e+03 2.769e-10
 42.91581    112.2 9.377e+03 2.849e-10
 42.93240    112.3 9.241e+03 2.793e-10
 42.95215    113.2 9.273e+03 2.921e-10
 42.97179    113.5 9.218e+03 2.848e-10
 42.99133    114.5 9.206e+03 2.965e-10
 43.01097    115.4 9.274e+03 3.259e-10
 43.03062    116.4 9.457e+03 3.780e-10
 43.05026    117.5 9.708e+03 4.542e-10
 43.06990    118.6 9.968e+03 5.466e-10
 43.08586    119.8 1.022e+04 6.453e-10
 43.09568    119.7 1.045e+04 7.226e-10
 43.10919    120.9 1.068e+04 8.384e-10
 43.12884    122.0 1.086e+04 9.269e-10
 43.14848    123.1 1.093e+04 9.484e-10
 43.16812    124.0 1.093e+04 9.465e-10
 43.18777    124.9 1.088e+04 9.309e-10
 43.20741    125.9 1.077e+04 8.981e-10
 43.22706    126.8 1.065e+04 8.606e-10
 43.24670    127.8 1.056e+04 8.303e-10
 43.26573    128.8 1.051e+04 8.163e-10
 43.27555    128.4 1.113e+04 1.074e-09
 43.28599    129.5 1.118e+04 1.097e-09
 43.30563    130.5 1.129e+04 1.153e-09
 43.32528    131.6 1.142e+04 1.223e-09
 43.34492    132.8 1.154e+04 1.293e-09
 43.36456    134.0 1.165e+04 1.352e-09
 43.38421    135.2 1.172e+04 1.385e-09
 43.40385    136.4 1.175e+04 1.391e-09
 43.42350    137.7 1.176e+04 1.387e-09
 43.44314    138.9 1.176e+04 1.366e-09
 43.45542    140.2 1.174e+04 1.333e-09
 43.46524    140.0 1.270e+04 2.139e-09
 43.48243    141.3 1.270e+04 2.093e-09
 43.50207    142.5 1.271e+04 2.093e-09
 43.52172    143.7 1.280e+04 2.111e-09
 43.54136    145.0 1.295e+04 2.169e-09
 43.56100    146.3 1.315e+04 2.276e-09
 43.58065    147.5 1.341e+04 2.413e-09
 43.60029    148.7 1.368e+04 2.569e-09
 43.61994    149.8 1.398e+04 2.742e-09
 43.63529    150.8 1.426e+04 2.896e-09
 43.64511    150.6 1.561e+04 5.251e-09
 43.65922    151.6 1.602e+04 5.681e-09
 43.67887    152.6 1.642e+04 6.084e-09
 43.69851    153.6 1.671e+04 6.243e-09
 43.71816    154.5 1.703e+04 6.243e-09
 43.73009    155.0 1.694e+04 5.520e-09
 43.73495    154.8 1.734e+04 6.652e-09
 43.74261    155.1 1.749e+04 6.934e-09
 43.75244    155.4 1.778e+04 7.104e-09
 43.76226    155.7 1.808e+04 7.318e-09
 43.77208    156.0 1.837e+04 7.533e-09
 43.78190    156.2 1.860e+04 7.723e-09
 43.79172    156.5 1.884e+04 7.945e-09
 43.80155    156.8 1.910e+04 8.249e-09
 43.81137    157.1 1.940e+04 8.646e-09
 43.81998    157.3 1.972e+04 9.173e-09
 43.82489    157.2 1.967e+04 1.418e-08
 43.83101    157.5 1.996e+04 1.529e-08
 43.84083    157.7 2.021e+04 1.647e-08
 43.85066    157.9 2.042e+04 1.767e-08
 43.86048    158.3 2.061e+04 1.893e-08
 43.87030    158.8 2.077e+04 2.023e-08
 43.88012    159.3 2.085e+04 2.165e-08
 43.88994    159.9 2.087e+04 2.327e-08
 43.89977    160.4 2.092e+04 2.519e-08
 43.90959    161.0 2.104e+04 2.750e-08
 43.91482    161.7 2.127e+04 3.014e-08
 43.91973    161.6 2.089e+04 3.860e-08
 43.92923    162.1 2.112e+04 4.193e-08
 43.93905    162.1 2.122e+04 4.251e-08
 43.94888    161.9 2.119e+04 4.211e-08
 43.95870    161.9 2.103e+04 4.004e-08
 43.96852    162.1 2.079e+04 3.614e-08
 43.97834    162.5 2.064e+04 3.141e-08
 43.98816    162.7 2.055e+04 2.672e-08
 43.99799    162.9 2.030e+04 2.268e-08
 44.00476    163.1 1.994e+04 1.949e-08
 44.00967    163.1 1.993e+04 1.911e-08
 44.01763    163.4 1.965e+04 1.702e-08
 44.02745    164.0 1.936e+04 1.506e-08
 44.03727    164.4 1.922e+04 1.392e-08
 44.05206    165.3 1.900e+04 1.255e-08
 44.06679    165.6 1.883e+04 1.182e-08
 44.07656    165.9 1.874e+04 1.138e-08
 44.08638    166.3 1.879e+04 1.064e-08
 44.09469    166.6 1.885e+04 1.020e-08
 44.09960    166.5 1.888e+04 9.740e-09
 44.10603    167.1 1.880e+04 9.128e-09
 44.11585    167.6 1.874e+04 8.752e-09
 44.12567    168.3 1.874e+04 8.333e-09
 44.13549    168.8 1.873e+04 7.993e-09
 44.14532    169.6 1.873e+04 7.666e-09
 44.15514    170.1 1.870e+04 7.223e-09
 44.16992    172.0 1.899e+04 8.421e-09
 44.18472    173.6 1.899e+04 7.972e-09
 44.19455    172.7 1.851e+04 5.577e-09
 44.20926    173.9 1.821e+04 4.407e-09
 44.22890    175.1 1.789e+04 3.286e-09
 44.24854    176.0 1.720e+04 2.259e-09
 44.26819    176.5 1.594e+04 1.414e-09
 44.28783    176.4 1.401e+04 8.422e-10
 44.30748    175.9 1.163e+04 5.292e-10
 44.32712    175.1 1.003e+04 3.910e-10
 44.34676    174.6 9.745e+03 3.612e-10
 44.36459    174.3 9.730e+03 3.721e-10
 44.37442    172.8 9.642e+03 3.385e-10
 44.38605    172.1 9.705e+03 3.429e-10
 44.40570    170.4 9.845e+03 3.736e-10
 44.42534    166.6 1.067e+04 5.298e-10
 44.44499    160.4 1.322e+04 1.077e-09
 44.46463    155.5 1.481e+04 1.972e-09
 44.47931    154.2 1.500e+04 2.463e-09
 44.48909    153.6 1.511e+04 2.856e-09
 44.49891    152.8 1.597e+04 3.422e-09
 44.50873    149.4 2.021e+04 5.191e-09
 44.51855    141.1 2.883e+04 1.517e-08
 44.52837    132.2 3.027e+04 6.163e-08
 44.53820    125.7 2.786e+04 1.574e-07
 44.54802    121.4 2.486e+04 2.281e-07
 44.55419    118.7 2.390e+04 2.163e-07
 44.55910    119.1 2.436e+04 2.088e-07
 44.56766    118.3 2.332e+04 1.663e-07
 44.57748    118.4 2.252e+04 1.107e-07
 44.58731    118.4 2.193e+04 6.224e-08
 44.59713    118.3 2.204e+04 3.047e-08
 44.60695    117.9 2.289e+04 1.329e-08
 44.62173    116.5 2.281e+04 6.181e-09
 44.64143    111.4 1.915e+04 1.441e-09
 44.66107    106.6 1.180e+04 8.298e-10
 44.68071    106.2 1.068e+04 6.991e-10
 44.70036    106.9 1.052e+04 6.433e-10
 44.72000    108.0 1.053e+04 6.033e-10
 44.73416    108.9 1.055e+04 5.842e-10
 44.74398    109.5 1.046e+04 4.925e-10
 44.75929    110.3 1.038e+04 4.599e-10
 44.77893    111.0 1.030e+04 4.514e-10
 44.79858    111.8 1.030e+04 4.671e-10
 44.81822    112.7 1.035e+04 4.995e-10
 44.83787    113.7 1.043e+04 5.466e-10
 44.85751    114.3 1.044e+04 5.735e-10
 44.88707    116.2 1.018e+04 4.911e-10
 44.92646    118.2 9.966e+03 4.518e-10
 44.96575    120.2 9.882e+03 4.260e-10
 45.00503    122.2 9.773e+03 3.945e-10
 45.04432    124.3 9.699e+03 3.690e-10
 45.08361    126.6 9.721e+03 3.596e-10
 45.10391    128.7 9.738e+03 3.614e-10
 45.12356    129.1 9.787e+03 3.920e-10
 45.16219    131.0 9.844e+03 3.986e-10
 45.20147    132.7 9.884e+03 4.105e-10
 45.23084    134.2 9.893e+03 4.146e-10
 45.25039    135.6 9.944e+03 4.276e-10
 45.27995    137.6 1.015e+04 4.831e-10
 45.31934    139.7 1.026e+04 5.138e-10
 45.35863    142.0 1.043e+04 5.590e-10
 45.38800    142.9 1.054e+04 5.997e-10
 45.40754    143.7 1.067e+04 6.418e-10
 45.42719    144.6 1.084e+04 7.073e-10
 45.44683    145.5 1.108e+04 8.122e-10
 45.46346    146.4 1.139e+04 9.648e-10
 45.47328    146.3 1.152e+04 1.050e-09
 45.48612    147.2 1.188e+04 1.265e-09
 45.50576    148.1 1.228e+04 1.532e-09
 45.52541    149.0 1.270e+04 1.855e-09
 45.54505    149.8 1.313e+04 2.246e-09
 45.56469    150.6 1.360e+04 2.721e-09
 45.58434    151.4 1.410e+04 3.297e-09
 45.60398    152.2 1.462e+04 3.983e-09
 45.62363    153.1 1.516e+04 4.717e-09
 45.64327    153.9 1.564e+04 5.269e-09
 45.66291    154.1 1.623e+04 6.261e-09
 45.68256    154.5 1.626e+04 6.238e-09
 45.70220    154.9 1.621e+04 6.009e-09
 45.71532    155.4 1.599e+04 5.371e-09
 45.72514    155.2 1.672e+04 6.950e-09
 45.74149    155.7 1.633e+04 5.847e-09
 45.76113    156.2 1.580e+04 4.656e-09
 45.78078    156.6 1.517e+04 3.591e-09
 45.80042    156.9 1.451e+04 2.722e-09
 45.82007    157.0 1.385e+04 2.076e-09
 45.83302    156.8 1.330e+04 1.687e-09
 45.84284    156.1 1.467e+04 2.852e-09
 45.85935    155.9 1.459e+04 2.818e-09
 45.87900    155.9 1.460e+04 2.858e-09
 45.89864    155.9 1.470e+04 3.077e-09
 45.91829    155.9 1.495e+04 3.547e-09
 45.93793    156.1 1.525e+04 4.172e-09
 45.95757    156.4 1.550e+04 4.744e-09
 45.97722    156.6 1.565e+04 5.069e-09
 45.99686    156.6 1.567e+04 4.941e-09
 46.01289    156.4 1.550e+04 4.371e-09
 46.02271    155.3 1.545e+04 3.958e-09
 46.03615    154.2 1.502e+04 2.915e-09
 46.05579    152.2 1.443e+04 2.100e-09
 46.07544    149.5 1.370e+04 1.651e-09
 46.09508    146.9 1.312e+04 1.564e-09
 46.11473    144.8 1.307e+04 1.576e-09
 46.13437    142.9 1.309e+04 1.654e-09
 46.15401    141.0 1.322e+04 1.753e-09
 46.17366    139.4 1.325e+04 1.765e-09
 46.19276    137.9 1.316e+04 1.612e-09
 46.20268    137.2 1.269e+04 1.031e-09
 46.22296    134.1 1.193e+04 4.474e-10
 46.26225    128.9 1.018e+04 1.409e-10
 46.30154    123.1 9.663e+03 1.303e-10
 46.34083    119.8 9.815e+03 1.787e-10
 46.37020    117.5 1.025e+04 2.710e-10
 46.38245    115.5 1.087e+04 4.517e-10
 46.39227    116.1 1.069e+04 3.933e-10
 46.40939    113.8 1.167e+04 7.154e-10
 46.42903    111.2 1.270e+04 1.217e-09
 46.44867    108.5 1.355e+04 1.810e-09
 46.46832    105.9 1.407e+04 2.213e-09
 46.48796    103.0 1.413e+04 2.229e-09
 46.50761    100.2 1.396e+04 2.100e-09
 46.52725     97.7 1.340e+04 1.712e-09
 46.54689     95.6 1.266e+04 1.274e-09
 46.56232     93.8 1.197e+04 9.290e-10
 46.57214     93.5 1.185e+04 8.954e-10
 46.58618     92.0 1.129e+04 6.785e-10
 46.60583     90.5 1.101e+04 5.470e-10
 46.62547     90.0 1.087e+04 4.827e-10
 46.65503     88.8 1.057e+04 4.076e-10
 46.69442     87.6 1.033e+04 3.347e-10
 46.73371     86.5 1.015e+04 2.877e-10
 46.77300     85.5 1.019e+04 2.817e-10
 46.81228     84.8 1.039e+04 3.064e-10
 46.85157     84.4 1.062e+04 3.389e-10
 46.89086     84.3 1.080e+04 3.643e-10
 46.92023     84.1 1.053e+04 2.933e-10
 46.93188     83.7 1.078e+04 2.993e-10
 46.94171     83.6 1.009e+04 2.346e-10
 46.95942     82.4 1.074e+04 2.725e-10
 46.97906     79.2 1.217e+04 4.588e-10
 46.99871     75.9 1.325e+04 1.003e-09
 47.01835     74.6 1.393e+04 2.050e-09
 47.03800     74.5 1.447e+04 3.229e-09
 47.05764     74.1 1.465e+04 3.426e-09
 47.07728     73.6 1.455e+04 3.195e-09
 47.09693     72.9 1.418e+04 2.399e-09
 47.11175     71.4 1.355e+04 1.481e-09
 47.12158     70.2 1.331e+04 1.374e-09
 47.13622     67.9 1.239e+04 7.856e-10
 47.15586     65.2 1.138e+04 4.725e-10
 47.17550     63.1 1.047e+04 3.542e-10
 47.19515     62.3 1.025e+04 3.466e-10
 47.21479     62.4 1.023e+04 3.533e-10
 47.24436     62.7 1.031e+04 3.782e-10
 47.28200     62.9 1.021e+04 4.044e-10
 47.30164     61.6 1.060e+04 5.155e-10
 47.32303     62.2 1.053e+04 5.223e-10
 47.36232     63.1 1.032e+04 4.799e-10
 47.40160     64.3 9.978e+03 3.753e-10
 47.44089     65.6 9.637e+03 2.731e-10
 47.48018     67.0 9.321e+03 1.817e-10
 47.51947     68.4 9.062e+03 1.190e-10
 47.55876     69.8 8.838e+03 8.450e-11
 47.59805     71.5 8.616e+03 7.229e-11
 47.63733     73.4 8.526e+03 7.076e-11
 47.66138     75.5 8.502e+03 7.239e-11
 47.68103     75.0 8.454e+03 7.215e-11
 47.71591     77.2 8.480e+03 7.658e-11
 47.75520     79.3 8.505e+03 8.196e-11
 47.79449     81.4 8.529e+03 8.843e-11
 47.83377     83.4 8.572e+03 9.734e-11
 47.87306     85.4 8.645e+03 1.104e-10
 47.91235     87.2 8.754e+03 1.274e-10
 47.95164     88.8 8.953e+03 1.544e-10
 47.99093     90.4 9.295e+03 2.036e-10
 48.02112     91.9 9.750e+03 2.770e-10
 48.04067     91.1 9.911e+03 2.974e-10
 48.05948     91.5 1.007e+04 3.430e-10
 48.07913     91.7 1.039e+04 4.434e-10
 48.09877     92.0 1.086e+04 6.107e-10
 48.11842     92.5 1.142e+04 8.461e-10
 48.13806     93.1 1.199e+04 1.146e-09
 48.15770     93.7 1.250e+04 1.502e-09
 48.17735     94.3 1.290e+04 1.879e-09
 48.19699     95.1 1.322e+04 2.172e-09
 48.21062     95.7 1.346e+04 2.334e-09
 48.22044     94.9 1.348e+04 2.264e-09
 48.23628     95.4 1.344e+04 2.231e-09
 48.25592     96.0 1.335e+04 2.103e-09
 48.27557     96.7 1.323e+04 1.877e-09
 48.29521     97.2 1.315e+04 1.647e-09
 48.31486     97.7 1.300e+04 1.349e-09
 48.33450     98.2 1.294e+04 1.179e-09
 48.35414     98.6 1.276e+04 9.762e-10
 48.38076    100.3 1.294e+04 9.717e-10
 48.40051     96.3 9.936e+03 2.555e-10
 48.42309     97.6 9.123e+03 2.019e-10
 48.45913     99.4 8.838e+03 1.705e-10
 48.47877     99.3 8.894e+03 1.817e-10
 48.50167    101.1 8.872e+03 1.522e-10
 48.54096    103.0 8.864e+03 1.326e-10
 48.58025    104.7 8.880e+03 1.317e-10
 48.61953    106.3 8.975e+03 1.461e-10
 48.65882    107.6 9.389e+03 1.904e-10
 48.69811    107.7 9.869e+03 2.463e-10
 48.72748    107.1 1.017e+04 2.939e-10
 48.74702    107.0 1.055e+04 3.769e-10
 48.76005    106.9 1.100e+04 5.142e-10
 48.76987    105.7 1.142e+04 7.365e-10
 48.78631    105.4 1.184e+04 9.418e-10
 48.80596    104.8 1.227e+04 1.153e-09
 48.82560    103.8 1.261e+04 1.341e-09
 48.84524    102.6 1.281e+04 1.486e-09
 48.86489    101.2 1.292e+04 1.596e-09
 48.88453     99.7 1.298e+04 1.676e-09
 48.90418     98.0 1.322e+04 1.787e-09
 48.92382     93.8 1.432e+04 2.228e-09
 48.93992     85.5 1.766e+04 4.255e-09
 48.94974     83.7 1.754e+04 3.732e-09
 48.96311     74.8 2.015e+04 7.976e-09
 48.98275     67.2 2.072e+04 1.128e-08
 49.00240     60.4 2.030e+04 1.042e-08
 49.02204     53.8 1.898e+04 7.183e-09
 49.04168     46.4 1.688e+04 3.766e-09
 49.06133     38.9 1.429e+04 2.043e-09
 49.08097     33.9 1.284e+04 1.470e-09
 49.10062     31.5 1.262e+04 1.369e-09
 49.11979     30.1 1.247e+04 1.323e-09
 49.12961     31.8 1.254e+04 1.344e-09
 49.13991     30.8 1.238e+04 1.293e-09
 49.15955     30.1 1.204e+04 1.192e-09
 49.17919     29.9 1.158e+04 1.036e-09
 49.19884     30.0 1.110e+04 8.640e-10
 49.21848     30.1 1.071e+04 7.037e-10
 49.23813     29.7 1.049e+04 5.661e-10
 49.25777     29.2 1.014e+04 4.452e-10
 49.27741     28.7 1.001e+04 3.838e-10
 49.29706     28.4 9.710e+03 3.281e-10
 49.30948     28.3 9.597e+03 3.111e-10
 49.31930     30.1 9.588e+03 3.432e-10
 49.33635     30.1 9.657e+03 3.483e-10
 49.35599     30.2 9.858e+03 3.740e-10
 49.37563     30.2 1.006e+04 4.256e-10
 49.39528     29.7 1.065e+04 5.425e-10
 49.41492     26.8 1.249e+04 1.117e-09
 49.42961     22.5 1.480e+04 2.132e-09
 49.43938     16.0 1.876e+04 4.827e-09
 49.44920     11.1 2.118e+04 1.137e-08
 49.45902      9.7 2.144e+04 1.962e-08
 49.46884      9.3 2.127e+04 3.090e-08
 49.47867      9.4 2.120e+04 3.971e-08
 49.48849      9.1 2.115e+04 3.839e-08
 49.49417      8.8 2.105e+04 3.101e-08
 49.49908      9.9 2.132e+04 3.740e-08
 49.50813      8.9 2.174e+04 2.474e-08
 49.51795      6.6 2.226e+04 1.515e-08
 49.53274      1.2 2.205e+04 5.998e-09
 49.55243    -11.8 1.501e+04 1.390e-09
 49.57207    -16.7 1.119e+04 8.302e-10
 49.59172    -17.8 1.088e+04 6.468e-10
 49.61136    -19.1 1.049e+04 5.153e-10
 49.63101    -20.9 1.023e+04 4.631e-10
 49.65065    -22.4 1.041e+04 4.605e-10
 49.66922    -24.3 1.082e+04 5.162e-10
 49.67904    -23.9 1.041e+04 4.435e-10
 49.68994    -25.2 1.094e+04 5.729e-10
 49.70958    -26.2 1.136e+04 7.647e-10
 49.72923    -26.4 1.181e+04 1.047e-09
 49.74887    -26.3 1.232e+04 1.395e-09
 49.76851    -25.8 1.282e+04 1.739e-09
 49.78816    -25.5 1.323e+04 2.010e-09
 49.80780    -25.5 1.348e+04 2.170e-09
 49.82745    -25.5 1.364e+04 2.254e-09
 49.84709    -26.5 1.367e+04 2.248e-09
 49.85891    -28.0 1.386e+04 2.308e-09
 49.86874    -26.8 1.445e+04 2.866e-09
 49.88638    -28.7 1.485e+04 3.183e-09
 49.90602    -30.9 1.496e+04 3.534e-09
 49.92567    -32.8 1.484e+04 3.792e-09
 49.94531    -34.6 1.473e+04 3.842e-09
 49.96495    -36.3 1.470e+04 3.758e-09
 49.98460    -38.6 1.457e+04 3.111e-09
 50.00424    -42.4 1.402e+04 2.348e-09
 50.02389    -46.4 1.313e+04 1.836e-09
 50.03878    -48.5 1.256e+04 1.632e-09
 50.04861    -50.7 1.296e+04 2.040e-09
 50.06317    -51.1 1.281e+04 1.976e-09
 50.08282    -51.1 1.271e+04 1.870e-09
 50.10246    -50.9 1.259e+04 1.699e-09
 50.12211    -50.8 1.242e+04 1.514e-09
 50.14175    -50.6 1.215e+04 1.348e-09
 50.16139    -50.3 1.188e+04 1.220e-09
 50.18104    -49.9 1.165e+04 1.146e-09
 50.20068    -49.4 1.158e+04 1.125e-09
 50.21865    -48.8 1.156e+04 1.142e-09
 50.22848    -50.2 1.191e+04 1.243e-09
 50.23997    -49.6 1.217e+04 1.337e-09
 50.25961    -49.0 1.245e+04 1.440e-09
 50.27926    -48.4 1.266e+04 1.518e-09
 50.29890    -47.7 1.274e+04 1.551e-09
 50.31855    -47.0 1.276e+04 1.528e-09
 50.33819    -46.2 1.268e+04 1.455e-09
 50.35783    -45.4 1.267e+04 1.363e-09
 50.37748    -44.6 1.273e+04 1.277e-09
 50.39712    -43.9 1.281e+04 1.231e-09
 50.40835    -43.4 1.290e+04 1.224e-09
 50.41817    -44.5 1.299e+04 1.499e-09
 50.43641    -44.3 1.310e+04 1.555e-09
 50.45605    -44.7 1.343e+04 1.971e-09
 50.47570    -44.8 1.385e+04 2.761e-09
 50.49534    -44.5 1.443e+04 4.002e-09
 50.51499    -43.4 1.522e+04 5.885e-09
 50.53463    -42.3 1.605e+04 8.343e-09
 50.55427    -41.5 1.682e+04 1.103e-08
 50.57392    -41.2 1.735e+04 1.284e-08
 50.58822    -41.5 1.779e+04 1.341e-08
 50.59804    -40.9 1.690e+04 1.011e-08
 50.61321    -41.3 1.738e+04 9.192e-09
 50.63285    -42.1 1.791e+04 8.641e-09
 50.65249    -42.8 1.844e+04 8.294e-09
 50.67214    -43.6 1.884e+04 7.759e-09
 50.69178    -44.4 1.892e+04 7.095e-09
 50.71143    -45.4 1.852e+04 6.256e-09
 50.73107    -46.8 1.737e+04 5.252e-09
 50.75071    -48.2 1.588e+04 4.322e-09
 50.76809    -48.9 1.462e+04 3.563e-09
 50.77791    -49.0 1.327e+04 2.587e-09
 50.79000    -48.7 1.304e+04 2.338e-09
 50.80965    -48.2 1.261e+04 1.839e-09
 50.82929    -47.9 1.208e+04 1.322e-09
 50.84893    -47.9 1.153e+04 9.044e-10
 50.86858    -48.5 1.117e+04 6.365e-10
 50.88822    -49.4 1.090e+04 4.946e-10
 50.90787    -50.2 1.079e+04 4.192e-10
 50.92751    -50.8 1.095e+04 4.001e-10
 50.94715    -51.2 1.143e+04 4.248e-10
 50.95778    -51.4 1.185e+04 4.960e-10
 50.96760    -49.9 1.098e+04 4.236e-10
 50.98644    -49.7 1.124e+04 4.427e-10
 51.00609    -49.4 1.146e+04 4.585e-10
 51.02573    -49.2 1.154e+04 4.690e-10
 51.04537    -48.7 1.150e+04 4.771e-10
 51.06502    -48.2 1.144e+04 4.918e-10
 51.08466    -47.8 1.142e+04 5.229e-10
 51.10431    -47.7 1.148e+04 5.770e-10
 51.12395    -47.7 1.159e+04 6.727e-10
 51.13765    -47.7 1.176e+04 8.253e-10
 51.14747    -46.9 1.150e+04 5.370e-10
 51.16324    -46.9 1.164e+04 7.292e-10
 51.18288    -46.4 1.186e+04 9.616e-10
 51.20253    -45.5 1.210e+04 1.169e-09
 51.22217    -44.6 1.225e+04 1.264e-09
 51.24181    -42.9 1.219e+04 1.226e-09
 51.26146    -42.0 1.209e+04 1.110e-09
 51.28110    -41.2 1.183e+04 8.807e-10
 51.30075    -40.8 1.153e+04 6.560e-10
 51.31752    -40.6 1.115e+04 4.869e-10
 51.32734    -40.0 1.121e+04 5.091e-10
 51.34003    -39.9 1.085e+04 3.882e-10
 51.35968    -39.6 1.056e+04 3.162e-10
 51.37932    -39.4 1.040e+04 2.804e-10
 51.40889    -39.3 1.024e+04 2.540e-10
 51.44827    -38.5 9.787e+03 1.928e-10
 51.48756    -37.6 9.489e+03 1.628e-10
 51.52685    -37.1 9.456e+03 1.568e-10
 51.56614    -37.0 9.685e+03 1.681e-10
 51.60542    -37.5 1.013e+04 2.600e-10
 51.64471    -37.5 1.059e+04 4.299e-10
 51.67408    -36.9 1.082e+04 5.366e-10
 51.68708    -36.8 1.095e+04 6.241e-10
 51.69690    -36.3 1.107e+04 6.333e-10
 51.71327    -36.0 1.122e+04 7.428e-10
 51.73292    -35.7 1.127e+04 7.544e-10
 51.75256    -35.8 1.141e+04 7.375e-10
 51.77220    -43.1 1.682e+04 7.762e-10
 51.79185    -56.6 2.298e+04 2.702e-09
 51.81149    -63.2 2.196e+04 1.116e-08
 51.82618    -64.2 2.133e+04 1.746e-08
 51.83595    -64.7 2.144e+04 1.855e-08
 51.84577    -65.7 2.146e+04 1.966e-08
 51.85559    -67.1 2.152e+04 1.857e-08
 51.86541    -69.1 2.106e+04 1.372e-08
 51.87176    -71.1 2.069e+04 8.874e-09
 51.87672    -68.0 2.081e+04 1.264e-08
 51.89007    -74.2 1.911e+04 4.638e-09
 51.90971    -83.1 1.496e+04 1.674e-09
 51.92936    -90.0 1.359e+04 1.353e-09
 51.94900    -95.6 1.528e+04 1.659e-09
 51.96864   -100.2 1.723e+04 3.828e-09
 51.98333   -102.5 1.734e+04 5.657e-09
 51.99310   -102.9 1.775e+04 6.894e-09
 52.00788   -103.5 1.842e+04 1.073e-08
 52.02262   -104.1 1.835e+04 1.187e-08
 52.03239   -104.4 1.838e+04 1.206e-08
 52.04221   -105.1 1.836e+04 1.235e-08
 52.05163   -105.3 1.827e+04 1.206e-08
 52.05659   -105.5 1.811e+04 1.088e-08
 52.06686   -106.0 1.742e+04 7.957e-09
 52.08651   -106.7 1.638e+04 4.444e-09
 52.10615   -108.3 1.522e+04 2.187e-09
 52.12580   -110.4 1.398e+04 1.129e-09
 52.14544   -111.9 1.286e+04 7.094e-10
 52.16508   -112.4 1.213e+04 5.448e-10
 52.18473   -112.4 1.166e+04 4.898e-10
 52.20437   -111.5 1.148e+04 4.554e-10
 52.22402   -110.5 1.140e+04 4.376e-10
 52.23651   -109.6 1.135e+04 4.250e-10
 52.24633   -110.8 1.149e+04 4.467e-10
 52.26330   -110.0 1.150e+04 4.449e-10
 52.28295   -109.2 1.154e+04 4.557e-10
 52.30259   -108.4 1.156e+04 4.734e-10
 52.32224   -107.6 1.158e+04 5.005e-10
 52.34188   -106.7 1.155e+04 5.285e-10
 52.36152   -105.6 1.146e+04 5.502e-10
 52.38117   -104.3 1.135e+04 5.590e-10
 52.40081   -102.8 1.112e+04 5.390e-10
 52.41638   -101.3 1.098e+04 4.998e-10
 52.43612   -101.1 1.088e+04 4.105e-10
 52.46976    -99.3 1.059e+04 3.508e-10
 52.50905    -96.7 1.012e+04 2.766e-10
 52.54834    -93.8 9.674e+03 2.157e-10
 52.58763    -90.8 9.346e+03 1.740e-10
 52.62691    -87.9 9.158e+03 1.493e-10
 52.66620    -85.1 9.167e+03 1.345e-10
 52.70549    -82.2 9.164e+03 1.314e-10
 52.74478    -79.5 9.262e+03 1.372e-10
 52.77632    -76.9 9.436e+03 1.552e-10
 52.79596    -77.4 9.586e+03 2.211e-10
 52.82335    -74.8 9.818e+03 2.683e-10
 52.86264    -72.4 1.007e+04 3.266e-10
 52.90193    -70.0 1.038e+04 3.956e-10
 52.93130    -68.0 1.076e+04 4.456e-10
 52.95084    -67.5 1.081e+04 4.571e-10
 52.96581    -66.0 1.116e+04 5.435e-10
 52.97564    -66.3 1.102e+04 6.242e-10
 52.99013    -65.4 1.133e+04 7.249e-10
 53.00978    -64.8 1.178e+04 8.902e-10
 53.02942    -64.6 1.233e+04 1.135e-09
 53.04906    -64.4 1.296e+04 1.517e-09
 53.06871    -64.2 1.366e+04 2.081e-09
 53.08835    -63.7 1.433e+04 2.791e-09
 53.10800    -63.0 1.485e+04 3.497e-09
 53.12764    -62.4 1.515e+04 3.887e-09
 53.14568    -61.9 1.520e+04 3.951e-09
 53.15551    -61.8 1.462e+04 3.639e-09
 53.16693    -61.3 1.439e+04 3.342e-09
 53.18657    -60.9 1.398e+04 2.754e-09
 53.20622    -60.6 1.357e+04 2.232e-09
 53.22586    -60.4 1.321e+04 1.883e-09
 53.24550    -60.1 1.295e+04 1.714e-09
 53.26515    -59.6 1.284e+04 1.669e-09
 53.28479    -59.0 1.279e+04 1.662e-09
 53.30444    -58.1 1.280e+04 1.737e-09
 53.32408    -57.2 1.298e+04 1.889e-09
 53.33538    -56.5 1.325e+04 2.105e-09
 53.34520    -57.4 1.352e+04 2.184e-09
 53.36337    -56.7 1.368e+04 2.400e-09
 53.38301    -55.9 1.392e+04 2.667e-09
 53.40266    -55.2 1.424e+04 2.990e-09
 53.42230    -54.4 1.457e+04 3.318e-09
 53.44194    -53.7 1.486e+04 3.586e-09
 53.46159    -53.0 1.503e+04 3.696e-09
 53.48123    -52.4 1.521e+04 3.588e-09
 53.50088    -52.1 1.528e+04 3.186e-09
 53.51525    -52.3 1.561e+04 2.610e-09
 53.52507    -57.6 1.255e+04 1.109e-09
 53.54016    -59.4 1.217e+04 1.009e-09
 53.55981    -60.8 1.208e+04 9.933e-10
 53.57945    -62.0 1.214e+04 1.002e-09
 53.59910    -62.8 1.202e+04 1.112e-09
 53.61874    -63.3 1.194e+04 1.294e-09
 53.63838    -63.8 1.211e+04 1.642e-09
 53.65803    -64.1 1.266e+04 2.258e-09
 53.67767    -64.0 1.353e+04 3.314e-09
 53.69512    -63.6 1.457e+04 4.873e-09
 53.70494    -63.0 1.384e+04 3.382e-09
 53.71696    -62.7 1.463e+04 4.064e-09
 53.73661    -62.7 1.521e+04 4.458e-09
 53.75625    -63.1 1.540e+04 4.524e-09
 53.77589    -63.8 1.542e+04 3.783e-09
 53.79554    -65.2 1.424e+04 2.554e-09
 53.81518    -67.4 1.258e+04 1.687e-09
 53.83483    -69.5 1.155e+04 1.256e-09
 53.85447    -71.2 1.126e+04 1.107e-09
 53.87411    -72.5 1.115e+04 1.052e-09
 53.88481    -73.7 1.100e+04 9.908e-10
 53.89463    -73.3 1.094e+04 9.510e-10
 53.91340    -74.5 1.065e+04 8.427e-10
 53.93305    -75.6 1.027e+04 7.073e-10
 53.95269    -76.6 9.883e+03 5.785e-10
 53.97233    -77.7 9.590e+03 4.848e-10
 53.98546    -78.8 9.493e+03 4.439e-10
 53.99528    -79.1 9.620e+03 4.787e-10
 54.01162    -80.6 9.643e+03 4.756e-10
 54.03127    -82.6 1.001e+04 5.400e-10
 54.05091    -84.8 1.111e+04 7.917e-10
 54.06468    -86.5 1.233e+04 1.235e-09
 54.07450    -88.5 1.392e+04 2.318e-09
 54.09020    -89.2 1.449e+04 3.251e-09
 54.10984    -89.5 1.478e+04 4.048e-09
 54.12949    -89.7 1.489e+04 4.613e-09
 54.14913    -89.9 1.495e+04 4.857e-09
 54.16877    -90.3 1.511e+04 5.042e-09
 54.18842    -90.7 1.527e+04 5.116e-09
 54.20806    -91.0 1.537e+04 4.970e-09
 54.22771    -91.1 1.536e+04 4.580e-09
 54.24455    -91.2 1.518e+04 3.983e-09
 54.25437    -91.3 1.360e+04 2.007e-09
 54.26699    -91.8 1.317e+04 1.664e-09
 54.28664    -92.0 1.275e+04 1.438e-09
 54.30628    -92.1 1.256e+04 1.346e-09
 54.32593    -92.1 1.254e+04 1.331e-09
 54.34557    -91.9 1.275e+04 1.393e-09
 54.36521    -91.7 1.303e+04 1.563e-09
 54.38486    -91.2 1.325e+04 1.726e-09
 54.40450    -90.8 1.340e+04 1.854e-09
 54.42415    -90.7 1.352e+04 1.936e-09
 54.43424    -90.7 1.371e+04 1.998e-09
 54.44406    -91.1 1.180e+04 9.439e-10
 54.46343    -91.4 1.189e+04 1.025e-09
 54.48308    -91.9 1.210e+04 1.114e-09
 54.50272    -92.6 1.239e+04 1.234e-09
 54.52237    -93.1 1.258e+04 1.356e-09
 54.54201    -93.7 1.271e+04 1.452e-09
 54.56165    -94.9 1.326e+04 1.615e-09
 54.58130    -99.1 1.906e+04 2.398e-09
 54.60094   -104.9 2.494e+04 5.659e-09
 54.61406   -108.3 2.552e+04 8.502e-09
 54.62388   -105.3 2.493e+04 3.467e-09
 54.64023   -111.4 2.643e+04 9.718e-09
 54.65491   -115.7 2.424e+04 2.231e-08
 54.66469   -117.3 2.282e+04 3.153e-08
 54.67451   -118.7 2.188e+04 4.063e-08
 54.68433   -120.0 2.159e+04 4.510e-08
 54.69415   -121.7 2.155e+04 4.595e-08
 54.70395   -123.5 2.156e+04 4.307e-08
 54.71377   -124.6 2.207e+04 4.636e-08
 54.72362   -126.2 2.193e+04 3.536e-08
 54.73344   -128.0 2.183e+04 2.547e-08
 54.74326   -130.1 2.133e+04 1.796e-08
 54.75309   -132.4 2.022e+04 1.254e-08
 54.76291   -134.7 1.870e+04 8.919e-09
 54.77273   -136.4 1.722e+04 6.650e-09
 54.78255   -137.5 1.611e+04 5.227e-09
 54.79393   -138.6 1.532e+04 4.204e-09
 54.80375   -138.3 1.546e+04 4.902e-09
 54.81698   -138.6 1.509e+04 4.451e-09
 54.83667   -138.8 1.453e+04 3.565e-09
 54.85631   -138.9 1.370e+04 2.502e-09
 54.87596   -139.3 1.296e+04 1.816e-09
 54.89560   -139.5 1.241e+04 1.454e-09
 54.91525   -139.5 1.209e+04 1.262e-09
 54.93489   -139.3 1.190e+04 1.147e-09
 54.95453   -138.9 1.180e+04 1.059e-09
 54.97385   -138.7 1.174e+04 9.924e-10
 54.98367   -138.8 1.172e+04 9.653e-10
 54.99382   -138.7 1.168e+04 9.363e-10
 55.01347   -138.8 1.167e+04 9.255e-10
 55.03311   -139.3 1.178e+04 1.004e-09
 55.05275   -140.1 1.217e+04 1.290e-09
 55.07240   -140.6 1.275e+04 1.801e-09
 55.09204   -140.7 1.345e+04 2.489e-09
 55.11169   -140.8 1.409e+04 3.183e-09
 55.13133   -141.5 1.452e+04 3.602e-09
 55.15097   -142.7 1.463e+04 3.690e-09
 55.16354   -144.3 1.463e+04 3.517e-09
 55.17336   -144.5 1.544e+04 4.606e-09
 55.19026   -146.6 1.513e+04 3.613e-09
 55.20991   -149.4 1.445e+04 2.642e-09
 55.22955   -152.3 1.364e+04 2.034e-09
 55.24919   -154.6 1.289e+04 1.696e-09
 55.26884   -155.9 1.234e+04 1.496e-09
 55.28848   -156.5 1.192e+04 1.330e-09
 55.30813   -156.8 1.158e+04 1.152e-09
 55.32777   -157.0 1.129e+04 9.579e-10
 55.34341   -157.2 1.100e+04 7.633e-10
 55.35323   -158.4 1.107e+04 7.384e-10
 55.36706   -158.8 1.075e+04 5.772e-10
 55.38670   -159.2 1.043e+04 4.733e-10
 55.41627   -159.7 1.012e+04 3.986e-10
 55.45565   -158.3 9.681e+03 3.153e-10
 55.49494   -156.9 9.362e+03 2.675e-10
 55.53423   -155.4 9.229e+03 2.479e-10
 55.57352   -153.8 9.121e+03 2.296e-10
 55.61280   -152.2 8.999e+03 2.036e-10
 55.65209   -150.4 8.855e+03 1.718e-10
 55.69138   -148.6 8.732e+03 1.421e-10
 55.71317   -146.8 8.656e+03 1.196e-10
 55.73281   -147.1 8.681e+03 1.207e-10
 55.76996   -145.5 8.681e+03 1.100e-10
 55.80924   -143.8 8.693e+03 1.072e-10
 55.84853   -142.2 8.704e+03 1.071e-10
 55.88782   -140.7 8.751e+03 1.111e-10
 55.92711   -139.2 8.806e+03 1.167e-10
 55.96640   -137.6 8.862e+03 1.196e-10
 56.00568   -136.0 8.897e+03 1.200e-10
 56.04497   -134.5 8.925e+03 1.193e-10
 56.07291   -133.1 8.975e+03 1.175e-10
 56.09255   -134.0 8.884e+03 1.206e-10
 56.12355   -132.9 8.939e+03 1.204e-10
 56.16284   -131.9 9.117e+03 1.259e-10
 56.20212   -131.1 9.142e+03 1.498e-10
 56.24141   -130.3 9.143e+03 1.840e-10
 56.28070   -129.5 9.133e+03 2.182e-10
 56.31999   -128.9 9.097e+03 2.385e-10
 56.35928   -128.4 9.081e+03 2.428e-10
 56.39856   -127.9 8.968e+03 2.427e-10
 56.43265   -127.4 8.825e+03 2.331e-10
 56.45229   -127.8 8.824e+03 1.965e-10
 56.47714   -127.4 8.829e+03 2.007e-10
 56.51643   -127.1 8.909e+03 2.359e-10
 56.55572   -126.6 9.016e+03 2.875e-10
 56.59500   -126.2 9.088e+03 3.214e-10
 56.63429   -125.8 9.092e+03 3.297e-10
 56.67358   -125.3 9.049e+03 3.284e-10
 56.71287   -124.7 8.873e+03 3.007e-10
 56.75216   -124.1 8.683e+03 2.628e-10
 56.79144   -123.7 8.541e+03 2.326e-10
 56.81203   -123.3 8.476e+03 2.160e-10
 56.83168   -123.9 8.564e+03 2.285e-10
 56.87002   -123.5 8.553e+03 2.246e-10
 56.90931   -123.5 8.578e+03 2.314e-10
 56.94860   -123.7 8.957e+03 3.026e-10
 56.98789   -123.9 9.468e+03 4.364e-10
 57.02717   -124.3 9.845e+03 5.773e-10
 57.06646   -124.8 9.978e+03 6.458e-10
 57.10575   -125.2 9.972e+03 6.552e-10
 57.14504   -125.4 9.699e+03 5.984e-10
 57.17177   -125.3 9.229e+03 4.583e-10
 57.19142   -125.5 9.344e+03 4.987e-10
 57.22361   -125.1 8.807e+03 3.598e-10
 57.26290   -124.5 8.341e+03 2.667e-10
 57.30219   -123.5 8.029e+03 2.125e-10
 57.34148   -122.5 7.858e+03 1.830e-10
 57.38077   -121.5 7.772e+03 1.669e-10
 57.42005   -120.5 7.718e+03 1.576e-10
 57.45934   -119.5 7.679e+03 1.524e-10
 57.49863   -118.5 7.648e+03 1.491e-10
 57.53151   -117.5 7.630e+03 1.469e-10
 57.55116   -117.7 7.687e+03 1.558e-10
 57.57721   -116.7 7.631e+03 1.452e-10
 57.61649   -115.7 7.579e+03 1.339e-10
 57.65578   -114.8 7.547e+03 1.267e-10
 57.69507   -114.0 7.545e+03 1.255e-10
 57.73436   -113.4 7.605e+03 1.278e-10
 57.77365   -113.0 7.898e+03 1.568e-10
 57.81293   -112.8 8.277e+03 2.157e-10
 57.85222   -112.6 8.679e+03 2.969e-10
 57.89125   -112.4 9.076e+03 3.924e-10
 57.91090   -112.4 8.928e+03 3.415e-10
 57.93080   -112.2 9.252e+03 4.218e-10
 57.97009   -112.1 9.444e+03 4.629e-10
 58.00937   -112.1 9.488e+03 4.710e-10
 58.04866   -112.0 9.470e+03 4.464e-10
 58.08795   -111.7 9.318e+03 3.726e-10
 58.12724   -111.1 9.079e+03 2.891e-10
 58.16653   -110.3 8.832e+03 2.213e-10
 58.20581   -109.2 8.646e+03 1.730e-10
 58.24510   -108.0 8.538e+03 1.418e-10
 58.27064   -106.6 8.504e+03 1.232e-10
 58.29028   -106.5 8.747e+03 1.507e-10
 58.32368   -105.1 8.755e+03 1.404e-10
 58.36297   -103.6 8.769e+03 1.377e-10
 58.40225   -102.1 8.804e+03 1.371e-10
 58.44154   -100.8 8.960e+03 1.406e-10
 58.48083    -99.4 9.074e+03 1.490e-10
 58.52012    -98.1 9.148e+03 1.575e-10
 58.55941    -96.8 9.181e+03 1.636e-10
 58.59869    -95.5 9.179e+03 1.655e-10
 58.63038    -94.1 9.162e+03 1.647e-10
 58.65002    -94.1 9.167e+03 1.870e-10
 58.67727    -92.6 9.107e+03 1.693e-10
 58.71656    -91.1 9.113e+03 1.616e-10
 58.75585    -89.8 9.128e+03 1.604e-10
 58.79513    -89.1 9.162e+03 1.753e-10
 58.83442    -88.9 9.666e+03 2.727e-10
 58.87371    -88.8 1.070e+04 5.129e-10
 58.90308    -90.1 1.166e+04 8.918e-10
 58.92263    -91.7 1.244e+04 1.566e-09
 58.94227    -92.2 1.287e+04 2.349e-09
 58.96191    -92.4 1.300e+04 2.777e-09
 58.98156    -92.4 1.301e+04 2.857e-09
 58.99974    -92.3 1.272e+04 2.660e-09
 59.00957    -91.8 1.291e+04 2.861e-09
 59.02085    -91.6 1.231e+04 1.877e-09
 59.04049    -92.4 1.158e+04 1.048e-09
 59.06013    -94.8 1.068e+04 5.995e-10
 59.07978    -96.3 9.835e+03 4.255e-10
 59.10934    -96.4 9.455e+03 3.585e-10
 59.14873    -95.5 9.167e+03 3.286e-10
 59.18802    -94.3 9.131e+03 3.278e-10
 59.22730    -93.4 9.214e+03 3.605e-10
 59.26659    -92.6 9.377e+03 4.168e-10
 59.30588    -91.7 9.555e+03 4.853e-10
 59.34517    -90.7 9.718e+03 5.518e-10
 59.36950    -89.7 9.797e+03 5.839e-10
 59.38914    -90.3 9.815e+03 6.071e-10
 59.42374    -89.0 9.748e+03 5.960e-10
 59.46303    -87.8 9.517e+03 5.123e-10
 59.49254    -86.7 9.294e+03 4.275e-10
 59.51218    -88.1 9.363e+03 4.377e-10
 59.54161    -87.3 9.190e+03 3.772e-10
 59.58090    -86.5 9.155e+03 3.498e-10
 59.62018    -85.9 9.170e+03 3.442e-10
 59.65947    -85.3 9.251e+03 3.432e-10
 59.69876    -84.6 9.387e+03 3.524e-10
 59.72924    -84.1 9.584e+03 3.747e-10
 59.74888    -84.6 9.272e+03 3.283e-10
 59.77734    -84.4 9.543e+03 3.706e-10
 59.81662    -84.3 9.798e+03 4.314e-10
 59.85591    -84.5 9.959e+03 4.811e-10
 59.89520    -84.1 1.001e+04 4.981e-10
 59.93449    -83.7 9.951e+03 4.504e-10
 59.97378    -83.3 9.681e+03 3.439e-10
 60.01306    -82.8 9.219e+03 2.376e-10
 60.05235    -82.4 8.744e+03 1.768e-10
 60.08898    -82.0 8.493e+03 1.587e-10
 60.10862    -82.0 8.691e+03 1.651e-10
 60.13093    -81.7 8.646e+03 1.608e-10
 60.17022    -81.5 8.824e+03 1.883e-10
 60.20950    -81.4 8.888e+03 2.138e-10
 60.24879    -81.5 8.916e+03 2.445e-10
 60.28808    -84.1 9.305e+03 3.689e-10
 60.32737    -93.1 1.265e+04 9.650e-10
 60.35674   -100.9 1.492e+04 2.393e-09
 60.37628   -105.2 1.658e+04 4.542e-09
 60.39593   -109.8 1.713e+04 6.279e-09
 60.41557   -114.8 1.704e+04 6.610e-09
 60.43521   -119.1 1.585e+04 5.296e-09
 60.45486   -122.6 1.419e+04 2.883e-09
 60.46817   -125.6 1.261e+04 1.436e-09
 60.47799   -125.3 1.256e+04 1.292e-09
 60.49415   -128.0 1.144e+04 6.474e-10
 60.51379   -130.0 1.075e+04 3.755e-10
 60.53343   -131.0 1.026e+04 2.683e-10
 60.56300   -131.4 9.957e+03 2.180e-10
 60.60238   -131.4 9.633e+03 1.648e-10
 60.64167   -130.4 9.431e+03 1.307e-10
 60.68096   -128.9 9.415e+03 1.233e-10
 60.72025   -127.5 9.436e+03 1.228e-10
 60.75954   -126.3 9.723e+03 1.318e-10
 60.79882   -125.1 9.995e+03 1.669e-10
 60.82810   -123.7 1.025e+04 2.086e-10
 60.84775   -123.1 9.830e+03 1.752e-10
 60.87740   -121.6 1.003e+04 2.051e-10
 60.91669   -119.9 1.022e+04 2.358e-10
 60.95598   -118.2 1.040e+04 2.717e-10
 60.99526   -116.3 1.059e+04 3.076e-10
 61.03455   -114.4 1.075e+04 3.362e-10
 61.07384   -112.5 1.088e+04 3.580e-10
 61.11313   -110.6 1.097e+04 3.718e-10
 61.15242   -108.7 1.096e+04 3.784e-10
 61.18784   -106.8 1.093e+04 3.796e-10
 61.20749   -106.4 1.045e+04 2.716e-10
 61.23099   -104.5 1.043e+04 2.716e-10
 61.27028   -102.6 1.041e+04 2.884e-10
 61.30957   -100.7 1.044e+04 3.279e-10
 61.34886    -98.7 1.048e+04 3.786e-10
 61.38814    -96.8 1.057e+04 4.289e-10
 61.42743    -95.0 1.066e+04 4.972e-10
 61.46672    -93.4 1.073e+04 5.751e-10
 61.50601    -91.9 1.075e+04 6.251e-10
 61.54530    -90.6 1.075e+04 6.317e-10
 61.56723    -89.4 1.064e+04 5.928e-10
 61.58687    -89.5 1.128e+04 9.134e-10
 61.62387    -88.5 1.108e+04 8.082e-10
 61.66316    -87.5 1.072e+04 6.075e-10
 61.70245    -86.7 1.028e+04 4.223e-10
 61.74174    -85.8 9.896e+03 2.922e-10
 61.78103    -85.0 9.573e+03 2.157e-10
 61.82031    -84.0 9.338e+03 1.756e-10
 61.85960    -82.8 9.204e+03 1.558e-10
 61.89889    -81.5 9.161e+03 1.484e-10
 61.92697    -80.3 9.159e+03 1.475e-10
 61.94661    -81.2 9.304e+03 1.780e-10
 61.97747    -80.2 9.388e+03 1.955e-10
 62.01675    -79.3 9.593e+03 2.418e-10
 62.05604    -78.2 9.866e+03 3.050e-10
 62.09533    -77.1 1.020e+04 3.762e-10
 62.11656    -76.4 1.038e+04 4.189e-10
 62.12629    -76.8 1.032e+04 3.985e-10
 62.14424    -76.5 1.041e+04 4.275e-10
 62.17381    -75.9 1.060e+04 4.802e-10
 62.21319    -74.9 1.081e+04 5.728e-10
 62.25248    -73.9 1.107e+04 6.921e-10
 62.28671    -72.8 1.142e+04 8.527e-10
 62.30635    -74.4 1.122e+04 7.520e-10
 62.33106    -73.3 1.141e+04 7.835e-10
 62.37035    -72.3 1.151e+04 7.435e-10
 62.40963    -71.2 1.143e+04 6.106e-10
 62.44892    -70.0 1.121e+04 4.727e-10
 62.48821    -68.8 1.103e+04 4.069e-10
 62.52750    -67.6 1.093e+04 3.828e-10
 62.56679    -66.6 1.091e+04 3.828e-10
 62.60607    -65.7 1.103e+04 4.468e-10
 62.64536    -64.8 1.125e+04 5.723e-10
 62.66609    -63.7 1.150e+04 7.151e-10
 62.68574    -64.4 1.111e+04 5.566e-10
 62.72394    -63.0 1.124e+04 6.118e-10
 62.76323    -61.5 1.130e+04 6.139e-10
 62.80251    -60.0 1.126e+04 5.383e-10
 62.84180    -58.5 1.118e+04 4.541e-10
 62.88109    -57.0 1.108e+04 4.127e-10
 62.92038    -55.2 1.105e+04 4.050e-10
 62.95967    -53.4 1.107e+04 4.461e-10
 62.99895    -51.4 1.110e+04 5.193e-10
 63.02583    -49.3 1.110e+04 5.748e-10
 63.04548    -48.8 1.053e+04 3.197e-10
 63.07753    -46.6 1.055e+04 3.476e-10
 63.11682    -44.3 1.057e+04 3.594e-10
 63.15611    -42.0 1.065e+04 3.717e-10
 63.19539    -40.0 1.067e+04 3.894e-10
 63.21543    -39.0 1.078e+04 4.811e-10
 63.22515    -38.4 1.067e+04 4.121e-10
 63.24431    -38.1 1.070e+04 4.548e-10
 63.26395    -36.9 1.081e+04 5.575e-10
 63.28360    -36.2 1.094e+04 6.541e-10
 63.30324    -35.1 1.115e+04 8.265e-10
 63.32289    -34.1 1.139e+04 9.365e-10
 63.34253    -33.0 1.154e+04 1.013e-09
 63.36217    -31.8 1.161e+04 1.046e-09
 63.38182    -30.7 1.164e+04 1.049e-09
 63.39520    -29.5 1.160e+04 1.008e-09
 63.40502    -29.4 1.156e+04 1.020e-09
 63.42111    -28.4 1.164e+04 9.871e-10
 63.44075    -27.5 1.173e+04 9.807e-10
 63.46039    -27.0 1.189e+04 9.825e-10
 63.48004    -26.7 1.212e+04 9.988e-10
 63.49968    -26.5 1.231e+04 1.042e-09
 63.51933    -26.2 1.243e+04 1.119e-09
 63.53897    -25.6 1.256e+04 1.208e-09
 63.55861    -25.4 1.255e+04 1.225e-09
 63.57507    -24.9 1.252e+04 1.273e-09
 63.58489    -25.0 1.311e+04 1.809e-09
 63.59790    -24.5 1.302e+04 1.826e-09
 63.61755    -23.8 1.278e+04 1.762e-09
 63.63719    -22.9 1.252e+04 1.589e-09
 63.65683    -22.0 1.233e+04 1.446e-09
 63.67648    -21.1 1.206e+04 1.221e-09
 63.69612    -20.2 1.188e+04 1.030e-09
 63.71577    -19.4 1.174e+04 9.088e-10
 63.74521    -17.8 1.137e+04 6.613e-10
 63.78460    -16.8 1.196e+04 1.008e-09
 63.82400    -15.6 1.246e+04 1.270e-09
 63.85337    -14.7 1.276e+04 1.478e-09
 63.87292    -13.8 1.313e+04 1.851e-09
 63.89256    -13.2 1.336e+04 2.200e-09
 63.91221    -12.1 1.356e+04 2.457e-09
 63.93185    -11.1 1.363e+04 2.519e-09
 63.94463    -10.0 1.352e+04 2.267e-09
 63.95445     -9.9 1.384e+04 2.784e-09
 63.97114     -9.4 1.345e+04 2.097e-09
 63.99078     -9.0 1.303e+04 1.660e-09
 64.01043     -9.1 1.257e+04 1.305e-09
 64.03007     -8.9 1.237e+04 1.220e-09
 64.04971     -8.3 1.192e+04 1.001e-09
 64.06936     -7.9 1.167e+04 9.295e-10
 64.08900     -6.8 1.143e+04 8.093e-10
 64.10865     -6.1 1.128e+04 7.699e-10
 64.12450     -5.0 1.116e+04 7.065e-10
 64.13432     -5.0 1.112e+04 6.943e-10
 64.14793     -4.3 1.099e+04 6.666e-10
 64.16758     -3.0 1.090e+04 6.225e-10
 64.18722     -2.3 1.084e+04 6.118e-10
 64.20687     -1.1 1.066e+04 5.656e-10
 64.22651      0.0 1.069e+04 5.667e-10
 64.24615      1.3 1.066e+04 5.619e-10
 64.26580      2.4 1.064e+04 5.610e-10
 64.28544      3.8 1.056e+04 5.407e-10
 64.30437      5.3 1.059e+04 5.393e-10
 64.31419      5.6 1.060e+04 5.863e-10
 64.32473      7.0 1.068e+04 5.854e-10
 64.34437      8.3 1.066e+04 5.737e-10
 64.36402      9.7 1.054e+04 5.436e-10
 64.38366     11.0 1.060e+04 5.484e-10
 64.41323     13.2 1.048e+04 4.967e-10
 64.45261     15.8 1.051e+04 5.159e-10
 64.48444     18.7 1.056e+04 5.513e-10
 64.50408     19.8 1.078e+04 6.329e-10
 64.53119     22.3 1.082e+04 6.326e-10
 64.57048     25.4 1.087e+04 6.456e-10
 64.60976     27.8 1.102e+04 6.193e-10
 64.63913     29.4 1.097e+04 5.929e-10
 64.65868     30.7 1.116e+04 6.195e-10
 64.67393     32.0 1.129e+04 6.358e-10
 64.68375     32.0 1.128e+04 7.044e-10
 64.69797     32.9 1.171e+04 8.169e-10
 64.71761     33.6 1.297e+04 1.100e-09
 64.73725     34.1 1.491e+04 1.726e-09
 64.75690     34.3 1.695e+04 2.934e-09
 64.77654     34.1 1.896e+04 5.504e-09
 64.79619     35.2 2.159e+04 1.195e-08
 64.81087     33.8 2.289e+04 1.936e-08
 64.82064     33.8 2.359e+04 2.649e-08
 64.83047     34.2 2.430e+04 3.760e-08
 64.84029     34.5 2.478e+04 5.618e-08
 64.85011     34.8 2.463e+04 8.318e-08
 64.85862     35.1 2.389e+04 1.221e-07
 64.86353     32.7 2.507e+04 4.217e-08
 64.86975     30.9 2.533e+04 3.929e-08
 64.87958     28.2 2.539e+04 3.742e-08
 64.88940     24.0 2.642e+04 2.964e-08
 64.89922     20.6 2.851e+04 1.476e-08
 64.90904     17.2 3.199e+04 6.540e-09
 64.91886     12.4 3.120e+04 4.276e-09
 64.93365      2.1 2.324e+04 3.396e-09
 64.95334     -5.8 1.796e+04 4.025e-09
 64.97298     -7.3 1.774e+04 4.643e-09
 64.99263     -7.2 1.781e+04 4.558e-09
 65.00905     -6.8 1.800e+04 4.196e-09
 65.01887     -5.2 1.459e+04 3.258e-09
 65.03191     -5.5 1.568e+04 3.777e-09
 65.04349     -6.3 1.743e+04 4.305e-09
 65.05332     -6.8 1.631e+04 4.521e-09
 65.07120     -7.6 1.679e+04 6.445e-09
 65.09085     -6.1 1.707e+04 8.797e-09
 65.10553     -4.9 1.672e+04 7.196e-09
 65.11530     -4.5 1.679e+04 7.395e-09
 65.12513     -3.8 1.719e+04 7.822e-09
 65.13333     -3.4 1.746e+04 8.170e-09
 65.13824     -3.2 1.799e+04 1.075e-08
 65.14477     -3.0 1.854e+04 1.194e-08
 65.15459     -3.4 1.945e+04 1.359e-08
 65.16441     -4.7 2.065e+04 1.806e-08
 65.17424     -6.1 2.162e+04 2.310e-08
 65.18406     -7.1 2.141e+04 3.357e-08
 65.19388     -7.6 2.123e+04 4.669e-08
 65.20370     -7.5 2.151e+04 7.645e-08
 65.21352     -7.8 2.226e+04 1.231e-07
 65.22327     -9.1 2.294e+04 1.856e-07
 65.22818     -9.2 2.382e+04 2.195e-07
 65.23317    -12.1 2.389e+04 2.985e-07
 65.24299    -15.1 2.409e+04 3.343e-07
 65.25281    -18.1 2.452e+04 3.136e-07
 65.26263    -20.8 2.577e+04 1.994e-07
 65.27246    -22.4 2.650e+04 9.514e-08
 65.28228    -23.2 2.534e+04 4.193e-08
 65.29210    -24.7 2.371e+04 1.646e-08
 65.30688    -29.2 2.162e+04 6.146e-09
 65.32657    -40.2 1.365e+04 1.172e-09
 65.34622    -42.7 1.066e+04 6.690e-10
 65.36586    -42.3 1.033e+04 5.738e-10
 65.38551    -41.9 1.018e+04 5.084e-10
 65.40323    -41.8 9.990e+03 4.559e-10
 65.41306    -41.2 1.015e+04 4.903e-10
 65.42480    -41.2 9.938e+03 4.426e-10
 65.44444    -40.9 9.806e+03 4.143e-10
 65.46408    -40.7 9.712e+03 3.896e-10
 65.48373    -40.6 9.691e+03 3.834e-10
 65.51329    -40.8 9.696e+03 3.933e-10
 65.55268    -40.9 9.950e+03 5.084e-10
 65.58330    -42.6 1.119e+04 9.190e-10
 65.60285    -42.0 1.135e+04 1.064e-09
 65.62124    -43.2 1.241e+04 1.660e-09
 65.64088    -44.9 1.368e+04 2.598e-09
 65.66052    -46.4 1.504e+04 4.207e-09
 65.68017    -47.9 1.610e+04 6.347e-09
 65.69981    -48.9 1.671e+04 8.363e-09
 65.71946    -50.2 1.696e+04 9.137e-09
 65.73910    -52.5 1.697e+04 8.151e-09
 65.75874    -56.4 1.673e+04 6.888e-09
 65.77280    -61.1 1.621e+04 5.938e-09
 65.78262    -61.6 1.707e+04 8.194e-09
 65.79803    -65.4 1.694e+04 8.485e-09
 65.81768    -68.3 1.673e+04 8.455e-09
 65.83732    -70.5 1.670e+04 7.019e-09
 65.85696    -73.2 1.612e+04 4.618e-09
 65.87661    -76.6 1.483e+04 2.866e-09
 65.89625    -79.3 1.332e+04 2.004e-09
 65.91590    -80.2 1.246e+04 1.607e-09
 65.93554    -80.4 1.198e+04 1.361e-09
 65.95267    -80.1 1.156e+04 1.152e-09
 65.96249    -81.3 1.155e+04 1.226e-09
 65.97483    -80.4 1.120e+04 1.029e-09
 65.99447    -79.6 1.094e+04 8.841e-10
 66.02404    -78.8 1.062e+04 7.473e-10
 66.06342    -76.9 1.022e+04 6.058e-10
 66.10271    -74.4 9.840e+03 4.842e-10
 66.14200    -72.1 9.624e+03 4.087e-10
 66.18129    -69.6 9.414e+03 3.544e-10
 66.22057    -67.0 9.340e+03 3.332e-10
 66.25986    -64.4 9.348e+03 3.322e-10
 66.29915    -61.9 9.492e+03 3.533e-10
 66.32242    -59.5 9.671e+03 3.877e-10
 66.34207    -59.2 9.928e+03 4.856e-10
 66.37773    -56.8 1.014e+04 5.424e-10
 66.41701    -54.6 1.027e+04 5.728e-10
 66.45630    -52.5 1.029e+04 5.786e-10
 66.49559    -50.4 1.024e+04 5.490e-10
 66.53488    -48.3 1.011e+04 4.960e-10
 66.57417    -46.2 9.965e+03 4.425e-10
 66.61345    -43.9 9.775e+03 3.866e-10
 66.65274    -41.5 9.523e+03 3.222e-10
 66.68216    -39.0 9.220e+03 2.517e-10
 66.70181    -38.7 9.421e+03 2.900e-10
 66.73132    -36.2 9.058e+03 2.086e-10
 66.77061    -33.6 8.721e+03 1.449e-10
 66.80989    -31.1 8.460e+03 1.028e-10
 66.84918    -28.6 8.289e+03 7.927e-11
 66.88847    -26.1 8.177e+03 6.592e-11
 66.92776    -23.6 8.125e+03 6.013e-11
 66.96705    -21.2 8.110e+03 5.880e-11
 67.00633    -19.0 8.187e+03 6.112e-11
 67.04190    -17.0 8.232e+03 7.120e-11
 67.06155    -17.3 8.307e+03 7.199e-11
 67.08491    -15.3 8.456e+03 9.558e-11
 67.12420    -13.1 8.682e+03 1.306e-10
 67.16349    -11.9 9.208e+03 1.721e-10
 67.20277    -12.2 1.012e+04 2.851e-10
 67.23150    -14.4 1.081e+04 5.707e-10
 67.24122    -14.4 1.087e+04 6.566e-10
 67.25169    -16.0 1.208e+04 1.046e-09
 67.27133    -18.7 1.431e+04 2.257e-09
 67.29098    -21.7 1.650e+04 5.064e-09
 67.31062    -22.7 1.707e+04 8.506e-09
 67.33026    -22.8 1.714e+04 9.926e-09
 67.34991    -22.4 1.644e+04 7.938e-09
 67.36955    -21.8 1.573e+04 4.176e-09
 67.38920    -27.9 1.387e+04 1.603e-09
 67.40884    -33.0 1.092e+04 7.862e-10
 67.42109    -33.7 1.032e+04 6.482e-10
 67.43091    -33.6 1.011e+04 5.857e-10
 67.44813    -33.2 9.943e+03 5.427e-10
 67.46777    -32.5 9.754e+03 4.943e-10
 67.48742    -31.7 9.550e+03 4.440e-10
 67.51698    -30.4 9.372e+03 3.895e-10
 67.55637    -28.7 9.099e+03 3.388e-10
 67.59565    -26.5 8.786e+03 2.767e-10
 67.63494    -24.1 8.589e+03 2.394e-10
 67.67423    -21.3 8.535e+03 2.303e-10
 67.71352    -17.8 8.616e+03 2.444e-10
 67.75281    -15.3 9.106e+03 2.971e-10
 67.78093    -13.5 7.735e+03 3.881e-10
 67.79065    -18.5 3.162e+03 6.184e-10
 67.80172    -31.3 1.732e+04 4.158e-10
 67.82137    -31.5 4.663e+04 3.584e-10
 67.83605    -56.9 7.057e+04 1.063e-09
 67.84582    -64.0 4.873e+04 1.084e-08
 67.85564    -69.2 2.590e+04 2.660e-07
 67.86299    -73.3 2.415e+04 7.108e-07
 67.86787    -75.1 2.339e+04 1.002e-06
 67.87278    -83.1 2.303e+04 1.330e-06
 67.87770    -90.0 2.408e+04 1.156e-06
 67.88044   -101.2 2.686e+04 4.959e-07
 67.88538   -101.0 2.787e+04 3.033e-07
 67.89493   -112.8 2.735e+04 1.022e-07
 67.90475   -118.0 2.375e+04 5.249e-08
 67.91458   -118.9 2.261e+04 4.170e-08
 67.92440   -118.8 2.261e+04 3.412e-08
 67.93422   -117.9 2.253e+04 2.424e-08
 67.94404   -117.6 2.228e+04 1.547e-08
 67.95386   -117.5 2.164e+04 9.216e-09
 67.96369   -118.4 2.049e+04 5.770e-09
 67.97048   -119.4 1.886e+04 4.277e-09
 67.98035   -120.6 1.685e+04 1.712e-09
 67.99816   -119.9 1.462e+04 9.479e-10
 68.01781   -119.8 1.130e+04 4.726e-10
 68.03745   -119.4 9.840e+03 3.579e-10
 68.05709   -118.4 9.488e+03 3.462e-10
 68.07674   -117.1 9.380e+03 3.531e-10
 68.09638   -115.5 9.555e+03 3.768e-10
 68.11603   -114.1 9.762e+03 4.203e-10
 68.13567   -112.8 9.971e+03 4.813e-10
 68.15039   -111.5 1.024e+04 5.682e-10
 68.16022   -112.1 1.036e+04 5.926e-10
 68.17496   -111.0 1.076e+04 7.413e-10
 68.19460   -110.2 1.117e+04 9.250e-10
 68.21425   -109.3 1.167e+04 1.195e-09
 68.23389   -108.7 1.215e+04 1.501e-09
 68.25353   -108.2 1.255e+04 1.850e-09
 68.27318   -107.9 1.280e+04 2.193e-09
 68.29282   -107.9 1.304e+04 2.458e-09
 68.31247   -108.1 1.325e+04 2.610e-09
 68.33026   -109.2 1.379e+04 2.599e-09
 68.34009   -111.9 1.754e+04 3.459e-09
 68.35175   -115.6 2.043e+04 4.104e-09
 68.37140   -118.7 2.066e+04 5.425e-09
 68.39104   -120.4 1.963e+04 6.053e-09
 68.41069   -120.9 1.812e+04 5.619e-09
 68.43033   -121.2 1.683e+04 4.215e-09
 68.44997   -121.9 1.562e+04 3.263e-09
 68.46962   -122.2 1.464e+04 2.841e-09
 68.48926   -122.3 1.415e+04 2.692e-09
 68.50891   -121.7 1.395e+04 2.717e-09
 68.51996   -120.6 1.379e+04 2.710e-09
 68.52978   -121.1 1.355e+04 2.473e-09
 68.54819   -119.9 1.319e+04 2.207e-09
 68.56784   -118.8 1.286e+04 1.973e-09
 68.58748   -117.8 1.250e+04 1.767e-09
 68.60713   -116.7 1.215e+04 1.603e-09
 68.62677   -115.5 1.188e+04 1.490e-09
 68.64641   -114.1 1.168e+04 1.412e-09
 68.66606   -112.8 1.152e+04 1.341e-09
 68.68570   -111.3 1.136e+04 1.267e-09
 68.69983   -109.7 1.122e+04 1.190e-09
 68.70965   -109.7 1.115e+04 1.145e-09
 68.72499   -108.1 1.102e+04 1.068e-09
 68.74463   -106.6 1.084e+04 9.699e-10
 68.76428   -104.9 1.063e+04 8.553e-10
 68.78392   -103.1 1.041e+04 7.276e-10
 68.80357   -101.3 1.015e+04 5.939e-10
 68.82321    -99.4 9.922e+03 4.735e-10
 68.84285    -97.7 9.823e+03 4.007e-10
 68.86250    -96.8 9.818e+03 3.824e-10
 68.87979    -95.1 9.787e+03 3.546e-10
 68.89954    -95.2 9.742e+03 3.365e-10
 68.93145    -92.1 9.504e+03 2.819e-10
 68.97074    -88.9 9.294e+03 2.450e-10
 69.01002    -85.7 9.189e+03 2.259e-10
 69.04931    -82.5 9.166e+03 2.199e-10
 69.08860    -79.3 9.186e+03 2.200e-10
 69.12789    -76.3 9.353e+03 2.370e-10
 69.16718    -73.4 9.555e+03 2.738e-10
 69.20646    -70.4 9.800e+03 3.340e-10
 69.23963    -67.7 1.011e+04 4.278e-10
 69.25928    -68.3 1.015e+04 4.557e-10
 69.28504    -65.6 1.049e+04 5.753e-10
 69.32433    -63.0 1.085e+04 7.274e-10
 69.36362    -60.4 1.107e+04 9.045e-10
 69.40290    -58.1 1.121e+04 1.013e-09
 69.44219    -55.8 1.125e+04 1.025e-09
 69.48148    -53.7 1.111e+04 9.423e-10
 69.51085    -52.5 1.053e+04 7.227e-10
 69.53039    -51.5 1.044e+04 6.827e-10
 69.55004    -50.6 1.046e+04 6.719e-10
 69.56968    -49.9 1.045e+04 6.633e-10
 69.58933    -49.1 1.057e+04 6.827e-10
 69.60897    -48.5 1.082e+04 7.531e-10
 69.62861    -47.6 1.052e+04 6.412e-10
 69.64826    -47.3 1.072e+04 7.132e-10
 69.66790    -47.0 1.116e+04 8.651e-10
 69.68755    -47.5 1.196e+04 1.137e-09
 69.70719    -48.8 1.324e+04 1.742e-09
 69.72683    -50.4 1.447e+04 2.852e-09
 69.74648    -51.0 1.540e+04 4.479e-09
 69.76612    -51.1 1.604e+04 6.086e-09
 69.78577    -51.0 1.631e+04 6.751e-09
 69.79869    -51.1 1.613e+04 6.169e-09
 69.80851    -50.0 1.541e+04 5.066e-09
 69.82505    -50.1 1.499e+04 3.939e-09
 69.84470    -50.8 1.417e+04 2.516e-09
 69.86434    -51.8 1.333e+04 1.762e-09
 69.88399    -52.5 1.269e+04 1.397e-09
 69.91355    -53.0 1.240e+04 1.265e-09
 69.95294    -52.0 1.227e+04 1.168e-09
 69.97876    -50.7 1.223e+04 1.164e-09
 69.99840    -48.9 1.243e+04 1.410e-09
 70.03151    -48.0 1.233e+04 1.364e-09
 70.07080    -46.8 1.197e+04 1.136e-09
 70.11009    -45.5 1.143e+04 8.265e-10
 70.14938    -44.1 1.100e+04 6.060e-10
 70.18866    -42.6 1.072e+04 5.061e-10
 70.22795    -40.8 1.054e+04 4.722e-10
 70.26724    -38.5 1.034e+04 4.470e-10
 70.30653    -35.9 1.013e+04 3.900e-10
 70.33850    -33.3 9.953e+03 3.151e-10
 70.35814    -32.3 9.831e+03 2.768e-10
 70.38510    -29.9 9.767e+03 2.465e-10
 70.42439    -27.6 9.772e+03 2.411e-10
 70.46368    -25.4 9.875e+03 2.611e-10
 70.50297    -23.3 1.004e+04 3.205e-10
 70.52595    -21.1 1.019e+04 4.153e-10
 70.54559    -21.5 1.003e+04 3.406e-10
 70.58154    -19.0 1.009e+04 4.050e-10
 70.62083    -16.5 1.009e+04 4.168e-10
 70.66012    -14.3 1.000e+04 3.227e-10
 70.69824    -13.2 9.870e+03 2.733e-10
 70.71788    -13.1 1.074e+04 4.877e-10
 70.73870    -11.9 1.057e+04 3.929e-10
 70.77798    -10.8 1.030e+04 3.442e-10
 70.81727    -10.0 1.027e+04 3.342e-10
 70.85656     -9.3 1.066e+04 3.790e-10
 70.89585     -8.4 1.095e+04 5.925e-10
 70.93514     -6.8 1.143e+04 7.834e-10
 70.96451     -5.8 1.162e+04 8.879e-10
 70.98405     -5.4 1.178e+04 9.225e-10
 71.00370     -4.6 1.193e+04 9.769e-10
 71.02334     -4.0 1.201e+04 1.017e-09
 71.04298     -3.1 1.206e+04 1.080e-09
 71.06263     -2.0 1.202e+04 1.129e-09
 71.07742     -0.9 1.218e+04 1.201e-09
 71.08725     -1.8 1.251e+04 1.434e-09
 71.10192     -1.6 1.321e+04 1.743e-09
 71.12156     -2.0 1.393e+04 2.292e-09
 71.14120     -2.6 1.490e+04 3.402e-09
 71.16085     -3.2 1.604e+04 5.407e-09
 71.18049     -3.4 1.715e+04 8.075e-09
 71.20014     -3.0 1.813e+04 1.104e-08
 71.21978     -2.9 1.927e+04 1.276e-08
 71.23942     -4.1 2.074e+04 1.391e-08
 71.25729     -7.3 2.203e+04 1.462e-08
 71.26712     -8.6 2.070e+04 1.102e-08
 71.27871    -12.4 2.039e+04 1.351e-08
 71.29836    -14.8 1.990e+04 1.798e-08
 71.31304    -15.4 2.046e+04 2.131e-08
 71.32281    -16.8 2.158e+04 2.406e-08
 71.33264    -18.8 2.275e+04 2.692e-08
 71.34246    -20.1 2.349e+04 3.004e-08
 71.35204    -22.3 2.317e+04 3.104e-08
 71.35695    -21.6 2.318e+04 2.443e-08
 71.36210    -22.9 2.283e+04 2.557e-08
 71.37192    -25.0 2.114e+04 2.207e-08
 71.38175    -25.8 2.038e+04 2.029e-08
 71.39653    -27.0 1.897e+04 1.679e-08
 71.41622    -26.9 1.760e+04 1.054e-08
 71.43586    -27.2 1.629e+04 5.077e-09
 71.44699    -28.7 1.471e+04 2.039e-09
 71.45681    -28.0 1.459e+04 2.876e-09
 71.47515    -28.6 1.369e+04 1.474e-09
 71.49480    -29.9 1.225e+04 7.514e-10
 71.52436    -30.3 1.152e+04 4.554e-10
 71.56375    -31.3 1.042e+04 3.218e-10
 71.60303    -30.6 1.076e+04 3.101e-10
 71.64232    -28.9 1.073e+04 3.371e-10
 71.68161    -27.1 1.069e+04 4.092e-10
 71.72090    -25.1 1.083e+04 5.470e-10
 71.76019    -22.6 1.118e+04 7.492e-10
 71.79710    -20.4 1.158e+04 9.439e-10
 71.81674    -20.4 1.142e+04 8.768e-10
 71.83876    -18.8 1.171e+04 1.015e-09
 71.87805    -17.6 1.182e+04 1.155e-09
 71.90742    -16.4 1.193e+04 1.343e-09
 71.92696    -15.3 1.173e+04 1.340e-09
 71.94661    -13.7 1.152e+04 1.254e-09
 71.96625    -12.3 1.149e+04 1.014e-09
 71.99582    -11.7 1.105e+04 8.270e-10
 72.03520     -9.7 1.054e+04 5.430e-10
 72.07449     -8.5 1.030e+04 4.260e-10
 72.11378     -6.9 1.029e+04 4.267e-10
 72.15307     -5.8 1.047e+04 5.058e-10
 72.17648     -4.2 1.081e+04 6.827e-10
 72.19613     -3.9 1.089e+04 7.031e-10
 72.23164     -2.6 1.125e+04 9.133e-10
 72.27093     -2.3 1.180e+04 1.079e-09
 72.30030     -3.0 1.239e+04 1.407e-09
 72.31985     -3.6 1.268e+04 1.713e-09
 72.33949     -3.9 1.278e+04 2.025e-09
 72.35616     -3.8 1.273e+04 2.211e-09
 72.36598     -3.8 1.244e+04 1.795e-09
 72.37878     -3.7 1.235e+04 1.881e-09
 72.39842     -3.4 1.227e+04 1.826e-09
 72.41807     -3.3 1.227e+04 1.576e-09
 72.43771     -3.4 1.216e+04 1.315e-09
 72.46727     -4.5 1.162e+04 9.014e-10
 72.50666     -5.2 1.142e+04 7.528e-10
 72.53622     -5.0 1.126e+04 7.171e-10
 72.55577     -3.8 1.117e+04 6.808e-10
 72.57522     -3.1 1.100e+04 5.779e-10
 72.59486     -2.8 1.098e+04 5.354e-10
 72.61451     -2.4 1.090e+04 4.903e-10
 72.63415     -2.0 1.083e+04 4.662e-10
 72.65379     -1.6 1.069e+04 4.598e-10
 72.67344     -1.0 1.048e+04 4.638e-10
 72.69308      0.1 1.037e+04 4.395e-10
 72.71273      0.5 1.041e+04 4.399e-10
 72.72572      1.7 1.040e+04 4.121e-10
 72.73554      1.8 1.037e+04 4.005e-10
 72.75201      2.0 1.041e+04 4.047e-10
 72.78158      2.8 1.045e+04 4.068e-10
 72.82096      4.8 1.015e+04 3.196e-10
 72.86025      6.4 1.001e+04 2.471e-10
 72.89596      7.8 9.947e+03 2.065e-10
 72.91561      9.2 1.007e+04 2.137e-10
 72.93883     10.6 9.889e+03 1.714e-10
 72.97811     12.1 9.810e+03 1.439e-10
 73.01740     13.8 9.763e+03 1.223e-10
 73.05669     15.7 9.736e+03 1.127e-10
 73.09598     17.6 9.760e+03 1.150e-10
 73.13527     19.6 9.822e+03 1.255e-10
 73.17456     21.7 9.860e+03 1.424e-10
 73.21384     24.0 9.884e+03 1.565e-10
 73.25313     26.3 9.900e+03 1.606e-10
 73.27535     28.4 9.925e+03 1.613e-10
 73.29499     29.1 1.006e+04 1.833e-10
 73.33171     31.0 1.009e+04 1.896e-10
 73.37100     32.9 1.011e+04 2.020e-10
 73.41028     34.7 1.020e+04 2.263e-10
 73.44957     36.5 1.033e+04 2.611e-10
 73.48886     38.1 1.053e+04 3.001e-10
 73.52815     39.4 1.058e+04 3.173e-10
 73.55752     39.9 1.045e+04 3.063e-10
 73.57706     40.6 1.041e+04 3.113e-10
 73.59671     40.9 1.046e+04 3.487e-10
 73.61635     40.9 1.074e+04 4.042e-10
 73.63499     40.2 1.159e+04 5.970e-10
 73.64481     39.5 1.238e+04 6.238e-10
 73.65564     38.2 1.339e+04 1.126e-09
 73.67528     38.0 1.384e+04 1.800e-09
 73.69493     38.6 1.401e+04 2.658e-09
 73.71457     39.6 1.399e+04 3.138e-09
 73.73421     40.5 1.388e+04 3.102e-09
 73.75386     41.1 1.348e+04 2.632e-09
 73.77350     41.2 1.296e+04 1.981e-09
 73.79315     41.3 1.257e+04 1.546e-09
 73.81279     41.4 1.203e+04 1.208e-09
 73.84235     42.1 1.190e+04 1.146e-09
 73.88174     43.4 1.135e+04 9.024e-10
 73.92103     45.6 1.100e+04 7.602e-10
 73.96032     47.9 1.075e+04 6.714e-10
 73.99483     50.6 1.058e+04 6.173e-10
 74.01447     51.0 1.094e+04 7.781e-10
 74.03889     53.5 1.079e+04 7.102e-10
 74.07818     56.1 1.073e+04 6.940e-10
 74.11747     58.8 1.078e+04 7.035e-10
 74.15676     61.2 1.085e+04 7.217e-10
 74.19604     63.4 1.094e+04 7.533e-10
 74.23533     65.4 1.107e+04 8.076e-10
 74.27462     67.4 1.120e+04 8.382e-10
 74.31391     69.2 1.122e+04 8.245e-10
 74.35320     70.9 1.114e+04 7.514e-10
 74.37421     72.6 1.088e+04 6.115e-10
 74.39386     72.3 1.129e+04 8.575e-10
 74.43177     74.2 1.082e+04 6.110e-10
 74.47106     76.1 1.028e+04 3.899e-10
 74.51035     78.1 9.824e+03 2.404e-10
 74.54964     80.0 9.536e+03 1.552e-10
 74.58892     81.8 9.380e+03 1.122e-10
 74.62821     83.6 9.292e+03 9.394e-11
 74.66750     85.5 9.243e+03 8.630e-11
 74.70679     87.4 9.192e+03 8.423e-11
 74.73395     89.3 9.171e+03 8.616e-11
 74.75360     88.6 9.023e+03 7.956e-11
 74.78536     90.8 9.038e+03 9.099e-11
 74.82465     92.9 9.051e+03 1.058e-10
 74.86394     95.1 9.115e+03 1.277e-10
 74.90323     97.4 9.344e+03 1.649e-10
 74.94252     99.9 9.793e+03 2.253e-10
 74.98180    101.9 1.020e+04 2.900e-10
 75.01117    102.0 1.037e+04 3.241e-10
 75.03072    102.1 1.061e+04 3.644e-10
 75.05036    102.3 1.103e+04 4.629e-10
 75.07001    102.7 1.148e+04 6.591e-10
 75.08965    103.2 1.206e+04 9.724e-10
 75.10332    103.6 1.283e+04 1.468e-09
 75.11314    102.0 1.297e+04 1.806e-09
 75.12894    101.8 1.393e+04 2.590e-09
 75.14858    101.6 1.499e+04 3.636e-09
 75.16823    101.0 1.607e+04 5.148e-09
 75.18787    100.4 1.684e+04 6.937e-09
 75.20752     99.9 1.723e+04 8.577e-09
 75.22716     99.2 1.742e+04 8.685e-09
 75.24680     98.6 1.719e+04 8.048e-09
 75.26149     98.3 1.690e+04 6.779e-09
 75.27126     98.1 1.665e+04 6.025e-09
 75.28108     97.8 1.647e+04 5.114e-09
 75.28800     97.5 1.632e+04 4.646e-09
 75.29296     96.6 1.551e+04 3.626e-09
 75.30574     96.0 1.512e+04 2.868e-09
 75.32538     95.3 1.446e+04 2.210e-09
 75.34502     94.3 1.326e+04 1.660e-09
 75.36467     93.5 1.202e+04 1.311e-09
 75.38431     93.0 1.112e+04 1.090e-09
 75.40396     92.9 1.065e+04 9.434e-10
 75.42360     93.0 1.049e+04 8.189e-10
 75.44324     93.0 1.043e+04 6.897e-10
 75.46289     92.8 1.027e+04 5.596e-10
 75.47288     92.4 9.952e+03 4.381e-10
 75.48270     90.8 9.310e+03 3.019e-10
 75.50218     90.4 9.058e+03 2.480e-10
 75.52182     90.1 8.896e+03 2.157e-10
 75.54146     90.1 8.839e+03 1.975e-10
 75.56111     90.3 8.851e+03 1.960e-10
 75.58075     90.6 8.879e+03 1.976e-10
 75.60040     91.1 8.957e+03 2.049e-10
 75.62004     91.5 9.066e+03 2.184e-10
 75.63968     91.9 9.209e+03 2.428e-10
 75.65275     92.2 9.411e+03 2.967e-10
 75.66257     92.6 9.224e+03 2.558e-10
 75.67897     92.7 9.424e+03 3.214e-10
 75.69862     92.7 9.736e+03 4.522e-10
 75.71826     92.8 1.032e+04 6.808e-10
 75.73790     92.9 1.127e+04 1.039e-09
 75.75755     93.2 1.178e+04 1.423e-09
 75.77719     93.2 1.243e+04 1.842e-09
 75.79684     92.9 1.318e+04 2.327e-09
 75.81648     92.3 1.385e+04 2.763e-09
 75.83262     91.7 1.429e+04 2.889e-09
 75.84244     93.1 1.360e+04 2.482e-09
 75.85577     92.5 1.371e+04 2.492e-09
 75.87541     92.1 1.367e+04 2.409e-09
 75.89506     91.8 1.343e+04 2.200e-09
 75.91470     91.9 1.299e+04 1.922e-09
 75.93434     92.1 1.269e+04 1.725e-09
 75.96391     93.2 1.251e+04 1.522e-09
 76.00329     94.0 1.222e+04 1.349e-09
 76.03283     95.4 1.196e+04 1.255e-09
 76.05247     94.0 1.186e+04 1.210e-09
 76.08187     95.2 1.147e+04 9.693e-10
 76.12116     96.3 1.111e+04 7.436e-10
 76.16045     97.4 1.068e+04 5.232e-10
 76.19256     98.2 1.022e+04 3.494e-10
 76.21220     99.8 1.014e+04 3.326e-10
 76.23902    100.2 9.715e+03 2.351e-10
 76.27831    100.6 9.320e+03 2.120e-10
 76.31760    101.3 9.290e+03 2.143e-10
 76.35689    102.0 9.262e+03 2.322e-10
 76.39617    102.6 9.304e+03 2.697e-10
 76.43546    103.0 9.336e+03 3.040e-10
 76.47475    103.4 9.327e+03 3.090e-10
 76.51404    103.9 9.291e+03 2.985e-10
 76.55230    104.4 9.156e+03 2.557e-10
 76.57194    104.2 9.262e+03 2.628e-10
 76.59261    104.4 8.955e+03 1.936e-10
 76.63190    104.6 8.852e+03 1.679e-10
 76.67119    104.9 8.893e+03 1.734e-10
 76.71048    105.3 9.069e+03 2.095e-10
 76.74977    106.2 9.646e+03 3.545e-10
 76.78905    107.6 1.027e+04 5.912e-10
 76.81842    107.5 1.066e+04 7.988e-10
 76.83797    107.5 1.103e+04 1.012e-09
 76.85761    107.5 1.131e+04 1.219e-09
 76.87726    107.8 1.147e+04 1.369e-09
 76.89690    108.1 1.157e+04 1.468e-09
 76.91654    108.6 1.165e+04 1.549e-09
 76.93148    108.9 1.173e+04 1.607e-09
 76.94131    108.1 1.180e+04 1.644e-09
 76.95583    108.0 1.182e+04 1.635e-09
 76.97548    107.9 1.180e+04 1.575e-09
 76.99512    107.6 1.162e+04 1.413e-09
 77.01477    107.2 1.132e+04 1.208e-09
 77.03441    106.7 1.098e+04 1.015e-09
 77.05405    106.0 1.066e+04 8.557e-10
 77.07370    105.4 1.036e+04 7.303e-10
 77.09334    104.5 1.015e+04 6.416e-10
 77.11135    103.7 9.982e+03 5.843e-10
 77.12118    102.7 9.907e+03 5.677e-10
 77.14255    102.5 9.836e+03 5.333e-10
 77.18193    101.5 9.821e+03 5.169e-10
 77.21130    100.3 9.853e+03 5.310e-10
 77.23085     97.3 1.022e+04 6.427e-10
 77.25049     91.8 1.232e+04 1.155e-09
 77.27014     86.4 1.457e+04 2.385e-09
 77.28978     82.1 1.569e+04 4.036e-09
 77.30105     78.5 1.601e+04 4.945e-09
 77.31087     75.5 1.629e+04 5.522e-09
 77.32907     72.1 1.585e+04 4.705e-09
 77.34871     68.3 1.482e+04 3.074e-09
 77.36836     64.3 1.325e+04 1.803e-09
 77.38800     60.6 1.175e+04 1.150e-09
 77.40765     56.9 1.119e+04 9.230e-10
 77.42729     52.8 1.247e+04 8.355e-10
 77.44693     48.3 1.361e+04 1.074e-09
 77.46658     45.1 1.386e+04 1.586e-09
 77.48092     43.5 1.374e+04 2.158e-09
 77.49074     41.2 1.402e+04 2.946e-09
 77.50587     41.2 1.387e+04 2.898e-09
 77.52551     40.9 1.365e+04 2.602e-09
 77.54515     40.4 1.331e+04 2.206e-09
 77.56480     39.5 1.268e+04 1.699e-09
 77.58444     38.8 1.198e+04 1.303e-09
 77.60409     38.4 1.144e+04 1.041e-09
 77.62373     38.4 1.108e+04 8.604e-10
 77.64337     38.6 1.079e+04 6.946e-10
 77.66079     38.8 1.055e+04 5.798e-10
 77.67061     37.1 1.015e+04 4.244e-10
 77.69258     38.0 9.826e+03 3.471e-10
 77.73197     39.5 9.517e+03 2.934e-10
 77.77126     41.2 9.459e+03 2.662e-10
 77.81054     42.8 9.539e+03 2.692e-10
 77.84983     43.7 9.834e+03 3.073e-10
 77.87920     43.4 9.998e+03 3.482e-10
 77.89875     43.3 1.003e+04 3.665e-10
 77.92831     44.6 1.058e+04 5.676e-10
 77.96770     45.6 1.097e+04 8.065e-10
 78.00698     46.1 1.113e+04 8.648e-10
 78.03054     46.5 1.106e+04 8.272e-10
 78.05019     45.7 1.085e+04 6.995e-10
 78.08556     46.4 1.055e+04 5.574e-10
 78.12485     46.8 1.013e+04 3.987e-10
 78.16414     47.0 9.789e+03 2.930e-10
 78.20342     47.4 9.744e+03 2.791e-10
 78.24271     47.9 9.819e+03 2.926e-10
 78.28200     48.4 1.016e+04 3.587e-10
 78.32129     48.5 1.073e+04 5.050e-10
 78.36058     48.3 1.134e+04 7.136e-10
 78.39028     48.1 1.184e+04 9.379e-10
 78.40993     47.2 1.190e+04 9.781e-10
 78.42923     46.9 1.204e+04 1.093e-09
 78.44878     46.4 1.210e+04 1.157e-09
 78.46842     46.2 1.216e+04 1.211e-09
 78.48807     46.2 1.218e+04 1.240e-09
 78.50771     46.2 1.218e+04 1.217e-09
 78.52735     46.2 1.215e+04 1.146e-09
 78.54700     46.1 1.212e+04 1.090e-09
 78.56664     46.0 1.214e+04 1.084e-09
 78.57978     45.9 1.220e+04 1.117e-09
 78.58960     45.8 1.193e+04 9.826e-10
 78.60593     45.8 1.212e+04 1.107e-09
 78.62557     45.9 1.237e+04 1.290e-09
 78.64522     46.3 1.261e+04 1.477e-09
 78.66486     46.8 1.278e+04 1.618e-09
 78.68451     47.3 1.291e+04 1.705e-09
 78.70415     47.7 1.298e+04 1.726e-09
 78.72379     48.1 1.301e+04 1.687e-09
 78.74344     48.3 1.303e+04 1.575e-09
 78.75965     48.3 1.301e+04 1.439e-09
 78.76947     49.0 1.312e+04 1.481e-09
 78.78273     48.8 1.322e+04 1.439e-09
 78.79590     48.3 1.330e+04 1.456e-09
 78.80572     47.7 1.236e+04 1.026e-09
 78.82201     47.2 1.248e+04 1.077e-09
 78.84166     46.3 1.281e+04 1.261e-09
 78.86130     45.1 1.357e+04 1.657e-09
 78.88095     43.5 1.459e+04 2.352e-09
 78.90059     41.8 1.554e+04 3.387e-09
 78.92023     40.1 1.609e+04 4.423e-09
 78.93952     38.4 1.612e+04 5.031e-09
 78.94934     39.1 1.631e+04 4.838e-09
 78.95952     37.1 1.610e+04 4.776e-09
 78.97917     35.2 1.555e+04 4.329e-09
 78.99881     33.4 1.497e+04 3.515e-09
 79.01845     31.6 1.430e+04 2.710e-09
 79.03810     29.9 1.357e+04 1.971e-09
 79.05774     28.3 1.284e+04 1.324e-09
 79.07739     26.7 1.209e+04 8.723e-10
 79.10695     24.0 1.155e+04 5.295e-10
 79.12941     20.1 1.176e+04 4.878e-10
 79.13913     18.1 1.293e+04 8.178e-10
 79.15596     16.1 1.309e+04 9.361e-10
 79.17561     14.9 1.314e+04 1.186e-09
 79.19525     14.1 1.304e+04 1.327e-09
 79.21489     13.8 1.281e+04 1.454e-09
 79.23454     13.4 1.263e+04 1.428e-09
 79.25418     13.4 1.249e+04 1.313e-09
 79.27383     12.9 1.240e+04 1.192e-09
 79.29347     11.7 1.223e+04 1.065e-09
 79.30908     10.4 1.202e+04 1.022e-09
 79.31890      8.6 1.211e+04 1.027e-09
 79.33276      3.5 1.454e+04 1.344e-09
 79.35240     -2.3 1.694e+04 3.005e-09
 79.37205     -4.2 1.707e+04 5.862e-09
 79.39169     -4.7 1.683e+04 7.630e-09
 79.41134     -5.2 1.673e+04 7.551e-09
 79.43098     -6.4 1.645e+04 6.319e-09
 79.45062     -8.5 1.601e+04 4.669e-09
 79.47027    -12.4 1.540e+04 2.840e-09
 79.48895    -17.0 1.447e+04 1.864e-09
 79.49877    -19.6 1.317e+04 1.343e-09
 79.50956    -21.6 1.250e+04 1.455e-09
 79.52920    -22.1 1.246e+04 1.721e-09
 79.54884    -22.3 1.259e+04 1.949e-09
 79.56849    -22.3 1.252e+04 2.163e-09
 79.58813    -22.5 1.257e+04 2.152e-09
 79.60778    -22.7 1.258e+04 2.119e-09
 79.62742    -23.0 1.255e+04 1.965e-09
 79.64706    -23.4 1.242e+04 1.741e-09
 79.66671    -23.9 1.212e+04 1.439e-09
 79.67864    -24.3 1.168e+04 1.102e-09
 79.68847    -24.2 1.147e+04 9.676e-10
 79.70600    -24.4 1.087e+04 7.358e-10
 79.72564    -24.5 1.038e+04 5.173e-10
 79.74528    -25.0 1.006e+04 3.747e-10
 79.76493    -25.8 9.876e+03 2.701e-10
 79.78457    -25.9 9.866e+03 2.682e-10
 79.81414    -27.2 9.825e+03 2.467e-10
 79.84889    -27.4 9.769e+03 2.858e-10
 79.86853    -26.0 9.493e+03 2.055e-10
 79.89281    -25.6 9.427e+03 2.648e-10
 79.93210    -24.3 9.427e+03 3.227e-10
 79.97138    -22.7 9.467e+03 3.472e-10
 80.01067    -21.7 9.483e+03 3.190e-10
 80.04996    -20.8 9.357e+03 3.032e-10
 80.08925    -19.7 9.256e+03 2.936e-10
 80.12854    -18.4 9.275e+03 2.795e-10
 80.16783    -17.5 9.329e+03 2.770e-10
 80.20711    -16.6 9.270e+03 2.924e-10
 80.22827    -15.2 9.098e+03 2.765e-10
 80.24792    -14.5 9.425e+03 3.439e-10
 80.28569    -13.0 9.253e+03 2.905e-10
 80.32498    -12.3 9.194e+03 2.551e-10
 80.36427    -12.3 9.300e+03 2.829e-10
 80.40355    -12.0 9.531e+03 3.695e-10
 80.44284    -11.2 9.924e+03 4.951e-10
 80.48213    -11.4 1.051e+04 6.790e-10
 80.51150    -13.8 1.170e+04 1.040e-09
 80.53104    -15.6 1.195e+04 1.351e-09
 80.55069    -15.3 1.181e+04 1.735e-09
 80.57033    -14.1 1.161e+04 1.744e-09
 80.58782    -12.3 1.145e+04 1.518e-09
 80.59764    -12.1 1.101e+04 1.132e-09
 80.60962    -11.4 1.102e+04 7.413e-10
 80.62926    -13.0 1.116e+04 4.025e-10
 80.64891    -16.0 1.021e+04 2.541e-10
 80.67847    -17.0 9.420e+03 2.070e-10
 80.71786    -16.3 8.658e+03 1.683e-10
 80.75715    -14.9 8.405e+03 1.516e-10
 80.79643    -13.7 8.421e+03 1.315e-10
 80.83572    -13.0 8.580e+03 1.290e-10
 80.87501    -12.5 8.691e+03 1.446e-10
 80.91430    -11.6 8.862e+03 1.675e-10
 80.94775    -11.4 9.249e+03 2.012e-10
 80.96740    -10.1 9.288e+03 2.041e-10
 80.99287    -10.8 9.851e+03 3.085e-10
 81.03216    -10.2 9.976e+03 4.430e-10
 81.06153     -9.4 9.809e+03 4.287e-10
 81.08108     -8.9 9.949e+03 4.421e-10
 81.10072     -8.2 1.012e+04 4.382e-10
 81.12036     -7.9 1.035e+04 4.499e-10
 81.13725     -7.9 1.072e+04 4.885e-10
 81.14707     -7.3 1.073e+04 4.769e-10
 81.15965     -7.0 1.099e+04 5.535e-10
 81.17930     -6.1 1.114e+04 6.596e-10
 81.19894     -5.3 1.158e+04 8.335e-10
 81.21858     -4.7 1.234e+04 1.147e-09
 81.23823     -4.8 1.330e+04 1.729e-09
 81.25787     -7.0 1.610e+04 3.433e-09
 81.27752     -9.4 1.913e+04 1.051e-08
 81.29220    -11.3 2.006e+04 1.806e-08
 81.30197    -11.1 2.013e+04 2.962e-08
 81.31180    -10.6 2.023e+04 4.840e-08
 81.32162     -9.1 2.012e+04 7.616e-08
 81.32684     -7.8 2.033e+04 8.869e-08
 81.33175     -7.5 2.093e+04 1.102e-07
 81.34126     -6.4 2.075e+04 1.011e-07
 81.35108     -4.6 2.019e+04 6.999e-08
 81.36091     -2.9 2.008e+04 3.818e-08
 81.37073     -3.7 2.099e+04 2.182e-08
 81.38055     -4.2 2.101e+04 9.792e-09
 81.39533     -6.6 2.100e+04 4.788e-09
 81.41502    -10.2 1.515e+04 1.730e-09
 81.43467    -12.9 1.052e+04 8.567e-10
 81.45431    -11.1 1.204e+04 7.538e-10
 81.47396    -11.5 1.055e+04 4.467e-10
 81.50352    -11.1 1.111e+04 3.953e-10
 81.53971    -10.4 1.071e+04 3.553e-10
 81.55936    -10.1 1.050e+04 3.133e-10
 81.58219     -8.9 1.036e+04 3.922e-10
 81.62148     -7.0 1.064e+04 4.293e-10
 81.66077     -5.4 1.090e+04 4.539e-10
 81.68687     -4.1 1.104e+04 4.480e-10
 81.70652     -3.1 1.112e+04 4.074e-10
 81.73935     -2.0 1.112e+04 3.840e-10
 81.77863     -1.1 1.106e+04 3.227e-10
 81.81792     -1.1 1.113e+04 2.653e-10
 81.85721     -1.9 1.148e+04 2.698e-10
 81.88658     -4.6 1.187e+04 3.513e-10
 81.90613     -4.6 1.189e+04 3.834e-10
 81.93569     -5.7 1.219e+04 6.935e-10
 81.96515     -5.6 1.225e+04 7.805e-10
 81.98470     -7.0 1.316e+04 9.279e-10
 82.00435     -9.0 1.381e+04 1.195e-09
 82.02399    -10.3 1.335e+04 1.402e-09
 82.04363    -10.6 1.292e+04 1.587e-09
 82.05624     -9.7 1.239e+04 1.475e-09
 82.06606     -9.7 1.247e+04 1.596e-09
 82.08292     -8.4 1.236e+04 1.130e-09
 82.10257     -8.1 1.224e+04 7.248e-10
 82.13213     -8.6 1.132e+04 3.568e-10
 82.17151     -7.6 1.052e+04 1.742e-10
 82.21080     -6.3 1.009e+04 1.166e-10
 82.25009     -4.4 9.910e+03 1.021e-10
 82.28938     -2.1 9.829e+03 9.702e-11
 82.32867      0.3 9.802e+03 9.219e-11
 82.36795      2.6 9.761e+03 8.495e-11
 82.40635      5.0 9.701e+03 7.515e-11
 82.42600      5.5 9.771e+03 1.016e-10
 82.44653      7.6 9.732e+03 8.851e-11
 82.48582      9.6 9.687e+03 8.103e-11
 82.52511     11.7 9.643e+03 7.950e-11
 82.56440     14.0 9.619e+03 7.868e-11
 82.60368     16.3 9.605e+03 7.703e-11
 82.64297     18.7 9.587e+03 7.381e-11
 82.68226     20.9 9.560e+03 7.026e-11
 82.72155     23.1 9.508e+03 6.890e-11
 82.76084     25.3 9.482e+03 6.995e-11
 82.78574     27.6 9.435e+03 7.379e-11
 82.80538     27.8 9.410e+03 8.212e-11
 82.83941     30.2 9.360e+03 8.723e-11
 82.87870     32.6 9.317e+03 9.084e-11
 82.91799     35.1 9.301e+03 9.065e-11
 82.95728     37.5 9.266e+03 8.739e-11
 82.99656     39.9 9.237e+03 8.123e-11
 83.03585     42.3 9.225e+03 7.607e-11
 83.07514     44.6 9.212e+03 7.361e-11
 83.11443     46.9 9.194e+03 7.310e-11
 83.14548     49.3 9.193e+03 7.272e-11
 83.16512     49.5 9.133e+03 6.969e-11
 83.19300     51.8 9.163e+03 6.808e-11
 83.23229     53.9 9.231e+03 6.607e-11
 83.27158     55.8 9.312e+03 6.517e-11
 83.31087     57.6 9.384e+03 6.556e-11
 83.35016     59.2 9.448e+03 6.838e-11
 83.38944     60.8 9.473e+03 7.486e-11
 83.42873     62.3 9.463e+03 8.311e-11
 83.46802     64.0 9.439e+03 9.057e-11
 83.50522     65.7 9.424e+03 9.628e-11
 83.52486     65.9 9.337e+03 8.579e-11
 83.54660     67.6 9.380e+03 8.960e-11
 83.58588     69.4 9.449e+03 9.484e-11
 83.62517     71.0 9.537e+03 1.056e-10
 83.66446     72.7 9.650e+03 1.243e-10
 83.70375     74.4 9.783e+03 1.505e-10
 83.74304     75.9 9.938e+03 1.816e-10
 83.78232     77.3 1.011e+04 2.144e-10
 83.82161     78.5 1.031e+04 2.465e-10
 83.86090     79.6 1.053e+04 2.676e-10
 83.88460     80.1 1.060e+04 2.674e-10
 83.90425     80.6 1.069e+04 2.838e-10
 83.93948     80.6 1.067e+04 2.769e-10
 83.97876     80.6 1.054e+04 2.537e-10
 84.01805     80.6 1.031e+04 2.261e-10
 84.05734     80.7 1.006e+04 1.981e-10
 84.09663     80.9 9.872e+03 1.925e-10
 84.13592     81.4 9.859e+03 1.978e-10
 84.17520     82.0 9.883e+03 2.238e-10
 84.21449     82.4 9.992e+03 2.679e-10
 84.24434     82.5 1.008e+04 3.097e-10
 84.26399     82.5 1.009e+04 3.024e-10
 84.29307     82.5 1.023e+04 3.630e-10
 84.33236     82.4 1.030e+04 3.965e-10
 84.37164     82.0 1.028e+04 3.936e-10
 84.41093     81.8 1.013e+04 3.654e-10
 84.45022     81.9 9.845e+03 3.001e-10
 84.48951     82.2 9.507e+03 2.245e-10
 84.52880     82.6 9.220e+03 1.615e-10
 84.56808     83.0 9.007e+03 1.200e-10
 84.60408     83.6 8.879e+03 1.025e-10
 84.62373     83.3 8.888e+03 1.016e-10
 84.64666     84.2 8.891e+03 1.018e-10
 84.68595     85.0 8.944e+03 1.045e-10
 84.72524     85.7 9.149e+03 1.388e-10
 84.76453     86.4 9.615e+03 2.269e-10
 84.80381     87.2 1.002e+04 3.456e-10
 84.84310     88.0 1.026e+04 4.402e-10
 84.88239     88.9 1.027e+04 4.668e-10
 84.92168     89.7 1.018e+04 4.343e-10
 84.96097     90.4 1.002e+04 3.866e-10
 84.98347     91.1 9.764e+03 3.074e-10
 85.00311     90.5 9.526e+03 2.327e-10
 85.03954     91.1 9.250e+03 1.736e-10
 85.07883     91.8 9.021e+03 1.404e-10
 85.11812     92.6 8.801e+03 1.314e-10
 85.15741     93.6 8.766e+03 1.319e-10
 85.19669     94.8 8.731e+03 1.356e-10
 85.23598     96.1 8.691e+03 1.413e-10
 85.27527     97.3 8.676e+03 1.420e-10
 85.31456     98.7 8.634e+03 1.395e-10
 85.34321    100.1 8.523e+03 1.271e-10
 85.36285    100.0 8.468e+03 1.187e-10
 85.39313    101.5 8.387e+03 1.026e-10
 85.43242    102.8 8.303e+03 8.040e-11
 85.47171    104.0 8.225e+03 6.273e-11
 85.51100    105.3 8.226e+03 5.808e-11
 85.55029    106.8 8.231e+03 5.859e-11
 85.58957    108.3 8.260e+03 6.221e-11
 85.62886    109.7 8.319e+03 7.338e-11
 85.66815    111.2 8.406e+03 9.291e-11
 85.70295    112.7 8.534e+03 1.211e-10
 85.72259    112.7 8.572e+03 1.331e-10
 85.74673    114.2 8.710e+03 1.608e-10
 85.78601    115.5 8.859e+03 1.927e-10
 85.82530    116.6 9.031e+03 2.233e-10
 85.86459    117.4 9.211e+03 2.389e-10
 85.90388    117.8 9.233e+03 2.379e-10
 85.94317    118.0 9.261e+03 2.304e-10
 85.98245    118.0 9.275e+03 2.111e-10
 86.02174    117.9 9.307e+03 1.871e-10
 86.06103    117.5 9.359e+03 1.745e-10
 86.08233    116.8 9.432e+03 1.761e-10
 86.10197    117.1 9.414e+03 1.715e-10
 86.13961    116.1 9.583e+03 1.904e-10
 86.17889    115.2 9.842e+03 2.436e-10
 86.21818    115.2 1.012e+04 3.040e-10
 86.24755    114.9 1.030e+04 3.315e-10
 86.26201    114.3 1.062e+04 3.860e-10
 86.27183    113.3 1.085e+04 4.540e-10
 86.28674    111.6 1.135e+04 6.256e-10
 86.30639    109.8 1.190e+04 9.246e-10
 86.32603    108.3 1.249e+04 1.386e-09
 86.34567    107.1 1.309e+04 1.944e-09
 86.36532    106.0 1.349e+04 2.191e-09
 86.38496    104.3 1.360e+04 2.139e-09
 86.40461    101.9 1.383e+04 1.862e-09
 86.42425     98.5 1.389e+04 1.470e-09
 86.44188     94.5 1.361e+04 1.247e-09
 86.45170     93.0 1.306e+04 1.131e-09
 86.46354     89.7 1.294e+04 1.173e-09
 86.48318     86.9 1.291e+04 1.280e-09
 86.50283     84.5 1.307e+04 1.386e-09
 86.52247     82.0 1.325e+04 1.417e-09
 86.54211     79.5 1.325e+04 1.395e-09
 86.56176     75.8 1.315e+04 1.233e-09
 86.58140     73.4 1.278e+04 1.052e-09
 86.61096     69.6 1.236e+04 9.867e-10
 86.65035     64.9 1.203e+04 9.519e-10
 86.68964     61.5 1.154e+04 8.227e-10
 86.72893     59.4 1.094e+04 5.815e-10
 86.76821     58.0 1.037e+04 3.477e-10
 86.80181     56.6 9.912e+03 2.127e-10
 86.82145     56.6 9.789e+03 1.843e-10
 86.84679     55.7 9.514e+03 1.619e-10
 86.88608     55.6 9.488e+03 1.628e-10
 86.92537     55.6 9.485e+03 1.659e-10
 86.96465     55.7 9.494e+03 1.654e-10
 87.00394     55.8 9.494e+03 1.596e-10
 87.04323     55.9 9.450e+03 1.473e-10
 87.06624     56.1 9.385e+03 1.393e-10
 87.08588     56.2 9.411e+03 1.515e-10
 87.12181     56.5 9.312e+03 1.326e-10
 87.16110     56.8 9.204e+03 1.137e-10
 87.18119     57.1 9.117e+03 9.822e-11
 87.20084     57.7 9.114e+03 9.767e-11
 87.23967     58.0 9.035e+03 8.880e-11
 87.27896     58.5 8.955e+03 8.663e-11
 87.31825     59.3 8.945e+03 8.678e-11
 87.35754     60.2 8.930e+03 8.876e-11
 87.39682     61.3 8.936e+03 9.067e-11
 87.43611     62.4 8.951e+03 8.994e-11
 87.47540     63.5 8.965e+03 9.028e-11
 87.51469     64.5 9.011e+03 9.266e-11
 87.54093     65.2 9.135e+03 1.029e-10
 87.56058     64.9 9.159e+03 1.070e-10
 87.59326     65.4 9.470e+03 1.591e-10
 87.63255     65.7 9.884e+03 2.555e-10
 87.67184     65.7 1.029e+04 3.714e-10
 87.71113     65.3 1.056e+04 4.369e-10
 87.75042     64.8 1.060e+04 4.147e-10
 87.78970     64.2 1.069e+04 3.449e-10
 87.82899     63.2 1.065e+04 2.686e-10
 87.86828     61.8 1.048e+04 2.224e-10
 87.90067     60.5 1.044e+04 2.236e-10
 87.92032     60.3 1.036e+04 2.110e-10
 87.93694     59.3 1.061e+04 2.295e-10
 87.95648     57.4 1.120e+04 2.917e-10
 87.97613     54.8 1.180e+04 4.781e-10
 87.99577     52.5 1.222e+04 8.571e-10
 88.01541     51.0 1.264e+04 1.452e-09
 88.03506     50.1 1.311e+04 2.087e-09
 88.05470     49.1 1.348e+04 2.300e-09
 88.07435     47.5 1.352e+04 2.227e-09
 88.09017     45.7 1.343e+04 1.901e-09
 88.09999     45.8 1.296e+04 1.498e-09
 88.11363     43.7 1.265e+04 1.169e-09
 88.13328     41.6 1.221e+04 9.199e-10
 88.15292     40.1 1.176e+04 7.481e-10
 88.17257     39.2 1.141e+04 6.056e-10
 88.19221     38.4 1.122e+04 4.828e-10
 88.21185     37.6 1.116e+04 3.861e-10
 88.23150     36.4 1.112e+04 3.356e-10
 88.25114     35.1 1.115e+04 3.397e-10
 88.27004     33.4 1.132e+04 3.763e-10
 88.27986     34.4 1.110e+04 3.122e-10
 88.29043     32.3 1.148e+04 4.218e-10
 88.31007     30.8 1.175e+04 6.340e-10
 88.32972     29.5 1.247e+04 1.090e-09
 88.34936     29.3 1.283e+04 1.382e-09
 88.37893     28.3 1.348e+04 1.907e-09
 88.41831     26.4 1.332e+04 1.680e-09
 88.44768     25.6 1.288e+04 1.356e-09
 88.45973     25.4 1.240e+04 1.044e-09
 88.46956     26.0 1.256e+04 1.150e-09
 88.49679     24.4 1.201e+04 7.467e-10
 88.53618     23.4 1.142e+04 4.842e-10
 88.57546     23.0 1.104e+04 3.745e-10
 88.61475     23.2 1.097e+04 3.652e-10
 88.63970     23.6 1.093e+04 3.728e-10
 88.64943     23.6 1.106e+04 4.084e-10
 88.66367     23.7 1.108e+04 4.273e-10
 88.68331     23.7 1.118e+04 5.046e-10
 88.70296     23.9 1.123e+04 5.951e-10
 88.72260     24.0 1.155e+04 8.068e-10
 88.74224     24.6 1.175e+04 9.617e-10
 88.77181     24.1 1.242e+04 1.379e-09
 88.80127     23.9 1.297e+04 1.877e-09
 88.81947     23.9 1.352e+04 2.576e-09
 88.82930     23.5 1.353e+04 2.597e-09
 88.84046     23.7 1.378e+04 2.952e-09
 88.86011     23.9 1.375e+04 2.866e-09
 88.87975     23.9 1.353e+04 2.500e-09
 88.89940     23.6 1.324e+04 1.984e-09
 88.92896     22.1 1.286e+04 1.802e-09
 88.96834     20.9 1.246e+04 1.660e-09
 88.99954     20.3 1.214e+04 1.486e-09
 89.01918     19.6 1.242e+04 1.698e-09
 89.04692     19.7 1.214e+04 1.522e-09
 89.08621     19.6 1.149e+04 1.015e-09
 89.12550     18.4 1.088e+04 6.442e-10
 89.16478     16.8 1.073e+04 6.246e-10
 89.20407     16.0 1.079e+04 6.801e-10
 89.24336     16.1 1.068e+04 6.835e-10
 89.27273     16.3 1.045e+04 6.122e-10
 89.29228     16.4 1.023e+04 4.931e-10
 89.32184     16.7 1.000e+04 3.618e-10
 89.35928     16.6 9.653e+03 2.698e-10
 89.37892     15.3 9.500e+03 2.322e-10
 89.40051     15.6 9.422e+03 2.348e-10
 89.43980     16.4 9.426e+03 2.628e-10
 89.47909     17.7 9.512e+03 3.057e-10
 89.51838     18.9 9.580e+03 3.227e-10
 89.55767     20.0 9.576e+03 3.183e-10
 89.59695     20.9 9.553e+03 3.016e-10
 89.63624     21.6 9.523e+03 2.798e-10
 89.67553     22.2 9.516e+03 2.685e-10
 89.71482     22.2 9.558e+03 2.782e-10
 89.73866     21.8 9.735e+03 3.284e-10
 89.75831     21.3 9.511e+03 2.542e-10
 89.79339     20.0 9.886e+03 3.620e-10
 89.83268     18.2 1.067e+04 6.541e-10
 89.87197     16.7 1.123e+04 9.641e-10
 89.91126     15.3 1.120e+04 9.457e-10
 89.95055     14.2 1.081e+04 7.137e-10
 89.98983     12.1 1.055e+04 5.068e-10
 90.02912     10.0 1.055e+04 4.888e-10
 90.05849      8.3 1.100e+04 6.293e-10
 90.07804      6.7 1.146e+04 8.545e-10
 90.09768      5.6 1.183e+04 1.193e-09
 90.10803      5.4 1.213e+04 1.548e-09
 90.11785      4.7 1.238e+04 1.751e-09
 90.13697      4.5 1.251e+04 1.803e-09
 90.15661      4.1 1.250e+04 1.683e-09
 90.17626      3.2 1.239e+04 1.422e-09
 90.19590      1.8 1.216e+04 1.171e-09
 90.21554      0.2 1.177e+04 9.922e-10
 90.23519     -0.9 1.129e+04 8.648e-10
 90.25483     -1.5 1.089e+04 7.390e-10
 90.27448     -2.0 1.061e+04 6.231e-10
 90.28790     -2.4 1.037e+04 5.210e-10
 90.29772     -2.4 1.030e+04 4.813e-10
 90.31376     -3.0 1.004e+04 3.815e-10
 90.33341     -3.7 9.803e+03 3.302e-10
 90.35305     -4.1 9.682e+03 3.135e-10
 90.37270     -4.3 9.762e+03 3.198e-10
 90.39234     -4.2 9.863e+03 3.346e-10
 90.42190     -5.2 1.063e+04 5.543e-10
 90.45814     -5.2 1.091e+04 8.352e-10
 90.47779     -5.0 1.075e+04 6.924e-10
 90.50058     -4.3 1.106e+04 1.011e-09
 90.53987     -3.1 1.116e+04 1.091e-09
 90.57915     -2.0 1.106e+04 1.010e-09
 90.61844     -1.3 1.083e+04 8.449e-10
 90.65773     -0.6 1.046e+04 6.904e-10
 90.69702      0.5 1.008e+04 5.678e-10
 90.73631      1.9 9.699e+03 4.610e-10
 90.77559      3.4 9.347e+03 3.621e-10
 90.81488      4.9 9.027e+03 2.875e-10
 90.83753      6.3 8.746e+03 2.367e-10
 90.85717      6.1 8.729e+03 2.168e-10
 90.89346      7.6 8.484e+03 2.034e-10
 90.93275      9.5 8.462e+03 2.091e-10
 90.97203     11.6 8.492e+03 2.259e-10
 91.01132     13.8 8.583e+03 2.391e-10
 91.05061     15.9 8.619e+03 2.401e-10
 91.08990     17.9 8.623e+03 2.366e-10
 91.12919     19.9 8.616e+03 2.324e-10
 91.16847     21.8 8.636e+03 2.350e-10
 91.19727     23.7 8.706e+03 2.475e-10
 91.21691     23.5 8.695e+03 2.448e-10
 91.24705     25.4 8.872e+03 2.775e-10
 91.28634     27.3 9.162e+03 3.307e-10
 91.32563     28.9 9.463e+03 3.978e-10
 91.35500     29.8 9.583e+03 4.519e-10
 91.37454     30.7 9.759e+03 5.230e-10
 91.38676     31.7 9.941e+03 5.955e-10
 91.39658     31.6 1.006e+04 6.442e-10
 91.41383     32.4 1.020e+04 6.985e-10
 91.43347     33.1 1.031e+04 7.470e-10
 91.45312     33.7 1.044e+04 8.035e-10
 91.47276     34.3 1.058e+04 8.678e-10
 91.49241     35.0 1.072e+04 9.302e-10
 91.51205     35.6 1.086e+04 9.874e-10
 91.53169     36.1 1.105e+04 1.051e-09
 91.55134     36.3 1.131e+04 1.147e-09
 91.56663     36.3 1.165e+04 1.297e-09
 91.57645     35.9 1.177e+04 1.388e-09
 91.59063     35.9 1.208e+04 1.607e-09
 91.61027     35.9 1.235e+04 1.851e-09
 91.62991     36.0 1.256e+04 2.076e-09
 91.64956     36.2 1.266e+04 2.187e-09
 91.66920     36.3 1.264e+04 2.175e-09
 91.68885     36.5 1.254e+04 2.091e-09
 91.70849     36.6 1.232e+04 1.878e-09
 91.72813     36.6 1.201e+04 1.582e-09
 91.74650     36.2 1.169e+04 1.270e-09
 91.75632     36.4 1.167e+04 1.267e-09
 91.76742     35.9 1.137e+04 9.936e-10
 91.78707     35.0 1.112e+04 8.049e-10
 91.80671     33.9 1.095e+04 7.395e-10
 91.82635     33.1 1.095e+04 7.413e-10
 91.84600     32.4 1.099e+04 7.635e-10
 91.86564     32.0 1.109e+04 8.164e-10
 91.88529     31.7 1.120e+04 8.779e-10
 91.90493     31.5 1.140e+04 9.463e-10
 91.92457     31.2 1.159e+04 1.007e-09
 91.93619     30.7 1.183e+04 1.036e-09
 91.94602     32.0 1.203e+04 1.122e-09
 91.96386     31.8 1.206e+04 1.120e-09
 91.98351     30.6 1.214e+04 1.078e-09
 92.00315     30.0 1.207e+04 1.045e-09
 92.02279     29.6 1.195e+04 1.005e-09
 92.04244     29.2 1.184e+04 9.549e-10
 92.06208     29.0 1.177e+04 8.997e-10
 92.08173     28.7 1.171e+04 8.150e-10
 92.10137     28.5 1.169e+04 7.230e-10
 92.11606     28.1 1.163e+04 6.458e-10
 92.12589     28.9 1.184e+04 7.914e-10
 92.14066     28.5 1.176e+04 7.179e-10
 92.16030     28.0 1.173e+04 7.014e-10
 92.17995     27.6 1.172e+04 7.135e-10
 92.19959     27.3 1.170e+04 7.552e-10
 92.21923     27.0 1.173e+04 8.278e-10
 92.23888     26.7 1.187e+04 9.016e-10
 92.25852     26.2 1.206e+04 9.581e-10
 92.27817     25.6 1.228e+04 1.020e-09
 92.29593     24.9 1.245e+04 1.087e-09
 92.30576     24.8 1.290e+04 1.392e-09
 92.31745     24.3 1.287e+04 1.437e-09
 92.33710     23.7 1.282e+04 1.510e-09
 92.35674     23.4 1.286e+04 1.649e-09
 92.37639     23.4 1.307e+04 1.882e-09
 92.39603     23.5 1.339e+04 2.255e-09
 92.41567     24.1 1.369e+04 2.679e-09
 92.43532     25.1 1.401e+04 3.056e-09
 92.45496     26.1 1.441e+04 3.382e-09
 92.47461     26.0 1.520e+04 3.808e-09
 92.48563     24.4 1.684e+04 4.721e-09
 92.49545     21.3 1.639e+04 4.064e-09
 92.50893     20.0 1.721e+04 4.890e-09
 92.51871     18.2 1.763e+04 5.685e-09
 92.52853     15.8 1.813e+04 7.077e-09
 92.53835     13.6 1.816e+04 8.822e-09
 92.54817     12.1 1.778e+04 1.047e-08
 92.55800     10.8 1.770e+04 1.204e-08
 92.56782      9.9 1.795e+04 1.305e-08
 92.57546      8.7 1.822e+04 1.293e-08
 92.58038      7.9 1.770e+04 1.035e-08
 92.58265      7.3 1.742e+04 8.794e-09
 92.58756      7.0 1.727e+04 7.958e-09
 92.59728      5.8 1.682e+04 6.464e-09
 92.60711      4.1 1.565e+04 4.049e-09
 92.61693      3.5 1.526e+04 3.713e-09
 92.63171      0.1 1.470e+04 2.237e-09
 92.65140     -5.9 1.426e+04 1.075e-09
 92.66550    -12.9 1.345e+04 7.872e-10
 92.67532    -12.3 1.223e+04 5.242e-10
 92.69069    -17.7 1.207e+04 5.983e-10
 92.71033    -21.2 1.206e+04 8.609e-10
 92.72998    -23.1 1.223e+04 1.275e-09
 92.74962    -24.3 1.284e+04 1.552e-09
 92.76927    -25.9 1.296e+04 1.662e-09
 92.78891    -27.4 1.264e+04 1.566e-09
 92.80855    -28.8 1.247e+04 1.441e-09
 92.82820    -29.6 1.224e+04 1.262e-09
 92.84537    -30.1 1.190e+04 1.045e-09
 92.85519    -28.9 1.173e+04 9.856e-10
 92.86749    -29.4 1.143e+04 8.205e-10
 92.88713    -29.9 1.121e+04 6.830e-10
 92.90677    -30.6 1.121e+04 5.987e-10
 92.92642    -31.5 1.118e+04 5.733e-10
 92.94606    -32.1 1.120e+04 6.153e-10
 92.96571    -32.4 1.128e+04 7.034e-10
 92.98535    -32.1 1.133e+04 7.965e-10
 93.00499    -31.2 1.142e+04 8.753e-10
 93.02464    -30.3 1.148e+04 9.101e-10
 93.03506    -29.6 1.141e+04 8.822e-10
 93.04488    -29.0 1.141e+04 8.813e-10
 93.06393    -28.4 1.130e+04 8.174e-10
 93.08357    -28.1 1.110e+04 7.429e-10
 93.10321    -27.5 1.093e+04 6.863e-10
 93.12286    -27.0 1.079e+04 6.300e-10
 93.14250    -26.5 1.070e+04 6.070e-10
 93.16215    -25.3 1.059e+04 5.654e-10
 93.18179    -24.8 1.052e+04 5.463e-10
 93.20143    -23.7 1.041e+04 5.134e-10
 93.21493    -23.2 1.039e+04 5.044e-10
 93.22475    -23.2 1.048e+04 5.276e-10
 93.24072    -22.2 1.042e+04 5.144e-10
 93.26037    -21.9 1.037e+04 5.086e-10
 93.28001    -20.3 1.032e+04 5.092e-10
 93.29966    -19.9 1.030e+04 5.062e-10
 93.32922    -17.5 1.021e+04 4.949e-10
 93.36860    -14.8 9.860e+03 3.828e-10
 93.39499    -12.7 9.718e+03 2.853e-10
 93.41464    -13.3 9.752e+03 3.002e-10
 93.44718    -11.3 9.575e+03 2.632e-10
 93.48647     -8.9 9.474e+03 2.646e-10
 93.52576     -6.3 9.486e+03 2.831e-10
 93.56504     -3.5 9.573e+03 3.065e-10
 93.60433     -0.8 9.681e+03 3.244e-10
 93.64362      1.9 9.741e+03 3.367e-10
 93.68291      4.5 9.780e+03 3.503e-10
 93.72220      7.1 9.836e+03 3.668e-10
 93.75473      9.7 9.931e+03 3.885e-10
 93.77438      9.3 9.632e+03 3.113e-10
 93.80077     11.9 9.739e+03 3.216e-10
 93.84006     14.5 9.857e+03 3.294e-10
 93.87935     16.9 9.948e+03 3.358e-10
 93.91864     19.2 9.991e+03 3.343e-10
 93.95792     21.3 1.001e+04 3.491e-10
 93.98729     22.8 1.001e+04 3.714e-10
 94.00684     23.8 1.013e+04 4.083e-10
 94.02648     25.2 1.040e+04 4.838e-10
 94.04613     26.2 1.069e+04 5.612e-10
 94.07569     27.6 1.123e+04 7.514e-10
 94.11447     29.1 1.209e+04 1.203e-09
 94.13412     29.5 1.146e+04 8.294e-10
 94.14445     29.5 1.236e+04 1.417e-09
 94.16399     29.7 1.293e+04 1.951e-09
 94.18364     29.9 1.340e+04 2.474e-09
 94.20328     30.2 1.378e+04 3.008e-09
 94.22292     30.8 1.379e+04 3.140e-09
 94.24257     31.3 1.374e+04 2.843e-09
 94.26221     31.2 1.368e+04 2.360e-09
 94.28186     30.6 1.364e+04 1.950e-09
 94.30150     29.3 1.352e+04 1.721e-09
 94.31379     28.1 1.326e+04 1.643e-09
 94.32361     27.4 1.303e+04 1.418e-09
 94.34079     26.5 1.264e+04 1.373e-09
 94.36043     26.3 1.243e+04 1.390e-09
 94.38008     26.3 1.236e+04 1.395e-09
 94.39972     26.1 1.253e+04 1.426e-09
 94.41936     25.5 1.305e+04 1.526e-09
 94.43901     24.5 1.366e+04 1.715e-09
 94.45865     23.7 1.389e+04 1.919e-09
 94.47830     23.1 1.373e+04 1.893e-09
 94.49366     22.6 1.333e+04 1.762e-09
 94.50348     22.7 1.248e+04 1.166e-09
 94.51758     22.1 1.234e+04 1.154e-09
 94.53723     21.8 1.216e+04 1.104e-09
 94.55687     21.8 1.197e+04 1.017e-09
 94.57652     21.8 1.178e+04 8.984e-10
 94.59616     21.8 1.161e+04 7.881e-10
 94.61580     22.1 1.141e+04 6.626e-10
 94.63545     22.1 1.129e+04 6.058e-10
 94.65509     22.6 1.109e+04 5.367e-10
 94.67353     22.8 1.101e+04 5.154e-10
 94.68335     23.2 1.114e+04 5.477e-10
 94.70430     24.2 1.097e+04 5.106e-10
 94.74369     25.4 1.080e+04 4.912e-10
 94.78297     26.6 1.059e+04 4.640e-10
 94.82226     27.9 1.037e+04 4.251e-10
 94.85360     29.3 1.016e+04 3.784e-10
 94.87324     29.4 1.068e+04 4.854e-10
 94.90084     30.7 1.062e+04 4.502e-10
 94.94013     32.1 1.058e+04 4.376e-10
 94.97941     33.6 1.059e+04 4.449e-10
 95.01870     35.2 1.064e+04 4.644e-10
 95.05799     36.7 1.090e+04 5.481e-10
 95.09728     38.2 1.110e+04 6.410e-10
 95.12665     38.7 1.139e+04 7.928e-10
 95.14619     38.9 1.169e+04 9.632e-10
 95.16584     39.3 1.205e+04 1.256e-09
 95.18548     40.0 1.231e+04 1.510e-09
 95.20512     40.8 1.248e+04 1.663e-09
 95.22296     41.7 1.255e+04 1.704e-09
 95.23279     41.3 1.272e+04 1.738e-09
 95.24441     42.1 1.265e+04 1.614e-09
 95.26406     42.8 1.254e+04 1.449e-09
 95.28370     43.3 1.237e+04 1.276e-09
 95.30334     43.8 1.215e+04 1.137e-09
 95.32299     44.1 1.196e+04 1.045e-09
 95.33619     44.6 1.183e+04 1.002e-09
 95.34601     44.1 1.182e+04 9.994e-10
 95.36228     44.7 1.178e+04 9.912e-10
 95.38192     45.4 1.178e+04 9.980e-10
 95.40156     46.2 1.178e+04 1.007e-09
 95.41266     46.9 1.182e+04 1.019e-09
 95.42248     45.8 1.193e+04 1.046e-09
 95.44085     45.6 1.228e+04 1.147e-09
 95.46050     44.9 1.295e+04 1.386e-09
 95.48014     43.6 1.385e+04 1.898e-09
 95.49978     42.3 1.471e+04 2.829e-09
 95.51943     41.7 1.537e+04 4.175e-09
 95.53907     41.9 1.578e+04 5.493e-09
 95.55872     42.3 1.585e+04 5.842e-09
 95.57836     42.7 1.577e+04 5.695e-09
 95.59253     43.2 1.539e+04 4.849e-09
 95.60235     42.0 1.510e+04 4.200e-09
 95.61765     41.6 1.433e+04 2.883e-09
 95.63729     40.5 1.335e+04 1.912e-09
 95.65694     38.9 1.230e+04 1.360e-09
 95.67658     37.9 1.160e+04 1.089e-09
 95.69623     37.9 1.117e+04 9.887e-10
 95.71587     38.3 1.117e+04 1.001e-09
 95.73551     39.1 1.119e+04 1.022e-09
 95.75516     40.0 1.124e+04 1.046e-09
 95.77240     40.8 1.128e+04 1.058e-09
 95.78222     40.1 1.140e+04 1.120e-09
 95.79445     40.9 1.138e+04 1.104e-09
 95.81409     41.6 1.132e+04 1.073e-09
 95.83373     42.3 1.122e+04 1.029e-09
 95.85338     43.1 1.109e+04 9.797e-10
 95.87302     43.9 1.099e+04 9.282e-10
 95.89267     44.6 1.100e+04 9.106e-10
 95.91231     45.4 1.106e+04 9.180e-10
 95.93195     45.9 1.131e+04 9.650e-10
 95.95160     45.7 1.182e+04 1.100e-09
 95.96209     45.3 1.264e+04 1.423e-09
 95.97191     43.6 1.364e+04 2.150e-09
 95.99089     43.4 1.448e+04 3.065e-09
 96.01053     43.4 1.507e+04 4.028e-09
 96.03017     43.6 1.532e+04 4.526e-09
 96.04982     43.9 1.528e+04 4.441e-09
 96.06946     44.2 1.515e+04 4.155e-09
 96.08911     44.4 1.476e+04 3.283e-09
 96.10875     43.9 1.418e+04 2.333e-09
 96.12839     42.4 1.338e+04 1.595e-09
 96.14196     39.7 1.314e+04 1.396e-09
 96.15178     35.3 1.279e+04 1.219e-09
 96.16768     30.0 1.413e+04 1.631e-09
 96.18733     24.4 1.552e+04 2.814e-09
 96.20697     21.0 1.579e+04 4.339e-09
 96.22661     19.3 1.586e+04 4.870e-09
 96.24626     17.7 1.566e+04 4.580e-09
 96.26590     15.0 1.489e+04 3.383e-09
 96.28555     10.4 1.393e+04 1.896e-09
 96.30519      3.1 1.266e+04 8.439e-10
 96.32183     -6.6 1.217e+04 7.231e-10
 96.33165     -6.6 1.175e+04 6.814e-10
 96.34448    -17.2 1.345e+04 1.088e-09
 96.36412    -24.7 1.480e+04 2.340e-09
 96.38377    -29.3 1.593e+04 4.327e-09
 96.40341    -32.7 1.701e+04 6.100e-09
 96.42305    -37.1 1.772e+04 6.456e-09
 96.44270    -42.3 1.758e+04 5.458e-09
 96.46234    -47.9 1.661e+04 3.805e-09
 96.48199    -53.0 1.439e+04 2.583e-09
 96.50163    -55.5 1.334e+04 2.080e-09
 96.52127    -55.2 1.317e+04 1.925e-09
 96.54092    -56.8 1.256e+04 1.475e-09
 96.56056    -58.9 1.182e+04 1.077e-09
 96.58021    -60.8 1.109e+04 8.288e-10
 96.59985    -62.1 1.070e+04 7.306e-10
 96.61949    -63.1 1.065e+04 7.155e-10
 96.63914    -65.6 1.153e+04 8.127e-10
 96.65878    -69.8 1.303e+04 1.296e-09
 96.67843    -73.6 1.386e+04 2.250e-09
 96.69139    -75.4 1.426e+04 3.506e-09
 96.70121    -74.2 1.404e+04 3.052e-09
 96.71771    -74.9 1.452e+04 4.237e-09
 96.73736    -75.2 1.517e+04 4.666e-09
 96.75700    -76.4 1.542e+04 4.582e-09
 96.77665    -79.2 1.529e+04 3.147e-09
 96.79629    -84.6 1.369e+04 1.687e-09
 96.81593    -90.1 1.213e+04 1.199e-09
 96.83558    -93.0 1.192e+04 1.134e-09
 96.85522    -95.5 1.274e+04 1.363e-09
 96.87126    -98.5 1.340e+04 1.806e-09
 96.88108    -94.8 1.286e+04 1.394e-09
 96.89451    -97.7 1.345e+04 1.928e-09
 96.91415    -99.8 1.362e+04 2.504e-09
 96.93380   -100.8 1.358e+04 2.865e-09
 96.95344   -101.2 1.363e+04 2.914e-09
 96.97309   -102.0 1.375e+04 2.689e-09
 96.99273   -104.0 1.391e+04 2.218e-09
 97.01237   -107.1 1.375e+04 1.809e-09
 97.03202   -110.4 1.303e+04 1.584e-09
 97.05113   -112.7 1.212e+04 1.515e-09
 97.06095   -109.1 1.265e+04 1.495e-09
 97.07131   -110.9 1.187e+04 1.410e-09
 97.09095   -111.5 1.139e+04 1.309e-09
 97.11059   -111.6 1.097e+04 1.141e-09
 97.13024   -111.6 1.049e+04 9.169e-10
 97.14988   -111.7 9.969e+03 6.988e-10
 97.16953   -111.9 9.537e+03 5.330e-10
 97.18917   -111.9 9.263e+03 4.242e-10
 97.20881   -111.7 9.129e+03 3.646e-10
 97.22846   -111.1 9.067e+03 3.401e-10
 97.25802   -109.7 9.059e+03 3.298e-10
 97.29741   -108.2 9.016e+03 3.193e-10
 97.33670   -106.9 9.112e+03 3.312e-10
 97.36606   -106.0 9.279e+03 3.716e-10
 97.38561   -105.9 9.384e+03 4.076e-10
 97.40525   -105.4 9.577e+03 4.631e-10
 97.42069   -104.7 9.779e+03 5.072e-10
 97.43051   -104.0 9.776e+03 5.137e-10
 97.45446   -102.6 9.987e+03 5.620e-10
 97.49385   -100.8 1.026e+04 6.307e-10
 97.52322   -100.2 1.043e+04 6.911e-10
 97.54276    -99.6 1.054e+04 7.185e-10
 97.56241    -98.7 1.067e+04 7.464e-10
 97.58205    -98.1 1.077e+04 7.584e-10
 97.60056    -97.5 1.089e+04 7.669e-10
 97.61038    -96.7 1.085e+04 7.823e-10
 97.62134    -96.2 1.098e+04 7.926e-10
 97.64098    -95.8 1.116e+04 8.011e-10
 97.66063    -95.4 1.139e+04 8.273e-10
 97.68027    -95.0 1.168e+04 9.015e-10
 97.69991    -94.9 1.182e+04 9.400e-10
 97.71956    -94.7 1.225e+04 1.085e-09
 97.73920    -94.9 1.237e+04 1.118e-09
 97.75885    -95.4 1.254e+04 1.193e-09
 97.77849    -95.9 1.259e+04 1.261e-09
 97.79025    -96.3 1.256e+04 1.301e-09
 97.80008    -95.2 1.291e+04 1.519e-09
 97.81778    -96.2 1.292e+04 1.541e-09
 97.83742    -99.0 1.337e+04 1.592e-09
 97.85707   -105.2 1.631e+04 2.445e-09
 97.87671   -112.1 1.888e+04 5.494e-09
 97.89636   -117.5 1.974e+04 1.127e-08
 97.91600   -121.4 1.984e+04 1.559e-08
 97.93068   -123.4 1.963e+04 1.493e-08
 97.94046   -124.7 1.969e+04 1.505e-08
 97.95028   -127.1 1.952e+04 1.428e-08
 97.96010   -128.3 1.979e+04 1.357e-08
 97.96992   -131.3 1.976e+04 1.140e-08
 97.97494   -134.1 1.949e+04 9.732e-09
 97.97985   -132.1 1.934e+04 9.410e-09
 97.98957   -134.9 1.869e+04 8.019e-09
 97.99939   -137.2 1.816e+04 7.244e-09
 98.00921   -139.3 1.725e+04 6.360e-09
 98.01903   -140.5 1.673e+04 5.842e-09
 98.02885   -141.5 1.597e+04 5.330e-09
 98.03868   -141.6 1.568e+04 5.069e-09
 98.05346   -141.6 1.542e+04 4.800e-09
 98.07315   -141.0 1.473e+04 3.734e-09
 98.08963   -140.4 1.386e+04 2.465e-09
 98.09945   -139.4 1.375e+04 2.489e-09
 98.11244   -138.9 1.290e+04 1.567e-09
 98.13208   -138.7 1.276e+04 9.727e-10
 98.14999   -142.0 1.440e+04 7.735e-10
 98.15982   -136.7 1.346e+04 1.291e-09
 98.17137   -143.6 2.167e+04 9.159e-10
 98.19102   -155.6 3.167e+04 1.888e-09
 98.20570   -163.3 2.680e+04 9.650e-09
 98.21547   -164.8 2.533e+04 1.732e-08
 98.22529   -166.5 2.390e+04 2.925e-08
 98.23512   -168.2 2.377e+04 3.538e-08
 98.24474   -170.7 2.376e+04 3.655e-08
 98.24965   -168.1 2.458e+04 3.357e-08
 98.25476   -171.5 2.511e+04 2.936e-08
 98.26458   -175.9 2.411e+04 1.827e-08
 98.27440   -181.3 2.098e+04 1.031e-08
 98.28423   -186.0 1.751e+04 6.401e-09
 98.29405   -188.7 1.589e+04 4.523e-09
 98.30387   -190.0 1.507e+04 3.569e-09
 98.31369   -190.5 1.432e+04 3.069e-09
 98.32847   -191.2 1.338e+04 2.419e-09
 98.33969   -191.5 1.208e+04 1.616e-09
 98.34951   -192.2 1.198e+04 1.499e-09
 98.36781   -191.9 1.133e+04 1.214e-09
 98.38746   -190.4 1.105e+04 1.036e-09
 98.40710   -188.8 1.072e+04 8.675e-10
 98.42674   -187.3 1.040e+04 6.917e-10
 98.44639   -185.8 1.008e+04 5.269e-10
 98.46603   -184.3 9.822e+03 4.107e-10
 98.48568   -183.6 9.703e+03 3.662e-10
 98.50983   -182.8 9.560e+03 3.190e-10
 98.52957   -181.2 9.724e+03 3.935e-10
 98.55462   -179.6 9.504e+03 3.289e-10
 98.59391   -177.4 9.170e+03 2.586e-10
 98.63320   -175.1 8.872e+03 2.055e-10
 98.67249   -172.8 8.669e+03 1.696e-10
 98.71178   -170.6 8.552e+03 1.460e-10
 98.75107   -168.4 8.498e+03 1.311e-10
 98.79035   -166.2 8.489e+03 1.227e-10
 98.82964   -164.0 8.508e+03 1.190e-10
 98.86893   -161.9 8.526e+03 1.182e-10
 98.88931   -159.8 8.565e+03 1.186e-10
 98.90896   -159.7 8.669e+03 1.328e-10
 98.94751   -157.7 8.754e+03 1.380e-10
 98.98679   -155.7 8.827e+03 1.442e-10
 99.02608   -153.7 8.896e+03 1.510e-10
 99.06537   -151.7 8.959e+03 1.599e-10
 99.10466   -149.6 9.012e+03 1.722e-10
 99.14395   -147.6 9.058e+03 1.875e-10
 99.18323   -145.4 9.102e+03 2.057e-10
 99.22252   -143.1 9.141e+03 2.232e-10
 99.24905   -140.7 9.158e+03 2.354e-10
 99.26870   -141.1 9.185e+03 2.581e-10
 99.30110   -138.6 9.123e+03 2.380e-10
 99.34039   -136.0 9.074e+03 2.173e-10
 99.37967   -133.5 8.999e+03 1.957e-10
 99.41896   -131.0 8.941e+03 1.754e-10
 99.45825   -128.5 8.901e+03 1.606e-10
 99.49754   -125.8 8.891e+03 1.524e-10
 99.53683   -123.2 8.893e+03 1.502e-10
 99.57611   -120.5 8.924e+03 1.506e-10
 99.60879   -117.7 8.989e+03 1.567e-10
 99.62844   -117.5 8.990e+03 1.573e-10
 99.65469   -114.8 9.052e+03 1.646e-10
 99.69398   -111.9 9.091e+03 1.695e-10
 99.73327   -109.1 9.115e+03 1.715e-10
 99.77255   -106.1 9.129e+03 1.715e-10
 99.81184   -103.2 9.142e+03 1.712e-10
 99.85113   -100.2 9.173e+03 1.715e-10
 99.89042    -97.5 9.277e+03 1.729e-10
 99.92971    -94.8 9.485e+03 1.902e-10
 99.96853    -92.3 9.701e+03 2.355e-10
 99.98818    -92.4 9.707e+03 2.544e-10
100.00828    -90.0 9.925e+03 3.147e-10
