# Columns:
#   distance along LOS (in CHIMPs)
#   peculiar velocity  (in km/s)
#   temperature (K)
#   HI number density
# pos=(130.714,133.994,244.829), angles=(1.54403,1.49381)
  0.00055   -101.0 1.108e+04 6.849e-10
  0.01089   -100.2 1.108e+04 6.851e-10
  0.03049    -99.4 1.116e+04 7.181e-10
  0.05009    -98.6 1.127e+04 7.919e-10
  0.06662    -97.6 1.139e+04 8.844e-10
  0.07641    -97.4 1.158e+04 9.749e-10
  0.08928    -96.3 1.168e+04 1.037e-09
  0.10887    -95.1 1.178e+04 1.074e-09
  0.12847    -93.9 1.183e+04 1.089e-09
  0.14807    -92.8 1.189e+04 1.058e-09
  0.16766    -91.7 1.188e+04 9.914e-10
  0.18726    -90.5 1.185e+04 9.212e-10
  0.20686    -89.5 1.181e+04 8.605e-10
  0.22645    -88.5 1.178e+04 8.137e-10
  0.24605    -87.5 1.175e+04 7.961e-10
  0.26167    -86.4 1.176e+04 8.073e-10
  0.27146    -85.6 1.195e+04 8.917e-10
  0.28524    -84.5 1.199e+04 8.833e-10
  0.30484    -83.5 1.204e+04 9.028e-10
  0.32101    -82.4 1.206e+04 9.180e-10
  0.33081    -82.3 1.210e+04 9.755e-10
  0.34403    -81.2 1.210e+04 9.940e-10
  0.36363    -80.1 1.210e+04 9.986e-10
  0.38322    -79.0 1.206e+04 9.979e-10
  0.40282    -77.8 1.199e+04 9.801e-10
  0.42241    -76.6 1.191e+04 9.405e-10
  0.44201    -75.4 1.179e+04 8.849e-10
  0.46161    -74.1 1.165e+04 8.162e-10
  0.48120    -72.8 1.152e+04 7.276e-10
  0.50080    -71.5 1.139e+04 6.080e-10
  0.53029    -70.3 1.124e+04 4.524e-10
  0.56581    -68.0 1.104e+04 3.659e-10
  0.58540    -67.6 1.129e+04 5.447e-10
  0.60878    -65.3 1.103e+04 4.368e-10
  0.64797    -62.5 1.071e+04 3.340e-10
  0.68716    -59.7 1.045e+04 2.506e-10
  0.72635    -56.9 1.030e+04 1.957e-10
  0.76555    -54.2 1.023e+04 1.663e-10
  0.80474    -51.6 1.017e+04 1.507e-10
  0.84393    -48.9 1.013e+04 1.447e-10
  0.88312    -46.3 1.014e+04 1.451e-10
  0.92232    -43.7 1.013e+04 1.486e-10
  0.96151    -41.0 1.010e+04 1.496e-10
  0.98933    -38.1 1.003e+04 1.470e-10
  1.00893    -37.6 1.003e+04 1.437e-10
  1.03989    -34.6 9.924e+03 1.274e-10
  1.07460    -31.6 9.859e+03 1.047e-10
  1.09419    -31.5 9.896e+03 1.087e-10
  1.11828    -28.7 9.867e+03 8.783e-11
  1.15747    -26.1 9.846e+03 7.300e-11
  1.19666    -23.5 9.830e+03 6.851e-11
  1.23586    -21.2 1.009e+04 7.286e-11
  1.27505    -19.5 1.011e+04 1.078e-10
  1.31424    -17.2 1.022e+04 1.832e-10
  1.35343    -14.5 1.056e+04 3.044e-10
  1.39263    -12.2 1.102e+04 4.547e-10
  1.43182    -10.7 1.145e+04 6.120e-10
  1.47101     -9.9 1.186e+04 8.419e-10
  1.51020     -9.4 1.248e+04 1.236e-09
  1.54940     -9.9 1.284e+04 1.572e-09
  1.58339     -9.7 1.278e+04 1.931e-09
  1.60298    -10.3 1.224e+04 1.573e-09
  1.62778     -9.6 1.187e+04 1.290e-09
  1.66697     -9.2 1.146e+04 7.172e-10
  1.70617     -9.9 1.067e+04 4.998e-10
  1.74536     -8.6 9.938e+03 3.722e-10
  1.78455     -6.5 9.763e+03 2.399e-10
  1.82375     -5.2 9.694e+03 1.520e-10
  1.86294     -4.7 9.545e+03 1.266e-10
  1.90213     -3.8 9.472e+03 1.421e-10
  1.94132     -2.5 9.483e+03 1.825e-10
  1.98052     -0.9 9.751e+03 2.443e-10
  2.01971      0.6 1.014e+04 3.122e-10
  2.05890      1.4 1.053e+04 3.667e-10
  2.08820      1.2 1.080e+04 4.387e-10
  2.10178      1.3 1.083e+04 4.450e-10
  2.11168      0.4 1.091e+04 4.925e-10
  2.13729      1.3 1.111e+04 6.271e-10
  2.17648      2.3 1.112e+04 6.572e-10
  2.21567      3.5 1.104e+04 6.091e-10
  2.25486      4.4 1.092e+04 5.478e-10
  2.29406      5.4 1.089e+04 5.512e-10
  2.33325      6.5 1.093e+04 6.200e-10
  2.37244      7.8 1.091e+04 6.589e-10
  2.41163      9.5 1.069e+04 5.879e-10
  2.44093     10.3 1.052e+04 5.096e-10
  2.45388     10.4 1.052e+04 4.975e-10
  2.46368     11.0 1.048e+04 4.790e-10
  2.48003     11.4 1.022e+04 4.133e-10
  2.49962     11.5 1.011e+04 3.990e-10
  2.51922     11.8 1.011e+04 4.070e-10
  2.53881     12.3 1.014e+04 4.287e-10
  2.55841     12.2 1.040e+04 5.112e-10
  2.57801     12.6 1.047e+04 5.986e-10
  2.59760     12.8 1.076e+04 7.390e-10
  2.61057     13.4 1.090e+04 8.615e-10
  2.62037     13.4 1.065e+04 6.956e-10
  2.63680     13.9 1.078e+04 7.875e-10
  2.65639     14.5 1.083e+04 8.498e-10
  2.67599     15.0 1.081e+04 8.544e-10
  2.69558     15.6 1.071e+04 8.304e-10
  2.71518     16.0 1.062e+04 7.930e-10
  2.73478     16.3 1.048e+04 7.320e-10
  2.75437     16.6 1.036e+04 6.830e-10
  2.77397     16.7 1.040e+04 6.899e-10
  2.79357     16.4 1.068e+04 7.467e-10
  2.81316     15.5 1.144e+04 9.374e-10
  2.83276     14.6 1.220e+04 1.278e-09
  2.85235     14.3 1.267e+04 1.698e-09
  2.86497     14.5 1.301e+04 2.100e-09
  2.87477     14.6 1.224e+04 1.478e-09
  2.89155     14.2 1.255e+04 1.727e-09
  2.91114     13.3 1.301e+04 2.067e-09
  2.93074     11.0 1.389e+04 2.704e-09
  2.95034      8.2 1.468e+04 3.879e-09
  2.96993      7.4 1.489e+04 5.023e-09
  2.98953      8.4 1.452e+04 4.576e-09
  3.00913      8.5 1.420e+04 3.555e-09
  3.02872      8.1 1.350e+04 2.233e-09
  3.04832      6.4 1.243e+04 1.347e-09
  3.06791      4.6 1.115e+04 7.621e-10
  3.08751      3.8 1.069e+04 6.228e-10
  3.10711      4.4 1.020e+04 4.761e-10
  3.11937      4.5 1.016e+04 4.691e-10
  3.12926      5.1 1.030e+04 4.852e-10
  3.15629      5.6 1.003e+04 4.259e-10
  3.19549      6.9 1.010e+04 4.473e-10
  3.23468      8.5 1.021e+04 4.749e-10
  3.27387      9.8 1.016e+04 4.517e-10
  3.31306     10.7 1.001e+04 4.087e-10
  3.35226     11.2 9.872e+03 3.960e-10
  3.39145     12.0 9.709e+03 3.753e-10
  3.43064     13.0 9.556e+03 3.129e-10
  3.46983     13.1 9.538e+03 2.607e-10
  3.50903     12.3 9.706e+03 2.940e-10
  3.54822     12.1 9.787e+03 4.064e-10
  3.58741     13.1 9.765e+03 4.880e-10
  3.61856     14.4 9.719e+03 4.746e-10
  3.63815     15.0 9.462e+03 4.316e-10
  3.66580     15.4 9.557e+03 4.043e-10
  3.70499     15.0 9.725e+03 4.238e-10
  3.74418     14.7 9.997e+03 5.284e-10
  3.78337     15.3 9.970e+03 5.383e-10
  3.82257     16.6 9.726e+03 4.216e-10
  3.86176     16.7 9.389e+03 2.462e-10
  3.89922     15.7 9.140e+03 2.028e-10
  3.91882     17.1 9.546e+03 3.133e-10
  3.94014     16.4 9.398e+03 2.859e-10
  3.97934     16.8 9.326e+03 2.792e-10
  4.01853     18.0 9.229e+03 2.540e-10
  4.05772     19.7 9.112e+03 1.956e-10
  4.09691     20.8 8.984e+03 1.404e-10
  4.12735     21.8 8.869e+03 1.252e-10
  4.14694     22.0 8.797e+03 1.081e-10
  4.17530     23.2 8.788e+03 1.109e-10
  4.21449     24.4 8.903e+03 1.359e-10
  4.25369     25.8 9.196e+03 2.121e-10
  4.29288     27.4 9.616e+03 3.546e-10
  4.33207     29.2 1.000e+04 5.330e-10
  4.37126     30.6 1.005e+04 5.794e-10
  4.41046     31.9 9.920e+03 5.438e-10
  4.44965     33.2 9.553e+03 4.292e-10
  4.48884     34.5 9.123e+03 2.988e-10
  4.52803     35.5 8.716e+03 2.041e-10
  4.56723     36.4 8.448e+03 1.707e-10
  4.60642     37.5 8.446e+03 1.739e-10
  4.63614     38.5 8.590e+03 2.043e-10
  4.65573     37.9 8.997e+03 2.849e-10
  4.68480     39.0 9.440e+03 4.188e-10
  4.72400     40.4 9.855e+03 5.738e-10
  4.76319     42.1 1.019e+04 6.912e-10
  4.79249     43.2 1.010e+04 6.773e-10
  4.81198     44.0 1.008e+04 6.688e-10
  4.83158     44.8 1.005e+04 6.564e-10
  4.85118     45.6 1.011e+04 6.388e-10
  4.87077     46.2 1.015e+04 6.381e-10
  4.89034     47.0 1.024e+04 6.466e-10
  4.90994     47.4 1.032e+04 6.650e-10
  4.92956     48.3 1.043e+04 7.004e-10
  4.94916     49.1 1.055e+04 7.444e-10
  4.96875     49.9 1.066e+04 7.896e-10
  4.98835     50.9 1.077e+04 8.373e-10
  5.00795     51.8 1.091e+04 8.911e-10
  5.02754     52.8 1.112e+04 9.584e-10
  5.04714     53.6 1.138e+04 1.044e-09
  5.06674     54.3 1.163e+04 1.145e-09
  5.08633     54.9 1.182e+04 1.249e-09
  5.10593     55.5 1.192e+04 1.347e-09
  5.12552     56.3 1.191e+04 1.347e-09
  5.14473     57.1 1.184e+04 1.301e-09
  5.15453     56.8 1.178e+04 1.245e-09
  5.16472     57.8 1.161e+04 1.114e-09
  5.18431     58.7 1.136e+04 9.256e-10
  5.20391     59.4 1.109e+04 7.198e-10
  5.22351     59.2 1.083e+04 5.956e-10
  5.24310     57.6 1.212e+04 6.302e-10
  5.26270     52.3 1.606e+04 1.182e-09
  5.28229     47.8 1.850e+04 4.094e-09
  5.30189     45.7 1.951e+04 1.088e-08
  5.31654     44.9 2.026e+04 1.622e-08
  5.32629     44.6 2.063e+04 2.706e-08
  5.33609     44.9 2.081e+04 4.481e-08
  5.34589     45.5 2.112e+04 6.845e-08
  5.35568     45.9 2.136e+04 7.468e-08
  5.36548     46.5 2.130e+04 6.765e-08
  5.37347     46.6 2.136e+04 4.923e-08
  5.37837     47.3 2.177e+04 7.826e-08
  5.38508     47.2 2.182e+04 5.465e-08
  5.39488     46.2 2.221e+04 3.454e-08
  5.40393     43.9 2.222e+04 2.136e-08
  5.40883     43.2 2.208e+04 2.160e-08
  5.41447     40.0 2.090e+04 1.328e-08
  5.42427     38.0 1.942e+04 1.029e-08
  5.43902     36.7 1.847e+04 8.514e-09
  5.45866     33.3 1.608e+04 4.890e-09
  5.47826     30.5 1.458e+04 2.861e-09
  5.49785     28.2 1.386e+04 1.907e-09
  5.51745     25.5 1.349e+04 1.400e-09
  5.53705     22.4 1.312e+04 1.179e-09
  5.55664     16.3 1.430e+04 1.426e-09
  5.57624      9.0 1.583e+04 2.582e-09
  5.59584      6.4 1.508e+04 4.035e-09
  5.61543      6.2 1.496e+04 4.900e-09
  5.63503      6.5 1.460e+04 4.570e-09
  5.65353      6.4 1.444e+04 3.429e-09
  5.66332      6.5 1.420e+04 2.445e-09
  5.67422      3.4 1.404e+04 1.417e-09
  5.69382      0.0 1.216e+04 9.524e-10
  5.71341     -1.1 1.108e+04 7.708e-10
  5.73301     -0.8 1.081e+04 7.014e-10
  5.75261      0.2 1.051e+04 6.360e-10
  5.77220      1.2 1.035e+04 4.733e-10
  5.79180      1.3 1.009e+04 3.943e-10
  5.82129      1.4 9.649e+03 2.742e-10
  5.86058      2.5 9.178e+03 1.843e-10
  5.89977      3.2 8.995e+03 1.482e-10
  5.93897      4.0 8.979e+03 1.528e-10
  5.97816      4.9 9.131e+03 1.834e-10
  6.01735      6.1 9.297e+03 2.441e-10
  6.05654      7.5 9.436e+03 2.999e-10
  6.09574      8.9 9.539e+03 3.270e-10
  6.13493     10.0 9.692e+03 3.533e-10
  6.16251     10.3 1.005e+04 4.305e-10
  6.18211      9.6 1.023e+04 4.844e-10
  6.21331      9.6 1.117e+04 8.299e-10
  6.24261      8.5 1.209e+04 1.269e-09
  6.26211      8.6 1.233e+04 1.634e-09
  6.28171      9.1 1.255e+04 1.949e-09
  6.30130      9.9 1.275e+04 1.999e-09
  6.32090     10.4 1.287e+04 1.870e-09
  6.34049     10.0 1.293e+04 1.551e-09
  6.36009      8.6 1.256e+04 1.189e-09
  6.37969      6.5 1.188e+04 9.599e-10
  6.39928      4.0 1.188e+04 1.007e-09
  6.41671      2.0 1.215e+04 1.209e-09
  6.42651      0.7 1.217e+04 1.277e-09
  6.43848      0.3 1.228e+04 1.670e-09
  6.45807      0.8 1.230e+04 1.898e-09
  6.47767      1.4 1.220e+04 1.860e-09
  6.49726      1.8 1.207e+04 1.620e-09
  6.51686      1.0 1.212e+04 1.360e-09
  6.53646     -0.5 1.172e+04 1.105e-09
  6.55605     -2.0 1.106e+04 9.461e-10
  6.57565     -3.1 1.077e+04 8.624e-10
  6.59525     -3.8 1.075e+04 8.442e-10
  6.61484     -4.5 1.080e+04 8.216e-10
  6.63444     -5.7 1.095e+04 8.947e-10
  6.65404    -11.0 1.313e+04 1.390e-09
  6.67111    -16.7 1.477e+04 2.790e-09
  6.68091    -17.4 1.477e+04 2.916e-09
  6.69323    -19.4 1.467e+04 4.707e-09
  6.71282    -19.6 1.486e+04 5.762e-09
  6.73242    -18.8 1.496e+04 5.512e-09
  6.75202    -17.9 1.462e+04 2.809e-09
  6.77161    -25.9 1.212e+04 7.765e-10
  6.79121    -31.4 9.271e+03 3.409e-10
  6.81081    -32.5 8.774e+03 2.593e-10
  6.82861    -33.0 8.563e+03 2.104e-10
  6.83840    -33.3 8.585e+03 2.281e-10
  6.85000    -33.5 8.530e+03 2.132e-10
  6.86959    -33.7 8.425e+03 1.969e-10
  6.88919    -33.6 8.427e+03 1.950e-10
  6.91868    -33.3 8.563e+03 2.077e-10
  6.95797    -32.3 8.907e+03 2.650e-10
  6.99717    -30.6 9.304e+03 3.531e-10
  7.02646    -28.3 9.456e+03 4.174e-10
  7.04596    -28.0 9.496e+03 4.305e-10
  7.06556    -26.5 9.865e+03 5.298e-10
  7.08515    -25.7 1.008e+04 5.836e-10
  7.10475    -24.8 1.026e+04 6.584e-10
  7.12435    -24.0 1.040e+04 7.275e-10
  7.14394    -22.8 1.063e+04 8.416e-10
  7.16354    -21.9 1.080e+04 9.200e-10
  7.18000    -20.7 1.129e+04 1.027e-09
  7.18980    -20.4 1.144e+04 1.226e-09
  7.20273    -20.3 1.162e+04 1.310e-09
  7.22233    -19.4 1.194e+04 1.518e-09
  7.24192    -19.2 1.221e+04 1.683e-09
  7.26152    -19.0 1.263e+04 2.045e-09
  7.28112    -18.8 1.331e+04 2.587e-09
  7.30071    -18.9 1.411e+04 3.406e-09
  7.32031    -19.0 1.488e+04 4.498e-09
  7.33991    -19.1 1.579e+04 6.186e-09
  7.35950    -20.0 1.716e+04 9.205e-09
  7.37910    -22.2 1.936e+04 1.523e-08
  7.39375    -25.5 2.113e+04 2.605e-08
  7.40350    -27.6 2.152e+04 3.508e-08
  7.41329    -28.9 2.135e+04 4.447e-08
  7.42309    -30.7 2.111e+04 4.587e-08
  7.43289    -31.9 2.058e+04 4.276e-08
  7.43910    -33.1 2.015e+04 3.341e-08
  7.44400    -34.1 1.987e+04 2.689e-08
  7.45249    -34.6 1.956e+04 1.962e-08
  7.46228    -34.9 1.970e+04 1.375e-08
  7.47208    -36.3 1.983e+04 8.683e-09
  7.48188    -40.3 1.819e+04 4.602e-09
  7.49663    -45.4 1.478e+04 2.313e-09
  7.51627    -51.7 1.101e+04 8.974e-10
  7.53587    -53.3 9.721e+03 6.374e-10
  7.55546    -53.2 9.485e+03 5.846e-10
  7.56578    -52.3 9.360e+03 5.343e-10
  7.57558    -52.3 9.365e+03 5.261e-10
  7.59466    -51.6 9.210e+03 4.480e-10
  7.61425    -51.0 9.122e+03 3.960e-10
  7.63385    -50.7 9.077e+03 3.813e-10
  7.66334    -49.8 8.987e+03 3.495e-10
  7.68889    -48.3 8.640e+03 2.683e-10
  7.70848    -48.2 8.638e+03 2.660e-10
  7.74182    -46.8 8.368e+03 2.091e-10
  7.78102    -45.5 8.094e+03 1.617e-10
  7.82021    -44.2 7.944e+03 1.378e-10
  7.85940    -42.9 7.918e+03 1.322e-10
  7.89860    -41.5 7.997e+03 1.343e-10
  7.93779    -40.6 8.269e+03 1.590e-10
  7.97698    -39.9 8.700e+03 2.236e-10
  8.01617    -39.1 9.256e+03 3.613e-10
  8.05537    -38.0 9.840e+03 5.703e-10
  8.09456    -37.0 1.035e+04 7.733e-10
  8.13375    -36.3 1.059e+04 8.544e-10
  8.17294    -36.1 1.059e+04 8.357e-10
  8.19768    -35.5 1.038e+04 7.074e-10
  8.21728    -37.0 1.065e+04 8.136e-10
  8.25133    -36.0 1.027e+04 6.326e-10
  8.28365    -34.8 9.838e+03 4.458e-10
  8.30324    -33.8 1.006e+04 5.393e-10
  8.32971    -32.6 9.717e+03 3.899e-10
  8.36891    -31.4 9.539e+03 3.273e-10
  8.40810    -30.0 9.499e+03 3.164e-10
  8.44729    -28.6 9.557e+03 3.332e-10
  8.48648    -27.0 9.636e+03 3.664e-10
  8.52568    -25.5 9.743e+03 3.981e-10
  8.56487    -24.4 9.899e+03 4.182e-10
  8.60406    -23.7 1.008e+04 4.640e-10
  8.64325    -23.0 1.025e+04 5.269e-10
  8.68245    -22.3 1.044e+04 5.614e-10
  8.70647    -22.2 1.052e+04 5.157e-10
  8.72607    -23.3 1.035e+04 4.266e-10
  8.75094    -23.7 1.032e+04 3.901e-10
  8.77043    -23.7 1.034e+04 3.908e-10
  8.79993    -24.5 1.028e+04 3.597e-10
  8.83922    -24.5 1.036e+04 3.770e-10
  8.87841    -24.3 1.042e+04 3.672e-10
  8.91760    -23.7 1.049e+04 3.507e-10
  8.95679    -23.4 1.020e+04 2.581e-10
  8.99599    -22.7 9.937e+03 1.697e-10
  9.03518    -21.8 9.817e+03 1.199e-10
  9.07437    -20.5 9.770e+03 8.951e-11
  9.11357    -19.0 9.742e+03 7.178e-11
  9.15276    -17.2 9.707e+03 6.103e-11
  9.19195    -15.3 9.714e+03 5.309e-11
  9.21526    -13.5 9.717e+03 4.853e-11
  9.23486    -13.7 9.736e+03 4.724e-11
  9.27034    -11.8 9.755e+03 4.540e-11
  9.30953    -10.0 9.739e+03 4.821e-11
  9.34872     -7.7 9.576e+03 5.882e-11
  9.38791     -5.2 9.598e+03 6.067e-11
  9.42711     -2.5 9.618e+03 5.477e-11
  9.46630     -0.4 9.744e+03 4.578e-11
  9.50549      1.3 9.781e+03 4.192e-11
  9.54468      3.3 9.778e+03 4.218e-11
  9.58388      5.3 9.787e+03 4.531e-11
  9.62307      7.4 9.776e+03 5.290e-11
  9.66226      9.6 9.809e+03 6.716e-11
  9.70145     11.9 9.877e+03 8.610e-11
  9.72405     14.1 9.954e+03 1.070e-10
  9.74160     13.7 1.002e+04 1.100e-10
  9.75819     13.4 9.995e+03 1.069e-10
  9.77984     15.4 1.009e+04 1.340e-10
  9.81903     17.3 1.021e+04 1.635e-10
  9.85822     19.1 1.036e+04 1.952e-10
  9.89742     21.0 1.060e+04 2.412e-10
  9.93661     22.4 1.089e+04 3.052e-10
  9.96591     23.3 1.098e+04 3.581e-10
  9.97825     23.9 1.114e+04 4.449e-10
  9.98805     23.7 1.130e+04 4.824e-10
 10.00500     24.5 1.154e+04 6.259e-10
 10.02460     25.3 1.182e+04 7.923e-10
 10.04419     26.0 1.219e+04 9.876e-10
 10.06379     26.4 1.268e+04 1.237e-09
 10.08339     26.1 1.338e+04 1.606e-09
 10.10298     24.9 1.465e+04 2.366e-09
 10.12258     22.8 1.591e+04 3.899e-09
 10.14217     21.8 1.648e+04 6.158e-09
 10.16177     22.4 1.684e+04 8.498e-09
 10.18137     23.3 1.685e+04 9.022e-09
 10.20096     24.4 1.669e+04 7.812e-09
 10.22056     24.6 1.648e+04 5.124e-09
 10.23265     23.8 1.580e+04 2.747e-09
 10.24245     22.8 1.587e+04 2.787e-09
 10.25975     19.9 1.420e+04 1.471e-09
 10.27935     18.1 1.276e+04 1.209e-09
 10.29895     17.0 1.219e+04 1.081e-09
 10.32844     15.3 1.177e+04 1.038e-09
 10.36773     15.3 1.152e+04 9.349e-10
 10.40692     15.7 1.144e+04 8.446e-10
 10.44611     16.4 1.124e+04 6.987e-10
 10.48531     17.2 1.081e+04 5.053e-10
 10.52450     17.8 1.032e+04 3.766e-10
 10.56369     18.5 9.905e+03 3.300e-10
 10.60288     19.6 9.673e+03 3.290e-10
 10.64208     21.2 9.518e+03 3.292e-10
 10.68127     23.0 9.386e+03 3.165e-10
 10.72046     24.9 9.363e+03 3.026e-10
 10.74164     26.0 9.425e+03 3.049e-10
 10.76123     25.1 9.601e+03 3.195e-10
 10.78895     25.5 9.799e+03 3.442e-10
 10.80845     25.8 1.006e+04 4.313e-10
 10.82805     26.3 1.042e+04 5.738e-10
 10.84764     27.0 1.074e+04 7.649e-10
 10.86724     28.0 1.102e+04 9.823e-10
 10.88683     29.2 1.130e+04 1.207e-09
 10.90643     30.3 1.152e+04 1.396e-09
 10.92603     31.3 1.172e+04 1.537e-09
 10.94562     32.3 1.182e+04 1.639e-09
 10.96522     33.1 1.193e+04 1.700e-09
 10.98482     33.8 1.206e+04 1.770e-09
 10.99584     34.3 1.221e+04 1.886e-09
 11.00564     34.1 1.183e+04 1.624e-09
 11.02401     34.5 1.205e+04 1.782e-09
 11.04360     34.8 1.238e+04 2.062e-09
 11.06320     35.2 1.276e+04 2.479e-09
 11.08280     35.7 1.322e+04 3.043e-09
 11.10239     36.2 1.374e+04 3.745e-09
 11.12199     36.6 1.431e+04 4.595e-09
 11.14159     36.8 1.486e+04 5.538e-09
 11.16118     37.0 1.528e+04 6.411e-09
 11.18078     37.1 1.552e+04 6.986e-09
 11.20037     37.2 1.555e+04 7.068e-09
 11.21294     37.2 1.545e+04 6.758e-09
 11.22273     36.3 1.528e+04 5.003e-09
 11.23957     36.1 1.509e+04 4.678e-09
 11.25023     35.7 1.481e+04 4.331e-09
 11.26003     36.0 1.450e+04 3.971e-09
 11.27876     35.8 1.433e+04 3.863e-09
 11.29836     35.8 1.422e+04 3.855e-09
 11.31795     36.0 1.408e+04 3.932e-09
 11.33755     36.5 1.401e+04 3.909e-09
 11.35714     37.2 1.391e+04 3.799e-09
 11.37674     37.9 1.375e+04 3.562e-09
 11.39634     38.7 1.354e+04 3.222e-09
 11.41593     39.5 1.328e+04 2.803e-09
 11.43553     40.2 1.294e+04 2.357e-09
 11.45513     41.0 1.258e+04 1.955e-09
 11.47472     41.7 1.228e+04 1.653e-09
 11.49432     42.4 1.210e+04 1.443e-09
 11.50463     42.9 1.199e+04 1.321e-09
 11.51443     43.1 1.179e+04 1.165e-09
 11.53351     43.7 1.176e+04 1.147e-09
 11.55311     44.3 1.182e+04 1.174e-09
 11.57270     44.7 1.194e+04 1.279e-09
 11.59230     45.0 1.202e+04 1.472e-09
 11.61190     45.6 1.212e+04 1.767e-09
 11.63149     46.5 1.230e+04 2.123e-09
 11.65109     47.5 1.254e+04 2.451e-09
 11.67069     48.5 1.283e+04 2.702e-09
 11.69028     49.5 1.319e+04 2.773e-09
 11.70988     50.2 1.337e+04 2.701e-09
 11.72947     50.7 1.370e+04 2.416e-09
 11.74907     50.8 1.384e+04 2.025e-09
 11.75903     50.7 1.372e+04 1.661e-09
 11.76882     50.7 1.309e+04 1.152e-09
 11.78826     50.7 1.265e+04 9.997e-10
 11.80786     50.7 1.216e+04 9.008e-10
 11.82746     51.1 1.178e+04 8.407e-10
 11.84705     51.6 1.156e+04 8.076e-10
 11.86665     52.2 1.141e+04 7.824e-10
 11.88624     52.9 1.128e+04 7.535e-10
 11.90584     53.6 1.115e+04 7.148e-10
 11.92544     54.4 1.103e+04 6.709e-10
 11.94041     55.1 1.090e+04 6.318e-10
 11.95021     54.9 1.054e+04 5.425e-10
 11.96463     55.6 1.056e+04 5.459e-10
 11.98423     56.3 1.062e+04 5.542e-10
 12.00362     56.9 1.072e+04 5.730e-10
 12.01342     57.8 1.062e+04 5.462e-10
 12.02342     58.3 1.079e+04 5.890e-10
 12.04302     58.6 1.104e+04 6.604e-10
 12.06261     58.7 1.133e+04 7.620e-10
 12.08221     58.5 1.171e+04 9.114e-10
 12.10180     58.1 1.216e+04 1.136e-09
 12.12140     57.7 1.258e+04 1.441e-09
 12.14100     57.5 1.292e+04 1.767e-09
 12.16059     57.2 1.320e+04 1.969e-09
 12.18019     56.5 1.349e+04 2.029e-09
 12.19979     55.3 1.374e+04 2.063e-09
 12.21938     53.6 1.401e+04 2.141e-09
 12.23898     52.0 1.377e+04 2.264e-09
 12.25802     51.4 1.359e+04 2.262e-09
 12.26782     52.7 1.311e+04 1.845e-09
 12.27817     52.8 1.288e+04 1.817e-09
 12.29777     53.0 1.272e+04 1.719e-09
 12.31736     53.0 1.268e+04 1.517e-09
 12.33696     52.9 1.265e+04 1.403e-09
 12.36645     53.1 1.251e+04 1.296e-09
 12.40574     52.3 1.223e+04 1.304e-09
 12.44493     51.8 1.219e+04 1.393e-09
 12.48413     52.0 1.227e+04 1.481e-09
 12.52332     52.5 1.208e+04 1.293e-09
 12.56251     52.6 1.141e+04 8.332e-10
 12.59181     52.3 1.122e+04 6.869e-10
 12.61131     51.8 1.105e+04 5.932e-10
 12.63090     51.3 1.071e+04 5.024e-10
 12.65050     51.1 1.055e+04 4.755e-10
 12.66788     50.8 1.070e+04 4.951e-10
 12.67768     49.3 1.103e+04 5.659e-10
 12.68969     45.8 1.268e+04 8.483e-10
 12.70929     39.2 1.509e+04 2.331e-09
 12.72889     37.4 1.634e+04 5.940e-09
 12.74848     37.3 1.714e+04 8.711e-09
 12.76681     36.2 1.736e+04 8.380e-09
 12.77661     36.8 1.736e+04 8.080e-09
 12.78767     34.5 1.740e+04 5.903e-09
 12.80727     30.1 1.621e+04 2.843e-09
 12.82687     23.4 1.352e+04 1.293e-09
 12.84646     18.3 1.149e+04 7.463e-10
 12.86606     15.3 1.167e+04 7.461e-10
 12.88566     12.8 1.175e+04 7.771e-10
 12.90525     10.3 1.199e+04 9.211e-10
 12.92485      8.6 1.189e+04 1.001e-09
 12.94444      6.9 1.221e+04 1.074e-09
 12.96404      4.2 1.251e+04 1.029e-09
 12.98364      0.4 1.245e+04 9.301e-10
 13.00323     -4.2 1.206e+04 8.892e-10
 13.02121     -9.2 1.229e+04 1.010e-09
 13.03100     -8.5 1.243e+04 1.094e-09
 13.04243    -12.9 1.283e+04 1.340e-09
 13.06202    -16.6 1.312e+04 1.601e-09
 13.08162    -20.0 1.340e+04 1.860e-09
 13.10121    -24.2 1.375e+04 2.088e-09
 13.12081    -29.2 1.467e+04 2.310e-09
 13.14041    -36.8 1.485e+04 2.274e-09
 13.16000    -43.2 1.444e+04 2.234e-09
 13.17960    -48.2 1.375e+04 2.046e-09
 13.19920    -51.5 1.323e+04 1.708e-09
 13.22869    -54.0 1.254e+04 1.278e-09
 13.26600    -60.3 1.118e+04 7.212e-10
 13.28560    -65.8 1.099e+04 6.089e-10
 13.30717    -70.0 9.804e+03 4.112e-10
 13.34636    -71.0 9.477e+03 3.567e-10
 13.38556    -71.2 9.188e+03 3.062e-10
 13.42475    -70.4 8.831e+03 2.420e-10
 13.46394    -69.5 8.551e+03 1.888e-10
 13.50313    -68.9 8.413e+03 1.613e-10
 13.54233    -68.9 8.395e+03 1.546e-10
 13.58152    -70.1 8.696e+03 1.609e-10
 13.62071    -73.5 1.099e+04 3.812e-10
 13.65001    -76.4 1.253e+04 1.064e-09
 13.66951    -77.7 1.441e+04 1.922e-09
 13.68910    -79.5 1.619e+04 3.411e-09
 13.70870    -81.1 1.736e+04 5.544e-09
 13.72830    -82.3 1.776e+04 7.397e-09
 13.74789    -83.4 1.777e+04 7.975e-09
 13.76749    -84.2 1.742e+04 7.712e-09
 13.78439    -84.6 1.638e+04 6.259e-09
 13.79419    -86.1 1.553e+04 5.535e-09
 13.80668    -85.9 1.475e+04 3.940e-09
 13.82628    -86.0 1.414e+04 2.970e-09
 13.84587    -87.2 1.480e+04 2.203e-09
 13.86547    -90.1 2.294e+04 1.434e-09
 13.88507    -94.2 3.575e+04 1.454e-09
 13.90466    -97.3 3.689e+04 3.555e-09
 13.91644    -95.6 3.714e+04 3.893e-09
 13.92129    -99.0 3.176e+04 1.185e-08
 13.92906    -98.9 2.935e+04 2.051e-08
 13.93886    -98.9 2.625e+04 3.647e-08
 13.94866    -97.7 2.440e+04 5.504e-08
 13.95845    -96.1 2.306e+04 7.517e-08
 13.96825    -94.2 2.296e+04 9.025e-08
 13.97805    -93.1 2.390e+04 1.077e-07
 13.98785    -93.8 2.531e+04 1.754e-07
 13.99765    -97.5 2.386e+04 5.427e-07
 14.00497   -101.3 2.161e+04 2.131e-06
 14.00985   -106.3 2.076e+04 3.258e-06
 14.01475   -113.0 2.074e+04 3.203e-06
 14.01964   -118.4 2.048e+04 3.216e-06
 14.02454   -121.6 2.012e+04 3.329e-06
 14.02944   -123.3 2.118e+04 1.792e-06
 14.03434   -124.4 2.370e+04 5.882e-07
 14.03924   -125.0 2.509e+04 2.726e-07
 14.04357   -124.2 2.464e+04 2.154e-07
 14.04849   -125.1 2.662e+04 3.467e-08
 14.05644   -125.4 2.200e+04 9.566e-09
 14.06623   -130.0 1.718e+04 1.582e-09
 14.07603   -134.9 1.413e+04 8.663e-10
 14.08583   -135.6 1.297e+04 7.878e-10
 14.10058   -135.6 1.225e+04 8.157e-10
 14.12022   -135.5 1.246e+04 1.063e-09
 14.13262   -136.1 1.309e+04 1.384e-09
 14.13747   -136.9 1.396e+04 1.763e-09
 14.14462   -137.6 1.468e+04 2.009e-09
 14.15442   -139.0 1.601e+04 2.589e-09
 14.16422   -140.3 1.748e+04 3.389e-09
 14.17079   -141.9 1.891e+04 4.782e-09
 14.17569   -140.7 1.618e+04 3.060e-09
 14.18381   -141.7 1.723e+04 3.898e-09
 14.19361   -142.9 1.808e+04 5.207e-09
 14.20341   -143.8 1.864e+04 6.732e-09
 14.21321   -144.5 1.900e+04 8.475e-09
 14.22300   -145.0 1.925e+04 9.987e-09
 14.23280   -145.5 1.939e+04 1.111e-08
 14.24260   -146.1 1.939e+04 1.152e-08
 14.25240   -146.6 1.935e+04 1.155e-08
 14.26220   -147.2 1.929e+04 1.161e-08
 14.27694   -147.7 1.926e+04 1.215e-08
 14.29319   -148.5 1.928e+04 1.171e-08
 14.30298   -148.6 1.789e+04 7.118e-09
 14.31618   -150.7 1.833e+04 7.403e-09
 14.33578   -153.3 1.886e+04 8.581e-09
 14.35538   -155.3 1.912e+04 1.002e-08
 14.37003   -156.3 1.926e+04 1.135e-08
 14.37978   -157.9 1.990e+04 1.424e-08
 14.38957   -159.8 2.064e+04 1.946e-08
 14.39937   -161.5 2.127e+04 2.670e-08
 14.40917   -162.8 2.172e+04 3.418e-08
 14.41897   -163.9 2.202e+04 3.957e-08
 14.42518   -164.8 2.213e+04 4.139e-08
 14.43008   -164.3 2.124e+04 2.751e-08
 14.43856   -165.1 2.132e+04 2.835e-08
 14.44836   -165.6 2.131e+04 2.629e-08
 14.45816   -166.1 2.120e+04 2.063e-08
 14.46796   -167.0 2.100e+04 1.424e-08
 14.47776   -168.5 1.987e+04 9.268e-09
 14.48755   -170.3 1.842e+04 6.140e-09
 14.49626   -171.5 1.715e+04 4.445e-09
 14.50116   -171.7 1.677e+04 4.238e-09
 14.51210   -172.0 1.630e+04 3.305e-09
 14.53174   -172.2 1.520e+04 1.802e-09
 14.54758   -173.4 1.400e+04 8.940e-10
 14.55738   -172.5 1.435e+04 1.500e-09
 14.57094   -173.1 1.349e+04 9.059e-10
 14.59053   -173.4 1.290e+04 6.123e-10
 14.61013   -174.1 1.275e+04 5.102e-10
 14.62973   -176.8 1.393e+04 4.899e-10
 14.64932   -181.8 1.622e+04 9.837e-10
 14.66892   -186.3 1.719e+04 2.558e-09
 14.68851   -189.1 1.768e+04 5.187e-09
 14.70811   -190.5 1.788e+04 7.044e-09
 14.72276   -191.2 1.783e+04 7.208e-09
 14.73251   -191.9 1.785e+04 7.195e-09
 14.74231   -193.3 1.755e+04 6.226e-09
 14.75210   -194.6 1.698e+04 4.644e-09
 14.76685   -196.2 1.628e+04 3.262e-09
 14.78650   -198.9 1.513e+04 1.634e-09
 14.80198   -203.1 1.296e+04 5.760e-10
 14.81178   -201.4 1.406e+04 8.848e-10
 14.82569   -205.5 1.167e+04 3.133e-10
 14.84528   -207.1 1.046e+04 1.986e-10
 14.87478   -207.6 1.016e+04 1.638e-10
 14.91407   -206.6 9.907e+03 1.379e-10
 14.95326   -203.5 9.590e+03 1.150e-10
 14.99245   -200.8 9.495e+03 1.087e-10
 15.03164   -198.3 9.504e+03 1.082e-10
 15.07084   -195.9 9.553e+03 1.111e-10
 15.11003   -193.7 9.572e+03 1.179e-10
 15.14922   -191.6 9.559e+03 1.230e-10
 15.18842   -189.4 9.546e+03 1.243e-10
 15.22761   -187.1 9.487e+03 1.234e-10
 15.26680   -184.8 9.389e+03 1.157e-10
 15.30117   -182.4 9.303e+03 1.058e-10
 15.32076   -182.3 9.210e+03 9.083e-11
 15.34519   -179.9 9.139e+03 8.399e-11
 15.38438   -177.4 9.090e+03 8.086e-11
 15.42357   -174.9 9.075e+03 8.029e-11
 15.46276   -172.5 9.066e+03 8.065e-11
 15.50196   -170.2 9.074e+03 8.842e-11
 15.54115   -167.9 9.155e+03 1.056e-10
 15.57796   -165.7 9.272e+03 1.280e-10
 15.59756   -166.1 9.480e+03 1.569e-10
 15.61953   -164.1 9.592e+03 1.720e-10
 15.65873   -162.3 9.686e+03 1.820e-10
 15.69792   -160.8 9.722e+03 1.848e-10
 15.73711   -159.5 9.726e+03 1.846e-10
 15.77630   -158.4 9.713e+03 1.826e-10
 15.80996   -157.6 9.706e+03 1.823e-10
 15.82955   -158.1 9.700e+03 1.790e-10
 15.85469   -157.9 9.893e+03 1.921e-10
 15.88399   -157.1 1.017e+04 2.066e-10
 15.90348   -157.4 1.039e+04 2.166e-10
 15.92308   -158.0 1.092e+04 2.679e-10
 15.94268   -159.2 1.141e+04 3.858e-10
 15.96227   -159.8 1.170e+04 5.949e-10
 15.98187   -159.9 1.187e+04 8.469e-10
 16.00147   -159.8 1.198e+04 1.063e-09
 16.02106   -159.5 1.206e+04 1.170e-09
 16.04066   -159.2 1.209e+04 1.189e-09
 16.06025   -159.1 1.212e+04 1.172e-09
 16.07396   -159.2 1.218e+04 1.157e-09
 16.08375   -158.5 1.179e+04 9.495e-10
 16.09945   -158.6 1.186e+04 9.383e-10
 16.11904   -159.0 1.208e+04 9.414e-10
 16.13864   -159.5 1.240e+04 1.063e-09
 16.15824   -159.7 1.266e+04 1.348e-09
 16.17783   -159.7 1.295e+04 1.736e-09
 16.19743   -159.4 1.323e+04 2.114e-09
 16.21703   -159.0 1.347e+04 2.326e-09
 16.23662   -158.7 1.357e+04 2.363e-09
 16.25622   -158.6 1.362e+04 2.275e-09
 16.27581   -158.5 1.356e+04 1.993e-09
 16.29541   -158.6 1.336e+04 1.617e-09
 16.31501   -158.8 1.303e+04 1.287e-09
 16.32835   -160.0 1.283e+04 1.353e-09
 16.33815   -158.3 1.352e+04 1.763e-09
 16.35420   -158.7 1.296e+04 1.456e-09
 16.37380   -159.1 1.263e+04 1.367e-09
 16.39339   -159.3 1.235e+04 1.417e-09
 16.41299   -159.2 1.237e+04 1.506e-09
 16.43258   -159.1 1.243e+04 1.540e-09
 16.45218   -158.9 1.243e+04 1.545e-09
 16.47178   -158.6 1.231e+04 1.518e-09
 16.49137   -158.3 1.209e+04 1.349e-09
 16.51097   -158.2 1.183e+04 1.122e-09
 16.53057   -158.2 1.155e+04 9.373e-10
 16.56006   -157.8 1.130e+04 7.927e-10
 16.59935   -156.3 1.073e+04 5.836e-10
 16.63854   -154.1 1.012e+04 4.029e-10
 16.67773   -152.0 9.630e+03 2.753e-10
 16.71693   -150.0 9.455e+03 2.082e-10
 16.75612   -148.0 9.402e+03 1.688e-10
 16.79531   -145.9 9.371e+03 1.436e-10
 16.82754   -143.9 9.342e+03 1.281e-10
 16.84714   -143.7 9.421e+03 1.433e-10
 16.87370   -141.8 9.426e+03 1.307e-10
 16.91289   -139.8 9.449e+03 1.257e-10
 16.95208   -138.0 9.460e+03 1.251e-10
 16.99127   -136.2 9.544e+03 1.329e-10
 17.03047   -134.5 9.610e+03 1.563e-10
 17.05250   -132.7 9.668e+03 1.843e-10
 17.07210   -133.4 9.707e+03 1.934e-10
 17.10885   -131.6 9.731e+03 2.039e-10
 17.14804   -129.8 9.733e+03 2.052e-10
 17.18724   -128.0 9.730e+03 1.988e-10
 17.22643   -126.2 9.739e+03 1.909e-10
 17.26562   -124.5 9.758e+03 1.880e-10
 17.30481   -122.9 9.857e+03 1.972e-10
 17.33633   -121.5 1.000e+04 2.253e-10
 17.35593   -120.9 9.847e+03 1.789e-10
 17.38320   -119.4 9.972e+03 2.067e-10
 17.42239   -118.0 1.011e+04 2.387e-10
 17.46158   -116.6 1.022e+04 2.631e-10
 17.50078   -115.3 1.027e+04 2.720e-10
 17.53997   -113.9 1.028e+04 2.730e-10
 17.57916   -112.2 1.026e+04 2.535e-10
 17.61836   -110.3 1.022e+04 2.174e-10
 17.65755   -108.3 1.020e+04 1.811e-10
 17.69674   -106.2 1.019e+04 1.520e-10
 17.73593   -104.1 1.023e+04 1.343e-10
 17.77513   -101.9 1.026e+04 1.289e-10
 17.81432    -99.8 1.027e+04 1.286e-10
 17.84512    -98.0 1.053e+04 1.367e-10
 17.86472    -96.8 1.045e+04 1.287e-10
 17.89270    -95.2 1.067e+04 1.597e-10
 17.93190    -93.5 1.079e+04 2.338e-10
 17.97109    -91.8 1.100e+04 3.471e-10
 18.01028    -90.0 1.128e+04 4.727e-10
 18.04947    -88.3 1.151e+04 5.410e-10
 18.08867    -86.7 1.159e+04 5.617e-10
 18.12786    -85.1 1.163e+04 5.226e-10
 18.16705    -83.4 1.159e+04 4.219e-10
 18.20624    -81.8 1.152e+04 3.243e-10
 18.24544    -80.3 1.145e+04 2.596e-10
 18.28463    -78.6 1.135e+04 2.297e-10
 18.32382    -76.8 1.128e+04 2.224e-10
 18.35392    -74.8 1.123e+04 2.256e-10
 18.37351    -74.1 1.128e+04 2.246e-10
 18.40221    -72.0 1.123e+04 2.158e-10
 18.44140    -69.8 1.115e+04 2.033e-10
 18.48059    -67.4 1.112e+04 1.891e-10
 18.50744    -65.1 1.110e+04 1.744e-10
 18.52704    -65.3 1.116e+04 1.838e-10
 18.55898    -63.1 1.117e+04 1.849e-10
 18.59817    -60.9 1.119e+04 1.902e-10
 18.63736    -58.6 1.121e+04 1.928e-10
 18.67655    -56.5 1.122e+04 1.876e-10
 18.71575    -54.4 1.123e+04 1.709e-10
 18.75494    -52.4 1.125e+04 1.584e-10
 18.79413    -50.4 1.121e+04 1.557e-10
 18.83333    -48.3 1.117e+04 1.588e-10
 18.86271    -46.1 1.112e+04 1.638e-10
 18.88230    -45.9 1.117e+04 1.804e-10
 18.91171    -43.5 1.112e+04 1.782e-10
 18.95090    -41.1 1.104e+04 1.647e-10
 18.99010    -38.8 1.100e+04 1.475e-10
 19.02929    -36.6 1.095e+04 1.372e-10
 19.06848    -34.5 1.089e+04 1.359e-10
 19.10767    -32.4 1.070e+04 1.496e-10
 19.14687    -30.0 1.049e+04 1.712e-10
 19.18606    -27.5 1.040e+04 1.813e-10
 19.22525    -25.0 1.036e+04 1.776e-10
 19.26444    -23.0 1.046e+04 1.623e-10
 19.30364    -21.7 1.052e+04 1.609e-10
 19.34283    -20.4 1.036e+04 1.951e-10
 19.37150    -18.1 1.022e+04 2.499e-10
 19.39110    -17.6 1.020e+04 2.506e-10
 19.42121    -15.6 1.008e+04 2.552e-10
 19.46041    -13.0 9.924e+03 1.999e-10
 19.49960    -11.0 9.876e+03 1.312e-10
 19.53879     -9.9 9.937e+03 9.054e-11
 19.57798     -9.1 9.718e+03 8.493e-11
 19.61718     -9.1 9.946e+03 9.773e-11
 19.65637     -9.9 1.031e+04 1.859e-10
 19.69556     -9.5 1.059e+04 4.545e-10
 19.73475     -9.1 1.088e+04 6.958e-10
 19.77395     -9.2 1.091e+04 7.248e-10
 19.81314     -9.6 1.062e+04 6.484e-10
 19.85233     -9.6 1.012e+04 5.152e-10
 19.88029     -9.0 9.551e+03 3.147e-10
 19.89989     -8.8 9.359e+03 2.593e-10
 19.93072     -8.2 9.091e+03 1.448e-10
 19.96239     -8.6 8.994e+03 9.075e-11
 19.98198     -8.2 9.020e+03 9.085e-11
 20.00910     -8.4 8.738e+03 8.138e-11
 20.04830     -8.4 8.776e+03 9.561e-11
 20.08749     -7.7 8.787e+03 1.385e-10
 20.12668     -6.0 8.940e+03 1.974e-10
 20.16587     -4.5 9.146e+03 2.244e-10
 20.20507     -3.4 9.306e+03 2.358e-10
 20.24426     -2.6 9.431e+03 2.433e-10
 20.28345     -1.8 9.487e+03 2.609e-10
 20.32264     -0.9 9.569e+03 2.760e-10
 20.36184     -0.2 9.746e+03 3.220e-10
 20.38908      0.6 9.938e+03 4.060e-10
 20.40868      1.0 9.936e+03 4.358e-10
 20.44022      2.2 1.011e+04 5.241e-10
 20.47941      3.7 1.015e+04 5.975e-10
 20.51861      5.5 1.021e+04 6.282e-10
 20.55780      7.3 1.026e+04 6.278e-10
 20.59699      8.8 1.029e+04 5.809e-10
 20.63618     10.0 1.035e+04 5.845e-10
 20.67538     10.7 1.054e+04 6.165e-10
 20.71457     11.2 1.060e+04 5.952e-10
 20.75376     11.4 1.060e+04 5.383e-10
 20.79295     11.4 1.072e+04 5.166e-10
 20.83215     11.1 1.089e+04 5.525e-10
 20.87134     10.9 1.106e+04 6.369e-10
 20.89787     11.1 1.106e+04 7.053e-10
 20.91747     11.0 1.108e+04 7.377e-10
 20.94972     11.4 1.090e+04 6.831e-10
 20.98892     12.1 1.063e+04 5.743e-10
 21.02811     12.9 1.035e+04 4.492e-10
 21.06730     13.9 1.011e+04 3.530e-10
 21.10649     15.0 9.945e+03 2.868e-10
 21.14569     16.2 9.841e+03 2.423e-10
 21.18488     17.4 9.774e+03 2.111e-10
 21.22407     18.5 9.793e+03 2.052e-10
 21.26327     19.2 9.886e+03 2.182e-10
 21.30246     19.6 1.016e+04 2.777e-10
 21.34165     20.0 1.064e+04 3.949e-10
 21.38084     20.6 1.091e+04 4.646e-10
 21.40667     21.1 1.091e+04 4.319e-10
 21.42356     21.1 1.103e+04 5.540e-10
 21.43693     20.1 1.118e+04 6.581e-10
 21.45923     20.6 1.082e+04 4.938e-10
 21.49842     21.0 1.042e+04 3.525e-10
 21.53761     21.5 1.004e+04 2.839e-10
 21.57681     22.4 9.785e+03 2.575e-10
 21.61600     23.6 9.737e+03 2.509e-10
 21.65519     24.7 9.792e+03 2.552e-10
 21.69438     25.7 9.911e+03 2.625e-10
 21.73358     26.6 1.001e+04 2.738e-10
 21.77277     27.7 1.009e+04 2.832e-10
 21.81196     28.6 1.014e+04 2.829e-10
 21.85115     29.4 1.023e+04 2.806e-10
 21.89035     29.7 1.034e+04 3.028e-10
 21.91546     30.0 1.045e+04 3.537e-10
 21.93505     31.0 1.045e+04 3.491e-10
 21.96873     31.4 1.049e+04 3.940e-10
 22.00792     32.0 1.041e+04 4.008e-10
 22.04712     32.8 1.032e+04 3.715e-10
 22.08631     33.5 1.020e+04 3.264e-10
 22.12550     34.1 1.007e+04 2.915e-10
 22.16469     34.9 1.002e+04 2.878e-10
 22.20389     35.9 1.003e+04 2.983e-10
 22.24308     36.9 1.008e+04 3.239e-10
 22.28227     38.2 1.011e+04 3.476e-10
 22.32146     39.6 1.013e+04 3.666e-10
 22.36066     41.1 1.031e+04 3.961e-10
 22.38995     41.5 1.043e+04 4.250e-10
 22.40945     41.9 1.060e+04 4.706e-10
 22.42405     42.1 1.086e+04 5.543e-10
 22.43385     42.0 1.087e+04 5.650e-10
 22.44865     42.0 1.118e+04 6.869e-10
 22.46824     41.9 1.158e+04 8.769e-10
 22.48784     41.4 1.209e+04 1.189e-09
 22.50743     40.4 1.273e+04 1.714e-09
 22.52703     39.5 1.339e+04 2.502e-09
 22.54663     39.1 1.388e+04 3.312e-09
 22.56622     38.6 1.395e+04 3.410e-09
 22.58582     38.4 1.377e+04 3.178e-09
 22.60542     38.2 1.326e+04 2.389e-09
 22.62501     37.4 1.262e+04 1.475e-09
 22.64461     35.5 1.194e+04 8.110e-10
 22.66420     32.7 1.124e+04 4.468e-10
 22.67845     30.2 1.052e+04 2.956e-10
 22.68825     31.0 1.063e+04 3.226e-10
 22.71329     28.7 1.029e+04 2.644e-10
 22.75258     26.6 1.030e+04 2.779e-10
 22.79178     25.0 1.038e+04 3.605e-10
 22.83097     24.0 1.045e+04 4.181e-10
 22.87016     23.4 1.038e+04 3.808e-10
 22.89187     22.3 1.017e+04 2.807e-10
 22.91147     22.2 1.017e+04 2.717e-10
 22.93304     20.6 1.006e+04 2.371e-10
 22.95264     22.4 1.005e+04 2.343e-10
 22.98774     20.1 1.023e+04 2.620e-10
 23.02693     17.8 1.086e+04 4.609e-10
 23.06612     16.4 1.137e+04 7.721e-10
 23.10532     16.1 1.127e+04 7.571e-10
 23.14451     16.6 1.080e+04 5.447e-10
 23.18370     16.6 1.032e+04 3.001e-10
 23.22289     16.0 9.935e+03 1.861e-10
 23.26209     15.9 9.910e+03 1.874e-10
 23.30128     16.1 1.006e+04 2.413e-10
 23.34047     16.8 1.035e+04 3.413e-10
 23.37966     17.4 1.061e+04 3.802e-10
 23.41886     17.9 1.063e+04 3.479e-10
 23.44183     18.2 1.059e+04 2.850e-10
 23.46143     18.4 1.057e+04 2.802e-10
 23.49724     18.4 1.035e+04 2.299e-10
 23.53643     18.6 1.009e+04 2.182e-10
 23.57563     19.3 1.005e+04 2.198e-10
 23.61482     20.3 1.007e+04 2.322e-10
 23.65401     21.3 1.016e+04 2.445e-10
 23.69321     22.4 1.028e+04 2.549e-10
 23.73240     22.5 1.066e+04 3.023e-10
 23.77159     22.5 1.137e+04 4.986e-10
 23.81078     22.5 1.208e+04 8.216e-10
 23.84008     22.2 1.262e+04 1.007e-09
 23.85958     21.5 1.310e+04 1.301e-09
 23.87917     21.0 1.361e+04 1.738e-09
 23.89877     20.8 1.396e+04 2.198e-09
 23.91837     20.8 1.412e+04 2.546e-09
 23.93796     20.9 1.415e+04 2.731e-09
 23.95043     20.9 1.412e+04 2.820e-09
 23.96023     21.1 1.435e+04 3.192e-09
 23.97716     21.2 1.424e+04 3.072e-09
 23.99675     21.3 1.413e+04 2.937e-09
 24.01635     21.5 1.399e+04 2.760e-09
 24.03594     21.7 1.382e+04 2.529e-09
 24.05554     22.0 1.363e+04 2.313e-09
 24.07514     22.4 1.349e+04 2.035e-09
 24.09473     22.9 1.331e+04 1.812e-09
 24.12423     23.7 1.303e+04 1.463e-09
 24.16352     24.8 1.251e+04 1.182e-09
 24.20271     26.1 1.218e+04 1.040e-09
 24.24190     27.3 1.198e+04 9.823e-10
 24.28109     28.9 1.189e+04 9.285e-10
 24.32029     30.7 1.183e+04 8.427e-10
 24.34672     32.1 1.154e+04 6.710e-10
 24.35642     31.5 1.099e+04 4.599e-10
 24.36908     32.2 1.088e+04 4.144e-10
 24.39857     33.2 1.042e+04 3.444e-10
 24.43786     35.0 1.021e+04 3.166e-10
 24.45942     37.2 9.896e+03 2.636e-10
 24.47901     36.9 9.972e+03 2.702e-10
 24.51625     39.3 9.631e+03 2.082e-10
 24.55544     41.7 9.374e+03 1.586e-10
 24.59463     44.2 9.188e+03 1.254e-10
 24.63383     46.7 9.063e+03 1.056e-10
 24.67302     49.4 8.953e+03 9.619e-11
 24.71221     52.2 8.908e+03 9.487e-11
 24.75140     55.0 8.935e+03 9.815e-11
 24.79060     57.9 8.984e+03 1.075e-10
 24.82979     60.9 9.052e+03 1.219e-10
 24.86898     63.9 9.118e+03 1.413e-10
 24.90818     67.0 9.189e+03 1.642e-10
 24.94737     70.2 9.249e+03 1.916e-10
 24.96821     73.5 9.312e+03 2.232e-10
 24.98780     73.0 9.477e+03 2.498e-10
 25.02575     76.8 9.709e+03 2.935e-10
 25.06495     80.5 1.015e+04 3.633e-10
 25.10414     82.9 1.032e+04 4.099e-10
 25.13343     84.7 1.023e+04 4.192e-10
 25.15293     85.8 1.025e+04 4.448e-10
 25.17253     87.5 1.031e+04 4.910e-10
 25.19213     89.2 1.043e+04 5.480e-10
 25.21172     90.7 1.055e+04 6.025e-10
 25.22241     92.1 1.065e+04 6.489e-10
 25.23221     92.0 1.068e+04 6.511e-10
 25.25091     93.4 1.075e+04 6.869e-10
 25.27051     94.8 1.080e+04 7.177e-10
 25.29011     96.1 1.082e+04 7.408e-10
 25.30970     97.2 1.083e+04 7.605e-10
 25.32930     98.8 1.085e+04 7.839e-10
 25.34890     99.4 1.088e+04 7.972e-10
 25.36849    100.9 1.089e+04 8.127e-10
 25.38809    101.9 1.091e+04 8.270e-10
 25.40769    103.3 1.098e+04 8.436e-10
 25.42728    103.9 1.117e+04 9.030e-10
 25.44688    104.5 1.167e+04 1.101e-09
 25.46647    105.0 1.229e+04 1.434e-09
 25.47680    105.5 1.284e+04 1.863e-09
 25.48660    104.2 1.449e+04 3.423e-09
 25.50567    104.9 1.511e+04 4.295e-09
 25.52526    105.5 1.566e+04 5.102e-09
 25.54486    106.2 1.602e+04 5.742e-09
 25.56446    106.8 1.625e+04 6.082e-09
 25.57910    107.3 1.636e+04 6.215e-09
 25.58885    107.4 1.655e+04 6.436e-09
 25.59865    107.4 1.673e+04 6.646e-09
 25.60390    107.5 1.680e+04 6.781e-09
 25.60880    106.7 1.725e+04 7.283e-09
 25.62320    106.9 1.712e+04 6.947e-09
 25.64284    106.8 1.734e+04 7.356e-09
 25.66244    106.2 1.748e+04 7.762e-09
 25.68203    105.5 1.756e+04 7.935e-09
 25.70163    104.8 1.770e+04 8.142e-09
 25.72123    104.0 1.807e+04 8.660e-09
 25.73120    103.3 1.863e+04 9.754e-09
 25.74100    100.5 1.908e+04 1.177e-08
 25.76042    100.4 1.923e+04 1.294e-08
 25.78001    100.6 1.938e+04 1.391e-08
 25.79466    101.2 1.949e+04 1.425e-08
 25.80441    101.4 1.960e+04 1.447e-08
 25.81126    101.3 1.988e+04 1.561e-08
 25.81616    101.2 1.952e+04 1.413e-08
 25.82401    101.0 1.993e+04 1.559e-08
 25.83381    100.8 2.028e+04 1.722e-08
 25.84360    100.7 2.046e+04 1.918e-08
 25.85340    100.8 2.039e+04 2.112e-08
 25.86320    100.2 1.952e+04 1.622e-08
 25.87300    100.3 1.952e+04 1.493e-08
 25.88280    100.4 1.952e+04 1.342e-08
 25.89260    100.1 1.952e+04 1.167e-08
 25.90239     99.6 1.941e+04 9.830e-09
 25.91219     98.9 1.913e+04 7.984e-09
 25.92199     98.2 1.862e+04 6.394e-09
 25.93179     97.2 1.791e+04 5.144e-09
 25.94159     96.1 1.693e+04 4.191e-09
 25.95138     94.9 1.588e+04 3.573e-09
 25.96118     93.8 1.498e+04 3.154e-09
 25.97098     92.7 1.473e+04 3.173e-09
 25.98060     92.4 1.462e+04 3.114e-09
 25.98555     91.8 1.443e+04 3.112e-09
 25.99557     90.9 1.440e+04 3.082e-09
 26.01517     89.6 1.415e+04 2.849e-09
 26.03477     88.3 1.384e+04 2.583e-09
 26.05436     87.1 1.340e+04 2.246e-09
 26.07396     85.9 1.296e+04 1.963e-09
 26.09356     84.7 1.274e+04 1.858e-09
 26.11315     83.5 1.276e+04 1.898e-09
 26.13275     82.4 1.291e+04 2.088e-09
 26.15234     81.4 1.321e+04 2.498e-09
 26.17194     80.8 1.359e+04 3.033e-09
 26.19154     80.4 1.380e+04 3.298e-09
 26.21113     80.0 1.379e+04 3.258e-09
 26.23019     79.8 1.358e+04 2.908e-09
 26.23999     80.0 1.339e+04 2.730e-09
 26.25033     79.9 1.295e+04 2.129e-09
 26.26992     79.6 1.239e+04 1.434e-09
 26.28952     78.7 1.173e+04 8.886e-10
 26.30911     77.0 1.105e+04 5.600e-10
 26.32871     75.2 1.052e+04 4.662e-10
 26.34831     74.1 1.049e+04 4.672e-10
 26.36790     73.1 1.053e+04 4.924e-10
 26.38750     72.0 1.079e+04 6.070e-10
 26.40710     71.0 1.118e+04 8.295e-10
 26.42669     70.3 1.156e+04 1.140e-09
 26.44629     69.7 1.192e+04 1.484e-09
 26.46588     69.2 1.227e+04 1.797e-09
 26.48459     68.4 1.267e+04 2.084e-09
 26.49439     68.9 1.230e+04 1.738e-09
 26.50508     67.7 1.269e+04 1.955e-09
 26.52467     66.1 1.319e+04 2.309e-09
 26.53883     64.1 1.379e+04 2.897e-09
 26.54863     64.4 1.331e+04 2.328e-09
 26.56387     62.2 1.394e+04 3.016e-09
 26.58346     60.1 1.460e+04 4.028e-09
 26.60306     58.3 1.514e+04 5.074e-09
 26.62266     56.2 1.527e+04 5.244e-09
 26.64225     54.3 1.510e+04 4.952e-09
 26.66185     52.8 1.448e+04 3.953e-09
 26.68144     51.3 1.365e+04 2.863e-09
 26.70104     49.6 1.277e+04 1.951e-09
 26.72064     47.7 1.190e+04 1.342e-09
 26.73898     46.0 1.113e+04 9.888e-10
 26.74878     46.0 1.065e+04 8.013e-10
 26.75983     44.8 1.019e+04 6.873e-10
 26.77943     44.2 1.005e+04 6.632e-10
 26.79902     44.1 1.008e+04 6.703e-10
 26.81862     44.0 1.014e+04 6.851e-10
 26.83821     44.0 1.022e+04 6.976e-10
 26.85781     44.0 1.022e+04 6.814e-10
 26.87741     43.9 1.015e+04 6.359e-10
 26.90690     43.6 9.824e+03 4.845e-10
 26.94619     43.9 9.424e+03 3.553e-10
 26.98378     44.1 9.235e+03 3.094e-10
 27.00337     44.1 9.512e+03 3.674e-10
 27.02457     44.2 9.604e+03 3.841e-10
 27.06377     44.4 9.859e+03 4.454e-10
 27.09306     44.8 9.952e+03 5.010e-10
 27.11256     45.1 1.004e+04 5.571e-10
 27.13216     45.5 1.014e+04 6.010e-10
 27.15176     46.0 1.025e+04 6.106e-10
 27.17135     46.2 1.034e+04 5.962e-10
 27.19095     46.2 1.040e+04 5.697e-10
 27.21054     46.1 1.038e+04 5.147e-10
 27.23014     46.0 1.031e+04 4.729e-10
 27.24778     45.9 1.020e+04 4.216e-10
 27.25757     45.1 9.924e+03 3.545e-10
 27.26631     45.0 9.826e+03 3.383e-10
 27.27610     45.6 1.015e+04 4.272e-10
 27.28893     45.3 1.004e+04 3.903e-10
 27.30853     45.1 9.936e+03 3.609e-10
 27.32812     44.8 9.949e+03 3.549e-10
 27.34772     44.6 9.956e+03 3.556e-10
 27.36731     44.4 1.001e+04 3.668e-10
 27.38691     44.2 1.007e+04 3.855e-10
 27.40651     44.2 1.015e+04 4.205e-10
 27.42610     44.3 1.026e+04 4.709e-10
 27.44570     44.4 1.038e+04 4.938e-10
 27.46530     44.5 1.039e+04 4.840e-10
 27.48489     44.4 1.038e+04 4.575e-10
 27.50217     44.1 1.029e+04 4.097e-10
 27.51197     42.6 1.006e+04 3.442e-10
 27.52408     41.8 1.010e+04 3.286e-10
 27.54368     41.2 1.007e+04 3.192e-10
 27.56328     40.6 1.004e+04 3.215e-10
 27.58287     39.5 1.017e+04 3.493e-10
 27.60247     38.2 1.042e+04 4.268e-10
 27.62207     37.3 1.059e+04 5.309e-10
 27.64166     36.9 1.068e+04 6.159e-10
 27.66126     36.3 1.080e+04 6.670e-10
 27.68085     34.4 1.119e+04 7.368e-10
 27.70045     29.5 1.247e+04 1.017e-09
 27.72005     24.5 1.334e+04 1.738e-09
 27.73964     21.8 1.296e+04 2.279e-09
 27.75657     20.4 1.275e+04 2.224e-09
 27.76637     19.9 1.266e+04 2.178e-09
 27.77884     18.4 1.235e+04 1.735e-09
 27.79843     14.7 1.210e+04 1.119e-09
 27.81803      9.0 1.122e+04 6.998e-10
 27.83763      4.4 9.965e+03 5.409e-10
 27.85722      2.5 9.502e+03 4.987e-10
 27.87682      1.7 9.506e+03 4.819e-10
 27.89641      1.0 9.626e+03 4.613e-10
 27.91601     -0.9 1.004e+04 4.882e-10
 27.93561     -5.1 1.155e+04 7.176e-10
 27.95520    -10.3 1.348e+04 1.456e-09
 27.97480    -13.5 1.444e+04 2.899e-09
 27.99378    -14.3 1.525e+04 4.955e-09
 28.00358    -13.5 1.524e+04 5.455e-09
 28.01096    -13.3 1.591e+04 6.560e-09
 28.02076    -12.3 1.526e+04 5.429e-09
 28.03359    -12.4 1.578e+04 6.144e-09
 28.05318    -12.8 1.553e+04 5.473e-09
 28.07278    -13.3 1.483e+04 4.399e-09
 28.09238    -13.5 1.388e+04 2.976e-09
 28.11197    -13.6 1.299e+04 1.704e-09
 28.13157    -14.3 1.215e+04 1.108e-09
 28.16106    -14.8 1.146e+04 7.400e-10
 28.20035    -14.7 9.774e+03 3.765e-10
 28.23954    -13.3 9.180e+03 2.521e-10
 28.27874    -11.6 8.961e+03 1.886e-10
 28.31793     -9.9 8.911e+03 1.644e-10
 28.35712     -8.3 8.974e+03 1.699e-10
 28.39631     -7.3 9.234e+03 2.010e-10
 28.43551     -6.3 9.681e+03 2.867e-10
 28.47470     -5.1 9.948e+03 3.650e-10
 28.51015     -3.9 1.012e+04 3.634e-10
 28.52975     -3.0 9.803e+03 2.831e-10
 28.55309     -2.4 1.001e+04 2.322e-10
 28.59228     -1.9 9.919e+03 1.932e-10
 28.63147     -0.9 9.802e+03 1.771e-10
 28.67066     -0.1 9.885e+03 1.950e-10
 28.70986      0.5 1.003e+04 2.522e-10
 28.73124      1.6 1.019e+04 3.456e-10
 28.75084      1.0 1.024e+04 3.574e-10
 28.78824      2.5 1.011e+04 3.661e-10
 28.82743      4.5 9.828e+03 3.096e-10
 28.86663      6.3 9.551e+03 2.121e-10
 28.90582      7.4 9.422e+03 1.435e-10
 28.94501      8.4 9.191e+03 1.179e-10
 28.98420      9.8 9.053e+03 1.179e-10
 29.01894     11.5 8.997e+03 1.238e-10
 29.03854     12.4 9.402e+03 1.662e-10
 29.06259     14.0 9.388e+03 1.859e-10
 29.10178     15.5 9.498e+03 2.230e-10
 29.14097     16.9 9.675e+03 2.727e-10
 29.18017     18.3 9.866e+03 3.385e-10
 29.21936     19.6 1.001e+04 3.703e-10
 29.25855     21.0 1.001e+04 3.566e-10
 29.29774     22.1 9.912e+03 3.103e-10
 29.33694     22.9 9.761e+03 2.635e-10
 29.37613     23.3 9.673e+03 2.431e-10
 29.41532     23.9 9.783e+03 2.687e-10
 29.45451     24.6 1.004e+04 3.367e-10
 29.49371     25.4 1.011e+04 3.835e-10
 29.52773     26.4 1.003e+04 3.703e-10
 29.54733     26.9 1.028e+04 4.622e-10
 29.57209     28.1 1.009e+04 4.123e-10
 29.61128     29.1 9.821e+03 3.238e-10
 29.65048     30.1 9.647e+03 2.788e-10
 29.68967     31.2 9.654e+03 2.853e-10
 29.72886     32.3 9.750e+03 3.335e-10
 29.76806     33.7 9.919e+03 4.067e-10
 29.80725     35.0 9.932e+03 4.118e-10
 29.84644     36.4 9.801e+03 3.758e-10
 29.88563     37.9 9.505e+03 2.801e-10
 29.92483     39.4 9.159e+03 1.840e-10
 29.96402     40.5 8.853e+03 1.241e-10
 30.00321     41.8 8.617e+03 1.066e-10
 30.03653     43.6 8.577e+03 1.065e-10
 30.05612     43.6 8.607e+03 1.079e-10
 30.08160     45.7 8.590e+03 1.100e-10
 30.12079     47.8 8.583e+03 1.165e-10
 30.15998     50.0 8.608e+03 1.255e-10
 30.18619     52.2 8.659e+03 1.343e-10
 30.20578     52.2 8.605e+03 1.212e-10
 30.23837     54.4 8.655e+03 1.228e-10
 30.27756     56.6 8.683e+03 1.223e-10
 30.31675     58.8 8.708e+03 1.209e-10
 30.35594     60.9 8.746e+03 1.184e-10
 30.39514     63.1 8.804e+03 1.174e-10
 30.43433     65.1 8.878e+03 1.193e-10
 30.47352     67.1 8.992e+03 1.262e-10
 30.51271     69.1 9.146e+03 1.460e-10
 30.54532     71.0 9.365e+03 1.904e-10
 30.56491     71.6 9.410e+03 2.048e-10
 30.59110     73.5 9.631e+03 2.648e-10
 30.63029     75.4 9.904e+03 3.534e-10
 30.66948     77.4 1.023e+04 4.687e-10
 30.70868     79.3 1.062e+04 6.027e-10
 30.74787     81.0 1.104e+04 7.429e-10
 30.78706     82.4 1.144e+04 8.888e-10
 30.82625     83.6 1.175e+04 1.028e-09
 30.86545     84.7 1.212e+04 1.222e-09
 30.90464     85.7 1.260e+04 1.501e-09
 30.94383     86.4 1.304e+04 1.757e-09
 30.98303     86.6 1.318e+04 1.877e-09
 31.02222     87.0 1.317e+04 1.867e-09
 31.05411     87.4 1.290e+04 1.532e-09
 31.07361     88.1 1.321e+04 1.861e-09
 31.09061     88.3 1.298e+04 1.571e-09
 31.11021     88.4 1.278e+04 1.365e-09
 31.13970     89.1 1.271e+04 1.191e-09
 31.17899     89.3 1.206e+04 7.418e-10
 31.21818     90.0 1.140e+04 4.692e-10
 31.25737     91.1 1.081e+04 3.447e-10
 31.29657     92.6 1.064e+04 3.360e-10
 31.33576     94.0 1.067e+04 3.694e-10
 31.37495     95.3 1.083e+04 4.553e-10
 31.41414     96.1 1.102e+04 5.679e-10
 31.45334     96.5 1.116e+04 6.808e-10
 31.49253     96.7 1.127e+04 7.119e-10
 31.53172     96.9 1.122e+04 6.899e-10
 31.56102     96.5 1.108e+04 6.188e-10
 31.57250     96.2 1.096e+04 5.737e-10
 31.58230     96.7 1.099e+04 5.744e-10
 31.60011     96.6 1.087e+04 5.175e-10
 31.61971     96.4 1.073e+04 4.502e-10
 31.63931     96.3 1.054e+04 3.840e-10
 31.65073     96.2 1.043e+04 3.555e-10
 31.66063     96.0 1.037e+04 3.426e-10
 31.68849     96.7 1.002e+04 2.829e-10
 31.72768     97.4 9.718e+03 2.395e-10
 31.76688     98.2 9.491e+03 2.065e-10
 31.80607     98.9 9.294e+03 1.792e-10
 31.84526     99.5 9.105e+03 1.637e-10
 31.88445    100.3 9.052e+03 1.631e-10
 31.92365    101.1 9.045e+03 1.665e-10
 31.96284    102.0 9.074e+03 1.797e-10
 32.00203    103.0 9.182e+03 2.020e-10
 32.04122    104.1 9.325e+03 2.297e-10
 32.07169    105.3 9.464e+03 2.593e-10
 32.09129    105.0 9.472e+03 2.568e-10
 32.11961    106.0 9.638e+03 2.888e-10
 32.15880    107.0 9.879e+03 3.248e-10
 32.18810    107.6 9.950e+03 3.473e-10
 32.20760    107.9 1.005e+04 3.726e-10
 32.22719    108.0 1.022e+04 4.215e-10
 32.24679    108.1 1.036e+04 4.910e-10
 32.26639    108.3 1.047e+04 5.640e-10
 32.28598    108.5 1.055e+04 6.275e-10
 32.30558    108.5 1.068e+04 6.882e-10
 32.32518    108.5 1.074e+04 7.295e-10
 32.35467    109.1 1.074e+04 7.408e-10
 32.39396    110.1 1.081e+04 7.754e-10
 32.42325    110.1 1.082e+04 7.729e-10
 32.44275    110.1 1.083e+04 7.567e-10
 32.46235    110.1 1.080e+04 7.191e-10
 32.48195    109.9 1.080e+04 6.861e-10
 32.50154    109.5 1.085e+04 6.875e-10
 32.52114    108.8 1.103e+04 7.346e-10
 32.54073    107.9 1.138e+04 8.888e-10
 32.56033    107.1 1.186e+04 1.183e-09
 32.57993    106.5 1.237e+04 1.616e-09
 32.59009    106.5 1.285e+04 2.108e-09
 32.59989    105.7 1.301e+04 2.219e-09
 32.61912    105.7 1.323e+04 2.352e-09
 32.63872    105.6 1.322e+04 2.327e-09
 32.65831    105.3 1.311e+04 2.177e-09
 32.67791    105.1 1.281e+04 1.904e-09
 32.69751    104.8 1.243e+04 1.625e-09
 32.71710    104.6 1.209e+04 1.439e-09
 32.73670    104.6 1.197e+04 1.397e-09
 32.75629    105.0 1.198e+04 1.404e-09
 32.77589    105.6 1.202e+04 1.447e-09
 32.79549    106.3 1.219e+04 1.561e-09
 32.81508    107.0 1.249e+04 1.782e-09
 32.83468    107.5 1.291e+04 2.147e-09
 32.85428    108.0 1.333e+04 2.692e-09
 32.87387    108.5 1.385e+04 3.471e-09
 32.89347    109.1 1.455e+04 4.615e-09
 32.91306    110.0 1.542e+04 6.324e-09
 32.93266    110.9 1.615e+04 8.276e-09
 32.95226    111.6 1.666e+04 9.418e-09
 32.97185    112.0 1.675e+04 9.411e-09
 32.99145    112.4 1.671e+04 8.926e-09
 33.01105    113.1 1.642e+04 7.646e-09
 33.03064    113.6 1.598e+04 6.181e-09
 33.05024    113.7 1.547e+04 4.957e-09
 33.06983    113.6 1.497e+04 4.201e-09
 33.08908    113.5 1.462e+04 3.810e-09
 33.09888    114.0 1.457e+04 3.812e-09
 33.10568    114.1 1.436e+04 3.660e-09
 33.11547    114.0 1.444e+04 3.850e-09
 33.12862    114.4 1.432e+04 3.767e-09
 33.14822    115.0 1.428e+04 3.750e-09
 33.16782    115.6 1.422e+04 3.777e-09
 33.18741    116.2 1.425e+04 3.879e-09
 33.20701    116.7 1.442e+04 4.118e-09
 33.22661    117.2 1.474e+04 4.571e-09
 33.24620    117.6 1.522e+04 5.305e-09
 33.26580    117.9 1.575e+04 6.304e-09
 33.28539    118.4 1.622e+04 7.386e-09
 33.30499    118.5 1.652e+04 7.859e-09
 33.32459    118.3 1.654e+04 7.783e-09
 33.34348    118.0 1.645e+04 7.160e-09
 33.35327    118.2 1.619e+04 6.354e-09
 33.35883    117.8 1.629e+04 6.253e-09
 33.36858    117.4 1.635e+04 5.934e-09
 33.37838    116.7 1.647e+04 5.752e-09
 33.38818    115.7 1.658e+04 5.779e-09
 33.39797    114.3 1.695e+04 6.040e-09
 33.40777    112.7 1.726e+04 6.567e-09
 33.42252    111.2 1.744e+04 7.506e-09
 33.44216    109.7 1.758e+04 9.062e-09
 33.46176    108.4 1.745e+04 9.290e-09
 33.48136    107.5 1.720e+04 8.850e-09
 33.50095    106.9 1.649e+04 6.945e-09
 33.52055    106.2 1.554e+04 4.122e-09
 33.54015    104.3 1.433e+04 1.909e-09
 33.55974    100.7 1.279e+04 7.866e-10
 33.57934     96.2 1.116e+04 5.397e-10
 33.59787     93.2 1.102e+04 5.499e-10
 33.60767     94.7 1.020e+04 3.529e-10
 33.61853     93.5 1.032e+04 3.802e-10
 33.63813     92.3 1.090e+04 5.050e-10
 33.65772     91.1 1.162e+04 7.928e-10
 33.67732     90.2 1.222e+04 1.229e-09
 33.69692     89.7 1.265e+04 1.706e-09
 33.71651     89.1 1.309e+04 1.925e-09
 33.73611     88.5 1.324e+04 1.893e-09
 33.75570     87.5 1.338e+04 1.758e-09
 33.77530     86.2 1.339e+04 1.488e-09
 33.79490     84.8 1.311e+04 1.255e-09
 33.81449     82.3 1.267e+04 1.126e-09
 33.83315     78.6 1.240e+04 1.155e-09
 33.84295     77.7 1.211e+04 1.091e-09
 33.85227     74.0 1.204e+04 1.405e-09
 33.86207     76.4 1.274e+04 1.506e-09
 33.87328     72.8 1.283e+04 2.221e-09
 33.89288     71.8 1.332e+04 3.112e-09
 33.91248     71.4 1.364e+04 3.405e-09
 33.93207     70.7 1.361e+04 3.318e-09
 33.95167     70.0 1.328e+04 2.729e-09
 33.97126     69.2 1.265e+04 1.984e-09
 34.00076     67.8 1.163e+04 1.151e-09
 34.04005     66.8 1.022e+04 5.638e-10
 34.07924     66.5 9.389e+03 3.371e-10
 34.10686     67.0 9.308e+03 3.049e-10
 34.12646     67.1 9.145e+03 2.659e-10
 34.15762     68.5 9.262e+03 2.942e-10
 34.19682     69.1 9.714e+03 4.044e-10
 34.23601     69.1 1.053e+04 6.387e-10
 34.27520     69.0 1.139e+04 9.415e-10
 34.31439     68.0 1.190e+04 1.075e-09
 34.35359     65.7 1.193e+04 9.904e-10
 34.39278     63.3 1.162e+04 8.302e-10
 34.42208     61.4 1.140e+04 7.792e-10
 34.44158     59.8 1.123e+04 7.653e-10
 34.46117     58.5 1.101e+04 7.388e-10
 34.48077     57.7 1.078e+04 6.896e-10
 34.50036     57.2 1.055e+04 6.131e-10
 34.51996     56.8 1.034e+04 5.229e-10
 34.53956     56.0 1.027e+04 4.312e-10
 34.55915     55.1 1.016e+04 3.617e-10
 34.57042     54.2 1.000e+04 3.231e-10
 34.59011     53.2 9.883e+03 3.124e-10
 34.61565     53.3 9.848e+03 3.138e-10
 34.63525     54.7 9.765e+03 2.937e-10
 34.66713     54.8 9.806e+03 3.124e-10
 34.70632     54.9 9.882e+03 3.440e-10
 34.74551     55.0 9.887e+03 3.753e-10
 34.78471     55.1 9.796e+03 3.993e-10
 34.81400     54.9 9.783e+03 4.282e-10
 34.83350     54.9 9.774e+03 4.436e-10
 34.85310     54.9 9.811e+03 4.770e-10
 34.86985     54.9 9.926e+03 5.270e-10
 34.87965     55.8 9.919e+03 5.147e-10
 34.89229     55.8 1.006e+04 5.726e-10
 34.91189     55.7 1.023e+04 6.365e-10
 34.93148     55.6 1.043e+04 7.043e-10
 34.95108     55.4 1.062e+04 7.766e-10
 34.97067     55.2 1.079e+04 8.460e-10
 34.99027     54.8 1.110e+04 9.398e-10
 35.00987     52.3 1.288e+04 1.390e-09
 35.02946     46.6 1.674e+04 3.831e-09
 35.04411     44.9 1.765e+04 5.932e-09
 35.05386     44.0 1.829e+04 7.732e-09
 35.06366     41.4 2.013e+04 1.306e-08
 35.07346     36.6 2.306e+04 2.913e-08
 35.08326     31.4 2.421e+04 7.439e-08
 35.09305     27.5 2.427e+04 1.433e-07
 35.10285     23.3 2.514e+04 1.631e-07
 35.11265     18.3 2.762e+04 1.050e-07
 35.12245      9.7 3.293e+04 3.045e-08
 35.12905     -5.7 2.791e+04 9.446e-09
 35.13395      2.3 3.398e+04 1.611e-08
 35.14204     -7.7 2.317e+04 7.843e-09
 35.15184    -20.4 1.723e+04 5.773e-09
 35.16659    -27.4 1.618e+04 5.319e-09
 35.18623    -31.5 1.543e+04 4.879e-09
 35.20583    -33.7 1.475e+04 4.630e-09
 35.22543    -34.5 1.423e+04 4.113e-09
 35.24502    -34.8 1.380e+04 3.331e-09
 35.26462    -35.6 1.336e+04 2.500e-09
 35.28422    -37.2 1.264e+04 1.802e-09
 35.29789    -38.7 1.185e+04 1.373e-09
 35.30769    -39.0 1.128e+04 1.078e-09
 35.32341    -39.9 1.110e+04 1.008e-09
 35.34300    -41.7 1.163e+04 1.196e-09
 35.36260    -45.4 1.317e+04 1.990e-09
 35.37864    -49.0 1.510e+04 3.926e-09
 35.38844    -48.9 1.543e+04 3.855e-09
 35.40179    -51.7 1.751e+04 8.494e-09
 35.42139    -53.8 1.911e+04 1.472e-08
 35.44099    -56.4 1.977e+04 1.768e-08
 35.46058    -59.6 1.948e+04 1.576e-08
 35.48018    -63.2 1.759e+04 8.290e-09
 35.49977    -67.3 1.504e+04 4.021e-09
 35.51937    -70.6 1.380e+04 2.443e-09
 35.53897    -73.2 1.335e+04 2.015e-09
 35.55856    -75.1 1.320e+04 1.938e-09
 35.57816    -76.1 1.312e+04 2.049e-09
 35.59776    -76.4 1.334e+04 2.318e-09
 35.61735    -76.6 1.344e+04 2.392e-09
 35.63304    -76.8 1.344e+04 2.273e-09
 35.64284    -76.1 1.357e+04 2.729e-09
 35.65655    -76.7 1.360e+04 2.303e-09
 35.67614    -78.5 1.359e+04 1.865e-09
 35.69574    -81.2 1.348e+04 1.612e-09
 35.71533    -84.0 1.325e+04 1.535e-09
 35.73493    -86.5 1.302e+04 1.529e-09
 35.75453    -88.4 1.298e+04 1.660e-09
 35.77412    -89.7 1.294e+04 1.675e-09
 35.79372    -91.0 1.294e+04 1.634e-09
 35.81332    -92.2 1.295e+04 1.505e-09
 35.83291    -93.6 1.288e+04 1.342e-09
 35.85251    -95.1 1.273e+04 1.208e-09
 35.87210    -96.8 1.257e+04 1.132e-09
 35.88743    -98.4 1.238e+04 1.101e-09
 35.89723    -97.2 1.266e+04 1.164e-09
 35.91130    -98.5 1.240e+04 1.130e-09
 35.93089    -99.5 1.217e+04 1.131e-09
 35.95049   -100.1 1.208e+04 1.183e-09
 35.97009   -100.7 1.237e+04 1.290e-09
 35.98968   -101.6 1.299e+04 1.495e-09
 36.00928   -102.8 1.381e+04 1.917e-09
 36.02536   -104.3 1.459e+04 2.711e-09
 36.03516   -103.7 1.424e+04 2.001e-09
 36.04847   -105.2 1.515e+04 3.172e-09
 36.06807   -106.1 1.580e+04 4.802e-09
 36.08766   -106.6 1.628e+04 6.300e-09
 36.10726   -107.0 1.659e+04 7.132e-09
 36.12686   -107.7 1.669e+04 7.295e-09
 36.14183   -108.8 1.690e+04 6.516e-09
 36.15163   -107.9 1.714e+04 7.199e-09
 36.16605   -109.4 1.738e+04 7.210e-09
 36.18564   -111.5 1.781e+04 6.808e-09
 36.20524   -114.1 1.809e+04 6.410e-09
 36.22484   -117.0 1.818e+04 6.280e-09
 36.24443   -119.9 1.807e+04 6.262e-09
 36.26403   -122.5 1.755e+04 6.256e-09
 36.28363   -124.5 1.690e+04 5.921e-09
 36.30322   -126.0 1.640e+04 4.923e-09
 36.32282   -127.5 1.582e+04 3.493e-09
 36.34242   -129.2 1.494e+04 2.171e-09
 36.36201   -131.3 1.367e+04 1.298e-09
 36.38161   -133.1 1.234e+04 8.669e-10
 36.39623   -133.9 1.159e+04 6.926e-10
 36.40602   -134.0 1.145e+04 6.417e-10
 36.42080   -134.1 1.131e+04 5.818e-10
 36.44040   -133.9 1.129e+04 5.270e-10
 36.45999   -133.6 1.121e+04 4.626e-10
 36.47959   -133.2 1.111e+04 4.105e-10
 36.50908   -132.8 1.099e+04 3.695e-10
 36.54837   -131.8 1.083e+04 3.239e-10
 36.58756   -130.7 1.066e+04 2.832e-10
 36.62676   -129.7 1.053e+04 2.513e-10
 36.65082   -128.6 1.042e+04 2.233e-10
 36.67041   -128.4 1.060e+04 2.844e-10
 36.70514   -127.1 1.044e+04 2.386e-10
 36.74433   -125.6 1.031e+04 1.960e-10
 36.78353   -124.0 1.021e+04 1.633e-10
 36.82272   -122.3 1.013e+04 1.407e-10
 36.86191   -120.5 1.006e+04 1.259e-10
 36.90110   -118.6 9.985e+03 1.155e-10
 36.94030   -116.6 9.914e+03 1.070e-10
 36.97949   -114.6 9.846e+03 9.852e-11
 37.01868   -112.4 9.782e+03 8.930e-11
 37.05788   -110.2 9.722e+03 7.964e-11
 37.09707   -108.1 9.679e+03 6.992e-11
 37.13626   -105.9 9.664e+03 6.134e-11
 37.15961   -103.8 9.670e+03 5.482e-11
 37.17921   -103.6 9.638e+03 5.372e-11
 37.21465   -101.5 9.645e+03 4.839e-11
 37.25384    -99.5 9.652e+03 4.513e-11
 37.29303    -97.5 9.641e+03 4.382e-11
 37.33222    -95.4 9.632e+03 4.362e-11
 37.37142    -93.4 9.634e+03 4.591e-11
 37.41061    -91.4 9.642e+03 5.020e-11
 37.44980    -89.3 9.656e+03 5.633e-11
 37.48050    -87.2 9.702e+03 6.264e-11
 37.50010    -87.2 9.720e+03 6.124e-11
 37.52819    -85.1 9.773e+03 6.537e-11
 37.56738    -83.0 9.825e+03 6.646e-11
 37.60657    -81.0 9.846e+03 6.628e-11
 37.64576    -79.0 9.876e+03 6.392e-11
 37.66840    -77.0 9.850e+03 6.126e-11
 37.68800    -76.9 9.857e+03 7.838e-11
 37.72415    -74.8 9.751e+03 7.492e-11
 37.76334    -72.7 9.626e+03 6.874e-11
 37.80253    -70.5 9.511e+03 6.009e-11
 37.84173    -68.3 9.421e+03 5.065e-11
 37.88092    -66.2 9.355e+03 4.228e-11
 37.92011    -64.0 9.316e+03 3.540e-11
 37.95930    -61.9 9.289e+03 2.974e-11
 37.99850    -59.7 9.260e+03 2.524e-11
 38.03769    -57.5 9.229e+03 2.192e-11
 38.07688    -55.2 9.194e+03 1.979e-11
 38.11607    -52.9 9.159e+03 1.882e-11
 38.15527    -50.6 9.146e+03 1.862e-11
 38.17719    -48.2 9.155e+03 1.863e-11
 38.19679    -47.9 9.143e+03 1.724e-11
 38.23365    -45.8 9.147e+03 1.901e-11
 38.27285    -43.7 9.114e+03 2.277e-11
 38.31204    -41.4 9.093e+03 2.839e-11
 38.35123    -39.3 9.080e+03 3.584e-11
 38.39042    -37.2 9.075e+03 4.442e-11
 38.42962    -35.2 9.096e+03 5.366e-11
 38.46881    -33.2 9.131e+03 6.611e-11
 38.50800    -31.2 9.135e+03 7.946e-11
 38.54719    -29.3 9.135e+03 8.973e-11
 38.58639    -27.5 9.113e+03 9.653e-11
 38.62558    -25.7 9.070e+03 1.023e-10
 38.66477    -23.9 9.063e+03 1.082e-10
 38.68598    -22.2 9.126e+03 1.143e-10
 38.70558    -21.9 9.012e+03 9.561e-11
 38.74316    -20.3 9.042e+03 9.781e-11
 38.78235    -18.7 8.987e+03 1.004e-10
 38.82154    -16.7 8.822e+03 1.027e-10
 38.86073    -14.4 8.683e+03 9.692e-11
 38.89993    -12.4 8.730e+03 7.883e-11
 38.93544    -10.9 8.682e+03 7.116e-11
 38.95504    -11.0 8.682e+03 7.119e-11
 38.97831     -9.2 8.720e+03 7.530e-11
 39.01750     -7.8 8.808e+03 9.779e-11
 39.05670     -6.0 8.958e+03 1.397e-10
 39.09589     -4.4 9.209e+03 2.025e-10
 39.13508     -2.5 9.390e+03 3.017e-10
 39.17427     -0.2 9.590e+03 3.841e-10
 39.19478      1.8 9.639e+03 3.938e-10
 39.21437      2.1 9.762e+03 4.120e-10
 39.25266      4.0 9.766e+03 3.934e-10
 39.29185      5.6 9.793e+03 3.646e-10
 39.33104      7.0 9.833e+03 3.694e-10
 39.37024      8.4 9.963e+03 4.164e-10
 39.39953      9.3 1.010e+04 4.650e-10
 39.41903      9.9 1.024e+04 4.975e-10
 39.43863     10.3 1.040e+04 5.530e-10
 39.44898     11.1 1.061e+04 6.166e-10
 39.45877     11.0 1.075e+04 6.482e-10
 39.47782     11.5 1.097e+04 7.042e-10
 39.49742     11.9 1.110e+04 7.397e-10
 39.51701     11.9 1.123e+04 7.750e-10
 39.53661     11.8 1.129e+04 8.343e-10
 39.55621     11.9 1.131e+04 8.933e-10
 39.57580     12.2 1.133e+04 9.438e-10
 39.59540     12.7 1.135e+04 9.651e-10
 39.61500     13.3 1.135e+04 9.544e-10
 39.63459     13.6 1.134e+04 9.255e-10
 39.65419     13.8 1.131e+04 8.832e-10
 39.67252     14.1 1.120e+04 8.411e-10
 39.68232     15.0 1.084e+04 6.995e-10
 39.69338     15.3 1.085e+04 6.861e-10
 39.70337     15.9 1.088e+04 6.714e-10
 39.71317     15.7 1.065e+04 5.430e-10
 39.73257     16.0 1.072e+04 5.547e-10
 39.75217     16.5 1.083e+04 5.820e-10
 39.77177     16.9 1.090e+04 6.075e-10
 39.79136     17.6 1.105e+04 6.388e-10
 39.81096     18.3 1.113e+04 6.479e-10
 39.83055     19.2 1.111e+04 6.268e-10
 39.85015     19.6 1.112e+04 5.996e-10
 39.86975     19.7 1.103e+04 5.936e-10
 39.88934     19.6 1.107e+04 6.165e-10
 39.90894     19.1 1.132e+04 7.147e-10
 39.92854     17.9 1.188e+04 9.484e-10
 39.94797     16.1 1.292e+04 1.424e-09
 39.95777     16.1 1.299e+04 1.494e-09
 39.96773     14.7 1.406e+04 2.481e-09
 39.98733     14.3 1.465e+04 3.772e-09
 40.00692     15.0 1.506e+04 5.120e-09
 40.02652     15.8 1.547e+04 6.117e-09
 40.04611     16.2 1.586e+04 5.964e-09
 40.06571     15.9 1.581e+04 5.344e-09
 40.08531     15.5 1.562e+04 4.438e-09
 40.10490     15.1 1.535e+04 3.219e-09
 40.12450     14.7 1.479e+04 2.120e-09
 40.14410     14.1 1.360e+04 1.357e-09
 40.16369     13.4 1.277e+04 9.484e-10
 40.19266     10.3 1.056e+04 4.315e-10
 40.21236      9.4 1.057e+04 4.516e-10
 40.23247      7.5 9.767e+03 4.268e-10
 40.27167      7.4 9.793e+03 4.498e-10
 40.31086      8.2 9.573e+03 4.219e-10
 40.35005      9.3 9.303e+03 3.674e-10
 40.38924     10.6 8.894e+03 2.835e-10
 40.40998     11.9 8.503e+03 2.049e-10
 40.42958     12.4 8.522e+03 2.074e-10
 40.46763     13.8 8.186e+03 1.588e-10
 40.50682     15.2 7.927e+03 1.187e-10
 40.54601     16.2 7.814e+03 8.554e-11
 40.58521     16.7 7.905e+03 8.885e-11
 40.62440     16.3 8.236e+03 1.138e-10
 40.66359     16.1 8.743e+03 1.910e-10
 40.70155     16.6 9.271e+03 3.075e-10
 40.72115     16.7 9.290e+03 2.949e-10
 40.74198     17.9 9.846e+03 4.798e-10
 40.78117     19.0 1.035e+04 6.067e-10
 40.82036     19.1 1.087e+04 6.136e-10
 40.85956     17.6 1.186e+04 6.721e-10
 40.88885     14.5 1.244e+04 5.822e-10
 40.90835     11.3 1.385e+04 9.009e-10
 40.92795      9.3 1.536e+04 1.766e-09
 40.94754      9.0 1.574e+04 3.354e-09
 40.96555      9.2 1.597e+04 4.961e-09
 40.97535      9.5 1.594e+04 4.925e-09
 40.98674      9.7 1.596e+04 5.830e-09
 41.00633      9.6 1.583e+04 5.495e-09
 41.02593      9.1 1.550e+04 4.291e-09
 41.04552      7.7 1.481e+04 3.222e-09
 41.06512      5.2 1.472e+04 2.501e-09
 41.08472      1.7 1.469e+04 2.161e-09
 41.10431     -1.1 1.455e+04 2.103e-09
 41.12391     -2.3 1.387e+04 2.319e-09
 41.13726     -2.6 1.322e+04 2.313e-09
 41.14706     -3.6 1.286e+04 1.892e-09
 41.16310     -3.5 1.275e+04 1.981e-09
 41.18270     -3.7 1.260e+04 1.833e-09
 41.20230     -4.3 1.264e+04 1.501e-09
 41.21995     -5.2 1.219e+04 1.127e-09
 41.22975     -4.7 1.204e+04 1.111e-09
 41.24149     -5.7 1.150e+04 8.071e-10
 41.26108     -6.3 1.097e+04 6.153e-10
 41.28068     -6.5 1.066e+04 4.595e-10
 41.30028     -7.0 1.052e+04 3.737e-10
 41.31987     -8.0 1.048e+04 3.382e-10
 41.33947     -9.8 1.090e+04 3.782e-10
 41.35907    -12.1 1.111e+04 5.397e-10
 41.37866    -13.1 1.113e+04 8.313e-10
 41.39826    -13.0 1.140e+04 1.228e-09
 41.41785    -12.2 1.168e+04 1.519e-09
 41.43745    -11.3 1.182e+04 1.578e-09
 41.45705    -10.7 1.162e+04 1.256e-09
 41.47434    -10.6 1.113e+04 8.551e-10
 41.48414    -10.7 1.104e+04 8.489e-10
 41.49624    -11.2 1.055e+04 5.434e-10
 41.51584    -11.9 1.001e+04 3.421e-10
 41.53543    -12.4 9.621e+03 2.503e-10
 41.56492    -12.5 9.379e+03 2.002e-10
 41.60421    -10.8 8.858e+03 1.269e-10
 41.64341     -9.2 8.777e+03 1.010e-10
 41.68260     -7.7 8.773e+03 9.549e-11
 41.71914     -6.0 8.797e+03 1.121e-10
 41.73873     -6.1 8.777e+03 1.138e-10
 41.76098     -3.5 8.859e+03 1.465e-10
 41.80018     -0.8 9.032e+03 1.740e-10
 41.83937      1.3 9.493e+03 2.154e-10
 41.86483      2.4 9.990e+03 3.056e-10
 41.88443      2.3 9.880e+03 2.861e-10
 41.91776      4.8 1.114e+04 7.549e-10
 41.94705      6.1 1.205e+04 1.225e-09
 41.96655      6.7 1.259e+04 1.566e-09
 41.98314      7.6 1.308e+04 2.324e-09
 41.99293      8.2 1.288e+04 2.308e-09
 42.00574      9.6 1.343e+04 2.984e-09
 42.02534     10.2 1.468e+04 4.024e-09
 42.04494     10.0 1.712e+04 6.306e-09
 42.05958      9.0 1.990e+04 1.034e-08
 42.06933      7.8 2.152e+04 1.366e-08
 42.07913      6.9 2.226e+04 2.147e-08
 42.08893      7.2 2.222e+04 2.850e-08
 42.09873      7.2 2.190e+04 3.425e-08
 42.10853      7.0 2.169e+04 3.567e-08
 42.11514      7.6 2.109e+04 3.105e-08
 42.12003      7.3 2.101e+04 2.343e-08
 42.12812      7.5 2.003e+04 1.967e-08
 42.13792      7.7 1.935e+04 1.646e-08
 42.14772      8.1 1.886e+04 1.377e-08
 42.15752      8.7 1.867e+04 1.079e-08
 42.16731      8.9 1.866e+04 8.697e-09
 42.17711      8.5 1.849e+04 6.201e-09
 42.18691      7.3 1.813e+04 5.128e-09
 42.20166      4.9 1.615e+04 2.944e-09
 42.22130      2.6 1.518e+04 2.592e-09
 42.23753      2.4 1.485e+04 2.723e-09
 42.24733      1.6 1.522e+04 2.762e-09
 42.26049      2.1 1.521e+04 3.235e-09
 42.28009      3.1 1.516e+04 3.638e-09
 42.29969      4.2 1.503e+04 3.958e-09
 42.31928      5.5 1.484e+04 4.099e-09
 42.33888      7.0 1.455e+04 3.900e-09
 42.35848      8.4 1.445e+04 3.503e-09
 42.37807      9.3 1.446e+04 2.975e-09
 42.39767      9.9 1.418e+04 2.435e-09
 42.41727     10.3 1.349e+04 1.882e-09
 42.43686     10.6 1.303e+04 1.645e-09
 42.46635     12.5 1.271e+04 1.521e-09
 42.50564     14.6 1.193e+04 1.117e-09
 42.54484     17.0 1.137e+04 7.569e-10
 42.58403     18.7 1.105e+04 5.141e-10
 42.62322     20.1 1.101e+04 4.639e-10
 42.65252     20.7 1.112e+04 4.639e-10
 42.67202     20.8 1.136e+04 5.021e-10
 42.69161     20.7 1.157e+04 6.087e-10
 42.71121     20.8 1.174e+04 7.748e-10
 42.73081     21.0 1.189e+04 9.757e-10
 42.74632     21.6 1.199e+04 1.169e-09
 42.75612     21.3 1.213e+04 1.223e-09
 42.77000     21.8 1.219e+04 1.358e-09
 42.78959     22.4 1.214e+04 1.327e-09
 42.80919     23.1 1.196e+04 1.198e-09
 42.82879     23.8 1.164e+04 9.661e-10
 42.84838     24.5 1.132e+04 7.302e-10
 42.86798     24.5 1.111e+04 5.428e-10
 42.88758     24.4 1.092e+04 4.039e-10
 42.90717     24.2 1.078e+04 3.498e-10
 42.92677     24.2 1.055e+04 3.334e-10
 42.94637     24.5 1.058e+04 3.412e-10
 42.96596     24.8 1.067e+04 3.732e-10
 42.98556     25.2 1.078e+04 4.267e-10
 43.00072     25.6 1.095e+04 5.088e-10
 43.01052     24.3 1.161e+04 6.676e-10
 43.02475     23.7 1.244e+04 9.255e-10
 43.04435     23.5 1.287e+04 1.289e-09
 43.06394     23.7 1.301e+04 1.734e-09
 43.08354     24.4 1.316e+04 2.153e-09
 43.10314     25.3 1.338e+04 2.518e-09
 43.12273     26.2 1.366e+04 2.770e-09
 43.14233     27.0 1.391e+04 2.776e-09
 43.16192     27.8 1.407e+04 2.583e-09
 43.18152     28.5 1.412e+04 2.179e-09
 43.20112     29.0 1.389e+04 1.721e-09
 43.22071     29.1 1.341e+04 1.341e-09
 43.24031     29.3 1.288e+04 1.104e-09
 43.25512     29.5 1.242e+04 9.062e-10
 43.26501     27.4 1.123e+04 4.497e-10
 43.28950     28.5 1.074e+04 3.886e-10
 43.31987     30.2 1.065e+04 3.913e-10
 43.33947     31.6 1.096e+04 5.083e-10
 43.36788     33.2 1.090e+04 5.629e-10
 43.40707     35.2 1.085e+04 5.816e-10
 43.43637     35.5 1.085e+04 5.657e-10
 43.45587     36.2 1.079e+04 5.585e-10
 43.47546     37.0 1.068e+04 5.449e-10
 43.49506     37.9 1.056e+04 5.234e-10
 43.50951     38.9 1.043e+04 4.884e-10
 43.51931     38.8 1.053e+04 5.173e-10
 43.53425     39.7 1.051e+04 5.086e-10
 43.55385     40.7 1.042e+04 4.832e-10
 43.57345     41.5 1.043e+04 4.674e-10
 43.60294     42.6 1.027e+04 3.865e-10
 43.64223     44.0 1.033e+04 3.789e-10
 43.68142     44.9 1.044e+04 3.948e-10
 43.72061     45.3 1.075e+04 4.755e-10
 43.75430     45.8 1.099e+04 6.399e-10
 43.77390     45.9 1.160e+04 1.034e-09
 43.79900     46.8 1.143e+04 9.534e-10
 43.83819     47.9 1.099e+04 7.004e-10
 43.87738     48.6 1.047e+04 4.251e-10
 43.91658     48.9 9.904e+03 2.541e-10
 43.95577     49.3 9.316e+03 1.977e-10
 43.99496     50.7 9.058e+03 1.871e-10
 44.03415     52.6 9.019e+03 1.871e-10
 44.07335     54.5 9.043e+03 1.865e-10
 44.11254     56.5 9.063e+03 1.853e-10
 44.15173     58.4 9.052e+03 1.857e-10
 44.19092     60.3 9.062e+03 1.892e-10
 44.23012     62.1 9.105e+03 2.036e-10
 44.26310     63.8 9.225e+03 2.454e-10
 44.28269     63.2 9.300e+03 2.732e-10
 44.30850     65.0 9.481e+03 3.482e-10
 44.34770     67.0 9.713e+03 4.438e-10
 44.38689     68.8 9.835e+03 4.749e-10
 44.42608     70.6 9.796e+03 4.521e-10
 44.46527     72.5 9.611e+03 3.506e-10
 44.50447     74.0 9.309e+03 2.094e-10
 44.54366     74.5 8.889e+03 1.217e-10
 44.58285     74.9 8.618e+03 1.118e-10
 44.62204     75.8 8.574e+03 1.197e-10
 44.66124     77.0 8.653e+03 1.568e-10
 44.70043     78.3 9.149e+03 2.393e-10
 44.73962     78.9 9.735e+03 3.546e-10
 44.76892     79.1 9.863e+03 4.154e-10
 44.78149     79.7 9.930e+03 4.756e-10
 44.78739     78.7 1.009e+04 4.584e-10
 44.79441     82.3 9.683e+03 3.319e-10
 44.81801     83.0 1.008e+04 4.113e-10
 44.84730     83.2 1.017e+04 4.545e-10
 44.86680     83.7 1.016e+04 4.634e-10
 44.88640     84.3 1.017e+04 4.564e-10
 44.90599     84.8 1.035e+04 4.365e-10
 44.92559     84.8 1.044e+04 4.355e-10
 44.94519     84.6 1.066e+04 4.441e-10
 44.96478     84.2 1.088e+04 4.877e-10
 44.98438     83.8 1.103e+04 5.843e-10
 45.00398     83.8 1.120e+04 7.408e-10
 45.02357     84.0 1.147e+04 9.547e-10
 45.03589     84.3 1.190e+04 1.232e-09
 45.04568     83.7 1.214e+04 1.330e-09
 45.06276     84.1 1.277e+04 1.679e-09
 45.08236     84.4 1.342e+04 2.076e-09
 45.10196     84.7 1.405e+04 2.411e-09
 45.12155     84.8 1.432e+04 2.433e-09
 45.14115     84.7 1.430e+04 2.393e-09
 45.16075     84.3 1.427e+04 2.195e-09
 45.18034     83.3 1.461e+04 2.010e-09
 45.19994     81.8 1.475e+04 2.010e-09
 45.21953     80.2 1.490e+04 2.079e-09
 45.23913     79.1 1.479e+04 2.248e-09
 45.25873     79.3 1.453e+04 2.532e-09
 45.27832     79.7 1.447e+04 2.716e-09
 45.29028     80.3 1.468e+04 2.736e-09
 45.30008     80.7 1.403e+04 2.190e-09
 45.31752     81.2 1.410e+04 2.108e-09
 45.33711     81.4 1.412e+04 1.909e-09
 45.35671     81.2 1.395e+04 1.673e-09
 45.37631     80.6 1.367e+04 1.466e-09
 45.39590     80.1 1.337e+04 1.319e-09
 45.41550     79.8 1.309e+04 1.212e-09
 45.43509     80.1 1.284e+04 1.110e-09
 45.45469     80.6 1.254e+04 9.970e-10
 45.47429     81.6 1.224e+04 8.460e-10
 45.49388     82.6 1.189e+04 6.862e-10
 45.51189     84.0 1.160e+04 5.186e-10
 45.52169     85.7 1.183e+04 5.923e-10
 45.53308     86.7 1.150e+04 4.639e-10
 45.56257     87.8 1.108e+04 3.242e-10
 45.60186     89.1 1.043e+04 1.879e-10
 45.64105     89.3 1.008e+04 1.200e-10
 45.68024     89.6 1.008e+04 1.200e-10
 45.71944     89.7 1.045e+04 1.450e-10
 45.75863     90.1 1.109e+04 2.178e-10
 45.78947     90.5 1.169e+04 3.218e-10
 45.80907     90.2 1.226e+04 3.996e-10
 45.83701     89.7 1.274e+04 4.684e-10
 45.86631     90.0 1.270e+04 4.758e-10
 45.88581     89.8 1.259e+04 4.634e-10
 45.90540     89.1 1.242e+04 4.356e-10
 45.92500     88.2 1.228e+04 3.984e-10
 45.94460     87.3 1.225e+04 3.773e-10
 45.96419     86.1 1.232e+04 3.818e-10
 45.98379     84.8 1.261e+04 4.202e-10
 46.00339     83.2 1.303e+04 4.936e-10
 46.02298     81.8 1.335e+04 5.805e-10
 46.04258     80.7 1.353e+04 6.588e-10
 46.05347     79.8 1.353e+04 6.841e-10
 46.06327     78.4 1.349e+04 7.060e-10
 46.08177     77.6 1.346e+04 6.968e-10
 46.10137     76.6 1.338e+04 6.504e-10
 46.12096     75.2 1.336e+04 5.823e-10
 46.14056     73.2 1.343e+04 5.778e-10
 46.16016     70.5 1.368e+04 6.021e-10
 46.17975     67.4 1.416e+04 7.139e-10
 46.19935     64.4 1.464e+04 9.685e-10
 46.21895     61.3 1.552e+04 1.395e-09
 46.23854     56.6 1.921e+04 2.217e-09
 46.24916     50.6 2.280e+04 4.284e-09
 46.25896     53.6 2.004e+04 2.864e-09
 46.27773     47.8 2.299e+04 5.011e-09
 46.29733     41.7 2.443e+04 8.702e-09
 46.30782     35.5 2.542e+04 1.534e-08
 46.31267     32.1 2.547e+04 2.215e-08
 46.32173     29.5 2.606e+04 3.160e-08
 46.33153     27.2 2.600e+04 4.166e-08
 46.34132     25.0 2.614e+04 5.192e-08
 46.35112     21.7 2.691e+04 5.925e-08
 46.36092     17.8 2.712e+04 5.800e-08
 46.37072     14.5 2.723e+04 4.653e-08
 46.38052     11.2 2.753e+04 3.071e-08
 46.39032      6.6 2.714e+04 1.691e-08
 46.40011     -0.1 2.451e+04 8.450e-09
 46.40991     -7.4 2.062e+04 4.162e-09
 46.41971    -10.6 1.902e+04 3.084e-09
 46.43446    -15.6 1.894e+04 1.981e-09
 46.45410    -26.8 1.625e+04 8.334e-10
 46.47370    -38.1 1.480e+04 5.848e-10
 46.49329    -51.7 2.176e+04 9.133e-10
 46.50794    -61.8 2.419e+04 2.134e-09
 46.51769    -64.7 2.560e+04 2.737e-09
 46.52749    -71.8 2.599e+04 7.055e-09
 46.53729    -76.0 2.630e+04 1.414e-08
 46.54709    -79.6 2.594e+04 2.584e-08
 46.55688    -82.2 2.529e+04 3.952e-08
 46.56216    -83.8 2.516e+04 4.592e-08
 46.56706    -83.7 2.532e+04 3.441e-08
 46.57648    -85.5 2.646e+04 2.909e-08
 46.58628    -88.6 2.730e+04 1.949e-08
 46.59608    -93.5 2.718e+04 1.169e-08
 46.60587    -99.6 2.558e+04 7.351e-09
 46.61280   -104.9 2.416e+04 6.001e-09
 46.61770   -110.4 2.455e+04 6.158e-09
 46.62547   -113.7 2.547e+04 6.517e-09
 46.63527   -116.7 2.642e+04 7.809e-09
 46.64507   -119.4 2.643e+04 9.362e-09
 46.65487   -121.5 2.573e+04 1.105e-08
 46.66466   -122.8 2.509e+04 1.291e-08
 46.67446   -123.2 2.489e+04 1.495e-08
 46.68426   -123.3 2.506e+04 1.700e-08
 46.68936   -123.3 2.536e+04 1.874e-08
 46.69426   -122.5 2.544e+04 1.900e-08
 46.70386   -123.0 2.566e+04 2.020e-08
 46.71365   -123.8 2.569e+04 2.044e-08
 46.72345   -124.5 2.527e+04 1.984e-08
 46.73325   -124.8 2.490e+04 1.885e-08
 46.74305   -125.1 2.469e+04 1.735e-08
 46.75285   -125.8 2.436e+04 1.527e-08
 46.76264   -126.7 2.416e+04 1.341e-08
 46.77244   -127.9 2.437e+04 1.212e-08
 46.78224   -129.8 2.505e+04 1.096e-08
 46.79204   -132.9 2.640e+04 9.745e-09
 46.80184   -137.3 2.749e+04 9.176e-09
 46.81164   -141.4 2.867e+04 9.498e-09
 46.82143   -146.4 2.722e+04 2.679e-08
 46.83123   -150.6 2.691e+04 2.914e-08
 46.84103   -154.5 2.658e+04 2.944e-08
 46.85083   -157.6 2.565e+04 2.557e-08
 46.86063   -160.5 2.482e+04 1.856e-08
 46.87042   -162.9 2.377e+04 1.379e-08
 46.88517   -165.4 2.267e+04 1.099e-08
 46.90482   -168.1 2.094e+04 7.061e-09
 46.91946   -169.9 1.948e+04 4.857e-09
 46.92921   -171.3 1.878e+04 3.907e-09
 46.94396   -174.5 1.728e+04 2.678e-09
 46.96360   -177.7 1.537e+04 1.881e-09
 46.97663   -179.4 1.452e+04 1.640e-09
 46.98643   -177.5 1.554e+04 2.001e-09
 47.00280   -179.1 1.476e+04 1.797e-09
 47.02239   -180.1 1.428e+04 1.751e-09
 47.04199   -180.6 1.409e+04 1.789e-09
 47.06125   -180.8 1.399e+04 1.828e-09
 47.07105   -181.0 1.369e+04 1.617e-09
 47.08118   -181.1 1.367e+04 1.641e-09
 47.10078   -181.1 1.338e+04 1.628e-09
 47.12037   -180.8 1.297e+04 1.452e-09
 47.13997   -180.4 1.248e+04 1.208e-09
 47.15957   -180.0 1.194e+04 9.641e-10
 47.17916   -179.5 1.139e+04 7.477e-10
 47.19876   -178.9 1.088e+04 5.813e-10
 47.21836   -178.2 1.047e+04 4.655e-10
 47.24785   -177.5 1.017e+04 3.808e-10
 47.28714   -176.9 1.009e+04 3.641e-10
 47.31575   -177.0 1.016e+04 3.841e-10
 47.32545   -176.9 1.017e+04 3.888e-10
 47.33593   -177.0 1.033e+04 4.272e-10
 47.35553   -177.2 1.058e+04 5.052e-10
 47.37513   -177.2 1.083e+04 6.120e-10
 47.39472   -176.7 1.098e+04 7.015e-10
 47.41432   -176.1 1.103e+04 7.432e-10
 47.43392   -175.5 1.104e+04 7.553e-10
 47.45351   -174.6 1.091e+04 7.423e-10
 47.47311   -173.7 1.071e+04 6.779e-10
 47.49270   -172.7 1.049e+04 5.980e-10
 47.51230   -171.7 1.028e+04 5.260e-10
 47.53190   -170.8 1.013e+04 4.732e-10
 47.55149   -169.9 1.005e+04 4.420e-10
 47.57005   -168.9 1.001e+04 4.269e-10
 47.57984   -168.0 9.760e+03 3.764e-10
 47.59069   -166.9 9.700e+03 3.609e-10
 47.61028   -165.5 9.660e+03 3.522e-10
 47.62988   -164.1 9.752e+03 3.550e-10
 47.64947   -162.8 9.897e+03 3.723e-10
 47.66907   -161.4 1.011e+04 4.015e-10
 47.68867   -159.9 1.034e+04 4.444e-10
 47.70410   -158.5 1.056e+04 4.990e-10
 47.71390   -158.0 9.988e+03 3.538e-10
 47.72786   -157.1 1.026e+04 4.029e-10
 47.74746   -155.5 1.055e+04 4.918e-10
 47.76705   -154.1 1.077e+04 5.778e-10
 47.78665   -152.6 1.095e+04 6.964e-10
 47.80625   -151.1 1.112e+04 8.477e-10
 47.82444   -149.5 1.134e+04 1.042e-09
 47.83424   -148.8 1.108e+04 7.630e-10
 47.84544   -147.2 1.141e+04 9.792e-10
 47.86503   -145.7 1.176e+04 1.255e-09
 47.88463   -144.0 1.213e+04 1.569e-09
 47.90423   -142.2 1.250e+04 1.899e-09
 47.92382   -140.4 1.281e+04 2.206e-09
 47.94342   -138.8 1.301e+04 2.405e-09
 47.96302   -137.2 1.312e+04 2.504e-09
 47.98261   -135.7 1.312e+04 2.524e-09
 48.00221   -134.1 1.297e+04 2.403e-09
 48.02180   -132.3 1.272e+04 2.170e-09
 48.04140   -130.6 1.243e+04 1.898e-09
 48.06100   -129.1 1.209e+04 1.621e-09
 48.07884   -127.6 1.171e+04 1.356e-09
 48.08864   -127.3 1.211e+04 1.641e-09
 48.10019   -125.7 1.172e+04 1.367e-09
 48.11979   -124.1 1.135e+04 1.130e-09
 48.13938   -122.8 1.097e+04 9.211e-10
 48.15898   -121.2 1.059e+04 7.472e-10
 48.17857   -119.5 1.029e+04 6.174e-10
 48.19817   -118.1 1.009e+04 5.287e-10
 48.22766   -116.6 9.939e+03 4.593e-10
 48.26695   -113.0 9.718e+03 4.160e-10
 48.30615   -109.5 9.548e+03 3.912e-10
 48.33343   -106.1 9.516e+03 3.858e-10
 48.35302   -106.1 9.548e+03 3.894e-10
 48.38453   -102.8 9.567e+03 3.942e-10
 48.42372    -99.9 9.812e+03 4.492e-10
 48.45302    -97.7 1.009e+04 5.430e-10
 48.47252    -96.7 1.025e+04 6.370e-10
 48.49212    -94.9 1.050e+04 7.675e-10
 48.51171    -93.5 1.068e+04 8.349e-10
 48.53131    -92.2 1.082e+04 8.893e-10
 48.55090    -91.1 1.090e+04 9.135e-10
 48.57050    -90.0 1.092e+04 9.176e-10
 48.58763    -89.0 1.092e+04 9.060e-10
 48.59743    -88.7 1.090e+04 9.025e-10
 48.60969    -87.8 1.084e+04 8.706e-10
 48.62929    -87.1 1.080e+04 8.505e-10
 48.65878    -85.3 1.067e+04 7.887e-10
 48.69807    -83.3 1.039e+04 6.915e-10
 48.73726    -81.6 1.017e+04 6.129e-10
 48.77646    -79.6 1.009e+04 5.772e-10
 48.80575    -78.2 1.018e+04 6.090e-10
 48.82525    -77.4 1.017e+04 6.097e-10
 48.84202    -76.3 1.017e+04 6.134e-10
 48.85182    -76.4 1.027e+04 6.438e-10
 48.86444    -75.4 1.025e+04 6.420e-10
 48.88404    -74.3 1.019e+04 6.213e-10
 48.90364    -73.2 1.009e+04 5.775e-10
 48.92323    -72.1 1.001e+04 5.379e-10
 48.94283    -71.1 9.931e+03 5.017e-10
 48.96243    -70.1 9.853e+03 4.671e-10
 48.98202    -69.1 9.811e+03 4.428e-10
 49.00162    -67.9 9.827e+03 4.394e-10
 49.02122    -67.1 9.882e+03 4.431e-10
 49.04081    -66.3 1.003e+04 4.561e-10
 49.06041    -66.0 1.036e+04 5.256e-10
 49.08000    -66.0 1.083e+04 6.733e-10
 49.09642    -66.4 1.156e+04 9.591e-10
 49.10622    -66.9 1.189e+04 1.113e-09
 49.11920    -67.2 1.257e+04 1.560e-09
 49.13879    -67.7 1.312e+04 2.019e-09
 49.15839    -67.9 1.376e+04 2.821e-09
 49.16884    -68.0 1.411e+04 3.269e-09
 49.17864    -67.3 1.416e+04 3.300e-09
 49.19758    -67.2 1.450e+04 3.856e-09
 49.21718    -67.1 1.455e+04 3.969e-09
 49.23677    -66.8 1.437e+04 3.558e-09
 49.25637    -66.8 1.394e+04 2.789e-09
 49.27597    -67.1 1.336e+04 2.060e-09
 49.29556    -67.6 1.272e+04 1.555e-09
 49.31516    -67.9 1.217e+04 1.279e-09
 49.33476    -67.9 1.187e+04 1.173e-09
 49.35082    -67.5 1.178e+04 1.154e-09
 49.36061    -67.5 1.190e+04 1.192e-09
 49.37395    -66.9 1.191e+04 1.250e-09
 49.39354    -66.2 1.200e+04 1.341e-09
 49.41314    -65.5 1.210e+04 1.432e-09
 49.43274    -64.8 1.216e+04 1.496e-09
 49.45233    -63.9 1.217e+04 1.516e-09
 49.47193    -63.0 1.211e+04 1.508e-09
 49.49153    -61.9 1.193e+04 1.414e-09
 49.51112    -60.7 1.168e+04 1.258e-09
 49.53072    -59.5 1.142e+04 1.102e-09
 49.55031    -58.3 1.125e+04 9.877e-10
 49.56991    -57.3 1.110e+04 8.997e-10
 49.58951    -56.3 1.088e+04 8.137e-10
 49.60521    -54.9 1.066e+04 7.411e-10
 49.61501    -54.8 1.076e+04 7.673e-10
 49.62870    -53.4 1.065e+04 7.282e-10
 49.64830    -51.8 1.064e+04 7.167e-10
 49.66789    -50.6 1.063e+04 7.025e-10
 49.68749    -49.3 1.058e+04 6.877e-10
 49.70709    -47.7 1.057e+04 6.871e-10
 49.72668    -46.2 1.066e+04 7.072e-10
 49.74628    -45.0 1.075e+04 7.249e-10
 49.76587    -43.9 1.075e+04 7.241e-10
 49.78547    -42.7 1.084e+04 7.427e-10
 49.80507    -41.8 1.115e+04 8.270e-10
 49.82466    -41.2 1.156e+04 9.742e-10
 49.84426    -40.7 1.182e+04 1.143e-09
 49.85961    -39.7 1.204e+04 1.371e-09
 49.86941    -40.2 1.326e+04 2.188e-09
 49.88345    -39.7 1.383e+04 2.636e-09
 49.89632    -40.2 1.543e+04 3.292e-09
 49.90611    -41.2 1.694e+04 4.365e-09
 49.92264    -44.3 1.937e+04 6.744e-09
 49.94224    -47.6 2.056e+04 1.166e-08
 49.95689    -48.6 2.074e+04 1.532e-08
 49.96664    -49.4 2.066e+04 1.896e-08
 49.97644    -50.1 2.064e+04 2.239e-08
 49.98623    -50.5 2.042e+04 2.580e-08
 49.99161    -50.6 2.028e+04 2.732e-08
 49.99651    -50.9 2.011e+04 2.783e-08
 50.00583    -50.8 1.956e+04 2.702e-08
 50.01563    -50.8 1.937e+04 2.346e-08
 50.02543    -50.7 1.952e+04 1.898e-08
 50.03523    -50.8 1.987e+04 1.440e-08
 50.04502    -52.0 2.004e+04 1.003e-08
 50.05482    -54.0 1.946e+04 6.415e-09
 50.06462    -56.4 1.797e+04 4.092e-09
 50.07442    -58.7 1.603e+04 2.899e-09
 50.08422    -59.1 1.545e+04 2.693e-09
 50.09896    -59.7 1.472e+04 2.282e-09
 50.11400    -60.8 1.342e+04 1.769e-09
 50.12380    -62.3 1.247e+04 1.501e-09
 50.13820    -62.3 1.222e+04 1.408e-09
 50.15780    -61.9 1.218e+04 1.397e-09
 50.17740    -61.3 1.223e+04 1.470e-09
 50.19699    -60.6 1.237e+04 1.578e-09
 50.21659    -59.8 1.255e+04 1.686e-09
 50.23619    -59.2 1.276e+04 1.793e-09
 50.25578    -58.8 1.298e+04 1.902e-09
 50.27538    -58.6 1.318e+04 2.032e-09
 50.29497    -58.5 1.332e+04 2.194e-09
 50.31457    -58.2 1.337e+04 2.348e-09
 50.33417    -57.8 1.336e+04 2.392e-09
 50.35376    -57.2 1.331e+04 2.424e-09
 50.36840    -56.5 1.313e+04 2.317e-09
 50.37820    -56.8 1.302e+04 2.242e-09
 50.39296    -56.0 1.269e+04 1.967e-09
 50.41255    -55.3 1.228e+04 1.641e-09
 50.43215    -54.7 1.181e+04 1.326e-09
 50.45174    -53.9 1.137e+04 1.052e-09
 50.47134    -53.0 1.097e+04 8.311e-10
 50.49094    -52.1 1.062e+04 6.370e-10
 50.51053    -51.2 1.033e+04 5.132e-10
 50.54003    -49.8 1.023e+04 4.754e-10
 50.57932    -47.7 9.779e+03 3.448e-10
 50.61419    -45.7 9.352e+03 2.437e-10
 50.63378    -46.7 8.906e+03 1.771e-10
 50.65770    -45.0 8.776e+03 1.638e-10
 50.69689    -43.5 8.904e+03 1.811e-10
 50.73609    -42.0 9.033e+03 2.184e-10
 50.77528    -40.5 9.156e+03 2.705e-10
 50.81447    -39.0 9.197e+03 2.984e-10
 50.85366    -37.8 9.042e+03 2.873e-10
 50.87739    -36.7 8.686e+03 2.236e-10
 50.89698    -36.6 8.790e+03 2.267e-10
 50.93205    -35.9 8.310e+03 1.531e-10
 50.97124    -35.2 8.078e+03 1.125e-10
 51.01043    -34.5 7.978e+03 9.837e-11
 51.04963    -33.5 7.965e+03 9.790e-11
 51.08882    -32.6 8.095e+03 1.220e-10
 51.12801    -31.3 8.271e+03 1.597e-10
 51.16720    -29.8 8.465e+03 1.947e-10
 51.20640    -28.5 8.552e+03 2.115e-10
 51.24559    -27.4 8.558e+03 2.025e-10
 51.28478    -26.8 8.599e+03 1.823e-10
 51.32397    -26.9 8.619e+03 1.660e-10
 51.36317    -28.4 9.059e+03 2.016e-10
 51.38618    -29.8 9.612e+03 3.452e-10
 51.39588    -29.6 9.496e+03 3.159e-10
 51.41196    -30.7 9.708e+03 3.936e-10
 51.43156    -31.1 9.952e+03 5.819e-10
 51.45116    -31.0 1.032e+04 6.869e-10
 51.47075    -30.8 1.052e+04 7.159e-10
 51.49035    -31.6 1.076e+04 6.645e-10
 51.50994    -34.1 1.132e+04 6.110e-10
 51.52954    -40.6 1.370e+04 8.191e-10
 51.54914    -47.6 1.499e+04 1.904e-09
 51.56873    -50.4 1.518e+04 4.174e-09
 51.58833    -50.8 1.559e+04 6.597e-09
 51.60793    -50.5 1.589e+04 7.606e-09
 51.62752    -50.3 1.600e+04 6.507e-09
 51.64038    -51.8 1.566e+04 3.534e-09
 51.65018    -54.2 1.510e+04 2.299e-09
 51.66671    -59.2 1.273e+04 9.710e-10
 51.68631    -62.3 1.077e+04 6.028e-10
 51.70591    -62.9 1.029e+04 5.023e-10
 51.72550    -62.9 1.010e+04 4.590e-10
 51.74510    -62.8 1.001e+04 4.058e-10
 51.76470    -62.7 9.985e+03 3.842e-10
 51.79419    -62.5 9.962e+03 3.560e-10
 51.83348    -62.2 9.889e+03 3.453e-10
 51.87267    -61.7 9.832e+03 3.305e-10
 51.89497    -61.6 9.860e+03 3.132e-10
 51.91457    -61.1 9.778e+03 3.093e-10
 51.95106    -61.1 9.923e+03 3.079e-10
 51.98035    -61.9 1.028e+04 3.372e-10
 51.99985    -63.6 1.056e+04 4.675e-10
 52.01945    -65.1 1.111e+04 7.307e-10
 52.03904    -66.6 1.218e+04 1.192e-09
 52.05864    -68.5 1.355e+04 1.880e-09
 52.07824    -71.0 1.478e+04 2.673e-09
 52.08853    -74.0 1.536e+04 3.171e-09
 52.09833    -75.5 1.686e+04 5.365e-09
 52.11743    -78.2 1.666e+04 5.326e-09
 52.13703    -80.3 1.559e+04 3.955e-09
 52.14917    -82.2 1.430e+04 2.431e-09
 52.15897    -81.0 1.495e+04 3.218e-09
 52.17622    -83.1 1.361e+04 1.782e-09
 52.19581    -85.2 1.247e+04 1.152e-09
 52.21541    -86.9 1.180e+04 9.019e-10
 52.23501    -87.9 1.149e+04 7.981e-10
 52.25460    -88.5 1.140e+04 7.705e-10
 52.27420    -89.2 1.141e+04 7.683e-10
 52.29380    -89.9 1.155e+04 8.030e-10
 52.31339    -90.6 1.164e+04 8.644e-10
 52.33299    -91.0 1.168e+04 9.317e-10
 52.35258    -91.9 1.180e+04 1.048e-09
 52.37218    -95.3 1.298e+04 1.551e-09
 52.39178   -101.6 1.698e+04 3.394e-09
 52.40357   -107.4 1.934e+04 8.395e-09
 52.41336   -106.4 1.867e+04 7.802e-09
 52.43097   -110.1 1.968e+04 1.348e-08
 52.45057   -112.9 1.982e+04 1.558e-08
 52.46521   -114.7 1.954e+04 1.588e-08
 52.47496   -115.4 1.901e+04 1.346e-08
 52.48476   -116.8 1.823e+04 9.605e-09
 52.49456   -118.8 1.716e+04 6.418e-09
 52.50436   -121.1 1.593e+04 4.474e-09
 52.51416   -122.4 1.527e+04 3.582e-09
 52.52890   -123.6 1.473e+04 2.898e-09
 52.54855   -126.1 1.349e+04 1.841e-09
 52.56814   -128.0 1.278e+04 1.364e-09
 52.58774   -129.3 1.251e+04 1.208e-09
 52.60734   -130.1 1.233e+04 1.164e-09
 52.62693   -130.4 1.218e+04 1.151e-09
 52.64653   -130.5 1.197e+04 1.133e-09
 52.65796   -130.5 1.178e+04 1.049e-09
 52.66776   -130.4 1.171e+04 1.022e-09
 52.68572   -130.5 1.159e+04 9.536e-10
 52.70532   -130.7 1.157e+04 8.832e-10
 52.72491   -131.1 1.162e+04 8.575e-10
 52.74451   -131.6 1.181e+04 8.640e-10
 52.76411   -132.4 1.223e+04 9.529e-10
 52.78370   -133.4 1.271e+04 1.147e-09
 52.80330   -134.6 1.321e+04 1.457e-09
 52.81600   -135.8 1.366e+04 1.884e-09
 52.82580   -135.4 1.308e+04 1.235e-09
 52.84249   -136.7 1.341e+04 1.600e-09
 52.86209   -137.7 1.373e+04 2.068e-09
 52.88168   -138.5 1.405e+04 2.574e-09
 52.90128   -139.2 1.436e+04 3.015e-09
 52.91236   -140.0 1.461e+04 3.306e-09
 52.92216   -140.3 1.469e+04 3.372e-09
 52.94047   -141.6 1.496e+04 3.671e-09
 52.96007   -143.4 1.531e+04 4.049e-09
 52.97967   -145.7 1.593e+04 4.625e-09
 52.99926   -148.6 1.691e+04 5.456e-09
 53.01886   -151.7 1.801e+04 6.437e-09
 53.03845   -154.8 1.863e+04 7.018e-09
 53.05805   -157.6 1.865e+04 7.041e-09
 53.07765   -159.9 1.799e+04 5.687e-09
 53.09724   -162.3 1.689e+04 4.024e-09
 53.11684   -164.7 1.576e+04 2.910e-09
 53.13644   -166.5 1.491e+04 2.303e-09
 53.15603   -167.5 1.437e+04 1.946e-09
 53.16675   -168.1 1.399e+04 1.694e-09
 53.17655   -169.9 1.385e+04 1.597e-09
 53.19522   -170.0 1.352e+04 1.394e-09
 53.21482   -170.0 1.319e+04 1.229e-09
 53.24431   -170.2 1.269e+04 1.040e-09
 53.28360   -170.1 1.179e+04 7.436e-10
 53.32280   -168.8 1.114e+04 5.264e-10
 53.36199   -167.7 1.054e+04 3.669e-10
 53.40118   -166.4 1.007e+04 2.667e-10
 53.42134   -164.9 9.758e+03 2.033e-10
 53.44094   -166.1 9.548e+03 1.512e-10
 53.47957   -164.0 9.441e+03 1.420e-10
 53.51876   -162.2 9.415e+03 1.406e-10
 53.54367   -161.4 9.515e+03 1.455e-10
 53.56326   -162.9 1.001e+04 2.315e-10
 53.58725   -162.4 1.036e+04 2.627e-10
 53.60675   -163.2 1.079e+04 3.181e-10
 53.62634   -164.5 1.134e+04 5.079e-10
 53.64594   -165.8 1.177e+04 8.345e-10
 53.66554   -166.3 1.218e+04 1.238e-09
 53.67554   -166.5 1.255e+04 1.572e-09
 53.68534   -167.2 1.233e+04 1.418e-09
 53.70473   -167.5 1.254e+04 1.553e-09
 53.72432   -168.0 1.258e+04 1.574e-09
 53.74392   -168.5 1.245e+04 1.429e-09
 53.76352   -169.0 1.198e+04 1.082e-09
 53.78311   -169.6 1.135e+04 7.759e-10
 53.80271   -170.0 1.073e+04 5.691e-10
 53.82231   -170.1 1.026e+04 4.423e-10
 53.84190   -170.0 9.977e+03 3.830e-10
 53.87139   -169.5 9.884e+03 3.604e-10
 53.91054   -168.7 9.788e+03 3.311e-10
 53.94973   -167.4 9.476e+03 2.640e-10
 53.98907   -165.5 9.341e+03 2.347e-10
 54.02826   -163.5 9.217e+03 2.019e-10
 54.06746   -161.3 9.101e+03 1.659e-10
 54.10665   -159.1 9.004e+03 1.321e-10
 54.14584   -156.9 8.940e+03 1.054e-10
 54.18503   -154.7 8.912e+03 8.802e-11
 54.22423   -152.4 8.900e+03 7.864e-11
 54.26342   -150.2 8.897e+03 7.567e-11
 54.30261   -148.0 8.898e+03 7.523e-11
 54.34180   -145.9 8.923e+03 7.784e-11
 54.38100   -143.8 8.922e+03 9.232e-11
 54.41933   -141.5 8.914e+03 1.136e-10
 54.43893   -141.5 8.834e+03 9.284e-11
 54.45938   -139.2 8.812e+03 1.066e-10
 54.49857   -136.9 8.799e+03 1.196e-10
 54.53777   -134.6 8.785e+03 1.296e-10
 54.57696   -132.3 8.769e+03 1.356e-10
 54.61615   -130.0 8.750e+03 1.381e-10
 54.65534   -127.9 8.746e+03 1.390e-10
 54.69454   -126.1 8.728e+03 1.406e-10
 54.73373   -124.6 8.821e+03 1.602e-10
 54.77292   -123.2 9.121e+03 2.125e-10
 54.81211   -121.9 9.474e+03 2.880e-10
 54.85131   -120.8 9.791e+03 3.630e-10
 54.89050   -120.1 9.968e+03 3.962e-10
 54.92812   -119.6 9.994e+03 3.983e-10
 54.94772   -119.7 9.976e+03 3.864e-10
 54.96888   -119.0 9.850e+03 3.315e-10
 54.99861   -118.0 9.579e+03 2.390e-10
 55.01821   -118.9 9.422e+03 2.061e-10
 55.04727   -117.6 9.200e+03 1.569e-10
 55.08646   -116.2 9.059e+03 1.345e-10
 55.12565   -114.5 8.967e+03 1.271e-10
 55.16485   -112.7 8.915e+03 1.249e-10
 55.20404   -110.8 8.888e+03 1.241e-10
 55.24323   -108.8 8.875e+03 1.236e-10
 55.28243   -106.9 8.875e+03 1.233e-10
 55.32162   -105.1 8.885e+03 1.239e-10
 55.36081   -103.5 8.927e+03 1.364e-10
 55.40000   -102.2 9.100e+03 1.745e-10
 55.43691   -101.0 9.420e+03 2.467e-10
 55.45651   -100.3 9.212e+03 1.870e-10
 55.47839    -99.3 9.576e+03 2.683e-10
 55.50768    -98.6 9.969e+03 3.746e-10
 55.52718    -98.6 1.016e+04 4.348e-10
 55.54678    -98.4 1.045e+04 5.374e-10
 55.56638    -98.5 1.064e+04 5.940e-10
 55.58597    -98.6 1.098e+04 7.632e-10
 55.60557    -99.1 1.118e+04 9.295e-10
 55.62516    -99.4 1.129e+04 1.049e-09
 55.64476    -99.6 1.130e+04 1.095e-09
 55.66436    -99.9 1.129e+04 1.102e-09
 55.68395   -100.2 1.119e+04 1.056e-09
 55.70091   -100.4 1.099e+04 9.639e-10
 55.71071    -99.9 1.115e+04 1.047e-09
 55.72315   -100.0 1.088e+04 9.019e-10
 55.73569   -100.2 1.060e+04 7.571e-10
 55.74548   -101.2 1.025e+04 5.730e-10
 55.76234   -101.5 9.992e+03 4.667e-10
 55.78194   -101.8 9.713e+03 3.921e-10
 55.80153   -101.8 9.512e+03 3.487e-10
 55.83102   -101.6 9.455e+03 3.412e-10
 55.87031   -101.2 9.345e+03 3.219e-10
 55.90951   -100.5 9.316e+03 3.178e-10
 55.94571    -99.7 9.451e+03 3.423e-10
 55.96530    -99.2 9.362e+03 3.033e-10
 55.97800    -98.9 9.637e+03 3.681e-10
 55.99749    -99.0 9.673e+03 3.809e-10
 56.01709   -100.0 9.921e+03 5.291e-10
 56.03669   -102.6 1.115e+04 9.740e-10
 56.05628   -105.8 1.363e+04 2.220e-09
 56.07588   -108.4 1.596e+04 4.949e-09
 56.09548   -110.7 1.772e+04 8.992e-09
 56.11507   -113.8 1.853e+04 1.138e-08
 56.13467   -117.6 1.853e+04 1.155e-08
 56.15426   -121.1 1.748e+04 8.168e-09
 56.17386   -124.9 1.538e+04 4.032e-09
 56.19346   -128.8 1.275e+04 1.880e-09
 56.20970   -131.5 1.123e+04 1.075e-09
 56.21950   -130.5 1.156e+04 1.248e-09
 56.23265   -131.8 1.096e+04 8.652e-10
 56.25225   -132.6 1.070e+04 6.949e-10
 56.27184   -133.1 1.056e+04 6.260e-10
 56.29144   -133.3 1.048e+04 5.886e-10
 56.31104   -133.4 1.046e+04 5.767e-10
 56.33063   -133.3 1.049e+04 5.833e-10
 56.35023   -133.2 1.052e+04 5.999e-10
 56.36982   -132.9 1.053e+04 6.212e-10
 56.38942   -132.6 1.055e+04 6.436e-10
 56.40902   -132.2 1.057e+04 6.622e-10
 56.42861   -131.7 1.058e+04 6.741e-10
 56.44821   -131.3 1.059e+04 6.808e-10
 56.46316   -130.9 1.061e+04 6.846e-10
 56.46925   -130.9 1.065e+04 7.332e-10
 56.47390   -130.0 1.054e+04 6.914e-10
 56.48740   -129.7 1.060e+04 6.958e-10
 56.50700   -129.6 1.073e+04 7.095e-10
 56.52659   -129.5 1.091e+04 7.533e-10
 56.54619   -129.6 1.113e+04 8.493e-10
 56.56579   -129.7 1.138e+04 1.002e-09
 56.58538   -129.8 1.173e+04 1.182e-09
 56.60498   -129.9 1.198e+04 1.351e-09
 56.62458   -130.0 1.209e+04 1.419e-09
 56.64417   -130.3 1.208e+04 1.418e-09
 56.66377   -130.4 1.184e+04 1.211e-09
 56.68336   -130.5 1.143e+04 9.003e-10
 56.70296   -130.7 1.097e+04 6.351e-10
 56.71850   -130.9 1.056e+04 4.523e-10
 56.72829   -130.1 1.087e+04 5.713e-10
 56.74215   -130.4 1.046e+04 4.027e-10
 56.76175   -130.5 1.015e+04 3.065e-10
 56.78135   -130.5 9.921e+03 2.630e-10
 56.81084   -130.2 9.701e+03 2.331e-10
 56.85013   -128.7 9.309e+03 1.783e-10
 56.88932   -127.3 9.193e+03 1.585e-10
 56.92851   -125.8 9.161e+03 1.536e-10
 56.96329   -124.0 9.158e+03 1.526e-10
 56.98289   -123.2 9.172e+03 1.520e-10
 57.00690   -121.3 9.237e+03 1.540e-10
 57.04609   -119.3 9.344e+03 1.650e-10
 57.08528   -117.1 9.435e+03 1.765e-10
 57.12448   -114.9 9.502e+03 1.828e-10
 57.16367   -112.8 9.523e+03 1.842e-10
 57.20286   -110.6 9.566e+03 1.745e-10
 57.24205   -108.4 9.562e+03 1.527e-10
 57.28125   -106.1 9.536e+03 1.328e-10
 57.32044   -103.8 9.540e+03 1.223e-10
 57.35963   -101.5 9.547e+03 1.199e-10
 57.39882    -99.1 9.552e+03 1.199e-10
 57.43802    -96.8 9.738e+03 1.203e-10
 57.47208    -94.8 9.930e+03 1.338e-10
 57.49168    -94.1 9.942e+03 1.316e-10
 57.51640    -92.2 1.006e+04 1.589e-10
 57.55559    -90.6 1.032e+04 2.243e-10
 57.59479    -89.2 1.080e+04 3.862e-10
 57.63398    -87.7 1.138e+04 6.953e-10
 57.67317    -86.3 1.194e+04 1.078e-09
 57.71237    -85.2 1.225e+04 1.313e-09
 57.75156    -84.3 1.229e+04 1.353e-09
 57.79075    -83.2 1.197e+04 1.049e-09
 57.82994    -82.0 1.142e+04 6.027e-10
 57.86914    -81.1 1.100e+04 3.426e-10
 57.90833    -80.0 1.077e+04 2.420e-10
 57.94752    -79.2 1.064e+04 2.052e-10
 57.98087    -77.2 1.060e+04 1.974e-10
 58.00047    -76.7 1.065e+04 2.202e-10
 58.02591    -74.6 1.054e+04 1.989e-10
 58.06510    -72.4 1.044e+04 1.824e-10
 58.10429    -70.2 1.036e+04 1.689e-10
 58.14348    -68.0 1.034e+04 1.629e-10
 58.18268    -65.9 1.034e+04 1.647e-10
 58.22187    -64.0 1.039e+04 1.923e-10
 58.26106    -62.1 1.044e+04 2.415e-10
 58.30025    -60.1 1.048e+04 2.904e-10
 58.33945    -58.1 1.049e+04 3.190e-10
 58.37864    -56.3 1.047e+04 3.240e-10
 58.41783    -54.4 1.029e+04 2.988e-10
 58.45702    -52.5 1.015e+04 2.468e-10
 58.48966    -50.7 1.007e+04 1.944e-10
 58.50926    -50.9 1.029e+04 2.681e-10
 58.53541    -49.6 1.029e+04 2.403e-10
 58.57460    -48.5 1.028e+04 2.242e-10
 58.61379    -47.5 1.023e+04 2.184e-10
 58.65299    -46.5 1.012e+04 2.175e-10
 58.69218    -45.2 9.943e+03 2.095e-10
 58.73137    -43.8 9.733e+03 1.957e-10
 58.77056    -42.3 9.546e+03 1.826e-10
 58.80976    -40.8 9.468e+03 1.749e-10
 58.84895    -39.2 9.411e+03 1.736e-10
 58.88814    -37.4 9.326e+03 1.737e-10
 58.92734    -35.6 9.232e+03 1.703e-10
 58.96653    -33.7 9.161e+03 1.629e-10
 58.99846    -31.7 9.078e+03 1.508e-10
 59.01805    -32.5 8.963e+03 1.409e-10
 59.04491    -30.5 8.950e+03 1.251e-10
 59.08411    -28.8 8.964e+03 1.166e-10
 59.12330    -27.4 9.114e+03 1.220e-10
 59.16249    -26.3 9.223e+03 1.657e-10
 59.20168    -25.0 9.361e+03 2.501e-10
 59.24088    -23.3 9.580e+03 3.576e-10
 59.28007    -21.7 9.769e+03 4.284e-10
 59.31926    -20.4 9.667e+03 4.168e-10
 59.35845    -18.9 9.468e+03 3.238e-10
 59.38304    -18.1 9.256e+03 2.341e-10
 59.40264    -18.4 9.429e+03 2.561e-10
 59.43684    -17.9 9.154e+03 2.105e-10
 59.47603    -16.9 9.117e+03 2.163e-10
 59.50725    -16.2 9.278e+03 2.648e-10
 59.52684    -18.3 9.129e+03 2.524e-10
 59.55442    -17.0 9.357e+03 3.656e-10
 59.59361    -15.6 9.545e+03 4.537e-10
 59.62291    -14.4 9.643e+03 5.197e-10
 59.64240    -14.1 9.887e+03 5.492e-10
 59.66200    -14.1 1.015e+04 6.029e-10
 59.68160    -14.6 1.034e+04 6.474e-10
 59.70119    -15.3 1.046e+04 7.266e-10
 59.72079    -16.5 1.085e+04 8.827e-10
 59.74039    -18.2 1.150e+04 1.145e-09
 59.75998    -19.5 1.190e+04 1.469e-09
 59.77125    -20.1 1.182e+04 1.734e-09
 59.78104    -20.7 1.144e+04 1.516e-09
 59.79917    -20.7 1.145e+04 1.581e-09
 59.81877    -20.7 1.143e+04 1.457e-09
 59.83837    -21.5 1.141e+04 1.248e-09
 59.85796    -23.6 1.127e+04 1.074e-09
 59.87756    -26.2 1.130e+04 1.040e-09
 59.89716    -29.4 1.193e+04 1.267e-09
 59.91675    -32.1 1.231e+04 1.750e-09
 59.93635    -33.6 1.255e+04 2.272e-09
 59.95595    -34.4 1.284e+04 2.589e-09
 59.97554    -35.2 1.305e+04 2.638e-09
 59.99514    -36.8 1.284e+04 1.985e-09
 60.01473    -39.9 1.166e+04 1.235e-09
 60.02564    -42.4 1.054e+04 8.287e-10
 60.03544    -42.6 1.028e+04 7.231e-10
 60.05393    -43.7 9.879e+03 5.601e-10
 60.07352    -44.7 9.600e+03 4.482e-10
 60.09312    -46.0 9.388e+03 3.866e-10
 60.11032    -47.1 9.352e+03 3.760e-10
 60.12011    -47.9 9.366e+03 3.780e-10
 60.14221    -48.3 9.483e+03 4.078e-10
 60.18150    -49.1 9.532e+03 4.497e-10
 60.22069    -49.1 9.426e+03 4.433e-10
 60.25988    -49.1 9.137e+03 3.705e-10
 60.29908    -48.8 8.802e+03 2.970e-10
 60.33827    -47.8 8.480e+03 2.378e-10
 60.37746    -46.6 8.213e+03 1.827e-10
 60.41665    -45.4 7.948e+03 1.380e-10
 60.45585    -44.1 7.754e+03 1.131e-10
 60.49504    -42.6 7.635e+03 1.048e-10
 60.52483    -40.8 7.576e+03 1.028e-10
 60.54443    -40.7 7.412e+03 9.080e-11
 60.57342    -38.7 7.365e+03 8.840e-11
 60.61262    -36.6 7.354e+03 8.611e-11
 60.65181    -34.6 7.379e+03 8.290e-11
 60.69100    -32.6 7.417e+03 8.065e-11
 60.73019    -30.7 7.441e+03 8.042e-11
 60.76939    -28.7 7.476e+03 8.040e-11
 60.80858    -26.7 7.554e+03 8.109e-11
 60.83798    -24.8 7.640e+03 9.315e-11
 60.85758    -26.1 7.683e+03 9.346e-11
 60.88696    -25.4 8.081e+03 1.357e-10
 60.92616    -25.1 9.237e+03 2.873e-10
 60.96535    -24.8 1.054e+04 6.976e-10
 60.99465    -24.1 1.110e+04 1.089e-09
 61.01414    -24.0 1.184e+04 1.579e-09
 61.03343    -23.4 1.234e+04 2.213e-09
 61.04323    -23.4 1.247e+04 2.230e-09
 61.05334    -24.3 1.390e+04 3.337e-09
 61.07293    -25.5 1.525e+04 5.078e-09
 61.09253    -26.3 1.611e+04 7.147e-09
 61.11213    -26.6 1.657e+04 8.679e-09
 61.13172    -26.8 1.666e+04 8.910e-09
 61.15132    -26.8 1.632e+04 7.341e-09
 61.17092    -27.8 1.535e+04 5.311e-09
 61.19051    -28.7 1.386e+04 3.557e-09
 61.21011    -28.8 1.306e+04 2.599e-09
 61.22970    -28.2 1.238e+04 1.865e-09
 61.24930    -27.8 1.193e+04 1.400e-09
 61.26890    -27.6 1.144e+04 1.079e-09
 61.28782    -27.2 1.100e+04 8.677e-10
 61.29762    -27.5 1.090e+04 8.765e-10
 61.30809    -27.0 1.068e+04 7.964e-10
 61.32769    -26.4 1.056e+04 7.669e-10
 61.34728    -25.7 1.055e+04 7.590e-10
 61.36688    -25.0 1.063e+04 7.692e-10
 61.38647    -24.5 1.068e+04 8.239e-10
 61.40607    -23.9 1.063e+04 8.619e-10
 61.42567    -23.0 1.063e+04 9.409e-10
 61.44526    -22.0 1.069e+04 9.818e-10
 61.46486    -20.9 1.058e+04 1.007e-09
 61.48446    -19.8 1.056e+04 9.704e-10
 61.50405    -18.8 1.050e+04 8.661e-10
 61.52365    -18.1 1.040e+04 7.549e-10
 61.54222    -17.6 1.013e+04 6.439e-10
 61.55202    -17.9 9.868e+03 5.602e-10
 61.56284    -17.2 9.761e+03 4.799e-10
 61.57506    -16.4 9.558e+03 4.491e-10
 61.58486    -16.4 9.602e+03 4.448e-10
 61.60203    -15.4 9.400e+03 4.255e-10
 61.63153    -14.1 9.483e+03 3.832e-10
 61.67082    -12.2 9.454e+03 3.643e-10
 61.71001    -10.2 9.469e+03 3.722e-10
 61.74920     -7.9 9.517e+03 3.809e-10
 61.78839     -5.5 9.603e+03 3.838e-10
 61.82759     -3.2 9.674e+03 3.862e-10
 61.86678     -0.7 9.746e+03 3.858e-10
 61.89608      1.5 9.770e+03 3.916e-10
 61.91557      1.9 9.861e+03 4.038e-10
 61.93517      3.7 9.926e+03 4.271e-10
 61.95477      4.3 9.994e+03 4.440e-10
 61.97436      6.0 1.008e+04 4.808e-10
 61.99396      6.9 1.017e+04 5.108e-10
 62.01356      8.1 1.025e+04 5.519e-10
 62.03315      9.4 1.031e+04 5.769e-10
 62.05101     10.6 1.038e+04 6.093e-10
 62.06081     11.3 1.014e+04 4.949e-10
 62.07234     12.5 1.019e+04 5.125e-10
 62.09194     13.6 1.020e+04 5.334e-10
 62.11154     14.7 1.027e+04 5.743e-10
 62.13113     15.5 1.053e+04 6.637e-10
 62.15073     15.8 1.081e+04 8.105e-10
 62.17033     16.1 1.116e+04 1.063e-09
 62.18992     15.6 1.220e+04 1.611e-09
 62.20952     13.4 1.509e+04 3.065e-09
 62.22911      9.5 1.824e+04 7.406e-09
 62.24871      6.7 1.957e+04 1.454e-08
 62.26336      4.8 2.054e+04 2.103e-08
 62.27311      2.2 2.164e+04 2.780e-08
 62.28291     -0.5 2.236e+04 3.616e-08
 62.29270     -4.3 2.390e+04 4.177e-08
 62.30243     -8.8 2.530e+04 4.070e-08
 62.30733     -8.7 2.602e+04 3.706e-08
 62.31021    -13.8 2.533e+04 3.398e-08
 62.31511    -12.7 2.580e+04 4.612e-08
 62.32210    -17.6 2.390e+04 4.151e-08
 62.33190    -21.1 2.274e+04 3.419e-08
 62.34170    -23.8 2.228e+04 2.552e-08
 62.35149    -25.7 2.143e+04 1.943e-08
 62.36129    -28.6 1.945e+04 1.352e-08
 62.37109    -30.2 1.791e+04 1.058e-08
 62.38584    -32.3 1.614e+04 7.191e-09
 62.40548    -32.8 1.462e+04 4.168e-09
 62.42508    -33.1 1.367e+04 2.690e-09
 62.44467    -33.3 1.277e+04 1.921e-09
 62.46427    -32.6 1.229e+04 1.587e-09
 62.48387    -31.6 1.198e+04 1.400e-09
 62.50346    -30.1 1.174e+04 1.263e-09
 62.52306    -28.6 1.163e+04 1.172e-09
 62.54266    -27.4 1.156e+04 1.098e-09
 62.55980    -26.3 1.152e+04 1.021e-09
 62.56960    -26.9 1.145e+04 9.458e-10
 62.58185    -26.0 1.144e+04 9.185e-10
 62.60144    -25.1 1.145e+04 9.969e-10
 62.62104    -24.0 1.145e+04 1.091e-09
 62.64064    -22.6 1.158e+04 1.164e-09
 62.66023    -21.4 1.168e+04 1.267e-09
 62.67983    -20.0 1.173e+04 1.460e-09
 62.69943    -18.8 1.198e+04 1.434e-09
 62.71902    -17.9 1.201e+04 1.453e-09
 62.73862    -17.0 1.200e+04 1.417e-09
 62.75821    -16.1 1.191e+04 1.351e-09
 62.77781    -15.3 1.176e+04 1.273e-09
 62.79741    -14.7 1.183e+04 1.134e-09
 62.81420    -14.5 1.171e+04 1.056e-09
 62.82400    -14.3 1.147e+04 9.665e-10
 62.83660    -13.7 1.127e+04 8.687e-10
 62.85620    -13.0 1.110e+04 8.256e-10
 62.87579    -12.0 1.108e+04 6.987e-10
 62.89539    -11.8 1.099e+04 6.498e-10
 62.92488    -10.5 1.086e+04 5.624e-10
 62.96417     -9.4 1.079e+04 4.217e-10
 63.00336     -8.2 1.082e+04 4.133e-10
 63.04256     -7.4 1.099e+04 4.892e-10
 63.06879     -5.9 1.106e+04 6.266e-10
 63.08839     -4.8 1.097e+04 5.666e-10
 63.12094     -3.2 1.100e+04 5.989e-10
 63.16013     -1.3 1.083e+04 5.208e-10
 63.19933      0.2 1.066e+04 3.868e-10
 63.23852      1.3 1.055e+04 2.875e-10
 63.27771      2.2 1.045e+04 2.328e-10
 63.31690      3.5 1.041e+04 2.457e-10
 63.35610      5.0 1.038e+04 2.648e-10
 63.39529      6.6 1.039e+04 2.781e-10
 63.43448      8.1 1.045e+04 2.897e-10
 63.47367      9.5 1.044e+04 2.879e-10
 63.51287     10.6 1.044e+04 2.829e-10
 63.55206     11.5 1.049e+04 2.914e-10
 63.57758     12.4 1.060e+04 2.991e-10
 63.59718     12.1 1.067e+04 3.016e-10
 63.63044     12.7 1.074e+04 2.890e-10
 63.66964     13.1 1.081e+04 3.046e-10
 63.69893     13.6 1.082e+04 3.482e-10
 63.71843     13.6 1.084e+04 3.572e-10
 63.73803     14.0 1.083e+04 3.880e-10
 63.75747     14.5 1.091e+04 4.161e-10
 63.76727     14.6 1.093e+04 4.112e-10
 63.77722     15.0 1.104e+04 4.239e-10
 63.79682     15.4 1.114e+04 4.221e-10
 63.81641     15.6 1.121e+04 4.164e-10
 63.83178     15.7 1.123e+04 4.165e-10
 63.84158     15.5 1.124e+04 4.174e-10
 63.85561     15.5 1.126e+04 4.250e-10
 63.87520     15.5 1.143e+04 4.394e-10
 63.89480     15.7 1.139e+04 4.780e-10
 63.91440     15.9 1.138e+04 5.166e-10
 63.93399     16.0 1.146e+04 5.483e-10
 63.95359     15.9 1.162e+04 5.849e-10
 63.97318     15.9 1.173e+04 6.453e-10
 63.99278     15.9 1.178e+04 7.359e-10
 64.01238     16.4 1.172e+04 8.096e-10
 64.03197     16.7 1.171e+04 8.620e-10
 64.06147     17.8 1.144e+04 7.616e-10
 64.08637     19.1 1.117e+04 6.791e-10
 64.10597     18.4 1.151e+04 8.027e-10
 64.13995     20.1 1.109e+04 6.479e-10
 64.17914     21.9 1.079e+04 5.431e-10
 64.21833     23.9 1.059e+04 4.773e-10
 64.25753     25.9 1.046e+04 4.485e-10
 64.29672     28.0 1.037e+04 4.434e-10
 64.33591     30.2 1.036e+04 4.654e-10
 64.37510     32.5 1.042e+04 5.224e-10
 64.41430     34.7 1.059e+04 6.205e-10
 64.45349     36.9 1.083e+04 7.484e-10
 64.49268     39.0 1.108e+04 8.857e-10
 64.53187     40.8 1.129e+04 1.001e-09
 64.57107     42.4 1.144e+04 1.080e-09
 64.59516     43.9 1.157e+04 1.148e-09
 64.61476     44.3 1.124e+04 9.769e-10
 64.64945     45.8 1.146e+04 1.130e-09
 64.68864     47.1 1.173e+04 1.327e-09
 64.72784     48.2 1.192e+04 1.467e-09
 64.76703     49.1 1.191e+04 1.462e-09
 64.80622     50.0 1.178e+04 1.355e-09
 64.84541     50.9 1.161e+04 1.249e-09
 64.88461     52.0 1.157e+04 1.223e-09
 64.92380     53.1 1.177e+04 1.333e-09
 64.96299     54.2 1.208e+04 1.519e-09
 64.99229     55.2 1.202e+04 1.425e-09
 65.01179     55.6 1.206e+04 1.427e-09
 65.03138     56.1 1.208e+04 1.407e-09
 65.05098     56.4 1.219e+04 1.389e-09
 65.07058     56.2 1.244e+04 1.427e-09
 65.09017     55.8 1.290e+04 1.563e-09
 65.10376     55.0 1.356e+04 1.911e-09
 65.11356     53.5 1.486e+04 3.408e-09
 65.12937     52.9 1.523e+04 4.505e-09
 65.14896     52.6 1.549e+04 5.659e-09
 65.16856     52.6 1.565e+04 6.467e-09
 65.18815     52.3 1.587e+04 6.677e-09
 65.20775     51.3 1.632e+04 6.855e-09
 65.22221     47.8 1.737e+04 7.687e-09
 65.23201     48.0 1.840e+04 8.891e-09
 65.24694     43.0 2.061e+04 1.125e-08
 65.26159     38.1 2.182e+04 1.303e-08
 65.27134     34.1 2.236e+04 1.650e-08
 65.28114     31.8 2.095e+04 1.938e-08
 65.29094     30.5 2.030e+04 1.938e-08
 65.30074     29.9 1.964e+04 1.853e-08
 65.31053     28.9 1.940e+04 1.547e-08
 65.32033     27.2 1.950e+04 1.006e-08
 65.33013     24.6 1.919e+04 6.398e-09
 65.34488     21.3 1.895e+04 4.205e-09
 65.35816     15.6 1.559e+04 2.274e-09
 65.36795     16.9 1.505e+04 2.187e-09
 65.38412     15.8 1.413e+04 2.013e-09
 65.40371     16.1 1.407e+04 2.043e-09
 65.42331     16.6 1.405e+04 2.136e-09
 65.44291     17.2 1.404e+04 2.225e-09
 65.46250     17.8 1.401e+04 2.259e-09
 65.48210     18.3 1.395e+04 2.287e-09
 65.50170     18.7 1.403e+04 2.387e-09
 65.52129     18.8 1.431e+04 2.663e-09
 65.54089     18.9 1.463e+04 3.301e-09
 65.56048     19.2 1.500e+04 4.181e-09
 65.58008     19.7 1.538e+04 5.050e-09
 65.59968     20.1 1.559e+04 5.374e-09
 65.61255     20.4 1.559e+04 5.241e-09
 65.62235     20.1 1.549e+04 5.144e-09
 65.63887     20.7 1.529e+04 4.715e-09
 65.65847     21.2 1.502e+04 3.879e-09
 65.67806     21.8 1.461e+04 2.999e-09
 65.69766     22.3 1.417e+04 2.215e-09
 65.71725     22.8 1.372e+04 1.627e-09
 65.73685     23.4 1.331e+04 1.230e-09
 65.75645     23.8 1.301e+04 1.020e-09
 65.77604     24.4 1.264e+04 8.986e-10
 65.79564     24.9 1.235e+04 8.533e-10
 65.81524     26.2 1.216e+04 8.458e-10
 65.83483     26.8 1.222e+04 8.686e-10
 65.86432     28.7 1.216e+04 8.657e-10
 65.90361     30.9 1.228e+04 9.529e-10
 65.93291     31.8 1.227e+04 9.785e-10
 65.94969     32.5 1.218e+04 9.609e-10
 65.95948     33.0 1.220e+04 9.607e-10
 65.97201     33.8 1.199e+04 9.197e-10
 65.99160     34.7 1.173e+04 8.389e-10
 66.01120     35.6 1.144e+04 7.320e-10
 66.03080     36.3 1.122e+04 6.230e-10
 66.06029     36.8 1.099e+04 4.888e-10
 66.09958     38.5 1.065e+04 3.759e-10
 66.12154     40.4 1.034e+04 2.883e-10
 66.14113     40.9 1.030e+04 2.693e-10
 66.17796     42.8 1.011e+04 2.163e-10
 66.21716     44.7 9.930e+03 1.759e-10
 66.25635     46.6 9.783e+03 1.410e-10
 66.29554     48.4 9.646e+03 1.175e-10
 66.33473     50.4 9.546e+03 1.126e-10
 66.37393     52.5 9.546e+03 1.138e-10
 66.41312     54.6 9.546e+03 1.217e-10
 66.45231     56.5 9.573e+03 1.462e-10
 66.49150     58.4 9.692e+03 1.972e-10
 66.53070     60.3 9.926e+03 2.824e-10
 66.56989     62.2 1.025e+04 4.004e-10
 66.60908     64.0 1.055e+04 5.120e-10
 66.63033     65.3 1.068e+04 5.329e-10
 66.64993     65.8 1.055e+04 4.484e-10
 66.67735     66.9 1.054e+04 4.395e-10
 66.69695     67.9 1.055e+04 4.486e-10
 66.72666     69.0 1.049e+04 4.125e-10
 66.76585     70.0 1.035e+04 3.490e-10
 66.80504     71.0 1.020e+04 2.969e-10
 66.84424     72.0 1.016e+04 2.912e-10
 66.88343     73.1 1.019e+04 3.022e-10
 66.92262     74.1 1.033e+04 3.338e-10
 66.96181     75.1 1.046e+04 3.539e-10
 67.00101     75.9 1.047e+04 3.501e-10
 67.04020     76.8 1.046e+04 3.156e-10
 67.07939     77.7 1.038e+04 2.485e-10
 67.11858     78.4 1.027e+04 1.999e-10
 67.13912     79.2 1.028e+04 1.957e-10
 67.15872     79.4 1.036e+04 2.051e-10
 67.19697     80.1 1.045e+04 2.177e-10
 67.23616     80.3 1.074e+04 2.745e-10
 67.27535     80.4 1.111e+04 3.805e-10
 67.31455     80.6 1.148e+04 4.691e-10
 67.35374     80.6 1.161e+04 4.644e-10
 67.39293     80.5 1.168e+04 4.167e-10
 67.43213     80.4 1.179e+04 3.782e-10
 67.47132     80.2 1.189e+04 3.797e-10
 67.51051     79.5 1.212e+04 4.170e-10
 67.54970     78.6 1.243e+04 5.931e-10
 67.58890     77.9 1.278e+04 1.047e-09
 67.62809     77.3 1.351e+04 1.744e-09
 67.64782     76.5 1.424e+04 2.488e-09
 67.65752     76.6 1.435e+04 2.547e-09
 67.67688     75.6 1.499e+04 3.245e-09
 67.69648     74.0 1.514e+04 3.279e-09
 67.71608     71.9 1.506e+04 3.042e-09
 67.73567     69.9 1.464e+04 2.478e-09
 67.75527     68.0 1.418e+04 2.002e-09
 67.78476     65.1 1.376e+04 1.616e-09
 67.82405     62.2 1.329e+04 1.303e-09
 67.86324     60.3 1.305e+04 1.137e-09
 67.90244     59.1 1.285e+04 9.871e-10
 67.94163     58.1 1.267e+04 8.105e-10
 67.98082     57.2 1.242e+04 6.226e-10
 68.02001     56.7 1.217e+04 4.709e-10
 68.05921     56.4 1.194e+04 3.702e-10
 68.09840     56.5 1.171e+04 3.019e-10
 68.13230     56.9 1.144e+04 2.523e-10
 68.15141     56.9 1.178e+04 3.193e-10
 68.15671     58.0 1.193e+04 3.527e-10
 68.17678     58.7 1.174e+04 2.814e-10
 68.21598     59.6 1.145e+04 2.160e-10
 68.25517     60.4 1.101e+04 1.777e-10
 68.29436     61.5 1.081e+04 1.724e-10
 68.33355     62.6 1.085e+04 1.863e-10
 68.37275     62.6 1.104e+04 2.675e-10
 68.41194     62.6 1.157e+04 5.952e-10
 68.45113     62.7 1.233e+04 1.276e-09
 68.49032     62.4 1.279e+04 1.721e-09
 68.52952     61.2 1.272e+04 1.617e-09
 68.56871     60.2 1.221e+04 1.100e-09
 68.60790     59.0 1.133e+04 5.568e-10
 68.64590     57.5 1.059e+04 3.945e-10
 68.66550     58.4 1.068e+04 4.055e-10
 68.68629     57.6 1.056e+04 4.031e-10
 68.72548     57.2 1.053e+04 4.420e-10
 68.76467     57.1 1.045e+04 4.796e-10
 68.80387     57.2 1.037e+04 4.715e-10
 68.84306     57.5 1.012e+04 4.161e-10
 68.88225     58.1 9.801e+03 3.030e-10
 68.92144     58.6 9.527e+03 1.948e-10
 68.96064     58.9 9.303e+03 1.303e-10
 68.99983     59.4 9.114e+03 1.162e-10
 69.03902     60.2 9.105e+03 1.173e-10
 69.07821     61.2 9.093e+03 1.266e-10
 69.11741     62.3 9.115e+03 1.449e-10
 69.15469     63.5 9.144e+03 1.616e-10
 69.17429     64.0 9.159e+03 1.638e-10
 69.19579     65.1 9.171e+03 1.665e-10
 69.23498     66.1 9.157e+03 1.647e-10
 69.27418     67.2 9.109e+03 1.587e-10
 69.31337     68.4 9.047e+03 1.494e-10
 69.35256     69.7 8.985e+03 1.381e-10
 69.39175     71.1 8.927e+03 1.248e-10
 69.43095     72.6 8.863e+03 1.109e-10
 69.47014     74.1 8.795e+03 1.015e-10
 69.50933     75.7 8.787e+03 1.012e-10
 69.54852     77.3 8.801e+03 1.049e-10
 69.58724     78.8 8.864e+03 1.211e-10
 69.60684     79.3 8.769e+03 1.012e-10
 69.62691     80.8 8.859e+03 1.224e-10
 69.66348     82.4 9.000e+03 1.588e-10
 69.68308     82.6 9.002e+03 1.598e-10
 69.70529     84.1 9.180e+03 2.109e-10
 69.74449     85.5 9.375e+03 2.679e-10
 69.78368     86.7 9.541e+03 3.145e-10
 69.82287     87.6 9.663e+03 3.478e-10
 69.86207     88.4 9.743e+03 3.703e-10
 69.90126     89.1 9.824e+03 3.924e-10
 69.94045     89.7 9.950e+03 4.295e-10
 69.97964     90.3 1.008e+04 4.714e-10
 70.00894     90.6 1.022e+04 5.085e-10
 70.02844     90.7 1.027e+04 5.237e-10
 70.04803     91.0 1.030e+04 5.289e-10
 70.06763     91.2 1.032e+04 5.356e-10
 70.08723     91.4 1.038e+04 5.494e-10
 70.10682     91.4 1.051e+04 5.833e-10
 70.12642     91.4 1.069e+04 6.475e-10
 70.14602     91.2 1.087e+04 7.412e-10
 70.16561     91.2 1.103e+04 8.533e-10
 70.18188     91.2 1.114e+04 9.645e-10
 70.19168     91.1 1.130e+04 1.062e-09
 70.20480     91.2 1.134e+04 1.123e-09
 70.22440     91.3 1.131e+04 1.120e-09
 70.24400     91.5 1.117e+04 1.072e-09
 70.26359     91.8 1.093e+04 9.525e-10
 70.28319     92.2 1.065e+04 8.008e-10
 70.30279     92.4 1.038e+04 6.368e-10
 70.33228     92.3 1.008e+04 4.541e-10
 70.37157     93.3 9.712e+03 3.431e-10
 70.41076     94.6 9.417e+03 2.776e-10
 70.44995     96.0 9.222e+03 2.473e-10
 70.48915     97.4 9.256e+03 2.414e-10
 70.52834     98.8 9.319e+03 2.480e-10
 70.56753    100.1 9.430e+03 2.611e-10
 70.60672    101.2 9.532e+03 2.770e-10
 70.64592    102.4 9.607e+03 2.906e-10
 70.68107    103.5 9.680e+03 2.963e-10
 70.70066    104.3 9.640e+03 2.909e-10
 70.72430    105.5 9.714e+03 2.945e-10
 70.76349    106.8 9.756e+03 2.996e-10
 70.80269    108.1 9.850e+03 3.109e-10
 70.84188    109.3 1.001e+04 3.355e-10
 70.88107    110.3 1.023e+04 3.849e-10
 70.92026    111.3 1.054e+04 4.796e-10
 70.95946    112.2 1.082e+04 5.977e-10
 70.98875    112.4 1.105e+04 7.465e-10
 71.00825    112.6 1.125e+04 8.844e-10
 71.02785    112.7 1.147e+04 1.037e-09
 71.04745    112.7 1.173e+04 1.214e-09
 71.06158    112.7 1.199e+04 1.390e-09
 71.07138    112.8 1.215e+04 1.492e-09
 71.08664    112.6 1.238e+04 1.587e-09
 71.10623    112.1 1.254e+04 1.581e-09
 71.12583    111.5 1.258e+04 1.571e-09
 71.15532    110.0 1.254e+04 1.397e-09
 71.18986    108.2 1.252e+04 1.300e-09
 71.20936    108.9 1.287e+04 1.543e-09
 71.23371    107.8 1.300e+04 1.584e-09
 71.27300    106.4 1.271e+04 1.357e-09
 71.31219    105.5 1.247e+04 1.208e-09
 71.35138    104.9 1.229e+04 1.048e-09
 71.39058    104.5 1.206e+04 8.598e-10
 71.42977    104.1 1.179e+04 6.683e-10
 71.46896    103.7 1.153e+04 5.081e-10
 71.50815    103.3 1.143e+04 3.968e-10
 71.54735    102.7 1.145e+04 3.248e-10
 71.58654    102.1 1.156e+04 2.936e-10
 71.62573    101.4 1.158e+04 2.936e-10
 71.66492    100.6 1.167e+04 3.022e-10
 71.69865     99.9 1.175e+04 3.151e-10
 71.71825    100.8 1.191e+04 3.510e-10
 71.74331    100.0 1.190e+04 3.341e-10
 71.78250     99.6 1.182e+04 3.093e-10
 71.82169     99.5 1.172e+04 2.852e-10
 71.86089     99.4 1.157e+04 2.728e-10
 71.90008     99.3 1.144e+04 2.727e-10
 71.93927     99.2 1.135e+04 2.835e-10
 71.97846     99.2 1.119e+04 3.163e-10
 72.01766     99.4 1.110e+04 3.542e-10
 72.05685     99.6 1.100e+04 3.681e-10
 72.09604    100.1 1.093e+04 3.570e-10
 72.13523    100.9 1.076e+04 3.146e-10
 72.17443    101.8 1.061e+04 2.535e-10
 72.20744    102.9 1.049e+04 2.048e-10
 72.22704    102.5 1.041e+04 1.933e-10
 72.25281    103.8 1.038e+04 1.864e-10
 72.29201    105.3 1.039e+04 1.897e-10
 72.33120    106.8 1.048e+04 2.066e-10
 72.37039    108.0 1.065e+04 2.420e-10
 72.40958    109.1 1.085e+04 2.946e-10
 72.44878    110.1 1.102e+04 3.697e-10
 72.48797    110.6 1.121e+04 4.959e-10
 72.51672    110.5 1.156e+04 7.344e-10
 72.53632    110.3 1.167e+04 8.660e-10
 72.56635    109.6 1.233e+04 1.302e-09
 72.60555    108.5 1.294e+04 1.780e-09
 72.64474    106.7 1.302e+04 1.815e-09
 72.68393    105.1 1.284e+04 1.700e-09
 72.71623    104.9 1.224e+04 1.293e-09
 72.73583    103.2 1.184e+04 1.019e-09
 72.75242    103.6 1.161e+04 8.747e-10
 72.77192    103.9 1.134e+04 6.688e-10
 72.79152    103.7 1.099e+04 4.897e-10
 72.81111    103.5 1.064e+04 3.845e-10
 72.84060    103.9 1.046e+04 3.744e-10
 72.87989    105.1 1.049e+04 3.787e-10
 72.91909    106.2 1.047e+04 4.230e-10
 72.95828    107.3 1.082e+04 5.731e-10
 72.99747    108.5 1.129e+04 7.561e-10
 73.03666    109.3 1.153e+04 7.888e-10
 73.07586    110.1 1.152e+04 7.382e-10
 73.11505    111.2 1.138e+04 5.668e-10
 73.15424    112.5 1.113e+04 3.777e-10
 73.19343    114.0 1.083e+04 2.389e-10
 73.22502    115.4 1.059e+04 1.610e-10
 73.24462    114.7 1.055e+04 1.554e-10
 73.27182    116.6 1.041e+04 1.406e-10
 73.31101    118.8 1.038e+04 1.462e-10
 73.35020    121.2 1.042e+04 1.703e-10
 73.38940    123.5 1.067e+04 2.208e-10
 73.42859    125.7 1.104e+04 2.987e-10
 73.46778    127.9 1.141e+04 3.922e-10
 73.50698    129.4 1.162e+04 4.680e-10
 73.53627    130.3 1.165e+04 5.080e-10
 73.55577    131.0 1.155e+04 5.566e-10
 73.57537    132.4 1.174e+04 5.570e-10
 73.59496    133.2 1.180e+04 5.504e-10
 73.61456    134.4 1.191e+04 5.030e-10
 73.63416    134.8 1.197e+04 4.674e-10
 73.65375    135.8 1.198e+04 4.122e-10
 73.67335    136.2 1.197e+04 3.799e-10
 73.70284    137.7 1.195e+04 3.498e-10
 73.73382    139.3 1.182e+04 3.141e-10
 73.75341    139.1 1.143e+04 2.539e-10
 73.78132    141.0 1.139e+04 2.554e-10
 73.82052    142.8 1.136e+04 2.734e-10
 73.85971    144.6 1.139e+04 3.156e-10
 73.89890    146.1 1.142e+04 3.678e-10
 73.93809    147.6 1.140e+04 3.988e-10
 73.97167    149.2 1.136e+04 3.962e-10
 73.99126    149.6 1.143e+04 4.199e-10
 74.01648    151.2 1.135e+04 4.030e-10
 74.05567    152.8 1.123e+04 3.672e-10
 74.09486    154.3 1.111e+04 3.288e-10
 74.13406    156.0 1.099e+04 2.956e-10
 74.17325    157.7 1.086e+04 2.708e-10
 74.21244    159.6 1.075e+04 2.569e-10
 74.24261    161.6 1.066e+04 2.527e-10
 74.26220    162.7 1.028e+04 1.826e-10
 74.29083    164.8 1.025e+04 1.864e-10
 74.33002    166.9 1.024e+04 1.913e-10
 74.36921    169.0 1.024e+04 1.929e-10
 74.40840    171.0 1.023e+04 1.919e-10
 74.44760    173.0 1.017e+04 1.909e-10
 74.48679    175.1 1.011e+04 1.909e-10
 74.52598    177.2 1.009e+04 1.913e-10
 74.56517    179.3 1.003e+04 1.962e-10
 74.60437    181.3 9.976e+03 2.106e-10
 74.64356    183.1 9.984e+03 2.355e-10
 74.68275    184.8 1.005e+04 2.699e-10
 74.72195    186.2 1.016e+04 3.116e-10
 74.75140    187.2 1.025e+04 3.549e-10
 74.77100    188.2 1.023e+04 3.473e-10
 74.80033    188.6 1.028e+04 3.842e-10
 74.82963    189.1 1.034e+04 4.333e-10
 74.84913    189.5 1.053e+04 4.984e-10
 74.87862    189.9 1.087e+04 6.004e-10
 74.91791    189.9 1.094e+04 6.150e-10
 74.95710    190.1 1.084e+04 5.883e-10
 74.99629    190.6 1.056e+04 5.102e-10
 75.03549    190.7 1.024e+04 4.155e-10
 75.07468    190.9 1.001e+04 3.574e-10
 75.11387    191.4 9.973e+03 3.522e-10
 75.15306    192.3 9.989e+03 3.607e-10
 75.19226    193.4 1.010e+04 4.111e-10
 75.23145    194.4 1.048e+04 5.419e-10
 75.26019    194.8 1.100e+04 7.593e-10
 75.27979    195.9 1.092e+04 7.215e-10
 75.30983    196.0 1.145e+04 9.960e-10
 75.34903    195.8 1.185e+04 1.162e-09
 75.38822    194.8 1.192e+04 1.162e-09
 75.42661    193.4 1.185e+04 1.089e-09
 75.44621    191.7 1.160e+04 9.643e-10
 75.46660    190.2 1.114e+04 7.411e-10
 75.50580    188.8 1.054e+04 5.580e-10
 75.54499    187.6 1.025e+04 5.003e-10
 75.58418    187.1 1.027e+04 5.048e-10
 75.62337    186.9 1.034e+04 5.162e-10
 75.66257    186.9 1.037e+04 5.160e-10
 75.70176    187.0 1.035e+04 4.886e-10
 75.74095    187.5 1.019e+04 4.226e-10
 75.76898    188.3 9.926e+03 3.364e-10
 75.78858    189.5 1.007e+04 3.985e-10
 75.81934    190.5 9.871e+03 3.299e-10
 75.85853    191.4 9.648e+03 2.684e-10
 75.89772    192.3 9.452e+03 2.269e-10
 75.93692    193.3 9.472e+03 2.157e-10
 75.97611    194.3 9.531e+03 2.195e-10
 76.01530    195.2 9.932e+03 2.562e-10
 76.04460    196.0 1.007e+04 2.806e-10
 76.06410    196.4 1.028e+04 3.174e-10
 76.08369    196.4 1.060e+04 4.075e-10
 76.10329    196.5 1.096e+04 5.601e-10
 76.12288    197.0 1.130e+04 7.523e-10
 76.14248    197.8 1.166e+04 9.219e-10
 76.16208    198.8 1.194e+04 1.029e-09
 76.17348    198.7 1.229e+04 1.010e-09
 76.18328    196.1 1.219e+04 9.107e-10
 76.19632    196.2 1.229e+04 9.025e-10
 76.20607    194.7 1.621e+04 7.961e-10
 76.21587    172.6 6.821e+04 5.628e-10
 76.22121    146.6 9.003e+04 1.394e-09
 76.22363    158.1 8.643e+04 8.229e-10
 76.22807    131.9 6.978e+04 9.626e-09
 76.23297    105.6 3.067e+04 7.381e-07
 76.23787     90.8 1.941e+04 6.878e-06
 76.24277     89.2 1.723e+04 1.772e-05
 76.24766     89.4 1.690e+04 2.355e-05
 76.25256     89.8 1.709e+04 2.048e-05
 76.25746     90.3 1.747e+04 1.481e-05
 76.26236     90.9 1.805e+04 9.065e-06
 76.26726     91.7 1.897e+04 4.837e-06
 76.27216     92.6 2.166e+04 1.918e-06
 76.27706     92.3 2.706e+04 5.968e-07
 76.28236     82.3 6.336e+04 2.014e-08
 76.28726     94.8 2.783e+04 3.324e-07
 76.29423     90.8 5.315e+04 3.062e-08
 76.30405     51.6 1.144e+05 1.458e-09
 76.31385      8.4 5.359e+04 4.995e-09
 76.32365    -10.7 2.056e+04 1.136e-08
 76.33345    -14.8 2.238e+04 1.590e-08
 76.34325    -16.7 2.314e+04 2.308e-08
 76.35304    -18.4 2.262e+04 3.791e-08
 76.36284    -19.6 2.275e+04 5.033e-08
 76.37264    -20.4 2.300e+04 5.977e-08
 76.38244    -21.3 2.310e+04 5.999e-08
 76.39224    -22.0 2.326e+04 5.005e-08
 76.40203    -22.7 2.374e+04 3.450e-08
 76.40958    -24.1 2.346e+04 2.121e-08
 76.41448    -21.9 2.335e+04 3.070e-08
 76.42163    -23.1 2.288e+04 1.879e-08
 76.43143    -25.7 2.063e+04 1.011e-08
 76.44123    -28.6 1.742e+04 5.484e-09
 76.45597    -30.5 1.547e+04 3.164e-09
 76.47562    -31.2 1.466e+04 1.724e-09
 76.49521    -33.1 1.338e+04 8.002e-10
 76.51481    -35.5 1.151e+04 4.214e-10
 76.53198    -37.3 1.007e+04 2.923e-10
 76.54177    -33.4 1.220e+04 5.033e-10
 76.55400    -35.6 1.044e+04 3.346e-10
 76.57360    -36.4 9.893e+03 3.013e-10
 76.59320    -36.7 9.840e+03 3.091e-10
 76.61279    -37.2 9.979e+03 3.454e-10
 76.64228    -38.4 1.032e+04 4.149e-10
 76.68157    -39.4 1.059e+04 5.233e-10
 76.71087    -39.2 1.053e+04 5.514e-10
 76.73037    -39.6 1.047e+04 5.293e-10
 76.75986    -41.0 1.025e+04 4.556e-10
 76.78657    -42.3 9.859e+03 3.416e-10
 76.80616    -40.1 9.448e+03 2.650e-10
 76.83834    -41.2 8.856e+03 1.812e-10
 76.87754    -41.7 8.664e+03 1.615e-10
 76.90115    -41.7 8.675e+03 1.649e-10
 76.92075    -41.4 8.650e+03 1.582e-10
 76.95592    -40.4 8.900e+03 2.006e-10
 76.99511    -39.2 9.228e+03 2.672e-10
 77.03431    -37.7 9.604e+03 3.450e-10
 77.07350    -36.2 1.002e+04 4.441e-10
 77.11269    -34.8 1.043e+04 5.676e-10
 77.15189    -33.3 1.084e+04 7.170e-10
 77.18118    -32.0 1.106e+04 8.341e-10
 77.20068    -31.2 1.105e+04 8.552e-10
 77.22028    -30.1 1.112e+04 8.872e-10
 77.23987    -29.3 1.113e+04 8.879e-10
 77.25947    -28.5 1.106e+04 8.574e-10
 77.27907    -27.5 1.098e+04 8.241e-10
 77.29526    -26.3 1.080e+04 7.444e-10
 77.30506    -26.3 1.094e+04 8.037e-10
 77.31826    -25.5 1.081e+04 7.552e-10
 77.34775    -23.8 1.071e+04 6.941e-10
 77.38704    -21.4 1.045e+04 6.152e-10
 77.42623    -18.9 1.020e+04 5.264e-10
 77.46543    -16.7 9.947e+03 4.371e-10
 77.50462    -14.6 9.783e+03 3.919e-10
 77.54381    -12.7 9.752e+03 3.899e-10
 77.57311    -11.2 9.816e+03 4.398e-10
 77.59261    -10.5 9.750e+03 4.594e-10
 77.61220     -8.9 9.928e+03 5.279e-10
 77.62843     -7.6 1.005e+04 5.695e-10
 77.63823     -7.1 1.005e+04 5.706e-10
 77.65140     -5.8 1.016e+04 6.123e-10
 77.67099     -4.5 1.033e+04 6.451e-10
 77.69059     -3.5 1.046e+04 6.716e-10
 77.71018     -2.6 1.047e+04 6.716e-10
 77.72978     -1.8 1.054e+04 6.898e-10
 77.74938     -1.0 1.053e+04 6.883e-10
 77.76897      0.1 1.065e+04 7.221e-10
 77.78857      0.6 1.067e+04 7.258e-10
 77.80395      2.0 1.081e+04 7.794e-10
 77.81375      1.9 1.114e+04 9.292e-10
 77.82776      2.8 1.121e+04 9.508e-10
 77.84736      4.1 1.108e+04 9.306e-10
 77.86695      4.7 1.112e+04 9.460e-10
 77.88655      5.9 1.109e+04 9.633e-10
 77.90615      6.6 1.120e+04 1.004e-09
 77.92574      7.6 1.126e+04 1.056e-09
 77.94534      8.4 1.136e+04 1.118e-09
 77.96494      9.5 1.155e+04 1.226e-09
 77.98453     10.3 1.181e+04 1.354e-09
 78.00413     11.4 1.199e+04 1.482e-09
 78.02372     12.4 1.220e+04 1.618e-09
 78.04332     13.2 1.243e+04 1.757e-09
 78.05835     14.2 1.258e+04 1.879e-09
 78.06815     14.3 1.293e+04 2.170e-09
 78.08251     15.5 1.311e+04 2.353e-09
 78.10211     16.8 1.322e+04 2.470e-09
 78.12171     18.4 1.317e+04 2.454e-09
 78.14130     19.6 1.315e+04 2.392e-09
 78.16090     21.5 1.287e+04 2.093e-09
 78.18050     22.9 1.256e+04 1.775e-09
 78.20009     24.3 1.204e+04 1.406e-09
 78.21969     25.3 1.133e+04 1.053e-09
 78.23928     25.3 1.063e+04 7.806e-10
 78.25888     24.8 1.070e+04 6.261e-10
 78.27848     24.3 1.050e+04 6.126e-10
 78.29807     24.4 1.039e+04 6.339e-10
 78.31275     24.3 1.056e+04 7.060e-10
 78.32254     25.8 1.066e+04 7.354e-10
 78.33727     25.5 1.090e+04 8.293e-10
 78.35590     24.9 1.129e+04 9.565e-10
 78.36570     23.7 1.191e+04 1.005e-09
 78.37646     20.6 1.417e+04 1.202e-09
 78.39605     20.3 1.854e+04 1.620e-09
 78.41565     21.0 1.770e+04 1.642e-09
 78.43525     20.5 1.554e+04 1.518e-09
 78.45484     19.3 1.318e+04 1.425e-09
 78.47444     18.2 1.226e+04 1.377e-09
 78.49404     18.4 1.200e+04 1.405e-09
 78.51363     18.5 1.200e+04 1.458e-09
 78.53323     18.8 1.214e+04 1.501e-09
 78.55282     19.0 1.231e+04 1.564e-09
 78.56714     19.2 1.246e+04 1.709e-09
 78.57694     18.9 1.394e+04 2.386e-09
 78.59202     19.5 1.382e+04 2.507e-09
 78.61161     20.2 1.382e+04 2.686e-09
 78.63121     20.9 1.422e+04 2.999e-09
 78.65081     20.6 1.510e+04 3.523e-09
 78.67040     19.2 1.634e+04 4.719e-09
 78.69000     18.5 1.642e+04 5.841e-09
 78.70959     18.8 1.613e+04 6.742e-09
 78.72919     20.4 1.555e+04 6.285e-09
 78.74879     22.2 1.490e+04 5.093e-09
 78.76838     22.3 1.435e+04 3.763e-09
 78.78798     21.8 1.371e+04 2.520e-09
 78.80758     20.0 1.285e+04 1.589e-09
 78.82154     18.4 1.169e+04 1.041e-09
 78.83134     16.7 1.271e+04 1.107e-09
 78.84677     15.5 1.139e+04 8.719e-10
 78.86637     15.3 1.093e+04 7.863e-10
 78.88596     15.7 1.081e+04 7.652e-10
 78.90556     16.6 1.085e+04 7.845e-10
 78.92515     17.4 1.102e+04 8.416e-10
 78.94475     18.3 1.120e+04 9.011e-10
 78.96435     19.4 1.146e+04 9.763e-10
 78.98394     20.5 1.176e+04 1.061e-09
 79.00354     21.7 1.203e+04 1.122e-09
 79.02314     22.9 1.228e+04 1.175e-09
 79.04273     24.1 1.253e+04 1.228e-09
 79.06233     25.2 1.275e+04 1.290e-09
 79.07593     26.3 1.297e+04 1.379e-09
 79.08573     24.6 1.351e+04 1.442e-09
 79.09317     25.7 1.362e+04 1.537e-09
 79.10297     24.6 1.427e+04 1.929e-09
 79.12112     25.8 1.438e+04 2.052e-09
 79.14071     26.9 1.467e+04 2.270e-09
 79.16031     27.8 1.499e+04 2.588e-09
 79.17991     28.9 1.550e+04 3.089e-09
 79.19950     29.9 1.630e+04 3.898e-09
 79.21910     30.7 1.709e+04 4.958e-09
 79.23869     31.8 1.791e+04 6.211e-09
 79.25829     32.9 1.887e+04 7.816e-09
 79.27789     34.0 1.962e+04 9.594e-09
 79.29748     35.2 2.025e+04 1.054e-08
 79.31213     35.9 2.059e+04 1.116e-08
 79.32188     36.5 2.091e+04 1.174e-08
 79.33023     37.1 2.096e+04 1.214e-08
 79.33513     36.8 2.033e+04 1.172e-08
 79.34148     37.0 2.036e+04 1.169e-08
 79.35128     37.5 2.033e+04 1.144e-08
 79.36107     38.0 2.036e+04 1.112e-08
 79.37087     38.4 2.040e+04 1.098e-08
 79.38067     38.8 2.055e+04 1.115e-08
 79.39047     38.9 2.085e+04 1.149e-08
 79.40027     39.0 2.112e+04 1.174e-08
 79.41006     39.5 2.127e+04 1.189e-08
 79.41986     39.9 2.141e+04 1.194e-08
 79.42966     40.5 2.173e+04 1.212e-08
 79.43946     40.8 2.183e+04 1.208e-08
 79.45421     41.3 2.226e+04 1.293e-08
 79.47385     42.4 2.200e+04 1.487e-08
 79.49345     43.4 2.140e+04 1.625e-08
 79.51304     44.6 2.138e+04 1.654e-08
 79.53264     45.9 2.147e+04 1.549e-08
 79.55224     47.1 2.160e+04 1.316e-08
 79.57183     48.2 2.142e+04 1.055e-08
 79.58472     48.8 2.156e+04 8.840e-09
 79.58958     46.1 2.175e+04 1.190e-08
 79.59623     46.2 2.238e+04 1.258e-08
 79.60603     46.2 2.336e+04 1.381e-08
 79.61583     45.6 2.545e+04 1.656e-08
 79.62562     44.1 2.900e+04 2.199e-08
 79.63542     42.3 3.257e+04 3.093e-08
 79.64522     40.8 3.336e+04 4.726e-08
 79.65502     40.4 3.124e+04 8.052e-08
 79.66482     40.5 2.804e+04 1.321e-07
 79.67461     41.7 2.553e+04 1.942e-07
 79.68441     43.7 2.392e+04 3.046e-07
 79.69421     44.8 2.318e+04 4.935e-07
 79.70401     43.7 2.349e+04 5.667e-07
 79.71183     42.2 2.362e+04 4.802e-07
 79.71672     42.2 2.366e+04 2.458e-07
 79.72361     42.8 2.394e+04 1.405e-07
 79.73340     44.2 2.436e+04 7.025e-08
 79.74320     45.2 2.577e+04 3.392e-08
 79.75300     45.3 2.632e+04 1.914e-08
 79.76280     45.3 2.556e+04 1.287e-08
 79.77260     45.3 2.459e+04 9.818e-09
 79.78239     45.5 2.370e+04 7.655e-09
 79.79219     45.4 2.230e+04 5.969e-09
 79.80199     45.5 2.048e+04 4.670e-09
 79.81179     45.7 1.888e+04 3.917e-09
 79.82054     46.8 1.765e+04 3.409e-09
 79.82544     45.6 1.731e+04 3.070e-09
 79.83138     46.9 1.695e+04 2.979e-09
 79.83902     48.9 1.708e+04 2.869e-09
 79.84392     46.5 1.655e+04 2.566e-09
 79.85098     47.8 1.640e+04 2.594e-09
 79.86078     49.9 1.754e+04 2.509e-09
 79.87058     51.8 2.201e+04 2.299e-09
 79.88038     53.3 2.411e+04 2.289e-09
 79.89017     55.0 2.307e+04 2.416e-09
 79.89997     56.8 2.475e+04 2.454e-09
 79.90977     58.9 3.150e+04 2.297e-09
 79.91957     61.7 4.361e+04 2.078e-09
 79.92937     65.2 5.163e+04 1.929e-09
 79.93916     68.5 5.485e+04 1.796e-09
 79.94896     71.2 4.623e+04 1.869e-09
 79.95876     73.1 3.450e+04 2.152e-09
 79.96622     75.6 2.744e+04 2.362e-09
 79.97112     70.4 2.082e+04 2.579e-09
 79.97836     73.9 2.163e+04 2.531e-09
 79.98816     78.1 2.191e+04 2.442e-09
 79.99795     80.5 2.323e+04 2.371e-09
 80.00775     82.5 3.518e+04 1.658e-09
 80.01508     68.1 7.356e+04 9.723e-10
 80.01995     50.1 1.746e+05 3.399e-10
 80.02485    -15.2 4.955e+05 1.613e-10
 80.02975    -84.4 5.151e+05 4.979e-10
 80.03465    -93.5 1.177e+05 2.114e-08
 80.03831   -127.7 2.315e+04 1.310e-05
 80.04075   -139.1 1.879e+04 3.143e-05
 80.04320   -146.9 1.753e+04 4.180e-05
 80.04565   -150.5 2.027e+04 1.529e-05
 80.04810   -153.5 2.394e+04 5.613e-06
 80.05055   -155.7 2.909e+04 2.470e-06
 80.05423   -146.5 4.155e+04 5.384e-07
 80.05914   -129.7 5.151e+04 9.193e-08
 80.06404    -98.3 6.756e+04 2.080e-08
 80.06894    -87.8 1.015e+05 6.676e-09
 80.07384    -91.5 1.274e+05 4.777e-09
 80.07874    -96.6 1.332e+05 5.519e-09
 80.08364    -89.3 1.502e+05 3.444e-09
 80.08854    -71.9 1.626e+05 2.196e-09
 80.09337    -61.8 1.352e+05 2.775e-09
 80.09582    -56.2 6.133e+04 4.025e-09
 80.09834    -62.9 6.404e+04 5.259e-09
 80.10323    -78.0 6.643e+04 8.184e-09
 80.10813    -84.1 5.246e+04 2.570e-08
 80.11303    -96.1 3.965e+04 1.176e-07
 80.11793   -110.0 3.391e+04 4.904e-07
 80.12283   -120.5 2.881e+04 1.713e-06
 80.12773   -128.6 2.498e+04 4.397e-06
 80.13263   -131.7 2.184e+04 7.486e-06
 80.13753   -130.6 2.017e+04 9.824e-06
 80.14243   -127.1 1.984e+04 1.043e-05
 80.14733   -124.1 1.914e+04 1.086e-05
 80.15223   -121.5 1.918e+04 8.819e-06
 80.15697   -119.3 1.986e+04 5.938e-06
 80.15942   -122.0 1.848e+04 1.388e-05
 80.16202   -120.9 1.917e+04 9.715e-06
 80.16692   -119.9 2.137e+04 4.980e-06
 80.17182   -118.2 2.556e+04 2.157e-06
 80.17672   -116.9 3.064e+04 7.927e-07
 80.18409   -115.9 5.255e+04 5.112e-08
 80.18918   -113.6 6.079e+04 2.045e-08
 80.19160   -114.7 2.736e+04 1.511e-06
 80.19632   -112.6 3.115e+04 7.926e-07
 80.20122   -110.7 3.482e+04 4.763e-07
 80.20612   -111.5 3.763e+04 3.129e-07
 80.21349   -112.6 3.668e+04 3.360e-07
 80.22062   -109.7 4.258e+04 1.470e-07
 80.22552   -109.6 4.106e+04 2.080e-07
 80.23311   -105.8 4.950e+04 6.518e-08
 80.24291   -104.3 4.940e+04 3.487e-08
 80.25271   -103.8 4.574e+04 2.879e-08
 80.26250   -103.9 4.117e+04 2.647e-08
 80.27230   -104.4 3.698e+04 2.477e-08
 80.28210   -104.8 3.313e+04 2.330e-08
 80.29190   -105.0 2.956e+04 2.212e-08
 80.30170   -104.9 2.681e+04 2.119e-08
 80.31149   -104.4 2.498e+04 2.054e-08
 80.32129   -103.5 2.385e+04 2.073e-08
 80.33109   -102.2 2.324e+04 2.163e-08
 80.34089   -100.9 2.251e+04 2.367e-08
 80.34781    -99.7 2.229e+04 2.479e-08
 80.35271   -100.2 2.222e+04 2.343e-08
 80.36048    -98.8 2.211e+04 2.294e-08
 80.37028    -97.4 2.207e+04 2.331e-08
 80.38008    -96.1 2.200e+04 2.060e-08
 80.39483    -95.0 2.182e+04 1.569e-08
 80.41447    -93.5 2.164e+04 1.239e-08
 80.43407    -92.4 2.106e+04 9.528e-09
 80.45366    -91.5 1.971e+04 6.586e-09
 80.47326    -90.6 1.796e+04 4.430e-09
 80.49286    -90.0 1.595e+04 2.903e-09
 80.51245    -89.4 1.415e+04 2.046e-09
 80.53205    -88.5 1.307e+04 1.618e-09
 80.54811    -86.8 1.252e+04 1.391e-09
 80.55791    -87.5 1.205e+04 1.211e-09
 80.57124    -85.6 1.178e+04 1.065e-09
 80.59084    -83.7 1.160e+04 9.552e-10
 80.60231    -81.7 1.140e+04 8.522e-10
 80.61211    -82.6 1.102e+04 6.915e-10
 80.63003    -80.6 1.093e+04 6.366e-10
 80.64963    -78.6 1.092e+04 6.202e-10
 80.67912    -76.5 1.099e+04 6.342e-10
 80.71841    -73.3 1.064e+04 5.439e-10
 80.75760    -69.9 1.041e+04 4.754e-10
 80.79680    -66.9 1.032e+04 4.377e-10
 80.82609    -64.8 1.014e+04 3.860e-10
 80.84559    -64.1 1.012e+04 3.804e-10
 80.85670    -62.4 1.019e+04 3.822e-10
 80.86650    -63.0 1.027e+04 3.848e-10
 80.88478    -62.5 1.026e+04 3.866e-10
 80.90438    -61.2 1.045e+04 4.220e-10
 80.92398    -60.6 1.061e+04 4.755e-10
 80.94357    -59.9 1.089e+04 5.771e-10
 80.96317    -59.4 1.114e+04 6.995e-10
 80.98276    -59.0 1.143e+04 8.653e-10
 81.00236    -58.6 1.180e+04 1.091e-09
 81.02196    -58.1 1.223e+04 1.391e-09
 81.04155    -57.6 1.265e+04 1.751e-09
 81.06115    -56.9 1.303e+04 2.137e-09
 81.08075    -56.2 1.325e+04 2.380e-09
 81.10034    -55.7 1.325e+04 2.427e-09
 81.11110    -54.9 1.294e+04 2.232e-09
 81.12090    -54.8 1.288e+04 2.261e-09
 81.13953    -53.9 1.253e+04 1.836e-09
 81.15913    -53.4 1.224e+04 1.479e-09
 81.17873    -53.2 1.190e+04 1.238e-09
 81.19832    -52.8 1.166e+04 1.098e-09
 81.21792    -52.1 1.148e+04 1.010e-09
 81.23752    -51.4 1.138e+04 9.462e-10
 81.25711    -50.6 1.136e+04 9.247e-10
 81.27558    -50.1 1.147e+04 9.284e-10
 81.28538    -49.6 1.175e+04 1.053e-09
 81.29631    -49.5 1.214e+04 1.175e-09
 81.31590    -49.7 1.251e+04 1.406e-09
 81.33550    -49.8 1.288e+04 1.815e-09
 81.35509    -49.9 1.331e+04 2.414e-09
 81.36550    -49.9 1.391e+04 3.182e-09
 81.37529    -50.5 1.466e+04 3.598e-09
 81.39429    -50.8 1.556e+04 4.623e-09
 81.41388    -51.7 1.652e+04 5.894e-09
 81.43348    -53.1 1.725e+04 7.356e-09
 81.45308    -55.0 1.780e+04 9.146e-09
 81.47267    -57.1 1.833e+04 1.148e-08
 81.49227    -59.8 1.915e+04 1.460e-08
 81.51186    -63.3 2.014e+04 1.830e-08
 81.52651    -66.4 2.097e+04 2.179e-08
 81.53626    -68.3 2.124e+04 2.312e-08
 81.54606    -70.5 2.140e+04 2.390e-08
 81.55586    -72.4 2.130e+04 2.358e-08
 81.56566    -74.1 2.079e+04 2.148e-08
 81.57545    -75.1 2.031e+04 1.810e-08
 81.58525    -76.2 1.990e+04 1.462e-08
 81.59505    -77.4 1.954e+04 1.144e-08
 81.60485    -79.1 1.889e+04 8.397e-09
 81.61465    -80.7 1.830e+04 6.362e-09
 81.61979    -82.5 1.739e+04 4.660e-09
 81.62469    -83.0 1.752e+04 4.827e-09
 81.63424    -84.1 1.682e+04 3.877e-09
 81.64899    -85.5 1.611e+04 3.544e-09
 81.66863    -87.3 1.415e+04 1.803e-09
 81.68823    -87.9 1.349e+04 1.286e-09
 81.70783    -88.0 1.278e+04 9.705e-10
 81.72742    -88.2 1.142e+04 7.236e-10
 81.74702    -88.2 1.046e+04 5.941e-10
 81.76662    -87.7 1.011e+04 5.384e-10
 81.78621    -87.0 1.000e+04 5.119e-10
 81.80581    -86.2 9.941e+03 4.962e-10
 81.82541    -85.4 9.928e+03 4.815e-10
 81.84500    -84.4 9.935e+03 4.748e-10
 81.86449    -83.3 9.995e+03 4.773e-10
 81.87429    -83.3 1.003e+04 4.983e-10
 81.88419    -82.4 1.014e+04 5.134e-10
 81.90379    -81.3 1.028e+04 5.484e-10
 81.93328    -80.2 1.048e+04 6.145e-10
 81.97257    -77.7 1.059e+04 6.532e-10
 82.01177    -75.6 1.067e+04 6.779e-10
 82.05096    -73.4 1.069e+04 6.821e-10
 82.09015    -71.3 1.067e+04 6.582e-10
 82.12934    -69.3 1.064e+04 6.355e-10
 82.15864    -67.5 1.079e+04 6.860e-10
 82.17814    -67.0 1.078e+04 6.859e-10
 82.19773    -66.0 1.087e+04 7.030e-10
 82.21733    -65.8 1.090e+04 7.081e-10
 82.23693    -65.2 1.101e+04 7.471e-10
 82.25652    -64.7 1.105e+04 7.768e-10
 82.27612    -64.0 1.112e+04 8.162e-10
 82.29572    -63.5 1.121e+04 8.503e-10
 82.31531    -63.1 1.126e+04 8.648e-10
 82.33491    -62.7 1.126e+04 8.582e-10
 82.35450    -62.3 1.120e+04 8.270e-10
 82.37328    -61.8 1.107e+04 7.752e-10
 82.38308    -61.8 1.103e+04 7.561e-10
 82.39370    -61.2 1.089e+04 6.896e-10
 82.41329    -60.7 1.075e+04 6.270e-10
 82.43289    -60.1 1.063e+04 5.683e-10
 82.45249    -59.5 1.050e+04 5.090e-10
 82.48198    -59.1 1.034e+04 4.488e-10
 82.52127    -57.9 1.013e+04 3.823e-10
 82.56046    -56.9 9.979e+03 3.234e-10
 82.59965    -56.1 9.968e+03 2.921e-10
 82.63885    -55.7 1.003e+04 2.877e-10
 82.67804    -55.6 1.026e+04 3.320e-10
 82.71723    -55.5 1.047e+04 4.093e-10
 82.74052    -55.4 1.056e+04 4.452e-10
 82.76012    -55.5 1.053e+04 4.349e-10
 82.79562    -55.7 1.040e+04 3.961e-10
 82.83481    -56.2 1.003e+04 2.749e-10
 82.87247    -57.2 9.808e+03 2.142e-10
 82.89207    -57.5 9.743e+03 2.021e-10
 82.91319    -58.4 9.716e+03 1.997e-10
 82.95239    -59.0 9.733e+03 2.325e-10
 82.99158    -59.2 9.719e+03 2.675e-10
 83.03077    -59.2 9.662e+03 2.706e-10
 83.06996    -58.8 9.439e+03 2.243e-10
 83.10916    -58.3 9.207e+03 1.682e-10
 83.14835    -57.9 9.011e+03 1.373e-10
 83.18754    -57.2 8.919e+03 1.290e-10
 83.22674    -56.2 8.891e+03 1.282e-10
 83.26593    -55.2 8.881e+03 1.294e-10
 83.30512    -54.2 8.849e+03 1.286e-10
 83.34431    -53.2 8.792e+03 1.249e-10
 83.38126    -52.3 8.727e+03 1.228e-10
 83.40086    -52.4 8.631e+03 1.011e-10
 83.42270    -51.4 8.588e+03 1.024e-10
 83.46189    -50.2 8.536e+03 1.123e-10
 83.50108    -48.9 8.503e+03 1.237e-10
 83.54028    -47.4 8.484e+03 1.292e-10
 83.57947    -45.9 8.402e+03 1.278e-10
 83.61866    -44.3 8.291e+03 1.205e-10
 83.65785    -42.8 8.199e+03 1.100e-10
 83.69705    -41.2 8.123e+03 1.009e-10
 83.73624    -39.8 8.097e+03 9.675e-11
 83.77543    -38.6 8.133e+03 9.680e-11
 83.81462    -37.9 8.287e+03 1.195e-10
 83.85382    -37.2 8.504e+03 1.784e-10
 83.89005    -36.1 8.783e+03 2.623e-10
 83.90965    -35.8 8.795e+03 2.540e-10
 83.93220    -34.3 9.096e+03 3.343e-10
 83.97139    -33.2 9.226e+03 3.598e-10
 84.01059    -32.5 9.201e+03 3.297e-10
 84.04978    -32.0 8.879e+03 2.575e-10
 84.08897    -31.3 8.555e+03 2.047e-10
 84.12816    -30.1 8.338e+03 1.679e-10
 84.16736    -29.0 8.238e+03 1.385e-10
 84.19547    -28.1 8.209e+03 1.274e-10
 84.21506    -27.3 8.158e+03 1.223e-10
 84.24574    -26.4 8.207e+03 1.237e-10
 84.28493    -25.4 8.315e+03 1.541e-10
 84.32413    -23.8 8.418e+03 2.017e-10
 84.36332    -22.2 8.600e+03 2.349e-10
 84.39884    -20.9 8.700e+03 2.475e-10
 84.41844    -21.2 8.864e+03 2.926e-10
 84.44171    -20.1 8.832e+03 2.809e-10
 84.48090    -19.5 8.827e+03 2.731e-10
 84.52009    -18.9 8.936e+03 3.047e-10
 84.55928    -18.0 9.131e+03 3.743e-10
 84.59848    -17.0 9.324e+03 4.446e-10
 84.63767    -16.0 9.516e+03 4.934e-10
 84.67686    -15.7 9.637e+03 5.025e-10
 84.71605    -15.5 9.804e+03 5.067e-10
 84.75525    -14.5 9.618e+03 4.761e-10
 84.79444    -13.0 9.125e+03 3.766e-10
 84.83363    -11.5 8.622e+03 2.708e-10
 84.87282    -10.6 8.307e+03 1.978e-10
 84.90764     -9.9 8.335e+03 1.853e-10
 84.92723    -13.3 9.098e+03 2.735e-10
 84.95121    -14.2 9.872e+03 4.447e-10
 84.99040    -14.9 1.105e+04 8.455e-10
 85.02959    -16.0 1.212e+04 1.412e-09
 85.05889    -16.5 1.268e+04 2.117e-09
 85.07839    -16.2 1.270e+04 2.195e-09
 85.09799    -15.5 1.265e+04 2.014e-09
 85.11758    -15.4 1.245e+04 1.500e-09
 85.13718    -16.6 1.182e+04 9.557e-10
 85.15677    -19.1 1.058e+04 5.522e-10
 85.17163    -21.8 9.396e+03 3.484e-10
 85.18143    -23.8 8.844e+03 2.507e-10
 85.19597    -24.5 8.851e+03 2.563e-10
 85.21556    -26.0 9.410e+03 3.363e-10
 85.23516    -28.4 1.017e+04 5.004e-10
 85.25476    -30.5 1.092e+04 8.207e-10
 85.27435    -31.9 1.152e+04 1.278e-09
 85.29395    -32.4 1.224e+04 1.870e-09
 85.31354    -32.5 1.306e+04 2.472e-09
 85.33314    -32.5 1.376e+04 2.882e-09
 85.35274    -33.6 1.405e+04 3.005e-09
 85.37233    -35.6 1.386e+04 2.629e-09
 85.39193    -37.5 1.341e+04 2.354e-09
 85.41153    -38.7 1.306e+04 2.165e-09
 85.42603    -39.2 1.282e+04 2.038e-09
 85.43583    -39.6 1.206e+04 1.581e-09
 85.45072    -39.7 1.177e+04 1.441e-09
 85.47032    -39.7 1.161e+04 1.336e-09
 85.48991    -39.6 1.145e+04 1.239e-09
 85.50951    -39.7 1.135e+04 1.136e-09
 85.52910    -40.6 1.357e+04 1.344e-09
 85.54870    -43.2 1.716e+04 2.245e-09
 85.56335    -45.6 2.075e+04 2.929e-09
 85.57310    -45.8 2.103e+04 3.082e-09
 85.58290    -45.8 2.337e+04 4.479e-09
 85.59269    -47.1 2.384e+04 6.306e-09
 85.60249    -48.8 2.238e+04 9.090e-09
 85.61229    -49.5 2.092e+04 1.146e-08
 85.62209    -49.9 1.951e+04 1.413e-08
 85.63189    -49.9 1.963e+04 1.705e-08
 85.64663    -49.4 2.001e+04 2.175e-08
 85.65996    -49.1 2.048e+04 2.623e-08
 85.66481    -48.4 2.133e+04 2.120e-08
 85.67108    -48.5 2.128e+04 2.464e-08
 85.68033    -48.5 2.106e+04 3.049e-08
 85.68523    -48.1 2.054e+04 3.037e-08
 85.69068    -47.9 2.065e+04 3.323e-08
 85.70047    -47.9 2.098e+04 3.571e-08
 85.71027    -48.4 2.115e+04 3.758e-08
 85.72007    -49.0 2.123e+04 3.827e-08
 85.72987    -49.5 2.132e+04 3.773e-08
 85.73967    -50.1 2.124e+04 3.452e-08
 85.74946    -50.5 2.091e+04 3.000e-08
 85.75926    -50.7 2.060e+04 2.590e-08
 85.76906    -51.3 2.019e+04 2.244e-08
 85.77886    -51.8 1.973e+04 1.965e-08
 85.78866    -52.1 1.932e+04 1.766e-08
 85.79846    -52.0 1.922e+04 1.618e-08
 85.80753    -52.4 1.886e+04 1.471e-08
 85.81243    -52.1 1.899e+04 1.600e-08
 85.82300    -52.3 1.904e+04 1.542e-08
 85.84264    -52.7 1.811e+04 1.182e-08
 85.86224    -53.0 1.715e+04 9.033e-09
 85.88184    -53.0 1.626e+04 6.860e-09
 85.90143    -52.8 1.530e+04 5.251e-09
 85.92103    -52.4 1.436e+04 3.980e-09
 85.93482    -51.8 1.361e+04 3.110e-09
 85.94462    -51.4 1.333e+04 2.930e-09
 85.96022    -50.6 1.283e+04 2.385e-09
 85.97982    -50.0 1.245e+04 1.972e-09
 85.99941    -49.2 1.206e+04 1.649e-09
 86.01901    -48.3 1.174e+04 1.419e-09
 86.03861    -47.5 1.150e+04 1.256e-09
 86.05820    -46.7 1.123e+04 1.118e-09
 86.07780    -45.6 1.100e+04 1.019e-09
 86.09740    -44.6 1.089e+04 9.667e-10
 86.11699    -43.6 1.081e+04 9.324e-10
 86.13659    -42.6 1.074e+04 9.134e-10
 86.15619    -41.5 1.073e+04 9.206e-10
 86.17578    -40.7 1.085e+04 9.864e-10
 86.18922    -40.0 1.101e+04 1.080e-09
 86.19902    -39.4 1.085e+04 9.390e-10
 86.21497    -38.8 1.114e+04 1.083e-09
 86.23457    -38.3 1.164e+04 1.307e-09
 86.25417    -38.1 1.229e+04 1.634e-09
 86.27376    -38.2 1.296e+04 2.048e-09
 86.29336    -38.5 1.352e+04 2.503e-09
 86.31296    -38.7 1.400e+04 2.932e-09
 86.33255    -39.2 1.417e+04 3.063e-09
 86.35215    -40.2 1.408e+04 3.016e-09
 86.37174    -41.2 1.364e+04 2.595e-09
 86.38748    -42.2 1.325e+04 2.129e-09
 86.39728    -41.7 1.351e+04 2.138e-09
 86.41094    -42.5 1.314e+04 1.836e-09
 86.43053    -43.3 1.270e+04 1.504e-09
 86.44361    -44.2 1.231e+04 1.220e-09
 86.45341    -44.1 1.224e+04 1.143e-09
 86.46973    -45.3 1.196e+04 9.369e-10
 86.48932    -46.9 1.180e+04 8.460e-10
 86.50892    -48.5 1.174e+04 8.292e-10
 86.52851    -50.0 1.164e+04 9.028e-10
 86.54811    -51.2 1.182e+04 1.092e-09
 86.56771    -52.1 1.205e+04 1.277e-09
 86.58730    -53.0 1.216e+04 1.354e-09
 86.60690    -54.0 1.209e+04 1.349e-09
 86.62650    -54.7 1.166e+04 1.149e-09
 86.64609    -55.4 1.116e+04 8.729e-10
 86.66569    -56.3 1.062e+04 6.227e-10
 86.68529    -57.1 1.007e+04 4.329e-10
 86.69801    -57.8 9.609e+03 3.180e-10
 86.70781    -58.2 9.522e+03 3.000e-10
 86.72448    -58.3 9.394e+03 2.719e-10
 86.75397    -58.5 9.206e+03 2.326e-10
 86.79326    -58.4 9.095e+03 2.121e-10
 86.83245    -58.3 9.168e+03 2.149e-10
 86.87165    -59.8 1.017e+04 3.382e-10
 86.90094    -62.8 1.121e+04 6.835e-10
 86.92044    -64.3 1.191e+04 1.069e-09
 86.94004    -65.1 1.228e+04 1.444e-09
 86.95241    -65.6 1.237e+04 1.636e-09
 86.96220    -66.0 1.218e+04 1.460e-09
 86.97923    -66.7 1.215e+04 1.483e-09
 86.99883    -67.5 1.196e+04 1.279e-09
 87.01842    -68.8 1.191e+04 9.457e-10
 87.03802    -70.5 1.194e+04 7.079e-10
 87.05761    -71.9 1.172e+04 5.939e-10
 87.07721    -72.4 1.139e+04 5.582e-10
 87.09681    -72.4 1.110e+04 5.456e-10
 87.11496    -71.9 1.079e+04 5.433e-10
 87.12475    -71.8 9.519e+03 3.213e-10
 87.14590    -70.9 9.699e+03 3.765e-10
 87.18519    -68.6 9.851e+03 4.637e-10
 87.22438    -66.0 1.010e+04 5.614e-10
 87.26357    -63.6 1.045e+04 6.767e-10
 87.30276    -61.3 1.099e+04 8.479e-10
 87.34196    -59.1 1.175e+04 1.120e-09
 87.38115    -57.1 1.259e+04 1.551e-09
 87.41045    -55.4 1.317e+04 2.046e-09
 87.42994    -54.2 1.351e+04 2.440e-09
 87.44954    -52.9 1.384e+04 2.913e-09
 87.46120    -51.2 1.417e+04 3.375e-09
 87.47099    -50.5 1.419e+04 3.446e-09
 87.48873    -48.8 1.438e+04 3.738e-09
 87.50833    -47.3 1.436e+04 3.761e-09
 87.52793    -45.4 1.412e+04 3.533e-09
 87.54752    -44.1 1.407e+04 3.308e-09
 87.56712    -44.7 1.517e+04 3.213e-09
 87.58671    -57.7 2.765e+04 5.045e-09
 87.60136    -69.1 2.881e+04 1.896e-08
 87.61111    -72.2 2.553e+04 5.931e-08
 87.62091    -73.2 2.406e+04 1.270e-07
 87.63071    -74.0 2.366e+04 1.693e-07
 87.64051    -75.6 2.349e+04 1.736e-07
 87.65030    -76.8 2.354e+04 1.211e-07
 87.66010    -78.9 2.481e+04 4.643e-08
 87.66990    -86.0 2.632e+04 1.015e-08
 87.67970    -98.8 2.112e+04 1.666e-09
 87.68950   -108.5 1.349e+04 7.131e-10
 87.70424   -111.2 1.045e+04 5.228e-10
 87.71559   -112.6 9.329e+03 3.577e-10
 87.72539   -114.2 1.044e+04 4.594e-10
 87.74348   -114.3 1.015e+04 4.264e-10
 87.76308   -113.7 1.010e+04 4.247e-10
 87.78268   -113.0 1.005e+04 4.532e-10
 87.80227   -112.0 1.015e+04 5.021e-10
 87.82187   -111.0 1.024e+04 5.405e-10
 87.84147   -110.2 1.030e+04 5.574e-10
 87.85222   -109.6 1.031e+04 5.578e-10
 87.86202   -108.3 1.080e+04 7.559e-10
 87.88066   -107.8 1.075e+04 7.237e-10
 87.90026   -107.6 1.055e+04 6.485e-10
 87.91985   -107.6 1.030e+04 5.818e-10
 87.93945   -108.0 1.010e+04 5.438e-10
 87.95904   -108.5 9.966e+03 5.337e-10
 87.96999   -108.8 9.861e+03 5.427e-10
 87.97979   -108.9 1.013e+04 6.211e-10
 87.99824   -109.3 1.007e+04 6.210e-10
 88.01783   -109.7 1.003e+04 6.210e-10
 88.03743   -110.3 9.979e+03 6.115e-10
 88.05703   -110.9 9.895e+03 5.833e-10
 88.07662   -111.7 9.839e+03 5.530e-10
 88.09622   -112.4 9.853e+03 5.442e-10
 88.11581   -113.3 1.011e+04 5.497e-10
 88.13541   -115.0 1.116e+04 5.778e-10
 88.15501   -117.8 1.256e+04 7.121e-10
 88.17460   -120.9 1.351e+04 1.118e-09
 88.19420   -123.2 1.411e+04 1.935e-09
 88.21380   -124.2 1.476e+04 3.088e-09
 88.22438   -124.5 1.550e+04 4.227e-09
 88.23418   -125.2 1.548e+04 4.105e-09
 88.25299   -125.6 1.631e+04 4.948e-09
 88.27258   -126.2 1.717e+04 5.106e-09
 88.29218   -127.2 1.756e+04 4.938e-09
 88.31178   -128.6 1.752e+04 3.998e-09
 88.33137   -130.3 1.629e+04 3.100e-09
 88.35097   -131.8 1.458e+04 2.511e-09
 88.37057   -132.5 1.342e+04 2.189e-09
 88.39016   -132.6 1.283e+04 2.012e-09
 88.40976   -132.2 1.256e+04 1.916e-09
 88.42935   -131.4 1.240e+04 1.866e-09
 88.44895   -130.5 1.225e+04 1.780e-09
 88.46855   -129.7 1.205e+04 1.610e-09
 88.47878   -129.0 1.178e+04 1.391e-09
 88.48858   -130.3 1.133e+04 1.105e-09
 88.50774   -129.7 1.094e+04 9.081e-10
 88.52734   -129.2 1.051e+04 7.419e-10
 88.54693   -128.6 1.010e+04 6.113e-10
 88.56653   -128.0 9.764e+03 5.160e-10
 88.57970   -127.4 9.505e+03 4.497e-10
 88.58949   -126.2 1.003e+04 5.858e-10
 88.60572   -125.8 9.763e+03 5.076e-10
 88.62532   -125.3 9.545e+03 4.556e-10
 88.64491   -124.7 9.414e+03 4.294e-10
 88.66451   -124.0 9.362e+03 4.209e-10
 88.68411   -123.3 9.355e+03 4.207e-10
 88.70370   -122.6 9.394e+03 4.341e-10
 88.72330   -121.9 9.442e+03 4.480e-10
 88.74290   -121.6 9.432e+03 4.386e-10
 88.76249   -120.9 9.425e+03 4.388e-10
 88.78209   -119.7 9.436e+03 4.407e-10
 88.80168   -118.9 9.398e+03 4.295e-10
 88.82128   -117.5 9.402e+03 4.207e-10
 88.84088   -116.8 9.394e+03 4.106e-10
 88.87037   -114.6 9.415e+03 4.025e-10
 88.90966   -112.7 9.229e+03 3.560e-10
 88.94885   -110.6 8.903e+03 2.941e-10
 88.97797   -108.1 8.589e+03 2.415e-10
 88.99756   -109.5 8.434e+03 2.198e-10
 89.02724   -106.9 8.315e+03 1.984e-10
 89.06643   -104.4 8.275e+03 1.916e-10
 89.10562   -102.0 8.289e+03 1.914e-10
 89.14481    -99.9 8.422e+03 2.046e-10
 89.18401    -97.9 8.579e+03 2.253e-10
 89.22320    -95.9 8.716e+03 2.464e-10
 89.26239    -94.0 8.818e+03 2.645e-10
 89.30159    -92.1 8.930e+03 2.845e-10
 89.34078    -90.2 9.083e+03 3.083e-10
 89.37997    -88.5 9.204e+03 3.211e-10
 89.41916    -86.9 9.292e+03 3.241e-10
 89.44846    -86.1 9.723e+03 4.105e-10
 89.46796    -85.5 9.779e+03 4.234e-10
 89.48656    -84.9 9.869e+03 4.474e-10
 89.49636    -85.5 1.028e+04 5.373e-10
 89.50715    -85.1 1.037e+04 5.728e-10
 89.52675    -84.5 1.048e+04 6.253e-10
 89.54634    -83.9 1.063e+04 6.937e-10
 89.56594    -83.3 1.083e+04 7.916e-10
 89.58554    -82.7 1.103e+04 8.940e-10
 89.60513    -82.0 1.123e+04 1.014e-09
 89.62473    -81.3 1.142e+04 1.141e-09
 89.64432    -80.5 1.155e+04 1.253e-09
 89.66392    -79.7 1.164e+04 1.343e-09
 89.68352    -79.1 1.169e+04 1.413e-09
 89.70311    -78.6 1.176e+04 1.473e-09
 89.72271    -78.4 1.191e+04 1.546e-09
 89.74096    -78.4 1.225e+04 1.675e-09
 89.75076    -79.2 1.272e+04 2.059e-09
 89.76190    -79.5 1.326e+04 2.417e-09
 89.78150    -80.0 1.412e+04 2.958e-09
 89.80110    -80.4 1.522e+04 3.685e-09
 89.82069    -81.0 1.623e+04 4.531e-09
 89.84029    -81.5 1.699e+04 5.331e-09
 89.85988    -81.7 1.735e+04 5.873e-09
 89.87948    -82.1 1.718e+04 6.147e-09
 89.89413    -82.8 1.609e+04 5.751e-09
 89.90388    -82.6 1.603e+04 5.663e-09
 89.91862    -82.0 1.585e+04 5.176e-09
 89.93827    -81.6 1.499e+04 4.256e-09
 89.95787    -81.0 1.420e+04 3.291e-09
 89.97746    -80.5 1.330e+04 2.530e-09
 89.99536    -79.8 1.268e+04 1.932e-09
 90.00515    -79.7 1.215e+04 1.583e-09
 90.01665    -79.0 1.184e+04 1.268e-09
 90.03464    -78.3 1.172e+04 1.101e-09
 90.04444    -79.2 1.169e+04 9.295e-10
 90.05585    -78.5 1.167e+04 8.830e-10
 90.07544    -77.7 1.168e+04 8.760e-10
 90.09504    -77.3 1.198e+04 9.062e-10
 90.11464    -77.0 1.229e+04 1.076e-09
 90.13423    -76.7 1.249e+04 1.341e-09
 90.15383    -76.1 1.266e+04 1.652e-09
 90.17342    -75.5 1.282e+04 1.932e-09
 90.19302    -75.0 1.289e+04 2.059e-09
 90.21262    -74.5 1.288e+04 2.075e-09
 90.23221    -73.9 1.263e+04 1.910e-09
 90.24975    -73.3 1.230e+04 1.555e-09
 90.25955    -72.7 1.215e+04 1.455e-09
 90.27141    -72.3 1.179e+04 1.115e-09
 90.29100    -72.0 1.144e+04 8.456e-10
 90.31060    -71.8 1.109e+04 6.545e-10
 90.33020    -71.5 1.074e+04 5.293e-10
 90.34979    -71.0 1.043e+04 4.502e-10
 90.36939    -70.2 1.014e+04 3.976e-10
 90.38898    -69.2 9.910e+03 3.602e-10
 90.40858    -68.0 9.795e+03 3.381e-10
 90.42818    -66.9 9.790e+03 3.292e-10
 90.44777    -66.3 9.751e+03 3.197e-10
 90.46737    -64.9 9.733e+03 3.062e-10
 90.48697    -64.4 9.702e+03 2.993e-10
 90.50415    -62.7 9.686e+03 2.905e-10
 90.52384    -62.5 9.619e+03 2.631e-10
 90.55575    -60.4 9.674e+03 2.675e-10
 90.59494    -58.8 9.868e+03 2.988e-10
 90.62424    -57.9 1.008e+04 3.456e-10
 90.64374    -57.9 1.029e+04 4.337e-10
 90.66333    -57.6 1.062e+04 5.967e-10
 90.68293    -57.2 1.093e+04 7.720e-10
 90.70252    -56.7 1.133e+04 1.063e-09
 90.72212    -56.3 1.161e+04 1.287e-09
 90.74172    -55.8 1.197e+04 1.613e-09
 90.75854    -55.5 1.221e+04 1.797e-09
 90.76834    -54.9 1.201e+04 1.643e-09
 90.77191    -54.6 1.217e+04 1.786e-09
 90.78171    -54.8 1.199e+04 1.654e-09
 90.80051    -54.6 1.188e+04 1.576e-09
 90.82010    -54.4 1.166e+04 1.404e-09
 90.83970    -54.4 1.137e+04 1.195e-09
 90.85929    -54.5 1.111e+04 1.028e-09
 90.87889    -54.6 1.085e+04 8.943e-10
 90.89849    -54.6 1.061e+04 8.014e-10
 90.91808    -54.4 1.045e+04 7.391e-10
 90.93768    -54.0 1.026e+04 6.802e-10
 90.95728    -53.5 1.015e+04 6.412e-10
 90.97687    -53.0 1.006e+04 5.957e-10
 90.99647    -52.5 1.001e+04 5.501e-10
 91.01294    -52.1 9.992e+03 5.108e-10
 91.02274    -51.2 1.011e+04 5.760e-10
 91.03566    -50.9 1.017e+04 5.679e-10
 91.06515    -50.3 1.038e+04 6.259e-10
 91.10444    -49.8 1.024e+04 5.522e-10
 91.14364    -49.3 9.999e+03 4.775e-10
 91.18283    -48.9 9.710e+03 4.050e-10
 91.22202    -48.2 9.475e+03 3.511e-10
 91.26121    -47.4 9.324e+03 3.261e-10
 91.30041    -46.3 9.286e+03 3.177e-10
 91.33960    -45.3 9.294e+03 3.149e-10
 91.37879    -44.9 9.479e+03 3.289e-10
 91.41798    -46.5 1.051e+04 4.884e-10
 91.45718    -49.1 1.181e+04 1.083e-09
 91.48978    -50.7 1.257e+04 1.921e-09
 91.50938    -50.1 1.246e+04 1.789e-09
 91.52183    -51.1 1.286e+04 2.314e-09
 91.53153    -51.0 1.326e+04 2.781e-09
 91.54517    -51.2 1.297e+04 2.417e-09
 91.56476    -51.9 1.212e+04 1.556e-09
 91.58436    -53.9 1.104e+04 9.182e-10
 91.60395    -55.9 1.006e+04 5.721e-10
 91.62355    -57.0 9.475e+03 4.120e-10
 91.65304    -57.8 9.151e+03 3.247e-10
 91.69233    -58.6 8.742e+03 2.450e-10
 91.73153    -59.1 8.396e+03 1.877e-10
 91.77072    -59.4 8.253e+03 1.663e-10
 91.80991    -59.6 8.221e+03 1.599e-10
 91.84910    -59.7 8.239e+03 1.581e-10
 91.88830    -60.0 8.290e+03 1.583e-10
 91.92749    -60.4 8.371e+03 1.611e-10
 91.96668    -60.9 8.457e+03 1.696e-10
 92.00587    -61.2 8.509e+03 1.853e-10
 92.03072    -61.4 8.572e+03 2.010e-10
 92.05031    -62.7 8.366e+03 1.660e-10
 92.08426    -63.5 8.468e+03 1.716e-10
 92.11356    -64.0 9.416e+03 1.871e-10
 92.13305    -70.8 1.402e+04 1.860e-10
 92.15265    -86.8 1.846e+04 8.526e-10
 92.17225    -96.4 1.752e+04 5.063e-09
 92.19184   -102.5 2.024e+04 1.310e-08
 92.21144   -112.8 2.573e+04 1.662e-08
 92.22609   -125.9 2.818e+04 1.470e-08
 92.23166   -141.3 2.709e+04 1.129e-08
 92.23655   -143.5 2.511e+04 1.013e-08
 92.24563   -155.4 2.058e+04 9.478e-09
 92.25543   -159.8 1.977e+04 1.069e-08
 92.26523   -162.5 2.076e+04 1.629e-08
 92.27503   -165.3 2.168e+04 2.208e-08
 92.28482   -168.3 2.207e+04 2.813e-08
 92.29462   -171.7 2.227e+04 4.266e-08
 92.30442   -174.4 2.230e+04 4.740e-08
 92.31422   -177.2 2.228e+04 4.815e-08
 92.32402   -179.5 2.193e+04 4.342e-08
 92.33382   -181.3 2.139e+04 3.167e-08
 92.34362   -183.0 2.066e+04 2.153e-08
 92.35341   -184.7 1.974e+04 1.509e-08
 92.36321   -186.1 1.876e+04 1.139e-08
 92.37301   -187.1 1.801e+04 9.282e-09
 92.38776   -188.4 1.729e+04 7.569e-09
 92.40740   -189.8 1.606e+04 5.266e-09
 92.42700   -191.2 1.490e+04 3.683e-09
 92.44659   -192.2 1.408e+04 2.836e-09
 92.46619   -193.0 1.363e+04 2.400e-09
 92.48579   -193.5 1.349e+04 2.198e-09
 92.50538   -194.2 1.348e+04 2.154e-09
 92.52498   -195.3 1.354e+04 2.158e-09
 92.53931   -197.2 1.419e+04 2.554e-09
 92.54911   -196.5 1.446e+04 2.787e-09
 92.56417   -199.4 1.575e+04 3.698e-09
 92.58377   -202.6 1.726e+04 5.437e-09
 92.60336   -206.0 1.867e+04 7.789e-09
 92.62296   -209.4 1.979e+04 1.049e-08
 92.64256   -212.5 2.051e+04 1.315e-08
 92.66215   -215.3 2.076e+04 1.537e-08
 92.68175   -217.8 2.066e+04 1.642e-08
 92.70135   -220.2 2.048e+04 1.655e-08
 92.72094   -222.2 2.009e+04 1.520e-08
 92.74054   -223.8 1.972e+04 1.240e-08
 92.76014   -224.7 1.902e+04 9.041e-09
 92.77478   -225.3 1.777e+04 6.303e-09
 92.78453   -225.7 1.727e+04 5.384e-09
 92.79366   -226.9 1.617e+04 3.997e-09
 92.80351   -227.1 1.557e+04 3.385e-09
 92.81892   -228.2 1.396e+04 2.236e-09
 92.83852   -229.1 1.262e+04 1.581e-09
 92.85812   -229.6 1.191e+04 1.248e-09
 92.87771   -229.9 1.152e+04 1.050e-09
 92.89731   -229.9 1.129e+04 9.181e-10
 92.91691   -229.9 1.110e+04 8.163e-10
 92.93650   -229.8 1.091e+04 7.190e-10
 92.95433   -229.5 1.070e+04 6.208e-10
 92.96412   -230.0 1.089e+04 5.571e-10
 92.97569   -229.8 1.069e+04 4.753e-10
 92.99529   -229.4 1.047e+04 4.037e-10
 93.01489   -228.7 1.029e+04 3.516e-10
 93.03448   -227.8 1.022e+04 3.283e-10
 93.04811   -227.2 1.021e+04 3.254e-10
 93.06780   -226.2 1.019e+04 3.051e-10
 93.10327   -225.3 1.010e+04 3.013e-10
 93.14246   -224.1 1.001e+04 3.094e-10
 93.17175   -223.9 1.002e+04 3.744e-10
 93.19125   -223.9 1.010e+04 4.119e-10
 93.21085   -223.8 1.027e+04 4.604e-10
 93.23045   -223.9 1.051e+04 5.213e-10
 93.25004   -223.9 1.072e+04 5.999e-10
 93.26964   -223.9 1.083e+04 6.834e-10
 93.28923   -223.7 1.084e+04 7.571e-10
 93.30250   -223.3 1.076e+04 8.067e-10
 93.31230   -222.4 1.073e+04 6.629e-10
 93.32843   -222.0 1.070e+04 7.109e-10
 93.34802   -221.4 1.067e+04 7.305e-10
 93.36762   -220.7 1.033e+04 7.456e-10
 93.38722   -219.9 1.030e+04 6.888e-10
 93.40681   -219.1 1.014e+04 6.501e-10
 93.42641   -218.3 1.011e+04 5.952e-10
 93.44601   -217.7 1.009e+04 5.347e-10
 93.46560   -217.3 1.007e+04 4.668e-10
 93.48520   -217.1 1.001e+04 3.956e-10
 93.50479   -217.1 9.893e+03 3.361e-10
 93.53429   -217.2 9.718e+03 2.898e-10
 93.55709   -215.2 9.357e+03 2.398e-10
 93.57669   -214.8 9.734e+03 3.105e-10
 93.61277   -213.2 9.316e+03 2.401e-10
 93.65196   -211.4 8.860e+03 1.806e-10
 93.69115   -209.4 8.525e+03 1.397e-10
 93.73035   -207.4 8.298e+03 1.124e-10
 93.76954   -205.1 8.199e+03 9.632e-11
 93.80873   -202.7 8.176e+03 8.566e-11
 93.84792   -200.3 8.216e+03 8.018e-11
 93.88712   -197.9 8.243e+03 7.858e-11
 93.92631   -195.6 8.312e+03 7.838e-11
 93.96550   -193.4 8.427e+03 8.454e-11
 94.00469   -191.2 8.598e+03 9.575e-11
 94.04389   -189.0 8.769e+03 1.142e-10
 94.06588   -186.9 8.966e+03 1.426e-10
 94.08548   -186.7 8.883e+03 1.018e-10
 94.12227   -184.7 9.118e+03 1.367e-10
 94.16147   -183.0 9.395e+03 1.944e-10
 94.20066   -181.4 9.696e+03 2.779e-10
 94.23985   -180.3 9.983e+03 3.780e-10
 94.27904   -179.4 1.019e+04 4.693e-10
 94.31824   -179.0 1.029e+04 5.239e-10
 94.35743   -178.8 1.030e+04 5.415e-10
 94.39662   -178.7 1.027e+04 5.474e-10
 94.41926   -178.9 1.034e+04 5.695e-10
 94.42896   -179.3 1.080e+04 7.173e-10
 94.44542   -179.4 1.091e+04 7.259e-10
 94.46501   -179.5 1.120e+04 7.956e-10
 94.48461   -179.7 1.154e+04 9.205e-10
 94.50420   -180.1 1.202e+04 1.199e-09
 94.52380   -180.4 1.244e+04 1.532e-09
 94.54340   -180.6 1.271e+04 1.863e-09
 94.56299   -180.9 1.282e+04 2.135e-09
 94.57448   -181.4 1.280e+04 2.237e-09
 94.58428   -180.8 1.255e+04 1.921e-09
 94.60219   -181.4 1.253e+04 1.997e-09
 94.62178   -182.0 1.243e+04 2.007e-09
 94.64138   -182.7 1.198e+04 1.753e-09
 94.66098   -183.4 1.147e+04 1.410e-09
 94.68057   -184.1 1.084e+04 1.072e-09
 94.70017   -184.7 1.021e+04 8.104e-10
 94.71976   -185.3 9.764e+03 6.527e-10
 94.73936   -185.5 9.573e+03 5.879e-10
 94.75896   -185.6 9.521e+03 5.718e-10
 94.77855   -185.7 9.555e+03 5.703e-10
 94.79815   -186.0 1.018e+04 6.068e-10
 94.81775   -186.8 1.126e+04 7.743e-10
 94.82888   -187.2 1.181e+04 9.463e-10
 94.83868   -187.4 1.200e+04 1.016e-09
 94.85694   -187.3 1.242e+04 1.251e-09
 94.87653   -187.6 1.254e+04 1.416e-09
 94.90603   -188.8 1.253e+04 1.563e-09
 94.94532   -187.9 1.217e+04 1.454e-09
 94.98451   -186.1 1.155e+04 1.223e-09
 95.02370   -183.4 1.058e+04 8.879e-10
 95.06289   -180.5 9.775e+03 6.429e-10
 95.08347   -177.5 9.328e+03 4.940e-10
 95.10306   -178.4 9.077e+03 4.441e-10
 95.14128   -175.2 8.745e+03 3.473e-10
 95.18047   -172.0 8.583e+03 2.923e-10
 95.21966   -169.0 8.486e+03 2.561e-10
 95.25886   -165.8 8.393e+03 2.285e-10
 95.29805   -162.7 8.330e+03 2.082e-10
 95.33724   -159.6 8.291e+03 1.945e-10
 95.37644   -156.5 8.282e+03 1.863e-10
 95.41563   -153.4 8.294e+03 1.835e-10
 95.45482   -150.5 8.307e+03 1.833e-10
 95.49401   -147.6 8.380e+03 1.842e-10
 95.53321   -144.9 8.447e+03 1.899e-10
 95.57240   -142.3 8.488e+03 2.028e-10
 95.59226   -139.8 8.526e+03 2.197e-10
 95.61186   -140.7 8.410e+03 2.137e-10
 95.65078   -138.4 8.456e+03 2.273e-10
 95.68998   -136.2 8.544e+03 2.451e-10
 95.72917   -134.3 8.654e+03 2.719e-10
 95.76836   -132.8 8.827e+03 3.114e-10
 95.80755   -131.8 9.073e+03 3.740e-10
 95.84675   -131.3 9.374e+03 4.670e-10
 95.87421   -131.2 9.667e+03 5.775e-10
 95.89380   -132.0 9.643e+03 5.738e-10
 95.92513   -132.0 9.846e+03 6.570e-10
 95.96432   -132.1 9.981e+03 6.954e-10
 96.00352   -132.2 1.003e+04 6.990e-10
 96.03281   -131.8 1.012e+04 6.967e-10
 96.05231   -132.0 1.007e+04 6.577e-10
 96.07191   -132.6 1.001e+04 5.878e-10
 96.09106   -133.4 9.901e+03 5.409e-10
 96.10086   -133.6 1.011e+04 6.451e-10
 96.11110   -133.9 1.002e+04 6.246e-10
 96.13070   -133.9 9.979e+03 6.193e-10
 96.15029   -133.8 9.934e+03 6.120e-10
 96.16989   -133.5 9.878e+03 5.967e-10
 96.18949   -132.9 9.822e+03 5.735e-10
 96.20908   -132.4 9.761e+03 5.409e-10
 96.22868   -131.8 9.716e+03 5.044e-10
 96.24827   -131.3 9.726e+03 4.749e-10
 96.26787   -130.8 9.758e+03 4.476e-10
 96.28747   -130.4 9.803e+03 4.386e-10
 96.31696   -129.9 9.900e+03 4.442e-10
 96.35625   -128.7 1.001e+04 4.473e-10
 96.39544   -127.5 1.003e+04 4.225e-10
 96.43463   -126.7 9.958e+03 3.800e-10
 96.47383   -126.0 9.898e+03 3.441e-10
 96.51302   -125.4 9.942e+03 3.383e-10
 96.55221   -124.6 1.011e+04 3.724e-10
 96.59025   -123.7 1.029e+04 4.388e-10
 96.60984   -123.8 1.065e+04 5.413e-10
 96.63060   -122.8 1.073e+04 6.093e-10
 96.66979   -121.8 1.076e+04 6.366e-10
 96.70898   -120.8 1.073e+04 6.145e-10
 96.74818   -119.5 1.071e+04 5.433e-10
 96.78737   -118.2 1.060e+04 4.281e-10
 96.82656   -117.0 1.048e+04 3.596e-10
 96.86575   -115.3 1.045e+04 3.456e-10
 96.90495   -113.8 1.054e+04 3.639e-10
 96.94414   -112.5 1.099e+04 5.113e-10
 96.98333   -111.2 1.144e+04 7.476e-10
 97.02252   -109.9 1.182e+04 9.414e-10
 97.06172   -108.9 1.195e+04 1.003e-09
 97.09904   -107.8 1.202e+04 9.451e-10
 97.11863   -109.0 1.234e+04 1.189e-09
 97.14010   -107.8 1.225e+04 1.024e-09
 97.17929   -106.7 1.214e+04 8.819e-10
 97.21849   -105.5 1.204e+04 7.689e-10
 97.25768   -104.1 1.200e+04 7.143e-10
 97.29687   -102.7 1.205e+04 7.034e-10
 97.32915   -101.2 1.216e+04 7.113e-10
 97.34875   -101.2 1.291e+04 1.286e-09
 97.37526    -99.9 1.309e+04 1.371e-09
 97.41445    -98.6 1.325e+04 1.394e-09
 97.45364    -97.7 1.345e+04 1.396e-09
 97.49283    -97.8 1.375e+04 1.487e-09
 97.52213    -98.2 1.381e+04 1.611e-09
 97.54163    -98.3 1.418e+04 2.116e-09
 97.56123    -98.3 1.461e+04 2.947e-09
 97.58082    -98.1 1.519e+04 4.285e-09
 97.60042    -97.7 1.567e+04 5.542e-09
 97.61743    -97.5 1.588e+04 6.111e-09
 97.62723    -98.0 1.579e+04 5.937e-09
 97.63961    -97.8 1.559e+04 5.475e-09
 97.65921    -97.3 1.523e+04 4.623e-09
 97.67880    -97.0 1.484e+04 3.831e-09
 97.69840    -96.9 1.453e+04 3.283e-09
 97.71800    -96.7 1.443e+04 3.072e-09
 97.73759    -96.4 1.444e+04 3.043e-09
 97.75719    -96.4 1.474e+04 3.224e-09
 97.77679    -96.5 1.508e+04 3.781e-09
 97.79638    -96.7 1.537e+04 4.578e-09
 97.81598    -96.9 1.559e+04 5.542e-09
 97.83557    -97.0 1.576e+04 6.541e-09
 97.85517    -97.0 1.587e+04 7.340e-09
 97.87183    -96.9 1.587e+04 7.655e-09
 97.88163    -97.0 1.549e+04 6.921e-09
 97.89436    -96.7 1.545e+04 7.005e-09
 97.91396    -96.3 1.512e+04 6.226e-09
 97.93356    -95.7 1.468e+04 4.842e-09
 97.95315    -95.2 1.420e+04 3.430e-09
 97.97275    -94.9 1.369e+04 2.376e-09
 97.99234    -94.6 1.325e+04 1.798e-09
 98.01194    -94.1 1.288e+04 1.442e-09
 98.03154    -93.4 1.255e+04 1.171e-09
 98.05113    -92.5 1.232e+04 9.680e-10
 98.06622    -91.7 1.212e+04 8.034e-10
 98.07602    -91.6 1.217e+04 8.911e-10
 98.09033    -90.7 1.196e+04 7.246e-10
 98.10992    -89.6 1.184e+04 6.116e-10
 98.12622    -89.1 1.180e+04 5.733e-10
 98.13612    -89.5 1.174e+04 5.073e-10
 98.15911    -87.7 1.170e+04 4.747e-10
 98.19830    -86.1 1.172e+04 4.641e-10
 98.22760    -85.4 1.190e+04 4.964e-10
 98.24710    -85.5 1.198e+04 5.336e-10
 98.26669    -85.8 1.206e+04 7.342e-10
 98.28629    -85.8 1.216e+04 1.044e-09
 98.30589    -85.2 1.233e+04 1.412e-09
 98.32548    -84.4 1.256e+04 1.721e-09
 98.34508    -83.8 1.269e+04 1.836e-09
 98.36467    -83.3 1.271e+04 1.819e-09
 98.38062    -82.9 1.264e+04 1.495e-09
 98.39042    -82.8 1.241e+04 1.173e-09
 98.40387    -82.7 1.233e+04 8.539e-10
 98.42346    -83.2 1.221e+04 6.508e-10
 98.44306    -83.6 1.196e+04 5.754e-10
 98.46266    -83.7 1.183e+04 5.616e-10
 98.48225    -83.7 1.171e+04 5.771e-10
 98.50185    -83.3 1.169e+04 6.374e-10
 98.52144    -82.9 1.179e+04 6.999e-10
 98.54104    -82.5 1.188e+04 7.579e-10
 98.56064    -82.3 1.195e+04 7.854e-10
 98.58023    -82.1 1.196e+04 7.918e-10
 98.59983    -81.9 1.191e+04 7.770e-10
 98.61943    -81.6 1.183e+04 7.421e-10
 98.63502    -81.4 1.179e+04 7.135e-10
 98.64481    -81.3 1.182e+04 7.286e-10
 98.66851    -80.9 1.166e+04 6.381e-10
 98.70780    -80.0 1.132e+04 4.690e-10
 98.74700    -78.9 1.104e+04 3.157e-10
 98.78409    -78.0 1.085e+04 2.312e-10
 98.80369    -77.0 1.098e+04 2.802e-10
 98.82538    -76.1 1.089e+04 2.337e-10
 98.86457    -75.4 1.086e+04 2.168e-10
 98.90377    -74.9 1.073e+04 2.432e-10
 98.94296    -74.5 1.067e+04 2.893e-10
 98.98215    -74.0 1.059e+04 3.152e-10
 99.02135    -73.6 1.056e+04 3.176e-10
 99.06054    -72.9 1.040e+04 2.847e-10
 99.09973    -72.1 1.029e+04 2.135e-10
 99.13420    -71.4 1.022e+04 1.485e-10
 99.15380    -71.5 1.025e+04 1.427e-10
 99.17812    -71.1 1.014e+04 1.102e-10
 99.21731    -70.3 1.007e+04 1.019e-10
 99.25650    -69.3 1.008e+04 1.016e-10
 99.29569    -68.2 1.011e+04 1.138e-10
 99.33489    -67.1 1.010e+04 1.310e-10
 99.37408    -65.9 1.012e+04 1.505e-10
 99.41327    -64.8 1.015e+04 1.751e-10
 99.45246    -63.6 1.017e+04 2.037e-10
 99.49166    -62.4 1.014e+04 2.268e-10
 99.53085    -61.1 1.010e+04 2.353e-10
 99.57004    -59.7 1.003e+04 2.194e-10
 99.60923    -58.4 9.962e+03 1.936e-10
 99.64300    -57.1 9.922e+03 1.722e-10
 99.66259    -57.1 9.923e+03 1.543e-10
 99.68762    -55.9 9.939e+03 1.479e-10
 99.72681    -54.9 1.002e+04 1.589e-10
 99.76600    -54.2 1.011e+04 1.972e-10
 99.80520    -53.7 1.024e+04 2.587e-10
 99.84439    -53.0 1.046e+04 3.398e-10
 99.88358    -52.5 1.068e+04 4.031e-10
 99.92277    -52.0 1.083e+04 4.263e-10
 99.96197    -51.5 1.090e+04 4.124e-10
100.00116    -50.8 1.087e+04 3.958e-10
