# Columns:
#   distance along LOS (in CHIMPs)
#   peculiar velocity  (in km/s)
#   temperature (K)
#   HI number density
# pos=(84.5101,167.282,24.0186), angles=(3.01812,3.52401)
  0.00156    209.0 1.376e+04 2.765e-09
  0.00859    208.3 1.382e+04 2.758e-09
  0.01843    208.7 1.384e+04 2.742e-09
  0.03264    208.1 1.385e+04 2.730e-09
  0.05232    207.5 1.374e+04 2.505e-09
  0.07200    207.0 1.347e+04 2.027e-09
  0.09561    207.0 1.294e+04 1.511e-09
  0.11529    207.1 1.307e+04 1.612e-09
  0.14099    207.4 1.288e+04 1.391e-09
  0.18045    207.6 1.203e+04 8.589e-10
  0.21981    208.2 1.119e+04 5.389e-10
  0.25917    209.2 1.050e+04 3.611e-10
  0.29853    210.5 9.966e+03 2.661e-10
  0.33716    211.8 9.620e+03 2.220e-10
  0.35684    211.9 9.847e+03 2.508e-10
  0.37726    213.4 9.829e+03 2.512e-10
  0.41662    215.0 9.826e+03 2.573e-10
  0.45598    216.5 9.884e+03 2.754e-10
  0.49534    217.8 9.993e+03 3.037e-10
  0.53470    218.7 1.007e+04 3.310e-10
  0.56413    219.1 1.011e+04 3.540e-10
  0.58371    219.8 1.019e+04 3.860e-10
  0.60339    220.5 1.035e+04 4.391e-10
  0.62307    221.0 1.057e+04 5.106e-10
  0.64276    221.1 1.086e+04 6.033e-10
  0.66244    221.0 1.123e+04 7.347e-10
  0.68212    220.7 1.174e+04 9.413e-10
  0.69487    220.2 1.235e+04 1.269e-09
  0.70471    219.5 1.237e+04 1.245e-09
  0.72148    218.9 1.293e+04 1.562e-09
  0.74116    218.3 1.353e+04 1.935e-09
  0.76084    217.5 1.413e+04 2.267e-09
  0.78052    216.3 1.462e+04 2.353e-09
  0.80020    214.7 1.467e+04 2.339e-09
  0.81989    212.7 1.457e+04 2.257e-09
  0.83957    210.6 1.421e+04 2.089e-09
  0.85906    208.6 1.365e+04 1.924e-09
  0.86890    207.7 1.302e+04 1.566e-09
  0.87893    206.1 1.272e+04 1.504e-09
  0.89861    204.7 1.256e+04 1.506e-09
  0.91829    203.4 1.254e+04 1.533e-09
  0.93797    201.8 1.258e+04 1.700e-09
  0.95347    200.1 1.304e+04 2.116e-09
  0.96331    200.0 1.398e+04 2.660e-09
  0.97733    197.3 1.515e+04 3.939e-09
  0.99702    194.7 1.624e+04 5.874e-09
  1.01670    192.4 1.707e+04 8.128e-09
  1.03309    190.1 1.767e+04 1.026e-08
  1.04293    189.1 1.777e+04 1.176e-08
  1.05606    186.6 1.840e+04 1.429e-08
  1.07574    183.5 1.906e+04 1.542e-08
  1.09542    179.7 1.945e+04 1.533e-08
  1.11510    175.0 1.962e+04 1.462e-08
  1.13478    169.7 1.973e+04 1.175e-08
  1.15446    164.5 1.903e+04 7.622e-09
  1.17414    159.4 1.758e+04 4.203e-09
  1.19383    154.3 1.541e+04 2.301e-09
  1.20712    150.7 1.371e+04 1.690e-09
  1.21696    151.8 1.360e+04 1.729e-09
  1.23319    151.7 1.361e+04 1.710e-09
  1.25287    151.9 1.374e+04 1.734e-09
  1.27255    152.6 1.396e+04 1.806e-09
  1.29223    153.6 1.419e+04 1.886e-09
  1.31191    154.8 1.447e+04 1.974e-09
  1.32662    155.7 1.468e+04 2.077e-09
  1.33642    156.7 1.485e+04 2.152e-09
  1.34626    158.2 1.518e+04 2.232e-09
  1.35610    159.4 1.585e+04 2.357e-09
  1.36594    159.5 1.729e+04 2.585e-09
  1.37578    158.7 2.142e+04 3.102e-09
  1.38105    155.7 2.950e+04 4.785e-09
  1.38270    153.6 3.471e+04 7.466e-09
  1.38727    155.2 3.739e+04 6.157e-08
  1.39546    146.5 3.417e+04 2.582e-07
  1.40530    130.9 2.990e+04 6.053e-07
  1.41514    118.7 2.761e+04 6.447e-07
  1.42498    116.6 2.522e+04 5.019e-07
  1.43482    117.6 2.393e+04 2.954e-07
  1.44466    120.3 2.295e+04 1.595e-07
  1.45450    123.0 2.233e+04 8.808e-08
  1.46315    124.8 2.251e+04 4.784e-08
  1.46807    126.4 2.111e+04 6.387e-08
  1.47418    127.8 2.267e+04 3.372e-08
  1.48402    127.7 2.545e+04 1.468e-08
  1.49386    128.6 2.582e+04 9.656e-09
  1.50867    127.1 2.390e+04 3.922e-09
  1.52840    126.0 1.768e+04 2.556e-09
  1.54534    125.8 1.426e+04 2.264e-09
  1.55518    125.3 1.293e+04 1.235e-09
  1.56777    126.3 1.248e+04 1.137e-09
  1.58745    128.3 1.235e+04 1.081e-09
  1.60713    130.0 1.226e+04 9.966e-10
  1.62681    131.2 1.211e+04 8.897e-10
  1.64649    132.2 1.192e+04 7.542e-10
  1.66617    133.0 1.176e+04 6.389e-10
  1.68585    133.7 1.151e+04 5.044e-10
  1.70963    136.0 1.217e+04 5.853e-10
  1.72941    134.4 9.916e+03 2.036e-10
  1.75493    135.8 9.296e+03 1.619e-10
  1.79194    137.5 9.112e+03 1.591e-10
  1.81162    137.2 9.071e+03 1.546e-10
  1.83366    138.9 9.065e+03 1.604e-10
  1.87302    140.7 9.119e+03 1.786e-10
  1.91238    142.5 9.257e+03 2.084e-10
  1.95174    144.2 9.416e+03 2.445e-10
  1.99111    145.8 9.569e+03 2.771e-10
  2.03047    147.2 9.646e+03 2.909e-10
  2.05779    148.3 9.650e+03 2.910e-10
  2.07747    149.0 9.543e+03 2.676e-10
  2.10919    150.0 9.541e+03 2.673e-10
  2.14855    150.8 9.540e+03 2.681e-10
  2.18792    151.5 9.560e+03 2.752e-10
  2.22728    152.1 9.656e+03 2.980e-10
  2.26664    152.2 9.797e+03 3.296e-10
  2.30600    152.2 9.956e+03 3.594e-10
  2.34536    151.9 1.018e+04 3.936e-10
  2.38473    151.0 1.044e+04 4.523e-10
  2.40585    150.0 1.057e+04 5.273e-10
  2.42553    151.6 1.003e+04 3.667e-10
  2.46345    150.4 9.993e+03 3.645e-10
  2.50281    149.3 9.828e+03 3.496e-10
  2.54218    149.2 9.549e+03 3.194e-10
  2.58154    149.4 9.229e+03 2.671e-10
  2.62090    149.8 8.874e+03 1.979e-10
  2.64990    150.5 8.515e+03 1.344e-10
  2.66958    150.8 8.389e+03 1.080e-10
  2.69962    151.4 8.115e+03 7.541e-11
  2.73423    152.4 8.101e+03 7.345e-11
  2.75391    153.2 8.097e+03 8.339e-11
  2.77835    154.3 8.119e+03 8.467e-11
  2.81771    155.3 8.237e+03 9.529e-11
  2.85707    156.0 8.519e+03 1.259e-10
  2.89644    156.0 8.877e+03 1.772e-10
  2.93580    155.9 9.287e+03 2.466e-10
  2.97516    155.5 9.666e+03 3.200e-10
  3.00458    155.0 9.852e+03 3.621e-10
  3.02417    154.7 1.002e+04 4.055e-10
  3.04385    154.4 1.019e+04 4.671e-10
  3.06353    154.0 1.036e+04 5.428e-10
  3.07868    153.5 1.063e+04 6.437e-10
  3.08740    153.2 1.076e+04 6.613e-10
  3.09193    154.0 1.060e+04 6.097e-10
  3.10289    153.3 1.104e+04 7.789e-10
  3.12257    152.3 1.164e+04 1.071e-09
  3.14225    151.3 1.235e+04 1.548e-09
  3.16193    150.7 1.304e+04 2.204e-09
  3.18162    150.4 1.369e+04 3.001e-09
  3.20130    150.1 1.412e+04 3.324e-09
  3.22098    149.6 1.412e+04 3.250e-09
  3.24066    148.9 1.399e+04 2.919e-09
  3.25612    147.7 1.380e+04 2.376e-09
  3.26596    148.1 1.486e+04 3.828e-09
  3.28002    145.9 1.505e+04 3.712e-09
  3.29970    143.3 1.524e+04 3.702e-09
  3.31441    141.5 1.525e+04 3.490e-09
  3.32421    140.3 1.528e+04 3.345e-09
  3.33405    138.5 1.569e+04 3.548e-09
  3.34304    137.4 1.620e+04 3.890e-09
  3.34796    136.7 1.745e+04 6.016e-09
  3.35373    135.5 1.800e+04 7.081e-09
  3.36357    134.8 1.840e+04 7.989e-09
  3.37838    133.7 1.842e+04 7.680e-09
  3.39811    131.9 1.843e+04 7.694e-09
  3.41779    130.4 1.805e+04 6.390e-09
  3.43015    128.6 1.704e+04 4.412e-09
  3.44000    127.3 1.897e+04 1.133e-08
  3.45715    125.2 1.791e+04 7.882e-09
  3.47683    123.4 1.664e+04 5.747e-09
  3.49651    122.3 1.546e+04 4.428e-09
  3.50766    121.8 1.450e+04 3.481e-09
  3.51750    122.3 1.468e+04 3.720e-09
  3.53588    122.1 1.387e+04 2.923e-09
  3.55556    121.8 1.315e+04 2.282e-09
  3.57524    121.8 1.250e+04 1.768e-09
  3.59434    121.8 1.194e+04 1.371e-09
  3.60419    120.9 1.219e+04 1.514e-09
  3.61460    120.9 1.166e+04 1.205e-09
  3.63428    121.1 1.129e+04 1.005e-09
  3.65396    121.6 1.101e+04 8.659e-10
  3.67364    122.1 1.082e+04 7.684e-10
  3.69332    122.5 1.068e+04 7.010e-10
  3.71300    123.1 1.056e+04 6.444e-10
  3.73269    123.6 1.046e+04 6.010e-10
  3.75237    124.3 1.034e+04 5.690e-10
  3.76838    125.0 1.024e+04 5.445e-10
  3.77822    124.6 1.072e+04 7.439e-10
  3.79173    125.3 1.062e+04 7.030e-10
  3.81141    126.1 1.058e+04 6.855e-10
  3.83109    126.9 1.058e+04 6.859e-10
  3.85077    127.8 1.060e+04 6.917e-10
  3.87045    128.8 1.067e+04 7.124e-10
  3.89013    129.8 1.078e+04 7.521e-10
  3.90982    130.7 1.097e+04 8.183e-10
  3.92679    131.7 1.125e+04 9.242e-10
  3.93663    131.7 1.118e+04 9.075e-10
  3.94241    132.6 1.161e+04 1.083e-09
  3.95225    131.5 1.281e+04 1.832e-09
  3.96886    132.4 1.353e+04 2.377e-09
  3.98854    133.3 1.433e+04 3.161e-09
  4.00822    134.3 1.513e+04 4.222e-09
  4.02790    135.3 1.584e+04 5.472e-09
  4.04758    136.4 1.650e+04 6.826e-09
  4.06726    137.4 1.711e+04 8.254e-09
  4.08695    138.3 1.765e+04 9.676e-09
  4.10660    138.9 1.808e+04 1.104e-08
  4.12628    140.0 1.780e+04 9.182e-09
  4.14599    140.7 1.787e+04 9.043e-09
  4.16567    141.3 1.793e+04 8.475e-09
  4.18535    141.8 1.786e+04 7.870e-09
  4.20503    141.9 1.776e+04 6.966e-09
  4.21974    141.9 1.768e+04 6.160e-09
  4.22954    141.7 1.764e+04 5.634e-09
  4.23938    141.2 1.785e+04 5.276e-09
  4.24922    140.5 1.796e+04 5.301e-09
  4.25906    139.4 1.821e+04 5.509e-09
  4.26890    137.9 1.850e+04 5.981e-09
  4.27874    136.1 1.879e+04 6.787e-09
  4.28545    134.2 1.914e+04 8.045e-09
  4.29037    134.6 1.849e+04 6.514e-09
  4.29842    132.9 1.902e+04 8.263e-09
  4.30826    131.3 1.954e+04 1.064e-08
  4.31810    130.0 2.004e+04 1.384e-08
  4.32794    129.0 2.054e+04 1.809e-08
  4.33778    128.2 2.095e+04 2.311e-08
  4.34762    127.4 2.125e+04 2.754e-08
  4.35567    126.5 2.144e+04 2.995e-08
  4.36059    125.3 2.171e+04 2.831e-08
  4.36730    124.4 2.204e+04 3.041e-08
  4.37246    123.6 2.242e+04 3.162e-08
  4.37738    124.2 2.260e+04 3.069e-08
  4.38698    123.4 2.304e+04 3.345e-08
  4.39683    122.3 2.394e+04 3.619e-08
  4.40667    118.8 2.694e+04 4.437e-08
  4.41651    109.0 3.133e+04 8.546e-08
  4.42635     97.4 2.922e+04 2.235e-07
  4.43619     85.4 2.541e+04 5.270e-07
  4.44603     71.4 2.552e+04 7.304e-07
  4.45456     56.0 2.886e+04 5.225e-07
  4.45948     46.5 4.172e+04 1.143e-07
  4.46571     28.7 5.109e+04 1.730e-08
  4.47555     11.0 3.439e+04 5.359e-09
  4.48539      2.3 1.981e+04 4.836e-09
  4.50020     -4.0 1.686e+04 2.479e-09
  4.51993     -4.5 1.464e+04 1.485e-09
  4.53961     -3.7 1.373e+04 9.163e-10
  4.55929     -3.1 1.217e+04 6.485e-10
  4.57897     -2.0 1.106e+04 5.639e-10
  4.59865      0.2 1.072e+04 5.779e-10
  4.61833      2.7 1.080e+04 6.375e-10
  4.62869      5.1 1.102e+04 7.311e-10
  4.63853      5.3 1.078e+04 6.519e-10
  4.65770      7.8 1.090e+04 6.917e-10
  4.67738     10.0 1.094e+04 7.048e-10
  4.69706     12.1 1.089e+04 6.887e-10
  4.71674     14.0 1.079e+04 6.489e-10
  4.73642     15.7 1.062e+04 5.884e-10
  4.75610     17.3 1.039e+04 5.212e-10
  4.77491     18.8 1.013e+04 4.564e-10
  4.78475     19.4 9.807e+03 3.900e-10
  4.79288     20.6 9.681e+03 3.587e-10
  4.80272     20.9 9.264e+03 2.925e-10
  4.81515     22.7 9.117e+03 2.595e-10
  4.83483     23.4 9.160e+03 2.578e-10
  4.85451     25.4 9.012e+03 2.323e-10
  4.87419     26.2 9.045e+03 2.328e-10
  4.89387     28.0 9.053e+03 2.306e-10
  4.91355     29.0 9.214e+03 2.424e-10
  4.93323     30.3 9.575e+03 2.757e-10
  4.95291     31.6 1.003e+04 3.276e-10
  4.96691     32.9 1.046e+04 3.979e-10
  4.97675     33.6 9.125e+03 2.320e-10
  4.99228     34.6 9.432e+03 2.620e-10
  5.01196     35.6 9.843e+03 3.149e-10
  5.03164     36.6 1.027e+04 4.037e-10
  5.05132     37.8 1.063e+04 5.349e-10
  5.07100     39.3 1.095e+04 7.044e-10
  5.09068     40.8 1.126e+04 9.081e-10
  5.11036     42.3 1.154e+04 1.129e-09
  5.13004     43.7 1.182e+04 1.351e-09
  5.14094     45.2 1.213e+04 1.578e-09
  5.15078     44.7 1.141e+04 1.130e-09
  5.16941     46.1 1.161e+04 1.316e-09
  5.18909     47.4 1.180e+04 1.473e-09
  5.20389     48.6 1.196e+04 1.576e-09
  5.21373     49.0 1.204e+04 1.547e-09
  5.22845     50.1 1.219e+04 1.568e-09
  5.25807     51.0 1.219e+04 1.488e-09
  5.29753     52.5 1.207e+04 1.373e-09
  5.33689     54.1 1.181e+04 1.182e-09
  5.37625     56.0 1.149e+04 9.911e-10
  5.41561     57.7 1.119e+04 8.407e-10
  5.45498     59.9 1.099e+04 7.257e-10
  5.47926     60.7 1.094e+04 7.144e-10
  5.48900     60.8 1.067e+04 7.331e-10
  5.50398     61.9 1.067e+04 7.379e-10
  5.52366     62.9 1.068e+04 7.418e-10
  5.54335     64.1 1.071e+04 7.490e-10
  5.56303     65.2 1.079e+04 7.691e-10
  5.58271     66.2 1.092e+04 8.021e-10
  5.60239     67.1 1.108e+04 8.513e-10
  5.62207     68.0 1.136e+04 9.603e-10
  5.63286     68.6 1.179e+04 1.178e-09
  5.64270     69.1 1.155e+04 9.927e-10
  5.65319     69.4 1.204e+04 1.284e-09
  5.66303     69.8 1.193e+04 1.166e-09
  5.68111     69.9 1.239e+04 1.529e-09
  5.70079     70.1 1.290e+04 2.096e-09
  5.72048     70.5 1.348e+04 2.880e-09
  5.74016     71.1 1.398e+04 3.528e-09
  5.75984     71.2 1.407e+04 3.569e-09
  5.77952     71.5 1.396e+04 3.373e-09
  5.79920     71.8 1.361e+04 2.788e-09
  5.81738     71.9 1.309e+04 2.042e-09
  5.82722     71.6 1.315e+04 2.121e-09
  5.84850     70.7 1.223e+04 1.156e-09
  5.88796     70.2 1.087e+04 4.765e-10
  5.92732     69.9 9.698e+03 1.874e-10
  5.96668     69.9 9.052e+03 1.054e-10
  6.00605     70.8 8.788e+03 9.590e-11
  6.04235     72.7 8.703e+03 9.497e-11
  6.06204     73.2 8.642e+03 8.815e-11
  6.08477     75.3 8.582e+03 8.518e-11
  6.12413     77.3 8.543e+03 8.170e-11
  6.15580     79.3 8.503e+03 7.775e-11
  6.17548     79.1 8.471e+03 7.400e-11
  6.20286     81.1 8.433e+03 7.130e-11
  6.24222     83.2 8.399e+03 6.815e-11
  6.28158     85.2 8.372e+03 6.461e-11
  6.32094     87.2 8.334e+03 6.128e-11
  6.36031     89.1 8.292e+03 5.931e-11
  6.39967     91.0 8.293e+03 5.952e-11
  6.43903     92.9 8.313e+03 6.094e-11
  6.47839     94.9 8.360e+03 6.563e-11
  6.50386     96.8 8.458e+03 7.596e-11
  6.52354     96.0 8.876e+03 1.150e-10
  6.55712     98.1 9.030e+03 1.521e-10
  6.59648    100.1 9.223e+03 2.022e-10
  6.63584    102.4 9.609e+03 2.785e-10
  6.67520    104.0 9.866e+03 3.477e-10
  6.70463    105.0 1.002e+04 3.980e-10
  6.72421    105.9 1.023e+04 4.624e-10
  6.74389    106.7 1.047e+04 5.480e-10
  6.76357    107.5 1.074e+04 6.557e-10
  6.78325    108.4 1.104e+04 7.904e-10
  6.80294    109.4 1.131e+04 9.475e-10
  6.82262    110.3 1.160e+04 1.131e-09
  6.84188    111.4 1.184e+04 1.354e-09
  6.85172    110.8 1.152e+04 1.220e-09
  6.86198    112.1 1.167e+04 1.302e-09
  6.88166    113.5 1.171e+04 1.281e-09
  6.90011    114.8 1.174e+04 1.201e-09
  6.90995    115.3 1.149e+04 1.050e-09
  6.92102    116.5 1.153e+04 9.678e-10
  6.94070    117.5 1.150e+04 8.173e-10
  6.96038    118.4 1.132e+04 6.415e-10
  6.98007    119.0 1.098e+04 4.839e-10
  6.99975    119.4 1.047e+04 3.660e-10
  7.01591    119.7 9.956e+03 2.926e-10
  7.02575    118.2 9.480e+03 2.458e-10
  7.03911    118.9 9.314e+03 2.285e-10
  7.06873    121.1 9.196e+03 2.117e-10
  7.10819    123.1 8.952e+03 1.837e-10
  7.14755    125.1 8.796e+03 1.640e-10
  7.18030    127.0 8.683e+03 1.520e-10
  7.19998    125.3 9.629e+03 2.944e-10
  7.22627    127.2 9.685e+03 3.044e-10
  7.26564    128.9 9.928e+03 3.348e-10
  7.30500    131.1 1.020e+04 3.801e-10
  7.32919    132.4 1.001e+04 3.536e-10
  7.33893    132.4 1.003e+04 3.568e-10
  7.35401    133.5 1.007e+04 3.636e-10
  7.36398    134.3 1.021e+04 3.968e-10
  7.37382    132.8 1.087e+04 6.225e-10
  7.39337    133.4 1.112e+04 7.547e-10
  7.41305    134.1 1.142e+04 9.155e-10
  7.43273    134.7 1.180e+04 1.116e-09
  7.45241    135.3 1.225e+04 1.369e-09
  7.47209    135.9 1.274e+04 1.679e-09
  7.49177    136.4 1.319e+04 2.014e-09
  7.51145    136.8 1.363e+04 2.268e-09
  7.52817    137.1 1.393e+04 2.355e-09
  7.53801    134.7 1.408e+04 2.299e-09
  7.55082    134.5 1.416e+04 2.203e-09
  7.57050    134.1 1.413e+04 1.976e-09
  7.59018    133.5 1.393e+04 1.716e-09
  7.60986    132.7 1.343e+04 1.546e-09
  7.62954    132.0 1.302e+04 1.386e-09
  7.64922    131.6 1.295e+04 1.420e-09
  7.66890    131.3 1.304e+04 1.562e-09
  7.68858    130.9 1.356e+04 1.898e-09
  7.70220    130.2 1.449e+04 2.616e-09
  7.71204    127.7 1.480e+04 3.119e-09
  7.72795    126.4 1.598e+04 4.656e-09
  7.74763    124.6 1.766e+04 7.961e-09
  7.75807    122.7 1.954e+04 1.434e-08
  7.76791    123.7 1.918e+04 1.306e-08
  7.78699    121.3 2.116e+04 2.218e-08
  7.80170    117.8 2.238e+04 2.479e-08
  7.81149    115.7 2.235e+04 2.452e-08
  7.82630    113.7 2.246e+04 2.330e-08
  7.84603    109.4 2.224e+04 1.562e-08
  7.86571    104.2 2.098e+04 7.586e-09
  7.87623     97.5 1.810e+04 3.495e-09
  7.88607     95.3 1.738e+04 3.778e-09
  7.90508     90.3 1.507e+04 2.377e-09
  7.92476     87.2 1.414e+04 1.908e-09
  7.94444     85.7 1.385e+04 1.732e-09
  7.96412     84.8 1.367e+04 1.560e-09
  7.98380     84.1 1.336e+04 1.321e-09
  8.00348     83.1 1.292e+04 1.048e-09
  8.02316     82.0 1.243e+04 7.870e-10
  8.04042     80.5 1.190e+04 5.947e-10
  8.05026     80.9 1.190e+04 6.086e-10
  8.06252     79.6 1.159e+04 5.457e-10
  8.08221     78.2 1.165e+04 5.607e-10
  8.10189     76.2 1.205e+04 6.505e-10
  8.12157     73.8 1.325e+04 9.232e-10
  8.14125     71.4 1.513e+04 1.570e-09
  8.16093     69.9 1.680e+04 2.786e-09
  8.17721     69.4 1.799e+04 4.491e-09
  8.18705     71.4 1.693e+04 2.968e-09
  8.19532     70.7 1.803e+04 4.409e-09
  8.20512     70.5 1.873e+04 5.557e-09
  8.21435     70.1 1.952e+04 6.779e-09
  8.21927     70.6 1.978e+04 8.088e-09
  8.22480     70.2 2.043e+04 9.548e-09
  8.23464     69.7 2.104e+04 1.122e-08
  8.24448     69.2 2.149e+04 1.295e-08
  8.25432     68.7 2.179e+04 1.473e-08
  8.26416     67.8 2.198e+04 1.700e-08
  8.27400     66.1 2.335e+04 2.235e-08
  8.28384     62.3 2.588e+04 4.002e-08
  8.29368     56.7 2.634e+04 1.080e-07
  8.30104     56.0 2.603e+04 1.399e-07
  8.30378     54.5 2.588e+04 1.929e-07
  8.30624     54.9 2.604e+04 1.799e-07
  8.31085     52.0 2.586e+04 2.812e-07
  8.31577     47.5 2.473e+04 5.400e-07
  8.32069     42.0 2.231e+04 1.314e-06
  8.32561     36.6 2.006e+04 3.205e-06
  8.33053     32.1 1.895e+04 5.432e-06
  8.33545     28.3 1.883e+04 5.401e-06
  8.34037     27.1 1.900e+04 4.001e-06
  8.34482     27.1 1.954e+04 2.581e-06
  8.34728     27.8 1.950e+04 2.613e-06
  8.35270     27.3 2.066e+04 1.170e-06
  8.36256     26.4 2.476e+04 2.727e-07
  8.37240     22.1 3.991e+04 2.084e-08
  8.38224     12.9 4.861e+04 2.788e-09
  8.38843     -6.1 2.294e+04 2.792e-09
  8.39286      4.8 3.334e+04 3.108e-09
  8.39652      7.2 3.835e+04 4.530e-09
  8.40193     -1.5 2.417e+04 3.174e-09
  8.41674     -6.6 2.039e+04 2.970e-09
  8.43647    -13.1 1.601e+04 2.081e-09
  8.45615    -17.7 1.361e+04 1.816e-09
  8.47583    -20.6 1.323e+04 1.667e-09
  8.49551    -22.0 1.314e+04 1.557e-09
  8.51519    -23.8 1.273e+04 1.301e-09
  8.53487    -25.3 1.263e+04 1.156e-09
  8.55267    -28.1 1.195e+04 9.426e-10
  8.56251    -26.1 1.192e+04 9.045e-10
  8.57423    -28.3 1.166e+04 8.257e-10
  8.59391    -30.6 1.156e+04 7.940e-10
  8.60618    -33.3 1.214e+04 9.037e-10
  8.61602    -34.9 1.244e+04 1.010e-09
  8.63328    -38.6 1.321e+04 1.291e-09
  8.65296    -42.0 1.365e+04 1.697e-09
  8.67264    -44.1 1.375e+04 2.126e-09
  8.69232    -44.9 1.380e+04 2.458e-09
  8.71200    -45.6 1.394e+04 2.628e-09
  8.72670    -47.0 1.463e+04 2.892e-09
  8.73654    -46.2 1.433e+04 2.812e-09
  8.75136    -47.9 1.510e+04 3.119e-09
  8.77104    -50.8 1.592e+04 3.561e-09
  8.79073    -53.7 1.662e+04 4.216e-09
  8.81041    -55.6 1.740e+04 5.080e-09
  8.83009    -56.4 1.814e+04 5.843e-09
  8.84977    -56.9 1.848e+04 6.142e-09
  8.86945    -57.4 1.816e+04 5.747e-09
  8.88913    -57.8 1.764e+04 5.169e-09
  8.90073    -57.9 1.712e+04 4.836e-09
  8.91057    -55.8 1.764e+04 4.952e-09
  8.92849    -55.7 1.753e+04 4.937e-09
  8.94817    -55.1 1.731e+04 4.790e-09
  8.96785    -54.2 1.718e+04 4.577e-09
  8.98754    -53.2 1.675e+04 4.310e-09
  9.00722    -52.0 1.600e+04 3.756e-09
  9.02532    -50.9 1.523e+04 3.238e-09
  9.03516    -51.3 1.626e+04 4.126e-09
  9.04658    -50.3 1.621e+04 3.973e-09
  9.06492    -49.6 1.644e+04 3.928e-09
  9.07476    -48.0 1.593e+04 3.539e-09
  9.08594    -47.2 1.586e+04 3.353e-09
  9.10562    -46.3 1.619e+04 3.260e-09
  9.12530    -45.7 1.661e+04 3.308e-09
  9.14498    -45.3 1.703e+04 3.513e-09
  9.16467    -44.9 1.706e+04 3.959e-09
  9.18435    -44.6 1.664e+04 4.615e-09
  9.20403    -43.8 1.605e+04 5.295e-09
  9.21874    -42.4 1.577e+04 5.589e-09
  9.22853    -42.0 1.567e+04 5.662e-09
  9.23837    -40.7 1.554e+04 5.863e-09
  9.24377    -40.1 1.539e+04 5.858e-09
  9.24874    -40.6 1.612e+04 6.193e-09
  9.26307    -38.7 1.576e+04 6.588e-09
  9.27778    -37.3 1.526e+04 6.254e-09
  9.28757    -36.2 1.525e+04 6.211e-09
  9.29742    -35.4 1.527e+04 6.049e-09
  9.30726    -34.5 1.522e+04 5.642e-09
  9.31710    -33.4 1.535e+04 5.354e-09
  9.32587    -32.5 1.547e+04 5.087e-09
  9.33079    -32.2 1.552e+04 5.288e-09
  9.34175    -31.3 1.563e+04 4.445e-09
  9.36148    -29.6 1.629e+04 2.927e-09
  9.38116    -28.7 1.692e+04 1.862e-09
  9.40084    -28.5 1.591e+04 1.070e-09
  9.41298    -29.1 1.330e+04 6.574e-10
  9.42282    -25.4 1.613e+04 1.401e-09
  9.44020    -25.7 1.417e+04 8.466e-10
  9.45430    -25.5 1.243e+04 5.764e-10
  9.46414    -26.3 1.202e+04 3.686e-10
  9.47956    -25.7 1.073e+04 3.271e-10
  9.49924    -24.4 1.051e+04 3.232e-10
  9.51893    -23.2 1.041e+04 3.375e-10
  9.53861    -21.9 1.045e+04 3.616e-10
  9.55829    -20.5 1.055e+04 3.997e-10
  9.57717    -19.3 1.063e+04 4.462e-10
  9.58701    -18.5 1.064e+04 4.471e-10
  9.59765    -17.3 1.072e+04 5.030e-10
  9.61733    -16.0 1.086e+04 5.756e-10
  9.63701    -14.6 1.105e+04 6.644e-10
  9.65669    -13.3 1.129e+04 7.623e-10
  9.67637    -12.3 1.193e+04 8.949e-10
  9.69606    -11.7 1.308e+04 1.131e-09
  9.71574    -11.5 1.404e+04 1.473e-09
  9.73542    -11.1 1.477e+04 2.021e-09
  9.75120    -10.8 1.519e+04 2.752e-09
  9.76104     -8.8 1.441e+04 1.786e-09
  9.77478     -8.9 1.509e+04 2.432e-09
  9.79446     -9.2 1.571e+04 3.431e-09
  9.81414     -9.6 1.631e+04 4.914e-09
  9.83382     -9.6 1.693e+04 6.837e-09
  9.85350     -9.5 1.774e+04 8.947e-09
  9.87318     -9.8 1.875e+04 1.077e-08
  9.88323    -10.1 1.936e+04 1.122e-08
  9.88810    -11.2 2.022e+04 1.210e-08
  9.89769    -11.6 2.086e+04 1.270e-08
  9.90753    -13.0 2.068e+04 1.209e-08
  9.91737    -13.9 2.052e+04 1.164e-08
  9.92513    -15.6 1.930e+04 1.022e-08
  9.93005    -14.2 2.035e+04 1.070e-08
  9.93705    -15.5 1.906e+04 9.442e-09
  9.94689    -16.8 1.779e+04 8.214e-09
  9.95673    -17.1 1.714e+04 7.504e-09
  9.96657    -17.4 1.645e+04 6.685e-09
  9.97641    -17.1 1.617e+04 6.112e-09
  9.98625    -17.0 1.582e+04 5.340e-09
  9.99609    -16.6 1.572e+04 5.000e-09
 10.01090    -16.1 1.546e+04 4.038e-09
 10.03063    -16.0 1.495e+04 2.665e-09
 10.05031    -16.5 1.394e+04 1.734e-09
 10.07000    -16.9 1.288e+04 1.288e-09
 10.08942    -16.8 1.231e+04 1.154e-09
 10.09926    -15.8 1.273e+04 1.308e-09
 10.10936    -15.2 1.238e+04 1.231e-09
 10.12904    -14.1 1.225e+04 1.251e-09
 10.14872    -13.1 1.261e+04 1.416e-09
 10.16840    -12.3 1.339e+04 1.776e-09
 10.18808    -12.3 1.494e+04 2.398e-09
 10.20776    -12.4 1.769e+04 3.555e-09
 10.22744    -12.1 1.968e+04 5.517e-09
 10.24713    -11.3 2.039e+04 7.758e-09
 10.26345    -10.5 2.012e+04 9.359e-09
 10.27329    -10.2 1.959e+04 7.868e-09
 10.28649    -10.2 1.907e+04 8.691e-09
 10.30241    -10.8 1.825e+04 8.609e-09
 10.31225    -13.6 1.597e+04 5.429e-09
 10.32585    -14.5 1.599e+04 4.860e-09
 10.34553    -16.0 1.619e+04 4.351e-09
 10.36521    -19.0 1.728e+04 4.079e-09
 10.38489    -23.3 1.980e+04 4.362e-09
 10.40457    -26.6 2.163e+04 6.566e-09
 10.42426    -27.8 2.192e+04 1.153e-08
 10.43743    -27.3 2.219e+04 1.702e-08
 10.44727    -23.9 2.217e+04 1.133e-08
 10.45865    -25.2 2.190e+04 2.082e-08
 10.46844    -24.6 2.142e+04 2.544e-08
 10.47828    -23.7 2.091e+04 3.070e-08
 10.48812    -22.6 2.086e+04 3.460e-08
 10.49796    -21.6 2.101e+04 3.757e-08
 10.50780    -20.8 2.142e+04 3.874e-08
 10.51680    -20.4 2.178e+04 3.756e-08
 10.52172    -20.5 2.103e+04 3.196e-08
 10.52440    -20.1 2.089e+04 2.798e-08
 10.52932    -19.3 2.037e+04 2.301e-08
 10.53732    -19.0 2.030e+04 2.122e-08
 10.54716    -18.5 2.020e+04 1.987e-08
 10.56197    -18.1 2.027e+04 1.861e-08
 10.58170    -16.4 2.021e+04 1.661e-08
 10.60138    -15.2 2.012e+04 1.600e-08
 10.61151    -13.8 1.962e+04 1.493e-08
 10.62135    -12.7 2.048e+04 1.570e-08
 10.64075    -11.0 2.035e+04 1.564e-08
 10.66043     -9.2 2.007e+04 1.524e-08
 10.68011     -7.6 1.991e+04 1.433e-08
 10.69979     -6.3 1.979e+04 1.335e-08
 10.71947     -5.3 1.977e+04 1.282e-08
 10.73139     -4.4 1.997e+04 1.330e-08
 10.74123     -5.3 1.923e+04 5.288e-09
 10.75883     -4.7 1.978e+04 4.458e-09
 10.77570     -4.7 2.022e+04 3.523e-09
 10.78554     -3.0 2.137e+04 2.986e-09
 10.79820     -3.8 2.193e+04 1.978e-09
 10.81788     -5.4 2.101e+04 1.334e-09
 10.83756     -7.5 1.762e+04 1.052e-09
 10.85724     -9.0 1.414e+04 1.046e-09
 10.87692     -9.1 1.259e+04 1.198e-09
 10.89660     -8.5 1.279e+04 1.416e-09
 10.91628     -7.6 1.311e+04 1.631e-09
 10.93596     -6.7 1.372e+04 1.854e-09
 10.94973     -6.4 1.512e+04 2.214e-09
 10.95957     -6.0 1.456e+04 2.002e-09
 10.97533     -7.0 1.843e+04 2.780e-09
 10.99501     -8.6 2.368e+04 4.468e-09
 11.00972     -9.8 2.660e+04 3.420e-09
 11.01951    -10.7 2.768e+04 4.684e-09
 11.02935    -11.1 2.839e+04 6.466e-09
 11.03665    -12.4 2.795e+04 8.065e-09
 11.04157    -11.6 2.847e+04 6.418e-09
 11.04903    -12.6 2.768e+04 7.825e-09
 11.05887    -14.6 2.642e+04 9.142e-09
 11.06871    -16.4 2.476e+04 1.104e-08
 11.07855    -17.5 2.322e+04 1.286e-08
 11.08839    -17.3 2.268e+04 1.316e-08
 11.09823    -17.5 2.179e+04 1.281e-08
 11.11304    -17.9 2.066e+04 1.384e-08
 11.12377    -16.9 1.950e+04 1.004e-08
 11.13361    -16.2 1.968e+04 1.063e-08
 11.15053    -15.1 1.857e+04 7.266e-09
 11.16037    -14.6 1.756e+04 6.641e-09
 11.17214    -13.7 1.689e+04 5.278e-09
 11.19182    -13.0 1.639e+04 3.799e-09
 11.21150    -12.9 1.547e+04 2.410e-09
 11.23118    -13.5 1.423e+04 1.510e-09
 11.25086    -13.6 1.328e+04 1.057e-09
 11.27054    -13.3 1.265e+04 8.308e-10
 11.28796    -13.0 1.218e+04 7.110e-10
 11.29780    -12.3 1.231e+04 7.252e-10
 11.30990    -12.1 1.204e+04 6.826e-10
 11.32959    -11.9 1.200e+04 6.850e-10
 11.34927    -12.0 1.212e+04 7.692e-10
 11.36895    -12.0 1.233e+04 9.292e-10
 11.38863    -11.6 1.271e+04 1.167e-09
 11.40831    -11.0 1.308e+04 1.455e-09
 11.42799    -10.2 1.343e+04 1.727e-09
 11.44767     -9.2 1.369e+04 1.953e-09
 11.46199     -8.3 1.376e+04 2.039e-09
 11.47183     -8.1 1.391e+04 2.072e-09
 11.48703     -7.3 1.390e+04 2.080e-09
 11.50671     -6.4 1.363e+04 1.894e-09
 11.52640     -5.7 1.327e+04 1.589e-09
 11.54608     -5.1 1.281e+04 1.274e-09
 11.56576     -4.5 1.240e+04 1.026e-09
 11.57951     -4.0 1.211e+04 8.619e-10
 11.58935     -3.3 1.194e+04 8.368e-10
 11.60512     -2.9 1.156e+04 6.900e-10
 11.62480     -2.4 1.128e+04 5.984e-10
 11.63602     -2.0 1.111e+04 5.670e-10
 11.64586     -1.9 1.132e+04 6.269e-10
 11.66416     -1.5 1.123e+04 6.129e-10
 11.68384     -1.3 1.133e+04 6.690e-10
 11.70353     -1.4 1.192e+04 8.238e-10
 11.72321     -2.1 1.282e+04 1.113e-09
 11.74289     -2.8 1.356e+04 1.551e-09
 11.76257     -2.9 1.409e+04 2.098e-09
 11.78225     -2.6 1.455e+04 2.674e-09
 11.80021     -2.7 1.491e+04 3.156e-09
 11.81005     -2.8 1.484e+04 3.177e-09
 11.82161     -2.8 1.510e+04 3.397e-09
 11.84129     -4.1 1.570e+04 3.632e-09
 11.86097     -5.8 1.612e+04 4.108e-09
 11.88066     -7.1 1.623e+04 4.621e-09
 11.90034     -7.7 1.612e+04 4.827e-09
 11.92002     -7.8 1.576e+04 4.784e-09
 11.93970     -7.6 1.498e+04 3.923e-09
 11.95938     -7.4 1.396e+04 2.854e-09
 11.97424     -7.1 1.311e+04 2.037e-09
 11.98408     -6.8 1.305e+04 1.966e-09
 11.99864     -6.6 1.253e+04 1.492e-09
 12.00848     -4.9 1.269e+04 1.716e-09
 12.01842     -5.1 1.221e+04 1.254e-09
 12.03810     -6.7 1.166e+04 9.259e-10
 12.05779     -8.3 1.107e+04 7.407e-10
 12.07747     -9.3 1.082e+04 6.915e-10
 12.09715     -9.6 1.079e+04 7.013e-10
 12.11683     -9.7 1.086e+04 7.708e-10
 12.13651     -9.3 1.095e+04 8.398e-10
 12.14827     -8.6 1.107e+04 9.024e-10
 12.15811     -8.8 1.098e+04 8.504e-10
 12.17587     -8.0 1.102e+04 8.710e-10
 12.19555     -7.1 1.100e+04 8.667e-10
 12.21523     -6.1 1.091e+04 8.254e-10
 12.23492     -5.1 1.082e+04 7.742e-10
 12.25460     -4.2 1.073e+04 7.262e-10
 12.27428     -3.2 1.061e+04 6.835e-10
 12.29396     -2.0 1.058e+04 6.674e-10
 12.31246     -0.9 1.059e+04 6.650e-10
 12.32230     -0.8 1.060e+04 6.689e-10
 12.33332      0.5 1.062e+04 6.794e-10
 12.35300      1.9 1.066e+04 7.080e-10
 12.37268      3.4 1.079e+04 7.632e-10
 12.39236      4.8 1.098e+04 8.373e-10
 12.41204      6.1 1.127e+04 9.396e-10
 12.42762      7.4 1.169e+04 1.098e-09
 12.43746      7.8 1.155e+04 1.047e-09
 12.45141      9.1 1.194e+04 1.254e-09
 12.47109     10.5 1.235e+04 1.459e-09
 12.48649     12.1 1.273e+04 1.676e-09
 12.49633     12.8 1.361e+04 2.434e-09
 12.51045     14.8 1.396e+04 2.726e-09
 12.53013     17.0 1.418e+04 2.888e-09
 12.54981     19.1 1.424e+04 2.900e-09
 12.56949     20.7 1.452e+04 2.789e-09
 12.58917     21.7 1.487e+04 2.695e-09
 12.60886     22.9 1.560e+04 3.020e-09
 12.62854     22.8 1.606e+04 3.005e-09
 12.64822     21.7 1.640e+04 3.195e-09
 12.66052     19.3 1.685e+04 3.726e-09
 12.66539     22.0 1.728e+04 4.014e-09
 12.67272     21.7 1.728e+04 4.004e-09
 12.68256     19.2 1.763e+04 4.485e-09
 12.69240     18.5 1.770e+04 4.502e-09
 12.70224     15.7 1.790e+04 4.538e-09
 12.71208     15.0 1.795e+04 4.539e-09
 12.72192     11.4 1.726e+04 3.983e-09
 12.73176     11.0 1.735e+04 3.942e-09
 12.74657      5.4 1.750e+04 2.822e-09
 12.76630     -2.0 1.864e+04 2.032e-09
 12.78599    -12.0 1.997e+04 1.524e-09
 12.80070    -19.7 1.980e+04 1.581e-09
 12.81049    -22.0 2.059e+04 1.888e-09
 12.82033    -26.4 2.007e+04 2.376e-09
 12.82953    -28.0 2.057e+04 3.076e-09
 12.83445    -32.9 2.053e+04 5.337e-09
 12.84001    -34.9 2.044e+04 7.988e-09
 12.84985    -35.9 2.092e+04 1.128e-08
 12.85650    -36.9 2.166e+04 1.500e-08
 12.86142    -36.4 2.198e+04 1.477e-08
 12.86953    -37.4 2.345e+04 1.936e-08
 12.87937    -38.2 2.613e+04 2.267e-08
 12.88921    -38.8 3.054e+04 2.303e-08
 12.89905    -39.4 3.497e+04 2.136e-08
 12.90889    -40.3 3.951e+04 1.729e-08
 12.91655    -41.6 4.213e+04 1.419e-08
 12.92147    -51.5 4.359e+04 1.169e-08
 12.92858    -50.9 4.269e+04 1.004e-08
 12.93842    -49.6 4.281e+04 8.517e-09
 12.94826    -49.5 4.195e+04 8.204e-09
 12.95810    -50.9 4.027e+04 7.417e-09
 12.96794    -51.5 3.738e+04 6.711e-09
 12.98275    -49.9 3.313e+04 6.039e-09
 12.99874    -50.9 2.609e+04 5.292e-09
 13.00858    -57.4 2.079e+04 9.036e-09
 13.02216    -55.6 1.972e+04 8.219e-09
 13.04184    -54.1 1.932e+04 7.806e-09
 13.06152    -53.0 1.916e+04 7.563e-09
 13.08120    -52.4 1.911e+04 7.316e-09
 13.10088    -51.7 1.911e+04 7.250e-09
 13.12056    -51.2 1.932e+04 7.464e-09
 13.14025    -50.8 2.042e+04 7.986e-09
 13.15993    -50.4 2.302e+04 8.208e-09
 13.17277    -50.0 2.608e+04 8.246e-09
 13.18261    -49.1 1.922e+04 1.195e-08
 13.19929    -47.9 1.926e+04 1.216e-08
 13.21897    -46.6 1.973e+04 1.210e-08
 13.23865    -45.2 2.045e+04 1.152e-08
 13.25833    -43.7 2.173e+04 1.029e-08
 13.27573    -42.3 2.378e+04 9.443e-09
 13.28558    -42.5 2.400e+04 1.154e-08
 13.29769    -41.3 2.718e+04 1.133e-08
 13.31241    -39.9 2.738e+04 1.031e-08
 13.32220    -39.8 2.823e+04 1.054e-08
 13.33204    -39.1 2.972e+04 1.072e-08
 13.34178    -39.0 3.117e+04 1.135e-08
 13.34675    -35.6 2.250e+04 9.689e-09
 13.35177    -36.6 2.648e+04 1.082e-08
 13.36156    -36.1 2.780e+04 1.160e-08
 13.37140    -35.4 2.968e+04 1.305e-08
 13.38124    -35.4 3.093e+04 1.591e-08
 13.39108    -35.3 3.184e+04 2.102e-08
 13.40092    -35.2 3.198e+04 2.789e-08
 13.41076    -35.1 3.136e+04 3.838e-08
 13.42060    -34.8 3.061e+04 5.092e-08
 13.42880    -34.5 2.978e+04 6.500e-08
 13.43372    -31.1 3.141e+04 3.402e-08
 13.44028    -31.0 3.126e+04 4.444e-08
 13.45012    -30.8 3.076e+04 5.695e-08
 13.45997    -30.5 3.024e+04 7.097e-08
 13.46981    -30.3 2.962e+04 8.652e-08
 13.47965    -30.6 2.972e+04 9.907e-08
 13.48949    -31.9 3.042e+04 1.120e-07
 13.49505    -34.5 2.998e+04 1.541e-07
 13.49997    -34.9 2.803e+04 2.220e-07
 13.50917    -38.4 2.453e+04 4.630e-07
 13.51581    -41.7 2.215e+04 9.458e-07
 13.52073    -38.7 2.306e+04 1.067e-06
 13.52636    -43.2 2.096e+04 2.056e-06
 13.53126    -45.4 2.066e+04 2.350e-06
 13.53618    -49.1 2.071e+04 2.482e-06
 13.54110    -52.4 2.115e+04 2.100e-06
 13.54602    -56.5 2.156e+04 1.615e-06
 13.55094    -58.8 2.207e+04 1.199e-06
 13.55835    -60.8 2.300e+04 6.703e-07
 13.56573    -62.7 2.496e+04 3.393e-07
 13.57062    -62.4 2.559e+04 2.661e-07
 13.57803    -63.1 2.744e+04 1.166e-07
 13.58789    -64.4 2.815e+04 5.349e-08
 13.59773    -66.3 2.630e+04 3.334e-08
 13.60283    -68.2 2.416e+04 2.226e-08
 13.60775    -68.3 2.545e+04 2.010e-08
 13.61741    -69.9 2.269e+04 1.374e-08
 13.62725    -70.9 2.072e+04 1.090e-08
 13.63709    -71.2 1.976e+04 9.018e-09
 13.64694    -71.4 1.894e+04 7.566e-09
 13.65678    -71.4 1.813e+04 6.463e-09
 13.66662    -71.4 1.742e+04 5.644e-09
 13.67646    -71.2 1.695e+04 5.099e-09
 13.68497    -70.4 1.684e+04 4.804e-09
 13.69486    -70.6 1.535e+04 3.358e-09
 13.70471    -69.9 1.465e+04 2.557e-09
 13.71455    -71.2 1.480e+04 2.783e-09
 13.73068    -70.3 1.469e+04 2.367e-09
 13.75036    -69.6 1.428e+04 1.938e-09
 13.77004    -69.0 1.377e+04 1.584e-09
 13.78972    -68.5 1.325e+04 1.321e-09
 13.80940    -67.9 1.273e+04 1.112e-09
 13.82908    -67.2 1.225e+04 9.469e-10
 13.84876    -66.5 1.182e+04 8.173e-10
 13.85905    -65.8 1.150e+04 7.231e-10
 13.86889    -65.5 1.124e+04 6.698e-10
 13.88813    -64.4 1.113e+04 6.232e-10
 13.90781    -63.3 1.101e+04 5.787e-10
 13.92749    -62.2 1.092e+04 5.455e-10
 13.94717    -61.0 1.087e+04 5.268e-10
 13.96685    -59.7 1.084e+04 5.202e-10
 13.98653    -58.4 1.089e+04 5.235e-10
 14.00621    -56.9 1.100e+04 5.506e-10
 14.02324    -55.2 1.111e+04 5.778e-10
 14.03308    -54.4 1.113e+04 5.828e-10
 14.04557    -52.6 1.125e+04 6.137e-10
 14.06526    -50.6 1.140e+04 6.499e-10
 14.08494    -48.5 1.152e+04 6.847e-10
 14.10462    -46.1 1.163e+04 7.160e-10
 14.12385    -43.6 1.174e+04 7.476e-10
 14.13369    -44.1 1.185e+04 8.139e-10
 14.14398    -41.4 1.194e+04 8.269e-10
 14.16366    -38.6 1.198e+04 8.239e-10
 14.18334    -35.7 1.202e+04 8.028e-10
 14.19727    -32.9 1.206e+04 7.599e-10
 14.20711    -31.6 1.242e+04 9.227e-10
 14.22270    -28.6 1.243e+04 8.817e-10
 14.23742    -26.3 1.243e+04 8.030e-10
 14.24721    -26.0 1.241e+04 7.920e-10
 14.25705    -23.6 1.249e+04 7.868e-10
 14.26689    -23.1 1.250e+04 7.730e-10
 14.27673    -21.2 1.278e+04 7.658e-10
 14.28419    -20.9 1.303e+04 7.693e-10
 14.28911    -21.0 1.458e+04 8.375e-10
 14.29641    -19.9 1.716e+04 8.683e-10
 14.30625    -20.2 2.123e+04 9.488e-10
 14.31609    -20.1 2.654e+04 1.178e-09
 14.32593    -21.4 3.252e+04 1.588e-09
 14.33577    -22.5 3.810e+04 2.493e-09
 14.34316    -23.6 4.135e+04 4.315e-09
 14.34808    -30.7 3.200e+04 6.126e-08
 14.35545    -29.8 2.919e+04 8.553e-08
 14.36529    -28.7 2.746e+04 1.042e-07
 14.37121    -27.8 2.661e+04 1.150e-07
 14.37613    -27.4 2.549e+04 1.341e-07
 14.38498    -27.0 2.684e+04 1.165e-07
 14.39482    -27.0 2.842e+04 1.018e-07
 14.40466    -27.4 3.087e+04 8.339e-08
 14.41450    -28.5 3.408e+04 6.494e-08
 14.42434    -31.7 3.774e+04 5.492e-08
 14.43418    -40.3 4.190e+04 5.576e-08
 14.44402    -52.5 2.495e+04 6.129e-07
 14.45038    -59.5 1.858e+04 5.071e-06
 14.45282    -59.1 1.947e+04 2.364e-06
 14.45571    -60.2 1.864e+04 4.251e-06
 14.45817    -60.5 1.880e+04 3.754e-06
 14.46119    -60.5 1.862e+04 4.203e-06
 14.46611    -59.5 1.873e+04 3.557e-06
 14.47103    -58.0 1.984e+04 1.898e-06
 14.47595    -57.9 2.295e+04 7.501e-07
 14.48336    -58.9 3.088e+04 1.915e-07
 14.49322    -59.2 6.549e+04 6.904e-09
 14.50306    -71.9 7.802e+04 1.376e-09
 14.51290    -91.9 5.183e+04 1.489e-09
 14.52274    -98.5 4.714e+04 1.486e-09
 14.53258   -102.6 5.368e+04 1.715e-09
 14.54032   -104.4 5.957e+04 2.183e-09
 14.54524   -106.3 5.757e+04 1.864e-09
 14.55227   -109.0 5.221e+04 3.287e-09
 14.55765   -112.0 4.534e+04 5.069e-09
 14.56262   -114.9 2.245e+04 4.345e-09
 14.57696   -121.5 2.341e+04 8.855e-09
 14.59168   -125.0 2.361e+04 1.301e-08
 14.60147   -127.5 2.344e+04 1.400e-08
 14.61628   -132.7 2.273e+04 1.293e-08
 14.63601   -138.1 2.066e+04 8.287e-09
 14.65569   -144.6 1.780e+04 3.063e-09
 14.67537   -153.2 1.379e+04 7.907e-10
 14.69505   -161.2 1.069e+04 2.712e-10
 14.70952   -164.9 9.619e+03 1.916e-10
 14.71936   -164.4 9.457e+03 1.862e-10
 14.73441   -165.1 9.347e+03 1.767e-10
 14.75409   -165.5 9.282e+03 1.703e-10
 14.77378   -166.0 9.206e+03 1.641e-10
 14.79346   -166.2 9.183e+03 1.600e-10
 14.82308   -166.5 9.252e+03 1.574e-10
 14.86254   -166.9 9.527e+03 1.561e-10
 14.90190   -168.5 1.205e+04 2.597e-10
 14.93132   -167.1 1.060e+04 4.488e-10
 14.95090   -168.2 1.138e+04 7.549e-10
 14.97059   -169.1 1.222e+04 1.169e-09
 14.98180   -169.2 1.336e+04 1.730e-09
 14.99165   -169.7 1.523e+04 2.244e-09
 15.00995   -169.5 1.630e+04 3.211e-09
 15.02963   -169.2 1.694e+04 4.010e-09
 15.04775   -168.7 1.725e+04 4.437e-09
 15.05759   -167.0 1.489e+04 2.511e-09
 15.06899   -166.5 1.521e+04 2.670e-09
 15.08867   -165.9 1.544e+04 2.723e-09
 15.10835   -165.3 1.552e+04 2.723e-09
 15.12803   -164.9 1.555e+04 2.649e-09
 15.14772   -164.4 1.535e+04 2.566e-09
 15.16740   -163.9 1.503e+04 2.489e-09
 15.18708   -163.3 1.464e+04 2.400e-09
 15.20676   -162.5 1.423e+04 2.295e-09
 15.22178   -161.5 1.386e+04 2.170e-09
 15.23162   -160.6 1.348e+04 1.857e-09
 15.24612   -159.7 1.324e+04 1.777e-09
 15.26580   -158.9 1.297e+04 1.662e-09
 15.28548   -158.0 1.266e+04 1.514e-09
 15.30516   -157.3 1.232e+04 1.357e-09
 15.32485   -156.5 1.199e+04 1.207e-09
 15.34453   -155.8 1.167e+04 1.069e-09
 15.36421   -155.0 1.141e+04 9.616e-10
 15.38389   -154.3 1.120e+04 8.796e-10
 15.39581   -153.8 1.118e+04 8.259e-10
 15.40302   -153.1 1.100e+04 8.082e-10
 15.41078   -153.4 1.126e+04 8.561e-10
 15.42325   -153.1 1.140e+04 8.540e-10
 15.44293   -153.0 1.191e+04 9.021e-10
 15.46261   -153.0 1.262e+04 1.023e-09
 15.48229   -153.0 1.327e+04 1.218e-09
 15.50198   -153.1 1.377e+04 1.474e-09
 15.52166   -153.2 1.412e+04 1.780e-09
 15.54134   -153.2 1.435e+04 2.128e-09
 15.56000   -153.2 1.450e+04 2.500e-09
 15.56984   -151.3 1.391e+04 1.763e-09
 15.58070   -151.3 1.419e+04 2.075e-09
 15.60038   -151.2 1.440e+04 2.418e-09
 15.62006   -151.1 1.457e+04 2.793e-09
 15.63974   -151.2 1.471e+04 3.191e-09
 15.65942   -151.6 1.491e+04 3.614e-09
 15.67911   -152.4 1.525e+04 4.100e-09
 15.69879   -153.5 1.583e+04 4.700e-09
 15.71847   -155.2 1.657e+04 5.420e-09
 15.73403   -157.2 1.721e+04 6.196e-09
 15.74387   -154.7 1.675e+04 5.720e-09
 15.75783   -156.8 1.737e+04 6.523e-09
 15.77751   -159.2 1.758e+04 6.940e-09
 15.79719   -161.8 1.758e+04 7.019e-09
 15.81687   -164.2 1.722e+04 6.882e-09
 15.82992   -166.2 1.655e+04 6.120e-09
 15.83976   -167.7 1.655e+04 6.600e-09
 15.85623   -168.8 1.594e+04 5.741e-09
 15.87592   -169.7 1.532e+04 4.716e-09
 15.89560   -170.7 1.469e+04 3.778e-09
 15.90806   -171.7 1.408e+04 3.034e-09
 15.91790   -170.9 1.402e+04 2.860e-09
 15.93496   -172.0 1.354e+04 2.425e-09
 15.95464   -173.0 1.310e+04 2.104e-09
 15.97432   -173.8 1.275e+04 1.872e-09
 15.99400   -174.4 1.244e+04 1.692e-09
 16.01368   -174.9 1.214e+04 1.528e-09
 16.03336   -175.1 1.184e+04 1.367e-09
 16.05305   -175.2 1.154e+04 1.211e-09
 16.07225   -175.2 1.123e+04 1.060e-09
 16.08209   -174.7 1.143e+04 1.147e-09
 16.09241   -174.6 1.110e+04 9.777e-10
 16.11209   -174.5 1.070e+04 7.984e-10
 16.13177   -174.1 1.022e+04 6.205e-10
 16.15145   -173.4 9.747e+03 4.752e-10
 16.17113   -172.7 9.415e+03 3.871e-10
 16.19081   -172.1 9.293e+03 3.493e-10
 16.21049   -171.6 9.263e+03 3.379e-10
 16.23931   -170.9 9.268e+03 3.260e-10
 16.25909   -170.6 9.220e+03 3.127e-10
 16.27957   -169.4 9.146e+03 2.952e-10
 16.31894   -167.7 9.128e+03 2.871e-10
 16.35830   -165.9 9.139e+03 2.856e-10
 16.39766   -163.9 9.261e+03 2.962e-10
 16.42050   -162.0 9.448e+03 3.163e-10
 16.44019   -161.4 9.507e+03 3.319e-10
 16.47638   -159.8 9.656e+03 3.477e-10
 16.50581   -159.0 9.844e+03 4.058e-10
 16.52539   -158.4 1.004e+04 4.649e-10
 16.54507   -157.8 1.035e+04 5.610e-10
 16.56475   -157.4 1.081e+04 7.105e-10
 16.58444   -157.3 1.145e+04 9.386e-10
 16.60412   -157.4 1.246e+04 1.428e-09
 16.62380   -157.2 1.331e+04 2.028e-09
 16.64348   -157.1 1.405e+04 2.780e-09
 16.66316   -156.9 1.460e+04 3.516e-09
 16.67803   -156.9 1.481e+04 3.919e-09
 16.68787   -157.0 1.427e+04 3.106e-09
 16.70252   -157.0 1.428e+04 3.106e-09
 16.72220   -156.9 1.413e+04 2.888e-09
 16.74188   -156.8 1.381e+04 2.507e-09
 16.75853   -156.7 1.347e+04 2.140e-09
 16.76837   -156.8 1.315e+04 1.556e-09
 16.78125   -156.9 1.293e+04 1.376e-09
 16.80093   -156.9 1.279e+04 1.278e-09
 16.82061   -156.7 1.270e+04 1.248e-09
 16.84029   -156.3 1.267e+04 1.247e-09
 16.85997   -155.8 1.267e+04 1.301e-09
 16.87965   -155.2 1.274e+04 1.364e-09
 16.89933   -154.4 1.279e+04 1.415e-09
 16.91901   -153.6 1.282e+04 1.451e-09
 16.93256   -152.8 1.282e+04 1.468e-09
 16.94240   -153.1 1.301e+04 1.388e-09
 16.95838   -152.2 1.297e+04 1.395e-09
 16.97806   -151.3 1.294e+04 1.401e-09
 16.99774   -150.5 1.293e+04 1.412e-09
 17.01742   -149.9 1.290e+04 1.456e-09
 17.03710   -149.6 1.305e+04 1.564e-09
 17.05678   -149.6 1.338e+04 1.807e-09
 17.07646   -149.4 1.381e+04 2.236e-09
 17.09614   -149.2 1.427e+04 2.842e-09
 17.10659   -148.8 1.465e+04 3.502e-09
 17.10762   -148.8 1.477e+04 3.653e-09
 17.11685   -148.9 1.345e+04 2.241e-09
 17.13551   -148.7 1.350e+04 2.309e-09
 17.15519   -148.5 1.347e+04 2.304e-09
 17.17487   -148.2 1.327e+04 2.127e-09
 17.19455   -148.0 1.293e+04 1.808e-09
 17.21423   -147.9 1.254e+04 1.471e-09
 17.23391   -147.9 1.213e+04 1.190e-09
 17.25359   -148.0 1.180e+04 1.007e-09
 17.27078   -148.2 1.168e+04 9.348e-10
 17.28062   -148.1 1.132e+04 7.702e-10
 17.29295   -148.1 1.130e+04 7.618e-10
 17.31264   -148.1 1.135e+04 7.670e-10
 17.33232   -148.3 1.154e+04 8.386e-10
 17.35200   -148.3 1.173e+04 9.623e-10
 17.37168   -148.2 1.189e+04 1.097e-09
 17.39136   -148.1 1.201e+04 1.211e-09
 17.41104   -147.8 1.211e+04 1.288e-09
 17.43072   -147.6 1.217e+04 1.315e-09
 17.44481   -147.5 1.217e+04 1.307e-09
 17.45465   -146.7 1.233e+04 1.391e-09
 17.47008   -146.6 1.235e+04 1.389e-09
 17.48976   -146.6 1.233e+04 1.342e-09
 17.50945   -146.7 1.223e+04 1.259e-09
 17.52615   -146.9 1.208e+04 1.178e-09
 17.53599   -146.7 1.157e+04 9.276e-10
 17.54881   -146.8 1.148e+04 8.947e-10
 17.56849   -146.8 1.146e+04 8.873e-10
 17.58817   -146.8 1.149e+04 8.970e-10
 17.60785   -147.0 1.163e+04 9.452e-10
 17.61884   -147.2 1.180e+04 1.011e-09
 17.62868   -146.0 1.191e+04 1.066e-09
 17.64721   -146.4 1.212e+04 1.154e-09
 17.66689   -146.8 1.229e+04 1.230e-09
 17.68658   -147.3 1.242e+04 1.283e-09
 17.70626   -147.8 1.250e+04 1.312e-09
 17.72594   -148.4 1.255e+04 1.326e-09
 17.74562   -149.0 1.259e+04 1.334e-09
 17.76530   -149.7 1.264e+04 1.344e-09
 17.78303   -150.5 1.271e+04 1.368e-09
 17.79287   -149.7 1.305e+04 1.555e-09
 17.80466   -150.5 1.307e+04 1.582e-09
 17.82434   -151.2 1.309e+04 1.725e-09
 17.84402   -151.7 1.324e+04 1.999e-09
 17.86371   -152.0 1.358e+04 2.368e-09
 17.88339   -152.4 1.416e+04 2.883e-09
 17.90307   -153.0 1.488e+04 3.518e-09
 17.92275   -154.1 1.557e+04 4.169e-09
 17.94243   -155.6 1.612e+04 4.655e-09
 17.95513   -157.1 1.631e+04 4.894e-09
 17.95992   -154.7 1.555e+04 4.359e-09
 17.96690   -153.9 1.561e+04 4.402e-09
 17.98179   -155.4 1.577e+04 4.195e-09
 18.00147   -156.7 1.552e+04 3.725e-09
 18.02115   -157.8 1.496e+04 3.318e-09
 18.04084   -158.3 1.431e+04 2.957e-09
 18.06052   -158.4 1.371e+04 2.614e-09
 18.08020   -158.4 1.321e+04 2.289e-09
 18.09988   -158.3 1.289e+04 2.027e-09
 18.11956   -158.4 1.279e+04 1.893e-09
 18.13109   -158.6 1.279e+04 1.868e-09
 18.14093   -158.2 1.279e+04 1.869e-09
 18.15892   -158.7 1.288e+04 1.883e-09
 18.17860   -159.6 1.335e+04 2.131e-09
 18.19828   -160.5 1.387e+04 2.621e-09
 18.21797   -161.4 1.430e+04 3.180e-09
 18.23765   -162.2 1.459e+04 3.629e-09
 18.25733   -163.1 1.471e+04 3.833e-09
 18.27701   -164.2 1.474e+04 3.876e-09
 18.29528   -165.2 1.471e+04 3.856e-09
 18.30512   -164.9 1.451e+04 3.559e-09
 18.31637   -166.0 1.432e+04 3.214e-09
 18.33605   -167.3 1.416e+04 2.957e-09
 18.35573   -168.6 1.405e+04 2.813e-09
 18.37426   -170.0 1.394e+04 2.709e-09
 18.38410   -169.4 1.386e+04 2.542e-09
 18.39509   -170.7 1.378e+04 2.460e-09
 18.41478   -172.2 1.371e+04 2.325e-09
 18.43446   -174.0 1.372e+04 2.176e-09
 18.45414   -176.3 1.378e+04 2.112e-09
 18.46931   -179.0 1.406e+04 2.096e-09
 18.47915   -178.9 1.366e+04 1.707e-09
 18.49350   -181.7 1.418e+04 2.034e-09
 18.51318   -184.0 1.445e+04 2.535e-09
 18.53286   -185.7 1.440e+04 2.963e-09
 18.55254   -186.8 1.433e+04 3.082e-09
 18.57222   -187.2 1.398e+04 3.064e-09
 18.59191   -187.3 1.323e+04 2.515e-09
 18.61159   -187.3 1.249e+04 1.760e-09
 18.63127   -187.5 1.176e+04 1.151e-09
 18.64334   -187.9 1.109e+04 7.431e-10
 18.65319   -188.2 1.104e+04 7.463e-10
 18.67063   -188.6 1.047e+04 4.951e-10
 18.69031   -189.0 9.969e+03 3.577e-10
 18.71993   -189.2 9.591e+03 2.899e-10
 18.75939   -188.2 9.302e+03 2.493e-10
 18.79360   -186.6 8.996e+03 2.107e-10
 18.81241   -185.3 9.247e+03 2.564e-10
 18.81757   -185.7 9.092e+03 2.336e-10
 18.83811   -184.2 8.729e+03 1.811e-10
 18.87748   -182.8 8.474e+03 1.453e-10
 18.91684   -181.2 8.302e+03 1.210e-10
 18.95620   -179.7 8.168e+03 1.051e-10
 18.99556   -178.0 8.068e+03 9.538e-11
 19.03493   -176.2 8.000e+03 8.852e-11
 19.07429   -174.4 7.925e+03 8.275e-11
 19.11365   -172.5 7.853e+03 7.756e-11
 19.14595   -170.5 7.779e+03 7.227e-11
 19.16563   -170.9 7.772e+03 7.246e-11
 19.19237   -168.8 7.693e+03 6.665e-11
 19.23174   -166.7 7.623e+03 6.137e-11
 19.27110   -164.6 7.569e+03 5.741e-11
 19.31046   -162.4 7.540e+03 5.499e-11
 19.34982   -160.1 7.529e+03 5.420e-11
 19.38919   -157.8 7.526e+03 5.411e-11
 19.42855   -155.4 7.523e+03 5.503e-11
 19.46791   -153.1 7.521e+03 5.744e-11
 19.49401   -151.0 7.504e+03 6.245e-11
 19.51369   -151.0 7.508e+03 6.682e-11
 19.54663   -148.8 7.519e+03 7.076e-11
 19.58600   -146.6 7.555e+03 7.608e-11
 19.62536   -144.6 7.792e+03 9.351e-11
 19.65155   -143.0 8.471e+03 1.430e-10
 19.67123   -142.9 8.292e+03 1.670e-10
 19.70408   -141.9 9.901e+03 3.849e-10
 19.74344   -141.0 1.149e+04 8.441e-10
 19.77287   -140.0 1.192e+04 1.021e-09
 19.79245   -139.4 1.263e+04 1.367e-09
 19.81213   -138.7 1.316e+04 1.594e-09
 19.83181   -138.6 1.376e+04 1.995e-09
 19.84188   -138.6 1.430e+04 2.478e-09
 19.85172   -137.4 1.419e+04 2.629e-09
 19.87118   -138.3 1.498e+04 3.735e-09
 19.89086   -140.0 1.598e+04 5.592e-09
 19.91054   -141.5 1.715e+04 9.039e-09
 19.93022   -142.6 1.825e+04 1.522e-08
 19.94493   -142.2 1.905e+04 2.289e-08
 19.95472   -142.5 2.024e+04 3.257e-08
 19.96456   -142.9 2.171e+04 4.983e-08
 19.97440   -145.2 2.279e+04 6.698e-08
 19.98424   -149.0 2.313e+04 7.419e-08
 19.99409   -153.5 2.315e+04 7.499e-08
 20.00393   -157.6 2.322e+04 7.435e-08
 20.01089   -162.1 2.380e+04 7.533e-08
 20.01581   -163.5 2.411e+04 9.653e-08
 20.02361   -168.3 2.463e+04 9.747e-08
 20.03345   -172.8 2.489e+04 9.587e-08
 20.04329   -176.8 2.678e+04 6.906e-08
 20.05313   -181.5 2.757e+04 3.987e-08
 20.06297   -188.0 2.774e+04 1.771e-08
 20.07281   -196.1 2.458e+04 7.310e-09
 20.08024   -203.6 1.830e+04 4.206e-09
 20.08516   -203.1 1.967e+04 4.559e-09
 20.09249   -208.3 1.574e+04 3.500e-09
 20.09791   -209.8 1.509e+04 3.295e-09
 20.10283   -210.7 1.508e+04 3.296e-09
 20.11217   -210.9 1.506e+04 3.223e-09
 20.12698   -211.2 1.506e+04 3.121e-09
 20.14671   -213.1 1.487e+04 2.876e-09
 20.16639   -215.4 1.431e+04 2.551e-09
 20.18010   -217.1 1.365e+04 2.287e-09
 20.18994   -218.6 1.362e+04 2.335e-09
 20.20575   -219.4 1.324e+04 2.171e-09
 20.22544   -219.9 1.289e+04 2.006e-09
 20.24512   -220.0 1.263e+04 1.848e-09
 20.26480   -220.0 1.249e+04 1.711e-09
 20.28448   -220.0 1.243e+04 1.595e-09
 20.30416   -220.0 1.238e+04 1.496e-09
 20.32384   -219.9 1.228e+04 1.409e-09
 20.34352   -219.8 1.212e+04 1.325e-09
 20.35413   -219.4 1.188e+04 1.238e-09
 20.36397   -219.7 1.193e+04 1.263e-09
 20.38288   -219.2 1.160e+04 1.135e-09
 20.40257   -218.6 1.127e+04 1.019e-09
 20.42225   -217.9 1.096e+04 8.991e-10
 20.44193   -217.2 1.065e+04 7.746e-10
 20.46161   -216.6 1.039e+04 6.467e-10
 20.48129   -216.0 1.017e+04 5.229e-10
 20.49947   -215.5 9.977e+03 4.245e-10
 20.50931   -215.9 1.029e+04 5.178e-10
 20.51832   -215.7 1.016e+04 4.646e-10
 20.53810   -216.5 9.902e+03 3.913e-10
 20.57005   -215.8 9.745e+03 3.492e-10
 20.60941   -215.2 9.676e+03 3.371e-10
 20.64877   -214.6 9.666e+03 3.399e-10
 20.68814   -214.3 9.805e+03 3.875e-10
 20.72750   -213.9 1.009e+04 4.674e-10
 20.76686   -213.5 1.033e+04 5.499e-10
 20.80622   -213.0 1.059e+04 6.365e-10
 20.84559   -212.5 1.091e+04 7.403e-10
 20.86658   -211.9 1.127e+04 8.818e-10
 20.88626   -213.8 1.147e+04 9.328e-10
 20.92431   -214.0 1.188e+04 1.146e-09
 20.95373   -213.1 1.188e+04 1.193e-09
 20.97332   -213.0 1.196e+04 1.249e-09
 20.99300   -212.5 1.200e+04 1.277e-09
 21.01268   -211.9 1.205e+04 1.299e-09
 21.03057   -211.3 1.211e+04 1.321e-09
 21.04041   -212.1 1.200e+04 1.271e-09
 21.05204   -211.4 1.196e+04 1.233e-09
 21.07172   -210.6 1.190e+04 1.180e-09
 21.09140   -209.9 1.182e+04 1.113e-09
 21.11108   -209.2 1.174e+04 1.041e-09
 21.13077   -208.5 1.166e+04 9.673e-10
 21.15045   -207.8 1.159e+04 8.965e-10
 21.17013   -207.1 1.153e+04 8.341e-10
 21.18981   -206.4 1.151e+04 7.818e-10
 21.20460   -205.8 1.149e+04 7.395e-10
 21.21444   -206.5 1.145e+04 6.725e-10
 21.22917   -205.8 1.153e+04 7.012e-10
 21.24885   -205.1 1.162e+04 7.247e-10
 21.26853   -204.4 1.168e+04 7.419e-10
 21.28821   -203.6 1.164e+04 7.303e-10
 21.30790   -203.0 1.157e+04 6.973e-10
 21.32758   -202.2 1.174e+04 7.354e-10
 21.34726   -201.8 1.174e+04 7.449e-10
 21.35743   -203.0 1.296e+04 1.199e-09
 21.36727   -202.4 1.207e+04 7.230e-10
 21.37863   -203.6 1.373e+04 1.247e-09
 21.38847   -205.3 1.535e+04 3.394e-09
 21.40630   -205.4 1.665e+04 6.490e-09
 21.42598   -205.3 1.760e+04 1.039e-08
 21.44566   -205.5 1.823e+04 1.307e-08
 21.46534   -206.1 1.839e+04 1.365e-08
 21.48503   -206.7 1.836e+04 1.293e-08
 21.50471   -207.2 1.819e+04 1.012e-08
 21.52439   -208.6 1.830e+04 6.471e-09
 21.54282   -211.4 1.811e+04 3.637e-09
 21.55266   -218.4 1.513e+04 1.567e-09
 21.56375   -222.0 1.252e+04 1.206e-09
 21.58343   -224.1 1.144e+04 1.124e-09
 21.60311   -224.8 1.126e+04 1.087e-09
 21.62279   -225.0 1.113e+04 1.069e-09
 21.64247   -225.1 1.093e+04 1.050e-09
 21.66216   -224.9 1.077e+04 9.703e-10
 21.68184   -224.5 1.057e+04 8.792e-10
 21.70152   -223.8 1.042e+04 8.050e-10
 21.71685   -223.0 1.029e+04 7.422e-10
 21.72669   -223.0 1.035e+04 7.708e-10
 21.74088   -222.0 1.026e+04 7.259e-10
 21.76056   -221.0 1.016e+04 6.820e-10
 21.77656   -219.9 1.005e+04 6.337e-10
 21.78640   -219.7 1.001e+04 6.202e-10
 21.79992   -218.5 9.920e+03 5.844e-10
 21.81960   -217.2 9.807e+03 5.430e-10
 21.83928   -215.8 9.675e+03 4.926e-10
 21.85897   -214.0 9.559e+03 4.389e-10
 21.87865   -212.2 9.507e+03 4.024e-10
 21.89098   -210.9 9.506e+03 3.811e-10
 21.91076   -211.1 9.629e+03 4.461e-10
 21.94773   -209.2 9.615e+03 4.328e-10
 21.98709   -206.7 9.478e+03 4.082e-10
 22.02645   -204.1 9.307e+03 3.772e-10
 22.06581   -201.4 9.147e+03 3.459e-10
 22.10517   -198.6 9.023e+03 3.209e-10
 22.14454   -195.9 8.934e+03 3.061e-10
 22.18390   -193.3 8.904e+03 2.984e-10
 22.20574   -190.8 8.905e+03 2.969e-10
 22.22161   -190.0 9.008e+03 3.249e-10
 22.23914   -190.6 8.784e+03 2.875e-10
 22.26262   -188.4 8.886e+03 3.025e-10
 22.30199   -186.4 9.044e+03 3.299e-10
 22.34135   -184.6 9.171e+03 3.554e-10
 22.38071   -183.0 9.239e+03 3.683e-10
 22.42007   -181.5 9.253e+03 3.704e-10
 22.45943   -180.0 9.241e+03 3.655e-10
 22.49880   -178.3 9.137e+03 3.268e-10
 22.53816   -176.5 8.973e+03 2.708e-10
 22.56752   -174.5 8.800e+03 2.171e-10
 22.58720   -174.5 8.760e+03 2.155e-10
 22.61688   -172.3 8.621e+03 1.741e-10
 22.65625   -170.1 8.485e+03 1.382e-10
 22.69561   -167.7 8.387e+03 1.107e-10
 22.73497   -165.4 8.335e+03 9.094e-11
 22.77433   -163.0 8.320e+03 7.802e-11
 22.81369   -160.6 8.336e+03 7.075e-11
 22.85306   -158.1 8.358e+03 6.810e-11
 22.89242   -155.7 8.366e+03 6.762e-11
 22.91558   -153.3 8.371e+03 6.761e-11
 22.93526   -153.1 8.350e+03 7.253e-11
 22.97114   -151.0 8.435e+03 7.777e-11
 23.01050   -149.0 8.544e+03 9.654e-11
 23.04401   -146.9 8.652e+03 1.236e-10
 23.06369   -146.7 8.669e+03 1.249e-10
 23.08923   -144.7 8.746e+03 1.455e-10
 23.12859   -142.8 8.789e+03 1.560e-10
 23.16795   -141.2 8.790e+03 1.572e-10
 23.20732   -139.8 8.731e+03 1.444e-10
 23.24396   -138.7 8.686e+03 1.265e-10
 23.26364   -138.4 8.653e+03 1.259e-10
 23.28604   -137.1 8.583e+03 1.153e-10
 23.32540   -135.6 8.568e+03 1.118e-10
 23.36476   -134.1 8.574e+03 1.117e-10
 23.40413   -132.7 8.693e+03 1.195e-10
 23.44349   -131.4 8.890e+03 1.426e-10
 23.48285   -130.0 9.085e+03 1.794e-10
 23.52221   -128.5 9.276e+03 2.256e-10
 23.56158   -126.9 9.438e+03 2.729e-10
 23.59202   -125.4 9.544e+03 3.111e-10
 23.61170   -124.3 9.810e+03 3.459e-10
 23.64030   -122.9 1.010e+04 4.328e-10
 23.67966   -121.6 1.039e+04 5.264e-10
 23.71902   -120.4 1.060e+04 6.049e-10
 23.75839   -119.2 1.061e+04 6.242e-10
 23.79775   -118.1 1.066e+04 6.111e-10
 23.83711   -116.8 1.060e+04 5.648e-10
 23.86653   -115.4 1.077e+04 6.211e-10
 23.88612   -114.7 1.076e+04 6.135e-10
 23.90177   -113.9 1.076e+04 6.125e-10
 23.92155   -112.8 1.038e+04 5.484e-10
 23.94008   -111.3 1.045e+04 5.564e-10
 23.94983   -111.7 1.146e+04 8.757e-10
 23.96484   -111.1 1.145e+04 8.903e-10
 23.98452   -110.2 1.150e+04 9.314e-10
 24.00420   -109.3 1.156e+04 9.569e-10
 24.02389   -108.4 1.162e+04 9.770e-10
 24.04357   -107.4 1.167e+04 9.810e-10
 24.06325   -106.6 1.173e+04 9.701e-10
 24.08293   -105.8 1.180e+04 9.356e-10
 24.10261   -105.0 1.177e+04 8.981e-10
 24.11392   -104.3 1.163e+04 8.547e-10
 24.12376   -103.8 1.196e+04 1.041e-09
 24.14197   -102.8 1.182e+04 9.539e-10
 24.16165   -101.6 1.170e+04 8.709e-10
 24.18133   -100.3 1.155e+04 8.008e-10
 24.20102    -99.0 1.148e+04 7.524e-10
 24.22070    -98.2 1.148e+04 7.382e-10
 24.24038    -97.7 1.199e+04 7.418e-10
 24.26006    -97.4 1.306e+04 8.219e-10
 24.27811    -97.2 1.488e+04 9.781e-10
 24.28795    -98.4 1.980e+04 5.103e-09
 24.29942    -97.4 2.007e+04 7.183e-09
 24.31910    -96.3 1.999e+04 8.918e-09
 24.33075    -95.2 2.032e+04 9.977e-09
 24.34059    -95.8 2.085e+04 1.002e-08
 24.35846    -95.0 2.108e+04 1.109e-08
 24.37814    -94.4 2.138e+04 1.239e-08
 24.39286    -93.2 2.066e+04 1.498e-08
 24.40265    -93.1 2.078e+04 1.627e-08
 24.41249    -92.8 2.065e+04 1.913e-08
 24.42233    -92.5 2.031e+04 2.290e-08
 24.43217    -92.2 2.009e+04 2.806e-08
 24.44201    -92.0 1.991e+04 3.416e-08
 24.45185    -92.0 1.982e+04 4.016e-08
 24.45696    -91.9 1.975e+04 4.511e-08
 24.46188    -91.5 1.950e+04 4.176e-08
 24.47153    -91.7 1.964e+04 4.650e-08
 24.48137    -92.0 1.986e+04 5.124e-08
 24.49121    -92.9 2.035e+04 5.989e-08
 24.50105    -94.5 2.098e+04 8.368e-08
 24.51089    -96.7 2.138e+04 1.439e-07
 24.52074    -99.1 2.131e+04 2.605e-07
 24.53058   -102.1 2.096e+04 3.969e-07
 24.53906   -105.5 2.076e+04 4.470e-07
 24.54378   -103.5 2.068e+04 3.049e-07
 24.54514   -103.9 2.078e+04 3.146e-07
 24.55026   -106.3 2.044e+04 3.018e-07
 24.56010   -107.9 2.031e+04 2.167e-07
 24.56994   -108.9 2.049e+04 1.309e-07
 24.57978   -109.9 2.087e+04 7.561e-08
 24.58962   -110.8 2.125e+04 4.587e-08
 24.59946   -111.4 2.151e+04 3.146e-08
 24.60930   -111.5 2.149e+04 2.448e-08
 24.61914   -111.4 2.121e+04 2.128e-08
 24.62607   -110.8 2.096e+04 1.939e-08
 24.63596   -110.0 2.374e+04 4.563e-09
 24.65368   -109.1 2.285e+04 4.377e-09
 24.67336   -107.1 2.231e+04 4.052e-09
 24.69304   -105.1 2.216e+04 3.404e-09
 24.71272   -103.3 2.180e+04 2.810e-09
 24.73240   -101.8 2.124e+04 2.177e-09
 24.74988   -100.8 2.033e+04 1.629e-09
 24.75972    -99.5 2.097e+04 2.662e-09
 24.77177    -98.7 2.029e+04 1.968e-09
 24.79036    -98.5 1.875e+04 1.453e-09
 24.80020   -101.3 1.164e+04 3.541e-10
 24.81113   -100.9 1.092e+04 3.673e-10
 24.83081   -100.2 1.074e+04 4.023e-10
 24.85049    -99.6 1.070e+04 4.276e-10
 24.87017    -99.1 1.066e+04 4.489e-10
 24.88985    -98.8 1.063e+04 4.567e-10
 24.90953    -98.7 1.053e+04 4.593e-10
 24.92922    -98.6 1.030e+04 4.396e-10
 24.94890    -98.6 1.014e+04 4.059e-10
 24.96439    -98.5 1.002e+04 3.800e-10
 24.97423    -97.3 9.922e+03 3.272e-10
 24.98826    -97.0 9.856e+03 3.176e-10
 25.00794    -96.6 9.836e+03 3.148e-10
 25.02762    -95.9 9.836e+03 3.135e-10
 25.04730    -95.3 9.919e+03 3.243e-10
 25.06698    -94.9 1.002e+04 3.492e-10
 25.08666    -94.3 1.010e+04 3.849e-10
 25.10635    -93.9 1.018e+04 4.252e-10
 25.12603    -93.2 1.023e+04 4.849e-10
 25.13842    -92.2 1.024e+04 5.178e-10
 25.14826    -91.1 1.019e+04 4.880e-10
 25.16539    -90.1 1.019e+04 5.161e-10
 25.17886    -89.0 1.018e+04 5.262e-10
 25.18870    -89.4 1.026e+04 5.540e-10
 25.20475    -88.2 1.013e+04 5.062e-10
 25.22443    -87.0 1.001e+04 4.606e-10
 25.24411    -85.9 9.902e+03 4.227e-10
 25.26379    -84.6 9.816e+03 3.917e-10
 25.28347    -83.3 9.753e+03 3.665e-10
 25.30261    -82.0 9.743e+03 3.574e-10
 25.31245    -81.4 9.788e+03 3.813e-10
 25.33278    -79.9 9.810e+03 3.858e-10
 25.37224    -77.5 9.777e+03 3.752e-10
 25.41160    -75.6 9.829e+03 3.864e-10
 25.45096    -74.5 1.057e+04 5.606e-10
 25.49032    -73.7 1.157e+04 9.762e-10
 25.51975    -73.1 1.177e+04 1.130e-09
 25.53933    -72.9 1.216e+04 1.432e-09
 25.55901    -72.8 1.250e+04 1.735e-09
 25.57869    -72.9 1.286e+04 2.065e-09
 25.59800    -73.5 1.342e+04 2.479e-09
 25.60784    -74.1 1.353e+04 2.123e-09
 25.61805    -75.9 1.505e+04 2.868e-09
 25.63773    -77.5 1.637e+04 4.254e-09
 25.65067    -78.3 1.720e+04 6.547e-09
 25.66051    -75.7 1.611e+04 4.907e-09
 25.67710    -76.1 1.683e+04 6.048e-09
 25.69678    -76.4 1.698e+04 6.628e-09
 25.71646    -76.8 1.688e+04 6.685e-09
 25.73614    -76.8 1.619e+04 5.643e-09
 25.75582    -76.8 1.527e+04 4.224e-09
 25.77550    -76.9 1.447e+04 3.110e-09
 25.79518    -77.0 1.383e+04 2.414e-09
 25.81486    -76.9 1.335e+04 2.040e-09
 25.83454    -76.3 1.230e+04 1.062e-09
 25.85423    -75.5 1.214e+04 1.040e-09
 25.87391    -74.7 1.211e+04 1.034e-09
 25.89359    -74.0 1.210e+04 1.034e-09
 25.91327    -73.4 1.212e+04 1.039e-09
 25.93295    -72.9 1.223e+04 1.061e-09
 25.95263    -72.5 1.236e+04 1.098e-09
 25.97231    -72.2 1.249e+04 1.164e-09
 25.98889    -71.8 1.260e+04 1.269e-09
 25.99873    -71.8 1.180e+04 1.071e-09
 26.01168    -71.4 1.199e+04 1.279e-09
 26.02698    -70.9 1.224e+04 1.491e-09
 26.03682    -70.1 1.216e+04 1.283e-09
 26.05104    -69.6 1.229e+04 1.442e-09
 26.07072    -69.3 1.245e+04 1.582e-09
 26.09040    -69.3 1.276e+04 1.750e-09
 26.11008    -69.7 1.346e+04 2.079e-09
 26.12976    -70.8 1.452e+04 2.730e-09
 26.14944    -72.0 1.558e+04 3.863e-09
 26.16292    -72.7 1.635e+04 5.439e-09
 26.17277    -73.0 1.670e+04 6.466e-09
 26.18880    -73.0 1.719e+04 8.494e-09
 26.20849    -72.9 1.738e+04 9.643e-09
 26.22817    -72.7 1.741e+04 9.819e-09
 26.24785    -72.4 1.714e+04 9.170e-09
 26.26753    -71.8 1.642e+04 7.270e-09
 26.28721    -71.5 1.567e+04 5.329e-09
 26.30689    -71.6 1.500e+04 4.133e-09
 26.32657    -72.0 1.460e+04 3.663e-09
 26.33696    -72.1 1.451e+04 3.587e-09
 26.34680    -71.6 1.426e+04 3.411e-09
 26.36593    -71.3 1.430e+04 3.476e-09
 26.38562    -71.3 1.502e+04 4.271e-09
 26.40530    -71.1 1.575e+04 5.770e-09
 26.42498    -70.4 1.642e+04 7.663e-09
 26.44466    -69.5 1.698e+04 9.550e-09
 26.45595    -69.0 1.720e+04 1.056e-08
 26.46579    -68.6 1.738e+04 1.075e-08
 26.48402    -68.3 1.739e+04 1.093e-08
 26.50115    -67.6 1.699e+04 1.007e-08
 26.51099    -67.0 1.696e+04 9.204e-09
 26.52338    -66.2 1.657e+04 8.402e-09
 26.54306    -65.3 1.616e+04 7.361e-09
 26.56275    -64.6 1.570e+04 6.433e-09
 26.58243    -63.8 1.525e+04 5.568e-09
 26.60211    -63.2 1.484e+04 4.834e-09
 26.62179    -62.4 1.442e+04 4.183e-09
 26.64147    -61.5 1.402e+04 3.593e-09
 26.66115    -60.7 1.362e+04 3.060e-09
 26.67518    -59.8 1.322e+04 2.575e-09
 26.68502    -58.9 1.396e+04 3.497e-09
 26.70051    -58.0 1.363e+04 3.008e-09
 26.72019    -57.1 1.326e+04 2.545e-09
 26.73988    -56.3 1.287e+04 2.119e-09
 26.75956    -55.5 1.245e+04 1.731e-09
 26.77924    -54.9 1.194e+04 1.382e-09
 26.79892    -54.4 1.136e+04 1.100e-09
 26.81860    -54.0 1.080e+04 8.930e-10
 26.83828    -53.6 1.034e+04 7.502e-10
 26.84921    -53.0 1.005e+04 6.525e-10
 26.85905    -51.9 1.086e+04 8.949e-10
 26.87509    -51.5 1.032e+04 7.443e-10
 26.88493    -51.1 1.044e+04 8.106e-10
 26.89732    -50.5 1.012e+04 6.960e-10
 26.91701    -49.8 9.895e+03 6.012e-10
 26.93669    -49.1 9.686e+03 5.142e-10
 26.95637    -48.7 9.488e+03 4.439e-10
 26.97605    -48.5 9.314e+03 3.919e-10
 26.99573    -48.5 9.172e+03 3.588e-10
 27.01340    -48.5 9.106e+03 3.492e-10
 27.02324    -46.7 9.263e+03 3.897e-10
 27.03509    -47.5 9.560e+03 3.852e-10
 27.05477    -48.8 9.731e+03 4.376e-10
 27.07445    -50.4 1.009e+04 5.737e-10
 27.09413    -52.5 1.063e+04 8.177e-10
 27.10528    -54.9 1.166e+04 1.202e-09
 27.11016    -54.6 1.177e+04 1.258e-09
 27.11864    -57.0 1.405e+04 1.648e-09
 27.12848    -60.7 1.835e+04 2.600e-09
 27.13832    -64.9 2.308e+04 4.699e-09
 27.14816    -68.3 2.726e+04 9.094e-09
 27.15800    -71.1 2.814e+04 1.853e-08
 27.16784    -73.3 2.762e+04 3.348e-08
 27.17768    -75.3 2.699e+04 5.303e-08
 27.18733    -77.2 2.647e+04 7.388e-08
 27.19225    -81.0 2.510e+04 1.882e-07
 27.19488    -81.8 2.530e+04 1.895e-07
 27.19914    -82.4 2.546e+04 1.966e-07
 27.20160    -81.8 2.594e+04 1.683e-07
 27.20469    -83.1 2.596e+04 1.822e-07
 27.20961    -84.0 2.635e+04 1.902e-07
 27.21453    -85.3 2.658e+04 1.963e-07
 27.21946    -85.9 2.699e+04 2.004e-07
 27.22438    -86.7 2.701e+04 2.052e-07
 27.22930    -87.1 2.726e+04 2.083e-07
 27.23325    -87.6 2.709e+04 2.086e-07
 27.23571    -89.7 2.593e+04 2.428e-07
 27.23914    -89.8 2.617e+04 2.259e-07
 27.24406    -90.0 2.608e+04 2.115e-07
 27.24898    -90.0 2.601e+04 2.035e-07
 27.25390    -90.1 2.593e+04 1.947e-07
 27.25882    -90.2 2.591e+04 1.894e-07
 27.26374    -90.4 2.592e+04 1.862e-07
 27.26866    -90.8 2.629e+04 1.872e-07
 27.27358    -91.7 2.622e+04 2.092e-07
 27.27676    -93.0 2.586e+04 2.539e-07
 27.27924    -95.5 2.765e+04 1.267e-07
 27.28593    -97.9 2.735e+04 1.467e-07
 27.29577    -99.9 2.768e+04 1.175e-07
 27.30397   -100.9 2.921e+04 6.363e-08
 27.30887   -105.9 2.774e+04 2.242e-07
 27.31542   -106.4 2.741e+04 1.961e-07
 27.32529   -104.9 2.799e+04 1.166e-07
 27.33513   -103.7 2.752e+04 9.756e-08
 27.34497   -101.3 2.737e+04 7.205e-08
 27.35481    -98.3 2.776e+04 5.037e-08
 27.36136    -96.0 2.809e+04 3.728e-08
 27.37125    -97.2 3.150e+04 5.855e-09
 27.38935    -94.3 2.784e+04 3.939e-09
 27.40903    -92.7 2.412e+04 2.848e-09
 27.42871    -91.3 2.073e+04 2.029e-09
 27.44839    -89.4 1.720e+04 1.616e-09
 27.46808    -87.4 1.499e+04 1.335e-09
 27.48776    -85.5 1.324e+04 1.124e-09
 27.50744    -83.7 1.204e+04 9.549e-10
 27.52565    -81.7 1.126e+04 8.087e-10
 27.53549    -81.9 1.109e+04 8.700e-10
 27.54680    -79.7 1.098e+04 7.873e-10
 27.56648    -77.4 1.097e+04 7.358e-10
 27.58616    -75.2 1.104e+04 7.039e-10
 27.60584    -73.4 1.110e+04 6.705e-10
 27.62552    -71.5 1.113e+04 6.347e-10
 27.64521    -69.5 1.116e+04 6.202e-10
 27.66489    -67.3 1.116e+04 6.400e-10
 27.68457    -65.3 1.138e+04 6.744e-10
 27.69968    -63.3 1.160e+04 7.376e-10
 27.70952    -63.3 1.133e+04 8.007e-10
 27.72321    -61.3 1.146e+04 8.508e-10
 27.73305    -61.2 1.211e+04 9.911e-10
 27.74361    -59.2 1.258e+04 1.157e-09
 27.76329    -57.1 1.331e+04 1.430e-09
 27.78297    -54.9 1.425e+04 1.895e-09
 27.80265    -52.6 1.527e+04 2.697e-09
 27.82233    -50.1 1.665e+04 4.191e-09
 27.84202    -47.9 1.943e+04 7.029e-09
 27.85673    -48.1 2.432e+04 7.723e-09
 27.86652    -51.6 3.349e+04 8.956e-09
 27.87361    -62.1 4.067e+04 2.176e-08
 27.87853    -69.0 2.552e+04 2.046e-07
 27.88620    -69.4 1.981e+04 1.441e-06
 27.89356    -67.7 1.881e+04 2.994e-06
 27.89845    -67.4 1.855e+04 3.835e-06
 27.90337    -67.5 1.864e+04 4.032e-06
 27.90829    -69.1 1.896e+04 3.902e-06
 27.91321    -72.5 2.042e+04 2.378e-06
 27.91707    -78.0 2.276e+04 9.689e-07
 27.91953    -79.8 2.333e+04 6.293e-07
 27.92305    -84.6 2.435e+04 2.782e-07
 27.92797    -87.9 2.407e+04 1.702e-07
 27.93538    -90.5 2.407e+04 1.187e-07
 27.94252    -92.5 2.366e+04 7.314e-08
 27.94744    -92.3 2.992e+04 2.742e-08
 27.95508    -95.0 3.523e+04 1.339e-08
 27.96063    -98.0 3.951e+04 9.770e-09
 27.96555    -96.8 2.942e+04 7.669e-09
 27.97477    -99.8 3.042e+04 5.827e-09
 27.98461   -102.4 3.265e+04 5.390e-09
 27.99445   -104.9 3.856e+04 5.503e-09
 28.00429   -106.8 4.238e+04 6.472e-09
 28.01413   -108.2 4.163e+04 8.345e-09
 28.02397   -109.9 3.865e+04 1.064e-08
 28.03381   -111.9 3.312e+04 1.361e-08
 28.04272   -113.8 2.726e+04 1.773e-08
 28.04764   -110.1 2.759e+04 1.135e-08
 28.05349   -111.7 2.437e+04 1.546e-08
 28.06333   -112.1 2.275e+04 2.039e-08
 28.07317   -111.9 2.187e+04 2.534e-08
 28.08301   -111.0 2.139e+04 2.920e-08
 28.09285   -109.9 2.112e+04 3.058e-08
 28.10269   -108.8 2.083e+04 3.067e-08
 28.11253   -107.8 2.031e+04 2.803e-08
 28.12237   -106.7 1.980e+04 2.450e-08
 28.12974   -105.6 1.939e+04 2.147e-08
 28.13466   -105.4 1.945e+04 2.110e-08
 28.14205   -104.6 1.919e+04 1.911e-08
 28.15213   -103.8 1.891e+04 1.593e-08
 28.16202   -103.0 1.874e+04 1.819e-08
 28.17659   -101.5 1.822e+04 1.554e-08
 28.19628   -100.3 1.760e+04 1.165e-08
 28.21193    -99.3 1.674e+04 8.142e-09
 28.22177    -98.2 1.740e+04 1.035e-08
 28.23564    -97.3 1.660e+04 7.196e-09
 28.25532    -96.7 1.557e+04 4.947e-09
 28.27500    -96.0 1.457e+04 3.562e-09
 28.29468    -95.1 1.390e+04 2.769e-09
 28.31436    -94.1 1.360e+04 2.326e-09
 28.33404    -92.9 1.354e+04 2.139e-09
 28.35372    -91.8 1.355e+04 2.103e-09
 28.37341    -90.8 1.369e+04 2.111e-09
 28.38596    -89.9 1.394e+04 2.271e-09
 28.39580    -89.8 1.360e+04 2.103e-09
 28.41277    -88.5 1.366e+04 2.192e-09
 28.43245    -87.3 1.376e+04 2.309e-09
 28.45213    -86.0 1.382e+04 2.407e-09
 28.47181    -84.7 1.384e+04 2.452e-09
 28.49149    -83.5 1.392e+04 2.415e-09
 28.51117    -82.4 1.389e+04 2.304e-09
 28.53085    -81.3 1.382e+04 2.121e-09
 28.55015    -80.3 1.372e+04 1.900e-09
 28.55999    -80.7 1.330e+04 1.055e-09
 28.57022    -79.9 1.320e+04 9.522e-10
 28.58116    -79.2 1.303e+04 8.713e-10
 28.59100    -79.2 1.331e+04 9.676e-10
 28.60958    -78.5 1.309e+04 9.020e-10
 28.62926    -77.7 1.283e+04 8.368e-10
 28.64894    -76.8 1.255e+04 7.712e-10
 28.66862    -75.8 1.226e+04 7.119e-10
 28.68830    -74.7 1.201e+04 6.625e-10
 28.70798    -73.8 1.181e+04 6.221e-10
 28.72418    -72.7 1.164e+04 5.905e-10
 28.73402    -72.8 1.122e+04 4.735e-10
 28.74735    -71.6 1.110e+04 4.516e-10
 28.76703    -70.5 1.099e+04 4.345e-10
 28.78671    -69.3 1.088e+04 4.200e-10
 28.80639    -68.2 1.077e+04 4.146e-10
 28.82607    -67.0 1.072e+04 4.153e-10
 28.84575    -65.8 1.064e+04 4.201e-10
 28.86543    -64.5 1.057e+04 4.247e-10
 28.88511    -63.2 1.051e+04 4.283e-10
 28.91473    -61.2 1.029e+04 3.740e-10
 28.95419    -58.6 1.028e+04 4.109e-10
 28.99065    -56.2 1.023e+04 4.350e-10
 29.01024    -55.5 1.058e+04 5.654e-10
 29.03282    -53.5 1.063e+04 5.819e-10
 29.06260    -50.5 1.046e+04 5.345e-10
 29.08228    -49.9 1.029e+04 4.407e-10
 29.11164    -46.9 1.013e+04 3.838e-10
 29.15100    -44.3 1.011e+04 3.540e-10
 29.19037    -41.6 1.001e+04 3.116e-10
 29.22973    -38.9 9.886e+03 2.639e-10
 29.26909    -36.2 9.757e+03 2.138e-10
 29.30845    -33.7 9.640e+03 1.753e-10
 29.34781    -31.2 9.598e+03 1.555e-10
 29.38718    -28.7 9.600e+03 1.515e-10
 29.41066    -26.3 9.752e+03 1.621e-10
 29.43034    -25.9 1.008e+04 2.182e-10
 29.46590    -23.7 1.020e+04 2.591e-10
 29.50526    -21.1 1.033e+04 3.135e-10
 29.54463    -18.2 1.044e+04 3.462e-10
 29.58399    -15.4 1.042e+04 3.329e-10
 29.62335    -12.4 1.027e+04 2.865e-10
 29.66271     -9.6 1.017e+04 2.342e-10
 29.70207     -6.8 1.022e+04 2.106e-10
 29.73904     -4.2 1.031e+04 2.061e-10
 29.75872     -4.5 1.046e+04 2.133e-10
 29.78080     -2.2 1.060e+04 2.715e-10
 29.82016      0.3 1.078e+04 3.899e-10
 29.84861      3.4 1.111e+04 5.986e-10
 29.86829      3.9 1.113e+04 5.934e-10
 29.89888      7.4 1.140e+04 7.649e-10
 29.93825     10.6 1.148e+04 6.954e-10
 29.97761     12.9 1.168e+04 5.781e-10
 30.01697     14.8 1.178e+04 6.006e-10
 30.05633     16.7 1.211e+04 8.266e-10
 30.08710     19.1 1.283e+04 1.358e-09
 30.10678     18.8 1.307e+04 1.230e-09
 30.12512     19.7 1.370e+04 1.820e-09
 30.14470     20.7 1.400e+04 2.360e-09
 30.16438     21.9 1.455e+04 3.163e-09
 30.18407     22.8 1.512e+04 4.168e-09
 30.20375     23.5 1.558e+04 5.284e-09
 30.22343     24.2 1.605e+04 6.662e-09
 30.24311     24.9 1.629e+04 7.986e-09
 30.26094     25.8 1.635e+04 8.931e-09
 30.27078     25.6 1.649e+04 5.808e-09
 30.27739     26.5 1.669e+04 5.698e-09
 30.28723     26.4 1.701e+04 4.926e-09
 30.30215     27.2 1.734e+04 5.028e-09
 30.32183     28.1 1.774e+04 4.704e-09
 30.34151     29.1 1.803e+04 4.031e-09
 30.36120     29.8 1.838e+04 2.987e-09
 30.38088     30.1 1.822e+04 2.204e-09
 30.40056     30.5 1.691e+04 1.548e-09
 30.42024     30.4 1.520e+04 1.172e-09
 30.43497     30.9 1.358e+04 9.027e-10
 30.45474     30.8 1.185e+04 9.223e-10
 30.48932     33.1 1.136e+04 7.147e-10
 30.52868     35.7 1.105e+04 5.802e-10
 30.56804     38.3 1.082e+04 4.845e-10
 30.60740     41.0 1.063e+04 4.109e-10
 30.64677     43.7 1.046e+04 3.593e-10
 30.68613     46.3 1.030e+04 3.255e-10
 30.70656     48.9 1.025e+04 3.002e-10
 30.72624     49.2 1.011e+04 2.545e-10
 30.76354     51.8 1.008e+04 2.569e-10
 30.78322     52.1 9.962e+03 2.772e-10
 30.80421     54.7 9.959e+03 2.841e-10
 30.84358     57.3 9.952e+03 2.740e-10
 30.88294     59.7 9.917e+03 2.593e-10
 30.92230     62.0 9.869e+03 2.426e-10
 30.96166     64.2 9.889e+03 2.336e-10
 31.00103     66.4 9.913e+03 2.379e-10
 31.04039     68.7 9.945e+03 2.487e-10
 31.07975     71.0 9.965e+03 2.522e-10
 31.11160     73.4 9.964e+03 2.477e-10
 31.13128     73.9 9.782e+03 2.381e-10
 31.15847     76.3 9.749e+03 2.306e-10
 31.19784     78.7 9.711e+03 2.180e-10
 31.23720     81.2 9.656e+03 2.082e-10
 31.27656     83.7 9.650e+03 2.083e-10
 31.31592     86.3 9.667e+03 2.143e-10
 31.35529     88.8 9.767e+03 2.374e-10
 31.39465     91.2 9.966e+03 3.008e-10
 31.43401     94.0 1.027e+04 4.095e-10
 31.45966     96.8 1.054e+04 5.208e-10
 31.47935     98.2 1.048e+04 5.021e-10
 31.50280     99.6 1.063e+04 5.716e-10
 31.52238    100.6 1.075e+04 6.342e-10
 31.54206    101.5 1.089e+04 7.031e-10
 31.55448    102.5 1.099e+04 7.493e-10
 31.56432    103.2 1.097e+04 7.251e-10
 31.58142    104.1 1.100e+04 7.503e-10
 31.60110    105.1 1.098e+04 7.476e-10
 31.62078    106.2 1.088e+04 7.362e-10
 31.63350    107.3 1.072e+04 7.046e-10
 31.64334    108.0 1.101e+04 8.194e-10
 31.66015    109.1 1.085e+04 7.724e-10
 31.67983    110.1 1.066e+04 7.091e-10
 31.69951    111.1 1.045e+04 6.407e-10
 31.71919    112.1 1.028e+04 5.780e-10
 31.73887    113.0 1.015e+04 5.284e-10
 31.75855    113.9 1.007e+04 4.934e-10
 31.77823    114.7 1.003e+04 4.706e-10
 31.79769    115.5 1.001e+04 4.583e-10
 31.80753    116.3 1.024e+04 5.485e-10
 31.81760    117.0 1.021e+04 5.447e-10
 31.83728    117.7 1.021e+04 5.513e-10
 31.85696    118.3 1.022e+04 5.666e-10
 31.87664    119.0 1.025e+04 5.869e-10
 31.89632    119.6 1.029e+04 6.070e-10
 31.91600    120.1 1.030e+04 6.146e-10
 31.93568    120.9 1.030e+04 6.012e-10
 31.95536    121.2 1.028e+04 5.886e-10
 31.98498    122.9 1.014e+04 5.203e-10
 32.02444    124.6 9.950e+03 4.419e-10
 32.06380    126.3 9.735e+03 3.554e-10
 32.10317    128.0 9.523e+03 2.811e-10
 32.13611    129.8 9.346e+03 2.304e-10
 32.15579    130.0 9.421e+03 2.486e-10
 32.18189    131.9 9.428e+03 2.467e-10
 32.22125    133.7 9.515e+03 2.590e-10
 32.26062    135.4 9.698e+03 2.919e-10
 32.29004    136.1 9.719e+03 3.027e-10
 32.30962    136.7 9.725e+03 3.131e-10
 32.31978    137.4 9.837e+03 3.570e-10
 32.32962    137.9 9.834e+03 3.894e-10
 32.34898    138.8 1.016e+04 4.828e-10
 32.36867    139.3 1.057e+04 6.131e-10
 32.38835    139.4 1.096e+04 7.657e-10
 32.40260    139.4 1.143e+04 9.737e-10
 32.41244    140.1 1.162e+04 1.080e-09
 32.42771    139.7 1.223e+04 1.417e-09
 32.44739    139.2 1.295e+04 1.894e-09
 32.46707    138.4 1.367e+04 2.536e-09
 32.48397    137.6 1.429e+04 3.344e-09
 32.49381    139.1 1.369e+04 2.247e-09
 32.50643    138.2 1.432e+04 2.904e-09
 32.52611    137.5 1.477e+04 3.698e-09
 32.54580    137.0 1.500e+04 4.370e-09
 32.56548    136.5 1.497e+04 4.396e-09
 32.58516    136.3 1.479e+04 4.130e-09
 32.60484    136.4 1.429e+04 3.266e-09
 32.62452    136.4 1.361e+04 2.107e-09
 32.64420    136.2 1.283e+04 1.149e-09
 32.65800    134.9 1.190e+04 6.083e-10
 32.66784    136.5 1.266e+04 8.725e-10
 32.68356    134.7 1.165e+04 5.524e-10
 32.70324    133.3 1.110e+04 5.233e-10
 32.72293    133.0 1.107e+04 5.316e-10
 32.74261    132.9 1.111e+04 5.937e-10
 32.76229    133.0 1.130e+04 7.388e-10
 32.78197    133.3 1.155e+04 9.448e-10
 32.80165    133.8 1.184e+04 1.177e-09
 32.82133    134.2 1.213e+04 1.371e-09
 32.83157    134.3 1.229e+04 1.396e-09
 32.83244    135.2 1.236e+04 1.486e-09
 32.84187    135.1 1.249e+04 1.680e-09
 32.86069    135.0 1.260e+04 1.693e-09
 32.88037    134.8 1.257e+04 1.650e-09
 32.90006    134.5 1.235e+04 1.471e-09
 32.91974    134.1 1.191e+04 1.186e-09
 32.93942    133.8 1.136e+04 9.045e-10
 32.95910    133.5 1.082e+04 6.887e-10
 32.97878    133.2 1.040e+04 5.621e-10
 32.99622    133.2 1.030e+04 5.400e-10
 33.00606    133.2 1.034e+04 6.261e-10
 33.01814    133.5 1.034e+04 6.251e-10
 33.03782    134.0 1.037e+04 6.301e-10
 33.05750    134.5 1.048e+04 6.562e-10
 33.07718    135.1 1.069e+04 7.186e-10
 33.09687    135.6 1.090e+04 8.206e-10
 33.11655    136.2 1.119e+04 9.568e-10
 33.13623    136.9 1.153e+04 1.134e-09
 33.15591    137.7 1.189e+04 1.355e-09
 33.17025    138.6 1.226e+04 1.609e-09
 33.18009    139.4 1.217e+04 1.630e-09
 33.19527    140.1 1.275e+04 2.037e-09
 33.21495    140.7 1.360e+04 2.644e-09
 33.23463    140.8 1.467e+04 3.406e-09
 33.24935    140.6 1.539e+04 3.769e-09
 33.25553    140.3 1.551e+04 3.867e-09
 33.26050    141.2 1.539e+04 3.663e-09
 33.27400    140.1 1.653e+04 4.426e-09
 33.29368    138.1 1.810e+04 5.821e-09
 33.31336    136.0 1.954e+04 7.230e-09
 33.33304    133.9 2.032e+04 7.338e-09
 33.34428    132.1 2.006e+04 6.541e-09
 33.34916    133.2 2.490e+04 1.973e-08
 33.35754    132.5 2.499e+04 1.895e-08
 33.36738    131.9 2.492e+04 1.678e-08
 33.37722    131.3 2.465e+04 1.399e-08
 33.38706    130.8 2.413e+04 1.092e-08
 33.39690    130.1 2.336e+04 7.874e-09
 33.40675    129.1 2.234e+04 5.392e-09
 33.41659    127.8 2.089e+04 3.675e-09
 33.42628    125.9 1.972e+04 2.615e-09
 33.43120    127.7 2.658e+04 1.012e-08
 33.43627    126.1 2.738e+04 7.136e-09
 33.44611    124.6 2.836e+04 5.268e-09
 33.45595    123.3 2.911e+04 4.237e-09
 33.46510    122.3 2.907e+04 3.755e-09
 33.47002    122.4 2.279e+04 2.243e-09
 33.47563    121.4 2.144e+04 2.066e-09
 33.49044    120.1 2.012e+04 2.020e-09
 33.50847    118.4 1.882e+04 1.972e-09
 33.51827    120.0 2.438e+04 4.905e-09
 33.52483    118.6 2.247e+04 3.385e-09
 33.53467    116.9 2.034e+04 2.332e-09
 33.54948    116.2 2.575e+04 3.418e-09
 33.56921    112.4 2.274e+04 1.849e-09
 33.58889    109.8 1.949e+04 1.440e-09
 33.60857    107.6 1.698e+04 1.112e-09
 33.62826    105.8 1.556e+04 9.498e-10
 33.64794    104.3 1.461e+04 8.959e-10
 33.66762    102.7 1.398e+04 9.021e-10
 33.67969    101.0 1.387e+04 9.584e-10
 33.68474    101.0 1.221e+04 7.533e-10
 33.69235     92.8 1.879e+04 2.410e-09
 33.70698     90.8 1.817e+04 3.406e-09
 33.72666     89.9 1.696e+04 4.615e-09
 33.74634     89.3 1.642e+04 5.880e-09
 33.76602     89.1 1.649e+04 6.826e-09
 33.78570     89.2 1.645e+04 7.271e-09
 33.80538     89.6 1.627e+04 6.933e-09
 33.82507     90.1 1.603e+04 6.185e-09
 33.84475     90.6 1.582e+04 5.537e-09
 33.85654     91.1 1.557e+04 4.788e-09
 33.86638     88.8 1.500e+04 3.097e-09
 33.88411     89.2 1.426e+04 2.394e-09
 33.90379     89.7 1.346e+04 1.888e-09
 33.92347     90.4 1.280e+04 1.569e-09
 33.95309     90.5 1.176e+04 9.936e-10
 33.99255     92.3 1.102e+04 7.409e-10
 34.03191     94.3 1.030e+04 5.585e-10
 34.07127     96.3 9.721e+03 4.468e-10
 34.09902     98.3 9.374e+03 4.036e-10
 34.11870     98.0 9.468e+03 4.682e-10
 34.15000     99.9 9.403e+03 4.666e-10
 34.18511    101.7 9.439e+03 4.831e-10
 34.20479    100.4 9.441e+03 4.944e-10
 34.22872    102.0 9.577e+03 5.476e-10
 34.25815    102.9 9.716e+03 6.138e-10
 34.27773    103.4 9.862e+03 6.762e-10
 34.29741    104.0 1.001e+04 7.460e-10
 34.31709    104.4 1.016e+04 8.212e-10
 34.34671    104.5 1.001e+04 7.688e-10
 34.38617    105.1 9.912e+03 7.451e-10
 34.42553    105.6 9.671e+03 6.766e-10
 34.46490    106.2 9.303e+03 5.615e-10
 34.50426    106.8 8.839e+03 4.298e-10
 34.53317    107.5 8.321e+03 3.100e-10
 34.55285    106.8 7.830e+03 2.312e-10
 34.58298    107.8 7.375e+03 1.619e-10
 34.62235    108.8 6.988e+03 1.137e-10
 34.66171    109.8 6.681e+03 8.198e-11
 34.70107    110.9 6.428e+03 6.231e-11
 34.74043    112.2 6.281e+03 5.630e-11
 34.77979    113.6 6.275e+03 5.631e-11
 34.81916    115.0 6.299e+03 5.759e-11
 34.85852    116.4 6.382e+03 6.366e-11
 34.88123    117.6 6.516e+03 7.517e-11
 34.90091    117.6 6.639e+03 8.408e-11
 34.93724    118.7 6.768e+03 9.774e-11
 34.97660    120.2 6.760e+03 9.904e-11
 35.01597    121.1 6.869e+03 1.103e-10
 35.05533    121.9 6.959e+03 1.181e-10
 35.09469    122.4 7.037e+03 1.235e-10
 35.13405    122.8 7.131e+03 1.304e-10
 35.17342    123.1 7.260e+03 1.447e-10
 35.20961    123.6 7.435e+03 1.704e-10
 35.22929    123.9 7.444e+03 1.690e-10
 35.25214    124.7 7.670e+03 2.101e-10
 35.29150    125.6 7.902e+03 2.591e-10
 35.33086    126.5 8.097e+03 2.965e-10
 35.37023    127.3 8.257e+03 3.095e-10
 35.40959    127.9 8.344e+03 3.131e-10
 35.44895    128.3 8.421e+03 3.194e-10
 35.48831    128.7 8.561e+03 3.392e-10
 35.52768    129.1 8.777e+03 3.796e-10
 35.55767    129.4 9.042e+03 4.420e-10
 35.57736    130.1 9.136e+03 4.778e-10
 35.60640    130.4 9.393e+03 5.412e-10
 35.64576    130.9 9.446e+03 5.411e-10
 35.67519    130.9 9.515e+03 5.542e-10
 35.69477    131.0 9.519e+03 5.422e-10
 35.71445    131.3 9.475e+03 4.905e-10
 35.73151    131.3 9.394e+03 4.334e-10
 35.74135    131.3 9.424e+03 4.320e-10
 35.76375    131.7 9.248e+03 3.499e-10
 35.79525    132.6 8.971e+03 2.463e-10
 35.81493    131.7 9.354e+03 3.192e-10
 35.84257    132.4 9.085e+03 2.344e-10
 35.88193    133.4 8.815e+03 1.910e-10
 35.90574    134.9 8.769e+03 1.897e-10
 35.92542    135.6 8.670e+03 1.766e-10
 35.96066    137.5 8.741e+03 1.868e-10
 36.00002    139.6 8.964e+03 2.178e-10
 36.03938    141.6 9.324e+03 2.760e-10
 36.07875    143.4 9.711e+03 3.608e-10
 36.10817    144.3 9.846e+03 4.048e-10
 36.12775    145.2 9.990e+03 4.598e-10
 36.14743    146.2 1.025e+04 5.581e-10
 36.16712    147.3 1.058e+04 6.866e-10
 36.18680    148.2 1.090e+04 8.102e-10
 36.20648    149.0 1.118e+04 9.152e-10
 36.22403    149.6 1.137e+04 9.895e-10
 36.23387    148.9 1.128e+04 9.354e-10
 36.24376    149.5 1.125e+04 9.189e-10
 36.25360    150.3 1.145e+04 9.718e-10
 36.26552    150.8 1.140e+04 9.564e-10
 36.28520    151.4 1.125e+04 8.890e-10
 36.30488    151.9 1.105e+04 7.815e-10
 36.32456    152.5 1.083e+04 6.557e-10
 36.34425    153.0 1.064e+04 5.331e-10
 36.36393    153.3 1.049e+04 4.299e-10
 36.38361    153.4 1.038e+04 3.666e-10
 36.40329    153.4 1.038e+04 3.590e-10
 36.41779    153.5 1.039e+04 3.656e-10
 36.42763    154.8 1.044e+04 4.093e-10
 36.44265    154.9 1.051e+04 4.263e-10
 36.46233    154.8 1.063e+04 4.951e-10
 36.48201    154.7 1.082e+04 6.273e-10
 36.50169    154.9 1.100e+04 8.176e-10
 36.52137    155.2 1.120e+04 1.037e-09
 36.54106    155.6 1.139e+04 1.181e-09
 36.56074    155.8 1.144e+04 1.184e-09
 36.58042    155.9 1.143e+04 1.140e-09
 36.59182    155.8 1.133e+04 9.645e-10
 36.60166    156.9 1.178e+04 1.330e-09
 36.61978    156.7 1.156e+04 1.054e-09
 36.63946    156.1 1.118e+04 7.185e-10
 36.65301    155.1 1.069e+04 4.450e-10
 36.66285    155.3 1.088e+04 4.570e-10
 36.67882    153.7 1.019e+04 2.796e-10
 36.69850    152.2 9.502e+03 2.390e-10
 36.71819    151.9 9.417e+03 2.370e-10
 36.73787    152.1 9.407e+03 2.403e-10
 36.75601    152.2 9.405e+03 2.454e-10
 36.76585    152.7 9.466e+03 2.511e-10
 36.77723    152.9 9.472e+03 2.639e-10
 36.79691    153.3 9.521e+03 2.844e-10
 36.81659    153.7 9.597e+03 3.118e-10
 36.83627    154.1 9.685e+03 3.433e-10
 36.85595    154.6 9.825e+03 3.808e-10
 36.87563    155.0 1.000e+04 4.207e-10
 36.89532    155.2 1.018e+04 4.578e-10
 36.91500    155.3 1.032e+04 4.834e-10
 36.93014    155.4 1.057e+04 5.500e-10
 36.93998    155.5 1.064e+04 5.518e-10
 36.95436    155.4 1.071e+04 5.671e-10
 36.97404    155.5 1.074e+04 5.808e-10
 36.99372    155.6 1.079e+04 5.961e-10
 37.02334    155.7 1.102e+04 6.815e-10
 37.06280    156.1 1.096e+04 6.952e-10
 37.10216    156.6 1.085e+04 6.912e-10
 37.14152    157.1 1.072e+04 6.742e-10
 37.17095    156.9 1.069e+04 6.814e-10
 37.19053    157.0 1.065e+04 6.696e-10
 37.21021    157.1 1.060e+04 6.548e-10
 37.22989    157.2 1.054e+04 6.333e-10
 37.24957    157.4 1.047e+04 6.122e-10
 37.26826    157.6 1.038e+04 5.815e-10
 37.27810    157.4 1.057e+04 6.677e-10
 37.28894    157.6 1.047e+04 6.330e-10
 37.30862    157.8 1.038e+04 5.976e-10
 37.32830    158.0 1.029e+04 5.690e-10
 37.34798    158.2 1.022e+04 5.543e-10
 37.36766    158.6 1.025e+04 5.630e-10
 37.38734    158.8 1.037e+04 5.965e-10
 37.41696    159.0 1.068e+04 7.234e-10
 37.45642    159.9 1.087e+04 8.352e-10
 37.49148    160.7 1.100e+04 9.223e-10
 37.51116    160.1 1.108e+04 9.708e-10
 37.53515    160.3 1.110e+04 9.781e-10
 37.57451    160.4 1.099e+04 9.374e-10
 37.60668    160.4 1.065e+04 8.021e-10
 37.62636    159.4 1.030e+04 6.708e-10
 37.65323    159.8 9.773e+03 4.982e-10
 37.69259    160.4 9.195e+03 3.505e-10
 37.73196    161.2 8.642e+03 2.445e-10
 37.77132    162.1 8.197e+03 1.795e-10
 37.81068    163.2 8.110e+03 1.608e-10
 37.85004    164.6 8.107e+03 1.607e-10
 37.88941    166.1 8.132e+03 1.638e-10
 37.92877    167.6 8.275e+03 1.808e-10
 37.95474    168.9 8.661e+03 2.268e-10
 37.97442    167.3 9.161e+03 3.010e-10
 38.00749    167.5 9.532e+03 3.784e-10
 38.03692    168.3 9.766e+03 4.319e-10
 38.05650    168.6 1.020e+04 5.655e-10
 38.07618    168.9 1.069e+04 7.694e-10
 38.09586    169.3 1.116e+04 1.018e-09
 38.11554    169.6 1.161e+04 1.279e-09
 38.12858    170.0 1.199e+04 1.514e-09
 38.13842    169.2 1.224e+04 1.710e-09
 38.15490    169.4 1.235e+04 1.727e-09
 38.17459    169.5 1.235e+04 1.719e-09
 38.19427    169.7 1.229e+04 1.668e-09
 38.21395    169.9 1.213e+04 1.554e-09
 38.23363    170.2 1.189e+04 1.397e-09
 38.25331    170.4 1.160e+04 1.226e-09
 38.27299    170.7 1.134e+04 1.075e-09
 38.29267    170.9 1.116e+04 9.951e-10
 38.31235    170.4 1.083e+04 7.851e-10
 38.33203    170.8 1.084e+04 7.898e-10
 38.34924    171.2 1.091e+04 8.193e-10
 38.35908    171.2 1.108e+04 9.485e-10
 38.37140    171.6 1.119e+04 1.019e-09
 38.39108    172.0 1.137e+04 1.138e-09
 38.41076    172.4 1.162e+04 1.307e-09
 38.43044    172.7 1.193e+04 1.530e-09
 38.45012    172.9 1.229e+04 1.810e-09
 38.46680    173.0 1.270e+04 2.143e-09
 38.47664    172.3 1.263e+04 1.825e-09
 38.48948    172.5 1.312e+04 2.322e-09
 38.50916    172.9 1.363e+04 2.885e-09
 38.52885    173.1 1.406e+04 3.360e-09
 38.54853    173.1 1.422e+04 3.464e-09
 38.56821    172.9 1.420e+04 3.428e-09
 38.58789    172.7 1.404e+04 3.214e-09
 38.60757    172.6 1.372e+04 2.819e-09
 38.62725    172.3 1.334e+04 2.412e-09
 38.64083    171.9 1.305e+04 2.151e-09
 38.65067    171.4 1.468e+04 3.081e-09
 38.66661    171.0 1.445e+04 3.038e-09
 38.68629    170.5 1.444e+04 3.053e-09
 38.70598    170.0 1.449e+04 3.144e-09
 38.72566    169.1 1.472e+04 3.346e-09
 38.74534    168.0 1.508e+04 3.616e-09
 38.76502    166.4 1.547e+04 3.902e-09
 38.77822    164.5 1.576e+04 4.145e-09
 38.78806    162.9 1.617e+04 4.444e-09
 38.80438    160.8 1.621e+04 4.642e-09
 38.81486    158.8 1.597e+04 4.809e-09
 38.82470    158.0 1.627e+04 6.651e-09
 38.84374    156.8 1.598e+04 6.466e-09
 38.86342    155.9 1.580e+04 6.305e-09
 38.88311    155.3 1.575e+04 6.191e-09
 38.90279    155.2 1.575e+04 6.070e-09
 38.92247    155.2 1.570e+04 5.872e-09
 38.94215    155.3 1.561e+04 5.551e-09
 38.96183    155.6 1.547e+04 5.134e-09
 38.97905    155.9 1.532e+04 4.724e-09
 38.98889    154.3 1.477e+04 2.527e-09
 39.00119    154.6 1.420e+04 2.307e-09
 39.02087    155.0 1.391e+04 2.241e-09
 39.04055    155.6 1.389e+04 2.248e-09
 39.06023    156.1 1.392e+04 2.329e-09
 39.07992    156.6 1.410e+04 2.571e-09
 39.09960    157.1 1.443e+04 2.968e-09
 39.11928    157.7 1.482e+04 3.474e-09
 39.13896    158.4 1.527e+04 3.943e-09
 39.15308    159.1 1.576e+04 4.041e-09
 39.16292    156.9 1.289e+04 1.583e-09
 39.17832    156.9 1.267e+04 1.361e-09
 39.19735    156.9 1.219e+04 1.065e-09
 39.20720    154.8 1.170e+04 9.784e-10
 39.21768    154.8 1.103e+04 7.655e-10
 39.23736    154.8 1.058e+04 6.302e-10
 39.25705    154.9 1.043e+04 5.638e-10
 39.27673    155.3 1.045e+04 5.576e-10
 39.29641    156.0 1.051e+04 5.589e-10
 39.31609    156.8 1.061e+04 5.643e-10
 39.32711    157.6 1.068e+04 5.739e-10
 39.33695    156.7 9.865e+03 3.966e-10
 39.35545    157.4 9.970e+03 4.298e-10
 39.37513    158.2 1.011e+04 4.722e-10
 39.39481    158.9 1.027e+04 5.190e-10
 39.41449    159.7 1.043e+04 5.661e-10
 39.43418    160.4 1.055e+04 6.051e-10
 39.45386    161.2 1.063e+04 6.313e-10
 39.47354    162.0 1.069e+04 6.472e-10
 39.49130    162.6 1.080e+04 6.726e-10
 39.50114    162.2 1.080e+04 7.445e-10
 39.51290    162.3 1.097e+04 8.369e-10
 39.53258    162.1 1.163e+04 1.079e-09
 39.55226    161.1 1.288e+04 1.652e-09
 39.57194    159.6 1.399e+04 2.613e-09
 39.59162    158.2 1.520e+04 4.542e-09
 39.61131    158.2 1.659e+04 8.768e-09
 39.62633    158.9 1.776e+04 1.542e-08
 39.63617    158.6 1.834e+04 1.846e-08
 39.65067    158.5 1.873e+04 1.878e-08
 39.66533    157.9 1.885e+04 1.760e-08
 39.67517    158.1 1.778e+04 1.181e-08
 39.69003    157.1 1.789e+04 9.895e-09
 39.70971    155.4 1.769e+04 7.311e-09
 39.72939    153.1 1.696e+04 5.276e-09
 39.74907    150.6 1.567e+04 4.024e-09
 39.76875    148.7 1.434e+04 3.315e-09
 39.78844    147.6 1.344e+04 2.817e-09
 39.80812    147.2 1.292e+04 2.355e-09
 39.82780    147.1 1.257e+04 1.942e-09
 39.83936    147.1 1.225e+04 1.563e-09
 39.84920    147.0 1.201e+04 1.344e-09
 39.86716    146.8 1.162e+04 1.115e-09
 39.89678    146.9 1.130e+04 9.570e-10
 39.93624    146.7 1.068e+04 7.289e-10
 39.97560    146.9 1.024e+04 6.059e-10
 40.00365    147.0 1.012e+04 5.804e-10
 40.01339    146.2 1.045e+04 6.940e-10
 40.02461    146.7 1.049e+04 7.202e-10
 40.04429    147.3 1.053e+04 7.499e-10
 40.05531    148.0 1.056e+04 7.754e-10
 40.06515    147.5 1.048e+04 6.988e-10
 40.08365    148.2 1.044e+04 7.088e-10
 40.10333    148.9 1.043e+04 7.035e-10
 40.12301    149.8 1.044e+04 7.014e-10
 40.14269    150.7 1.051e+04 7.097e-10
 40.16238    150.5 1.088e+04 7.731e-10
 40.17758    148.7 1.324e+04 1.067e-09
 40.18742    142.8 1.935e+04 2.811e-09
 40.19677    141.0 2.048e+04 4.090e-09
 40.20656    139.5 2.167e+04 5.665e-09
 40.21640    138.0 2.274e+04 8.293e-09
 40.22624    136.5 2.325e+04 1.276e-08
 40.23608    135.3 2.317e+04 1.919e-08
 40.24592    134.7 2.277e+04 2.624e-08
 40.25576    134.4 2.205e+04 3.246e-08
 40.26450    134.3 2.182e+04 3.289e-08
 40.26860    133.6 2.149e+04 3.969e-08
 40.26970    133.5 2.142e+04 4.308e-08
 40.27544    133.3 2.113e+04 3.482e-08
 40.28528    132.8 2.084e+04 2.622e-08
 40.30009    132.2 2.033e+04 1.861e-08
 40.31982    130.4 1.923e+04 9.849e-09
 40.33951    127.9 1.754e+04 4.676e-09
 40.35161    125.2 1.515e+04 2.355e-09
 40.36145    121.7 1.268e+04 1.291e-09
 40.37887    121.6 1.217e+04 1.175e-09
 40.40849    122.1 1.183e+04 1.076e-09
 40.44795    124.1 1.152e+04 9.272e-10
 40.47454    125.4 1.124e+04 8.122e-10
 40.48429    125.3 1.122e+04 8.082e-10
 40.49695    126.2 1.098e+04 7.071e-10
 40.51580    127.1 1.077e+04 6.349e-10
 40.52564    126.7 1.104e+04 7.697e-10
 40.53632    127.6 1.085e+04 7.108e-10
 40.55600    128.6 1.067e+04 6.522e-10
 40.57568    129.8 1.052e+04 5.989e-10
 40.59536    130.9 1.045e+04 5.688e-10
 40.61504    132.0 1.046e+04 5.683e-10
 40.63472    132.9 1.052e+04 5.747e-10
 40.65440    133.8 1.065e+04 6.005e-10
 40.67408    134.6 1.087e+04 6.653e-10
 40.68983    135.2 1.116e+04 7.838e-10
 40.69967    134.3 1.162e+04 1.093e-09
 40.71345    134.9 1.193e+04 1.335e-09
 40.73313    135.6 1.225e+04 1.631e-09
 40.75281    136.4 1.257e+04 1.973e-09
 40.77249    137.3 1.287e+04 2.322e-09
 40.79217    138.3 1.321e+04 2.642e-09
 40.81185    139.2 1.358e+04 2.942e-09
 40.83153    139.6 1.420e+04 3.234e-09
 40.85121    139.4 1.504e+04 3.536e-09
 40.86386    138.8 1.607e+04 3.921e-09
 40.87370    136.8 1.543e+04 3.188e-09
 40.89058    135.7 1.578e+04 3.555e-09
 40.90342    134.8 1.593e+04 4.049e-09
 40.91326    133.5 1.638e+04 6.006e-09
 40.92994    133.1 1.639e+04 6.768e-09
 40.94962    132.8 1.639e+04 6.818e-09
 40.96930    132.5 1.644e+04 6.756e-09
 40.98898    132.3 1.654e+04 6.696e-09
 41.00866    131.9 1.674e+04 6.665e-09
 41.02805    131.6 1.688e+04 6.657e-09
 41.03789    130.8 1.567e+04 3.991e-09
 41.04802    130.4 1.558e+04 4.064e-09
 41.06771    130.1 1.546e+04 4.053e-09
 41.08739    130.1 1.516e+04 3.964e-09
 41.10707    130.2 1.480e+04 3.768e-09
 41.12675    130.5 1.440e+04 3.457e-09
 41.14643    131.0 1.399e+04 3.062e-09
 41.16611    131.4 1.356e+04 2.636e-09
 41.18579    131.9 1.314e+04 2.236e-09
 41.20208    132.2 1.274e+04 1.893e-09
 41.21193    131.4 1.213e+04 1.510e-09
 41.22515    131.7 1.183e+04 1.329e-09
 41.24484    132.0 1.157e+04 1.176e-09
 41.26452    132.3 1.132e+04 1.044e-09
 41.28420    132.7 1.111e+04 9.336e-10
 41.30388    133.0 1.093e+04 8.431e-10
 41.32256    133.3 1.078e+04 7.695e-10
 41.33240    132.8 1.079e+04 7.625e-10
 41.34324    133.0 1.066e+04 7.056e-10
 41.36292    133.3 1.058e+04 6.797e-10
 41.37612    133.6 1.059e+04 6.800e-10
 41.38596    132.5 1.069e+04 6.969e-10
 41.40228    132.2 1.088e+04 7.503e-10
 41.42197    131.8 1.127e+04 8.855e-10
 41.44165    131.2 1.180e+04 1.121e-09
 41.46133    130.7 1.241e+04 1.465e-09
 41.48101    130.1 1.310e+04 1.924e-09
 41.50069    129.3 1.387e+04 2.508e-09
 41.52037    128.4 1.469e+04 3.264e-09
 41.54005    127.5 1.551e+04 4.194e-09
 41.55015    126.8 1.604e+04 4.958e-09
 41.55999    124.9 1.519e+04 4.193e-09
 41.57941    124.4 1.530e+04 4.315e-09
 41.59909    123.9 1.524e+04 4.192e-09
 41.61878    123.4 1.506e+04 3.768e-09
 41.63846    122.7 1.480e+04 3.097e-09
 41.65814    121.9 1.447e+04 2.361e-09
 41.67782    120.5 1.366e+04 1.530e-09
 41.69750    118.3 1.232e+04 9.765e-10
 41.71434    115.5 1.205e+04 9.372e-10
 41.72418    113.2 1.083e+04 6.742e-10
 41.73686    110.0 1.258e+04 1.153e-09
 41.75154    107.1 1.497e+04 2.231e-09
 41.76138    107.0 1.489e+04 2.385e-09
 41.77126    104.1 1.718e+04 3.937e-09
 41.78105    100.2 1.919e+04 7.335e-09
 41.79089     97.6 2.018e+04 1.555e-08
 41.80073     97.6 2.079e+04 3.492e-08
 41.80617     98.0 2.126e+04 7.205e-08
 41.81109     98.0 2.107e+04 7.022e-08
 41.82041     98.0 2.143e+04 1.078e-07
 41.83025     97.3 2.162e+04 1.127e-07
 41.84009     96.4 2.155e+04 1.028e-07
 41.84993     96.2 2.142e+04 6.882e-08
 41.85977     95.8 2.155e+04 3.367e-08
 41.87458     91.8 2.165e+04 1.040e-08
 41.88837     81.8 1.909e+04 3.179e-09
 41.89821     83.5 1.889e+04 3.204e-09
 41.91399     74.0 1.428e+04 2.364e-09
 41.93367     69.9 1.321e+04 2.129e-09
 41.95335     69.2 1.297e+04 2.048e-09
 41.97304     68.9 1.276e+04 1.916e-09
 41.99272     68.7 1.241e+04 1.598e-09
 42.01240     67.9 1.192e+04 1.181e-09
 42.03208     66.5 1.139e+04 8.324e-10
 42.05176     64.6 1.082e+04 6.630e-10
 42.06240     63.2 1.065e+04 6.536e-10
 42.07224     64.0 1.051e+04 5.850e-10
 42.09112     62.8 1.051e+04 5.931e-10
 42.11080     61.8 1.063e+04 6.511e-10
 42.13048     60.7 1.095e+04 7.881e-10
 42.15017     59.7 1.133e+04 9.869e-10
 42.16985     58.8 1.166e+04 1.213e-09
 42.18052     58.0 1.191e+04 1.390e-09
 42.19036     58.6 1.202e+04 1.466e-09
 42.20921     57.7 1.225e+04 1.539e-09
 42.22659     56.3 1.231e+04 1.533e-09
 42.23643     56.6 1.172e+04 1.198e-09
 42.24857     55.0 1.176e+04 1.197e-09
 42.26825     53.3 1.184e+04 1.207e-09
 42.28793     51.6 1.199e+04 1.269e-09
 42.30761     50.2 1.215e+04 1.415e-09
 42.32730     49.5 1.226e+04 1.593e-09
 42.34698     49.2 1.230e+04 1.678e-09
 42.36666     49.2 1.227e+04 1.658e-09
 42.38634     49.2 1.215e+04 1.517e-09
 42.40062     49.1 1.193e+04 1.302e-09
 42.41046     49.2 1.177e+04 1.274e-09
 42.42570     49.0 1.163e+04 1.108e-09
 42.44538     48.5 1.154e+04 9.870e-10
 42.46506     48.1 1.151e+04 9.573e-10
 42.48474     47.7 1.150e+04 9.689e-10
 42.50442     47.6 1.158e+04 1.028e-09
 42.52411     47.6 1.184e+04 1.134e-09
 42.54379     47.2 1.253e+04 1.307e-09
 42.56347     46.2 1.371e+04 1.652e-09
 42.57465     44.5 1.488e+04 2.222e-09
 42.58449     45.1 1.359e+04 1.336e-09
 42.59965     43.3 1.407e+04 1.731e-09
 42.60949     46.1 1.439e+04 1.938e-09
 42.62251     44.4 1.482e+04 2.389e-09
 42.64219     42.9 1.459e+04 2.849e-09
 42.66187     42.0 1.426e+04 3.221e-09
 42.68155     41.8 1.410e+04 3.386e-09
 42.70124     41.6 1.403e+04 3.326e-09
 42.72092     41.4 1.391e+04 2.987e-09
 42.73884     40.8 1.357e+04 2.358e-09
 42.74868     41.8 1.357e+04 2.338e-09
 42.76028     40.2 1.378e+04 2.325e-09
 42.77996     35.3 1.515e+04 2.852e-09
 42.79964     30.3 1.662e+04 4.969e-09
 42.81932     27.6 1.630e+04 5.914e-09
 42.83900     26.7 1.573e+04 5.393e-09
 42.85868     26.2 1.478e+04 3.630e-09
 42.87837     24.0 1.395e+04 1.827e-09
 42.89805     19.4 1.266e+04 8.223e-10
 42.91287     14.4 1.074e+04 4.666e-10
 42.92271     14.5 1.069e+04 4.590e-10
 42.93741     13.5 9.760e+03 3.730e-10
 42.95709     13.5 9.862e+03 3.420e-10
 42.97677     13.7 9.871e+03 3.297e-10
 43.00639     12.6 9.965e+03 3.407e-10
 43.04585     12.9 9.688e+03 3.163e-10
 43.07725     14.3 9.133e+03 2.435e-10
 43.09694     15.3 9.155e+03 2.367e-10
 43.12457     16.7 8.825e+03 1.735e-10
 43.16394     18.0 8.658e+03 1.112e-10
 43.20330     18.9 8.596e+03 7.870e-11
 43.24266     19.8 8.567e+03 7.778e-11
 43.28202     21.0 8.592e+03 8.666e-11
 43.32139     22.7 8.635e+03 1.053e-10
 43.36075     24.4 8.770e+03 1.342e-10
 43.40011     25.9 9.041e+03 1.769e-10
 43.42532     27.1 9.497e+03 2.635e-10
 43.44365     28.5 9.355e+03 2.091e-10
 43.45780     29.3 9.144e+03 1.683e-10
 43.47883     29.9 9.658e+03 3.028e-10
 43.51820     30.8 1.035e+04 5.769e-10
 43.55756     31.9 1.106e+04 9.584e-10
 43.59692     32.5 1.138e+04 1.087e-09
 43.63628     32.9 1.130e+04 1.000e-09
 43.67564     33.3 1.097e+04 7.872e-10
 43.71501     33.6 1.048e+04 5.787e-10
 43.75370     34.1 9.973e+03 4.160e-10
 43.77338     35.2 1.086e+04 7.357e-10
 43.79373     36.0 1.054e+04 6.104e-10
 43.83309     37.1 1.029e+04 5.073e-10
 43.87246     38.4 1.010e+04 4.274e-10
 43.91182     39.5 9.919e+03 3.856e-10
 43.95118     41.1 9.906e+03 3.950e-10
 43.99054     42.6 1.004e+04 4.485e-10
 44.01997     43.5 1.002e+04 4.650e-10
 44.03955     44.4 1.005e+04 4.847e-10
 44.05923     45.2 1.015e+04 5.106e-10
 44.07891     45.7 1.027e+04 5.352e-10
 44.09859     46.1 1.040e+04 5.640e-10
 44.11140     46.4 1.057e+04 6.120e-10
 44.12124     47.1 1.092e+04 7.049e-10
 44.13795     47.4 1.108e+04 7.660e-10
 44.15764     47.6 1.126e+04 8.409e-10
 44.17732     47.8 1.144e+04 9.249e-10
 44.19700     48.0 1.164e+04 1.019e-09
 44.21668     48.1 1.183e+04 1.136e-09
 44.23636     48.4 1.203e+04 1.231e-09
 44.25604     48.7 1.221e+04 1.259e-09
 44.27559     48.9 1.223e+04 1.226e-09
 44.28543     50.0 1.315e+04 1.783e-09
 44.29540     50.3 1.346e+04 1.743e-09
 44.30572     49.9 1.402e+04 1.792e-09
 44.31556     48.3 1.321e+04 1.421e-09
 44.33477     47.0 1.329e+04 1.448e-09
 44.35445     43.1 1.459e+04 2.085e-09
 44.36748     38.9 1.670e+04 3.316e-09
 44.37235     40.3 1.668e+04 3.227e-09
 44.37895     38.8 1.742e+04 4.250e-09
 44.38879     36.5 1.850e+04 5.936e-09
 44.39863     35.5 1.918e+04 7.012e-09
 44.41344     30.0 2.034e+04 1.283e-08
 44.42820     26.6 2.181e+04 1.907e-08
 44.43799     24.5 2.188e+04 2.430e-08
 44.44783     22.7 2.156e+04 2.767e-08
 44.45445     21.2 2.127e+04 2.920e-08
 44.45937     20.7 2.142e+04 3.074e-08
 44.46752     19.2 2.111e+04 3.325e-08
 44.47736     17.6 2.110e+04 3.323e-08
 44.48720     16.1 2.121e+04 3.052e-08
 44.49704     14.6 2.134e+04 2.506e-08
 44.50688     13.1 2.160e+04 1.906e-08
 44.51519     11.9 2.150e+04 1.371e-08
 44.52011     13.1 2.146e+04 1.843e-08
 44.52656     12.0 2.121e+04 1.373e-08
 44.53640     11.0 2.079e+04 9.839e-09
 44.55121      8.6 1.976e+04 6.461e-09
 44.57094      6.4 1.776e+04 3.056e-09
 44.59062      4.8 1.516e+04 1.553e-09
 44.61030      3.8 1.246e+04 1.001e-09
 44.62365      4.2 1.109e+04 7.153e-10
 44.63349      5.5 1.294e+04 9.623e-10
 44.65960      5.2 1.133e+04 5.274e-10
 44.69906      5.4 9.931e+03 2.990e-10
 44.73842      6.3 9.374e+03 2.235e-10
 44.77779      7.8 9.130e+03 2.014e-10
 44.79788      9.6 9.097e+03 1.974e-10
 44.81756      9.0 9.129e+03 2.048e-10
 44.85651     10.9 9.057e+03 2.081e-10
 44.89587     12.8 9.048e+03 2.079e-10
 44.93523     14.6 9.023e+03 2.030e-10
 44.97460     16.5 8.927e+03 1.889e-10
 45.01396     18.2 8.819e+03 1.689e-10
 45.05332     19.8 8.723e+03 1.499e-10
 45.09268     21.5 8.588e+03 1.318e-10
 45.12626     23.4 8.406e+03 1.102e-10
 45.14594     22.8 8.491e+03 1.195e-10
 45.15403     24.6 8.374e+03 1.056e-10
 45.17371     25.7 8.338e+03 1.086e-10
 45.21077     27.7 8.230e+03 9.128e-11
 45.25013     29.3 8.201e+03 7.679e-11
 45.28949     30.7 8.194e+03 7.672e-11
 45.32886     32.2 8.208e+03 8.482e-11
 45.36822     33.9 8.260e+03 1.016e-10
 45.40758     35.8 8.342e+03 1.188e-10
 45.44694     38.0 8.409e+03 1.307e-10
 45.47432     40.1 8.459e+03 1.287e-10
 45.49400     40.0 8.518e+03 1.307e-10
 45.52567     41.9 8.478e+03 1.085e-10
 45.56503     43.7 8.387e+03 8.895e-11
 45.60439     45.7 8.270e+03 7.428e-11
 45.64375     47.7 8.169e+03 6.357e-11
 45.68312     49.7 8.108e+03 5.599e-11
 45.72248     51.8 8.081e+03 5.061e-11
 45.76184     54.0 8.065e+03 4.704e-11
 45.80120     56.1 8.066e+03 4.523e-11
 45.82238     58.3 8.076e+03 4.516e-11
 45.84206     57.9 8.087e+03 4.362e-11
 45.87993     60.0 8.128e+03 4.497e-11
 45.91929     61.9 8.194e+03 4.943e-11
 45.95865     63.8 8.278e+03 5.919e-11
 45.99231     65.8 8.377e+03 7.364e-11
 46.01199     67.0 8.416e+03 8.025e-11
 46.03738     69.1 8.528e+03 9.785e-11
 46.07674     71.2 8.635e+03 1.148e-10
 46.11610     73.1 8.692e+03 1.273e-10
 46.15076     75.0 8.706e+03 1.350e-10
 46.17044     75.0 8.607e+03 1.201e-10
 46.19482     76.6 8.548e+03 1.135e-10
 46.23419     78.2 8.469e+03 1.068e-10
 46.27355     79.7 8.418e+03 1.024e-10
 46.31291     81.3 8.424e+03 1.020e-10
 46.35227     82.7 8.441e+03 1.041e-10
 46.39163     84.1 8.492e+03 1.138e-10
 46.43100     85.4 8.567e+03 1.309e-10
 46.47036     86.7 8.656e+03 1.506e-10
 46.49882     87.9 8.738e+03 1.686e-10
 46.51851     88.3 8.661e+03 1.648e-10
 46.54908     89.5 8.704e+03 1.745e-10
 46.58845     90.7 8.716e+03 1.750e-10
 46.62781     91.7 8.705e+03 1.711e-10
 46.66717     92.7 8.653e+03 1.606e-10
 46.70653     93.8 8.614e+03 1.522e-10
 46.74589     95.0 8.624e+03 1.519e-10
 46.78526     96.4 8.674e+03 1.567e-10
 46.82462     97.8 8.824e+03 1.786e-10
 46.84689     99.3 9.155e+03 2.407e-10
 46.85285     99.5 9.061e+03 2.227e-10
 46.86994    100.5 9.019e+03 2.160e-10
 46.90334    102.3 9.484e+03 3.171e-10
 46.94271    104.1 1.003e+04 4.783e-10
 46.98207    106.1 1.053e+04 6.811e-10
 47.02143    108.1 1.089e+04 8.408e-10
 47.06079    110.1 1.114e+04 9.168e-10
 47.10015    112.1 1.116e+04 8.919e-10
 47.12958    113.2 1.099e+04 7.926e-10
 47.14916    114.1 1.080e+04 7.032e-10
 47.16884    115.1 1.054e+04 6.023e-10
 47.18491    116.0 1.030e+04 5.187e-10
 47.19475    116.0 1.010e+04 4.394e-10
 47.20820    117.4 9.877e+03 3.728e-10
 47.22789    118.1 9.720e+03 3.358e-10
 47.25750    120.6 9.675e+03 3.186e-10
 47.29696    123.3 9.536e+03 2.953e-10
 47.33633    126.2 9.528e+03 2.948e-10
 47.37569    129.2 9.563e+03 3.010e-10
 47.41505    132.4 9.678e+03 3.193e-10
 47.45441    135.6 9.841e+03 3.382e-10
 47.49378    138.7 1.001e+04 3.425e-10
 47.52333    141.6 1.008e+04 3.351e-10
 47.54301    144.8 1.037e+04 3.548e-10
 47.57250    147.8 1.076e+04 3.473e-10
 47.61186    149.0 1.111e+04 3.203e-10
 47.65122    149.0 1.126e+04 2.908e-10
 47.68065    148.7 1.093e+04 2.881e-10
 47.69716    147.2 1.086e+04 2.914e-10
 47.70495    148.5 1.094e+04 2.823e-10
 47.70802    151.2 1.095e+04 2.831e-10
 47.71991    149.2 1.101e+04 3.010e-10
 47.73959    145.6 1.140e+04 3.747e-10
 47.75927    140.2 1.277e+04 6.036e-10
 47.77896    133.9 1.432e+04 1.076e-09
 47.79864    128.0 1.527e+04 1.792e-09
 47.81832    123.4 1.550e+04 2.497e-09
 47.83800    118.0 1.631e+04 3.114e-09
 47.85271    111.2 1.860e+04 3.536e-09
 47.86250    109.1 1.891e+04 3.675e-09
 47.87110    105.0 2.024e+04 4.162e-09
 47.87602    100.1 2.209e+04 5.952e-09
 47.88218     95.2 2.271e+04 7.448e-09
 47.89202     90.8 2.209e+04 8.294e-09
 47.90186     87.4 2.135e+04 8.110e-09
 47.91171     84.2 2.194e+04 7.949e-09
 47.91749     71.9 3.815e+04 8.602e-09
 47.92241     57.6 4.993e+04 1.850e-08
 47.93139     38.9 3.957e+04 1.108e-07
 47.94123     26.9 2.789e+04 3.306e-07
 47.95107     20.6 2.605e+04 2.808e-07
 47.95811     17.6 2.642e+04 1.684e-07
 47.96303     10.6 3.660e+04 3.455e-08
 47.97075      6.9 4.990e+04 6.869e-09
 47.98059      2.4 5.729e+04 2.200e-09
 47.99043     -4.3 5.642e+04 1.334e-09
 48.00027    -10.5 5.000e+04 8.532e-10
 48.01508    -10.1 4.492e+04 9.984e-10
 48.03481    -23.5 1.738e+04 1.122e-09
 48.04522    -24.3 1.361e+04 1.359e-09
 48.05506    -27.0 1.393e+04 1.540e-09
 48.07417    -26.5 1.440e+04 1.872e-09
 48.09385    -26.1 1.474e+04 2.242e-09
 48.11353    -25.7 1.489e+04 2.614e-09
 48.12716    -25.0 1.505e+04 2.999e-09
 48.13700    -24.3 1.509e+04 3.340e-09
 48.15290    -23.2 1.513e+04 3.571e-09
 48.17258    -21.8 1.509e+04 3.601e-09
 48.19226    -20.2 1.490e+04 3.555e-09
 48.20941    -18.1 1.447e+04 3.166e-09
 48.21925    -19.0 1.419e+04 2.782e-09
 48.23162    -17.0 1.371e+04 2.215e-09
 48.25130    -15.3 1.327e+04 1.716e-09
 48.27098    -13.9 1.274e+04 1.281e-09
 48.29066    -12.5 1.216e+04 1.005e-09
 48.31035    -11.0 1.161e+04 8.053e-10
 48.33003     -9.2 1.120e+04 6.570e-10
 48.34971     -7.2 1.095e+04 5.683e-10
 48.36939     -5.1 1.084e+04 5.307e-10
 48.38344     -2.8 1.082e+04 5.165e-10
 48.39328     -3.6 1.092e+04 5.178e-10
 48.40875     -1.5 1.098e+04 5.088e-10
 48.42843      0.4 1.110e+04 5.136e-10
 48.44811      1.9 1.133e+04 5.443e-10
 48.46779      3.3 1.165e+04 6.169e-10
 48.48747      4.5 1.205e+04 7.454e-10
 48.50716      5.8 1.246e+04 9.375e-10
 48.52684      7.3 1.296e+04 1.202e-09
 48.54630      8.8 1.358e+04 1.547e-09
 48.55614     10.6 1.304e+04 1.402e-09
 48.55747     12.2 1.353e+04 1.689e-09
 48.56732     11.5 1.384e+04 1.838e-09
 48.58588     13.0 1.439e+04 2.032e-09
 48.60556     14.0 1.500e+04 2.229e-09
 48.62524     14.8 1.561e+04 2.423e-09
 48.64492     15.3 1.614e+04 2.598e-09
 48.66460     15.8 1.654e+04 2.767e-09
 48.68429     16.3 1.666e+04 2.921e-09
 48.70397     16.3 1.609e+04 3.163e-09
 48.72166     16.3 1.549e+04 3.526e-09
 48.73151     16.5 1.527e+04 3.309e-09
 48.74333     16.6 1.501e+04 3.716e-09
 48.76301     17.0 1.499e+04 3.922e-09
 48.78269     17.7 1.502e+04 3.888e-09
 48.80237     18.2 1.501e+04 3.619e-09
 48.82205     18.5 1.481e+04 3.093e-09
 48.84173     18.3 1.455e+04 2.470e-09
 48.86142     17.6 1.422e+04 1.859e-09
 48.88110     16.2 1.364e+04 1.338e-09
 48.89570     14.9 1.270e+04 1.005e-09
 48.90554     16.3 1.358e+04 1.436e-09
 48.92046     15.6 1.279e+04 1.135e-09
 48.94014     15.1 1.196e+04 9.639e-10
 48.95982     14.7 1.140e+04 8.676e-10
 48.97527     14.1 1.129e+04 8.695e-10
 48.98511     15.8 1.288e+04 1.107e-09
 48.99918     14.5 1.266e+04 1.163e-09
 49.01886     12.8 1.263e+04 1.350e-09
 49.03855     10.0 1.349e+04 1.861e-09
 49.05823      6.5 1.471e+04 2.719e-09
 49.06973      4.0 1.495e+04 3.343e-09
 49.07957      5.8 1.505e+04 3.406e-09
 49.09759      2.6 1.503e+04 3.502e-09
 49.11727     -2.2 1.537e+04 3.537e-09
 49.13695     -8.1 1.534e+04 3.289e-09
 49.15663    -14.3 1.467e+04 2.817e-09
 49.17631    -18.9 1.356e+04 2.353e-09
 49.19599    -21.3 1.295e+04 1.967e-09
 49.21568    -23.1 1.253e+04 1.594e-09
 49.23392    -25.1 1.186e+04 1.233e-09
 49.24376    -25.3 1.174e+04 1.169e-09
 49.25504    -26.8 1.108e+04 9.703e-10
 49.27472    -27.1 1.091e+04 9.071e-10
 49.29440    -27.0 1.085e+04 8.847e-10
 49.31408    -26.6 1.082e+04 8.914e-10
 49.33376    -25.8 1.087e+04 9.289e-10
 49.35344    -24.9 1.096e+04 9.811e-10
 49.37312    -23.7 1.109e+04 1.034e-09
 49.39280    -22.4 1.118e+04 1.080e-09
 49.40425    -21.1 1.123e+04 1.108e-09
 49.40955    -22.0 1.215e+04 1.646e-09
 49.41779    -21.7 1.204e+04 1.607e-09
 49.43217    -20.7 1.236e+04 1.719e-09
 49.45185    -20.5 1.313e+04 2.040e-09
 49.47153    -20.9 1.417e+04 2.624e-09
 49.49121    -21.3 1.500e+04 3.623e-09
 49.51089    -21.2 1.552e+04 5.181e-09
 49.53057    -20.4 1.596e+04 6.909e-09
 49.55025    -19.0 1.670e+04 8.725e-09
 49.56993    -18.0 1.723e+04 9.264e-09
 49.58198    -17.3 1.722e+04 9.197e-09
 49.59182    -16.7 1.680e+04 8.323e-09
 49.60930    -16.1 1.691e+04 7.607e-09
 49.62898    -15.9 1.656e+04 5.784e-09
 49.64866    -16.4 1.575e+04 3.722e-09
 49.66834    -17.5 1.402e+04 2.247e-09
 49.68802    -18.2 1.234e+04 1.486e-09
 49.70770    -18.6 1.151e+04 1.103e-09
 49.73732    -18.6 1.118e+04 9.102e-10
 49.77678    -17.5 1.020e+04 5.730e-10
 49.81614    -16.2 9.513e+03 3.932e-10
 49.85551    -14.2 9.100e+03 3.159e-10
 49.89487    -11.7 8.854e+03 2.715e-10
 49.92039     -9.2 8.693e+03 2.257e-10
 49.94007     -9.2 8.730e+03 2.267e-10
 49.97359     -7.2 8.761e+03 2.066e-10
 50.01295     -5.6 8.947e+03 2.291e-10
 50.05232     -4.2 9.366e+03 3.107e-10
 50.09168     -2.3 9.804e+03 4.495e-10
 50.13104     -0.0 1.005e+04 5.368e-10
 50.17040      2.2 1.001e+04 5.051e-10
 50.20977      4.1 9.848e+03 4.144e-10
 50.24272      5.4 9.675e+03 3.320e-10
 50.26205      4.9 8.967e+03 2.327e-10
 50.26845      3.9 8.988e+03 2.250e-10
 50.28849      5.5 8.913e+03 2.161e-10
 50.32785      7.2 8.980e+03 2.202e-10
 50.36721      9.0 9.156e+03 2.395e-10
 50.40658     10.6 9.418e+03 2.838e-10
 50.44594     12.2 9.740e+03 3.557e-10
 50.48530     13.9 9.994e+03 4.592e-10
 50.52466     15.8 1.015e+04 5.330e-10
 50.56402     17.4 1.020e+04 5.405e-10
 50.59683     18.7 1.022e+04 5.260e-10
 50.61652     18.1 9.831e+03 4.145e-10
 50.64275     19.2 9.948e+03 4.306e-10
 50.68211     20.0 1.011e+04 4.554e-10
 50.72147     20.8 1.007e+04 4.401e-10
 50.76084     21.8 9.937e+03 3.909e-10
 50.80020     23.0 9.768e+03 3.327e-10
 50.83956     24.2 9.525e+03 2.729e-10
 50.87892     25.3 9.324e+03 2.390e-10
 50.91828     26.7 9.312e+03 2.355e-10
 50.94490     28.2 9.434e+03 2.496e-10
 50.96458     27.9 9.121e+03 1.907e-10
 50.99701     29.1 9.503e+03 2.463e-10
 51.03637     28.9 9.708e+03 3.034e-10
 51.06579     29.4 9.850e+03 4.030e-10
 51.08538     29.3 1.029e+04 5.514e-10
 51.10048     28.9 1.108e+04 8.017e-10
 51.11032     29.4 1.161e+04 1.041e-09
 51.11873     27.4 1.314e+04 1.817e-09
 51.12857     27.1 1.281e+04 1.713e-09
 51.14442     25.6 1.391e+04 2.852e-09
 51.16410     25.3 1.459e+04 4.211e-09
 51.18378     25.4 1.465e+04 4.561e-09
 51.20346     25.7 1.445e+04 4.298e-09
 51.22315     25.9 1.401e+04 3.431e-09
 51.24283     25.6 1.339e+04 2.348e-09
 51.26251     24.5 1.269e+04 1.564e-09
 51.28219     23.1 1.194e+04 1.070e-09
 51.29276     22.1 1.130e+04 8.093e-10
 51.30260     22.3 1.117e+04 7.775e-10
 51.32155     22.2 1.093e+04 6.891e-10
 51.34123     22.2 1.081e+04 6.581e-10
 51.36091     22.6 1.084e+04 6.673e-10
 51.38059     22.7 1.100e+04 7.215e-10
 51.40028     22.8 1.122e+04 8.354e-10
 51.41996     23.2 1.147e+04 1.005e-09
 51.43964     23.7 1.174e+04 1.209e-09
 51.45695     24.3 1.200e+04 1.396e-09
 51.46679     24.4 1.203e+04 1.410e-09
 51.47900     24.7 1.228e+04 1.563e-09
 51.49868     24.6 1.253e+04 1.703e-09
 51.51836     24.4 1.276e+04 1.873e-09
 51.52946     24.0 1.303e+04 2.104e-09
 51.53930     24.0 1.274e+04 1.827e-09
 51.55772     23.6 1.283e+04 2.020e-09
 51.57741     23.7 1.289e+04 2.180e-09
 51.59709     23.8 1.283e+04 2.164e-09
 51.61677     24.1 1.269e+04 2.046e-09
 51.63098     24.0 1.258e+04 1.865e-09
 51.64082     23.8 1.230e+04 1.618e-09
 51.65613     23.2 1.229e+04 1.556e-09
 51.67581     22.7 1.230e+04 1.577e-09
 51.69549     22.0 1.234e+04 1.667e-09
 51.71517     20.8 1.276e+04 1.850e-09
 51.73485     19.4 1.349e+04 2.292e-09
 51.75454     17.2 1.470e+04 3.237e-09
 51.77422     14.2 1.620e+04 5.076e-09
 51.79390     11.6 1.708e+04 7.729e-09
 51.80496      9.6 1.765e+04 9.637e-09
 51.81480      9.3 1.796e+04 1.009e-08
 51.83326      7.1 1.822e+04 1.135e-08
 51.85294      5.6 1.789e+04 1.082e-08
 51.87262      4.6 1.693e+04 8.318e-09
 51.89230      3.6 1.595e+04 5.740e-09
 51.91198      3.0 1.508e+04 3.836e-09
 51.93166      2.4 1.422e+04 2.554e-09
 51.94860      1.9 1.326e+04 1.750e-09
 51.95844      2.9 1.393e+04 2.612e-09
 51.96920      2.9 1.298e+04 1.649e-09
 51.97904      2.8 1.272e+04 1.543e-09
 51.99071      3.0 1.199e+04 1.082e-09
 52.01039      4.2 1.120e+04 7.203e-10
 52.03007      4.5 1.094e+04 5.616e-10
 52.04975      6.0 1.021e+04 3.559e-10
 52.06943      6.2 1.036e+04 3.191e-10
 52.09905      8.0 1.010e+04 2.459e-10
 52.13851      9.5 9.659e+03 1.793e-10
 52.17787     11.5 9.415e+03 1.689e-10
 52.21724     14.0 9.411e+03 1.790e-10
 52.25660     16.4 9.492e+03 2.095e-10
 52.29596     18.7 9.647e+03 2.540e-10
 52.31746     20.8 9.963e+03 3.332e-10
 52.33714     21.1 1.028e+04 4.251e-10
 52.37468     23.1 1.063e+04 5.614e-10
 52.41405     24.9 1.098e+04 7.289e-10
 52.45341     26.9 1.132e+04 9.235e-10
 52.49277     28.7 1.148e+04 1.011e-09
 52.53213     30.2 1.141e+04 9.638e-10
 52.57150     31.8 1.113e+04 8.008e-10
 52.61086     33.5 1.069e+04 5.907e-10
 52.64584     35.1 1.027e+04 4.478e-10
 52.66552     35.7 1.055e+04 5.827e-10
 52.67964     36.6 1.025e+04 4.759e-10
 52.69923     37.4 1.005e+04 4.343e-10
 52.71891     38.3 1.001e+04 4.340e-10
 52.73859     39.3 1.003e+04 4.498e-10
 52.75827     40.2 1.007e+04 4.808e-10
 52.77795     41.2 1.014e+04 5.202e-10
 52.79671     42.3 1.024e+04 5.673e-10
 52.80655     43.0 1.039e+04 6.233e-10
 52.81731     43.9 1.049e+04 6.695e-10
 52.82952     44.8 1.059e+04 7.127e-10
 52.83936     44.9 1.047e+04 6.503e-10
 52.85668     45.7 1.055e+04 6.828e-10
 52.87636     46.3 1.064e+04 7.177e-10
 52.89604     46.9 1.075e+04 7.646e-10
 52.91572     47.4 1.089e+04 8.320e-10
 52.93540     47.9 1.106e+04 9.228e-10
 52.95508     48.4 1.126e+04 1.038e-09
 52.97476     48.9 1.146e+04 1.163e-09
 52.99371     49.4 1.164e+04 1.270e-09
 53.00355     49.5 1.132e+04 1.055e-09
 53.01412     49.9 1.148e+04 1.124e-09
 53.03381     50.2 1.162e+04 1.185e-09
 53.05349     50.4 1.173e+04 1.236e-09
 53.07317     50.7 1.180e+04 1.278e-09
 53.09285     51.1 1.178e+04 1.291e-09
 53.11253     51.7 1.170e+04 1.254e-09
 53.13221     52.5 1.149e+04 1.155e-09
 53.15189     53.6 1.120e+04 9.979e-10
 53.16774     54.9 1.089e+04 8.177e-10
 53.17758     54.8 1.067e+04 7.347e-10
 53.19125     55.3 1.042e+04 5.638e-10
 53.21094     55.4 1.018e+04 4.364e-10
 53.22569     55.3 1.002e+04 3.506e-10
 53.23553     57.2 1.022e+04 4.403e-10
 53.25030     57.1 1.004e+04 3.664e-10
 53.26998     57.2 9.916e+03 3.371e-10
 53.28966     57.3 9.870e+03 3.321e-10
 53.30934     57.4 9.879e+03 3.388e-10
 53.32902     57.3 1.000e+04 3.859e-10
 53.34177     57.0 1.026e+04 4.879e-10
 53.35161     56.7 1.032e+04 5.146e-10
 53.36838     56.4 1.064e+04 6.682e-10
 53.38807     55.5 1.132e+04 9.090e-10
 53.40775     52.5 1.336e+04 1.581e-09
 53.42246     48.8 1.485e+04 2.422e-09
 53.42868     48.1 1.495e+04 2.609e-09
 53.43361     48.7 1.497e+04 2.601e-09
 53.44008     46.6 1.553e+04 3.294e-09
 53.44500     47.0 1.566e+04 3.438e-09
 53.45193     45.1 1.603e+04 4.212e-09
 53.46177     43.3 1.671e+04 5.210e-09
 53.47161     40.3 1.894e+04 7.277e-09
 53.48145     35.7 2.328e+04 1.267e-08
 53.49129     31.0 2.603e+04 2.282e-08
 53.50113     27.0 2.656e+04 3.618e-08
 53.51078     23.9 2.585e+04 4.923e-08
 53.51570     26.2 2.627e+04 3.242e-08
 53.52081     23.2 2.509e+04 4.139e-08
 53.53066     21.2 2.360e+04 4.871e-08
 53.54050     20.0 2.255e+04 5.463e-08
 53.55034     19.2 2.224e+04 5.871e-08
 53.56018     19.0 2.254e+04 6.088e-08
 53.57002     18.6 2.314e+04 6.267e-08
 53.57986     17.8 2.387e+04 6.176e-08
 53.58970     16.8 2.416e+04 5.491e-08
 53.59780     15.7 2.408e+04 4.452e-08
 53.60272     16.3 2.408e+04 5.096e-08
 53.60938     14.9 2.394e+04 4.231e-08
 53.61922     13.5 2.343e+04 3.381e-08
 53.62906     12.1 2.278e+04 2.585e-08
 53.63890     11.1 2.220e+04 1.941e-08
 53.64874      9.8 2.173e+04 1.430e-08
 53.65457      8.6 2.147e+04 1.052e-08
 53.66446      3.4 1.801e+04 5.472e-09
 53.67999     -1.0 1.630e+04 4.450e-09
 53.68983      0.1 1.979e+04 8.030e-09
 53.70296     -6.7 2.197e+04 8.483e-09
 53.72264    -13.0 2.269e+04 1.022e-08
 53.74232    -16.9 2.079e+04 1.243e-08
 53.76201    -19.0 1.933e+04 1.293e-08
 53.78169    -20.5 1.847e+04 1.120e-08
 53.80137    -23.1 1.796e+04 5.900e-09
 53.82105    -29.8 1.423e+04 2.529e-09
 53.84073    -31.7 1.298e+04 1.805e-09
 53.85402    -32.8 1.236e+04 1.399e-09
 53.86386    -32.6 1.187e+04 1.218e-09
 53.88009    -33.3 1.148e+04 1.059e-09
 53.89977    -33.7 1.128e+04 9.886e-10
 53.91945    -33.9 1.117e+04 9.574e-10
 53.93914    -34.1 1.108e+04 9.393e-10
 53.95882    -34.2 1.102e+04 9.316e-10
 53.97850    -34.4 1.099e+04 9.244e-10
 53.99818    -34.8 1.107e+04 9.493e-10
 54.01786    -35.5 1.124e+04 1.012e-09
 54.02805    -36.3 1.147e+04 1.138e-09
 54.03789    -36.1 1.124e+04 1.029e-09
 54.05722    -36.8 1.143e+04 1.196e-09
 54.07380    -37.0 1.161e+04 1.393e-09
 54.08364    -37.6 1.177e+04 1.509e-09
 54.09658    -37.5 1.179e+04 1.561e-09
 54.11627    -37.4 1.176e+04 1.564e-09
 54.13595    -37.2 1.160e+04 1.436e-09
 54.15563    -37.1 1.137e+04 1.208e-09
 54.17531    -37.3 1.118e+04 9.638e-10
 54.19224    -37.8 1.102e+04 7.385e-10
 54.20208    -37.1 1.092e+04 7.139e-10
 54.21467    -37.8 1.066e+04 5.342e-10
 54.23435    -38.7 1.028e+04 4.252e-10
 54.25403    -39.0 9.969e+03 3.928e-10
 54.27371    -39.2 9.858e+03 3.784e-10
 54.29340    -39.3 9.504e+03 3.462e-10
 54.31308    -39.1 9.497e+03 3.464e-10
 54.33276    -38.4 9.442e+03 3.567e-10
 54.35244    -38.2 9.577e+03 3.776e-10
 54.36627    -37.6 9.819e+03 4.211e-10
 54.38605    -35.8 9.747e+03 4.147e-10
 54.41158    -35.9 9.766e+03 4.136e-10
 54.43116    -35.7 1.023e+04 5.156e-10
 54.45084    -35.4 1.070e+04 6.519e-10
 54.47052    -35.4 1.124e+04 8.620e-10
 54.49021    -35.0 1.158e+04 1.141e-09
 54.50278    -34.5 1.177e+04 1.354e-09
 54.51262    -34.8 1.120e+04 1.001e-09
 54.52957    -33.9 1.127e+04 1.119e-09
 54.54030    -33.1 1.127e+04 1.122e-09
 54.55014    -32.2 1.099e+04 8.836e-10
 54.57887    -32.0 1.114e+04 9.449e-10
 54.61833    -30.8 1.118e+04 8.646e-10
 54.65769    -29.8 1.127e+04 7.657e-10
 54.69485    -29.4 1.091e+04 5.991e-10
 54.71453    -26.0 1.155e+04 9.364e-10
 54.73641    -25.5 1.117e+04 7.680e-10
 54.77578    -24.1 1.067e+04 6.049e-10
 54.81514    -22.3 1.040e+04 4.353e-10
 54.85450    -21.1 1.042e+04 2.931e-10
 54.89386    -20.8 1.048e+04 2.669e-10
 54.93323    -20.6 1.052e+04 3.467e-10
 54.96265    -19.2 1.078e+04 5.002e-10
 54.98223    -18.8 1.079e+04 5.237e-10
 55.00191    -17.6 1.118e+04 7.340e-10
 55.02160    -17.4 1.140e+04 8.665e-10
 55.04128    -17.2 1.192e+04 1.082e-09
 55.05255    -17.4 1.266e+04 1.388e-09
 55.06239    -15.8 1.205e+04 1.179e-09
 55.08064    -16.1 1.255e+04 1.462e-09
 55.10032    -15.9 1.305e+04 1.804e-09
 55.12000    -15.3 1.322e+04 2.032e-09
 55.13968    -14.6 1.321e+04 2.084e-09
 55.15936    -13.9 1.291e+04 1.886e-09
 55.17904    -13.5 1.253e+04 1.518e-09
 55.19873    -13.4 1.215e+04 1.155e-09
 55.21674    -13.8 1.203e+04 9.506e-10
 55.22658    -11.9 1.197e+04 9.896e-10
 55.23809    -12.5 1.180e+04 8.047e-10
 55.25777    -13.2 1.231e+04 7.598e-10
 55.27745    -14.3 1.308e+04 8.471e-10
 55.29713    -15.2 1.337e+04 1.055e-09
 55.31681    -15.9 1.315e+04 1.308e-09
 55.33649    -15.6 1.291e+04 1.592e-09
 55.35089    -14.7 1.277e+04 1.790e-09
 55.36074    -15.0 1.271e+04 1.863e-09
 55.37585    -14.1 1.280e+04 1.652e-09
 55.39087    -15.3 1.225e+04 1.091e-09
 55.41065    -14.1 1.253e+04 1.453e-09
 55.44493    -13.8 1.244e+04 1.166e-09
 55.48430    -14.4 1.237e+04 8.321e-10
 55.52366    -17.0 1.211e+04 6.771e-10
 55.56302    -19.3 1.167e+04 8.517e-10
 55.60238    -20.5 1.167e+04 1.104e-09
 55.64174    -21.7 1.165e+04 1.118e-09
 55.68111    -24.0 1.125e+04 7.996e-10
 55.71935    -27.8 1.075e+04 5.499e-10
 55.73903    -27.5 1.028e+04 4.046e-10
 55.75983    -31.0 9.981e+03 3.610e-10
 55.79919    -32.8 9.930e+03 4.251e-10
 55.83856    -33.9 1.015e+04 5.030e-10
 55.87792    -35.4 1.033e+04 5.376e-10
 55.91728    -37.1 1.058e+04 6.226e-10
 55.95664    -38.1 1.080e+04 7.604e-10
 55.99600    -38.4 1.086e+04 8.266e-10
 56.03537    -38.4 1.061e+04 7.540e-10
 56.06741    -38.1 9.979e+03 4.717e-10
 56.08709    -37.6 1.018e+04 5.040e-10
 56.11409    -38.0 9.330e+03 2.482e-10
 56.15345    -38.4 8.858e+03 1.469e-10
 56.18936    -38.6 8.714e+03 1.229e-10
 56.20905    -38.0 8.888e+03 1.489e-10
 56.23218    -37.9 8.934e+03 1.521e-10
 56.27154    -38.9 9.479e+03 2.396e-10
 56.31090    -39.9 1.021e+04 4.326e-10
 56.34033    -40.5 1.073e+04 6.006e-10
 56.35991    -41.1 1.103e+04 7.101e-10
 56.37959    -41.9 1.137e+04 9.505e-10
 56.39927    -42.0 1.153e+04 1.103e-09
 56.41528    -42.0 1.156e+04 1.151e-09
 56.42512    -41.9 1.138e+04 1.105e-09
 56.43863    -41.6 1.112e+04 1.007e-09
 56.45831    -41.5 1.073e+04 7.916e-10
 56.47800    -41.4 1.032e+04 5.747e-10
 56.50761    -42.2 9.788e+03 3.427e-10
 56.54707    -43.0 9.350e+03 2.501e-10
 56.58644    -42.9 8.937e+03 1.946e-10
 56.62580    -42.5 8.736e+03 1.674e-10
 56.66516    -42.4 8.725e+03 1.645e-10
 56.70452    -42.9 9.081e+03 2.248e-10
 56.74385    -43.5 9.628e+03 4.012e-10
 56.78321    -42.5 1.043e+04 6.413e-10
 56.82261    -42.7 1.110e+04 1.061e-09
 56.85203    -43.2 1.143e+04 1.363e-09
 56.87162    -43.0 1.151e+04 1.425e-09
 56.89130    -43.3 1.150e+04 1.433e-09
 56.91098    -43.4 1.133e+04 1.348e-09
 56.92753    -43.5 1.113e+04 1.220e-09
 56.93737    -43.0 1.162e+04 1.551e-09
 56.95034    -43.3 1.147e+04 1.401e-09
 56.97002    -43.7 1.128e+04 1.268e-09
 56.98970    -44.1 1.109e+04 1.160e-09
 57.00939    -44.4 1.095e+04 1.085e-09
 57.02907    -44.6 1.086e+04 1.039e-09
 57.04712    -44.6 1.083e+04 1.017e-09
 57.06690    -45.0 1.061e+04 9.082e-10
 57.09191    -44.8 1.062e+04 9.043e-10
 57.11150    -44.7 1.130e+04 1.275e-09
 57.12747    -44.6 1.126e+04 1.251e-09
 57.14715    -44.6 1.124e+04 1.241e-09
 57.16683    -44.7 1.138e+04 1.305e-09
 57.18651    -45.5 1.198e+04 1.538e-09
 57.20620    -46.4 1.251e+04 1.929e-09
 57.22588    -46.9 1.278e+04 2.340e-09
 57.24556    -47.5 1.339e+04 2.792e-09
 57.26524    -54.3 2.027e+04 3.733e-09
 57.27554    -71.0 2.963e+04 1.419e-08
 57.28041    -68.7 2.565e+04 1.716e-08
 57.28974    -75.2 2.400e+04 7.974e-08
 57.29958    -79.5 2.274e+04 2.507e-07
 57.30942    -83.8 2.229e+04 4.671e-07
 57.31926    -89.9 2.232e+04 5.514e-07
 57.32911    -97.0 2.276e+04 4.875e-07
 57.33895   -104.7 2.434e+04 2.106e-07
 57.34879   -111.8 2.444e+04 8.849e-08
 57.35759   -116.0 2.249e+04 5.574e-08
 57.36251   -114.5 2.249e+04 5.558e-08
 57.36847   -116.3 2.111e+04 4.136e-08
 57.37831   -116.8 2.043e+04 3.112e-08
 57.38815   -117.2 1.987e+04 2.311e-08
 57.39799   -117.8 1.918e+04 1.680e-08
 57.40783   -118.4 1.828e+04 1.167e-08
 57.41767   -119.2 1.714e+04 7.798e-09
 57.42751   -120.1 1.599e+04 5.386e-09
 57.43973   -121.2 1.501e+04 3.888e-09
 57.44962   -120.3 1.542e+04 4.232e-09
 57.46205   -122.1 1.399e+04 2.483e-09
 57.47610   -125.2 1.190e+04 1.275e-09
 57.48594   -124.7 1.204e+04 1.239e-09
 57.50141   -127.2 1.144e+04 1.004e-09
 57.52109   -129.0 1.133e+04 9.673e-10
 57.54077   -130.8 1.140e+04 1.032e-09
 57.56046   -132.2 1.190e+04 1.380e-09
 57.58014   -133.0 1.229e+04 1.799e-09
 57.59982   -133.7 1.243e+04 2.037e-09
 57.61381   -134.3 1.244e+04 2.080e-09
 57.62365   -134.5 1.269e+04 2.330e-09
 57.63918   -134.8 1.231e+04 2.085e-09
 57.65886   -135.0 1.173e+04 1.557e-09
 57.67854   -135.6 1.109e+04 1.088e-09
 57.69822   -136.9 1.052e+04 7.801e-10
 57.71790   -138.5 1.025e+04 6.396e-10
 57.73759   -140.2 1.021e+04 6.087e-10
 57.75727   -142.1 1.022e+04 6.073e-10
 57.77695   -144.4 1.041e+04 7.008e-10
 57.78784   -146.7 1.130e+04 1.084e-09
 57.79768   -148.4 1.224e+04 1.554e-09
 57.81631   -150.3 1.353e+04 2.464e-09
 57.83599   -152.3 1.488e+04 3.735e-09
 57.85567   -154.6 1.595e+04 5.139e-09
 57.87535   -157.2 1.644e+04 6.057e-09
 57.89503   -159.7 1.649e+04 6.270e-09
 57.90508   -161.8 1.605e+04 5.932e-09
 57.91492   -163.0 1.677e+04 8.183e-09
 57.93440   -163.8 1.561e+04 5.521e-09
 57.95203   -164.9 1.416e+04 3.019e-09
 57.96187   -166.6 1.286e+04 1.658e-09
 57.97376   -168.7 1.131e+04 8.904e-10
 57.99344   -170.7 1.034e+04 5.631e-10
 58.01312   -172.0 1.008e+04 4.637e-10
 58.03280   -172.6 1.002e+04 4.431e-10
 58.05248   -172.9 1.002e+04 4.405e-10
 58.07216   -173.4 1.014e+04 4.513e-10
 58.09184   -173.9 1.030e+04 4.933e-10
 58.11153   -174.3 1.042e+04 5.465e-10
 58.12606   -174.6 1.050e+04 5.981e-10
 58.13590   -174.7 1.049e+04 6.045e-10
 58.15089   -174.9 1.051e+04 6.404e-10
 58.17057   -175.0 1.049e+04 6.517e-10
 58.19025   -175.0 1.048e+04 6.535e-10
 58.20993   -174.9 1.032e+04 6.303e-10
 58.22961   -174.7 1.017e+04 5.513e-10
 58.24929   -174.6 9.998e+03 4.602e-10
 58.27891   -174.7 9.839e+03 3.848e-10
 58.31837   -174.6 9.554e+03 3.063e-10
 58.35773   -174.1 9.209e+03 2.278e-10
 58.39710   -173.4 8.931e+03 1.768e-10
 58.43646   -172.7 8.814e+03 1.514e-10
 58.46448   -172.1 8.802e+03 1.451e-10
 58.48416   -172.7 8.785e+03 1.234e-10
 58.51518   -172.5 8.722e+03 1.286e-10
 58.55455   -172.6 8.852e+03 1.631e-10
 58.59391   -172.9 9.328e+03 2.355e-10
 58.63327   -174.1 1.005e+04 3.767e-10
 58.67263   -176.0 1.085e+04 5.921e-10
 58.71199   -179.1 1.155e+04 8.332e-10
 58.74355   -183.3 1.205e+04 1.027e-09
 58.76323   -183.2 1.225e+04 1.199e-09
 58.79072   -187.6 1.231e+04 1.228e-09
 58.81254   -191.8 1.232e+04 1.222e-09
 58.83222   -191.4 1.199e+04 1.149e-09
 58.86944   -194.6 1.182e+04 1.036e-09
 58.90881   -197.4 1.173e+04 9.672e-10
 58.94817   -199.7 1.163e+04 9.326e-10
 58.98753   -201.7 1.153e+04 9.226e-10
 59.02689   -203.5 1.149e+04 9.335e-10
 59.06625   -205.1 1.167e+04 1.081e-09
 59.10562   -206.9 1.191e+04 1.262e-09
 59.14092   -208.8 1.195e+04 1.331e-09
 59.16060   -208.1 1.202e+04 1.344e-09
 59.18434   -210.5 1.197e+04 1.349e-09
 59.22370   -212.4 1.156e+04 1.189e-09
 59.26306   -213.5 1.110e+04 9.582e-10
 59.30243   -214.6 1.093e+04 8.379e-10
 59.32469   -215.3 1.060e+04 8.188e-10
 59.33443   -215.9 1.039e+04 7.053e-10
 59.35143   -218.9 1.156e+04 9.035e-10
 59.37112   -222.0 1.244e+04 1.052e-09
 59.39080   -225.8 1.640e+04 2.266e-09
 59.41048   -228.6 1.907e+04 4.914e-09
 59.43016   -230.8 2.046e+04 9.135e-09
 59.44984   -232.9 2.068e+04 1.290e-08
 59.46952   -235.0 2.055e+04 1.397e-08
 59.48878   -236.6 1.975e+04 1.392e-08
 59.49862   -236.5 1.746e+04 5.671e-09
 59.50888   -237.5 1.685e+04 5.579e-09
 59.52856   -238.1 1.620e+04 5.215e-09
 59.54825   -238.5 1.558e+04 4.830e-09
 59.56793   -238.6 1.503e+04 4.475e-09
 59.58761   -238.6 1.453e+04 4.080e-09
 59.60131   -238.4 1.400e+04 3.596e-09
 59.61115   -238.1 1.393e+04 3.144e-09
 59.62697   -237.5 1.339e+04 2.790e-09
 59.64665   -236.8 1.288e+04 2.410e-09
 59.66281   -236.1 1.240e+04 2.037e-09
 59.67265   -235.9 1.193e+04 1.515e-09
 59.68601   -235.0 1.164e+04 1.375e-09
 59.70569   -233.9 1.137e+04 1.216e-09
 59.72537   -232.8 1.112e+04 1.060e-09
 59.74506   -231.8 1.088e+04 9.137e-10
 59.76474   -230.7 1.064e+04 7.754e-10
 59.78442   -229.5 1.039e+04 6.445e-10
 59.80410   -228.0 1.016e+04 5.289e-10
 59.82378   -226.3 1.001e+04 4.490e-10
 59.83694   -224.9 9.980e+03 4.035e-10
 59.85672   -225.3 9.947e+03 3.829e-10
 59.89286   -223.7 9.760e+03 3.305e-10
 59.93222   -221.9 9.565e+03 2.894e-10
 59.97158   -220.1 9.464e+03 2.692e-10
 60.01095   -218.4 9.440e+03 2.636e-10
 60.05031   -216.7 9.436e+03 2.631e-10
 60.08967   -215.0 9.435e+03 2.743e-10
 60.12903   -213.4 9.478e+03 2.974e-10
 60.16542   -211.7 9.500e+03 3.232e-10
 60.18510   -211.4 9.535e+03 3.258e-10
 60.20776   -209.7 9.553e+03 3.334e-10
 60.24712   -208.0 9.526e+03 3.319e-10
 60.28648   -206.3 9.359e+03 3.062e-10
 60.32584   -204.7 9.133e+03 2.678e-10
 60.36521   -203.0 8.923e+03 2.352e-10
 60.40457   -201.2 8.803e+03 2.157e-10
 60.43978   -199.4 8.789e+03 2.106e-10
 60.45946   -198.7 9.313e+03 3.157e-10
 60.48329   -197.1 9.322e+03 3.152e-10
 60.51348   -195.6 9.465e+03 3.403e-10
 60.53316   -194.7 8.777e+03 2.417e-10
 60.56202   -193.3 8.924e+03 2.699e-10
 60.60138   -192.1 9.206e+03 3.373e-10
 60.64074   -191.1 9.579e+03 4.401e-10
 60.68010   -190.3 1.002e+04 5.745e-10
 60.71946   -189.6 1.050e+04 7.358e-10
 60.75883   -189.1 1.096e+04 8.976e-10
 60.79819   -188.8 1.126e+04 9.710e-10
 60.83755   -188.7 1.133e+04 9.752e-10
 60.86154   -189.1 1.133e+04 8.831e-10
 60.87129   -187.3 1.204e+04 1.376e-09
 60.87840   -187.5 1.203e+04 1.351e-09
 60.88824   -187.9 1.214e+04 1.369e-09
 60.90624   -188.3 1.184e+04 1.175e-09
 60.92592   -188.7 1.141e+04 9.717e-10
 60.94560   -189.4 1.091e+04 7.762e-10
 60.96528   -190.0 1.045e+04 6.405e-10
 60.98496   -190.5 1.019e+04 5.683e-10
 61.00465   -190.8 1.008e+04 5.317e-10
 61.02433   -191.0 1.003e+04 5.155e-10
 61.03538   -191.1 1.001e+04 5.113e-10
 61.04522   -190.9 1.031e+04 6.157e-10
 61.06369   -191.0 1.025e+04 6.017e-10
 61.08337   -190.9 1.016e+04 5.760e-10
 61.10305   -190.8 1.003e+04 5.292e-10
 61.12273   -190.8 9.887e+03 4.684e-10
 61.14241   -190.8 9.749e+03 4.138e-10
 61.16209   -190.9 9.648e+03 3.801e-10
 61.18983   -191.2 9.569e+03 3.534e-10
 61.20951   -190.6 9.569e+03 3.452e-10
 61.23108   -190.9 9.555e+03 3.314e-10
 61.27054   -191.7 9.493e+03 3.162e-10
 61.29773   -193.0 9.703e+03 3.330e-10
 61.31741   -193.3 9.147e+03 2.518e-10
 61.34926   -195.2 9.445e+03 2.840e-10
 61.38862   -197.4 9.857e+03 3.923e-10
 61.42798   -199.7 1.023e+04 5.492e-10
 61.46735   -202.4 1.071e+04 7.700e-10
 61.49677   -204.4 1.120e+04 9.847e-10
 61.51635   -206.7 1.211e+04 1.329e-09
 61.53603   -208.6 1.301e+04 1.736e-09
 61.54763   -212.3 1.528e+04 2.848e-09
 61.55747   -216.0 1.760e+04 3.780e-09
 61.57540   -221.3 1.929e+04 7.853e-09
 61.59508   -226.0 1.949e+04 1.175e-08
 61.61476   -229.6 1.937e+04 1.270e-08
 61.63444   -231.7 1.852e+04 1.235e-08
 61.65412   -232.5 1.698e+04 8.880e-09
 61.67380   -232.9 1.548e+04 5.469e-09
 61.69348   -233.4 1.428e+04 3.426e-09
 61.71182   -233.9 1.321e+04 2.095e-09
 61.72166   -235.3 1.321e+04 1.797e-09
 61.72652   -235.9 1.147e+04 9.291e-10
 61.73636   -235.0 1.269e+04 1.615e-09
 61.75253   -235.1 1.145e+04 9.836e-10
 61.77221   -234.9 1.107e+04 7.615e-10
 61.79189   -234.2 1.096e+04 7.107e-10
 61.81157   -233.0 1.096e+04 7.021e-10
 61.83125   -231.7 1.118e+04 7.099e-10
 61.85093   -230.5 1.150e+04 7.546e-10
 61.87061   -229.3 1.184e+04 8.155e-10
 61.88585   -228.2 1.217e+04 8.950e-10
 61.89569   -229.5 1.449e+04 1.736e-09
 61.90998   -228.2 1.486e+04 2.011e-09
 61.92966   -226.9 1.518e+04 2.330e-09
 61.94934   -225.5 1.548e+04 2.733e-09
 61.96902   -224.1 1.574e+04 3.158e-09
 61.98870   -222.8 1.608e+04 3.719e-09
 62.00838   -221.3 1.653e+04 4.467e-09
 62.02806   -220.0 1.702e+04 5.156e-09
 62.04774   -218.7 1.753e+04 5.792e-09
 62.05988   -217.4 1.803e+04 6.420e-09
 62.06475   -218.9 2.128e+04 1.326e-08
 62.07225   -218.3 2.141e+04 1.388e-08
 62.08209   -217.5 2.153e+04 1.447e-08
 62.09193   -216.8 2.161e+04 1.498e-08
 62.10177   -216.0 2.168e+04 1.562e-08
 62.11161   -215.3 2.165e+04 1.639e-08
 62.12145   -214.6 2.154e+04 1.739e-08
 62.13129   -214.1 2.144e+04 1.829e-08
 62.14113   -213.6 2.136e+04 1.919e-08
 62.14680   -213.2 2.125e+04 1.995e-08
 62.15122   -212.6 2.086e+04 2.440e-08
 62.15540   -213.0 1.946e+04 2.183e-08
 62.16081   -212.6 1.933e+04 2.121e-08
 62.17065   -212.2 1.937e+04 2.066e-08
 62.18049   -212.0 1.947e+04 2.035e-08
 62.19033   -212.0 1.957e+04 2.006e-08
 62.20017   -212.0 1.960e+04 1.958e-08
 62.21001   -212.2 1.969e+04 1.889e-08
 62.21985   -212.4 1.985e+04 1.811e-08
 62.22889   -212.8 2.013e+04 1.729e-08
 62.23386   -214.1 2.088e+04 9.040e-09
 62.24455   -216.1 2.192e+04 8.107e-09
 62.26423   -218.6 2.459e+04 7.470e-09
 62.27895   -218.8 2.521e+04 1.378e-08
 62.28874   -219.6 2.588e+04 1.468e-08
 62.29858   -220.7 2.592e+04 1.733e-08
 62.30842   -221.9 2.602e+04 1.965e-08
 62.31591   -223.3 2.610e+04 2.248e-08
 62.32083   -225.4 2.888e+04 1.767e-08
 62.32810   -227.4 2.863e+04 2.092e-08
 62.33794   -229.2 2.800e+04 2.515e-08
 62.34778   -230.6 2.716e+04 3.001e-08
 62.35762   -231.4 2.643e+04 3.436e-08
 62.36496   -231.9 2.610e+04 3.610e-08
 62.36988   -230.4 3.504e+04 6.041e-09
 62.37730   -230.6 3.436e+04 6.399e-09
 62.38714   -230.6 3.319e+04 6.618e-09
 62.39698   -230.4 3.202e+04 6.348e-09
 62.40292   -230.3 3.080e+04 5.705e-09
 62.40789   -231.5 3.259e+04 4.079e-09
 62.42168   -232.1 2.787e+04 2.627e-09
 62.44136   -233.1 2.300e+04 2.072e-09
 62.46105   -233.4 1.937e+04 1.701e-09
 62.48073   -232.6 1.684e+04 1.425e-09
 62.50041   -231.4 1.421e+04 1.187e-09
 62.52009   -229.9 1.304e+04 1.096e-09
 62.53977   -228.3 1.240e+04 1.002e-09
 62.55945   -226.6 1.190e+04 9.106e-10
 62.57213   -224.9 1.150e+04 8.289e-10
 62.57747   -225.0 1.129e+04 7.060e-10
 62.58447   -224.1 9.686e+03 5.487e-10
 62.59881   -222.7 9.594e+03 5.241e-10
 62.61849   -221.2 9.506e+03 4.998e-10
 62.63818   -219.7 9.467e+03 4.789e-10
 62.65786   -218.3 9.490e+03 4.697e-10
 62.67754   -216.9 9.555e+03 4.691e-10
 62.69722   -215.7 9.732e+03 4.807e-10
 62.71690   -214.4 9.961e+03 5.040e-10
 62.73632   -213.3 1.017e+04 5.326e-10
 62.74616   -213.5 1.008e+04 5.275e-10
 62.75626   -212.4 1.024e+04 5.561e-10
 62.77594   -211.2 1.033e+04 5.798e-10
 62.79562   -210.1 1.034e+04 5.966e-10
 62.81531   -209.0 1.032e+04 6.013e-10
 62.83499   -207.9 1.026e+04 6.016e-10
 62.85467   -206.8 1.018e+04 5.948e-10
 62.87435   -205.7 1.010e+04 5.799e-10
 62.89403   -204.5 1.001e+04 5.569e-10
 62.91035   -203.3 9.921e+03 5.280e-10
 62.92019   -203.6 1.023e+04 5.887e-10
 62.93339   -202.4 1.015e+04 5.508e-10
 62.95307   -201.2 1.006e+04 5.101e-10
 62.97275   -199.9 9.950e+03 4.702e-10
 62.99244   -198.7 9.823e+03 4.310e-10
 63.00361   -197.3 9.694e+03 3.943e-10
 63.01355   -197.3 9.389e+03 3.135e-10
 63.04183   -194.7 9.142e+03 2.630e-10
 63.08120   -191.8 8.884e+03 2.220e-10
 63.12056   -189.1 8.642e+03 1.892e-10
 63.15992   -186.2 8.445e+03 1.661e-10
 63.19928   -183.3 8.298e+03 1.485e-10
 63.23864   -180.3 8.157e+03 1.343e-10
 63.25861   -177.3 8.032e+03 1.218e-10
 63.27829   -177.4 8.196e+03 1.511e-10
 63.31737   -174.3 8.068e+03 1.338e-10
 63.35673   -171.2 7.942e+03 1.191e-10
 63.39609   -168.1 7.827e+03 1.064e-10
 63.43545   -165.0 7.724e+03 9.570e-11
 63.47482   -161.9 7.629e+03 8.675e-11
 63.51418   -158.9 7.543e+03 7.956e-11
 63.55354   -155.8 7.487e+03 7.430e-11
 63.58699   -152.7 7.475e+03 7.179e-11
 63.60667   -153.0 7.729e+03 9.745e-11
 63.63227   -150.0 7.735e+03 9.707e-11
 63.67163   -147.2 7.761e+03 9.794e-11
 63.71099   -144.8 7.935e+03 1.153e-10
 63.75035   -142.7 8.256e+03 1.644e-10
 63.78971   -140.6 8.695e+03 2.515e-10
 63.82908   -138.8 9.256e+03 3.919e-10
 63.85192   -137.5 9.929e+03 6.007e-10
 63.87160   -136.6 9.764e+03 5.203e-10
 63.90780   -135.8 1.034e+04 7.159e-10
 63.93505   -135.5 1.095e+04 9.588e-10
 63.95473   -134.5 1.069e+04 8.941e-10
 63.98653   -134.4 1.145e+04 1.259e-09
 64.01595   -134.8 1.220e+04 1.859e-09
 64.03553   -134.8 1.283e+04 2.443e-09
 64.05521   -134.8 1.350e+04 3.220e-09
 64.07489   -134.8 1.412e+04 4.059e-09
 64.09458   -134.8 1.459e+04 4.793e-09
 64.10889   -134.8 1.487e+04 5.174e-09
 64.11873   -134.6 1.555e+04 6.689e-09
 64.13394   -134.8 1.574e+04 6.931e-09
 64.15362   -135.1 1.576e+04 6.870e-09
 64.17330   -135.2 1.550e+04 5.989e-09
 64.19298   -135.4 1.499e+04 4.952e-09
 64.21266   -135.8 1.447e+04 4.216e-09
 64.23234   -135.9 1.404e+04 3.806e-09
 64.25202   -135.9 1.380e+04 3.693e-09
 64.27086   -135.8 1.376e+04 3.713e-09
 64.28070   -135.6 1.472e+04 4.752e-09
 64.28292   -135.8 1.537e+04 6.156e-09
 64.29276   -135.7 1.543e+04 6.458e-09
 64.31107   -135.4 1.613e+04 8.414e-09
 64.33075   -134.7 1.661e+04 1.015e-08
 64.35043   -134.2 1.679e+04 1.095e-08
 64.37011   -133.9 1.681e+04 1.107e-08
 64.38979   -133.6 1.672e+04 1.043e-08
 64.40450   -133.2 1.569e+04 7.253e-09
 64.41430   -133.0 1.545e+04 6.638e-09
 64.42414   -132.8 1.501e+04 5.707e-09
 64.43398   -132.7 1.477e+04 5.334e-09
 64.44382   -132.6 1.453e+04 4.975e-09
 64.45193   -132.4 1.448e+04 4.909e-09
 64.45690   -132.9 1.456e+04 4.666e-09
 64.46852   -132.4 1.404e+04 3.954e-09
 64.48820   -131.6 1.336e+04 3.088e-09
 64.50788   -130.8 1.279e+04 2.442e-09
 64.52756   -130.2 1.243e+04 2.023e-09
 64.54724   -129.7 1.219e+04 1.756e-09
 64.56692   -129.0 1.205e+04 1.598e-09
 64.58660   -128.1 1.194e+04 1.496e-09
 64.60628   -127.3 1.190e+04 1.424e-09
 64.62114   -126.5 1.192e+04 1.364e-09
 64.63098   -127.0 1.166e+04 1.091e-09
 64.64565   -126.5 1.165e+04 1.008e-09
 64.66533   -126.2 1.164e+04 9.397e-10
 64.68501   -126.1 1.163e+04 8.909e-10
 64.69984   -126.0 1.161e+04 8.621e-10
 64.70968   -127.4 1.196e+04 1.026e-09
 64.72437   -127.4 1.187e+04 9.954e-10
 64.74405   -127.4 1.177e+04 9.556e-10
 64.76373   -127.4 1.166e+04 9.032e-10
 64.78341   -127.5 1.156e+04 8.446e-10
 64.79517   -127.5 1.146e+04 7.927e-10
 64.80501   -127.3 1.106e+04 5.900e-10
 64.82278   -127.2 1.101e+04 5.627e-10
 64.84246   -127.0 1.097e+04 5.466e-10
 64.86214   -126.6 1.093e+04 5.365e-10
 64.88182   -126.2 1.087e+04 5.279e-10
 64.90150   -125.6 1.082e+04 5.187e-10
 64.92118   -124.9 1.079e+04 5.085e-10
 64.94086   -124.1 1.075e+04 4.973e-10
 64.95936   -123.3 1.072e+04 4.856e-10
 64.96920   -122.6 1.040e+04 3.527e-10
 64.98022   -121.7 1.032e+04 3.400e-10
 64.99991   -120.8 1.023e+04 3.297e-10
 65.01959   -119.8 1.016e+04 3.233e-10
 65.03927   -118.8 1.013e+04 3.215e-10
 65.05895   -117.8 1.012e+04 3.210e-10
 65.07863   -117.0 1.016e+04 3.262e-10
 65.09831   -116.2 1.028e+04 3.532e-10
 65.11799   -115.3 1.044e+04 3.990e-10
 65.12881   -114.5 1.064e+04 4.621e-10
 65.13437   -114.0 1.053e+04 4.519e-10
 65.14323   -113.4 1.040e+04 3.363e-10
 65.15735   -112.5 1.047e+04 3.780e-10
 65.17704   -111.6 1.056e+04 4.279e-10
 65.19672   -110.8 1.063e+04 4.820e-10
 65.21640   -109.8 1.071e+04 5.378e-10
 65.23608   -108.9 1.076e+04 5.858e-10
 65.25576   -108.0 1.081e+04 6.210e-10
 65.27544   -107.0 1.079e+04 6.436e-10
 65.29512   -105.8 1.078e+04 6.662e-10
 65.30752   -104.4 1.077e+04 6.745e-10
 65.32730   -103.0 1.019e+04 4.007e-10
 65.36420   -100.6 1.015e+04 4.092e-10
 65.40356    -98.1 9.913e+03 4.031e-10
 65.44293    -95.5 9.768e+03 3.762e-10
 65.48229    -92.9 9.717e+03 3.619e-10
 65.52165    -90.5 9.705e+03 3.598e-10
 65.54815    -88.2 9.705e+03 3.651e-10
 65.56783    -88.2 9.558e+03 2.995e-10
 65.60037    -86.1 9.555e+03 2.992e-10
 65.63599    -84.0 9.554e+03 2.917e-10
 65.65568    -83.4 9.425e+03 3.401e-10
 65.67910    -81.4 9.374e+03 3.034e-10
 65.71846    -79.8 9.403e+03 2.758e-10
 65.75782    -78.6 9.438e+03 2.707e-10
 65.79719    -77.8 9.620e+03 2.890e-10
 65.83655    -77.1 9.766e+03 3.706e-10
 65.87591    -76.3 9.896e+03 4.816e-10
 65.91527    -75.4 9.961e+03 5.665e-10
 65.95463    -74.5 9.959e+03 5.871e-10
 65.98406    -73.4 9.670e+03 5.510e-10
 66.00374    -72.8 9.626e+03 5.160e-10
 66.03336    -71.2 9.127e+03 4.118e-10
 66.07272    -69.2 8.549e+03 2.610e-10
 66.11208    -67.2 8.043e+03 1.483e-10
 66.15144    -65.2 7.679e+03 8.440e-11
 66.19081    -63.3 7.490e+03 5.392e-11
 66.23017    -61.3 7.390e+03 4.061e-11
 66.26953    -59.2 7.328e+03 3.569e-11
 66.30889    -57.1 7.310e+03 3.464e-11
 66.33212    -54.9 7.313e+03 3.489e-11
 66.35180    -54.1 7.249e+03 3.488e-11
 66.38642    -52.1 7.360e+03 4.221e-11
 66.40610    -52.6 7.456e+03 4.891e-11
 66.42698    -50.3 7.521e+03 5.934e-11
 66.46634    -47.9 7.587e+03 6.984e-11
 66.50570    -45.5 7.662e+03 7.730e-11
 66.54507    -43.5 7.781e+03 8.222e-11
 66.58443    -42.1 8.067e+03 9.282e-11
 66.62379    -41.5 8.473e+03 1.357e-10
 66.66050    -40.7 8.897e+03 2.402e-10
 66.68018    -40.2 8.956e+03 2.702e-10
 66.70252    -38.7 9.393e+03 4.345e-10
 66.74188    -37.2 9.661e+03 5.049e-10
 66.78124    -36.0 9.612e+03 4.793e-10
 66.82060    -35.1 9.319e+03 2.870e-10
 66.85996    -35.0 8.915e+03 1.521e-10
 66.89933    -35.4 8.690e+03 1.144e-10
 66.93869    -35.4 8.635e+03 1.127e-10
 66.97805    -35.6 8.986e+03 1.836e-10
 67.00856    -35.6 9.491e+03 3.236e-10
 67.02824    -34.9 9.370e+03 3.093e-10
 67.05677    -34.6 9.988e+03 5.217e-10
 67.09614    -34.1 1.047e+04 7.311e-10
 67.13550    -33.6 1.064e+04 8.120e-10
 67.17486    -33.3 1.069e+04 7.866e-10
 67.21422    -32.6 1.046e+04 6.679e-10
 67.24438    -31.9 1.022e+04 5.538e-10
 67.26406    -32.8 1.005e+04 3.697e-10
 67.29295    -31.9 9.977e+03 3.818e-10
 67.33231    -31.3 1.037e+04 5.605e-10
 67.35662    -30.8 1.126e+04 9.377e-10
 67.36636    -30.1 1.053e+04 6.410e-10
 67.38132    -29.9 1.072e+04 7.040e-10
 67.40100    -29.0 1.128e+04 8.939e-10
 67.42068    -29.0 1.169e+04 9.705e-10
 67.44036    -29.6 1.287e+04 1.242e-09
 67.46004    -30.7 1.399e+04 1.749e-09
 67.47972    -31.1 1.450e+04 2.584e-09
 67.49940    -31.3 1.404e+04 3.210e-09
 67.51908    -30.4 1.364e+04 3.457e-09
 67.53046    -29.5 1.342e+04 3.404e-09
 67.54030    -29.4 1.316e+04 3.120e-09
 67.55845    -28.4 1.301e+04 2.730e-09
 67.57813    -27.7 1.277e+04 2.312e-09
 67.59781    -27.5 1.274e+04 1.773e-09
 67.61749    -27.5 1.258e+04 1.261e-09
 67.63717    -27.9 1.216e+04 8.516e-10
 67.65685    -28.1 1.182e+04 5.756e-10
 67.68490    -28.7 1.131e+04 3.289e-10
 67.70468    -27.9 1.100e+04 3.150e-10
 67.72593    -27.5 1.002e+04 1.334e-10
 67.76529    -27.8 9.271e+03 9.354e-11
 67.80466    -26.8 9.185e+03 8.626e-11
 67.84402    -25.9 9.342e+03 8.733e-11
 67.88338    -25.1 9.641e+03 1.034e-10
 67.92274    -24.2 9.927e+03 1.253e-10
 67.96210    -23.4 1.018e+04 1.486e-10
 68.00147    -23.0 1.037e+04 1.719e-10
 68.03306    -22.8 1.041e+04 2.068e-10
 68.05274    -21.7 1.025e+04 1.814e-10
 68.08019    -21.2 1.032e+04 2.366e-10
 68.10233    -20.7 1.044e+04 3.154e-10
 68.12201    -21.1 1.064e+04 5.057e-10
 68.15892    -20.8 1.090e+04 6.169e-10
 68.19828    -20.0 1.102e+04 6.837e-10
 68.23764    -19.1 1.106e+04 6.744e-10
 68.26706    -17.9 1.113e+04 5.522e-10
 68.28665    -17.6 1.119e+04 4.443e-10
 68.30633    -17.7 1.116e+04 3.263e-10
 68.32601    -17.6 1.115e+04 2.892e-10
 68.35563    -18.5 1.065e+04 2.342e-10
 68.38112    -18.6 1.021e+04 2.157e-10
 68.40080    -18.0 1.012e+04 2.264e-10
 68.43445    -16.8 1.004e+04 2.465e-10
 68.46387    -16.3 1.045e+04 3.185e-10
 68.48346    -16.3 1.049e+04 3.309e-10
 68.50314    -15.8 1.100e+04 4.695e-10
 68.52127    -15.8 1.164e+04 6.620e-10
 68.53111    -16.4 1.189e+04 7.698e-10
 68.54250    -16.2 1.256e+04 1.101e-09
 68.55496    -16.3 1.310e+04 1.540e-09
 68.56480    -16.1 1.343e+04 1.995e-09
 68.58186    -15.5 1.377e+04 2.724e-09
 68.60154    -14.8 1.379e+04 3.223e-09
 68.62123    -13.5 1.381e+04 3.458e-09
 68.64091    -12.6 1.362e+04 3.284e-09
 68.66059    -11.8 1.333e+04 2.871e-09
 68.68027    -10.9 1.313e+04 2.526e-09
 68.69995    -10.3 1.302e+04 2.244e-09
 68.71915     -9.8 1.279e+04 1.958e-09
 68.72899     -9.8 1.271e+04 1.704e-09
 68.74925     -8.4 1.268e+04 1.649e-09
 68.78871     -6.3 1.236e+04 1.395e-09
 68.82807     -4.7 1.227e+04 1.291e-09
 68.86743     -3.3 1.231e+04 1.357e-09
 68.89328     -2.7 1.228e+04 1.394e-09
 68.90302     -2.7 1.212e+04 1.339e-09
 68.91644     -2.1 1.202e+04 1.417e-09
 68.93612     -0.8 1.197e+04 1.466e-09
 68.95025      0.6 1.197e+04 1.332e-09
 68.96009     -0.0 1.141e+04 9.895e-10
 68.97549      1.0 1.138e+04 8.658e-10
 68.99517      1.6 1.135e+04 7.079e-10
 69.01485      1.6 1.118e+04 5.593e-10
 69.03453      1.2 1.099e+04 4.780e-10
 69.05421      0.7 1.095e+04 4.297e-10
 69.06721      0.3 1.095e+04 4.306e-10
 69.07705      0.5 1.084e+04 3.898e-10
 69.09357      0.1 1.088e+04 4.148e-10
 69.11325     -0.1 1.101e+04 4.683e-10
 69.13293     -0.3 1.108e+04 5.503e-10
 69.15261     -0.3 1.125e+04 6.317e-10
 69.17230     -0.3 1.122e+04 6.903e-10
 69.19198     -0.4 1.111e+04 7.216e-10
 69.21166     -0.3 1.093e+04 7.338e-10
 69.23134      0.0 1.079e+04 7.249e-10
 69.25102      1.0 1.060e+04 6.436e-10
 69.27070      1.6 1.059e+04 6.084e-10
 69.29038      1.9 1.057e+04 5.834e-10
 69.31006      2.2 1.054e+04 5.789e-10
 69.32974      2.5 1.043e+04 5.821e-10
 69.34943      3.0 1.040e+04 5.823e-10
 69.37905      4.1 1.038e+04 6.695e-10
 69.40563      5.9 1.033e+04 6.343e-10
 69.42531      6.3 1.025e+04 5.400e-10
 69.45787      8.1 9.960e+03 4.107e-10
 69.49723     10.0 9.488e+03 2.528e-10
 69.53659     11.8 9.110e+03 1.355e-10
 69.57595     12.9 8.950e+03 7.429e-11
 69.61532     13.7 8.697e+03 5.562e-11
 69.65468     15.3 8.631e+03 5.716e-11
 69.69404     16.7 8.680e+03 6.975e-11
 69.73340     18.6 8.823e+03 9.738e-11
 69.75369     20.7 8.985e+03 1.389e-10
 69.77337     20.6 8.874e+03 1.230e-10
 69.79856     22.7 9.085e+03 1.618e-10
 69.81824     22.7 9.076e+03 1.765e-10
 69.85149     24.9 9.274e+03 2.176e-10
 69.89085     26.7 9.491e+03 2.608e-10
 69.93021     28.1 9.754e+03 3.441e-10
 69.96958     29.1 1.028e+04 5.499e-10
 70.00894     30.4 1.108e+04 9.464e-10
 70.04830     31.6 1.162e+04 1.272e-09
 70.08207     32.4 1.156e+04 1.223e-09
 70.10175     32.1 1.121e+04 9.808e-10
 70.11709     32.8 1.077e+04 7.658e-10
 70.13667     32.7 1.071e+04 7.368e-10
 70.15635     32.9 1.018e+04 5.293e-10
 70.17603     32.6 9.981e+03 4.660e-10
 70.20565     32.6 9.409e+03 3.485e-10
 70.24511     33.2 9.138e+03 3.242e-10
 70.28447     34.5 9.201e+03 3.381e-10
 70.32383     36.0 9.393e+03 3.784e-10
 70.35326     37.1 9.474e+03 4.002e-10
 70.37284     37.6 9.589e+03 4.271e-10
 70.39252     38.3 9.750e+03 4.855e-10
 70.41220     39.2 9.935e+03 5.495e-10
 70.42993     40.1 1.014e+04 6.086e-10
 70.43977     39.9 1.029e+04 6.968e-10
 70.45157     40.6 1.051e+04 7.606e-10
 70.47125     41.3 1.070e+04 8.096e-10
 70.49093     41.8 1.086e+04 8.479e-10
 70.51061     42.2 1.100e+04 8.749e-10
 70.53029     42.4 1.109e+04 8.971e-10
 70.54997     42.5 1.119e+04 9.314e-10
 70.56965     42.4 1.138e+04 1.007e-09
 70.58933     41.9 1.173e+04 1.146e-09
 70.60396     40.9 1.261e+04 1.400e-09
 70.61380     39.7 1.402e+04 1.883e-09
 70.62870     37.5 1.549e+04 2.913e-09
 70.64341     36.2 1.624e+04 3.712e-09
 70.65130     35.4 1.681e+04 4.211e-09
 70.65622     34.6 1.714e+04 5.461e-09
 70.66304     32.8 1.787e+04 6.954e-09
 70.67288     31.4 1.809e+04 8.695e-09
 70.68272     30.6 1.780e+04 1.038e-08
 70.69088     30.2 1.744e+04 1.225e-08
 70.69580     30.0 1.737e+04 1.346e-08
 70.70737     30.8 1.694e+04 1.293e-08
 70.72710     32.1 1.657e+04 1.203e-08
 70.74678     34.1 1.608e+04 9.573e-09
 70.76646     35.7 1.577e+04 6.088e-09
 70.77799     35.6 1.591e+04 2.997e-09
 70.78783     32.2 1.630e+04 1.691e-09
 70.80583     27.5 1.418e+04 8.112e-10
 70.83545     21.8 1.038e+04 5.788e-10
 70.87491     21.8 9.967e+03 5.345e-10
 70.91427     22.8 9.848e+03 5.107e-10
 70.94228     24.3 9.583e+03 4.567e-10
 70.95202     23.6 9.634e+03 4.658e-10
 70.96327     24.0 9.644e+03 4.474e-10
 70.99289     25.3 9.585e+03 4.105e-10
 71.03235     26.6 9.514e+03 3.905e-10
 71.07172     28.4 9.454e+03 3.754e-10
 71.10114     29.6 9.361e+03 3.530e-10
 71.11621     30.3 9.427e+03 3.628e-10
 71.12606     29.0 9.778e+03 4.447e-10
 71.14040     29.6 1.004e+04 5.183e-10
 71.16009     29.7 1.042e+04 6.684e-10
 71.17977     28.5 1.221e+04 1.446e-09
 71.19945     26.4 1.521e+04 3.431e-09
 71.21416     22.0 1.769e+04 8.484e-09
 71.22395     22.1 1.823e+04 1.465e-08
 71.23379     23.1 1.864e+04 2.417e-08
 71.24363     24.2 1.912e+04 3.816e-08
 71.25347     25.4 1.929e+04 5.249e-08
 71.26331     26.8 1.942e+04 6.042e-08
 71.27315     28.0 1.926e+04 5.817e-08
 71.28299     29.8 1.861e+04 4.656e-08
 71.29020     31.8 1.815e+04 2.756e-08
 71.30009     31.9 1.803e+04 1.410e-08
 71.31753     31.3 1.854e+04 5.280e-09
 71.33722     27.0 1.778e+04 1.734e-09
 71.35690     20.6 1.271e+04 8.057e-10
 71.37658     20.0 1.083e+04 6.837e-10
 71.39626     20.9 1.075e+04 6.771e-10
 71.41594     22.0 1.075e+04 6.747e-10
 71.43562     23.1 1.083e+04 6.651e-10
 71.45444     24.4 1.086e+04 6.377e-10
 71.46428     23.6 1.088e+04 5.550e-10
 71.47498     24.7 1.096e+04 5.575e-10
 71.49459     25.8 1.123e+04 5.776e-10
 71.51428     27.0 1.177e+04 5.653e-10
 71.53403     22.3 1.784e+04 9.422e-10
 71.55371     16.4 2.168e+04 3.180e-09
 71.57339     14.8 2.018e+04 9.135e-09
 71.59307     15.5 1.884e+04 1.714e-08
 71.61275     17.6 1.789e+04 2.092e-08
 71.62847     19.8 1.787e+04 1.990e-08
 71.63831     21.4 1.801e+04 1.491e-08
 71.65211     24.4 1.811e+04 7.586e-09
 71.67179     24.7 1.897e+04 2.562e-09
 71.69147     21.5 1.979e+04 5.977e-10
 71.71116     15.7 1.553e+04 2.014e-10
 71.73084     13.0 1.036e+04 1.256e-10
 71.75052     13.1 9.433e+03 1.203e-10
 71.77020     14.7 9.185e+03 1.204e-10
 71.78988     15.7 9.249e+03 1.276e-10
 71.80250     17.7 9.227e+03 1.437e-10
 71.82228     17.5 9.211e+03 1.425e-10
 71.85896     20.6 9.205e+03 1.678e-10
 71.89832     23.8 9.249e+03 1.771e-10
 71.93768     26.8 9.290e+03 1.732e-10
 71.97705     29.6 9.370e+03 1.658e-10
 72.01641     32.3 9.428e+03 1.688e-10
 72.05577     34.7 9.666e+03 1.937e-10
 72.09513     36.8 1.007e+04 2.717e-10
 72.12456     37.8 1.027e+04 3.300e-10
 72.14072     38.8 1.044e+04 4.133e-10
 72.15056     38.6 1.050e+04 4.306e-10
 72.16382     39.6 1.096e+04 5.871e-10
 72.18350     40.4 1.151e+04 8.071e-10
 72.20318     41.0 1.204e+04 1.105e-09
 72.22286     41.6 1.251e+04 1.473e-09
 72.24255     42.3 1.286e+04 1.901e-09
 72.26223     42.9 1.313e+04 2.346e-09
 72.28191     43.3 1.341e+04 2.756e-09
 72.30159     43.4 1.369e+04 3.231e-09
 72.31475     43.5 1.403e+04 3.917e-09
 72.32459     43.5 1.410e+04 3.664e-09
 72.34095     43.7 1.438e+04 4.196e-09
 72.35255     44.2 1.450e+04 4.433e-09
 72.36239     44.5 1.482e+04 4.902e-09
 72.38031     44.9 1.475e+04 4.804e-09
 72.39999     45.6 1.445e+04 4.309e-09
 72.41968     46.2 1.395e+04 3.495e-09
 72.43936     46.6 1.333e+04 2.595e-09
 72.45904     47.0 1.268e+04 1.898e-09
 72.47904     47.8 1.171e+04 1.122e-09
 72.49881     47.8 1.200e+04 1.337e-09
 72.52812     48.9 1.085e+04 8.008e-10
 72.56748     50.4 1.049e+04 6.122e-10
 72.59690     51.6 1.049e+04 6.122e-10
 72.61649     52.4 1.073e+04 6.516e-10
 72.63617     53.1 1.157e+04 8.014e-10
 72.65297     52.9 1.334e+04 1.187e-09
 72.66281     50.1 1.466e+04 1.218e-09
 72.67553     49.0 1.624e+04 2.225e-09
 72.69521     48.4 1.809e+04 4.336e-09
 72.71489     49.0 2.027e+04 8.580e-09
 72.72960     49.4 2.168e+04 1.165e-08
 72.73940     49.3 2.311e+04 1.577e-08
 72.74481     49.0 2.426e+04 2.239e-08
 72.74973     48.5 2.154e+04 1.532e-08
 72.75908     48.5 2.217e+04 1.817e-08
 72.76892     48.4 2.302e+04 2.076e-08
 72.77651     47.7 2.420e+04 2.246e-08
 72.78143     46.4 2.438e+04 2.122e-08
 72.78860     44.5 2.572e+04 2.064e-08
 72.79844     41.6 2.679e+04 1.853e-08
 72.80828     37.9 2.723e+04 1.730e-08
 72.81812     34.5 2.709e+04 1.820e-08
 72.82690     32.3 2.675e+04 2.123e-08
 72.83182     27.9 1.751e+04 4.939e-09
 72.83780     27.1 1.721e+04 5.105e-09
 72.84764     26.3 1.672e+04 5.224e-09
 72.85748     25.6 1.599e+04 5.156e-09
 72.86732     24.8 1.544e+04 5.130e-09
 72.87716     24.3 1.505e+04 5.172e-09
 72.88700     24.1 1.477e+04 5.128e-09
 72.89684     24.0 1.466e+04 5.130e-09
 72.90668     24.2 1.440e+04 4.921e-09
 72.91392     24.2 1.429e+04 4.761e-09
 72.91884     24.3 1.405e+04 4.278e-09
 72.92637     24.8 1.369e+04 3.690e-09
 72.93621     24.7 1.364e+04 3.561e-09
 72.95102     25.0 1.345e+04 2.959e-09
 72.97075     24.9 1.324e+04 2.203e-09
 72.99043     24.2 1.298e+04 1.602e-09
 73.00103     23.0 1.250e+04 1.228e-09
 73.01087     22.9 1.158e+04 8.644e-10
 73.02979     22.5 1.120e+04 8.551e-10
 73.04947     22.4 1.137e+04 9.548e-10
 73.06915     22.5 1.192e+04 1.225e-09
 73.08883     22.6 1.258e+04 1.681e-09
 73.10851     23.0 1.314e+04 2.342e-09
 73.12819     23.9 1.357e+04 3.130e-09
 73.14788     25.0 1.394e+04 3.794e-09
 73.16522     26.0 1.409e+04 3.891e-09
 73.17506     26.0 1.424e+04 4.467e-09
 73.18724     26.9 1.427e+04 4.372e-09
 73.20066     27.5 1.421e+04 3.977e-09
 73.21051     27.8 1.395e+04 3.636e-09
 73.22660     27.8 1.370e+04 2.915e-09
 73.24628     27.3 1.329e+04 2.311e-09
 73.26596     26.8 1.260e+04 1.798e-09
 73.28564     26.1 1.196e+04 1.478e-09
 73.30532     26.1 1.152e+04 1.274e-09
 73.32501     26.2 1.121e+04 1.109e-09
 73.33925     26.4 1.094e+04 9.614e-10
 73.34909     26.5 1.102e+04 9.910e-10
 73.36437     26.6 1.071e+04 8.363e-10
 73.38405     26.7 1.047e+04 7.151e-10
 73.40373     26.6 1.031e+04 6.314e-10
 73.42341     26.5 1.016e+04 5.714e-10
 73.44309     26.5 1.005e+04 5.477e-10
 73.46277     26.6 1.001e+04 5.493e-10
 73.48245     26.8 9.974e+03 5.696e-10
 73.50213     27.4 9.898e+03 5.962e-10
 73.51328     27.7 9.935e+03 6.128e-10
 73.52312     27.3 9.947e+03 6.074e-10
 73.55144     28.4 9.853e+03 5.801e-10
 73.59090     30.3 9.711e+03 5.308e-10
 73.61990     31.8 9.494e+03 4.839e-10
 73.62964     31.6 9.571e+03 4.726e-10
 73.63990     32.4 9.445e+03 4.014e-10
 73.66952     33.7 9.228e+03 3.644e-10
 73.70898     36.1 9.055e+03 3.203e-10
 73.73841     37.3 8.972e+03 3.094e-10
 73.75799     38.4 9.046e+03 3.168e-10
 73.77767     39.2 9.615e+03 3.688e-10
 73.79735     38.9 1.105e+04 5.268e-10
 73.81703     37.7 1.272e+04 9.135e-10
 73.83671     36.1 1.391e+04 1.832e-09
 73.85150     34.4 1.520e+04 4.163e-09
 73.86134     34.0 1.614e+04 7.457e-09
 73.87608     33.8 1.752e+04 1.533e-08
 73.89079     33.9 1.796e+04 2.035e-08
 73.90058     34.3 1.836e+04 2.767e-08
 73.91042     34.8 1.849e+04 3.267e-08
 73.92026     35.3 1.846e+04 3.385e-08
 73.93010     36.3 1.828e+04 3.099e-08
 73.93842     36.9 1.825e+04 2.485e-08
 73.94334     36.9 1.838e+04 2.314e-08
 73.94978     36.4 1.797e+04 1.454e-08
 73.95962     35.9 1.767e+04 1.253e-08
 73.97443     35.1 1.662e+04 7.339e-09
 73.99416     32.1 1.435e+04 3.315e-09
 74.01384     28.8 1.176e+04 1.721e-09
 74.02553     27.8 1.084e+04 1.184e-09
 74.03537     27.8 1.081e+04 1.158e-09
 74.04878     28.5 1.066e+04 9.667e-10
 74.05862     29.0 1.094e+04 1.031e-09
 74.07289     29.9 1.076e+04 8.484e-10
 74.09257     30.8 1.046e+04 6.760e-10
 74.11225     31.4 1.017e+04 5.353e-10
 74.13193     32.1 9.770e+03 4.037e-10
 74.15161     32.2 9.700e+03 3.814e-10
 74.17998     33.3 9.507e+03 3.550e-10
 74.19976     34.1 9.221e+03 2.835e-10
 74.22069     36.2 9.020e+03 2.713e-10
 74.26005     38.5 9.007e+03 2.747e-10
 74.29941     40.8 9.014e+03 2.889e-10
 74.33878     42.9 9.053e+03 3.047e-10
 74.37814     45.0 9.078e+03 3.143e-10
 74.41750     47.0 9.075e+03 3.146e-10
 74.45686     49.0 9.048e+03 3.092e-10
 74.49622     51.1 8.957e+03 2.910e-10
 74.52814     53.4 8.774e+03 2.544e-10
 74.54782     55.0 8.313e+03 1.668e-10
 74.57495     57.2 8.169e+03 1.421e-10
 74.61431     59.4 8.043e+03 1.245e-10
 74.65367     61.6 8.052e+03 1.194e-10
 74.69304     63.9 8.081e+03 1.235e-10
 74.73240     66.1 8.255e+03 1.392e-10
 74.77176     68.4 8.590e+03 1.723e-10
 74.81112     71.0 9.078e+03 2.362e-10
 74.85048     72.8 9.541e+03 3.200e-10
 74.87610     73.9 9.709e+03 3.814e-10
 74.88584     74.5 9.784e+03 4.353e-10
 74.89689     75.6 9.968e+03 5.167e-10
 74.90683     76.6 9.745e+03 3.017e-10
 74.91927     77.4 9.996e+03 3.936e-10
 74.93885     78.5 1.019e+04 4.992e-10
 74.95854     79.6 1.044e+04 6.225e-10
 74.97822     80.6 1.075e+04 7.704e-10
 74.99790     81.6 1.111e+04 9.431e-10
 75.01758     82.5 1.148e+04 1.139e-09
 75.03726     83.4 1.180e+04 1.335e-09
 75.05004     84.4 1.208e+04 1.509e-09
 75.05988     84.9 1.197e+04 1.409e-09
 75.07662     85.9 1.221e+04 1.522e-09
 75.09630     86.8 1.241e+04 1.608e-09
 75.11598     87.7 1.258e+04 1.623e-09
 75.13566     88.4 1.259e+04 1.615e-09
 75.15535     89.2 1.259e+04 1.586e-09
 75.17503     89.8 1.263e+04 1.553e-09
 75.19471     89.9 1.267e+04 1.559e-09
 75.21423     89.7 1.285e+04 1.617e-09
 75.22407     89.7 1.264e+04 1.588e-09
 75.23407     88.7 1.317e+04 1.929e-09
 75.25375     88.0 1.382e+04 2.652e-09
 75.27343     88.1 1.458e+04 3.799e-09
 75.29311     88.4 1.514e+04 5.003e-09
 75.31279     88.4 1.549e+04 5.130e-09
 75.32587     88.3 1.550e+04 4.847e-09
 75.33074     88.7 1.609e+04 5.502e-09
 75.33730     88.6 1.613e+04 5.208e-09
 75.34714     88.3 1.633e+04 4.559e-09
 75.35698     88.0 1.642e+04 4.243e-09
 75.36682     86.6 1.649e+04 3.440e-09
 75.37666     85.8 1.630e+04 3.040e-09
 75.38650     83.3 1.577e+04 2.439e-09
 75.39308     81.8 1.517e+04 2.134e-09
 75.39805     82.3 1.453e+04 1.900e-09
 75.41120     78.3 1.280e+04 1.421e-09
 75.43088     75.8 1.176e+04 1.285e-09
 75.45056     75.8 1.178e+04 1.340e-09
 75.47024     76.0 1.193e+04 1.419e-09
 75.48992     76.4 1.206e+04 1.494e-09
 75.50961     77.7 1.220e+04 1.521e-09
 75.52929     78.4 1.228e+04 1.544e-09
 75.55254     79.9 1.266e+04 1.702e-09
 75.57222     81.2 1.222e+04 1.512e-09
 75.58833     82.6 1.237e+04 1.613e-09
 75.60801     84.2 1.264e+04 1.787e-09
 75.62769     85.8 1.303e+04 2.047e-09
 75.64737     87.4 1.347e+04 2.368e-09
 75.66705     89.2 1.395e+04 2.749e-09
 75.68674     91.0 1.448e+04 3.201e-09
 75.70642     92.9 1.502e+04 3.693e-09
 75.72610     94.7 1.557e+04 4.199e-09
 75.73632     96.6 1.613e+04 4.727e-09
 75.74539     97.9 1.579e+04 4.317e-09
 75.75485     97.5 1.470e+04 2.592e-09
 75.76546     99.6 1.521e+04 2.791e-09
 75.78514    101.7 1.564e+04 2.966e-09
 75.80482    103.8 1.593e+04 3.107e-09
 75.82450    105.9 1.608e+04 3.215e-09
 75.84418    108.2 1.622e+04 3.330e-09
 75.86387    110.6 1.660e+04 3.500e-09
 75.88355    113.3 1.744e+04 3.796e-09
 75.90051    116.5 1.858e+04 4.322e-09
 75.91035    118.0 1.940e+04 4.538e-09
 75.92291    122.0 2.199e+04 5.922e-09
 75.94259    127.7 2.627e+04 8.318e-09
 75.95730    128.1 2.824e+04 9.907e-09
 75.96432    128.9 2.897e+04 1.088e-08
 75.96924    134.8 3.180e+04 1.046e-08
 75.97693    137.3 3.223e+04 1.118e-08
 75.98677    136.5 3.666e+04 1.176e-08
 75.99235    122.7 6.658e+04 7.634e-09
 75.99478    110.6 6.868e+04 1.160e-08
 75.99903    100.1 6.882e+04 1.308e-08
 76.00395     94.3 5.554e+04 2.920e-08
 76.00887     82.2 4.020e+04 3.945e-07
 76.01379     64.1 2.062e+04 2.663e-05
 76.01746     46.8 1.136e+04 8.410e-03
 76.01910     35.4 1.039e+04 1.574e-02
 76.02033     30.7 1.077e+04 1.122e-02
 76.02237     27.5 1.334e+04 1.142e-03
 76.02483     29.3 1.943e+04 9.863e-06
 76.02729     28.5 2.027e+04 2.362e-06
 76.02975     26.9 1.916e+04 2.837e-06
 76.03333     27.8 1.766e+04 9.438e-06
 76.03580     23.8 1.810e+04 6.064e-06
 76.03839      6.9 2.196e+04 1.064e-05
 76.04331    -23.6 4.298e+04 6.824e-07
 76.04823    -50.6 6.077e+04 9.365e-08
 76.05315    -70.4 8.767e+04 9.368e-09
 76.05807    -71.4 1.124e+05 3.391e-09
 76.06547   -103.4 1.079e+05 5.010e-10
 76.07444   -124.9 2.548e+04 6.355e-10
 76.07936   -116.1 2.387e+04 6.661e-10
 76.08518   -118.0 1.522e+04 7.220e-10
 76.09502   -113.4 1.461e+04 6.995e-10
 76.10486   -109.3 1.370e+04 6.464e-10
 76.11967   -101.5 1.219e+04 6.352e-10
 76.13940    -94.0 1.147e+04 6.047e-10
 76.15908    -88.0 1.133e+04 6.089e-10
 76.17399    -82.7 1.123e+04 5.836e-10
 76.18383    -82.0 1.101e+04 4.209e-10
 76.19844    -77.1 1.082e+04 3.819e-10
 76.21812    -73.1 1.071e+04 3.559e-10
 76.23781    -70.6 1.058e+04 3.317e-10
 76.24857    -66.6 1.030e+04 3.010e-10
 76.25841    -65.8 1.019e+04 2.913e-10
 76.27717    -63.9 1.013e+04 2.787e-10
 76.30679    -59.7 1.011e+04 2.732e-10
 76.34625    -55.0 9.970e+03 2.415e-10
 76.38561    -50.2 9.829e+03 2.086e-10
 76.42497    -45.5 9.756e+03 1.876e-10
 76.46433    -41.0 9.722e+03 1.795e-10
 76.50370    -36.7 9.721e+03 1.758e-10
 76.54306    -32.6 9.737e+03 1.723e-10
 76.57714    -28.8 9.737e+03 1.667e-10
 76.59682    -28.5 9.700e+03 1.610e-10
 76.60316    -24.9 9.693e+03 1.547e-10
 76.62284    -24.4 9.340e+03 1.270e-10
 76.66114    -20.9 9.377e+03 1.209e-10
 76.70051    -17.7 9.374e+03 1.185e-10
 76.73987    -14.4 9.308e+03 1.298e-10
 76.77923    -11.0 9.310e+03 1.326e-10
 76.81859     -7.7 9.299e+03 1.282e-10
 76.85796     -4.5 9.268e+03 1.159e-10
 76.89732     -1.3 9.210e+03 9.762e-11
 76.92521      1.4 9.180e+03 8.196e-11
 76.94489      2.0 9.294e+03 9.009e-11
 76.97604      4.4 9.257e+03 7.912e-11
 77.01540      6.6 9.224e+03 8.107e-11
 77.05477      8.9 9.222e+03 9.096e-11
 77.09413     11.5 9.255e+03 1.014e-10
 77.13349     14.1 9.290e+03 1.016e-10
 77.17285     16.6 9.322e+03 9.727e-11
 77.21221     19.0 9.351e+03 9.049e-11
 77.25158     21.2 9.391e+03 8.969e-11
 77.27327     23.5 9.425e+03 9.343e-11
 77.29295     23.6 9.410e+03 8.847e-11
 77.33030     25.9 9.472e+03 9.985e-11
 77.36966     28.3 9.560e+03 1.213e-10
 77.40903     30.6 9.706e+03 1.564e-10
 77.44143     32.9 9.919e+03 2.101e-10
 77.46111     32.9 9.714e+03 1.642e-10
 77.48775     35.1 9.948e+03 2.164e-10
 77.52711     37.1 1.023e+04 2.788e-10
 77.56647     38.9 1.044e+04 3.056e-10
 77.60165     40.4 1.046e+04 2.992e-10
 77.62133     40.6 1.061e+04 3.460e-10
 77.64520     42.2 1.056e+04 3.017e-10
 77.68456     43.9 1.042e+04 2.232e-10
 77.72392     45.6 1.029e+04 1.534e-10
 77.76329     47.2 1.022e+04 1.104e-10
 77.80265     48.9 1.014e+04 9.144e-11
 77.84201     50.9 1.008e+04 8.725e-11
 77.88137     53.1 1.003e+04 8.475e-11
 77.92073     55.4 1.000e+04 8.139e-11
 77.94971     57.7 9.960e+03 7.694e-11
 77.96939     57.7 9.925e+03 6.544e-11
 77.99946     59.7 9.838e+03 6.114e-11
 78.03882     61.8 9.793e+03 6.089e-11
 78.07818     63.8 9.780e+03 6.207e-11
 78.11754     65.8 9.754e+03 6.727e-11
 78.15691     67.8 9.740e+03 7.741e-11
 78.19627     69.8 9.734e+03 9.095e-11
 78.23563     71.9 9.736e+03 1.048e-10
 78.27499     73.9 9.735e+03 1.156e-10
 78.29777     76.0 9.733e+03 1.217e-10
 78.30248     76.0 9.623e+03 9.019e-11
 78.31907     76.4 9.541e+03 8.552e-11
 78.35372     78.4 9.532e+03 8.808e-11
 78.39308     80.3 9.526e+03 9.541e-11
 78.43244     82.3 9.539e+03 1.115e-10
 78.47180     84.3 9.575e+03 1.370e-10
 78.51117     86.4 9.622e+03 1.670e-10
 78.55053     88.5 9.650e+03 1.908e-10
 78.58989     90.6 9.639e+03 2.012e-10
 78.62615     92.6 9.615e+03 1.999e-10
 78.64583     93.0 9.571e+03 1.873e-10
 78.66862     95.1 9.460e+03 1.728e-10
 78.70798     97.3 9.340e+03 1.516e-10
 78.74734     99.6 9.229e+03 1.303e-10
 78.78670    101.8 9.124e+03 1.137e-10
 78.82606    104.1 8.929e+03 1.086e-10
 78.86543    106.5 8.897e+03 1.088e-10
 78.90479    109.0 8.890e+03 1.097e-10
 78.94415    111.6 8.876e+03 1.141e-10
 78.97421    114.1 8.880e+03 1.240e-10
 78.99389    114.7 8.810e+03 1.024e-10
 79.02287    117.3 8.837e+03 1.145e-10
 79.06224    119.9 8.891e+03 1.309e-10
 79.10160    122.5 8.961e+03 1.512e-10
 79.13766    125.0 9.038e+03 1.744e-10
 79.15734    125.2 9.020e+03 1.737e-10
 79.18032    127.8 9.108e+03 1.994e-10
 79.21969    130.2 9.187e+03 2.256e-10
 79.25905    132.6 9.247e+03 2.515e-10
 79.29841    135.1 9.325e+03 2.801e-10
 79.32227    137.6 9.452e+03 3.155e-10
 79.34195    138.2 9.452e+03 2.991e-10
 79.37713    140.6 9.688e+03 3.576e-10
 79.40656    141.5 9.781e+03 3.923e-10
 79.42614    142.5 9.870e+03 4.281e-10
 79.44582    143.6 9.999e+03 4.763e-10
 79.46550    144.6 1.019e+04 5.352e-10
 79.48518    145.4 1.041e+04 5.956e-10
 79.49611    145.9 1.070e+04 6.719e-10
 79.50595    145.7 1.122e+04 8.540e-10
 79.52455    145.9 1.174e+04 1.075e-09
 79.54423    146.0 1.223e+04 1.362e-09
 79.56391    146.1 1.261e+04 1.689e-09
 79.57629    146.4 1.287e+04 1.992e-09
 79.58613    147.1 1.221e+04 1.371e-09
 79.60327    147.5 1.244e+04 1.601e-09
 79.62295    147.9 1.256e+04 1.750e-09
 79.64263    148.5 1.260e+04 1.862e-09
 79.66030    149.0 1.258e+04 1.862e-09
 79.67014    149.2 1.326e+04 2.623e-09
 79.68200    149.8 1.308e+04 2.377e-09
 79.70168    150.3 1.288e+04 2.088e-09
 79.72136    150.7 1.265e+04 1.815e-09
 79.74104    151.1 1.235e+04 1.594e-09
 79.76072    151.5 1.205e+04 1.409e-09
 79.78040    152.0 1.173e+04 1.247e-09
 79.80008    152.6 1.142e+04 1.111e-09
 79.81976    153.2 1.116e+04 1.003e-09
 79.83433    153.8 1.098e+04 9.309e-10
 79.84417    153.5 1.075e+04 8.408e-10
 79.85913    154.1 1.067e+04 8.107e-10
 79.87881    154.7 1.067e+04 8.118e-10
 79.89849    155.3 1.071e+04 8.211e-10
 79.91817    155.9 1.081e+04 8.590e-10
 79.93785    156.5 1.097e+04 9.345e-10
 79.95753    157.0 1.116e+04 1.041e-09
 79.97721    157.6 1.134e+04 1.161e-09
 79.99542    158.3 1.146e+04 1.249e-09
 80.00526    158.9 1.218e+04 1.772e-09
 80.00836    159.4 1.219e+04 1.770e-09
 80.01820    159.1 1.185e+04 1.517e-09
 80.03626    159.6 1.184e+04 1.491e-09
 80.05594    160.1 1.174e+04 1.396e-09
 80.07562    160.7 1.155e+04 1.239e-09
 80.09530    161.2 1.129e+04 1.057e-09
 80.11498    161.7 1.100e+04 8.869e-10
 80.13466    162.0 1.071e+04 7.502e-10
 80.15434    162.3 1.049e+04 6.652e-10
 80.17255    162.5 1.040e+04 6.450e-10
 80.18239    162.1 1.036e+04 6.685e-10
 80.19370    162.4 1.052e+04 7.321e-10
 80.21339    162.6 1.086e+04 8.558e-10
 80.23307    162.7 1.131e+04 1.046e-09
 80.25275    162.7 1.183e+04 1.308e-09
 80.27243    162.7 1.239e+04 1.633e-09
 80.29211    162.6 1.293e+04 2.004e-09
 80.31179    162.5 1.336e+04 2.378e-09
 80.33147    162.3 1.362e+04 2.710e-09
 80.34658    162.2 1.377e+04 2.871e-09
 80.35642    161.9 1.350e+04 2.930e-09
 80.37083    162.0 1.332e+04 2.871e-09
 80.39051    162.1 1.306e+04 2.686e-09
 80.41020    162.3 1.282e+04 2.415e-09
 80.42440    162.2 1.255e+04 2.040e-09
 80.43424    162.8 1.270e+04 2.131e-09
 80.44956    162.6 1.254e+04 1.889e-09
 80.46924    162.3 1.235e+04 1.607e-09
 80.48892    162.0 1.209e+04 1.332e-09
 80.51854    161.3 1.122e+04 8.480e-10
 80.55800    160.9 1.046e+04 5.412e-10
 80.59736    160.2 9.452e+03 3.122e-10
 80.63672    159.6 8.714e+03 2.249e-10
 80.67515    159.7 8.634e+03 2.181e-10
 80.69484    161.3 8.804e+03 2.535e-10
 80.71545    161.7 8.784e+03 2.530e-10
 80.75481    162.4 8.786e+03 2.565e-10
 80.79417    163.5 8.825e+03 2.725e-10
 80.83353    164.8 8.937e+03 3.020e-10
 80.85357    166.3 9.080e+03 3.353e-10
 80.87325    166.0 9.112e+03 3.462e-10
 80.91226    167.3 9.259e+03 3.783e-10
 80.95162    168.7 9.298e+03 3.847e-10
 80.99098    170.2 9.295e+03 3.815e-10
 81.02322    171.9 9.280e+03 3.693e-10
 81.04290    172.5 9.277e+03 3.650e-10
 81.06971    174.2 9.232e+03 3.432e-10
 81.10907    175.9 9.233e+03 3.359e-10
 81.14843    177.6 9.250e+03 3.374e-10
 81.18779    179.1 9.314e+03 3.465e-10
 81.22716    180.5 9.407e+03 3.631e-10
 81.26652    181.8 9.517e+03 3.745e-10
 81.30588    182.9 9.619e+03 3.733e-10
 81.34524    183.4 9.651e+03 3.679e-10
 81.37118    184.0 9.509e+03 3.240e-10
 81.38092    184.4 9.456e+03 3.213e-10
 81.39425    184.5 9.379e+03 3.030e-10
 81.41393    184.5 9.384e+03 3.038e-10
 81.43361    184.4 9.438e+03 3.148e-10
 81.45329    184.2 9.559e+03 3.406e-10
 81.47297    184.0 9.761e+03 3.829e-10
 81.49266    183.6 1.003e+04 4.436e-10
 81.51234    183.2 1.033e+04 5.245e-10
 81.53202    182.5 1.068e+04 6.286e-10
 81.54511    181.4 1.111e+04 7.699e-10
 81.55495    182.3 1.098e+04 7.307e-10
 81.57138    180.9 1.145e+04 9.034e-10
 81.59106    179.2 1.201e+04 1.160e-09
 81.61074    177.4 1.248e+04 1.499e-09
 81.63042    175.9 1.278e+04 1.816e-09
 81.65010    174.6 1.292e+04 1.961e-09
 81.66979    173.4 1.291e+04 1.902e-09
 81.69175    170.3 1.270e+04 1.465e-09
 81.71153    171.8 1.264e+04 1.478e-09
 81.73886    171.0 1.233e+04 1.226e-09
 81.77823    169.1 1.157e+04 6.579e-10
 81.81759    167.3 1.042e+04 2.834e-10
 81.85695    166.1 9.615e+03 1.858e-10
 81.89631    166.2 9.563e+03 1.848e-10
 81.93568    166.6 9.553e+03 1.881e-10
 81.97504    167.3 9.586e+03 2.063e-10
 82.01440    168.3 9.778e+03 2.471e-10
 82.04772    169.4 1.003e+04 3.088e-10
 82.06740    170.8 1.002e+04 3.130e-10
 82.09312    171.7 1.020e+04 3.670e-10
 82.12073    171.7 1.025e+04 3.968e-10
 82.13047    171.8 1.026e+04 4.057e-10
 82.14213    172.7 1.036e+04 4.636e-10
 82.16181    173.8 1.057e+04 5.612e-10
 82.18149    174.7 1.083e+04 6.686e-10
 82.20117    175.5 1.105e+04 7.605e-10
 82.22086    176.1 1.123e+04 8.266e-10
 82.23139    176.6 1.133e+04 8.505e-10
 82.24123    177.5 1.098e+04 6.384e-10
 82.26022    177.9 1.100e+04 6.438e-10
 82.27990    178.4 1.099e+04 6.438e-10
 82.29958    178.8 1.096e+04 6.395e-10
 82.31926    179.4 1.091e+04 6.304e-10
 82.33894    179.9 1.086e+04 6.292e-10
 82.35862    180.5 1.086e+04 6.322e-10
 82.37830    181.2 1.088e+04 6.446e-10
 82.39558    181.8 1.096e+04 6.747e-10
 82.40542    182.4 1.076e+04 5.583e-10
 82.41767    183.0 1.088e+04 5.859e-10
 82.43735    183.6 1.103e+04 6.088e-10
 82.45703    184.0 1.120e+04 6.113e-10
 82.47671    184.3 1.123e+04 6.081e-10
 82.49639    184.4 1.128e+04 5.898e-10
 82.51607    184.4 1.126e+04 5.487e-10
 82.53575    184.4 1.116e+04 4.961e-10
 82.54970    183.8 1.077e+04 3.845e-10
 82.55954    185.9 1.135e+04 5.293e-10
 82.56961    185.5 1.110e+04 4.350e-10
 82.57946    185.4 1.085e+04 3.957e-10
 82.59480    184.9 1.068e+04 3.549e-10
 82.61448    184.4 1.049e+04 3.255e-10
 82.63416    183.9 1.041e+04 3.201e-10
 82.65384    183.5 1.037e+04 3.185e-10
 82.67352    183.1 1.038e+04 3.222e-10
 82.69320    182.8 1.038e+04 3.301e-10
 82.71288    182.5 1.043e+04 3.570e-10
 82.73256    182.1 1.061e+04 4.164e-10
 82.74365    181.7 1.088e+04 5.132e-10
 82.75349    181.9 1.111e+04 6.066e-10
 82.77193    181.3 1.141e+04 7.398e-10
 82.79161    180.5 1.174e+04 9.038e-10
 82.81129    179.5 1.207e+04 1.086e-09
 82.83097    178.3 1.236e+04 1.242e-09
 82.85065    177.0 1.254e+04 1.284e-09
 82.87033    175.4 1.254e+04 1.278e-09
 82.89001    173.8 1.249e+04 1.227e-09
 82.90784    172.3 1.231e+04 1.058e-09
 82.91768    172.9 1.239e+04 1.107e-09
 82.92937    171.6 1.215e+04 8.753e-10
 82.94906    170.2 1.186e+04 6.298e-10
 82.96874    168.4 1.161e+04 4.491e-10
 82.98842    162.2 1.222e+04 5.740e-10
 83.00810    160.2 1.213e+04 6.291e-10
 83.02778    159.6 1.208e+04 7.718e-10
 83.04746    159.6 1.210e+04 9.707e-10
 83.06714    160.1 1.212e+04 1.140e-09
 83.08187    160.9 1.215e+04 1.180e-09
 83.09171    161.4 1.211e+04 1.108e-09
 83.10650    162.3 1.208e+04 1.097e-09
 83.12619    163.1 1.199e+04 1.043e-09
 83.14587    163.7 1.186e+04 9.392e-10
 83.16555    164.1 1.169e+04 8.192e-10
 83.18523    164.3 1.160e+04 7.363e-10
 83.20491    164.5 1.163e+04 7.268e-10
 83.22459    164.6 1.169e+04 7.398e-10
 83.24427    164.7 1.186e+04 8.076e-10
 83.25590    164.7 1.204e+04 9.474e-10
 83.26574    165.2 1.218e+04 9.676e-10
 83.28363    165.4 1.240e+04 1.202e-09
 83.30332    166.0 1.256e+04 1.486e-09
 83.32300    166.8 1.270e+04 1.763e-09
 83.34268    167.8 1.279e+04 1.909e-09
 83.36236    168.7 1.279e+04 1.904e-09
 83.38204    169.7 1.271e+04 1.829e-09
 83.39772    170.8 1.250e+04 1.620e-09
 83.40756    169.8 1.207e+04 1.227e-09
 83.42009    170.8 1.168e+04 9.449e-10
 83.42993    171.0 1.201e+04 1.060e-09
 83.44108    171.7 1.156e+04 8.020e-10
 83.46076    172.3 1.102e+04 6.224e-10
 83.48045    173.0 1.051e+04 5.187e-10
 83.50013    173.9 1.011e+04 4.725e-10
 83.51981    175.1 9.961e+03 4.680e-10
 83.53949    176.6 9.955e+03 4.695e-10
 83.55917    178.3 9.969e+03 4.769e-10
 83.57885    180.0 1.002e+04 4.954e-10
 83.59412    181.6 1.009e+04 5.242e-10
 83.60396    182.0 9.964e+03 4.867e-10
 83.61821    183.7 1.003e+04 5.110e-10
 83.63789    185.4 1.013e+04 5.400e-10
 83.65758    187.2 1.022e+04 5.714e-10
 83.67726    188.9 1.031e+04 6.077e-10
 83.69694    190.6 1.056e+04 6.799e-10
 83.71662    191.5 1.144e+04 8.776e-10
 83.73630    191.6 1.316e+04 1.390e-09
 83.75598    191.5 1.486e+04 2.418e-09
 83.76815    191.3 1.577e+04 3.432e-09
 83.77799    193.5 1.498e+04 2.087e-09
 83.79534    193.1 1.614e+04 3.214e-09
 83.81005    192.2 1.732e+04 4.908e-09
 83.81985    191.8 1.829e+04 7.226e-09
 83.82660    191.6 1.910e+04 1.001e-08
 83.83152    191.1 1.944e+04 1.230e-08
 83.83953    191.0 2.011e+04 1.526e-08
 83.84937    190.6 2.069e+04 1.799e-08
 83.85507    190.1 2.124e+04 2.042e-08
 83.85999    191.5 2.115e+04 1.718e-08
 83.86905    191.3 2.155e+04 1.956e-08
 83.87889    190.9 2.196e+04 2.099e-08
 83.89370    188.4 2.215e+04 2.021e-08
 83.91343    186.2 2.227e+04 1.645e-08
 83.93234    183.2 2.169e+04 1.071e-08
 83.94218    188.2 2.234e+04 1.354e-08
 83.95279    184.6 2.233e+04 9.545e-09
 83.97247    180.1 2.136e+04 6.285e-09
 83.99215    175.3 1.923e+04 4.118e-09
 84.01183    171.2 1.657e+04 2.726e-09
 84.03152    168.4 1.428e+04 1.768e-09
 84.05120    166.3 1.255e+04 1.084e-09
 84.07088    164.1 1.125e+04 6.337e-10
 84.09056    161.1 1.025e+04 3.780e-10
 84.10637    157.8 9.785e+03 2.827e-10
 84.11621    158.2 1.033e+04 3.561e-10
 84.12992    155.0 9.920e+03 3.360e-10
 84.14960    153.0 9.869e+03 3.334e-10
 84.16928    151.7 9.901e+03 3.375e-10
 84.18896    150.6 1.014e+04 3.630e-10
 84.20865    148.0 1.120e+04 4.698e-10
 84.22833    142.7 1.408e+04 9.467e-10
 84.24584    137.0 1.656e+04 2.332e-09
 84.25568    139.7 1.501e+04 1.354e-09
 84.26769    134.5 1.723e+04 3.212e-09
 84.28040    131.5 1.835e+04 6.171e-09
 84.29024    129.1 1.969e+04 9.949e-09
 84.30705    128.5 2.006e+04 1.131e-08
 84.32673    128.2 1.997e+04 1.063e-08
 84.34641    127.9 1.955e+04 7.955e-09
 84.36609    126.9 1.870e+04 4.592e-09
 84.38578    124.3 1.699e+04 2.256e-09
 84.40546    120.5 1.410e+04 1.259e-09
 84.42514    118.1 1.252e+04 1.104e-09
 84.44459    117.6 1.249e+04 1.113e-09
 84.45443    117.6 1.261e+04 1.231e-09
 84.46450    117.7 1.268e+04 1.278e-09
 84.48418    117.7 1.277e+04 1.328e-09
 84.50386    117.7 1.281e+04 1.353e-09
 84.52354    117.6 1.280e+04 1.353e-09
 84.54322    117.5 1.274e+04 1.335e-09
 84.56290    117.4 1.267e+04 1.310e-09
 84.58259    117.1 1.255e+04 1.247e-09
 84.60227    116.9 1.242e+04 1.163e-09
 84.61862    116.6 1.219e+04 1.017e-09
 84.62846    117.3 1.265e+04 1.160e-09
 84.64163    116.7 1.243e+04 9.890e-10
 84.66131    116.2 1.223e+04 8.252e-10
 84.69093    115.7 1.197e+04 6.868e-10
 84.73039    114.2 1.142e+04 4.635e-10
 84.76975    112.6 1.116e+04 4.162e-10
 84.79285    111.1 1.114e+04 4.514e-10
 84.81253    111.7 1.206e+04 6.537e-10
 84.84848    110.6 1.202e+04 7.088e-10
 84.88784    108.8 1.219e+04 7.628e-10
 84.91726    107.2 1.215e+04 7.544e-10
 84.93685    106.1 1.208e+04 7.214e-10
 84.95653    105.0 1.186e+04 6.397e-10
 84.96668    103.7 1.162e+04 5.324e-10
 84.97652    103.4 1.158e+04 5.408e-10
 84.99589    101.4 1.133e+04 4.201e-10
 85.01557     98.9 1.112e+04 3.107e-10
 85.03525     95.4 1.176e+04 3.117e-10
 85.05493     87.9 1.512e+04 4.564e-10
 85.07461     78.2 1.905e+04 1.259e-09
 85.08933     71.2 2.089e+04 2.960e-09
 85.09877     66.6 2.125e+04 6.012e-09
 85.10369     65.1 2.194e+04 9.259e-09
 85.10896     62.1 2.174e+04 1.459e-08
 85.11880     60.3 2.204e+04 1.915e-08
 85.12864     58.3 2.426e+04 1.774e-08
 85.13569     56.8 2.453e+04 1.626e-08
 85.14066     54.2 2.452e+04 1.173e-08
 85.15334     47.3 2.372e+04 4.442e-09
 85.17302     36.0 2.111e+04 1.252e-09
 85.19270     24.2 1.813e+04 4.749e-10
 85.21238     17.9 2.486e+04 2.435e-10
 85.23206     13.3 3.022e+04 2.337e-10
 85.25174      9.6 4.630e+04 1.957e-10
 85.27142      0.5 7.565e+04 1.655e-10
 85.29111    -14.3 1.137e+05 1.764e-10
 85.30485    -42.6 9.839e+04 9.804e-10
 85.30972    -51.9 4.435e+04 2.418e-08
 85.31326    -54.5 3.142e+04 1.063e-07
 85.31818    -53.9 4.159e+04 2.245e-08
 85.32545    -56.0 2.856e+04 1.120e-07
 85.33529    -56.7 2.483e+04 2.912e-07
 85.34513    -57.9 2.507e+04 4.207e-07
 85.35497    -60.1 2.632e+04 4.293e-07
 85.36481    -64.3 3.041e+04 2.494e-07
 85.37465    -71.7 3.792e+04 4.428e-08
 85.38449    -83.0 4.112e+04 3.722e-09
 85.39182    -94.0 2.504e+04 9.410e-10
 85.39674    -99.0 1.280e+04 7.235e-10
 85.40417    -98.0 1.190e+04 7.898e-10
 85.41401    -97.7 1.187e+04 8.150e-10
 85.42882    -96.1 1.217e+04 9.096e-10
 85.44855    -94.0 1.208e+04 9.240e-10
 85.46823    -91.9 1.198e+04 9.095e-10
 85.47893    -89.8 1.198e+04 9.089e-10
 85.48877    -89.8 1.185e+04 8.577e-10
 85.50760    -87.8 1.183e+04 8.426e-10
 85.52293    -85.8 1.184e+04 8.239e-10
 85.53277    -85.2 1.173e+04 7.612e-10
 85.54696    -83.5 1.174e+04 7.602e-10
 85.56664    -82.0 1.174e+04 7.831e-10
 85.58632    -80.5 1.178e+04 8.186e-10
 85.60600    -79.0 1.193e+04 8.800e-10
 85.62568    -77.6 1.218e+04 9.886e-10
 85.64312    -76.2 1.247e+04 1.137e-09
 85.65296    -76.5 1.196e+04 9.240e-10
 85.66505    -75.0 1.213e+04 1.048e-09
 85.68473    -73.4 1.236e+04 1.205e-09
 85.70441    -72.1 1.274e+04 1.415e-09
 85.72409    -71.0 1.335e+04 1.721e-09
 85.74377    -70.1 1.427e+04 2.239e-09
 85.76345    -69.4 1.522e+04 3.041e-09
 85.78313    -68.4 1.585e+04 3.896e-09
 85.80281    -67.5 1.605e+04 4.319e-09
 85.81710    -67.1 1.607e+04 4.480e-09
 85.82695    -67.8 1.572e+04 3.944e-09
 85.83721    -67.5 1.631e+04 4.738e-09
 85.84700    -68.1 1.677e+04 5.188e-09
 85.85684    -68.7 1.773e+04 6.278e-09
 85.86668    -69.6 1.854e+04 7.414e-09
 85.87652    -70.4 1.927e+04 8.853e-09
 85.88636    -71.0 1.961e+04 9.951e-09
 85.89620    -71.4 1.968e+04 1.083e-08
 85.90407    -71.8 1.964e+04 1.107e-08
 85.90899    -71.2 1.886e+04 9.381e-09
 85.91588    -71.5 1.875e+04 9.483e-09
 85.92572    -71.7 1.838e+04 9.257e-09
 85.93556    -71.9 1.798e+04 8.782e-09
 85.94540    -72.1 1.758e+04 8.205e-09
 85.95181    -72.2 1.724e+04 7.643e-09
 85.95673    -71.7 1.806e+04 9.399e-09
 85.96508    -71.8 1.790e+04 8.621e-09
 85.97989    -72.2 1.813e+04 8.154e-09
 85.99118    -74.2 1.768e+04 6.203e-09
 86.00102    -72.9 1.714e+04 5.661e-09
 86.01931    -75.7 1.718e+04 5.398e-09
 86.03899    -78.6 1.743e+04 5.645e-09
 86.05867    -81.1 1.751e+04 6.658e-09
 86.07835    -82.7 1.786e+04 7.849e-09
 86.09803    -84.9 1.799e+04 8.193e-09
 86.11771    -87.7 1.783e+04 7.244e-09
 86.13739    -91.3 1.691e+04 4.929e-09
 86.15537    -95.8 1.531e+04 3.191e-09
 86.16521    -95.4 1.582e+04 3.657e-09
 86.17675    -99.3 1.422e+04 2.529e-09
 86.19644   -101.6 1.341e+04 1.913e-09
 86.21612   -103.5 1.306e+04 1.546e-09
 86.23580   -105.8 1.282e+04 1.359e-09
 86.25548   -108.2 1.272e+04 1.315e-09
 86.27516   -110.2 1.269e+04 1.338e-09
 86.29484   -111.8 1.279e+04 1.455e-09
 86.31452   -113.0 1.289e+04 1.535e-09
 86.32940   -114.3 1.291e+04 1.552e-09
 86.33925   -114.7 1.309e+04 1.710e-09
 86.35388   -116.2 1.298e+04 1.528e-09
 86.37104   -118.3 1.282e+04 1.317e-09
 86.38088   -118.4 1.274e+04 1.241e-09
 86.39325   -121.0 1.258e+04 1.133e-09
 86.41293   -123.4 1.243e+04 1.090e-09
 86.43261   -125.4 1.230e+04 1.071e-09
 86.45229   -127.1 1.217e+04 1.054e-09
 86.47197   -128.5 1.200e+04 1.008e-09
 86.49165   -129.8 1.179e+04 9.246e-10
 86.50344   -131.1 1.160e+04 8.383e-10
 86.51328   -130.6 1.150e+04 7.800e-10
 86.53101   -131.9 1.147e+04 7.675e-10
 86.55069   -133.1 1.147e+04 7.773e-10
 86.57038   -134.3 1.156e+04 8.256e-10
 86.59006   -135.2 1.168e+04 8.952e-10
 86.60974   -135.8 1.177e+04 9.403e-10
 86.62942   -136.1 1.180e+04 9.494e-10
 86.64910   -136.3 1.179e+04 9.331e-10
 86.66763   -136.3 1.169e+04 8.823e-10
 86.67747   -135.5 1.217e+04 1.124e-09
 86.68846   -135.3 1.194e+04 9.973e-10
 86.70814   -135.0 1.170e+04 8.889e-10
 86.72782   -134.6 1.152e+04 8.172e-10
 86.74751   -134.1 1.144e+04 7.885e-10
 86.76719   -133.4 1.143e+04 7.925e-10
 86.78687   -132.7 1.161e+04 8.553e-10
 86.80002   -131.9 1.185e+04 9.583e-10
 86.80986   -131.2 1.204e+04 1.052e-09
 86.82623   -130.4 1.244e+04 1.245e-09
 86.84166   -129.7 1.296e+04 1.540e-09
 86.85150   -128.3 1.266e+04 1.391e-09
 86.86559   -127.4 1.314e+04 1.685e-09
 86.88527   -126.4 1.374e+04 2.108e-09
 86.90495   -125.4 1.438e+04 2.678e-09
 86.92464   -124.4 1.498e+04 3.364e-09
 86.94432   -123.3 1.549e+04 3.976e-09
 86.96400   -122.1 1.591e+04 4.519e-09
 86.98368   -120.9 1.631e+04 5.114e-09
 87.00336   -119.8 1.665e+04 5.529e-09
 87.01569   -118.8 1.684e+04 5.610e-09
 87.02553   -117.1 1.713e+04 6.592e-09
 87.04272   -116.0 1.740e+04 6.887e-09
 87.06240   -115.0 1.747e+04 6.535e-09
 87.08208   -114.1 1.737e+04 5.631e-09
 87.10177   -113.5 1.706e+04 4.458e-09
 87.12145   -113.1 1.650e+04 3.368e-09
 87.14113   -112.9 1.565e+04 2.566e-09
 87.16081   -112.6 1.456e+04 2.101e-09
 87.17988   -112.1 1.366e+04 1.918e-09
 87.18972   -109.1 1.621e+04 2.345e-09
 87.20017   -108.9 1.491e+04 1.963e-09
 87.21916   -108.4 1.382e+04 1.853e-09
 87.22900   -108.6 1.326e+04 1.450e-09
 87.23953   -107.9 1.255e+04 1.425e-09
 87.25921   -106.8 1.238e+04 1.418e-09
 87.27889   -105.4 1.242e+04 1.433e-09
 87.29858   -103.9 1.257e+04 1.511e-09
 87.31826   -102.3 1.279e+04 1.636e-09
 87.33794   -100.7 1.313e+04 1.820e-09
 87.35391    -98.9 1.360e+04 2.077e-09
 87.36375    -98.2 1.383e+04 2.184e-09
 87.37730    -96.4 1.439e+04 2.583e-09
 87.39698    -94.6 1.503e+04 3.093e-09
 87.41666    -92.7 1.571e+04 3.681e-09
 87.43634    -90.7 1.640e+04 4.311e-09
 87.45602    -88.7 1.709e+04 4.880e-09
 87.47571    -86.8 1.774e+04 5.274e-09
 87.49539    -85.0 1.835e+04 5.493e-09
 87.51507    -83.2 1.898e+04 5.621e-09
 87.52794    -81.9 1.955e+04 5.792e-09
 87.53778    -80.7 2.053e+04 8.301e-09
 87.55443    -79.8 2.135e+04 9.281e-09
 87.57411    -79.2 2.196e+04 1.163e-08
 87.58882    -79.7 2.114e+04 1.237e-08
 87.59861    -79.5 2.129e+04 1.592e-08
 87.60846    -79.6 2.122e+04 1.932e-08
 87.61486    -79.3 2.129e+04 2.540e-08
 87.61978    -78.9 2.254e+04 3.467e-08
 87.62814    -78.4 2.250e+04 4.920e-08
 87.63798    -77.8 2.271e+04 6.617e-08
 87.64782    -77.6 2.330e+04 7.788e-08
 87.65296    -78.7 2.368e+04 7.840e-08
 87.65788    -78.5 2.285e+04 5.796e-08
 87.66750    -78.9 2.258e+04 5.002e-08
 87.67734    -79.2 2.296e+04 3.587e-08
 87.68718    -80.0 2.432e+04 2.848e-08
 87.69695    -80.7 2.631e+04 2.730e-08
 87.70187    -82.5 2.812e+04 7.809e-08
 87.70686    -83.0 2.582e+04 1.447e-07
 87.71670    -83.0 2.522e+04 1.741e-07
 87.72654    -83.2 2.641e+04 1.354e-07
 87.73638    -84.5 2.911e+04 7.628e-08
 87.74622    -86.5 3.059e+04 4.509e-08
 87.75606    -88.8 2.879e+04 3.696e-08
 87.76590    -90.4 2.606e+04 3.162e-08
 87.77574    -90.7 2.400e+04 2.762e-08
 87.78397    -90.5 2.254e+04 2.642e-08
 87.78889    -91.5 2.364e+04 6.416e-08
 87.79543    -90.6 2.303e+04 4.835e-08
 87.80527    -89.7 2.269e+04 3.810e-08
 87.81511    -89.1 2.228e+04 2.905e-08
 87.82495    -88.7 2.169e+04 2.184e-08
 87.83479    -88.3 2.117e+04 1.793e-08
 87.84960    -87.2 2.018e+04 1.225e-08
 87.86616    -85.6 1.927e+04 8.713e-09
 87.87600    -86.2 2.054e+04 1.411e-08
 87.88901    -84.8 1.986e+04 1.028e-08
 87.90869    -83.9 1.871e+04 6.534e-09
 87.92837    -83.2 1.718e+04 4.068e-09
 87.94805    -82.7 1.552e+04 2.752e-09
 87.96773    -82.0 1.418e+04 2.066e-09
 87.98741    -81.0 1.318e+04 1.613e-09
 88.00709    -80.1 1.245e+04 1.260e-09
 88.02678    -79.5 1.211e+04 1.068e-09
 88.04019    -78.8 1.167e+04 8.928e-10
 88.05003    -78.4 1.189e+04 9.232e-10
 88.06614    -77.8 1.101e+04 6.491e-10
 88.07711    -77.0 1.070e+04 5.125e-10
 88.08695    -76.8 1.067e+04 5.085e-10
 88.10550    -76.0 1.040e+04 3.996e-10
 88.12518    -75.6 1.013e+04 3.210e-10
 88.15480    -75.6 9.717e+03 2.594e-10
 88.19426    -75.1 9.399e+03 2.133e-10
 88.21442    -74.5 9.282e+03 1.948e-10
 88.23410    -74.4 9.591e+03 2.027e-10
 88.27298    -74.4 9.606e+03 1.988e-10
 88.31235    -73.6 9.564e+03 1.934e-10
 88.35171    -72.1 9.418e+03 1.815e-10
 88.39107    -70.0 9.351e+03 1.697e-10
 88.43043    -67.5 9.369e+03 1.663e-10
 88.46980    -65.4 9.692e+03 1.737e-10
 88.49635    -64.0 9.870e+03 2.022e-10
 88.50609    -63.7 9.806e+03 2.069e-10
 88.51880    -63.9 9.928e+03 2.377e-10
 88.53848    -64.9 1.059e+04 4.064e-10
 88.55244    -66.9 1.227e+04 7.997e-10
 88.56228    -66.7 1.234e+04 7.917e-10
 88.57785    -69.1 1.447e+04 1.618e-09
 88.59753    -71.0 1.593e+04 3.093e-09
 88.61224    -71.2 1.607e+04 3.946e-09
 88.62203    -71.9 1.662e+04 4.969e-09
 88.63684    -72.6 1.742e+04 8.805e-09
 88.65657    -72.2 1.799e+04 1.109e-08
 88.67625    -72.2 1.871e+04 1.069e-08
 88.69593    -72.4 1.813e+04 8.733e-09
 88.71561    -72.9 1.721e+04 5.647e-09
 88.72647    -73.8 1.551e+04 3.100e-09
 88.73631    -73.9 1.722e+04 4.554e-09
 88.75498    -75.0 1.508e+04 2.238e-09
 88.77466    -75.7 1.292e+04 1.334e-09
 88.79434    -75.6 1.170e+04 9.950e-10
 88.81402    -74.5 1.116e+04 8.170e-10
 88.83370    -73.0 1.087e+04 6.998e-10
 88.85338    -71.5 1.061e+04 6.025e-10
 88.87306    -69.9 1.045e+04 5.278e-10
 88.89066    -68.3 1.050e+04 4.919e-10
 88.90050    -69.4 1.072e+04 5.387e-10
 88.91242    -67.7 1.064e+04 5.135e-10
 88.92523    -66.0 1.057e+04 4.889e-10
 88.93507    -66.5 1.055e+04 5.040e-10
 88.95179    -64.7 1.052e+04 4.957e-10
 88.97147    -63.0 1.052e+04 4.911e-10
 88.99115    -61.6 1.052e+04 4.826e-10
 89.02077    -60.1 1.045e+04 4.611e-10
 89.06023    -56.3 1.033e+04 4.516e-10
 89.09959    -53.2 1.045e+04 4.753e-10
 89.13895    -50.5 1.057e+04 5.118e-10
 89.17831    -47.8 1.070e+04 5.587e-10
 89.20774    -45.9 1.081e+04 6.267e-10
 89.22732    -45.6 1.078e+04 6.224e-10
 89.23872    -43.4 1.091e+04 6.789e-10
 89.25850    -43.6 1.072e+04 6.210e-10
 89.28646    -41.7 1.083e+04 6.488e-10
 89.30605    -41.4 1.078e+04 6.439e-10
 89.33462    -39.4 1.084e+04 6.454e-10
 89.35440    -39.8 1.069e+04 5.721e-10
 89.37513    -37.6 1.063e+04 5.448e-10
 89.41449    -35.8 1.063e+04 5.418e-10
 89.45385    -33.8 1.072e+04 5.559e-10
 89.48327    -32.2 1.095e+04 5.857e-10
 89.50286    -31.7 1.083e+04 5.674e-10
 89.52254    -30.1 1.094e+04 5.777e-10
 89.54222    -29.4 1.084e+04 5.435e-10
 89.56190    -28.0 1.084e+04 5.260e-10
 89.57694    -26.9 1.077e+04 5.042e-10
 89.58678    -27.2 1.073e+04 4.872e-10
 89.61120    -25.4 1.062e+04 4.270e-10
 89.65066    -22.8 1.038e+04 3.371e-10
 89.69002    -20.6 1.024e+04 2.835e-10
 89.72939    -18.7 1.019e+04 2.641e-10
 89.76875    -16.5 1.015e+04 2.950e-10
 89.80811    -13.9 1.022e+04 3.693e-10
 89.84747    -11.0 1.027e+04 4.041e-10
 89.88683     -8.1 1.028e+04 3.883e-10
 89.91536     -5.6 1.034e+04 3.456e-10
 89.93504     -5.7 1.008e+04 2.954e-10
 89.96556     -3.3 1.002e+04 2.631e-10
 90.00492     -1.0 1.003e+04 2.409e-10
 90.04428      1.4 9.998e+03 2.238e-10
 90.08364      3.8 9.964e+03 2.153e-10
 90.12301      6.0 1.001e+04 2.218e-10
 90.16237      8.2 1.014e+04 2.450e-10
 90.19267     10.5 1.027e+04 2.749e-10
 90.21236     10.5 1.036e+04 2.727e-10
 90.24109     12.4 1.051e+04 3.214e-10
 90.26342     14.2 1.057e+04 3.644e-10
 90.28310     14.3 1.053e+04 3.582e-10
 90.31982     16.2 1.067e+04 4.029e-10
 90.35918     18.3 1.082e+04 4.094e-10
 90.39854     20.2 1.086e+04 3.946e-10
 90.43790     22.0 1.092e+04 3.633e-10
 90.47727     23.7 1.094e+04 3.341e-10
 90.51663     25.5 1.095e+04 3.239e-10
 90.55599     27.4 1.098e+04 3.208e-10
 90.59180     29.2 1.103e+04 3.288e-10
 90.61148     29.6 1.086e+04 2.786e-10
 90.63472     31.5 1.093e+04 2.910e-10
 90.67408     33.5 1.103e+04 3.220e-10
 90.71344     35.5 1.114e+04 3.711e-10
 90.74286     36.3 1.126e+04 4.515e-10
 90.76245     37.2 1.139e+04 5.121e-10
 90.77548     38.1 1.159e+04 5.729e-10
 90.78532     38.4 1.143e+04 5.144e-10
 90.80181     39.3 1.171e+04 5.833e-10
 90.82149     39.7 1.197e+04 6.381e-10
 90.84117     39.6 1.214e+04 7.055e-10
 90.86085     39.5 1.228e+04 7.975e-10
 90.88053     39.3 1.250e+04 9.316e-10
 90.90021     38.7 1.285e+04 1.124e-09
 90.91990     37.7 1.333e+04 1.402e-09
 90.93958     36.6 1.375e+04 1.743e-09
 90.95926     35.9 1.420e+04 2.422e-09
 90.97894     35.2 1.422e+04 2.561e-09
 90.99862     34.9 1.408e+04 2.303e-09
 91.01830     34.9 1.386e+04 1.841e-09
 91.03798     34.7 1.365e+04 1.357e-09
 91.05043     34.1 1.334e+04 9.630e-10
 91.06027     35.0 1.382e+04 1.616e-09
 91.07734     34.5 1.349e+04 1.125e-09
 91.09703     34.0 1.289e+04 7.341e-10
 91.11370     33.4 1.248e+04 5.995e-10
 91.12354     33.5 1.234e+04 5.349e-10
 91.14633     34.4 1.206e+04 4.610e-10
 91.18579     35.3 1.141e+04 2.881e-10
 91.22515     36.7 1.110e+04 2.089e-10
 91.26451     38.6 1.104e+04 1.956e-10
 91.28792     40.6 1.108e+04 2.062e-10
 91.30760     41.1 1.109e+04 2.036e-10
 91.34323     42.9 1.121e+04 2.297e-10
 91.38260     44.5 1.133e+04 2.661e-10
 91.42196     45.7 1.142e+04 3.126e-10
 91.45138     46.8 1.143e+04 3.589e-10
 91.46176     47.3 1.151e+04 3.974e-10
 91.47020     47.5 1.148e+04 3.846e-10
 91.47941     47.4 1.162e+04 4.645e-10
 91.49065     48.2 1.168e+04 5.351e-10
 91.51033     48.7 1.175e+04 5.685e-10
 91.53995     49.5 1.169e+04 5.854e-10
 91.57941     50.3 1.164e+04 5.815e-10
 91.61630     51.3 1.144e+04 5.018e-10
 91.63598     52.4 1.109e+04 3.643e-10
 91.65813     53.1 1.086e+04 2.745e-10
 91.69749     53.2 1.115e+04 2.194e-10
 91.73686     52.5 1.195e+04 2.233e-10
 91.77622     51.7 1.245e+04 2.504e-10
 91.81558     51.1 1.264e+04 3.772e-10
 91.84500     51.3 1.268e+04 5.851e-10
 91.86459     51.5 1.291e+04 7.853e-10
 91.88427     52.4 1.300e+04 9.928e-10
 91.89855     52.8 1.349e+04 1.345e-09
 91.90849     54.9 1.288e+04 1.066e-09
 91.92373     54.7 1.349e+04 1.456e-09
 91.94331     54.7 1.398e+04 1.804e-09
 91.96299     54.7 1.447e+04 2.194e-09
 91.97401     54.5 1.490e+04 2.663e-09
 91.98385     53.5 1.520e+04 3.241e-09
 92.00236     53.4 1.535e+04 3.871e-09
 92.02204     53.4 1.554e+04 4.520e-09
 92.04172     53.4 1.579e+04 5.335e-09
 92.06140     53.6 1.635e+04 5.985e-09
 92.08108     53.3 1.718e+04 6.458e-09
 92.10076     52.0 1.802e+04 7.139e-09
 92.12044     49.5 1.910e+04 8.596e-09
 92.13820     47.3 1.991e+04 1.238e-08
 92.14804     45.9 2.072e+04 1.446e-08
 92.15980     44.6 2.047e+04 1.823e-08
 92.17949     44.2 2.004e+04 1.706e-08
 92.19917     44.7 1.925e+04 1.296e-08
 92.21885     45.1 1.859e+04 8.006e-09
 92.23853     44.5 1.786e+04 4.458e-09
 92.25821     42.9 1.671e+04 2.587e-09
 92.27789     41.8 1.515e+04 1.842e-09
 92.29757     41.9 1.408e+04 1.633e-09
 92.31223     43.1 1.375e+04 1.589e-09
 92.32207     43.0 1.376e+04 1.627e-09
 92.32753     44.2 1.363e+04 1.594e-09
 92.33737     45.2 1.351e+04 1.488e-09
 92.36655     46.3 1.328e+04 1.487e-09
 92.40601     48.8 1.307e+04 1.423e-09
 92.44538     51.1 1.289e+04 1.408e-09
 92.48474     53.5 1.268e+04 1.322e-09
 92.52410     55.9 1.235e+04 1.127e-09
 92.56346     58.3 1.193e+04 8.844e-10
 92.60282     60.7 1.150e+04 6.800e-10
 92.64081     63.1 1.115e+04 5.570e-10
 92.66049     63.4 1.077e+04 3.698e-10
 92.68155     65.8 1.060e+04 3.454e-10
 92.72091     68.3 1.055e+04 3.503e-10
 92.74686     70.7 1.054e+04 3.613e-10
 92.76654     71.2 1.104e+04 5.623e-10
 92.79963     73.5 1.101e+04 5.581e-10
 92.83900     75.6 1.094e+04 5.410e-10
 92.87836     77.8 1.082e+04 5.034e-10
 92.91772     80.0 1.068e+04 4.534e-10
 92.95708     82.1 1.055e+04 3.990e-10
 92.98887     84.2 1.041e+04 3.414e-10
 93.00855     84.7 1.034e+04 3.008e-10
 93.03581     86.9 1.020e+04 2.568e-10
 93.07517     89.3 1.005e+04 2.102e-10
 93.11453     91.6 9.898e+03 1.705e-10
 93.15389     94.1 9.737e+03 1.476e-10
 93.19326     96.7 9.666e+03 1.448e-10
 93.23262     99.4 9.666e+03 1.460e-10
 93.27198    102.0 9.697e+03 1.542e-10
 93.31134    104.6 9.822e+03 1.805e-10
 93.33693    107.2 1.004e+04 2.278e-10
 93.35661    107.6 1.014e+04 2.309e-10
 93.39007    110.1 1.047e+04 2.948e-10
 93.42943    112.3 1.073e+04 3.687e-10
 93.46879    114.0 1.085e+04 4.305e-10
 93.49822    115.2 1.088e+04 4.729e-10
 93.51076    116.5 1.091e+04 5.015e-10
 93.52060    116.8 1.091e+04 5.262e-10
 93.53748    118.2 1.096e+04 5.328e-10
 93.55716    119.2 1.095e+04 5.226e-10
 93.57684    120.3 1.093e+04 4.875e-10
 93.59478    121.1 1.090e+04 4.548e-10
 93.60462    121.8 1.096e+04 5.322e-10
 93.61620    122.5 1.094e+04 4.712e-10
 93.63589    123.0 1.091e+04 4.389e-10
 93.65557    123.9 1.090e+04 4.070e-10
 93.67495    124.3 1.088e+04 3.891e-10
 93.68479    125.2 1.098e+04 4.853e-10
 93.69493    125.7 1.097e+04 4.706e-10
 93.71461    126.3 1.095e+04 4.614e-10
 93.73429    126.8 1.091e+04 4.570e-10
 93.75397    127.3 1.089e+04 4.570e-10
 93.77365    127.7 1.088e+04 4.612e-10
 93.79333    128.1 1.091e+04 4.732e-10
 93.81302    128.4 1.100e+04 4.981e-10
 93.83270    128.4 1.119e+04 5.479e-10
 93.84898    128.1 1.150e+04 6.536e-10
 93.85883    127.7 1.184e+04 7.668e-10
 93.87206    126.6 1.252e+04 1.055e-09
 93.89174    125.3 1.330e+04 1.617e-09
 93.91142    124.4 1.400e+04 2.531e-09
 93.93110    124.0 1.455e+04 3.567e-09
 93.95078    123.8 1.477e+04 3.975e-09
 93.97046    123.4 1.476e+04 3.866e-09
 93.99015    123.0 1.462e+04 3.320e-09
 94.00983    122.3 1.438e+04 2.338e-09
 94.02302    120.3 1.409e+04 1.436e-09
 94.02710    117.8 1.426e+04 1.430e-09
 94.03360    118.6 1.462e+04 1.940e-09
 94.04919    115.5 1.407e+04 1.697e-09
 94.06887    112.8 1.347e+04 1.668e-09
 94.08855    111.0 1.308e+04 1.629e-09
 94.10823    109.9 1.283e+04 1.558e-09
 94.12791    109.0 1.265e+04 1.456e-09
 94.14759    107.9 1.262e+04 1.300e-09
 94.16727    106.4 1.257e+04 1.123e-09
 94.18696    104.5 1.239e+04 9.697e-10
 94.19705    102.7 1.212e+04 8.750e-10
 94.20689    101.3 1.159e+04 7.092e-10
 94.22632    100.3 1.136e+04 6.949e-10
 94.24600     99.7 1.123e+04 6.914e-10
 94.26568     99.4 1.116e+04 6.865e-10
 94.28536     99.3 1.112e+04 6.712e-10
 94.30504     99.1 1.110e+04 6.543e-10
 94.32472     98.8 1.110e+04 6.548e-10
 94.34440     98.5 1.112e+04 6.666e-10
 94.36124     98.2 1.115e+04 6.990e-10
 94.37108     98.1 1.094e+04 5.998e-10
 94.38377     97.9 1.098e+04 6.532e-10
 94.40345     97.8 1.101e+04 7.108e-10
 94.42313     97.8 1.101e+04 7.548e-10
 94.44281     97.7 1.099e+04 7.760e-10
 94.46249     97.0 1.083e+04 7.243e-10
 94.48217     97.0 1.084e+04 7.594e-10
 94.50185     96.9 1.085e+04 7.927e-10
 94.52153     96.8 1.088e+04 8.392e-10
 94.53527     96.8 1.088e+04 8.695e-10
 94.54511     97.0 1.071e+04 7.890e-10
 94.56090     97.0 1.072e+04 8.161e-10
 94.58058     97.0 1.073e+04 8.304e-10
 94.60026     96.9 1.073e+04 8.312e-10
 94.61994     96.6 1.071e+04 8.239e-10
 94.63962     96.4 1.068e+04 7.981e-10
 94.65930     96.1 1.061e+04 7.569e-10
 94.67898     95.1 1.052e+04 6.771e-10
 94.69866     94.7 1.045e+04 6.519e-10
 94.70930     94.3 1.034e+04 5.896e-10
 94.72908     94.2 1.025e+04 5.468e-10
 94.76774     93.7 9.912e+03 4.210e-10
 94.80711     92.8 9.571e+03 3.201e-10
 94.84647     91.3 9.352e+03 2.904e-10
 94.87197     90.8 9.324e+03 2.929e-10
 94.87940     89.5 9.325e+03 2.948e-10
 94.88333     88.9 9.386e+03 3.013e-10
 94.89547     88.5 9.341e+03 3.060e-10
 94.91516     87.7 9.425e+03 3.392e-10
 94.93484     87.5 9.444e+03 3.621e-10
 94.95452     87.4 9.621e+03 4.340e-10
 94.97420     87.3 9.787e+03 4.977e-10
 94.99388     87.2 9.915e+03 5.356e-10
 95.01356     87.2 9.910e+03 5.351e-10
 95.03324     87.1 9.880e+03 5.210e-10
 95.04752     87.0 9.830e+03 5.041e-10
 95.05736     86.9 9.645e+03 4.622e-10
 95.08254     87.2 9.623e+03 4.312e-10
 95.12200     86.5 9.481e+03 3.964e-10
 95.16136     85.9 9.295e+03 3.728e-10
 95.20073     85.7 9.289e+03 3.752e-10
 95.24009     85.5 9.406e+03 4.010e-10
 95.27945     85.2 9.545e+03 4.490e-10
 95.30095     84.8 9.716e+03 4.950e-10
 95.31069     83.6 9.706e+03 4.838e-10
 95.32846     83.6 9.747e+03 4.937e-10
 95.34814     83.5 9.747e+03 4.803e-10
 95.36782     83.3 9.711e+03 4.664e-10
 95.38584     82.9 9.622e+03 4.153e-10
 95.40562     83.2 9.384e+03 3.630e-10
 95.43690     82.4 9.218e+03 3.175e-10
 95.47626     81.3 9.270e+03 3.224e-10
 95.51562     80.2 9.368e+03 3.381e-10
 95.54505     79.0 9.578e+03 4.206e-10
 95.55977     77.6 9.984e+03 5.254e-10
 95.56961     78.7 9.667e+03 4.403e-10
 95.58431     76.8 1.032e+04 5.816e-10
 95.60399     73.6 1.150e+04 8.866e-10
 95.62368     69.7 1.287e+04 1.538e-09
 95.64336     66.1 1.396e+04 2.675e-09
 95.66304     63.7 1.466e+04 3.975e-09
 95.68272     61.6 1.526e+04 5.125e-09
 95.70240     56.5 1.726e+04 6.633e-09
 95.71999     46.5 1.969e+04 8.359e-09
 95.72983     47.2 1.991e+04 9.149e-09
 95.73375     41.3 2.092e+04 1.093e-08
 95.73862     40.9 2.117e+04 1.259e-08
 95.74658     37.4 2.081e+04 1.442e-08
 95.75642     34.0 2.025e+04 1.537e-08
 95.76627     31.8 1.930e+04 1.508e-08
 95.77611     30.6 1.825e+04 1.265e-08
 95.78595     29.6 1.761e+04 9.325e-09
 95.80076     27.4 1.678e+04 5.257e-09
 95.82049     23.0 1.507e+04 2.030e-09
 95.84017     16.3 1.213e+04 7.125e-10
 95.85985     11.7 1.003e+04 3.503e-10
 95.87953     10.4 9.944e+03 2.621e-10
 95.90915     10.4 9.827e+03 2.397e-10
 95.94861     10.9 9.546e+03 1.989e-10
 95.98797     11.7 9.324e+03 1.755e-10
 96.02733     12.8 9.271e+03 1.667e-10
 96.06238     14.0 9.326e+03 1.721e-10
 96.08206     14.3 9.349e+03 1.731e-10
 96.10606     15.4 9.471e+03 1.910e-10
 96.13932     16.3 9.664e+03 2.377e-10
 96.15900     15.7 9.948e+03 2.927e-10
 96.18478     16.4 1.040e+04 4.233e-10
 96.21421     17.1 1.039e+04 4.633e-10
 96.23379     17.5 1.056e+04 5.236e-10
 96.24605     17.8 1.076e+04 5.856e-10
 96.25589     18.0 1.074e+04 5.736e-10
 96.27315     18.3 1.087e+04 6.179e-10
 96.29283     18.6 1.097e+04 6.490e-10
 96.31251     18.9 1.108e+04 6.764e-10
 96.33219     18.9 1.125e+04 7.163e-10
 96.35188     18.8 1.147e+04 7.768e-10
 96.37156     18.5 1.170e+04 8.699e-10
 96.39124     18.0 1.204e+04 1.032e-09
 96.41024     17.3 1.248e+04 1.289e-09
 96.42008     17.0 1.257e+04 1.391e-09
 96.43060     16.2 1.301e+04 1.817e-09
 96.45028     15.6 1.340e+04 2.295e-09
 96.46996     14.9 1.374e+04 2.754e-09
 96.48964     14.2 1.398e+04 2.957e-09
 96.50932     13.4 1.398e+04 2.901e-09
 96.52901     12.7 1.376e+04 2.601e-09
 96.54869     12.1 1.326e+04 2.026e-09
 96.56810     11.1 1.271e+04 1.431e-09
 96.57794     10.4 1.326e+04 1.981e-09
 96.58427      9.3 1.293e+04 1.335e-09
 96.59411      9.5 1.301e+04 1.576e-09
 96.60773      7.7 1.273e+04 1.152e-09
 96.62741      5.6 1.204e+04 9.056e-10
 96.64709      4.5 1.136e+04 8.150e-10
 96.66677      4.3 1.121e+04 8.108e-10
 96.68645      4.6 1.101e+04 7.588e-10
 96.70613      4.4 1.095e+04 7.191e-10
 96.72582      4.9 1.059e+04 5.600e-10
 96.74550      4.8 1.058e+04 5.531e-10
 96.75840      5.0 9.967e+03 3.506e-10
 96.77818      5.1 1.014e+04 4.102e-10
 96.81458      4.5 9.744e+03 2.858e-10
 96.85394      3.9 9.732e+03 2.647e-10
 96.88336      2.5 1.013e+04 3.139e-10
 96.90295     -1.2 1.118e+04 5.148e-10
 96.92249     -2.7 1.139e+04 9.389e-10
 96.93233     -2.4 1.123e+04 8.439e-10
 96.94231     -1.7 1.128e+04 1.222e-09
 96.96199     -0.5 1.125e+04 1.218e-09
 96.98167     -0.1 1.118e+04 1.032e-09
 96.99708     -0.8 1.125e+04 7.103e-10
 97.00692     -0.4 1.130e+04 7.358e-10
 97.02103     -2.6 1.102e+04 4.501e-10
 97.04071     -5.9 1.022e+04 2.985e-10
 97.06039     -8.3 9.564e+03 2.498e-10
 97.08008     -9.5 9.555e+03 2.565e-10
 97.09652    -10.5 9.676e+03 2.859e-10
 97.10636    -10.1 9.703e+03 2.807e-10
 97.11944    -10.9 9.939e+03 3.322e-10
 97.13912    -12.5 1.050e+04 4.481e-10
 97.15880    -15.1 1.157e+04 7.152e-10
 97.17848    -17.8 1.253e+04 1.213e-09
 97.19816    -19.1 1.250e+04 1.837e-09
 97.21784    -19.1 1.249e+04 2.417e-09
 97.23752    -19.5 1.280e+04 2.316e-09
 97.25721    -21.3 1.370e+04 1.845e-09
 97.27055    -25.3 1.391e+04 1.181e-09
 97.28039    -23.7 1.411e+04 1.599e-09
 97.29657    -29.4 1.449e+04 1.015e-09
 97.31625    -37.9 1.273e+04 7.889e-10
 97.33593    -42.9 1.139e+04 1.013e-09
 97.35561    -45.0 1.214e+04 1.442e-09
 97.37529    -47.8 1.296e+04 1.744e-09
 97.39497    -52.4 1.331e+04 1.832e-09
 97.41465    -57.8 1.316e+04 1.815e-09
 97.42605    -62.1 1.267e+04 1.779e-09
 97.43590    -62.5 1.288e+04 1.935e-09
 97.44458    -65.7 1.267e+04 1.830e-09
 97.45443    -66.2 1.254e+04 1.621e-09
 97.47370    -69.8 1.245e+04 1.276e-09
 97.49338    -74.4 1.203e+04 9.306e-10
 97.51306    -79.0 1.118e+04 7.199e-10
 97.53274    -82.1 1.058e+04 6.337e-10
 97.55242    -83.8 1.040e+04 5.849e-10
 97.57210    -85.5 1.043e+04 5.327e-10
 97.59178    -87.7 1.057e+04 4.954e-10
 97.60877    -90.4 1.077e+04 4.844e-10
 97.61862    -90.9 1.076e+04 4.843e-10
 97.63115    -93.7 1.103e+04 5.537e-10
 97.65083    -96.2 1.131e+04 7.146e-10
 97.67051    -97.8 1.165e+04 9.619e-10
 97.69019    -98.8 1.205e+04 1.245e-09
 97.70987    -99.7 1.241e+04 1.485e-09
 97.72955   -100.6 1.256e+04 1.594e-09
 97.74923   -101.6 1.256e+04 1.608e-09
 97.76891   -102.5 1.225e+04 1.457e-09
 97.78281   -103.1 1.178e+04 1.215e-09
 97.79265   -102.8 1.172e+04 1.172e-09
 97.80828   -103.2 1.124e+04 8.976e-10
 97.82796   -103.7 1.073e+04 6.268e-10
 97.84519   -104.1 1.023e+04 4.346e-10
 97.85503   -105.6 9.903e+03 3.444e-10
 97.87726   -105.8 9.456e+03 2.491e-10
 97.91672   -105.2 8.768e+03 1.441e-10
 97.95608   -104.2 8.227e+03 8.537e-11
 97.99544   -103.2 8.065e+03 6.310e-11
 98.03480   -102.4 8.041e+03 5.566e-11
 98.07417   -101.8 8.043e+03 5.474e-11
 98.11138   -101.7 8.079e+03 5.548e-11
 98.13106   -100.9 8.050e+03 5.123e-11
 98.15289   -101.6 8.261e+03 7.648e-11
 98.19225   -103.1 9.079e+03 1.693e-10
 98.23161   -104.7 1.005e+04 3.783e-10
 98.27098   -106.6 1.101e+04 7.221e-10
 98.29515   -109.2 1.196e+04 1.228e-09
 98.30490   -108.0 1.159e+04 1.060e-09
 98.31998   -113.1 1.408e+04 1.606e-09
 98.33966   -120.1 1.690e+04 3.018e-09
 98.35935   -126.6 1.827e+04 6.150e-09
 98.37903   -131.1 1.856e+04 1.006e-08
 98.39871   -134.6 1.858e+04 1.151e-08
 98.41839   -137.6 1.816e+04 1.118e-08
 98.43807   -140.1 1.685e+04 6.812e-09
 98.45775   -143.4 1.522e+04 3.094e-09
 98.46909   -147.6 1.355e+04 1.530e-09
 98.47893   -147.8 1.350e+04 1.513e-09
 98.49711   -150.9 1.266e+04 1.074e-09
 98.51679   -152.4 1.232e+04 9.415e-10
 98.53648   -153.2 1.213e+04 8.575e-10
 98.55616   -154.1 1.199e+04 7.962e-10
 98.57584   -155.1 1.197e+04 7.750e-10
 98.59552   -156.5 1.205e+04 7.708e-10
 98.61520   -158.4 1.259e+04 8.624e-10
 98.63328   -160.5 1.307e+04 1.148e-09
 98.64312   -159.2 1.266e+04 9.005e-10
 98.65456   -161.1 1.303e+04 1.195e-09
 98.67424   -162.7 1.319e+04 1.527e-09
 98.69331   -164.0 1.315e+04 1.740e-09
 98.70315   -164.9 1.318e+04 1.746e-09
 98.71361   -165.8 1.316e+04 1.768e-09
 98.73329   -166.4 1.277e+04 1.648e-09
 98.75297   -166.8 1.231e+04 1.209e-09
 98.77265   -167.5 1.176e+04 7.787e-10
 98.79233   -168.5 1.114e+04 4.973e-10
 98.80731   -169.5 1.052e+04 3.461e-10
 98.81715   -168.3 1.068e+04 3.624e-10
 98.83169   -168.6 1.023e+04 2.906e-10
 98.86131   -168.4 1.002e+04 2.558e-10
 98.90077   -168.0 9.698e+03 2.160e-10
 98.94013   -167.6 9.611e+03 1.983e-10
 98.97950   -167.3 9.598e+03 1.944e-10
 99.01886   -167.2 9.594e+03 1.939e-10
 99.05822   -167.8 9.737e+03 2.153e-10
 99.09758   -169.4 1.018e+04 2.770e-10
 99.13588   -171.6 1.058e+04 3.483e-10
 99.15556   -168.8 1.064e+04 3.564e-10
 99.17631   -171.7 1.080e+04 3.864e-10
 99.21567   -175.1 1.079e+04 3.904e-10
 99.25503   -177.9 1.060e+04 3.501e-10
 99.29439   -179.8 1.029e+04 2.771e-10
 99.33376   -181.0 1.009e+04 2.350e-10
 99.37312   -181.7 1.006e+04 2.266e-10
 99.41248   -182.5 1.015e+04 2.316e-10
 99.45184   -183.3 1.037e+04 2.542e-10
 99.48394   -184.1 1.051e+04 2.729e-10
 99.50363   -183.9 1.056e+04 3.088e-10
 99.53057   -184.6 1.054e+04 3.035e-10
 99.55146   -185.0 1.047e+04 2.826e-10
 99.57114   -185.1 1.019e+04 2.089e-10
 99.60929   -185.3 1.013e+04 2.023e-10
 99.64865   -185.3 1.013e+04 2.046e-10
 99.68801   -185.4 1.027e+04 2.370e-10
 99.72738   -185.5 1.041e+04 2.898e-10
 99.76674   -185.5 1.047e+04 3.290e-10
 99.80610   -185.4 1.048e+04 3.385e-10
 99.83201   -185.3 1.039e+04 3.336e-10
 99.85169   -184.6 1.046e+04 3.623e-10
 99.88483   -184.0 1.019e+04 3.282e-10
 99.92419   -182.9 9.881e+03 2.699e-10
 99.96355   -181.6 9.649e+03 2.216e-10
100.00291   -180.4 9.507e+03 1.888e-10
