# Columns:
#   distance along LOS (in CHIMPs)
#   peculiar velocity  (in km/s)
#   temperature (K)
#   HI number density
# pos=(230.818,151.649,102.629), angles=(1.4634,5.02714)
  0.01250    115.4 9.125e+03 2.351e-10
  0.04566    115.2 9.319e+03 2.867e-10
  0.07966    114.9 9.563e+03 3.593e-10
  0.10031    114.8 9.611e+03 3.863e-10
  0.12830    114.2 9.852e+03 4.636e-10
  0.16285    113.3 1.001e+04 4.966e-10
  0.18351    113.3 1.003e+04 5.190e-10
  0.20509    112.1 1.004e+04 5.147e-10
  0.22575    111.8 9.958e+03 4.900e-10
  0.25226    110.7 9.827e+03 4.473e-10
  0.29358    110.1 9.600e+03 3.856e-10
  0.33052    109.9 9.397e+03 3.369e-10
  0.35118    110.1 9.287e+03 3.100e-10
  0.37621    109.9 9.172e+03 2.861e-10
  0.41753    110.1 9.171e+03 2.868e-10
  0.45596    110.4 9.225e+03 2.979e-10
  0.47662    110.5 9.123e+03 2.729e-10
  0.50017    110.4 9.254e+03 3.020e-10
  0.53100    110.0 9.501e+03 3.631e-10
  0.55166    109.8 9.361e+03 3.023e-10
  0.57238    109.3 9.698e+03 3.859e-10
  0.59153    108.9 9.926e+03 4.611e-10
  0.60185    108.7 1.003e+04 4.882e-10
  0.61360    108.0 1.042e+04 6.161e-10
  0.63426    107.4 1.068e+04 7.151e-10
  0.66535    106.2 1.117e+04 8.809e-10
  0.70676    103.7 1.145e+04 9.426e-10
  0.74808     99.0 1.180e+04 1.007e-09
  0.78940     94.2 1.223e+04 1.112e-09
  0.83072     88.9 1.249e+04 1.152e-09
  0.85292     83.9 1.240e+04 1.056e-09
  0.87358     83.7 1.228e+04 9.915e-10
  0.89915     79.5 1.183e+04 6.520e-10
  0.91981     79.1 1.136e+04 5.133e-10
  0.95467     75.5 1.068e+04 2.937e-10
  0.97835     72.3 1.012e+04 1.671e-10
  0.99901     72.1 1.005e+04 1.607e-10
  1.03731     69.8 9.722e+03 1.482e-10
  1.07863     68.9 9.690e+03 1.508e-10
  1.10379     68.7 9.652e+03 1.641e-10
  1.12445     68.8 9.715e+03 1.865e-10
  1.16127     68.7 9.658e+03 1.944e-10
  1.20259     68.8 9.624e+03 1.939e-10
  1.22922     69.0 9.528e+03 1.847e-10
  1.24988     69.1 9.507e+03 1.906e-10
  1.26730     69.6 9.363e+03 1.639e-10
  1.28796     70.0 9.467e+03 1.900e-10
  1.32654     70.4 9.329e+03 1.639e-10
  1.35465     70.8 9.181e+03 1.344e-10
  1.37531     70.8 9.216e+03 1.555e-10
  1.40918     71.2 9.100e+03 1.366e-10
  1.45050     71.7 9.004e+03 1.270e-10
  1.48009     72.4 8.943e+03 1.227e-10
  1.50075     72.7 8.988e+03 1.390e-10
  1.53313     73.4 8.934e+03 1.288e-10
  1.57445     74.2 8.889e+03 1.171e-10
  1.60552     74.9 8.847e+03 1.042e-10
  1.62521     75.1 8.843e+03 1.023e-10
  1.63546     75.0 8.805e+03 9.498e-11
  1.65709     75.5 8.750e+03 8.356e-11
  1.69841     76.0 8.717e+03 7.811e-11
  1.73096     76.5 8.704e+03 7.674e-11
  1.75161     76.8 8.708e+03 7.804e-11
  1.78105     77.3 8.747e+03 7.936e-11
  1.82236     77.6 8.834e+03 8.540e-11
  1.85639     77.6 9.031e+03 1.076e-10
  1.87705     77.4 9.218e+03 1.408e-10
  1.90500     77.2 9.571e+03 2.178e-10
  1.94632     76.9 1.003e+04 3.483e-10
  1.97721     76.6 1.027e+04 4.304e-10
  1.99196     76.1 1.049e+04 5.081e-10
  1.99760     75.9 1.056e+04 5.251e-10
  2.00351     75.2 1.039e+04 4.371e-10
  2.01853     74.6 1.069e+04 5.547e-10
  2.03909     73.7 1.091e+04 5.743e-10
  2.05467     72.5 1.094e+04 5.675e-10
  2.06500     71.5 1.088e+04 5.063e-10
  2.08041     70.1 1.085e+04 4.762e-10
  2.10107     68.4 1.075e+04 4.332e-10
  2.11739     67.4 1.061e+04 4.077e-10
  2.12782     67.2 1.048e+04 3.691e-10
  2.15291     65.4 1.031e+04 3.508e-10
  2.19423     63.3 1.020e+04 3.517e-10
  2.23269     61.2 1.018e+04 3.735e-10
  2.25335     61.6 9.879e+03 3.149e-10
  2.27687     60.3 9.865e+03 3.541e-10
  2.31819     58.8 1.003e+04 4.239e-10
  2.35110     56.7 1.042e+04 5.373e-10
  2.37038     55.1 1.081e+04 6.661e-10
  2.37878     56.3 1.053e+04 5.387e-10
  2.40083     53.5 1.113e+04 7.609e-10
  2.44214     50.8 1.153e+04 9.672e-10
  2.48346     48.2 1.173e+04 1.089e-09
  2.52478     47.2 1.174e+04 1.135e-09
  2.56610     44.8 1.164e+04 1.098e-09
  2.60742     42.6 1.138e+04 9.996e-10
  2.62965     41.0 1.092e+04 8.067e-10
  2.65031     42.8 1.057e+04 6.441e-10
  2.69006     41.8 1.002e+04 4.374e-10
  2.71925     41.0 9.474e+03 2.497e-10
  2.73991     40.8 9.420e+03 2.463e-10
  2.75509     39.6 9.032e+03 1.419e-10
  2.77575     41.8 8.968e+03 1.309e-10
  2.81401     40.7 8.874e+03 1.228e-10
  2.85533     39.5 8.911e+03 1.325e-10
  2.88052     38.2 9.112e+03 1.866e-10
  2.90118     40.6 9.209e+03 1.997e-10
  2.93797     39.5 9.583e+03 3.265e-10
  2.97929     38.6 9.768e+03 4.051e-10
  3.00595     37.8 9.712e+03 3.871e-10
  3.02661     39.7 1.007e+04 5.024e-10
  3.06192     38.8 9.857e+03 4.221e-10
  3.08740     37.7 9.522e+03 2.608e-10
  3.10806     36.8 9.792e+03 3.234e-10
  3.13139     34.2 9.714e+03 2.545e-10
  3.15205     35.2 1.024e+04 4.209e-10
  3.18588     32.3 1.018e+04 4.160e-10
  3.22720     30.6 9.947e+03 4.278e-10
  3.25682     30.6 9.783e+03 4.041e-10
  3.27748     31.7 9.743e+03 3.663e-10
  3.30984     31.4 9.392e+03 2.424e-10
  3.35115     30.9 9.218e+03 1.720e-10
  3.38226     30.5 9.243e+03 1.657e-10
  3.40292     31.2 9.117e+03 1.361e-10
  3.43379     30.9 9.287e+03 1.526e-10
  3.45556     30.2 9.776e+03 2.371e-10
  3.47622     29.6 9.035e+03 1.283e-10
  3.50769     29.3 9.467e+03 2.028e-10
  3.52835     30.7 9.267e+03 1.621e-10
  3.55775     30.2 9.734e+03 2.419e-10
  3.59907     29.5 1.026e+04 3.755e-10
  3.63312     28.6 1.061e+04 5.519e-10
  3.65378     30.3 1.056e+04 4.768e-10
  3.68170     29.4 1.096e+04 7.265e-10
  3.72302     28.4 1.146e+04 1.058e-09
  3.75856     27.6 1.181e+04 1.277e-09
  3.77912     28.4 1.221e+04 1.544e-09
  3.80295     27.8 1.219e+04 1.475e-09
  3.82371     28.3 1.261e+04 1.954e-09
  3.84698     27.3 1.251e+04 1.889e-09
  3.88399     26.7 1.201e+04 1.504e-09
  3.90465     28.0 1.175e+04 1.237e-09
  3.92961     27.0 1.130e+04 9.934e-10
  3.97093     26.2 1.113e+04 9.282e-10
  4.00943     25.8 1.102e+04 9.382e-10
  4.03009     27.3 1.113e+04 1.000e-09
  4.05357     27.6 1.102e+04 9.667e-10
  4.09489     28.5 1.064e+04 7.904e-10
  4.13486     29.2 1.021e+04 5.408e-10
  4.15552     31.0 1.021e+04 5.421e-10
  4.17120     31.4 9.816e+03 3.577e-10
  4.19186     32.2 9.521e+03 2.798e-10
  4.21884     32.5 9.475e+03 2.547e-10
  4.26016     32.6 9.573e+03 2.737e-10
  4.30148     34.5 9.848e+03 2.915e-10
  4.34280     32.9 1.114e+04 5.527e-10
  4.38412     31.1 1.211e+04 1.106e-09
  4.40639     29.7 1.239e+04 1.508e-09
  4.42705     31.8 1.252e+04 1.359e-09
  4.45633     30.4 1.278e+04 1.549e-09
  4.46891     29.2 1.271e+04 1.576e-09
  4.47924     30.0 1.261e+04 1.595e-09
  4.50798     27.8 1.273e+04 1.513e-09
  4.53182     24.0 1.284e+04 1.550e-09
  4.54205     26.6 1.384e+04 1.914e-09
  4.54949     23.8 1.359e+04 2.068e-09
  4.55982     25.8 1.380e+04 2.097e-09
  4.58019     23.9 1.330e+04 2.043e-09
  4.59434     22.6 1.265e+04 1.956e-09
  4.60467     23.4 1.316e+04 2.375e-09
  4.62151     23.3 1.248e+04 1.880e-09
  4.64217     22.8 1.215e+04 1.682e-09
  4.65716     21.4 1.178e+04 1.208e-09
  4.67791     21.4 1.202e+04 1.293e-09
  4.71467     18.7 1.159e+04 1.110e-09
  4.75599     18.1 1.111e+04 9.776e-10
  4.78269     18.1 1.050e+04 7.158e-10
  4.80335     18.8 1.003e+04 5.317e-10
  4.83862     17.9 9.671e+03 2.824e-10
  4.87994     16.3 9.420e+03 1.903e-10
  4.90751     14.4 9.826e+03 1.983e-10
  4.91503     16.0 9.259e+03 1.648e-10
  4.92878     15.9 8.812e+03 1.147e-10
  4.96258     13.1 9.920e+03 2.129e-10
  4.99347     11.1 1.033e+04 5.458e-10
  5.01403     11.2 1.102e+04 1.037e-09
  5.03336     11.7 1.186e+04 1.706e-09
  5.04369     12.9 1.152e+04 1.364e-09
  5.05535     13.2 1.220e+04 1.876e-09
  5.07601     13.5 1.246e+04 2.228e-09
  5.09139     13.4 1.229e+04 2.260e-09
  5.10112     13.7 1.250e+04 2.356e-09
  5.10641     14.4 1.251e+04 1.945e-09
  5.12776     13.7 1.214e+04 1.856e-09
  5.15875     13.9 1.181e+04 1.552e-09
  5.16912     12.9 1.204e+04 1.441e-09
  5.17945     13.1 1.172e+04 1.356e-09
  5.19997      9.4 1.324e+04 1.829e-09
  5.22063      5.1 1.479e+04 3.092e-09
  5.23184      3.8 1.486e+04 5.032e-09
  5.24217      4.7 1.514e+04 4.427e-09
  5.26194      5.7 1.525e+04 6.440e-09
  5.27546      6.7 1.504e+04 6.978e-09
  5.28579      7.5 1.554e+04 7.645e-09
  5.29456      8.4 1.494e+04 5.856e-09
  5.30489      8.1 1.476e+04 4.449e-09
  5.32392      7.1 1.372e+04 3.012e-09
  5.34458      4.9 1.257e+04 1.869e-09
  5.37567      2.1 1.130e+04 1.034e-09
  5.40986     -0.2 1.076e+04 7.350e-10
  5.43052      0.3 1.101e+04 8.479e-10
  5.44798     -1.6 1.137e+04 9.527e-10
  5.45954     -3.6 1.201e+04 1.232e-09
  5.46987     -3.8 1.159e+04 9.813e-10
  5.48271     -5.0 1.267e+04 1.358e-09
  5.49304     -7.6 1.363e+04 2.029e-09
  5.50986    -10.1 1.463e+04 3.684e-09
  5.53052    -11.0 1.529e+04 5.920e-09
  5.54543    -11.1 1.596e+04 8.216e-09
  5.55576    -10.3 1.627e+04 1.126e-08
  5.57183    -10.2 1.699e+04 1.249e-08
  5.59249    -11.3 1.725e+04 1.199e-08
  5.60814    -13.1 1.661e+04 8.998e-09
  5.61847    -14.1 1.611e+04 8.371e-09
  5.63328    -16.0 1.499e+04 6.050e-09
  5.64361    -15.7 1.473e+04 5.114e-09
  5.65447    -16.9 1.423e+04 4.271e-09
  5.67086    -17.9 1.425e+04 3.901e-09
  5.68119    -17.4 1.384e+04 2.537e-09
  5.69579    -18.2 1.427e+04 2.212e-09
  5.71645    -19.4 1.483e+04 2.122e-09
  5.73358    -20.6 1.554e+04 2.175e-09
  5.74391    -22.4 1.285e+04 1.014e-09
  5.75777    -24.0 1.309e+04 1.007e-09
  5.77843    -25.9 1.287e+04 1.093e-09
  5.79629    -27.4 1.253e+04 1.276e-09
  5.80662    -28.0 1.136e+04 8.925e-10
  5.81736    -28.7 1.159e+04 1.133e-09
  5.82769    -29.0 1.131e+04 9.453e-10
  5.84041    -29.5 1.152e+04 1.177e-09
  5.85901    -29.7 1.173e+04 1.319e-09
  5.86934    -29.3 1.154e+04 1.228e-09
  5.88172    -29.6 1.175e+04 1.281e-09
  5.90238    -30.0 1.187e+04 1.274e-09
  5.92173    -30.9 1.193e+04 1.119e-09
  5.93206    -30.9 1.221e+04 1.286e-09
  5.94370    -32.2 1.237e+04 1.156e-09
  5.96436    -33.3 1.227e+04 9.904e-10
  5.98445    -34.1 1.190e+04 7.873e-10
  5.99478    -34.5 1.284e+04 1.112e-09
  6.00144    -35.3 1.208e+04 7.395e-10
  6.01177    -36.0 1.170e+04 5.257e-10
  6.02634    -37.6 1.063e+04 3.618e-10
  6.04700    -38.9 9.968e+03 2.948e-10
  6.05759    -39.7 9.734e+03 2.753e-10
  6.06792    -40.3 9.788e+03 3.439e-10
  6.08832    -40.7 9.662e+03 3.315e-10
  6.11940    -41.3 9.521e+03 3.165e-10
  6.16082    -41.8 9.394e+03 2.959e-10
  6.18312    -42.7 9.404e+03 2.941e-10
  6.20378    -43.9 9.298e+03 2.749e-10
  6.24346    -45.7 9.843e+03 3.900e-10
  6.28478    -47.1 1.066e+04 7.116e-10
  6.30856    -47.9 1.120e+04 1.037e-09
  6.32921    -48.1 1.070e+04 8.249e-10
  6.35699    -48.6 1.084e+04 9.199e-10
  6.36959    -49.0 1.073e+04 8.332e-10
  6.37345    -48.8 1.064e+04 7.906e-10
  6.38141    -49.0 1.038e+04 6.982e-10
  6.39821    -49.4 1.016e+04 5.550e-10
  6.41887    -49.9 9.857e+03 4.187e-10
  6.43389    -50.5 9.596e+03 3.133e-10
  6.45465    -50.4 9.407e+03 3.031e-10
  6.49137    -50.6 9.038e+03 1.988e-10
  6.53269    -50.8 8.866e+03 1.484e-10
  6.55942    -50.9 8.850e+03 1.415e-10
  6.58008    -51.1 8.825e+03 1.346e-10
  6.61533    -51.5 9.039e+03 1.515e-10
  6.65664    -51.8 9.372e+03 2.129e-10
  6.68486    -52.0 9.554e+03 2.593e-10
  6.70552    -52.8 9.425e+03 2.355e-10
  6.72761    -53.1 9.384e+03 2.335e-10
  6.74827    -53.0 9.102e+03 1.937e-10
  6.78060    -52.7 8.941e+03 1.408e-10
  6.81029    -52.2 8.789e+03 9.272e-11
  6.83095    -52.2 8.673e+03 7.850e-11
  6.86324    -51.8 8.626e+03 6.158e-11
  6.90456    -50.9 8.608e+03 5.873e-11
  6.93573    -49.9 8.692e+03 6.176e-11
  6.95638    -50.3 8.776e+03 6.222e-11
  6.98719    -49.3 8.869e+03 8.848e-11
  7.02851    -48.0 8.947e+03 1.283e-10
  7.06116    -46.5 9.109e+03 1.796e-10
  7.08182    -46.9 9.074e+03 2.000e-10
  7.09576    -45.7 9.234e+03 2.427e-10
  7.11642    -45.7 9.342e+03 2.691e-10
  7.15247    -44.6 9.529e+03 3.477e-10
  7.18659    -43.4 9.753e+03 4.495e-10
  7.20725    -43.5 9.280e+03 3.016e-10
  7.23510    -42.2 9.324e+03 3.086e-10
  7.27642    -41.0 9.336e+03 3.080e-10
  7.31203    -39.9 9.311e+03 2.825e-10
  7.33269    -40.2 8.768e+03 1.453e-10
  7.35906    -39.4 8.766e+03 1.329e-10
  7.40038    -38.7 8.745e+03 1.263e-10
  7.43746    -37.9 8.689e+03 1.227e-10
  7.45812    -37.9 8.492e+03 1.059e-10
  7.46391    -36.7 8.416e+03 1.034e-10
  7.48457    -36.5 8.310e+03 8.397e-11
  7.52434    -35.0 8.255e+03 7.646e-11
  7.56289    -33.5 8.223e+03 6.417e-11
  7.58355    -33.1 8.107e+03 5.608e-11
  7.60697    -31.8 8.107e+03 4.548e-11
  7.64829    -30.6 8.127e+03 4.152e-11
  7.68833    -29.5 8.209e+03 4.116e-11
  7.70899    -29.5 8.222e+03 3.855e-11
  7.73093    -28.7 8.324e+03 4.982e-11
  7.77225    -27.5 8.349e+03 7.265e-11
  7.81140    -25.7 8.451e+03 9.805e-11
  7.83206    -24.9 8.530e+03 1.110e-10
  7.83442    -23.1 8.637e+03 1.208e-10
  7.85508    -22.9 8.639e+03 1.274e-10
  7.89620    -21.4 8.708e+03 1.164e-10
  7.93752    -20.2 8.750e+03 9.508e-11
  7.95986    -19.2 8.793e+03 8.519e-11
  7.98052    -19.4 8.783e+03 8.436e-11
  8.02016    -19.2 9.063e+03 8.644e-11
  8.06148    -20.3 9.660e+03 1.536e-10
  8.08529    -20.9 1.038e+04 4.058e-10
  8.10595    -22.6 1.087e+04 6.392e-10
  8.13369    -21.8 1.167e+04 1.100e-09
  8.14781    -22.6 1.222e+04 1.484e-09
  8.15814    -23.4 1.235e+04 1.555e-09
  8.17491    -23.3 1.288e+04 1.930e-09
  8.18969    -24.3 1.287e+04 1.950e-09
  8.20002    -24.2 1.282e+04 1.889e-09
  8.21053    -24.7 1.274e+04 1.725e-09
  8.22086    -25.6 1.228e+04 1.263e-09
  8.23689    -26.5 1.207e+04 9.683e-10
  8.25755    -28.0 1.167e+04 7.337e-10
  8.27325    -29.4 1.129e+04 5.971e-10
  8.28358    -30.2 1.086e+04 4.473e-10
  8.29886    -31.0 1.064e+04 3.940e-10
  8.31952    -31.4 1.054e+04 3.645e-10
  8.33596    -31.8 1.052e+04 3.273e-10
  8.35672    -32.5 1.053e+04 2.914e-10
  8.37386    -33.8 1.064e+04 2.672e-10
  8.38409    -33.9 1.071e+04 2.796e-10
  8.39868    -35.8 1.125e+04 3.220e-10
  8.40901    -36.4 1.130e+04 3.365e-10
  8.42282    -39.2 1.143e+04 4.791e-10
  8.44348    -40.3 1.138e+04 7.059e-10
  8.46140    -40.6 1.155e+04 8.775e-10
  8.47173    -40.6 1.157e+04 9.201e-10
  8.48480    -40.6 1.177e+04 9.483e-10
  8.50546    -41.6 1.197e+04 7.953e-10
  8.52411    -43.6 1.164e+04 5.722e-10
  8.53444    -43.7 1.154e+04 5.041e-10
  8.54678    -45.8 1.091e+04 3.813e-10
  8.55784    -46.6 1.079e+04 3.663e-10
  8.56827    -47.1 1.071e+04 3.223e-10
  8.58703    -48.5 1.054e+04 2.897e-10
  8.60768    -48.4 1.009e+04 1.886e-10
  8.63994    -49.7 9.969e+03 1.723e-10
  8.68126    -50.6 9.926e+03 1.742e-10
  8.71246    -51.4 9.937e+03 2.012e-10
  8.73312    -50.9 9.939e+03 1.886e-10
  8.76389    -51.5 1.002e+04 2.427e-10
  8.80521    -52.2 1.006e+04 2.917e-10
  8.83789    -53.0 1.005e+04 3.375e-10
  8.85855    -52.0 1.003e+04 3.349e-10
  8.88785    -52.7 9.946e+03 3.611e-10
  8.91586    -53.2 9.883e+03 3.682e-10
  8.93652    -52.7 1.004e+04 4.166e-10
  8.96333    -53.0 9.811e+03 3.914e-10
  8.98399    -52.1 9.952e+03 4.199e-10
  9.01181    -52.3 9.738e+03 3.662e-10
  9.05312    -52.7 9.472e+03 2.824e-10
  9.08876    -53.3 9.331e+03 2.349e-10
  9.10942    -52.0 9.554e+03 3.155e-10
  9.13576    -52.5 9.532e+03 3.094e-10
  9.17708    -52.9 9.616e+03 3.378e-10
  9.21420    -53.2 9.657e+03 3.704e-10
  9.23485    -52.0 9.984e+03 4.944e-10
  9.25972    -52.0 1.001e+04 5.133e-10
  9.28401    -51.7 9.794e+03 4.413e-10
  9.30467    -51.7 9.349e+03 2.880e-10
  9.33963    -51.3 8.925e+03 1.801e-10
  9.36029    -50.2 9.303e+03 2.334e-10
  9.38367    -49.8 8.858e+03 1.309e-10
  9.42499    -49.2 8.521e+03 7.766e-11
  9.46506    -48.5 8.358e+03 5.487e-11
  9.48572    -48.1 8.553e+03 7.734e-11
  9.50763    -47.2 8.508e+03 6.830e-11
  9.54895    -46.3 8.524e+03 6.717e-11
  9.59027    -45.6 8.730e+03 8.306e-11
  9.61116    -44.8 8.892e+03 1.310e-10
  9.63173    -43.8 9.002e+03 1.941e-10
  9.67282    -42.7 9.321e+03 2.548e-10
  9.71422    -41.8 9.578e+03 3.256e-10
  9.73659    -40.9 9.788e+03 3.966e-10
  9.75725    -40.2 9.903e+03 4.015e-10
  9.79686    -39.3 9.959e+03 4.439e-10
  9.83818    -38.1 9.943e+03 4.534e-10
  9.86202    -36.5 9.732e+03 3.812e-10
  9.88268    -35.9 9.669e+03 2.957e-10
  9.92082    -34.4 9.482e+03 2.252e-10
  9.96213    -33.1 9.328e+03 1.674e-10
  9.98746    -32.0 9.224e+03 1.336e-10
 10.00432    -31.3 9.214e+03 1.537e-10
 10.02031    -31.0 8.938e+03 1.310e-10
 10.04477    -29.2 8.858e+03 1.246e-10
 10.08609    -27.3 8.833e+03 1.187e-10
 10.11289    -25.2 8.833e+03 1.130e-10
 10.13355    -24.1 8.803e+03 1.133e-10
 10.16873    -21.9 8.752e+03 9.908e-11
 10.21005    -19.6 8.733e+03 8.579e-11
 10.23833    -17.3 8.715e+03 7.588e-11
 10.25899    -16.6 8.659e+03 6.061e-11
 10.29268    -14.4 8.627e+03 5.987e-11
 10.33400    -12.0 8.659e+03 6.087e-11
 10.36376     -9.6 8.762e+03 6.582e-11
 10.37691     -9.2 8.740e+03 7.353e-11
 10.38847     -8.5 8.687e+03 6.621e-11
 10.41664     -6.3 8.925e+03 8.841e-11
 10.45796     -4.3 9.167e+03 1.248e-10
 10.48919     -2.1 9.328e+03 1.861e-10
 10.50985     -1.5 9.447e+03 2.595e-10
 10.54059      1.0 9.690e+03 3.529e-10
 10.58191      3.8 9.782e+03 4.004e-10
 10.61463      6.5 9.578e+03 3.393e-10
 10.63529      7.2 9.711e+03 3.494e-10
 10.66455      9.3 9.666e+03 2.227e-10
 10.70587     10.5 9.729e+03 1.376e-10
 10.73596     11.6 9.593e+03 1.233e-10
 10.74949     11.9 9.588e+03 1.260e-10
 10.76072     11.6 9.644e+03 1.621e-10
 10.78851     13.7 9.593e+03 1.652e-10
 10.82983     15.8 9.668e+03 1.717e-10
 10.86550     17.5 9.985e+03 1.898e-10
 10.88616     17.4 1.031e+04 1.913e-10
 10.91246     17.6 1.089e+04 2.842e-10
 10.95378     18.7 1.159e+04 6.511e-10
 10.98467     18.5 1.267e+04 1.062e-09
 11.00106     17.2 1.422e+04 1.933e-09
 11.01139     16.2 1.441e+04 3.252e-09
 11.02589     15.5 1.570e+04 6.011e-09
 11.04655     15.4 1.655e+04 9.598e-09
 11.06378     16.2 1.694e+04 1.286e-08
 11.07411     17.3 1.728e+04 1.431e-08
 11.08787     17.0 1.746e+04 1.404e-08
 11.10392     17.4 1.728e+04 1.163e-08
 11.11425     17.8 1.729e+04 1.151e-08
 11.12650     18.0 1.660e+04 8.053e-09
 11.13683     17.1 1.626e+04 7.028e-09
 11.14985     17.4 1.479e+04 4.624e-09
 11.17051     17.9 1.345e+04 2.953e-09
 11.18921     18.1 1.227e+04 1.626e-09
 11.19954     18.3 1.218e+04 1.556e-09
 11.21183     18.2 1.148e+04 1.147e-09
 11.24170     20.0 1.028e+04 5.526e-10
 11.26246     20.0 1.019e+04 5.068e-10
 11.28433     20.6 8.910e+03 2.349e-10
 11.32565     22.7 8.320e+03 1.545e-10
 11.36697     25.4 8.094e+03 1.258e-10
 11.38789     28.4 8.024e+03 1.192e-10
 11.40855     27.8 7.950e+03 1.131e-10
 11.44960     30.6 7.937e+03 1.184e-10
 11.47226     33.5 7.985e+03 1.349e-10
 11.49292     33.9 7.753e+03 1.019e-10
 11.51332     36.5 7.855e+03 1.228e-10
 11.53398     35.9 7.959e+03 1.395e-10
 11.57356     38.6 8.132e+03 1.743e-10
 11.61488     41.2 8.369e+03 2.175e-10
 11.63876     43.9 8.579e+03 2.536e-10
 11.65942     43.2 8.450e+03 1.908e-10
 11.69752     45.3 8.482e+03 1.789e-10
 11.73884     47.3 8.524e+03 1.730e-10
 11.76419     48.5 8.700e+03 1.873e-10
 11.78485     47.4 8.425e+03 1.456e-10
 11.81976     46.7 8.998e+03 2.422e-10
 11.84042     47.0 8.715e+03 1.949e-10
 11.86279     46.1 9.987e+03 4.963e-10
 11.88953     45.4 1.072e+04 8.024e-10
 11.89976     45.1 1.108e+04 8.428e-10
 11.91424     43.9 1.215e+04 1.333e-09
 11.93490     42.8 1.319e+04 1.983e-09
 11.95215     41.8 1.360e+04 2.224e-09
 11.96248     40.3 1.510e+04 3.814e-09
 11.97622     39.9 1.485e+04 3.583e-09
 11.99688     39.3 1.415e+04 2.818e-09
 12.01397     37.9 1.315e+04 1.954e-09
 12.02162     37.6 1.247e+04 1.548e-09
 12.02519     38.0 1.352e+04 2.299e-09
 12.03820     36.1 1.212e+04 1.430e-09
 12.05886     34.6 1.096e+04 9.992e-10
 12.07758     34.3 1.048e+04 8.269e-10
 12.08791     33.9 1.079e+04 9.488e-10
 12.10018     34.1 1.053e+04 8.166e-10
 12.12084     34.4 1.035e+04 7.345e-10
 12.14030     34.5 1.019e+04 6.799e-10
 12.15063     34.4 1.041e+04 7.816e-10
 12.16216     34.7 1.034e+04 7.676e-10
 12.18281     35.1 1.032e+04 7.649e-10
 12.19804     35.4 1.040e+04 7.535e-10
 12.20791     35.0 9.899e+03 5.852e-10
 12.21335     35.2 1.037e+04 7.961e-10
 12.22413     34.8 1.078e+04 8.480e-10
 12.24479     30.5 1.355e+04 1.316e-09
 12.26545     23.3 1.584e+04 2.508e-09
 12.27606     21.8 1.420e+04 3.427e-09
 12.28639     23.1 1.526e+04 4.305e-09
 12.30677     22.7 1.465e+04 4.280e-09
 12.32743     22.3 1.440e+04 3.930e-09
 12.33878     21.3 1.447e+04 3.080e-09
 12.34911     22.6 1.472e+04 3.411e-09
 12.36875     20.1 1.441e+04 2.168e-09
 12.38212     14.4 1.300e+04 1.261e-09
 12.39245     14.0 1.245e+04 1.237e-09
 12.40150     10.2 1.172e+04 1.054e-09
 12.41183     12.2 1.172e+04 9.833e-10
 12.43073      9.3 1.183e+04 1.073e-09
 12.45139      7.4 1.188e+04 1.275e-09
 12.46421      4.2 1.310e+04 1.813e-09
 12.47454      7.2 1.212e+04 1.305e-09
 12.49270      1.1 1.513e+04 2.245e-09
 12.51336     -7.7 1.987e+04 4.675e-09
 12.52693    -18.3 2.253e+04 7.996e-09
 12.53726    -15.5 2.247e+04 7.668e-09
 12.54947    -23.5 2.424e+04 9.935e-09
 12.55819    -29.6 2.496e+04 1.340e-08
 12.56336    -28.5 2.457e+04 1.425e-08
 12.56610    -32.8 2.589e+04 1.819e-08
 12.57126    -29.4 2.570e+04 1.444e-08
 12.58041    -35.7 2.638e+04 1.997e-08
 12.58955    -41.5 2.519e+04 2.664e-08
 12.59471    -39.6 2.596e+04 3.216e-08
 12.60107    -44.2 2.445e+04 4.087e-08
 12.61140    -47.2 2.363e+04 4.504e-08
 12.62091    -48.8 2.332e+04 4.566e-08
 12.62607    -48.2 2.311e+04 5.647e-08
 12.63206    -49.2 2.232e+04 5.241e-08
 12.64239    -50.0 2.219e+04 4.155e-08
 12.65227    -50.9 2.265e+04 3.115e-08
 12.65743    -52.5 2.433e+04 3.787e-08
 12.65813    -54.8 2.554e+04 2.990e-08
 12.66330    -52.3 2.391e+04 3.215e-08
 12.67338    -54.1 2.400e+04 2.527e-08
 12.68363    -56.1 2.444e+04 2.056e-08
 12.68879    -58.7 2.741e+04 2.462e-08
 12.69404    -59.7 2.723e+04 2.138e-08
 12.70436    -60.2 2.703e+04 2.025e-08
 12.71469    -60.1 2.724e+04 1.994e-08
 12.72015    -59.6 2.827e+04 2.116e-08
 12.72531    -60.8 2.724e+04 2.428e-08
 12.73535    -60.2 2.720e+04 2.488e-08
 12.74501    -59.6 2.721e+04 2.572e-08
 12.75017    -57.1 3.004e+04 2.710e-08
 12.75151    -56.0 3.100e+04 2.951e-08
 12.75667    -56.9 2.739e+04 2.825e-08
 12.76634    -55.1 2.774e+04 3.099e-08
 12.77667    -52.9 2.838e+04 3.525e-08
 12.78287    -50.5 2.916e+04 4.062e-08
 12.78803    -51.2 2.429e+04 3.113e-08
 12.79733    -48.9 2.466e+04 3.273e-08
 12.80766    -46.2 2.512e+04 3.439e-08
 12.81422    -43.3 2.572e+04 3.680e-08
 12.81939    -45.7 2.178e+04 2.177e-08
 12.82832    -43.8 2.193e+04 2.057e-08
 12.83705    -42.8 2.312e+04 1.919e-08
 12.84221    -36.4 2.888e+04 4.907e-08
 12.84558    -35.7 3.471e+04 5.337e-08
 12.85075    -39.0 2.494e+04 1.852e-08
 12.85931    -39.8 3.643e+04 1.637e-08
 12.86964    -40.4 4.725e+04 2.896e-08
 12.87694    -39.3 4.055e+04 9.738e-08
 12.88211    -44.9 5.112e+04 7.251e-09
 12.89030    -47.8 5.483e+04 1.367e-08
 12.90063    -54.0 5.398e+04 2.405e-08
 12.90828    -68.7 4.767e+04 3.428e-08
 12.91344    -80.0 4.559e+04 2.673e-08
 12.92129    -94.1 3.158e+04 1.002e-07
 12.92908   -100.6 2.793e+04 1.821e-07
 12.93422   -103.7 2.692e+04 2.601e-07
 12.93932   -108.2 2.640e+04 2.986e-07
 12.94219   -112.2 2.649e+04 2.998e-07
 12.94477   -114.3 2.420e+04 5.457e-07
 12.94965   -118.0 2.420e+04 5.457e-07
 12.95481   -121.6 2.470e+04 4.169e-07
 12.95787   -124.5 2.568e+04 2.662e-07
 12.96045   -124.9 2.533e+04 3.560e-07
 12.96514   -126.8 2.654e+04 2.105e-07
 12.97099   -129.0 2.724e+04 1.326e-07
 12.97574   -130.9 2.677e+04 1.625e-07
 12.97764   -132.9 2.721e+04 1.420e-07
 12.98324   -133.2 2.811e+04 8.972e-08
 12.99360   -139.6 3.014e+04 1.433e-08
 13.00238   -145.9 2.369e+04 4.126e-09
 13.00754   -147.9 2.363e+04 4.443e-09
 13.01425   -150.3 1.865e+04 2.788e-09
 13.02112   -150.4 1.700e+04 2.312e-09
 13.02629   -152.8 1.639e+04 2.008e-09
 13.03373   -150.9 1.590e+04 1.738e-09
 13.03890   -152.5 1.608e+04 2.111e-09
 13.05046   -150.4 1.591e+04 2.032e-09
 13.07117   -147.7 1.357e+04 1.381e-09
 13.09138   -146.4 1.280e+04 1.170e-09
 13.10171   -146.3 1.432e+04 1.820e-09
 13.10809   -145.1 1.385e+04 1.651e-09
 13.11842   -146.5 1.444e+04 1.858e-09
 13.13314   -145.7 1.448e+04 2.012e-09
 13.15380   -145.1 1.465e+04 2.461e-09
 13.16443   -144.4 1.503e+04 3.229e-09
 13.17476   -142.5 1.621e+04 4.382e-09
 13.19512   -141.7 1.614e+04 5.054e-09
 13.21578   -140.6 1.610e+04 5.544e-09
 13.22715   -139.5 1.606e+04 5.692e-09
 13.23748   -138.2 1.671e+04 6.933e-09
 13.25710   -137.0 1.615e+04 6.131e-09
 13.27776   -135.7 1.550e+04 5.127e-09
 13.28986   -134.5 1.482e+04 4.135e-09
 13.29394   -132.9 1.505e+04 4.260e-09
 13.30250   -133.4 1.516e+04 4.247e-09
 13.31908   -132.3 1.436e+04 3.197e-09
 13.33974   -131.4 1.373e+04 2.476e-09
 13.35258   -130.5 1.322e+04 1.981e-09
 13.36291   -129.0 1.329e+04 2.003e-09
 13.38106   -127.9 1.288e+04 1.683e-09
 13.40171   -126.7 1.255e+04 1.471e-09
 13.41530   -125.4 1.229e+04 1.305e-09
 13.42563   -124.2 1.260e+04 1.399e-09
 13.44303   -122.8 1.237e+04 1.288e-09
 13.46369   -121.2 1.217e+04 1.203e-09
 13.47624   -119.4 1.205e+04 1.144e-09
 13.48024   -119.6 1.258e+04 1.530e-09
 13.48834   -118.4 1.301e+04 1.756e-09
 13.50501   -117.6 1.295e+04 1.886e-09
 13.52567   -117.5 1.480e+04 2.297e-09
 13.54073   -119.7 1.984e+04 4.037e-09
 13.55106   -117.3 1.786e+04 4.587e-09
 13.56699   -118.9 2.157e+04 7.884e-09
 13.58243   -120.1 2.359e+04 1.197e-08
 13.59272   -121.8 2.493e+04 1.965e-08
 13.60305   -122.9 2.507e+04 3.534e-08
 13.60852   -123.3 2.427e+04 5.618e-08
 13.61368   -121.6 2.536e+04 3.734e-08
 13.62370   -121.9 2.418e+04 5.251e-08
 13.63403   -121.7 2.376e+04 6.269e-08
 13.63987   -121.1 2.340e+04 6.901e-08
 13.64504   -120.1 2.408e+04 5.523e-08
 13.65469   -119.7 2.371e+04 5.933e-08
 13.66022   -119.4 2.330e+04 5.463e-08
 13.66539   -121.4 2.297e+04 3.065e-08
 13.67123   -122.4 2.249e+04 2.030e-08
 13.67640   -121.9 2.360e+04 2.532e-08
 13.68568   -123.6 2.342e+04 1.756e-08
 13.69601   -126.2 2.283e+04 1.152e-08
 13.71156   -130.1 2.152e+04 7.446e-09
 13.72888   -135.4 1.881e+04 4.260e-09
 13.73916   -138.2 2.155e+04 8.681e-09
 13.75287   -141.0 2.089e+04 7.873e-09
 13.77358   -143.3 2.059e+04 6.387e-09
 13.79160   -144.5 1.963e+04 5.125e-09
 13.80193   -144.4 1.978e+04 1.280e-08
 13.81490   -144.7 1.933e+04 1.088e-08
 13.83407   -144.2 1.890e+04 9.714e-09
 13.84440   -142.5 1.701e+04 5.041e-09
 13.85432   -141.9 1.661e+04 4.847e-09
 13.86465   -140.7 1.768e+04 9.425e-09
 13.87688   -140.0 1.754e+04 9.220e-09
 13.89754   -139.4 1.748e+04 9.263e-09
 13.91703   -139.0 1.740e+04 9.857e-09
 13.92736   -137.8 1.860e+04 1.164e-08
 13.93886   -137.6 1.860e+04 1.328e-08
 13.95952   -137.3 1.859e+04 1.509e-08
 13.97975   -136.8 1.851e+04 1.583e-08
 13.99008   -136.2 1.957e+04 1.582e-08
 14.00083   -135.3 1.930e+04 1.604e-08
 14.01814   -134.2 1.850e+04 1.437e-08
 14.02847   -133.1 1.735e+04 1.081e-08
 14.04215   -132.4 1.696e+04 1.013e-08
 14.05280   -131.5 1.656e+04 8.706e-09
 14.06313   -131.0 1.689e+04 8.317e-09
 14.08347   -130.0 1.630e+04 6.865e-09
 14.10413   -128.8 1.566e+04 5.675e-09
 14.11551   -127.6 1.524e+04 4.822e-09
 14.12584   -127.6 1.582e+04 4.899e-09
 14.14545   -126.6 1.542e+04 4.310e-09
 14.16611   -125.5 1.510e+04 3.917e-09
 14.17823   -124.4 1.495e+04 3.771e-09
 14.18856   -124.6 1.508e+04 3.458e-09
 14.20222   -123.6 1.490e+04 3.376e-09
 14.21255   -122.5 1.558e+04 4.662e-09
 14.22809   -121.7 1.558e+04 4.711e-09
 14.24095   -121.0 1.563e+04 5.253e-09
 14.25128   -120.8 1.546e+04 4.447e-09
 14.26941   -119.8 1.560e+04 4.838e-09
 14.29006   -118.9 1.586e+04 5.440e-09
 14.30367   -118.3 1.619e+04 6.290e-09
 14.31399   -118.6 1.604e+04 3.550e-09
 14.33138   -118.1 1.668e+04 3.894e-09
 14.35204   -117.5 1.737e+04 4.458e-09
 14.36638   -117.0 1.803e+04 4.819e-09
 14.37671   -118.3 1.629e+04 1.913e-09
 14.38629   -118.5 1.736e+04 2.111e-09
 14.39662   -117.6 1.877e+04 2.785e-09
 14.41402   -119.1 1.888e+04 2.999e-09
 14.42910   -120.3 1.785e+04 3.669e-09
 14.43943   -121.0 1.579e+04 1.348e-09
 14.45534   -121.6 1.585e+04 1.784e-09
 14.47600   -121.6 1.561e+04 2.616e-09
 14.49182   -121.4 1.539e+04 3.827e-09
 14.50215   -121.2 1.462e+04 1.938e-09
 14.51732   -120.7 1.485e+04 2.980e-09
 14.53798   -120.2 1.490e+04 4.192e-09
 14.55453   -119.4 1.489e+04 5.115e-09
 14.56486   -118.7 1.431e+04 3.265e-09
 14.57037   -117.9 1.431e+04 4.055e-09
 14.58070   -117.4 1.445e+04 4.109e-09
 14.59995   -116.6 1.444e+04 4.609e-09
 14.61725   -115.7 1.437e+04 4.688e-09
 14.62758   -115.2 1.392e+04 3.604e-09
 14.64127   -114.3 1.382e+04 3.668e-09
 14.66193   -113.3 1.342e+04 3.308e-09
 14.67997   -112.3 1.294e+04 2.640e-09
 14.69030   -111.9 1.290e+04 2.456e-09
 14.70325   -110.9 1.246e+04 1.971e-09
 14.72391   -110.0 1.207e+04 1.521e-09
 14.74268   -109.1 1.176e+04 1.193e-09
 14.75256   -108.6 1.176e+04 1.168e-09
 14.75445   -107.9 1.209e+04 1.411e-09
 14.76523   -107.1 1.186e+04 1.156e-09
 14.78589   -106.4 1.172e+04 1.001e-09
 14.80540   -105.4 1.164e+04 9.225e-10
 14.81573   -104.7 1.152e+04 8.595e-10
 14.82721   -103.6 1.152e+04 8.456e-10
 14.84787   -102.5 1.153e+04 8.463e-10
 14.86812   -101.5 1.160e+04 8.494e-10
 14.87845   -101.3 1.137e+04 7.512e-10
 14.88919   -100.4 1.143e+04 7.742e-10
 14.90984    -99.4 1.142e+04 8.433e-10
 14.92819    -98.4 1.145e+04 9.493e-10
 14.93852    -98.0 1.164e+04 1.119e-09
 14.94116    -97.0 1.173e+04 1.264e-09
 14.95149    -96.2 1.143e+04 1.004e-09
 14.97182    -95.2 1.152e+04 1.127e-09
 14.99248    -94.1 1.160e+04 1.244e-09
 15.00388    -93.1 1.167e+04 1.341e-09
 15.01421    -92.7 1.147e+04 9.325e-10
 15.03380    -91.8 1.151e+04 1.005e-09
 15.05446    -90.9 1.153e+04 1.069e-09
 15.06660    -90.0 1.153e+04 1.121e-09
 15.07693    -89.3 1.138e+04 6.446e-10
 15.09578    -88.6 1.136e+04 7.085e-10
 15.11227    -87.8 1.136e+04 8.059e-10
 15.12260    -87.7 1.149e+04 1.025e-09
 15.12932    -86.8 1.152e+04 1.100e-09
 15.13964    -86.5 1.148e+04 7.807e-10
 15.15776    -85.6 1.153e+04 8.941e-10
 15.17842    -84.8 1.163e+04 1.027e-09
 15.19203    -84.0 1.178e+04 1.176e-09
 15.20236    -83.7 1.171e+04 8.795e-10
 15.21973    -83.0 1.188e+04 1.078e-09
 15.24039    -82.2 1.211e+04 1.307e-09
 15.25475    -81.5 1.241e+04 1.559e-09
 15.26508    -81.3 1.216e+04 1.236e-09
 15.28171    -80.6 1.243e+04 1.452e-09
 15.29635    -80.1 1.271e+04 1.664e-09
 15.30667    -80.1 1.314e+04 2.084e-09
 15.31747    -79.8 1.338e+04 2.328e-09
 15.32780    -79.4 1.288e+04 1.679e-09
 15.34369    -79.1 1.300e+04 1.783e-09
 15.36435    -79.0 1.303e+04 1.862e-09
 15.38018    -78.8 1.302e+04 1.905e-09
 15.39051    -78.2 1.255e+04 1.272e-09
 15.40567    -77.9 1.252e+04 1.333e-09
 15.42633    -77.4 1.247e+04 1.394e-09
 15.44290    -76.7 1.245e+04 1.425e-09
 15.45323    -76.3 1.220e+04 1.089e-09
 15.46765    -75.5 1.223e+04 1.181e-09
 15.48042    -74.6 1.224e+04 1.213e-09
 15.49075    -74.6 1.234e+04 1.266e-09
 15.50562    -73.6 1.228e+04 1.167e-09
 15.51595    -73.2 1.226e+04 1.132e-09
 15.52962    -72.2 1.223e+04 1.065e-09
 15.55028    -71.2 1.216e+04 9.607e-10
 15.56833    -70.1 1.211e+04 8.158e-10
 15.57866    -69.6 1.201e+04 8.228e-10
 15.59160    -68.6 1.194e+04 7.130e-10
 15.61226    -67.6 1.192e+04 6.107e-10
 15.63105    -66.8 1.186e+04 5.484e-10
 15.64138    -66.6 1.182e+04 5.665e-10
 15.66401    -65.8 1.177e+04 4.982e-10
 15.69396    -63.7 1.155e+04 4.081e-10
 15.71462    -62.8 1.148e+04 4.193e-10
 15.74674    -60.9 1.140e+04 3.735e-10
 15.78806    -58.9 1.137e+04 3.532e-10
 15.81940    -57.0 1.137e+04 3.497e-10
 15.83879    -56.6 1.133e+04 3.321e-10
 15.84877    -56.6 1.146e+04 3.028e-10
 15.87070    -54.8 1.145e+04 3.039e-10
 15.91202    -53.1 1.146e+04 3.224e-10
 15.94483    -51.4 1.151e+04 3.436e-10
 15.96549    -51.0 1.124e+04 2.336e-10
 15.99465    -49.5 1.122e+04 2.394e-10
 16.03597    -48.1 1.128e+04 2.520e-10
 16.07027    -47.0 1.143e+04 2.737e-10
 16.09092    -46.2 1.095e+04 1.841e-10
 16.11861    -45.4 1.127e+04 2.282e-10
 16.15993    -44.9 1.172e+04 3.212e-10
 16.19082    -44.4 1.206e+04 4.412e-10
 16.20583    -44.8 1.223e+04 5.539e-10
 16.21127    -43.7 1.197e+04 4.634e-10
 16.21682    -44.1 1.216e+04 5.723e-10
 16.23204    -44.1 1.244e+04 8.624e-10
 16.25270    -43.9 1.263e+04 1.016e-09
 16.26855    -43.7 1.274e+04 1.062e-09
 16.27888    -43.1 1.264e+04 9.678e-10
 16.29402    -43.4 1.268e+04 9.430e-10
 16.31468    -43.6 1.255e+04 7.785e-10
 16.33127    -44.1 1.230e+04 6.048e-10
 16.34160    -43.7 1.212e+04 5.789e-10
 16.35600    -44.3 1.192e+04 4.680e-10
 16.37666    -44.8 1.174e+04 4.150e-10
 16.39047    -45.1 1.164e+04 4.030e-10
 16.39747    -45.2 1.158e+04 4.039e-10
 16.40431    -44.8 1.152e+04 3.870e-10
 16.41797    -44.8 1.149e+04 3.837e-10
 16.43863    -44.8 1.143e+04 4.058e-10
 16.45670    -44.6 1.142e+04 4.620e-10
 16.46703    -44.2 1.135e+04 4.401e-10
 16.47995    -43.7 1.138e+04 4.952e-10
 16.50061    -43.2 1.143e+04 5.449e-10
 16.51942    -42.7 1.147e+04 5.777e-10
 16.52975    -42.4 1.138e+04 5.388e-10
 16.54193    -41.9 1.137e+04 5.432e-10
 16.56259    -41.4 1.133e+04 5.424e-10
 16.57455    -40.8 1.122e+04 5.239e-10
 16.58376    -41.0 1.127e+04 5.555e-10
 16.59246    -40.7 1.115e+04 5.062e-10
 16.60391    -40.0 1.106e+04 4.741e-10
 16.62457    -39.6 1.103e+04 4.647e-10
 16.65565    -39.0 1.100e+04 4.649e-10
 16.69707    -37.4 1.093e+04 4.604e-10
 16.71809    -35.5 1.092e+04 4.846e-10
 16.73875    -35.0 1.091e+04 5.359e-10
 16.77971    -33.2 1.099e+04 5.538e-10
 16.82103    -31.4 1.107e+04 5.521e-10
 16.84353    -29.6 1.111e+04 5.636e-10
 16.86419    -29.2 1.086e+04 4.734e-10
 16.90366    -27.4 1.087e+04 4.618e-10
 16.93256    -25.7 1.090e+04 4.624e-10
 16.95322    -25.8 1.076e+04 4.121e-10
 16.96896    -24.1 1.081e+04 4.184e-10
 16.98962    -23.6 1.044e+04 2.621e-10
 17.02762    -22.0 1.052e+04 2.829e-10
 17.06894    -20.5 1.061e+04 3.222e-10
 17.09440    -19.0 1.066e+04 3.447e-10
 17.11506    -18.7 1.041e+04 2.933e-10
 17.15158    -17.1 1.045e+04 3.145e-10
 17.19289    -15.7 1.048e+04 3.124e-10
 17.21983    -14.5 1.045e+04 2.743e-10
 17.24049    -14.2 1.049e+04 3.082e-10
 17.27553    -13.3 1.044e+04 2.762e-10
 17.30072    -12.9 1.042e+04 2.642e-10
 17.32138    -12.4 1.045e+04 2.854e-10
 17.34526    -12.3 1.049e+04 2.888e-10
 17.36592    -11.9 1.062e+04 3.657e-10
 17.39949    -12.4 1.072e+04 3.798e-10
 17.43038    -13.6 1.083e+04 4.224e-10
 17.45094    -14.5 1.094e+04 4.963e-10
 17.47050    -15.2 1.097e+04 5.790e-10
 17.48083    -15.2 1.095e+04 5.748e-10
 17.48460    -15.6 1.099e+04 6.254e-10
 17.49493    -15.5 1.102e+04 6.875e-10
 17.51292    -15.8 1.102e+04 6.976e-10
 17.53322    -16.2 1.091e+04 6.723e-10
 17.54355    -16.1 1.097e+04 7.044e-10
 17.55424    -16.4 1.085e+04 6.344e-10
 17.57490    -16.8 1.068e+04 5.287e-10
 17.59603    -17.4 1.050e+04 4.208e-10
 17.61669    -16.8 1.046e+04 4.425e-10
 17.64730    -16.8 1.031e+04 3.799e-10
 17.66887    -16.7 9.931e+03 2.835e-10
 17.68953    -16.4 9.793e+03 2.747e-10
 17.72157    -15.7 9.430e+03 2.151e-10
 17.74222    -15.4 9.851e+03 2.813e-10
 17.77135    -14.6 9.791e+03 2.707e-10
 17.81267    -13.6 9.767e+03 2.754e-10
 17.84700    -12.6 9.856e+03 2.917e-10
 17.86756    -13.0 1.010e+04 3.746e-10
 17.88479    -13.1 1.023e+04 4.050e-10
 17.90544    -14.1 1.058e+04 5.076e-10
 17.91985    -15.6 1.114e+04 7.504e-10
 17.93018    -16.6 1.148e+04 9.447e-10
 17.94676    -17.7 1.220e+04 1.402e-09
 17.96742    -18.4 1.291e+04 1.994e-09
 17.98257    -18.8 1.356e+04 2.501e-09
 17.99290    -20.5 1.374e+04 2.642e-09
 18.00874    -21.5 1.385e+04 2.718e-09
 18.02650    -22.8 1.354e+04 2.303e-09
 18.03683    -23.3 1.357e+04 2.221e-09
 18.04528    -25.3 1.256e+04 1.466e-09
 18.05561    -26.5 1.217e+04 1.311e-09
 18.07072    -27.6 1.164e+04 9.061e-10
 18.09138    -28.5 1.142e+04 6.716e-10
 18.10800    -29.0 1.127e+04 5.505e-10
 18.11833    -30.0 1.117e+04 4.607e-10
 18.14312    -30.7 1.080e+04 3.468e-10
 18.18454    -30.1 1.056e+04 3.048e-10
 18.22330    -29.1 1.049e+04 3.020e-10
 18.24396    -29.8 1.064e+04 3.582e-10
 18.26718    -28.0 1.059e+04 3.905e-10
 18.30850    -26.2 1.057e+04 4.002e-10
 18.34874    -24.4 1.050e+04 3.844e-10
 18.36939    -24.6 1.074e+04 4.687e-10
 18.38451    -23.0 1.066e+04 4.389e-10
 18.40517    -22.6 1.063e+04 4.209e-10
 18.43245    -20.7 1.051e+04 3.746e-10
 18.47377    -18.9 1.048e+04 3.391e-10
 18.49483    -17.0 1.051e+04 3.229e-10
 18.51549    -17.9 1.086e+04 4.285e-10
 18.55641    -16.5 1.103e+04 4.658e-10
 18.57882    -16.4 1.131e+04 6.596e-10
 18.58905    -15.7 1.126e+04 5.877e-10
 18.60786    -15.2 1.148e+04 7.393e-10
 18.62007    -14.9 1.175e+04 9.456e-10
 18.64082    -15.8 1.215e+04 1.361e-09
 18.66994    -15.3 1.276e+04 1.937e-09
 18.68278    -15.3 1.317e+04 2.544e-09
 18.69311    -15.3 1.293e+04 2.501e-09
 18.71116    -14.9 1.312e+04 2.719e-09
 18.73182    -14.7 1.319e+04 2.752e-09
 18.74550    -14.6 1.328e+04 2.535e-09
 18.75582    -14.8 1.281e+04 2.002e-09
 18.77313    -14.8 1.335e+04 2.182e-09
 18.79380    -16.2 1.335e+04 1.824e-09
 18.80822    -18.0 1.317e+04 1.639e-09
 18.81855    -18.6 1.268e+04 1.530e-09
 18.83511    -20.0 1.272e+04 1.553e-09
 18.85577    -21.1 1.274e+04 1.733e-09
 18.87094    -21.5 1.272e+04 1.948e-09
 18.88126    -21.4 1.287e+04 2.071e-09
 18.89709    -21.4 1.289e+04 2.141e-09
 18.91775    -21.5 1.288e+04 2.132e-09
 18.93365    -21.6 1.278e+04 1.996e-09
 18.94212    -21.5 1.282e+04 1.935e-09
 18.94688    -21.7 1.301e+04 2.046e-09
 18.95907    -22.1 1.281e+04 1.829e-09
 18.97973    -22.4 1.266e+04 1.695e-09
 18.99637    -22.6 1.264e+04 1.628e-09
 19.00670    -22.2 1.246e+04 1.400e-09
 19.02105    -22.3 1.247e+04 1.375e-09
 19.04171    -22.4 1.256e+04 1.394e-09
 19.05909    -22.6 1.266e+04 1.475e-09
 19.06942    -22.2 1.254e+04 1.245e-09
 19.08303    -22.6 1.264e+04 1.420e-09
 19.10368    -22.9 1.271e+04 1.618e-09
 19.12062    -23.2 1.271e+04 1.702e-09
 19.12841    -23.4 1.255e+04 1.586e-09
 19.13213    -22.8 1.271e+04 1.705e-09
 19.14500    -23.0 1.274e+04 1.809e-09
 19.16566    -23.3 1.260e+04 1.770e-09
 19.18452    -23.4 1.217e+04 1.449e-09
 19.19485    -22.9 1.270e+04 1.893e-09
 19.20698    -23.2 1.217e+04 1.398e-09
 19.22764    -23.6 1.163e+04 9.539e-10
 19.24724    -24.0 1.112e+04 6.591e-10
 19.25757    -23.9 1.154e+04 8.507e-10
 19.26896    -24.3 1.102e+04 6.063e-10
 19.28962    -24.7 1.069e+04 4.806e-10
 19.30470    -24.9 1.059e+04 4.445e-10
 19.31470    -24.8 1.064e+04 4.615e-10
 19.32028    -24.7 1.080e+04 5.316e-10
 19.34136    -24.4 1.057e+04 4.475e-10
 19.37287    -23.3 1.040e+04 4.197e-10
 19.39353    -23.7 1.084e+04 5.923e-10
 19.42410    -22.5 1.073e+04 5.606e-10
 19.44582    -21.6 1.068e+04 5.456e-10
 19.45605    -22.0 1.088e+04 6.641e-10
 19.47555    -21.7 1.086e+04 7.060e-10
 19.48877    -21.3 1.085e+04 7.708e-10
 19.49910    -21.1 1.112e+04 9.603e-10
 19.50843    -20.5 1.116e+04 1.078e-09
 19.51876    -20.3 1.139e+04 1.134e-09
 19.53753    -19.8 1.146e+04 1.215e-09
 19.55819    -19.3 1.151e+04 1.292e-09
 19.57115    -18.8 1.151e+04 1.331e-09
 19.58148    -19.1 1.161e+04 1.297e-09
 19.59951    -18.7 1.157e+04 1.324e-09
 19.62017    -18.3 1.143e+04 1.302e-09
 19.63387    -17.7 1.124e+04 1.204e-09
 19.64420    -17.9 1.138e+04 1.293e-09
 19.66149    -17.2 1.115e+04 1.166e-09
 19.67285    -16.5 1.091e+04 9.925e-10
 19.68318    -16.5 1.104e+04 1.066e-09
 19.69659    -15.8 1.078e+04 8.537e-10
 19.70691    -15.9 1.098e+04 9.731e-10
 19.72346    -15.3 1.077e+04 7.844e-10
 19.74412    -14.9 1.059e+04 6.391e-10
 19.75930    -14.6 1.042e+04 5.380e-10
 19.76963    -15.0 1.065e+04 6.740e-10
 19.78544    -14.7 1.057e+04 6.483e-10
 19.80610    -14.2 1.055e+04 6.510e-10
 19.83636    -13.3 1.058e+04 6.705e-10
 19.85712    -13.7 1.061e+04 7.084e-10
 19.87460    -12.2 1.053e+04 6.941e-10
 19.89526    -12.8 1.115e+04 1.023e-09
 19.91992    -11.2 1.075e+04 8.081e-10
 19.96124     -9.7 1.035e+04 5.984e-10
 20.00004     -8.3 9.926e+03 4.275e-10
 20.02070     -9.0 9.859e+03 4.254e-10
 20.04388     -7.8 9.552e+03 3.589e-10
 20.08520     -6.4 9.480e+03 3.546e-10
 20.12547     -5.2 9.655e+03 3.903e-10
 20.14613     -5.9 1.012e+04 5.342e-10
 20.16783     -4.6 1.031e+04 6.475e-10
 20.20461     -3.1 1.036e+04 7.301e-10
 20.22527     -3.1 1.032e+04 7.022e-10
 20.25047     -1.6 1.032e+04 7.291e-10
 20.27156      0.0 1.003e+04 6.179e-10
 20.29222      0.0 9.841e+03 5.419e-10
 20.33311      1.4 9.448e+03 3.947e-10
 20.37443      2.8 9.100e+03 2.948e-10
 20.39700      4.4 8.725e+03 2.228e-10
 20.41766      4.5 8.668e+03 2.189e-10
 20.45707      6.5 8.459e+03 1.801e-10
 20.49838      8.3 8.307e+03 1.463e-10
 20.52243     10.0 8.181e+03 1.206e-10
 20.54309     10.6 8.251e+03 1.345e-10
 20.57277     12.2 8.149e+03 1.150e-10
 20.59343     12.2 8.067e+03 9.559e-11
 20.62234     13.9 8.061e+03 9.266e-11
 20.64786     15.4 8.221e+03 1.087e-10
 20.66852     16.3 8.162e+03 9.480e-11
 20.70498     17.7 8.410e+03 1.312e-10
 20.74630     19.1 8.698e+03 2.071e-10
 20.77330     20.7 9.068e+03 3.321e-10
 20.79396     21.5 8.905e+03 2.557e-10
 20.82893     23.3 9.230e+03 3.825e-10
 20.87025     25.2 9.448e+03 4.732e-10
 20.89873     27.1 9.460e+03 4.803e-10
 20.91939     27.8 9.178e+03 3.624e-10
 20.94092     29.6 9.122e+03 3.392e-10
 20.96158     30.0 9.240e+03 3.912e-10
 20.99421     31.9 9.269e+03 3.771e-10
 21.02417     33.5 9.264e+03 3.481e-10
 21.04483     34.2 9.026e+03 2.750e-10
 21.07684     35.8 9.147e+03 2.766e-10
 21.11816     37.0 9.311e+03 3.351e-10
 21.14960     38.7 9.458e+03 4.185e-10
 21.17026     39.7 9.011e+03 2.794e-10
 21.20080     41.7 9.113e+03 2.808e-10
 21.24212     43.6 9.086e+03 2.615e-10
 21.27503     45.6 8.939e+03 2.157e-10
 21.29569     46.2 8.765e+03 1.489e-10
 21.30907     48.1 8.674e+03 1.363e-10
 21.32973     48.6 8.663e+03 1.380e-10
 21.36608     50.3 8.598e+03 1.117e-10
 21.40047     51.9 8.572e+03 9.686e-11
 21.42113     53.2 8.527e+03 9.634e-11
 21.44871     55.1 8.499e+03 9.183e-11
 21.49003     56.9 8.525e+03 9.400e-11
 21.52590     59.0 8.519e+03 1.016e-10
 21.54656     60.3 8.483e+03 9.010e-11
 21.57267     62.5 8.449e+03 9.365e-11
 21.61399     64.7 8.437e+03 9.855e-11
 21.65134     66.9 8.475e+03 1.046e-10
 21.67200     68.0 8.332e+03 8.814e-11
 21.67722     70.1 8.374e+03 9.277e-11
 21.69788     70.6 8.430e+03 1.093e-10
 21.73794     72.6 8.508e+03 1.198e-10
 21.77677     74.6 8.602e+03 1.376e-10
 21.79743     75.5 8.400e+03 1.083e-10
 21.82058     77.5 8.511e+03 1.302e-10
 21.86190     79.4 8.720e+03 1.703e-10
 21.90220     81.2 9.062e+03 2.341e-10
 21.92286     82.2 8.855e+03 1.965e-10
 21.94454     83.9 9.296e+03 2.821e-10
 21.98585     85.5 9.686e+03 3.745e-10
 22.02471     86.6 9.898e+03 4.369e-10
 22.04528     87.6 9.888e+03 4.540e-10
 22.04810     88.6 1.005e+04 5.270e-10
 22.05843     89.1 1.000e+04 5.051e-10
 22.07863     89.7 1.021e+04 5.880e-10
 22.09929     90.2 1.047e+04 6.834e-10
 22.11082     90.5 1.072e+04 8.018e-10
 22.12115     91.1 1.057e+04 7.176e-10
 22.14060     91.3 1.077e+04 8.324e-10
 22.16126     91.7 1.094e+04 9.571e-10
 22.17354     92.2 1.110e+04 1.045e-09
 22.18387     92.7 1.084e+04 8.697e-10
 22.20258     93.2 1.087e+04 8.756e-10
 22.21893     93.7 1.084e+04 8.549e-10
 22.22925     94.0 1.103e+04 9.895e-10
 22.23625     94.6 1.089e+04 8.832e-10
 22.24658     94.9 1.054e+04 7.203e-10
 22.26456     95.6 1.039e+04 5.935e-10
 22.28522     95.8 1.031e+04 4.701e-10
 22.29897     95.9 1.024e+04 3.757e-10
 22.31973     96.4 1.008e+04 3.193e-10
 22.35772     97.2 1.008e+04 3.094e-10
 22.38861     98.1 1.003e+04 3.062e-10
 22.40300     98.5 1.008e+04 3.185e-10
 22.41333     98.6 1.008e+04 3.218e-10
 22.42440     99.2 1.028e+04 3.814e-10
 22.43473     99.3 1.009e+04 3.422e-10
 22.45049     99.6 1.035e+04 4.301e-10
 22.47115     99.8 1.079e+04 5.839e-10
 22.48712     99.8 1.141e+04 8.386e-10
 22.49745    100.3 1.094e+04 7.030e-10
 22.51247    100.4 1.156e+04 9.749e-10
 22.53313    100.2 1.233e+04 1.379e-09
 22.54984     99.4 1.339e+04 2.037e-09
 22.56017     99.8 1.266e+04 1.443e-09
 22.57445     98.2 1.392e+04 2.198e-09
 22.58708     96.3 1.497e+04 3.441e-09
 22.59741     94.6 1.602e+04 5.539e-09
 22.61255     93.6 1.636e+04 7.255e-09
 22.62288     93.2 1.592e+04 5.940e-09
 22.63643     92.4 1.598e+04 6.455e-09
 22.65709     91.4 1.586e+04 5.730e-09
 22.67527     90.0 1.540e+04 4.641e-09
 22.68560     89.5 1.539e+04 4.710e-09
 22.69841     87.7 1.491e+04 3.541e-09
 22.71906     85.5 1.413e+04 2.582e-09
 22.73799     83.2 1.327e+04 2.027e-09
 22.74832     83.4 1.336e+04 2.122e-09
 22.76038     81.3 1.262e+04 1.812e-09
 22.77115     79.5 1.222e+04 1.728e-09
 22.78148     78.4 1.201e+04 1.572e-09
 22.80071     77.4 1.199e+04 1.603e-09
 22.82146     76.7 1.158e+04 1.084e-09
 22.85355     75.0 1.160e+04 1.027e-09
 22.89486     73.3 1.182e+04 1.115e-09
 22.92634     72.8 1.205e+04 1.355e-09
 22.94548     73.2 1.147e+04 1.025e-09
 22.95523     73.4 1.138e+04 9.737e-10
 22.96698     73.8 1.140e+04 1.065e-09
 22.98764     74.0 1.139e+04 1.084e-09
 22.99919     75.0 1.118e+04 1.008e-09
 23.00952     75.4 1.106e+04 9.275e-10
 23.02895     76.1 1.099e+04 8.950e-10
 23.04961     76.9 1.090e+04 8.319e-10
 23.06190     77.5 1.086e+04 7.676e-10
 23.07223     77.8 1.100e+04 8.835e-10
 23.09093     78.5 1.098e+04 8.558e-10
 23.11159     79.1 1.095e+04 8.350e-10
 23.12462     80.1 1.091e+04 8.016e-10
 23.13167     80.5 1.123e+04 1.010e-09
 23.14973     80.5 1.138e+04 1.043e-09
 23.17720     81.6 1.131e+04 1.020e-09
 23.19786     81.9 1.201e+04 1.487e-09
 23.22541     82.7 1.172e+04 1.213e-09
 23.26673     83.7 1.135e+04 9.417e-10
 23.30264     84.8 1.103e+04 7.253e-10
 23.32330     84.0 1.132e+04 8.163e-10
 23.34937     85.1 1.098e+04 6.345e-10
 23.39069     86.5 1.069e+04 5.234e-10
 23.42807     88.2 1.046e+04 4.646e-10
 23.44873     87.5 1.067e+04 5.109e-10
 23.47333     89.6 1.052e+04 4.723e-10
 23.49732     91.7 1.047e+04 4.562e-10
 23.51798     91.5 1.021e+04 3.653e-10
 23.55350     93.7 1.016e+04 3.383e-10
 23.57416     93.1 1.018e+04 3.374e-10
 23.59728     95.3 1.011e+04 3.032e-10
 23.63860     97.5 1.001e+04 2.682e-10
 23.67894     99.8 9.890e+03 2.412e-10
 23.69960     99.7 9.837e+03 2.253e-10
 23.72124    102.1 9.744e+03 2.066e-10
 23.76256    104.7 9.677e+03 1.937e-10
 23.80387    107.3 9.633e+03 1.837e-10
 23.82503    109.9 9.592e+03 1.737e-10
 23.84531    110.0 9.569e+03 1.474e-10
 23.86547    110.1 9.462e+03 1.424e-10
 23.88651    112.7 9.495e+03 1.399e-10
 23.92783    115.3 9.523e+03 1.360e-10
 23.95047    117.8 9.540e+03 1.350e-10
 23.97113    118.0 9.537e+03 1.227e-10
 24.01047    120.5 9.571e+03 1.252e-10
 24.05179    122.9 9.616e+03 1.285e-10
 24.07590    125.2 9.686e+03 1.337e-10
 24.09656    125.4 9.692e+03 1.305e-10
 24.13442    127.6 9.809e+03 1.395e-10
 24.17574    129.8 9.922e+03 1.545e-10
 24.20133    131.8 1.003e+04 1.765e-10
 24.21790    131.9 1.005e+04 1.777e-10
 24.23363    131.8 9.967e+03 1.481e-10
 24.25838    133.6 1.007e+04 1.635e-10
 24.29970    135.3 1.016e+04 1.841e-10
 24.32677    136.9 1.024e+04 2.094e-10
 24.34743    136.7 1.034e+04 2.303e-10
 24.38233    138.1 1.047e+04 2.675e-10
 24.42365    139.6 1.060e+04 3.135e-10
 24.45220    141.0 1.073e+04 3.533e-10
 24.47286    140.5 1.100e+04 4.177e-10
 24.50629    141.9 1.101e+04 3.999e-10
 24.54761    143.4 1.092e+04 3.543e-10
 24.57764    145.0 1.084e+04 2.973e-10
 24.59049    144.5 1.081e+04 2.252e-10
 24.60178    144.2 1.060e+04 2.030e-10
 24.63025    146.2 1.050e+04 1.593e-10
 24.67157    148.2 1.044e+04 1.228e-10
 24.70307    150.3 1.040e+04 9.419e-11
 24.72373    149.9 1.030e+04 7.400e-11
 24.75420    152.1 1.021e+04 6.358e-11
 24.79552    154.4 1.016e+04 5.467e-11
 24.82850    156.6 1.015e+04 4.605e-11
 24.84916    156.6 1.012e+04 4.813e-11
 24.87816    158.7 1.011e+04 4.144e-11
 24.91948    160.8 1.006e+04 3.665e-11
 24.94927    162.8 9.926e+03 3.434e-11
 24.96307    162.8 9.937e+03 3.419e-11
 24.97460    163.1 9.982e+03 4.113e-11
 25.00211    165.2 9.874e+03 3.896e-11
 25.04343    167.2 9.879e+03 3.889e-11
 25.07937    169.2 9.921e+03 4.017e-11
 25.10003    169.6 9.880e+03 4.980e-11
 25.12607    171.5 9.895e+03 5.331e-11
 25.16739    173.4 9.879e+03 6.293e-11
 25.20481    175.3 9.880e+03 7.871e-11
 25.22546    175.4 9.943e+03 1.025e-10
 25.25003    177.1 1.001e+04 1.308e-10
 25.29134    178.8 1.008e+04 1.598e-10
 25.31742    180.4 1.010e+04 1.757e-10
 25.33566    181.0 1.012e+04 1.848e-10
 25.35090    180.4 1.040e+04 2.285e-10
 25.37398    181.9 1.038e+04 2.249e-10
 25.41530    183.4 1.029e+04 2.091e-10
 25.45567    185.0 1.015e+04 1.870e-10
 25.47623    184.7 1.021e+04 1.936e-10
 25.48741    185.7 1.019e+04 1.894e-10
 25.50130    186.3 1.020e+04 1.897e-10
 25.51163    186.8 1.019e+04 1.918e-10
 25.52852    187.7 1.020e+04 1.940e-10
 25.53885    187.3 1.042e+04 2.099e-10
 25.54939    187.8 1.053e+04 2.223e-10
 25.57005    188.2 1.069e+04 2.469e-10
 25.59071    188.5 1.090e+04 3.006e-10
 25.60157    188.7 1.113e+04 4.085e-10
 25.61190    187.6 1.154e+04 7.711e-10
 25.63203    187.9 1.205e+04 1.146e-09
 25.65269    188.2 1.265e+04 1.668e-09
 25.66429    188.4 1.321e+04 2.291e-09
 25.66940    186.0 1.497e+04 3.608e-09
 25.67841    185.9 1.532e+04 4.145e-09
 25.68533    185.7 1.582e+04 5.417e-09
 25.69050    185.3 1.594e+04 5.181e-09
 25.69555    185.1 1.623e+04 5.678e-09
 25.70071    184.8 1.649e+04 6.429e-09
 25.71462    184.9 1.663e+04 7.092e-09
 25.72700    184.9 1.658e+04 7.547e-09
 25.73733    182.0 1.953e+04 1.328e-08
 25.75598    181.8 1.909e+04 1.048e-08
 25.77664    181.4 1.853e+04 7.813e-09
 25.78972    180.8 1.773e+04 5.854e-09
 25.80005    176.6 1.791e+04 5.339e-09
 25.81796    176.4 1.656e+04 3.926e-09
 25.83862    176.6 1.529e+04 3.031e-09
 25.85244    177.2 1.437e+04 2.446e-09
 25.86261    175.2 1.355e+04 2.160e-09
 25.86946    174.6 1.363e+04 2.254e-09
 25.87994    175.6 1.317e+04 1.845e-09
 25.90060    176.4 1.278e+04 1.523e-09
 25.91516    176.9 1.239e+04 1.282e-09
 25.92549    175.7 1.242e+04 1.286e-09
 25.94192    176.2 1.204e+04 1.104e-09
 25.96258    176.5 1.170e+04 9.999e-10
 25.97787    176.9 1.146e+04 9.800e-10
 25.98820    176.1 1.191e+04 1.072e-09
 26.00390    176.6 1.192e+04 1.080e-09
 26.02455    176.7 1.200e+04 1.132e-09
 26.04059    176.6 1.227e+04 1.281e-09
 26.04891    174.6 1.390e+04 2.056e-09
 26.05353    174.8 1.321e+04 1.810e-09
 26.06587    173.9 1.432e+04 2.532e-09
 26.08653    172.7 1.569e+04 3.972e-09
 26.10331    171.6 1.699e+04 6.497e-09
 26.11364    171.5 1.786e+04 1.050e-08
 26.12785    171.2 1.900e+04 1.567e-08
 26.13978    170.4 1.976e+04 2.033e-08
 26.14196    170.3 2.026e+04 2.333e-08
 26.14547    170.6 1.980e+04 2.040e-08
 26.15358    170.2 2.006e+04 2.206e-08
 26.16391    169.7 2.013e+04 2.185e-08
 26.17109    169.2 2.012e+04 2.153e-08
 26.17626    168.9 2.012e+04 2.089e-08
 26.18978    167.7 2.020e+04 1.857e-08
 26.21049    166.8 1.917e+04 1.262e-08
 26.22728    165.8 1.792e+04 8.437e-09
 26.23520    166.7 1.744e+04 7.476e-09
 26.23907    164.7 1.642e+04 4.293e-09
 26.25181    163.4 1.502e+04 3.325e-09
 26.27247    162.7 1.390e+04 2.770e-09
 26.29146    162.7 1.332e+04 2.464e-09
 26.30179    162.3 1.267e+04 1.796e-09
 26.31379    163.4 1.253e+04 1.691e-09
 26.33444    165.1 1.238e+04 1.595e-09
 26.35417    167.2 1.209e+04 1.481e-09
 26.36450    168.5 1.212e+04 1.085e-09
 26.37576    168.5 1.464e+04 1.084e-09
 26.39065    166.4 1.912e+04 1.181e-09
 26.39577    159.6 2.862e+04 1.436e-09
 26.40149    147.8 3.261e+04 7.189e-09
 26.41126    143.0 2.675e+04 4.226e-08
 26.41642    145.8 3.081e+04 1.241e-08
 26.42196    140.8 3.289e+04 1.987e-08
 26.42712    138.3 3.591e+04 3.092e-08
 26.43248    129.6 3.974e+04 2.970e-08
 26.44281    120.4 2.999e+04 6.868e-08
 26.45314    115.8 2.428e+04 1.040e-07
 26.45848    114.4 2.299e+04 1.012e-07
 26.46365    112.0 2.292e+04 1.202e-07
 26.47380    113.9 2.259e+04 8.851e-08
 26.48413    115.3 2.366e+04 3.987e-08
 26.48984    114.9 2.558e+04 1.149e-08
 26.50022    115.4 2.827e+04 6.115e-09
 26.52038    109.8 2.822e+04 8.475e-10
 26.54104     98.7 1.279e+04 4.103e-10
 26.57212     91.4 9.885e+03 3.895e-10
 26.60524     92.2 9.465e+03 3.540e-10
 26.62590     92.4 9.691e+03 4.278e-10
 26.65486     95.2 9.771e+03 4.480e-10
 26.69618     97.4 9.955e+03 4.972e-10
 26.72707     97.9 1.023e+04 6.054e-10
 26.74081     98.6 1.033e+04 6.538e-10
 26.75114     98.6 1.049e+04 7.271e-10
 26.76829     99.4 1.052e+04 7.501e-10
 26.77951    100.0 1.053e+04 7.603e-10
 26.78984     99.1 1.084e+04 9.055e-10
 26.80352     99.8 1.080e+04 8.876e-10
 26.81385     99.8 1.077e+04 8.666e-10
 26.83027    100.4 1.070e+04 8.282e-10
 26.85093    101.0 1.063e+04 7.864e-10
 26.86624    101.5 1.057e+04 7.487e-10
 26.87657    101.4 1.058e+04 7.319e-10
 26.89225    101.8 1.059e+04 7.309e-10
 26.91291    102.2 1.062e+04 7.370e-10
 26.92896    102.5 1.071e+04 7.614e-10
 26.93929    102.3 1.082e+04 8.008e-10
 26.95325    102.5 1.098e+04 8.734e-10
 26.96358    101.7 1.089e+04 8.219e-10
 26.97488    101.9 1.100e+04 8.780e-10
 26.99167    102.0 1.113e+04 9.456e-10
 27.00200    102.0 1.125e+04 1.019e-09
 27.01620    102.3 1.143e+04 1.094e-09
 27.03686    102.7 1.157e+04 1.141e-09
 27.05439    103.0 1.161e+04 1.142e-09
 27.06472    102.8 1.154e+04 1.079e-09
 27.07818    102.8 1.150e+04 1.037e-09
 27.09884    102.8 1.141e+04 9.745e-10
 27.11711    102.7 1.130e+04 8.972e-10
 27.12744    102.7 1.124e+04 8.283e-10
 27.13733    102.5 1.113e+04 7.413e-10
 27.14766    101.7 1.089e+04 6.392e-10
 27.16082    101.5 1.081e+04 5.783e-10
 27.17982    101.2 1.072e+04 5.131e-10
 27.19015    101.0 1.071e+04 4.993e-10
 27.20214    100.5 1.062e+04 4.514e-10
 27.22280    100.2 1.052e+04 4.185e-10
 27.24254     99.9 1.043e+04 4.105e-10
 27.25287     99.8 1.051e+04 4.541e-10
 27.26411     99.6 1.054e+04 4.631e-10
 27.28477     99.3 1.061e+04 4.921e-10
 27.31586     98.5 1.099e+04 6.638e-10
 27.35728     97.8 1.166e+04 9.734e-10
 27.37850     97.0 1.251e+04 1.415e-09
 27.38873     96.1 1.258e+04 1.546e-09
 27.40873     95.6 1.287e+04 1.760e-09
 27.42939     95.2 1.307e+04 1.876e-09
 27.44102     94.7 1.310e+04 1.859e-09
 27.45135     93.7 1.328e+04 2.040e-09
 27.47071     93.2 1.322e+04 1.891e-09
 27.49137     92.6 1.303e+04 1.656e-09
 27.50374     91.8 1.281e+04 1.448e-09
 27.50752     89.5 1.316e+04 1.657e-09
 27.51581     90.1 1.303e+04 1.527e-09
 27.53268     89.3 1.312e+04 1.562e-09
 27.55334     88.5 1.334e+04 1.687e-09
 27.56646     87.8 1.364e+04 1.901e-09
 27.57679     85.8 1.413e+04 2.818e-09
 27.59466     85.8 1.421e+04 3.195e-09
 27.61532     85.9 1.425e+04 3.485e-09
 27.62917     86.1 1.418e+04 3.606e-09
 27.63950     85.2 1.421e+04 3.786e-09
 27.65664     85.0 1.423e+04 3.588e-09
 27.67730     83.3 1.489e+04 3.592e-09
 27.68951     81.1 1.605e+04 3.878e-09
 27.69372     82.4 1.591e+04 4.349e-09
 27.69696     79.0 1.689e+04 4.127e-09
 27.70303     75.5 1.861e+04 4.805e-09
 27.71336     68.6 2.204e+04 6.900e-09
 27.72315     62.0 2.395e+04 1.094e-08
 27.72832     57.8 2.116e+04 1.236e-08
 27.73402     54.5 2.030e+04 1.319e-08
 27.74435     52.4 1.930e+04 1.324e-08
 27.75451     50.8 1.890e+04 1.210e-08
 27.75967     48.8 1.847e+04 9.793e-09
 27.76500     46.2 1.872e+04 6.988e-09
 27.78055     39.2 1.828e+04 3.494e-09
 27.80126     27.1 1.558e+04 1.361e-09
 27.81732     17.1 1.171e+04 9.304e-10
 27.82765     16.8 1.129e+04 8.586e-10
 27.84257     14.0 1.140e+04 9.002e-10
 27.86323     11.7 1.174e+04 1.019e-09
 27.88004      8.0 1.211e+04 1.255e-09
 27.89037      9.4 1.194e+04 1.154e-09
 27.90455      7.5 1.203e+04 1.253e-09
 27.92521      6.0 1.205e+04 1.267e-09
 27.94276      5.0 1.193e+04 1.213e-09
 27.95309      6.5 1.188e+04 1.232e-09
 27.96653      6.0 1.170e+04 1.145e-09
 27.98719      5.8 1.146e+04 9.664e-10
 28.00548      5.4 1.130e+04 7.721e-10
 28.01580      7.1 1.142e+04 8.811e-10
 28.02851      6.3 1.137e+04 7.029e-10
 28.04738      5.2 1.116e+04 5.866e-10
 28.05771      4.3 1.133e+04 6.348e-10
 28.06819      3.6 1.090e+04 6.184e-10
 28.07852      5.4 1.124e+04 6.490e-10
 28.09049      5.0 1.095e+04 6.415e-10
 28.11115      5.2 1.086e+04 6.723e-10
 28.13091      5.5 1.089e+04 7.197e-10
 28.14124      6.5 1.114e+04 7.667e-10
 28.15246      6.8 1.120e+04 8.215e-10
 28.17312      7.1 1.131e+04 8.883e-10
 28.19363      7.4 1.142e+04 9.533e-10
 28.20396      8.2 1.157e+04 1.014e-09
 28.21444      8.5 1.172e+04 1.103e-09
 28.23145      8.7 1.188e+04 1.197e-09
 28.24178      8.6 1.202e+04 1.286e-09
 28.25576      8.8 1.222e+04 1.365e-09
 28.26667      8.8 1.235e+04 1.426e-09
 28.27700      8.7 1.294e+04 1.955e-09
 28.29708      8.4 1.316e+04 2.438e-09
 28.31774      8.8 1.328e+04 2.757e-09
 28.32939      9.5 1.330e+04 2.683e-09
 28.33972      9.2 1.406e+04 4.544e-09
 28.35906     10.7 1.392e+04 4.139e-09
 28.37972     11.4 1.385e+04 3.031e-09
 28.39211     10.9 1.393e+04 1.939e-09
 28.40244     11.2 1.414e+04 3.227e-09
 28.41553     10.3 1.347e+04 2.018e-09
 28.42586     10.3 1.363e+04 2.406e-09
 28.44169      9.7 1.247e+04 1.630e-09
 28.45482      9.8 1.171e+04 1.218e-09
 28.46515     10.5 1.194e+04 1.352e-09
 28.48301     10.6 1.161e+04 1.024e-09
 28.50367     10.5 1.172e+04 8.190e-10
 28.51754     10.1 1.186e+04 7.351e-10
 28.52787      9.4 1.166e+04 6.442e-10
 28.54499      8.9 1.161e+04 6.533e-10
 28.56565      8.6 1.164e+04 7.261e-10
 28.58026      8.7 1.172e+04 8.525e-10
 28.59059      8.8 1.125e+04 6.337e-10
 28.59961      9.2 1.137e+04 7.095e-10
 28.60994      9.4 1.145e+04 7.607e-10
 28.62763      9.9 1.154e+04 7.948e-10
 28.64297     10.3 1.151e+04 7.776e-10
 28.65330      9.7 1.106e+04 4.734e-10
 28.66895      9.8 1.093e+04 4.352e-10
 28.68961      9.7 1.077e+04 3.983e-10
 28.72069      9.4 1.047e+04 3.205e-10
 28.75827      9.5 1.034e+04 3.253e-10
 28.77893      8.8 1.004e+04 2.595e-10
 28.80343      9.3 1.012e+04 3.037e-10
 28.84475      9.8 1.019e+04 3.304e-10
 28.88371     10.2 1.023e+04 3.370e-10
 28.90437      9.6 1.020e+04 3.440e-10
 28.92738      9.4 1.031e+04 3.614e-10
 28.95666      9.1 1.047e+04 4.144e-10
 28.96614      8.8 1.047e+04 4.193e-10
 28.96776      9.0 1.046e+04 4.284e-10
 28.97884      8.8 1.061e+04 4.904e-10
 28.99950      8.6 1.089e+04 5.813e-10
 29.01928      8.3 1.130e+04 7.173e-10
 29.02961      8.9 1.089e+04 5.548e-10
 29.04081      8.7 1.121e+04 6.354e-10
 29.06147      8.6 1.140e+04 7.475e-10
 29.08199      8.2 1.171e+04 9.125e-10
 29.09232      8.5 1.118e+04 6.014e-10
 29.10279      5.6 1.288e+04 1.048e-09
 29.12345      1.0 1.521e+04 2.667e-09
 29.14151     -0.9 1.555e+04 5.341e-09
 29.15183      0.2 1.559e+04 4.913e-09
 29.15504      0.8 1.603e+04 8.860e-09
 29.16537     -0.5 1.655e+04 1.010e-08
 29.18543      1.2 1.717e+04 1.509e-08
 29.20609      1.5 1.761e+04 1.320e-08
 29.21776     -0.9 1.929e+04 9.262e-09
 29.22809     -1.5 1.973e+04 1.239e-08
 29.24741     -6.4 1.907e+04 7.140e-09
 29.26807    -13.2 1.534e+04 4.334e-09
 29.28047    -14.8 1.430e+04 3.864e-09
 29.29080    -15.1 1.430e+04 3.939e-09
 29.30939    -15.3 1.387e+04 3.271e-09
 29.32558    -15.5 1.339e+04 2.485e-09
 29.33591    -15.4 1.407e+04 2.927e-09
 29.34319    -16.3 1.323e+04 1.948e-09
 29.35352    -17.9 1.247e+04 1.468e-09
 29.37136    -18.9 1.161e+04 1.027e-09
 29.39202    -19.3 1.095e+04 7.542e-10
 29.40591    -19.5 1.054e+04 5.928e-10
 29.41624    -19.6 1.032e+04 5.262e-10
 29.43334    -20.0 1.017e+04 4.433e-10
 29.45400    -20.6 1.012e+04 4.152e-10
 29.46862    -21.3 1.046e+04 4.468e-10
 29.47895    -21.2 1.018e+04 3.788e-10
 29.49532    -22.2 1.041e+04 4.823e-10
 29.50966    -22.9 1.062e+04 6.580e-10
 29.51999    -23.3 1.113e+04 9.586e-10
 29.53134    -22.7 1.153e+04 1.298e-09
 29.54167    -22.4 1.123e+04 1.047e-09
 29.55730    -22.0 1.155e+04 1.272e-09
 29.57796    -21.5 1.182e+04 1.426e-09
 29.59406    -21.5 1.203e+04 1.358e-09
 29.60439    -21.7 1.178e+04 1.214e-09
 29.61928    -22.4 1.186e+04 1.191e-09
 29.63993    -23.5 1.203e+04 1.166e-09
 29.65678    -25.1 1.214e+04 1.145e-09
 29.66711    -24.6 1.195e+04 1.081e-09
 29.68125    -26.1 1.204e+04 1.116e-09
 29.69373    -27.9 1.222e+04 1.225e-09
 29.70406    -30.1 1.249e+04 1.355e-09
 29.71949    -31.9 1.306e+04 1.786e-09
 29.72982    -31.4 1.279e+04 1.458e-09
 29.74323    -33.1 1.320e+04 1.928e-09
 29.76389    -34.2 1.345e+04 2.443e-09
 29.78221    -34.8 1.369e+04 2.766e-09
 29.79254    -34.4 1.328e+04 2.273e-09
 29.80521    -34.6 1.349e+04 2.362e-09
 29.82587    -35.2 1.368e+04 2.060e-09
 29.84493    -36.4 1.363e+04 1.482e-09
 29.85526    -35.7 1.329e+04 1.305e-09
 29.86719    -37.6 1.278e+04 8.721e-10
 29.87781    -39.5 1.209e+04 6.402e-10
 29.88814    -42.0 1.137e+04 4.397e-10
 29.90764    -43.1 1.083e+04 3.535e-10
 29.92840    -40.2 1.135e+04 4.241e-10
 29.96035    -41.0 1.049e+04 3.123e-10
 30.00167    -41.1 9.920e+03 2.426e-10
 30.03327    -41.4 9.636e+03 2.150e-10
 30.05237    -38.4 9.689e+03 1.957e-10
 30.06208    -41.4 9.567e+03 1.937e-10
 30.08431    -41.3 9.515e+03 1.944e-10
 30.12562    -40.7 9.542e+03 2.101e-10
 30.15871    -40.0 9.642e+03 2.239e-10
 30.17937    -38.4 9.737e+03 2.485e-10
 30.20826    -37.8 9.846e+03 2.722e-10
 30.24958    -37.4 9.834e+03 2.825e-10
 30.28414    -37.0 9.762e+03 2.910e-10
 30.30480    -35.3 9.946e+03 3.749e-10
 30.33222    -34.9 9.905e+03 3.815e-10
 30.37354    -34.5 9.852e+03 3.693e-10
 30.40957    -34.1 9.916e+03 3.500e-10
 30.43013    -33.1 1.019e+04 4.618e-10
 30.44565    -33.7 1.042e+04 4.953e-10
 30.46631    -34.4 1.067e+04 5.854e-10
 30.48243    -34.9 1.092e+04 7.329e-10
 30.49276    -33.8 1.099e+04 7.992e-10
 30.50763    -34.2 1.131e+04 1.010e-09
 30.52829    -34.4 1.167e+04 1.247e-09
 30.54514    -34.6 1.198e+04 1.431e-09
 30.55547    -33.7 1.231e+04 1.691e-09
 30.56960    -34.0 1.256e+04 1.820e-09
 30.59026    -34.6 1.250e+04 1.782e-09
 30.60378    -35.3 1.217e+04 1.590e-09
 30.61105    -35.9 1.195e+04 1.409e-09
 30.61819    -34.7 1.248e+04 1.747e-09
 30.63158    -35.5 1.177e+04 1.316e-09
 30.65224    -36.0 1.115e+04 9.851e-10
 30.67058    -36.6 1.072e+04 7.666e-10
 30.68091    -35.8 1.096e+04 8.703e-10
 30.69356    -36.4 1.060e+04 7.087e-10
 30.71422    -36.9 1.039e+04 6.394e-10
 30.73329    -37.2 1.031e+04 6.214e-10
 30.74362    -36.5 1.041e+04 6.643e-10
 30.75554    -36.7 1.035e+04 6.575e-10
 30.77763    -36.7 1.032e+04 6.687e-10
 30.79754    -37.5 1.046e+04 7.113e-10
 30.80654    -36.2 1.055e+04 7.369e-10
 30.82804    -36.1 1.089e+04 9.633e-10
 30.85883    -35.6 1.092e+04 1.044e-09
 30.86906    -35.0 1.101e+04 1.075e-09
 30.87949    -34.8 1.110e+04 1.113e-09
 30.90015    -34.7 1.113e+04 1.138e-09
 30.92081    -34.6 1.105e+04 1.110e-09
 30.93177    -34.6 1.089e+04 1.025e-09
 30.94210    -34.1 1.110e+04 1.126e-09
 30.96161    -34.1 1.100e+04 1.059e-09
 30.97194    -34.4 1.123e+04 1.186e-09
 30.98279    -34.4 1.114e+04 1.112e-09
 30.99449    -34.5 1.101e+04 1.029e-09
 31.00482    -34.3 1.093e+04 9.857e-10
 31.03454    -34.3 1.075e+04 9.127e-10
 31.05740    -34.6 1.059e+04 8.248e-10
 31.07806    -33.4 1.040e+04 7.251e-10
 31.11727    -33.7 1.031e+04 6.484e-10
 31.14588    -34.5 1.034e+04 5.995e-10
 31.16654    -35.9 1.037e+04 5.962e-10
 31.18284    -36.9 1.054e+04 6.320e-10
 31.20350    -35.8 1.031e+04 5.323e-10
 31.24123    -36.5 1.051e+04 6.270e-10
 31.28255    -36.7 1.069e+04 7.095e-10
 31.30827    -36.9 1.070e+04 6.763e-10
 31.32893    -36.0 1.053e+04 5.951e-10
 31.36518    -36.5 1.024e+04 4.627e-10
 31.40650    -37.1 9.902e+03 3.626e-10
 31.43371    -37.2 9.801e+03 3.385e-10
 31.45436    -36.3 9.680e+03 3.054e-10
 31.48914    -36.2 9.640e+03 2.920e-10
 31.51403    -35.9 9.669e+03 2.826e-10
 31.53469    -35.9 9.401e+03 2.213e-10
 31.55914    -35.7 9.549e+03 2.281e-10
 31.57980    -34.7 9.305e+03 2.044e-10
 31.61309    -34.8 9.512e+03 2.266e-10
 31.65441    -34.9 9.683e+03 3.247e-10
 31.68457    -34.6 9.860e+03 4.638e-10
 31.70523    -33.3 9.862e+03 4.577e-10
 31.73705    -32.6 1.001e+04 5.629e-10
 31.77837    -32.1 1.001e+04 5.748e-10
 31.81001    -31.9 9.623e+03 4.600e-10
 31.83067    -29.8 9.658e+03 4.401e-10
 31.86101    -29.9 9.085e+03 2.852e-10
 31.88218    -30.3 8.719e+03 2.302e-10
 31.90284    -30.4 8.721e+03 2.352e-10
 31.93544    -30.4 8.599e+03 2.192e-10
 31.95610    -29.2 8.664e+03 1.981e-10
 31.98496    -29.4 8.617e+03 2.183e-10
 32.02628    -30.0 8.915e+03 2.769e-10
 32.06088    -30.8 9.330e+03 3.731e-10
 32.08153    -30.2 1.002e+04 5.967e-10
 32.10892    -30.6 1.066e+04 8.754e-10
 32.13382    -30.7 1.038e+04 8.513e-10
 32.14406    -30.9 1.112e+04 1.102e-09
 32.16037    -31.2 1.125e+04 1.146e-09
 32.18103    -31.3 1.125e+04 1.149e-09
 32.19644    -37.7 1.618e+04 1.523e-09
 32.20677    -42.1 2.005e+04 3.784e-09
 32.22235    -48.0 2.067e+04 8.996e-09
 32.23981    -51.4 1.951e+04 2.054e-08
 32.25014    -51.1 1.974e+04 1.731e-08
 32.25845    -51.6 1.869e+04 3.489e-08
 32.26423    -51.5 1.881e+04 4.381e-08
 32.26939    -50.4 1.884e+04 3.650e-08
 32.27906    -50.5 1.879e+04 3.877e-08
 32.28939    -50.4 1.877e+04 3.891e-08
 32.29559    -50.0 1.882e+04 3.261e-08
 32.30075    -49.0 1.918e+04 2.356e-08
 32.31005    -49.5 1.965e+04 1.560e-08
 32.32038    -52.4 1.935e+04 9.041e-09
 32.32694    -56.6 1.723e+04 5.050e-09
 32.33211    -58.3 1.553e+04 2.892e-09
 32.34626    -60.4 1.377e+04 2.086e-09
 32.36696    -62.0 1.277e+04 1.698e-09
 32.38459    -62.3 1.270e+04 1.610e-09
 32.39492    -61.9 1.149e+04 1.026e-09
 32.40828    -61.9 1.173e+04 1.104e-09
 32.42388    -61.7 1.201e+04 1.282e-09
 32.43421    -61.1 1.189e+04 1.144e-09
 32.44731    -60.7 1.214e+04 1.404e-09
 32.45764    -59.8 1.122e+04 9.132e-10
 32.47026    -59.2 1.152e+04 1.112e-09
 32.49092    -58.3 1.169e+04 1.268e-09
 32.51003    -57.3 1.175e+04 1.334e-09
 32.52036    -56.8 1.100e+04 9.525e-10
 32.53224    -55.8 1.108e+04 1.016e-09
 32.55290    -55.0 1.107e+04 1.029e-09
 32.57275    -54.0 1.093e+04 9.877e-10
 32.58307    -53.2 1.044e+04 7.152e-10
 32.59422    -52.2 1.036e+04 7.044e-10
 32.60796    -51.1 1.021e+04 6.502e-10
 32.61829    -50.8 1.037e+04 7.159e-10
 32.63546    -49.8 1.019e+04 6.509e-10
 32.65612    -48.7 9.726e+03 5.171e-10
 32.67685    -47.8 9.745e+03 4.767e-10
 32.69751    -47.2 9.752e+03 4.555e-10
 32.70861    -45.6 9.823e+03 4.332e-10
 32.72936    -44.2 9.613e+03 4.249e-10
 32.77002    -42.5 9.643e+03 3.939e-10
 32.81133    -40.9 9.626e+03 3.485e-10
 32.83414    -39.7 9.597e+03 3.156e-10
 32.85480    -38.8 9.471e+03 3.456e-10
 32.89397    -37.7 9.469e+03 3.182e-10
 32.93529    -36.6 9.432e+03 3.050e-10
 32.95957    -35.5 9.391e+03 3.008e-10
 32.96960    -34.4 9.385e+03 3.344e-10
 32.98664    -33.8 9.574e+03 3.646e-10
 33.01793    -32.8 9.625e+03 3.767e-10
 33.05925    -31.8 9.722e+03 3.955e-10
 33.08501    -30.7 9.746e+03 3.984e-10
 33.10567    -29.7 9.817e+03 4.903e-10
 33.14188    -28.7 9.807e+03 4.680e-10
 33.18320    -27.8 9.666e+03 3.957e-10
 33.21044    -27.2 9.392e+03 3.067e-10
 33.23110    -27.1 9.677e+03 4.058e-10
 33.26584    -26.9 9.409e+03 3.371e-10
 33.30716    -26.6 9.168e+03 2.904e-10
 33.33413    -26.0 9.015e+03 2.589e-10
 33.34219    -24.7 9.028e+03 2.508e-10
 33.35653    -24.5 9.132e+03 2.866e-10
 33.38980    -24.0 9.087e+03 2.602e-10
 33.43111    -23.7 9.093e+03 2.509e-10
 33.46131    -23.6 9.141e+03 2.500e-10
 33.48197    -24.3 9.293e+03 2.917e-10
 33.51375    -24.2 9.375e+03 3.082e-10
 33.55507    -24.0 9.439e+03 3.242e-10
 33.58674    -23.7 9.493e+03 3.286e-10
 33.60740    -24.8 9.482e+03 3.095e-10
 33.63771    -25.1 9.498e+03 3.005e-10
 33.67903    -25.4 9.602e+03 3.033e-10
 33.70228    -25.6 9.715e+03 3.327e-10
 33.71477    -24.2 9.915e+03 3.924e-10
 33.73283    -25.5 9.824e+03 3.982e-10
 33.76166    -25.2 9.782e+03 3.930e-10
 33.80298    -24.8 9.618e+03 3.370e-10
 33.83761    -24.9 9.449e+03 2.706e-10
 33.85827    -27.0 9.066e+03 2.035e-10
 33.88562    -29.0 1.017e+04 1.936e-10
 33.91056    -35.2 1.740e+04 1.771e-10
 33.92079    -44.5 2.465e+04 2.449e-10
 33.93707    -59.9 2.319e+04 2.315e-09
 33.95773    -64.5 1.991e+04 1.194e-08
 33.97299    -65.5 1.924e+04 2.287e-08
 33.97805    -65.0 1.924e+04 2.297e-08
 33.98346    -65.0 1.948e+04 1.888e-08
 33.99384    -65.0 1.972e+04 2.083e-08
 34.00412    -65.1 2.153e+04 1.441e-08
 34.00960    -68.9 2.328e+04 5.755e-09
 34.01477    -74.4 2.232e+04 3.004e-09
 34.02478    -82.6 1.826e+04 1.306e-09
 34.03585    -90.2 1.365e+04 7.576e-10
 34.04622    -92.5 1.191e+04 4.791e-10
 34.05991    -97.2 9.566e+03 2.961e-10
 34.07024    -97.5 9.506e+03 2.870e-10
 34.08169    -98.3 9.262e+03 2.695e-10
 34.09861    -98.6 9.251e+03 2.699e-10
 34.10904    -98.5 9.049e+03 2.389e-10
 34.13353    -98.7 9.008e+03 2.330e-10
 34.17485    -98.6 8.969e+03 2.321e-10
 34.21391    -97.4 9.013e+03 2.521e-10
 34.23457    -96.8 8.756e+03 2.174e-10
 34.25749    -95.8 8.925e+03 2.458e-10
 34.28686    -97.5 9.879e+03 3.667e-10
 34.29709    -97.4 9.722e+03 3.374e-10
 34.30894    -99.9 1.097e+04 5.870e-10
 34.32960   -101.8 1.214e+04 1.138e-09
 34.34948   -102.7 1.300e+04 1.978e-09
 34.35981   -102.7 1.307e+04 2.040e-09
 34.37092   -103.0 1.366e+04 2.940e-09
 34.39158   -103.2 1.385e+04 3.391e-09
 34.41220   -103.6 1.385e+04 3.457e-09
 34.42802   -103.9 1.349e+04 2.981e-09
 34.43839   -104.8 1.344e+04 2.862e-09
 34.45355   -105.4 1.257e+04 1.915e-09
 34.47421   -106.4 1.168e+04 1.256e-09
 34.48524   -107.4 1.105e+04 8.909e-10
 34.49557   -107.3 1.130e+04 1.049e-09
 34.51553   -108.6 1.127e+04 9.803e-10
 34.53619   -110.6 1.183e+04 9.939e-10
 34.54796   -112.9 1.291e+04 1.321e-09
 34.55829   -114.2 1.366e+04 2.167e-09
 34.57751   -115.1 1.423e+04 3.329e-09
 34.59817   -115.2 1.458e+04 4.561e-09
 34.61068   -114.7 1.468e+04 5.144e-09
 34.61431   -114.1 1.517e+04 6.919e-09
 34.62247   -114.8 1.519e+04 6.933e-09
 34.63949   -113.9 1.472e+04 5.590e-09
 34.66015   -113.0 1.405e+04 3.804e-09
 34.67339   -112.6 1.332e+04 2.314e-09
 34.68372   -112.0 1.318e+04 2.209e-09
 34.70147   -112.7 1.226e+04 1.218e-09
 34.72213   -113.8 1.128e+04 7.156e-10
 34.73611   -114.6 1.046e+04 5.022e-10
 34.74644   -114.5 1.016e+04 4.293e-10
 34.76344   -114.6 9.874e+03 3.776e-10
 34.78410   -114.1 9.787e+03 3.642e-10
 34.79621   -113.2 9.762e+03 3.646e-10
 34.80664   -114.7 9.690e+03 3.337e-10
 34.83595   -112.5 9.607e+03 3.243e-10
 34.86174   -110.2 9.512e+03 3.062e-10
 34.88240   -109.1 9.023e+03 2.121e-10
 34.91858   -107.0 8.943e+03 1.877e-10
 34.95990   -104.9 8.914e+03 1.616e-10
 34.98717   -102.7 8.908e+03 1.524e-10
 35.00783   -101.6 8.659e+03 1.179e-10
 35.04254    -99.2 8.663e+03 1.153e-10
 35.08386    -97.0 8.718e+03 1.178e-10
 35.11261    -95.1 9.113e+03 1.503e-10
 35.13327    -94.1 8.999e+03 1.349e-10
 35.15423    -92.2 9.583e+03 2.133e-10
 35.16446    -92.6 9.703e+03 2.345e-10
 35.17513    -92.6 9.982e+03 2.860e-10
 35.18546    -92.2 9.753e+03 2.664e-10
 35.19729    -91.4 1.024e+04 3.913e-10
 35.21795    -90.9 1.094e+04 6.156e-10
 35.23785    -90.0 1.168e+04 9.644e-10
 35.24818    -89.0 1.127e+04 8.350e-10
 35.25927    -88.4 1.204e+04 1.244e-09
 35.27993    -88.1 1.293e+04 1.786e-09
 35.30056    -88.0 1.385e+04 2.425e-09
 35.32122    -87.8 1.497e+04 3.364e-09
 35.33811    -88.3 1.593e+04 4.328e-09
 35.34844    -88.6 1.587e+04 3.999e-09
 35.36256    -89.1 1.662e+04 4.541e-09
 35.37361    -89.7 1.709e+04 4.809e-09
 35.38394    -89.2 1.804e+04 7.250e-09
 35.40388    -89.9 1.844e+04 7.766e-09
 35.42454    -90.9 1.854e+04 7.865e-09
 35.43633    -92.1 1.829e+04 7.429e-09
 35.44666    -91.6 1.961e+04 1.290e-08
 35.46586    -92.8 1.923e+04 1.202e-08
 35.48652    -93.7 1.849e+04 1.015e-08
 35.49904    -94.2 1.751e+04 7.734e-09
 35.50937    -93.9 1.896e+04 1.328e-08
 35.52219    -94.4 1.779e+04 9.303e-09
 35.53252    -94.5 1.619e+04 4.634e-09
 35.54850    -94.5 1.478e+04 2.993e-09
 35.56176    -94.5 1.349e+04 1.905e-09
 35.57209    -94.2 1.475e+04 3.018e-09
 35.58982    -94.0 1.340e+04 1.799e-09
 35.61048    -93.7 1.243e+04 1.317e-09
 35.62448    -93.4 1.184e+04 9.816e-10
 35.63481    -93.1 1.222e+04 1.273e-09
 35.65180    -92.5 1.165e+04 9.478e-10
 35.67245    -92.0 1.134e+04 7.542e-10
 35.70354    -91.5 1.134e+04 6.548e-10
 35.73978    -90.3 1.097e+04 5.453e-10
 35.76034    -90.1 1.168e+04 6.548e-10
 35.77575    -89.8 1.170e+04 6.428e-10
 35.79641    -90.2 1.159e+04 6.973e-10
 35.82750    -90.9 1.202e+04 8.101e-10
 35.86521    -91.1 1.146e+04 7.958e-10
 35.88577    -91.3 1.179e+04 8.942e-10
 35.89044    -91.4 1.166e+04 7.940e-10
 35.91119    -90.1 1.123e+04 7.981e-10
 35.95155    -88.7 1.088e+04 5.845e-10
 35.98244    -87.5 1.057e+04 4.418e-10
 36.00078    -86.8 1.047e+04 4.062e-10
 36.01111    -86.5 1.031e+04 3.371e-10
 36.03409    -85.5 1.026e+04 3.152e-10
 36.07551    -83.9 1.010e+04 2.866e-10
 36.11608    -81.8 9.878e+03 2.549e-10
 36.13674    -81.0 9.631e+03 2.290e-10
 36.15814    -78.7 9.566e+03 2.230e-10
 36.19946    -76.4 9.547e+03 2.114e-10
 36.23803    -74.1 9.558e+03 1.945e-10
 36.25869    -73.8 9.392e+03 1.656e-10
 36.26217    -71.5 9.385e+03 1.510e-10
 36.28283    -70.5 9.119e+03 1.632e-10
 36.32342    -68.1 9.152e+03 1.409e-10
 36.36474    -65.8 9.202e+03 1.197e-10
 36.38761    -63.6 9.227e+03 1.046e-10
 36.40827    -62.7 8.868e+03 1.012e-10
 36.44737    -60.5 8.886e+03 9.266e-11
 36.48869    -58.3 8.908e+03 8.970e-11
 36.51304    -56.2 8.952e+03 8.921e-11
 36.53370    -55.5 8.916e+03 9.134e-11
 36.57133    -53.6 8.982e+03 1.020e-10
 36.60618    -51.7 9.023e+03 1.216e-10
 36.62684    -51.8 8.909e+03 1.207e-10
 36.63847    -49.9 9.009e+03 1.507e-10
 36.65913    -49.2 9.118e+03 1.542e-10
 36.69529    -47.3 9.166e+03 1.902e-10
 36.73660    -45.3 9.219e+03 2.245e-10
 36.76391    -43.4 9.290e+03 2.548e-10
 36.78457    -42.9 9.237e+03 1.983e-10
 36.81924    -41.4 9.348e+03 1.930e-10
 36.86056    -40.2 9.467e+03 1.894e-10
 36.88934    -39.5 9.776e+03 1.976e-10
 36.91000    -39.9 9.232e+03 1.780e-10
 36.94320    -39.2 9.258e+03 1.991e-10
 36.97433    -38.5 9.258e+03 2.177e-10
 36.99499    -38.5 8.802e+03 1.628e-10
 37.01478    -37.7 8.728e+03 1.560e-10
 37.03544    -36.6 8.578e+03 1.384e-10
 37.06715    -35.7 8.555e+03 1.138e-10
 37.10847    -35.0 8.573e+03 1.072e-10
 37.14021    -34.1 8.721e+03 1.134e-10
 37.16087    -33.2 8.522e+03 9.583e-11
 37.19111    -32.0 8.708e+03 1.188e-10
 37.23243    -30.4 8.858e+03 1.458e-10
 37.26564    -28.5 8.966e+03 1.595e-10
 37.28630    -27.6 8.876e+03 1.586e-10
 37.31507    -25.8 8.900e+03 1.598e-10
 37.34248    -23.9 8.945e+03 1.546e-10
 37.36314    -23.4 8.846e+03 1.360e-10
 37.39108    -21.7 8.865e+03 1.241e-10
 37.41174    -21.1 8.893e+03 1.496e-10
 37.43902    -19.5 8.892e+03 1.487e-10
 37.48034    -17.8 8.854e+03 1.501e-10
 37.51651    -15.9 8.780e+03 1.516e-10
 37.53717    -15.1 8.743e+03 1.675e-10
 37.56298    -13.1 8.559e+03 1.395e-10
 37.60430    -11.1 8.396e+03 1.072e-10
 37.64195     -9.4 8.264e+03 8.400e-11
 37.66261     -9.2 8.250e+03 6.991e-11
 37.68693     -7.7 8.152e+03 6.136e-11
 37.71063     -6.0 8.125e+03 5.932e-11
 37.73129     -5.4 8.120e+03 5.951e-11
 37.76738     -3.7 8.169e+03 6.088e-11
 37.78804     -3.5 8.104e+03 5.921e-11
 37.81089     -1.8 8.202e+03 7.049e-11
 37.85221     -0.1 8.420e+03 8.768e-11
 37.89281      1.6 8.690e+03 1.208e-10
 37.91347      2.3 8.489e+03 1.004e-10
 37.93484      4.0 8.737e+03 1.272e-10
 37.97616      5.6 8.910e+03 1.736e-10
 38.01748      7.3 9.118e+03 2.297e-10
 38.03891      8.6 9.385e+03 2.851e-10
 38.05889      8.2 9.633e+03 3.642e-10
 38.07879      8.8 9.441e+03 3.098e-10
 38.10012     10.4 9.818e+03 4.411e-10
 38.14144     12.1 1.004e+04 4.993e-10
 38.16434     13.4 1.006e+04 4.406e-10
 38.18500     13.4 1.031e+04 4.970e-10
 38.22407     14.0 1.005e+04 3.062e-10
 38.26539     14.2 9.729e+03 2.341e-10
 38.28978     15.2 9.531e+03 2.063e-10
 38.31043     15.4 9.575e+03 2.481e-10
 38.34803     16.9 9.508e+03 2.177e-10
 38.38935     18.3 9.464e+03 2.103e-10
 38.41521     19.6 9.573e+03 2.182e-10
 38.43148     19.4 9.788e+03 2.671e-10
 38.44694     20.3 9.745e+03 2.544e-10
 38.47199     21.5 9.839e+03 3.043e-10
 38.51331     23.0 9.939e+03 3.694e-10
 38.54064     24.4 1.013e+04 4.183e-10
 38.56130     24.0 1.057e+04 5.248e-10
 38.59594     24.4 1.089e+04 7.115e-10
 38.63726     25.4 1.111e+04 8.963e-10
 38.66608     26.7 1.129e+04 9.657e-10
 38.68674     26.6 1.171e+04 1.374e-09
 38.71990     28.0 1.150e+04 1.104e-09
 38.76122     29.3 1.103e+04 7.302e-10
 38.79151     30.4 1.052e+04 4.508e-10
 38.80407     30.8 1.040e+04 4.017e-10
 38.81509     31.5 1.087e+04 6.286e-10
 38.84385     32.7 1.049e+04 3.846e-10
 38.88517     33.2 1.028e+04 2.747e-10
 38.91694     33.7 1.025e+04 2.824e-10
 38.93760     33.6 1.023e+04 2.255e-10
 38.96781     34.3 1.026e+04 3.112e-10
 39.00913     35.6 1.027e+04 4.149e-10
 39.04238     37.0 1.018e+04 3.956e-10
 39.06304     37.3 1.032e+04 4.530e-10
 39.09177     38.9 1.021e+04 3.814e-10
 39.13308     40.5 9.993e+03 2.384e-10
 39.16258     41.3 9.804e+03 1.368e-10
 39.17665     41.1 1.011e+04 1.978e-10
 39.18837     41.4 1.010e+04 2.204e-10
 39.21562     41.9 1.010e+04 1.935e-10
 39.25704     43.2 1.007e+04 1.960e-10
 39.29325     44.4 1.018e+04 2.305e-10
 39.31391     44.7 1.060e+04 2.935e-10
 39.32925     46.4 1.038e+04 3.086e-10
 39.34646     46.6 1.048e+04 3.425e-10
 39.35679     45.6 1.073e+04 4.337e-10
 39.36610     45.8 1.135e+04 6.530e-10
 39.37643     42.7 1.376e+04 1.202e-09
 39.39113     41.9 1.459e+04 2.002e-09
 39.41179     41.8 1.473e+04 2.893e-09
 39.42882     42.7 1.477e+04 3.737e-09
 39.43914     42.8 1.587e+04 7.599e-09
 39.45311     44.1 1.609e+04 7.562e-09
 39.47377     44.4 1.639e+04 6.957e-09
 39.49153     43.8 1.673e+04 6.195e-09
 39.50186     41.8 1.662e+04 5.949e-09
 39.51509     40.7 1.590e+04 5.604e-09
 39.53054     40.0 1.530e+04 5.710e-09
 39.54087     39.8 1.453e+04 4.635e-09
 39.55425     40.2 1.440e+04 5.240e-09
 39.56458     40.8 1.358e+04 3.784e-09
 39.57706     41.9 1.352e+04 3.700e-09
 39.59772     42.6 1.341e+04 3.523e-09
 39.61697     43.5 1.295e+04 2.765e-09
 39.62730     43.3 1.248e+04 1.679e-09
 39.63904     43.8 1.216e+04 1.480e-09
 39.66945     44.3 1.193e+04 1.400e-09
 39.69021     43.6 1.108e+04 4.776e-10
 39.71155     45.1 1.064e+04 5.573e-10
 39.75286     47.1 1.058e+04 6.570e-10
 39.79418     49.2 1.066e+04 7.355e-10
 39.81564     51.1 1.086e+04 8.613e-10
 39.83630     51.0 1.059e+04 6.552e-10
 39.87682     53.0 1.124e+04 1.015e-09
 39.89889     54.4 1.209e+04 1.540e-09
 39.91955     53.6 1.217e+04 1.582e-09
 39.94098     53.9 1.259e+04 1.982e-09
 39.96164     53.7 1.221e+04 1.544e-09
 40.00078     54.1 1.238e+04 1.572e-09
 40.04209     54.3 1.224e+04 1.399e-09
 40.06651     54.0 1.200e+04 1.168e-09
 40.08717     53.2 1.093e+04 6.713e-10
 40.12473     53.3 1.109e+04 7.461e-10
 40.16605     54.0 1.151e+04 9.382e-10
 40.19194     55.2 1.192e+04 1.133e-09
 40.21260     55.2 1.139e+04 1.043e-09
 40.24638     56.5 1.158e+04 1.049e-09
 40.26704     56.1 1.148e+04 1.004e-09
 40.29001     57.6 1.155e+04 9.515e-10
 40.31738     59.3 1.173e+04 9.608e-10
 40.33804     58.1 1.091e+04 6.070e-10
 40.36222     58.7 1.127e+04 6.906e-10
 40.37990     59.2 1.148e+04 7.755e-10
 40.39023     58.2 1.112e+04 6.393e-10
 40.40344     57.7 1.160e+04 7.848e-10
 40.42410     56.4 1.250e+04 1.127e-09
 40.44059     54.1 1.394e+04 1.990e-09
 40.44878     53.8 1.398e+04 2.006e-09
 40.45295     53.0 1.330e+04 1.632e-09
 40.46542     51.6 1.430e+04 2.738e-09
 40.48607     50.1 1.503e+04 3.616e-09
 40.50533     47.9 1.500e+04 3.524e-09
 40.51566     47.5 1.394e+04 2.442e-09
 40.52739     45.6 1.332e+04 1.949e-09
 40.54805     43.6 1.243e+04 1.426e-09
 40.56815     41.4 1.170e+04 9.522e-10
 40.58890     42.4 1.147e+04 8.501e-10
 40.61453     40.4 1.060e+04 5.379e-10
 40.63519     40.2 1.049e+04 5.281e-10
 40.66187     39.9 1.007e+04 4.361e-10
 40.69368     40.7 9.701e+03 3.743e-10
 40.71434     41.2 9.799e+03 4.349e-10
 40.74451     42.9 9.378e+03 3.424e-10
 40.78583     45.1 8.951e+03 2.260e-10
 40.81911     47.3 8.665e+03 1.323e-10
 40.83977     47.8 8.512e+03 1.358e-10
 40.86847     49.7 8.291e+03 7.904e-11
 40.90979     51.5 8.160e+03 5.144e-11
 40.94455     53.4 8.097e+03 3.921e-11
 40.96521     54.1 7.970e+03 4.269e-11
 40.98268     56.3 7.893e+03 3.597e-11
 41.00334     56.1 7.890e+03 3.820e-11
 41.03374     58.3 7.726e+03 3.571e-11
 41.06998     60.6 7.672e+03 3.588e-11
 41.09064     61.4 7.638e+03 3.700e-11
 41.11638     63.7 7.638e+03 3.744e-11
 41.15770     65.9 7.643e+03 3.981e-11
 41.19542     67.9 7.678e+03 4.705e-11
 41.21607     68.8 7.699e+03 5.060e-11
 41.24033     70.5 7.771e+03 6.767e-11
 41.28165     72.1 7.944e+03 1.059e-10
 41.32085     73.8 8.261e+03 1.767e-10
 41.34151     74.8 8.326e+03 1.863e-10
 41.35084     76.4 8.680e+03 2.801e-10
 41.37150     76.1 8.705e+03 2.837e-10
 41.40561     77.2 8.805e+03 3.056e-10
 41.44628     78.1 8.737e+03 2.904e-10
 41.46694     78.9 8.669e+03 2.760e-10
 41.48825     80.0 8.437e+03 2.245e-10
 41.52957     81.2 8.127e+03 1.553e-10
 41.57088     82.4 7.813e+03 1.002e-10
 41.59238     83.5 7.523e+03 7.266e-11
 41.61304     84.3 7.558e+03 7.492e-11
 41.65352     85.9 7.417e+03 6.966e-11
 41.69484     87.9 7.411e+03 7.009e-11
 41.71781     89.9 7.423e+03 7.426e-11
 41.72130     90.8 7.511e+03 8.004e-11
 41.73965     90.6 7.550e+03 8.363e-11
 41.77748     92.6 7.612e+03 9.666e-11
 41.81880     94.6 7.770e+03 1.239e-10
 41.84324     96.6 8.023e+03 1.666e-10
 41.86390     97.7 8.065e+03 1.696e-10
 41.90143     99.6 8.341e+03 2.201e-10
 41.94275    101.4 8.654e+03 2.797e-10
 41.96868    103.1 8.945e+03 3.356e-10
 41.98934    104.1 9.032e+03 3.513e-10
 42.02539    105.3 9.323e+03 4.218e-10
 42.05628    106.0 9.471e+03 4.666e-10
 42.07661    106.6 9.599e+03 4.993e-10
 42.08694    106.4 9.588e+03 4.912e-10
 42.09392    107.1 9.633e+03 4.929e-10
 42.11467    108.1 1.018e+04 7.141e-10
 42.14934    108.9 1.018e+04 7.073e-10
 42.19066    109.6 1.007e+04 6.698e-10
 42.21955    110.3 9.946e+03 6.214e-10
 42.24021    111.4 1.087e+04 9.677e-10
 42.27330    112.1 1.016e+04 6.611e-10
 42.31462    113.0 9.473e+03 4.217e-10
 42.34498    114.0 9.152e+03 3.168e-10
 42.36564    114.5 8.947e+03 2.766e-10
 42.39726    115.6 8.931e+03 2.535e-10
 42.43463    117.3 8.982e+03 2.590e-10
 42.45529    116.3 8.988e+03 2.550e-10
 42.47041    117.9 9.211e+03 2.913e-10
 42.49107    118.9 9.194e+03 2.941e-10
 42.51078    119.7 9.252e+03 3.119e-10
 42.53135    120.5 9.352e+03 3.390e-10
 42.54327    121.5 9.562e+03 3.952e-10
 42.55359    122.1 9.561e+03 3.958e-10
 42.57267    123.3 9.874e+03 4.848e-10
 42.59332    124.2 1.022e+04 6.003e-10
 42.60598    125.0 1.060e+04 7.396e-10
 42.61631    125.8 1.069e+04 7.549e-10
 42.62884    126.5 1.110e+04 9.300e-10
 42.63917    125.7 1.109e+04 9.335e-10
 42.65530    125.8 1.161e+04 1.184e-09
 42.66870    125.7 1.253e+04 1.630e-09
 42.67903    126.6 1.257e+04 1.715e-09
 42.69662    126.5 1.406e+04 2.700e-09
 42.71728    126.1 1.543e+04 3.967e-09
 42.73137    125.5 1.631e+04 5.132e-09
 42.73648    126.5 1.610e+04 4.979e-09
 42.74301    125.8 1.691e+04 6.377e-09
 42.75334    125.2 1.774e+04 8.348e-09
 42.76268    124.8 1.849e+04 1.082e-08
 42.76784    125.4 1.862e+04 1.092e-08
 42.77400    125.1 1.933e+04 1.417e-08
 42.78433    124.8 1.991e+04 1.798e-08
 42.79404    124.5 2.041e+04 2.230e-08
 42.79920    124.5 2.143e+04 2.712e-08
 42.80498    124.3 2.182e+04 3.379e-08
 42.81282    124.1 2.206e+04 4.130e-08
 42.81799    124.1 2.193e+04 4.341e-08
 42.82539    123.9 2.211e+04 5.231e-08
 42.83056    124.4 2.304e+04 6.840e-08
 42.83597    124.3 2.294e+04 8.906e-08
 42.84630    124.1 2.266e+04 1.227e-07
 42.85663    123.6 2.238e+04 1.723e-07
 42.86192    123.0 2.229e+04 2.176e-07
 42.86708    124.1 2.286e+04 3.394e-07
 42.87729    122.5 2.226e+04 4.543e-07
 42.88762    120.7 2.215e+04 4.415e-07
 42.89328    119.6 2.194e+04 3.679e-07
 42.89844    119.1 2.235e+04 5.249e-07
 42.90486    119.0 2.164e+04 4.904e-07
 42.91002    119.9 2.162e+04 4.745e-07
 42.91861    120.4 2.148e+04 4.552e-07
 42.92461    120.3 2.150e+04 4.971e-07
 42.92717    120.3 2.164e+04 6.241e-07
 42.93147    120.1 2.139e+04 6.912e-07
 42.93664    119.9 2.125e+04 6.789e-07
 42.94026    119.9 2.122e+04 6.233e-07
 42.94285    119.9 2.124e+04 7.202e-07
 42.94697    120.2 2.132e+04 6.147e-07
 42.95083    120.8 2.150e+04 4.872e-07
 42.95341    121.6 2.081e+04 7.113e-07
 42.95594    122.5 2.124e+04 5.408e-07
 42.95853    123.1 2.136e+04 5.913e-07
 42.96246    123.5 2.192e+04 4.727e-07
 42.96763    123.2 2.292e+04 3.564e-07
 42.97162    121.9 2.409e+04 2.690e-07
 42.97421    121.9 2.373e+04 3.114e-07
 42.97796    119.6 2.411e+04 2.744e-07
 42.98312    117.5 2.437e+04 2.381e-07
 42.98733    115.8 2.487e+04 1.614e-07
 42.99252    115.0 2.480e+04 2.400e-07
 42.99690    114.1 2.537e+04 1.274e-07
 43.00206    112.6 2.405e+04 3.925e-07
 43.01158    112.5 2.789e+04 9.099e-08
 43.01871    111.6 2.831e+04 3.611e-08
 43.02387    112.8 2.675e+04 6.641e-08
 43.03224    113.1 2.545e+04 4.543e-08
 43.04257    114.0 2.411e+04 3.415e-08
 43.05007    114.8 2.324e+04 2.547e-08
 43.05523    117.1 2.358e+04 4.072e-08
 43.06323    117.7 2.287e+04 2.909e-08
 43.07356    118.1 2.239e+04 2.044e-08
 43.08143    118.0 2.208e+04 1.420e-08
 43.08648    120.7 2.211e+04 2.205e-08
 43.08894    121.1 2.323e+04 3.171e-08
 43.09422    120.9 2.293e+04 1.964e-08
 43.10454    119.9 2.277e+04 1.225e-08
 43.11279    118.0 2.188e+04 7.450e-09
 43.11795    122.0 2.288e+04 1.177e-08
 43.12520    119.2 2.208e+04 6.926e-09
 43.13553    115.8 1.962e+04 4.104e-09
 43.14414    111.5 1.636e+04 2.642e-09
 43.14931    116.4 1.900e+04 3.596e-09
 43.15619    112.1 1.549e+04 2.393e-09
 43.16652    109.2 1.334e+04 1.698e-09
 43.17550    101.3 2.006e+04 1.298e-09
 43.17962     86.0 4.882e+04 1.647e-09
 43.18097     71.5 6.237e+04 2.300e-09
 43.18718     41.2 4.597e+04 2.269e-08
 43.19751     27.9 2.813e+04 1.312e-07
 43.20686     23.3 2.336e+04 2.445e-07
 43.21200     23.7 2.187e+04 2.999e-07
 43.21554     22.9 2.126e+04 3.387e-07
 43.22070     22.8 2.143e+04 3.303e-07
 43.22848     22.7 2.157e+04 2.528e-07
 43.23822     22.1 2.468e+04 8.077e-08
 43.24338     21.4 2.936e+04 3.587e-08
 43.25437      2.7 3.570e+04 2.354e-09
 43.27508    -20.7 1.447e+04 6.663e-10
 43.29574    -21.9 1.068e+04 5.592e-10
 43.30620    -19.4 1.062e+04 5.073e-10
 43.31653    -21.5 1.038e+04 4.525e-10
 43.34749    -18.0 1.008e+04 3.775e-10
 43.36911    -13.0 8.840e+03 2.232e-10
 43.38977    -15.2 8.761e+03 2.088e-10
 43.43022    -10.8 8.332e+03 1.460e-10
 43.47154     -7.0 7.988e+03 1.066e-10
 43.49454     -3.7 7.704e+03 7.835e-11
 43.51520     -4.4 7.619e+03 7.788e-11
 43.53909     -1.9 7.535e+03 6.408e-11
 43.55975     -1.7 7.502e+03 5.969e-11
 43.59550      0.7 7.451e+03 5.775e-11
 43.61998      3.0 7.510e+03 6.349e-11
 43.64064      2.8 7.568e+03 7.051e-11
 43.67813      4.8 7.742e+03 8.732e-11
 43.71945      6.8 7.912e+03 1.163e-10
 43.74541      9.3 8.086e+03 1.529e-10
 43.76607      8.7 8.248e+03 1.808e-10
 43.80209     11.4 8.472e+03 2.113e-10
 43.84341     13.4 8.639e+03 2.185e-10
 43.87085     14.8 8.875e+03 2.192e-10
 43.89151     13.1 9.636e+03 3.969e-10
 43.90724     14.7 9.797e+03 4.152e-10
 43.92790     15.9 9.561e+03 3.458e-10
 43.96736     17.2 9.723e+03 3.831e-10
 43.99618     18.1 9.879e+03 4.800e-10
 44.00641     17.6 1.005e+04 5.292e-10
 44.01882     18.3 1.010e+04 5.620e-10
 44.03948     19.0 1.031e+04 6.128e-10
 44.05880     19.7 1.049e+04 6.469e-10
 44.06913     19.0 1.046e+04 7.283e-10
 44.08079     20.2 1.038e+04 7.684e-10
 44.10145     21.9 1.060e+04 8.834e-10
 44.12152     22.9 1.070e+04 9.191e-10
 44.13185     23.1 1.073e+04 9.121e-10
 44.14277     24.2 1.090e+04 9.495e-10
 44.16343     25.1 1.105e+04 1.014e-09
 44.18409     25.9 1.118e+04 1.079e-09
 44.19457     26.8 1.142e+04 1.176e-09
 44.20490     26.7 1.125e+04 9.781e-10
 44.22541     27.4 1.158e+04 1.120e-09
 44.24607     28.0 1.188e+04 1.323e-09
 44.25728     28.3 1.258e+04 1.658e-09
 44.26575     26.4 1.353e+04 1.763e-09
 44.27520     26.7 1.373e+04 1.928e-09
 44.28739     25.0 1.571e+04 3.312e-09
 44.30805     24.4 1.747e+04 5.728e-09
 44.32000     24.9 1.795e+04 8.713e-09
 44.32512     23.0 1.719e+04 9.179e-09
 44.33377     24.0 1.728e+04 1.089e-08
 44.34410     25.3 1.776e+04 1.346e-08
 44.35126     26.4 1.825e+04 1.538e-08
 44.35643     25.9 1.765e+04 1.436e-08
 44.36998     27.0 1.852e+04 1.764e-08
 44.38272     27.1 1.901e+04 1.833e-08
 44.39305     27.4 1.767e+04 1.269e-08
 44.41134     26.7 1.781e+04 1.095e-08
 44.43200     25.4 1.692e+04 8.718e-09
 44.44543     24.4 1.600e+04 7.445e-09
 44.45204     23.1 1.530e+04 3.191e-09
 44.45927     22.9 1.516e+04 3.019e-09
 44.47332     23.0 1.483e+04 2.556e-09
 44.49398     23.4 1.453e+04 2.185e-09
 44.50815     23.7 1.425e+04 1.922e-09
 44.51848     21.2 1.228e+04 5.975e-10
 44.53530     21.2 1.191e+04 4.782e-10
 44.55596     21.2 1.152e+04 3.889e-10
 44.57087     20.7 1.113e+04 3.336e-10
 44.58120     17.6 9.003e+03 1.940e-10
 44.59728     17.8 8.942e+03 1.951e-10
 44.61794     17.5 9.014e+03 2.238e-10
 44.63302     17.7 8.993e+03 2.562e-10
 44.63834     17.5 9.002e+03 2.577e-10
 44.64391     17.0 8.839e+03 2.316e-10
 44.65926     17.0 8.953e+03 2.729e-10
 44.67992     16.2 9.330e+03 3.373e-10
 44.69630     13.3 1.082e+04 6.078e-10
 44.70663     13.7 1.011e+04 4.666e-10
 44.72123     11.9 1.102e+04 7.688e-10
 44.74189     11.3 1.160e+04 1.286e-09
 44.75902     12.4 1.187e+04 1.745e-09
 44.76935     12.2 1.094e+04 1.158e-09
 44.79364     12.5 1.111e+04 1.209e-09
 44.83506     12.8 1.071e+04 9.046e-10
 44.87432     12.6 1.033e+04 7.126e-10
 44.89498     14.3 9.407e+03 4.313e-10
 44.91769     14.6 9.280e+03 3.498e-10
 44.95901     15.4 9.229e+03 3.571e-10
 44.99104     16.8 9.213e+03 3.974e-10
 45.01112     15.4 8.774e+03 3.122e-10
 45.02041     15.7 8.102e+03 1.891e-10
 45.04165     17.2 8.187e+03 2.043e-10
 45.08297     18.6 8.338e+03 2.307e-10
 45.12429     19.7 8.523e+03 2.827e-10
 45.14585     21.0 8.675e+03 3.504e-10
 45.16650     22.0 8.231e+03 2.422e-10
 45.20692     23.5 8.269e+03 2.840e-10
 45.24824     25.1 8.364e+03 3.076e-10
 45.27128     26.2 8.563e+03 3.246e-10
 45.29194     27.1 8.080e+03 2.236e-10
 45.33088     27.5 8.258e+03 2.614e-10
 45.35919     28.2 8.391e+03 2.994e-10
 45.37985     28.0 7.806e+03 1.980e-10
 45.39671     29.2 7.917e+03 2.158e-10
 45.41737     29.9 8.055e+03 2.448e-10
 45.45483     30.8 8.133e+03 2.481e-10
 45.49615     30.9 8.105e+03 2.444e-10
 45.52215     30.6 8.266e+03 2.826e-10
 45.54281     31.9 8.475e+03 3.322e-10
 45.57879     31.4 8.633e+03 3.642e-10
 45.60968     31.1 8.837e+03 4.062e-10
 45.63024     30.6 9.004e+03 4.421e-10
 45.64739     29.6 9.302e+03 4.982e-10
 45.65772     30.0 9.363e+03 4.896e-10
 45.67156     29.0 9.514e+03 5.467e-10
 45.69222     27.9 9.720e+03 6.112e-10
 45.71010     25.8 1.116e+04 8.016e-10
 45.72043     27.3 1.013e+04 7.258e-10
 45.72715     21.7 1.398e+04 1.342e-09
 45.73748     21.7 1.376e+04 1.498e-09
 45.75420     14.3 1.778e+04 4.468e-09
 45.77282     11.1 1.802e+04 9.454e-09
 45.78315     10.5 1.766e+04 7.292e-09
 45.79552      9.6 1.840e+04 1.198e-08
 45.81618     10.1 1.918e+04 1.493e-08
 45.83554      9.7 1.970e+04 1.373e-08
 45.84587      9.0 1.818e+04 9.567e-09
 45.85750      7.3 1.839e+04 6.104e-09
 45.87816      3.6 1.671e+04 3.512e-09
 45.89825      1.4 1.518e+04 2.439e-09
 45.90858     -0.9 1.171e+04 1.332e-09
 45.91122     -0.5 1.150e+04 1.142e-09
 45.92155     -0.9 1.066e+04 8.532e-10
 45.94013     -0.1 1.084e+04 7.656e-10
 45.96079      1.0 1.115e+04 6.699e-10
 45.99188      1.5 1.155e+04 5.999e-10
 46.02388      2.5 1.247e+04 6.052e-10
 46.04454     -0.4 1.040e+04 7.256e-10
 46.07461      1.2 1.113e+04 9.660e-10
 46.09540      2.5 1.119e+04 9.471e-10
 46.09695      3.0 1.116e+04 9.576e-10
 46.10706      2.2 1.132e+04 1.201e-09
 46.12607      2.5 1.165e+04 1.304e-09
 46.14673      1.1 1.265e+04 1.578e-09
 46.15945     -1.7 1.470e+04 2.764e-09
 46.16978     -1.6 1.486e+04 2.940e-09
 46.18804     -2.8 1.603e+04 4.308e-09
 46.20870     -2.5 1.685e+04 5.703e-09
 46.22217     -1.1 1.719e+04 6.227e-09
 46.23250     -2.1 1.596e+04 5.021e-09
 46.25002     -0.3 1.628e+04 3.872e-09
 46.26904      0.8 1.615e+04 2.238e-09
 46.27937      2.0 1.648e+04 2.808e-09
 46.28488      1.6 1.582e+04 1.389e-09
 46.29521      0.6 1.415e+04 1.141e-09
 46.31200     -1.0 1.282e+04 5.323e-10
 46.33266     -1.8 1.132e+04 3.123e-10
 46.34760     -1.5 1.074e+04 2.448e-10
 46.35793     -1.7 1.071e+04 2.562e-10
 46.37398     -1.4 1.037e+04 2.218e-10
 46.40009      0.1 1.041e+04 2.168e-10
 46.42084      0.6 9.947e+03 2.463e-10
 46.44299      2.8 9.794e+03 2.240e-10
 46.46364      3.6 9.867e+03 2.483e-10
 46.48780      6.1 9.869e+03 2.768e-10
 46.52562      8.5 1.001e+04 3.126e-10
 46.54628      9.5 9.447e+03 2.396e-10
 46.57044     11.5 9.609e+03 2.247e-10
 46.61176     13.0 9.807e+03 2.433e-10
 46.65105     14.7 9.864e+03 3.357e-10
 46.67171     15.5 9.348e+03 2.205e-10
 46.69439     18.0 9.774e+03 3.061e-10
 46.72400     19.5 9.915e+03 3.968e-10
 46.73423     19.8 9.868e+03 3.571e-10
 46.74585     20.4 9.924e+03 3.872e-10
 46.76651     22.0 1.002e+04 4.451e-10
 46.78662     23.0 1.059e+04 5.463e-10
 46.79695     23.7 1.005e+04 3.597e-10
 46.80782     24.2 1.064e+04 4.764e-10
 46.82127     24.8 1.130e+04 6.555e-10
 46.83160     25.0 1.144e+04 6.616e-10
 46.84914     25.3 1.207e+04 9.629e-10
 46.85967     25.7 1.237e+04 1.365e-09
 46.87000     26.9 1.195e+04 9.726e-10
 46.89046     27.4 1.244e+04 1.412e-09
 46.91112     28.1 1.287e+04 1.921e-09
 46.92238     27.3 1.435e+04 2.564e-09
 46.93271     21.0 2.024e+04 5.737e-09
 46.95244     16.6 2.356e+04 1.230e-08
 46.96789     13.3 2.214e+04 2.842e-08
 46.97817     12.5 2.148e+04 3.717e-08
 46.98500     11.3 2.126e+04 4.074e-08
 46.99017     11.9 2.065e+04 5.748e-08
 46.99883     10.1 2.076e+04 5.167e-08
 47.00525      8.4 2.015e+04 4.429e-08
 47.01042      9.7 2.016e+04 4.408e-08
 47.01636      8.8 1.946e+04 3.822e-08
 47.02153      9.7 1.958e+04 3.810e-08
 47.02981      9.1 1.939e+04 3.514e-08
 47.04014      9.1 1.939e+04 3.351e-08
 47.04772      9.3 1.971e+04 3.019e-08
 47.05810      9.3 2.117e+04 1.022e-08
 47.07640      8.3 1.987e+04 6.942e-09
 47.09705      7.3 1.791e+04 4.586e-09
 47.11054      6.0 1.550e+04 3.257e-09
 47.12086      2.5 1.226e+04 7.292e-10
 47.13837      3.8 1.217e+04 8.261e-10
 47.15903      5.3 1.235e+04 9.399e-10
 47.17325      6.8 1.210e+04 1.031e-09
 47.18298      6.0 1.024e+04 4.186e-10
 47.18942      6.5 1.004e+04 3.645e-10
 47.20035      7.6 1.023e+04 3.988e-10
 47.22101      9.2 1.029e+04 4.612e-10
 47.23597     10.7 1.040e+04 5.057e-10
 47.24630     10.6 9.811e+03 3.261e-10
 47.26233     12.7 9.798e+03 3.357e-10
 47.28299     13.5 9.890e+03 3.482e-10
 47.29869     15.3 9.971e+03 3.560e-10
 47.31944     15.9 9.424e+03 2.260e-10
 47.35549     18.0 9.511e+03 2.425e-10
 47.39681     20.0 9.661e+03 2.965e-10
 47.42432     22.4 9.863e+03 3.893e-10
 47.44497     22.5 9.460e+03 2.715e-10
 47.47945     25.2 9.706e+03 3.903e-10
 47.52077     27.7 9.959e+03 4.811e-10
 47.54744     29.8 9.974e+03 4.905e-10
 47.55567     29.7 1.002e+04 5.150e-10
 47.57031     30.8 9.947e+03 4.596e-10
 47.60340     32.9 1.022e+04 5.830e-10
 47.63429     34.4 1.034e+04 6.658e-10
 47.65486     35.1 1.043e+04 7.068e-10
 47.67499     36.0 1.053e+04 7.381e-10
 47.69574     36.9 1.059e+04 7.299e-10
 47.71693     37.7 1.073e+04 8.127e-10
 47.73132     38.7 1.072e+04 7.961e-10
 47.74165     38.8 1.090e+04 9.200e-10
 47.74803     39.8 1.087e+04 8.749e-10
 47.75836     40.3 1.066e+04 7.382e-10
 47.77881     41.3 1.069e+04 6.791e-10
 47.79947     41.8 1.072e+04 6.008e-10
 47.81075     42.0 1.065e+04 5.291e-10
 47.82108     42.3 1.059e+04 4.413e-10
 47.84079     42.4 1.044e+04 4.343e-10
 47.86145     42.4 1.039e+04 4.419e-10
 47.87347     42.5 1.029e+04 4.654e-10
 47.88380     43.2 1.041e+04 4.396e-10
 47.90277     43.5 1.033e+04 5.016e-10
 47.91540     44.0 1.048e+04 5.607e-10
 47.92573     44.4 1.043e+04 5.927e-10
 47.93619     44.8 1.069e+04 6.342e-10
 47.94652     45.7 1.062e+04 6.699e-10
 47.96475     46.0 1.091e+04 7.327e-10
 47.98541     46.2 1.139e+04 7.612e-10
 47.99890     46.0 1.185e+04 7.654e-10
 48.00923     47.2 1.161e+04 9.511e-10
 48.02672     47.1 1.201e+04 9.350e-10
 48.04738     46.9 1.206e+04 8.898e-10
 48.06162     46.8 1.190e+04 8.080e-10
 48.07195     48.2 1.223e+04 1.052e-09
 48.08870     48.2 1.194e+04 8.915e-10
 48.09947     48.4 1.149e+04 7.209e-10
 48.10980     48.7 1.192e+04 9.384e-10
 48.12434     49.1 1.152e+04 7.451e-10
 48.13467     50.1 1.204e+04 9.654e-10
 48.15068     50.5 1.162e+04 6.969e-10
 48.17134     50.5 1.136e+04 4.991e-10
 48.18705     50.2 1.111e+04 3.802e-10
 48.19738     51.4 1.181e+04 4.664e-10
 48.21266     50.8 1.142e+04 3.676e-10
 48.23332     50.3 1.086e+04 3.540e-10
 48.24977     49.9 1.053e+04 3.769e-10
 48.26010     50.4 1.112e+04 4.125e-10
 48.27322     50.4 1.073e+04 4.543e-10
 48.28355     50.6 1.120e+04 4.907e-10
 48.29529     50.7 1.079e+04 5.373e-10
 48.31249     51.0 1.068e+04 6.051e-10
 48.32282     51.0 1.135e+04 7.452e-10
 48.33661     51.4 1.104e+04 7.911e-10
 48.35727     51.8 1.094e+04 7.923e-10
 48.37520     52.3 1.080e+04 7.694e-10
 48.38553     52.2 1.140e+04 9.238e-10
 48.39859     52.6 1.112e+04 8.551e-10
 48.41925     53.2 1.073e+04 7.474e-10
 48.43792     53.9 1.032e+04 6.254e-10
 48.44825     54.1 1.079e+04 7.260e-10
 48.45730     55.3 1.021e+04 5.259e-10
 48.46763     55.4 1.043e+04 5.706e-10
 48.48123     56.0 9.968e+03 4.199e-10
 48.51232     56.9 9.784e+03 3.052e-10
 48.55322     58.2 8.985e+03 1.684e-10
 48.57388     58.9 9.973e+03 2.328e-10
 48.59505     60.4 9.285e+03 1.806e-10
 48.63124     62.4 9.223e+03 1.839e-10
 48.65190     62.5 9.382e+03 2.090e-10
 48.66726     63.7 9.384e+03 2.147e-10
 48.68782     63.9 9.435e+03 2.276e-10
 48.69912     63.8 9.711e+03 2.974e-10
 48.70945     63.7 1.045e+04 4.572e-10
 48.72914     62.7 1.137e+04 7.488e-10
 48.74980     62.1 1.232e+04 1.317e-09
 48.76184     62.4 1.296e+04 2.142e-09
 48.77217     62.6 1.368e+04 3.261e-09
 48.79112     63.8 1.386e+04 4.021e-09
 48.81178     65.1 1.382e+04 4.002e-09
 48.82455     66.0 1.353e+04 3.388e-09
 48.82789     66.8 1.405e+04 4.260e-09
 48.83578     66.9 1.388e+04 3.817e-09
 48.85310     67.0 1.309e+04 2.227e-09
 48.87376     66.1 1.264e+04 1.333e-09
 48.88727     65.1 1.167e+04 6.985e-10
 48.89760     65.5 1.192e+04 7.146e-10
 48.92550     63.7 1.068e+04 4.357e-10
 48.95018     62.4 9.613e+03 3.135e-10
 48.96041     62.2 1.011e+04 4.030e-10
 48.97705     62.0 9.835e+03 3.826e-10
 48.99771     62.1 9.661e+03 3.741e-10
 49.00952     62.4 9.604e+03 3.750e-10
 49.01419     62.0 9.635e+03 3.916e-10
 49.02303     61.9 9.812e+03 4.549e-10
 49.03903     62.5 9.755e+03 4.719e-10
 49.05969     62.9 9.758e+03 4.849e-10
 49.07552     63.6 9.810e+03 4.849e-10
 49.08585     63.8 9.975e+03 5.663e-10
 49.10101     64.2 9.995e+03 5.430e-10
 49.13209     64.9 9.992e+03 4.735e-10
 49.17351     65.2 9.784e+03 3.429e-10
 49.20105     65.2 9.705e+03 3.140e-10
 49.22171     64.7 9.702e+03 3.136e-10
 49.25615     64.8 9.735e+03 3.347e-10
 49.29747     64.8 9.764e+03 3.674e-10
 49.32648     64.9 9.721e+03 3.587e-10
 49.34714     65.1 9.596e+03 3.370e-10
 49.36754     65.3 9.424e+03 2.941e-10
 49.38820     64.8 9.270e+03 2.433e-10
 49.42142     65.0 8.994e+03 1.746e-10
 49.45192     65.2 8.720e+03 1.204e-10
 49.47258     65.4 8.812e+03 1.506e-10
 49.50406     65.9 8.626e+03 1.055e-10
 49.54538     66.4 8.502e+03 7.184e-11
 49.57735     66.9 8.342e+03 5.438e-11
 49.59801     67.5 8.443e+03 7.785e-11
 49.62802     68.4 8.348e+03 6.982e-11
 49.66933     69.5 8.364e+03 7.177e-11
 49.70279     70.5 8.465e+03 8.540e-11
 49.72344     71.3 8.599e+03 1.145e-10
 49.73569     72.2 8.861e+03 1.704e-10
 49.75635     72.0 8.982e+03 1.822e-10
 49.79329     72.8 9.728e+03 3.827e-10
 49.82822     73.9 1.066e+04 7.672e-10
 49.84888     74.6 1.084e+04 8.408e-10
 49.87593     75.4 1.171e+04 1.382e-09
 49.91725     75.6 1.181e+04 1.398e-09
 49.95365     76.0 1.153e+04 1.164e-09
 49.97431     76.5 1.207e+04 1.598e-09
 49.99988     77.0 1.163e+04 1.195e-09
 50.04120     77.2 1.096e+04 7.108e-10
 50.07909     76.9 1.032e+04 4.616e-10
 50.09975     77.9 1.127e+04 9.545e-10
 50.10385     78.1 1.104e+04 8.174e-10
 50.12451     77.8 1.115e+04 8.751e-10
 50.16516     78.0 1.123e+04 9.111e-10
 50.20452     78.4 1.144e+04 1.049e-09
 50.22518     79.3 1.202e+04 1.429e-09
 50.24780     79.5 1.200e+04 1.401e-09
 50.28911     79.6 1.203e+04 1.442e-09
 50.32996     79.6 1.213e+04 1.573e-09
 50.35061     79.4 1.235e+04 1.601e-09
 50.37175     79.6 1.252e+04 1.816e-09
 50.41307     80.2 1.261e+04 2.000e-09
 50.45134     81.2 1.262e+04 2.109e-09
 50.47200     80.9 1.256e+04 2.009e-09
 50.47605     82.1 1.266e+04 2.117e-09
 50.49671     81.3 1.210e+04 1.506e-09
 50.53703     82.0 1.205e+04 1.469e-09
 50.57834     82.6 1.188e+04 1.355e-09
 50.60148     83.2 1.159e+04 1.177e-09
 50.62214     82.4 1.118e+04 1.029e-09
 50.66098     83.1 1.109e+04 9.946e-10
 50.70230     83.8 1.115e+04 1.022e-09
 50.72692     84.1 1.146e+04 1.150e-09
 50.73715     83.5 1.125e+04 1.102e-09
 50.75375     83.4 1.148e+04 1.218e-09
 50.77441     83.1 1.190e+04 1.448e-09
 50.78944     82.4 1.253e+04 1.851e-09
 50.79977     82.2 1.245e+04 1.811e-09
 50.81573     81.3 1.314e+04 2.347e-09
 50.82963     80.1 1.388e+04 2.976e-09
 50.83995     80.4 1.359e+04 2.775e-09
 50.85216     79.0 1.421e+04 3.122e-09
 50.86248     79.0 1.349e+04 2.465e-09
 50.87771     77.0 1.352e+04 2.413e-09
 50.89837     74.9 1.335e+04 2.098e-09
 50.91487     72.7 1.280e+04 1.523e-09
 50.92520     72.6 1.264e+04 1.330e-09
 50.93969     70.1 1.203e+04 9.250e-10
 50.96035     67.7 1.122e+04 6.075e-10
 50.97759     64.5 1.050e+04 3.660e-10
 50.98792     65.2 1.079e+04 4.838e-10
 51.00167     63.7 1.029e+04 3.622e-10
 51.03275     62.7 1.012e+04 3.370e-10
 51.07417     61.0 9.599e+03 2.543e-10
 51.10322     59.8 9.277e+03 2.305e-10
 51.12388     60.2 9.683e+03 2.962e-10
 51.15681     58.9 9.637e+03 3.061e-10
 51.18764     57.7 9.692e+03 3.562e-10
 51.20830     57.6 1.021e+04 4.645e-10
 51.22855     56.0 1.057e+04 5.825e-10
 51.23879     55.1 1.142e+04 8.407e-10
 51.24958     51.2 1.328e+04 1.581e-09
 51.27024     48.2 1.446e+04 2.840e-09
 51.29090     47.5 1.482e+04 4.091e-09
 51.30150     47.1 1.477e+04 4.390e-09
 51.31183     47.7 1.548e+04 6.336e-09
 51.33221     47.0 1.548e+04 5.761e-09
 51.35287     45.2 1.537e+04 4.753e-09
 51.36422     42.4 1.503e+04 3.847e-09
 51.37254     41.1 1.518e+04 3.835e-09
 51.38185     41.1 1.472e+04 3.196e-09
 51.39419     37.2 1.450e+04 3.004e-09
 51.41485     32.4 1.527e+04 3.536e-09
 51.42694     29.2 1.567e+04 4.594e-09
 51.43727     28.4 1.538e+04 4.671e-09
 51.45617     27.4 1.531e+04 5.372e-09
 51.47683     25.9 1.555e+04 5.520e-09
 51.48965     22.1 1.703e+04 6.252e-09
 51.49998     19.1 1.709e+04 5.776e-09
 51.51815     13.2 1.791e+04 6.720e-09
 51.53881      7.5 1.773e+04 8.230e-09
 51.55237      4.0 1.722e+04 9.869e-09
 51.55883      3.6 1.691e+04 6.607e-09
 51.56593      4.8 1.643e+04 5.328e-09
 51.58013      1.6 1.630e+04 5.321e-09
 51.60079     -1.8 1.578e+04 4.567e-09
 51.61509     -5.9 1.555e+04 3.737e-09
 51.62542     -9.9 1.415e+04 2.369e-09
 51.64210    -13.1 1.417e+04 2.243e-09
 51.66276    -16.3 1.361e+04 1.949e-09
 51.67781    -19.0 1.264e+04 1.591e-09
 51.68813    -19.5 1.212e+04 1.311e-09
 51.70408    -20.5 1.155e+04 1.062e-09
 51.72474    -21.0 1.126e+04 8.904e-10
 51.73968    -21.5 1.093e+04 6.507e-10
 51.74513    -19.3 1.106e+04 7.809e-10
 51.75085    -19.7 1.088e+04 6.120e-10
 51.76606    -20.6 1.047e+04 4.046e-10
 51.78672    -21.1 1.012e+04 3.110e-10
 51.81781    -22.2 9.745e+03 2.420e-10
 51.85582    -22.6 9.247e+03 1.703e-10
 51.87648    -23.8 9.108e+03 1.518e-10
 51.90054    -23.6 8.995e+03 1.200e-10
 51.92395    -23.2 9.011e+03 1.047e-10
 51.94461    -18.7 8.945e+03 1.049e-10
 51.98126    -18.1 8.939e+03 9.864e-11
 52.00192    -19.0 9.022e+03 9.952e-11
 52.02450    -18.2 9.507e+03 1.164e-10
 52.06581    -16.6 9.886e+03 1.862e-10
 52.10669    -14.5 1.011e+04 2.450e-10
 52.12735    -15.6 1.047e+04 3.325e-10
 52.14845    -13.5 1.054e+04 3.631e-10
 52.18977    -11.5 1.049e+04 3.541e-10
 52.23109     -9.3 1.031e+04 3.222e-10
 52.25278     -7.0 1.001e+04 2.612e-10
 52.27247     -7.2 1.013e+04 2.998e-10
 52.29210     -5.3 1.025e+04 3.365e-10
 52.31373     -3.3 9.900e+03 2.241e-10
 52.35505     -1.5 9.584e+03 1.617e-10
 52.37822      0.7 9.356e+03 1.323e-10
 52.39888      0.5 9.385e+03 1.569e-10
 52.43768      3.0 9.211e+03 1.336e-10
 52.47900      5.6 9.073e+03 1.205e-10
 52.50365      8.2 9.000e+03 1.121e-10
 52.52431      8.7 9.029e+03 1.233e-10
 52.56164     11.2 8.960e+03 1.136e-10
 52.60296     13.7 9.029e+03 1.123e-10
 52.62908     15.5 9.083e+03 1.287e-10
 52.64506     15.6 9.359e+03 1.542e-10
 52.66025     16.0 9.384e+03 1.690e-10
 52.68559     17.9 9.557e+03 2.306e-10
 52.72691     20.2 9.730e+03 2.768e-10
 52.75452     22.3 9.821e+03 2.695e-10
 52.77518     21.4 1.111e+04 5.650e-10
 52.79912     22.3 1.102e+04 4.460e-10
 52.81704     22.3 1.100e+04 4.362e-10
 52.82737     21.7 1.126e+04 5.708e-10
 52.83380     22.0 1.101e+04 5.924e-10
 52.84413     22.4 1.095e+04 5.905e-10
 52.86100     23.1 1.087e+04 5.964e-10
 52.87976     24.0 1.079e+04 5.838e-10
 52.89009     23.9 1.122e+04 8.888e-10
 52.90232     24.6 1.132e+04 8.328e-10
 52.92298     25.2 1.135e+04 7.986e-10
 52.94247     25.4 1.146e+04 8.207e-10
 52.95280     25.1 1.161e+04 8.849e-10
 52.96430     25.2 1.176e+04 9.371e-10
 52.98496     25.3 1.197e+04 1.036e-09
 53.00519     25.3 1.229e+04 1.263e-09
 53.01552     24.9 1.213e+04 1.069e-09
 53.01788     24.9 1.227e+04 1.282e-09
 53.02821     25.5 1.234e+04 1.324e-09
 53.04694     25.8 1.240e+04 1.587e-09
 53.06760     26.3 1.255e+04 1.843e-09
 53.07824     26.8 1.275e+04 1.929e-09
 53.08857     26.3 1.256e+04 1.666e-09
 53.10891     26.5 1.265e+04 1.701e-09
 53.12957     26.8 1.255e+04 1.618e-09
 53.14095     27.0 1.231e+04 1.446e-09
 53.15128     26.6 1.206e+04 1.398e-09
 53.17089     27.1 1.181e+04 1.239e-09
 53.19155     27.4 1.164e+04 1.076e-09
 53.20367     28.2 1.166e+04 1.005e-09
 53.21400     28.3 1.150e+04 8.128e-10
 53.23287     28.1 1.142e+04 7.374e-10
 53.25353     28.0 1.121e+04 7.134e-10
 53.26639     28.2 1.111e+04 7.312e-10
 53.27672     28.1 1.086e+04 5.837e-10
 53.29485     29.0 1.068e+04 5.981e-10
 53.31551     29.5 1.080e+04 6.244e-10
 53.32911     30.2 1.072e+04 6.145e-10
 53.33944     30.3 1.051e+04 5.115e-10
 53.35683     30.9 1.059e+04 5.282e-10
 53.37570     31.0 1.082e+04 5.865e-10
 53.38603     31.2 1.087e+04 6.119e-10
 53.39182     31.4 1.101e+04 6.726e-10
 53.40215     31.4 1.089e+04 6.010e-10
 53.42923     32.0 1.120e+04 7.550e-10
 53.47065     33.1 1.158e+04 1.022e-09
 53.50712     34.2 1.153e+04 9.820e-10
 53.52768     34.7 1.112e+04 7.130e-10
 53.55319     35.9 1.083e+04 5.771e-10
 53.58007     36.3 1.081e+04 5.838e-10
 53.59030     36.6 1.062e+04 5.040e-10
 53.60474     36.9 1.061e+04 5.034e-10
 53.62540     37.4 1.061e+04 5.337e-10
 53.64269     37.8 1.067e+04 5.638e-10
 53.65312     37.8 1.048e+04 4.640e-10
 53.67724     38.9 1.068e+04 5.829e-10
 53.71856     40.4 1.089e+04 7.018e-10
 53.74405     41.7 1.099e+04 7.258e-10
 53.76282     41.4 1.093e+04 7.066e-10
 53.77865     41.9 1.101e+04 7.252e-10
 53.80120     43.1 1.081e+04 5.894e-10
 53.84252     43.9 1.055e+04 4.509e-10
 53.88342     44.6 1.024e+04 3.649e-10
 53.90408     44.7 1.036e+04 3.476e-10
 53.92515     45.3 9.960e+03 3.047e-10
 53.96647     46.2 1.021e+04 3.402e-10
 54.00779     47.2 1.081e+04 4.693e-10
 54.02952     48.9 1.131e+04 6.653e-10
 54.05018     46.7 1.277e+04 1.582e-09
 54.08000     48.1 1.243e+04 1.507e-09
 54.09204     49.3 1.260e+04 1.740e-09
 54.10237     48.5 1.312e+04 2.087e-09
 54.11200     49.7 1.309e+04 2.042e-09
 54.12233     49.9 1.266e+04 1.651e-09
 54.14188     50.9 1.263e+04 1.610e-09
 54.15476     51.8 1.255e+04 1.517e-09
 54.16509     49.9 1.251e+04 1.339e-09
 54.18320     50.2 1.240e+04 1.210e-09
 54.20386     50.2 1.229e+04 1.108e-09
 54.21747     50.1 1.220e+04 1.044e-09
 54.22780     46.8 1.265e+04 1.239e-09
 54.24518     46.4 1.283e+04 1.389e-09
 54.26584     45.9 1.315e+04 1.645e-09
 54.28019     45.4 1.363e+04 2.041e-09
 54.28977     42.0 1.473e+04 3.177e-09
 54.29608     42.0 1.526e+04 3.792e-09
 54.30716     40.5 1.628e+04 4.910e-09
 54.32781     38.0 1.787e+04 6.874e-09
 54.34291     34.6 1.938e+04 9.881e-09
 54.35324     28.4 1.968e+04 1.090e-08
 54.36913     25.7 1.961e+04 1.256e-08
 54.38979     23.2 1.882e+04 1.148e-08
 54.40562     21.1 1.751e+04 9.025e-09
 54.41595     17.0 1.526e+04 4.957e-09
 54.43111     14.9 1.425e+04 3.039e-09
 54.45177     12.3 1.320e+04 1.761e-09
 54.46834      9.7 1.206e+04 1.042e-09
 54.47607      5.4 1.044e+04 4.412e-10
 54.48016      5.5 1.045e+04 4.569e-10
 54.49309      3.7 9.946e+03 3.537e-10
 54.51375      2.6 9.567e+03 2.975e-10
 54.53106      1.3 9.632e+03 3.042e-10
 54.54139     -0.3 9.481e+03 2.730e-10
 54.55507     -0.6 9.471e+03 2.752e-10
 54.57573     -2.3 9.735e+03 3.521e-10
 54.59377     -2.7 9.750e+03 3.756e-10
 54.60410     -3.2 9.679e+03 3.593e-10
 54.61704     -3.9 9.720e+03 4.614e-10
 54.63770     -4.2 9.880e+03 5.469e-10
 54.65390     -5.2 1.035e+04 6.235e-10
 54.66236     -5.0 1.039e+04 6.377e-10
 54.66682     -6.3 1.047e+04 6.214e-10
 54.67902     -9.1 1.152e+04 8.312e-10
 54.69968    -12.3 1.204e+04 1.172e-09
 54.71921    -14.0 1.190e+04 1.527e-09
 54.72954    -14.3 1.175e+04 1.471e-09
 54.74100    -14.4 1.199e+04 1.713e-09
 54.76166    -15.0 1.211e+04 1.691e-09
 54.78193    -16.0 1.204e+04 1.315e-09
 54.79226    -16.7 1.179e+04 1.138e-09
 54.80298    -19.2 1.129e+04 8.140e-10
 54.82364    -21.8 1.063e+04 6.064e-10
 54.83798    -23.6 1.013e+04 4.954e-10
 54.84831    -23.5 1.024e+04 5.334e-10
 54.85497    -24.5 9.908e+03 4.655e-10
 54.86530    -24.3 9.766e+03 4.092e-10
 54.88562    -24.7 9.718e+03 3.984e-10
 54.90746    -25.2 9.855e+03 4.103e-10
 54.92821    -24.5 9.730e+03 3.769e-10
 54.95812    -24.7 9.408e+03 3.005e-10
 54.99944    -24.5 9.025e+03 2.182e-10
 55.03299    -23.8 8.656e+03 1.602e-10
 55.05365    -22.3 8.648e+03 1.610e-10
 55.08207    -21.1 8.459e+03 1.303e-10
 55.12339    -19.8 8.342e+03 1.118e-10
 55.15842    -18.3 8.293e+03 1.036e-10
 55.17908    -17.0 8.279e+03 1.033e-10
 55.19600    -15.4 8.293e+03 1.008e-10
 55.21666    -15.2 8.412e+03 1.187e-10
 55.24735    -13.5 8.440e+03 1.184e-10
 55.28386    -11.7 8.420e+03 1.251e-10
 55.30452    -10.5 8.376e+03 1.183e-10
 55.32999     -8.5 8.384e+03 1.248e-10
 55.37131     -6.3 8.436e+03 1.310e-10
 55.40929     -4.1 8.455e+03 1.314e-10
 55.42995     -3.3 8.396e+03 1.190e-10
 55.45394     -1.2 8.419e+03 1.167e-10
 55.49526      0.8 8.470e+03 1.176e-10
 55.53472      2.9 8.508e+03 1.221e-10
 55.55538      3.9 8.403e+03 1.084e-10
 55.56415      6.1 8.410e+03 1.108e-10
 55.58481      6.5 8.412e+03 1.059e-10
 55.61922      8.8 8.426e+03 1.076e-10
 55.66016     11.1 8.455e+03 1.109e-10
 55.68082     11.9 8.371e+03 9.174e-11
 55.70185     14.1 8.434e+03 9.783e-11
 55.74317     16.5 8.471e+03 1.100e-10
 55.78449     18.8 8.553e+03 1.282e-10
 55.80625     21.0 8.717e+03 1.535e-10
 55.82691     22.0 8.572e+03 1.248e-10
 55.86713     24.2 8.761e+03 1.598e-10
 55.90845     26.3 8.967e+03 2.096e-10
 55.93169     28.5 9.161e+03 2.635e-10
 55.93488     29.6 8.869e+03 1.995e-10
 55.95296     30.0 8.818e+03 1.792e-10
 55.99108     32.2 8.949e+03 2.178e-10
 56.03240     34.4 9.016e+03 2.408e-10
 56.05712     36.6 9.008e+03 2.383e-10
 56.07778     37.7 8.810e+03 1.963e-10
 56.11504     39.8 8.806e+03 1.934e-10
 56.15636     41.9 8.770e+03 1.856e-10
 56.18255     43.9 8.717e+03 1.764e-10
 56.20321     45.2 8.664e+03 1.580e-10
 56.23900     47.3 8.611e+03 1.460e-10
 56.27979     49.4 8.551e+03 1.344e-10
 56.30045     50.1 8.547e+03 1.346e-10
 56.30799     52.4 8.481e+03 1.266e-10
 56.32865     53.5 8.431e+03 1.103e-10
 56.36295     56.0 8.412e+03 1.103e-10
 56.40427     58.5 8.413e+03 1.122e-10
 56.43342     61.1 8.434e+03 1.178e-10
 56.45408     62.2 8.438e+03 1.114e-10
 56.48691     64.9 8.493e+03 1.245e-10
 56.52823     67.6 8.626e+03 1.467e-10
 56.55886     70.5 8.979e+03 1.954e-10
 56.57951     71.7 9.143e+03 2.130e-10
 56.61086     74.3 9.629e+03 3.043e-10
 56.63180     75.9 1.000e+04 4.175e-10
 56.64204     76.1 1.002e+04 4.161e-10
 56.65808     76.6 1.022e+04 4.887e-10
 56.66841     77.2 1.020e+04 4.779e-10
 56.68419     78.9 1.066e+04 6.889e-10
 56.70495     79.8 1.081e+04 7.433e-10
 56.73482     82.0 1.183e+04 1.335e-09
 56.77614     83.7 1.253e+04 1.838e-09
 56.80972     84.7 1.255e+04 1.837e-09
 56.83028     85.0 1.303e+04 2.303e-09
 56.85868     86.2 1.278e+04 2.015e-09
 56.90009     87.5 1.177e+04 1.241e-09
 56.93516     88.9 1.057e+04 6.609e-10
 56.95582     89.6 1.091e+04 8.109e-10
 56.98273     91.3 9.964e+03 4.578e-10
 57.01610     93.0 9.344e+03 3.083e-10
 57.03676     94.0 9.553e+03 3.363e-10
 57.06059     96.1 9.145e+03 2.613e-10
 57.08125     96.8 9.510e+03 3.072e-10
 57.10669     99.4 9.214e+03 2.614e-10
 57.14801    102.2 9.131e+03 2.559e-10
 57.18603    104.9 9.198e+03 2.632e-10
 57.20668    105.5 9.321e+03 2.663e-10
 57.23064    108.0 9.367e+03 2.798e-10
 57.27196    110.6 9.660e+03 3.282e-10
 57.31146    112.7 9.896e+03 3.877e-10
 57.33202    113.7 9.825e+03 3.560e-10
 57.34407    114.8 9.948e+03 4.060e-10
 57.36473    116.0 1.006e+04 4.656e-10
 57.38405    117.2 1.018e+04 5.243e-10
 57.39330    117.9 1.007e+04 4.721e-10
 57.39464    118.0 1.029e+04 4.804e-10
 57.40605    119.1 1.054e+04 5.696e-10
 57.42671    120.0 1.080e+04 6.852e-10
 57.44703    120.9 1.110e+04 8.375e-10
 57.45736    120.8 1.150e+04 1.024e-09
 57.46803    121.5 1.188e+04 1.316e-09
 57.48869    122.4 1.229e+04 1.688e-09
 57.50935    123.4 1.278e+04 2.132e-09
 57.52007    124.6 1.295e+04 2.538e-09
 57.53040    124.9 1.363e+04 3.380e-09
 57.55067    126.0 1.388e+04 3.663e-09
 57.56813    127.0 1.390e+04 3.603e-09
 57.57846    127.8 1.461e+04 4.583e-09
 57.58279    128.7 1.464e+04 4.509e-09
 57.58791    128.1 1.496e+04 5.158e-09
 57.59705    128.2 1.496e+04 5.084e-09
 57.60738    128.6 1.486e+04 4.662e-09
 57.61405    128.7 1.483e+04 4.484e-09
 57.61922    128.6 1.491e+04 4.650e-09
 57.63326    128.8 1.499e+04 4.260e-09
 57.64551    128.5 1.485e+04 3.526e-09
 57.65062    127.3 1.500e+04 4.037e-09
 57.65903    127.1 1.495e+04 3.860e-09
 57.67457    125.9 1.506e+04 3.759e-09
 57.69528    124.2 1.490e+04 3.641e-09
 57.70822    122.5 1.490e+04 3.726e-09
 57.71855    121.8 1.530e+04 4.446e-09
 57.73660    121.2 1.525e+04 4.483e-09
 57.75221    120.3 1.531e+04 4.644e-09
 57.76253    118.8 1.673e+04 6.806e-09
 57.77094    118.0 1.682e+04 7.357e-09
 57.78127    116.8 1.616e+04 5.507e-09
 57.79858    115.5 1.624e+04 5.493e-09
 57.81924    113.7 1.653e+04 5.790e-09
 57.83366    111.7 1.736e+04 6.892e-09
 57.84399    109.8 1.573e+04 4.349e-09
 57.86056    107.4 1.718e+04 6.480e-09
 57.87600    104.3 1.839e+04 9.631e-09
 57.88628    102.9 1.897e+04 1.252e-08
 57.89628    102.2 2.019e+04 2.099e-08
 57.90144    101.7 1.955e+04 1.628e-08
 57.90694    101.4 2.077e+04 2.614e-08
 57.91727    100.9 2.169e+04 3.571e-08
 57.92760     99.8 2.178e+04 3.662e-08
 57.93618     99.1 2.017e+04 2.281e-08
 57.94135     98.2 2.017e+04 2.204e-08
 57.94826     98.0 1.990e+04 2.006e-08
 57.95904     96.9 1.964e+04 1.303e-08
 57.96942     96.7 1.833e+04 1.019e-08
 57.98451     92.5 1.804e+04 5.178e-09
 58.00517     83.6 1.733e+04 3.536e-09
 58.02181     74.9 1.595e+04 3.290e-09
 58.03214     76.3 1.589e+04 3.148e-09
 58.04649     70.3 1.505e+04 3.001e-09
 58.06715     65.9 1.460e+04 2.623e-09
 58.08453     61.8 1.417e+04 1.997e-09
 58.09486     63.1 1.414e+04 2.022e-09
 58.10847     59.0 1.334e+04 1.444e-09
 58.12036     55.8 1.231e+04 1.075e-09
 58.13069     54.9 1.207e+04 1.044e-09
 58.14724     53.4 1.148e+04 8.757e-10
 58.15757     54.3 1.146e+04 8.802e-10
 58.17045     53.7 1.109e+04 7.419e-10
 58.19111     53.5 1.086e+04 6.473e-10
 58.20996     53.7 1.060e+04 5.389e-10
 58.23072     54.8 1.058e+04 5.038e-10
 58.26361     54.7 1.036e+04 3.738e-10
 58.30493     55.5 1.005e+04 2.892e-10
 58.33559     56.6 9.964e+03 2.773e-10
 58.35625     58.0 9.967e+03 2.811e-10
 58.38756     59.1 1.003e+04 2.914e-10
 58.42888     60.5 1.014e+04 3.177e-10
 58.46102     62.0 1.017e+04 3.358e-10
 58.47953     62.7 1.011e+04 3.180e-10
 58.48870     62.6 9.776e+03 2.317e-10
 58.51152     64.2 9.648e+03 2.122e-10
 58.55284     65.9 9.669e+03 2.267e-10
 58.58646     67.7 9.876e+03 2.719e-10
 58.60712     68.2 9.352e+03 1.693e-10
 58.63548     70.1 9.485e+03 1.951e-10
 58.67680     72.2 9.721e+03 2.298e-10
 58.71189     74.4 9.975e+03 2.626e-10
 58.73255     74.7 9.099e+03 1.492e-10
 58.75943     76.6 9.399e+03 1.809e-10
 58.80075     78.6 9.719e+03 2.239e-10
 58.83620     80.2 9.973e+03 2.786e-10
 58.85201     81.3 9.785e+03 2.554e-10
 58.85789     81.6 9.392e+03 1.973e-10
 58.88339     83.4 9.802e+03 2.638e-10
 58.92471     85.0 1.008e+04 3.369e-10
 58.95560     86.5 1.026e+04 3.929e-10
 58.97289     87.3 1.042e+04 4.432e-10
 58.98332     87.5 1.005e+04 3.239e-10
 59.00734     89.3 1.019e+04 3.536e-10
 59.03051     90.5 1.029e+04 3.890e-10
 59.03821     90.5 1.018e+04 3.550e-10
 59.04594     90.8 1.001e+04 3.056e-10
 59.05880     91.6 9.950e+03 2.856e-10
 59.07946     92.8 9.871e+03 2.613e-10
 59.09833     93.5 9.811e+03 2.439e-10
 59.10876     93.4 9.678e+03 2.185e-10
 59.13130     95.1 9.558e+03 1.907e-10
 59.16114     95.8 9.492e+03 1.838e-10
 59.17137     96.1 9.455e+03 1.804e-10
 59.18275     96.8 9.451e+03 1.802e-10
 59.20341     97.5 9.506e+03 1.850e-10
 59.21448     97.7 9.600e+03 1.968e-10
 59.22450     97.6 9.597e+03 1.970e-10
 59.23419     97.4 9.582e+03 1.971e-10
 59.24483     97.3 9.802e+03 2.373e-10
 59.26539     96.5 1.033e+04 3.687e-10
 59.28605     95.5 1.108e+04 6.850e-10
 59.29681     95.3 1.193e+04 1.286e-09
 59.30714     95.3 1.181e+04 1.259e-09
 59.32737     95.9 1.233e+04 1.962e-09
 59.34803     96.2 1.276e+04 2.201e-09
 59.35953     96.2 1.278e+04 2.129e-09
 59.36986     96.3 1.225e+04 1.752e-09
 59.38823     96.3 1.185e+04 1.353e-09
 59.39856     95.6 1.157e+04 1.146e-09
 59.41001     94.9 1.098e+04 6.965e-10
 59.42224     93.3 1.035e+04 3.995e-10
 59.43257     93.2 9.718e+03 2.999e-10
 59.45132     91.8 8.878e+03 1.820e-10
 59.47198     91.2 8.797e+03 1.677e-10
 59.48496     91.4 8.814e+03 1.639e-10
 59.50572     92.4 8.276e+03 1.317e-10
 59.54449     93.6 8.324e+03 1.328e-10
 59.57240     94.8 8.215e+03 1.309e-10
 59.58264     94.1 8.226e+03 1.319e-10
 59.59594     95.0 8.225e+03 1.340e-10
 59.61039     96.0 8.275e+03 1.449e-10
 59.63115     96.9 8.090e+03 1.351e-10
 59.66844     98.7 8.201e+03 1.579e-10
 59.70976    100.6 8.368e+03 1.908e-10
 59.73602    102.6 8.555e+03 2.288e-10
 59.75668    104.2 8.201e+03 1.814e-10
 59.79240    106.2 8.315e+03 2.089e-10
 59.83372    108.2 8.420e+03 2.351e-10
 59.86146    110.0 8.532e+03 2.574e-10
 59.88212    110.9 8.247e+03 2.178e-10
 59.91635    112.6 8.286e+03 2.287e-10
 59.94065    114.2 8.395e+03 2.452e-10
 59.96131    112.8 8.709e+03 2.869e-10
 59.98689    114.2 8.963e+03 3.193e-10
 60.00755    115.0 8.698e+03 2.919e-10
 60.04031    116.2 8.879e+03 3.262e-10
 60.07120    117.5 8.870e+03 3.411e-10
 60.09176    118.0 8.881e+03 3.500e-10
 60.11213    119.1 8.909e+03 3.818e-10
 60.12246    119.5 8.870e+03 3.661e-10
 60.12453    120.1 8.903e+03 3.831e-10
 60.13486    120.1 9.073e+03 4.523e-10
 60.15374    121.3 9.357e+03 5.547e-10
 60.17440    122.4 9.679e+03 6.747e-10
 60.18518    123.4 1.001e+04 8.015e-10
 60.19551    123.5 9.368e+03 5.500e-10
 60.21572    124.3 9.536e+03 6.099e-10
 60.23638    124.9 9.789e+03 6.884e-10
 60.24789    125.1 1.024e+04 8.136e-10
 60.25822    125.4 9.192e+03 5.116e-10
 60.27770    125.6 9.658e+03 6.313e-10
 60.29828    125.5 1.044e+04 8.505e-10
 60.31053    124.1 1.300e+04 2.110e-09
 60.32094    125.0 1.165e+04 1.344e-09
 60.33967    124.9 1.270e+04 1.994e-09
 60.36033    124.8 1.367e+04 2.871e-09
 60.37333    124.8 1.446e+04 3.832e-09
 60.38366    126.0 1.377e+04 3.076e-09
 60.40165    126.2 1.464e+04 4.144e-09
 60.42231    126.3 1.536e+04 5.040e-09
 60.43604    126.3 1.585e+04 5.605e-09
 60.44637    127.7 1.592e+04 5.850e-09
 60.46363    127.6 1.663e+04 6.767e-09
 60.48236    127.3 1.718e+04 7.760e-09
 60.49269    125.0 1.715e+04 7.677e-09
 60.49876    124.7 1.756e+04 9.059e-09
 60.50909    126.3 1.860e+04 1.001e-08
 60.52561    125.8 1.909e+04 1.160e-08
 60.54627    125.3 1.935e+04 1.260e-08
 60.56148    124.8 1.927e+04 1.250e-08
 60.57181    125.7 2.028e+04 1.233e-08
 60.58759    125.3 2.003e+04 1.137e-08
 60.60825    125.1 1.948e+04 9.606e-09
 60.62419    125.0 1.872e+04 7.554e-09
 60.63452    125.2 1.930e+04 8.256e-09
 60.64956    125.3 1.845e+04 6.157e-09
 60.66643    125.4 1.747e+04 4.479e-09
 60.67676    123.1 1.485e+04 2.070e-09
 60.68691    123.0 1.344e+04 1.536e-09
 60.69724    124.1 1.425e+04 1.565e-09
 60.71154    124.0 1.289e+04 1.205e-09
 60.73220    124.0 1.235e+04 1.176e-09
 60.74963    124.2 1.240e+04 1.264e-09
 60.75996    123.7 1.473e+04 1.629e-09
 60.77352    123.5 1.547e+04 2.120e-09
 60.79418    123.3 1.648e+04 2.970e-09
 60.81235    123.2 1.762e+04 4.337e-09
 60.82268    121.9 2.039e+04 1.007e-08
 60.83028    121.7 2.050e+04 9.773e-09
 60.84057    121.5 2.088e+04 1.049e-08
 60.84877    121.4 2.136e+04 1.248e-08
 60.85345    121.0 2.207e+04 1.911e-08
 60.86079    120.5 2.054e+04 1.136e-08
 60.87506    120.6 2.083e+04 1.215e-08
 60.88534    121.4 2.215e+04 2.473e-08
 60.89221    121.4 2.249e+04 1.993e-08
 60.90254    121.3 2.260e+04 1.577e-08
 60.91809    119.5 2.247e+04 4.277e-09
 60.93778    116.0 1.900e+04 2.071e-09
 60.94811    114.7 1.864e+04 1.988e-09
 60.95945    111.4 1.502e+04 1.730e-09
 60.98011    109.2 1.324e+04 1.543e-09
 61.00050    108.6 1.242e+04 1.335e-09
 61.01083    109.4 1.240e+04 1.192e-09
 61.02143    109.1 1.166e+04 9.494e-10
 61.03458    109.1 1.108e+04 8.334e-10
 61.04491    108.9 1.082e+04 7.995e-10
 61.06275    109.5 1.067e+04 7.581e-10
 61.07354    110.2 1.057e+04 7.262e-10
 61.08387    110.5 1.036e+04 5.887e-10
 61.10407    111.3 1.025e+04 5.702e-10
 61.12473    112.5 1.026e+04 5.709e-10
 61.13636    112.9 1.047e+04 6.604e-10
 61.15711    113.8 9.641e+03 4.191e-10
 61.19723    115.6 9.843e+03 4.605e-10
 61.23855    116.9 1.032e+04 5.800e-10
 61.26189    118.0 1.092e+04 7.785e-10
 61.28255    121.3 1.011e+04 4.984e-10
 61.32119    122.6 1.069e+04 6.743e-10
 61.36251    123.9 1.111e+04 8.161e-10
 61.38732    125.1 1.108e+04 7.722e-10
 61.39676    128.3 1.093e+04 7.325e-10
 61.41326    125.6 1.016e+04 4.889e-10
 61.44514    126.8 9.671e+03 3.667e-10
 61.48646    127.7 8.876e+03 2.420e-10
 61.51276    128.6 8.475e+03 1.921e-10
 61.53342    131.7 8.721e+03 2.349e-10
 61.56910    132.6 8.582e+03 2.146e-10
 61.61042    133.9 8.626e+03 2.163e-10
 61.63819    134.8 8.805e+03 2.312e-10
 61.64842    136.0 8.909e+03 2.506e-10
 61.66187    136.4 8.882e+03 2.503e-10
 61.68253    136.8 8.888e+03 2.524e-10
 61.70071    137.3 8.902e+03 2.584e-10
 61.71104    137.9 9.071e+03 2.734e-10
 61.71864    137.4 9.171e+03 2.816e-10
 61.72892    137.0 9.755e+03 2.815e-10
 61.73714    133.0 1.817e+04 2.532e-10
 61.74230    114.8 5.079e+04 3.566e-10
 61.74958     90.8 5.746e+04 1.942e-09
 61.75990     84.0 3.833e+04 1.508e-08
 61.76563     83.5 2.699e+04 6.313e-08
 61.76905     83.7 2.344e+04 1.366e-07
 61.77366     83.5 2.193e+04 1.905e-07
 61.78056     84.2 2.143e+04 1.793e-07
 61.79089     83.9 2.238e+04 1.219e-07
 61.79986     81.5 2.933e+04 4.760e-08
 61.80502     74.4 4.516e+04 1.081e-08
 61.81155     66.3 6.672e+04 2.080e-09
 61.82610     53.2 6.520e+04 1.003e-09
 61.83648     25.5 2.674e+04 7.958e-10
 61.84780     17.1 1.265e+04 1.197e-09
 61.86846     16.6 1.210e+04 1.280e-09
 61.88886     16.5 1.222e+04 1.262e-09
 61.90962     15.3 1.194e+04 1.282e-09
 61.94097     16.2 1.163e+04 1.130e-09
 61.98229     17.5 1.109e+04 8.439e-10
 62.01449     18.5 1.045e+04 5.739e-10
 62.03515     17.2 1.054e+04 6.088e-10
 62.06492     18.1 1.000e+04 4.471e-10
 62.10624     19.0 9.500e+03 3.199e-10
 62.12891     20.0 9.117e+03 2.356e-10
 62.14193     18.9 9.179e+03 2.401e-10
 62.16059     18.2 9.230e+03 2.187e-10
 62.18888     18.9 8.978e+03 1.577e-10
 62.23020     19.6 8.941e+03 1.446e-10
 62.26536     19.8 8.973e+03 1.497e-10
 62.28602     14.4 1.000e+04 1.697e-10
 62.31283     10.9 1.196e+04 3.867e-10
 62.33831     10.2 1.153e+04 4.787e-10
 62.34854      7.4 1.307e+04 1.007e-09
 62.36429      5.7 1.457e+04 1.890e-09
 62.38495      3.1 1.689e+04 3.721e-09
 62.40093     -0.2 1.861e+04 7.158e-09
 62.41126     -2.8 1.861e+04 8.345e-09
 62.42627     -3.8 1.807e+04 1.078e-08
 62.43740     -3.0 1.773e+04 1.077e-08
 62.44252     -2.9 1.690e+04 7.552e-09
 62.45199     -2.5 1.630e+04 6.554e-09
 62.46232     -2.4 1.619e+04 4.922e-09
 62.46871     -2.4 1.622e+04 4.473e-09
 62.47393     -4.5 1.523e+04 2.775e-09
 62.48653     -6.1 1.545e+04 1.849e-09
 62.49686     -5.9 1.520e+04 2.090e-09
 62.50890     -8.5 1.491e+04 1.262e-09
 62.52636    -12.6 1.286e+04 6.069e-10
 62.53669    -18.1 9.269e+03 2.582e-10
 62.55022    -19.1 8.562e+03 2.324e-10
 62.57088    -19.0 8.466e+03 2.274e-10
 62.60197    -18.5 8.429e+03 2.293e-10
 62.64166    -17.6 8.332e+03 2.172e-10
 62.66232    -18.5 7.989e+03 1.672e-10
 62.68470    -18.0 7.871e+03 1.513e-10
 62.72602    -18.1 8.031e+03 1.665e-10
 62.76710    -19.8 8.500e+03 2.252e-10
 62.78776    -23.5 9.167e+03 3.036e-10
 62.80866    -25.8 1.068e+04 7.736e-10
 62.84455    -27.7 1.155e+04 1.239e-09
 62.86521    -29.1 1.199e+04 1.443e-09
 62.88087    -31.0 1.224e+04 1.482e-09
 62.90143    -34.4 1.320e+04 1.616e-09
 62.91299    -41.2 1.473e+04 2.272e-09
 62.92332    -44.8 1.447e+04 2.544e-09
 62.94275    -50.0 1.499e+04 3.653e-09
 62.96341    -52.9 1.540e+04 5.344e-09
 62.97571    -54.8 1.609e+04 6.745e-09
 62.98604    -55.4 1.524e+04 4.880e-09
 63.00473    -58.8 1.535e+04 4.687e-09
 63.02539    -63.5 1.538e+04 4.501e-09
 63.03843    -67.3 1.592e+04 4.851e-09
 63.04147    -67.7 1.471e+04 3.308e-09
 63.04909    -67.7 1.461e+04 3.501e-09
 63.06670    -71.5 1.447e+04 3.647e-09
 63.08736    -73.8 1.399e+04 3.618e-09
 63.10115    -74.9 1.378e+04 3.476e-09
 63.11147    -74.7 1.351e+04 3.172e-09
 63.12868    -75.8 1.373e+04 2.972e-09
 63.14934    -78.0 1.375e+04 2.297e-09
 63.16386    -81.9 1.290e+04 1.381e-09
 63.17419    -80.5 1.384e+04 2.015e-09
 63.19066    -85.1 1.230e+04 1.153e-09
 63.21132    -89.0 1.082e+04 7.540e-10
 63.22284    -90.8 1.045e+04 6.616e-10
 63.22777    -91.6 1.030e+04 6.530e-10
 63.23691    -91.2 1.074e+04 8.360e-10
 63.25264    -92.2 1.043e+04 7.113e-10
 63.27330    -92.9 1.021e+04 5.803e-10
 63.28939    -95.0 9.470e+03 3.979e-10
 63.31015    -93.7 1.019e+04 5.555e-10
 63.34580    -95.6 9.161e+03 3.172e-10
 63.38712    -96.7 8.532e+03 2.193e-10
 63.41493    -97.1 8.088e+03 1.576e-10
 63.43558    -96.5 8.192e+03 1.605e-10
 63.46976    -96.5 7.854e+03 1.239e-10
 63.51107    -96.0 7.717e+03 1.085e-10
 63.54036    -95.3 7.691e+03 1.042e-10
 63.56102    -94.3 7.721e+03 1.062e-10
 63.58085    -93.4 7.711e+03 1.022e-10
 63.60151    -93.6 7.667e+03 9.556e-11
 63.63503    -92.7 7.612e+03 8.614e-11
 63.66579    -91.9 7.549e+03 7.169e-11
 63.68645    -90.7 7.667e+03 7.463e-11
 63.71767    -90.4 7.677e+03 6.262e-11
 63.75899    -90.4 7.683e+03 5.859e-11
 63.79123    -91.0 7.861e+03 5.984e-11
 63.81189    -90.4 8.341e+03 8.191e-11
 63.84162    -91.3 8.566e+03 1.160e-10
 63.88294    -91.5 8.717e+03 1.609e-10
 63.91666    -91.5 8.777e+03 1.807e-10
 63.93732    -90.7 9.170e+03 2.667e-10
 63.94901    -90.5 9.088e+03 2.536e-10
 63.96967    -90.7 9.202e+03 2.768e-10
 64.00690    -90.6 8.813e+03 1.577e-10
 64.04210    -91.2 8.493e+03 9.314e-11
 64.06275    -90.4 8.566e+03 9.500e-11
 64.08954    -91.2 8.405e+03 7.610e-11
 64.13085    -91.7 8.396e+03 7.391e-11
 64.16753    -92.5 8.744e+03 9.583e-11
 64.18819    -92.3 8.895e+03 1.085e-10
 64.21349    -92.7 9.233e+03 1.856e-10
 64.25481    -92.9 9.534e+03 2.517e-10
 64.29296    -93.5 9.678e+03 2.705e-10
 64.31362    -93.0 9.652e+03 2.658e-10
 64.31716    -94.1 9.559e+03 2.152e-10
 64.33782    -94.2 9.312e+03 1.758e-10
 64.37877    -95.2 9.199e+03 1.515e-10
 64.41840    -96.1 9.177e+03 1.394e-10
 64.43906    -95.3 9.033e+03 1.088e-10
 64.46140    -96.1 9.074e+03 1.028e-10
 64.50272    -96.9 9.113e+03 1.012e-10
 64.54383    -97.8 9.257e+03 1.065e-10
 64.56449    -97.0 9.270e+03 9.702e-11
 64.58536    -97.6 9.332e+03 1.240e-10
 64.62668    -97.8 9.415e+03 1.452e-10
 64.66465    -97.9 9.496e+03 1.512e-10
 64.68531    -97.3 9.472e+03 1.641e-10
 64.68992    -97.6 9.519e+03 1.647e-10
 64.71058    -96.9 9.516e+03 1.638e-10
 64.75063    -97.3 9.568e+03 1.618e-10
 64.79195    -97.9 9.811e+03 1.733e-10
 64.81536    -98.3 1.030e+04 2.633e-10
 64.83602    -98.5 1.041e+04 2.593e-10
 64.87459    -99.8 1.137e+04 4.557e-10
 64.91591   -102.3 1.237e+04 8.210e-10
 64.94069   -106.6 1.295e+04 1.290e-09
 64.95093   -108.1 1.313e+04 1.487e-09
 64.96736   -109.9 1.344e+04 1.997e-09
 64.98802   -111.5 1.372e+04 2.459e-09
 65.00331   -113.1 1.386e+04 2.729e-09
 65.01364   -114.4 1.384e+04 2.724e-09
 65.02934   -115.9 1.353e+04 2.566e-09
 65.04294   -117.3 1.299e+04 1.990e-09
 65.05327   -117.1 1.265e+04 1.827e-09
 65.06603   -118.6 1.208e+04 1.340e-09
 65.07636   -119.7 1.145e+04 9.596e-10
 65.09132   -121.2 1.089e+04 7.220e-10
 65.11198   -122.1 1.046e+04 5.947e-10
 65.12875   -122.5 1.020e+04 5.296e-10
 65.13908   -122.5 9.871e+03 4.105e-10
 65.15329   -122.5 9.820e+03 4.021e-10
 65.17395   -122.4 9.788e+03 4.007e-10
 65.19156   -122.1 9.801e+03 4.222e-10
 65.21232   -122.6 9.606e+03 3.467e-10
 65.24646   -122.0 9.462e+03 3.385e-10
 65.28778   -121.2 9.393e+03 3.283e-10
 65.31709   -120.9 9.430e+03 3.301e-10
 65.33775   -121.1 9.467e+03 3.320e-10
 65.37041   -121.4 9.808e+03 4.158e-10
 65.40095   -122.0 1.042e+04 6.319e-10
 65.42161   -121.6 1.030e+04 5.309e-10
 65.44243   -121.8 1.071e+04 7.599e-10
 65.45266   -121.7 1.058e+04 6.953e-10
 65.46318   -121.6 1.085e+04 8.524e-10
 65.48384   -121.6 1.106e+04 9.977e-10
 65.50450   -121.6 1.110e+04 1.020e-09
 65.51538   -121.6 1.101e+04 1.012e-09
 65.52571   -121.4 1.054e+04 8.048e-10
 65.54582   -121.0 1.025e+04 6.928e-10
 65.56648   -120.5 9.976e+03 5.670e-10
 65.57810   -120.1 9.771e+03 4.590e-10
 65.58612   -119.8 9.576e+03 3.769e-10
 65.59517   -119.8 9.529e+03 3.537e-10
 65.61823   -119.9 9.528e+03 3.237e-10
 65.65964   -120.0 9.541e+03 3.095e-10
 65.69340   -120.0 9.681e+03 3.272e-10
 65.71405   -120.3 9.433e+03 2.696e-10
 65.74228   -120.4 9.699e+03 3.588e-10
 65.76634   -120.2 9.766e+03 4.203e-10
 65.77241   -120.3 9.755e+03 4.201e-10
 65.78967   -120.0 9.579e+03 3.600e-10
 65.81883   -119.5 9.648e+03 4.136e-10
 65.83949   -120.0 9.591e+03 4.049e-10
 65.86624   -119.6 9.609e+03 4.152e-10
 65.90756   -119.4 9.531e+03 4.014e-10
 65.94426   -119.2 9.406e+03 3.634e-10
 65.96492   -120.0 9.310e+03 3.426e-10
 65.99019   -119.8 9.192e+03 3.168e-10
 66.03151   -119.2 9.144e+03 3.081e-10
 66.06970   -118.4 9.108e+03 3.021e-10
 66.09036   -118.9 8.898e+03 2.937e-10
 66.11415   -117.5 8.766e+03 2.744e-10
 66.13726   -115.9 8.608e+03 2.379e-10
 66.15792   -115.7 8.731e+03 2.787e-10
 66.19513   -114.1 8.462e+03 2.152e-10
 66.21579   -114.4 8.139e+03 1.565e-10
 66.23810   -112.9 7.962e+03 1.259e-10
 66.27942   -111.5 7.828e+03 1.063e-10
 66.32057   -110.2 7.780e+03 9.848e-11
 66.36188   -110.1 7.810e+03 1.021e-10
 66.40338   -109.5 8.018e+03 1.319e-10
 66.44470   -108.9 8.319e+03 1.910e-10
 66.46666   -108.3 8.681e+03 2.740e-10
 66.48605   -109.6 8.595e+03 2.714e-10
 66.50541   -108.9 8.214e+03 1.807e-10
 66.52733   -108.4 8.470e+03 2.455e-10
 66.56865   -108.1 8.726e+03 3.035e-10
 66.59209   -108.1 8.936e+03 3.481e-10
 66.61275   -109.9 8.835e+03 3.306e-10
 66.65129   -110.3 9.048e+03 3.811e-10
 66.69261   -110.8 9.150e+03 4.096e-10
 66.71753   -111.5 9.145e+03 4.242e-10
 66.73819   -112.9 8.889e+03 3.702e-10
 66.77525   -113.6 8.629e+03 3.109e-10
 66.81656   -114.5 8.344e+03 2.550e-10
 66.84296   -115.4 8.091e+03 2.164e-10
 66.85864   -115.9 7.804e+03 1.722e-10
 66.87356   -114.6 7.633e+03 1.400e-10
 66.89920   -115.2 7.548e+03 1.308e-10
 66.94052   -115.7 7.545e+03 1.299e-10
 66.96839   -117.3 7.739e+03 1.388e-10
 66.98905   -120.2 7.942e+03 1.406e-10
 67.02316   -126.1 1.024e+04 3.476e-10
 67.06448   -130.7 1.197e+04 1.123e-09
 67.09373   -132.8 1.283e+04 2.278e-09
 67.10396   -133.5 1.329e+04 2.881e-09
 67.11593   -134.0 1.348e+04 3.118e-09
 67.13659   -134.4 1.344e+04 3.042e-09
 67.15635   -135.0 1.298e+04 2.310e-09
 67.16668   -135.9 1.298e+04 2.245e-09
 67.17791   -137.5 1.206e+04 1.469e-09
 67.19857   -139.4 1.111e+04 1.020e-09
 67.21907   -140.8 1.048e+04 8.177e-10
 67.22940   -141.2 1.042e+04 8.234e-10
 67.23119   -141.6 1.023e+04 7.625e-10
 67.24152   -140.9 1.046e+04 8.788e-10
 67.26054   -141.1 1.035e+04 8.467e-10
 67.28120   -141.1 1.024e+04 8.114e-10
 67.29211   -140.8 1.009e+04 7.515e-10
 67.30244   -140.8 1.004e+04 7.492e-10
 67.32252   -140.2 9.862e+03 6.706e-10
 67.34318   -139.4 9.630e+03 5.613e-10
 67.35483   -138.7 9.432e+03 4.692e-10
 67.36516   -138.5 9.430e+03 4.701e-10
 67.39493   -138.3 9.315e+03 4.061e-10
 67.43634   -138.0 9.014e+03 3.101e-10
 67.47013   -137.5 8.745e+03 2.433e-10
 67.49079   -136.9 8.701e+03 2.303e-10
 67.51898   -136.3 8.574e+03 2.001e-10
 67.56030   -135.5 8.533e+03 1.913e-10
 67.58921   -134.5 8.520e+03 1.856e-10
 67.60381   -133.2 8.567e+03 1.903e-10
 67.61622   -132.9 8.675e+03 2.031e-10
 67.64294   -132.4 8.975e+03 2.454e-10
 67.68426   -131.7 9.215e+03 2.892e-10
 67.72100   -131.0 9.343e+03 3.091e-10
 67.74166   -131.3 9.717e+03 4.176e-10
 67.76689   -130.7 9.719e+03 4.150e-10
 67.80821   -129.9 9.652e+03 3.854e-10
 67.84643   -129.0 9.607e+03 3.680e-10
 67.86709   -129.5 9.634e+03 3.776e-10
 67.89085   -128.3 9.587e+03 3.652e-10
 67.93217   -127.0 9.552e+03 3.525e-10
 67.95736   -125.5 9.493e+03 3.338e-10
 67.97640   -124.7 9.729e+03 3.864e-10
 67.99253   -124.5 9.438e+03 2.917e-10
 68.01480   -122.7 9.369e+03 2.691e-10
 68.05612   -120.8 9.283e+03 2.394e-10
 68.09730   -118.8 9.187e+03 2.027e-10
 68.13862   -116.2 9.039e+03 1.338e-10
 68.18008   -114.0 9.038e+03 1.127e-10
 68.22140   -111.9 9.080e+03 1.006e-10
 68.24339   -109.8 9.115e+03 9.736e-11
 68.26405   -109.2 9.033e+03 8.558e-11
 68.30404   -107.2 9.118e+03 8.656e-11
 68.32551   -105.4 9.183e+03 9.915e-11
 68.34617   -104.4 9.097e+03 8.742e-11
 68.36883   -102.6 9.119e+03 9.790e-11
 68.38949   -101.9 9.004e+03 8.533e-11
 68.42799    -99.9 9.014e+03 9.426e-11
 68.46931    -98.0 9.025e+03 1.001e-10
 68.49426    -96.0 9.030e+03 1.029e-10
 68.51492    -95.2 8.915e+03 8.476e-11
 68.55195    -93.3 8.931e+03 8.526e-11
 68.59327    -91.5 8.969e+03 9.208e-11
 68.61969    -89.8 9.039e+03 1.150e-10
 68.64035    -89.2 8.995e+03 9.884e-11
 68.67300    -87.6 9.094e+03 1.402e-10
 68.69366    -86.6 9.074e+03 1.264e-10
 68.71722    -84.9 9.254e+03 1.842e-10
 68.74513    -83.1 9.489e+03 2.500e-10
 68.76579    -83.0 9.594e+03 2.806e-10
 68.79986    -81.5 9.890e+03 3.869e-10
 68.84118    -80.4 1.016e+04 4.636e-10
 68.87056    -80.1 1.042e+04 5.375e-10
 68.89122    -80.1 1.032e+04 5.300e-10
 68.92381    -79.9 1.047e+04 5.811e-10
 68.96513    -79.9 1.095e+04 7.636e-10
 68.99590    -79.5 1.095e+04 8.057e-10
 69.00613    -79.3 1.075e+04 7.270e-10
 69.01659    -79.4 1.089e+04 7.925e-10
 69.03725    -79.2 1.119e+04 9.783e-10
 69.05129    -79.0 1.142e+04 1.139e-09
 69.06172    -79.1 1.098e+04 8.412e-10
 69.06895    -78.7 1.133e+04 1.039e-09
 69.07918    -78.4 1.097e+04 8.565e-10
 69.09922    -78.3 1.103e+04 8.824e-10
 69.11988    -78.0 1.106e+04 9.053e-10
 69.13156    -77.9 1.106e+04 9.132e-10
 69.14199    -77.6 1.072e+04 7.473e-10
 69.16130    -77.2 1.079e+04 7.931e-10
 69.18186    -77.0 1.072e+04 7.730e-10
 69.19428    -76.7 1.059e+04 7.482e-10
 69.20461    -76.2 1.054e+04 6.896e-10
 69.22318    -75.8 1.044e+04 6.631e-10
 69.23537    -75.4 1.023e+04 6.273e-10
 69.24570    -75.4 1.020e+04 5.685e-10
 69.25700    -74.8 1.006e+04 5.506e-10
 69.26733    -74.7 1.010e+04 5.319e-10
 69.28516    -74.2 9.999e+03 5.265e-10
 69.30582    -73.8 9.977e+03 5.159e-10
 69.33690    -73.5 1.001e+04 5.200e-10
 69.37230    -72.6 9.919e+03 4.918e-10
 69.39296    -72.6 1.021e+04 6.091e-10
 69.40931    -71.2 1.002e+04 5.481e-10
 69.42997    -70.6 1.022e+04 6.217e-10
 69.46096    -69.4 1.018e+04 5.757e-10
 69.49773    -68.6 1.012e+04 5.327e-10
 69.51839    -69.3 1.051e+04 6.726e-10
 69.54359    -68.7 1.067e+04 6.964e-10
 69.58491    -68.3 1.081e+04 7.664e-10
 69.61580    -67.9 1.105e+04 9.584e-10
 69.63330    -67.7 1.111e+04 1.040e-09
 69.64363    -68.2 1.124e+04 1.089e-09
 69.65703    -67.6 1.164e+04 1.299e-09
 69.67768    -67.6 1.203e+04 1.452e-09
 69.69602    -67.8 1.275e+04 1.777e-09
 69.70635    -69.1 1.317e+04 1.954e-09
 69.71900    -70.0 1.369e+04 2.434e-09
 69.73966    -70.4 1.417e+04 3.159e-09
 69.75873    -70.6 1.456e+04 3.969e-09
 69.76906    -71.4 1.454e+04 4.084e-09
 69.77726    -71.1 1.483e+04 4.901e-09
 69.78759    -72.0 1.467e+04 4.833e-09
 69.80164    -71.6 1.481e+04 4.987e-09
 69.82145    -71.1 1.477e+04 4.741e-09
 69.83178    -71.4 1.404e+04 3.314e-09
 69.84296    -71.0 1.376e+04 2.766e-09
 69.86362    -70.7 1.327e+04 2.143e-09
 69.88417    -70.3 1.274e+04 1.573e-09
 69.89450    -71.2 1.185e+04 9.805e-10
 69.90494    -71.0 1.136e+04 6.892e-10
 69.92560    -71.2 1.091e+04 4.653e-10
 69.94626    -71.8 1.044e+04 3.091e-10
 69.95722    -72.7 1.008e+04 2.437e-10
 69.96197    -74.2 9.642e+03 2.165e-10
 69.97167    -75.3 9.553e+03 2.082e-10
 69.98757    -75.5 9.648e+03 2.316e-10
 70.00823    -75.9 9.714e+03 2.682e-10
 70.01993    -75.8 9.934e+03 3.552e-10
 70.03026    -75.8 9.965e+03 3.769e-10
 70.04955    -76.0 9.989e+03 4.087e-10
 70.07021    -75.7 1.019e+04 5.508e-10
 70.08265    -75.6 1.035e+04 6.185e-10
 70.09298    -75.5 1.025e+04 5.492e-10
 70.11153    -75.4 1.038e+04 5.763e-10
 70.13219    -75.7 1.045e+04 5.807e-10
 70.14537    -76.2 1.052e+04 5.841e-10
 70.15570    -75.9 1.028e+04 4.536e-10
 70.17351    -76.4 1.035e+04 4.892e-10
 70.19417    -76.6 1.042e+04 5.514e-10
 70.20808    -76.6 1.050e+04 6.130e-10
 70.21841    -76.1 1.030e+04 5.305e-10
 70.23549    -75.8 1.037e+04 5.933e-10
 70.25615    -75.2 1.043e+04 6.305e-10
 70.27080    -74.6 1.045e+04 6.444e-10
 70.28113    -73.8 1.025e+04 5.679e-10
 70.29746    -72.9 1.020e+04 5.647e-10
 70.31812    -71.8 1.015e+04 5.128e-10
 70.32949    -71.2 1.011e+04 4.615e-10
 70.33456    -70.9 1.018e+04 4.649e-10
 70.34385    -70.3 1.016e+04 4.514e-10
 70.36987    -70.0 1.012e+04 4.134e-10
 70.39643    -68.7 9.894e+03 3.724e-10
 70.41709    -67.3 9.952e+03 3.652e-10
 70.45260    -65.5 9.801e+03 3.413e-10
 70.49310    -63.6 9.754e+03 3.182e-10
 70.51376    -64.2 9.828e+03 2.982e-10
 70.52177    -61.9 9.865e+03 3.209e-10
 70.53200    -61.1 9.839e+03 3.249e-10
 70.54538    -60.9 9.815e+03 3.242e-10
 70.56603    -59.9 1.001e+04 3.446e-10
 70.58438    -59.7 1.030e+04 3.939e-10
 70.59471    -59.3 1.054e+04 4.156e-10
 70.60735    -60.5 1.127e+04 6.226e-10
 70.62801    -63.4 1.262e+04 1.293e-09
 70.64710    -66.5 1.469e+04 3.194e-09
 70.65743    -65.5 1.438e+04 3.128e-09
 70.66933    -67.2 1.668e+04 7.067e-09
 70.68731    -68.0 1.837e+04 1.331e-08
 70.69764    -68.3 1.790e+04 1.086e-08
 70.70982    -69.4 1.814e+04 1.327e-08
 70.72015    -69.3 1.803e+04 1.162e-08
 70.73131    -71.0 1.732e+04 1.157e-08
 70.75197    -71.7 1.647e+04 9.152e-09
 70.77254    -72.5 1.569e+04 5.747e-09
 70.79319    -74.8 1.384e+04 2.965e-09
 70.81395    -76.8 1.292e+04 2.468e-09
 70.83461    -77.0 1.277e+04 2.409e-09
 70.84558    -76.9 1.276e+04 2.630e-09
 70.85591    -76.4 1.239e+04 2.206e-09
 70.87139    -75.7 1.254e+04 2.486e-09
 70.88172    -76.0 1.222e+04 2.035e-09
 70.89658    -75.0 1.241e+04 2.326e-09
 70.90830    -74.2 1.257e+04 2.512e-09
 70.91863    -74.2 1.221e+04 2.086e-09
 70.93790    -73.5 1.230e+04 2.177e-09
 70.95856    -73.0 1.228e+04 2.075e-09
 70.97102    -72.5 1.204e+04 1.749e-09
 70.98135    -72.5 1.179e+04 1.628e-09
 70.99988    -72.2 1.154e+04 1.394e-09
 71.02350    -72.4 1.119e+04 1.155e-09
 71.04426    -71.8 1.090e+04 1.026e-09
 71.07238    -71.0 1.031e+04 7.555e-10
 71.11370    -69.7 9.675e+03 5.281e-10
 71.14903    -68.4 9.210e+03 3.873e-10
 71.16969    -68.0 9.028e+03 3.315e-10
 71.19634    -66.7 8.631e+03 2.443e-10
 71.22941    -65.2 8.395e+03 1.988e-10
 71.25007    -66.0 8.523e+03 2.178e-10
 71.27447    -64.5 8.522e+03 2.138e-10
 71.29513    -64.1 8.383e+03 1.915e-10
 71.32030    -62.6 8.509e+03 2.085e-10
 71.36161    -61.0 8.797e+03 2.621e-10
 71.39990    -59.5 9.075e+03 3.334e-10
 71.42056    -58.9 8.904e+03 2.931e-10
 71.42372    -57.3 9.244e+03 3.865e-10
 71.43395    -57.5 9.266e+03 3.878e-10
 71.45439    -57.6 9.394e+03 4.334e-10
 71.47275    -56.4 9.925e+03 6.359e-10
 71.48308    -56.0 9.700e+03 5.380e-10
 71.49570    -55.3 1.001e+04 6.526e-10
 71.51636    -54.2 1.039e+04 8.156e-10
 71.53547    -53.8 1.078e+04 9.778e-10
 71.54580    -53.4 1.051e+04 8.563e-10
 71.55768    -56.5 1.410e+04 1.327e-09
 71.57834    -67.7 2.089e+04 4.996e-09
 71.59379    -74.4 2.240e+04 1.734e-08
 71.60243    -75.7 2.144e+04 3.324e-08
 71.60678    -76.5 2.113e+04 4.584e-08
 71.60842    -77.1 2.133e+04 4.796e-08
 71.61440    -76.2 2.069e+04 6.933e-08
 71.62473    -74.9 2.043e+04 7.413e-08
 71.63461    -72.9 1.986e+04 6.833e-08
 71.63978    -73.1 1.986e+04 6.939e-08
 71.64539    -70.9 1.984e+04 4.735e-08
 71.65572    -69.8 2.070e+04 2.443e-08
 71.66597    -70.9 2.166e+04 1.016e-08
 71.67113    -70.6 2.148e+04 1.022e-08
 71.68159    -78.8 1.948e+04 3.335e-09
 71.70230    -89.4 1.273e+04 8.490e-10
 71.72296    -91.2 1.100e+04 6.220e-10
 71.73395    -91.0 1.095e+04 6.216e-10
 71.74428    -89.9 1.072e+04 5.497e-10
 71.76428    -89.6 1.090e+04 5.828e-10
 71.78144    -89.5 1.140e+04 7.120e-10
 71.79177    -89.6 1.151e+04 7.653e-10
 71.79667    -89.7 1.208e+04 1.067e-09
 71.80700    -88.1 1.166e+04 8.026e-10
 71.82625    -88.3 1.224e+04 1.116e-09
 71.84691    -88.3 1.278e+04 1.569e-09
 71.85938    -88.0 1.316e+04 2.085e-09
 71.86971    -86.8 1.289e+04 1.618e-09
 71.88823    -86.5 1.323e+04 2.082e-09
 71.90889    -85.9 1.336e+04 2.360e-09
 71.92210    -85.5 1.341e+04 2.311e-09
 71.93243    -84.6 1.347e+04 2.367e-09
 71.95021    -84.3 1.357e+04 2.438e-09
 71.96552    -83.9 1.344e+04 2.312e-09
 71.97585    -83.4 1.323e+04 2.087e-09
 71.98482    -82.9 1.295e+04 1.640e-09
 71.99515    -81.8 1.340e+04 2.164e-09
 72.02261    -81.9 1.266e+04 1.211e-09
 72.04773    -82.5 1.169e+04 5.953e-10
 72.05796    -79.8 1.302e+04 1.329e-09
 72.07416    -80.2 1.248e+04 8.528e-10
 72.10525    -80.8 1.179e+04 5.813e-10
 72.14667    -83.0 1.065e+04 4.241e-10
 72.17316    -83.6 1.064e+04 4.496e-10
 72.19382    -82.3 1.065e+04 4.420e-10
 72.22930    -82.7 1.055e+04 4.379e-10
 72.27062    -82.6 1.033e+04 3.866e-10
 72.29860    -82.3 9.978e+03 2.899e-10
 72.31926    -81.6 1.002e+04 2.837e-10
 72.33386    -81.2 9.688e+03 2.075e-10
 72.35452    -80.7 9.613e+03 2.133e-10
 72.39458    -80.0 9.434e+03 1.605e-10
 72.42403    -79.4 9.344e+03 1.233e-10
 72.44469    -78.9 9.378e+03 1.465e-10
 72.47722    -78.3 9.342e+03 1.310e-10
 72.51854    -77.5 9.315e+03 1.255e-10
 72.54947    -76.4 9.298e+03 1.238e-10
 72.57012    -75.9 9.305e+03 1.365e-10
 72.60117    -74.6 9.274e+03 1.279e-10
 72.64249    -73.1 9.248e+03 1.184e-10
 72.67490    -71.4 9.261e+03 1.115e-10
 72.69311    -71.4 9.277e+03 1.114e-10
 72.70202    -72.0 9.374e+03 1.218e-10
 72.72513    -72.2 9.603e+03 1.251e-10
 72.76645    -73.2 1.032e+04 2.070e-10
 72.80033    -74.0 1.102e+04 4.786e-10
 72.82099    -74.6 1.114e+04 6.307e-10
 72.84908    -74.5 1.166e+04 8.959e-10
 72.89040    -74.7 1.199e+04 1.001e-09
 72.92577    -75.9 1.204e+04 9.247e-10
 72.94643    -77.1 1.153e+04 6.786e-10
 72.97304    -78.3 1.130e+04 5.860e-10
 73.01436    -78.7 1.113e+04 5.175e-10
 73.04951    -78.9 1.109e+04 4.822e-10
 73.06569    -77.8 1.091e+04 4.370e-10
 73.07186    -77.9 1.104e+04 5.044e-10
 73.09700    -77.6 1.104e+04 4.416e-10
 73.13831    -77.5 1.108e+04 4.119e-10
 73.17664    -77.7 1.117e+04 4.315e-10
 73.19729    -77.1 1.126e+04 4.567e-10
 73.22095    -77.6 1.124e+04 4.995e-10
 73.26227    -77.9 1.113e+04 5.476e-10
 73.30207    -78.1 1.095e+04 5.607e-10
 73.32273    -77.9 1.088e+04 5.519e-10
 73.34491    -77.9 1.060e+04 5.198e-10
 73.37502    -77.3 1.055e+04 5.065e-10
 73.38525    -77.2 1.039e+04 4.721e-10
 73.39636    -77.0 1.033e+04 4.618e-10
 73.41756    -76.6 1.025e+04 4.307e-10
 73.43828    -75.2 1.017e+04 4.291e-10
 73.46882    -73.8 9.827e+03 3.565e-10
 73.51018    -72.7 9.817e+03 3.459e-10
 73.55150    -72.1 1.007e+04 3.554e-10
 73.57360    -74.1 1.183e+04 5.689e-10
 73.59426    -73.3 1.185e+04 6.377e-10
 73.62371    -75.5 1.271e+04 1.077e-09
 73.63612    -76.7 1.348e+04 2.151e-09
 73.64645    -76.3 1.348e+04 2.162e-09
 73.66493    -76.8 1.429e+04 3.925e-09
 73.68559    -77.0 1.543e+04 5.997e-09
 73.69883    -77.7 1.677e+04 7.199e-09
 73.70916    -77.7 1.677e+04 7.327e-09
 73.72691    -80.7 1.759e+04 7.447e-09
 73.74757    -85.7 1.818e+04 5.894e-09
 73.76155    -91.5 1.605e+04 3.772e-09
 73.77188    -90.8 1.623e+04 3.843e-09
 73.78562    -95.2 1.364e+04 2.453e-09
 73.79595    -91.9 1.577e+04 3.653e-09
 73.80955    -96.0 1.329e+04 2.159e-09
 73.82427    -98.9 1.218e+04 1.321e-09
 73.83460    -99.2 1.188e+04 1.180e-09
 73.85087   -102.0 1.131e+04 7.238e-10
 73.87153   -104.6 1.074e+04 4.809e-10
 73.88699   -106.6 1.025e+04 3.580e-10
 73.89732   -107.1 1.018e+04 3.347e-10
 73.91284   -108.3 9.944e+03 2.956e-10
 73.93350   -108.9 9.899e+03 2.907e-10
 73.94980   -109.7 9.873e+03 2.954e-10
 73.97056   -110.9 9.736e+03 2.760e-10
 74.00601   -112.0 9.539e+03 2.669e-10
 74.04732   -112.6 9.439e+03 2.649e-10
 74.07533   -112.6 9.388e+03 2.784e-10
 74.09599   -113.4 9.124e+03 2.329e-10
 74.12996   -113.1 9.105e+03 2.317e-10
 74.15397   -112.6 9.075e+03 2.332e-10
 74.17462   -112.3 9.061e+03 2.230e-10
 74.20077   -111.8 9.040e+03 2.221e-10
 74.22143   -112.5 8.809e+03 1.855e-10
 74.25392   -111.8 8.840e+03 1.988e-10
 74.29524   -111.0 8.868e+03 2.106e-10
 74.32620   -110.0 8.869e+03 2.141e-10
 74.34686   -110.0 8.800e+03 2.038e-10
 74.37787   -108.7 8.784e+03 2.038e-10
 74.41919   -107.1 8.702e+03 1.899e-10
 74.45163   -105.4 8.572e+03 1.619e-10
 74.47229   -105.1 8.642e+03 1.655e-10
 74.50146   -103.3 8.493e+03 1.356e-10
 74.52212   -103.5 9.060e+03 2.054e-10
 74.54315   -101.7 8.825e+03 1.581e-10
 74.57707    -99.7 8.433e+03 1.081e-10
 74.59773    -99.9 9.266e+03 2.246e-10
 74.62579    -97.6 8.904e+03 1.628e-10
 74.66710    -95.2 8.664e+03 1.199e-10
 74.70250    -92.9 8.555e+03 9.418e-11
 74.72316    -92.7 9.203e+03 2.115e-10
 74.74974    -90.5 9.090e+03 1.787e-10
 74.79106    -88.1 9.013e+03 1.628e-10
 74.82794    -85.8 8.985e+03 1.559e-10
 74.84859    -85.7 9.642e+03 3.239e-10
 74.86961    -83.6 9.681e+03 3.265e-10
 74.89027    -83.3 9.642e+03 3.174e-10
 74.91502    -81.2 9.613e+03 2.979e-10
 74.95337    -79.2 9.617e+03 2.902e-10
 74.97403    -79.3 1.014e+04 4.517e-10
 74.99765    -77.3 1.005e+04 4.037e-10
 75.03897    -75.5 9.990e+03 3.666e-10
 75.07880    -74.2 1.001e+04 3.548e-10
 75.09946    -75.0 1.007e+04 3.619e-10
 75.12161    -74.7 1.007e+04 3.533e-10
 75.16293    -75.5 1.073e+04 5.441e-10
 75.20424    -76.4 1.188e+04 1.202e-09
 75.23513    -76.2 1.219e+04 1.614e-09
 75.24790    -76.6 1.245e+04 1.947e-09
 75.25823    -76.5 1.285e+04 2.391e-09
 75.27636    -76.1 1.309e+04 2.961e-09
 75.28742    -75.8 1.307e+04 2.988e-09
 75.29775    -75.9 1.239e+04 2.137e-09
 75.31768    -75.5 1.217e+04 1.936e-09
 75.33834    -75.4 1.179e+04 1.456e-09
 75.35014    -75.9 1.146e+04 1.070e-09
 75.36047    -75.7 1.105e+04 9.467e-10
 75.37965    -75.8 1.086e+04 7.744e-10
 75.40031    -75.8 1.068e+04 6.712e-10
 75.41285    -75.6 1.057e+04 6.187e-10
 75.42318    -74.6 1.029e+04 5.254e-10
 75.43197    -74.1 1.023e+04 4.967e-10
 75.44230    -74.4 1.033e+04 5.411e-10
 75.46229    -73.8 1.027e+04 5.003e-10
 75.47557    -73.1 1.029e+04 4.658e-10
 75.49633    -72.4 1.017e+04 4.130e-10
 75.53480    -71.4 1.012e+04 3.646e-10
 75.57611    -70.2 1.001e+04 3.056e-10
 75.60120    -69.2 9.946e+03 2.668e-10
 75.61034    -68.1 9.832e+03 2.578e-10
 75.62657    -68.5 9.778e+03 2.332e-10
 75.65875    -67.4 9.809e+03 2.312e-10
 75.70007    -66.6 1.009e+04 2.760e-10
 75.72663    -65.5 1.036e+04 3.686e-10
 75.74729    -64.8 1.013e+04 3.096e-10
 75.78271    -63.5 1.036e+04 3.871e-10
 75.82403    -62.1 1.048e+04 4.086e-10
 75.85207    -60.7 1.058e+04 3.727e-10
 75.87273    -60.0 1.028e+04 3.265e-10
 75.90666    -58.6 1.035e+04 2.876e-10
 75.94798    -57.2 1.039e+04 2.511e-10
 75.97407    -55.8 1.041e+04 2.447e-10
 75.98293    -55.7 1.045e+04 2.285e-10
 75.99816    -54.7 1.038e+04 2.242e-10
 76.03062    -53.2 1.048e+04 2.216e-10
 76.07194    -52.0 1.078e+04 2.485e-10
 76.10293    -51.0 1.099e+04 3.380e-10
 76.12359    -50.3 1.095e+04 3.334e-10
 76.15457    -49.1 1.131e+04 5.076e-10
 76.19589    -48.1 1.178e+04 8.040e-10
 76.22837    -47.1 1.239e+04 1.280e-09
 76.24903    -46.5 1.247e+04 1.302e-09
 76.26810    -45.8 1.320e+04 2.029e-09
 76.28866    -45.8 1.346e+04 2.424e-09
 76.30122    -44.9 1.377e+04 3.006e-09
 76.31155    -45.1 1.388e+04 3.388e-09
 76.32998    -44.1 1.393e+04 3.646e-09
 76.34202    -42.7 1.401e+04 3.566e-09
 76.35235    -42.6 1.426e+04 3.984e-09
 76.36394    -41.7 1.404e+04 2.578e-09
 76.37427    -41.3 1.403e+04 3.542e-09
 76.39196    -40.8 1.385e+04 2.265e-09
 76.41262    -40.7 1.384e+04 1.435e-09
 76.42665    -41.3 1.367e+04 9.901e-10
 76.43698    -41.1 1.416e+04 1.412e-09
 76.45394    -41.3 1.413e+04 1.122e-09
 76.47914    -42.8 1.296e+04 7.291e-10
 76.49980    -40.8 1.458e+04 1.016e-09
 76.51577    -41.6 1.339e+04 8.985e-10
 76.52610    -42.9 1.293e+04 9.289e-10
 76.53658    -42.8 1.265e+04 1.013e-09
 76.56766    -41.8 1.278e+04 1.241e-09
 76.60467    -41.3 1.314e+04 1.694e-09
 76.62523    -41.7 1.333e+04 2.032e-09
 76.63987    -41.5 1.352e+04 2.306e-09
 76.66053    -41.3 1.385e+04 2.700e-09
 76.67752    -40.9 1.428e+04 3.225e-09
 76.68785    -40.7 1.390e+04 2.712e-09
 76.69984    -40.6 1.419e+04 2.918e-09
 76.71017    -41.0 1.378e+04 2.357e-09
 76.72251    -41.1 1.386e+04 2.228e-09
 76.74024    -41.2 1.384e+04 2.049e-09
 76.75057    -41.2 1.345e+04 1.675e-09
 76.77426    -42.2 1.294e+04 1.222e-09
 76.81567    -42.5 1.244e+04 9.475e-10
 76.85554    -42.4 1.185e+04 7.423e-10
 76.87620    -41.6 1.193e+04 7.799e-10
 76.89831    -41.2 1.167e+04 6.925e-10
 76.93963    -40.9 1.153e+04 6.131e-10
 76.98095    -40.4 1.146e+04 5.747e-10
 77.02227    -38.7 1.159e+04 6.909e-10
 77.05786    -37.5 1.141e+04 6.165e-10
 77.07852    -37.8 1.118e+04 4.977e-10
 77.10490    -36.3 1.100e+04 3.877e-10
 77.12707    -35.1 1.085e+04 2.976e-10
 77.14772    -34.8 1.103e+04 3.453e-10
 77.18754    -34.3 1.095e+04 3.102e-10
 77.22886    -34.2 1.122e+04 3.685e-10
 77.25250    -33.6 1.177e+04 5.386e-10
 77.27316    -35.5 1.252e+04 1.116e-09
 77.31150    -34.6 1.253e+04 1.272e-09
 77.35281    -33.9 1.226e+04 1.219e-09
 77.37793    -32.5 1.191e+04 1.034e-09
 77.39859    -34.1 1.174e+04 1.005e-09
 77.42601    -32.3 1.122e+04 6.760e-10
 77.44667    -32.4 1.100e+04 5.470e-10
 77.47677    -30.8 1.071e+04 3.568e-10
 77.50337    -29.6 1.055e+04 2.783e-10
 77.52403    -31.3 1.012e+04 2.163e-10
 77.55941    -29.9 1.014e+04 2.547e-10
 77.60073    -28.2 1.010e+04 3.494e-10
 77.62880    -25.9 1.019e+04 4.588e-10
 77.64946    -25.9 9.798e+03 3.106e-10
 77.68336    -23.7 9.800e+03 2.857e-10
 77.72468    -22.0 9.750e+03 2.329e-10
 77.75423    -20.7 9.632e+03 2.056e-10
 77.77489    -20.7 9.242e+03 1.313e-10
 77.79417    -18.8 9.227e+03 1.363e-10
 77.81483    -18.7 9.299e+03 1.773e-10
 77.84864    -16.7 9.313e+03 1.747e-10
 77.87967    -14.7 9.324e+03 1.659e-10
 77.90033    -14.4 9.159e+03 1.387e-10
 77.93128    -12.4 9.189e+03 1.406e-10
 77.97259    -10.4 9.201e+03 1.389e-10
 78.00510     -8.5 9.253e+03 1.375e-10
 78.02576     -8.1 9.182e+03 1.318e-10
 78.05523     -6.4 9.264e+03 1.360e-10
 78.09655     -5.2 9.540e+03 1.674e-10
 78.13054     -4.0 9.963e+03 2.619e-10
 78.15120     -3.5 9.638e+03 1.977e-10
 78.16232     -2.5 1.008e+04 3.232e-10
 78.18298     -2.3 9.713e+03 2.266e-10
 78.22051     -1.6 1.035e+04 4.146e-10
 78.25597     -1.3 1.122e+04 8.191e-10
 78.27663     -0.1 1.058e+04 5.168e-10
 78.30314      0.1 1.149e+04 1.032e-09
 78.34446      0.7 1.232e+04 1.674e-09
 78.38140      1.1 1.243e+04 1.688e-09
 78.40206      2.3 1.188e+04 1.317e-09
 78.42710      3.2 1.158e+04 1.082e-09
 78.46842      3.7 1.108e+04 7.486e-10
 78.50684      4.2 1.054e+04 5.162e-10
 78.52750      5.2 1.043e+04 4.748e-10
 78.55105      6.7 9.996e+03 3.609e-10
 78.59237      7.6 9.894e+03 3.642e-10
 78.63227      8.8 9.911e+03 4.040e-10
 78.65293      9.6 9.878e+03 3.948e-10
 78.67501     10.7 9.831e+03 3.710e-10
 78.71633     11.0 9.875e+03 3.434e-10
 78.75765     10.3 9.886e+03 3.591e-10
 78.79897     10.9 9.610e+03 3.696e-10
 78.84029     11.1 9.542e+03 3.506e-10
 78.87118     11.1 9.593e+03 3.460e-10
 78.88810     10.9 9.603e+03 3.483e-10
 78.89843     11.4 9.690e+03 3.926e-10
 78.90360     10.9 9.754e+03 4.283e-10
 78.91393     11.4 9.584e+03 3.909e-10
 78.93306     11.4 9.588e+03 4.143e-10
 78.95372     11.9 9.590e+03 4.689e-10
 78.96632     12.2 9.608e+03 4.862e-10
 78.97665     12.5 9.546e+03 4.573e-10
 78.99503     13.5 9.553e+03 4.597e-10
 79.01569     13.6 9.571e+03 4.603e-10
 79.02914     15.0 9.487e+03 4.227e-10
 79.04989     16.2 9.122e+03 3.460e-10
 79.08820     17.8 8.823e+03 2.544e-10
 79.12952     19.0 8.604e+03 1.920e-10
 79.15467     20.5 8.524e+03 1.802e-10
 79.17533     21.6 8.346e+03 1.497e-10
 79.21215     23.3 8.376e+03 1.558e-10
 79.24611     25.0 8.469e+03 1.746e-10
 79.26677     25.7 8.423e+03 1.663e-10
 79.28010     27.5 8.578e+03 1.967e-10
 79.30076     28.3 8.431e+03 1.828e-10
 79.33611     29.9 8.615e+03 2.156e-10
 79.37743     31.3 8.805e+03 2.549e-10
 79.40554     32.6 8.988e+03 3.187e-10
 79.42619     33.3 8.795e+03 2.832e-10
 79.46006     34.7 8.879e+03 3.272e-10
 79.50138     36.2 8.924e+03 3.482e-10
 79.53097     37.7 8.894e+03 3.353e-10
 79.55163     38.2 8.462e+03 2.193e-10
 79.58402     39.3 8.399e+03 1.957e-10
 79.61427     40.4 8.385e+03 1.851e-10
 79.63493     41.1 8.543e+03 2.185e-10
 79.65640     42.2 8.525e+03 2.074e-10
 79.67706     42.6 8.203e+03 1.492e-10
 79.70798     43.9 8.270e+03 1.600e-10
 79.74930     45.2 8.364e+03 1.757e-10
 79.78184     46.5 8.458e+03 1.856e-10
 79.80250     47.0 8.422e+03 1.874e-10
 79.83193     48.2 8.579e+03 2.115e-10
 79.87325     49.2 8.742e+03 2.400e-10
 79.90727     50.2 8.953e+03 2.874e-10
 79.92793     50.4 9.142e+03 3.490e-10
 79.95589     51.4 9.457e+03 4.382e-10
 79.98242     52.2 9.651e+03 4.682e-10
 80.00308     52.8 9.594e+03 4.397e-10
 80.03271     53.5 9.600e+03 4.309e-10
 80.05336     53.3 9.543e+03 4.218e-10
 80.07984     54.0 9.397e+03 3.521e-10
 80.12116     54.3 9.175e+03 2.607e-10
 80.15814     54.3 9.108e+03 2.227e-10
 80.17880     53.7 9.135e+03 2.458e-10
 80.20380     53.3 9.285e+03 2.672e-10
 80.24512     52.9 9.471e+03 3.179e-10
 80.28357     52.6 9.571e+03 3.599e-10
 80.30423     51.7 9.597e+03 3.705e-10
 80.32776     51.3 9.475e+03 3.445e-10
 80.35057     50.6 9.150e+03 2.707e-10
 80.37123     51.3 9.455e+03 3.374e-10
 80.40901     50.5 8.982e+03 2.400e-10
 80.42967     49.2 8.832e+03 2.087e-10
 80.45171     48.6 8.454e+03 1.525e-10
 80.49303     48.3 8.189e+03 1.172e-10
 80.53435     48.4 8.047e+03 1.040e-10
 80.57567     48.3 8.146e+03 1.189e-10
 80.61699     48.7 8.308e+03 1.553e-10
 80.65830     49.4 8.736e+03 2.497e-10
 80.68053     50.2 9.250e+03 3.913e-10
 80.69963     49.2 9.387e+03 4.542e-10
 80.71872     49.1 9.143e+03 3.892e-10
 80.73051     49.2 9.440e+03 5.046e-10
 80.74306     49.3 9.677e+03 6.370e-10
 80.75339     48.8 9.579e+03 5.849e-10
 80.77174     48.7 9.857e+03 6.938e-10
 80.79240     48.2 1.022e+04 8.034e-10
 80.80577     46.9 1.073e+04 9.508e-10
 80.81610     45.0 1.064e+04 8.735e-10
 80.83371     42.8 1.108e+04 1.091e-09
 80.85437     40.8 1.132e+04 1.314e-09
 80.86849     38.8 1.154e+04 1.498e-09
 80.87882     37.5 1.112e+04 1.305e-09
 80.89227     34.2 1.162e+04 1.443e-09
 80.90260     34.6 1.069e+04 1.100e-09
 80.91635     30.2 1.141e+04 1.256e-09
 80.93121     25.4 1.191e+04 1.537e-09
 80.94154     25.0 1.154e+04 1.339e-09
 80.95767     21.8 1.125e+04 1.474e-09
 80.97833     20.4 1.080e+04 1.383e-09
 80.99392     20.2 1.027e+04 1.195e-09
 81.00425     20.5 1.015e+04 1.132e-09
 81.01965     20.4 9.701e+03 8.817e-10
 81.04031     19.8 9.231e+03 6.049e-10
 81.05674     18.0 8.460e+03 3.299e-10
 81.07222     19.0 8.563e+03 3.740e-10
 81.08678     19.0 8.657e+03 3.954e-10
 81.11271     18.1 8.019e+03 2.753e-10
 81.15413     17.4 7.374e+03 2.016e-10
 81.18227     17.7 7.256e+03 1.894e-10
 81.20293     18.6 7.182e+03 1.789e-10
 81.23677     19.2 7.156e+03 1.760e-10
 81.27808     20.0 7.213e+03 1.812e-10
 81.30770     20.6 7.484e+03 2.087e-10
 81.32836     20.9 7.454e+03 2.050e-10
 81.36072     20.5 8.085e+03 2.881e-10
 81.39161     19.7 8.616e+03 4.037e-10
 81.41217     18.9 9.051e+03 5.493e-10
 81.43283     18.0 9.669e+03 7.667e-10
 81.44327     16.1 1.069e+04 1.141e-09
 81.44461     16.0 1.081e+04 1.181e-09
 81.45483     16.3 1.090e+04 1.233e-09
 81.47415     13.8 1.171e+04 1.745e-09
 81.49481     11.9 1.218e+04 2.305e-09
 81.50599     10.7 1.246e+04 2.708e-09
 81.51632     10.3 1.247e+04 2.724e-09
 81.53613      9.6 1.240e+04 2.671e-09
 81.55679      8.9 1.226e+04 2.419e-09
 81.56871      7.3 1.219e+04 2.027e-09
 81.57904      7.3 1.216e+04 2.035e-09
 81.59811      5.1 1.201e+04 1.705e-09
 81.61825      2.5 1.187e+04 1.570e-09
 81.62858      2.6 1.215e+04 1.750e-09
 81.63142     -0.0 1.206e+04 1.599e-09
 81.64175      0.5 1.176e+04 1.403e-09
 81.66009     -0.3 1.169e+04 1.393e-09
 81.68075     -1.8 1.167e+04 1.414e-09
 81.69414     -2.0 1.163e+04 1.394e-09
 81.70457     -1.0 1.135e+04 1.256e-09
 81.73259     -1.4 1.105e+04 1.026e-09
 81.77391     -1.7 1.062e+04 7.651e-10
 81.80252     -1.6 1.021e+04 5.871e-10
 81.81739     -1.8 1.054e+04 7.607e-10
 81.83010      0.1 1.018e+04 6.215e-10
 81.85655      1.0 9.819e+03 4.435e-10
 81.89786      1.6 9.627e+03 3.157e-10
 81.93487      2.0 9.599e+03 2.741e-10
 81.95553      4.2 9.187e+03 2.091e-10
 81.98050      4.9 9.275e+03 1.975e-10
 82.02182      5.7 9.443e+03 2.294e-10
 82.06031      6.8 9.552e+03 2.545e-10
 82.08097      8.5 9.198e+03 1.706e-10
 82.10446      9.5 9.229e+03 1.543e-10
 82.14578      9.5 9.360e+03 1.513e-10
 82.17067      9.4 9.402e+03 1.717e-10
 82.18998      9.5 9.138e+03 1.369e-10
 82.20640     11.1 9.066e+03 1.241e-10
 82.22841     11.6 9.116e+03 1.389e-10
 82.26973     12.0 9.317e+03 1.494e-10
 82.31105     12.0 9.593e+03 1.713e-10
 82.35237     13.6 9.744e+03 2.064e-10
 82.39369     13.6 9.947e+03 2.459e-10
 82.43501     13.7 1.015e+04 2.922e-10
 82.45727     14.0 1.031e+04 3.267e-10
 82.47793     14.9 1.046e+04 4.039e-10
 82.51764     15.5 1.047e+04 3.853e-10
 82.53882     16.3 1.051e+04 3.051e-10
 82.55948     16.6 1.027e+04 2.201e-10
 82.58270     17.0 1.040e+04 1.801e-10
 82.60336     17.5 1.052e+04 1.671e-10
 82.64160     17.6 1.060e+04 1.789e-10
 82.68292     18.3 1.069e+04 2.339e-10
 82.70814     19.5 1.086e+04 3.252e-10
 82.72880     19.5 1.086e+04 3.572e-10
 82.76555     20.8 1.096e+04 4.646e-10
 82.80687     22.2 1.121e+04 6.177e-10
 82.83357     23.6 1.158e+04 7.656e-10
 82.85423     23.7 1.113e+04 5.309e-10
 82.88632     24.5 1.133e+04 5.641e-10
 82.90698     25.3 1.131e+04 5.830e-10
 82.93083     25.9 1.146e+04 6.151e-10
 82.95900     26.6 1.165e+04 7.218e-10
 82.97966     26.8 1.072e+04 3.969e-10
 83.01347     28.1 1.109e+04 5.357e-10
 83.04436     28.6 1.118e+04 5.876e-10
 83.06492     29.0 1.118e+04 6.259e-10
 83.08053     29.7 1.116e+04 6.519e-10
 83.08952     29.7 1.132e+04 7.714e-10
 83.09457     29.9 1.099e+04 5.622e-10
 83.10624     30.7 1.104e+04 6.039e-10
 83.12690     31.3 1.119e+04 6.364e-10
 83.14696     31.6 1.135e+04 6.630e-10
 83.15729     31.4 1.110e+04 4.642e-10
 83.16822     31.4 1.119e+04 4.895e-10
 83.18888     31.4 1.118e+04 5.165e-10
 83.20953     31.4 1.115e+04 5.570e-10
 83.22001     31.5 1.108e+04 5.871e-10
 83.23034     31.3 1.074e+04 4.242e-10
 83.25085     31.6 1.065e+04 4.299e-10
 83.26460     31.8 1.058e+04 4.229e-10
 83.27493     32.1 1.063e+04 4.794e-10
 83.28272     32.5 1.047e+04 4.126e-10
 83.29305     32.5 1.039e+04 3.737e-10
 83.31283     32.6 1.037e+04 3.546e-10
 83.33521     33.2 1.030e+04 3.082e-10
 83.35597     34.0 9.911e+03 2.412e-10
 83.38533     34.8 9.688e+03 1.745e-10
 83.42665     35.7 9.573e+03 1.475e-10
 83.46074     36.9 9.602e+03 1.495e-10
 83.48140     37.6 9.357e+03 1.117e-10
 83.50929     38.5 9.507e+03 1.255e-10
 83.55061     38.4 9.904e+03 1.861e-10
 83.58617     38.6 1.066e+04 3.911e-10
 83.60683     40.2 1.020e+04 2.966e-10
 83.62262     40.8 1.094e+04 5.929e-10
 83.64328     41.7 1.087e+04 5.650e-10
 83.65912     41.2 1.135e+04 7.663e-10
 83.66935     41.6 1.126e+04 7.706e-10
 83.68470     41.6 1.162e+04 9.645e-10
 83.70536     41.8 1.176e+04 1.178e-09
 83.72174     42.3 1.182e+04 1.238e-09
 83.73207     42.5 1.210e+04 1.455e-09
 83.74668     42.4 1.229e+04 1.480e-09
 83.76734     41.6 1.273e+04 1.546e-09
 83.78446     39.4 1.381e+04 1.754e-09
 83.79479     40.1 1.371e+04 2.380e-09
 83.80650     37.5 1.530e+04 2.760e-09
 83.81683     38.7 1.529e+04 3.746e-09
 83.82931     33.4 1.783e+04 4.713e-09
 83.84718     27.9 1.689e+04 4.236e-09
 83.85751     28.5 1.697e+04 4.058e-09
 83.87063     25.9 1.418e+04 2.691e-09
 83.89129     23.2 1.295e+04 1.771e-09
 83.90989     20.9 1.277e+04 1.034e-09
 83.92022     21.6 1.270e+04 1.012e-09
 83.93261     19.4 1.180e+04 6.145e-10
 83.95327     17.5 1.068e+04 3.843e-10
 83.97261     16.6 1.014e+04 2.919e-10
 83.98294     16.9 1.023e+04 2.935e-10
 83.99067     17.1 1.014e+04 2.411e-10
 84.00100     17.3 1.024e+04 2.775e-10
 84.01525     17.3 1.023e+04 2.707e-10
 84.04633     18.0 1.004e+04 2.683e-10
 84.08775     19.0 1.009e+04 2.569e-10
 84.12907     19.8 1.029e+04 3.141e-10
 84.17039     20.2 1.044e+04 3.795e-10
 84.21171     21.2 1.036e+04 4.535e-10
 84.23400     23.1 1.012e+04 3.992e-10
 84.25466     22.5 9.865e+03 2.625e-10
 84.29434     22.9 9.711e+03 2.067e-10
 84.33566     23.3 9.803e+03 1.999e-10
 84.35892     22.8 9.986e+03 2.562e-10
 84.36204     22.8 9.944e+03 2.633e-10
 84.38010     23.9 9.752e+03 2.764e-10
 84.41830     24.8 9.864e+03 3.550e-10
 84.45962     25.9 9.787e+03 3.646e-10
 84.48487     27.7 9.527e+03 3.165e-10
 84.50553     28.1 9.539e+03 3.131e-10
 84.54226     29.3 9.340e+03 2.594e-10
 84.58357     30.3 9.235e+03 2.305e-10
 84.61030     31.5 9.256e+03 2.365e-10
 84.63096     32.5 9.416e+03 2.943e-10
 84.66621     34.0 9.519e+03 3.061e-10
 84.70642     35.3 9.702e+03 3.349e-10
 84.72708     35.3 9.704e+03 3.300e-10
 84.73574     36.5 9.899e+03 3.942e-10
 84.75640     37.4 9.712e+03 3.030e-10
 84.79017     38.6 9.838e+03 3.375e-10
 84.83149     39.6 9.877e+03 3.789e-10
 84.86117     40.4 9.798e+03 4.025e-10
 84.88183     40.9 9.566e+03 2.903e-10
 84.91412     41.7 9.429e+03 3.061e-10
 84.95544     42.7 9.266e+03 2.943e-10
 84.98661     43.7 9.010e+03 2.512e-10
 85.00727     44.5 8.866e+03 1.981e-10
 85.03808     45.3 8.677e+03 1.772e-10
 85.07457     46.2 8.544e+03 1.494e-10
 85.09523     45.7 8.521e+03 1.524e-10
 85.11204     46.6 8.444e+03 1.234e-10
 85.13270     47.3 8.459e+03 1.411e-10
 85.16204     48.3 8.383e+03 1.265e-10
 85.20335     49.3 8.319e+03 1.085e-10
 85.23747     50.4 8.235e+03 9.264e-11
 85.25813     51.5 8.264e+03 1.129e-10
 85.28599     52.6 8.176e+03 9.113e-11
 85.32731     53.6 8.190e+03 7.887e-11
 85.36291     54.7 8.193e+03 7.999e-11
 85.38357     55.5 8.197e+03 7.400e-11
 85.40995     56.6 8.239e+03 7.893e-11
 85.44272     57.6 8.330e+03 9.553e-11
 85.46338     57.3 8.238e+03 8.470e-11
 85.48834     58.4 8.337e+03 1.135e-10
 85.50900     59.2 8.264e+03 1.026e-10
 85.53390     60.6 8.379e+03 1.342e-10
 85.57522     62.1 8.457e+03 1.481e-10
 85.61378     63.4 8.456e+03 1.429e-10
 85.63444     64.0 8.429e+03 1.113e-10
 85.65786     64.8 8.445e+03 9.528e-11
 85.69918     65.2 8.388e+03 8.480e-11
 85.73921     65.6 8.352e+03 8.569e-11
 85.75987     66.0 8.305e+03 8.348e-11
 85.78181     66.9 8.280e+03 9.336e-11
 85.81087     68.1 8.284e+03 9.957e-11
 85.83153     68.6 8.190e+03 8.630e-11
 85.86445     70.1 8.194e+03 8.592e-11
 85.90577     72.3 8.197e+03 6.784e-11
 85.94709     73.6 8.228e+03 6.027e-11
 85.98841     74.9 8.241e+03 6.025e-11
 86.01074     76.4 8.277e+03 6.400e-11
 86.03140     76.7 8.259e+03 6.023e-11
 86.07104     78.3 8.299e+03 7.217e-11
 86.11236     80.2 8.348e+03 8.354e-11
 86.13617     82.1 8.399e+03 9.061e-11
 86.15683     82.7 8.310e+03 8.146e-11
 86.17902     84.5 8.378e+03 7.954e-11
 86.19968     85.1 8.349e+03 8.658e-11
 86.23632     86.9 8.434e+03 8.752e-11
 86.26161     88.5 8.523e+03 8.592e-11
 86.28226     89.1 8.467e+03 7.448e-11
 86.31896     90.5 8.516e+03 7.467e-11
 86.36028     91.9 8.634e+03 7.832e-11
 86.38704     93.2 8.764e+03 9.067e-11
 86.40770     93.7 8.739e+03 8.293e-11
 86.44291     94.9 8.877e+03 1.059e-10
 86.48423     96.1 9.061e+03 1.395e-10
 86.51247     97.3 9.308e+03 1.898e-10
 86.53313     97.8 9.304e+03 1.906e-10
 86.54718     98.8 9.599e+03 2.579e-10
 86.56784     99.6 9.616e+03 2.599e-10
 86.60819    100.3 1.003e+04 3.741e-10
 86.63791    100.7 1.054e+04 5.554e-10
 86.65857    101.2 1.044e+04 5.216e-10
 86.69082    101.5 1.086e+04 6.966e-10
 86.73214    101.6 1.118e+04 7.988e-10
 86.76334    101.6 1.121e+04 7.929e-10
 86.78400    102.2 1.108e+04 7.183e-10
 86.81478    102.3 1.105e+04 6.880e-10
 86.85610    102.7 1.088e+04 5.725e-10
 86.88877    103.4 1.060e+04 4.081e-10
 86.90669    103.8 1.077e+04 5.236e-10
 86.91533    104.2 1.095e+04 5.661e-10
 86.93874    104.9 1.053e+04 3.725e-10
 86.98005    105.8 1.022e+04 2.545e-10
 87.01421    106.8 1.003e+04 1.958e-10
 87.03487    107.4 1.014e+04 2.039e-10
 87.06269    108.5 9.948e+03 1.661e-10
 87.10401    109.9 9.902e+03 1.644e-10
 87.13964    111.6 9.911e+03 1.671e-10
 87.16030    111.8 9.913e+03 1.425e-10
 87.18665    113.4 1.001e+04 1.663e-10
 87.22797    114.9 1.037e+04 2.311e-10
 87.26282    115.4 1.065e+04 3.307e-10
 87.27927    116.4 1.064e+04 3.117e-10
 87.28574    116.2 1.075e+04 3.336e-10
 87.30018    116.2 1.096e+04 4.939e-10
 87.32074    116.9 1.131e+04 7.688e-10
 87.33793    117.9 1.171e+04 1.159e-09
 87.34826    118.0 1.180e+04 1.139e-09
 87.36206    118.5 1.230e+04 1.290e-09
 87.38272    118.4 1.239e+04 1.278e-09
 87.40064    118.2 1.247e+04 1.188e-09
 87.41097    117.8 1.234e+04 1.027e-09
 87.42403    117.4 1.221e+04 8.454e-10
 87.44469    116.9 1.198e+04 6.760e-10
 87.45703    116.4 1.174e+04 5.516e-10
 87.46537    116.9 1.201e+04 6.219e-10
 87.47369    116.8 1.174e+04 5.177e-10
 87.48601    116.3 1.162e+04 4.300e-10
 87.50667    116.0 1.149e+04 3.922e-10
 87.52608    115.9 1.139e+04 3.819e-10
 87.53651    116.2 1.120e+04 2.734e-10
 87.55852    116.4 1.096e+04 2.236e-10
 87.59983    116.8 1.074e+04 1.872e-10
 87.63097    117.3 1.054e+04 1.631e-10
 87.65163    117.9 1.069e+04 1.930e-10
 87.66204    118.6 1.050e+04 1.672e-10
 87.68270    118.9 1.044e+04 1.323e-10
 87.72379    119.9 1.035e+04 1.426e-10
 87.76511    121.0 1.032e+04 1.636e-10
 87.78747    122.2 1.029e+04 1.898e-10
 87.80813    122.7 1.033e+04 1.997e-10
 87.84775    123.7 1.033e+04 2.199e-10
 87.88906    124.6 1.033e+04 2.205e-10
 87.91291    125.3 1.030e+04 2.149e-10
 87.93357    125.6 1.034e+04 2.200e-10
 87.97170    126.4 1.025e+04 2.081e-10
 87.99913    127.2 1.025e+04 2.117e-10
 88.01978    127.8 1.019e+04 2.033e-10
 88.03834    128.5 1.020e+04 2.094e-10
 88.05900    128.9 1.030e+04 2.210e-10
 88.09566    129.5 1.048e+04 2.627e-10
 88.13698    130.1 1.066e+04 3.293e-10
 88.16377    130.7 1.053e+04 3.646e-10
 88.18443    131.2 1.076e+04 4.120e-10
 88.21961    131.9 1.065e+04 3.958e-10
 88.26093    132.8 1.045e+04 3.695e-10
 88.28911    133.4 1.034e+04 3.583e-10
 88.29934    133.7 1.037e+04 3.633e-10
 88.31239    134.2 1.037e+04 3.628e-10
 88.33304    134.8 1.039e+04 3.668e-10
 88.35173    135.3 1.052e+04 3.816e-10
 88.36206    135.2 1.098e+04 4.140e-10
 88.36708    135.4 1.131e+04 4.869e-10
 88.37741    136.0 1.070e+04 4.337e-10
 88.39502    136.2 1.101e+04 4.975e-10
 88.41445    136.2 1.143e+04 6.285e-10
 88.42478    135.9 1.171e+04 7.508e-10
 88.43634    136.1 1.199e+04 1.052e-09
 88.45700    136.4 1.230e+04 1.439e-09
 88.47716    136.8 1.262e+04 1.866e-09
 88.48749    137.0 1.264e+04 1.881e-09
 88.49832    137.3 1.287e+04 2.217e-09
 88.51898    137.4 1.302e+04 2.425e-09
 88.53964    137.4 1.308e+04 2.520e-09
 88.55021    137.3 1.315e+04 2.584e-09
 88.55140    137.6 1.307e+04 2.430e-09
 88.56149    138.0 1.320e+04 2.653e-09
 88.58096    137.7 1.335e+04 2.875e-09
 88.60162    137.3 1.340e+04 2.815e-09
 88.61293    136.6 1.336e+04 2.647e-09
 88.62326    137.2 1.353e+04 2.756e-09
 88.64293    136.2 1.345e+04 2.487e-09
 88.66359    135.1 1.321e+04 2.125e-09
 88.67564    133.8 1.283e+04 1.743e-09
 88.68597    133.9 1.326e+04 1.896e-09
 88.70491    132.3 1.267e+04 1.489e-09
 88.72490    130.8 1.207e+04 1.235e-09
 88.73523    131.4 1.285e+04 1.674e-09
 88.73836    130.2 1.213e+04 1.325e-09
 88.74869    129.4 1.233e+04 1.420e-09
 88.76689    128.8 1.183e+04 1.316e-09
 88.78755    128.8 1.169e+04 1.285e-09
 88.80108    129.2 1.164e+04 1.276e-09
 88.81141    128.5 1.184e+04 1.393e-09
 88.82887    129.2 1.181e+04 1.388e-09
 88.84953    130.0 1.178e+04 1.387e-09
 88.86379    130.8 1.175e+04 1.386e-09
 88.87412    130.3 1.194e+04 1.469e-09
 88.89085    131.2 1.189e+04 1.442e-09
 88.90898    131.9 1.184e+04 1.410e-09
 88.91931    131.6 1.203e+04 1.552e-09
 88.92651    132.4 1.196e+04 1.526e-09
 88.93684    132.1 1.195e+04 1.493e-09
 88.95282    133.1 1.195e+04 1.492e-09
 88.97348    134.0 1.198e+04 1.504e-09
 88.98923    134.6 1.206e+04 1.533e-09
 88.99956    134.5 1.205e+04 1.453e-09
 89.01480    135.1 1.218e+04 1.515e-09
 89.03546    135.6 1.231e+04 1.586e-09
 89.05195    135.9 1.239e+04 1.625e-09
 89.06228    135.8 1.239e+04 1.563e-09
 89.08282    136.4 1.224e+04 1.463e-09
 89.10348    136.0 1.223e+04 1.450e-09
 89.12853    136.4 1.185e+04 1.178e-09
 89.16725    137.5 1.126e+04 8.512e-10
 89.18790    137.4 1.097e+04 6.298e-10
 89.21126    138.4 1.043e+04 4.365e-10
 89.25258    139.4 1.001e+04 3.560e-10
 89.29268    140.8 9.865e+03 3.510e-10
 89.31334    140.8 9.698e+03 2.811e-10
 89.33522    142.0 9.701e+03 3.035e-10
 89.37654    143.2 9.738e+03 3.371e-10
 89.41785    144.0 9.801e+03 3.734e-10
 89.43877    144.6 9.803e+03 3.928e-10
 89.45133    144.8 9.718e+03 3.507e-10
 89.47173    144.4 9.806e+03 3.727e-10
 89.50049    144.6 9.796e+03 3.696e-10
 89.54181    144.7 9.755e+03 3.534e-10
 89.56421    144.8 9.779e+03 3.532e-10
 89.58487    144.1 9.638e+03 2.992e-10
 89.62445    143.5 9.681e+03 3.088e-10
 89.66577    143.0 9.908e+03 3.646e-10
 89.68954    142.1 1.001e+04 3.889e-10
 89.69977    140.8 9.880e+03 3.359e-10
 89.71722    140.1 1.002e+04 3.865e-10
 89.73788    139.0 1.029e+04 4.860e-10
 89.75216    138.3 1.046e+04 5.823e-10
 89.76249    138.0 1.048e+04 5.849e-10
 89.77920    137.1 1.074e+04 7.200e-10
 89.79986    136.4 1.093e+04 8.440e-10
 89.81488    136.0 1.102e+04 9.187e-10
 89.82382    135.2 1.096e+04 8.782e-10
 89.83989    135.3 1.060e+04 7.156e-10
 89.86193    134.8 1.068e+04 7.741e-10
 89.87760    134.5 1.068e+04 7.808e-10
 89.88793    134.3 1.070e+04 7.650e-10
 89.90315    134.1 1.066e+04 7.423e-10
 89.92381    134.0 1.057e+04 6.986e-10
 89.94031    133.9 1.045e+04 6.429e-10
 89.95064    133.2 1.025e+04 5.203e-10
 89.96513    133.1 1.013e+04 4.760e-10
 89.98579    133.0 9.968e+03 4.328e-10
 90.00303    133.0 9.881e+03 4.138e-10
 90.01336    133.0 9.881e+03 4.134e-10
 90.03754    133.6 9.816e+03 4.101e-10
 90.06594    134.5 9.807e+03 4.151e-10
 90.08660    134.1 9.557e+03 3.563e-10
 90.12027    135.2 9.644e+03 3.814e-10
 90.16159    136.3 9.828e+03 4.074e-10
 90.18738    137.0 9.969e+03 4.135e-10
 90.19651    137.1 1.016e+04 4.848e-10
 90.21204    136.3 9.908e+03 3.595e-10
 90.24423    136.7 1.009e+04 3.715e-10
 90.27512    136.7 1.010e+04 3.564e-10
 90.29568    136.8 1.010e+04 3.494e-10
 90.31634    137.0 1.011e+04 3.550e-10
 90.32694    137.2 1.013e+04 3.621e-10
 90.33737    136.3 1.007e+04 3.538e-10
 90.36818    136.9 1.007e+04 3.553e-10
 90.38976    137.6 1.012e+04 3.694e-10
 90.39999    137.3 1.003e+04 3.512e-10
 90.41964    137.7 9.994e+03 3.459e-10
 90.44029    138.1 9.976e+03 3.436e-10
 90.45238    138.3 1.002e+04 3.497e-10
 90.46271    137.4 9.917e+03 3.247e-10
 90.48161    137.3 1.012e+04 3.634e-10
 90.50227    136.8 1.057e+04 4.760e-10
 90.51510    136.0 1.120e+04 6.906e-10
 90.52542    135.6 1.127e+04 7.146e-10
 90.54359    134.7 1.198e+04 1.066e-09
 90.55533    133.8 1.269e+04 1.538e-09
 90.56566    132.7 1.333e+04 2.064e-09
 90.57781    131.4 1.396e+04 2.755e-09
 90.58814    131.5 1.385e+04 2.616e-09
 90.60557    130.4 1.431e+04 3.147e-09
 90.62623    129.2 1.462e+04 3.448e-09
 90.64053    127.8 1.471e+04 3.471e-09
 90.65086    127.8 1.455e+04 3.148e-09
 90.66755    126.3 1.445e+04 3.006e-09
 90.68821    124.8 1.419e+04 2.604e-09
 90.70325    123.2 1.383e+04 2.075e-09
 90.71358    123.0 1.373e+04 2.026e-09
 90.72908    121.3 1.336e+04 1.573e-09
 90.73941    119.5 1.291e+04 1.291e-09
 90.75018    117.4 1.221e+04 9.621e-10
 90.76596    115.4 1.158e+04 8.515e-10
 90.77629    115.4 1.176e+04 9.481e-10
 90.79150    114.0 1.169e+04 9.476e-10
 90.81216    113.0 1.174e+04 9.760e-10
 90.82868    111.7 1.200e+04 1.125e-09
 90.83901    111.1 1.223e+04 1.224e-09
 90.85348    109.7 1.280e+04 1.698e-09
 90.87414    109.3 1.360e+04 2.593e-09
 90.89140    109.3 1.434e+04 3.733e-09
 90.90173    109.4 1.416e+04 3.624e-09
 90.91316    109.3 1.450e+04 4.021e-09
 90.92349    109.1 1.495e+04 4.792e-09
 90.93612    108.7 1.491e+04 4.663e-09
 90.95411    108.6 1.454e+04 3.912e-09
 90.96444    108.5 1.407e+04 3.276e-09
 90.97744    108.1 1.351e+04 2.326e-09
 90.99810    107.1 1.281e+04 1.427e-09
 91.01683    105.3 1.200e+04 8.546e-10
 91.02716    105.2 1.187e+04 8.953e-10
 91.03941    103.6 1.140e+04 7.331e-10
 91.06007    102.4 1.139e+04 7.379e-10
 91.07955    101.2 1.163e+04 8.056e-10
 91.08988    102.0 1.159e+04 8.153e-10
 91.09723    100.5 1.215e+04 1.011e-09
 91.10756     98.9 1.342e+04 1.653e-09
 91.12205     97.4 1.436e+04 2.615e-09
 91.14226     96.2 1.515e+04 3.920e-09
 91.15259     97.5 1.477e+04 3.469e-09
 91.16337     96.8 1.534e+04 4.570e-09
 91.18403     96.1 1.564e+04 4.857e-09
 91.20469     95.2 1.556e+04 4.619e-09
 91.21531     94.2 1.528e+04 4.122e-09
 91.22564     95.9 1.543e+04 4.234e-09
 91.24601     94.8 1.499e+04 3.517e-09
 91.26667     93.5 1.441e+04 2.777e-09
 91.27803     92.2 1.387e+04 2.257e-09
 91.28234     94.0 1.408e+04 2.341e-09
 91.29164     93.0 1.341e+04 1.609e-09
 91.30799     91.8 1.303e+04 1.510e-09
 91.32864     90.9 1.304e+04 1.543e-09
 91.34075     90.0 1.316e+04 1.685e-09
 91.35108     91.6 1.295e+04 1.485e-09
 91.36996     90.6 1.315e+04 1.661e-09
 91.39062     89.5 1.344e+04 1.901e-09
 91.40346     88.1 1.380e+04 2.155e-09
 91.41379     89.9 1.348e+04 1.889e-09
 91.43194     88.2 1.392e+04 2.152e-09
 91.45260     85.8 1.434e+04 2.431e-09
 91.46538     83.2 1.458e+04 2.734e-09
 91.46863     82.9 1.438e+04 2.514e-09
 91.47651     85.1 1.432e+04 2.345e-09
 91.49392     82.4 1.469e+04 2.976e-09
 91.51458     80.1 1.474e+04 3.340e-09
 91.52890     78.0 1.472e+04 3.285e-09
 91.53923     79.8 1.498e+04 3.628e-09
 91.55590     77.6 1.496e+04 3.483e-09
 91.57656     75.3 1.474e+04 3.027e-09
 91.59161     72.9 1.414e+04 2.389e-09
 91.60194     74.5 1.472e+04 2.998e-09
 91.61788     72.2 1.389e+04 2.227e-09
 91.63853     70.1 1.287e+04 1.512e-09
 91.64946     68.3 1.193e+04 9.932e-10
 91.65493     67.7 1.173e+04 9.048e-10
 91.66466     69.1 1.217e+04 1.125e-09
 91.67985     67.4 1.130e+04 6.929e-10
 91.70051     65.9 1.069e+04 4.744e-10
 91.71714     64.8 1.016e+04 3.260e-10
 91.73790     66.5 1.019e+04 3.054e-10
 91.77302     65.5 9.523e+03 1.609e-10
 91.81433     65.3 9.136e+03 9.840e-11
 91.84268     65.5 8.894e+03 7.141e-11
 91.86334     66.4 8.888e+03 7.805e-11
 91.89697     67.3 8.746e+03 7.180e-11
 91.93829     68.4 8.704e+03 6.919e-11
 91.96811     69.6 8.724e+03 6.936e-11
 91.98877     70.7 8.852e+03 8.525e-11
 92.00748     71.5 8.893e+03 8.644e-11
 92.02814     71.7 8.958e+03 8.880e-11
 92.06225     72.3 9.072e+03 9.791e-11
 92.09354     72.5 9.410e+03 1.385e-10
 92.11420     72.9 9.533e+03 1.591e-10
 92.14488     72.3 9.953e+03 2.211e-10
 92.16649     71.1 1.041e+04 3.117e-10
 92.17673     71.3 1.043e+04 3.269e-10
 92.19136     70.3 1.083e+04 5.117e-10
 92.20169     70.1 1.083e+04 5.162e-10
 92.21700     68.0 1.211e+04 8.856e-10
 92.22911     61.2 1.570e+04 2.665e-09
 92.23944     58.0 1.706e+04 4.033e-09
 92.25831     55.2 1.808e+04 9.996e-09
 92.27897     55.8 1.781e+04 1.251e-08
 92.29183     56.1 1.742e+04 1.129e-08
 92.30216     56.3 1.729e+04 1.106e-08
 92.32029     56.5 1.622e+04 6.686e-09
 92.34095     55.4 1.508e+04 3.458e-09
 92.35455     52.1 1.361e+04 1.676e-09
 92.36488     50.6 1.297e+04 1.162e-09
 92.37553     46.4 1.184e+04 8.533e-10
 92.39629     43.9 1.056e+04 4.369e-10
 92.43411     43.2 1.007e+04 4.294e-10
 92.46985     41.9 1.055e+04 6.398e-10
 92.49051     38.6 1.041e+04 6.777e-10
 92.50632     37.8 1.125e+04 1.016e-09
 92.52689     36.4 1.195e+04 1.463e-09
 92.54270     35.5 1.246e+04 2.078e-09
 92.55303     34.6 1.256e+04 2.049e-09
 92.55951     34.4 1.292e+04 2.345e-09
 92.56984     34.8 1.292e+04 2.246e-09
 92.58886     34.6 1.287e+04 2.146e-09
 92.60541     34.6 1.233e+04 1.711e-09
 92.61574     32.6 1.179e+04 1.343e-09
 92.63018     31.7 1.069e+04 8.470e-10
 92.65084     30.4 9.648e+03 5.106e-10
 92.66813     29.1 8.963e+03 3.241e-10
 92.67846     27.3 8.863e+03 2.913e-10
 92.69216     26.0 8.502e+03 2.242e-10
 92.71282     25.5 8.447e+03 2.180e-10
 92.73085     25.6 8.553e+03 2.325e-10
 92.74096     23.5 8.760e+03 2.657e-10
 92.74359     23.4 8.640e+03 2.589e-10
 92.75414     23.3 8.933e+03 3.172e-10
 92.77480     23.2 9.253e+03 3.943e-10
 92.79357     23.1 9.619e+03 5.174e-10
 92.80389     21.5 1.011e+04 6.760e-10
 92.81612     21.8 1.056e+04 8.667e-10
 92.83677     21.9 1.125e+04 1.167e-09
 92.85628     21.4 1.202e+04 1.567e-09
 92.86661     19.4 1.272e+04 1.910e-09
 92.87809     18.6 1.350e+04 2.523e-09
 92.89875     18.7 1.386e+04 3.064e-09
 92.91733     19.3 1.374e+04 3.346e-09
 92.92725     19.5 1.444e+04 3.940e-09
 92.92933     17.5 1.491e+04 4.671e-09
 92.94007     17.9 1.530e+04 5.467e-09
 92.96073     18.7 1.572e+04 6.054e-09
 92.97618     18.9 1.615e+04 5.544e-09
 92.98646     18.8 1.643e+04 5.670e-09
 92.99195     17.9 1.744e+04 6.454e-09
 92.99711     16.2 1.728e+04 7.956e-09
 93.00712     15.5 1.787e+04 8.646e-09
 93.01444     14.3 1.876e+04 1.023e-08
 93.01960     15.6 1.825e+04 1.172e-08
 93.02331     15.3 1.869e+04 1.276e-08
 93.02847     14.4 1.896e+04 1.302e-08
 93.03811     12.6 1.968e+04 1.680e-08
 93.04844     10.7 2.070e+04 2.217e-08
 93.05467      8.6 2.151e+04 3.318e-08
 93.05983      8.1 2.042e+04 3.001e-08
 93.06909      7.6 2.026e+04 4.688e-08
 93.07942      8.1 1.988e+04 7.302e-08
 93.08602      9.0 1.964e+04 8.620e-08
 93.09119     10.0 1.947e+04 5.064e-08
 93.10008     11.8 1.925e+04 4.782e-08
 93.10648     13.3 1.983e+04 3.784e-08
 93.11164     13.2 2.030e+04 2.321e-08
 93.11738     13.5 2.264e+04 1.341e-08
 93.12776      8.4 2.368e+04 2.209e-09
 93.14666      2.9 1.837e+04 8.023e-10
 93.17775     -2.1 1.088e+04 3.789e-10
 93.21917     -2.5 1.055e+04 3.848e-10
 93.24311     -1.1 1.039e+04 3.593e-10
 93.26377     -1.0 8.602e+03 1.462e-10
 93.30180      1.0 8.771e+03 1.481e-10
 93.34312      3.0 8.779e+03 1.752e-10
 93.36854      5.0 8.722e+03 2.418e-10
 93.38920      5.1 8.358e+03 1.150e-10
 93.42576      7.0 8.445e+03 1.510e-10
 93.45943      8.4 9.421e+03 2.691e-10
 93.48009      8.3 8.723e+03 1.271e-10
 93.49398      9.2 9.736e+03 2.758e-10
 93.51464      8.8 9.561e+03 1.783e-10
 93.53929      8.5 1.024e+04 3.293e-10
 93.55650      7.9 1.083e+04 4.807e-10
 93.56683      5.6 1.143e+04 5.402e-10
 93.58051      5.6 1.145e+04 8.053e-10
 93.60117      6.9 1.107e+04 9.827e-10
 93.61922      8.5 1.109e+04 9.863e-10
 93.62955      8.4 1.123e+04 1.195e-09
 93.64249     10.0 1.151e+04 1.001e-09
 93.65364     10.0 1.198e+04 7.490e-10
 93.66397      9.1 1.315e+04 1.167e-09
 93.68193      4.2 1.584e+04 1.287e-09
 93.69226     -1.4 1.670e+04 2.808e-09
 93.70447     -4.5 1.605e+04 3.904e-09
 93.72513     -4.6 1.572e+04 4.728e-09
 93.74046     -4.1 1.572e+04 5.137e-09
 93.74558     -4.8 1.573e+04 6.534e-09
 93.74972     -4.8 1.622e+04 7.177e-09
 93.75488     -4.5 1.594e+04 8.170e-09
 93.76118     -4.4 1.638e+04 8.753e-09
 93.77151     -4.8 1.687e+04 9.188e-09
 93.78108     -5.4 1.798e+04 9.908e-09
 93.78624     -4.9 1.770e+04 7.726e-09
 93.79217     -6.3 1.854e+04 8.232e-09
 93.80250     -9.2 1.995e+04 8.527e-09
 93.81243    -13.0 2.062e+04 9.711e-09
 93.81760    -14.3 1.902e+04 5.722e-09
 93.82316    -19.8 1.915e+04 6.991e-09
 93.83245    -23.1 1.915e+04 8.523e-09
 93.83762    -24.2 1.837e+04 7.578e-09
 93.84903    -27.0 1.867e+04 1.010e-08
 93.86974    -29.8 1.926e+04 1.601e-08
 93.88041    -31.8 1.952e+04 1.898e-08
 93.89074    -33.7 1.860e+04 1.551e-08
 93.91106    -34.9 1.899e+04 1.734e-08
 93.93172    -36.4 1.871e+04 1.367e-08
 93.94313    -38.3 1.740e+04 7.937e-09
 93.95346    -38.0 1.708e+04 8.125e-09
 93.97304    -40.4 1.604e+04 4.953e-09
 93.99370    -43.3 1.519e+04 3.562e-09
 94.00585    -45.6 1.437e+04 2.752e-09
 94.01328    -44.4 1.462e+04 3.448e-09
 94.02179    -44.6 1.433e+04 3.155e-09
 94.03502    -45.6 1.393e+04 2.995e-09
 94.05567    -45.8 1.352e+04 2.759e-09
 94.06856    -45.6 1.314e+04 2.410e-09
 94.07889    -44.7 1.342e+04 2.885e-09
 94.09699    -44.4 1.300e+04 2.411e-09
 94.11765    -44.0 1.258e+04 1.823e-09
 94.13128    -43.9 1.207e+04 1.267e-09
 94.14161    -42.8 1.210e+04 1.487e-09
 94.15897    -43.0 1.159e+04 1.002e-09
 94.17963    -43.6 1.092e+04 6.646e-10
 94.19400    -44.0 1.039e+04 4.784e-10
 94.19957    -43.1 1.045e+04 5.282e-10
 94.20587    -42.7 1.039e+04 5.267e-10
 94.22095    -42.9 9.957e+03 3.885e-10
 94.24161    -43.1 9.786e+03 3.236e-10
 94.25671    -43.5 9.735e+03 3.123e-10
 94.26704    -42.8 9.747e+03 3.180e-10
 94.29335    -43.1 9.739e+03 3.339e-10
 94.33477    -43.1 9.944e+03 4.277e-10
 94.37201    -42.5 1.029e+04 5.870e-10
 94.39267    -41.6 9.992e+03 5.105e-10
 94.41741    -40.8 1.017e+04 5.748e-10
 94.45873    -40.5 1.045e+04 6.307e-10
 94.49745    -42.3 1.151e+04 8.902e-10
 94.51811    -40.6 1.125e+04 7.835e-10
 94.53094    -43.6 1.257e+04 1.361e-09
 94.55150    -44.9 1.348e+04 2.104e-09
 94.56369    -45.8 1.412e+04 2.992e-09
 94.57216    -45.6 1.410e+04 2.708e-09
 94.58063    -45.4 1.486e+04 3.490e-09
 94.59282    -45.7 1.528e+04 4.353e-09
 94.61348    -46.0 1.530e+04 4.495e-09
 94.63302    -46.1 1.476e+04 3.608e-09
 94.64335    -45.2 1.548e+04 5.140e-09
 94.65479    -45.2 1.451e+04 2.983e-09
 94.67545    -46.5 1.329e+04 1.529e-09
 94.69573    -48.0 1.198e+04 8.581e-10
 94.70606    -47.1 1.253e+04 1.129e-09
 94.71677    -47.9 1.158e+04 7.265e-10
 94.73743    -47.9 1.096e+04 5.470e-10
 94.75809    -47.1 1.081e+04 5.424e-10
 94.76878    -46.4 1.053e+04 4.388e-10
 94.77911    -45.7 1.069e+04 5.356e-10
 94.79941    -44.8 1.052e+04 4.635e-10
 94.82007    -44.1 1.035e+04 4.157e-10
 94.83150    -43.3 1.024e+04 3.951e-10
 94.84183    -42.9 1.038e+04 4.220e-10
 94.87181    -42.4 1.015e+04 3.690e-10
 94.89441    -41.2 1.011e+04 3.556e-10
 94.90464    -40.1 1.026e+04 4.376e-10
 94.92151    -39.7 1.024e+04 4.377e-10
 94.93184    -39.6 1.035e+04 4.823e-10
 94.94402    -39.2 1.031e+04 5.005e-10
 94.95693    -38.8 1.034e+04 5.169e-10
 94.96726    -38.2 1.042e+04 5.576e-10
 94.98534    -37.8 1.050e+04 5.971e-10
 95.00600    -37.4 1.056e+04 6.177e-10
 95.01965    -36.8 1.059e+04 6.199e-10
 95.02998    -36.1 1.073e+04 7.354e-10
 95.04732    -35.4 1.071e+04 7.256e-10
 95.06798    -34.5 1.063e+04 6.209e-10
 95.08237    -33.7 1.056e+04 4.806e-10
 95.09269    -33.1 1.079e+04 6.103e-10
 95.10559    -32.6 1.087e+04 4.627e-10
 95.11592    -33.0 1.122e+04 5.836e-10
 95.12996    -32.6 1.132e+04 4.370e-10
 95.14508    -32.7 1.110e+04 3.380e-10
 95.15541    -32.2 1.160e+04 5.076e-10
 95.17128    -32.2 1.151e+04 4.015e-10
 95.19194    -31.9 1.118e+04 3.410e-10
 95.20780    -31.5 1.084e+04 3.115e-10
 95.21813    -31.3 1.140e+04 4.890e-10
 95.23326    -30.8 1.119e+04 4.299e-10
 95.25391    -30.1 1.100e+04 4.030e-10
 95.27052    -29.4 1.087e+04 3.924e-10
 95.28085    -29.3 1.098e+04 6.014e-10
 95.28966    -28.6 1.091e+04 5.899e-10
 95.29999    -28.9 1.107e+04 7.396e-10
 95.31589    -28.2 1.108e+04 7.358e-10
 95.33323    -27.4 1.106e+04 7.546e-10
 95.34356    -26.8 1.124e+04 8.484e-10
 95.35721    -26.0 1.130e+04 8.463e-10
 95.37787    -25.3 1.133e+04 8.518e-10
 95.39595    -24.4 1.135e+04 8.638e-10
 95.40628    -23.9 1.131e+04 9.050e-10
 95.41919    -23.0 1.138e+04 9.044e-10
 95.45028    -22.2 1.135e+04 8.504e-10
 95.49169    -20.8 1.158e+04 1.010e-09
 95.52158    -19.2 1.182e+04 1.251e-09
 95.54224    -18.5 1.206e+04 1.100e-09
 95.57433    -17.2 1.243e+04 1.552e-09
 95.60522    -16.5 1.264e+04 1.809e-09
 95.62578    -15.6 1.289e+04 2.060e-09
 95.64644    -15.0 1.330e+04 2.510e-09
 95.65715    -14.3 1.390e+04 3.032e-09
 95.65819    -14.9 1.419e+04 3.533e-09
 95.66814    -16.2 1.413e+04 3.512e-09
 95.68776    -15.7 1.468e+04 4.912e-09
 95.70842    -14.8 1.517e+04 6.712e-09
 95.71986    -13.7 1.574e+04 8.811e-09
 95.73019    -13.2 1.572e+04 8.463e-09
 95.74974    -12.6 1.611e+04 1.038e-08
 95.77040    -11.9 1.639e+04 1.202e-08
 95.78258    -11.4 1.678e+04 1.365e-08
 95.79291    -11.2 1.660e+04 1.178e-08
 95.81172    -10.8 1.681e+04 1.419e-08
 95.83156    -10.1 1.688e+04 1.545e-08
 95.84189    -10.4 1.634e+04 1.006e-08
 95.84530     -9.7 1.644e+04 8.867e-09
 95.85563     -9.6 1.694e+04 5.592e-09
 95.87369     -9.0 1.710e+04 4.614e-09
 95.89435     -9.5 1.693e+04 3.590e-09
 95.90802    -10.9 1.670e+04 3.092e-09
 95.91835    -11.3 1.584e+04 1.717e-09
 95.93567    -14.0 1.534e+04 1.926e-09
 95.95633    -17.2 1.557e+04 2.833e-09
 95.97073    -19.1 1.580e+04 4.417e-09
 95.98106    -20.5 1.549e+04 3.796e-09
 95.99765    -21.1 1.629e+04 5.574e-09
 96.01564    -21.5 1.726e+04 6.419e-09
 96.02597    -23.3 1.621e+04 4.227e-09
 96.03345    -25.7 1.587e+04 3.575e-09
 96.04378    -26.2 1.582e+04 3.130e-09
 96.05963    -29.5 1.364e+04 2.148e-09
 96.08029    -30.7 1.231e+04 1.673e-09
 96.09617    -30.5 1.208e+04 1.372e-09
 96.10650    -31.5 1.182e+04 9.644e-10
 96.12161    -31.4 1.132e+04 7.336e-10
 96.14865    -31.1 1.084e+04 5.501e-10
 96.16941    -32.5 1.024e+04 3.637e-10
 96.19411    -31.0 9.552e+03 2.332e-10
 96.23543    -29.2 9.339e+03 1.906e-10
 96.27418    -27.5 9.408e+03 1.878e-10
 96.29484    -28.9 9.959e+03 2.496e-10
 96.31806    -27.9 1.046e+04 3.552e-10
 96.35938    -26.4 1.107e+04 5.611e-10
 96.38398    -24.3 1.167e+04 8.152e-10
 96.40356    -23.8 1.233e+04 1.403e-09
 96.42018    -24.3 1.273e+04 1.788e-09
 96.43150    -23.0 1.278e+04 1.792e-09
 96.45215    -21.9 1.250e+04 1.514e-09
 96.47247    -21.2 1.230e+04 1.317e-09
 96.48280    -21.5 1.236e+04 1.398e-09
 96.49347    -21.2 1.208e+04 1.156e-09
 96.52456    -21.0 1.179e+04 9.873e-10
 96.54571    -20.1 1.142e+04 8.182e-10
 96.56637    -22.2 1.113e+04 6.879e-10
 96.60729    -22.5 1.163e+04 7.591e-10
 96.63819    -24.7 1.206e+04 1.103e-09
 96.65875    -24.9 1.188e+04 1.349e-09
 96.67095    -24.0 1.180e+04 1.470e-09
 96.68128    -24.1 1.193e+04 1.597e-09
 96.70007    -23.0 1.214e+04 1.483e-09
 96.72073    -22.6 1.247e+04 1.038e-09
 96.73367    -25.7 1.242e+04 6.813e-10
 96.74400    -28.0 1.245e+04 6.560e-10
 96.75194    -32.2 1.106e+04 4.670e-10
 96.76227    -33.1 1.162e+04 6.781e-10
 96.78270    -34.5 1.118e+04 6.353e-10
 96.79638    -35.2 1.102e+04 6.630e-10
 96.80671    -36.3 1.121e+04 7.617e-10
 96.82402    -36.9 1.126e+04 8.025e-10
 96.84468    -37.6 1.134e+04 8.753e-10
 96.85910    -38.2 1.155e+04 9.923e-10
 96.86943    -39.2 1.152e+04 9.935e-10
 96.88600    -39.7 1.175e+04 1.117e-09
 96.90666    -40.0 1.191e+04 1.196e-09
 96.92182    -40.3 1.200e+04 1.230e-09
 96.93051    -41.7 1.187e+04 1.086e-09
 96.93602    -42.2 1.174e+04 1.012e-09
 96.94798    -42.7 1.174e+04 9.444e-10
 96.96864    -43.5 1.166e+04 8.303e-10
 96.98453    -44.6 1.155e+04 7.171e-10
 96.99486    -46.4 1.151e+04 6.981e-10
 97.00996    -48.5 1.158e+04 6.588e-10
 97.03062    -51.1 1.209e+04 7.039e-10
 97.04725    -53.5 1.239e+04 8.473e-10
 97.05758    -56.1 1.272e+04 1.085e-09
 97.07193    -57.2 1.262e+04 1.223e-09
 97.09259    -57.9 1.256e+04 1.268e-09
 97.10976    -58.4 1.247e+04 1.224e-09
 97.11681    -58.5 1.238e+04 1.231e-09
 97.12030    -60.0 1.236e+04 1.229e-09
 97.13391    -60.4 1.211e+04 1.066e-09
 97.15457    -61.0 1.178e+04 8.716e-10
 97.17268    -61.5 1.141e+04 6.995e-10
 97.18301    -62.9 1.107e+04 5.649e-10
 97.19589    -63.3 1.078e+04 4.622e-10
 97.21655    -63.7 1.054e+04 3.927e-10
 97.23540    -63.9 1.037e+04 3.564e-10
 97.24573    -64.7 1.028e+04 3.396e-10
 97.25787    -64.8 1.022e+04 3.314e-10
 97.27853    -64.7 1.021e+04 3.305e-10
 97.29384    -64.7 1.025e+04 3.349e-10
 97.30310    -64.7 1.034e+04 3.616e-10
 97.31888    -65.5 1.030e+04 3.513e-10
 97.34060    -65.3 1.030e+04 3.703e-10
 97.36084    -65.6 1.050e+04 4.166e-10
 97.37116    -65.7 1.042e+04 4.086e-10
 97.38182    -66.0 1.061e+04 4.729e-10
 97.40248    -66.5 1.097e+04 5.763e-10
 97.42314    -67.1 1.139e+04 7.431e-10
 97.43388    -67.7 1.173e+04 9.679e-10
 97.44421    -67.4 1.151e+04 8.454e-10
 97.46446    -67.8 1.177e+04 1.064e-09
 97.47791    -67.9 1.188e+04 1.254e-09
 97.48824    -68.1 1.191e+04 1.322e-09
 97.49660    -68.0 1.190e+04 1.372e-09
 97.50693    -67.8 1.181e+04 1.289e-09
 97.52644    -67.7 1.171e+04 1.286e-09
 97.54710    -67.5 1.137e+04 1.100e-09
 97.55932    -67.4 1.102e+04 8.244e-10
 97.56965    -66.9 1.103e+04 8.763e-10
 97.58842    -67.2 1.073e+04 6.515e-10
 97.60908    -67.9 1.038e+04 4.795e-10
 97.62203    -68.5 9.953e+03 3.738e-10
 97.63236    -67.6 1.015e+04 4.128e-10
 97.65039    -68.2 9.818e+03 3.491e-10
 97.66199    -68.5 9.713e+03 3.326e-10
 97.67232    -68.6 9.706e+03 3.288e-10
 97.68475    -68.6 9.754e+03 3.299e-10
 97.69518    -68.0 9.925e+03 3.542e-10
 97.72290    -70.5 1.044e+04 3.883e-10
 97.74756    -76.1 1.173e+04 6.384e-10
 97.75780    -76.5 1.211e+04 7.690e-10
 97.77435    -79.7 1.398e+04 2.206e-09
 97.79501    -80.9 1.548e+04 5.032e-09
 97.81018    -81.2 1.665e+04 8.327e-09
 97.82051    -80.4 1.650e+04 8.162e-09
 97.83574    -81.2 1.674e+04 8.889e-09
 97.84607    -81.3 1.641e+04 8.054e-09
 97.85699    -82.2 1.621e+04 7.253e-09
 97.87290    -83.6 1.512e+04 3.892e-09
 97.88323    -84.0 1.482e+04 2.981e-09
 97.89831    -88.7 1.303e+04 1.356e-09
 97.91897    -93.1 1.120e+04 7.185e-10
 97.93562    -95.1 1.049e+04 4.871e-10
 97.94595    -99.0 1.343e+04 7.996e-10
 97.96028    -99.6 1.322e+04 8.199e-10
 97.98094   -100.0 1.289e+04 8.413e-10
 97.99833   -100.2 1.255e+04 8.781e-10
 98.00866   -102.0 1.377e+04 2.048e-09
 98.01981   -101.4 1.326e+04 1.909e-09
 98.03014   -100.7 1.342e+04 1.668e-09
 98.04292    -99.9 1.303e+04 1.552e-09
 98.06105    -99.0 1.275e+04 1.412e-09
 98.07138   -100.2 1.366e+04 2.578e-09
 98.08424    -99.4 1.335e+04 2.243e-09
 98.10490    -98.6 1.306e+04 1.996e-09
 98.12377    -98.0 1.275e+04 1.762e-09
 98.13410    -98.9 1.294e+04 1.988e-09
 98.14622    -98.2 1.261e+04 1.682e-09
 98.17625    -97.6 1.219e+04 1.385e-09
 98.19691    -98.0 1.216e+04 1.438e-09
 98.20389    -97.3 1.198e+04 1.330e-09
 98.21422    -96.9 1.260e+04 1.683e-09
 98.22886    -96.2 1.239e+04 1.556e-09
 98.24920    -95.5 1.219e+04 1.444e-09
 98.25953    -96.2 1.192e+04 1.318e-09
 98.27017    -95.4 1.176e+04 1.226e-09
 98.29083    -94.4 1.162e+04 1.136e-09
 98.31149    -93.5 1.161e+04 1.111e-09
 98.32235    -92.2 1.178e+04 1.161e-09
 98.33268    -93.9 1.104e+04 8.146e-10
 98.35281    -93.4 1.092e+04 7.670e-10
 98.37347    -92.6 1.083e+04 7.334e-10
 98.38497    -92.0 1.080e+04 7.170e-10
 98.38913    -92.6 1.068e+04 6.689e-10
 98.39829    -92.2 1.081e+04 6.975e-10
 98.42522    -91.5 1.078e+04 6.822e-10
 98.44788    -90.6 1.073e+04 6.626e-10
 98.45811    -91.7 1.056e+04 6.045e-10
 98.47677    -91.3 1.057e+04 6.049e-10
 98.49743    -91.0 1.061e+04 6.227e-10
 98.51040    -90.7 1.064e+04 6.501e-10
 98.52073    -90.9 1.050e+04 5.982e-10
 98.53875    -90.4 1.051e+04 6.133e-10
 98.55940    -90.0 1.050e+04 6.168e-10
 98.57204    -89.5 1.041e+04 6.050e-10
 98.57542    -89.2 1.052e+04 6.175e-10
 98.58345    -89.2 1.030e+04 5.409e-10
 98.60072    -88.5 1.018e+04 5.072e-10
 98.62138    -87.7 1.006e+04 4.581e-10
 98.63583    -87.1 1.001e+04 4.226e-10
 98.64616    -87.2 9.993e+03 4.189e-10
 98.67313    -86.3 1.004e+04 3.901e-10
 98.69875    -85.3 1.000e+04 3.536e-10
 98.71941    -84.8 9.882e+03 3.386e-10
 98.75586    -83.5 9.792e+03 3.149e-10
 98.79718    -82.2 9.773e+03 3.107e-10
 98.82418    -81.0 9.902e+03 3.422e-10
 98.84484    -80.3 9.740e+03 3.248e-10
 98.87982    -79.2 1.007e+04 4.235e-10
 98.91973    -77.9 1.037e+04 5.203e-10
 98.94039    -77.5 1.044e+04 5.793e-10
 98.94952    -75.9 1.061e+04 6.369e-10
 98.97018    -75.3 1.049e+04 6.059e-10
 98.99335    -74.5 1.051e+04 6.068e-10
 99.01214    -74.0 1.042e+04 5.719e-10
 99.02247    -73.4 1.029e+04 5.279e-10
 99.03457    -72.4 1.024e+04 4.684e-10
 99.05523    -72.1 1.019e+04 4.329e-10
 99.07495    -71.6 1.018e+04 3.638e-10
 99.09571    -70.3 9.937e+03 3.230e-10
 99.12773    -68.8 9.658e+03 2.308e-10
 99.16905    -67.3 9.465e+03 1.758e-10
 99.20048    -65.8 9.364e+03 1.465e-10
 99.22114    -64.2 9.312e+03 1.418e-10
 99.25169    -62.4 9.182e+03 1.221e-10
 99.28788    -60.5 9.120e+03 1.060e-10
 99.30854    -60.3 8.936e+03 9.363e-11
 99.32592    -58.3 8.958e+03 9.158e-11
 99.34658    -56.6 8.817e+03 7.986e-11
 99.37564    -54.9 9.045e+03 8.577e-11
 99.41696    -53.8 9.761e+03 1.531e-10
 99.44785    -51.8 1.017e+04 2.271e-10
 99.46148    -52.2 1.071e+04 3.510e-10
 99.47181    -50.7 1.008e+04 2.393e-10
 99.48209    -50.9 1.151e+04 5.213e-10
 99.49242    -50.7 1.088e+04 5.300e-10
 99.50973    -51.0 1.184e+04 9.955e-10
 99.52420    -50.5 1.328e+04 1.889e-09
 99.53453    -49.6 1.267e+04 1.399e-09
 99.55105    -49.1 1.407e+04 2.510e-09
 99.57171    -48.0 1.505e+04 3.789e-09
 99.58692    -47.0 1.549e+04 4.327e-09
 99.59725    -46.4 1.533e+04 4.391e-09
 99.61303    -45.4 1.568e+04 4.749e-09
 99.63369    -44.9 1.580e+04 4.626e-09
 99.64964    -45.2 1.545e+04 3.512e-09
 99.65996    -43.5 1.561e+04 4.147e-09
 99.66617    -45.1 1.498e+04 3.389e-09
 99.67650    -45.6 1.386e+04 1.872e-09
 99.69567    -45.8 1.340e+04 1.962e-09
 99.71235    -45.6 1.327e+04 2.112e-09
 99.72268    -44.3 1.366e+04 2.401e-09
 99.73699    -43.9 1.360e+04 2.573e-09
 99.75764    -43.0 1.338e+04 2.568e-09
 99.77507    -42.0 1.309e+04 2.358e-09
 99.78540    -41.1 1.345e+04 2.817e-09
 99.79896    -40.0 1.319e+04 2.472e-09
 99.81962    -39.2 1.297e+04 2.009e-09
 99.83779    -38.7 1.267e+04 1.568e-09
 99.84775    -37.6 1.298e+04 1.938e-09
 99.85024    -37.6 1.238e+04 1.540e-09
 99.86094    -37.1 1.228e+04 1.343e-09
 99.88160    -36.6 1.215e+04 1.219e-09
 99.90050    -36.2 1.205e+04 1.183e-09
 99.91083    -35.3 1.227e+04 1.248e-09
 99.92292    -35.5 1.236e+04 1.261e-09
 99.94358    -38.0 1.398e+04 1.852e-09
 99.96322    -40.8 1.579e+04 3.502e-09
 99.97355    -38.6 1.455e+04 2.720e-09
 99.98490    -40.0 1.595e+04 4.444e-09
100.00556    -40.3 1.737e+04 6.537e-09
