# Columns:
#   distance along LOS (in CHIMPs)
#   peculiar velocity  (in km/s)
#   temperature (K)
#   HI number density
# pos=(48.6429,157.984,233.054), angles=(0.00874831,4.92341)
  0.00567    -72.9 1.086e+04 6.333e-10
  0.02111    -74.8 1.130e+04 8.511e-10
  0.04064    -76.2 1.182e+04 1.236e-09
  0.06018    -76.9 1.211e+04 1.552e-09
  0.07971    -77.1 1.224e+04 1.728e-09
  0.09924    -77.2 1.227e+04 1.763e-09
  0.11877    -77.4 1.212e+04 1.580e-09
  0.13830    -78.1 1.197e+04 1.333e-09
  0.15784    -79.6 1.205e+04 1.211e-09
  0.17737    -81.9 1.245e+04 1.169e-09
  0.19690    -83.9 1.290e+04 1.439e-09
  0.21643    -85.0 1.337e+04 1.902e-09
  0.23596    -85.2 1.365e+04 2.471e-09
  0.25550    -84.9 1.377e+04 2.942e-09
  0.27503    -83.8 1.380e+04 3.136e-09
  0.29456    -82.9 1.372e+04 3.189e-09
  0.31409    -81.9 1.348e+04 2.866e-09
  0.33362    -81.2 1.318e+04 2.281e-09
  0.35316    -80.8 1.285e+04 1.776e-09
  0.37269    -80.6 1.247e+04 1.411e-09
  0.39222    -80.5 1.210e+04 1.191e-09
  0.41175    -80.2 1.184e+04 1.090e-09
  0.43128    -79.7 1.178e+04 1.066e-09
  0.45082    -79.0 1.184e+04 1.088e-09
  0.47035    -78.4 1.208e+04 1.166e-09
  0.48988    -78.2 1.252e+04 1.329e-09
  0.50941    -78.3 1.313e+04 1.629e-09
  0.52894    -78.7 1.382e+04 2.152e-09
  0.54848    -78.9 1.444e+04 2.950e-09
  0.56801    -78.7 1.480e+04 3.933e-09
  0.58754    -78.3 1.504e+04 4.698e-09
  0.60707    -77.8 1.517e+04 4.935e-09
  0.62660    -77.5 1.514e+04 4.994e-09
  0.64614    -76.9 1.478e+04 4.557e-09
  0.66567    -76.4 1.424e+04 3.559e-09
  0.68520    -76.3 1.361e+04 2.537e-09
  0.70473    -77.0 1.283e+04 1.737e-09
  0.72426    -77.8 1.189e+04 1.218e-09
  0.74380    -78.2 1.103e+04 9.010e-10
  0.76333    -78.3 1.047e+04 7.188e-10
  0.78286    -78.2 1.017e+04 6.069e-10
  0.80239    -78.1 9.952e+03 5.327e-10
  0.83179    -77.9 9.914e+03 4.971e-10
  0.87095    -77.2 9.540e+03 4.053e-10
  0.91001    -76.4 9.153e+03 3.266e-10
  0.94908    -75.3 8.797e+03 2.584e-10
  0.98814    -73.9 8.618e+03 2.077e-10
  1.02721    -72.7 8.521e+03 1.756e-10
  1.06627    -71.6 8.514e+03 1.667e-10
  1.10533    -70.5 8.686e+03 1.898e-10
  1.14440    -69.3 8.973e+03 2.523e-10
  1.18346    -67.9 9.208e+03 3.352e-10
  1.22253    -66.2 9.335e+03 3.816e-10
  1.26159    -64.6 9.376e+03 3.909e-10
  1.30065    -62.8 9.248e+03 3.350e-10
  1.33972    -61.2 8.977e+03 2.438e-10
  1.37878    -59.6 8.682e+03 1.565e-10
  1.41785    -58.2 8.421e+03 9.880e-11
  1.45691    -56.8 8.242e+03 6.751e-11
  1.49597    -55.3 8.157e+03 5.732e-11
  1.53504    -53.6 8.142e+03 5.533e-11
  1.57410    -51.9 8.213e+03 5.612e-11
  1.61317    -50.4 8.355e+03 6.735e-11
  1.65223    -48.8 8.457e+03 8.743e-11
  1.69129    -46.8 8.550e+03 1.111e-10
  1.73036    -44.8 8.639e+03 1.285e-10
  1.76942    -42.8 8.667e+03 1.335e-10
  1.80849    -40.9 8.709e+03 1.294e-10
  1.84755    -39.1 8.738e+03 1.179e-10
  1.88661    -37.5 8.798e+03 1.104e-10
  1.92568    -36.2 9.034e+03 1.094e-10
  1.96474    -34.8 9.120e+03 1.242e-10
  2.00381    -33.2 9.153e+03 1.452e-10
  2.04287    -31.3 9.094e+03 1.624e-10
  2.08193    -29.4 9.043e+03 1.668e-10
  2.12100    -27.1 8.883e+03 1.684e-10
  2.16006    -24.9 8.876e+03 1.467e-10
  2.19913    -23.0 8.898e+03 1.392e-10
  2.23819    -21.3 9.026e+03 1.421e-10
  2.27725    -19.9 9.258e+03 1.841e-10
  2.31632    -18.2 9.471e+03 2.672e-10
  2.35538    -16.1 9.764e+03 3.615e-10
  2.39445    -13.9 1.002e+04 4.366e-10
  2.43351    -12.1 1.012e+04 4.644e-10
  2.47257    -10.6 1.011e+04 4.629e-10
  2.51164     -9.4 1.024e+04 4.445e-10
  2.55070     -9.1 1.077e+04 5.078e-10
  2.58977     -9.9 1.141e+04 7.069e-10
  2.62883    -10.4 1.205e+04 1.183e-09
  2.65803    -10.7 1.225e+04 1.379e-09
  2.67746    -10.6 1.260e+04 1.482e-09
  2.69700    -11.7 1.311e+04 1.532e-09
  2.71653    -13.4 1.360e+04 1.782e-09
  2.73606    -15.4 1.357e+04 2.195e-09
  2.75559    -17.5 1.392e+04 3.105e-09
  2.77512    -19.8 1.532e+04 4.697e-09
  2.79466    -21.7 1.707e+04 7.055e-09
  2.81419    -23.3 1.830e+04 8.987e-09
  2.83372    -25.4 1.872e+04 9.412e-09
  2.85325    -28.3 1.808e+04 8.077e-09
  2.87278    -32.1 1.635e+04 5.191e-09
  2.89232    -35.0 1.516e+04 3.878e-09
  2.91185    -36.3 1.412e+04 3.105e-09
  2.93138    -36.6 1.337e+04 2.570e-09
  2.95091    -36.6 1.282e+04 2.007e-09
  2.97044    -36.8 1.226e+04 1.569e-09
  2.98998    -37.8 1.186e+04 1.306e-09
  3.00951    -38.6 1.159e+04 1.204e-09
  3.02904    -39.1 1.153e+04 1.191e-09
  3.04857    -39.3 1.160e+04 1.277e-09
  3.06810    -39.2 1.182e+04 1.429e-09
  3.08764    -38.9 1.206e+04 1.571e-09
  3.10717    -38.9 1.224e+04 1.664e-09
  3.13656    -39.7 1.231e+04 1.680e-09
  3.17573    -40.2 1.199e+04 1.437e-09
  3.21479    -41.5 1.162e+04 1.190e-09
  3.25385    -43.4 1.138e+04 1.080e-09
  3.29292    -44.7 1.133e+04 1.060e-09
  3.32212    -45.5 1.111e+04 1.044e-09
  3.34155    -45.3 1.100e+04 9.769e-10
  3.36108    -45.4 1.080e+04 8.183e-10
  3.38062    -45.7 1.053e+04 6.503e-10
  3.40015    -46.1 1.015e+04 4.996e-10
  3.41968    -46.4 9.761e+03 3.874e-10
  3.44908    -46.7 9.486e+03 3.027e-10
  3.48824    -46.9 9.344e+03 2.747e-10
  3.52730    -46.0 9.047e+03 2.367e-10
  3.56637    -44.8 8.944e+03 2.195e-10
  3.60543    -43.4 9.011e+03 2.196e-10
  3.64449    -42.3 9.170e+03 2.327e-10
  3.68356    -41.1 9.271e+03 2.643e-10
  3.72262    -40.0 9.350e+03 3.166e-10
  3.76169    -38.6 9.436e+03 3.537e-10
  3.80075    -37.0 9.539e+03 3.728e-10
  3.83981    -35.5 9.606e+03 3.721e-10
  3.87888    -34.2 9.567e+03 3.261e-10
  3.91794    -32.9 9.392e+03 2.614e-10
  3.95701    -31.8 9.216e+03 2.120e-10
  3.99607    -30.9 9.121e+03 1.914e-10
  4.03513    -29.9 9.103e+03 1.886e-10
  4.07420    -28.9 9.145e+03 1.994e-10
  4.11326    -27.8 9.224e+03 2.187e-10
  4.15233    -26.8 9.366e+03 2.307e-10
  4.19139    -26.4 9.550e+03 2.345e-10
  4.23045    -26.8 9.863e+03 2.335e-10
  4.25779    -28.6 1.022e+04 3.007e-10
  4.27732    -30.3 1.020e+04 3.115e-10
  4.30858    -30.9 1.039e+04 4.370e-10
  4.34765    -31.2 1.059e+04 4.861e-10
  4.38671    -32.4 1.059e+04 3.991e-10
  4.42577    -34.4 1.027e+04 2.774e-10
  4.46484    -35.9 1.008e+04 2.434e-10
  4.50390    -36.6 1.006e+04 2.292e-10
  4.54297    -37.4 1.006e+04 2.108e-10
  4.58203    -38.3 1.005e+04 2.018e-10
  4.62109    -38.8 1.003e+04 2.108e-10
  4.66016    -38.9 1.006e+04 2.366e-10
  4.69922    -38.7 1.006e+04 2.380e-10
  4.73829    -38.7 1.011e+04 2.154e-10
  4.77735    -43.7 1.174e+04 2.278e-10
  4.80655    -49.6 1.241e+04 3.151e-10
  4.82598    -54.8 1.424e+04 1.021e-09
  4.84552    -57.6 1.613e+04 3.215e-09
  4.86505    -58.6 1.773e+04 7.929e-09
  4.88458    -59.1 1.873e+04 1.232e-08
  4.90411    -59.8 1.896e+04 1.342e-08
  4.92364    -60.7 1.849e+04 1.034e-08
  4.94318    -62.4 1.722e+04 5.896e-09
  4.96271    -64.8 1.537e+04 3.515e-09
  4.98224    -66.0 1.401e+04 2.608e-09
  5.00177    -66.2 1.357e+04 2.288e-09
  5.02130    -66.1 1.346e+04 2.182e-09
  5.04084    -66.0 1.361e+04 2.162e-09
  5.06037    -66.5 1.414e+04 2.295e-09
  5.07990    -67.4 1.475e+04 2.617e-09
  5.09943    -68.6 1.517e+04 3.222e-09
  5.11896    -69.5 1.538e+04 4.068e-09
  5.13850    -69.7 1.557e+04 5.034e-09
  5.15803    -69.6 1.578e+04 5.835e-09
  5.17756    -69.3 1.583e+04 6.219e-09
  5.19709    -69.1 1.591e+04 6.066e-09
  5.21662    -69.0 1.576e+04 4.860e-09
  5.23616    -69.5 1.535e+04 3.529e-09
  5.25569    -71.0 1.465e+04 2.634e-09
  5.27522    -72.3 1.395e+04 2.172e-09
  5.29475    -73.0 1.336e+04 2.014e-09
  5.31428    -73.0 1.316e+04 2.030e-09
  5.33382    -72.7 1.304e+04 2.094e-09
  5.35335    -72.2 1.297e+04 2.106e-09
  5.37288    -72.1 1.276e+04 1.958e-09
  5.40228    -72.6 1.242e+04 1.667e-09
  5.44144    -72.9 1.186e+04 1.332e-09
  5.48050    -73.2 1.159e+04 1.206e-09
  5.51957    -73.9 1.152e+04 1.179e-09
  5.55863    -74.8 1.166e+04 1.263e-09
  5.58783    -75.1 1.197e+04 1.497e-09
  5.60726    -75.9 1.206e+04 1.558e-09
  5.62680    -77.1 1.207e+04 1.608e-09
  5.64633    -78.0 1.204e+04 1.615e-09
  5.66586    -78.7 1.181e+04 1.530e-09
  5.68539    -79.3 1.150e+04 1.329e-09
  5.70492    -80.1 1.109e+04 1.055e-09
  5.72446    -81.0 1.057e+04 7.683e-10
  5.74399    -82.1 9.909e+03 5.229e-10
  5.76352    -83.3 9.266e+03 3.633e-10
  5.78305    -84.4 8.953e+03 2.964e-10
  5.80258    -85.2 8.907e+03 2.837e-10
  5.82212    -86.5 8.934e+03 2.834e-10
  5.84165    -88.5 9.395e+03 3.305e-10
  5.86118    -90.8 1.019e+04 5.502e-10
  5.88071    -91.9 1.091e+04 9.361e-10
  5.90024    -92.2 1.151e+04 1.391e-09
  5.91978    -92.2 1.193e+04 1.742e-09
  5.93931    -92.4 1.207e+04 1.847e-09
  5.95884    -92.7 1.206e+04 1.836e-09
  5.97837    -92.9 1.173e+04 1.541e-09
  5.99790    -93.3 1.121e+04 1.155e-09
  6.01744    -94.2 1.069e+04 8.801e-10
  6.03697    -95.1 1.029e+04 7.200e-10
  6.05650    -95.8 1.005e+04 6.410e-10
  6.07603    -96.2 9.973e+03 6.139e-10
  6.09556    -96.5 9.959e+03 6.089e-10
  6.11510    -97.0 1.004e+04 6.252e-10
  6.13463    -97.8 1.026e+04 6.692e-10
  6.15416    -99.0 1.056e+04 7.313e-10
  6.18356   -101.1 1.100e+04 8.395e-10
  6.21285   -101.9 1.120e+04 1.029e-09
  6.23229   -103.1 1.144e+04 1.138e-09
  6.25182   -106.3 1.242e+04 1.438e-09
  6.27135   -113.0 1.571e+04 2.523e-09
  6.29088   -120.2 1.857e+04 6.001e-09
  6.31042   -125.8 1.978e+04 1.293e-08
  6.32502   -128.7 2.030e+04 1.881e-08
  6.33473   -130.1 2.050e+04 2.161e-08
  6.34450   -132.4 2.051e+04 2.576e-08
  6.35427   -134.0 2.044e+04 2.659e-08
  6.36403   -135.2 1.997e+04 2.624e-08
  6.37380   -135.8 1.928e+04 2.065e-08
  6.38356   -137.0 1.865e+04 1.363e-08
  6.39333   -138.9 1.775e+04 8.277e-09
  6.40310   -141.4 1.650e+04 5.128e-09
  6.41286   -143.4 1.538e+04 3.662e-09
  6.42756   -145.0 1.456e+04 2.764e-09
  6.44714   -147.6 1.295e+04 1.473e-09
  6.46667   -150.1 1.106e+04 7.584e-10
  6.48620   -151.6 1.009e+04 5.154e-10
  6.50574   -151.8 9.757e+03 4.489e-10
  6.52527   -151.8 9.610e+03 4.185e-10
  6.54184   -151.0 9.487e+03 3.905e-10
  6.55161   -150.5 9.572e+03 4.157e-10
  6.56433   -149.7 9.523e+03 3.956e-10
  6.58386   -149.0 9.479e+03 3.731e-10
  6.60340   -148.4 9.445e+03 3.540e-10
  6.62293   -147.9 9.450e+03 3.464e-10
  6.64246   -147.7 9.477e+03 3.457e-10
  6.66199   -147.8 9.719e+03 3.589e-10
  6.68152   -148.5 1.018e+04 4.202e-10
  6.70106   -149.5 1.083e+04 5.722e-10
  6.72059   -150.3 1.145e+04 8.249e-10
  6.74012   -150.7 1.193e+04 1.145e-09
  6.75965   -150.8 1.224e+04 1.448e-09
  6.77918   -150.9 1.237e+04 1.642e-09
  6.79872   -151.0 1.237e+04 1.704e-09
  6.81825   -151.0 1.233e+04 1.713e-09
  6.83778   -150.9 1.208e+04 1.604e-09
  6.85731   -150.9 1.179e+04 1.413e-09
  6.87684   -150.9 1.149e+04 1.227e-09
  6.89638   -150.9 1.116e+04 1.059e-09
  6.91591   -150.7 1.081e+04 9.087e-10
  6.93544   -150.2 1.050e+04 7.845e-10
  6.95497   -149.7 1.023e+04 6.876e-10
  6.97450   -149.1 1.001e+04 6.102e-10
  6.99404   -148.2 9.829e+03 5.464e-10
  7.01357   -147.3 9.710e+03 4.943e-10
  7.03310   -146.5 9.649e+03 4.563e-10
  7.05263   -145.7 9.629e+03 4.356e-10
  7.08203   -144.7 9.621e+03 4.103e-10
  7.12119   -142.9 9.638e+03 3.975e-10
  7.15039   -141.5 9.699e+03 3.959e-10
  7.16982   -140.7 9.713e+03 3.918e-10
  7.18936   -139.9 9.726e+03 3.887e-10
  7.20889   -139.2 9.725e+03 3.853e-10
  7.22842   -138.4 9.729e+03 3.840e-10
  7.24795   -137.7 9.721e+03 3.838e-10
  7.26748   -136.9 9.776e+03 3.858e-10
  7.28702   -136.2 9.836e+03 3.955e-10
  7.30655   -135.3 9.902e+03 4.095e-10
  7.32608   -134.6 9.975e+03 4.244e-10
  7.34561   -134.0 1.009e+04 4.435e-10
  7.36514   -133.9 1.030e+04 4.774e-10
  7.38468   -134.1 1.074e+04 5.671e-10
  7.40421   -134.9 1.144e+04 7.817e-10
  7.42374   -135.6 1.228e+04 1.212e-09
  7.44327   -136.0 1.310e+04 1.915e-09
  7.46280   -136.1 1.381e+04 2.796e-09
  7.48234   -136.1 1.429e+04 3.545e-09
  7.50187   -136.3 1.447e+04 3.818e-09
  7.52140   -136.5 1.447e+04 3.816e-09
  7.54093   -136.4 1.412e+04 3.100e-09
  7.56046   -136.6 1.349e+04 2.121e-09
  7.58000   -137.3 1.282e+04 1.462e-09
  7.59953   -138.2 1.216e+04 1.085e-09
  7.61906   -138.7 1.166e+04 9.057e-10
  7.63859   -138.8 1.146e+04 8.495e-10
  7.65812   -138.6 1.142e+04 8.403e-10
  7.67766   -138.2 1.147e+04 8.493e-10
  7.69719   -137.7 1.158e+04 9.051e-10
  7.71672   -137.0 1.169e+04 9.580e-10
  7.73625   -136.4 1.176e+04 9.896e-10
  7.75578   -135.9 1.177e+04 9.999e-10
  7.77532   -135.3 1.175e+04 1.004e-09
  7.79485   -134.7 1.172e+04 1.023e-09
  7.81438   -134.1 1.177e+04 1.056e-09
  7.83391   -133.5 1.181e+04 1.094e-09
  7.85344   -133.0 1.184e+04 1.123e-09
  7.87298   -132.5 1.184e+04 1.133e-09
  7.89251   -132.0 1.182e+04 1.133e-09
  7.91204   -131.4 1.174e+04 1.111e-09
  7.93157   -130.6 1.164e+04 1.070e-09
  7.95110   -129.8 1.152e+04 1.013e-09
  7.97064   -128.7 1.138e+04 9.388e-10
  7.99017   -127.7 1.134e+04 8.661e-10
  8.00970   -127.3 1.142e+04 8.350e-10
  8.02923   -129.1 1.558e+04 7.104e-10
  8.04876   -136.4 3.108e+04 1.013e-09
  8.06830   -143.7 3.299e+04 3.965e-09
  8.08290   -147.9 3.064e+04 9.484e-09
  8.09261   -150.4 2.630e+04 2.272e-08
  8.10238   -151.9 2.377e+04 5.112e-08
  8.11214   -152.9 2.242e+04 1.099e-07
  8.12191   -153.2 2.183e+04 2.343e-07
  8.13168   -153.0 2.151e+04 4.641e-07
  8.14144   -152.9 2.126e+04 7.493e-07
  8.15121   -153.8 2.122e+04 9.055e-07
  8.16097   -156.6 2.121e+04 8.913e-07
  8.17074   -159.4 2.146e+04 5.261e-07
  8.18051   -160.6 2.244e+04 2.090e-07
  8.19027   -160.7 2.413e+04 9.212e-08
  8.20004   -160.7 2.661e+04 3.964e-08
  8.20980   -161.7 2.943e+04 1.470e-08
  8.21957   -166.2 2.846e+04 4.953e-09
  8.22934   -172.0 2.000e+04 2.415e-09
  8.23910   -175.1 1.509e+04 2.005e-09
  8.24887   -175.5 1.437e+04 1.997e-09
  8.26357   -175.3 1.432e+04 2.127e-09
  8.28315   -174.2 1.416e+04 2.062e-09
  8.30268   -173.3 1.402e+04 1.962e-09
  8.32221   -172.6 1.377e+04 1.867e-09
  8.34174   -171.9 1.360e+04 1.839e-09
  8.36128   -171.2 1.350e+04 1.855e-09
  8.38081   -170.5 1.353e+04 1.873e-09
  8.40034   -169.7 1.350e+04 1.885e-09
  8.41987   -169.0 1.349e+04 1.884e-09
  8.43940   -168.3 1.349e+04 1.880e-09
  8.45894   -167.6 1.345e+04 1.862e-09
  8.47847   -166.9 1.335e+04 1.805e-09
  8.49800   -166.2 1.321e+04 1.714e-09
  8.51753   -165.4 1.303e+04 1.609e-09
  8.53706   -164.6 1.288e+04 1.519e-09
  8.55660   -163.8 1.277e+04 1.466e-09
  8.57613   -162.9 1.274e+04 1.453e-09
  8.59566   -161.9 1.275e+04 1.460e-09
  8.61519   -161.1 1.286e+04 1.536e-09
  8.63472   -160.2 1.300e+04 1.665e-09
  8.65426   -159.3 1.317e+04 1.829e-09
  8.67379   -158.5 1.334e+04 2.016e-09
  8.69332   -157.6 1.347e+04 2.191e-09
  8.71285   -156.8 1.350e+04 2.312e-09
  8.73238   -155.9 1.349e+04 2.358e-09
  8.75192   -155.0 1.344e+04 2.366e-09
  8.77145   -154.1 1.324e+04 2.310e-09
  8.79098   -153.1 1.302e+04 2.165e-09
  8.81051   -152.1 1.278e+04 1.982e-09
  8.82609   -151.1 1.254e+04 1.788e-09
  8.83586   -150.3 1.230e+04 1.622e-09
  8.84958   -149.2 1.206e+04 1.479e-09
  8.86911   -148.1 1.183e+04 1.347e-09
  8.88864   -147.0 1.164e+04 1.234e-09
  8.90817   -145.8 1.147e+04 1.141e-09
  8.92770   -144.6 1.132e+04 1.061e-09
  8.94724   -143.4 1.119e+04 9.909e-10
  8.96677   -142.2 1.106e+04 9.320e-10
  8.99616   -140.8 1.092e+04 8.711e-10
  9.03532   -137.9 1.059e+04 7.847e-10
  9.07439   -135.5 1.039e+04 7.223e-10
  9.11345   -133.0 1.007e+04 6.513e-10
  9.13343   -130.3 9.726e+03 5.595e-10
  9.15296   -131.2 9.429e+03 4.498e-10
  9.19158   -129.0 9.231e+03 3.995e-10
  9.23064   -126.8 9.097e+03 3.733e-10
  9.26971   -124.8 9.021e+03 3.634e-10
  9.30877   -122.9 8.991e+03 3.618e-10
  9.34784   -121.3 8.976e+03 3.627e-10
  9.38690   -119.8 8.966e+03 3.698e-10
  9.42596   -118.7 8.997e+03 3.777e-10
  9.46503   -117.7 9.050e+03 3.948e-10
  9.50409   -116.9 9.097e+03 4.127e-10
  9.54316   -115.9 9.078e+03 4.257e-10
  9.58222   -114.8 9.000e+03 4.498e-10
  9.62128   -114.1 9.405e+03 5.092e-10
  9.66035   -114.2 1.080e+04 6.414e-10
  9.68955   -116.6 1.277e+04 1.104e-09
  9.70898   -118.1 1.365e+04 1.554e-09
  9.72852   -120.5 1.440e+04 2.453e-09
  9.74805   -122.5 1.524e+04 4.018e-09
  9.76758   -124.6 1.649e+04 6.629e-09
  9.78711   -126.5 1.810e+04 1.047e-08
  9.80664   -128.6 1.957e+04 1.589e-08
  9.82618   -131.3 2.070e+04 1.887e-08
  9.84078   -135.4 2.061e+04 1.677e-08
  9.85049   -136.9 2.044e+04 1.559e-08
  9.86026   -139.1 1.958e+04 1.287e-08
  9.87002   -140.2 1.859e+04 1.029e-08
  9.87979   -142.3 1.664e+04 6.711e-09
  9.88956   -143.3 1.539e+04 4.758e-09
  9.90425   -143.8 1.456e+04 3.574e-09
  9.92384   -145.2 1.357e+04 2.288e-09
  9.94337   -146.8 1.205e+04 1.190e-09
  9.96290   -148.0 1.074e+04 6.930e-10
  9.98243   -148.6 1.010e+04 5.021e-10
 10.00196   -148.6 9.884e+03 4.202e-10
 10.02150   -148.1 9.734e+03 3.695e-10
 10.05089   -147.4 9.631e+03 3.340e-10
 10.09005   -147.1 9.567e+03 3.193e-10
 10.12912   -146.4 9.479e+03 3.078e-10
 10.16818   -145.4 9.472e+03 3.079e-10
 10.20724   -144.6 9.591e+03 3.313e-10
 10.24631   -143.9 9.728e+03 3.656e-10
 10.28537   -143.2 9.800e+03 3.848e-10
 10.32444   -142.4 9.808e+03 3.870e-10
 10.36350   -141.4 9.724e+03 3.560e-10
 10.40256   -140.2 9.526e+03 2.934e-10
 10.44163   -139.0 9.328e+03 2.392e-10
 10.48069   -137.8 9.206e+03 2.084e-10
 10.51976   -136.5 9.142e+03 1.961e-10
 10.55882   -135.1 9.127e+03 1.930e-10
 10.59788   -134.5 9.960e+03 2.353e-10
 10.62708   -133.2 9.451e+03 2.020e-10
 10.64652   -133.9 1.116e+04 2.931e-10
 10.66605   -134.5 1.267e+04 4.639e-10
 10.68558   -134.9 1.366e+04 7.912e-10
 10.70512   -135.1 1.404e+04 1.277e-09
 10.72465   -134.9 1.417e+04 1.876e-09
 10.74418   -134.4 1.416e+04 2.501e-09
 10.76371   -133.6 1.414e+04 2.941e-09
 10.78324   -132.8 1.400e+04 3.227e-09
 10.80278   -132.1 1.387e+04 3.286e-09
 10.82231   -131.5 1.369e+04 3.202e-09
 10.84184   -131.0 1.356e+04 3.023e-09
 10.86137   -130.6 1.342e+04 2.901e-09
 10.88090   -130.3 1.322e+04 2.758e-09
 10.90044   -130.1 1.312e+04 2.605e-09
 10.91997   -129.8 1.310e+04 2.485e-09
 10.93950   -129.4 1.314e+04 2.386e-09
 10.95903   -129.1 1.323e+04 2.281e-09
 10.97856   -128.8 1.336e+04 2.141e-09
 10.99810   -128.7 1.350e+04 1.947e-09
 11.01763   -128.7 1.355e+04 1.722e-09
 11.03716   -128.9 1.341e+04 1.496e-09
 11.05669   -129.5 1.297e+04 1.293e-09
 11.07622   -130.1 1.237e+04 1.144e-09
 11.09576   -130.5 1.185e+04 1.058e-09
 11.11034   -130.6 1.151e+04 1.002e-09
 11.12010   -130.7 1.183e+04 1.173e-09
 11.13482   -130.7 1.138e+04 1.046e-09
 11.15435   -130.0 1.101e+04 9.121e-10
 11.17388   -129.3 1.067e+04 7.530e-10
 11.19342   -128.5 1.031e+04 5.802e-10
 11.21295   -128.0 9.975e+03 4.362e-10
 11.23248   -127.7 9.750e+03 3.569e-10
 11.26187   -127.4 9.620e+03 3.171e-10
 11.30104   -126.6 9.357e+03 2.743e-10
 11.34010   -124.9 9.098e+03 2.446e-10
 11.37916   -122.9 8.987e+03 2.313e-10
 11.41823   -120.6 8.985e+03 2.293e-10
 11.45729   -118.1 9.078e+03 2.353e-10
 11.48649   -116.6 9.183e+03 2.464e-10
 11.50593   -116.4 9.240e+03 2.633e-10
 11.52546   -116.5 9.668e+03 3.646e-10
 11.54499   -117.3 1.062e+04 6.066e-10
 11.56452   -117.9 1.189e+04 1.112e-09
 11.58406   -118.3 1.319e+04 1.996e-09
 11.60359   -118.5 1.439e+04 3.287e-09
 11.62312   -118.9 1.545e+04 4.780e-09
 11.64265   -119.6 1.634e+04 6.053e-09
 11.66218   -121.1 1.701e+04 6.614e-09
 11.68172   -123.5 1.724e+04 6.677e-09
 11.70125   -126.4 1.688e+04 5.502e-09
 11.72078   -129.4 1.601e+04 4.420e-09
 11.74031   -131.8 1.503e+04 3.618e-09
 11.75984   -133.3 1.426e+04 3.039e-09
 11.77938   -134.1 1.367e+04 2.562e-09
 11.79891   -134.7 1.322e+04 2.139e-09
 11.81844   -135.3 1.274e+04 1.760e-09
 11.83797   -136.0 1.224e+04 1.456e-09
 11.85750   -136.6 1.176e+04 1.244e-09
 11.87704   -136.8 1.141e+04 1.118e-09
 11.89657   -136.9 1.116e+04 1.048e-09
 11.91610   -136.8 1.096e+04 9.893e-10
 11.93563   -136.2 1.071e+04 9.032e-10
 11.95516   -135.4 1.042e+04 7.792e-10
 11.97469   -134.6 1.010e+04 6.348e-10
 11.99423   -134.0 9.779e+03 5.059e-10
 12.01376   -133.7 9.538e+03 4.204e-10
 12.04315   -133.5 9.317e+03 3.512e-10
 12.08232   -132.0 8.839e+03 2.497e-10
 12.12138   -129.8 8.310e+03 1.695e-10
 12.16044   -127.6 7.900e+03 1.176e-10
 12.19951   -125.5 7.642e+03 8.612e-11
 12.23857   -123.5 7.512e+03 6.813e-11
 12.27764   -121.5 7.483e+03 5.996e-11
 12.31670   -119.4 7.485e+03 5.802e-11
 12.35576   -117.3 7.490e+03 5.790e-11
 12.39483   -115.4 7.620e+03 6.233e-11
 12.43389   -113.7 7.936e+03 8.772e-11
 12.47296   -111.8 8.305e+03 1.381e-10
 12.51202   -109.7 8.699e+03 2.145e-10
 12.55108   -107.4 9.096e+03 3.074e-10
 12.59015   -105.0 9.412e+03 3.866e-10
 12.62921   -102.8 9.552e+03 4.236e-10
 12.65841   -101.4 9.684e+03 4.643e-10
 12.67785   -100.5 9.729e+03 4.749e-10
 12.69738    -99.3 9.851e+03 5.003e-10
 12.71691    -98.1 1.008e+04 5.466e-10
 12.73644    -97.1 1.038e+04 6.245e-10
 12.75597    -96.0 1.069e+04 7.301e-10
 12.77551    -94.9 1.101e+04 8.693e-10
 12.79504    -93.6 1.141e+04 1.059e-09
 12.81457    -92.6 1.185e+04 1.303e-09
 12.83410    -91.8 1.231e+04 1.610e-09
 12.85363    -91.1 1.284e+04 2.020e-09
 12.87317    -90.6 1.349e+04 2.615e-09
 12.89270    -90.1 1.427e+04 3.540e-09
 12.91223    -89.4 1.520e+04 4.909e-09
 12.93176    -88.8 1.619e+04 6.672e-09
 12.95129    -88.3 1.712e+04 8.485e-09
 12.97083    -88.0 1.799e+04 9.947e-09
 12.99036    -87.9 1.885e+04 1.099e-08
 13.00989    -88.2 1.961e+04 1.142e-08
 13.02942    -88.8 2.073e+04 1.113e-08
 13.04402    -91.0 2.292e+04 1.496e-08
 13.05374    -92.9 2.405e+04 2.053e-08
 13.06351    -94.3 2.369e+04 2.903e-08
 13.07327    -95.3 2.265e+04 3.720e-08
 13.08304    -96.2 2.215e+04 4.353e-08
 13.09280    -97.0 2.178e+04 4.704e-08
 13.10257    -97.7 2.137e+04 4.813e-08
 13.11234    -98.3 2.040e+04 4.795e-08
 13.12210    -98.9 1.977e+04 4.718e-08
 13.13187    -99.5 1.958e+04 4.733e-08
 13.14163   -100.3 1.946e+04 4.842e-08
 13.15140   -101.3 1.932e+04 4.871e-08
 13.16117   -101.6 1.889e+04 4.423e-08
 13.17093   -101.6 1.856e+04 3.679e-08
 13.18070   -101.5 1.864e+04 3.000e-08
 13.19046   -101.6 1.895e+04 2.492e-08
 13.20023   -102.3 1.905e+04 2.140e-08
 13.21000   -103.1 1.882e+04 1.906e-08
 13.22469   -103.6 1.855e+04 1.727e-08
 13.24427   -103.6 1.829e+04 1.549e-08
 13.26381   -103.1 1.826e+04 1.467e-08
 13.28334   -102.4 1.816e+04 1.409e-08
 13.30287   -101.7 1.795e+04 1.331e-08
 13.32240   -100.8 1.766e+04 1.201e-08
 13.34193    -99.7 1.736e+04 1.020e-08
 13.36147    -98.6 1.702e+04 8.003e-09
 13.38100    -97.6 1.663e+04 5.769e-09
 13.39458    -96.7 1.619e+04 3.907e-09
 13.40435    -96.5 1.616e+04 1.867e-09
 13.42006    -96.4 1.505e+04 1.272e-09
 13.43959    -96.4 1.374e+04 9.545e-10
 13.45913    -96.4 1.265e+04 8.329e-10
 13.47866    -96.3 1.217e+04 8.064e-10
 13.49819    -95.8 1.200e+04 8.735e-10
 13.52759    -94.9 1.206e+04 1.002e-09
 13.56675    -93.0 1.191e+04 1.084e-09
 13.60581    -90.7 1.170e+04 1.082e-09
 13.64488    -88.2 1.135e+04 9.753e-10
 13.68394    -85.5 1.089e+04 7.572e-10
 13.71314    -83.3 1.045e+04 5.460e-10
 13.73257    -82.4 1.030e+04 4.819e-10
 13.75211    -80.6 1.006e+04 3.596e-10
 13.77164    -79.9 1.001e+04 3.254e-10
 13.79117    -78.5 1.002e+04 2.908e-10
 13.81070    -77.9 1.003e+04 2.872e-10
 13.83023    -77.2 1.016e+04 2.863e-10
 13.84977    -77.4 1.041e+04 3.088e-10
 13.87916    -78.4 1.161e+04 4.472e-10
 13.90846    -79.9 1.296e+04 8.646e-10
 13.92789    -81.0 1.417e+04 1.604e-09
 13.94743    -81.3 1.516e+04 3.255e-09
 13.96696    -80.9 1.545e+04 4.310e-09
 13.98649    -81.1 1.539e+04 4.502e-09
 14.00602    -81.6 1.460e+04 3.923e-09
 14.02555    -82.6 1.341e+04 2.454e-09
 14.04509    -84.9 1.203e+04 1.361e-09
 14.06462    -88.0 1.122e+04 9.065e-10
 14.08415    -90.8 1.101e+04 8.093e-10
 14.10368    -93.3 1.107e+04 8.040e-10
 14.12321    -95.6 1.153e+04 9.726e-10
 14.14275    -97.2 1.186e+04 1.272e-09
 14.16228    -98.4 1.202e+04 1.475e-09
 14.18181    -99.5 1.203e+04 1.518e-09
 14.20134   -100.5 1.177e+04 1.433e-09
 14.22087   -101.3 1.136e+04 1.188e-09
 14.24041   -102.0 1.107e+04 9.862e-10
 14.26980   -102.9 1.090e+04 8.322e-10
 14.29910   -103.4 1.043e+04 6.617e-10
 14.31853   -103.6 1.038e+04 6.371e-10
 14.33807   -104.2 1.036e+04 6.298e-10
 14.35760   -105.0 1.060e+04 7.188e-10
 14.37713   -105.4 1.088e+04 8.766e-10
 14.39666   -105.7 1.116e+04 1.056e-09
 14.41619   -105.9 1.134e+04 1.193e-09
 14.43573   -106.1 1.140e+04 1.240e-09
 14.45526   -106.5 1.137e+04 1.225e-09
 14.47479   -106.8 1.115e+04 1.112e-09
 14.49432   -107.2 1.080e+04 9.428e-10
 14.51385   -107.7 1.039e+04 7.660e-10
 14.53339   -108.4 9.962e+03 5.948e-10
 14.55292   -109.1 9.537e+03 4.490e-10
 14.58231   -110.1 9.095e+03 3.366e-10
 14.62148   -110.3 8.857e+03 2.969e-10
 14.66054   -110.7 8.785e+03 2.839e-10
 14.69960   -111.2 8.789e+03 2.828e-10
 14.73867   -111.8 8.806e+03 2.836e-10
 14.77773   -112.5 8.788e+03 2.659e-10
 14.81680   -113.2 8.683e+03 2.278e-10
 14.85586   -113.8 8.544e+03 1.912e-10
 14.89492   -114.2 8.446e+03 1.697e-10
 14.93399   -114.4 8.389e+03 1.560e-10
 14.97305   -114.1 8.366e+03 1.513e-10
 15.01212   -113.1 8.359e+03 1.498e-10
 15.05118   -111.9 8.411e+03 1.503e-10
 15.09024   -110.6 8.445e+03 1.508e-10
 15.12931   -109.2 8.496e+03 1.523e-10
 15.16837   -108.1 8.631e+03 1.570e-10
 15.20744   -107.6 9.056e+03 1.793e-10
 15.24650   -107.8 1.017e+04 3.094e-10
 15.28556   -108.4 1.161e+04 6.923e-10
 15.31476   -108.4 1.226e+04 9.973e-10
 15.33420   -108.8 1.289e+04 1.512e-09
 15.35373   -109.1 1.347e+04 2.255e-09
 15.37326   -109.3 1.401e+04 3.177e-09
 15.39279   -109.5 1.425e+04 3.578e-09
 15.41233   -109.8 1.425e+04 3.594e-09
 15.43186   -109.8 1.381e+04 2.855e-09
 15.45139   -109.8 1.307e+04 1.942e-09
 15.47092   -110.0 1.235e+04 1.326e-09
 15.49045   -110.0 1.187e+04 9.653e-10
 15.50999   -110.0 1.147e+04 7.246e-10
 15.52952   -109.7 1.120e+04 5.829e-10
 15.54905   -109.3 1.089e+04 4.388e-10
 15.56858   -108.6 1.083e+04 4.051e-10
 15.58811   -108.1 1.082e+04 3.917e-10
 15.60765   -107.6 1.082e+04 3.908e-10
 15.62718   -106.9 1.086e+04 4.015e-10
 15.64671   -106.4 1.092e+04 4.252e-10
 15.66624   -105.7 1.099e+04 4.595e-10
 15.67883   -105.2 1.104e+04 4.836e-10
 15.68860   -105.7 1.114e+04 5.372e-10
 15.70531   -105.1 1.116e+04 5.453e-10
 15.72484   -104.4 1.115e+04 5.453e-10
 15.74437   -103.6 1.106e+04 5.040e-10
 15.76390   -102.8 1.095e+04 4.400e-10
 15.79330   -101.8 1.083e+04 3.745e-10
 15.83246   -100.4 1.057e+04 2.940e-10
 15.87152    -98.5 1.020e+04 2.064e-10
 15.91059    -96.4 9.996e+03 1.460e-10
 15.94965    -94.4 9.969e+03 1.105e-10
 15.98872    -92.6 1.002e+04 9.296e-11
 16.02778    -90.8 1.005e+04 8.622e-11
 16.06684    -89.0 1.011e+04 8.333e-11
 16.10591    -87.3 1.018e+04 8.307e-11
 16.14497    -85.8 1.036e+04 8.609e-11
 16.18404    -84.7 1.060e+04 1.038e-10
 16.22310    -83.8 1.076e+04 1.556e-10
 16.26216    -82.8 1.096e+04 2.565e-10
 16.30123    -81.7 1.124e+04 3.987e-10
 16.34029    -80.7 1.150e+04 5.325e-10
 16.37936    -80.0 1.159e+04 5.855e-10
 16.41842    -79.4 1.153e+04 5.838e-10
 16.45748    -78.6 1.135e+04 5.304e-10
 16.49655    -77.5 1.117e+04 4.709e-10
 16.52575    -76.6 1.118e+04 4.841e-10
 16.54518    -76.0 1.099e+04 4.386e-10
 16.57458    -75.0 1.078e+04 3.713e-10
 16.61374    -73.7 1.065e+04 3.267e-10
 16.65280    -72.1 1.046e+04 2.717e-10
 16.69187    -70.3 1.021e+04 2.205e-10
 16.73093    -68.4 9.992e+03 1.870e-10
 16.77000    -66.3 9.823e+03 1.721e-10
 16.80906    -64.2 9.717e+03 1.690e-10
 16.84812    -61.9 9.652e+03 1.699e-10
 16.88719    -59.5 9.569e+03 1.718e-10
 16.92625    -57.0 9.515e+03 1.682e-10
 16.96532    -54.6 9.431e+03 1.610e-10
 17.00438    -52.2 9.370e+03 1.530e-10
 17.04344    -49.8 9.353e+03 1.506e-10
 17.08251    -47.6 9.358e+03 1.518e-10
 17.12157    -45.6 9.373e+03 1.721e-10
 17.16064    -43.6 9.425e+03 2.119e-10
 17.19970    -41.6 9.498e+03 2.615e-10
 17.23876    -39.6 9.566e+03 3.096e-10
 17.27783    -37.6 9.568e+03 3.378e-10
 17.31689    -35.7 9.542e+03 3.420e-10
 17.35596    -33.7 9.355e+03 3.157e-10
 17.39502    -31.6 9.190e+03 2.710e-10
 17.43408    -29.7 9.035e+03 2.240e-10
 17.47315    -27.9 8.893e+03 1.820e-10
 17.51221    -26.2 8.751e+03 1.490e-10
 17.55128    -24.2 8.607e+03 1.272e-10
 17.59034    -22.2 8.493e+03 1.166e-10
 17.62940    -19.9 8.427e+03 1.101e-10
 17.66847    -17.7 8.396e+03 1.072e-10
 17.70753    -15.3 8.380e+03 1.077e-10
 17.74660    -12.8 8.353e+03 1.140e-10
 17.78566    -10.3 8.348e+03 1.211e-10
 17.82472     -7.8 8.396e+03 1.304e-10
 17.86379     -5.6 8.462e+03 1.467e-10
 17.90285     -3.5 8.543e+03 1.750e-10
 17.94192     -1.2 8.633e+03 2.048e-10
 17.96327      1.2 8.612e+03 2.253e-10
 17.98281      1.6 8.636e+03 2.400e-10
 18.02004      4.2 8.617e+03 2.258e-10
 18.05911      6.2 8.611e+03 1.968e-10
 18.09817      8.0 8.544e+03 1.880e-10
 18.13724     10.1 8.482e+03 1.912e-10
 18.17630     12.5 8.423e+03 1.932e-10
 18.21536     14.8 8.395e+03 1.927e-10
 18.25443     17.0 8.426e+03 1.932e-10
 18.29349     18.9 8.537e+03 2.097e-10
 18.33256     20.7 8.670e+03 2.371e-10
 18.37162     22.7 8.799e+03 2.660e-10
 18.41068     24.5 8.896e+03 2.868e-10
 18.44975     26.2 8.998e+03 3.050e-10
 18.48881     27.6 9.134e+03 3.321e-10
 18.52788     29.0 9.255e+03 3.663e-10
 18.56694     30.3 9.351e+03 3.970e-10
 18.60600     31.5 9.439e+03 4.193e-10
 18.64507     32.6 9.533e+03 4.425e-10
 18.68413     33.5 9.623e+03 4.785e-10
 18.72320     34.5 9.692e+03 5.185e-10
 18.76226     35.5 9.656e+03 5.165e-10
 18.80132     36.7 9.471e+03 4.817e-10
 18.84039     38.3 9.180e+03 4.075e-10
 18.87945     40.2 8.820e+03 3.046e-10
 18.91852     42.0 8.484e+03 2.013e-10
 18.95758     43.4 8.188e+03 1.268e-10
 18.99664     44.7 7.956e+03 9.975e-11
 19.03571     46.5 7.934e+03 9.966e-11
 19.07477     48.4 7.963e+03 1.061e-10
 19.11384     50.3 8.084e+03 1.277e-10
 19.15290     52.4 8.273e+03 1.641e-10
 19.19196     54.5 8.676e+03 2.295e-10
 19.23103     56.6 9.183e+03 3.241e-10
 19.26023     57.3 9.394e+03 3.759e-10
 19.27966     57.9 9.572e+03 4.299e-10
 19.29919     58.5 9.820e+03 5.239e-10
 19.31873     59.3 1.017e+04 6.680e-10
 19.33826     60.3 1.061e+04 8.651e-10
 19.35779     61.2 1.103e+04 1.094e-09
 19.37732     62.2 1.141e+04 1.316e-09
 19.39685     63.2 1.177e+04 1.514e-09
 19.41639     63.3 1.240e+04 1.749e-09
 19.43592     62.2 1.422e+04 2.376e-09
 19.45545     59.9 1.621e+04 3.738e-09
 19.47498     58.4 1.697e+04 5.838e-09
 19.49451     58.5 1.691e+04 8.259e-09
 19.51405     59.1 1.659e+04 9.743e-09
 19.53358     59.9 1.665e+04 1.069e-08
 19.55311     60.5 1.684e+04 1.146e-08
 19.57264     60.3 1.741e+04 1.112e-08
 19.59217     59.2 1.856e+04 9.959e-09
 19.61171     56.9 2.052e+04 7.742e-09
 19.63124     54.0 2.218e+04 4.895e-09
 19.65077     50.9 2.048e+04 2.770e-09
 19.67030     47.9 1.546e+04 1.728e-09
 19.68983     46.3 1.152e+04 1.365e-09
 19.70937     46.3 1.100e+04 1.206e-09
 19.72890     46.9 1.074e+04 1.045e-09
 19.74843     47.3 1.050e+04 9.061e-10
 19.76796     47.6 1.057e+04 8.178e-10
 19.78525     48.1 1.057e+04 7.486e-10
 19.79502     48.6 1.077e+04 7.649e-10
 19.80703     48.9 1.051e+04 6.804e-10
 19.82656     49.5 1.054e+04 6.700e-10
 19.84609     50.2 1.060e+04 6.716e-10
 19.86562     51.0 1.069e+04 6.773e-10
 19.88515     51.8 1.079e+04 6.838e-10
 19.90469     52.9 1.086e+04 6.863e-10
 19.92422     53.7 1.100e+04 7.137e-10
 19.94375     53.0 1.189e+04 8.699e-10
 19.96328     48.3 1.644e+04 1.569e-09
 19.98281     39.0 2.192e+04 5.782e-09
 19.99741     34.1 2.247e+04 1.123e-08
 20.00713     32.1 2.216e+04 1.921e-08
 20.01690     31.8 2.197e+04 2.970e-08
 20.02666     32.2 2.163e+04 3.888e-08
 20.03643     32.9 2.140e+04 3.801e-08
 20.04620     33.2 2.108e+04 3.268e-08
 20.05596     32.8 2.107e+04 2.278e-08
 20.06573     31.5 2.066e+04 1.582e-08
 20.08043     30.0 1.891e+04 1.074e-08
 20.10001     27.1 1.561e+04 4.645e-09
 20.11954     26.1 1.319e+04 2.301e-09
 20.13907     25.6 1.209e+04 1.516e-09
 20.16847     27.4 1.110e+04 9.636e-10
 20.20763     29.2 1.025e+04 6.922e-10
 20.24669     31.5 9.973e+03 5.922e-10
 20.28576     33.9 9.919e+03 5.782e-10
 20.32482     36.5 9.947e+03 5.883e-10
 20.36388     38.7 1.007e+04 6.224e-10
 20.40295     41.1 1.030e+04 6.729e-10
 20.43215     42.7 9.948e+03 5.649e-10
 20.45158     43.5 9.812e+03 5.252e-10
 20.47111     43.9 9.905e+03 5.459e-10
 20.49065     44.1 1.011e+04 6.204e-10
 20.51018     44.1 1.041e+04 7.624e-10
 20.52971     44.0 1.077e+04 9.708e-10
 20.54924     44.0 1.122e+04 1.268e-09
 20.56877     44.2 1.171e+04 1.647e-09
 20.58831     44.6 1.216e+04 2.076e-09
 20.60784     45.0 1.253e+04 2.422e-09
 20.62737     45.2 1.274e+04 2.537e-09
 20.64690     45.3 1.269e+04 2.457e-09
 20.66643     45.3 1.246e+04 2.185e-09
 20.68597     45.2 1.212e+04 1.887e-09
 20.70550     45.0 1.171e+04 1.593e-09
 20.72503     44.7 1.129e+04 1.301e-09
 20.74456     44.3 1.096e+04 1.077e-09
 20.76409     43.8 1.071e+04 9.214e-10
 20.78363     43.3 1.055e+04 8.600e-10
 20.80316     42.9 1.055e+04 8.703e-10
 20.82269     42.2 1.069e+04 9.550e-10
 20.84222     41.5 1.106e+04 1.175e-09
 20.86175     41.3 1.145e+04 1.502e-09
 20.88129     41.6 1.178e+04 1.883e-09
 20.90082     42.4 1.195e+04 1.994e-09
 20.92035     42.5 1.196e+04 1.988e-09
 20.94975     43.0 1.161e+04 1.693e-09
 20.98891     44.0 1.094e+04 1.209e-09
 21.02797     45.0 1.011e+04 7.328e-10
 21.06704     45.6 9.334e+03 4.240e-10
 21.10610     46.2 8.796e+03 3.049e-10
 21.14516     47.6 8.724e+03 3.004e-10
 21.18423     49.5 8.747e+03 3.117e-10
 21.22329     51.5 8.836e+03 3.389e-10
 21.26236     53.6 8.863e+03 3.458e-10
 21.30142     55.7 8.813e+03 3.207e-10
 21.34048     57.6 8.735e+03 2.846e-10
 21.37955     59.4 8.760e+03 2.860e-10
 21.41861     61.0 8.964e+03 3.265e-10
 21.45768     62.3 9.524e+03 4.832e-10
 21.49674     63.9 1.030e+04 7.983e-10
 21.53580     65.7 1.091e+04 1.177e-09
 21.57487     67.2 1.101e+04 1.251e-09
 21.61393     68.7 1.089e+04 1.174e-09
 21.65300     70.4 1.045e+04 9.110e-10
 21.69206     72.1 9.885e+03 6.176e-10
 21.73112     73.7 9.304e+03 3.949e-10
 21.77019     75.3 8.848e+03 2.847e-10
 21.80925     77.4 8.774e+03 2.764e-10
 21.84831     79.8 8.776e+03 2.821e-10
 21.88738     82.5 8.917e+03 3.222e-10
 21.92644     85.1 9.216e+03 3.950e-10
 21.96551     87.1 9.427e+03 4.635e-10
 21.99471     88.4 9.566e+03 5.259e-10
 22.01414     89.7 9.734e+03 5.874e-10
 22.03367     91.0 9.853e+03 6.070e-10
 22.05321     91.9 9.900e+03 6.076e-10
 22.07274     92.9 9.883e+03 5.926e-10
 22.09227     93.8 9.849e+03 5.666e-10
 22.11180     94.9 9.748e+03 5.172e-10
 22.13133     95.9 9.642e+03 4.653e-10
 22.16073     97.7 9.450e+03 3.739e-10
 22.19989     99.8 9.212e+03 2.787e-10
 22.23895    101.8 9.012e+03 2.143e-10
 22.27802    103.9 8.910e+03 1.894e-10
 22.31708    106.2 8.911e+03 1.900e-10
 22.35615    108.5 8.932e+03 1.982e-10
 22.39521    110.7 8.998e+03 2.217e-10
 22.43427    113.0 9.101e+03 2.587e-10
 22.47334    115.2 9.219e+03 3.000e-10
 22.51224    117.3 9.330e+03 3.365e-10
 22.55130    119.4 9.125e+03 3.040e-10
 22.59053    121.3 9.197e+03 3.266e-10
 22.62959    123.1 9.254e+03 3.440e-10
 22.66866    124.9 9.241e+03 3.564e-10
 22.70772    126.7 9.230e+03 3.558e-10
 22.74679    128.6 9.153e+03 3.414e-10
 22.78585    130.5 9.000e+03 3.138e-10
 22.82491    132.5 8.821e+03 2.824e-10
 22.86398    134.6 8.647e+03 2.536e-10
 22.90304    136.7 8.510e+03 2.338e-10
 22.94211    138.9 8.503e+03 2.286e-10
 22.98117    141.0 8.504e+03 2.300e-10
 23.02023    143.0 8.541e+03 2.352e-10
 23.05930    144.8 8.720e+03 2.550e-10
 23.09836    146.4 9.011e+03 2.978e-10
 23.13743    147.1 9.273e+03 3.522e-10
 23.16663    146.9 9.704e+03 4.829e-10
 23.18606    147.1 1.011e+04 6.450e-10
 23.20559    147.3 1.053e+04 8.452e-10
 23.22513    147.6 1.093e+04 1.063e-09
 23.24466    147.9 1.126e+04 1.243e-09
 23.26419    148.1 1.148e+04 1.311e-09
 23.28372    148.4 1.151e+04 1.299e-09
 23.30325    148.6 1.151e+04 1.228e-09
 23.32279    148.6 1.143e+04 1.037e-09
 23.34232    148.5 1.133e+04 8.994e-10
 23.36185    148.3 1.118e+04 7.343e-10
 23.38138    148.1 1.102e+04 6.264e-10
 23.40091    147.8 1.081e+04 5.090e-10
 23.42045    147.5 1.058e+04 4.269e-10
 23.44984    147.8 1.050e+04 3.576e-10
 23.48900    147.3 1.008e+04 2.482e-10
 23.52807    147.1 9.989e+03 2.307e-10
 23.56713    147.0 1.004e+04 2.381e-10
 23.60619    146.7 1.017e+04 2.688e-10
 23.63540    146.6 1.043e+04 3.387e-10
 23.65483    146.6 1.074e+04 4.676e-10
 23.67436    146.7 1.107e+04 6.585e-10
 23.69389    146.7 1.142e+04 9.014e-10
 23.71343    146.8 1.179e+04 1.169e-09
 23.73296    146.8 1.216e+04 1.437e-09
 23.75249    146.7 1.257e+04 1.638e-09
 23.77202    146.1 1.291e+04 1.732e-09
 23.79155    145.1 1.329e+04 1.759e-09
 23.81109    143.8 1.372e+04 1.688e-09
 23.83062    142.3 1.392e+04 1.548e-09
 23.85015    141.2 1.395e+04 1.306e-09
 23.86968    140.4 1.358e+04 1.055e-09
 23.88921    140.0 1.307e+04 8.641e-10
 23.91861    139.7 1.215e+04 6.029e-10
 23.95777    139.7 1.067e+04 4.067e-10
 23.99683    140.1 9.786e+03 3.065e-10
 24.02604    140.8 9.664e+03 2.792e-10
 24.04547    141.7 9.650e+03 2.775e-10
 24.06500    142.9 9.623e+03 2.774e-10
 24.08453    143.7 9.640e+03 2.826e-10
 24.10407    144.6 9.705e+03 3.013e-10
 24.12360    145.4 9.867e+03 3.482e-10
 24.14313    146.2 1.015e+04 4.358e-10
 24.16266    146.6 1.068e+04 5.905e-10
 24.18219    146.6 1.152e+04 8.693e-10
 24.20173    146.5 1.260e+04 1.367e-09
 24.22126    146.7 1.362e+04 2.144e-09
 24.24079    147.2 1.451e+04 3.106e-09
 24.26032    147.6 1.496e+04 3.745e-09
 24.27985    147.6 1.495e+04 3.722e-09
 24.29939    147.5 1.465e+04 3.341e-09
 24.31892    147.3 1.383e+04 2.532e-09
 24.34831    146.6 1.153e+04 9.190e-10
 24.38747    146.0 9.138e+03 3.301e-10
 24.42654    145.5 7.693e+03 1.286e-10
 24.46560    145.8 7.687e+03 1.068e-10
 24.50467    147.4 7.616e+03 1.045e-10
 24.54373    149.9 7.607e+03 1.046e-10
 24.58279    152.5 7.611e+03 1.069e-10
 24.62186    155.0 7.673e+03 1.127e-10
 24.66092    157.6 7.776e+03 1.217e-10
 24.69999    160.1 7.912e+03 1.346e-10
 24.73905    162.6 8.068e+03 1.513e-10
 24.77811    165.2 8.238e+03 1.692e-10
 24.81718    167.7 8.404e+03 1.848e-10
 24.85624    170.1 8.563e+03 1.959e-10
 24.89531    172.5 8.722e+03 2.036e-10
 24.93437    174.8 8.887e+03 2.099e-10
 24.97343    176.9 9.066e+03 2.162e-10
 25.01250    179.1 9.271e+03 2.206e-10
 25.05156    181.1 9.484e+03 2.201e-10
 25.09063    183.1 9.533e+03 2.190e-10
 25.12969    185.1 9.563e+03 2.146e-10
 25.16875    187.1 9.586e+03 2.014e-10
 25.20782    188.9 9.529e+03 1.816e-10
 25.24688    190.7 9.409e+03 1.579e-10
 25.28595    192.3 9.246e+03 1.338e-10
 25.32501    193.8 9.061e+03 1.124e-10
 25.36407    195.2 8.864e+03 9.526e-11
 25.40314    196.7 8.692e+03 8.190e-11
 25.44220    198.3 8.543e+03 7.243e-11
 25.48127    200.0 8.381e+03 6.997e-11
 25.52033    201.8 8.366e+03 7.007e-11
 25.55939    203.7 8.362e+03 7.093e-11
 25.59846    205.5 8.362e+03 7.527e-11
 25.63752    207.2 8.399e+03 8.925e-11
 25.67659    208.7 8.523e+03 1.191e-10
 25.71565    210.2 8.740e+03 1.721e-10
 25.75471    211.5 8.995e+03 2.471e-10
 25.79378    212.5 9.200e+03 3.114e-10
 25.83284    213.0 9.249e+03 3.191e-10
 25.87191    213.3 9.231e+03 3.084e-10
 25.91097    213.6 9.111e+03 2.604e-10
 25.95003    213.9 8.865e+03 1.888e-10
 25.98910    214.3 8.503e+03 1.300e-10
 26.02816    214.7 8.107e+03 1.077e-10
 26.06723    215.6 8.039e+03 1.077e-10
 26.10629    216.7 8.000e+03 1.118e-10
 26.14535    218.0 7.974e+03 1.283e-10
 26.18442    219.3 8.088e+03 1.574e-10
 26.22348    220.5 8.293e+03 1.952e-10
 26.26255    221.7 8.523e+03 2.337e-10
 26.30161    222.7 8.726e+03 2.596e-10
 26.34067    223.5 8.808e+03 2.627e-10
 26.37974    224.3 8.806e+03 2.613e-10
 26.41880    225.2 8.765e+03 2.525e-10
 26.45787    226.2 8.641e+03 2.354e-10
 26.49693    227.4 8.477e+03 2.160e-10
 26.53599    228.7 8.323e+03 1.991e-10
 26.57506    230.2 8.212e+03 1.866e-10
 26.61412    231.6 8.146e+03 1.775e-10
 26.65319    233.1 8.109e+03 1.699e-10
 26.69225    234.6 8.081e+03 1.619e-10
 26.73131    236.2 8.052e+03 1.530e-10
 26.77038    237.7 8.022e+03 1.442e-10
 26.80944    239.2 8.010e+03 1.406e-10
 26.84851    240.6 8.014e+03 1.410e-10
 26.88757    242.1 8.038e+03 1.446e-10
 26.92663    243.6 8.134e+03 1.601e-10
 26.96570    245.0 8.398e+03 1.986e-10
 27.00476    246.4 8.792e+03 2.676e-10
 27.04383    247.4 9.166e+03 3.599e-10
 27.07303    247.5 9.317e+03 4.175e-10
 27.09030    247.9 9.586e+03 5.112e-10
 27.10007    247.5 9.811e+03 5.747e-10
 27.11199    248.4 1.028e+04 7.841e-10
 27.13152    249.3 1.077e+04 1.047e-09
 27.15106    249.8 1.123e+04 1.321e-09
 27.17059    249.9 1.162e+04 1.559e-09
 27.19012    249.9 1.195e+04 1.737e-09
 27.20965    249.8 1.224e+04 1.857e-09
 27.22918    249.3 1.250e+04 1.901e-09
 27.24872    248.5 1.258e+04 1.898e-09
 27.26825    247.6 1.258e+04 1.892e-09
 27.28778    246.6 1.256e+04 1.859e-09
 27.30731    245.7 1.246e+04 1.779e-09
 27.32684    245.0 1.228e+04 1.660e-09
 27.34638    244.4 1.208e+04 1.515e-09
 27.36591    244.1 1.186e+04 1.364e-09
 27.38544    243.8 1.167e+04 1.228e-09
 27.40497    243.6 1.152e+04 1.121e-09
 27.42450    243.5 1.141e+04 1.039e-09
 27.44404    243.3 1.135e+04 9.894e-10
 27.46357    243.1 1.135e+04 9.835e-10
 27.48310    243.0 1.136e+04 9.889e-10
 27.50263    242.8 1.142e+04 1.021e-09
 27.52216    242.5 1.161e+04 1.112e-09
 27.54170    242.0 1.199e+04 1.295e-09
 27.56123    241.3 1.259e+04 1.620e-09
 27.58076    240.6 1.336e+04 2.171e-09
 27.60029    239.9 1.421e+04 3.006e-09
 27.61982    239.5 1.497e+04 4.059e-09
 27.63936    239.3 1.548e+04 4.860e-09
 27.65889    238.9 1.558e+04 4.937e-09
 27.67842    238.5 1.555e+04 4.820e-09
 27.69795    238.2 1.537e+04 4.323e-09
 27.71748    237.8 1.500e+04 3.515e-09
 27.73702    237.3 1.450e+04 2.667e-09
 27.75655    236.5 1.396e+04 1.972e-09
 27.77608    235.5 1.348e+04 1.501e-09
 27.79561    234.6 1.322e+04 1.285e-09
 27.81514    233.9 1.321e+04 1.270e-09
 27.83468    233.6 1.329e+04 1.284e-09
 27.85421    233.3 1.356e+04 1.353e-09
 27.87374    232.9 1.403e+04 1.507e-09
 27.89327    232.3 1.471e+04 1.793e-09
 27.91280    231.5 1.544e+04 2.301e-09
 27.93234    230.5 1.610e+04 3.191e-09
 27.95187    229.7 1.668e+04 4.654e-09
 27.97140    229.3 1.708e+04 6.546e-09
 27.99093    228.8 1.714e+04 7.611e-09
 28.01046    227.9 1.708e+04 7.560e-09
 28.03000    227.0 1.670e+04 6.891e-09
 28.04953    226.2 1.589e+04 5.108e-09
 28.06906    225.5 1.471e+04 3.111e-09
 28.08859    224.2 1.333e+04 1.674e-09
 28.10812    222.7 1.189e+04 8.853e-10
 28.13752    219.2 1.007e+04 4.297e-10
 28.17668    217.3 9.122e+03 1.939e-10
 28.21575    217.2 8.911e+03 1.544e-10
 28.25481    217.3 8.754e+03 1.431e-10
 28.29387    217.8 8.681e+03 1.425e-10
 28.33294    218.4 8.685e+03 1.429e-10
 28.37200    218.8 8.725e+03 1.457e-10
 28.41107    218.8 8.810e+03 1.530e-10
 28.45013    218.7 8.913e+03 1.637e-10
 28.48919    218.5 9.010e+03 1.742e-10
 28.52826    218.2 9.062e+03 1.808e-10
 28.56732    218.0 9.063e+03 1.835e-10
 28.60639    217.8 9.065e+03 1.844e-10
 28.64545    217.7 9.075e+03 1.865e-10
 28.68451    217.5 9.122e+03 1.951e-10
 28.72358    217.3 9.258e+03 2.222e-10
 28.76264    217.0 9.488e+03 2.742e-10
 28.80171    216.5 9.752e+03 3.463e-10
 28.84077    216.1 9.956e+03 4.113e-10
 28.86997    215.8 1.019e+04 4.721e-10
 28.88940    215.6 1.044e+04 5.478e-10
 28.90894    215.2 1.066e+04 6.299e-10
 28.92847    214.6 1.084e+04 7.057e-10
 28.94800    213.8 1.099e+04 7.819e-10
 28.96753    212.8 1.119e+04 8.769e-10
 28.98706    211.5 1.150e+04 1.024e-09
 29.00660    209.8 1.201e+04 1.276e-09
 29.02613    207.7 1.270e+04 1.681e-09
 29.04566    205.1 1.340e+04 2.175e-09
 29.06519    202.1 1.384e+04 2.393e-09
 29.08472    198.6 1.385e+04 2.363e-09
 29.10426    195.2 1.365e+04 2.136e-09
 29.12379    192.1 1.318e+04 1.683e-09
 29.15318    188.2 1.241e+04 9.920e-10
 29.19235    183.1 1.052e+04 3.858e-10
 29.23141    178.6 8.776e+03 1.735e-10
 29.27047    175.4 8.630e+03 1.585e-10
 29.30954    173.4 8.643e+03 1.610e-10
 29.34860    170.9 8.868e+03 1.845e-10
 29.38767    168.1 9.287e+03 2.406e-10
 29.41687    166.3 9.595e+03 3.031e-10
 29.43630    164.0 1.018e+04 4.437e-10
 29.45583    160.7 1.115e+04 7.680e-10
 29.47536    156.9 1.224e+04 1.348e-09
 29.49490    152.8 1.322e+04 2.132e-09
 29.51443    148.6 1.399e+04 2.631e-09
 29.53396    143.8 1.414e+04 2.623e-09
 29.55349    138.9 1.409e+04 2.431e-09
 29.57302    134.1 1.375e+04 1.966e-09
 29.59256    129.6 1.328e+04 1.560e-09
 29.62195    123.7 1.261e+04 1.208e-09
 29.66111    117.7 1.188e+04 1.144e-09
 29.70018    113.9 1.183e+04 1.207e-09
 29.73924    111.3 1.196e+04 1.436e-09
 29.77831    109.1 1.201e+04 1.501e-09
 29.81737    107.1 1.181e+04 1.392e-09
 29.85643    105.7 1.110e+04 9.661e-10
 29.89550    104.7 1.003e+04 4.847e-10
 29.93456    103.1 8.725e+03 2.106e-10
 29.97363    101.4 8.202e+03 1.486e-10
 30.01269    101.1 8.169e+03 1.481e-10
 30.05175    101.1 8.178e+03 1.525e-10
 30.09082    101.2 8.257e+03 1.716e-10
 30.12988    101.5 8.437e+03 2.084e-10
 30.16895    102.0 8.670e+03 2.598e-10
 30.20801    102.2 8.901e+03 3.177e-10
 30.24707    102.1 9.077e+03 3.687e-10
 30.28614    102.0 9.180e+03 4.008e-10
 30.31534    101.8 9.311e+03 4.429e-10
 30.33477    101.8 9.477e+03 4.951e-10
 30.35430    101.8 9.675e+03 5.573e-10
 30.37384    101.6 9.900e+03 6.301e-10
 30.39337    101.3 1.014e+04 7.179e-10
 30.41290    101.0 1.036e+04 8.128e-10
 30.43243    100.8 1.050e+04 8.932e-10
 30.44703    100.5 1.058e+04 9.413e-10
 30.45680    100.7 1.075e+04 1.068e-09
 30.47150    100.6 1.074e+04 1.066e-09
 30.49103    100.4 1.071e+04 1.051e-09
 30.51056    100.3 1.073e+04 1.035e-09
 30.53009    100.0 1.077e+04 1.037e-09
 30.54962     99.5 1.093e+04 1.064e-09
 30.56916     98.2 1.139e+04 1.168e-09
 30.58869     95.4 1.242e+04 1.506e-09
 30.60822     91.4 1.381e+04 2.348e-09
 30.62775     87.6 1.493e+04 3.967e-09
 30.64728     84.8 1.561e+04 6.097e-09
 30.66682     82.5 1.594e+04 7.186e-09
 30.68635     80.0 1.597e+04 7.107e-09
 30.70588     77.3 1.593e+04 6.432e-09
 30.72541     74.1 1.574e+04 5.230e-09
 30.74494     70.3 1.524e+04 4.289e-09
 30.76448     66.8 1.488e+04 4.162e-09
 30.78401     64.5 1.498e+04 4.391e-09
 30.80354     63.8 1.532e+04 4.780e-09
 30.82307     63.8 1.538e+04 4.776e-09
 30.84260     63.8 1.531e+04 4.413e-09
 30.86214     63.6 1.494e+04 3.516e-09
 30.88167     62.5 1.422e+04 2.558e-09
 30.90120     60.1 1.306e+04 1.884e-09
 30.92073     57.4 1.197e+04 1.683e-09
 30.94026     55.6 1.185e+04 1.755e-09
 30.95980     54.8 1.196e+04 2.027e-09
 30.97933     54.6 1.217e+04 2.206e-09
 30.99886     54.4 1.219e+04 2.185e-09
 31.02826     54.3 1.181e+04 1.752e-09
 31.06742     54.0 1.086e+04 1.079e-09
 31.10648     53.5 9.577e+03 5.472e-10
 31.14555     52.5 8.675e+03 3.196e-10
 31.18461     52.3 8.654e+03 3.079e-10
 31.22367     52.1 8.858e+03 3.385e-10
 31.26274     51.1 9.618e+03 4.767e-10
 31.30180     48.7 1.123e+04 9.130e-10
 31.34087     45.1 1.253e+04 1.658e-09
 31.37007     42.8 1.296e+04 1.999e-09
 31.38950     41.3 1.297e+04 2.007e-09
 31.40903     39.8 1.282e+04 1.904e-09
 31.42856     38.4 1.249e+04 1.655e-09
 31.44810     37.1 1.197e+04 1.333e-09
 31.46763     36.1 1.129e+04 1.004e-09
 31.48716     35.5 1.062e+04 7.292e-10
 31.50669     34.7 1.013e+04 5.182e-10
 31.52622     33.3 9.927e+03 3.945e-10
 31.54576     31.7 9.654e+03 3.549e-10
 31.56529     30.1 9.547e+03 3.637e-10
 31.58482     29.5 9.377e+03 3.747e-10
 31.60435     28.6 9.603e+03 4.611e-10
 31.62388     28.9 9.953e+03 5.325e-10
 31.64913     28.4 1.026e+04 6.061e-10
 31.66875     29.4 1.071e+04 7.926e-10
 31.69244     29.8 1.042e+04 6.987e-10
 31.73151     30.5 9.828e+03 4.630e-10
 31.77057     30.6 9.127e+03 2.564e-10
 31.80963     30.3 8.614e+03 1.558e-10
 31.84870     30.7 8.588e+03 1.499e-10
 31.88776     31.1 8.791e+03 1.704e-10
 31.92683     31.1 9.228e+03 2.595e-10
 31.96589     31.2 9.728e+03 4.234e-10
 32.00495     31.6 1.010e+04 5.845e-10
 32.04402     32.0 1.008e+04 5.793e-10
 32.08308     32.3 9.813e+03 4.445e-10
 32.12215     31.6 9.534e+03 2.909e-10
 32.16121     29.1 9.675e+03 3.060e-10
 32.20027     26.0 1.039e+04 5.272e-10
 32.23934     24.5 1.143e+04 1.057e-09
 32.27840     24.0 1.235e+04 1.626e-09
 32.30760     21.9 1.326e+04 2.057e-09
 32.32704     21.2 1.342e+04 2.070e-09
 32.35643     20.7 1.310e+04 1.676e-09
 32.39559     18.3 1.283e+04 1.595e-09
 32.43466     18.4 1.210e+04 1.300e-09
 32.47372     19.6 1.120e+04 8.886e-10
 32.51279     20.1 1.051e+04 5.034e-10
 32.55185     20.0 9.954e+03 3.195e-10
 32.59091     20.7 9.674e+03 2.974e-10
 32.62998     22.3 9.638e+03 3.042e-10
 32.66904     24.4 9.611e+03 2.928e-10
 32.70811     26.4 9.569e+03 2.538e-10
 32.74717     28.2 9.522e+03 2.048e-10
 32.78623     29.5 9.500e+03 1.792e-10
 32.82530     30.7 9.534e+03 1.871e-10
 32.86436     32.1 9.602e+03 2.229e-10
 32.90343     33.8 9.761e+03 2.731e-10
 32.94249     35.6 9.985e+03 3.194e-10
 32.98155     36.9 1.048e+04 3.887e-10
 33.02062     37.6 1.103e+04 4.991e-10
 33.05968     38.0 1.143e+04 6.596e-10
 33.08888     37.8 1.170e+04 8.546e-10
 33.10832     38.1 1.171e+04 9.205e-10
 33.12785     38.6 1.174e+04 9.730e-10
 33.14738     39.0 1.172e+04 9.745e-10
 33.17678     40.3 1.165e+04 9.326e-10
 33.21594     40.9 1.160e+04 8.955e-10
 33.25500     41.4 1.151e+04 8.076e-10
 33.29407     42.0 1.150e+04 7.806e-10
 33.33313     42.7 1.158e+04 8.306e-10
 33.37219     43.9 1.188e+04 1.006e-09
 33.40139     44.2 1.194e+04 1.040e-09
 33.42083     44.6 1.192e+04 1.055e-09
 33.44036     45.6 1.200e+04 1.109e-09
 33.45989     46.3 1.212e+04 1.150e-09
 33.47942     47.2 1.234e+04 1.182e-09
 33.49896     47.6 1.285e+04 1.308e-09
 33.51849     46.7 1.380e+04 1.631e-09
 33.53802     43.9 1.612e+04 2.661e-09
 33.55755     40.7 1.873e+04 6.407e-09
 33.57708     38.8 2.045e+04 1.278e-08
 33.59168     37.4 2.208e+04 2.036e-08
 33.60140     35.2 2.351e+04 3.353e-08
 33.61117     33.2 2.409e+04 5.068e-08
 33.62093     31.2 2.439e+04 6.914e-08
 33.63070     27.5 2.517e+04 9.232e-08
 33.64047     21.2 2.596e+04 1.241e-07
 33.65023     15.7 2.575e+04 1.059e-07
 33.66000     11.9 2.573e+04 5.929e-08
 33.66976      5.1 2.534e+04 2.940e-08
 33.67953     -1.3 2.248e+04 1.528e-08
 33.68930     -6.7 1.922e+04 8.568e-09
 33.69906     -9.6 1.706e+04 5.457e-09
 33.70883    -10.8 1.626e+04 3.744e-09
 33.71859    -11.0 1.622e+04 3.277e-09
 33.73329    -15.1 1.469e+04 1.297e-09
 33.75287    -20.5 1.139e+04 5.926e-10
 33.77240    -22.3 1.020e+04 4.553e-10
 33.79194    -22.1 9.925e+03 4.139e-10
 33.81147    -21.3 9.734e+03 3.901e-10
 33.83100    -20.1 9.759e+03 3.720e-10
 33.85053    -19.6 9.767e+03 3.664e-10
 33.87993    -18.6 9.788e+03 3.640e-10
 33.91909    -17.5 9.581e+03 3.023e-10
 33.95815    -16.5 9.347e+03 2.519e-10
 33.99722    -15.7 9.146e+03 2.287e-10
 34.03628    -14.8 8.960e+03 2.228e-10
 34.07535    -13.6 9.239e+03 2.564e-10
 34.11441    -12.4 9.304e+03 2.626e-10
 34.15347    -11.8 9.323e+03 2.251e-10
 34.19254    -12.0 9.492e+03 2.235e-10
 34.23160    -12.6 9.955e+03 3.041e-10
 34.27067    -12.7 1.032e+04 4.313e-10
 34.29987    -12.6 1.068e+04 5.516e-10
 34.31930    -12.5 1.067e+04 5.515e-10
 34.33883    -12.3 1.060e+04 5.356e-10
 34.35836    -12.1 1.061e+04 5.217e-10
 34.38776    -12.7 1.061e+04 4.553e-10
 34.42692    -15.2 1.093e+04 5.572e-10
 34.46599    -16.2 1.105e+04 7.820e-10
 34.50505    -16.0 1.125e+04 8.992e-10
 34.54411    -16.5 1.062e+04 5.955e-10
 34.58318    -17.6 9.622e+03 2.835e-10
 34.62224    -18.3 9.267e+03 1.983e-10
 34.66131    -17.9 9.227e+03 1.816e-10
 34.70037    -19.7 1.105e+04 2.461e-10
 34.72957    -24.5 1.305e+04 6.171e-10
 34.74900    -25.3 1.377e+04 1.085e-09
 34.76854    -26.0 1.438e+04 2.428e-09
 34.78807    -24.9 1.496e+04 4.139e-09
 34.80760    -23.3 1.534e+04 5.485e-09
 34.82713    -22.1 1.560e+04 5.827e-09
 34.84666    -21.8 1.530e+04 4.609e-09
 34.86620    -23.3 1.462e+04 3.487e-09
 34.88573    -24.2 1.388e+04 2.860e-09
 34.90526    -24.5 1.325e+04 2.324e-09
 34.92479    -24.6 1.280e+04 1.919e-09
 34.94432    -24.5 1.257e+04 1.677e-09
 34.96386    -24.6 1.242e+04 1.540e-09
 34.98339    -24.6 1.226e+04 1.454e-09
 35.00292    -24.6 1.211e+04 1.404e-09
 35.02245    -24.2 1.194e+04 1.350e-09
 35.04198    -23.7 1.183e+04 1.253e-09
 35.06152    -23.3 1.167e+04 1.075e-09
 35.08105    -23.2 1.136e+04 8.723e-10
 35.10058    -23.6 1.089e+04 7.147e-10
 35.12011    -23.8 1.047e+04 6.239e-10
 35.13964    -23.4 1.019e+04 5.698e-10
 35.15918    -22.8 9.953e+03 5.211e-10
 35.17871    -22.1 9.754e+03 4.726e-10
 35.19824    -21.3 9.579e+03 4.218e-10
 35.21777    -20.9 9.496e+03 4.005e-10
 35.23730    -19.7 9.398e+03 3.683e-10
 35.25684    -19.4 9.339e+03 3.588e-10
 35.27637    -17.8 9.299e+03 3.419e-10
 35.29590    -17.7 9.260e+03 3.389e-10
 35.31543    -16.1 9.362e+03 3.617e-10
 35.33496    -15.9 9.346e+03 3.613e-10
 35.35450    -14.8 9.475e+03 4.099e-10
 35.37403    -14.1 9.648e+03 4.707e-10
 35.39356    -13.2 9.922e+03 5.621e-10
 35.41309    -12.6 1.023e+04 6.774e-10
 35.43262    -11.8 1.061e+04 8.339e-10
 35.45216    -11.4 1.093e+04 9.993e-10
 35.47169    -10.8 1.144e+04 1.264e-09
 35.49122    -10.6 1.204e+04 1.613e-09
 35.51075    -10.6 1.286e+04 2.142e-09
 35.53028    -10.8 1.373e+04 2.845e-09
 35.54982    -11.1 1.433e+04 3.600e-09
 35.56935    -11.0 1.469e+04 4.241e-09
 35.58888    -10.7 1.478e+04 4.478e-09
 35.60841    -10.4 1.448e+04 4.142e-09
 35.62794    -10.2 1.399e+04 3.316e-09
 35.64748    -10.9 1.341e+04 2.529e-09
 35.66701    -11.9 1.266e+04 1.891e-09
 35.68654    -12.6 1.215e+04 1.488e-09
 35.70607    -13.1 1.176e+04 1.247e-09
 35.72560    -13.4 1.139e+04 1.071e-09
 35.74514    -13.7 1.104e+04 9.325e-10
 35.76467    -13.9 1.075e+04 8.211e-10
 35.78420    -14.1 1.059e+04 7.456e-10
 35.80373    -14.2 1.059e+04 7.106e-10
 35.82326    -14.4 1.065e+04 6.921e-10
 35.84280    -14.7 1.079e+04 6.966e-10
 35.86233    -15.0 1.093e+04 7.384e-10
 35.88186    -15.3 1.109e+04 8.126e-10
 35.90139    -15.4 1.135e+04 9.436e-10
 35.92092    -15.4 1.168e+04 1.114e-09
 35.94046    -15.6 1.205e+04 1.335e-09
 35.95999    -16.4 1.259e+04 1.647e-09
 35.97952    -17.2 1.318e+04 2.206e-09
 35.99905    -17.6 1.371e+04 2.950e-09
 36.01858    -17.6 1.422e+04 3.754e-09
 36.03812    -17.0 1.468e+04 4.333e-09
 36.05765    -16.5 1.503e+04 4.525e-09
 36.07718    -16.9 1.530e+04 4.126e-09
 36.09671    -18.4 1.528e+04 3.662e-09
 36.11624    -20.1 1.499e+04 3.386e-09
 36.13578    -21.1 1.497e+04 3.324e-09
 36.15531    -21.8 1.518e+04 3.317e-09
 36.17484    -22.8 1.536e+04 3.130e-09
 36.19437    -23.7 1.504e+04 2.850e-09
 36.21390    -24.3 1.446e+04 2.517e-09
 36.22729    -24.5 1.399e+04 2.205e-09
 36.23705    -25.1 1.428e+04 2.451e-09
 36.25297    -25.2 1.400e+04 2.247e-09
 36.27250    -25.4 1.383e+04 2.082e-09
 36.29203    -25.7 1.378e+04 2.040e-09
 36.31156    -25.9 1.381e+04 2.073e-09
 36.33110    -26.1 1.394e+04 2.228e-09
 36.35063    -26.2 1.408e+04 2.393e-09
 36.37016    -26.4 1.420e+04 2.492e-09
 36.38969    -27.1 1.438e+04 2.513e-09
 36.40922    -28.3 1.460e+04 2.521e-09
 36.42876    -29.8 1.483e+04 2.606e-09
 36.44829    -31.2 1.509e+04 2.772e-09
 36.46782    -32.2 1.546e+04 3.033e-09
 36.48735    -33.5 1.603e+04 3.436e-09
 36.50688    -35.2 1.664e+04 4.216e-09
 36.52642    -36.6 1.708e+04 5.400e-09
 36.54595    -37.6 1.714e+04 6.379e-09
 36.56548    -38.2 1.710e+04 6.911e-09
 36.58501    -38.2 1.696e+04 7.376e-09
 36.60454    -37.6 1.712e+04 8.274e-09
 36.62408    -37.2 1.685e+04 7.672e-09
 36.64361    -37.0 1.646e+04 6.546e-09
 36.66314    -36.8 1.585e+04 5.148e-09
 36.68267    -36.4 1.524e+04 3.819e-09
 36.70220    -36.2 1.461e+04 2.636e-09
 36.72174    -36.1 1.382e+04 1.748e-09
 36.74127    -36.2 1.286e+04 1.199e-09
 36.77066    -36.5 1.164e+04 8.044e-10
 36.80983    -35.1 1.129e+04 7.709e-10
 36.84889    -33.0 1.115e+04 7.709e-10
 36.88795    -31.0 1.121e+04 8.353e-10
 36.91715    -29.4 1.134e+04 9.280e-10
 36.93659    -29.2 1.132e+04 9.316e-10
 36.95612    -28.0 1.143e+04 1.013e-09
 36.97565    -27.3 1.145e+04 1.051e-09
 36.99518    -26.3 1.173e+04 1.170e-09
 37.01472    -26.0 1.177e+04 1.212e-09
 37.03425    -25.0 1.196e+04 1.324e-09
 37.05378    -24.5 1.198e+04 1.354e-09
 37.07331    -23.5 1.202e+04 1.385e-09
 37.09284    -22.7 1.193e+04 1.367e-09
 37.11238    -21.7 1.187e+04 1.344e-09
 37.13191    -20.7 1.181e+04 1.303e-09
 37.15144    -20.0 1.181e+04 1.295e-09
 37.17097    -19.5 1.190e+04 1.333e-09
 37.19050    -19.2 1.215e+04 1.457e-09
 37.21004    -18.9 1.264e+04 1.714e-09
 37.22957    -18.6 1.305e+04 2.051e-09
 37.24910    -18.0 1.334e+04 2.407e-09
 37.26863    -16.9 1.357e+04 2.748e-09
 37.28816    -15.7 1.360e+04 2.934e-09
 37.30770    -14.4 1.350e+04 2.896e-09
 37.32723    -13.0 1.335e+04 2.655e-09
 37.34676    -11.8 1.312e+04 2.270e-09
 37.36629    -10.7 1.282e+04 1.884e-09
 37.38582     -9.7 1.253e+04 1.568e-09
 37.40536     -8.7 1.217e+04 1.265e-09
 37.42489     -7.7 1.174e+04 1.038e-09
 37.44442     -6.7 1.148e+04 9.005e-10
 37.46395     -5.9 1.135e+04 8.093e-10
 37.48348     -5.2 1.124e+04 7.518e-10
 37.50302     -4.7 1.131e+04 7.587e-10
 37.52255     -4.7 1.169e+04 8.839e-10
 37.54208     -5.0 1.239e+04 1.159e-09
 37.56161     -6.0 1.365e+04 1.679e-09
 37.58114     -7.1 1.449e+04 2.743e-09
 37.60068     -7.5 1.533e+04 4.093e-09
 37.62021     -7.8 1.573e+04 5.334e-09
 37.63974     -8.1 1.585e+04 6.100e-09
 37.65927     -8.8 1.583e+04 6.190e-09
 37.67880     -9.3 1.536e+04 5.291e-09
 37.69834    -10.1 1.479e+04 4.088e-09
 37.71787    -11.2 1.439e+04 3.169e-09
 37.73740    -12.0 1.396e+04 2.613e-09
 37.75693    -12.4 1.360e+04 2.305e-09
 37.77646    -12.7 1.321e+04 2.178e-09
 37.79600    -12.5 1.319e+04 2.176e-09
 37.81553    -12.1 1.328e+04 2.264e-09
 37.83506    -11.6 1.338e+04 2.361e-09
 37.85459    -11.2 1.362e+04 2.494e-09
 37.87412    -11.1 1.385e+04 2.682e-09
 37.89366    -11.2 1.419e+04 3.033e-09
 37.91319    -11.4 1.452e+04 3.544e-09
 37.93272    -11.3 1.482e+04 4.224e-09
 37.95225    -10.8 1.513e+04 4.983e-09
 37.97178     -9.9 1.539e+04 5.601e-09
 37.99132     -9.0 1.554e+04 5.865e-09
 38.01085     -8.1 1.576e+04 5.538e-09
 38.03038     -7.5 1.590e+04 4.861e-09
 38.04991     -7.0 1.580e+04 4.067e-09
 38.06944     -6.5 1.537e+04 3.275e-09
 38.08898     -6.0 1.474e+04 2.657e-09
 38.10851     -5.5 1.427e+04 2.165e-09
 38.12804     -5.1 1.392e+04 1.872e-09
 38.14757     -4.8 1.396e+04 1.797e-09
 38.16710     -5.1 1.443e+04 1.950e-09
 38.18664     -5.3 1.502e+04 2.494e-09
 38.20617     -5.2 1.574e+04 3.459e-09
 38.22570     -4.3 1.639e+04 4.969e-09
 38.24523     -2.9 1.728e+04 7.213e-09
 38.26476     -1.5 1.826e+04 1.009e-08
 38.28430     -0.4 1.936e+04 1.315e-08
 38.30383      0.1 2.040e+04 1.559e-08
 38.32336      0.0 2.101e+04 1.711e-08
 38.34289     -0.3 2.150e+04 1.848e-08
 38.36242     -0.7 2.169e+04 1.924e-08
 38.38196     -0.9 2.166e+04 2.024e-08
 38.40149     -1.2 2.221e+04 2.154e-08
 38.41609     -1.3 2.253e+04 2.494e-08
 38.42580     -1.3 2.273e+04 2.745e-08
 38.43557     -1.3 2.267e+04 3.414e-08
 38.44534     -1.2 2.286e+04 4.033e-08
 38.45510     -1.3 2.211e+04 4.628e-08
 38.46487     -1.1 2.198e+04 4.976e-08
 38.47463     -1.2 2.179e+04 5.100e-08
 38.48440     -1.2 2.157e+04 5.300e-08
 38.49417     -1.5 2.212e+04 5.316e-08
 38.50393     -2.3 2.234e+04 5.436e-08
 38.51144     -3.3 2.231e+04 5.237e-08
 38.51632     -3.3 2.290e+04 4.424e-08
 38.52346     -4.5 2.289e+04 4.123e-08
 38.53323     -5.5 2.304e+04 3.904e-08
 38.54300     -6.3 2.325e+04 3.569e-08
 38.55276     -6.9 2.357e+04 2.780e-08
 38.56253     -7.6 2.377e+04 1.916e-08
 38.57229     -8.9 2.364e+04 1.287e-08
 38.58206    -10.3 2.326e+04 8.582e-09
 38.59183    -12.2 2.220e+04 5.529e-09
 38.60159    -13.8 2.066e+04 3.907e-09
 38.61136    -16.3 1.858e+04 2.723e-09
 38.62112    -17.4 1.697e+04 2.265e-09
 38.63089    -19.3 1.492e+04 1.757e-09
 38.64066    -19.8 1.393e+04 1.623e-09
 38.65535    -20.5 1.330e+04 1.400e-09
 38.67494    -20.2 1.304e+04 1.275e-09
 38.69447    -20.0 1.223e+04 1.001e-09
 38.71400    -20.1 1.156e+04 8.670e-10
 38.73353    -19.4 1.155e+04 8.490e-10
 38.75306    -18.7 1.155e+04 8.569e-10
 38.77260    -18.0 1.164e+04 8.716e-10
 38.79213    -17.5 1.180e+04 9.044e-10
 38.81166    -17.2 1.204e+04 9.766e-10
 38.83119    -17.0 1.225e+04 1.090e-09
 38.85072    -16.7 1.241e+04 1.249e-09
 38.87026    -16.4 1.255e+04 1.466e-09
 38.88979    -16.0 1.269e+04 1.708e-09
 38.90932    -15.3 1.290e+04 1.972e-09
 38.92885    -14.6 1.312e+04 2.220e-09
 38.94838    -14.1 1.330e+04 2.433e-09
 38.96792    -13.6 1.348e+04 2.637e-09
 38.98745    -13.4 1.364e+04 2.819e-09
 39.00698    -13.1 1.393e+04 3.079e-09
 39.02651    -13.3 1.449e+04 3.596e-09
 39.04604    -13.6 1.548e+04 4.457e-09
 39.06558    -14.1 1.637e+04 5.812e-09
 39.08511    -14.6 1.743e+04 8.034e-09
 39.10464    -15.3 1.854e+04 1.143e-08
 39.11924    -16.2 1.948e+04 1.498e-08
 39.12896    -16.6 1.968e+04 1.576e-08
 39.13872    -16.9 2.012e+04 1.820e-08
 39.14849    -17.1 2.010e+04 1.861e-08
 39.15825    -17.3 2.042e+04 2.057e-08
 39.16802    -17.4 2.036e+04 2.063e-08
 39.17779    -17.5 2.037e+04 2.056e-08
 39.18755    -17.4 1.998e+04 1.920e-08
 39.19732    -17.3 1.921e+04 1.582e-08
 39.20708    -16.7 1.841e+04 1.248e-08
 39.21685    -16.6 1.774e+04 9.570e-09
 39.22662    -16.3 1.756e+04 7.632e-09
 39.23638    -17.9 1.644e+04 5.422e-09
 39.24615    -18.1 1.612e+04 4.908e-09
 39.26085    -18.3 1.578e+04 4.167e-09
 39.28043    -19.9 1.397e+04 2.822e-09
 39.29996    -20.2 1.311e+04 2.327e-09
 39.31949    -19.1 1.269e+04 1.980e-09
 39.33902    -18.2 1.248e+04 1.654e-09
 39.35856    -17.8 1.225e+04 1.315e-09
 39.37809    -17.7 1.189e+04 1.029e-09
 39.39762    -17.9 1.150e+04 8.542e-10
 39.41715    -18.2 1.125e+04 7.860e-10
 39.43668    -18.3 1.125e+04 7.800e-10
 39.45622    -18.7 1.147e+04 8.256e-10
 39.47575    -19.4 1.169e+04 9.165e-10
 39.49528    -19.9 1.174e+04 1.037e-09
 39.51481    -20.1 1.172e+04 1.149e-09
 39.53434    -20.1 1.174e+04 1.207e-09
 39.55388    -20.1 1.172e+04 1.196e-09
 39.57341    -20.1 1.163e+04 1.065e-09
 39.59294    -20.9 1.150e+04 8.850e-10
 39.61247    -22.4 1.122e+04 7.306e-10
 39.63200    -24.3 1.091e+04 6.499e-10
 39.65154    -26.0 1.079e+04 6.296e-10
 39.67107    -27.7 1.075e+04 6.630e-10
 39.69060    -29.9 1.113e+04 7.680e-10
 39.71013    -32.9 1.196e+04 9.690e-10
 39.72966    -36.5 1.287e+04 1.389e-09
 39.74920    -40.2 1.346e+04 1.941e-09
 39.76873    -43.6 1.394e+04 2.479e-09
 39.78826    -47.2 1.465e+04 2.985e-09
 39.80779    -51.7 1.576e+04 3.434e-09
 39.82732    -58.0 1.700e+04 3.913e-09
 39.84686    -65.5 1.806e+04 4.685e-09
 39.86639    -72.0 1.878e+04 6.224e-09
 39.88592    -76.7 1.944e+04 8.111e-09
 39.90545    -80.7 1.991e+04 9.705e-09
 39.92498    -84.5 2.008e+04 1.046e-08
 39.94452    -88.5 1.996e+04 1.048e-08
 39.96405    -92.7 1.967e+04 1.027e-08
 39.98358    -96.6 1.943e+04 1.030e-08
 40.00311    -99.9 1.935e+04 1.067e-08
 40.02264   -102.7 1.929e+04 1.073e-08
 40.04218   -105.2 1.910e+04 1.038e-08
 40.06171   -107.2 1.863e+04 9.223e-09
 40.08124   -108.6 1.792e+04 7.451e-09
 40.10077   -109.7 1.704e+04 5.655e-09
 40.12030   -110.6 1.612e+04 4.286e-09
 40.13984   -111.4 1.526e+04 3.381e-09
 40.15937   -111.7 1.451e+04 2.807e-09
 40.17890   -111.7 1.391e+04 2.424e-09
 40.19843   -111.5 1.341e+04 2.130e-09
 40.21796   -110.9 1.300e+04 1.879e-09
 40.23750   -110.1 1.268e+04 1.663e-09
 40.25703   -109.2 1.245e+04 1.488e-09
 40.27656   -108.4 1.228e+04 1.349e-09
 40.29609   -107.7 1.213e+04 1.232e-09
 40.31562   -107.1 1.193e+04 1.122e-09
 40.33516   -106.4 1.167e+04 1.020e-09
 40.35469   -105.7 1.138e+04 9.320e-10
 40.37422   -104.9 1.110e+04 8.643e-10
 40.39375   -104.0 1.086e+04 8.132e-10
 40.41328   -103.2 1.066e+04 7.631e-10
 40.43282   -102.2 1.045e+04 7.094e-10
 40.45235   -101.2 1.028e+04 6.446e-10
 40.47188   -100.4 1.013e+04 5.662e-10
 40.49141    -99.7 9.989e+03 4.940e-10
 40.52081    -99.0 9.852e+03 4.424e-10
 40.55997    -97.6 9.681e+03 4.041e-10
 40.59903    -96.2 9.575e+03 3.900e-10
 40.63810    -94.9 9.539e+03 4.025e-10
 40.67716    -93.4 9.517e+03 4.133e-10
 40.71622    -92.0 9.489e+03 4.136e-10
 40.75529    -90.5 9.413e+03 3.785e-10
 40.78621    -89.3 9.345e+03 3.476e-10
 40.80574    -90.5 9.352e+03 3.431e-10
 40.83342    -89.5 9.277e+03 3.192e-10
 40.87248    -88.6 9.205e+03 3.006e-10
 40.91154    -87.6 9.130e+03 2.884e-10
 40.95061    -86.7 9.018e+03 2.721e-10
 40.98967    -85.5 8.846e+03 2.414e-10
 41.02874    -84.3 8.611e+03 1.938e-10
 41.06780    -83.0 8.346e+03 1.440e-10
 41.10686    -81.7 8.136e+03 1.083e-10
 41.14593    -80.4 8.059e+03 9.267e-11
 41.18499    -78.9 8.038e+03 8.938e-11
 41.22406    -77.4 8.071e+03 9.157e-11
 41.26312    -75.8 8.199e+03 1.044e-10
 41.30218    -74.1 8.295e+03 1.183e-10
 41.34125    -72.3 8.332e+03 1.235e-10
 41.38031    -70.3 8.339e+03 1.233e-10
 41.41938    -68.2 8.336e+03 1.076e-10
 41.45844    -66.2 8.333e+03 8.682e-11
 41.49750    -64.4 8.350e+03 7.108e-11
 41.53657    -62.6 8.358e+03 6.457e-11
 41.57563    -60.9 8.365e+03 6.347e-11
 41.61470    -59.5 8.553e+03 6.787e-11
 41.65376    -58.1 8.690e+03 9.350e-11
 41.69282    -56.5 8.843e+03 1.343e-10
 41.73189    -54.7 9.095e+03 1.903e-10
 41.77095    -52.8 9.364e+03 2.562e-10
 41.81002    -50.8 9.564e+03 3.149e-10
 41.84908    -48.8 9.679e+03 3.562e-10
 41.88814    -46.9 9.721e+03 3.777e-10
 41.92721    -45.2 9.731e+03 3.909e-10
 41.96627    -43.4 9.756e+03 4.087e-10
 42.00534    -41.7 9.873e+03 4.333e-10
 42.04440    -40.1 9.967e+03 4.661e-10
 42.08346    -38.3 1.001e+04 4.797e-10
 42.12253    -36.5 9.973e+03 4.630e-10
 42.16159    -34.6 9.794e+03 4.073e-10
 42.20066    -32.6 9.576e+03 3.402e-10
 42.23972    -30.6 9.362e+03 2.821e-10
 42.27878    -28.6 9.183e+03 2.435e-10
 42.31785    -26.6 9.116e+03 2.277e-10
 42.35691    -24.7 9.155e+03 2.269e-10
 42.39598    -23.7 9.655e+03 2.766e-10
 42.43504    -23.1 1.018e+04 4.688e-10
 42.47410    -21.4 1.072e+04 8.357e-10
 42.51317    -18.6 1.135e+04 1.234e-09
 42.55223    -16.5 1.173e+04 1.388e-09
 42.58143    -15.8 1.143e+04 1.179e-09
 42.60087    -16.0 1.166e+04 1.137e-09
 42.62040    -15.9 1.124e+04 1.012e-09
 42.63993    -16.1 1.150e+04 1.019e-09
 42.65946    -20.0 1.388e+04 1.350e-09
 42.67899    -25.0 1.668e+04 3.148e-09
 42.69853    -26.8 1.714e+04 6.517e-09
 42.71806    -26.6 1.708e+04 9.810e-09
 42.73759    -25.9 1.702e+04 1.090e-08
 42.75712    -25.5 1.706e+04 9.284e-09
 42.77665    -26.3 1.729e+04 5.808e-09
 42.79619    -31.4 1.578e+04 2.503e-09
 42.81572    -36.6 1.193e+04 1.035e-09
 42.83525    -38.1 1.061e+04 6.815e-10
 42.85478    -38.5 1.040e+04 5.530e-10
 42.87431    -39.4 1.018e+04 4.647e-10
 42.89385    -40.4 1.008e+04 4.384e-10
 42.91338    -41.2 1.007e+04 4.424e-10
 42.93291    -41.8 1.017e+04 4.828e-10
 42.95244    -42.4 1.024e+04 5.537e-10
 42.97197    -42.6 1.034e+04 6.606e-10
 42.99151    -42.4 1.055e+04 7.944e-10
 43.01104    -41.8 1.072e+04 9.021e-10
 43.03057    -41.4 1.074e+04 9.284e-10
 43.05010    -41.0 1.058e+04 8.926e-10
 43.06963    -40.6 1.032e+04 7.798e-10
 43.08003    -40.3 1.008e+04 6.637e-10
 43.08979    -40.5 1.004e+04 6.694e-10
 43.10870    -40.5 9.847e+03 5.827e-10
 43.12823    -40.7 9.708e+03 5.282e-10
 43.14776    -40.9 9.655e+03 5.084e-10
 43.16729    -41.0 9.653e+03 5.051e-10
 43.18683    -41.0 9.713e+03 5.163e-10
 43.20636    -41.3 9.854e+03 6.152e-10
 43.22589    -43.6 1.116e+04 9.231e-10
 43.24542    -47.2 1.321e+04 1.727e-09
 43.26495    -50.0 1.485e+04 3.398e-09
 43.28449    -51.4 1.583e+04 5.618e-09
 43.30402    -51.9 1.615e+04 6.845e-09
 43.32355    -52.2 1.605e+04 6.865e-09
 43.34308    -51.8 1.515e+04 4.765e-09
 43.36261    -51.6 1.380e+04 2.261e-09
 43.38215    -54.3 1.202e+04 8.744e-10
 43.40168    -57.5 9.990e+03 3.483e-10
 43.42121    -58.5 9.172e+03 2.307e-10
 43.45061    -58.6 8.954e+03 1.984e-10
 43.48977    -57.9 8.723e+03 1.696e-10
 43.52883    -56.3 8.578e+03 1.562e-10
 43.56790    -54.8 8.562e+03 1.582e-10
 43.60696    -53.4 8.692e+03 1.841e-10
 43.64602    -51.7 8.843e+03 2.094e-10
 43.68509    -50.1 8.907e+03 2.169e-10
 43.72415    -48.6 8.955e+03 2.127e-10
 43.76322    -47.2 8.970e+03 1.909e-10
 43.80228    -45.9 8.998e+03 1.723e-10
 43.84134    -44.6 9.007e+03 1.652e-10
 43.88041    -43.3 9.066e+03 1.676e-10
 43.91947    -41.9 9.181e+03 1.804e-10
 43.95854    -40.8 9.430e+03 2.027e-10
 43.99760    -40.3 9.804e+03 2.473e-10
 44.03666    -40.1 1.017e+04 3.428e-10
 44.07573    -39.6 1.049e+04 4.915e-10
 44.11479    -38.9 1.072e+04 5.947e-10
 44.15386    -38.5 1.076e+04 5.990e-10
 44.19292    -38.1 1.049e+04 4.163e-10
 44.23198    -38.1 9.995e+03 2.258e-10
 44.27105    -38.3 9.538e+03 1.214e-10
 44.31011    -38.4 9.235e+03 7.631e-11
 44.34918    -38.5 9.010e+03 6.223e-11
 44.38824    -38.2 8.937e+03 6.021e-11
 44.42730    -38.1 9.112e+03 6.734e-11
 44.46637    -38.1 9.309e+03 9.629e-11
 44.50543    -38.1 9.546e+03 1.445e-10
 44.54450    -38.3 9.861e+03 2.088e-10
 44.58356    -38.9 1.014e+04 2.806e-10
 44.62262    -39.7 1.024e+04 3.255e-10
 44.66169    -40.4 1.024e+04 3.376e-10
 44.70075    -41.8 1.036e+04 3.471e-10
 44.73982    -49.5 1.325e+04 4.835e-10
 44.76902    -58.2 1.495e+04 1.330e-09
 44.78845    -60.2 1.546e+04 3.883e-09
 44.80798    -60.3 1.616e+04 7.333e-09
 44.82751    -60.2 1.659e+04 8.845e-09
 44.84705    -60.6 1.656e+04 8.565e-09
 44.86658    -60.8 1.596e+04 4.680e-09
 44.88611    -63.8 1.483e+04 1.680e-09
 44.90564    -68.5 1.277e+04 6.175e-10
 44.92517    -71.0 1.134e+04 3.660e-10
 44.94471    -71.5 1.085e+04 3.032e-10
 44.96424    -71.5 1.070e+04 2.757e-10
 44.98377    -71.3 1.064e+04 2.683e-10
 45.01317    -71.5 1.066e+04 2.709e-10
 45.05233    -72.3 1.066e+04 2.882e-10
 45.09139    -73.4 1.085e+04 4.520e-10
 45.12059    -73.7 1.106e+04 6.613e-10
 45.14003    -73.8 1.131e+04 7.797e-10
 45.16942    -74.9 1.155e+04 9.341e-10
 45.20858    -76.5 1.161e+04 9.724e-10
 45.23778    -78.0 1.133e+04 8.095e-10
 45.25722    -78.8 1.110e+04 7.065e-10
 45.27675    -80.6 1.067e+04 5.880e-10
 45.29628    -81.3 1.049e+04 5.428e-10
 45.31581    -82.5 1.013e+04 4.745e-10
 45.33535    -82.9 9.858e+03 4.305e-10
 45.35461    -83.4 9.665e+03 3.891e-10
 45.37424    -84.6 9.690e+03 3.896e-10
 45.40390    -85.6 9.441e+03 3.304e-10
 45.44297    -86.8 9.371e+03 3.047e-10
 45.48203    -88.2 9.480e+03 3.124e-10
 45.52110    -89.6 9.811e+03 4.179e-10
 45.56016    -90.3 9.999e+03 5.391e-10
 45.59922    -90.5 1.004e+04 5.610e-10
 45.63829    -90.9 9.670e+03 4.293e-10
 45.67735    -91.7 9.259e+03 3.127e-10
 45.71642    -92.8 9.094e+03 2.734e-10
 45.75548    -93.9 9.084e+03 2.705e-10
 45.79454    -94.9 9.264e+03 3.153e-10
 45.83361    -95.8 9.474e+03 3.743e-10
 45.87267    -96.8 9.600e+03 4.019e-10
 45.91174    -98.4 9.656e+03 4.083e-10
 45.95080   -100.5 9.783e+03 4.132e-10
 45.98986   -102.9 1.017e+04 5.188e-10
 46.02893   -105.2 1.059e+04 7.209e-10
 46.06799   -107.1 1.089e+04 8.940e-10
 46.10706   -108.6 1.103e+04 9.470e-10
 46.14612   -109.7 1.108e+04 9.139e-10
 46.18518   -110.9 1.061e+04 6.985e-10
 46.22425   -112.0 1.026e+04 5.655e-10
 46.26331   -112.9 1.020e+04 5.423e-10
 46.30238   -115.2 1.062e+04 6.174e-10
 46.33158   -119.1 1.155e+04 7.519e-10
 46.35101   -122.6 1.347e+04 1.519e-09
 46.37054   -125.3 1.524e+04 3.364e-09
 46.39007   -126.7 1.667e+04 6.935e-09
 46.40961   -127.5 1.756e+04 1.079e-08
 46.42914   -128.8 1.786e+04 1.230e-08
 46.44867   -130.3 1.780e+04 1.218e-08
 46.46820   -131.5 1.706e+04 8.936e-09
 46.48773   -133.4 1.595e+04 5.484e-09
 46.50727   -136.1 1.467e+04 3.279e-09
 46.52680   -138.5 1.344e+04 2.186e-09
 46.54633   -139.7 1.254e+04 1.655e-09
 46.56586   -140.0 1.196e+04 1.358e-09
 46.58539   -140.1 1.154e+04 1.148e-09
 46.60493   -139.9 1.114e+04 9.667e-10
 46.62446   -139.3 1.077e+04 8.108e-10
 46.64399   -138.7 1.047e+04 6.880e-10
 46.66352   -137.9 1.022e+04 5.844e-10
 46.68305   -137.1 1.004e+04 4.940e-10
 46.70259   -136.1 9.910e+03 4.249e-10
 46.73198   -135.2 9.840e+03 3.743e-10
 46.77114   -133.9 9.810e+03 3.287e-10
 46.81021   -132.8 9.859e+03 3.078e-10
 46.83941   -132.5 9.978e+03 3.197e-10
 46.85884   -132.4 1.015e+04 3.421e-10
 46.87837   -132.7 1.051e+04 4.214e-10
 46.89791   -133.2 1.109e+04 5.889e-10
 46.91744   -133.6 1.182e+04 9.132e-10
 46.93697   -133.6 1.257e+04 1.447e-09
 46.95650   -133.4 1.321e+04 2.183e-09
 46.97603   -133.0 1.368e+04 2.934e-09
 46.99557   -132.9 1.390e+04 3.379e-09
 47.01510   -132.8 1.392e+04 3.468e-09
 47.03463   -132.7 1.372e+04 3.351e-09
 47.05416   -132.2 1.323e+04 2.780e-09
 47.07369   -131.7 1.273e+04 2.179e-09
 47.09323   -131.2 1.233e+04 1.739e-09
 47.11276   -130.7 1.194e+04 1.448e-09
 47.13229   -130.1 1.159e+04 1.229e-09
 47.15182   -129.3 1.139e+04 1.078e-09
 47.17135   -128.3 1.133e+04 1.011e-09
 47.19089   -127.5 1.133e+04 9.988e-10
 47.21042   -126.8 1.136e+04 9.992e-10
 47.22995   -126.4 1.163e+04 1.033e-09
 47.24948   -126.3 1.207e+04 1.216e-09
 47.26901   -126.3 1.256e+04 1.510e-09
 47.28855   -126.3 1.305e+04 1.921e-09
 47.30808   -126.3 1.347e+04 2.395e-09
 47.32761   -126.2 1.374e+04 2.790e-09
 47.34714   -126.1 1.383e+04 2.977e-09
 47.36667   -126.1 1.384e+04 3.009e-09
 47.38621   -126.0 1.368e+04 2.965e-09
 47.40574   -125.7 1.330e+04 2.595e-09
 47.42527   -125.5 1.282e+04 2.068e-09
 47.44480   -125.4 1.232e+04 1.596e-09
 47.46433   -125.2 1.183e+04 1.224e-09
 47.48387   -125.0 1.139e+04 9.533e-10
 47.50340   -124.8 1.105e+04 7.706e-10
 47.52293   -124.6 1.082e+04 6.543e-10
 47.54246   -124.4 1.067e+04 5.819e-10
 47.56199   -124.1 1.060e+04 5.372e-10
 47.58153   -123.8 1.056e+04 5.093e-10
 47.60106   -123.5 1.054e+04 4.913e-10
 47.62059   -123.2 1.052e+04 4.799e-10
 47.63876   -122.8 1.050e+04 4.755e-10
 47.64852   -121.7 1.033e+04 4.203e-10
 47.65965   -121.4 1.034e+04 4.201e-10
 47.67919   -121.2 1.043e+04 4.235e-10
 47.69872   -121.1 1.055e+04 4.400e-10
 47.71825   -121.0 1.067e+04 4.703e-10
 47.73778   -121.0 1.080e+04 5.070e-10
 47.75731   -121.0 1.096e+04 5.503e-10
 47.77685   -121.1 1.115e+04 6.066e-10
 47.79638   -121.4 1.138e+04 6.827e-10
 47.81591   -121.9 1.164e+04 7.870e-10
 47.83544   -122.6 1.193e+04 9.275e-10
 47.85497   -123.4 1.225e+04 1.116e-09
 47.87451   -124.2 1.257e+04 1.350e-09
 47.89404   -125.0 1.284e+04 1.597e-09
 47.91357   -125.8 1.299e+04 1.783e-09
 47.93310   -126.6 1.300e+04 1.841e-09
 47.95263   -127.4 1.294e+04 1.837e-09
 47.97217   -128.2 1.264e+04 1.714e-09
 47.99170   -128.9 1.228e+04 1.531e-09
 48.01123   -129.7 1.193e+04 1.377e-09
 48.03076   -130.4 1.163e+04 1.262e-09
 48.05029   -130.8 1.138e+04 1.162e-09
 48.06983   -131.0 1.120e+04 1.046e-09
 48.08936   -131.1 1.104e+04 8.992e-10
 48.10889   -131.2 1.091e+04 7.269e-10
 48.12842   -131.4 1.077e+04 5.570e-10
 48.14795   -131.9 1.060e+04 4.178e-10
 48.16749   -132.5 1.044e+04 3.250e-10
 48.18702   -133.1 1.035e+04 2.736e-10
 48.20655   -133.6 1.035e+04 2.497e-10
 48.22608   -134.2 1.039e+04 2.423e-10
 48.24561   -135.3 1.044e+04 2.402e-10
 48.26515   -137.3 1.104e+04 2.758e-10
 48.28468   -140.1 1.230e+04 4.488e-10
 48.30421   -142.6 1.375e+04 9.434e-10
 48.32374   -144.4 1.500e+04 1.906e-09
 48.34327   -145.6 1.590e+04 3.268e-09
 48.36281   -146.8 1.635e+04 4.526e-09
 48.38234   -147.7 1.642e+04 5.000e-09
 48.40187   -148.3 1.617e+04 4.994e-09
 48.42140   -149.0 1.548e+04 4.080e-09
 48.44093   -149.9 1.475e+04 3.000e-09
 48.46047   -150.8 1.391e+04 2.000e-09
 48.48000   -151.9 1.300e+04 1.308e-09
 48.49953   -152.7 1.215e+04 9.103e-10
 48.51906   -153.1 1.147e+04 6.973e-10
 48.53859   -153.1 1.105e+04 5.806e-10
 48.55813   -152.4 1.084e+04 4.988e-10
 48.57766   -151.5 1.073e+04 4.309e-10
 48.59719   -150.8 1.063e+04 3.773e-10
 48.61672   -150.2 1.051e+04 3.459e-10
 48.64612   -149.6 1.038e+04 3.226e-10
 48.68528   -147.9 1.003e+04 2.690e-10
 48.72434   -146.1 9.693e+03 2.303e-10
 48.76341   -144.0 9.474e+03 2.091e-10
 48.80247   -142.0 9.375e+03 2.026e-10
 48.84154   -140.0 9.272e+03 2.002e-10
 48.88060   -137.9 9.129e+03 1.964e-10
 48.91966   -135.9 8.927e+03 1.874e-10
 48.95873   -133.8 8.708e+03 1.699e-10
 48.99779   -131.6 8.471e+03 1.466e-10
 49.03686   -129.4 8.230e+03 1.230e-10
 49.07592   -127.3 8.034e+03 1.039e-10
 49.11498   -125.1 7.947e+03 9.358e-11
 49.15405   -123.0 7.944e+03 9.072e-11
 49.19311   -121.0 7.948e+03 9.082e-11
 49.23218   -119.3 7.997e+03 1.037e-10
 49.27124   -118.0 8.337e+03 1.556e-10
 49.31030   -116.7 8.831e+03 2.541e-10
 49.34937   -115.3 9.381e+03 4.030e-10
 49.38843   -114.0 9.889e+03 5.789e-10
 49.42750   -113.0 1.024e+04 7.220e-10
 49.46656   -112.2 1.035e+04 7.698e-10
 49.50562   -111.2 1.033e+04 7.692e-10
 49.54469   -109.8 1.005e+04 6.725e-10
 49.58375   -108.3 9.675e+03 5.429e-10
 49.62282   -106.7 9.432e+03 4.629e-10
 49.66188   -105.0 9.378e+03 4.407e-10
 49.70094   -103.3 9.379e+03 4.386e-10
 49.74001   -101.9 9.558e+03 4.831e-10
 49.77907   -100.5 1.022e+04 6.523e-10
 49.81814    -99.0 1.099e+04 9.196e-10
 49.85720    -97.9 1.175e+04 1.262e-09
 49.88640    -96.8 1.180e+04 1.253e-09
 49.90583    -96.6 1.213e+04 1.448e-09
 49.92300    -96.7 1.275e+04 1.701e-09
 49.94263    -97.0 1.120e+04 8.112e-10
 49.96453    -97.0 1.258e+04 1.363e-09
 49.98396    -97.5 1.342e+04 1.597e-09
 50.00349    -98.1 1.447e+04 1.956e-09
 50.02303    -98.5 1.526e+04 2.411e-09
 50.04256    -99.1 1.582e+04 3.012e-09
 50.06209   -100.7 1.645e+04 4.015e-09
 50.08162   -103.5 1.753e+04 6.378e-09
 50.10115   -106.2 1.881e+04 1.180e-08
 50.11575   -107.1 1.951e+04 1.880e-08
 50.12547   -108.0 2.003e+04 2.486e-08
 50.13524   -108.7 2.062e+04 3.321e-08
 50.14500   -109.1 2.162e+04 3.980e-08
 50.15477   -109.5 2.296e+04 4.297e-08
 50.16454   -110.5 2.454e+04 4.233e-08
 50.17430   -112.3 2.618e+04 3.818e-08
 50.18407   -115.5 2.945e+04 2.548e-08
 50.19383   -119.7 2.942e+04 1.755e-08
 50.20360   -124.0 2.712e+04 1.385e-08
 50.21337   -127.0 2.495e+04 1.308e-08
 50.22313   -128.4 2.430e+04 1.312e-08
 50.23290   -129.1 2.394e+04 1.439e-08
 50.24266   -129.6 2.420e+04 1.652e-08
 50.25243   -130.1 2.439e+04 1.870e-08
 50.26220   -130.6 2.436e+04 2.076e-08
 50.27196   -130.9 2.421e+04 2.274e-08
 50.28173   -131.3 2.404e+04 2.466e-08
 50.29149   -131.6 2.389e+04 2.659e-08
 50.30126   -131.9 2.383e+04 2.884e-08
 50.31103   -132.2 2.386e+04 3.133e-08
 50.32079   -132.4 2.383e+04 3.316e-08
 50.33056   -132.8 2.376e+04 3.351e-08
 50.34032   -133.2 2.351e+04 3.305e-08
 50.35009   -133.5 2.312e+04 3.114e-08
 50.35986   -133.6 2.271e+04 2.807e-08
 50.36962   -133.7 2.230e+04 2.456e-08
 50.37939   -133.8 2.178e+04 2.098e-08
 50.38915   -134.0 2.107e+04 1.748e-08
 50.39892   -134.0 2.025e+04 1.444e-08
 50.40869   -134.1 1.945e+04 1.205e-08
 50.41845   -134.0 1.869e+04 1.023e-08
 50.42822   -133.8 1.800e+04 8.843e-09
 50.43798   -133.4 1.744e+04 7.803e-09
 50.44775   -133.0 1.701e+04 7.034e-09
 50.45752   -132.5 1.670e+04 6.473e-09
 50.46728   -132.2 1.647e+04 6.036e-09
 50.47705   -131.9 1.626e+04 5.656e-09
 50.48681   -131.3 1.607e+04 5.313e-09
 50.49658   -130.7 1.593e+04 5.039e-09
 50.50635   -130.1 1.586e+04 4.892e-09
 50.51611   -129.8 1.572e+04 4.776e-09
 50.53081   -129.4 1.555e+04 4.595e-09
 50.55039   -129.0 1.546e+04 4.467e-09
 50.56992   -128.8 1.567e+04 4.507e-09
 50.58945   -128.8 1.609e+04 4.780e-09
 50.60899   -128.9 1.648e+04 5.331e-09
 50.62852   -128.8 1.681e+04 6.115e-09
 50.64805   -128.6 1.690e+04 7.153e-09
 50.66758   -128.4 1.682e+04 8.177e-09
 50.68711   -128.0 1.680e+04 8.611e-09
 50.70665   -127.4 1.680e+04 8.611e-09
 50.72618   -126.4 1.666e+04 8.088e-09
 50.74571   -125.3 1.623e+04 7.101e-09
 50.76524   -124.4 1.580e+04 5.990e-09
 50.78477   -124.0 1.579e+04 5.225e-09
 50.80431   -123.9 1.598e+04 4.987e-09
 50.81891   -124.7 1.654e+04 4.519e-09
 50.82862   -125.4 1.738e+04 4.724e-09
 50.83839   -126.5 1.839e+04 5.245e-09
 50.84816   -127.3 1.885e+04 5.741e-09
 50.85792   -128.5 1.934e+04 6.820e-09
 50.86769   -129.1 1.951e+04 7.557e-09
 50.87745   -130.0 1.973e+04 9.164e-09
 50.88722   -130.4 2.017e+04 1.051e-08
 50.89699   -130.9 2.063e+04 1.206e-08
 50.90675   -131.5 2.094e+04 1.345e-08
 50.91652   -132.2 2.092e+04 1.434e-08
 50.92628   -133.0 2.079e+04 1.459e-08
 50.93605   -133.9 2.002e+04 1.437e-08
 50.94582   -134.7 1.943e+04 1.264e-08
 50.95558   -135.8 1.902e+04 1.036e-08
 50.96535   -137.0 1.859e+04 8.083e-09
 50.97511   -138.5 1.791e+04 6.197e-09
 50.98488   -139.8 1.709e+04 4.775e-09
 50.99465   -140.8 1.645e+04 3.836e-09
 51.00441   -141.1 1.642e+04 3.301e-09
 51.01418   -141.2 1.664e+04 3.123e-09
 51.02394   -141.3 1.705e+04 3.071e-09
 51.03864   -141.6 1.705e+04 2.936e-09
 51.05822   -141.3 1.588e+04 2.179e-09
 51.07775   -140.8 1.519e+04 1.787e-09
 51.09729   -140.3 1.497e+04 1.665e-09
 51.11682   -139.6 1.497e+04 1.642e-09
 51.13635   -138.9 1.532e+04 1.681e-09
 51.15588   -138.3 1.596e+04 1.901e-09
 51.17541   -137.9 1.678e+04 2.284e-09
 51.19495   -137.5 1.763e+04 2.837e-09
 51.21448   -137.1 1.838e+04 3.646e-09
 51.23401   -136.6 1.897e+04 4.765e-09
 51.25354   -136.0 1.942e+04 6.137e-09
 51.27307   -135.2 1.991e+04 7.531e-09
 51.29261   -134.1 2.050e+04 8.498e-09
 51.31214   -133.1 2.082e+04 8.586e-09
 51.32674   -132.6 2.087e+04 8.353e-09
 51.33646   -132.5 2.103e+04 7.942e-09
 51.34622   -132.4 2.100e+04 7.539e-09
 51.35599   -132.6 2.076e+04 7.242e-09
 51.36575   -133.3 2.053e+04 6.996e-09
 51.37552   -133.9 2.026e+04 6.847e-09
 51.38529   -134.3 1.998e+04 6.838e-09
 51.39505   -134.5 1.985e+04 6.946e-09
 51.40482   -134.6 1.985e+04 7.348e-09
 51.41458   -134.5 2.002e+04 7.823e-09
 51.42435   -134.4 2.022e+04 8.328e-09
 51.43412   -134.4 2.039e+04 8.866e-09
 51.44388   -134.4 2.054e+04 9.470e-09
 51.45365   -134.4 2.071e+04 1.016e-08
 51.46341   -134.2 2.086e+04 1.091e-08
 51.47318   -134.0 2.097e+04 1.163e-08
 51.48295   -133.8 2.101e+04 1.228e-08
 51.49271   -133.7 2.104e+04 1.289e-08
 51.50248   -133.6 2.109e+04 1.342e-08
 51.51224   -133.5 2.111e+04 1.396e-08
 51.52201   -133.3 2.108e+04 1.464e-08
 51.53178   -133.1 2.100e+04 1.519e-08
 51.54154   -132.9 2.087e+04 1.564e-08
 51.55131   -132.8 2.072e+04 1.588e-08
 51.56107   -132.7 2.052e+04 1.603e-08
 51.57084   -132.7 2.033e+04 1.599e-08
 51.58061   -132.7 2.011e+04 1.584e-08
 51.59037   -132.7 1.993e+04 1.559e-08
 51.60014   -132.6 1.973e+04 1.532e-08
 51.60990   -132.4 1.952e+04 1.487e-08
 51.61967   -132.2 1.926e+04 1.424e-08
 51.62944   -132.0 1.893e+04 1.308e-08
 51.64413   -132.1 1.842e+04 1.097e-08
 51.66371   -131.6 1.778e+04 9.309e-09
 51.68325   -131.2 1.718e+04 7.888e-09
 51.70278   -130.6 1.651e+04 6.565e-09
 51.72231   -129.9 1.575e+04 5.275e-09
 51.74184   -129.1 1.497e+04 4.083e-09
 51.76083   -128.4 1.417e+04 3.064e-09
 51.77060   -128.8 1.268e+04 1.804e-09
 51.78091   -128.7 1.211e+04 1.310e-09
 51.80044   -128.7 1.157e+04 9.920e-10
 51.81997   -128.7 1.111e+04 8.024e-10
 51.83950   -128.6 1.079e+04 6.898e-10
 51.85903   -128.5 1.060e+04 6.242e-10
 51.87857   -128.5 1.048e+04 5.904e-10
 51.89810   -129.3 1.040e+04 5.818e-10
 51.91763   -130.6 1.067e+04 6.062e-10
 51.93716   -132.1 1.117e+04 7.556e-10
 51.95669   -133.2 1.154e+04 9.967e-10
 51.97623   -134.0 1.175e+04 1.254e-09
 51.99576   -134.3 1.182e+04 1.448e-09
 52.01529   -134.4 1.183e+04 1.529e-09
 52.03482   -134.4 1.182e+04 1.542e-09
 52.05435   -134.1 1.161e+04 1.498e-09
 52.07389   -133.3 1.132e+04 1.331e-09
 52.09342   -132.3 1.102e+04 1.130e-09
 52.11295   -131.4 1.075e+04 9.426e-10
 52.13248   -130.6 1.051e+04 7.869e-10
 52.15201   -129.7 1.032e+04 6.713e-10
 52.17155   -128.9 1.021e+04 5.989e-10
 52.19108   -128.0 1.019e+04 5.655e-10
 52.20725   -127.0 1.019e+04 5.577e-10
 52.21702   -127.8 1.031e+04 5.864e-10
 52.23014   -126.7 1.033e+04 5.895e-10
 52.24967   -125.6 1.042e+04 6.295e-10
 52.26921   -124.5 1.054e+04 6.953e-10
 52.28874   -123.4 1.065e+04 7.739e-10
 52.30827   -122.2 1.077e+04 8.654e-10
 52.32780   -121.0 1.094e+04 9.737e-10
 52.34733   -120.0 1.115e+04 1.100e-09
 52.36687   -119.0 1.139e+04 1.243e-09
 52.38640   -118.1 1.166e+04 1.401e-09
 52.40593   -117.3 1.199e+04 1.597e-09
 52.42546   -116.5 1.233e+04 1.858e-09
 52.44499   -115.8 1.271e+04 2.170e-09
 52.46453   -115.0 1.308e+04 2.512e-09
 52.48406   -114.3 1.342e+04 2.838e-09
 52.50359   -113.5 1.369e+04 3.079e-09
 52.52312   -112.7 1.388e+04 3.173e-09
 52.54265   -112.0 1.394e+04 3.185e-09
 52.56219   -111.3 1.406e+04 3.050e-09
 52.58172   -110.8 1.416e+04 2.770e-09
 52.60125   -110.7 1.427e+04 2.623e-09
 52.62078   -111.2 1.466e+04 2.705e-09
 52.64031   -111.9 1.505e+04 3.028e-09
 52.65985   -112.5 1.517e+04 3.766e-09
 52.67938   -112.6 1.530e+04 4.783e-09
 52.69891   -112.1 1.542e+04 5.831e-09
 52.71844   -111.2 1.558e+04 6.656e-09
 52.73797   -110.3 1.573e+04 6.999e-09
 52.75751   -109.5 1.563e+04 6.660e-09
 52.77704   -108.7 1.530e+04 5.980e-09
 52.79657   -108.0 1.494e+04 4.711e-09
 52.81610   -107.8 1.432e+04 3.335e-09
 52.83563   -107.7 1.343e+04 2.209e-09
 52.85517   -108.3 1.235e+04 1.451e-09
 52.87470   -109.0 1.127e+04 1.023e-09
 52.89423   -109.3 1.058e+04 8.209e-10
 52.91376   -109.0 1.038e+04 7.559e-10
 52.93329   -108.4 1.035e+04 7.380e-10
 52.95283   -107.7 1.034e+04 7.236e-10
 52.97236   -106.9 1.031e+04 7.060e-10
 52.99189   -106.1 1.027e+04 6.861e-10
 53.01142   -105.2 1.020e+04 6.605e-10
 53.03095   -104.3 1.012e+04 6.246e-10
 53.05049   -103.4 1.002e+04 5.765e-10
 53.07002   -102.6 9.916e+03 5.307e-10
 53.08955   -101.7 9.844e+03 5.000e-10
 53.10908   -100.9 9.811e+03 4.859e-10
 53.13848   -100.0 9.852e+03 4.925e-10
 53.17764    -98.0 9.620e+03 4.162e-10
 53.21670    -96.3 9.412e+03 3.426e-10
 53.25577    -94.4 9.116e+03 2.554e-10
 53.29483    -92.5 8.871e+03 1.907e-10
 53.33389    -90.6 8.757e+03 1.533e-10
 53.37296    -89.0 8.763e+03 1.449e-10
 53.41202    -87.6 8.851e+03 1.457e-10
 53.45109    -86.8 9.381e+03 2.010e-10
 53.49015    -85.9 9.824e+03 3.321e-10
 53.52921    -84.7 1.015e+04 4.818e-10
 53.56828    -83.7 1.029e+04 5.563e-10
 53.60734    -82.6 1.027e+04 5.629e-10
 53.64641    -81.2 9.918e+03 4.736e-10
 53.68547    -80.0 9.470e+03 3.615e-10
 53.72453    -78.8 9.251e+03 3.092e-10
 53.76360    -77.7 9.206e+03 3.015e-10
 53.80266    -77.3 9.431e+03 3.528e-10
 53.84173    -77.3 1.027e+04 5.796e-10
 53.88079    -77.2 1.106e+04 9.301e-10
 53.91985    -77.2 1.162e+04 1.290e-09
 53.95892    -77.3 1.182e+04 1.447e-09
 53.99798    -77.9 1.181e+04 1.451e-09
 54.03705    -78.5 1.143e+04 1.214e-09
 54.07611    -79.6 1.094e+04 9.540e-10
 54.11517    -81.6 1.084e+04 8.548e-10
 54.15424    -86.5 1.121e+04 8.603e-10
 54.18344    -91.3 1.211e+04 1.031e-09
 54.20287    -95.4 1.317e+04 1.800e-09
 54.22241    -98.5 1.413e+04 2.849e-09
 54.24194   -101.3 1.472e+04 3.716e-09
 54.26147   -104.4 1.485e+04 3.904e-09
 54.28100   -107.7 1.463e+04 3.511e-09
 54.30053   -111.3 1.362e+04 2.315e-09
 54.32007   -115.2 1.222e+04 1.480e-09
 54.33960   -118.0 1.118e+04 1.100e-09
 54.35913   -119.3 1.081e+04 9.408e-10
 54.37866   -120.0 1.061e+04 8.350e-10
 54.39819   -120.4 1.044e+04 7.513e-10
 54.41773   -120.7 1.031e+04 6.899e-10
 54.43726   -121.0 1.022e+04 6.517e-10
 54.45679   -121.3 1.018e+04 6.300e-10
 54.47632   -121.7 1.015e+04 6.177e-10
 54.49150   -122.3 1.013e+04 6.136e-10
 54.50126   -123.2 1.019e+04 6.432e-10
 54.51539   -123.8 1.033e+04 6.638e-10
 54.53492   -124.5 1.054e+04 7.336e-10
 54.55445   -125.1 1.081e+04 8.385e-10
 54.57398   -125.7 1.113e+04 9.743e-10
 54.59351   -126.4 1.146e+04 1.131e-09
 54.61305   -127.1 1.175e+04 1.286e-09
 54.63258   -127.8 1.197e+04 1.407e-09
 54.65211   -128.5 1.206e+04 1.462e-09
 54.67164   -129.4 1.208e+04 1.471e-09
 54.69117   -130.0 1.200e+04 1.381e-09
 54.71071   -130.6 1.173e+04 1.161e-09
 54.73024   -131.1 1.143e+04 9.541e-10
 54.74977   -131.4 1.111e+04 7.815e-10
 54.76930   -131.7 1.082e+04 6.422e-10
 54.78883   -131.7 1.053e+04 5.303e-10
 54.80837   -131.7 1.026e+04 4.427e-10
 54.82790   -131.2 1.006e+04 3.834e-10
 54.84743   -130.4 1.004e+04 3.592e-10
 54.86696   -129.9 1.007e+04 3.548e-10
 54.88649   -129.4 1.010e+04 3.493e-10
 54.90603   -129.0 1.021e+04 3.518e-10
 54.92556   -128.5 1.034e+04 3.625e-10
 54.94509   -128.4 1.053e+04 3.916e-10
 54.96462   -128.1 1.077e+04 4.438e-10
 54.98415   -127.9 1.094e+04 5.132e-10
 55.00369   -127.6 1.108e+04 6.020e-10
 55.02322   -127.3 1.121e+04 7.094e-10
 55.04275   -126.9 1.134e+04 8.255e-10
 55.06228   -126.4 1.150e+04 9.390e-10
 55.08181   -126.0 1.167e+04 1.038e-09
 55.10135   -125.8 1.181e+04 1.112e-09
 55.12088   -125.7 1.193e+04 1.162e-09
 55.14041   -125.9 1.195e+04 1.166e-09
 55.16980   -126.4 1.183e+04 1.101e-09
 55.20897   -126.1 1.162e+04 1.008e-09
 55.24803   -125.7 1.135e+04 8.596e-10
 55.28709   -125.2 1.100e+04 6.908e-10
 55.32616   -124.5 1.074e+04 5.654e-10
 55.36522   -123.6 1.063e+04 5.073e-10
 55.40429   -122.4 1.062e+04 4.982e-10
 55.44335   -121.2 1.077e+04 5.305e-10
 55.48241   -120.1 1.097e+04 5.923e-10
 55.52148   -118.8 1.104e+04 6.256e-10
 55.56054   -117.4 1.102e+04 6.243e-10
 55.59961   -115.8 1.091e+04 5.691e-10
 55.63867   -113.9 1.077e+04 4.936e-10
 55.67773   -112.0 1.064e+04 4.252e-10
 55.71680   -109.9 1.051e+04 3.675e-10
 55.75586   -107.7 1.038e+04 3.191e-10
 55.79493   -105.3 1.026e+04 2.787e-10
 55.83399   -102.8 1.019e+04 2.468e-10
 55.87305   -100.3 1.018e+04 2.258e-10
 55.91212    -97.8 1.019e+04 2.183e-10
 55.95118    -95.4 1.019e+04 2.176e-10
 55.99025    -93.3 1.041e+04 2.199e-10
 56.02931    -91.3 1.052e+04 2.599e-10
 56.06837    -89.3 1.076e+04 3.238e-10
 56.10744    -87.2 1.109e+04 4.116e-10
 56.14650    -85.3 1.142e+04 4.851e-10
 56.17570    -83.8 1.145e+04 5.145e-10
 56.19514    -83.4 1.152e+04 5.279e-10
 56.21467    -82.6 1.158e+04 5.406e-10
 56.23420    -82.3 1.159e+04 5.405e-10
 56.25373    -81.6 1.163e+04 5.472e-10
 56.27327    -81.0 1.159e+04 5.157e-10
 56.29280    -80.4 1.157e+04 4.907e-10
 56.31233    -79.8 1.157e+04 4.723e-10
 56.33186    -79.3 1.158e+04 4.617e-10
 56.35139    -78.6 1.160e+04 4.595e-10
 56.37093    -78.0 1.173e+04 4.616e-10
 56.39046    -77.5 1.180e+04 4.832e-10
 56.40999    -76.9 1.181e+04 5.191e-10
 56.42952    -76.2 1.182e+04 5.665e-10
 56.44905    -75.6 1.183e+04 6.235e-10
 56.46859    -75.0 1.186e+04 6.910e-10
 56.48812    -74.4 1.192e+04 7.702e-10
 56.50765    -73.8 1.200e+04 8.592e-10
 56.52718    -73.1 1.207e+04 9.541e-10
 56.54671    -72.3 1.211e+04 1.044e-09
 56.56625    -71.4 1.214e+04 1.106e-09
 56.58578    -70.4 1.215e+04 1.126e-09
 56.60531    -69.4 1.213e+04 1.078e-09
 56.62484    -68.2 1.199e+04 9.448e-10
 56.64437    -67.2 1.184e+04 8.110e-10
 56.66391    -66.4 1.175e+04 7.150e-10
 56.68344    -65.7 1.170e+04 6.606e-10
 56.70297    -65.0 1.168e+04 6.437e-10
 56.72250    -64.3 1.168e+04 6.426e-10
 56.74203    -63.7 1.177e+04 6.938e-10
 56.76157    -63.1 1.185e+04 8.132e-10
 56.77574    -62.4 1.193e+04 9.551e-10
 56.78551    -61.9 1.196e+04 8.058e-10
 56.80063    -61.3 1.210e+04 9.901e-10
 56.82016    -60.6 1.228e+04 1.203e-09
 56.83969    -59.8 1.240e+04 1.389e-09
 56.85923    -59.2 1.242e+04 1.477e-09
 56.87876    -58.6 1.228e+04 1.480e-09
 56.89829    -57.7 1.189e+04 1.304e-09
 56.91782    -56.8 1.153e+04 1.057e-09
 56.93735    -55.9 1.120e+04 8.186e-10
 56.95689    -55.1 1.093e+04 6.165e-10
 56.97642    -54.4 1.074e+04 4.660e-10
 56.99595    -53.9 1.059e+04 3.724e-10
 57.01548    -53.4 1.045e+04 3.301e-10
 57.04488    -52.3 1.031e+04 3.034e-10
 57.08404    -50.6 1.001e+04 2.699e-10
 57.12310    -48.5 9.702e+03 2.441e-10
 57.16217    -46.3 9.467e+03 2.247e-10
 57.20123    -44.0 9.277e+03 2.035e-10
 57.24029    -41.6 9.128e+03 1.812e-10
 57.27936    -39.2 9.024e+03 1.610e-10
 57.31842    -36.8 8.942e+03 1.445e-10
 57.35749    -34.5 8.869e+03 1.336e-10
 57.39655    -32.1 8.806e+03 1.282e-10
 57.43561    -29.7 8.773e+03 1.265e-10
 57.47468    -27.2 8.759e+03 1.304e-10
 57.51374    -24.7 8.762e+03 1.356e-10
 57.55281    -22.2 8.747e+03 1.374e-10
 57.59187    -19.6 8.741e+03 1.370e-10
 57.63093    -17.0 8.706e+03 1.376e-10
 57.67000    -14.3 8.694e+03 1.385e-10
 57.70906    -11.8 8.777e+03 1.464e-10
 57.74813     -9.6 8.877e+03 1.728e-10
 57.78719     -7.2 8.956e+03 2.239e-10
 57.82625     -4.4 9.132e+03 2.961e-10
 57.86532     -1.6 9.426e+03 3.535e-10
 57.90438      0.3 9.741e+03 4.081e-10
 57.94345      1.8 1.003e+04 5.407e-10
 57.98251      3.9 1.034e+04 7.555e-10
 58.02157      6.1 1.061e+04 9.308e-10
 58.06064      8.4 1.073e+04 1.004e-09
 58.09970     10.7 1.074e+04 1.001e-09
 58.13877     12.9 1.071e+04 9.656e-10
 58.17783     15.0 1.072e+04 9.427e-10
 58.21689     16.6 1.093e+04 1.040e-09
 58.25596     18.3 1.138e+04 1.302e-09
 58.29502     20.1 1.172e+04 1.517e-09
 58.33409     21.9 1.165e+04 1.433e-09
 58.36329     23.2 1.140e+04 1.240e-09
 58.38272     23.8 1.121e+04 1.051e-09
 58.40225     23.9 1.100e+04 8.757e-10
 58.42178     23.8 1.074e+04 7.406e-10
 58.44132     23.7 1.045e+04 6.502e-10
 58.46085     23.7 1.018e+04 5.837e-10
 58.48038     24.0 9.921e+03 5.200e-10
 58.49991     24.4 9.723e+03 4.623e-10
 58.51944     24.9 9.541e+03 3.898e-10
 58.53898     24.8 9.485e+03 3.546e-10
 58.56837     25.3 9.294e+03 3.099e-10
 58.60753     26.2 8.995e+03 2.545e-10
 58.64660     27.1 8.750e+03 2.169e-10
 58.68566     28.1 8.744e+03 2.151e-10
 58.72473     29.3 8.818e+03 2.308e-10
 58.76379     30.6 9.163e+03 2.998e-10
 58.80285     31.9 9.410e+03 3.722e-10
 58.83205     32.3 9.566e+03 4.321e-10
 58.85149     33.0 9.703e+03 4.998e-10
 58.87102     33.7 9.929e+03 5.941e-10
 58.89055     34.3 1.022e+04 7.085e-10
 58.91008     34.8 1.062e+04 8.637e-10
 58.92962     35.2 1.111e+04 1.084e-09
 58.95901     37.0 1.120e+04 1.146e-09
 58.99817     38.5 1.134e+04 1.332e-09
 59.03724     40.4 1.120e+04 1.275e-09
 59.06019     42.4 1.089e+04 1.064e-09
 59.07972     41.7 1.141e+04 1.316e-09
 59.11537     43.3 1.073e+04 8.231e-10
 59.15443     44.0 9.644e+03 4.858e-10
 59.19349     44.4 8.916e+03 3.448e-10
 59.23256     45.8 9.010e+03 3.383e-10
 59.27162     47.4 8.912e+03 3.318e-10
 59.31069     49.0 8.994e+03 3.557e-10
 59.34975     50.3 9.196e+03 4.080e-10
 59.38881     51.1 9.438e+03 4.797e-10
 59.42788     51.5 9.585e+03 5.061e-10
 59.46694     51.8 9.605e+03 4.901e-10
 59.50601     51.9 9.498e+03 4.212e-10
 59.54507     51.8 9.313e+03 3.342e-10
 59.58413     51.8 9.160e+03 2.825e-10
 59.61333     51.9 9.070e+03 2.755e-10
 59.63277     52.2 9.073e+03 2.776e-10
 59.65230     52.5 9.172e+03 2.951e-10
 59.67183     52.5 9.488e+03 3.497e-10
 59.69136     51.9 1.038e+04 5.446e-10
 59.71090     50.3 1.252e+04 1.152e-09
 59.73043     49.5 1.436e+04 2.422e-09
 59.74996     49.6 1.546e+04 4.421e-09
 59.76949     50.5 1.622e+04 7.041e-09
 59.78902     51.8 1.691e+04 9.953e-09
 59.80856     53.0 1.745e+04 1.225e-08
 59.82809     53.9 1.782e+04 1.307e-08
 59.84762     54.3 1.797e+04 1.310e-08
 59.86715     54.4 1.799e+04 1.248e-08
 59.88668     54.2 1.790e+04 1.183e-08
 59.90622     53.5 1.795e+04 1.186e-08
 59.92575     52.5 1.821e+04 1.225e-08
 59.94528     51.5 1.881e+04 1.296e-08
 59.96481     50.6 1.911e+04 1.378e-08
 59.98434     49.9 1.876e+04 1.353e-08
 60.00388     49.2 1.789e+04 1.261e-08
 60.02341     48.8 1.669e+04 1.065e-08
 60.04294     48.9 1.534e+04 8.145e-09
 60.06247     49.0 1.414e+04 5.983e-09
 60.08200     49.1 1.348e+04 4.391e-09
 60.10154     49.3 1.300e+04 3.254e-09
 60.12107     49.6 1.262e+04 2.404e-09
 60.14060     50.0 1.220e+04 1.769e-09
 60.16013     50.2 1.167e+04 1.286e-09
 60.17966     50.5 1.116e+04 9.516e-10
 60.19920     50.9 1.068e+04 7.231e-10
 60.21873     51.2 1.027e+04 5.727e-10
 60.23826     51.6 9.906e+03 4.805e-10
 60.25779     52.2 9.636e+03 4.362e-10
 60.27732     53.1 9.587e+03 4.330e-10
 60.29686     54.1 9.603e+03 4.383e-10
 60.31639     55.0 9.678e+03 4.622e-10
 60.33592     55.9 9.935e+03 5.283e-10
 60.35545     56.5 1.041e+04 6.587e-10
 60.37498     56.9 1.095e+04 8.920e-10
 60.39452     57.3 1.154e+04 1.234e-09
 60.41405     58.1 1.204e+04 1.722e-09
 60.43358     59.4 1.244e+04 2.390e-09
 60.45311     60.8 1.292e+04 3.219e-09
 60.47264     62.4 1.351e+04 4.074e-09
 60.49218     64.1 1.408e+04 4.727e-09
 60.51171     65.7 1.460e+04 5.001e-09
 60.53124     67.1 1.523e+04 4.859e-09
 60.55077     67.9 1.573e+04 4.642e-09
 60.57030     68.2 1.608e+04 4.201e-09
 60.58984     68.5 1.605e+04 3.621e-09
 60.60937     68.7 1.536e+04 3.051e-09
 60.62890     68.9 1.428e+04 2.551e-09
 60.64843     69.4 1.306e+04 2.157e-09
 60.66796     70.1 1.209e+04 1.833e-09
 60.68750     71.0 1.156e+04 1.581e-09
 60.70703     72.1 1.124e+04 1.356e-09
 60.72656     72.5 1.105e+04 1.141e-09
 60.74609     72.3 1.099e+04 1.026e-09
 60.76562     71.6 1.115e+04 1.057e-09
 60.78516     69.8 1.170e+04 1.262e-09
 60.80469     66.7 1.272e+04 1.856e-09
 60.82422     62.6 1.431e+04 3.165e-09
 60.84375     58.9 1.567e+04 4.792e-09
 60.85835     56.7 1.636e+04 6.262e-09
 60.86807     54.5 1.701e+04 8.076e-09
 60.87784     52.5 1.762e+04 9.980e-09
 60.88760     50.5 1.810e+04 1.119e-08
 60.89737     48.4 1.865e+04 1.200e-08
 60.90713     46.1 1.914e+04 1.240e-08
 60.91690     43.6 1.920e+04 1.226e-08
 60.92667     41.4 1.908e+04 1.156e-08
 60.93643     39.0 1.841e+04 9.922e-09
 60.94620     37.3 1.767e+04 8.798e-09
 60.96090     35.9 1.642e+04 6.834e-09
 60.98048     36.1 1.473e+04 4.758e-09
 61.00001     35.9 1.365e+04 3.349e-09
 61.01954     35.7 1.280e+04 2.252e-09
 61.03907     34.8 1.207e+04 1.629e-09
 61.05860     34.8 1.115e+04 1.176e-09
 61.07814     34.8 1.102e+04 1.123e-09
 61.10753     35.4 1.045e+04 9.202e-10
 61.14669     37.9 9.837e+03 7.069e-10
 61.18576     40.7 9.354e+03 5.350e-10
 61.22482     43.7 8.889e+03 3.820e-10
 61.26389     46.6 8.451e+03 2.617e-10
 61.30295     49.2 8.083e+03 1.790e-10
 61.34201     51.8 7.805e+03 1.319e-10
 61.38108     54.4 7.617e+03 1.159e-10
 61.42014     57.3 7.583e+03 1.155e-10
 61.45921     60.3 7.584e+03 1.168e-10
 61.49827     63.2 7.625e+03 1.229e-10
 61.53733     66.0 7.700e+03 1.344e-10
 61.57640     68.7 7.816e+03 1.547e-10
 61.61546     71.6 8.055e+03 1.925e-10
 61.65453     74.1 8.435e+03 2.562e-10
 61.69359     76.4 8.942e+03 3.498e-10
 61.72279     77.4 9.194e+03 4.195e-10
 61.74222     78.2 9.451e+03 4.971e-10
 61.76176     79.1 9.747e+03 6.085e-10
 61.78129     79.9 1.009e+04 7.364e-10
 61.80082     80.7 1.044e+04 8.745e-10
 61.82035     81.4 1.078e+04 1.024e-09
 61.83988     82.1 1.107e+04 1.180e-09
 61.85942     82.8 1.131e+04 1.336e-09
 61.87895     83.6 1.150e+04 1.488e-09
 61.89848     84.5 1.163e+04 1.626e-09
 61.91801     85.5 1.174e+04 1.711e-09
 61.93754     86.5 1.180e+04 1.723e-09
 61.95708     87.4 1.179e+04 1.711e-09
 61.97661     88.5 1.173e+04 1.649e-09
 61.99614     89.5 1.160e+04 1.524e-09
 62.01567     90.5 1.142e+04 1.362e-09
 62.03520     91.6 1.127e+04 1.213e-09
 62.05474     92.4 1.115e+04 1.090e-09
 62.07427     93.2 1.102e+04 9.916e-10
 62.09380     94.2 1.089e+04 9.147e-10
 62.11333     95.2 1.076e+04 8.512e-10
 62.13286     96.2 1.064e+04 7.910e-10
 62.15240     97.2 1.051e+04 7.296e-10
 62.17193     98.2 1.037e+04 6.657e-10
 62.19146     99.3 1.021e+04 5.986e-10
 62.21099    100.5 1.006e+04 5.333e-10
 62.23052    101.9 9.909e+03 4.585e-10
 62.25006    102.7 9.843e+03 4.166e-10
 62.27945    104.6 9.691e+03 3.701e-10
 62.31861    107.0 9.475e+03 3.234e-10
 62.35768    109.6 9.237e+03 2.990e-10
 62.39674    112.1 9.096e+03 2.942e-10
 62.43581    114.7 9.087e+03 2.975e-10
 62.47487    117.1 9.079e+03 3.088e-10
 62.51393    119.4 9.087e+03 3.244e-10
 62.55300    121.4 9.105e+03 3.460e-10
 62.59206    123.3 9.091e+03 3.587e-10
 62.63113    125.2 9.090e+03 3.687e-10
 62.66033    126.7 9.152e+03 3.961e-10
 62.67976    127.8 9.221e+03 4.180e-10
 62.69929    128.7 9.275e+03 4.377e-10
 62.71882    129.6 9.319e+03 4.596e-10
 62.73836    130.5 9.360e+03 4.861e-10
 62.75789    131.5 9.408e+03 5.204e-10
 62.77742    132.5 9.489e+03 5.632e-10
 62.79695    133.6 9.580e+03 6.103e-10
 62.81648    134.6 9.676e+03 6.631e-10
 62.83602    135.7 9.786e+03 7.188e-10
 62.85555    136.8 9.916e+03 7.766e-10
 62.87508    137.9 1.004e+04 8.316e-10
 62.89461    139.0 1.014e+04 8.709e-10
 62.91414    140.0 1.017e+04 8.774e-10
 62.93368    141.0 1.016e+04 8.754e-10
 62.95321    142.0 1.015e+04 8.638e-10
 62.97274    142.9 1.010e+04 8.395e-10
 62.99227    143.9 1.003e+04 8.068e-10
 63.01180    144.8 9.937e+03 7.699e-10
 63.03134    145.6 9.832e+03 7.312e-10
 63.05087    146.5 9.721e+03 6.938e-10
 63.07040    147.4 9.612e+03 6.562e-10
 63.08993    148.3 9.513e+03 6.191e-10
 63.10946    149.2 9.420e+03 5.848e-10
 63.12900    150.1 9.374e+03 5.642e-10
 63.14853    151.1 9.375e+03 5.627e-10
 63.16806    152.0 9.390e+03 5.660e-10
 63.18759    152.8 9.440e+03 5.787e-10
 63.20712    153.6 9.561e+03 6.160e-10
 63.22666    154.3 9.767e+03 6.853e-10
 63.24619    154.9 1.006e+04 7.931e-10
 63.26572    155.5 1.043e+04 9.509e-10
 63.28525    155.6 1.095e+04 1.185e-09
 63.30478    155.3 1.185e+04 1.586e-09
 63.32432    154.4 1.319e+04 2.333e-09
 63.34385    153.0 1.456e+04 3.575e-09
 63.36338    151.9 1.538e+04 4.758e-09
 63.37798    151.8 1.587e+04 5.485e-09
 63.38770    151.3 1.648e+04 6.511e-09
 63.39746    150.6 1.714e+04 8.107e-09
 63.40723    149.8 1.779e+04 1.011e-08
 63.41700    149.0 1.848e+04 1.243e-08
 63.42676    147.8 1.921e+04 1.494e-08
 63.43653    146.5 1.988e+04 1.751e-08
 63.44629    144.9 2.032e+04 1.990e-08
 63.45606    143.4 2.047e+04 2.219e-08
 63.46583    142.0 2.036e+04 2.513e-08
 63.47559    140.8 2.017e+04 2.903e-08
 63.48536    139.8 2.011e+04 3.388e-08
 63.49512    139.0 2.014e+04 3.487e-08
 63.50489    138.3 2.013e+04 3.399e-08
 63.51466    138.3 2.010e+04 3.022e-08
 63.52442    138.3 2.012e+04 2.515e-08
 63.53912    137.7 1.942e+04 1.250e-08
 63.55870    135.9 1.922e+04 4.809e-09
 63.57823    130.9 1.781e+04 1.247e-09
 63.59776    123.9 1.207e+04 5.891e-10
 63.61730    118.8 8.730e+03 5.066e-10
 63.62858    120.5 1.026e+04 4.075e-10
 63.64821    118.0 1.044e+04 7.475e-10
 63.68585    118.3 1.056e+04 7.918e-10
 63.72492    119.6 1.051e+04 8.022e-10
 63.76398    121.2 1.049e+04 8.039e-10
 63.80305    123.1 1.059e+04 8.373e-10
 63.83225    124.0 1.063e+04 8.793e-10
 63.85168    124.9 1.073e+04 9.368e-10
 63.87121    125.8 1.091e+04 1.029e-09
 63.89074    126.7 1.117e+04 1.158e-09
 63.91028    127.5 1.149e+04 1.325e-09
 63.92981    128.3 1.187e+04 1.532e-09
 63.94934    128.8 1.230e+04 1.790e-09
 63.96887    129.1 1.273e+04 2.115e-09
 63.98840    129.1 1.313e+04 2.526e-09
 64.00794    129.2 1.346e+04 3.028e-09
 64.02747    129.5 1.371e+04 3.594e-09
 64.04700    129.7 1.376e+04 3.976e-09
 64.06653    129.7 1.374e+04 3.986e-09
 64.08606    129.7 1.359e+04 3.885e-09
 64.10560    129.8 1.326e+04 3.556e-09
 64.12513    130.2 1.286e+04 3.152e-09
 64.14466    130.6 1.251e+04 2.744e-09
 64.16419    130.9 1.227e+04 2.348e-09
 64.19359    131.1 1.195e+04 1.946e-09
 64.23275    132.2 1.161e+04 1.662e-09
 64.27181    133.5 1.125e+04 1.386e-09
 64.31088    135.1 1.082e+04 1.099e-09
 64.34994    137.0 1.035e+04 8.186e-10
 64.38901    138.8 9.842e+03 5.743e-10
 64.42807    140.6 9.324e+03 3.885e-10
 64.46713    142.3 8.866e+03 2.653e-10
 64.50620    143.9 8.532e+03 1.947e-10
 64.54526    145.7 8.332e+03 1.583e-10
 64.58433    147.6 8.230e+03 1.430e-10
 64.62339    149.8 8.175e+03 1.372e-10
 64.66245    152.1 8.146e+03 1.348e-10
 64.70152    154.4 8.136e+03 1.330e-10
 64.74058    156.9 8.146e+03 1.296e-10
 64.77965    159.3 8.182e+03 1.223e-10
 64.81871    161.6 8.228e+03 1.097e-10
 64.85777    163.7 8.271e+03 9.246e-11
 64.89684    165.6 8.302e+03 7.369e-11
 64.93590    167.4 8.302e+03 5.854e-11
 64.97497    169.1 8.260e+03 5.242e-11
 65.01403    171.0 8.255e+03 5.246e-11
 65.05309    172.8 8.284e+03 5.400e-11
 65.09216    174.6 8.393e+03 5.956e-11
 65.13122    176.5 8.549e+03 6.910e-11
 65.17029    178.4 8.700e+03 8.133e-11
 65.20935    180.3 8.812e+03 9.443e-11
 65.24841    182.3 8.879e+03 1.070e-10
 65.28748    184.3 8.906e+03 1.185e-10
 65.32654    186.3 8.914e+03 1.293e-10
 65.36561    188.3 8.917e+03 1.391e-10
 65.40467    190.3 8.928e+03 1.471e-10
 65.44373    192.2 8.942e+03 1.526e-10
 65.48280    193.9 8.945e+03 1.552e-10
 65.52186    195.4 8.933e+03 1.560e-10
 65.56093    196.8 8.902e+03 1.568e-10
 65.59999    198.0 8.872e+03 1.573e-10
 65.63905    199.1 8.864e+03 1.579e-10
 65.67812    199.9 8.845e+03 1.607e-10
 65.71718    200.5 8.827e+03 1.698e-10
 65.75625    201.0 8.902e+03 1.884e-10
 65.79531    201.2 9.088e+03 2.217e-10
 65.83437    201.2 9.359e+03 2.772e-10
 65.87344    201.2 9.629e+03 3.507e-10
 65.91250    201.2 9.788e+03 4.073e-10
 65.95157    201.3 9.793e+03 4.122e-10
 65.99063    201.6 9.728e+03 4.000e-10
 66.02969    202.2 9.534e+03 3.517e-10
 66.06876    203.0 9.264e+03 2.831e-10
 66.10782    203.9 8.965e+03 2.197e-10
 66.14689    205.0 8.685e+03 1.732e-10
 66.18595    206.3 8.466e+03 1.436e-10
 66.22501    207.8 8.312e+03 1.266e-10
 66.26408    209.4 8.215e+03 1.171e-10
 66.30314    211.2 8.127e+03 1.138e-10
 66.34221    213.0 8.105e+03 1.139e-10
 66.38127    214.8 8.104e+03 1.142e-10
 66.42033    216.7 8.100e+03 1.162e-10
 66.45940    218.4 8.105e+03 1.215e-10
 66.49846    220.2 8.128e+03 1.312e-10
 66.53753    221.9 8.166e+03 1.456e-10
 66.57659    223.6 8.210e+03 1.635e-10
 66.61565    225.4 8.252e+03 1.835e-10
 66.65472    227.3 8.302e+03 2.051e-10
 66.69378    229.3 8.389e+03 2.307e-10
 66.73285    231.5 8.551e+03 2.648e-10
 66.77191    233.6 8.806e+03 3.134e-10
 66.81097    235.5 9.097e+03 3.766e-10
 66.85004    236.5 9.290e+03 4.314e-10
 66.87924    237.4 9.501e+03 5.056e-10
 66.89867    238.6 9.812e+03 6.134e-10
 66.91820    239.5 1.018e+04 7.439e-10
 66.93774    240.2 1.056e+04 8.683e-10
 66.95727    240.4 1.089e+04 9.537e-10
 66.97680    240.4 1.109e+04 9.655e-10
 66.99633    240.4 1.109e+04 9.640e-10
 67.01586    240.4 1.110e+04 9.501e-10
 67.03540    240.5 1.107e+04 9.046e-10
 67.05493    240.6 1.098e+04 8.373e-10
 67.07446    240.7 1.087e+04 7.722e-10
 67.09399    240.9 1.082e+04 7.461e-10
 67.11352    241.0 1.082e+04 7.472e-10
 67.13306    241.0 1.086e+04 7.574e-10
 67.15259    241.0 1.097e+04 7.988e-10
 67.17212    240.8 1.117e+04 8.858e-10
 67.19165    240.6 1.144e+04 1.021e-09
 67.21118    240.3 1.172e+04 1.199e-09
 67.23072    240.1 1.198e+04 1.403e-09
 67.25025    240.0 1.218e+04 1.596e-09
 67.26978    239.9 1.223e+04 1.687e-09
 67.28931    239.8 1.223e+04 1.688e-09
 67.30884    239.8 1.219e+04 1.678e-09
 67.32838    239.8 1.207e+04 1.631e-09
 67.34791    239.9 1.191e+04 1.538e-09
 67.36744    240.0 1.173e+04 1.409e-09
 67.38697    240.2 1.153e+04 1.258e-09
 67.40650    240.4 1.132e+04 1.100e-09
 67.42604    240.7 1.112e+04 9.493e-10
 67.44557    241.0 1.093e+04 8.209e-10
 67.46510    241.3 1.078e+04 7.188e-10
 67.48463    241.6 1.066e+04 6.454e-10
 67.50416    241.9 1.061e+04 6.048e-10
 67.52370    242.2 1.061e+04 5.934e-10
 67.54323    242.6 1.060e+04 5.901e-10
 67.56276    243.1 1.060e+04 5.874e-10
 67.58229    243.5 1.058e+04 5.822e-10
 67.60182    243.8 1.055e+04 5.725e-10
 67.62136    244.2 1.050e+04 5.612e-10
 67.64089    244.6 1.049e+04 5.585e-10
 67.66042    244.8 1.051e+04 5.608e-10
 67.67995    244.9 1.055e+04 5.734e-10
 67.69948    244.8 1.066e+04 6.106e-10
 67.71902    244.6 1.089e+04 6.882e-10
 67.73855    244.2 1.124e+04 8.307e-10
 67.75808    243.5 1.171e+04 1.079e-09
 67.77761    242.6 1.232e+04 1.490e-09
 67.79714    241.5 1.301e+04 2.137e-09
 67.81668    240.2 1.377e+04 3.098e-09
 67.83621    238.7 1.454e+04 4.451e-09
 67.85574    237.0 1.524e+04 6.238e-09
 67.87527    235.0 1.581e+04 8.423e-09
 67.89480    232.9 1.621e+04 1.059e-08
 67.91434    230.7 1.637e+04 1.138e-08
 67.93387    228.3 1.636e+04 1.131e-08
 67.95340    225.9 1.621e+04 1.060e-08
 67.97293    224.1 1.569e+04 8.649e-09
 67.99246    223.2 1.492e+04 6.242e-09
 68.01200    222.4 1.413e+04 4.159e-09
 68.03153    221.4 1.342e+04 2.665e-09
 68.05106    220.1 1.301e+04 1.808e-09
 68.07059    219.0 1.248e+04 1.277e-09
 68.09999    217.4 1.166e+04 8.259e-10
 68.13915    216.7 1.042e+04 4.828e-10
 68.17764    216.7 9.405e+03 3.207e-10
 68.19717    216.6 9.199e+03 3.230e-10
 68.21728    216.9 9.114e+03 3.139e-10
 68.25634    217.8 9.112e+03 3.179e-10
 68.29540    218.6 9.173e+03 3.420e-10
 68.33447    218.9 9.282e+03 3.735e-10
 68.37353    218.8 9.314e+03 3.789e-10
 68.41260    218.6 9.309e+03 3.723e-10
 68.45166    218.2 9.257e+03 3.422e-10
 68.49072    217.6 9.139e+03 2.924e-10
 68.52979    216.9 8.978e+03 2.393e-10
 68.56885    216.2 8.799e+03 1.943e-10
 68.60792    215.5 8.631e+03 1.614e-10
 68.64698    215.0 8.496e+03 1.397e-10
 68.68604    214.7 8.404e+03 1.262e-10
 68.72511    214.6 8.351e+03 1.175e-10
 68.76417    214.6 8.324e+03 1.109e-10
 68.80324    214.5 8.325e+03 1.056e-10
 68.84230    214.5 8.349e+03 1.040e-10
 68.88136    214.4 8.370e+03 1.045e-10
 68.92043    214.0 8.457e+03 1.084e-10
 68.95949    213.0 8.733e+03 1.289e-10
 68.99856    211.6 9.037e+03 1.680e-10
 69.03762    209.5 9.622e+03 2.712e-10
 69.07668    206.5 1.082e+04 5.887e-10
 69.11575    202.7 1.191e+04 1.127e-09
 69.15481    198.1 1.239e+04 1.289e-09
 69.19388    192.8 1.234e+04 1.221e-09
 69.23294    186.4 1.187e+04 9.202e-10
 69.26214    183.0 1.139e+04 7.896e-10
 69.28158    180.4 1.099e+04 7.179e-10
 69.30111    177.9 1.067e+04 6.745e-10
 69.32064    175.6 1.047e+04 6.479e-10
 69.34017    173.6 1.036e+04 6.319e-10
 69.35970    171.7 1.032e+04 6.207e-10
 69.37924    169.7 1.033e+04 6.188e-10
 69.39877    167.6 1.035e+04 6.209e-10
 69.41830    165.3 1.040e+04 6.266e-10
 69.43783    162.8 1.045e+04 6.280e-10
 69.45736    160.3 1.045e+04 6.239e-10
 69.47690    157.6 1.046e+04 5.988e-10
 69.49643    154.7 1.042e+04 5.394e-10
 69.51596    151.7 1.033e+04 4.554e-10
 69.53549    148.3 1.022e+04 3.812e-10
 69.55502    144.7 1.016e+04 3.637e-10
 69.57456    141.1 1.019e+04 3.708e-10
 69.59409    137.5 1.034e+04 4.132e-10
 69.61362    134.1 1.058e+04 5.194e-10
 69.63315    131.2 1.080e+04 6.747e-10
 69.65268    129.0 1.099e+04 8.472e-10
 69.67222    127.1 1.115e+04 9.918e-10
 69.69175    125.5 1.119e+04 1.061e-09
 69.71128    123.9 1.118e+04 1.071e-09
 69.73081    122.3 1.117e+04 1.076e-09
 69.75034    120.9 1.117e+04 1.093e-09
 69.76988    119.7 1.120e+04 1.141e-09
 69.78941    118.7 1.130e+04 1.219e-09
 69.80894    117.8 1.141e+04 1.310e-09
 69.82847    117.1 1.152e+04 1.409e-09
 69.84800    116.4 1.169e+04 1.544e-09
 69.86754    115.6 1.199e+04 1.760e-09
 69.88707    114.7 1.248e+04 2.117e-09
 69.90660    113.6 1.313e+04 2.638e-09
 69.92613    112.7 1.374e+04 3.182e-09
 69.94566    111.8 1.406e+04 3.351e-09
 69.96520    110.9 1.405e+04 3.295e-09
 69.98473    110.2 1.389e+04 2.934e-09
 70.00426    109.0 1.348e+04 2.206e-09
 70.02379    107.3 1.288e+04 1.568e-09
 70.05319    105.1 1.204e+04 1.191e-09
 70.09235    102.0 1.143e+04 1.132e-09
 70.13141    100.0 1.130e+04 1.177e-09
 70.17048     98.8 1.121e+04 1.184e-09
 70.20954     98.7 1.101e+04 1.128e-09
 70.24860     98.7 1.056e+04 8.902e-10
 70.28767     98.6 9.924e+03 5.724e-10
 70.32673     98.0 9.234e+03 3.613e-10
 70.36580     97.1 9.037e+03 3.269e-10
 70.40486     96.6 9.063e+03 3.402e-10
 70.44392     96.2 9.265e+03 4.132e-10
 70.48299     95.8 9.697e+03 5.646e-10
 70.52205     94.9 1.041e+04 7.870e-10
 70.55125     93.9 1.076e+04 9.049e-10
 70.57069     93.0 1.104e+04 9.822e-10
 70.59022     91.8 1.130e+04 1.045e-09
 70.60975     90.3 1.144e+04 1.075e-09
 70.62928     88.5 1.144e+04 1.075e-09
 70.64882     86.6 1.136e+04 1.059e-09
 70.66835     84.8 1.118e+04 1.015e-09
 70.68788     83.2 1.095e+04 9.514e-10
 70.70741     81.7 1.069e+04 8.668e-10
 70.72694     80.5 1.043e+04 7.623e-10
 70.74648     79.3 1.020e+04 6.497e-10
 70.76601     77.9 1.002e+04 5.502e-10
 70.78554     76.4 9.979e+03 5.166e-10
 70.80507     74.8 9.984e+03 5.206e-10
 70.82460     73.2 1.007e+04 5.563e-10
 70.84414     72.0 1.014e+04 6.140e-10
 70.87353     70.1 1.057e+04 8.355e-10
 70.91269     67.6 1.152e+04 1.282e-09
 70.95176     64.9 1.206e+04 1.456e-09
 70.99082     62.3 1.182e+04 1.269e-09
 71.02988     59.6 1.099e+04 7.499e-10
 71.06895     56.1 9.778e+03 4.073e-10
 71.10801     53.1 9.500e+03 3.904e-10
 71.14708     51.0 9.825e+03 4.998e-10
 71.18614     49.8 1.043e+04 7.531e-10
 71.22520     49.0 1.044e+04 7.791e-10
 71.26427     49.2 1.007e+04 6.491e-10
 71.30333     49.5 9.341e+03 3.817e-10
 71.34240     49.4 8.585e+03 1.746e-10
 71.38146     48.3 8.084e+03 7.381e-11
 71.42052     47.2 8.199e+03 6.467e-11
 71.45959     45.5 8.435e+03 8.059e-11
 71.49865     43.8 8.944e+03 1.814e-10
 71.53772     43.3 9.666e+03 4.437e-10
 71.57678     43.2 1.031e+04 7.239e-10
 71.61584     42.7 1.061e+04 7.585e-10
 71.65491     41.9 1.056e+04 6.877e-10
 71.69397     41.4 1.027e+04 5.227e-10
 71.73304     41.3 9.936e+03 3.680e-10
 71.77210     41.3 9.757e+03 2.531e-10
 71.81116     41.2 9.746e+03 1.833e-10
 71.85023     41.2 9.699e+03 1.773e-10
 71.88929     41.5 9.691e+03 1.870e-10
 71.92836     41.8 9.747e+03 2.311e-10
 71.96742     42.3 1.008e+04 3.319e-10
 72.00648     42.4 1.061e+04 4.967e-10
 72.04555     42.1 1.131e+04 7.397e-10
 72.08461     40.8 1.219e+04 1.158e-09
 72.11381     39.9 1.263e+04 1.327e-09
 72.13325     40.1 1.272e+04 1.706e-09
 72.16264     40.1 1.270e+04 2.077e-09
 72.20180     40.1 1.251e+04 1.754e-09
 72.24087     39.3 1.194e+04 1.079e-09
 72.27993     37.2 1.099e+04 6.180e-10
 72.31900     36.1 1.040e+04 5.186e-10
 72.35806     36.0 1.040e+04 5.253e-10
 72.39712     35.7 1.060e+04 5.887e-10
 72.43619     35.4 1.107e+04 7.422e-10
 72.47525     35.5 1.134e+04 8.360e-10
 72.51432     36.0 1.127e+04 7.521e-10
 72.55338     36.4 1.104e+04 5.601e-10
 72.59244     36.2 1.076e+04 4.087e-10
 72.63151     36.2 1.050e+04 3.568e-10
 72.67057     36.9 1.041e+04 3.734e-10
 72.70964     38.2 1.038e+04 3.904e-10
 72.74614     39.7 1.040e+04 3.905e-10
 72.76567     40.9 1.052e+04 4.360e-10
 72.78776     42.3 1.053e+04 4.318e-10
 72.82683     43.6 1.060e+04 4.451e-10
 72.86589     44.8 1.072e+04 4.886e-10
 72.90496     46.2 1.088e+04 5.662e-10
 72.94402     47.8 1.099e+04 6.397e-10
 72.98308     49.6 1.094e+04 5.927e-10
 73.02215     51.1 1.086e+04 5.176e-10
 73.05135     51.7 1.069e+04 4.320e-10
 73.07078     51.8 1.059e+04 3.852e-10
 73.08440     52.3 1.046e+04 3.835e-10
 73.10403     54.0 1.046e+04 3.463e-10
 73.13934     54.4 1.049e+04 3.827e-10
 73.16854     54.5 1.047e+04 4.533e-10
 73.18797     55.3 1.056e+04 5.315e-10
 73.20751     56.4 1.074e+04 5.956e-10
 73.22704     57.3 1.087e+04 5.966e-10
 73.24657     57.9 1.092e+04 5.846e-10
 73.26610     58.0 1.095e+04 5.380e-10
 73.28563     57.8 1.092e+04 4.869e-10
 73.30517     57.3 1.083e+04 4.611e-10
 73.32470     56.7 1.076e+04 4.634e-10
 73.34423     56.0 1.080e+04 4.915e-10
 73.36376     55.2 1.100e+04 5.896e-10
 73.38329     54.4 1.132e+04 7.585e-10
 73.40283     53.7 1.176e+04 1.012e-09
 73.42236     53.3 1.216e+04 1.317e-09
 73.44189     53.1 1.252e+04 1.553e-09
 73.46142     52.9 1.271e+04 1.575e-09
 73.48095     52.1 1.273e+04 1.485e-09
 73.50049     51.5 1.265e+04 1.370e-09
 73.52002     50.0 1.254e+04 1.137e-09
 73.53955     49.3 1.236e+04 1.033e-09
 73.55908     46.8 1.237e+04 9.935e-10
 73.57861     46.0 1.221e+04 9.652e-10
 73.59815     44.1 1.209e+04 9.160e-10
 73.61768     43.2 1.191e+04 8.815e-10
 73.63721     42.4 1.173e+04 8.374e-10
 73.65674     41.9 1.152e+04 7.756e-10
 73.67627     41.7 1.131e+04 6.818e-10
 73.69581     41.8 1.101e+04 5.564e-10
 73.72520     41.5 1.086e+04 4.480e-10
 73.76436     38.6 1.187e+04 3.898e-10
 73.79356     32.8 1.310e+04 7.007e-10
 73.81300     30.7 1.289e+04 1.197e-09
 73.83253     27.8 1.544e+04 2.664e-09
 73.85206     21.8 2.033e+04 8.416e-09
 73.87159     16.2 2.182e+04 1.929e-08
 73.88619     12.8 2.140e+04 2.395e-08
 73.89591     12.9 2.019e+04 2.199e-08
 73.90262     12.7 1.952e+04 1.665e-08
 73.90750     13.7 2.004e+04 2.206e-08
 73.91544     13.4 1.939e+04 1.616e-08
 73.92521     11.5 1.996e+04 9.260e-09
 73.93498      8.0 1.949e+04 5.375e-09
 73.94967      0.4 1.712e+04 1.877e-09
 73.96925     -9.9 1.308e+04 9.504e-10
 73.98879    -14.1 1.205e+04 8.371e-10
 74.00832    -15.5 1.203e+04 9.348e-10
 74.02785    -16.3 1.213e+04 1.021e-09
 74.04738    -16.8 1.224e+04 1.056e-09
 74.06691    -17.7 1.216e+04 1.012e-09
 74.08645    -18.3 1.207e+04 9.845e-10
 74.10598    -18.8 1.174e+04 9.394e-10
 74.12551    -18.7 1.160e+04 9.191e-10
 74.14504    -18.4 1.146e+04 8.669e-10
 74.16457    -18.0 1.147e+04 8.071e-10
 74.18411    -18.0 1.126e+04 6.853e-10
 74.20364    -18.0 1.111e+04 6.196e-10
 74.22317    -18.4 1.095e+04 5.822e-10
 74.24270    -18.4 1.096e+04 5.828e-10
 74.26223    -18.6 1.100e+04 6.179e-10
 74.28177    -18.7 1.109e+04 6.825e-10
 74.30130    -18.5 1.121e+04 7.480e-10
 74.32083    -18.4 1.123e+04 7.760e-10
 74.34036    -18.1 1.128e+04 7.986e-10
 74.35989    -17.9 1.116e+04 7.695e-10
 74.37943    -17.6 1.104e+04 7.185e-10
 74.39896    -17.1 1.087e+04 6.406e-10
 74.41849    -16.9 1.057e+04 5.315e-10
 74.43802    -16.5 1.047e+04 4.444e-10
 74.46742    -16.4 1.032e+04 3.802e-10
 74.50658    -16.8 1.003e+04 3.055e-10
 74.54564    -16.9 9.995e+03 2.983e-10
 74.58471    -16.9 9.998e+03 3.809e-10
 74.62377    -15.6 1.013e+04 4.541e-10
 74.66284    -14.8 1.004e+04 4.618e-10
 74.70190    -14.2 9.770e+03 3.878e-10
 74.74096    -14.0 9.587e+03 3.217e-10
 74.78003    -14.0 9.216e+03 2.690e-10
 74.81909    -13.7 9.186e+03 2.658e-10
 74.85816    -13.6 9.256e+03 2.731e-10
 74.89722    -14.5 9.434e+03 3.044e-10
 74.93628    -16.3 1.062e+04 4.466e-10
 74.97535    -17.4 1.114e+04 6.389e-10
 75.01441    -17.6 1.122e+04 7.385e-10
 75.05348    -17.8 1.111e+04 6.864e-10
 75.08268    -18.3 1.087e+04 5.103e-10
 75.10211    -18.1 1.074e+04 4.929e-10
 75.12164    -18.0 1.056e+04 3.900e-10
 75.14117    -18.5 1.072e+04 3.524e-10
 75.16071    -19.2 1.067e+04 3.427e-10
 75.18024    -19.5 1.054e+04 3.601e-10
 75.19977    -19.4 1.053e+04 4.346e-10
 75.21930    -18.9 1.052e+04 5.066e-10
 75.23883    -18.0 1.058e+04 5.741e-10
 75.25837    -17.1 1.068e+04 6.237e-10
 75.27790    -16.5 1.072e+04 6.370e-10
 75.29743    -16.0 1.059e+04 6.046e-10
 75.31696    -15.7 1.039e+04 5.389e-10
 75.33649    -15.5 1.016e+04 4.699e-10
 75.35603    -15.5 9.936e+03 4.105e-10
 75.37556    -15.6 9.782e+03 3.772e-10
 75.39509    -15.7 9.738e+03 3.659e-10
 75.41462    -15.8 9.795e+03 3.877e-10
 75.43415    -15.9 9.925e+03 4.472e-10
 75.45369    -15.9 9.944e+03 5.137e-10
 75.47322    -15.0 9.968e+03 5.870e-10
 75.49275    -14.0 9.972e+03 6.207e-10
 75.51228    -12.9 9.966e+03 6.285e-10
 75.53181    -11.8 9.898e+03 5.759e-10
 75.55135    -11.4 9.834e+03 5.050e-10
 75.57088    -11.4 9.808e+03 4.499e-10
 75.59041    -11.9 9.810e+03 4.114e-10
 75.60994    -12.5 9.767e+03 3.994e-10
 75.62947    -12.7 9.772e+03 4.140e-10
 75.64901    -12.8 9.722e+03 4.458e-10
 75.66854    -12.5 9.795e+03 4.923e-10
 75.68807    -12.1 9.942e+03 5.329e-10
 75.70760    -11.9 1.008e+04 5.798e-10
 75.72713    -11.6 1.011e+04 6.083e-10
 75.74667    -11.3 1.011e+04 6.218e-10
 75.76620    -10.6 1.014e+04 6.375e-10
 75.78573     -9.7 1.014e+04 6.311e-10
 75.80526     -8.7 1.015e+04 6.021e-10
 75.82479     -8.1 1.017e+04 5.637e-10
 75.84433     -7.7 1.024e+04 5.441e-10
 75.86386     -8.2 1.064e+04 6.314e-10
 75.88339     -9.8 1.148e+04 8.859e-10
 75.90292    -12.1 1.295e+04 1.557e-09
 75.92245    -14.7 1.500e+04 3.171e-09
 75.94199    -16.6 1.704e+04 6.371e-09
 75.96152    -17.8 1.883e+04 1.091e-08
 75.98105    -19.1 2.017e+04 1.387e-08
 76.00058    -22.4 2.028e+04 1.133e-08
 76.02011    -26.5 1.869e+04 7.514e-09
 76.03965    -30.2 1.582e+04 4.015e-09
 76.05918    -33.1 1.415e+04 1.828e-09
 76.07871    -37.0 1.276e+04 7.411e-10
 76.09824    -39.8 1.182e+04 5.573e-10
 76.11777    -40.9 1.136e+04 4.976e-10
 76.13731    -41.4 1.112e+04 4.701e-10
 76.15684    -41.5 1.099e+04 4.800e-10
 76.17637    -41.4 1.085e+04 5.858e-10
 76.19590    -41.1 1.114e+04 7.543e-10
 76.21543    -40.4 1.150e+04 9.316e-10
 76.23497    -39.4 1.185e+04 1.144e-09
 76.25450    -38.5 1.209e+04 1.307e-09
 76.27403    -37.6 1.228e+04 1.442e-09
 76.29356    -36.8 1.249e+04 1.499e-09
 76.31309    -36.0 1.267e+04 1.506e-09
 76.33263    -35.5 1.272e+04 1.437e-09
 76.35216    -35.0 1.262e+04 1.323e-09
 76.37169    -34.7 1.233e+04 1.214e-09
 76.39122    -34.5 1.206e+04 1.147e-09
 76.41075    -34.1 1.196e+04 1.128e-09
 76.43029    -33.8 1.200e+04 1.186e-09
 76.44982    -34.4 1.276e+04 1.413e-09
 76.46935    -35.7 1.399e+04 2.013e-09
 76.48888    -36.5 1.512e+04 3.142e-09
 76.50841    -36.7 1.597e+04 4.946e-09
 76.52795    -36.2 1.663e+04 7.057e-09
 76.54748    -35.6 1.718e+04 8.778e-09
 76.56701    -35.4 1.748e+04 9.789e-09
 76.58654    -35.4 1.766e+04 1.029e-08
 76.60607    -35.4 1.773e+04 1.050e-08
 76.62561    -35.1 1.775e+04 9.993e-09
 76.64514    -34.8 1.755e+04 8.817e-09
 76.66467    -34.3 1.704e+04 6.948e-09
 76.68420    -34.0 1.621e+04 4.956e-09
 76.70373    -33.8 1.512e+04 3.266e-09
 76.72327    -33.6 1.412e+04 2.142e-09
 76.74280    -33.8 1.276e+04 1.359e-09
 76.76233    -33.9 1.192e+04 9.761e-10
 76.78186    -33.9 1.141e+04 7.792e-10
 76.80139    -33.5 1.121e+04 6.885e-10
 76.82093    -32.9 1.121e+04 6.541e-10
 76.84046    -32.1 1.126e+04 6.450e-10
 76.85999    -31.3 1.142e+04 6.492e-10
 76.87952    -30.4 1.162e+04 6.694e-10
 76.89905    -29.9 1.191e+04 7.209e-10
 76.91859    -29.4 1.235e+04 8.384e-10
 76.93812    -28.9 1.286e+04 1.045e-09
 76.95765    -28.2 1.339e+04 1.385e-09
 76.97718    -27.4 1.375e+04 1.841e-09
 76.99671    -26.3 1.414e+04 2.322e-09
 77.01625    -25.0 1.462e+04 2.831e-09
 77.03578    -23.7 1.501e+04 3.215e-09
 77.05531    -22.3 1.525e+04 3.438e-09
 77.07484    -21.1 1.549e+04 3.531e-09
 77.09437    -20.5 1.588e+04 3.613e-09
 77.11391    -20.6 1.721e+04 3.862e-09
 77.13344    -20.4 1.929e+04 4.178e-09
 77.15297    -20.3 2.154e+04 3.914e-09
 77.17250    -19.8 2.381e+04 3.070e-09
 77.19203    -19.1 2.619e+04 2.649e-09
 77.21157    -18.8 2.852e+04 2.386e-09
 77.23110    -20.0 2.675e+04 2.486e-09
 77.25063    -23.9 2.095e+04 2.762e-09
 77.27016    -27.1 2.030e+04 2.981e-09
 77.28969    -28.3 2.101e+04 3.304e-09
 77.30923    -27.9 2.140e+04 3.591e-09
 77.32420    -26.9 2.091e+04 3.484e-09
 77.33397    -28.6 1.693e+04 2.451e-09
 77.34829    -28.0 1.572e+04 2.242e-09
 77.36782    -27.4 1.488e+04 2.146e-09
 77.38735    -26.8 1.445e+04 2.118e-09
 77.40689    -26.2 1.417e+04 2.163e-09
 77.42642    -25.5 1.400e+04 2.258e-09
 77.44595    -24.6 1.391e+04 2.388e-09
 77.46548    -23.6 1.381e+04 2.463e-09
 77.48501    -22.3 1.360e+04 2.433e-09
 77.50455    -20.9 1.332e+04 2.260e-09
 77.52408    -19.4 1.299e+04 1.978e-09
 77.54361    -17.9 1.251e+04 1.621e-09
 77.56314    -16.5 1.204e+04 1.292e-09
 77.58267    -15.4 1.161e+04 1.016e-09
 77.60221    -14.4 1.112e+04 7.843e-10
 77.62174    -13.5 1.062e+04 6.124e-10
 77.64127    -12.6 1.031e+04 5.206e-10
 77.66080    -11.6 1.016e+04 4.801e-10
 77.68033    -10.6 1.003e+04 4.500e-10
 77.69987     -9.4 9.825e+03 4.124e-10
 77.71940     -8.2 9.690e+03 3.936e-10
 77.73893     -6.8 9.646e+03 3.936e-10
 77.75846     -5.5 9.757e+03 4.285e-10
 77.77799     -4.2 9.968e+03 4.756e-10
 77.79753     -3.2 1.016e+04 5.295e-10
 77.81706     -2.3 1.036e+04 6.399e-10
 77.83659     -1.2 1.079e+04 8.205e-10
 77.85612      0.3 1.144e+04 1.153e-09
 77.87565      1.1 1.175e+04 1.345e-09
 77.89519      1.8 1.188e+04 1.503e-09
 77.91472      1.7 1.261e+04 1.908e-09
 77.93425      1.7 1.344e+04 2.536e-09
 77.95378      1.9 1.403e+04 3.236e-09
 77.97331      2.5 1.435e+04 3.842e-09
 77.99285      3.2 1.457e+04 4.130e-09
 78.01238      4.0 1.458e+04 4.134e-09
 78.03191      5.0 1.423e+04 3.636e-09
 78.05144      5.8 1.363e+04 2.813e-09
 78.07097      6.5 1.288e+04 2.075e-09
 78.09051      7.1 1.216e+04 1.475e-09
 78.11004      7.6 1.158e+04 1.082e-09
 78.12957      8.1 1.109e+04 7.878e-10
 78.14910      8.4 1.060e+04 6.027e-10
 78.16863      8.8 1.018e+04 5.054e-10
 78.18817      9.4 9.920e+03 4.511e-10
 78.20770     10.0 9.847e+03 4.339e-10
 78.22723     10.7 9.842e+03 4.404e-10
 78.24676     11.5 9.842e+03 4.584e-10
 78.26629     12.5 9.806e+03 4.728e-10
 78.28583     13.6 9.745e+03 4.902e-10
 78.30536     14.4 9.817e+03 5.081e-10
 78.32489     15.2 9.932e+03 5.206e-10
 78.34442     16.1 9.947e+03 5.268e-10
 78.36395     16.3 9.990e+03 5.611e-10
 78.38349     14.6 1.154e+04 8.049e-10
 78.40302     10.7 1.411e+04 1.747e-09
 78.42255      8.3 1.526e+04 3.416e-09
 78.43715      6.9 1.578e+04 5.156e-09
 78.44687      6.8 1.604e+04 5.830e-09
 78.45663      6.5 1.628e+04 7.252e-09
 78.46623      7.0 1.646e+04 8.025e-09
 78.47111      7.3 1.621e+04 7.058e-09
 78.47617      7.1 1.645e+04 7.216e-09
 78.48593      7.2 1.625e+04 6.880e-09
 78.50063      6.8 1.605e+04 5.174e-09
 78.52021      4.5 1.533e+04 2.952e-09
 78.53974     -0.9 1.312e+04 1.308e-09
 78.55927     -5.7 1.109e+04 7.182e-10
 78.57881     -7.4 1.053e+04 5.681e-10
 78.59834     -8.6 1.044e+04 5.102e-10
 78.61787     -9.9 1.037e+04 4.819e-10
 78.63740    -11.3 1.031e+04 4.692e-10
 78.65693    -12.6 1.030e+04 4.775e-10
 78.67647    -13.6 1.038e+04 4.934e-10
 78.69600    -14.3 1.048e+04 5.060e-10
 78.71553    -15.1 1.050e+04 4.966e-10
 78.73506    -15.8 1.040e+04 4.742e-10
 78.75459    -16.1 1.032e+04 4.524e-10
 78.77413    -16.1 1.034e+04 4.440e-10
 78.79366    -16.1 1.043e+04 4.427e-10
 78.81319    -16.0 1.046e+04 4.467e-10
 78.83272    -15.8 1.041e+04 4.645e-10
 78.85225    -15.3 1.032e+04 4.786e-10
 78.87179    -14.4 1.031e+04 4.880e-10
 78.89132    -13.4 1.031e+04 4.879e-10
 78.91085    -12.5 1.031e+04 4.728e-10
 78.93038    -11.8 1.025e+04 4.498e-10
 78.94991    -11.3 1.022e+04 4.366e-10
 78.96945    -11.0 1.029e+04 4.403e-10
 78.98898    -11.1 1.056e+04 4.961e-10
 79.00851    -12.2 1.133e+04 6.512e-10
 79.02804    -13.8 1.300e+04 1.091e-09
 79.04757    -15.2 1.469e+04 1.907e-09
 79.06711    -16.0 1.567e+04 2.752e-09
 79.08171    -17.5 1.783e+04 4.972e-09
 79.09142    -18.7 1.866e+04 6.500e-09
 79.10119    -19.2 1.944e+04 9.747e-09
 79.11096    -19.8 1.969e+04 1.259e-08
 79.12072    -19.7 1.985e+04 1.620e-08
 79.13049    -19.5 1.980e+04 1.883e-08
 79.14025    -18.8 1.986e+04 2.120e-08
 79.15002    -18.1 2.005e+04 2.206e-08
 79.15979    -17.6 2.022e+04 2.055e-08
 79.16955    -16.9 2.030e+04 1.912e-08
 79.18425    -16.0 1.984e+04 1.559e-08
 79.20383    -14.5 1.938e+04 1.288e-08
 79.22336    -12.7 1.888e+04 1.050e-08
 79.24289    -10.9 1.847e+04 8.090e-09
 79.26243     -8.9 1.799e+04 5.856e-09
 79.28196     -7.0 1.757e+04 4.153e-09
 79.30149     -5.3 1.719e+04 2.887e-09
 79.32102     -3.6 1.687e+04 2.005e-09
 79.34055     -2.3 1.654e+04 1.453e-09
 79.36009     -1.1 1.610e+04 1.141e-09
 79.37962      0.2 1.563e+04 1.012e-09
 79.39915      1.7 1.510e+04 1.062e-09
 79.41868      3.5 1.485e+04 1.204e-09
 79.43821      5.5 1.493e+04 1.432e-09
 79.45775      7.6 1.516e+04 1.727e-09
 79.47728      9.8 1.517e+04 1.999e-09
 79.49681     12.0 1.519e+04 2.224e-09
 79.51634     13.9 1.523e+04 2.391e-09
 79.53587     15.3 1.539e+04 2.507e-09
 79.55541     16.1 1.647e+04 2.487e-09
 79.57494     16.1 1.771e+04 2.507e-09
 79.59447     12.0 2.358e+04 2.627e-09
 79.60840     -5.7 5.148e+04 1.836e-09
 79.61816      1.0 3.668e+04 1.300e-09
 79.62860    -25.9 6.184e+04 2.385e-09
 79.63832    -34.3 5.032e+04 8.834e-09
 79.64809    -40.3 3.346e+04 5.412e-08
 79.65785    -43.0 2.558e+04 1.762e-07
 79.66762    -42.9 2.313e+04 3.038e-07
 79.67738    -42.2 2.290e+04 3.317e-07
 79.68715    -41.6 2.538e+04 2.386e-07
 79.69692    -41.4 3.259e+04 8.919e-08
 79.70668    -45.9 4.676e+04 1.686e-08
 79.71645    -56.8 5.639e+04 2.992e-09
 79.72621    -71.1 3.196e+04 1.962e-09
 79.73598    -78.0 1.713e+04 2.409e-09
 79.74575    -79.3 1.602e+04 2.951e-09
 79.75551    -80.4 1.657e+04 3.522e-09
 79.76528    -81.3 1.694e+04 4.022e-09
 79.77504    -82.2 1.733e+04 4.359e-09
 79.78481    -83.2 1.778e+04 4.577e-09
 79.79458    -84.7 1.822e+04 4.716e-09
 79.80434    -86.6 1.853e+04 4.744e-09
 79.81411    -88.0 1.883e+04 4.703e-09
 79.82881    -93.0 1.965e+04 3.955e-09
 79.84839   -101.2 1.792e+04 2.933e-09
 79.86792   -107.7 1.580e+04 2.492e-09
 79.88745   -112.1 1.488e+04 2.331e-09
 79.90698   -115.0 1.462e+04 2.235e-09
 79.92651   -117.9 1.438e+04 1.833e-09
 79.94605   -121.6 1.378e+04 1.205e-09
 79.96558   -126.2 1.283e+04 7.107e-10
 79.98511   -131.3 1.174e+04 4.206e-10
 80.00464   -135.5 1.097e+04 3.035e-10
 80.02417   -138.1 1.074e+04 2.759e-10
 80.04371   -139.2 1.069e+04 2.730e-10
 80.06324   -139.5 1.075e+04 2.758e-10
 80.09263   -139.1 1.067e+04 2.878e-10
 80.13180   -139.1 1.039e+04 3.155e-10
 80.17086   -137.2 1.016e+04 3.236e-10
 80.20992   -134.8 9.924e+03 3.254e-10
 80.24899   -131.9 9.706e+03 3.168e-10
 80.28805   -129.0 9.520e+03 2.884e-10
 80.32712   -126.1 9.360e+03 2.630e-10
 80.36618   -123.3 9.292e+03 2.512e-10
 80.40524   -120.8 9.275e+03 2.494e-10
 80.44431   -118.5 9.307e+03 2.579e-10
 80.48337   -116.4 9.517e+03 2.923e-10
 80.52244   -114.4 9.793e+03 3.552e-10
 80.55164   -113.4 1.012e+04 4.490e-10
 80.57107   -112.4 1.026e+04 5.025e-10
 80.60047   -110.9 1.042e+04 5.703e-10
 80.63963   -109.0 1.069e+04 7.203e-10
 80.67869   -107.3 1.077e+04 7.939e-10
 80.71776   -105.6 1.072e+04 7.946e-10
 80.75682   -103.7 1.034e+04 6.634e-10
 80.79588   -101.5 9.827e+03 4.807e-10
 80.83495    -99.4 9.315e+03 3.260e-10
 80.87401    -97.5 8.926e+03 2.250e-10
 80.91308    -95.9 8.677e+03 1.709e-10
 80.95214    -94.5 8.566e+03 1.427e-10
 80.99120    -93.2 8.517e+03 1.314e-10
 81.03027    -92.3 8.501e+03 1.292e-10
 81.06933    -91.5 8.544e+03 1.386e-10
 81.10840    -90.8 8.579e+03 1.514e-10
 81.14746    -89.9 8.630e+03 1.632e-10
 81.18652    -88.9 8.663e+03 1.678e-10
 81.22559    -87.7 8.644e+03 1.672e-10
 81.26465    -86.2 8.507e+03 1.370e-10
 81.30372    -84.6 8.349e+03 1.007e-10
 81.34278    -83.1 8.252e+03 7.498e-11
 81.38184    -81.7 8.212e+03 6.419e-11
 81.42091    -80.0 8.201e+03 6.247e-11
 81.45997    -78.3 8.219e+03 6.308e-11
 81.49904    -76.7 8.319e+03 6.945e-11
 81.53810    -74.9 8.412e+03 7.929e-11
 81.57716    -73.0 8.491e+03 8.802e-11
 81.61623    -70.9 8.553e+03 9.264e-11
 81.65529    -68.8 8.575e+03 9.428e-11
 81.69436    -66.6 8.576e+03 9.394e-11
 81.73342    -64.3 8.534e+03 8.893e-11
 81.77248    -62.0 8.472e+03 8.084e-11
 81.81155    -59.7 8.430e+03 7.079e-11
 81.85061    -57.5 8.408e+03 6.409e-11
 81.88312    -55.3 8.386e+03 6.002e-11
 81.90266    -56.1 8.441e+03 6.170e-11
 81.92874    -53.9 8.441e+03 6.007e-11
 81.96780    -51.6 8.435e+03 6.187e-11
 82.00687    -49.4 8.457e+03 6.689e-11
 82.04593    -47.3 8.568e+03 7.607e-11
 82.08500    -45.3 8.718e+03 9.475e-11
 82.12406    -43.3 8.906e+03 1.281e-10
 82.16312    -41.5 9.155e+03 1.834e-10
 82.20219    -39.8 9.443e+03 2.662e-10
 82.24125    -38.1 9.780e+03 3.814e-10
 82.28032    -36.4 1.018e+04 5.302e-10
 82.31938    -34.8 1.063e+04 7.095e-10
 82.35844    -33.2 1.116e+04 9.161e-10
 82.39751    -31.6 1.167e+04 1.170e-09
 82.43657    -29.9 1.197e+04 1.330e-09
 82.46577    -28.0 1.207e+04 1.416e-09
 82.48521    -27.4 1.224e+04 1.453e-09
 82.50474    -26.9 1.267e+04 1.572e-09
 82.52427    -28.5 1.499e+04 2.174e-09
 82.54380    -31.7 1.716e+04 3.805e-09
 82.56333    -33.6 1.774e+04 7.066e-09
 82.58287    -34.0 1.806e+04 1.148e-08
 82.60240    -32.7 1.835e+04 1.466e-08
 82.61700    -31.6 1.840e+04 1.544e-08
 82.62671    -31.3 1.822e+04 1.467e-08
 82.63648    -30.6 1.840e+04 1.382e-08
 82.64625    -30.6 1.946e+04 1.112e-08
 82.65601    -32.1 2.076e+04 8.957e-09
 82.66578    -35.1 2.012e+04 6.203e-09
 82.67554    -39.2 1.704e+04 3.990e-09
 82.68531    -42.0 1.471e+04 3.000e-09
 82.70001    -44.0 1.323e+04 2.399e-09
 82.71959    -44.3 1.273e+04 2.107e-09
 82.73912    -44.1 1.244e+04 1.802e-09
 82.75865    -44.0 1.216e+04 1.483e-09
 82.77819    -44.4 1.177e+04 1.198e-09
 82.79772    -44.9 1.142e+04 1.010e-09
 82.81725    -45.3 1.120e+04 9.146e-10
 82.83678    -45.6 1.111e+04 8.880e-10
 82.85631    -45.8 1.112e+04 8.913e-10
 82.87585    -46.0 1.125e+04 9.606e-10
 82.89538    -46.0 1.144e+04 1.054e-09
 82.91491    -46.0 1.159e+04 1.140e-09
 82.93444    -46.2 1.167e+04 1.215e-09
 82.95397    -46.4 1.168e+04 1.307e-09
 82.97351    -46.6 1.167e+04 1.390e-09
 82.99304    -46.7 1.182e+04 1.462e-09
 83.01257    -46.9 1.190e+04 1.519e-09
 83.03210    -47.2 1.195e+04 1.556e-09
 83.05163    -47.4 1.185e+04 1.501e-09
 83.07117    -47.5 1.159e+04 1.338e-09
 83.09070    -47.7 1.133e+04 1.152e-09
 83.11023    -47.9 1.111e+04 9.746e-10
 83.12976    -48.3 1.092e+04 8.214e-10
 83.14929    -48.9 1.066e+04 6.974e-10
 83.16883    -49.4 1.042e+04 6.147e-10
 83.18836    -49.7 1.034e+04 5.845e-10
 83.20789    -50.1 1.034e+04 5.819e-10
 83.22742    -51.3 1.072e+04 6.532e-10
 83.24695    -53.5 1.160e+04 9.544e-10
 83.26649    -55.8 1.264e+04 1.594e-09
 83.28602    -57.1 1.354e+04 2.633e-09
 83.30555    -57.4 1.413e+04 3.854e-09
 83.32508    -57.5 1.441e+04 4.457e-09
 83.34461    -57.6 1.437e+04 4.450e-09
 83.36415    -57.1 1.374e+04 3.260e-09
 83.38368    -56.8 1.280e+04 1.833e-09
 83.40321    -58.0 1.176e+04 9.538e-10
 83.42274    -59.7 1.062e+04 5.211e-10
 83.44227    -60.1 9.901e+03 3.462e-10
 83.46181    -60.1 9.698e+03 2.860e-10
 83.49120    -60.1 9.557e+03 2.415e-10
 83.53036    -59.4 9.250e+03 1.768e-10
 83.56943    -58.5 9.053e+03 1.453e-10
 83.60849    -57.5 9.039e+03 1.417e-10
 83.64755    -56.6 9.221e+03 1.652e-10
 83.68662    -55.4 9.429e+03 2.169e-10
 83.72568    -53.8 9.616e+03 2.591e-10
 83.76475    -52.1 9.738e+03 2.732e-10
 83.80381    -50.7 9.796e+03 2.583e-10
 83.84287    -49.5 9.825e+03 2.326e-10
 83.88194    -48.7 9.876e+03 2.280e-10
 83.92100    -48.1 1.013e+04 2.606e-10
 83.96007    -47.6 1.030e+04 3.345e-10
 83.98927    -46.9 1.052e+04 4.888e-10
 84.00870    -46.4 1.067e+04 5.560e-10
 84.02823    -45.8 1.087e+04 6.363e-10
 84.04777    -45.6 1.107e+04 6.659e-10
 84.06730    -45.6 1.121e+04 6.751e-10
 84.08683    -45.9 1.124e+04 6.550e-10
 84.10636    -46.2 1.115e+04 6.260e-10
 84.12589    -46.4 1.102e+04 5.943e-10
 84.14543    -46.5 1.086e+04 5.555e-10
 84.16496    -46.3 1.072e+04 5.116e-10
 84.19435    -46.3 1.052e+04 4.301e-10
 84.23351    -46.1 1.010e+04 2.886e-10
 84.27258    -45.7 9.713e+03 1.845e-10
 84.31164    -45.4 9.493e+03 1.259e-10
 84.35071    -45.3 9.520e+03 1.072e-10
 84.38977    -45.7 9.642e+03 1.062e-10
 84.42883    -48.0 1.053e+04 2.076e-10
 84.46790    -48.8 1.134e+04 6.397e-10
 84.50696    -48.4 1.219e+04 1.308e-09
 84.54603    -48.2 1.297e+04 1.696e-09
 84.58509    -50.1 1.332e+04 1.734e-09
 84.61429    -53.1 1.352e+04 1.499e-09
 84.63373    -54.7 1.348e+04 1.466e-09
 84.65326    -57.3 1.369e+04 1.842e-09
 84.67279    -60.3 1.497e+04 3.494e-09
 84.69232    -62.2 1.633e+04 6.714e-09
 84.71185    -63.1 1.765e+04 1.107e-08
 84.73139    -63.5 1.864e+04 1.353e-08
 84.75092    -64.6 1.883e+04 1.323e-08
 84.77045    -66.4 1.803e+04 7.641e-09
 84.78998    -69.6 1.598e+04 3.456e-09
 84.80951    -73.4 1.451e+04 1.964e-09
 84.82905    -76.6 1.368e+04 1.529e-09
 84.84858    -78.7 1.324e+04 1.459e-09
 84.86811    -79.7 1.303e+04 1.475e-09
 84.88764    -80.0 1.267e+04 1.604e-09
 84.90717    -80.0 1.261e+04 1.627e-09
 84.92671    -79.7 1.205e+04 1.534e-09
 84.94624    -78.9 1.145e+04 1.148e-09
 84.96577    -78.4 1.092e+04 7.547e-10
 84.98530    -78.3 1.044e+04 4.714e-10
 85.00483    -78.5 1.008e+04 3.192e-10
 85.02437    -78.7 9.935e+03 2.693e-10
 85.05376    -79.1 9.838e+03 2.379e-10
 85.09292    -79.0 9.697e+03 2.135e-10
 85.13199    -78.6 9.699e+03 2.127e-10
 85.17105    -78.8 1.011e+04 2.874e-10
 85.20025    -80.0 1.055e+04 4.131e-10
 85.21969    -80.8 1.101e+04 5.826e-10
 85.23922    -82.0 1.181e+04 9.966e-10
 85.25875    -82.9 1.268e+04 1.683e-09
 85.27828    -83.6 1.344e+04 2.604e-09
 85.29781    -84.3 1.404e+04 3.454e-09
 85.31735    -85.3 1.447e+04 3.891e-09
 85.33688    -87.0 1.460e+04 3.995e-09
 85.35641    -89.5 1.471e+04 3.746e-09
 85.37594    -92.5 1.419e+04 3.137e-09
 85.39547    -95.3 1.344e+04 2.587e-09
 85.41501    -97.2 1.260e+04 2.063e-09
 85.43454    -98.3 1.175e+04 1.535e-09
 85.45407    -98.9 1.092e+04 1.053e-09
 85.47360    -99.4 1.015e+04 6.803e-10
 85.49313   -100.0 9.524e+03 4.484e-10
 85.52253   -100.6 9.089e+03 3.202e-10
 85.56169   -101.3 8.724e+03 2.504e-10
 85.60075   -101.5 8.387e+03 1.993e-10
 85.63982   -101.5 8.277e+03 1.818e-10
 85.67888   -101.5 8.264e+03 1.791e-10
 85.71795   -102.1 8.383e+03 1.840e-10
 85.75701   -103.7 8.980e+03 2.543e-10
 85.79607   -105.2 9.655e+03 4.227e-10
 85.83514   -106.2 1.017e+04 6.454e-10
 85.86434   -107.6 1.011e+04 6.967e-10
 85.88377   -108.3 1.011e+04 7.091e-10
 85.90331   -108.9 9.972e+03 6.765e-10
 85.92284   -109.5 9.720e+03 5.676e-10
 85.94237   -110.0 9.494e+03 4.899e-10
 85.96190   -110.4 9.366e+03 4.508e-10
 85.98143   -110.8 9.307e+03 4.266e-10
 86.00097   -111.0 9.327e+03 4.264e-10
 86.03036   -111.5 9.444e+03 4.436e-10
 86.06952   -112.6 9.409e+03 4.327e-10
 86.10859   -113.5 9.619e+03 4.851e-10
 86.13779   -113.7 9.904e+03 5.804e-10
 86.15722   -114.1 1.008e+04 6.513e-10
 86.17675   -114.5 1.022e+04 7.229e-10
 86.19629   -114.8 1.025e+04 7.438e-10
 86.21582   -115.1 1.025e+04 7.501e-10
 86.23535   -115.4 1.015e+04 7.121e-10
 86.25488   -115.8 9.974e+03 6.022e-10
 86.27441   -116.4 9.785e+03 4.837e-10
 86.30381   -117.3 9.714e+03 4.234e-10
 86.34297   -119.0 9.597e+03 3.655e-10
 86.38203   -120.8 9.731e+03 3.766e-10
 86.42110   -123.2 1.026e+04 5.087e-10
 86.45162   -125.0 1.080e+04 7.401e-10
 86.47115   -124.6 1.036e+04 5.587e-10
 86.49923   -125.8 1.076e+04 7.390e-10
 86.53829   -126.9 1.099e+04 8.402e-10
 86.57735   -127.7 1.101e+04 8.546e-10
 86.61642   -127.9 1.080e+04 7.206e-10
 86.65548   -127.9 1.033e+04 4.726e-10
 86.69455   -127.9 9.794e+03 3.066e-10
 86.73361   -127.6 9.408e+03 2.313e-10
 86.77267   -126.9 9.264e+03 2.130e-10
 86.81174   -125.9 9.236e+03 2.113e-10
 86.85080   -124.9 9.246e+03 2.257e-10
 86.88987   -123.9 9.303e+03 2.499e-10
 86.92893   -122.9 9.369e+03 2.764e-10
 86.96799   -121.8 9.408e+03 2.971e-10
 87.00706   -120.9 9.437e+03 3.120e-10
 87.04612   -120.0 9.498e+03 3.318e-10
 87.08519   -119.1 9.531e+03 3.532e-10
 87.12425   -118.2 9.528e+03 3.612e-10
 87.16331   -117.1 9.447e+03 3.578e-10
 87.20238   -115.8 9.216e+03 3.120e-10
 87.24144   -114.3 8.950e+03 2.499e-10
 87.28051   -112.6 8.666e+03 1.960e-10
 87.31957   -110.9 8.481e+03 1.635e-10
 87.35863   -109.0 8.445e+03 1.539e-10
 87.39770   -107.2 8.445e+03 1.528e-10
 87.43676   -105.8 8.474e+03 1.625e-10
 87.47583   -105.0 9.031e+03 2.486e-10
 87.51489   -104.1 9.891e+03 4.459e-10
 87.55395   -103.5 1.082e+04 7.840e-10
 87.59302   -103.3 1.173e+04 1.241e-09
 87.62222   -103.5 1.242e+04 1.697e-09
 87.64165   -103.9 1.285e+04 1.978e-09
 87.66118   -104.5 1.345e+04 2.408e-09
 87.68072   -105.3 1.405e+04 3.031e-09
 87.70025   -105.8 1.457e+04 3.745e-09
 87.71978   -106.2 1.490e+04 4.258e-09
 87.73931   -106.5 1.498e+04 4.381e-09
 87.75884   -106.7 1.492e+04 4.281e-09
 87.77838   -106.8 1.453e+04 3.492e-09
 87.79791   -107.1 1.392e+04 2.569e-09
 87.81744   -108.3 1.325e+04 1.927e-09
 87.83697   -109.6 1.269e+04 1.578e-09
 87.85650   -110.7 1.236e+04 1.437e-09
 87.87604   -111.5 1.222e+04 1.390e-09
 87.89557   -112.0 1.211e+04 1.363e-09
 87.91510   -112.4 1.197e+04 1.327e-09
 87.93463   -112.6 1.179e+04 1.244e-09
 87.95416   -112.8 1.158e+04 1.100e-09
 87.97370   -112.9 1.136e+04 9.259e-10
 87.99323   -113.3 1.115e+04 7.601e-10
 88.01276   -114.0 1.098e+04 6.329e-10
 88.03229   -114.8 1.086e+04 5.576e-10
 88.05182   -115.7 1.080e+04 5.319e-10
 88.07136   -116.5 1.078e+04 5.276e-10
 88.09089   -117.0 1.077e+04 5.444e-10
 88.11042   -117.4 1.080e+04 5.805e-10
 88.12995   -117.7 1.081e+04 5.955e-10
 88.14948   -118.1 1.080e+04 5.952e-10
 88.16902   -118.4 1.073e+04 5.647e-10
 88.18855   -118.7 1.069e+04 5.208e-10
 88.20808   -119.2 1.070e+04 4.919e-10
 88.22761   -119.8 1.072e+04 4.836e-10
 88.24714   -120.4 1.077e+04 4.830e-10
 88.26668   -121.3 1.105e+04 4.925e-10
 88.28621   -122.6 1.154e+04 5.576e-10
 88.30574   -124.5 1.244e+04 7.138e-10
 88.32527   -126.3 1.348e+04 1.061e-09
 88.34480   -127.9 1.429e+04 1.646e-09
 88.36434   -129.0 1.476e+04 2.410e-09
 88.38387   -129.7 1.494e+04 3.092e-09
 88.40340   -130.4 1.496e+04 3.340e-09
 88.42293   -131.0 1.461e+04 3.317e-09
 88.44246   -131.4 1.418e+04 2.661e-09
 88.46200   -131.5 1.358e+04 1.858e-09
 88.48153   -131.9 1.302e+04 1.204e-09
 88.50106   -132.5 1.251e+04 7.491e-10
 88.52059   -133.3 1.190e+04 4.985e-10
 88.54012   -133.9 1.119e+04 3.993e-10
 88.55966   -134.1 1.086e+04 3.698e-10
 88.57919   -134.1 1.081e+04 3.467e-10
 88.59872   -133.8 1.073e+04 3.252e-10
 88.61825   -133.4 1.062e+04 3.040e-10
 88.63778   -132.9 1.052e+04 2.888e-10
 88.65732   -132.2 1.045e+04 2.808e-10
 88.68671   -131.6 1.039e+04 2.682e-10
 88.72587   -131.0 1.007e+04 2.202e-10
 88.76494   -130.4 9.691e+03 1.745e-10
 88.80400   -129.9 9.495e+03 1.503e-10
 88.84307   -129.5 9.469e+03 1.448e-10
 88.88213   -128.9 9.486e+03 1.483e-10
 88.92119   -128.4 9.617e+03 1.876e-10
 88.96026   -127.4 9.759e+03 2.497e-10
 88.99932   -126.2 9.826e+03 2.955e-10
 89.03839   -124.8 9.840e+03 3.074e-10
 89.07745   -123.4 9.666e+03 2.986e-10
 89.11651   -121.8 9.433e+03 2.588e-10
 89.15558   -120.3 9.133e+03 2.050e-10
 89.19464   -118.8 8.870e+03 1.609e-10
 89.23371   -117.5 8.695e+03 1.326e-10
 89.27277   -116.2 8.634e+03 1.215e-10
 89.31183   -115.0 8.624e+03 1.196e-10
 89.35090   -113.9 8.681e+03 1.246e-10
 89.38996   -112.9 8.834e+03 1.500e-10
 89.42903   -112.0 8.947e+03 1.795e-10
 89.46809   -111.1 8.984e+03 1.959e-10
 89.50715   -110.2 8.987e+03 1.987e-10
 89.54622   -109.4 8.896e+03 1.927e-10
 89.58528   -108.5 8.737e+03 1.714e-10
 89.62435   -107.6 8.627e+03 1.541e-10
 89.66341   -106.9 8.596e+03 1.492e-10
 89.70247   -106.1 8.614e+03 1.521e-10
 89.74154   -105.4 8.715e+03 1.651e-10
 89.78060   -104.6 8.832e+03 1.833e-10
 89.81967   -103.7 8.942e+03 1.992e-10
 89.85873   -102.8 9.053e+03 2.102e-10
 89.89779   -102.4 9.204e+03 2.203e-10
 89.93686   -102.4 9.512e+03 2.492e-10
 89.97592   -103.3 1.012e+04 3.544e-10
 90.01499   -104.9 1.099e+04 6.346e-10
 90.05405   -106.8 1.178e+04 1.041e-09
 90.09311   -109.3 1.225e+04 1.316e-09
 90.12231   -111.7 1.225e+04 1.320e-09
 90.14175   -113.3 1.222e+04 1.280e-09
 90.16128   -115.0 1.215e+04 1.229e-09
 90.18081   -116.5 1.211e+04 1.208e-09
 90.20034   -117.8 1.210e+04 1.213e-09
 90.21988   -118.6 1.214e+04 1.258e-09
 90.24927   -119.5 1.212e+04 1.289e-09
 90.27857   -120.3 1.229e+04 1.641e-09
 90.29800   -120.4 1.250e+04 1.816e-09
 90.31754   -120.5 1.263e+04 1.977e-09
 90.33707   -120.5 1.269e+04 2.082e-09
 90.35660   -120.4 1.265e+04 2.119e-09
 90.37613   -119.8 1.244e+04 2.069e-09
 90.39566   -119.1 1.225e+04 1.915e-09
 90.41520   -118.6 1.212e+04 1.713e-09
 90.43473   -118.1 1.207e+04 1.501e-09
 90.45426   -117.9 1.203e+04 1.294e-09
 90.47379   -117.8 1.188e+04 1.090e-09
 90.49332   -117.9 1.153e+04 9.079e-10
 90.51286   -118.5 1.104e+04 7.791e-10
 90.53239   -119.2 1.075e+04 7.382e-10
 90.55192   -119.9 1.067e+04 7.453e-10
 90.57145   -120.4 1.074e+04 8.561e-10
 90.59098   -120.8 1.100e+04 9.593e-10
 90.61052   -121.3 1.120e+04 1.035e-09
 90.63005   -121.9 1.142e+04 1.068e-09
 90.64958   -122.6 1.159e+04 1.070e-09
 90.66911   -123.3 1.186e+04 1.005e-09
 90.68864   -124.1 1.193e+04 9.176e-10
 90.70818   -125.0 1.202e+04 8.668e-10
 90.72771   -125.9 1.203e+04 8.584e-10
 90.74724   -126.6 1.202e+04 8.644e-10
 90.76677   -127.2 1.199e+04 9.145e-10
 90.78630   -127.6 1.201e+04 1.005e-09
 90.80584   -127.8 1.211e+04 1.141e-09
 90.82537   -127.9 1.225e+04 1.307e-09
 90.84490   -127.9 1.244e+04 1.503e-09
 90.86443   -127.8 1.255e+04 1.684e-09
 90.88396   -127.7 1.253e+04 1.791e-09
 90.90350   -127.7 1.242e+04 1.805e-09
 90.92303   -127.8 1.209e+04 1.644e-09
 90.94256   -128.3 1.223e+04 1.389e-09
 90.96209   -130.5 1.312e+04 1.270e-09
 90.98162   -134.8 1.604e+04 1.305e-09
 91.00116   -139.5 1.761e+04 1.964e-09
 91.01992   -142.8 1.742e+04 3.453e-09
 91.02968   -138.8 1.548e+04 1.329e-09
 91.04022   -141.7 1.605e+04 2.328e-09
 91.05975   -142.9 1.607e+04 3.853e-09
 91.07928   -143.2 1.603e+04 5.406e-09
 91.09882   -143.1 1.589e+04 6.245e-09
 91.11835   -142.6 1.575e+04 6.310e-09
 91.13788   -141.8 1.528e+04 5.545e-09
 91.15741   -140.7 1.479e+04 4.371e-09
 91.17694   -139.8 1.436e+04 3.160e-09
 91.19648   -139.4 1.401e+04 2.206e-09
 91.21601   -139.3 1.376e+04 1.573e-09
 91.23554   -139.3 1.349e+04 1.199e-09
 91.25507   -139.4 1.316e+04 9.996e-10
 91.27460   -139.4 1.276e+04 9.091e-10
 91.29414   -139.1 1.241e+04 8.743e-10
 91.31367   -138.4 1.214e+04 8.687e-10
 91.33320   -137.7 1.191e+04 8.751e-10
 91.35273   -136.8 1.171e+04 8.853e-10
 91.37226   -135.9 1.158e+04 8.881e-10
 91.39180   -134.8 1.150e+04 8.847e-10
 91.41133   -133.8 1.145e+04 8.791e-10
 91.43086   -132.8 1.141e+04 8.718e-10
 91.45039   -131.7 1.140e+04 8.631e-10
 91.46992   -130.7 1.144e+04 8.565e-10
 91.48946   -129.7 1.149e+04 8.511e-10
 91.50899   -128.8 1.155e+04 8.423e-10
 91.52852   -127.9 1.157e+04 8.350e-10
 91.54805   -127.1 1.162e+04 8.338e-10
 91.56758   -126.4 1.168e+04 8.339e-10
 91.58712   -125.8 1.175e+04 8.474e-10
 91.60665   -125.3 1.186e+04 8.758e-10
 91.62618   -125.0 1.201e+04 9.184e-10
 91.64571   -124.9 1.220e+04 9.730e-10
 91.66524   -124.9 1.241e+04 1.044e-09
 91.68478   -125.0 1.263e+04 1.158e-09
 91.70431   -125.1 1.282e+04 1.333e-09
 91.72384   -125.1 1.292e+04 1.511e-09
 91.74337   -125.2 1.292e+04 1.644e-09
 91.76290   -125.2 1.291e+04 1.780e-09
 91.78244   -125.2 1.288e+04 1.906e-09
 91.80197   -125.0 1.285e+04 1.999e-09
 91.82150   -124.9 1.282e+04 2.023e-09
 91.84103   -124.8 1.274e+04 2.003e-09
 91.86056   -124.6 1.260e+04 1.917e-09
 91.88010   -124.3 1.240e+04 1.770e-09
 91.89963   -124.0 1.216e+04 1.597e-09
 91.92902   -123.7 1.193e+04 1.410e-09
 91.96819   -122.8 1.143e+04 1.141e-09
 92.00725   -122.3 1.131e+04 1.070e-09
 92.04631   -122.0 1.135e+04 1.076e-09
 92.08538   -122.0 1.153e+04 1.151e-09
 92.11458   -122.7 1.155e+04 1.179e-09
 92.13401   -123.0 1.153e+04 1.177e-09
 92.15354   -123.4 1.139e+04 1.119e-09
 92.17308   -123.6 1.118e+04 9.963e-10
 92.19261   -123.9 1.086e+04 8.212e-10
 92.21214   -124.0 1.067e+04 7.118e-10
 92.23167   -124.0 1.049e+04 6.252e-10
 92.25120   -123.9 1.041e+04 5.665e-10
 92.27074   -123.9 1.041e+04 5.440e-10
 92.29027   -123.8 1.044e+04 5.395e-10
 92.30980   -123.8 1.077e+04 5.719e-10
 92.32933   -123.8 1.110e+04 6.736e-10
 92.34886   -123.5 1.132e+04 8.055e-10
 92.36840   -122.9 1.144e+04 9.484e-10
 92.38793   -122.1 1.149e+04 1.071e-09
 92.40746   -121.2 1.148e+04 1.130e-09
 92.42699   -120.3 1.147e+04 1.135e-09
 92.44652   -119.5 1.137e+04 1.082e-09
 92.47592   -118.6 1.120e+04 9.965e-10
 92.51508   -116.6 1.093e+04 9.047e-10
 92.55415   -115.0 1.084e+04 8.034e-10
 92.59321   -113.4 1.091e+04 7.461e-10
 92.63227   -111.8 1.102e+04 7.271e-10
 92.67134   -110.1 1.109e+04 7.159e-10
 92.71040   -109.0 1.167e+04 7.891e-10
 92.73960   -109.0 1.284e+04 1.179e-09
 92.75904   -109.0 1.336e+04 1.476e-09
 92.77857   -109.4 1.409e+04 2.083e-09
 92.79810   -109.4 1.468e+04 2.995e-09
 92.81763   -109.2 1.512e+04 4.170e-09
 92.83716   -108.6 1.537e+04 5.213e-09
 92.85670   -108.1 1.542e+04 5.672e-09
 92.87623   -107.4 1.528e+04 5.669e-09
 92.89576   -106.4 1.460e+04 4.678e-09
 92.91529   -105.3 1.373e+04 3.312e-09
 92.93482   -104.4 1.288e+04 2.206e-09
 92.95436   -103.9 1.223e+04 1.527e-09
 92.98375   -103.6 1.162e+04 1.083e-09
 93.02291   -102.2 1.051e+04 6.272e-10
 93.06198   -100.1 9.999e+03 4.682e-10
 93.10104    -97.5 9.724e+03 4.032e-10
 93.14011    -94.8 9.691e+03 3.961e-10
 93.17917    -92.5 9.688e+03 3.976e-10
 93.21823    -90.3 9.706e+03 4.092e-10
 93.25730    -88.3 9.670e+03 4.058e-10
 93.29636    -86.2 9.551e+03 3.746e-10
 93.33543    -84.1 9.423e+03 3.277e-10
 93.37449    -82.0 9.248e+03 2.684e-10
 93.41355    -80.1 9.099e+03 2.226e-10
 93.45262    -78.3 8.991e+03 1.964e-10
 93.49168    -76.6 8.952e+03 1.889e-10
 93.53075    -75.1 8.954e+03 1.888e-10
 93.56981    -73.8 8.947e+03 2.014e-10
 93.60887    -72.6 8.913e+03 2.131e-10
 93.64794    -71.5 8.884e+03 2.169e-10
 93.68700    -70.5 8.719e+03 2.194e-10
 93.72607    -69.8 8.616e+03 2.142e-10
 93.76513    -69.5 8.592e+03 2.120e-10
 93.80419    -69.4 8.570e+03 2.170e-10
 93.84326    -69.6 8.634e+03 2.324e-10
 93.88232    -69.8 8.740e+03 2.535e-10
 93.92139    -70.3 8.787e+03 2.695e-10
 93.96045    -71.1 8.780e+03 2.734e-10
 93.99951    -72.0 8.659e+03 2.646e-10
 94.03858    -73.0 8.585e+03 2.544e-10
 94.07764    -74.4 8.582e+03 2.534e-10
 94.11671    -77.3 8.913e+03 2.954e-10
 94.15577    -81.3 1.006e+04 5.424e-10
 94.19483    -85.2 1.108e+04 9.849e-10
 94.22403    -88.1 1.153e+04 1.330e-09
 94.24347    -92.0 1.199e+04 1.487e-09
 94.26300   -100.4 1.401e+04 1.704e-09
 94.28253   -112.0 1.693e+04 2.464e-09
 94.30206   -122.2 1.777e+04 4.459e-09
 94.32160   -128.8 1.729e+04 6.519e-09
 94.34113   -132.9 1.698e+04 6.985e-09
 94.36066   -135.2 1.567e+04 6.144e-09
 94.38019   -136.7 1.435e+04 3.529e-09
 94.39820   -139.0 1.300e+04 1.596e-09
 94.40796   -141.0 1.273e+04 1.279e-09
 94.41926   -144.9 1.118e+04 5.745e-10
 94.43879   -148.0 1.017e+04 3.983e-10
 94.45832   -149.2 9.821e+03 3.732e-10
 94.47785   -149.5 9.771e+03 3.739e-10
 94.49738   -149.5 9.796e+03 4.194e-10
 94.51692   -149.4 9.931e+03 4.608e-10
 94.54631   -149.1 9.920e+03 4.494e-10
 94.58547   -148.9 9.904e+03 4.235e-10
 94.62454   -148.5 9.726e+03 3.617e-10
 94.66360   -148.1 9.486e+03 2.956e-10
 94.70267   -147.5 9.256e+03 2.395e-10
 94.74173   -146.7 9.077e+03 1.966e-10
 94.78079   -145.8 8.935e+03 1.628e-10
 94.81986   -144.7 8.842e+03 1.372e-10
 94.85892   -143.6 8.824e+03 1.248e-10
 94.89799   -142.4 8.811e+03 1.213e-10
 94.93705   -141.1 8.817e+03 1.187e-10
 94.97611   -139.9 8.826e+03 1.185e-10
 95.01518   -138.8 8.930e+03 1.251e-10
 95.05424   -137.7 9.060e+03 1.423e-10
 95.09331   -136.5 9.193e+03 1.681e-10
 95.13237   -135.3 9.356e+03 2.009e-10
 95.17143   -134.1 9.554e+03 2.448e-10
 95.21050   -132.8 9.793e+03 3.063e-10
 95.24956   -131.4 1.008e+04 3.897e-10
 95.28863   -130.0 1.038e+04 4.878e-10
 95.32769   -128.4 1.064e+04 5.684e-10
 95.35689   -127.4 1.098e+04 7.337e-10
 95.37632   -126.8 1.105e+04 7.789e-10
 95.39586   -126.1 1.109e+04 8.129e-10
 95.41539   -125.4 1.110e+04 8.218e-10
 95.43492   -124.6 1.110e+04 8.245e-10
 95.45445   -123.8 1.108e+04 8.076e-10
 95.47398   -123.0 1.105e+04 7.663e-10
 95.49352   -122.2 1.102e+04 7.188e-10
 95.51305   -121.4 1.099e+04 6.705e-10
 95.53258   -120.6 1.097e+04 6.244e-10
 95.55211   -119.9 1.094e+04 5.828e-10
 95.57164   -119.1 1.092e+04 5.476e-10
 95.58841   -118.3 1.091e+04 5.199e-10
 95.59818   -118.6 1.111e+04 6.038e-10
 95.61071   -117.8 1.111e+04 5.796e-10
 95.63024   -117.0 1.113e+04 5.626e-10
 95.64977   -116.1 1.116e+04 5.496e-10
 95.66930   -115.2 1.118e+04 5.408e-10
 95.68884   -114.3 1.118e+04 5.370e-10
 95.70837   -113.4 1.122e+04 5.386e-10
 95.72790   -112.5 1.131e+04 5.502e-10
 95.74743   -111.3 1.146e+04 5.882e-10
 95.76696   -110.8 1.159e+04 6.321e-10
 95.78650   -109.7 1.176e+04 7.092e-10
 95.80603   -109.2 1.186e+04 7.784e-10
 95.83542   -107.9 1.199e+04 8.847e-10
 95.87459   -105.7 1.201e+04 9.317e-10
 95.91365   -103.7 1.201e+04 9.390e-10
 95.95271   -101.6 1.182e+04 7.943e-10
 95.99178    -99.4 1.160e+04 6.138e-10
 96.03084    -97.5 1.147e+04 4.584e-10
 96.06991    -95.9 1.134e+04 3.679e-10
 96.10897    -94.6 1.121e+04 3.458e-10
 96.14803    -93.3 1.121e+04 3.435e-10
 96.18710    -92.2 1.124e+04 3.548e-10
 96.22616    -90.9 1.124e+04 3.756e-10
 96.26523    -89.3 1.120e+04 3.872e-10
 96.30429    -87.4 1.106e+04 3.897e-10
 96.34335    -85.4 1.089e+04 3.634e-10
 96.38242    -83.3 1.073e+04 3.295e-10
 96.42148    -81.2 1.058e+04 3.110e-10
 96.46055    -78.9 1.053e+04 3.067e-10
 96.49961    -76.5 1.050e+04 3.085e-10
 96.53867    -74.1 1.055e+04 3.255e-10
 96.57774    -71.6 1.063e+04 3.490e-10
 96.61680    -69.3 1.072e+04 3.750e-10
 96.65587    -67.0 1.077e+04 3.984e-10
 96.69493    -64.8 1.081e+04 4.342e-10
 96.73399    -62.5 1.084e+04 4.797e-10
 96.77306    -60.3 1.084e+04 5.021e-10
 96.81212    -57.9 1.080e+04 5.044e-10
 96.85119    -55.7 1.079e+04 4.620e-10
 96.89025    -53.6 1.080e+04 3.854e-10
 96.92931    -51.8 1.086e+04 3.152e-10
 96.96838    -50.7 1.092e+04 2.759e-10
 97.00744    -50.5 1.116e+04 3.232e-10
 97.04651    -50.0 1.162e+04 5.310e-10
 97.08557    -49.0 1.192e+04 8.366e-10
 97.12463    -47.7 1.212e+04 1.098e-09
 97.16370    -46.2 1.219e+04 1.225e-09
 97.20276    -44.4 1.220e+04 1.255e-09
 97.24183    -42.5 1.218e+04 1.265e-09
 97.28089    -40.4 1.209e+04 1.241e-09
 97.31995    -38.1 1.192e+04 1.175e-09
 97.35902    -35.6 1.175e+04 1.091e-09
 97.39808    -33.0 1.154e+04 9.935e-10
 97.43714    -30.2 1.133e+04 8.851e-10
 97.47621    -27.3 1.111e+04 7.731e-10
 97.51527    -24.3 1.094e+04 6.779e-10
 97.55434    -21.2 1.090e+04 6.263e-10
 97.59340    -18.2 1.090e+04 5.982e-10
 97.63246    -15.1 1.091e+04 5.916e-10
 97.67153    -12.3 1.110e+04 6.231e-10
 97.71059     -9.8 1.142e+04 7.257e-10
 97.74966     -7.3 1.194e+04 9.342e-10
 97.77886     -5.9 1.267e+04 1.338e-09
 97.79829     -5.0 1.292e+04 1.432e-09
 97.81782     -3.6 1.334e+04 1.904e-09
 97.83736     -2.8 1.369e+04 1.994e-09
 97.85689     -1.5 1.430e+04 2.075e-09
 97.87266     -0.8 1.450e+04 2.073e-09
 97.88242     -0.9 1.272e+04 6.035e-10
 97.89595     -0.1 1.262e+04 5.575e-10
 97.91548      0.3 1.253e+04 5.629e-10
 97.93502      0.8 1.222e+04 5.690e-10
 97.95455      0.6 1.253e+04 6.701e-10
 97.97408     -0.2 1.379e+04 8.921e-10
 97.99361     -1.4 1.459e+04 1.488e-09
 98.01314     -1.2 1.462e+04 2.856e-09
 98.03268      0.5 1.450e+04 4.586e-09
 98.05221      2.8 1.456e+04 5.847e-09
 98.07174      5.0 1.452e+04 5.665e-09
 98.09127      6.5 1.442e+04 4.637e-09
 98.11080      7.4 1.395e+04 3.606e-09
 98.13034      8.1 1.328e+04 2.623e-09
 98.14987      8.9 1.267e+04 1.966e-09
 98.17926      9.8 1.200e+04 1.297e-09
 98.21842     11.7 1.146e+04 1.051e-09
 98.25749     14.0 1.136e+04 1.029e-09
 98.29655     15.8 1.153e+04 1.185e-09
 98.33562     17.9 1.170e+04 1.353e-09
 98.36482     19.2 1.183e+04 1.547e-09
 98.38425     20.2 1.179e+04 1.522e-09
 98.40378     21.3 1.153e+04 1.362e-09
 98.42332     22.1 1.128e+04 1.172e-09
 98.44285     22.6 1.106e+04 9.947e-10
 98.46238     23.0 1.085e+04 8.496e-10
 98.48191     23.3 1.070e+04 7.413e-10
 98.50144     23.4 1.054e+04 6.555e-10
 98.52098     23.5 1.038e+04 6.005e-10
 98.54051     23.4 1.028e+04 5.728e-10
 98.56004     23.3 1.027e+04 5.593e-10
 98.57957     23.3 1.028e+04 5.515e-10
 98.59910     23.4 1.026e+04 5.507e-10
 98.61864     23.3 1.031e+04 5.639e-10
 98.63817     22.6 1.061e+04 6.332e-10
 98.65770     21.1 1.132e+04 8.502e-10
 98.67723     19.0 1.218e+04 1.347e-09
 98.69676     18.0 1.278e+04 2.152e-09
 98.71630     18.7 1.309e+04 3.022e-09
 98.73583     19.7 1.331e+04 3.541e-09
 98.75536     20.9 1.324e+04 3.439e-09
 98.77489     21.6 1.308e+04 3.050e-09
 98.79442     22.6 1.255e+04 2.305e-09
 98.81396     22.2 1.218e+04 1.795e-09
 98.83349     22.7 1.142e+04 1.246e-09
 98.85302     22.6 1.100e+04 9.726e-10
 98.87255     23.3 1.036e+04 7.143e-10
 98.89208     23.6 1.030e+04 6.727e-10
 98.92148     25.7 9.881e+03 5.398e-10
 98.96064     27.8 9.311e+03 4.076e-10
 98.99970     30.1 8.982e+03 3.392e-10
 99.03877     32.7 8.780e+03 2.906e-10
 99.07783     35.3 8.597e+03 2.527e-10
 99.11690     37.8 8.495e+03 2.300e-10
 99.15596     40.5 8.510e+03 2.304e-10
 99.19502     43.1 8.628e+03 2.457e-10
 99.23409     45.7 8.940e+03 2.953e-10
 99.27315     47.4 9.223e+03 3.694e-10
 99.30235     48.2 9.426e+03 4.533e-10
 99.32179     49.1 9.813e+03 5.937e-10
 99.34132     49.7 1.035e+04 8.217e-10
 99.36085     50.1 1.094e+04 1.157e-09
 99.38038     50.4 1.164e+04 1.653e-09
 99.39992     50.4 1.262e+04 2.375e-09
 99.41945     49.9 1.385e+04 3.379e-09
 99.43898     48.4 1.541e+04 4.803e-09
 99.45851     47.3 1.630e+04 5.942e-09
 99.47804     46.1 1.646e+04 6.289e-09
 99.49758     44.9 1.624e+04 6.084e-09
 99.51711     43.6 1.575e+04 5.482e-09
 99.53664     42.0 1.538e+04 4.995e-09
 99.55617     40.5 1.512e+04 4.767e-09
 99.57570     40.1 1.482e+04 4.617e-09
 99.59524     40.5 1.444e+04 4.324e-09
 99.61477     41.4 1.393e+04 3.809e-09
 99.63430     42.2 1.336e+04 3.104e-09
 99.66370     44.0 1.255e+04 2.052e-09
 99.70286     45.4 1.143e+04 1.207e-09
 99.74192     46.8 1.042e+04 7.112e-10
 99.78098     48.3 9.698e+03 4.239e-10
 99.82005     50.0 9.276e+03 2.604e-10
 99.85911     51.8 9.054e+03 1.680e-10
 99.89818     53.8 8.904e+03 1.140e-10
 99.93724     55.6 8.706e+03 8.286e-11
 99.97630     57.3 8.415e+03 6.985e-11
100.01537     59.2 8.254e+03 6.927e-11
