# Columns:
#   distance along LOS (in CHIMPs)
#   peculiar velocity  (in km/s)
#   temperature (K)
#   HI number density
# pos=(79.3367,203.232,3.3325), angles=(1.46202,0.401217)
  0.00337    137.1 1.067e+04 4.919e-10
  0.00701    135.2 1.150e+04 7.436e-10
  0.01768    137.0 1.072e+04 4.592e-10
  0.03875    134.7 1.204e+04 8.007e-10
  0.05351    131.6 1.403e+04 1.676e-09
  0.05948    134.0 1.283e+04 9.817e-10
  0.06606    135.7 1.163e+04 6.276e-10
  0.08144    132.2 1.444e+04 1.666e-09
  0.10000    128.8 1.688e+04 4.146e-09
  0.11067    131.5 1.551e+04 2.541e-09
  0.12412    128.7 1.768e+04 5.837e-09
  0.14546    126.4 1.950e+04 9.138e-09
  0.15717    123.8 2.048e+04 9.466e-09
  0.16784    126.7 2.034e+04 1.106e-08
  0.18815    123.9 2.118e+04 1.094e-08
  0.20367    120.4 2.113e+04 1.003e-08
  0.21434    123.9 2.178e+04 1.290e-08
  0.23072    120.2 2.166e+04 1.148e-08
  0.24139    121.7 2.366e+04 1.380e-08
  0.25016    116.7 2.223e+04 1.032e-08
  0.26079    117.4 2.270e+04 1.219e-08
  0.27347    114.5 2.227e+04 1.188e-08
  0.29486    109.4 2.153e+04 1.147e-08
  0.30733    104.9 2.143e+04 1.083e-08
  0.31800    106.9 2.300e+04 1.494e-08
  0.33754    102.0 2.338e+04 1.368e-08
  0.35383     97.0 2.313e+04 9.195e-09
  0.36445     95.5 2.402e+04 1.039e-08
  0.38018     92.9 2.354e+04 8.749e-09
  0.40032     87.2 1.926e+04 3.837e-09
  0.41100     89.2 2.237e+04 7.154e-09
  0.41671     83.8 1.715e+04 2.764e-09
  0.42739     81.5 1.481e+04 2.266e-09
  0.44426     78.6 1.267e+04 1.350e-09
  0.45749     76.2 1.288e+04 9.780e-10
  0.46816     76.9 1.294e+04 9.017e-10
  0.48694     73.7 1.203e+04 6.404e-10
  0.50409     71.2 1.148e+04 5.188e-10
  0.52553     72.5 1.135e+04 4.115e-10
  0.56183     69.7 1.078e+04 3.584e-10
  0.59223     68.2 1.064e+04 3.454e-10
  0.60624     66.8 1.088e+04 4.020e-10
  0.61852     68.6 1.035e+04 2.753e-10
  0.64720     67.5 1.028e+04 2.625e-10
  0.68989     66.3 1.026e+04 2.565e-10
  0.71151     64.8 1.036e+04 2.686e-10
  0.73285     66.3 1.006e+04 2.193e-10
  0.77526     64.1 1.036e+04 2.558e-10
  0.80450     61.2 1.122e+04 3.853e-10
  0.82585     62.4 1.106e+04 3.685e-10
  0.86062     59.5 1.193e+04 5.768e-10
  0.89750     56.8 1.255e+04 7.278e-10
  0.91884     58.3 1.245e+04 7.566e-10
  0.94288     55.3 1.303e+04 7.845e-10
  0.96213     51.2 1.431e+04 1.297e-09
  0.96514     52.0 1.444e+04 1.320e-09
  0.97781     49.9 1.453e+04 1.370e-09
  0.99915     47.5 1.453e+04 1.423e-09
  1.01164     45.3 1.443e+04 1.501e-09
  1.02231     45.9 1.457e+04 1.526e-09
  1.04184     43.7 1.440e+04 1.586e-09
  1.05813     40.8 1.580e+04 1.536e-09
  1.06880     41.5 1.474e+04 1.628e-09
  1.08452     34.6 2.343e+04 1.127e-09
  1.10048    -21.4 1.154e+05 3.433e-10
  1.10987    -40.0 1.357e+05 8.941e-10
  1.11520    -41.4 1.345e+05 1.072e-09
  1.12177    -58.7 3.815e+04 2.375e-07
  1.12975    -63.0 1.919e+04 6.218e-06
  1.13506    -66.6 1.881e+04 8.886e-06
  1.13840    -72.4 1.907e+04 7.712e-06
  1.13988    -73.0 1.897e+04 8.069e-06
  1.14188    -83.9 2.075e+04 2.440e-06
  1.14574    -98.6 2.030e+04 3.024e-07
  1.15003   -108.5 1.997e+04 5.208e-08
  1.15269   -108.8 1.996e+04 5.166e-08
  1.15641   -114.1 2.391e+04 1.393e-08
  1.16167   -121.7 2.930e+04 2.359e-09
  1.16703   -126.0 2.562e+04 1.743e-09
  1.17513   -130.8 2.880e+04 1.133e-09
  1.18495   -125.4 3.250e+04 3.060e-09
  1.19026   -124.1 3.607e+04 2.412e-09
  1.19376   -117.1 3.907e+04 3.778e-09
  1.19909   -112.8 3.982e+04 5.138e-09
  1.20186   -104.2 4.518e+04 6.755e-09
  1.20453   -102.6 4.427e+04 8.590e-09
  1.20976    -98.2 5.095e+04 7.677e-09
  1.21351    -84.1 5.673e+04 1.055e-08
  1.21887    -81.8 6.483e+04 6.447e-09
  1.22692   -114.3 6.261e+04 9.703e-10
  1.23226   -132.6 3.201e+04 6.944e-10
  1.23678   -139.9 1.631e+04 8.318e-10
  1.24211   -140.6 1.543e+04 8.505e-10
  1.25474   -142.7 1.348e+04 8.957e-10
  1.26546   -142.7 1.331e+04 9.315e-10
  1.27660   -143.1 1.279e+04 8.676e-10
  1.29794   -142.5 1.263e+04 8.019e-10
  1.31196   -141.6 1.248e+04 7.353e-10
  1.31802   -141.0 1.249e+04 7.255e-10
  1.32535   -140.5 1.243e+04 7.161e-10
  1.34063   -139.9 1.224e+04 6.472e-10
  1.35845   -139.3 1.206e+04 5.850e-10
  1.36912   -138.5 1.202e+04 5.691e-10
  1.38331   -137.9 1.187e+04 5.140e-10
  1.40466   -137.4 1.174e+04 4.684e-10
  1.41562   -136.9 1.162e+04 4.343e-10
  1.42629   -136.0 1.163e+04 4.333e-10
  1.44734   -135.5 1.154e+04 4.142e-10
  1.46212   -135.1 1.151e+04 4.083e-10
  1.47279   -134.1 1.154e+04 4.140e-10
  1.49001   -133.7 1.154e+04 4.131e-10
  1.50859   -133.7 1.178e+04 4.529e-10
  1.51928   -132.8 1.182e+04 4.647e-10
  1.53271   -132.5 1.193e+04 5.020e-10
  1.55405   -132.1 1.204e+04 5.491e-10
  1.56578   -131.7 1.214e+04 6.005e-10
  1.57645   -130.8 1.222e+04 6.226e-10
  1.59674   -130.5 1.230e+04 6.685e-10
  1.61228   -130.0 1.234e+04 7.022e-10
  1.62295   -129.2 1.241e+04 7.133e-10
  1.63942   -128.8 1.242e+04 7.231e-10
  1.65877   -128.2 1.241e+04 7.246e-10
  1.66944   -127.7 1.243e+04 7.215e-10
  1.67600   -127.2 1.243e+04 7.118e-10
  1.68667   -127.7 1.237e+04 7.175e-10
  1.70345   -127.1 1.236e+04 7.019e-10
  1.71594   -126.7 1.229e+04 6.830e-10
  1.72661   -125.9 1.232e+04 6.679e-10
  1.75690   -125.6 1.221e+04 6.188e-10
  1.79846   -124.5 1.204e+04 5.870e-10
  1.81970   -123.8 1.217e+04 6.432e-10
  1.83150   -123.1 1.212e+04 6.405e-10
  1.85133   -122.6 1.209e+04 6.463e-10
  1.86200   -122.6 1.186e+04 5.652e-10
  1.86610   -121.8 1.185e+04 5.741e-10
  1.87677   -121.5 1.188e+04 5.938e-10
  1.89553   -120.8 1.190e+04 6.140e-10
  1.91260   -120.0 1.192e+04 6.344e-10
  1.92327   -119.7 1.212e+04 6.819e-10
  1.93821   -118.9 1.215e+04 7.027e-10
  1.95909   -118.1 1.219e+04 7.145e-10
  1.96977   -118.0 1.238e+04 7.297e-10
  1.98090   -117.2 1.235e+04 7.205e-10
  2.00224   -116.5 1.229e+04 7.095e-10
  2.01626   -115.7 1.225e+04 6.996e-10
  2.02693   -115.7 1.224e+04 6.694e-10
  2.03732   -114.9 1.221e+04 6.615e-10
  2.04799   -114.7 1.226e+04 6.778e-10
  2.06276   -114.0 1.226e+04 6.746e-10
  2.07343   -114.0 1.217e+04 6.183e-10
  2.08761   -113.3 1.216e+04 6.164e-10
  2.10895   -112.7 1.219e+04 6.284e-10
  2.11993   -112.1 1.226e+04 6.620e-10
  2.13060   -112.3 1.213e+04 6.070e-10
  2.15163   -111.8 1.223e+04 6.730e-10
  2.16642   -111.3 1.238e+04 7.612e-10
  2.17709   -111.4 1.232e+04 7.425e-10
  2.19432   -110.7 1.255e+04 8.588e-10
  2.21265   -110.1 1.281e+04 9.952e-10
  2.22058   -109.8 1.240e+04 8.128e-10
  2.22359   -109.7 1.240e+04 8.031e-10
  2.23700   -109.1 1.262e+04 9.218e-10
  2.25835   -108.5 1.284e+04 1.049e-09
  2.27009   -107.8 1.306e+04 1.185e-09
  2.28076   -107.6 1.308e+04 1.180e-09
  2.30103   -107.0 1.330e+04 1.330e-09
  2.31658   -106.5 1.358e+04 1.503e-09
  2.32725   -106.4 1.356e+04 1.454e-09
  2.34371   -106.0 1.388e+04 1.668e-09
  2.36308   -105.7 1.429e+04 1.950e-09
  2.37375   -105.6 1.412e+04 1.755e-09
  2.38640   -105.4 1.451e+04 2.066e-09
  2.39864   -105.1 1.489e+04 2.424e-09
  2.40931   -104.3 1.467e+04 2.329e-09
  2.42025   -104.0 1.511e+04 2.763e-09
  2.43092   -103.7 1.489e+04 2.474e-09
  2.45043   -103.4 1.515e+04 2.769e-09
  2.46674   -103.1 1.527e+04 2.928e-09
  2.47741   -102.9 1.503e+04 2.606e-09
  2.49311   -102.7 1.505e+04 2.612e-09
  2.51324   -102.6 1.477e+04 2.302e-09
  2.52391   -102.5 1.448e+04 2.024e-09
  2.53579   -102.6 1.393e+04 1.581e-09
  2.55714   -103.2 1.323e+04 1.196e-09
  2.57041   -104.1 1.264e+04 9.692e-10
  2.57657   -104.2 1.281e+04 1.043e-09
  2.58464   -102.6 1.312e+04 1.091e-09
  2.59982   -103.4 1.279e+04 1.013e-09
  2.61690   -103.9 1.276e+04 1.002e-09
  2.62757   -104.3 1.336e+04 1.189e-09
  2.65327   -105.3 1.348e+04 1.256e-09
  2.69606   -105.7 1.369e+04 1.441e-09
  2.72076   -106.1 1.380e+04 1.596e-09
  2.74210   -107.1 1.420e+04 1.807e-09
  2.76716   -104.9 1.413e+04 1.841e-09
  2.77773   -105.5 1.424e+04 1.960e-09
  2.79190   -105.5 1.418e+04 1.934e-09
  2.81324   -105.6 1.412e+04 1.880e-09
  2.82423   -105.6 1.400e+04 1.719e-09
  2.83490   -105.7 1.397e+04 1.731e-09
  2.85593   -105.7 1.380e+04 1.490e-09
  2.87073   -105.8 1.363e+04 1.247e-09
  2.88140   -106.1 1.342e+04 1.171e-09
  2.89861   -106.5 1.317e+04 9.652e-10
  2.91722   -106.8 1.299e+04 8.431e-10
  2.92789   -107.4 1.293e+04 8.054e-10
  2.93529   -107.8 1.279e+04 7.576e-10
  2.94596   -106.0 1.343e+04 1.017e-09
  2.96264   -106.4 1.322e+04 9.366e-10
  2.97439   -106.9 1.300e+04 8.820e-10
  2.98506   -107.7 1.290e+04 8.763e-10
  3.00532   -107.9 1.282e+04 8.612e-10
  3.02089   -108.1 1.275e+04 8.540e-10
  3.03156   -108.7 1.268e+04 8.582e-10
  3.04801   -108.7 1.254e+04 8.217e-10
  3.06738   -108.6 1.236e+04 7.581e-10
  3.07805   -109.0 1.230e+04 7.275e-10
  3.09069   -108.8 1.212e+04 6.358e-10
  3.11061   -108.8 1.200e+04 5.468e-10
  3.12128   -107.1 1.212e+04 6.202e-10
  3.12455   -107.1 1.203e+04 5.458e-10
  3.13522   -107.8 1.202e+04 5.002e-10
  3.16549   -107.5 1.207e+04 4.868e-10
  3.20707   -107.2 1.204e+04 4.542e-10
  3.22841   -108.4 1.175e+04 3.701e-10
  3.25095   -108.2 1.149e+04 2.896e-10
  3.29364   -108.2 1.105e+04 2.117e-10
  3.32140   -108.7 1.060e+04 1.819e-10
  3.34275   -109.9 9.968e+03 1.259e-10
  3.37901   -110.1 9.937e+03 1.254e-10
  3.41440   -110.1 1.001e+04 1.332e-10
  3.43574   -109.5 9.701e+03 1.060e-10
  3.46146   -109.1 1.005e+04 1.328e-10
  3.48280   -105.9 9.996e+03 1.152e-10
  3.50706   -106.0 1.057e+04 1.768e-10
  3.52873   -106.2 1.126e+04 3.216e-10
  3.55007   -105.1 1.134e+04 2.958e-10
  3.59243   -105.3 1.239e+04 5.729e-10
  3.62172   -106.2 1.325e+04 9.987e-10
  3.63230   -105.1 1.296e+04 7.887e-10
  3.64559   -105.2 1.342e+04 1.025e-09
  3.65793   -105.9 1.357e+04 1.211e-09
  3.66860   -105.0 1.427e+04 1.611e-09
  3.67870   -105.6 1.458e+04 1.840e-09
  3.68937   -104.3 1.548e+04 2.214e-09
  3.70962   -105.2 1.561e+04 2.410e-09
  3.72519   -106.2 1.555e+04 2.464e-09
  3.73586   -104.7 1.666e+04 3.158e-09
  3.75230   -105.6 1.626e+04 3.067e-09
  3.77169   -106.8 1.595e+04 2.994e-09
  3.78236   -106.1 1.732e+04 3.992e-09
  3.79499   -108.5 1.779e+04 4.526e-09
  3.81633   -110.9 1.874e+04 5.839e-09
  3.82886   -112.7 1.957e+04 7.494e-09
  3.83414   -111.7 1.987e+04 7.805e-09
  3.83849   -112.1 1.989e+04 7.970e-09
  3.84388   -111.8 1.852e+04 6.174e-09
  3.85206   -112.6 1.874e+04 6.431e-09
  3.85734   -112.5 1.896e+04 6.819e-09
  3.86425   -113.2 1.923e+04 7.253e-09
  3.87492   -113.9 1.951e+04 7.885e-09
  3.88059   -114.4 1.978e+04 8.520e-09
  3.88593   -114.6 2.002e+04 8.614e-09
  3.89626   -115.0 2.025e+04 8.963e-09
  3.90384   -115.4 2.045e+04 9.409e-09
  3.90917   -115.7 2.065e+04 8.644e-09
  3.91761   -115.9 2.090e+04 8.677e-09
  3.92615   -116.2 2.103e+04 8.742e-09
  3.93030   -115.2 1.933e+04 5.443e-09
  3.93242   -115.8 1.891e+04 4.640e-09
  3.93895   -116.2 1.914e+04 4.536e-09
  3.94962   -116.6 1.941e+04 4.585e-09
  3.95567   -117.1 1.949e+04 4.694e-09
  3.96101   -117.5 1.923e+04 4.348e-09
  3.97096   -117.7 1.955e+04 5.101e-09
  3.97897   -117.9 1.959e+04 6.298e-09
  3.98969   -119.0 1.818e+04 4.171e-09
  4.00841   -119.1 1.802e+04 4.694e-09
  4.01925   -119.0 1.810e+04 5.714e-09
  4.02568   -116.7 1.682e+04 2.993e-09
  4.03618   -116.9 1.500e+04 2.219e-09
  4.05109   -116.2 1.592e+04 2.910e-09
  4.07201   -115.6 1.678e+04 3.962e-09
  4.08268   -115.1 1.546e+04 2.869e-09
  4.09378   -114.5 1.622e+04 3.771e-09
  4.11512   -114.2 1.722e+04 5.228e-09
  4.12918   -115.0 1.893e+04 7.638e-09
  4.13985   -115.3 1.890e+04 5.903e-09
  4.15780   -118.4 2.254e+04 1.007e-08
  4.17567   -122.6 2.518e+04 1.630e-08
  4.18630   -123.9 2.641e+04 1.946e-08
  4.19448   -126.5 2.724e+04 2.880e-08
  4.19981   -123.6 2.706e+04 2.730e-08
  4.20416   -126.5 2.806e+04 4.299e-08
  4.20949   -127.9 2.841e+04 5.792e-08
  4.21640   -131.2 2.841e+04 8.455e-08
  4.22707   -135.3 2.841e+04 9.484e-08
  4.23274   -140.3 2.769e+04 9.334e-08
  4.23808   -141.5 2.665e+04 1.570e-07
  4.24841   -146.9 2.547e+04 1.060e-07
  4.25599   -151.5 2.360e+04 6.011e-08
  4.26133   -152.6 2.356e+04 6.856e-08
  4.26975   -155.3 2.147e+04 3.575e-08
  4.27924   -156.5 1.980e+04 2.281e-08
  4.28457   -157.3 1.946e+04 1.910e-08
  4.28748   -158.0 1.856e+04 1.251e-08
  4.29281   -157.9 1.877e+04 1.423e-08
  4.30177   -158.5 1.795e+04 9.764e-09
  4.30782   -159.2 1.711e+04 6.741e-09
  4.31316   -160.3 1.679e+04 5.715e-09
  4.32311   -160.8 1.603e+04 4.406e-09
  4.33107   -160.9 1.550e+04 3.650e-09
  4.33641   -161.7 1.524e+04 3.205e-09
  4.34984   -161.8 1.476e+04 2.554e-09
  4.36990   -161.4 1.356e+04 1.496e-09
  4.38057   -160.7 1.371e+04 1.764e-09
  4.38300   -160.3 1.229e+04 9.780e-10
  4.39367   -160.8 1.178e+04 8.474e-10
  4.41391   -161.1 1.080e+04 5.707e-10
  4.42950   -161.3 1.043e+04 4.572e-10
  4.44017   -161.4 1.047e+04 4.810e-10
  4.45660   -160.9 1.008e+04 4.192e-10
  4.47599   -160.1 9.836e+03 3.904e-10
  4.48666   -160.3 9.868e+03 4.326e-10
  4.49928   -159.5 9.800e+03 4.114e-10
  4.52259   -159.2 9.812e+03 4.037e-10
  4.54393   -158.9 9.824e+03 4.470e-10
  4.55599   -158.6 9.914e+03 4.408e-10
  4.56666   -156.6 9.888e+03 4.292e-10
  4.57966   -156.2 9.938e+03 4.311e-10
  4.59033   -156.2 9.927e+03 4.475e-10
  4.61558   -156.0 9.956e+03 4.286e-10
  4.63702   -156.1 1.001e+04 4.186e-10
  4.65954   -156.5 9.914e+03 3.706e-10
  4.70223   -157.5 9.692e+03 3.126e-10
  4.73001   -158.5 9.490e+03 2.718e-10
  4.75136   -159.9 9.852e+03 3.122e-10
  4.78760   -161.0 9.912e+03 3.119e-10
  4.81951   -161.0 9.901e+03 3.409e-10
  4.83348   -161.3 9.992e+03 3.686e-10
  4.84415   -162.6 1.042e+04 5.167e-10
  4.86210   -162.7 1.049e+04 5.664e-10
  4.87998   -162.6 1.059e+04 6.201e-10
  4.89065   -163.4 1.100e+04 8.394e-10
  4.90478   -163.1 1.113e+04 9.035e-10
  4.91722   -162.8 1.128e+04 9.750e-10
  4.92789   -161.8 1.105e+04 8.274e-10
  4.93715   -161.6 1.122e+04 9.048e-10
  4.94782   -162.1 1.163e+04 1.150e-09
  4.96881   -161.8 1.179e+04 1.251e-09
  4.98364   -161.5 1.197e+04 1.381e-09
  4.99431   -161.9 1.210e+04 1.422e-09
  5.01149   -161.5 1.237e+04 1.610e-09
  5.03014   -161.1 1.264e+04 1.818e-09
  5.04081   -161.1 1.243e+04 1.688e-09
  5.05418   -160.7 1.256e+04 1.805e-09
  5.07552   -161.0 1.306e+04 2.057e-09
  5.08731   -163.4 1.616e+04 2.586e-09
  5.09365   -171.5 2.138e+04 5.215e-09
  5.10321   -169.0 2.033e+04 4.955e-09
  5.11821   -172.1 2.156e+04 9.206e-09
  5.13380   -173.7 2.121e+04 1.523e-08
  5.14447   -174.7 1.947e+04 1.675e-08
  5.16089   -174.4 1.932e+04 1.871e-08
  5.18030   -173.9 1.923e+04 1.915e-08
  5.19097   -173.7 1.784e+04 8.986e-09
  5.20357   -173.4 1.804e+04 6.110e-09
  5.22492   -174.2 1.818e+04 3.639e-09
  5.23747   -177.0 1.772e+04 1.922e-09
  5.24814   -185.3 1.178e+04 4.671e-10
  5.26760   -186.7 1.019e+04 3.860e-10
  5.27854   -186.9 9.916e+03 3.732e-10
  5.28423   -186.5 9.932e+03 4.005e-10
  5.29463   -186.3 9.681e+03 3.246e-10
  5.31029   -185.8 9.767e+03 3.446e-10
  5.33046   -185.3 9.857e+03 3.688e-10
  5.35190   -185.8 9.642e+03 2.924e-10
  5.38518   -184.7 9.654e+03 3.042e-10
  5.42365   -183.6 9.653e+03 3.064e-10
  5.44499   -184.0 8.983e+03 1.730e-10
  5.47055   -182.8 8.996e+03 1.769e-10
  5.51323   -181.5 9.001e+03 1.788e-10
  5.53798   -180.0 9.016e+03 1.801e-10
  5.55932   -180.0 8.748e+03 1.388e-10
  5.59860   -178.6 8.888e+03 1.618e-10
  5.62938   -177.2 9.064e+03 1.969e-10
  5.64041   -177.3 8.978e+03 1.495e-10
  5.65232   -177.7 9.041e+03 1.518e-10
  5.68397   -176.5 9.410e+03 2.225e-10
  5.72397   -175.3 9.820e+03 3.111e-10
  5.74531   -176.3 1.000e+04 3.354e-10
  5.76934   -175.6 1.033e+04 4.257e-10
  5.81202   -175.1 1.052e+04 4.777e-10
  5.83830   -174.8 1.056e+04 4.902e-10
  5.85964   -176.6 1.037e+04 4.222e-10
  5.89739   -176.4 1.034e+04 4.078e-10
  5.93130   -176.3 1.032e+04 3.713e-10
  5.95264   -178.2 1.018e+04 2.659e-10
  5.98003   -178.4 1.020e+04 2.602e-10
  6.00137   -180.0 1.056e+04 4.250e-10
  6.02429   -180.0 1.053e+04 4.278e-10
  6.04563   -181.6 1.045e+04 4.354e-10
  6.06813   -181.3 1.048e+04 4.533e-10
  6.11081   -181.0 1.048e+04 4.557e-10
  6.13862   -180.6 1.047e+04 4.549e-10
  6.15997   -181.9 1.046e+04 4.408e-10
  6.19618   -181.3 1.046e+04 4.393e-10
  6.23162   -180.7 1.048e+04 4.476e-10
  6.25296   -181.9 1.037e+04 4.197e-10
  6.28155   -180.9 1.036e+04 4.323e-10
  6.32424   -179.8 1.038e+04 4.490e-10
  6.34595   -178.6 1.039e+04 4.660e-10
  6.35239   -179.0 1.021e+04 4.263e-10
  6.37337   -180.8 1.009e+04 4.616e-10
  6.40961   -179.0 1.005e+04 4.520e-10
  6.43894   -177.4 1.004e+04 4.330e-10
  6.46029   -177.0 1.001e+04 4.393e-10
  6.48421   -175.5 1.005e+04 4.686e-10
  6.49592   -174.6 1.011e+04 4.715e-10
  6.50659   -174.4 1.023e+04 5.139e-10
  6.52679   -173.5 1.032e+04 5.289e-10
  6.53782   -172.8 1.035e+04 5.301e-10
  6.54277   -173.7 1.018e+04 4.200e-10
  6.55308   -173.5 1.037e+04 4.744e-10
  6.56948   -172.9 1.038e+04 4.733e-10
  6.58891   -172.1 1.037e+04 4.610e-10
  6.59958   -171.9 1.056e+04 5.237e-10
  6.61216   -171.1 1.049e+04 4.905e-10
  6.63350   -170.2 1.042e+04 4.664e-10
  6.64608   -169.3 1.035e+04 4.423e-10
  6.65675   -169.2 1.048e+04 4.927e-10
  6.67619   -168.3 1.039e+04 4.618e-10
  6.69257   -167.3 1.031e+04 4.393e-10
  6.70324   -167.2 1.038e+04 4.656e-10
  6.71315   -166.3 1.031e+04 4.508e-10
  6.72392   -167.9 9.892e+03 3.237e-10
  6.73926   -165.9 9.855e+03 3.173e-10
  6.74984   -165.9 9.959e+03 3.602e-10
  6.76156   -164.9 9.951e+03 3.563e-10
  6.78290   -163.8 9.951e+03 3.550e-10
  6.79624   -162.8 9.953e+03 3.548e-10
  6.80691   -162.7 9.970e+03 3.722e-10
  6.82558   -161.8 9.973e+03 3.716e-10
  6.84273   -160.9 1.002e+04 3.761e-10
  6.85340   -160.7 1.008e+04 3.958e-10
  6.86827   -159.8 1.016e+04 4.002e-10
  6.88847   -158.9 1.024e+04 4.240e-10
  6.89876   -159.7 1.003e+04 2.961e-10
  6.89990   -159.6 1.000e+04 2.959e-10
  6.91095   -158.8 1.013e+04 3.134e-10
  6.93230   -158.2 1.022e+04 3.341e-10
  6.94640   -157.4 1.035e+04 3.651e-10
  6.95707   -157.2 1.037e+04 3.773e-10
  6.97498   -156.4 1.048e+04 4.018e-10
  6.99289   -155.7 1.057e+04 4.250e-10
  7.00356   -155.5 1.049e+04 4.226e-10
  7.01766   -154.8 1.059e+04 4.382e-10
  7.03901   -154.2 1.069e+04 4.559e-10
  7.05006   -153.9 1.079e+04 4.740e-10
  7.06073   -154.1 1.062e+04 4.288e-10
  7.07447   -154.2 1.072e+04 4.311e-10
  7.08514   -154.9 1.054e+04 3.833e-10
  7.09656   -155.4 1.087e+04 3.969e-10
  7.10723   -155.3 1.085e+04 4.092e-10
  7.12438   -156.8 1.149e+04 4.791e-10
  7.14305   -158.4 1.214e+04 5.905e-10
  7.15372   -159.4 1.376e+04 9.573e-10
  7.16706   -160.9 1.420e+04 1.344e-09
  7.18840   -162.0 1.442e+04 1.807e-09
  7.20022   -162.7 1.449e+04 2.223e-09
  7.21089   -163.0 1.514e+04 3.087e-09
  7.23109   -163.3 1.464e+04 3.119e-09
  7.24672   -163.5 1.418e+04 2.775e-09
  7.25475   -163.6 1.441e+04 2.942e-09
  7.26047   -163.5 1.399e+04 3.006e-09
  7.27377   -163.2 1.370e+04 2.512e-09
  7.29321   -163.2 1.337e+04 1.951e-09
  7.30388   -163.8 1.342e+04 1.795e-09
  7.31646   -164.3 1.285e+04 1.268e-09
  7.33780   -165.0 1.216e+04 9.238e-10
  7.35038   -165.5 1.150e+04 7.221e-10
  7.36105   -166.7 1.130e+04 7.008e-10
  7.38048   -166.5 1.097e+04 6.128e-10
  7.39688   -166.0 1.080e+04 5.627e-10
  7.40755   -166.5 1.088e+04 6.279e-10
  7.42317   -165.9 1.087e+04 6.027e-10
  7.43579   -165.3 1.089e+04 5.838e-10
  7.44533   -164.9 1.071e+04 5.711e-10
  7.45404   -165.4 1.097e+04 6.767e-10
  7.46585   -165.0 1.103e+04 6.710e-10
  7.48719   -164.5 1.109e+04 6.683e-10
  7.50054   -164.1 1.116e+04 6.713e-10
  7.51121   -164.6 1.146e+04 8.339e-10
  7.52988   -164.1 1.153e+04 8.534e-10
  7.54704   -163.6 1.157e+04 8.818e-10
  7.55771   -164.2 1.198e+04 1.090e-09
  7.57256   -163.6 1.201e+04 1.119e-09
  7.59353   -163.1 1.202e+04 1.156e-09
  7.60420   -163.6 1.237e+04 1.337e-09
  7.61111   -163.0 1.236e+04 1.366e-09
  7.62179   -162.8 1.232e+04 1.354e-09
  7.63659   -162.3 1.225e+04 1.347e-09
  7.65070   -161.8 1.221e+04 1.352e-09
  7.66137   -162.2 1.232e+04 1.408e-09
  7.67927   -161.6 1.222e+04 1.364e-09
  7.69720   -161.1 1.212e+04 1.310e-09
  7.70787   -161.5 1.195e+04 1.204e-09
  7.72196   -161.0 1.176e+04 1.095e-09
  7.74330   -160.5 1.155e+04 9.871e-10
  7.75437   -160.1 1.134e+04 8.942e-10
  7.76504   -160.2 1.106e+04 7.727e-10
  7.78598   -159.6 1.086e+04 7.061e-10
  7.79711   -159.0 1.073e+04 6.708e-10
  7.80132   -158.8 1.087e+04 7.446e-10
  7.81153   -158.7 1.060e+04 6.691e-10
  7.82867   -158.0 1.041e+04 6.007e-10
  7.84736   -157.2 1.029e+04 5.700e-10
  7.85803   -156.8 1.013e+04 5.264e-10
  7.87135   -156.0 1.009e+04 5.168e-10
  7.89270   -155.2 1.008e+04 5.176e-10
  7.90453   -154.3 1.012e+04 5.384e-10
  7.91520   -154.1 9.989e+03 5.014e-10
  7.93538   -153.3 1.002e+04 5.159e-10
  7.95102   -152.6 1.006e+04 5.297e-10
  7.96169   -152.7 9.854e+03 4.921e-10
  7.97244   -152.9 1.009e+04 5.220e-10
  7.98311   -153.2 9.880e+03 4.850e-10
  7.99752   -154.3 1.022e+04 5.173e-10
  8.00819   -158.6 1.158e+04 5.937e-10
  8.02075   -165.9 1.576e+04 1.647e-09
  8.04209   -171.0 1.835e+04 5.632e-09
  8.05469   -174.0 2.001e+04 1.423e-08
  8.06536   -174.5 1.972e+04 1.469e-08
  8.07788   -175.8 2.061e+04 2.100e-08
  8.08317   -176.1 2.026e+04 1.745e-08
  8.09001   -177.3 2.043e+04 1.794e-08
  8.10069   -178.8 2.059e+04 1.654e-08
  8.10642   -180.1 2.072e+04 1.479e-08
  8.11180   -180.6 1.994e+04 1.007e-08
  8.12746   -184.5 1.891e+04 6.256e-09
  8.14768   -188.7 1.661e+04 3.656e-09
  8.15835   -187.3 1.632e+04 3.211e-09
  8.17014   -190.3 1.405e+04 2.177e-09
  8.19149   -191.4 1.276e+04 1.699e-09
  8.20485   -191.6 1.212e+04 1.427e-09
  8.21552   -191.6 1.164e+04 1.078e-09
  8.23417   -191.4 1.140e+04 9.770e-10
  8.25134   -190.8 1.112e+04 8.275e-10
  8.26201   -190.7 1.106e+04 7.224e-10
  8.27686   -190.4 1.078e+04 6.137e-10
  8.29784   -190.2 1.055e+04 5.365e-10
  8.30851   -190.1 1.051e+04 5.132e-10
  8.31954   -190.0 1.042e+04 4.935e-10
  8.33376   -189.7 1.040e+04 4.903e-10
  8.34443   -188.9 1.042e+04 5.092e-10
  8.35501   -188.9 1.048e+04 5.153e-10
  8.36568   -189.1 1.058e+04 5.419e-10
  8.38357   -189.1 1.077e+04 6.245e-10
  8.40150   -189.1 1.094e+04 7.307e-10
  8.41217   -189.2 1.099e+04 7.711e-10
  8.42625   -189.0 1.112e+04 8.564e-10
  8.44759   -188.9 1.120e+04 9.195e-10
  8.45867   -188.8 1.121e+04 9.362e-10
  8.46934   -189.0 1.108e+04 8.129e-10
  8.49028   -189.1 1.104e+04 7.464e-10
  8.50517   -189.3 1.096e+04 6.538e-10
  8.51330   -190.0 1.086e+04 4.817e-10
  8.51975   -189.3 1.101e+04 8.304e-10
  8.53296   -189.7 1.086e+04 7.079e-10
  8.55166   -190.4 1.069e+04 5.946e-10
  8.56233   -192.0 1.049e+04 4.808e-10
  8.57565   -193.2 1.034e+04 4.206e-10
  8.59699   -194.4 1.019e+04 3.780e-10
  8.60883   -195.6 1.005e+04 3.482e-10
  8.61950   -196.9 1.002e+04 3.416e-10
  8.63967   -197.2 9.933e+03 3.288e-10
  8.65542   -197.1 9.933e+03 3.207e-10
  8.67686   -199.3 9.887e+03 3.341e-10
  8.71457   -200.6 9.560e+03 2.871e-10
  8.74851   -201.5 9.219e+03 2.435e-10
  8.76986   -202.8 9.046e+03 2.302e-10
  8.79994   -203.0 8.865e+03 2.034e-10
  8.84151   -203.1 8.826e+03 1.974e-10
  8.86285   -203.8 8.814e+03 1.961e-10
  8.87060   -203.7 8.823e+03 1.961e-10
  8.89194   -204.9 8.973e+03 2.247e-10
  8.92799   -204.9 8.985e+03 2.270e-10
  8.95584   -204.9 9.019e+03 2.335e-10
  8.97718   -206.1 9.530e+03 3.253e-10
  9.01336   -206.0 9.522e+03 3.403e-10
  9.04884   -205.7 9.478e+03 3.442e-10
  9.07018   -206.8 9.781e+03 4.451e-10
  9.09873   -206.5 9.547e+03 3.900e-10
  9.14141   -206.2 9.345e+03 3.404e-10
  9.16317   -205.8 9.214e+03 3.077e-10
  9.18451   -206.7 9.140e+03 2.885e-10
  9.22125   -206.4 9.063e+03 2.696e-10
  9.24259   -207.0 8.857e+03 2.394e-10
  9.25616   -206.6 8.842e+03 2.371e-10
  9.27751   -207.5 8.812e+03 2.315e-10
  9.31215   -207.1 8.822e+03 2.332e-10
  9.34916   -206.7 8.932e+03 2.513e-10
  9.37050   -207.6 8.898e+03 2.474e-10
  9.39752   -207.2 8.962e+03 2.618e-10
  9.44020   -206.6 9.002e+03 2.721e-10
  9.46349   -205.9 9.052e+03 2.810e-10
  9.48483   -206.6 8.944e+03 2.636e-10
  9.52557   -205.8 8.983e+03 2.661e-10
  9.55648   -204.9 9.048e+03 2.701e-10
  9.57783   -205.3 9.050e+03 2.691e-10
  9.59324   -204.6 9.160e+03 2.760e-10
  9.61458   -206.8 9.344e+03 2.904e-10
  9.64948   -207.2 9.628e+03 3.392e-10
  9.67082   -209.1 9.732e+03 3.674e-10
  9.68554   -208.8 9.526e+03 3.692e-10
  9.70645   -213.3 1.152e+04 7.352e-10
  9.71712   -214.8 1.185e+04 8.383e-10
  9.72813   -219.1 1.518e+04 2.173e-09
  9.74947   -223.4 1.902e+04 6.673e-09
  9.76362   -227.9 2.105e+04 1.489e-08
  9.77184   -230.6 2.117e+04 1.558e-08
  9.77904   -232.1 2.011e+04 1.339e-08
  9.79215   -237.8 2.039e+04 1.472e-08
  9.81011   -244.4 2.031e+04 1.367e-08
  9.82078   -248.6 2.036e+04 1.327e-08
  9.83484   -256.9 1.908e+04 7.368e-09
  9.85080   -264.4 1.744e+04 4.214e-09
  9.86127   -267.4 1.606e+04 2.918e-09
  9.86660   -267.2 1.600e+04 2.870e-09
  9.86723   -269.8 1.479e+04 2.103e-09
  9.87795   -273.8 1.544e+04 2.788e-09
  9.89887   -275.8 1.384e+04 1.869e-09
  9.91378   -276.7 1.244e+04 1.233e-09
  9.92445   -278.7 1.393e+04 2.296e-09
  9.94155   -279.4 1.314e+04 1.579e-09
  9.95436   -280.2 1.279e+04 1.210e-09
  9.96241   -279.6 1.282e+04 1.200e-09
  9.97094   -282.2 1.401e+04 2.075e-09
  9.98424   -283.1 1.367e+04 1.705e-09
 10.00558   -283.7 1.340e+04 1.505e-09
 10.01744   -284.2 1.312e+04 1.391e-09
 10.02811   -286.1 1.360e+04 2.024e-09
 10.04826   -286.0 1.326e+04 1.807e-09
 10.06394   -285.7 1.300e+04 1.658e-09
 10.07461   -287.2 1.316e+04 1.900e-09
 10.09095   -286.8 1.287e+04 1.687e-09
 10.11043   -286.3 1.262e+04 1.529e-09
 10.12110   -287.7 1.262e+04 1.544e-09
 10.12969   -287.0 1.237e+04 1.402e-09
 10.14036   -286.6 1.252e+04 1.498e-09
 10.15497   -285.8 1.224e+04 1.330e-09
 10.16760   -285.0 1.194e+04 1.169e-09
 10.17827   -286.1 1.172e+04 1.103e-09
 10.19766   -285.1 1.145e+04 9.724e-10
 10.21410   -284.2 1.121e+04 8.649e-10
 10.22477   -285.1 1.107e+04 8.076e-10
 10.24034   -284.2 1.091e+04 7.392e-10
 10.26059   -283.3 1.077e+04 6.879e-10
 10.27126   -284.1 1.075e+04 6.825e-10
 10.28303   -283.1 1.067e+04 6.516e-10
 10.30437   -282.2 1.062e+04 6.319e-10
 10.31568   -281.3 1.058e+04 6.207e-10
 10.31841   -280.8 1.040e+04 5.606e-10
 10.32843   -281.6 1.041e+04 5.834e-10
 10.34705   -280.6 1.040e+04 5.889e-10
 10.36426   -279.7 1.040e+04 6.014e-10
 10.37493   -280.2 1.043e+04 6.466e-10
 10.38974   -279.2 1.046e+04 6.684e-10
 10.41075   -278.2 1.048e+04 6.811e-10
 10.42142   -278.5 1.048e+04 7.074e-10
 10.43242   -277.5 1.048e+04 7.111e-10
 10.45376   -276.5 1.045e+04 7.065e-10
 10.46792   -275.5 1.035e+04 6.724e-10
 10.47859   -275.7 1.033e+04 6.798e-10
 10.49101   -274.6 1.019e+04 6.210e-10
 10.50168   -274.3 1.030e+04 6.937e-10
 10.51442   -273.0 1.015e+04 6.188e-10
 10.52509   -273.1 1.008e+04 6.211e-10
 10.53913   -271.7 9.926e+03 5.220e-10
 10.56048   -270.1 9.759e+03 4.327e-10
 10.57168   -269.0 9.651e+03 3.680e-10
 10.59312   -269.2 9.638e+03 3.923e-10
 10.63537   -267.5 9.485e+03 3.316e-10
 10.66477   -265.6 9.401e+03 2.923e-10
 10.67459   -265.6 9.615e+03 3.533e-10
 10.68787   -265.8 9.624e+03 4.379e-10
 10.72074   -264.8 9.630e+03 4.388e-10
 10.75777   -264.5 9.845e+03 4.829e-10
 10.77911   -265.2 1.043e+04 6.705e-10
 10.80611   -265.9 1.153e+04 9.803e-10
 10.83802   -266.8 1.261e+04 1.444e-09
 10.85233   -267.3 1.305e+04 1.707e-09
 10.86300   -267.5 1.192e+04 1.207e-09
 10.87191   -268.9 1.206e+04 1.271e-09
 10.88258   -269.7 1.153e+04 1.038e-09
 10.90195   -271.9 1.155e+04 1.034e-09
 10.91840   -274.3 1.142e+04 1.016e-09
 10.92907   -275.0 1.097e+04 8.323e-10
 10.94464   -276.9 1.086e+04 8.221e-10
 10.96490   -278.5 1.073e+04 8.141e-10
 10.97557   -279.0 1.046e+04 7.004e-10
 10.98732   -280.0 1.043e+04 6.995e-10
 11.00866   -280.7 1.042e+04 7.001e-10
 11.02207   -281.3 1.040e+04 7.136e-10
 11.03039   -281.4 1.019e+04 6.149e-10
 11.03833   -281.3 1.010e+04 5.863e-10
 11.05135   -281.8 1.019e+04 6.191e-10
 11.06856   -282.2 1.031e+04 6.640e-10
 11.07923   -282.2 1.015e+04 5.720e-10
 11.09403   -282.6 1.034e+04 6.351e-10
 11.11506   -283.1 1.054e+04 7.029e-10
 11.12573   -283.1 1.052e+04 6.613e-10
 11.13672   -283.6 1.074e+04 7.487e-10
 11.15806   -284.4 1.090e+04 7.925e-10
 11.17223   -285.3 1.097e+04 8.033e-10
 11.18290   -285.6 1.132e+04 9.641e-10
 11.20074   -286.6 1.149e+04 9.975e-10
 11.21365   -287.7 1.160e+04 1.001e-09
 11.22096   -288.9 1.194e+04 1.157e-09
 11.22939   -289.3 1.256e+04 1.568e-09
 11.24343   -290.4 1.259e+04 1.574e-09
 11.26477   -291.5 1.261e+04 1.570e-09
 11.27589   -292.6 1.273e+04 1.574e-09
 11.28656   -292.8 1.291e+04 1.866e-09
 11.30745   -293.7 1.304e+04 1.869e-09
 11.32239   -294.7 1.356e+04 2.124e-09
 11.33306   -294.7 1.331e+04 2.052e-09
 11.35014   -295.6 1.383e+04 2.410e-09
 11.36888   -296.5 1.431e+04 2.855e-09
 11.37955   -296.4 1.360e+04 2.079e-09
 11.38898   -297.3 1.392e+04 2.344e-09
 11.39965   -298.4 1.406e+04 2.397e-09
 11.41416   -299.3 1.437e+04 2.757e-09
 11.42605   -300.1 1.451e+04 3.072e-09
 11.43672   -299.5 1.371e+04 1.984e-09
 11.45685   -300.1 1.393e+04 2.388e-09
 11.47255   -300.3 1.410e+04 2.767e-09
 11.48322   -299.6 1.344e+04 1.908e-09
 11.49953   -299.7 1.373e+04 2.433e-09
 11.51904   -299.5 1.397e+04 2.808e-09
 11.52971   -298.6 1.355e+04 2.182e-09
 11.54222   -298.3 1.384e+04 2.697e-09
 11.56356   -298.0 1.401e+04 2.875e-09
 11.57497   -297.7 1.402e+04 2.873e-09
 11.57695   -298.2 1.431e+04 3.330e-09
 11.58688   -297.2 1.428e+04 3.364e-09
 11.60624   -296.7 1.431e+04 3.377e-09
 11.62271   -296.4 1.421e+04 3.118e-09
 11.63338   -295.4 1.427e+04 3.332e-09
 11.64893   -295.4 1.433e+04 3.169e-09
 11.66920   -295.5 1.429e+04 2.886e-09
 11.67987   -294.5 1.447e+04 3.299e-09
 11.69161   -294.8 1.463e+04 3.187e-09
 11.71296   -295.1 1.448e+04 2.763e-09
 11.72637   -295.4 1.423e+04 2.210e-09
 11.73704   -294.5 1.489e+04 3.381e-09
 11.75030   -294.6 1.466e+04 2.883e-09
 11.76097   -295.4 1.556e+04 3.944e-09
 11.77287   -295.3 1.496e+04 2.733e-09
 11.78354   -294.3 1.589e+04 4.950e-09
 11.79833   -294.1 1.525e+04 3.314e-09
 11.81936   -294.1 1.430e+04 2.091e-09
 11.83003   -292.9 1.536e+04 3.600e-09
 11.84101   -292.9 1.431e+04 2.220e-09
 11.86235   -293.0 1.329e+04 1.461e-09
 11.87653   -293.1 1.249e+04 1.107e-09
 11.88720   -292.2 1.326e+04 1.471e-09
 11.90504   -292.3 1.256e+04 1.161e-09
 11.92303   -292.2 1.229e+04 1.078e-09
 11.93294   -291.6 1.269e+04 1.255e-09
 11.93629   -292.6 1.226e+04 9.604e-10
 11.94772   -292.5 1.195e+04 8.840e-10
 11.96906   -292.1 1.184e+04 8.623e-10
 11.98019   -291.7 1.181e+04 8.579e-10
 11.99087   -291.2 1.187e+04 8.798e-10
 12.01175   -290.6 1.182e+04 8.489e-10
 12.02669   -290.2 1.183e+04 8.405e-10
 12.03736   -289.8 1.196e+04 8.534e-10
 12.05443   -289.6 1.197e+04 8.372e-10
 12.07319   -289.5 1.198e+04 8.351e-10
 12.08386   -289.3 1.229e+04 9.097e-10
 12.09712   -289.4 1.234e+04 9.130e-10
 12.11162   -290.5 1.308e+04 1.057e-09
 12.12229   -290.7 1.236e+04 7.674e-10
 12.13035   -292.1 1.319e+04 1.163e-09
 12.14103   -291.3 1.312e+04 1.095e-09
 12.16114   -292.6 1.387e+04 1.736e-09
 12.17685   -293.7 1.440e+04 2.644e-09
 12.18752   -293.0 1.446e+04 2.533e-09
 12.20383   -294.0 1.483e+04 3.569e-09
 12.22335   -294.8 1.501e+04 4.152e-09
 12.23402   -294.0 1.514e+04 4.454e-09
 12.24651   -294.8 1.519e+04 4.787e-09
 12.26785   -295.4 1.509e+04 4.777e-09
 12.28052   -295.7 1.462e+04 3.891e-09
 12.28893   -294.9 1.500e+04 4.947e-09
 12.29761   -294.9 1.499e+04 4.543e-09
 12.31054   -295.2 1.450e+04 3.444e-09
 12.32701   -295.6 1.378e+04 2.126e-09
 12.33768   -294.5 1.428e+04 3.217e-09
 12.35322   -294.8 1.352e+04 1.866e-09
 12.37351   -295.5 1.258e+04 1.013e-09
 12.38418   -294.0 1.325e+04 1.617e-09
 12.39591   -294.6 1.235e+04 8.593e-10
 12.41725   -295.2 1.141e+04 5.018e-10
 12.43068   -295.5 1.077e+04 3.712e-10
 12.44135   -294.2 1.133e+04 4.408e-10
 12.45993   -294.5 1.076e+04 3.444e-10
 12.47294   -294.4 1.056e+04 3.245e-10
 12.47950   -295.3 1.055e+04 3.494e-10
 12.48784   -294.2 1.066e+04 3.429e-10
 12.50262   -294.0 1.058e+04 3.367e-10
 12.52367   -293.7 1.057e+04 3.359e-10
 12.53434   -293.2 1.060e+04 3.372e-10
 12.55607   -293.3 1.058e+04 3.373e-10
 12.58103   -292.3 1.051e+04 3.496e-10
 12.60237   -290.8 1.081e+04 3.468e-10
 12.64154   -289.8 1.072e+04 3.778e-10
 12.67402   -289.0 1.066e+04 3.994e-10
 12.69537   -287.5 1.109e+04 4.701e-10
 12.72691   -287.0 1.100e+04 4.956e-10
 12.76702   -286.9 1.089e+04 4.997e-10
 12.78836   -285.7 1.160e+04 7.054e-10
 12.81228   -286.1 1.141e+04 6.943e-10
 12.83445   -286.5 1.100e+04 5.750e-10
 12.85580   -288.0 1.052e+04 3.906e-10
 12.88135   -288.2 1.004e+04 2.824e-10
 12.90269   -287.7 1.062e+04 3.946e-10
 12.94033   -288.0 9.985e+03 2.647e-10
 12.97434   -288.0 9.669e+03 1.961e-10
 12.99569   -288.1 9.922e+03 2.425e-10
 13.02570   -287.7 9.654e+03 1.836e-10
 13.06734   -287.2 9.508e+03 1.528e-10
 13.08868   -286.8 9.844e+03 2.045e-10
 13.11107   -286.3 9.729e+03 1.814e-10
 13.15375   -285.8 9.730e+03 1.713e-10
 13.18167   -285.4 9.759e+03 1.660e-10
 13.19168   -285.1 9.990e+03 2.082e-10
 13.20645   -285.9 9.893e+03 1.859e-10
 13.23912   -285.7 9.956e+03 1.793e-10
 13.27466   -285.5 1.001e+04 1.744e-10
 13.29601   -285.4 1.014e+04 2.114e-10
 13.32449   -285.1 1.019e+04 2.127e-10
 13.36717   -284.6 1.022e+04 2.160e-10
 13.38900   -283.9 1.021e+04 2.183e-10
 13.41034   -283.7 1.029e+04 2.568e-10
 13.45254   -282.7 1.020e+04 2.406e-10
 13.48199   -281.5 1.011e+04 2.211e-10
 13.50333   -281.1 1.006e+04 2.208e-10
 13.53575   -279.7 9.929e+03 1.999e-10
 13.55709   -279.9 9.948e+03 1.931e-10
 13.57499   -278.2 9.847e+03 1.814e-10
 13.59633   -277.6 9.667e+03 1.604e-10
 13.62328   -275.8 9.642e+03 1.548e-10
 13.66597   -273.9 9.641e+03 1.540e-10
 13.68932   -272.2 9.665e+03 1.553e-10
 13.71066   -271.6 9.519e+03 1.274e-10
 13.75133   -270.2 9.706e+03 1.388e-10
 13.78231   -269.2 1.028e+04 2.175e-10
 13.80366   -268.3 9.796e+03 1.173e-10
 13.83670   -267.7 1.020e+04 1.793e-10
 13.87531   -267.4 1.069e+04 3.166e-10
 13.89665   -266.6 1.007e+04 1.401e-10
 13.90774   -266.7 1.057e+04 2.679e-10
 13.92909   -267.4 1.077e+04 3.478e-10
 13.96476   -267.3 1.134e+04 6.104e-10
 13.98964   -267.4 1.187e+04 9.449e-10
 14.01098   -266.8 1.131e+04 6.137e-10
 14.05013   -267.0 1.177e+04 8.969e-10
 14.08263   -267.0 1.210e+04 1.122e-09
 14.10398   -266.4 1.174e+04 8.757e-10
 14.13550   -266.4 1.201e+04 1.003e-09
 14.17563   -266.4 1.208e+04 1.031e-09
 14.19697   -265.8 1.171e+04 8.208e-10
 14.22086   -265.5 1.171e+04 8.010e-10
 14.25839   -264.0 1.154e+04 6.532e-10
 14.27974   -264.7 1.150e+04 5.947e-10
 14.28986   -262.5 1.130e+04 4.599e-10
 14.31121   -262.7 1.109e+04 3.835e-10
 14.34892   -260.9 1.097e+04 3.061e-10
 14.38295   -259.3 1.087e+04 2.607e-10
 14.40430   -258.6 1.047e+04 1.921e-10
 14.43429   -256.7 1.041e+04 1.637e-10
 14.47595   -254.8 1.037e+04 1.468e-10
 14.49729   -254.0 1.016e+04 1.074e-10
 14.51966   -252.0 1.020e+04 1.027e-10
 14.56234   -249.9 1.021e+04 1.023e-10
 14.59028   -247.7 1.024e+04 1.030e-10
 14.61162   -246.8 1.011e+04 8.310e-11
 14.63039   -244.7 1.024e+04 8.782e-11
 14.65173   -244.6 1.022e+04 8.267e-11
 14.68327   -242.6 1.033e+04 9.016e-11
 14.70462   -241.6 1.025e+04 7.610e-11
 14.73308   -239.6 1.035e+04 8.347e-11
 14.77576   -237.8 1.045e+04 8.972e-11
 14.79761   -236.0 1.054e+04 9.360e-11
 14.81895   -235.0 1.049e+04 8.509e-11
 14.86113   -233.3 1.057e+04 8.792e-11
 14.89060   -231.5 1.063e+04 8.978e-11
 14.91194   -230.6 1.061e+04 8.855e-11
 14.94650   -228.9 1.069e+04 9.077e-11
 14.98104   -227.2 1.077e+04 9.363e-11
 14.99679   -227.2 1.078e+04 9.317e-11
 15.00494   -226.3 1.075e+04 9.479e-11
 15.03187   -224.6 1.082e+04 1.004e-10
 15.07455   -222.9 1.089e+04 1.053e-10
 15.09793   -221.4 1.098e+04 1.102e-10
 15.11927   -220.3 1.092e+04 1.120e-10
 15.15992   -218.9 1.100e+04 1.146e-10
 15.19092   -217.6 1.109e+04 1.210e-10
 15.21227   -216.3 1.105e+04 1.172e-10
 15.24529   -215.2 1.119e+04 1.272e-10
 15.28392   -214.3 1.133e+04 1.604e-10
 15.30526   -213.0 1.136e+04 1.482e-10
 15.33066   -212.4 1.149e+04 2.180e-10
 15.35303   -211.9 1.168e+04 3.321e-10
 15.37437   -212.2 1.172e+04 3.466e-10
 15.39825   -211.8 1.190e+04 4.556e-10
 15.41959   -210.6 1.203e+04 5.323e-10
 15.45871   -210.3 1.217e+04 6.371e-10
 15.49124   -210.2 1.221e+04 6.706e-10
 15.51259   -208.9 1.236e+04 7.726e-10
 15.54408   -208.8 1.234e+04 7.798e-10
 15.58424   -208.4 1.214e+04 7.039e-10
 15.60558   -207.1 1.228e+04 7.818e-10
 15.62945   -206.4 1.203e+04 6.482e-10
 15.67214   -205.7 1.181e+04 5.230e-10
 15.69857   -204.9 1.164e+04 4.237e-10
 15.70877   -203.7 1.179e+04 4.933e-10
 15.72502   -203.6 1.179e+04 5.063e-10
 15.75751   -202.8 1.166e+04 4.270e-10
 15.79156   -201.9 1.151e+04 3.512e-10
 15.81291   -201.0 1.161e+04 3.968e-10
 15.84287   -200.0 1.146e+04 3.351e-10
 15.88456   -198.9 1.131e+04 2.948e-10
 15.90590   -198.0 1.141e+04 3.312e-10
 15.92824   -196.9 1.135e+04 3.184e-10
 15.97093   -195.7 1.134e+04 3.179e-10
 15.99889   -194.6 1.137e+04 3.251e-10
 16.02023   -194.0 1.150e+04 3.748e-10
 16.05433   -193.3 1.159e+04 4.574e-10
 16.07567   -192.4 1.160e+04 3.863e-10
 16.09188   -191.7 1.174e+04 5.364e-10
 16.11323   -191.6 1.193e+04 6.664e-10
 16.14167   -191.1 1.210e+04 9.332e-10
 16.18435   -190.6 1.230e+04 1.176e-09
 16.20622   -190.2 1.241e+04 1.365e-09
 16.22756   -190.9 1.241e+04 1.356e-09
 16.26972   -190.7 1.232e+04 1.353e-09
 16.29921   -190.5 1.207e+04 1.190e-09
 16.32055   -191.2 1.198e+04 1.090e-09
 16.35509   -191.0 1.167e+04 9.061e-10
 16.39220   -190.5 1.130e+04 7.221e-10
 16.41355   -190.8 1.136e+04 7.907e-10
 16.42632   -189.8 1.103e+04 6.600e-10
 16.44766   -188.9 1.132e+04 7.890e-10
 16.48314   -187.6 1.095e+04 6.062e-10
 16.50654   -186.0 1.064e+04 4.741e-10
 16.52788   -185.6 1.082e+04 5.752e-10
 16.56851   -183.7 1.061e+04 4.883e-10
 16.59953   -181.5 1.045e+04 4.198e-10
 16.62087   -180.7 1.073e+04 5.669e-10
 16.65388   -178.4 1.065e+04 5.297e-10
 16.69253   -176.1 1.059e+04 4.903e-10
 16.71387   -174.9 1.103e+04 7.327e-10
 16.73925   -172.6 1.101e+04 7.145e-10
 16.77697   -170.4 1.098e+04 6.731e-10
 16.79831   -169.6 1.122e+04 8.103e-10
 16.80686   -167.5 1.118e+04 7.454e-10
 16.82820   -166.4 1.189e+04 1.248e-09
 16.86730   -164.5 1.191e+04 1.243e-09
 16.89985   -163.1 1.197e+04 1.209e-09
 16.92120   -162.0 1.280e+04 1.995e-09
 16.95267   -161.3 1.283e+04 2.020e-09
 16.98459   -160.1 1.310e+04 2.417e-09
 17.00332   -161.4 1.347e+04 2.562e-09
 17.01399   -162.2 1.561e+04 4.437e-09
 17.02717   -167.1 1.826e+04 7.664e-09
 17.04852   -172.0 2.007e+04 1.492e-08
 17.06049   -176.1 2.075e+04 2.329e-08
 17.06236   -177.7 2.198e+04 4.071e-08
 17.06634   -176.4 2.194e+04 4.247e-08
 17.07510   -178.7 2.202e+04 4.485e-08
 17.08364   -180.7 2.186e+04 4.412e-08
 17.08898   -182.1 2.201e+04 6.328e-08
 17.09644   -183.2 2.133e+04 4.359e-08
 17.10689   -184.1 2.052e+04 2.793e-08
 17.11222   -186.1 2.049e+04 2.869e-08
 17.11778   -187.4 1.930e+04 1.735e-08
 17.12845   -188.9 1.789e+04 1.085e-08
 17.13547   -190.4 1.651e+04 7.274e-09
 17.14081   -191.9 1.603e+04 6.624e-09
 17.14872   -192.2 1.522e+04 5.137e-09
 17.15769   -192.1 1.519e+04 4.778e-09
 17.16415   -195.0 1.458e+04 4.581e-09
 17.17657   -195.0 1.344e+04 3.015e-09
 17.19791   -194.1 1.196e+04 1.815e-09
 17.21065   -193.3 1.111e+04 1.287e-09
 17.22132   -193.6 1.122e+04 1.306e-09
 17.24060   -192.6 1.094e+04 1.089e-09
 17.25715   -191.3 1.076e+04 9.637e-10
 17.26782   -191.5 1.080e+04 8.717e-10
 17.28328   -190.0 1.058e+04 7.495e-10
 17.30364   -188.5 1.043e+04 6.469e-10
 17.31431   -188.6 1.046e+04 5.441e-10
 17.32409   -187.3 1.036e+04 4.861e-10
 17.33476   -187.2 1.042e+04 5.491e-10
 17.34731   -186.3 1.035e+04 4.891e-10
 17.37942   -185.7 1.029e+04 4.361e-10
 17.40750   -184.2 1.010e+04 3.709e-10
 17.42884   -184.5 1.004e+04 3.351e-10
 17.46488   -182.9 9.777e+03 2.765e-10
 17.49961   -181.4 9.546e+03 2.206e-10
 17.51388   -180.9 9.704e+03 2.484e-10
 17.52184   -180.7 9.704e+03 2.446e-10
 17.55025   -179.2 9.405e+03 1.750e-10
 17.59294   -177.7 9.239e+03 1.325e-10
 17.61483   -176.3 9.165e+03 1.082e-10
 17.63617   -175.9 9.220e+03 1.119e-10
 17.67831   -174.5 9.172e+03 9.727e-11
 17.70782   -173.1 9.167e+03 9.425e-11
 17.72916   -172.7 9.235e+03 9.762e-11
 17.76368   -171.3 9.217e+03 9.370e-11
 17.80081   -170.0 9.308e+03 9.529e-11
 17.82216   -169.6 9.417e+03 1.029e-10
 17.84904   -168.4 9.422e+03 1.019e-10
 17.87160   -167.3 9.536e+03 1.130e-10
 17.89294   -167.0 9.620e+03 1.225e-10
 17.91515   -165.9 9.691e+03 1.408e-10
 17.93649   -165.5 9.747e+03 1.389e-10
 17.97710   -164.5 9.768e+03 1.556e-10
 18.00814   -163.5 9.847e+03 1.691e-10
 18.02948   -163.5 1.017e+04 1.813e-10
 18.06247   -162.9 1.028e+04 2.162e-10
 18.10114   -162.3 1.039e+04 2.612e-10
 18.12248   -162.5 1.056e+04 3.637e-10
 18.14784   -162.0 1.067e+04 4.355e-10
 18.19052   -161.6 1.074e+04 4.895e-10
 18.21547   -161.3 1.075e+04 5.094e-10
 18.22586   -161.6 1.088e+04 6.141e-10
 18.24359   -162.1 1.099e+04 6.811e-10
 18.27589   -161.8 1.095e+04 6.805e-10
 18.30846   -161.3 1.071e+04 6.074e-10
 18.32981   -161.3 1.083e+04 6.924e-10
 18.36126   -160.5 1.066e+04 5.946e-10
 18.40146   -159.7 1.047e+04 4.786e-10
 18.42280   -159.8 1.074e+04 6.273e-10
 18.44663   -159.0 1.058e+04 5.342e-10
 18.48931   -158.0 1.037e+04 4.276e-10
 18.51579   -156.8 1.014e+04 3.284e-10
 18.53713   -157.1 1.044e+04 4.777e-10
 18.57290   -155.7 1.019e+04 3.658e-10
 18.59424   -156.3 1.055e+04 6.031e-10
 18.60878   -154.7 1.023e+04 4.538e-10
 18.63013   -154.9 1.028e+04 5.091e-10
 18.66005   -153.1 9.985e+03 3.763e-10
 18.70178   -151.2 9.781e+03 2.911e-10
 18.72312   -151.1 9.717e+03 2.932e-10
 18.74542   -149.1 9.603e+03 2.467e-10
 18.78810   -147.0 9.565e+03 2.275e-10
 18.81611   -144.9 9.566e+03 2.235e-10
 18.83745   -144.8 9.565e+03 2.281e-10
 18.87347   -143.0 9.775e+03 2.537e-10
 18.90910   -141.4 1.000e+04 3.165e-10
 18.93045   -141.8 1.013e+04 3.798e-10
 18.94489   -140.4 1.042e+04 5.040e-10
 18.96623   -140.2 1.038e+04 4.799e-10
 19.00153   -138.8 1.072e+04 6.632e-10
 19.02344   -137.6 1.095e+04 8.104e-10
 19.04478   -138.3 1.094e+04 8.245e-10
 19.08689   -137.3 1.095e+04 8.503e-10
 19.11643   -136.1 1.078e+04 7.474e-10
 19.13777   -136.6 1.054e+04 5.479e-10
 19.17226   -135.4 1.034e+04 3.683e-10
 19.20942   -134.5 1.020e+04 2.385e-10
 19.23077   -135.7 1.027e+04 2.047e-10
 19.25763   -135.2 1.010e+04 1.527e-10
 19.29554   -134.9 9.992e+03 1.361e-10
 19.31688   -134.9 1.058e+04 2.637e-10
 19.32376   -135.1 1.053e+04 2.501e-10
 19.34510   -136.5 1.061e+04 3.150e-10
 19.38569   -136.4 1.059e+04 3.729e-10
 19.41675   -136.2 1.058e+04 4.538e-10
 19.43809   -136.5 1.051e+04 4.847e-10
 19.47105   -136.2 1.044e+04 5.042e-10
 19.50975   -135.7 1.027e+04 4.906e-10
 19.53109   -135.5 1.012e+04 4.382e-10
 19.55642   -134.8 9.902e+03 3.711e-10
 19.59911   -134.0 9.674e+03 3.050e-10
 19.62408   -133.0 9.454e+03 2.535e-10
 19.64542   -132.5 9.404e+03 2.225e-10
 19.66753   -131.2 9.289e+03 2.003e-10
 19.68888   -131.6 9.283e+03 1.973e-10
 19.71707   -130.2 9.216e+03 1.866e-10
 19.73842   -129.6 9.302e+03 1.937e-10
 19.76985   -128.3 9.335e+03 2.005e-10
 19.81007   -127.2 9.376e+03 2.086e-10
 19.83141   -126.7 9.527e+03 2.476e-10
 19.85521   -125.8 9.535e+03 2.556e-10
 19.89790   -124.9 9.504e+03 2.555e-10
 19.92440   -124.0 9.453e+03 2.401e-10
 19.94574   -123.5 9.581e+03 2.910e-10
 19.98327   -122.5 9.500e+03 2.626e-10
 20.01739   -121.6 9.415e+03 2.281e-10
 20.03097   -121.0 9.494e+03 2.643e-10
 20.03953   -121.3 9.625e+03 3.252e-10
 20.06864   -120.2 9.453e+03 2.630e-10
 20.11039   -119.0 9.270e+03 2.077e-10
 20.13173   -118.4 9.293e+03 2.085e-10
 20.15401   -117.1 9.132e+03 1.707e-10
 20.19669   -115.9 9.025e+03 1.521e-10
 20.22472   -114.6 8.981e+03 1.469e-10
 20.24606   -113.8 8.986e+03 1.411e-10
 20.28206   -112.5 8.975e+03 1.397e-10
 20.31771   -111.3 8.994e+03 1.409e-10
 20.33906   -110.6 9.005e+03 1.343e-10
 20.36743   -109.6 9.081e+03 1.485e-10
 20.39017   -108.7 9.123e+03 1.691e-10
 20.41152   -109.3 9.113e+03 1.710e-10
 20.43205   -108.4 9.134e+03 1.821e-10
 20.45339   -107.8 9.176e+03 1.830e-10
 20.49548   -106.9 9.170e+03 1.852e-10
 20.52504   -105.7 9.077e+03 1.732e-10
 20.54638   -105.0 9.090e+03 1.652e-10
 20.58085   -103.6 8.966e+03 1.307e-10
 20.61803   -102.2 8.857e+03 1.003e-10
 20.63938   -101.4 8.863e+03 9.252e-11
 20.66622    -99.9 8.776e+03 7.217e-11
 20.70890    -98.3 8.723e+03 6.030e-11
 20.73237    -96.7 8.706e+03 5.574e-11
 20.74295    -95.7 8.726e+03 5.117e-11
 20.76217    -96.5 8.807e+03 5.224e-11
 20.79427    -94.7 8.796e+03 5.010e-11
 20.82536    -92.9 8.803e+03 5.008e-11
 20.84670    -91.9 8.830e+03 4.814e-11
 20.87964    -90.3 8.986e+03 5.068e-11
 20.91836    -89.1 9.184e+03 7.703e-11
 20.93970    -88.0 9.200e+03 7.007e-11
 20.96501    -86.6 9.326e+03 1.242e-10
 21.00770    -84.9 9.555e+03 2.159e-10
 21.03269    -83.4 9.851e+03 3.263e-10
 21.05403    -82.3 9.820e+03 3.044e-10
 21.09147    -80.9 1.008e+04 4.049e-10
 21.11282    -81.4 1.017e+04 4.600e-10
 21.12568    -80.0 1.039e+04 5.503e-10
 21.14703    -78.9 1.042e+04 5.631e-10
 21.17843    -77.6 1.054e+04 6.132e-10
 21.21868    -76.4 1.056e+04 5.808e-10
 21.24002    -75.7 1.080e+04 6.729e-10
 21.26380    -74.8 1.084e+04 5.790e-10
 21.30649    -74.1 1.080e+04 4.260e-10
 21.33301    -73.6 1.072e+04 2.989e-10
 21.35435    -73.7 1.145e+04 6.834e-10
 21.39186    -73.2 1.119e+04 5.375e-10
 21.42600    -72.7 1.103e+04 4.805e-10
 21.44735    -73.1 1.185e+04 9.974e-10
 21.46347    -72.5 1.179e+04 9.735e-10
 21.48481    -74.7 1.205e+04 1.173e-09
 21.51900    -73.9 1.185e+04 1.051e-09
 21.54034    -74.7 1.231e+04 1.410e-09
 21.56259    -73.8 1.204e+04 1.110e-09
 21.60528    -72.9 1.184e+04 9.164e-10
 21.63333    -71.7 1.166e+04 7.933e-10
 21.65467    -72.8 1.149e+04 7.057e-10
 21.67973    -71.8 1.115e+04 5.226e-10
 21.69030    -72.0 1.108e+04 5.098e-10
 21.70112    -71.4 1.097e+04 4.765e-10
 21.72246    -70.4 1.077e+04 4.040e-10
 21.73680    -70.0 1.072e+04 3.934e-10
 21.74757    -70.3 1.070e+04 4.258e-10
 21.77602    -68.6 1.062e+04 3.862e-10
 21.81412    -66.8 1.052e+04 3.498e-10
 21.83546    -67.4 1.032e+04 2.579e-10
 21.84066    -65.6 1.018e+04 2.292e-10
 21.86200    -65.4 1.009e+04 2.051e-10
 21.90407    -63.5 1.001e+04 1.917e-10
 21.93365    -61.6 9.993e+03 1.901e-10
 21.95499    -61.1 9.923e+03 1.755e-10
 21.98944    -59.3 9.944e+03 1.832e-10
 22.02664    -57.7 9.980e+03 2.172e-10
 22.04799    -57.1 9.957e+03 1.905e-10
 22.07481    -55.7 9.985e+03 2.373e-10
 22.11749    -54.1 1.006e+04 2.947e-10
 22.14098    -52.4 1.012e+04 3.361e-10
 22.16232    -51.8 1.011e+04 3.368e-10
 22.18611    -50.2 1.009e+04 3.526e-10
 22.20745    -49.8 9.939e+03 2.784e-10
 22.23397    -48.3 9.893e+03 2.816e-10
 22.25531    -47.6 1.001e+04 3.102e-10
 22.28823    -46.2 1.002e+04 3.338e-10
 22.32696    -44.7 1.005e+04 3.642e-10
 22.34831    -44.1 1.021e+04 4.789e-10
 22.37360    -42.4 1.017e+04 4.998e-10
 22.41628    -40.5 1.005e+04 4.163e-10
 22.44130    -38.8 9.899e+03 2.985e-10
 22.46264    -37.8 1.002e+04 3.496e-10
 22.50165    -36.3 9.941e+03 2.321e-10
 22.53429    -35.3 9.814e+03 1.883e-10
 22.54806    -34.6 9.913e+03 2.223e-10
 22.55810    -33.8 9.923e+03 2.129e-10
 22.58702    -32.7 9.848e+03 1.946e-10
 22.62729    -31.8 9.980e+03 2.263e-10
 22.64863    -30.7 1.001e+04 3.028e-10
 22.67239    -29.8 1.032e+04 3.567e-10
 22.71507    -28.3 1.024e+04 4.836e-10
 22.74162    -27.0 1.024e+04 5.365e-10
 22.76296    -26.1 1.034e+04 5.991e-10
 22.78802    -25.3 1.049e+04 5.737e-10
 22.79859    -25.0 1.046e+04 5.699e-10
 22.81092    -24.8 1.055e+04 5.890e-10
 22.83226    -24.7 1.070e+04 8.121e-10
 22.84509    -23.9 1.112e+04 9.779e-10
 22.85576    -23.3 1.129e+04 8.015e-10
 22.87495    -23.8 1.168e+04 9.893e-10
 22.89159    -23.7 1.163e+04 1.004e-09
 22.90226    -23.8 1.152e+04 9.692e-10
 22.90865    -24.3 1.115e+04 1.284e-09
 22.92920    -23.0 1.122e+04 1.257e-09
 22.94895    -22.2 1.073e+04 9.653e-10
 22.97118    -20.6 1.058e+04 7.414e-10
 23.01387    -19.4 1.030e+04 4.275e-10
 23.04194    -18.6 1.016e+04 2.023e-10
 23.06328    -17.5 1.003e+04 2.039e-10
 23.09923    -17.1 9.780e+03 1.191e-10
 23.13493    -16.7 9.714e+03 8.683e-11
 23.15628    -15.0 9.757e+03 8.616e-11
 23.18460    -14.1 9.590e+03 8.108e-11
 23.22729    -13.0 9.575e+03 9.252e-11
 23.24927    -11.9 9.633e+03 1.114e-10
 23.26004    -10.4 9.637e+03 9.846e-11
 23.28074    -10.2 9.660e+03 1.083e-10
 23.31266     -9.2 9.761e+03 1.298e-10
 23.34226     -8.6 9.877e+03 1.570e-10
 23.36360     -7.7 9.923e+03 1.560e-10
 23.39803     -7.8 1.010e+04 2.240e-10
 23.43525     -7.4 1.023e+04 3.423e-10
 23.45660     -6.6 1.027e+04 3.953e-10
 23.48339     -6.0 1.048e+04 4.629e-10
 23.52608     -5.2 1.049e+04 4.260e-10
 23.54959     -4.3 1.050e+04 3.275e-10
 23.57093     -3.9 1.056e+04 3.539e-10
 23.61005     -3.6 1.069e+04 2.744e-10
 23.63139     -4.1 1.073e+04 2.585e-10
 23.64258     -3.9 1.069e+04 2.605e-10
 23.66392     -3.4 1.080e+04 3.153e-10
 23.69682     -2.6 1.075e+04 3.500e-10
 23.73557     -1.3 1.069e+04 3.786e-10
 23.75692     -0.7 1.082e+04 4.449e-10
 23.78219      1.0 1.073e+04 4.009e-10
 23.82487      2.6 1.069e+04 3.320e-10
 23.84991      4.0 1.063e+04 2.812e-10
 23.87125      4.6 1.067e+04 2.815e-10
 23.91024      6.2 1.053e+04 2.547e-10
 23.94290      8.1 1.049e+04 2.480e-10
 23.96424      8.9 1.055e+04 2.052e-10
 23.98204     10.8 1.058e+04 2.077e-10
 24.00338     10.5 1.054e+04 1.558e-10
 24.03590     12.1 1.067e+04 1.735e-10
 24.05724     12.0 1.090e+04 1.661e-10
 24.08098     13.5 1.104e+04 2.224e-10
 24.12366     15.2 1.111e+04 2.964e-10
 24.15023     17.1 1.120e+04 3.628e-10
 24.17157     17.3 1.118e+04 4.511e-10
 24.20903     19.1 1.127e+04 4.641e-10
 24.24322     20.7 1.131e+04 4.676e-10
 24.26457     21.0 1.128e+04 4.694e-10
 24.29440     22.6 1.133e+04 4.522e-10
 24.33269     24.2 1.137e+04 4.381e-10
 24.35316     24.2 1.138e+04 4.883e-10
 24.35756     24.7 1.136e+04 3.883e-10
 24.37977     26.6 1.142e+04 4.022e-10
 24.42245     28.4 1.144e+04 4.059e-10
 24.45055     30.3 1.146e+04 4.050e-10
 24.47189     30.9 1.128e+04 3.400e-10
 24.50782     32.6 1.137e+04 3.547e-10
 24.54354     34.0 1.154e+04 4.409e-10
 24.56489     34.8 1.130e+04 4.031e-10
 24.59319     36.3 1.154e+04 6.296e-10
 24.63588     38.1 1.181e+04 9.316e-10
 24.65788     39.7 1.202e+04 1.042e-09
 24.67922     40.6 1.203e+04 1.274e-09
 24.70468     42.0 1.231e+04 1.604e-09
 24.72602     41.6 1.233e+04 1.652e-09
 24.75087     42.7 1.234e+04 1.634e-09
 24.77221     43.8 1.282e+04 2.740e-09
 24.80661     45.3 1.311e+04 3.100e-09
 24.84386     46.6 1.311e+04 3.045e-09
 24.86511     47.4 1.356e+04 3.471e-09
 24.87981     48.1 1.382e+04 3.380e-09
 24.89048     47.9 1.375e+04 3.365e-09
 24.90084     48.2 1.395e+04 3.153e-09
 24.91151     48.6 1.355e+04 4.224e-09
 24.92380     49.0 1.376e+04 4.134e-09
 24.94514     49.3 1.394e+04 3.897e-09
 24.95800     49.6 1.400e+04 3.518e-09
 24.96867     49.9 1.486e+04 4.842e-09
 24.98783     50.0 1.534e+04 4.230e-09
 25.00450     50.0 1.545e+04 3.561e-09
 25.01517     50.0 1.424e+04 6.262e-09
 25.03051     50.1 1.406e+04 5.098e-09
 25.05100     50.2 1.401e+04 4.141e-09
 25.06167     50.8 1.441e+04 6.189e-09
 25.06581     50.4 1.475e+04 5.394e-09
 25.07648     50.2 1.454e+04 5.166e-09
 25.09454     49.1 1.499e+04 5.467e-09
 25.10816     48.1 1.516e+04 6.262e-09
 25.11884     48.7 1.580e+04 9.316e-09
 25.13722     48.2 1.566e+04 9.052e-09
 25.15466     48.5 1.519e+04 7.861e-09
 25.16533     49.0 1.566e+04 9.260e-09
 25.17991     49.1 1.484e+04 6.363e-09
 25.20116     49.3 1.398e+04 4.129e-09
 25.23327     49.0 1.319e+04 2.168e-09
 25.25852     49.0 1.216e+04 9.387e-10
 25.27986     48.9 1.205e+04 1.189e-09
 25.31883     49.4 1.133e+04 5.714e-10
 25.35151     49.7 1.118e+04 3.167e-10
 25.37285     49.3 1.193e+04 6.721e-10
 25.40420     49.7 1.199e+04 6.905e-10
 25.42732     50.4 1.216e+04 8.020e-10
 25.44629     49.9 1.213e+04 6.616e-10
 25.46585     50.5 1.255e+04 2.412e-09
 25.48956     51.6 1.269e+04 2.652e-09
 25.53225     52.9 1.265e+04 2.549e-09
 25.55884     54.5 1.241e+04 2.024e-09
 25.58018     53.9 1.264e+04 2.178e-09
 25.61762     55.8 1.210e+04 1.272e-09
 25.65183     57.3 1.180e+04 6.403e-10
 25.67318     56.5 1.166e+04 6.827e-10
 25.70299     57.9 1.137e+04 5.843e-10
 25.74483     59.8 1.125e+04 5.566e-10
 25.76617     60.6 1.127e+04 7.492e-10
 25.77797     62.7 1.120e+04 7.279e-10
 25.79931     62.5 1.090e+04 5.758e-10
 25.83104     64.6 1.086e+04 5.519e-10
 25.85916     66.7 1.083e+04 5.086e-10
 25.88050     67.1 1.059e+04 4.676e-10
 25.91641     69.1 1.051e+04 3.965e-10
 25.95215     71.0 1.046e+04 3.369e-10
 25.97350     71.1 1.037e+04 2.491e-10
 26.00178     73.1 1.026e+04 2.332e-10
 26.04446     75.1 1.016e+04 2.242e-10
 26.06649     77.3 1.008e+04 2.162e-10
 26.08783     77.9 1.004e+04 1.821e-10
 26.12862     80.2 1.005e+04 1.771e-10
 26.14996     80.1 1.008e+04 1.723e-10
 26.15948     82.3 1.010e+04 1.665e-10
 26.18082     82.5 1.020e+04 1.537e-10
 26.21520     84.8 1.020e+04 1.608e-10
 26.25247     87.0 1.019e+04 1.679e-10
 26.27382     87.2 1.008e+04 2.034e-10
 26.30057     89.4 1.007e+04 2.013e-10
 26.34325     91.8 1.004e+04 1.919e-10
 26.36681     94.2 9.980e+03 1.763e-10
 26.38815     94.6 9.834e+03 1.786e-10
 26.42862     97.0 9.812e+03 1.474e-10
 26.45980     99.4 9.818e+03 1.234e-10
 26.48114     99.7 9.744e+03 1.009e-10
 26.50061    101.9 9.807e+03 9.381e-11
 26.52196    101.7 9.866e+03 1.101e-10
 26.55279    104.0 9.887e+03 1.084e-10
 26.57414    103.9 9.821e+03 1.129e-10
 26.59936    106.1 9.862e+03 1.190e-10
 26.64205    108.2 9.890e+03 1.262e-10
 26.66713    110.3 9.898e+03 1.351e-10
 26.68847    110.5 9.550e+03 1.978e-10
 26.72741    112.8 9.524e+03 2.092e-10
 26.76012    115.0 9.504e+03 2.112e-10
 26.78146    115.5 9.544e+03 2.111e-10
 26.81278    117.6 9.560e+03 1.866e-10
 26.85126    119.6 9.620e+03 1.639e-10
 26.87025    119.1 9.583e+03 1.388e-10
 26.87446    118.7 9.645e+03 1.200e-10
 26.89815    120.4 9.635e+03 1.208e-10
 26.94084    122.1 9.632e+03 1.237e-10
 26.96745    123.7 9.653e+03 1.335e-10
 26.98879    123.9 9.575e+03 1.439e-10
 27.02621    125.5 9.646e+03 1.653e-10
 27.06044    127.1 9.744e+03 2.004e-10
 27.08178    127.4 9.667e+03 2.143e-10
 27.11157    128.9 9.828e+03 2.705e-10
 27.15344    130.3 1.007e+04 3.533e-10
 27.17478    130.7 1.001e+04 3.520e-10
 27.19694    132.0 1.033e+04 4.662e-10
 27.22325    132.7 1.057e+04 5.906e-10
 27.24460    131.8 1.056e+04 5.837e-10
 27.26767    132.1 1.065e+04 6.525e-10
 27.27825    132.4 1.068e+04 6.010e-10
 27.29279    132.6 1.080e+04 7.010e-10
 27.31407    132.9 1.103e+04 8.845e-10
 27.33541    133.2 1.124e+04 1.042e-09
 27.35682    133.3 1.151e+04 1.250e-09
 27.37124    133.2 1.182e+04 1.387e-09
 27.38191    132.9 1.171e+04 1.347e-09
 27.39838    132.6 1.199e+04 1.412e-09
 27.40906    132.2 1.202e+04 1.290e-09
 27.41774    132.1 1.204e+04 1.279e-09
 27.42841    132.1 1.210e+04 1.307e-09
 27.44218    132.1 1.208e+04 1.275e-09
 27.46353    132.1 1.204e+04 1.216e-09
 27.47490    132.3 1.199e+04 1.132e-09
 27.48557    132.6 1.208e+04 1.292e-09
 27.50621    132.6 1.201e+04 1.118e-09
 27.53832    132.9 1.214e+04 1.124e-09
 27.56809    132.7 1.214e+04 9.499e-10
 27.58223    132.3 1.229e+04 1.103e-09
 27.59525    132.0 1.207e+04 9.076e-10
 27.62379    131.7 1.215e+04 9.581e-10
 27.66108    131.7 1.229e+04 1.124e-09
 27.68243    131.6 1.243e+04 1.539e-09
 27.70916    132.1 1.254e+04 1.650e-09
 27.75184    132.8 1.260e+04 1.678e-09
 27.77542    133.6 1.261e+04 1.664e-09
 27.79676    133.1 1.258e+04 1.435e-09
 27.83721    134.0 1.258e+04 1.470e-09
 27.86841    134.9 1.263e+04 1.630e-09
 27.88975    134.2 1.262e+04 1.678e-09
 27.92258    135.1 1.269e+04 1.713e-09
 27.94590    136.2 1.265e+04 1.674e-09
 27.96338    136.1 1.228e+04 1.305e-09
 27.98265    136.4 1.233e+04 1.224e-09
 27.99708    137.0 1.239e+04 1.201e-09
 28.01838    137.7 1.247e+04 1.178e-09
 28.03972    138.1 1.228e+04 1.149e-09
 28.06111    138.5 1.226e+04 1.164e-09
 28.07554    139.0 1.223e+04 1.204e-09
 28.08622    138.7 1.202e+04 1.065e-09
 28.10379    139.6 1.190e+04 1.119e-09
 28.12103    140.5 1.181e+04 1.175e-09
 28.12860    140.5 1.170e+04 1.121e-09
 28.13271    141.4 1.175e+04 9.343e-10
 28.14648    142.3 1.192e+04 8.903e-10
 28.16782    143.3 1.216e+04 8.310e-10
 28.17921    144.2 1.234e+04 7.966e-10
 28.18998    142.4 1.183e+04 5.453e-10
 28.21060    143.6 1.185e+04 5.081e-10
 28.22570    144.2 1.185e+04 4.982e-10
 28.23638    144.1 1.160e+04 4.783e-10
 28.25319    145.1 1.153e+04 4.622e-10
 28.27220    145.9 1.149e+04 4.564e-10
 28.28297    145.7 1.180e+04 3.440e-10
 28.29655    147.1 1.189e+04 3.782e-10
 28.31789    147.6 1.166e+04 3.338e-10
 28.34942    149.0 1.179e+04 3.927e-10
 28.37606    149.8 1.173e+04 4.368e-10
 28.39740    150.4 1.151e+04 3.633e-10
 28.43479    152.0 1.168e+04 4.275e-10
 28.46905    153.5 1.171e+04 4.754e-10
 28.49039    153.4 1.139e+04 3.996e-10
 28.52016    155.0 1.151e+04 4.351e-10
 28.56205    156.4 1.161e+04 4.720e-10
 28.58339    156.9 1.113e+04 4.023e-10
 28.60553    158.4 1.127e+04 4.406e-10
 28.64720    159.8 1.144e+04 4.821e-10
 28.66854    160.1 1.122e+04 3.980e-10
 28.67638    161.4 1.135e+04 3.867e-10
 28.69772    162.2 1.112e+04 2.991e-10
 28.73358    163.4 1.115e+04 3.004e-10
 28.76937    164.5 1.120e+04 3.045e-10
 28.79072    165.2 1.109e+04 2.653e-10
 28.81895    166.4 1.119e+04 3.014e-10
 28.86164    167.5 1.134e+04 3.509e-10
 28.88371    168.3 1.151e+04 4.120e-10
 28.90505    169.1 1.139e+04 4.387e-10
 28.94701    169.8 1.152e+04 5.169e-10
 28.97670    170.1 1.160e+04 5.722e-10
 28.99804    171.1 1.158e+04 5.912e-10
 29.01909    171.4 1.159e+04 6.307e-10
 29.02966    172.1 1.156e+04 6.346e-10
 29.03367    172.5 1.156e+04 6.786e-10
 29.04434    172.9 1.161e+04 7.045e-10
 29.06419    173.9 1.172e+04 7.637e-10
 29.08017    174.6 1.184e+04 7.761e-10
 29.09094    176.1 1.190e+04 7.137e-10
 29.10698    176.1 1.192e+04 7.043e-10
 29.12667    176.2 1.195e+04 6.947e-10
 29.13734    176.4 1.186e+04 6.835e-10
 29.14956    176.8 1.184e+04 6.737e-10
 29.17091    177.2 1.183e+04 6.747e-10
 29.18383    177.5 1.186e+04 6.871e-10
 29.20527    178.6 1.185e+04 6.931e-10
 29.23043    178.7 1.197e+04 7.670e-10
 29.24100    178.8 1.199e+04 7.761e-10
 29.25627    179.0 1.210e+04 8.553e-10
 29.27683    179.2 1.223e+04 9.574e-10
 29.28750    179.4 1.217e+04 9.986e-10
 29.29896    179.6 1.233e+04 1.136e-09
 29.32030    179.7 1.249e+04 1.309e-09
 29.33399    179.8 1.264e+04 1.511e-09
 29.34466    180.2 1.259e+04 1.496e-09
 29.36299    180.2 1.276e+04 1.709e-09
 29.38031    180.3 1.296e+04 1.945e-09
 29.38715    180.7 1.277e+04 1.629e-09
 29.39116    180.7 1.279e+04 1.593e-09
 29.40567    180.6 1.297e+04 1.795e-09
 29.42699    180.4 1.319e+04 2.079e-09
 29.44833    180.4 1.318e+04 2.289e-09
 29.46970    180.1 1.352e+04 2.803e-09
 29.48415    179.6 1.390e+04 3.380e-09
 29.49482    179.9 1.342e+04 2.400e-09
 29.51238    179.1 1.368e+04 2.628e-09
 29.53065    178.3 1.374e+04 2.624e-09
 29.54132    178.4 1.316e+04 1.868e-09
 29.55507    177.4 1.307e+04 1.609e-09
 29.57724    176.3 1.329e+04 1.435e-09
 29.59868    175.9 1.206e+04 7.831e-10
 29.62996    175.0 1.142e+04 4.463e-10
 29.67033    174.6 1.060e+04 2.461e-10
 29.69168    176.3 1.049e+04 3.084e-10
 29.71533    176.9 1.030e+04 2.221e-10
 29.74183    177.5 1.021e+04 1.756e-10
 29.76317    177.5 1.032e+04 1.681e-10
 29.78467    178.3 1.027e+04 1.620e-10
 29.80601    179.6 1.031e+04 1.449e-10
 29.84338    180.4 1.022e+04 1.151e-10
 29.87766    181.4 1.020e+04 1.092e-10
 29.89900    182.2 1.018e+04 1.063e-10
 29.92875    183.2 9.983e+03 1.030e-10
 29.97066    184.4 9.980e+03 1.030e-10
 29.99200    185.1 1.005e+04 1.151e-10
 30.01412    186.4 1.004e+04 1.155e-10
 30.05680    187.8 1.001e+04 1.203e-10
 30.08499    189.2 9.987e+03 1.341e-10
 30.09932    190.2 1.008e+04 1.476e-10
 30.11382    189.9 1.008e+04 1.603e-10
 30.14217    191.4 1.003e+04 1.783e-10
 30.17798    192.9 1.001e+04 1.962e-10
 30.19933    194.2 1.017e+04 2.220e-10
 30.22754    195.7 1.007e+04 2.295e-10
 30.27023    197.2 1.003e+04 2.273e-10
 30.29232    198.8 9.960e+03 2.188e-10
 30.31366    200.0 1.026e+04 2.787e-10
 30.35559    201.6 1.014e+04 2.633e-10
 30.38531    203.2 1.005e+04 2.447e-10
 30.40665    203.9 1.051e+04 3.649e-10
 30.44096    205.8 1.043e+04 3.509e-10
 30.46447    207.7 1.041e+04 3.423e-10
 30.48047    207.6 1.029e+04 3.187e-10
 30.49965    207.6 1.071e+04 4.586e-10
 30.52633    209.6 1.070e+04 4.551e-10
 30.56902    211.6 1.072e+04 4.571e-10
 30.59264    213.8 1.081e+04 4.752e-10
 30.61398    214.0 1.113e+04 6.169e-10
 30.65439    216.0 1.121e+04 6.443e-10
 30.68563    218.1 1.142e+04 7.119e-10
 30.70697    218.2 1.184e+04 7.586e-10
 30.73975    219.9 1.195e+04 7.907e-10
 30.77862    221.6 1.212e+04 8.200e-10
 30.79997    221.0 1.212e+04 5.583e-10
 30.81512    222.4 1.210e+04 4.938e-10
 30.83646    223.3 1.205e+04 5.058e-10
 30.86781    225.0 1.204e+04 4.769e-10
 30.89296    226.7 1.209e+04 4.531e-10
 30.91430    225.7 1.155e+04 2.890e-10
 30.95318    227.7 1.156e+04 2.955e-10
 30.98595    230.0 1.166e+04 3.057e-10
 31.00729    229.6 1.124e+04 2.033e-10
 31.03855    231.7 1.131e+04 2.080e-10
 31.07894    233.9 1.153e+04 2.226e-10
 31.10029    234.0 1.105e+04 1.867e-10
 31.12392    235.9 1.124e+04 2.151e-10
 31.16577    236.6 1.146e+04 2.459e-10
 31.18701    237.6 1.165e+04 2.543e-10
 31.19308    237.7 1.192e+04 2.769e-10
 31.20376    238.7 1.161e+04 2.897e-10
 31.21976    238.7 1.175e+04 3.356e-10
 31.23958    238.7 1.227e+04 4.431e-10
 31.25025    239.3 1.192e+04 4.460e-10
 31.26244    239.4 1.238e+04 6.089e-10
 31.28379    239.4 1.300e+04 9.018e-10
 31.29675    239.4 1.364e+04 1.411e-09
 31.30742    239.8 1.343e+04 1.241e-09
 31.32647    239.7 1.398e+04 1.759e-09
 31.34324    239.6 1.445e+04 2.392e-09
 31.35392    239.9 1.417e+04 1.950e-09
 31.36224    239.7 1.451e+04 2.383e-09
 31.37291    240.1 1.505e+04 3.500e-09
 31.38974    240.0 1.524e+04 3.705e-09
 31.40041    240.0 1.502e+04 3.283e-09
 31.41184    239.7 1.502e+04 3.308e-09
 31.43318    239.3 1.499e+04 3.248e-09
 31.44691    239.0 1.486e+04 3.044e-09
 31.45758    239.0 1.460e+04 2.829e-09
 31.47587    238.9 1.448e+04 2.727e-09
 31.49340    239.1 1.432e+04 2.595e-09
 31.50408    239.2 1.422e+04 2.503e-09
 31.51855    239.5 1.417e+04 2.455e-09
 31.53757    239.8 1.409e+04 2.384e-09
 31.54824    240.0 1.411e+04 2.498e-09
 31.56124    240.6 1.401e+04 2.364e-09
 31.58258    241.1 1.393e+04 2.279e-09
 31.59707    241.7 1.386e+04 2.150e-09
 31.60774    241.8 1.382e+04 2.170e-09
 31.62526    242.4 1.384e+04 2.167e-09
 31.64356    243.1 1.388e+04 2.133e-09
 31.65424    243.2 1.386e+04 2.228e-09
 31.66795    243.9 1.403e+04 2.409e-09
 31.68929    244.5 1.432e+04 2.417e-09
 31.70073    244.9 1.436e+04 2.374e-09
 31.71140    245.1 1.475e+04 3.006e-09
 31.72356    245.3 1.483e+04 2.955e-09
 31.73423    246.2 1.542e+04 3.848e-09
 31.74723    246.4 1.549e+04 3.699e-09
 31.75790    246.7 1.618e+04 5.674e-09
 31.77466    246.8 1.621e+04 5.280e-09
 31.79373    246.5 1.623e+04 4.369e-09
 31.80440    246.5 1.683e+04 5.595e-09
 31.81734    244.4 1.718e+04 4.895e-09
 31.83868    240.2 1.742e+04 5.080e-09
 31.85089    233.7 1.830e+04 6.664e-09
 31.86156    232.2 1.896e+04 8.388e-09
 31.88137    225.8 1.975e+04 1.176e-08
 31.89739    219.6 1.992e+04 1.272e-08
 31.90424    219.8 2.033e+04 1.443e-08
 31.90956    218.3 2.146e+04 1.816e-08
 31.92405    212.4 2.077e+04 1.329e-08
 31.94389    207.4 1.948e+04 6.814e-09
 31.95456    208.5 1.997e+04 8.066e-09
 31.96674    203.3 1.734e+04 3.188e-09
 31.98808    198.2 1.380e+04 1.846e-09
 32.00105    196.7 1.314e+04 1.761e-09
 32.01172    196.8 1.309e+04 1.793e-09
 32.03076    196.5 1.300e+04 1.766e-09
 32.06288    196.0 1.289e+04 1.701e-09
 32.09424    195.6 1.284e+04 1.725e-09
 32.11558    196.2 1.283e+04 1.701e-09
 32.14834    195.4 1.272e+04 1.711e-09
 32.18723    194.3 1.265e+04 1.700e-09
 32.20858    194.9 1.252e+04 1.637e-09
 32.23371    193.5 1.238e+04 1.580e-09
 32.26040    192.1 1.206e+04 1.391e-09
 32.28174    191.5 1.160e+04 1.077e-09
 32.30157    190.7 1.116e+04 7.904e-10
 32.32291    191.3 1.086e+04 6.250e-10
 32.36176    190.8 1.025e+04 3.868e-10
 32.39456    190.5 9.574e+03 2.526e-10
 32.41590    191.5 9.444e+03 2.239e-10
 32.44713    191.7 9.291e+03 2.087e-10
 32.48755    192.2 9.292e+03 2.149e-10
 32.50890    193.6 9.293e+03 2.105e-10
 32.53250    194.2 9.347e+03 2.455e-10
 32.57519    194.6 9.582e+03 3.528e-10
 32.60189    195.0 9.890e+03 5.168e-10
 32.61641    196.5 9.948e+03 5.214e-10
 32.63239    196.6 1.009e+04 6.125e-10
 32.66056    196.9 1.033e+04 7.381e-10
 32.69488    196.8 1.035e+04 7.359e-10
 32.71622    198.3 1.062e+04 8.824e-10
 32.74593    198.0 1.056e+04 8.444e-10
 32.78787    197.7 1.028e+04 6.809e-10
 32.80922    199.2 1.072e+04 9.368e-10
 32.83129    199.1 1.026e+04 6.796e-10
 32.87398    198.9 9.531e+03 4.159e-10
 32.90221    198.6 8.740e+03 2.646e-10
 32.92355    200.1 9.498e+03 4.469e-10
 32.95935    200.0 8.838e+03 3.214e-10
 32.98304    200.1 8.764e+03 3.085e-10
 32.99756    200.2 8.929e+03 3.333e-10
 33.01654    201.3 9.254e+03 4.234e-10
 33.04472    201.4 9.259e+03 4.353e-10
 33.08740    201.5 9.337e+03 4.722e-10
 33.10954    201.7 9.411e+03 5.025e-10
 33.13088    202.4 9.696e+03 5.991e-10
 33.17277    202.5 9.703e+03 6.046e-10
 33.20253    202.6 9.653e+03 5.904e-10
 33.22387    203.2 9.728e+03 6.185e-10
 33.25814    203.5 9.465e+03 5.286e-10
 33.29552    204.3 9.109e+03 4.256e-10
 33.31687    205.0 9.055e+03 4.152e-10
 33.33369    206.1 8.776e+03 3.507e-10
 33.35504    206.4 9.043e+03 4.186e-10
 33.38619    207.8 9.007e+03 3.977e-10
 33.40986    209.3 9.024e+03 3.996e-10
 33.43120    210.4 9.048e+03 4.160e-10
 33.47156    212.0 9.213e+03 4.504e-10
 33.50275    213.0 9.323e+03 4.843e-10
 33.51333    213.6 9.364e+03 5.132e-10
 33.51949    214.3 9.535e+03 5.619e-10
 33.53016    214.1 9.603e+03 6.014e-10
 33.54606    214.8 9.816e+03 6.862e-10
 33.55982    215.5 9.995e+03 7.597e-10
 33.57049    216.2 1.012e+04 8.486e-10
 33.58875    216.8 1.029e+04 9.196e-10
 33.60632    217.5 1.045e+04 9.810e-10
 33.61699    218.2 1.063e+04 1.107e-09
 33.63143    218.8 1.083e+04 1.186e-09
 33.65277    219.3 1.107e+04 1.273e-09
 33.67412    219.6 1.175e+04 1.698e-09
 33.69482    219.6 1.221e+04 1.963e-09
 33.70549    219.9 1.220e+04 1.959e-09
 33.70998    219.6 1.275e+04 2.331e-09
 33.72065    219.7 1.360e+04 3.177e-09
 33.73814    218.9 1.453e+04 4.174e-09
 33.75648    217.7 1.563e+04 5.857e-09
 33.76715    217.6 1.635e+04 7.657e-09
 33.78083    216.1 1.723e+04 1.014e-08
 33.80217    214.4 1.807e+04 1.285e-08
 33.81365    212.5 1.886e+04 1.572e-08
 33.82432    211.5 1.861e+04 1.235e-08
 33.84485    208.8 1.877e+04 1.118e-08
 33.86014    205.7 1.875e+04 7.802e-09
 33.87081    201.9 1.720e+04 4.176e-09
 33.88081    196.9 1.517e+04 2.248e-09
 33.89149    197.2 1.801e+04 4.444e-09
 33.90664    192.4 1.558e+04 2.333e-09
 33.91731    189.1 1.295e+04 1.685e-09
 33.93022    185.9 1.086e+04 1.132e-09
 33.95157    184.1 1.047e+04 8.333e-10
 33.96381    183.7 1.063e+04 7.155e-10
 33.97448    183.5 1.056e+04 6.268e-10
 33.99425    183.3 1.047e+04 5.949e-10
 34.01030    183.4 1.033e+04 5.820e-10
 34.02097    183.7 1.009e+04 4.894e-10
 34.03693    183.9 1.004e+04 4.988e-10
 34.05614    184.4 1.002e+04 5.179e-10
 34.06533    183.8 1.007e+04 5.482e-10
 34.06747    183.8 9.885e+03 4.750e-10
 34.07962    184.4 9.959e+03 5.111e-10
 34.10096    185.1 1.010e+04 5.642e-10
 34.11397    185.7 1.026e+04 6.232e-10
 34.12464    185.5 1.003e+04 5.260e-10
 34.14365    186.1 1.020e+04 6.005e-10
 34.16046    186.6 1.035e+04 6.646e-10
 34.17114    186.4 1.016e+04 5.826e-10
 34.18633    186.8 1.029e+04 6.282e-10
 34.20696    187.2 1.044e+04 6.450e-10
 34.21763    187.0 1.023e+04 5.658e-10
 34.22902    187.3 1.033e+04 5.870e-10
 34.24214    187.6 1.043e+04 5.917e-10
 34.25281    187.3 1.053e+04 6.075e-10
 34.26413    187.4 1.055e+04 6.025e-10
 34.27480    187.2 1.048e+04 5.709e-10
 34.29304    187.5 1.049e+04 5.668e-10
 34.31062    187.5 1.056e+04 5.390e-10
 34.32130    187.6 1.044e+04 5.346e-10
 34.33573    187.7 1.049e+04 5.211e-10
 34.35707    187.8 1.055e+04 4.865e-10
 34.37841    188.1 1.055e+04 4.904e-10
 34.40371    188.3 1.054e+04 4.225e-10
 34.42142    188.3 1.060e+04 4.604e-10
 34.42813    187.7 1.062e+04 4.372e-10
 34.44244    187.6 1.058e+04 3.863e-10
 34.46078    187.5 1.053e+04 3.376e-10
 34.47146    187.7 1.070e+04 4.104e-10
 34.49589    187.3 1.064e+04 3.268e-10
 34.51815    187.1 1.065e+04 3.112e-10
 34.52872    187.0 1.084e+04 3.704e-10
 34.54915    186.9 1.082e+04 3.554e-10
 34.56445    186.8 1.078e+04 3.544e-10
 34.57512    186.6 1.097e+04 4.134e-10
 34.59183    186.6 1.097e+04 4.140e-10
 34.60346    186.7 1.096e+04 4.167e-10
 34.61190    186.0 1.104e+04 4.372e-10
 34.62162    185.5 1.123e+04 5.427e-10
 34.63452    185.7 1.115e+04 5.462e-10
 34.65586    186.0 1.111e+04 5.524e-10
 34.66811    186.3 1.107e+04 5.610e-10
 34.67878    185.9 1.113e+04 6.474e-10
 34.69854    186.3 1.110e+04 6.563e-10
 34.71461    186.8 1.110e+04 6.768e-10
 34.72528    186.5 1.108e+04 6.980e-10
 34.74123    187.0 1.108e+04 7.122e-10
 34.76111    187.6 1.113e+04 7.411e-10
 34.77178    187.3 1.110e+04 7.197e-10
 34.77878    187.8 1.119e+04 7.721e-10
 34.78945    187.0 1.114e+04 7.112e-10
 34.80526    187.5 1.129e+04 8.006e-10
 34.81827    188.0 1.145e+04 9.213e-10
 34.82894    187.7 1.136e+04 8.609e-10
 34.84794    188.3 1.156e+04 1.012e-09
 34.86477    189.0 1.177e+04 1.192e-09
 34.87544    188.8 1.154e+04 1.006e-09
 34.89062    189.5 1.176e+04 1.162e-09
 34.91127    190.2 1.204e+04 1.351e-09
 34.92194    189.8 1.166e+04 1.008e-09
 34.93331    190.3 1.200e+04 1.167e-09
 34.95411    190.3 1.242e+04 1.387e-09
 34.96478    189.4 1.224e+04 1.240e-09
 34.96843    189.2 1.265e+04 1.452e-09
 34.97910    188.7 1.198e+04 1.065e-09
 34.99734    188.5 1.236e+04 1.262e-09
 35.01493    188.1 1.289e+04 1.576e-09
 35.02560    188.0 1.218e+04 1.193e-09
 35.04002    187.3 1.280e+04 1.544e-09
 35.06136    186.4 1.359e+04 2.131e-09
 35.08270    186.0 1.377e+04 2.307e-09
 35.10405    184.7 1.466e+04 3.315e-09
 35.11859    183.2 1.555e+04 4.707e-09
 35.12926    184.1 1.494e+04 3.734e-09
 35.14010    182.5 1.577e+04 5.174e-09
 35.15077    181.8 1.485e+04 3.536e-09
 35.16509    180.0 1.570e+04 4.932e-09
 35.17576    181.3 1.518e+04 4.314e-09
 35.18942    179.5 1.590e+04 5.679e-09
 35.21076    177.7 1.645e+04 6.912e-09
 35.22226    175.9 1.664e+04 7.210e-09
 35.23293    177.7 1.644e+04 6.863e-09
 35.25344    176.0 1.643e+04 6.831e-09
 35.26875    174.4 1.628e+04 6.567e-09
 35.27942    176.0 1.621e+04 6.395e-09
 35.29613    174.7 1.583e+04 5.760e-09
 35.31525    173.7 1.525e+04 4.632e-09
 35.32388    175.2 1.518e+04 4.686e-09
 35.32610    175.3 1.461e+04 3.564e-09
 35.33881    174.3 1.398e+04 2.805e-09
 35.36015    173.3 1.323e+04 2.023e-09
 35.37242    172.3 1.252e+04 1.389e-09
 35.38309    173.8 1.273e+04 1.605e-09
 35.40284    173.1 1.217e+04 1.176e-09
 35.41901    171.2 1.141e+04 7.627e-10
 35.44045    173.5 1.186e+04 9.776e-10
 35.47773    171.6 1.080e+04 5.694e-10
 35.50162    169.9 1.037e+04 4.360e-10
 35.51219    171.0 1.066e+04 4.970e-10
 35.52258    169.9 1.050e+04 4.654e-10
 35.53325    171.2 1.064e+04 5.021e-10
 35.55223    169.7 1.056e+04 4.956e-10
 35.56907    168.2 1.056e+04 5.040e-10
 35.57975    169.3 1.063e+04 5.277e-10
 35.59492    167.8 1.066e+04 5.670e-10
 35.61557    166.3 1.090e+04 6.993e-10
 35.62624    167.4 1.085e+04 6.799e-10
 35.63760    165.8 1.128e+04 8.928e-10
 35.65894    163.9 1.200e+04 1.256e-09
 35.67274    160.9 1.313e+04 1.891e-09
 35.67987    161.8 1.308e+04 1.797e-09
 35.68742    159.9 1.400e+04 2.506e-09
 35.70163    155.2 1.539e+04 3.964e-09
 35.71923    150.3 1.637e+04 5.439e-09
 35.72991    150.1 1.678e+04 6.049e-09
 35.74431    145.1 1.697e+04 6.278e-09
 35.76566    140.5 1.676e+04 5.702e-09
 35.78700    135.9 1.626e+04 4.233e-09
 35.80834    131.4 1.472e+04 2.228e-09
 35.82290    126.8 1.249e+04 1.075e-09
 35.83357    125.8 1.214e+04 9.430e-10
 35.85103    120.6 1.028e+04 4.827e-10
 35.86274    117.0 1.021e+04 3.755e-10
 35.87044    115.5 1.014e+04 3.664e-10
 35.88007    114.4 1.001e+04 3.606e-10
 35.90448    114.2 9.899e+03 3.486e-10
 35.92676    113.1 9.683e+03 3.441e-10
 35.94810    111.3 9.634e+03 3.336e-10
 35.98994    110.3 9.457e+03 3.137e-10
 36.01975    109.6 9.257e+03 2.754e-10
 36.04109    107.0 9.281e+03 2.626e-10
 36.07531    106.2 9.070e+03 2.245e-10
 36.11274    105.7 8.868e+03 1.971e-10
 36.13409    102.8 9.143e+03 2.421e-10
 36.16068    103.0 9.215e+03 2.685e-10
 36.20292    103.7 9.466e+03 3.207e-10
 36.22426    102.3 9.824e+03 3.995e-10
 36.22708    103.2 1.009e+04 4.839e-10
 36.24842    101.0 1.054e+04 6.697e-10
 36.28874    102.0 1.059e+04 7.274e-10
 36.32007    103.0 1.059e+04 7.342e-10
 36.34141    101.1 1.044e+04 6.959e-10
 36.37411    102.3 1.026e+04 6.273e-10
 36.41306    103.5 9.968e+03 5.163e-10
 36.43441    102.1 9.424e+03 3.575e-10
 36.45947    103.3 9.125e+03 2.657e-10
 36.50216    104.3 8.824e+03 1.886e-10
 36.52740    105.1 8.656e+03 1.526e-10
 36.54874    104.0 8.452e+03 1.338e-10
 36.57491    105.0 8.541e+03 1.486e-10
 36.59625    104.5 8.913e+03 2.175e-10
 36.62039    105.6 9.164e+03 2.698e-10
 36.64173    105.0 9.221e+03 2.948e-10
 36.67290    106.1 9.467e+03 3.533e-10
 36.71338    106.9 9.536e+03 3.579e-10
 36.73473    106.4 9.502e+03 3.573e-10
 36.75827    107.2 9.447e+03 3.217e-10
 36.80095    108.0 9.264e+03 2.476e-10
 36.82772    108.8 9.018e+03 1.781e-10
 36.84906    108.2 8.954e+03 1.688e-10
 36.88632    109.0 8.856e+03 1.395e-10
 36.92071    109.9 8.864e+03 1.394e-10
 36.93861    109.6 8.947e+03 1.630e-10
 36.94690    108.8 9.087e+03 1.923e-10
 36.97169    109.8 9.257e+03 2.214e-10
 37.01370    110.7 9.437e+03 2.539e-10
 37.03505    110.6 9.435e+03 2.568e-10
 37.05706    111.5 9.574e+03 2.806e-10
 37.09974    112.3 9.675e+03 2.924e-10
 37.12804    113.1 9.765e+03 3.028e-10
 37.14938    113.1 9.680e+03 2.782e-10
 37.18511    113.9 9.779e+03 2.696e-10
 37.22103    114.5 9.885e+03 2.566e-10
 37.24237    114.5 9.871e+03 2.510e-10
 37.27048    114.9 1.005e+04 2.531e-10
 37.29755    115.1 1.023e+04 2.590e-10
 37.31889    114.3 1.010e+04 2.340e-10
 37.33537    114.5 1.034e+04 2.625e-10
 37.35671    114.6 1.052e+04 3.003e-10
 37.39853    114.3 1.078e+04 3.412e-10
 37.42836    113.7 1.100e+04 3.930e-10
 37.44970    113.4 1.109e+04 4.168e-10
 37.47278    113.2 1.112e+04 4.828e-10
 37.48335    112.4 1.111e+04 4.538e-10
 37.48533    112.2 1.113e+04 4.794e-10
 37.49600    112.2 1.118e+04 4.827e-10
 37.51572    111.9 1.116e+04 4.842e-10
 37.53183    111.5 1.111e+04 4.721e-10
 37.54250    110.9 1.116e+04 4.394e-10
 37.55840    110.3 1.110e+04 4.201e-10
 37.57832    110.0 1.105e+04 4.101e-10
 37.58900    109.8 1.106e+04 3.974e-10
 37.60109    109.0 1.108e+04 4.034e-10
 37.62243    108.7 1.109e+04 4.063e-10
 37.63549    107.8 1.114e+04 4.077e-10
 37.65049    107.8 1.115e+04 3.729e-10
 37.66954    107.7 1.106e+04 3.400e-10
 37.69732    106.7 1.095e+04 3.165e-10
 37.72868    106.0 1.057e+04 2.510e-10
 37.75002    105.6 1.068e+04 2.669e-10
 37.78269    104.9 1.027e+04 2.022e-10
 37.82167    104.3 9.868e+03 1.561e-10
 37.84302    104.2 1.017e+04 2.225e-10
 37.86806    103.9 9.867e+03 2.094e-10
 37.91075    103.6 9.846e+03 2.121e-10
 37.93601    103.3 9.828e+03 2.260e-10
 37.95735    103.3 9.958e+03 2.772e-10
 37.99612    103.0 9.867e+03 2.609e-10
 38.02019    102.6 9.761e+03 2.328e-10
 38.03173    103.3 9.755e+03 2.284e-10
 38.05034    103.2 9.718e+03 2.038e-10
 38.08148    102.2 9.489e+03 1.793e-10
 38.12199    101.3 9.452e+03 1.810e-10
 38.14334    101.4 9.422e+03 1.810e-10
 38.16685    100.7 9.417e+03 2.095e-10
 38.20954    100.0 9.590e+03 2.838e-10
 38.23633     99.1 9.831e+03 3.845e-10
 38.25767     99.8 9.918e+03 4.132e-10
 38.29491     98.7 1.007e+04 5.128e-10
 38.32932     97.2 1.005e+04 5.297e-10
 38.35066     98.0 1.024e+04 6.254e-10
 38.37084     96.4 1.016e+04 5.961e-10
 38.39218     96.7 9.732e+03 4.369e-10
 38.42231     94.9 9.441e+03 3.598e-10
 38.44366     95.8 9.634e+03 4.139e-10
 38.46564     94.1 9.298e+03 3.274e-10
 38.50833     92.5 9.071e+03 2.936e-10
 38.53665     91.3 8.939e+03 2.836e-10
 38.55799     92.1 8.804e+03 2.566e-10
 38.59370     91.8 8.736e+03 2.550e-10
 38.62964     91.9 8.677e+03 2.533e-10
 38.65098     92.7 8.626e+03 2.395e-10
 38.67907     92.9 8.589e+03 2.487e-10
 38.72149     93.3 8.544e+03 2.465e-10
 38.74283     94.3 8.425e+03 2.149e-10
 38.74398     94.9 8.307e+03 1.951e-10
 38.76532     95.7 8.424e+03 2.219e-10
 38.80712     96.4 8.302e+03 1.992e-10
 38.83697     97.3 8.159e+03 1.707e-10
 38.85831     98.1 8.314e+03 2.056e-10
 38.89249     99.1 8.177e+03 1.782e-10
 38.92996    100.1 8.080e+03 1.596e-10
 38.95130    101.0 8.241e+03 1.954e-10
 38.97786    102.2 8.187e+03 1.814e-10
 39.02054    103.3 8.159e+03 1.730e-10
 39.04430    104.5 8.154e+03 1.699e-10
 39.06564    105.4 8.237e+03 1.848e-10
 39.09348    106.6 8.187e+03 1.732e-10
 39.11482    107.3 8.221e+03 1.794e-10
 39.13729    108.5 8.219e+03 1.768e-10
 39.15863    109.3 8.204e+03 1.706e-10
 39.19128    110.6 8.205e+03 1.679e-10
 39.23028    111.8 8.226e+03 1.704e-10
 39.25163    112.5 8.164e+03 1.558e-10
 39.27665    113.7 8.203e+03 1.597e-10
 39.31933    114.9 8.314e+03 1.742e-10
 39.34462    116.0 8.473e+03 2.007e-10
 39.36596    116.6 8.376e+03 1.785e-10
 39.40470    117.7 8.594e+03 2.192e-10
 39.43761    118.7 8.847e+03 2.773e-10
 39.45570    119.2 8.815e+03 2.633e-10
 39.46547    119.9 9.013e+03 3.128e-10
 39.49007    120.9 9.316e+03 3.863e-10
 39.53060    121.7 9.512e+03 4.192e-10
 39.55195    122.0 9.484e+03 4.075e-10
 39.57544    122.5 9.490e+03 4.028e-10
 39.61813    122.9 9.462e+03 3.762e-10
 39.64494    123.2 9.363e+03 3.214e-10
 39.66628    123.2 9.361e+03 3.153e-10
 39.70349    123.4 9.216e+03 2.581e-10
 39.73793    123.8 9.183e+03 2.444e-10
 39.75927    123.8 9.220e+03 2.533e-10
 39.78886    124.2 9.289e+03 2.624e-10
 39.81612    124.2 9.561e+03 3.127e-10
 39.83684    124.8 9.478e+03 2.807e-10
 39.85227    124.9 9.534e+03 2.957e-10
 39.87423    124.5 9.849e+03 3.789e-10
 39.89867    124.1 1.014e+04 4.707e-10
 39.90924    124.3 1.010e+04 4.657e-10
 39.92739    124.1 1.038e+04 5.532e-10
 39.94506    123.7 1.061e+04 5.947e-10
 39.95573    124.0 1.058e+04 5.901e-10
 39.97008    123.4 1.060e+04 5.855e-10
 39.99125    122.7 1.059e+04 5.567e-10
 40.00192    122.7 1.059e+04 5.552e-10
 40.00223    121.7 1.053e+04 5.082e-10
 40.01290    122.1 1.048e+04 5.040e-10
 40.03410    121.1 1.045e+04 4.844e-10
 40.04873    120.1 1.047e+04 4.868e-10
 40.05940    120.6 1.046e+04 4.875e-10
 40.07679    119.7 1.057e+04 5.061e-10
 40.09522    118.7 1.081e+04 5.672e-10
 40.10590    119.4 1.079e+04 5.790e-10
 40.11947    118.4 1.106e+04 6.990e-10
 40.14081    117.3 1.139e+04 8.796e-10
 40.15239    116.2 1.175e+04 1.122e-09
 40.16306    117.1 1.179e+04 1.160e-09
 40.17725    116.1 1.215e+04 1.455e-09
 40.18792    115.7 1.244e+04 1.691e-09
 40.19889    114.7 1.261e+04 1.823e-09
 40.20956    115.6 1.280e+04 2.018e-09
 40.22618    114.6 1.279e+04 1.997e-09
 40.24538    113.8 1.259e+04 1.823e-09
 40.25606    114.8 1.284e+04 2.061e-09
 40.26887    114.2 1.238e+04 1.656e-09
 40.29021    113.6 1.173e+04 1.200e-09
 40.30255    112.7 1.103e+04 8.523e-10
 40.31322    113.8 1.128e+04 9.614e-10
 40.33289    112.9 1.058e+04 7.345e-10
 40.34905    112.5 1.037e+04 7.019e-10
 40.35806    113.3 1.040e+04 7.237e-10
 40.36324    112.7 1.035e+04 7.040e-10
 40.37558    112.7 1.036e+04 7.086e-10
 40.39554    112.6 1.045e+04 7.412e-10
 40.40622    113.6 1.038e+04 7.280e-10
 40.41826    113.3 1.069e+04 7.975e-10
 40.43961    111.1 1.247e+04 1.255e-09
 40.45271    108.0 1.525e+04 2.863e-09
 40.46338    107.5 1.565e+04 2.581e-09
 40.48229    103.4 1.854e+04 6.365e-09
 40.49825     99.3 2.025e+04 1.195e-08
 40.50445     96.4 2.092e+04 2.295e-08
 40.50978     95.8 2.062e+04 2.382e-08
 40.51954     95.6 2.104e+04 4.395e-08
 40.52769     96.3 2.082e+04 7.081e-08
 40.53303     96.1 2.056e+04 6.957e-08
 40.53847     97.2 2.070e+04 8.140e-08
 40.54381     97.4 2.037e+04 5.314e-08
 40.55094     97.9 2.075e+04 4.568e-08
 40.55628     97.6 2.066e+04 3.943e-08
 40.56223     97.4 2.150e+04 2.564e-08
 40.57290     95.9 2.316e+04 1.276e-08
 40.57953     90.9 2.467e+04 4.759e-09
 40.58486     88.4 2.295e+04 3.781e-09
 40.59424     81.8 1.974e+04 1.728e-09
 40.60282     74.2 1.377e+04 1.275e-09
 40.61354     75.0 1.368e+04 1.170e-09
 40.63169     71.4 1.083e+04 8.711e-10
 40.64937     71.3 1.086e+04 8.895e-10
 40.66004     71.3 1.049e+04 7.140e-10
 40.67437     71.5 1.058e+04 7.707e-10
 40.69571     71.7 1.075e+04 8.440e-10
 40.70654     72.0 1.086e+04 8.661e-10
 40.71405     72.0 1.035e+04 6.520e-10
 40.72457     72.7 1.021e+04 5.922e-10
 40.73840     72.6 1.026e+04 5.942e-10
 40.75303     72.6 1.036e+04 6.069e-10
 40.77447     72.4 9.944e+03 4.451e-10
 40.81329     73.2 9.797e+03 4.156e-10
 40.84622     74.1 9.824e+03 4.200e-10
 40.86756     75.4 9.386e+03 3.108e-10
 40.88941     76.4 9.632e+03 3.652e-10
 40.91076     77.6 9.726e+03 3.888e-10
 40.93921     78.5 1.005e+04 4.966e-10
 40.96056     79.7 9.602e+03 3.520e-10
 40.98403     80.7 1.002e+04 4.954e-10
 41.00695     81.1 1.030e+04 6.359e-10
 41.01753     81.4 1.012e+04 5.511e-10
 41.03719     82.1 1.028e+04 6.382e-10
 41.05335     82.8 1.028e+04 6.317e-10
 41.06402     83.3 1.012e+04 5.643e-10
 41.07522     83.7 1.019e+04 5.798e-10
 41.08589     84.0 1.015e+04 5.636e-10
 41.11198     85.0 1.005e+04 5.178e-10
 41.14654     86.1 9.746e+03 3.956e-10
 41.16788     86.9 9.954e+03 4.790e-10
 41.19745     87.9 9.626e+03 3.506e-10
 41.23953     88.8 9.215e+03 2.371e-10
 41.26081     89.4 9.463e+03 2.966e-10
 41.28275     90.9 9.175e+03 2.162e-10
 41.32550     91.9 8.975e+03 1.772e-10
 41.35387     93.3 8.949e+03 1.742e-10
 41.37521     93.6 8.997e+03 1.806e-10
 41.41087     95.2 8.997e+03 1.807e-10
 41.44686     96.8 9.031e+03 1.842e-10
 41.46820     97.0 9.109e+03 1.972e-10
 41.49624     98.6 9.227e+03 2.109e-10
 41.53893    100.2 9.396e+03 2.310e-10
 41.56120    102.0 9.635e+03 2.615e-10
 41.58254    102.0 9.904e+03 3.138e-10
 41.61206    103.2 1.010e+04 3.643e-10
 41.63340    104.1 1.005e+04 3.436e-10
 41.65409    104.6 1.013e+04 3.833e-10
 41.66467    104.6 1.023e+04 4.104e-10
 41.67746    105.6 1.037e+04 4.666e-10
 41.69880    106.6 1.074e+04 5.748e-10
 41.71116    107.1 1.119e+04 7.286e-10
 41.72183    107.2 1.118e+04 7.060e-10
 41.74148    107.2 1.166e+04 8.898e-10
 41.75766    107.0 1.230e+04 1.193e-09
 41.76833    107.0 1.205e+04 9.942e-10
 41.78417    106.3 1.275e+04 1.390e-09
 41.79786    105.4 1.346e+04 2.021e-09
 41.80717    105.6 1.352e+04 2.149e-09
 41.81483    105.3 1.335e+04 1.940e-09
 41.82685    104.4 1.383e+04 2.663e-09
 41.84819    103.6 1.388e+04 2.788e-09
 41.86132    102.8 1.373e+04 2.641e-09
 41.87199    102.7 1.379e+04 2.744e-09
 41.89088    102.2 1.333e+04 2.228e-09
 41.90782    101.4 1.263e+04 1.495e-09
 41.91849    101.5 1.278e+04 1.570e-09
 41.93356    100.1 1.193e+04 9.310e-10
 41.95431     98.0 1.095e+04 5.599e-10
 41.96499     97.7 1.096e+04 5.534e-10
 41.97318     95.6 1.016e+04 3.906e-10
 41.98385     95.6 9.966e+03 3.478e-10
 41.99759     95.1 9.930e+03 3.221e-10
 42.01148     95.0 9.949e+03 3.224e-10
 42.02215     94.5 9.925e+03 3.250e-10
 42.04027     94.5 9.938e+03 3.207e-10
 42.05798     94.4 9.971e+03 3.220e-10
 42.06865     93.7 1.001e+04 3.461e-10
 42.08296     93.3 1.008e+04 3.563e-10
 42.10430     92.6 1.029e+04 3.940e-10
 42.11515     90.5 1.102e+04 5.408e-10
 42.12582     88.8 1.162e+04 7.307e-10
 42.14698     85.7 1.310e+04 1.406e-09
 42.15918     84.0 1.399e+04 2.475e-09
 42.16316     83.3 1.434e+04 2.980e-09
 42.17231     83.2 1.447e+04 3.358e-09
 42.18967     82.6 1.441e+04 3.343e-09
 42.20814     82.4 1.400e+04 2.667e-09
 42.21881     82.5 1.388e+04 2.390e-09
 42.23235     81.6 1.335e+04 1.455e-09
 42.25473     77.9 1.275e+04 5.612e-10
 42.27617     77.3 1.234e+04 3.952e-10
 42.30725     71.9 9.552e+03 2.603e-10
 42.33470     71.3 9.426e+03 2.644e-10
 42.35393     68.6 9.202e+03 2.334e-10
 42.36917     70.1 9.404e+03 2.488e-10
 42.39262     70.0 9.538e+03 2.721e-10
 42.43530     70.0 9.533e+03 2.868e-10
 42.46216     69.8 9.532e+03 3.030e-10
 42.48350     71.1 1.024e+04 4.216e-10
 42.52067     71.0 1.061e+04 5.338e-10
 42.55515     71.3 1.152e+04 7.433e-10
 42.57640     71.7 1.218e+04 9.960e-10
 42.59517     70.5 1.288e+04 1.338e-09
 42.61212     67.8 1.481e+04 2.290e-09
 42.62279     66.5 1.698e+04 3.669e-09
 42.63786     62.6 2.004e+04 7.699e-09
 42.65381     58.0 2.305e+04 1.451e-08
 42.66386     53.9 2.465e+04 2.613e-08
 42.66919     52.4 2.479e+04 3.949e-08
 42.67511     50.1 2.435e+04 6.029e-08
 42.68578     49.0 2.323e+04 8.247e-08
 42.69244     48.7 2.214e+04 8.419e-08
 42.69705     49.2 2.162e+04 9.328e-08
 42.70106     49.1 2.078e+04 6.183e-08
 42.70712     48.9 2.063e+04 4.488e-08
 42.71569     47.4 2.106e+04 2.960e-08
 42.72102     47.7 2.159e+04 2.570e-08
 42.72846     44.4 2.255e+04 1.449e-08
 42.73894     38.8 2.267e+04 7.419e-09
 42.74427     36.9 2.308e+04 5.532e-09
 42.74981     29.7 1.866e+04 3.011e-09
 42.76048     20.4 1.665e+04 2.978e-09
 42.76752     18.1 1.622e+04 2.935e-09
 42.77286     14.8 1.668e+04 3.184e-09
 42.78182      8.8 1.740e+04 4.930e-09
 42.78872      8.2 1.750e+04 5.144e-09
 42.79234      7.0 1.743e+04 5.200e-09
 42.79611      6.4 1.732e+04 5.405e-09
 42.80316      4.3 1.684e+04 6.857e-09
 42.81383      3.4 1.662e+04 6.885e-09
 42.81935      2.2 1.622e+04 6.836e-09
 42.82469      1.8 1.563e+04 5.685e-09
 42.83517      1.5 1.548e+04 5.554e-09
 42.85123     -0.8 1.595e+04 4.479e-09
 42.86595    -13.2 2.116e+04 4.233e-09
 42.87515    -19.5 2.037e+04 2.779e-09
 42.88182    -22.1 1.914e+04 2.550e-09
 42.89396    -38.7 1.785e+04 5.695e-09
 42.90992    -44.6 1.887e+04 1.011e-08
 42.91768    -46.1 1.951e+04 1.083e-08
 42.92302    -47.2 1.968e+04 1.077e-08
 42.93121    -52.9 2.126e+04 1.189e-08
 42.94093    -57.6 2.221e+04 1.161e-08
 42.94627    -59.3 2.238e+04 1.109e-08
 42.95256    -67.7 2.193e+04 7.143e-09
 42.96323    -73.6 2.201e+04 4.769e-09
 42.96956    -86.7 1.589e+04 2.302e-09
 42.98028    -91.7 1.443e+04 1.975e-09
 43.00067    -99.8 1.274e+04 1.458e-09
 43.01611   -103.6 1.255e+04 1.271e-09
 43.02678   -106.9 1.263e+04 1.255e-09
 43.04336   -111.1 1.217e+04 1.090e-09
 43.05714   -114.4 1.180e+04 9.415e-10
 43.06572   -112.6 1.159e+04 8.673e-10
 43.07328   -115.3 1.176e+04 9.036e-10
 43.08604   -117.7 1.163e+04 7.971e-10
 43.10739   -119.7 1.146e+04 7.058e-10
 43.11977   -121.5 1.130e+04 6.645e-10
 43.13044   -126.9 1.367e+04 8.278e-10
 43.15007   -132.9 1.785e+04 1.189e-09
 43.16627   -138.6 2.058e+04 2.031e-09
 43.17694   -145.0 2.003e+04 4.306e-09
 43.18737   -144.4 1.943e+04 4.910e-09
 43.19475   -144.8 1.928e+04 5.439e-09
 43.20009   -145.3 1.916e+04 5.814e-09
 43.20866   -146.5 1.841e+04 7.852e-09
 43.21800   -147.0 1.796e+04 9.319e-09
 43.22339   -149.3 1.763e+04 8.925e-09
 43.23247   -148.8 1.827e+04 8.161e-09
 43.24314   -146.7 1.746e+04 8.507e-09
 43.25678   -146.1 1.818e+04 7.613e-09
 43.26993   -146.2 1.871e+04 6.492e-09
 43.28060   -152.5 1.774e+04 2.690e-09
 43.29947   -155.2 1.574e+04 1.712e-09
 43.31643   -157.5 1.349e+04 1.228e-09
 43.32710   -161.8 1.171e+04 8.758e-10
 43.34215   -161.7 1.164e+04 8.675e-10
 43.36292   -161.7 1.183e+04 9.000e-10
 43.37360   -162.8 1.220e+04 9.031e-10
 43.38483   -163.1 1.239e+04 9.495e-10
 43.40618   -163.8 1.280e+04 1.144e-09
 43.41846   -165.3 1.326e+04 1.430e-09
 43.42171   -163.0 1.288e+04 1.211e-09
 43.43076   -164.7 1.306e+04 1.272e-09
 43.44886   -166.4 1.312e+04 1.517e-09
 43.46659   -167.7 1.320e+04 1.615e-09
 43.47726   -169.3 1.326e+04 1.741e-09
 43.49155   -170.3 1.295e+04 1.621e-09
 43.51289   -171.4 1.255e+04 1.339e-09
 43.52376   -172.6 1.224e+04 1.068e-09
 43.53443   -173.7 1.219e+04 9.846e-10
 43.55557   -174.9 1.182e+04 8.424e-10
 43.57025   -175.7 1.155e+04 7.615e-10
 43.58092   -176.5 1.137e+04 7.225e-10
 43.59379   -176.7 1.117e+04 6.856e-10
 43.60446   -175.5 1.122e+04 6.699e-10
 43.61675   -175.7 1.105e+04 6.418e-10
 43.62742   -176.4 1.094e+04 6.182e-10
 43.64094   -176.4 1.082e+04 5.889e-10
 43.66228   -176.5 1.069e+04 5.612e-10
 43.67392   -176.6 1.057e+04 5.401e-10
 43.68459   -177.2 1.053e+04 5.328e-10
 43.70497   -177.2 1.044e+04 5.212e-10
 43.72041   -177.2 1.037e+04 5.170e-10
 43.73108   -177.9 1.056e+04 5.571e-10
 43.74765   -177.8 1.040e+04 5.597e-10
 43.76691   -177.6 1.025e+04 5.223e-10
 43.77768   -179.0 1.044e+04 5.799e-10
 43.80120   -176.5 9.799e+03 4.378e-10
 43.84389   -175.7 9.495e+03 3.640e-10
 43.87077   -174.1 8.979e+03 2.734e-10
 43.89211   -174.5 8.769e+03 2.436e-10
 43.92926   -172.7 8.387e+03 1.872e-10
 43.96376   -171.0 8.260e+03 1.644e-10
 43.98510   -170.9 8.139e+03 1.494e-10
 44.01463   -169.2 8.120e+03 1.450e-10
 44.05675   -167.5 8.119e+03 1.446e-10
 44.07810   -167.4 8.045e+03 1.347e-10
 44.09999   -165.9 8.119e+03 1.382e-10
 44.13063   -164.6 8.274e+03 1.555e-10
 44.15197   -163.8 8.338e+03 1.705e-10
 44.17109   -162.6 8.452e+03 1.903e-10
 44.19243   -162.9 8.468e+03 1.898e-10
 44.22805   -161.7 8.666e+03 2.299e-10
 44.26408   -160.7 8.859e+03 2.785e-10
 44.28542   -160.8 8.943e+03 3.056e-10
 44.31342   -159.7 9.183e+03 3.642e-10
 44.35610   -158.9 9.497e+03 4.419e-10
 44.37832   -158.0 9.788e+03 5.268e-10
 44.38889   -157.9 9.730e+03 5.263e-10
 44.40926   -158.1 9.809e+03 5.665e-10
 44.42472   -158.2 1.013e+04 7.005e-10
 44.43539   -158.0 1.006e+04 6.735e-10
 44.45195   -158.0 1.037e+04 8.047e-10
 44.47121   -157.9 1.067e+04 9.425e-10
 44.48188   -157.7 1.060e+04 8.928e-10
 44.49176   -157.6 1.083e+04 1.009e-09
 44.50243   -157.3 1.106e+04 1.149e-09
 44.51597   -157.2 1.124e+04 1.262e-09
 44.52838   -157.1 1.128e+04 1.295e-09
 44.53905   -156.9 1.119e+04 1.220e-09
 44.55866   -156.8 1.118e+04 1.223e-09
 44.57488   -156.4 1.094e+04 1.120e-09
 44.58555   -156.3 1.088e+04 1.070e-09
 44.60134   -155.8 1.056e+04 8.664e-10
 44.62137   -155.5 1.016e+04 6.423e-10
 44.63205   -155.4 1.014e+04 6.541e-10
 44.64403   -155.2 9.717e+03 4.834e-10
 44.66537   -155.1 9.374e+03 3.815e-10
 44.67864   -154.9 9.106e+03 3.137e-10
 44.70008   -154.1 9.200e+03 3.444e-10
 44.74026   -152.9 8.728e+03 2.416e-10
 44.77173   -151.1 8.262e+03 1.678e-10
 44.79307   -150.6 8.409e+03 2.032e-10
 44.82563   -148.8 8.216e+03 1.626e-10
 44.85327   -147.1 8.201e+03 1.534e-10
 44.87102   -146.2 8.193e+03 1.530e-10
 44.88606   -145.8 8.366e+03 1.818e-10
 44.91100   -144.3 8.384e+03 1.805e-10
 44.95368   -142.9 8.614e+03 1.929e-10
 44.97906   -141.7 8.889e+03 2.324e-10
 45.00040   -141.6 9.046e+03 2.600e-10
 45.03905   -140.4 9.268e+03 3.076e-10
 45.07205   -139.2 9.481e+03 3.520e-10
 45.09339   -139.2 9.652e+03 3.826e-10
 45.12442   -138.1 9.837e+03 3.951e-10
 45.16504   -137.1 9.870e+03 3.991e-10
 45.18639   -137.1 1.004e+04 4.647e-10
 45.20392   -136.0 1.005e+04 4.435e-10
 45.22526   -135.3 9.904e+03 4.183e-10
 45.25248   -134.0 9.856e+03 3.639e-10
 45.27938   -132.6 9.802e+03 3.079e-10
 45.30072   -132.4 9.892e+03 3.309e-10
 45.33784   -131.0 9.756e+03 2.639e-10
 45.37237   -129.6 9.596e+03 2.157e-10
 45.39371   -129.2 9.662e+03 2.348e-10
 45.42321   -127.8 9.555e+03 2.048e-10
 45.46536   -126.2 9.543e+03 1.971e-10
 45.48671   -125.6 9.633e+03 2.064e-10
 45.50858   -124.1 9.653e+03 2.067e-10
 45.55127   -122.9 9.825e+03 2.138e-10
 45.57591   -121.9 9.997e+03 2.188e-10
 45.58300   -120.8 9.880e+03 1.996e-10
 45.60104   -120.4 1.007e+04 2.310e-10
 45.63664   -119.8 1.023e+04 2.435e-10
 45.67269   -119.4 1.029e+04 2.445e-10
 45.69403   -119.0 1.062e+04 3.253e-10
 45.72200   -118.7 1.065e+04 3.239e-10
 45.76469   -118.5 1.065e+04 2.852e-10
 45.78703   -118.2 1.052e+04 2.321e-10
 45.80837   -117.4 1.067e+04 3.129e-10
 45.85006   -117.0 1.037e+04 2.278e-10
 45.88002   -116.4 1.012e+04 1.703e-10
 45.90136   -115.6 1.014e+04 1.933e-10
 45.92656   -114.9 1.002e+04 1.643e-10
 45.94790   -114.3 1.003e+04 1.499e-10
 45.97301   -113.5 1.002e+04 1.470e-10
 45.99435   -112.6 1.006e+04 1.601e-10
 46.02080   -112.0 1.018e+04 1.751e-10
 46.06348   -111.8 1.037e+04 2.337e-10
 46.08735   -111.5 1.046e+04 3.101e-10
 46.10869   -110.8 1.062e+04 3.406e-10
 46.14885   -110.6 1.070e+04 4.363e-10
 46.18034   -110.4 1.070e+04 4.928e-10
 46.20168   -109.5 1.094e+04 5.755e-10
 46.23422   -109.2 1.091e+04 6.111e-10
 46.27333   -108.6 1.066e+04 5.592e-10
 46.29467   -107.7 1.084e+04 6.372e-10
 46.29846   -106.5 1.045e+04 5.029e-10
 46.31980   -106.2 1.026e+04 4.336e-10
 46.36227   -105.1 9.896e+03 3.381e-10
 46.38767   -103.8 9.475e+03 2.524e-10
 46.40901   -102.8 9.604e+03 2.909e-10
 46.44764   -101.2 9.168e+03 2.083e-10
 46.48066    -99.4 8.838e+03 1.500e-10
 46.50200    -98.4 8.885e+03 1.578e-10
 46.53301    -96.8 8.691e+03 1.254e-10
 46.57365    -95.2 8.601e+03 1.084e-10
 46.59499    -94.4 8.620e+03 1.223e-10
 46.61838    -92.7 8.537e+03 1.184e-10
 46.64920    -90.8 8.475e+03 1.178e-10
 46.67055    -89.8 8.499e+03 1.157e-10
 46.68799    -88.0 8.469e+03 1.163e-10
 46.70933    -87.2 8.536e+03 1.422e-10
 46.74643    -85.4 8.525e+03 1.429e-10
 46.78098    -83.4 8.450e+03 1.355e-10
 46.80232    -82.7 8.471e+03 1.489e-10
 46.83180    -80.8 8.406e+03 1.299e-10
 46.87397    -78.9 8.361e+03 1.120e-10
 46.89532    -78.2 8.328e+03 1.252e-10
 46.91717    -76.3 8.308e+03 1.166e-10
 46.95985    -74.4 8.301e+03 1.137e-10
 46.98831    -72.4 8.299e+03 1.139e-10
 47.00696    -71.5 8.311e+03 1.363e-10
 47.02120    -70.9 8.280e+03 1.257e-10
 47.04522    -68.9 8.273e+03 1.242e-10
 47.08130    -66.7 8.267e+03 1.217e-10
 47.10264    -65.6 8.295e+03 1.283e-10
 47.13059    -63.6 8.292e+03 1.207e-10
 47.17328    -61.5 8.297e+03 1.187e-10
 47.19564    -59.8 8.387e+03 1.207e-10
 47.21698    -58.8 8.296e+03 1.070e-10
 47.25865    -57.2 8.442e+03 1.201e-10
 47.28863    -56.0 8.597e+03 1.686e-10
 47.30997    -54.9 8.603e+03 1.249e-10
 47.34401    -54.2 8.989e+03 1.772e-10
 47.37184    -53.9 9.603e+03 2.817e-10
 47.38811    -53.0 1.009e+04 4.940e-10
 47.40296    -52.5 1.002e+04 3.757e-10
 47.42938    -52.6 1.079e+04 6.736e-10
 47.47207    -53.0 1.130e+04 1.053e-09
 47.49586    -53.1 1.078e+04 8.900e-10
 47.51720    -52.4 1.075e+04 6.600e-10
 47.55744    -53.4 1.050e+04 5.405e-10
 47.58895    -55.3 1.037e+04 4.592e-10
 47.61029    -55.0 9.358e+03 2.352e-10
 47.64281    -56.3 9.220e+03 2.527e-10
 47.68194    -56.3 9.537e+03 3.494e-10
 47.70328    -54.6 9.152e+03 2.607e-10
 47.72249    -53.8 9.339e+03 2.936e-10
 47.74384    -53.5 9.324e+03 2.826e-10
 47.77086    -52.2 9.489e+03 2.713e-10
 47.79628    -50.8 9.717e+03 2.450e-10
 47.81762    -49.0 9.024e+03 1.911e-10
 47.85623    -47.7 9.252e+03 1.586e-10
 47.88927    -46.5 9.503e+03 1.546e-10
 47.91061    -44.5 9.022e+03 1.469e-10
 47.94160    -43.2 9.121e+03 1.392e-10
 47.98226    -41.9 9.480e+03 1.638e-10
 48.00360    -39.8 9.063e+03 1.433e-10
 48.02697    -38.4 9.304e+03 1.468e-10
 48.06965    -37.0 9.474e+03 1.913e-10
 48.09449    -35.3 9.659e+03 2.633e-10
 48.10009    -34.2 9.610e+03 2.633e-10
 48.11794    -32.9 9.457e+03 1.564e-10
 48.15502    -31.1 9.546e+03 1.996e-10
 48.18959    -29.2 9.760e+03 2.595e-10
 48.21093    -27.8 9.467e+03 1.647e-10
 48.24039    -26.0 9.601e+03 1.982e-10
 48.28258    -24.1 1.004e+04 2.494e-10
 48.30393    -22.9 9.576e+03 1.824e-10
 48.32576    -21.1 9.823e+03 1.942e-10
 48.36844    -19.6 1.038e+04 2.281e-10
 48.39692    -18.3 1.102e+04 3.623e-10
 48.41826    -17.2 1.015e+04 2.240e-10
 48.44514    -15.7 1.063e+04 3.167e-10
 48.46648    -14.6 1.069e+04 3.114e-10
 48.48991    -12.4 1.116e+04 5.763e-10
 48.51125    -11.7 1.026e+04 2.964e-10
 48.53918     -9.0 1.081e+04 3.980e-10
 48.58186     -6.6 1.162e+04 5.022e-10
 48.60425     -5.2 1.249e+04 6.202e-10
 48.62559     -4.8 1.065e+04 1.627e-10
 48.66723     -3.3 1.123e+04 1.869e-10
 48.69724     -1.4 1.184e+04 3.172e-10
 48.71858     -1.2 9.804e+03 1.066e-10
 48.75260      0.3 1.000e+04 1.438e-10
 48.79023      2.7 1.058e+04 2.378e-10
 48.81157      3.3 9.438e+03 1.193e-10
 48.81713      5.8 9.694e+03 1.467e-10
 48.83847      6.4 9.786e+03 1.439e-10
 48.88066      8.8 1.026e+04 1.546e-10
 48.90457     10.9 1.064e+04 1.829e-10
 48.92591     12.1 9.910e+03 1.133e-10
 48.96602     13.9 1.013e+04 1.254e-10
 48.99756     15.6 1.104e+04 2.800e-10
 49.01890     16.5 1.032e+04 1.405e-10
 49.05139     16.5 1.172e+04 3.623e-10
 49.08331     16.6 1.356e+04 5.306e-10
 49.10103      9.9 2.041e+04 2.752e-09
 49.11170     12.1 1.738e+04 1.444e-09
 49.12590      9.1 2.212e+04 6.389e-09
 49.14185      8.0 2.072e+04 1.654e-08
 49.15248      8.7 2.004e+04 3.457e-08
 49.15810      9.3 2.008e+04 6.607e-08
 49.16343      9.0 2.129e+04 3.741e-08
 49.17282      7.3 2.350e+04 5.476e-08
 49.17816      9.7 2.200e+04 9.731e-08
 49.18135      6.6 2.414e+04 9.635e-08
 49.18668      4.3 2.771e+04 4.304e-08
 49.19516     -2.1 2.379e+04 5.679e-08
 49.20459     -4.4 2.181e+04 6.445e-08
 49.20993     -5.5 2.150e+04 5.793e-08
 49.21650     -6.1 2.036e+04 6.118e-08
 49.22717     -5.4 2.026e+04 5.896e-08
 49.23318     -4.5 2.060e+04 4.509e-08
 49.23851     -4.6 2.053e+04 6.061e-08
 49.24852     -3.7 2.076e+04 4.160e-08
 49.25643     -3.6 2.072e+04 2.518e-08
 49.26176     -3.2 2.086e+04 3.615e-08
 49.26582     -3.2 2.084e+04 2.183e-08
 49.27115     -2.9 2.195e+04 1.889e-08
 49.27967     -4.2 2.089e+04 9.991e-09
 49.28501     -2.2 2.179e+04 1.716e-08
 49.29658     -4.7 1.930e+04 6.864e-09
 49.30836     -6.7 1.632e+04 2.097e-09
 49.31903     -3.6 1.889e+04 5.167e-09
 49.33932     -6.3 1.518e+04 1.424e-09
 49.35358     -7.8 1.220e+04 6.815e-10
 49.35844     -7.9 1.173e+04 6.050e-10
 49.36552     -7.1 1.264e+04 7.489e-10
 49.38200     -6.9 1.163e+04 5.358e-10
 49.40135     -6.2 1.144e+04 4.620e-10
 49.41202     -6.2 1.161e+04 4.964e-10
 49.42469     -5.7 1.144e+04 4.505e-10
 49.44603     -5.3 1.144e+04 4.444e-10
 49.45852     -5.8 1.206e+04 4.966e-10
 49.46919     -7.3 1.265e+04 6.607e-10
 49.48871     -9.6 1.347e+04 1.159e-09
 49.50501    -11.2 1.417e+04 2.265e-09
 49.51568    -11.0 1.400e+04 2.714e-09
 49.52890    -10.9 1.470e+04 4.305e-09
 49.53957    -11.2 1.454e+04 3.924e-09
 49.55151    -10.5 1.519e+04 5.479e-09
 49.56218    -10.4 1.487e+04 4.769e-09
 49.57408    -10.2 1.503e+04 4.821e-09
 49.59543    -10.3 1.474e+04 3.710e-09
 49.60868    -11.4 1.398e+04 2.375e-09
 49.61935    -12.7 1.315e+04 1.803e-09
 49.63811    -14.0 1.230e+04 1.266e-09
 49.65517    -14.3 1.181e+04 1.016e-09
 49.66584    -14.3 1.167e+04 9.514e-10
 49.68079    -14.0 1.145e+04 8.552e-10
 49.70167    -13.4 1.134e+04 8.088e-10
 49.71234    -13.2 1.123e+04 7.924e-10
 49.71490    -12.5 1.118e+04 7.814e-10
 49.72557    -11.9 1.105e+04 7.052e-10
 49.74482    -11.1 1.099e+04 7.001e-10
 49.75884    -10.1 1.097e+04 7.021e-10
 49.76951     -9.7 1.100e+04 7.265e-10
 49.78751     -8.7 1.099e+04 7.306e-10
 49.80533     -7.8 1.096e+04 7.191e-10
 49.81600     -7.4 1.096e+04 7.148e-10
 49.83019     -6.4 1.092e+04 6.910e-10
 49.85153     -5.5 1.083e+04 6.566e-10
 49.86250     -4.7 1.071e+04 6.086e-10
 49.87317     -4.3 1.072e+04 5.985e-10
 49.89032     -3.6 1.053e+04 5.361e-10
 49.90099     -2.8 1.077e+04 6.554e-10
 49.90900     -2.0 1.064e+04 6.098e-10
 49.91967     -1.6 1.069e+04 6.292e-10
 49.93690     -0.9 1.054e+04 5.897e-10
 49.95549      0.1 1.037e+04 5.479e-10
 49.96616      0.6 1.041e+04 5.762e-10
 49.97959      1.4 1.032e+04 5.491e-10
 50.00093      2.4 1.015e+04 5.074e-10
 50.01276      3.8 1.005e+04 4.456e-10
 50.02343      4.1 1.013e+04 4.980e-10
 50.04361      4.7 9.997e+03 4.662e-10
 50.07572      7.2 9.780e+03 3.739e-10
 50.10585      8.3 9.572e+03 2.810e-10
 50.12719      9.7 9.694e+03 2.662e-10
 50.16119      9.8 9.557e+03 2.176e-10
 50.19884      9.9 9.540e+03 2.751e-10
 50.22018     10.1 9.543e+03 2.775e-10
 50.24107     10.4 9.819e+03 4.659e-10
 50.26241     12.4 1.048e+04 5.719e-10
 50.28924     12.5 1.076e+04 7.557e-10
 50.31308     11.8 1.094e+04 8.501e-10
 50.32365     11.6 1.107e+04 9.324e-10
 50.34240     11.1 1.128e+04 9.873e-10
 50.35948      9.8 1.146e+04 1.072e-09
 50.37015      9.4 1.145e+04 1.083e-09
 50.38509      8.3 1.177e+04 1.213e-09
 50.40597      6.9 1.204e+04 1.373e-09
 50.41664      6.3 1.196e+04 1.334e-09
 50.42687      5.1 1.224e+04 1.550e-09
 50.43754      5.2 1.225e+04 1.512e-09
 50.45988      3.7 1.257e+04 1.847e-09
 50.49916      2.1 1.278e+04 2.082e-09
 50.52050      1.8 1.246e+04 1.848e-09
 50.54535      0.8 1.217e+04 1.654e-09
 50.58803      0.0 1.130e+04 9.573e-10
 50.61306     -1.4 1.058e+04 5.621e-10
 50.61718     -2.4 1.088e+04 6.763e-10
 50.63484     -2.6 1.066e+04 5.703e-10
 50.65990     -3.7 1.057e+04 5.489e-10
 50.67047     -3.4 1.046e+04 5.129e-10
 50.68388     -4.2 1.070e+04 6.004e-10
 50.70639     -5.2 1.112e+04 8.634e-10
 50.72783     -4.3 1.117e+04 8.845e-10
 50.75877     -4.5 1.165e+04 1.208e-09
 50.78829     -4.4 1.175e+04 1.299e-09
 50.79886     -4.4 1.161e+04 1.245e-09
 50.80996     -4.1 1.127e+04 1.009e-09
 50.82063     -3.7 1.111e+04 9.031e-10
 50.83327     -4.1 1.077e+04 6.697e-10
 50.85462     -4.9 1.049e+04 5.041e-10
 50.86713     -5.8 1.010e+04 3.889e-10
 50.87780     -5.5 1.015e+04 4.057e-10
 50.89730     -5.9 9.993e+03 3.653e-10
 50.91362     -6.3 9.864e+03 3.408e-10
 50.92429     -5.6 9.979e+03 3.793e-10
 50.93999     -5.8 1.003e+04 3.805e-10
 50.96012     -6.4 1.022e+04 4.088e-10
 50.97079     -5.9 1.050e+04 4.880e-10
 50.97419     -6.8 1.079e+04 6.242e-10
 50.98486     -5.9 1.065e+04 5.712e-10
 51.00401     -6.6 1.094e+04 7.502e-10
 51.01729     -7.0 1.118e+04 9.988e-10
 51.02796     -6.5 1.165e+04 1.271e-09
 51.04670     -6.4 1.197e+04 1.619e-09
 51.06378     -6.0 1.221e+04 1.808e-09
 51.07445     -5.6 1.267e+04 2.173e-09
 51.08938     -5.5 1.269e+04 2.188e-09
 51.11028     -5.7 1.244e+04 1.859e-09
 51.12095     -5.7 1.290e+04 2.157e-09
 51.13207     -6.3 1.246e+04 1.668e-09
 51.14951     -7.2 1.193e+04 1.295e-09
 51.16018     -6.3 1.213e+04 1.530e-09
 51.16745     -6.8 1.167e+04 1.250e-09
 51.17812     -7.1 1.215e+04 1.517e-09
 51.19609     -7.3 1.176e+04 1.253e-09
 51.21394     -7.3 1.144e+04 1.045e-09
 51.22461     -7.3 1.188e+04 1.225e-09
 51.23878     -7.1 1.148e+04 9.996e-10
 51.27089     -7.3 1.097e+04 7.995e-10
 51.30713     -5.8 1.024e+04 5.581e-10
 51.32847     -5.9 1.013e+04 5.103e-10
 51.33570     -3.9 9.461e+03 3.253e-10
 51.35704     -3.0 9.778e+03 3.848e-10
 51.39904     -1.3 9.404e+03 2.954e-10
 51.42147      0.6 9.285e+03 2.776e-10
 51.44281      0.6 9.107e+03 2.046e-10
 51.48441      2.6 9.113e+03 2.148e-10
 51.51446      4.7 9.365e+03 2.892e-10
 51.53580      4.5 9.362e+03 2.617e-10
 51.56978      6.4 9.846e+03 4.015e-10
 51.60745      7.7 1.091e+04 6.798e-10
 51.62879      6.1 1.162e+04 9.682e-10
 51.64438      7.4 1.247e+04 1.375e-09
 51.66442      6.7 1.315e+04 2.131e-09
 51.67509      6.5 1.311e+04 2.099e-09
 51.68616      6.8 1.395e+04 3.774e-09
 51.69683      7.6 1.362e+04 2.615e-09
 51.70831      7.5 1.421e+04 4.136e-09
 51.72159      8.9 1.485e+04 5.954e-09
 51.73226      8.8 1.447e+04 4.427e-09
 51.75099      9.9 1.503e+04 5.016e-09
 51.76809      9.9 1.556e+04 4.784e-09
 51.77876      6.8 1.508e+04 2.854e-09
 51.79368      3.6 1.513e+04 2.752e-09
 51.81458      0.0 1.468e+04 2.868e-09
 51.82525     -3.1 1.448e+04 2.928e-09
 51.83636     -4.1 1.425e+04 3.206e-09
 51.85770     -4.4 1.407e+04 3.277e-09
 51.87175     -4.2 1.371e+04 2.881e-09
 51.87553     -5.0 1.332e+04 2.583e-09
 51.88282     -4.7 1.357e+04 2.726e-09
 51.90039     -7.0 1.326e+04 1.757e-09
 51.91825    -11.7 1.244e+04 1.154e-09
 51.92892    -12.6 1.211e+04 1.178e-09
 51.94307    -15.2 1.213e+04 1.091e-09
 51.96441    -17.7 1.212e+04 1.058e-09
 51.99652    -20.0 1.209e+04 1.115e-09
 52.02211    -22.8 1.187e+04 1.175e-09
 52.04114    -20.7 1.196e+04 1.244e-09
 52.05834    -22.0 1.215e+04 1.444e-09
 52.08199    -23.2 1.112e+04 9.409e-10
 52.11510    -23.6 1.005e+04 5.360e-10
 52.13644    -22.0 1.041e+04 6.091e-10
 52.16736    -22.3 9.400e+03 3.418e-10
 52.20809    -21.8 8.925e+03 2.290e-10
 52.22943    -20.4 9.248e+03 2.774e-10
 52.25273    -19.4 8.953e+03 2.202e-10
 52.29541    -18.2 8.805e+03 2.008e-10
 52.32243    -16.8 8.787e+03 2.005e-10
 52.34377    -15.9 9.007e+03 2.271e-10
 52.38078    -14.7 9.194e+03 2.750e-10
 52.40899    -13.5 9.442e+03 3.433e-10
 52.42229    -13.1 9.531e+03 3.707e-10
 52.43676    -12.6 9.811e+03 4.225e-10
 52.45538    -11.9 9.875e+03 4.624e-10
 52.47239    -11.6 9.905e+03 4.686e-10
 52.48306    -11.3 1.012e+04 5.473e-10
 52.49797    -10.8 1.017e+04 5.594e-10
 52.51889    -10.3 1.010e+04 5.349e-10
 52.52956    -10.0 1.039e+04 6.692e-10
 52.54065     -9.4 1.026e+04 6.170e-10
 52.56200     -8.8 1.012e+04 5.308e-10
 52.57606     -8.2 9.992e+03 4.445e-10
 52.58673     -7.9 1.032e+04 5.921e-10
 52.59479     -7.4 1.011e+04 4.812e-10
 52.60546     -7.1 1.004e+04 4.599e-10
 52.62265     -6.8 9.780e+03 3.509e-10
 52.63332     -6.1 1.008e+04 4.488e-10
 52.64736     -5.7 9.907e+03 3.759e-10
 52.66871     -5.3 9.757e+03 3.335e-10
 52.67972     -5.0 9.700e+03 3.237e-10
 52.69039     -4.5 9.772e+03 3.332e-10
 52.71564     -3.8 9.705e+03 3.225e-10
 52.73698     -3.3 9.777e+03 3.407e-10
 52.75408     -2.4 9.751e+03 3.409e-10
 52.77012     -2.0 9.727e+03 3.399e-10
 52.78089     -1.7 9.721e+03 3.176e-10
 52.80763     -0.2 9.709e+03 3.416e-10
 52.83008      1.3 9.698e+03 3.563e-10
 52.85142      1.4 1.011e+04 4.814e-10
 52.89300      2.5 1.003e+04 4.733e-10
 52.92307      3.7 1.007e+04 4.963e-10
 52.94441      3.4 1.015e+04 5.048e-10
 52.97836      4.8 1.004e+04 4.891e-10
 53.01028      6.1 9.728e+03 4.157e-10
 53.02654      7.1 9.578e+03 3.500e-10
 53.03721      6.9 9.521e+03 3.442e-10
 53.06364      7.5 9.444e+03 2.849e-10
 53.10642      9.1 8.891e+03 1.820e-10
 53.13040     11.0 8.511e+03 1.276e-10
 53.13427     11.1 8.537e+03 1.354e-10
 53.15298     11.6 8.640e+03 1.370e-10
 53.19179     13.5 8.428e+03 1.046e-10
 53.22339     15.4 8.336e+03 9.447e-11
 53.24473     15.4 8.646e+03 1.383e-10
 53.27716     17.3 8.727e+03 1.457e-10
 53.31638     19.1 8.763e+03 1.803e-10
 53.33772     19.6 9.149e+03 2.743e-10
 53.36252     21.9 9.149e+03 2.958e-10
 53.40521     24.1 9.151e+03 2.858e-10
 53.43072     25.8 9.189e+03 2.614e-10
 53.45206     25.8 9.289e+03 2.999e-10
 53.48228     27.4 9.205e+03 2.602e-10
 53.50363     27.4 9.602e+03 4.053e-10
 53.52371     29.4 9.443e+03 3.324e-10
 53.54505     30.0 9.354e+03 3.247e-10
 53.57595     31.6 9.193e+03 2.644e-10
 53.61670     33.3 9.267e+03 2.715e-10
 53.63804     34.3 9.240e+03 2.653e-10
 53.66132     35.2 9.578e+03 3.462e-10
 53.68444     36.0 1.016e+04 5.378e-10
 53.69502     36.6 1.032e+04 5.536e-10
 53.71448     37.4 1.060e+04 7.337e-10
 53.73084     38.4 1.094e+04 9.701e-10
 53.74151     38.9 1.128e+04 1.084e-09
 53.75716     40.5 1.143e+04 1.349e-09
 53.77734     42.5 1.153e+04 1.488e-09
 53.78801     42.5 1.194e+04 1.769e-09
 53.79985     38.5 2.004e+04 2.040e-09
 53.81121     24.9 3.938e+04 3.004e-09
 53.81650     19.9 4.236e+04 4.379e-09
 53.82643      8.3 3.712e+04 1.683e-08
 53.83441      5.7 2.708e+04 7.409e-08
 53.83974      4.9 2.407e+04 1.025e-07
 53.84777      3.3 2.178e+04 1.438e-07
 53.85398      2.4 2.179e+04 1.383e-07
 53.85853      3.7 2.210e+04 1.677e-07
 53.86299      2.9 2.227e+04 1.227e-07
 53.86911      0.8 2.510e+04 5.244e-08
 53.87978     -3.7 3.344e+04 1.491e-08
 53.88624    -12.1 4.561e+04 3.275e-09
 53.89158    -21.2 4.944e+04 1.074e-09
 53.90651    -45.4 3.182e+04 4.295e-10
 53.92750    -63.1 1.062e+04 3.562e-10
 53.93817    -62.5 9.774e+03 3.467e-10
 53.94924    -62.7 9.744e+03 3.450e-10
 53.97058    -62.8 9.790e+03 3.482e-10
 53.98467    -63.0 9.801e+03 3.536e-10
 53.99534    -62.4 9.771e+03 3.543e-10
 54.01327    -62.9 9.764e+03 3.559e-10
 54.03126    -63.7 9.631e+03 3.427e-10
 54.05270    -62.2 9.664e+03 3.608e-10
 54.08816    -62.6 9.417e+03 3.264e-10
 54.12435    -62.8 9.081e+03 2.666e-10
 54.14569    -61.5 9.054e+03 2.656e-10
 54.17353    -61.6 8.652e+03 1.909e-10
 54.20492    -61.6 8.426e+03 1.558e-10
 54.22627    -62.4 8.345e+03 1.493e-10
 54.23869    -61.9 8.210e+03 1.371e-10
 54.26003    -60.8 8.078e+03 1.178e-10
 54.30158    -59.7 8.001e+03 1.139e-10
 54.33168    -58.5 7.949e+03 1.118e-10
 54.35302    -57.3 7.875e+03 1.015e-10
 54.38695    -55.9 7.821e+03 9.746e-11
 54.42467    -54.3 7.769e+03 9.231e-11
 54.44601    -53.2 7.723e+03 8.331e-11
 54.47232    -51.7 7.698e+03 7.880e-11
 54.51501    -50.2 7.699e+03 7.773e-11
 54.53901    -48.9 7.727e+03 7.979e-11
 54.55823    -47.9 7.726e+03 7.567e-11
 54.57692    -47.8 7.715e+03 7.906e-11
 54.60037    -46.5 7.776e+03 8.643e-11
 54.63200    -45.2 7.872e+03 1.024e-10
 54.65334    -44.3 7.946e+03 1.099e-10
 54.68574    -42.9 8.031e+03 1.302e-10
 54.72499    -41.4 8.093e+03 1.443e-10
 54.74633    -40.5 8.195e+03 1.603e-10
 54.77111    -39.1 8.212e+03 1.638e-10
 54.81380    -37.7 8.197e+03 1.623e-10
 54.83933    -36.3 8.147e+03 1.506e-10
 54.86067    -35.6 8.328e+03 1.749e-10
 54.89917    -34.3 8.255e+03 1.557e-10
 54.92757    -33.2 8.247e+03 1.472e-10
 54.93938    -33.3 8.151e+03 1.370e-10
 54.95366    -33.0 8.522e+03 1.931e-10
 54.98453    -32.0 8.529e+03 1.947e-10
 55.02531    -31.1 8.707e+03 2.190e-10
 55.04665    -30.7 9.244e+03 3.423e-10
 55.06990    -29.9 9.434e+03 3.919e-10
 55.09305    -29.2 9.522e+03 4.233e-10
 55.10363    -29.5 9.756e+03 5.252e-10
 55.11337    -29.2 9.819e+03 5.647e-10
 55.12404    -28.8 9.633e+03 4.558e-10
 55.13945    -28.2 9.677e+03 4.769e-10
 55.15012    -28.4 9.818e+03 5.535e-10
 55.16575    -27.8 9.781e+03 5.412e-10
 55.18595    -27.1 9.754e+03 5.271e-10
 55.19662    -27.2 9.836e+03 5.675e-10
 55.20843    -26.7 9.758e+03 5.313e-10
 55.23254    -25.9 9.646e+03 4.796e-10
 55.25398    -26.4 9.598e+03 4.640e-10
 55.27822    -24.1 8.876e+03 2.845e-10
 55.29956    -24.1 8.951e+03 2.947e-10
 55.32563    -21.9 8.509e+03 2.048e-10
 55.34697    -21.8 8.535e+03 2.151e-10
 55.36870    -19.8 8.191e+03 1.482e-10
 55.41138    -17.6 7.921e+03 1.038e-10
 55.43997    -15.2 7.734e+03 7.593e-11
 55.46131    -14.9 7.796e+03 8.878e-11
 55.49675    -12.4 7.673e+03 7.040e-11
 55.53296     -9.8 7.614e+03 5.898e-11
 55.55430     -9.4 7.728e+03 7.887e-11
 55.58212     -6.6 7.688e+03 6.766e-11
 55.62480     -3.7 7.706e+03 6.038e-11
 55.64730     -1.0 7.726e+03 5.748e-11
 55.65136     -1.0 7.962e+03 8.555e-11
 55.67155     -0.9 7.925e+03 7.641e-11
 55.71017      1.9 7.929e+03 7.502e-11
 55.74029      4.4 8.213e+03 7.905e-11
 55.76163      3.8 8.692e+03 1.620e-10
 55.79554      5.9 9.023e+03 2.112e-10
 55.83328      8.2 9.335e+03 3.051e-10
 55.85462      6.7 1.019e+04 5.388e-10
 55.88091      8.6 1.100e+04 8.679e-10
 55.92359     10.2 1.182e+04 1.260e-09
 55.94762     11.5 1.256e+04 1.754e-09
 55.96896      9.2 1.219e+04 1.451e-09
 56.00086     10.9 1.240e+04 1.530e-09
 56.02220     11.2 1.239e+04 1.363e-09
 56.04061     12.7 1.276e+04 1.337e-09
 56.06195      9.7 9.980e+03 3.132e-10
 56.09433      9.4 9.425e+03 2.595e-10
 56.13360     10.2 9.489e+03 2.849e-10
 56.15494      8.2 8.931e+03 1.589e-10
 56.17970     10.2 8.985e+03 1.963e-10
 56.22238     12.4 9.021e+03 2.111e-10
 56.24794     14.3 8.966e+03 1.999e-10
 56.26928     14.3 8.897e+03 1.875e-10
 56.30775     16.2 8.824e+03 1.709e-10
 56.34093     18.1 8.772e+03 1.541e-10
 56.36227     18.1 8.876e+03 1.764e-10
 56.37285     19.5 9.032e+03 1.701e-10
 56.39419     19.5 9.234e+03 2.022e-10
 56.43392     20.5 9.591e+03 2.205e-10
 56.45526     20.6 9.773e+03 3.780e-10
 56.47849     22.2 1.018e+04 4.800e-10
 56.52118     23.2 1.077e+04 5.507e-10
 56.54826     24.2 1.125e+04 7.561e-10
 56.56960     25.3 1.055e+04 4.965e-10
 56.60654     26.2 1.082e+04 4.712e-10
 56.64125     26.7 1.100e+04 5.185e-10
 56.66259     26.3 1.015e+04 2.078e-10
 56.69191     25.2 1.073e+04 3.505e-10
 56.72350     25.2 1.127e+04 8.391e-10
 56.74448     24.3 1.205e+04 1.362e-09
 56.75558     23.7 1.174e+04 1.262e-09
 56.77728     25.7 1.259e+04 2.220e-09
 56.81997     26.7 1.278e+04 2.053e-09
 56.84848     26.6 1.243e+04 1.531e-09
 56.85905     25.7 1.230e+04 1.539e-09
 56.87313     24.7 1.221e+04 1.313e-09
 56.89447     23.1 1.209e+04 1.152e-09
 56.90555     22.1 1.187e+04 1.072e-09
 56.90971     22.1 1.189e+04 1.172e-09
 56.91997     21.8 1.165e+04 1.069e-09
 56.94147     21.7 1.142e+04 1.073e-09
 56.96291     21.9 1.119e+04 9.914e-10
 56.99071     22.2 1.046e+04 6.521e-10
 57.03339     22.0 9.888e+03 4.244e-10
 57.05590     22.1 9.394e+03 2.608e-10
 57.07532     22.2 9.190e+03 2.280e-10
 57.09549     21.8 9.180e+03 2.364e-10
 57.11876     22.1 9.085e+03 1.958e-10
 57.14890     22.5 8.986e+03 1.967e-10
 57.17024     22.3 9.194e+03 2.084e-10
 57.20413     22.3 9.423e+03 2.981e-10
 57.24189     22.6 9.644e+03 3.512e-10
 57.26314     22.4 9.853e+03 4.742e-10
 57.27062     22.7 1.004e+04 4.605e-10
 57.28129     22.8 9.942e+03 4.032e-10
 57.29886     22.5 1.014e+04 3.840e-10
 57.30953     22.8 1.054e+04 4.708e-10
 57.32131     20.8 1.084e+04 4.417e-10
 57.34266     18.5 1.094e+04 4.565e-10
 57.35603     16.5 1.069e+04 6.116e-10
 57.36670     15.9 1.082e+04 7.068e-10
 57.38534     15.2 1.109e+04 8.033e-10
 57.40253     15.2 1.124e+04 1.197e-09
 57.41320     15.2 1.151e+04 1.391e-09
 57.42803     15.6 1.199e+04 1.592e-09
 57.44594     15.3 1.220e+04 1.642e-09
 57.45627     15.2 1.219e+04 1.643e-09
 57.45969     15.0 1.239e+04 1.709e-09
 57.47071     14.5 1.229e+04 1.611e-09
 57.49205     13.6 1.209e+04 1.452e-09
 57.50619     12.8 1.179e+04 1.349e-09
 57.51686     12.5 1.165e+04 1.301e-09
 57.53474     12.4 1.144e+04 1.219e-09
 57.55269     12.6 1.127e+04 1.110e-09
 57.56336     12.5 1.105e+04 9.948e-10
 57.57742     12.7 1.083e+04 8.396e-10
 57.59876     12.9 1.060e+04 7.085e-10
 57.60985     12.3 1.063e+04 5.467e-10
 57.62053     11.3 1.060e+04 5.314e-10
 57.63194     10.4 1.062e+04 5.194e-10
 57.64261     10.8 1.045e+04 4.896e-10
 57.65645      9.2 1.109e+04 5.733e-10
 57.67789      8.1 1.087e+04 6.161e-10
 57.71634      7.7 1.130e+04 9.418e-10
 57.74954      8.7 1.172e+04 1.176e-09
 57.77088      9.1 1.083e+04 7.691e-10
 57.79679      9.1 1.065e+04 5.558e-10
 57.81813     10.5 1.038e+04 4.985e-10
 57.84253      9.4 1.023e+04 4.231e-10
 57.86387      9.5 9.935e+03 4.067e-10
 57.88708      9.4 9.906e+03 4.881e-10
 57.92976     10.6 1.038e+04 6.939e-10
 57.95687     12.3 1.109e+04 9.814e-10
 57.97821     14.0 1.068e+04 7.811e-10
 58.01513     14.6 1.111e+04 8.844e-10
 58.04705     14.9 1.121e+04 9.668e-10
 58.06034     15.0 1.138e+04 1.101e-09
 58.07110     15.5 1.093e+04 8.507e-10
 58.08973     15.8 1.133e+04 1.143e-09
 58.10683     16.4 1.141e+04 1.273e-09
 58.11750     17.0 1.114e+04 1.127e-09
 58.13232     17.6 1.111e+04 1.187e-09
 58.15333     18.3 1.108e+04 1.199e-09
 58.16410     19.1 1.079e+04 9.879e-10
 58.16868     19.3 1.082e+04 1.029e-09
 58.19003     20.6 1.025e+04 7.412e-10
 58.21059     18.4 1.126e+04 7.661e-10
 58.22117     19.6 9.576e+03 6.044e-10
 58.23903     19.0 9.884e+03 5.672e-10
 58.25699     18.5 1.228e+04 5.062e-10
 58.27843     23.6 1.055e+04 2.861e-10
 58.30315     19.1 1.504e+04 6.089e-10
 58.31416     19.4 1.573e+04 1.387e-09
 58.32483     19.9 1.376e+04 3.696e-10
 58.34391     21.5 1.532e+04 8.650e-10
 58.35458     21.7 1.611e+04 4.710e-10
 58.36066     22.7 1.633e+04 1.752e-09
 58.37133     22.7 1.476e+04 4.711e-10
 58.38843     25.2 1.627e+04 1.290e-09
 58.40715     26.2 1.696e+04 3.576e-09
 58.41782     26.8 1.580e+04 9.225e-10
 58.43111     28.6 1.725e+04 2.819e-09
 58.45245     29.9 1.798e+04 6.537e-09
 58.46432     31.1 1.858e+04 9.635e-09
 58.47499     32.4 1.843e+04 5.710e-09
 58.49514     33.6 1.883e+04 9.729e-09
 58.51082     35.0 1.899e+04 1.154e-08
 58.52149     36.1 1.930e+04 9.923e-09
 58.52991     37.4 1.937e+04 1.230e-08
 58.54058     38.1 1.974e+04 1.293e-08
 58.55731     39.9 1.956e+04 1.439e-08
 58.56798     40.6 2.030e+04 1.380e-08
 58.58051     42.1 1.971e+04 1.684e-08
 58.60185     44.3 1.836e+04 1.421e-08
 58.61443     45.2 1.943e+04 9.398e-09
 58.61943     45.0 1.907e+04 1.616e-08
 58.62281     45.8 1.876e+04 1.757e-08
 58.62843     46.2 1.918e+04 1.467e-08
 58.63763     46.1 2.086e+04 9.319e-09
 58.64297     46.1 1.966e+04 1.803e-08
 58.64977     46.5 2.054e+04 1.291e-08
 58.66044     46.4 2.275e+04 6.561e-09
 58.66621     45.2 2.283e+04 3.788e-09
 58.67155     46.4 2.302e+04 8.574e-09
 58.68178     43.0 2.277e+04 3.256e-09
 58.68946     40.4 1.891e+04 2.094e-09
 58.69480     42.0 2.231e+04 4.142e-09
 58.70518     35.0 1.391e+04 1.515e-09
 58.71477     36.1 1.392e+04 1.555e-09
 58.71805     36.2 1.610e+04 2.338e-09
 58.72447     32.5 1.307e+04 1.697e-09
 58.73514     31.8 1.309e+04 1.700e-09
 58.75120     29.4 1.290e+04 1.824e-09
 58.76464     28.6 1.273e+04 1.849e-09
 58.77531     25.6 1.280e+04 1.825e-09
 58.79393     24.5 1.258e+04 1.831e-09
 58.81114     24.2 1.260e+04 1.802e-09
 58.82181     21.2 1.194e+04 1.402e-09
 58.83661     20.8 1.172e+04 1.306e-09
 58.85763     20.1 1.145e+04 1.183e-09
 58.86830     17.8 1.099e+04 9.915e-10
 58.87930     17.1 1.109e+04 9.954e-10
 58.89123     16.3 1.121e+04 1.004e-09
 58.90190     16.4 1.169e+04 1.258e-09
 58.91480     15.7 1.184e+04 1.287e-09
 58.92547     14.7 1.187e+04 1.315e-09
 58.94332     13.0 1.256e+04 1.421e-09
 58.96130      6.5 1.621e+04 2.392e-09
 58.97197      7.5 1.555e+04 2.354e-09
 58.98601      0.9 1.818e+04 5.591e-09
 59.00735     -2.8 1.863e+04 1.125e-08
 59.01846     -4.5 1.900e+04 1.418e-08
 59.02914     -3.5 1.890e+04 1.413e-08
 59.05004     -5.3 1.911e+04 1.419e-08
 59.06496    -10.5 2.162e+04 8.617e-09
 59.07081     -6.9 1.997e+04 9.254e-09
 59.07722     -5.1 1.905e+04 1.166e-08
 59.09272    -12.1 2.232e+04 6.166e-09
 59.11146    -26.1 2.101e+04 3.354e-09
 59.12213    -19.0 2.130e+04 3.427e-09
 59.13540    -30.7 1.679e+04 2.879e-09
 59.15675    -34.9 1.569e+04 3.435e-09
 59.16862    -36.9 1.642e+04 3.966e-09
 59.17930    -33.0 1.589e+04 3.648e-09
 59.19943    -35.6 1.621e+04 3.709e-09
 59.21512    -38.3 1.543e+04 2.956e-09
 59.22579    -34.4 1.594e+04 3.278e-09
 59.24188    -37.4 1.468e+04 2.420e-09
 59.25255    -37.4 1.506e+04 2.643e-09
 59.26162    -39.8 1.364e+04 1.947e-09
 59.27229    -36.5 1.435e+04 2.302e-09
 59.28480    -38.3 1.349e+04 1.934e-09
 59.30614    -39.5 1.328e+04 1.679e-09
 59.31878    -40.4 1.302e+04 1.423e-09
 59.32946    -37.9 1.364e+04 1.917e-09
 59.34883    -38.8 1.340e+04 1.668e-09
 59.36528    -39.6 1.292e+04 1.379e-09
 59.37595    -37.3 1.385e+04 1.994e-09
 59.39151    -38.2 1.327e+04 1.621e-09
 59.41178    -38.9 1.259e+04 1.300e-09
 59.42245    -36.9 1.359e+04 1.883e-09
 59.42787    -37.5 1.283e+04 1.460e-09
 59.43854    -38.3 1.269e+04 1.413e-09
 59.45554    -38.8 1.203e+04 1.112e-09
 59.46894    -39.1 1.159e+04 9.301e-10
 59.47962    -37.7 1.209e+04 1.133e-09
 59.49822    -38.0 1.168e+04 9.370e-10
 59.51544    -38.2 1.145e+04 8.170e-10
 59.52611    -37.0 1.172e+04 9.062e-10
 59.54091    -37.2 1.147e+04 7.811e-10
 59.56194    -37.4 1.130e+04 7.026e-10
 59.57261    -36.4 1.140e+04 7.179e-10
 59.58359    -36.6 1.122e+04 6.546e-10
 59.60320    -36.7 1.110e+04 6.274e-10
 59.61387    -37.5 1.098e+04 6.403e-10
 59.61911    -37.4 1.092e+04 6.227e-10
 59.62978    -36.8 1.094e+04 6.089e-10
 59.64762    -37.0 1.093e+04 6.087e-10
 59.66560    -37.1 1.098e+04 6.288e-10
 59.67627    -36.7 1.106e+04 6.410e-10
 59.69030    -36.8 1.120e+04 6.879e-10
 59.71164    -36.9 1.134e+04 7.338e-10
 59.72277    -37.1 1.144e+04 7.648e-10
 59.73344    -36.5 1.148e+04 7.771e-10
 59.75433    -36.7 1.149e+04 7.792e-10
 59.76927    -36.7 1.143e+04 7.172e-10
 59.77994    -36.1 1.139e+04 6.699e-10
 59.78919    -36.7 1.112e+04 5.215e-10
 59.79986    -37.8 1.069e+04 3.884e-10
 59.81576    -38.3 1.043e+04 3.376e-10
 59.82643    -37.9 1.034e+04 3.264e-10
 59.85047    -38.3 1.022e+04 3.020e-10
 59.87312    -38.8 9.892e+03 2.520e-10
 59.89447    -37.3 9.990e+03 2.585e-10
 59.93593    -37.3 1.010e+04 2.562e-10
 59.96462    -38.5 1.066e+04 2.683e-10
 59.97346    -41.4 1.137e+04 3.677e-10
 59.97669    -40.7 1.149e+04 3.652e-10
 59.98909    -42.5 1.203e+04 5.074e-10
 60.01044    -45.0 1.256e+04 9.391e-10
 60.02309    -45.8 1.283e+04 1.412e-09
 60.03376    -45.8 1.312e+04 1.707e-09
 60.05312    -46.1 1.327e+04 1.985e-09
 60.06959    -46.3 1.329e+04 2.041e-09
 60.08026    -46.2 1.351e+04 2.230e-09
 60.09581    -46.4 1.329e+04 1.998e-09
 60.11608    -46.7 1.294e+04 1.473e-09
 60.12675    -46.8 1.299e+04 1.378e-09
 60.13849    -48.4 1.255e+04 9.110e-10
 60.15051    -50.9 1.202e+04 6.003e-10
 60.16119    -52.7 1.148e+04 4.350e-10
 60.17325    -54.7 1.096e+04 3.325e-10
 60.18392    -55.4 1.088e+04 3.247e-10
 60.20252    -56.2 1.065e+04 2.940e-10
 60.23463    -56.4 1.055e+04 2.803e-10
 60.26644    -56.9 1.025e+04 2.496e-10
 60.28778    -57.9 1.018e+04 2.460e-10
 60.31536    -58.7 1.002e+04 2.323e-10
 60.33671    -60.2 9.947e+03 2.063e-10
 60.35943    -61.5 1.019e+04 2.371e-10
 60.38077    -62.7 1.025e+04 2.536e-10
 60.40546    -63.8 1.068e+04 3.636e-10
 60.44815    -64.7 1.107e+04 5.072e-10
 60.47377    -65.3 1.134e+04 6.246e-10
 60.49511    -65.8 1.141e+04 6.433e-10
 60.52016    -66.3 1.146e+04 7.119e-10
 60.53074    -67.2 1.147e+04 7.248e-10
 60.54399    -68.1 1.144e+04 7.281e-10
 60.56533    -68.6 1.122e+04 7.018e-10
 60.57723    -69.1 1.106e+04 5.972e-10
 60.58791    -69.5 1.117e+04 6.493e-10
 60.60802    -69.9 1.096e+04 5.295e-10
 60.62373    -70.3 1.077e+04 4.211e-10
 60.63440    -70.7 1.087e+04 4.727e-10
 60.65965    -71.0 1.069e+04 3.579e-10
 60.68100    -71.8 1.068e+04 3.640e-10
 60.68716    -72.0 1.063e+04 3.431e-10
 60.69783    -71.7 1.060e+04 3.444e-10
 60.71473    -72.0 1.060e+04 3.348e-10
 60.74684    -72.9 1.061e+04 3.259e-10
 60.77409    -73.6 1.051e+04 3.114e-10
 60.78466    -74.1 1.053e+04 3.449e-10
 60.80010    -74.5 1.049e+04 3.365e-10
 60.83221    -75.3 1.036e+04 3.109e-10
 60.86708    -75.7 1.001e+04 2.484e-10
 60.88842    -77.2 1.012e+04 2.643e-10
 60.91768    -77.0 9.713e+03 2.109e-10
 60.96007    -76.4 9.446e+03 1.883e-10
 60.98141    -77.9 9.796e+03 2.363e-10
 61.00305    -77.0 9.675e+03 2.457e-10
 61.03800    -76.1 9.854e+03 2.897e-10
 61.05935    -76.9 9.968e+03 2.907e-10
 61.07441    -76.0 1.012e+04 3.379e-10
 61.09575    -77.3 1.043e+04 4.252e-10
 61.13110    -76.6 1.059e+04 4.722e-10
 61.16740    -75.9 1.064e+04 4.814e-10
 61.18874    -77.7 1.061e+04 4.594e-10
 61.21647    -76.5 1.041e+04 3.946e-10
 61.25915    -75.4 1.019e+04 3.276e-10
 61.28173    -74.2 1.003e+04 2.856e-10
 61.30308    -75.4 9.995e+03 2.714e-10
 61.34452    -74.1 1.002e+04 2.789e-10
 61.37473    -72.6 1.012e+04 2.967e-10
 61.39607    -73.8 1.033e+04 3.254e-10
 61.41000    -72.3 1.050e+04 3.543e-10
 61.43134    -72.4 1.055e+04 3.521e-10
 61.46772    -70.7 1.071e+04 3.884e-10
 61.48896    -71.4 1.086e+04 4.448e-10
 61.50439    -70.4 1.093e+04 4.545e-10
 61.52469    -69.7 1.094e+04 4.492e-10
 61.53536    -70.8 1.102e+04 4.974e-10
 61.54708    -69.8 1.104e+04 4.453e-10
 61.56842    -68.9 1.109e+04 4.073e-10
 61.58196    -68.0 1.114e+04 3.788e-10
 61.60340    -69.2 1.115e+04 3.752e-10
 61.64331    -68.1 1.120e+04 3.476e-10
 61.67505    -66.4 1.123e+04 3.230e-10
 61.69639    -68.2 1.146e+04 3.753e-10
 61.72868    -66.4 1.149e+04 3.787e-10
 61.76065    -64.8 1.152e+04 3.942e-10
 61.77866    -65.0 1.167e+04 5.576e-10
 61.78938    -66.5 1.160e+04 6.535e-10
 61.81405    -64.7 1.162e+04 5.866e-10
 61.85673    -63.0 1.154e+04 5.132e-10
 61.88238    -61.3 1.142e+04 4.345e-10
 61.90372    -62.2 1.123e+04 3.952e-10
 61.94210    -60.3 1.127e+04 3.701e-10
 61.97537    -58.7 1.130e+04 3.652e-10
 61.99671    -59.7 1.139e+04 4.351e-10
 62.02747    -59.0 1.241e+04 7.104e-10
 62.05939    -58.9 1.358e+04 1.324e-09
 62.07884    -59.4 1.471e+04 2.348e-09
 62.08951    -59.7 1.505e+04 3.005e-09
 62.10198    -59.5 1.639e+04 5.670e-09
 62.12177    -58.4 1.756e+04 9.846e-09
 62.13244    -58.5 1.701e+04 7.076e-09
 62.13600    -57.6 1.790e+04 1.106e-08
 62.14668    -57.8 1.771e+04 9.741e-09
 62.16600    -57.3 1.810e+04 1.196e-08
 62.18250    -57.0 1.814e+04 1.241e-08
 62.19317    -56.7 1.718e+04 7.303e-09
 62.20869    -56.2 1.682e+04 6.866e-09
 62.22900    -55.8 1.624e+04 5.534e-09
 62.23967    -56.1 1.490e+04 2.555e-09
 62.25137    -56.3 1.458e+04 2.375e-09
 62.27271    -56.4 1.440e+04 2.339e-09
 62.28616    -56.4 1.435e+04 2.482e-09
 62.29693    -56.6 1.307e+04 8.447e-10
 62.32626    -55.7 1.336e+04 1.226e-09
 62.36868    -54.6 1.369e+04 1.671e-09
 62.39002    -54.3 1.172e+04 4.104e-10
 62.41163    -53.3 1.203e+04 5.715e-10
 62.45432    -52.3 1.222e+04 7.267e-10
 62.48302    -51.3 1.214e+04 8.150e-10
 62.49064    -50.8 1.152e+04 4.001e-10
 62.50463    -50.3 1.127e+04 2.858e-10
 62.53969    -49.0 1.156e+04 4.300e-10
 62.57601    -48.0 1.179e+04 6.145e-10
 62.59735    -47.4 1.145e+04 3.904e-10
 62.62506    -46.6 1.186e+04 6.810e-10
 62.66774    -45.8 1.235e+04 1.130e-09
 62.69034    -45.1 1.276e+04 1.595e-09
 62.71169    -44.4 1.239e+04 1.216e-09
 62.73674    -44.3 1.274e+04 1.580e-09
 62.74732    -44.0 1.260e+04 1.430e-09
 62.76358    -44.1 1.271e+04 1.608e-09
 62.78314    -44.0 1.270e+04 1.685e-09
 62.79381    -43.9 1.274e+04 1.708e-09
 62.80627    -43.9 1.270e+04 1.770e-09
 62.82761    -43.8 1.255e+04 1.765e-09
 62.84031    -43.7 1.234e+04 1.677e-09
 62.84644    -43.7 1.267e+04 1.948e-09
 62.85508    -43.2 1.277e+04 1.910e-09
 62.87030    -43.2 1.268e+04 1.907e-09
 62.88681    -43.2 1.256e+04 1.869e-09
 62.89748    -43.3 1.289e+04 1.988e-09
 62.91298    -43.4 1.286e+04 1.887e-09
 62.93330    -43.7 1.286e+04 1.801e-09
 62.94397    -44.2 1.297e+04 1.759e-09
 62.95566    -44.7 1.295e+04 1.728e-09
 62.97701    -45.2 1.295e+04 1.721e-09
 62.99047    -45.9 1.296e+04 1.718e-09
 63.00114    -47.1 1.300e+04 1.569e-09
 63.01969    -47.7 1.289e+04 1.556e-09
 63.03697    -47.7 1.259e+04 1.309e-09
 63.04764    -48.9 1.240e+04 1.226e-09
 63.06238    -49.2 1.216e+04 1.177e-09
 63.08346    -49.3 1.189e+04 1.054e-09
 63.09413    -50.0 1.187e+04 1.056e-09
 63.10506    -49.8 1.159e+04 9.036e-10
 63.12640    -49.6 1.135e+04 7.560e-10
 63.14063    -49.5 1.113e+04 6.269e-10
 63.15130    -49.8 1.125e+04 6.689e-10
 63.16909    -49.9 1.110e+04 5.707e-10
 63.18713    -50.0 1.097e+04 4.944e-10
 63.19780    -50.5 1.125e+04 5.890e-10
 63.20573    -50.7 1.120e+04 5.446e-10
 63.21640    -50.5 1.145e+04 6.713e-10
 63.23311    -50.9 1.141e+04 6.553e-10
 63.24429    -51.2 1.135e+04 6.497e-10
 63.25496    -51.6 1.158e+04 8.360e-10
 63.27580    -51.6 1.150e+04 8.038e-10
 63.29079    -51.5 1.142e+04 7.625e-10
 63.30146    -51.7 1.162e+04 7.799e-10
 63.31848    -51.7 1.148e+04 7.076e-10
 63.33729    -51.8 1.138e+04 6.575e-10
 63.34796    -52.2 1.138e+04 6.319e-10
 63.36117    -52.3 1.125e+04 6.061e-10
 63.38106    -52.3 1.121e+04 6.013e-10
 63.39173    -52.5 1.135e+04 6.349e-10
 63.39445    -52.0 1.131e+04 6.318e-10
 63.40513    -52.1 1.130e+04 6.030e-10
 63.43596    -51.8 1.129e+04 6.192e-10
 63.47697    -51.2 1.143e+04 7.180e-10
 63.49831    -51.7 1.161e+04 7.797e-10
 63.52143    -51.8 1.171e+04 8.564e-10
 63.55658    -51.8 1.171e+04 8.675e-10
 63.57792    -51.3 1.161e+04 8.423e-10
 63.59131    -50.8 1.132e+04 7.440e-10
 63.61265    -51.4 1.152e+04 8.191e-10
 63.64948    -50.8 1.108e+04 5.851e-10
 63.68430    -50.0 1.069e+04 4.065e-10
 63.70564    -50.2 1.086e+04 4.516e-10
 63.73485    -49.2 1.060e+04 3.292e-10
 63.77729    -48.2 1.043e+04 2.596e-10
 63.79863    -48.5 1.075e+04 3.217e-10
 63.82022    -47.0 1.060e+04 2.686e-10
 63.86291    -45.3 1.051e+04 2.362e-10
 63.89163    -43.6 1.049e+04 2.193e-10
 63.91297    -43.6 1.072e+04 2.638e-10
 63.92857    -41.8 1.075e+04 2.634e-10
 63.94991    -41.0 1.067e+04 2.537e-10
 63.98462    -39.2 1.084e+04 2.639e-10
 64.00596    -39.2 1.115e+04 3.301e-10
 64.02287    -37.7 1.125e+04 3.680e-10
 64.04159    -37.5 1.127e+04 3.938e-10
 64.05226    -37.8 1.135e+04 4.632e-10
 64.06546    -36.6 1.144e+04 5.625e-10
 64.08680    -35.7 1.158e+04 6.631e-10
 64.09876    -34.7 1.180e+04 7.875e-10
 64.10498    -34.7 1.210e+04 8.838e-10
 64.11437    -35.1 1.245e+04 1.138e-09
 64.12949    -34.8 1.294e+04 1.445e-09
 64.14526    -34.9 1.348e+04 1.865e-09
 64.15593    -36.0 1.400e+04 2.392e-09
 64.17217    -36.2 1.442e+04 3.049e-09
 64.19175    -36.4 1.483e+04 3.736e-09
 64.20242    -37.9 1.553e+04 4.286e-09
 64.21486    -39.2 1.641e+04 4.825e-09
 64.23620    -42.7 1.757e+04 5.116e-09
 64.24892    -48.0 1.886e+04 5.953e-09
 64.25959    -51.5 1.787e+04 4.892e-09
 64.27888    -56.1 1.752e+04 5.667e-09
 64.28970    -59.3 1.764e+04 6.552e-09
 64.29556    -59.5 1.711e+04 6.323e-09
 64.30609    -60.9 1.553e+04 4.560e-09
 64.32157    -62.3 1.648e+04 5.028e-09
 64.34191    -64.1 1.680e+04 5.071e-09
 64.35258    -65.2 1.522e+04 4.351e-09
 64.36425    -66.9 1.512e+04 3.841e-09
 64.38559    -68.3 1.465e+04 3.452e-09
 64.39908    -69.1 1.427e+04 3.305e-09
 64.40975    -68.7 1.410e+04 3.270e-09
 64.42828    -68.7 1.406e+04 3.260e-09
 64.44558    -68.5 1.406e+04 3.289e-09
 64.45625    -68.1 1.397e+04 3.198e-09
 64.46502    -67.9 1.395e+04 3.202e-09
 64.47569    -67.5 1.367e+04 2.879e-09
 64.49207    -67.3 1.373e+04 2.983e-09
 64.50274    -67.0 1.342e+04 2.621e-09
 64.51365    -66.7 1.351e+04 2.736e-09
 64.53499    -66.6 1.369e+04 2.913e-09
 64.54924    -66.4 1.389e+04 3.132e-09
 64.55991    -66.3 1.360e+04 2.785e-09
 64.57767    -66.1 1.382e+04 3.080e-09
 64.59574    -65.9 1.397e+04 3.326e-09
 64.60641    -65.7 1.355e+04 2.819e-09
 64.62036    -65.3 1.359e+04 2.908e-09
 64.64035    -65.0 1.358e+04 2.914e-09
 64.65102    -64.7 1.295e+04 2.042e-09
 64.67381    -64.5 1.256e+04 1.684e-09
 64.69960    -63.4 1.215e+04 1.407e-09
 64.72094    -62.2 1.157e+04 1.136e-09
 64.75928    -60.7 1.132e+04 1.002e-09
 64.79259    -59.0 1.119e+04 9.228e-10
 64.81393    -58.0 1.090e+04 7.649e-10
 64.84465    -56.5 1.107e+04 8.519e-10
 64.88558    -55.0 1.143e+04 1.027e-09
 64.90692    -54.3 1.124e+04 9.598e-10
 64.93002    -53.1 1.154e+04 1.145e-09
 64.97270    -52.2 1.169e+04 1.219e-09
 64.99982    -51.5 1.172e+04 1.250e-09
 65.00754    -51.2 1.173e+04 1.258e-09
 65.01234    -50.5 1.207e+04 1.435e-09
 65.02586    -50.9 1.226e+04 1.496e-09
 65.04622    -51.5 1.235e+04 1.529e-09
 65.05689    -51.5 1.237e+04 1.595e-09
 65.06855    -52.2 1.238e+04 1.608e-09
 65.08989    -52.8 1.228e+04 1.576e-09
 65.10338    -53.4 1.207e+04 1.453e-09
 65.11406    -53.3 1.214e+04 1.538e-09
 65.13257    -53.9 1.189e+04 1.355e-09
 65.14988    -54.5 1.169e+04 1.227e-09
 65.16055    -54.8 1.176e+04 1.262e-09
 65.17526    -55.5 1.164e+04 1.203e-09
 65.18766    -56.0 1.161e+04 1.192e-09
 65.19811    -56.0 1.190e+04 1.348e-09
 65.20705    -56.7 1.206e+04 1.485e-09
 65.21794    -57.5 1.211e+04 1.523e-09
 65.23928    -58.1 1.227e+04 1.651e-09
 65.25354    -58.5 1.241e+04 1.784e-09
 65.26422    -59.2 1.253e+04 1.838e-09
 65.28197    -59.5 1.252e+04 1.881e-09
 65.30004    -59.5 1.249e+04 1.892e-09
 65.31071    -60.1 1.239e+04 1.801e-09
 65.32465    -59.7 1.219e+04 1.722e-09
 65.34600    -59.2 1.200e+04 1.595e-09
 65.35721    -58.7 1.183e+04 1.441e-09
 65.36353    -59.1 1.167e+04 1.227e-09
 65.37366    -59.2 1.193e+04 1.305e-09
 65.38868    -58.8 1.162e+04 1.027e-09
 65.40370    -58.3 1.138e+04 7.940e-10
 65.41438    -59.0 1.112e+04 6.471e-10
 65.43136    -58.6 1.090e+04 4.840e-10
 65.45020    -58.6 1.064e+04 3.616e-10
 65.46087    -59.0 1.045e+04 3.378e-10
 65.48482    -58.5 1.030e+04 2.654e-10
 65.50756    -56.8 9.900e+03 1.738e-10
 65.52891    -56.9 9.855e+03 1.747e-10
 65.57028    -55.1 9.549e+03 1.127e-10
 65.60056    -53.5 9.381e+03 7.913e-11
 65.62190    -54.2 9.536e+03 1.001e-10
 65.65565    -52.5 9.504e+03 9.211e-11
 65.69355    -50.6 9.516e+03 9.190e-11
 65.71489    -51.2 9.832e+03 1.638e-10
 65.72450    -49.3 9.885e+03 1.829e-10
 65.74584    -48.4 9.626e+03 1.423e-10
 65.78371    -46.4 9.678e+03 1.624e-10
 65.80788    -44.3 9.692e+03 1.825e-10
 65.82923    -44.9 9.900e+03 2.718e-10
 65.86908    -43.0 9.890e+03 2.788e-10
 65.90088    -41.2 9.917e+03 2.814e-10
 65.92222    -42.2 1.024e+04 3.946e-10
 65.95444    -40.7 1.033e+04 4.283e-10
 65.99387    -39.3 1.039e+04 4.706e-10
 66.01521    -40.0 1.060e+04 6.469e-10
 66.03981    -38.3 1.058e+04 6.564e-10
 66.06161    -36.7 1.047e+04 6.020e-10
 66.07218    -37.0 1.056e+04 6.566e-10
 66.08563    -36.2 1.042e+04 5.798e-10
 66.09630    -36.0 1.047e+04 5.821e-10
 66.10811    -34.9 1.039e+04 5.210e-10
 66.12955    -35.4 1.029e+04 4.733e-10
 66.16787    -33.7 9.981e+03 3.525e-10
 66.20120    -31.9 9.801e+03 2.780e-10
 66.22254    -31.9 9.690e+03 2.583e-10
 66.25324    -30.1 9.681e+03 2.525e-10
 66.29419    -28.1 9.792e+03 2.707e-10
 66.31553    -27.7 9.847e+03 2.888e-10
 66.33860    -25.7 1.003e+04 3.404e-10
 66.38129    -23.8 1.021e+04 4.074e-10
 66.40853    -21.7 1.040e+04 4.812e-10
 66.42987    -22.0 1.070e+04 6.147e-10
 66.44714    -20.0 1.105e+04 8.197e-10
 66.46849    -20.6 1.088e+04 6.910e-10
 66.50152    -18.6 1.116e+04 8.218e-10
 66.52286    -19.2 1.130e+04 8.551e-10
 66.55203    -17.5 1.144e+04 9.003e-10
 66.59451    -15.8 1.157e+04 8.739e-10
 66.61585    -16.9 1.136e+04 7.313e-10
 66.63740    -15.3 1.131e+04 6.001e-10
 66.68008    -13.8 1.113e+04 4.724e-10
 66.70885    -12.3 1.082e+04 3.663e-10
 66.73019    -13.4 1.034e+04 3.238e-10
 66.76545    -11.7 1.011e+04 2.464e-10
 66.79779    -10.0 1.005e+04 1.985e-10
 66.81284    -10.4 1.009e+04 2.168e-10
 66.82318    -10.0 9.872e+03 1.755e-10
 66.85082     -7.9 9.903e+03 1.560e-10
 66.89350     -5.6 9.972e+03 1.541e-10
 66.91617     -3.4 1.016e+04 1.658e-10
 66.93752     -3.3 1.009e+04 1.251e-10
 66.97887     -1.2 1.022e+04 1.754e-10
 67.00917      1.2 1.040e+04 2.676e-10
 67.03051      1.5 1.024e+04 2.404e-10
 67.06424      4.0 1.057e+04 3.603e-10
 67.10216      6.2 1.092e+04 5.224e-10
 67.12350      6.7 1.061e+04 3.709e-10
 67.14844      8.9 1.083e+04 4.543e-10
 67.16979      8.7 1.061e+04 3.284e-10
 67.19229     11.1 1.071e+04 3.521e-10
 67.21649     13.5 1.080e+04 3.352e-10
 67.23784     13.7 1.040e+04 1.464e-10
 67.27766     15.9 1.048e+04 1.158e-10
 67.30949     17.7 1.053e+04 8.732e-11
 67.33083     17.9 1.006e+04 7.764e-11
 67.36303     20.1 1.008e+04 6.970e-11
 67.40248     22.3 1.010e+04 6.624e-11
 67.42382     23.2 1.008e+04 6.583e-11
 67.44840     25.6 1.015e+04 6.448e-11
 67.49109     27.7 1.021e+04 6.648e-11
 67.51681     29.8 1.032e+04 7.443e-11
 67.52482     30.7 1.028e+04 7.499e-11
 67.54178     30.4 1.027e+04 7.378e-11
 67.57645     32.6 1.028e+04 9.016e-11
 67.60981     34.8 1.049e+04 1.029e-10
 67.63115     35.9 1.041e+04 9.922e-11
 67.66182     37.9 1.063e+04 1.020e-10
 67.70280     39.5 1.080e+04 1.183e-10
 67.72414     40.7 1.077e+04 1.033e-10
 67.74719     41.7 1.096e+04 1.461e-10
 67.78988     42.9 1.098e+04 2.628e-10
 67.81714     44.7 1.114e+04 4.269e-10
 67.83848     45.8 1.123e+04 4.727e-10
 67.87108     47.3 1.159e+04 5.552e-10
 67.89243     46.9 1.154e+04 6.006e-10
 67.91013     48.0 1.158e+04 5.251e-10
 67.93147     48.9 1.188e+04 6.249e-10
 67.94985     49.0 1.179e+04 4.924e-10
 67.96710     48.8 1.179e+04 4.686e-10
 67.97777     48.9 1.196e+04 5.245e-10
 67.99243     48.8 1.193e+04 5.047e-10
 68.01360     48.8 1.191e+04 5.093e-10
 68.02427     48.8 1.210e+04 6.194e-10
 68.03512     48.9 1.217e+04 6.200e-10
 68.05646     48.6 1.239e+04 6.377e-10
 68.06756     48.7 1.234e+04 6.614e-10
 68.07119     48.9 1.220e+04 6.185e-10
 68.08144     48.3 1.245e+04 7.102e-10
 68.09914     47.9 1.259e+04 7.614e-10
 68.11736     47.9 1.274e+04 9.687e-10
 68.12803     47.0 1.288e+04 1.159e-09
 68.14183     47.2 1.295e+04 1.192e-09
 68.16317     48.0 1.295e+04 1.391e-09
 68.17443     48.2 1.305e+04 1.471e-09
 68.18510     47.4 1.321e+04 1.605e-09
 68.20585     48.4 1.299e+04 1.574e-09
 68.22092     48.7 1.321e+04 1.691e-09
 68.23160     47.7 1.313e+04 1.633e-09
 68.24288     48.7 1.301e+04 1.605e-09
 68.25355     48.5 1.295e+04 1.594e-09
 68.26742     48.9 1.302e+04 1.611e-09
 68.27809     48.0 1.269e+04 1.277e-09
 68.29122     48.6 1.293e+04 1.302e-09
 68.31257     48.3 1.361e+04 1.489e-09
 68.32459     45.9 1.552e+04 1.964e-09
 68.33526     39.4 1.839e+04 3.576e-09
 68.35525     36.6 1.932e+04 8.099e-09
 68.37108     35.9 1.961e+04 1.580e-08
 68.38176     34.9 1.914e+04 2.023e-08
 68.39793     35.7 1.940e+04 2.404e-08
 68.41758     36.8 1.923e+04 2.165e-08
 68.42718     36.3 1.802e+04 1.079e-08
 68.42888     36.1 1.731e+04 9.133e-09
 68.44062     36.4 1.639e+04 5.422e-09
 68.46196     35.8 1.504e+04 2.633e-09
 68.47475     34.1 1.357e+04 1.287e-09
 68.48542     30.1 1.205e+04 4.673e-10
 68.51067     29.6 1.199e+04 4.833e-10
 68.53211     25.2 1.035e+04 3.573e-10
 68.55820     26.6 1.039e+04 3.839e-10
 68.59373     27.9 1.063e+04 5.322e-10
 68.61507     28.4 1.065e+04 5.366e-10
 68.62510     29.8 1.112e+04 9.152e-10
 68.64645     28.5 1.138e+04 1.214e-09
 68.68625     30.7 1.187e+04 1.638e-09
 68.71810     32.4 1.192e+04 1.643e-09
 68.73944     31.4 1.138e+04 1.295e-09
 68.77162     33.2 1.107e+04 1.094e-09
 68.81109     34.8 1.067e+04 8.219e-10
 68.83243     33.6 9.949e+03 4.800e-10
 68.85699     35.1 9.696e+03 3.987e-10
 68.89967     36.9 9.652e+03 3.887e-10
 68.92542     38.7 9.726e+03 4.183e-10
 68.94677     37.4 9.242e+03 2.453e-10
 68.96572     39.0 9.473e+03 3.218e-10
 68.98706     38.6 9.302e+03 3.009e-10
 69.01842     40.4 9.658e+03 4.309e-10
 69.03976     39.5 9.128e+03 3.209e-10
 69.07041     41.6 9.450e+03 3.899e-10
 69.11141     43.4 9.699e+03 4.244e-10
 69.13275     42.0 9.029e+03 2.773e-10
 69.15578     43.1 9.112e+03 2.753e-10
 69.19846     43.8 9.195e+03 2.804e-10
 69.22575     44.4 9.350e+03 3.026e-10
 69.24709     43.0 8.976e+03 2.451e-10
 69.28383     44.2 9.001e+03 2.796e-10
 69.31637     45.6 8.986e+03 2.906e-10
 69.32993     46.3 8.898e+03 2.890e-10
 69.34008     46.0 8.660e+03 2.103e-10
 69.36920     47.4 8.667e+03 1.964e-10
 69.41173     48.5 8.626e+03 1.805e-10
 69.45442     48.8 8.425e+03 1.376e-10
 69.49726     50.3 8.413e+03 1.383e-10
 69.52607     51.8 8.414e+03 1.372e-10
 69.54741     51.5 8.246e+03 1.306e-10
 69.58262     53.1 8.263e+03 1.186e-10
 69.61906     54.6 8.300e+03 1.019e-10
 69.64040     54.3 8.159e+03 1.163e-10
 69.66702     55.7 8.147e+03 1.021e-10
 69.68836     56.4 8.193e+03 1.110e-10
 69.71068     57.9 8.172e+03 9.369e-11
 69.73339     59.4 8.110e+03 8.563e-11
 69.75474     59.6 7.989e+03 1.036e-10
 69.79605     61.4 8.021e+03 9.769e-11
 69.82639     63.1 8.049e+03 9.801e-11
 69.84773     63.3 8.071e+03 9.595e-11
 69.88142     65.0 8.112e+03 9.763e-11
 69.91938     66.7 8.213e+03 1.046e-10
 69.94072     66.5 8.201e+03 1.012e-10
 69.96678     67.9 8.366e+03 1.250e-10
 70.00947     69.2 8.687e+03 1.688e-10
 70.03371     70.1 9.202e+03 2.483e-10
 70.04191     69.6 9.399e+03 3.063e-10
 70.06035     69.8 9.540e+03 3.324e-10
 70.08011     69.4 9.778e+03 3.995e-10
 70.09069     69.4 9.828e+03 4.128e-10
 70.10531     68.7 1.013e+04 5.251e-10
 70.12651     67.9 1.059e+04 7.161e-10
 70.13718     67.6 1.050e+04 6.846e-10
 70.14800     67.0 1.092e+04 8.479e-10
 70.16934     65.6 1.153e+04 1.029e-09
 70.18368     63.9 1.202e+04 1.187e-09
 70.19435     63.4 1.219e+04 1.228e-09
 70.21202     60.4 1.293e+04 1.517e-09
 70.22481     59.1 1.317e+04 1.631e-09
 70.23229     56.9 1.359e+04 1.879e-09
 70.24085     54.4 1.396e+04 2.519e-09
 70.25471     53.3 1.361e+04 2.377e-09
 70.27605     52.5 1.306e+04 2.007e-09
 70.30816     51.5 1.243e+04 1.380e-09
 70.33403     49.8 1.144e+04 7.119e-10
 70.35538     48.8 1.119e+04 5.448e-10
 70.38966     47.7 1.022e+04 3.465e-10
 70.41100     47.3 1.017e+04 3.388e-10
 70.42703     47.9 9.839e+03 2.996e-10
 70.44837     48.4 9.638e+03 2.511e-10
 70.47900     50.0 9.526e+03 2.377e-10
 70.52002     51.6 9.397e+03 2.079e-10
 70.54136     52.0 9.418e+03 1.516e-10
 70.56437     53.3 9.303e+03 1.401e-10
 70.60705     54.5 9.164e+03 1.236e-10
 70.63436     55.5 9.021e+03 1.069e-10
 70.65570     55.9 9.050e+03 1.491e-10
 70.69242     57.3 8.903e+03 1.403e-10
 70.72735     58.6 8.800e+03 1.150e-10
 70.74869     59.3 9.002e+03 1.689e-10
 70.76165     60.2 8.876e+03 1.281e-10
 70.78299     59.6 8.896e+03 1.327e-10
 70.82034     60.1 8.700e+03 1.040e-10
 70.86303     60.8 8.783e+03 1.343e-10
 70.90584     61.5 8.741e+03 1.327e-10
 70.93468     62.0 8.741e+03 1.320e-10
 70.95602     61.7 8.824e+03 1.437e-10
 70.99121     62.1 8.669e+03 1.305e-10
 71.02767     62.6 8.510e+03 1.155e-10
 71.04901     62.4 8.385e+03 1.083e-10
 71.07658     62.9 8.267e+03 8.529e-11
 71.11230     63.3 8.174e+03 6.798e-11
 71.13364     62.9 8.110e+03 5.675e-11
 71.14200     63.5 7.997e+03 5.474e-11
 71.16335     63.3 7.910e+03 5.232e-11
 71.20463     64.4 7.882e+03 5.319e-11
 71.23500     65.5 7.869e+03 5.521e-11
 71.25634     65.7 7.816e+03 5.481e-11
 71.29000     66.8 7.858e+03 5.753e-11
 71.32799     67.9 7.925e+03 6.150e-11
 71.34933     68.1 7.856e+03 6.438e-11
 71.37537     69.0 7.922e+03 7.039e-11
 71.41806     69.7 8.002e+03 7.894e-11
 71.44232     70.2 8.111e+03 9.263e-11
 71.46367     70.5 8.155e+03 1.021e-10
 71.48429     70.8 8.347e+03 1.279e-10
 71.50563     70.4 8.284e+03 1.147e-10
 71.53532     70.5 8.519e+03 1.527e-10
 71.55666     70.5 8.546e+03 1.630e-10
 71.58879     70.3 8.814e+03 2.175e-10
 71.62831     69.8 9.168e+03 2.815e-10
 71.64965     69.6 9.108e+03 2.527e-10
 71.67416     68.3 9.616e+03 3.214e-10
 71.69605     66.1 1.035e+04 4.574e-10
 71.70662     65.3 1.054e+04 4.868e-10
 71.72732     62.9 1.103e+04 7.238e-10
 71.74245     60.8 1.164e+04 1.105e-09
 71.76389     60.4 1.150e+04 1.097e-09
 71.80222     57.4 1.176e+04 1.191e-09
 71.83494     54.2 1.172e+04 1.109e-09
 71.84702     54.2 1.195e+04 1.218e-09
 71.85698     53.7 1.147e+04 9.289e-10
 71.88759     50.6 1.122e+04 7.867e-10
 71.92863     48.1 1.080e+04 6.791e-10
 71.94997     48.4 1.050e+04 6.470e-10
 71.97295     47.6 1.030e+04 6.012e-10
 72.01564     47.3 1.013e+04 5.273e-10
 72.04296     47.0 9.951e+03 4.396e-10
 72.06431     47.2 1.009e+04 5.403e-10
 72.10101     47.0 1.015e+04 5.602e-10
 72.13596     46.6 1.039e+04 6.442e-10
 72.15730     46.2 1.097e+04 8.359e-10
 72.18559     44.7 1.221e+04 1.446e-09
 72.20693     43.4 1.239e+04 1.557e-09
 72.22895     41.8 1.282e+04 1.749e-09
 72.26087     39.3 1.348e+04 2.512e-09
 72.28222     38.6 1.290e+04 1.971e-09
 72.31433     36.1 1.198e+04 1.351e-09
 72.34329     34.6 1.111e+04 8.665e-10
 72.36463     32.2 1.104e+04 7.801e-10
 72.39980     31.4 1.026e+04 4.809e-10
 72.43628     31.2 9.761e+03 3.483e-10
 72.45762     29.2 9.601e+03 2.947e-10
 72.48517     30.0 9.389e+03 2.437e-10
 72.52785     31.1 9.241e+03 2.145e-10
 72.55061     32.5 9.174e+03 2.104e-10
 72.55900     31.2 9.238e+03 2.326e-10
 72.57892     30.8 9.505e+03 3.327e-10
 72.61322     32.5 9.563e+03 3.608e-10
 72.64361     34.3 9.797e+03 4.053e-10
 72.65418     32.8 9.857e+03 4.261e-10
 72.66638     33.1 1.000e+04 4.514e-10
 72.68772     33.4 1.021e+04 5.036e-10
 72.70058     33.6 1.040e+04 5.730e-10
 72.71125     32.4 1.067e+04 7.119e-10
 72.73041     32.7 1.085e+04 7.968e-10
 72.74338     32.9 1.102e+04 8.850e-10
 72.74938     32.6 1.106e+04 9.010e-10
 72.75775     31.8 1.114e+04 9.793e-10
 72.77309     32.1 1.124e+04 1.019e-09
 72.79357     32.3 1.131e+04 1.055e-09
 72.80424     31.6 1.113e+04 9.361e-10
 72.81578     31.6 1.113e+04 8.594e-10
 72.83712     31.4 1.115e+04 7.678e-10
 72.85074     30.8 1.118e+04 6.854e-10
 72.86141     28.8 1.085e+04 4.805e-10
 72.87980     27.7 1.075e+04 4.719e-10
 72.89723     26.7 1.070e+04 4.848e-10
 72.90791     24.9 1.052e+04 4.451e-10
 72.91871     24.5 1.039e+04 4.840e-10
 72.92938     23.3 1.058e+04 5.572e-10
 72.94373     23.1 1.052e+04 5.579e-10
 72.95440     22.1 1.042e+04 5.808e-10
 72.96517     22.2 1.030e+04 5.608e-10
 72.98652     22.2 1.022e+04 5.224e-10
 73.00090     21.8 1.019e+04 4.710e-10
 73.01157     21.1 1.028e+04 4.901e-10
 73.02920     20.6 1.019e+04 4.592e-10
 73.04740     20.2 1.015e+04 4.643e-10
 73.05807     19.3 1.033e+04 5.544e-10
 73.07188     18.5 1.048e+04 6.670e-10
 73.09323     15.1 1.195e+04 1.140e-09
 73.10456      9.3 1.526e+04 2.746e-09
 73.10537      5.1 1.796e+04 7.878e-09
 73.11537      1.6 1.898e+04 1.261e-08
 73.12776      2.9 1.839e+04 1.602e-08
 73.13305      2.3 1.882e+04 2.742e-08
 73.14115      3.3 1.883e+04 3.549e-08
 73.15096      4.5 1.881e+04 3.531e-08
 73.15630      4.8 1.914e+04 5.453e-08
 73.16249      5.6 1.914e+04 4.463e-08
 73.17316      5.7 1.917e+04 3.244e-08
 73.17955      5.0 1.940e+04 2.475e-08
 73.18488      4.9 2.004e+04 2.326e-08
 73.19227      2.4 2.179e+04 1.706e-08
 73.19760      1.1 2.247e+04 1.704e-08
 73.20279     -2.1 2.209e+04 1.247e-08
 73.20813     -4.6 2.139e+04 9.341e-09
 73.21585     -9.7 1.792e+04 6.383e-09
 73.22604    -13.7 1.517e+04 4.824e-09
 73.23138    -14.7 1.453e+04 4.031e-09
 73.24257    -14.5 1.423e+04 4.149e-09
 73.25472    -14.0 1.378e+04 3.876e-09
 73.26539    -14.0 1.284e+04 2.850e-09
 73.28003    -13.2 1.275e+04 2.374e-09
 73.29070    -14.2 1.287e+04 2.209e-09
 73.30122    -14.8 1.286e+04 1.902e-09
 73.31189    -15.5 1.225e+04 1.336e-09
 73.32799    -18.4 1.331e+04 1.598e-09
 73.34772    -22.2 1.453e+04 2.408e-09
 73.35839    -22.4 1.382e+04 1.757e-09
 73.37068    -22.8 1.425e+04 2.854e-09
 73.39202    -21.2 1.369e+04 3.680e-09
 73.40488    -19.0 1.347e+04 3.670e-09
 73.41555    -19.2 1.299e+04 3.220e-09
 73.43470    -16.7 1.271e+04 3.010e-09
 73.45138    -14.6 1.246e+04 2.562e-09
 73.46136    -14.6 1.202e+04 2.297e-09
 73.46602    -13.5 1.247e+04 2.895e-09
 73.47739    -12.7 1.247e+04 2.195e-09
 73.49788    -13.0 1.240e+04 1.566e-09
 73.50855    -12.5 1.180e+04 1.455e-09
 73.52007    -13.3 1.158e+04 1.098e-09
 73.54141    -14.3 1.118e+04 9.357e-10
 73.55504    -15.0 1.126e+04 1.001e-09
 73.56571    -13.5 1.076e+04 8.540e-10
 73.58410    -13.6 1.093e+04 9.747e-10
 73.60154    -13.3 1.155e+04 1.344e-09
 73.61221    -11.9 1.085e+04 9.876e-10
 73.62678    -11.5 1.151e+04 1.365e-09
 73.64135    -11.6 1.318e+04 2.154e-09
 73.65193    -13.2 1.568e+04 3.607e-09
 73.66938    -11.5 1.592e+04 3.775e-09
 73.69081    -11.6 1.713e+04 6.281e-09
 73.70520    -11.4 1.705e+04 7.739e-09
 73.71587    -10.3 1.712e+04 6.723e-09
 73.73349     -9.9 1.693e+04 8.382e-09
 73.75170     -9.1 1.668e+04 8.693e-09
 73.76237     -7.9 1.674e+04 9.012e-09
 73.77618     -7.1 1.680e+04 9.796e-09
 73.79752     -6.6 1.699e+04 9.777e-09
 73.80887     -6.2 1.729e+04 8.023e-09
 73.81735     -4.8 1.749e+04 1.112e-08
 73.82735     -5.1 1.778e+04 1.073e-08
 73.84021     -5.3 1.834e+04 8.020e-09
 73.85536     -6.7 1.888e+04 4.419e-09
 73.86603     -4.0 1.871e+04 9.526e-09
 73.88289     -5.3 1.945e+04 5.400e-09
 73.90186     -8.7 1.936e+04 2.476e-09
 73.91253     -3.8 2.005e+04 6.633e-09
 73.92557     -7.3 2.070e+04 3.007e-09
 73.94692    -14.8 1.783e+04 1.822e-09
 73.95903    -26.8 1.691e+04 3.332e-09
 73.96970    -27.2 2.513e+04 5.961e-09
 73.98223    -36.8 1.993e+04 1.278e-08
 73.98751    -37.6 2.010e+04 1.653e-08
 73.99484    -39.6 2.014e+04 2.264e-08
 74.00257    -40.6 2.057e+04 2.877e-08
 74.00787    -41.7 2.027e+04 2.110e-08
 74.01615    -41.3 2.044e+04 3.135e-08
 74.02685    -41.8 2.014e+04 1.804e-08
 74.03401    -44.6 1.967e+04 9.478e-09
 74.03935    -44.5 2.107e+04 9.105e-09
 74.04819    -51.8 1.780e+04 3.299e-09
 74.05726    -57.3 1.450e+04 1.615e-09
 74.06259    -61.8 1.299e+04 1.082e-09
 74.07492    -65.1 1.091e+04 6.742e-10
 74.09631    -66.6 9.662e+03 3.765e-10
 74.10919    -66.3 9.342e+03 3.070e-10
 74.11986    -67.0 9.282e+03 3.003e-10
 74.14511    -65.8 9.093e+03 2.486e-10
 74.16655    -67.0 9.065e+03 2.535e-10
 74.19255    -64.7 8.507e+03 1.732e-10
 74.23523    -62.6 8.105e+03 1.230e-10
 74.25954    -60.8 7.925e+03 9.886e-11
 74.28089    -60.7 8.062e+03 1.248e-10
 74.32060    -58.7 7.911e+03 1.069e-10
 74.35254    -56.6 7.777e+03 9.462e-11
 74.36411    -56.1 7.892e+03 1.127e-10
 74.37486    -55.9 7.850e+03 1.055e-10
 74.40597    -53.8 7.754e+03 9.624e-11
 74.44553    -51.6 7.695e+03 8.941e-11
 74.46687    -51.2 7.766e+03 9.288e-11
 74.49134    -49.0 7.728e+03 8.996e-11
 74.53402    -46.8 7.728e+03 8.978e-11
 74.55986    -45.0 7.858e+03 9.629e-11
 74.58121    -44.8 7.962e+03 9.796e-11
 74.61939    -43.6 8.243e+03 1.341e-10
 74.65286    -42.6 8.627e+03 2.132e-10
 74.67420    -42.5 8.709e+03 2.248e-10
 74.70416    -40.9 9.193e+03 3.557e-10
 74.72551    -41.3 9.316e+03 3.878e-10
 74.74585    -39.5 9.837e+03 5.475e-10
 74.76719    -39.5 9.898e+03 5.636e-10
 74.79013    -37.9 9.976e+03 5.883e-10
 74.83281    -36.2 9.803e+03 4.838e-10
 74.86018    -34.6 9.573e+03 3.594e-10
 74.88153    -34.1 9.375e+03 2.881e-10
 74.91818    -32.3 9.201e+03 2.168e-10
 74.95318    -30.2 9.088e+03 1.901e-10
 74.97452    -29.4 8.947e+03 1.418e-10
 75.00355    -27.1 8.848e+03 1.244e-10
 75.04617    -24.5 8.793e+03 1.196e-10
 75.07609    -21.0 8.635e+03 9.442e-11
 75.09750    -21.4 8.819e+03 1.032e-10
 75.13161    -18.8 8.792e+03 1.113e-10
 75.16051    -16.2 8.828e+03 1.188e-10
 75.18185    -15.0 8.799e+03 1.199e-10
 75.21697    -12.2 8.889e+03 1.248e-10
 75.25350     -9.4 8.926e+03 1.316e-10
 75.27484     -7.7 8.954e+03 1.293e-10
 75.30234     -5.1 9.023e+03 1.214e-10
 75.34503     -2.5 8.961e+03 1.223e-10
 75.36783      0.2 8.842e+03 1.225e-10
 75.38918      1.2 9.037e+03 1.189e-10
 75.42681      4.0 8.922e+03 1.240e-10
 75.44815      3.8 8.980e+03 1.393e-10
 75.46083      6.8 8.821e+03 1.247e-10
 75.48217      7.9 9.128e+03 1.736e-10
 75.51577     11.0 8.956e+03 1.468e-10
 75.55382     14.0 8.866e+03 1.117e-10
 75.57516     15.3 9.115e+03 1.648e-10
 75.60113     18.1 9.028e+03 1.230e-10
 75.64382     20.6 9.025e+03 9.304e-11
 75.66815     23.2 9.017e+03 7.937e-11
 75.68950     24.3 9.199e+03 1.241e-10
 75.72919     27.0 9.238e+03 1.115e-10
 75.76115     29.7 9.215e+03 1.077e-10
 75.78249     30.9 9.407e+03 1.734e-10
 75.79880     33.6 9.412e+03 1.484e-10
 75.82014     33.4 9.289e+03 1.562e-10
 75.85414     36.1 9.244e+03 1.225e-10
 75.87548     37.3 9.345e+03 1.957e-10
 75.89993     39.8 9.322e+03 1.318e-10
 75.94261     42.0 9.193e+03 9.214e-11
 75.96847     44.0 8.771e+03 8.456e-11
 75.98982     45.1 9.273e+03 1.040e-10
 76.02798     47.1 9.014e+03 9.233e-11
 76.06147     49.1 8.930e+03 9.644e-11
 76.08281     49.9 9.384e+03 1.546e-10
 76.11335     51.8 9.389e+03 1.583e-10
 76.14945     53.8 9.301e+03 1.865e-10
 76.16922     53.7 9.349e+03 1.855e-10
 76.17580     54.2 9.819e+03 3.166e-10
 76.19872     56.3 9.915e+03 3.237e-10
 76.24140     58.4 9.787e+03 3.378e-10
 76.26879     60.5 9.576e+03 3.628e-10
 76.29014     61.2 9.739e+03 3.295e-10
 76.32677     63.4 9.544e+03 3.127e-10
 76.36179     65.6 9.497e+03 3.208e-10
 76.38313     66.3 9.231e+03 2.756e-10
 76.41214     68.7 9.245e+03 2.871e-10
 76.45478     71.2 9.330e+03 3.411e-10
 76.49746     75.0 9.133e+03 3.119e-10
 76.52144     77.6 9.370e+03 4.023e-10
 76.54278     78.1 9.140e+03 3.087e-10
 76.56911     80.8 9.372e+03 4.276e-10
 76.59046     82.0 8.821e+03 2.293e-10
 76.62556     84.8 9.081e+03 3.237e-10
 76.66211     87.6 9.396e+03 4.393e-10
 76.68345     88.7 8.852e+03 2.682e-10
 76.71093     91.6 9.156e+03 3.716e-10
 76.75362     94.5 9.460e+03 4.547e-10
 76.77644     97.2 9.671e+03 4.645e-10
 76.79778     98.7 9.386e+03 4.461e-10
 76.83898    101.6 9.654e+03 4.885e-10
 76.86944    104.5 9.715e+03 4.806e-10
 76.88120    105.8 9.835e+03 6.259e-10
 76.89343    106.1 9.603e+03 5.308e-10
 76.92435    109.5 1.002e+04 6.254e-10
 76.96243    112.7 1.018e+04 6.136e-10
 76.98377    114.3 1.043e+04 9.285e-10
 77.00972    117.5 1.113e+04 1.081e-09
 77.05241    120.6 1.158e+04 1.056e-09
 77.07676    123.0 1.167e+04 9.099e-10
 77.08734    123.5 1.307e+04 2.010e-09
 77.10557    124.6 1.333e+04 1.957e-09
 77.12306    125.7 1.352e+04 1.780e-09
 77.13374    127.6 1.383e+04 2.843e-09
 77.14825    128.5 1.396e+04 2.731e-09
 77.16956    129.6 1.408e+04 2.306e-09
 77.19090    132.3 1.476e+04 3.460e-09
 77.21228    133.5 1.457e+04 2.424e-09
 77.22673    134.3 1.346e+04 1.456e-09
 77.23699    136.1 1.605e+04 3.911e-09
 77.24389    136.1 1.784e+04 6.797e-09
 77.25496    137.1 1.820e+04 4.931e-09
 77.27322    138.0 1.816e+04 2.710e-09
 77.28390    139.5 2.039e+04 9.193e-09
 77.29765    139.9 2.192e+04 6.425e-09
 77.31899    139.4 2.337e+04 3.747e-09
 77.33039    138.7 2.438e+04 1.887e-09
 77.33223    139.2 2.540e+04 5.630e-09
 77.33679    138.3 2.509e+04 1.184e-08
 77.34557    138.2 2.580e+04 1.082e-08
 77.35354    139.1 2.620e+04 1.027e-08
 77.35888    139.9 2.532e+04 1.692e-08
 77.36691    140.2 2.556e+04 1.561e-08
 77.37684    141.0 2.766e+04 4.025e-09
 77.38218    141.6 2.266e+04 3.734e-08
 77.38825    141.8 2.384e+04 2.154e-08
 77.39893    142.5 2.530e+04 1.065e-08
 77.40537    143.4 2.663e+04 4.988e-09
 77.41071    144.8 2.450e+04 1.469e-08
 77.41916    146.0 2.847e+04 1.926e-09
 77.42757    146.1 2.659e+04 3.838e-09
 77.43401    147.7 2.450e+04 8.614e-09
 77.44699    147.4 2.557e+04 4.354e-09
 77.46839    146.8 2.412e+04 7.422e-10
 77.48055    145.3 1.242e+04 5.140e-10
 77.49122    146.7 2.073e+04 2.106e-09
 77.51107    146.3 1.467e+04 1.126e-09
 77.52705    146.5 1.222e+04 1.052e-09
 77.53772    148.2 1.696e+04 3.079e-09
 77.55375    148.2 1.396e+04 2.415e-09
 77.57355    148.4 1.384e+04 2.436e-09
 77.58417    148.8 1.465e+04 3.655e-09
 77.59101    148.8 1.478e+04 3.799e-09
 77.59977    148.7 1.498e+04 4.035e-09
 77.60511    148.6 1.556e+04 5.283e-09
 77.60737    148.2 1.591e+04 5.820e-09
 77.61270    148.6 1.671e+04 7.565e-09
 77.62302    147.9 1.690e+04 8.520e-09
 77.63061    147.3 1.723e+04 9.964e-09
 77.63595    147.7 1.769e+04 1.204e-08
 77.64436    147.4 1.817e+04 1.448e-08
 77.65386    147.2 1.891e+04 1.811e-08
 77.65920    147.4 1.930e+04 2.088e-08
 77.66570    147.2 2.014e+04 2.618e-08
 77.67637    146.8 2.102e+04 3.216e-08
 77.68245    146.1 2.187e+04 3.770e-08
 77.68778    145.6 2.266e+04 3.674e-08
 77.69277    144.2 2.333e+04 3.854e-08
 77.69811    141.7 2.380e+04 3.037e-08
 77.70570    139.7 2.394e+04 3.000e-08
 77.71103    137.9 2.409e+04 2.587e-08
 77.71906    135.7 2.398e+04 2.424e-08
 77.72894    133.3 2.364e+04 2.245e-08
 77.73428    132.0 2.309e+04 1.935e-08
 77.74040    129.6 2.237e+04 1.864e-08
 77.75107    127.3 2.173e+04 1.830e-08
 77.75753    124.7 2.117e+04 1.847e-08
 77.76286    124.4 2.095e+04 1.768e-08
 77.77241    122.8 2.040e+04 1.776e-08
 77.78043    120.7 2.012e+04 1.813e-08
 77.78351    119.4 1.970e+04 1.542e-08
 77.79154    119.5 2.012e+04 1.603e-08
 77.80986    116.1 1.965e+04 1.548e-08
 77.82737    113.1 1.926e+04 1.437e-08
 77.83804    113.6 1.960e+04 1.437e-08
 77.85255    110.4 1.889e+04 1.226e-08
 77.87387    107.7 1.798e+04 9.899e-09
 77.89521    105.4 1.708e+04 8.033e-09
 77.91657    104.4 1.585e+04 5.839e-09
 77.93103    103.8 1.480e+04 4.174e-09
 77.94170    104.2 1.515e+04 4.451e-09
 77.95586    103.4 1.436e+04 3.036e-09
 77.96653    102.7 1.401e+04 1.990e-09
 77.97753    100.8 1.302e+04 1.369e-09
 77.98820    100.6 1.296e+04 1.253e-09
 78.00194     98.9 1.221e+04 1.043e-09
 78.02328     98.4 1.193e+04 1.010e-09
 78.03470     98.2 1.192e+04 1.026e-09
 78.04537     98.1 1.182e+04 9.844e-10
 78.06597     98.0 1.183e+04 1.005e-09
 78.08119     98.0 1.187e+04 1.041e-09
 78.09186     98.0 1.178e+04 9.992e-10
 78.10865     98.0 1.186e+04 1.043e-09
 78.12769     98.2 1.197e+04 1.107e-09
 78.13836     98.1 1.196e+04 1.080e-09
 78.14185     98.2 1.207e+04 1.143e-09
 78.15252     98.0 1.234e+04 1.263e-09
 78.17268     98.2 1.258e+04 1.407e-09
 78.18486     98.6 1.279e+04 1.565e-09
 78.19553     98.3 1.270e+04 1.475e-09
 78.21536     98.8 1.287e+04 1.593e-09
 78.23135     99.3 1.307e+04 1.700e-09
 78.24202     98.8 1.316e+04 1.717e-09
 78.25805     98.7 1.374e+04 1.917e-09
 78.27785     98.0 1.476e+04 2.284e-09
 78.28852     96.7 1.516e+04 2.650e-09
 78.30073     95.7 1.619e+04 3.533e-09
 78.31718     94.7 1.692e+04 4.789e-09
 78.32785     93.5 1.759e+04 8.458e-09
 78.33502     93.3 1.781e+04 9.823e-09
 78.34569     92.6 1.740e+04 8.017e-09
 78.36476     92.4 1.732e+04 7.925e-09
 78.38151     92.4 1.725e+04 7.699e-09
 78.39219     91.2 1.698e+04 6.159e-09
 78.40744     91.2 1.679e+04 4.882e-09
 78.42801     91.2 1.663e+04 3.658e-09
 78.43868     89.1 1.626e+04 2.275e-09
 78.45013     88.6 1.601e+04 1.505e-09
 78.47147     87.9 1.555e+04 1.015e-09
 78.48518     87.0 1.484e+04 7.049e-10
 78.49554     84.4 1.331e+04 4.867e-10
 78.50317     80.9 1.060e+04 2.493e-10
 78.51415     80.7 1.054e+04 2.679e-10
 78.53167     80.9 1.052e+04 3.171e-10
 78.54235     81.0 1.051e+04 3.194e-10
 78.55684     81.5 1.067e+04 4.042e-10
 78.57817     82.1 1.085e+04 5.117e-10
 78.59951     82.6 1.123e+04 6.630e-10
 78.62087     83.2 1.142e+04 7.478e-10
 78.63534     83.7 1.159e+04 7.740e-10
 78.64601     83.0 1.210e+04 1.031e-09
 78.66355     82.6 1.237e+04 1.077e-09
 78.67850     81.8 1.256e+04 1.072e-09
 78.68611     80.4 1.211e+04 7.655e-10
 78.69251     78.4 1.321e+04 1.577e-09
 78.70623     76.4 1.402e+04 1.911e-09
 78.72758     72.3 1.581e+04 2.613e-09
 78.73900     66.7 1.769e+04 4.352e-09
 78.74967     63.5 1.891e+04 1.066e-08
 78.77026     61.9 1.821e+04 1.328e-08
 78.78550     61.1 1.798e+04 1.349e-08
 78.79617     61.5 1.734e+04 1.099e-08
 78.81295     61.2 1.694e+04 8.363e-09
 78.83199     60.8 1.679e+04 5.830e-09
 78.84267     57.7 1.679e+04 2.495e-09
 78.85382     55.3 1.509e+04 1.626e-09
 78.86449     57.6 1.534e+04 1.681e-09
 78.87697     55.9 1.352e+04 1.225e-09
 78.88916     55.3 1.210e+04 9.971e-10
 78.89983     54.7 1.145e+04 8.214e-10
 78.91966     55.8 1.129e+04 7.792e-10
 78.93566     56.9 1.108e+04 7.156e-10
 78.94633     57.0 1.100e+04 6.975e-10
 78.96234     58.2 1.081e+04 6.331e-10
 78.98215     59.4 1.063e+04 5.650e-10
 78.99283     60.0 1.069e+04 5.692e-10
 79.00503     61.3 1.048e+04 5.030e-10
 79.02637     62.4 1.032e+04 4.512e-10
 79.03992     63.6 1.018e+04 4.003e-10
 79.06136     65.0 1.022e+04 4.091e-10
 79.08601     67.3 1.000e+04 3.569e-10
 79.10736     68.5 9.912e+03 3.414e-10
 79.14395     70.8 9.842e+03 3.367e-10
 79.17901     73.1 9.871e+03 3.493e-10
 79.20035     74.6 9.621e+03 3.032e-10
 79.22931     76.7 9.675e+03 3.283e-10
 79.27200     78.6 9.734e+03 3.614e-10
 79.31468     81.7 9.496e+03 3.208e-10
 79.33974     83.0 9.483e+03 3.345e-10
 79.35031     83.1 9.449e+03 3.250e-10
 79.36784     83.8 9.450e+03 3.295e-10
 79.38614     84.7 9.516e+03 3.497e-10
 79.39681     85.8 9.220e+03 2.921e-10
 79.40114     86.2 9.289e+03 3.117e-10
 79.41191     86.7 9.163e+03 2.853e-10
 79.43197     86.9 9.372e+03 3.394e-10
 79.44331     86.9 9.693e+03 4.407e-10
 79.45398     87.6 9.402e+03 3.732e-10
 79.47456     87.9 9.712e+03 4.995e-10
 79.48980     88.3 1.005e+04 6.825e-10
 79.50047     89.2 9.813e+03 5.985e-10
 79.51724     89.6 1.016e+04 7.987e-10
 79.53630     90.2 1.044e+04 9.622e-10
 79.54697     91.0 1.036e+04 9.377e-10
 79.55992     91.4 1.059e+04 1.046e-09
 79.57646     91.7 1.061e+04 1.046e-09
 79.58713     91.9 1.025e+04 8.532e-10
 79.59347     92.0 1.019e+04 8.018e-10
 79.60414     92.9 1.038e+04 9.116e-10
 79.62395     92.8 1.030e+04 8.277e-10
 79.63996     92.2 1.007e+04 7.068e-10
 79.65063     93.0 1.061e+04 9.240e-10
 79.66664     92.1 1.045e+04 8.155e-10
 79.68646     91.2 1.017e+04 7.244e-10
 79.69713     91.3 1.136e+04 1.182e-09
 79.70932     90.3 1.119e+04 1.111e-09
 79.73066     89.5 1.096e+04 1.058e-09
 79.74363     88.8 1.078e+04 1.033e-09
 79.75408     88.7 1.190e+04 1.706e-09
 79.76246     88.8 1.170e+04 1.551e-09
 79.77335     88.2 1.162e+04 1.559e-09
 79.79012     87.6 1.167e+04 1.613e-09
 79.80079     87.8 1.255e+04 2.230e-09
 79.81603     86.5 1.264e+04 2.290e-09
 79.83662     84.9 1.297e+04 2.519e-09
 79.84729     83.6 1.391e+04 3.267e-09
 79.85872     81.4 1.428e+04 3.692e-09
 79.88006     79.8 1.452e+04 4.145e-09
 79.89379     78.9 1.450e+04 4.445e-09
 79.90446     78.8 1.470e+04 5.189e-09
 79.92274     78.4 1.459e+04 4.927e-09
 79.93778     77.9 1.417e+04 4.092e-09
 79.94465     77.5 1.375e+04 3.338e-09
 79.95096     78.1 1.378e+04 3.236e-09
 79.96543     76.4 1.326e+04 2.479e-09
 79.98677     74.4 1.263e+04 1.961e-09
 80.00811     72.6 1.203e+04 1.728e-09
 80.02945     72.2 1.178e+04 1.638e-09
 80.04395     72.1 1.165e+04 1.535e-09
 80.05462     72.4 1.210e+04 1.926e-09
 80.07214     72.6 1.207e+04 1.851e-09
 80.09044     72.6 1.193e+04 1.615e-09
 80.10112     73.1 1.257e+04 2.289e-09
 80.11311     73.1 1.238e+04 1.933e-09
 80.12378     72.5 1.182e+04 1.480e-09
 80.13616     72.1 1.140e+04 1.083e-09
 80.14761     71.1 1.080e+04 7.661e-10
 80.15828     72.2 1.164e+04 1.210e-09
 80.17885     71.0 1.097e+04 8.747e-10
 80.19411     69.7 1.029e+04 6.801e-10
 80.20478     70.9 1.104e+04 9.587e-10
 80.22153     69.6 1.040e+04 7.615e-10
 80.24060     68.8 9.988e+03 6.539e-10
 80.25128     69.7 1.043e+04 7.885e-10
 80.26422     68.9 1.006e+04 6.640e-10
 80.28556     68.4 9.829e+03 5.614e-10
 80.29777     67.9 9.625e+03 4.680e-10
 80.30064     67.9 9.812e+03 5.036e-10
 80.30978     67.0 9.667e+03 4.527e-10
 80.32824     65.4 9.552e+03 3.788e-10
 80.34427     64.1 9.524e+03 3.609e-10
 80.35494     63.3 9.651e+03 3.983e-10
 80.37093     61.9 9.627e+03 4.011e-10
 80.39076     60.9 9.615e+03 4.213e-10
 80.40144     59.8 9.830e+03 5.129e-10
 80.41361     59.3 9.877e+03 5.592e-10
 80.43496     59.0 9.915e+03 5.801e-10
 80.44793     58.9 9.985e+03 5.776e-10
 80.45860     56.8 1.086e+04 7.797e-10
 80.47443     56.3 1.110e+04 7.870e-10
 80.48510     56.0 1.072e+04 6.325e-10
 80.49443     55.6 1.081e+04 6.210e-10
 80.50510     53.0 1.144e+04 8.966e-10
 80.52032     52.8 1.137e+04 8.617e-10
 80.54093     52.6 1.135e+04 8.464e-10
 80.55160     50.4 1.165e+04 1.142e-09
 80.56301     50.2 1.172e+04 1.171e-09
 80.58435     50.1 1.183e+04 1.237e-09
 80.59809     50.0 1.189e+04 1.324e-09
 80.60876     48.6 1.176e+04 1.482e-09
 80.62704     48.5 1.214e+04 1.725e-09
 80.64459     47.9 1.276e+04 2.072e-09
 80.65526     45.6 1.340e+04 2.310e-09
 80.66043     45.4 1.365e+04 2.671e-09
 80.67110     45.9 1.348e+04 2.837e-09
 80.69106     46.0 1.339e+04 3.000e-09
 80.71241     46.5 1.270e+04 2.484e-09
 80.73375     47.5 1.249e+04 2.218e-09
 80.74825     48.2 1.237e+04 1.859e-09
 80.75892     47.4 1.189e+04 1.204e-09
 80.77643     46.7 1.168e+04 8.946e-10
 80.79475     45.2 1.126e+04 7.015e-10
 80.80542     42.9 1.035e+04 5.722e-10
 80.81912     42.2 1.040e+04 5.943e-10
 80.83575     41.9 1.077e+04 7.078e-10
 80.84642     42.6 1.031e+04 6.091e-10
 80.85192     42.8 1.073e+04 7.611e-10
 80.86259     42.2 1.096e+04 8.677e-10
 80.88314     41.9 1.182e+04 1.231e-09
 80.89841     41.1 1.345e+04 2.047e-09
 80.90908     40.1 1.402e+04 2.486e-09
 80.92583     38.5 1.570e+04 4.040e-09
 80.94179     37.8 1.645e+04 5.079e-09
 80.95015     37.6 1.676e+04 5.695e-09
 80.95553     36.4 1.656e+04 6.896e-09
 80.96851     36.7 1.714e+04 9.175e-09
 80.98985     37.2 1.745e+04 9.686e-09
 81.00208     37.5 1.749e+04 9.097e-09
 81.01263     36.5 1.597e+04 5.375e-09
 81.02175     37.0 1.518e+04 4.269e-09
 81.03254     35.4 1.487e+04 3.353e-09
 81.04857     32.4 1.404e+04 2.448e-09
 81.05924     31.0 1.309e+04 1.954e-09
 81.07522     29.3 1.260e+04 1.886e-09
 81.09507     28.8 1.265e+04 1.973e-09
 81.10574     28.8 1.266e+04 1.967e-09
 81.11791     28.4 1.307e+04 2.320e-09
 81.13925     28.1 1.345e+04 2.670e-09
 81.15224     27.7 1.371e+04 2.839e-09
 81.16291     27.5 1.391e+04 3.392e-09
 81.18193     27.2 1.391e+04 3.386e-09
 81.19707     27.0 1.378e+04 3.266e-09
 81.20320     27.5 1.449e+04 4.200e-09
 81.20940     28.0 1.474e+04 4.974e-09
 81.22462     28.1 1.429e+04 3.903e-09
 81.24523     27.9 1.376e+04 2.786e-09
 81.25590     27.8 1.411e+04 2.616e-09
 81.26730     25.9 1.363e+04 1.813e-09
 81.28865     23.5 1.305e+04 1.384e-09
 81.30240     21.5 1.283e+04 1.389e-09
 81.31307     18.9 1.444e+04 2.106e-09
 81.33133     18.4 1.440e+04 2.440e-09
 81.34889     18.5 1.437e+04 2.768e-09
 81.35956     17.3 1.635e+04 5.115e-09
 81.37240     17.7 1.627e+04 4.944e-09
 81.38307     17.7 1.471e+04 2.971e-09
 81.39536     17.3 1.451e+04 2.650e-09
 81.41670     15.8 1.457e+04 2.823e-09
 81.43804     15.3 1.347e+04 2.344e-09
 81.45256     15.3 1.290e+04 2.147e-09
 81.46323     14.4 1.384e+04 1.978e-09
 81.48073     13.4 1.435e+04 1.862e-09
 81.49905     12.3 1.463e+04 1.890e-09
 81.50973      8.4 1.482e+04 2.098e-09
 81.52341      7.3 1.447e+04 2.180e-09
 81.54475      6.3 1.428e+04 2.474e-09
 81.55622      5.7 1.444e+04 3.032e-09
 81.55919      4.8 1.403e+04 3.119e-09
 81.56906      5.1 1.401e+04 3.051e-09
 81.58744      5.3 1.457e+04 3.846e-09
 81.60272      5.8 1.500e+04 4.384e-09
 81.61339      5.7 1.384e+04 2.484e-09
 81.63012      5.8 1.372e+04 2.008e-09
 81.64921      4.8 1.341e+04 1.521e-09
 81.65989      0.9 1.116e+04 8.278e-10
 81.67281     -0.5 1.131e+04 8.274e-10
 81.69415     -3.5 1.252e+04 1.012e-09
 81.70638    -11.8 1.778e+04 2.699e-09
 81.71705    -17.7 1.846e+04 5.607e-09
 81.72958    -21.2 2.041e+04 1.234e-08
 81.73487    -22.3 1.985e+04 1.463e-08
 81.73895    -23.3 2.026e+04 2.106e-08
 81.74429    -23.4 2.053e+04 2.491e-08
 81.75274    -24.6 2.144e+04 3.781e-08
 81.76341    -25.5 2.200e+04 3.315e-08
 81.77408    -26.0 2.325e+04 2.764e-08
 81.78136    -27.3 2.516e+04 1.820e-08
 81.78670    -30.4 2.337e+04 1.003e-08
 81.79543    -37.3 1.975e+04 4.457e-09
 81.80461    -44.8 1.416e+04 2.394e-09
 81.80995    -45.7 1.286e+04 1.956e-09
 81.82215    -47.2 1.194e+04 1.374e-09
 81.84354    -47.7 1.117e+04 9.667e-10
 81.85654    -47.8 1.080e+04 8.141e-10
 81.86721    -47.7 1.026e+04 6.360e-10
 81.88623    -47.3 1.010e+04 6.009e-10
 81.90304    -46.5 9.934e+03 5.684e-10
 81.91371    -46.1 9.711e+03 4.880e-10
 81.91971    -45.4 9.616e+03 4.665e-10
 81.93048    -45.9 9.610e+03 4.634e-10
 81.96112    -43.9 9.625e+03 4.562e-10
 81.99623    -41.5 9.366e+03 3.619e-10
 82.01757    -41.6 9.260e+03 3.421e-10
 82.04649    -39.7 9.157e+03 2.856e-10
 82.08917    -38.0 9.053e+03 2.521e-10
 82.13186    -36.6 9.225e+03 2.833e-10
 82.17454    -34.8 9.199e+03 2.810e-10
 82.20355    -33.2 9.270e+03 2.936e-10
 82.22490    -33.8 9.857e+03 4.645e-10
 82.25989    -32.0 9.796e+03 4.452e-10
 82.29652    -31.1 9.869e+03 4.143e-10
 82.31789    -32.3 1.038e+04 5.576e-10
 82.33451    -30.9 1.007e+04 4.620e-10
 82.35352    -30.6 1.007e+04 4.524e-10
 82.36419    -31.5 1.026e+04 4.963e-10
 82.38787    -30.0 9.938e+03 4.234e-10
 82.41088    -28.4 9.865e+03 3.681e-10
 82.43222    -30.1 9.927e+03 3.608e-10
 82.47333    -29.0 9.885e+03 3.242e-10
 82.50387    -28.2 9.968e+03 3.196e-10
 82.51445    -29.5 9.878e+03 3.254e-10
 82.52650    -29.4 9.969e+03 3.345e-10
 82.54784    -29.2 1.004e+04 3.666e-10
 82.56085    -29.0 1.011e+04 4.122e-10
 82.57152    -29.6 1.019e+04 4.649e-10
 82.59052    -30.0 1.058e+04 6.166e-10
 82.60734    -29.6 1.070e+04 7.283e-10
 82.61801    -30.1 1.083e+04 7.729e-10
 82.63168    -30.6 1.134e+04 1.025e-09
 82.64235    -30.3 1.108e+04 8.619e-10
 82.65384    -30.0 1.113e+04 9.749e-10
 82.66451    -30.7 1.114e+04 9.818e-10
 82.67589    -30.3 1.128e+04 1.129e-09
 82.69723    -30.2 1.132e+04 1.154e-09
 82.71110    -28.9 1.125e+04 1.132e-09
 82.73254    -30.2 1.106e+04 9.745e-10
 82.77213    -29.7 1.075e+04 8.140e-10
 82.80420    -29.4 1.042e+04 6.506e-10
 82.82554    -31.2 1.044e+04 6.521e-10
 82.85750    -30.5 1.035e+04 6.379e-10
 82.89719    -29.8 1.038e+04 6.320e-10
 82.91853    -32.3 1.107e+04 8.848e-10
 82.94286    -33.1 1.182e+04 1.136e-09
 82.96493    -33.0 1.225e+04 1.356e-09
 82.97550    -34.3 1.255e+04 1.561e-09
 82.99300    -34.5 1.274e+04 1.822e-09
 83.00377    -32.9 1.205e+04 1.286e-09
 83.01143    -34.5 1.274e+04 1.978e-09
 83.02200    -35.2 1.242e+04 1.967e-09
 83.03871    -34.8 1.287e+04 2.155e-09
 83.05782    -36.3 1.400e+04 2.496e-09
 83.06850    -42.8 1.641e+04 2.611e-09
 83.08139    -48.9 1.814e+04 4.184e-09
 83.10274    -53.5 1.760e+04 6.811e-09
 83.11499    -55.4 1.719e+04 9.471e-09
 83.12566    -57.4 1.696e+04 9.745e-09
 83.14542    -57.8 1.736e+04 1.113e-08
 83.16149    -59.8 1.821e+04 9.683e-09
 83.17216    -64.6 1.738e+04 5.165e-09
 83.17900    -70.9 1.562e+04 2.725e-09
 83.18967    -69.9 1.645e+04 3.435e-09
 83.20798    -77.5 1.368e+04 1.920e-09
 83.21866    -81.8 1.164e+04 1.080e-09
 83.23079    -85.4 1.181e+04 1.092e-09
 83.25213    -89.5 1.236e+04 1.338e-09
 83.26515    -93.2 1.250e+04 1.706e-09
 83.27582    -93.6 1.218e+04 1.461e-09
 83.29482    -95.3 1.218e+04 1.788e-09
 83.31165    -95.9 1.224e+04 1.982e-09
 83.32232    -95.7 1.197e+04 1.747e-09
 83.33750    -95.9 1.201e+04 1.791e-09
 83.35432    -96.3 1.194e+04 1.667e-09
 83.36430    -97.4 1.203e+04 1.631e-09
 83.36882    -97.1 1.183e+04 1.514e-09
 83.38018    -98.1 1.165e+04 1.324e-09
 83.40153    -99.4 1.139e+04 1.193e-09
 83.41531   -100.3 1.121e+04 1.152e-09
 83.42598    -99.7 1.103e+04 1.068e-09
 83.44421   -100.0 1.092e+04 1.073e-09
 83.46181   -100.1 1.089e+04 1.094e-09
 83.47248    -99.6 1.059e+04 9.483e-10
 83.48690    -99.4 1.043e+04 9.194e-10
 83.50824    -98.8 1.017e+04 8.326e-10
 83.52958    -97.8 9.536e+03 5.764e-10
 83.55092    -97.7 9.443e+03 5.533e-10
 83.58303    -97.2 9.070e+03 4.260e-10
 83.61216    -96.4 8.647e+03 3.334e-10
 83.63351    -95.5 8.344e+03 2.799e-10
 83.66850    -94.2 8.020e+03 2.292e-10
 83.70516    -92.9 7.825e+03 2.019e-10
 83.72650    -92.6 7.758e+03 1.893e-10
 83.75387    -91.4 7.716e+03 1.819e-10
 83.79655    -90.4 7.799e+03 1.904e-10
 83.81949    -89.8 8.051e+03 2.324e-10
 83.84083    -88.8 8.066e+03 2.424e-10
 83.88192    -87.9 8.393e+03 3.149e-10
 83.91248    -86.8 8.628e+03 3.734e-10
 83.93383    -85.8 8.701e+03 3.933e-10
 83.96729    -85.1 8.789e+03 4.115e-10
 84.00548    -85.1 8.730e+03 3.828e-10
 84.02682    -84.2 8.829e+03 4.077e-10
 84.05266    -84.8 8.825e+03 3.948e-10
 84.07716    -85.6 8.998e+03 4.307e-10
 84.09850    -86.5 8.890e+03 4.002e-10
 84.11981    -86.6 9.061e+03 4.366e-10
 84.13039    -85.7 9.236e+03 4.969e-10
 84.14851    -85.9 9.227e+03 5.028e-10
 84.16611    -85.8 9.294e+03 5.123e-10
 84.17678    -85.5 9.498e+03 5.830e-10
 84.19119    -85.7 9.524e+03 5.696e-10
 84.21253    -86.3 9.698e+03 5.634e-10
 84.23387    -87.5 1.018e+04 6.976e-10
 84.25229    -89.9 1.077e+04 7.530e-10
 84.26296    -92.7 1.135e+04 8.403e-10
 84.26978    -96.1 1.225e+04 1.276e-09
 84.28045    -96.7 1.282e+04 1.776e-09
 84.29790    -99.0 1.332e+04 2.686e-09
 84.31627    -99.9 1.356e+04 3.287e-09
 84.32694    -99.7 1.406e+04 3.914e-09
 84.34059   -100.2 1.387e+04 3.679e-09
 84.36193   -100.6 1.325e+04 2.508e-09
 84.37344   -102.3 1.224e+04 1.370e-09
 84.38411   -102.7 1.211e+04 1.216e-09
 84.40461   -105.3 1.051e+04 5.983e-10
 84.41994   -106.9 9.590e+03 3.644e-10
 84.43061   -107.1 9.447e+03 3.250e-10
 84.43829   -107.4 9.218e+03 2.692e-10
 84.44896   -108.0 9.229e+03 2.622e-10
 84.47941   -108.3 9.104e+03 2.318e-10
 84.51313   -107.9 8.941e+03 2.110e-10
 84.53447   -107.6 8.907e+03 2.030e-10
 84.56487   -106.6 8.898e+03 2.012e-10
 84.60612   -105.6 8.943e+03 2.057e-10
 84.62746   -105.0 8.857e+03 1.850e-10
 84.65024   -103.9 8.873e+03 1.832e-10
 84.69293   -102.8 8.936e+03 1.832e-10
 84.72045   -102.1 9.178e+03 1.946e-10
 84.74180   -101.4 9.099e+03 1.660e-10
 84.77830   -101.0 9.449e+03 2.210e-10
 84.81345   -101.4 9.905e+03 3.506e-10
 84.83479   -100.8 9.963e+03 3.611e-10
 84.85290   -100.2 1.040e+04 4.837e-10
 84.87042   -100.3 1.052e+04 5.206e-10
 84.88109   -100.2 1.061e+04 5.415e-10
 84.89548    -99.9 1.099e+04 6.678e-10
 84.91683   -100.2 1.111e+04 7.110e-10
 84.93817   -100.5 1.158e+04 8.882e-10
 84.95951   -100.9 1.173e+04 9.726e-10
 84.97408   -101.1 1.189e+04 1.058e-09
 84.97883   -101.1 1.193e+04 1.096e-09
 84.98560   -101.1 1.206e+04 1.155e-09
 85.00219   -101.2 1.212e+04 1.184e-09
 85.02058   -101.1 1.214e+04 1.179e-09
 85.03125   -101.1 1.211e+04 1.168e-09
 85.04488   -101.0 1.205e+04 1.070e-09
 85.06622   -101.0 1.201e+04 9.568e-10
 85.07775   -101.0 1.200e+04 8.528e-10
 85.08842   -101.3 1.188e+04 7.408e-10
 85.10891   -101.5 1.195e+04 6.733e-10
 85.12424   -101.9 1.204e+04 6.446e-10
 85.13491   -102.2 1.183e+04 5.622e-10
 85.15026   -102.7 1.200e+04 5.852e-10
 85.16093   -102.2 1.236e+04 7.001e-10
 85.17074   -103.5 1.277e+04 8.664e-10
 85.18141   -103.5 1.253e+04 7.894e-10
 85.19427   -104.6 1.286e+04 1.082e-09
 85.21562   -105.7 1.342e+04 1.569e-09
 85.22791   -106.8 1.424e+04 2.321e-09
 85.23858   -106.0 1.351e+04 1.795e-09
 85.25830   -107.2 1.422e+04 2.433e-09
 85.27440   -108.6 1.492e+04 3.114e-09
 85.28507   -107.6 1.409e+04 2.420e-09
 85.30099   -109.2 1.459e+04 2.882e-09
 85.32090   -111.0 1.477e+04 3.158e-09
 85.33157   -109.8 1.437e+04 2.836e-09
 85.33625   -111.5 1.450e+04 3.065e-09
 85.34692   -112.1 1.435e+04 3.071e-09
 85.36501   -113.3 1.402e+04 2.914e-09
 85.37807   -114.2 1.356e+04 2.560e-09
 85.38874   -112.7 1.382e+04 2.881e-09
 85.40770   -113.4 1.337e+04 2.441e-09
 85.42456   -114.0 1.280e+04 1.854e-09
 85.43523   -112.6 1.314e+04 2.192e-09
 85.45038   -113.4 1.256e+04 1.655e-09
 85.47106   -114.2 1.193e+04 1.233e-09
 85.48173   -113.4 1.239e+04 1.543e-09
 85.49307   -114.4 1.198e+04 1.270e-09
 85.51158   -115.1 1.172e+04 1.068e-09
 85.52225   -114.4 1.106e+04 7.775e-10
 85.52823   -114.8 1.082e+04 6.352e-10
 85.53890   -114.4 1.144e+04 9.538e-10
 85.55709   -114.6 1.114e+04 7.817e-10
 85.57472   -114.6 1.071e+04 5.952e-10
 85.58539   -113.9 1.133e+04 9.430e-10
 85.59978   -113.6 1.074e+04 6.542e-10
 85.62112   -113.6 1.008e+04 4.517e-10
 85.63189   -113.6 9.566e+03 3.492e-10
 85.64256   -112.6 9.850e+03 4.249e-10
 85.67457   -112.0 9.355e+03 3.266e-10
 85.71441   -111.3 8.819e+03 2.455e-10
 85.73575   -110.2 8.966e+03 2.731e-10
 85.76004   -108.9 8.490e+03 2.088e-10
 85.80272   -107.6 8.376e+03 1.928e-10
 85.82874   -106.5 8.389e+03 1.944e-10
 85.85009   -105.4 8.425e+03 2.079e-10
 85.87309   -104.6 8.598e+03 2.423e-10
 85.89443   -103.9 8.493e+03 2.268e-10
 85.92174   -103.2 8.715e+03 2.807e-10
 85.94308   -102.0 8.773e+03 3.071e-10
 85.97346   -101.3 8.929e+03 3.438e-10
 86.01473   -100.7 8.958e+03 3.491e-10
 86.03607    -99.5 9.069e+03 3.939e-10
 86.05883    -98.9 9.014e+03 3.710e-10
 86.10151    -98.3 8.795e+03 2.947e-10
 86.12906    -97.7 8.522e+03 2.244e-10
 86.15041    -96.5 8.702e+03 2.764e-10
 86.18688    -95.9 8.429e+03 2.137e-10
 86.22206    -95.4 8.258e+03 1.863e-10
 86.23757    -94.0 8.380e+03 2.125e-10
 86.24508    -93.3 8.159e+03 1.740e-10
 86.27225    -92.8 8.090e+03 1.651e-10
 86.31494    -92.4 8.137e+03 1.821e-10
 86.35762    -90.5 8.378e+03 2.306e-10
 86.40031    -89.9 8.622e+03 3.022e-10
 86.42938    -89.4 8.863e+03 3.546e-10
 86.45073    -87.9 8.680e+03 3.076e-10
 86.48568    -87.6 8.794e+03 3.226e-10
 86.52238    -87.3 8.786e+03 3.194e-10
 86.54372    -85.9 8.782e+03 3.156e-10
 86.57104    -85.7 8.648e+03 2.721e-10
 86.59573    -85.5 8.473e+03 2.254e-10
 86.61708    -84.7 8.406e+03 2.302e-10
 86.63671    -84.2 8.249e+03 2.028e-10
 86.65805    -83.1 8.270e+03 2.030e-10
 86.69910    -82.7 8.236e+03 1.964e-10
 86.72970    -82.7 8.360e+03 2.078e-10
 86.75105    -82.8 8.802e+03 2.895e-10
 86.78447    -83.7 9.693e+03 5.133e-10
 86.82270    -84.6 1.054e+04 8.290e-10
 86.84404    -84.9 1.125e+04 1.199e-09
 86.86984    -86.4 1.162e+04 1.418e-09
 86.91252    -88.3 1.163e+04 1.405e-09
 86.93703    -90.1 1.133e+04 1.173e-09
 86.94955    -90.9 1.085e+04 8.863e-10
 86.96773    -90.0 1.108e+04 1.041e-09
 86.99789    -91.1 1.036e+04 6.465e-10
 87.03002    -91.7 9.772e+03 3.855e-10
 87.05137    -92.1 9.316e+03 2.608e-10
 87.08326    -91.8 9.097e+03 1.798e-10
 87.12302    -91.3 9.057e+03 1.437e-10
 87.14436    -90.8 9.032e+03 1.407e-10
 87.16863    -89.9 9.080e+03 1.340e-10
 87.21131    -89.0 9.203e+03 1.377e-10
 87.23735    -88.0 9.350e+03 1.447e-10
 87.25869    -87.4 9.509e+03 1.839e-10
 87.29668    -86.4 9.564e+03 1.877e-10
 87.31838    -85.3 9.613e+03 1.753e-10
 87.33070    -85.6 9.615e+03 1.983e-10
 87.35169    -85.1 9.803e+03 2.650e-10
 87.38205    -83.7 9.774e+03 1.987e-10
 87.42334    -82.4 9.762e+03 1.485e-10
 87.44468    -81.9 9.949e+03 2.073e-10
 87.46742    -80.5 9.910e+03 1.546e-10
 87.51010    -79.0 9.928e+03 1.281e-10
 87.53767    -77.4 9.957e+03 1.210e-10
 87.55902    -76.9 1.008e+04 1.585e-10
 87.59547    -75.2 1.011e+04 1.572e-10
 87.63067    -73.6 1.023e+04 1.618e-10
 87.65201    -73.0 1.029e+04 1.937e-10
 87.66903    -71.6 1.048e+04 2.100e-10
 87.69037    -71.3 1.040e+04 2.200e-10
 87.72352    -70.1 1.068e+04 2.592e-10
 87.76621    -69.4 1.138e+04 4.306e-10
 87.80889    -69.0 1.191e+04 6.554e-10
 87.83799    -68.7 1.230e+04 8.574e-10
 87.85934    -68.7 1.273e+04 1.190e-09
 87.89426    -68.5 1.270e+04 1.160e-09
 87.93099    -67.7 1.221e+04 6.841e-10
 87.95233    -67.6 1.237e+04 7.177e-10
 87.97963    -67.2 1.171e+04 3.146e-10
 88.01967    -66.5 1.132e+04 1.912e-10
 88.04102    -66.2 1.163e+04 2.874e-10
 88.04532    -65.2 1.148e+04 2.082e-10
 88.06666    -65.4 1.154e+04 3.046e-10
 88.10769    -63.7 1.139e+04 2.860e-10
 88.13831    -61.8 1.129e+04 3.011e-10
 88.15966    -61.6 1.141e+04 3.960e-10
 88.19305    -59.5 1.137e+04 4.049e-10
 88.23131    -57.6 1.142e+04 4.213e-10
 88.25265    -57.6 1.152e+04 4.670e-10
 88.27842    -56.5 1.181e+04 5.037e-10
 88.32111    -56.2 1.216e+04 6.677e-10
 88.34564    -56.0 1.244e+04 1.047e-09
 88.36698    -55.8 1.245e+04 1.105e-09
 88.39167    -54.8 1.270e+04 1.357e-09
 88.41301    -53.8 1.274e+04 1.421e-09
 88.43863    -53.1 1.273e+04 1.435e-09
 88.45998    -52.6 1.257e+04 1.238e-09
 88.49185    -51.8 1.227e+04 7.861e-10
 88.53163    -51.3 1.192e+04 4.751e-10
 88.55297    -50.5 1.190e+04 4.491e-10
 88.57721    -49.8 1.168e+04 3.332e-10
 88.61990    -48.9 1.170e+04 3.062e-10
 88.64596    -48.7 1.221e+04 3.899e-10
 88.66730    -48.3 1.234e+04 4.886e-10
 88.70527    -47.9 1.269e+04 1.047e-09
 88.73896    -47.2 1.362e+04 2.053e-09
 88.75456    -46.4 1.405e+04 2.680e-09
 88.76346    -46.0 1.400e+04 2.542e-09
 88.77977    -46.0 1.447e+04 3.114e-09
 88.79593    -46.1 1.487e+04 3.799e-09
 88.80660    -46.0 1.506e+04 4.282e-09
 88.82245    -46.0 1.531e+04 5.088e-09
 88.84242    -45.7 1.545e+04 5.536e-09
 88.85309    -45.6 1.594e+04 6.539e-09
 88.86514    -45.9 1.590e+04 6.642e-09
 88.88648    -45.8 1.549e+04 6.139e-09
 88.89959    -45.3 1.498e+04 5.120e-09
 88.91026    -45.4 1.555e+04 7.052e-09
 88.92812    -44.4 1.498e+04 4.990e-09
 88.93879    -44.5 1.499e+04 5.185e-09
 88.94609    -44.1 1.452e+04 3.181e-09
 88.95676    -43.9 1.490e+04 4.214e-09
 88.97185    -44.0 1.429e+04 2.580e-09
 89.00396    -44.8 1.360e+04 1.671e-09
 89.03928    -44.4 1.296e+04 1.147e-09
 89.06062    -44.2 1.330e+04 1.575e-09
 89.08943    -42.6 1.272e+04 1.029e-09
 89.11431    -41.1 1.241e+04 6.625e-10
 89.13565    -40.6 1.249e+04 7.632e-10
 89.17480    -39.2 1.226e+04 5.573e-10
 89.21748    -38.7 1.204e+04 4.742e-10
 89.24660    -37.6 1.186e+04 4.629e-10
 89.26795    -37.3 1.183e+04 4.572e-10
 89.30285    -35.9 1.163e+04 4.541e-10
 89.33960    -34.1 1.143e+04 3.921e-10
 89.36094    -33.5 1.135e+04 3.982e-10
 89.38822    -31.8 1.127e+04 2.862e-10
 89.43090    -30.8 1.122e+04 2.050e-10
 89.45393    -29.7 1.105e+04 1.935e-10
 89.46664    -29.0 1.104e+04 1.947e-10
 89.48630    -28.8 1.105e+04 2.016e-10
 89.51627    -27.6 1.099e+04 2.289e-10
 89.54692    -25.8 1.092e+04 2.702e-10
 89.56827    -25.0 1.092e+04 2.479e-10
 89.60164    -23.2 1.096e+04 2.762e-10
 89.63992    -21.7 1.101e+04 2.877e-10
 89.66126    -20.9 1.110e+04 3.024e-10
 89.68701    -19.8 1.125e+04 3.493e-10
 89.72970    -19.2 1.143e+04 4.371e-10
 89.75425    -19.1 1.168e+04 5.607e-10
 89.77559    -18.9 1.206e+04 7.959e-10
 89.81506    -19.6 1.242e+04 1.145e-09
 89.83695    -20.2 1.257e+04 1.486e-09
 89.84779    -20.7 1.261e+04 1.573e-09
 89.86859    -20.6 1.257e+04 1.577e-09
 89.90043    -21.0 1.204e+04 1.234e-09
 89.94024    -21.4 1.129e+04 7.573e-10
 89.96158    -21.7 1.094e+04 6.053e-10
 89.98580    -21.5 1.027e+04 3.270e-10
 90.02849    -21.5 9.911e+03 1.787e-10
 90.05457    -21.8 9.644e+03 1.299e-10
 90.07591    -21.9 9.471e+03 1.055e-10
 90.11386    -21.2 9.309e+03 1.083e-10
 90.14757    -20.1 9.318e+03 1.249e-10
 90.16891    -20.0 9.301e+03 1.247e-10
 90.18760    -18.5 9.354e+03 1.488e-10
 90.20894    -18.8 9.280e+03 1.243e-10
 90.24056    -17.4 9.286e+03 1.495e-10
 90.26190    -17.1 9.252e+03 1.588e-10
 90.28459    -15.5 9.243e+03 1.703e-10
 90.32728    -14.0 9.226e+03 1.715e-10
 90.35489    -12.6 9.203e+03 1.717e-10
 90.37624    -12.6 9.221e+03 1.725e-10
 90.41265    -11.6 9.219e+03 1.865e-10
 90.44789    -10.3 9.226e+03 2.193e-10
 90.46923    -10.2 9.284e+03 2.575e-10
 90.49802     -8.8 9.273e+03 2.687e-10
 90.53825     -7.5 9.254e+03 2.608e-10
 90.55959     -7.3 9.176e+03 2.255e-10
 90.58338     -6.3 9.122e+03 2.290e-10
 90.62607     -5.4 8.976e+03 2.036e-10
 90.65521     -4.4 8.828e+03 1.911e-10
 90.67656     -4.2 8.648e+03 1.619e-10
 90.71144     -2.9 8.504e+03 1.501e-10
 90.74821     -1.2 8.384e+03 1.371e-10
 90.76955     -0.8 8.152e+03 1.033e-10
 90.79681      1.1 8.055e+03 8.582e-11
 90.83949      2.8 7.980e+03 6.683e-11
 90.86254      4.4 7.896e+03 5.287e-11
 90.88388      4.8 7.786e+03 4.568e-11
 90.91024      6.6 7.750e+03 4.529e-11
 90.93158      7.3 7.807e+03 4.964e-11
 90.95553      9.1 7.808e+03 5.083e-11
 90.97688      9.7 7.810e+03 4.930e-11
 91.01023     11.6 7.832e+03 5.511e-11
 91.04853     13.4 7.875e+03 6.340e-11
 91.06987     13.5 7.949e+03 6.793e-11
 91.09560     14.8 8.190e+03 9.445e-11
 91.13828     15.8 8.578e+03 1.373e-10
 91.16286     16.8 8.989e+03 1.970e-10
 91.18420     15.5 9.668e+03 3.652e-10
 91.22365     16.7 9.834e+03 4.318e-10
 91.25585     18.0 9.858e+03 4.346e-10
 91.27175     17.0 9.989e+03 4.896e-10
 91.28223     17.1 1.030e+04 6.139e-10
 91.30902     18.5 1.003e+04 4.806e-10
 91.34885     20.0 9.725e+03 3.371e-10
 91.37019     18.7 9.237e+03 1.709e-10
 91.39439     19.9 9.001e+03 1.291e-10
 91.43707     21.3 8.907e+03 1.173e-10
 91.46318     23.0 8.913e+03 1.227e-10
 91.48452     21.9 8.869e+03 1.179e-10
 91.52244     23.6 8.934e+03 1.442e-10
 91.55617     25.1 9.093e+03 1.984e-10
 91.57752     24.4 9.319e+03 2.655e-10
 91.60781     25.7 9.593e+03 3.738e-10
 91.63288     26.6 9.972e+03 5.467e-10
 91.65290     26.6 1.022e+04 7.025e-10
 91.67051     25.7 1.002e+04 6.239e-10
 91.69318     26.4 1.022e+04 7.368e-10
 91.73587     26.8 1.044e+04 8.660e-10
 91.76350     27.2 1.064e+04 9.657e-10
 91.77408     26.4 1.041e+04 8.614e-10
 91.78903     26.7 1.052e+04 9.231e-10
 91.80801     26.8 1.057e+04 9.658e-10
 91.81812     26.5 1.019e+04 7.651e-10
 91.82047     26.2 1.011e+04 7.361e-10
 91.83171     26.4 1.013e+04 7.670e-10
 91.85305     26.5 1.015e+04 7.956e-10
 91.86697     26.6 1.019e+04 8.357e-10
 91.87764     26.2 1.015e+04 8.156e-10
 91.89574     26.4 1.022e+04 8.631e-10
 91.91347     26.6 1.029e+04 8.992e-10
 91.92414     26.4 1.024e+04 8.340e-10
 91.93842     26.6 1.032e+04 8.314e-10
 91.95976     26.4 1.039e+04 8.124e-10
 91.97064     26.0 1.044e+04 7.582e-10
 91.98131     25.2 1.041e+04 7.090e-10
 91.99401     24.4 1.039e+04 6.945e-10
 92.00468     23.6 1.064e+04 8.603e-10
 92.01713     22.9 1.065e+04 9.052e-10
 92.02780     22.7 1.061e+04 9.125e-10
 92.04513     22.4 1.058e+04 9.521e-10
 92.06363     22.1 1.054e+04 9.692e-10
 92.07430     22.3 1.056e+04 9.742e-10
 92.08782     22.1 1.043e+04 9.250e-10
 92.10916     22.0 1.024e+04 8.427e-10
 92.12080     21.9 9.994e+03 7.380e-10
 92.13147     22.2 9.917e+03 7.023e-10
 92.15184     22.0 9.601e+03 5.604e-10
 92.16729     21.9 9.450e+03 5.046e-10
 92.17806     22.2 9.528e+03 5.204e-10
 92.20539     22.3 9.016e+03 3.688e-10
 92.24808     22.3 8.534e+03 2.599e-10
 92.27115     22.5 8.164e+03 1.924e-10
 92.29249     23.3 8.458e+03 2.345e-10
 92.33345     23.8 8.208e+03 1.838e-10
 92.35552     24.4 8.005e+03 1.512e-10
 92.36488     24.4 8.027e+03 1.627e-10
 92.38549     25.4 8.221e+03 1.936e-10
 92.41882     26.3 8.130e+03 1.764e-10
 92.45714     27.3 8.143e+03 1.777e-10
 92.47848     28.2 8.322e+03 2.152e-10
 92.50419     29.1 8.415e+03 2.343e-10
 92.54687     30.2 8.698e+03 2.998e-10
 92.57147     31.2 9.440e+03 4.692e-10
 92.59281     31.7 9.812e+03 6.039e-10
 92.61787     31.6 1.028e+04 7.601e-10
 92.62844     31.4 1.060e+04 8.895e-10
 92.64271     30.9 1.105e+04 1.135e-09
 92.66406     30.1 1.193e+04 1.756e-09
 92.67494     30.0 1.293e+04 2.832e-09
 92.68561     30.5 1.278e+04 2.797e-09
 92.70598     30.9 1.331e+04 3.464e-09
 92.71665     31.3 1.335e+04 3.614e-09
 92.72144     31.4 1.339e+04 3.567e-09
 92.73211     32.0 1.275e+04 2.568e-09
 92.74943     31.9 1.259e+04 1.965e-09
 92.76793     31.4 1.220e+04 1.471e-09
 92.77870     31.2 1.165e+04 1.130e-09
 92.80298     29.3 1.079e+04 5.996e-10
 92.84566     27.2 9.776e+03 3.836e-10
 92.87179     26.3 9.591e+03 3.780e-10
 92.89313     27.9 9.090e+03 2.669e-10
 92.93103     27.9 9.121e+03 2.818e-10
 92.96478     28.1 9.358e+03 3.265e-10
 92.98613     29.5 9.209e+03 2.566e-10
 93.01640     29.4 9.553e+03 2.983e-10
 93.04832     29.3 9.561e+03 2.752e-10
 93.06730     29.2 9.597e+03 2.647e-10
 93.07676     28.9 9.387e+03 2.126e-10
 93.07912     30.1 9.268e+03 1.915e-10
 93.10177     29.4 9.554e+03 2.361e-10
 93.12552     28.4 9.834e+03 2.911e-10
 93.13609     28.9 9.711e+03 2.774e-10
 93.15493     28.3 9.941e+03 3.371e-10
 93.17192     27.3 1.034e+04 4.842e-10
 93.18259     28.2 1.010e+04 4.066e-10
 93.19761     27.5 1.040e+04 5.584e-10
 93.21841     26.8 1.075e+04 7.361e-10
 93.22908     27.4 1.061e+04 6.362e-10
 93.24030     26.9 1.083e+04 7.518e-10
 93.26501     26.3 1.072e+04 7.688e-10
 93.28645     27.1 1.069e+04 6.898e-10
 93.31519     26.8 1.053e+04 7.197e-10
 93.35788     26.9 1.031e+04 6.957e-10
 93.37944     27.4 1.003e+04 6.072e-10
 93.40078     28.3 1.013e+04 6.319e-10
 93.42881     29.1 9.807e+03 5.139e-10
 93.45016     29.8 9.693e+03 4.683e-10
 93.47243     30.4 9.450e+03 3.932e-10
 93.49378     31.2 9.467e+03 3.889e-10
 93.52861     31.9 9.269e+03 3.437e-10
 93.56543     32.9 9.268e+03 3.428e-10
 93.58677     33.9 9.372e+03 3.528e-10
 93.61398     34.8 9.413e+03 3.604e-10
 93.65667     35.1 9.580e+03 4.024e-10
 93.67976     34.9 1.010e+04 5.694e-10
 93.70110     36.1 1.013e+04 5.631e-10
 93.74204     35.4 1.109e+04 1.002e-09
 93.77275     34.3 1.158e+04 1.374e-09
 93.78884     35.4 1.178e+04 1.472e-09
 93.80081     35.8 1.198e+04 1.592e-09
 93.82740     34.5 1.183e+04 1.498e-09
 93.86575     33.6 1.115e+04 1.045e-09
 93.88709     35.0 1.112e+04 9.983e-10
 93.91277     33.7 1.013e+04 5.557e-10
 93.95546     32.5 9.324e+03 3.390e-10
 93.98008     32.4 8.936e+03 2.665e-10
 94.00142     33.7 8.913e+03 2.801e-10
 94.04083     34.3 8.812e+03 2.372e-10
 94.07307     35.2 8.813e+03 2.020e-10
 94.09442     36.0 9.347e+03 3.177e-10
 94.12620     36.9 9.310e+03 2.856e-10
 94.15146     38.3 9.291e+03 2.639e-10
 94.16998     36.4 9.267e+03 2.610e-10
 94.18731     37.4 9.518e+03 3.673e-10
 94.20070     37.9 9.549e+03 3.699e-10
 94.22204     38.2 9.807e+03 3.969e-10
 94.23371     37.4 1.055e+04 4.942e-10
 94.24438     34.4 1.236e+04 1.043e-09
 94.26472     33.1 1.323e+04 1.671e-09
 94.28021     32.5 1.372e+04 2.682e-09
 94.29088     31.8 1.478e+04 4.960e-09
 94.30741     32.8 1.540e+04 6.421e-09
 94.32337     32.9 1.581e+04 7.051e-09
 94.33182     33.2 1.628e+04 7.676e-09
 94.33511     33.0 1.609e+04 6.488e-09
 94.33728     32.1 1.640e+04 6.571e-09
 94.34466     32.1 1.678e+04 6.497e-09
 94.35519     32.1 1.691e+04 6.354e-09
 94.36052     30.4 1.620e+04 5.428e-09
 94.36600     29.6 1.586e+04 4.814e-09
 94.37667     29.0 1.543e+04 4.376e-09
 94.38377     27.7 1.479e+04 3.709e-09
 94.39449     24.9 1.332e+04 2.792e-09
 94.41412     23.4 1.245e+04 2.217e-09
 94.43037     22.3 1.186e+04 1.776e-09
 94.44104     21.4 1.153e+04 1.564e-09
 94.45681     20.4 1.127e+04 1.301e-09
 94.47686     19.0 1.122e+04 1.194e-09
 94.48753     19.1 1.093e+04 1.069e-09
 94.49949     17.8 1.100e+04 1.090e-09
 94.51258     16.2 1.128e+04 1.205e-09
 94.52325     16.5 1.124e+04 1.166e-09
 94.53403     15.1 1.165e+04 1.410e-09
 94.54470     16.4 1.134e+04 1.248e-09
 94.56352     15.9 1.174e+04 1.540e-09
 94.58053     15.7 1.211e+04 1.779e-09
 94.59120     16.9 1.187e+04 1.631e-09
 94.60620     16.8 1.217e+04 1.806e-09
 94.62702     16.4 1.231e+04 1.833e-09
 94.63769     17.5 1.235e+04 1.926e-09
 94.64889     17.0 1.248e+04 1.970e-09
 94.67023     16.4 1.267e+04 1.953e-09
 94.68419     15.4 1.284e+04 1.936e-09
 94.69120     16.2 1.341e+04 2.599e-09
 94.69858     17.1 1.323e+04 2.392e-09
 94.71291     15.3 1.386e+04 2.683e-09
 94.73069     13.4 1.425e+04 3.225e-09
 94.74136     14.3 1.499e+04 4.693e-09
 94.75560     13.6 1.465e+04 5.046e-09
 94.77694     13.9 1.439e+04 4.882e-09
 94.78785     14.5 1.388e+04 4.214e-09
 94.79853     16.0 1.427e+04 4.587e-09
 94.81962     16.2 1.352e+04 3.226e-09
 94.83435     15.3 1.290e+04 2.092e-09
 94.84502     15.7 1.282e+04 1.742e-09
 94.86231     13.5 1.190e+04 1.187e-09
 94.87390     11.0 1.149e+04 1.110e-09
 94.88177     11.7 1.172e+04 1.168e-09
 94.90229     11.4 1.153e+04 1.090e-09
 94.93720     10.7 1.153e+04 1.235e-09
 94.97404     11.2 1.156e+04 1.262e-09
 94.99538     11.7 1.203e+04 1.579e-09
 95.02257     12.2 1.203e+04 1.548e-09
 95.06525     13.0 1.164e+04 1.131e-09
 95.08837     13.4 1.097e+04 6.070e-10
 95.10971     13.6 1.165e+04 1.298e-09
 95.15062     14.2 1.080e+04 6.674e-10
 95.18136     14.6 9.963e+03 3.131e-10
 95.20271     15.3 1.040e+04 5.286e-10
 95.22475     15.8 9.632e+03 2.468e-10
 95.24609     16.0 9.777e+03 3.163e-10
 95.27436     16.6 9.333e+03 1.608e-10
 95.29570     16.8 9.468e+03 2.532e-10
 95.32136     17.6 9.191e+03 1.664e-10
 95.36405     18.6 8.993e+03 1.310e-10
 95.38869     19.9 8.863e+03 1.254e-10
 95.41003     20.4 9.093e+03 1.682e-10
 95.44941     21.6 9.016e+03 1.649e-10
 95.48168     22.7 9.008e+03 1.709e-10
 95.50303     23.0 9.129e+03 2.087e-10
 95.53478     23.7 9.160e+03 2.285e-10
 95.57468     24.2 9.331e+03 2.882e-10
 95.59395     24.1 9.427e+03 2.949e-10
 95.59674     23.2 9.469e+03 3.170e-10
 95.62015     23.3 9.554e+03 3.714e-10
 95.66284     23.5 9.479e+03 3.659e-10
 95.68901     23.9 9.183e+03 3.114e-10
 95.71035     23.2 9.055e+03 2.906e-10
 95.74821     23.5 8.636e+03 1.994e-10
 95.78200     23.4 8.320e+03 1.378e-10
 95.80335     23.0 8.355e+03 1.451e-10
 95.83357     23.2 8.344e+03 1.418e-10
 95.87500     23.6 8.402e+03 1.467e-10
 95.89634     23.3 8.639e+03 2.020e-10
 95.91894     23.8 8.731e+03 2.111e-10
 95.94739     24.1 8.798e+03 2.095e-10
 95.96873     23.1 8.789e+03 2.128e-10
 95.98933     22.6 8.883e+03 2.194e-10
 96.01067     22.1 9.112e+03 2.961e-10
 96.04700     21.2 9.307e+03 3.367e-10
 96.07891     20.6 9.645e+03 4.113e-10
 96.09280     19.5 1.006e+04 5.392e-10
 96.10347     19.3 1.018e+04 6.113e-10
 96.12150     18.5 1.049e+04 7.641e-10
 96.13319     18.1 1.077e+04 9.038e-10
 96.14031     17.5 1.072e+04 8.817e-10
 96.14997     16.9 1.085e+04 8.479e-10
 96.16418     14.7 1.147e+04 9.697e-10
 96.18553      9.8 1.278e+04 1.312e-09
 96.19646      4.9 1.350e+04 2.100e-09
 96.20714      3.3 1.330e+04 2.188e-09
 96.22821      1.5 1.334e+04 2.561e-09
 96.24296      0.1 1.339e+04 2.414e-09
 96.25363     -1.0 1.319e+04 1.930e-09
 96.27090     -3.1 1.290e+04 1.314e-09
 96.28946     -6.9 1.241e+04 8.439e-10
 96.30583     -8.2 1.173e+04 6.185e-10
 96.31938    -10.7 1.146e+04 5.581e-10
 96.34579    -13.3 1.112e+04 4.753e-10
 96.37770    -15.2 1.131e+04 5.620e-10
 96.39312    -15.5 1.126e+04 5.888e-10
 96.40389    -15.4 1.090e+04 4.604e-10
 96.43116    -15.9 1.092e+04 6.627e-10
 96.47384    -15.3 1.061e+04 5.864e-10
 96.49698    -14.9 1.020e+04 3.758e-10
 96.51832    -14.1 1.012e+04 3.547e-10
 96.55921    -14.1 9.789e+03 2.051e-10
 96.58997    -15.3 9.539e+03 1.382e-10
 96.61132    -14.0 9.731e+03 1.877e-10
 96.64458    -15.9 9.706e+03 2.094e-10
 96.67003    -19.9 1.060e+04 4.032e-10
 96.68707    -22.0 1.157e+04 5.752e-10
 96.70421    -25.2 1.271e+04 1.090e-09
 96.71908    -25.3 1.317e+04 2.171e-09
 96.73994    -25.2 1.375e+04 3.177e-09
 96.75061    -26.1 1.541e+04 6.077e-09
 96.76177    -27.0 1.657e+04 5.517e-09
 96.78311    -29.6 1.661e+04 4.381e-09
 96.79711    -33.0 1.484e+04 3.062e-09
 96.80778    -34.1 1.540e+04 3.653e-09
 96.82579    -36.6 1.386e+04 2.444e-09
 96.84360    -37.3 1.344e+04 1.833e-09
 96.85230    -38.4 1.350e+04 1.860e-09
 96.85583    -40.0 1.378e+04 1.967e-09
 96.86848    -41.6 1.265e+04 1.335e-09
 96.89020    -41.7 1.211e+04 1.087e-09
 96.91164    -42.5 1.197e+04 1.010e-09
 96.94337    -43.3 1.141e+04 7.451e-10
 96.98329    -43.7 1.119e+04 6.857e-10
 97.00463    -43.8 1.121e+04 6.814e-10
 97.02068    -43.8 1.093e+04 6.419e-10
 97.04202    -45.3 1.078e+04 5.603e-10
 97.07142    -44.6 1.039e+04 3.703e-10
 97.09762    -44.1 1.006e+04 2.216e-10
 97.11896    -43.9 9.934e+03 1.814e-10
 97.15679    -43.8 9.739e+03 1.249e-10
 97.19061    -43.5 9.626e+03 1.078e-10
 97.21196    -42.9 9.475e+03 8.538e-11
 97.24216    -42.2 9.447e+03 7.835e-11
 97.28361    -41.3 9.400e+03 8.016e-11
 97.30495    -40.6 9.290e+03 5.493e-11
 97.32753    -39.6 9.268e+03 5.462e-11
 97.37022    -38.7 9.335e+03 5.535e-11
 97.39267    -38.0 9.464e+03 5.803e-11
 97.39905    -38.1 9.462e+03 5.742e-11
 97.41928    -37.6 9.377e+03 4.518e-11
 97.45558    -36.9 9.413e+03 5.733e-11
 97.49093    -36.0 9.461e+03 7.725e-11
 97.51228    -35.1 9.393e+03 7.363e-11
 97.54095    -34.0 9.572e+03 9.938e-11
 97.58364    -33.3 9.800e+03 1.261e-10
 97.60527    -33.1 9.922e+03 1.610e-10
 97.62661    -32.2 9.928e+03 1.604e-10
 97.66901    -31.9 9.991e+03 1.915e-10
 97.69826    -31.7 9.905e+03 1.955e-10
 97.71960    -30.9 1.000e+04 1.786e-10
 97.74332    -30.9 9.880e+03 1.427e-10
 97.76466    -30.3 1.010e+04 1.877e-10
 97.79126    -30.5 9.831e+03 1.386e-10
 97.81260    -30.3 9.973e+03 1.430e-10
 97.83974    -30.9 1.001e+04 9.785e-11
 97.88243    -31.6 9.824e+03 9.003e-11
 97.90559    -32.4 9.878e+03 9.828e-11
 97.92693    -32.6 9.926e+03 1.571e-10
 97.96780    -32.8 9.844e+03 1.887e-10
 97.99858    -32.4 9.882e+03 1.977e-10
 98.01993    -31.8 9.961e+03 1.915e-10
 98.05317    -32.7 9.942e+03 1.519e-10
 98.09158    -34.1 9.745e+03 1.551e-10
 98.11104    -34.7 9.687e+03 1.484e-10
 98.11531    -33.5 9.869e+03 1.229e-10
 98.13854    -35.6 9.966e+03 1.949e-10
 98.18122    -36.8 1.003e+04 3.097e-10
 98.20591    -37.7 9.894e+03 3.481e-10
 98.22725    -38.0 9.957e+03 4.225e-10
 98.26659    -38.8 9.583e+03 2.008e-10
 98.29890    -41.7 9.277e+03 1.124e-10
 98.32025    -42.2 9.013e+03 1.018e-10
 98.35196    -43.6 8.851e+03 9.025e-11
 98.39190    -44.1 8.845e+03 1.014e-10
 98.41324    -43.8 8.738e+03 9.363e-11
 98.43733    -43.9 8.672e+03 1.151e-10
 98.46596    -43.5 8.647e+03 1.366e-10
 98.48730    -43.7 8.717e+03 1.651e-10
 98.50623    -43.1 8.749e+03 1.746e-10
 98.52757    -42.3 8.647e+03 1.666e-10
 98.56538    -42.1 8.813e+03 1.824e-10
 98.59922    -42.3 9.064e+03 2.414e-10
 98.62057    -41.4 8.946e+03 2.312e-10
 98.65075    -41.4 9.249e+03 3.553e-10
 98.69222    -40.6 9.835e+03 5.297e-10
 98.71356    -39.8 9.699e+03 5.096e-10
 98.73612    -40.6 1.062e+04 6.956e-10
 98.77880    -44.2 1.194e+04 1.139e-09
 98.80645    -46.0 1.259e+04 1.635e-09
 98.81703    -45.6 1.256e+04 1.663e-09
 98.82709    -46.5 1.242e+04 2.034e-09
 98.83776    -46.2 1.224e+04 1.636e-09
 98.85285    -46.4 1.205e+04 1.750e-09
 98.86352    -45.8 1.207e+04 1.683e-09
 98.87465    -45.6 1.167e+04 1.577e-09
 98.89599    -45.2 1.144e+04 1.154e-09
 98.91002    -46.5 1.089e+04 7.059e-10
 98.92069    -46.3 1.072e+04 6.517e-10
 98.93867    -47.3 1.012e+04 4.619e-10
 98.95652    -47.7 1.009e+04 3.834e-10
 98.96719    -46.7 1.004e+04 3.716e-10
 98.99213    -48.3 1.009e+04 3.456e-10
 99.01388    -50.9 1.106e+04 5.326e-10
 99.03522    -49.8 1.195e+04 3.967e-10
 99.06028    -53.7 1.280e+04 1.215e-09
 99.07085    -54.3 1.356e+04 1.201e-09
 99.08807    -55.8 1.395e+04 2.803e-09
 99.10668    -55.8 1.438e+04 5.321e-09
 99.11735    -56.1 1.500e+04 7.803e-09
 99.13075    -53.5 1.537e+04 9.105e-09
 99.15210    -51.7 1.566e+04 8.508e-09
 99.16384    -50.8 1.536e+04 4.079e-09
 99.17452    -49.4 1.643e+04 6.381e-09
 99.18841    -53.5 1.481e+04 1.990e-09
 99.19908    -53.0 1.470e+04 2.048e-09
 99.21034    -59.4 1.092e+04 5.452e-10
 99.22101    -58.6 1.168e+04 7.141e-10
 99.23747    -61.3 9.583e+03 3.953e-10
 99.25684    -61.5 9.169e+03 3.421e-10
 99.26751    -61.4 9.147e+03 3.541e-10
 99.29092    -60.9 9.010e+03 3.114e-10
 99.31420    -59.7 8.662e+03 2.482e-10
 99.33554    -59.0 8.755e+03 2.744e-10
 99.37639    -58.4 8.632e+03 2.406e-10
 99.40719    -58.0 8.625e+03 2.372e-10
 99.42854    -57.5 8.639e+03 2.382e-10
 99.46175    -57.2 8.807e+03 2.747e-10
 99.50019    -56.8 9.125e+03 3.602e-10
 99.52153    -56.6 9.103e+03 3.647e-10
 99.53925    -55.9 9.419e+03 4.774e-10
 99.56059    -54.9 9.625e+03 5.569e-10
 99.58981    -54.1 9.883e+03 6.608e-10
 99.61452    -54.0 1.014e+04 7.220e-10
 99.63586    -55.3 1.095e+04 1.045e-09
 99.67518    -57.0 1.192e+04 1.484e-09
 99.70709    -59.1 1.256e+04 1.945e-09
 99.71799    -60.0 1.291e+04 2.213e-09
 99.72538    -60.3 1.286e+04 2.236e-09
 99.73572    -59.6 1.377e+04 3.011e-09
 99.74968    -60.5 1.380e+04 3.023e-09
 99.76449    -61.2 1.339e+04 2.564e-09
 99.77516    -62.2 1.249e+04 1.760e-09
 99.79236    -63.6 1.185e+04 1.303e-09
 99.81098    -64.7 1.133e+04 1.039e-09
 99.82175    -66.0 1.059e+04 6.743e-10
 99.84591    -67.5 9.859e+03 4.365e-10
 99.88860    -68.5 9.414e+03 3.081e-10
 99.91124    -69.1 9.207e+03 2.476e-10
 99.91614    -68.9 9.826e+03 3.523e-10
 99.93618    -70.9 9.196e+03 2.487e-10
 99.97397    -72.5 9.263e+03 2.481e-10
100.00783    -76.1 1.057e+04 3.550e-10
