# Columns:
#   distance along LOS (in CHIMPs)
#   peculiar velocity  (in km/s)
#   temperature (K)
#   HI number density
# pos=(129.15,92.0231,151.758), angles=(1.20035,1.53477)
  0.01922     30.7 9.826e+03 2.256e-10
  0.05941     31.4 1.008e+04 2.937e-10
  0.09270     32.8 1.028e+04 4.449e-10
  0.11367     33.1 1.026e+04 4.240e-10
  0.14327     35.1 1.059e+04 5.596e-10
  0.18521     36.6 1.093e+04 6.485e-10
  0.20955     37.7 1.117e+04 7.024e-10
  0.23051     37.7 1.060e+04 4.326e-10
  0.26907     39.0 1.066e+04 4.588e-10
  0.30543     40.4 1.066e+04 4.541e-10
  0.32639     40.8 1.006e+04 2.387e-10
  0.35293     42.0 1.013e+04 2.217e-10
  0.39487     42.8 1.025e+04 2.372e-10
  0.42228     43.8 1.025e+04 3.091e-10
  0.44324     44.3 1.003e+04 2.280e-10
  0.46255     46.0 1.012e+04 3.234e-10
  0.48352     45.7 1.005e+04 3.173e-10
  0.51816     47.4 1.008e+04 3.515e-10
  0.53912     47.8 9.997e+03 3.204e-10
  0.56260     49.5 1.005e+04 3.438e-10
  0.60453     51.0 9.981e+03 3.276e-10
  0.63501     52.7 9.782e+03 2.743e-10
  0.65597     53.3 9.748e+03 2.702e-10
  0.68839     55.3 9.464e+03 1.881e-10
  0.73033     57.0 9.279e+03 1.169e-10
  0.75185     58.2 9.198e+03 7.737e-11
  0.77282     58.6 9.118e+03 6.295e-11
  0.81419     59.8 8.869e+03 5.303e-11
  0.84774     61.5 8.718e+03 5.209e-11
  0.86870     62.2 8.710e+03 5.225e-11
  0.89805     64.3 8.690e+03 5.304e-11
  0.93999     66.4 8.676e+03 5.426e-11
  0.96458     68.5 8.679e+03 5.568e-11
  0.98555     69.3 8.691e+03 5.965e-11
  1.02385     71.4 8.739e+03 6.296e-11
  1.06047     73.3 8.811e+03 6.885e-11
  1.08143     73.8 8.916e+03 8.602e-11
  1.10772     75.4 9.022e+03 1.079e-10
  1.14965     77.1 9.287e+03 1.586e-10
  1.17731     78.7 9.839e+03 2.614e-10
  1.19828     78.9 1.024e+04 3.805e-10
  1.22293     79.4 1.050e+04 4.582e-10
  1.23554     79.8 1.074e+04 5.563e-10
  1.24603     79.9 1.104e+04 6.827e-10
  1.26477     80.3 1.144e+04 8.876e-10
  1.28348     80.6 1.191e+04 1.152e-09
  1.29397     80.4 1.221e+04 1.283e-09
  1.30670     80.4 1.267e+04 1.581e-09
  1.32766     80.3 1.313e+04 1.904e-09
  1.34191     80.0 1.347e+04 2.229e-09
  1.35239     79.2 1.367e+04 2.254e-09
  1.36960     78.8 1.381e+04 2.546e-09
  1.38985     78.3 1.390e+04 2.736e-09
  1.40033     77.3 1.386e+04 2.652e-09
  1.41153     76.7 1.388e+04 2.654e-09
  1.43249     75.8 1.395e+04 2.552e-09
  1.44827     74.5 1.402e+04 2.374e-09
  1.45875     74.0 1.379e+04 2.198e-09
  1.47443     72.5 1.381e+04 2.015e-09
  1.49539     70.9 1.362e+04 1.752e-09
  1.50670     68.9 1.344e+04 1.527e-09
  1.51718     69.2 1.336e+04 1.417e-09
  1.53733     66.2 1.384e+04 1.526e-09
  1.55464     62.3 1.477e+04 1.999e-09
  1.56512     62.8 1.482e+04 1.962e-09
  1.57926     60.1 1.480e+04 2.970e-09
  1.60022     60.0 1.427e+04 4.171e-09
  1.61306     60.7 1.415e+04 4.186e-09
  1.62297     61.4 1.447e+04 4.936e-09
  1.63110     62.0 1.449e+04 4.917e-09
  1.64216     62.0 1.486e+04 3.968e-09
  1.66100     59.6 1.593e+04 2.995e-09
  1.67148     59.6 1.684e+04 3.969e-09
  1.68409     57.3 1.578e+04 2.657e-09
  1.70505     55.1 1.352e+04 1.763e-09
  1.71943     53.2 1.289e+04 1.255e-09
  1.72991     54.0 1.333e+04 1.625e-09
  1.74699     52.3 1.332e+04 1.116e-09
  1.76737     50.5 1.253e+04 8.540e-10
  1.77785     50.4 1.265e+04 8.106e-10
  1.78892     48.6 1.186e+04 6.157e-10
  1.80989     48.0 1.187e+04 5.306e-10
  1.82579     47.3 1.214e+04 5.132e-10
  1.83627     45.9 1.195e+04 4.382e-10
  1.85182     44.2 1.222e+04 5.556e-10
  1.87278     42.7 1.265e+04 7.656e-10
  1.88421     42.3 1.282e+04 1.157e-09
  1.89470     41.8 1.276e+04 1.238e-09
  1.91472     42.8 1.297e+04 1.670e-09
  1.93215     44.0 1.306e+04 1.919e-09
  1.94264     43.8 1.339e+04 2.092e-09
  1.95665     44.8 1.336e+04 1.966e-09
  1.97761     45.6 1.320e+04 1.627e-09
  1.99058     46.0 1.283e+04 1.240e-09
  2.00106     45.6 1.282e+04 1.254e-09
  2.01955     45.4 1.240e+04 9.828e-10
  2.03852     45.3 1.207e+04 7.702e-10
  2.04900     45.0 1.213e+04 8.182e-10
  2.06148     44.9 1.194e+04 7.601e-10
  2.08244     45.0 1.180e+04 7.515e-10
  2.09694     45.0 1.182e+04 8.067e-10
  2.10743     45.0 1.203e+04 9.251e-10
  2.12438     45.0 1.220e+04 1.053e-09
  2.14488     45.3 1.215e+04 1.233e-09
  2.15537     45.3 1.237e+04 1.353e-09
  2.16631     46.1 1.249e+04 1.450e-09
  2.19786     45.8 1.238e+04 1.307e-09
  2.23989     45.2 1.203e+04 9.809e-10
  2.26193     44.0 1.127e+04 7.123e-10
  2.28289     43.2 1.073e+04 5.313e-10
  2.32375     43.2 9.848e+03 3.522e-10
  2.35781     43.9 9.206e+03 2.029e-10
  2.37878     43.4 9.060e+03 1.565e-10
  2.40762     44.0 8.783e+03 9.722e-11
  2.44955     44.3 8.563e+03 7.748e-11
  2.47466     45.2 8.423e+03 8.071e-11
  2.49562     45.9 8.402e+03 7.304e-11
  2.53341     47.1 8.285e+03 8.444e-11
  2.57054     48.4 8.310e+03 9.592e-11
  2.59151     49.0 8.328e+03 9.511e-11
  2.61728     50.1 8.404e+03 1.164e-10
  2.65921     50.8 8.643e+03 1.473e-10
  2.68739     51.1 8.947e+03 1.928e-10
  2.70835     52.0 8.943e+03 1.940e-10
  2.74307     52.1 9.173e+03 2.626e-10
  2.77908     52.3 9.316e+03 3.303e-10
  2.79831     52.8 9.242e+03 3.146e-10
  2.80423     53.2 9.259e+03 3.011e-10
  2.82694     52.9 9.335e+03 3.345e-10
  2.86887     52.5 9.325e+03 3.535e-10
  2.90012     52.3 9.308e+03 3.548e-10
  2.92108     52.5 9.427e+03 3.960e-10
  2.95273     52.2 9.331e+03 3.516e-10
  2.99467     51.0 9.282e+03 3.328e-10
  3.01696     50.0 9.139e+03 3.412e-10
  3.03793     50.3 8.940e+03 2.865e-10
  3.07853     49.1 9.029e+03 3.341e-10
  3.10988     47.9 9.369e+03 4.194e-10
  3.12313     47.0 9.862e+03 5.545e-10
  3.13362     46.9 9.957e+03 5.634e-10
  3.15172     45.9 1.047e+04 8.090e-10
  3.17107     45.3 1.077e+04 1.027e-09
  3.18156     45.2 1.089e+04 1.070e-09
  3.19365     45.2 1.105e+04 1.239e-09
  3.21462     45.1 1.104e+04 1.203e-09
  3.22950     45.1 1.079e+04 9.980e-10
  3.23998     45.1 1.077e+04 9.833e-10
  3.25655     45.2 1.019e+04 7.557e-10
  3.28809     42.6 9.694e+03 3.822e-10
  3.32558     39.2 8.586e+03 1.791e-10
  3.34654     38.7 8.433e+03 1.516e-10
  3.37206     35.9 8.040e+03 1.031e-10
  3.41399     33.8 8.286e+03 1.070e-10
  3.44242     29.6 8.982e+03 1.711e-10
  3.46339     29.7 9.152e+03 1.945e-10
  3.48727     27.3 9.520e+03 3.544e-10
  3.50065     26.2 9.968e+03 4.921e-10
  3.51114     25.5 1.039e+04 6.249e-10
  3.52911     24.1 1.164e+04 1.005e-09
  3.54859     21.8 1.247e+04 1.309e-09
  3.55908     20.7 1.283e+04 1.591e-09
  3.57104     18.6 1.232e+04 1.620e-09
  3.59201     17.9 1.175e+04 1.487e-09
  3.60702     17.1 1.254e+04 1.269e-09
  3.61750     17.3 1.158e+04 1.132e-09
  3.63394      5.1 2.105e+04 9.190e-10
  3.65490    -26.8 3.219e+04 2.799e-09
  3.66588    -35.1 2.245e+04 1.502e-08
  3.67107    -35.8 2.244e+04 1.443e-08
  3.68101    -37.8 2.241e+04 4.024e-08
  3.68931    -39.5 2.345e+04 8.075e-08
  3.69456    -38.2 2.336e+04 6.005e-08
  3.70198    -41.0 2.510e+04 8.395e-08
  3.71246    -45.9 2.598e+04 8.764e-08
  3.71853    -52.9 2.750e+04 5.775e-08
  3.72377    -50.6 2.684e+04 5.786e-08
  3.73343    -58.3 2.602e+04 3.163e-08
  3.74250    -65.2 2.487e+04 2.340e-08
  3.74774    -62.6 2.419e+04 2.524e-08
  3.75440    -68.2 2.428e+04 2.413e-08
  3.76488    -74.7 2.859e+04 2.214e-08
  3.77171    -80.7 2.800e+04 4.223e-08
  3.77695    -79.2 2.888e+04 3.983e-08
  3.78584    -82.4 2.489e+04 1.347e-07
  3.79568    -83.0 2.265e+04 3.784e-07
  3.80092    -82.2 2.307e+04 3.565e-07
  3.80681    -83.9 2.223e+04 6.810e-07
  3.81729    -87.4 2.206e+04 8.179e-07
  3.82489    -91.4 2.187e+04 7.774e-07
  3.83013    -90.9 2.242e+04 6.121e-07
  3.83826    -93.7 2.243e+04 4.060e-07
  3.84874    -95.8 2.305e+04 2.007e-07
  3.85410    -97.8 2.344e+04 1.077e-07
  3.85934    -98.0 2.363e+04 1.031e-07
  3.86971    -99.8 2.321e+04 7.244e-08
  3.87807   -101.1 2.266e+04 5.964e-08
  3.88331   -100.7 2.273e+04 5.661e-08
  3.89068   -101.3 2.220e+04 5.228e-08
  3.90116   -101.5 2.188e+04 4.898e-08
  3.90729   -101.3 2.171e+04 4.609e-08
  3.91253   -101.1 2.181e+04 4.346e-08
  3.92212   -101.3 2.167e+04 4.049e-08
  3.93126   -101.8 2.137e+04 3.503e-08
  3.93650   -101.9 2.097e+04 2.705e-08
  3.94758   -102.3 2.016e+04 2.223e-08
  3.95811   -101.9 1.975e+04 1.871e-08
  3.96940   -101.6 1.906e+04 1.676e-08
  3.98454   -101.1 1.804e+04 1.256e-08
  3.99502   -100.5 1.753e+04 1.025e-08
  4.01133    -99.8 1.670e+04 8.066e-09
  4.03229    -99.1 1.583e+04 5.883e-09
  4.04296    -98.7 1.488e+04 4.071e-09
  4.05344    -98.4 1.453e+04 3.748e-09
  4.07423    -98.0 1.374e+04 2.713e-09
  4.09090    -97.6 1.295e+04 1.964e-09
  4.10138    -97.2 1.277e+04 1.884e-09
  4.11616    -96.9 1.214e+04 1.448e-09
  4.13713    -96.4 1.160e+04 1.155e-09
  4.14932    -95.7 1.116e+04 9.555e-10
  4.15981    -95.3 1.109e+04 9.502e-10
  4.17906    -94.4 1.078e+04 8.061e-10
  4.19727    -93.5 1.055e+04 6.918e-10
  4.21833    -93.0 1.060e+04 6.941e-10
  4.25263    -91.0 1.012e+04 5.213e-10
  4.29334    -88.9 9.722e+03 4.005e-10
  4.31431    -88.0 9.745e+03 4.159e-10
  4.33650    -86.2 9.465e+03 3.320e-10
  4.37843    -84.3 9.273e+03 2.792e-10
  4.41019    -82.4 9.113e+03 2.406e-10
  4.43116    -81.6 9.117e+03 2.500e-10
  4.46230    -79.6 8.959e+03 2.125e-10
  4.50423    -77.6 8.843e+03 1.831e-10
  4.52704    -75.6 8.757e+03 1.581e-10
  4.54800    -74.7 8.751e+03 1.648e-10
  4.58809    -72.7 8.664e+03 1.407e-10
  4.62292    -70.7 8.586e+03 1.217e-10
  4.64389    -69.9 8.628e+03 1.384e-10
  4.67196    -67.9 8.585e+03 1.273e-10
  4.71389    -65.9 8.570e+03 1.225e-10
  4.73977    -63.9 8.568e+03 1.215e-10
  4.76073    -63.1 8.721e+03 1.606e-10
  4.79775    -61.0 8.726e+03 1.606e-10
  4.83565    -58.9 8.750e+03 1.635e-10
  4.85662    -58.0 8.882e+03 1.983e-10
  4.88162    -56.0 8.894e+03 1.949e-10
  4.92355    -53.9 8.923e+03 1.957e-10
  4.95250    -52.0 8.973e+03 1.984e-10
  4.97346    -51.3 8.999e+03 2.044e-10
  5.00741    -49.6 9.044e+03 2.070e-10
  5.04838    -48.0 9.073e+03 2.094e-10
  5.06935    -47.3 9.104e+03 2.167e-10
  5.09128    -45.8 9.112e+03 2.183e-10
  5.11657    -44.4 9.083e+03 2.105e-10
  5.13754    -44.8 9.333e+03 2.800e-10
  5.16523    -43.3 9.240e+03 2.557e-10
  5.18619    -42.6 9.294e+03 2.797e-10
  5.21708    -41.1 9.136e+03 2.253e-10
  5.25901    -39.7 9.033e+03 1.842e-10
  5.28207    -38.6 9.034e+03 1.691e-10
  5.30304    -37.8 8.938e+03 1.534e-10
  5.34287    -36.7 8.942e+03 1.490e-10
  5.37796    -35.9 9.076e+03 1.550e-10
  5.39892    -35.0 8.990e+03 1.482e-10
  5.42674    -34.2 9.217e+03 1.779e-10
  5.46867    -33.3 9.386e+03 2.142e-10
  5.49480    -32.4 9.487e+03 2.384e-10
  5.51577    -31.5 9.548e+03 2.610e-10
  5.55253    -30.5 9.592e+03 2.766e-10
  5.59069    -29.3 9.588e+03 2.790e-10
  5.61165    -28.5 9.716e+03 3.236e-10
  5.63640    -27.2 9.573e+03 2.960e-10
  5.67833    -25.7 9.394e+03 2.490e-10
  5.70753    -24.2 9.237e+03 2.099e-10
  5.72850    -23.5 9.303e+03 2.310e-10
  5.76220    -21.9 9.174e+03 2.027e-10
  5.80342    -20.1 9.084e+03 1.868e-10
  5.82438    -19.5 9.116e+03 1.980e-10
  5.84606    -17.6 9.050e+03 1.876e-10
  5.88799    -15.6 9.014e+03 1.818e-10
  5.92026    -13.6 8.996e+03 1.772e-10
  5.94123    -12.9 9.035e+03 1.875e-10
  5.97186    -10.9 9.076e+03 1.958e-10
  6.01379     -9.0 9.175e+03 2.170e-10
  6.03711     -7.1 9.342e+03 2.524e-10
  6.05808     -6.6 9.572e+03 3.170e-10
  6.09765     -4.7 9.845e+03 3.898e-10
  6.12900     -3.6 1.010e+04 4.801e-10
  6.14328     -3.3 1.015e+04 5.269e-10
  6.15376     -3.1 1.018e+04 5.554e-10
  6.17084     -1.8 1.040e+04 6.462e-10
  6.19122     -0.9 1.061e+04 7.042e-10
  6.20171     -0.9 1.056e+04 6.616e-10
  6.21277     -0.2 1.072e+04 6.992e-10
  6.23374      0.6 1.081e+04 7.243e-10
  6.24965      1.4 1.082e+04 7.302e-10
  6.26013      1.1 1.052e+04 6.226e-10
  6.27464      1.9 1.062e+04 6.538e-10
  6.28512      1.6 1.032e+04 5.301e-10
  6.29664      1.1 1.095e+04 6.228e-10
  6.30807     -3.4 1.396e+04 1.041e-09
  6.31855    -10.4 1.674e+04 2.821e-09
  6.33857    -14.7 1.850e+04 7.597e-09
  6.35601    -16.8 1.965e+04 1.564e-08
  6.36649    -18.9 1.951e+04 1.623e-08
  6.38050    -20.2 2.066e+04 1.990e-08
  6.39618    -22.3 2.206e+04 1.644e-08
  6.40661    -24.1 2.288e+04 1.397e-08
  6.41439    -28.0 2.398e+04 9.847e-09
  6.42492    -36.4 2.142e+04 3.372e-09
  6.44340    -45.9 1.626e+04 2.280e-09
  6.46238    -51.7 1.329e+04 2.142e-09
  6.47286    -53.3 1.317e+04 2.140e-09
  6.48533    -54.4 1.293e+04 1.955e-09
  6.50630    -55.8 1.263e+04 1.466e-09
  6.52080    -57.7 1.232e+04 1.048e-09
  6.53128    -57.2 1.234e+04 1.055e-09
  6.54823    -59.4 1.206e+04 8.532e-10
  6.56874    -61.2 1.191e+04 8.047e-10
  6.57922    -60.6 1.196e+04 8.333e-10
  6.59016    -61.7 1.189e+04 8.265e-10
  6.61113    -62.4 1.184e+04 8.341e-10
  6.62716    -62.7 1.173e+04 8.446e-10
  6.63765    -62.0 1.177e+04 9.083e-10
  6.65306    -62.0 1.160e+04 8.585e-10
  6.67403    -61.8 1.144e+04 7.608e-10
  6.68559    -61.8 1.131e+04 6.603e-10
  6.69607    -60.9 1.134e+04 6.960e-10
  6.71596    -61.0 1.123e+04 6.131e-10
  6.73353    -61.0 1.117e+04 5.757e-10
  6.74401    -60.2 1.114e+04 5.853e-10
  6.75789    -60.2 1.109e+04 5.696e-10
  6.77886    -59.9 1.109e+04 5.668e-10
  6.79195    -59.7 1.117e+04 5.995e-10
  6.80244    -58.8 1.108e+04 5.866e-10
  6.82079    -58.3 1.130e+04 6.436e-10
  6.85234    -57.8 1.160e+04 7.346e-10
  6.88803    -57.0 1.172e+04 7.894e-10
  6.90900    -55.5 1.142e+04 6.884e-10
  6.93630    -54.7 1.153e+04 7.347e-10
  6.97823    -53.8 1.154e+04 7.410e-10
  7.00488    -52.5 1.146e+04 6.824e-10
  7.01526    -51.7 1.147e+04 6.901e-10
  7.03045    -51.3 1.144e+04 6.742e-10
  7.05142    -50.7 1.139e+04 6.423e-10
  7.06311    -50.4 1.134e+04 6.213e-10
  7.07359    -49.5 1.132e+04 6.250e-10
  7.09335    -48.9 1.127e+04 6.128e-10
  7.11105    -48.3 1.125e+04 6.029e-10
  7.12153    -47.5 1.126e+04 6.312e-10
  7.13528    -46.9 1.128e+04 6.388e-10
  7.15625    -46.3 1.132e+04 6.483e-10
  7.16947    -45.7 1.139e+04 6.632e-10
  7.17995    -45.2 1.143e+04 7.103e-10
  7.19818    -44.6 1.150e+04 7.330e-10
  7.21741    -44.0 1.158e+04 7.544e-10
  7.22790    -43.6 1.161e+04 7.916e-10
  7.24011    -43.1 1.164e+04 7.969e-10
  7.26108    -42.5 1.166e+04 7.829e-10
  7.27584    -41.8 1.167e+04 7.342e-10
  7.28632    -41.7 1.164e+04 7.329e-10
  7.30301    -41.1 1.160e+04 6.572e-10
  7.32378    -40.7 1.156e+04 5.947e-10
  7.33426    -40.8 1.155e+04 5.932e-10
  7.34494    -40.6 1.151e+04 5.582e-10
  7.36591    -40.4 1.152e+04 5.518e-10
  7.38220    -40.5 1.169e+04 5.545e-10
  7.39268    -41.1 1.169e+04 5.622e-10
  7.40784    -41.5 1.226e+04 6.495e-10
  7.42881    -41.7 1.285e+04 8.908e-10
  7.44063    -41.5 1.347e+04 1.320e-09
  7.44472    -41.9 1.300e+04 1.138e-09
  7.45387    -42.1 1.374e+04 1.587e-09
  7.47074    -41.6 1.437e+04 2.231e-09
  7.48857    -41.0 1.491e+04 2.989e-09
  7.49905    -41.6 1.416e+04 1.848e-09
  7.51267    -41.2 1.456e+04 2.258e-09
  7.53364    -40.8 1.484e+04 2.714e-09
  7.54699    -40.5 1.502e+04 3.206e-09
  7.55747    -41.3 1.403e+04 1.821e-09
  7.57557    -40.9 1.436e+04 2.259e-09
  7.59493    -40.4 1.475e+04 2.870e-09
  7.60541    -41.1 1.368e+04 1.515e-09
  7.61750    -40.6 1.426e+04 1.977e-09
  7.63847    -40.0 1.481e+04 2.587e-09
  7.65335    -39.5 1.526e+04 3.284e-09
  7.66384    -40.3 1.418e+04 1.518e-09
  7.68040    -39.8 1.461e+04 1.945e-09
  7.70130    -39.3 1.486e+04 2.402e-09
  7.72226    -39.7 1.386e+04 1.409e-09
  7.74330    -39.1 1.400e+04 1.713e-09
  7.75972    -38.4 1.402e+04 1.983e-09
  7.77020    -39.3 1.306e+04 1.246e-09
  7.78523    -38.6 1.318e+04 1.415e-09
  7.81678    -37.6 1.310e+04 1.568e-09
  7.84823    -36.8 1.294e+04 1.646e-09
  7.86608    -35.8 1.298e+04 1.738e-09
  7.87667    -37.0 1.291e+04 1.579e-09
  7.89016    -35.6 1.310e+04 1.838e-09
  7.91103    -34.7 1.322e+04 1.969e-09
  7.92451    -33.9 1.337e+04 2.082e-09
  7.93499    -34.7 1.348e+04 2.283e-09
  7.95296    -34.0 1.368e+04 2.560e-09
  7.97245    -33.2 1.388e+04 2.869e-09
  7.98293    -33.6 1.384e+04 2.863e-09
  7.99489    -32.8 1.400e+04 3.132e-09
  8.01586    -31.8 1.412e+04 3.354e-09
  8.02776    -30.8 1.421e+04 3.476e-09
  8.03229    -30.5 1.398e+04 3.199e-09
  8.04136    -30.9 1.374e+04 2.904e-09
  8.05779    -29.9 1.370e+04 2.865e-09
  8.07876    -28.8 1.365e+04 2.748e-09
  8.11030    -28.6 1.268e+04 1.574e-09
  8.15233    -27.1 1.247e+04 1.453e-09
  8.18537    -25.5 1.228e+04 1.384e-09
  8.20634    -26.2 1.145e+04 9.024e-10
  8.23620    -24.3 1.141e+04 9.454e-10
  8.27813    -22.3 1.135e+04 9.541e-10
  8.30222    -20.3 1.134e+04 9.702e-10
  8.32319    -20.2 1.074e+04 7.255e-10
  8.36199    -18.3 1.079e+04 7.506e-10
  8.39810    -16.5 1.084e+04 7.767e-10
  8.41907    -16.2 1.028e+04 5.745e-10
  8.44586    -14.4 1.025e+04 5.543e-10
  8.48779    -12.6 1.017e+04 5.099e-10
  8.51495    -10.7 9.935e+03 4.357e-10
  8.53592    -10.4 9.366e+03 2.987e-10
  8.57166     -8.7 9.202e+03 2.675e-10
  8.60184     -6.7 9.055e+03 2.392e-10
  8.62005     -5.9 8.884e+03 2.003e-10
  8.63180     -5.5 8.880e+03 2.021e-10
  8.65552     -3.5 8.763e+03 1.856e-10
  8.69745     -1.4 8.628e+03 1.667e-10
  8.72768      1.0 8.485e+03 1.466e-10
  8.74865      1.5 8.580e+03 1.790e-10
  8.78132      4.0 8.431e+03 1.519e-10
  8.82325      6.5 8.298e+03 1.231e-10
  8.84453      9.0 8.215e+03 9.967e-11
  8.86550      9.5 8.329e+03 1.159e-10
  8.90711     11.8 8.266e+03 9.405e-11
  8.94041     14.1 8.274e+03 8.694e-11
  8.96138     14.4 8.357e+03 9.609e-11
  8.99098     16.5 8.412e+03 9.484e-11
  9.03291     17.8 8.760e+03 1.227e-10
  9.05726     19.1 9.039e+03 2.184e-10
  9.07822     19.6 9.088e+03 2.246e-10
  9.11678     21.8 9.453e+03 3.580e-10
  9.15314     24.1 9.815e+03 4.708e-10
  9.17411     24.4 9.714e+03 4.208e-10
  9.20064     26.0 9.775e+03 4.304e-10
  9.24257     27.3 9.528e+03 3.447e-10
  9.26999     28.1 9.145e+03 2.585e-10
  9.29095     28.5 9.072e+03 2.324e-10
  9.32644     29.8 8.845e+03 2.010e-10
  9.36587     31.3 8.728e+03 1.798e-10
  9.38684     31.9 8.746e+03 1.856e-10
  9.41030     33.4 8.654e+03 1.696e-10
  9.45223     34.8 8.553e+03 1.634e-10
  9.48272     36.3 8.629e+03 1.772e-10
  9.50368     37.4 8.793e+03 2.143e-10
  9.53610     38.6 9.128e+03 2.482e-10
  9.57803     38.8 9.642e+03 3.478e-10
  9.59957     39.3 1.031e+04 6.283e-10
  9.62053     40.3 1.034e+04 5.885e-10
  9.66189     41.3 1.112e+04 9.876e-10
  9.69325     42.0 1.129e+04 1.142e-09
  9.70574     41.2 1.197e+04 1.320e-09
  9.71622     40.7 1.246e+04 1.494e-09
  9.73508     37.5 1.396e+04 2.268e-09
  9.75368     34.1 1.470e+04 3.510e-09
  9.76416     34.2 1.511e+04 4.454e-09
  9.77039     33.1 1.542e+04 6.122e-09
  9.78088     33.2 1.498e+04 5.308e-09
  9.79798     33.2 1.543e+04 5.925e-09
  9.81210     31.3 1.535e+04 4.245e-09
  9.82258     31.5 1.549e+04 4.048e-09
  9.83991     27.1 1.366e+04 2.009e-09
  9.86004     23.4 1.204e+04 1.114e-09
  9.87052     23.0 1.172e+04 1.014e-09
  9.88184     21.8 1.129e+04 8.101e-10
  9.90808     20.8 1.088e+04 6.327e-10
  9.92914     21.8 1.083e+04 5.794e-10
  9.95542     21.0 1.047e+04 4.196e-10
  9.99735     20.4 1.044e+04 4.014e-10
 10.02503     19.7 1.078e+04 4.960e-10
 10.04599     20.9 1.075e+04 4.460e-10
 10.07064     20.0 1.109e+04 6.813e-10
 10.08325     19.9 1.115e+04 8.023e-10
 10.09374     20.4 1.112e+04 7.949e-10
 10.11247     21.0 1.133e+04 9.985e-10
 10.13119     21.6 1.140e+04 1.038e-09
 10.14168     22.3 1.135e+04 1.001e-09
 10.16498     23.0 1.117e+04 8.418e-10
 10.20701     23.4 1.079e+04 5.859e-10
 10.23775     23.7 1.021e+04 3.627e-10
 10.25872     24.9 1.021e+04 3.606e-10
 10.29088     25.6 9.787e+03 2.296e-10
 10.33281     26.4 9.405e+03 1.484e-10
 10.35460     28.0 9.253e+03 1.052e-10
 10.37557     29.2 9.254e+03 1.020e-10
 10.41668     30.7 9.209e+03 7.120e-11
 10.45048     32.1 9.292e+03 4.788e-11
 10.47145     33.6 9.272e+03 4.795e-11
 10.50054     34.7 9.334e+03 3.621e-11
 10.54247     35.6 9.357e+03 3.323e-11
 10.56733     36.4 9.504e+03 3.516e-11
 10.58830     38.1 9.492e+03 3.436e-11
 10.62634     38.8 9.421e+03 5.260e-11
 10.66321     40.3 9.401e+03 9.394e-11
 10.68418     41.8 9.351e+03 8.576e-11
 10.71020     43.8 9.562e+03 1.301e-10
 10.75213     45.3 9.885e+03 1.604e-10
 10.78006     46.3 1.006e+04 1.690e-10
 10.80103     48.1 9.919e+03 1.451e-10
 10.83600     48.6 9.987e+03 1.386e-10
 10.87594     49.2 9.860e+03 1.370e-10
 10.89691     50.8 9.793e+03 1.311e-10
 10.91837     51.7 9.735e+03 1.372e-10
 10.93934     51.8 9.700e+03 1.197e-10
 10.96179     52.8 9.799e+03 1.256e-10
 10.99279     53.5 9.862e+03 1.326e-10
 11.01376     55.1 9.937e+03 1.597e-10
 11.04566     56.0 1.004e+04 2.030e-10
 11.08759     57.1 1.058e+04 2.705e-10
 11.10954     55.9 1.150e+04 3.049e-10
 11.11993     56.2 1.154e+04 3.552e-10
 11.13981     53.2 1.216e+04 5.739e-10
 11.15739     51.8 1.166e+04 9.827e-10
 11.16787     52.3 1.184e+04 1.104e-09
 11.18174     52.2 1.190e+04 1.635e-09
 11.20271     53.0 1.280e+04 1.958e-09
 11.21581     52.3 1.340e+04 2.022e-09
 11.22629     52.2 1.363e+04 2.052e-09
 11.24464     48.2 1.352e+04 1.691e-09
 11.26375     44.5 1.246e+04 1.506e-09
 11.27423     44.8 1.236e+04 1.481e-09
 11.29715     43.6 1.214e+04 1.448e-09
 11.32237     42.1 1.201e+04 1.275e-09
 11.34334     43.4 1.159e+04 9.997e-10
 11.38112     41.6 1.073e+04 5.032e-10
 11.41825     40.1 9.801e+03 2.486e-10
 11.43922     41.2 9.378e+03 1.713e-10
 11.46498     41.2 8.998e+03 1.335e-10
 11.50691     42.3 8.749e+03 1.152e-10
 11.53510     43.8 8.540e+03 9.836e-11
 11.55606     45.7 8.588e+03 1.062e-10
 11.59078     47.2 8.481e+03 9.189e-11
 11.63098     48.6 8.366e+03 8.200e-11
 11.65195     50.5 8.446e+03 9.358e-11
 11.67464     51.8 8.372e+03 9.004e-11
 11.71658     53.2 8.287e+03 9.500e-11
 11.74783     54.6 8.310e+03 1.074e-10
 11.76879     56.4 8.406e+03 1.258e-10
 11.80044     57.6 8.614e+03 1.474e-10
 11.84237     58.1 8.967e+03 1.850e-10
 11.86468     57.9 9.368e+03 2.659e-10
 11.88564     59.9 9.701e+03 3.143e-10
 11.91252     59.1 9.859e+03 4.174e-10
 11.92291     60.2 9.844e+03 4.160e-10
 11.93652     59.8 9.985e+03 4.593e-10
 11.95749     59.8 1.017e+04 6.021e-10
 11.97085     59.3 1.038e+04 6.497e-10
 11.98133     60.0 1.064e+04 7.316e-10
 11.99942     59.1 1.079e+04 7.607e-10
 12.01879     57.9 1.095e+04 7.840e-10
 12.02927     58.2 1.123e+04 9.085e-10
 12.04135     56.8 1.131e+04 9.310e-10
 12.06232     55.5 1.118e+04 9.334e-10
 12.07721     54.4 1.089e+04 9.189e-10
 12.08769     55.0 1.101e+04 9.806e-10
 12.09740     54.3 1.076e+04 9.216e-10
 12.10789     54.9 1.059e+04 7.904e-10
 12.12515     54.4 1.042e+04 7.091e-10
 12.14612     53.9 1.038e+04 6.112e-10
 12.16715     52.8 1.020e+04 5.104e-10
 12.18358     51.5 9.909e+03 4.285e-10
 12.19406     51.9 9.908e+03 4.336e-10
 12.21966     51.2 9.676e+03 3.706e-10
 12.26169     50.7 9.517e+03 3.253e-10
 12.29014     50.1 9.245e+03 2.650e-10
 12.31110     50.3 9.399e+03 2.975e-10
 12.34556     49.6 9.245e+03 2.667e-10
 12.38602     49.1 9.201e+03 2.573e-10
 12.40689     47.3 9.925e+03 3.981e-10
 12.41875     45.8 1.044e+04 5.480e-10
 12.43971     44.4 1.105e+04 8.085e-10
 12.45473     43.4 1.168e+04 1.238e-09
 12.46521     42.6 1.261e+04 1.978e-09
 12.48164     42.6 1.325e+04 2.633e-09
 12.50261     42.4 1.378e+04 3.106e-09
 12.52358     40.5 1.411e+04 3.054e-09
 12.54454     39.3 1.392e+04 2.697e-09
 12.56109     38.0 1.352e+04 2.198e-09
 12.57158     36.1 1.305e+04 1.676e-09
 12.58647     34.7 1.244e+04 1.308e-09
 12.60744     33.3 1.196e+04 1.090e-09
 12.61952     31.8 1.162e+04 1.016e-09
 12.64058     30.2 1.147e+04 1.023e-09
 12.68102     29.9 1.158e+04 1.166e-09
 12.71559     29.6 1.214e+04 1.525e-09
 12.73656     28.0 1.236e+04 1.664e-09
 12.76488     27.2 1.268e+04 1.799e-09
 12.79623     25.7 1.254e+04 1.481e-09
 12.81710     24.3 1.250e+04 1.374e-09
 12.83225     22.7 1.232e+04 1.251e-09
 12.84273     21.9 1.184e+04 1.049e-09
 12.85903     19.1 1.169e+04 9.896e-10
 12.88000     16.7 1.156e+04 9.755e-10
 12.89067     14.8 1.146e+04 9.778e-10
 12.90115     14.5 1.134e+04 9.213e-10
 12.92193     13.3 1.128e+04 9.334e-10
 12.93861     12.8 1.101e+04 9.082e-10
 12.94910     13.0 1.117e+04 9.281e-10
 12.96386     12.7 1.097e+04 8.913e-10
 12.98483     12.5 1.081e+04 8.291e-10
 12.99704     12.6 1.060e+04 7.399e-10
 13.00752     12.6 1.082e+04 8.344e-10
 13.02676     12.8 1.056e+04 7.278e-10
 13.04498     13.2 1.029e+04 6.099e-10
 13.05546     13.2 1.055e+04 7.225e-10
 13.06869     13.5 1.033e+04 6.030e-10
 13.08966     13.8 1.019e+04 5.085e-10
 13.10340     14.0 1.015e+04 4.498e-10
 13.11388     13.9 1.041e+04 5.578e-10
 13.13159     14.1 1.042e+04 5.131e-10
 13.15134     14.2 1.051e+04 4.888e-10
 13.16182     14.1 1.079e+04 6.146e-10
 13.17353     14.3 1.085e+04 5.990e-10
 13.19449     14.4 1.091e+04 5.938e-10
 13.20977     14.5 1.096e+04 5.956e-10
 13.22025     14.4 1.120e+04 7.282e-10
 13.23642     14.3 1.124e+04 7.312e-10
 13.25567     13.8 1.140e+04 7.575e-10
 13.26615     13.6 1.118e+04 5.918e-10
 13.26819     12.2 1.167e+04 7.021e-10
 13.27867     11.7 1.204e+04 9.173e-10
 13.29932     10.0 1.253e+04 1.221e-09
 13.31613      8.8 1.293e+04 1.694e-09
 13.32661      8.8 1.327e+04 2.065e-09
 13.34125      8.2 1.357e+04 2.564e-09
 13.36222      7.8 1.378e+04 2.822e-09
 13.37455      7.1 1.384e+04 2.839e-09
 13.38504      6.7 1.385e+04 2.819e-09
 13.40415      6.0 1.351e+04 2.365e-09
 13.42250      5.0 1.293e+04 1.805e-09
 13.43298      4.5 1.274e+04 1.712e-09
 13.44609      3.7 1.217e+04 1.397e-09
 13.46705      3.3 1.181e+04 1.229e-09
 13.48092      3.2 1.163e+04 1.133e-09
 13.49140      3.3 1.169e+04 1.199e-09
 13.50898      3.6 1.152e+04 1.098e-09
 13.52886      4.0 1.130e+04 9.713e-10
 13.53934      4.2 1.132e+04 1.009e-09
 13.55092      4.3 1.109e+04 8.749e-10
 13.57188      4.3 1.093e+04 7.833e-10
 13.58728      4.3 1.089e+04 7.527e-10
 13.59777      4.4 1.095e+04 7.927e-10
 13.61381      4.1 1.101e+04 7.986e-10
 13.63478      3.7 1.124e+04 8.969e-10
 13.64571      3.5 1.150e+04 1.071e-09
 13.65619      3.6 1.166e+04 1.174e-09
 13.67671      3.7 1.194e+04 1.357e-09
 13.69365      3.8 1.211e+04 1.466e-09
 13.70413      3.9 1.220e+04 1.490e-09
 13.71864      3.9 1.223e+04 1.484e-09
 13.73961      3.9 1.198e+04 1.365e-09
 13.75207      3.8 1.162e+04 1.179e-09
 13.76256      3.5 1.147e+04 1.100e-09
 13.78154      3.2 1.103e+04 9.331e-10
 13.80001      3.0 1.067e+04 8.099e-10
 13.81050      2.6 1.058e+04 7.944e-10
 13.82348      2.5 1.046e+04 7.434e-10
 13.84004      2.6 1.044e+04 7.328e-10
 13.85052      2.4 1.019e+04 5.939e-10
 13.85844      2.3 1.020e+04 5.916e-10
 13.86892      1.8 1.022e+04 5.940e-10
 13.88637      1.5 1.045e+04 6.324e-10
 13.90638      1.1 1.071e+04 7.398e-10
 13.91686      0.5 1.077e+04 7.634e-10
 13.92831      0.2 1.103e+04 9.143e-10
 13.94927      0.1 1.131e+04 1.092e-09
 13.96480      0.2 1.163e+04 1.286e-09
 13.97529     -0.5 1.160e+04 1.274e-09
 13.99120     -0.7 1.181e+04 1.399e-09
 14.01217     -1.1 1.192e+04 1.452e-09
 14.02323     -1.7 1.195e+04 1.474e-09
 14.03371     -2.7 1.170e+04 1.363e-09
 14.05410     -3.5 1.169e+04 1.373e-09
 14.07117     -4.4 1.178e+04 1.433e-09
 14.08165     -5.3 1.161e+04 1.368e-09
 14.09604     -6.2 1.183e+04 1.496e-09
 14.11700     -7.0 1.198e+04 1.627e-09
 14.12959     -7.8 1.206e+04 1.728e-09
 14.14007     -8.6 1.174e+04 1.530e-09
 14.15893     -9.7 1.191e+04 1.585e-09
 14.17753    -11.4 1.250e+04 1.752e-09
 14.18802    -13.7 1.263e+04 1.766e-09
 14.20087    -16.7 1.337e+04 2.044e-09
 14.22183    -20.0 1.372e+04 2.303e-09
 14.23596    -23.1 1.374e+04 2.387e-09
 14.24644    -26.2 1.332e+04 2.322e-09
 14.26376    -28.5 1.283e+04 2.042e-09
 14.28390    -30.4 1.232e+04 1.685e-09
 14.29438    -33.4 1.204e+04 1.390e-09
 14.30570    -35.6 1.176e+04 1.122e-09
 14.32666    -37.8 1.157e+04 9.933e-10
 14.34232    -39.5 1.149e+04 9.646e-10
 14.35280    -42.1 1.123e+04 8.285e-10
 14.36859    -42.5 1.111e+04 8.318e-10
 14.38956    -42.7 1.096e+04 8.312e-10
 14.40074    -43.9 1.223e+04 1.006e-09
 14.41123    -53.1 1.616e+04 1.351e-09
 14.42441    -61.0 2.033e+04 4.134e-09
 14.43490    -61.9 2.037e+04 4.477e-09
 14.44869    -67.4 2.139e+04 1.212e-08
 14.45917    -72.5 2.078e+04 1.996e-08
 14.47343    -74.7 2.069e+04 2.181e-08
 14.49439    -76.1 2.020e+04 2.176e-08
 14.50711    -76.9 1.932e+04 1.376e-08
 14.51759    -80.1 1.788e+04 6.402e-09
 14.53632    -84.7 1.543e+04 1.980e-09
 14.55505    -91.4 1.181e+04 6.419e-10
 14.56553    -95.8 9.379e+03 3.676e-10
 14.57826    -96.9 9.262e+03 3.446e-10
 14.60980    -96.1 9.509e+03 3.826e-10
 14.65113    -94.6 9.670e+03 4.195e-10
 14.67209    -94.9 9.445e+03 3.611e-10
 14.69377    -94.0 9.490e+03 3.684e-10
 14.73570    -93.0 9.485e+03 3.645e-10
 14.76798    -91.8 9.421e+03 3.305e-10
 14.78894    -92.1 9.036e+03 2.397e-10
 14.81956    -90.6 8.941e+03 2.039e-10
 14.86149    -89.1 8.893e+03 1.777e-10
 14.88482    -87.6 8.894e+03 1.627e-10
 14.90579    -87.7 8.607e+03 1.310e-10
 14.94536    -86.3 8.787e+03 1.321e-10
 14.98071    -85.0 9.010e+03 1.480e-10
 15.00167    -85.5 9.057e+03 1.560e-10
 15.02922    -84.5 9.370e+03 2.088e-10
 15.07116    -83.6 9.710e+03 2.841e-10
 15.09755    -82.8 1.005e+04 3.796e-10
 15.11852    -83.5 1.010e+04 4.037e-10
 15.15502    -82.7 1.019e+04 4.287e-10
 15.19343    -81.8 1.021e+04 4.141e-10
 15.21440    -82.6 9.891e+03 3.111e-10
 15.23888    -81.7 9.573e+03 2.093e-10
 15.28082    -80.7 9.465e+03 1.669e-10
 15.31028    -79.6 9.432e+03 1.581e-10
 15.33125    -79.7 9.424e+03 1.623e-10
 15.36468    -78.2 9.424e+03 1.625e-10
 15.40616    -76.8 9.549e+03 1.984e-10
 15.42713    -76.7 9.700e+03 2.653e-10
 15.44855    -75.0 9.986e+03 3.643e-10
 15.49048    -73.1 1.034e+04 4.920e-10
 15.52301    -71.4 1.067e+04 6.291e-10
 15.54398    -71.3 1.060e+04 5.975e-10
 15.57239    -69.9 1.069e+04 6.240e-10
 15.59336    -71.1 1.073e+04 6.146e-10
 15.61627    -69.9 1.080e+04 6.311e-10
 15.63986    -68.8 1.082e+04 6.313e-10
 15.65025    -68.8 1.067e+04 5.585e-10
 15.66849    -68.5 1.072e+04 5.643e-10
 15.68761    -67.8 1.077e+04 5.788e-10
 15.69809    -68.6 1.085e+04 5.895e-10
 15.71043    -68.3 1.087e+04 6.070e-10
 15.73139    -67.8 1.084e+04 6.207e-10
 15.74603    -67.3 1.077e+04 6.226e-10
 15.75651    -68.1 1.079e+04 6.732e-10
 15.77333    -67.4 1.070e+04 6.601e-10
 15.79397    -66.6 1.061e+04 6.494e-10
 15.80445    -67.2 1.074e+04 7.379e-10
 15.81526    -66.4 1.069e+04 7.091e-10
 15.83622    -65.6 1.065e+04 6.776e-10
 15.85239    -64.7 1.062e+04 6.533e-10
 15.86288    -65.5 1.076e+04 6.809e-10
 15.87816    -64.8 1.073e+04 6.607e-10
 15.89912    -64.0 1.069e+04 6.503e-10
 15.91082    -63.1 1.068e+04 6.486e-10
 15.92130    -63.9 1.066e+04 6.385e-10
 15.94105    -62.9 1.066e+04 6.502e-10
 15.95876    -61.9 1.068e+04 6.783e-10
 15.96924    -62.7 1.056e+04 5.884e-10
 15.98299    -61.4 1.057e+04 5.907e-10
 16.00395    -60.2 1.059e+04 5.880e-10
 16.01718    -59.0 1.060e+04 5.778e-10
 16.02767    -59.9 1.032e+04 4.197e-10
 16.04588    -58.8 1.030e+04 3.975e-10
 16.06512    -57.7 1.030e+04 3.815e-10
 16.08619    -59.0 9.909e+03 3.270e-10
 16.11946    -57.1 9.987e+03 3.581e-10
 16.16120    -55.2 1.011e+04 4.050e-10
 16.20313    -54.3 1.022e+04 4.638e-10
 16.24526    -52.2 1.035e+04 5.050e-10
 16.27805    -50.0 1.041e+04 5.169e-10
 16.29902    -51.0 1.011e+04 3.840e-10
 16.32912    -49.1 1.011e+04 3.809e-10
 16.37106    -47.6 1.029e+04 3.981e-10
 16.39490    -46.7 1.072e+04 5.055e-10
 16.41586    -48.0 1.050e+04 4.601e-10
 16.45492    -47.4 1.113e+04 7.332e-10
 16.49078    -46.9 1.186e+04 1.167e-09
 16.51174    -47.5 1.127e+04 9.000e-10
 16.53878    -47.7 1.167e+04 1.091e-09
 16.57014    -49.1 1.166e+04 1.064e-09
 16.59100    -49.7 1.180e+04 1.114e-09
 16.60743    -50.6 1.196e+04 1.162e-09
 16.62850    -50.3 1.127e+04 8.410e-10
 16.65400    -52.1 1.210e+04 1.172e-09
 16.66586    -52.5 1.241e+04 1.369e-09
 16.67634    -52.3 1.175e+04 1.033e-09
 16.69583    -52.7 1.207e+04 1.219e-09
 16.71380    -53.0 1.244e+04 1.523e-09
 16.72438    -52.0 1.153e+04 1.015e-09
 16.73786    -53.3 1.229e+04 1.495e-09
 16.75142    -53.6 1.275e+04 1.823e-09
 16.76191    -54.6 1.290e+04 1.954e-09
 16.77222    -54.9 1.343e+04 2.397e-09
 16.78270    -54.6 1.255e+04 1.809e-09
 16.80067    -54.6 1.294e+04 2.116e-09
 16.82016    -54.8 1.336e+04 2.474e-09
 16.83064    -54.7 1.229e+04 1.693e-09
 16.84260    -55.7 1.297e+04 1.981e-09
 16.86356    -59.1 1.502e+04 2.851e-09
 16.87858    -64.0 1.745e+04 5.294e-09
 16.88907    -65.4 1.696e+04 3.914e-09
 16.90550    -70.1 1.885e+04 8.907e-09
 16.92646    -73.0 1.981e+04 1.530e-08
 16.94214    -75.3 2.038e+04 2.150e-08
 16.95257    -76.0 2.047e+04 2.250e-08
 16.96088    -76.7 2.045e+04 2.293e-08
 16.96612    -77.4 2.034e+04 2.718e-08
 16.97354    -77.4 1.984e+04 2.531e-08
 16.98402    -77.1 1.939e+04 1.841e-08
 16.99009    -77.1 1.886e+04 1.131e-08
 16.99534    -77.3 1.867e+04 1.426e-08
 17.00499    -78.1 1.801e+04 8.066e-09
 17.01406    -80.3 1.676e+04 4.601e-09
 17.01931    -79.9 1.691e+04 5.407e-09
 17.03124    -82.4 1.496e+04 2.834e-09
 17.04337    -83.4 1.311e+04 1.406e-09
 17.05386    -82.9 1.358e+04 1.997e-09
 17.07323    -83.2 1.134e+04 7.902e-10
 17.09131    -83.1 1.026e+04 4.223e-10
 17.10180    -82.7 1.046e+04 5.195e-10
 17.11516    -82.2 9.958e+03 3.594e-10
 17.13612    -80.9 9.822e+03 3.187e-10
 17.14984    -79.5 9.809e+03 3.041e-10
 17.17090    -78.8 9.783e+03 2.985e-10
 17.20970    -76.4 9.572e+03 2.670e-10
 17.24582    -73.2 9.322e+03 2.414e-10
 17.26678    -72.6 9.181e+03 2.057e-10
 17.29356    -69.6 9.101e+03 1.986e-10
 17.33550    -66.7 9.087e+03 1.979e-10
 17.36266    -63.9 9.098e+03 2.045e-10
 17.38363    -63.2 9.002e+03 1.705e-10
 17.41936    -60.5 9.077e+03 1.930e-10
 17.45855    -57.8 9.162e+03 2.224e-10
 17.47951    -57.1 9.056e+03 1.814e-10
 17.50323    -54.4 9.117e+03 2.076e-10
 17.54516    -51.7 9.165e+03 2.299e-10
 17.57539    -49.1 9.198e+03 2.454e-10
 17.59636    -48.4 9.078e+03 1.970e-10
 17.62902    -45.9 9.130e+03 2.165e-10
 17.67095    -43.4 9.180e+03 2.347e-10
 17.69224    -41.0 9.221e+03 2.454e-10
 17.71321    -40.3 9.203e+03 2.243e-10
 17.75482    -37.8 9.283e+03 2.417e-10
 17.78812    -35.5 9.392e+03 2.579e-10
 17.80909    -34.8 9.393e+03 2.466e-10
 17.83868    -32.6 9.535e+03 2.738e-10
 17.88062    -30.5 9.765e+03 3.156e-10
 17.90497    -28.5 9.988e+03 3.771e-10
 17.91327    -28.0 1.005e+04 3.739e-10
 17.93085    -28.0 9.825e+03 3.056e-10
 17.96448    -26.2 1.014e+04 3.946e-10
 17.99583    -25.2 1.032e+04 4.790e-10
 18.01114    -24.6 1.040e+04 5.361e-10
 18.02172    -24.7 1.052e+04 5.202e-10
 18.03776    -23.6 1.067e+04 6.225e-10
 18.05863    -22.9 1.071e+04 6.353e-10
 18.06956    -22.2 1.071e+04 6.328e-10
 18.08005    -22.3 1.088e+04 6.712e-10
 18.10057    -21.6 1.084e+04 6.396e-10
 18.11750    -20.9 1.073e+04 5.791e-10
 18.12799    -21.2 1.090e+04 6.327e-10
 18.14250    -20.4 1.074e+04 5.561e-10
 18.16346    -19.5 1.055e+04 4.750e-10
 18.17593    -18.6 1.037e+04 4.048e-10
 18.18641    -18.8 1.048e+04 4.321e-10
 18.21348    -17.6 1.036e+04 3.674e-10
 18.23445    -17.4 1.039e+04 3.605e-10
 18.25791    -16.4 1.038e+04 3.295e-10
 18.29994    -14.3 1.019e+04 2.764e-10
 18.33043    -11.9 9.959e+03 2.338e-10
 18.35140    -12.0 1.000e+04 2.147e-10
 18.38380     -9.7 9.850e+03 1.765e-10
 18.42574     -7.5 9.824e+03 1.633e-10
 18.44728     -5.3 9.917e+03 1.652e-10
 18.46824     -5.1 9.881e+03 1.610e-10
 18.50960     -3.0 1.006e+04 1.801e-10
 18.54316     -1.1 1.031e+04 2.394e-10
 18.56413     -0.7 1.026e+04 2.256e-10
 18.59346      1.0 1.064e+04 3.188e-10
 18.62482      3.0 1.098e+04 3.867e-10
 18.64568      3.1 1.106e+04 4.956e-10
 18.65981      4.1 1.130e+04 7.239e-10
 18.67030      4.5 1.122e+04 5.836e-10
 18.68762      4.9 1.147e+04 7.754e-10
 18.70775      5.4 1.180e+04 1.042e-09
 18.71824      5.6 1.163e+04 7.942e-10
 18.72955      5.9 1.183e+04 1.038e-09
 18.75052      6.5 1.207e+04 1.320e-09
 18.76618      7.0 1.220e+04 1.523e-09
 18.77666      7.0 1.202e+04 1.302e-09
 18.79245      7.8 1.212e+04 1.462e-09
 18.81341      8.6 1.210e+04 1.476e-09
 18.82460      9.4 1.197e+04 1.365e-09
 18.83508      9.6 1.198e+04 1.363e-09
 18.85535     10.3 1.179e+04 1.188e-09
 18.87264     10.7 1.124e+04 8.562e-10
 18.89370     11.4 1.124e+04 8.516e-10
 18.92892     13.4 1.048e+04 5.024e-10
 18.96862     14.9 9.958e+03 3.119e-10
 18.98958     15.3 1.017e+04 3.569e-10
 19.01279     17.0 9.947e+03 3.254e-10
 19.05472     19.0 9.882e+03 3.237e-10
 19.07863     21.3 9.972e+03 3.427e-10
 19.08841     21.3 1.021e+04 4.222e-10
 19.09585     21.5 1.042e+04 5.213e-10
 19.10694     21.8 1.045e+04 5.286e-10
 19.12791     23.1 1.049e+04 5.930e-10
 19.14370     24.0 1.046e+04 6.009e-10
 19.15418     24.5 1.079e+04 7.792e-10
 19.16984     25.6 1.062e+04 7.686e-10
 19.19080     26.8 1.057e+04 7.339e-10
 19.20212     28.0 1.040e+04 6.655e-10
 19.21260     28.4 1.074e+04 8.033e-10
 19.23274     29.3 1.063e+04 7.145e-10
 19.25006     30.1 1.053e+04 6.300e-10
 19.26054     30.4 1.089e+04 7.764e-10
 19.27467     31.0 1.065e+04 7.023e-10
 19.29563     31.6 1.060e+04 6.371e-10
 19.30848     32.3 1.048e+04 6.490e-10
 19.31897     32.6 1.094e+04 8.223e-10
 19.33757     33.5 1.087e+04 8.085e-10
 19.35642     34.4 1.081e+04 8.079e-10
 19.36691     34.6 1.129e+04 1.045e-09
 19.37950     35.6 1.130e+04 1.054e-09
 19.40047     36.6 1.124e+04 1.047e-09
 19.41485     38.0 1.115e+04 9.788e-10
 19.42533     38.2 1.177e+04 1.343e-09
 19.44240     39.0 1.189e+04 1.345e-09
 19.46279     39.9 1.188e+04 1.309e-09
 19.47327     40.1 1.253e+04 1.855e-09
 19.48433     41.1 1.252e+04 1.855e-09
 19.50530     42.1 1.260e+04 1.880e-09
 19.52121     42.8 1.278e+04 1.940e-09
 19.53170     43.3 1.334e+04 2.662e-09
 19.54723     43.0 1.387e+04 2.971e-09
 19.56819     41.8 1.517e+04 4.416e-09
 19.57959     40.5 1.637e+04 6.520e-09
 19.58478     40.3 1.691e+04 7.419e-09
 19.59430     39.7 1.706e+04 9.371e-09
 19.60351     39.1 1.760e+04 1.280e-08
 19.60875     39.5 1.783e+04 1.395e-08
 19.61527     38.7 1.893e+04 1.917e-08
 19.62575     37.9 1.970e+04 2.473e-08
 19.63272     38.1 2.002e+04 2.924e-08
 19.63796     38.5 2.030e+04 2.830e-08
 19.64672     38.4 2.020e+04 2.909e-08
 19.65669     38.7 1.976e+04 2.757e-08
 19.66193     38.3 1.972e+04 2.433e-08
 19.66271     37.9 1.878e+04 1.949e-08
 19.66795     37.7 1.801e+04 1.465e-08
 19.67817     37.4 1.742e+04 1.310e-08
 19.68595     39.3 1.640e+04 8.715e-09
 19.69649     38.7 1.572e+04 6.548e-09
 19.71496     38.0 1.500e+04 3.386e-09
 19.73394     35.3 1.362e+04 1.642e-09
 19.74443     34.5 1.298e+04 1.351e-09
 19.75689     32.4 1.136e+04 8.842e-10
 19.77786     32.3 1.074e+04 7.893e-10
 19.79237     33.4 1.084e+04 7.818e-10
 19.80285     33.5 1.068e+04 6.950e-10
 19.81979     34.3 1.064e+04 6.883e-10
 19.84041     35.5 1.063e+04 7.062e-10
 19.85089     35.6 1.047e+04 6.507e-10
 19.86172     36.2 1.042e+04 6.322e-10
 19.89327     37.5 1.028e+04 5.745e-10
 19.93530     38.4 1.016e+04 5.372e-10
 19.95735     39.7 9.955e+03 4.861e-10
 19.97832     40.9 1.002e+04 5.125e-10
 20.01916     42.5 9.798e+03 4.416e-10
 20.05323     43.9 9.682e+03 3.819e-10
 20.07420     45.3 9.739e+03 4.032e-10
 20.10303     46.2 9.689e+03 3.668e-10
 20.14496     45.8 1.021e+04 4.385e-10
 20.16998     45.1 1.080e+04 6.871e-10
 20.18037     45.0 1.118e+04 7.853e-10
 20.19718     45.0 1.134e+04 1.040e-09
 20.21783     45.1 1.163e+04 1.268e-09
 20.22831     44.8 1.222e+04 1.669e-09
 20.23670     44.7 1.248e+04 1.872e-09
 20.24718     44.2 1.282e+04 2.196e-09
 20.26008     43.9 1.258e+04 1.936e-09
 20.27625     43.2 1.233e+04 1.761e-09
 20.28673     42.9 1.274e+04 2.158e-09
 20.30201     42.5 1.213e+04 1.728e-09
 20.32297     41.9 1.183e+04 1.462e-09
 20.35452     40.6 1.106e+04 9.988e-10
 20.38281     41.0 1.021e+04 6.888e-10
 20.39320     40.8 1.025e+04 7.082e-10
 20.40684     40.8 1.018e+04 6.689e-10
 20.43839     40.3 9.487e+03 4.232e-10
 20.47869     40.7 9.057e+03 3.429e-10
 20.49966     40.4 8.865e+03 2.998e-10
 20.52235     41.6 8.826e+03 3.036e-10
 20.56428     42.7 8.963e+03 3.534e-10
 20.59554     44.4 9.171e+03 4.346e-10
 20.61651     44.3 8.994e+03 3.895e-10
 20.64814     46.5 9.208e+03 4.542e-10
 20.69008     48.2 9.167e+03 4.264e-10
 20.71239     49.9 9.016e+03 3.627e-10
 20.73335     50.1 8.798e+03 3.075e-10
 20.77394     51.5 8.567e+03 2.455e-10
 20.80827     53.0 8.420e+03 2.277e-10
 20.82924     53.1 8.176e+03 1.893e-10
 20.85781     54.8 8.244e+03 2.019e-10
 20.89974     56.6 8.510e+03 2.534e-10
 20.92512     58.5 8.878e+03 3.332e-10
 20.94608     58.7 8.474e+03 2.347e-10
 20.98360     60.5 8.745e+03 2.811e-10
 21.02100     62.0 8.963e+03 3.210e-10
 21.04197     61.7 8.487e+03 2.248e-10
 21.06747     62.7 8.819e+03 2.791e-10
 21.10940     63.4 9.188e+03 3.624e-10
 21.13775     63.9 9.273e+03 3.978e-10
 21.15872     64.3 9.316e+03 3.974e-10
 21.18268     64.8 9.497e+03 4.804e-10
 21.19608     65.4 9.696e+03 5.580e-10
 21.20656     65.4 9.567e+03 4.958e-10
 21.22452     65.9 9.770e+03 5.504e-10
 21.24402     66.2 9.935e+03 5.806e-10
 21.25450     66.2 9.792e+03 5.266e-10
 21.26645     66.3 9.925e+03 5.519e-10
 21.28742     66.3 1.007e+04 5.872e-10
 21.30244     66.2 1.022e+04 6.438e-10
 21.31292     66.2 1.020e+04 6.434e-10
 21.32935     66.0 1.042e+04 7.419e-10
 21.35031     66.1 1.067e+04 8.766e-10
 21.37128     66.7 1.079e+04 9.640e-10
 21.39225     67.2 1.099e+04 1.068e-09
 21.40544     67.5 1.124e+04 1.146e-09
 21.41152     67.7 1.091e+04 8.974e-10
 21.41929     68.0 1.050e+04 6.252e-10
 21.43418     67.9 1.071e+04 5.960e-10
 21.45515     67.4 1.087e+04 6.047e-10
 21.46723     66.5 1.104e+04 6.442e-10
 21.47771     65.9 1.028e+04 4.271e-10
 21.49708     65.3 1.024e+04 4.858e-10
 21.51517     64.9 1.041e+04 5.922e-10
 21.52565     65.0 9.982e+03 4.748e-10
 21.53901     65.2 1.023e+04 5.672e-10
 21.56321     65.6 1.109e+04 7.404e-10
 21.58418     66.1 1.077e+04 6.399e-10
 21.61249     67.3 1.066e+04 5.510e-10
 21.65452     68.1 1.072e+04 5.912e-10
 21.68015     69.4 1.061e+04 5.851e-10
 21.70112     70.2 9.939e+03 3.546e-10
 21.73838     71.6 9.902e+03 3.627e-10
 21.77604     73.1 9.904e+03 3.766e-10
 21.79700     73.8 9.534e+03 2.797e-10
 21.82225     75.6 9.636e+03 3.182e-10
 21.86418     77.3 9.743e+03 3.456e-10
 21.89288     79.0 9.827e+03 3.641e-10
 21.91385     80.0 9.551e+03 2.966e-10
 21.94804     81.4 9.638e+03 3.124e-10
 21.98877     82.5 9.709e+03 3.282e-10
 22.00973     83.6 9.483e+03 2.754e-10
 22.03191     84.4 9.617e+03 3.126e-10
 22.07384     85.1 9.748e+03 3.707e-10
 22.10561     85.7 9.848e+03 4.295e-10
 22.12658     87.1 9.844e+03 4.193e-10
 22.15771     87.4 9.962e+03 4.947e-10
 22.19964     87.6 1.011e+04 5.514e-10
 22.22246     87.5 1.020e+04 5.737e-10
 22.23285     88.3 1.047e+04 6.595e-10
 22.25186     87.9 1.051e+04 6.890e-10
 22.27021     87.3 1.050e+04 6.964e-10
 22.28069     87.7 1.080e+04 8.390e-10
 22.29379     87.2 1.069e+04 8.107e-10
 22.31476     86.8 1.033e+04 6.787e-10
 22.32863     86.2 9.903e+03 5.035e-10
 22.33911     86.8 1.017e+04 6.235e-10
 22.35669     85.0 9.971e+03 4.716e-10
 22.37657     81.6 1.018e+04 4.827e-10
 22.38706     79.6 1.132e+04 7.705e-10
 22.39862     74.6 1.190e+04 1.040e-09
 22.41959     71.4 1.210e+04 1.500e-09
 22.43500     70.1 1.210e+04 1.764e-09
 22.44548     69.3 1.280e+04 2.305e-09
 22.46152     68.2 1.256e+04 2.056e-09
 22.48249     66.9 1.186e+04 1.422e-09
 22.49342     65.1 1.105e+04 9.399e-10
 22.50390     62.9 1.063e+04 7.563e-10
 22.53098     62.1 9.904e+03 4.499e-10
 22.55204     58.0 9.028e+03 3.389e-10
 22.56390     55.7 8.255e+03 2.174e-10
 22.58487     55.1 8.259e+03 2.155e-10
 22.61896     54.0 8.243e+03 2.154e-10
 22.64792     53.6 8.488e+03 2.505e-10
 22.65831     53.3 8.541e+03 2.651e-10
 22.67118     53.1 8.672e+03 2.806e-10
 22.69215     52.1 9.110e+03 3.671e-10
 22.70615     49.5 1.042e+04 6.298e-10
 22.71663     47.6 1.132e+04 9.384e-10
 22.73408     43.8 1.305e+04 2.005e-09
 22.75409     43.3 1.385e+04 3.389e-09
 22.76457     42.9 1.442e+04 4.566e-09
 22.77601     43.6 1.431e+04 4.722e-09
 22.79698     44.4 1.396e+04 4.220e-09
 22.81251     44.1 1.362e+04 2.949e-09
 22.82300     43.0 1.413e+04 2.989e-09
 22.83891     40.0 1.354e+04 1.814e-09
 22.85988     35.5 1.216e+04 1.118e-09
 22.87094     32.6 1.149e+04 9.891e-10
 22.88142     28.3 1.293e+04 1.495e-09
 22.90181     26.6 1.371e+04 1.988e-09
 22.91888     25.3 1.429e+04 2.673e-09
 22.92936     23.0 1.501e+04 3.875e-09
 22.94374     22.5 1.523e+04 4.269e-09
 22.96471     22.0 1.547e+04 4.404e-09
 22.97730     21.1 1.560e+04 4.352e-09
 22.98779     18.1 1.560e+04 3.970e-09
 23.00664     17.2 1.514e+04 3.571e-09
 23.02524     16.6 1.431e+04 2.972e-09
 23.03573     14.2 1.333e+04 2.546e-09
 23.04857     14.1 1.292e+04 2.062e-09
 23.06954     13.7 1.260e+04 1.660e-09
 23.08367     12.7 1.231e+04 1.518e-09
 23.09415     11.4 1.207e+04 1.384e-09
 23.11147     10.9 1.213e+04 1.393e-09
 23.13161     10.3 1.248e+04 1.536e-09
 23.14209      9.2 1.245e+04 1.535e-09
 23.14808      8.7 1.285e+04 2.043e-09
 23.15856      7.8 1.224e+04 1.580e-09
 23.17437      7.2 1.310e+04 2.008e-09
 23.19003      6.7 1.373e+04 2.711e-09
 23.20052      5.6 1.370e+04 2.692e-09
 23.21630      6.0 1.374e+04 3.096e-09
 23.23727      6.9 1.368e+04 3.291e-09
 23.24846      7.6 1.397e+04 3.125e-09
 23.25894      6.4 1.366e+04 2.687e-09
 23.27920      5.9 1.378e+04 2.259e-09
 23.29640      4.7 1.371e+04 2.009e-09
 23.30688      3.7 1.294e+04 1.722e-09
 23.32113      3.4 1.280e+04 1.656e-09
 23.34210      3.9 1.260e+04 1.737e-09
 23.35482      4.8 1.250e+04 1.755e-09
 23.36530      5.1 1.214e+04 1.420e-09
 23.38403      6.1 1.228e+04 1.357e-09
 23.40276      6.6 1.234e+04 1.273e-09
 23.42383      6.6 1.186e+04 9.681e-10
 23.45761      8.2 1.166e+04 9.494e-10
 23.49884     10.2 1.137e+04 8.095e-10
 23.51981     10.5 1.086e+04 5.593e-10
 23.54147     12.8 1.065e+04 4.561e-10
 23.58340     14.4 1.058e+04 3.897e-10
 23.61569     16.3 1.044e+04 3.882e-10
 23.63665     16.8 1.029e+04 3.285e-10
 23.66727     18.9 1.028e+04 3.687e-10
 23.70920     21.3 1.021e+04 3.721e-10
 23.73254     24.1 1.003e+04 3.329e-10
 23.75350     23.6 1.007e+04 3.191e-10
 23.79306     26.2 9.839e+03 2.676e-10
 23.82842     28.9 9.651e+03 2.193e-10
 23.84938     28.8 9.954e+03 2.655e-10
 23.87693     31.3 9.936e+03 2.457e-10
 23.91886     34.0 9.919e+03 2.287e-10
 23.94526     36.8 9.807e+03 2.224e-10
 23.96623     37.1 1.043e+04 3.724e-10
 24.00272     39.3 1.072e+04 3.907e-10
 24.04115     40.7 1.138e+04 4.430e-10
 24.06202     41.4 1.145e+04 4.790e-10
 24.07591     42.3 1.250e+04 5.714e-10
 24.09688     42.1 1.350e+04 6.875e-10
 24.10986     40.9 1.484e+04 1.002e-09
 24.12034     38.3 1.792e+04 3.658e-09
 24.13881     37.5 1.905e+04 6.969e-09
 24.15780     36.8 1.987e+04 1.214e-08
 24.16823     36.5 2.017e+04 2.230e-08
 24.17540     36.9 1.948e+04 2.688e-08
 24.18589     37.6 1.874e+04 3.216e-08
 24.19216     38.6 1.851e+04 3.944e-08
 24.19740     40.1 1.849e+04 4.380e-08
 24.20685     41.1 1.872e+04 4.995e-08
 24.21613     42.1 1.908e+04 5.540e-08
 24.22137     43.3 1.927e+04 5.078e-08
 24.22782     44.1 1.956e+04 5.092e-08
 24.23830     45.0 1.966e+04 4.763e-08
 24.24534     45.8 1.994e+04 3.995e-08
 24.25058     45.7 2.197e+04 2.465e-08
 24.25927     46.0 2.262e+04 1.804e-08
 24.26931     46.0 2.327e+04 1.410e-08
 24.27460     43.6 2.339e+04 7.161e-09
 24.28557     42.5 2.358e+04 4.217e-09
 24.30634     41.2 2.311e+04 2.588e-09
 24.31683     36.5 2.011e+04 1.059e-09
 24.32259     34.5 1.661e+04 7.100e-10
 24.33307     29.7 9.820e+03 5.702e-10
 24.34847     30.5 9.674e+03 5.694e-10
 24.36944     31.4 9.665e+03 5.685e-10
 24.38101     32.3 9.653e+03 5.617e-10
 24.39150     32.1 9.717e+03 5.656e-10
 24.41137     32.8 9.730e+03 5.622e-10
 24.42895     33.4 9.736e+03 5.598e-10
 24.43944     33.1 9.695e+03 5.478e-10
 24.45330     33.4 9.714e+03 5.505e-10
 24.47427     33.5 9.803e+03 5.676e-10
 24.48738     33.4 9.970e+03 6.145e-10
 24.49786     32.5 9.930e+03 6.577e-10
 24.51620     32.2 1.018e+04 7.854e-10
 24.53532     32.2 1.045e+04 9.512e-10
 24.54580     32.0 1.056e+04 1.000e-09
 24.55813     32.5 1.083e+04 1.165e-09
 24.57910     33.1 1.104e+04 1.271e-09
 24.59374     33.5 1.119e+04 1.300e-09
 24.60422     32.7 1.104e+04 1.248e-09
 24.62103     32.2 1.113e+04 1.223e-09
 24.64168     31.2 1.131e+04 1.214e-09
 24.65217     29.0 1.183e+04 1.349e-09
 24.66296     26.6 1.230e+04 1.554e-09
 24.68393     24.6 1.257e+04 1.777e-09
 24.70011     23.2 1.268e+04 1.980e-09
 24.71059     21.6 1.315e+04 2.535e-09
 24.72586     20.7 1.323e+04 2.718e-09
 24.74683     20.1 1.337e+04 2.905e-09
 24.75853     19.4 1.357e+04 3.087e-09
 24.76901     18.6 1.352e+04 3.133e-09
 24.78876     18.1 1.350e+04 3.128e-09
 24.80647     17.6 1.347e+04 3.094e-09
 24.81695     17.2 1.328e+04 2.586e-09
 24.83069     16.7 1.326e+04 2.465e-09
 24.85166     16.2 1.313e+04 2.267e-09
 24.86490     15.5 1.283e+04 1.999e-09
 24.87538     13.7 1.228e+04 1.642e-09
 24.89072     13.0 1.194e+04 1.500e-09
 24.90120     11.6 1.163e+04 1.346e-09
 24.91284     11.2 1.148e+04 1.291e-09
 24.92332     10.8 1.157e+04 1.366e-09
 24.93552     10.6 1.156e+04 1.335e-09
 24.95649     10.3 1.155e+04 1.317e-09
 24.97126      9.9 1.154e+04 1.323e-09
 24.98174      9.5 1.164e+04 1.377e-09
 24.99842      9.3 1.161e+04 1.401e-09
 25.01920      9.2 1.162e+04 1.449e-09
 25.02968      9.0 1.160e+04 1.449e-09
 25.04035      9.1 1.168e+04 1.503e-09
 25.06132      9.1 1.188e+04 1.587e-09
 25.07762      8.8 1.218e+04 1.720e-09
 25.08811      8.3 1.234e+04 1.712e-09
 25.10325      7.2 1.280e+04 2.012e-09
 25.12422      5.6 1.332e+04 2.502e-09
 25.13605      4.1 1.381e+04 3.152e-09
 25.14653      3.7 1.388e+04 3.370e-09
 25.16615      3.8 1.452e+04 4.245e-09
 25.18399      3.6 1.472e+04 4.471e-09
 25.19447      3.8 1.477e+04 4.251e-09
 25.20808      3.0 1.490e+04 3.967e-09
 25.22905      0.6 1.495e+04 3.495e-09
 25.24241     -2.5 1.452e+04 2.854e-09
 25.25290     -4.5 1.474e+04 3.173e-09
 25.27098     -6.4 1.364e+04 2.706e-09
 25.29035     -6.9 1.297e+04 2.291e-09
 25.30084     -6.8 1.338e+04 2.839e-09
 25.31291     -6.7 1.291e+04 2.253e-09
 25.33388     -6.7 1.250e+04 1.722e-09
 25.34878     -7.3 1.213e+04 1.334e-09
 25.35926     -7.7 1.240e+04 1.445e-09
 25.37581     -8.0 1.204e+04 1.224e-09
 25.39672     -8.1 1.172e+04 1.088e-09
 25.41769     -8.0 1.176e+04 1.049e-09
 25.43871     -7.6 1.163e+04 9.424e-10
 25.45514     -7.3 1.148e+04 8.237e-10
 25.46563     -7.7 1.152e+04 8.922e-10
 25.47509     -7.0 1.123e+04 7.801e-10
 25.48557     -7.3 1.123e+04 7.595e-10
 25.50161     -6.7 1.094e+04 6.384e-10
 25.51357     -5.6 1.063e+04 5.414e-10
 25.52405     -5.2 1.070e+04 5.187e-10
 25.54354     -4.2 1.054e+04 4.140e-10
 25.56151     -4.1 1.055e+04 3.510e-10
 25.57199     -4.4 1.054e+04 3.353e-10
 25.59605     -2.6 1.030e+04 2.839e-10
 25.63808     -0.9 1.022e+04 2.719e-10
 25.66807      1.0 1.025e+04 2.909e-10
 25.68903      1.2 1.030e+04 2.807e-10
 25.72195      3.2 1.041e+04 3.047e-10
 25.76388      5.2 1.050e+04 3.160e-10
 25.80581      6.9 1.055e+04 2.678e-10
 25.84774      8.5 1.050e+04 2.688e-10
 25.88080     10.2 1.039e+04 2.665e-10
 25.90176      9.9 1.033e+04 2.747e-10
 25.93161     11.6 1.029e+04 2.792e-10
 25.97354     13.0 1.034e+04 2.910e-10
 25.99765     13.7 1.046e+04 3.159e-10
 26.00803     12.9 1.033e+04 3.498e-10
 26.02576     12.9 1.036e+04 3.646e-10
 26.04539     13.2 1.049e+04 4.437e-10
 26.05587     13.2 1.047e+04 5.191e-10
 26.05946     14.1 1.074e+04 6.616e-10
 26.06994     13.7 1.060e+04 5.798e-10
 26.08866     14.6 1.090e+04 7.023e-10
 26.10382     15.4 1.120e+04 8.088e-10
 26.11430     15.5 1.136e+04 8.629e-10
 26.13059     15.8 1.168e+04 9.435e-10
 26.15156     15.8 1.193e+04 1.016e-09
 26.16224     15.7 1.206e+04 1.109e-09
 26.17272     15.2 1.210e+04 1.079e-09
 26.19349     15.2 1.217e+04 1.170e-09
 26.21018     15.1 1.225e+04 1.275e-09
 26.22066     14.7 1.205e+04 1.205e-09
 26.23542     14.7 1.218e+04 1.334e-09
 26.25639     14.8 1.231e+04 1.513e-09
 26.26860     14.9 1.247e+04 1.724e-09
 26.27909     14.6 1.241e+04 1.711e-09
 26.29832     14.8 1.271e+04 2.071e-09
 26.31654     15.0 1.306e+04 2.522e-09
 26.32703     15.2 1.290e+04 2.463e-09
 26.34025     15.7 1.340e+04 3.075e-09
 26.36122     16.3 1.388e+04 3.633e-09
 26.37497     16.7 1.412e+04 3.748e-09
 26.38545     16.6 1.386e+04 3.215e-09
 26.40315     16.5 1.385e+04 3.138e-09
 26.42291     16.8 1.344e+04 2.479e-09
 26.44397     16.5 1.257e+04 1.719e-09
 26.47673     17.3 1.179e+04 1.198e-09
 26.51866     18.3 1.106e+04 8.182e-10
 26.53995     19.6 1.047e+04 5.492e-10
 26.56092     20.6 1.046e+04 5.226e-10
 26.60252     21.6 1.009e+04 3.426e-10
 26.63583     22.2 9.779e+03 2.520e-10
 26.65680     22.5 9.771e+03 2.325e-10
 26.68639     23.1 9.466e+03 1.990e-10
 26.72832     23.9 9.200e+03 1.829e-10
 26.75268     24.8 8.902e+03 1.697e-10
 26.77365     24.2 8.795e+03 1.653e-10
 26.81219     24.7 8.833e+03 1.720e-10
 26.84856     25.0 8.951e+03 1.885e-10
 26.86953     23.1 9.126e+03 2.008e-10
 26.89605     23.1 9.845e+03 3.139e-10
 26.93798     23.3 1.055e+04 4.694e-10
 26.96531     22.3 1.105e+04 6.531e-10
 26.97570     20.6 1.118e+04 7.326e-10
 26.99020     19.7 1.158e+04 9.253e-10
 27.01117     18.8 1.200e+04 1.188e-09
 27.02364     17.8 1.253e+04 1.527e-09
 27.03412     15.5 1.297e+04 1.865e-09
 27.05310     14.3 1.351e+04 2.257e-09
 27.07158     13.0 1.394e+04 2.627e-09
 27.08206     10.4 1.402e+04 2.630e-09
 27.09503      8.5 1.427e+04 2.683e-09
 27.11600      5.2 1.483e+04 2.865e-09
 27.13001      0.6 1.553e+04 3.417e-09
 27.14049     -4.6 1.520e+04 3.385e-09
 27.15793     -7.7 1.506e+04 4.165e-09
 27.17795     -9.4 1.475e+04 4.185e-09
 27.18843    -11.6 1.415e+04 3.542e-09
 27.19986    -12.9 1.367e+04 2.739e-09
 27.21772    -15.1 1.283e+04 1.796e-09
 27.22821    -15.5 1.256e+04 1.613e-09
 27.23637    -18.1 1.140e+04 1.025e-09
 27.24685    -20.5 1.074e+04 7.935e-10
 27.26276    -21.7 1.017e+04 6.189e-10
 27.28373    -22.1 1.001e+04 5.330e-10
 27.29479    -22.6 9.980e+03 4.831e-10
 27.30528    -23.5 9.814e+03 4.587e-10
 27.32566    -23.6 9.806e+03 4.553e-10
 27.34274    -23.9 9.920e+03 4.763e-10
 27.35322    -24.4 9.776e+03 4.480e-10
 27.36759    -24.7 1.012e+04 5.197e-10
 27.38856    -25.2 1.052e+04 6.353e-10
 27.40116    -25.7 1.099e+04 8.313e-10
 27.41164    -26.2 1.075e+04 7.472e-10
 27.43049    -26.4 1.114e+04 9.465e-10
 27.44910    -26.5 1.153e+04 1.168e-09
 27.45958    -26.8 1.113e+04 9.738e-10
 27.47242    -26.9 1.142e+04 1.119e-09
 27.49339    -27.1 1.173e+04 1.235e-09
 27.50752    -27.4 1.190e+04 1.297e-09
 27.51801    -27.3 1.122e+04 9.845e-10
 27.53532    -27.3 1.121e+04 9.701e-10
 27.55546    -27.0 1.116e+04 9.267e-10
 27.56595    -26.8 1.064e+04 7.001e-10
 27.57725    -26.8 1.072e+04 6.212e-10
 27.59822    -27.2 1.095e+04 6.322e-10
 27.61389    -28.5 1.149e+04 6.995e-10
 27.62437    -28.2 1.092e+04 5.297e-10
 27.64015    -29.3 1.112e+04 6.243e-10
 27.66112    -29.5 1.115e+04 7.908e-10
 27.67231    -28.9 1.103e+04 9.238e-10
 27.68280    -28.4 1.065e+04 7.444e-10
 27.70305    -27.6 1.075e+04 8.196e-10
 27.72025    -26.9 1.100e+04 8.518e-10
 27.73074    -26.4 1.065e+04 7.020e-10
 27.74498    -26.5 1.083e+04 7.007e-10
 27.77653    -26.4 1.086e+04 6.580e-10
 27.81633    -25.8 1.069e+04 6.445e-10
 27.83730    -25.0 1.044e+04 5.302e-10
 27.86049    -24.4 1.066e+04 6.193e-10
 27.90242    -23.3 1.083e+04 6.958e-10
 27.93318    -22.2 1.091e+04 7.119e-10
 27.95414    -21.6 1.097e+04 7.764e-10
 27.98629    -20.3 1.099e+04 7.518e-10
 28.02822    -19.1 1.098e+04 6.502e-10
 28.05003    -18.1 1.100e+04 5.387e-10
 28.07099    -17.6 1.105e+04 6.091e-10
 28.11209    -16.8 1.113e+04 5.534e-10
 28.14591    -16.2 1.130e+04 5.802e-10
 28.16687    -15.5 1.120e+04 5.861e-10
 28.19595    -14.6 1.165e+04 7.556e-10
 28.23788    -13.4 1.201e+04 9.826e-10
 28.26276    -12.4 1.206e+04 1.066e-09
 28.28372    -11.9 1.212e+04 1.162e-09
 28.32175    -10.6 1.200e+04 1.123e-09
 28.35864     -8.5 1.150e+04 8.632e-10
 28.37960     -7.5 1.152e+04 9.473e-10
 28.38667     -5.6 1.095e+04 5.499e-10
 28.40763     -6.7 1.066e+04 4.162e-10
 28.44754     -5.8 1.022e+04 2.946e-10
 28.47549     -4.3 1.000e+04 2.799e-10
 28.49645     -3.4 1.007e+04 2.517e-10
 28.53141     -1.5 1.007e+04 2.578e-10
 28.57137      0.3 1.003e+04 2.757e-10
 28.59233      1.1 9.879e+03 2.485e-10
 28.61527      2.8 9.950e+03 2.789e-10
 28.65720      4.4 9.944e+03 2.828e-10
 28.68822      6.0 9.898e+03 2.698e-10
 28.70918      7.1 1.004e+04 2.928e-10
 28.74107      8.3 1.001e+04 2.566e-10
 28.78300      8.8 9.996e+03 2.309e-10
 28.80506      9.0 1.006e+04 2.369e-10
 28.81545      8.9 1.030e+04 2.808e-10
 28.83522      8.7 1.037e+04 3.004e-10
 28.85281      8.3 1.046e+04 3.411e-10
 28.86329      7.7 1.085e+04 5.005e-10
 28.87715      7.6 1.093e+04 5.591e-10
 28.89812      7.5 1.103e+04 6.267e-10
 28.91123      7.4 1.118e+04 7.078e-10
 28.92172      7.4 1.143e+04 8.340e-10
 28.94005      7.3 1.154e+04 8.660e-10
 28.95917      7.1 1.166e+04 9.127e-10
 28.96900      6.7 1.172e+04 9.453e-10
 28.97084      7.2 1.126e+04 7.156e-10
 28.98198      6.9 1.140e+04 7.571e-10
 29.00295      6.4 1.160e+04 8.293e-10
 29.01760      5.9 1.173e+04 9.308e-10
 29.02808      5.8 1.166e+04 9.162e-10
 29.04488      5.9 1.176e+04 1.048e-09
 29.06554      6.1 1.181e+04 1.175e-09
 29.07602      6.4 1.172e+04 1.114e-09
 29.08682      6.8 1.176e+04 1.173e-09
 29.10778      7.2 1.176e+04 1.162e-09
 29.12396      7.4 1.170e+04 1.108e-09
 29.13445      7.6 1.173e+04 9.555e-10
 29.14971      7.6 1.165e+04 9.262e-10
 29.17068      7.6 1.152e+04 9.246e-10
 29.18239      7.7 1.141e+04 9.036e-10
 29.19287      8.0 1.143e+04 8.353e-10
 29.21261      8.4 1.132e+04 8.600e-10
 29.23033      8.8 1.124e+04 8.423e-10
 29.24081      9.3 1.123e+04 7.493e-10
 29.25454      9.9 1.111e+04 7.341e-10
 29.27551     10.6 1.093e+04 6.679e-10
 29.28875     11.2 1.076e+04 5.664e-10
 29.29923     11.6 1.081e+04 5.403e-10
 29.31744     12.1 1.065e+04 4.622e-10
 29.33669     12.3 1.054e+04 3.778e-10
 29.34718     12.9 1.057e+04 4.032e-10
 29.35937     13.1 1.052e+04 3.387e-10
 29.38034     13.1 1.064e+04 3.104e-10
 29.39512     12.5 1.079e+04 3.240e-10
 29.40560     13.7 1.094e+04 3.559e-10
 29.42227     12.3 1.147e+04 4.029e-10
 29.44306      9.6 1.207e+04 6.517e-10
 29.45354     11.0 1.271e+04 6.793e-10
 29.46421      8.4 1.292e+04 1.240e-09
 29.48517      8.1 1.303e+04 2.172e-09
 29.50148      8.5 1.338e+04 2.888e-09
 29.51196      9.0 1.404e+04 3.401e-09
 29.52710      8.8 1.421e+04 3.481e-09
 29.54473      8.0 1.437e+04 3.285e-09
 29.55522      8.5 1.375e+04 2.628e-09
 29.55990      7.0 1.382e+04 2.144e-09
 29.57039      5.3 1.549e+04 3.389e-09
 29.59000      2.7 1.553e+04 3.004e-09
 29.60785      0.5 1.513e+04 2.671e-09
 29.61833     -1.3 1.688e+04 6.008e-09
 29.63193     -2.5 1.652e+04 5.463e-09
 29.65290     -3.9 1.625e+04 4.710e-09
 29.66627     -5.7 1.609e+04 4.179e-09
 29.67675     -6.9 1.722e+04 7.732e-09
 29.69483     -8.2 1.645e+04 6.987e-09
 29.71421     -8.3 1.597e+04 6.564e-09
 29.72464     -8.9 1.639e+04 8.038e-09
 29.73143     -9.0 1.635e+04 8.013e-09
 29.74191     -8.9 1.639e+04 8.038e-09
 29.74857     -9.2 1.665e+04 8.323e-09
 29.75381     -9.8 1.665e+04 8.361e-09
 29.76288    -10.5 1.712e+04 8.989e-09
 29.77254    -11.7 1.791e+04 1.037e-08
 29.77778    -11.8 1.739e+04 8.061e-09
 29.78384    -12.5 1.774e+04 8.942e-09
 29.79432    -13.0 1.775e+04 9.853e-09
 29.80175    -13.2 1.745e+04 1.091e-08
 29.80699    -13.5 1.675e+04 7.197e-09
 29.81529    -13.4 1.632e+04 7.141e-09
 29.82572    -13.5 1.619e+04 7.071e-09
 29.83101    -13.7 1.526e+04 4.662e-09
 29.84160    -13.1 1.518e+04 4.993e-09
 29.86256    -12.3 1.477e+04 4.267e-09
 29.87900    -13.6 1.448e+04 3.628e-09
 29.88948    -16.1 1.325e+04 2.365e-09
 29.90449    -16.5 1.317e+04 2.486e-09
 29.92546    -16.8 1.327e+04 2.602e-09
 29.93742    -16.7 1.312e+04 2.458e-09
 29.94791    -16.7 1.297e+04 2.392e-09
 29.96739    -16.6 1.288e+04 2.262e-09
 29.98536    -15.9 1.233e+04 1.817e-09
 29.99585    -15.7 1.213e+04 1.717e-09
 30.00932    -15.5 1.188e+04 1.529e-09
 30.03029    -14.6 1.121e+04 1.150e-09
 30.04379    -14.6 1.116e+04 1.113e-09
 30.05427    -14.3 1.094e+04 1.004e-09
 30.08134    -13.2 1.035e+04 7.223e-10
 30.10231    -13.1 9.741e+03 4.880e-10
 30.12474    -12.1 9.301e+03 3.524e-10
 30.16677    -10.9 8.981e+03 2.983e-10
 30.19829     -9.5 8.853e+03 2.910e-10
 30.21926     -8.5 8.406e+03 2.081e-10
 30.25063     -6.6 8.278e+03 1.974e-10
 30.29256     -4.8 8.137e+03 1.833e-10
 30.31514     -3.3 8.023e+03 1.741e-10
 30.33610     -2.1 8.035e+03 1.740e-10
 30.37643     -0.9 8.160e+03 1.848e-10
 30.41102     -0.2 8.480e+03 2.351e-10
 30.43198      1.1 8.789e+03 2.661e-10
 30.46029      0.7 9.168e+03 3.694e-10
 30.49164      0.1 9.313e+03 4.750e-10
 30.51251      0.0 9.502e+03 5.730e-10
 30.52767      0.0 9.676e+03 6.336e-10
 30.53815     -0.1 9.964e+03 7.434e-10
 30.55444     -0.3 1.000e+04 7.412e-10
 30.57541     -0.6 9.941e+03 7.058e-10
 30.58610     -1.1 9.803e+03 6.321e-10
 30.59658     -1.4 1.010e+04 7.469e-10
 30.61734     -2.3 9.940e+03 6.714e-10
 30.63404     -3.3 9.842e+03 6.423e-10
 30.64452     -3.6 1.013e+04 7.469e-10
 30.65927     -4.5 1.014e+04 7.525e-10
 30.68024     -5.3 1.022e+04 7.830e-10
 30.69246     -6.0 1.034e+04 8.278e-10
 30.70294     -6.6 1.058e+04 9.257e-10
 30.71348     -7.2 1.064e+04 9.539e-10
 30.72396     -6.8 1.058e+04 9.205e-10
 30.74040     -7.2 1.059e+04 9.221e-10
 30.75088     -7.6 1.064e+04 9.578e-10
 30.76411     -7.8 1.052e+04 8.924e-10
 30.78507     -8.1 1.029e+04 7.832e-10
 30.79882     -8.7 1.008e+04 6.466e-10
 30.80931     -8.9 9.967e+03 5.412e-10
 30.83638     -9.5 9.555e+03 3.905e-10
 30.85744    -10.2 9.166e+03 2.905e-10
 30.87961    -11.9 8.574e+03 1.975e-10
 30.92155    -13.6 8.357e+03 1.718e-10
 30.95333    -14.3 8.267e+03 1.627e-10
 30.97429    -14.5 8.280e+03 1.628e-10
 31.00541    -14.9 8.326e+03 1.592e-10
 31.04734    -15.6 8.522e+03 1.688e-10
 31.07017    -16.8 9.117e+03 2.351e-10
 31.09114    -18.5 9.805e+03 3.472e-10
 31.13121    -18.6 1.007e+04 4.607e-10
 31.16256    -19.5 1.017e+04 5.582e-10
 31.17634    -19.8 1.036e+04 5.363e-10
 31.18683    -21.2 1.024e+04 4.612e-10
 31.20439    -22.0 1.020e+04 4.334e-10
 31.22428    -22.5 1.006e+04 4.286e-10
 31.23477    -23.7 9.898e+03 3.705e-10
 31.24633    -23.8 9.890e+03 3.858e-10
 31.26729    -23.6 9.896e+03 4.066e-10
 31.28271    -23.4 1.011e+04 4.483e-10
 31.29230    -24.3 1.020e+04 4.232e-10
 31.29785    -23.2 1.011e+04 3.896e-10
 31.30922    -23.0 1.017e+04 3.995e-10
 31.33019    -22.4 1.031e+04 4.116e-10
 31.34113    -22.2 1.036e+04 4.186e-10
 31.35161    -22.9 1.039e+04 4.174e-10
 31.37212    -21.8 1.041e+04 4.056e-10
 31.38907    -21.7 1.044e+04 4.066e-10
 31.39965    -22.9 1.029e+04 3.872e-10
 31.42473    -21.3 1.016e+04 3.353e-10
 31.46667    -19.6 1.003e+04 2.930e-10
 31.49563    -17.8 1.002e+04 2.703e-10
 31.51660    -18.2 9.870e+03 2.191e-10
 31.55053    -16.1 9.899e+03 2.057e-10
 31.59151    -14.0 9.987e+03 2.044e-10
 31.61248    -14.2 9.856e+03 1.534e-10
 31.63439    -12.2 9.954e+03 1.551e-10
 31.67633    -10.2 1.014e+04 1.711e-10
 31.70836     -8.4 1.038e+04 1.987e-10
 31.72933     -8.6 1.022e+04 1.463e-10
 31.76019     -6.9 1.040e+04 1.721e-10
 31.80212     -5.2 1.044e+04 2.192e-10
 31.82521     -3.2 1.046e+04 2.858e-10
 31.84618     -3.5 1.022e+04 2.197e-10
 31.87194     -1.4 1.034e+04 3.033e-10
 31.89291     -0.8 1.056e+04 3.952e-10
 31.91734      0.4 1.054e+04 4.044e-10
 31.93138      0.9 1.058e+04 4.240e-10
 31.94196      0.8 1.051e+04 3.970e-10
 31.95927      1.9 1.059e+04 4.357e-10
 31.97932      2.7 1.072e+04 4.864e-10
 31.98980      2.7 1.064e+04 4.397e-10
 32.00111      3.8 1.072e+04 4.811e-10
 32.02207      4.4 1.083e+04 5.148e-10
 32.03784      5.6 1.101e+04 5.892e-10
 32.05891      5.5 1.079e+04 4.997e-10
 32.09565      6.7 1.104e+04 6.207e-10
 32.13382      7.6 1.155e+04 8.802e-10
 32.15479      7.0 1.137e+04 7.890e-10
 32.17951      7.8 1.195e+04 1.169e-09
 32.22145      8.5 1.231e+04 1.458e-09
 32.25067      9.2 1.228e+04 1.443e-09
 32.27164      8.8 1.171e+04 1.091e-09
 32.30531     10.0 1.138e+04 9.213e-10
 32.34655     11.2 1.087e+04 6.720e-10
 32.36752     10.9 1.051e+04 5.553e-10
 32.38918     12.2 1.019e+04 4.498e-10
 32.43111     13.7 9.940e+03 4.007e-10
 32.46340     15.5 9.875e+03 3.995e-10
 32.48437     15.6 9.820e+03 3.769e-10
 32.51497     17.6 9.848e+03 3.888e-10
 32.55690     19.7 9.920e+03 4.091e-10
 32.58025     21.7 1.000e+04 4.404e-10
 32.60121     21.2 1.009e+04 4.740e-10
 32.64077     23.2 1.039e+04 6.027e-10
 32.67613     25.4 1.116e+04 8.734e-10
 32.69710     24.7 1.143e+04 9.949e-10
 32.72463     25.7 1.212e+04 1.366e-09
 32.75598     25.6 1.264e+04 1.820e-09
 32.77685     26.1 1.298e+04 2.198e-09
 32.79278     27.1 1.326e+04 2.433e-09
 32.80326     26.3 1.274e+04 1.649e-09
 32.81879     27.0 1.273e+04 1.620e-09
 32.83975     27.6 1.267e+04 1.495e-09
 32.85121     28.0 1.252e+04 1.357e-09
 32.86169     26.9 1.167e+04 9.108e-10
 32.88168     27.6 1.138e+04 7.973e-10
 32.89915     27.8 1.118e+04 7.351e-10
 32.90973     27.2 1.082e+04 6.005e-10
 32.92371     28.3 1.074e+04 5.967e-10
 32.94458     28.5 1.073e+04 5.970e-10
 32.97613     29.9 1.050e+04 5.332e-10
 33.00571     31.9 1.059e+04 5.647e-10
 33.01609     31.4 1.040e+04 4.504e-10
 33.02845     31.7 1.044e+04 4.587e-10
 33.04049     32.8 1.043e+04 4.823e-10
 33.05097     32.6 1.046e+04 5.012e-10
 33.06394     33.5 1.050e+04 5.507e-10
 33.07442     33.5 1.040e+04 4.727e-10
 33.09135     34.4 1.044e+04 5.074e-10
 33.11188     35.5 1.055e+04 5.576e-10
 33.12236     35.5 1.047e+04 4.766e-10
 33.13328     36.6 1.059e+04 5.265e-10
 33.15424     37.6 1.074e+04 5.859e-10
 33.17030     38.7 1.091e+04 6.503e-10
 33.18078     38.7 1.083e+04 5.643e-10
 33.19618     40.0 1.100e+04 6.286e-10
 33.21714     41.3 1.120e+04 6.953e-10
 33.22872     42.5 1.142e+04 7.554e-10
 33.23921     42.6 1.130e+04 6.809e-10
 33.25907     44.0 1.150e+04 7.256e-10
 33.27666     45.0 1.165e+04 7.554e-10
 33.28715     44.8 1.149e+04 6.965e-10
 33.31159     46.7 1.170e+04 7.797e-10
 33.33528     50.0 1.196e+04 8.990e-10
 33.35625     50.3 1.215e+04 1.021e-09
 33.39555     53.0 1.269e+04 1.235e-09
 33.42690     54.0 1.303e+04 1.462e-09
 33.44145     54.9 1.350e+04 1.827e-09
 33.45194     54.2 1.386e+04 2.237e-09
 33.46874     55.0 1.455e+04 3.120e-09
 33.48939     56.0 1.523e+04 4.216e-09
 33.49988     55.4 1.549e+04 4.952e-09
 33.51067     56.5 1.620e+04 6.401e-09
 33.53163     57.5 1.684e+04 7.702e-09
 33.54782     58.2 1.740e+04 8.681e-09
 33.55830     57.4 1.741e+04 8.820e-09
 33.57357     57.7 1.789e+04 9.492e-09
 33.59453     57.7 1.829e+04 1.012e-08
 33.60624     57.7 1.873e+04 1.100e-08
 33.61561     56.7 1.763e+04 7.406e-09
 33.62486     56.3 1.827e+04 8.915e-09
 33.63646     56.4 1.831e+04 8.544e-09
 33.65418     56.6 1.819e+04 7.795e-09
 33.66467     55.1 1.630e+04 4.312e-09
 33.67311     55.4 1.630e+04 4.374e-09
 33.68330     55.3 1.614e+04 4.211e-09
 33.68854     54.6 1.561e+04 3.436e-09
 33.69402     54.1 1.526e+04 3.259e-09
 33.70451     53.8 1.507e+04 3.230e-09
 33.71251     53.5 1.501e+04 3.284e-09
 33.72304     53.1 1.489e+04 2.915e-09
 33.74130     52.8 1.477e+04 3.047e-09
 33.76055     52.8 1.472e+04 3.122e-09
 33.77103     52.1 1.438e+04 2.429e-09
 33.78323     52.2 1.418e+04 2.394e-09
 33.80419     52.4 1.380e+04 2.222e-09
 33.81897     52.7 1.342e+04 1.918e-09
 33.82945     52.0 1.316e+04 1.785e-09
 33.84613     52.6 1.289e+04 1.528e-09
 33.86691     53.4 1.268e+04 1.325e-09
 33.87740     53.5 1.269e+04 1.324e-09
 33.88806     54.3 1.254e+04 1.190e-09
 33.90902     55.3 1.235e+04 1.101e-09
 33.92534     56.4 1.218e+04 1.038e-09
 33.93582     56.5 1.214e+04 1.058e-09
 33.95096     57.8 1.206e+04 1.008e-09
 33.97192     59.2 1.208e+04 1.000e-09
 33.98376     60.4 1.212e+04 1.003e-09
 33.99424     60.0 1.223e+04 1.046e-09
 34.01385     61.0 1.236e+04 1.060e-09
 34.03170     61.9 1.260e+04 1.113e-09
 34.04218     60.6 1.342e+04 1.629e-09
 34.05579     61.2 1.377e+04 1.916e-09
 34.07675     62.1 1.403e+04 2.211e-09
 34.09013     63.0 1.419e+04 2.468e-09
 34.10061     62.2 1.466e+04 3.415e-09
 34.11869     63.2 1.469e+04 3.496e-09
 34.13807     64.1 1.472e+04 3.518e-09
 34.14855     63.3 1.480e+04 3.661e-09
 34.16062     63.9 1.479e+04 3.620e-09
 34.18158     64.5 1.476e+04 3.587e-09
 34.19649     64.9 1.471e+04 3.540e-09
 34.20318     64.2 1.432e+04 2.828e-09
 34.20924     65.1 1.401e+04 2.412e-09
 34.22352     65.4 1.400e+04 2.258e-09
 34.24443     65.2 1.405e+04 2.201e-09
 34.26540     63.8 1.347e+04 1.595e-09
 34.28641     63.1 1.360e+04 1.719e-09
 34.30286     62.3 1.389e+04 2.010e-09
 34.31334     62.1 1.335e+04 1.680e-09
 34.32835     61.6 1.362e+04 2.012e-09
 34.34931     61.2 1.380e+04 2.294e-09
 34.36128     60.7 1.384e+04 2.340e-09
 34.37176     61.9 1.343e+04 1.901e-09
 34.39125     61.5 1.342e+04 1.862e-09
 34.40922     61.0 1.330e+04 1.727e-09
 34.41970     61.7 1.296e+04 1.389e-09
 34.44376     62.6 1.266e+04 1.210e-09
 34.48579     62.8 1.259e+04 1.129e-09
 34.51568     63.0 1.244e+04 1.047e-09
 34.52607     64.8 1.228e+04 9.964e-10
 34.53801     64.6 1.230e+04 9.969e-10
 34.55897     64.6 1.223e+04 9.643e-10
 34.57401     64.8 1.207e+04 9.104e-10
 34.58449     66.1 1.210e+04 9.353e-10
 34.60091     66.3 1.195e+04 8.915e-10
 34.62187     66.7 1.172e+04 8.151e-10
 34.64284     68.2 1.163e+04 8.217e-10
 34.66380     68.5 1.140e+04 7.404e-10
 34.68037     68.8 1.117e+04 6.511e-10
 34.69086     69.9 1.141e+04 7.943e-10
 34.70574     70.1 1.121e+04 7.155e-10
 34.72670     70.4 1.104e+04 6.374e-10
 34.73880     70.4 1.092e+04 5.829e-10
 34.74928     71.4 1.123e+04 7.432e-10
 34.77922     72.2 1.114e+04 6.579e-10
 34.82125     72.2 1.083e+04 5.665e-10
 34.84536     72.1 1.050e+04 4.830e-10
 34.86632     73.3 1.127e+04 7.177e-10
 34.90511     73.2 1.105e+04 6.429e-10
 34.93646     73.1 1.102e+04 6.351e-10
 34.95153     72.5 1.116e+04 6.773e-10
 34.96201     72.8 1.164e+04 8.971e-10
 34.97830     71.3 1.207e+04 1.086e-09
 34.99926     69.5 1.267e+04 1.428e-09
 35.00995     67.4 1.331e+04 1.949e-09
 35.02043     68.1 1.413e+04 2.744e-09
 35.04120     65.9 1.487e+04 3.741e-09
 35.05789     63.4 1.524e+04 4.312e-09
 35.06837     64.2 1.594e+04 5.517e-09
 35.08313     60.9 1.622e+04 5.735e-09
 35.10409     54.4 1.753e+04 6.228e-09
 35.11632     41.7 2.133e+04 7.721e-09
 35.12680     39.3 2.330e+04 1.176e-08
 35.14603     25.4 2.319e+04 1.149e-08
 35.16426     15.1 2.033e+04 8.045e-09
 35.17474     15.4 2.081e+04 8.963e-09
 35.18796      8.2 1.589e+04 3.246e-09
 35.20892      0.7 1.048e+04 1.052e-09
 35.24047     -9.3 9.462e+03 3.384e-10
 35.27082    -15.7 8.557e+03 2.353e-10
 35.29178    -17.0 8.697e+03 3.245e-10
 35.32443    -20.3 8.816e+03 3.353e-10
 35.35721    -23.6 9.343e+03 4.232e-10
 35.37818    -24.2 9.149e+03 3.783e-10
 35.38766    -27.1 9.892e+03 5.811e-10
 35.40863    -28.6 1.071e+04 7.878e-10
 35.45023    -31.2 1.092e+04 8.474e-10
 35.48355    -33.5 1.059e+04 7.269e-10
 35.50451    -36.4 1.146e+04 8.966e-10
 35.53409    -40.0 1.116e+04 7.200e-10
 35.57603    -43.8 1.123e+04 8.241e-10
 35.60039    -45.2 1.113e+04 8.090e-10
 35.62136    -46.7 1.149e+04 8.540e-10
 35.65989    -46.5 1.095e+04 6.503e-10
 35.69628    -46.9 1.074e+04 4.891e-10
 35.71724    -47.9 1.116e+04 4.913e-10
 35.74376    -48.6 1.077e+04 3.949e-10
 35.78569    -49.9 1.091e+04 3.561e-10
 35.81312    -51.1 1.136e+04 3.838e-10
 35.83409    -51.8 1.143e+04 5.635e-10
 35.86955    -52.1 1.155e+04 6.313e-10
 35.90901    -51.6 1.166e+04 7.297e-10
 35.92997    -52.2 1.172e+04 8.104e-10
 35.95342    -50.8 1.175e+04 8.845e-10
 35.99535    -49.1 1.184e+04 9.399e-10
 36.02585    -47.2 1.220e+04 9.911e-10
 36.04682    -48.0 1.165e+04 7.521e-10
 36.06863    -46.4 1.168e+04 7.654e-10
 36.08408    -45.0 1.165e+04 7.081e-10
 36.09457    -45.3 1.145e+04 6.188e-10
 36.11047    -44.2 1.148e+04 5.515e-10
 36.13143    -43.2 1.152e+04 4.980e-10
 36.14251    -42.3 1.154e+04 4.715e-10
 36.15299    -42.7 1.138e+04 4.300e-10
 36.17337    -42.1 1.139e+04 4.278e-10
 36.19045    -41.7 1.142e+04 4.473e-10
 36.20093    -42.0 1.133e+04 4.389e-10
 36.21530    -41.9 1.144e+04 4.926e-10
 36.23626    -42.2 1.185e+04 5.796e-10
 36.24887    -42.6 1.245e+04 8.093e-10
 36.25935    -42.7 1.238e+04 8.134e-10
 36.27820    -42.7 1.284e+04 1.234e-09
 36.29681    -42.5 1.322e+04 1.764e-09
 36.30729    -42.5 1.315e+04 1.635e-09
 36.32013    -42.1 1.329e+04 1.957e-09
 36.34109    -41.7 1.320e+04 1.993e-09
 36.35524    -41.2 1.311e+04 1.959e-09
 36.36572    -41.6 1.313e+04 1.810e-09
 36.38303    -41.5 1.302e+04 1.779e-09
 36.40318    -41.9 1.314e+04 1.603e-09
 36.41366    -42.9 1.348e+04 1.937e-09
 36.42496    -43.4 1.362e+04 1.861e-09
 36.44593    -43.7 1.349e+04 1.706e-09
 36.46160    -44.1 1.314e+04 1.499e-09
 36.47208    -44.0 1.347e+04 1.954e-09
 36.48786    -43.9 1.293e+04 1.515e-09
 36.50882    -44.1 1.243e+04 1.146e-09
 36.52002    -43.9 1.185e+04 8.331e-10
 36.52648    -44.0 1.193e+04 8.270e-10
 36.53625    -44.1 1.159e+04 7.420e-10
 36.55076    -44.0 1.115e+04 5.702e-10
 36.56797    -43.6 1.094e+04 3.845e-10
 36.58903    -44.1 1.090e+04 3.148e-10
 36.62433    -43.5 1.045e+04 2.433e-10
 36.66404    -42.2 1.037e+04 2.460e-10
 36.68501    -42.3 1.022e+04 2.083e-10
 36.70820    -41.1 1.035e+04 2.501e-10
 36.75013    -39.8 1.066e+04 3.388e-10
 36.78089    -39.2 1.099e+04 4.684e-10
 36.80186    -39.0 1.086e+04 4.376e-10
 36.83399    -38.7 1.124e+04 5.943e-10
 36.87593    -38.6 1.148e+04 6.902e-10
 36.89774    -38.3 1.138e+04 6.500e-10
 36.91870    -37.9 1.088e+04 5.137e-10
 36.95979    -37.1 1.051e+04 3.574e-10
 36.99362    -36.8 1.023e+04 2.327e-10
 37.01459    -36.4 9.989e+03 1.728e-10
 37.04366    -36.0 9.802e+03 1.496e-10
 37.08559    -35.2 9.813e+03 1.569e-10
 37.11047    -34.1 9.961e+03 1.935e-10
 37.13143    -33.6 9.781e+03 1.528e-10
 37.16945    -32.3 1.004e+04 2.106e-10
 37.20635    -31.0 1.037e+04 2.815e-10
 37.22732    -30.6 1.016e+04 2.396e-10
 37.25332    -29.4 1.046e+04 3.037e-10
 37.29525    -28.3 1.070e+04 3.532e-10
 37.32320    -27.2 1.075e+04 3.475e-10
 37.34416    -26.7 1.061e+04 3.110e-10
 37.37911    -25.8 1.062e+04 3.005e-10
 37.41908    -24.8 1.056e+04 2.804e-10
 37.44005    -24.2 1.048e+04 2.601e-10
 37.46298    -23.2 1.041e+04 2.435e-10
 37.50491    -22.1 1.037e+04 2.286e-10
 37.53593    -21.1 1.040e+04 2.279e-10
 37.55689    -20.7 1.045e+04 2.416e-10
 37.58877    -19.9 1.058e+04 2.701e-10
 37.63071    -19.0 1.074e+04 3.233e-10
 37.65278    -18.1 1.090e+04 3.651e-10
 37.67374    -17.8 1.077e+04 3.663e-10
 37.69471    -16.9 1.076e+04 3.560e-10
 37.71567    -16.3 1.066e+04 3.331e-10
 37.74866    -15.2 1.051e+04 2.924e-10
 37.76962    -14.9 1.036e+04 2.771e-10
 37.79844    -13.9 1.022e+04 2.370e-10
 37.84037    -13.1 1.008e+04 2.167e-10
 37.86550    -12.1 1.006e+04 2.178e-10
 37.88647    -11.9 1.010e+04 2.348e-10
 37.92423    -10.9 1.009e+04 2.445e-10
 37.96139     -9.9 1.009e+04 2.545e-10
 37.98235     -9.7 1.009e+04 2.707e-10
 38.00810     -8.8 1.010e+04 2.777e-10
 38.05003     -7.8 1.017e+04 2.977e-10
 38.07823     -6.9 1.030e+04 3.292e-10
 38.09920     -7.1 1.025e+04 3.319e-10
 38.13389     -6.2 1.039e+04 3.634e-10
 38.17412     -5.2 1.047e+04 3.757e-10
 38.19508     -5.2 1.017e+04 3.319e-10
 38.21776     -4.4 1.025e+04 3.386e-10
 38.25969     -3.8 1.038e+04 3.571e-10
 38.29096     -3.4 1.052e+04 3.969e-10
 38.31193     -3.7 1.041e+04 3.952e-10
 38.34356     -3.3 1.039e+04 3.954e-10
 38.38549     -2.6 1.008e+04 3.161e-10
 38.40781     -3.0 9.752e+03 1.795e-10
 38.42878     -3.3 9.529e+03 1.306e-10
 38.46935     -4.7 9.489e+03 1.207e-10
 38.50369     -5.5 9.453e+03 1.313e-10
 38.52466     -5.2 9.308e+03 1.189e-10
 38.55322     -4.9 9.426e+03 1.616e-10
 38.59515     -4.0 9.609e+03 1.996e-10
 38.62054     -3.0 9.656e+03 2.015e-10
 38.64151     -2.5 9.598e+03 1.960e-10
 38.67901     -1.5 9.580e+03 1.850e-10
 38.71642     -0.5 9.519e+03 1.638e-10
 38.73739      0.0 9.496e+03 1.622e-10
 38.76288      1.2 9.411e+03 1.400e-10
 38.80481      2.5 9.356e+03 1.207e-10
 38.83327      3.8 9.347e+03 1.097e-10
 38.84998      4.3 9.348e+03 1.076e-10
 38.86345      4.4 9.460e+03 1.308e-10
 38.88867      5.8 9.507e+03 1.434e-10
 38.92915      7.3 9.602e+03 1.661e-10
 38.95012      7.7 9.604e+03 1.646e-10
 38.97254      9.1 9.772e+03 2.003e-10
 39.01447     10.3 9.986e+03 2.567e-10
 39.04600     11.4 1.022e+04 3.243e-10
 39.06697     11.6 1.024e+04 3.405e-10
 39.09834     12.5 1.044e+04 3.994e-10
 39.14027     13.2 1.059e+04 4.240e-10
 39.16285     13.8 1.068e+04 4.283e-10
 39.18381     13.5 1.065e+04 4.255e-10
 39.22413     13.6 1.068e+04 4.385e-10
 39.25873     13.7 1.078e+04 4.906e-10
 39.27970     12.7 1.073e+04 5.022e-10
 39.30800     12.6 1.089e+04 6.095e-10
 39.34993     12.4 1.113e+04 7.289e-10
 39.37558     11.7 1.137e+04 8.200e-10
 39.39654      9.6 1.137e+04 8.226e-10
 39.43379      8.1 1.154e+04 8.682e-10
 39.47146      6.2 1.200e+04 9.982e-10
 39.49233      3.4 1.226e+04 1.077e-09
 39.50698      1.2 1.237e+04 1.354e-09
 39.52795     -0.1 1.209e+04 1.437e-09
 39.54017     -0.6 1.194e+04 1.400e-09
 39.55065     -1.4 1.165e+04 1.162e-09
 39.56988     -2.0 1.151e+04 1.034e-09
 39.58811     -2.8 1.140e+04 8.903e-10
 39.59860     -4.0 1.131e+04 7.968e-10
 39.61181     -5.0 1.120e+04 7.563e-10
 39.63278     -5.9 1.117e+04 7.602e-10
 39.64654     -6.5 1.117e+04 7.809e-10
 39.65702     -7.3 1.127e+04 8.267e-10
 39.67471     -7.4 1.142e+04 9.182e-10
 39.69448     -7.4 1.158e+04 9.954e-10
 39.70496     -7.9 1.176e+04 1.127e-09
 39.71664     -7.8 1.182e+04 1.120e-09
 39.73761     -7.7 1.182e+04 1.084e-09
 39.75290     -7.7 1.175e+04 1.000e-09
 39.76338     -8.2 1.175e+04 1.007e-09
 39.77954     -8.2 1.159e+04 8.892e-10
 39.80051     -8.1 1.138e+04 7.569e-10
 39.81133     -8.1 1.121e+04 6.446e-10
 39.82181     -8.6 1.118e+04 6.634e-10
 39.84244     -8.3 1.106e+04 5.853e-10
 39.85927     -8.1 1.101e+04 5.291e-10
 39.86975     -8.4 1.101e+04 5.992e-10
 39.88437     -7.7 1.094e+04 5.443e-10
 39.90534     -7.5 1.094e+04 5.246e-10
 39.91779     -7.0 1.081e+04 5.007e-10
 39.93885     -7.0 1.082e+04 5.577e-10
 39.97891     -5.4 1.069e+04 5.226e-10
 40.01123     -3.9 1.065e+04 4.977e-10
 40.02512     -2.9 1.071e+04 5.139e-10
 40.03473     -3.0 1.082e+04 5.729e-10
 40.06278     -1.6 1.081e+04 5.538e-10
 40.10471     -0.0 1.078e+04 5.297e-10
 40.13062      1.6 1.074e+04 4.987e-10
 40.15158      1.3 1.076e+04 5.149e-10
 40.18857      2.9 1.069e+04 4.811e-10
 40.22650      4.5 1.063e+04 4.434e-10
 40.24746      4.3 1.043e+04 4.065e-10
 40.27244      5.9 1.035e+04 3.706e-10
 40.31437      7.6 1.031e+04 3.412e-10
 40.34334      9.3 1.028e+04 3.172e-10
 40.36431      9.3 9.983e+03 2.314e-10
 40.39824     10.9 9.987e+03 2.098e-10
 40.43923     12.5 9.954e+03 1.889e-10
 40.46019     12.5 9.734e+03 1.408e-10
 40.48210     14.1 9.674e+03 1.307e-10
 40.52403     15.8 9.582e+03 1.222e-10
 40.55607     17.6 9.481e+03 1.151e-10
 40.57704     17.9 9.347e+03 1.009e-10
 40.60790     20.0 9.277e+03 9.453e-11
 40.64983     22.1 9.222e+03 8.734e-11
 40.67292     24.2 9.183e+03 8.041e-11
 40.69389     24.8 9.102e+03 6.657e-11
 40.73369     26.9 9.096e+03 6.330e-11
 40.76880     28.9 9.108e+03 6.255e-11
 40.78977     29.3 9.052e+03 5.680e-11
 40.81756     31.4 9.080e+03 6.357e-11
 40.85949     33.4 9.125e+03 7.534e-11
 40.88565     35.5 9.165e+03 9.036e-11
 40.90662     36.0 9.139e+03 9.990e-11
 40.94335     38.2 9.194e+03 1.161e-10
 40.98153     40.2 9.227e+03 1.209e-10
 41.00250     40.8 9.222e+03 1.224e-10
 41.02722     42.7 9.225e+03 1.214e-10
 41.06915     44.7 9.199e+03 1.175e-10
 41.09838     46.8 9.140e+03 1.081e-10
 41.11935     47.3 9.043e+03 9.944e-11
 41.15302     49.3 8.988e+03 8.938e-11
 41.17998     51.3 8.981e+03 8.517e-11
 41.20026     51.3 8.974e+03 8.599e-11
 41.21523     51.9 8.895e+03 7.914e-11
 41.23688     53.9 8.902e+03 7.978e-11
 41.27881     56.0 8.931e+03 8.389e-11
 41.31111     58.0 8.980e+03 9.295e-11
 41.33208     58.6 8.942e+03 9.147e-11
 41.36268     60.6 8.994e+03 1.032e-10
 41.40461     62.7 9.061e+03 1.172e-10
 41.42796     64.7 9.145e+03 1.336e-10
 41.44893     65.0 9.128e+03 1.311e-10
 41.48847     67.0 9.229e+03 1.494e-10
 41.52384     68.9 9.351e+03 1.711e-10
 41.54481     68.9 9.360e+03 1.711e-10
 41.57234     70.8 9.531e+03 2.002e-10
 41.61427     72.6 9.730e+03 2.384e-10
 41.64069     74.3 9.927e+03 2.831e-10
 41.66165     74.1 9.963e+03 2.899e-10
 41.69814     75.6 1.009e+04 3.266e-10
 41.73657     77.1 1.016e+04 3.536e-10
 41.75754     76.8 1.009e+04 3.233e-10
 41.78200     78.3 1.017e+04 3.420e-10
 41.82393     79.7 1.026e+04 3.675e-10
 41.85332     79.9 1.037e+04 4.031e-10
 41.86371     79.6 1.043e+04 4.183e-10
 41.87615     79.9 1.059e+04 5.068e-10
 41.89712     80.4 1.079e+04 6.252e-10
 41.91165     80.9 1.105e+04 7.624e-10
 41.92213     80.8 1.133e+04 9.034e-10
 41.93905     81.2 1.170e+04 1.123e-09
 41.95959     81.6 1.206e+04 1.351e-09
 41.97007     81.4 1.249e+04 1.655e-09
 41.98098     81.4 1.283e+04 1.921e-09
 42.00195     81.3 1.307e+04 2.097e-09
 42.01801     81.0 1.323e+04 2.171e-09
 42.02849     80.6 1.371e+04 2.752e-09
 42.04388     80.2 1.394e+04 2.922e-09
 42.06485     79.7 1.413e+04 3.036e-09
 42.07644     79.3 1.417e+04 3.030e-09
 42.08692     79.2 1.490e+04 4.085e-09
 42.10678     78.8 1.487e+04 4.024e-09
 42.12438     78.4 1.474e+04 3.709e-09
 42.13486     78.2 1.541e+04 4.591e-09
 42.14871     77.1 1.548e+04 4.435e-09
 42.16968     74.5 1.591e+04 4.620e-09
 42.18280     69.9 1.732e+04 5.878e-09
 42.19328     67.5 1.834e+04 8.097e-09
 42.21161     62.9 1.951e+04 1.273e-08
 42.23074     59.3 1.984e+04 1.639e-08
 42.24122     58.3 2.006e+04 1.780e-08
 42.25354     55.6 1.973e+04 1.646e-08
 42.27451     53.8 1.866e+04 1.076e-08
 42.28917     51.4 1.698e+04 4.589e-09
 42.29965     50.1 1.629e+04 3.345e-09
 42.31644     44.6 1.293e+04 1.101e-09
 42.33711     39.0 1.055e+04 6.661e-10
 42.34759     38.6 1.047e+04 6.619e-10
 42.34853     37.7 1.021e+04 6.250e-10
 42.35901     38.1 1.006e+04 5.839e-10
 42.37934     38.0 9.991e+03 5.681e-10
 42.39553     38.0 9.926e+03 5.513e-10
 42.40601     38.4 9.903e+03 5.360e-10
 42.42127     38.4 9.845e+03 5.097e-10
 42.44224     38.3 9.870e+03 5.055e-10
 42.45395     38.0 9.964e+03 5.153e-10
 42.46444     38.4 9.815e+03 4.539e-10
 42.48417     37.6 1.005e+04 4.811e-10
 42.50189     36.0 1.078e+04 6.169e-10
 42.51238     36.9 1.028e+04 4.744e-10
 42.52610     35.3 1.112e+04 7.089e-10
 42.54707     34.0 1.188e+04 1.154e-09
 42.56032     33.1 1.246e+04 1.747e-09
 42.57080     34.2 1.185e+04 1.244e-09
 42.58900     33.3 1.235e+04 1.713e-09
 42.60826     32.2 1.284e+04 2.063e-09
 42.61874     33.4 1.235e+04 1.681e-09
 42.63093     32.0 1.284e+04 1.926e-09
 42.65190     30.1 1.322e+04 1.936e-09
 42.66668     27.7 1.324e+04 1.872e-09
 42.67717     30.1 1.314e+04 1.841e-09
 42.69383     27.8 1.309e+04 1.673e-09
 42.71462     25.6 1.262e+04 1.400e-09
 42.72511     28.1 1.296e+04 1.485e-09
 42.73576     26.0 1.228e+04 1.216e-09
 42.75673     24.4 1.158e+04 9.743e-10
 42.77305     23.4 1.111e+04 7.903e-10
 42.78353     25.2 1.133e+04 8.859e-10
 42.79866     24.3 1.099e+04 7.368e-10
 42.81963     23.6 1.086e+04 6.214e-10
 42.83147     22.8 1.095e+04 5.836e-10
 42.84196     24.5 1.107e+04 6.675e-10
 42.86156     23.7 1.111e+04 6.736e-10
 42.87941     22.6 1.130e+04 7.137e-10
 42.88990     24.4 1.139e+04 7.710e-10
 42.90349     23.2 1.172e+04 9.004e-10
 42.92242     21.9 1.222e+04 1.179e-09
 42.93290     22.1 1.195e+04 1.038e-09
 42.93784     21.2 1.261e+04 1.455e-09
 42.94832     22.6 1.252e+04 1.391e-09
 42.96639     21.8 1.320e+04 1.906e-09
 42.98578     21.0 1.369e+04 2.291e-09
 42.99626     22.3 1.345e+04 2.126e-09
 43.00832     21.4 1.358e+04 2.198e-09
 43.02929     20.8 1.349e+04 2.100e-09
 43.04420     20.4 1.315e+04 1.778e-09
 43.05469     21.8 1.313e+04 1.775e-09
 43.07122     21.4 1.284e+04 1.488e-09
 43.09214     21.1 1.253e+04 1.199e-09
 43.11311     22.1 1.268e+04 1.176e-09
 43.13412     21.9 1.254e+04 1.033e-09
 43.15057     21.9 1.237e+04 9.370e-10
 43.16105     24.3 1.318e+04 1.333e-09
 43.17605     25.0 1.338e+04 1.322e-09
 43.19702     25.8 1.360e+04 1.340e-09
 43.20899     25.0 1.451e+04 1.346e-09
 43.21418     29.9 1.430e+04 1.637e-09
 43.21975     29.3 1.504e+04 1.737e-09
 43.22499     30.9 1.419e+04 1.505e-09
 43.23286     28.8 1.560e+04 1.662e-09
 43.23811     30.3 1.863e+04 1.952e-09
 43.24409     17.9 2.998e+04 3.723e-09
 43.25458      0.3 3.746e+04 1.776e-08
 43.26208    -12.6 3.373e+04 6.304e-08
 43.26732    -17.6 3.559e+04 9.752e-08
 43.27554    -26.6 3.494e+04 8.948e-08
 43.28603    -35.1 4.417e+04 2.836e-08
 43.29651    -55.9 7.338e+04 1.860e-09
 43.30699    -63.1 6.008e+04 1.499e-09
 43.31531    -76.5 2.508e+04 1.232e-09
 43.32584    -85.3 1.824e+04 1.056e-09
 43.34378    -84.0 1.247e+04 9.038e-10
 43.36330    -81.3 1.203e+04 7.514e-10
 43.37378    -82.2 1.195e+04 7.184e-10
 43.38571    -79.7 1.179e+04 6.573e-10
 43.40668    -77.7 1.188e+04 6.563e-10
 43.42172    -76.5 1.227e+04 6.933e-10
 43.43220    -76.5 1.222e+04 6.860e-10
 43.44861    -76.0 1.244e+04 8.396e-10
 43.46958    -75.6 1.272e+04 1.061e-09
 43.49054    -74.7 1.279e+04 1.370e-09
 43.50679    -73.8 1.306e+04 1.642e-09
 43.51728    -73.9 1.301e+04 1.575e-09
 43.52809    -73.2 1.335e+04 1.844e-09
 43.53857    -73.0 1.314e+04 1.678e-09
 43.55344    -72.8 1.336e+04 1.738e-09
 43.57441    -72.9 1.362e+04 1.784e-09
 43.58651    -73.2 1.360e+04 1.815e-09
 43.59699    -72.9 1.317e+04 1.520e-09
 43.61634    -73.2 1.308e+04 1.478e-09
 43.63445    -73.8 1.331e+04 1.521e-09
 43.64493    -73.2 1.276e+04 1.237e-09
 43.65827    -74.6 1.344e+04 1.381e-09
 43.67924    -76.7 1.423e+04 1.806e-09
 43.69287    -78.2 1.423e+04 2.551e-09
 43.70336    -77.1 1.390e+04 2.024e-09
 43.72117    -77.8 1.386e+04 2.708e-09
 43.74081    -77.9 1.435e+04 3.173e-09
 43.75130    -78.1 1.465e+04 2.874e-09
 43.76310    -79.4 1.496e+04 3.705e-09
 43.78407    -81.8 1.532e+04 3.800e-09
 43.79924    -84.2 1.537e+04 3.544e-09
 43.80972    -85.3 1.595e+04 4.935e-09
 43.82600    -86.7 1.599e+04 4.642e-09
 43.84697    -88.1 1.504e+04 3.460e-09
 43.85766    -89.4 1.386e+04 2.697e-09
 43.86815    -89.3 1.430e+04 3.132e-09
 43.88890    -90.0 1.340e+04 2.485e-09
 43.90560    -90.0 1.312e+04 2.283e-09
 43.91609    -90.2 1.290e+04 2.038e-09
 43.93083    -89.6 1.253e+04 1.748e-09
 43.95180    -88.8 1.222e+04 1.525e-09
 43.96403    -88.0 1.192e+04 1.320e-09
 43.97451    -88.1 1.166e+04 1.104e-09
 43.99373    -87.0 1.143e+04 9.583e-10
 44.01197    -85.8 1.123e+04 8.364e-10
 44.02245    -85.7 1.103e+04 7.131e-10
 44.03566    -84.4 1.083e+04 6.200e-10
 44.05663    -83.0 1.072e+04 5.679e-10
 44.07039    -81.8 1.068e+04 5.527e-10
 44.08088    -81.2 1.054e+04 4.779e-10
 44.09117    -79.7 1.052e+04 4.711e-10
 44.10165    -80.6 1.073e+04 5.435e-10
 44.11833    -79.2 1.081e+04 5.576e-10
 44.12882    -78.6 1.074e+04 5.018e-10
 44.14049    -77.2 1.080e+04 5.221e-10
 44.16146    -75.7 1.087e+04 5.703e-10
 44.17676    -74.4 1.110e+04 6.758e-10
 44.18724    -75.3 1.119e+04 6.426e-10
 44.20339    -78.5 1.362e+04 9.073e-10
 44.22436    -85.3 2.130e+04 1.440e-09
 44.23518    -94.7 3.151e+04 2.646e-09
 44.24037   -104.3 4.078e+04 2.049e-09
 44.25047   -112.2 3.668e+04 1.220e-08
 44.25905   -118.4 3.069e+04 8.201e-08
 44.26430   -121.4 2.453e+04 4.169e-07
 44.27143   -129.1 2.388e+04 5.843e-07
 44.28192   -137.9 2.531e+04 3.748e-07
 44.28827   -147.4 2.709e+04 1.527e-07
 44.29351   -161.4 2.995e+04 4.123e-08
 44.30288   -177.1 2.742e+04 7.053e-09
 44.31224   -186.9 2.263e+04 2.684e-09
 44.31748   -193.9 1.516e+04 1.828e-09
 44.32385   -194.8 1.413e+04 1.663e-09
 44.33433   -195.1 1.374e+04 1.608e-09
 44.34150   -194.8 1.353e+04 1.528e-09
 44.35203   -195.3 1.322e+04 1.388e-09
 44.37112   -195.4 1.255e+04 1.111e-09
 44.38949   -194.2 1.210e+04 8.805e-10
 44.39997   -194.1 1.194e+04 7.807e-10
 44.41305   -192.6 1.152e+04 5.757e-10
 44.43402   -191.2 1.101e+04 4.036e-10
 44.44791   -190.0 1.059e+04 3.010e-10
 44.46897   -190.3 1.051e+04 2.751e-10
 44.50760   -188.5 1.015e+04 2.215e-10
 44.54399   -186.1 9.718e+03 1.834e-10
 44.56495   -186.1 9.567e+03 1.722e-10
 44.59146   -183.8 9.381e+03 1.602e-10
 44.63339   -181.9 9.351e+03 1.620e-10
 44.66084   -180.5 9.637e+03 2.116e-10
 44.67173   -179.9 9.319e+03 1.777e-10
 44.68622   -178.9 9.304e+03 1.728e-10
 44.71726   -177.9 9.756e+03 2.523e-10
 44.75672   -177.2 1.027e+04 3.724e-10
 44.77768   -176.3 9.902e+03 3.025e-10
 44.80112   -175.5 1.036e+04 4.294e-10
 44.82553   -175.7 1.063e+04 5.776e-10
 44.83591   -174.6 1.046e+04 5.010e-10
 44.85334   -174.8 1.058e+04 5.743e-10
 44.87337   -174.9 1.071e+04 6.777e-10
 44.88385   -173.8 1.053e+04 5.747e-10
 44.89527   -173.9 1.058e+04 6.119e-10
 44.91624   -173.9 1.061e+04 6.447e-10
 44.93179   -174.0 1.061e+04 6.562e-10
 44.94228   -172.9 1.045e+04 5.578e-10
 44.95817   -173.0 1.044e+04 5.712e-10
 44.97914   -173.0 1.043e+04 5.887e-10
 44.99022   -173.0 1.044e+04 6.166e-10
 45.00070   -171.7 1.026e+04 5.118e-10
 45.02107   -171.7 1.028e+04 5.425e-10
 45.03816   -171.6 1.032e+04 5.782e-10
 45.04864   -170.3 1.015e+04 4.798e-10
 45.06300   -170.2 1.020e+04 5.089e-10
 45.08397   -170.1 1.027e+04 5.385e-10
 45.09658   -170.2 1.035e+04 5.635e-10
 45.10707   -168.9 1.017e+04 4.747e-10
 45.12590   -168.9 1.026e+04 5.073e-10
 45.14452   -169.1 1.038e+04 5.392e-10
 45.15501   -167.7 1.017e+04 4.573e-10
 45.16783   -167.9 1.033e+04 5.075e-10
 45.18880   -168.2 1.052e+04 5.538e-10
 45.20295   -168.6 1.066e+04 5.861e-10
 45.21343   -167.3 1.052e+04 5.328e-10
 45.23073   -167.5 1.061e+04 5.524e-10
 45.26228   -167.2 1.060e+04 5.357e-10
 45.29902   -167.0 1.052e+04 4.921e-10
 45.31999   -165.2 1.040e+04 4.844e-10
 45.34624   -165.4 1.035e+04 4.620e-10
 45.38817   -165.8 1.036e+04 4.392e-10
 45.41587   -166.3 1.031e+04 4.052e-10
 45.43684   -164.5 1.037e+04 4.424e-10
 45.47204   -165.2 1.020e+04 3.686e-10
 45.51175   -165.5 9.867e+03 2.941e-10
 45.53272   -164.1 9.866e+03 2.929e-10
 45.55590   -164.2 9.523e+03 2.320e-10
 45.59783   -164.1 9.317e+03 2.005e-10
 45.62860   -163.2 9.232e+03 1.879e-10
 45.64957   -162.5 9.126e+03 1.684e-10
 45.68170   -161.4 9.101e+03 1.650e-10
 45.72363   -160.7 9.168e+03 1.699e-10
 45.74545   -160.1 9.429e+03 2.124e-10
 45.76642   -159.4 9.268e+03 1.844e-10
 45.80750   -158.7 9.511e+03 2.344e-10
 45.83400   -158.0 9.773e+03 2.796e-10
 45.84687   -157.4 9.922e+03 3.196e-10
 45.86230   -156.8 9.568e+03 2.440e-10
 45.89136   -156.2 9.748e+03 2.621e-10
 45.93329   -155.8 9.801e+03 2.636e-10
 45.95818   -155.4 9.844e+03 2.459e-10
 45.97915   -154.6 9.422e+03 1.827e-10
 46.01716   -154.2 9.439e+03 1.748e-10
 46.05406   -154.0 9.458e+03 1.726e-10
 46.07503   -152.9 9.200e+03 1.407e-10
 46.10102   -152.6 9.249e+03 1.422e-10
 46.14295   -152.5 9.273e+03 1.429e-10
 46.17091   -152.4 9.322e+03 1.435e-10
 46.19188   -151.1 9.162e+03 1.217e-10
 46.22682   -151.4 9.298e+03 1.230e-10
 46.26679   -152.4 9.843e+03 1.633e-10
 46.28776   -151.0 9.523e+03 1.388e-10
 46.31068   -152.1 9.881e+03 2.303e-10
 46.35262   -152.7 1.016e+04 3.568e-10
 46.38364   -152.7 1.017e+04 4.277e-10
 46.40461   -151.4 9.902e+03 3.585e-10
 46.43648   -151.7 9.844e+03 3.641e-10
 46.47841   -151.8 9.421e+03 3.003e-10
 46.50049   -152.0 8.944e+03 2.208e-10
 46.52145   -150.0 8.837e+03 2.031e-10
 46.56228   -150.0 8.579e+03 1.732e-10
 46.59637   -149.7 8.500e+03 1.678e-10
 46.61733   -148.0 8.449e+03 1.593e-10
 46.64614   -147.6 8.416e+03 1.608e-10
 46.68807   -146.8 8.364e+03 1.698e-10
 46.71322   -145.8 8.328e+03 1.745e-10
 46.73418   -144.4 8.317e+03 1.681e-10
 46.77194   -143.3 8.240e+03 1.691e-10
 46.80910   -141.9 8.023e+03 1.622e-10
 46.83006   -140.6 8.051e+03 1.590e-10
 46.85580   -139.1 7.892e+03 1.400e-10
 46.89773   -137.5 7.725e+03 1.170e-10
 46.92595   -135.8 7.558e+03 9.398e-11
 46.94691   -134.8 7.620e+03 9.810e-11
 46.98160   -133.2 7.511e+03 8.410e-11
 47.02183   -131.1 7.310e+03 6.477e-11
 47.04279   -130.3 7.526e+03 8.285e-11
 47.06546   -128.6 7.510e+03 8.203e-11
 47.10740   -126.9 7.516e+03 8.343e-11
 47.13868   -125.1 7.521e+03 8.629e-11
 47.15964   -124.5 7.789e+03 1.205e-10
 47.19126   -122.8 7.730e+03 1.175e-10
 47.23319   -121.0 7.664e+03 1.110e-10
 47.25552   -119.3 7.605e+03 1.027e-10
 47.27649   -118.8 7.647e+03 1.037e-10
 47.31706   -117.0 7.554e+03 8.993e-11
 47.35141   -115.3 7.514e+03 8.283e-11
 47.37237   -114.8 7.468e+03 7.315e-11
 47.40092   -112.9 7.456e+03 7.165e-11
 47.44285   -111.1 7.464e+03 7.154e-11
 47.46825   -109.4 7.557e+03 7.539e-11
 47.48922   -108.8 7.541e+03 6.800e-11
 47.52672   -107.2 7.680e+03 7.949e-11
 47.56414   -105.8 7.852e+03 9.969e-11
 47.58510   -105.5 7.903e+03 1.020e-10
 47.61058   -104.3 8.162e+03 1.429e-10
 47.65252   -103.1 8.439e+03 2.020e-10
 47.68098   -101.9 8.699e+03 2.683e-10
 47.70195   -101.7 8.706e+03 2.731e-10
 47.73638   -100.6 8.873e+03 3.120e-10
 47.77686    -99.7 8.900e+03 3.233e-10
 47.79783    -99.5 8.746e+03 2.819e-10
 47.82024    -98.6 8.700e+03 2.576e-10
 47.86218    -97.9 8.692e+03 2.420e-10
 47.89371    -97.2 8.706e+03 2.381e-10
 47.91468    -96.9 8.531e+03 2.028e-10
 47.94604    -95.9 8.571e+03 2.078e-10
 47.98797    -94.8 8.595e+03 2.056e-10
 48.01056    -93.7 8.616e+03 1.909e-10
 48.03153    -93.3 8.521e+03 1.824e-10
 48.07184    -92.1 8.549e+03 1.685e-10
 48.10644    -90.8 8.582e+03 1.606e-10
 48.12741    -90.4 8.475e+03 1.528e-10
 48.15052    -89.2 8.643e+03 1.520e-10
 48.17149    -88.6 8.520e+03 1.670e-10
 48.19763    -87.7 8.779e+03 1.693e-10
 48.22329    -87.4 9.239e+03 2.353e-10
 48.24426    -86.8 9.009e+03 2.091e-10
 48.28150    -86.0 9.390e+03 3.208e-10
 48.31285    -84.9 9.608e+03 4.299e-10
 48.32946    -84.9 9.944e+03 5.403e-10
 48.33994    -84.1 9.698e+03 4.558e-10
 48.35469    -83.7 1.014e+04 6.209e-10
 48.37565    -83.4 1.071e+04 7.883e-10
 48.38788    -83.2 1.127e+04 1.022e-09
 48.39837    -82.4 1.084e+04 8.226e-10
 48.41758    -82.3 1.135e+04 1.038e-09
 48.43582    -82.4 1.197e+04 1.364e-09
 48.44631    -81.6 1.146e+04 1.042e-09
 48.45952    -82.0 1.220e+04 1.408e-09
 48.48048    -82.5 1.302e+04 1.989e-09
 48.49425    -83.0 1.364e+04 2.793e-09
 48.50473    -82.3 1.316e+04 2.196e-09
 48.52241    -82.3 1.364e+04 3.066e-09
 48.54219    -81.9 1.386e+04 3.794e-09
 48.55267    -81.3 1.362e+04 3.256e-09
 48.56435    -80.8 1.378e+04 3.689e-09
 48.58531    -80.3 1.369e+04 3.780e-09
 48.60061    -79.8 1.331e+04 3.155e-09
 48.61110    -79.2 1.332e+04 3.247e-09
 48.62724    -78.8 1.293e+04 2.572e-09
 48.64865    -79.7 1.219e+04 1.675e-09
 48.66962    -78.3 1.205e+04 1.580e-09
 48.70072    -78.2 1.151e+04 1.281e-09
 48.74275    -77.7 1.047e+04 6.863e-10
 48.76560    -77.1 9.654e+03 3.882e-10
 48.78656    -75.6 9.853e+03 4.592e-10
 48.82662    -75.1 9.348e+03 3.418e-10
 48.86148    -73.6 9.067e+03 3.041e-10
 48.88245    -72.3 9.175e+03 3.429e-10
 48.91048    -70.6 9.015e+03 3.149e-10
 48.95241    -69.0 8.822e+03 2.632e-10
 48.97833    -67.4 8.638e+03 1.978e-10
 48.99929    -66.2 8.843e+03 2.566e-10
 49.03628    -65.0 8.787e+03 2.150e-10
 49.07421    -64.1 8.724e+03 1.932e-10
 49.09517    -63.2 9.056e+03 3.006e-10
 49.12014    -62.2 9.083e+03 3.331e-10
 49.16208    -61.0 9.054e+03 3.420e-10
 49.19106    -59.6 8.801e+03 2.969e-10
 49.21202    -58.7 9.256e+03 4.752e-10
 49.24594    -57.3 8.774e+03 3.233e-10
 49.28694    -56.2 8.322e+03 2.048e-10
 49.30790    -55.6 8.486e+03 2.545e-10
 49.31927    -54.6 8.086e+03 1.653e-10
 49.34024    -54.5 8.114e+03 1.680e-10
 49.37174    -53.2 7.838e+03 1.180e-10
 49.40379    -51.7 7.674e+03 8.738e-11
 49.42475    -51.1 7.644e+03 9.744e-11
 49.45560    -50.0 7.527e+03 7.923e-11
 49.49753    -48.8 7.602e+03 7.694e-11
 49.52063    -47.8 7.589e+03 9.887e-11
 49.54160    -47.1 7.542e+03 9.818e-11
 49.58140    -45.3 7.650e+03 1.351e-10
 49.61652    -43.0 7.874e+03 1.651e-10
 49.63748    -42.3 7.766e+03 1.521e-10
 49.66526    -40.6 7.887e+03 1.517e-10
 49.70720    -39.2 7.917e+03 1.391e-10
 49.73336    -38.2 8.043e+03 1.461e-10
 49.75433    -37.6 7.963e+03 1.405e-10
 49.79106    -37.3 8.307e+03 1.864e-10
 49.82925    -36.5 8.593e+03 2.825e-10
 49.85021    -35.8 8.547e+03 2.893e-10
 49.87492    -33.9 8.791e+03 4.062e-10
 49.91686    -32.3 8.947e+03 4.241e-10
 49.94609    -31.3 8.997e+03 3.949e-10
 49.96706    -30.6 8.792e+03 3.554e-10
 50.00072    -30.1 8.851e+03 3.267e-10
 50.04198    -30.1 8.882e+03 3.310e-10
 50.06294    -29.5 8.719e+03 2.956e-10
 50.08459    -29.0 8.806e+03 3.360e-10
 50.12652    -28.2 8.802e+03 3.322e-10
 50.15882    -26.8 8.722e+03 2.771e-10
 50.17979    -26.3 8.791e+03 2.844e-10
 50.21038    -25.9 8.810e+03 2.157e-10
 50.25231    -25.7 8.740e+03 1.879e-10
 50.27567    -25.0 8.643e+03 1.901e-10
 50.29664    -24.6 8.672e+03 2.038e-10
 50.33618    -23.2 8.553e+03 1.991e-10
 50.37155    -21.6 8.495e+03 1.905e-10
 50.39252    -21.1 8.400e+03 1.793e-10
 50.42004    -19.6 8.346e+03 1.626e-10
 50.46198    -18.1 8.370e+03 1.601e-10
 50.48802    -16.8 8.484e+03 1.656e-10
 50.49347    -16.1 8.461e+03 1.569e-10
 50.50937    -15.5 8.455e+03 1.569e-10
 50.54584    -14.2 8.577e+03 1.708e-10
 50.58428    -13.1 8.747e+03 1.999e-10
 50.60525    -12.5 8.835e+03 2.183e-10
 50.62971    -11.3 8.960e+03 2.659e-10
 50.67164    -10.1 9.047e+03 3.084e-10
 50.70113     -8.8 9.135e+03 3.359e-10
 50.72210     -8.3 9.140e+03 3.422e-10
 50.75550     -7.4 9.294e+03 3.609e-10
 50.79701     -7.0 9.528e+03 4.050e-10
 50.81798     -6.2 9.329e+03 3.618e-10
 50.83937     -5.8 9.431e+03 3.820e-10
 50.88130     -5.2 9.387e+03 3.690e-10
 50.91386     -4.3 9.195e+03 3.122e-10
 50.93483     -3.3 8.910e+03 2.231e-10
 50.96516     -2.6 8.732e+03 1.708e-10
 51.00710     -2.0 8.595e+03 1.332e-10
 51.03071     -1.3 8.517e+03 1.127e-10
 51.05167     -0.3 8.383e+03 9.775e-11
 51.09096      0.7 8.390e+03 9.700e-11
 51.12659      2.0 8.454e+03 9.504e-11
 51.14756      3.2 8.311e+03 8.875e-11
 51.17482      4.6 8.396e+03 8.948e-11
 51.21676      5.9 8.457e+03 8.589e-11
 51.24344      7.2 8.472e+03 8.293e-11
 51.26440      8.6 8.435e+03 8.290e-11
 51.30062      9.9 8.487e+03 8.401e-11
 51.33932     11.1 8.542e+03 8.801e-11
 51.36029     12.5 8.541e+03 8.842e-11
 51.38449     13.7 8.630e+03 9.846e-11
 51.42642     14.9 8.715e+03 1.108e-10
 51.45617     16.1 8.799e+03 1.239e-10
 51.47713     17.5 8.839e+03 1.313e-10
 51.51028     18.6 8.900e+03 1.338e-10
 51.55205     19.7 8.886e+03 1.303e-10
 51.59398     22.3 8.856e+03 1.147e-10
 51.63580     23.7 8.798e+03 8.712e-11
 51.65676     23.7 8.836e+03 1.080e-10
 51.66890     25.2 8.796e+03 7.411e-11
 51.68986     26.4 8.803e+03 7.140e-11
 51.71994     27.4 8.821e+03 4.578e-11
 51.76188     28.3 8.739e+03 3.469e-11
 51.78574     29.6 8.656e+03 3.394e-11
 51.80671     30.7 8.644e+03 3.328e-11
 51.84574     32.2 8.648e+03 3.353e-11
 51.88163     33.9 8.703e+03 3.507e-11
 51.90259     34.9 8.691e+03 3.401e-11
 51.92960     36.1 8.826e+03 3.916e-11
 51.97154     36.8 9.042e+03 5.750e-11
 51.99847     37.1 9.364e+03 1.412e-10
 52.01944     37.8 9.427e+03 1.481e-10
 52.05540     38.5 1.044e+04 4.665e-10
 52.09436     39.2 1.147e+04 1.114e-09
 52.11532     40.2 1.122e+04 9.893e-10
 52.13927     40.3 1.134e+04 1.113e-09
 52.18120     40.7 1.108e+04 9.427e-10
 52.21120     41.5 1.042e+04 4.803e-10
 52.23217     42.5 1.023e+04 4.255e-10
 52.26506     42.7 9.625e+03 1.548e-10
 52.30700     41.9 9.026e+03 5.368e-11
 52.34893     43.2 8.633e+03 5.058e-11
 52.39086     43.7 8.498e+03 4.915e-11
 52.42393     44.9 8.475e+03 4.909e-11
 52.44490     46.4 8.559e+03 5.937e-11
 52.47472     47.7 8.555e+03 5.895e-11
 52.51666     48.8 8.553e+03 5.706e-11
 52.54078     49.8 8.534e+03 5.224e-11
 52.56175     51.2 8.635e+03 6.239e-11
 52.60052     52.0 8.667e+03 6.011e-11
 52.63666     52.5 8.700e+03 6.222e-11
 52.65763     53.4 8.845e+03 8.125e-11
 52.68439     53.1 9.079e+03 1.171e-10
 52.72632     52.7 9.634e+03 2.305e-10
 52.75351     51.9 1.016e+04 3.797e-10
 52.76390     52.3 1.032e+04 4.393e-10
 52.77854     51.7 1.068e+04 5.901e-10
 52.79950     51.1 1.107e+04 8.169e-10
 52.81174     50.6 1.143e+04 1.070e-09
 52.81658     50.5 1.163e+04 1.214e-09
 52.82531     50.3 1.157e+04 1.106e-09
 52.84144     49.7 1.184e+04 1.277e-09
 52.85968     48.9 1.189e+04 1.283e-09
 52.87016     48.5 1.197e+04 1.391e-09
 52.88337     47.9 1.173e+04 1.229e-09
 52.90433     47.5 1.143e+04 9.957e-10
 52.91810     47.1 1.113e+04 7.746e-10
 52.92859     47.0 1.100e+04 6.166e-10
 52.94627     46.4 1.081e+04 4.512e-10
 52.96605     45.7 1.073e+04 3.506e-10
 52.98711     45.1 1.056e+04 2.503e-10
 53.01984     43.7 1.051e+04 2.516e-10
 53.05119     42.3 1.054e+04 3.308e-10
 53.07206     42.3 1.060e+04 4.025e-10
 53.08299     42.3 1.125e+04 7.665e-10
 53.10405     42.7 1.097e+04 6.299e-10
 53.14564     42.6 1.128e+04 7.935e-10
 53.17699     42.2 1.125e+04 7.330e-10
 53.18926     41.9 1.110e+04 6.559e-10
 53.19974     41.9 1.094e+04 6.152e-10
 53.21883     41.6 1.072e+04 5.041e-10
 53.23720     41.2 1.049e+04 4.189e-10
 53.24768     41.2 1.042e+04 4.038e-10
 53.26076     40.6 1.025e+04 3.380e-10
 53.28172     40.1 1.014e+04 3.006e-10
 53.29562     39.8 1.011e+04 2.921e-10
 53.30611     39.8 1.012e+04 2.899e-10
 53.32366     39.8 1.013e+04 2.906e-10
 53.35520     39.6 1.043e+04 3.720e-10
 53.39170     39.7 1.058e+04 4.394e-10
 53.41267     39.6 1.063e+04 5.014e-10
 53.43917     39.7 1.091e+04 6.612e-10
 53.48110     39.9 1.142e+04 9.680e-10
 53.50855     40.4 1.198e+04 1.376e-09
 53.52951     40.8 1.203e+04 1.420e-09
 53.56496     41.4 1.222e+04 1.569e-09
 53.60443     41.9 1.212e+04 1.487e-09
 53.62540     42.6 1.184e+04 1.296e-09
 53.64883     43.3 1.162e+04 1.108e-09
 53.69076     44.0 1.126e+04 8.044e-10
 53.72128     44.2 1.103e+04 5.625e-10
 53.74224     44.2 1.128e+04 7.794e-10
 53.77462     44.2 1.141e+04 8.267e-10
 53.81656     44.4 1.136e+04 8.510e-10
 53.83813     44.8 1.123e+04 8.433e-10
 53.85909     45.2 1.174e+04 1.206e-09
 53.90042     45.7 1.127e+04 9.480e-10
 53.93401     46.1 1.072e+04 6.592e-10
 53.95497     46.1 1.041e+04 4.427e-10
 53.97329     45.5 9.590e+03 2.635e-10
 53.99426     45.3 9.697e+03 2.612e-10
 54.02622     45.0 9.552e+03 2.567e-10
 54.05085     45.6 9.508e+03 2.873e-10
 54.07182     44.8 9.191e+03 2.388e-10
 54.11008     45.8 9.205e+03 2.678e-10
 54.14674     46.8 9.270e+03 2.788e-10
 54.16770     46.6 9.089e+03 2.331e-10
 54.19395     47.3 9.065e+03 2.168e-10
 54.23588     47.8 9.026e+03 2.052e-10
 54.26358     48.2 9.026e+03 2.056e-10
 54.28455     47.4 9.191e+03 2.344e-10
 54.31974     48.2 9.271e+03 2.700e-10
 54.35947     49.0 9.359e+03 3.220e-10
 54.38043     48.9 1.011e+04 5.924e-10
 54.40361     50.3 1.013e+04 6.099e-10
 54.42828     50.9 9.913e+03 5.410e-10
 54.43866     51.0 9.957e+03 5.597e-10
 54.45583     51.7 9.791e+03 5.048e-10
 54.47612     52.3 9.631e+03 4.466e-10
 54.48660     52.4 9.979e+03 5.335e-10
 54.49776     52.6 9.851e+03 4.589e-10
 54.51873     52.6 9.815e+03 4.189e-10
 54.53454     52.7 9.725e+03 4.045e-10
 54.54503     52.6 1.035e+04 5.466e-10
 54.57124     52.7 9.856e+03 4.704e-10
 54.59316     53.1 9.816e+03 4.913e-10
 54.61413     52.4 1.078e+04 8.523e-10
 54.65520     53.1 1.048e+04 7.765e-10
 54.68904     54.0 1.028e+04 7.119e-10
 54.70991     52.8 1.102e+04 9.309e-10
 54.73897     53.9 1.148e+04 1.049e-09
 54.78100     54.9 1.078e+04 7.541e-10
 54.80589     55.9 1.031e+04 6.164e-10
 54.81628     54.1 1.128e+04 1.012e-09
 54.83322     54.9 1.090e+04 9.048e-10
 54.85364     55.7 1.091e+04 9.232e-10
 54.86412     55.1 1.139e+04 1.153e-09
 54.87515     55.8 1.115e+04 1.069e-09
 54.89612     56.6 1.098e+04 1.018e-09
 54.91206     57.4 1.085e+04 9.746e-10
 54.92254     56.8 1.136e+04 1.221e-09
 54.93805     57.6 1.109e+04 1.096e-09
 54.95901     58.4 1.085e+04 9.944e-10
 54.97048     59.3 1.076e+04 9.591e-10
 54.98097     58.7 1.079e+04 9.652e-10
 55.00095     59.5 1.076e+04 9.581e-10
 55.01843     60.2 1.074e+04 9.600e-10
 55.02891     59.6 1.046e+04 7.639e-10
 55.04288     60.5 1.049e+04 7.428e-10
 55.06385     61.4 1.056e+04 7.415e-10
 55.07685     62.2 1.072e+04 7.459e-10
 55.08733     60.8 1.017e+04 4.605e-10
 55.10578     61.3 1.014e+04 4.277e-10
 55.12479     61.6 1.006e+04 3.984e-10
 55.13527     59.5 9.101e+03 2.767e-10
 55.14184     59.7 8.983e+03 2.729e-10
 55.16290     58.9 8.735e+03 2.157e-10
 55.20032     58.2 9.107e+03 2.814e-10
 55.23135     56.4 1.029e+04 5.562e-10
 55.25232     55.1 1.024e+04 5.442e-10
 55.28419     53.3 1.156e+04 1.192e-09
 55.32612     51.7 1.201e+04 1.561e-09
 55.34820     49.8 1.188e+04 1.475e-09
 55.36916     49.4 1.108e+04 9.836e-10
 55.40998     47.7 1.063e+04 7.408e-10
 55.44408     46.3 1.009e+04 5.609e-10
 55.46505     45.3 9.783e+03 4.758e-10
 55.49385     44.8 9.784e+03 4.824e-10
 55.53578     44.5 9.867e+03 5.354e-10
 55.56093     44.6 1.019e+04 6.576e-10
 55.58189     43.7 1.051e+04 7.729e-10
 55.61964     44.1 1.117e+04 1.038e-09
 55.65099     43.1 1.182e+04 1.346e-09
 55.66710     42.9 1.198e+04 1.522e-09
 55.67758     42.5 1.170e+04 1.476e-09
 55.69283     42.9 1.136e+04 1.397e-09
 55.71380     43.4 1.100e+04 1.224e-09
 55.72552     44.0 1.062e+04 1.043e-09
 55.72746     44.0 1.016e+04 8.108e-10
 55.73670     44.9 1.053e+04 9.500e-10
 55.75573     45.1 1.018e+04 8.090e-10
 55.77346     45.5 9.889e+03 6.853e-10
 55.78395     45.3 9.499e+03 5.136e-10
 55.79766     45.5 9.307e+03 4.455e-10
 55.82921     45.8 8.976e+03 3.363e-10
 55.86954     47.2 8.872e+03 3.119e-10
 55.89051     47.7 8.568e+03 2.557e-10
 55.91317     49.3 8.615e+03 2.626e-10
 55.95510     50.7 8.799e+03 2.917e-10
 55.98639     51.6 9.019e+03 3.375e-10
 56.00735     52.0 8.991e+03 3.407e-10
 56.02838     52.4 9.160e+03 3.938e-10
 56.04462     52.9 9.340e+03 4.624e-10
 56.05510     53.0 9.255e+03 4.447e-10
 56.07022     53.7 9.482e+03 5.297e-10
 56.09119     54.6 9.724e+03 6.208e-10
 56.10304     55.4 9.936e+03 6.961e-10
 56.11352     55.4 9.772e+03 6.337e-10
 56.13312     56.1 9.942e+03 6.585e-10
 56.15098     56.7 1.000e+04 6.576e-10
 56.16146     56.7 9.795e+03 5.819e-10
 56.17505     57.2 9.804e+03 5.819e-10
 56.19602     57.7 9.817e+03 5.822e-10
 56.20940     58.3 9.831e+03 5.842e-10
 56.21989     58.2 9.618e+03 5.129e-10
 56.23795     59.0 9.724e+03 5.306e-10
 56.25735     59.4 9.980e+03 5.798e-10
 56.26783     58.8 9.893e+03 5.299e-10
 56.27988     58.4 1.046e+04 6.716e-10
 56.30010     57.4 1.133e+04 9.885e-10
 56.31059     58.1 1.105e+04 7.833e-10
 56.31577     56.5 1.217e+04 1.289e-09
 56.32625     55.6 1.217e+04 1.305e-09
 56.34278     54.5 1.331e+04 2.302e-09
 56.36371     54.4 1.436e+04 3.822e-09
 56.38468     53.7 1.461e+04 4.005e-09
 56.40568     53.2 1.481e+04 4.025e-09
 56.42213     52.1 1.481e+04 3.777e-09
 56.43262     50.5 1.432e+04 3.024e-09
 56.44761     48.6 1.417e+04 2.695e-09
 56.46858     46.6 1.387e+04 2.424e-09
 56.48056     44.8 1.362e+04 2.346e-09
 56.49104     43.8 1.380e+04 2.640e-09
 56.51051     43.0 1.378e+04 2.780e-09
 56.52850     42.6 1.377e+04 2.850e-09
 56.53898     42.0 1.383e+04 2.939e-09
 56.55244     41.7 1.375e+04 2.871e-09
 56.57341     41.5 1.361e+04 2.740e-09
 56.58692     41.2 1.343e+04 2.568e-09
 56.59741     40.0 1.316e+04 2.314e-09
 56.61534     39.3 1.304e+04 2.190e-09
 56.63486     38.6 1.302e+04 2.157e-09
 56.64535     37.0 1.280e+04 1.955e-09
 56.65727     36.5 1.292e+04 2.101e-09
 56.67824     36.2 1.294e+04 2.193e-09
 56.69329     36.0 1.289e+04 2.171e-09
 56.70377     35.0 1.264e+04 1.986e-09
 56.72017     35.1 1.232e+04 1.785e-09
 56.74114     35.3 1.189e+04 1.487e-09
 56.76210     34.3 1.124e+04 1.029e-09
 56.78307     33.9 1.093e+04 8.457e-10
 56.79965     33.3 1.066e+04 7.060e-10
 56.81014     31.9 1.070e+04 7.051e-10
 56.82500     30.9 1.055e+04 6.558e-10
 56.84597     30.0 1.053e+04 6.774e-10
 56.85808     29.5 1.056e+04 7.244e-10
 56.86856     28.9 1.089e+04 8.882e-10
 56.88448     28.8 1.089e+04 9.126e-10
 56.89496     29.1 1.066e+04 8.015e-10
 56.90602     29.0 1.063e+04 7.982e-10
 56.91650     28.5 1.077e+04 8.569e-10
 56.92983     28.5 1.057e+04 7.727e-10
 56.95080     28.3 1.035e+04 6.724e-10
 56.96444     28.0 1.009e+04 5.752e-10
 56.97492     27.3 9.979e+03 5.380e-10
 56.99273     26.4 9.750e+03 4.558e-10
 57.01238     25.6 9.582e+03 4.116e-10
 57.02287     25.1 9.575e+03 4.117e-10
 57.04524     25.2 9.331e+03 3.577e-10
 57.07100     24.8 9.020e+03 3.038e-10
 57.09197     24.2 9.024e+03 3.200e-10
 57.12920     24.1 8.806e+03 2.831e-10
 57.16688     24.2 8.621e+03 2.539e-10
 57.18785     24.1 8.690e+03 2.651e-10
 57.21307     24.5 8.456e+03 2.346e-10
 57.25500     25.1 8.391e+03 2.325e-10
 57.28373     25.8 8.404e+03 2.386e-10
 57.30470     26.3 8.402e+03 2.368e-10
 57.33887     27.2 8.433e+03 2.483e-10
 57.37961     28.0 8.482e+03 2.651e-10
 57.40058     28.9 8.416e+03 2.463e-10
 57.42273     29.7 8.350e+03 2.364e-10
 57.45856     30.4 8.274e+03 2.205e-10
 57.47953     29.3 8.279e+03 2.202e-10
 57.49646     29.9 8.266e+03 2.201e-10
 57.51743     31.0 8.076e+03 1.836e-10
 57.54853     31.5 8.122e+03 1.894e-10
 57.59046     31.7 8.352e+03 2.222e-10
 57.61331     31.7 8.893e+03 3.087e-10
 57.63428     33.1 8.624e+03 2.618e-10
 57.67432     33.3 9.061e+03 3.464e-10
 57.70919     33.6 9.285e+03 4.047e-10
 57.73016     34.9 9.145e+03 3.696e-10
 57.75819     35.3 9.323e+03 4.062e-10
 57.80012     35.7 9.479e+03 4.408e-10
 57.82604     35.9 9.755e+03 5.064e-10
 57.84700     37.1 9.438e+03 4.287e-10
 57.88398     37.1 1.003e+04 5.682e-10
 57.92192     37.0 1.068e+04 7.961e-10
 57.94289     38.2 1.041e+04 6.519e-10
 57.96785     38.5 1.125e+04 9.554e-10
 57.99073     38.7 1.152e+04 1.092e-09
 58.00112     39.2 1.132e+04 1.007e-09
 58.02007     39.5 1.151e+04 1.092e-09
 58.03857     39.5 1.184e+04 1.205e-09
 58.04906     40.1 1.175e+04 1.204e-09
 58.05322     39.9 1.221e+04 1.372e-09
 58.06371     38.2 1.318e+04 1.818e-09
 58.08297     37.5 1.354e+04 2.029e-09
 58.09700     36.7 1.355e+04 2.079e-09
 58.10748     37.5 1.353e+04 2.084e-09
 58.13455     37.3 1.320e+04 1.867e-09
 58.15562     38.8 1.311e+04 1.812e-09
 58.17751     38.7 1.278e+04 1.694e-09
 58.21944     39.1 1.200e+04 1.264e-09
 58.25150     40.1 1.098e+04 7.416e-10
 58.27246     41.2 1.102e+04 7.572e-10
 58.30331     41.8 1.004e+04 3.324e-10
 58.34524     41.7 9.200e+03 1.223e-10
 58.36835     41.4 8.785e+03 7.494e-11
 58.38931     42.7 8.824e+03 7.845e-11
 58.42910     42.9 8.647e+03 7.408e-11
 58.46423     43.7 8.581e+03 8.131e-11
 58.48519     44.9 8.616e+03 8.186e-11
 58.51297     45.6 8.647e+03 1.067e-10
 58.55490     46.3 8.929e+03 1.606e-10
 58.58108     46.9 9.245e+03 2.422e-10
 58.60204     47.9 9.326e+03 2.468e-10
 58.62731     48.3 9.638e+03 3.451e-10
 58.64827     47.2 9.468e+03 2.633e-10
 58.67696     47.4 9.444e+03 2.498e-10
 58.69792     48.2 9.640e+03 3.079e-10
 58.72263     48.4 9.459e+03 2.455e-10
 58.76456     48.3 9.117e+03 1.553e-10
 58.79381     47.8 8.822e+03 1.092e-10
 58.81477     48.6 8.983e+03 1.352e-10
 58.84843     48.2 8.969e+03 1.364e-10
 58.88969     48.1 9.066e+03 1.622e-10
 58.91065     48.8 9.291e+03 2.191e-10
 58.93229     49.3 9.544e+03 2.985e-10
 58.97422     50.0 9.727e+03 3.469e-10
 59.00653     50.5 9.730e+03 3.424e-10
 59.02750     51.4 9.838e+03 3.723e-10
 59.05809     52.1 9.688e+03 3.172e-10
 59.10002     52.7 9.446e+03 2.450e-10
 59.12338     53.3 9.183e+03 1.815e-10
 59.14435     54.3 9.178e+03 1.807e-10
 59.18388     55.0 8.949e+03 1.350e-10
 59.21926     55.9 8.777e+03 1.045e-10
 59.24023     56.9 8.861e+03 1.161e-10
 59.26775     57.7 8.734e+03 9.412e-11
 59.30968     58.6 8.571e+03 7.957e-11
 59.33611     59.5 8.318e+03 7.524e-11
 59.35708     60.5 8.525e+03 7.920e-11
 59.39355     61.5 8.290e+03 7.685e-11
 59.43199     62.7 8.276e+03 7.736e-11
 59.45296     63.4 8.390e+03 8.197e-11
 59.47741     64.7 8.393e+03 8.331e-11
 59.51934     65.9 8.438e+03 9.008e-11
 59.54884     67.1 8.572e+03 1.072e-10
 59.56981     67.5 8.678e+03 1.142e-10
 59.60321     68.6 8.942e+03 1.490e-10
 59.64472     69.7 9.313e+03 2.022e-10
 59.66569     69.5 9.465e+03 2.150e-10
 59.67649     69.1 9.713e+03 2.575e-10
 59.69736     68.4 1.009e+04 3.360e-10
 59.71344     67.2 1.070e+04 5.065e-10
 59.72392     66.0 1.120e+04 6.614e-10
 59.73929     64.7 1.188e+04 1.067e-09
 59.76026     63.7 1.252e+04 1.643e-09
 59.77186     63.1 1.309e+04 2.338e-09
 59.78234     62.7 1.327e+04 2.587e-09
 59.79586     62.4 1.372e+04 3.067e-09
 59.80634     61.4 1.489e+04 4.307e-09
 59.81980     60.1 1.544e+04 4.542e-09
 59.83028     59.1 1.538e+04 4.090e-09
 59.84412     56.6 1.603e+04 4.439e-09
 59.86509     53.8 1.680e+04 5.195e-09
 59.87822     51.5 1.706e+04 6.410e-09
 59.88871     50.6 1.691e+04 6.387e-09
 59.90702     49.9 1.683e+04 7.428e-09
 59.92616     49.5 1.669e+04 7.397e-09
 59.93665     49.5 1.643e+04 6.980e-09
 59.94895     48.7 1.631e+04 6.618e-09
 59.96992     46.5 1.650e+04 6.194e-09
 59.98459     42.5 1.691e+04 6.165e-09
 59.99507     40.2 1.784e+04 7.355e-09
 60.01185     36.5 1.756e+04 7.348e-09
 60.03253     33.9 1.663e+04 6.733e-09
 60.04301     33.6 1.779e+04 8.453e-09
 60.05378     31.9 1.676e+04 5.494e-09
 60.07475     28.7 1.544e+04 3.192e-09
 60.09095     24.4 1.377e+04 2.067e-09
 60.10144     22.3 1.321e+04 1.618e-09
 60.11668     19.9 1.204e+04 1.469e-09
 60.13765     19.6 1.203e+04 1.477e-09
 60.14938     19.6 1.204e+04 1.477e-09
 60.15986     19.5 1.196e+04 1.423e-09
 60.17958     19.6 1.193e+04 1.397e-09
 60.19732     19.6 1.180e+04 1.306e-09
 60.20780     20.0 1.167e+04 1.236e-09
 60.22151     19.9 1.154e+04 1.145e-09
 60.24248     19.7 1.142e+04 1.090e-09
 60.25574     19.5 1.140e+04 1.088e-09
 60.26623     20.2 1.123e+04 1.012e-09
 60.28441     20.1 1.127e+04 1.036e-09
 60.30368     19.8 1.144e+04 1.130e-09
 60.31417     20.6 1.125e+04 1.034e-09
 60.32634     20.3 1.150e+04 1.182e-09
 60.34731     20.2 1.170e+04 1.344e-09
 60.36211     20.3 1.172e+04 1.379e-09
 60.37259     21.1 1.158e+04 1.299e-09
 60.38023     21.2 1.163e+04 1.293e-09
 60.39072     20.8 1.186e+04 1.434e-09
 60.41005     21.0 1.176e+04 1.366e-09
 60.42063     21.5 1.174e+04 1.305e-09
 60.44185     21.5 1.164e+04 1.195e-09
 60.46857     20.8 1.144e+04 1.056e-09
 60.47896     20.4 1.167e+04 1.191e-09
 60.49407     19.8 1.160e+04 1.091e-09
 60.51504     19.4 1.121e+04 9.533e-10
 60.52690     17.8 1.151e+04 9.722e-10
 60.53738     17.4 1.160e+04 1.089e-09
 60.55697     11.4 1.716e+04 1.315e-09
 60.57484     -3.2 2.793e+04 4.519e-09
 60.58532     -1.0 2.664e+04 3.516e-09
 60.59361     -7.4 2.730e+04 7.226e-09
 60.60395    -10.4 2.597e+04 1.287e-08
 60.60919     -8.8 2.589e+04 1.059e-08
 60.61453    -11.7 2.425e+04 2.008e-08
 60.62501    -13.3 2.259e+04 2.942e-08
 60.63316    -14.3 2.251e+04 3.430e-08
 60.63840    -13.4 2.232e+04 3.016e-08
 60.64598    -13.9 2.202e+04 3.158e-08
 60.65646    -14.6 2.293e+04 2.393e-08
 60.66238    -16.9 2.416e+04 1.355e-08
 60.66762    -15.6 2.372e+04 1.551e-08
 60.67232    -19.8 2.435e+04 6.170e-09
 60.67756    -26.0 2.107e+04 2.441e-09
 60.68635    -30.9 1.535e+04 1.495e-09
 60.69159    -29.4 1.536e+04 1.704e-09
 60.69839    -33.8 1.263e+04 1.033e-09
 60.70888    -33.9 1.258e+04 1.026e-09
 60.72465    -34.7 1.229e+04 9.488e-10
 60.73963    -37.4 1.161e+04 7.553e-10
 60.75011    -35.6 1.148e+04 7.083e-10
 60.76663    -37.5 1.136e+04 6.515e-10
 60.78757    -40.5 1.283e+04 9.193e-10
 60.80853    -43.1 1.383e+04 1.165e-09
 60.82953    -46.4 1.416e+04 2.212e-09
 60.84599    -47.3 1.424e+04 3.584e-09
 60.85647    -46.5 1.387e+04 2.754e-09
 60.87146    -46.4 1.421e+04 3.862e-09
 60.89243    -45.9 1.451e+04 4.245e-09
 60.90441    -46.1 1.467e+04 3.504e-09
 60.91490    -45.4 1.432e+04 3.550e-09
 60.93436    -47.6 1.382e+04 2.211e-09
 60.95236    -51.2 1.208e+04 1.237e-09
 60.96163    -49.5 1.238e+04 1.333e-09
 60.96461    -50.7 1.179e+04 1.030e-09
 60.97629    -53.3 1.086e+04 7.544e-10
 60.99726    -54.9 1.079e+04 7.146e-10
 61.01078    -57.8 1.181e+04 8.282e-10
 61.02126    -55.4 1.101e+04 6.659e-10
 61.03919    -58.9 1.223e+04 9.686e-10
 61.05872    -61.7 1.298e+04 1.605e-09
 61.06920    -59.8 1.250e+04 1.192e-09
 61.08112    -61.9 1.319e+04 1.940e-09
 61.10209    -63.2 1.366e+04 2.439e-09
 61.11714    -64.9 1.374e+04 2.497e-09
 61.12763    -63.5 1.395e+04 2.588e-09
 61.14402    -65.9 1.389e+04 2.502e-09
 61.16499    -69.0 1.300e+04 1.759e-09
 61.18595    -70.8 1.260e+04 1.704e-09
 61.20692    -73.8 1.190e+04 1.324e-09
 61.22351    -76.2 1.174e+04 1.220e-09
 61.23399    -74.9 1.204e+04 1.457e-09
 61.24885    -77.2 1.201e+04 1.424e-09
 61.26982    -79.1 1.207e+04 1.495e-09
 61.28193    -80.5 1.221e+04 1.652e-09
 61.29242    -79.7 1.235e+04 1.721e-09
 61.31175    -80.8 1.247e+04 1.843e-09
 61.32987    -81.9 1.252e+04 1.871e-09
 61.34036    -81.2 1.248e+04 1.879e-09
 61.35368    -82.1 1.242e+04 1.845e-09
 61.37465    -83.1 1.225e+04 1.659e-09
 61.38830    -84.1 1.205e+04 1.459e-09
 61.39878    -83.2 1.192e+04 1.449e-09
 61.41658    -84.0 1.170e+04 1.278e-09
 61.43624    -84.7 1.151e+04 1.143e-09
 61.44672    -83.7 1.136e+04 1.120e-09
 61.45851    -84.1 1.115e+04 9.984e-10
 61.47948    -84.4 1.096e+04 8.881e-10
 61.49466    -84.4 1.077e+04 7.855e-10
 61.50515    -83.4 1.048e+04 7.323e-10
 61.52141    -83.3 1.027e+04 6.394e-10
 61.53850    -83.1 1.010e+04 5.701e-10
 61.54898    -83.6 9.807e+03 4.704e-10
 61.55309    -83.4 9.727e+03 4.415e-10
 61.56357    -82.6 9.605e+03 4.058e-10
 61.58431    -82.2 9.607e+03 3.951e-10
 61.60103    -81.6 9.611e+03 3.892e-10
 61.62209    -79.7 9.597e+03 3.473e-10
 61.64731    -79.4 9.740e+03 3.499e-10
 61.65945    -79.3 9.821e+03 3.552e-10
 61.66993    -78.9 9.705e+03 3.415e-10
 61.68914    -78.4 9.821e+03 3.412e-10
 61.70739    -78.5 1.033e+04 4.202e-10
 61.71788    -77.1 9.887e+03 3.071e-10
 61.73107    -77.5 1.027e+04 4.024e-10
 61.75204    -77.4 1.079e+04 5.588e-10
 61.76582    -77.1 1.126e+04 7.819e-10
 61.77630    -76.0 1.085e+04 5.482e-10
 61.79397    -75.6 1.129e+04 7.437e-10
 61.81376    -75.1 1.159e+04 9.511e-10
 61.82424    -74.3 1.125e+04 6.808e-10
 61.83590    -73.7 1.151e+04 8.449e-10
 61.85687    -72.9 1.162e+04 9.847e-10
 61.87218    -72.1 1.162e+04 1.073e-09
 61.88266    -71.3 1.157e+04 9.250e-10
 61.89880    -70.5 1.163e+04 1.012e-09
 61.91977    -69.8 1.165e+04 1.072e-09
 61.93060    -69.3 1.173e+04 1.137e-09
 61.94109    -68.2 1.165e+04 1.039e-09
 61.96170    -67.9 1.200e+04 1.168e-09
 61.97855    -68.4 1.263e+04 1.458e-09
 61.98903    -66.8 1.226e+04 1.187e-09
 62.00363    -67.7 1.320e+04 1.636e-09
 62.02460    -68.9 1.393e+04 2.465e-09
 62.03697    -69.2 1.442e+04 3.712e-09
 62.04745    -68.2 1.442e+04 2.895e-09
 62.06653    -68.3 1.501e+04 4.522e-09
 62.08491    -68.1 1.556e+04 6.393e-09
 62.09539    -67.0 1.527e+04 4.893e-09
 62.10846    -67.1 1.584e+04 6.702e-09
 62.12287    -67.8 1.667e+04 8.372e-09
 62.13335    -68.2 1.727e+04 9.069e-09
 62.14333    -70.5 1.907e+04 1.257e-08
 62.15382    -70.0 1.899e+04 1.152e-08
 62.17136    -74.0 2.061e+04 1.673e-08
 62.18704    -76.6 2.087e+04 1.793e-08
 62.19642    -78.7 2.096e+04 1.820e-08
 62.20166    -78.5 2.107e+04 2.129e-08
 62.20796    -80.4 2.096e+04 2.059e-08
 62.21844    -82.2 2.049e+04 1.842e-08
 62.23421    -84.7 1.950e+04 1.415e-08
 62.24970    -86.8 1.761e+04 8.346e-09
 62.26018    -86.6 1.801e+04 9.207e-09
 62.27619    -88.5 1.590e+04 4.636e-09
 62.29716    -90.0 1.395e+04 2.418e-09
 62.30812    -91.0 1.257e+04 1.493e-09
 62.31861    -91.5 1.245e+04 1.397e-09
 62.33909    -91.9 1.157e+04 9.928e-10
 62.35606    -91.4 1.099e+04 7.619e-10
 62.36655    -91.7 1.078e+04 6.932e-10
 62.38102    -90.4 1.034e+04 5.403e-10
 62.40199    -89.4 1.006e+04 4.289e-10
 62.41449    -88.6 9.917e+03 3.659e-10
 62.42497    -88.8 9.893e+03 3.541e-10
 62.45204    -88.5 9.820e+03 3.166e-10
 62.47311    -89.6 9.715e+03 2.903e-10
 62.49653    -88.5 9.280e+03 2.282e-10
 62.53846    -86.7 8.904e+03 1.836e-10
 62.56899    -84.8 8.759e+03 1.673e-10
 62.58996    -86.7 8.930e+03 2.009e-10
 62.62233    -85.8 8.932e+03 1.967e-10
 62.66426    -85.1 9.131e+03 1.961e-10
 62.68584    -84.3 9.858e+03 1.931e-10
 62.70680    -89.9 1.274e+04 4.197e-10
 62.74813    -89.0 1.332e+04 5.235e-10
 62.77948    -92.8 1.480e+04 9.141e-10
 62.79201    -92.7 1.483e+04 9.885e-10
 62.80249    -92.8 1.429e+04 1.873e-09
 62.82131    -97.8 2.416e+04 2.257e-09
 62.83699   -116.1 3.625e+04 4.600e-09
 62.84509   -119.4 3.971e+04 6.392e-09
 62.85033   -126.5 4.263e+04 1.866e-08
 62.85791   -131.3 3.646e+04 6.161e-08
 62.86839   -135.2 2.929e+04 2.009e-07
 62.87430   -138.1 2.455e+04 5.074e-07
 62.87954   -142.3 2.177e+04 8.552e-07
 62.88935   -143.6 2.151e+04 9.843e-07
 62.89719   -146.7 2.225e+04 7.054e-07
 62.90085   -147.4 2.258e+04 6.527e-07
 62.90347   -150.5 2.465e+04 3.572e-07
 62.90765   -155.2 2.713e+04 1.497e-07
 62.91283   -156.5 2.787e+04 1.143e-07
 62.91545   -157.3 2.837e+04 1.024e-07
 62.92078   -163.0 2.978e+04 4.196e-08
 62.92749   -177.1 2.672e+04 7.424e-09
 62.93273   -189.6 1.708e+04 2.616e-09
 62.94177   -191.4 1.453e+04 2.202e-09
 62.95146   -191.4 1.422e+04 2.154e-09
 62.95675   -193.1 1.407e+04 1.979e-09
 62.96807   -193.6 1.382e+04 1.903e-09
 62.98904   -194.6 1.321e+04 1.740e-09
 63.00474   -194.4 1.297e+04 1.639e-09
 63.01522   -197.5 1.296e+04 1.581e-09
 63.03097   -197.1 1.295e+04 1.542e-09
 63.05194   -196.7 1.291e+04 1.491e-09
 63.06316   -196.4 1.285e+04 1.426e-09
 63.07364   -200.0 1.335e+04 1.600e-09
 63.09387   -199.3 1.335e+04 1.624e-09
 63.11110   -198.6 1.342e+04 1.677e-09
 63.12158   -201.5 1.384e+04 2.158e-09
 63.13580   -200.7 1.384e+04 2.203e-09
 63.15677   -200.0 1.381e+04 2.224e-09
 63.16952   -199.0 1.380e+04 2.240e-09
 63.18001   -201.4 1.381e+04 2.302e-09
 63.19870   -200.4 1.376e+04 2.298e-09
 63.21747   -199.5 1.370e+04 2.293e-09
 63.22795   -201.5 1.298e+04 1.808e-09
 63.24063   -200.6 1.278e+04 1.647e-09
 63.26160   -199.6 1.257e+04 1.485e-09
 63.27589   -198.7 1.237e+04 1.339e-09
 63.28494   -200.8 1.144e+04 8.335e-10
 63.29162   -200.4 1.147e+04 8.504e-10
 63.30353   -199.5 1.126e+04 7.633e-10
 63.32383   -198.7 1.106e+04 6.906e-10
 63.33431   -200.7 1.034e+04 4.498e-10
 63.34547   -199.7 1.023e+04 4.227e-10
 63.36643   -198.7 1.015e+04 4.018e-10
 63.38225   -197.7 1.007e+04 3.856e-10
 63.39274   -199.3 9.832e+03 3.142e-10
 63.40836   -197.9 9.794e+03 3.118e-10
 63.42933   -197.2 9.757e+03 3.071e-10
 63.44068   -195.6 9.736e+03 3.073e-10
 63.46174   -196.4 9.623e+03 2.826e-10
 63.50291   -194.1 9.607e+03 2.820e-10
 63.53676   -191.7 9.605e+03 2.815e-10
 63.55772   -192.6 9.528e+03 2.643e-10
 63.58677   -190.0 9.528e+03 2.664e-10
 63.62870   -187.3 9.553e+03 2.698e-10
 63.65360   -184.6 9.615e+03 2.755e-10
 63.67457   -186.1 9.699e+03 2.803e-10
 63.71257   -183.2 9.942e+03 3.048e-10
 63.74949   -180.4 1.030e+04 3.551e-10
 63.77045   -182.9 1.083e+04 4.591e-10
 63.79643   -180.5 1.120e+04 5.575e-10
 63.81829   -178.1 1.127e+04 5.891e-10
 63.82868   -179.6 1.148e+04 6.866e-10
 63.84865   -179.2 1.146e+04 6.947e-10
 63.86551   -178.2 1.158e+04 8.097e-10
 63.87251   -178.2 1.192e+04 9.154e-10
 63.87662   -180.0 1.195e+04 9.755e-10
 63.89058   -180.0 1.223e+04 1.127e-09
 63.91155   -179.8 1.256e+04 1.298e-09
 63.92456   -180.0 1.292e+04 1.383e-09
 63.93504   -180.9 1.167e+04 8.807e-10
 63.95348   -181.2 1.142e+04 7.676e-10
 63.97250   -181.6 1.114e+04 6.796e-10
 63.98299   -182.7 1.009e+04 3.894e-10
 63.99542   -182.8 1.013e+04 3.529e-10
 64.01638   -182.5 1.013e+04 3.387e-10
 64.03093   -182.1 1.010e+04 3.308e-10
 64.04141   -182.0 9.746e+03 2.897e-10
 64.05831   -181.7 9.756e+03 2.870e-10
 64.07887   -180.9 9.804e+03 2.853e-10
 64.09993   -180.8 9.749e+03 2.714e-10
 64.13189   -179.5 9.799e+03 2.716e-10
 64.17382   -178.0 9.838e+03 2.568e-10
 64.19591   -176.6 9.730e+03 2.321e-10
 64.21688   -176.1 9.682e+03 2.343e-10
 64.25769   -174.5 9.602e+03 2.123e-10
 64.29179   -172.8 9.543e+03 1.921e-10
 64.31276   -172.4 9.524e+03 2.082e-10
 64.34155   -170.5 9.518e+03 1.957e-10
 64.38348   -168.5 9.527e+03 1.919e-10
 64.40864   -166.4 9.583e+03 1.919e-10
 64.42961   -166.1 9.580e+03 2.028e-10
 64.45007   -163.9 9.712e+03 2.083e-10
 64.47104   -164.0 9.616e+03 1.884e-10
 64.50452   -161.9 9.836e+03 1.992e-10
 64.52549   -161.6 9.858e+03 2.059e-10
 64.55121   -159.8 1.022e+04 2.596e-10
 64.59314   -158.2 1.068e+04 3.634e-10
 64.62137   -156.9 1.126e+04 5.502e-10
 64.63176   -156.9 1.123e+04 5.331e-10
 64.64537   -156.9 1.144e+04 6.311e-10
 64.66633   -156.2 1.182e+04 8.161e-10
 64.67960   -155.9 1.201e+04 9.178e-10
 64.69008   -156.3 1.206e+04 9.983e-10
 64.70826   -155.9 1.227e+04 1.148e-09
 64.72754   -155.6 1.235e+04 1.220e-09
 64.73802   -156.0 1.237e+04 1.274e-09
 64.75020   -155.7 1.238e+04 1.288e-09
 64.77116   -155.4 1.238e+04 1.271e-09
 64.78596   -155.0 1.233e+04 1.193e-09
 64.79645   -155.6 1.237e+04 1.217e-09
 64.81309   -155.5 1.233e+04 1.126e-09
 64.83390   -155.7 1.233e+04 1.053e-09
 64.84439   -156.6 1.232e+04 1.065e-09
 64.85503   -157.1 1.232e+04 1.047e-09
 64.87599   -158.1 1.269e+04 1.073e-09
 64.89233   -159.8 1.327e+04 1.324e-09
 64.90281   -160.3 1.297e+04 1.314e-09
 64.91792   -161.3 1.331e+04 1.702e-09
 64.93889   -161.7 1.366e+04 2.212e-09
 64.95075   -161.8 1.399e+04 2.724e-09
 64.96124   -162.1 1.338e+04 2.006e-09
 64.98082   -162.2 1.351e+04 2.136e-09
 64.99869   -162.2 1.355e+04 2.158e-09
 65.00918   -162.6 1.293e+04 1.507e-09
 65.02276   -162.8 1.293e+04 1.443e-09
 65.03425   -162.9 1.288e+04 1.317e-09
 65.04473   -162.2 1.279e+04 1.289e-09
 65.05712   -162.2 1.273e+04 1.135e-09
 65.06760   -162.5 1.239e+04 9.119e-10
 65.08565   -162.4 1.236e+04 8.228e-10
 65.10506   -162.2 1.230e+04 7.445e-10
 65.11554   -162.1 1.209e+04 6.487e-10
 65.12759   -161.7 1.203e+04 6.018e-10
 65.14855   -161.3 1.194e+04 5.662e-10
 65.16348   -160.8 1.186e+04 5.413e-10
 65.17396   -160.5 1.164e+04 4.679e-10
 65.19048   -159.8 1.155e+04 4.274e-10
 65.21142   -159.2 1.148e+04 3.972e-10
 65.23239   -158.2 1.129e+04 3.264e-10
 65.25338   -157.1 1.126e+04 3.168e-10
 65.26985   -156.7 1.123e+04 3.183e-10
 65.28043   -156.8 1.113e+04 2.795e-10
 65.30599   -154.9 1.110e+04 2.795e-10
 65.34793   -152.8 1.113e+04 2.851e-10
 65.37641   -150.6 1.114e+04 2.865e-10
 65.39737   -149.8 1.081e+04 2.200e-10
 65.43179   -147.4 1.087e+04 2.267e-10
 65.47229   -144.8 1.100e+04 2.473e-10
 65.49325   -143.8 1.063e+04 1.872e-10
 65.51565   -141.4 1.096e+04 2.293e-10
 65.54110   -139.7 1.114e+04 2.690e-10
 65.55148   -138.9 1.107e+04 2.522e-10
 65.56787   -139.0 1.113e+04 2.677e-10
 65.58884   -138.7 1.133e+04 3.826e-10
 65.59942   -139.1 1.143e+04 5.713e-10
 65.60824   -137.9 1.138e+04 4.366e-10
 65.61863   -137.3 1.128e+04 3.695e-10
 65.63077   -137.4 1.136e+04 5.600e-10
 65.64736   -137.3 1.156e+04 7.416e-10
 65.65785   -136.2 1.135e+04 6.141e-10
 65.67271   -135.9 1.156e+04 7.625e-10
 65.69367   -135.8 1.215e+04 9.169e-10
 65.70579   -136.6 1.309e+04 1.171e-09
 65.71627   -134.6 1.213e+04 8.586e-10
 65.73560   -135.7 1.309e+04 1.084e-09
 65.75373   -137.3 1.396e+04 1.566e-09
 65.76421   -134.8 1.320e+04 1.037e-09
 65.77754   -136.5 1.405e+04 1.569e-09
 65.79850   -137.8 1.444e+04 2.525e-09
 65.81215   -138.0 1.461e+04 3.580e-09
 65.82264   -136.9 1.457e+04 2.885e-09
 65.84043   -136.8 1.477e+04 4.074e-09
 65.86009   -136.4 1.498e+04 4.612e-09
 65.87058   -135.5 1.511e+04 4.862e-09
 65.88237   -134.9 1.537e+04 5.500e-09
 65.90333   -134.5 1.548e+04 4.797e-09
 65.91852   -134.8 1.525e+04 3.272e-09
 65.92900   -133.3 1.600e+04 5.438e-09
 65.94526   -134.0 1.567e+04 3.548e-09
 65.96623   -135.6 1.473e+04 1.923e-09
 65.97694   -137.0 1.308e+04 1.188e-09
 65.98743   -135.2 1.493e+04 2.151e-09
 66.00816   -136.5 1.322e+04 1.345e-09
 66.02488   -137.5 1.221e+04 1.085e-09
 66.03537   -136.7 1.303e+04 1.436e-09
 66.05010   -137.1 1.211e+04 1.174e-09
 66.07106   -137.1 1.179e+04 1.077e-09
 66.10261   -136.8 1.201e+04 1.157e-09
 66.13144   -135.4 1.188e+04 1.067e-09
 66.15241   -135.0 1.204e+04 1.272e-09
 66.18657   -133.5 1.197e+04 1.208e-09
 66.22733   -132.8 1.184e+04 1.174e-09
 66.24829   -131.6 1.221e+04 1.390e-09
 66.25985   -131.1 1.201e+04 1.292e-09
 66.28072   -131.0 1.190e+04 1.233e-09
 66.29604   -130.7 1.141e+04 1.077e-09
 66.30652   -129.7 1.151e+04 1.147e-09
 66.32266   -129.9 1.115e+04 1.019e-09
 66.34362   -129.8 1.095e+04 9.239e-10
 66.35446   -129.6 1.074e+04 8.375e-10
 66.36494   -128.9 1.072e+04 8.410e-10
 66.38555   -128.7 1.050e+04 7.443e-10
 66.40240   -128.4 1.028e+04 6.546e-10
 66.41288   -127.7 1.027e+04 6.582e-10
 66.42749   -127.5 1.008e+04 5.765e-10
 66.44845   -127.4 9.917e+03 5.134e-10
 66.46083   -127.4 9.798e+03 4.692e-10
 66.47131   -126.7 9.789e+03 4.721e-10
 66.49038   -126.8 9.731e+03 4.490e-10
 66.50877   -126.8 9.723e+03 4.441e-10
 66.51925   -126.2 9.781e+03 4.755e-10
 66.53232   -126.4 9.869e+03 4.809e-10
 66.55328   -126.8 9.979e+03 5.105e-10
 66.56719   -127.2 1.007e+04 5.503e-10
 66.57767   -126.5 1.019e+04 6.072e-10
 66.59521   -127.0 1.030e+04 6.454e-10
 66.61513   -127.6 1.040e+04 6.720e-10
 66.62561   -127.0 1.053e+04 7.330e-10
 66.63715   -127.7 1.056e+04 7.318e-10
 66.65811   -128.4 1.047e+04 6.948e-10
 66.67365   -128.9 1.037e+04 6.277e-10
 66.69472   -128.2 1.058e+04 7.322e-10
 66.73169   -129.4 1.068e+04 6.704e-10
 66.76660   -131.1 1.079e+04 6.680e-10
 66.78358   -131.9 1.158e+04 9.793e-10
 66.79060   -132.7 1.213e+04 1.353e-09
 66.81555   -134.2 1.217e+04 1.396e-09
 66.85749   -135.3 1.205e+04 1.331e-09
 66.88648   -136.6 1.175e+04 1.198e-09
 66.90745   -136.7 1.157e+04 1.127e-09
 66.94135   -137.7 1.117e+04 9.681e-10
 66.97270   -137.7 1.102e+04 9.130e-10
 66.99265   -138.0 1.103e+04 9.302e-10
 67.00313   -138.1 1.099e+04 9.007e-10
 67.01454   -138.6 1.100e+04 9.292e-10
 67.03550   -139.0 1.107e+04 9.727e-10
 67.05107   -139.4 1.111e+04 1.001e-09
 67.06156   -139.4 1.095e+04 9.090e-10
 67.07744   -139.7 1.093e+04 9.077e-10
 67.09840   -139.9 1.087e+04 8.896e-10
 67.10950   -140.1 1.075e+04 8.427e-10
 67.11998   -140.0 1.058e+04 7.585e-10
 67.14033   -140.2 1.046e+04 7.106e-10
 67.15744   -140.4 1.032e+04 6.590e-10
 67.16792   -140.1 1.021e+04 6.045e-10
 67.18227   -140.4 1.009e+04 5.660e-10
 67.20323   -140.5 9.990e+03 5.379e-10
 67.21586   -140.7 9.946e+03 5.246e-10
 67.22635   -140.2 9.850e+03 4.783e-10
 67.24516   -140.3 9.844e+03 4.749e-10
 67.26380   -140.4 9.901e+03 4.799e-10
 67.27429   -139.8 9.779e+03 4.280e-10
 67.28710   -139.9 9.868e+03 4.436e-10
 67.30806   -140.3 9.987e+03 4.819e-10
 67.32223   -140.7 1.007e+04 5.209e-10
 67.33271   -139.8 9.898e+03 4.500e-10
 67.35000   -140.1 9.931e+03 4.827e-10
 67.36126   -140.4 9.960e+03 5.014e-10
 67.37095   -140.4 9.960e+03 4.862e-10
 67.38065   -139.4 9.846e+03 4.396e-10
 67.39193   -140.0 9.928e+03 4.616e-10
 67.41289   -140.8 1.023e+04 4.973e-10
 67.42859   -142.3 1.081e+04 5.920e-10
 67.43908   -141.1 1.044e+04 4.934e-10
 67.45483   -143.0 1.111e+04 6.362e-10
 67.47579   -144.8 1.167e+04 9.374e-10
 67.48702   -146.1 1.201e+04 1.351e-09
 67.49750   -145.1 1.180e+04 1.150e-09
 67.51772   -145.8 1.205e+04 1.552e-09
 67.53496   -146.2 1.223e+04 1.758e-09
 67.54544   -145.4 1.219e+04 1.718e-09
 67.55966   -146.2 1.240e+04 1.874e-09
 67.58062   -147.9 1.264e+04 1.920e-09
 67.59338   -151.4 1.329e+04 1.935e-09
 67.60386   -150.4 1.347e+04 2.205e-09
 67.62255   -155.0 1.425e+04 2.530e-09
 67.64132   -159.4 1.472e+04 3.333e-09
 67.65180   -157.7 1.466e+04 3.500e-09
 67.66449   -161.0 1.473e+04 4.103e-09
 67.68545   -163.6 1.472e+04 4.278e-09
 67.69975   -165.7 1.437e+04 4.023e-09
 67.71023   -164.7 1.403e+04 3.480e-09
 67.72739   -167.1 1.330e+04 2.554e-09
 67.74769   -169.6 1.241e+04 1.791e-09
 67.75817   -169.0 1.211e+04 1.619e-09
 67.76932   -171.1 1.146e+04 1.275e-09
 67.79028   -172.5 1.106e+04 1.060e-09
 67.80611   -173.5 1.080e+04 9.114e-10
 67.81659   -172.7 1.082e+04 9.484e-10
 67.83222   -173.9 1.065e+04 8.420e-10
 67.85318   -175.0 1.053e+04 7.823e-10
 67.86453   -176.1 1.048e+04 7.701e-10
 67.87502   -175.7 1.055e+04 7.992e-10
 67.89511   -176.8 1.052e+04 7.954e-10
 67.91248   -177.7 1.052e+04 8.099e-10
 67.92296   -177.3 1.057e+04 8.441e-10
 67.93515   -178.0 1.052e+04 8.444e-10
 67.94563   -177.9 1.040e+04 7.968e-10
 67.95801   -178.3 1.033e+04 7.816e-10
 67.97090   -178.6 1.025e+04 7.466e-10
 67.98138   -178.3 1.015e+04 7.347e-10
 67.99995   -178.5 1.005e+04 6.681e-10
 68.01884   -178.9 1.002e+04 6.106e-10
 68.02932   -178.6 9.895e+03 5.544e-10
 68.04188   -179.2 9.920e+03 5.416e-10
 68.06284   -180.3 9.985e+03 5.411e-10
 68.07726   -181.7 1.037e+04 5.851e-10
 68.08775   -181.4 1.032e+04 5.539e-10
 68.10478   -182.9 1.073e+04 6.974e-10
 68.12520   -184.4 1.112e+04 8.869e-10
 68.13569   -183.9 1.107e+04 8.579e-10
 68.14671   -185.2 1.138e+04 1.059e-09
 68.16767   -186.4 1.161e+04 1.234e-09
 68.18363   -187.6 1.173e+04 1.353e-09
 68.19411   -187.1 1.168e+04 1.309e-09
 68.20961   -188.3 1.174e+04 1.366e-09
 68.23057   -189.5 1.175e+04 1.378e-09
 68.24205   -190.7 1.159e+04 1.276e-09
 68.25254   -190.3 1.167e+04 1.312e-09
 68.27250   -191.3 1.142e+04 1.153e-09
 68.28999   -192.2 1.107e+04 9.578e-10
 68.30048   -191.8 1.119e+04 1.036e-09
 68.31444   -192.5 1.080e+04 8.447e-10
 68.33540   -193.0 1.041e+04 6.849e-10
 68.34842   -193.2 1.007e+04 5.567e-10
 68.35890   -192.6 1.021e+04 6.177e-10
 68.37734   -192.6 9.930e+03 5.164e-10
 68.39636   -192.5 9.724e+03 4.440e-10
 68.40684   -191.9 9.902e+03 5.063e-10
 68.41927   -191.6 9.765e+03 4.564e-10
 68.44023   -191.1 9.681e+03 4.251e-10
 68.45478   -190.6 9.643e+03 4.119e-10
 68.46527   -190.1 9.834e+03 4.835e-10
 68.48217   -189.6 9.812e+03 4.759e-10
 68.50272   -189.0 9.801e+03 4.717e-10
 68.51321   -188.5 1.010e+04 5.920e-10
 68.51952   -187.9 1.010e+04 5.984e-10
 68.53001   -187.8 9.976e+03 5.567e-10
 68.54506   -187.2 9.967e+03 5.549e-10
 68.56115   -186.6 9.948e+03 5.497e-10
 68.57163   -186.0 1.013e+04 6.473e-10
 68.58700   -185.3 1.005e+04 6.272e-10
 68.60796   -184.6 9.982e+03 6.072e-10
 68.61957   -184.0 9.930e+03 5.884e-10
 68.63005   -183.8 1.005e+04 6.666e-10
 68.64990   -183.9 1.012e+04 6.574e-10
 68.66751   -185.2 1.068e+04 7.642e-10
 68.67800   -188.0 1.261e+04 1.366e-09
 68.69183   -190.6 1.444e+04 2.618e-09
 68.71279   -192.5 1.606e+04 5.130e-09
 68.72594   -194.4 1.734e+04 8.947e-09
 68.73642   -195.0 1.805e+04 1.223e-08
 68.75473   -196.9 1.849e+04 1.438e-08
 68.77040   -198.3 1.859e+04 1.502e-08
 68.77902   -199.2 1.866e+04 1.471e-08
 68.78426   -199.6 1.842e+04 1.308e-08
 68.79132   -201.0 1.839e+04 1.181e-08
 68.80180   -202.6 1.845e+04 1.068e-08
 68.80823   -204.4 1.836e+04 9.499e-09
 68.81280   -205.3 1.754e+04 7.204e-09
 68.81686   -204.4 1.740e+04 7.491e-09
 68.82277   -206.2 1.701e+04 6.442e-09
 68.83220   -207.8 1.645e+04 5.621e-09
 68.83744   -208.5 1.577e+04 4.627e-09
 68.84373   -209.5 1.544e+04 4.378e-09
 68.85951   -210.7 1.503e+04 4.057e-09
 68.88024   -211.5 1.443e+04 3.641e-09
 68.89072   -211.5 1.372e+04 2.710e-09
 68.90149   -211.6 1.326e+04 2.370e-09
 68.92245   -211.8 1.296e+04 2.145e-09
 68.93867   -212.1 1.271e+04 1.989e-09
 68.94915   -212.0 1.295e+04 1.941e-09
 68.96439   -212.3 1.292e+04 1.917e-09
 68.98535   -212.5 1.291e+04 2.008e-09
 68.99709   -212.4 1.297e+04 2.178e-09
 69.00757   -212.3 1.342e+04 2.473e-09
 69.02729   -212.1 1.340e+04 2.666e-09
 69.04503   -211.7 1.339e+04 2.840e-09
 69.05551   -211.4 1.357e+04 2.978e-09
 69.06922   -210.7 1.342e+04 2.993e-09
 69.09018   -209.8 1.329e+04 2.994e-09
 69.10345   -208.9 1.318e+04 2.952e-09
 69.10669   -208.9 1.301e+04 2.725e-09
 69.11438   -208.9 1.192e+04 1.609e-09
 69.13212   -208.1 1.191e+04 1.614e-09
 69.15140   -207.2 1.188e+04 1.606e-09
 69.16188   -207.5 1.168e+04 1.458e-09
 69.17405   -206.6 1.164e+04 1.448e-09
 69.19501   -205.7 1.160e+04 1.436e-09
 69.20982   -204.7 1.157e+04 1.425e-09
 69.22030   -204.8 1.146e+04 1.363e-09
 69.23695   -203.6 1.143e+04 1.356e-09
 69.25776   -202.5 1.142e+04 1.350e-09
 69.26824   -202.4 1.140e+04 1.314e-09
 69.27888   -201.2 1.139e+04 1.304e-09
 69.29984   -199.9 1.139e+04 1.305e-09
 69.31618   -198.7 1.139e+04 1.308e-09
 69.32667   -198.8 1.138e+04 1.253e-09
 69.34178   -197.7 1.138e+04 1.252e-09
 69.36274   -196.5 1.143e+04 1.282e-09
 69.37461   -195.4 1.157e+04 1.354e-09
 69.38509   -195.7 1.146e+04 1.278e-09
 69.40468   -194.6 1.164e+04 1.375e-09
 69.42255   -193.8 1.180e+04 1.467e-09
 69.43303   -193.8 1.178e+04 1.441e-09
 69.44661   -193.0 1.194e+04 1.539e-09
 69.46757   -192.2 1.209e+04 1.650e-09
 69.48097   -191.4 1.222e+04 1.733e-09
 69.49146   -191.3 1.219e+04 1.683e-09
 69.50951   -190.6 1.226e+04 1.738e-09
 69.52891   -189.8 1.233e+04 1.791e-09
 69.53940   -189.6 1.217e+04 1.659e-09
 69.55144   -189.0 1.220e+04 1.671e-09
 69.57240   -188.4 1.221e+04 1.678e-09
 69.58734   -188.0 1.223e+04 1.688e-09
 69.59782   -187.8 1.204e+04 1.559e-09
 69.61434   -187.3 1.207e+04 1.581e-09
 69.63528   -186.7 1.210e+04 1.621e-09
 69.65624   -185.7 1.202e+04 1.596e-09
 69.67724   -185.0 1.205e+04 1.624e-09
 69.68827   -184.2 1.207e+04 1.637e-09
 69.69426   -183.6 1.166e+04 1.328e-09
 69.70419   -183.1 1.164e+04 1.307e-09
 69.71917   -182.4 1.169e+04 1.327e-09
 69.74013   -181.6 1.173e+04 1.333e-09
 69.75213   -180.9 1.177e+04 1.329e-09
 69.76261   -180.5 1.177e+04 1.329e-09
 69.78207   -179.8 1.184e+04 1.339e-09
 69.80007   -179.1 1.192e+04 1.357e-09
 69.81055   -178.9 1.206e+04 1.430e-09
 69.82400   -178.3 1.215e+04 1.466e-09
 69.84496   -177.6 1.226e+04 1.505e-09
 69.85849   -177.1 1.241e+04 1.549e-09
 69.86897   -176.9 1.256e+04 1.647e-09
 69.88690   -176.4 1.270e+04 1.673e-09
 69.90643   -175.9 1.279e+04 1.726e-09
 69.91692   -175.7 1.293e+04 1.875e-09
 69.92883   -175.3 1.306e+04 1.986e-09
 69.94979   -174.8 1.318e+04 2.074e-09
 69.96486   -174.3 1.323e+04 2.116e-09
 69.97534   -174.0 1.340e+04 2.325e-09
 69.99173   -173.4 1.336e+04 2.246e-09
 70.01269   -172.7 1.325e+04 2.066e-09
 70.02328   -172.0 1.308e+04 1.805e-09
 70.03376   -171.7 1.316e+04 1.876e-09
 70.05463   -171.0 1.290e+04 1.574e-09
 70.07122   -170.4 1.265e+04 1.330e-09
 70.08170   -170.1 1.264e+04 1.338e-09
 70.09656   -169.4 1.239e+04 1.168e-09
 70.11752   -168.7 1.220e+04 1.076e-09
 70.12964   -167.9 1.212e+04 1.049e-09
 70.14013   -167.6 1.204e+04 1.032e-09
 70.15946   -166.7 1.208e+04 1.059e-09
 70.17759   -165.9 1.219e+04 1.115e-09
 70.18807   -165.6 1.215e+04 1.125e-09
 70.20139   -164.7 1.228e+04 1.216e-09
 70.22235   -163.9 1.241e+04 1.314e-09
 70.23601   -163.3 1.250e+04 1.407e-09
 70.24649   -162.9 1.247e+04 1.434e-09
 70.26216   -162.3 1.254e+04 1.519e-09
 70.27264   -161.6 1.261e+04 1.604e-09
 70.28395   -161.0 1.272e+04 1.719e-09
 70.29443   -160.6 1.259e+04 1.650e-09
 70.30622   -160.0 1.266e+04 1.737e-09
 70.32719   -159.5 1.274e+04 1.789e-09
 70.34237   -159.1 1.277e+04 1.813e-09
 70.35286   -158.5 1.263e+04 1.740e-09
 70.36912   -158.1 1.267e+04 1.752e-09
 70.39008   -157.7 1.267e+04 1.742e-09
 70.40080   -157.4 1.265e+04 1.718e-09
 70.41128   -156.6 1.263e+04 1.735e-09
 70.43202   -156.2 1.262e+04 1.732e-09
 70.44874   -155.7 1.262e+04 1.725e-09
 70.45922   -155.0 1.266e+04 1.769e-09
 70.47395   -154.5 1.266e+04 1.752e-09
 70.49491   -154.0 1.265e+04 1.726e-09
 70.50716   -153.5 1.265e+04 1.691e-09
 70.51765   -152.9 1.263e+04 1.644e-09
 70.53685   -152.3 1.260e+04 1.544e-09
 70.55510   -151.7 1.258e+04 1.443e-09
 70.56559   -151.3 1.250e+04 1.318e-09
 70.57878   -151.0 1.244e+04 1.259e-09
 70.59974   -150.4 1.237e+04 1.224e-09
 70.63129   -149.7 1.232e+04 1.191e-09
 70.66166   -148.5 1.244e+04 1.314e-09
 70.68263   -148.1 1.231e+04 1.235e-09
 70.71525   -147.5 1.267e+04 1.634e-09
 70.75719   -147.1 1.311e+04 2.200e-09
 70.77851   -146.9 1.351e+04 2.721e-09
 70.79948   -147.1 1.339e+04 2.599e-09
 70.84105   -147.1 1.351e+04 2.745e-09
 70.87439   -146.8 1.347e+04 2.696e-09
 70.89536   -147.4 1.331e+04 2.512e-09
 70.91433   -147.1 1.298e+04 2.258e-09
 70.93262   -147.1 1.288e+04 2.141e-09
 70.94311   -147.1 1.284e+04 2.119e-09
 70.95617   -146.8 1.255e+04 1.837e-09
 70.97714   -146.3 1.234e+04 1.665e-09
 70.99105   -145.7 1.211e+04 1.514e-09
 71.00153   -145.7 1.214e+04 1.505e-09
 71.01907   -145.0 1.200e+04 1.415e-09
 71.05061   -144.0 1.195e+04 1.359e-09
 71.08206   -142.8 1.175e+04 1.278e-09
 71.09741   -142.1 1.172e+04 1.254e-09
 71.10789   -141.9 1.180e+04 1.274e-09
 71.12390   -141.1 1.178e+04 1.261e-09
 71.14486   -140.5 1.179e+04 1.260e-09
 71.15584   -139.8 1.183e+04 1.273e-09
 71.16632   -139.4 1.188e+04 1.317e-09
 71.18680   -138.8 1.197e+04 1.356e-09
 71.20378   -138.3 1.206e+04 1.428e-09
 71.21426   -137.6 1.214e+04 1.491e-09
 71.22873   -137.0 1.225e+04 1.588e-09
 71.24969   -136.4 1.235e+04 1.703e-09
 71.26220   -135.8 1.247e+04 1.834e-09
 71.27268   -135.0 1.261e+04 1.894e-09
 71.29163   -134.4 1.276e+04 2.078e-09
 71.31014   -133.9 1.296e+04 2.297e-09
 71.32062   -133.0 1.313e+04 2.398e-09
 71.33356   -132.6 1.337e+04 2.686e-09
 71.35453   -132.2 1.359e+04 2.974e-09
 71.36856   -132.0 1.373e+04 3.176e-09
 71.37905   -131.1 1.401e+04 3.474e-09
 71.39646   -130.9 1.407e+04 3.604e-09
 71.41651   -130.7 1.403e+04 3.599e-09
 71.42699   -129.8 1.438e+04 4.046e-09
 71.43091   -129.5 1.418e+04 3.865e-09
 71.44139   -129.2 1.433e+04 4.298e-09
 71.45936   -128.6 1.396e+04 3.571e-09
 71.47493   -128.0 1.347e+04 2.652e-09
 71.48541   -127.0 1.408e+04 3.516e-09
 71.50129   -126.4 1.353e+04 2.395e-09
 71.52225   -126.0 1.291e+04 1.570e-09
 71.53335   -125.6 1.238e+04 1.088e-09
 71.54384   -124.4 1.290e+04 1.241e-09
 71.56419   -124.2 1.236e+04 8.552e-10
 71.58129   -123.8 1.204e+04 7.367e-10
 71.59178   -122.8 1.218e+04 7.299e-10
 71.60612   -122.3 1.198e+04 6.607e-10
 71.62708   -121.2 1.197e+04 6.164e-10
 71.63972   -120.0 1.202e+04 6.011e-10
 71.65020   -119.4 1.203e+04 5.950e-10
 71.66902   -118.2 1.208e+04 5.940e-10
 71.68766   -117.0 1.219e+04 6.045e-10
 71.69814   -116.6 1.218e+04 5.984e-10
 71.72153   -115.5 1.238e+04 6.712e-10
 71.74628   -112.9 1.242e+04 8.410e-10
 71.76724   -111.6 1.244e+04 7.620e-10
 71.80549   -109.1 1.264e+04 1.096e-09
 71.84216   -106.6 1.306e+04 1.667e-09
 71.86313   -105.4 1.302e+04 1.445e-09
 71.88936   -103.1 1.342e+04 2.025e-09
 71.93129   -101.0 1.370e+04 2.449e-09
 71.95901    -99.2 1.377e+04 2.552e-09
 71.97997    -97.6 1.332e+04 1.881e-09
 72.01515    -95.5 1.325e+04 1.877e-09
 72.05489    -93.2 1.314e+04 1.793e-09
 72.07586    -91.4 1.282e+04 1.337e-09
 72.09902    -89.0 1.280e+04 1.333e-09
 72.14095    -86.4 1.278e+04 1.363e-09
 72.17174    -83.6 1.271e+04 1.354e-09
 72.19270    -81.8 1.262e+04 1.216e-09
 72.22481    -79.1 1.257e+04 1.216e-09
 72.26675    -76.3 1.247e+04 1.069e-09
 72.28859    -73.5 1.232e+04 8.787e-10
 72.30955    -71.8 1.235e+04 1.032e-09
 72.35061    -68.9 1.218e+04 8.498e-10
 72.38447    -66.2 1.210e+04 7.319e-10
 72.40543    -64.7 1.204e+04 8.635e-10
 72.43448    -61.9 1.197e+04 7.790e-10
 72.46583    -59.2 1.198e+04 7.614e-10
 72.48670    -58.6 1.194e+04 7.721e-10
 72.50112    -56.7 1.214e+04 8.825e-10
 72.52218    -55.8 1.204e+04 9.525e-10
 72.56027    -53.9 1.244e+04 1.438e-09
 72.58937    -51.7 1.303e+04 2.231e-09
 72.60532    -51.3 1.283e+04 1.861e-09
 72.61816    -50.2 1.222e+04 1.358e-09
 72.64414    -48.1 1.279e+04 2.093e-09
 72.68607    -46.1 1.304e+04 2.440e-09
 72.71395    -44.6 1.283e+04 2.296e-09
 72.72433    -43.9 1.265e+04 2.132e-09
 72.73829    -43.3 1.252e+04 2.041e-09
 72.75926    -42.2 1.237e+04 1.904e-09
 72.77227    -41.4 1.225e+04 1.706e-09
 72.78276    -40.9 1.219e+04 1.682e-09
 72.80119    -39.6 1.194e+04 1.450e-09
 72.82021    -38.9 1.181e+04 1.323e-09
 72.83079    -38.1 1.191e+04 1.446e-09
 72.85380    -36.2 1.162e+04 1.175e-09
 72.87874    -34.9 1.134e+04 9.773e-10
 72.88912    -34.0 1.138e+04 1.058e-09
 72.90602    -33.5 1.136e+04 1.023e-09
 72.92658    -32.3 1.128e+04 9.387e-10
 72.93706    -31.7 1.132e+04 1.049e-09
 72.94795    -30.8 1.122e+04 1.000e-09
 72.96892    -29.6 1.115e+04 9.584e-10
 72.98500    -28.5 1.105e+04 8.994e-10
 72.99549    -28.0 1.116e+04 1.042e-09
 73.01085    -26.9 1.110e+04 9.745e-10
 73.03182    -25.8 1.093e+04 8.844e-10
 73.04343    -24.7 1.072e+04 7.936e-10
 73.05391    -24.2 1.086e+04 9.350e-10
 73.07375    -23.2 1.067e+04 8.381e-10
 73.09137    -22.2 1.056e+04 7.665e-10
 73.10185    -21.9 1.062e+04 9.028e-10
 73.11568    -21.1 1.064e+04 8.222e-10
 73.13665    -20.4 1.061e+04 7.772e-10
 73.14979    -19.6 1.022e+04 8.148e-10
 73.16027    -19.2 1.044e+04 9.208e-10
 73.17354    -18.2 1.040e+04 1.034e-09
 73.18403    -18.7 1.041e+04 9.332e-10
 73.19773    -18.1 1.100e+04 9.482e-10
 73.20822    -18.6 1.152e+04 1.194e-09
 73.22051    -18.5 1.162e+04 1.528e-09
 73.24148    -18.1 1.175e+04 1.822e-09
 73.25616    -17.6 1.207e+04 2.138e-09
 73.26664    -17.5 1.223e+04 2.569e-09
 73.28341    -16.6 1.247e+04 2.749e-09
 73.30410    -15.8 1.261e+04 2.820e-09
 73.31458    -15.3 1.235e+04 2.639e-09
 73.32534    -14.5 1.215e+04 2.291e-09
 73.34631    -13.9 1.191e+04 1.923e-09
 73.36252    -13.3 1.163e+04 1.528e-09
 73.37300    -13.5 1.106e+04 1.177e-09
 73.38824    -13.0 1.078e+04 8.840e-10
 73.40921    -12.3 1.020e+04 7.284e-10
 73.42095    -11.8 9.944e+03 5.517e-10
 73.43143    -11.6 9.775e+03 5.220e-10
 73.45114    -11.1 9.653e+03 4.530e-10
 73.46889     -9.9 9.461e+03 4.051e-10
 73.47937     -9.3 9.503e+03 4.106e-10
 73.49307     -8.8 9.426e+03 3.932e-10
 73.51404     -7.2 9.294e+03 3.566e-10
 73.52731     -6.8 9.270e+03 3.473e-10
 73.53779     -6.4 9.425e+03 3.943e-10
 73.55597     -5.1 9.311e+03 3.863e-10
 73.57525     -4.3 9.351e+03 3.914e-10
 73.58573     -3.5 9.553e+03 4.669e-10
 73.59790     -2.6 9.486e+03 4.657e-10
 73.61887     -1.9 9.549e+03 4.854e-10
 73.63368     -1.7 9.823e+03 5.784e-10
 73.64416     -0.3 9.985e+03 5.977e-10
 73.66080      0.1 1.020e+04 6.961e-10
 73.68162      0.3 1.055e+04 8.721e-10
 73.69210      1.4 1.067e+04 8.201e-10
 73.70273      1.7 1.128e+04 1.061e-09
 73.72370      1.7 1.275e+04 1.564e-09
 73.74004      1.1 1.469e+04 2.570e-09
 73.75052      2.9 1.330e+04 1.779e-09
 73.75792      2.2 1.481e+04 2.568e-09
 73.76840      2.4 1.270e+04 1.332e-09
 73.78660      1.9 1.402e+04 2.172e-09
 73.79846      1.7 1.435e+04 3.140e-09
 73.80895      3.2 1.394e+04 2.255e-09
 73.82853      3.1 1.457e+04 3.257e-09
 73.84640      3.3 1.469e+04 4.293e-09
 73.85689      5.0 1.487e+04 3.474e-09
 73.87046      5.3 1.499e+04 4.490e-09
 73.89143      6.3 1.429e+04 4.764e-09
 73.90483      7.2 1.374e+04 4.760e-09
 73.91531      7.8 1.450e+04 5.038e-09
 73.93336      8.5 1.393e+04 4.920e-09
 73.95277      9.4 1.372e+04 4.370e-09
 73.96325     10.2 1.427e+04 5.298e-09
 73.97529     11.1 1.402e+04 4.624e-09
 73.99626     11.5 1.389e+04 3.487e-09
 74.01119     11.7 1.340e+04 2.368e-09
 74.02168     13.2 1.381e+04 3.146e-09
 74.03819     13.1 1.322e+04 2.240e-09
 74.05913     13.0 1.250e+04 1.648e-09
 74.08010     14.2 1.223e+04 1.474e-09
 74.10109     14.7 1.171e+04 1.246e-09
 74.11756     15.5 1.153e+04 1.141e-09
 74.12804     16.2 1.152e+04 1.106e-09
 74.14302     17.3 1.149e+04 1.050e-09
 74.16399     18.2 1.154e+04 1.022e-09
 74.17598     19.3 1.150e+04 9.493e-10
 74.18647     19.6 1.151e+04 1.009e-09
 74.20592     20.7 1.150e+04 9.989e-10
 74.22392     21.9 1.150e+04 9.636e-10
 74.23441     22.3 1.167e+04 1.127e-09
 74.24785     23.5 1.171e+04 1.111e-09
 74.26882     24.6 1.177e+04 1.066e-09
 74.28235     25.4 1.183e+04 1.004e-09
 74.29283     25.8 1.235e+04 1.363e-09
 74.31075     26.4 1.236e+04 1.316e-09
 74.33029     27.0 1.229e+04 1.239e-09
 74.34077     27.3 1.289e+04 1.781e-09
 74.35268     28.8 1.231e+04 1.313e-09
 74.37365     29.5 1.211e+04 1.215e-09
 74.38871     30.4 1.187e+04 1.095e-09
 74.39919     30.8 1.230e+04 1.479e-09
 74.41558     31.6 1.202e+04 1.281e-09
 74.43655     32.4 1.176e+04 1.079e-09
 74.44714     33.1 1.156e+04 9.006e-10
 74.45762     33.4 1.178e+04 1.080e-09
 74.47848     33.9 1.156e+04 8.904e-10
 74.49508     34.5 1.137e+04 7.555e-10
 74.50556     34.8 1.148e+04 8.541e-10
 74.52041     35.4 1.133e+04 7.455e-10
 74.54138     36.0 1.122e+04 6.685e-10
 74.55350     36.7 1.117e+04 6.207e-10
 74.56398     36.9 1.127e+04 6.878e-10
 74.58331     37.5 1.125e+04 6.564e-10
 74.60144     38.0 1.123e+04 6.388e-10
 74.61192     38.0 1.119e+04 7.213e-10
 74.62524     38.6 1.119e+04 7.202e-10
 74.64621     39.0 1.124e+04 7.327e-10
 74.65987     39.1 1.140e+04 7.752e-10
 74.67035     38.7 1.167e+04 9.419e-10
 74.68814     38.5 1.199e+04 1.061e-09
 74.70781     38.1 1.233e+04 1.258e-09
 74.71829     37.3 1.326e+04 1.950e-09
 74.73007     37.1 1.323e+04 2.169e-09
 74.75104     36.8 1.290e+04 2.482e-09
 74.76623     36.3 1.298e+04 2.455e-09
 74.77671     35.3 1.480e+04 3.472e-09
 74.79297     34.4 1.413e+04 2.694e-09
 74.81394     33.0 1.365e+04 2.146e-09
 74.82465     32.4 1.319e+04 1.713e-09
 74.83514     31.7 1.387e+04 2.348e-09
 74.85587     31.9 1.301e+04 1.578e-09
 74.87260     31.9 1.264e+04 1.270e-09
 74.88308     31.4 1.251e+04 1.344e-09
 74.90580     32.2 1.205e+04 1.096e-09
 74.92686     31.2 1.216e+04 1.243e-09
 74.93112     32.0 1.195e+04 1.132e-09
 74.94150     32.0 1.194e+04 1.194e-09
 74.96070     32.9 1.190e+04 1.203e-09
 74.97896     33.7 1.192e+04 1.273e-09
 74.98944     34.2 1.209e+04 1.429e-09
 75.00263     35.0 1.214e+04 1.503e-09
 75.02360     35.8 1.226e+04 1.597e-09
 75.03738     36.4 1.232e+04 1.620e-09
 75.04787     37.0 1.238e+04 1.695e-09
 75.06553     37.5 1.230e+04 1.608e-09
 75.08532     38.0 1.210e+04 1.445e-09
 75.09581     38.7 1.212e+04 1.472e-09
 75.10746     39.3 1.181e+04 1.207e-09
 75.12843     39.6 1.147e+04 9.657e-10
 75.15997     40.8 1.114e+04 7.454e-10
 75.19188     41.6 1.050e+04 4.745e-10
 75.21285     43.3 1.118e+04 6.352e-10
 75.24394     44.0 1.044e+04 3.694e-10
 75.28587     44.8 9.867e+03 2.138e-10
 75.30873     45.6 9.455e+03 1.409e-10
 75.32970     46.6 9.919e+03 1.864e-10
 75.36973     47.4 9.348e+03 1.443e-10
 75.40461     48.7 9.232e+03 1.387e-10
 75.42558     49.2 9.535e+03 1.795e-10
 75.45360     50.7 9.344e+03 1.691e-10
 75.49553     52.2 9.302e+03 1.732e-10
 75.52146     53.9 9.319e+03 1.732e-10
 75.54243     54.1 9.672e+03 2.203e-10
 75.57940     55.8 9.785e+03 2.274e-10
 75.61734     57.4 1.002e+04 2.481e-10
 75.63821     56.9 1.047e+04 3.015e-10
 75.65258     57.3 1.062e+04 3.431e-10
 75.67355     57.4 1.078e+04 4.164e-10
 75.68606     57.8 1.093e+04 5.460e-10
 75.69654     57.4 1.110e+04 7.710e-10
 75.71548     58.1 1.131e+04 1.029e-09
 75.73400     59.0 1.161e+04 1.363e-09
 75.74448     59.1 1.181e+04 1.637e-09
 75.75741     60.1 1.214e+04 1.952e-09
 75.77838     60.9 1.244e+04 2.137e-09
 75.79242     61.4 1.257e+04 2.152e-09
 75.80290     60.8 1.254e+04 2.021e-09
 75.82031     61.1 1.251e+04 1.956e-09
 75.84036     61.3 1.239e+04 1.834e-09
 75.85084     60.6 1.231e+04 1.707e-09
 75.86224     60.9 1.219e+04 1.616e-09
 75.88321     61.2 1.207e+04 1.525e-09
 75.89879     61.5 1.193e+04 1.408e-09
 75.90927     61.3 1.196e+04 1.420e-09
 75.92514     61.6 1.183e+04 1.348e-09
 75.94611     62.1 1.167e+04 1.258e-09
 75.95721     62.3 1.158e+04 1.203e-09
 75.96769     61.9 1.192e+04 1.347e-09
 75.99862     61.6 1.215e+04 1.458e-09
 76.04065     62.5 1.193e+04 1.455e-09
 76.06377     63.5 1.186e+04 1.491e-09
 76.07415     62.9 1.274e+04 2.293e-09
 76.08493     63.6 1.266e+04 2.284e-09
 76.09541     64.3 1.265e+04 2.292e-09
 76.11152     65.0 1.259e+04 2.285e-09
 76.12200     65.0 1.292e+04 2.797e-09
 76.13480     65.6 1.281e+04 2.652e-09
 76.15577     66.7 1.253e+04 2.306e-09
 76.16994     67.1 1.241e+04 2.153e-09
 76.18042     66.7 1.226e+04 1.951e-09
 76.19770     67.4 1.191e+04 1.646e-09
 76.21788     68.0 1.160e+04 1.419e-09
 76.22836     67.6 1.144e+04 1.312e-09
 76.23963     68.5 1.100e+04 1.074e-09
 76.26060     69.1 1.082e+04 9.859e-10
 76.27640     70.6 1.048e+04 8.502e-10
 76.28688     69.4 1.035e+04 7.986e-10
 76.30253     70.4 1.032e+04 7.976e-10
 76.32350     71.4 1.029e+04 8.064e-10
 76.33473     72.3 1.034e+04 8.529e-10
 76.34521     71.5 1.065e+04 9.578e-10
 76.36543     72.6 1.078e+04 1.063e-09
 76.38267     73.7 1.094e+04 1.195e-09
 76.39315     73.3 1.112e+04 1.310e-09
 76.40736     74.7 1.118e+04 1.371e-09
 76.42833     76.2 1.117e+04 1.373e-09
 76.44109     77.8 1.114e+04 1.352e-09
 76.45158     77.5 1.096e+04 1.144e-09
 76.47026     78.9 1.084e+04 1.014e-09
 76.48903     80.3 1.071e+04 8.793e-10
 76.49952     79.4 1.031e+04 6.298e-10
 76.51219     80.1 1.014e+04 5.269e-10
 76.53316     80.9 9.876e+03 4.338e-10
 76.54746     81.5 9.621e+03 3.759e-10
 76.55794     80.7 9.138e+03 3.244e-10
 76.57509     81.9 8.989e+03 2.973e-10
 76.59540     82.8 8.897e+03 2.817e-10
 76.60598     81.2 8.642e+03 3.038e-10
 76.62770     83.9 8.577e+03 2.910e-10
 76.66963     86.9 8.597e+03 2.897e-10
 76.70196     90.0 8.671e+03 2.941e-10
 76.72292     89.8 8.612e+03 2.786e-10
 76.74292     92.5 8.649e+03 2.802e-10
 76.76019     93.6 8.690e+03 2.872e-10
 76.77067     93.6 8.688e+03 2.861e-10
 76.78475     94.9 8.740e+03 3.035e-10
 76.80572     96.4 8.842e+03 3.382e-10
 76.81861     97.9 8.950e+03 3.929e-10
 76.82909     96.5 9.856e+03 4.605e-10
 76.84765     96.7 1.123e+04 6.844e-10
 76.86655     96.7 1.275e+04 1.092e-09
 76.87703     92.7 1.428e+04 2.491e-09
 76.88958     93.5 1.474e+04 3.751e-09
 76.91055     94.6 1.524e+04 5.391e-09
 76.92498     95.7 1.598e+04 7.463e-09
 76.93546     95.0 1.680e+04 1.011e-08
 76.95248     95.0 1.838e+04 1.242e-08
 76.97292     94.3 2.012e+04 1.490e-08
 76.98340     90.7 2.020e+04 1.377e-08
 76.99441     88.3 1.996e+04 1.375e-08
 77.01538     86.2 1.895e+04 1.343e-08
 77.03134     84.4 1.770e+04 1.236e-08
 77.04182     83.6 1.658e+04 1.156e-08
 77.05731     84.1 1.622e+04 9.998e-09
 77.07828     84.8 1.563e+04 7.362e-09
 77.08976     85.1 1.490e+04 5.141e-09
 77.10025     84.9 1.421e+04 3.317e-09
 77.12021     83.8 1.345e+04 2.315e-09
 77.13771     82.5 1.282e+04 1.746e-09
 77.14819     81.7 1.203e+04 1.380e-09
 77.17272     81.4 1.186e+04 1.286e-09
 77.21475     81.9 1.202e+04 1.370e-09
 77.24339     82.1 1.228e+04 1.533e-09
 77.25183     83.8 1.215e+04 1.467e-09
 77.26513     85.2 1.223e+04 1.479e-09
 77.29862     85.5 1.251e+04 1.623e-09
 77.32997     85.3 1.271e+04 1.790e-09
 77.35044     85.3 1.281e+04 1.890e-09
 77.36092     86.1 1.283e+04 1.932e-09
 77.37180     86.1 1.288e+04 2.015e-09
 77.39277     86.0 1.295e+04 2.113e-09
 77.40886     85.9 1.305e+04 2.171e-09
 77.41934     86.7 1.310e+04 2.204e-09
 77.43470     86.6 1.309e+04 2.168e-09
 77.45567     86.4 1.301e+04 2.018e-09
 77.46728     86.3 1.279e+04 1.700e-09
 77.47777     86.9 1.270e+04 1.631e-09
 77.50818     87.7 1.233e+04 1.143e-09
 77.55021     87.8 1.125e+04 4.981e-10
 77.57384     87.5 9.986e+03 1.848e-10
 77.59481     88.9 9.895e+03 1.844e-10
 77.63408     88.8 8.978e+03 9.637e-11
 77.66972     89.3 8.645e+03 8.402e-11
 77.69069     91.0 8.553e+03 8.217e-11
 77.71794     92.1 8.493e+03 8.052e-11
 77.75987     94.0 8.474e+03 8.126e-11
 77.78657     96.1 8.435e+03 8.666e-11
 77.80754     97.4 8.370e+03 8.263e-11
 77.84374     99.4 8.404e+03 9.478e-11
 77.88245    101.3 8.445e+03 1.118e-10
 77.90342    102.5 8.462e+03 1.163e-10
 77.92760    104.4 8.603e+03 1.470e-10
 77.96953    106.4 8.763e+03 1.871e-10
 77.99930    108.4 8.945e+03 2.352e-10
 78.02027    109.5 9.232e+03 3.147e-10
 78.05340    111.9 9.613e+03 4.173e-10
 78.09518    113.5 9.864e+03 4.863e-10
 78.12654    115.9 1.046e+04 7.637e-10
 78.14755    116.8 1.057e+04 8.060e-10
 78.16390    117.6 1.061e+04 8.047e-10
 78.17438    118.1 1.095e+04 9.437e-10
 78.18948    119.1 1.095e+04 9.295e-10
 78.21045    120.1 1.094e+04 9.000e-10
 78.22232    121.1 1.096e+04 8.692e-10
 78.23280    121.5 1.116e+04 1.063e-09
 78.25238    122.3 1.120e+04 1.060e-09
 78.27026    123.1 1.129e+04 1.062e-09
 78.28074    123.2 1.179e+04 1.354e-09
 78.29431    123.9 1.203e+04 1.451e-09
 78.31528    124.4 1.230e+04 1.592e-09
 78.32868    124.9 1.257e+04 1.760e-09
 78.33917    125.0 1.329e+04 2.373e-09
 78.35721    125.5 1.357e+04 2.657e-09
 78.37663    125.9 1.362e+04 2.790e-09
 78.38711    126.2 1.399e+04 3.666e-09
 78.39914    126.4 1.395e+04 3.629e-09
 78.41194    126.7 1.375e+04 3.429e-09
 78.42242    127.2 1.409e+04 3.664e-09
 78.43505    127.5 1.384e+04 3.356e-09
 78.44553    127.7 1.432e+04 4.602e-09
 78.46204    128.1 1.384e+04 3.796e-09
 78.48299    128.5 1.326e+04 3.027e-09
 78.50396    129.0 1.271e+04 2.506e-09
 78.52494    129.5 1.214e+04 1.984e-09
 78.54141    129.9 1.176e+04 1.662e-09
 78.55190    129.4 1.165e+04 1.452e-09
 78.56687    130.0 1.137e+04 1.318e-09
 78.58784    130.9 1.125e+04 1.276e-09
 78.59984    131.9 1.121e+04 1.270e-09
 78.61032    131.6 1.077e+04 1.106e-09
 78.62977    132.8 1.080e+04 1.147e-09
 78.64778    134.0 1.085e+04 1.188e-09
 78.65826    133.9 1.051e+04 1.021e-09
 78.67170    135.2 1.058e+04 1.071e-09
 78.69267    136.3 1.064e+04 1.109e-09
 78.70620    137.5 1.067e+04 1.113e-09
 78.71669    137.7 1.044e+04 1.015e-09
 78.73460    138.8 1.050e+04 1.049e-09
 78.75414    140.0 1.052e+04 1.054e-09
 78.76463    140.2 1.037e+04 1.019e-09
 78.77653    141.4 1.042e+04 1.042e-09
 78.79750    142.5 1.043e+04 1.042e-09
 78.81257    143.7 1.043e+04 1.038e-09
 78.82305    144.1 1.053e+04 1.031e-09
 78.83943    145.2 1.053e+04 1.028e-09
 78.86040    146.2 1.050e+04 1.011e-09
 78.87099    147.2 1.044e+04 9.716e-10
 78.88147    147.8 1.052e+04 1.014e-09
 78.90233    148.8 1.047e+04 9.958e-10
 78.91893    149.6 1.042e+04 9.758e-10
 78.92942    150.0 1.052e+04 1.016e-09
 78.94426    150.7 1.053e+04 1.018e-09
 78.96523    150.9 1.053e+04 1.016e-09
 78.97736    150.9 1.054e+04 1.008e-09
 78.98747    151.6 1.068e+04 1.122e-09
 78.99631    150.3 1.038e+04 1.012e-09
 79.00716    149.9 1.051e+04 1.072e-09
 79.02530    149.2 1.066e+04 1.140e-09
 79.03578    149.8 1.072e+04 1.203e-09
 79.04909    148.5 1.089e+04 1.263e-09
 79.07006    146.6 1.114e+04 1.281e-09
 79.08367    145.2 1.167e+04 1.279e-09
 79.08887    145.6 1.201e+04 1.336e-09
 79.09617    143.5 1.419e+04 1.320e-09
 79.10665    140.7 1.890e+04 1.391e-09
 79.11284    136.7 2.715e+04 1.680e-09
 79.11808    135.8 2.943e+04 1.808e-09
 79.12762    130.7 3.736e+04 2.947e-09
 79.13681    125.8 3.899e+04 5.659e-09
 79.14205    123.9 4.047e+04 6.907e-09
 79.14859    119.5 3.369e+04 1.412e-08
 79.15907    115.6 2.758e+04 2.548e-08
 79.16602    112.7 2.374e+04 3.877e-08
 79.17126    111.5 2.303e+04 4.535e-08
 79.18003    109.6 2.117e+04 5.815e-08
 79.18999    108.3 2.062e+04 6.882e-08
 79.19523    107.8 2.057e+04 7.246e-08
 79.20100    107.1 2.117e+04 7.602e-08
 79.21148    106.1 2.222e+04 7.466e-08
 79.21920    104.7 2.325e+04 6.824e-08
 79.22444    104.8 2.331e+04 6.651e-08
 79.23245    103.1 2.675e+04 4.255e-08
 79.24293    100.9 3.131e+04 2.151e-08
 79.24841     97.9 3.450e+04 1.045e-08
 79.25365     97.1 3.581e+04 7.986e-09
 79.26390     92.8 3.389e+04 4.235e-09
 79.27967     89.1 2.812e+04 2.747e-09
 79.29645     81.8 1.416e+04 1.300e-09
 79.30693     79.7 1.161e+04 1.113e-09
 79.32165     78.8 1.034e+04 8.235e-10
 79.34262     78.4 9.995e+03 6.154e-10
 79.35487     77.8 1.010e+04 5.428e-10
 79.36536     78.2 9.707e+03 4.893e-10
 79.38455     77.7 9.719e+03 4.799e-10
 79.40282     77.2 9.971e+03 5.160e-10
 79.41330     78.0 9.468e+03 4.581e-10
 79.42648     77.7 9.835e+03 5.281e-10
 79.44745     77.1 1.064e+04 7.383e-10
 79.46124     76.7 1.144e+04 1.129e-09
 79.47172     77.7 1.088e+04 9.180e-10
 79.48938     77.4 1.185e+04 1.445e-09
 79.50918     77.3 1.263e+04 2.154e-09
 79.51966     78.4 1.221e+04 1.846e-09
 79.53131     78.3 1.306e+04 2.645e-09
 79.55228     78.2 1.346e+04 2.991e-09
 79.56760     77.7 1.344e+04 2.943e-09
 79.57504     79.1 1.337e+04 2.884e-09
 79.58068     78.7 1.435e+04 3.611e-09
 79.59421     78.1 1.434e+04 3.462e-09
 79.61518     77.4 1.412e+04 2.949e-09
 79.62603     76.5 1.362e+04 2.338e-09
 79.63651     77.7 1.374e+04 2.339e-09
 79.65711     76.9 1.304e+04 1.811e-09
 79.67397     76.2 1.267e+04 1.405e-09
 79.68445     76.9 1.228e+04 1.391e-09
 79.69904     76.4 1.242e+04 1.223e-09
 79.72001     74.5 1.372e+04 1.378e-09
 79.73239     70.5 1.763e+04 2.176e-09
 79.74288     74.0 1.514e+04 1.579e-09
 79.76194     68.6 1.850e+04 3.497e-09
 79.78033     65.5 1.873e+04 8.987e-09
 79.79082     68.1 1.841e+04 6.405e-09
 79.80387     66.8 1.869e+04 1.465e-08
 79.82484     66.5 1.845e+04 1.758e-08
 79.83876     66.5 1.811e+04 1.554e-08
 79.84924     67.3 1.847e+04 1.737e-08
 79.86677     66.8 1.805e+04 1.257e-08
 79.88670     64.8 1.758e+04 6.152e-09
 79.89718     65.7 1.813e+04 9.418e-09
 79.90870     62.1 1.696e+04 3.754e-09
 79.92967     57.6 1.430e+04 1.642e-09
 79.94512     54.0 1.181e+04 1.060e-09
 79.95561     55.5 1.217e+04 1.073e-09
 79.98218     54.8 1.179e+04 8.696e-10
 80.02421     54.2 1.176e+04 8.529e-10
 80.05168     53.4 1.210e+04 9.812e-10
 80.07265     54.7 1.163e+04 6.704e-10
 80.10808     53.9 1.179e+04 7.915e-10
 80.14756     52.9 1.169e+04 7.596e-10
 80.16853     54.8 1.158e+04 6.822e-10
 80.19194     54.0 1.120e+04 5.512e-10
 80.23388     53.3 1.048e+04 3.158e-10
 80.26441     52.9 9.723e+03 1.668e-10
 80.28538     54.5 9.951e+03 1.873e-10
 80.31774     54.1 9.363e+03 1.022e-10
 80.35967     54.2 9.089e+03 6.573e-11
 80.38126     54.7 9.109e+03 6.485e-11
 80.40223     55.0 9.286e+03 7.288e-11
 80.44354     55.2 9.302e+03 9.439e-11
 80.47714     56.1 9.371e+03 1.587e-10
 80.49811     56.6 9.528e+03 1.931e-10
 80.52740     58.5 9.694e+03 2.666e-10
 80.56933     60.3 9.725e+03 2.729e-10
 80.59399     62.0 9.692e+03 2.490e-10
 80.61496     62.5 9.622e+03 1.980e-10
 80.65320     63.9 9.539e+03 1.519e-10
 80.68987     65.0 9.440e+03 1.196e-10
 80.71084     65.2 9.306e+03 1.014e-10
 80.72866     66.7 9.299e+03 1.049e-10
 80.74962     67.7 9.482e+03 1.277e-10
 80.77899     69.0 9.492e+03 1.369e-10
 80.80672     70.4 9.590e+03 1.695e-10
 80.82769     71.2 9.509e+03 1.743e-10
 80.86286     72.8 9.735e+03 2.400e-10
 80.90260     74.5 1.003e+04 3.044e-10
 80.92357     75.3 9.985e+03 3.027e-10
 80.94672     76.8 1.015e+04 3.172e-10
 80.98866     78.1 1.011e+04 3.091e-10
 81.01945     79.6 1.004e+04 2.698e-10
 81.04042     80.6 1.001e+04 2.690e-10
 81.07252     82.2 9.972e+03 2.067e-10
 81.11445     83.5 9.985e+03 1.381e-10
 81.13630     84.5 9.981e+03 9.048e-11
 81.15726     85.5 1.004e+04 1.092e-10
 81.19832     86.5 9.982e+03 1.004e-10
 81.23218     87.3 9.960e+03 1.074e-10
 81.25315     88.3 1.014e+04 1.413e-10
 81.28218     89.1 1.033e+04 1.978e-10
 81.32411     90.1 1.052e+04 2.715e-10
 81.34903     90.9 1.052e+04 2.850e-10
 81.36999     91.5 1.072e+04 3.432e-10
 81.40798     92.5 1.057e+04 3.025e-10
 81.44491     93.7 1.032e+04 2.107e-10
 81.46587     94.2 1.033e+04 2.104e-10
 81.49184     95.1 1.005e+04 1.344e-10
 81.53377     96.1 9.775e+03 1.110e-10
 81.56176     97.6 9.744e+03 1.112e-10
 81.58272     98.3 9.754e+03 1.197e-10
 81.61764    100.1 9.726e+03 1.252e-10
 81.65764    102.0 9.735e+03 1.362e-10
 81.67860    102.6 9.745e+03 1.431e-10
 81.70150    104.4 9.758e+03 1.466e-10
 81.74344    106.2 9.746e+03 1.461e-10
 81.77449    107.9 9.698e+03 1.438e-10
 81.79545    108.5 9.691e+03 1.442e-10
 81.82730    110.3 9.633e+03 1.434e-10
 81.86923    112.0 9.622e+03 1.455e-10
 81.89133    113.8 9.614e+03 1.568e-10
 81.89854    114.5 9.559e+03 1.679e-10
 81.91837    114.8 9.576e+03 1.608e-10
 81.95310    116.6 9.657e+03 1.799e-10
 81.98722    118.4 9.784e+03 1.892e-10
 82.00818    119.2 9.839e+03 2.352e-10
 82.03696    120.8 9.903e+03 2.371e-10
 82.07889    122.1 9.920e+03 2.261e-10
 82.10406    123.5 9.916e+03 1.835e-10
 82.12503    124.2 9.997e+03 2.250e-10
 82.16276    125.4 9.871e+03 1.565e-10
 82.19995    126.4 9.674e+03 1.079e-10
 82.22091    127.1 9.709e+03 1.246e-10
 82.24662    128.2 9.606e+03 1.112e-10
 82.28856    129.4 9.627e+03 1.149e-10
 82.31679    130.4 9.745e+03 1.408e-10
 82.33776    130.9 9.783e+03 1.514e-10
 82.37242    131.3 1.019e+04 2.529e-10
 82.41268    131.0 1.099e+04 5.327e-10
 82.43364    130.4 1.133e+04 6.597e-10
 82.45628    129.7 1.226e+04 1.246e-09
 82.49822    128.8 1.255e+04 1.379e-09
 82.52952    127.2 1.240e+04 1.159e-09
 82.55049    126.0 1.239e+04 1.050e-09
 82.58208    124.2 1.152e+04 5.077e-10
 82.62401    122.6 1.057e+04 2.986e-10
 82.64637    122.4 1.046e+04 2.932e-10
 82.66734    122.4 1.025e+04 2.308e-10
 82.70788    123.5 1.032e+04 2.709e-10
 82.74225    124.5 1.060e+04 3.850e-10
 82.76322    125.5 1.056e+04 3.751e-10
 82.79174    126.8 1.103e+04 5.858e-10
 82.83367    127.9 1.142e+04 7.900e-10
 82.85910    128.7 1.167e+04 8.516e-10
 82.88007    129.6 1.161e+04 8.021e-10
 82.91754    129.7 1.170e+04 7.880e-10
 82.94889    130.0 1.150e+04 6.566e-10
 82.96527    130.0 1.149e+04 5.973e-10
 82.97575    130.6 1.134e+04 5.189e-10
 82.99073    130.0 1.149e+04 5.372e-10
 83.01169    129.2 1.164e+04 5.934e-10
 83.02369    128.4 1.177e+04 6.821e-10
 83.03418    129.0 1.162e+04 6.062e-10
 83.05362    128.4 1.170e+04 7.158e-10
 83.06596    127.9 1.182e+04 8.298e-10
 83.07348    128.9 1.148e+04 6.355e-10
 83.08212    129.7 1.134e+04 5.945e-10
 83.09556    129.3 1.149e+04 7.269e-10
 83.11652    128.9 1.176e+04 8.620e-10
 83.13006    128.3 1.206e+04 1.024e-09
 83.14054    129.4 1.190e+04 9.704e-10
 83.15845    128.7 1.221e+04 1.146e-09
 83.17800    128.2 1.239e+04 1.374e-09
 83.18848    129.2 1.231e+04 1.297e-09
 83.20039    128.7 1.235e+04 1.443e-09
 83.22135    128.4 1.229e+04 1.443e-09
 83.23642    128.5 1.207e+04 1.386e-09
 83.24691    129.1 1.206e+04 1.323e-09
 83.26328    129.2 1.175e+04 1.158e-09
 83.28425    129.4 1.139e+04 8.900e-10
 83.29485    129.4 1.102e+04 6.008e-10
 83.30533    129.6 1.104e+04 6.293e-10
 83.32618    129.2 1.069e+04 4.109e-10
 83.34279    128.6 1.041e+04 3.036e-10
 83.35327    128.7 1.044e+04 3.329e-10
 83.37870    128.8 1.010e+04 2.585e-10
 83.40141    128.8 9.757e+03 2.397e-10
 83.42237    128.9 9.912e+03 2.897e-10
 83.46266    129.1 9.876e+03 2.960e-10
 83.49729    129.6 9.853e+03 3.421e-10
 83.51826    129.4 1.000e+04 3.963e-10
 83.54652    130.0 1.012e+04 4.824e-10
 83.58846    130.1 1.014e+04 5.026e-10
 83.61414    130.1 1.000e+04 4.624e-10
 83.63510    129.7 9.881e+03 4.173e-10
 83.67232    129.9 9.417e+03 2.929e-10
 83.71002    130.1 8.924e+03 1.809e-10
 83.73099    130.1 8.932e+03 1.894e-10
 83.75618    130.5 8.525e+03 1.157e-10
 83.79812    130.8 8.149e+03 7.511e-11
 83.82687    131.4 7.956e+03 6.898e-11
 83.84783    132.1 8.075e+03 8.195e-11
 83.88198    133.2 8.057e+03 8.221e-11
 83.92275    134.4 8.054e+03 8.572e-11
 83.94371    135.0 8.204e+03 1.034e-10
 83.96585    136.1 8.253e+03 1.174e-10
 84.00778    137.1 8.484e+03 1.591e-10
 84.03960    138.0 8.926e+03 2.439e-10
 84.06056    138.4 9.038e+03 2.537e-10
 84.09164    138.5 9.560e+03 3.976e-10
 84.13357    138.1 1.021e+04 6.400e-10
 84.15644    137.2 1.097e+04 1.021e-09
 84.17741    137.0 1.089e+04 9.580e-10
 84.21393    135.6 1.144e+04 1.307e-09
 84.23490    133.1 1.149e+04 1.324e-09
 84.25233    130.9 1.146e+04 1.290e-09
 84.27319    130.7 1.133e+04 1.214e-09
 84.30121    129.0 1.098e+04 1.013e-09
 84.34324    126.9 1.044e+04 7.529e-10
 84.36917    125.2 9.835e+03 5.406e-10
 84.39014    125.3 1.000e+04 6.088e-10
 84.42710    123.8 9.614e+03 4.853e-10
 84.46506    122.7 9.311e+03 3.920e-10
 84.48602    122.5 9.622e+03 4.820e-10
 84.51096    121.6 9.465e+03 4.246e-10
 84.55290    121.1 9.486e+03 4.257e-10
 84.58190    120.7 9.658e+03 4.606e-10
 84.60287    120.1 9.891e+03 5.667e-10
 84.63676    120.0 1.025e+04 6.641e-10
 84.66811    119.6 1.050e+04 7.540e-10
 84.68807    119.3 1.079e+04 8.734e-10
 84.69865    119.1 1.067e+04 7.851e-10
 84.71005    118.7 1.097e+04 9.077e-10
 84.73091    118.6 1.121e+04 1.039e-09
 84.74650    118.4 1.146e+04 1.073e-09
 84.75698    117.9 1.115e+04 8.726e-10
 84.77285    117.6 1.119e+04 8.761e-10
 84.79381    117.0 1.133e+04 9.005e-10
 84.80492    116.5 1.140e+04 9.322e-10
 84.81550    115.1 1.141e+04 9.140e-10
 84.84642    113.4 1.197e+04 1.245e-09
 84.88836    111.6 1.251e+04 1.622e-09
 84.91148    110.3 1.265e+04 1.685e-09
 84.93245    107.8 1.232e+04 1.277e-09
 84.97222    106.0 1.182e+04 6.923e-10
 85.00736    103.0 1.063e+04 3.009e-10
 85.02833     99.2 9.838e+03 2.500e-10
 85.05608     97.9 9.544e+03 2.373e-10
 85.09802     97.6 9.490e+03 2.343e-10
 85.12421     97.8 9.484e+03 2.276e-10
 85.14518     97.1 9.417e+03 1.962e-10
 85.18188     97.4 9.392e+03 1.581e-10
 85.22009     97.4 9.323e+03 1.239e-10
 85.24106     96.6 9.232e+03 1.198e-10
 85.26575     96.8 9.100e+03 1.089e-10
 85.30768     97.4 8.968e+03 1.085e-10
 85.33694     98.2 8.921e+03 1.089e-10
 85.35791     98.3 9.002e+03 1.222e-10
 85.38268     99.3 8.942e+03 1.255e-10
 85.40364     99.5 9.002e+03 1.289e-10
 85.43282    100.6 8.964e+03 1.317e-10
 85.45379    100.7 9.020e+03 1.406e-10
 85.47541    101.9 9.010e+03 1.482e-10
 85.51734    103.1 8.993e+03 1.516e-10
 85.54967    104.2 8.986e+03 1.539e-10
 85.57064    104.3 9.180e+03 2.052e-10
 85.60120    105.1 9.288e+03 2.412e-10
 85.64314    105.8 9.500e+03 3.022e-10
 85.66652    106.5 9.728e+03 3.949e-10
 85.68748    106.8 1.035e+04 6.645e-10
 85.72700    107.3 1.047e+04 7.242e-10
 85.76240    107.4 1.041e+04 6.908e-10
 85.78337    107.2 1.073e+04 8.195e-10
 85.81086    107.2 1.030e+04 6.061e-10
 85.85280    107.1 9.733e+03 3.879e-10
 85.87925    106.8 9.194e+03 2.358e-10
 85.90021    106.0 9.236e+03 2.462e-10
 85.93666    105.7 8.806e+03 1.607e-10
 85.97513    105.6 8.457e+03 1.248e-10
 85.99610    105.0 8.637e+03 1.571e-10
 86.02053    105.6 8.417e+03 1.334e-10
 86.06246    106.5 8.393e+03 1.330e-10
 86.09198    107.4 8.411e+03 1.386e-10
 86.11294    106.2 8.543e+03 1.547e-10
 86.14632    106.7 8.634e+03 1.761e-10
 86.18786    106.9 8.884e+03 2.377e-10
 86.20883    105.5 9.122e+03 3.186e-10
 86.23019    106.1 9.351e+03 4.282e-10
 86.27212    106.7 9.466e+03 4.923e-10
 86.30471    107.3 9.455e+03 4.922e-10
 86.32567    106.6 9.170e+03 4.150e-10
 86.35598    107.5 8.891e+03 3.368e-10
 86.39792    108.4 8.530e+03 2.486e-10
 86.42155    109.5 8.135e+03 1.711e-10
 86.44252    109.2 7.797e+03 1.266e-10
 86.48178    110.6 7.569e+03 9.602e-11
 86.51744    112.2 7.399e+03 7.389e-11
 86.53840    112.4 7.289e+03 6.485e-11
 86.55142    114.2 7.185e+03 5.496e-11
 86.57239    114.3 7.215e+03 5.572e-11
 86.60758    116.2 7.130e+03 4.929e-11
 86.63428    118.1 7.117e+03 4.879e-11
 86.65525    118.4 7.054e+03 4.638e-11
 86.69144    120.4 7.079e+03 4.810e-11
 86.73017    122.4 7.156e+03 5.263e-11
 86.75113    122.4 7.181e+03 5.593e-11
 86.77531    124.1 7.313e+03 6.828e-11
 86.81724    125.7 7.498e+03 9.060e-11
 86.84701    127.3 7.742e+03 1.273e-10
 86.86798    127.1 7.864e+03 1.508e-10
 86.90110    128.7 8.114e+03 1.973e-10
 86.94290    130.2 8.376e+03 2.503e-10
 86.98483    131.0 8.418e+03 2.356e-10
 87.02690    131.9 8.531e+03 2.508e-10
 87.05974    132.5 8.633e+03 2.685e-10
 87.08071    131.5 8.374e+03 2.021e-10
 87.11076    132.3 8.546e+03 2.423e-10
 87.15270    133.2 8.714e+03 2.880e-10
 87.17659    134.2 8.875e+03 3.269e-10
 87.19756    133.7 8.676e+03 2.661e-10
 87.23656    134.5 8.786e+03 2.721e-10
 87.27247    135.1 8.890e+03 2.749e-10
 87.29344    134.0 8.874e+03 2.720e-10
 87.32043    134.1 9.063e+03 2.965e-10
 87.36236    133.9 9.284e+03 3.281e-10
 87.38932    133.7 9.561e+03 3.844e-10
 87.41029    132.7 1.009e+04 5.838e-10
 87.44622    132.9 1.040e+04 6.941e-10
 87.48520    132.9 1.045e+04 7.017e-10
 87.50617    132.1 1.056e+04 7.502e-10
 87.53009    132.3 1.026e+04 5.923e-10
 87.57202    132.6 9.745e+03 3.904e-10
 87.60205    132.9 9.036e+03 2.351e-10
 87.62302    132.0 8.650e+03 1.791e-10
 87.65588    132.5 8.273e+03 1.459e-10
 87.69782    133.8 8.265e+03 1.462e-10
 87.72017    135.0 8.281e+03 1.528e-10
 87.74114    135.2 8.486e+03 1.724e-10
 87.78168    136.9 8.758e+03 2.138e-10
 87.81478    138.2 9.115e+03 2.807e-10
 87.83575    136.6 9.277e+03 3.081e-10
 87.86554    137.3 9.416e+03 3.588e-10
 87.89690    137.9 9.484e+03 3.864e-10
 87.91776    138.3 9.699e+03 4.484e-10
 87.93143    138.8 9.987e+03 5.391e-10
 87.94192    137.9 9.882e+03 5.247e-10
 87.95970    138.4 9.968e+03 5.688e-10
 87.97937    139.0 1.005e+04 6.099e-10
 87.98986    138.2 9.859e+03 5.297e-10
 88.00163    138.6 9.826e+03 5.116e-10
 88.02260    139.2 9.780e+03 4.798e-10
 88.03780    139.8 9.830e+03 4.622e-10
 88.04828    137.8 9.465e+03 3.092e-10
 88.06453    137.9 9.521e+03 3.141e-10
 88.08549    137.2 9.899e+03 3.505e-10
 88.09622    133.8 1.154e+04 5.891e-10
 88.10670    132.8 1.067e+04 4.610e-10
 88.12743    127.8 1.273e+04 1.297e-09
 88.14416    123.5 1.557e+04 4.347e-09
 88.15465    122.8 1.584e+04 5.143e-09
 88.16936    121.1 1.801e+04 1.164e-08
 88.19032    118.8 1.948e+04 1.504e-08
 88.20259    115.3 1.965e+04 1.429e-08
 88.21307    114.2 1.895e+04 1.150e-08
 88.23226    110.6 1.826e+04 7.617e-09
 88.25053    106.4 1.623e+04 3.663e-09
 88.26101    105.6 1.530e+04 3.135e-09
 88.27419    101.8 1.263e+04 1.608e-09
 88.29386     99.0 1.061e+04 9.541e-10
 88.30435     98.5 1.027e+04 7.857e-10
 88.32670     98.1 9.763e+03 5.555e-10
 88.35709     97.8 9.146e+03 3.244e-10
 88.36747     99.2 9.759e+03 4.507e-10
 88.37902     99.3 9.352e+03 3.541e-10
 88.39999     99.5 9.215e+03 3.129e-10
 88.41532    100.0 9.089e+03 2.947e-10
 88.42580    100.6 9.962e+03 4.145e-10
 88.44192    101.0 1.004e+04 4.162e-10
 88.46288    101.8 1.020e+04 4.231e-10
 88.47374    102.8 1.029e+04 4.289e-10
 88.48422    101.8 1.270e+04 1.021e-09
 88.50482    103.2 1.273e+04 1.017e-09
 88.52168    104.8 1.276e+04 9.903e-10
 88.53216    104.7 1.323e+04 2.077e-09
 88.54675    106.7 1.328e+04 1.966e-09
 88.56771    109.0 1.336e+04 1.825e-09
 88.58011    111.5 1.352e+04 1.637e-09
 88.59059    111.7 1.349e+04 2.541e-09
 88.60965    114.2 1.366e+04 2.537e-09
 88.62805    118.0 1.466e+04 2.683e-09
 88.63853    117.0 1.455e+04 3.169e-09
 88.64629    119.3 1.514e+04 3.325e-09
 88.65672    121.6 1.561e+04 3.477e-09
 88.66240    124.2 1.634e+04 3.681e-09
 88.66764    123.1 1.651e+04 3.951e-09
 88.67769    123.0 1.971e+04 4.568e-09
 88.68637    117.4 3.946e+04 7.963e-09
 88.69161    115.5 2.863e+04 7.135e-09
 88.69866    108.9 4.738e+04 1.170e-08
 88.70649     99.3 5.736e+04 2.521e-08
 88.71171     98.3 3.289e+04 6.390e-07
 88.71554     99.3 1.995e+04 8.447e-06
 88.71816     92.2 3.532e+04 7.645e-07
 88.72219     94.5 2.209e+04 6.682e-06
 88.72744     93.3 1.870e+04 1.854e-05
 88.73014     90.1 1.788e+04 2.733e-05
 88.73276     74.1 4.375e+04 3.311e-07
 88.73724     60.0 4.397e+04 3.170e-07
 88.73986     73.3 3.273e+04 1.900e-06
 88.74213     53.8 3.916e+04 6.437e-07
 88.74477     49.5 3.958e+04 8.222e-08
 88.75107     30.0 3.620e+04 1.477e-07
 88.76155     19.9 3.154e+04 3.362e-07
 88.76877     16.0 2.695e+04 5.432e-07
 88.77401     17.4 3.386e+04 8.583e-08
 88.78252     15.6 3.301e+04 1.080e-07
 88.79274     15.3 3.182e+04 1.251e-07
 88.79798     13.4 2.686e+04 4.266e-08
 88.80349     12.0 2.658e+04 4.013e-08
 88.81397     11.4 2.569e+04 3.600e-08
 88.82195     11.0 2.517e+04 3.376e-08
 88.82719     10.4 2.355e+04 2.044e-08
 88.83494     10.2 2.307e+04 1.815e-08
 88.84542     10.2 2.341e+04 1.685e-08
 88.85116     10.4 2.398e+04 1.588e-08
 88.85640      8.6 2.180e+04 8.559e-09
 88.86638      8.1 2.165e+04 7.876e-09
 88.87513      7.0 2.147e+04 6.934e-09
 88.88037      5.1 1.949e+04 4.432e-09
 88.88338      4.7 1.932e+04 4.210e-09
 88.88862      5.5 2.081e+04 4.991e-09
 88.89783      3.8 2.069e+04 5.027e-09
 88.90434      3.2 2.000e+04 4.618e-09
 88.90963      1.2 1.729e+04 2.959e-09
 88.91885     -0.8 1.642e+04 3.199e-09
 88.92831     -2.0 1.575e+04 3.202e-09
 88.93356     -2.1 1.503e+04 2.698e-09
 88.93977     -3.5 1.484e+04 3.145e-09
 88.95025     -3.9 1.470e+04 3.152e-09
 88.95753     -4.5 1.450e+04 3.354e-09
 88.96277     -3.8 1.435e+04 3.249e-09
 88.97122     -3.8 1.430e+04 3.274e-09
 88.98150     -3.6 1.413e+04 3.040e-09
 88.98674     -3.1 1.403e+04 2.982e-09
 88.99218     -3.2 1.405e+04 2.987e-09
 89.00266     -3.3 1.470e+04 2.639e-09
 89.01071     -4.3 1.589e+04 2.942e-09
 89.01595     -1.7 1.387e+04 2.377e-09
 89.02363     -3.7 1.652e+04 2.326e-09
 89.03411     -4.6 1.856e+04 2.525e-09
 89.03992     -9.1 2.389e+04 4.043e-09
 89.04516     -7.4 2.124e+04 2.773e-09
 89.05508    -13.6 2.796e+04 4.202e-09
 89.06389    -19.8 2.957e+04 9.584e-09
 89.06913    -16.7 2.795e+04 5.400e-09
 89.07605    -20.8 2.715e+04 1.202e-08
 89.08653    -22.3 2.416e+04 2.850e-08
 89.09310    -22.3 2.238e+04 5.603e-08
 89.09834    -19.8 2.482e+04 2.036e-08
 89.10749    -19.2 2.423e+04 3.364e-08
 89.11707    -18.8 2.380e+04 4.081e-08
 89.12231    -19.6 2.393e+04 1.370e-08
 89.12846    -19.8 2.381e+04 1.540e-08
 89.13894    -19.1 2.290e+04 1.443e-08
 89.14628    -19.7 2.236e+04 1.030e-08
 89.15153    -20.6 2.134e+04 6.968e-09
 89.15991    -21.5 2.174e+04 5.740e-09
 89.17030    -29.5 1.816e+04 3.909e-09
 89.18084    -27.5 1.731e+04 2.146e-09
 89.19670    -34.9 1.695e+04 1.919e-09
 89.21766    -41.8 1.675e+04 3.038e-09
 89.22878    -45.0 1.752e+04 6.496e-09
 89.23926    -44.2 1.584e+04 3.412e-09
 89.25960    -45.8 1.682e+04 6.097e-09
 89.27527    -46.2 1.732e+04 7.521e-09
 89.28186    -47.3 1.772e+04 8.144e-09
 89.28715    -46.9 1.685e+04 6.323e-09
 89.30153    -49.4 1.724e+04 7.013e-09
 89.32250    -52.8 1.708e+04 6.558e-09
 89.33514    -56.5 1.588e+04 4.294e-09
 89.34562    -55.4 1.568e+04 4.508e-09
 89.36443    -58.5 1.400e+04 2.629e-09
 89.38308    -60.7 1.252e+04 1.569e-09
 89.39357    -59.3 1.232e+04 1.515e-09
 89.40636    -61.2 1.136e+04 9.345e-10
 89.42733    -62.7 1.116e+04 7.303e-10
 89.44151    -64.1 1.116e+04 7.007e-10
 89.45199    -63.8 1.074e+04 6.152e-10
 89.46261    -66.3 1.140e+04 6.643e-10
 89.47309    -67.5 1.210e+04 8.793e-10
 89.48945    -70.5 1.340e+04 1.605e-09
 89.49993    -70.4 1.318e+04 1.562e-09
 89.51119    -71.9 1.435e+04 2.935e-09
 89.53216    -72.2 1.517e+04 4.809e-09
 89.54787    -72.1 1.560e+04 6.390e-09
 89.55835    -71.2 1.554e+04 5.193e-09
 89.57409    -71.5 1.567e+04 5.456e-09
 89.59505    -72.0 1.544e+04 5.247e-09
 89.60630    -72.4 1.463e+04 4.038e-09
 89.61678    -72.7 1.453e+04 2.836e-09
 89.63699    -74.0 1.375e+04 2.252e-09
 89.65424    -75.3 1.313e+04 1.956e-09
 89.66472    -76.1 1.322e+04 1.625e-09
 89.67892    -76.7 1.328e+04 1.745e-09
 89.69989    -77.2 1.348e+04 1.978e-09
 89.71266    -77.5 1.366e+04 2.228e-09
 89.72314    -77.7 1.405e+04 2.398e-09
 89.74182    -77.6 1.445e+04 2.759e-09
 89.76060    -77.5 1.454e+04 2.889e-09
 89.77108    -77.8 1.459e+04 3.303e-09
 89.78375    -77.6 1.464e+04 3.299e-09
 89.80472    -77.3 1.433e+04 2.771e-09
 89.81903    -77.3 1.348e+04 2.065e-09
 89.82951    -77.2 1.364e+04 2.594e-09
 89.84665    -77.9 1.282e+04 1.825e-09
 89.86697    -78.9 1.213e+04 1.390e-09
 89.87745    -79.5 1.315e+04 2.047e-09
 89.88858    -81.1 1.306e+04 1.900e-09
 89.90955    -82.8 1.313e+04 1.890e-09
 89.92539    -84.8 1.339e+04 2.072e-09
 89.93587    -85.5 1.384e+04 3.442e-09
 89.95148    -86.7 1.384e+04 3.880e-09
 89.97245    -87.6 1.379e+04 4.171e-09
 89.98381    -88.4 1.378e+04 4.247e-09
 89.99430    -87.1 1.420e+04 4.884e-09
 90.01438    -87.8 1.404e+04 4.689e-09
 90.03175    -88.8 1.379e+04 4.000e-09
 90.04224    -88.6 1.379e+04 3.112e-09
 90.04698    -90.6 1.321e+04 2.458e-09
 90.05747    -91.3 1.313e+04 2.384e-09
 90.07728    -93.4 1.235e+04 1.848e-09
 90.09018    -95.1 1.163e+04 1.412e-09
 90.10066    -95.2 1.140e+04 1.295e-09
 90.11921    -96.1 1.100e+04 1.106e-09
 90.13812    -96.9 1.065e+04 8.930e-10
 90.14860    -96.3 1.070e+04 9.969e-10
 90.16114    -96.9 1.044e+04 8.158e-10
 90.18211    -97.6 1.021e+04 6.047e-10
 90.19654    -98.4 9.968e+03 4.141e-10
 90.20703    -97.3 1.035e+04 6.960e-10
 90.22404    -97.8 1.013e+04 5.452e-10
 90.24448    -98.4 9.914e+03 4.291e-10
 90.25497    -98.1 1.039e+04 5.801e-10
 90.26597    -98.9 1.019e+04 4.604e-10
 90.28694    -99.9 9.962e+03 3.858e-10
 90.30291   -100.9 9.762e+03 3.531e-10
 90.31339   -100.2 1.034e+04 6.055e-10
 90.32887   -101.3 1.025e+04 5.917e-10
 90.34984   -102.1 1.021e+04 6.031e-10
 90.36133   -102.6 1.037e+04 6.944e-10
 90.37182   -102.3 1.069e+04 7.774e-10
 90.39177   -102.6 1.078e+04 8.376e-10
 90.40937   -102.9 1.085e+04 8.767e-10
 90.41985   -103.2 1.105e+04 9.336e-10
 90.43370   -103.5 1.104e+04 9.297e-10
 90.46525   -103.7 1.101e+04 8.886e-10
 90.50535   -103.7 1.074e+04 8.397e-10
 90.52622   -103.7 1.028e+04 5.784e-10
 90.53853   -103.4 1.002e+04 5.286e-10
 90.55950   -102.9 9.797e+03 4.850e-10
 90.59104   -102.2 9.458e+03 4.359e-10
 90.62220   -101.5 9.262e+03 3.940e-10
 90.64316   -101.6 9.100e+03 3.442e-10
 90.67501   -100.3 8.889e+03 3.204e-10
 90.71694    -98.9 8.829e+03 3.160e-10
 90.73905    -97.6 8.825e+03 3.326e-10
 90.76001    -97.2 8.917e+03 3.417e-10
 90.80080    -96.0 9.242e+03 4.485e-10
 90.83215    -95.1 9.532e+03 5.627e-10
 90.84522    -94.5 9.686e+03 6.315e-10
 90.85580    -95.1 9.758e+03 5.688e-10
 90.88467    -93.8 1.017e+04 7.522e-10
 90.92660    -92.6 1.052e+04 9.336e-10
 90.95178    -91.5 1.074e+04 1.036e-09
 90.97274    -93.2 1.178e+04 1.477e-09
 90.99962    -92.1 1.160e+04 1.416e-09
 91.01000    -93.1 1.230e+04 1.870e-09
 91.02075    -92.7 1.248e+04 2.023e-09
 91.04172    -92.4 1.278e+04 2.282e-09
 91.05795    -92.3 1.315e+04 2.637e-09
 91.06843    -92.8 1.403e+04 4.021e-09
 91.08365    -92.5 1.439e+04 4.964e-09
 91.10462    -92.1 1.479e+04 6.234e-09
 91.11637    -91.5 1.526e+04 7.742e-09
 91.12685    -91.5 1.537e+04 8.753e-09
 91.14655    -90.8 1.565e+04 1.010e-08
 91.16431    -90.6 1.573e+04 1.051e-08
 91.17479    -89.9 1.545e+04 8.523e-09
 91.18848    -89.7 1.546e+04 8.698e-09
 91.20525    -89.8 1.536e+04 8.631e-09
 91.21573    -89.6 1.544e+04 8.687e-09
 91.22273    -90.0 1.541e+04 8.330e-09
 91.23322    -90.9 1.607e+04 3.578e-09
 91.25138    -92.2 1.598e+04 4.161e-09
 91.27067    -93.5 1.600e+04 5.092e-09
 91.28116    -97.7 1.440e+04 1.630e-09
 91.29331    -98.4 1.499e+04 2.619e-09
 91.31428    -98.8 1.562e+04 4.175e-09
 91.32910    -98.9 1.616e+04 6.251e-09
 91.33958   -100.5 1.450e+04 3.115e-09
 91.35621   -100.0 1.548e+04 4.767e-09
 91.37704    -99.1 1.603e+04 6.543e-09
 91.38752    -99.3 1.405e+04 2.333e-09
 91.39814    -98.6 1.455e+04 2.737e-09
 91.41911    -98.0 1.476e+04 3.033e-09
 91.43546    -97.4 1.487e+04 3.261e-09
 91.44595    -99.2 1.201e+04 9.827e-10
 91.46104    -98.9 1.243e+04 1.020e-09
 91.48201    -98.5 1.296e+04 1.140e-09
 91.49389    -98.2 1.342e+04 1.313e-09
 91.50437    -99.4 1.021e+04 4.982e-10
 91.52394    -99.3 1.084e+04 5.680e-10
 91.54183    -99.5 1.164e+04 7.123e-10
 91.55231    -99.4 9.799e+03 4.418e-10
 91.56587    -99.8 1.034e+04 5.295e-10
 91.58684   -100.4 1.100e+04 7.272e-10
 91.60025   -100.5 1.167e+04 1.113e-09
 91.61074    -99.7 1.043e+04 6.779e-10
 91.62877    -99.5 1.093e+04 9.323e-10
 91.64819    -99.1 1.131e+04 1.213e-09
 91.65868    -98.0 1.025e+04 7.222e-10
 91.67070    -97.3 1.046e+04 8.285e-10
 91.69167    -96.4 1.054e+04 8.832e-10
 91.70662    -95.5 1.053e+04 8.946e-10
 91.71710    -94.9 9.743e+03 5.189e-10
 91.73360    -94.0 9.713e+03 4.997e-10
 91.75456    -93.1 9.585e+03 4.560e-10
 91.77552    -92.3 9.005e+03 2.778e-10
 91.78962    -91.3 8.850e+03 2.469e-10
 91.80010    -91.8 8.737e+03 2.249e-10
 91.81298    -91.0 8.700e+03 2.125e-10
 91.82356    -90.9 8.443e+03 1.771e-10
 91.84911    -88.9 8.294e+03 1.523e-10
 91.89104    -86.8 8.272e+03 1.423e-10
 91.91954    -84.6 8.316e+03 1.416e-10
 91.94051    -83.0 7.840e+03 9.848e-11
 91.97491    -80.9 8.018e+03 1.015e-10
 92.01542    -79.0 8.482e+03 1.376e-10
 92.03639    -77.8 8.060e+03 1.061e-10
 92.05877    -75.8 8.411e+03 1.488e-10
 92.10070    -73.6 8.800e+03 2.149e-10
 92.13227    -71.3 9.127e+03 2.850e-10
 92.15324    -70.0 8.867e+03 2.453e-10
 92.18457    -67.7 9.131e+03 2.942e-10
 92.22650    -65.4 9.219e+03 3.082e-10
 92.24912    -63.1 9.267e+03 2.989e-10
 92.27009    -62.0 9.565e+03 3.597e-10
 92.31036    -59.9 9.737e+03 3.686e-10
 92.34500    -58.4 1.002e+04 3.714e-10
 92.36597    -57.2 1.113e+04 7.397e-10
 92.37409    -57.2 1.114e+04 6.982e-10
 92.38448    -57.4 1.159e+04 8.144e-10
 92.40323    -57.4 1.194e+04 9.848e-10
 92.41371    -57.2 1.265e+04 1.285e-09
 92.42548    -57.6 1.339e+04 1.888e-09
 92.44645    -58.1 1.394e+04 2.973e-09
 92.46165    -58.1 1.470e+04 4.469e-09
 92.47214    -58.5 1.713e+04 7.595e-09
 92.48838    -58.9 1.812e+04 1.098e-08
 92.50935    -60.7 1.977e+04 1.376e-08
 92.52008    -65.6 2.206e+04 1.461e-08
 92.52527    -64.7 2.136e+04 2.590e-08
 92.53546    -68.2 2.238e+04 2.599e-08
 92.54395    -72.4 2.399e+04 2.514e-08
 92.54919    -73.3 2.337e+04 3.022e-08
 92.55642    -77.6 2.486e+04 2.894e-08
 92.56691    -81.1 2.530e+04 2.848e-08
 92.57316    -83.4 2.503e+04 2.768e-08
 92.57840    -83.9 2.418e+04 3.263e-08
 92.58787    -84.8 2.336e+04 3.036e-08
 92.59713    -85.2 2.311e+04 2.349e-08
 92.60237    -85.3 2.293e+04 2.490e-08
 92.61413    -85.7 2.282e+04 1.733e-08
 92.62644    -85.9 2.183e+04 1.051e-08
 92.63693    -86.7 2.043e+04 1.463e-08
 92.65611    -86.9 2.060e+04 9.580e-09
 92.67438    -87.4 2.012e+04 4.732e-09
 92.68487    -87.2 1.927e+04 1.175e-08
 92.69804    -87.4 1.948e+04 6.351e-09
 92.71901    -88.0 1.806e+04 2.803e-09
 92.73281    -88.4 1.481e+04 1.356e-09
 92.74329    -87.3 1.709e+04 3.291e-09
 92.76094    -87.7 1.489e+04 1.617e-09
 92.78075    -87.7 1.241e+04 9.117e-10
 92.79123    -87.1 1.449e+04 1.763e-09
 92.80287    -86.8 1.305e+04 1.121e-09
 92.82384    -86.5 1.161e+04 7.930e-10
 92.83917    -86.3 1.112e+04 6.681e-10
 92.84966    -86.5 1.238e+04 1.065e-09
 92.86577    -86.6 1.207e+04 9.473e-10
 92.88674    -86.6 1.204e+04 8.851e-10
 92.89760    -86.6 1.201e+04 8.259e-10
 92.90808    -87.6 1.342e+04 1.978e-09
 92.92867    -87.5 1.317e+04 1.927e-09
 92.94554    -87.2 1.281e+04 1.653e-09
 92.95427    -87.3 1.363e+04 3.077e-09
 92.95837    -87.0 1.344e+04 2.724e-09
 92.97060    -86.5 1.280e+04 1.960e-09
 92.99157    -86.4 1.205e+04 1.353e-09
 93.00396    -86.2 1.135e+04 9.758e-10
 93.01444    -85.3 1.182e+04 1.336e-09
 93.03350    -85.4 1.106e+04 8.586e-10
 93.05190    -85.4 1.044e+04 5.839e-10
 93.06238    -85.2 1.042e+04 5.862e-10
 93.07543    -85.0 9.951e+03 4.273e-10
 93.09994    -84.7 9.586e+03 3.222e-10
 93.12100    -84.5 9.554e+03 3.087e-10
 93.14901    -83.0 9.017e+03 2.006e-10
 93.19094    -81.1 8.546e+03 1.283e-10
 93.21689    -79.7 8.431e+03 1.006e-10
 93.23785    -79.0 8.455e+03 1.009e-10
 93.27481    -77.6 8.436e+03 9.753e-11
 93.31277    -76.1 8.445e+03 9.831e-11
 93.33373    -75.6 8.530e+03 1.219e-10
 93.35867    -74.3 8.629e+03 1.508e-10
 93.40060    -73.0 8.738e+03 1.759e-10
 93.42962    -71.8 8.848e+03 1.909e-10
 93.45058    -71.2 9.199e+03 2.948e-10
 93.48447    -70.2 9.237e+03 2.978e-10
 93.52197    -69.3 9.282e+03 2.927e-10
 93.54203    -69.3 9.250e+03 2.823e-10
 93.54646    -68.8 9.505e+03 3.685e-10
 93.56833    -67.9 9.438e+03 3.230e-10
 93.61026    -67.1 9.441e+03 3.105e-10
 93.64235    -66.4 9.562e+03 3.170e-10
 93.66331    -65.6 9.426e+03 2.906e-10
 93.69413    -64.8 9.541e+03 2.983e-10
 93.73606    -64.0 9.673e+03 3.332e-10
 93.75919    -63.1 9.688e+03 3.537e-10
 93.78016    -62.2 9.975e+03 3.810e-10
 93.81992    -61.5 1.003e+04 3.978e-10
 93.85507    -60.8 9.993e+03 3.977e-10
 93.87604    -60.2 1.044e+04 5.684e-10
 93.90379    -59.4 1.033e+04 5.506e-10
 93.94572    -58.4 1.013e+04 5.065e-10
 93.97192    -57.3 9.968e+03 4.523e-10
 93.99289    -56.7 1.059e+04 7.596e-10
 94.02959    -55.9 1.057e+04 7.570e-10
 94.06780    -55.3 1.073e+04 8.484e-10
 94.08877    -54.9 1.123e+04 1.139e-09
 94.11345    -54.2 1.169e+04 1.533e-09
 94.15538    -53.4 1.209e+04 1.910e-09
 94.18465    -53.0 1.221e+04 2.016e-09
 94.20562    -52.4 1.181e+04 1.295e-09
 94.23925    -51.7 1.155e+04 1.049e-09
 94.28053    -50.8 1.087e+04 5.954e-10
 94.30150    -51.2 1.021e+04 4.163e-10
 94.32311    -50.1 9.754e+03 2.391e-10
 94.36504    -49.1 9.453e+03 1.394e-10
 94.39738    -47.9 9.278e+03 9.588e-11
 94.41835    -47.5 9.125e+03 1.203e-10
 94.44891    -46.0 9.074e+03 9.940e-11
 94.49084    -44.4 9.088e+03 9.291e-11
 94.51423    -42.9 9.158e+03 9.238e-11
 94.53520    -42.6 9.206e+03 1.111e-10
 94.57471    -41.6 9.475e+03 1.204e-10
 94.61011    -40.9 9.755e+03 1.728e-10
 94.63108    -40.4 9.688e+03 1.836e-10
 94.65857    -39.5 9.932e+03 2.409e-10
 94.69072    -38.8 1.017e+04 3.192e-10
 94.71168    -38.8 1.031e+04 3.446e-10
 94.72696    -38.3 1.062e+04 5.296e-10
 94.74793    -38.0 1.053e+04 4.648e-10
 94.78437    -37.3 1.080e+04 6.214e-10
 94.82284    -36.4 1.095e+04 6.892e-10
 94.84381    -35.9 1.076e+04 5.501e-10
 94.86823    -34.8 1.074e+04 4.942e-10
 94.91016    -33.8 1.072e+04 3.514e-10
 94.93969    -33.3 1.081e+04 2.910e-10
 94.96066    -32.8 1.053e+04 2.004e-10
 94.99403    -32.5 1.066e+04 1.965e-10
 95.03557    -33.2 1.142e+04 3.691e-10
 95.05654    -32.1 1.083e+04 3.026e-10
 95.07789    -31.8 1.147e+04 6.734e-10
 95.11982    -31.0 1.213e+04 1.169e-09
 95.15118    -30.3 1.227e+04 1.325e-09
 95.16271    -30.3 1.225e+04 1.321e-09
 95.17329    -29.6 1.177e+04 9.327e-10
 95.20369    -30.3 1.165e+04 8.953e-10
 95.24562    -30.6 1.111e+04 6.580e-10
 95.26927    -30.5 1.071e+04 5.326e-10
 95.27767    -29.5 1.082e+04 4.901e-10
 95.28538    -29.8 1.092e+04 4.987e-10
 95.29784    -29.6 1.071e+04 4.638e-10
 95.32939    -28.9 1.051e+04 4.148e-10
 95.36515    -28.3 1.036e+04 3.878e-10
 95.38611    -27.3 1.032e+04 3.324e-10
 95.41335    -26.1 1.018e+04 2.995e-10
 95.45528    -25.1 1.007e+04 2.573e-10
 95.48200    -24.4 1.003e+04 2.313e-10
 95.50296    -23.2 1.001e+04 2.321e-10
 95.53915    -22.3 1.002e+04 2.230e-10
 95.57788    -21.7 1.014e+04 2.423e-10
 95.59884    -20.3 1.012e+04 2.453e-10
 95.62301    -19.5 1.024e+04 2.685e-10
 95.66494    -18.9 1.031e+04 3.469e-10
 95.69473    -18.1 1.038e+04 4.524e-10
 95.71569    -17.5 1.057e+04 4.393e-10
 95.74881    -16.8 1.081e+04 6.482e-10
 95.79061    -15.8 1.099e+04 7.659e-10
 95.83254    -14.4 1.157e+04 1.144e-09
 95.85946    -13.7 1.104e+04 7.903e-10
 95.88043    -13.7 1.103e+04 7.610e-10
 95.90746    -13.1 1.048e+04 4.355e-10
 95.92842    -12.5 1.070e+04 4.820e-10
 95.95847    -12.0 1.026e+04 3.097e-10
 96.00040    -11.0 1.011e+04 2.381e-10
 96.02430     -9.8 1.006e+04 1.971e-10
 96.04527     -9.4 1.011e+04 2.111e-10
 96.08427     -8.3 1.007e+04 1.784e-10
 96.12019     -7.3 1.002e+04 1.581e-10
 96.14115     -6.8 1.026e+04 2.079e-10
 96.16813     -6.2 1.021e+04 2.003e-10
 96.21006     -5.5 1.030e+04 2.390e-10
 96.23703     -4.6 1.046e+04 3.005e-10
 96.25800     -3.9 1.079e+04 4.296e-10
 96.29393     -2.9 1.113e+04 4.744e-10
 96.33291     -2.4 1.138e+04 5.108e-10
 96.35388     -2.4 1.138e+04 5.665e-10
 96.37779     -2.1 1.144e+04 6.716e-10
 96.41972     -1.2 1.148e+04 7.590e-10
 96.44976     -0.2 1.134e+04 7.442e-10
 96.47073      0.1 1.123e+04 7.220e-10
 96.50359      1.5 1.090e+04 5.338e-10
 96.54552      3.0 1.050e+04 3.154e-10
 96.58745      4.8 9.830e+03 1.515e-10
 96.62939      6.2 9.685e+03 8.522e-11
 96.66249      7.3 9.704e+03 5.328e-11
 96.68346      7.6 9.439e+03 4.950e-11
 96.71325      8.5 9.307e+03 4.326e-11
 96.75518     10.0 9.426e+03 4.665e-11
 96.77934     10.6 9.740e+03 6.822e-11
 96.80031     11.6 9.238e+03 6.454e-11
 96.83905     12.1 9.765e+03 1.029e-10
 96.87522     10.9 1.124e+04 2.526e-10
 96.89619     12.4 1.030e+04 1.930e-10
 96.92291     11.1 1.102e+04 4.672e-10
 96.94403     10.5 1.227e+04 1.165e-09
 96.95442     11.6 1.143e+04 8.909e-10
 96.97513     10.5 1.248e+04 1.242e-09
 96.99187     10.3 1.413e+04 1.260e-09
 97.00236     10.3 1.357e+04 1.073e-09
 97.01706      7.7 1.455e+04 1.302e-09
 97.02801      4.1 1.496e+04 1.807e-09
 97.03850      3.5 1.489e+04 1.800e-09
 97.05030      1.7 1.344e+04 3.049e-09
 97.06078      1.8 1.361e+04 2.312e-09
 97.07996      1.7 1.369e+04 3.783e-09
 97.09824      3.0 1.391e+04 4.293e-09
 97.10872      2.6 1.389e+04 4.193e-09
 97.12189      3.8 1.404e+04 4.406e-09
 97.14286      4.2 1.385e+04 3.185e-09
 97.15666      3.2 1.345e+04 1.579e-09
 97.16715      4.0 1.351e+04 2.404e-09
 97.18479      2.0 1.293e+04 1.312e-09
 97.20460      0.3 1.201e+04 8.164e-10
 97.21509      1.4 1.245e+04 1.159e-09
 97.22672      0.2 1.185e+04 9.350e-10
 97.24769     -0.4 1.159e+04 8.816e-10
 97.26303     -0.6 1.155e+04 9.027e-10
 97.27351     -0.2 1.184e+04 1.031e-09
 97.28962     -0.3 1.192e+04 1.150e-09
 97.31059     -0.5 1.221e+04 1.332e-09
 97.32155     -0.7 1.248e+04 1.505e-09
 97.34261      0.0 1.241e+04 1.557e-09
 97.38417      0.2 1.241e+04 1.603e-09
 97.41753      1.2 1.194e+04 1.217e-09
 97.43850      1.7 1.152e+04 9.676e-10
 97.46803      2.4 1.090e+04 5.444e-10
 97.50996      3.1 1.042e+04 2.991e-10
 97.53438      3.8 1.012e+04 2.253e-10
 97.55534      5.1 9.947e+03 2.102e-10
 97.59383      6.5 9.902e+03 1.966e-10
 97.63026      8.0 1.004e+04 2.405e-10
 97.65122      9.0 9.901e+03 2.112e-10
 97.67769     10.6 1.009e+04 3.159e-10
 97.71962     12.9 1.040e+04 4.339e-10
 97.74711     14.9 1.067e+04 5.178e-10
 97.76807     15.9 1.064e+04 5.077e-10
 97.80349     17.6 1.088e+04 5.575e-10
 97.84299     18.9 1.097e+04 5.866e-10
 97.86395     19.6 1.118e+04 6.154e-10
 97.88735     20.4 1.141e+04 8.028e-10
 97.92929     22.2 1.145e+04 9.748e-10
 97.95974     23.3 1.153e+04 1.191e-09
 97.98070     24.3 1.235e+04 1.688e-09
 98.00257     25.7 1.216e+04 1.336e-09
 98.01806     26.1 1.218e+04 1.131e-09
 98.02855     26.2 1.267e+04 1.780e-09
 98.04440     26.4 1.267e+04 1.552e-09
 98.06537     26.3 1.258e+04 1.358e-09
 98.07649     26.4 1.246e+04 1.317e-09
 98.08697     26.3 1.310e+04 2.048e-09
 98.10730     26.6 1.304e+04 2.083e-09
 98.12443     27.3 1.304e+04 2.045e-09
 98.13491     27.1 1.356e+04 3.148e-09
 98.14923     28.1 1.370e+04 3.113e-09
 98.17020     28.9 1.384e+04 2.816e-09
 98.18285     29.3 1.381e+04 2.417e-09
 98.18845     29.6 1.432e+04 3.538e-09
 98.19676     29.2 1.494e+04 4.840e-09
 98.21213     28.7 1.493e+04 4.246e-09
 98.23079     28.3 1.465e+04 4.036e-09
 98.24128     28.7 1.474e+04 4.019e-09
 98.25407     28.4 1.453e+04 4.080e-09
 98.27503     28.5 1.437e+04 4.085e-09
 98.28922     29.1 1.428e+04 3.986e-09
 98.29970     28.8 1.418e+04 3.556e-09
 98.31696     28.8 1.416e+04 3.376e-09
 98.33716     28.7 1.402e+04 2.947e-09
 98.34764     28.3 1.363e+04 2.419e-09
 98.35890     28.1 1.342e+04 2.133e-09
 98.37986     28.1 1.313e+04 1.781e-09
 98.39558     28.0 1.285e+04 1.485e-09
 98.40607     28.2 1.262e+04 1.232e-09
 98.42179     27.8 1.254e+04 1.011e-09
 98.44276     27.1 1.232e+04 9.144e-10
 98.45401     26.4 1.213e+04 8.630e-10
 98.46449     26.4 1.198e+04 7.657e-10
 98.48469     26.0 1.193e+04 7.606e-10
 98.50195     25.7 1.193e+04 7.670e-10
 98.51243     25.5 1.193e+04 7.038e-10
 98.52662     24.3 1.225e+04 8.176e-10
 98.54759     20.5 1.361e+04 1.148e-09
 98.56037     15.6 1.505e+04 2.036e-09
 98.57086     13.7 1.516e+04 2.877e-09
 98.58952     12.1 1.511e+04 4.484e-09
 98.60831     11.9 1.530e+04 4.965e-09
 98.61880     11.8 1.536e+04 4.711e-09
 98.63146     11.1 1.522e+04 2.979e-09
 98.65242      8.0 1.393e+04 1.336e-09
 98.68397      1.9 1.139e+04 5.016e-10
 98.71487     -1.1 1.015e+04 2.339e-10
 98.73584     -1.5 1.012e+04 2.450e-10
 98.76793     -1.8 9.745e+03 1.875e-10
 98.80986     -1.7 9.637e+03 1.664e-10
 98.83172     -1.7 9.610e+03 1.566e-10
 98.85269     -1.0 9.707e+03 1.742e-10
 98.89373     -1.1 9.670e+03 1.685e-10
 98.92760     -1.3 9.651e+03 1.730e-10
 98.94857     -0.6 9.763e+03 1.873e-10
 98.97759     -0.7 9.751e+03 2.136e-10
 99.01952     -0.7 9.807e+03 2.428e-10
 99.04445     -0.7 9.857e+03 2.629e-10
 99.06542     -0.8 1.022e+04 3.760e-10
 99.10339     -0.8 1.033e+04 4.547e-10
 99.14033     -0.5 1.037e+04 4.826e-10
 99.16130      0.0 1.098e+04 7.643e-10
 99.17667      0.3 1.068e+04 5.916e-10
 99.19754      0.5 1.064e+04 5.427e-10
 99.22909      0.4 1.034e+04 3.409e-10
 99.25718     -0.9 1.005e+04 2.527e-10
 99.27815     -0.9 1.029e+04 3.322e-10
 99.31305     -1.1 1.023e+04 3.355e-10
 99.34474     -0.7 1.031e+04 4.316e-10
 99.36378     -0.7 1.041e+04 4.501e-10
 99.37403     -0.1 1.058e+04 5.102e-10
 99.39691      0.8 1.069e+04 5.709e-10
 99.43885      1.4 1.067e+04 5.377e-10
 99.46991      1.5 1.044e+04 3.853e-10
 99.49088      1.8 1.049e+04 4.200e-10
 99.52271      1.3 1.024e+04 3.359e-10
 99.56464      1.2 1.011e+04 3.201e-10
 99.58676      1.5 1.006e+04 3.285e-10
 99.60772      2.0 1.001e+04 2.956e-10
 99.64851      2.0 9.953e+03 2.774e-10
 99.68264      1.7 1.003e+04 2.784e-10
 99.70361      1.4 1.001e+04 2.781e-10
 99.73237      0.7 1.025e+04 3.362e-10
 99.77430      0.4 1.033e+04 4.117e-10
 99.79949      0.8 1.033e+04 4.443e-10
 99.82045     -0.1 1.021e+04 3.573e-10
 99.85817     -0.6 1.012e+04 2.935e-10
 99.89537     -1.7 1.001e+04 2.365e-10
 99.91634     -3.0 9.998e+03 2.519e-10
 99.94203     -3.9 9.953e+03 2.430e-10
 99.98397     -4.5 9.985e+03 2.739e-10
