# Columns:
#   distance along LOS (in CHIMPs)
#   peculiar velocity  (in km/s)
#   temperature (K)
#   HI number density
# pos=(203.591,61.3153,68.2484), angles=(1.50761,3.40968)
  0.00221    -21.1 1.137e+04 3.086e-10
  0.00979    -21.1 1.131e+04 2.984e-10
  0.02708    -20.0 1.132e+04 2.981e-10
  0.04738    -20.1 1.128e+04 2.489e-10
  0.07606    -19.0 1.128e+04 2.709e-10
  0.11665    -17.7 1.120e+04 2.962e-10
  0.15724    -16.4 1.114e+04 2.983e-10
  0.18215    -15.1 1.108e+04 2.859e-10
  0.20244    -14.8 1.101e+04 2.200e-10
  0.23842    -13.8 1.097e+04 2.142e-10
  0.27901    -12.7 1.095e+04 2.110e-10
  0.31691    -11.4 1.089e+04 2.005e-10
  0.33721    -11.2 1.091e+04 1.830e-10
  0.36019     -9.9 1.081e+04 1.700e-10
  0.40078     -8.6 1.074e+04 1.385e-10
  0.44137     -7.7 1.073e+04 1.078e-10
  0.47198     -7.0 1.072e+04 9.745e-11
  0.49227     -7.0 1.081e+04 1.060e-10
  0.52255     -6.4 1.080e+04 1.086e-10
  0.56314     -5.8 1.081e+04 1.234e-10
  0.60323     -5.1 1.081e+04 1.485e-10
  0.62352     -5.3 1.079e+04 1.476e-10
  0.62704     -4.4 1.079e+04 1.645e-10
  0.64733     -4.7 1.081e+04 1.656e-10
  0.68491     -4.2 1.084e+04 1.775e-10
  0.72551     -3.7 1.084e+04 1.937e-10
  0.76181     -3.1 1.079e+04 2.176e-10
  0.78210     -3.7 1.070e+04 2.164e-10
  0.80669     -2.9 1.063e+04 2.167e-10
  0.84728     -2.0 1.056e+04 2.070e-10
  0.88787     -1.1 1.054e+04 1.952e-10
  0.91687     -0.2 1.055e+04 1.934e-10
  0.93717     -0.5 1.049e+04 1.916e-10
  0.96905      0.3 1.051e+04 2.145e-10
  1.00964      1.0 1.054e+04 2.587e-10
  1.05023      1.9 1.057e+04 3.026e-10
  1.07193      2.8 1.057e+04 3.191e-10
  1.09223      2.7 1.048e+04 3.123e-10
  1.13141      3.6 1.039e+04 3.033e-10
  1.17200      4.5 1.027e+04 2.727e-10
  1.20670      5.5 1.018e+04 2.319e-10
  1.22700      5.8 1.011e+04 2.226e-10
  1.23726      6.8 1.005e+04 1.859e-10
  1.25755      5.7 1.001e+04 1.842e-10
  1.29377      6.8 9.903e+03 1.621e-10
  1.33436      8.1 9.831e+03 1.601e-10
  1.36176      9.7 9.817e+03 1.607e-10
  1.38206     10.3 9.762e+03 1.551e-10
  1.41554     12.0 9.745e+03 1.545e-10
  1.45613     13.8 9.725e+03 1.512e-10
  1.49653     15.7 9.701e+03 1.448e-10
  1.53712     18.4 9.614e+03 1.333e-10
  1.57791     20.3 9.572e+03 1.327e-10
  1.61850     22.3 9.565e+03 1.340e-10
  1.65159     24.2 9.554e+03 1.403e-10
  1.67189     25.2 9.482e+03 1.358e-10
  1.69968     27.1 9.492e+03 1.489e-10
  1.74027     29.1 9.543e+03 1.705e-10
  1.78086     31.0 9.654e+03 1.982e-10
  1.80666     33.0 9.787e+03 2.296e-10
  1.82695     33.9 9.680e+03 2.273e-10
  1.85099     35.8 9.855e+03 2.682e-10
  1.87128     35.4 1.007e+04 3.256e-10
  1.90263     37.1 1.034e+04 3.983e-10
  1.93298     38.3 1.038e+04 4.236e-10
  1.95138     38.7 1.047e+04 4.559e-10
  1.96152     39.3 1.046e+04 4.879e-10
  1.97347     39.7 1.068e+04 5.974e-10
  1.99376     40.3 1.093e+04 7.347e-10
  2.01406     40.7 1.120e+04 8.842e-10
  2.02891     40.9 1.144e+04 1.045e-09
  2.03906     41.3 1.158e+04 1.136e-09
  2.05465     41.3 1.184e+04 1.325e-09
  2.07494     41.0 1.210e+04 1.532e-09
  2.09524     40.6 1.236e+04 1.758e-09
  2.10644     40.1 1.262e+04 2.032e-09
  2.11659     40.4 1.280e+04 2.151e-09
  2.13583     39.9 1.291e+04 2.319e-09
  2.15613     39.2 1.295e+04 2.396e-09
  2.16781     38.7 1.291e+04 2.371e-09
  2.17536     37.4 1.300e+04 2.470e-09
  2.18397     37.6 1.306e+04 2.550e-09
  2.19672     37.1 1.286e+04 2.333e-09
  2.22726     37.2 1.250e+04 1.968e-09
  2.25155     37.0 1.174e+04 1.422e-09
  2.27185     37.7 1.159e+04 1.362e-09
  2.30854     38.1 1.070e+04 8.568e-10
  2.34913     38.7 9.856e+03 5.301e-10
  2.38632     39.6 9.466e+03 4.112e-10
  2.40661     40.6 9.173e+03 3.394e-10
  2.43031     42.2 9.157e+03 3.389e-10
  2.46472     43.9 9.240e+03 3.658e-10
  2.48502     42.5 9.468e+03 4.326e-10
  2.51149     43.9 9.791e+03 5.440e-10
  2.54138     45.3 1.012e+04 6.823e-10
  2.56168     46.9 9.861e+03 5.891e-10
  2.59267     48.1 1.008e+04 6.855e-10
  2.63326     49.3 1.010e+04 6.885e-10
  2.67385     50.2 9.952e+03 6.105e-10
  2.69644     50.9 9.600e+03 4.741e-10
  2.71674     52.9 9.584e+03 4.700e-10
  2.75503     53.4 9.282e+03 3.758e-10
  2.79562     53.8 9.240e+03 3.618e-10
  2.83121     53.7 9.392e+03 3.894e-10
  2.85141     54.7 9.391e+03 4.003e-10
  2.86646     54.1 9.550e+03 4.719e-10
  2.88676     53.4 9.913e+03 6.128e-10
  2.90705     52.8 1.040e+04 8.419e-10
  2.91869     52.2 1.093e+04 1.158e-09
  2.92884     53.0 1.094e+04 1.161e-09
  2.94764     52.4 1.141e+04 1.524e-09
  2.96794     51.7 1.177e+04 1.797e-09
  2.98608     50.7 1.199e+04 1.830e-09
  2.99623     51.2 1.206e+04 1.898e-09
  3.00853     49.5 1.214e+04 1.871e-09
  3.02882     47.3 1.220e+04 1.824e-09
  3.04912     44.7 1.224e+04 1.824e-09
  3.06361     42.0 1.234e+04 1.880e-09
  3.07376     41.9 1.245e+04 1.961e-09
  3.08841     39.2 1.249e+04 2.003e-09
  3.09855     37.9 1.248e+04 1.978e-09
  3.11000     35.4 1.242e+04 1.897e-09
  3.13030     33.1 1.219e+04 1.756e-09
  3.14114     31.1 1.176e+04 1.535e-09
  3.15129     30.5 1.151e+04 1.423e-09
  3.17089     29.1 1.102e+04 1.161e-09
  3.19118     28.1 1.060e+04 9.217e-10
  3.20853     27.1 1.029e+04 7.165e-10
  3.21867     26.9 1.027e+04 7.072e-10
  3.23177     25.8 1.004e+04 5.906e-10
  3.25207     25.4 9.961e+03 5.745e-10
  3.27237     25.2 1.003e+04 5.965e-10
  3.28606     25.1 1.009e+04 6.137e-10
  3.29620     24.9 1.028e+04 6.926e-10
  3.31296     24.9 1.056e+04 7.962e-10
  3.33325     25.0 1.068e+04 8.427e-10
  3.36379     24.9 1.121e+04 1.065e-09
  3.40448     25.2 1.111e+04 9.709e-10
  3.43117     26.0 1.082e+04 7.954e-10
  3.45146     25.3 1.095e+04 8.721e-10
  3.47542     25.6 1.087e+04 8.211e-10
  3.49561     25.7 1.077e+04 7.855e-10
  3.50850     26.0 1.077e+04 7.895e-10
  3.51865     25.7 1.076e+04 7.909e-10
  3.53620     26.1 1.080e+04 8.218e-10
  3.55650     26.6 1.087e+04 8.621e-10
  3.57589     27.2 1.100e+04 9.152e-10
  3.58603     26.9 1.090e+04 8.468e-10
  3.59709     27.8 1.092e+04 8.251e-10
  3.61738     28.5 1.094e+04 8.109e-10
  3.64793     29.7 1.080e+04 7.095e-10
  3.68861     31.4 1.065e+04 5.849e-10
  3.71248     33.6 1.025e+04 3.884e-10
  3.72457     33.2 1.026e+04 3.820e-10
  3.74129     33.1 9.848e+03 2.521e-10
  3.76979     35.2 9.714e+03 1.787e-10
  3.81039     37.4 9.613e+03 1.348e-10
  3.85098     39.7 9.540e+03 1.199e-10
  3.87606     42.4 9.536e+03 1.199e-10
  3.89636     42.6 9.511e+03 1.170e-10
  3.93216     45.4 9.561e+03 1.209e-10
  3.97275     48.1 9.655e+03 1.320e-10
  4.01083     50.9 9.767e+03 1.529e-10
  4.03112     51.0 9.768e+03 1.540e-10
  4.05393     53.7 9.861e+03 1.802e-10
  4.09452     56.5 9.933e+03 2.064e-10
  4.13511     59.1 9.999e+03 2.323e-10
  4.16589     61.7 1.006e+04 2.543e-10
  4.18619     61.5 9.931e+03 2.102e-10
  4.21629     63.9 9.940e+03 2.139e-10
  4.25688     66.3 9.936e+03 2.184e-10
  4.29747     68.8 9.927e+03 2.314e-10
  4.32095     71.5 1.004e+04 2.642e-10
  4.32940     71.5 9.903e+03 2.384e-10
  4.34651     72.4 1.045e+04 3.214e-10
  4.36841     74.0 1.051e+04 3.451e-10
  4.38814     74.7 1.053e+04 3.533e-10
  4.39829     74.6 1.043e+04 3.365e-10
  4.40890     75.4 1.047e+04 3.678e-10
  4.42920     76.4 1.062e+04 4.275e-10
  4.44949     77.4 1.088e+04 5.141e-10
  4.46567     78.2 1.120e+04 6.276e-10
  4.47582     77.4 1.133e+04 6.530e-10
  4.49008     76.9 1.238e+04 8.772e-10
  4.51038     76.1 1.378e+04 1.369e-09
  4.53067     75.3 1.515e+04 2.292e-09
  4.54321     75.0 1.641e+04 3.807e-09
  4.55335     72.2 1.746e+04 6.417e-09
  4.57126     71.9 1.841e+04 9.110e-09
  4.59156     71.0 1.919e+04 1.167e-08
  4.61059     69.5 2.002e+04 1.431e-08
  4.62074     66.4 1.922e+04 1.318e-08
  4.62703     66.1 1.945e+04 1.415e-08
  4.63712     65.6 1.956e+04 1.426e-08
  4.64294     64.8 1.954e+04 1.414e-08
  4.64801     63.8 1.913e+04 1.284e-08
  4.65433     63.3 1.906e+04 1.246e-08
  4.65940     61.8 1.806e+04 9.151e-09
  4.66757     61.0 1.775e+04 8.364e-09
  4.67771     60.6 1.756e+04 8.029e-09
  4.68786     60.1 1.742e+04 7.468e-09
  4.69310     59.6 1.726e+04 7.066e-09
  4.69822     58.7 1.631e+04 5.386e-09
  4.71333     58.0 1.570e+04 4.488e-09
  4.73362     57.6 1.545e+04 3.783e-09
  4.75392     57.2 1.498e+04 3.018e-09
  4.76565     56.7 1.439e+04 2.321e-09
  4.77580     55.9 1.263e+04 1.539e-09
  4.79451     55.8 1.229e+04 1.261e-09
  4.81481     55.9 1.202e+04 1.069e-09
  4.83304     56.1 1.176e+04 9.317e-10
  4.84318     56.3 1.128e+04 8.057e-10
  4.85540     56.8 1.116e+04 7.364e-10
  4.87569     57.5 1.106e+04 7.052e-10
  4.89599     58.3 1.105e+04 7.055e-10
  4.91057     59.2 1.109e+04 7.172e-10
  4.92071     59.5 1.090e+04 6.607e-10
  4.93658     60.4 1.103e+04 6.968e-10
  4.94990     61.1 1.132e+04 7.822e-10
  4.96005     60.6 1.191e+04 9.646e-10
  4.97717     60.9 1.262e+04 1.252e-09
  4.98810     60.5 1.369e+04 1.867e-09
  4.99825     59.7 1.356e+04 1.862e-09
  5.01776     59.3 1.488e+04 3.198e-09
  5.03805     59.7 1.683e+04 5.920e-09
  5.05323     59.7 1.728e+04 6.854e-09
  5.06046     59.1 1.810e+04 8.301e-09
  5.06553     58.1 1.735e+04 6.981e-09
  5.07347     56.7 1.874e+04 9.496e-09
  5.08362     54.7 2.034e+04 1.417e-08
  5.09377     52.6 2.162e+04 2.230e-08
  5.09922     50.6 2.239e+04 3.381e-08
  5.10362     49.9 2.201e+04 1.738e-08
  5.10831     49.2 2.257e+04 2.992e-08
  5.11406     47.0 2.304e+04 3.117e-08
  5.12421     44.6 2.303e+04 3.014e-08
  5.13292     41.7 2.292e+04 2.569e-08
  5.13799     39.9 2.206e+04 1.324e-08
  5.14451     36.5 2.051e+04 1.078e-08
  5.15978     33.0 1.926e+04 9.174e-09
  5.18012     27.8 1.836e+04 9.864e-09
  5.20040     23.4 1.787e+04 1.030e-08
  5.22069     21.2 1.715e+04 9.606e-09
  5.24101     19.4 1.692e+04 9.116e-09
  5.25677     17.9 1.627e+04 7.362e-09
  5.26691     17.1 1.647e+04 7.985e-09
  5.27793     15.2 1.545e+04 5.239e-09
  5.28808     15.5 1.547e+04 5.220e-09
  5.30189     12.0 1.429e+04 2.879e-09
  5.32219      7.1 1.290e+04 1.501e-09
  5.34248      1.1 1.230e+04 1.196e-09
  5.35546     -5.9 1.274e+04 1.356e-09
  5.36561     -7.4 1.317e+04 1.667e-09
  5.38307    -13.4 1.387e+04 2.575e-09
  5.40337    -17.0 1.359e+04 3.021e-09
  5.42284    -18.9 1.320e+04 2.819e-09
  5.43299    -19.8 1.331e+04 2.911e-09
  5.44396    -21.4 1.253e+04 2.103e-09
  5.46425    -23.7 1.192e+04 1.309e-09
  5.48455    -26.8 1.125e+04 7.788e-10
  5.50038    -29.5 1.022e+04 5.488e-10
  5.51052    -29.6 1.026e+04 6.246e-10
  5.52514    -30.0 9.867e+03 5.671e-10
  5.54543    -29.6 9.601e+03 5.094e-10
  5.56363    -29.3 9.579e+03 4.816e-10
  5.57378    -29.2 9.676e+03 5.561e-10
  5.59627    -28.2 9.499e+03 4.524e-10
  5.63534    -26.4 9.069e+03 3.212e-10
  5.65563    -25.4 8.833e+03 2.772e-10
  5.67755    -23.4 8.579e+03 1.952e-10
  5.71814    -21.8 8.472e+03 1.464e-10
  5.75873    -20.3 8.371e+03 1.283e-10
  5.79040    -18.5 8.364e+03 1.292e-10
  5.81070    -17.2 8.356e+03 1.275e-10
  5.83991    -15.5 8.444e+03 1.364e-10
  5.88050    -13.9 8.685e+03 1.735e-10
  5.92109    -12.4 9.059e+03 2.486e-10
  5.94546    -11.2 9.459e+03 3.531e-10
  5.96576    -10.5 9.670e+03 4.099e-10
  6.00227     -9.9 1.033e+04 6.460e-10
  6.04286     -9.0 1.091e+04 8.858e-10
  6.07321     -7.9 1.121e+04 1.063e-09
  6.09018     -7.5 1.140e+04 1.132e-09
  6.10033     -7.7 1.195e+04 1.465e-09
  6.11370     -7.6 1.210e+04 1.523e-09
  6.13400     -7.6 1.223e+04 1.588e-09
  6.15429     -7.6 1.239e+04 1.713e-09
  6.16772     -7.3 1.245e+04 1.814e-09
  6.17786     -7.6 1.305e+04 2.440e-09
  6.18751     -7.1 1.303e+04 2.424e-09
  6.19766     -6.7 1.345e+04 3.008e-09
  6.21518     -6.2 1.347e+04 3.088e-09
  6.23510     -5.6 1.345e+04 2.996e-09
  6.24525     -5.8 1.380e+04 3.461e-09
  6.25577     -5.5 1.367e+04 3.081e-09
  6.27606     -5.7 1.356e+04 2.775e-09
  6.29636     -6.2 1.345e+04 2.666e-09
  6.31263     -6.6 1.344e+04 2.708e-09
  6.32278     -6.8 1.356e+04 2.953e-09
  6.33695     -7.2 1.367e+04 3.190e-09
  6.35725     -7.7 1.385e+04 3.489e-09
  6.37754     -8.1 1.408e+04 3.871e-09
  6.39016     -8.5 1.429e+04 4.153e-09
  6.40031     -8.2 1.444e+04 4.349e-09
  6.41813     -8.4 1.439e+04 4.319e-09
  6.43843     -8.1 1.407e+04 3.968e-09
  6.45755     -7.4 1.347e+04 3.121e-09
  6.46769     -7.1 1.354e+04 3.212e-09
  6.47902     -6.3 1.292e+04 2.235e-09
  6.49438     -6.1 1.235e+04 1.380e-09
  6.50453     -6.6 1.234e+04 1.214e-09
  6.51961     -6.9 1.190e+04 7.398e-10
  6.53508     -7.5 1.144e+04 5.373e-10
  6.54523     -6.5 1.147e+04 5.319e-10
  6.56020     -6.7 1.105e+04 4.354e-10
  6.58049     -6.3 1.066e+04 4.252e-10
  6.60079     -5.3 1.060e+04 4.352e-10
  6.61261     -4.2 1.061e+04 4.680e-10
  6.62276     -3.6 1.057e+04 4.257e-10
  6.64138     -2.4 1.063e+04 4.605e-10
  6.66167     -1.5 1.079e+04 5.112e-10
  6.68009     -0.1 1.066e+04 4.950e-10
  6.70048      1.0 1.063e+04 4.546e-10
  6.73290      3.0 1.061e+04 4.534e-10
  6.77349      4.8 1.067e+04 4.684e-10
  6.80144      6.3 1.082e+04 5.244e-10
  6.82174      4.8 1.161e+04 1.106e-09
  6.83525      6.6 1.175e+04 1.218e-09
  6.85555      7.7 1.170e+04 1.128e-09
  6.89526      9.5 1.178e+04 1.144e-09
  6.93586     11.3 1.180e+04 1.088e-09
  6.97002     13.3 1.176e+04 9.721e-10
  6.99031     13.6 1.189e+04 9.733e-10
  7.01704     15.7 1.200e+04 9.427e-10
  7.05763     17.8 1.210e+04 9.372e-10
  7.09822     20.2 1.213e+04 9.531e-10
  7.12498     21.4 1.219e+04 1.102e-09
  7.13503     21.4 1.226e+04 1.189e-09
  7.14876     22.5 1.224e+04 1.224e-09
  7.16906     23.9 1.222e+04 1.254e-09
  7.18935     25.3 1.230e+04 1.311e-09
  7.20242     26.5 1.240e+04 1.375e-09
  7.21257     26.4 1.241e+04 1.383e-09
  7.22994     27.5 1.245e+04 1.423e-09
  7.25024     28.8 1.247e+04 1.463e-09
  7.26980     30.1 1.257e+04 1.542e-09
  7.27995     30.1 1.255e+04 1.525e-09
  7.29083     31.1 1.269e+04 1.635e-09
  7.31112     32.1 1.279e+04 1.727e-09
  7.33142     33.2 1.289e+04 1.788e-09
  7.34733     34.1 1.300e+04 1.821e-09
  7.35748     34.1 1.288e+04 1.659e-09
  7.37201     34.7 1.305e+04 1.690e-09
  7.39230     35.3 1.328e+04 1.744e-09
  7.41260     35.6 1.349e+04 1.844e-09
  7.42486     35.9 1.359e+04 1.910e-09
  7.42724     35.7 1.353e+04 1.753e-09
  7.43527     34.7 1.347e+04 1.738e-09
  7.45319     35.1 1.341e+04 1.719e-09
  7.47348     35.7 1.320e+04 1.613e-09
  7.49225     36.4 1.292e+04 1.367e-09
  7.50240     36.6 1.266e+04 1.145e-09
  7.51408     37.2 1.249e+04 9.184e-10
  7.53437     37.2 1.239e+04 7.090e-10
  7.55467     37.0 1.231e+04 5.487e-10
  7.56978     36.4 1.216e+04 4.273e-10
  7.59017     36.0 1.197e+04 3.660e-10
  7.62589     36.1 1.157e+04 3.437e-10
  7.66648     36.6 1.148e+04 3.470e-10
  7.70474     37.2 1.138e+04 3.620e-10
  7.72504     37.7 1.131e+04 3.197e-10
  7.74767     38.1 1.124e+04 3.498e-10
  7.78826     38.7 1.110e+04 3.640e-10
  7.82885     39.2 1.098e+04 3.629e-10
  7.85919     39.7 1.087e+04 3.468e-10
  7.86976     39.6 1.085e+04 3.435e-10
  7.88000     40.2 1.097e+04 4.102e-10
  7.89978     40.1 1.085e+04 3.882e-10
  7.91998     40.3 1.079e+04 4.290e-10
  7.93714     40.7 1.077e+04 4.849e-10
  7.94729     41.4 1.077e+04 4.932e-10
  7.96057     41.9 1.079e+04 5.259e-10
  7.98087     42.5 1.081e+04 5.469e-10
  8.00116     43.1 1.084e+04 5.607e-10
  8.01467     43.6 1.083e+04 5.674e-10
  8.02482     44.2 1.082e+04 5.265e-10
  8.03886     44.7 1.081e+04 5.284e-10
  8.04910     44.4 1.081e+04 3.720e-10
  8.07239     45.6 1.086e+04 3.737e-10
  8.11298     46.8 1.096e+04 3.917e-10
  8.14964     48.0 1.104e+04 4.523e-10
  8.16993     48.9 1.089e+04 3.808e-10
  8.19416     50.6 1.093e+04 4.558e-10
  8.23475     51.9 1.110e+04 5.791e-10
  8.27534     53.0 1.141e+04 7.566e-10
  8.30470     54.3 1.178e+04 9.553e-10
  8.32499     55.7 1.176e+04 9.428e-10
  8.34582     55.6 1.202e+04 1.082e-09
  8.35587     55.6 1.173e+04 9.566e-10
  8.36648     55.5 1.175e+04 9.597e-10
  8.38203     55.2 1.180e+04 9.795e-10
  8.39218     55.7 1.181e+04 9.740e-10
  8.40707     55.0 1.192e+04 1.027e-09
  8.42736     54.0 1.211e+04 1.141e-09
  8.44766     53.0 1.241e+04 1.356e-09
  8.45957     52.0 1.271e+04 1.603e-09
  8.46971     52.5 1.264e+04 1.577e-09
  8.48825     51.6 1.279e+04 1.661e-09
  8.50854     50.4 1.272e+04 1.553e-09
  8.52695     49.3 1.255e+04 1.386e-09
  8.53710     50.0 1.253e+04 1.388e-09
  8.55938     48.3 1.205e+04 1.012e-09
  8.59453     46.5 1.122e+04 6.137e-10
  8.61482     47.8 1.122e+04 6.177e-10
  8.64066     46.7 1.034e+04 3.696e-10
  8.66293     46.4 9.676e+03 2.360e-10
  8.68323     47.2 1.015e+04 3.559e-10
  8.72184     47.2 9.673e+03 2.280e-10
  8.74959     47.4 9.490e+03 1.580e-10
  8.76989     48.5 9.470e+03 1.563e-10
  8.80302     48.8 9.352e+03 1.169e-10
  8.84361     49.6 9.164e+03 1.099e-10
  8.88420     50.8 9.146e+03 1.104e-10
  8.92479     53.1 9.085e+03 1.176e-10
  8.96538     54.6 9.094e+03 1.496e-10
  9.00597     56.4 9.393e+03 2.166e-10
  9.03942     57.5 9.733e+03 2.953e-10
  9.05972     57.9 9.666e+03 2.993e-10
  9.07691     58.1 9.884e+03 3.715e-10
  9.09711     58.1 1.014e+04 4.963e-10
  9.11676     57.9 1.046e+04 7.165e-10
  9.12691     58.2 1.030e+04 6.665e-10
  9.13770     58.1 1.072e+04 9.426e-10
  9.15799     57.7 1.154e+04 1.417e-09
  9.17829     56.6 1.284e+04 2.315e-09
  9.19429     55.3 1.416e+04 3.727e-09
  9.20444     55.6 1.369e+04 2.919e-09
  9.21888     53.9 1.490e+04 4.605e-09
  9.23917     52.4 1.561e+04 6.404e-09
  9.25947     51.1 1.574e+04 6.686e-09
  9.27182     50.0 1.569e+04 6.327e-09
  9.27868     50.4 1.538e+04 6.239e-09
  9.28662     49.6 1.487e+04 3.959e-09
  9.30006     48.2 1.471e+04 2.856e-09
  9.32035     46.1 1.433e+04 1.906e-09
  9.33921     43.2 1.359e+04 1.647e-09
  9.34935     44.7 1.355e+04 1.766e-09
  9.36094     42.0 1.353e+04 1.857e-09
  9.38124     39.8 1.375e+04 2.295e-09
  9.40153     38.8 1.428e+04 3.265e-09
  9.41674     38.6 1.486e+04 4.414e-09
  9.42688     39.5 1.497e+04 4.584e-09
  9.44212     39.4 1.553e+04 5.672e-09
  9.46242     39.1 1.610e+04 5.612e-09
  9.48272     38.5 1.648e+04 4.896e-09
  9.49427     36.8 1.683e+04 3.624e-09
  9.50442     38.1 1.714e+04 5.462e-09
  9.52331     35.6 1.728e+04 3.980e-09
  9.54360     32.2 1.629e+04 2.942e-09
  9.56165     29.1 1.456e+04 2.552e-09
  9.57180     31.5 1.582e+04 2.987e-09
  9.58334     28.9 1.390e+04 2.302e-09
  9.59348     27.0 1.275e+04 1.666e-09
  9.60449     26.4 1.231e+04 1.466e-09
  9.62478     26.1 1.199e+04 1.174e-09
  9.63918     25.3 1.165e+04 8.355e-10
  9.65958     25.6 1.134e+04 6.305e-10
  9.68577     24.7 1.092e+04 4.571e-10
  9.70596     24.1 1.056e+04 3.692e-10
  9.73650     24.5 1.042e+04 3.293e-10
  9.77415     24.6 1.045e+04 3.315e-10
  9.79444     26.8 1.046e+04 3.254e-10
  9.80754     26.4 1.057e+04 3.588e-10
  9.82773     26.3 1.062e+04 3.868e-10
  9.85828     26.9 1.121e+04 5.781e-10
  9.89040     26.5 1.236e+04 1.064e-09
  9.91069     26.1 1.212e+04 9.968e-10
  9.92911     25.3 1.308e+04 1.598e-09
  9.93916     25.9 1.330e+04 1.762e-09
  9.94951     25.0 1.416e+04 2.946e-09
  9.96980     24.8 1.472e+04 3.817e-09
  9.99010     24.5 1.477e+04 3.750e-09
 10.00655     23.6 1.484e+04 3.233e-09
 10.01669     24.6 1.489e+04 3.382e-09
 10.03069     22.1 1.517e+04 3.355e-09
 10.05098     17.6 1.601e+04 3.788e-09
 10.07128     13.7 1.640e+04 5.480e-09
 10.08408     11.7 1.630e+04 6.933e-09
 10.09422     12.7 1.638e+04 6.988e-09
 10.11187     11.4 1.624e+04 6.895e-09
 10.13216     10.0 1.592e+04 5.641e-09
 10.15146      7.4 1.532e+04 3.460e-09
 10.16161      8.6 1.536e+04 3.712e-09
 10.17275      4.5 1.441e+04 1.953e-09
 10.19305     -1.1 1.323e+04 1.256e-09
 10.20722     -5.8 1.312e+04 1.283e-09
 10.21736     -6.9 1.311e+04 1.356e-09
 10.22899     -9.1 1.248e+04 1.546e-09
 10.23914     -8.1 1.242e+04 1.435e-09
 10.25394     -8.5 1.205e+04 1.347e-09
 10.27423     -9.2 1.182e+04 1.163e-09
 10.30477     -9.4 1.118e+04 6.770e-10
 10.34546    -10.9 1.061e+04 3.130e-10
 10.37410    -12.8 1.001e+04 1.678e-10
 10.39440    -11.3 1.015e+04 1.850e-10
 10.42664    -12.8 1.007e+04 1.395e-10
 10.46723    -14.0 1.003e+04 1.571e-10
 10.50413    -13.6 9.688e+03 1.944e-10
 10.52443    -14.1 9.549e+03 1.957e-10
 10.52917    -12.1 9.261e+03 1.621e-10
 10.54946    -11.1 9.395e+03 1.679e-10
 10.58900    -10.3 9.425e+03 1.016e-10
 10.62959    -10.5 9.395e+03 7.506e-11
 10.66393    -10.3 9.351e+03 7.946e-11
 10.68423     -9.5 9.338e+03 7.938e-11
 10.71077     -8.6 9.276e+03 9.212e-11
 10.75136     -7.4 9.318e+03 1.111e-10
 10.79196     -6.2 9.359e+03 1.335e-10
 10.81900     -5.0 9.351e+03 1.484e-10
 10.83929     -3.8 9.251e+03 1.042e-10
 10.87314     -2.7 9.230e+03 1.074e-10
 10.91373     -1.3 9.141e+03 1.073e-10
 10.95376      0.4 9.038e+03 9.927e-11
 10.97406      1.4 9.007e+03 9.063e-11
 10.99491      3.3 8.960e+03 8.425e-11
 11.03550      5.1 8.967e+03 7.211e-11
 11.07609      6.6 9.036e+03 6.397e-11
 11.10883      8.1 9.065e+03 6.532e-11
 11.12912      9.5 9.092e+03 6.395e-11
 11.13816     11.0 9.099e+03 6.820e-11
 11.15845     10.5 9.111e+03 8.772e-11
 11.19786     12.0 9.103e+03 9.741e-11
 11.23845     13.4 9.149e+03 1.105e-10
 11.26389     14.6 9.356e+03 1.353e-10
 11.28418     15.1 9.889e+03 2.070e-10
 11.31963     15.7 1.033e+04 3.271e-10
 11.34132     15.7 1.042e+04 3.736e-10
 11.35137     15.5 1.061e+04 5.027e-10
 11.37017     15.5 1.086e+04 6.949e-10
 11.39047     15.8 1.116e+04 8.918e-10
 11.40861     16.0 1.147e+04 1.073e-09
 11.41876     16.4 1.193e+04 1.375e-09
 11.43106     16.5 1.205e+04 1.426e-09
 11.44483     16.5 1.206e+04 1.394e-09
 11.45498     16.0 1.171e+04 1.173e-09
 11.47165     15.9 1.166e+04 1.162e-09
 11.48614     15.9 1.159e+04 1.169e-09
 11.49629     16.3 1.161e+04 1.080e-09
 11.51224     16.5 1.149e+04 1.010e-09
 11.53254     16.9 1.128e+04 9.159e-10
 11.55283     17.5 1.095e+04 7.729e-10
 11.56367     18.0 1.071e+04 6.502e-10
 11.57382     17.9 1.073e+04 4.728e-10
 11.60367     18.3 1.049e+04 3.570e-10
 11.64436     19.2 1.032e+04 3.233e-10
 11.68495     20.6 1.020e+04 3.116e-10
 11.70878     22.2 1.008e+04 2.885e-10
 11.72908     23.0 9.856e+03 2.415e-10
 11.75189     24.7 9.824e+03 2.363e-10
 11.77219     24.9 9.656e+03 1.872e-10
 11.80672     26.4 9.643e+03 1.710e-10
 11.84355     27.8 9.658e+03 1.600e-10
 11.86385     28.9 9.687e+03 1.779e-10
 11.88790     30.4 9.729e+03 1.693e-10
 11.92849     31.9 9.754e+03 1.565e-10
 11.96908     33.4 9.736e+03 1.458e-10
 11.99861     34.9 9.782e+03 1.424e-10
 12.01891     36.1 9.811e+03 1.393e-10
 12.05026     37.4 9.818e+03 1.400e-10
 12.09085     38.6 9.893e+03 1.466e-10
 12.13144     39.6 1.013e+04 1.771e-10
 12.15368     40.4 1.045e+04 2.394e-10
 12.17397     41.8 1.011e+04 1.753e-10
 12.21262     42.6 1.041e+04 2.420e-10
 12.24297     43.3 1.051e+04 2.926e-10
 12.26317     43.7 1.067e+04 3.434e-10
 12.28346     43.9 1.090e+04 4.538e-10
 12.29840     44.3 1.112e+04 6.213e-10
 12.30854     45.1 1.081e+04 4.421e-10
 12.32405     45.4 1.104e+04 6.117e-10
 12.34435     45.9 1.122e+04 7.752e-10
 12.36464     46.4 1.137e+04 9.096e-10
 12.37558     46.8 1.153e+04 1.022e-09
 12.37671     46.9 1.133e+04 8.951e-10
 12.38607     47.9 1.108e+04 7.241e-10
 12.40523     48.2 1.129e+04 8.219e-10
 12.42553     48.3 1.159e+04 9.567e-10
 12.44331     48.0 1.194e+04 1.204e-09
 12.45346     49.2 1.177e+04 9.302e-10
 12.46612     48.4 1.241e+04 1.373e-09
 12.48641     47.7 1.282e+04 2.193e-09
 12.50671     47.6 1.329e+04 3.408e-09
 12.52084     47.8 1.394e+04 4.990e-09
 12.53099     48.3 1.417e+04 5.103e-09
 12.54730     48.9 1.466e+04 7.070e-09
 12.56760     49.3 1.478e+04 7.342e-09
 12.58789     49.8 1.457e+04 6.811e-09
 12.59837     50.4 1.398e+04 4.910e-09
 12.60852     51.1 1.441e+04 6.008e-09
 12.62848     51.4 1.358e+04 3.840e-09
 12.64878     51.2 1.280e+04 2.091e-09
 12.66576     50.2 1.236e+04 1.063e-09
 12.67591     51.0 1.246e+04 1.565e-09
 12.68244     49.6 1.199e+04 9.452e-10
 12.69259     50.1 1.198e+04 9.475e-10
 12.70966     49.1 1.184e+04 7.208e-10
 12.73324     47.2 1.179e+04 7.059e-10
 12.75363     49.2 1.193e+04 9.253e-10
 12.78089     47.4 1.208e+04 1.007e-09
 12.82148     45.8 1.239e+04 1.319e-09
 12.86207     44.4 1.227e+04 1.321e-09
 12.88840     44.4 1.179e+04 1.074e-09
 12.90869     45.6 1.165e+04 7.800e-10
 12.94325     45.6 1.110e+04 4.753e-10
 12.97936     45.5 1.066e+04 2.853e-10
 12.99965     47.1 1.090e+04 3.081e-10
 13.02317     46.9 1.034e+04 1.828e-10
 13.04346     47.9 1.039e+04 1.929e-10
 13.06502     48.4 1.010e+04 1.706e-10
 13.10562     49.6 1.009e+04 1.714e-10
 13.14621     50.9 1.017e+04 1.804e-10
 13.17823     51.8 1.039e+04 2.122e-10
 13.19853     52.8 1.042e+04 2.058e-10
 13.22739     53.4 1.064e+04 2.436e-10
 13.26798     53.7 1.082e+04 2.968e-10
 13.30857     53.8 1.102e+04 3.387e-10
 13.33329     53.9 1.128e+04 3.387e-10
 13.35359     54.3 1.128e+04 3.403e-10
 13.38975     54.1 1.147e+04 3.528e-10
 13.41073     54.0 1.147e+04 3.601e-10
 13.42078     54.0 1.155e+04 3.703e-10
 13.44029     53.7 1.167e+04 4.074e-10
 13.46059     53.0 1.186e+04 5.379e-10
 13.47801     52.3 1.199e+04 7.569e-10
 13.48816     52.4 1.209e+04 9.099e-10
 13.50118     52.4 1.215e+04 1.263e-09
 13.52147     52.7 1.228e+04 1.613e-09
 13.54177     53.0 1.251e+04 1.825e-09
 13.55554     52.9 1.287e+04 1.874e-09
 13.56569     52.9 1.281e+04 1.539e-09
 13.58236     52.0 1.297e+04 1.457e-09
 13.60265     50.8 1.300e+04 1.420e-09
 13.61319     49.6 1.293e+04 1.420e-09
 13.62332     50.6 1.263e+04 1.209e-09
 13.64322     50.1 1.216e+04 9.812e-10
 13.66354     49.8 1.208e+04 9.710e-10
 13.68383     49.9 1.194e+04 9.255e-10
 13.70046     50.0 1.186e+04 8.593e-10
 13.71061     50.4 1.163e+04 7.914e-10
 13.72443     50.6 1.152e+04 6.744e-10
 13.74472     50.6 1.142e+04 5.848e-10
 13.76502     50.6 1.136e+04 5.069e-10
 13.77799     50.6 1.130e+04 4.627e-10
 13.79838     52.0 1.123e+04 4.195e-10
 13.83624     52.5 1.116e+04 4.013e-10
 13.87684     53.1 1.110e+04 3.897e-10
 13.91295     53.7 1.096e+04 3.859e-10
 13.93325     54.7 1.082e+04 2.532e-10
 13.95802     55.2 1.058e+04 2.527e-10
 13.99861     55.8 1.045e+04 2.485e-10
 14.03920     56.7 1.026e+04 2.344e-10
 14.06802     57.9 1.005e+04 1.929e-10
 14.08831     58.6 9.986e+03 1.698e-10
 14.12038     60.0 9.813e+03 1.327e-10
 14.16097     61.5 9.696e+03 9.072e-11
 14.20156     62.8 9.687e+03 5.837e-11
 14.22308     63.8 9.668e+03 4.080e-11
 14.22834     64.5 9.603e+03 5.064e-11
 14.24741     65.4 9.475e+03 3.919e-11
 14.28274     66.8 9.396e+03 3.789e-11
 14.32333     68.4 9.393e+03 3.802e-11
 14.35785     70.1 9.403e+03 3.933e-11
 14.37814     70.9 9.422e+03 4.968e-11
 14.40451     72.5 9.453e+03 5.270e-11
 14.44510     74.0 9.533e+03 5.842e-11
 14.48569     75.1 9.715e+03 7.639e-11
 14.51291     75.5 9.975e+03 1.375e-10
 14.53321     75.9 1.004e+04 1.496e-10
 14.56687     76.0 1.044e+04 3.119e-10
 14.60746     76.1 1.092e+04 5.839e-10
 14.64768     75.8 1.116e+04 6.881e-10
 14.66797     76.0 1.101e+04 6.167e-10
 14.68865     75.9 1.085e+04 5.490e-10
 14.72924     76.1 1.047e+04 3.385e-10
 14.76983     76.1 1.015e+04 1.510e-10
 14.80274     75.2 9.870e+03 7.248e-11
 14.82304     75.9 9.762e+03 6.135e-11
 14.84085     75.7 9.558e+03 5.755e-11
 14.86114     76.6 9.482e+03 5.459e-11
 14.89160     76.9 9.453e+03 5.485e-11
 14.93219     77.6 9.415e+03 5.850e-11
 14.95780     78.4 9.426e+03 6.581e-11
 14.97810     79.2 9.438e+03 6.323e-11
 15.01337     80.1 9.443e+03 7.505e-11
 15.05396     80.9 9.440e+03 8.418e-11
 15.09257     81.8 9.439e+03 8.979e-11
 15.11287     82.6 9.498e+03 1.144e-10
 15.13514     83.3 9.516e+03 1.264e-10
 15.17573     84.0 9.544e+03 1.406e-10
 15.21632     84.6 9.598e+03 1.600e-10
 15.24763     85.1 9.682e+03 1.819e-10
 15.26793     85.6 9.907e+03 2.660e-10
 15.29750     85.6 9.990e+03 2.927e-10
 15.33809     85.3 1.010e+04 3.343e-10
 15.37868     84.7 1.027e+04 4.147e-10
 15.40270     83.9 1.036e+04 4.921e-10
 15.42299     84.2 1.052e+04 5.501e-10
 15.45458     83.3 1.039e+04 5.060e-10
 15.47488     84.7 1.030e+04 4.797e-10
 15.50046     84.0 1.002e+04 3.858e-10
 15.53746     83.7 9.556e+03 2.433e-10
 15.55776     83.8 9.555e+03 2.174e-10
 15.58164     83.4 9.040e+03 1.210e-10
 15.62223     83.1 8.727e+03 7.433e-11
 15.66282     83.1 8.460e+03 5.653e-11
 15.69253     83.6 8.316e+03 5.507e-11
 15.71282     84.3 8.327e+03 5.755e-11
 15.74400     85.2 8.322e+03 5.762e-11
 15.78459     86.2 8.330e+03 5.906e-11
 15.82518     87.2 8.376e+03 6.506e-11
 15.84759     88.0 8.447e+03 7.729e-11
 15.86789     88.7 8.427e+03 8.010e-11
 15.90636     89.5 8.508e+03 9.454e-11
 15.94695     90.2 8.591e+03 1.090e-10
 15.98236     90.9 8.669e+03 1.234e-10
 16.00265     91.3 8.527e+03 1.213e-10
 16.02813     91.9 8.553e+03 1.325e-10
 16.06831     92.5 8.593e+03 1.452e-10
 16.08861     92.9 8.690e+03 1.508e-10
 16.10931     93.4 8.720e+03 1.600e-10
 16.13742     94.0 8.783e+03 1.767e-10
 16.15772     94.4 8.740e+03 1.744e-10
 16.19049     95.0 8.829e+03 1.925e-10
 16.23109     95.5 8.935e+03 2.143e-10
 16.27168     95.9 9.028e+03 2.368e-10
 16.29248     96.1 9.095e+03 2.532e-10
 16.31278     95.9 9.038e+03 2.397e-10
 16.35286     95.7 9.091e+03 2.525e-10
 16.39345     95.4 9.127e+03 2.573e-10
 16.42725     95.0 9.160e+03 2.603e-10
 16.44755     94.2 9.176e+03 2.708e-10
 16.47463     93.5 9.266e+03 2.919e-10
 16.51522     92.8 9.406e+03 3.267e-10
 16.55581     92.0 9.594e+03 3.693e-10
 16.58231     91.0 9.792e+03 4.173e-10
 16.60261     89.8 9.684e+03 3.664e-10
 16.63699     88.8 9.798e+03 3.803e-10
 16.67758     87.8 9.979e+03 4.263e-10
 16.70234     87.1 1.019e+04 5.099e-10
 16.72155     88.6 1.015e+04 5.123e-10
 16.73738     87.3 9.623e+03 2.947e-10
 16.75876     87.1 9.695e+03 3.042e-10
 16.79935     87.0 9.749e+03 3.116e-10
 16.83994     87.2 9.819e+03 3.270e-10
 16.87214     87.7 9.923e+03 3.679e-10
 16.89244     86.6 9.596e+03 3.107e-10
 16.92112     87.7 9.648e+03 3.271e-10
 16.96171     89.1 9.697e+03 3.275e-10
 17.00231     90.7 9.744e+03 3.030e-10
 17.02721     92.1 9.800e+03 2.550e-10
 17.04750     91.1 9.473e+03 1.577e-10
 17.08349     92.3 9.456e+03 1.465e-10
 17.12408     93.7 9.464e+03 1.481e-10
 17.16197     95.2 9.532e+03 1.579e-10
 17.18227     94.7 9.585e+03 1.844e-10
 17.20526     96.3 9.841e+03 2.351e-10
 17.24585     97.5 1.012e+04 3.088e-10
 17.28644     98.7 1.052e+04 4.238e-10
 17.31608     99.9 1.099e+04 5.799e-10
 17.32613     99.7 1.071e+04 4.555e-10
 17.32699    100.2 1.093e+04 5.684e-10
 17.33714    100.1 1.140e+04 7.559e-10
 17.35728    100.5 1.161e+04 8.512e-10
 17.37757    100.7 1.169e+04 8.840e-10
 17.39437    100.8 1.162e+04 9.061e-10
 17.40452    100.5 1.223e+04 1.216e-09
 17.41816    100.6 1.201e+04 1.129e-09
 17.43846    100.7 1.171e+04 1.032e-09
 17.45875    100.7 1.142e+04 9.507e-10
 17.47191    100.8 1.118e+04 8.885e-10
 17.48205    100.3 1.148e+04 9.530e-10
 17.49934    100.2 1.121e+04 8.808e-10
 17.51964    100.2 1.100e+04 8.286e-10
 17.53929    100.3 1.082e+04 7.842e-10
 17.54944     99.5 1.124e+04 8.436e-10
 17.56023     99.7 1.100e+04 7.859e-10
 17.58053    100.0 1.080e+04 7.403e-10
 17.60082    100.3 1.065e+04 7.035e-10
 17.61682    100.6 1.051e+04 6.740e-10
 17.62697     99.8 1.119e+04 8.325e-10
 17.63289    100.1 1.105e+04 8.011e-10
 17.64304    100.1 1.144e+04 9.880e-10
 17.66171    100.3 1.126e+04 9.372e-10
 17.68200    100.5 1.111e+04 8.861e-10
 17.69435    100.6 1.094e+04 8.412e-10
 17.70450     98.3 1.352e+04 1.499e-09
 17.72259     98.4 1.361e+04 1.520e-09
 17.74289     98.6 1.363e+04 1.557e-09
 17.76174     98.7 1.366e+04 1.632e-09
 17.77188     97.0 1.353e+04 2.454e-09
 17.78348     97.4 1.347e+04 2.522e-09
 17.80377     97.6 1.336e+04 2.885e-09
 17.82407     97.6 1.377e+04 3.785e-09
 17.83927     97.2 1.459e+04 4.962e-09
 17.84941     94.3 1.626e+04 3.573e-09
 17.86466     92.0 1.813e+04 5.162e-09
 17.88495     89.9 2.016e+04 7.931e-09
 17.90525     88.6 2.231e+04 1.120e-08
 17.91680     87.6 2.371e+04 1.160e-08
 17.92695     81.2 1.942e+04 4.353e-09
 17.93976     78.0 1.814e+04 3.053e-09
 17.94991     77.1 1.788e+04 2.778e-09
 17.96614     73.9 1.511e+04 1.617e-09
 17.98418     71.5 1.285e+04 9.253e-10
 17.99433     68.7 1.156e+04 8.877e-10
 18.01697     67.0 1.104e+04 4.637e-10
 18.05176     64.2 1.005e+04 3.667e-10
 18.07206     64.0 1.033e+04 4.956e-10
 18.09825     63.2 1.033e+04 5.094e-10
 18.13884     63.1 1.050e+04 6.138e-10
 18.17943     63.1 1.075e+04 7.605e-10
 18.20682     63.1 1.080e+04 7.821e-10
 18.22712     63.4 1.078e+04 7.273e-10
 18.26061     63.6 1.070e+04 7.000e-10
 18.30120     64.0 1.048e+04 6.201e-10
 18.34159     64.4 1.028e+04 5.693e-10
 18.36189     65.2 1.007e+04 4.371e-10
 18.38238     65.8 1.002e+04 4.338e-10
 18.42297     66.4 1.010e+04 4.718e-10
 18.46356     67.1 1.033e+04 5.703e-10
 18.49665     67.9 1.046e+04 6.345e-10
 18.51695     68.4 1.042e+04 6.059e-10
 18.54354     69.1 1.046e+04 6.223e-10
 18.56384     69.0 9.861e+03 3.643e-10
 18.58534     69.6 9.787e+03 3.762e-10
 18.62593     70.2 9.713e+03 3.623e-10
 18.65172     70.8 9.650e+03 3.462e-10
 18.67201     71.3 9.435e+03 2.509e-10
 18.70711     71.5 9.354e+03 2.284e-10
 18.74770     71.5 9.493e+03 2.430e-10
 18.78649     71.1 9.839e+03 2.955e-10
 18.80678     71.9 9.181e+03 1.646e-10
 18.82888     71.6 9.582e+03 2.267e-10
 18.85922     71.1 9.870e+03 2.830e-10
 18.87051     70.3 1.030e+04 3.857e-10
 18.87520     69.8 1.056e+04 4.586e-10
 18.88412     70.7 1.028e+04 3.728e-10
 18.89972     69.9 1.073e+04 5.639e-10
 18.92001     69.2 1.115e+04 8.361e-10
 18.94031     68.8 1.161e+04 1.125e-09
 18.95150     68.2 1.221e+04 1.376e-09
 18.96165     69.2 1.190e+04 1.429e-09
 18.98090     68.1 1.269e+04 1.773e-09
 19.00119     65.6 1.386e+04 2.335e-09
 19.01888     62.7 1.484e+04 3.327e-09
 19.02903     64.0 1.487e+04 3.535e-09
 19.04178     61.6 1.548e+04 5.032e-09
 19.06208     60.0 1.545e+04 5.216e-09
 19.08237     59.3 1.515e+04 4.617e-09
 19.09642     58.5 1.460e+04 2.967e-09
 19.10656     59.3 1.552e+04 4.777e-09
 19.12296     58.8 1.499e+04 2.443e-09
 19.14326     56.9 1.452e+04 1.044e-09
 19.16356     53.9 1.391e+04 4.274e-10
 19.17747     51.5 1.228e+04 2.649e-10
 19.19786     52.2 1.187e+04 2.187e-10
 19.23138     49.9 1.022e+04 1.520e-10
 19.25167     52.7 1.191e+04 2.520e-10
 19.27537     51.2 1.054e+04 2.065e-10
 19.31597     50.9 1.037e+04 2.068e-10
 19.35656     50.9 1.031e+04 2.177e-10
 19.38644     51.3 1.012e+04 2.293e-10
 19.40674     52.4 1.046e+04 3.252e-10
 19.43774     52.9 1.038e+04 3.270e-10
 19.47833     53.3 1.031e+04 3.138e-10
 19.51892     53.7 1.021e+04 2.811e-10
 19.54150     54.0 1.019e+04 2.720e-10
 19.55155     54.7 1.048e+04 3.655e-10
 19.56946     54.9 1.037e+04 3.540e-10
 19.58976     55.1 1.037e+04 3.581e-10
 19.60869     55.4 1.037e+04 3.684e-10
 19.61884     55.8 1.063e+04 4.458e-10
 19.63035     56.0 1.067e+04 4.882e-10
 19.65064     56.5 1.075e+04 5.524e-10
 19.67094     57.2 1.088e+04 6.194e-10
 19.68622     57.9 1.104e+04 6.561e-10
 19.69637     58.0 1.124e+04 7.735e-10
 19.71153     58.7 1.130e+04 7.771e-10
 19.73182     59.4 1.126e+04 7.446e-10
 19.75212     60.0 1.112e+04 6.553e-10
 19.76376     60.5 1.096e+04 5.482e-10
 19.77390     60.6 1.150e+04 6.917e-10
 19.79111     60.6 1.142e+04 5.683e-10
 19.80125     62.1 1.079e+04 4.127e-10
 19.81300     62.1 1.069e+04 3.393e-10
 19.83114     61.9 1.061e+04 3.298e-10
 19.84129     61.8 1.125e+04 4.647e-10
 19.85359     61.6 1.119e+04 4.715e-10
 19.87389     61.4 1.116e+04 5.117e-10
 19.89418     61.2 1.127e+04 6.190e-10
 19.90867     60.9 1.152e+04 8.024e-10
 19.91882     59.5 1.253e+04 1.368e-09
 19.93478     59.0 1.306e+04 1.869e-09
 19.95507     58.8 1.360e+04 2.443e-09
 19.97537     58.4 1.433e+04 3.180e-09
 19.98620     57.6 1.541e+04 3.962e-09
 19.99635     54.6 1.651e+04 6.250e-09
 20.01596     53.6 1.608e+04 6.127e-09
 20.03625     52.4 1.542e+04 6.038e-09
 20.05359     50.3 1.569e+04 6.418e-09
 20.06373     46.8 1.656e+04 5.976e-09
 20.07684     42.7 1.877e+04 7.371e-09
 20.09714     39.6 1.871e+04 7.360e-09
 20.10812     37.4 1.707e+04 6.078e-09
 20.11827     35.2 1.475e+04 4.637e-09
 20.13112     33.3 1.274e+04 3.173e-09
 20.14127     32.1 1.199e+04 2.589e-09
 20.15802     31.5 1.220e+04 2.058e-09
 20.17832     28.6 1.245e+04 1.583e-09
 20.19850     24.5 1.206e+04 1.372e-09
 20.20865     23.9 1.177e+04 1.320e-09
 20.21891     21.4 1.147e+04 1.272e-09
 20.23920     19.6 1.135e+04 1.228e-09
 20.25950     18.8 1.143e+04 1.219e-09
 20.27603     17.5 1.155e+04 1.142e-09
 20.29643     17.5 1.163e+04 1.137e-09
 20.33073     14.0 1.110e+04 9.294e-10
 20.37132     12.5 1.039e+04 7.907e-10
 20.40503     13.1 9.804e+03 6.151e-10
 20.42441     12.7 9.187e+03 3.792e-10
 20.43129     12.6 9.184e+03 3.442e-10
 20.45250     12.4 8.932e+03 2.203e-10
 20.49309     12.4 8.908e+03 2.083e-10
 20.53368     12.6 9.052e+03 2.378e-10
 20.56606     12.3 9.589e+03 3.892e-10
 20.58635     11.7 9.943e+03 4.758e-10
 20.60462     11.6 1.049e+04 6.785e-10
 20.62481     11.1 1.110e+04 9.905e-10
 20.64339     11.2 1.153e+04 1.346e-09
 20.65354     10.6 1.149e+04 1.379e-09
 20.66540     11.2 1.177e+04 1.622e-09
 20.68570     12.0 1.163e+04 1.562e-09
 20.70600     12.3 1.140e+04 1.367e-09
 20.72093     11.5 1.191e+04 1.232e-09
 20.72663     11.5 1.122e+04 8.666e-10
 20.73200     10.7 1.201e+04 1.163e-09
 20.74659      8.6 1.253e+04 1.142e-09
 20.76688      7.1 1.217e+04 1.090e-09
 20.78718      6.7 1.155e+04 1.011e-09
 20.79846      6.4 1.130e+04 9.083e-10
 20.80861      6.2 1.057e+04 6.772e-10
 20.82777      6.0 1.078e+04 6.684e-10
 20.84806      5.0 1.149e+04 7.481e-10
 20.86584      3.5 1.215e+04 8.807e-10
 20.87599      4.8 1.116e+04 7.085e-10
 20.89890      4.7 1.162e+04 8.881e-10
 20.93959      3.9 1.254e+04 1.428e-09
 20.98018      3.8 1.289e+04 1.922e-09
 21.01095      4.4 1.243e+04 1.849e-09
 21.02915      5.1 1.276e+04 2.288e-09
 21.03887      5.3 1.269e+04 2.616e-09
 21.06126      6.2 1.207e+04 1.708e-09
 21.10195      6.2 1.120e+04 8.249e-10
 21.14254      5.2 1.102e+04 6.259e-10
 21.16601      3.5 1.135e+04 7.674e-10
 21.18631      4.6 1.182e+04 9.915e-10
 21.21347      3.3 1.296e+04 1.404e-09
 21.23320      1.1 1.374e+04 2.180e-09
 21.24335      1.9 1.374e+04 2.581e-09
 21.25397      1.5 1.437e+04 3.966e-09
 21.27426      1.4 1.491e+04 4.384e-09
 21.29456      1.1 1.501e+04 3.605e-09
 21.31073     -1.4 1.451e+04 2.213e-09
 21.32088      0.8 1.629e+04 2.789e-09
 21.33515     -6.1 1.414e+04 1.250e-09
 21.34573    -12.7 1.194e+04 7.991e-10
 21.35588    -13.2 1.150e+04 6.172e-10
 21.38598    -16.6 1.149e+04 6.303e-10
 21.42667    -23.1 1.124e+04 5.382e-10
 21.45585    -28.0 1.065e+04 4.919e-10
 21.47614    -28.8 1.060e+04 4.056e-10
 21.50785    -30.5 1.042e+04 4.178e-10
 21.53328    -30.2 1.001e+04 3.538e-10
 21.54333    -30.9 1.003e+04 3.368e-10
 21.55840    -31.6 1.006e+04 3.643e-10
 21.57869    -32.1 9.940e+03 3.883e-10
 21.59899    -32.3 1.019e+04 4.478e-10
 21.61081    -32.3 1.037e+04 5.485e-10
 21.62096    -33.2 1.037e+04 6.657e-10
 21.63958    -32.5 1.074e+04 8.245e-10
 21.65270    -31.7 1.120e+04 1.006e-09
 21.67309    -30.3 1.046e+04 6.357e-10
 21.71081    -28.7 1.090e+04 9.259e-10
 21.74568    -26.8 1.126e+04 1.044e-09
 21.76597    -27.5 1.143e+04 9.351e-10
 21.79199    -26.1 1.079e+04 5.854e-10
 21.83258    -25.3 9.904e+03 3.162e-10
 21.87317    -24.5 9.207e+03 2.120e-10
 21.90074    -23.0 8.897e+03 1.877e-10
 21.92103    -23.2 8.772e+03 1.737e-10
 21.95435    -20.9 8.608e+03 1.613e-10
 21.99494    -18.5 8.449e+03 1.491e-10
 22.03551    -15.9 8.278e+03 1.297e-10
 22.07610    -13.5 7.917e+03 6.982e-11
 22.11671    -11.4 7.787e+03 5.729e-11
 22.15730     -9.4 7.665e+03 5.045e-11
 22.19057     -7.4 7.621e+03 4.731e-11
 22.21086     -7.7 7.615e+03 4.632e-11
 22.23848     -5.6 7.602e+03 5.156e-11
 22.26653     -3.4 7.595e+03 5.670e-11
 22.28682     -3.2 7.687e+03 6.278e-11
 22.31966     -0.8 7.709e+03 6.646e-11
 22.34563      1.3 7.844e+03 6.344e-11
 22.36593      1.3 7.991e+03 7.319e-11
 22.40085      2.7 8.041e+03 7.569e-11
 22.44144      4.2 8.020e+03 8.793e-11
 22.48040      6.4 8.004e+03 1.045e-10
 22.50069      6.7 8.008e+03 1.037e-10
 22.52262      8.9 8.013e+03 9.830e-11
 22.56321     11.0 8.053e+03 8.468e-11
 22.60380     12.7 8.100e+03 7.011e-11
 22.63546     14.1 8.122e+03 6.282e-11
 22.65576     13.9 8.085e+03 6.118e-11
 22.68498     14.9 8.232e+03 6.855e-11
 22.72557     16.1 8.710e+03 1.205e-10
 22.75591     15.2 9.509e+03 2.150e-10
 22.77611     13.0 1.083e+04 4.594e-10
 22.79033     10.7 1.192e+04 1.117e-09
 22.80048     10.1 1.206e+04 1.486e-09
 22.81670     10.7 1.264e+04 2.789e-09
 22.83700     12.1 1.332e+04 4.238e-09
 22.85729     13.3 1.396e+04 5.185e-09
 22.86786     13.8 1.407e+04 5.061e-09
 22.87801     14.5 1.365e+04 4.303e-09
 22.89021     13.9 1.389e+04 3.498e-09
 22.90036     13.7 1.415e+04 3.268e-09
 22.91818     11.1 1.406e+04 2.259e-09
 22.93525      8.6 1.315e+04 1.651e-09
 22.94539      8.0 1.267e+04 1.308e-09
 22.96901      5.6 1.172e+04 1.007e-09
 23.00970      4.8 1.109e+04 8.038e-10
 23.05029      4.4 1.055e+04 5.396e-10
 23.08036      3.1 1.055e+04 3.200e-10
 23.10065      2.9 1.110e+04 8.248e-10
 23.13147      1.7 1.109e+04 7.355e-10
 23.17207      0.6 1.092e+04 8.768e-10
 23.21266      1.8 1.064e+04 1.072e-09
 23.23542      3.2 1.038e+04 9.805e-10
 23.24547      3.6 1.039e+04 9.550e-10
 23.26320      4.3 1.026e+04 8.176e-10
 23.28349      4.2 1.030e+04 6.396e-10
 23.30261      3.1 1.050e+04 5.408e-10
 23.31275      1.8 1.025e+04 3.710e-10
 23.32408      0.9 1.002e+04 3.843e-10
 23.34438      0.1 9.989e+03 4.131e-10
 23.36467     -0.0 9.978e+03 5.864e-10
 23.38014      0.0 1.036e+04 6.952e-10
 23.39029     -0.3 9.949e+03 4.966e-10
 23.40527     -0.3 1.017e+04 7.542e-10
 23.42556     -0.5 1.073e+04 9.274e-10
 23.44586     -1.2 1.144e+04 1.263e-09
 23.45767     -1.6 1.180e+04 1.399e-09
 23.46782     -2.4 1.174e+04 1.372e-09
 23.49389     -1.6 1.146e+04 1.759e-09
 23.51419     -1.6 1.126e+04 1.671e-09
 23.52505     -0.6 1.135e+04 1.241e-09
 23.53520     -0.5 1.146e+04 1.312e-09
 23.54733     -0.7 1.123e+04 1.189e-09
 23.57787     -1.9 1.053e+04 8.005e-10
 23.61856     -2.0 9.642e+03 5.322e-10
 23.65915     -1.2 9.216e+03 4.075e-10
 23.68031      0.2 8.919e+03 3.368e-10
 23.70061      0.2 8.941e+03 3.363e-10
 23.74033      0.3 9.786e+03 3.608e-10
 23.77068     -7.9 1.335e+04 7.827e-10
 23.79088    -13.7 1.389e+04 2.350e-09
 23.81081    -14.9 1.419e+04 5.126e-09
 23.82091    -15.3 1.609e+04 8.633e-09
 23.82493    -15.1 1.675e+04 1.165e-08
 23.83001    -14.7 1.640e+04 1.002e-08
 23.83644    -14.5 1.782e+04 1.079e-08
 23.84659    -14.4 1.883e+04 1.045e-08
 23.85674    -15.2 2.098e+04 7.593e-09
 23.86370    -18.5 1.925e+04 4.586e-09
 23.86877    -21.4 1.741e+04 3.272e-09
 23.87703    -24.2 1.543e+04 2.579e-09
 23.89230    -30.2 1.217e+04 1.455e-09
 23.91265    -30.7 1.108e+04 8.675e-10
 23.93294    -31.8 1.097e+04 6.668e-10
 23.95324    -33.6 1.063e+04 5.654e-10
 23.96995    -35.2 1.041e+04 5.442e-10
 23.98009    -34.8 1.023e+04 4.637e-10
 23.99383    -36.0 1.015e+04 5.249e-10
 24.01412    -36.7 1.028e+04 6.426e-10
 24.03442    -37.0 1.046e+04 7.495e-10
 24.04748    -37.2 1.068e+04 8.415e-10
 24.05763    -36.7 1.064e+04 8.435e-10
 24.07501    -37.0 1.078e+04 8.964e-10
 24.09530    -37.5 1.080e+04 9.037e-10
 24.11486    -38.1 1.071e+04 8.351e-10
 24.12501    -37.4 1.061e+04 8.378e-10
 24.12782    -38.0 1.051e+04 7.409e-10
 24.13797    -38.6 1.049e+04 7.409e-10
 24.15619    -39.2 1.036e+04 6.540e-10
 24.17649    -40.0 1.028e+04 5.914e-10
 24.19239    -40.9 1.026e+04 5.592e-10
 24.20254    -40.0 1.010e+04 5.061e-10
 24.21708    -41.0 1.010e+04 4.927e-10
 24.23737    -41.8 1.034e+04 5.268e-10
 24.25988    -43.4 1.043e+04 5.580e-10
 24.28027    -41.8 9.894e+03 3.629e-10
 24.30860    -44.2 1.030e+04 4.164e-10
 24.34919    -46.9 1.068e+04 6.441e-10
 24.38978    -49.4 1.122e+04 9.678e-10
 24.41504    -52.3 1.183e+04 1.123e-09
 24.43533    -52.9 1.243e+04 1.622e-09
 24.47096    -56.4 1.297e+04 1.867e-09
 24.51155    -63.1 1.306e+04 1.112e-09
 24.54980    -73.4 1.225e+04 7.596e-10
 24.57000    -76.0 1.156e+04 6.622e-10
 24.58239    -78.9 1.161e+04 7.682e-10
 24.60269    -81.0 1.185e+04 9.339e-10
 24.62298    -82.7 1.194e+04 1.020e-09
 24.63729    -84.1 1.196e+04 1.039e-09
 24.64743    -84.4 1.176e+04 9.841e-10
 24.66357    -85.6 1.169e+04 9.847e-10
 24.68387    -86.4 1.141e+04 9.381e-10
 24.70477    -87.3 1.105e+04 8.162e-10
 24.72506    -88.4 1.099e+04 7.679e-10
 24.74156    -88.9 1.071e+04 6.430e-10
 24.75170    -90.1 1.047e+04 6.423e-10
 24.76505    -90.5 1.019e+04 5.029e-10
 24.79559    -91.1 9.871e+03 3.809e-10
 24.83628    -91.3 9.428e+03 2.767e-10
 24.85993    -91.3 8.876e+03 1.822e-10
 24.88022    -91.3 8.940e+03 1.754e-10
 24.91746    -91.1 8.709e+03 1.376e-10
 24.95805    -90.8 8.698e+03 1.304e-10
 24.99470    -90.6 8.751e+03 1.304e-10
 25.01499    -92.1 9.307e+03 1.561e-10
 25.03923    -91.1 9.177e+03 1.948e-10
 25.07982    -92.2 1.047e+04 3.262e-10
 25.11016   -113.5 2.470e+04 1.149e-09
 25.12090   -120.0 2.358e+04 1.066e-08
 25.12592   -121.2 2.351e+04 1.341e-08
 25.13534   -122.5 2.236e+04 4.379e-08
 25.14549   -123.1 2.140e+04 1.145e-07
 25.15454   -122.4 2.122e+04 2.068e-07
 25.15961   -122.7 2.224e+04 1.115e-07
 25.16578   -122.8 2.238e+04 1.202e-07
 25.17593   -123.1 2.264e+04 1.106e-07
 25.18608   -123.5 2.333e+04 5.824e-08
 25.19331   -128.4 2.385e+04 1.839e-08
 25.19838   -132.5 2.282e+04 8.281e-09
 25.20637   -141.2 1.822e+04 2.436e-09
 25.21191   -147.6 1.384e+04 1.319e-09
 25.21698   -147.8 1.354e+04 1.290e-09
 25.22705   -150.2 1.208e+04 1.035e-09
 25.23724   -148.6 1.188e+04 8.289e-10
 25.25213   -150.8 1.015e+04 4.731e-10
 25.27243   -151.2 9.700e+03 3.718e-10
 25.29272   -151.1 9.576e+03 3.493e-10
 25.30472   -150.7 9.576e+03 3.542e-10
 25.32512   -150.5 9.210e+03 2.556e-10
 25.35548   -149.3 8.945e+03 2.160e-10
 25.37578   -148.4 9.026e+03 2.481e-10
 25.40454   -146.9 8.768e+03 2.032e-10
 25.43959   -145.2 8.593e+03 1.702e-10
 25.45989   -144.5 8.455e+03 1.442e-10
 25.48572   -142.8 8.417e+03 1.360e-10
 25.52632   -141.0 8.383e+03 1.281e-10
 25.56691   -139.1 8.361e+03 1.209e-10
 25.59465   -137.2 8.352e+03 1.152e-10
 25.61495   -136.3 8.391e+03 1.325e-10
 25.64809   -134.3 8.415e+03 1.368e-10
 25.68868   -132.3 8.447e+03 1.394e-10
 25.72927   -130.3 8.469e+03 1.397e-10
 25.76986   -127.3 8.630e+03 1.831e-10
 25.81045   -125.3 8.654e+03 1.809e-10
 25.85104   -123.3 8.667e+03 1.643e-10
 25.88448   -121.4 8.674e+03 1.453e-10
 25.90478   -120.2 8.906e+03 2.297e-10
 25.93222   -118.4 8.926e+03 2.032e-10
 25.96922   -116.7 8.949e+03 1.765e-10
 25.98951   -116.2 8.824e+03 1.348e-10
 26.01340   -114.5 8.803e+03 1.120e-10
 26.03955   -112.9 8.700e+03 1.026e-10
 26.05984   -111.6 9.141e+03 1.589e-10
 26.09458   -110.2 9.166e+03 1.363e-10
 26.13517   -108.9 9.111e+03 1.299e-10
 26.17431   -107.6 9.065e+03 1.299e-10
 26.19461   -106.5 9.430e+03 2.594e-10
 26.21635   -105.2 9.416e+03 2.549e-10
 26.25694   -104.0 9.402e+03 2.574e-10
 26.29754   -102.8 9.397e+03 2.607e-10
 26.32938   -101.6 9.355e+03 2.548e-10
 26.34967   -100.1 9.843e+03 4.142e-10
 26.37872    -99.0 9.717e+03 3.553e-10
 26.41931    -97.9 9.537e+03 3.005e-10
 26.45990    -96.7 9.352e+03 2.588e-10
 26.48444    -95.6 9.277e+03 2.365e-10
 26.50473    -94.4 9.887e+03 3.390e-10
 26.54108    -93.7 9.851e+03 3.144e-10
 26.58167    -93.1 9.872e+03 3.115e-10
 26.60325    -92.7 1.017e+04 3.414e-10
 26.62049    -92.3 1.045e+04 4.270e-10
 26.63950    -92.4 1.137e+04 7.167e-10
 26.66285    -92.2 1.109e+04 6.769e-10
 26.70344    -91.5 1.066e+04 5.758e-10
 26.74403    -90.6 1.018e+04 4.208e-10
 26.77427    -89.6 9.744e+03 2.812e-10
 26.79457    -89.4 9.620e+03 2.962e-10
 26.82521    -88.5 9.316e+03 2.074e-10
 26.86580    -87.2 9.184e+03 1.639e-10
 26.90639    -86.0 9.183e+03 1.570e-10
 26.92933    -85.5 9.256e+03 1.580e-10
 26.94963    -84.6 9.315e+03 1.814e-10
 26.98757    -84.4 9.780e+03 2.308e-10
 27.02816    -84.5 1.052e+04 3.417e-10
 27.06410    -85.4 1.119e+04 5.280e-10
 27.08440    -83.7 1.121e+04 5.857e-10
 27.10935    -84.5 1.158e+04 7.622e-10
 27.14994    -85.1 1.160e+04 8.284e-10
 27.18028    -85.0 1.141e+04 8.254e-10
 27.20048    -84.9 1.116e+04 7.302e-10
 27.21678    -84.8 1.079e+04 5.879e-10
 27.22512    -84.3 1.068e+04 6.164e-10
 27.23936    -82.4 1.085e+04 6.785e-10
 27.27171    -81.7 1.007e+04 3.761e-10
 27.31230    -81.2 9.609e+03 2.063e-10
 27.35289    -80.6 9.525e+03 1.428e-10
 27.37423    -79.7 9.519e+03 1.330e-10
 27.39452    -77.9 9.519e+03 1.076e-10
 27.43407    -76.9 9.594e+03 1.089e-10
 27.47466    -76.1 9.860e+03 1.456e-10
 27.50899    -75.3 9.988e+03 1.955e-10
 27.52929    -73.5 9.953e+03 1.668e-10
 27.55584    -72.7 1.003e+04 2.072e-10
 27.59643    -71.8 1.003e+04 2.151e-10
 27.63702    -70.9 9.896e+03 1.893e-10
 27.66406    -69.7 9.757e+03 1.265e-10
 27.68435    -68.2 9.893e+03 1.604e-10
 27.71820    -67.1 9.824e+03 1.047e-10
 27.75879    -65.9 9.911e+03 8.121e-11
 27.79882    -64.9 9.963e+03 7.771e-11
 27.81912    -63.7 1.006e+04 9.310e-11
 27.83071    -63.2 1.015e+04 9.321e-11
 27.85101    -63.1 1.018e+04 1.071e-10
 27.88057    -63.0 1.069e+04 1.522e-10
 27.92116    -63.1 1.115e+04 3.594e-10
 27.95389    -62.8 1.178e+04 7.850e-10
 27.97418    -61.9 1.204e+04 8.080e-10
 28.00234    -62.0 1.281e+04 1.581e-09
 28.03132    -62.3 1.305e+04 1.953e-09
 28.04137    -62.3 1.337e+04 2.493e-09
 28.05288    -62.3 1.338e+04 2.669e-09
 28.07318    -62.2 1.320e+04 2.656e-09
 28.09347    -61.6 1.261e+04 2.063e-09
 28.10875    -61.2 1.208e+04 1.386e-09
 28.11890    -60.8 1.232e+04 1.618e-09
 28.13406    -60.7 1.176e+04 1.014e-09
 28.14753    -60.8 1.126e+04 6.739e-10
 28.15768    -60.8 1.102e+04 6.367e-10
 28.17465    -60.9 1.061e+04 4.649e-10
 28.18629    -60.7 1.039e+04 3.871e-10
 28.19643    -60.6 1.042e+04 4.153e-10
 28.21524    -60.1 1.033e+04 3.748e-10
 28.24362    -59.7 1.024e+04 3.413e-10
 28.26401    -59.2 1.022e+04 3.872e-10
 28.28647    -57.8 9.880e+03 3.127e-10
 28.32706    -56.5 9.792e+03 2.926e-10
 28.36765    -55.1 9.781e+03 2.861e-10
 28.39878    -53.7 9.786e+03 2.772e-10
 28.41908    -53.0 9.778e+03 2.773e-10
 28.44444    -51.8 9.804e+03 2.590e-10
 28.46474    -52.2 1.007e+04 3.770e-10
 28.48942    -51.1 1.007e+04 3.778e-10
 28.53001    -50.0 9.983e+03 3.592e-10
 28.55384    -48.9 9.890e+03 3.221e-10
 28.57414    -48.3 9.796e+03 3.109e-10
 28.61120    -47.4 9.734e+03 2.792e-10
 28.65179    -46.4 9.629e+03 2.346e-10
 28.68861    -45.5 9.491e+03 1.878e-10
 28.70891    -44.8 9.564e+03 2.007e-10
 28.73297    -44.1 9.424e+03 1.609e-10
 28.77356    -43.5 9.341e+03 1.458e-10
 28.81415    -42.7 9.327e+03 1.437e-10
 28.84367    -42.1 9.422e+03 1.634e-10
 28.86397    -41.5 9.352e+03 1.671e-10
 28.89533    -40.7 9.509e+03 2.162e-10
 28.93592    -39.6 9.710e+03 2.812e-10
 28.97651    -38.5 9.931e+03 3.437e-10
 28.99874    -37.6 1.012e+04 3.903e-10
 29.01903    -37.1 9.835e+03 2.535e-10
 29.05769    -36.5 9.938e+03 2.753e-10
 29.07847    -36.0 1.006e+04 3.123e-10
 29.09877    -36.3 9.994e+03 3.075e-10
 29.13350    -36.6 1.055e+04 3.776e-10
 29.15380    -35.7 1.024e+04 3.333e-10
 29.17946    -36.4 1.086e+04 5.339e-10
 29.22005    -37.2 1.156e+04 9.268e-10
 29.26064    -37.9 1.210e+04 1.386e-09
 29.28857    -38.6 1.227e+04 1.556e-09
 29.30886    -37.9 1.168e+04 1.073e-09
 29.34182    -38.6 1.147e+04 9.641e-10
 29.38242    -39.5 1.093e+04 5.552e-10
 29.42301    -41.5 1.051e+04 3.232e-10
 29.44363    -44.0 1.039e+04 2.821e-10
 29.46393    -42.7 1.008e+04 2.429e-10
 29.50419    -44.7 1.047e+04 3.640e-10
 29.54478    -46.4 1.098e+04 5.946e-10
 29.57840    -48.2 1.128e+04 7.202e-10
 29.59869    -45.7 1.124e+04 7.370e-10
 29.62596    -47.6 1.128e+04 7.303e-10
 29.66655    -49.5 1.100e+04 5.601e-10
 29.69211    -50.9 1.045e+04 4.172e-10
 29.71240    -51.4 1.041e+04 3.808e-10
 29.73346    -52.7 1.016e+04 3.089e-10
 29.75376    -50.5 1.018e+04 3.532e-10
 29.78832    -51.7 1.019e+04 3.464e-10
 29.82891    -52.9 1.034e+04 3.425e-10
 29.86823    -54.3 1.052e+04 3.442e-10
 29.88852    -51.9 1.060e+04 4.638e-10
 29.91009    -53.0 1.075e+04 4.596e-10
 29.94044    -55.2 1.066e+04 4.622e-10
 29.95571    -55.6 1.065e+04 5.099e-10
 29.96586    -54.5 1.069e+04 5.242e-10
 29.98093    -55.0 1.077e+04 5.708e-10
 29.99887    -55.3 1.087e+04 6.224e-10
 30.00902    -55.5 1.058e+04 5.528e-10
 30.02152    -55.8 1.066e+04 5.959e-10
 30.03324    -56.1 1.075e+04 6.344e-10
 30.04339    -55.0 1.088e+04 6.755e-10
 30.07236    -55.3 1.117e+04 7.635e-10
 30.11304    -56.0 1.153e+04 8.808e-10
 30.14339    -56.3 1.179e+04 9.579e-10
 30.16359    -57.6 1.211e+04 1.002e-09
 30.17816    -59.7 1.257e+04 1.112e-09
 30.18831    -60.1 1.355e+04 1.813e-09
 30.20418    -62.2 1.381e+04 2.225e-09
 30.22447    -63.8 1.381e+04 2.625e-09
 30.24477    -65.0 1.366e+04 2.955e-09
 30.25569    -65.5 1.356e+04 3.126e-09
 30.26584    -64.8 1.416e+04 3.790e-09
 30.28536    -65.3 1.365e+04 2.870e-09
 30.30565    -65.8 1.291e+04 2.092e-09
 30.32307    -66.4 1.264e+04 1.763e-09
 30.33322    -66.6 1.239e+04 1.284e-09
 30.34624    -68.0 1.218e+04 8.238e-10
 30.36654    -69.9 1.239e+04 6.528e-10
 30.38684    -72.3 1.252e+04 6.233e-10
 30.40060    -75.0 1.317e+04 7.184e-10
 30.41075    -74.8 1.251e+04 3.387e-10
 30.42743    -77.2 1.288e+04 5.295e-10
 30.44772    -78.7 1.277e+04 9.437e-10
 30.46799    -79.6 1.277e+04 1.388e-09
 30.48828    -80.2 1.228e+04 1.263e-09
 30.50861    -81.0 1.237e+04 1.396e-09
 30.52890    -82.2 1.231e+04 1.372e-09
 30.54552    -83.5 1.210e+04 1.164e-09
 30.55567    -82.6 1.229e+04 1.302e-09
 30.56949    -84.2 1.218e+04 1.103e-09
 30.58979    -85.8 1.201e+04 8.869e-10
 30.61008    -87.3 1.178e+04 7.073e-10
 30.62275    -88.4 1.145e+04 5.574e-10
 30.62558    -88.2 1.124e+04 4.890e-10
 30.63320    -88.0 1.130e+04 5.243e-10
 30.65067    -88.8 1.088e+04 4.124e-10
 30.67097    -89.7 1.075e+04 3.554e-10
 30.69044    -92.3 1.093e+04 3.464e-10
 30.70058    -96.6 1.391e+04 4.253e-10
 30.71156   -104.3 1.676e+04 1.025e-09
 30.73185   -109.5 1.680e+04 2.957e-09
 30.75215   -111.8 1.655e+04 5.940e-09
 30.76797   -112.6 1.649e+04 7.876e-09
 30.77811   -113.3 1.665e+04 8.663e-09
 30.78762   -113.2 1.656e+04 7.992e-09
 30.79772   -114.0 1.655e+04 6.940e-09
 30.81299   -115.4 1.635e+04 5.085e-09
 30.83333   -118.9 1.551e+04 2.611e-09
 30.84550   -124.6 1.272e+04 1.026e-09
 30.85565   -128.1 1.100e+04 6.840e-10
 30.87392   -129.9 9.639e+03 5.169e-10
 30.89422   -130.2 9.397e+03 4.697e-10
 30.91288   -130.4 9.342e+03 4.360e-10
 30.92809   -131.4 9.002e+03 3.517e-10
 30.93987   -129.1 9.007e+03 3.554e-10
 30.96535   -128.9 8.957e+03 3.358e-10
 31.00604   -128.9 8.900e+03 3.089e-10
 31.04663   -129.9 8.998e+03 3.058e-10
 31.06814   -134.3 1.042e+04 3.388e-10
 31.08844   -138.5 1.152e+04 4.421e-10
 31.11756   -142.1 1.264e+04 1.063e-09
 31.13533   -143.7 1.346e+04 1.906e-09
 31.14548   -145.1 1.373e+04 2.499e-09
 31.15806   -146.4 1.436e+04 3.674e-09
 31.17835   -147.8 1.468e+04 4.137e-09
 31.19865   -149.5 1.470e+04 4.140e-09
 31.21286   -151.4 1.428e+04 3.284e-09
 31.22301   -153.2 1.344e+04 2.261e-09
 31.23649   -156.0 1.222e+04 1.383e-09
 31.24663   -153.1 1.343e+04 2.287e-09
 31.25953   -155.8 1.228e+04 1.459e-09
 31.27983   -158.2 1.112e+04 9.783e-10
 31.29039   -159.9 1.037e+04 7.261e-10
 31.30054   -161.5 9.974e+03 5.687e-10
 31.32042   -162.5 9.993e+03 5.253e-10
 31.34071   -163.6 1.004e+04 5.181e-10
 31.35778   -165.0 1.014e+04 5.175e-10
 31.36792   -166.7 1.045e+04 6.106e-10
 31.38130   -168.3 1.081e+04 7.819e-10
 31.40160   -169.7 1.131e+04 1.090e-09
 31.42189   -170.7 1.188e+04 1.527e-09
 31.43531   -171.5 1.243e+04 2.019e-09
 31.44545   -172.2 1.262e+04 2.197e-09
 31.46248   -173.3 1.290e+04 2.392e-09
 31.48278   -174.6 1.297e+04 2.442e-09
 31.50269   -175.9 1.298e+04 2.366e-09
 31.51284   -177.1 1.265e+04 1.878e-09
 31.52337   -178.5 1.232e+04 1.555e-09
 31.54335   -179.8 1.191e+04 1.257e-09
 31.55350   -178.6 1.241e+04 1.651e-09
 31.56396   -179.6 1.195e+04 1.306e-09
 31.58022   -180.3 1.153e+04 1.045e-09
 31.59037   -181.2 1.107e+04 7.453e-10
 31.60455   -181.5 1.083e+04 5.941e-10
 31.62485   -181.8 1.062e+04 4.726e-10
 31.64514   -181.9 1.040e+04 3.843e-10
 31.65775   -181.8 1.021e+04 3.370e-10
 31.66800   -182.4 1.005e+04 2.847e-10
 31.69608   -182.2 9.872e+03 2.487e-10
 31.73667   -181.9 9.685e+03 2.252e-10
 31.77726   -181.5 9.620e+03 2.219e-10
 31.80286   -181.1 9.581e+03 2.245e-10
 31.82316   -182.1 9.432e+03 1.960e-10
 31.85844   -181.7 9.683e+03 2.683e-10
 31.89903   -181.3 1.007e+04 4.008e-10
 31.93763   -180.8 1.055e+04 6.048e-10
 31.95793   -181.6 1.037e+04 5.212e-10
 31.98021   -181.2 1.069e+04 6.705e-10
 32.02080   -181.1 1.083e+04 7.349e-10
 32.06139   -181.1 1.084e+04 7.379e-10
 32.09269   -180.9 1.073e+04 6.193e-10
 32.11299   -182.6 1.028e+04 3.533e-10
 32.14257   -182.6 1.016e+04 2.845e-10
 32.16743   -182.4 1.014e+04 2.516e-10
 32.18772   -181.2 1.006e+04 2.333e-10
 32.22375   -180.8 1.008e+04 2.043e-10
 32.24776   -180.2 1.010e+04 1.981e-10
 32.26805   -181.4 9.984e+03 2.126e-10
 32.30493   -180.5 1.007e+04 2.132e-10
 32.34552   -179.5 1.017e+04 2.122e-10
 32.38253   -178.6 1.028e+04 2.151e-10
 32.40282   -179.8 1.017e+04 1.949e-10
 32.42670   -179.1 1.035e+04 2.003e-10
 32.46730   -178.5 1.049e+04 2.255e-10
 32.50789   -178.1 1.058e+04 2.599e-10
 32.53759   -177.9 1.058e+04 2.831e-10
 32.55788   -178.6 1.053e+04 2.624e-10
 32.58907   -178.4 1.054e+04 2.652e-10
 32.62966   -178.2 1.060e+04 2.473e-10
 32.67025   -177.8 1.062e+04 2.082e-10
 32.69265   -177.3 1.065e+04 1.736e-10
 32.71295   -177.6 1.059e+04 1.736e-10
 32.75143   -176.8 1.065e+04 1.532e-10
 32.78116   -175.9 1.070e+04 1.468e-10
 32.80146   -175.8 1.084e+04 1.693e-10
 32.82742   -175.0 1.084e+04 1.697e-10
 32.84771   -175.1 1.082e+04 1.859e-10
 32.87320   -174.3 1.093e+04 1.965e-10
 32.91379   -173.6 1.097e+04 2.150e-10
 32.95438   -173.0 1.099e+04 2.292e-10
 32.98248   -172.4 1.099e+04 2.342e-10
 33.00278   -172.6 1.096e+04 2.675e-10
 33.03556   -171.9 1.084e+04 2.601e-10
 33.07615   -171.1 1.065e+04 2.336e-10
 33.11674   -170.1 1.059e+04 2.036e-10
 33.13754   -168.9 1.058e+04 1.885e-10
 33.15784   -168.7 1.046e+04 2.131e-10
 33.19792   -167.3 1.050e+04 2.054e-10
 33.23852   -166.2 1.054e+04 2.058e-10
 33.27231   -165.6 1.094e+04 2.427e-10
 33.29261   -165.9 1.099e+04 2.649e-10
 33.31970   -165.2 1.146e+04 4.273e-10
 33.36029   -164.3 1.195e+04 7.112e-10
 33.39489   -163.3 1.244e+04 1.088e-09
 33.41519   -163.2 1.181e+04 8.160e-10
 33.42737   -162.2 1.212e+04 1.049e-09
 33.44767   -162.2 1.138e+04 3.640e-10
 33.48206   -161.1 1.154e+04 3.762e-10
 33.52265   -160.1 1.174e+04 4.079e-10
 33.56214   -158.9 1.182e+04 4.900e-10
 33.58244   -159.4 1.136e+04 1.674e-10
 33.60383   -158.0 1.162e+04 2.190e-10
 33.64442   -156.3 1.163e+04 3.109e-10
 33.68501   -154.5 1.164e+04 4.195e-10
 33.71721   -152.5 1.169e+04 5.316e-10
 33.73750   -152.3 1.134e+04 3.692e-10
 33.76619   -150.4 1.149e+04 4.645e-10
 33.80678   -148.7 1.169e+04 5.870e-10
 33.84737   -147.2 1.201e+04 7.720e-10
 33.87227   -145.8 1.249e+04 1.087e-09
 33.89256   -146.2 1.271e+04 1.217e-09
 33.92855   -145.2 1.333e+04 1.895e-09
 33.96914   -144.6 1.381e+04 2.695e-09
 33.99949   -143.9 1.380e+04 2.791e-09
 34.01699   -143.6 1.385e+04 2.906e-09
 34.02612   -144.0 1.372e+04 2.616e-09
 34.02892   -142.9 1.328e+04 2.106e-09
 34.05033   -142.5 1.331e+04 2.186e-09
 34.09092   -141.7 1.310e+04 2.007e-09
 34.13151   -140.3 1.278e+04 1.651e-09
 34.16210   -138.6 1.250e+04 1.327e-09
 34.18239   -138.5 1.278e+04 1.440e-09
 34.21269   -136.6 1.280e+04 1.414e-09
 34.25328   -134.9 1.301e+04 1.485e-09
 34.29387   -133.4 1.332e+04 1.714e-09
 34.31716   -132.2 1.362e+04 2.022e-09
 34.32721   -133.3 1.464e+04 3.722e-09
 34.33559   -132.8 1.498e+04 4.444e-09
 34.34574   -132.4 1.474e+04 3.728e-09
 34.36471   -131.8 1.501e+04 4.258e-09
 34.38435   -131.4 1.511e+04 4.556e-09
 34.39450   -131.9 1.602e+04 7.630e-09
 34.40530   -131.5 1.592e+04 7.639e-09
 34.42559   -130.7 1.542e+04 6.626e-09
 34.44589   -129.6 1.488e+04 4.960e-09
 34.46188   -128.6 1.445e+04 3.606e-09
 34.47203   -129.3 1.467e+04 4.648e-09
 34.48648   -128.8 1.434e+04 3.575e-09
 34.50677   -128.4 1.406e+04 2.858e-09
 34.52707   -127.9 1.387e+04 2.394e-09
 34.53941   -127.3 1.383e+04 2.110e-09
 34.54956   -128.1 1.372e+04 3.299e-09
 34.56766   -127.7 1.371e+04 3.295e-09
 34.58795   -127.5 1.376e+04 3.486e-09
 34.60680   -127.1 1.386e+04 3.984e-09
 34.61694   -126.9 1.409e+04 5.404e-09
 34.62855   -126.1 1.422e+04 6.028e-09
 34.64246   -125.6 1.431e+04 6.309e-09
 34.65261   -125.7 1.387e+04 4.845e-09
 34.66914   -125.3 1.382e+04 4.673e-09
 34.68433   -124.7 1.372e+04 4.139e-09
 34.69448   -124.8 1.382e+04 3.438e-09
 34.70973   -124.3 1.356e+04 2.922e-09
 34.74027   -123.9 1.329e+04 2.468e-09
 34.76205   -122.7 1.297e+04 1.863e-09
 34.78235   -122.8 1.256e+04 1.257e-09
 34.82155   -121.4 1.253e+04 1.260e-09
 34.86214   -120.4 1.284e+04 1.529e-09
 34.89682   -119.6 1.327e+04 2.077e-09
 34.91712   -120.1 1.332e+04 2.251e-09
 34.94332   -119.6 1.361e+04 2.783e-09
 34.98391   -119.5 1.366e+04 2.925e-09
 35.02450   -119.2 1.342e+04 2.763e-09
 35.05189   -118.3 1.277e+04 1.947e-09
 35.07218   -118.7 1.213e+04 1.271e-09
 35.10568   -117.7 1.156e+04 7.948e-10
 35.14627   -116.7 1.117e+04 5.287e-10
 35.18665   -115.4 1.094e+04 3.974e-10
 35.20695   -115.5 1.085e+04 3.803e-10
 35.22745   -113.9 1.075e+04 3.280e-10
 35.25639   -112.2 1.067e+04 2.936e-10
 35.27668   -111.6 1.068e+04 3.080e-10
 35.30863   -109.9 1.064e+04 2.979e-10
 35.34172   -108.2 1.063e+04 2.955e-10
 35.36201   -108.3 1.055e+04 2.719e-10
 35.38981   -106.5 1.054e+04 2.617e-10
 35.43040   -104.8 1.054e+04 2.556e-10
 35.47099   -103.1 1.052e+04 2.513e-10
 35.49678   -101.5 1.049e+04 2.468e-10
 35.51707   -101.6 1.043e+04 2.216e-10
 35.55217   -100.0 1.043e+04 2.220e-10
 35.59277    -98.6 1.047e+04 2.245e-10
 35.63155    -97.5 1.059e+04 2.440e-10
 35.65184    -98.0 1.064e+04 2.764e-10
 35.67395    -97.2 1.081e+04 3.870e-10
 35.71454    -96.6 1.105e+04 5.558e-10
 35.75513    -96.0 1.133e+04 7.393e-10
 35.78661    -95.6 1.151e+04 8.439e-10
 35.80690    -96.5 1.159e+04 8.743e-10
 35.83631    -96.3 1.157e+04 8.673e-10
 35.87012    -95.7 1.139e+04 7.325e-10
 35.89041    -95.6 1.135e+04 6.576e-10
 35.91749    -94.8 1.117e+04 5.171e-10
 35.94167    -93.9 1.103e+04 4.339e-10
 35.96197    -94.3 1.092e+04 3.612e-10
 35.99867    -93.2 1.085e+04 3.370e-10
 36.03926    -92.0 1.084e+04 3.321e-10
 36.07644    -90.9 1.086e+04 3.507e-10
 36.09673    -90.8 1.082e+04 2.918e-10
 36.12044    -89.8 1.092e+04 3.512e-10
 36.16103    -88.7 1.104e+04 4.287e-10
 36.20162    -87.7 1.114e+04 4.847e-10
 36.23150    -86.7 1.118e+04 4.976e-10
 36.25180    -86.4 1.117e+04 4.362e-10
 36.28280    -85.5 1.120e+04 4.326e-10
 36.32339    -84.6 1.126e+04 3.944e-10
 36.36399    -84.2 1.134e+04 3.552e-10
 36.38657    -84.3 1.137e+04 3.429e-10
 36.40686    -84.5 1.145e+04 3.288e-10
 36.44517    -85.5 1.180e+04 4.601e-10
 36.48385    -86.6 1.204e+04 7.560e-10
 36.50415    -87.1 1.194e+04 7.379e-10
 36.52133    -88.0 1.206e+04 9.676e-10
 36.54163    -87.7 1.199e+04 8.677e-10
 36.56694    -88.9 1.198e+04 8.710e-10
 36.60753    -89.8 1.167e+04 7.809e-10
 36.64812    -90.2 1.137e+04 6.895e-10
 36.67640    -90.2 1.129e+04 6.600e-10
 36.69669    -89.5 1.104e+04 4.628e-10
 36.72930    -89.3 1.102e+04 4.536e-10
 36.76989    -89.0 1.118e+04 5.563e-10
 36.81048    -88.7 1.148e+04 7.924e-10
 36.83146    -88.6 1.170e+04 1.035e-09
 36.85175    -88.3 1.132e+04 6.457e-10
 36.89166    -88.2 1.147e+04 8.587e-10
 36.93225    -88.0 1.155e+04 1.011e-09
 36.96623    -87.7 1.156e+04 1.052e-09
 36.98652    -87.3 1.140e+04 9.836e-10
 37.01343    -86.9 1.146e+04 1.014e-09
 37.04366    -86.6 1.140e+04 9.936e-10
 37.05371    -86.5 1.141e+04 9.897e-10
 37.06398    -86.3 1.128e+04 9.320e-10
 37.08427    -86.1 1.115e+04 8.573e-10
 37.10457    -85.8 1.110e+04 8.102e-10
 37.11778    -85.4 1.113e+04 7.977e-10
 37.12426    -86.3 1.087e+04 6.262e-10
 37.14158    -86.8 1.095e+04 7.580e-10
 37.17580    -86.8 1.095e+04 7.886e-10
 37.21639    -86.9 1.094e+04 8.406e-10
 37.25606    -86.9 1.089e+04 8.500e-10
 37.27635    -87.2 1.126e+04 1.199e-09
 37.29757    -87.1 1.110e+04 1.067e-09
 37.33816    -87.2 1.087e+04 8.259e-10
 37.37875    -87.5 1.063e+04 5.915e-10
 37.41112    -88.2 1.044e+04 4.232e-10
 37.43141    -89.4 1.058e+04 4.705e-10
 37.45993    -90.2 1.043e+04 3.990e-10
 37.50052    -90.8 1.032e+04 4.125e-10
 37.54111    -91.0 1.028e+04 4.740e-10
 37.56618    -90.9 1.032e+04 5.078e-10
 37.58648    -92.3 1.038e+04 5.046e-10
 37.62229    -92.3 1.029e+04 4.904e-10
 37.66288    -92.5 1.023e+04 4.555e-10
 37.70095    -93.0 1.024e+04 4.229e-10
 37.72125    -95.2 1.081e+04 5.370e-10
 37.73161    -95.6 1.089e+04 6.515e-10
 37.75191    -95.3 1.048e+04 5.196e-10
 37.78465    -95.2 1.043e+04 5.442e-10
 37.82524    -94.8 1.029e+04 5.182e-10
 37.85601    -94.1 1.011e+04 4.479e-10
 37.87631    -94.6 1.020e+04 4.880e-10
 37.90643    -93.6 1.001e+04 4.028e-10
 37.94702    -92.5 9.923e+03 3.644e-10
 37.98761    -91.3 9.882e+03 3.487e-10
 38.01108    -90.0 9.839e+03 3.376e-10
 38.03137    -89.9 9.828e+03 3.344e-10
 38.06879    -88.4 9.787e+03 3.282e-10
 38.10938    -86.9 9.690e+03 3.114e-10
 38.14584    -85.3 9.533e+03 2.710e-10
 38.16614    -84.9 9.556e+03 2.794e-10
 38.19056    -83.1 9.385e+03 2.282e-10
 38.23115    -81.2 9.208e+03 1.745e-10
 38.27174    -79.2 9.062e+03 1.271e-10
 38.30091    -77.3 8.960e+03 9.108e-11
 38.32120    -76.8 9.006e+03 1.005e-10
 38.34535    -74.9 8.949e+03 7.265e-11
 38.36564    -74.7 8.946e+03 7.298e-11
 38.39351    -73.0 8.909e+03 5.542e-11
 38.43410    -71.3 8.883e+03 4.658e-11
 38.45597    -69.7 8.873e+03 4.395e-11
 38.47626    -69.5 8.950e+03 5.127e-11
 38.51528    -68.0 8.956e+03 5.102e-11
 38.55587    -66.7 9.003e+03 5.550e-11
 38.59074    -65.4 9.011e+03 6.745e-11
 38.61103    -65.3 9.033e+03 8.532e-11
 38.63705    -63.8 9.048e+03 9.712e-11
 38.67765    -62.2 9.083e+03 1.071e-10
 38.71824    -60.8 9.134e+03 1.132e-10
 38.74580    -59.4 9.158e+03 1.153e-10
 38.76609    -59.3 9.220e+03 1.101e-10
 38.79942    -58.1 9.252e+03 1.054e-10
 38.84001    -57.0 9.265e+03 9.815e-11
 38.88057    -55.9 9.272e+03 9.155e-11
 38.92116    -54.7 9.278e+03 8.919e-11
 38.95908    -53.5 9.279e+03 8.663e-11
 38.97937    -53.6 9.296e+03 9.278e-11
 39.00237    -52.4 9.315e+03 9.237e-11
 39.03563    -51.3 9.326e+03 9.208e-11
 39.05593    -51.0 9.421e+03 9.636e-11
 39.08355    -50.0 9.467e+03 9.624e-11
 39.12414    -49.4 9.637e+03 1.001e-10
 39.16473    -49.2 9.786e+03 1.341e-10
 39.19069    -48.6 9.878e+03 2.018e-10
 39.21099    -48.2 9.931e+03 2.121e-10
 39.24591    -47.4 1.006e+04 2.935e-10
 39.28650    -46.6 1.023e+04 3.631e-10
 39.32546    -45.8 1.032e+04 3.889e-10
 39.34576    -45.5 1.032e+04 3.829e-10
 39.36768    -44.7 1.036e+04 3.816e-10
 39.40827    -43.7 1.036e+04 3.131e-10
 39.44887    -42.7 1.029e+04 2.483e-10
 39.48052    -42.1 1.030e+04 2.137e-10
 39.50082    -42.0 1.039e+04 2.342e-10
 39.53005    -41.9 1.043e+04 2.309e-10
 39.57064    -42.8 1.033e+04 3.650e-10
 39.59311    -45.3 1.172e+04 8.930e-10
 39.60316    -45.6 1.155e+04 9.243e-10
 39.62118    -47.5 1.268e+04 1.240e-09
 39.63539    -51.2 1.518e+04 2.496e-09
 39.64554    -52.1 1.572e+04 2.865e-09
 39.66177    -58.8 1.788e+04 7.009e-09
 39.68207    -64.2 1.830e+04 1.197e-08
 39.69724    -66.7 1.807e+04 1.197e-08
 39.70734    -68.6 1.806e+04 1.229e-08
 39.71282    -70.6 1.722e+04 1.048e-08
 39.71790    -70.5 1.688e+04 9.551e-09
 39.72763    -71.8 1.625e+04 7.158e-09
 39.74290    -73.7 1.550e+04 4.801e-09
 39.76325    -77.3 1.393e+04 1.789e-09
 39.78031    -81.1 1.248e+04 6.701e-10
 39.79045    -81.0 1.226e+04 5.811e-10
 39.80384    -83.0 1.167e+04 3.997e-10
 39.82413    -83.5 1.144e+04 3.632e-10
 39.85467    -83.7 1.132e+04 3.497e-10
 39.89536    -83.6 1.124e+04 3.386e-10
 39.92542    -83.3 1.115e+04 3.077e-10
 39.94571    -82.4 1.123e+04 3.499e-10
 39.97654    -82.1 1.107e+04 3.011e-10
 40.01713    -81.6 1.086e+04 2.308e-10
 40.05772    -81.0 1.066e+04 1.760e-10
 40.08048    -80.3 1.054e+04 1.505e-10
 40.10077    -79.7 1.057e+04 1.529e-10
 40.13890    -79.1 1.051e+04 1.447e-10
 40.17949    -78.4 1.050e+04 1.455e-10
 40.20684    -77.7 1.053e+04 1.662e-10
 40.22230    -77.8 1.050e+04 1.531e-10
 40.23554    -77.2 1.046e+04 1.353e-10
 40.26068    -76.3 1.048e+04 1.532e-10
 40.30127    -75.3 1.048e+04 1.703e-10
 40.34186    -74.3 1.047e+04 1.810e-10
 40.37031    -73.2 1.047e+04 1.846e-10
 40.39061    -72.4 1.038e+04 1.426e-10
 40.42304    -71.2 1.036e+04 1.433e-10
 40.46363    -69.8 1.028e+04 1.415e-10
 40.50422    -68.1 1.019e+04 1.243e-10
 40.52537    -66.3 1.015e+04 9.678e-11
 40.54567    -65.5 1.013e+04 8.583e-11
 40.58540    -63.6 1.012e+04 6.325e-11
 40.62599    -61.8 1.014e+04 4.555e-11
 40.66014    -60.2 1.014e+04 3.451e-11
 40.68044    -59.3 1.018e+04 3.263e-11
 40.70717    -57.6 1.016e+04 2.733e-11
 40.74776    -55.9 1.013e+04 2.551e-11
 40.78835    -54.0 1.013e+04 2.428e-11
 40.81520    -52.3 1.016e+04 2.381e-11
 40.82713    -51.5 1.028e+04 2.473e-11
 40.84087    -51.8 1.030e+04 2.595e-11
 40.86953    -50.5 1.035e+04 3.007e-11
 40.91012    -49.3 1.033e+04 4.079e-11
 40.94997    -48.0 1.030e+04 6.125e-11
 40.97027    -47.2 1.036e+04 6.306e-11
 40.99131    -45.8 1.042e+04 8.950e-11
 41.03190    -44.3 1.053e+04 1.152e-10
 41.07249    -43.0 1.065e+04 1.278e-10
 41.10503    -41.9 1.069e+04 1.296e-10
 41.12533    -41.6 1.047e+04 1.678e-10
 41.15367    -40.2 1.044e+04 1.605e-10
 41.19426    -38.7 1.044e+04 1.397e-10
 41.23485    -37.1 1.046e+04 1.146e-10
 41.26010    -35.5 1.049e+04 9.099e-11
 41.28039    -34.8 1.071e+04 7.778e-11
 41.31603    -33.5 1.062e+04 6.353e-11
 41.35662    -32.1 1.062e+04 5.897e-11
 41.39486    -30.5 1.063e+04 5.809e-11
 41.41516    -30.2 1.053e+04 6.082e-11
 41.43430    -28.7 1.069e+04 6.687e-11
 41.45460    -28.5 1.057e+04 6.591e-11
 41.47839    -26.8 1.057e+04 7.528e-11
 41.51898    -24.7 1.047e+04 8.651e-11
 41.54993    -22.6 1.039e+04 9.119e-11
 41.57022    -21.9 1.037e+04 9.159e-11
 41.60016    -19.6 1.021e+04 8.537e-11
 41.64075    -17.2 1.011e+04 7.062e-11
 41.68134    -15.1 1.001e+04 5.641e-11
 41.70499    -13.1 9.925e+03 4.625e-11
 41.72529    -12.3 1.013e+04 3.729e-11
 41.76253    -10.3 1.002e+04 3.396e-11
 41.80312     -8.2 1.000e+04 3.324e-11
 41.83976     -6.2 1.001e+04 3.473e-11
 41.86005     -5.8 1.031e+04 3.033e-11
 41.88430     -4.0 1.016e+04 3.765e-11
 41.92489     -1.9 1.009e+04 4.776e-11
 41.96548      0.3 1.015e+04 5.809e-11
 41.99482      2.3 1.024e+04 6.774e-11
 42.01512      3.5 1.017e+04 6.473e-11
 42.04666      5.5 1.032e+04 6.380e-11
 42.06833      7.6 1.048e+04 5.700e-11
 42.08863      7.7 1.045e+04 5.674e-11
 42.12784      9.5 1.052e+04 4.958e-11
 42.14988     10.9 1.053e+04 4.468e-11
 42.17018     11.4 1.032e+04 4.012e-11
 42.20902     12.9 1.039e+04 4.129e-11
 42.24961     13.9 1.052e+04 4.942e-11
 42.28465     14.8 1.054e+04 7.006e-11
 42.30495     15.2 1.059e+04 6.800e-11
 42.33079     16.1 1.047e+04 1.134e-10
 42.37138     17.7 1.038e+04 1.805e-10
 42.41197     19.5 1.058e+04 2.113e-10
 42.43971     20.8 1.062e+04 2.018e-10
 42.46001     21.8 1.053e+04 1.865e-10
 42.49315     23.1 1.056e+04 1.464e-10
 42.53375     23.9 1.068e+04 1.081e-10
 42.57434     24.4 1.073e+04 8.737e-11
 42.61493     25.7 1.073e+04 9.423e-11
 42.65552     26.7 1.065e+04 1.136e-10
 42.68206     28.3 1.065e+04 1.296e-10
 42.70236     28.2 1.061e+04 1.284e-10
 42.72954     29.6 1.061e+04 1.296e-10
 42.74984     30.4 1.068e+04 1.370e-10
 42.77729     31.6 1.069e+04 1.255e-10
 42.81788     32.5 1.061e+04 1.181e-10
 42.85847     33.2 1.069e+04 1.215e-10
 42.88461     33.6 1.086e+04 1.483e-10
 42.90490     34.3 1.080e+04 1.731e-10
 42.93965     34.9 1.091e+04 2.488e-10
 42.98024     35.7 1.106e+04 3.601e-10
 43.01937     36.6 1.119e+04 4.504e-10
 43.03967     37.6 1.110e+04 3.541e-10
 43.06142     38.2 1.111e+04 3.477e-10
 43.10201     38.9 1.105e+04 3.130e-10
 43.14260     39.6 1.099e+04 2.713e-10
 43.17444     40.6 1.087e+04 2.268e-10
 43.19473     41.1 1.090e+04 2.685e-10
 43.22378     42.5 1.077e+04 2.367e-10
 43.26437     44.1 1.068e+04 1.845e-10
 43.29580     45.4 1.065e+04 1.378e-10
 43.31609     45.4 1.065e+04 1.181e-10
 43.32950     46.5 1.062e+04 9.155e-11
 43.34980     47.2 1.063e+04 1.367e-10
 43.38615     48.5 1.057e+04 1.159e-10
 43.42674     50.1 1.053e+04 1.038e-10
 43.46427     51.8 1.057e+04 9.367e-11
 43.48456     52.4 1.066e+04 1.032e-10
 43.50792     53.9 1.075e+04 8.790e-11
 43.54851     55.3 1.075e+04 8.013e-11
 43.58910     56.6 1.074e+04 8.092e-11
 43.61933     57.9 1.073e+04 8.618e-11
 43.63963     58.0 1.069e+04 9.296e-11
 43.67028     59.3 1.068e+04 1.070e-10
 43.71087     60.7 1.069e+04 1.184e-10
 43.75146     62.1 1.069e+04 1.240e-10
 43.77439     63.5 1.066e+04 1.243e-10
 43.79469     64.0 1.063e+04 1.054e-10
 43.83264     65.2 1.064e+04 9.620e-11
 43.87323     66.3 1.066e+04 9.660e-11
 43.90916     67.2 1.069e+04 1.034e-10
 43.92516     67.5 1.068e+04 8.204e-11
 43.92982     67.2 1.069e+04 8.601e-11
 43.95441     68.2 1.065e+04 1.014e-10
 43.99500     69.3 1.064e+04 1.237e-10
 44.03559     70.4 1.065e+04 1.481e-10
 44.06422     71.6 1.066e+04 1.679e-10
 44.08452     72.2 1.059e+04 1.509e-10
 44.11678     73.5 1.060e+04 1.632e-10
 44.15737     74.8 1.062e+04 1.710e-10
 44.19796     76.1 1.063e+04 1.815e-10
 44.21929     77.4 1.069e+04 2.018e-10
 44.23958     78.0 1.063e+04 1.784e-10
 44.27914     79.3 1.070e+04 2.029e-10
 44.31973     80.5 1.080e+04 2.380e-10
 44.35405     81.7 1.089e+04 2.882e-10
 44.37435     82.0 1.078e+04 2.283e-10
 44.40091     83.1 1.085e+04 2.795e-10
 44.44150     84.2 1.093e+04 3.478e-10
 44.48209     85.2 1.107e+04 4.174e-10
 44.50912     85.5 1.125e+04 4.603e-10
 44.52941     85.7 1.104e+04 3.873e-10
 44.54356     85.6 1.116e+04 4.117e-10
 44.56385     85.1 1.115e+04 4.198e-10
 44.60386     84.8 1.128e+04 4.728e-10
 44.64388     84.2 1.144e+04 5.874e-10
 44.66418     84.9 1.119e+04 4.760e-10
 44.68504     84.4 1.119e+04 5.025e-10
 44.72563     84.5 1.113e+04 4.909e-10
 44.76622     84.8 1.095e+04 4.193e-10
 44.79895     85.3 1.082e+04 3.034e-10
 44.81924     85.9 1.069e+04 2.257e-10
 44.84740     86.2 1.067e+04 1.578e-10
 44.88800     86.5 1.055e+04 1.326e-10
 44.92859     87.2 1.050e+04 1.350e-10
 44.95401     88.1 1.042e+04 1.491e-10
 44.97431     88.9 1.035e+04 1.261e-10
 45.00977     90.0 1.033e+04 1.536e-10
 45.05036     91.1 1.034e+04 1.907e-10
 45.08878     92.2 1.035e+04 2.093e-10
 45.10907     93.1 1.034e+04 2.091e-10
 45.13154     94.1 1.032e+04 2.127e-10
 45.15729     95.3 1.028e+04 2.037e-10
 45.17758     95.2 1.030e+04 2.097e-10
 45.21272     96.5 1.024e+04 1.732e-10
 45.24384     97.7 1.022e+04 1.351e-10
 45.26414     98.7 1.021e+04 1.822e-10
 45.29390    100.0 1.020e+04 1.530e-10
 45.33449    101.4 1.021e+04 1.347e-10
 45.37508    102.7 1.025e+04 1.320e-10
 45.39890    104.0 1.028e+04 1.349e-10
 45.41920    104.9 1.033e+04 1.826e-10
 45.45626    106.1 1.042e+04 1.892e-10
 45.49685    107.2 1.048e+04 2.113e-10
 45.53367    108.3 1.049e+04 2.506e-10
 45.55397    109.0 1.054e+04 2.995e-10
 45.57803    110.2 1.056e+04 3.384e-10
 45.61862    111.2 1.062e+04 3.927e-10
 45.65922    112.2 1.074e+04 4.645e-10
 45.68873    113.1 1.089e+04 5.536e-10
 45.70903    113.7 1.089e+04 5.517e-10
 45.74040    114.5 1.100e+04 6.303e-10
 45.77102    115.2 1.113e+04 6.884e-10
 45.79132    114.9 1.115e+04 6.764e-10
 45.82158    115.5 1.120e+04 6.763e-10
 45.84380    116.2 1.120e+04 6.733e-10
 45.86409    117.1 1.112e+04 5.966e-10
 45.90276    117.9 1.117e+04 6.114e-10
 45.94335    118.8 1.123e+04 6.609e-10
 45.97856    119.7 1.132e+04 7.424e-10
 45.99886    120.7 1.133e+04 7.171e-10
 46.02453    121.6 1.149e+04 8.419e-10
 46.06512    122.5 1.159e+04 8.957e-10
 46.10571    123.2 1.159e+04 8.817e-10
 46.13363    124.0 1.152e+04 7.997e-10
 46.15392    125.0 1.163e+04 8.702e-10
 46.18689    125.8 1.152e+04 7.411e-10
 46.22748    126.7 1.140e+04 5.921e-10
 46.26807    127.8 1.129e+04 4.734e-10
 46.28869    128.9 1.122e+04 3.932e-10
 46.30899    129.6 1.128e+04 3.906e-10
 46.34925    130.8 1.121e+04 3.071e-10
 46.38475    132.2 1.112e+04 2.632e-10
 46.40505    131.7 1.110e+04 2.694e-10
 46.42346    133.2 1.101e+04 2.533e-10
 46.44375    133.8 1.104e+04 2.142e-10
 46.47103    135.4 1.099e+04 2.127e-10
 46.51162    137.2 1.099e+04 2.127e-10
 46.55221    139.0 1.099e+04 2.140e-10
 46.57852    140.8 1.098e+04 2.183e-10
 46.59882    141.4 1.097e+04 1.965e-10
 46.63339    143.3 1.097e+04 2.065e-10
 46.67398    145.1 1.098e+04 2.204e-10
 46.71329    146.9 1.099e+04 2.343e-10
 46.73358    147.6 1.102e+04 2.339e-10
 46.75516    149.3 1.109e+04 2.465e-10
 46.79575    151.0 1.112e+04 2.543e-10
 46.83634    152.6 1.111e+04 2.530e-10
 46.86835    154.2 1.109e+04 2.486e-10
 46.88865    154.9 1.117e+04 2.988e-10
 46.91752    156.4 1.118e+04 3.027e-10
 46.95811    157.7 1.121e+04 3.102e-10
 46.99849    158.9 1.125e+04 3.279e-10
 47.01878    158.5 1.130e+04 3.518e-10
 47.02341    159.5 1.136e+04 3.946e-10
 47.04371    159.8 1.153e+04 5.004e-10
 47.07988    160.5 1.154e+04 5.379e-10
 47.12047    161.1 1.154e+04 5.918e-10
 47.15082    161.3 1.153e+04 6.394e-10
 47.16813    161.7 1.158e+04 7.108e-10
 47.17828    162.0 1.174e+04 8.221e-10
 47.19131    162.1 1.197e+04 9.880e-10
 47.21161    162.2 1.221e+04 1.183e-09
 47.23190    161.9 1.249e+04 1.435e-09
 47.24567    161.7 1.270e+04 1.643e-09
 47.25581    161.3 1.287e+04 1.783e-09
 47.27249    160.8 1.307e+04 2.007e-09
 47.29279    160.5 1.316e+04 2.110e-09
 47.31315    159.7 1.348e+04 2.464e-09
 47.33354    158.6 1.359e+04 2.585e-09
 47.36402    157.4 1.347e+04 2.392e-09
 47.40461    156.9 1.312e+04 1.824e-09
 47.44520    156.7 1.268e+04 1.197e-09
 47.46831    156.8 1.222e+04 7.449e-10
 47.48860    156.7 1.202e+04 5.753e-10
 47.52638    157.3 1.171e+04 3.777e-10
 47.56697    158.3 1.149e+04 2.834e-10
 47.60308    159.7 1.134e+04 2.339e-10
 47.62337    160.1 1.128e+04 2.519e-10
 47.63251    162.0 1.118e+04 2.321e-10
 47.65281    161.3 1.116e+04 2.398e-10
 47.68874    163.2 1.114e+04 2.070e-10
 47.72933    165.0 1.115e+04 1.794e-10
 47.75814    166.7 1.118e+04 1.671e-10
 47.77843    167.5 1.121e+04 2.142e-10
 47.81051    169.2 1.125e+04 2.088e-10
 47.85110    170.9 1.126e+04 2.107e-10
 47.89169    172.6 1.129e+04 2.210e-10
 47.91320    174.1 1.133e+04 2.479e-10
 47.93350    174.5 1.147e+04 3.116e-10
 47.97288    175.7 1.159e+04 3.582e-10
 48.01347    176.8 1.175e+04 4.277e-10
 48.04797    177.5 1.189e+04 5.152e-10
 48.06826    176.7 1.191e+04 5.518e-10
 48.08440    177.0 1.193e+04 5.983e-10
 48.10460    177.3 1.202e+04 6.684e-10
 48.12489    177.6 1.222e+04 8.001e-10
 48.13545    177.6 1.247e+04 9.669e-10
 48.14560    176.7 1.265e+04 1.089e-09
 48.16548    176.3 1.291e+04 1.303e-09
 48.18578    175.8 1.313e+04 1.523e-09
 48.20284    175.4 1.330e+04 1.692e-09
 48.21298    174.3 1.334e+04 1.662e-09
 48.22637    173.8 1.336e+04 1.625e-09
 48.24605    173.4 1.338e+04 1.461e-09
 48.25620    172.2 1.332e+04 1.325e-09
 48.26696    171.4 1.323e+04 1.105e-09
 48.28037    170.3 1.298e+04 9.661e-10
 48.29052    168.3 1.269e+04 9.164e-10
 48.30755    167.2 1.267e+04 9.493e-10
 48.32785    166.0 1.274e+04 1.107e-09
 48.34775    164.3 1.326e+04 1.571e-09
 48.35790    163.0 1.359e+04 1.944e-09
 48.36844    161.3 1.448e+04 3.105e-09
 48.38873    159.6 1.537e+04 4.899e-09
 48.40903    157.7 1.614e+04 6.994e-09
 48.42528    155.7 1.674e+04 8.744e-09
 48.43543    154.9 1.646e+04 7.629e-09
 48.44962    152.6 1.665e+04 7.592e-09
 48.46991    150.0 1.677e+04 6.768e-09
 48.49021    147.1 1.662e+04 5.342e-09
 48.50281    143.8 1.615e+04 3.959e-09
 48.51296    143.0 1.537e+04 3.183e-09
 48.53080    140.1 1.471e+04 2.500e-09
 48.55109    137.7 1.418e+04 2.110e-09
 48.56307    135.9 1.392e+04 1.885e-09
 48.57202    134.9 1.363e+04 1.715e-09
 48.58035    135.0 1.358e+04 1.552e-09
 48.59169    133.3 1.347e+04 1.481e-09
 48.62223    131.6 1.354e+04 1.558e-09
 48.64792    129.2 1.325e+04 1.315e-09
 48.66822    129.5 1.284e+04 8.816e-10
 48.70350    127.8 1.246e+04 6.488e-10
 48.74410    126.8 1.203e+04 4.487e-10
 48.78269    126.3 1.172e+04 3.409e-10
 48.80299    126.8 1.175e+04 3.593e-10
 48.82528    126.8 1.160e+04 3.562e-10
 48.85998    127.5 1.158e+04 3.610e-10
 48.88028    126.3 1.159e+04 4.538e-10
 48.90646    127.7 1.157e+04 4.832e-10
 48.93776    129.3 1.157e+04 5.091e-10
 48.95805    129.7 1.134e+04 3.475e-10
 48.98764    131.3 1.134e+04 3.249e-10
 49.02823    133.0 1.137e+04 3.206e-10
 49.06882    134.7 1.140e+04 3.236e-10
 49.09282    136.5 1.148e+04 3.451e-10
 49.11311    136.3 1.130e+04 2.299e-10
 49.15000    138.2 1.132e+04 3.077e-10
 49.19059    140.2 1.143e+04 4.179e-10
 49.22759    142.2 1.171e+04 5.280e-10
 49.24788    142.2 1.169e+04 5.228e-10
 49.27177    143.9 1.209e+04 5.561e-10
 49.31236    145.1 1.215e+04 5.447e-10
 49.35295    146.0 1.218e+04 4.959e-10
 49.38265    146.8 1.209e+04 4.125e-10
 49.40294    146.9 1.183e+04 3.311e-10
 49.43413    147.8 1.160e+04 2.541e-10
 49.47371    148.9 1.126e+04 2.325e-10
 49.49401    147.8 1.125e+04 3.151e-10
 49.51532    149.3 1.123e+04 3.208e-10
 49.53771    151.1 1.122e+04 3.491e-10
 49.55801    151.8 1.100e+04 2.746e-10
 49.59650    153.7 1.110e+04 3.230e-10
 49.63709    155.7 1.122e+04 3.983e-10
 49.67248    157.7 1.134e+04 4.717e-10
 49.69277    158.2 1.121e+04 4.130e-10
 49.71827    160.3 1.146e+04 5.364e-10
 49.75886    162.2 1.173e+04 7.043e-10
 49.79945    163.8 1.198e+04 7.201e-10
 49.82754    165.0 1.199e+04 6.859e-10
 49.84784    165.5 1.233e+04 9.392e-10
 49.88063    166.3 1.234e+04 8.827e-10
 49.92122    167.0 1.227e+04 7.167e-10
 49.96181    167.7 1.206e+04 5.402e-10
 49.98260    168.4 1.179e+04 4.523e-10
 50.00290    168.3 1.194e+04 5.734e-10
 50.04299    169.2 1.181e+04 5.576e-10
 50.08358    170.5 1.186e+04 5.841e-10
 50.10764    170.9 1.187e+04 6.511e-10
 50.11769    170.1 1.211e+04 8.715e-10
 50.12732    170.5 1.223e+04 9.731e-10
 50.13757    170.0 1.212e+04 9.636e-10
 50.16476    171.0 1.239e+04 1.184e-09
 50.19481    171.3 1.258e+04 1.316e-09
 50.20486    171.2 1.253e+04 1.303e-09
 50.21531    171.5 1.265e+04 1.405e-09
 50.23560    171.8 1.273e+04 1.503e-09
 50.25590    172.1 1.274e+04 1.585e-09
 50.27224    172.4 1.275e+04 1.665e-09
 50.29263    172.6 1.259e+04 1.644e-09
 50.31688    172.9 1.276e+04 1.834e-09
 50.33708    173.2 1.294e+04 2.042e-09
 50.34977    173.6 1.314e+04 2.335e-09
 50.35992    173.3 1.313e+04 2.288e-09
 50.37767    173.6 1.339e+04 2.671e-09
 50.39796    173.9 1.365e+04 3.120e-09
 50.41441    174.3 1.388e+04 3.561e-09
 50.42346    174.2 1.359e+04 2.948e-09
 50.42740    173.8 1.325e+04 2.296e-09
 50.44890    173.8 1.337e+04 2.364e-09
 50.48949    173.6 1.324e+04 2.175e-09
 50.53008    173.1 1.282e+04 1.662e-09
 50.56227    172.5 1.217e+04 1.113e-09
 50.58256    171.6 1.130e+04 6.705e-10
 50.61126    171.5 1.085e+04 5.117e-10
 50.65185    171.5 1.049e+04 3.768e-10
 50.69244    171.6 1.017e+04 2.701e-10
 50.71733    172.0 9.805e+03 2.170e-10
 50.72607    172.2 9.817e+03 2.191e-10
 50.74177    172.5 9.923e+03 2.389e-10
 50.77362    173.3 9.849e+03 2.365e-10
 50.81421    174.7 9.854e+03 2.445e-10
 50.85210    176.0 9.927e+03 2.800e-10
 50.87239    175.9 9.948e+03 2.785e-10
 50.89539    177.3 1.028e+04 3.858e-10
 50.93598    178.5 1.084e+04 5.843e-10
 50.97657    179.3 1.154e+04 9.429e-10
 51.00716    179.5 1.241e+04 1.550e-09
 51.02745    178.5 1.221e+04 1.390e-09
 51.05776    178.2 1.250e+04 1.555e-09
 51.09835    177.2 1.247e+04 1.511e-09
 51.13894    176.0 1.215e+04 1.262e-09
 51.16222    175.5 1.155e+04 8.807e-10
 51.18252    175.0 1.096e+04 5.979e-10
 51.22012    175.0 1.048e+04 3.968e-10
 51.26071    175.3 1.012e+04 2.700e-10
 51.29699    175.9 9.847e+03 2.058e-10
 51.31728    176.1 9.750e+03 2.242e-10
 51.33521    177.2 9.733e+03 2.271e-10
 51.35550    177.4 9.846e+03 2.708e-10
 51.38248    178.6 9.871e+03 2.893e-10
 51.42307    179.6 9.942e+03 3.095e-10
 51.45205    180.4 9.978e+03 3.133e-10
 51.47235    180.5 1.007e+04 3.579e-10
 51.50425    181.0 1.005e+04 3.439e-10
 51.54484    181.4 9.936e+03 2.946e-10
 51.58543    182.0 9.748e+03 2.257e-10
 51.60712    182.7 9.523e+03 1.648e-10
 51.62741    182.5 9.492e+03 1.721e-10
 51.66661    183.3 9.286e+03 1.562e-10
 51.70720    184.5 9.274e+03 1.569e-10
 51.74188    185.9 9.264e+03 1.634e-10
 51.76218    186.0 9.271e+03 1.788e-10
 51.78838    187.4 9.358e+03 2.106e-10
 51.82898    188.8 9.514e+03 2.606e-10
 51.86957    190.0 9.709e+03 3.168e-10
 51.89695    191.1 9.907e+03 3.607e-10
 51.91724    191.1 9.908e+03 3.585e-10
 51.94894    191.9 1.009e+04 3.843e-10
 51.96923    191.7 1.012e+04 3.590e-10
 51.99134    192.2 1.016e+04 3.600e-10
 52.03171    192.2 1.021e+04 3.624e-10
 52.05201    191.8 1.015e+04 3.383e-10
 52.07252    191.6 1.022e+04 3.430e-10
 52.11311    190.9 1.046e+04 3.708e-10
 52.15370    190.0 1.065e+04 4.093e-10
 52.18404    188.7 1.093e+04 4.751e-10
 52.19673    187.4 1.122e+04 6.009e-10
 52.20688    187.1 1.105e+04 4.886e-10
 52.23478    185.4 1.153e+04 7.288e-10
 52.27547    182.7 1.227e+04 1.363e-09
 52.31606    179.8 1.268e+04 1.803e-09
 52.34184    176.8 1.266e+04 1.769e-09
 52.36213    176.5 1.212e+04 1.358e-09
 52.39724    174.5 1.176e+04 1.141e-09
 52.43783    173.4 1.116e+04 8.150e-10
 52.47661    172.8 1.063e+04 5.584e-10
 52.49690    173.0 1.050e+04 4.936e-10
 52.51901    172.9 1.037e+04 4.124e-10
 52.55960    172.9 1.031e+04 3.469e-10
 52.58297    173.0 1.026e+04 2.883e-10
 52.60326    173.6 1.044e+04 3.416e-10
 52.63167    173.5 1.041e+04 3.048e-10
 52.65196    174.3 1.047e+04 3.065e-10
 52.68138    174.1 1.050e+04 3.034e-10
 52.72197    173.7 1.062e+04 3.145e-10
 52.76256    173.2 1.083e+04 3.562e-10
 52.78663    172.6 1.111e+04 4.222e-10
 52.79668    173.0 1.115e+04 4.035e-10
 52.81310    172.1 1.143e+04 5.021e-10
 52.83340    171.3 1.169e+04 6.446e-10
 52.85369    170.5 1.193e+04 7.784e-10
 52.86407    169.4 1.205e+04 8.106e-10
 52.87422    169.4 1.194e+04 7.337e-10
 52.88964    168.1 1.192e+04 7.228e-10
 52.89978    168.3 1.198e+04 7.297e-10
 52.91458    167.1 1.184e+04 6.672e-10
 52.93145    165.9 1.157e+04 5.621e-10
 52.94160    165.8 1.161e+04 5.483e-10
 52.95517    164.5 1.131e+04 4.523e-10
 52.97546    163.3 1.099e+04 3.850e-10
 52.99576    162.1 1.074e+04 3.596e-10
 53.00898    161.4 1.072e+04 3.610e-10
 53.01913    161.0 1.086e+04 4.030e-10
 53.03635    160.3 1.084e+04 4.313e-10
 53.05664    159.7 1.088e+04 4.870e-10
 53.07637    159.1 1.097e+04 5.682e-10
 53.08652    158.5 1.129e+04 7.171e-10
 53.09723    157.8 1.146e+04 8.426e-10
 53.11753    156.9 1.171e+04 9.904e-10
 53.13782    155.5 1.210e+04 1.184e-09
 53.15390    153.7 1.269e+04 1.480e-09
 53.16405    151.1 1.381e+04 2.235e-09
 53.17841    148.4 1.465e+04 3.117e-09
 53.19650    145.0 1.582e+04 4.604e-09
 53.20665    145.4 1.534e+04 3.994e-09
 53.21901    141.6 1.652e+04 6.045e-09
 53.23143    137.8 1.764e+04 8.570e-09
 53.24158    133.2 1.904e+04 1.074e-08
 53.25960    129.2 1.905e+04 1.056e-08
 53.27989    125.6 1.847e+04 8.909e-09
 53.29881    121.9 1.719e+04 6.007e-09
 53.30896    119.1 1.589e+04 4.411e-09
 53.32048    115.1 1.376e+04 2.531e-09
 53.34078    111.5 1.208e+04 1.737e-09
 53.36107    110.2 1.185e+04 1.539e-09
 53.37635    109.3 1.173e+04 1.420e-09
 53.38659    107.6 1.151e+04 1.023e-09
 53.41201    106.2 1.121e+04 9.106e-10
 53.45260    105.1 1.099e+04 8.697e-10
 53.49319    104.4 1.088e+04 8.529e-10
 53.52146    104.0 1.081e+04 8.318e-10
 53.54175    102.1 1.037e+04 6.055e-10
 53.57437    102.2 1.027e+04 5.712e-10
 53.61496    102.7 1.007e+04 4.793e-10
 53.65555    103.1 9.763e+03 3.505e-10
 53.67652    103.3 9.385e+03 2.432e-10
 53.69681    102.3 9.599e+03 2.789e-10
 53.73673    102.1 9.603e+03 2.717e-10
 53.77732    101.5 9.834e+03 3.068e-10
 53.81043    100.1 1.079e+04 5.245e-10
 53.82410    100.1 1.029e+04 4.600e-10
 53.83148     98.6 1.107e+04 9.262e-10
 53.84816     98.3 1.143e+04 1.212e-09
 53.86845     98.2 1.175e+04 1.493e-09
 53.88862     97.9 1.188e+04 1.593e-09
 53.89877     97.8 1.202e+04 1.681e-09
 53.90904     97.1 1.198e+04 1.653e-09
 53.93958     96.5 1.158e+04 1.275e-09
 53.96635     95.4 1.102e+04 7.549e-10
 53.98664     93.9 1.068e+04 6.946e-10
 54.02086     93.0 9.906e+03 4.288e-10
 54.06145     92.8 9.648e+03 3.519e-10
 54.10112     93.4 9.642e+03 3.537e-10
 54.12141     93.3 9.673e+03 3.779e-10
 54.14263     94.5 9.757e+03 4.061e-10
 54.18323     95.1 9.882e+03 4.614e-10
 54.21357     95.6 1.020e+04 5.978e-10
 54.23377     96.1 1.046e+04 7.378e-10
 54.25406     96.5 1.074e+04 9.129e-10
 54.26613     96.8 1.102e+04 1.127e-09
 54.27628     97.1 1.095e+04 1.145e-09
 54.29465     97.4 1.127e+04 1.399e-09
 54.31495     97.6 1.160e+04 1.704e-09
 54.33352     97.5 1.189e+04 2.058e-09
 54.34366     97.7 1.233e+04 1.585e-09
 54.35554     97.6 1.262e+04 1.908e-09
 54.37584     97.5 1.290e+04 2.292e-09
 54.39613     97.4 1.321e+04 2.711e-09
 54.41105     97.2 1.355e+04 3.090e-09
 54.42120     96.9 1.298e+04 2.543e-09
 54.43412     95.9 1.308e+04 2.522e-09
 54.44426     95.9 1.303e+04 2.384e-09
 54.46726     93.4 1.267e+04 1.759e-09
 54.50795     90.4 1.238e+04 1.419e-09
 54.54601     87.3 1.202e+04 1.098e-09
 54.56631     85.2 1.222e+04 1.010e-09
 54.58913     82.1 1.176e+04 8.478e-10
 54.62972     80.4 1.119e+04 7.366e-10
 54.67031     80.1 1.077e+04 6.681e-10
 54.70107     79.9 1.053e+04 6.073e-10
 54.72137     79.2 1.020e+04 4.982e-10
 54.75149     78.8 1.023e+04 4.820e-10
 54.79208     78.2 1.030e+04 5.031e-10
 54.83267     77.5 1.048e+04 5.908e-10
 54.85614     76.3 1.058e+04 6.618e-10
 54.87643     75.2 1.054e+04 6.883e-10
 54.91385     73.7 1.045e+04 6.591e-10
 54.95445     72.6 1.002e+04 5.268e-10
 54.99090     72.1 9.457e+03 3.549e-10
 55.01120     71.6 9.276e+03 2.891e-10
 55.03563     71.1 8.733e+03 1.500e-10
 55.05819     70.4 8.410e+03 8.997e-11
 55.07849     71.0 8.486e+03 1.070e-10
 55.11681     70.9 8.426e+03 9.993e-11
 55.14597     71.3 8.449e+03 1.023e-10
 55.16626     70.6 8.345e+03 8.870e-11
 55.19799     70.2 8.691e+03 1.224e-10
 55.23858     69.6 9.253e+03 2.062e-10
 55.27917     68.8 9.791e+03 3.270e-10
 55.30093     67.2 1.033e+04 5.027e-10
 55.31098     65.9 1.092e+04 9.058e-10
 55.32971     65.5 1.120e+04 1.133e-09
 55.35001     65.0 1.123e+04 1.166e-09
 55.36486     64.6 1.117e+04 1.136e-09
 55.37293     65.0 1.128e+04 1.169e-09
 55.37837     64.3 1.173e+04 1.456e-09
 55.39060     63.5 1.160e+04 1.230e-09
 55.41089     62.7 1.140e+04 1.019e-09
 55.43119     61.6 1.124e+04 8.045e-10
 55.44575     60.7 1.094e+04 6.602e-10
 55.45599     59.6 1.103e+04 6.997e-10
 55.48212     57.3 1.077e+04 5.920e-10
 55.52271     55.1 1.078e+04 6.010e-10
 55.56330     52.9 1.082e+04 6.202e-10
 55.59086     50.7 1.076e+04 6.037e-10
 55.61116     48.0 1.054e+04 5.499e-10
 55.64448     46.9 1.024e+04 4.354e-10
 55.67192     46.3 9.919e+03 2.967e-10
 55.69222     47.0 1.011e+04 3.345e-10
 55.72563     46.2 9.898e+03 2.229e-10
 55.76622     43.9 9.681e+03 1.494e-10
 55.80685     43.4 9.536e+03 1.460e-10
 55.84744     43.2 9.474e+03 1.559e-10
 55.88069     43.3 9.384e+03 1.791e-10
 55.90099     42.6 9.394e+03 1.793e-10
 55.92862     43.1 9.346e+03 1.806e-10
 55.96921     44.0 9.221e+03 1.659e-10
 56.00980     44.9 9.092e+03 1.267e-10
 56.03575     45.5 8.981e+03 8.675e-11
 56.05605     44.2 9.263e+03 1.115e-10
 56.09098     44.9 9.250e+03 1.120e-10
 56.13157     45.7 9.256e+03 1.191e-10
 56.17052     46.5 9.342e+03 1.531e-10
 56.19082     45.9 9.650e+03 2.203e-10
 56.21275     46.6 1.003e+04 2.979e-10
 56.25334     46.5 1.073e+04 4.713e-10
 56.28566     46.1 1.146e+04 7.416e-10
 56.30585     45.7 1.231e+04 1.243e-09
 56.32418     45.4 1.271e+04 1.429e-09
 56.33554     45.0 1.281e+04 1.432e-09
 56.34568     43.9 1.256e+04 1.392e-09
 56.36477     43.3 1.237e+04 1.266e-09
 56.38507     42.7 1.210e+04 1.126e-09
 56.40292     42.3 1.179e+04 1.005e-09
 56.41307     42.0 1.160e+04 9.273e-10
 56.42566     41.9 1.131e+04 8.275e-10
 56.44595     41.8 1.097e+04 6.990e-10
 56.46625     41.7 1.069e+04 5.723e-10
 56.48045     41.6 1.051e+04 4.552e-10
 56.49060     41.2 1.044e+04 4.391e-10
 56.50684     41.0 1.032e+04 3.741e-10
 56.53738     41.0 1.034e+04 4.002e-10
 56.57807     41.6 1.022e+04 3.977e-10
 56.61541     42.4 1.018e+04 4.020e-10
 56.63571     42.0 1.014e+04 4.196e-10
 56.65925     42.8 9.983e+03 3.892e-10
 56.69984     43.5 9.908e+03 3.844e-10
 56.73018     43.9 9.863e+03 3.678e-10
 56.75038     44.1 9.899e+03 3.723e-10
 56.77028     44.1 9.986e+03 3.991e-10
 56.78043     44.0 9.976e+03 3.901e-10
 56.79097     44.0 1.010e+04 4.393e-10
 56.81127     43.8 1.031e+04 5.151e-10
 56.83156     43.5 1.064e+04 6.397e-10
 56.84781     42.6 1.119e+04 8.667e-10
 56.85796     42.4 1.144e+04 9.527e-10
 56.87215     40.7 1.237e+04 1.518e-09
 56.89245     39.2 1.317e+04 2.462e-09
 56.90934     38.5 1.374e+04 3.587e-09
 56.91949     39.1 1.359e+04 3.169e-09
 56.92534     38.4 1.386e+04 3.765e-09
 56.93549     38.3 1.406e+04 4.088e-09
 56.95333     37.5 1.402e+04 4.016e-09
 56.97363     36.9 1.364e+04 3.437e-09
 56.99273     36.3 1.291e+04 2.456e-09
 57.00288     36.0 1.297e+04 2.545e-09
 57.01422     35.1 1.191e+04 1.422e-09
 57.03451     33.5 1.089e+04 8.573e-10
 57.06021     33.2 9.808e+03 4.101e-10
 57.08060     33.5 1.001e+04 4.665e-10
 57.10574     32.4 8.357e+03 1.309e-10
 57.14633     31.3 7.890e+03 7.650e-11
 57.18692     31.6 7.855e+03 7.792e-11
 57.21537     32.6 8.045e+03 1.045e-10
 57.23567     32.3 8.319e+03 1.297e-10
 57.26811     31.9 8.943e+03 1.949e-10
 57.29280     29.6 1.017e+04 3.768e-10
 57.30285     28.3 1.063e+04 4.799e-10
 57.31865     25.2 1.161e+04 1.051e-09
 57.33894     25.0 1.232e+04 1.954e-09
 57.35924     25.3 1.269e+04 2.492e-09
 57.37024     25.3 1.270e+04 2.415e-09
 57.38039     25.5 1.230e+04 1.932e-09
 57.39983     25.0 1.221e+04 1.472e-09
 57.42012     23.0 1.188e+04 9.761e-10
 57.43762     19.9 1.116e+04 6.830e-10
 57.44777     19.4 1.059e+04 5.146e-10
 57.46071     17.6 1.005e+04 4.685e-10
 57.48101     16.9 9.949e+03 4.631e-10
 57.50510     17.0 9.953e+03 4.906e-10
 57.52550     17.7 9.732e+03 3.971e-10
 57.53342     17.8 9.686e+03 4.112e-10
 57.55371     18.1 9.694e+03 4.001e-10
 57.59283     18.3 9.583e+03 3.824e-10
 57.63342     18.6 9.423e+03 3.318e-10
 57.66026     18.9 9.258e+03 2.752e-10
 57.68056     19.5 9.478e+03 3.652e-10
 57.71460     19.9 9.477e+03 3.438e-10
 57.75519     20.1 9.759e+03 3.948e-10
 57.78554     19.8 1.032e+04 5.143e-10
 57.80498     19.6 1.076e+04 6.369e-10
 57.81513     19.4 1.083e+04 6.311e-10
 57.82603     18.3 1.179e+04 9.937e-10
 57.84009     16.8 1.275e+04 1.707e-09
 57.85024     16.7 1.318e+04 2.386e-09
 57.86662     16.0 1.421e+04 3.873e-09
 57.88252     15.1 1.547e+04 6.073e-09
 57.89266     14.6 1.544e+04 6.130e-09
 57.90721     14.2 1.634e+04 8.799e-09
 57.92751     13.3 1.713e+04 9.561e-09
 57.94268      4.9 2.237e+04 1.325e-08
 57.95278     -3.4 2.615e+04 1.855e-08
 57.95995     -9.4 2.661e+04 3.088e-08
 57.96502    -11.5 2.598e+04 3.262e-08
 57.97307    -14.5 2.194e+04 4.833e-08
 57.98322    -15.5 1.998e+04 4.774e-08
 57.99337    -15.1 1.947e+04 4.172e-08
 57.99850    -15.0 2.006e+04 2.655e-08
 57.99877    -15.0 2.028e+04 2.841e-08
 58.00379    -14.8 2.061e+04 2.886e-08
 58.01366    -16.2 2.232e+04 1.807e-08
 58.02381    -20.9 2.431e+04 6.406e-09
 58.03241    -25.4 2.144e+04 4.532e-09
 58.03748    -26.1 2.134e+04 4.515e-09
 58.04923    -37.8 1.436e+04 1.670e-09
 58.06957    -40.4 1.192e+04 1.305e-09
 58.08987    -40.3 1.151e+04 1.117e-09
 58.10496    -39.7 1.109e+04 9.315e-10
 58.11511    -39.7 1.113e+04 9.505e-10
 58.13046    -39.1 1.076e+04 7.905e-10
 58.14695    -38.4 1.047e+04 6.565e-10
 58.15710    -38.9 1.079e+04 8.151e-10
 58.17105    -38.0 1.049e+04 6.702e-10
 58.18249    -37.1 1.032e+04 5.650e-10
 58.19264    -37.2 1.024e+04 5.577e-10
 58.21164    -36.5 1.016e+04 5.152e-10
 58.23983    -35.2 1.001e+04 4.777e-10
 58.26022    -35.3 9.842e+03 4.730e-10
 58.28287    -32.9 9.553e+03 3.927e-10
 58.32346    -30.2 9.155e+03 3.119e-10
 58.36405    -27.9 9.019e+03 2.470e-10
 58.39499    -26.2 8.999e+03 2.206e-10
 58.41528    -26.0 9.022e+03 2.458e-10
 58.44523    -24.5 9.131e+03 2.581e-10
 58.48582    -23.0 9.244e+03 3.020e-10
 58.52641    -21.2 9.355e+03 3.448e-10
 58.55005    -19.5 9.348e+03 3.578e-10
 58.57035    -19.0 9.323e+03 3.285e-10
 58.60759    -17.6 9.234e+03 2.779e-10
 58.64818    -16.8 9.100e+03 2.373e-10
 58.68482    -16.2 8.921e+03 2.158e-10
 58.70511    -16.1 8.991e+03 2.572e-10
 58.72936    -15.3 8.955e+03 2.542e-10
 58.76088    -15.3 9.071e+03 2.682e-10
 58.78118    -15.9 9.009e+03 2.501e-10
 58.81055    -15.6 9.026e+03 3.146e-10
 58.83988    -15.0 9.154e+03 3.388e-10
 58.86018    -15.0 9.285e+03 3.587e-10
 58.89173    -14.8 9.300e+03 2.790e-10
 58.93232    -15.6 9.352e+03 2.419e-10
 58.97291    -16.0 9.321e+03 2.443e-10
 58.99494    -16.6 9.474e+03 2.763e-10
 59.01524    -15.8 9.318e+03 2.374e-10
 59.05409    -16.4 9.585e+03 2.909e-10
 59.09468    -16.6 9.876e+03 4.142e-10
 59.12971    -16.0 9.993e+03 5.293e-10
 59.15001    -15.7 9.919e+03 5.127e-10
 59.17586    -14.6 1.005e+04 5.606e-10
 59.21645    -13.6 1.021e+04 4.761e-10
 59.25704    -13.9 1.034e+04 4.071e-10
 59.28477    -13.6 1.015e+04 4.146e-10
 59.30507    -13.5 1.076e+04 6.771e-10
 59.33822    -12.7 1.090e+04 6.924e-10
 59.37462    -13.2 1.137e+04 6.108e-10
 59.39491    -12.7 1.122e+04 6.781e-10
 59.41940    -13.1 1.177e+04 7.868e-10
 59.45999    -12.8 1.267e+04 1.585e-09
 59.50058    -13.1 1.220e+04 1.239e-09
 59.54117    -13.1 1.194e+04 1.188e-09
 59.57460    -12.4 1.162e+04 1.056e-09
 59.59490    -13.1 1.132e+04 9.136e-10
 59.62236    -11.4 1.080e+04 6.405e-10
 59.66295    -10.5 1.046e+04 4.371e-10
 59.70354    -10.0 1.032e+04 3.663e-10
 59.72967     -9.2 1.038e+04 3.810e-10
 59.74996     -9.0 1.048e+04 4.458e-10
 59.78472     -8.1 1.093e+04 6.955e-10
 59.82531     -6.7 1.156e+04 9.846e-10
 59.86444     -5.7 1.199e+04 9.745e-10
 59.88473     -6.1 1.287e+04 1.856e-09
 59.90649     -5.6 1.294e+04 1.803e-09
 59.94708     -4.8 1.262e+04 1.390e-09
 59.98767     -4.8 1.213e+04 1.034e-09
 60.00864     -4.7 1.189e+04 1.000e-09
 60.02018     -4.8 1.241e+04 1.401e-09
 60.03979     -4.9 1.242e+04 1.439e-09
 60.06885     -4.1 1.243e+04 1.627e-09
 60.10944     -2.8 1.227e+04 1.602e-09
 60.15003     -1.0 1.179e+04 1.323e-09
 60.17456      0.5 1.120e+04 9.161e-10
 60.19486      0.7 1.054e+04 6.876e-10
 60.23121      2.0 1.008e+04 4.459e-10
 60.27180      3.1 9.706e+03 3.326e-10
 60.30933      4.5 9.551e+03 3.170e-10
 60.32962      4.9 9.020e+03 1.775e-10
 60.35299      7.0 8.853e+03 1.697e-10
 60.39358      9.3 8.775e+03 1.668e-10
 60.43417     11.8 8.721e+03 1.639e-10
 60.46439     14.3 8.677e+03 1.569e-10
 60.48469     14.7 8.292e+03 9.511e-11
 60.51535     17.2 8.327e+03 1.009e-10
 60.55594     19.6 8.411e+03 1.228e-10
 60.59653     22.4 8.750e+03 1.762e-10
 60.61945     24.4 9.299e+03 2.707e-10
 60.62501     25.1 9.190e+03 2.395e-10
 60.64267     26.1 9.043e+03 2.354e-10
 60.66746     26.8 9.240e+03 2.823e-10
 60.68664     27.2 9.585e+03 3.591e-10
 60.69679     27.4 9.547e+03 3.458e-10
 60.70796     27.8 1.000e+04 4.816e-10
 60.72825     28.6 1.047e+04 6.823e-10
 60.74855     29.5 1.091e+04 9.315e-10
 60.76417     30.5 1.127e+04 1.199e-09
 60.77432     30.4 1.113e+04 1.091e-09
 60.78914     31.5 1.140e+04 1.309e-09
 60.80943     32.7 1.161e+04 1.514e-09
 60.82973     33.8 1.179e+04 1.678e-09
 60.84171     35.0 1.196e+04 1.833e-09
 60.85185     35.2 1.178e+04 1.616e-09
 60.87032     36.5 1.190e+04 1.730e-09
 60.89061     38.0 1.205e+04 1.867e-09
 60.90909     39.6 1.221e+04 1.995e-09
 60.91924     40.2 1.189e+04 1.659e-09
 60.92905     42.1 1.207e+04 1.808e-09
 60.93919     42.3 1.198e+04 1.667e-09
 60.95150     44.3 1.218e+04 1.809e-09
 60.97180     46.6 1.234e+04 1.936e-09
 60.98662     49.2 1.245e+04 2.010e-09
 60.99677     50.6 1.225e+04 1.551e-09
 61.01239     52.7 1.291e+04 1.777e-09
 61.03268     52.9 1.705e+04 2.007e-09
 61.05298     49.3 2.621e+04 2.746e-09
 61.06410     41.4 3.350e+04 6.189e-09
 61.06913     38.9 3.284e+04 1.810e-08
 61.07825     39.6 3.204e+04 2.915e-08
 61.08746     41.0 3.004e+04 4.819e-08
 61.09253     42.2 3.327e+04 4.035e-08
 61.09775     43.3 3.585e+04 4.173e-08
 61.10282     45.6 2.558e+04 4.477e-07
 61.10869     44.0 2.803e+04 4.462e-07
 61.11884     37.1 2.803e+04 3.929e-07
 61.12642     34.9 2.545e+04 3.545e-07
 61.13147     34.7 2.462e+04 2.795e-07
 61.13646     33.1 2.602e+04 1.509e-07
 61.13900     30.1 2.989e+04 1.109e-07
 61.14162     27.7 3.284e+04 6.176e-08
 61.14926     17.9 4.077e+04 2.724e-08
 61.15943      7.2 4.277e+04 1.356e-08
 61.16958     -6.2 3.391e+04 5.648e-09
 61.17528    -18.7 2.104e+04 5.069e-09
 61.18035    -20.6 1.638e+04 3.889e-09
 61.18987    -20.7 1.714e+04 5.193e-09
 61.20002    -20.2 1.813e+04 6.769e-09
 61.20897    -19.9 1.872e+04 8.799e-09
 61.21404    -18.7 1.736e+04 6.646e-09
 61.22031    -17.8 1.765e+04 7.919e-09
 61.23046    -16.9 1.811e+04 9.725e-09
 61.24061    -15.3 1.837e+04 1.159e-08
 61.24596    -13.6 1.892e+04 1.383e-08
 61.24801    -15.3 2.119e+04 1.843e-08
 61.25281    -14.7 1.918e+04 1.148e-08
 61.26091    -14.2 2.191e+04 1.498e-08
 61.27105    -15.1 2.798e+04 2.351e-08
 61.28120    -16.3 3.388e+04 4.726e-08
 61.28650    -16.6 3.201e+04 1.468e-07
 61.29158    -22.6 3.368e+04 1.075e-07
 61.30150    -25.7 2.477e+04 7.689e-07
 61.30908    -35.3 2.223e+04 2.148e-06
 61.31413    -43.9 2.129e+04 2.770e-06
 61.31921    -50.6 2.150e+04 2.653e-06
 61.32263    -54.7 2.299e+04 1.905e-06
 61.32357    -56.2 2.317e+04 1.310e-06
 61.32522    -53.7 2.461e+04 6.073e-07
 61.32935    -57.1 2.398e+04 4.111e-07
 61.33443    -57.3 2.431e+04 3.865e-07
 61.34206    -56.8 2.408e+04 2.501e-07
 61.35223    -55.7 2.826e+04 1.261e-07
 61.35896    -56.4 2.990e+04 6.958e-08
 61.36403    -51.7 2.788e+04 7.845e-08
 61.37253    -53.6 2.883e+04 4.874e-08
 61.38268    -56.6 2.749e+04 2.798e-08
 61.39265    -59.0 2.276e+04 1.707e-08
 61.39772    -55.0 2.528e+04 2.273e-08
 61.39940    -56.8 2.177e+04 1.578e-08
 61.40447    -57.5 2.071e+04 1.322e-08
 61.41824    -57.9 1.925e+04 1.177e-08
 61.43151    -56.1 1.843e+04 1.005e-08
 61.44166    -53.1 1.960e+04 1.284e-08
 61.45888    -51.6 1.879e+04 1.124e-08
 61.47918    -50.4 1.810e+04 8.009e-09
 61.49890    -50.5 1.777e+04 5.301e-09
 61.50905    -47.0 1.881e+04 6.866e-09
 61.51977    -49.7 1.935e+04 4.678e-09
 61.54006    -53.0 1.920e+04 4.297e-09
 61.55293    -54.8 1.867e+04 5.922e-09
 61.56307    -52.2 1.606e+04 2.602e-09
 61.57643    -52.6 1.701e+04 4.056e-09
 61.58658    -51.8 1.728e+04 2.404e-09
 61.60095    -51.9 1.782e+04 4.000e-09
 61.62124    -51.1 1.777e+04 6.051e-09
 61.64154    -49.5 1.737e+04 7.431e-09
 61.65396    -47.9 1.702e+04 7.665e-09
 61.66411    -48.6 1.610e+04 5.282e-09
 61.68213    -47.0 1.547e+04 5.106e-09
 61.70242    -45.6 1.499e+04 4.427e-09
 61.72134    -44.4 1.461e+04 3.591e-09
 61.73149    -44.2 1.418e+04 3.272e-09
 61.74302    -43.1 1.388e+04 2.646e-09
 61.76331    -41.9 1.351e+04 2.061e-09
 61.78361    -40.8 1.325e+04 1.577e-09
 61.79897    -39.9 1.286e+04 1.135e-09
 61.80912    -39.2 1.276e+04 1.270e-09
 61.82420    -38.2 1.240e+04 9.529e-10
 61.84974    -36.8 1.209e+04 8.012e-10
 61.87004    -36.0 1.155e+04 5.460e-10
 61.89533    -33.8 1.129e+04 3.816e-10
 61.93384    -31.5 1.100e+04 2.540e-10
 61.95413    -30.4 1.104e+04 2.694e-10
 61.97661    -28.9 1.099e+04 2.476e-10
 62.01720    -27.6 1.114e+04 2.934e-10
 62.05779    -26.1 1.111e+04 4.609e-10
 62.08890    -23.7 1.115e+04 6.348e-10
 62.10920    -22.8 1.125e+04 6.571e-10
 62.13897    -20.9 1.124e+04 7.219e-10
 62.17956    -19.2 1.102e+04 5.745e-10
 62.22015    -17.6 1.074e+04 3.965e-10
 62.24396    -16.4 1.029e+04 2.558e-10
 62.26426    -15.2 1.086e+04 4.000e-10
 62.30133    -13.9 1.051e+04 2.871e-10
 62.34192    -12.6 1.026e+04 2.188e-10
 62.37873    -11.2 9.872e+03 2.165e-10
 62.39903     -9.5 1.030e+04 3.072e-10
 62.42310     -8.1 1.006e+04 2.664e-10
 62.46357     -6.4 9.833e+03 2.625e-10
 62.50416     -3.7 9.912e+03 2.839e-10
 62.53380     -1.8 9.705e+03 2.714e-10
 62.55409     -0.8 1.009e+04 3.100e-10
 62.58546      1.0 9.827e+03 2.822e-10
 62.62605      2.9 9.532e+03 2.471e-10
 62.66664      5.0 9.254e+03 2.007e-10
 62.68886      7.2 9.036e+03 1.470e-10
 62.70915      7.9 9.253e+03 1.955e-10
 62.74783     10.3 9.014e+03 1.369e-10
 62.78842     12.6 8.921e+03 8.657e-11
 62.82363     14.4 8.880e+03 5.779e-11
 62.84392     15.4 9.044e+03 8.278e-11
 62.86960     17.0 8.901e+03 6.204e-11
 62.91019     18.7 8.837e+03 6.003e-11
 62.95078     20.1 8.858e+03 6.722e-11
 62.97869     21.3 8.970e+03 9.434e-11
 62.99898     21.5 9.412e+03 1.435e-10
 63.03196     22.6 9.755e+03 2.088e-10
 63.07255     23.7 1.027e+04 3.120e-10
 63.09750     23.7 1.057e+04 4.159e-10
 63.10755     23.3 1.070e+04 5.163e-10
 63.12309     23.5 1.086e+04 6.111e-10
 63.13356     23.8 1.100e+04 7.064e-10
 63.14370     23.5 1.098e+04 6.860e-10
 63.16368     23.9 1.114e+04 7.103e-10
 63.18398     24.2 1.130e+04 7.533e-10
 63.20094     24.6 1.151e+04 7.858e-10
 63.21109     23.6 1.158e+04 6.017e-10
 63.22457     23.4 1.193e+04 6.102e-10
 63.24486     22.6 1.252e+04 6.730e-10
 63.26516     20.9 1.306e+04 8.339e-10
 63.27847     18.7 1.370e+04 1.164e-09
 63.28862     16.4 1.342e+04 1.336e-09
 63.30575     16.3 1.361e+04 1.805e-09
 63.32605     17.0 1.317e+04 2.051e-09
 63.34586     18.3 1.309e+04 1.866e-09
 63.35600     18.3 1.294e+04 1.474e-09
 63.36664     18.4 1.310e+04 1.032e-09
 63.38693     17.5 1.332e+04 6.640e-10
 63.40427     15.8 1.298e+04 4.654e-10
 63.41442     13.4 1.261e+04 4.788e-10
 63.42339     12.8 1.184e+04 4.637e-10
 63.43353     12.6 1.172e+04 4.503e-10
 63.44782     12.9 1.162e+04 4.759e-10
 63.47836     13.7 1.154e+04 5.023e-10
 63.51905     14.7 1.157e+04 6.168e-10
 63.55835     15.7 1.169e+04 6.917e-10
 63.57864     15.8 1.152e+04 6.071e-10
 63.58998     16.7 1.141e+04 5.639e-10
 63.61018     17.3 1.131e+04 5.048e-10
 63.64072     18.5 1.106e+04 3.630e-10
 63.68141     19.7 1.086e+04 2.428e-10
 63.71133     20.9 1.075e+04 1.740e-10
 63.72304     21.2 1.053e+04 2.012e-10
 63.73371     21.2 1.035e+04 1.459e-10
 63.76259     22.9 1.025e+04 1.394e-10
 63.80318     24.8 1.025e+04 1.419e-10
 63.84377     26.8 1.030e+04 1.539e-10
 63.86848     28.7 1.039e+04 1.780e-10
 63.88877     28.6 1.035e+04 1.689e-10
 63.92495     30.4 1.056e+04 2.164e-10
 63.96554     32.0 1.094e+04 2.844e-10
 63.99589     32.0 1.115e+04 3.384e-10
 64.01320     31.9 1.141e+04 4.195e-10
 64.02334     31.5 1.145e+04 4.736e-10
 64.02815     31.5 1.170e+04 6.374e-10
 64.03830     31.8 1.172e+04 6.137e-10
 64.05668     31.9 1.200e+04 8.095e-10
 64.07697     32.1 1.222e+04 1.033e-09
 64.09073     32.1 1.249e+04 1.287e-09
 64.10087     32.2 1.236e+04 1.230e-09
 64.11756     32.1 1.269e+04 1.434e-09
 64.13786     31.3 1.364e+04 1.815e-09
 64.15811     29.5 1.490e+04 2.707e-09
 64.17841     27.7 1.534e+04 3.560e-09
 64.19874     26.6 1.582e+04 5.884e-09
 64.21904     26.6 1.631e+04 8.577e-09
 64.23564     27.1 1.639e+04 8.609e-09
 64.24579     26.6 1.652e+04 9.873e-09
 64.25963     27.5 1.646e+04 8.949e-09
 64.27992     28.3 1.613e+04 5.925e-09
 64.30022     27.8 1.554e+04 2.758e-09
 64.31317     25.5 1.436e+04 1.034e-09
 64.32332     27.3 1.475e+04 1.437e-09
 64.33502     25.4 1.357e+04 6.904e-10
 64.34517     26.8 1.449e+04 8.612e-10
 64.36110     23.4 1.271e+04 4.795e-10
 64.38056     21.5 1.160e+04 4.141e-10
 64.39070     22.4 1.214e+04 4.153e-10
 64.40169     21.8 1.127e+04 3.635e-10
 64.42199     21.8 1.117e+04 3.602e-10
 64.44229     21.8 1.122e+04 3.730e-10
 64.45809     21.4 1.140e+04 4.281e-10
 64.46824     21.6 1.134e+04 3.764e-10
 64.48288     20.1 1.224e+04 5.470e-10
 64.50317     17.5 1.336e+04 1.130e-09
 64.52347     15.6 1.408e+04 2.444e-09
 64.53562     15.8 1.470e+04 4.881e-09
 64.54577     16.5 1.423e+04 4.497e-09
 64.56406     17.4 1.484e+04 4.731e-09
 64.58435     17.9 1.488e+04 4.200e-09
 64.60300     17.1 1.504e+04 2.868e-09
 64.61315     17.5 1.486e+04 2.458e-09
 64.62494     14.4 1.436e+04 1.420e-09
 64.64188     10.3 1.285e+04 9.606e-10
 64.65203     13.6 1.463e+04 1.685e-09
 64.66553      9.3 1.350e+04 1.364e-09
 64.68054      5.2 1.382e+04 1.682e-09
 64.69068      7.4 1.354e+04 1.487e-09
 64.70612      5.5 1.362e+04 2.117e-09
 64.72642      5.8 1.311e+04 2.396e-09
 64.74671      6.3 1.287e+04 2.217e-09
 64.75807      7.7 1.209e+04 1.457e-09
 64.76821      8.9 1.218e+04 1.588e-09
 64.78730      8.3 1.189e+04 1.013e-09
 64.80760      8.4 1.112e+04 4.909e-10
 64.82545      6.5 1.061e+04 2.563e-10
 64.83560      8.3 1.099e+04 3.008e-10
 64.85844      6.3 9.865e+03 1.405e-10
 64.89303      5.3 9.081e+03 8.435e-11
 64.91332      6.8 9.194e+03 9.177e-11
 64.93880      7.4 8.966e+03 8.082e-11
 64.95909      9.0 9.146e+03 9.966e-11
 64.98030      9.7 9.032e+03 8.799e-11
 65.02090     10.7 8.977e+03 9.213e-11
 65.04809     11.5 8.949e+03 1.088e-10
 65.06839     12.1 9.064e+03 1.090e-10
 65.10208     11.9 9.434e+03 1.679e-10
 65.14267     11.5 1.001e+04 3.268e-10
 65.17301     10.7 1.043e+04 5.420e-10
 65.19281     11.2 1.052e+04 7.175e-10
 65.20296     11.2 1.058e+04 7.421e-10
 65.21351     11.7 1.084e+04 8.668e-10
 65.23380     11.7 1.092e+04 8.855e-10
 65.26434     12.4 1.075e+04 8.009e-10
 65.30503     12.7 1.042e+04 6.623e-10
 65.33792     13.0 1.013e+04 5.172e-10
 65.35822     12.8 9.778e+03 4.005e-10
 65.38621     13.3 9.499e+03 3.258e-10
 65.42680     14.1 9.520e+03 3.302e-10
 65.46739     14.9 9.631e+03 3.874e-10
 65.49299     16.2 9.783e+03 4.846e-10
 65.51328     15.7 9.419e+03 3.515e-10
 65.54857     17.1 9.628e+03 4.482e-10
 65.57283     18.4 9.821e+03 5.368e-10
 65.59312     18.9 9.804e+03 5.256e-10
 65.62775     19.9 9.917e+03 5.886e-10
 65.64805     19.4 9.977e+03 6.253e-10
 65.67034     20.7 1.007e+04 6.770e-10
 65.71093     21.9 1.004e+04 6.636e-10
 65.75152     23.3 9.906e+03 6.103e-10
 65.78282     24.6 9.749e+03 5.199e-10
 65.80311     23.9 9.531e+03 4.015e-10
 65.83271     24.6 9.353e+03 3.371e-10
 65.87330     25.3 9.381e+03 3.439e-10
 65.91389     26.1 9.510e+03 3.874e-10
 65.93788     27.1 9.723e+03 4.893e-10
 65.95817     26.8 9.406e+03 3.775e-10
 65.99507     28.1 9.463e+03 3.541e-10
 66.03566     29.1 9.534e+03 3.254e-10
 66.07265     29.8 9.557e+03 3.122e-10
 66.09294     28.3 9.231e+03 2.115e-10
 66.11684     28.4 9.586e+03 2.949e-10
 66.15743     28.3 9.979e+03 4.322e-10
 66.18656     27.8 1.039e+04 5.827e-10
 66.20685     27.6 1.019e+04 5.145e-10
 66.22771     26.5 1.065e+04 6.266e-10
 66.24800     24.5 1.145e+04 1.003e-09
 66.27920     22.1 1.142e+04 9.622e-10
 66.31979     19.4 1.122e+04 8.531e-10
 66.36038     16.4 1.103e+04 7.724e-10
 66.38277     13.8 1.107e+04 7.557e-10
 66.40307     10.3 1.076e+04 6.842e-10
 66.43132      9.8 1.055e+04 6.624e-10
 66.44996      9.0 1.038e+04 6.348e-10
 66.46011      8.1 1.018e+04 5.588e-10
 66.47181      8.1 9.780e+03 4.310e-10
 66.49211      7.7 9.692e+03 4.014e-10
 66.51744      8.0 9.569e+03 3.253e-10
 66.53784      6.8 9.082e+03 2.028e-10
 66.56334      5.8 8.677e+03 1.347e-10
 66.60393      5.4 8.398e+03 1.194e-10
 66.64452      5.7 8.268e+03 1.142e-10
 66.67260      6.6 8.194e+03 1.041e-10
 66.69290      6.5 8.182e+03 1.050e-10
 66.72570      7.5 8.153e+03 8.795e-11
 66.76629      8.2 8.138e+03 7.121e-11
 66.80029      8.6 8.067e+03 6.222e-11
 66.82059      8.9 8.068e+03 5.669e-11
 66.82767      9.3 8.065e+03 5.894e-11
 66.84796      9.4 8.073e+03 5.902e-11
 66.88806      9.9 8.087e+03 6.926e-11
 66.92865     10.8 8.157e+03 8.351e-11
 66.96243     11.8 8.229e+03 8.701e-11
 66.98273     12.0 8.318e+03 1.037e-10
 67.00983     13.3 8.274e+03 9.467e-11
 67.05042     14.4 8.198e+03 7.422e-11
 67.09101     15.3 8.145e+03 6.153e-11
 67.11750     16.0 8.242e+03 6.487e-11
 67.13779     16.5 8.251e+03 6.350e-11
 67.17219     15.8 8.700e+03 9.879e-11
 67.21278     14.7 9.624e+03 2.771e-10
 67.24313     14.4 1.020e+04 4.854e-10
 67.26222     14.0 1.073e+04 7.226e-10
 67.27236     14.2 1.113e+04 9.232e-10
 67.28362     13.4 1.184e+04 1.255e-09
 67.30392     12.5 1.220e+04 1.387e-09
 67.32421      9.7 1.275e+04 1.573e-09
 67.33975      7.6 1.247e+04 1.517e-09
 67.34990      8.5 1.235e+04 1.471e-09
 67.37505      4.4 1.200e+04 1.340e-09
 67.40549      4.0 1.133e+04 1.102e-09
 67.41728      1.5 1.171e+04 1.168e-09
 67.42571      2.1 1.142e+04 1.030e-09
 67.43412      3.1 1.150e+04 1.090e-09
 67.44598      0.7 1.177e+04 1.173e-09
 67.46628     -1.3 1.184e+04 1.236e-09
 67.48466     -2.9 1.164e+04 1.186e-09
 67.49481     -1.6 1.138e+04 1.055e-09
 67.50687     -3.1 1.110e+04 8.948e-10
 67.52716     -4.6 1.053e+04 7.048e-10
 67.54746     -6.0 9.980e+03 5.508e-10
 67.56219     -7.8 9.926e+03 4.305e-10
 67.57234     -7.0 9.722e+03 4.031e-10
 67.58805     -8.7 9.896e+03 3.780e-10
 67.60835    -10.6 1.001e+04 4.329e-10
 67.62864    -12.1 1.004e+04 4.774e-10
 67.65918    -11.9 1.057e+04 8.112e-10
 67.69716    -12.6 1.155e+04 1.276e-09
 67.71735    -13.6 1.223e+04 1.649e-09
 67.73012    -14.8 1.341e+04 2.531e-09
 67.74099    -16.6 1.448e+04 3.959e-09
 67.75114    -16.8 1.451e+04 3.782e-09
 67.77071    -18.3 1.520e+04 5.486e-09
 67.78464    -18.8 1.566e+04 7.244e-09
 67.79479    -18.8 1.583e+04 7.835e-09
 67.81130    -18.8 1.606e+04 8.787e-09
 67.83159    -18.6 1.578e+04 8.108e-09
 67.85189    -18.0 1.525e+04 6.117e-09
 67.86217    -18.2 1.436e+04 3.815e-09
 67.87232    -19.0 1.385e+04 2.929e-09
 67.89248    -20.8 1.264e+04 1.623e-09
 67.91277    -22.8 1.158e+04 9.883e-10
 67.92956    -24.1 1.091e+04 7.310e-10
 67.93970    -24.5 1.065e+04 6.735e-10
 67.95337    -25.3 1.017e+04 5.718e-10
 67.98391    -24.7 1.004e+04 5.195e-10
 68.00728    -24.1 9.923e+03 4.827e-10
 68.02758    -24.4 9.848e+03 4.670e-10
 68.04805    -23.2 9.717e+03 4.008e-10
 68.06835    -22.6 9.922e+03 4.436e-10
 68.10578    -21.7 9.699e+03 3.349e-10
 68.14205    -21.1 9.576e+03 3.057e-10
 68.16235    -21.4 9.431e+03 2.551e-10
 68.18696    -20.1 9.422e+03 2.633e-10
 68.22755    -18.8 9.515e+03 3.171e-10
 68.26814    -17.2 9.681e+03 3.765e-10
 68.29711    -15.7 9.886e+03 4.126e-10
 68.31741    -15.5 9.774e+03 3.879e-10
 68.34932    -14.4 1.005e+04 4.270e-10
 68.38991    -14.2 1.060e+04 5.060e-10
 68.42025    -14.2 1.147e+04 8.185e-10
 68.44045    -15.4 1.236e+04 1.081e-09
 68.45198    -17.2 1.352e+04 2.398e-09
 68.46213    -17.6 1.368e+04 2.629e-09
 68.48104    -19.2 1.533e+04 5.217e-09
 68.49621    -22.7 1.806e+04 1.097e-08
 68.50631    -25.3 1.973e+04 1.500e-08
 68.51313    -29.7 2.426e+04 2.827e-08
 68.51821    -30.3 2.485e+04 3.151e-08
 68.52434    -37.3 2.570e+04 8.279e-08
 68.52941    -39.0 2.576e+04 8.911e-08
 68.53676    -42.7 2.383e+04 1.971e-07
 68.54690    -45.6 2.296e+04 2.414e-07
 68.55705    -46.7 2.176e+04 1.851e-07
 68.56311    -46.4 2.115e+04 7.911e-08
 68.56818    -45.6 2.077e+04 7.789e-08
 68.57735    -44.6 2.033e+04 2.824e-08
 68.58749    -46.6 2.012e+04 1.004e-08
 68.59680    -52.6 1.721e+04 3.610e-09
 68.60187    -52.5 1.740e+04 2.895e-09
 68.60779    -56.9 1.405e+04 1.327e-09
 68.62306    -59.1 1.276e+04 7.413e-10
 68.64340    -64.3 9.503e+03 2.020e-10
 68.66159    -65.7 8.378e+03 1.410e-10
 68.68198    -66.6 8.197e+03 1.297e-10
 68.71463    -64.8 7.995e+03 1.140e-10
 68.74201    -63.1 7.830e+03 1.006e-10
 68.76230    -63.8 7.807e+03 1.032e-10
 68.79581    -62.7 7.777e+03 1.032e-10
 68.83640    -61.6 7.827e+03 1.165e-10
 68.87677    -60.4 7.993e+03 1.400e-10
 68.89707    -61.4 8.040e+03 1.502e-10
 68.91759    -60.6 8.213e+03 1.688e-10
 68.95818    -60.0 8.409e+03 1.992e-10
 68.99877    -59.6 8.607e+03 2.357e-10
 69.03184    -59.2 8.772e+03 2.689e-10
 69.05213    -59.9 8.731e+03 2.736e-10
 69.07995    -59.6 8.749e+03 2.672e-10
 69.12054    -59.5 8.696e+03 2.500e-10
 69.16113    -59.6 8.646e+03 2.393e-10
 69.18690    -59.4 8.606e+03 2.357e-10
 69.20720    -59.6 8.463e+03 2.165e-10
 69.24231    -58.8 8.477e+03 2.230e-10
 69.27552    -57.8 8.429e+03 2.079e-10
 69.29581    -58.2 8.286e+03 1.978e-10
 69.32167    -57.0 8.260e+03 1.655e-10
 69.34196    -56.7 8.157e+03 1.638e-10
 69.36408    -55.6 8.058e+03 1.339e-10
 69.40467    -54.7 7.996e+03 1.139e-10
 69.44526    -53.8 7.980e+03 1.083e-10
 69.47673    -53.0 8.001e+03 1.081e-10
 69.49703    -52.5 7.936e+03 9.950e-11
 69.52644    -51.8 8.129e+03 1.173e-10
 69.56703    -51.0 8.288e+03 1.419e-10
 69.60762    -50.0 8.386e+03 1.526e-10
 69.63179    -49.1 8.426e+03 1.497e-10
 69.65209    -48.4 8.489e+03 1.694e-10
 69.68881    -47.6 8.500e+03 1.356e-10
 69.72940    -47.2 8.521e+03 1.023e-10
 69.76656    -47.0 8.555e+03 9.297e-11
 69.78686    -46.6 8.632e+03 1.028e-10
 69.81058    -46.4 8.826e+03 1.069e-10
 69.85117    -46.0 9.066e+03 1.575e-10
 69.88925    -45.0 9.226e+03 2.259e-10
 69.90955    -45.0 9.426e+03 2.710e-10
 69.92162    -44.1 9.558e+03 3.043e-10
 69.94192    -44.1 9.812e+03 3.809e-10
 69.97294    -43.5 9.854e+03 3.989e-10
 70.01353    -42.9 9.781e+03 3.828e-10
 70.05412    -42.3 9.646e+03 3.372e-10
 70.07669    -41.9 9.551e+03 3.042e-10
 70.09698    -42.0 9.694e+03 3.518e-10
 70.13530    -41.9 9.658e+03 3.422e-10
 70.17589    -41.9 9.756e+03 3.882e-10
 70.21145    -41.8 9.993e+03 5.194e-10
 70.23175    -41.8 1.002e+04 5.193e-10
 70.25707    -41.3 1.024e+04 6.115e-10
 70.29766    -41.0 1.031e+04 6.461e-10
 70.32801    -41.0 1.026e+04 6.204e-10
 70.34821    -41.1 1.019e+04 5.979e-10
 70.36642    -40.8 1.007e+04 5.425e-10
 70.38681    -40.6 9.844e+03 4.869e-10
 70.41944    -40.0 9.564e+03 3.901e-10
 70.46003    -39.3 9.276e+03 2.765e-10
 70.50062    -38.9 8.926e+03 1.851e-10
 70.52158    -38.6 8.648e+03 1.358e-10
 70.52395    -37.9 8.541e+03 1.273e-10
 70.54357    -37.8 8.644e+03 1.503e-10
 70.58180    -37.2 8.517e+03 1.315e-10
 70.62239    -36.7 8.423e+03 1.218e-10
 70.65635    -36.3 8.400e+03 1.174e-10
 70.67664    -35.3 8.370e+03 1.084e-10
 70.70357    -35.1 8.400e+03 1.058e-10
 70.74416    -36.3 8.724e+03 1.244e-10
 70.78475    -44.9 1.194e+04 3.965e-10
 70.81131    -52.4 1.321e+04 1.440e-09
 70.82136    -52.9 1.345e+04 1.808e-09
 70.82995    -54.8 1.374e+04 3.349e-09
 70.84010    -54.3 1.382e+04 3.488e-09
 70.85559    -54.9 1.409e+04 4.155e-09
 70.87588    -55.6 1.433e+04 3.911e-09
 70.88875    -59.3 1.442e+04 1.901e-09
 70.89889    -59.9 1.410e+04 1.454e-09
 70.91647    -68.8 1.148e+04 5.833e-10
 70.93677    -73.0 1.047e+04 4.606e-10
 70.95613    -74.3 1.039e+04 4.462e-10
 70.96628    -74.1 1.019e+04 3.769e-10
 70.97736    -75.4 1.020e+04 3.737e-10
 70.99765    -76.6 1.024e+04 3.756e-10
 71.01795    -78.1 1.029e+04 3.863e-10
 71.03366    -79.3 1.035e+04 4.072e-10
 71.04381    -78.5 1.036e+04 3.729e-10
 71.05854    -80.4 1.033e+04 4.009e-10
 71.07884    -81.1 1.039e+04 4.256e-10
 71.09913    -82.7 1.037e+04 4.748e-10
 71.11119    -83.8 1.046e+04 5.164e-10
 71.12134    -83.3 1.043e+04 4.940e-10
 71.13682    -84.5 1.050e+04 5.377e-10
 71.14696    -84.1 1.056e+04 5.464e-10
 71.16002    -85.2 1.068e+04 5.716e-10
 71.17858    -86.5 1.073e+04 5.888e-10
 71.18872    -86.0 1.066e+04 5.753e-10
 71.20061    -87.4 1.069e+04 5.897e-10
 71.23115    -89.0 1.075e+04 6.189e-10
 71.25630    -91.5 1.095e+04 6.961e-10
 71.27660    -90.4 1.061e+04 5.802e-10
 71.31243    -93.1 1.061e+04 6.046e-10
 71.33374    -94.3 1.060e+04 5.777e-10
 71.34379    -94.0 1.053e+04 5.627e-10
 71.36297    -94.2 1.056e+04 5.640e-10
 71.38326    -95.1 1.052e+04 5.518e-10
 71.40102    -95.6 1.040e+04 5.270e-10
 71.41117    -94.8 1.034e+04 4.823e-10
 71.42386    -95.2 1.023e+04 4.372e-10
 71.44368    -95.4 1.019e+04 4.116e-10
 71.45383    -95.4 1.022e+04 4.210e-10
 71.47469    -95.7 1.005e+04 3.617e-10
 71.51538    -95.9 9.724e+03 2.836e-10
 71.54613    -95.7 9.438e+03 2.242e-10
 71.56643    -94.3 9.349e+03 2.048e-10
 71.59656    -94.0 9.199e+03 1.703e-10
 71.63715    -93.1 9.099e+03 1.464e-10
 71.67774    -92.0 9.062e+03 1.298e-10
 71.70120    -90.9 9.070e+03 1.195e-10
 71.72149    -89.8 9.088e+03 1.275e-10
 71.75074    -88.6 9.093e+03 1.250e-10
 71.77104    -88.2 9.231e+03 1.422e-10
 71.79951    -87.1 9.335e+03 1.545e-10
 71.83596    -86.0 9.422e+03 1.819e-10
 71.85626    -84.9 9.370e+03 1.765e-10
 71.88069    -83.7 9.427e+03 1.965e-10
 71.92128    -82.5 9.533e+03 2.268e-10
 71.96187    -81.4 9.700e+03 2.737e-10
 71.99103    -80.4 9.918e+03 3.406e-10
 72.01132    -79.4 9.675e+03 2.529e-10
 72.04306    -78.5 9.863e+03 3.063e-10
 72.08365    -77.7 1.004e+04 3.684e-10
 72.12424    -76.9 1.017e+04 4.315e-10
 72.14609    -76.0 1.024e+04 4.853e-10
 72.16639    -75.0 9.974e+03 3.568e-10
 72.20542    -74.0 1.006e+04 4.149e-10
 72.24601    -73.0 1.013e+04 4.612e-10
 72.28086    -71.9 1.019e+04 4.857e-10
 72.30115    -70.9 1.011e+04 4.365e-10
 72.32719    -70.0 1.025e+04 4.630e-10
 72.36448    -69.2 1.030e+04 4.556e-10
 72.38477    -69.4 1.034e+04 4.347e-10
 72.40837    -69.2 1.039e+04 4.326e-10
 72.43592    -69.4 1.071e+04 4.770e-10
 72.45622    -68.3 1.061e+04 4.735e-10
 72.48955    -68.7 1.082e+04 5.615e-10
 72.53014    -69.3 1.122e+04 7.384e-10
 72.57069    -69.9 1.177e+04 1.036e-09
 72.61128    -69.7 1.159e+04 8.553e-10
 72.64167    -70.5 1.208e+04 1.192e-09
 72.65817    -71.1 1.228e+04 1.373e-09
 72.66832    -70.8 1.213e+04 1.228e-09
 72.69241    -71.8 1.230e+04 1.383e-09
 72.72575    -72.9 1.215e+04 1.224e-09
 72.74605    -71.9 1.235e+04 1.444e-09
 72.77369    -73.2 1.204e+04 1.149e-09
 72.81428    -74.0 1.144e+04 7.356e-10
 72.85487    -74.1 1.084e+04 4.756e-10
 72.88081    -74.1 1.048e+04 3.550e-10
 72.90111    -73.2 1.040e+04 3.270e-10
 72.93605    -72.7 1.023e+04 2.737e-10
 72.97664    -71.7 1.021e+04 2.647e-10
 72.99850    -71.4 1.032e+04 2.712e-10
 73.01715    -71.0 1.053e+04 3.569e-10
 73.03588    -70.4 1.045e+04 3.156e-10
 73.05782    -70.8 1.080e+04 3.560e-10
 73.09841    -72.0 1.157e+04 6.119e-10
 73.13900    -73.2 1.240e+04 1.114e-09
 73.16935    -73.7 1.259e+04 1.396e-09
 73.18060    -74.4 1.310e+04 1.707e-09
 73.19084    -73.4 1.268e+04 1.412e-09
 73.20994    -74.4 1.310e+04 1.709e-09
 73.23013    -75.1 1.338e+04 1.890e-09
 73.24798    -76.6 1.391e+04 2.230e-09
 73.25813    -75.2 1.333e+04 1.813e-09
 73.27072    -75.9 1.363e+04 1.976e-09
 73.29102    -76.7 1.383e+04 2.103e-09
 73.30517    -77.1 1.391e+04 2.143e-09
 73.31532    -77.2 1.371e+04 1.608e-09
 73.32551    -77.5 1.376e+04 1.506e-09
 73.33566    -76.1 1.324e+04 1.363e-09
 73.35191    -76.3 1.327e+04 1.245e-09
 73.37220    -76.4 1.309e+04 1.109e-09
 73.39250    -76.4 1.278e+04 1.012e-09
 73.42304    -76.1 1.246e+04 9.734e-10
 73.46048    -75.4 1.194e+04 8.278e-10
 73.48077    -73.4 1.198e+04 7.360e-10
 73.50431    -72.4 1.150e+04 6.163e-10
 73.54491    -71.5 1.115e+04 5.300e-10
 73.58550    -70.6 1.096e+04 4.623e-10
 73.61224    -69.8 1.087e+04 3.993e-10
 73.62198    -69.4 1.088e+04 3.969e-10
 73.63583    -68.0 1.101e+04 4.138e-10
 73.66668    -67.2 1.093e+04 3.708e-10
 73.70727    -66.4 1.084e+04 2.985e-10
 73.74786    -65.4 1.068e+04 2.301e-10
 73.77060    -64.3 1.047e+04 1.738e-10
 73.79090    -63.1 1.049e+04 1.952e-10
 73.82904    -61.8 1.031e+04 1.284e-10
 73.86963    -60.5 1.022e+04 9.034e-11
 73.90537    -59.2 1.015e+04 7.202e-11
 73.92566    -58.3 1.015e+04 7.291e-11
 73.95081    -56.9 1.012e+04 6.634e-11
 73.99140    -55.3 1.010e+04 6.375e-11
 74.03199    -53.6 1.010e+04 6.123e-11
 74.06043    -51.7 1.012e+04 5.795e-11
 74.08073    -50.9 1.027e+04 6.547e-11
 74.11317    -49.1 1.033e+04 6.215e-11
 74.15376    -47.4 1.037e+04 6.135e-11
 74.19435    -45.9 1.048e+04 6.187e-11
 74.21549    -44.8 1.098e+04 7.300e-11
 74.22681    -44.2 1.102e+04 9.510e-11
 74.24626    -42.4 1.077e+04 7.535e-11
 74.27553    -41.2 1.114e+04 9.332e-11
 74.31613    -39.8 1.119e+04 1.485e-10
 74.35026    -38.0 1.120e+04 2.269e-10
 74.37056    -37.6 1.119e+04 2.553e-10
 74.39731    -35.8 1.122e+04 3.182e-10
 74.43790    -33.9 1.119e+04 3.446e-10
 74.47849    -32.2 1.112e+04 3.349e-10
 74.50532    -30.5 1.099e+04 2.943e-10
 74.52562    -29.9 1.088e+04 2.841e-10
 74.55967    -28.2 1.077e+04 2.470e-10
 74.60026    -26.4 1.067e+04 2.161e-10
 74.64009    -24.6 1.059e+04 1.896e-10
 74.66039    -24.0 1.047e+04 1.830e-10
 74.68144    -22.1 1.046e+04 1.622e-10
 74.72203    -20.3 1.047e+04 1.479e-10
 74.76262    -18.5 1.048e+04 1.434e-10
 74.79516    -16.9 1.057e+04 1.445e-10
 74.81545    -16.3 1.046e+04 1.370e-10
 74.83970    -15.0 1.058e+04 1.580e-10
 74.86000    -14.5 1.066e+04 1.684e-10
 74.88439    -13.6 1.083e+04 2.161e-10
 74.92498    -12.5 1.103e+04 2.945e-10
 74.95022    -11.3 1.122e+04 3.888e-10
 74.97051    -10.7 1.117e+04 4.346e-10
 75.00616     -9.4 1.133e+04 5.012e-10
 75.04675     -8.7 1.134e+04 4.821e-10
 75.08499     -8.5 1.124e+04 4.093e-10
 75.10528     -8.3 1.115e+04 4.231e-10
 75.12794     -7.9 1.085e+04 3.600e-10
 75.16853     -6.6 1.054e+04 3.006e-10
 75.20912     -5.2 1.047e+04 2.244e-10
 75.24005     -4.6 1.069e+04 1.520e-10
 75.26034     -4.5 1.062e+04 8.799e-11
 75.29030     -4.5 1.054e+04 7.634e-11
 75.33089     -4.6 1.091e+04 8.729e-11
 75.37148     -5.7 1.111e+04 1.953e-10
 75.39511     -5.8 1.124e+04 5.469e-10
 75.41541     -5.2 1.101e+04 3.465e-10
 75.45266     -4.2 1.146e+04 8.639e-10
 75.47373     -2.4 1.193e+04 1.220e-09
 75.49402     -1.8 1.245e+04 1.545e-09
 75.52360     -1.0 1.212e+04 1.457e-09
 75.53983     -0.5 1.161e+04 9.357e-10
 75.55008     -0.2 1.184e+04 1.094e-09
 75.57443     -0.1 1.097e+04 4.849e-10
 75.61502     -0.6 1.033e+04 2.178e-10
 75.65561     -0.5 9.918e+03 1.151e-10
 75.68494     -0.5 9.828e+03 9.857e-11
 75.70524      0.5 9.899e+03 1.045e-10
 75.73679     -0.0 9.947e+03 1.141e-10
 75.77738     -0.9 9.883e+03 1.813e-10
 75.81797     -0.8 1.013e+04 3.057e-10
 75.84000     -1.4 1.047e+04 3.921e-10
 75.86030     -0.4 1.049e+04 3.871e-10
 75.89916     -2.6 1.046e+04 3.952e-10
 75.92950     -3.8 1.029e+04 4.799e-10
 75.94970     -4.0 1.020e+04 5.251e-10
 75.96999     -4.1 1.015e+04 5.485e-10
 75.98472     -4.2 1.007e+04 5.253e-10
 75.99487     -3.7 1.002e+04 5.207e-10
 76.02083     -3.9 9.731e+03 4.093e-10
 76.06152     -4.3 9.413e+03 2.916e-10
 76.08746     -5.3 9.035e+03 2.164e-10
 76.10776     -4.8 9.050e+03 2.197e-10
 76.12984     -5.1 8.828e+03 1.889e-10
 76.15013     -4.5 8.842e+03 1.996e-10
 76.18329     -4.2 8.678e+03 1.768e-10
 76.22388     -3.6 8.507e+03 1.411e-10
 76.26447     -3.2 8.333e+03 1.033e-10
 76.30506     -2.5 8.224e+03 8.579e-11
 76.34565     -2.3 8.195e+03 8.237e-11
 76.38624     -2.1 8.303e+03 1.061e-10
 76.41967     -1.5 8.452e+03 1.636e-10
 76.43996     -0.8 8.346e+03 1.572e-10
 76.46742      0.3 8.497e+03 1.934e-10
 76.50801      1.2 8.634e+03 2.071e-10
 76.54860      1.5 8.698e+03 2.044e-10
 76.57473      1.4 8.707e+03 2.014e-10
 76.59502      1.6 8.413e+03 1.552e-10
 76.62979      1.5 8.455e+03 1.813e-10
 76.67038      2.0 8.540e+03 2.282e-10
 76.70119      3.0 8.659e+03 2.643e-10
 76.72002      3.1 8.670e+03 2.784e-10
 76.72979      3.6 8.504e+03 2.422e-10
 76.75156      4.3 8.549e+03 2.477e-10
 76.79215      5.1 8.392e+03 2.216e-10
 76.83274      5.9 8.192e+03 1.839e-10
 76.86456      6.9 8.036e+03 1.550e-10
 76.88485      7.6 7.991e+03 1.539e-10
 76.91392      8.9 7.878e+03 1.284e-10
 76.95451     10.1 7.797e+03 1.134e-10
 76.99510     11.6 7.767e+03 1.099e-10
 77.01962     13.2 7.823e+03 1.129e-10
 77.03992     13.6 7.721e+03 1.049e-10
 77.07628     15.1 7.840e+03 1.176e-10
 77.11687     16.6 8.014e+03 1.458e-10
 77.15439     18.2 8.287e+03 2.001e-10
 77.17468     18.8 8.168e+03 1.867e-10
 77.19805     20.5 8.491e+03 2.503e-10
 77.23864     22.0 8.813e+03 3.068e-10
 77.27923     23.1 9.074e+03 3.616e-10
 77.30945     24.2 9.331e+03 4.304e-10
 77.32485     24.6 9.038e+03 3.500e-10
 77.33522     23.9 8.873e+03 3.087e-10
 77.36041     25.2 8.900e+03 3.071e-10
 77.40101     26.7 8.810e+03 2.639e-10
 77.44160     27.8 8.697e+03 2.202e-10
 77.46452     29.0 8.589e+03 2.055e-10
 77.48481     29.5 8.485e+03 1.950e-10
 77.52278     31.2 8.495e+03 2.079e-10
 77.56337     33.1 8.599e+03 2.288e-10
 77.59928     34.9 8.906e+03 2.822e-10
 77.61958     35.4 9.065e+03 3.358e-10
 77.64455     36.6 9.483e+03 4.421e-10
 77.67489     37.5 9.963e+03 6.333e-10
 77.68677     37.8 1.008e+04 6.671e-10
 77.69691     38.1 1.023e+04 7.293e-10
 77.71539     38.7 1.052e+04 8.294e-10
 77.73568     39.2 1.087e+04 9.401e-10
 77.75415     39.1 1.120e+04 1.046e-09
 77.76430     39.2 1.110e+04 1.004e-09
 77.77627     38.7 1.150e+04 1.132e-09
 77.79657     37.7 1.194e+04 1.319e-09
 77.81686     37.3 1.220e+04 1.566e-09
 77.83168     37.5 1.221e+04 1.668e-09
 77.84183     37.2 1.215e+04 1.681e-09
 77.85745     38.0 1.202e+04 1.586e-09
 77.87775     38.4 1.183e+04 1.182e-09
 77.89804     37.4 1.173e+04 9.965e-10
 77.90931     37.5 1.126e+04 7.418e-10
 77.92968     36.4 1.146e+04 8.026e-10
 77.96925     33.2 1.131e+04 8.078e-10
 78.00986     33.1 1.130e+04 8.563e-10
 78.04418     33.4 1.134e+04 9.219e-10
 78.06447     32.9 1.128e+04 8.850e-10
 78.09104     33.5 1.111e+04 8.079e-10
 78.13163     34.4 1.077e+04 6.453e-10
 78.17223     35.5 1.027e+04 4.358e-10
 78.19924     36.2 9.860e+03 2.650e-10
 78.21953     36.0 9.692e+03 2.634e-10
 78.25341     36.4 9.593e+03 1.963e-10
 78.29400     37.1 9.562e+03 1.924e-10
 78.33401     37.4 9.842e+03 2.240e-10
 78.35430     38.2 1.005e+04 2.829e-10
 78.37518     38.3 1.033e+04 3.942e-10
 78.40552     38.1 1.033e+04 4.814e-10
 78.42149     38.5 1.041e+04 5.702e-10
 78.43164     38.9 1.050e+04 6.103e-10
 78.44602     39.7 1.076e+04 6.630e-10
 78.46631     40.2 1.083e+04 6.664e-10
 78.48661     40.7 1.083e+04 6.422e-10
 78.49902     41.0 1.087e+04 5.944e-10
 78.50917     41.2 1.085e+04 5.645e-10
 78.52720     41.3 1.085e+04 4.954e-10
 78.54749     41.3 1.088e+04 4.679e-10
 78.56249     41.6 1.085e+04 4.407e-10
 78.57126     41.3 1.094e+04 5.196e-10
 78.57655     41.5 1.091e+04 5.028e-10
 78.58808     41.6 1.103e+04 5.134e-10
 78.60838     42.7 1.092e+04 4.688e-10
 78.62867     42.7 1.100e+04 4.646e-10
 78.64403     44.3 1.085e+04 4.095e-10
 78.66443     44.9 1.089e+04 4.098e-10
 78.69990     46.6 1.084e+04 3.100e-10
 78.74049     48.0 1.092e+04 2.536e-10
 78.77890     49.6 1.102e+04 2.578e-10
 78.79920     50.6 1.103e+04 2.774e-10
 78.82167     52.3 1.141e+04 3.085e-10
 78.85202     52.9 1.179e+04 3.867e-10
 78.86638     53.1 1.188e+04 4.111e-10
 78.87367     54.1 1.183e+04 3.858e-10
 78.87951     53.5 1.183e+04 4.281e-10
 78.89251     53.8 1.208e+04 5.861e-10
 78.91281     54.3 1.212e+04 7.179e-10
 78.93387     54.9 1.269e+04 1.084e-09
 78.95416     56.1 1.243e+04 1.019e-09
 78.97369     56.5 1.270e+04 1.298e-09
 78.99399     57.0 1.307e+04 1.645e-09
 79.01130     57.4 1.347e+04 2.072e-09
 79.02145     58.5 1.314e+04 1.786e-09
 79.03458     58.9 1.349e+04 2.161e-09
 79.05487     59.3 1.376e+04 2.480e-09
 79.07517     59.5 1.389e+04 2.665e-09
 79.08883     59.7 1.384e+04 2.676e-09
 79.09898     60.8 1.382e+04 2.585e-09
 79.11576     60.9 1.374e+04 2.574e-09
 79.13605     61.1 1.361e+04 2.546e-09
 79.15621     61.4 1.346e+04 2.495e-09
 79.16636     62.4 1.353e+04 2.472e-09
 79.17622     62.7 1.333e+04 2.388e-09
 79.18637     62.7 1.319e+04 2.198e-09
 79.19694     63.4 1.309e+04 2.230e-09
 79.21724     64.3 1.300e+04 2.203e-09
 79.23375     65.3 1.290e+04 2.169e-09
 79.24389     65.9 1.288e+04 2.124e-09
 79.25783     66.9 1.272e+04 2.021e-09
 79.27812     67.8 1.255e+04 1.820e-09
 79.29842     68.6 1.239e+04 1.608e-09
 79.31128     69.2 1.226e+04 1.447e-09
 79.32142     70.1 1.206e+04 1.268e-09
 79.33901     70.4 1.191e+04 1.129e-09
 79.35930     70.7 1.173e+04 1.049e-09
 79.37866     70.9 1.156e+04 1.004e-09
 79.38881     71.6 1.132e+04 8.410e-10
 79.39989     71.8 1.118e+04 8.295e-10
 79.42019     71.9 1.101e+04 8.286e-10
 79.44048     72.0 1.086e+04 8.055e-10
 79.45619     72.2 1.060e+04 7.463e-10
 79.46634     73.0 1.066e+04 7.564e-10
 79.48107     73.3 1.043e+04 7.013e-10
 79.49324     73.6 1.014e+04 6.035e-10
 79.50339     74.0 1.051e+04 6.894e-10
 79.52166     74.0 1.016e+04 5.577e-10
 79.53372     74.0 9.829e+03 4.205e-10
 79.54387     75.2 9.948e+03 4.835e-10
 79.56226     75.1 9.692e+03 3.785e-10
 79.59280     76.3 9.427e+03 2.954e-10
 79.63348     77.6 9.100e+03 2.512e-10
 79.66869     79.8 8.853e+03 2.340e-10
 79.68898     81.5 8.903e+03 2.374e-10
 79.71467     84.0 8.864e+03 2.371e-10
 79.75526     86.6 8.908e+03 2.485e-10
 79.79015     89.3 9.069e+03 2.764e-10
 79.81045     89.9 9.384e+03 3.430e-10
 79.82375     92.0 9.435e+03 3.534e-10
 79.84404     93.0 9.289e+03 3.442e-10
 79.86678     94.2 9.252e+03 3.311e-10
 79.88698     95.7 9.382e+03 3.569e-10
 79.90109     97.0 9.632e+03 4.026e-10
 79.91123     97.3 9.689e+03 4.197e-10
 79.92757     98.2 9.979e+03 4.771e-10
 79.94787     99.0 1.036e+04 5.704e-10
 79.96816     99.5 1.083e+04 7.328e-10
 79.97862     99.9 1.139e+04 9.866e-10
 79.98876     99.8 1.139e+04 1.005e-09
 80.00875    100.3 1.203e+04 1.354e-09
 80.02905    100.8 1.276e+04 1.902e-09
 80.04600    101.4 1.355e+04 2.712e-09
 80.05615    101.5 1.323e+04 2.361e-09
 80.06964    102.2 1.387e+04 2.960e-09
 80.08993    103.0 1.449e+04 3.537e-09
 80.10697    103.6 1.504e+04 3.983e-09
 80.11712    104.9 1.534e+04 4.892e-09
 80.12353    105.5 1.587e+04 5.460e-09
 80.13368    105.4 1.477e+04 2.989e-09
 80.15082    105.7 1.497e+04 2.741e-09
 80.17111    105.8 1.504e+04 2.450e-09
 80.19092    105.9 1.493e+04 2.201e-09
 80.20106    104.9 1.259e+04 8.160e-10
 80.21170    104.8 1.229e+04 7.548e-10
 80.23200    104.9 1.200e+04 7.371e-10
 80.25229    105.0 1.171e+04 7.253e-10
 80.26845    105.4 1.129e+04 7.038e-10
 80.28884    105.4 1.018e+04 4.378e-10
 80.32352    106.8 1.038e+04 5.319e-10
 80.36411    108.5 1.064e+04 6.343e-10
 80.39446    109.8 1.051e+04 6.015e-10
 80.41336    110.3 1.055e+04 6.359e-10
 80.42279    109.7 1.017e+04 4.508e-10
 80.42418    112.3 1.012e+04 4.222e-10
 80.43505    112.2 1.020e+04 4.955e-10
 80.45525    112.5 1.025e+04 5.580e-10
 80.47554    112.6 1.029e+04 6.169e-10
 80.49089    112.3 1.041e+04 7.144e-10
 80.50104    112.2 1.024e+04 5.707e-10
 80.51613    111.3 1.056e+04 7.194e-10
 80.53643    108.5 1.215e+04 1.227e-09
 80.55672    105.5 1.413e+04 2.541e-09
 80.56843    104.0 1.504e+04 4.229e-09
 80.57857    105.6 1.421e+04 3.001e-09
 80.59731    104.5 1.476e+04 4.161e-09
 80.61761    103.5 1.487e+04 4.381e-09
 80.63581    102.1 1.478e+04 4.089e-09
 80.64596    103.2 1.460e+04 3.807e-09
 80.65820    101.4 1.438e+04 3.353e-09
 80.67849     99.3 1.388e+04 2.667e-09
 80.69879     97.3 1.315e+04 1.946e-09
 80.71334     95.5 1.235e+04 1.423e-09
 80.72349     97.1 1.244e+04 1.525e-09
 80.73085     95.9 1.173e+04 1.099e-09
 80.74100     95.6 1.185e+04 1.137e-09
 80.75968     94.6 1.121e+04 8.694e-10
 80.77997     94.0 1.086e+04 7.330e-10
 80.79087     93.7 1.062e+04 6.518e-10
 80.80102     94.9 1.040e+04 5.637e-10
 80.82056     94.5 1.020e+04 5.044e-10
 80.84086     94.4 1.005e+04 4.636e-10
 80.85826     94.4 1.000e+04 4.464e-10
 80.86840     95.6 9.917e+03 4.022e-10
 80.88145     95.7 9.905e+03 3.995e-10
 80.90174     95.7 9.913e+03 4.007e-10
 80.92204     95.7 9.927e+03 4.057e-10
 80.93579     95.6 9.963e+03 4.144e-10
 80.94594     96.6 9.905e+03 4.085e-10
 80.96263     96.4 1.001e+04 4.475e-10
 80.98292     95.9 1.020e+04 5.117e-10
 81.00317     95.2 1.050e+04 6.204e-10
 81.02347     95.2 1.100e+04 8.220e-10
 81.03772     94.1 1.143e+04 1.078e-09
 81.04787     93.4 1.179e+04 1.304e-09
 81.06410     92.6 1.211e+04 1.593e-09
 81.08070     91.8 1.224e+04 1.684e-09
 81.09085     92.4 1.260e+04 1.957e-09
 81.10470     91.6 1.252e+04 1.881e-09
 81.12499     90.8 1.219e+04 1.588e-09
 81.14529     89.8 1.168e+04 1.188e-09
 81.15823     88.6 1.104e+04 8.120e-10
 81.16838     89.0 1.125e+04 9.142e-10
 81.18588     86.9 1.057e+04 5.901e-10
 81.20617     85.5 9.711e+03 3.494e-10
 81.22562     85.2 9.596e+03 3.300e-10
 81.23577     85.1 9.565e+03 3.237e-10
 81.25701     84.3 9.016e+03 2.109e-10
 81.29320     83.4 8.879e+03 1.773e-10
 81.31349     83.4 8.812e+03 1.659e-10
 81.33829     83.2 8.807e+03 1.670e-10
 81.37888     83.0 8.855e+03 1.778e-10
 81.41947     82.9 8.931e+03 1.986e-10
 81.44826     83.0 8.971e+03 2.131e-10
 81.46856     83.2 9.018e+03 2.188e-10
 81.50065     83.4 9.083e+03 2.240e-10
 81.54124     83.7 9.115e+03 2.228e-10
 81.58183     83.9 9.157e+03 2.217e-10
 81.60332     84.2 9.219e+03 2.283e-10
 81.62362     84.1 9.233e+03 2.237e-10
 81.65165     84.1 9.398e+03 2.476e-10
 81.67194     82.3 9.531e+03 2.624e-10
 81.69336     83.2 9.584e+03 2.764e-10
 81.71355     83.2 9.711e+03 3.071e-10
 81.73385     82.6 1.009e+04 3.765e-10
 81.74804     80.2 1.141e+04 6.196e-10
 81.75819     79.5 1.159e+04 6.459e-10
 81.77444     75.2 1.338e+04 1.526e-09
 81.79473     73.1 1.416e+04 3.255e-09
 81.81503     71.9 1.555e+04 5.169e-09
 81.82557     69.6 1.667e+04 5.969e-09
 81.83572     70.9 1.621e+04 5.306e-09
 81.85562     68.4 1.621e+04 4.344e-09
 81.87592     66.0 1.492e+04 2.504e-09
 81.89296     63.3 1.303e+04 1.259e-09
 81.90311     64.1 1.300e+04 1.296e-09
 81.91651     62.1 1.186e+04 7.553e-10
 81.93680     61.0 1.155e+04 4.927e-10
 81.95710     60.1 1.103e+04 3.542e-10
 81.98764     61.3 1.022e+04 2.620e-10
 82.02792     63.1 9.618e+03 1.700e-10
 82.04822     64.4 9.844e+03 1.993e-10
 82.06892     66.4 9.537e+03 1.341e-10
 82.10951     68.3 9.448e+03 1.048e-10
 82.15010     70.2 9.435e+03 1.079e-10
 82.18298     72.1 9.522e+03 1.244e-10
 82.20328     73.0 9.537e+03 1.272e-10
 82.23128     74.3 9.831e+03 1.865e-10
 82.26538     75.1 1.061e+04 4.104e-10
 82.28567     73.6 1.117e+04 6.902e-10
 82.31246     74.9 1.223e+04 1.362e-09
 82.33805     75.8 1.240e+04 1.479e-09
 82.35834     76.4 1.217e+04 1.288e-09
 82.39364     77.7 1.183e+04 1.099e-09
 82.43423     79.2 1.111e+04 7.069e-10
 82.47281     80.3 1.040e+04 4.259e-10
 82.49311     81.0 1.041e+04 4.571e-10
 82.51541     82.4 9.964e+03 3.315e-10
 82.55600     84.2 9.663e+03 2.820e-10
 82.59659     86.4 9.527e+03 2.732e-10
 82.62788     88.9 9.519e+03 2.762e-10
 82.64817     89.8 9.591e+03 2.985e-10
 82.67777     92.2 9.595e+03 3.037e-10
 82.71836     94.6 9.622e+03 3.183e-10
 82.75895     97.0 9.652e+03 3.323e-10
 82.78294     99.3 9.643e+03 3.295e-10
 82.80324    100.2 9.704e+03 3.467e-10
 82.84014    102.5 9.668e+03 3.382e-10
 82.87911    104.7 9.562e+03 3.129e-10
 82.89941    104.3 9.685e+03 3.521e-10
 82.91771    106.6 9.517e+03 3.082e-10
 82.93800    107.2 9.575e+03 3.217e-10
 82.96191    109.5 9.374e+03 2.724e-10
 83.00250    111.8 9.204e+03 2.304e-10
 83.04309    114.0 9.081e+03 1.988e-10
 83.07277    116.1 8.978e+03 1.736e-10
 83.09307    116.8 8.975e+03 1.753e-10
 83.12427    118.9 8.863e+03 1.545e-10
 83.16486    121.0 8.755e+03 1.493e-10
 83.20545    123.2 8.772e+03 1.521e-10
 83.22783    125.4 8.882e+03 1.716e-10
 83.24813    126.4 8.748e+03 1.558e-10
 83.28663    128.6 8.838e+03 1.751e-10
 83.32722    130.9 8.938e+03 2.032e-10
 83.36260    133.2 9.009e+03 2.301e-10
 83.38290    134.1 8.907e+03 2.113e-10
 83.40840    136.5 9.080e+03 2.529e-10
 83.44899    138.8 9.339e+03 3.093e-10
 83.48958    141.1 9.660e+03 3.787e-10
 83.51304    142.5 9.759e+03 4.038e-10
 83.52083    143.8 9.516e+03 3.401e-10
 83.53796    144.5 9.523e+03 3.394e-10
 83.56052    145.5 9.902e+03 4.263e-10
 83.58072    145.9 1.005e+04 4.680e-10
 83.59500    146.6 1.030e+04 5.631e-10
 83.60515    146.7 1.036e+04 5.861e-10
 83.62131    147.4 1.053e+04 6.741e-10
 83.64160    148.3 1.065e+04 7.311e-10
 83.66190    149.1 1.071e+04 7.583e-10
 83.67253    150.0 1.076e+04 7.677e-10
 83.68268    150.0 1.083e+04 7.966e-10
 83.70249    150.7 1.085e+04 7.898e-10
 83.72278    151.5 1.084e+04 7.636e-10
 83.73992    152.1 1.079e+04 7.270e-10
 83.75006    152.0 1.080e+04 7.337e-10
 83.77362    153.6 1.067e+04 6.283e-10
 83.80749    154.7 1.037e+04 4.778e-10
 83.82324    154.5 1.020e+04 4.377e-10
 83.82996    155.1 1.027e+04 4.500e-10
 83.84456    155.8 1.014e+04 4.200e-10
 83.86485    156.3 1.014e+04 4.228e-10
 83.88483    156.3 1.019e+04 4.531e-10
 83.89498    156.2 1.028e+04 4.708e-10
 83.90544    156.2 1.056e+04 5.931e-10
 83.92574    156.3 1.090e+04 7.824e-10
 83.94603    156.8 1.125e+04 1.012e-09
 83.96236    157.4 1.160e+04 1.251e-09
 83.97251    157.4 1.179e+04 1.358e-09
 83.98662    158.2 1.196e+04 1.551e-09
 84.00692    158.9 1.191e+04 1.459e-09
 84.02721    159.2 1.177e+04 1.248e-09
 84.03989    159.1 1.154e+04 9.875e-10
 84.05004    159.0 1.178e+04 1.125e-09
 84.06780    158.2 1.151e+04 8.678e-10
 84.08810    156.8 1.112e+04 6.714e-10
 84.10728    155.1 1.063e+04 5.463e-10
 84.11742    155.1 1.105e+04 6.604e-10
 84.12668    153.4 1.059e+04 5.510e-10
 84.13682    155.4 1.143e+04 7.794e-10
 84.14898    153.7 1.087e+04 6.255e-10
 84.16928    151.9 1.049e+04 5.184e-10
 84.18481    150.3 1.028e+04 4.437e-10
 84.19496    149.8 1.047e+04 4.987e-10
 84.20987    148.4 1.024e+04 4.310e-10
 84.23017    147.2 1.009e+04 3.809e-10
 84.25046    146.2 9.945e+03 3.472e-10
 84.26234    145.1 9.834e+03 3.313e-10
 84.27249    144.8 1.016e+04 4.382e-10
 84.29105    143.2 1.066e+04 4.963e-10
 84.31135    140.8 1.190e+04 6.819e-10
 84.32972    137.9 1.314e+04 1.039e-09
 84.33982    135.8 1.444e+04 1.499e-09
 84.34677    132.7 1.658e+04 2.144e-09
 84.35691    125.7 2.135e+04 4.611e-09
 84.36706    117.4 2.434e+04 1.254e-08
 84.37347    112.6 2.430e+04 3.092e-08
 84.37854    112.8 2.355e+04 4.605e-08
 84.38736    110.6 2.315e+04 8.025e-08
 84.39750    108.5 2.305e+04 1.050e-07
 84.40716    105.3 2.386e+04 1.189e-07
 84.41223    105.3 2.429e+04 1.150e-07
 84.41780     98.9 2.738e+04 1.052e-07
 84.42795     90.9 2.904e+04 8.256e-08
 84.43809     81.3 2.896e+04 5.266e-08
 84.44359     70.1 2.558e+04 4.379e-08
 84.44635     62.8 2.563e+04 4.597e-08
 84.45100     60.3 2.577e+04 5.141e-08
 84.45839     56.5 2.556e+04 5.543e-08
 84.46854     54.4 2.566e+04 4.766e-08
 84.47868     51.9 2.570e+04 3.236e-08
 84.48469     48.1 2.377e+04 1.925e-08
 84.48976     47.3 2.342e+04 1.956e-08
 84.49898     42.9 2.213e+04 1.293e-08
 84.51425     33.6 2.113e+04 6.143e-09
 84.53459     25.7 1.855e+04 3.610e-09
 84.55217     20.9 1.595e+04 3.165e-09
 84.56232     18.2 1.456e+04 2.555e-09
 84.57518     16.9 1.431e+04 2.968e-09
 84.59548     16.3 1.476e+04 3.483e-09
 84.61578     15.2 1.553e+04 4.014e-09
 84.62970     13.2 1.606e+04 4.449e-09
 84.63985     12.3 1.578e+04 4.291e-09
 84.65637     10.1 1.585e+04 4.329e-09
 84.67666      8.0 1.548e+04 4.148e-09
 84.69696      6.1 1.505e+04 3.841e-09
 84.70723      4.3 1.468e+04 3.409e-09
 84.71738      3.4 1.414e+04 2.748e-09
 84.73755      1.3 1.379e+04 2.429e-09
 84.75056     -0.8 1.331e+04 2.166e-09
 84.76070     -1.5 1.225e+04 1.362e-09
 84.78838     -3.0 1.198e+04 1.269e-09
 84.81883     -3.7 1.201e+04 1.559e-09
 84.83902     -3.7 1.189e+04 1.574e-09
 84.85215     -3.3 1.161e+04 1.472e-09
 84.86230     -2.9 1.208e+04 1.821e-09
 84.87961     -2.1 1.181e+04 1.487e-09
 84.89991     -1.6 1.157e+04 1.109e-09
 84.91953     -1.5 1.114e+04 7.437e-10
 84.92968     -0.8 1.166e+04 9.192e-10
 84.94050     -1.7 1.088e+04 5.685e-10
 84.96079     -2.9 1.032e+04 3.907e-10
 84.98109     -4.4 1.033e+04 3.553e-10
 84.99706     -7.5 1.191e+04 4.171e-10
 85.00721    -10.1 1.329e+04 7.820e-10
 85.02168    -13.1 1.413e+04 1.499e-09
 85.04198    -13.6 1.463e+04 2.811e-09
 85.05742    -13.2 1.496e+04 4.391e-09
 85.06757    -11.9 1.552e+04 7.465e-09
 85.07460    -10.7 1.590e+04 8.661e-09
 85.08474    -10.1 1.625e+04 1.008e-08
 85.10286    -10.0 1.619e+04 9.049e-09
 85.12316    -10.0 1.597e+04 6.405e-09
 85.14198    -13.7 1.612e+04 4.773e-09
 85.15213    -15.9 1.608e+04 4.939e-09
 85.16375    -21.2 1.543e+04 4.392e-09
 85.18404    -24.3 1.487e+04 4.189e-09
 85.20434    -25.6 1.445e+04 3.976e-09
 85.21951    -26.4 1.393e+04 2.994e-09
 85.22966    -26.1 1.461e+04 3.141e-09
 85.24493    -28.9 1.340e+04 1.470e-09
 85.26522    -33.3 1.128e+04 5.736e-10
 85.28552    -37.0 9.599e+03 3.296e-10
 85.29704    -37.9 9.224e+03 2.846e-10
 85.30719    -37.9 9.252e+03 2.969e-10
 85.32611    -37.9 9.234e+03 2.925e-10
 85.35424    -37.7 9.334e+03 3.003e-10
 85.37453    -38.0 9.811e+03 4.534e-10
 85.38700    -37.8 9.893e+03 4.798e-10
 85.40729    -37.6 9.960e+03 4.989e-10
 85.42759    -37.5 1.002e+04 5.161e-10
 85.44196    -37.4 1.006e+04 5.252e-10
 85.45210    -37.3 1.015e+04 5.513e-10
 85.46818    -37.2 1.018e+04 5.599e-10
 85.48847    -37.2 1.018e+04 5.598e-10
 85.50877    -37.1 1.013e+04 5.352e-10
 85.51949    -36.9 1.002e+04 4.816e-10
 85.52964    -37.0 1.010e+04 5.053e-10
 85.54936    -36.8 1.000e+04 4.526e-10
 85.56965    -36.7 9.912e+03 4.100e-10
 85.58697    -36.5 9.899e+03 3.758e-10
 85.59712    -36.7 9.940e+03 4.081e-10
 85.61024    -36.5 9.928e+03 3.988e-10
 85.63054    -36.3 9.946e+03 3.941e-10
 85.65083    -36.3 9.981e+03 4.078e-10
 85.68137    -36.4 1.015e+04 4.725e-10
 85.72184    -37.0 1.116e+04 7.845e-10
 85.74213    -37.1 1.099e+04 7.396e-10
 85.76265    -37.4 1.240e+04 1.448e-09
 85.79300    -37.3 1.340e+04 2.507e-09
 85.80932    -37.1 1.400e+04 3.341e-09
 85.81947    -37.1 1.344e+04 2.418e-09
 85.83349    -36.9 1.372e+04 2.741e-09
 85.85379    -36.8 1.377e+04 2.822e-09
 85.87408    -36.8 1.355e+04 2.572e-09
 85.88685    -36.9 1.296e+04 2.013e-09
 85.89710    -37.2 1.253e+04 1.380e-09
 85.92502    -37.4 1.179e+04 1.098e-09
 85.96561    -37.4 1.122e+04 8.904e-10
 85.98836    -37.1 1.094e+04 7.904e-10
 86.00866    -37.4 1.067e+04 6.050e-10
 86.03196    -37.3 1.076e+04 6.602e-10
 86.05226    -37.8 1.075e+04 5.935e-10
 86.08738    -37.7 1.155e+04 9.749e-10
 86.12797    -37.3 1.228e+04 1.467e-09
 86.15831    -37.3 1.284e+04 1.986e-09
 86.17668    -37.4 1.303e+04 2.221e-09
 86.18683    -37.8 1.365e+04 3.146e-09
 86.19881    -37.6 1.377e+04 3.355e-09
 86.21910    -37.5 1.379e+04 3.375e-09
 86.23940    -37.5 1.378e+04 3.269e-09
 86.25421    -37.5 1.373e+04 3.008e-09
 86.26436    -37.4 1.396e+04 3.266e-09
 86.27999    -37.5 1.383e+04 2.885e-09
 86.29503    -37.9 1.363e+04 2.466e-09
 86.30518    -38.1 1.383e+04 2.929e-09
 86.32058    -38.5 1.360e+04 2.513e-09
 86.33174    -39.0 1.330e+04 2.130e-09
 86.34189    -39.3 1.307e+04 1.963e-09
 86.37141    -39.9 1.268e+04 1.661e-09
 86.41210    -40.0 1.256e+04 1.596e-09
 86.45269    -40.1 1.257e+04 1.585e-09
 86.47676    -41.1 1.287e+04 1.735e-09
 86.49705    -41.2 1.268e+04 1.567e-09
 86.53387    -42.6 1.295e+04 1.701e-09
 86.55429    -43.8 1.337e+04 2.090e-09
 86.56434    -43.8 1.290e+04 1.642e-09
 86.58442    -44.5 1.280e+04 1.577e-09
 86.60200    -45.1 1.255e+04 1.441e-09
 86.61896    -46.3 1.224e+04 1.245e-09
 86.63192    -46.3 1.159e+04 9.883e-10
 86.65564    -47.1 1.104e+04 7.773e-10
 86.69624    -47.2 1.032e+04 5.506e-10
 86.73683    -47.2 9.873e+03 4.339e-10
 86.76668    -46.4 9.640e+03 3.872e-10
 86.78698    -46.0 1.019e+04 5.794e-10
 86.81801    -45.2 9.939e+03 4.984e-10
 86.85860    -44.3 9.730e+03 4.161e-10
 86.89919    -43.5 9.564e+03 3.446e-10
 86.92175    -42.6 9.444e+03 2.976e-10
 86.94204    -42.9 9.669e+03 3.169e-10
 86.98037    -42.2 9.492e+03 2.886e-10
 87.02096    -41.3 9.416e+03 2.827e-10
 87.05652    -40.3 9.332e+03 2.914e-10
 87.07681    -40.6 9.568e+03 3.508e-10
 87.10214    -39.9 9.668e+03 3.997e-10
 87.13249    -39.3 9.702e+03 4.100e-10
 87.14400    -39.4 9.843e+03 4.566e-10
 87.15415    -39.6 1.004e+04 5.354e-10
 87.18322    -39.3 1.015e+04 5.665e-10
 87.21158    -38.8 1.056e+04 7.054e-10
 87.22379    -39.5 1.105e+04 9.127e-10
 87.23612    -40.1 1.088e+04 8.655e-10
 87.26450    -40.3 1.095e+04 8.323e-10
 87.30509    -41.2 1.091e+04 7.311e-10
 87.34568    -42.1 1.063e+04 5.892e-10
 87.36664    -42.4 1.028e+04 4.622e-10
 87.38694    -43.2 1.029e+04 4.557e-10
 87.42686    -42.9 9.966e+03 3.419e-10
 87.46746    -42.5 9.772e+03 2.547e-10
 87.50141    -42.1 9.684e+03 1.990e-10
 87.52170    -43.0 9.730e+03 2.042e-10
 87.54864    -42.6 9.700e+03 1.937e-10
 87.58923    -42.0 9.770e+03 2.059e-10
 87.62982    -41.4 9.909e+03 2.519e-10
 87.65647    -40.4 1.007e+04 3.213e-10
 87.67677    -41.0 1.010e+04 3.567e-10
 87.71100    -39.9 1.019e+04 3.805e-10
 87.75159    -38.7 1.023e+04 4.006e-10
 87.79124    -37.4 1.022e+04 4.044e-10
 87.81153    -37.8 9.880e+03 2.930e-10
 87.82956    -36.3 9.783e+03 2.765e-10
 87.84986    -35.7 9.800e+03 2.811e-10
 87.87336    -34.0 9.659e+03 2.560e-10
 87.91395    -32.1 9.503e+03 2.272e-10
 87.94630    -30.1 9.371e+03 1.979e-10
 87.96660    -30.3 9.168e+03 1.449e-10
 87.99513    -28.2 9.091e+03 1.407e-10
 88.03572    -26.0 9.016e+03 1.345e-10
 88.07631    -23.7 8.907e+03 1.267e-10
 88.10136    -21.3 8.766e+03 1.155e-10
 88.12166    -21.2 8.616e+03 1.032e-10
 88.15749    -18.9 8.453e+03 8.463e-11
 88.19808    -16.7 8.326e+03 6.484e-11
 88.23613    -14.8 8.216e+03 4.970e-11
 88.25643    -14.6 8.150e+03 4.919e-11
 88.27927    -12.8 8.055e+03 4.070e-11
 88.31986    -11.1 7.951e+03 3.749e-11
 88.36045     -9.2 7.912e+03 3.689e-11
 88.39120     -7.3 7.903e+03 3.708e-11
 88.41149     -6.8 7.902e+03 3.760e-11
 88.44163     -5.1 7.910e+03 4.117e-11
 88.46359     -3.8 7.954e+03 4.995e-11
 88.48388     -3.9 7.966e+03 5.609e-11
 88.52281     -2.7 8.018e+03 7.430e-11
 88.54626     -1.6 8.106e+03 1.064e-10
 88.56655     -1.4 8.293e+03 1.469e-10
 88.60399     -0.0 8.518e+03 2.227e-10
 88.64458      1.5 8.695e+03 2.907e-10
 88.68103      2.9 8.776e+03 3.184e-10
 88.70132      3.0 9.023e+03 3.582e-10
 88.72576      3.7 8.812e+03 2.969e-10
 88.76635      4.1 8.571e+03 2.436e-10
 88.80694      4.7 8.308e+03 2.078e-10
 88.83609      5.9 8.089e+03 1.876e-10
 88.85638      5.7 8.239e+03 2.221e-10
 88.88812      7.3 8.024e+03 1.846e-10
 88.92871      8.7 7.810e+03 1.429e-10
 88.96930      9.5 7.666e+03 1.242e-10
 88.99115     10.2 7.711e+03 1.256e-10
 89.01145      9.7 7.720e+03 1.367e-10
 89.05049      9.6 8.101e+03 1.988e-10
 89.07732      9.2 8.668e+03 3.319e-10
 89.08737      8.5 9.438e+03 5.238e-10
 89.10103      8.4 9.518e+03 5.483e-10
 89.12132      8.7 1.019e+04 7.678e-10
 89.13587      8.1 1.065e+04 9.250e-10
 89.14602      8.3 1.010e+04 7.510e-10
 89.16191      8.1 1.042e+04 8.421e-10
 89.18221      7.5 1.048e+04 8.540e-10
 89.20250      7.0 1.027e+04 7.597e-10
 89.21340      6.4 1.003e+04 6.553e-10
 89.22355      7.0 9.572e+03 5.445e-10
 89.24310      6.1 9.417e+03 4.695e-10
 89.26339      5.5 9.433e+03 4.525e-10
 89.28079      4.7 9.286e+03 4.306e-10
 89.29093      5.2 9.031e+03 3.588e-10
 89.30398      5.0 9.052e+03 3.726e-10
 89.32428      4.7 8.945e+03 3.816e-10
 89.34457      4.9 9.098e+03 4.532e-10
 89.35832      5.4 9.190e+03 4.973e-10
 89.36847      5.4 9.166e+03 4.838e-10
 89.38399      6.1 9.347e+03 5.510e-10
 89.39414      6.0 9.507e+03 5.995e-10
 89.40546      6.7 9.574e+03 6.154e-10
 89.42570      7.3 9.573e+03 6.121e-10
 89.44600      8.0 9.815e+03 6.750e-10
 89.46634      8.4 9.804e+03 6.498e-10
 89.48664      8.8 9.781e+03 6.182e-10
 89.50323      9.1 9.753e+03 5.829e-10
 89.51338      8.9 1.003e+04 6.662e-10
 89.52723      9.0 1.005e+04 6.435e-10
 89.54752      9.2 1.007e+04 6.366e-10
 89.56782      9.3 1.023e+04 6.606e-10
 89.58076      9.2 1.028e+04 6.809e-10
 89.59101      8.3 1.077e+04 8.246e-10
 89.60851      8.5 1.070e+04 8.486e-10
 89.62871      8.3 1.088e+04 9.251e-10
 89.65925      7.5 1.163e+04 1.175e-09
 89.68969      3.1 1.361e+04 1.909e-09
 89.70101     -1.5 1.539e+04 3.240e-09
 89.71115     -3.4 1.541e+04 3.826e-09
 89.72568     -5.5 1.583e+04 5.987e-09
 89.73583     -5.3 1.553e+04 5.356e-09
 89.75048     -6.2 1.560e+04 6.006e-09
 89.77077     -7.6 1.580e+04 5.823e-09
 89.79107    -12.5 1.633e+04 4.521e-09
 89.80321    -22.1 1.628e+04 3.815e-09
 89.81336    -24.9 1.658e+04 3.900e-09
 89.82654    -29.7 1.621e+04 4.994e-09
 89.83663    -30.9 1.648e+04 5.991e-09
 89.84188    -32.6 1.680e+04 8.690e-09
 89.84695    -33.7 1.748e+04 1.094e-08
 89.85434    -34.1 1.808e+04 1.524e-08
 89.85942    -33.5 1.770e+04 1.256e-08
 89.86708    -33.8 1.809e+04 1.578e-08
 89.87557    -34.1 1.854e+04 1.864e-08
 89.88065    -34.7 1.905e+04 2.397e-08
 89.88737    -35.1 1.944e+04 2.619e-08
 89.89752    -35.9 1.959e+04 2.682e-08
 89.90767    -36.7 1.977e+04 2.448e-08
 89.91434    -38.0 1.989e+04 2.050e-08
 89.91941    -38.5 1.990e+04 2.018e-08
 89.92796    -40.4 1.951e+04 1.753e-08
 89.93811    -41.8 1.900e+04 1.594e-08
 89.94808    -42.7 1.848e+04 1.493e-08
 89.95827    -43.6 1.803e+04 1.123e-08
 89.97372    -44.2 1.753e+04 9.000e-09
 89.99402    -44.5 1.724e+04 7.184e-09
 90.00787    -44.6 1.712e+04 5.633e-09
 90.01802    -42.5 1.710e+04 7.881e-09
 90.02566    -42.2 1.732e+04 6.727e-09
 90.03581    -44.2 1.647e+04 4.079e-09
 90.05491    -44.7 1.611e+04 3.850e-09
 90.07520    -45.2 1.555e+04 3.922e-09
 90.09304    -45.5 1.540e+04 4.509e-09
 90.10319    -46.1 1.530e+04 4.658e-09
 90.11579    -45.3 1.605e+04 6.147e-09
 90.13609    -44.2 1.688e+04 8.144e-09
 90.15638    -42.8 1.756e+04 1.011e-08
 90.17057    -41.3 1.792e+04 1.101e-08
 90.18072    -41.9 1.816e+04 1.321e-08
 90.19697    -40.3 1.817e+04 1.337e-08
 90.21727    -38.3 1.801e+04 1.217e-08
 90.23756    -35.9 1.801e+04 9.886e-09
 90.24810    -34.3 1.877e+04 7.442e-09
 90.25825    -35.2 1.918e+04 1.162e-08
 90.27303    -32.7 2.053e+04 8.577e-09
 90.28170    -32.6 2.149e+04 8.026e-09
 90.28677    -33.0 2.139e+04 1.191e-08
 90.29328    -35.5 2.619e+04 1.050e-08
 90.30343    -43.9 3.529e+04 1.069e-08
 90.31357    -55.0 4.085e+04 1.153e-08
 90.31972    -67.1 4.054e+04 1.168e-08
 90.32153    -71.9 3.992e+04 1.057e-07
 90.32554    -77.5 2.734e+04 4.736e-07
 90.33131    -85.0 3.133e+04 1.421e-07
 90.33636    -87.8 3.231e+04 1.117e-07
 90.34399    -92.9 3.077e+04 8.893e-08
 90.35416    -93.3 2.932e+04 5.861e-08
 90.36430    -92.6 2.543e+04 5.078e-08
 90.37446    -91.4 2.468e+04 3.854e-08
 90.38461    -89.2 2.350e+04 2.854e-08
 90.39292    -87.3 2.265e+04 2.178e-08
 90.39800    -87.6 2.167e+04 2.129e-08
 90.40490    -86.4 2.063e+04 1.675e-08
 90.41505    -85.5 1.966e+04 1.372e-08
 90.42520    -84.9 1.877e+04 1.146e-08
 90.43169    -84.4 1.790e+04 9.642e-09
 90.43676    -84.7 1.718e+04 9.138e-09
 90.44549    -84.1 1.671e+04 8.112e-09
 90.46035    -83.0 1.635e+04 7.359e-09
 90.47055    -82.6 1.556e+04 6.797e-09
 90.48111    -80.3 1.519e+04 6.230e-09
 90.50140    -78.6 1.507e+04 6.037e-09
 90.52170    -77.0 1.490e+04 5.828e-09
 90.53794    -75.5 1.468e+04 5.498e-09
 90.54808    -75.1 1.423e+04 4.281e-09
 90.56229    -73.9 1.400e+04 3.809e-09
 90.58258    -72.9 1.369e+04 3.251e-09
 90.60288    -72.1 1.335e+04 2.690e-09
 90.61547    -71.6 1.310e+04 2.169e-09
 90.63586    -73.3 1.230e+04 1.269e-09
 90.67411    -72.4 1.184e+04 1.109e-09
 90.71470    -71.3 1.163e+04 1.050e-09
 90.75043    -69.8 1.151e+04 1.027e-09
 90.77072    -68.9 1.121e+04 9.228e-10
 90.79588    -67.2 1.126e+04 9.290e-10
 90.83647    -65.8 1.145e+04 9.476e-10
 90.87706    -64.7 1.194e+04 1.032e-09
 90.90539    -64.1 1.249e+04 1.125e-09
 90.92569    -62.7 1.222e+04 9.725e-10
 90.93872    -63.0 1.317e+04 1.328e-09
 90.94877    -63.5 1.294e+04 1.679e-09
 90.96819    -63.4 1.355e+04 2.150e-09
 90.98283    -63.4 1.417e+04 2.835e-09
 90.99298    -62.9 1.336e+04 2.564e-09
 91.00878    -62.8 1.391e+04 3.457e-09
 91.02908    -62.4 1.433e+04 4.478e-09
 91.04937    -61.7 1.464e+04 5.440e-09
 91.06036    -61.0 1.476e+04 5.956e-09
 91.07051    -60.4 1.445e+04 5.680e-09
 91.08996    -59.8 1.443e+04 5.736e-09
 91.11026    -59.2 1.431e+04 5.563e-09
 91.12774    -58.6 1.428e+04 5.302e-09
 91.13789    -57.9 1.427e+04 4.751e-09
 91.15085    -57.6 1.433e+04 4.557e-09
 91.17115    -57.4 1.439e+04 4.535e-09
 91.19144    -58.0 1.517e+04 4.984e-09
 91.20528    -59.5 1.635e+04 6.802e-09
 91.21542    -59.3 1.637e+04 5.490e-09
 91.23203    -61.3 1.774e+04 8.571e-09
 91.24549    -63.3 1.899e+04 1.337e-08
 91.25563    -64.1 1.934e+04 3.752e-09
 91.27262    -67.8 1.950e+04 6.381e-09
 91.29292    -72.6 1.882e+04 1.010e-08
 91.31321    -73.8 1.825e+04 1.477e-08
 91.33351    -74.3 1.807e+04 1.694e-08
 91.34868    -74.8 1.809e+04 1.844e-08
 91.35517    -74.9 1.723e+04 1.615e-08
 91.36024    -75.2 1.710e+04 1.757e-08
 91.36893    -74.3 1.648e+04 1.465e-08
 91.37907    -73.8 1.615e+04 1.203e-08
 91.38886    -73.8 1.591e+04 9.559e-09
 91.39393    -74.2 1.605e+04 9.888e-09
 91.39882    -74.4 1.562e+04 7.395e-09
 91.40390    -74.3 1.577e+04 8.152e-09
 91.40952    -74.6 1.509e+04 6.076e-09
 91.41966    -74.8 1.450e+04 4.908e-09
 91.42767    -74.7 1.396e+04 4.003e-09
 91.43787    -75.1 1.387e+04 3.910e-09
 91.45528    -73.9 1.278e+04 2.575e-09
 91.47557    -73.3 1.198e+04 1.826e-09
 91.49511    -72.6 1.146e+04 1.441e-09
 91.50525    -72.8 1.120e+04 1.219e-09
 91.51616    -71.3 1.091e+04 1.019e-09
 91.53646    -69.9 1.070e+04 8.680e-10
 91.55235    -68.7 1.052e+04 7.377e-10
 91.56250    -68.9 1.083e+04 8.831e-10
 91.57264    -67.7 1.055e+04 7.442e-10
 91.58278    -68.0 1.030e+04 5.472e-10
 91.59735    -66.7 1.017e+04 4.614e-10
 91.61764    -65.5 1.011e+04 4.079e-10
 91.63794    -64.5 1.004e+04 3.791e-10
 91.65017    -63.4 9.990e+03 3.675e-10
 91.66041    -64.8 9.645e+03 2.967e-10
 91.68887    -62.2 9.414e+03 2.479e-10
 91.72946    -59.7 9.228e+03 2.084e-10
 91.77005    -57.6 9.118e+03 1.803e-10
 91.79528    -55.5 9.053e+03 1.683e-10
 91.81557    -55.8 8.984e+03 1.660e-10
 91.85123    -53.7 9.004e+03 1.648e-10
 91.89182    -51.7 9.105e+03 1.759e-10
 91.93005    -49.6 9.217e+03 1.936e-10
 91.95034    -49.4 9.361e+03 1.869e-10
 91.97300    -47.5 9.496e+03 1.954e-10
 92.01359    -45.5 9.576e+03 2.016e-10
 92.05418    -43.6 9.625e+03 2.074e-10
 92.08511    -41.7 9.793e+03 2.148e-10
 92.10540    -42.5 1.031e+04 2.466e-10
 92.13537    -40.8 1.060e+04 2.936e-10
 92.16254    -39.0 1.071e+04 3.175e-10
 92.17259    -39.7 1.080e+04 3.362e-10
 92.17623    -39.1 1.087e+04 3.800e-10
 92.18648    -39.1 1.044e+04 2.621e-10
 92.21655    -37.1 1.068e+04 3.249e-10
 92.24007    -36.2 1.085e+04 4.480e-10
 92.25012    -36.4 1.067e+04 4.643e-10
 92.26709    -35.4 1.075e+04 4.928e-10
 92.28738    -34.5 1.081e+04 5.276e-10
 92.30736    -33.6 1.086e+04 5.646e-10
 92.31751    -34.0 1.069e+04 4.967e-10
 92.32798    -33.4 1.083e+04 5.361e-10
 92.34827    -32.9 1.093e+04 5.923e-10
 92.36857    -32.4 1.104e+04 6.734e-10
 92.38489    -32.0 1.120e+04 7.925e-10
 92.39504    -33.2 1.126e+04 7.808e-10
 92.40916    -33.0 1.152e+04 9.923e-10
 92.42945    -32.7 1.184e+04 1.247e-09
 92.44975    -32.2 1.215e+04 1.533e-09
 92.46242    -31.6 1.236e+04 1.795e-09
 92.47257    -32.6 1.228e+04 1.973e-09
 92.48310    -31.6 1.225e+04 2.046e-09
 92.49325    -31.7 1.248e+04 2.339e-09
 92.51063    -30.9 1.257e+04 2.438e-09
 92.52981    -30.4 1.282e+04 2.493e-09
 92.53996    -32.0 1.353e+04 2.673e-09
 92.55122    -32.2 1.394e+04 2.671e-09
 92.57152    -32.4 1.416e+04 2.632e-09
 92.59181    -32.7 1.415e+04 2.592e-09
 92.60734    -33.0 1.400e+04 2.519e-09
 92.61749    -34.8 1.346e+04 2.343e-09
 92.63240    -34.9 1.327e+04 2.378e-09
 92.65270    -35.1 1.318e+04 2.464e-09
 92.67299    -34.9 1.310e+04 2.624e-09
 92.68487    -34.5 1.306e+04 2.837e-09
 92.69502    -34.6 1.299e+04 2.600e-09
 92.71359    -33.6 1.297e+04 2.635e-09
 92.73388    -32.3 1.284e+04 2.549e-09
 92.75225    -31.0 1.270e+04 2.199e-09
 92.76240    -31.5 1.274e+04 1.584e-09
 92.77447    -30.8 1.248e+04 1.254e-09
 92.78997    -30.1 1.211e+04 1.010e-09
 92.80011    -30.3 1.187e+04 8.435e-10
 92.81974    -29.0 1.163e+04 6.895e-10
 92.84013    -30.4 1.036e+04 4.161e-10
 92.86599    -28.3 9.956e+03 2.979e-10
 92.90659    -26.0 9.810e+03 2.253e-10
 92.94718    -23.4 9.676e+03 1.911e-10
 92.97490    -20.6 9.550e+03 1.773e-10
 92.99519    -21.0 9.508e+03 1.838e-10
 93.02836    -18.1 9.563e+03 1.727e-10
 93.06895    -15.1 9.651e+03 1.650e-10
 93.10954    -12.1 9.683e+03 1.586e-10
 93.15013    -10.0 9.187e+03 2.052e-10
 93.19072     -7.3 9.164e+03 2.031e-10
 93.23131     -5.3 9.267e+03 2.342e-10
 93.26473     -3.3 9.465e+03 3.222e-10
 93.28502     -4.2 9.498e+03 4.257e-10
 93.31249     -0.9 9.851e+03 6.789e-10
 93.35308      2.3 1.009e+04 7.974e-10
 93.39367      5.3 1.022e+04 6.330e-10
 93.41979      7.5 1.020e+04 6.619e-10
 93.44008      7.1 9.796e+03 5.449e-10
 93.47485      8.8 9.497e+03 4.432e-10
 93.51544     10.7 9.159e+03 3.656e-10
 93.55456     12.7 8.847e+03 3.056e-10
 93.57485     12.6 8.651e+03 2.260e-10
 93.59662     14.7 8.569e+03 1.895e-10
 93.63721     16.5 8.393e+03 1.667e-10
 93.67781     18.4 8.275e+03 1.655e-10
 93.70962     20.3 8.240e+03 1.775e-10
 93.72992     20.3 8.344e+03 1.747e-10
 93.75899     22.4 8.399e+03 2.090e-10
 93.79958     24.4 8.611e+03 2.577e-10
 93.84017     25.9 9.070e+03 3.485e-10
 93.86468     27.2 9.702e+03 5.300e-10
 93.88498     26.9 9.536e+03 4.600e-10
 93.92135     28.3 9.994e+03 6.566e-10
 93.96194     30.2 1.025e+04 8.223e-10
 93.99945     32.0 1.024e+04 8.201e-10
 94.01975     31.9 9.453e+03 5.502e-10
 94.02777     33.3 9.347e+03 4.647e-10
 94.04807     34.5 9.079e+03 4.217e-10
 94.08371     35.4 8.855e+03 3.232e-10
 94.12430     35.6 8.650e+03 2.773e-10
 94.15451     36.2 8.510e+03 2.751e-10
 94.17481     35.9 7.973e+03 1.854e-10
 94.20548     37.0 7.941e+03 1.935e-10
 94.24607     38.2 7.905e+03 1.932e-10
 94.28666     39.2 7.920e+03 1.943e-10
 94.30958     40.0 8.036e+03 2.039e-10
 94.32987     39.9 7.845e+03 1.712e-10
 94.36784     40.7 8.176e+03 2.196e-10
 94.40843     41.6 8.704e+03 3.051e-10
 94.43878     41.9 8.914e+03 3.432e-10
 94.45430     41.9 9.039e+03 3.732e-10
 94.46454     42.1 8.899e+03 3.649e-10
 94.47937     41.9 9.094e+03 4.072e-10
 94.49957     41.5 9.388e+03 4.631e-10
 94.51986     39.9 1.033e+04 6.732e-10
 94.53183     35.1 1.234e+04 1.394e-09
 94.54198     35.6 1.219e+04 1.276e-09
 94.56045     32.5 1.317e+04 2.526e-09
 94.58075     32.8 1.387e+04 4.285e-09
 94.59921     33.5 1.429e+04 5.210e-09
 94.60936     34.3 1.353e+04 3.850e-09
 94.62134     34.0 1.357e+04 3.781e-09
 94.64131     33.0 1.370e+04 3.427e-09
 94.65146     32.5 1.419e+04 4.192e-09
 94.66193     29.5 1.371e+04 3.280e-09
 94.67674     26.1 1.258e+04 2.571e-09
 94.68689     26.0 1.226e+04 2.214e-09
 94.70252     25.4 1.177e+04 2.098e-09
 94.72282     25.9 1.167e+04 2.041e-09
 94.74311     26.0 1.189e+04 1.964e-09
 94.75427     25.7 1.269e+04 1.888e-09
 94.76442     25.2 1.166e+04 1.070e-09
 94.78370     24.7 1.189e+04 1.038e-09
 94.80400     24.1 1.255e+04 1.031e-09
 94.82166     22.8 1.448e+04 1.386e-09
 94.83181     24.6 1.067e+04 5.889e-10
 94.84459     23.8 1.343e+04 7.162e-10
 94.86488     20.5 1.820e+04 1.601e-09
 94.88518     19.2 1.779e+04 4.474e-09
 94.89919     20.3 1.693e+04 1.055e-08
 94.90934     20.2 1.764e+04 3.930e-09
 94.92577     19.3 1.880e+04 1.085e-08
 94.93791     17.8 1.890e+04 2.133e-08
 94.94293     15.1 2.124e+04 1.800e-08
 94.95104     11.8 2.117e+04 3.250e-08
 94.95823      8.8 2.066e+04 5.404e-08
 94.96330     10.3 2.057e+04 5.407e-08
 94.97134      6.7 2.037e+04 7.905e-08
 94.97662      2.9 2.029e+04 9.227e-08
 94.98170      2.0 2.009e+04 8.287e-08
 94.99163     -1.3 2.049e+04 8.107e-08
 95.00178     -3.4 2.155e+04 5.687e-08
 95.01032     -5.1 2.217e+04 3.601e-08
 95.01539     -6.2 2.155e+04 3.500e-08
 95.02207     -7.6 2.114e+04 2.444e-08
 95.03222     -7.9 2.135e+04 1.643e-08
 95.04406    -10.5 2.107e+04 7.445e-09
 95.05425     -9.2 1.998e+04 1.196e-08
 95.06784    -11.2 1.912e+04 4.946e-09
 95.08813    -15.0 1.413e+04 1.977e-09
 95.10843    -15.6 1.224e+04 1.515e-09
 95.12164    -14.9 1.240e+04 1.675e-09
 95.13178    -15.1 1.276e+04 1.642e-09
 95.14902    -16.7 1.434e+04 2.446e-09
 95.16931    -18.7 1.589e+04 4.081e-09
 95.18902    -19.4 1.647e+04 6.839e-09
 95.19917    -18.9 1.588e+04 5.080e-09
 95.20990    -18.6 1.604e+04 7.294e-09
 95.23020    -17.1 1.603e+04 8.238e-09
 95.25049    -15.5 1.590e+04 8.067e-09
 95.26519    -14.1 1.565e+04 5.913e-09
 95.27110    -14.4 1.572e+04 6.118e-09
 95.27670    -15.8 1.471e+04 3.657e-09
 95.29108    -16.5 1.415e+04 2.714e-09
 95.31138    -18.7 1.305e+04 2.008e-09
 95.33167    -19.9 1.229e+04 1.728e-09
 95.34408    -20.0 1.214e+04 1.679e-09
 95.35423    -19.4 1.221e+04 1.732e-09
 95.37226    -19.1 1.221e+04 1.744e-09
 95.39256    -18.8 1.216e+04 1.656e-09
 95.41147    -18.1 1.208e+04 1.542e-09
 95.42161    -17.9 1.218e+04 1.598e-09
 95.43315    -17.5 1.184e+04 1.300e-09
 95.45345    -18.3 1.158e+04 1.111e-09
 95.47374    -22.9 1.488e+04 1.104e-09
 95.48900    -29.8 2.195e+04 1.966e-09
 95.49915    -28.5 2.064e+04 1.310e-09
 95.51433    -35.6 2.545e+04 2.990e-09
 95.53463    -41.5 2.428e+04 6.847e-09
 95.55492    -45.0 2.158e+04 1.099e-08
 95.56653    -46.1 2.000e+04 1.185e-08
 95.57352    -47.0 1.952e+04 8.781e-09
 95.58220    -44.6 1.510e+04 3.567e-09
 95.59551    -44.4 1.515e+04 3.952e-09
 95.61581    -43.7 1.487e+04 3.736e-09
 95.63391    -43.1 1.455e+04 2.846e-09
 95.64406    -43.3 1.377e+04 2.457e-09
 95.65640    -43.2 1.332e+04 1.859e-09
 95.67669    -43.3 1.296e+04 1.531e-09
 95.69699    -43.1 1.282e+04 1.428e-09
 95.71144    -42.1 1.281e+04 1.426e-09
 95.72159    -41.8 1.232e+04 1.348e-09
 95.73758    -41.2 1.271e+04 1.539e-09
 95.75787    -40.9 1.309e+04 1.878e-09
 95.77817    -40.9 1.339e+04 2.407e-09
 95.78898    -40.8 1.379e+04 3.245e-09
 95.79912    -40.7 1.389e+04 3.481e-09
 95.81876    -40.6 1.468e+04 5.110e-09
 95.83906    -40.2 1.557e+04 7.207e-09
 95.85636    -39.5 1.641e+04 9.465e-09
 95.86651    -39.8 1.668e+04 1.069e-08
 95.87892    -39.3 1.716e+04 1.253e-08
 95.88907    -39.3 1.710e+04 1.164e-08
 95.89994    -39.0 1.788e+04 1.487e-08
 95.92024    -38.9 1.841e+04 1.670e-08
 95.93389    -39.2 1.861e+04 1.668e-08
 95.94404    -39.2 1.749e+04 1.266e-08
 95.96083    -39.8 1.743e+04 1.132e-08
 95.98112    -40.4 1.732e+04 9.678e-09
 96.00128    -41.0 1.710e+04 8.180e-09
 96.01142    -40.3 1.586e+04 5.228e-09
 96.02171    -40.7 1.556e+04 4.437e-09
 96.04201    -40.7 1.513e+04 3.951e-09
 96.06230    -40.5 1.469e+04 3.668e-09
 96.07881    -40.1 1.422e+04 3.441e-09
 96.08895    -39.5 1.352e+04 2.186e-09
 96.10289    -38.8 1.329e+04 2.072e-09
 96.12319    -38.0 1.315e+04 1.981e-09
 96.14348    -37.1 1.311e+04 1.922e-09
 96.15634    -36.5 1.308e+04 1.870e-09
 96.16649    -36.8 1.280e+04 1.640e-09
 96.19432    -35.8 1.276e+04 1.705e-09
 96.22392    -33.9 1.236e+04 1.463e-09
 96.24421    -34.2 1.189e+04 1.144e-09
 96.27560    -32.4 1.179e+04 1.082e-09
 96.31619    -30.7 1.158e+04 9.123e-10
 96.35678    -29.3 1.135e+04 7.585e-10
 96.37898    -28.2 1.116e+04 6.883e-10
 96.39928    -28.0 1.109e+04 6.736e-10
 96.43796    -26.8 1.095e+04 6.503e-10
 96.47855    -25.5 1.084e+04 6.509e-10
 96.50300    -24.1 1.078e+04 6.548e-10
 96.51790    -24.6 1.067e+04 5.388e-10
 96.53404    -24.0 1.029e+04 4.219e-10
 96.55973    -22.7 1.021e+04 4.131e-10
 96.60032    -21.3 1.012e+04 3.969e-10
 96.64091    -19.9 1.005e+04 3.568e-10
 96.66881    -18.6 9.979e+03 2.878e-10
 96.68911    -17.8 9.870e+03 2.894e-10
 96.72209    -16.7 9.859e+03 2.417e-10
 96.76269    -15.8 9.830e+03 1.996e-10
 96.80328    -15.1 9.799e+03 1.825e-10
 96.82387    -14.2 9.779e+03 1.795e-10
 96.84417    -13.3 9.823e+03 2.134e-10
 96.88446    -12.3 9.834e+03 2.161e-10
 96.92505    -11.1 9.871e+03 2.073e-10
 96.95864    -10.0 9.918e+03 1.853e-10
 96.97894     -9.1 9.886e+03 1.954e-10
 97.00623     -8.3 9.844e+03 1.701e-10
 97.04682     -7.4 9.819e+03 1.660e-10
 97.08741     -6.3 9.885e+03 1.802e-10
 97.11370     -4.8 9.949e+03 2.080e-10
 97.12273     -3.8 9.849e+03 2.320e-10
 97.13703     -3.7 9.994e+03 2.317e-10
 97.16859     -2.1 1.008e+04 2.446e-10
 97.20918     -0.6 1.021e+04 2.574e-10
 97.24847      0.9 1.026e+04 2.886e-10
 97.26877      2.1 1.020e+04 2.554e-10
 97.29036      3.7 1.020e+04 2.904e-10
 97.33095      5.6 1.017e+04 3.117e-10
 97.37154      7.6 1.007e+04 3.000e-10
 97.40353      9.7 9.948e+03 2.364e-10
 97.42383     10.6 1.002e+04 2.977e-10
 97.45272     12.6 9.913e+03 2.381e-10
 97.49331     14.5 9.844e+03 1.796e-10
 97.53391     15.9 9.765e+03 1.492e-10
 97.55860     17.5 9.730e+03 1.497e-10
 97.57889     19.0 9.753e+03 1.496e-10
 97.61509     20.7 9.796e+03 1.461e-10
 97.65568     22.8 9.645e+03 1.658e-10
 97.69336     25.1 9.597e+03 1.643e-10
 97.71366     26.2 9.586e+03 1.350e-10
 97.73046     28.1 9.639e+03 1.377e-10
 97.75076     28.6 9.625e+03 1.190e-10
 97.77745     30.0 9.747e+03 1.357e-10
 97.81804     31.2 9.838e+03 1.984e-10
 97.84843     33.0 1.001e+04 3.336e-10
 97.86872     34.3 9.982e+03 3.083e-10
 97.89922     36.6 1.025e+04 4.875e-10
 97.93981     38.6 1.029e+04 4.441e-10
 97.98040     39.9 1.019e+04 3.530e-10
 98.00349     40.8 9.977e+03 2.632e-10
 98.02379     41.7 1.004e+04 2.482e-10
 98.06158     42.5 9.758e+03 2.018e-10
 98.10217     43.9 9.495e+03 1.656e-10
 98.13826     45.6 9.298e+03 1.268e-10
 98.15855     46.5 9.331e+03 1.368e-10
 98.18335     48.3 9.215e+03 9.640e-11
 98.22394     49.7 9.215e+03 6.551e-11
 98.26453     50.8 9.149e+03 4.947e-11
 98.29332     52.2 9.060e+03 4.849e-11
 98.31362     53.1 9.081e+03 5.163e-11
 98.34420     54.5 9.148e+03 5.590e-11
 98.36449     54.1 9.326e+03 7.462e-11
 98.38631     54.1 9.670e+03 1.348e-10
 98.42690     54.6 1.032e+04 3.654e-10
 98.44838     55.4 1.092e+04 7.178e-10
 98.46868     56.5 1.100e+04 7.333e-10
 98.50808     57.1 1.115e+04 7.837e-10
 98.54867     57.8 1.098e+04 5.982e-10
 98.58315     57.6 1.078e+04 3.521e-10
 98.60345     58.6 1.091e+04 4.343e-10
 98.62985     57.9 1.073e+04 3.504e-10
 98.67044     57.9 1.070e+04 3.802e-10
 98.71103     58.4 1.063e+04 4.167e-10
 98.73821     59.7 1.056e+04 3.983e-10
 98.75851     60.1 1.083e+04 4.900e-10
 98.79221     61.6 1.060e+04 4.282e-10
 98.83280     63.0 1.037e+04 3.131e-10
 98.87298     63.9 1.020e+04 2.269e-10
 98.89328     64.6 1.031e+04 2.781e-10
 98.91398     65.4 1.013e+04 2.173e-10
 98.95457     66.4 9.980e+03 1.942e-10
 98.97822     67.7 9.855e+03 1.825e-10
 98.99852     67.0 9.810e+03 1.702e-10
 99.02804     68.6 9.675e+03 1.591e-10
 99.04834     69.0 9.658e+03 1.486e-10
 99.07635     70.6 9.526e+03 1.199e-10
 99.11694     72.2 9.454e+03 8.825e-11
 99.15753     73.5 9.403e+03 6.563e-11
 99.18311     74.8 9.292e+03 6.013e-11
 99.20340     75.2 9.209e+03 5.293e-11
 99.23871     76.8 9.210e+03 5.306e-11
 99.27930     78.6 9.246e+03 5.506e-11
 99.31788     80.2 9.289e+03 6.208e-11
 99.33817     80.8 9.181e+03 5.108e-11
 99.36048     82.5 9.224e+03 5.704e-11
 99.40107     84.1 9.237e+03 6.935e-11
 99.44166     85.8 9.241e+03 9.038e-11
 99.47294     87.6 9.276e+03 1.194e-10
 99.49323     88.4 9.123e+03 9.144e-11
 99.52284     90.3 9.184e+03 1.209e-10
 99.56343     92.3 9.290e+03 1.519e-10
 99.59196     94.3 9.415e+03 1.795e-10
 99.61225     94.2 9.346e+03 1.529e-10
 99.62800     96.1 9.426e+03 1.733e-10
 99.64830     96.9 9.381e+03 1.411e-10
 99.68520     98.8 9.446e+03 1.541e-10
 99.72579    100.5 9.532e+03 1.710e-10
 99.76277    102.2 9.710e+03 2.067e-10
 99.78306    103.2 9.500e+03 1.346e-10
 99.80697    105.1 9.829e+03 1.765e-10
 99.84756    106.3 1.029e+04 2.581e-10
 99.87791    106.6 1.057e+04 3.313e-10
 99.89811    106.8 1.086e+04 5.115e-10
 99.90878    107.3 1.113e+04 8.215e-10
 99.91816    107.7 1.120e+04 6.695e-10
 99.92778    108.1 1.129e+04 5.712e-10
 99.93870    108.6 1.169e+04 9.485e-10
 99.95899    109.3 1.210e+04 1.489e-09
 99.97929    110.2 1.261e+04 2.006e-09
 99.99517    110.4 1.321e+04 2.462e-09
