# Columns:
#   distance along LOS (in CHIMPs)
#   peculiar velocity  (in km/s)
#   temperature (K)
#   HI number density
# pos=(2.31178,3.31376,174.428), angles=(1.91051,3.19672)
  0.00532   -202.5 1.137e+04 3.763e-10
  0.03139   -201.8 1.177e+04 5.200e-10
  0.06811   -201.1 1.208e+04 7.055e-10
  0.08886   -199.3 1.222e+04 7.086e-10
  0.10391   -199.3 1.262e+04 9.253e-10
  0.12456   -199.4 1.281e+04 1.035e-09
  0.13872   -199.7 1.300e+04 1.153e-09
  0.14909   -199.1 1.328e+04 1.278e-09
  0.16605   -199.9 1.352e+04 1.421e-09
  0.18420   -201.8 1.377e+04 1.646e-09
  0.19458   -202.3 1.385e+04 1.657e-09
  0.19915   -204.7 1.384e+04 1.766e-09
  0.20952   -205.1 1.553e+04 3.495e-09
  0.22829   -207.1 1.551e+04 3.719e-09
  0.24904   -208.8 1.549e+04 3.765e-09
  0.25957   -210.0 1.484e+04 3.379e-09
  0.26471   -209.4 1.563e+04 4.496e-09
  0.27487   -210.0 1.540e+04 4.210e-09
  0.29048   -211.0 1.497e+04 3.618e-09
  0.30963   -212.0 1.415e+04 2.587e-09
  0.32000   -212.9 1.526e+04 3.528e-09
  0.33202   -213.8 1.455e+04 2.497e-09
  0.35277   -214.7 1.368e+04 1.616e-09
  0.37005   -215.4 1.296e+04 1.136e-09
  0.38043   -217.3 1.432e+04 2.040e-09
  0.39426   -217.8 1.377e+04 1.690e-09
  0.41501   -218.1 1.345e+04 1.582e-09
  0.43048   -218.2 1.335e+04 1.568e-09
  0.44085   -219.6 1.442e+04 2.719e-09
  0.45650   -219.2 1.412e+04 2.533e-09
  0.47725   -218.6 1.386e+04 2.360e-09
  0.49091   -218.0 1.357e+04 2.126e-09
  0.50128   -218.7 1.382e+04 2.382e-09
  0.51874   -218.0 1.330e+04 1.804e-09
  0.53949   -217.3 1.282e+04 1.375e-09
  0.55133   -216.5 1.238e+04 1.034e-09
  0.56038   -216.9 1.225e+04 9.147e-10
  0.56928   -216.6 1.234e+04 1.027e-09
  0.58098   -215.7 1.198e+04 7.647e-10
  0.60139   -214.9 1.168e+04 5.625e-10
  0.61176   -215.3 1.160e+04 4.822e-10
  0.62248   -214.5 1.140e+04 3.974e-10
  0.65154   -213.8 1.124e+04 3.535e-10
  0.67238   -214.7 1.114e+04 3.150e-10
  0.69528   -212.3 1.079e+04 2.654e-10
  0.73678   -210.0 1.048e+04 2.256e-10
  0.77249   -207.9 1.032e+04 2.000e-10
  0.79323   -207.9 1.035e+04 2.130e-10
  0.81976   -206.0 1.033e+04 2.059e-10
  0.86126   -204.1 1.031e+04 2.016e-10
  0.89334   -202.3 1.029e+04 1.986e-10
  0.91409   -202.4 1.049e+04 2.709e-10
  0.93380   -200.7 1.044e+04 2.676e-10
  0.95455   -200.4 1.048e+04 2.731e-10
  0.98574   -198.8 1.040e+04 2.672e-10
  1.01420   -197.4 1.031e+04 2.583e-10
  1.03494   -197.6 1.045e+04 3.290e-10
  1.06872   -196.1 1.036e+04 3.125e-10
  1.11022   -194.7 1.032e+04 3.072e-10
  1.13505   -193.3 1.030e+04 3.069e-10
  1.15580   -193.5 1.037e+04 3.269e-10
  1.19320   -192.2 1.029e+04 3.104e-10
  1.23470   -190.9 1.020e+04 2.899e-10
  1.25590   -189.4 1.010e+04 2.684e-10
  1.27665   -189.4 1.004e+04 2.571e-10
  1.31768   -187.8 9.984e+03 2.417e-10
  1.35601   -186.2 9.959e+03 2.382e-10
  1.37676   -186.2 9.897e+03 2.198e-10
  1.40067   -184.8 9.901e+03 2.257e-10
  1.44216   -183.9 1.014e+04 2.699e-10
  1.47686   -183.3 1.049e+04 3.590e-10
  1.49761   -183.7 1.040e+04 3.318e-10
  1.52515   -183.5 1.066e+04 4.360e-10
  1.56664   -183.5 1.088e+04 5.509e-10
  1.59772   -183.6 1.108e+04 6.567e-10
  1.61846   -183.7 1.110e+04 6.628e-10
  1.63916   -183.3 1.124e+04 7.411e-10
  1.65795   -183.7 1.130e+04 7.695e-10
  1.66832   -184.1 1.133e+04 7.931e-10
  1.68056   -185.1 1.133e+04 8.342e-10
  1.69339   -185.7 1.133e+04 8.458e-10
  1.70376   -185.3 1.134e+04 8.505e-10
  1.71837   -185.6 1.134e+04 8.658e-10
  1.72875   -186.2 1.134e+04 8.716e-10
  1.74280   -186.7 1.135e+04 8.904e-10
  1.76354   -187.2 1.133e+04 9.099e-10
  1.77880   -187.6 1.131e+04 9.268e-10
  1.78917   -187.8 1.126e+04 9.212e-10
  1.81551   -187.8 1.129e+04 9.464e-10
  1.83942   -187.5 1.132e+04 9.875e-10
  1.86017   -188.3 1.116e+04 9.133e-10
  1.89859   -188.7 1.098e+04 8.374e-10
  1.93953   -189.0 1.062e+04 6.811e-10
  1.96028   -190.0 1.003e+04 4.558e-10
  1.98158   -189.4 9.552e+03 3.291e-10
  2.02307   -188.5 9.177e+03 2.466e-10
  2.06038   -187.4 8.980e+03 2.032e-10
  2.08113   -187.8 8.705e+03 1.655e-10
  2.10606   -186.5 8.644e+03 1.485e-10
  2.14755   -185.1 8.644e+03 1.442e-10
  2.18124   -184.0 8.649e+03 1.439e-10
  2.20198   -184.2 8.507e+03 1.280e-10
  2.23054   -184.0 8.559e+03 1.301e-10
  2.27203   -184.3 8.943e+03 1.729e-10
  2.30209   -185.2 9.973e+03 3.340e-10
  2.32284   -186.0 1.010e+04 3.555e-10
  2.35502   -187.8 1.110e+04 7.297e-10
  2.39651   -189.8 1.185e+04 1.212e-09
  2.42294   -192.0 1.223e+04 1.546e-09
  2.43322   -192.3 1.246e+04 1.708e-09
  2.44279   -192.9 1.252e+04 1.757e-09
  2.45327   -193.6 1.216e+04 1.506e-09
  2.46903   -194.3 1.211e+04 1.492e-09
  2.48317   -195.2 1.212e+04 1.476e-09
  2.49355   -195.9 1.226e+04 1.570e-09
  2.51042   -197.0 1.201e+04 1.401e-09
  2.53117   -198.1 1.170e+04 1.164e-09
  2.54360   -199.3 1.133e+04 9.245e-10
  2.55398   -200.3 1.123e+04 8.356e-10
  2.57266   -201.4 1.107e+04 7.112e-10
  2.59341   -202.6 1.106e+04 6.581e-10
  2.60403   -203.6 1.107e+04 6.457e-10
  2.61440   -204.9 1.110e+04 6.693e-10
  2.63490   -205.9 1.112e+04 6.763e-10
  2.65408   -206.7 1.110e+04 6.888e-10
  2.66446   -207.8 1.107e+04 7.166e-10
  2.67640   -208.3 1.098e+04 7.071e-10
  2.69714   -208.6 1.089e+04 6.736e-10
  2.71451   -209.0 1.085e+04 6.274e-10
  2.72488   -210.1 1.097e+04 6.477e-10
  2.73864   -210.5 1.101e+04 6.371e-10
  2.75938   -211.1 1.111e+04 6.345e-10
  2.77494   -211.7 1.139e+04 6.765e-10
  2.78531   -213.5 1.191e+04 9.661e-10
  2.80088   -213.7 1.206e+04 1.152e-09
  2.81750   -213.4 1.215e+04 1.335e-09
  2.82787   -213.3 1.207e+04 1.168e-09
  2.83536   -213.0 1.206e+04 1.283e-09
  2.84574   -213.7 1.251e+04 1.856e-09
  2.86312   -213.1 1.249e+04 1.873e-09
  2.88386   -212.2 1.224e+04 1.825e-09
  2.89579   -211.0 1.187e+04 1.506e-09
  2.90616   -211.1 1.188e+04 1.474e-09
  2.92536   -209.9 1.151e+04 1.112e-09
  2.94584   -208.9 1.118e+04 7.980e-10
  2.95622   -209.4 1.112e+04 7.274e-10
  2.96685   -208.5 1.085e+04 5.263e-10
  2.98760   -207.8 1.069e+04 4.221e-10
  3.00637   -207.0 1.058e+04 3.686e-10
  3.02721   -208.4 1.046e+04 3.357e-10
  3.06040   -205.6 1.014e+04 2.797e-10
  3.10190   -203.0 9.960e+03 2.453e-10
  3.12732   -200.3 9.925e+03 2.293e-10
  3.14806   -200.8 9.883e+03 2.320e-10
  3.18202   -198.3 9.889e+03 2.267e-10
  3.20277   -197.8 9.900e+03 2.297e-10
  3.22638   -195.3 9.917e+03 2.262e-10
  3.24817   -192.8 9.933e+03 2.228e-10
  3.26892   -193.4 9.841e+03 2.125e-10
  3.30936   -190.8 9.809e+03 2.036e-10
  3.34828   -188.3 9.767e+03 1.930e-10
  3.36902   -188.7 9.562e+03 1.446e-10
  3.39235   -186.2 9.541e+03 1.271e-10
  3.43384   -183.7 9.558e+03 1.107e-10
  3.46913   -181.4 9.615e+03 9.612e-11
  3.48988   -182.1 9.428e+03 6.905e-11
  3.51683   -179.9 9.459e+03 6.382e-11
  3.55832   -177.8 9.484e+03 5.989e-11
  3.58999   -175.7 9.500e+03 5.671e-11
  3.61073   -176.1 9.375e+03 6.151e-11
  3.64131   -173.9 9.362e+03 6.073e-11
  3.68280   -171.6 9.355e+03 6.027e-11
  3.71084   -169.2 9.353e+03 6.005e-11
  3.73159   -169.0 9.405e+03 7.965e-11
  3.76579   -166.6 9.455e+03 8.124e-11
  3.80728   -164.1 9.513e+03 8.286e-11
  3.83169   -161.7 9.574e+03 8.413e-11
  3.85244   -161.7 9.848e+03 1.367e-10
  3.89027   -159.4 9.912e+03 1.443e-10
  3.93143   -157.1 9.968e+03 1.519e-10
  3.95218   -157.0 9.991e+03 1.338e-10
  3.97326   -155.2 1.049e+04 3.027e-10
  4.01475   -152.9 1.061e+04 3.459e-10
  4.05265   -150.6 1.073e+04 3.963e-10
  4.07340   -151.0 1.120e+04 7.045e-10
  4.09774   -148.7 1.123e+04 7.151e-10
  4.13923   -146.6 1.130e+04 6.952e-10
  4.17351   -144.6 1.128e+04 6.583e-10
  4.19425   -145.1 1.139e+04 7.828e-10
  4.22222   -143.3 1.139e+04 7.260e-10
  4.26371   -141.7 1.135e+04 6.558e-10
  4.29436   -140.2 1.129e+04 5.980e-10
  4.31511   -140.2 1.150e+04 7.741e-10
  4.34670   -138.7 1.146e+04 7.507e-10
  4.38819   -137.1 1.138e+04 7.251e-10
  4.41521   -135.4 1.128e+04 7.000e-10
  4.43596   -135.3 1.141e+04 7.594e-10
  4.47118   -133.5 1.131e+04 7.147e-10
  4.51267   -131.7 1.120e+04 6.696e-10
  4.53607   -129.8 1.109e+04 6.254e-10
  4.55681   -129.8 1.113e+04 6.255e-10
  4.59566   -127.9 1.107e+04 5.844e-10
  4.63617   -126.0 1.102e+04 5.509e-10
  4.65692   -126.3 1.115e+04 5.954e-10
  4.67864   -124.4 1.116e+04 5.940e-10
  4.70158   -122.7 1.126e+04 6.382e-10
  4.72233   -122.2 1.130e+04 6.467e-10
  4.75703   -120.6 1.140e+04 7.016e-10
  4.77777   -121.1 1.167e+04 9.787e-10
  4.80312   -119.5 1.179e+04 1.069e-09
  4.84462   -118.0 1.187e+04 1.137e-09
  4.87788   -116.7 1.193e+04 1.171e-09
  4.89863   -117.2 1.167e+04 1.090e-09
  4.92760   -115.8 1.160e+04 1.055e-09
  4.96910   -114.5 1.156e+04 1.016e-09
  4.99873   -113.2 1.153e+04 9.690e-10
  5.01948   -113.5 1.113e+04 8.144e-10
  5.05208   -112.2 1.118e+04 8.241e-10
  5.09358   -110.8 1.119e+04 8.204e-10
  5.11959   -109.2 1.113e+04 7.836e-10
  5.14033   -108.9 1.086e+04 7.128e-10
  5.17656   -107.2 1.088e+04 6.931e-10
  5.21806   -105.5 1.080e+04 6.469e-10
  5.24044   -103.8 1.069e+04 5.990e-10
  5.26119   -103.5 1.073e+04 6.355e-10
  5.30104   -101.7 1.073e+04 6.495e-10
  5.34055    -99.9 1.071e+04 6.616e-10
  5.36129    -99.6 1.076e+04 7.117e-10
  5.38403    -97.9 1.076e+04 7.329e-10
  5.42552    -96.1 1.075e+04 7.519e-10
  5.45099    -94.3 1.075e+04 7.721e-10
  5.46612    -93.7 1.061e+04 6.909e-10
  5.48215    -93.5 1.053e+04 6.647e-10
  5.50851    -91.6 1.055e+04 6.837e-10
  5.55000    -89.8 1.063e+04 7.348e-10
  5.58225    -87.9 1.067e+04 7.857e-10
  5.60300    -87.9 1.087e+04 8.536e-10
  5.63299    -86.2 1.102e+04 9.675e-10
  5.67448    -84.5 1.103e+04 9.868e-10
  5.70311    -82.9 1.076e+04 8.391e-10
  5.72385    -83.1 1.094e+04 9.560e-10
  5.75747    -81.3 1.044e+04 7.135e-10
  5.79896    -79.5 9.730e+03 4.473e-10
  5.82396    -77.9 9.078e+03 2.739e-10
  5.84471    -77.8 9.352e+03 3.537e-10
  5.88195    -76.3 9.026e+03 2.696e-10
  5.92344    -74.7 8.933e+03 2.468e-10
  5.94481    -73.2 8.922e+03 2.440e-10
  5.96556    -73.3 9.482e+03 3.791e-10
  6.00643    -72.4 9.879e+03 4.697e-10
  6.04492    -71.9 1.045e+04 6.582e-10
  6.06567    -72.3 1.106e+04 9.574e-10
  6.08942    -72.1 1.145e+04 1.195e-09
  6.13091    -72.1 1.163e+04 1.323e-09
  6.16578    -72.0 1.162e+04 1.345e-09
  6.18652    -72.5 1.170e+04 1.447e-09
  6.20040    -71.9 1.107e+04 9.899e-10
  6.21067    -72.3 1.068e+04 8.049e-10
  6.22407    -72.3 1.041e+04 6.268e-10
  6.23638    -72.6 1.009e+04 4.663e-10
  6.24675    -72.8 1.004e+04 4.212e-10
  6.26557    -73.1 9.885e+03 3.637e-10
  6.28653    -73.5 9.741e+03 3.286e-10
  6.30738    -73.6 9.690e+03 3.025e-10
  6.33838    -73.1 9.673e+03 3.159e-10
  6.37987    -72.5 9.889e+03 3.800e-10
  6.40748    -71.8 1.009e+04 4.506e-10
  6.42823    -71.7 1.009e+04 4.426e-10
  6.45239    -71.2 1.017e+04 4.862e-10
  6.46771    -71.1 1.016e+04 4.897e-10
  6.47809    -71.1 1.017e+04 4.879e-10
  6.49378    -70.9 1.017e+04 4.902e-10
  6.51453    -70.8 1.009e+04 4.799e-10
  6.52814    -70.8 9.977e+03 4.528e-10
  6.53851    -71.1 1.018e+04 4.957e-10
  6.55602    -71.6 1.019e+04 4.862e-10
  6.57490    -72.0 1.024e+04 4.841e-10
  6.58528    -71.8 1.012e+04 4.555e-10
  6.58857    -72.2 1.016e+04 4.631e-10
  6.59894    -73.1 1.054e+04 6.106e-10
  6.61826    -73.4 1.052e+04 6.182e-10
  6.63862    -73.2 1.034e+04 6.106e-10
  6.64899    -73.7 1.052e+04 8.051e-10
  6.65975    -72.9 1.021e+04 6.875e-10
  6.68050    -72.2 9.970e+03 5.373e-10
  6.69905    -71.8 9.781e+03 4.145e-10
  6.70942    -72.3 9.885e+03 4.699e-10
  6.72199    -71.9 9.681e+03 3.671e-10
  6.74920    -71.5 9.518e+03 2.937e-10
  6.76994    -72.1 9.889e+03 3.761e-10
  6.78423    -71.4 9.945e+03 3.728e-10
  6.80498    -71.2 1.027e+04 4.171e-10
  6.81990    -70.9 1.058e+04 4.961e-10
  6.83027    -72.5 1.111e+04 8.565e-10
  6.84647    -71.8 1.143e+04 1.099e-09
  6.86722    -71.0 1.187e+04 1.469e-09
  6.88033    -70.0 1.242e+04 1.988e-09
  6.89070    -70.1 1.263e+04 2.282e-09
  6.90871    -69.1 1.319e+04 2.789e-09
  6.92946    -68.1 1.377e+04 3.356e-09
  6.94075    -67.3 1.435e+04 3.991e-09
  6.95053    -69.6 1.520e+04 3.497e-09
  6.95998    -68.7 1.454e+04 3.239e-09
  6.97095    -69.0 1.537e+04 3.568e-09
  6.99081    -69.7 1.624e+04 4.003e-09
  7.00118    -73.6 1.553e+04 3.017e-09
  7.01245    -74.4 1.550e+04 3.300e-09
  7.03319    -75.0 1.537e+04 3.615e-09
  7.05123    -75.6 1.520e+04 3.818e-09
  7.06161    -76.7 1.308e+04 2.497e-09
  7.07469    -77.2 1.311e+04 2.375e-09
  7.09543    -78.0 1.298e+04 2.180e-09
  7.11166    -78.9 1.266e+04 1.911e-09
  7.12203    -79.0 1.191e+04 1.174e-09
  7.13693    -79.8 1.174e+04 1.044e-09
  7.15767    -80.5 1.162e+04 9.494e-10
  7.17209    -81.2 1.157e+04 9.083e-10
  7.18246    -81.2 1.147e+04 8.136e-10
  7.19917    -82.0 1.177e+04 9.041e-10
  7.21991    -82.6 1.201e+04 1.052e-09
  7.23251    -83.0 1.218e+04 1.253e-09
  7.24289    -82.9 1.202e+04 1.488e-09
  7.26141    -82.5 1.190e+04 1.720e-09
  7.28215    -81.7 1.175e+04 1.837e-09
  7.29294    -80.6 1.149e+04 1.904e-09
  7.30331    -79.3 1.143e+04 1.707e-09
  7.32365    -78.0 1.122e+04 1.616e-09
  7.33468    -77.0 1.110e+04 1.503e-09
  7.34366    -76.6 1.097e+04 1.347e-09
  7.35337    -75.9 1.104e+04 8.681e-10
  7.36514    -75.2 1.097e+04 7.665e-10
  7.38589    -74.4 1.086e+04 6.780e-10
  7.40342    -73.6 1.068e+04 6.025e-10
  7.41379    -74.3 1.008e+04 3.402e-10
  7.42738    -73.4 9.974e+03 3.372e-10
  7.44813    -72.4 9.924e+03 3.489e-10
  7.46385    -71.7 9.862e+03 3.535e-10
  7.47432    -72.7 9.319e+03 1.738e-10
  7.50019    -70.8 9.378e+03 1.999e-10
  7.54168    -69.0 9.567e+03 2.540e-10
  7.57452    -67.0 9.766e+03 3.263e-10
  7.59527    -66.8 9.141e+03 1.530e-10
  7.62467    -64.7 9.360e+03 2.060e-10
  7.66616    -62.7 9.523e+03 2.528e-10
  7.69538    -60.9 9.611e+03 2.899e-10
  7.70768    -60.8 9.267e+03 1.605e-10
  7.71995    -59.9 8.756e+03 9.985e-11
  7.74915    -58.2 8.938e+03 1.238e-10
  7.79064    -56.8 9.155e+03 1.676e-10
  7.81623    -55.4 9.425e+03 2.412e-10
  7.83698    -55.0 9.375e+03 2.360e-10
  7.87363    -53.8 9.788e+03 3.507e-10
  7.91512    -52.8 1.006e+04 4.678e-10
  7.93708    -52.0 1.030e+04 5.948e-10
  7.94736    -51.4 1.041e+04 6.112e-10
  7.96679    -51.5 1.053e+04 6.642e-10
  7.98694    -51.4 1.074e+04 7.483e-10
  7.99732    -51.6 1.106e+04 8.059e-10
  8.00829    -52.2 1.136e+04 9.244e-10
  8.02903    -52.7 1.158e+04 1.041e-09
  8.04737    -53.1 1.161e+04 1.081e-09
  8.05774    -54.3 1.273e+04 1.516e-09
  8.07053    -54.1 1.247e+04 1.455e-09
  8.08409    -53.4 1.191e+04 1.126e-09
  8.09446    -53.4 1.204e+04 1.252e-09
  8.10780    -52.8 1.141e+04 8.632e-10
  8.11817    -53.0 1.165e+04 1.009e-09
  8.13277    -53.2 1.120e+04 6.268e-10
  8.15351    -54.1 1.079e+04 4.441e-10
  8.16822    -54.6 1.045e+04 3.848e-10
  8.17860    -56.1 1.076e+04 5.084e-10
  8.19501    -56.0 1.076e+04 5.076e-10
  8.21575    -55.9 1.120e+04 5.776e-10
  8.22865    -55.9 1.169e+04 7.110e-10
  8.23902    -57.4 1.197e+04 9.940e-10
  8.25725    -57.3 1.211e+04 1.294e-09
  8.27799    -57.2 1.229e+04 1.789e-09
  8.28908    -56.9 1.250e+04 2.473e-09
  8.29945    -56.3 1.245e+04 2.243e-09
  8.31949    -55.5 1.297e+04 2.578e-09
  8.33913    -55.2 1.392e+04 2.733e-09
  8.34950    -56.6 1.415e+04 1.672e-09
  8.36098    -59.1 1.470e+04 1.677e-09
  8.38173    -62.4 1.423e+04 1.647e-09
  8.39956    -65.0 1.323e+04 1.655e-09
  8.40993    -65.8 1.238e+04 1.568e-09
  8.42322    -65.9 1.237e+04 1.632e-09
  8.44397    -66.0 1.231e+04 1.605e-09
  8.45879    -65.9 1.209e+04 1.376e-09
  8.46443    -65.8 1.195e+04 1.251e-09
  8.47036    -65.8 1.163e+04 1.073e-09
  8.48546    -66.2 1.137e+04 8.757e-10
  8.50621    -66.4 1.111e+04 7.123e-10
  8.52041    -66.5 1.091e+04 5.961e-10
  8.53078    -66.6 1.077e+04 5.618e-10
  8.54770    -66.3 1.069e+04 5.179e-10
  8.56845    -65.9 1.066e+04 5.006e-10
  8.58084    -65.4 1.063e+04 4.961e-10
  8.59121    -65.4 1.048e+04 4.819e-10
  8.60994    -64.7 1.050e+04 4.903e-10
  8.63069    -64.0 1.054e+04 5.123e-10
  8.64136    -63.4 1.064e+04 5.560e-10
  8.65173    -62.9 1.039e+04 4.867e-10
  8.67218    -62.2 1.043e+04 4.893e-10
  8.70340    -61.4 1.049e+04 4.924e-10
  8.74157    -59.7 1.055e+04 5.055e-10
  8.76231    -59.7 1.017e+04 3.582e-10
  8.78648    -58.4 1.020e+04 3.811e-10
  8.82798    -56.9 1.015e+04 3.816e-10
  8.86242    -55.2 9.885e+03 3.301e-10
  8.88317    -55.0 9.636e+03 3.155e-10
  8.91096    -53.1 9.348e+03 2.460e-10
  8.95246    -51.4 9.165e+03 1.784e-10
  8.98327    -49.7 9.075e+03 1.372e-10
  9.00402    -49.4 8.902e+03 1.344e-10
  9.03544    -47.7 8.826e+03 1.161e-10
  9.07694    -46.0 8.807e+03 1.115e-10
  9.10413    -44.2 8.884e+03 1.118e-10
  9.12487    -44.6 9.049e+03 1.518e-10
  9.15992    -43.2 9.239e+03 1.841e-10
  9.19802    -41.5 9.402e+03 2.299e-10
  9.21877    -42.3 1.007e+04 4.044e-10
  9.22498    -40.6 1.044e+04 5.414e-10
  9.24573    -41.0 1.111e+04 7.216e-10
  9.28440    -39.8 1.133e+04 7.757e-10
  9.32509    -38.7 1.140e+04 7.900e-10
  9.34583    -40.6 1.242e+04 9.737e-10
  9.36739    -39.8 1.241e+04 1.012e-09
  9.40888    -38.9 1.212e+04 1.066e-09
  9.44594    -38.2 1.183e+04 1.080e-09
  9.46669    -38.5 1.263e+04 2.038e-09
  9.48140    -37.4 1.247e+04 2.007e-09
  9.50205    -36.6 1.246e+04 2.022e-09
  9.51654    -35.6 1.251e+04 2.014e-09
  9.52692    -35.3 1.238e+04 2.147e-09
  9.54354    -34.6 1.232e+04 1.935e-09
  9.56429    -34.2 1.226e+04 1.730e-09
  9.57697    -34.0 1.218e+04 1.552e-09
  9.58521    -33.8 1.177e+04 1.288e-09
  9.59328    -34.1 1.187e+04 1.386e-09
  9.60578    -34.0 1.164e+04 1.203e-09
  9.62653    -33.7 1.141e+04 1.042e-09
  9.65775    -32.7 1.127e+04 8.515e-10
  9.68765    -30.7 1.091e+04 6.547e-10
  9.70839    -31.0 1.025e+04 3.893e-10
  9.74083    -29.4 1.016e+04 3.439e-10
  9.78232    -27.5 1.010e+04 3.025e-10
  9.80850    -25.5 1.010e+04 2.632e-10
  9.82925    -24.9 9.941e+03 2.569e-10
  9.86531    -23.0 9.922e+03 2.316e-10
  9.90680    -21.2 1.001e+04 2.258e-10
  9.92935    -20.0 1.051e+04 2.967e-10
  9.94923    -18.6 1.016e+04 2.756e-10
  9.96817    -19.7 1.055e+04 3.604e-10
  9.98979    -18.2 1.133e+04 6.990e-10
 10.02081    -16.9 1.182e+04 9.835e-10
 10.03964    -16.6 1.310e+04 1.569e-09
 10.05011    -16.2 1.223e+04 1.292e-09
 10.06231    -15.1 1.311e+04 2.319e-09
 10.08295    -14.7 1.428e+04 3.686e-09
 10.10006    -14.5 1.593e+04 6.229e-09
 10.11044    -13.0 1.455e+04 3.734e-09
 10.12445    -12.9 1.656e+04 5.900e-09
 10.14519    -13.3 1.806e+04 1.016e-08
 10.16049    -13.0 1.846e+04 1.775e-08
 10.17087    -12.7 1.870e+04 8.453e-09
 10.18669    -12.7 1.921e+04 1.613e-08
 10.20220    -12.0 1.979e+04 1.646e-08
 10.21252    -12.2 1.850e+04 2.172e-08
 10.22082    -12.7 1.786e+04 2.324e-08
 10.22601    -12.8 1.897e+04 1.649e-08
 10.23327    -13.3 1.814e+04 1.807e-08
 10.24364    -14.0 1.721e+04 1.878e-08
 10.25103    -15.3 1.640e+04 1.694e-08
 10.25622    -15.0 1.724e+04 1.397e-08
 10.26439    -16.1 1.606e+04 1.318e-08
 10.27476    -16.6 1.537e+04 1.244e-08
 10.28125    -16.9 1.514e+04 1.213e-08
 10.28643    -16.7 1.565e+04 9.533e-09
 10.29551    -17.3 1.519e+04 9.502e-09
 10.31112    -16.9 1.502e+04 1.078e-08
 10.33140    -15.6 1.523e+04 1.154e-08
 10.34177    -15.6 1.501e+04 8.316e-09
 10.34268    -13.9 1.490e+04 9.167e-09
 10.35305    -14.0 1.446e+04 6.595e-09
 10.37341    -12.6 1.504e+04 7.818e-09
 10.39183    -11.6 1.650e+04 8.808e-09
 10.40220    -10.9 1.476e+04 6.024e-09
 10.41490    -10.1 1.640e+04 7.539e-09
 10.43565     -9.7 1.794e+04 8.350e-09
 10.45225     -9.9 1.802e+04 8.601e-09
 10.46263     -9.3 1.885e+04 9.306e-09
 10.47714     -9.3 1.937e+04 1.112e-08
 10.49789     -9.4 1.818e+04 1.139e-08
 10.51268     -9.1 1.681e+04 1.014e-08
 10.52305     -7.7 1.965e+04 1.470e-08
 10.53938     -7.0 1.805e+04 1.212e-08
 10.56013     -6.2 1.642e+04 7.939e-09
 10.57311     -5.5 1.491e+04 4.384e-09
 10.58348     -4.1 1.634e+04 6.201e-09
 10.60162     -4.8 1.422e+04 3.190e-09
 10.62237     -5.1 1.279e+04 1.845e-09
 10.63353     -4.5 1.163e+04 1.122e-09
 10.64391     -3.9 1.196e+04 1.325e-09
 10.66386     -2.8 1.129e+04 8.986e-10
 10.68359     -1.8 1.076e+04 6.131e-10
 10.69396     -0.7 1.109e+04 7.342e-10
 10.70535     -0.1 1.056e+04 5.511e-10
 10.71748      0.7 9.753e+03 3.056e-10
 10.73549     -0.3 1.230e+04 9.348e-10
 10.75448      2.0 1.110e+04 6.018e-10
 10.77806      3.7 1.171e+04 7.169e-10
 10.81966      5.0 1.129e+04 6.033e-10
 10.85469      6.5 1.108e+04 5.856e-10
 10.87543      9.1 1.159e+04 6.764e-10
 10.90264     10.5 1.149e+04 7.066e-10
 10.94414     12.0 1.121e+04 6.825e-10
 10.97516     13.7 1.063e+04 5.970e-10
 10.98572     13.7 1.056e+04 5.935e-10
 10.99609     14.8 1.062e+04 6.339e-10
 11.01655     15.1 1.074e+04 6.917e-10
 11.03577     15.5 1.080e+04 7.256e-10
 11.04615     16.7 1.077e+04 7.233e-10
 11.05805     16.8 1.099e+04 7.535e-10
 11.07879     17.0 1.114e+04 8.051e-10
 11.09209     17.2 1.112e+04 8.002e-10
 11.09912     16.8 1.107e+04 7.497e-10
 11.10657     17.8 1.098e+04 6.962e-10
 11.12029     18.0 1.091e+04 6.292e-10
 11.14103     18.0 1.082e+04 5.388e-10
 11.15663     17.9 1.058e+04 4.522e-10
 11.16700     19.0 1.058e+04 3.769e-10
 11.18253     18.3 1.046e+04 3.040e-10
 11.20327     17.7 1.040e+04 2.853e-10
 11.21705     16.9 1.036e+04 2.845e-10
 11.23790     18.7 1.034e+04 2.705e-10
 11.26561     16.7 1.038e+04 3.271e-10
 11.27748     15.5 1.050e+04 4.153e-10
 11.28785     16.9 1.049e+04 4.052e-10
 11.30701     16.1 1.072e+04 5.253e-10
 11.32753     15.4 1.105e+04 6.525e-10
 11.33791     16.7 1.117e+04 6.551e-10
 11.34850     16.0 1.138e+04 8.387e-10
 11.36925     15.7 1.137e+04 9.501e-10
 11.38796     15.4 1.131e+04 9.749e-10
 11.39833     16.2 1.158e+04 1.114e-09
 11.41074     16.1 1.145e+04 1.078e-09
 11.43149     15.9 1.141e+04 9.387e-10
 11.44839     15.4 1.123e+04 8.176e-10
 11.45876     16.1 1.165e+04 1.012e-09
 11.46679     15.2 1.157e+04 8.137e-10
 11.47716     14.1 1.167e+04 9.315e-10
 11.49373     13.4 1.142e+04 8.517e-10
 11.50881     13.1 1.122e+04 7.895e-10
 11.51919     13.7 1.151e+04 9.269e-10
 11.53522     13.4 1.141e+04 8.556e-10
 11.55597     13.2 1.130e+04 8.185e-10
 11.56924     13.3 1.115e+04 7.670e-10
 11.57961     13.6 1.135e+04 8.487e-10
 11.59746     13.9 1.103e+04 7.822e-10
 11.61821     14.6 1.076e+04 6.863e-10
 11.62967     14.5 1.051e+04 5.284e-10
 11.64004     15.0 1.060e+04 5.871e-10
 11.65970     15.1 1.043e+04 4.987e-10
 11.67982     15.1 1.017e+04 3.875e-10
 11.70066     15.9 1.019e+04 3.815e-10
 11.73251     16.1 9.938e+03 3.327e-10
 11.77400     16.7 9.823e+03 3.529e-10
 11.80077     17.6 9.812e+03 3.596e-10
 11.82152     18.0 9.776e+03 3.361e-10
 11.85699     18.8 1.002e+04 3.366e-10
 11.88801     18.5 9.736e+03 2.888e-10
 11.90866     16.7 1.014e+04 3.354e-10
 11.92143     13.7 1.085e+04 5.003e-10
 11.93180     12.0 1.144e+04 6.272e-10
 11.95015      8.0 1.247e+04 1.198e-09
 11.97090      5.4 1.326e+04 2.055e-09
 11.98185      4.3 1.389e+04 2.840e-09
 11.99223      3.0 1.466e+04 3.748e-09
 12.01239      2.3 1.458e+04 3.727e-09
 12.03191      1.1 1.403e+04 2.701e-09
 12.04228     -0.4 1.418e+04 2.722e-09
 12.05389     -4.3 1.295e+04 1.629e-09
 12.07463     -8.1 1.168e+04 1.047e-09
 12.09233    -10.3 1.111e+04 8.346e-10
 12.10271    -12.0 1.114e+04 8.081e-10
 12.11613    -13.5 1.109e+04 7.657e-10
 12.13687    -16.6 1.189e+04 8.483e-10
 12.15276    -21.2 1.315e+04 1.288e-09
 12.16313    -26.0 1.472e+04 2.186e-09
 12.17837    -28.2 1.497e+04 3.308e-09
 12.19911    -28.9 1.480e+04 4.022e-09
 12.21319    -28.5 1.468e+04 4.148e-09
 12.21990    -29.0 1.511e+04 4.539e-09
 12.22657    -28.5 1.500e+04 4.750e-09
 12.24061    -28.2 1.474e+04 3.376e-09
 12.26135    -29.6 1.502e+04 2.058e-09
 12.27361    -34.3 1.489e+04 1.355e-09
 12.28399    -46.7 1.805e+04 2.173e-09
 12.30285    -51.5 1.689e+04 2.304e-09
 12.32359    -53.4 1.563e+04 3.001e-09
 12.34434    -54.1 1.588e+04 6.180e-09
 12.36509    -52.8 1.602e+04 6.422e-09
 12.38409    -51.7 1.624e+04 6.479e-09
 12.39447    -52.8 1.674e+04 3.613e-09
 12.40658    -52.1 1.687e+04 2.792e-09
 12.42733    -51.6 1.709e+04 2.060e-09
 12.44452    -51.3 1.682e+04 1.458e-09
 12.45489    -58.7 1.257e+04 4.400e-10
 12.46882    -58.3 1.171e+04 3.684e-10
 12.48957    -57.1 1.129e+04 3.371e-10
 12.50495    -55.7 1.102e+04 3.143e-10
 12.51532    -56.8 1.069e+04 2.679e-10
 12.53106    -55.0 1.052e+04 2.468e-10
 12.56228    -52.7 1.047e+04 2.360e-10
 12.60387    -49.4 1.046e+04 2.342e-10
 12.62590    -46.2 1.045e+04 2.335e-10
 12.64665    -47.9 1.015e+04 2.030e-10
 12.68686    -45.3 1.047e+04 2.240e-10
 12.71788    -42.7 1.063e+04 2.537e-10
 12.73628    -42.7 1.079e+04 2.766e-10
 12.74675    -43.7 1.076e+04 2.889e-10
 12.75937    -41.5 1.123e+04 3.878e-10
 12.78002    -41.5 1.156e+04 5.369e-10
 12.81124    -40.1 1.192e+04 8.137e-10
 12.84696    -37.8 1.217e+04 9.785e-10
 12.86770    -36.1 1.183e+04 8.558e-10
 12.89432    -33.9 1.210e+04 9.665e-10
 12.93582    -31.8 1.216e+04 9.282e-10
 12.96580    -30.0 1.191e+04 7.339e-10
 12.97705    -27.6 1.243e+04 1.054e-09
 12.98856    -25.6 1.230e+04 1.066e-09
 13.01880    -23.7 1.224e+04 8.916e-10
 13.06030    -22.4 1.188e+04 7.098e-10
 13.08866    -21.2 1.146e+04 6.550e-10
 13.10941    -18.8 1.155e+04 6.810e-10
 13.14328    -16.4 1.139e+04 7.081e-10
 13.18478    -13.6 1.124e+04 6.355e-10
 13.20952    -11.1 1.092e+04 4.970e-10
 13.23026     -8.9 1.120e+04 5.003e-10
 13.26776     -6.8 1.092e+04 4.164e-10
 13.30926     -4.3 1.057e+04 4.208e-10
 13.33037     -1.4 1.051e+04 4.187e-10
 13.35112      0.3 1.088e+04 5.039e-10
 13.38033      3.1 1.087e+04 5.487e-10
 13.39060      3.0 1.097e+04 5.598e-10
 13.40242      3.3 1.104e+04 5.713e-10
 13.42317      5.7 1.115e+04 5.721e-10
 13.44066      6.0 1.123e+04 5.801e-10
 13.45103      7.7 1.173e+04 9.694e-10
 13.46466      9.5 1.170e+04 9.549e-10
 13.48541     10.4 1.178e+04 9.672e-10
 13.50108     12.3 1.181e+04 8.796e-10
 13.51146     12.2 1.264e+04 1.173e-09
 13.52690     13.1 1.270e+04 1.080e-09
 13.54765     15.0 1.226e+04 8.280e-10
 13.56151     15.7 1.179e+04 6.469e-10
 13.57188     16.3 1.441e+04 1.256e-09
 13.58914     17.4 1.365e+04 7.859e-10
 13.60989     17.7 1.246e+04 5.188e-10
 13.62194     17.9 1.103e+04 3.802e-10
 13.63231     19.0 1.417e+04 6.402e-10
 13.65138     19.0 1.214e+04 4.495e-10
 13.67199     19.7 1.064e+04 3.716e-10
 13.68236     19.7 1.363e+04 5.942e-10
 13.69287     20.0 1.171e+04 4.989e-10
 13.71362     20.8 1.116e+04 4.795e-10
 13.72538     21.7 1.119e+04 4.941e-10
 13.73381     22.3 1.117e+04 4.861e-10
 13.74279     22.7 1.192e+04 6.105e-10
 13.75511     23.6 1.132e+04 5.798e-10
 13.77586     24.6 1.134e+04 6.024e-10
 13.79284     25.4 1.152e+04 6.955e-10
 13.80322     25.2 1.198e+04 8.799e-10
 13.81735     26.1 1.194e+04 9.331e-10
 13.83810     27.3 1.206e+04 1.017e-09
 13.85327     28.1 1.231e+04 1.149e-09
 13.86364     28.3 1.225e+04 1.254e-09
 13.87959     28.6 1.239e+04 1.360e-09
 13.90034     28.3 1.297e+04 1.663e-09
 13.91370     27.8 1.376e+04 2.332e-09
 13.92407     28.6 1.311e+04 2.025e-09
 13.94183     28.8 1.370e+04 2.692e-09
 13.96258     29.4 1.433e+04 3.465e-09
 13.97412     30.0 1.479e+04 3.866e-09
 13.98450     30.3 1.402e+04 2.823e-09
 14.00407     30.2 1.414e+04 2.930e-09
 14.02418     29.9 1.421e+04 2.820e-09
 14.03455     29.8 1.377e+04 2.470e-09
 14.04557     29.5 1.353e+04 2.550e-09
 14.06631     29.7 1.325e+04 2.524e-09
 14.08460     30.5 1.294e+04 2.359e-09
 14.09498     31.1 1.279e+04 2.357e-09
 14.10009     31.9 1.275e+04 2.301e-09
 14.11046     32.2 1.246e+04 1.855e-09
 14.13475     32.8 1.249e+04 1.775e-09
 14.15550     33.8 1.222e+04 1.663e-09
 14.18052     34.8 1.216e+04 1.506e-09
 14.22211     36.1 1.207e+04 1.392e-09
 14.25571     37.6 1.199e+04 1.338e-09
 14.27645     38.0 1.229e+04 1.402e-09
 14.30510     39.5 1.231e+04 1.486e-09
 14.34659     40.9 1.241e+04 1.572e-09
 14.37656     42.5 1.242e+04 1.545e-09
 14.39731     42.7 1.273e+04 1.993e-09
 14.42958     44.6 1.290e+04 2.092e-09
 14.46461     46.7 1.279e+04 1.846e-09
 14.48526     47.8 1.302e+04 2.424e-09
 14.49732     49.2 1.283e+04 1.955e-09
 14.50769     48.7 1.286e+04 2.288e-09
 14.52274     49.7 1.285e+04 2.048e-09
 14.55396     51.7 1.255e+04 1.786e-09
 14.59555     54.0 1.259e+04 1.516e-09
 14.61827     55.9 1.240e+04 1.173e-09
 14.62854     55.8 1.319e+04 1.744e-09
 14.64722     56.9 1.299e+04 1.483e-09
 14.66797     57.6 1.275e+04 1.269e-09
 14.67850     58.4 1.216e+04 1.085e-09
 14.68887     59.2 1.349e+04 1.818e-09
 14.70946     59.8 1.320e+04 1.585e-09
 14.72855     60.4 1.287e+04 1.427e-09
 14.73892     61.1 1.374e+04 2.223e-09
 14.75095     61.5 1.350e+04 2.014e-09
 14.77170     61.8 1.323e+04 1.920e-09
 14.78898     62.1 1.316e+04 1.945e-09
 14.79935     63.0 1.376e+04 2.546e-09
 14.81319     63.2 1.356e+04 2.524e-09
 14.83394     63.3 1.349e+04 2.580e-09
 14.84940     63.4 1.350e+04 2.745e-09
 14.85978     65.5 1.409e+04 2.891e-09
 14.87543     65.6 1.370e+04 2.670e-09
 14.89618     65.5 1.346e+04 2.524e-09
 14.90983     65.3 1.335e+04 2.434e-09
 14.92020     66.3 1.330e+04 1.781e-09
 14.93767     66.0 1.316e+04 1.733e-09
 14.95842     65.7 1.314e+04 1.786e-09
 14.97026     65.3 1.316e+04 1.941e-09
 14.98063     66.0 1.308e+04 1.343e-09
 14.99991     65.6 1.314e+04 1.529e-09
 15.02031     65.4 1.316e+04 1.849e-09
 15.03068     65.9 1.324e+04 1.332e-09
 15.04141     65.7 1.348e+04 1.666e-09
 15.06215     65.4 1.375e+04 2.202e-09
 15.08074     65.5 1.400e+04 3.010e-09
 15.09111     63.9 1.522e+04 3.281e-09
 15.09841     63.4 1.566e+04 4.317e-09
 15.10874     63.4 1.592e+04 4.793e-09
 15.12434     62.2 1.674e+04 6.588e-09
 15.14116     61.4 1.758e+04 9.074e-09
 15.15154     60.4 1.806e+04 1.227e-08
 15.16589     60.4 1.814e+04 1.427e-08
 15.18663     59.9 1.815e+04 1.444e-08
 15.20159     59.2 1.792e+04 1.378e-08
 15.21197     58.7 1.748e+04 1.183e-08
 15.22420     58.1 1.673e+04 9.999e-09
 15.23457     60.0 1.693e+04 8.291e-09
 15.24887     58.8 1.612e+04 6.741e-09
 15.26202     57.7 1.559e+04 6.124e-09
 15.27239     56.5 1.481e+04 3.485e-09
 15.29037     55.9 1.475e+04 3.576e-09
 15.31111     55.6 1.472e+04 3.993e-09
 15.32245     55.6 1.492e+04 4.662e-09
 15.33282     54.6 1.390e+04 2.539e-09
 15.35261     55.1 1.405e+04 2.991e-09
 15.37250     55.5 1.377e+04 3.186e-09
 15.38287     54.8 1.285e+04 1.896e-09
 15.39410     55.2 1.267e+04 2.011e-09
 15.41485     55.5 1.251e+04 1.975e-09
 15.43293     55.6 1.224e+04 1.893e-09
 15.44330     55.7 1.171e+04 1.387e-09
 15.45634     55.8 1.175e+04 1.414e-09
 15.47709     55.7 1.184e+04 1.460e-09
 15.49335     55.5 1.207e+04 1.553e-09
 15.50373     56.0 1.227e+04 1.414e-09
 15.51858     56.2 1.223e+04 1.498e-09
 15.53933     56.5 1.245e+04 1.665e-09
 15.55378     57.1 1.271e+04 1.806e-09
 15.56415     57.5 1.326e+04 2.063e-09
 15.58082     58.5 1.324e+04 2.049e-09
 15.59890     59.4 1.328e+04 2.040e-09
 15.60927     59.8 1.300e+04 1.913e-09
 15.61421     60.7 1.300e+04 1.838e-09
 15.62458     60.3 1.530e+04 3.060e-09
 15.64306     61.3 1.539e+04 2.893e-09
 15.66381     62.1 1.546e+04 2.605e-09
 15.67463     62.8 1.524e+04 2.232e-09
 15.67977     60.8 1.852e+04 5.587e-09
 15.68964     60.8 1.921e+04 5.628e-09
 15.69956     60.6 2.032e+04 5.652e-09
 15.70475     61.3 1.853e+04 8.981e-09
 15.71039     60.8 1.947e+04 9.284e-09
 15.72076     60.4 2.021e+04 9.457e-09
 15.72977     60.3 2.149e+04 9.050e-09
 15.73496     60.7 1.954e+04 1.604e-08
 15.74151     60.2 2.082e+04 1.541e-08
 15.75188     59.7 2.125e+04 1.504e-08
 15.75999     59.1 2.174e+04 1.427e-08
 15.76517     60.0 1.945e+04 2.288e-08
 15.77263     59.7 1.993e+04 2.130e-08
 15.78506     59.0 2.053e+04 1.315e-08
 15.79549     60.0 1.931e+04 2.682e-08
 15.80903     60.1 1.922e+04 1.881e-08
 15.82978     60.0 1.841e+04 1.117e-08
 15.84554     59.2 1.716e+04 6.022e-09
 15.85591     59.5 1.709e+04 6.594e-09
 15.87127     57.9 1.590e+04 3.694e-09
 15.89202     55.9 1.402e+04 2.245e-09
 15.90597     54.8 1.255e+04 1.813e-09
 15.91634     55.1 1.284e+04 1.500e-09
 15.93351     55.0 1.201e+04 1.262e-09
 15.95426     55.5 1.153e+04 1.091e-09
 15.96639     55.9 1.131e+04 1.023e-09
 15.97536     55.8 1.086e+04 7.558e-10
 15.98407     56.5 1.109e+04 8.753e-10
 16.00627     57.0 1.048e+04 7.471e-10
 16.04776     56.6 8.859e+03 2.507e-10
 16.08931     56.9 8.682e+03 1.878e-10
 16.12712     57.7 8.156e+03 1.490e-10
 16.14787     54.2 1.874e+04 1.372e-10
 16.17229     57.3 9.268e+03 1.092e-10
 16.21379     59.3 7.255e+03 8.743e-11
 16.24798     61.7 7.134e+03 7.800e-11
 16.26872     58.9 9.129e+03 9.439e-11
 16.29677     62.4 7.618e+03 8.807e-11
 16.33827     65.5 7.245e+03 8.772e-11
 16.36883     68.3 7.215e+03 8.992e-11
 16.38958     65.1 1.287e+04 2.331e-10
 16.42125     67.7 1.309e+04 2.112e-10
 16.46275     70.4 1.358e+04 2.045e-10
 16.48968     73.5 1.331e+04 1.999e-10
 16.49996     67.0 1.891e+04 9.405e-10
 16.51442     68.6 1.949e+04 8.473e-10
 16.53517     70.3 1.993e+04 7.230e-10
 16.54991     72.3 1.991e+04 5.963e-10
 16.56029     70.3 1.713e+04 2.679e-09
 16.57666     71.7 1.741e+04 1.968e-09
 16.59741     72.9 1.758e+04 1.531e-09
 16.61034     74.1 1.759e+04 1.246e-09
 16.62071     72.3 1.557e+04 4.398e-09
 16.63890     72.9 1.578e+04 4.344e-09
 16.65965     73.6 1.620e+04 4.384e-09
 16.67077     74.4 1.670e+04 4.631e-09
 16.68114     73.7 1.590e+04 1.171e-08
 16.70114     74.5 1.623e+04 1.288e-08
 16.72082     75.4 1.650e+04 1.329e-08
 16.73119     76.3 1.769e+04 2.010e-08
 16.73338     77.0 1.780e+04 1.970e-08
 16.74376     77.8 1.764e+04 1.729e-08
 16.76338     78.2 1.762e+04 1.671e-08
 16.78125     79.1 1.731e+04 1.418e-08
 16.79162     79.1 1.755e+04 1.365e-08
 16.80487     80.3 1.680e+04 1.008e-08
 16.82562     81.4 1.594e+04 6.984e-09
 16.84167     82.3 1.510e+04 4.734e-09
 16.85205     81.2 1.449e+04 2.076e-09
 16.86711     81.4 1.352e+04 1.438e-09
 16.88786     81.6 1.249e+04 1.040e-09
 16.90210     82.1 1.165e+04 7.945e-10
 16.91247     80.5 1.033e+04 3.851e-10
 16.92935     81.5 1.017e+04 3.434e-10
 16.95010     83.1 1.005e+04 3.057e-10
 16.96253     84.3 9.984e+03 2.829e-10
 16.97300     82.8 9.431e+03 1.812e-10
 17.00216     85.4 9.184e+03 1.688e-10
 17.04365     88.2 9.045e+03 1.619e-10
 17.07320     90.9 8.951e+03 1.571e-10
 17.09395     89.6 8.714e+03 1.271e-10
 17.12664     92.3 8.703e+03 1.318e-10
 17.16813     94.8 8.696e+03 1.360e-10
 17.19406     97.1 8.684e+03 1.417e-10
 17.21480     95.9 9.007e+03 1.886e-10
 17.25112     97.9 9.144e+03 2.155e-10
 17.29261     99.9 9.342e+03 2.596e-10
 17.31491    101.2 9.518e+03 3.072e-10
 17.32519     99.6 9.987e+03 4.737e-10
 17.34429    100.0 1.022e+04 5.662e-10
 17.36477    100.4 1.050e+04 6.805e-10
 17.37514    100.1 1.105e+04 9.441e-10
 17.38578    100.0 1.145e+04 1.083e-09
 17.40653     99.6 1.197e+04 1.253e-09
 17.42519     98.4 1.259e+04 1.495e-09
 17.43557     97.8 1.316e+04 2.064e-09
 17.44802     96.0 1.369e+04 2.499e-09
 17.46877     93.6 1.387e+04 2.662e-09
 17.48279     90.6 1.383e+04 2.614e-09
 17.48927     90.2 1.346e+04 2.448e-09
 17.49599     89.9 1.402e+04 2.960e-09
 17.51026     86.7 1.372e+04 2.461e-09
 17.53101     82.9 1.310e+04 1.722e-09
 17.54605     78.5 1.228e+04 1.078e-09
 17.55642     77.0 1.259e+04 1.053e-09
 17.57250     71.2 1.161e+04 6.859e-10
 17.59325     66.8 1.080e+04 5.849e-10
 17.60647     64.1 1.073e+04 5.872e-10
 17.61685     62.7 1.085e+04 5.976e-10
 17.63474     61.1 1.078e+04 5.999e-10
 17.65663     59.9 1.097e+04 6.835e-10
 17.67747     56.2 1.105e+04 6.794e-10
 17.70755     52.5 1.175e+04 9.597e-10
 17.73857     49.4 1.236e+04 1.317e-09
 17.75922     47.3 1.274e+04 1.616e-09
 17.77738     46.3 1.309e+04 1.804e-09
 17.78776     41.4 1.539e+04 2.603e-09
 17.80071     38.1 1.673e+04 3.823e-09
 17.82146     35.6 1.712e+04 5.167e-09
 17.83781     34.2 1.694e+04 6.154e-09
 17.84818     31.6 1.744e+04 9.628e-09
 17.85749     31.6 1.673e+04 8.541e-09
 17.86786     33.3 1.637e+04 6.428e-09
 17.88370     33.0 1.567e+04 4.967e-09
 17.89824     32.7 1.506e+04 3.839e-09
 17.90861     30.7 1.492e+04 3.145e-09
 17.92519     29.5 1.404e+04 2.025e-09
 17.94594     28.1 1.312e+04 1.393e-09
 17.95866     27.1 1.246e+04 1.139e-09
 17.96904     24.6 1.208e+04 9.749e-10
 17.99790     26.8 1.192e+04 9.398e-10
 18.01928     27.2 1.133e+04 7.470e-10
 18.04003     23.5 1.119e+04 7.049e-10
 18.08099     24.5 1.084e+04 5.863e-10
 18.11939     25.7 1.052e+04 4.848e-10
 18.14014     22.6 1.065e+04 5.325e-10
 18.16397     23.6 1.058e+04 4.748e-10
 18.20547     24.5 1.057e+04 4.540e-10
 18.23239     25.5 1.054e+04 4.526e-10
 18.24642     27.4 1.071e+04 4.998e-10
 18.26099     23.9 1.082e+04 5.188e-10
 18.27798     25.2 1.077e+04 5.113e-10
 18.29863     25.5 1.073e+04 5.044e-10
 18.31085     25.7 1.049e+04 4.713e-10
 18.32122     24.1 1.013e+04 3.780e-10
 18.34013     24.2 1.003e+04 3.604e-10
 18.36100     26.7 1.010e+04 3.771e-10
 18.38184     24.5 9.514e+03 2.631e-10
 18.41293     26.4 9.243e+03 2.256e-10
 18.45443     28.5 9.014e+03 1.925e-10
 18.48195     30.6 8.835e+03 1.648e-10
 18.50270     28.2 8.738e+03 1.277e-10
 18.53741     30.6 8.680e+03 1.184e-10
 18.57891     33.1 8.667e+03 1.153e-10
 18.60280     35.6 8.664e+03 1.163e-10
 18.62355     33.7 8.671e+03 1.155e-10
 18.66189     36.3 8.589e+03 1.255e-10
 18.70291     39.0 8.630e+03 1.569e-10
 18.72366     37.3 8.862e+03 1.985e-10
 18.74488     40.6 9.269e+03 2.644e-10
 18.78637     44.3 9.840e+03 3.565e-10
 18.81740     45.6 1.007e+04 4.125e-10
 18.83394     46.5 1.019e+04 4.605e-10
 18.84432     45.6 1.022e+04 4.770e-10
 18.85879     46.8 1.026e+04 5.115e-10
 18.87954     48.1 1.025e+04 5.214e-10
 18.89437     49.3 1.026e+04 5.140e-10
 18.90474     48.1 1.030e+04 4.970e-10
 18.92103     48.9 1.030e+04 4.845e-10
 18.94178     49.6 1.031e+04 4.775e-10
 18.95480     50.1 1.032e+04 4.790e-10
 18.96517     48.2 1.063e+04 4.973e-10
 18.98160     48.8 1.070e+04 5.239e-10
 18.99197     48.0 1.129e+04 7.173e-10
 19.00402     48.8 1.121e+04 7.686e-10
 19.01522     49.7 1.114e+04 8.099e-10
 19.02560     49.0 1.136e+04 9.067e-10
 19.04551     50.1 1.119e+04 8.562e-10
 19.06528     51.2 1.104e+04 8.021e-10
 19.07565     50.6 1.109e+04 7.576e-10
 19.08701     51.6 1.089e+04 6.849e-10
 19.10775     52.7 1.069e+04 6.464e-10
 19.12570     54.0 1.055e+04 6.415e-10
 19.13608     53.6 1.060e+04 6.331e-10
 19.14925     55.5 1.061e+04 6.386e-10
 19.16999     57.3 1.069e+04 6.614e-10
 19.18613     58.9 1.092e+04 7.066e-10
 19.19650     58.2 1.197e+04 7.782e-10
 19.21149     59.3 1.253e+04 9.031e-10
 19.23223     60.2 1.312e+04 1.105e-09
 19.24656     61.0 1.362e+04 1.413e-09
 19.25693     59.8 1.437e+04 1.896e-09
 19.27373     60.7 1.464e+04 2.477e-09
 19.29447     61.7 1.491e+04 3.238e-09
 19.30698     62.6 1.524e+04 4.164e-09
 19.31736     61.3 1.652e+04 6.009e-09
 19.33597     62.4 1.707e+04 7.206e-09
 19.35630     63.5 1.765e+04 8.290e-09
 19.36668     64.1 1.716e+04 7.795e-09
 19.36741     65.0 1.735e+04 7.576e-09
 19.37778     62.7 1.830e+04 8.003e-09
 19.39821     62.6 1.850e+04 7.266e-09
 19.41746     61.9 1.858e+04 7.117e-09
 19.42784     57.9 1.870e+04 7.146e-09
 19.43970     56.9 1.871e+04 7.199e-09
 19.46045     55.6 1.893e+04 7.601e-09
 19.47789     55.0 1.906e+04 8.310e-09
 19.48826     51.7 1.823e+04 7.151e-09
 19.50194     51.8 1.796e+04 7.108e-09
 19.52269     52.3 1.766e+04 6.861e-09
 19.53832     52.6 1.742e+04 6.358e-09
 19.54864     49.8 1.665e+04 4.781e-09
 19.56413     49.3 1.636e+04 4.172e-09
 19.58493     49.6 1.631e+04 3.855e-09
 19.59874     49.7 1.628e+04 3.429e-09
 19.60912     46.5 1.546e+04 2.740e-09
 19.62642     45.9 1.514e+04 2.412e-09
 19.64717     45.5 1.486e+04 2.173e-09
 19.65917     45.2 1.467e+04 2.015e-09
 19.66954     44.0 1.430e+04 1.989e-09
 19.68866     44.1 1.406e+04 1.919e-09
 19.70922     44.4 1.368e+04 1.829e-09
 19.71960     43.8 1.317e+04 1.817e-09
 19.73015     44.2 1.279e+04 1.671e-09
 19.74138     44.9 1.241e+04 1.468e-09
 19.75175     45.2 1.232e+04 1.161e-09
 19.76965     45.8 1.200e+04 1.081e-09
 19.78002     45.4 1.174e+04 1.015e-09
 19.79239     46.0 1.147e+04 8.819e-10
 19.81314     46.6 1.126e+04 7.391e-10
 19.83008     47.0 1.115e+04 6.002e-10
 19.84045     46.3 1.101e+04 5.063e-10
 19.85463     46.5 1.088e+04 4.024e-10
 19.87538     46.5 1.075e+04 3.437e-10
 19.89050     46.9 1.061e+04 3.143e-10
 19.91135     46.9 1.047e+04 2.967e-10
 19.94819     48.4 1.022e+04 2.790e-10
 19.98968     49.9 1.018e+04 2.805e-10
 20.01155     51.5 1.014e+04 2.882e-10
 20.03230     52.3 9.859e+03 2.513e-10
 20.07267     53.8 9.850e+03 2.635e-10
 20.11166     55.3 9.844e+03 2.687e-10
 20.13241     56.5 9.613e+03 2.315e-10
 20.15565     58.2 9.596e+03 2.293e-10
 20.19715     59.9 9.576e+03 2.259e-10
 20.23251     61.5 9.593e+03 2.286e-10
 20.25326     62.9 9.443e+03 2.071e-10
 20.28013     64.5 9.496e+03 2.168e-10
 20.32163     66.0 9.600e+03 2.345e-10
 20.35337     67.4 9.730e+03 2.579e-10
 20.37411     69.3 9.474e+03 2.066e-10
 20.40461     70.9 9.580e+03 2.178e-10
 20.44611     72.5 9.723e+03 2.339e-10
 20.47422     74.7 9.905e+03 2.541e-10
 20.48798     76.8 9.627e+03 1.969e-10
 20.50136     76.8 9.332e+03 1.650e-10
 20.52909     79.0 9.623e+03 1.898e-10
 20.57059     81.4 9.769e+03 2.174e-10
 20.59498     83.6 9.849e+03 2.428e-10
 20.61572     85.6 9.869e+03 2.362e-10
 20.64310     86.5 9.992e+03 3.010e-10
 20.65531     87.6 1.030e+04 4.179e-10
 20.66568     88.7 1.008e+04 3.340e-10
 20.68450     89.8 1.041e+04 4.664e-10
 20.70525     90.9 1.084e+04 6.674e-10
 20.71573     92.2 1.128e+04 9.268e-10
 20.72611     93.2 1.096e+04 7.374e-10
 20.74674     94.5 1.141e+04 1.003e-09
 20.76579     95.7 1.188e+04 1.319e-09
 20.77616     96.7 1.157e+04 1.086e-09
 20.78823     97.8 1.204e+04 1.395e-09
 20.80898     98.9 1.253e+04 1.748e-09
 20.82621     99.7 1.314e+04 2.171e-09
 20.83659    100.8 1.275e+04 1.843e-09
 20.85047    101.7 1.326e+04 2.238e-09
 20.86549    102.4 1.376e+04 2.610e-09
 20.87586    101.6 1.436e+04 3.028e-09
 20.88664    102.2 1.480e+04 3.473e-09
 20.89701    103.9 1.425e+04 3.001e-09
 20.91271    104.4 1.464e+04 3.294e-09
 20.93346    105.0 1.470e+04 3.286e-09
 20.94702    105.7 1.458e+04 3.119e-09
 20.95739    107.1 1.435e+04 2.928e-09
 20.97495    107.7 1.427e+04 2.722e-09
 20.99570    108.4 1.400e+04 2.335e-09
 21.00744    109.4 1.361e+04 1.968e-09
 21.01782    110.6 1.347e+04 1.901e-09
 21.03719    111.5 1.307e+04 1.600e-09
 21.05270    112.8 1.265e+04 1.373e-09
 21.05793    113.2 1.259e+04 1.308e-09
 21.06273    113.2 1.293e+04 1.395e-09
 21.06787    113.9 1.252e+04 1.347e-09
 21.07345    114.5 1.253e+04 1.263e-09
 21.08377    115.1 1.293e+04 1.264e-09
 21.09285    115.2 1.507e+04 1.356e-09
 21.09804    116.6 1.245e+04 1.166e-09
 21.10452    116.9 1.389e+04 1.201e-09
 21.11489    116.3 1.950e+04 1.477e-09
 21.12306    114.7 2.920e+04 3.038e-09
 21.12825    118.4 1.697e+04 1.232e-09
 21.13564    117.1 2.646e+04 1.988e-09
 21.14601    115.4 3.291e+04 5.889e-09
 21.15328    114.4 3.182e+04 1.991e-08
 21.15846    117.8 3.175e+04 3.653e-09
 21.16676    116.1 3.263e+04 1.332e-08
 21.17713    115.3 2.929e+04 4.296e-08
 21.18349    116.9 2.607e+04 1.072e-07
 21.18868    118.3 3.106e+04 2.484e-08
 21.19788    118.8 2.778e+04 6.939e-08
 21.20825    119.7 2.516e+04 1.410e-07
 21.21370    120.5 2.268e+04 2.160e-07
 21.21889    121.2 2.702e+04 8.730e-08
 21.22900    122.2 2.446e+04 1.484e-07
 21.23873    122.7 2.235e+04 1.995e-07
 21.24392    124.3 2.663e+04 8.538e-08
 21.24528    125.3 2.419e+04 1.375e-07
 21.25047    125.1 2.143e+04 1.957e-07
 21.26012    126.3 2.127e+04 1.967e-07
 21.26894    127.4 2.101e+04 1.967e-07
 21.27413    128.6 2.144e+04 2.013e-07
 21.28087    129.4 2.134e+04 2.009e-07
 21.29124    130.2 2.095e+04 1.956e-07
 21.29916    131.1 2.055e+04 1.761e-07
 21.30434    133.0 2.115e+04 1.917e-07
 21.31199    134.3 2.072e+04 1.795e-07
 21.32236    135.4 2.048e+04 1.559e-07
 21.32937    136.1 2.068e+04 1.227e-07
 21.33456    139.4 2.069e+04 1.654e-07
 21.34311    140.3 2.098e+04 1.378e-07
 21.35348    140.0 2.230e+04 1.008e-07
 21.35958    137.6 2.613e+04 5.506e-08
 21.36477    142.3 2.223e+04 1.264e-07
 21.37423    139.5 2.442e+04 7.146e-08
 21.38460    134.2 3.296e+04 2.278e-08
 21.39497    124.1 6.100e+04 8.145e-09
 21.40535    105.4 6.999e+04 5.559e-09
 21.41482     93.9 5.406e+04 1.221e-08
 21.42001     87.2 2.687e+04 3.578e-07
 21.42609     87.9 3.047e+04 1.439e-07
 21.43263     90.1 4.261e+04 2.798e-08
 21.43782     91.7 7.691e+04 1.123e-09
 21.44504     91.4 7.845e+04 6.071e-10
 21.45022     89.2 8.163e+04 6.733e-10
 21.45721     88.5 6.469e+04 6.010e-10
 21.46759     84.7 5.262e+04 6.721e-10
 21.47525     84.3 4.177e+04 6.685e-10
 21.48044     84.9 2.378e+04 2.012e-09
 21.48833     84.9 1.802e+04 2.775e-09
 21.49871     85.4 1.427e+04 3.563e-09
 21.50546     86.3 1.345e+04 3.514e-09
 21.51065     85.5 1.674e+04 5.336e-09
 21.51945     86.8 1.563e+04 5.481e-09
 21.53054     90.8 1.657e+04 6.026e-09
 21.54091     89.5 1.572e+04 8.366e-09
 21.55581     91.5 1.938e+04 8.069e-09
 21.57660     94.1 1.737e+04 6.376e-09
 21.59101     96.0 1.602e+04 5.143e-09
 21.60139     94.1 1.722e+04 5.669e-09
 21.61490     95.8 1.576e+04 4.523e-09
 21.62527     96.7 1.560e+04 4.237e-09
 21.63884     98.2 1.494e+04 3.381e-09
 21.65144     99.8 1.407e+04 2.719e-09
 21.66181     98.2 1.452e+04 2.810e-09
 21.68034     99.8 1.376e+04 2.346e-09
 21.70108    101.4 1.308e+04 1.999e-09
 21.71187    103.1 1.252e+04 1.749e-09
 21.72224    102.5 1.335e+04 1.958e-09
 21.74258    104.1 1.278e+04 1.734e-09
 21.76192    105.7 1.226e+04 1.557e-09
 21.77229    105.7 1.337e+04 1.839e-09
 21.78407    107.3 1.276e+04 1.590e-09
 21.80482    108.8 1.216e+04 1.398e-09
 21.82235    110.3 1.167e+04 1.287e-09
 21.83272    110.2 1.252e+04 1.371e-09
 21.84631    111.5 1.182e+04 1.186e-09
 21.86706    112.7 1.135e+04 1.073e-09
 21.88277    114.0 1.113e+04 9.801e-10
 21.89315    113.8 1.147e+04 1.001e-09
 21.90855    115.0 1.100e+04 8.914e-10
 21.92930    116.1 1.074e+04 8.147e-10
 21.94320    117.4 1.056e+04 7.464e-10
 21.95357    117.2 1.072e+04 7.814e-10
 21.97079    118.4 1.042e+04 6.938e-10
 21.98960    119.6 1.027e+04 6.360e-10
 21.99997    119.8 1.042e+04 6.811e-10
 22.00363    120.9 1.034e+04 6.524e-10
 22.01400    120.9 1.053e+04 7.267e-10
 22.03303    122.0 1.043e+04 6.847e-10
 22.05368    123.0 1.037e+04 6.588e-10
 22.07443    124.0 1.085e+04 8.163e-10
 22.09527    124.9 1.076e+04 7.622e-10
 22.11411    125.7 1.065e+04 7.071e-10
 22.12448    125.9 1.112e+04 8.915e-10
 22.13676    126.6 1.093e+04 7.844e-10
 22.15751    127.3 1.071e+04 6.854e-10
 22.17453    127.9 1.051e+04 6.051e-10
 22.18491    128.0 1.068e+04 6.574e-10
 22.19900    128.6 1.046e+04 5.764e-10
 22.21975    129.2 1.031e+04 5.329e-10
 22.23496    129.8 1.026e+04 5.223e-10
 22.24533    130.1 1.021e+04 5.138e-10
 22.26124    130.9 1.018e+04 5.044e-10
 22.28199    131.8 1.018e+04 4.978e-10
 22.29539    132.6 1.020e+04 4.792e-10
 22.30576    132.7 1.011e+04 4.243e-10
 22.32348    133.1 1.013e+04 4.061e-10
 22.34423    133.8 1.007e+04 3.798e-10
 22.35581    134.3 1.003e+04 3.641e-10
 22.36629    134.4 9.921e+03 3.295e-10
 22.39629    135.9 9.765e+03 2.996e-10
 22.43779    137.2 9.603e+03 2.767e-10
 22.46649    138.3 9.496e+03 2.747e-10
 22.48724    140.0 9.204e+03 2.269e-10
 22.52077    140.9 9.211e+03 2.286e-10
 22.56227    141.6 9.241e+03 2.357e-10
 22.58734    142.0 9.275e+03 2.462e-10
 22.60809    144.0 9.104e+03 2.188e-10
 22.64525    144.2 9.178e+03 2.307e-10
 22.68675    144.4 9.296e+03 2.490e-10
 22.70820    144.4 9.429e+03 2.748e-10
 22.72894    145.4 9.493e+03 2.747e-10
 22.74948    145.0 9.548e+03 2.899e-10
 22.77022    144.6 9.635e+03 3.050e-10
 22.80076    143.8 1.013e+04 4.224e-10
 22.81848    143.0 1.063e+04 6.037e-10
 22.82886    143.1 1.080e+04 6.990e-10
 22.84215    142.6 1.140e+04 1.022e-09
 22.86290    142.4 1.210e+04 1.498e-09
 22.87891    142.3 1.279e+04 2.117e-09
 22.88928    142.8 1.269e+04 2.041e-09
 22.90439    142.7 1.321e+04 2.481e-09
 22.92514    142.2 1.341e+04 2.529e-09
 22.93934    141.2 1.340e+04 2.448e-09
 22.94971    141.4 1.309e+04 2.149e-09
 22.97710    140.7 1.271e+04 1.685e-09
 23.01869    140.2 1.221e+04 1.190e-09
 23.05001    139.3 1.149e+04 6.896e-10
 23.07076    141.1 1.182e+04 9.651e-10
 23.10168    140.1 1.142e+04 6.900e-10
 23.14317    139.2 1.099e+04 5.161e-10
 23.17086    138.4 1.066e+04 4.116e-10
 23.18114    139.2 1.102e+04 5.401e-10
 23.19484    139.0 1.087e+04 4.870e-10
 23.21559    138.8 1.070e+04 4.355e-10
 23.23110    138.6 1.052e+04 3.866e-10
 23.24147    139.5 1.090e+04 4.916e-10
 23.25708    139.2 1.070e+04 4.207e-10
 23.27783    138.8 1.047e+04 3.680e-10
 23.29152    138.4 1.034e+04 3.593e-10
 23.30190    139.5 1.080e+04 4.301e-10
 23.31932    138.9 1.081e+04 4.381e-10
 23.34007    137.0 1.112e+04 5.189e-10
 23.35195    132.1 1.252e+04 1.063e-09
 23.36232    133.9 1.261e+04 1.071e-09
 23.38156    126.9 1.557e+04 3.332e-09
 23.40200    120.0 1.852e+04 9.332e-09
 23.41238    121.5 1.854e+04 8.745e-09
 23.42306    114.6 2.030e+04 1.511e-08
 23.44380    108.1 2.058e+04 1.575e-08
 23.46243    102.4 2.019e+04 1.404e-08
 23.47280    102.0 2.009e+04 1.350e-08
 23.48530     97.6 1.856e+04 9.208e-09
 23.49879     94.4 1.643e+04 5.224e-09
 23.50916     94.5 1.605e+04 4.491e-09
 23.52286     92.0 1.386e+04 2.503e-09
 23.53323     92.3 1.389e+04 2.625e-09
 23.54754     91.0 1.252e+04 1.631e-09
 23.56828     90.3 1.192e+04 1.127e-09
 23.58328     90.2 1.159e+04 8.561e-10
 23.59366     90.8 1.167e+04 9.307e-10
 23.60978     91.2 1.135e+04 7.482e-10
 23.63052     91.6 1.098e+04 5.978e-10
 23.64371     92.0 1.060e+04 4.807e-10
 23.65408     92.8 1.060e+04 4.976e-10
 23.67202     93.2 1.027e+04 3.995e-10
 23.69276     93.3 1.005e+04 3.538e-10
 23.72398     93.9 1.002e+04 3.472e-10
 23.75438     94.6 9.957e+03 3.584e-10
 23.77513     96.1 1.001e+04 3.532e-10
 23.80707     96.4 9.944e+03 3.789e-10
 23.83809     97.2 9.930e+03 4.096e-10
 23.85874     97.7 1.001e+04 4.594e-10
 23.87349     98.1 1.011e+04 5.304e-10
 23.87942     97.9 1.010e+04 5.382e-10
 23.88542     98.6 9.983e+03 4.607e-10
 23.90023     98.8 1.007e+04 5.170e-10
 23.92098     99.0 1.016e+04 5.599e-10
 23.93547     99.1 1.025e+04 5.894e-10
 23.94584     99.8 1.011e+04 5.326e-10
 23.96247     99.8 1.022e+04 5.714e-10
 23.98322     99.8 1.034e+04 6.049e-10
 23.99590     99.7 1.048e+04 6.412e-10
 24.00627    100.4 1.044e+04 6.375e-10
 24.02471    100.3 1.063e+04 6.991e-10
 24.04546    100.0 1.086e+04 7.847e-10
 24.05632     99.5 1.126e+04 9.176e-10
 24.06670    100.2 1.131e+04 1.004e-09
 24.08695     99.6 1.182e+04 1.254e-09
 24.10638     99.0 1.239e+04 1.601e-09
 24.11675     99.9 1.239e+04 1.675e-09
 24.12844     99.4 1.299e+04 2.144e-09
 24.14919     98.9 1.348e+04 2.593e-09
 24.16680     98.3 1.377e+04 2.773e-09
 24.17718     99.0 1.380e+04 2.845e-09
 24.19068     98.2 1.384e+04 2.846e-09
 24.21143     97.5 1.380e+04 2.748e-09
 24.22723     96.6 1.362e+04 2.465e-09
 24.23760     96.7 1.367e+04 2.526e-09
 24.24819     95.3 1.357e+04 2.347e-09
 24.25857     96.4 1.328e+04 2.001e-09
 24.27367     94.1 1.347e+04 2.038e-09
 24.28766     91.3 1.429e+04 2.262e-09
 24.29803     90.0 1.432e+04 2.361e-09
 24.30993     85.4 1.619e+04 3.177e-09
 24.31777     80.7 1.845e+04 5.151e-09
 24.32296     81.3 1.762e+04 4.535e-09
 24.33063     76.3 1.970e+04 8.501e-09
 24.34100     74.2 2.042e+04 1.273e-08
 24.34799     72.0 2.112e+04 1.742e-08
 24.35841     71.8 2.076e+04 1.426e-08
 24.37740     68.2 2.104e+04 1.317e-08
 24.39814     62.6 2.165e+04 7.009e-09
 24.41888     47.8 1.798e+04 2.512e-09
 24.43964     36.7 1.414e+04 2.036e-09
 24.45856     30.3 1.332e+04 2.041e-09
 24.46894     31.0 1.386e+04 2.485e-09
 24.48114     27.9 1.385e+04 2.442e-09
 24.50188     19.4 1.662e+04 3.095e-09
 24.51899      5.6 2.056e+04 6.792e-09
 24.52936      0.0 2.004e+04 8.938e-09
 24.54338     -4.4 1.766e+04 1.120e-08
 24.55434     -4.2 1.723e+04 1.075e-08
 24.55948     -4.5 1.706e+04 1.068e-08
 24.56921     -5.0 1.716e+04 9.834e-09
 24.57932     -6.1 1.755e+04 6.730e-09
 24.58451     -7.0 1.758e+04 5.595e-09
 24.58996     -7.9 1.750e+04 4.736e-09
 24.60557    -13.0 1.728e+04 2.175e-09
 24.62290    -23.7 1.326e+04 7.127e-10
 24.63327    -26.3 1.127e+04 5.039e-10
 24.63984    -29.1 9.894e+03 4.313e-10
 24.65022    -30.0 9.885e+03 4.274e-10
 24.66786    -30.4 9.833e+03 4.198e-10
 24.68860    -30.5 9.857e+03 4.276e-10
 24.70027    -30.7 9.993e+03 4.570e-10
 24.71064    -31.7 1.023e+04 5.147e-10
 24.73010    -32.0 1.045e+04 5.712e-10
 24.75032    -32.2 1.076e+04 6.838e-10
 24.76070    -33.4 1.103e+04 8.007e-10
 24.77159    -33.2 1.108e+04 8.644e-10
 24.79234    -33.0 1.124e+04 9.500e-10
 24.81075    -33.3 1.151e+04 1.099e-09
 24.82112    -34.4 1.158e+04 1.139e-09
 24.83383    -34.4 1.182e+04 1.298e-09
 24.85458    -34.4 1.206e+04 1.454e-09
 24.87118    -34.7 1.230e+04 1.572e-09
 24.88155    -37.8 1.346e+04 1.861e-09
 24.89607    -40.6 1.503e+04 2.492e-09
 24.91682    -45.3 1.728e+04 3.957e-09
 24.93160    -50.4 1.906e+04 6.990e-09
 24.94198    -54.2 1.958e+04 1.031e-08
 24.95831    -57.3 1.959e+04 1.372e-08
 24.97906    -59.1 1.940e+04 1.636e-08
 24.99203    -60.1 1.925e+04 1.735e-08
 25.00020    -62.6 1.811e+04 1.149e-08
 25.00797    -62.0 1.803e+04 1.240e-08
 25.02055    -62.7 1.676e+04 7.783e-09
 25.03606    -64.9 1.571e+04 4.532e-09
 25.04639    -65.1 1.547e+04 4.304e-09
 25.05241    -65.3 1.498e+04 3.682e-09
 25.06283    -68.6 1.414e+04 2.899e-09
 25.08279    -70.1 1.361e+04 2.653e-09
 25.10251    -70.7 1.351e+04 2.820e-09
 25.11288    -71.9 1.355e+04 2.946e-09
 25.12428    -71.2 1.380e+04 3.484e-09
 25.14503    -69.9 1.433e+04 4.218e-09
 25.16294    -68.7 1.508e+04 5.049e-09
 25.17331    -70.0 1.535e+04 5.136e-09
 25.18652    -69.1 1.588e+04 5.628e-09
 25.20727    -68.5 1.634e+04 5.854e-09
 25.22336    -68.7 1.674e+04 5.925e-09
 25.23374    -70.8 1.671e+04 5.812e-09
 25.24876    -71.5 1.673e+04 5.820e-09
 25.26951    -72.1 1.645e+04 5.832e-09
 25.28379    -72.6 1.609e+04 5.633e-09
 25.29416    -74.5 1.542e+04 4.791e-09
 25.31100    -75.0 1.506e+04 4.135e-09
 25.33175    -76.7 1.473e+04 3.368e-09
 25.34422    -79.7 1.394e+04 2.591e-09
 25.35459    -81.2 1.328e+04 2.179e-09
 25.37230    -83.6 1.244e+04 1.731e-09
 25.38268    -82.9 1.336e+04 2.410e-09
 25.39399    -85.9 1.238e+04 1.912e-09
 25.40465    -87.9 1.246e+04 1.607e-09
 25.41502    -87.1 1.198e+04 1.442e-09
 25.43548    -88.4 1.215e+04 1.196e-09
 25.45470    -90.3 1.198e+04 9.299e-10
 25.46507    -88.7 1.157e+04 8.934e-10
 25.47698    -90.4 1.136e+04 7.429e-10
 25.49772    -91.6 1.129e+04 7.143e-10
 25.51513    -92.0 1.138e+04 7.350e-10
 25.52550    -90.3 1.121e+04 6.836e-10
 25.53922    -90.5 1.128e+04 7.425e-10
 25.55996    -90.5 1.124e+04 8.071e-10
 25.57555    -90.1 1.114e+04 8.717e-10
 25.58593    -88.8 1.105e+04 7.992e-10
 25.60146    -88.2 1.100e+04 8.659e-10
 25.62220    -87.3 1.094e+04 8.873e-10
 25.63598    -86.4 1.088e+04 8.588e-10
 25.64635    -85.4 1.084e+04 8.248e-10
 25.66370    -84.5 1.075e+04 7.882e-10
 25.68444    -83.7 1.068e+04 7.642e-10
 25.69641    -82.8 1.058e+04 7.060e-10
 25.70678    -81.9 1.063e+04 7.273e-10
 25.72594    -81.1 1.058e+04 6.659e-10
 25.74646    -80.5 1.063e+04 5.750e-10
 25.75683    -79.5 1.082e+04 7.100e-10
 25.75738    -79.1 1.085e+04 6.693e-10
 25.76775    -80.2 1.028e+04 3.993e-10
 25.78818    -80.0 1.030e+04 3.719e-10
 25.80689    -79.9 1.034e+04 3.643e-10
 25.81726    -79.2 1.074e+04 4.612e-10
 25.84014    -80.2 1.073e+04 4.218e-10
 25.86751    -81.2 1.070e+04 4.919e-10
 25.88825    -81.0 1.198e+04 9.680e-10
 25.92323    -81.6 1.205e+04 1.107e-09
 25.96472    -81.5 1.160e+04 9.138e-10
 25.98836    -81.4 1.071e+04 5.255e-10
 26.00911    -81.5 1.176e+04 7.957e-10
 26.04771    -81.8 1.079e+04 4.574e-10
 26.08847    -81.4 1.023e+04 3.650e-10
 26.10921    -81.3 1.161e+04 6.254e-10
 26.13069    -80.5 1.109e+04 5.418e-10
 26.17219    -79.8 1.104e+04 6.212e-10
 26.20932    -79.0 1.132e+04 8.799e-10
 26.22997    -79.2 1.209e+04 1.255e-09
 26.24460    -78.5 1.235e+04 1.398e-09
 26.26535    -78.2 1.249e+04 1.447e-09
 26.27993    -77.7 1.258e+04 1.432e-09
 26.29030    -78.1 1.362e+04 2.114e-09
 26.30684    -78.1 1.357e+04 2.042e-09
 26.32759    -78.3 1.351e+04 1.939e-09
 26.34035    -78.5 1.350e+04 1.959e-09
 26.35073    -79.0 1.424e+04 3.183e-09
 26.36908    -79.1 1.416e+04 3.302e-09
 26.38983    -79.0 1.408e+04 3.347e-09
 26.40078    -78.8 1.387e+04 3.101e-09
 26.41115    -78.7 1.422e+04 3.752e-09
 26.43132    -78.4 1.392e+04 3.051e-09
 26.45093    -78.9 1.313e+04 1.838e-09
 26.46130    -78.4 1.361e+04 2.235e-09
 26.47282    -78.5 1.321e+04 1.698e-09
 26.49651    -79.4 1.230e+04 1.033e-09
 26.51735    -78.5 1.291e+04 1.476e-09
 26.54563    -78.1 1.183e+04 7.707e-10
 26.57188    -77.3 1.093e+04 3.380e-10
 26.59263    -77.5 1.082e+04 3.143e-10
 26.62861    -77.5 1.044e+04 1.842e-10
 26.67011    -77.0 1.026e+04 1.635e-10
 26.69274    -76.0 1.033e+04 1.837e-10
 26.71348    -76.2 1.023e+04 1.828e-10
 26.75309    -75.3 1.035e+04 2.588e-10
 26.79284    -73.9 1.055e+04 3.421e-10
 26.81359    -73.8 1.039e+04 2.865e-10
 26.83608    -72.4 1.059e+04 3.139e-10
 26.87757    -71.4 1.068e+04 3.229e-10
 26.91370    -70.4 1.064e+04 3.105e-10
 26.93444    -70.3 1.043e+04 2.493e-10
 26.96056    -69.2 1.036e+04 2.208e-10
 27.00205    -68.3 1.034e+04 1.905e-10
 27.03455    -67.7 1.031e+04 1.777e-10
 27.05530    -67.7 1.031e+04 1.767e-10
 27.08504    -67.1 1.029e+04 1.774e-10
 27.12653    -66.4 1.027e+04 2.120e-10
 27.15540    -65.3 1.032e+04 2.646e-10
 27.17615    -65.7 1.059e+04 2.907e-10
 27.20952    -64.8 1.081e+04 3.520e-10
 27.24601    -64.4 1.106e+04 4.083e-10
 27.26676    -65.0 1.111e+04 3.647e-10
 27.27626    -65.4 1.132e+04 4.905e-10
 27.29700    -66.2 1.157e+04 6.157e-10
 27.33400    -66.4 1.172e+04 6.817e-10
 27.36502    -67.0 1.181e+04 6.682e-10
 27.38567    -67.1 1.179e+04 6.635e-10
 27.39691    -67.3 1.179e+04 6.213e-10
 27.40729    -67.8 1.178e+04 6.063e-10
 27.42716    -68.5 1.178e+04 5.790e-10
 27.44697    -69.3 1.173e+04 5.505e-10
 27.45734    -69.3 1.166e+04 5.474e-10
 27.46866    -69.8 1.156e+04 5.091e-10
 27.48940    -70.3 1.152e+04 4.561e-10
 27.50739    -71.0 1.159e+04 4.081e-10
 27.51777    -70.4 1.146e+04 3.611e-10
 27.53090    -71.3 1.140e+04 3.142e-10
 27.55164    -71.7 1.136e+04 3.102e-10
 27.58286    -72.2 1.119e+04 3.074e-10
 27.61807    -71.9 1.100e+04 3.335e-10
 27.63882    -70.8 1.092e+04 2.863e-10
 27.66595    -70.0 1.078e+04 3.032e-10
 27.70744    -69.2 1.081e+04 2.880e-10
 27.73892    -68.4 1.079e+04 2.609e-10
 27.75967    -67.3 1.110e+04 3.902e-10
 27.79043    -66.3 1.101e+04 3.631e-10
 27.83192    -64.9 1.082e+04 2.933e-10
 27.85978    -63.3 1.071e+04 2.019e-10
 27.88052    -62.8 1.093e+04 3.166e-10
 27.91491    -62.1 1.100e+04 2.089e-10
 27.95640    -62.1 1.099e+04 1.712e-10
 27.98063    -63.5 1.116e+04 2.473e-10
 27.99890    -64.0 1.153e+04 3.481e-10
 28.01617    -65.1 1.185e+04 3.119e-10
 28.02891    -68.0 1.224e+04 6.701e-10
 28.04086    -69.3 1.295e+04 8.503e-10
 28.05124    -69.7 1.290e+04 8.627e-10
 28.07031    -71.1 1.412e+04 1.362e-09
 28.09092    -73.5 1.463e+04 1.895e-09
 28.10129    -73.1 1.425e+04 1.708e-09
 28.11180    -75.4 1.407e+04 1.856e-09
 28.13255    -77.4 1.373e+04 1.838e-09
 28.15134    -79.0 1.357e+04 1.826e-09
 28.16172    -78.7 1.348e+04 1.564e-09
 28.17404    -80.3 1.366e+04 1.580e-09
 28.19479    -81.7 1.363e+04 1.629e-09
 28.21177    -82.6 1.344e+04 1.694e-09
 28.22214    -82.6 1.320e+04 1.723e-09
 28.23628    -82.8 1.310e+04 1.812e-09
 28.25703    -82.3 1.289e+04 1.817e-09
 28.27220    -81.7 1.261e+04 1.523e-09
 28.28257    -81.5 1.255e+04 1.592e-09
 28.29852    -81.2 1.216e+04 1.195e-09
 28.32235    -81.5 1.161e+04 7.825e-10
 28.34309    -80.9 1.134e+04 7.167e-10
 28.37123    -80.8 1.098e+04 5.797e-10
 28.41283    -80.0 1.057e+04 4.478e-10
 28.44330    -78.6 1.022e+04 3.811e-10
 28.46404    -78.5 9.983e+03 3.348e-10
 28.49581    -77.0 9.764e+03 2.832e-10
 28.53731    -75.3 9.678e+03 2.596e-10
 28.56415    -73.6 9.649e+03 2.558e-10
 28.58490    -73.3 9.359e+03 2.046e-10
 28.62029    -71.7 9.385e+03 2.183e-10
 28.66179    -70.3 9.517e+03 2.591e-10
 28.68500    -68.8 9.721e+03 3.097e-10
 28.70575    -68.6 9.587e+03 3.017e-10
 28.74477    -66.9 9.805e+03 3.492e-10
 28.78511    -65.0 9.987e+03 3.847e-10
 28.80586    -64.7 9.910e+03 3.837e-10
 28.82776    -63.0 9.657e+03 2.919e-10
 28.86925    -61.7 9.414e+03 2.100e-10
 28.90596    -61.0 9.216e+03 1.745e-10
 28.92671    -60.7 9.104e+03 1.599e-10
 28.95224    -59.4 9.116e+03 1.597e-10
 28.99373    -58.8 9.180e+03 2.065e-10
 29.02682    -57.5 9.482e+03 3.071e-10
 29.04757    -56.7 9.121e+03 2.318e-10
 29.07672    -55.4 9.413e+03 2.870e-10
 29.11821    -54.1 9.624e+03 3.275e-10
 29.14767    -53.4 9.897e+03 3.648e-10
 29.16842    -52.4 9.236e+03 2.463e-10
 29.20120    -51.6 9.503e+03 2.509e-10
 29.24269    -52.6 1.070e+04 3.437e-10
 29.26853    -54.0 1.172e+04 6.694e-10
 29.28927    -52.0 1.059e+04 3.407e-10
 29.32568    -52.9 1.144e+04 7.260e-10
 29.36717    -53.7 1.221e+04 1.200e-09
 29.38938    -54.3 1.242e+04 1.625e-09
 29.41013    -53.5 1.234e+04 1.567e-09
 29.45016    -53.4 1.230e+04 1.702e-09
 29.48949    -52.9 1.156e+04 1.104e-09
 29.51023    -52.5 1.144e+04 1.044e-09
 29.51498    -52.3 1.032e+04 4.299e-10
 29.53573    -52.9 1.014e+04 4.062e-10
 29.57464    -52.7 9.386e+03 2.247e-10
 29.61034    -51.5 9.019e+03 1.698e-10
 29.63109    -51.2 8.963e+03 1.421e-10
 29.65763    -50.0 8.925e+03 1.358e-10
 29.69912    -48.9 8.899e+03 1.646e-10
 29.73119    -47.5 8.927e+03 2.015e-10
 29.75194    -47.3 9.021e+03 2.303e-10
 29.78211    -45.7 9.008e+03 2.568e-10
 29.82360    -43.9 8.795e+03 2.238e-10
 29.85205    -42.5 8.663e+03 1.572e-10
 29.87279    -41.8 8.629e+03 1.495e-10
 29.90659    -41.4 8.482e+03 9.780e-11
 29.94808    -40.6 8.331e+03 9.528e-11
 29.97290    -39.9 8.353e+03 1.173e-10
 29.99365    -39.2 8.252e+03 9.450e-11
 30.03107    -37.8 8.265e+03 1.283e-10
 30.07256    -35.9 8.398e+03 1.611e-10
 30.09375    -34.2 8.520e+03 1.783e-10
 30.11450    -33.2 8.478e+03 1.650e-10
 30.15555    -31.7 8.573e+03 1.762e-10
 30.19386    -30.4 8.663e+03 1.823e-10
 30.21461    -29.5 8.760e+03 1.875e-10
 30.23853    -29.0 9.085e+03 2.201e-10
 30.26439    -31.3 1.025e+04 4.209e-10
 30.28513    -28.5 9.805e+03 3.389e-10
 30.31471    -30.1 1.120e+04 9.739e-10
 30.33546    -29.6 1.160e+04 1.260e-09
 30.36301    -30.0 1.238e+04 1.989e-09
 30.40451    -29.2 1.217e+04 1.624e-09
 30.43557    -30.6 1.197e+04 7.170e-10
 30.45631    -31.1 1.236e+04 6.357e-10
 30.48749    -35.6 1.032e+04 3.343e-10
 30.52899    -35.8 9.209e+03 2.340e-10
 30.55642    -34.8 9.070e+03 1.631e-10
 30.57717    -35.0 9.256e+03 1.885e-10
 30.61197    -34.4 9.139e+03 1.565e-10
 30.65347    -33.3 8.958e+03 1.395e-10
 30.67727    -31.9 8.832e+03 1.268e-10
 30.69802    -31.3 8.849e+03 1.308e-10
 30.73645    -29.9 8.768e+03 1.087e-10
 30.77738    -28.5 8.794e+03 1.044e-10
 30.79813    -28.6 8.890e+03 9.848e-11
 30.81944    -28.7 9.026e+03 1.147e-10
 30.86093    -28.9 9.216e+03 1.523e-10
 30.89823    -28.3 9.686e+03 2.824e-10
 30.91898    -29.3 1.030e+04 4.573e-10
 30.94392    -28.9 1.081e+04 5.796e-10
 30.98541    -29.9 1.128e+04 7.267e-10
 31.01379    -30.8 1.144e+04 9.151e-10
 31.02672    -30.9 1.148e+04 1.002e-09
 31.03983    -32.7 1.142e+04 1.046e-09
 31.06840    -32.9 1.129e+04 1.020e-09
 31.08979    -32.7 1.132e+04 1.008e-09
 31.10007    -33.3 1.121e+04 9.425e-10
 31.12007    -33.9 1.118e+04 8.997e-10
 31.13975    -34.6 1.108e+04 9.018e-10
 31.15012    -35.1 1.085e+04 8.127e-10
 31.16156    -35.4 1.073e+04 8.087e-10
 31.18231    -35.4 1.069e+04 7.732e-10
 31.20017    -35.4 1.063e+04 7.451e-10
 31.21055    -35.7 1.036e+04 6.350e-10
 31.23427    -35.2 1.044e+04 6.740e-10
 31.26070    -35.5 1.009e+04 5.557e-10
 31.27097    -35.9 9.966e+03 5.282e-10
 31.28604    -35.9 9.955e+03 5.277e-10
 31.30679    -35.7 9.941e+03 5.332e-10
 31.32103    -35.5 9.950e+03 5.393e-10
 31.33140    -35.5 9.945e+03 5.459e-10
 31.34828    -34.8 9.843e+03 5.290e-10
 31.36903    -34.3 9.843e+03 5.273e-10
 31.38145    -33.4 9.759e+03 4.833e-10
 31.39035    -33.0 9.760e+03 4.825e-10
 31.39867    -32.9 9.826e+03 5.495e-10
 31.41052    -32.3 9.773e+03 5.115e-10
 31.44174    -31.5 9.604e+03 4.063e-10
 31.48176    -30.1 9.318e+03 3.291e-10
 31.50250    -29.2 9.160e+03 2.930e-10
 31.52482    -27.4 8.805e+03 2.217e-10
 31.56632    -25.5 8.657e+03 1.870e-10
 31.60261    -23.5 8.768e+03 1.927e-10
 31.62336    -22.9 8.526e+03 1.428e-10
 31.64930    -21.4 8.933e+03 1.881e-10
 31.69080    -20.4 9.239e+03 2.655e-10
 31.72182    -19.7 9.601e+03 4.002e-10
 31.73364    -19.2 1.014e+04 5.785e-10
 31.74401    -19.1 1.005e+04 5.552e-10
 31.76300    -19.0 1.062e+04 7.497e-10
 31.77338    -18.5 1.074e+04 9.042e-10
 31.78369    -19.9 1.222e+04 1.310e-09
 31.79407    -22.3 1.355e+04 1.592e-09
 31.80471    -30.1 1.722e+04 4.657e-09
 31.82546    -31.8 1.763e+04 1.085e-08
 31.84097    -31.4 1.765e+04 1.524e-08
 31.84921    -31.2 1.784e+04 1.633e-08
 31.85440    -31.4 1.776e+04 1.600e-08
 31.86167    -32.2 1.794e+04 1.474e-08
 31.87204    -32.6 1.793e+04 1.439e-08
 31.87942    -34.7 1.850e+04 1.132e-08
 31.88461    -34.9 1.812e+04 9.968e-09
 31.89279    -35.4 1.794e+04 9.533e-09
 31.90316    -37.5 1.729e+04 6.727e-09
 31.90964    -39.9 1.591e+04 5.463e-09
 31.91482    -40.0 1.543e+04 4.853e-09
 31.92914    -42.3 1.395e+04 3.287e-09
 31.94994    -44.3 1.335e+04 2.041e-09
 31.96497    -47.1 1.321e+04 1.576e-09
 31.97535    -47.0 1.219e+04 1.116e-09
 31.99143    -49.2 1.167e+04 1.059e-09
 32.01218    -49.7 1.143e+04 1.170e-09
 32.02540    -49.1 1.145e+04 1.369e-09
 32.03577    -48.9 1.100e+04 1.050e-09
 32.05367    -47.9 1.111e+04 1.217e-09
 32.07442    -46.7 1.133e+04 1.304e-09
 32.08583    -45.8 1.152e+04 1.346e-09
 32.09620    -45.9 1.123e+04 1.137e-09
 32.11591    -45.2 1.137e+04 1.165e-09
 32.13588    -44.7 1.152e+04 1.233e-09
 32.14625    -44.8 1.135e+04 1.075e-09
 32.14808    -44.4 1.154e+04 1.100e-09
 32.15845    -45.1 1.116e+04 8.324e-10
 32.17815    -44.4 1.101e+04 1.029e-09
 32.19631    -43.5 1.119e+04 1.090e-09
 32.20668    -43.9 1.109e+04 1.019e-09
 32.21964    -42.8 1.115e+04 1.152e-09
 32.24039    -41.8 1.124e+04 1.184e-09
 32.25673    -40.9 1.123e+04 1.169e-09
 32.26711    -41.2 1.109e+04 1.087e-09
 32.28188    -40.5 1.113e+04 1.093e-09
 32.30689    -38.9 1.105e+04 1.063e-09
 32.32773    -39.8 1.074e+04 8.610e-10
 32.35469    -38.4 1.068e+04 8.238e-10
 32.39618    -37.4 1.077e+04 8.405e-10
 32.42784    -36.6 1.103e+04 8.607e-10
 32.44858    -39.3 1.144e+04 1.103e-09
 32.47917    -38.7 1.186e+04 1.327e-09
 32.51019    -38.4 1.197e+04 1.471e-09
 32.52278    -38.4 1.200e+04 1.485e-09
 32.53316    -38.4 1.290e+04 2.300e-09
 32.54849    -37.7 1.276e+04 2.201e-09
 32.55887    -38.4 1.252e+04 2.099e-09
 32.57234    -37.6 1.221e+04 1.849e-09
 32.59308    -36.9 1.183e+04 1.520e-09
 32.60892    -36.7 1.152e+04 1.259e-09
 32.61929    -38.2 1.134e+04 1.112e-09
 32.63458    -38.6 1.112e+04 9.876e-10
 32.65532    -39.0 1.098e+04 9.342e-10
 32.66935    -39.3 1.098e+04 9.432e-10
 32.67972    -40.3 1.118e+04 1.028e-09
 32.69682    -40.3 1.139e+04 1.158e-09
 32.71756    -40.0 1.159e+04 1.299e-09
 32.72977    -39.4 1.177e+04 1.438e-09
 32.74015    -39.9 1.223e+04 1.627e-09
 32.75906    -39.4 1.261e+04 1.827e-09
 32.77980    -39.2 1.301e+04 2.005e-09
 32.80055    -40.2 1.413e+04 2.942e-09
 32.82130    -40.9 1.527e+04 3.859e-09
 32.84025    -46.7 2.046e+04 6.566e-09
 32.85058    -48.3 2.176e+04 9.400e-09
 32.85750    -51.4 2.478e+04 1.459e-08
 32.86788    -55.4 2.623e+04 2.706e-08
 32.87556    -57.5 2.453e+04 5.311e-08
 32.88074    -58.0 2.412e+04 9.517e-08
 32.88862    -58.3 2.239e+04 1.642e-07
 32.89739    -58.1 2.167e+04 2.235e-07
 32.90257    -58.1 2.163e+04 2.925e-07
 32.90577    -57.2 2.100e+04 4.816e-07
 32.91096    -57.2 2.121e+04 6.109e-07
 32.91974    -56.8 2.098e+04 7.380e-07
 32.93012    -56.1 2.159e+04 5.510e-07
 32.93598    -57.8 2.593e+04 2.374e-07
 32.94117    -60.5 2.634e+04 2.470e-07
 32.95086    -69.2 3.238e+04 9.794e-08
 32.96101    -80.7 2.835e+04 5.941e-08
 32.96620    -84.0 2.578e+04 4.750e-08
 32.97161    -87.5 2.255e+04 4.361e-08
 32.98198    -88.0 2.171e+04 4.453e-08
 32.99122    -88.0 2.094e+04 4.051e-08
 32.99641    -88.2 2.042e+04 3.236e-08
 33.00273    -88.0 1.942e+04 2.393e-08
 33.01310    -87.5 1.827e+04 1.616e-08
 33.02144    -87.4 1.727e+04 1.040e-08
 33.02662    -88.0 1.663e+04 8.060e-09
 33.03385    -89.0 1.586e+04 5.103e-09
 33.04946    -90.8 1.471e+04 3.119e-09
 33.07026    -94.7 1.277e+04 1.181e-09
 33.08196   -100.9 9.364e+03 4.484e-10
 33.09234   -101.3 8.618e+03 3.608e-10
 33.11175   -102.1 8.299e+03 3.273e-10
 33.13202   -102.4 8.549e+03 3.545e-10
 33.14239   -101.7 8.436e+03 3.305e-10
 33.15324   -101.8 8.783e+03 3.920e-10
 33.17399   -101.6 9.034e+03 4.530e-10
 33.19244   -101.5 9.149e+03 4.944e-10
 33.20282   -101.1 9.017e+03 4.421e-10
 33.21548   -100.8 9.058e+03 4.782e-10
 33.23623   -100.7 9.060e+03 4.776e-10
 33.25297   -100.7 9.034e+03 4.803e-10
 33.26828   -100.3 8.911e+03 4.310e-10
 33.28276    -98.8 8.890e+03 4.057e-10
 33.30904    -98.7 8.978e+03 4.323e-10
 33.35053    -98.6 8.997e+03 4.385e-10
 33.37392    -98.5 8.944e+03 4.028e-10
 33.39466    -97.2 8.825e+03 4.005e-10
 33.43352    -96.9 8.720e+03 3.463e-10
 33.47402    -97.0 8.550e+03 2.870e-10
 33.49477    -95.6 8.791e+03 3.440e-10
 33.51650    -95.8 8.695e+03 3.079e-10
 33.55800    -96.0 8.680e+03 3.010e-10
 33.59488    -96.6 8.930e+03 3.379e-10
 33.61562    -95.2 9.021e+03 3.673e-10
 33.64098    -96.5 9.519e+03 4.869e-10
 33.66558    -97.6 9.982e+03 7.113e-10
 33.67586    -96.9 9.980e+03 7.130e-10
 33.69266    -97.0 1.033e+04 9.043e-10
 33.71340    -96.8 1.059e+04 1.039e-09
 33.72591    -96.7 1.063e+04 1.061e-09
 33.73628    -96.0 1.054e+04 1.031e-09
 33.75490    -95.7 1.043e+04 9.356e-10
 33.77564    -95.4 1.009e+04 7.049e-10
 33.78634    -95.5 9.733e+03 5.071e-10
 33.79671    -94.7 9.700e+03 5.017e-10
 33.81714    -95.0 9.399e+03 3.799e-10
 33.83649    -95.4 9.138e+03 3.002e-10
 33.85733    -93.8 9.109e+03 2.958e-10
 33.88994    -93.1 8.695e+03 1.976e-10
 33.93144    -91.9 8.462e+03 1.429e-10
 33.95744    -90.7 8.435e+03 1.272e-10
 33.97818    -89.5 8.536e+03 1.318e-10
 34.01142    -88.9 8.642e+03 1.317e-10
 34.03216    -89.2 8.703e+03 1.459e-10
 34.05592    -89.3 8.997e+03 1.787e-10
 34.07829    -90.7 1.006e+04 3.744e-10
 34.09904    -89.5 9.992e+03 3.860e-10
 34.12825    -90.4 1.088e+04 7.073e-10
 34.13852    -90.0 1.087e+04 6.823e-10
 34.14908    -90.5 1.101e+04 7.232e-10
 34.16983    -92.0 1.201e+04 1.142e-09
 34.18858    -93.7 1.295e+04 1.664e-09
 34.19895    -92.8 1.242e+04 1.271e-09
 34.21132    -94.7 1.309e+04 1.885e-09
 34.23207    -96.4 1.312e+04 2.212e-09
 34.24900    -97.7 1.301e+04 2.282e-09
 34.25938    -97.0 1.274e+04 1.945e-09
 34.27356    -97.9 1.237e+04 1.916e-09
 34.29431    -98.4 1.190e+04 1.565e-09
 34.30943    -98.8 1.151e+04 1.087e-09
 34.31980    -98.2 1.157e+04 1.223e-09
 34.33580    -98.6 1.132e+04 8.296e-10
 34.35655    -99.3 1.108e+04 5.091e-10
 34.36986   -100.4 1.068e+04 3.114e-10
 34.38023    -99.4 1.094e+04 4.295e-10
 34.39630   -100.3 1.052e+04 2.987e-10
 34.40667   -100.4 1.049e+04 3.256e-10
 34.42001   -100.8 1.010e+04 2.286e-10
 34.44085    -99.5 1.054e+04 3.313e-10
 34.47085    -99.3 1.021e+04 2.511e-10
 34.51234    -98.6 1.021e+04 2.175e-10
 34.54096    -97.8 1.029e+04 2.160e-10
 34.56171    -97.5 1.053e+04 2.944e-10
 34.59533    -96.5 1.066e+04 3.213e-10
 34.63682    -95.0 1.086e+04 4.006e-10
 34.66181    -93.2 1.113e+04 5.097e-10
 34.68256    -93.0 1.124e+04 5.400e-10
 34.70934    -91.5 1.140e+04 6.396e-10
 34.72204    -90.8 1.146e+04 6.927e-10
 34.73242    -90.8 1.148e+04 7.059e-10
 34.75074    -89.6 1.174e+04 8.249e-10
 34.77100    -88.8 1.188e+04 9.105e-10
 34.78137    -88.4 1.206e+04 1.092e-09
 34.78247    -87.4 1.225e+04 1.222e-09
 34.79284    -87.3 1.218e+04 1.150e-09
 34.81298    -86.2 1.232e+04 1.226e-09
 34.83252    -85.3 1.238e+04 1.291e-09
 34.84290    -85.1 1.205e+04 1.044e-09
 34.85447    -84.0 1.201e+04 1.084e-09
 34.87522    -82.7 1.213e+04 1.170e-09
 34.89295    -81.5 1.237e+04 1.297e-09
 34.90332    -81.4 1.190e+04 9.801e-10
 34.91671    -80.3 1.200e+04 1.046e-09
 34.93746    -79.3 1.199e+04 1.063e-09
 34.96867    -77.6 1.192e+04 9.923e-10
 35.00363    -74.7 1.201e+04 1.086e-09
 35.02437    -74.1 1.126e+04 6.603e-10
 35.05176    -71.5 1.139e+04 7.140e-10
 35.09325    -68.6 1.144e+04 7.322e-10
 35.12448    -65.7 1.144e+04 6.853e-10
 35.14523    -65.4 1.104e+04 5.221e-10
 35.17624    -62.7 1.109e+04 5.321e-10
 35.21773    -59.9 1.114e+04 5.751e-10
 35.24533    -56.9 1.131e+04 6.468e-10
 35.26608    -57.4 1.123e+04 6.667e-10
 35.30072    -54.6 1.140e+04 7.724e-10
 35.34221    -51.8 1.165e+04 8.866e-10
 35.36619    -49.1 1.191e+04 1.050e-09
 35.38693    -50.5 1.158e+04 9.639e-10
 35.42520    -48.3 1.170e+04 1.021e-09
 35.45622    -47.1 1.184e+04 1.057e-09
 35.47647    -47.0 1.184e+04 1.055e-09
 35.48694    -48.6 1.166e+04 9.367e-10
 35.49771    -47.7 1.208e+04 1.180e-09
 35.51836    -48.9 1.287e+04 1.512e-09
 35.53078    -50.1 1.338e+04 2.295e-09
 35.53894    -48.7 1.273e+04 1.686e-09
 35.54727    -49.9 1.239e+04 1.543e-09
 35.55986    -50.2 1.288e+04 2.210e-09
 35.58060    -50.8 1.362e+04 3.147e-09
 35.59733    -52.4 1.493e+04 4.252e-09
 35.60770    -52.8 1.422e+04 3.229e-09
 35.62210    -55.1 1.479e+04 3.854e-09
 35.64284    -57.6 1.425e+04 3.935e-09
 35.65775    -58.7 1.295e+04 3.100e-09
 35.66813    -58.8 1.248e+04 2.595e-09
 35.68434    -59.1 1.220e+04 1.973e-09
 35.70508    -61.4 1.245e+04 1.269e-09
 35.71818    -67.7 1.168e+04 8.762e-10
 35.72855    -65.4 1.194e+04 9.047e-10
 35.74658    -70.2 1.121e+04 8.151e-10
 35.76732    -72.1 1.081e+04 9.524e-10
 35.77861    -72.8 1.086e+04 1.088e-09
 35.78898    -71.6 1.110e+04 1.174e-09
 35.80882    -72.1 1.132e+04 1.266e-09
 35.82866    -72.6 1.152e+04 1.282e-09
 35.83903    -71.5 1.188e+04 1.536e-09
 35.85031    -72.4 1.207e+04 1.353e-09
 35.87106    -74.1 1.171e+04 9.847e-10
 35.88909    -76.4 1.070e+04 6.973e-10
 35.89946    -74.4 1.193e+04 1.025e-09
 35.90548    -76.3 1.073e+04 7.374e-10
 35.91586    -77.1 9.776e+03 5.953e-10
 35.93330    -77.5 9.604e+03 5.832e-10
 35.94951    -77.5 9.573e+03 5.887e-10
 35.95989    -76.8 9.649e+03 6.013e-10
 35.97479    -76.6 9.590e+03 5.905e-10
 35.99554    -76.3 9.555e+03 5.651e-10
 36.00994    -75.9 9.521e+03 5.219e-10
 36.02031    -75.5 9.577e+03 5.625e-10
 36.03703    -75.3 9.687e+03 5.300e-10
 36.05778    -75.1 9.813e+03 5.201e-10
 36.07037    -75.0 1.003e+04 5.360e-10
 36.08074    -74.7 1.031e+04 6.321e-10
 36.09927    -74.4 1.053e+04 6.951e-10
 36.12002    -74.0 1.077e+04 8.025e-10
 36.13079    -73.5 1.110e+04 9.873e-10
 36.14117    -73.1 1.137e+04 1.089e-09
 36.16151    -72.7 1.167e+04 1.291e-09
 36.18085    -72.2 1.191e+04 1.514e-09
 36.19122    -71.8 1.207e+04 1.554e-09
 36.20300    -71.3 1.233e+04 1.797e-09
 36.22375    -70.9 1.259e+04 2.007e-09
 36.24127    -70.5 1.280e+04 2.187e-09
 36.25165    -70.4 1.319e+04 2.432e-09
 36.26524    -70.0 1.335e+04 2.621e-09
 36.28019    -69.8 1.339e+04 2.693e-09
 36.29056    -69.5 1.222e+04 1.586e-09
 36.30170    -69.3 1.226e+04 1.669e-09
 36.31207    -69.3 1.250e+04 1.758e-09
 36.32748    -69.0 1.245e+04 1.786e-09
 36.34823    -68.7 1.234e+04 1.728e-09
 36.36213    -68.4 1.219e+04 1.627e-09
 36.37250    -68.4 1.229e+04 1.678e-09
 36.38972    -68.1 1.210e+04 1.532e-09
 36.41047    -67.7 1.187e+04 1.368e-09
 36.42255    -67.3 1.161e+04 1.197e-09
 36.43293    -67.3 1.173e+04 1.260e-09
 36.45196    -66.7 1.148e+04 1.103e-09
 36.47261    -66.0 1.121e+04 9.417e-10
 36.48298    -66.1 1.137e+04 1.013e-09
 36.50393    -65.2 1.096e+04 7.725e-10
 36.53323    -63.8 1.053e+04 5.686e-10
 36.55397    -63.8 1.070e+04 6.252e-10
 36.58701    -62.5 1.042e+04 5.341e-10
 36.62850    -61.0 1.025e+04 4.970e-10
 36.65408    -59.5 1.013e+04 4.620e-10
 36.67483    -59.2 1.021e+04 4.842e-10
 36.71149    -57.8 1.011e+04 4.374e-10
 36.75298    -56.8 1.007e+04 4.095e-10
 36.77494    -56.4 1.018e+04 4.343e-10
 36.79568    -56.0 1.014e+04 4.095e-10
 36.82489    -55.8 1.025e+04 4.597e-10
 36.83517    -55.6 1.017e+04 4.236e-10
 36.84615    -55.8 1.024e+04 4.636e-10
 36.86690    -55.6 1.039e+04 5.309e-10
 36.88522    -55.5 1.041e+04 5.750e-10
 36.89559    -55.4 1.039e+04 5.705e-10
 36.90839    -54.8 1.048e+04 6.009e-10
 36.92914    -54.5 1.035e+04 5.847e-10
 36.94565    -53.9 1.025e+04 5.088e-10
 36.95602    -53.6 1.025e+04 5.086e-10
 36.97063    -53.4 1.021e+04 4.112e-10
 36.99138    -53.7 1.003e+04 3.356e-10
 37.00607    -53.6 9.995e+03 3.279e-10
 37.01654    -53.5 1.004e+04 3.341e-10
 37.02979    -53.6 9.759e+03 2.748e-10
 37.05054    -53.1 9.595e+03 2.502e-10
 37.08493    -52.4 9.490e+03 2.359e-10
 37.11675    -51.9 9.612e+03 2.561e-10
 37.13750    -51.4 9.608e+03 2.526e-10
 37.16792    -50.8 9.722e+03 3.241e-10
 37.20941    -49.2 9.852e+03 3.928e-10
 37.23760    -47.5 9.875e+03 4.048e-10
 37.25835    -46.8 9.863e+03 4.032e-10
 37.29240    -44.9 9.630e+03 3.326e-10
 37.33389    -43.0 9.401e+03 2.395e-10
 37.35846    -41.4 9.202e+03 1.919e-10
 37.37920    -40.9 9.324e+03 2.190e-10
 37.41688    -39.0 9.269e+03 2.112e-10
 37.45837    -37.4 9.442e+03 2.326e-10
 37.49986    -35.4 9.581e+03 3.269e-10
 37.54136    -33.2 9.778e+03 4.405e-10
 37.57942    -30.6 9.999e+03 5.054e-10
 37.60016    -30.3 9.934e+03 4.787e-10
 37.62434    -28.2 9.945e+03 4.506e-10
 37.66584    -25.7 9.723e+03 3.440e-10
 37.70027    -23.9 9.536e+03 2.302e-10
 37.72102    -23.7 9.552e+03 2.395e-10
 37.74882    -22.7 9.473e+03 1.847e-10
 37.77920    -21.6 9.451e+03 1.709e-10
 37.79994    -21.8 9.296e+03 1.650e-10
 37.82112    -20.4 9.300e+03 1.636e-10
 37.84187    -20.0 9.408e+03 2.017e-10
 37.87330    -18.7 9.499e+03 2.180e-10
 37.91480    -17.5 9.609e+03 2.495e-10
 37.94198    -16.3 9.709e+03 2.933e-10
 37.96272    -15.9 9.779e+03 3.052e-10
 37.99778    -14.9 9.884e+03 3.540e-10
 38.03928    -13.8 9.844e+03 3.412e-10
 38.06283    -12.8 9.761e+03 2.764e-10
 38.08358    -12.6 9.881e+03 3.026e-10
 38.12226    -12.2 9.703e+03 2.319e-10
 38.16294    -11.6 9.397e+03 1.896e-10
 38.18368    -11.2 9.488e+03 2.013e-10
 38.20525    -10.2 9.231e+03 1.759e-10
 38.24674     -8.7 9.112e+03 1.600e-10
 38.28379     -6.8 9.006e+03 1.489e-10
 38.30454     -6.4 9.069e+03 1.526e-10
 38.32973     -4.3 8.994e+03 1.370e-10
 38.37122     -2.3 8.932e+03 1.161e-10
 38.40464     -0.6 8.894e+03 9.862e-11
 38.42539     -0.0 8.928e+03 9.857e-11
 38.45421      1.6 8.875e+03 9.332e-11
 38.49570      3.4 8.872e+03 9.608e-11
 38.52550      5.1 8.892e+03 1.041e-10
 38.53765      5.7 8.893e+03 1.024e-10
 38.54935      6.4 8.792e+03 8.739e-11
 38.57869      8.1 8.839e+03 1.003e-10
 38.62018      9.8 8.940e+03 1.273e-10
 38.64635     11.3 9.127e+03 1.716e-10
 38.66710     12.0 9.106e+03 1.618e-10
 38.70317     13.6 9.322e+03 2.157e-10
 38.74466     15.0 9.597e+03 2.911e-10
 38.76720     16.3 9.856e+03 3.739e-10
 38.78795     16.9 9.790e+03 3.436e-10
 38.82765     18.1 1.008e+04 4.361e-10
 38.86731     19.1 1.029e+04 4.746e-10
 38.88806     19.9 1.033e+04 5.151e-10
 38.91064     20.6 1.044e+04 5.236e-10
 38.95213     21.1 1.042e+04 5.019e-10
 38.98816     21.1 1.038e+04 4.807e-10
 39.00891     22.2 1.046e+04 5.386e-10
 39.03512     22.5 1.040e+04 5.127e-10
 39.05887     22.5 1.046e+04 5.308e-10
 39.06914     23.0 1.046e+04 5.370e-10
 39.08679     22.9 1.059e+04 5.650e-10
 39.10753     22.1 1.090e+04 6.479e-10
 39.11920     20.7 1.156e+04 8.154e-10
 39.12957     21.3 1.138e+04 7.614e-10
 39.14903     19.3 1.207e+04 1.114e-09
 39.16925     17.6 1.264e+04 1.684e-09
 39.17962     18.0 1.256e+04 1.611e-09
 39.19052     17.1 1.285e+04 2.121e-09
 39.21127     16.4 1.280e+04 2.143e-09
 39.22968     16.1 1.251e+04 1.790e-09
 39.24005     16.8 1.248e+04 1.815e-09
 39.25276     16.2 1.186e+04 1.250e-09
 39.27351     14.8 1.108e+04 7.443e-10
 39.28819     13.7 1.037e+04 5.146e-10
 39.29441     15.5 1.082e+04 6.954e-10
 39.30048     16.2 1.088e+04 7.302e-10
 39.31500     15.0 1.019e+04 4.971e-10
 39.33575     14.2 9.667e+03 3.681e-10
 39.35053     13.5 9.539e+03 3.350e-10
 39.36090     14.1 9.566e+03 3.401e-10
 39.37724     14.2 9.527e+03 3.421e-10
 39.39799     13.9 9.713e+03 3.798e-10
 39.41096     13.5 9.989e+03 4.352e-10
 39.42133     14.1 1.000e+04 4.456e-10
 39.43948     13.6 1.055e+04 5.913e-10
 39.46023     13.0 1.130e+04 8.595e-10
 39.47138     12.6 1.207e+04 1.288e-09
 39.48176     13.4 1.192e+04 1.230e-09
 39.50172     13.1 1.274e+04 1.849e-09
 39.52144     12.9 1.351e+04 2.572e-09
 39.53181     13.7 1.345e+04 2.539e-09
 39.54321     13.6 1.413e+04 3.119e-09
 39.56396     13.2 1.435e+04 3.157e-09
 39.58186     12.6 1.426e+04 2.983e-09
 39.59224     13.4 1.435e+04 3.075e-09
 39.60545     12.7 1.397e+04 2.606e-09
 39.62620     12.0 1.319e+04 1.975e-09
 39.64229     11.5 1.227e+04 1.384e-09
 39.65266     12.3 1.244e+04 1.516e-09
 39.66289     12.1 1.171e+04 1.077e-09
 39.67326     13.8 1.211e+04 1.293e-09
 39.68844     13.6 1.142e+04 9.148e-10
 39.70272     13.3 1.087e+04 6.617e-10
 39.71309     14.1 1.099e+04 7.160e-10
 39.72993     13.6 1.068e+04 5.439e-10
 39.75068     13.0 1.030e+04 4.342e-10
 39.78190     13.2 1.018e+04 3.739e-10
 39.81339     13.2 1.002e+04 3.347e-10
 39.83414     14.0 1.064e+04 4.547e-10
 39.86498     12.8 1.092e+04 5.168e-10
 39.90648     11.1 1.109e+04 6.127e-10
 39.93425      7.2 1.229e+04 8.808e-10
 39.94452      8.8 1.314e+04 1.110e-09
 39.95815      4.2 1.474e+04 1.648e-09
 39.97889     -1.8 1.629e+04 3.145e-09
 39.99448     -5.5 1.617e+04 4.377e-09
 40.00485     -7.9 1.649e+04 6.029e-09
 40.02039     -9.9 1.594e+04 5.229e-09
 40.03759    -11.6 1.572e+04 4.497e-09
 40.04792    -11.5 1.620e+04 5.213e-09
 40.05481    -14.3 1.565e+04 3.763e-09
 40.05999    -16.7 1.547e+04 3.174e-09
 40.06697    -17.2 1.520e+04 3.030e-09
 40.07734    -20.7 1.453e+04 1.894e-09
 40.08502    -22.9 1.458e+04 1.725e-09
 40.09021    -29.4 2.158e+04 1.422e-09
 40.09809    -55.6 4.863e+04 2.116e-09
 40.10846    -73.3 3.572e+04 2.128e-08
 40.11523    -79.5 2.481e+04 1.181e-07
 40.12042    -79.9 2.280e+04 1.875e-07
 40.12921    -80.1 2.166e+04 3.126e-07
 40.13958    -79.9 2.227e+04 3.173e-07
 40.14545    -81.0 2.499e+04 1.903e-07
 40.15063    -84.9 2.855e+04 8.016e-08
 40.16033    -96.4 3.898e+04 8.568e-09
 40.17047   -117.8 2.978e+04 9.630e-10
 40.17566   -126.4 1.578e+04 8.716e-10
 40.18631   -130.5 1.159e+04 8.504e-10
 40.20711   -132.0 1.131e+04 8.178e-10
 40.22581   -134.2 1.113e+04 8.186e-10
 40.23618   -134.4 1.109e+04 8.131e-10
 40.24860   -136.2 1.183e+04 1.179e-09
 40.26935   -137.4 1.269e+04 1.834e-09
 40.28624   -138.0 1.337e+04 2.674e-09
 40.29661   -138.2 1.342e+04 2.984e-09
 40.31084   -138.6 1.457e+04 4.252e-09
 40.33159   -141.6 1.721e+04 6.191e-09
 40.34666   -148.1 2.058e+04 9.387e-09
 40.35704   -151.8 2.283e+04 1.374e-08
 40.36785   -158.4 2.370e+04 1.851e-08
 40.37678   -162.2 2.382e+04 2.067e-08
 40.38197   -163.3 2.424e+04 2.439e-08
 40.38854   -166.9 2.403e+04 2.469e-08
 40.39892   -170.0 2.333e+04 2.205e-08
 40.40704   -173.4 2.283e+04 1.658e-08
 40.41223   -174.9 2.331e+04 1.733e-08
 40.41738   -179.4 2.361e+04 1.165e-08
 40.42257   -183.1 2.442e+04 1.091e-08
 40.43004   -189.6 2.479e+04 7.405e-09
 40.43721   -197.2 2.404e+04 5.529e-09
 40.44239   -198.8 2.304e+04 5.264e-09
 40.45602   -207.8 1.861e+04 4.385e-09
 40.46752   -214.1 1.564e+04 4.200e-09
 40.47789   -215.1 1.639e+04 5.447e-09
 40.49756   -217.3 1.592e+04 5.795e-09
 40.51757   -219.0 1.587e+04 6.011e-09
 40.52794   -220.3 1.628e+04 6.856e-09
 40.53905   -221.6 1.591e+04 6.016e-09
 40.55980   -223.3 1.526e+04 4.827e-09
 40.57800   -225.2 1.455e+04 3.707e-09
 40.58837   -227.0 1.432e+04 3.313e-09
 40.60129   -229.3 1.327e+04 2.388e-09
 40.62204   -231.2 1.241e+04 1.851e-09
 40.63843   -232.7 1.192e+04 1.584e-09
 40.64880   -234.1 1.149e+04 1.366e-09
 40.66353   -235.1 1.134e+04 1.280e-09
 40.68428   -236.5 1.132e+04 1.268e-09
 40.69885   -239.2 1.161e+04 1.310e-09
 40.70923   -238.8 1.098e+04 1.081e-09
 40.72577   -242.9 1.227e+04 1.328e-09
 40.74652   -248.2 1.540e+04 2.554e-09
 40.75928   -253.5 1.803e+04 5.474e-09
 40.76965   -254.0 1.808e+04 4.868e-09
 40.78700   -259.6 2.026e+04 1.045e-08
 40.79737   -257.2 1.927e+04 5.871e-09
 40.80876   -263.1 2.138e+04 1.333e-08
 40.81966   -269.2 2.217e+04 2.243e-08
 40.82479   -269.9 2.228e+04 2.313e-08
 40.83460   -273.1 2.250e+04 2.671e-08
 40.84463   -277.0 2.258e+04 2.898e-08
 40.84982   -277.8 2.251e+04 2.863e-08
 40.85534   -281.6 2.250e+04 2.897e-08
 40.86572   -285.5 2.224e+04 2.891e-08
 40.87485   -289.3 2.157e+04 2.649e-08
 40.88003   -289.9 2.106e+04 2.302e-08
 40.88646   -293.3 2.010e+04 1.911e-08
 40.89684   -296.1 1.906e+04 1.534e-08
 40.90506   -298.2 1.803e+04 1.206e-08
 40.91025   -298.6 1.730e+04 9.814e-09
 40.91758   -300.1 1.636e+04 7.601e-09
 40.92796   -301.3 1.553e+04 6.002e-09
 40.93527   -302.1 1.492e+04 5.031e-09
 40.94046   -302.0 1.465e+04 4.604e-09
 40.95394   -303.1 1.433e+04 4.053e-09
 40.97473   -305.5 1.364e+04 3.210e-09
 40.99061   -307.3 1.311e+04 2.702e-09
 41.00099   -307.4 1.283e+04 2.461e-09
 41.01623   -308.5 1.277e+04 2.383e-09
 41.03697   -309.3 1.276e+04 2.360e-09
 41.05104   -310.0 1.273e+04 2.321e-09
 41.06141   -309.8 1.270e+04 2.325e-09
 41.07847   -310.3 1.263e+04 2.245e-09
 41.09921   -310.5 1.249e+04 2.102e-09
 41.11147   -310.6 1.229e+04 1.923e-09
 41.12184   -310.1 1.211e+04 1.865e-09
 41.14071   -310.0 1.190e+04 1.666e-09
 41.16145   -310.0 1.178e+04 1.517e-09
 41.17208   -309.5 1.148e+04 1.258e-09
 41.18245   -309.5 1.102e+04 1.013e-09
 41.20295   -309.5 1.093e+04 9.217e-10
 41.22195   -309.5 1.098e+04 8.747e-10
 41.23232   -309.1 1.070e+04 7.795e-10
 41.24444   -309.2 1.076e+04 7.643e-10
 41.26519   -309.4 1.103e+04 7.705e-10
 41.28237   -309.7 1.137e+04 8.119e-10
 41.29275   -309.2 1.099e+04 7.193e-10
 41.30668   -309.4 1.126e+04 7.626e-10
 41.32743   -309.6 1.147e+04 8.168e-10
 41.34280   -309.6 1.159e+04 8.782e-10
 41.35317   -308.8 1.127e+04 7.851e-10
 41.36892   -308.6 1.136e+04 8.335e-10
 41.38967   -308.4 1.141e+04 8.846e-10
 41.40323   -308.2 1.143e+04 9.366e-10
 41.41360   -307.3 1.122e+04 8.304e-10
 41.43116   -307.0 1.123e+04 8.600e-10
 41.45191   -306.6 1.121e+04 8.795e-10
 41.46365   -306.2 1.119e+04 8.844e-10
 41.47403   -305.4 1.103e+04 7.805e-10
 41.49340   -305.0 1.099e+04 7.741e-10
 41.51371   -304.6 1.096e+04 7.634e-10
 41.52408   -303.8 1.083e+04 6.815e-10
 41.53489   -303.4 1.079e+04 6.649e-10
 41.54678   -303.1 1.076e+04 6.437e-10
 41.55715   -303.0 1.069e+04 6.175e-10
 41.57413   -302.7 1.070e+04 5.959e-10
 41.58451   -301.9 1.061e+04 5.436e-10
 41.59713   -301.6 1.059e+04 5.162e-10
 41.61788   -301.4 1.056e+04 4.816e-10
 41.63456   -301.1 1.054e+04 4.422e-10
 41.64493   -300.1 1.054e+04 4.140e-10
 41.65937   -299.9 1.058e+04 3.958e-10
 41.68471   -300.3 1.064e+04 3.806e-10
 41.70556   -299.2 1.060e+04 3.680e-10
 41.73218   -299.2 1.064e+04 3.566e-10
 41.77368   -299.1 1.070e+04 3.599e-10
 41.80566   -298.9 1.081e+04 3.765e-10
 41.82641   -297.5 1.098e+04 4.369e-10
 41.85666   -297.6 1.109e+04 4.623e-10
 41.89816   -297.5 1.110e+04 4.661e-10
 41.92652   -297.2 1.104e+04 4.417e-10
 41.94726   -296.4 1.120e+04 4.851e-10
 41.98114   -295.7 1.098e+04 3.931e-10
 42.02264   -294.5 1.075e+04 3.196e-10
 42.04737   -293.1 1.055e+04 2.646e-10
 42.06812   -292.4 1.058e+04 2.824e-10
 42.10562   -290.9 1.047e+04 2.530e-10
 42.14712   -289.3 1.045e+04 2.411e-10
 42.16822   -287.8 1.046e+04 2.410e-10
 42.18897   -286.9 1.067e+04 3.146e-10
 42.23010   -285.6 1.080e+04 3.505e-10
 42.26833   -284.6 1.091e+04 3.801e-10
 42.28908   -283.8 1.124e+04 5.187e-10
 42.29638   -283.1 1.129e+04 5.436e-10
 42.31713   -282.3 1.106e+04 4.607e-10
 42.35458   -281.9 1.106e+04 4.650e-10
 42.38918   -281.6 1.099e+04 4.494e-10
 42.40993   -280.9 1.126e+04 5.956e-10
 42.43757   -280.5 1.099e+04 4.975e-10
 42.47906   -280.0 1.069e+04 3.808e-10
 42.51004   -279.3 1.041e+04 2.854e-10
 42.53078   -278.6 1.055e+04 3.561e-10
 42.56205   -277.5 1.024e+04 2.561e-10
 42.60354   -276.2 1.000e+04 1.873e-10
 42.63089   -274.6 9.852e+03 1.442e-10
 42.65164   -273.7 9.835e+03 1.595e-10
 42.68653   -271.9 9.683e+03 1.210e-10
 42.72802   -270.0 9.629e+03 9.938e-11
 42.75174   -268.1 9.601e+03 8.953e-11
 42.77249   -267.0 9.590e+03 8.870e-11
 42.81101   -265.0 9.588e+03 8.442e-11
 42.85185   -262.9 9.587e+03 8.363e-11
 42.87260   -261.9 9.586e+03 8.294e-11
 42.89400   -259.8 9.589e+03 8.290e-11
 42.93549   -257.8 9.632e+03 8.472e-11
 42.97270   -255.8 9.691e+03 9.009e-11
 42.99345   -254.7 9.692e+03 8.835e-11
 43.01848   -252.8 9.767e+03 9.458e-11
 43.04579   -250.9 9.825e+03 1.024e-10
 43.06653   -250.7 9.854e+03 1.179e-10
 43.09356   -248.9 9.928e+03 1.315e-10
 43.11430   -247.8 9.980e+03 1.355e-10
 43.14296   -246.2 1.003e+04 1.483e-10
 43.18445   -244.6 1.005e+04 1.585e-10
 43.21441   -242.9 1.005e+04 1.668e-10
 43.23516   -242.0 1.013e+04 1.870e-10
 43.26744   -240.4 1.014e+04 2.016e-10
 43.30893   -238.7 1.017e+04 2.178e-10
 43.33526   -237.1 1.023e+04 2.363e-10
 43.35601   -236.3 1.036e+04 2.738e-10
 43.39192   -234.7 1.042e+04 2.911e-10
 43.43341   -233.2 1.048e+04 3.046e-10
 43.45612   -231.8 1.054e+04 3.122e-10
 43.47686   -231.3 1.060e+04 3.152e-10
 43.51640   -230.0 1.061e+04 2.992e-10
 43.55622   -228.7 1.063e+04 2.824e-10
 43.57697   -228.3 1.063e+04 2.575e-10
 43.59938   -227.0 1.063e+04 2.353e-10
 43.64088   -225.8 1.066e+04 2.231e-10
 43.67708   -224.6 1.067e+04 2.217e-10
 43.69782   -224.3 1.064e+04 1.858e-10
 43.72386   -223.1 1.065e+04 1.846e-10
 43.76536   -221.8 1.065e+04 1.880e-10
 43.79519   -220.5 1.068e+04 1.991e-10
 43.80702   -220.8 1.043e+04 1.244e-10
 43.81868   -220.5 1.042e+04 1.030e-10
 43.84834   -219.1 1.043e+04 1.035e-10
 43.88984   -217.9 1.058e+04 1.110e-10
 43.91878   -216.8 1.069e+04 1.390e-10
 43.93953   -216.3 1.065e+04 1.289e-10
 43.97282   -215.3 1.075e+04 1.801e-10
 44.01432   -214.1 1.086e+04 2.442e-10
 44.03964   -213.0 1.099e+04 3.105e-10
 44.06038   -212.6 1.101e+04 3.130e-10
 44.09730   -211.6 1.115e+04 3.636e-10
 44.13880   -210.8 1.128e+04 3.924e-10
 44.16049   -210.2 1.136e+04 4.065e-10
 44.18124   -209.9 1.131e+04 3.824e-10
 44.22178   -209.4 1.137e+04 3.761e-10
 44.26060   -208.9 1.143e+04 3.622e-10
 44.28135   -208.4 1.136e+04 3.278e-10
 44.30477   -207.9 1.137e+04 3.011e-10
 44.34626   -207.3 1.136e+04 2.841e-10
 44.38145   -206.7 1.132e+04 2.768e-10
 44.40220   -206.0 1.126e+04 2.316e-10
 44.42925   -205.3 1.119e+04 2.277e-10
 44.47074   -204.6 1.115e+04 2.294e-10
 44.50231   -203.8 1.111e+04 2.373e-10
 44.52305   -203.1 1.108e+04 2.117e-10
 44.54460   -202.4 1.109e+04 2.228e-10
 44.56535   -203.0 1.117e+04 2.491e-10
 44.59522   -202.3 1.118e+04 2.615e-10
 44.62316   -201.7 1.118e+04 2.666e-10
 44.64391   -201.2 1.117e+04 2.667e-10
 44.67821   -200.5 1.116e+04 2.690e-10
 44.71970   -199.7 1.113e+04 2.615e-10
 44.74401   -199.0 1.109e+04 2.529e-10
 44.76476   -198.5 1.107e+04 2.429e-10
 44.80269   -197.8 1.103e+04 2.275e-10
 44.84412   -197.2 1.096e+04 2.137e-10
 44.88561   -196.2 1.089e+04 1.957e-10
 44.92717   -195.5 1.086e+04 1.971e-10
 44.96497   -194.8 1.078e+04 2.058e-10
 44.98572   -194.5 1.084e+04 2.069e-10
 45.01016   -193.7 1.083e+04 2.240e-10
 45.05165   -192.8 1.083e+04 2.399e-10
 45.08583   -191.7 1.083e+04 2.462e-10
 45.10657   -191.5 1.088e+04 2.674e-10
 45.13464   -190.3 1.076e+04 2.494e-10
 45.17613   -189.0 1.071e+04 2.118e-10
 45.20668   -187.6 1.064e+04 1.704e-10
 45.22743   -187.2 1.065e+04 1.629e-10
 45.25912   -185.7 1.059e+04 1.258e-10
 45.29401   -184.2 1.055e+04 1.018e-10
 45.31475   -185.0 1.054e+04 1.035e-10
 45.32753   -183.4 1.052e+04 9.295e-11
 45.34828   -182.9 1.051e+04 8.897e-11
 45.38360   -181.1 1.049e+04 8.552e-11
 45.42509   -179.3 1.048e+04 8.509e-11
 45.44839   -177.6 1.049e+04 8.628e-11
 45.46913   -177.0 1.050e+04 8.574e-11
 45.50808   -175.4 1.058e+04 9.930e-11
 45.54849   -173.9 1.065e+04 1.262e-10
 45.56924   -173.4 1.066e+04 1.407e-10
 45.59106   -171.9 1.071e+04 1.789e-10
 45.63256   -170.5 1.077e+04 2.209e-10
 45.66935   -169.1 1.081e+04 2.581e-10
 45.69009   -168.6 1.078e+04 2.548e-10
 45.71554   -167.2 1.079e+04 2.701e-10
 45.75704   -165.8 1.078e+04 2.746e-10
 45.79020   -164.3 1.071e+04 2.646e-10
 45.81095   -163.4 1.066e+04 2.457e-10
 45.84002   -161.7 1.059e+04 2.280e-10
 45.88152   -159.9 1.051e+04 1.996e-10
 45.91105   -158.0 1.043e+04 1.681e-10
 45.93180   -157.0 1.042e+04 1.555e-10
 45.96450   -155.1 1.037e+04 1.298e-10
 46.00600   -153.1 1.033e+04 1.097e-10
 46.03191   -151.1 1.031e+04 9.709e-11
 46.04858   -150.1 1.032e+04 9.644e-11
 46.06416   -150.6 1.036e+04 8.204e-11
 46.08898   -148.6 1.037e+04 7.880e-11
 46.13048   -146.7 1.038e+04 7.839e-11
 46.15276   -145.2 1.042e+04 7.891e-11
 46.17351   -144.3 1.054e+04 8.054e-11
 46.21346   -143.3 1.067e+04 9.519e-11
 46.25287   -142.4 1.070e+04 1.472e-10
 46.27361   -141.5 1.068e+04 1.427e-10
 46.29645   -140.5 1.072e+04 2.090e-10
 46.33794   -139.7 1.083e+04 2.988e-10
 46.37372   -139.0 1.096e+04 4.037e-10
 46.39447   -138.1 1.090e+04 3.637e-10
 46.42093   -137.5 1.105e+04 4.761e-10
 46.46242   -137.1 1.122e+04 5.917e-10
 46.49457   -136.8 1.141e+04 6.997e-10
 46.51532   -136.0 1.151e+04 7.688e-10
 46.54541   -136.0 1.176e+04 9.359e-10
 46.58690   -136.4 1.203e+04 1.112e-09
 46.61543   -137.4 1.222e+04 1.250e-09
 46.63617   -136.9 1.247e+04 1.541e-09
 46.66989   -138.2 1.259e+04 1.675e-09
 46.71138   -139.7 1.257e+04 1.677e-09
 46.73628   -140.8 1.227e+04 1.350e-09
 46.75703   -140.2 1.247e+04 1.637e-09
 46.79282   -140.7 1.196e+04 1.001e-09
 46.81356   -140.6 1.182e+04 8.882e-10
 46.83586   -140.9 1.131e+04 5.146e-10
 46.85714   -140.9 1.113e+04 4.057e-10
 46.87788   -140.0 1.112e+04 3.985e-10
 46.91885   -139.7 1.104e+04 3.678e-10
 46.95724   -138.7 1.102e+04 3.698e-10
 46.97799   -137.6 1.101e+04 3.655e-10
 47.00183   -136.6 1.111e+04 4.353e-10
 47.04333   -135.6 1.123e+04 5.368e-10
 47.07810   -134.7 1.125e+04 5.829e-10
 47.09884   -133.5 1.133e+04 5.946e-10
 47.12631   -132.6 1.133e+04 6.017e-10
 47.16781   -131.5 1.109e+04 5.497e-10
 47.19895   -130.2 1.081e+04 3.993e-10
 47.21970   -129.0 1.089e+04 4.425e-10
 47.25079   -127.6 1.067e+04 2.893e-10
 47.29229   -126.2 1.058e+04 1.913e-10
 47.31980   -124.8 1.056e+04 1.511e-10
 47.34055   -123.6 1.056e+04 1.499e-10
 47.37527   -122.1 1.053e+04 1.328e-10
 47.41677   -120.4 1.051e+04 1.293e-10
 47.44066   -118.7 1.049e+04 1.318e-10
 47.46140   -117.5 1.051e+04 1.221e-10
 47.49975   -115.8 1.047e+04 1.349e-10
 47.54076   -114.1 1.049e+04 1.561e-10
 47.56151   -113.0 1.050e+04 1.485e-10
 47.56297   -111.2 1.054e+04 1.731e-10
 47.58372   -111.0 1.044e+04 1.413e-10
 47.62423   -109.2 1.049e+04 1.562e-10
 47.66162   -107.4 1.054e+04 1.690e-10
 47.68236   -106.5 1.056e+04 1.651e-10
 47.70722   -104.7 1.061e+04 1.847e-10
 47.74871   -102.9 1.068e+04 2.073e-10
 47.78247   -101.2 1.075e+04 2.404e-10
 47.80322   -100.3 1.077e+04 2.467e-10
 47.83170    -98.6 1.087e+04 2.951e-10
 47.87319    -97.0 1.099e+04 3.580e-10
 47.90332    -95.4 1.113e+04 4.300e-10
 47.92407    -94.5 1.113e+04 4.013e-10
 47.95618    -93.1 1.124e+04 4.602e-10
 47.99767    -91.7 1.132e+04 4.985e-10
 48.02418    -90.5 1.133e+04 5.085e-10
 48.04492    -89.7 1.130e+04 4.464e-10
 48.08066    -88.5 1.132e+04 4.537e-10
 48.12215    -87.2 1.129e+04 4.384e-10
 48.14503    -85.9 1.120e+04 4.069e-10
 48.16578    -85.4 1.126e+04 4.100e-10
 48.20514    -83.9 1.116e+04 3.968e-10
 48.24514    -82.3 1.107e+04 3.710e-10
 48.26588    -81.8 1.110e+04 3.733e-10
 48.28813    -80.2 1.100e+04 3.360e-10
 48.31238    -78.6 1.091e+04 2.933e-10
 48.33312    -78.4 1.093e+04 2.951e-10
 48.36599    -77.0 1.084e+04 2.505e-10
 48.38674    -76.6 1.086e+04 2.369e-10
 48.41261    -75.2 1.080e+04 2.124e-10
 48.45410    -73.8 1.077e+04 2.066e-10
 48.48684    -72.3 1.077e+04 2.076e-10
 48.50759    -71.9 1.080e+04 1.936e-10
 48.53709    -70.4 1.079e+04 1.992e-10
 48.57858    -69.0 1.077e+04 2.050e-10
 48.60770    -67.5 1.075e+04 2.065e-10
 48.62844    -66.8 1.074e+04 1.825e-10
 48.66157    -65.3 1.070e+04 1.757e-10
 48.70306    -63.8 1.068e+04 1.750e-10
 48.72855    -62.4 1.066e+04 1.876e-10
 48.74930    -61.4 1.063e+04 1.528e-10
 48.78605    -60.0 1.064e+04 1.820e-10
 48.82754    -58.5 1.066e+04 2.187e-10
 48.84940    -56.9 1.068e+04 2.343e-10
 48.87015    -56.3 1.069e+04 2.588e-10
 48.91053    -54.9 1.076e+04 2.817e-10
 48.94951    -53.8 1.081e+04 2.839e-10
 48.97026    -53.3 1.098e+04 4.093e-10
 48.99351    -52.7 1.103e+04 4.194e-10
 49.03501    -52.4 1.119e+04 4.370e-10
 49.06178    -52.1 1.133e+04 5.281e-10
 49.07639    -52.3 1.123e+04 5.071e-10
 49.09111    -51.5 1.124e+04 5.311e-10
 49.11799    -51.2 1.124e+04 5.330e-10
 49.15949    -50.8 1.118e+04 4.887e-10
 49.19122    -50.3 1.105e+04 4.088e-10
 49.21196    -49.8 1.098e+04 3.932e-10
 49.24247    -49.3 1.086e+04 3.278e-10
 49.28397    -48.9 1.086e+04 3.118e-10
 49.31207    -48.8 1.109e+04 3.627e-10
 49.33282    -47.9 1.103e+04 3.293e-10
 49.36695    -47.8 1.129e+04 5.000e-10
 49.40845    -47.2 1.143e+04 8.029e-10
 49.43293    -46.6 1.159e+04 1.065e-09
 49.45367    -45.9 1.146e+04 8.591e-10
 49.49143    -45.6 1.153e+04 1.027e-09
 49.53293    -45.3 1.163e+04 1.180e-09
 49.57442    -43.8 1.155e+04 1.224e-09
 49.61591    -42.9 1.163e+04 1.300e-09
 49.65389    -41.7 1.148e+04 1.223e-09
 49.67463    -40.4 1.127e+04 1.005e-09
 49.69890    -39.1 1.113e+04 7.889e-10
 49.74039    -37.9 1.101e+04 6.447e-10
 49.77474    -36.4 1.090e+04 5.883e-10
 49.79549    -35.3 1.093e+04 4.938e-10
 49.81119    -33.8 1.087e+04 5.126e-10
 49.83194    -33.4 1.095e+04 6.094e-10
 49.86487    -32.0 1.087e+04 5.599e-10
 49.89559    -30.7 1.088e+04 4.966e-10
 49.91634    -29.9 1.093e+04 4.897e-10
 49.94786    -29.1 1.100e+04 4.419e-10
 49.98935    -28.7 1.095e+04 4.210e-10
 50.01645    -28.1 1.087e+04 4.176e-10
 50.03719    -27.5 1.086e+04 5.064e-10
 50.07234    -26.5 1.067e+04 4.644e-10
 50.11383    -25.4 1.051e+04 3.770e-10
 50.13730    -24.1 1.043e+04 2.713e-10
 50.15805    -23.1 1.035e+04 3.017e-10
 50.19682    -21.7 1.026e+04 2.035e-10
 50.23741    -20.5 1.023e+04 1.333e-10
 50.25815    -19.2 1.025e+04 1.349e-10
 50.27981    -18.0 1.034e+04 8.917e-11
 50.32130    -16.9 1.032e+04 7.135e-11
 50.35826    -15.6 1.030e+04 6.634e-11
 50.37901    -14.5 1.029e+04 6.477e-11
 50.40429    -13.0 1.029e+04 6.421e-11
 50.44578    -11.5 1.027e+04 6.734e-11
 50.47911    -10.0 1.025e+04 7.352e-11
 50.49986     -9.0 1.036e+04 8.032e-11
 50.52877     -7.9 1.059e+04 9.445e-11
 50.56060     -7.3 1.070e+04 1.337e-10
 50.58134     -6.3 1.041e+04 1.139e-10
 50.59997     -5.6 1.054e+04 1.787e-10
 50.62071     -5.2 1.066e+04 2.838e-10
 50.65325     -3.5 1.079e+04 5.556e-10
 50.69474     -1.8 1.115e+04 8.001e-10
 50.72082     -0.9 1.132e+04 8.655e-10
 50.74157      0.4 1.151e+04 1.408e-09
 50.77773      1.6 1.144e+04 1.066e-09
 50.81922      2.4 1.109e+04 7.753e-10
 50.84167      3.7 1.082e+04 5.351e-10
 50.86242      4.9 1.082e+04 5.007e-10
 50.90221      5.8 1.080e+04 3.312e-10
 50.94178      6.2 1.073e+04 2.687e-10
 50.96253      7.8 1.067e+04 2.587e-10
 50.98519      8.9 1.054e+04 2.595e-10
 51.02669     10.2 1.048e+04 2.794e-10
 51.06263     11.5 1.066e+04 2.643e-10
 51.08338     13.1 1.048e+04 2.478e-10
 51.10967     14.1 1.059e+04 2.404e-10
 51.15117     14.8 1.072e+04 2.456e-10
 51.18349     15.2 1.077e+04 2.856e-10
 51.20423     17.3 1.078e+04 2.777e-10
 51.23415     18.1 1.081e+04 3.331e-10
 51.27565     18.9 1.095e+04 4.280e-10
 51.30434     19.7 1.095e+04 6.212e-10
 51.31795     21.3 1.103e+04 5.629e-10
 51.33075     21.7 1.102e+04 6.467e-10
 51.35863     22.7 1.123e+04 9.159e-10
 51.40013     23.4 1.179e+04 1.177e-09
 51.42510     22.8 1.214e+04 1.673e-09
 51.44584     24.9 1.249e+04 1.917e-09
 51.47264     24.5 1.270e+04 2.629e-09
 51.48543     24.9 1.283e+04 2.915e-09
 51.49580     25.2 1.296e+04 2.945e-09
 51.51404     25.3 1.308e+04 3.319e-09
 51.53479     25.9 1.299e+04 3.321e-09
 51.54585     25.9 1.308e+04 3.338e-09
 51.55623     26.7 1.307e+04 3.087e-09
 51.57628     26.7 1.311e+04 3.036e-09
 51.59591     26.1 1.315e+04 2.975e-09
 51.60628     26.8 1.310e+04 2.727e-09
 51.61777     26.8 1.299e+04 2.557e-09
 51.63852     27.0 1.260e+04 2.373e-09
 51.65633     27.1 1.221e+04 1.902e-09
 51.66671     27.5 1.262e+04 1.967e-09
 51.68001     26.7 1.232e+04 2.055e-09
 51.69488     26.4 1.246e+04 1.913e-09
 51.70526     26.9 1.269e+04 2.150e-09
 51.71676     25.6 1.284e+04 2.201e-09
 51.72713     26.5 1.293e+04 2.538e-09
 51.74225     26.5 1.266e+04 2.842e-09
 51.76300     26.7 1.274e+04 2.536e-09
 51.77719     27.0 1.248e+04 2.240e-09
 51.78756     27.7 1.255e+04 2.321e-09
 51.80449     28.6 1.182e+04 1.556e-09
 51.82524     29.7 1.149e+04 1.003e-09
 51.85646     29.2 1.158e+04 5.225e-10
 51.88786     29.3 1.125e+04 1.953e-10
 51.90861     30.3 1.124e+04 1.903e-10
 51.93954     30.4 1.091e+04 1.298e-10
 51.98103     32.0 1.058e+04 1.277e-10
 52.00872     34.2 1.059e+04 1.259e-10
 52.02946     35.5 1.042e+04 1.220e-10
 52.05941     37.6 1.039e+04 1.116e-10
 52.08016     37.7 1.062e+04 1.290e-10
 52.10551     39.4 1.067e+04 1.234e-10
 52.12957     40.9 1.071e+04 1.299e-10
 52.15032     42.2 1.052e+04 1.192e-10
 52.18850     43.5 1.061e+04 1.412e-10
 52.22968     44.8 1.064e+04 2.070e-10
 52.25042     46.1 1.053e+04 1.850e-10
 52.27149     47.6 1.059e+04 2.954e-10
 52.31298     49.3 1.069e+04 4.593e-10
 52.35053     50.9 1.084e+04 5.959e-10
 52.37128     52.1 1.073e+04 5.399e-10
 52.39597     53.4 1.079e+04 5.682e-10
 52.43746     54.8 1.071e+04 5.118e-10
 52.47138     56.1 1.053e+04 4.155e-10
 52.49213     57.1 1.055e+04 4.523e-10
 52.52045     58.4 1.041e+04 3.731e-10
 52.56194     59.6 1.029e+04 3.115e-10
 52.59224     60.8 1.017e+04 2.854e-10
 52.61298     61.9 1.021e+04 2.950e-10
 52.64493     63.1 1.011e+04 2.853e-10
 52.68642     64.3 1.013e+04 2.944e-10
 52.71309     65.5 1.022e+04 3.302e-10
 52.73384     66.5 1.012e+04 2.997e-10
 52.76941     67.4 1.022e+04 3.434e-10
 52.80882     68.3 1.032e+04 4.087e-10
 52.82956     68.5 1.033e+04 4.274e-10
 52.83394     69.5 1.034e+04 4.211e-10
 52.85469     70.3 1.036e+04 4.603e-10
 52.89389     71.1 1.037e+04 4.560e-10
 52.93405     71.7 1.036e+04 4.360e-10
 52.95480     72.3 1.046e+04 5.391e-10
 52.97687     72.8 1.045e+04 5.283e-10
 53.01837     73.0 1.048e+04 5.410e-10
 53.05490     73.3 1.053e+04 5.848e-10
 53.07565     73.5 1.067e+04 7.049e-10
 53.10135     73.8 1.063e+04 6.896e-10
 53.14285     74.2 1.049e+04 6.188e-10
 53.17576     74.6 1.031e+04 5.057e-10
 53.19650     74.6 1.028e+04 5.026e-10
 53.22583     75.1 1.013e+04 4.192e-10
 53.26733     75.7 9.991e+03 3.715e-10
 53.29661     76.7 9.853e+03 3.351e-10
 53.31736     77.0 9.839e+03 3.668e-10
 53.35031     78.4 9.673e+03 2.896e-10
 53.39181     79.6 9.527e+03 2.001e-10
 53.41746     80.5 9.399e+03 1.312e-10
 53.43821     81.1 9.375e+03 1.293e-10
 53.47479     81.9 9.211e+03 1.068e-10
 53.51629     83.2 9.197e+03 1.078e-10
 53.53832     84.4 9.234e+03 1.163e-10
 53.55906     85.4 9.169e+03 1.131e-10
 53.57897     86.7 9.276e+03 1.368e-10
 53.59972     86.5 9.257e+03 1.288e-10
 53.63842     87.8 9.442e+03 1.709e-10
 53.65917     89.1 9.357e+03 1.638e-10
 53.68226     90.7 9.525e+03 2.151e-10
 53.72375     92.4 9.685e+03 2.629e-10
 53.75928     94.1 9.891e+03 2.801e-10
 53.78002     95.5 9.810e+03 2.912e-10
 53.80674     97.1 9.881e+03 3.021e-10
 53.84823     98.9 9.932e+03 3.087e-10
 53.88013    100.6 1.000e+04 3.193e-10
 53.90088    101.8 1.008e+04 3.860e-10
 53.93122    103.6 1.020e+04 4.165e-10
 53.97271    105.3 1.034e+04 4.458e-10
 54.00098    107.0 1.045e+04 4.622e-10
 54.02173    107.7 1.049e+04 4.988e-10
 54.05570    109.3 1.049e+04 4.763e-10
 54.09719    111.0 1.045e+04 4.003e-10
 54.12184    112.6 1.039e+04 3.035e-10
 54.14258    113.1 1.036e+04 3.045e-10
 54.18018    114.4 1.028e+04 2.251e-10
 54.22167    115.7 1.023e+04 2.031e-10
 54.24269    117.0 1.027e+04 2.097e-10
 54.26344    117.4 1.024e+04 2.101e-10
 54.30466    118.4 1.051e+04 2.734e-10
 54.32837    118.9 1.091e+04 4.252e-10
 54.34577    120.1 1.081e+04 3.526e-10
 54.36355    120.8 1.077e+04 3.558e-10
 54.37718    120.2 1.097e+04 4.659e-10
 54.39782    120.2 1.113e+04 6.169e-10
 54.41340    120.5 1.136e+04 8.494e-10
 54.42378    120.8 1.136e+04 8.488e-10
 54.43932    121.1 1.163e+04 1.132e-09
 54.46006    121.4 1.190e+04 1.406e-09
 54.47383    121.6 1.225e+04 1.581e-09
 54.48420    122.0 1.218e+04 1.548e-09
 54.50156    122.0 1.222e+04 1.540e-09
 54.52230    122.2 1.226e+04 1.451e-09
 54.55352    122.8 1.233e+04 1.295e-09
 54.58451    123.1 1.215e+04 9.454e-10
 54.60525    123.8 1.203e+04 7.875e-10
 54.63661    124.5 1.173e+04 4.642e-10
 54.67810    125.5 1.153e+04 2.563e-10
 54.70536    126.5 1.144e+04 1.511e-10
 54.72611    127.2 1.133e+04 1.201e-10
 54.76109    128.5 1.105e+04 9.441e-11
 54.80258    130.2 1.098e+04 9.526e-11
 54.82621    132.2 1.094e+04 9.851e-11
 54.84696    133.1 1.083e+04 8.474e-11
 54.88557    135.3 1.085e+04 9.059e-11
 54.92632    137.4 1.088e+04 1.073e-10
 54.94707    138.6 1.083e+04 9.315e-11
 54.96855    140.7 1.089e+04 1.167e-10
 55.01005    142.9 1.096e+04 1.607e-10
 55.04717    145.2 1.106e+04 2.249e-10
 55.06792    146.3 1.104e+04 2.007e-10
 55.07778    148.6 1.117e+04 2.830e-10
 55.09853    148.8 1.111e+04 2.594e-10
 55.13453    151.0 1.124e+04 3.335e-10
 55.16803    153.1 1.136e+04 4.031e-10
 55.18877    154.2 1.137e+04 3.968e-10
 55.21751    156.1 1.148e+04 4.547e-10
 55.25901    157.9 1.155e+04 4.970e-10
 55.28888    159.6 1.159e+04 5.183e-10
 55.30963    160.6 1.160e+04 5.347e-10
 55.34199    162.2 1.165e+04 5.727e-10
 55.38349    163.7 1.163e+04 6.109e-10
 55.40973    165.2 1.160e+04 6.517e-10
 55.42001    165.5 1.169e+04 6.849e-10
 55.43516    166.0 1.170e+04 7.062e-10
 55.46638    168.2 1.180e+04 7.681e-10
 55.50797    169.7 1.181e+04 7.770e-10
 55.53059    171.1 1.177e+04 7.647e-10
 55.55133    171.8 1.186e+04 7.545e-10
 55.59095    173.2 1.187e+04 7.366e-10
 55.63069    174.7 1.186e+04 7.369e-10
 55.65144    175.4 1.191e+04 7.185e-10
 55.67394    176.9 1.203e+04 7.426e-10
 55.71543    178.2 1.214e+04 7.772e-10
 55.75155    179.6 1.226e+04 8.096e-10
 55.77229    179.8 1.229e+04 8.061e-10
 55.79842    181.3 1.241e+04 8.327e-10
 55.82225    182.1 1.240e+04 7.948e-10
 55.83017    182.1 1.238e+04 7.946e-10
 55.84784    183.0 1.221e+04 6.485e-10
 55.87240    184.7 1.211e+04 5.709e-10
 55.89315    185.2 1.216e+04 5.837e-10
 55.91243    186.1 1.211e+04 5.402e-10
 55.93263    186.6 1.208e+04 5.225e-10
 55.94301    186.8 1.215e+04 5.727e-10
 55.95382    187.7 1.213e+04 5.736e-10
 55.97457    188.6 1.211e+04 5.728e-10
 55.99306    189.5 1.211e+04 5.738e-10
 56.00343    189.6 1.231e+04 7.556e-10
 56.01606    190.5 1.234e+04 7.776e-10
 56.03681    191.3 1.236e+04 7.954e-10
 56.05349    192.1 1.235e+04 8.118e-10
 56.06386    192.3 1.270e+04 1.164e-09
 56.07830    193.0 1.267e+04 1.151e-09
 56.09905    193.8 1.260e+04 1.110e-09
 56.11391    194.6 1.250e+04 1.043e-09
 56.12429    194.8 1.286e+04 1.374e-09
 56.14054    195.6 1.268e+04 1.201e-09
 56.16129    196.4 1.252e+04 1.041e-09
 56.17434    197.2 1.238e+04 9.060e-10
 56.18471    197.3 1.257e+04 1.059e-09
 56.20170    198.1 1.241e+04 9.146e-10
 56.21207    198.6 1.228e+04 8.767e-10
 56.22353    199.5 1.218e+04 7.839e-10
 56.23477    200.4 1.209e+04 7.167e-10
 56.24514    200.5 1.220e+04 8.277e-10
 56.26502    201.4 1.210e+04 7.716e-10
 56.28482    202.4 1.201e+04 7.387e-10
 56.29519    202.4 1.215e+04 8.639e-10
 56.30652    203.5 1.207e+04 8.517e-10
 56.32726    204.7 1.207e+04 8.511e-10
 56.34525    205.8 1.210e+04 8.605e-10
 56.35562    205.9 1.231e+04 1.033e-09
 56.36876    206.9 1.239e+04 1.077e-09
 56.38950    207.8 1.250e+04 1.171e-09
 56.40567    208.7 1.264e+04 1.320e-09
 56.41605    208.7 1.310e+04 1.714e-09
 56.43100    209.6 1.330e+04 1.967e-09
 56.45174    210.4 1.351e+04 2.216e-09
 56.46610    211.1 1.368e+04 2.364e-09
 56.47647    210.9 1.420e+04 3.035e-09
 56.49324    211.4 1.419e+04 2.992e-09
 56.51398    211.8 1.409e+04 2.810e-09
 56.52653    212.2 1.385e+04 2.463e-09
 56.53690    212.1 1.416e+04 3.030e-09
 56.55548    212.6 1.384e+04 2.473e-09
 56.57622    213.0 1.341e+04 1.944e-09
 56.58677    213.4 1.291e+04 1.513e-09
 56.58713    213.7 1.301e+04 1.645e-09
 56.59733    213.7 1.337e+04 1.985e-09
 56.61772    214.1 1.290e+04 1.552e-09
 56.63701    214.4 1.240e+04 1.226e-09
 56.64738    214.6 1.290e+04 1.622e-09
 56.65921    215.0 1.245e+04 1.305e-09
 56.67996    215.4 1.197e+04 1.101e-09
 56.69743    216.0 1.156e+04 1.003e-09
 56.70781    216.3 1.219e+04 1.329e-09
 56.72145    216.9 1.185e+04 1.198e-09
 56.74220    217.4 1.161e+04 1.128e-09
 56.75786    218.1 1.158e+04 1.133e-09
 56.76823    218.3 1.197e+04 1.312e-09
 56.78369    218.8 1.178e+04 1.288e-09
 56.80444    219.4 1.182e+04 1.307e-09
 56.81829    219.9 1.196e+04 1.388e-09
 56.82866    219.9 1.187e+04 1.367e-09
 56.84593    220.4 1.196e+04 1.425e-09
 56.86668    220.9 1.219e+04 1.569e-09
 56.87871    221.4 1.252e+04 1.810e-09
 56.88909    221.4 1.224e+04 1.584e-09
 56.90817    221.9 1.261e+04 1.854e-09
 56.92877    222.3 1.304e+04 2.262e-09
 56.93914    222.2 1.308e+04 2.249e-09
 56.94966    222.5 1.354e+04 2.791e-09
 56.96148    222.7 1.402e+04 3.477e-09
 56.97185    223.4 1.370e+04 2.978e-09
 56.98919    223.6 1.424e+04 3.749e-09
 56.99957    223.0 1.487e+04 4.512e-09
 57.01190    223.3 1.554e+04 5.923e-09
 57.03265    223.8 1.608e+04 7.439e-09
 57.04962    224.4 1.648e+04 8.721e-09
 57.05999    223.8 1.723e+04 1.092e-08
 57.07414    224.5 1.724e+04 1.107e-08
 57.09489    225.3 1.711e+04 1.052e-08
 57.11005    226.2 1.680e+04 9.681e-09
 57.12042    225.7 1.671e+04 9.238e-09
 57.13638    226.9 1.627e+04 8.073e-09
 57.15713    228.2 1.573e+04 6.625e-09
 57.17047    229.4 1.515e+04 5.248e-09
 57.18085    228.8 1.489e+04 4.775e-09
 57.19862    229.9 1.433e+04 3.821e-09
 57.21937    231.1 1.376e+04 3.058e-09
 57.23090    232.3 1.322e+04 2.485e-09
 57.24127    232.0 1.308e+04 2.510e-09
 57.26086    233.4 1.264e+04 2.130e-09
 57.28095    234.9 1.226e+04 1.835e-09
 57.29133    234.9 1.221e+04 1.844e-09
 57.30236    236.3 1.187e+04 1.597e-09
 57.32310    237.8 1.155e+04 1.389e-09
 57.33618    239.4 1.125e+04 1.220e-09
 57.34408    239.9 1.206e+04 1.764e-09
 57.35175    240.1 1.188e+04 1.651e-09
 57.36460    241.6 1.164e+04 1.469e-09
 57.38534    243.0 1.142e+04 1.316e-09
 57.40181    244.3 1.121e+04 1.181e-09
 57.41218    244.4 1.100e+04 1.074e-09
 57.42684    245.8 1.079e+04 9.662e-10
 57.44758    247.2 1.058e+04 8.703e-10
 57.46223    248.6 1.039e+04 7.838e-10
 57.47261    248.7 1.022e+04 7.318e-10
 57.48908    250.1 1.005e+04 6.647e-10
 57.50982    251.5 9.887e+03 6.023e-10
 57.52266    252.9 9.742e+03 5.502e-10
 57.53303    253.2 9.717e+03 5.396e-10
 57.55132    254.2 9.632e+03 5.056e-10
 57.57206    255.9 9.534e+03 4.699e-10
 57.58309    257.0 9.456e+03 4.467e-10
 57.59346    257.1 9.475e+03 4.478e-10
 57.61356    258.8 9.387e+03 4.205e-10
 57.63314    259.9 9.326e+03 4.056e-10
 57.64351    260.3 9.309e+03 4.091e-10
 57.66552    263.1 9.364e+03 4.158e-10
 57.70711    265.9 9.287e+03 3.861e-10
 57.74382    268.8 9.246e+03 3.647e-10
 57.76456    269.8 9.193e+03 3.641e-10
 57.79010    272.7 9.230e+03 3.532e-10
 57.83159    275.6 9.258e+03 3.536e-10
 57.86467    278.7 9.369e+03 3.601e-10
 57.88542    280.0 9.163e+03 3.531e-10
 57.91458    282.9 9.294e+03 3.615e-10
 57.95607    286.0 9.466e+03 3.762e-10
 57.98552    289.1 9.670e+03 4.037e-10
 58.00627    290.5 9.372e+03 3.769e-10
 58.03906    293.7 9.614e+03 3.918e-10
 58.07008    295.5 9.605e+03 4.010e-10
 58.08558    297.1 9.601e+03 4.046e-10
 58.09596    297.6 9.571e+03 4.100e-10
 58.10618    299.2 9.597e+03 4.130e-10
 58.11655    300.0 9.538e+03 4.112e-10
 58.13222    301.4 9.548e+03 4.128e-10
 58.15297    303.1 9.630e+03 4.221e-10
 58.16661    304.6 9.805e+03 4.526e-10
 58.17698    305.6 9.626e+03 4.409e-10
 58.19446    307.0 9.796e+03 4.773e-10
 58.21521    308.1 1.004e+04 5.288e-10
 58.22703    309.1 1.034e+04 6.167e-10
 58.23741    310.4 1.017e+04 5.857e-10
 58.25670    311.4 1.046e+04 6.747e-10
 58.27709    312.4 1.081e+04 8.207e-10
 58.28746    313.6 1.064e+04 7.629e-10
 58.29820    314.6 1.100e+04 9.239e-10
 58.31894    315.6 1.143e+04 1.159e-09
 58.33751    316.7 1.193e+04 1.476e-09
 58.34789    317.8 1.168e+04 1.303e-09
 58.36044    318.7 1.220e+04 1.641e-09
 58.38118    319.5 1.273e+04 2.069e-09
 58.39794    320.0 1.322e+04 2.561e-09
 58.40832    321.0 1.294e+04 2.179e-09
 58.42268    321.4 1.343e+04 2.671e-09
 58.44342    321.7 1.393e+04 3.260e-09
 58.45837    321.8 1.447e+04 3.975e-09
 58.46486    322.5 1.423e+04 3.397e-09
 58.47066    323.7 1.403e+04 2.940e-09
 58.48492    323.4 1.479e+04 3.759e-09
 58.50566    322.2 1.544e+04 4.760e-09
 58.51880    321.5 1.577e+04 5.482e-09
 58.52917    321.7 1.567e+04 5.169e-09
 58.54192    321.1 1.590e+04 5.675e-09
 58.54891    320.5 1.619e+04 6.235e-09
 58.55410    320.7 1.621e+04 6.256e-09
 58.56262    320.0 1.662e+04 7.005e-09
 58.57299    319.2 1.704e+04 7.746e-09
 58.57912    318.3 1.747e+04 8.285e-09
 58.58431    318.2 1.791e+04 9.432e-09
 58.59374    317.1 1.846e+04 9.731e-09
 58.60411    315.9 1.862e+04 9.659e-09
 58.61449    314.2 1.962e+04 1.204e-08
 58.62486    312.6 1.965e+04 1.111e-08
 58.63436    310.9 1.938e+04 9.936e-09
 58.63955    310.8 2.049e+04 1.303e-08
 58.64561    308.8 1.999e+04 1.058e-08
 58.65273    307.2 1.932e+04 8.766e-09
 58.65792    308.2 2.036e+04 1.134e-08
 58.66458    305.8 1.974e+04 9.304e-09
 58.66976    305.6 2.094e+04 1.063e-08
 58.67673    302.9 2.000e+04 8.775e-09
 58.68965    300.2 1.923e+04 8.423e-09
 58.70008    296.2 2.040e+04 9.443e-09
 58.71313    290.3 2.023e+04 9.777e-09
 58.73388    283.9 2.024e+04 1.111e-08
 58.75013    277.6 2.052e+04 1.340e-08
 58.76050    274.5 2.022e+04 1.271e-08
 58.77537    269.0 1.986e+04 1.218e-08
 58.79612    263.7 1.935e+04 1.021e-08
 58.81056    258.6 1.837e+04 6.994e-09
 58.82093    255.6 1.644e+04 4.571e-09
 58.83499    250.1 1.433e+04 2.793e-09
 58.84536    250.5 1.442e+04 2.817e-09
 58.85836    246.0 1.295e+04 2.004e-09
 58.87098    243.1 1.257e+04 1.698e-09
 58.88136    242.8 1.280e+04 1.903e-09
 58.89985    242.0 1.275e+04 1.858e-09
 58.92060    241.4 1.263e+04 1.732e-09
 58.93141    240.9 1.235e+04 1.442e-09
 58.94178    241.1 1.241e+04 1.524e-09
 58.96209    240.7 1.194e+04 1.166e-09
 58.98146    240.3 1.149e+04 7.909e-10
 58.99184    240.3 1.140e+04 8.220e-10
 59.00358    239.9 1.103e+04 6.212e-10
 59.02433    239.7 1.079e+04 4.790e-10
 59.04189    239.5 1.074e+04 4.309e-10
 59.05226    239.5 1.060e+04 4.420e-10
 59.06582    239.8 1.072e+04 4.187e-10
 59.08657    240.0 1.073e+04 4.182e-10
 59.10232    240.9 1.074e+04 4.215e-10
 59.11269    240.9 1.067e+04 4.336e-10
 59.12806    241.5 1.070e+04 4.421e-10
 59.14881    242.5 1.069e+04 4.686e-10
 59.16274    243.6 1.069e+04 5.281e-10
 59.17312    243.8 1.070e+04 5.532e-10
 59.19030    244.8 1.088e+04 6.170e-10
 59.20969    245.7 1.101e+04 6.848e-10
 59.22007    245.4 1.100e+04 7.494e-10
 59.22317    246.2 1.114e+04 8.100e-10
 59.23354    246.0 1.130e+04 7.903e-10
 59.25254    246.7 1.141e+04 8.430e-10
 59.27322    247.5 1.155e+04 8.956e-10
 59.29397    247.7 1.177e+04 9.375e-10
 59.31478    248.2 1.192e+04 1.015e-09
 59.33365    248.7 1.208e+04 1.119e-09
 59.34402    248.1 1.223e+04 1.153e-09
 59.35628    248.4 1.251e+04 1.340e-09
 59.37702    248.6 1.289e+04 1.630e-09
 59.39408    248.7 1.340e+04 2.084e-09
 59.40445    246.9 1.447e+04 2.804e-09
 59.41852    246.8 1.522e+04 3.817e-09
 59.43926    246.8 1.589e+04 5.052e-09
 59.45450    246.9 1.640e+04 6.341e-09
 59.46488    245.2 1.778e+04 9.260e-09
 59.48076    245.6 1.784e+04 9.706e-09
 59.50150    246.2 1.782e+04 9.510e-09
 59.51493    246.8 1.763e+04 8.618e-09
 59.52530    245.0 1.778e+04 7.956e-09
 59.54300    245.7 1.736e+04 6.419e-09
 59.56374    246.4 1.693e+04 5.114e-09
 59.57536    247.0 1.657e+04 4.128e-09
 59.58564    244.6 1.599e+04 2.347e-09
 59.60514    243.9 1.574e+04 2.041e-09
 59.62541    244.5 1.551e+04 1.876e-09
 59.63578    241.3 1.359e+04 1.061e-09
 59.64673    242.0 1.333e+04 1.061e-09
 59.66748    242.8 1.319e+04 1.067e-09
 59.68584    243.5 1.300e+04 1.083e-09
 59.69621    241.8 1.211e+04 9.140e-10
 59.70897    242.7 1.219e+04 9.760e-10
 59.72972    243.5 1.228e+04 1.040e-09
 59.74626    244.3 1.238e+04 1.101e-09
 59.75664    244.1 1.232e+04 9.980e-10
 59.77121    245.0 1.240e+04 1.046e-09
 59.79196    245.9 1.245e+04 1.087e-09
 59.80669    246.8 1.249e+04 1.119e-09
 59.81706    246.7 1.240e+04 9.919e-10
 59.83345    247.6 1.241e+04 1.040e-09
 59.85420    248.6 1.243e+04 1.081e-09
 59.86712    249.6 1.245e+04 1.119e-09
 59.87749    249.6 1.232e+04 1.015e-09
 59.89569    250.7 1.236e+04 1.072e-09
 59.91644    251.8 1.242e+04 1.139e-09
 59.92754    253.0 1.253e+04 1.210e-09
 59.93792    253.0 1.248e+04 1.107e-09
 59.95793    254.2 1.264e+04 1.241e-09
 59.96947    255.5 1.291e+04 1.412e-09
 59.97877    256.0 1.273e+04 1.380e-09
 59.98797    255.9 1.286e+04 1.396e-09
 59.99942    257.3 1.316e+04 1.623e-09
 60.02017    258.6 1.357e+04 1.944e-09
 60.03802    259.7 1.407e+04 2.397e-09
 60.04840    259.4 1.426e+04 2.470e-09
 60.06166    260.7 1.477e+04 3.121e-09
 60.08241    262.3 1.544e+04 3.985e-09
 60.09845    263.6 1.608e+04 4.924e-09
 60.10882    263.4 1.596e+04 4.816e-09
 60.12390    264.2 1.630e+04 5.302e-09
 60.13941    264.6 1.634e+04 5.264e-09
 60.14974    264.9 1.644e+04 5.379e-09
 60.15673    265.5 1.663e+04 5.598e-09
 60.16058    266.0 1.726e+04 6.939e-09
 60.16397    266.0 1.670e+04 5.237e-09
 60.17049    266.7 1.707e+04 5.749e-09
 60.18086    267.4 1.740e+04 6.230e-09
 60.18899    268.1 1.766e+04 6.691e-09
 60.19418    267.8 1.711e+04 4.830e-09
 60.20161    268.4 1.741e+04 4.947e-09
 60.21198    269.1 1.779e+04 5.147e-09
 60.21921    269.8 1.821e+04 5.462e-09
 60.22963    269.4 1.728e+04 3.579e-09
 60.24838    270.3 1.781e+04 3.842e-09
 60.26913    270.9 1.808e+04 4.146e-09
 60.27973    271.5 1.815e+04 4.496e-09
 60.29010    270.6 1.682e+04 2.691e-09
 60.31062    271.3 1.661e+04 2.596e-09
 60.32978    272.3 1.615e+04 2.414e-09
 60.34016    271.7 1.464e+04 2.008e-09
 60.34418    272.9 1.457e+04 2.137e-09
 60.35455    273.3 1.666e+04 3.559e-09
 60.37286    274.6 1.659e+04 3.744e-09
 60.39021    275.7 1.647e+04 3.836e-09
 60.40058    275.1 1.578e+04 3.928e-09
 60.41436    276.0 1.590e+04 4.341e-09
 60.42556    277.1 1.606e+04 4.421e-09
 60.43070    276.9 1.581e+04 4.554e-09
 60.44019    277.3 1.598e+04 4.819e-09
 60.45054    277.9 1.623e+04 5.164e-09
 60.46091    278.3 1.630e+04 5.988e-09
 60.47131    278.9 1.673e+04 6.877e-09
 60.48075    279.6 1.722e+04 8.064e-09
 60.48594    279.7 1.715e+04 8.106e-09
 60.49206    280.3 1.766e+04 9.704e-09
 60.50243    280.9 1.812e+04 1.155e-08
 60.51097    281.4 1.853e+04 1.354e-08
 60.51615    281.4 1.844e+04 1.300e-08
 60.52318    282.2 1.881e+04 1.504e-08
 60.53143    282.9 1.918e+04 1.724e-08
 60.53662    282.9 1.992e+04 2.168e-08
 60.54118    283.4 2.025e+04 2.439e-08
 60.54637    283.2 1.991e+04 1.972e-08
 60.55430    283.8 2.018e+04 2.156e-08
 60.56467    284.4 2.045e+04 2.335e-08
 60.57139    285.0 2.076e+04 2.521e-08
 60.57658    284.2 2.071e+04 1.654e-08
 60.58542    284.5 2.119e+04 1.746e-08
 60.59579    284.7 2.173e+04 1.830e-08
 60.60161    284.7 2.236e+04 1.910e-08
 60.60679    281.9 2.211e+04 9.935e-09
 60.61654    281.2 2.282e+04 9.922e-09
 60.62663    280.1 2.359e+04 9.879e-09
 60.63182    274.6 2.034e+04 5.312e-09
 60.63729    272.5 2.057e+04 5.336e-09
 60.64766    269.8 2.080e+04 5.575e-09
 60.65685    266.4 2.088e+04 6.191e-09
 60.66203    261.9 1.662e+04 5.083e-09
 60.66841    258.5 1.723e+04 6.052e-09
 60.67878    255.2 1.790e+04 7.480e-09
 60.68706    252.1 1.831e+04 9.472e-09
 60.69225    251.0 1.791e+04 8.672e-09
 60.69953    248.5 1.827e+04 1.068e-08
 60.70990    246.2 1.854e+04 1.243e-08
 60.71727    244.0 1.890e+04 1.335e-08
 60.72097    243.2 1.856e+04 1.196e-08
 60.72397    244.4 1.847e+04 1.224e-08
 60.73065    242.3 1.892e+04 1.353e-08
 60.74102    240.2 1.909e+04 1.343e-08
 60.74749    238.0 1.914e+04 1.302e-08
 60.75267    238.2 1.815e+04 1.033e-08
 60.76177    236.2 1.808e+04 9.939e-09
 60.77214    234.8 1.796e+04 9.420e-09
 60.78775    232.6 1.826e+04 9.258e-09
 60.80282    229.0 1.898e+04 8.563e-09
 60.81320    231.6 1.689e+04 6.683e-09
 60.82929    228.7 1.679e+04 5.921e-09
 60.85004    225.8 1.686e+04 5.463e-09
 60.86325    223.6 1.694e+04 5.144e-09
 60.87362    225.7 1.553e+04 4.566e-09
 60.89153    224.2 1.543e+04 4.282e-09
 60.91228    223.1 1.508e+04 3.615e-09
 60.92368    222.6 1.451e+04 2.613e-09
 60.93405    224.4 1.438e+04 2.821e-09
 60.95377    224.0 1.367e+04 1.849e-09
 60.98499    224.9 1.286e+04 1.061e-09
 61.02398    224.7 1.142e+04 4.422e-10
 61.04473    227.6 1.141e+04 5.694e-10
 61.06807    227.4 9.764e+03 2.168e-10
 61.09378    227.6 8.348e+03 1.058e-10
 61.11453    226.9 8.386e+03 1.104e-10
 61.14483    228.3 8.325e+03 1.141e-10
 61.16558    230.6 7.999e+03 8.254e-11
 61.19255    232.0 7.945e+03 8.324e-11
 61.23405    234.1 7.914e+03 8.740e-11
 61.26569    236.7 7.950e+03 9.498e-11
 61.28643    238.2 7.792e+03 7.796e-11
 61.31703    240.8 7.818e+03 8.392e-11
 61.35853    243.3 7.890e+03 9.190e-11
 61.38654    245.8 7.963e+03 9.934e-11
 61.40729    247.2 7.850e+03 8.839e-11
 61.44151    249.5 7.928e+03 9.641e-11
 61.48301    251.8 7.998e+03 1.037e-10
 61.50739    254.0 8.061e+03 1.106e-10
 61.52814    255.3 8.016e+03 1.061e-10
 61.56599    257.4 8.094e+03 1.153e-10
 61.60749    259.6 8.188e+03 1.264e-10
 61.64898    262.8 8.237e+03 1.336e-10
 61.69047    264.9 8.354e+03 1.500e-10
 61.72835    267.0 8.489e+03 1.700e-10
 61.74910    267.9 8.392e+03 1.550e-10
 61.77346    269.9 8.534e+03 1.749e-10
 61.81495    271.8 8.701e+03 1.987e-10
 61.84319    273.7 8.902e+03 2.285e-10
 61.85669    273.0 8.982e+03 2.431e-10
 61.86995    273.5 8.796e+03 2.050e-10
 61.89794    275.2 9.168e+03 2.617e-10
 61.93943    276.6 9.620e+03 3.433e-10
 61.97006    277.4 9.988e+03 4.255e-10
 61.99081    278.2 9.777e+03 3.785e-10
 62.02242    279.2 1.007e+04 4.546e-10
 62.06391    279.9 1.032e+04 5.219e-10
 62.09092    280.7 1.046e+04 5.641e-10
 62.11166    281.5 1.015e+04 4.716e-10
 62.14690    282.5 1.025e+04 4.972e-10
 62.18839    283.6 1.043e+04 5.518e-10
 62.21177    284.7 1.082e+04 6.847e-10
 62.23252    284.9 1.071e+04 6.208e-10
 62.27138    285.1 1.139e+04 8.951e-10
 62.31188    285.3 1.200e+04 1.238e-09
 62.33262    285.1 1.199e+04 1.214e-09
 62.35437    284.2 1.263e+04 1.621e-09
 62.39586    281.4 1.288e+04 1.672e-09
 62.43273    277.2 1.271e+04 1.446e-09
 62.45338    274.7 1.251e+04 1.389e-09
 62.47875    271.9 1.232e+04 1.218e-09
 62.50343    269.1 1.202e+04 1.121e-09
 62.51371    268.9 1.206e+04 1.127e-09
 62.53052    267.1 1.202e+04 1.118e-09
 62.55126    265.5 1.205e+04 1.136e-09
 62.56376    263.4 1.244e+04 1.307e-09
 62.57413    263.1 1.233e+04 1.218e-09
 62.59240    260.8 1.325e+04 1.607e-09
 62.60277    261.3 1.214e+04 1.123e-09
 62.61350    259.7 1.292e+04 1.429e-09
 62.62419    257.8 1.376e+04 1.937e-09
 62.63456    257.4 1.317e+04 1.485e-09
 62.65500    255.6 1.369e+04 1.851e-09
 62.67424    253.8 1.392e+04 2.232e-09
 62.68461    253.7 1.338e+04 1.734e-09
 62.69649    252.5 1.352e+04 1.973e-09
 62.71724    251.9 1.338e+04 2.027e-09
 62.73467    251.6 1.327e+04 2.022e-09
 62.74504    251.9 1.306e+04 1.745e-09
 62.76920    251.9 1.287e+04 1.635e-09
 62.79519    251.3 1.278e+04 1.540e-09
 62.81594    251.6 1.237e+04 1.178e-09
 62.84181    251.1 1.234e+04 1.201e-09
 62.85552    251.2 1.227e+04 1.235e-09
 62.86589    251.2 1.202e+04 1.050e-09
 62.88321    251.4 1.197e+04 1.053e-09
 62.90396    251.9 1.195e+04 1.066e-09
 62.91595    252.5 1.198e+04 1.110e-09
 62.92632    252.3 1.175e+04 9.297e-10
 62.94545    252.8 1.186e+04 1.002e-09
 62.96600    253.3 1.202e+04 1.109e-09
 62.97637    253.1 1.181e+04 9.523e-10
 62.97747    253.5 1.199e+04 1.074e-09
 62.98785    254.0 1.184e+04 9.293e-10
 63.00769    254.3 1.203e+04 1.067e-09
 63.02643    254.6 1.216e+04 1.214e-09
 63.03680    254.4 1.189e+04 1.056e-09
 63.04918    254.8 1.201e+04 1.173e-09
 63.06993    255.2 1.201e+04 1.256e-09
 63.08685    255.6 1.200e+04 1.323e-09
 63.09723    255.6 1.173e+04 1.124e-09
 63.11142    256.1 1.167e+04 1.113e-09
 63.13217    256.8 1.156e+04 1.067e-09
 63.14728    257.5 1.143e+04 9.898e-10
 63.15765    257.6 1.113e+04 7.887e-10
 63.17366    258.3 1.101e+04 7.158e-10
 63.19441    258.9 1.089e+04 6.508e-10
 63.20771    259.6 1.078e+04 6.037e-10
 63.21808    259.5 1.050e+04 4.979e-10
 63.23590    260.3 1.050e+04 4.978e-10
 63.25665    261.0 1.051e+04 5.061e-10
 63.26813    261.6 1.057e+04 5.364e-10
 63.27851    261.6 1.037e+04 4.686e-10
 63.29814    262.4 1.054e+04 5.322e-10
 63.31819    263.1 1.075e+04 6.222e-10
 63.32856    263.1 1.058e+04 5.401e-10
 63.33964    263.8 1.085e+04 6.328e-10
 63.35218    264.4 1.111e+04 7.361e-10
 63.36255    264.9 1.140e+04 8.477e-10
 63.37861    265.4 1.162e+04 9.467e-10
 63.38899    265.1 1.131e+04 7.500e-10
 63.40188    265.4 1.146e+04 7.930e-10
 63.42262    265.6 1.153e+04 8.170e-10
 63.43904    265.8 1.155e+04 8.267e-10
 63.44941    265.1 1.110e+04 6.760e-10
 63.46412    265.0 1.103e+04 6.757e-10
 63.48486    265.1 1.095e+04 6.817e-10
 63.49947    265.2 1.092e+04 6.898e-10
 63.50984    264.8 1.062e+04 6.151e-10
 63.52636    265.0 1.058e+04 6.293e-10
 63.54710    265.3 1.057e+04 6.522e-10
 63.55990    265.6 1.059e+04 6.827e-10
 63.57027    265.3 1.044e+04 6.235e-10
 63.58860    265.7 1.046e+04 6.541e-10
 63.60934    266.2 1.052e+04 6.992e-10
 63.62032    266.7 1.067e+04 7.734e-10
 63.63070    266.5 1.050e+04 6.705e-10
 63.65084    266.9 1.070e+04 7.659e-10
 63.67038    267.0 1.103e+04 9.123e-10
 63.68075    267.0 1.075e+04 7.447e-10
 63.69233    267.0 1.109e+04 9.050e-10
 63.71308    266.9 1.158e+04 1.152e-09
 63.72688    266.7 1.228e+04 1.539e-09
 63.73423    266.5 1.220e+04 1.499e-09
 63.74118    266.5 1.147e+04 1.085e-09
 63.75457    266.3 1.216e+04 1.484e-09
 63.77532    265.9 1.287e+04 2.011e-09
 63.79123    265.4 1.360e+04 2.645e-09
 63.80160    265.2 1.264e+04 1.891e-09
 63.81681    264.3 1.321e+04 2.348e-09
 63.83756    262.9 1.383e+04 2.817e-09
 63.85166    261.3 1.457e+04 3.340e-09
 63.86203    261.0 1.333e+04 2.430e-09
 63.87905    259.1 1.387e+04 2.793e-09
 63.89980    256.9 1.462e+04 3.327e-09
 63.91208    254.4 1.551e+04 4.115e-09
 63.92246    254.4 1.391e+04 2.947e-09
 63.94129    251.9 1.455e+04 3.522e-09
 63.96204    249.4 1.508e+04 4.031e-09
 63.97251    246.8 1.529e+04 4.156e-09
 63.98288    247.3 1.435e+04 3.341e-09
 64.00353    245.0 1.435e+04 3.297e-09
 64.02256    242.6 1.425e+04 3.082e-09
 64.03294    243.2 1.378e+04 2.698e-09
 64.04502    241.0 1.355e+04 2.428e-09
 64.06577    238.7 1.333e+04 2.244e-09
 64.08299    236.4 1.332e+04 2.243e-09
 64.09336    237.3 1.314e+04 2.100e-09
 64.10158    235.0 1.333e+04 2.225e-09
 64.11196    235.3 1.342e+04 2.332e-09
 64.12801    233.1 1.402e+04 2.863e-09
 64.14342    231.1 1.467e+04 3.622e-09
 64.15379    231.6 1.458e+04 3.450e-09
 64.16950    229.3 1.515e+04 4.158e-09
 64.19025    226.8 1.544e+04 4.337e-09
 64.20384    224.2 1.544e+04 4.298e-09
 64.21422    224.0 1.517e+04 3.910e-09
 64.23174    221.3 1.503e+04 3.683e-09
 64.25249    218.8 1.465e+04 3.218e-09
 64.26427    216.7 1.410e+04 2.685e-09
 64.27464    216.5 1.350e+04 2.176e-09
 64.29398    214.9 1.296e+04 1.812e-09
 64.31432    213.6 1.252e+04 1.539e-09
 64.32470    213.5 1.194e+04 1.185e-09
 64.33548    212.6 1.166e+04 1.040e-09
 64.35622    211.9 1.143e+04 9.266e-10
 64.37475    211.3 1.122e+04 8.334e-10
 64.38512    211.3 1.076e+04 6.501e-10
 64.39772    210.8 1.057e+04 5.909e-10
 64.41846    210.4 1.039e+04 5.373e-10
 64.43518    210.1 1.021e+04 4.834e-10
 64.44555    210.1 9.995e+03 4.310e-10
 64.45996    209.9 9.883e+03 4.072e-10
 64.47629    209.6 9.797e+03 3.861e-10
 64.48666    210.2 9.811e+03 3.932e-10
 64.49560    210.0 9.759e+03 3.725e-10
 64.50598    210.3 9.772e+03 3.818e-10
 64.52220    210.2 9.750e+03 3.696e-10
 64.54294    210.1 9.753e+03 3.675e-10
 64.55603    209.9 9.783e+03 3.721e-10
 64.56640    209.9 1.001e+04 4.426e-10
 64.58444    209.6 1.018e+04 4.827e-10
 64.60518    209.3 1.044e+04 5.519e-10
 64.61646    208.9 1.080e+04 6.585e-10
 64.62683    208.3 1.147e+04 9.025e-10
 64.64668    207.6 1.201e+04 1.125e-09
 64.66651    206.6 1.265e+04 1.436e-09
 64.67688    205.4 1.340e+04 2.023e-09
 64.68817    204.2 1.396e+04 2.514e-09
 64.70892    203.0 1.451e+04 3.214e-09
 64.72694    202.1 1.494e+04 4.015e-09
 64.73731    201.2 1.506e+04 4.263e-09
 64.75041    200.3 1.536e+04 4.591e-09
 64.77116    199.1 1.569e+04 4.632e-09
 64.78736    197.2 1.582e+04 4.525e-09
 64.79774    195.1 1.559e+04 3.578e-09
 64.81265    191.7 1.572e+04 3.566e-09
 64.83340    187.8 1.591e+04 3.781e-09
 64.84779    183.8 1.620e+04 4.550e-09
 64.85501    181.1 1.628e+04 5.262e-09
 64.86136    181.7 1.645e+04 5.190e-09
 64.87489    178.3 1.698e+04 6.725e-09
 64.89564    174.9 1.765e+04 8.288e-09
 64.90822    171.2 1.820e+04 8.816e-09
 64.91859    169.9 1.801e+04 8.451e-09
 64.93713    165.6 1.804e+04 7.343e-09
 64.95788    160.5 1.763e+04 5.418e-09
 64.96864    155.0 1.649e+04 3.455e-09
 64.97902    153.1 1.544e+04 2.555e-09
 64.99937    148.1 1.368e+04 1.627e-09
 65.01870    144.2 1.229e+04 1.057e-09
 65.02907    143.6 1.207e+04 1.045e-09
 65.04086    141.2 1.165e+04 7.954e-10
 65.06161    139.1 1.145e+04 6.646e-10
 65.07912    137.3 1.140e+04 6.488e-10
 65.08950    137.6 1.162e+04 7.215e-10
 65.10310    135.9 1.169e+04 7.326e-10
 65.12385    133.9 1.210e+04 8.121e-10
 65.13955    131.3 1.298e+04 1.097e-09
 65.14992    131.2 1.302e+04 1.144e-09
 65.16534    128.5 1.381e+04 1.688e-09
 65.18609    126.4 1.443e+04 2.510e-09
 65.19998    125.0 1.487e+04 3.428e-09
 65.21035    125.4 1.478e+04 3.375e-09
 65.22569    124.5 1.472e+04 3.568e-09
 65.23607    125.2 1.513e+04 4.135e-09
 65.24833    124.2 1.507e+04 4.044e-09
 65.26040    123.5 1.470e+04 3.409e-09
 65.27078    123.9 1.432e+04 2.852e-09
 65.28982    123.0 1.353e+04 1.812e-09
 65.31046    121.3 1.243e+04 9.591e-10
 65.32083    120.9 1.198e+04 7.680e-10
 65.33132    118.1 1.066e+04 4.013e-10
 65.35206    115.7 9.750e+03 2.661e-10
 65.37098    114.4 9.643e+03 2.480e-10
 65.39183    115.2 9.715e+03 2.721e-10
 65.42487    115.1 9.736e+03 2.807e-10
 65.46636    114.9 9.818e+03 3.052e-10
 65.49184    114.7 9.892e+03 3.369e-10
 65.50211    115.5 9.914e+03 3.647e-10
 65.51804    115.7 1.001e+04 4.064e-10
 65.53878    116.0 1.022e+04 4.832e-10
 65.55216    116.4 1.044e+04 5.559e-10
 65.56254    117.2 1.051e+04 5.991e-10
 65.58028    117.4 1.061e+04 6.098e-10
 65.60039    117.5 1.062e+04 6.042e-10
 65.61077    117.0 1.064e+04 6.024e-10
 65.61259    116.8 1.063e+04 5.915e-10
 65.62296    117.8 1.053e+04 5.693e-10
 65.64252    117.5 1.044e+04 5.313e-10
 65.66264    117.2 1.035e+04 5.105e-10
 65.67302    118.4 1.019e+04 4.406e-10
 65.68401    118.1 1.007e+04 4.210e-10
 65.70476    118.0 9.994e+03 4.208e-10
 65.72307    118.0 9.973e+03 4.260e-10
 65.73354    119.3 9.936e+03 3.574e-10
 65.75682    119.4 9.922e+03 3.796e-10
 65.78360    119.8 9.883e+03 4.146e-10
 65.79387    120.1 9.859e+03 3.930e-10
 65.80849    120.3 9.849e+03 4.073e-10
 65.82924    120.8 9.898e+03 4.456e-10
 65.84392    121.5 1.004e+04 5.178e-10
 65.85430    122.3 9.875e+03 4.236e-10
 65.87073    122.8 1.010e+04 5.182e-10
 65.89148    123.2 1.031e+04 6.210e-10
 65.90435    123.4 1.061e+04 7.159e-10
 65.91472    124.3 1.038e+04 6.426e-10
 65.93297    124.5 1.064e+04 7.235e-10
 65.95372    124.1 1.113e+04 8.456e-10
 65.96478    123.4 1.146e+04 9.716e-10
 65.97515    124.7 1.111e+04 8.243e-10
 65.98547    123.8 1.151e+04 9.775e-10
 65.99584    123.8 1.175e+04 1.098e-09
 66.01483    123.0 1.205e+04 1.277e-09
 66.02521    124.3 1.175e+04 1.117e-09
 66.03670    123.4 1.221e+04 1.379e-09
 66.05745    122.8 1.246e+04 1.572e-09
 66.07526    122.5 1.260e+04 1.689e-09
 66.08563    123.5 1.249e+04 1.652e-09
 66.09894    123.1 1.261e+04 1.711e-09
 66.11969    122.8 1.274e+04 1.762e-09
 66.13569    122.3 1.295e+04 1.853e-09
 66.14606    123.4 1.259e+04 1.674e-09
 66.16118    122.9 1.275e+04 1.729e-09
 66.18193    122.2 1.296e+04 1.808e-09
 66.19611    121.2 1.327e+04 1.973e-09
 66.20649    122.9 1.273e+04 1.635e-09
 66.22342    121.9 1.317e+04 1.867e-09
 66.24417    121.0 1.368e+04 2.296e-09
 66.25654    120.6 1.414e+04 2.903e-09
 66.26691    122.1 1.372e+04 2.334e-09
 66.28566    121.8 1.418e+04 2.965e-09
 66.30641    121.9 1.443e+04 3.424e-09
 66.31697    122.0 1.439e+04 3.405e-09
 66.32734    123.2 1.430e+04 3.283e-09
 66.34790    123.4 1.422e+04 3.193e-09
 66.36017    123.9 1.390e+04 2.833e-09
 66.36892    123.9 1.403e+04 2.915e-09
 66.37739    124.8 1.415e+04 3.125e-09
 66.38940    125.3 1.362e+04 2.479e-09
 66.41014    125.8 1.292e+04 1.754e-09
 66.42745    126.1 1.215e+04 1.154e-09
 66.43782    127.2 1.255e+04 1.500e-09
 66.45164    127.5 1.186e+04 1.009e-09
 66.47238    127.6 1.117e+04 6.772e-10
 66.48787    127.6 1.054e+04 4.875e-10
 66.49825    129.3 1.099e+04 6.224e-10
 66.51388    129.4 1.042e+04 4.661e-10
 66.53462    129.7 1.004e+04 4.068e-10
 66.54830    130.3 9.901e+03 4.014e-10
 66.55867    131.6 9.983e+03 4.054e-10
 66.57612    132.2 9.861e+03 4.004e-10
 66.59686    133.0 9.854e+03 4.047e-10
 66.60873    133.8 9.919e+03 4.301e-10
 66.61910    135.0 9.851e+03 4.082e-10
 66.63836    135.7 9.991e+03 4.471e-10
 66.65878    136.0 1.024e+04 5.190e-10
 66.66915    137.3 1.010e+04 4.783e-10
 66.67985    137.7 1.043e+04 5.752e-10
 66.70060    137.7 1.089e+04 7.248e-10
 66.71921    137.5 1.149e+04 9.551e-10
 66.72958    139.1 1.129e+04 8.689e-10
 66.73488    138.7 1.196e+04 1.166e-09
 66.74525    138.4 1.203e+04 1.236e-09
 66.76284    137.8 1.263e+04 1.607e-09
 66.77963    136.9 1.314e+04 1.901e-09
 66.79001    138.7 1.304e+04 1.816e-09
 66.80433    137.4 1.349e+04 2.044e-09
 66.82508    135.7 1.357e+04 2.017e-09
 66.84006    133.9 1.359e+04 1.843e-09
 66.85043    135.8 1.380e+04 2.129e-09
 66.86657    134.0 1.362e+04 1.834e-09
 66.88732    132.4 1.325e+04 1.534e-09
 66.90049    130.8 1.295e+04 1.236e-09
 66.91086    133.2 1.333e+04 1.595e-09
 66.92881    131.6 1.310e+04 1.235e-09
 66.94956    129.8 1.303e+04 1.097e-09
 66.96091    127.9 1.304e+04 1.115e-09
 66.97129    130.4 1.328e+04 1.197e-09
 66.99105    128.6 1.326e+04 1.252e-09
 67.01097    127.4 1.323e+04 1.397e-09
 67.02134    129.4 1.351e+04 1.469e-09
 67.03254    128.5 1.350e+04 1.613e-09
 67.05329    127.8 1.344e+04 1.605e-09
 67.07139    127.1 1.324e+04 1.511e-09
 67.08177    129.0 1.375e+04 1.765e-09
 67.09478    128.2 1.340e+04 1.513e-09
 67.10958    126.9 1.288e+04 1.174e-09
 67.11995    125.7 1.264e+04 1.153e-09
 67.13182    124.2 1.220e+04 8.927e-10
 67.14219    126.1 1.242e+04 9.723e-10
 67.15702    124.2 1.206e+04 8.374e-10
 67.17777    122.5 1.212e+04 8.524e-10
 67.19225    120.6 1.246e+04 9.708e-10
 67.20262    122.1 1.245e+04 9.700e-10
 67.21926    120.1 1.302e+04 1.283e-09
 67.24001    118.8 1.348e+04 1.754e-09
 67.25267    118.0 1.335e+04 2.007e-09
 67.26305    119.0 1.366e+04 2.104e-09
 67.28150    118.2 1.352e+04 2.088e-09
 67.30225    117.8 1.302e+04 1.855e-09
 67.31310    117.6 1.243e+04 1.392e-09
 67.32347    118.0 1.264e+04 1.536e-09
 67.34374    117.5 1.202e+04 1.083e-09
 67.36315    116.6 1.137e+04 7.291e-10
 67.37353    117.0 1.155e+04 8.168e-10
 67.38524    116.0 1.093e+04 5.685e-10
 67.40598    114.5 1.038e+04 4.081e-10
 67.42358    113.5 1.002e+04 3.338e-10
 67.43395    114.1 1.011e+04 3.636e-10
 67.45795    113.5 9.972e+03 3.254e-10
 67.48420    113.7 9.680e+03 2.766e-10
 67.50495    113.8 9.893e+03 3.256e-10
 67.54103    114.3 9.708e+03 2.924e-10
 67.58252    115.1 9.602e+03 2.730e-10
 67.60506    115.8 9.574e+03 2.695e-10
 67.62580    115.6 9.747e+03 3.003e-10
 67.66551    116.3 9.735e+03 2.996e-10
 67.70516    116.5 9.744e+03 3.059e-10
 67.72581    116.2 9.896e+03 3.557e-10
 67.73793    116.3 9.998e+03 3.940e-10
 67.75868    116.3 1.021e+04 4.519e-10
 67.77577    116.2 1.054e+04 5.440e-10
 67.78614    116.2 1.107e+04 7.686e-10
 67.80017    116.0 1.150e+04 9.607e-10
 67.82092    115.8 1.194e+04 1.194e-09
 67.83619    116.0 1.217e+04 1.398e-09
 67.84657    116.3 1.283e+04 1.854e-09
 67.85899    116.3 1.280e+04 1.836e-09
 67.86936    115.4 1.242e+04 1.598e-09
 67.88316    115.4 1.213e+04 1.445e-09
 67.89662    115.2 1.172e+04 1.160e-09
 67.90699    115.2 1.209e+04 1.325e-09
 67.92465    114.3 1.157e+04 9.496e-10
 67.94540    112.9 1.116e+04 7.134e-10
 67.95705    111.5 1.077e+04 6.325e-10
 67.96742    110.9 1.145e+04 8.398e-10
 67.98689    109.3 1.172e+04 9.073e-10
 68.00710    107.5 1.256e+04 1.210e-09
 68.01747    106.0 1.393e+04 1.984e-09
 68.02838    104.4 1.497e+04 3.071e-09
 68.04913    103.4 1.597e+04 4.732e-09
 68.06753    103.0 1.689e+04 6.720e-09
 68.07790    101.4 1.780e+04 7.609e-09
 68.09062     99.5 1.848e+04 8.216e-09
 68.11137     96.3 1.934e+04 9.162e-09
 68.12795     91.0 2.063e+04 1.127e-08
 68.13833     87.9 1.936e+04 8.250e-09
 68.15286     84.4 1.862e+04 8.733e-09
 68.17361     83.4 1.764e+04 7.580e-09
 68.18838     82.5 1.634e+04 5.302e-09
 68.19875     80.9 1.436e+04 3.118e-09
 68.21510     79.0 1.328e+04 2.136e-09
 68.23369     77.4 1.216e+04 1.408e-09
 68.24406     77.3 1.310e+04 1.832e-09
 68.24881     76.2 1.229e+04 1.212e-09
 68.25918     76.2 1.201e+04 9.957e-10
 68.27734     76.2 1.130e+04 7.297e-10
 68.29809     76.3 1.087e+04 5.907e-10
 68.30923     76.9 1.054e+04 4.985e-10
 68.31961     77.4 1.036e+04 4.450e-10
 68.33958     77.8 1.036e+04 4.272e-10
 68.35929     78.8 1.017e+04 4.002e-10
 68.36966     79.3 1.009e+04 3.781e-10
 68.38108     79.7 1.016e+04 3.873e-10
 68.40182     80.9 1.009e+04 3.947e-10
 68.41971     81.5 1.016e+04 4.134e-10
 68.43019     82.0 1.001e+04 3.684e-10
 68.44341     83.0 1.016e+04 4.302e-10
 68.46406     83.7 1.026e+04 4.629e-10
 68.48014     84.6 1.034e+04 5.101e-10
 68.49051     85.1 1.039e+04 5.119e-10
 68.50556     86.1 1.047e+04 5.629e-10
 68.52630     87.1 1.051e+04 6.059e-10
 68.54057     88.1 1.053e+04 6.274e-10
 68.55094     88.6 1.063e+04 6.564e-10
 68.56780     89.5 1.067e+04 6.722e-10
 68.58854     90.3 1.069e+04 6.736e-10
 68.60100     91.0 1.068e+04 6.765e-10
 68.61047     91.5 1.088e+04 7.372e-10
 68.61877     91.0 1.081e+04 7.153e-10
 68.63004     91.7 1.077e+04 6.989e-10
 68.65078     92.3 1.077e+04 6.871e-10
 68.66142     92.9 1.078e+04 6.825e-10
 68.67180     93.5 1.104e+04 7.880e-10
 68.69228     93.9 1.111e+04 8.128e-10
 68.71148     94.3 1.121e+04 8.574e-10
 68.72185     94.9 1.144e+04 9.487e-10
 68.73377     95.2 1.157e+04 1.022e-09
 68.75452     95.4 1.172e+04 1.156e-09
 68.77190     96.0 1.172e+04 1.271e-09
 68.78228     96.5 1.190e+04 1.300e-09
 68.79601     97.1 1.197e+04 1.403e-09
 68.81676     97.7 1.209e+04 1.469e-09
 68.83233     98.0 1.227e+04 1.519e-09
 68.84270     97.8 1.261e+04 1.702e-09
 68.85825     97.3 1.318e+04 1.939e-09
 68.87900     96.4 1.383e+04 2.262e-09
 68.89276     95.8 1.399e+04 2.477e-09
 68.90313     95.6 1.464e+04 3.226e-09
 68.92049     95.6 1.443e+04 3.143e-09
 68.94124     95.4 1.419e+04 2.987e-09
 68.95318     94.9 1.408e+04 2.766e-09
 68.96356     95.2 1.454e+04 3.118e-09
 68.98273     93.8 1.447e+04 2.703e-09
 68.99347     92.2 1.409e+04 2.250e-09
 69.00360     89.9 1.413e+04 2.266e-09
 69.01361     89.1 1.425e+04 2.345e-09
 69.02422     87.9 1.331e+04 1.897e-09
 69.04497     87.6 1.272e+04 1.652e-09
 69.06366     87.6 1.241e+04 1.499e-09
 69.07404     87.0 1.263e+04 1.615e-09
 69.08646     86.7 1.279e+04 1.614e-09
 69.10721     85.2 1.342e+04 1.778e-09
 69.12409     83.0 1.404e+04 2.139e-09
 69.13446     81.9 1.429e+04 2.490e-09
 69.14870     81.8 1.392e+04 2.520e-09
 69.16945     82.4 1.327e+04 2.229e-09
 69.18452     83.3 1.255e+04 1.688e-09
 69.19489     83.0 1.242e+04 1.543e-09
 69.21094     82.8 1.164e+04 9.148e-10
 69.23169     80.9 1.108e+04 5.007e-10
 69.24494     77.6 1.007e+04 2.765e-10
 69.25532     76.2 9.703e+03 2.633e-10
 69.28365     73.0 9.675e+03 2.960e-10
 69.32524     71.8 9.665e+03 3.364e-10
 69.35562     70.1 9.874e+03 3.768e-10
 69.36762     70.0 9.884e+03 3.751e-10
 69.37864     69.4 9.849e+03 3.906e-10
 69.39766     68.6 9.845e+03 4.162e-10
 69.41585     67.1 1.012e+04 4.621e-10
 69.42622     67.2 1.017e+04 4.870e-10
 69.43915     64.3 1.107e+04 6.422e-10
 69.45990     60.9 1.184e+04 8.966e-10
 69.47628     58.4 1.201e+04 1.182e-09
 69.48665     58.7 1.219e+04 1.229e-09
 69.50139     56.9 1.210e+04 1.409e-09
 69.52214     55.5 1.196e+04 1.458e-09
 69.53670     53.4 1.242e+04 1.457e-09
 69.54708     53.4 1.272e+04 1.617e-09
 69.56363     48.5 1.418e+04 1.776e-09
 69.58438     40.8 1.435e+04 1.919e-09
 69.59713     34.9 1.342e+04 2.232e-09
 69.60750     35.1 1.376e+04 2.674e-09
 69.62587     32.7 1.431e+04 3.149e-09
 69.64662     29.5 1.547e+04 3.368e-09
 69.65756     22.7 1.655e+04 3.242e-09
 69.66793     19.3 1.810e+04 4.399e-09
 69.68811      9.5 1.600e+04 3.712e-09
 69.70761      4.5 1.532e+04 3.656e-09
 69.71798      3.8 1.589e+04 4.632e-09
 69.72961      2.1 1.602e+04 5.037e-09
 69.74288     -0.4 1.591e+04 3.901e-09
 69.75325      1.5 1.651e+04 5.309e-09
 69.76804     -1.7 1.555e+04 3.245e-09
 69.77841     -3.5 1.555e+04 2.917e-09
 69.79185     -8.6 1.337e+04 1.474e-09
 69.81259    -12.5 1.202e+04 1.034e-09
 69.82846    -14.5 1.180e+04 9.590e-10
 69.83884    -16.5 1.219e+04 1.075e-09
 69.85409    -18.6 1.292e+04 1.322e-09
 69.87483    -20.5 1.372e+04 1.773e-09
 69.88889    -21.8 1.439e+04 2.393e-09
 69.89926    -23.3 1.545e+04 3.915e-09
 69.91633    -23.4 1.579e+04 4.651e-09
 69.93707    -23.2 1.597e+04 5.036e-09
 69.94932    -23.1 1.596e+04 4.792e-09
 69.95969    -24.2 1.594e+04 4.694e-09
 69.97857    -24.3 1.574e+04 4.098e-09
 69.99931    -24.7 1.558e+04 3.602e-09
 70.02006    -27.3 1.478e+04 2.020e-09
 70.04081    -28.2 1.483e+04 1.926e-09
 70.05980    -29.3 1.551e+04 2.066e-09
 70.07017    -33.8 1.450e+04 1.125e-09
 70.08230    -35.4 1.541e+04 1.588e-09
 70.10305    -36.6 1.621e+04 2.184e-09
 70.11758    -37.6 1.677e+04 2.795e-09
 70.12438    -37.7 1.560e+04 2.168e-09
 70.13060    -41.4 1.314e+04 1.810e-09
 70.14454    -41.5 1.315e+04 1.934e-09
 70.16529    -41.5 1.288e+04 1.938e-09
 70.18065    -41.5 1.195e+04 1.562e-09
 70.19102    -43.1 1.108e+04 1.031e-09
 70.20678    -44.4 1.052e+04 5.723e-10
 70.22753    -47.4 1.018e+04 3.114e-10
 70.24108    -50.2 9.681e+03 2.406e-10
 70.25145    -51.5 9.526e+03 2.291e-10
 70.26902    -52.0 9.444e+03 2.257e-10
 70.28977    -52.1 9.476e+03 2.308e-10
 70.30160    -52.2 9.545e+03 2.462e-10
 70.32245    -53.4 9.537e+03 2.536e-10
 70.36258    -53.4 9.652e+03 2.913e-10
 70.40181    -53.2 9.800e+03 3.440e-10
 70.42255    -54.7 9.920e+03 3.752e-10
 70.43509    -54.4 9.935e+03 3.987e-10
 70.45574    -54.6 1.003e+04 4.267e-10
 70.47241    -55.3 1.032e+04 4.879e-10
 70.48278    -57.0 1.065e+04 5.417e-10
 70.49228    -58.7 1.121e+04 6.821e-10
 70.50266    -58.8 1.129e+04 6.862e-10
 70.51798    -61.1 1.188e+04 9.406e-10
 70.53284    -62.9 1.241e+04 1.305e-09
 70.54321    -64.6 1.263e+04 1.542e-09
 70.55947    -65.6 1.298e+04 1.872e-09
 70.58022    -66.7 1.311e+04 1.983e-09
 70.59326    -67.9 1.308e+04 1.965e-09
 70.60364    -68.8 1.288e+04 1.841e-09
 70.62171    -70.0 1.234e+04 1.428e-09
 70.64246    -71.5 1.170e+04 1.062e-09
 70.65369    -73.3 1.121e+04 8.432e-10
 70.66406    -73.6 1.090e+04 7.374e-10
 70.68395    -75.0 1.082e+04 6.975e-10
 70.70374    -76.5 1.084e+04 6.947e-10
 70.71412    -76.0 1.064e+04 6.367e-10
 70.72545    -77.5 1.098e+04 7.255e-10
 70.74619    -79.0 1.138e+04 8.935e-10
 70.76417    -80.5 1.174e+04 1.071e-09
 70.77454    -79.3 1.184e+04 1.134e-09
 70.78769    -80.8 1.221e+04 1.321e-09
 70.80843    -82.6 1.245e+04 1.427e-09
 70.82460    -84.9 1.253e+04 1.458e-09
 70.83497    -83.3 1.291e+04 1.711e-09
 70.84993    -85.7 1.291e+04 1.718e-09
 70.86699    -88.2 1.276e+04 1.660e-09
 70.87736    -88.6 1.341e+04 2.135e-09
 70.88502    -90.7 1.309e+04 1.993e-09
 70.89540    -88.7 1.353e+04 2.361e-09
 70.91217    -90.6 1.305e+04 2.000e-09
 70.93291    -92.6 1.260e+04 1.667e-09
 70.94545    -94.8 1.224e+04 1.405e-09
 70.95582    -93.5 1.250e+04 1.521e-09
 70.97441    -96.3 1.234e+04 1.395e-09
 70.99515    -99.0 1.230e+04 1.366e-09
 71.00588   -101.5 1.232e+04 1.380e-09
 71.01625   -101.0 1.289e+04 1.735e-09
 71.03665   -102.9 1.298e+04 1.922e-09
 71.05593   -104.3 1.296e+04 2.035e-09
 71.06630   -103.6 1.366e+04 2.599e-09
 71.07814   -104.7 1.354e+04 2.589e-09
 71.09889   -105.5 1.320e+04 2.365e-09
 71.11636   -106.2 1.289e+04 2.071e-09
 71.12673   -105.9 1.327e+04 2.384e-09
 71.14038   -106.7 1.284e+04 1.978e-09
 71.16113   -107.4 1.263e+04 1.794e-09
 71.17679   -108.2 1.259e+04 1.739e-09
 71.18716   -107.7 1.265e+04 1.792e-09
 71.20262   -108.2 1.263e+04 1.754e-09
 71.22337   -108.8 1.270e+04 1.760e-09
 71.23721   -109.6 1.277e+04 1.772e-09
 71.24516   -108.8 1.274e+04 1.783e-09
 71.25206   -110.0 1.205e+04 1.447e-09
 71.26486   -110.6 1.215e+04 1.503e-09
 71.28561   -111.2 1.245e+04 1.605e-09
 71.29764   -111.7 1.284e+04 1.750e-09
 71.30801   -110.6 1.275e+04 1.750e-09
 71.32710   -111.0 1.311e+04 1.906e-09
 71.34769   -111.5 1.344e+04 2.111e-09
 71.35807   -110.8 1.370e+04 2.309e-09
 71.36859   -111.4 1.419e+04 2.714e-09
 71.38934   -111.8 1.459e+04 3.183e-09
 71.40812   -112.0 1.485e+04 3.598e-09
 71.41849   -111.6 1.561e+04 4.808e-09
 71.43083   -111.6 1.573e+04 5.156e-09
 71.45158   -111.4 1.574e+04 5.221e-09
 71.46855   -111.2 1.568e+04 5.194e-09
 71.47892   -110.8 1.626e+04 6.693e-09
 71.49307   -110.3 1.577e+04 5.741e-09
 71.51382   -109.6 1.507e+04 4.454e-09
 71.52897   -108.8 1.430e+04 3.335e-09
 71.53935   -108.7 1.427e+04 3.363e-09
 71.55531   -107.9 1.351e+04 2.445e-09
 71.57606   -107.1 1.282e+04 1.817e-09
 71.58940   -106.3 1.226e+04 1.393e-09
 71.59977   -106.2 1.205e+04 1.329e-09
 71.61639   -105.3 1.163e+04 1.064e-09
 71.62677   -105.3 1.171e+04 1.122e-09
 71.63830   -104.2 1.141e+04 9.534e-10
 71.64983   -103.0 1.119e+04 8.419e-10
 71.66020   -102.7 1.114e+04 8.495e-10
 71.67979   -101.5 1.101e+04 7.704e-10
 71.69988   -100.3 1.091e+04 7.095e-10
 71.71025   -100.0 1.087e+04 7.288e-10
 71.72129    -98.8 1.080e+04 6.779e-10
 71.74203    -97.6 1.074e+04 6.361e-10
 71.76031    -96.6 1.070e+04 6.031e-10
 71.77068    -96.0 1.075e+04 6.404e-10
 71.78353    -95.0 1.072e+04 6.110e-10
 71.80427    -94.1 1.068e+04 5.891e-10
 71.82073    -93.2 1.065e+04 5.699e-10
 71.83120    -93.0 1.075e+04 6.268e-10
 71.84587    -91.8 1.072e+04 6.039e-10
 71.86651    -91.2 1.071e+04 5.968e-10
 71.88116    -90.4 1.070e+04 5.906e-10
 71.89153    -90.0 1.077e+04 6.232e-10
 71.90801    -89.6 1.080e+04 6.224e-10
 71.93131    -89.3 1.083e+04 6.177e-10
 71.95215    -87.9 1.083e+04 6.560e-10
 71.98082    -86.5 1.081e+04 6.518e-10
 72.02231    -85.6 1.084e+04 6.476e-10
 72.05226    -84.8 1.080e+04 6.096e-10
 72.07301    -83.0 1.086e+04 6.565e-10
 72.10530    -82.1 1.080e+04 6.176e-10
 72.14679    -81.1 1.071e+04 5.692e-10
 72.17312    -80.0 1.062e+04 5.191e-10
 72.19386    -78.0 1.081e+04 6.170e-10
 72.22978    -76.9 1.077e+04 5.815e-10
 72.27127    -75.8 1.072e+04 5.383e-10
 72.29397    -74.6 1.068e+04 4.964e-10
 72.31472    -72.7 1.083e+04 5.838e-10
 72.35426    -71.4 1.072e+04 5.189e-10
 72.37637    -69.9 1.060e+04 4.619e-10
 72.39544    -70.3 1.039e+04 3.911e-10
 72.41482    -68.6 1.031e+04 3.773e-10
 72.43724    -67.0 1.026e+04 3.544e-10
 72.47874    -65.1 1.026e+04 3.451e-10
 72.51493    -63.0 1.026e+04 3.397e-10
 72.53568    -61.5 1.006e+04 2.823e-10
 72.56172    -59.3 1.006e+04 2.696e-10
 72.60322    -57.1 1.003e+04 2.504e-10
 72.63578    -54.8 9.973e+03 2.272e-10
 72.65653    -53.5 9.909e+03 2.073e-10
 72.68620    -51.4 9.919e+03 2.025e-10
 72.72770    -49.3 9.940e+03 2.072e-10
 72.75664    -47.2 9.979e+03 2.219e-10
 72.77738    -46.3 1.013e+04 2.582e-10
 72.81068    -44.5 1.035e+04 3.240e-10
 72.85218    -42.8 1.067e+04 4.157e-10
 72.87749    -41.2 1.108e+04 5.423e-10
 72.89824    -40.6 1.122e+04 6.167e-10
 72.93516    -39.5 1.155e+04 7.354e-10
 72.97666    -38.5 1.180e+04 8.426e-10
 72.99834    -37.6 1.194e+04 8.967e-10
 73.01909    -37.4 1.166e+04 7.663e-10
 73.05964    -36.4 1.161e+04 6.926e-10
 73.09845    -35.5 1.153e+04 5.905e-10
 73.11920    -35.2 1.103e+04 3.632e-10
 73.12577    -34.5 1.093e+04 2.893e-10
 73.14652    -34.0 1.068e+04 2.472e-10
 73.18412    -33.5 1.066e+04 2.250e-10
 73.21930    -33.0 1.066e+04 2.197e-10
 73.24005    -32.8 1.041e+04 1.408e-10
 73.26711    -32.4 1.049e+04 1.606e-10
 73.30860    -32.0 1.052e+04 1.859e-10
 73.34016    -31.6 1.058e+04 2.056e-10
 73.36090    -31.1 1.045e+04 1.885e-10
 73.39159    -30.9 1.058e+04 2.048e-10
 73.43308    -30.8 1.070e+04 2.115e-10
 73.46101    -30.9 1.081e+04 2.187e-10
 73.48176    -30.1 1.064e+04 2.036e-10
 73.51607    -30.1 1.073e+04 1.985e-10
 73.55756    -30.0 1.083e+04 2.092e-10
 73.58186    -30.3 1.108e+04 2.405e-10
 73.60261    -28.5 1.062e+04 1.716e-10
 73.64055    -29.1 1.088e+04 2.058e-10
 73.68197    -30.4 1.186e+04 4.221e-10
 73.72346    -29.1 1.217e+04 6.183e-10
 73.76503    -29.4 1.310e+04 1.312e-09
 73.80282    -29.7 1.370e+04 1.916e-09
 73.82357    -28.1 1.332e+04 1.580e-09
 73.84802    -28.5 1.365e+04 1.938e-09
 73.87353    -30.0 1.366e+04 1.974e-09
 73.87985    -29.3 1.364e+04 1.993e-09
 73.88536    -30.2 1.360e+04 1.968e-09
 73.89969    -30.4 1.305e+04 1.360e-09
 73.92043    -30.6 1.260e+04 9.597e-10
 73.93386    -30.8 1.229e+04 7.285e-10
 73.94423    -30.0 1.218e+04 7.303e-10
 73.96193    -30.1 1.197e+04 5.695e-10
 73.98267    -30.2 1.183e+04 4.578e-10
 74.01389    -30.4 1.169e+04 3.599e-10
 74.04453    -29.8 1.159e+04 3.076e-10
 74.06528    -28.0 1.133e+04 2.245e-10
 74.09698    -27.8 1.129e+04 1.990e-10
 74.13847    -27.8 1.148e+04 2.244e-10
 74.16538    -27.7 1.163e+04 3.702e-10
 74.18613    -25.8 1.139e+04 2.854e-10
 74.22146    -25.5 1.151e+04 4.581e-10
 74.26295    -24.9 1.156e+04 6.239e-10
 74.28624    -24.1 1.154e+04 6.779e-10
 74.30698    -22.3 1.153e+04 6.747e-10
 74.33546    -22.5 1.143e+04 6.642e-10
 74.34647    -21.9 1.111e+04 5.246e-10
 74.35684    -21.2 1.111e+04 5.391e-10
 74.38625    -21.0 1.084e+04 4.029e-10
 74.40709    -19.5 1.084e+04 4.156e-10
 74.42892    -19.4 1.050e+04 2.801e-10
 74.47042    -19.5 1.005e+04 2.027e-10
 74.50720    -19.4 9.903e+03 1.907e-10
 74.52794    -17.8 9.918e+03 1.923e-10
 74.55340    -17.7 9.860e+03 1.952e-10
 74.59490    -17.5 9.855e+03 2.312e-10
 74.62459    -17.2 9.868e+03 2.681e-10
 74.63700    -18.1 1.021e+04 3.679e-10
 74.64880    -16.9 1.028e+04 3.807e-10
 74.67788    -16.6 1.028e+04 3.952e-10
 74.71938    -16.3 1.024e+04 3.948e-10
 74.74891    -16.2 1.025e+04 3.857e-10
 74.76965    -15.5 1.023e+04 3.855e-10
 74.80236    -15.5 1.032e+04 3.750e-10
 74.84386    -15.5 1.037e+04 3.814e-10
 74.86976    -15.2 1.035e+04 4.020e-10
 74.89051    -14.4 1.033e+04 3.576e-10
 74.92684    -13.9 1.036e+04 4.190e-10
 74.96834    -13.1 1.042e+04 4.763e-10
 74.99051    -12.1 1.040e+04 4.838e-10
 75.00062    -11.5 1.048e+04 5.059e-10
 75.00947    -12.3 1.063e+04 5.855e-10
 75.02001    -12.1 1.065e+04 5.907e-10
 75.04047    -12.0 1.076e+04 5.676e-10
 75.05084    -11.5 1.081e+04 5.837e-10
 75.06150    -11.5 1.085e+04 5.500e-10
 75.08225    -11.5 1.089e+04 5.349e-10
 75.10090    -11.8 1.092e+04 5.318e-10
 75.11127    -11.3 1.097e+04 5.341e-10
 75.12374    -11.6 1.116e+04 5.614e-10
 75.14449    -11.7 1.130e+04 6.054e-10
 75.16132    -11.8 1.132e+04 6.384e-10
 75.17170    -11.3 1.130e+04 6.339e-10
 75.18598    -11.4 1.126e+04 6.380e-10
 75.20673    -11.4 1.120e+04 6.385e-10
 75.22175    -11.2 1.125e+04 6.243e-10
 75.23212    -10.7 1.124e+04 6.226e-10
 75.24822    -10.5 1.134e+04 6.014e-10
 75.26897    -10.3 1.139e+04 5.736e-10
 75.28218    -10.2 1.134e+04 5.371e-10
 75.29255     -9.7 1.138e+04 5.463e-10
 75.31046     -9.6 1.129e+04 5.183e-10
 75.33121     -9.5 1.118e+04 4.973e-10
 75.34260     -9.2 1.111e+04 4.843e-10
 75.35298     -8.9 1.132e+04 5.383e-10
 75.37270     -8.7 1.130e+04 5.490e-10
 75.38417     -8.4 1.129e+04 5.553e-10
 75.39375     -9.7 1.086e+04 4.685e-10
 75.40303     -9.6 1.113e+04 5.857e-10
 75.41419     -9.2 1.100e+04 5.837e-10
 75.43494     -8.7 1.081e+04 5.651e-10
 75.45308     -8.0 1.060e+04 5.161e-10
 75.46346     -7.8 1.084e+04 6.331e-10
 75.47643     -7.1 1.058e+04 5.374e-10
 75.49718     -6.5 1.031e+04 4.414e-10
 75.51351     -5.8 1.008e+04 3.649e-10
 75.52388     -5.8 1.018e+04 4.079e-10
 75.53867     -5.1 1.001e+04 3.409e-10
 75.55942     -4.6 1.000e+04 3.151e-10
 75.57404     -3.6 1.002e+04 3.024e-10
 75.58441     -3.6 9.998e+03 3.126e-10
 75.60091     -3.3 9.995e+03 3.117e-10
 75.63213     -1.8 1.004e+04 3.187e-10
 75.67372      0.3 1.009e+04 3.368e-10
 75.69499      1.8 1.016e+04 3.677e-10
 75.70526      1.5 1.013e+04 3.849e-10
 75.72539      2.2 1.010e+04 3.965e-10
 75.74484      3.5 1.013e+04 4.268e-10
 75.75522      3.7 1.013e+04 4.469e-10
 75.75887      4.8 1.022e+04 4.706e-10
 75.76925      4.4 1.041e+04 5.666e-10
 75.78763      5.3 1.056e+04 6.374e-10
 75.80527      6.1 1.081e+04 7.596e-10
 75.81564      6.2 1.085e+04 7.933e-10
 75.82913      6.6 1.132e+04 1.050e-09
 75.84987      6.6 1.200e+04 1.529e-09
 75.86570      6.6 1.282e+04 2.343e-09
 75.87607      6.7 1.282e+04 2.424e-09
 75.89137      7.2 1.375e+04 3.630e-09
 75.91211      8.0 1.475e+04 5.222e-09
 75.92612      8.6 1.575e+04 7.012e-09
 75.93650      9.2 1.550e+04 6.299e-09
 75.95361      9.3 1.626e+04 7.238e-09
 75.97435      9.0 1.702e+04 7.800e-09
 75.98655      7.5 1.771e+04 8.118e-09
 75.99692      7.3 1.704e+04 6.153e-09
 76.01585      4.8 1.693e+04 6.074e-09
 76.03659      2.7 1.640e+04 6.499e-09
 76.05734      2.0 1.573e+04 7.759e-09
 76.07809      2.3 1.643e+04 9.740e-09
 76.09703      2.7 1.674e+04 1.055e-08
 76.10740      2.9 1.622e+04 8.894e-09
 76.11958      3.3 1.613e+04 8.125e-09
 76.13358      3.8 1.577e+04 6.790e-09
 76.14395      2.8 1.593e+04 6.234e-09
 76.15746      2.8 1.503e+04 4.006e-09
 76.16783      2.7 1.423e+04 3.178e-09
 76.18182      1.5 1.341e+04 2.246e-09
 76.20257      0.4 1.270e+04 1.734e-09
 76.21789     -0.2 1.244e+04 1.499e-09
 76.22826     -0.0 1.245e+04 1.498e-09
 76.24406     -0.3 1.228e+04 1.376e-09
 76.26481     -0.5 1.200e+04 1.281e-09
 76.27831     -0.5 1.165e+04 1.210e-09
 76.28869     -0.1 1.165e+04 1.252e-09
 76.30630      0.2 1.131e+04 1.187e-09
 76.32705      0.9 1.105e+04 1.099e-09
 76.33874      1.8 1.089e+04 9.765e-10
 76.34911      2.5 1.096e+04 9.826e-10
 76.36854      3.2 1.084e+04 8.095e-10
 76.38879      3.3 1.061e+04 6.298e-10
 76.39917      3.4 1.064e+04 5.960e-10
 76.41003      3.1 1.016e+04 4.452e-10
 76.43078      2.6 9.750e+03 3.677e-10
 76.44922      2.4 9.625e+03 3.496e-10
 76.45959      2.0 9.594e+03 3.498e-10
 76.47227      1.5 9.661e+03 3.551e-10
 76.49302     -2.6 1.001e+04 5.801e-10
 76.50828     -9.0 1.529e+04 1.732e-09
 76.51453    -11.4 1.574e+04 2.011e-09
 76.52002    -19.6 2.144e+04 4.941e-09
 76.52928    -21.1 2.440e+04 8.722e-09
 76.53960    -24.2 2.712e+04 1.208e-08
 76.54495    -30.6 2.770e+04 4.324e-08
 76.55013    -35.7 2.628e+04 9.575e-08
 76.56035    -40.0 2.473e+04 2.134e-07
 76.56997    -43.6 2.365e+04 3.415e-07
 76.57516    -47.9 2.484e+04 2.336e-07
 76.58110    -51.8 2.589e+04 1.874e-07
 76.59147    -56.0 2.820e+04 1.007e-07
 76.60019    -60.3 3.211e+04 3.697e-08
 76.60537    -69.5 4.295e+04 4.148e-09
 76.61222    -72.0 4.017e+04 2.711e-09
 76.62259    -79.5 3.745e+04 1.708e-09
 76.63045    -85.3 3.245e+04 1.528e-09
 76.64087    -99.5 1.473e+04 1.148e-09
 76.65899   -103.3 1.124e+04 7.481e-10
 76.67974   -104.8 1.036e+04 5.371e-10
 76.69093   -105.8 1.019e+04 4.017e-10
 76.70130   -107.0 1.011e+04 3.512e-10
 76.72123   -108.0 9.902e+03 3.270e-10
 76.74098   -108.9 9.852e+03 3.246e-10
 76.75135   -109.6 9.833e+03 3.260e-10
 76.76273   -110.4 9.941e+03 3.501e-10
 76.78347   -111.3 1.018e+04 4.240e-10
 76.80141   -112.3 1.041e+04 5.158e-10
 76.81178   -112.5 1.042e+04 5.379e-10
 76.82497   -113.4 1.060e+04 6.096e-10
 76.84571   -114.6 1.075e+04 6.633e-10
 76.86183   -116.2 1.094e+04 7.052e-10
 76.87221   -115.9 1.085e+04 6.684e-10
 76.88298   -117.9 1.101e+04 6.793e-10
 76.89336   -118.4 1.099e+04 6.311e-10
 76.90795   -120.9 1.113e+04 6.321e-10
 76.92226   -123.5 1.124e+04 6.387e-10
 76.93263   -122.9 1.100e+04 6.125e-10
 76.94945   -125.2 1.115e+04 6.256e-10
 76.97019   -127.2 1.122e+04 6.310e-10
 76.98278   -129.7 1.121e+04 6.240e-10
 77.00363   -125.9 1.102e+04 5.998e-10
 77.03253   -129.2 1.098e+04 6.056e-10
 77.04311   -129.9 1.090e+04 5.977e-10
 77.05349   -128.4 1.090e+04 6.261e-10
 77.07393   -129.5 1.086e+04 6.352e-10
 77.09317   -130.8 1.086e+04 6.429e-10
 77.10364   -127.9 1.112e+04 7.281e-10
 77.12599   -130.5 1.127e+04 8.002e-10
 77.16748   -133.0 1.164e+04 9.095e-10
 77.19850   -136.3 1.177e+04 1.072e-09
 77.21402   -138.6 1.170e+04 1.149e-09
 77.22439   -138.5 1.190e+04 1.310e-09
 77.23990   -140.4 1.183e+04 1.315e-09
 77.25769   -141.7 1.139e+04 1.235e-09
 77.26806   -141.9 1.133e+04 1.192e-09
 77.27445   -143.2 1.087e+04 8.857e-10
 77.28482   -143.0 1.096e+04 9.243e-10
 77.30214   -144.8 1.041e+04 6.043e-10
 77.32289   -146.6 9.817e+03 3.992e-10
 77.33487   -147.6 9.421e+03 3.104e-10
 77.34525   -147.5 9.404e+03 3.195e-10
 77.37485   -147.9 9.230e+03 2.848e-10
 77.41644   -149.1 8.959e+03 2.464e-10
 77.44555   -150.0 8.649e+03 2.150e-10
 77.46630   -149.2 8.928e+03 2.624e-10
 77.49943   -149.6 8.799e+03 2.440e-10
 77.54092   -149.7 8.771e+03 2.358e-10
 77.56630   -149.9 8.796e+03 2.385e-10
 77.57658   -150.5 8.894e+03 2.556e-10
 77.59259   -153.7 9.369e+03 3.090e-10
 77.61334   -158.6 1.156e+04 6.835e-10
 77.62663   -163.2 1.379e+04 1.690e-09
 77.63531   -167.3 1.534e+04 3.436e-09
 77.64276   -167.9 1.517e+04 3.351e-09
 77.65483   -170.3 1.619e+04 5.749e-09
 77.67558   -172.0 1.687e+04 7.790e-09
 77.68701   -173.4 1.755e+04 9.594e-09
 77.69215   -175.0 1.817e+04 1.090e-08
 77.70142   -176.2 1.829e+04 1.117e-08
 77.71179   -177.6 1.840e+04 1.092e-08
 77.71718   -179.2 1.803e+04 9.474e-09
 77.72236   -181.0 1.772e+04 7.776e-09
 77.73254   -182.8 1.682e+04 5.969e-09
 77.74220   -184.0 1.600e+04 4.956e-09
 77.74744   -185.6 1.568e+04 4.309e-09
 77.75857   -187.2 1.479e+04 3.377e-09
 77.77931   -189.1 1.377e+04 2.434e-09
 77.79754   -190.9 1.265e+04 1.714e-09
 77.80791   -193.2 1.157e+04 1.339e-09
 77.82081   -193.8 1.101e+04 1.099e-09
 77.84155   -194.1 1.074e+04 9.410e-10
 77.85797   -194.3 1.062e+04 8.196e-10
 77.86834   -195.2 1.100e+04 9.381e-10
 77.88305   -196.0 1.125e+04 9.176e-10
 77.90379   -196.9 1.169e+04 9.495e-10
 77.91839   -197.8 1.206e+04 1.045e-09
 77.92877   -199.5 1.331e+04 1.809e-09
 77.94529   -200.0 1.358e+04 2.141e-09
 77.96603   -200.2 1.378e+04 2.546e-09
 77.97882   -200.0 1.396e+04 3.015e-09
 77.98919   -200.3 1.451e+04 4.172e-09
 78.00709   -199.8 1.464e+04 4.644e-09
 78.01747   -200.0 1.438e+04 4.012e-09
 78.02827   -199.4 1.439e+04 4.065e-09
 78.03925   -198.9 1.441e+04 4.109e-09
 78.04962   -199.1 1.424e+04 3.356e-09
 78.06977   -198.5 1.416e+04 3.154e-09
 78.08930   -197.9 1.398e+04 2.867e-09
 78.09967   -198.5 1.350e+04 1.690e-09
 78.11126   -197.9 1.327e+04 1.451e-09
 78.13201   -197.4 1.301e+04 1.216e-09
 78.14973   -197.0 1.275e+04 9.989e-10
 78.16010   -198.5 1.208e+04 4.621e-10
 78.17350   -198.2 1.179e+04 3.862e-10
 78.19425   -197.9 1.152e+04 3.359e-10
 78.21015   -197.5 1.124e+04 2.947e-10
 78.22053   -198.3 1.065e+04 2.251e-10
 78.23574   -197.3 1.061e+04 2.271e-10
 78.25649   -196.5 1.077e+04 2.511e-10
 78.27068   -195.5 1.086e+04 2.636e-10
 78.29152   -195.4 1.034e+04 2.112e-10
 78.32930   -193.9 1.044e+04 2.321e-10
 78.37079   -192.4 1.061e+04 2.530e-10
 78.39227   -191.5 1.090e+04 2.868e-10
 78.41301   -192.8 1.096e+04 2.820e-10
 78.44159   -191.7 1.108e+04 2.799e-10
 78.45186   -193.1 1.129e+04 3.202e-10
 78.46395   -194.2 1.150e+04 3.576e-10
 78.48470   -195.5 1.175e+04 4.314e-10
 78.50191   -196.6 1.201e+04 5.503e-10
 78.51229   -198.1 1.210e+04 6.589e-10
 78.52619   -198.8 1.231e+04 7.943e-10
 78.54694   -199.4 1.248e+04 9.098e-10
 78.56234   -200.1 1.258e+04 9.678e-10
 78.57271   -201.2 1.237e+04 9.306e-10
 78.58843   -201.7 1.233e+04 8.898e-10
 78.60918   -202.3 1.221e+04 7.973e-10
 78.62277   -202.7 1.204e+04 6.968e-10
 78.63314   -203.0 1.190e+04 6.176e-10
 78.65067   -203.2 1.178e+04 5.416e-10
 78.67142   -203.2 1.169e+04 4.848e-10
 78.68319   -203.0 1.162e+04 4.450e-10
 78.69357   -202.9 1.148e+04 4.006e-10
 78.71291   -202.6 1.142e+04 3.675e-10
 78.73325   -202.2 1.143e+04 3.503e-10
 78.75409   -202.4 1.144e+04 3.515e-10
 78.78572   -201.0 1.142e+04 3.452e-10
 78.82721   -199.5 1.153e+04 3.832e-10
 78.85430   -197.8 1.180e+04 4.769e-10
 78.87504   -197.3 1.165e+04 4.356e-10
 78.91020   -196.0 1.208e+04 5.883e-10
 78.95169   -194.9 1.251e+04 8.025e-10
 78.97515   -194.0 1.291e+04 1.057e-09
 78.99590   -194.0 1.260e+04 8.661e-10
 79.02421   -193.5 1.281e+04 9.864e-10
 79.03538   -193.5 1.300e+04 1.129e-09
 79.04576   -193.5 1.284e+04 1.030e-09
 79.06561   -193.6 1.303e+04 1.186e-09
 79.08544   -193.6 1.318e+04 1.322e-09
 79.09581   -193.6 1.289e+04 1.093e-09
 79.10710   -193.7 1.299e+04 1.242e-09
 79.12785   -193.8 1.303e+04 1.309e-09
 79.14158   -193.8 1.302e+04 1.359e-09
 79.14922   -193.3 1.271e+04 1.121e-09
 79.15624   -193.2 1.239e+04 8.885e-10
 79.16934   -193.2 1.237e+04 9.235e-10
 79.19009   -193.1 1.234e+04 9.450e-10
 79.20629   -192.9 1.234e+04 9.496e-10
 79.21666   -192.6 1.202e+04 7.049e-10
 79.23158   -192.4 1.197e+04 7.066e-10
 79.25233   -192.1 1.190e+04 6.861e-10
 79.26672   -191.7 1.180e+04 6.540e-10
 79.27709   -191.4 1.158e+04 5.027e-10
 79.29382   -190.8 1.150e+04 4.841e-10
 79.31457   -190.2 1.141e+04 4.623e-10
 79.32714   -189.4 1.132e+04 4.359e-10
 79.33761   -189.7 1.108e+04 3.548e-10
 79.36663   -188.2 1.097e+04 3.411e-10
 79.40812   -186.6 1.087e+04 3.233e-10
 79.43782   -185.0 1.073e+04 2.967e-10
 79.45856   -184.2 1.051e+04 2.583e-10
 79.49111   -182.7 1.043e+04 2.414e-10
 79.53260   -181.2 1.035e+04 2.216e-10
 79.55867   -179.8 1.026e+04 2.005e-10
 79.57942   -179.3 1.023e+04 1.973e-10
 79.61559   -178.0 1.014e+04 1.852e-10
 79.65708   -176.6 1.006e+04 1.756e-10
 79.67952   -175.1 1.000e+04 1.697e-10
 79.70027   -174.9 9.954e+03 1.802e-10
 79.74007   -173.5 9.910e+03 1.776e-10
 79.77963   -172.0 9.883e+03 1.759e-10
 79.80038   -171.9 9.851e+03 1.882e-10
 79.82305   -170.6 9.845e+03 1.860e-10
 79.86455   -169.3 9.872e+03 1.836e-10
 79.89118   -168.1 9.894e+03 1.830e-10
 79.90637   -168.2 1.015e+04 2.274e-10
 79.92123   -168.4 1.030e+04 2.865e-10
 79.94753   -167.4 1.029e+04 2.863e-10
 79.98903   -166.4 1.030e+04 2.935e-10
 80.02134   -165.5 1.048e+04 3.451e-10
 80.04209   -165.7 1.051e+04 3.710e-10
 80.07201   -164.9 1.071e+04 4.259e-10
 80.11351   -164.4 1.086e+04 4.775e-10
 80.14219   -164.0 1.090e+04 4.940e-10
 80.16294   -164.1 1.067e+04 4.147e-10
 80.19649   -163.5 1.058e+04 3.764e-10
 80.23799   -162.6 1.039e+04 3.053e-10
 80.26305   -161.5 1.015e+04 2.292e-10
 80.28379   -161.1 9.959e+03 1.878e-10
 80.32097   -159.8 9.833e+03 1.529e-10
 80.36247   -158.4 9.799e+03 1.391e-10
 80.38390   -156.8 9.800e+03 1.368e-10
 80.40465   -156.4 9.828e+03 1.414e-10
 80.44545   -155.1 9.988e+03 1.535e-10
 80.48401   -153.9 1.020e+04 1.891e-10
 80.50475   -153.8 1.040e+04 2.555e-10
 80.52844   -152.7 1.064e+04 3.422e-10
 80.56993   -151.7 1.084e+04 4.353e-10
 80.60486   -150.8 1.097e+04 5.075e-10
 80.62561   -151.1 1.096e+04 5.133e-10
 80.64058   -150.3 1.097e+04 5.191e-10
 80.66133   -151.0 1.108e+04 5.812e-10
 80.69441   -150.2 1.099e+04 5.515e-10
 80.72571   -149.3 1.090e+04 5.080e-10
 80.74646   -149.5 1.066e+04 4.079e-10
 80.77740   -148.6 1.063e+04 3.750e-10
 80.81889   -147.8 1.065e+04 3.554e-10
 80.84657   -147.0 1.065e+04 3.364e-10
 80.86731   -147.1 1.049e+04 2.778e-10
 80.90188   -146.2 1.051e+04 2.737e-10
 80.94337   -145.4 1.052e+04 2.675e-10
 80.96742   -144.6 1.055e+04 2.650e-10
 80.98817   -144.5 1.058e+04 2.775e-10
 81.02636   -143.9 1.069e+04 3.029e-10
 81.06753   -143.6 1.082e+04 3.393e-10
 81.08827   -143.9 1.113e+04 4.523e-10
 81.10935   -143.9 1.129e+04 5.219e-10
 81.15084   -144.1 1.141e+04 5.682e-10
 81.18838   -144.5 1.144e+04 5.812e-10
 81.20913   -145.2 1.181e+04 7.842e-10
 81.23383   -145.4 1.168e+04 6.990e-10
 81.27532   -145.5 1.144e+04 5.480e-10
 81.30923   -145.0 1.114e+04 4.047e-10
 81.32998   -145.6 1.113e+04 4.068e-10
 81.35831   -144.9 1.082e+04 2.905e-10
 81.38999   -144.0 1.060e+04 2.180e-10
 81.41074   -144.0 1.077e+04 2.633e-10
 81.43009   -143.2 1.066e+04 2.179e-10
 81.45083   -143.8 1.064e+04 2.399e-10
 81.48279   -143.0 1.052e+04 2.022e-10
 81.52428   -142.3 1.042e+04 1.785e-10
 81.55094   -141.7 1.036e+04 1.703e-10
 81.57169   -142.0 1.027e+04 1.959e-10
 81.60727   -141.3 1.026e+04 1.955e-10
 81.64876   -140.7 1.035e+04 2.182e-10
 81.67179   -140.1 1.044e+04 2.380e-10
 81.69254   -140.3 1.044e+04 2.668e-10
 81.73175   -139.8 1.051e+04 2.773e-10
 81.77190   -139.2 1.053e+04 2.807e-10
 81.79265   -139.7 1.053e+04 3.100e-10
 81.81473   -139.0 1.053e+04 3.126e-10
 81.85623   -138.3 1.057e+04 3.176e-10
 81.89275   -137.7 1.082e+04 3.556e-10
 81.91350   -138.3 1.077e+04 3.904e-10
 81.93921   -137.8 1.109e+04 4.701e-10
 81.98071   -137.6 1.157e+04 5.983e-10
 82.01361   -137.5 1.208e+04 7.646e-10
 82.03435   -138.6 1.206e+04 7.222e-10
 82.06369   -139.0 1.281e+04 9.309e-10
 82.10519   -140.4 1.354e+04 1.233e-09
 82.13436   -142.1 1.406e+04 1.629e-09
 82.14464   -143.7 1.421e+04 1.852e-09
 82.14957   -145.1 1.455e+04 2.397e-09
 82.15995   -143.9 1.462e+04 2.404e-09
 82.17761   -145.1 1.508e+04 3.168e-09
 82.19469   -146.5 1.534e+04 3.775e-09
 82.20507   -147.7 1.534e+04 4.008e-09
 82.21910   -149.3 1.530e+04 4.033e-09
 82.23985   -150.7 1.484e+04 3.373e-09
 82.25512   -151.9 1.403e+04 2.252e-09
 82.26549   -152.6 1.359e+04 1.844e-09
 82.28134   -154.0 1.267e+04 1.163e-09
 82.30209   -155.1 1.216e+04 8.954e-10
 82.31555   -155.7 1.202e+04 8.158e-10
 82.32592   -155.9 1.190e+04 7.758e-10
 82.34358   -156.0 1.189e+04 7.634e-10
 82.36433   -156.1 1.189e+04 7.590e-10
 82.37597   -156.1 1.192e+04 7.536e-10
 82.38635   -156.3 1.187e+04 7.089e-10
 82.40582   -156.4 1.190e+04 6.739e-10
 82.42603   -156.7 1.188e+04 6.242e-10
 82.43640   -157.1 1.179e+04 5.703e-10
 82.44731   -157.2 1.177e+04 5.573e-10
 82.47618   -157.2 1.182e+04 5.639e-10
 82.49702   -157.1 1.158e+04 4.931e-10
 82.52012   -157.0 1.143e+04 4.085e-10
 82.56161   -156.6 1.131e+04 3.738e-10
 82.59713   -156.0 1.127e+04 3.699e-10
 82.61788   -155.9 1.115e+04 3.526e-10
 82.64460   -155.3 1.121e+04 3.602e-10
 82.68609   -154.7 1.142e+04 3.956e-10
 82.71798   -154.1 1.161e+04 4.365e-10
 82.73873   -154.1 1.168e+04 4.342e-10
 82.76908   -153.7 1.180e+04 4.672e-10
 82.81057   -153.0 1.181e+04 4.690e-10
 82.83874   -152.0 1.172e+04 4.449e-10
 82.84901   -152.4 1.171e+04 4.505e-10
 82.86225   -152.2 1.164e+04 4.383e-10
 82.88299   -151.9 1.158e+04 4.275e-10
 82.89898   -151.7 1.155e+04 4.249e-10
 82.90935   -151.6 1.149e+04 4.175e-10
 82.92449   -151.5 1.146e+04 4.362e-10
 82.94523   -151.4 1.144e+04 4.733e-10
 82.95949   -151.3 1.141e+04 5.210e-10
 82.96987   -152.1 1.144e+04 6.188e-10
 82.98673   -151.7 1.141e+04 6.747e-10
 83.00747   -151.2 1.139e+04 7.173e-10
 83.01992   -150.7 1.133e+04 7.432e-10
 83.03029   -151.1 1.128e+04 7.651e-10
 83.04897   -150.5 1.121e+04 7.412e-10
 83.06971   -149.9 1.111e+04 7.194e-10
 83.08035   -149.2 1.102e+04 6.882e-10
 83.09072   -149.7 1.089e+04 5.839e-10
 83.11121   -149.4 1.076e+04 5.141e-10
 83.14242   -149.0 1.060e+04 4.589e-10
 83.18065   -147.6 1.033e+04 3.943e-10
 83.20140   -148.2 9.868e+03 2.881e-10
 83.22551   -146.4 9.596e+03 2.534e-10
 83.26700   -144.5 9.405e+03 2.298e-10
 83.30150   -142.4 9.275e+03 2.166e-10
 83.32225   -142.6 9.034e+03 1.669e-10
 83.34999   -140.4 9.031e+03 1.662e-10
 83.39148   -138.3 9.069e+03 1.755e-10
 83.42236   -136.5 9.193e+03 2.040e-10
 83.44310   -136.4 9.072e+03 1.716e-10
 83.47447   -134.6 9.263e+03 2.191e-10
 83.51596   -132.9 9.451e+03 2.716e-10
 83.54321   -131.3 9.609e+03 3.160e-10
 83.56396   -131.3 9.689e+03 3.406e-10
 83.59895   -129.7 9.909e+03 4.074e-10
 83.63821   -128.3 1.009e+04 4.657e-10
 83.65896   -127.4 9.942e+03 4.671e-10
 83.66406   -126.0 1.013e+04 5.177e-10
 83.68481   -126.6 1.086e+04 8.153e-10
 83.72343   -125.5 1.125e+04 9.801e-10
 83.76417   -124.5 1.157e+04 1.099e-09
 83.78492   -125.9 1.252e+04 1.748e-09
 83.79594   -124.8 1.233e+04 1.530e-09
 83.81659   -124.7 1.253e+04 1.573e-09
 83.83478   -124.6 1.266e+04 1.597e-09
 83.84515   -126.2 1.333e+04 2.201e-09
 83.85809   -126.3 1.335e+04 2.221e-09
 83.87883   -126.4 1.326e+04 2.197e-09
 83.89520   -126.2 1.313e+04 1.987e-09
 83.90558   -127.5 1.345e+04 2.116e-09
 83.92033   -127.4 1.328e+04 1.914e-09
 83.94107   -127.3 1.306e+04 1.730e-09
 83.97229   -126.9 1.282e+04 1.543e-09
 84.00588   -125.7 1.241e+04 1.198e-09
 84.02662   -127.8 1.231e+04 1.146e-09
 84.05537   -126.5 1.184e+04 8.564e-10
 84.09687   -125.1 1.139e+04 6.480e-10
 84.12673   -123.5 1.105e+04 5.277e-10
 84.14748   -124.5 1.081e+04 4.523e-10
 84.17985   -122.6 1.076e+04 4.078e-10
 84.22135   -120.6 1.074e+04 3.958e-10
 84.24758   -118.7 1.087e+04 4.021e-10
 84.26833   -121.3 1.132e+04 4.722e-10
 84.30433   -120.1 1.207e+04 7.005e-10
 84.34583   -118.8 1.285e+04 1.103e-09
 84.36834   -118.7 1.353e+04 1.703e-09
 84.37862   -120.1 1.371e+04 1.986e-09
 84.39750   -119.4 1.396e+04 2.344e-09
 84.40817   -118.5 1.428e+04 2.873e-09
 84.41854   -118.4 1.438e+04 2.947e-09
 84.43899   -120.0 1.460e+04 2.698e-09
 84.45974   -119.9 1.509e+04 2.798e-09
 84.47872   -120.4 1.556e+04 2.835e-09
 84.48910   -123.8 1.411e+04 1.832e-09
 84.50123   -124.7 1.392e+04 1.826e-09
 84.52198   -125.7 1.371e+04 1.873e-09
 84.53915   -126.4 1.339e+04 2.157e-09
 84.54952   -127.7 1.253e+04 1.561e-09
 84.56347   -127.7 1.274e+04 1.674e-09
 84.58422   -127.6 1.293e+04 1.719e-09
 84.59958   -127.6 1.299e+04 1.716e-09
 84.61005   -129.4 1.188e+04 7.835e-10
 84.63628   -129.6 1.167e+04 6.657e-10
 84.67777   -129.7 1.136e+04 5.749e-10
 84.71025   -129.6 1.121e+04 5.320e-10
 84.73100   -131.6 1.133e+04 5.127e-10
 84.76076   -131.8 1.150e+04 5.956e-10
 84.80225   -132.3 1.168e+04 7.215e-10
 84.83111   -132.9 1.184e+04 8.993e-10
 84.85185   -134.2 1.179e+04 1.143e-09
 84.88524   -134.8 1.179e+04 1.157e-09
 84.92673   -135.7 1.203e+04 1.203e-09
 84.95196   -137.3 1.220e+04 1.232e-09
 84.96223   -138.0 1.145e+04 8.620e-10
 84.97840   -138.9 1.171e+04 9.082e-10
 84.99915   -139.9 1.199e+04 9.891e-10
 85.01219   -140.6 1.203e+04 1.022e-09
 85.02256   -142.0 1.266e+04 1.159e-09
 85.04064   -143.6 1.286e+04 1.257e-09
 85.06139   -144.9 1.311e+04 1.317e-09
 85.07262   -146.9 1.351e+04 1.465e-09
 85.08299   -148.3 1.388e+04 1.903e-09
 85.10288   -150.3 1.417e+04 2.141e-09
 85.12267   -152.3 1.469e+04 2.820e-09
 85.13304   -152.2 1.448e+04 3.371e-09
 85.14438   -153.7 1.482e+04 4.265e-09
 85.15757   -155.1 1.488e+04 4.799e-09
 85.16795   -154.0 1.474e+04 4.269e-09
 85.18310   -155.2 1.473e+04 4.500e-09
 85.19347   -154.5 1.441e+04 4.256e-09
 85.20662   -155.3 1.429e+04 4.255e-09
 85.22736   -155.9 1.376e+04 3.608e-09
 85.24352   -156.4 1.311e+04 2.650e-09
 85.25390   -155.4 1.288e+04 2.357e-09
 85.26886   -156.1 1.235e+04 1.730e-09
 85.28960   -156.7 1.185e+04 1.277e-09
 85.30395   -157.2 1.139e+04 9.640e-10
 85.31432   -156.4 1.142e+04 9.579e-10
 85.33110   -156.5 1.108e+04 7.770e-10
 85.35184   -156.5 1.078e+04 6.369e-10
 85.36438   -156.4 1.052e+04 5.305e-10
 85.37475   -155.6 1.060e+04 5.799e-10
 85.39334   -155.5 1.040e+04 5.087e-10
 85.41408   -155.4 1.023e+04 4.624e-10
 85.42480   -155.3 1.010e+04 4.409e-10
 85.43518   -154.5 1.027e+04 5.028e-10
 85.45558   -154.5 1.023e+04 4.983e-10
 85.47486   -154.6 1.021e+04 5.022e-10
 85.48523   -153.9 1.036e+04 5.639e-10
 85.49707   -154.2 1.041e+04 6.071e-10
 85.51782   -154.6 1.046e+04 6.649e-10
 85.53228   -154.9 1.051e+04 7.286e-10
 85.53937   -154.0 1.029e+04 6.358e-10
 85.54566   -153.8 1.083e+04 8.012e-10
 85.55931   -154.1 1.087e+04 8.737e-10
 85.58006   -154.1 1.087e+04 9.307e-10
 85.59571   -154.1 1.084e+04 9.558e-10
 85.60608   -154.0 1.125e+04 1.145e-09
 85.62155   -153.8 1.097e+04 1.144e-09
 85.64230   -153.3 1.064e+04 1.049e-09
 85.65614   -152.7 1.028e+04 9.130e-10
 85.66651   -152.6 1.048e+04 9.920e-10
 85.68379   -151.9 1.014e+04 8.201e-10
 85.70454   -151.3 9.858e+03 6.721e-10
 85.71656   -150.7 9.621e+03 5.508e-10
 85.72694   -151.0 9.849e+03 6.101e-10
 85.74603   -150.4 9.630e+03 5.141e-10
 85.76662   -149.6 9.423e+03 4.348e-10
 85.77699   -150.2 9.685e+03 5.529e-10
 85.78752   -149.5 9.569e+03 5.030e-10
 85.80827   -148.8 9.491e+03 4.712e-10
 85.82704   -147.9 9.443e+03 4.536e-10
 85.83742   -147.9 9.482e+03 5.586e-10
 85.84976   -147.1 9.459e+03 5.509e-10
 85.87051   -146.2 9.455e+03 5.499e-10
 85.88747   -145.4 9.477e+03 5.522e-10
 85.89784   -145.9 1.016e+04 7.961e-10
 85.90698   -145.3 1.033e+04 8.691e-10
 85.91735   -145.5 1.053e+04 9.615e-10
 85.93275   -145.0 1.078e+04 1.078e-09
 85.94790   -144.8 1.107e+04 1.238e-09
 85.95827   -145.6 1.154e+04 1.605e-09
 85.97424   -145.5 1.189e+04 1.895e-09
 85.99499   -145.5 1.227e+04 2.263e-09
 86.00832   -145.4 1.266e+04 2.695e-09
 86.01870   -145.8 1.274e+04 2.757e-09
 86.03648   -145.7 1.301e+04 3.052e-09
 86.05723   -145.7 1.323e+04 3.245e-09
 86.06875   -145.9 1.330e+04 3.289e-09
 86.07912   -147.2 1.304e+04 2.795e-09
 86.09872   -147.9 1.285e+04 2.489e-09
 86.11880   -148.9 1.226e+04 1.921e-09
 86.12918   -150.7 1.129e+04 1.443e-09
 86.14022   -151.9 1.063e+04 1.134e-09
 86.16096   -152.8 1.010e+04 9.176e-10
 86.17923   -153.6 9.746e+03 7.807e-10
 86.18960   -153.7 9.751e+03 8.017e-10
 86.20246   -154.2 9.652e+03 7.456e-10
 86.22320   -154.6 9.619e+03 7.178e-10
 86.23966   -154.9 9.614e+03 7.094e-10
 86.25003   -154.8 9.840e+03 8.073e-10
 86.26470   -155.1 9.860e+03 8.261e-10
 86.28168   -155.5 9.940e+03 8.776e-10
 86.29206   -155.6 1.012e+04 9.390e-10
 86.30008   -156.2 1.036e+04 1.030e-09
 86.31046   -156.9 1.091e+04 1.309e-09
 86.32694   -158.2 1.154e+04 1.627e-09
 86.34768   -159.7 1.230e+04 2.156e-09
 86.36051   -161.1 1.301e+04 2.913e-09
 86.37089   -161.2 1.346e+04 3.514e-09
 86.38918   -161.8 1.383e+04 4.204e-09
 86.40992   -162.2 1.394e+04 4.532e-09
 86.42094   -162.5 1.395e+04 4.585e-09
 86.43131   -162.1 1.366e+04 3.863e-09
 86.45142   -162.0 1.324e+04 3.197e-09
 86.47099   -161.9 1.269e+04 2.408e-09
 86.48137   -162.6 1.191e+04 1.562e-09
 86.49291   -163.0 1.122e+04 1.137e-09
 86.51366   -163.2 1.052e+04 8.357e-10
 86.53142   -163.1 9.940e+03 6.294e-10
 86.54179   -163.2 9.551e+03 4.992e-10
 86.55515   -162.4 9.310e+03 4.109e-10
 86.57590   -161.4 9.158e+03 3.457e-10
 86.59185   -160.3 9.079e+03 3.003e-10
 86.60232   -161.7 9.194e+03 2.972e-10
 86.62796   -160.3 9.054e+03 2.554e-10
 86.65658   -158.4 8.925e+03 2.229e-10
 86.67733   -157.1 8.953e+03 2.301e-10
 86.70252   -155.0 8.853e+03 1.972e-10
 86.72327   -155.3 9.063e+03 2.374e-10
 86.75244   -153.3 9.025e+03 2.271e-10
 86.79393   -151.4 9.025e+03 2.253e-10
 86.82337   -150.3 9.101e+03 2.278e-10
 86.84412   -151.3 9.548e+03 2.654e-10
 86.87692   -151.6 1.030e+04 3.468e-10
 86.91841   -152.0 1.109e+04 5.938e-10
 86.94423   -152.5 1.154e+04 9.262e-10
 86.96497   -153.4 1.127e+04 9.682e-10
 87.00140   -154.2 1.132e+04 1.027e-09
 87.04289   -154.9 1.092e+04 9.221e-10
 87.06508   -154.9 1.013e+04 5.755e-10
 87.08583   -154.6 9.583e+03 3.751e-10
 87.12588   -154.5 8.823e+03 1.971e-10
 87.16519   -154.3 8.448e+03 1.350e-10
 87.18593   -153.9 8.090e+03 8.669e-11
 87.20887   -152.4 8.017e+03 8.017e-11
 87.25036   -150.7 8.016e+03 7.939e-11
 87.28604   -149.1 8.116e+03 8.030e-11
 87.30679   -148.6 7.805e+03 5.969e-11
 87.33335   -147.0 7.846e+03 6.021e-11
 87.37484   -145.5 8.147e+03 7.160e-11
 87.40599   -144.1 8.473e+03 1.121e-10
 87.41730   -142.9 8.336e+03 9.052e-11
 87.42764   -141.9 7.818e+03 5.070e-11
 87.45783   -140.5 8.184e+03 7.158e-11
 87.49932   -139.0 8.616e+03 1.353e-10
 87.52775   -137.4 9.124e+03 2.534e-10
 87.54850   -136.7 8.766e+03 1.490e-10
 87.58231   -135.2 9.342e+03 2.963e-10
 87.62380   -133.8 9.882e+03 4.904e-10
 87.64860   -132.5 1.027e+04 6.508e-10
 87.66935   -131.7 9.943e+03 5.074e-10
 87.70679   -130.4 1.022e+04 6.087e-10
 87.74828   -129.3 1.027e+04 6.276e-10
 87.76946   -128.0 1.021e+04 5.787e-10
 87.79020   -127.2 1.007e+04 4.978e-10
 87.83127   -126.0 1.001e+04 4.308e-10
 87.86956   -124.9 9.840e+03 3.499e-10
 87.89031   -124.5 9.859e+03 3.838e-10
 87.91425   -123.4 9.734e+03 3.331e-10
 87.95575   -122.2 9.603e+03 3.028e-10
 87.99042   -120.7 9.468e+03 2.816e-10
 88.01116   -120.6 9.505e+03 2.604e-10
 88.03873   -118.9 9.369e+03 2.113e-10
 88.08023   -117.2 9.269e+03 1.696e-10
 88.11127   -115.5 9.202e+03 1.367e-10
 88.13202   -115.9 9.115e+03 1.159e-10
 88.15539   -114.3 9.096e+03 1.011e-10
 88.17614   -113.1 9.037e+03 9.850e-11
 88.20471   -111.5 9.013e+03 9.280e-11
 88.23212   -109.9 9.011e+03 9.200e-11
 88.25287   -109.9 8.983e+03 9.216e-11
 88.28769   -108.4 9.059e+03 9.517e-11
 88.32919   -107.1 9.157e+03 1.018e-10
 88.35298   -105.8 9.225e+03 1.064e-10
 88.37372   -105.7 9.320e+03 1.071e-10
 88.41217   -104.6 9.348e+03 1.105e-10
 88.45308   -103.9 9.410e+03 1.134e-10
 88.47383   -103.9 9.585e+03 1.211e-10
 88.49516   -103.8 9.849e+03 1.335e-10
 88.53665   -104.0 1.024e+04 1.914e-10
 88.57394   -104.4 1.066e+04 3.272e-10
 88.59468   -105.4 1.137e+04 4.366e-10
 88.61964   -106.0 1.191e+04 7.974e-10
 88.66113   -106.4 1.226e+04 1.169e-09
 88.69479   -106.8 1.235e+04 1.299e-09
 88.71544   -107.3 1.295e+04 2.339e-09
 88.73355   -107.2 1.285e+04 2.239e-09
 88.75430   -106.7 1.261e+04 1.978e-09
 88.76539   -106.4 1.226e+04 1.573e-09
 88.77577   -106.0 1.242e+04 1.994e-09
 88.79579   -105.8 1.215e+04 1.573e-09
 88.81545   -105.7 1.183e+04 1.237e-09
 88.82582   -105.4 1.218e+04 1.307e-09
 88.83728   -105.3 1.192e+04 1.066e-09
 88.85803   -105.1 1.168e+04 8.922e-10
 88.87588   -104.9 1.147e+04 7.803e-10
 88.88625   -104.4 1.153e+04 9.211e-10
 88.89952   -104.2 1.155e+04 8.462e-10
 88.91498   -103.9 1.159e+04 8.087e-10
 88.92535   -103.8 1.178e+04 8.750e-10
 88.93630   -103.5 1.190e+04 8.697e-10
 88.95715   -103.2 1.196e+04 1.141e-09
 88.99308   -102.3 1.226e+04 1.302e-09
 89.02410   -101.8 1.243e+04 1.351e-09
 89.04475   -101.6 1.237e+04 1.356e-09
 89.05716   -101.4 1.215e+04 1.338e-09
 89.06753   -100.9 1.228e+04 1.416e-09
 89.08624   -100.5 1.210e+04 1.322e-09
 89.10699   -100.2 1.173e+04 1.124e-09
 89.11758   -100.0 1.131e+04 9.196e-10
 89.12796   -100.0 1.163e+04 9.636e-10
 89.14848    -99.7 1.107e+04 7.325e-10
 89.16764    -99.5 1.061e+04 5.644e-10
 89.17801    -99.3 1.158e+04 6.129e-10
 89.18998    -99.0 1.087e+04 4.264e-10
 89.21072    -98.6 1.034e+04 3.188e-10
 89.22806    -98.2 9.828e+03 2.364e-10
 89.23844    -98.6 1.124e+04 3.170e-10
 89.25222    -98.1 1.061e+04 2.433e-10
 89.27296    -97.6 1.024e+04 2.073e-10
 89.28849    -97.1 1.001e+04 1.909e-10
 89.29483    -98.2 1.148e+04 2.935e-10
 89.30005    -99.2 1.212e+04 5.400e-10
 89.31446    -99.0 1.200e+04 4.801e-10
 89.33520    -98.6 1.185e+04 4.561e-10
 89.34892    -98.1 1.173e+04 4.504e-10
 89.35929    -98.9 1.180e+04 8.237e-10
 89.37670    -98.4 1.167e+04 7.971e-10
 89.39744    -97.6 1.149e+04 7.653e-10
 89.40934    -96.8 1.128e+04 7.270e-10
 89.41972    -96.6 1.111e+04 1.199e-09
 89.43894    -95.7 1.096e+04 1.045e-09
 89.45940    -94.8 1.079e+04 8.870e-10
 89.46977    -94.4 1.072e+04 1.015e-09
 89.48043    -93.5 1.057e+04 8.233e-10
 89.50118    -92.6 1.043e+04 6.608e-10
 89.51982    -91.5 1.029e+04 5.280e-10
 89.53020    -91.9 1.054e+04 4.783e-10
 89.54267    -90.8 1.046e+04 3.978e-10
 89.57389    -89.7 1.053e+04 3.514e-10
 89.61548    -88.4 1.049e+04 3.193e-10
 89.64087    -86.4 1.033e+04 2.943e-10
 89.65885    -87.1 1.094e+04 2.949e-10
 89.67495    -88.3 1.096e+04 4.147e-10
 89.69847    -86.1 1.089e+04 3.784e-10
 89.73996    -83.7 1.081e+04 3.551e-10
 89.76172    -81.3 1.070e+04 3.467e-10
 89.78247    -81.4 1.050e+04 4.173e-10
 89.82295    -78.9 1.055e+04 3.912e-10
 89.86183    -76.5 1.056e+04 3.823e-10
 89.88258    -76.4 1.045e+04 4.010e-10
 89.90593    -74.0 1.065e+04 4.078e-10
 89.94743    -71.8 1.077e+04 4.612e-10
 89.98269    -69.7 1.084e+04 5.427e-10
 90.00343    -69.7 1.124e+04 6.304e-10
 90.03041    -67.5 1.150e+04 8.326e-10
 90.07191    -65.4 1.171e+04 9.719e-10
 90.10354    -63.5 1.178e+04 1.001e-09
 90.12429    -63.7 1.285e+04 1.394e-09
 90.14442    -62.6 1.287e+04 1.497e-09
 90.16377    -61.6 1.264e+04 1.396e-09
 90.17414    -62.3 1.376e+04 1.853e-09
 90.18582    -61.9 1.434e+04 1.894e-09
 90.20656    -61.8 1.507e+04 1.972e-09
 90.22420    -62.0 1.567e+04 2.137e-09
 90.23457    -63.0 1.565e+04 4.073e-09
 90.24806    -63.0 1.542e+04 4.595e-09
 90.26880    -62.9 1.515e+04 5.216e-09
 90.28462    -62.6 1.494e+04 5.830e-09
 90.29500    -61.6 1.505e+04 6.987e-09
 90.31030    -60.8 1.490e+04 7.037e-09
 90.33104    -59.8 1.480e+04 6.990e-09
 90.34505    -58.8 1.484e+04 6.645e-09
 90.35542    -57.9 1.580e+04 4.234e-09
 90.37254    -57.2 1.598e+04 3.467e-09
 90.39328    -56.8 1.620e+04 2.931e-09
 90.40548    -56.4 1.633e+04 2.626e-09
 90.41561    -58.9 1.664e+04 1.066e-09
 90.42416    -60.9 1.347e+04 5.021e-10
 90.43478    -60.1 1.334e+04 5.034e-10
 90.45552    -59.5 1.335e+04 5.496e-10
 90.47627    -59.9 1.259e+04 5.655e-10
 90.49702    -59.2 1.281e+04 7.393e-10
 90.51596    -58.4 1.301e+04 1.023e-09
 90.52633    -59.1 1.278e+04 1.072e-09
 90.53851    -58.2 1.304e+04 1.482e-09
 90.55926    -57.2 1.334e+04 2.022e-09
 90.57638    -56.4 1.368e+04 2.700e-09
 90.58676    -56.6 1.348e+04 2.362e-09
 90.60075    -55.9 1.383e+04 2.870e-09
 90.62150    -55.4 1.421e+04 3.443e-09
 90.63681    -55.1 1.456e+04 4.105e-09
 90.64718    -55.2 1.443e+04 2.679e-09
 90.66299    -55.1 1.469e+04 3.039e-09
 90.68374    -55.3 1.472e+04 3.436e-09
 90.69724    -55.4 1.457e+04 3.789e-09
 90.70761    -55.9 1.425e+04 2.390e-09
 90.72523    -56.1 1.397e+04 2.779e-09
 90.74598    -55.8 1.374e+04 3.114e-09
 90.75766    -54.9 1.367e+04 3.319e-09
 90.76804    -55.2 1.340e+04 2.751e-09
 90.78747    -54.2 1.344e+04 3.015e-09
 90.79887    -53.2 1.349e+04 3.072e-09
 90.80874    -53.3 1.301e+04 2.811e-09
 90.81809    -53.5 1.278e+04 2.225e-09
 90.82896    -52.4 1.280e+04 2.383e-09
 90.84971    -51.4 1.273e+04 2.389e-09
 90.86814    -50.2 1.264e+04 2.015e-09
 90.87852    -50.3 1.245e+04 1.912e-09
 90.89120    -49.1 1.237e+04 1.657e-09
 90.91195    -48.1 1.215e+04 1.318e-09
 90.92857    -47.3 1.189e+04 1.020e-09
 90.93894    -47.0 1.193e+04 1.075e-09
 90.95344    -46.1 1.168e+04 8.586e-10
 90.97419    -45.4 1.141e+04 6.628e-10
 90.98900    -44.6 1.106e+04 5.042e-10
 90.99937    -44.2 1.122e+04 5.601e-10
 91.02615    -43.2 1.088e+04 3.917e-10
 91.04962    -41.2 1.037e+04 2.628e-10
 91.07037    -40.7 1.050e+04 3.091e-10
 91.10924    -38.4 1.021e+04 2.091e-10
 91.14973    -36.5 9.822e+03 1.651e-10
 91.17047    -36.0 1.007e+04 2.177e-10
 91.17377    -34.0 9.757e+03 1.641e-10
 91.19451    -33.8 9.684e+03 2.086e-10
 91.23372    -31.8 9.358e+03 1.585e-10
 91.27058    -29.9 9.174e+03 1.402e-10
 91.29133    -29.2 9.229e+03 1.283e-10
 91.31671    -27.4 9.089e+03 1.103e-10
 91.35820    -25.5 9.053e+03 1.071e-10
 91.39143    -23.7 9.087e+03 1.158e-10
 91.41218    -23.7 9.214e+03 1.036e-10
 91.44119    -22.6 9.351e+03 1.406e-10
 91.48268    -21.4 9.559e+03 2.198e-10
 91.51229    -20.0 9.801e+03 3.475e-10
 91.53303    -20.0 9.910e+03 4.471e-10
 91.56567    -17.9 1.001e+04 5.208e-10
 91.60716    -15.8 1.004e+04 5.015e-10
 91.63314    -14.1 1.015e+04 4.074e-10
 91.65389    -15.0 1.003e+04 2.048e-10
 91.69015    -15.5 9.887e+03 1.652e-10
 91.73164    -15.0 9.537e+03 1.974e-10
 91.75399    -13.5 9.510e+03 2.824e-10
 91.77474    -14.2 9.213e+03 1.630e-10
 91.81463    -12.8 9.359e+03 1.741e-10
 91.85410    -11.4 9.262e+03 1.973e-10
 91.87485    -11.8 9.046e+03 1.301e-10
 91.89761    -10.4 9.034e+03 1.251e-10
 91.92317     -9.2 9.036e+03 1.103e-10
 91.94392     -9.4 8.991e+03 9.833e-11
 91.97495     -8.1 8.858e+03 9.607e-11
 91.99570     -8.0 8.631e+03 8.695e-11
 92.02209     -6.2 8.566e+03 8.495e-11
 92.06359     -4.5 8.599e+03 8.209e-11
 92.09581     -2.8 8.706e+03 8.074e-11
 92.11655     -2.6 8.645e+03 7.980e-11
 92.14657     -1.1 8.724e+03 8.469e-11
 92.18807      0.5 8.689e+03 9.755e-11
 92.21666      2.5 8.699e+03 1.092e-10
 92.23741      2.7 8.717e+03 1.017e-10
 92.27105      4.4 8.794e+03 1.098e-10
 92.31255      5.8 8.833e+03 1.138e-10
 92.33751      7.0 8.860e+03 1.204e-10
 92.35826      7.1 8.887e+03 1.312e-10
 92.39553      8.5 8.837e+03 1.390e-10
 92.43703     10.1 8.760e+03 1.426e-10
 92.45837     11.9 8.720e+03 1.334e-10
 92.47912     12.6 8.667e+03 1.071e-10
 92.52001     14.3 8.676e+03 8.591e-11
 92.55848     15.7 8.715e+03 6.991e-11
 92.57922     15.8 8.633e+03 6.007e-11
 92.60300     17.4 8.577e+03 5.633e-11
 92.64449     19.1 8.573e+03 5.641e-11
 92.67258     20.9 8.594e+03 5.820e-11
 92.68667     21.1 8.616e+03 5.508e-11
 92.70008     21.7 8.588e+03 4.949e-11
 92.72748     23.5 8.616e+03 5.040e-11
 92.76897     25.1 8.702e+03 5.448e-11
 92.80018     26.7 8.783e+03 6.288e-11
 92.82093     27.2 8.759e+03 5.632e-11
 92.85196     29.0 8.785e+03 6.606e-11
 92.89345     30.9 8.793e+03 7.548e-11
 92.92104     33.0 8.804e+03 8.146e-11
 92.94178     33.7 8.773e+03 6.486e-11
 92.97644     35.6 8.774e+03 6.378e-11
 93.01793     37.5 8.738e+03 6.222e-11
 93.04189     39.4 8.688e+03 6.179e-11
 93.06264     40.2 8.640e+03 5.190e-11
 93.10092     42.2 8.621e+03 5.254e-11
 93.14200     44.2 8.600e+03 5.538e-11
 93.16274     45.1 8.578e+03 5.056e-11
 93.18391     47.2 8.622e+03 5.339e-11
 93.22540     49.2 8.712e+03 5.781e-11
 93.26285     51.2 8.835e+03 6.504e-11
 93.28360     51.9 8.840e+03 6.095e-11
 93.30839     53.6 8.934e+03 7.138e-11
 93.34988     55.4 9.009e+03 8.927e-11
 93.38370     57.2 9.079e+03 1.147e-10
 93.40445     57.8 9.058e+03 1.158e-10
 93.42199     59.7 9.161e+03 1.487e-10
 93.44273     59.9 9.235e+03 1.767e-10
 93.47436     61.6 9.437e+03 1.828e-10
 93.50456     63.1 9.503e+03 1.789e-10
 93.52530     63.5 9.610e+03 1.898e-10
 93.55735     64.9 9.656e+03 1.861e-10
 93.59884     66.3 9.723e+03 1.679e-10
 93.62541     67.6 9.708e+03 1.404e-10
 93.64616     68.0 9.685e+03 2.044e-10
 93.68183     69.5 9.563e+03 1.851e-10
 93.72332     71.2 9.410e+03 1.651e-10
 93.74626     72.9 9.274e+03 1.501e-10
 93.76701     73.7 9.453e+03 1.956e-10
 93.80631     75.5 9.335e+03 1.776e-10
 93.84637     77.4 9.225e+03 1.658e-10
 93.86712     77.8 9.245e+03 1.728e-10
 93.88929     79.7 9.165e+03 1.727e-10
 93.93079     81.7 9.148e+03 1.750e-10
 93.96722     83.7 9.121e+03 1.838e-10
 93.98797     84.3 9.142e+03 1.893e-10
 94.01377     86.4 9.151e+03 2.002e-10
 94.05527     88.4 9.152e+03 2.000e-10
 94.08808     90.4 9.125e+03 1.940e-10
 94.10882     91.1 9.071e+03 1.737e-10
 94.13825     93.2 9.040e+03 1.571e-10
 94.17139     95.1 9.001e+03 1.330e-10
 94.19214     95.0 8.957e+03 1.131e-10
 94.20893     96.9 8.871e+03 1.007e-10
 94.22968     97.6 8.845e+03 9.893e-11
 94.26273     99.7 8.850e+03 9.932e-11
 94.30423    101.8 8.882e+03 1.019e-10
 94.32978    103.9 8.919e+03 1.091e-10
 94.35053    104.4 8.874e+03 1.330e-10
 94.38721    106.6 8.901e+03 1.594e-10
 94.42870    108.9 8.998e+03 2.004e-10
 94.45064    111.2 9.210e+03 2.620e-10
 94.47138    112.1 9.560e+03 3.435e-10
 94.51169    114.2 9.903e+03 4.266e-10
 94.55074    115.8 1.013e+04 4.998e-10
 94.57149    115.5 1.056e+04 5.075e-10
 94.58421    116.9 1.068e+04 5.678e-10
 94.60486    118.2 1.089e+04 6.089e-10
 94.62135    119.2 1.107e+04 6.126e-10
 94.63172    119.0 1.115e+04 6.155e-10
 94.64635    119.8 1.114e+04 5.882e-10
 94.66710    120.6 1.111e+04 5.412e-10
 94.68178    121.2 1.111e+04 4.908e-10
 94.69215    120.8 1.098e+04 4.854e-10
 94.70859    121.2 1.103e+04 4.785e-10
 94.72934    121.6 1.110e+04 4.844e-10
 94.74220    121.5 1.132e+04 5.180e-10
 94.75258    120.1 1.161e+04 6.304e-10
 94.77083    119.6 1.202e+04 7.853e-10
 94.79158    119.0 1.233e+04 1.039e-09
 94.80263    118.7 1.257e+04 1.406e-09
 94.81300    118.5 1.255e+04 1.978e-09
 94.83307    119.0 1.270e+04 2.444e-09
 94.85268    119.5 1.285e+04 2.614e-09
 94.86306    120.2 1.257e+04 2.507e-09
 94.87456    120.5 1.258e+04 2.357e-09
 94.89531    120.4 1.273e+04 1.997e-09
 94.91311    120.2 1.342e+04 1.695e-09
 94.92348    119.3 1.380e+04 1.012e-09
 94.93098    118.0 1.382e+04 1.017e-09
 94.94145    116.0 1.296e+04 6.350e-10
 94.96812    114.1 1.273e+04 8.374e-10
 95.00961    111.9 1.288e+04 1.057e-09
 95.03406    110.6 1.283e+04 1.073e-09
 95.05481    110.8 1.230e+04 8.018e-10
 95.09260    108.8 1.221e+04 8.672e-10
 95.13409    107.3 1.207e+04 1.005e-09
 95.17558    107.4 1.180e+04 9.723e-10
 95.21708    106.9 1.180e+04 9.571e-10
 95.25512    106.5 1.173e+04 8.713e-10
 95.27587    106.8 1.120e+04 4.560e-10
 95.30006    106.0 1.098e+04 3.503e-10
 95.34156    105.2 1.065e+04 3.198e-10
 95.37597    104.9 1.059e+04 3.214e-10
 95.39672    105.2 1.006e+04 2.396e-10
 95.42454    105.4 1.007e+04 2.378e-10
 95.46604    105.9 1.011e+04 2.357e-10
 95.49683    106.2 1.021e+04 2.293e-10
 95.51757    106.2 1.001e+04 1.709e-10
 95.54902    106.1 9.980e+03 1.543e-10
 95.59052    106.0 9.891e+03 1.525e-10
 95.61768    106.1 9.872e+03 1.548e-10
 95.63843    106.7 9.601e+03 1.557e-10
 95.67020    107.2 9.567e+03 1.688e-10
 95.69095    106.9 9.435e+03 1.628e-10
 95.71500    107.8 9.390e+03 1.827e-10
 95.73853    108.9 9.367e+03 2.050e-10
 95.75928    109.6 9.203e+03 2.294e-10
 95.79798    110.8 9.187e+03 2.306e-10
 95.83864    112.1 9.160e+03 2.273e-10
 95.85939    113.2 8.982e+03 2.061e-10
 95.88097    114.6 8.910e+03 1.973e-10
 95.92246    116.0 8.857e+03 1.852e-10
 95.95949    117.4 8.822e+03 1.723e-10
 95.98024    118.0 8.759e+03 1.716e-10
 96.00545    119.4 8.737e+03 1.705e-10
 96.04694    120.8 8.704e+03 1.668e-10
 96.08035    122.3 8.658e+03 1.599e-10
 96.10109    123.2 8.636e+03 1.888e-10
 96.12993    124.8 8.595e+03 1.825e-10
 96.17142    126.6 8.540e+03 1.738e-10
 96.20120    128.4 8.510e+03 1.705e-10
 96.22195    129.5 8.450e+03 1.756e-10
 96.25441    131.4 8.448e+03 1.746e-10
 96.29590    133.4 8.464e+03 1.757e-10
 96.32205    135.4 8.519e+03 1.806e-10
 96.34280    136.6 8.414e+03 1.802e-10
 96.37889    138.6 8.465e+03 1.852e-10
 96.41961    140.4 8.522e+03 1.909e-10
 96.44036    141.0 8.608e+03 2.040e-10
 96.44291    142.8 8.701e+03 2.227e-10
 96.46365    144.1 8.655e+03 2.174e-10
 96.50337    145.9 8.742e+03 2.312e-10
 96.54301    147.6 8.910e+03 2.583e-10
 96.56376    149.0 8.740e+03 2.275e-10
 96.58636    150.6 8.911e+03 2.495e-10
 96.62785    152.1 9.192e+03 2.962e-10
 96.66387    153.1 9.517e+03 3.726e-10
 96.68461    155.1 9.161e+03 2.872e-10
 96.71084    156.1 9.493e+03 3.668e-10
 96.73457    156.3 9.795e+03 4.852e-10
 96.74485    156.7 9.627e+03 4.182e-10
 96.76251    157.4 9.800e+03 5.123e-10
 96.78326    158.0 1.006e+04 6.754e-10
 96.79490    158.8 1.033e+04 8.627e-10
 96.80527    159.8 1.016e+04 7.375e-10
 96.81487    160.4 1.052e+04 9.584e-10
 96.82524    160.6 1.091e+04 1.160e-09
 96.84495    161.1 1.112e+04 1.230e-09
 96.85533    162.3 1.105e+04 1.253e-09
 96.86624    162.9 1.123e+04 1.324e-09
 96.88699    163.4 1.121e+04 1.299e-09
 96.90548    163.6 1.080e+04 9.494e-10
 96.91585    164.9 1.121e+04 1.265e-09
 96.92848    165.3 1.103e+04 1.131e-09
 96.94923    165.8 1.076e+04 9.165e-10
 96.96581    166.1 1.045e+04 7.407e-10
 96.97618    167.5 1.073e+04 9.047e-10
 96.99072    167.8 1.041e+04 7.182e-10
 97.01147    168.0 1.009e+04 5.691e-10
 97.02633    167.9 9.669e+03 4.221e-10
 97.03670    169.5 1.008e+04 5.567e-10
 97.05296    169.4 9.866e+03 4.840e-10
 97.07371    169.4 9.786e+03 4.459e-10
 97.08666    169.6 9.761e+03 4.288e-10
 97.09703    170.9 9.920e+03 5.023e-10
 97.11520    171.0 9.935e+03 4.970e-10
 97.13595    171.1 9.946e+03 4.909e-10
 97.14709    171.2 9.951e+03 4.813e-10
 97.15746    172.5 1.015e+04 5.950e-10
 97.17744    172.6 1.019e+04 5.896e-10
 97.18957    172.5 1.021e+04 5.891e-10
 97.19889    173.3 1.033e+04 6.360e-10
 97.20751    174.3 1.068e+04 8.180e-10
 97.21894    173.9 1.076e+04 8.254e-10
 97.23968    173.2 1.099e+04 8.596e-10
 97.25757    171.8 1.148e+04 9.941e-10
 97.26794    172.2 1.215e+04 1.370e-09
 97.28118    169.9 1.304e+04 1.867e-09
 97.30192    167.3 1.395e+04 2.696e-09
 97.31799    164.6 1.467e+04 3.643e-09
 97.32837    164.6 1.565e+04 5.113e-09
 97.34342    161.5 1.580e+04 5.178e-09
 97.36416    158.1 1.568e+04 4.780e-09
 97.37842    154.9 1.503e+04 3.434e-09
 97.38879    154.4 1.546e+04 3.749e-09
 97.40566    151.3 1.393e+04 1.847e-09
 97.42640    147.8 1.181e+04 7.649e-10
 97.43885    144.0 1.091e+04 4.888e-10
 97.44922    143.4 1.092e+04 5.016e-10
 97.46790    141.2 1.097e+04 5.125e-10
 97.48864    137.7 1.197e+04 6.632e-10
 97.49927    130.9 1.512e+04 1.783e-09
 97.50965    130.4 1.535e+04 1.946e-09
 97.53014    124.3 1.799e+04 6.315e-09
 97.54933    120.1 1.867e+04 1.057e-08
 97.55970    119.1 1.882e+04 1.082e-08
 97.56427    115.9 1.853e+04 1.031e-08
 97.57464    118.6 1.754e+04 7.489e-09
 97.59238    116.2 1.682e+04 6.004e-09
 97.60975    114.4 1.535e+04 3.090e-09
 97.62013    114.4 1.526e+04 3.050e-09
 97.63387    112.3 1.302e+04 1.132e-09
 97.66509    107.9 1.064e+04 3.837e-10
 97.70668    107.3 9.872e+03 2.183e-10
 97.73080    108.3 9.589e+03 1.906e-10
 97.75155    109.2 9.598e+03 2.122e-10
 97.78966    111.2 9.477e+03 1.999e-10
 97.83091    113.5 9.434e+03 1.940e-10
 97.85166    114.5 9.660e+03 2.502e-10
 97.87265    116.6 9.609e+03 2.439e-10
 97.91414    118.6 9.623e+03 2.416e-10
 97.93917    120.6 9.654e+03 2.419e-10
 97.95604    120.7 9.576e+03 2.082e-10
 97.97251    121.6 9.829e+03 2.833e-10
 97.99713    123.4 9.863e+03 2.837e-10
 98.03862    125.0 9.883e+03 2.798e-10
 98.07262    126.6 9.924e+03 2.639e-10
 98.09336    127.3 1.026e+04 3.741e-10
 98.12161    128.7 1.029e+04 3.499e-10
 98.16310    130.0 1.034e+04 3.148e-10
 98.19347    131.2 1.038e+04 2.768e-10
 98.21422    131.7 1.068e+04 3.860e-10
 98.24609    132.9 1.072e+04 3.550e-10
 98.28758    134.1 1.073e+04 3.352e-10
 98.31432    135.2 1.071e+04 3.250e-10
 98.32460    135.4 1.082e+04 3.597e-10
 98.33926    135.8 1.082e+04 3.601e-10
 98.36000    136.4 1.080e+04 3.578e-10
 98.37455    136.9 1.078e+04 3.581e-10
 98.38493    137.2 1.102e+04 4.280e-10
 98.40150    137.7 1.096e+04 4.245e-10
 98.42224    138.3 1.087e+04 4.178e-10
 98.43498    139.0 1.077e+04 4.061e-10
 98.44535    139.2 1.098e+04 5.010e-10
 98.46374    140.0 1.082e+04 4.704e-10
 98.48448    140.8 1.069e+04 4.408e-10
 98.49541    141.5 1.063e+04 4.192e-10
 98.50578    141.8 1.074e+04 4.767e-10
 98.52598    142.4 1.076e+04 4.611e-10
 98.54546    143.0 1.079e+04 4.638e-10
 98.55583    143.2 1.104e+04 5.216e-10
 98.56747    143.8 1.110e+04 5.276e-10
 98.58822    144.2 1.120e+04 5.496e-10
 98.60589    144.5 1.131e+04 5.908e-10
 98.61626    144.5 1.172e+04 6.888e-10
 98.62971    144.8 1.180e+04 7.657e-10
 98.65046    145.0 1.183e+04 8.647e-10
 98.66631    145.3 1.183e+04 9.687e-10
 98.67669    145.2 1.217e+04 1.250e-09
 98.68838    145.5 1.211e+04 1.255e-09
 98.69875    147.0 1.210e+04 1.104e-09
 98.71270    147.1 1.201e+04 1.155e-09
 98.72674    147.6 1.197e+04 1.140e-09
 98.73711    147.5 1.231e+04 1.475e-09
 98.75419    147.9 1.223e+04 1.405e-09
 98.77689    149.3 1.196e+04 1.188e-09
 98.79764    148.9 1.230e+04 1.469e-09
 98.82690    150.4 1.230e+04 1.516e-09
 98.86849    151.1 1.167e+04 1.116e-09
 98.89784    152.0 1.086e+04 7.315e-10
 98.91859    151.9 1.113e+04 8.794e-10
 98.95148    153.0 1.044e+04 6.013e-10
 98.99297    154.2 9.831e+03 3.843e-10
 99.01870    155.6 9.358e+03 2.333e-10
 99.03944    155.8 9.793e+03 3.863e-10
 99.07596    157.6 9.427e+03 2.666e-10
 99.11745    159.5 9.143e+03 1.864e-10
 99.13955    161.5 8.931e+03 1.379e-10
 99.16030    162.1 9.308e+03 2.510e-10
 99.20044    164.3 9.076e+03 1.941e-10
 99.23966    166.5 8.894e+03 1.579e-10
 99.26040    167.0 9.185e+03 2.402e-10
 99.28342    169.4 8.982e+03 1.951e-10
 99.32492    171.8 8.828e+03 1.641e-10
 99.36051    174.2 8.723e+03 1.435e-10
 99.38126    174.8 8.920e+03 1.895e-10
 99.40790    177.3 8.863e+03 1.708e-10
 99.43798    179.8 8.853e+03 1.615e-10
 99.45873    179.8 8.724e+03 1.253e-10
 99.48136    182.2 8.733e+03 1.254e-10
 99.50211    182.8 8.930e+03 1.550e-10
 99.53238    185.1 8.968e+03 1.517e-10
 99.57388    187.4 8.984e+03 1.532e-10
 99.60222    189.6 9.030e+03 1.574e-10
 99.62296    190.1 9.470e+03 2.067e-10
 99.65686    192.1 9.567e+03 2.124e-10
 99.69836    194.3 9.698e+03 2.308e-10
 99.72307    196.6 9.885e+03 2.570e-10
 99.73335    195.9 1.029e+04 3.345e-10
 99.75003    196.9 1.041e+04 3.561e-10
 99.77078    197.9 1.051e+04 3.782e-10
 99.78330    198.7 1.060e+04 4.034e-10
 99.79368    198.9 1.102e+04 6.302e-10
 99.81227    199.9 1.122e+04 7.077e-10
 99.82286    200.7 1.148e+04 8.092e-10
 99.83324    201.2 1.089e+04 4.769e-10
 99.84373    202.2 1.116e+04 5.472e-10
 99.85410    201.8 1.183e+04 9.303e-10
 99.87451    202.1 1.244e+04 1.220e-09
 99.89378    201.9 1.317e+04 1.699e-09
 99.90416    201.3 1.421e+04 3.435e-09
 99.91600    201.0 1.512e+04 5.008e-09
 99.93675    200.7 1.604e+04 7.147e-09
 99.95421    200.2 1.688e+04 9.657e-09
 99.96458    199.9 1.802e+04 1.436e-08
 99.97824    198.8 1.826e+04 1.449e-08
 99.99899    197.6 1.827e+04 1.276e-08
