# Columns:
#   distance along LOS (in CHIMPs)
#   peculiar velocity  (in km/s)
#   temperature (K)
#   HI number density
# pos=(210.855,191.946,251.064), angles=(1.52612,1.6759)
  0.00432    -54.8 1.163e+04 5.212e-10
  0.01847    -54.0 1.149e+04 4.728e-10
  0.03813    -53.1 1.148e+04 4.577e-10
  0.05779    -52.2 1.150e+04 4.588e-10
  0.07745    -51.5 1.161e+04 4.793e-10
  0.09710    -50.9 1.172e+04 5.247e-10
  0.11676    -50.2 1.183e+04 5.977e-10
  0.13642    -49.7 1.191e+04 6.962e-10
  0.15118    -49.1 1.200e+04 8.099e-10
  0.16101    -48.9 1.185e+04 7.278e-10
  0.18567    -48.4 1.204e+04 8.635e-10
  0.22508    -47.4 1.214e+04 1.042e-09
  0.26440    -46.6 1.209e+04 1.082e-09
  0.30372    -45.7 1.177e+04 9.402e-10
  0.34304    -44.7 1.141e+04 6.824e-10
  0.38236    -43.9 1.114e+04 5.097e-10
  0.42168    -43.1 1.095e+04 4.502e-10
  0.46100    -42.0 1.087e+04 4.368e-10
  0.50031    -40.6 1.079e+04 4.226e-10
  0.52450    -39.2 1.068e+04 3.851e-10
  0.54416    -38.5 1.075e+04 3.928e-10
  0.57895    -37.3 1.068e+04 3.378e-10
  0.61827    -36.3 1.069e+04 3.078e-10
  0.64437    -35.5 1.081e+04 3.086e-10
  0.66403    -35.1 1.049e+04 2.498e-10
  0.69691    -34.3 1.065e+04 3.105e-10
  0.73623    -33.7 1.087e+04 3.920e-10
  0.76562    -33.6 1.101e+04 5.570e-10
  0.78518    -33.0 1.103e+04 6.145e-10
  0.81476    -32.4 1.094e+04 5.949e-10
  0.85418    -31.5 1.091e+04 6.605e-10
  0.88779    -30.4 1.085e+04 6.669e-10
  0.90745    -30.3 1.122e+04 9.193e-10
  0.93282    -29.3 1.083e+04 6.391e-10
  0.97214    -29.0 1.058e+04 4.175e-10
  1.01145    -29.4 1.050e+04 3.628e-10
  1.05077    -30.0 1.064e+04 4.256e-10
  1.09009    -30.5 1.092e+04 6.677e-10
  1.12941    -30.4 1.109e+04 8.532e-10
  1.16873    -30.4 1.094e+04 8.046e-10
  1.20805    -30.6 1.023e+04 4.109e-10
  1.24737    -31.7 9.370e+03 1.613e-10
  1.27074    -33.0 8.866e+03 9.749e-11
  1.29040    -31.5 8.928e+03 9.178e-11
  1.32600    -31.9 8.654e+03 7.829e-11
  1.36532    -31.6 8.548e+03 8.201e-11
  1.40464    -31.2 8.588e+03 1.060e-10
  1.44396    -31.0 8.726e+03 1.342e-10
  1.48328    -31.3 9.018e+03 1.714e-10
  1.51419    -32.5 9.340e+03 2.275e-10
  1.53385    -31.4 9.317e+03 2.089e-10
  1.56191    -33.1 9.442e+03 2.580e-10
  1.60123    -34.5 9.422e+03 2.755e-10
  1.63403    -35.2 9.132e+03 2.486e-10
  1.65369    -33.7 9.261e+03 2.658e-10
  1.67987    -34.2 8.875e+03 1.725e-10
  1.71919    -35.0 8.522e+03 1.001e-10
  1.75851    -35.7 8.388e+03 8.280e-11
  1.79782    -36.1 8.390e+03 8.493e-11
  1.83714    -36.4 8.640e+03 1.501e-10
  1.87646    -36.1 9.025e+03 2.807e-10
  1.91578    -35.2 9.413e+03 4.064e-10
  1.95510    -34.7 9.673e+03 4.491e-10
  1.99442    -34.7 9.779e+03 4.400e-10
  2.01698    -35.7 9.941e+03 3.991e-10
  2.03664    -34.9 1.007e+04 4.115e-10
  2.07305    -36.7 1.037e+04 4.102e-10
  2.10244    -38.3 1.075e+04 5.153e-10
  2.12201    -39.1 1.100e+04 7.370e-10
  2.14167    -39.3 1.127e+04 1.070e-09
  2.16133    -38.9 1.156e+04 1.312e-09
  2.18098    -38.3 1.169e+04 1.384e-09
  2.19843    -37.9 1.170e+04 1.347e-09
  2.20826    -37.6 1.174e+04 1.361e-09
  2.22030    -37.3 1.165e+04 1.028e-09
  2.23996    -37.4 1.144e+04 7.274e-10
  2.25962    -38.2 1.111e+04 5.295e-10
  2.27928    -38.7 1.069e+04 4.201e-10
  2.29894    -38.9 1.041e+04 3.709e-10
  2.31860    -38.8 1.029e+04 3.521e-10
  2.34819    -38.5 1.028e+04 3.337e-10
  2.38027    -37.1 1.033e+04 2.779e-10
  2.39634    -36.7 9.972e+03 2.527e-10
  2.40368    -36.3 1.042e+04 3.249e-10
  2.42692    -34.7 1.035e+04 2.929e-10
  2.46624    -33.1 1.035e+04 2.531e-10
  2.50556    -31.8 1.040e+04 2.377e-10
  2.54488    -31.2 1.078e+04 2.515e-10
  2.58419    -31.4 1.117e+04 3.720e-10
  2.61359    -33.5 1.144e+04 5.432e-10
  2.63315    -34.9 1.178e+04 7.460e-10
  2.65281    -37.7 1.293e+04 1.213e-09
  2.67247    -41.8 1.427e+04 1.941e-09
  2.69212    -46.1 1.504e+04 3.092e-09
  2.71178    -49.7 1.498e+04 4.122e-09
  2.73144    -52.2 1.484e+04 4.446e-09
  2.75110    -53.6 1.455e+04 4.355e-09
  2.76302    -54.4 1.424e+04 3.240e-09
  2.77285    -54.6 1.402e+04 2.549e-09
  2.79042    -56.6 1.363e+04 1.624e-09
  2.81008    -59.0 1.301e+04 1.211e-09
  2.82856    -60.4 1.268e+04 1.123e-09
  2.83839    -62.2 1.330e+04 1.838e-09
  2.84940    -62.5 1.358e+04 2.238e-09
  2.86906    -62.3 1.396e+04 2.755e-09
  2.88872    -61.9 1.439e+04 3.261e-09
  2.90838    -61.6 1.479e+04 3.703e-09
  2.92804    -61.6 1.509e+04 4.033e-09
  2.94467    -61.7 1.526e+04 4.338e-09
  2.95450    -62.4 1.545e+04 5.363e-09
  2.96735    -62.2 1.530e+04 5.673e-09
  2.98701    -62.0 1.510e+04 5.903e-09
  3.00667    -61.7 1.483e+04 5.765e-09
  3.02633    -61.3 1.450e+04 5.095e-09
  3.04599    -60.8 1.418e+04 4.271e-09
  3.06565    -60.5 1.412e+04 3.240e-09
  3.08531    -60.5 1.419e+04 2.256e-09
  3.10497    -61.0 1.400e+04 1.538e-09
  3.12463    -62.0 1.320e+04 1.087e-09
  3.13614    -62.6 1.217e+04 8.452e-10
  3.14597    -62.8 1.175e+04 6.832e-10
  3.16395    -62.8 1.133e+04 6.126e-10
  3.18361    -62.1 1.118e+04 5.876e-10
  3.20326    -61.4 1.112e+04 5.796e-10
  3.22292    -60.7 1.107e+04 5.703e-10
  3.24258    -59.9 1.102e+04 5.519e-10
  3.26224    -59.2 1.096e+04 5.219e-10
  3.27340    -58.4 1.086e+04 4.779e-10
  3.29316    -58.4 1.077e+04 5.261e-10
  3.33125    -56.9 1.062e+04 4.867e-10
  3.37056    -55.3 1.046e+04 4.092e-10
  3.40988    -53.8 1.037e+04 3.292e-10
  3.44920    -52.7 1.035e+04 2.775e-10
  3.48852    -51.8 1.036e+04 2.663e-10
  3.50946    -51.1 1.052e+04 2.756e-10
  3.52912    -51.2 1.071e+04 3.192e-10
  3.56716    -50.8 1.090e+04 4.236e-10
  3.60647    -50.6 1.106e+04 5.386e-10
  3.64579    -50.6 1.123e+04 6.567e-10
  3.68511    -50.8 1.147e+04 8.127e-10
  3.72443    -50.9 1.175e+04 1.011e-09
  3.76375    -50.9 1.192e+04 1.137e-09
  3.80307    -50.9 1.183e+04 1.000e-09
  3.84239    -50.6 1.159e+04 7.478e-10
  3.87275    -50.3 1.126e+04 5.017e-10
  3.89241    -50.7 1.113e+04 4.174e-10
  3.92102    -50.7 1.093e+04 3.301e-10
  3.96034    -50.5 1.088e+04 3.166e-10
  3.99966    -50.3 1.096e+04 3.536e-10
  4.03898    -50.2 1.113e+04 4.603e-10
  4.07830    -50.1 1.125e+04 5.824e-10
  4.11762    -50.2 1.133e+04 6.423e-10
  4.14332    -50.9 1.125e+04 6.302e-10
  4.16298    -51.5 1.101e+04 4.776e-10
  4.19625    -52.3 1.065e+04 3.439e-10
  4.23557    -53.2 1.025e+04 2.159e-10
  4.25570    -53.9 9.876e+03 1.447e-10
  4.27536    -54.4 9.414e+03 1.295e-10
  4.31421    -54.6 9.346e+03 1.213e-10
  4.35353    -54.6 9.343e+03 1.200e-10
  4.39284    -54.9 9.437e+03 1.219e-10
  4.43216    -58.2 1.031e+04 2.317e-10
  4.47148    -62.2 1.214e+04 8.230e-10
  4.50087    -65.0 1.347e+04 2.022e-09
  4.52043    -66.3 1.423e+04 2.950e-09
  4.54009    -67.8 1.458e+04 3.446e-09
  4.55975    -69.7 1.459e+04 3.465e-09
  4.57803    -72.0 1.443e+04 2.880e-09
  4.58786    -71.4 1.421e+04 2.599e-09
  4.59907    -74.7 1.437e+04 2.397e-09
  4.61873    -79.0 1.463e+04 2.385e-09
  4.63839    -82.6 1.537e+04 3.210e-09
  4.65805    -85.6 1.568e+04 4.502e-09
  4.67771    -87.8 1.600e+04 5.123e-09
  4.69737    -91.0 1.633e+04 5.109e-09
  4.71703    -97.2 1.737e+04 4.663e-09
  4.73669   -107.2 1.939e+04 4.379e-09
  4.75635   -116.8 2.074e+04 7.938e-09
  4.77600   -121.2 2.072e+04 2.014e-08
  4.79070   -122.7 2.104e+04 3.173e-08
  4.80031   -123.8 2.116e+04 3.515e-08
  4.80522   -123.7 2.098e+04 3.450e-08
  4.81017   -124.5 2.089e+04 3.440e-08
  4.82005   -124.7 1.985e+04 2.130e-08
  4.83498   -125.7 1.850e+04 1.156e-08
  4.85464   -126.8 1.696e+04 5.237e-09
  4.87430   -129.2 1.453e+04 1.887e-09
  4.89396   -131.8 1.314e+04 1.010e-09
  4.91362   -133.3 1.255e+04 8.306e-10
  4.93328   -133.9 1.235e+04 8.114e-10
  4.95294   -134.2 1.227e+04 1.022e-09
  4.97260   -134.3 1.264e+04 1.451e-09
  4.99191   -134.0 1.297e+04 1.941e-09
  5.00174   -134.2 1.284e+04 1.860e-09
  5.01192   -134.1 1.294e+04 2.035e-09
  5.02277   -134.1 1.295e+04 2.061e-09
  5.03260   -134.6 1.329e+04 2.490e-09
  5.05123   -134.5 1.300e+04 2.135e-09
  5.07089   -134.6 1.244e+04 1.545e-09
  5.09055   -135.2 1.172e+04 1.046e-09
  5.11021   -135.8 1.099e+04 7.067e-10
  5.12987   -136.2 1.044e+04 5.028e-10
  5.14953   -136.3 1.014e+04 3.970e-10
  5.17912   -136.3 9.912e+03 3.337e-10
  5.21853   -135.2 9.536e+03 2.491e-10
  5.25785   -133.2 9.087e+03 1.700e-10
  5.29717   -131.1 8.778e+03 1.169e-10
  5.33649   -129.2 8.656e+03 8.693e-11
  5.36523   -127.4 8.602e+03 7.001e-11
  5.38489   -127.6 8.569e+03 6.502e-11
  5.41513   -125.9 8.497e+03 5.646e-11
  5.45444   -124.3 8.428e+03 5.330e-11
  5.49376   -122.7 8.399e+03 5.229e-11
  5.53308   -121.1 8.385e+03 5.192e-11
  5.57240   -119.7 8.359e+03 5.391e-11
  5.61172   -118.3 8.322e+03 5.914e-11
  5.65104   -116.9 8.289e+03 6.511e-11
  5.69035   -115.5 8.264e+03 7.039e-11
  5.72852   -114.1 8.257e+03 7.460e-11
  5.74818   -114.5 8.313e+03 8.691e-11
  5.76899   -113.1 8.320e+03 8.878e-11
  5.80831   -111.6 8.317e+03 8.910e-11
  5.84763   -109.9 8.267e+03 8.522e-11
  5.88296   -108.2 8.210e+03 7.783e-11
  5.90262   -109.5 8.252e+03 7.623e-11
  5.92627   -107.6 8.180e+03 6.641e-11
  5.96558   -105.8 8.119e+03 5.820e-11
  6.00490   -103.9 8.080e+03 5.196e-11
  6.04422   -102.0 8.058e+03 4.780e-11
  6.08354   -100.1 8.079e+03 4.533e-11
  6.11147    -98.2 8.097e+03 4.480e-11
  6.13113    -98.4 8.103e+03 4.411e-11
  6.16218    -96.6 8.148e+03 4.546e-11
  6.20149    -94.8 8.176e+03 4.964e-11
  6.24081    -92.9 8.194e+03 5.549e-11
  6.28013    -91.0 8.219e+03 6.172e-11
  6.31945    -89.1 8.262e+03 6.685e-11
  6.35877    -87.2 8.299e+03 7.016e-11
  6.39809    -85.3 8.321e+03 7.205e-11
  6.43741    -83.5 8.339e+03 7.315e-11
  6.47476    -81.8 8.358e+03 7.447e-11
  6.49442    -82.5 8.444e+03 8.463e-11
  6.51604    -81.1 8.576e+03 9.483e-11
  6.55536    -80.0 8.798e+03 1.155e-10
  6.59468    -79.0 9.084e+03 1.521e-10
  6.63400    -78.0 9.379e+03 2.052e-10
  6.67332    -77.0 9.637e+03 2.660e-10
  6.71264    -76.0 9.834e+03 3.193e-10
  6.75195    -75.0 9.984e+03 3.584e-10
  6.77244    -74.2 1.015e+04 3.849e-10
  6.79210    -76.4 1.032e+04 4.236e-10
  6.83059    -76.0 1.051e+04 4.484e-10
  6.85771    -75.9 1.077e+04 5.130e-10
  6.87737    -76.9 1.062e+04 4.225e-10
  6.90923    -76.6 1.084e+04 6.044e-10
  6.94855    -75.9 1.092e+04 7.479e-10
  6.98786    -75.2 1.092e+04 7.755e-10
  7.02718    -74.2 1.060e+04 7.076e-10
  7.06650    -72.8 1.009e+04 5.105e-10
  7.10582    -71.4 9.618e+03 3.348e-10
  7.14514    -70.3 9.339e+03 2.330e-10
  7.18446    -69.3 9.221e+03 1.886e-10
  7.22100    -68.4 9.187e+03 1.773e-10
  7.24066    -69.3 9.191e+03 1.840e-10
  7.26309    -68.3 9.261e+03 2.122e-10
  7.30241    -67.3 9.338e+03 2.526e-10
  7.34173    -66.2 9.396e+03 2.953e-10
  7.38105    -65.1 9.402e+03 3.216e-10
  7.42037    -63.9 9.321e+03 3.146e-10
  7.45969    -62.6 9.122e+03 2.500e-10
  7.49900    -61.5 8.883e+03 1.768e-10
  7.53832    -60.5 8.687e+03 1.165e-10
  7.57764    -59.8 8.582e+03 8.073e-11
  7.60395    -59.2 8.567e+03 6.760e-11
  7.62361    -59.1 8.364e+03 5.770e-11
  7.64226    -58.2 8.391e+03 5.444e-11
  7.66192    -59.2 8.403e+03 5.450e-11
  7.69560    -58.8 8.669e+03 5.561e-11
  7.73492    -58.4 8.866e+03 7.108e-11
  7.77423    -57.9 8.939e+03 9.384e-11
  7.81355    -57.4 9.009e+03 1.158e-10
  7.85287    -57.1 9.110e+03 1.331e-10
  7.89219    -56.8 9.208e+03 1.427e-10
  7.93151    -56.6 9.238e+03 1.508e-10
  7.96724    -56.3 9.224e+03 1.536e-10
  7.98690    -55.9 9.436e+03 1.792e-10
  8.01015    -55.3 9.333e+03 1.722e-10
  8.04946    -54.3 9.231e+03 1.494e-10
  8.08878    -53.2 9.200e+03 1.252e-10
  8.12810    -52.1 9.189e+03 1.085e-10
  8.16742    -50.8 9.196e+03 9.859e-11
  8.20674    -49.5 9.206e+03 9.375e-11
  8.24606    -48.2 9.218e+03 9.324e-11
  8.28537    -47.1 9.363e+03 9.476e-11
  8.32469    -46.6 9.594e+03 1.187e-10
  8.35019    -46.1 9.735e+03 1.737e-10
  8.36985    -45.5 9.913e+03 2.245e-10
  8.40333    -45.1 1.018e+04 3.192e-10
  8.44265    -44.8 1.050e+04 4.178e-10
  8.48197    -44.8 1.078e+04 4.961e-10
  8.51136    -45.0 1.088e+04 4.916e-10
  8.52172    -45.0 1.088e+04 5.030e-10
  8.53155    -45.5 1.090e+04 4.867e-10
  8.54147    -45.4 1.093e+04 4.948e-10
  8.55130    -45.7 1.098e+04 5.550e-10
  8.57024    -45.4 1.098e+04 5.411e-10
  8.59982    -45.1 1.105e+04 4.782e-10
  8.63924    -44.4 1.111e+04 3.869e-10
  8.67856    -43.4 1.121e+04 3.324e-10
  8.70795    -42.9 1.121e+04 3.222e-10
  8.72311    -42.6 1.143e+04 3.386e-10
  8.73294    -43.1 1.164e+04 3.491e-10
  8.74717    -46.4 1.380e+04 4.670e-10
  8.76683    -58.3 2.045e+04 2.096e-09
  8.78649    -62.6 2.031e+04 1.588e-08
  8.80119    -63.3 2.075e+04 5.113e-08
  8.81097    -62.9 2.119e+04 7.408e-08
  8.81875    -62.8 2.134e+04 8.084e-08
  8.82367    -62.1 2.098e+04 7.080e-08
  8.83063    -62.2 2.118e+04 6.441e-08
  8.84046    -62.5 2.123e+04 3.872e-08
  8.85028    -65.1 2.077e+04 2.002e-08
  8.86508    -70.0 1.885e+04 9.828e-09
  8.88479    -74.1 1.628e+04 4.803e-09
  8.90445    -76.9 1.402e+04 2.338e-09
  8.91459    -77.5 1.325e+04 1.764e-09
  8.92442    -76.9 1.316e+04 1.653e-09
  8.94376    -76.8 1.296e+04 1.419e-09
  8.95663    -76.5 1.276e+04 1.171e-09
  8.96646    -76.5 1.296e+04 1.391e-09
  8.98308    -76.4 1.274e+04 1.102e-09
  9.00274    -76.5 1.250e+04 8.894e-10
  9.02240    -76.7 1.223e+04 7.588e-10
  9.04206    -76.8 1.208e+04 6.803e-10
  9.06172    -76.7 1.194e+04 6.195e-10
  9.08138    -76.3 1.185e+04 5.698e-10
  9.09633    -75.8 1.178e+04 5.082e-10
  9.11609    -75.7 1.203e+04 6.885e-10
  9.15038    -74.3 1.170e+04 5.342e-10
  9.18970    -73.0 1.151e+04 4.204e-10
  9.22902    -71.6 1.141e+04 3.503e-10
  9.26834    -70.1 1.134e+04 3.122e-10
  9.30766    -68.7 1.129e+04 2.986e-10
  9.34697    -67.2 1.127e+04 2.964e-10
  9.38191    -65.8 1.126e+04 3.012e-10
  9.40157    -66.2 1.127e+04 3.127e-10
  9.42561    -64.6 1.124e+04 3.162e-10
  9.45972    -62.8 1.117e+04 3.075e-10
  9.47938    -63.2 1.113e+04 3.005e-10
  9.50425    -61.3 1.105e+04 2.598e-10
  9.54357    -59.4 1.098e+04 2.150e-10
  9.58288    -57.5 1.093e+04 1.749e-10
  9.62220    -55.6 1.089e+04 1.446e-10
  9.66152    -53.8 1.086e+04 1.261e-10
  9.70084    -51.9 1.084e+04 1.187e-10
  9.74016    -50.1 1.084e+04 1.174e-10
  9.77948    -48.4 1.086e+04 1.190e-10
  9.81880    -46.9 1.085e+04 1.333e-10
  9.84267    -45.3 1.082e+04 1.608e-10
  9.86233    -45.5 1.083e+04 1.726e-10
  9.89743    -43.7 1.086e+04 2.180e-10
  9.93675    -41.9 1.096e+04 2.518e-10
  9.97607    -40.2 1.101e+04 2.605e-10
 10.01539    -38.6 1.104e+04 2.477e-10
 10.05471    -37.1 1.107e+04 2.126e-10
 10.09403    -35.9 1.111e+04 1.951e-10
 10.13334    -35.0 1.129e+04 1.957e-10
 10.17266    -34.5 1.157e+04 2.566e-10
 10.20596    -34.0 1.168e+04 4.399e-10
 10.22562    -35.1 1.196e+04 7.251e-10
 10.25130    -34.0 1.221e+04 1.081e-09
 10.27139    -33.0 1.239e+04 1.269e-09
 10.29105    -33.7 1.262e+04 1.571e-09
 10.32994    -33.0 1.234e+04 1.385e-09
 10.36925    -32.1 1.195e+04 8.743e-10
 10.40857    -31.8 1.158e+04 5.071e-10
 10.44789    -31.4 1.121e+04 3.904e-10
 10.48721    -30.2 1.089e+04 3.340e-10
 10.52653    -28.4 1.067e+04 2.736e-10
 10.56585    -26.5 1.054e+04 2.043e-10
 10.58891    -24.6 1.048e+04 1.474e-10
 10.60857    -25.0 1.047e+04 1.233e-10
 10.64448    -23.2 1.044e+04 9.041e-11
 10.68380    -21.4 1.037e+04 7.577e-11
 10.72312    -19.6 1.030e+04 6.997e-11
 10.76244    -17.6 1.029e+04 6.815e-11
 10.80176    -15.7 1.029e+04 7.041e-11
 10.84108    -13.7 1.031e+04 7.791e-11
 10.88039    -11.5 1.038e+04 8.534e-11
 10.91971     -9.5 1.047e+04 8.839e-11
 10.95220     -7.7 1.047e+04 9.012e-11
 10.97186     -7.6 1.049e+04 8.994e-11
 10.99835     -5.8 1.044e+04 9.294e-11
 11.03767     -3.9 1.039e+04 1.010e-10
 11.07699     -2.0 1.040e+04 1.150e-10
 11.11631     -0.1 1.049e+04 1.314e-10
 11.14121      1.7 1.050e+04 1.505e-10
 11.16087      1.6 1.053e+04 1.668e-10
 11.19494      3.6 1.047e+04 1.814e-10
 11.23426      5.7 1.051e+04 1.771e-10
 11.27358      7.6 1.060e+04 1.680e-10
 11.31290      9.1 1.077e+04 1.740e-10
 11.33515      9.4 1.119e+04 2.269e-10
 11.35481      9.4 1.077e+04 2.066e-10
 11.39154     10.6 1.086e+04 3.374e-10
 11.43085     12.4 1.103e+04 4.797e-10
 11.47017     13.6 1.114e+04 4.778e-10
 11.50949     14.2 1.115e+04 4.414e-10
 11.54881     14.6 1.117e+04 4.517e-10
 11.58813     14.8 1.128e+04 5.331e-10
 11.62745     15.3 1.138e+04 6.889e-10
 11.66676     16.2 1.146e+04 8.121e-10
 11.69844     17.1 1.140e+04 7.809e-10
 11.71810     16.7 1.135e+04 7.153e-10
 11.74540     17.8 1.113e+04 6.267e-10
 11.78472     18.9 1.090e+04 4.728e-10
 11.82404     19.4 1.081e+04 3.484e-10
 11.86336     20.1 1.068e+04 3.148e-10
 11.90268     20.9 1.070e+04 3.297e-10
 11.94199     21.8 1.078e+04 3.982e-10
 11.98131     23.1 1.090e+04 5.026e-10
 12.01103     24.4 1.104e+04 6.095e-10
 12.03069     23.8 1.107e+04 6.148e-10
 12.05995     25.0 1.120e+04 7.209e-10
 12.08139     26.2 1.138e+04 8.585e-10
 12.10105     26.0 1.146e+04 9.176e-10
 12.13859     27.3 1.158e+04 1.029e-09
 12.17790     28.5 1.166e+04 1.109e-09
 12.21722     29.7 1.169e+04 1.096e-09
 12.25654     30.5 1.169e+04 1.021e-09
 12.29586     31.2 1.167e+04 9.689e-10
 12.33518     31.8 1.170e+04 9.656e-10
 12.37450     32.4 1.174e+04 1.002e-09
 12.41382     33.1 1.171e+04 9.682e-10
 12.44468     34.4 1.148e+04 7.903e-10
 12.46434     34.6 1.147e+04 7.631e-10
 12.49245     36.4 1.112e+04 4.844e-10
 12.53177     37.9 1.089e+04 2.411e-10
 12.57109     38.5 1.081e+04 1.167e-10
 12.61041     39.3 1.050e+04 9.301e-11
 12.64973     40.9 1.048e+04 9.473e-11
 12.68905     42.6 1.048e+04 1.078e-10
 12.72836     44.4 1.053e+04 1.382e-10
 12.76768     46.1 1.065e+04 1.851e-10
 12.80700     47.7 1.087e+04 2.525e-10
 12.82763     49.3 1.102e+04 3.387e-10
 12.84729     49.5 1.108e+04 3.850e-10
 12.88085     51.0 1.120e+04 4.288e-10
 12.90051     50.4 1.129e+04 4.615e-10
 12.92496     51.8 1.128e+04 4.555e-10
 12.96427     53.1 1.123e+04 4.389e-10
 13.00359     54.4 1.118e+04 4.200e-10
 13.04291     55.8 1.115e+04 3.985e-10
 13.08223     57.3 1.114e+04 3.711e-10
 13.12155     58.6 1.117e+04 3.365e-10
 13.16087     59.7 1.129e+04 3.054e-10
 13.19092     60.3 1.151e+04 3.237e-10
 13.21058     61.0 1.142e+04 2.735e-10
 13.23950     61.4 1.169e+04 3.388e-10
 13.27882     61.4 1.202e+04 5.073e-10
 13.31814     61.3 1.230e+04 7.671e-10
 13.35746     61.3 1.251e+04 1.032e-09
 13.39678     61.3 1.262e+04 1.160e-09
 13.43610     61.2 1.257e+04 1.074e-09
 13.47541     61.4 1.241e+04 9.163e-10
 13.51473     61.7 1.209e+04 6.919e-10
 13.55405     62.4 1.174e+04 5.016e-10
 13.59337     64.4 1.161e+04 4.527e-10
 13.63269     65.5 1.138e+04 3.307e-10
 13.67201     66.9 1.119e+04 2.622e-10
 13.71133     68.4 1.108e+04 2.361e-10
 13.75064     70.0 1.106e+04 2.287e-10
 13.78996     71.5 1.107e+04 2.374e-10
 13.82928     73.2 1.110e+04 2.494e-10
 13.86860     74.8 1.113e+04 2.582e-10
 13.90792     76.5 1.116e+04 2.630e-10
 13.93716     78.3 1.120e+04 2.669e-10
 13.95682     79.1 1.122e+04 2.652e-10
 13.98656     80.9 1.130e+04 2.768e-10
 14.02587     82.7 1.137e+04 2.964e-10
 14.06519     84.5 1.145e+04 3.246e-10
 14.10451     86.2 1.152e+04 3.546e-10
 14.14383     87.8 1.161e+04 3.951e-10
 14.18315     89.3 1.177e+04 4.616e-10
 14.22247     90.2 1.200e+04 5.678e-10
 14.26178     90.3 1.224e+04 7.168e-10
 14.30045     90.0 1.254e+04 9.314e-10
 14.32011     91.4 1.252e+04 8.817e-10
 14.34042     90.7 1.284e+04 1.118e-09
 14.37974     89.3 1.309e+04 1.340e-09
 14.41906     87.3 1.311e+04 1.341e-09
 14.45838     85.4 1.281e+04 1.142e-09
 14.48777     84.1 1.255e+04 9.847e-10
 14.50156     83.4 1.235e+04 8.659e-10
 14.51139     84.2 1.249e+04 9.290e-10
 14.52699     83.4 1.231e+04 7.976e-10
 14.54665     82.4 1.200e+04 6.771e-10
 14.56631     81.4 1.161e+04 5.860e-10
 14.58597     80.8 1.127e+04 5.345e-10
 14.60563     80.4 1.104e+04 4.943e-10
 14.62529     80.3 1.096e+04 4.784e-10
 14.64006     80.8 1.090e+04 4.654e-10
 14.65982     80.2 1.087e+04 4.356e-10
 14.68340     80.3 1.077e+04 4.221e-10
 14.69313     80.7 1.082e+04 4.748e-10
 14.70392     80.7 1.076e+04 4.585e-10
 14.73351     80.7 1.070e+04 4.466e-10
 14.77293     80.8 1.044e+04 3.864e-10
 14.81224     81.0 1.013e+04 3.172e-10
 14.85156     81.5 9.828e+03 2.472e-10
 14.89088     82.2 9.594e+03 1.883e-10
 14.93020     82.9 9.426e+03 1.469e-10
 14.96952     83.8 9.283e+03 1.244e-10
 15.00884     84.9 9.194e+03 1.220e-10
 15.04669     86.1 9.165e+03 1.289e-10
 15.06635     86.5 9.158e+03 1.291e-10
 15.08747     87.9 9.123e+03 1.456e-10
 15.12679     89.3 9.088e+03 1.662e-10
 15.16611     90.8 9.041e+03 1.829e-10
 15.20543     92.4 8.968e+03 1.892e-10
 15.24475     93.9 8.894e+03 1.848e-10
 15.28407     95.5 8.765e+03 1.737e-10
 15.32338     97.0 8.636e+03 1.574e-10
 15.36270     98.4 8.511e+03 1.401e-10
 15.40202     99.8 8.398e+03 1.240e-10
 15.42964    101.2 8.289e+03 1.084e-10
 15.44930    101.4 8.307e+03 1.101e-10
 15.48066    102.7 8.211e+03 9.441e-11
 15.50998    104.0 8.114e+03 7.954e-11
 15.52964    104.2 8.125e+03 7.787e-11
 15.55929    105.5 8.011e+03 6.764e-11
 15.59861    107.0 7.936e+03 6.528e-11
 15.63793    108.5 7.936e+03 6.543e-11
 15.67725    110.0 7.946e+03 6.838e-11
 15.71657    111.3 8.004e+03 7.925e-11
 15.75589    112.5 8.133e+03 1.026e-10
 15.79293    113.4 8.531e+03 1.488e-10
 15.81259    113.1 8.799e+03 1.828e-10
 15.83452    113.4 9.404e+03 3.074e-10
 15.87384    113.4 9.904e+03 4.668e-10
 15.91316    112.9 1.032e+04 6.180e-10
 15.95248    112.0 1.055e+04 6.928e-10
 15.99180    110.9 1.057e+04 6.897e-10
 16.03112    109.8 1.053e+04 6.567e-10
 16.07044    108.9 1.038e+04 5.796e-10
 16.10975    108.5 1.017e+04 4.840e-10
 16.14907    108.4 9.951e+03 3.889e-10
 16.17588    108.3 9.730e+03 3.030e-10
 16.19554    106.8 9.553e+03 2.225e-10
 16.22771    106.8 9.331e+03 1.732e-10
 16.26703    107.0 9.223e+03 1.620e-10
 16.30635    107.4 9.236e+03 1.641e-10
 16.34566    107.3 9.307e+03 1.755e-10
 16.37980    107.1 9.395e+03 1.938e-10
 16.39946    107.5 9.449e+03 1.932e-10
 16.42430    106.8 9.768e+03 2.223e-10
 16.46362    105.5 1.011e+04 2.820e-10
 16.50294    103.7 1.051e+04 4.026e-10
 16.53917    101.8 1.096e+04 6.175e-10
 16.55883    101.0 1.043e+04 4.121e-10
 16.58158     99.6 1.077e+04 5.845e-10
 16.62089     98.0 1.104e+04 6.259e-10
 16.66021     96.3 1.102e+04 5.948e-10
 16.69953     94.7 1.086e+04 4.868e-10
 16.73885     93.1 1.046e+04 3.531e-10
 16.77817     92.0 9.976e+03 2.558e-10
 16.81749     91.6 9.633e+03 2.103e-10
 16.85680     91.7 9.456e+03 1.928e-10
 16.89612     92.1 9.339e+03 1.857e-10
 16.92212     92.8 9.289e+03 1.840e-10
 16.94178     93.8 9.124e+03 1.602e-10
 16.97476     94.9 9.112e+03 1.597e-10
 17.01408     96.1 9.168e+03 1.659e-10
 17.05340     97.3 9.315e+03 1.907e-10
 17.09272     98.6 9.556e+03 2.443e-10
 17.13203     99.8 9.922e+03 3.412e-10
 17.17135    101.0 1.042e+04 5.051e-10
 17.21067    101.9 1.102e+04 7.577e-10
 17.24962    102.5 1.168e+04 1.121e-09
 17.26928    101.8 1.203e+04 1.323e-09
 17.28541    102.1 1.242e+04 1.627e-09
 17.30497    103.2 1.283e+04 1.910e-09
 17.31860    103.0 1.287e+04 1.943e-09
 17.33826    102.8 1.283e+04 1.924e-09
 17.35792    102.8 1.271e+04 1.868e-09
 17.37758    102.8 1.256e+04 1.801e-09
 17.39724    102.8 1.241e+04 1.721e-09
 17.41690    102.8 1.226e+04 1.629e-09
 17.43656    102.8 1.213e+04 1.526e-09
 17.45622    102.8 1.200e+04 1.410e-09
 17.47588    102.9 1.185e+04 1.284e-09
 17.48652    103.0 1.165e+04 1.161e-09
 17.49635    103.4 1.168e+04 1.156e-09
 17.51519    103.5 1.151e+04 1.080e-09
 17.53485    103.8 1.150e+04 1.083e-09
 17.55451    104.0 1.153e+04 1.115e-09
 17.57417    104.0 1.168e+04 1.243e-09
 17.59383    104.1 1.201e+04 1.528e-09
 17.61349    104.3 1.250e+04 2.005e-09
 17.63315    104.6 1.309e+04 2.681e-09
 17.65281    104.6 1.373e+04 3.537e-09
 17.66817    104.4 1.441e+04 4.578e-09
 17.67800    105.2 1.399e+04 3.809e-09
 17.69213    104.6 1.478e+04 4.871e-09
 17.70400    103.5 1.552e+04 6.228e-09
 17.71383    103.1 1.511e+04 5.659e-09
 17.73145    101.9 1.553e+04 6.185e-09
 17.75111    100.3 1.561e+04 6.132e-09
 17.77076     98.4 1.565e+04 5.738e-09
 17.79042     95.5 1.574e+04 4.954e-09
 17.81008     91.3 1.573e+04 4.510e-09
 17.82974     86.5 1.537e+04 4.377e-09
 17.84940     82.5 1.488e+04 4.353e-09
 17.85964     79.9 1.439e+04 4.199e-09
 17.86947     80.7 1.521e+04 5.572e-09
 17.88872     78.9 1.454e+04 4.652e-09
 17.90838     77.3 1.395e+04 3.158e-09
 17.92804     74.6 1.326e+04 1.924e-09
 17.94770     70.9 1.242e+04 1.320e-09
 17.96736     68.0 1.188e+04 1.248e-09
 17.98702     66.6 1.186e+04 1.265e-09
 18.00668     65.7 1.197e+04 1.371e-09
 18.02633     65.0 1.223e+04 1.551e-09
 18.04129     64.3 1.244e+04 1.676e-09
 18.05112     63.4 1.236e+04 1.636e-09
 18.06565     62.8 1.227e+04 1.600e-09
 18.08531     62.7 1.199e+04 1.444e-09
 18.10497     62.8 1.159e+04 1.199e-09
 18.12463     63.0 1.116e+04 9.415e-10
 18.13891     63.2 1.080e+04 7.321e-10
 18.14874     63.9 1.098e+04 7.800e-10
 18.16395     63.9 1.067e+04 5.936e-10
 18.18361     63.7 1.034e+04 4.839e-10
 18.20327     63.7 1.017e+04 4.567e-10
 18.22293     64.0 1.015e+04 4.562e-10
 18.24259     63.9 1.014e+04 4.622e-10
 18.26225     64.4 1.021e+04 4.899e-10
 18.28190     64.8 1.034e+04 5.400e-10
 18.30156     65.1 1.052e+04 6.161e-10
 18.32122     65.0 1.078e+04 7.417e-10
 18.34088     64.9 1.108e+04 9.304e-10
 18.36054     64.8 1.135e+04 1.172e-09
 18.38020     64.9 1.163e+04 1.431e-09
 18.39986     64.9 1.193e+04 1.694e-09
 18.41441     64.9 1.211e+04 1.850e-09
 18.42424     64.1 1.244e+04 2.088e-09
 18.43918     63.9 1.235e+04 2.005e-09
 18.45884     63.9 1.202e+04 1.733e-09
 18.47850     63.9 1.155e+04 1.398e-09
 18.50808     63.8 1.084e+04 8.293e-10
 18.54750     63.4 1.018e+04 4.783e-10
 18.58682     63.4 9.651e+03 3.061e-10
 18.62614     63.7 9.296e+03 2.550e-10
 18.66546     64.5 9.287e+03 2.557e-10
 18.70477     65.4 9.330e+03 2.693e-10
 18.74409     66.4 9.474e+03 3.063e-10
 18.77789     67.4 9.739e+03 3.546e-10
 18.79755     67.3 9.528e+03 3.213e-10
 18.82273     68.2 9.718e+03 3.476e-10
 18.86205     69.1 9.761e+03 3.468e-10
 18.90137     69.8 9.808e+03 3.294e-10
 18.94068     70.6 9.851e+03 3.161e-10
 18.98000     71.5 9.911e+03 3.185e-10
 19.00892     72.6 9.986e+03 3.194e-10
 19.02858     72.2 9.996e+03 3.192e-10
 19.05864     73.5 1.000e+04 3.037e-10
 19.09796     74.9 9.974e+03 2.703e-10
 19.13728     76.5 9.922e+03 2.241e-10
 19.16084     78.2 9.875e+03 1.768e-10
 19.18050     77.6 1.004e+04 2.101e-10
 19.21591     79.2 1.001e+04 1.642e-10
 19.25523     80.9 1.001e+04 1.320e-10
 19.29455     82.5 1.002e+04 1.129e-10
 19.33387     84.3 1.003e+04 1.086e-10
 19.37319     86.2 1.003e+04 1.086e-10
 19.41251     88.1 1.008e+04 1.107e-10
 19.45183     90.0 1.018e+04 1.172e-10
 19.49114     91.9 1.030e+04 1.282e-10
 19.52413     93.8 1.046e+04 1.442e-10
 19.54379     93.0 1.060e+04 1.609e-10
 19.56978     94.8 1.077e+04 1.728e-10
 19.60910     96.6 1.092e+04 1.864e-10
 19.64842     98.4 1.108e+04 2.011e-10
 19.68774    100.1 1.123e+04 2.205e-10
 19.72705    101.7 1.141e+04 2.537e-10
 19.76637    103.0 1.164e+04 3.093e-10
 19.80569    103.2 1.174e+04 3.702e-10
 19.83508    103.5 1.185e+04 4.796e-10
 19.85464    103.8 1.210e+04 6.393e-10
 19.87430    104.0 1.239e+04 8.361e-10
 19.88838    104.0 1.263e+04 1.014e-09
 19.89821    104.6 1.254e+04 9.368e-10
 19.90689    104.5 1.275e+04 1.036e-09
 19.91672    103.9 1.283e+04 1.020e-09
 19.93328    102.7 1.324e+04 1.160e-09
 19.95294     99.7 1.434e+04 1.613e-09
 19.97260     95.4 1.578e+04 3.008e-09
 19.99226     91.6 1.668e+04 5.948e-09
 20.01192     89.1 1.702e+04 9.162e-09
 20.03158     87.3 1.699e+04 9.540e-09
 20.05124     85.9 1.661e+04 7.999e-09
 20.07090     84.4 1.580e+04 5.189e-09
 20.08853     82.9 1.446e+04 2.658e-09
 20.09836     82.6 1.397e+04 1.853e-09
 20.11021     81.6 1.295e+04 1.007e-09
 20.12987     79.8 1.166e+04 4.753e-10
 20.15946     78.7 1.097e+04 3.190e-10
 20.19888     77.8 9.947e+03 1.437e-10
 20.23819     78.1 9.593e+03 1.211e-10
 20.27037     79.2 9.440e+03 1.170e-10
 20.29003     79.5 9.347e+03 1.033e-10
 20.31683     81.5 9.290e+03 1.039e-10
 20.35615     83.4 9.251e+03 1.030e-10
 20.39547     85.3 9.195e+03 1.003e-10
 20.43479     87.1 9.154e+03 9.576e-11
 20.47411     88.8 9.119e+03 9.126e-11
 20.51342     90.4 9.060e+03 8.891e-11
 20.55274     92.1 9.032e+03 8.889e-11
 20.59206     93.8 9.008e+03 9.061e-11
 20.63138     95.5 8.986e+03 9.613e-11
 20.65332     97.1 8.988e+03 1.056e-10
 20.67298     97.0 8.930e+03 9.567e-11
 20.71002     98.6 8.959e+03 1.115e-10
 20.74857    100.3 8.992e+03 1.264e-10
 20.76823    101.7 8.957e+03 1.130e-10
 20.78865    103.4 8.981e+03 1.290e-10
 20.82797    105.2 8.985e+03 1.387e-10
 20.86729    106.8 8.992e+03 1.396e-10
 20.90661    108.4 8.989e+03 1.391e-10
 20.94593    110.0 8.958e+03 1.369e-10
 20.98525    111.6 8.910e+03 1.313e-10
 21.01661    113.2 8.865e+03 1.228e-10
 21.03627    113.3 8.843e+03 1.244e-10
 21.06388    114.9 8.781e+03 1.159e-10
 21.10320    116.6 8.718e+03 1.077e-10
 21.14252    118.3 8.634e+03 1.034e-10
 21.18184    119.9 8.619e+03 1.043e-10
 21.22116    121.6 8.598e+03 1.088e-10
 21.26048    123.3 8.598e+03 1.199e-10
 21.29979    124.9 8.621e+03 1.362e-10
 21.33911    126.4 8.654e+03 1.530e-10
 21.37843    127.9 8.659e+03 1.630e-10
 21.39956    129.3 8.648e+03 1.623e-10
 21.41922    129.6 8.604e+03 1.521e-10
 21.45707    131.1 8.595e+03 1.525e-10
 21.49639    132.5 8.580e+03 1.507e-10
 21.53570    133.8 8.561e+03 1.460e-10
 21.57502    135.0 8.541e+03 1.387e-10
 21.61434    136.1 8.509e+03 1.301e-10
 21.63805    137.3 8.462e+03 1.238e-10
 21.65771    137.9 8.453e+03 1.229e-10
 21.69298    139.2 8.444e+03 1.226e-10
 21.73230    140.5 8.445e+03 1.244e-10
 21.76285    141.9 8.476e+03 1.329e-10
 21.78251    141.9 8.528e+03 1.419e-10
 21.81093    143.2 8.636e+03 1.668e-10
 21.85025    144.5 8.803e+03 2.055e-10
 21.88957    145.8 9.008e+03 2.568e-10
 21.92889    147.0 9.236e+03 3.173e-10
 21.96821    148.1 9.462e+03 3.796e-10
 22.00753    149.2 9.662e+03 4.282e-10
 22.04685    149.9 9.800e+03 4.568e-10
 22.08616    150.5 9.831e+03 4.588e-10
 22.12548    151.6 9.826e+03 4.566e-10
 22.14580    152.8 9.846e+03 4.590e-10
 22.16546    153.3 9.677e+03 4.074e-10
 22.20412    154.6 9.782e+03 4.192e-10
 22.24344    155.9 1.012e+04 4.679e-10
 22.27283    156.7 1.023e+04 4.932e-10
 22.29239    157.3 1.030e+04 5.152e-10
 22.31205    157.9 1.042e+04 5.543e-10
 22.32725    158.4 1.053e+04 5.833e-10
 22.33708    158.7 1.051e+04 5.395e-10
 22.36130    158.9 1.060e+04 5.511e-10
 22.40071    159.8 1.050e+04 4.882e-10
 22.44003    160.8 1.030e+04 4.027e-10
 22.47935    161.8 1.014e+04 3.344e-10
 22.50787    162.8 1.019e+04 3.174e-10
 22.51795    164.6 9.978e+03 3.003e-10
 22.52875    165.3 1.007e+04 3.252e-10
 22.55799    166.4 1.013e+04 3.158e-10
 22.59730    167.5 1.021e+04 3.207e-10
 22.63662    168.6 1.032e+04 3.394e-10
 22.66601    168.9 1.051e+04 3.895e-10
 22.68558    169.4 1.076e+04 4.645e-10
 22.70037    169.8 1.101e+04 5.554e-10
 22.71020    170.1 1.101e+04 5.294e-10
 22.72489    170.5 1.122e+04 5.887e-10
 22.74455    170.8 1.138e+04 6.052e-10
 22.76421    171.1 1.139e+04 6.035e-10
 22.78387    171.3 1.139e+04 5.926e-10
 22.80353    171.6 1.137e+04 5.714e-10
 22.82319    171.9 1.133e+04 5.591e-10
 22.84285    172.2 1.134e+04 5.605e-10
 22.86251    172.2 1.139e+04 5.768e-10
 22.88202    172.0 1.157e+04 6.530e-10
 22.89185    172.4 1.151e+04 6.443e-10
 22.90183    172.0 1.191e+04 8.294e-10
 22.92149    171.1 1.270e+04 1.253e-09
 22.94115    170.1 1.377e+04 2.123e-09
 22.95242    169.0 1.491e+04 3.678e-09
 22.96225    169.9 1.416e+04 2.575e-09
 22.98046    168.5 1.526e+04 4.376e-09
 23.00012    167.0 1.622e+04 6.943e-09
 23.01978    165.3 1.697e+04 9.856e-09
 23.03944    163.4 1.750e+04 1.199e-08
 23.05910    161.3 1.788e+04 1.320e-08
 23.07349    159.0 1.794e+04 1.315e-08
 23.08332    158.4 1.807e+04 1.350e-08
 23.09842    155.8 1.823e+04 1.401e-08
 23.11808    153.3 1.815e+04 1.358e-08
 23.13774    151.0 1.789e+04 1.191e-08
 23.15740    148.8 1.735e+04 9.453e-09
 23.17706    146.6 1.653e+04 7.059e-09
 23.19672    144.7 1.550e+04 5.106e-09
 23.21637    143.0 1.438e+04 3.627e-09
 23.23603    141.9 1.328e+04 2.533e-09
 23.25514    141.3 1.232e+04 1.773e-09
 23.26497    141.1 1.211e+04 1.634e-09
 23.27535    140.3 1.136e+04 1.169e-09
 23.29501    139.8 1.102e+04 9.539e-10
 23.31467    139.7 1.094e+04 9.093e-10
 23.33433    139.6 1.093e+04 9.078e-10
 23.35399    139.5 1.094e+04 9.128e-10
 23.37365    139.2 1.100e+04 9.409e-10
 23.38733    138.7 1.111e+04 9.985e-10
 23.39716    138.8 1.108e+04 9.862e-10
 23.41297    138.3 1.116e+04 1.044e-09
 23.43263    137.6 1.116e+04 1.062e-09
 23.44661    137.0 1.114e+04 1.056e-09
 23.45644    137.2 1.117e+04 1.059e-09
 23.47195    136.4 1.113e+04 1.040e-09
 23.49160    135.4 1.101e+04 9.756e-10
 23.51126    134.2 1.088e+04 8.852e-10
 23.53092    132.7 1.082e+04 8.277e-10
 23.55058    131.0 1.084e+04 8.270e-10
 23.57024    129.1 1.096e+04 8.588e-10
 23.58990    125.6 1.169e+04 1.049e-09
 23.60956    119.8 1.369e+04 1.912e-09
 23.62826    114.3 1.525e+04 3.943e-09
 23.63809    113.6 1.552e+04 4.975e-09
 23.64888    110.4 1.547e+04 5.386e-09
 23.66854    108.4 1.519e+04 4.892e-09
 23.68820    107.2 1.455e+04 3.031e-09
 23.70786    105.8 1.375e+04 1.288e-09
 23.73744    101.9 1.220e+04 2.691e-10
 23.77686     95.8 8.633e+03 1.019e-10
 23.81618     95.4 8.291e+03 9.465e-11
 23.85550     96.5 8.243e+03 9.396e-11
 23.89481     98.6 8.248e+03 9.654e-11
 23.93413    100.9 8.301e+03 1.047e-10
 23.97345    103.1 8.371e+03 1.161e-10
 24.00157    105.4 8.442e+03 1.285e-10
 24.02123    106.1 8.525e+03 1.458e-10
 24.05209    108.4 8.603e+03 1.650e-10
 24.09141    110.7 8.689e+03 1.830e-10
 24.13073    112.9 8.759e+03 1.944e-10
 24.17004    115.0 8.822e+03 1.982e-10
 24.20936    117.1 8.868e+03 1.982e-10
 24.24751    119.0 8.914e+03 1.999e-10
 24.26717    119.2 8.930e+03 2.055e-10
 24.28800    120.8 9.072e+03 2.244e-10
 24.32732    122.2 9.302e+03 2.764e-10
 24.36486    123.6 9.650e+03 3.648e-10
 24.38452    125.0 9.700e+03 3.688e-10
 24.40595    125.9 1.007e+04 4.733e-10
 24.43535    125.9 1.023e+04 5.307e-10
 24.45491    126.0 1.034e+04 5.711e-10
 24.47457    125.9 1.042e+04 6.037e-10
 24.49423    125.9 1.047e+04 6.289e-10
 24.51388    125.8 1.055e+04 6.631e-10
 24.53354    125.6 1.061e+04 6.893e-10
 24.56313    126.1 1.085e+04 7.907e-10
 24.60255    125.9 1.124e+04 1.004e-09
 24.64187    125.6 1.180e+04 1.350e-09
 24.68118    124.8 1.229e+04 1.642e-09
 24.72050    123.7 1.236e+04 1.646e-09
 24.74781    122.5 1.218e+04 1.442e-09
 24.76747    124.0 1.206e+04 1.368e-09
 24.79914    123.1 1.159e+04 1.036e-09
 24.83846    122.2 1.094e+04 7.329e-10
 24.87778    121.9 1.032e+04 5.570e-10
 24.91709    122.1 9.936e+03 4.753e-10
 24.95641    122.6 9.695e+03 4.229e-10
 24.99573    123.7 9.485e+03 3.631e-10
 25.03505    124.9 9.262e+03 2.963e-10
 25.07437    126.1 9.038e+03 2.368e-10
 25.11110    127.3 8.840e+03 1.957e-10
 25.13076    128.6 8.949e+03 2.156e-10
 25.13699    129.9 8.747e+03 1.753e-10
 25.15665    130.7 9.122e+03 2.667e-10
 25.19232    131.9 8.919e+03 2.155e-10
 25.23164    133.2 8.739e+03 1.770e-10
 25.27096    134.5 8.561e+03 1.489e-10
 25.31028    135.8 8.393e+03 1.363e-10
 25.34960    137.3 8.368e+03 1.364e-10
 25.38892    138.7 8.375e+03 1.399e-10
 25.42824    140.1 8.428e+03 1.547e-10
 25.46755    141.4 8.582e+03 1.935e-10
 25.49405    142.9 8.903e+03 2.651e-10
 25.51371    144.6 8.857e+03 2.515e-10
 25.54619    146.0 9.282e+03 3.507e-10
 25.58551    147.0 9.590e+03 4.398e-10
 25.61490    147.1 9.797e+03 5.164e-10
 25.63446    147.3 1.001e+04 6.007e-10
 25.65412    147.4 1.023e+04 6.907e-10
 25.67378    147.4 1.048e+04 7.872e-10
 25.68533    147.1 1.094e+04 9.448e-10
 25.69516    148.4 1.070e+04 8.878e-10
 25.71310    148.0 1.109e+04 1.042e-09
 25.73276    147.5 1.158e+04 1.270e-09
 25.75242    146.8 1.212e+04 1.573e-09
 25.77208    146.0 1.273e+04 1.940e-09
 25.79174    145.0 1.340e+04 2.361e-09
 25.81140    143.5 1.409e+04 2.838e-09
 25.83105    141.8 1.467e+04 3.395e-09
 25.85071    140.0 1.507e+04 4.015e-09
 25.86698    138.4 1.524e+04 4.745e-09
 25.87681    140.3 1.553e+04 4.765e-09
 25.89003    138.8 1.586e+04 5.634e-09
 25.90969    137.1 1.619e+04 6.302e-09
 25.92935    134.8 1.669e+04 6.856e-09
 25.94901    132.0 1.716e+04 7.342e-09
 25.96867    129.3 1.722e+04 7.406e-09
 25.98833    126.8 1.706e+04 7.184e-09
 26.00662    125.2 1.643e+04 6.214e-09
 26.01645    124.7 1.658e+04 6.469e-09
 26.02765    123.6 1.562e+04 4.424e-09
 26.04731    121.2 1.508e+04 2.652e-09
 26.05845    116.3 1.507e+04 2.000e-09
 26.06828    119.9 1.466e+04 2.049e-09
 26.08662    114.7 1.486e+04 1.956e-09
 26.10628    109.4 1.458e+04 2.196e-09
 26.12594    105.7 1.431e+04 3.012e-09
 26.14560    103.7 1.452e+04 3.939e-09
 26.16526    102.2 1.490e+04 4.466e-09
 26.18492    100.0 1.572e+04 4.163e-09
 26.20458     96.5 1.597e+04 3.793e-09
 26.22424     91.8 1.583e+04 3.079e-09
 26.24010     87.3 1.463e+04 2.266e-09
 26.24993     90.9 1.605e+04 3.119e-09
 26.26356     86.5 1.442e+04 1.962e-09
 26.28322     82.9 1.281e+04 1.202e-09
 26.30288     79.6 1.183e+04 7.908e-10
 26.32254     76.9 1.157e+04 7.094e-10
 26.34219     74.9 1.165e+04 7.287e-10
 26.36185     72.6 1.221e+04 8.656e-10
 26.38151     70.1 1.306e+04 1.292e-09
 26.40117     68.2 1.360e+04 2.005e-09
 26.42083     67.4 1.350e+04 2.680e-09
 26.43157     67.2 1.337e+04 2.685e-09
 26.44140     67.5 1.389e+04 3.381e-09
 26.45136     67.9 1.345e+04 3.077e-09
 26.46119     68.2 1.349e+04 3.319e-09
 26.47981     68.8 1.275e+04 2.238e-09
 26.49947     68.6 1.199e+04 1.250e-09
 26.51913     67.3 1.134e+04 6.350e-10
 26.53879     64.6 1.069e+04 3.539e-10
 26.55845     63.4 9.971e+03 2.692e-10
 26.57811     63.0 9.720e+03 2.471e-10
 26.60348     64.3 9.738e+03 2.647e-10
 26.62314     64.1 9.743e+03 2.674e-10
 26.63708     65.1 9.672e+03 2.747e-10
 26.65674     65.4 9.668e+03 2.781e-10
 26.67640     66.4 9.690e+03 2.906e-10
 26.69606     66.6 9.699e+03 2.960e-10
 26.71572     67.1 9.685e+03 3.074e-10
 26.73538     67.3 9.686e+03 3.146e-10
 26.75504     67.6 9.714e+03 3.390e-10
 26.77470     67.7 9.772e+03 3.675e-10
 26.79436     67.9 9.865e+03 4.138e-10
 26.80469     68.2 9.958e+03 4.643e-10
 26.81452     68.3 1.030e+04 5.956e-10
 26.83368     68.8 1.039e+04 6.564e-10
 26.85333     69.2 1.043e+04 6.647e-10
 26.87299     69.6 1.043e+04 6.436e-10
 26.88627     69.8 1.039e+04 5.876e-10
 26.89610     69.1 1.012e+04 4.767e-10
 26.92224     69.5 9.777e+03 3.770e-10
 26.96166     70.0 9.550e+03 3.288e-10
 26.98653     70.7 9.508e+03 3.246e-10
 27.00619     70.3 9.728e+03 3.786e-10
 27.04029     71.0 9.875e+03 4.258e-10
 27.07961     71.8 1.014e+04 5.181e-10
 27.11893     72.7 1.033e+04 5.958e-10
 27.15825     73.6 1.044e+04 6.252e-10
 27.19757     74.5 1.044e+04 6.143e-10
 27.22696     75.0 1.054e+04 6.438e-10
 27.24652     75.3 1.055e+04 6.403e-10
 27.26618     75.8 1.056e+04 6.426e-10
 27.28584     76.1 1.062e+04 6.637e-10
 27.31542     76.9 1.066e+04 6.639e-10
 27.34982     77.6 1.109e+04 8.428e-10
 27.36948     78.1 1.140e+04 1.064e-09
 27.39416     78.8 1.187e+04 1.349e-09
 27.43348     79.3 1.236e+04 1.676e-09
 27.47280     79.4 1.266e+04 1.850e-09
 27.51211     79.6 1.263e+04 1.794e-09
 27.55143     80.0 1.236e+04 1.522e-09
 27.59075     80.5 1.190e+04 1.150e-09
 27.63007     81.2 1.158e+04 9.083e-10
 27.65946     81.7 1.150e+04 8.381e-10
 27.67902     81.7 1.150e+04 8.254e-10
 27.69868     82.0 1.156e+04 8.344e-10
 27.71834     82.1 1.171e+04 8.730e-10
 27.73258     82.1 1.189e+04 9.413e-10
 27.74241     82.7 1.181e+04 9.450e-10
 27.75609     82.5 1.212e+04 1.057e-09
 27.76592     81.0 1.231e+04 1.177e-09
 27.77732     80.7 1.259e+04 1.491e-09
 27.79698     80.7 1.281e+04 1.887e-09
 27.81664     81.1 1.295e+04 2.215e-09
 27.83630     81.6 1.295e+04 2.275e-09
 27.85596     82.2 1.287e+04 2.195e-09
 27.87562     82.8 1.272e+04 1.974e-09
 27.89527     83.1 1.251e+04 1.566e-09
 27.91422     83.0 1.229e+04 1.157e-09
 27.92405     83.2 1.273e+04 1.379e-09
 27.93459     82.5 1.242e+04 9.720e-10
 27.95425     81.5 1.197e+04 7.247e-10
 27.97391     80.9 1.148e+04 6.023e-10
 27.99357     80.8 1.112e+04 5.580e-10
 28.01323     80.9 1.093e+04 5.468e-10
 28.03289     81.4 1.093e+04 5.524e-10
 28.05255     82.0 1.096e+04 5.699e-10
 28.07221     82.6 1.101e+04 5.950e-10
 28.09187     83.1 1.108e+04 6.259e-10
 28.10570     83.5 1.118e+04 6.570e-10
 28.11553     83.3 1.130e+04 7.102e-10
 28.13119     83.7 1.129e+04 7.164e-10
 28.15085     84.0 1.128e+04 7.116e-10
 28.17050     84.4 1.126e+04 6.998e-10
 28.19016     84.8 1.125e+04 6.878e-10
 28.20083     85.1 1.125e+04 6.817e-10
 28.21066     84.3 1.112e+04 6.195e-10
 28.22948     84.6 1.115e+04 6.323e-10
 28.24914     84.7 1.118e+04 6.466e-10
 28.26880     84.8 1.119e+04 6.587e-10
 28.28734     84.9 1.118e+04 6.619e-10
 28.29717     85.1 1.119e+04 6.633e-10
 28.30812     85.3 1.116e+04 6.557e-10
 28.32778     85.5 1.110e+04 6.329e-10
 28.34744     85.8 1.102e+04 5.956e-10
 28.36710     86.2 1.087e+04 5.257e-10
 28.38676     86.6 1.073e+04 4.604e-10
 28.40642     87.0 1.053e+04 3.671e-10
 28.42607     87.1 1.041e+04 3.263e-10
 28.44573     87.5 1.026e+04 2.785e-10
 28.46539     87.6 1.019e+04 2.584e-10
 28.47882     88.1 1.015e+04 2.537e-10
 28.48865     88.5 1.019e+04 2.707e-10
 28.50471     88.7 1.017e+04 2.694e-10
 28.52437     89.1 1.021e+04 2.801e-10
 28.54403     89.2 1.024e+04 2.863e-10
 28.56369     89.4 1.030e+04 3.112e-10
 28.58335     89.3 1.042e+04 3.661e-10
 28.60301     89.4 1.057e+04 4.798e-10
 28.62267     89.6 1.070e+04 6.060e-10
 28.63575     89.9 1.073e+04 6.775e-10
 28.64557     89.4 1.077e+04 7.161e-10
 28.66046     89.7 1.077e+04 7.153e-10
 28.67029     90.0 1.078e+04 7.177e-10
 28.68164     90.1 1.072e+04 6.899e-10
 28.70130     90.1 1.058e+04 6.096e-10
 28.72096     90.0 1.044e+04 5.116e-10
 28.74062     89.3 1.031e+04 4.246e-10
 28.77021     87.1 1.004e+04 3.652e-10
 28.80962     86.2 9.977e+03 3.774e-10
 28.84230     85.6 9.929e+03 3.859e-10
 28.86196     85.7 9.927e+03 3.745e-10
 28.88826     85.2 9.861e+03 3.634e-10
 28.92758     84.4 9.696e+03 3.222e-10
 28.96690     83.9 9.556e+03 2.971e-10
 28.99629     83.5 9.562e+03 3.079e-10
 29.01585     82.0 9.879e+03 3.705e-10
 29.03358     79.5 1.074e+04 5.959e-10
 29.04341     79.0 1.083e+04 6.217e-10
 29.05517     75.9 1.215e+04 1.199e-09
 29.07066     73.4 1.341e+04 2.285e-09
 29.08049     72.9 1.373e+04 2.587e-09
 29.09449     71.3 1.477e+04 4.189e-09
 29.11415     69.4 1.506e+04 4.491e-09
 29.13381     67.6 1.476e+04 4.062e-09
 29.15347     66.3 1.378e+04 2.855e-09
 29.17313     65.1 1.239e+04 1.618e-09
 29.19278     63.3 1.098e+04 8.147e-10
 29.21244     60.1 9.870e+03 4.213e-10
 29.22515     59.1 9.464e+03 3.014e-10
 29.24491     59.3 9.453e+03 3.218e-10
 29.28145     59.4 8.929e+03 2.558e-10
 29.32077     60.0 8.724e+03 2.341e-10
 29.36008     60.7 8.709e+03 2.303e-10
 29.39940     61.1 8.782e+03 2.407e-10
 29.43872     61.1 8.982e+03 2.744e-10
 29.47804     61.0 9.217e+03 3.309e-10
 29.50576     60.8 9.426e+03 3.782e-10
 29.52542     62.1 9.220e+03 3.442e-10
 29.55668     62.1 9.170e+03 3.328e-10
 29.58854     62.2 8.954e+03 2.835e-10
 29.60820     62.1 8.830e+03 2.509e-10
 29.63531     62.1 8.589e+03 2.020e-10
 29.67463     62.2 8.380e+03 1.675e-10
 29.71395     62.8 8.211e+03 1.447e-10
 29.75327     63.8 8.095e+03 1.273e-10
 29.79259     64.9 8.012e+03 1.101e-10
 29.83191     66.1 7.951e+03 9.520e-11
 29.87122     67.2 7.910e+03 8.794e-11
 29.91054     68.1 7.933e+03 9.010e-11
 29.94986     68.7 8.103e+03 1.097e-10
 29.97149     69.5 8.644e+03 1.837e-10
 29.99115     69.4 8.565e+03 1.708e-10
 30.02850     70.3 9.090e+03 2.655e-10
 30.05789     71.6 9.229e+03 3.058e-10
 30.07745     71.8 9.395e+03 3.715e-10
 30.09711     71.5 9.842e+03 4.674e-10
 30.11677     68.8 1.203e+04 8.348e-10
 30.13643     59.4 1.698e+04 3.752e-09
 30.15294     51.4 2.009e+04 1.529e-08
 30.16277     53.1 1.928e+04 1.115e-08
 30.17575     46.2 2.173e+04 1.860e-08
 30.19541     39.9 2.190e+04 1.347e-08
 30.21507     32.0 1.963e+04 4.372e-09
 30.23472     19.3 1.275e+04 1.073e-09
 30.25438     13.0 1.009e+04 4.953e-10
 30.27404     10.1 9.572e+03 3.718e-10
 30.29370      7.7 9.154e+03 3.230e-10
 30.31336      6.9 8.970e+03 3.247e-10
 30.33468      7.3 9.150e+03 3.581e-10
 30.35434      7.5 9.201e+03 3.855e-10
 30.37549      7.5 9.338e+03 3.982e-10
 30.39524      8.2 9.391e+03 4.041e-10
 30.42168      7.3 9.246e+03 2.995e-10
 30.46100      6.4 8.996e+03 2.552e-10
 30.50032      6.5 9.029e+03 2.542e-10
 30.53964      6.4 9.369e+03 3.000e-10
 30.56903      6.0 9.768e+03 3.688e-10
 30.58859      4.4 1.013e+04 5.132e-10
 30.60825      4.3 1.058e+04 7.528e-10
 30.62791      4.4 1.094e+04 9.973e-10
 30.64757      5.1 1.141e+04 1.298e-09
 30.66723      5.3 1.184e+04 1.525e-09
 30.68689      4.8 1.215e+04 1.637e-09
 30.70655      4.1 1.238e+04 1.735e-09
 30.71754      3.1 1.239e+04 1.761e-09
 30.72737      2.4 1.246e+04 1.837e-09
 30.74587      1.9 1.231e+04 1.859e-09
 30.76552      1.8 1.222e+04 1.867e-09
 30.78518      1.9 1.205e+04 1.769e-09
 30.80484      2.0 1.188e+04 1.611e-09
 30.82013      1.7 1.169e+04 1.470e-09
 30.82996      2.1 1.152e+04 1.367e-09
 30.84416      1.9 1.140e+04 1.263e-09
 30.86382      1.7 1.137e+04 1.227e-09
 30.88348      1.6 1.143e+04 1.254e-09
 30.89918      1.8 1.153e+04 1.331e-09
 30.90901      1.6 1.115e+04 1.147e-09
 30.92280      2.3 1.114e+04 1.170e-09
 30.94246      3.1 1.099e+04 1.137e-09
 30.97204      4.7 1.125e+04 1.246e-09
 31.01146      7.0 1.066e+04 9.165e-10
 31.04085      9.0 1.023e+04 7.061e-10
 31.06041      9.6 1.011e+04 6.594e-10
 31.08007     10.5 9.998e+03 6.437e-10
 31.09066     11.3 1.012e+04 6.684e-10
 31.10049     12.3 1.012e+04 6.829e-10
 31.11939     13.4 1.040e+04 7.842e-10
 31.13905     14.0 1.087e+04 9.573e-10
 31.15871     13.7 1.182e+04 1.376e-09
 31.17837     11.1 1.425e+04 2.573e-09
 31.19803      7.9 1.698e+04 5.519e-09
 31.21769      7.3 1.863e+04 1.021e-08
 31.23238      7.7 1.929e+04 1.370e-08
 31.24216      7.3 1.936e+04 1.422e-08
 31.25199      6.9 1.905e+04 1.471e-08
 31.25986      6.9 1.835e+04 1.328e-08
 31.26477      7.2 1.976e+04 1.839e-08
 31.27165      7.0 1.907e+04 1.520e-08
 31.27712      7.2 1.878e+04 1.218e-08
 31.28203      7.2 1.975e+04 1.548e-08
 31.29131      6.2 1.923e+04 1.174e-08
 31.30114      5.6 1.948e+04 9.654e-09
 31.31097      2.1 1.969e+04 8.120e-09
 31.32080     -1.4 2.049e+04 8.070e-09
 31.33063     -7.0 2.106e+04 7.982e-09
 31.34046    -11.1 2.281e+04 1.086e-08
 31.35029    -14.3 2.281e+04 1.512e-08
 31.36012    -15.9 2.195e+04 2.420e-08
 31.36794    -16.4 2.118e+04 4.374e-08
 31.37286    -16.0 2.121e+04 4.752e-08
 31.37978    -15.0 2.118e+04 8.966e-08
 31.38961    -12.9 2.187e+04 1.542e-07
 31.39944    -12.3 2.249e+04 1.970e-07
 31.40927    -13.1 2.226e+04 1.722e-07
 31.41910    -12.1 2.172e+04 8.081e-08
 31.42893    -10.9 2.217e+04 3.841e-08
 31.43876    -10.8 2.253e+04 2.182e-08
 31.44859    -11.7 2.214e+04 1.340e-08
 31.45842    -13.7 2.104e+04 8.227e-09
 31.46368    -18.5 2.136e+04 6.430e-09
 31.46859    -17.8 2.265e+04 7.501e-09
 31.47731    -29.8 3.169e+04 7.616e-09
 31.48223    -32.5 3.608e+04 1.609e-08
 31.48790    -43.2 2.793e+04 9.405e-08
 31.49773    -47.7 2.289e+04 3.706e-07
 31.50756    -50.6 2.210e+04 5.694e-07
 31.51739    -53.6 2.301e+04 4.835e-07
 31.52722    -56.9 2.552e+04 1.683e-07
 31.53705    -60.7 2.626e+04 6.604e-08
 31.54688    -63.3 2.561e+04 3.134e-08
 31.55450    -64.4 2.437e+04 1.839e-08
 31.55942    -67.6 2.509e+04 1.563e-08
 31.56654    -69.1 2.290e+04 8.798e-09
 31.57637    -71.0 2.016e+04 4.942e-09
 31.58620    -72.2 1.752e+04 3.104e-09
 31.59603    -72.0 1.630e+04 2.363e-09
 31.61082    -70.3 1.542e+04 1.894e-09
 31.63053    -71.1 1.158e+04 9.563e-10
 31.64542    -71.7 9.981e+03 6.277e-10
 31.65525    -73.4 9.920e+03 6.171e-10
 31.66985    -71.3 9.648e+03 5.571e-10
 31.68951    -69.4 9.540e+03 5.166e-10
 31.69978    -67.9 9.382e+03 4.720e-10
 31.70961    -68.0 9.354e+03 4.689e-10
 31.72883    -66.5 9.180e+03 4.301e-10
 31.74849    -64.9 9.062e+03 4.023e-10
 31.76815    -63.5 9.011e+03 3.882e-10
 31.78781    -62.2 9.007e+03 3.845e-10
 31.80746    -61.0 9.085e+03 3.962e-10
 31.82707    -60.2 9.290e+03 4.307e-10
 31.84673    -60.8 1.010e+04 6.667e-10
 31.86644    -60.4 1.055e+04 8.195e-10
 31.88610    -59.8 1.103e+04 1.035e-09
 31.90576    -59.1 1.152e+04 1.321e-09
 31.92542    -58.3 1.198e+04 1.652e-09
 31.94508    -57.3 1.235e+04 1.952e-09
 31.96474    -56.3 1.253e+04 2.121e-09
 31.98440    -55.4 1.258e+04 2.183e-09
 32.00406    -54.3 1.251e+04 2.152e-09
 32.01854    -53.1 1.221e+04 1.905e-09
 32.02837    -53.5 1.291e+04 2.544e-09
 32.04338    -52.3 1.254e+04 2.143e-09
 32.06303    -51.1 1.219e+04 1.725e-09
 32.08269    -49.9 1.186e+04 1.323e-09
 32.10235    -48.9 1.149e+04 9.576e-10
 32.12201    -48.0 1.106e+04 6.561e-10
 32.13469    -47.6 1.049e+04 4.375e-10
 32.14452    -46.4 1.176e+04 1.027e-09
 32.16133    -45.9 1.137e+04 7.392e-10
 32.18099    -45.8 1.078e+04 5.246e-10
 32.20019    -45.9 1.011e+04 3.937e-10
 32.21002    -45.2 1.178e+04 6.748e-10
 32.22031    -45.3 1.102e+04 5.129e-10
 32.23997    -45.2 1.042e+04 4.400e-10
 32.25963    -44.9 1.001e+04 4.307e-10
 32.27929    -44.1 9.851e+03 4.521e-10
 32.29895    -43.4 9.833e+03 4.828e-10
 32.31860    -42.5 9.848e+03 5.081e-10
 32.33826    -41.6 9.843e+03 5.140e-10
 32.35792    -40.8 9.815e+03 5.063e-10
 32.37758    -40.0 9.805e+03 4.728e-10
 32.39166    -39.4 9.852e+03 4.320e-10
 32.40149    -39.0 1.049e+04 5.055e-10
 32.41690    -38.7 1.108e+04 5.088e-10
 32.43656    -38.2 1.155e+04 5.419e-10
 32.45622    -38.7 1.151e+04 5.413e-10
 32.47588    -39.7 1.166e+04 5.725e-10
 32.49554    -41.5 1.234e+04 7.491e-10
 32.51520    -44.9 1.337e+04 1.288e-09
 32.53486    -48.6 1.476e+04 2.514e-09
 32.54955    -49.9 1.630e+04 4.452e-09
 32.55933    -51.0 1.699e+04 5.311e-09
 32.56916    -53.0 1.859e+04 8.410e-09
 32.57442    -55.1 1.977e+04 1.189e-08
 32.57847    -53.2 1.942e+04 1.070e-08
 32.58304    -53.2 2.051e+04 1.435e-08
 32.58882    -55.1 2.131e+04 1.931e-08
 32.59865    -56.7 2.184e+04 2.167e-08
 32.60848    -58.7 2.200e+04 2.194e-08
 32.61831    -61.2 2.193e+04 1.772e-08
 32.62814    -65.2 2.066e+04 1.076e-08
 32.63797    -70.7 1.813e+04 5.837e-09
 32.64780    -75.5 1.579e+04 3.485e-09
 32.65763    -78.5 1.511e+04 2.529e-09
 32.67242    -81.9 1.449e+04 1.821e-09
 32.69213    -88.5 1.262e+04 1.033e-09
 32.71179    -94.2 1.095e+04 7.106e-10
 32.73145    -96.7 1.075e+04 6.696e-10
 32.75111    -98.3 1.076e+04 6.684e-10
 32.76478   -100.0 1.096e+04 7.123e-10
 32.77461   -102.1 1.136e+04 8.292e-10
 32.79043   -103.4 1.154e+04 9.187e-10
 32.81009   -104.4 1.162e+04 9.893e-10
 32.82974   -104.9 1.162e+04 1.047e-09
 32.84940   -105.2 1.159e+04 1.095e-09
 32.86906   -105.3 1.157e+04 1.134e-09
 32.88872   -105.1 1.155e+04 1.170e-09
 32.90838   -104.7 1.159e+04 1.208e-09
 32.92804   -104.3 1.165e+04 1.246e-09
 32.94643   -103.8 1.171e+04 1.278e-09
 32.95626   -104.5 1.192e+04 1.370e-09
 32.96736   -104.0 1.197e+04 1.382e-09
 32.98702   -103.4 1.202e+04 1.397e-09
 33.00451   -102.9 1.208e+04 1.416e-09
 33.01434   -103.3 1.227e+04 1.661e-09
 33.02634   -102.6 1.232e+04 1.695e-09
 33.04600   -102.0 1.234e+04 1.705e-09
 33.06566   -101.4 1.234e+04 1.700e-09
 33.08532   -100.6 1.234e+04 1.659e-09
 33.10497    -99.9 1.234e+04 1.603e-09
 33.12463    -99.2 1.232e+04 1.560e-09
 33.13790    -98.7 1.228e+04 1.488e-09
 33.14773    -99.1 1.221e+04 1.415e-09
 33.17388    -98.2 1.218e+04 1.363e-09
 33.21330    -96.7 1.198e+04 1.131e-09
 33.25261    -95.1 1.166e+04 8.637e-10
 33.29193    -93.5 1.132e+04 6.463e-10
 33.31974    -91.7 1.111e+04 5.276e-10
 33.33940    -92.1 1.091e+04 3.919e-10
 33.37057    -90.3 1.084e+04 3.771e-10
 33.40989    -88.1 1.074e+04 3.742e-10
 33.44921    -85.5 1.062e+04 3.775e-10
 33.48852    -82.8 1.042e+04 4.013e-10
 33.52784    -80.2 1.050e+04 4.328e-10
 33.56716    -77.5 1.054e+04 4.703e-10
 33.59655    -75.7 1.047e+04 4.649e-10
 33.61611    -74.7 1.046e+04 4.734e-10
 33.63577    -73.2 1.049e+04 4.855e-10
 33.65543    -72.2 1.050e+04 4.981e-10
 33.67509    -70.8 1.052e+04 5.176e-10
 33.69267    -69.6 1.053e+04 5.377e-10
 33.70250    -69.5 1.084e+04 6.807e-10
 33.71441    -68.1 1.093e+04 7.391e-10
 33.73407    -66.8 1.107e+04 8.053e-10
 33.75373    -65.6 1.125e+04 8.854e-10
 33.77339    -64.3 1.150e+04 9.922e-10
 33.80298    -62.8 1.183e+04 1.159e-09
 33.84239    -60.3 1.178e+04 1.169e-09
 33.87453    -57.7 1.163e+04 1.112e-09
 33.89409    -57.3 1.099e+04 8.659e-10
 33.91100    -56.0 1.093e+04 8.325e-10
 33.93066    -54.8 1.092e+04 8.027e-10
 33.95032    -53.8 1.089e+04 7.773e-10
 33.96998    -52.7 1.080e+04 7.191e-10
 33.99957    -51.3 1.060e+04 5.990e-10
 34.03898    -48.6 1.044e+04 5.436e-10
 34.06598    -46.1 1.033e+04 4.987e-10
 34.08564    -46.3 1.072e+04 6.299e-10
 34.11762    -43.8 1.060e+04 5.711e-10
 34.15694    -40.9 1.046e+04 5.253e-10
 34.19626    -38.0 1.043e+04 5.134e-10
 34.23558    -35.1 1.042e+04 5.140e-10
 34.27489    -32.3 1.046e+04 5.384e-10
 34.31421    -29.4 1.052e+04 5.681e-10
 34.35353    -26.3 1.055e+04 5.795e-10
 34.39285    -23.3 1.058e+04 5.743e-10
 34.42927    -20.3 1.064e+04 5.574e-10
 34.44893    -20.1 1.059e+04 5.216e-10
 34.46156    -17.8 1.049e+04 4.511e-10
 34.48112    -17.0 1.039e+04 4.260e-10
 34.50078    -15.0 1.044e+04 3.908e-10
 34.52044    -14.4 1.034e+04 3.674e-10
 34.54010    -12.5 1.037e+04 3.461e-10
 34.55976    -11.8 1.029e+04 3.382e-10
 34.57942     -9.8 1.045e+04 3.468e-10
 34.59908     -9.2 1.047e+04 3.504e-10
 34.61874     -7.4 1.065e+04 3.748e-10
 34.63038     -6.7 1.061e+04 3.778e-10
 34.64021     -6.6 1.045e+04 3.366e-10
 34.65805     -5.1 1.061e+04 3.766e-10
 34.67771     -4.4 1.064e+04 4.179e-10
 34.69737     -3.2 1.087e+04 4.889e-10
 34.71703     -2.6 1.102e+04 5.469e-10
 34.73669     -2.2 1.143e+04 6.665e-10
 34.75399     -2.6 1.232e+04 9.137e-10
 34.76382     -1.1 1.119e+04 5.917e-10
 34.77601     -0.7 1.178e+04 7.100e-10
 34.79567     -1.1 1.280e+04 9.549e-10
 34.81203     -1.8 1.417e+04 1.527e-09
 34.82186     -1.7 1.393e+04 1.374e-09
 34.83499     -1.9 1.547e+04 2.242e-09
 34.85465     -1.8 1.621e+04 3.458e-09
 34.87431     -0.9 1.654e+04 4.778e-09
 34.89397      0.3 1.671e+04 5.843e-09
 34.91362      1.3 1.673e+04 6.662e-09
 34.93328      1.5 1.736e+04 7.813e-09
 34.95294      0.8 1.932e+04 1.003e-08
 34.97260      0.2 2.095e+04 1.330e-08
 34.99226      0.8 2.115e+04 1.741e-08
 35.00350      1.2 2.044e+04 1.880e-08
 35.01333      1.9 1.996e+04 1.442e-08
 35.03158      2.9 1.911e+04 1.445e-08
 35.05124      4.3 1.828e+04 1.207e-08
 35.07090      5.5 1.771e+04 8.565e-09
 35.09056      6.4 1.772e+04 5.384e-09
 35.11022      6.3 1.726e+04 2.950e-09
 35.12988      4.9 1.534e+04 1.665e-09
 35.14954      2.9 1.313e+04 1.150e-09
 35.16919      3.6 1.277e+04 1.168e-09
 35.18515      4.0 1.253e+04 1.235e-09
 35.19498      4.4 1.255e+04 1.157e-09
 35.20851      6.0 1.274e+04 1.346e-09
 35.22817      6.8 1.276e+04 1.505e-09
 35.24783      7.9 1.278e+04 1.822e-09
 35.26749      8.9 1.286e+04 1.973e-09
 35.28715     10.4 1.283e+04 2.137e-09
 35.30681     11.9 1.295e+04 2.052e-09
 35.32647     13.6 1.293e+04 1.708e-09
 35.34613     14.5 1.292e+04 1.390e-09
 35.36579     14.2 1.326e+04 1.160e-09
 35.37662     12.1 1.575e+04 1.145e-09
 35.38645     13.1 1.379e+04 7.444e-10
 35.40511     10.0 1.736e+04 9.480e-10
 35.42477      7.3 1.822e+04 1.977e-09
 35.44442      5.2 1.760e+04 4.278e-09
 35.46408      4.8 1.736e+04 8.657e-09
 35.48374      5.5 1.755e+04 1.442e-08
 35.50340      7.6 1.785e+04 1.948e-08
 35.52306      9.6 1.774e+04 2.126e-08
 35.54272     11.5 1.790e+04 1.781e-08
 35.55827     13.4 1.835e+04 1.119e-08
 35.56810     12.5 1.715e+04 1.040e-08
 35.58204     13.1 1.724e+04 4.716e-09
 35.60170      9.8 1.632e+04 2.054e-09
 35.62136      5.4 1.294e+04 8.098e-10
 35.63364      3.7 1.047e+04 5.605e-10
 35.64347      7.0 1.323e+04 1.081e-09
 35.66068      5.1 1.110e+04 7.535e-10
 35.68034      5.7 1.074e+04 7.572e-10
 35.69999      6.2 1.074e+04 7.670e-10
 35.71965      8.1 1.123e+04 8.952e-10
 35.73931      8.4 1.120e+04 8.870e-10
 35.74974      9.2 1.046e+04 6.916e-10
 35.75957      9.7 1.079e+04 8.574e-10
 35.77863     10.2 1.065e+04 7.274e-10
 35.79829     10.2 1.041e+04 5.887e-10
 35.81795      9.5 1.018e+04 4.948e-10
 35.83761      8.3 9.923e+03 4.510e-10
 35.85727      7.4 9.754e+03 4.548e-10
 35.87693      7.0 9.699e+03 5.093e-10
 35.89659      7.4 9.786e+03 5.686e-10
 35.91625      8.2 9.869e+03 5.946e-10
 35.93139      8.9 9.817e+03 5.753e-10
 35.94122      9.5 1.002e+04 6.534e-10
 35.95556     10.2 9.901e+03 5.778e-10
 35.97522     10.5 9.806e+03 4.998e-10
 35.99488     10.3 9.668e+03 4.416e-10
 36.01454     10.0 9.577e+03 4.175e-10
 36.03420      9.8 9.682e+03 4.367e-10
 36.05386      9.3 9.922e+03 5.121e-10
 36.06855      9.0 1.030e+04 6.510e-10
 36.07838      8.4 1.068e+04 7.915e-10
 36.09318      8.2 1.110e+04 1.032e-09
 36.11284      8.4 1.150e+04 1.311e-09
 36.12286      8.9 1.188e+04 1.559e-09
 36.13269      8.3 1.361e+04 2.720e-09
 36.15216      9.2 1.430e+04 3.472e-09
 36.17182     10.3 1.490e+04 4.012e-09
 36.19148     10.8 1.576e+04 4.371e-09
 36.21113      8.3 1.776e+04 5.010e-09
 36.23079      2.6 1.990e+04 7.265e-09
 36.25045     -1.7 2.023e+04 1.236e-08
 36.26515     -1.8 2.063e+04 1.863e-08
 36.27493     -2.1 2.080e+04 1.918e-08
 36.28476     -2.3 2.115e+04 2.312e-08
 36.29082     -2.4 2.092e+04 2.517e-08
 36.29574     -2.5 2.054e+04 2.955e-08
 36.30441     -1.5 2.093e+04 3.161e-08
 36.31424     -0.7 2.103e+04 3.086e-08
 36.32408     -0.3 2.132e+04 2.650e-08
 36.33391     -0.2 2.136e+04 2.190e-08
 36.34870     -0.6 2.136e+04 1.793e-08
 36.36841     -2.8 2.089e+04 1.088e-08
 36.38807     -6.0 1.915e+04 7.577e-09
 36.40773     -7.7 1.780e+04 5.866e-09
 36.42739     -8.2 1.661e+04 5.103e-09
 36.44705     -7.7 1.587e+04 4.843e-09
 36.46671     -6.9 1.498e+04 4.225e-09
 36.48615     -6.1 1.412e+04 3.428e-09
 36.49598     -5.3 1.499e+04 4.485e-09
 36.50346     -4.4 1.394e+04 3.309e-09
 36.51329     -4.4 1.381e+04 3.059e-09
 36.52568     -3.7 1.315e+04 2.284e-09
 36.54534     -3.2 1.260e+04 1.760e-09
 36.56500     -2.7 1.204e+04 1.380e-09
 36.58466     -2.0 1.155e+04 1.130e-09
 36.60432     -1.1 1.126e+04 9.989e-10
 36.62398     -0.3 1.103e+04 9.153e-10
 36.64364      0.7 1.082e+04 8.488e-10
 36.66330      1.9 1.079e+04 8.321e-10
 36.67763      2.9 1.086e+04 8.529e-10
 36.68746      2.8 1.094e+04 8.992e-10
 36.70262      3.7 1.098e+04 9.253e-10
 36.72228      4.7 1.101e+04 9.520e-10
 36.74193      5.8 1.107e+04 9.936e-10
 36.76159      6.9 1.107e+04 1.013e-09
 36.78125      8.2 1.098e+04 9.951e-10
 36.80091      9.4 1.091e+04 9.475e-10
 36.82057     10.6 1.100e+04 9.355e-10
 36.84023     11.2 1.138e+04 9.693e-10
 36.85927     11.2 1.207e+04 1.075e-09
 36.86910      9.9 1.238e+04 1.167e-09
 36.87955      9.5 1.288e+04 1.383e-09
 36.89921      9.2 1.305e+04 1.652e-09
 36.91887      9.4 1.299e+04 2.027e-09
 36.93837     10.0 1.338e+04 2.505e-09
 36.94820      7.5 1.337e+04 2.377e-09
 36.95819      7.7 1.383e+04 2.471e-09
 36.97785      6.7 1.398e+04 2.240e-09
 36.99750      4.5 1.322e+04 1.719e-09
 37.01716      1.4 1.232e+04 1.267e-09
 37.03682     -5.0 1.362e+04 1.157e-09
 37.05075    -29.9 2.862e+04 2.508e-09
 37.06058    -21.3 2.338e+04 1.783e-09
 37.07118    -43.0 2.644e+04 9.275e-09
 37.08096    -48.5 2.589e+04 2.860e-08
 37.09079    -52.9 2.655e+04 6.643e-08
 37.10062    -58.2 2.819e+04 8.745e-08
 37.11045    -66.1 2.974e+04 7.506e-08
 37.12028    -76.6 3.050e+04 2.219e-08
 37.13011    -88.8 2.182e+04 5.237e-09
 37.13994    -93.9 1.543e+04 3.065e-09
 37.14639    -94.6 1.438e+04 2.637e-09
 37.15130    -93.5 1.469e+04 2.944e-09
 37.15960    -93.7 1.437e+04 2.716e-09
 37.17439    -94.0 1.402e+04 2.342e-09
 37.19410    -95.7 1.273e+04 1.662e-09
 37.21376    -96.7 1.212e+04 1.394e-09
 37.23239    -97.1 1.207e+04 1.353e-09
 37.24222    -96.2 1.256e+04 1.623e-09
 37.25307    -96.9 1.261e+04 1.637e-09
 37.27273    -97.8 1.298e+04 1.823e-09
 37.29239    -98.8 1.336e+04 2.044e-09
 37.31205    -99.9 1.363e+04 2.216e-09
 37.33171   -101.2 1.379e+04 2.353e-09
 37.35137   -102.9 1.384e+04 2.472e-09
 37.37103   -104.6 1.391e+04 2.589e-09
 37.38311   -106.5 1.403e+04 2.700e-09
 37.39294   -105.8 1.375e+04 2.455e-09
 37.41035   -107.2 1.377e+04 2.459e-09
 37.42387   -108.4 1.359e+04 2.270e-09
 37.43370   -110.2 1.488e+04 3.248e-09
 37.44967   -111.3 1.438e+04 2.786e-09
 37.46933   -112.0 1.376e+04 2.325e-09
 37.48899   -112.5 1.321e+04 1.941e-09
 37.50864   -112.7 1.277e+04 1.642e-09
 37.52830   -112.7 1.241e+04 1.399e-09
 37.54796   -112.3 1.209e+04 1.205e-09
 37.56762   -111.8 1.186e+04 1.066e-09
 37.58728   -111.2 1.168e+04 9.800e-10
 37.60551   -110.4 1.157e+04 9.403e-10
 37.61534   -111.6 1.208e+04 1.202e-09
 37.62660   -110.5 1.206e+04 1.196e-09
 37.64626   -109.4 1.208e+04 1.217e-09
 37.66592   -108.3 1.220e+04 1.284e-09
 37.68558   -107.2 1.238e+04 1.385e-09
 37.70524   -106.2 1.263e+04 1.526e-09
 37.72490   -105.5 1.292e+04 1.714e-09
 37.74456   -105.1 1.327e+04 1.964e-09
 37.76422   -105.0 1.367e+04 2.298e-09
 37.78387   -105.1 1.410e+04 2.751e-09
 37.79699   -105.2 1.453e+04 3.357e-09
 37.80682   -106.4 1.537e+04 4.468e-09
 37.81802   -106.4 1.571e+04 5.411e-09
 37.82785   -106.1 1.564e+04 5.253e-09
 37.84285   -105.8 1.561e+04 5.649e-09
 37.86251   -105.3 1.556e+04 5.809e-09
 37.88217   -104.7 1.532e+04 5.445e-09
 37.90183   -103.9 1.495e+04 4.537e-09
 37.92149   -103.2 1.431e+04 3.441e-09
 37.94115   -102.7 1.373e+04 2.369e-09
 37.96081   -102.7 1.312e+04 1.549e-09
 37.97863   -102.8 1.250e+04 1.012e-09
 37.98846   -104.0 1.219e+04 7.746e-10
 38.00013   -104.2 1.153e+04 5.673e-10
 38.01979   -103.9 1.100e+04 4.682e-10
 38.03944   -102.9 1.064e+04 4.227e-10
 38.05910   -101.7 1.045e+04 3.979e-10
 38.07876   -100.4 1.038e+04 3.844e-10
 38.09842    -99.1 1.038e+04 3.809e-10
 38.11808    -98.1 1.052e+04 3.888e-10
 38.13774    -97.4 1.088e+04 4.577e-10
 38.16038    -96.9 1.147e+04 6.100e-10
 38.18013    -95.9 1.073e+04 4.246e-10
 38.20674    -93.9 1.125e+04 5.326e-10
 38.24330    -92.6 1.212e+04 8.752e-10
 38.26296    -90.1 1.121e+04 5.303e-10
 38.28538    -89.2 1.209e+04 9.527e-10
 38.31477    -88.7 1.296e+04 1.928e-09
 38.33433    -87.7 1.324e+04 2.366e-09
 38.35175    -87.0 1.370e+04 2.898e-09
 38.36158    -86.1 1.274e+04 2.002e-09
 38.37365    -85.4 1.315e+04 2.420e-09
 38.39331    -85.3 1.410e+04 2.996e-09
 38.41297    -86.2 1.579e+04 4.200e-09
 38.43263    -87.7 1.789e+04 7.182e-09
 38.45229    -89.0 1.976e+04 1.503e-08
 38.46698    -89.0 2.090e+04 2.986e-08
 38.47520    -89.2 2.144e+04 4.307e-08
 38.48012    -89.2 2.071e+04 2.522e-08
 38.48659    -89.6 2.090e+04 2.996e-08
 38.49642    -90.2 2.100e+04 3.211e-08
 38.50625    -91.0 2.102e+04 3.239e-08
 38.51608    -91.9 2.082e+04 2.979e-08
 38.52591    -92.7 2.032e+04 2.413e-08
 38.53574    -93.5 1.964e+04 1.914e-08
 38.54313    -94.1 1.903e+04 1.581e-08
 38.54805    -93.1 1.926e+04 1.685e-08
 38.55540    -93.5 1.867e+04 1.415e-08
 38.57020    -93.8 1.823e+04 1.239e-08
 38.58990    -94.6 1.717e+04 8.847e-09
 38.60956    -95.7 1.612e+04 6.467e-09
 38.62922    -96.6 1.544e+04 5.230e-09
 38.64888    -97.3 1.481e+04 4.422e-09
 38.66854    -97.7 1.436e+04 3.830e-09
 38.68784    -97.9 1.386e+04 3.229e-09
 38.69767    -98.2 1.398e+04 3.375e-09
 38.70786    -98.3 1.346e+04 2.798e-09
 38.72487    -98.3 1.293e+04 2.263e-09
 38.73470    -97.4 1.305e+04 2.301e-09
 38.74718    -97.6 1.252e+04 1.855e-09
 38.76684    -97.7 1.210e+04 1.538e-09
 38.78650    -97.7 1.179e+04 1.344e-09
 38.80616    -97.5 1.168e+04 1.267e-09
 38.82581    -97.3 1.166e+04 1.251e-09
 38.84547    -97.1 1.169e+04 1.260e-09
 38.86513    -96.8 1.191e+04 1.372e-09
 38.88479    -96.6 1.216e+04 1.565e-09
 38.90445    -96.3 1.241e+04 1.799e-09
 38.91635    -95.8 1.265e+04 2.039e-09
 38.92618    -96.2 1.277e+04 2.137e-09
 38.94377    -95.7 1.289e+04 2.292e-09
 38.96343    -95.2 1.292e+04 2.339e-09
 38.98309    -94.6 1.281e+04 2.327e-09
 39.00275    -93.7 1.254e+04 2.113e-09
 39.02241    -92.8 1.221e+04 1.743e-09
 39.04207    -91.9 1.176e+04 1.340e-09
 39.06173    -91.2 1.123e+04 9.665e-10
 39.08138    -90.8 1.065e+04 6.581e-10
 39.09799    -90.7 1.010e+04 4.384e-10
 39.10782    -91.7 1.014e+04 3.951e-10
 39.12070    -91.7 9.720e+03 3.104e-10
 39.13258    -91.6 9.427e+03 2.583e-10
 39.14241    -92.1 9.294e+03 2.537e-10
 39.16002    -91.7 9.143e+03 2.315e-10
 39.17968    -90.7 9.108e+03 2.263e-10
 39.19934    -89.6 9.164e+03 2.324e-10
 39.22893    -88.2 9.330e+03 2.506e-10
 39.25842    -86.2 9.429e+03 2.724e-10
 39.27798    -85.3 9.446e+03 2.836e-10
 39.28947    -83.7 9.571e+03 3.197e-10
 39.29930    -83.7 9.640e+03 3.462e-10
 39.31730    -82.4 9.776e+03 3.834e-10
 39.33695    -81.0 9.921e+03 4.233e-10
 39.35661    -79.6 1.010e+04 4.664e-10
 39.37627    -78.2 1.029e+04 5.109e-10
 39.39593    -76.9 1.047e+04 5.528e-10
 39.41559    -75.7 1.058e+04 5.846e-10
 39.43525    -74.4 1.060e+04 5.989e-10
 39.45491    -73.1 1.059e+04 6.007e-10
 39.47111    -71.8 1.056e+04 6.002e-10
 39.48094    -71.1 1.059e+04 6.084e-10
 39.49423    -70.6 1.061e+04 6.176e-10
 39.51389    -70.6 1.084e+04 6.531e-10
 39.53355    -71.9 1.216e+04 9.171e-10
 39.55321    -73.9 1.417e+04 1.686e-09
 39.56749    -75.1 1.570e+04 2.995e-09
 39.57732    -73.6 1.428e+04 1.893e-09
 39.59252    -74.3 1.492e+04 2.704e-09
 39.60722    -75.4 1.602e+04 4.205e-09
 39.61700    -76.2 1.681e+04 5.670e-09
 39.62683    -76.9 1.757e+04 8.327e-09
 39.63666    -77.3 1.818e+04 1.124e-08
 39.64649    -77.4 1.883e+04 1.443e-08
 39.65632    -77.2 1.955e+04 1.697e-08
 39.66249    -77.1 2.031e+04 1.853e-08
 39.66741    -77.4 2.063e+04 1.725e-08
 39.67598    -78.1 2.094e+04 1.587e-08
 39.68581    -79.4 2.068e+04 1.381e-08
 39.69564    -80.0 2.021e+04 1.264e-08
 39.71043    -80.5 1.967e+04 1.092e-08
 39.73014    -81.1 1.901e+04 8.188e-09
 39.74980    -81.7 1.811e+04 5.673e-09
 39.76946    -82.3 1.657e+04 3.582e-09
 39.78912    -82.7 1.479e+04 2.265e-09
 39.80878    -82.9 1.338e+04 1.568e-09
 39.82844    -82.2 1.273e+04 1.256e-09
 39.84423    -81.1 1.235e+04 1.133e-09
 39.85406    -81.3 1.175e+04 9.830e-10
 39.86775    -80.2 1.156e+04 9.111e-10
 39.89734    -78.7 1.137e+04 8.531e-10
 39.93676    -75.7 1.116e+04 8.012e-10
 39.97608    -72.6 1.125e+04 8.115e-10
 40.00250    -70.6 1.148e+04 9.152e-10
 40.01223    -70.7 1.152e+04 9.788e-10
 40.02503    -69.9 1.164e+04 1.040e-09
 40.03571    -68.8 1.193e+04 1.201e-09
 40.04554    -69.0 1.203e+04 1.314e-09
 40.06435    -68.1 1.225e+04 1.535e-09
 40.08401    -67.2 1.251e+04 1.822e-09
 40.10367    -66.4 1.281e+04 2.151e-09
 40.12332    -65.7 1.321e+04 2.527e-09
 40.14298    -65.0 1.365e+04 2.963e-09
 40.16264    -64.4 1.411e+04 3.428e-09
 40.18230    -63.9 1.448e+04 3.818e-09
 40.20196    -63.6 1.466e+04 3.986e-09
 40.21735    -63.4 1.469e+04 3.998e-09
 40.22718    -63.3 1.381e+04 2.936e-09
 40.24128    -63.0 1.359e+04 2.686e-09
 40.26094    -62.8 1.320e+04 2.291e-09
 40.28060    -62.6 1.270e+04 1.875e-09
 40.30026    -62.4 1.220e+04 1.522e-09
 40.31992    -62.0 1.178e+04 1.255e-09
 40.33958    -61.5 1.144e+04 1.050e-09
 40.35924    -60.9 1.114e+04 8.792e-10
 40.37889    -60.2 1.085e+04 7.314e-10
 40.39855    -59.4 1.058e+04 6.044e-10
 40.40883    -58.6 1.031e+04 5.013e-10
 40.41866    -58.4 1.024e+04 4.910e-10
 40.43732    -57.7 1.004e+04 4.259e-10
 40.44715    -58.0 9.852e+03 3.753e-10
 40.45753    -57.1 9.760e+03 3.480e-10
 40.48712    -55.7 9.739e+03 3.379e-10
 40.52653    -53.6 9.608e+03 3.121e-10
 40.56585    -51.5 9.589e+03 3.080e-10
 40.60517    -49.8 9.721e+03 3.242e-10
 40.63456    -49.0 9.897e+03 3.472e-10
 40.65412    -49.0 1.001e+04 3.765e-10
 40.67378    -48.9 1.026e+04 4.568e-10
 40.69344    -48.7 1.047e+04 5.620e-10
 40.71310    -48.3 1.070e+04 6.875e-10
 40.73276    -47.8 1.090e+04 8.114e-10
 40.75242    -47.2 1.106e+04 9.057e-10
 40.77208    -46.6 1.111e+04 9.382e-10
 40.79174    -46.1 1.126e+04 9.769e-10
 40.81140    -45.4 1.099e+04 8.081e-10
 40.83106    -44.8 1.069e+04 6.478e-10
 40.85072    -44.2 1.044e+04 5.204e-10
 40.87038    -43.7 1.025e+04 4.328e-10
 40.88206    -43.2 1.011e+04 3.813e-10
 40.89189    -44.1 1.021e+04 3.914e-10
 40.90969    -43.4 1.017e+04 3.745e-10
 40.92935    -42.6 1.016e+04 3.703e-10
 40.94901    -41.5 1.017e+04 3.718e-10
 40.96359    -40.3 1.030e+04 3.973e-10
 40.97342    -40.0 1.028e+04 4.004e-10
 40.98833    -39.0 1.053e+04 4.491e-10
 41.00799    -38.3 1.096e+04 5.365e-10
 41.02765    -38.0 1.173e+04 7.015e-10
 41.04731    -38.6 1.296e+04 1.032e-09
 41.06697    -39.4 1.421e+04 1.739e-09
 41.08663    -39.8 1.503e+04 2.970e-09
 41.10629    -39.0 1.555e+04 4.668e-09
 41.12595    -37.6 1.589e+04 6.452e-09
 41.14524    -35.8 1.601e+04 7.500e-09
 41.15507    -35.6 1.688e+04 9.482e-09
 41.16526    -34.2 1.663e+04 8.342e-09
 41.18492    -33.0 1.592e+04 6.352e-09
 41.20458    -32.0 1.529e+04 4.485e-09
 41.22424    -31.7 1.477e+04 3.145e-09
 41.24390    -31.7 1.431e+04 2.208e-09
 41.26356    -31.8 1.374e+04 1.651e-09
 41.28322    -31.2 1.324e+04 1.396e-09
 41.30288    -30.4 1.308e+04 1.335e-09
 41.31697    -29.4 1.308e+04 1.372e-09
 41.32680    -29.6 1.304e+04 1.331e-09
 41.33671    -28.2 1.308e+04 1.357e-09
 41.34654    -29.1 1.331e+04 1.496e-09
 41.36186    -27.7 1.352e+04 1.623e-09
 41.38152    -26.4 1.371e+04 1.747e-09
 41.40118    -25.1 1.378e+04 1.814e-09
 41.42083    -23.8 1.381e+04 1.845e-09
 41.44049    -22.5 1.381e+04 1.860e-09
 41.46015    -21.3 1.358e+04 1.741e-09
 41.47981    -20.1 1.338e+04 1.573e-09
 41.50863    -18.3 1.325e+04 1.436e-09
 41.52838    -20.0 1.308e+04 1.382e-09
 41.54881    -17.1 1.276e+04 1.213e-09
 41.58813    -14.2 1.263e+04 1.092e-09
 41.62745    -11.2 1.252e+04 1.009e-09
 41.66677     -8.4 1.236e+04 9.365e-10
 41.70609     -5.6 1.227e+04 9.013e-10
 41.74224     -3.0 1.230e+04 9.490e-10
 41.76190     -3.6 1.262e+04 1.217e-09
 41.78473     -1.0 1.285e+04 1.418e-09
 41.82404      1.7 1.297e+04 1.584e-09
 41.86336      4.3 1.287e+04 1.614e-09
 41.89167      6.9 1.270e+04 1.441e-09
 41.91133      7.3 1.271e+04 1.370e-09
 41.94200      9.8 1.261e+04 1.322e-09
 41.98132     12.5 1.272e+04 1.416e-09
 42.01071     14.4 1.269e+04 1.443e-09
 42.03027     15.5 1.272e+04 1.442e-09
 42.04993     17.2 1.277e+04 1.426e-09
 42.06959     18.2 1.289e+04 1.467e-09
 42.08295     19.4 1.261e+04 1.453e-09
 42.09278     20.2 1.321e+04 1.920e-09
 42.10891     21.4 1.332e+04 1.992e-09
 42.12857     22.8 1.333e+04 2.127e-09
 42.14823     24.1 1.343e+04 2.227e-09
 42.16789     24.9 1.352e+04 2.385e-09
 42.18679     25.6 1.353e+04 2.544e-09
 42.19662     25.3 1.331e+04 2.197e-09
 42.20720     25.3 1.380e+04 2.533e-09
 42.22686     25.1 1.454e+04 2.980e-09
 42.24652     24.9 1.517e+04 3.486e-09
 42.26460     24.8 1.534e+04 3.828e-09
 42.27443     26.6 1.681e+04 6.414e-09
 42.28584     26.5 1.680e+04 6.040e-09
 42.30550     26.1 1.631e+04 5.038e-09
 42.32516     25.0 1.539e+04 3.996e-09
 42.34482     23.5 1.460e+04 3.275e-09
 42.36448     22.4 1.434e+04 2.927e-09
 42.38414     21.3 1.401e+04 2.586e-09
 42.40380     20.2 1.353e+04 2.311e-09
 42.42346     19.6 1.324e+04 2.150e-09
 42.44312     19.4 1.315e+04 2.037e-09
 42.45607     19.2 1.304e+04 1.858e-09
 42.46590     20.8 1.325e+04 2.040e-09
 42.48243     20.4 1.304e+04 1.781e-09
 42.50209     19.7 1.250e+04 1.431e-09
 42.52175     17.9 1.203e+04 1.096e-09
 42.53645      6.1 2.743e+04 6.367e-10
 42.54623      0.6 3.812e+04 5.784e-10
 42.55171    -32.1 6.262e+04 1.232e-09
 42.55663    -28.4 6.265e+04 1.249e-09
 42.56589    -44.1 3.616e+04 1.617e-08
 42.57572    -52.2 2.549e+04 8.978e-08
 42.58555    -59.6 2.729e+04 1.771e-07
 42.59538    -73.1 3.108e+04 1.849e-07
 42.60521    -95.4 3.628e+04 7.757e-08
 42.61504   -118.9 2.741e+04 2.825e-08
 42.62487   -126.3 2.258e+04 2.360e-08
 42.63143   -128.2 2.197e+04 2.309e-08
 42.63635   -126.7 2.089e+04 1.808e-08
 42.64254   -127.8 2.060e+04 1.763e-08
 42.64745   -127.9 2.085e+04 1.917e-08
 42.65932   -129.1 2.014e+04 1.633e-08
 42.67903   -131.0 1.851e+04 1.041e-08
 42.69869   -133.2 1.610e+04 5.374e-09
 42.71834   -134.4 1.437e+04 3.289e-09
 42.73800   -134.8 1.321e+04 2.384e-09
 42.75766   -134.7 1.261e+04 1.911e-09
 42.77732   -133.8 1.219e+04 1.590e-09
 42.79698   -132.5 1.187e+04 1.347e-09
 42.81664   -131.3 1.164e+04 1.161e-09
 42.82919   -130.2 1.144e+04 1.016e-09
 42.83902   -130.0 1.154e+04 1.023e-09
 42.85596   -129.0 1.137e+04 8.882e-10
 42.87562   -128.0 1.126e+04 7.943e-10
 42.89528   -126.9 1.123e+04 7.489e-10
 42.91494   -125.9 1.124e+04 7.382e-10
 42.93460   -125.4 1.133e+04 7.440e-10
 42.95426   -125.4 1.187e+04 8.325e-10
 42.97391   -125.9 1.282e+04 1.098e-09
 42.99357   -126.7 1.383e+04 1.631e-09
 43.01084   -127.2 1.477e+04 2.535e-09
 43.02067   -127.4 1.468e+04 2.158e-09
 43.03289   -127.5 1.551e+04 3.412e-09
 43.05255   -127.2 1.629e+04 5.033e-09
 43.06644   -126.7 1.691e+04 6.552e-09
 43.07627   -127.2 1.663e+04 6.654e-09
 43.09187   -127.0 1.647e+04 6.567e-09
 43.11153   -126.8 1.579e+04 5.395e-09
 43.13119   -126.7 1.479e+04 3.887e-09
 43.15085   -127.0 1.366e+04 2.690e-09
 43.17051   -127.8 1.260e+04 1.916e-09
 43.19017   -128.5 1.183e+04 1.474e-09
 43.20231   -128.8 1.142e+04 1.247e-09
 43.21214   -128.8 1.182e+04 1.471e-09
 43.22948   -128.9 1.161e+04 1.343e-09
 43.24914   -128.9 1.160e+04 1.295e-09
 43.26880   -128.7 1.161e+04 1.283e-09
 43.28846   -128.4 1.167e+04 1.286e-09
 43.30812   -128.2 1.174e+04 1.308e-09
 43.32778   -127.9 1.180e+04 1.327e-09
 43.34744   -127.5 1.182e+04 1.335e-09
 43.36710   -127.1 1.181e+04 1.328e-09
 43.38396   -126.6 1.175e+04 1.296e-09
 43.39379   -127.2 1.187e+04 1.358e-09
 43.40642   -126.8 1.169e+04 1.254e-09
 43.42608   -126.3 1.145e+04 1.123e-09
 43.44574   -125.8 1.116e+04 9.855e-10
 43.46540   -125.2 1.085e+04 8.578e-10
 43.48505   -124.5 1.055e+04 7.521e-10
 43.50135   -123.8 1.031e+04 6.745e-10
 43.51118   -123.5 1.024e+04 6.378e-10
 43.52437   -122.8 1.010e+04 5.900e-10
 43.54403   -122.1 1.004e+04 5.633e-10
 43.56369   -121.2 1.002e+04 5.559e-10
 43.57543   -120.5 1.012e+04 5.706e-10
 43.58526   -121.5 1.021e+04 5.820e-10
 43.60301   -121.0 1.041e+04 6.285e-10
 43.62267   -120.6 1.063e+04 6.970e-10
 43.64233   -120.0 1.086e+04 7.876e-10
 43.66199   -119.4 1.108e+04 8.942e-10
 43.68165   -118.6 1.126e+04 1.001e-09
 43.70131   -117.5 1.139e+04 1.089e-09
 43.72097   -116.4 1.146e+04 1.149e-09
 43.74063   -115.9 1.162e+04 1.200e-09
 43.75708   -116.5 1.245e+04 1.306e-09
 43.76691   -122.2 1.720e+04 1.941e-09
 43.77994   -129.0 2.353e+04 4.955e-09
 43.79464   -130.7 2.459e+04 8.267e-09
 43.80442   -132.2 2.527e+04 1.329e-08
 43.81425   -133.8 2.535e+04 3.051e-08
 43.82408   -134.6 2.472e+04 7.750e-08
 43.83391   -135.1 2.401e+04 1.710e-07
 43.84374   -136.4 2.353e+04 2.871e-07
 43.85272   -138.9 2.342e+04 3.356e-07
 43.85763   -141.3 2.362e+04 3.147e-07
 43.86340   -145.9 2.403e+04 2.884e-07
 43.87323   -152.5 2.555e+04 1.981e-07
 43.88306   -161.2 2.668e+04 1.493e-07
 43.89289   -170.5 2.644e+04 1.405e-07
 43.90272   -178.4 2.582e+04 1.422e-07
 43.91255   -184.3 2.500e+04 1.508e-07
 43.92238   -188.9 2.464e+04 1.491e-07
 43.93221   -193.2 2.497e+04 1.231e-07
 43.94108   -197.5 2.519e+04 9.317e-08
 43.94599   -199.1 2.395e+04 7.977e-08
 43.94846   -203.2 2.328e+04 5.914e-08
 43.95337   -204.6 2.341e+04 6.406e-08
 43.96169   -207.7 2.239e+04 5.555e-08
 43.97152   -210.2 2.181e+04 5.297e-08
 43.98135   -212.4 2.158e+04 5.132e-08
 43.99118   -214.7 2.119e+04 4.664e-08
 44.00101   -216.7 2.046e+04 3.789e-08
 44.01084   -217.8 1.960e+04 2.813e-08
 44.02067   -218.7 1.887e+04 2.096e-08
 44.03050   -219.7 1.846e+04 1.657e-08
 44.03928   -220.8 1.837e+04 1.364e-08
 44.04419   -221.1 1.876e+04 1.400e-08
 44.05016   -222.3 1.893e+04 1.210e-08
 44.05999   -223.3 1.901e+04 1.073e-08
 44.06982   -224.4 1.898e+04 9.695e-09
 44.07965   -225.5 1.884e+04 8.876e-09
 44.08948   -226.6 1.862e+04 8.183e-09
 44.09931   -227.6 1.837e+04 7.490e-09
 44.10914   -228.6 1.796e+04 6.730e-09
 44.11897   -229.5 1.741e+04 6.002e-09
 44.13015   -230.5 1.682e+04 5.353e-09
 44.13998   -230.6 1.648e+04 5.378e-09
 44.15342   -231.4 1.584e+04 4.738e-09
 44.17313   -232.2 1.461e+04 3.606e-09
 44.19279   -232.4 1.354e+04 2.708e-09
 44.21245   -232.5 1.302e+04 2.120e-09
 44.23211   -232.3 1.284e+04 1.729e-09
 44.25177   -232.1 1.276e+04 1.450e-09
 44.27142   -232.0 1.278e+04 1.264e-09
 44.29108   -232.1 1.290e+04 1.153e-09
 44.31074   -232.2 1.296e+04 1.129e-09
 44.32167   -232.2 1.300e+04 1.143e-09
 44.33150   -231.8 1.319e+04 1.219e-09
 44.35006   -231.6 1.322e+04 1.246e-09
 44.36972   -231.4 1.316e+04 1.327e-09
 44.38100   -231.0 1.308e+04 1.459e-09
 44.39083   -232.7 1.319e+04 2.015e-09
 44.40904   -232.0 1.319e+04 2.081e-09
 44.42870   -231.3 1.319e+04 2.083e-09
 44.44836   -230.6 1.312e+04 1.994e-09
 44.46802   -229.8 1.300e+04 1.846e-09
 44.48768   -229.1 1.293e+04 1.695e-09
 44.50332   -228.3 1.289e+04 1.557e-09
 44.51315   -227.5 1.292e+04 1.608e-09
 44.52699   -226.8 1.302e+04 1.475e-09
 44.54665   -226.0 1.327e+04 1.384e-09
 44.56631   -225.3 1.357e+04 1.354e-09
 44.58597   -224.4 1.393e+04 1.372e-09
 44.60563   -223.6 1.428e+04 1.451e-09
 44.62529   -222.6 1.462e+04 1.585e-09
 44.64495   -221.6 1.492e+04 1.781e-09
 44.66461   -220.5 1.521e+04 2.047e-09
 44.68427   -219.3 1.548e+04 2.392e-09
 44.69479   -218.1 1.574e+04 2.813e-09
 44.70462   -217.7 1.571e+04 2.921e-09
 44.72359   -216.4 1.586e+04 3.394e-09
 44.74325   -215.1 1.599e+04 3.893e-09
 44.76291   -213.7 1.611e+04 4.361e-09
 44.78257   -212.4 1.618e+04 4.750e-09
 44.80222   -211.1 1.618e+04 5.018e-09
 44.81591   -209.8 1.613e+04 5.104e-09
 44.82574   -210.8 1.636e+04 5.665e-09
 44.84154   -209.3 1.620e+04 5.411e-09
 44.86120   -207.9 1.604e+04 5.111e-09
 44.87644   -206.6 1.587e+04 4.767e-09
 44.88627   -206.4 1.548e+04 4.129e-09
 44.90052   -205.1 1.521e+04 3.685e-09
 44.92018   -203.7 1.493e+04 3.271e-09
 44.93984   -202.4 1.466e+04 2.912e-09
 44.95950   -201.1 1.439e+04 2.602e-09
 44.97916   -199.7 1.410e+04 2.338e-09
 44.99882   -198.2 1.384e+04 2.135e-09
 45.01848   -196.7 1.364e+04 1.995e-09
 45.03814   -195.3 1.349e+04 1.901e-09
 45.05779   -194.0 1.336e+04 1.834e-09
 45.06791   -192.6 1.325e+04 1.793e-09
 45.07774   -192.7 1.252e+04 1.417e-09
 45.09711   -191.3 1.247e+04 1.414e-09
 45.11677   -189.9 1.244e+04 1.443e-09
 45.13643   -188.5 1.248e+04 1.509e-09
 45.15609   -187.0 1.260e+04 1.608e-09
 45.17575   -185.5 1.282e+04 1.749e-09
 45.19541   -184.6 1.319e+04 1.939e-09
 45.21507   -184.4 1.385e+04 2.214e-09
 45.23473   -184.7 1.511e+04 2.774e-09
 45.24956   -185.7 1.692e+04 4.074e-09
 45.25583   -185.9 1.512e+04 2.865e-09
 45.26065   -186.6 1.299e+04 1.908e-09
 45.27405   -187.4 1.414e+04 2.454e-09
 45.29371   -188.4 1.546e+04 3.292e-09
 45.31336   -189.5 1.649e+04 4.250e-09
 45.33302   -190.9 1.688e+04 4.830e-09
 45.35268   -192.5 1.689e+04 4.953e-09
 45.37234   -193.7 1.655e+04 4.830e-09
 45.39200   -194.6 1.590e+04 4.272e-09
 45.41166   -195.2 1.519e+04 3.742e-09
 45.43120   -195.6 1.462e+04 3.403e-09
 45.44103   -194.5 1.411e+04 2.834e-09
 45.45098   -194.7 1.385e+04 2.723e-09
 45.47064   -194.7 1.368e+04 2.705e-09
 45.49030   -194.6 1.357e+04 2.725e-09
 45.50996   -194.4 1.344e+04 2.748e-09
 45.52962   -194.0 1.333e+04 2.676e-09
 45.54928   -193.4 1.321e+04 2.575e-09
 45.56893   -192.7 1.310e+04 2.473e-09
 45.58859   -192.0 1.300e+04 2.353e-09
 45.60825   -191.3 1.292e+04 2.196e-09
 45.62268   -190.7 1.278e+04 2.030e-09
 45.63251   -189.9 1.262e+04 1.977e-09
 45.64757   -189.2 1.255e+04 1.871e-09
 45.66723   -188.7 1.243e+04 1.748e-09
 45.68573   -188.2 1.224e+04 1.582e-09
 45.69556   -187.2 1.257e+04 1.865e-09
 45.70655   -186.8 1.235e+04 1.650e-09
 45.72621   -186.5 1.200e+04 1.411e-09
 45.74587   -186.1 1.160e+04 1.203e-09
 45.76553   -185.7 1.119e+04 1.043e-09
 45.78519   -185.1 1.082e+04 9.255e-10
 45.80432   -184.3 1.051e+04 8.306e-10
 45.81415   -183.7 1.065e+04 8.563e-10
 45.82450   -182.9 1.034e+04 7.582e-10
 45.84416   -181.7 1.006e+04 6.588e-10
 45.86382   -180.3 9.812e+03 5.540e-10
 45.88348   -179.0 9.609e+03 4.643e-10
 45.91307   -178.1 9.470e+03 3.964e-10
 45.95249   -176.3 9.254e+03 3.242e-10
 45.98616   -173.7 8.927e+03 2.506e-10
 46.00582   -172.9 9.035e+03 2.771e-10
 46.03112   -170.0 8.704e+03 2.145e-10
 46.07044   -167.1 8.444e+03 1.717e-10
 46.10976   -164.2 8.284e+03 1.451e-10
 46.13067   -161.3 8.208e+03 1.285e-10
 46.15033   -162.2 8.564e+03 1.746e-10
 46.18840   -159.3 8.505e+03 1.603e-10
 46.22771   -156.4 8.481e+03 1.512e-10
 46.26703   -153.6 8.477e+03 1.467e-10
 46.30635   -150.9 8.477e+03 1.453e-10
 46.34567   -148.3 8.548e+03 1.467e-10
 46.36911   -145.8 8.601e+03 1.630e-10
 46.38877   -144.6 8.638e+03 1.749e-10
 46.42431   -142.2 8.758e+03 2.043e-10
 46.46363   -139.8 8.914e+03 2.392e-10
 46.50294   -137.7 9.158e+03 2.881e-10
 46.54226   -135.6 9.422e+03 3.583e-10
 46.58158   -133.9 9.641e+03 4.365e-10
 46.62090   -132.2 9.844e+03 5.146e-10
 46.66022   -130.5 9.997e+03 5.743e-10
 46.69954   -128.8 1.008e+04 6.166e-10
 46.73240   -127.1 1.019e+04 6.659e-10
 46.75206   -125.9 1.019e+04 6.698e-10
 46.77817   -124.2 1.034e+04 7.185e-10
 46.81749   -122.7 1.048e+04 7.675e-10
 46.85681   -121.4 1.067e+04 8.338e-10
 46.89613   -120.3 1.104e+04 9.772e-10
 46.93545   -119.4 1.155e+04 1.210e-09
 46.96484   -118.5 1.171e+04 1.278e-09
 46.98440   -118.1 1.190e+04 1.365e-09
 47.00030   -117.6 1.222e+04 1.536e-09
 47.01013   -117.9 1.215e+04 1.466e-09
 47.02372   -117.5 1.232e+04 1.556e-09
 47.04338   -116.9 1.233e+04 1.549e-09
 47.06304   -116.6 1.245e+04 1.636e-09
 47.08270   -116.0 1.248e+04 1.672e-09
 47.10236   -115.3 1.243e+04 1.644e-09
 47.11516   -114.6 1.232e+04 1.522e-09
 47.12499   -113.8 1.184e+04 1.141e-09
 47.14167   -113.2 1.177e+04 1.078e-09
 47.16133   -112.5 1.167e+04 1.005e-09
 47.18099   -111.7 1.153e+04 9.211e-10
 47.20065   -110.8 1.138e+04 8.492e-10
 47.22031   -109.9 1.123e+04 7.867e-10
 47.23997   -108.9 1.109e+04 7.347e-10
 47.25963   -107.8 1.098e+04 6.935e-10
 47.27929   -106.8 1.091e+04 6.644e-10
 47.29680   -105.7 1.087e+04 6.485e-10
 47.30663   -105.4 1.093e+04 6.487e-10
 47.31861   -104.4 1.096e+04 6.650e-10
 47.33827   -103.4 1.102e+04 6.972e-10
 47.35793   -102.6 1.111e+04 7.488e-10
 47.37759   -101.9 1.122e+04 8.231e-10
 47.39724   -101.1 1.136e+04 9.287e-10
 47.41690   -100.4 1.156e+04 1.078e-09
 47.43521    -99.8 1.179e+04 1.270e-09
 47.44504    -99.8 1.151e+04 1.039e-09
 47.45622    -99.2 1.177e+04 1.247e-09
 47.47588    -98.5 1.205e+04 1.487e-09
 47.48828    -97.8 1.232e+04 1.734e-09
 47.49811    -97.5 1.261e+04 1.958e-09
 47.51520    -96.9 1.285e+04 2.121e-09
 47.53486    -96.4 1.300e+04 2.183e-09
 47.55452    -96.0 1.308e+04 2.203e-09
 47.57418    -95.7 1.314e+04 2.149e-09
 47.59384    -95.6 1.316e+04 2.079e-09
 47.61350    -95.6 1.317e+04 2.023e-09
 47.63316    -95.6 1.314e+04 1.983e-09
 47.65281    -95.6 1.305e+04 1.946e-09
 47.66992    -95.4 1.290e+04 1.872e-09
 47.67975    -95.4 1.306e+04 1.924e-09
 47.69213    -95.1 1.294e+04 1.864e-09
 47.71179    -94.7 1.281e+04 1.740e-09
 47.73145    -94.3 1.266e+04 1.561e-09
 47.75111    -93.9 1.251e+04 1.352e-09
 47.77077    -93.4 1.235e+04 1.138e-09
 47.79043    -93.0 1.216e+04 9.329e-10
 47.81009    -92.6 1.192e+04 7.598e-10
 47.83968    -92.2 1.161e+04 5.976e-10
 47.86159    -90.0 1.136e+04 4.719e-10
 47.87248    -89.8 1.159e+04 5.755e-10
 47.88997    -89.9 1.184e+04 6.536e-10
 47.91841    -87.4 1.146e+04 4.734e-10
 47.95773    -85.0 1.128e+04 3.615e-10
 47.99705    -82.9 1.125e+04 3.115e-10
 48.03637    -80.9 1.125e+04 2.986e-10
 48.07568    -79.0 1.127e+04 2.988e-10
 48.11500    -77.3 1.138e+04 3.232e-10
 48.15432    -76.1 1.140e+04 3.820e-10
 48.19364    -75.0 1.141e+04 4.481e-10
 48.22488    -74.0 1.142e+04 4.891e-10
 48.24454    -73.1 1.172e+04 6.014e-10
 48.27228    -72.0 1.181e+04 6.256e-10
 48.30167    -71.6 1.158e+04 5.327e-10
 48.31486    -71.3 1.153e+04 5.171e-10
 48.32469    -71.2 1.152e+04 5.163e-10
 48.35082    -70.3 1.148e+04 4.882e-10
 48.39023    -69.4 1.144e+04 4.645e-10
 48.42955    -68.4 1.144e+04 4.623e-10
 48.46887    -67.5 1.148e+04 4.884e-10
 48.50819    -66.8 1.154e+04 5.559e-10
 48.53758    -66.2 1.161e+04 6.475e-10
 48.55714    -66.0 1.165e+04 6.908e-10
 48.57680    -65.6 1.168e+04 7.241e-10
 48.59646    -65.3 1.164e+04 6.976e-10
 48.60774    -65.0 1.144e+04 5.840e-10
 48.61757    -64.8 1.169e+04 7.357e-10
 48.63578    -64.7 1.156e+04 6.610e-10
 48.66536    -64.4 1.135e+04 5.445e-10
 48.70478    -64.1 1.105e+04 4.456e-10
 48.74014    -63.5 1.076e+04 3.724e-10
 48.75979    -63.4 1.094e+04 4.467e-10
 48.78342    -62.6 1.065e+04 3.770e-10
 48.82273    -61.7 1.043e+04 3.377e-10
 48.86205    -60.5 1.030e+04 3.159e-10
 48.90137    -59.2 1.023e+04 2.952e-10
 48.94069    -58.0 1.017e+04 2.784e-10
 48.97112    -56.7 1.015e+04 2.712e-10
 48.99078    -56.6 1.015e+04 2.608e-10
 49.01933    -55.5 1.021e+04 2.762e-10
 49.05865    -54.7 1.043e+04 3.437e-10
 49.09796    -53.7 1.069e+04 4.301e-10
 49.13728    -52.8 1.085e+04 4.704e-10
 49.17660    -52.0 1.089e+04 4.615e-10
 49.21592    -51.1 1.079e+04 3.444e-10
 49.25524    -50.3 1.068e+04 2.358e-10
 49.29456    -49.6 1.071e+04 2.054e-10
 49.33388    -49.0 1.080e+04 2.030e-10
 49.35407    -48.7 1.110e+04 2.532e-10
 49.37373    -49.1 1.101e+04 2.497e-10
 49.41251    -48.6 1.105e+04 3.257e-10
 49.45183    -47.9 1.106e+04 3.803e-10
 49.49115    -47.1 1.103e+04 3.950e-10
 49.53047    -46.1 1.087e+04 3.685e-10
 49.56979    -44.8 1.070e+04 3.163e-10
 49.60910    -43.5 1.059e+04 2.716e-10
 49.62962    -41.8 1.054e+04 2.511e-10
 49.64928    -41.9 1.046e+04 2.369e-10
 49.68774    -40.0 1.047e+04 2.359e-10
 49.71736    -38.1 1.057e+04 2.510e-10
 49.73702    -37.9 1.058e+04 2.524e-10
 49.76638    -36.1 1.065e+04 2.785e-10
 49.80570    -34.2 1.072e+04 3.028e-10
 49.84502    -32.3 1.079e+04 3.247e-10
 49.88433    -30.6 1.090e+04 3.535e-10
 49.92365    -28.9 1.112e+04 4.012e-10
 49.96297    -27.3 1.144e+04 4.697e-10
 49.99236    -26.0 1.175e+04 5.343e-10
 50.01192    -25.7 1.179e+04 5.623e-10
 50.03158    -24.8 1.198e+04 6.626e-10
 50.05124    -24.2 1.213e+04 7.249e-10
 50.06433    -23.6 1.236e+04 8.172e-10
 50.07416    -24.1 1.244e+04 8.849e-10
 50.09029    -23.8 1.265e+04 9.895e-10
 50.10012    -24.0 1.260e+04 9.839e-10
 50.11022    -23.8 1.272e+04 1.093e-09
 50.12988    -23.7 1.288e+04 1.212e-09
 50.14954    -23.6 1.292e+04 1.353e-09
 50.16920    -23.6 1.298e+04 1.470e-09
 50.18886    -23.8 1.305e+04 1.565e-09
 50.20852    -24.3 1.314e+04 1.656e-09
 50.22818    -25.0 1.325e+04 1.778e-09
 50.24783    -25.8 1.329e+04 1.805e-09
 50.26749    -26.8 1.326e+04 1.747e-09
 50.28176    -27.7 1.320e+04 1.693e-09
 50.29159    -27.7 1.351e+04 2.156e-09
 50.30681    -28.1 1.337e+04 2.054e-09
 50.32647    -28.4 1.311e+04 1.713e-09
 50.34613    -29.1 1.289e+04 1.373e-09
 50.36579    -30.1 1.272e+04 1.194e-09
 50.38545    -31.0 1.268e+04 1.161e-09
 50.40511    -31.9 1.274e+04 1.228e-09
 50.42477    -32.4 1.282e+04 1.490e-09
 50.44443    -32.4 1.297e+04 1.793e-09
 50.46341    -32.3 1.321e+04 2.003e-09
 50.47324    -31.5 1.294e+04 1.607e-09
 50.48375    -31.5 1.309e+04 1.626e-09
 50.49924    -31.9 1.328e+04 1.583e-09
 50.50907    -31.8 1.284e+04 1.223e-09
 50.52306    -32.5 1.293e+04 1.183e-09
 50.54272    -34.1 1.376e+04 1.255e-09
 50.56238    -37.2 1.476e+04 1.966e-09
 50.58204    -39.9 1.540e+04 3.968e-09
 50.60170    -40.8 1.601e+04 7.563e-09
 50.62136    -41.1 1.666e+04 1.065e-08
 50.64102    -41.5 1.686e+04 1.142e-08
 50.65488    -41.8 1.663e+04 9.486e-09
 50.66471    -41.3 1.737e+04 1.311e-08
 50.67537    -41.7 1.612e+04 6.898e-09
 50.68516    -41.7 1.599e+04 6.116e-09
 50.69995    -43.1 1.477e+04 3.408e-09
 50.71966    -44.7 1.328e+04 1.785e-09
 50.73932    -45.1 1.256e+04 1.212e-09
 50.75898    -44.3 1.208e+04 8.823e-10
 50.77863    -42.9 1.176e+04 6.198e-10
 50.79829    -42.0 1.167e+04 4.434e-10
 50.82680    -41.3 1.160e+04 3.381e-10
 50.84655    -41.6 1.154e+04 3.218e-10
 50.86730    -39.8 1.142e+04 2.546e-10
 50.90661    -37.4 1.115e+04 1.958e-10
 50.94593    -34.8 1.104e+04 1.715e-10
 50.98525    -32.3 1.103e+04 1.669e-10
 51.02457    -30.0 1.111e+04 1.816e-10
 51.06389    -27.9 1.127e+04 2.259e-10
 51.10321    -26.1 1.145e+04 3.053e-10
 51.14253    -24.7 1.167e+04 4.295e-10
 51.18184    -23.7 1.190e+04 6.208e-10
 51.20984    -22.8 1.224e+04 8.852e-10
 51.22950    -23.1 1.239e+04 9.668e-10
 51.26048    -22.6 1.263e+04 1.067e-09
 51.29980    -22.4 1.258e+04 9.263e-10
 51.33912    -22.2 1.214e+04 6.127e-10
 51.36926    -21.7 1.177e+04 3.988e-10
 51.38892    -21.8 1.216e+04 6.836e-10
 51.41776    -21.0 1.173e+04 4.104e-10
 51.45707    -19.7 1.153e+04 2.903e-10
 51.49639    -18.2 1.137e+04 2.525e-10
 51.53571    -16.3 1.131e+04 2.439e-10
 51.57314    -14.3 1.131e+04 2.545e-10
 51.59279    -14.1 1.127e+04 2.553e-10
 51.61435    -12.1 1.129e+04 3.078e-10
 51.65367     -9.9 1.136e+04 3.938e-10
 51.69298     -7.6 1.150e+04 4.843e-10
 51.73230     -5.3 1.158e+04 5.171e-10
 51.77162     -3.3 1.153e+04 5.239e-10
 51.81094     -1.3 1.155e+04 5.233e-10
 51.85026      0.6 1.157e+04 5.259e-10
 51.88958      2.3 1.156e+04 5.217e-10
 51.92890      4.0 1.161e+04 5.283e-10
 51.95608      5.5 1.170e+04 5.438e-10
 51.97574      5.1 1.170e+04 5.756e-10
 52.00753      6.5 1.163e+04 6.321e-10
 52.04685      8.4 1.155e+04 6.734e-10
 52.08617     10.6 1.148e+04 5.649e-10
 52.12549     12.4 1.147e+04 3.866e-10
 52.16481     13.8 1.124e+04 2.652e-10
 52.20412     15.4 1.108e+04 1.940e-10
 52.23908     17.0 1.098e+04 1.561e-10
 52.25874     16.9 1.094e+04 1.176e-10
 52.28276     18.6 1.090e+04 1.112e-10
 52.31938     20.5 1.088e+04 1.171e-10
 52.33903     19.9 1.089e+04 1.250e-10
 52.36140     21.8 1.088e+04 1.377e-10
 52.40072     23.9 1.090e+04 1.482e-10
 52.44004     25.9 1.094e+04 1.541e-10
 52.47935     27.8 1.099e+04 1.585e-10
 52.51867     29.8 1.101e+04 1.625e-10
 52.55799     31.7 1.104e+04 1.657e-10
 52.59731     33.8 1.107e+04 1.694e-10
 52.63663     35.8 1.108e+04 1.765e-10
 52.67595     37.7 1.111e+04 1.889e-10
 52.70232     39.7 1.111e+04 2.040e-10
 52.72198     39.7 1.119e+04 2.475e-10
 52.75458     41.7 1.121e+04 2.706e-10
 52.79390     43.7 1.125e+04 2.963e-10
 52.83322     45.6 1.128e+04 3.290e-10
 52.87254     47.6 1.131e+04 3.575e-10
 52.91186     49.4 1.132e+04 3.630e-10
 52.95118     51.3 1.128e+04 3.445e-10
 52.99049     53.3 1.115e+04 3.081e-10
 53.02981     55.3 1.102e+04 2.643e-10
 53.06562     57.3 1.091e+04 2.238e-10
 53.08527     56.9 1.096e+04 2.052e-10
 53.10845     58.9 1.088e+04 1.805e-10
 53.12856     61.0 1.083e+04 1.704e-10
 53.14822     61.5 1.086e+04 1.610e-10
 53.18709     63.8 1.086e+04 1.606e-10
 53.22641     65.9 1.091e+04 1.664e-10
 53.26572     67.8 1.103e+04 1.924e-10
 53.30504     69.8 1.113e+04 2.494e-10
 53.34436     71.8 1.124e+04 3.351e-10
 53.38368     73.6 1.143e+04 4.153e-10
 53.42300     74.7 1.164e+04 4.348e-10
 53.44857     75.7 1.162e+04 4.055e-10
 53.46822     74.7 1.174e+04 4.642e-10
 53.50163     75.3 1.164e+04 3.614e-10
 53.54095     75.9 1.146e+04 2.905e-10
 53.58027     76.3 1.148e+04 2.973e-10
 53.61959     76.9 1.151e+04 3.416e-10
 53.65891     77.5 1.173e+04 4.610e-10
 53.69823     78.4 1.197e+04 6.162e-10
 53.73755     78.3 1.235e+04 8.115e-10
 53.77686     77.7 1.285e+04 1.110e-09
 53.81186     76.5 1.329e+04 1.545e-09
 53.83151     73.8 1.319e+04 1.536e-09
 53.85550     72.9 1.325e+04 1.614e-09
 53.89482     72.5 1.313e+04 1.390e-09
 53.93414     71.5 1.267e+04 9.329e-10
 53.97346     70.2 1.185e+04 6.324e-10
 53.99838     69.8 1.122e+04 5.970e-10
 54.01804     71.5 1.161e+04 6.569e-10
 54.04217     70.4 1.136e+04 6.528e-10
 54.06173     70.6 1.130e+04 6.793e-10
 54.08139     71.0 1.128e+04 7.101e-10
 54.10105     71.5 1.131e+04 7.514e-10
 54.12071     71.9 1.136e+04 7.992e-10
 54.14036     72.2 1.146e+04 8.624e-10
 54.16002     72.4 1.161e+04 9.652e-10
 54.17968     72.6 1.180e+04 1.118e-09
 54.19461     73.0 1.206e+04 1.311e-09
 54.20444     72.5 1.248e+04 1.707e-09
 54.21900     72.9 1.267e+04 1.850e-09
 54.23866     73.1 1.280e+04 1.930e-09
 54.25832     73.0 1.283e+04 1.923e-09
 54.28791     72.9 1.289e+04 1.958e-09
 54.32732     72.8 1.249e+04 1.612e-09
 54.36664     72.6 1.217e+04 1.436e-09
 54.40596     72.3 1.206e+04 1.406e-09
 54.44528     71.8 1.197e+04 1.361e-09
 54.48460     71.7 1.170e+04 1.182e-09
 54.52392     71.9 1.125e+04 8.807e-10
 54.55810     71.8 1.069e+04 5.946e-10
 54.57775     70.5 1.061e+04 6.235e-10
 54.60255     70.5 1.019e+04 4.935e-10
 54.64187     70.8 1.020e+04 4.949e-10
 54.68119     70.7 1.034e+04 5.509e-10
 54.72051     70.3 1.082e+04 7.665e-10
 54.75983     69.8 1.149e+04 1.187e-09
 54.79914     69.1 1.219e+04 1.773e-09
 54.83846     68.3 1.257e+04 2.156e-09
 54.86821     67.6 1.255e+04 2.100e-09
 54.88777     68.2 1.263e+04 2.237e-09
 54.90708     68.0 1.254e+04 2.135e-09
 54.92673     67.7 1.229e+04 1.827e-09
 54.94085     67.2 1.200e+04 1.442e-09
 54.95068     68.0 1.192e+04 1.468e-09
 54.96605     67.4 1.163e+04 1.142e-09
 54.98571     66.9 1.145e+04 9.757e-10
 55.00537     66.7 1.138e+04 9.386e-10
 55.02503     66.4 1.111e+04 7.928e-10
 55.04469     66.2 1.098e+04 7.503e-10
 55.06435     65.7 1.095e+04 7.475e-10
 55.08401     65.6 1.093e+04 7.488e-10
 55.10367     64.9 1.064e+04 7.693e-10
 55.12250     62.2 1.148e+04 9.327e-10
 55.13232     63.7 1.145e+04 9.506e-10
 55.14299     63.4 1.147e+04 1.091e-09
 55.16265     58.7 1.521e+04 1.903e-09
 55.18230     52.2 1.929e+04 4.642e-09
 55.20196     48.6 1.936e+04 8.442e-09
 55.22162     47.0 1.794e+04 9.663e-09
 55.24128     46.0 1.686e+04 7.586e-09
 55.26094     44.1 1.554e+04 4.519e-09
 55.28060     41.1 1.434e+04 2.663e-09
 55.30026     38.9 1.315e+04 1.631e-09
 55.31275     38.0 1.237e+04 1.264e-09
 55.31663     36.0 1.188e+04 1.126e-09
 55.32380     36.1 1.196e+04 1.204e-09
 55.33958     36.9 1.164e+04 1.094e-09
 55.35924     37.8 1.163e+04 1.060e-09
 55.38882     39.6 1.178e+04 1.138e-09
 55.42824     41.0 1.186e+04 1.183e-09
 55.45763     41.6 1.164e+04 1.005e-09
 55.47719     42.3 1.155e+04 9.199e-10
 55.49562     42.8 1.157e+04 8.660e-10
 55.50544     43.1 1.174e+04 9.956e-10
 55.51651     43.5 1.180e+04 9.576e-10
 55.53617     43.5 1.184e+04 9.644e-10
 55.55583     43.5 1.189e+04 9.997e-10
 55.57549     43.7 1.185e+04 1.082e-09
 55.59515     44.2 1.186e+04 1.178e-09
 55.61481     44.8 1.192e+04 1.245e-09
 55.63447     45.5 1.202e+04 1.269e-09
 55.65413     46.2 1.212e+04 1.277e-09
 55.67379     46.7 1.222e+04 1.280e-09
 55.68709     47.2 1.222e+04 1.273e-09
 55.69692     47.1 1.233e+04 1.366e-09
 55.71310     47.7 1.229e+04 1.333e-09
 55.73276     48.3 1.229e+04 1.314e-09
 55.74766     48.8 1.231e+04 1.296e-09
 55.75749     48.6 1.231e+04 1.345e-09
 55.77208     49.3 1.239e+04 1.396e-09
 55.79174     49.8 1.250e+04 1.392e-09
 55.81140     50.4 1.259e+04 1.341e-09
 55.83106     50.7 1.263e+04 1.269e-09
 55.85072     51.0 1.265e+04 1.194e-09
 55.86874     51.1 1.261e+04 1.143e-09
 55.87856     50.7 1.265e+04 1.105e-09
 55.89004     50.7 1.252e+04 1.046e-09
 55.90970     50.7 1.238e+04 1.045e-09
 55.92936     50.8 1.231e+04 1.115e-09
 55.94902     51.1 1.240e+04 1.255e-09
 55.96867     51.7 1.247e+04 1.387e-09
 55.98833     52.4 1.249e+04 1.451e-09
 56.00799     53.1 1.244e+04 1.434e-09
 56.02765     53.9 1.227e+04 1.355e-09
 56.04731     54.9 1.198e+04 1.182e-09
 56.06021     55.8 1.174e+04 1.008e-09
 56.07004     55.6 1.170e+04 9.815e-10
 56.08663     56.5 1.150e+04 8.468e-10
 56.10629     57.1 1.143e+04 7.718e-10
 56.12595     58.2 1.127e+04 6.937e-10
 56.14561     58.6 1.126e+04 6.822e-10
 56.16527     59.9 1.105e+04 6.126e-10
 56.18257     60.4 1.103e+04 5.976e-10
 56.19240     60.5 1.109e+04 6.146e-10
 56.20459     61.9 1.094e+04 5.646e-10
 56.22424     62.5 1.092e+04 5.515e-10
 56.25383     63.9 1.078e+04 5.023e-10
 56.29325     65.7 1.055e+04 4.277e-10
 56.33257     67.5 1.036e+04 3.478e-10
 56.37188     69.0 1.018e+04 2.742e-10
 56.41120     70.3 1.009e+04 2.407e-10
 56.43353     71.5 1.017e+04 2.532e-10
 56.45318     71.2 9.942e+03 2.373e-10
 56.48984     72.2 1.006e+04 2.659e-10
 56.52916     73.0 1.050e+04 4.193e-10
 56.56848     73.7 1.141e+04 8.481e-10
 56.60780     73.9 1.220e+04 1.509e-09
 56.64711     74.8 1.255e+04 1.962e-09
 56.67651     74.0 1.250e+04 1.923e-09
 56.69607     73.8 1.242e+04 1.833e-09
 56.72565     74.1 1.220e+04 1.603e-09
 56.76507     73.8 1.139e+04 1.015e-09
 56.79682     73.8 1.055e+04 6.768e-10
 56.81647     73.2 1.041e+04 6.543e-10
 56.84371     74.0 1.025e+04 6.001e-10
 56.88302     75.3 1.029e+04 6.157e-10
 56.92234     76.7 1.049e+04 6.868e-10
 56.96166     78.1 1.078e+04 7.984e-10
 57.00098     79.6 1.096e+04 8.903e-10
 57.04030     80.9 1.094e+04 8.820e-10
 57.06232     81.4 1.077e+04 8.421e-10
 57.07205     81.5 1.104e+04 9.889e-10
 57.08925     82.1 1.098e+04 9.909e-10
 57.10891     82.7 1.083e+04 9.507e-10
 57.12857     83.4 1.064e+04 8.762e-10
 57.14823     84.2 1.044e+04 7.878e-10
 57.16789     85.0 1.022e+04 6.950e-10
 57.17957     86.0 9.987e+03 5.843e-10
 57.18940     85.9 1.014e+04 6.754e-10
 57.20721     86.9 9.953e+03 5.842e-10
 57.22687     88.0 9.756e+03 4.907e-10
 57.24653     88.5 9.663e+03 4.500e-10
 57.27611     90.1 9.591e+03 4.319e-10
 57.31553     92.2 9.515e+03 4.207e-10
 57.35485     94.6 9.510e+03 4.303e-10
 57.39417     96.9 9.598e+03 4.780e-10
 57.43348     98.9 9.907e+03 5.897e-10
 57.47280    100.9 1.037e+04 7.751e-10
 57.49733    102.6 1.089e+04 1.016e-09
 57.51699    101.6 1.057e+04 8.760e-10
 57.54306    102.8 1.085e+04 9.949e-10
 57.56271    101.6 1.044e+04 8.679e-10
 57.59076    102.1 1.053e+04 8.997e-10
 57.63008    102.2 1.050e+04 8.861e-10
 57.66939    102.2 1.046e+04 8.521e-10
 57.70871    102.3 1.046e+04 8.254e-10
 57.74803    102.5 1.056e+04 8.345e-10
 57.78735    102.6 1.073e+04 8.906e-10
 57.82667    102.7 1.098e+04 9.948e-10
 57.86599    102.6 1.131e+04 1.144e-09
 57.90531    102.4 1.172e+04 1.368e-09
 57.92601    101.9 1.232e+04 1.763e-09
 57.94566    101.7 1.225e+04 1.742e-09
 57.98394    101.3 1.280e+04 2.193e-09
 58.01333    101.0 1.336e+04 2.820e-09
 58.03290    100.6 1.342e+04 2.857e-09
 58.06248     99.6 1.308e+04 2.331e-09
 58.10190     98.8 1.246e+04 1.581e-09
 58.14122     98.8 1.161e+04 8.962e-10
 58.18053     98.9 1.076e+04 4.932e-10
 58.21985     99.0 1.037e+04 3.218e-10
 58.25917     99.7 1.038e+04 2.980e-10
 58.28930    100.8 1.038e+04 3.017e-10
 58.30895    101.6 1.037e+04 2.951e-10
 58.33781    102.8 1.039e+04 2.999e-10
 58.36715    104.0 1.045e+04 3.141e-10
 58.38681    103.8 1.043e+04 3.052e-10
 58.41645    105.0 1.053e+04 3.263e-10
 58.45576    106.3 1.074e+04 3.696e-10
 58.49508    107.1 1.102e+04 4.341e-10
 58.52447    107.4 1.113e+04 4.954e-10
 58.54404    107.8 1.124e+04 5.782e-10
 58.56369    108.2 1.133e+04 7.184e-10
 58.58335    108.6 1.153e+04 8.153e-10
 58.60301    108.8 1.198e+04 8.095e-10
 58.62267    108.8 1.218e+04 8.045e-10
 58.64233    108.3 1.245e+04 8.032e-10
 58.66199    107.6 1.251e+04 7.857e-10
 58.67215    106.4 1.261e+04 8.260e-10
 58.68198    107.4 1.285e+04 9.280e-10
 58.70131    106.8 1.275e+04 8.893e-10
 58.73090    105.5 1.283e+04 9.379e-10
 58.76038    103.5 1.305e+04 1.019e-09
 58.77995    102.3 1.299e+04 1.061e-09
 58.79961    101.1 1.292e+04 1.092e-09
 58.81170    100.2 1.284e+04 1.108e-09
 58.82153    100.5 1.268e+04 9.818e-10
 58.83892     99.6 1.263e+04 9.963e-10
 58.85370     99.1 1.259e+04 9.947e-10
 58.86352     99.5 1.259e+04 9.913e-10
 58.87824     99.0 1.248e+04 9.691e-10
 58.89790     98.7 1.240e+04 9.506e-10
 58.92749     98.7 1.221e+04 8.424e-10
 58.96690     98.8 1.188e+04 6.630e-10
 59.00622     99.0 1.158e+04 5.417e-10
 59.03554     99.7 1.136e+04 4.758e-10
 59.05520    100.0 1.151e+04 4.889e-10
 59.08486    100.9 1.126e+04 3.877e-10
 59.12418    102.2 1.105e+04 2.962e-10
 59.16350    103.6 1.090e+04 2.232e-10
 59.20282    105.0 1.075e+04 1.727e-10
 59.23697    106.5 1.061e+04 1.466e-10
 59.25663    106.0 1.060e+04 1.282e-10
 59.28145    107.8 1.051e+04 1.284e-10
 59.32077    109.6 1.042e+04 1.326e-10
 59.36009    111.6 1.034e+04 1.411e-10
 59.39883    113.6 1.031e+04 1.533e-10
 59.41849    114.0 1.030e+04 1.258e-10
 59.43873    116.0 1.031e+04 1.528e-10
 59.47804    118.1 1.042e+04 1.928e-10
 59.51736    120.1 1.064e+04 2.585e-10
 59.55668    122.0 1.096e+04 3.537e-10
 59.59600    123.6 1.128e+04 4.657e-10
 59.63532    124.6 1.158e+04 5.470e-10
 59.67464    125.1 1.169e+04 5.519e-10
 59.71396    125.6 1.171e+04 5.272e-10
 59.75327    126.0 1.168e+04 4.507e-10
 59.78178    126.3 1.156e+04 3.563e-10
 59.80144    126.7 1.169e+04 4.197e-10
 59.83191    126.9 1.164e+04 3.917e-10
 59.87123    127.0 1.161e+04 3.849e-10
 59.91055    126.8 1.164e+04 3.955e-10
 59.94987    126.2 1.170e+04 4.439e-10
 59.98919    125.6 1.181e+04 5.372e-10
 60.02850    125.1 1.196e+04 6.097e-10
 60.06782    124.4 1.197e+04 6.062e-10
 60.10680    124.2 1.189e+04 5.488e-10
 60.12645    125.1 1.179e+04 4.760e-10
 60.14507    125.2 1.160e+04 3.590e-10
 60.16473    125.2 1.166e+04 3.980e-10
 60.18578    125.5 1.141e+04 2.601e-10
 60.22510    125.9 1.120e+04 1.609e-10
 60.26441    126.4 1.093e+04 1.106e-10
 60.30373    127.2 1.051e+04 1.005e-10
 60.34305    128.3 1.038e+04 1.004e-10
 60.38237    129.7 1.022e+04 1.027e-10
 60.42169    131.1 1.004e+04 1.057e-10
 60.46101    132.4 9.898e+03 1.077e-10
 60.50033    133.7 9.820e+03 1.098e-10
 60.52802    135.0 9.722e+03 1.152e-10
 60.54768    134.8 9.831e+03 1.323e-10
 60.57896    135.9 9.743e+03 1.482e-10
 60.61828    136.9 9.766e+03 1.808e-10
 60.65760    137.8 9.862e+03 2.293e-10
 60.69692    138.4 9.984e+03 2.923e-10
 60.73624    138.9 1.009e+04 3.589e-10
 60.77556    139.1 1.013e+04 4.148e-10
 60.81487    139.3 1.009e+04 4.456e-10
 60.85419    139.3 1.003e+04 4.498e-10
 60.89131    139.3 9.936e+03 4.387e-10
 60.91097    138.3 1.014e+04 4.891e-10
 60.93283    138.3 9.908e+03 4.457e-10
 60.97215    138.5 9.714e+03 4.308e-10
 60.99628    138.7 9.668e+03 4.338e-10
 61.01594    139.2 9.533e+03 3.850e-10
 61.05078    139.6 9.535e+03 4.224e-10
 61.09010    139.9 9.508e+03 4.399e-10
 61.12942    140.4 9.445e+03 4.308e-10
 61.16874    141.1 9.209e+03 3.869e-10
 61.20806    142.2 8.853e+03 3.004e-10
 61.24738    143.5 8.445e+03 2.071e-10
 61.27426    144.9 8.053e+03 1.373e-10
 61.29392    143.8 8.037e+03 1.281e-10
 61.32601    145.2 7.725e+03 8.676e-11
 61.36533    146.7 7.398e+03 7.350e-11
 61.40465    148.4 7.287e+03 7.228e-11
 61.44397    150.4 7.268e+03 7.200e-11
 61.48329    152.5 7.264e+03 7.212e-11
 61.52261    154.6 7.253e+03 7.319e-11
 61.56192    156.6 7.244e+03 7.589e-11
 61.60124    158.5 7.254e+03 7.919e-11
 61.63755    160.3 7.274e+03 8.205e-11
 61.65721    159.9 7.336e+03 8.408e-11
 61.67988    161.7 7.364e+03 8.730e-11
 61.71920    163.4 7.387e+03 8.935e-11
 61.75852    165.1 7.410e+03 9.098e-11
 61.79784    166.6 7.449e+03 9.373e-11
 61.83715    167.9 7.541e+03 1.010e-10
 61.86610    168.9 7.719e+03 1.174e-10
 61.88576    169.3 7.533e+03 9.668e-11
 61.91579    170.2 7.794e+03 1.229e-10
 61.95511    171.0 8.211e+03 1.750e-10
 61.99443    171.7 8.725e+03 2.591e-10
 62.02050    172.2 9.235e+03 3.697e-10
 62.04016    172.5 9.177e+03 3.463e-10
 62.07307    172.9 9.554e+03 4.478e-10
 62.10246    173.0 9.851e+03 5.477e-10
 62.12202    173.3 1.001e+04 5.901e-10
 62.14168    173.3 9.998e+03 5.739e-10
 62.16134    173.3 9.945e+03 5.462e-10
 62.19092    174.2 9.887e+03 4.976e-10
 62.23034    175.1 9.500e+03 3.779e-10
 62.26966    176.0 9.128e+03 2.814e-10
 62.30898    177.2 9.091e+03 2.553e-10
 62.34829    178.8 9.148e+03 2.566e-10
 62.38379    180.7 9.331e+03 2.679e-10
 62.40345    180.6 9.370e+03 2.714e-10
 62.42693    182.3 9.530e+03 2.891e-10
 62.45632    183.2 9.552e+03 3.012e-10
 62.47588    184.3 9.596e+03 3.198e-10
 62.49554    185.7 9.719e+03 3.630e-10
 62.51520    187.4 9.949e+03 4.343e-10
 62.53486    189.0 1.025e+04 5.324e-10
 62.55452    190.5 1.062e+04 6.567e-10
 62.57418    191.8 1.109e+04 8.220e-10
 62.58490    192.9 1.173e+04 1.089e-09
 62.59473    192.6 1.176e+04 1.125e-09
 62.61350    193.2 1.266e+04 1.606e-09
 62.63316    193.5 1.384e+04 2.508e-09
 62.65282    193.8 1.500e+04 3.850e-09
 62.67248    193.9 1.615e+04 6.057e-09
 62.69214    193.9 1.765e+04 1.009e-08
 62.70683    193.4 1.843e+04 1.244e-08
 62.71661    193.0 1.877e+04 1.339e-08
 62.72644    191.8 1.931e+04 1.378e-08
 62.73627    190.5 1.937e+04 1.363e-08
 62.74546    188.7 1.941e+04 1.334e-08
 62.75037    187.7 1.885e+04 1.112e-08
 62.75593    185.9 1.892e+04 1.062e-08
 62.76576    183.6 1.882e+04 9.409e-09
 62.77136    180.9 1.843e+04 7.849e-09
 62.77632    181.0 1.832e+04 6.163e-09
 62.78547    177.9 1.767e+04 4.850e-09
 62.79525    175.2 1.664e+04 3.822e-09
 62.80508    172.1 1.620e+04 3.443e-09
 62.81491    167.6 1.743e+04 3.680e-09
 62.82474    160.0 2.239e+04 5.706e-09
 62.83457    152.7 2.553e+04 1.272e-08
 62.84440    148.2 2.486e+04 2.529e-08
 62.85423    146.8 2.276e+04 4.088e-08
 62.86218    146.7 2.126e+04 5.314e-08
 62.86710    146.4 2.152e+04 4.724e-08
 62.87389    146.7 2.065e+04 5.999e-08
 62.88372    147.2 2.033e+04 7.031e-08
 62.89355    147.6 2.057e+04 6.975e-08
 62.90338    147.9 2.074e+04 6.626e-08
 62.91320    148.2 2.110e+04 5.721e-08
 62.92303    148.1 2.161e+04 4.395e-08
 62.93286    147.7 2.202e+04 2.904e-08
 62.94269    147.3 2.222e+04 1.912e-08
 62.95252    146.9 2.224e+04 1.256e-08
 62.95797    146.0 2.104e+04 6.530e-09
 62.96785    146.5 2.231e+04 1.067e-08
 62.98702    143.9 1.960e+04 4.176e-09
 63.00668    142.0 1.451e+04 2.896e-09
 63.02634    142.2 1.346e+04 2.907e-09
 63.04600    143.3 1.347e+04 2.954e-09
 63.06566    144.9 1.373e+04 3.224e-09
 63.08532    146.5 1.410e+04 3.591e-09
 63.10498    147.9 1.443e+04 3.875e-09
 63.12464    149.1 1.466e+04 3.924e-09
 63.13966    150.1 1.468e+04 3.901e-09
 63.14949    150.1 1.469e+04 4.105e-09
 63.16396    151.2 1.469e+04 3.903e-09
 63.18046    152.3 1.461e+04 3.596e-09
 63.19029    152.0 1.375e+04 3.038e-09
 63.20328    153.0 1.363e+04 2.872e-09
 63.22294    154.0 1.355e+04 2.682e-09
 63.24259    154.9 1.368e+04 2.601e-09
 63.26225    155.6 1.376e+04 2.648e-09
 63.28191    155.8 1.414e+04 2.813e-09
 63.30157    155.8 1.487e+04 3.133e-09
 63.31627    155.5 1.539e+04 3.469e-09
 63.32605    154.7 1.656e+04 4.255e-09
 63.33104    153.4 1.812e+04 6.076e-09
 63.33595    154.6 1.727e+04 4.965e-09
 63.34571    153.2 1.883e+04 7.338e-09
 63.35554    152.0 1.979e+04 1.117e-08
 63.36537    151.2 2.012e+04 1.658e-08
 63.37520    150.9 2.020e+04 2.375e-08
 63.38503    150.8 2.032e+04 3.262e-08
 63.39486    150.6 2.050e+04 4.218e-08
 63.40274    150.2 2.067e+04 5.056e-08
 63.40765    150.0 2.101e+04 3.979e-08
 63.41452    149.5 2.103e+04 5.090e-08
 63.42186    148.9 2.112e+04 6.524e-08
 63.42678    148.8 2.091e+04 5.662e-08
 63.43417    148.4 2.105e+04 7.078e-08
 63.44400    147.5 2.127e+04 7.938e-08
 63.45383    146.1 2.129e+04 7.818e-08
 63.46366    145.2 2.106e+04 6.868e-08
 63.47349    145.3 2.058e+04 4.869e-08
 63.48332    145.6 1.997e+04 3.000e-08
 63.49812    145.6 1.863e+04 1.067e-08
 63.51278    144.6 1.563e+04 2.817e-09
 63.52261    144.6 1.573e+04 3.276e-09
 63.53748    142.1 1.232e+04 1.038e-09
 63.55714    141.3 1.130e+04 5.784e-10
 63.57680    140.7 1.034e+04 4.372e-10
 63.60564    140.9 9.825e+03 3.812e-10
 63.62530    141.7 1.070e+04 6.074e-10
 63.64571    144.4 1.068e+04 5.913e-10
 63.68512    147.4 1.063e+04 6.221e-10
 63.72444    150.5 1.126e+04 8.066e-10
 63.75383    151.1 1.155e+04 8.886e-10
 63.77339    150.7 1.229e+04 1.173e-09
 63.79305    149.9 1.346e+04 1.999e-09
 63.81271    149.3 1.490e+04 3.920e-09
 63.83237    149.3 1.663e+04 8.087e-09
 63.85203    149.5 1.837e+04 1.574e-08
 63.87169    149.5 1.969e+04 2.497e-08
 63.88585    149.4 2.021e+04 2.898e-08
 63.89568    149.9 1.983e+04 2.379e-08
 63.91101    149.0 2.014e+04 2.490e-08
 63.93067    148.0 1.984e+04 2.150e-08
 63.95033    147.3 1.906e+04 1.599e-08
 63.96999    146.9 1.787e+04 9.895e-09
 63.98965    146.0 1.657e+04 5.961e-09
 64.00931    144.3 1.541e+04 3.841e-09
 64.02896    142.2 1.445e+04 2.914e-09
 64.04862    140.6 1.392e+04 2.884e-09
 64.06012    139.4 1.399e+04 3.167e-09
 64.06921    138.8 1.452e+04 3.656e-09
 64.07738    141.0 1.587e+04 4.938e-09
 64.08794    139.8 1.575e+04 5.396e-09
 64.10760    139.7 1.567e+04 6.918e-09
 64.12726    140.2 1.596e+04 8.965e-09
 64.14196    140.1 1.618e+04 1.051e-08
 64.15174    140.1 1.638e+04 1.225e-08
 64.16157    140.2 1.660e+04 1.469e-08
 64.16810    140.4 1.683e+04 1.700e-08
 64.17302    140.6 1.754e+04 2.115e-08
 64.18123    140.5 1.770e+04 2.481e-08
 64.19106    140.4 1.765e+04 2.480e-08
 64.20089    140.5 1.750e+04 2.422e-08
 64.21071    140.6 1.737e+04 2.271e-08
 64.22054    140.8 1.730e+04 2.061e-08
 64.23037    141.0 1.730e+04 1.822e-08
 64.24020    141.3 1.737e+04 1.571e-08
 64.25003    141.2 1.747e+04 1.327e-08
 64.25892    141.0 1.745e+04 1.088e-08
 64.26384    141.6 1.796e+04 1.453e-08
 64.26969    141.3 1.797e+04 1.169e-08
 64.27747    141.0 1.774e+04 9.155e-09
 64.28239    140.9 1.734e+04 9.144e-09
 64.28935    140.5 1.704e+04 7.288e-09
 64.29918    140.4 1.659e+04 5.787e-09
 64.30901    140.3 1.636e+04 5.204e-09
 64.32380    140.8 1.623e+04 4.425e-09
 64.34351    140.9 1.533e+04 2.859e-09
 64.36317    140.8 1.425e+04 1.740e-09
 64.38283    140.2 1.312e+04 1.088e-09
 64.40249    139.7 1.215e+04 7.333e-10
 64.42215    139.4 1.150e+04 5.363e-10
 64.44067    139.5 1.118e+04 4.149e-10
 64.45050    139.5 1.134e+04 5.012e-10
 64.46147    139.7 1.113e+04 3.955e-10
 64.48113    139.9 1.104e+04 3.257e-10
 64.49503    140.1 1.095e+04 2.793e-10
 64.50486    140.5 1.121e+04 3.692e-10
 64.52045    140.8 1.127e+04 3.298e-10
 64.54010    141.1 1.122e+04 3.030e-10
 64.55976    141.4 1.109e+04 2.867e-10
 64.57942    141.8 1.093e+04 2.853e-10
 64.59908    142.3 1.093e+04 2.863e-10
 64.61874    142.8 1.096e+04 2.934e-10
 64.63214    142.9 1.111e+04 3.216e-10
 64.64197    142.9 1.106e+04 3.477e-10
 64.65806    142.7 1.141e+04 4.172e-10
 64.67772    142.2 1.183e+04 5.654e-10
 64.69738    141.4 1.219e+04 8.514e-10
 64.71704    141.2 1.251e+04 1.355e-09
 64.73670    141.3 1.274e+04 2.061e-09
 64.75636    141.8 1.287e+04 2.684e-09
 64.77602    142.2 1.293e+04 2.792e-09
 64.79568    142.5 1.289e+04 2.725e-09
 64.81379    142.8 1.274e+04 2.422e-09
 64.82362    142.5 1.327e+04 3.100e-09
 64.83499    142.8 1.305e+04 2.550e-09
 64.85465    142.8 1.281e+04 1.930e-09
 64.87431    142.4 1.260e+04 1.397e-09
 64.89397    141.6 1.246e+04 1.037e-09
 64.91363    140.5 1.225e+04 8.278e-10
 64.92994    139.7 1.189e+04 7.120e-10
 64.93977    138.2 1.075e+04 4.956e-10
 64.95295    138.1 1.054e+04 4.750e-10
 64.97261    138.0 1.045e+04 4.611e-10
 64.99227    138.0 1.036e+04 4.402e-10
 65.00526    138.1 1.030e+04 4.281e-10
 65.01509    137.5 1.031e+04 4.355e-10
 65.03159    137.6 1.023e+04 4.186e-10
 65.06117    137.9 1.018e+04 4.022e-10
 65.10059    138.8 9.840e+03 3.408e-10
 65.13991    139.8 9.544e+03 2.902e-10
 65.17923    141.1 9.446e+03 2.713e-10
 65.21854    142.5 9.473e+03 2.757e-10
 65.25786    143.6 9.567e+03 2.957e-10
 65.28725    144.2 9.746e+03 3.574e-10
 65.30682    144.8 1.010e+04 4.729e-10
 65.32647    145.2 1.070e+04 6.805e-10
 65.34613    145.5 1.161e+04 1.041e-09
 65.36485    145.9 1.269e+04 1.675e-09
 65.37468    144.1 1.430e+04 3.064e-09
 65.37833    144.5 1.468e+04 3.640e-09
 65.38320    143.8 1.528e+04 4.050e-09
 65.39027    143.8 1.578e+04 4.745e-09
 65.40010    143.2 1.696e+04 6.455e-09
 65.40993    142.1 1.846e+04 9.642e-09
 65.41976    140.6 2.003e+04 1.565e-08
 65.42959    139.2 2.131e+04 2.891e-08
 65.43942    138.2 2.194e+04 6.274e-08
 65.44925    137.9 2.213e+04 1.470e-07
 65.45908    137.5 2.214e+04 3.090e-07
 65.46891    135.7 2.252e+04 4.274e-07
 65.47402    132.8 2.258e+04 3.969e-07
 65.47894    133.6 2.264e+04 3.653e-07
 65.48857    132.3 2.273e+04 2.377e-07
 65.49840    132.3 2.289e+04 1.009e-07
 65.50822    131.9 2.405e+04 2.816e-08
 65.52302    127.4 2.651e+04 4.355e-09
 65.54273    113.5 2.065e+04 1.155e-09
 65.56003    100.9 1.413e+04 1.109e-09
 65.56986     97.1 1.367e+04 1.558e-09
 65.58204     95.5 1.337e+04 1.897e-09
 65.60170     95.6 1.351e+04 2.340e-09
 65.62136     95.8 1.354e+04 2.377e-09
 65.64102     96.0 1.340e+04 2.100e-09
 65.66068     95.8 1.297e+04 1.589e-09
 65.68034     95.4 1.242e+04 1.002e-09
 65.70000     94.6 1.165e+04 5.998e-10
 65.71966     93.7 1.087e+04 3.751e-10
 65.73932     92.9 1.012e+04 2.649e-10
 65.75160     93.7 1.014e+04 2.637e-10
 65.77136     89.5 9.492e+03 2.398e-10
 65.80832     90.1 9.398e+03 2.430e-10
 65.84764     91.0 9.281e+03 2.619e-10
 65.88696     92.2 9.254e+03 2.962e-10
 65.92628     93.5 9.294e+03 3.193e-10
 65.96560     94.6 9.383e+03 3.273e-10
 66.00491     95.5 9.412e+03 3.244e-10
 66.03431     95.4 9.473e+03 3.329e-10
 66.05387     95.3 9.589e+03 3.547e-10
 66.07353     95.0 9.865e+03 4.059e-10
 66.09319     94.6 1.029e+04 4.984e-10
 66.11284     94.1 1.073e+04 6.382e-10
 66.12462     93.6 1.111e+04 8.226e-10
 66.13445     91.5 1.178e+04 1.179e-09
 66.15216     90.7 1.246e+04 1.567e-09
 66.17182     89.0 1.366e+04 2.236e-09
 66.19148     86.7 1.503e+04 3.389e-09
 66.21114     84.3 1.601e+04 4.840e-09
 66.23080     82.4 1.656e+04 6.058e-09
 66.24450     80.8 1.658e+04 6.077e-09
 66.25433     78.7 1.606e+04 4.977e-09
 66.27012     76.6 1.554e+04 3.489e-09
 66.28978     73.4 1.446e+04 1.864e-09
 66.30627     68.4 1.225e+04 9.021e-10
 66.31610     62.3 1.087e+04 6.741e-10
 66.32910     57.1 1.128e+04 7.376e-10
 66.34876     53.4 1.232e+04 1.023e-09
 66.36841     51.0 1.302e+04 1.513e-09
 66.38807     49.4 1.331e+04 2.053e-09
 66.40773     48.6 1.343e+04 2.473e-09
 66.42739     48.0 1.362e+04 2.694e-09
 66.44705     47.6 1.371e+04 2.744e-09
 66.46671     47.1 1.368e+04 2.452e-09
 66.48637     46.4 1.347e+04 1.967e-09
 66.49774     45.4 1.293e+04 1.454e-09
 66.50757     42.8 1.144e+04 8.623e-10
 66.52569     41.8 1.068e+04 6.705e-10
 66.54535     41.1 1.013e+04 5.529e-10
 66.56501     40.6 9.855e+03 4.793e-10
 66.58467     40.1 9.798e+03 4.451e-10
 66.60433     39.8 9.885e+03 4.474e-10
 66.62398     39.4 1.003e+04 4.593e-10
 66.64364     39.0 1.018e+04 4.831e-10
 66.66330     38.5 1.036e+04 5.280e-10
 66.67939     37.6 1.072e+04 5.883e-10
 66.68922     32.5 1.220e+04 9.175e-10
 66.70262     31.1 1.244e+04 1.179e-09
 66.72228     30.4 1.224e+04 1.394e-09
 66.74194     30.0 1.192e+04 1.457e-09
 66.76160     29.5 1.175e+04 1.464e-09
 66.78126     28.8 1.190e+04 1.521e-09
 66.80092     27.1 1.266e+04 1.712e-09
 66.82058     24.9 1.382e+04 1.943e-09
 66.84024     22.7 1.388e+04 1.924e-09
 66.85990     20.6 1.332e+04 1.711e-09
 66.87086     17.3 1.298e+04 1.457e-09
 66.88069     13.3 1.326e+04 1.497e-09
 66.89921      8.3 1.360e+04 1.524e-09
 66.91887      4.6 1.259e+04 1.384e-09
 66.93853      2.8 1.149e+04 1.176e-09
 66.95819      2.6 1.114e+04 9.702e-10
 66.97785      1.7 1.151e+04 7.598e-10
 66.99751     -0.6 1.147e+04 5.302e-10
 67.01717     -4.0 1.068e+04 3.724e-10
 67.03683     -6.6 9.966e+03 3.226e-10
 67.05251     -7.5 9.684e+03 3.416e-10
 67.06234     -7.4 9.620e+03 3.330e-10
 67.07615     -7.5 9.669e+03 3.568e-10
 67.09581     -7.2 9.595e+03 4.218e-10
 67.11432     -6.8 9.881e+03 4.511e-10
 67.12415     -6.0 9.761e+03 4.380e-10
 67.13512     -5.8 1.006e+04 4.760e-10
 67.15478     -5.9 1.039e+04 5.163e-10
 67.17444     -6.0 1.056e+04 5.712e-10
 67.19410     -6.2 1.058e+04 5.918e-10
 67.21376     -6.4 1.060e+04 7.221e-10
 67.23342     -6.5 1.112e+04 8.588e-10
 67.24398     -6.8 1.168e+04 1.108e-09
 67.25381     -5.4 1.253e+04 1.536e-09
 67.27274     -5.9 1.306e+04 1.931e-09
 67.29240     -6.4 1.340e+04 2.467e-09
 67.31206     -6.7 1.356e+04 2.932e-09
 67.33172     -6.5 1.380e+04 3.424e-09
 67.35138     -6.4 1.393e+04 3.578e-09
 67.37104     -6.5 1.414e+04 3.594e-09
 67.39070     -6.9 1.479e+04 3.455e-09
 67.41035     -7.5 1.520e+04 3.274e-09
 67.42563     -7.8 1.519e+04 3.154e-09
 67.43546    -10.0 1.775e+04 5.361e-09
 67.44967    -10.4 1.689e+04 5.102e-09
 67.46933    -10.7 1.657e+04 5.040e-09
 67.48899    -11.0 1.652e+04 5.131e-09
 67.50865    -11.8 1.668e+04 5.492e-09
 67.52831    -12.4 1.675e+04 6.075e-09
 67.54797    -12.4 1.680e+04 6.784e-09
 67.55906    -11.8 1.669e+04 7.025e-09
 67.56889    -11.2 1.618e+04 5.192e-09
 67.58729    -10.6 1.614e+04 5.198e-09
 67.60695     -9.9 1.599e+04 4.668e-09
 67.61710     -9.4 1.545e+04 3.892e-09
 67.62693    -11.0 1.408e+04 3.365e-09
 67.64627    -11.2 1.329e+04 2.544e-09
 67.66592    -12.2 1.331e+04 2.268e-09
 67.68558    -15.8 1.488e+04 2.694e-09
 67.70524    -20.9 1.666e+04 4.476e-09
 67.72490    -23.1 1.679e+04 7.245e-09
 67.74456    -23.4 1.674e+04 9.967e-09
 67.76422    -22.6 1.666e+04 1.047e-08
 67.78388    -21.7 1.633e+04 7.329e-09
 67.79875    -23.4 1.672e+04 3.790e-09
 67.80858    -25.1 1.680e+04 3.672e-09
 67.82320    -36.1 1.490e+04 2.503e-09
 67.84286    -40.1 1.425e+04 2.727e-09
 67.86252    -41.0 1.493e+04 4.465e-09
 67.88218    -41.0 1.565e+04 6.563e-09
 67.90184    -40.9 1.643e+04 8.778e-09
 67.92149    -40.9 1.715e+04 1.066e-08
 67.94115    -41.6 1.771e+04 1.198e-08
 67.96081    -42.6 1.783e+04 1.246e-08
 67.98039    -43.3 1.744e+04 1.203e-08
 67.99389    -43.3 1.562e+04 5.843e-09
 68.00380    -42.4 1.552e+04 5.679e-09
 68.01979    -42.5 1.474e+04 4.230e-09
 68.03945    -42.4 1.386e+04 3.067e-09
 68.05911    -42.3 1.299e+04 2.115e-09
 68.07877    -42.1 1.209e+04 1.363e-09
 68.09843    -42.0 1.122e+04 8.439e-10
 68.11809    -42.1 1.038e+04 5.125e-10
 68.13775    -42.5 9.637e+03 3.284e-10
 68.16733    -41.8 9.236e+03 2.585e-10
 68.20675    -40.8 8.680e+03 1.909e-10
 68.24607    -39.3 8.464e+03 1.674e-10
 68.28539    -38.2 8.583e+03 1.714e-10
 68.32470    -37.6 9.054e+03 2.594e-10
 68.35371    -36.4 9.584e+03 4.175e-10
 68.37337    -36.1 9.467e+03 3.870e-10
 68.40334    -34.6 9.977e+03 5.671e-10
 68.44266    -33.1 1.042e+04 7.372e-10
 68.48198    -31.7 1.070e+04 8.252e-10
 68.52130    -30.5 1.080e+04 8.410e-10
 68.56062    -29.5 1.096e+04 8.565e-10
 68.59993    -29.3 1.164e+04 9.866e-10
 68.63925    -30.3 1.258e+04 1.608e-09
 68.66864    -29.5 1.303e+04 2.297e-09
 68.68821    -29.2 1.332e+04 2.842e-09
 68.70786    -27.4 1.383e+04 3.341e-09
 68.72663    -26.4 1.418e+04 3.510e-09
 68.73646    -26.3 1.325e+04 1.713e-09
 68.74718    -26.3 1.335e+04 1.562e-09
 68.76684    -26.9 1.317e+04 1.447e-09
 68.78650    -27.3 1.285e+04 1.417e-09
 68.80616    -27.2 1.261e+04 1.472e-09
 68.82582    -26.7 1.246e+04 1.581e-09
 68.84548    -26.2 1.252e+04 1.747e-09
 68.86379    -26.0 1.261e+04 1.895e-09
 68.87362    -26.5 1.256e+04 1.843e-09
 68.88480    -26.4 1.276e+04 1.997e-09
 68.90446    -26.3 1.311e+04 2.403e-09
 68.91811    -25.8 1.342e+04 2.926e-09
 68.92794    -26.3 1.373e+04 3.311e-09
 68.94378    -25.7 1.421e+04 4.396e-09
 68.96343    -24.4 1.474e+04 5.451e-09
 68.98309    -23.2 1.519e+04 5.977e-09
 69.00275    -22.2 1.562e+04 5.482e-09
 69.02241    -21.8 1.566e+04 4.155e-09
 69.04207    -22.6 1.493e+04 3.006e-09
 69.06173    -23.0 1.389e+04 2.340e-09
 69.08139    -22.5 1.340e+04 2.058e-09
 69.09975    -21.5 1.318e+04 1.891e-09
 69.10958    -20.7 1.382e+04 3.103e-09
 69.12071    -20.0 1.377e+04 2.956e-09
 69.14037    -19.4 1.396e+04 3.025e-09
 69.16003    -19.1 1.409e+04 3.130e-09
 69.17969    -18.9 1.431e+04 3.382e-09
 69.19935    -18.8 1.467e+04 3.908e-09
 69.21900    -18.4 1.486e+04 4.317e-09
 69.23866    -17.5 1.497e+04 4.571e-09
 69.25832    -16.9 1.488e+04 4.396e-09
 69.27798    -16.2 1.463e+04 3.952e-09
 69.29123    -15.6 1.443e+04 3.392e-09
 69.30106    -16.0 1.550e+04 3.701e-09
 69.30853    -15.9 1.523e+04 3.081e-09
 69.31836    -16.7 1.612e+04 4.417e-09
 69.33696    -16.6 1.570e+04 3.586e-09
 69.35662    -16.4 1.550e+04 3.071e-09
 69.37628    -16.4 1.521e+04 2.764e-09
 69.39594    -16.1 1.505e+04 2.652e-09
 69.41560    -15.8 1.501e+04 2.708e-09
 69.43526    -15.3 1.491e+04 2.842e-09
 69.45492    -14.5 1.479e+04 3.035e-09
 69.47287    -13.5 1.459e+04 3.155e-09
 69.48270    -13.9 1.441e+04 3.133e-09
 69.49423    -12.5 1.426e+04 2.993e-09
 69.51389    -11.4 1.423e+04 2.617e-09
 69.53355    -10.5 1.411e+04 2.171e-09
 69.55321    -10.0 1.394e+04 1.940e-09
 69.57287     -9.8 1.379e+04 1.828e-09
 69.59253     -9.3 1.374e+04 1.754e-09
 69.61219     -8.4 1.376e+04 1.788e-09
 69.63185     -7.8 1.393e+04 1.903e-09
 69.65151     -7.7 1.426e+04 2.063e-09
 69.66435     -8.6 1.527e+04 2.692e-09
 69.67418     -8.7 1.544e+04 2.678e-09
 69.69083    -10.4 1.665e+04 4.052e-09
 69.71049    -10.9 1.677e+04 6.289e-09
 69.73015     -9.0 1.612e+04 9.314e-09
 69.74345     -7.3 1.609e+04 9.488e-09
 69.75328     -7.1 1.673e+04 1.223e-08
 69.76946     -5.1 1.660e+04 8.735e-09
 69.78912     -4.8 1.613e+04 5.210e-09
 69.80878     -5.8 1.507e+04 3.084e-09
 69.82844     -6.8 1.373e+04 1.949e-09
 69.84599     -7.4 1.299e+04 1.460e-09
 69.85582     -7.1 1.322e+04 1.572e-09
 69.86776     -7.0 1.275e+04 1.393e-09
 69.88742     -5.9 1.229e+04 1.160e-09
 69.90708     -4.9 1.210e+04 1.086e-09
 69.92674     -3.7 1.192e+04 9.215e-10
 69.94640     -3.1 1.181e+04 8.237e-10
 69.96606     -2.3 1.175e+04 7.543e-10
 69.98572     -1.7 1.172e+04 7.533e-10
 70.00537     -0.9 1.163e+04 7.369e-10
 70.02503      0.1 1.160e+04 7.374e-10
 70.03747      1.1 1.152e+04 7.181e-10
 70.04730      1.3 1.151e+04 7.329e-10
 70.06435      2.3 1.147e+04 6.864e-10
 70.08401      3.2 1.146e+04 6.371e-10
 70.10367      3.6 1.154e+04 6.074e-10
 70.12333      3.9 1.155e+04 5.684e-10
 70.14299      3.9 1.168e+04 5.938e-10
 70.17258      3.7 1.208e+04 7.950e-10
 70.20948      3.0 1.285e+04 1.345e-09
 70.22914      2.7 1.266e+04 1.350e-09
 70.25131      3.2 1.304e+04 1.840e-09
 70.29063      4.0 1.292e+04 1.650e-09
 70.32995      4.9 1.241e+04 1.102e-09
 70.36927      5.7 1.179e+04 6.299e-10
 70.39866      5.9 1.141e+04 4.415e-10
 70.41059      5.7 1.135e+04 3.861e-10
 70.42042      5.8 1.134e+04 3.790e-10
 70.44781      6.9 1.108e+04 3.566e-10
 70.48722      8.3 1.112e+04 3.803e-10
 70.51661      9.1 1.119e+04 4.223e-10
 70.53617      9.5 1.127e+04 4.408e-10
 70.55583     10.4 1.122e+04 4.456e-10
 70.57549     11.1 1.130e+04 4.573e-10
 70.59223     11.9 1.131e+04 4.596e-10
 70.60206     11.9 1.133e+04 4.690e-10
 70.61327     12.5 1.139e+04 4.748e-10
 70.62310     12.5 1.145e+04 4.946e-10
 70.63447     12.9 1.158e+04 5.173e-10
 70.65413     13.4 1.173e+04 5.437e-10
 70.67379     13.1 1.215e+04 6.750e-10
 70.69345     13.4 1.219e+04 7.518e-10
 70.71311     13.7 1.238e+04 9.546e-10
 70.73277     14.4 1.255e+04 1.155e-09
 70.76235     15.7 1.262e+04 1.247e-09
 70.78380     17.3 1.249e+04 1.185e-09
 70.79354     17.0 1.246e+04 1.164e-09
 70.81140     17.8 1.239e+04 1.071e-09
 70.83106     19.1 1.220e+04 8.804e-10
 70.85072     20.1 1.208e+04 7.004e-10
 70.87038     21.6 1.175e+04 4.921e-10
 70.89004     21.8 1.166e+04 4.177e-10
 70.91963     24.1 1.138e+04 3.436e-10
 70.95572     26.6 1.099e+04 2.470e-10
 70.97538     26.1 1.101e+04 2.278e-10
 70.99836     28.9 1.085e+04 1.955e-10
 71.03768     31.5 1.075e+04 1.824e-10
 71.07700     34.2 1.074e+04 1.866e-10
 71.11632     36.8 1.080e+04 2.023e-10
 71.15564     39.3 1.090e+04 2.356e-10
 71.19495     41.8 1.098e+04 2.838e-10
 71.23427     44.2 1.111e+04 3.438e-10
 71.27359     46.7 1.122e+04 3.939e-10
 71.31291     49.2 1.131e+04 4.288e-10
 71.33867     51.4 1.131e+04 4.453e-10
 71.34840     50.2 1.147e+04 4.906e-10
 71.36186     51.1 1.144e+04 4.793e-10
 71.39145     52.4 1.147e+04 4.474e-10
 71.43087     54.4 1.149e+04 4.095e-10
 71.47018     56.5 1.143e+04 3.834e-10
 71.49311     58.5 1.133e+04 3.674e-10
 71.51277     59.3 1.129e+04 3.726e-10
 71.54882     61.2 1.118e+04 3.543e-10
 71.58814     63.2 1.109e+04 3.420e-10
 71.62746     65.1 1.101e+04 3.402e-10
 71.66678     67.2 1.100e+04 3.471e-10
 71.70196     69.0 1.100e+04 3.646e-10
 71.72162     68.7 1.104e+04 3.449e-10
 71.74541     70.1 1.104e+04 3.906e-10
 71.77480     71.3 1.098e+04 4.378e-10
 71.79437     72.5 1.104e+04 4.958e-10
 71.81402     73.4 1.116e+04 5.592e-10
 71.83368     74.2 1.129e+04 6.273e-10
 71.85334     74.8 1.146e+04 7.174e-10
 71.87300     75.4 1.168e+04 8.428e-10
 71.89266     75.9 1.195e+04 1.029e-09
 71.90307     76.3 1.217e+04 1.220e-09
 71.91290     76.1 1.217e+04 1.236e-09
 71.92783     76.8 1.233e+04 1.414e-09
 71.93766     77.3 1.223e+04 1.291e-09
 71.95164     77.7 1.233e+04 1.415e-09
 71.98123     79.0 1.245e+04 1.513e-09
 72.01072     79.7 1.231e+04 1.426e-09
 72.03028     80.2 1.221e+04 1.364e-09
 72.04994     80.9 1.207e+04 1.249e-09
 72.06960     81.4 1.195e+04 1.176e-09
 72.08471     82.4 1.172e+04 1.031e-09
 72.10447     82.2 1.140e+04 8.493e-10
 72.13860     83.7 1.113e+04 6.757e-10
 72.17792     85.1 1.096e+04 5.931e-10
 72.21723     86.0 1.087e+04 5.176e-10
 72.24663     86.9 1.107e+04 5.635e-10
 72.26619     87.4 1.124e+04 6.163e-10
 72.27619     87.7 1.135e+04 6.327e-10
 72.28602     86.3 1.185e+04 8.153e-10
 72.30551     86.0 1.205e+04 1.014e-09
 72.32517     86.1 1.218e+04 1.248e-09
 72.34482     86.6 1.232e+04 1.482e-09
 72.36274     87.2 1.249e+04 1.706e-09
 72.37257     87.6 1.283e+04 1.977e-09
 72.38414     88.2 1.292e+04 2.146e-09
 72.40380     88.7 1.300e+04 2.255e-09
 72.42346     89.1 1.305e+04 2.318e-09
 72.44312     89.5 1.308e+04 2.382e-09
 72.45783     90.1 1.295e+04 2.308e-09
 72.46766     89.3 1.240e+04 1.875e-09
 72.48244     90.0 1.200e+04 1.566e-09
 72.50210     90.9 1.155e+04 1.246e-09
 72.52176     91.7 1.110e+04 9.461e-10
 72.54142     92.3 1.064e+04 6.923e-10
 72.56108     92.8 1.021e+04 4.890e-10
 72.58074     92.9 9.801e+03 3.587e-10
 72.61032     93.3 9.349e+03 2.666e-10
 72.64974     95.0 9.058e+03 2.422e-10
 72.68906     97.0 9.089e+03 2.466e-10
 72.72838     98.7 9.240e+03 2.739e-10
 72.76769    100.1 9.485e+03 3.270e-10
 72.79708    100.0 9.589e+03 3.501e-10
 72.80748     99.8 9.724e+03 3.886e-10
 72.81731     99.5 9.807e+03 4.275e-10
 72.83095     99.1 1.004e+04 5.158e-10
 72.84078     97.7 1.033e+04 5.952e-10
 72.85596     97.1 1.078e+04 7.400e-10
 72.87562     96.3 1.127e+04 9.115e-10
 72.89528     95.5 1.171e+04 1.103e-09
 72.91494     94.8 1.202e+04 1.280e-09
 72.93460     94.2 1.219e+04 1.385e-09
 72.95426     93.7 1.219e+04 1.379e-09
 72.97392     93.2 1.213e+04 1.327e-09
 72.99358     92.6 1.201e+04 1.231e-09
 73.01260     91.8 1.193e+04 1.159e-09
 73.02243     90.6 1.209e+04 1.259e-09
 73.03290     89.8 1.208e+04 1.258e-09
 73.05256     89.2 1.210e+04 1.281e-09
 73.07222     88.9 1.216e+04 1.334e-09
 73.09188     88.9 1.220e+04 1.361e-09
 73.11154     88.9 1.217e+04 1.340e-09
 73.13119     89.1 1.207e+04 1.244e-09
 73.15085     89.2 1.186e+04 1.080e-09
 73.17051     89.1 1.157e+04 9.056e-10
 73.19017     88.8 1.128e+04 7.766e-10
 73.20407     88.6 1.114e+04 7.330e-10
 73.21390     87.8 1.112e+04 7.292e-10
 73.22949     87.7 1.113e+04 7.312e-10
 73.24239     87.7 1.119e+04 7.457e-10
 73.25222     87.4 1.112e+04 7.225e-10
 73.26881     87.6 1.126e+04 7.567e-10
 73.28847     87.9 1.149e+04 8.264e-10
 73.30813     88.4 1.169e+04 8.920e-10
 73.32779     89.0 1.182e+04 9.306e-10
 73.34745     89.7 1.188e+04 9.451e-10
 73.36711     90.5 1.192e+04 9.361e-10
 73.38572     91.4 1.193e+04 9.095e-10
 73.39555     90.5 1.183e+04 8.729e-10
 73.40642     91.3 1.181e+04 8.348e-10
 73.42608     92.2 1.183e+04 8.173e-10
 73.44574     93.1 1.187e+04 8.195e-10
 73.46540     94.1 1.194e+04 8.296e-10
 73.48506     95.1 1.204e+04 8.466e-10
 73.50472     96.1 1.212e+04 8.682e-10
 73.52438     97.2 1.220e+04 8.897e-10
 73.54404     98.5 1.228e+04 9.133e-10
 73.56370     99.8 1.236e+04 9.380e-10
 73.57719    101.1 1.244e+04 9.620e-10
 73.58702    100.5 1.220e+04 8.622e-10
 73.60302    102.0 1.227e+04 8.682e-10
 73.62268    103.4 1.240e+04 8.895e-10
 73.64233    104.8 1.256e+04 9.252e-10
 73.66199    106.3 1.273e+04 9.742e-10
 73.67730    107.8 1.293e+04 1.038e-09
 73.68713    106.8 1.286e+04 1.027e-09
 73.70131    108.3 1.297e+04 1.061e-09
 73.72097    109.7 1.308e+04 1.063e-09
 73.74063    111.0 1.310e+04 1.049e-09
 73.75884    112.4 1.310e+04 1.005e-09
 73.76867    111.6 1.280e+04 9.279e-10
 73.77995    112.9 1.278e+04 8.906e-10
 73.79961    114.1 1.274e+04 8.401e-10
 73.81927    115.3 1.269e+04 7.850e-10
 73.83893    116.5 1.266e+04 7.383e-10
 73.85859    117.7 1.268e+04 7.115e-10
 73.87825    118.9 1.271e+04 7.085e-10
 73.89790    120.1 1.279e+04 7.097e-10
 73.91756    121.3 1.294e+04 7.235e-10
 73.93722    122.4 1.314e+04 7.583e-10
 73.95031    123.5 1.337e+04 8.054e-10
 73.96014    123.1 1.327e+04 7.991e-10
 73.97654    124.3 1.347e+04 8.447e-10
 73.99620    125.4 1.369e+04 8.777e-10
 74.01586    126.6 1.388e+04 9.144e-10
 74.03552    127.8 1.412e+04 9.576e-10
 74.05518    129.4 1.438e+04 1.000e-09
 74.07484    131.3 1.462e+04 1.048e-09
 74.09450    133.6 1.483e+04 1.105e-09
 74.11221    136.2 1.509e+04 1.157e-09
 74.12204    132.9 1.501e+04 1.187e-09
 74.13196    135.1 1.515e+04 1.225e-09
 74.14179    137.6 1.497e+04 1.118e-09
 74.15347    140.6 1.514e+04 1.157e-09
 74.17313    143.2 1.723e+04 1.128e-09
 74.18783    145.0 1.822e+04 1.151e-09
 74.19761    145.2 1.877e+04 1.146e-09
 74.20744    140.3 3.183e+04 9.620e-10
 74.21479    111.4 9.695e+04 7.478e-10
 74.21968     91.3 1.250e+05 1.007e-09
 74.22459     53.0 9.850e+04 8.851e-09
 74.22817     27.9 5.878e+04 1.229e-07
 74.23062     44.4 9.241e+04 2.231e-08
 74.23246     41.2 6.388e+04 2.108e-07
 74.23492     38.2 6.855e+04 7.202e-08
 74.23934     39.0 5.757e+04 2.975e-07
 74.24425     44.9 4.594e+04 1.114e-06
 74.24917     46.8 3.331e+04 3.451e-06
 74.25408     42.4 3.258e+04 1.894e-06
 74.25900     33.3 3.739e+04 5.193e-07
 74.26391     35.2 7.300e+04 2.195e-08
 74.26883     31.2 1.053e+05 5.338e-09
 74.27622     15.3 3.540e+05 1.492e-10
 74.28608    -20.1 2.552e+05 3.485e-10
 74.29591    -37.3 5.897e+04 3.605e-08
 74.30574    -37.4 3.844e+04 2.369e-07
 74.31557    -29.9 8.005e+04 9.794e-09
 74.32333    -17.7 1.623e+05 6.104e-10
 74.32825    -12.9 8.332e+04 1.166e-08
 74.33449    -17.3 5.906e+04 1.685e-08
 74.33940    -26.7 8.372e+04 3.130e-09
 74.34505    -38.1 1.599e+05 3.864e-10
 74.35488    -37.8 2.207e+05 2.181e-10
 74.36968    -37.3 2.922e+05 9.259e-11
 74.38939   -107.1 5.262e+04 2.245e-10
 74.40905   -112.6 1.244e+04 4.971e-10
 74.42870   -104.1 1.143e+04 4.864e-10
 74.44836    -98.9 1.139e+04 4.592e-10
 74.46802    -94.0 1.126e+04 4.400e-10
 74.48768    -89.6 1.119e+04 4.330e-10
 74.50508    -85.6 1.118e+04 4.330e-10
 74.51491    -86.8 1.208e+04 5.975e-10
 74.52700    -83.2 1.205e+04 6.249e-10
 74.54666    -80.1 1.199e+04 6.637e-10
 74.55695    -77.2 1.198e+04 7.199e-10
 74.56678    -76.0 1.182e+04 5.476e-10
 74.58598    -73.8 1.201e+04 6.163e-10
 74.60564    -70.9 1.223e+04 7.356e-10
 74.62530    -68.6 1.254e+04 8.766e-10
 74.64496    -66.0 1.268e+04 1.058e-09
 74.66462    -64.2 1.267e+04 1.149e-09
 74.68427    -61.2 1.282e+04 1.391e-09
 74.69655    -59.7 1.312e+04 1.638e-09
 74.70638    -60.2 1.323e+04 1.822e-09
 74.72359    -58.1 1.380e+04 2.256e-09
 74.74325    -56.5 1.461e+04 2.901e-09
 74.76291    -55.1 1.550e+04 3.882e-09
 74.78257    -53.9 1.640e+04 5.266e-09
 74.80223    -53.1 1.728e+04 7.214e-09
 74.82189    -52.7 1.808e+04 1.008e-08
 74.84155    -52.4 1.874e+04 1.403e-08
 74.86121    -51.9 1.929e+04 1.830e-08
 74.87590    -51.2 1.849e+04 1.610e-08
 74.88301    -51.2 1.865e+04 1.754e-08
 74.88798    -51.7 1.752e+04 1.071e-08
 74.90053    -51.4 1.721e+04 1.083e-08
 74.92019    -50.7 1.667e+04 9.852e-09
 74.93984    -49.8 1.615e+04 7.727e-09
 74.95950    -49.3 1.611e+04 5.784e-09
 74.97916    -48.8 1.703e+04 4.761e-09
 74.99186    -48.7 1.833e+04 4.048e-09
 75.00169    -48.8 1.941e+04 4.842e-09
 75.01848    -50.3 2.049e+04 4.260e-09
 75.03814    -51.2 1.932e+04 3.929e-09
 75.05780    -51.2 1.785e+04 3.982e-09
 75.06967    -50.4 1.692e+04 4.152e-09
 75.07950    -48.0 1.608e+04 1.352e-09
 75.09712    -47.5 1.629e+04 1.526e-09
 75.11678    -46.6 1.654e+04 2.007e-09
 75.13644    -46.0 1.701e+04 2.846e-09
 75.15610    -45.3 1.720e+04 4.241e-09
 75.17576    -44.5 1.706e+04 6.476e-09
 75.19541    -43.7 1.700e+04 1.008e-08
 75.21507    -42.5 1.725e+04 1.513e-08
 75.23473    -40.9 1.758e+04 1.939e-08
 75.25132    -39.3 1.777e+04 2.054e-08
 75.26115    -39.5 1.859e+04 1.346e-08
 75.27405    -38.4 1.826e+04 1.463e-08
 75.29371    -36.8 1.759e+04 1.468e-08
 75.31337    -34.9 1.687e+04 1.289e-08
 75.33303    -33.0 1.613e+04 1.012e-08
 75.35269    -31.3 1.566e+04 8.006e-09
 75.37235    -29.6 1.565e+04 7.439e-09
 75.39201    -28.1 1.571e+04 7.130e-09
 75.41167    -26.6 1.551e+04 6.454e-09
 75.42678    -24.6 1.528e+04 5.660e-09
 75.43661    -24.6 1.600e+04 6.539e-09
 75.44279    -22.7 1.591e+04 5.694e-09
 75.45262    -22.5 1.585e+04 6.788e-09
 75.47064    -20.5 1.611e+04 6.634e-09
 75.49030    -19.1 1.638e+04 6.282e-09
 75.50996    -17.9 1.616e+04 5.659e-09
 75.52962    -16.8 1.608e+04 5.422e-09
 75.54928    -15.9 1.609e+04 5.339e-09
 75.56894    -14.9 1.581e+04 5.159e-09
 75.58860    -13.5 1.550e+04 4.955e-09
 75.60826    -11.9 1.509e+04 4.350e-09
 75.62444    -10.4 1.427e+04 3.463e-09
 75.63427     -9.9 1.519e+04 3.775e-09
 75.64758     -8.9 1.419e+04 2.862e-09
 75.66724     -8.2 1.303e+04 2.059e-09
 75.68690     -7.6 1.231e+04 1.538e-09
 75.70656     -7.0 1.190e+04 1.228e-09
 75.72621     -6.6 1.160e+04 1.024e-09
 75.74587     -6.2 1.144e+04 9.236e-10
 75.76553     -5.8 1.129e+04 8.922e-10
 75.78519     -5.0 1.111e+04 8.814e-10
 75.80485     -3.6 1.113e+04 8.973e-10
 75.81591     -2.1 1.124e+04 9.626e-10
 75.82574     -2.3 1.124e+04 9.965e-10
 75.84417     -0.8 1.154e+04 9.685e-10
 75.86169      0.7 1.192e+04 9.332e-10
 75.87152     -0.3 1.226e+04 1.217e-09
 75.88349      1.0 1.222e+04 1.237e-09
 75.90315      2.4 1.207e+04 1.136e-09
 75.92281      3.6 1.196e+04 1.086e-09
 75.94247      4.7 1.208e+04 1.099e-09
 75.96213      5.6 1.204e+04 1.116e-09
 75.98178      7.0 1.193e+04 1.139e-09
 75.99756      8.4 1.197e+04 1.202e-09
 76.00739      8.8 1.158e+04 9.307e-10
 76.02110     10.1 1.161e+04 9.801e-10
 76.04076     11.5 1.162e+04 1.021e-09
 76.07035     13.2 1.164e+04 1.133e-09
 76.10976     15.7 1.160e+04 1.173e-09
 76.14908     18.3 1.165e+04 1.193e-09
 76.17940     20.9 1.180e+04 1.243e-09
 76.19906     21.4 1.096e+04 7.932e-10
 76.22772     23.9 1.118e+04 9.270e-10
 76.26704     26.7 1.169e+04 1.161e-09
 76.29643     26.3 1.233e+04 1.480e-09
 76.30643     25.9 1.304e+04 1.976e-09
 76.31626     27.1 1.284e+04 1.773e-09
 76.33565     27.1 1.367e+04 2.429e-09
 76.35531     27.3 1.469e+04 3.481e-09
 76.37068     27.8 1.568e+04 4.883e-09
 76.38051     29.4 1.448e+04 4.104e-09
 76.39463     30.4 1.542e+04 5.570e-09
 76.41429     31.5 1.646e+04 7.124e-09
 76.43395     32.4 1.708e+04 8.077e-09
 76.45361     33.2 1.762e+04 8.260e-09
 76.47327     33.8 1.744e+04 7.311e-09
 76.49292     33.9 1.662e+04 5.751e-09
 76.51258     33.0 1.641e+04 4.874e-09
 76.53224     30.8 1.700e+04 5.101e-09
 76.55190     28.0 1.771e+04 5.918e-09
 76.56215     26.3 1.718e+04 7.030e-09
 76.57198     29.3 1.867e+04 7.292e-09
 76.59122     28.2 1.774e+04 9.068e-09
 76.60592     29.3 1.674e+04 8.050e-09
 76.61570     29.8 1.642e+04 7.500e-09
 76.62553     30.9 1.612e+04 6.128e-09
 76.63536     31.4 1.608e+04 5.622e-09
 76.64519     32.0 1.625e+04 3.990e-09
 76.65288     31.8 1.628e+04 3.488e-09
 76.65779     32.8 1.751e+04 5.482e-09
 76.66485     31.9 1.858e+04 3.782e-09
 76.67468     30.9 1.904e+04 2.649e-09
 76.68947     26.2 1.791e+04 1.028e-09
 76.70918     20.1 1.277e+04 5.740e-10
 76.72884     17.6 9.533e+03 4.403e-10
 76.74134     18.2 9.098e+03 3.562e-10
 76.74647     18.6 9.065e+03 3.416e-10
 76.75363     19.2 9.952e+03 5.671e-10
 76.76815     20.2 9.565e+03 4.372e-10
 76.78781     20.3 9.627e+03 3.535e-10
 76.80747     19.9 9.658e+03 3.057e-10
 76.82713     19.2 9.784e+03 3.172e-10
 76.84679     12.3 1.324e+04 5.967e-10
 76.86645      3.0 1.674e+04 2.425e-09
 76.88115      1.1 1.673e+04 5.828e-09
 76.89093      1.4 1.700e+04 7.284e-09
 76.90076      2.2 1.651e+04 9.723e-09
 76.91059      3.4 1.673e+04 1.048e-08
 76.92538      4.4 1.710e+04 1.143e-08
 76.94509      7.4 1.652e+04 4.721e-09
 76.96475      3.2 1.707e+04 1.268e-09
 76.98441     -8.6 1.093e+04 2.641e-10
 77.00407    -11.7 8.676e+03 1.907e-10
 77.02372    -11.4 8.716e+03 1.881e-10
 77.05331    -11.1 8.649e+03 1.805e-10
 77.09273    -11.1 8.658e+03 2.117e-10
 77.13205    -11.2 8.953e+03 3.447e-10
 77.17136     -9.9 9.441e+03 4.923e-10
 77.21068     -8.7 9.686e+03 5.401e-10
 77.25000     -8.3 9.532e+03 4.740e-10
 77.28893     -8.3 9.252e+03 3.961e-10
 77.30859     -7.9 9.248e+03 3.969e-10
 77.32864     -7.5 8.966e+03 3.544e-10
 77.36796     -6.3 8.721e+03 3.163e-10
 77.40728     -5.1 8.514e+03 2.736e-10
 77.44659     -3.7 8.296e+03 2.322e-10
 77.48591     -2.2 8.054e+03 1.906e-10
 77.52523     -0.6 7.838e+03 1.552e-10
 77.56455      1.0 7.688e+03 1.301e-10
 77.60153      2.5 7.619e+03 1.184e-10
 77.62118      2.8 7.492e+03 1.041e-10
 77.64319      4.4 7.554e+03 1.072e-10
 77.67188      5.6 7.749e+03 1.354e-10
 77.69154      5.7 7.783e+03 1.391e-10
 77.72182      6.9 8.283e+03 2.059e-10
 77.76114      7.5 9.203e+03 3.540e-10
 77.79053      7.1 9.636e+03 5.310e-10
 77.81009      7.4 1.008e+04 6.344e-10
 77.82975      8.3 1.034e+04 9.265e-10
 77.84941      9.7 1.074e+04 1.113e-09
 77.86316     10.5 1.101e+04 1.142e-09
 77.87299     10.5 1.102e+04 1.145e-09
 77.88873     11.1 1.090e+04 1.083e-09
 77.90839     11.5 1.072e+04 9.140e-10
 77.92805     11.6 1.050e+04 8.277e-10
 77.94771     11.6 1.029e+04 6.306e-10
 77.96737     11.6 1.020e+04 6.071e-10
 77.99695     11.3 9.959e+03 5.242e-10
 78.03517     12.4 9.775e+03 5.451e-10
 78.05483     11.3 9.761e+03 5.396e-10
 78.07569     12.9 9.804e+03 5.405e-10
 78.11501     14.7 9.755e+03 4.952e-10
 78.15433     16.0 9.718e+03 4.483e-10
 78.19364     16.8 9.838e+03 4.666e-10
 78.23296     17.3 1.031e+04 5.846e-10
 78.27228     17.4 1.092e+04 7.796e-10
 78.30167     16.6 1.109e+04 9.005e-10
 78.32123     16.5 1.118e+04 9.515e-10
 78.34089     16.3 1.154e+04 1.111e-09
 78.36055     16.6 1.162e+04 1.156e-09
 78.39014     17.3 1.212e+04 1.493e-09
 78.41812     18.4 1.153e+04 1.140e-09
 78.43778     17.1 1.043e+04 6.061e-10
 78.46887     17.1 9.526e+03 2.910e-10
 78.49101     16.0 8.924e+03 1.602e-10
 78.51067     17.9 8.863e+03 1.911e-10
 78.54751     17.9 8.824e+03 1.671e-10
 78.58683     17.5 9.056e+03 2.027e-10
 78.62615     17.6 9.482e+03 3.044e-10
 78.66547     18.1 1.008e+04 4.744e-10
 78.70479     18.0 1.089e+04 7.046e-10
 78.74410     16.8 1.218e+04 1.146e-09
 78.77349     14.7 1.264e+04 1.457e-09
 78.79104     14.5 1.256e+04 1.630e-09
 78.80087     14.6 1.253e+04 1.539e-09
 78.81272     13.6 1.308e+04 2.004e-09
 78.83237     13.9 1.342e+04 2.678e-09
 78.85203     14.5 1.384e+04 3.201e-09
 78.87169     13.9 1.491e+04 3.670e-09
 78.89135     10.7 1.715e+04 4.896e-09
 78.90605      8.1 1.846e+04 6.646e-09
 78.91583      6.4 1.900e+04 7.267e-09
 78.92562      3.0 1.976e+04 9.806e-09
 78.93545      0.5 2.067e+04 1.152e-08
 78.94532     -2.8 2.116e+04 1.345e-08
 78.95515     -4.6 2.135e+04 1.480e-08
 78.96498     -6.3 2.089e+04 1.445e-08
 78.97481     -8.3 1.994e+04 1.187e-08
 78.98247    -11.2 1.811e+04 8.602e-09
 78.99235    -15.6 1.906e+04 8.702e-09
 79.00931    -18.8 1.653e+04 5.431e-09
 79.02897    -20.9 1.565e+04 4.078e-09
 79.04863    -22.7 1.453e+04 3.181e-09
 79.06829    -24.5 1.361e+04 2.613e-09
 79.08795    -25.7 1.354e+04 2.496e-09
 79.10760    -29.3 1.485e+04 2.754e-09
 79.12726    -35.6 1.734e+04 4.449e-09
 79.14692    -40.3 1.804e+04 8.394e-09
 79.16416    -41.3 1.833e+04 1.416e-08
 79.17399    -39.8 1.773e+04 1.332e-08
 79.18624    -39.3 1.849e+04 2.006e-08
 79.20094    -39.3 1.925e+04 2.209e-08
 79.21072    -39.4 1.911e+04 2.170e-08
 79.22055    -39.2 1.933e+04 1.885e-08
 79.23038    -39.6 2.001e+04 1.456e-08
 79.24021    -42.0 1.995e+04 1.185e-08
 79.25004    -45.0 1.874e+04 9.291e-09
 79.25980    -47.5 1.749e+04 7.887e-09
 79.26472    -46.6 1.815e+04 8.900e-09
 79.26970    -48.4 1.735e+04 8.151e-09
 79.27953    -49.3 1.718e+04 8.013e-09
 79.28935    -49.8 1.714e+04 8.296e-09
 79.29918    -50.2 1.736e+04 8.971e-09
 79.30901    -50.3 1.772e+04 9.715e-09
 79.31884    -50.4 1.802e+04 1.040e-08
 79.32867    -50.6 1.819e+04 1.080e-08
 79.33850    -50.7 1.823e+04 1.091e-08
 79.34833    -50.7 1.824e+04 1.085e-08
 79.35554    -50.7 1.796e+04 1.039e-08
 79.36045    -50.5 1.901e+04 1.077e-08
 79.36545    -50.7 1.878e+04 1.026e-08
 79.37036    -50.6 2.045e+04 1.118e-08
 79.37782    -50.9 2.049e+04 1.073e-08
 79.38765    -51.1 2.070e+04 1.077e-08
 79.40244    -51.7 2.075e+04 1.064e-08
 79.42215    -53.0 2.070e+04 1.034e-08
 79.44181    -54.7 2.070e+04 1.059e-08
 79.46147    -56.3 2.144e+04 1.207e-08
 79.47617    -56.8 2.137e+04 1.134e-08
 79.48595    -57.2 2.172e+04 1.236e-08
 79.49578    -57.4 2.208e+04 1.244e-08
 79.50561    -57.5 2.241e+04 1.210e-08
 79.51544    -57.3 2.264e+04 1.034e-08
 79.52527    -56.7 2.236e+04 8.563e-09
 79.53510    -56.4 2.150e+04 6.294e-09
 79.54210    -56.5 2.017e+04 4.410e-09
 79.54701    -55.4 2.082e+04 7.448e-09
 79.55475    -55.7 2.053e+04 5.392e-09
 79.56458    -56.3 1.993e+04 3.860e-09
 79.57441    -56.8 1.875e+04 2.823e-09
 79.58291    -57.0 1.743e+04 2.276e-09
 79.58782    -56.9 1.899e+04 2.673e-09
 79.59407    -57.3 1.695e+04 1.925e-09
 79.60390    -57.4 1.584e+04 1.665e-09
 79.61870    -57.0 1.548e+04 1.424e-09
 79.63840    -57.3 1.355e+04 1.075e-09
 79.65806    -57.2 1.248e+04 8.545e-10
 79.67772    -56.8 1.171e+04 6.868e-10
 79.69738    -56.2 1.124e+04 5.906e-10
 79.71704    -55.5 1.097e+04 5.611e-10
 79.72876    -54.6 1.085e+04 5.607e-10
 79.73859    -53.9 1.130e+04 6.871e-10
 79.75636    -53.0 1.098e+04 6.707e-10
 79.77602    -51.9 1.088e+04 6.820e-10
 79.79554    -50.8 1.086e+04 6.870e-10
 79.80537    -51.0 1.106e+04 6.969e-10
 79.81534    -49.9 1.105e+04 7.002e-10
 79.83500    -49.1 1.099e+04 6.826e-10
 79.85466    -48.3 1.094e+04 6.427e-10
 79.87431    -47.6 1.083e+04 5.908e-10
 79.89397    -46.8 1.066e+04 5.290e-10
 79.91040    -46.0 1.042e+04 4.607e-10
 79.92023    -45.8 1.065e+04 5.293e-10
 79.93329    -45.0 1.041e+04 4.592e-10
 79.95295    -44.4 1.020e+04 4.056e-10
 79.97261    -43.8 1.003e+04 3.690e-10
 79.99227    -43.1 9.988e+03 3.572e-10
 80.01193    -42.8 9.987e+03 3.563e-10
 80.03159    -42.2 1.006e+04 3.690e-10
 80.05125    -42.0 1.016e+04 4.010e-10
 80.07091    -41.6 1.033e+04 4.686e-10
 80.09057    -41.1 1.046e+04 5.213e-10
 80.10188    -40.6 1.059e+04 5.601e-10
 80.11171    -40.7 1.088e+04 6.599e-10
 80.12988    -40.5 1.091e+04 6.673e-10
 80.14954    -40.5 1.087e+04 6.609e-10
 80.16920    -40.5 1.076e+04 6.519e-10
 80.18886    -40.7 1.071e+04 6.523e-10
 80.20852    -40.9 1.063e+04 6.864e-10
 80.22818    -41.1 1.078e+04 7.434e-10
 80.24028    -41.3 1.100e+04 8.099e-10
 80.25011    -41.6 1.106e+04 9.568e-10
 80.26750    -41.5 1.129e+04 1.053e-09
 80.28352    -41.3 1.146e+04 1.097e-09
 80.29335    -41.9 1.156e+04 1.155e-09
 80.30682    -41.8 1.166e+04 1.139e-09
 80.32648    -41.7 1.157e+04 9.813e-10
 80.34614    -41.9 1.142e+04 8.008e-10
 80.36580    -42.4 1.126e+04 6.535e-10
 80.38546    -43.1 1.123e+04 5.914e-10
 80.40511    -44.7 1.187e+04 6.235e-10
 80.42477    -48.0 1.400e+04 8.717e-10
 80.44443    -51.1 1.527e+04 1.552e-09
 80.46409    -52.5 1.531e+04 2.612e-09
 80.47500    -52.7 1.497e+04 3.686e-09
 80.48483    -53.1 1.529e+04 5.685e-09
 80.50341    -52.1 1.520e+04 5.960e-09
 80.52307    -51.1 1.473e+04 5.029e-09
 80.54273    -50.6 1.423e+04 3.736e-09
 80.56239    -50.7 1.372e+04 2.596e-09
 80.58205    -51.4 1.338e+04 1.785e-09
 80.60171    -52.6 1.256e+04 1.256e-09
 80.62137    -53.2 1.175e+04 9.880e-10
 80.64103    -53.3 1.135e+04 8.629e-10
 80.65664    -52.9 1.115e+04 7.851e-10
 80.66647    -53.1 1.122e+04 9.023e-10
 80.67519    -52.8 1.108e+04 8.173e-10
 80.68502    -53.3 1.082e+04 7.263e-10
 80.70000    -53.1 1.076e+04 6.800e-10
 80.71966    -53.0 1.074e+04 6.612e-10
 80.73932    -52.9 1.075e+04 6.585e-10
 80.75898    -52.9 1.083e+04 6.657e-10
 80.77864    -53.2 1.111e+04 7.208e-10
 80.79830    -54.6 1.177e+04 9.242e-10
 80.81796    -56.6 1.257e+04 1.351e-09
 80.83762    -58.3 1.337e+04 2.105e-09
 80.84812    -59.0 1.400e+04 3.161e-09
 80.85795    -58.2 1.391e+04 3.081e-09
 80.87694    -58.3 1.443e+04 4.071e-09
 80.89660    -58.4 1.460e+04 4.461e-09
 80.91625    -58.5 1.449e+04 4.414e-09
 80.93591    -58.1 1.379e+04 3.412e-09
 80.95557    -57.9 1.288e+04 2.250e-09
 80.97523    -58.5 1.203e+04 1.499e-09
 80.99489    -59.5 1.128e+04 1.069e-09
 81.01455    -59.7 1.071e+04 8.258e-10
 81.02976    -59.5 1.032e+04 6.782e-10
 81.03969    -58.5 1.055e+04 7.824e-10
 81.06389    -57.4 9.801e+03 5.461e-10
 81.10047    -56.0 9.574e+03 4.682e-10
 81.12013    -57.1 9.898e+03 6.098e-10
 81.14253    -56.3 1.002e+04 6.222e-10
 81.17192    -57.4 1.081e+04 8.704e-10
 81.19148    -57.9 1.190e+04 1.280e-09
 81.21114    -59.0 1.332e+04 2.103e-09
 81.22124    -60.0 1.483e+04 3.702e-09
 81.23107    -57.6 1.359e+04 2.220e-09
 81.25046    -58.6 1.498e+04 3.795e-09
 81.27012    -59.1 1.586e+04 5.937e-09
 81.28978    -59.4 1.617e+04 7.464e-09
 81.30944    -59.5 1.615e+04 7.861e-09
 81.32910    -59.3 1.600e+04 7.784e-09
 81.34876    -59.1 1.572e+04 6.287e-09
 81.36842    -59.7 1.541e+04 4.025e-09
 81.38808    -62.2 1.501e+04 2.289e-09
 81.40288    -66.0 1.405e+04 1.376e-09
 81.41271    -60.6 1.556e+04 3.196e-09
 81.42740    -64.2 1.478e+04 1.845e-09
 81.44705    -69.0 1.351e+04 1.427e-09
 81.46671    -73.2 1.316e+04 1.472e-09
 81.48637    -76.2 1.326e+04 1.862e-09
 81.50603    -78.2 1.386e+04 2.654e-09
 81.52569    -80.2 1.443e+04 3.247e-09
 81.54502    -82.6 1.464e+04 3.382e-09
 81.55485    -84.3 1.483e+04 3.681e-09
 81.56501    -87.9 1.473e+04 3.270e-09
 81.58453    -92.4 1.414e+04 2.612e-09
 81.59436    -89.7 1.533e+04 3.744e-09
 81.60433    -94.8 1.431e+04 2.712e-09
 81.62399    -99.5 1.301e+04 1.924e-09
 81.64365   -102.9 1.210e+04 1.405e-09
 81.66331   -105.1 1.138e+04 1.009e-09
 81.68297   -107.1 1.063e+04 6.772e-10
 81.70262   -108.9 9.879e+03 4.452e-10
 81.72228   -110.2 9.393e+03 3.220e-10
 81.74194   -110.6 9.299e+03 2.884e-10
 81.76627   -110.5 9.333e+03 2.802e-10
 81.78593   -111.2 9.297e+03 2.859e-10
 81.81085   -111.6 9.330e+03 2.999e-10
 81.85026   -111.7 9.389e+03 3.327e-10
 81.88958   -111.6 9.544e+03 3.891e-10
 81.91897   -111.2 9.634e+03 4.167e-10
 81.93854   -111.2 9.707e+03 4.493e-10
 81.95765   -111.3 9.828e+03 5.156e-10
 81.96748   -111.6 9.815e+03 5.112e-10
 81.97785   -111.8 9.881e+03 5.356e-10
 81.98976   -112.1 9.913e+03 5.529e-10
 81.99959   -111.8 9.801e+03 4.768e-10
 82.01717   -112.1 9.834e+03 4.584e-10
 82.04676   -112.3 9.806e+03 4.272e-10
 82.08618   -113.1 9.558e+03 3.439e-10
 82.12549   -113.6 9.295e+03 2.875e-10
 82.14932   -114.2 9.206e+03 2.703e-10
 82.16898   -114.5 9.107e+03 2.683e-10
 82.20413   -114.5 9.122e+03 2.675e-10
 82.24345   -114.4 9.230e+03 2.799e-10
 82.28277   -114.1 9.319e+03 2.954e-10
 82.32209   -113.5 9.364e+03 3.079e-10
 82.36140   -112.7 9.393e+03 3.152e-10
 82.40072   -111.8 9.446e+03 3.234e-10
 82.44004   -111.2 9.631e+03 3.466e-10
 82.46943   -110.5 9.897e+03 4.182e-10
 82.48899   -110.7 1.009e+04 4.844e-10
 82.50865   -110.8 1.052e+04 6.588e-10
 82.52224   -110.6 1.095e+04 8.517e-10
 82.53207   -110.2 1.092e+04 8.620e-10
 82.54797   -110.1 1.119e+04 9.853e-10
 82.56763   -110.0 1.132e+04 1.043e-09
 82.58729   -109.9 1.135e+04 1.053e-09
 82.60695   -109.8 1.129e+04 1.004e-09
 82.62661   -109.5 1.111e+04 8.763e-10
 82.64627   -109.2 1.086e+04 7.275e-10
 82.66593   -108.9 1.059e+04 5.825e-10
 82.68559   -108.5 1.035e+04 4.607e-10
 82.70389   -108.2 1.018e+04 3.845e-10
 82.71372   -108.0 1.014e+04 3.707e-10
 82.72491   -107.9 1.012e+04 3.605e-10
 82.75449   -107.8 1.004e+04 3.290e-10
 82.79391   -106.4 9.806e+03 2.676e-10
 82.83323   -104.8 9.717e+03 2.293e-10
 82.85977   -103.1 9.663e+03 2.061e-10
 82.87943   -103.0 9.249e+03 1.409e-10
 82.89556   -101.3 9.198e+03 1.248e-10
 82.91522   -100.6 9.214e+03 1.313e-10
 82.95118    -98.8 9.183e+03 1.162e-10
 82.99050    -97.0 9.189e+03 1.081e-10
 83.02982    -95.2 9.200e+03 1.062e-10
 83.06914    -93.5 9.237e+03 1.063e-10
 83.10846    -92.1 9.503e+03 1.133e-10
 83.14777    -91.2 9.848e+03 1.602e-10
 83.18709    -90.3 1.022e+04 2.761e-10
 83.22641    -89.1 1.073e+04 4.698e-10
 83.25580    -88.4 1.107e+04 6.143e-10
 83.26848    -88.4 1.133e+04 7.162e-10
 83.27831    -87.9 1.164e+04 8.598e-10
 83.30495    -87.7 1.211e+04 1.095e-09
 83.33444    -88.2 1.233e+04 1.190e-09
 83.35400    -88.8 1.247e+04 1.278e-09
 83.37366    -89.9 1.262e+04 1.452e-09
 83.39332    -90.7 1.262e+04 1.514e-09
 83.41298    -91.4 1.253e+04 1.526e-09
 83.43264    -91.9 1.227e+04 1.406e-09
 83.45013    -92.3 1.196e+04 1.141e-09
 83.45996    -92.2 1.181e+04 9.791e-10
 83.47196    -92.8 1.145e+04 7.230e-10
 83.49162    -93.5 1.109e+04 5.259e-10
 83.51127    -94.3 1.071e+04 3.992e-10
 83.53093    -94.9 1.037e+04 3.367e-10
 83.55059    -95.1 1.023e+04 3.226e-10
 83.58018    -95.2 1.024e+04 3.345e-10
 83.61960    -95.0 1.022e+04 3.539e-10
 83.64180    -94.7 1.021e+04 3.916e-10
 83.66146    -94.4 1.015e+04 3.899e-10
 83.69823    -93.7 1.010e+04 3.970e-10
 83.72960    -92.9 1.006e+04 3.845e-10
 83.74925    -93.3 1.004e+04 3.986e-10
 83.77687    -92.6 9.970e+03 3.878e-10
 83.81619    -91.9 9.862e+03 3.585e-10
 83.85551    -91.4 9.762e+03 3.294e-10
 83.89483    -91.0 9.706e+03 3.187e-10
 83.93414    -90.7 9.688e+03 3.192e-10
 83.97346    -90.5 9.753e+03 3.490e-10
 84.00509    -90.2 9.838e+03 3.898e-10
 84.02475    -89.0 9.849e+03 3.903e-10
 84.05210    -88.7 9.934e+03 4.283e-10
 84.09142    -88.4 9.947e+03 4.420e-10
 84.13074    -88.0 9.913e+03 4.406e-10
 84.17005    -87.4 9.801e+03 4.075e-10
 84.20937    -86.8 9.699e+03 3.672e-10
 84.24869    -86.3 9.668e+03 3.445e-10
 84.28801    -85.8 9.688e+03 3.396e-10
 84.32733    -85.4 9.837e+03 3.559e-10
 84.36665    -85.1 9.998e+03 3.864e-10
 84.38804    -84.9 1.008e+04 3.981e-10
 84.40770    -83.4 1.004e+04 3.876e-10
 84.44528    -83.2 1.007e+04 3.562e-10
 84.48460    -83.0 9.982e+03 2.984e-10
 84.52392    -82.7 9.768e+03 2.215e-10
 84.56324    -82.4 9.659e+03 1.667e-10
 84.59942    -82.1 9.688e+03 1.517e-10
 84.61908    -83.0 1.037e+04 3.318e-10
 84.64188    -85.1 1.130e+04 3.622e-10
 84.68120    -88.3 1.271e+04 8.270e-10
 84.71059    -88.7 1.309e+04 1.367e-09
 84.73015    -89.5 1.333e+04 1.789e-09
 84.74981    -89.8 1.365e+04 2.382e-09
 84.76096    -90.3 1.384e+04 2.636e-09
 84.77089    -88.3 1.333e+04 1.997e-09
 84.78922    -89.5 1.367e+04 2.456e-09
 84.80878    -90.2 1.354e+04 2.345e-09
 84.82844    -90.8 1.322e+04 2.062e-09
 84.84810    -91.4 1.285e+04 1.816e-09
 84.87769    -92.0 1.247e+04 1.576e-09
 84.91711    -92.6 1.218e+04 1.451e-09
 84.94271    -93.9 1.209e+04 1.419e-09
 84.95244    -92.6 1.225e+04 1.551e-09
 84.96606    -93.5 1.223e+04 1.528e-09
 84.98572    -94.8 1.259e+04 1.584e-09
 85.00538    -96.6 1.320e+04 1.946e-09
 85.02504    -98.3 1.372e+04 2.513e-09
 85.04396    -99.7 1.421e+04 3.212e-09
 85.05379    -99.4 1.360e+04 2.457e-09
 85.06436   -100.9 1.419e+04 3.180e-09
 85.08401   -103.0 1.500e+04 3.860e-09
 85.10367   -105.9 1.607e+04 4.579e-09
 85.12333   -109.7 1.713e+04 5.660e-09
 85.13408   -113.2 1.772e+04 7.314e-09
 85.14391   -111.1 1.790e+04 8.453e-09
 85.16265   -113.9 1.801e+04 9.836e-09
 85.18231   -116.0 1.797e+04 1.014e-08
 85.20197   -117.4 1.739e+04 9.679e-09
 85.22163   -118.4 1.666e+04 7.273e-09
 85.24129   -119.6 1.587e+04 4.935e-09
 85.26095   -121.2 1.518e+04 3.519e-09
 85.28061   -122.7 1.486e+04 3.011e-09
 85.30027   -123.6 1.480e+04 2.927e-09
 85.31573   -124.0 1.494e+04 2.996e-09
 85.32556   -123.4 1.328e+04 1.538e-09
 85.33958   -123.5 1.373e+04 1.762e-09
 85.35924   -123.5 1.419e+04 2.081e-09
 85.37890   -123.5 1.459e+04 2.441e-09
 85.39856   -123.5 1.498e+04 2.838e-09
 85.41822   -123.7 1.545e+04 3.292e-09
 85.43788   -124.4 1.602e+04 3.881e-09
 85.45754   -125.6 1.660e+04 4.659e-09
 85.47720   -127.0 1.701e+04 5.641e-09
 85.48870   -128.5 1.723e+04 6.623e-09
 85.49853   -129.1 1.736e+04 6.957e-09
 85.50720   -130.4 1.770e+04 8.276e-09
 85.51703   -128.6 1.778e+04 7.910e-09
 85.53618   -129.9 1.828e+04 9.783e-09
 85.55584   -130.9 1.851e+04 1.156e-08
 85.57550   -132.0 1.840e+04 1.197e-08
 85.59515   -133.1 1.798e+04 1.087e-08
 85.61481   -134.3 1.727e+04 8.425e-09
 85.63447   -135.4 1.629e+04 5.974e-09
 85.65413   -136.5 1.515e+04 4.120e-09
 85.67379   -137.3 1.406e+04 2.901e-09
 85.68885   -137.8 1.316e+04 2.116e-09
 85.69868   -136.3 1.411e+04 2.942e-09
 85.71311   -136.7 1.320e+04 2.053e-09
 85.73277   -137.0 1.243e+04 1.461e-09
 85.75243   -136.9 1.177e+04 1.055e-09
 85.77209   -136.8 1.118e+04 7.664e-10
 85.79175   -136.4 1.065e+04 5.634e-10
 85.81141   -135.9 1.022e+04 4.253e-10
 85.83107   -135.2 9.977e+03 3.458e-10
 85.86065   -134.4 9.966e+03 3.083e-10
 85.90007   -132.4 1.001e+04 3.102e-10
 85.93939   -131.3 1.005e+04 3.009e-10
 85.97871   -130.3 1.006e+04 2.931e-10
 86.01802   -129.7 1.006e+04 2.890e-10
 86.05734   -129.1 1.012e+04 2.887e-10
 86.09666   -128.6 1.028e+04 3.063e-10
 86.13598   -128.0 1.043e+04 3.404e-10
 86.17530   -127.6 1.049e+04 3.689e-10
 86.20469   -126.9 1.048e+04 3.651e-10
 86.22425   -126.7 1.048e+04 3.644e-10
 86.24371   -126.5 1.053e+04 3.604e-10
 86.25354   -126.2 1.045e+04 3.602e-10
 86.26357   -125.9 1.046e+04 3.497e-10
 86.29316   -125.6 1.053e+04 3.355e-10
 86.33257   -124.9 1.059e+04 3.287e-10
 86.35872   -123.8 1.063e+04 3.417e-10
 86.37838   -123.3 1.029e+04 2.541e-10
 86.41121   -121.9 1.027e+04 2.503e-10
 86.45053   -120.4 1.025e+04 2.514e-10
 86.48985   -118.6 1.021e+04 2.518e-10
 86.52916   -116.6 1.020e+04 2.524e-10
 86.56848   -114.5 1.024e+04 2.563e-10
 86.60710   -112.4 1.033e+04 2.649e-10
 86.62676   -112.1 1.051e+04 3.037e-10
 86.64712   -110.1 1.060e+04 3.192e-10
 86.68644   -108.1 1.064e+04 3.289e-10
 86.72576   -106.2 1.066e+04 3.359e-10
 86.76508   -104.2 1.067e+04 3.431e-10
 86.80439   -102.2 1.069e+04 3.561e-10
 86.83378   -101.0 1.070e+04 3.798e-10
 86.85335   -100.8 1.071e+04 4.115e-10
 86.87301   -100.1 1.087e+04 4.778e-10
 86.89266    -99.7 1.114e+04 5.723e-10
 86.91232    -99.4 1.146e+04 7.079e-10
 86.93198    -99.1 1.178e+04 8.839e-10
 86.95164    -98.8 1.208e+04 1.099e-09
 86.97130    -98.4 1.233e+04 1.316e-09
 86.98985    -97.9 1.250e+04 1.477e-09
 86.99968    -97.8 1.257e+04 1.537e-09
 87.01062    -97.3 1.259e+04 1.567e-09
 87.03028    -96.7 1.248e+04 1.484e-09
 87.04994    -96.1 1.229e+04 1.277e-09
 87.06960    -95.5 1.207e+04 1.053e-09
 87.08926    -95.1 1.191e+04 8.936e-10
 87.10892    -94.9 1.186e+04 8.259e-10
 87.12858    -94.8 1.186e+04 8.151e-10
 87.14823    -94.8 1.191e+04 8.647e-10
 87.16789    -94.8 1.216e+04 1.087e-09
 87.18133    -94.4 1.245e+04 1.412e-09
 87.19116    -94.3 1.232e+04 1.429e-09
 87.20721    -93.9 1.253e+04 1.659e-09
 87.22687    -93.6 1.260e+04 1.731e-09
 87.23818    -93.4 1.257e+04 1.707e-09
 87.24801    -93.3 1.303e+04 2.109e-09
 87.26619    -93.0 1.285e+04 1.863e-09
 87.28585    -92.7 1.246e+04 1.337e-09
 87.30551    -92.6 1.198e+04 8.608e-10
 87.32517    -92.9 1.152e+04 5.403e-10
 87.34483    -93.4 1.108e+04 3.605e-10
 87.36297    -93.7 1.064e+04 2.846e-10
 87.37280    -93.5 1.056e+04 2.844e-10
 87.39407    -93.1 1.040e+04 2.562e-10
 87.43349    -91.7 9.935e+03 2.060e-10
 87.47281    -89.5 9.565e+03 1.727e-10
 87.51213    -87.0 9.451e+03 1.611e-10
 87.55144    -84.4 9.435e+03 1.599e-10
 87.59076    -82.0 9.467e+03 1.703e-10
 87.63008    -79.7 9.527e+03 1.835e-10
 87.66940    -77.5 9.603e+03 1.975e-10
 87.70872    -75.4 9.709e+03 2.209e-10
 87.73629    -73.4 9.870e+03 2.588e-10
 87.75595    -73.0 1.014e+04 3.080e-10
 87.78736    -71.5 1.028e+04 3.699e-10
 87.81675    -69.9 1.031e+04 4.018e-10
 87.83631    -69.8 1.035e+04 4.304e-10
 87.85597    -69.1 1.049e+04 5.198e-10
 87.87563    -68.8 1.059e+04 6.083e-10
 87.89529    -68.1 1.074e+04 7.234e-10
 87.91495    -67.4 1.089e+04 8.067e-10
 87.92757    -66.8 1.109e+04 8.734e-10
 87.93740    -66.8 1.121e+04 9.312e-10
 87.95426    -66.7 1.138e+04 9.179e-10
 87.97392    -66.9 1.149e+04 9.098e-10
 87.99358    -67.2 1.151e+04 9.045e-10
 88.02317    -67.1 1.154e+04 9.685e-10
 88.06259    -66.8 1.162e+04 1.077e-09
 88.09836    -66.3 1.167e+04 1.111e-09
 88.11560    -66.1 1.186e+04 1.250e-09
 88.11904    -66.6 1.186e+04 1.228e-09
 88.13120    -66.7 1.184e+04 1.170e-09
 88.15086    -67.1 1.188e+04 1.146e-09
 88.17052    -68.2 1.208e+04 1.179e-09
 88.19017    -69.4 1.246e+04 1.394e-09
 88.20983    -70.4 1.284e+04 1.822e-09
 88.22949    -70.6 1.317e+04 2.418e-09
 88.24915    -70.7 1.350e+04 2.998e-09
 88.26881    -71.0 1.400e+04 3.413e-09
 88.28847    -72.8 1.495e+04 3.763e-09
 88.30069    -76.8 1.635e+04 4.267e-09
 88.31052    -80.3 1.625e+04 4.201e-09
 88.32779    -85.0 1.647e+04 4.587e-09
 88.34745    -89.1 1.595e+04 4.755e-09
 88.36711    -92.7 1.501e+04 3.984e-09
 88.38677    -96.8 1.388e+04 2.535e-09
 88.40643   -101.1 1.302e+04 1.510e-09
 88.42609   -104.5 1.210e+04 1.125e-09
 88.44575   -106.5 1.155e+04 9.871e-10
 88.46540   -107.1 1.134e+04 9.118e-10
 88.48233   -107.0 1.125e+04 8.536e-10
 88.49216   -107.2 1.126e+04 8.584e-10
 88.50472   -106.6 1.120e+04 8.001e-10
 88.52438   -106.1 1.117e+04 7.401e-10
 88.54291   -105.7 1.116e+04 6.837e-10
 88.55274   -106.2 1.117e+04 6.716e-10
 88.56370   -105.9 1.117e+04 6.443e-10
 88.58336   -105.5 1.118e+04 6.388e-10
 88.60302   -105.2 1.122e+04 6.459e-10
 88.62268   -104.8 1.128e+04 6.785e-10
 88.64234   -104.3 1.135e+04 7.233e-10
 88.66200   -103.7 1.144e+04 7.731e-10
 88.67381   -103.1 1.153e+04 8.286e-10
 88.68364   -103.9 1.187e+04 1.061e-09
 88.70132   -103.2 1.202e+04 1.177e-09
 88.72097   -102.4 1.215e+04 1.281e-09
 88.74063   -101.6 1.226e+04 1.363e-09
 88.76029   -100.8 1.234e+04 1.419e-09
 88.77995   -100.0 1.241e+04 1.451e-09
 88.79961    -99.3 1.244e+04 1.460e-09
 88.81927    -98.5 1.243e+04 1.445e-09
 88.83893    -97.6 1.239e+04 1.350e-09
 88.85545    -96.8 1.227e+04 1.196e-09
 88.86528    -97.0 1.313e+04 1.932e-09
 88.87825    -96.3 1.308e+04 1.789e-09
 88.89791    -95.5 1.302e+04 1.616e-09
 88.91757    -94.9 1.299e+04 1.448e-09
 88.93723    -94.5 1.299e+04 1.317e-09
 88.95689    -94.2 1.301e+04 1.247e-09
 88.97654    -94.0 1.307e+04 1.227e-09
 88.98765    -93.9 1.310e+04 1.252e-09
 88.99748    -94.2 1.328e+04 1.464e-09
 89.01586    -94.2 1.379e+04 1.655e-09
 89.03552    -94.1 1.431e+04 1.915e-09
 89.04693    -94.2 1.393e+04 1.754e-09
 89.05676    -95.3 1.551e+04 3.503e-09
 89.07484    -95.8 1.541e+04 3.518e-09
 89.09450    -95.6 1.488e+04 3.163e-09
 89.11416    -94.4 1.444e+04 2.772e-09
 89.13382    -93.6 1.382e+04 2.264e-09
 89.15348    -93.1 1.341e+04 1.926e-09
 89.17314    -92.8 1.312e+04 1.724e-09
 89.19280    -92.3 1.292e+04 1.622e-09
 89.21246    -91.4 1.284e+04 1.577e-09
 89.22857    -90.4 1.281e+04 1.546e-09
 89.23840    -90.6 1.337e+04 2.013e-09
 89.25177    -89.8 1.315e+04 1.737e-09
 89.28136    -89.1 1.271e+04 1.417e-09
 89.32078    -86.5 1.210e+04 1.070e-09
 89.36010    -83.9 1.151e+04 8.106e-10
 89.39941    -81.5 1.122e+04 6.905e-10
 89.43873    -79.2 1.113e+04 6.625e-10
 89.47805    -77.1 1.110e+04 6.663e-10
 89.51737    -75.2 1.133e+04 7.452e-10
 89.55669    -73.5 1.158e+04 8.374e-10
 89.58608    -72.3 1.164e+04 9.222e-10
 89.60169    -72.0 1.171e+04 9.757e-10
 89.61162    -72.6 1.228e+04 1.375e-09
 89.62540    -71.3 1.209e+04 1.284e-09
 89.64496    -71.0 1.223e+04 1.406e-09
 89.67455    -70.3 1.252e+04 1.667e-09
 89.71396    -69.1 1.257e+04 1.727e-09
 89.75328    -68.0 1.253e+04 1.660e-09
 89.79260    -67.2 1.253e+04 1.566e-09
 89.83192    -66.6 1.254e+04 1.468e-09
 89.85767    -65.9 1.243e+04 1.298e-09
 89.87733    -65.2 1.260e+04 1.394e-09
 89.91055    -64.6 1.245e+04 1.234e-09
 89.94987    -63.8 1.224e+04 1.076e-09
 89.97501    -62.6 1.216e+04 9.755e-10
 89.98474    -62.9 1.186e+04 8.170e-10
 89.99883    -62.8 1.183e+04 7.905e-10
 90.01848    -62.0 1.165e+04 6.790e-10
 90.03814    -61.5 1.144e+04 5.962e-10
 90.05780    -61.1 1.119e+04 5.442e-10
 90.07746    -60.6 1.104e+04 5.301e-10
 90.09712    -60.1 1.101e+04 5.286e-10
 90.11678    -59.5 1.102e+04 5.393e-10
 90.13644    -58.9 1.110e+04 5.771e-10
 90.15610    -58.4 1.121e+04 6.293e-10
 90.16629    -57.9 1.134e+04 6.929e-10
 90.17612    -57.9 1.133e+04 6.956e-10
 90.19542    -57.4 1.147e+04 7.737e-10
 90.21508    -56.8 1.162e+04 8.708e-10
 90.23474    -56.2 1.181e+04 9.813e-10
 90.25440    -55.7 1.201e+04 1.091e-09
 90.27405    -55.3 1.218e+04 1.189e-09
 90.29238    -54.9 1.230e+04 1.261e-09
 90.30221    -55.2 1.230e+04 1.345e-09
 90.31337    -54.7 1.238e+04 1.374e-09
 90.33303    -54.4 1.241e+04 1.384e-09
 90.34793    -54.3 1.238e+04 1.385e-09
 90.35776    -54.4 1.236e+04 1.404e-09
 90.37235    -54.0 1.228e+04 1.355e-09
 90.39201    -53.6 1.213e+04 1.279e-09
 90.41167    -53.3 1.196e+04 1.190e-09
 90.43133    -53.0 1.181e+04 1.099e-09
 90.45099    -52.8 1.170e+04 1.043e-09
 90.47065    -52.4 1.161e+04 1.025e-09
 90.49031    -51.9 1.154e+04 1.029e-09
 90.50997    -51.2 1.152e+04 1.034e-09
 90.52958    -50.6 1.156e+04 1.027e-09
 90.54924    -50.4 1.181e+04 1.105e-09
 90.57887    -50.1 1.180e+04 9.896e-10
 90.61829    -50.0 1.179e+04 9.534e-10
 90.65761    -50.5 1.200e+04 1.071e-09
 90.68700    -51.5 1.216e+04 1.257e-09
 90.70656    -51.8 1.224e+04 1.333e-09
 90.72105    -52.4 1.234e+04 1.442e-09
 90.73088    -52.2 1.204e+04 1.213e-09
 90.73712    -52.5 1.204e+04 1.218e-09
 90.74705    -52.7 1.178e+04 1.095e-09
 90.77556    -53.2 1.169e+04 1.083e-09
 90.81488    -53.5 1.127e+04 8.785e-10
 90.84427    -53.9 1.119e+04 8.043e-10
 90.86383    -54.0 1.110e+04 7.438e-10
 90.88349    -54.1 1.096e+04 6.644e-10
 90.90270    -54.1 1.082e+04 6.209e-10
 90.91253    -53.9 1.075e+04 5.803e-10
 90.92281    -53.8 1.066e+04 5.615e-10
 90.94247    -53.4 1.058e+04 5.475e-10
 90.96213    -52.9 1.053e+04 5.357e-10
 90.98179    -52.3 1.046e+04 5.173e-10
 91.00145    -51.6 1.042e+04 5.021e-10
 91.02111    -50.8 1.040e+04 4.928e-10
 91.04077    -50.3 1.038e+04 4.843e-10
 91.06042    -49.6 1.033e+04 4.766e-10
 91.08008    -48.9 1.031e+04 4.733e-10
 91.09417    -48.3 1.032e+04 4.759e-10
 91.10400    -48.1 1.035e+04 4.889e-10
 91.11940    -47.5 1.040e+04 5.117e-10
 91.13906    -46.8 1.044e+04 5.336e-10
 91.15872    -46.1 1.049e+04 5.558e-10
 91.17203    -45.4 1.054e+04 5.757e-10
 91.18186    -45.0 1.036e+04 5.164e-10
 91.19804    -44.3 1.041e+04 5.294e-10
 91.21770    -43.6 1.045e+04 5.387e-10
 91.23736    -42.9 1.047e+04 5.445e-10
 91.25702    -42.2 1.049e+04 5.485e-10
 91.27582    -41.4 1.049e+04 5.496e-10
 91.28565    -41.2 1.057e+04 5.969e-10
 91.29634    -40.4 1.056e+04 5.929e-10
 91.31599    -39.6 1.054e+04 5.793e-10
 91.33565    -38.7 1.050e+04 5.548e-10
 91.35531    -37.8 1.043e+04 5.191e-10
 91.37497    -36.8 1.033e+04 4.707e-10
 91.39463    -35.8 1.021e+04 4.122e-10
 91.41429    -34.8 1.015e+04 3.667e-10
 91.44388    -33.5 1.019e+04 3.329e-10
 91.46749    -31.7 1.021e+04 3.085e-10
 91.48715    -31.6 1.011e+04 2.958e-10
 91.51268    -30.8 1.023e+04 2.900e-10
 91.53225    -30.8 1.053e+04 3.473e-10
 91.55191    -30.6 1.074e+04 4.457e-10
 91.57156    -30.1 1.097e+04 5.774e-10
 91.59122    -29.4 1.123e+04 7.347e-10
 91.60694    -28.6 1.145e+04 8.900e-10
 91.61677    -29.4 1.127e+04 8.069e-10
 91.63054    -28.6 1.137e+04 8.485e-10
 91.64894    -27.9 1.141e+04 8.547e-10
 91.65877    -28.0 1.157e+04 9.220e-10
 91.66986    -27.5 1.161e+04 9.081e-10
 91.68952    -27.1 1.157e+04 8.451e-10
 91.70918    -26.8 1.147e+04 7.748e-10
 91.72884    -26.5 1.141e+04 7.158e-10
 91.74850    -26.5 1.139e+04 6.758e-10
 91.76816    -26.5 1.139e+04 6.649e-10
 91.78782    -26.7 1.167e+04 6.747e-10
 91.80748    -28.4 1.237e+04 8.316e-10
 91.82713    -30.9 1.303e+04 1.205e-09
 91.84041    -32.7 1.364e+04 1.915e-09
 91.85024    -33.4 1.400e+04 2.479e-09
 91.86645    -33.7 1.466e+04 3.924e-09
 91.88611    -33.5 1.535e+04 5.511e-09
 91.90577    -33.2 1.597e+04 6.605e-09
 91.92543    -33.3 1.629e+04 6.948e-09
 91.94509    -34.6 1.636e+04 6.204e-09
 91.96475    -36.5 1.637e+04 5.688e-09
 91.98441    -38.2 1.637e+04 5.583e-09
 91.99910    -39.2 1.642e+04 5.710e-09
 92.00889    -39.6 1.659e+04 6.015e-09
 92.01871    -40.2 1.677e+04 6.380e-09
 92.02688    -40.7 1.699e+04 6.752e-09
 92.03179    -41.4 1.703e+04 6.865e-09
 92.03837    -41.8 1.700e+04 7.064e-09
 92.04667    -42.0 1.690e+04 7.135e-09
 92.05159    -41.5 1.657e+04 6.066e-09
 92.05803    -42.0 1.643e+04 5.964e-09
 92.06786    -42.2 1.625e+04 5.913e-09
 92.08266    -42.5 1.585e+04 5.351e-09
 92.10236    -42.5 1.551e+04 5.035e-09
 92.12202    -42.5 1.513e+04 4.548e-09
 92.14168    -42.2 1.474e+04 3.983e-09
 92.16134    -41.6 1.451e+04 3.555e-09
 92.18100    -41.0 1.445e+04 3.403e-09
 92.20066    -40.9 1.468e+04 3.431e-09
 92.21353    -44.2 1.842e+04 4.213e-09
 92.22336    -44.9 1.585e+04 2.760e-09
 92.23998    -50.9 2.184e+04 6.997e-09
 92.25467    -54.5 2.543e+04 2.190e-08
 92.26413    -56.2 2.660e+04 2.368e-08
 92.26904    -56.3 2.693e+04 2.033e-08
 92.27429    -59.7 2.817e+04 1.644e-08
 92.28411    -66.7 2.776e+04 1.930e-08
 92.29394    -73.0 2.637e+04 2.715e-08
 92.30377    -73.9 2.466e+04 4.185e-08
 92.30917    -73.8 2.192e+04 2.920e-08
 92.31409    -72.0 2.173e+04 1.971e-08
 92.32343    -72.5 2.031e+04 1.615e-08
 92.33823    -73.7 1.855e+04 8.504e-09
 92.35793    -73.2 1.535e+04 3.391e-09
 92.37759    -73.0 1.224e+04 1.400e-09
 92.39518    -73.1 1.097e+04 7.643e-10
 92.40501    -73.1 1.046e+04 5.922e-10
 92.41691    -72.9 1.008e+04 4.406e-10
 92.43657    -71.8 9.777e+03 3.653e-10
 92.46616    -70.6 9.677e+03 3.358e-10
 92.48679    -68.1 9.549e+03 3.387e-10
 92.49652    -68.0 9.881e+03 4.148e-10
 92.51521    -66.9 9.845e+03 4.088e-10
 92.53487    -66.1 9.898e+03 4.109e-10
 92.55453    -65.3 9.864e+03 4.395e-10
 92.57419    -64.4 9.911e+03 4.901e-10
 92.58665    -63.6 1.005e+04 5.577e-10
 92.59658    -64.1 1.012e+04 5.616e-10
 92.62353    -62.9 1.013e+04 6.009e-10
 92.66285    -62.0 1.011e+04 6.167e-10
 92.70217    -61.3 1.012e+04 6.415e-10
 92.74149    -60.6 1.015e+04 6.534e-10
 92.78080    -59.7 1.021e+04 6.683e-10
 92.82012    -58.7 1.035e+04 7.068e-10
 92.84951    -58.0 1.040e+04 7.352e-10
 92.86907    -57.6 1.040e+04 7.660e-10
 92.88873    -56.9 1.041e+04 7.900e-10
 92.90839    -56.2 1.041e+04 7.995e-10
 92.92151    -55.5 1.042e+04 7.999e-10
 92.93134    -55.5 1.044e+04 8.153e-10
 92.94771    -54.9 1.038e+04 7.928e-10
 92.95987    -53.7 1.030e+04 7.467e-10
 92.97963    -53.5 1.042e+04 7.915e-10
 93.01671    -51.9 1.032e+04 7.180e-10
 93.05603    -50.3 1.023e+04 6.509e-10
 93.09535    -48.7 1.015e+04 5.998e-10
 93.13467    -47.2 1.009e+04 5.652e-10
 93.17399    -45.7 1.002e+04 5.396e-10
 93.21331    -44.1 1.000e+04 5.343e-10
 93.25263    -42.6 1.016e+04 5.796e-10
 93.28202    -41.6 1.044e+04 6.946e-10
 93.30158    -41.1 1.062e+04 7.929e-10
 93.32124    -40.2 1.090e+04 9.271e-10
 93.33289    -39.7 1.113e+04 1.045e-09
 93.34272    -39.6 1.121e+04 1.084e-09
 93.35642    -39.1 1.137e+04 1.161e-09
 93.36625    -39.6 1.140e+04 1.174e-09
 93.38022    -39.2 1.143e+04 1.192e-09
 93.39987    -38.8 1.142e+04 1.191e-09
 93.41953    -38.3 1.135e+04 1.140e-09
 93.43919    -37.8 1.123e+04 1.033e-09
 93.45885    -37.2 1.100e+04 8.745e-10
 93.48844    -36.4 1.074e+04 6.938e-10
 93.52785    -34.9 1.012e+04 4.216e-10
 93.56717    -33.1 9.699e+03 2.823e-10
 93.60649    -31.1 9.428e+03 2.036e-10
 93.64581    -28.8 9.275e+03 1.587e-10
 93.68513    -26.5 9.165e+03 1.277e-10
 93.70621    -24.1 9.113e+03 1.103e-10
 93.72587    -23.9 9.102e+03 1.107e-10
 93.76377    -21.5 9.089e+03 1.019e-10
 93.80308    -19.1 9.088e+03 9.910e-11
 93.84240    -16.7 9.121e+03 9.967e-11
 93.88172    -14.4 9.202e+03 1.043e-10
 93.92104    -12.2 9.279e+03 1.137e-10
 93.96036    -10.1 9.345e+03 1.286e-10
 93.99968     -7.8 9.418e+03 1.490e-10
 94.03900     -5.4 9.485e+03 1.674e-10
 94.06950     -2.9 9.502e+03 1.734e-10
 94.08916     -2.8 9.565e+03 1.882e-10
 94.11763     -0.3 9.555e+03 1.712e-10
 94.15695      2.1 9.576e+03 1.354e-10
 94.19627      4.2 9.615e+03 1.117e-10
 94.22643      6.1 9.637e+03 1.066e-10
 94.24609      6.4 9.638e+03 1.065e-10
 94.27491      8.3 9.777e+03 1.187e-10
 94.31422     10.3 9.891e+03 1.735e-10
 94.35354     12.8 1.038e+04 2.730e-10
 94.38293     14.9 1.075e+04 3.582e-10
 94.40250     14.9 1.087e+04 3.786e-10
 94.42216     16.3 1.102e+04 5.713e-10
 94.44181     17.0 1.142e+04 6.388e-10
 94.45225     17.7 1.185e+04 9.036e-10
 94.46208     17.2 1.219e+04 1.142e-09
 94.48113     17.7 1.268e+04 1.566e-09
 94.50079     18.2 1.329e+04 2.161e-09
 94.52045     19.1 1.361e+04 2.876e-09
 94.54011     20.1 1.399e+04 3.485e-09
 94.55977     21.1 1.434e+04 3.975e-09
 94.57943     22.0 1.462e+04 4.254e-09
 94.59909     22.6 1.496e+04 4.383e-09
 94.61875     22.7 1.541e+04 4.753e-09
 94.63390     21.3 1.695e+04 6.246e-09
 94.64373     20.0 1.703e+04 6.480e-09
 94.65807     16.6 1.941e+04 1.146e-08
 94.67093     14.4 2.047e+04 2.926e-08
 94.67580     14.0 2.075e+04 4.075e-08
 94.68254     14.4 2.082e+04 7.389e-08
 94.69237     15.9 2.062e+04 1.091e-07
 94.70220     16.9 2.029e+04 1.086e-07
 94.71203     18.9 1.988e+04 6.981e-08
 94.72186     20.3 1.974e+04 4.119e-08
 94.73665     18.5 1.977e+04 1.417e-08
 94.75636     15.4 1.796e+04 5.818e-09
 94.77602     11.9 1.475e+04 3.087e-09
 94.79568     11.4 1.359e+04 2.480e-09
 94.81534     12.4 1.302e+04 2.229e-09
 94.82537     13.6 1.276e+04 2.107e-09
 94.83520     14.0 1.290e+04 2.272e-09
 94.86459     15.7 1.263e+04 1.972e-09
 94.90400     18.1 1.196e+04 1.509e-09
 94.94332     20.5 1.122e+04 8.835e-10
 94.98264     22.2 1.057e+04 5.300e-10
 95.02196     24.0 1.004e+04 3.786e-10
 95.06128     26.2 9.664e+03 3.163e-10
 95.09626     28.8 9.479e+03 2.860e-10
 95.11591     28.2 9.266e+03 2.512e-10
 95.13991     30.7 9.138e+03 2.330e-10
 95.17903     33.4 9.102e+03 2.300e-10
 95.19869     33.2 9.110e+03 2.398e-10
 95.21855     35.7 9.105e+03 2.336e-10
 95.25787     38.3 9.131e+03 2.277e-10
 95.29719     40.7 9.140e+03 2.191e-10
 95.33651     43.1 9.144e+03 2.069e-10
 95.37582     45.4 9.135e+03 1.928e-10
 95.41514     47.7 9.125e+03 1.781e-10
 95.45446     50.0 9.109e+03 1.671e-10
 95.49378     52.3 9.152e+03 1.626e-10
 95.53310     54.6 9.190e+03 1.666e-10
 95.56198     56.9 9.301e+03 1.769e-10
 95.58164     56.9 9.309e+03 1.896e-10
 95.61173     59.1 9.474e+03 2.191e-10
 95.65105     61.2 9.667e+03 2.688e-10
 95.69037     63.2 9.869e+03 3.393e-10
 95.72969     65.2 1.006e+04 4.111e-10
 95.76901     67.2 1.025e+04 4.396e-10
 95.80833     69.1 1.035e+04 4.184e-10
 95.84765     70.9 1.044e+04 3.684e-10
 95.88696     72.4 1.048e+04 3.180e-10
 95.92527     73.8 1.044e+04 3.102e-10
 95.94493     73.7 1.045e+04 3.153e-10
 95.96560     75.0 1.046e+04 3.227e-10
 95.98574     76.4 1.041e+04 3.336e-10
 96.00540     75.7 1.013e+04 2.387e-10
 96.04424     77.3 1.010e+04 2.555e-10
 96.08356     79.0 1.014e+04 2.961e-10
 96.12287     80.9 1.027e+04 3.588e-10
 96.16219     82.8 1.039e+04 4.185e-10
 96.20151     84.7 1.042e+04 4.445e-10
 96.24083     86.5 1.044e+04 4.352e-10
 96.28015     88.4 1.037e+04 4.030e-10
 96.30822     90.4 1.024e+04 3.465e-10
 96.32788     90.5 1.026e+04 3.734e-10
 96.35879     92.5 1.014e+04 3.271e-10
 96.39810     94.5 1.009e+04 3.076e-10
 96.43742     96.6 1.010e+04 3.104e-10
 96.47674     98.5 1.018e+04 3.256e-10
 96.51606    100.2 1.028e+04 3.511e-10
 96.55538    101.8 1.034e+04 3.745e-10
 96.59470    103.6 1.034e+04 3.796e-10
 96.63402    105.3 1.031e+04 3.731e-10
 96.67151    107.1 1.023e+04 3.496e-10
 96.69117    106.4 1.026e+04 3.705e-10
 96.71265    107.9 1.012e+04 3.191e-10
 96.75197    109.3 9.966e+03 2.780e-10
 96.79129    110.7 9.835e+03 2.443e-10
 96.83061    112.2 9.714e+03 2.137e-10
 96.85556    113.9 9.587e+03 1.847e-10
 96.87522    113.5 9.523e+03 1.733e-10
 96.90924    115.4 9.402e+03 1.468e-10
 96.94856    117.2 9.306e+03 1.245e-10
 96.98788    119.1 9.229e+03 1.099e-10
 97.02720    121.2 9.189e+03 1.066e-10
 97.05446    123.3 9.191e+03 1.069e-10
 97.07412    122.8 9.183e+03 1.078e-10
 97.10584    125.0 9.196e+03 1.099e-10
 97.14516    127.2 9.223e+03 1.143e-10
 97.18447    129.6 9.257e+03 1.203e-10
 97.22379    131.9 9.299e+03 1.281e-10
 97.26311    134.3 9.363e+03 1.395e-10
 97.30243    136.7 9.472e+03 1.570e-10
 97.34175    138.9 9.640e+03 1.826e-10
 97.38107    141.0 9.867e+03 2.166e-10
 97.41775    142.8 1.012e+04 2.573e-10
 97.43741    141.2 1.032e+04 3.093e-10
 97.45970    142.6 1.048e+04 3.509e-10
 97.49902    143.8 1.059e+04 3.881e-10
 97.53834    145.0 1.061e+04 4.112e-10
 97.56773    146.3 1.058e+04 4.135e-10
 97.58729    147.2 1.063e+04 4.367e-10
 97.60695    148.0 1.081e+04 4.937e-10
 97.61886    148.7 1.106e+04 5.597e-10
 97.62869    147.9 1.128e+04 6.385e-10
 97.64627    148.2 1.153e+04 7.140e-10
 97.66593    148.3 1.172e+04 7.616e-10
 97.68559    148.2 1.177e+04 7.639e-10
 97.70525    148.2 1.175e+04 7.546e-10
 97.72491    148.2 1.167e+04 7.144e-10
 97.73501    148.4 1.152e+04 6.363e-10
 97.74484    148.7 1.154e+04 6.275e-10
 97.76423    148.6 1.139e+04 5.162e-10
 97.78389    148.2 1.129e+04 4.289e-10
 97.80060    148.6 1.114e+04 3.860e-10
 97.82036    146.2 1.088e+04 3.523e-10
 97.85289    146.1 1.073e+04 3.547e-10
 97.89221    146.1 1.063e+04 3.750e-10
 97.93153    146.3 1.056e+04 3.856e-10
 97.97084    146.6 1.051e+04 3.653e-10
 98.01016    146.7 1.037e+04 2.936e-10
 98.03955    146.3 1.022e+04 2.305e-10
 98.05912    146.0 1.014e+04 2.001e-10
 98.07877    145.8 1.013e+04 1.898e-10
 98.09843    145.5 1.021e+04 1.938e-10
 98.11809    144.9 1.056e+04 2.193e-10
 98.13775    144.4 1.114e+04 2.815e-10
 98.15741    143.6 1.188e+04 3.975e-10
 98.16992    142.4 1.291e+04 6.616e-10
 98.17631    141.1 1.432e+04 1.193e-09
 98.18345    137.2 1.733e+04 4.271e-09
 98.19673    136.3 1.827e+04 8.336e-09
 98.21639    136.2 1.888e+04 1.364e-08
 98.23605    136.5 1.930e+04 1.791e-08
 98.25571    136.5 1.974e+04 1.883e-08
 98.27537    136.8 1.981e+04 1.636e-08
 98.29503    136.9 1.928e+04 1.271e-08
 98.31469    137.0 1.867e+04 9.261e-09
 98.33434    137.0 1.818e+04 5.940e-09
 98.35400    136.8 1.765e+04 3.408e-09
 98.36510    136.5 1.714e+04 1.869e-09
 98.37493    133.0 1.716e+04 7.751e-10
 98.39332    132.2 1.543e+04 5.461e-10
 98.41298    132.0 1.366e+04 4.745e-10
 98.43264    132.4 1.295e+04 4.187e-10
 98.45230    133.1 1.276e+04 3.712e-10
 98.47196    133.8 1.253e+04 3.456e-10
 98.49162    134.5 1.231e+04 3.363e-10
 98.51128    135.2 1.208e+04 3.392e-10
 98.53094    135.9 1.194e+04 3.458e-10
 98.54674    136.5 1.176e+04 3.629e-10
 98.55657    135.8 1.162e+04 4.697e-10
 98.57026    136.6 1.158e+04 4.909e-10
 98.58991    137.4 1.156e+04 5.087e-10
 98.60484    138.2 1.152e+04 5.181e-10
 98.61467    138.0 1.160e+04 5.858e-10
 98.62923    138.8 1.155e+04 5.519e-10
 98.64889    139.6 1.150e+04 5.190e-10
 98.66855    140.1 1.146e+04 5.001e-10
 98.68821    140.6 1.146e+04 5.005e-10
 98.70787    141.0 1.147e+04 5.079e-10
 98.72753    141.3 1.148e+04 5.341e-10
 98.73822    141.5 1.155e+04 5.853e-10
 98.74805    141.1 1.150e+04 5.913e-10
 98.76685    141.3 1.162e+04 6.664e-10
 98.78651    141.5 1.179e+04 7.713e-10
 98.80617    141.6 1.195e+04 8.982e-10
 98.82583    141.6 1.211e+04 1.025e-09
 98.84548    141.5 1.226e+04 1.115e-09
 98.86514    141.3 1.234e+04 1.123e-09
 98.88480    140.8 1.232e+04 1.109e-09
 98.90446    140.2 1.224e+04 1.048e-09
 98.91986    139.7 1.206e+04 9.210e-10
 98.92969    139.7 1.207e+04 9.478e-10
 98.94378    139.1 1.187e+04 8.170e-10
 98.96344    138.5 1.164e+04 6.703e-10
 98.98310    137.8 1.145e+04 5.348e-10
 99.00276    136.9 1.151e+04 4.713e-10
 99.02242    135.9 1.155e+04 4.725e-10
 99.03975    134.6 1.169e+04 4.981e-10
 99.04958    134.7 1.197e+04 6.261e-10
 99.06174    132.8 1.234e+04 7.865e-10
 99.08140    131.0 1.268e+04 1.140e-09
 99.10106    129.5 1.307e+04 1.676e-09
 99.11134    128.2 1.353e+04 2.242e-09
 99.12117    129.3 1.391e+04 2.708e-09
 99.14037    128.0 1.446e+04 3.210e-09
 99.16003    126.3 1.456e+04 3.183e-09
 99.17969    124.2 1.458e+04 2.856e-09
 99.19935    121.5 1.425e+04 2.020e-09
 99.21901    117.9 1.352e+04 1.197e-09
 99.23867    113.7 1.247e+04 7.378e-10
 99.25833    110.0 1.176e+04 6.639e-10
 99.27799    107.7 1.170e+04 6.642e-10
 99.29298    106.2 1.169e+04 6.927e-10
 99.30281    105.6 1.189e+04 7.660e-10
 99.31731    104.3 1.202e+04 8.665e-10
 99.33697    103.2 1.228e+04 1.024e-09
 99.35663    102.1 1.259e+04 1.212e-09
 99.37628    100.8 1.299e+04 1.468e-09
 99.39594     98.9 1.362e+04 1.894e-09
 99.41560     96.3 1.447e+04 2.683e-09
 99.43526     93.8 1.525e+04 3.959e-09
 99.45492     91.7 1.566e+04 5.097e-09
 99.47458     89.8 1.562e+04 5.131e-09
 99.49424     87.8 1.427e+04 3.201e-09
 99.51390     86.0 1.345e+04 2.225e-09
 99.53356     84.2 1.263e+04 1.574e-09
 99.55322     82.5 1.200e+04 1.220e-09
 99.58280     80.2 1.169e+04 1.111e-09
 99.62222     79.0 1.132e+04 1.020e-09
 99.65647     79.0 1.116e+04 9.694e-10
 99.67613     79.4 1.097e+04 8.772e-10
 99.70086     79.5 1.070e+04 7.767e-10
 99.74018     80.0 1.032e+04 6.209e-10
 99.77949     80.5 9.934e+03 4.908e-10
 99.81881     81.0 9.715e+03 4.403e-10
 99.85813     81.6 9.687e+03 4.406e-10
 99.89745     82.1 9.673e+03 4.532e-10
 99.93677     82.6 9.684e+03 4.830e-10
 99.97609     83.1 9.676e+03 4.996e-10
100.01541     83.5 9.615e+03 4.861e-10
