# Columns:
#   distance along LOS (in CHIMPs)
#   peculiar velocity  (in km/s)
#   temperature (K)
#   HI number density
# pos=(120.506,180.327,156.057), angles=(1.49292,4.6505)
  0.00621     76.7 9.740e+03 2.399e-10
  0.01452     78.7 1.003e+04 2.680e-10
  0.03415     77.2 1.010e+04 2.679e-10
  0.07131     78.5 1.022e+04 3.028e-10
  0.11057     79.3 1.024e+04 3.624e-10
  0.13349     79.6 1.017e+04 4.083e-10
  0.14320     80.1 1.018e+04 4.191e-10
  0.15944     80.8 1.017e+04 4.767e-10
  0.17907     81.5 1.021e+04 5.262e-10
  0.19870     82.1 1.025e+04 5.431e-10
  0.21833     82.5 1.024e+04 5.476e-10
  0.23796     82.7 1.022e+04 5.410e-10
  0.25759     82.7 1.020e+04 5.338e-10
  0.27721     82.5 1.021e+04 5.351e-10
  0.29684     82.2 1.024e+04 5.461e-10
  0.31647     81.8 1.033e+04 5.763e-10
  0.32973     81.3 1.048e+04 6.297e-10
  0.33954     81.0 1.074e+04 6.893e-10
  0.35573     80.1 1.116e+04 8.521e-10
  0.37535     79.4 1.156e+04 1.008e-09
  0.38649     78.7 1.164e+04 1.034e-09
  0.39631     79.6 1.152e+04 1.002e-09
  0.41461     79.0 1.146e+04 9.631e-10
  0.43424     78.5 1.125e+04 8.519e-10
  0.45387     78.2 1.098e+04 7.181e-10
  0.47350     77.8 1.074e+04 5.990e-10
  0.49312     77.4 1.057e+04 5.083e-10
  0.51275     77.3 1.048e+04 4.504e-10
  0.53238     77.3 1.052e+04 4.313e-10
  0.55201     77.4 1.051e+04 4.302e-10
  0.57164     77.8 1.055e+04 4.329e-10
  0.59127     78.0 1.070e+04 4.479e-10
  0.61089     77.7 1.111e+04 5.001e-10
  0.62978     74.5 1.332e+04 8.672e-10
  0.63959     77.5 1.244e+04 7.067e-10
  0.64514     69.8 1.688e+04 2.714e-09
  0.65495     70.4 1.604e+04 2.047e-09
  0.66978     65.1 1.783e+04 7.053e-09
  0.68445     63.5 1.764e+04 9.061e-09
  0.69422     63.1 1.754e+04 9.099e-09
  0.70899     63.4 1.717e+04 7.703e-09
  0.72866     62.9 1.639e+04 3.676e-09
  0.74829     58.7 1.652e+04 9.140e-10
  0.76792     48.8 1.363e+04 2.442e-10
  0.78755     44.8 1.113e+04 2.023e-10
  0.80718     44.8 1.104e+04 1.995e-10
  0.82680     44.8 1.103e+04 2.003e-10
  0.85634     44.9 1.092e+04 2.132e-10
  0.88308     45.2 1.074e+04 2.299e-10
  0.90271     45.5 1.102e+04 3.044e-10
  0.93495     46.1 1.087e+04 2.972e-10
  0.97421     46.6 1.065e+04 2.592e-10
  1.01347     47.0 1.048e+04 2.166e-10
  1.05272     47.1 1.054e+04 2.129e-10
  1.09198     46.5 1.093e+04 2.503e-10
  1.12132     45.6 1.111e+04 2.967e-10
  1.13599     45.0 1.119e+04 3.505e-10
  1.14580     44.9 1.137e+04 4.175e-10
  1.16048     44.6 1.148e+04 5.740e-10
  1.18011     44.2 1.187e+04 7.439e-10
  1.19974     43.2 1.240e+04 9.414e-10
  1.21937     42.1 1.266e+04 1.150e-09
  1.23900     41.0 1.278e+04 1.342e-09
  1.25862     39.1 1.329e+04 1.613e-09
  1.27595     35.6 1.435e+04 2.258e-09
  1.28576     35.6 1.417e+04 1.730e-09
  1.29788     33.1 1.396e+04 2.637e-09
  1.31751     33.2 1.357e+04 3.290e-09
  1.33714     33.8 1.330e+04 2.997e-09
  1.35677     34.9 1.239e+04 1.555e-09
  1.37639     34.2 1.220e+04 1.316e-09
  1.38919     34.1 1.132e+04 6.467e-10
  1.40891     32.5 1.140e+04 5.532e-10
  1.44529     30.5 1.018e+04 2.273e-10
  1.48454     30.4 9.416e+03 1.492e-10
  1.52380     31.7 9.120e+03 1.162e-10
  1.56306     33.2 9.028e+03 9.863e-11
  1.60231     34.7 8.987e+03 8.547e-11
  1.64157     36.0 8.918e+03 7.930e-11
  1.68083     37.4 8.920e+03 8.061e-11
  1.72008     38.4 8.973e+03 8.983e-11
  1.75934     39.6 9.014e+03 1.115e-10
  1.79860     41.0 9.085e+03 1.360e-10
  1.83785     42.6 9.120e+03 1.544e-10
  1.87586     44.1 9.159e+03 1.624e-10
  1.89549     44.1 9.142e+03 1.387e-10
  1.90695     45.5 9.184e+03 1.347e-10
  1.92658     44.9 9.238e+03 1.405e-10
  1.95562     46.1 9.301e+03 1.465e-10
  1.99488     47.1 9.443e+03 1.787e-10
  2.03413     48.5 9.611e+03 2.456e-10
  2.07339     50.2 9.787e+03 3.109e-10
  2.11265     51.7 9.844e+03 3.148e-10
  2.15190     53.1 9.820e+03 2.931e-10
  2.19116     54.4 9.728e+03 2.478e-10
  2.23042     55.3 9.597e+03 2.144e-10
  2.26967     56.3 9.542e+03 2.136e-10
  2.30893     57.2 9.555e+03 2.317e-10
  2.34818     58.2 9.693e+03 2.825e-10
  2.38206     59.1 9.903e+03 3.660e-10
  2.40169     59.0 9.970e+03 3.831e-10
  2.42670     59.9 1.036e+04 5.413e-10
  2.46595     60.6 1.060e+04 6.327e-10
  2.50521     60.5 1.071e+04 6.482e-10
  2.53776     60.0 1.081e+04 6.179e-10
  2.55739     59.9 1.048e+04 4.959e-10
  2.58372     59.0 1.041e+04 4.641e-10
  2.62298     58.3 1.034e+04 4.727e-10
  2.66224     58.0 1.053e+04 5.336e-10
  2.70149     57.8 1.082e+04 5.738e-10
  2.73084     56.8 1.115e+04 6.747e-10
  2.75037     56.4 1.129e+04 8.027e-10
  2.77000     56.4 1.141e+04 9.464e-10
  2.78962     56.5 1.150e+04 1.086e-09
  2.80925     56.7 1.164e+04 1.215e-09
  2.82888     56.8 1.184e+04 1.308e-09
  2.84851     56.9 1.192e+04 1.350e-09
  2.86279     57.0 1.199e+04 1.350e-09
  2.87260     58.0 1.195e+04 1.396e-09
  2.88777     57.9 1.207e+04 1.419e-09
  2.89789     57.6 1.220e+04 1.458e-09
  2.90770     56.4 1.209e+04 1.390e-09
  2.92702     55.8 1.208e+04 1.454e-09
  2.94665     55.3 1.204e+04 1.505e-09
  2.96628     54.2 1.227e+04 1.641e-09
  2.98591     50.1 1.371e+04 2.306e-09
  3.00553     44.0 1.596e+04 4.615e-09
  3.02516     40.4 1.675e+04 7.884e-09
  3.04479     38.0 1.709e+04 9.080e-09
  3.06442     34.9 1.722e+04 8.684e-09
  3.08405     31.3 1.646e+04 6.424e-09
  3.10368     28.0 1.471e+04 4.402e-09
  3.12330     26.3 1.344e+04 3.135e-09
  3.14118     26.0 1.282e+04 2.387e-09
  3.15099     26.5 1.250e+04 2.061e-09
  3.16256     26.9 1.213e+04 1.548e-09
  3.17819     26.8 1.197e+04 1.334e-09
  3.18801     25.9 1.205e+04 1.348e-09
  3.20182     26.2 1.158e+04 1.092e-09
  3.22144     26.5 1.139e+04 9.293e-10
  3.24107     27.0 1.125e+04 8.486e-10
  3.26070     27.5 1.130e+04 8.775e-10
  3.28033     27.7 1.144e+04 9.684e-10
  3.29996     27.9 1.161e+04 1.152e-09
  3.31959     28.4 1.196e+04 1.492e-09
  3.33921     28.8 1.253e+04 2.016e-09
  3.35884     29.0 1.326e+04 2.754e-09
  3.37847     28.9 1.407e+04 3.790e-09
  3.39428     29.0 1.463e+04 4.923e-09
  3.40409     29.3 1.468e+04 4.885e-09
  3.41773     29.7 1.497e+04 5.815e-09
  3.43736     30.0 1.509e+04 5.977e-09
  3.45698     30.3 1.495e+04 5.588e-09
  3.47661     29.5 1.520e+04 5.087e-09
  3.49360     27.2 1.615e+04 5.493e-09
  3.50341     27.2 1.518e+04 4.468e-09
  3.51587     25.1 1.555e+04 4.819e-09
  3.53550     24.1 1.563e+04 5.266e-09
  3.55512     23.5 1.545e+04 5.431e-09
  3.57475     23.7 1.525e+04 4.931e-09
  3.59438     23.5 1.517e+04 3.866e-09
  3.61401     22.4 1.486e+04 3.005e-09
  3.63364     20.5 1.428e+04 2.525e-09
  3.64738     18.8 1.423e+04 2.600e-09
  3.65719     19.3 1.430e+04 2.706e-09
  3.67289     17.9 1.439e+04 2.886e-09
  3.69252     17.5 1.417e+04 3.259e-09
  3.71215     18.2 1.362e+04 3.380e-09
  3.73178     19.4 1.385e+04 2.652e-09
  3.75141     19.4 1.411e+04 1.808e-09
  3.77103     17.7 1.371e+04 1.170e-09
  3.79929     15.9 1.277e+04 9.495e-10
  3.81891     17.6 1.284e+04 8.448e-10
  3.83983     17.8 1.199e+04 7.236e-10
  3.87919     18.3 1.156e+04 5.432e-10
  3.90068     19.6 1.156e+04 5.044e-10
  3.92031     19.7 1.140e+04 4.845e-10
  3.95770     21.6 1.133e+04 4.495e-10
  3.99695     24.1 1.111e+04 3.794e-10
  4.03621     27.1 1.096e+04 2.785e-10
  4.07547     29.8 1.096e+04 1.934e-10
  4.11472     31.9 1.105e+04 1.474e-10
  4.15398     34.5 1.095e+04 1.406e-10
  4.19324     37.2 1.099e+04 1.471e-10
  4.23249     40.1 1.103e+04 1.666e-10
  4.27175     43.2 1.105e+04 1.988e-10
  4.31101     46.2 1.109e+04 2.318e-10
  4.35026     49.2 1.111e+04 2.567e-10
  4.38725     52.1 1.107e+04 2.737e-10
  4.40688     52.4 1.138e+04 3.930e-10
  4.42878     55.3 1.140e+04 4.460e-10
  4.44982     58.2 1.155e+04 4.902e-10
  4.46945     59.3 1.165e+04 5.257e-10
  4.50729     61.8 1.175e+04 5.345e-10
  4.53663     63.0 1.156e+04 4.205e-10
  4.55616     63.6 1.149e+04 3.726e-10
  4.57579     64.5 1.150e+04 3.624e-10
  4.59542     65.1 1.151e+04 3.667e-10
  4.61505     65.7 1.157e+04 3.867e-10
  4.63468     66.2 1.170e+04 4.390e-10
  4.64998     66.7 1.191e+04 5.264e-10
  4.65979     66.4 1.213e+04 6.111e-10
  4.67393     66.6 1.231e+04 7.338e-10
  4.69356     66.7 1.250e+04 8.991e-10
  4.71319     67.0 1.268e+04 1.114e-09
  4.73282     67.4 1.281e+04 1.327e-09
  4.75245     68.0 1.299e+04 1.472e-09
  4.76503     68.6 1.310e+04 1.467e-09
  4.77485     68.4 1.329e+04 1.596e-09
  4.79170     68.6 1.334e+04 1.573e-09
  4.82124     69.8 1.323e+04 1.399e-09
  4.85068     70.0 1.322e+04 1.245e-09
  4.87021     70.2 1.323e+04 1.154e-09
  4.89336     71.9 1.328e+04 1.128e-09
  4.91299     70.6 1.320e+04 1.027e-09
  4.92910     71.0 1.320e+04 1.021e-09
  4.94873     71.5 1.328e+04 1.064e-09
  4.96836     72.2 1.345e+04 1.155e-09
  4.98798     72.7 1.375e+04 1.316e-09
  5.00761     72.5 1.423e+04 1.629e-09
  5.02724     71.9 1.502e+04 2.270e-09
  5.04687     70.9 1.606e+04 3.421e-09
  5.06650     70.2 1.713e+04 5.287e-09
  5.08044     69.8 1.770e+04 6.879e-09
  5.09025     68.0 1.603e+04 3.759e-09
  5.10575     67.1 1.576e+04 3.597e-09
  5.12538     66.3 1.484e+04 2.976e-09
  5.14501     65.6 1.365e+04 2.114e-09
  5.15618     65.0 1.267e+04 1.385e-09
  5.16600     64.9 1.256e+04 1.332e-09
  5.18427     64.4 1.211e+04 9.521e-10
  5.20389     64.5 1.174e+04 6.957e-10
  5.22352     64.6 1.151e+04 5.459e-10
  5.25306     65.2 1.100e+04 4.115e-10
  5.29242     66.5 1.085e+04 3.848e-10
  5.33167     68.0 1.094e+04 4.139e-10
  5.37093     69.4 1.124e+04 5.374e-10
  5.39966     70.7 1.163e+04 7.684e-10
  5.41929     70.9 1.148e+04 7.264e-10
  5.44944     72.3 1.181e+04 9.476e-10
  5.48870     73.7 1.192e+04 1.015e-09
  5.52795     75.2 1.181e+04 9.245e-10
  5.56721     76.7 1.159e+04 7.425e-10
  5.60647     78.3 1.139e+04 6.013e-10
  5.63581     79.3 1.131e+04 6.041e-10
  5.65257     80.3 1.129e+04 6.048e-10
  5.66239     80.3 1.107e+04 4.900e-10
  5.67497     81.2 1.107e+04 5.007e-10
  5.69460     82.2 1.109e+04 5.224e-10
  5.71125     83.3 1.114e+04 5.567e-10
  5.72106     83.4 1.120e+04 5.967e-10
  5.73386     84.3 1.126e+04 6.321e-10
  5.75348     85.2 1.135e+04 6.849e-10
  5.77311     86.1 1.146e+04 7.547e-10
  5.79274     86.8 1.160e+04 8.304e-10
  5.81237     87.4 1.193e+04 9.357e-10
  5.83200     87.9 1.226e+04 1.079e-09
  5.85162     88.2 1.256e+04 1.246e-09
  5.87125     88.4 1.281e+04 1.411e-09
  5.89088     88.4 1.297e+04 1.551e-09
  5.90567     88.5 1.292e+04 1.630e-09
  5.91549     88.5 1.323e+04 1.949e-09
  5.93014     88.6 1.317e+04 1.948e-09
  5.94977     88.7 1.302e+04 1.900e-09
  5.96939     89.0 1.276e+04 1.759e-09
  5.98902     89.4 1.241e+04 1.546e-09
  6.00865     90.0 1.203e+04 1.303e-09
  6.02665     90.6 1.165e+04 1.080e-09
  6.03647     90.6 1.157e+04 1.039e-09
  6.04791     91.2 1.132e+04 9.011e-10
  6.06754     91.9 1.112e+04 7.906e-10
  6.08716     92.5 1.097e+04 7.141e-10
  6.10679     93.1 1.085e+04 6.712e-10
  6.12642     93.8 1.079e+04 6.659e-10
  6.14605     94.4 1.080e+04 6.836e-10
  6.15878     94.9 1.088e+04 7.401e-10
  6.16859     94.6 1.086e+04 6.757e-10
  6.18530     95.1 1.094e+04 7.316e-10
  6.20493     95.8 1.103e+04 8.058e-10
  6.22456     96.5 1.109e+04 8.768e-10
  6.24419     97.3 1.107e+04 9.127e-10
  6.26382     98.0 1.104e+04 9.116e-10
  6.28345     98.8 1.094e+04 8.837e-10
  6.30307     99.5 1.080e+04 8.221e-10
  6.32270    100.2 1.065e+04 7.467e-10
  6.34206    100.7 1.054e+04 6.851e-10
  6.35187    100.7 1.052e+04 7.054e-10
  6.36196    101.1 1.048e+04 6.797e-10
  6.38159    101.6 1.053e+04 6.843e-10
  6.40121    102.0 1.066e+04 7.266e-10
  6.41188    102.1 1.098e+04 8.401e-10
  6.42169    100.9 1.119e+04 8.520e-10
  6.44047    100.7 1.160e+04 1.057e-09
  6.46010    100.5 1.204e+04 1.355e-09
  6.47973    100.3 1.252e+04 1.756e-09
  6.49936    100.2 1.291e+04 2.212e-09
  6.51898    100.0 1.313e+04 2.493e-09
  6.53861     99.5 1.311e+04 2.480e-09
  6.55824     98.6 1.292e+04 2.341e-09
  6.57787     97.4 1.258e+04 2.056e-09
  6.59750     96.0 1.217e+04 1.744e-09
  6.61712     94.3 1.176e+04 1.471e-09
  6.63675     93.5 1.151e+04 1.342e-09
  6.66629     92.1 1.136e+04 1.278e-09
  6.70565     90.4 1.073e+04 9.298e-10
  6.74490     88.9 9.937e+03 5.987e-10
  6.78416     87.6 9.233e+03 4.046e-10
  6.82342     87.1 9.041e+03 3.615e-10
  6.86267     86.9 9.068e+03 3.691e-10
  6.89865     86.9 9.243e+03 4.234e-10
  6.91828     87.2 9.120e+03 3.888e-10
  6.94119     87.4 9.402e+03 4.610e-10
  6.97307     87.6 9.750e+03 5.476e-10
  6.99269     87.0 9.690e+03 5.224e-10
  7.01970     87.6 9.790e+03 5.309e-10
  7.05895     88.4 9.739e+03 5.018e-10
  7.09821     89.2 9.605e+03 4.443e-10
  7.13747     90.1 9.505e+03 4.013e-10
  7.17672     91.3 9.534e+03 3.906e-10
  7.21598     92.6 9.669e+03 4.040e-10
  7.25524     94.1 1.009e+04 4.545e-10
  7.28458     95.3 1.004e+04 4.585e-10
  7.29809     95.8 1.038e+04 5.284e-10
  7.30790     97.3 9.869e+03 4.292e-10
  7.32374     97.5 1.007e+04 4.842e-10
  7.34337     97.4 1.070e+04 6.140e-10
  7.36300     97.2 1.211e+04 8.423e-10
  7.38262     97.1 1.340e+04 1.208e-09
  7.40225     97.2 1.432e+04 1.698e-09
  7.41447     97.4 1.491e+04 2.262e-09
  7.42429     98.5 1.399e+04 1.420e-09
  7.44151     98.5 1.466e+04 1.873e-09
  7.46114     98.6 1.507e+04 2.368e-09
  7.48077     98.6 1.535e+04 2.898e-09
  7.50039     98.5 1.561e+04 3.474e-09
  7.52002     98.5 1.591e+04 4.097e-09
  7.53965     98.6 1.623e+04 4.757e-09
  7.55928     98.7 1.656e+04 5.377e-09
  7.57891     98.9 1.681e+04 5.796e-09
  7.59854     99.2 1.691e+04 5.949e-09
  7.61350     99.7 1.697e+04 5.873e-09
  7.62331    100.7 1.661e+04 5.104e-09
  7.63779    101.0 1.687e+04 5.355e-09
  7.65742    101.1 1.708e+04 5.407e-09
  7.66758    101.1 1.731e+04 5.367e-09
  7.67739    101.1 1.632e+04 4.278e-09
  7.69668    100.9 1.655e+04 4.247e-09
  7.71630    100.2 1.673e+04 4.168e-09
  7.73593     99.2 1.678e+04 4.105e-09
  7.75556     98.1 1.675e+04 4.340e-09
  7.77519     97.2 1.701e+04 4.926e-09
  7.79482     96.5 1.740e+04 5.499e-09
  7.81445     95.6 1.754e+04 5.705e-09
  7.83407     94.6 1.754e+04 5.539e-09
  7.85370     93.6 1.737e+04 4.934e-09
  7.87333     92.2 1.688e+04 4.226e-09
  7.89296     90.5 1.638e+04 3.618e-09
  7.91086     88.9 1.590e+04 3.198e-09
  7.92068     89.5 1.358e+04 2.253e-09
  7.92890     88.8 1.335e+04 1.915e-09
  7.93872     90.0 1.287e+04 1.817e-09
  7.95184     89.3 1.249e+04 1.429e-09
  7.97147     88.5 1.205e+04 1.113e-09
  7.99110     88.0 1.160e+04 8.900e-10
  8.01073     87.9 1.121e+04 7.664e-10
  8.03036     88.1 1.098e+04 6.943e-10
  8.04998     88.5 1.082e+04 6.432e-10
  8.06961     89.0 1.069e+04 6.025e-10
  8.08924     89.6 1.056e+04 5.669e-10
  8.10887     90.3 1.044e+04 5.339e-10
  8.12850     91.0 1.032e+04 5.045e-10
  8.14813     91.7 1.014e+04 4.474e-10
  8.16397     92.0 1.004e+04 4.194e-10
  8.17378     93.1 1.015e+04 4.584e-10
  8.19729     93.8 9.896e+03 3.946e-10
  8.23469     95.4 9.617e+03 3.394e-10
  8.25432     95.8 9.776e+03 3.558e-10
  8.27590     97.3 9.542e+03 3.150e-10
  8.31516     98.8 9.320e+03 2.813e-10
  8.35442    100.4 9.120e+03 2.460e-10
  8.39367    102.0 8.881e+03 2.039e-10
  8.41726    103.3 8.594e+03 1.569e-10
  8.43689    104.1 8.611e+03 1.596e-10
  8.47219    105.5 8.338e+03 1.180e-10
  8.51144    106.8 8.150e+03 9.034e-11
  8.55070    108.1 8.091e+03 7.552e-11
  8.58996    109.6 8.125e+03 7.237e-11
  8.62921    111.3 8.134e+03 7.258e-11
  8.66847    113.1 8.158e+03 7.358e-11
  8.70772    115.1 8.183e+03 7.662e-11
  8.74698    117.3 8.207e+03 8.361e-11
  8.78624    119.6 8.313e+03 1.082e-10
  8.82549    122.1 8.689e+03 1.550e-10
  8.86475    124.5 9.266e+03 2.277e-10
  8.88513    126.8 9.732e+03 3.167e-10
  8.90459    127.1 1.008e+04 3.643e-10
  8.94310    130.3 1.012e+04 3.878e-10
  8.97261    131.1 1.015e+04 4.497e-10
  8.99214    131.9 1.016e+04 5.015e-10
  9.01177    132.9 1.015e+04 5.714e-10
  9.03139    134.0 1.013e+04 6.128e-10
  9.05102    135.0 1.015e+04 6.202e-10
  9.07065    136.0 1.011e+04 6.115e-10
  9.09028    136.9 1.003e+04 5.880e-10
  9.10991    137.9 9.904e+03 5.516e-10
  9.12954    139.0 9.755e+03 5.089e-10
  9.14916    140.1 9.601e+03 4.673e-10
  9.16656    141.2 9.467e+03 4.333e-10
  9.17638    141.8 9.643e+03 4.662e-10
  9.18842    142.9 9.499e+03 4.333e-10
  9.20034    144.1 9.391e+03 4.145e-10
  9.21015    144.6 9.697e+03 5.022e-10
  9.22768    146.1 9.666e+03 5.003e-10
  9.24730    147.8 9.687e+03 5.048e-10
  9.26693    149.5 9.759e+03 5.216e-10
  9.28656    151.2 9.941e+03 5.604e-10
  9.30619    153.0 1.021e+04 6.248e-10
  9.32582    154.8 1.058e+04 7.113e-10
  9.34545    156.6 1.110e+04 8.197e-10
  9.36507    158.5 1.249e+04 9.203e-10
  9.38470    160.4 1.618e+04 9.719e-10
  9.40433    160.9 2.214e+04 1.043e-09
  9.41967    160.0 3.107e+04 1.382e-09
  9.42948    164.0 1.734e+04 1.274e-09
  9.44359    165.3 2.361e+04 1.256e-09
  9.46322    165.1 3.315e+04 1.298e-09
  9.48284    166.5 3.567e+04 1.598e-09
  9.49752    165.6 4.482e+04 1.833e-09
  9.50728    162.9 4.675e+04 3.744e-09
  9.51564    157.0 3.991e+04 1.883e-08
  9.52055    154.3 3.233e+04 8.584e-08
  9.52691    149.9 2.795e+04 2.040e-07
  9.53425    148.6 2.795e+04 2.126e-07
  9.53913    146.1 2.563e+04 4.010e-07
  9.54403    143.3 2.304e+04 9.561e-07
  9.54852    140.9 2.183e+04 1.555e-06
  9.55098    141.9 2.209e+04 1.390e-06
  9.55385    139.2 2.151e+04 1.841e-06
  9.55876    136.3 2.208e+04 1.594e-06
  9.56366    131.2 2.585e+04 6.500e-07
  9.56857    128.0 2.913e+04 3.121e-07
  9.57596    120.1 3.901e+04 5.643e-08
  9.58579    101.8 4.489e+04 5.358e-09
  9.59561     85.9 1.825e+04 4.722e-09
  9.60542     81.4 1.688e+04 3.503e-09
  9.61524     77.2 1.647e+04 2.279e-09
  9.62505     75.1 1.617e+04 1.759e-09
  9.63982     69.3 1.458e+04 9.403e-10
  9.65950     60.8 1.122e+04 4.588e-10
  9.67277     58.1 9.583e+03 3.016e-10
  9.68258     52.9 1.418e+04 2.994e-10
  9.69875     54.3 1.013e+04 2.825e-10
  9.71838     55.1 9.557e+03 2.664e-10
  9.73801     55.8 9.594e+03 2.797e-10
  9.75764     57.2 9.651e+03 2.967e-10
  9.77727     57.9 9.839e+03 3.297e-10
  9.79689     58.7 1.001e+04 3.762e-10
  9.81652     59.3 1.021e+04 4.269e-10
  9.83115     60.1 1.038e+04 5.065e-10
  9.84096     60.3 1.018e+04 4.635e-10
  9.85578     61.0 1.039e+04 5.370e-10
  9.87541     61.7 1.051e+04 6.060e-10
  9.89504     62.4 1.063e+04 6.532e-10
  9.91466     62.9 1.076e+04 6.762e-10
  9.92587     63.2 1.089e+04 6.909e-10
  9.93568     60.7 1.189e+04 1.038e-09
  9.95392     60.8 1.200e+04 1.074e-09
  9.97355     61.0 1.207e+04 1.127e-09
  9.99318     61.0 1.224e+04 1.222e-09
 10.01280     60.7 1.258e+04 1.406e-09
 10.03243     60.0 1.326e+04 1.801e-09
 10.05206     58.3 1.456e+04 2.735e-09
 10.07169     55.9 1.634e+04 4.909e-09
 10.09132     53.6 1.818e+04 9.999e-09
 10.11095     52.3 1.980e+04 1.804e-08
 10.12562     50.2 2.135e+04 2.721e-08
 10.13538     48.6 2.222e+04 3.476e-08
 10.14520     47.4 2.203e+04 3.358e-08
 10.15136     46.4 2.174e+04 3.025e-08
 10.15627     46.4 2.129e+04 2.549e-08
 10.16911     45.4 2.018e+04 1.682e-08
 10.17897     42.6 2.010e+04 1.611e-08
 10.18946     40.2 1.830e+04 8.842e-09
 10.20909     37.7 1.644e+04 4.453e-09
 10.22872     34.9 1.467e+04 2.049e-09
 10.24834     31.8 1.303e+04 9.218e-10
 10.26797     28.6 1.132e+04 4.749e-10
 10.28760     26.4 1.002e+04 3.706e-10
 10.30723     25.8 9.811e+03 3.693e-10
 10.32686     25.7 9.880e+03 3.884e-10
 10.34648     25.9 1.005e+04 4.288e-10
 10.36611     25.7 1.042e+04 4.931e-10
 10.38574     24.5 1.117e+04 6.490e-10
 10.40537     22.0 1.234e+04 9.681e-10
 10.42226     19.6 1.328e+04 1.696e-09
 10.43207     18.7 1.316e+04 1.848e-09
 10.44463     17.9 1.350e+04 2.686e-09
 10.46196     18.2 1.393e+04 3.434e-09
 10.47177     18.2 1.430e+04 3.963e-09
 10.48388     17.6 1.465e+04 3.798e-09
 10.50351     16.6 1.435e+04 2.715e-09
 10.52314     13.9 1.346e+04 1.628e-09
 10.54277     10.7 1.227e+04 9.916e-10
 10.56239      8.2 1.155e+04 7.661e-10
 10.58202      6.7 1.137e+04 7.067e-10
 10.60165      5.9 1.128e+04 6.888e-10
 10.62128      5.3 1.119e+04 6.873e-10
 10.64091      5.0 1.116e+04 6.957e-10
 10.66054      4.8 1.116e+04 6.917e-10
 10.67536      4.6 1.119e+04 6.689e-10
 10.68518      4.4 1.136e+04 7.800e-10
 10.69979      4.0 1.135e+04 7.135e-10
 10.71942      3.3 1.128e+04 6.582e-10
 10.73905      2.6 1.114e+04 6.197e-10
 10.75868      2.2 1.107e+04 5.968e-10
 10.77736      1.9 1.094e+04 5.709e-10
 10.78718      1.9 1.099e+04 5.909e-10
 10.79793      2.0 1.092e+04 5.735e-10
 10.81756      2.1 1.079e+04 5.347e-10
 10.83719      2.3 1.069e+04 4.922e-10
 10.85682      2.3 1.055e+04 4.392e-10
 10.87645      2.4 1.051e+04 3.894e-10
 10.89607      2.3 1.048e+04 3.493e-10
 10.91570      2.3 1.053e+04 3.399e-10
 10.92847      2.1 1.058e+04 3.253e-10
 10.93828      1.0 1.083e+04 3.443e-10
 10.95496      0.1 1.124e+04 3.989e-10
 10.97459     -1.2 1.148e+04 5.051e-10
 10.99422     -1.9 1.151e+04 6.686e-10
 11.01384     -2.2 1.142e+04 8.423e-10
 11.03347     -1.8 1.135e+04 9.507e-10
 11.05310     -1.1 1.124e+04 9.552e-10
 11.07273     -0.6 1.102e+04 7.704e-10
 11.09236     -0.7 1.072e+04 5.085e-10
 11.10258     -1.0 1.046e+04 3.804e-10
 11.11240     -0.4 1.055e+04 4.085e-10
 11.14152     -1.8 9.851e+03 2.416e-10
 11.18088     -2.1 9.064e+03 1.241e-10
 11.22013     -2.3 8.872e+03 8.328e-11
 11.25939     -2.4 8.842e+03 7.515e-11
 11.29865     -2.4 8.872e+03 8.370e-11
 11.33790     -2.3 8.923e+03 1.196e-10
 11.37716     -1.3 9.061e+03 1.599e-10
 11.40837     -0.7 9.219e+03 1.820e-10
 11.42682     -0.9 9.490e+03 2.336e-10
 11.43487     -1.5 9.729e+03 2.855e-10
 11.45567     -1.8 9.749e+03 2.934e-10
 11.49493     -1.8 9.766e+03 2.945e-10
 11.53419     -1.5 9.713e+03 2.771e-10
 11.57344     -1.3 9.729e+03 2.664e-10
 11.61270     -1.4 9.946e+03 3.043e-10
 11.65196     -1.7 1.027e+04 4.473e-10
 11.69121     -1.1 1.066e+04 6.778e-10
 11.73047      0.0 1.097e+04 8.541e-10
 11.76972      0.8 1.097e+04 8.825e-10
 11.80898      1.8 1.064e+04 6.299e-10
 11.84824      2.5 1.016e+04 4.124e-10
 11.88749      3.1 9.799e+03 2.963e-10
 11.92144      4.1 9.553e+03 2.395e-10
 11.94107      4.2 9.604e+03 2.474e-10
 11.96601      5.4 9.504e+03 2.229e-10
 12.00526      6.5 9.443e+03 2.117e-10
 12.03918      7.5 9.411e+03 2.091e-10
 12.05881      6.6 9.465e+03 2.251e-10
 12.08378      7.6 9.497e+03 2.498e-10
 12.12303      8.9 9.536e+03 2.808e-10
 12.16229     10.4 9.541e+03 2.887e-10
 12.20155     11.9 9.461e+03 2.602e-10
 12.24080     13.1 9.402e+03 2.149e-10
 12.28006     13.8 9.400e+03 1.947e-10
 12.31931     13.9 9.597e+03 2.240e-10
 12.35857     14.1 9.809e+03 3.529e-10
 12.39783     15.4 1.009e+04 5.105e-10
 12.42765     16.6 1.035e+04 6.000e-10
 12.44728     17.1 1.031e+04 5.713e-10
 12.47634     17.4 1.035e+04 5.407e-10
 12.51560     17.6 1.018e+04 5.096e-10
 12.55485     18.3 9.937e+03 4.346e-10
 12.59411     19.1 9.657e+03 3.205e-10
 12.63337     19.7 9.448e+03 2.093e-10
 12.66999     19.2 9.345e+03 1.551e-10
 12.68962     19.1 9.426e+03 1.843e-10
 12.71188     19.2 9.325e+03 1.886e-10
 12.75114     20.4 9.142e+03 2.205e-10
 12.79039     22.4 9.044e+03 2.007e-10
 12.82965     24.3 9.028e+03 1.483e-10
 12.86890     25.2 9.118e+03 1.107e-10
 12.90816     26.1 8.948e+03 9.735e-11
 12.93385     27.5 8.830e+03 9.270e-11
 12.95348     28.1 8.695e+03 7.954e-11
 12.98667     29.6 8.766e+03 8.331e-11
 13.02593     31.1 8.838e+03 9.719e-11
 13.06519     33.1 8.884e+03 1.138e-10
 13.10444     35.1 8.981e+03 1.213e-10
 13.14370     37.0 9.083e+03 1.216e-10
 13.18296     38.6 9.159e+03 1.234e-10
 13.22221     40.1 9.252e+03 1.309e-10
 13.26147     41.4 9.411e+03 1.539e-10
 13.30072     42.5 9.701e+03 2.127e-10
 13.33998     43.1 1.011e+04 3.400e-10
 13.37924     44.4 1.049e+04 4.854e-10
 13.41849     45.6 1.068e+04 5.129e-10
 13.44006     46.4 1.065e+04 4.666e-10
 13.45968     47.5 1.057e+04 4.509e-10
 13.49701     48.2 1.054e+04 3.978e-10
 13.53626     49.0 1.047e+04 3.636e-10
 13.57552     49.9 1.047e+04 3.615e-10
 13.61478     51.0 1.053e+04 3.669e-10
 13.65403     52.1 1.062e+04 3.860e-10
 13.69329     53.4 1.070e+04 4.218e-10
 13.73255     54.9 1.071e+04 4.489e-10
 13.77180     56.5 1.064e+04 4.219e-10
 13.81106     58.1 1.053e+04 3.596e-10
 13.85031     59.5 1.041e+04 3.006e-10
 13.88957     60.9 1.041e+04 2.934e-10
 13.92663     62.0 1.049e+04 3.128e-10
 13.94626     62.5 1.081e+04 4.523e-10
 13.95124     63.5 1.105e+04 5.505e-10
 13.97087     63.5 1.075e+04 4.177e-10
 14.00734     64.5 1.111e+04 5.732e-10
 14.04660     65.1 1.149e+04 7.492e-10
 14.08585     65.2 1.177e+04 8.857e-10
 14.12511     65.0 1.203e+04 9.998e-10
 14.16437     64.3 1.218e+04 1.035e-09
 14.20362     64.0 1.206e+04 9.556e-10
 14.24288     64.2 1.175e+04 7.263e-10
 14.28214     64.5 1.136e+04 4.792e-10
 14.32139     65.0 1.106e+04 3.163e-10
 14.36065     65.8 1.090e+04 2.392e-10
 14.39990     67.2 1.080e+04 2.079e-10
 14.43284     69.0 1.062e+04 1.986e-10
 14.45247     68.7 1.062e+04 1.996e-10
 14.47842     70.6 1.049e+04 1.956e-10
 14.51767     72.7 1.046e+04 1.981e-10
 14.55693     74.7 1.046e+04 2.047e-10
 14.58205     76.6 1.050e+04 2.262e-10
 14.60168     76.6 1.054e+04 2.385e-10
 14.63544     78.2 1.052e+04 2.825e-10
 14.67470     79.6 1.078e+04 3.870e-10
 14.71396     81.0 1.121e+04 5.073e-10
 14.75321     82.0 1.193e+04 6.425e-10
 14.78256     82.6 1.191e+04 6.578e-10
 14.80209     82.3 1.227e+04 7.648e-10
 14.82172     82.4 1.235e+04 8.670e-10
 14.84134     81.6 1.325e+04 1.213e-09
 14.86097     80.4 1.490e+04 2.207e-09
 14.88060     79.5 1.638e+04 4.432e-09
 14.89726     79.2 1.736e+04 7.929e-09
 14.90708     78.8 1.785e+04 1.060e-08
 14.91986     79.0 1.825e+04 1.320e-08
 14.93885     79.0 1.824e+04 1.330e-08
 14.94866     79.6 1.736e+04 9.511e-09
 14.95911     79.5 1.743e+04 1.013e-08
 14.97874     79.3 1.717e+04 9.328e-09
 14.99837     79.2 1.673e+04 8.273e-09
 15.01800     79.3 1.609e+04 6.332e-09
 15.03763     79.5 1.530e+04 4.255e-09
 15.05725     79.1 1.454e+04 2.761e-09
 15.07688     78.2 1.383e+04 1.921e-09
 15.09651     77.3 1.316e+04 1.568e-09
 15.11614     76.9 1.280e+04 1.440e-09
 15.14568     77.8 1.293e+04 1.480e-09
 15.18503     77.0 1.282e+04 1.453e-09
 15.21286     76.5 1.268e+04 1.358e-09
 15.23249     75.2 1.295e+04 1.600e-09
 15.26355     75.4 1.245e+04 1.292e-09
 15.30280     76.1 1.180e+04 8.951e-10
 15.34206     77.0 1.123e+04 5.885e-10
 15.38132     77.7 1.089e+04 4.003e-10
 15.42057     78.5 1.075e+04 3.545e-10
 15.44525     79.3 1.073e+04 3.681e-10
 15.46488     80.9 1.071e+04 3.764e-10
 15.48917     80.8 1.066e+04 4.167e-10
 15.50870     81.2 1.072e+04 4.733e-10
 15.52807     81.7 1.087e+04 5.278e-10
 15.53789     81.5 1.094e+04 5.460e-10
 15.54796     81.9 1.120e+04 6.112e-10
 15.56759     82.1 1.120e+04 6.178e-10
 15.58722     82.4 1.117e+04 5.988e-10
 15.60684     82.5 1.110e+04 5.377e-10
 15.62647     82.4 1.105e+04 4.548e-10
 15.64610     81.9 1.116e+04 3.979e-10
 15.66573     81.0 1.126e+04 3.963e-10
 15.68536     80.0 1.139e+04 4.257e-10
 15.69815     79.1 1.150e+04 5.140e-10
 15.70797     80.3 1.138e+04 4.614e-10
 15.72461     79.5 1.159e+04 5.899e-10
 15.74424     78.7 1.190e+04 7.976e-10
 15.76387     77.8 1.220e+04 1.082e-09
 15.78350     77.1 1.252e+04 1.395e-09
 15.80313     75.5 1.330e+04 1.773e-09
 15.82275     72.5 1.461e+04 2.219e-09
 15.84238     68.4 1.546e+04 2.622e-09
 15.85329     64.3 1.495e+04 2.762e-09
 15.86311     63.6 1.434e+04 1.814e-09
 15.88164     61.3 1.348e+04 2.084e-09
 15.90127     60.6 1.307e+04 2.089e-09
 15.92090     60.5 1.282e+04 1.939e-09
 15.94052     60.2 1.273e+04 1.630e-09
 15.95126     59.6 1.253e+04 1.256e-09
 15.96107     60.3 1.281e+04 1.513e-09
 15.97978     59.3 1.254e+04 1.135e-09
 15.99941     58.3 1.216e+04 9.600e-10
 16.01904     58.0 1.209e+04 9.496e-10
 16.03866     58.3 1.206e+04 9.937e-10
 16.05829     58.4 1.207e+04 1.011e-09
 16.08783     59.2 1.216e+04 1.167e-09
 16.12719     60.6 1.223e+04 1.298e-09
 16.15653     61.7 1.213e+04 1.212e-09
 16.16870     61.8 1.213e+04 1.204e-09
 16.17851     61.9 1.213e+04 1.203e-09
 16.19455     63.1 1.215e+04 1.175e-09
 16.20436     63.3 1.225e+04 1.269e-09
 16.21532     63.6 1.228e+04 1.270e-09
 16.24486     64.5 1.226e+04 1.162e-09
 16.28421     65.3 1.213e+04 1.015e-09
 16.32347     66.2 1.196e+04 9.497e-10
 16.36273     67.4 1.194e+04 9.308e-10
 16.39207     68.2 1.208e+04 1.028e-09
 16.41160     68.9 1.209e+04 1.048e-09
 16.43123     69.5 1.214e+04 1.073e-09
 16.44765     69.7 1.224e+04 1.125e-09
 16.45746     69.9 1.262e+04 1.470e-09
 16.47049     69.9 1.280e+04 1.643e-09
 16.48410     70.0 1.295e+04 1.856e-09
 16.49392     70.4 1.332e+04 2.132e-09
 16.50974     70.4 1.324e+04 2.224e-09
 16.52937     70.4 1.314e+04 2.195e-09
 16.54900     70.6 1.288e+04 2.039e-09
 16.56863     70.6 1.261e+04 1.747e-09
 16.58825     70.4 1.244e+04 1.410e-09
 16.60788     69.5 1.226e+04 1.167e-09
 16.63742     68.5 1.209e+04 1.082e-09
 16.67678     67.9 1.180e+04 9.622e-10
 16.71603     67.7 1.164e+04 9.024e-10
 16.75529     67.8 1.145e+04 8.328e-10
 16.79455     68.3 1.114e+04 6.955e-10
 16.83380     69.0 1.074e+04 5.170e-10
 16.87306     70.0 1.032e+04 3.566e-10
 16.91232     71.3 9.949e+03 2.493e-10
 16.94423     72.9 9.724e+03 1.927e-10
 16.96386     73.4 9.751e+03 2.116e-10
 16.99083     75.3 9.628e+03 1.858e-10
 17.03008     77.4 9.591e+03 1.744e-10
 17.06934     79.5 9.589e+03 1.694e-10
 17.10529     81.5 9.616e+03 1.717e-10
 17.12492     82.1 9.583e+03 1.585e-10
 17.14785     84.1 9.636e+03 1.563e-10
 17.18711     85.9 9.654e+03 1.632e-10
 17.22637     87.9 9.699e+03 1.833e-10
 17.26562     89.8 9.787e+03 2.086e-10
 17.30488     91.8 9.898e+03 2.189e-10
 17.34414     93.6 9.935e+03 2.169e-10
 17.38339     95.3 9.985e+03 2.118e-10
 17.42265     96.9 1.006e+04 2.190e-10
 17.45044     98.1 1.027e+04 2.535e-10
 17.47007     98.6 1.018e+04 2.498e-10
 17.50116     99.3 1.058e+04 3.228e-10
 17.54042     99.8 1.116e+04 4.808e-10
 17.57967    100.2 1.165e+04 6.589e-10
 17.61893    100.6 1.190e+04 7.206e-10
 17.65819    101.0 1.187e+04 6.816e-10
 17.69744    101.6 1.167e+04 5.862e-10
 17.73611    102.3 1.145e+04 5.153e-10
 17.75573    103.6 1.172e+04 6.036e-10
 17.76604    103.7 1.156e+04 5.664e-10
 17.78558    103.9 1.144e+04 5.448e-10
 17.81512    104.9 1.143e+04 5.476e-10
 17.85447    105.7 1.137e+04 5.212e-10
 17.88381    106.1 1.130e+04 4.914e-10
 17.90334    106.2 1.134e+04 4.846e-10
 17.92297    106.5 1.137e+04 4.816e-10
 17.94260    106.6 1.139e+04 4.859e-10
 17.95645    106.7 1.142e+04 4.931e-10
 17.96626    106.5 1.133e+04 4.621e-10
 17.98186    106.5 1.138e+04 4.753e-10
 18.00149    106.4 1.138e+04 4.887e-10
 18.02111    106.1 1.143e+04 5.044e-10
 18.04074    105.3 1.168e+04 5.402e-10
 18.06037    102.5 1.305e+04 6.829e-10
 18.07094     93.4 1.834e+04 1.679e-09
 18.08076     94.6 1.772e+04 1.466e-09
 18.09963     84.9 2.099e+04 5.157e-09
 18.11925     78.0 2.129e+04 1.160e-08
 18.13888     72.4 2.061e+04 1.225e-08
 18.15851     68.0 1.977e+04 7.269e-09
 18.17814     60.9 1.805e+04 2.423e-09
 18.19777     51.7 1.427e+04 9.978e-10
 18.20955     47.3 1.269e+04 8.928e-10
 18.21936     48.7 1.358e+04 1.126e-09
 18.23702     46.4 1.292e+04 1.157e-09
 18.25665     45.9 1.284e+04 1.224e-09
 18.27628     45.7 1.278e+04 1.183e-09
 18.29591     45.5 1.266e+04 1.041e-09
 18.31554     44.7 1.255e+04 8.624e-10
 18.33517     43.5 1.244e+04 7.182e-10
 18.35479     42.1 1.220e+04 6.540e-10
 18.37442     41.1 1.203e+04 6.581e-10
 18.38635     40.5 1.198e+04 6.945e-10
 18.39616     40.9 1.204e+04 7.168e-10
 18.41368     40.7 1.211e+04 8.087e-10
 18.43331     40.7 1.223e+04 9.287e-10
 18.45284     40.6 1.243e+04 1.066e-09
 18.47247     39.5 1.280e+04 1.237e-09
 18.49219     39.0 1.295e+04 1.397e-09
 18.51182     38.6 1.288e+04 1.515e-09
 18.53145     38.9 1.260e+04 1.431e-09
 18.56099     39.5 1.197e+04 9.462e-10
 18.60034     39.6 1.112e+04 4.577e-10
 18.63960     38.8 1.039e+04 2.422e-10
 18.67885     38.5 9.761e+03 1.827e-10
 18.71811     39.2 9.565e+03 1.744e-10
 18.75737     39.9 9.504e+03 1.717e-10
 18.79662     40.1 9.588e+03 1.918e-10
 18.83588     40.4 9.539e+03 2.018e-10
 18.87514     41.2 9.332e+03 1.854e-10
 18.91439     42.5 9.074e+03 1.418e-10
 18.94942     43.5 8.925e+03 1.045e-10
 18.96905     43.3 8.809e+03 9.284e-11
 18.99291     44.1 8.680e+03 7.832e-11
 19.01735     45.2 8.580e+03 7.632e-11
 19.03698     46.0 8.759e+03 9.811e-11
 19.07142     47.3 8.723e+03 9.872e-11
 19.11067     48.6 8.726e+03 1.050e-10
 19.14993     49.9 8.799e+03 1.160e-10
 19.18919     51.3 8.881e+03 1.309e-10
 19.22844     52.6 8.968e+03 1.464e-10
 19.26770     54.0 9.046e+03 1.583e-10
 19.30696     55.3 9.127e+03 1.676e-10
 19.34621     56.4 9.197e+03 1.804e-10
 19.38547     57.5 9.252e+03 2.001e-10
 19.42473     58.6 9.345e+03 2.259e-10
 19.45563     59.7 9.467e+03 2.563e-10
 19.47526     59.8 9.786e+03 3.406e-10
 19.50324     60.8 9.977e+03 3.832e-10
 19.54250     61.4 1.019e+04 4.210e-10
 19.58175     61.6 1.048e+04 4.913e-10
 19.62101     61.3 1.107e+04 6.617e-10
 19.64817     60.2 1.221e+04 1.179e-09
 19.66779     61.4 1.213e+04 1.076e-09
 19.69952     60.7 1.291e+04 1.783e-09
 19.73878     61.0 1.333e+04 2.167e-09
 19.77803     60.1 1.333e+04 1.942e-09
 19.81729     58.6 1.294e+04 1.534e-09
 19.85655     57.0 1.257e+04 1.300e-09
 19.89580     55.6 1.262e+04 1.311e-09
 19.93506     53.8 1.295e+04 1.466e-09
 19.96183     52.4 1.285e+04 1.339e-09
 19.98146     51.6 1.224e+04 9.965e-10
 20.01357     50.1 1.179e+04 8.539e-10
 20.05283     49.6 1.104e+04 5.675e-10
 20.09208     49.2 1.054e+04 3.379e-10
 20.13134     48.3 1.019e+04 2.180e-10
 20.17060     47.8 1.009e+04 2.080e-10
 20.20985     47.1 1.018e+04 2.488e-10
 20.24911     46.5 1.042e+04 3.839e-10
 20.27898     45.6 1.084e+04 5.622e-10
 20.29860     46.1 1.101e+04 6.291e-10
 20.31771     46.0 1.111e+04 7.465e-10
 20.33724     46.4 1.102e+04 7.276e-10
 20.35687     46.9 1.079e+04 6.213e-10
 20.37650     46.7 1.066e+04 4.927e-10
 20.39613     45.8 1.064e+04 3.630e-10
 20.41576     45.4 1.058e+04 3.431e-10
 20.44530     44.9 1.047e+04 2.863e-10
 20.46804     44.3 1.024e+04 2.387e-10
 20.48767     43.8 1.041e+04 2.605e-10
 20.52391     43.3 1.044e+04 2.660e-10
 20.56316     42.9 1.048e+04 3.014e-10
 20.60242     42.7 1.050e+04 3.193e-10
 20.63176     43.0 1.031e+04 2.875e-10
 20.65129     42.7 1.033e+04 2.891e-10
 20.67092     42.2 1.032e+04 3.041e-10
 20.69055     40.6 1.101e+04 3.628e-10
 20.71018     30.0 1.664e+04 1.088e-09
 20.72095     23.5 1.652e+04 4.059e-09
 20.73076     23.8 1.676e+04 6.904e-09
 20.74943     25.9 1.662e+04 1.187e-08
 20.76906     27.8 1.662e+04 9.448e-09
 20.78869     27.5 1.776e+04 3.485e-09
 20.80832     19.6 1.760e+04 7.916e-10
 20.83786     15.3 1.336e+04 3.867e-10
 20.87721      7.4 1.053e+04 2.150e-10
 20.90979      6.5 1.050e+04 2.029e-10
 20.92942      6.3 1.055e+04 2.285e-10
 20.95462      5.3 1.065e+04 2.671e-10
 20.97424      3.7 1.057e+04 2.600e-10
 20.99498      3.7 1.074e+04 3.453e-10
 21.03424      3.8 1.093e+04 3.968e-10
 21.07350      3.2 1.106e+04 4.030e-10
 21.11275      1.7 1.113e+04 3.954e-10
 21.15201     -0.1 1.139e+04 4.570e-10
 21.19126     -1.0 1.180e+04 6.767e-10
 21.21743     -1.1 1.239e+04 1.034e-09
 21.22715     -1.2 1.228e+04 9.374e-10
 21.23481     -1.3 1.232e+04 1.029e-09
 21.24463     -1.3 1.220e+04 1.013e-09
 21.25977     -1.0 1.249e+04 1.224e-09
 21.27940     -1.1 1.266e+04 1.270e-09
 21.29902     -1.6 1.272e+04 1.280e-09
 21.31865     -2.2 1.271e+04 1.214e-09
 21.33828     -2.9 1.272e+04 1.154e-09
 21.35791     -3.8 1.273e+04 1.131e-09
 21.37754     -5.1 1.287e+04 1.157e-09
 21.39717     -6.5 1.304e+04 1.269e-09
 21.41679     -7.8 1.314e+04 1.471e-09
 21.43642     -8.6 1.322e+04 1.675e-09
 21.45605     -9.3 1.326e+04 1.768e-09
 21.47044    -10.1 1.323e+04 1.714e-09
 21.48025    -11.0 1.345e+04 1.839e-09
 21.49531    -12.7 1.326e+04 1.458e-09
 21.51493    -15.1 1.298e+04 1.162e-09
 21.53456    -17.8 1.262e+04 9.797e-10
 21.55022    -20.2 1.219e+04 8.855e-10
 21.56003    -19.1 1.261e+04 1.030e-09
 21.57382    -21.2 1.209e+04 9.435e-10
 21.59345    -22.6 1.158e+04 8.679e-10
 21.61308    -23.4 1.126e+04 7.766e-10
 21.63270    -23.9 1.116e+04 6.342e-10
 21.65233    -25.2 1.098e+04 4.411e-10
 21.67196    -26.4 1.067e+04 3.503e-10
 21.70150    -27.5 1.027e+04 2.882e-10
 21.74085    -28.3 1.007e+04 2.634e-10
 21.78011    -29.2 1.005e+04 2.616e-10
 21.81937    -30.6 1.007e+04 2.968e-10
 21.85862    -32.2 1.019e+04 3.614e-10
 21.89788    -33.3 1.028e+04 4.128e-10
 21.93714    -34.0 1.025e+04 4.114e-10
 21.96702    -35.0 9.938e+03 3.050e-10
 21.98665    -37.0 9.590e+03 2.431e-10
 22.01565    -39.0 9.318e+03 2.082e-10
 22.05491    -40.6 9.289e+03 2.093e-10
 22.09416    -41.6 9.454e+03 2.760e-10
 22.13342    -42.1 9.731e+03 3.741e-10
 22.17141    -42.7 9.890e+03 4.178e-10
 22.19104    -41.4 1.002e+04 4.311e-10
 22.21193    -42.4 1.010e+04 4.307e-10
 22.25119    -43.7 1.014e+04 3.926e-10
 22.28053    -46.1 1.014e+04 3.793e-10
 22.30006    -46.7 1.022e+04 4.031e-10
 22.31969    -48.4 1.022e+04 5.165e-10
 22.33932    -49.0 1.045e+04 6.548e-10
 22.35895    -49.3 1.063e+04 7.551e-10
 22.37858    -49.6 1.068e+04 7.801e-10
 22.39820    -50.1 1.070e+04 7.631e-10
 22.41783    -50.8 1.059e+04 6.496e-10
 22.43746    -51.9 1.039e+04 5.212e-10
 22.45709    -53.2 1.012e+04 4.244e-10
 22.47303    -54.2 9.855e+03 3.701e-10
 22.48285    -55.7 9.699e+03 3.367e-10
 22.49635    -56.0 9.644e+03 3.320e-10
 22.51597    -56.3 9.548e+03 3.376e-10
 22.53560    -56.6 9.521e+03 3.451e-10
 22.55523    -57.0 9.669e+03 3.788e-10
 22.57486    -57.8 9.921e+03 4.354e-10
 22.59449    -58.6 1.029e+04 5.357e-10
 22.61411    -59.4 1.074e+04 6.947e-10
 22.63374    -60.0 1.118e+04 9.226e-10
 22.65337    -60.3 1.157e+04 1.201e-09
 22.67300    -60.6 1.194e+04 1.506e-09
 22.69263    -61.0 1.245e+04 1.848e-09
 22.71226    -62.1 1.335e+04 2.325e-09
 22.72614    -63.9 1.465e+04 3.138e-09
 22.73595    -65.8 1.500e+04 3.405e-09
 22.75151    -68.0 1.603e+04 4.739e-09
 22.77114    -69.7 1.681e+04 6.435e-09
 22.79077    -71.1 1.721e+04 7.924e-09
 22.81040    -72.2 1.729e+04 8.500e-09
 22.82165    -73.1 1.693e+04 7.761e-09
 22.83147    -72.8 1.609e+04 5.367e-09
 22.84965    -74.1 1.587e+04 4.943e-09
 22.86928    -76.0 1.547e+04 4.266e-09
 22.88891    -78.2 1.506e+04 3.886e-09
 22.90854    -80.3 1.474e+04 3.752e-09
 22.92817    -81.9 1.452e+04 3.757e-09
 22.94779    -83.1 1.442e+04 3.774e-09
 22.96742    -83.9 1.436e+04 3.767e-09
 22.97924    -84.6 1.413e+04 3.644e-09
 22.98905    -85.1 1.386e+04 3.366e-09
 23.00668    -85.6 1.347e+04 2.861e-09
 23.02631    -86.2 1.299e+04 2.230e-09
 23.04593    -87.0 1.245e+04 1.656e-09
 23.06556    -88.0 1.187e+04 1.213e-09
 23.08519    -89.0 1.138e+04 9.153e-10
 23.10482    -90.0 1.111e+04 7.700e-10
 23.12445    -90.9 1.105e+04 7.354e-10
 23.13706    -92.1 1.115e+04 7.444e-10
 23.14687    -92.7 1.125e+04 7.595e-10
 23.16370    -93.9 1.178e+04 9.709e-10
 23.18333    -95.0 1.222e+04 1.277e-09
 23.20296    -95.8 1.246e+04 1.524e-09
 23.22253    -96.6 1.251e+04 1.599e-09
 23.24216    -97.6 1.268e+04 1.738e-09
 23.26185    -98.3 1.232e+04 1.427e-09
 23.28147    -99.2 1.182e+04 1.046e-09
 23.30110   -100.2 1.128e+04 7.638e-10
 23.32073   -101.0 1.081e+04 5.823e-10
 23.34036   -101.5 1.049e+04 4.719e-10
 23.35999   -101.7 1.027e+04 4.037e-10
 23.38953   -101.6 1.008e+04 3.470e-10
 23.42888   -100.7 9.884e+03 3.054e-10
 23.45266    -99.6 9.839e+03 2.882e-10
 23.47016    -99.6 9.851e+03 2.917e-10
 23.48564    -99.7 9.969e+03 3.129e-10
 23.50739    -98.5 9.966e+03 3.110e-10
 23.54665    -97.3 1.009e+04 3.261e-10
 23.58591    -96.0 1.030e+04 3.929e-10
 23.62516    -94.5 1.054e+04 4.782e-10
 23.66442    -92.8 1.078e+04 5.415e-10
 23.69376    -91.3 1.072e+04 5.059e-10
 23.71329    -91.1 1.077e+04 5.196e-10
 23.72873    -90.2 1.084e+04 5.371e-10
 23.73855    -90.0 1.084e+04 5.314e-10
 23.75255    -89.2 1.087e+04 5.398e-10
 23.76787    -88.3 1.088e+04 5.403e-10
 23.77768    -88.5 1.120e+04 6.985e-10
 23.79181    -87.5 1.120e+04 7.019e-10
 23.81144    -86.5 1.120e+04 7.008e-10
 23.83106    -85.5 1.119e+04 6.940e-10
 23.85069    -84.4 1.119e+04 6.865e-10
 23.87032    -83.4 1.123e+04 6.832e-10
 23.88995    -82.6 1.129e+04 6.627e-10
 23.90958    -81.8 1.121e+04 6.240e-10
 23.93912    -80.9 1.102e+04 5.661e-10
 23.97222    -78.6 1.091e+04 5.749e-10
 23.99184    -78.1 1.088e+04 5.816e-10
 24.01773    -75.8 1.086e+04 5.807e-10
 24.05698    -73.7 1.096e+04 5.958e-10
 24.08347    -72.0 1.129e+04 6.970e-10
 24.10310    -73.5 1.187e+04 9.592e-10
 24.13550    -72.3 1.227e+04 1.178e-09
 24.17475    -71.4 1.269e+04 1.412e-09
 24.21401    -70.8 1.303e+04 1.546e-09
 24.25327    -71.1 1.298e+04 1.483e-09
 24.28261    -70.9 1.282e+04 1.366e-09
 24.30214    -71.5 1.247e+04 1.235e-09
 24.32177    -72.5 1.205e+04 1.128e-09
 24.34140    -73.0 1.189e+04 1.073e-09
 24.36102    -73.3 1.178e+04 1.025e-09
 24.38065    -73.3 1.171e+04 9.899e-10
 24.41019    -73.3 1.155e+04 8.977e-10
 24.44955    -72.6 1.118e+04 7.206e-10
 24.47842    -71.7 1.086e+04 5.534e-10
 24.49805    -72.4 1.087e+04 5.280e-10
 24.52806    -71.5 1.042e+04 3.577e-10
 24.56732    -70.3 1.019e+04 2.749e-10
 24.60657    -68.6 1.003e+04 2.271e-10
 24.64583    -66.7 9.949e+03 2.021e-10
 24.68509    -64.7 9.940e+03 1.966e-10
 24.71428    -62.8 9.967e+03 1.971e-10
 24.73391    -62.7 9.710e+03 1.697e-10
 24.76360    -60.9 9.845e+03 1.814e-10
 24.80285    -59.2 9.933e+03 2.046e-10
 24.84211    -57.5 9.970e+03 2.267e-10
 24.88137    -55.7 9.982e+03 2.389e-10
 24.92062    -54.0 9.980e+03 2.413e-10
 24.95988    -52.3 9.979e+03 2.390e-10
 24.98463    -50.7 1.001e+04 2.446e-10
 25.00425    -50.7 1.010e+04 2.529e-10
 25.03839    -49.4 1.027e+04 3.282e-10
 25.07765    -47.9 1.058e+04 4.707e-10
 25.11691    -46.2 1.096e+04 6.530e-10
 25.15616    -44.8 1.126e+04 8.005e-10
 25.19542    -43.4 1.146e+04 8.727e-10
 25.23468    -42.3 1.159e+04 8.775e-10
 25.27393    -41.3 1.156e+04 8.005e-10
 25.31319    -40.4 1.158e+04 7.771e-10
 25.34509    -39.6 1.179e+04 8.297e-10
 25.36472    -39.4 1.139e+04 7.085e-10
 25.39170    -38.5 1.176e+04 8.366e-10
 25.43096    -37.8 1.223e+04 1.059e-09
 25.47021    -37.5 1.274e+04 1.320e-09
 25.49083    -37.4 1.323e+04 1.641e-09
 25.51046    -37.0 1.303e+04 1.418e-09
 25.53881    -37.6 1.340e+04 1.923e-09
 25.55835    -37.6 1.354e+04 2.185e-09
 25.57797    -37.6 1.375e+04 2.527e-09
 25.59760    -37.5 1.397e+04 2.819e-09
 25.61723    -37.4 1.407e+04 2.958e-09
 25.63686    -37.4 1.406e+04 2.962e-09
 25.65649    -37.2 1.384e+04 2.619e-09
 25.67011    -37.1 1.347e+04 2.032e-09
 25.67993    -37.2 1.325e+04 1.788e-09
 25.70565    -37.5 1.292e+04 1.456e-09
 25.74501    -37.4 1.214e+04 9.201e-10
 25.78427    -36.7 1.138e+04 5.625e-10
 25.82352    -36.0 1.098e+04 4.258e-10
 25.86278    -35.8 1.093e+04 4.078e-10
 25.90203    -35.8 1.120e+04 5.046e-10
 25.94129    -35.8 1.174e+04 8.088e-10
 25.97590    -35.5 1.212e+04 1.075e-09
 25.99239    -36.2 1.218e+04 1.107e-09
 25.99703    -34.6 1.198e+04 9.269e-10
 26.01980    -34.7 1.213e+04 9.987e-10
 26.05906    -35.5 1.197e+04 9.525e-10
 26.09832    -36.1 1.150e+04 7.467e-10
 26.13757    -36.4 1.120e+04 6.359e-10
 26.17683    -36.5 1.112e+04 6.065e-10
 26.21609    -36.5 1.116e+04 6.319e-10
 26.25534    -37.0 1.157e+04 7.791e-10
 26.29460    -37.9 1.214e+04 1.083e-09
 26.32394    -38.7 1.260e+04 1.489e-09
 26.34347    -39.1 1.283e+04 1.794e-09
 26.36310    -39.3 1.289e+04 1.932e-09
 26.38273    -39.6 1.283e+04 1.928e-09
 26.40236    -39.7 1.244e+04 1.656e-09
 26.42199    -40.0 1.195e+04 1.300e-09
 26.44161    -40.4 1.150e+04 1.016e-09
 26.46124    -40.8 1.108e+04 8.084e-10
 26.48351    -41.1 1.077e+04 6.631e-10
 26.50324    -40.7 1.064e+04 6.301e-10
 26.53014    -40.5 9.911e+03 4.138e-10
 26.56939    -40.2 9.351e+03 2.971e-10
 26.60671    -39.4 9.167e+03 2.699e-10
 26.62634    -38.9 9.115e+03 2.609e-10
 26.64791    -37.7 9.085e+03 2.574e-10
 26.68716    -36.8 9.191e+03 2.828e-10
 26.72642    -36.3 9.468e+03 3.496e-10
 26.76568    -35.8 9.751e+03 4.329e-10
 26.80493    -35.6 9.977e+03 5.111e-10
 26.84419    -35.6 1.007e+04 5.442e-10
 26.88344    -35.6 9.995e+03 5.262e-10
 26.92270    -35.6 9.727e+03 4.416e-10
 26.96196    -35.8 9.515e+03 3.739e-10
 26.98982    -36.0 9.466e+03 3.546e-10
 27.00944    -36.2 9.562e+03 3.871e-10
 27.04047    -37.1 9.783e+03 4.129e-10
 27.07973    -39.0 1.063e+04 6.341e-10
 27.11898    -40.6 1.146e+04 1.038e-09
 27.15824    -41.8 1.180e+04 1.292e-09
 27.18758    -42.3 1.192e+04 1.356e-09
 27.20711    -42.5 1.180e+04 1.272e-09
 27.22674    -43.7 1.121e+04 8.250e-10
 27.24272    -45.7 1.036e+04 4.509e-10
 27.25254    -46.3 1.022e+04 4.313e-10
 27.25696    -48.4 9.726e+03 3.018e-10
 27.26677    -47.3 9.943e+03 3.609e-10
 27.28563    -48.9 9.653e+03 3.093e-10
 27.30526    -49.9 9.625e+03 3.041e-10
 27.32488    -51.4 9.986e+03 3.258e-10
 27.34451    -52.9 1.033e+04 4.442e-10
 27.36414    -53.6 1.064e+04 6.438e-10
 27.38377    -53.7 1.096e+04 8.678e-10
 27.40340    -53.4 1.122e+04 1.012e-09
 27.42303    -53.1 1.133e+04 1.052e-09
 27.44265    -52.9 1.134e+04 9.965e-10
 27.46228    -52.9 1.124e+04 7.592e-10
 27.48191    -53.6 1.099e+04 5.176e-10
 27.49592    -54.7 1.048e+04 3.248e-10
 27.51565    -55.9 1.056e+04 3.570e-10
 27.55080    -56.0 1.012e+04 2.795e-10
 27.59006    -55.1 9.664e+03 2.122e-10
 27.62932    -53.9 9.398e+03 1.743e-10
 27.66857    -52.5 9.338e+03 1.663e-10
 27.70783    -51.1 9.331e+03 1.665e-10
 27.74709    -49.8 9.435e+03 1.905e-10
 27.78634    -48.6 9.652e+03 2.394e-10
 27.82560    -47.3 9.875e+03 2.985e-10
 27.86486    -45.9 1.006e+04 3.484e-10
 27.88796    -44.6 1.015e+04 3.680e-10
 27.90759    -43.3 1.011e+04 3.192e-10
 27.94337    -42.0 1.018e+04 3.297e-10
 27.98260    -40.6 1.015e+04 3.073e-10
 28.02185    -39.5 1.000e+04 2.415e-10
 28.06114    -38.0 9.822e+03 1.874e-10
 28.10039    -36.5 9.654e+03 1.490e-10
 28.13965    -34.9 9.542e+03 1.280e-10
 28.17891    -33.1 9.497e+03 1.210e-10
 28.21816    -31.1 9.491e+03 1.220e-10
 28.25742    -29.2 9.547e+03 1.378e-10
 28.29668    -27.1 9.646e+03 1.643e-10
 28.33593    -25.0 9.780e+03 1.963e-10
 28.37519    -23.0 9.937e+03 2.233e-10
 28.41445    -21.2 1.010e+04 2.390e-10
 28.45370    -20.0 1.030e+04 2.503e-10
 28.48880    -19.5 1.058e+04 2.739e-10
 28.50843    -19.5 1.028e+04 2.120e-10
 28.51877    -19.3 1.050e+04 2.685e-10
 28.53840    -17.7 1.037e+04 2.033e-10
 28.57147    -17.6 1.065e+04 3.401e-10
 28.61073    -16.6 1.089e+04 5.225e-10
 28.64998    -15.4 1.106e+04 6.309e-10
 28.68924    -14.5 1.106e+04 6.029e-10
 28.71858    -14.4 1.075e+04 4.199e-10
 28.73812    -14.7 1.061e+04 3.405e-10
 28.76766    -14.4 1.050e+04 3.069e-10
 28.80701    -15.0 1.042e+04 2.945e-10
 28.84627    -15.0 1.036e+04 3.465e-10
 28.88552    -14.1 1.041e+04 3.940e-10
 28.92478    -12.6 1.045e+04 3.874e-10
 28.96403    -11.2 1.050e+04 3.181e-10
 28.99501    -10.3 1.041e+04 2.639e-10
 29.01464     -9.7 1.043e+04 2.903e-10
 29.04255     -8.8 1.040e+04 2.769e-10
 29.08180     -7.7 1.052e+04 3.035e-10
 29.11115     -6.8 1.055e+04 3.445e-10
 29.13068     -6.9 1.085e+04 4.499e-10
 29.14939     -6.4 1.125e+04 6.302e-10
 29.15920     -5.7 1.128e+04 6.333e-10
 29.16994     -5.5 1.171e+04 8.930e-10
 29.18956     -5.1 1.210e+04 1.244e-09
 29.20919     -4.5 1.253e+04 1.650e-09
 29.22882     -3.6 1.289e+04 2.022e-09
 29.24791     -2.7 1.315e+04 2.201e-09
 29.25773     -2.8 1.293e+04 1.985e-09
 29.26808     -2.2 1.295e+04 1.956e-09
 29.28771     -1.7 1.281e+04 1.651e-09
 29.30733     -1.7 1.254e+04 1.329e-09
 29.32696     -2.0 1.229e+04 1.117e-09
 29.34659     -2.2 1.213e+04 1.027e-09
 29.36622     -2.2 1.213e+04 1.015e-09
 29.38585     -2.4 1.239e+04 1.084e-09
 29.40547     -2.5 1.270e+04 1.300e-09
 29.42510     -2.3 1.299e+04 1.590e-09
 29.44473     -1.8 1.318e+04 1.874e-09
 29.46436     -0.8 1.333e+04 2.062e-09
 29.47461      0.1 1.337e+04 2.108e-09
 29.48442      0.4 1.337e+04 2.095e-09
 29.50102      1.4 1.320e+04 1.905e-09
 29.51083      1.4 1.302e+04 1.796e-09
 29.52324      2.2 1.279e+04 1.439e-09
 29.54287      2.7 1.255e+04 1.128e-09
 29.56250      3.1 1.228e+04 9.002e-10
 29.58213      3.9 1.205e+04 7.501e-10
 29.60176      4.6 1.197e+04 6.477e-10
 29.62138      5.4 1.203e+04 5.648e-10
 29.64101      6.0 1.224e+04 5.106e-10
 29.66064      6.1 1.243e+04 4.936e-10
 29.68027      5.9 1.248e+04 5.848e-10
 29.69990      5.8 1.271e+04 7.213e-10
 29.71953      5.3 1.303e+04 9.423e-10
 29.73915      4.4 1.348e+04 1.311e-09
 29.75412      3.3 1.427e+04 1.966e-09
 29.76393      4.3 1.381e+04 1.872e-09
 29.77841      3.5 1.458e+04 2.710e-09
 29.79001      3.0 1.545e+04 3.944e-09
 29.79487      3.0 1.567e+04 4.262e-09
 29.80285      2.7 1.590e+04 4.460e-09
 29.81266      1.7 1.693e+04 6.251e-09
 29.82248      0.3 1.748e+04 7.872e-09
 29.83229     -0.5 1.804e+04 1.054e-08
 29.84210     -1.3 1.832e+04 1.248e-08
 29.85192     -1.6 1.869e+04 1.466e-08
 29.86173     -2.1 1.886e+04 1.552e-08
 29.87155     -2.4 1.908e+04 1.508e-08
 29.88057     -3.2 1.904e+04 1.336e-08
 29.88548     -3.5 1.920e+04 1.556e-08
 29.89613     -4.6 1.870e+04 1.210e-08
 29.91581     -5.8 1.840e+04 9.116e-09
 29.93544     -7.9 1.810e+04 5.996e-09
 29.95506    -11.1 1.736e+04 4.377e-09
 29.97469    -14.1 1.679e+04 4.052e-09
 29.99432    -15.7 1.643e+04 4.396e-09
 30.00722    -16.2 1.636e+04 5.561e-09
 30.01704    -16.7 1.623e+04 6.103e-09
 30.03358    -16.4 1.615e+04 6.135e-09
 30.05321    -16.0 1.576e+04 5.469e-09
 30.07283    -15.5 1.511e+04 4.168e-09
 30.09246    -15.2 1.436e+04 2.705e-09
 30.10542    -15.5 1.327e+04 1.526e-09
 30.11523    -14.8 1.360e+04 1.805e-09
 30.13172    -15.5 1.232e+04 9.882e-10
 30.15135    -16.6 1.106e+04 5.553e-10
 30.18089    -17.3 1.056e+04 3.732e-10
 30.22024    -16.9 1.040e+04 3.201e-10
 30.25950    -14.9 1.021e+04 3.069e-10
 30.29875    -12.5 1.020e+04 3.000e-10
 30.33801     -9.9 1.031e+04 3.085e-10
 30.37727     -7.3 1.064e+04 3.541e-10
 30.41120     -4.8 1.082e+04 3.995e-10
 30.43083     -3.5 1.121e+04 4.315e-10
 30.44587     -1.3 1.115e+04 4.475e-10
 30.46540     -1.2 1.114e+04 4.480e-10
 30.48503      0.8 1.147e+04 5.311e-10
 30.50361      1.0 1.157e+04 6.129e-10
 30.51352      3.2 1.100e+04 3.240e-10
 30.52438      3.7 1.156e+04 5.300e-10
 30.54391      3.8 1.173e+04 7.101e-10
 30.56354      4.8 1.199e+04 1.075e-09
 30.58317      5.7 1.227e+04 1.376e-09
 30.60279      6.7 1.262e+04 1.701e-09
 30.62242      7.8 1.298e+04 1.986e-09
 30.64205      8.7 1.328e+04 2.188e-09
 30.66168      9.4 1.352e+04 2.321e-09
 30.68131     10.0 1.379e+04 2.408e-09
 30.70094     10.4 1.381e+04 2.298e-09
 30.72056     10.6 1.366e+04 2.103e-09
 30.73623     10.8 1.360e+04 2.009e-09
 30.74604     11.3 1.427e+04 2.529e-09
 30.75671     11.7 1.425e+04 2.508e-09
 30.76653     12.9 1.477e+04 2.875e-09
 30.77945     13.7 1.492e+04 3.104e-09
 30.79412     15.0 1.496e+04 3.119e-09
 30.80389     15.1 1.493e+04 3.097e-09
 30.81370     16.3 1.495e+04 3.049e-09
 30.82351     15.6 1.619e+04 2.978e-09
 30.83333     13.3 2.567e+04 3.585e-09
 30.84314     11.3 3.155e+04 6.435e-09
 30.85296     11.7 3.275e+04 7.959e-09
 30.86277      1.2 4.032e+04 1.124e-08
 30.87259    -13.7 3.611e+04 3.217e-08
 30.88240    -24.7 2.851e+04 7.693e-08
 30.88807    -30.0 2.445e+04 9.233e-08
 30.89298    -35.0 2.742e+04 2.195e-07
 30.89874    -38.5 3.237e+04 5.500e-08
 30.90365    -41.0 3.508e+04 2.572e-08
 30.91184    -45.9 4.821e+04 4.269e-09
 30.92166    -52.5 4.576e+04 1.760e-09
 30.93643    -53.4 4.490e+04 1.206e-09
 30.95610    -66.6 2.282e+04 9.958e-10
 30.97573    -69.9 1.387e+04 1.123e-09
 30.99536    -66.9 1.339e+04 1.063e-09
 31.00982    -63.9 1.329e+04 1.074e-09
 31.01963    -64.1 1.350e+04 1.245e-09
 31.03462    -62.0 1.356e+04 1.286e-09
 31.05163    -60.6 1.362e+04 1.440e-09
 31.06145    -61.2 1.394e+04 1.680e-09
 31.07387    -60.1 1.412e+04 2.017e-09
 31.09350    -59.3 1.439e+04 2.504e-09
 31.11313    -58.5 1.470e+04 3.121e-09
 31.13276    -57.7 1.499e+04 3.787e-09
 31.15238    -56.9 1.522e+04 4.325e-09
 31.17201    -56.1 1.535e+04 4.618e-09
 31.19164    -55.2 1.536e+04 4.691e-09
 31.21127    -54.4 1.519e+04 4.422e-09
 31.23090    -53.5 1.488e+04 3.899e-09
 31.25053    -52.7 1.449e+04 3.305e-09
 31.26292    -51.9 1.404e+04 2.750e-09
 31.27273    -52.9 1.314e+04 1.708e-09
 31.28978    -52.0 1.265e+04 1.409e-09
 31.30941    -51.1 1.219e+04 1.186e-09
 31.32904    -49.9 1.174e+04 1.019e-09
 31.34867    -48.5 1.139e+04 9.086e-10
 31.36704    -47.2 1.117e+04 8.440e-10
 31.37685    -47.5 1.132e+04 9.119e-10
 31.38792    -46.3 1.112e+04 8.635e-10
 31.40755    -44.8 1.100e+04 8.414e-10
 31.42718    -43.3 1.102e+04 8.684e-10
 31.44681    -41.8 1.117e+04 9.342e-10
 31.46644    -40.5 1.134e+04 1.015e-09
 31.48606    -39.1 1.148e+04 1.095e-09
 31.50569    -37.7 1.162e+04 1.182e-09
 31.51602    -36.2 1.177e+04 1.284e-09
 31.52584    -37.2 1.181e+04 1.344e-09
 31.54495    -35.8 1.194e+04 1.427e-09
 31.56458    -34.4 1.204e+04 1.489e-09
 31.58421    -33.1 1.216e+04 1.558e-09
 31.60383    -31.9 1.230e+04 1.628e-09
 31.62346    -30.7 1.245e+04 1.698e-09
 31.64309    -29.5 1.261e+04 1.776e-09
 31.66272    -28.2 1.277e+04 1.853e-09
 31.68235    -26.9 1.297e+04 1.933e-09
 31.69226    -25.8 1.335e+04 2.083e-09
 31.70207    -26.9 1.394e+04 2.482e-09
 31.72160    -26.1 1.472e+04 2.969e-09
 31.74123    -25.8 1.580e+04 3.830e-09
 31.75931    -25.8 1.679e+04 5.142e-09
 31.76912    -29.2 1.637e+04 4.846e-09
 31.78049    -29.0 1.670e+04 6.049e-09
 31.80012    -28.7 1.707e+04 7.207e-09
 31.81974    -29.1 1.847e+04 8.323e-09
 31.83937    -34.1 2.280e+04 1.022e-08
 31.84991    -39.5 2.710e+04 1.406e-08
 31.85477    -41.4 2.727e+04 1.478e-08
 31.86381    -47.6 2.819e+04 1.709e-08
 31.87362    -55.0 2.839e+04 1.984e-08
 31.88344    -62.8 2.774e+04 2.059e-08
 31.89067    -69.6 2.648e+04 1.874e-08
 31.89558    -70.0 2.537e+04 1.658e-08
 31.90307    -76.1 2.478e+04 1.257e-08
 31.91784    -80.7 2.483e+04 8.937e-09
 31.93751    -91.2 2.267e+04 2.496e-09
 31.95714   -103.0 1.561e+04 6.638e-10
 31.97677   -109.3 1.080e+04 4.269e-10
 31.99640   -111.2 1.018e+04 2.966e-10
 32.00766   -111.9 9.923e+03 2.612e-10
 32.01386   -111.8 9.953e+03 2.648e-10
 32.02223   -109.9 9.849e+03 2.572e-10
 32.03565   -109.9 9.702e+03 2.395e-10
 32.06519   -109.6 9.508e+03 2.183e-10
 32.10455   -108.1 9.127e+03 1.791e-10
 32.14380   -106.4 8.824e+03 1.468e-10
 32.18306   -104.6 8.672e+03 1.245e-10
 32.22232   -102.6 8.531e+03 1.088e-10
 32.26157   -100.5 8.400e+03 9.858e-11
 32.30083    -98.2 8.318e+03 9.463e-11
 32.32326    -95.9 8.311e+03 9.424e-11
 32.34289    -95.7 8.376e+03 1.018e-10
 32.37934    -93.7 8.434e+03 1.090e-10
 32.41860    -91.9 8.718e+03 1.469e-10
 32.45786    -89.9 9.055e+03 2.071e-10
 32.49711    -87.7 9.277e+03 2.653e-10
 32.51881    -85.6 9.407e+03 3.017e-10
 32.53844    -83.9 9.155e+03 2.665e-10
 32.57563    -81.8 9.277e+03 2.971e-10
 32.61488    -79.8 9.311e+03 3.058e-10
 32.65414    -77.8 9.271e+03 2.985e-10
 32.69339    -75.7 9.124e+03 2.674e-10
 32.73265    -73.7 8.965e+03 2.381e-10
 32.77191    -71.6 8.916e+03 2.270e-10
 32.81116    -69.6 8.918e+03 2.261e-10
 32.85042    -68.1 9.108e+03 2.594e-10
 32.88968    -67.1 9.786e+03 3.895e-10
 32.92893    -66.1 1.061e+04 6.520e-10
 32.95408    -65.1 1.140e+04 1.022e-09
 32.97370    -66.4 1.174e+04 1.193e-09
 33.00539    -65.9 1.207e+04 1.345e-09
 33.02502    -63.9 1.179e+04 1.249e-09
 33.04670    -63.5 1.193e+04 1.299e-09
 33.08596    -63.1 1.175e+04 1.156e-09
 33.12521    -62.6 1.147e+04 9.442e-10
 33.15456    -62.1 1.125e+04 8.333e-10
 33.17409    -62.2 1.088e+04 6.538e-10
 33.20363    -62.0 1.056e+04 5.229e-10
 33.24298    -60.8 9.858e+03 3.461e-10
 33.28224    -59.9 9.263e+03 2.356e-10
 33.32150    -59.3 8.950e+03 1.866e-10
 33.36075    -58.8 8.839e+03 1.744e-10
 33.40001    -58.3 8.903e+03 1.892e-10
 33.43927    -57.7 9.017e+03 2.146e-10
 33.47852    -57.5 9.337e+03 2.622e-10
 33.51159    -57.4 9.895e+03 3.539e-10
 33.53122    -56.0 9.783e+03 3.340e-10
 33.54712    -57.4 1.034e+04 4.591e-10
 33.56665    -58.8 1.080e+04 6.498e-10
 33.58469    -59.6 1.131e+04 9.160e-10
 33.59451    -60.3 1.123e+04 8.797e-10
 33.60591    -60.8 1.165e+04 1.090e-09
 33.62554    -61.7 1.198e+04 1.234e-09
 33.64517    -62.9 1.216e+04 1.288e-09
 33.66480    -64.7 1.227e+04 1.316e-09
 33.68442    -66.9 1.243e+04 1.376e-09
 33.70405    -69.3 1.270e+04 1.537e-09
 33.72368    -71.6 1.320e+04 1.907e-09
 33.74331    -73.5 1.380e+04 2.478e-09
 33.76294    -75.2 1.436e+04 3.166e-09
 33.77431    -76.8 1.480e+04 3.821e-09
 33.78413    -77.5 1.492e+04 3.986e-09
 33.80219    -78.9 1.509e+04 4.397e-09
 33.82182    -80.1 1.512e+04 4.492e-09
 33.84145    -81.0 1.487e+04 4.398e-09
 33.86108    -81.6 1.450e+04 3.883e-09
 33.88071    -82.0 1.400e+04 3.190e-09
 33.90010    -82.4 1.336e+04 2.380e-09
 33.90991    -83.3 1.298e+04 1.981e-09
 33.91996    -83.7 1.209e+04 1.307e-09
 33.93959    -84.1 1.126e+04 8.642e-10
 33.95922    -84.4 1.061e+04 5.938e-10
 33.97885    -84.6 1.022e+04 4.305e-10
 33.99847    -84.6 1.002e+04 3.504e-10
 34.01770    -83.9 9.949e+03 3.181e-10
 34.02751    -84.3 9.931e+03 3.370e-10
 34.03773    -84.1 9.900e+03 3.347e-10
 34.06727    -83.4 9.889e+03 3.465e-10
 34.10663    -82.6 9.788e+03 3.374e-10
 34.14588    -81.9 9.762e+03 3.575e-10
 34.18514    -81.4 9.850e+03 4.156e-10
 34.21570    -80.6 9.958e+03 4.805e-10
 34.23533    -81.6 9.997e+03 4.950e-10
 34.26365    -81.1 1.008e+04 5.485e-10
 34.30291    -80.7 1.011e+04 5.684e-10
 34.34216    -80.2 1.011e+04 5.638e-10
 34.38142    -79.6 1.011e+04 5.423e-10
 34.42068    -79.1 1.007e+04 5.221e-10
 34.45993    -78.9 1.013e+04 5.382e-10
 34.49919    -78.8 1.028e+04 5.755e-10
 34.52400    -78.8 1.036e+04 6.064e-10
 34.54363    -78.9 1.049e+04 7.189e-10
 34.57770    -78.7 1.033e+04 6.636e-10
 34.61696    -78.5 9.985e+03 5.162e-10
 34.65622    -78.0 9.501e+03 3.608e-10
 34.69547    -77.3 8.982e+03 2.372e-10
 34.73473    -76.5 8.563e+03 1.638e-10
 34.77398    -75.6 8.420e+03 1.371e-10
 34.81324    -74.3 8.369e+03 1.213e-10
 34.84651    -72.9 8.345e+03 1.093e-10
 34.86614    -73.0 8.339e+03 1.106e-10
 34.89175    -71.3 8.319e+03 1.009e-10
 34.93101    -69.6 8.282e+03 9.316e-11
 34.97027    -67.9 8.273e+03 8.580e-11
 35.00952    -66.1 8.275e+03 7.811e-11
 35.03021    -64.2 8.288e+03 7.019e-11
 35.04984    -63.7 8.312e+03 8.216e-11
 35.08804    -61.9 8.323e+03 7.145e-11
 35.12729    -60.2 8.347e+03 6.383e-11
 35.16655    -58.6 8.373e+03 6.099e-11
 35.20581    -57.1 8.377e+03 6.073e-11
 35.24506    -56.1 8.652e+03 6.813e-11
 35.28432    -55.1 8.892e+03 1.016e-10
 35.32357    -54.1 9.191e+03 1.564e-10
 35.36283    -53.0 9.530e+03 2.229e-10
 35.40209    -52.0 9.817e+03 2.739e-10
 35.44134    -51.2 9.923e+03 2.886e-10
 35.47732    -50.5 9.925e+03 2.863e-10
 35.49695    -50.8 9.864e+03 2.729e-10
 35.51678    -49.7 9.746e+03 2.439e-10
 35.53641    -49.6 9.784e+03 2.556e-10
 35.55911    -48.4 9.574e+03 2.114e-10
 35.59837    -47.0 9.398e+03 1.728e-10
 35.63763    -45.5 9.241e+03 1.400e-10
 35.67688    -43.9 9.100e+03 1.122e-10
 35.71614    -42.4 8.996e+03 9.264e-11
 35.75539    -41.0 8.979e+03 8.546e-11
 35.79465    -39.7 8.982e+03 8.422e-11
 35.83391    -38.7 9.092e+03 9.625e-11
 35.87316    -37.7 9.266e+03 1.380e-10
 35.91242    -36.6 9.488e+03 1.937e-10
 35.95168    -35.5 9.741e+03 2.362e-10
 35.99093    -34.8 9.866e+03 2.475e-10
 36.02299    -34.4 9.923e+03 2.405e-10
 36.04262    -34.1 9.753e+03 2.173e-10
 36.06945    -33.7 9.652e+03 2.032e-10
 36.10813    -32.9 9.598e+03 2.000e-10
 36.12776    -33.3 9.807e+03 2.768e-10
 36.14796    -32.0 9.712e+03 2.501e-10
 36.18722    -30.4 9.656e+03 2.074e-10
 36.22647    -28.9 9.596e+03 1.791e-10
 36.26573    -27.4 9.611e+03 1.679e-10
 36.30498    -25.8 9.613e+03 1.657e-10
 36.34424    -24.2 9.709e+03 1.790e-10
 36.38350    -22.6 9.792e+03 2.047e-10
 36.42275    -20.8 9.871e+03 2.238e-10
 36.46201    -19.1 9.945e+03 2.311e-10
 36.50127    -17.5 1.000e+04 2.322e-10
 36.52919    -15.9 1.010e+04 2.338e-10
 36.54882    -16.0 9.979e+03 2.237e-10
 36.57978    -14.5 1.012e+04 2.509e-10
 36.61904    -12.7 1.032e+04 2.845e-10
 36.64838    -11.3 1.053e+04 3.126e-10
 36.66791    -11.0 1.052e+04 3.196e-10
 36.68754    -10.4 1.080e+04 3.717e-10
 36.70717    -10.4 1.115e+04 4.696e-10
 36.72680    -10.6 1.165e+04 6.386e-10
 36.74642    -11.0 1.216e+04 9.396e-10
 36.75837    -11.1 1.261e+04 1.396e-09
 36.76819    -12.0 1.329e+04 2.040e-09
 36.78210    -11.1 1.375e+04 2.816e-09
 36.79192    -11.3 1.323e+04 2.094e-09
 36.80531    -10.5 1.342e+04 2.181e-09
 36.82494    -10.2 1.350e+04 1.925e-09
 36.84457    -10.8 1.309e+04 1.509e-09
 36.86419    -12.8 1.272e+04 1.404e-09
 36.88382    -16.2 1.407e+04 1.709e-09
 36.90345    -21.3 1.760e+04 3.982e-09
 36.92308    -24.5 1.937e+04 9.512e-09
 36.94271    -25.6 1.991e+04 1.745e-08
 36.96233    -25.8 1.987e+04 2.062e-08
 36.98196    -25.5 1.882e+04 1.483e-08
 37.00159    -25.8 1.731e+04 6.351e-09
 37.02122    -29.1 1.537e+04 2.041e-09
 37.03520    -33.4 1.288e+04 7.027e-10
 37.04502    -31.2 1.356e+04 8.162e-10
 37.06048    -34.3 1.225e+04 4.186e-10
 37.07378    -35.0 1.178e+04 3.812e-10
 37.08359    -35.1 1.154e+04 3.828e-10
 37.09973    -34.4 1.152e+04 3.755e-10
 37.11936    -33.9 1.151e+04 3.774e-10
 37.13899    -33.4 1.154e+04 3.958e-10
 37.15862    -32.8 1.157e+04 4.269e-10
 37.17824    -32.2 1.159e+04 4.633e-10
 37.19787    -31.5 1.161e+04 4.994e-10
 37.21750    -30.8 1.162e+04 5.295e-10
 37.23713    -30.1 1.164e+04 5.500e-10
 37.25676    -29.5 1.165e+04 5.597e-10
 37.27639    -29.0 1.163e+04 5.553e-10
 37.28831    -28.6 1.159e+04 5.399e-10
 37.29812    -28.8 1.158e+04 5.324e-10
 37.31564    -28.3 1.152e+04 4.986e-10
 37.33527    -27.7 1.145e+04 4.474e-10
 37.35490    -27.2 1.141e+04 3.903e-10
 37.37453    -26.7 1.141e+04 3.481e-10
 37.38928    -26.3 1.144e+04 3.327e-10
 37.40901    -25.4 1.139e+04 3.302e-10
 37.44342    -24.1 1.129e+04 2.879e-10
 37.48268    -22.5 1.108e+04 2.689e-10
 37.52193    -20.6 1.094e+04 2.600e-10
 37.56119    -19.0 1.077e+04 2.519e-10
 37.60045    -16.6 1.063e+04 2.317e-10
 37.63970    -14.1 1.057e+04 2.090e-10
 37.67896    -11.8 1.055e+04 1.897e-10
 37.71822     -9.6 1.057e+04 1.844e-10
 37.75747     -7.6 1.070e+04 1.994e-10
 37.79673     -5.8 1.078e+04 2.423e-10
 37.83598     -3.9 1.082e+04 3.014e-10
 37.87524     -1.6 1.091e+04 3.455e-10
 37.91450      0.2 1.089e+04 3.552e-10
 37.95375      2.2 1.068e+04 3.062e-10
 37.99301      3.8 1.057e+04 2.431e-10
 38.02019      5.2 1.055e+04 2.127e-10
 38.03573      5.1 1.061e+04 2.334e-10
 38.04781      5.1 1.054e+04 2.368e-10
 38.07152      6.7 1.072e+04 2.647e-10
 38.11078      8.3 1.083e+04 4.071e-10
 38.15004     11.1 1.121e+04 5.951e-10
 38.18929     13.6 1.159e+04 6.935e-10
 38.22855     15.4 1.181e+04 7.076e-10
 38.25789     16.9 1.201e+04 6.966e-10
 38.27742     17.0 1.208e+04 7.064e-10
 38.29090     17.4 1.223e+04 8.281e-10
 38.30072     17.4 1.218e+04 8.143e-10
 38.31668     18.6 1.196e+04 8.633e-10
 38.33540     20.1 1.196e+04 8.375e-10
 38.34521     19.8 1.202e+04 8.070e-10
 38.35594     21.0 1.197e+04 7.641e-10
 38.37557     22.0 1.199e+04 6.847e-10
 38.39519     22.8 1.185e+04 6.473e-10
 38.41482     23.6 1.168e+04 6.262e-10
 38.43445     24.6 1.155e+04 5.963e-10
 38.45408     25.7 1.155e+04 5.850e-10
 38.47371     26.7 1.153e+04 5.863e-10
 38.49333     28.1 1.136e+04 5.481e-10
 38.51296     29.0 1.139e+04 5.462e-10
 38.53259     30.5 1.124e+04 5.243e-10
 38.54400     31.2 1.136e+04 5.410e-10
 38.55382     31.3 1.147e+04 5.739e-10
 38.57185     32.6 1.134e+04 5.659e-10
 38.59148     33.5 1.141e+04 5.840e-10
 38.61110     34.9 1.131e+04 5.784e-10
 38.63073     35.7 1.143e+04 6.029e-10
 38.65036     37.4 1.145e+04 6.199e-10
 38.66062     37.6 1.150e+04 6.289e-10
 38.67053     36.4 1.167e+04 6.927e-10
 38.69963     38.6 1.186e+04 7.403e-10
 38.72897     40.3 1.185e+04 7.575e-10
 38.74850     41.1 1.209e+04 8.286e-10
 38.76813     41.7 1.238e+04 9.524e-10
 38.78729     42.4 1.270e+04 1.174e-09
 38.79711     42.4 1.280e+04 1.247e-09
 38.80739     43.2 1.326e+04 1.594e-09
 38.82701     44.0 1.368e+04 1.992e-09
 38.84664     45.0 1.403e+04 2.357e-09
 38.86627     45.9 1.430e+04 2.680e-09
 38.88590     46.8 1.453e+04 2.929e-09
 38.90553     47.5 1.485e+04 3.174e-09
 38.92516     47.6 1.531e+04 3.510e-09
 38.94478     47.4 1.592e+04 4.094e-09
 38.96441     46.9 1.653e+04 5.076e-09
 38.97602     46.8 1.706e+04 6.362e-09
 38.98584     46.7 1.690e+04 7.720e-09
 39.00367     47.2 1.722e+04 8.934e-09
 39.02330     47.8 1.722e+04 8.771e-09
 39.04039     48.6 1.696e+04 7.527e-09
 39.05021     48.1 1.631e+04 4.723e-09
 39.06255     48.4 1.575e+04 3.333e-09
 39.08218     48.2 1.502e+04 2.195e-09
 39.10181     47.7 1.425e+04 1.539e-09
 39.12144     47.6 1.341e+04 1.138e-09
 39.14107     47.5 1.286e+04 9.410e-10
 39.16069     48.1 1.234e+04 8.121e-10
 39.18032     48.6 1.222e+04 7.816e-10
 39.19995     49.7 1.198e+04 7.050e-10
 39.21958     50.4 1.192e+04 6.669e-10
 39.23921     51.3 1.178e+04 6.267e-10
 39.25883     52.2 1.157e+04 5.945e-10
 39.28171     53.7 1.119e+04 4.845e-10
 39.29675     54.4 1.136e+04 5.772e-10
 39.30331     54.2 1.119e+04 5.110e-10
 39.31772     56.1 1.108e+04 4.983e-10
 39.33735     56.7 1.110e+04 5.023e-10
 39.36689     59.3 1.124e+04 5.731e-10
 39.40624     62.1 1.113e+04 5.522e-10
 39.44550     64.9 1.094e+04 4.967e-10
 39.48475     67.6 1.077e+04 4.332e-10
 39.52401     70.4 1.061e+04 3.773e-10
 39.54679     73.1 1.056e+04 3.557e-10
 39.56642     72.7 1.003e+04 2.223e-10
 39.60252     75.4 9.951e+03 2.109e-10
 39.64178     78.0 9.868e+03 2.070e-10
 39.68104     80.7 9.810e+03 2.093e-10
 39.72029     83.2 9.802e+03 2.226e-10
 39.75955     85.8 9.777e+03 2.354e-10
 39.79881     88.0 9.795e+03 2.457e-10
 39.82815     89.4 9.698e+03 2.426e-10
 39.84768     90.5 9.609e+03 2.410e-10
 39.86731     91.8 9.606e+03 2.462e-10
 39.88694     92.9 9.754e+03 2.669e-10
 39.90657     93.5 1.055e+04 3.196e-10
 39.92224     93.5 1.164e+04 4.394e-10
 39.93205     94.8 1.070e+04 4.148e-10
 39.94582     94.8 1.190e+04 5.944e-10
 39.96545     94.8 1.325e+04 9.634e-10
 39.98508     95.2 1.438e+04 1.627e-09
 40.00471     96.2 1.530e+04 2.737e-09
 40.02433     97.8 1.614e+04 4.329e-09
 40.04299     99.6 1.694e+04 6.435e-09
 40.05276     99.9 1.674e+04 6.262e-09
 40.05859    100.4 1.717e+04 7.439e-09
 40.06840    101.1 1.758e+04 8.862e-09
 40.07821    102.0 1.789e+04 1.045e-08
 40.08475    103.0 1.814e+04 1.234e-08
 40.08966    103.3 1.858e+04 1.325e-08
 40.09784    104.4 1.887e+04 1.579e-08
 40.10766    105.4 1.906e+04 1.895e-08
 40.11747    106.3 1.920e+04 2.293e-08
 40.12729    107.2 1.934e+04 2.790e-08
 40.13710    108.1 1.945e+04 3.393e-08
 40.14691    109.0 1.957e+04 4.131e-08
 40.15673    110.0 1.980e+04 5.061e-08
 40.16654    110.7 2.014e+04 6.195e-08
 40.17435    110.7 2.047e+04 7.328e-08
 40.17926    110.9 2.077e+04 6.146e-08
 40.18617    110.5 2.120e+04 7.067e-08
 40.19598    110.2 2.149e+04 7.753e-08
 40.20580    110.0 2.173e+04 8.177e-08
 40.21561    110.1 2.224e+04 8.384e-08
 40.22543    110.6 2.302e+04 8.613e-08
 40.23524    110.5 2.436e+04 9.077e-08
 40.24246    108.6 2.572e+04 1.080e-07
 40.24736    110.8 2.292e+04 3.717e-07
 40.25487    107.4 2.438e+04 4.885e-07
 40.26468     96.2 2.980e+04 3.333e-07
 40.27450     84.5 2.876e+04 3.190e-07
 40.28431     82.1 2.902e+04 1.606e-07
 40.29412     82.6 3.172e+04 4.543e-08
 40.30090     82.0 3.132e+04 1.726e-08
 40.30581     82.1 2.815e+04 1.059e-08
 40.31375     81.9 2.526e+04 9.788e-09
 40.32357     82.1 2.399e+04 8.867e-09
 40.33834     83.6 2.194e+04 9.324e-09
 40.35801     85.7 2.049e+04 6.813e-09
 40.37764     87.4 1.969e+04 4.498e-09
 40.39727     88.8 1.957e+04 3.133e-09
 40.41690     90.2 1.929e+04 2.034e-09
 40.43653     91.5 1.853e+04 1.383e-09
 40.45616     92.6 1.704e+04 9.849e-10
 40.47578     93.6 1.549e+04 7.589e-10
 40.49541     94.3 1.389e+04 6.106e-10
 40.51504     94.6 1.240e+04 5.289e-10
 40.53467     94.9 1.160e+04 5.145e-10
 40.54919     95.1 1.144e+04 5.281e-10
 40.55776     95.6 9.710e+03 3.524e-10
 40.56287     96.1 1.257e+04 7.020e-10
 40.57392     96.1 1.262e+04 7.513e-10
 40.59355     96.0 1.271e+04 8.755e-10
 40.61318     95.9 1.299e+04 1.074e-09
 40.63281     95.9 1.339e+04 1.344e-09
 40.65244     95.9 1.397e+04 1.704e-09
 40.67207     96.3 1.400e+04 1.950e-09
 40.69169     96.5 1.358e+04 1.975e-09
 40.71132     96.3 1.345e+04 2.121e-09
 40.73095     96.0 1.345e+04 2.325e-09
 40.75058     95.8 1.357e+04 2.389e-09
 40.77021     95.3 1.338e+04 2.316e-09
 40.78983     94.0 1.332e+04 2.069e-09
 40.80230     92.3 1.302e+04 1.746e-09
 40.81211     92.6 1.335e+04 2.087e-09
 40.82909     90.9 1.311e+04 1.907e-09
 40.84872     89.3 1.275e+04 1.708e-09
 40.86835     88.4 1.226e+04 1.494e-09
 40.89789     87.1 1.128e+04 9.321e-10
 40.93724     86.4 1.023e+04 5.006e-10
 40.97650     85.3 9.302e+03 2.542e-10
 41.01575     84.3 8.790e+03 1.784e-10
 41.04578     84.7 8.715e+03 1.745e-10
 41.06541     84.5 8.748e+03 1.789e-10
 41.09427     85.5 8.779e+03 1.888e-10
 41.13352     86.6 8.939e+03 2.208e-10
 41.17278     87.8 9.013e+03 2.418e-10
 41.19387     88.9 8.996e+03 2.397e-10
 41.21350     89.2 8.904e+03 2.173e-10
 41.25129     90.5 8.783e+03 1.923e-10
 41.29055     92.0 8.589e+03 1.499e-10
 41.32981     93.4 8.380e+03 1.111e-10
 41.36906     94.8 8.186e+03 8.527e-11
 41.40832     96.2 8.015e+03 7.467e-11
 41.44758     97.9 7.974e+03 7.390e-11
 41.48683     99.7 7.980e+03 7.448e-11
 41.52609    101.3 8.000e+03 8.068e-11
 41.55199    102.8 8.111e+03 1.055e-10
 41.57161    103.2 8.036e+03 8.919e-11
 41.60460    105.0 8.291e+03 1.299e-10
 41.64386    106.7 8.840e+03 2.113e-10
 41.68311    107.4 9.352e+03 3.196e-10
 41.71246    107.3 9.589e+03 4.046e-10
 41.73199    107.4 9.870e+03 5.141e-10
 41.75162    107.7 1.023e+04 6.753e-10
 41.77125    108.0 1.059e+04 8.444e-10
 41.79087    108.1 1.088e+04 9.775e-10
 41.80489    108.1 1.107e+04 1.027e-09
 41.81471    108.6 1.133e+04 1.200e-09
 41.82449    108.5 1.134e+04 1.175e-09
 41.83430    108.6 1.141e+04 1.193e-09
 41.84976    108.2 1.124e+04 9.850e-10
 41.86939    107.5 1.094e+04 7.431e-10
 41.88901    106.3 1.054e+04 5.577e-10
 41.90864    104.8 1.028e+04 5.148e-10
 41.92827    103.4 1.032e+04 5.272e-10
 41.94790    101.4 1.059e+04 6.131e-10
 41.96753     99.1 1.136e+04 9.223e-10
 41.98716     97.0 1.229e+04 1.537e-09
 42.00678     95.5 1.315e+04 2.391e-09
 42.02641     94.0 1.389e+04 3.119e-09
 42.04604     92.0 1.436e+04 3.232e-09
 42.05799     89.3 1.436e+04 3.153e-09
 42.06781     90.1 1.435e+04 3.158e-09
 42.08530     87.3 1.413e+04 2.778e-09
 42.10492     84.7 1.350e+04 2.291e-09
 42.12455     82.4 1.271e+04 1.831e-09
 42.13989     80.6 1.207e+04 1.475e-09
 42.14971     81.0 1.224e+04 1.563e-09
 42.16381     79.5 1.176e+04 1.287e-09
 42.18344     78.2 1.141e+04 1.076e-09
 42.20307     77.1 1.105e+04 9.137e-10
 42.22269     76.4 1.069e+04 7.839e-10
 42.24232     76.1 1.037e+04 6.733e-10
 42.26195     76.0 1.010e+04 5.669e-10
 42.28158     75.9 9.920e+03 4.786e-10
 42.31112     76.3 9.788e+03 3.923e-10
 42.35047     75.9 9.453e+03 3.219e-10
 42.38973     76.0 9.435e+03 3.263e-10
 42.42899     76.5 9.553e+03 3.655e-10
 42.45549     77.7 9.829e+03 4.429e-10
 42.46521     77.4 9.799e+03 4.302e-10
 42.47786     77.8 9.930e+03 4.651e-10
 42.49749     78.4 1.004e+04 5.044e-10
 42.51712     79.4 1.021e+04 5.598e-10
 42.53675     80.1 1.034e+04 6.049e-10
 42.55439     80.9 1.043e+04 6.258e-10
 42.56420     81.6 1.022e+04 5.236e-10
 42.57600     82.3 1.032e+04 5.602e-10
 42.59563     83.2 1.037e+04 5.850e-10
 42.61526     84.2 1.040e+04 6.026e-10
 42.63489     85.1 1.041e+04 6.204e-10
 42.65451     86.2 1.047e+04 6.438e-10
 42.67414     87.3 1.060e+04 6.847e-10
 42.69377     88.3 1.078e+04 7.612e-10
 42.71340     89.3 1.105e+04 8.654e-10
 42.73303     90.3 1.151e+04 1.035e-09
 42.75266     90.4 1.201e+04 1.296e-09
 42.77070     90.1 1.288e+04 1.798e-09
 42.78052     88.9 1.268e+04 1.580e-09
 42.79191     87.0 1.434e+04 2.559e-09
 42.80749     84.3 1.606e+04 4.096e-09
 42.81730     86.6 1.616e+04 4.131e-09
 42.82621     82.9 1.790e+04 6.699e-09
 42.83598     80.6 1.866e+04 9.821e-09
 42.84579     79.1 1.901e+04 1.297e-08
 42.85561     78.1 1.912e+04 1.396e-08
 42.86542     76.5 1.920e+04 1.331e-08
 42.87523     75.6 1.911e+04 1.264e-08
 42.88505     72.4 1.976e+04 1.136e-08
 42.89486     71.4 1.966e+04 1.078e-08
 42.90963     65.7 2.129e+04 9.014e-09
 42.92931     57.8 2.050e+04 6.345e-09
 42.94398     55.0 1.873e+04 5.595e-09
 42.95375     53.6 1.792e+04 5.507e-09
 42.96356     52.6 1.789e+04 5.676e-09
 42.97338     51.9 1.795e+04 6.054e-09
 42.98319     51.5 1.806e+04 6.532e-09
 42.99300     51.3 1.820e+04 6.992e-09
 43.00282     50.9 1.855e+04 7.605e-09
 43.01263     50.5 1.880e+04 8.529e-09
 43.02245     50.1 1.901e+04 9.518e-09
 43.03226     49.6 1.931e+04 1.046e-08
 43.04207     48.9 1.973e+04 1.167e-08
 43.05189     48.4 2.002e+04 1.280e-08
 43.06049     47.7 2.050e+04 1.421e-08
 43.06540     46.9 2.115e+04 1.542e-08
 43.07152     46.7 2.114e+04 1.505e-08
 43.08133     45.7 2.120e+04 1.546e-08
 43.09092     45.2 2.097e+04 1.561e-08
 43.09583     46.1 2.206e+04 2.239e-08
 43.10096     45.2 2.191e+04 2.224e-08
 43.11077     44.7 2.152e+04 2.149e-08
 43.12059     43.9 2.113e+04 2.023e-08
 43.13040     43.5 2.089e+04 1.996e-08
 43.14022     43.3 2.050e+04 1.877e-08
 43.15003     43.2 2.030e+04 1.807e-08
 43.16480     43.0 1.958e+04 1.358e-08
 43.18448     42.8 1.850e+04 8.522e-09
 43.20410     42.2 1.721e+04 4.877e-09
 43.22373     41.0 1.574e+04 2.797e-09
 43.24336     39.6 1.404e+04 1.710e-09
 43.26299     39.1 1.246e+04 1.183e-09
 43.28262     39.3 1.156e+04 9.316e-10
 43.30225     40.1 1.123e+04 7.950e-10
 43.31369     41.3 1.112e+04 7.084e-10
 43.32351     42.4 1.083e+04 5.631e-10
 43.34150     43.7 1.083e+04 5.421e-10
 43.36113     44.6 1.079e+04 5.349e-10
 43.38076     45.7 1.078e+04 5.450e-10
 43.40039     46.6 1.074e+04 5.693e-10
 43.41133     47.6 1.072e+04 6.071e-10
 43.42114     47.8 1.076e+04 6.379e-10
 43.43964     48.9 1.074e+04 6.630e-10
 43.45927     50.2 1.074e+04 6.999e-10
 43.47890     51.5 1.071e+04 7.169e-10
 43.49853     52.9 1.063e+04 7.071e-10
 43.51816     54.1 1.064e+04 6.741e-10
 43.53778     54.8 1.083e+04 6.471e-10
 43.55698     54.7 1.133e+04 6.865e-10
 43.56680     55.6 1.133e+04 9.099e-10
 43.57704     55.4 1.191e+04 1.019e-09
 43.59667     54.8 1.277e+04 1.309e-09
 43.61630     53.9 1.363e+04 1.871e-09
 43.63593     53.2 1.419e+04 2.687e-09
 43.65555     53.4 1.453e+04 3.624e-09
 43.67518     54.0 1.481e+04 4.418e-09
 43.69481     54.5 1.507e+04 4.604e-09
 43.71444     54.9 1.508e+04 4.470e-09
 43.72673     55.2 1.491e+04 4.039e-09
 43.73655     54.1 1.497e+04 3.879e-09
 43.75369     54.1 1.467e+04 3.346e-09
 43.77332     53.9 1.427e+04 2.893e-09
 43.79295     53.9 1.388e+04 2.581e-09
 43.81008     54.2 1.357e+04 2.396e-09
 43.81990     54.7 1.343e+04 2.247e-09
 43.83221     55.2 1.321e+04 2.139e-09
 43.85184     56.1 1.311e+04 2.089e-09
 43.87146     56.9 1.305e+04 2.072e-09
 43.89109     57.7 1.299e+04 2.077e-09
 43.91072     58.3 1.298e+04 2.103e-09
 43.93035     58.9 1.294e+04 2.122e-09
 43.94998     59.7 1.290e+04 2.137e-09
 43.96960     60.4 1.285e+04 2.118e-09
 43.98923     61.2 1.273e+04 2.057e-09
 44.00886     62.0 1.262e+04 1.985e-09
 44.02849     62.5 1.253e+04 1.927e-09
 44.04214     62.9 1.256e+04 1.931e-09
 44.05195     62.7 1.245e+04 1.787e-09
 44.06319     62.6 1.267e+04 1.967e-09
 44.07300     62.0 1.286e+04 2.164e-09
 44.08737     61.6 1.328e+04 2.558e-09
 44.10700     60.8 1.394e+04 3.215e-09
 44.12663     58.6 1.512e+04 4.460e-09
 44.14626     55.0 1.693e+04 7.108e-09
 44.16589     50.9 1.843e+04 1.119e-08
 44.18551     46.3 1.957e+04 1.292e-08
 44.20514     37.7 2.208e+04 1.290e-08
 44.22477     28.2 2.187e+04 1.087e-08
 44.24440     21.1 1.766e+04 7.220e-09
 44.26403     17.0 1.459e+04 4.034e-09
 44.28366     14.6 1.393e+04 2.235e-09
 44.30328     11.3 1.261e+04 1.179e-09
 44.31629      8.3 1.084e+04 6.625e-10
 44.32610      9.5 1.125e+04 7.796e-10
 44.34254      8.3 1.022e+04 5.170e-10
 44.35754      8.5 9.997e+03 4.022e-10
 44.36736      8.0 9.988e+03 3.844e-10
 44.39171      7.0 9.679e+03 2.642e-10
 44.43106      7.0 9.203e+03 1.800e-10
 44.47032      7.6 9.007e+03 1.590e-10
 44.50958      8.6 9.092e+03 1.775e-10
 44.54883      9.9 9.186e+03 2.231e-10
 44.56959     11.6 9.314e+03 2.741e-10
 44.58921     11.8 9.331e+03 2.750e-10
 44.62734     13.9 9.461e+03 3.014e-10
 44.66660     15.8 9.507e+03 2.945e-10
 44.70586     18.0 9.305e+03 2.614e-10
 44.74511     20.2 9.062e+03 1.926e-10
 44.78437     21.6 8.907e+03 1.372e-10
 44.82363     23.4 8.771e+03 1.304e-10
 44.86288     24.9 8.849e+03 1.471e-10
 44.90214     26.6 9.104e+03 2.074e-10
 44.94140     28.2 9.495e+03 3.119e-10
 44.97074     29.1 9.666e+03 3.984e-10
 44.98835     29.9 9.950e+03 4.924e-10
 44.99817     29.8 1.020e+04 5.845e-10
 45.00990     30.5 1.075e+04 7.663e-10
 45.02953     30.7 1.127e+04 9.956e-10
 45.04916     30.8 1.173e+04 1.293e-09
 45.06578     31.2 1.207e+04 1.613e-09
 45.07560     31.3 1.180e+04 1.451e-09
 45.08841     32.0 1.205e+04 1.693e-09
 45.10804     32.8 1.225e+04 1.820e-09
 45.12767     33.5 1.236e+04 1.826e-09
 45.14730     33.8 1.240e+04 1.801e-09
 45.16693     34.1 1.244e+04 1.759e-09
 45.18655     34.2 1.250e+04 1.773e-09
 45.20618     33.8 1.285e+04 1.943e-09
 45.22581     32.8 1.364e+04 2.465e-09
 45.24544     31.8 1.469e+04 3.526e-09
 45.26507     30.8 1.584e+04 5.188e-09
 45.28469     30.1 1.671e+04 7.133e-09
 45.30376     29.3 1.687e+04 8.012e-09
 45.31357     29.3 1.565e+04 5.109e-09
 45.31888     28.9 1.527e+04 4.947e-09
 45.32870     29.5 1.463e+04 3.561e-09
 45.34358     29.1 1.431e+04 3.462e-09
 45.36321     28.6 1.411e+04 3.144e-09
 45.38284     27.6 1.396e+04 2.726e-09
 45.40246     26.2 1.373e+04 2.343e-09
 45.42209     24.8 1.345e+04 1.991e-09
 45.44172     23.7 1.300e+04 1.832e-09
 45.46135     23.4 1.261e+04 1.689e-09
 45.48098     23.6 1.230e+04 1.575e-09
 45.50060     24.1 1.200e+04 1.367e-09
 45.52023     24.4 1.167e+04 1.138e-09
 45.53986     24.7 1.131e+04 9.524e-10
 45.55949     24.5 1.124e+04 7.484e-10
 45.57199     24.4 1.091e+04 6.743e-10
 45.58180     24.9 1.132e+04 8.333e-10
 45.59875     24.8 1.102e+04 7.192e-10
 45.61837     24.9 1.076e+04 6.652e-10
 45.62898     25.1 1.066e+04 6.169e-10
 45.63879     25.6 1.116e+04 8.603e-10
 45.65763     25.8 1.104e+04 7.950e-10
 45.67726     26.3 1.092e+04 7.310e-10
 45.69689     26.7 1.079e+04 6.814e-10
 45.71652     27.2 1.073e+04 5.922e-10
 45.73614     27.6 1.066e+04 5.399e-10
 45.75577     27.9 1.057e+04 4.440e-10
 45.77540     28.1 1.045e+04 4.181e-10
 45.79503     28.9 1.023e+04 3.394e-10
 45.81466     29.0 1.018e+04 3.297e-10
 45.82509     29.7 9.966e+03 2.730e-10
 45.83490     29.6 9.821e+03 2.485e-10
 45.85391     29.6 9.805e+03 2.451e-10
 45.88345     30.7 9.884e+03 2.946e-10
 45.92281     31.8 9.828e+03 3.242e-10
 45.96206     33.2 9.797e+03 3.713e-10
 45.99141     34.5 9.856e+03 4.377e-10
 46.01094     35.0 9.896e+03 4.523e-10
 46.04048     36.7 9.860e+03 4.520e-10
 46.06857     38.3 9.856e+03 4.559e-10
 46.08820     38.4 9.654e+03 4.160e-10
 46.11909     40.0 9.492e+03 3.523e-10
 46.15835     41.3 9.323e+03 2.917e-10
 46.19760     42.5 9.097e+03 2.420e-10
 46.23686     43.9 8.815e+03 2.047e-10
 46.25999     45.6 8.527e+03 1.760e-10
 46.27961     44.9 8.921e+03 2.268e-10
 46.31537     46.4 9.028e+03 2.299e-10
 46.35463     48.0 9.251e+03 2.496e-10
 46.39388     49.7 9.513e+03 2.860e-10
 46.43314     51.6 9.687e+03 3.312e-10
 46.47240     53.8 9.766e+03 3.749e-10
 46.51165     56.1 9.813e+03 4.140e-10
 46.55091     58.4 9.904e+03 4.528e-10
 46.57478     60.7 1.003e+04 4.833e-10
 46.59441     61.7 9.752e+03 4.010e-10
 46.62942     63.9 1.003e+04 4.748e-10
 46.66868     65.8 1.023e+04 5.506e-10
 46.69802     67.5 1.020e+04 5.656e-10
 46.71755     67.8 1.022e+04 5.762e-10
 46.73718     69.9 1.011e+04 5.197e-10
 46.75681     70.4 1.011e+04 5.006e-10
 46.78635     73.1 1.013e+04 4.931e-10
 46.82570     75.4 9.871e+03 3.775e-10
 46.86496     77.4 9.521e+03 2.761e-10
 46.89080     79.6 9.202e+03 2.083e-10
 46.91042     79.0 8.701e+03 1.448e-10
 46.94347     81.4 8.674e+03 1.503e-10
 46.98273     84.0 8.789e+03 1.688e-10
 47.02199     86.8 8.969e+03 1.917e-10
 47.06124     89.4 9.195e+03 2.235e-10
 47.10050     91.9 9.688e+03 3.123e-10
 47.13976     94.1 9.868e+03 3.547e-10
 47.16910     96.2 9.915e+03 3.637e-10
 47.18863     96.7 9.953e+03 3.706e-10
 47.20601     98.6 9.974e+03 3.861e-10
 47.21582     98.3 1.005e+04 4.226e-10
 47.22789     99.8 1.021e+04 4.763e-10
 47.24752    101.3 1.039e+04 5.420e-10
 47.26714    102.8 1.058e+04 6.134e-10
 47.28677    104.1 1.073e+04 6.852e-10
 47.30640    105.4 1.088e+04 7.546e-10
 47.32407    106.6 1.103e+04 8.231e-10
 47.33389    106.5 1.109e+04 8.360e-10
 47.34566    107.7 1.120e+04 8.667e-10
 47.36528    108.8 1.131e+04 8.903e-10
 47.38491    109.9 1.145e+04 9.083e-10
 47.40454    110.9 1.162e+04 9.314e-10
 47.42417    111.9 1.182e+04 9.698e-10
 47.44380    112.7 1.203e+04 1.033e-09
 47.46343    113.7 1.227e+04 1.136e-09
 47.48305    114.7 1.257e+04 1.300e-09
 47.50268    115.8 1.290e+04 1.549e-09
 47.52141    116.7 1.323e+04 1.887e-09
 47.53123    116.2 1.348e+04 2.677e-09
 47.54194    117.4 1.371e+04 3.039e-09
 47.56157    118.5 1.405e+04 3.536e-09
 47.57718    119.5 1.443e+04 4.163e-09
 47.58699    119.6 1.417e+04 3.547e-09
 47.60082    120.7 1.457e+04 4.261e-09
 47.62045    121.9 1.504e+04 5.046e-09
 47.64008    122.9 1.546e+04 5.721e-09
 47.65971    123.6 1.579e+04 6.033e-09
 47.67934    124.1 1.603e+04 5.923e-09
 47.69401    123.9 1.617e+04 5.775e-09
 47.70363    123.8 1.627e+04 5.720e-09
 47.70854    124.2 1.624e+04 5.697e-09
 47.71359    124.1 1.640e+04 5.684e-09
 47.72340    123.8 1.655e+04 5.713e-09
 47.73322    123.5 1.664e+04 5.788e-09
 47.74303    123.2 1.668e+04 5.858e-09
 47.75284    122.9 1.674e+04 6.020e-09
 47.76266    122.5 1.687e+04 6.318e-09
 47.77247    121.9 1.712e+04 6.786e-09
 47.78229    121.1 1.739e+04 7.355e-09
 47.79210    120.3 1.770e+04 7.976e-09
 47.80191    119.6 1.796e+04 8.526e-09
 47.81173    118.9 1.828e+04 9.061e-09
 47.82154    118.3 1.841e+04 9.162e-09
 47.83023    117.9 1.877e+04 9.278e-09
 47.83514    117.0 1.917e+04 1.103e-08
 47.84117    116.7 1.918e+04 1.085e-08
 47.84658    115.5 1.993e+04 1.186e-08
 47.85645    112.6 1.901e+04 1.072e-08
 47.87562    110.9 1.749e+04 6.704e-09
 47.89525    108.9 1.500e+04 3.568e-09
 47.91487    107.1 1.264e+04 1.871e-09
 47.93450    106.1 1.126e+04 1.082e-09
 47.95413    105.8 1.074e+04 7.139e-10
 47.97376    105.7 1.053e+04 5.184e-10
 47.99339    105.9 1.022e+04 3.943e-10
 48.01302    106.2 9.891e+03 3.313e-10
 48.03264    106.8 9.659e+03 3.048e-10
 48.05227    107.2 9.633e+03 2.986e-10
 48.07367    108.5 9.564e+03 3.011e-10
 48.09329    108.5 9.590e+03 2.997e-10
 48.11116    109.6 9.577e+03 3.073e-10
 48.13078    109.9 9.573e+03 3.165e-10
 48.15041    110.9 9.599e+03 3.577e-10
 48.16204    111.2 9.631e+03 3.750e-10
 48.17195    111.2 9.619e+03 3.601e-10
 48.19968    112.4 9.766e+03 4.529e-10
 48.22902    113.6 9.810e+03 5.062e-10
 48.24855    114.2 9.833e+03 5.138e-10
 48.27809    115.9 9.819e+03 4.949e-10
 48.31745    117.4 9.608e+03 4.210e-10
 48.35670    118.9 9.293e+03 3.362e-10
 48.39596    120.4 8.925e+03 2.587e-10
 48.43522    121.9 8.570e+03 1.955e-10
 48.47447    123.5 8.284e+03 1.470e-10
 48.51373    124.9 8.066e+03 1.110e-10
 48.55299    126.3 7.917e+03 8.720e-11
 48.57997    127.7 7.893e+03 7.842e-11
 48.59960    127.9 7.886e+03 7.531e-11
 48.63150    129.2 7.893e+03 7.455e-11
 48.67076    130.5 7.911e+03 7.574e-11
 48.71001    131.7 8.016e+03 8.370e-11
 48.74927    132.8 8.202e+03 1.033e-10
 48.78323    133.7 8.467e+03 1.344e-10
 48.80286    133.9 8.276e+03 1.105e-10
 48.82778    134.3 8.517e+03 1.396e-10
 48.86704    134.3 8.796e+03 1.786e-10
 48.90629    134.0 9.114e+03 2.252e-10
 48.94555    133.6 9.518e+03 2.819e-10
 48.97490    132.4 9.862e+03 3.490e-10
 48.99443    131.1 1.026e+04 4.620e-10
 49.01405    129.9 1.071e+04 6.359e-10
 49.03368    128.8 1.121e+04 8.583e-10
 49.05331    128.0 1.172e+04 1.097e-09
 49.07294    127.3 1.214e+04 1.249e-09
 49.08598    126.6 1.226e+04 1.258e-09
 49.09579    127.0 1.222e+04 1.251e-09
 49.10825    126.3 1.219e+04 1.234e-09
 49.11807    127.7 1.189e+04 1.072e-09
 49.13182    127.1 1.185e+04 1.022e-09
 49.15145    126.9 1.167e+04 9.364e-10
 49.17108    126.9 1.145e+04 8.581e-10
 49.19071    127.1 1.125e+04 7.927e-10
 49.21034    127.4 1.110e+04 7.353e-10
 49.22996    127.9 1.099e+04 6.854e-10
 49.24959    128.6 1.092e+04 6.455e-10
 49.26922    129.2 1.086e+04 6.178e-10
 49.28885    130.1 1.082e+04 6.096e-10
 49.30848    130.9 1.087e+04 6.263e-10
 49.32811    131.0 1.112e+04 7.019e-10
 49.33908    130.5 1.202e+04 9.492e-10
 49.34889    131.6 1.169e+04 8.715e-10
 49.36736    130.6 1.316e+04 1.389e-09
 49.38699    129.1 1.520e+04 2.775e-09
 49.40662    127.8 1.705e+04 5.828e-09
 49.42366    127.0 1.842e+04 1.095e-08
 49.43347    128.5 1.731e+04 6.317e-09
 49.44587    127.6 1.849e+04 1.177e-08
 49.46550    127.2 1.931e+04 1.720e-08
 49.48018    126.9 1.958e+04 1.917e-08
 49.48994    126.6 1.976e+04 2.105e-08
 49.49975    126.6 1.959e+04 1.981e-08
 49.50957    126.7 1.937e+04 1.857e-08
 49.51938    127.0 1.890e+04 1.440e-08
 49.52920    127.0 1.849e+04 1.180e-08
 49.53901    126.8 1.781e+04 8.046e-09
 49.54882    126.4 1.724e+04 6.171e-09
 49.56359    125.9 1.647e+04 4.165e-09
 49.58237    123.6 1.464e+04 1.953e-09
 49.59218    125.3 1.595e+04 2.823e-09
 49.60290    121.8 1.298e+04 1.139e-09
 49.62253    119.3 1.091e+04 6.829e-10
 49.64216    119.3 1.065e+04 6.282e-10
 49.66178    119.8 1.053e+04 5.912e-10
 49.68141    120.5 1.044e+04 5.314e-10
 49.70104    121.2 1.036e+04 4.663e-10
 49.72067    121.5 1.029e+04 3.983e-10
 49.73906    121.5 1.024e+04 3.606e-10
 49.74888    122.1 1.028e+04 4.067e-10
 49.75993    122.1 1.016e+04 3.482e-10
 49.77955    122.1 1.012e+04 3.305e-10
 49.80909    123.0 1.006e+04 3.172e-10
 49.84845    124.2 9.921e+03 2.979e-10
 49.88770    125.5 9.755e+03 2.795e-10
 49.92696    126.9 9.620e+03 2.623e-10
 49.96622    128.3 9.523e+03 2.469e-10
 50.00547    129.8 9.439e+03 2.311e-10
 50.04473    131.3 9.353e+03 2.150e-10
 50.07895    132.6 9.359e+03 2.155e-10
 50.09858    132.3 9.378e+03 2.178e-10
 50.12324    134.0 9.375e+03 2.172e-10
 50.16250    135.9 9.411e+03 2.223e-10
 50.20176    137.7 9.563e+03 2.450e-10
 50.24101    139.4 9.823e+03 2.898e-10
 50.28027    140.5 1.002e+04 3.368e-10
 50.30961    141.0 1.010e+04 3.686e-10
 50.32914    141.9 1.030e+04 4.299e-10
 50.34168    142.6 1.070e+04 5.448e-10
 50.35149    142.6 1.049e+04 4.875e-10
 50.36840    143.0 1.094e+04 6.199e-10
 50.37969    142.8 1.153e+04 8.412e-10
 50.38950    142.1 1.171e+04 9.381e-10
 50.40766    141.3 1.271e+04 1.459e-09
 50.42728    139.8 1.405e+04 2.521e-09
 50.44691    138.3 1.538e+04 4.478e-09
 50.46654    137.1 1.645e+04 7.131e-09
 50.48617    135.9 1.705e+04 8.850e-09
 50.50580    134.4 1.703e+04 8.613e-09
 50.52543    133.0 1.663e+04 6.987e-09
 50.54505    131.3 1.571e+04 4.258e-09
 50.56468    128.6 1.414e+04 2.066e-09
 50.58431    125.3 1.226e+04 1.067e-09
 50.59478    122.2 1.078e+04 6.744e-10
 50.60459    122.0 1.087e+04 7.392e-10
 50.63348    118.0 1.064e+04 6.548e-10
 50.67283    115.0 1.040e+04 6.091e-10
 50.69529    113.9 1.050e+04 6.487e-10
 50.71492    114.8 9.617e+03 4.180e-10
 50.75135    114.5 9.948e+03 4.957e-10
 50.79060    114.3 1.033e+04 6.007e-10
 50.81995    113.6 1.077e+04 7.561e-10
 50.83807    113.0 1.121e+04 9.662e-10
 50.84788    112.9 1.100e+04 8.570e-10
 50.85911    112.4 1.147e+04 1.135e-09
 50.87873    112.0 1.193e+04 1.481e-09
 50.89836    111.9 1.234e+04 1.837e-09
 50.91799    111.7 1.264e+04 2.122e-09
 50.93762    111.5 1.279e+04 2.269e-09
 50.95725    111.3 1.278e+04 2.245e-09
 50.97687    111.1 1.267e+04 2.139e-09
 50.99650    110.9 1.247e+04 1.981e-09
 51.01050    110.7 1.224e+04 1.747e-09
 51.02031    111.6 1.224e+04 1.816e-09
 51.03576    111.5 1.205e+04 1.611e-09
 51.05539    111.3 1.186e+04 1.369e-09
 51.07502    110.7 1.177e+04 1.201e-09
 51.09117    109.9 1.179e+04 1.186e-09
 51.10098    109.4 1.214e+04 1.421e-09
 51.11427    108.6 1.215e+04 1.451e-09
 51.13390    108.0 1.223e+04 1.567e-09
 51.15353    107.7 1.239e+04 1.766e-09
 51.17316    107.8 1.263e+04 2.013e-09
 51.19279    108.0 1.290e+04 2.269e-09
 51.21241    108.1 1.308e+04 2.347e-09
 51.23204    108.3 1.306e+04 2.232e-09
 51.25167    108.4 1.292e+04 1.950e-09
 51.27130    108.4 1.257e+04 1.576e-09
 51.29093    108.2 1.219e+04 1.322e-09
 51.31055    107.9 1.191e+04 1.187e-09
 51.32590    107.6 1.187e+04 1.200e-09
 51.34563    108.1 1.216e+04 1.380e-09
 51.37945    107.4 1.222e+04 1.409e-09
 51.41870    107.2 1.244e+04 1.537e-09
 51.44805    107.3 1.292e+04 1.913e-09
 51.46758    107.4 1.311e+04 2.082e-09
 51.48721    107.4 1.333e+04 2.288e-09
 51.50684    107.7 1.341e+04 2.373e-09
 51.52646    108.1 1.331e+04 2.279e-09
 51.54609    108.4 1.316e+04 2.104e-09
 51.57563    108.4 1.230e+04 1.392e-09
 51.59757    108.6 1.150e+04 9.783e-10
 51.61720    108.6 1.165e+04 1.040e-09
 51.65424    109.6 1.074e+04 6.710e-10
 51.69350    111.1 9.959e+03 4.193e-10
 51.73276    113.0 9.356e+03 2.494e-10
 51.77201    114.8 8.830e+03 1.435e-10
 51.81127    116.5 8.470e+03 1.001e-10
 51.85053    118.8 8.417e+03 9.746e-11
 51.88978    121.6 8.419e+03 9.914e-11
 51.92904    124.8 8.460e+03 1.101e-10
 51.95691    128.3 8.666e+03 1.405e-10
 51.97654    128.6 8.724e+03 1.451e-10
 52.00755    132.9 9.551e+03 2.193e-10
 52.03690    134.9 9.760e+03 2.481e-10
 52.05643    136.8 9.874e+03 2.773e-10
 52.07605    138.6 9.880e+03 3.147e-10
 52.09376    140.5 1.031e+04 4.082e-10
 52.10358    141.7 9.985e+03 3.144e-10
 52.11531    144.1 1.071e+04 4.279e-10
 52.13494    147.0 1.340e+04 8.334e-10
 52.15457    149.1 1.599e+04 1.443e-09
 52.16924    150.4 1.742e+04 1.825e-09
 52.17900    147.5 2.455e+04 3.531e-09
 52.18882    143.3 3.416e+04 1.758e-08
 52.19863    137.9 3.765e+04 3.955e-08
 52.20597    132.0 3.468e+04 8.885e-08
 52.21085    126.3 2.766e+04 3.905e-07
 52.21576    120.7 2.148e+04 2.277e-06
 52.22067    116.0 1.902e+04 6.400e-06
 52.22508    112.6 1.875e+04 6.637e-06
 52.22753    116.2 1.843e+04 8.398e-06
 52.23048    114.4 1.851e+04 7.177e-06
 52.23539    114.4 1.921e+04 3.812e-06
 52.24029    114.2 2.130e+04 1.174e-06
 52.24520    112.8 2.814e+04 1.967e-07
 52.25011    111.9 3.028e+04 1.216e-07
 52.25749    107.4 4.459e+04 1.894e-08
 52.26733     91.7 6.058e+04 1.848e-09
 52.27693     77.3 3.391e+04 1.876e-09
 52.28189     92.9 5.571e+04 1.605e-09
 52.29196     67.4 1.830e+04 1.105e-09
 52.31159     63.6 1.229e+04 1.184e-09
 52.33122     63.7 1.221e+04 1.102e-09
 52.34687     63.8 1.209e+04 1.033e-09
 52.35668     61.8 1.232e+04 1.118e-09
 52.37048     62.2 1.212e+04 1.029e-09
 52.39011     62.8 1.193e+04 9.780e-10
 52.40973     63.8 1.180e+04 9.472e-10
 52.42936     65.0 1.170e+04 9.125e-10
 52.44899     66.4 1.160e+04 8.747e-10
 52.46862     67.6 1.147e+04 8.280e-10
 52.48825     69.0 1.135e+04 7.849e-10
 52.50787     70.5 1.124e+04 7.614e-10
 52.52750     71.6 1.125e+04 7.671e-10
 52.54713     72.9 1.117e+04 7.448e-10
 52.56676     73.8 1.115e+04 7.398e-10
 52.58639     75.1 1.101e+04 7.073e-10
 52.59734     76.1 1.100e+04 7.058e-10
 52.60111     76.1 1.123e+04 7.991e-10
 52.60978     75.4 1.137e+04 8.404e-10
 52.62564     76.8 1.148e+04 9.001e-10
 52.64527     77.0 1.153e+04 9.165e-10
 52.67481     79.0 1.155e+04 9.494e-10
 52.71417     81.2 1.161e+04 9.855e-10
 52.75342     83.3 1.162e+04 9.713e-10
 52.79268     85.2 1.147e+04 8.866e-10
 52.83194     87.0 1.119e+04 7.629e-10
 52.87119     88.8 1.081e+04 6.167e-10
 52.91045     90.6 1.036e+04 4.770e-10
 52.94970     92.5 9.961e+03 3.717e-10
 52.98896     94.4 9.700e+03 3.063e-10
 53.02822     96.2 9.594e+03 2.773e-10
 53.06747     98.0 9.597e+03 2.756e-10
 53.09655     99.7 9.621e+03 2.813e-10
 53.11618     99.9 9.712e+03 2.962e-10
 53.14599    101.4 9.781e+03 3.170e-10
 53.18524    102.8 9.879e+03 3.554e-10
 53.21853    104.5 9.972e+03 3.890e-10
 53.23816    104.1 9.917e+03 3.641e-10
 53.26376    105.6 9.903e+03 3.430e-10
 53.30301    106.9 9.847e+03 2.970e-10
 53.34227    108.3 9.793e+03 2.699e-10
 53.38153    109.5 9.837e+03 2.768e-10
 53.42078    109.9 1.009e+04 3.342e-10
 53.46004    109.8 1.065e+04 5.039e-10
 53.49929    109.7 1.130e+04 7.641e-10
 53.53855    109.3 1.187e+04 1.017e-09
 53.57781    108.3 1.227e+04 1.165e-09
 53.60276    107.0 1.248e+04 1.229e-09
 53.62239    105.9 1.251e+04 1.226e-09
 53.65632    104.5 1.261e+04 1.279e-09
 53.69558    103.3 1.272e+04 1.378e-09
 53.73483    102.3 1.270e+04 1.340e-09
 53.77409    101.6 1.247e+04 1.197e-09
 53.81335    101.2 1.214e+04 1.047e-09
 53.84934    100.7 1.185e+04 9.424e-10
 53.86897    101.2 1.208e+04 1.167e-09
 53.89186    100.9 1.165e+04 9.233e-10
 53.93112    100.8 1.109e+04 6.519e-10
 53.97037    100.8 1.046e+04 3.988e-10
 54.00963    100.5 9.885e+03 2.257e-10
 54.04888    100.0 9.431e+03 1.447e-10
 54.08814    100.0 9.169e+03 1.137e-10
 54.10896    100.5 9.003e+03 9.860e-11
 54.12859    101.0 9.072e+03 9.950e-11
 54.16665    102.1 9.024e+03 9.247e-11
 54.20591    103.4 9.047e+03 9.259e-11
 54.24517    104.3 9.157e+03 9.801e-11
 54.28442    104.7 9.443e+03 1.293e-10
 54.32368    105.1 1.002e+04 2.374e-10
 54.36294    105.9 1.066e+04 4.535e-10
 54.40219    106.6 1.114e+04 6.969e-10
 54.44145    106.7 1.143e+04 7.929e-10
 54.48015    106.5 1.144e+04 7.887e-10
 54.49978    106.9 1.122e+04 6.574e-10
 54.51996    106.3 1.120e+04 6.328e-10
 54.55922    105.3 1.117e+04 6.032e-10
 54.59554    104.0 1.109e+04 5.648e-10
 54.61517    104.4 1.101e+04 5.246e-10
 54.63773    103.1 1.075e+04 4.504e-10
 54.67699    102.2 1.034e+04 3.408e-10
 54.71624    101.5 9.893e+03 2.366e-10
 54.75550    100.5 9.602e+03 1.688e-10
 54.79476     99.5 9.613e+03 1.590e-10
 54.83401     98.0 9.757e+03 1.760e-10
 54.87327     95.3 1.025e+04 2.473e-10
 54.91253     91.9 1.134e+04 4.552e-10
 54.95178     88.4 1.181e+04 6.215e-10
 54.99104     85.4 1.166e+04 5.937e-10
 55.03030     83.1 1.111e+04 4.337e-10
 55.06955     81.1 1.039e+04 2.736e-10
 55.10175     79.8 9.867e+03 2.062e-10
 55.12137     82.3 9.944e+03 2.131e-10
 55.13059     82.2 9.721e+03 1.934e-10
 55.15022     82.6 9.871e+03 2.308e-10
 55.18732     82.9 9.708e+03 2.211e-10
 55.22658     83.6 9.572e+03 2.094e-10
 55.26583     84.7 9.426e+03 1.931e-10
 55.30509     86.1 9.273e+03 1.706e-10
 55.34435     87.7 9.128e+03 1.437e-10
 55.38360     89.4 9.002e+03 1.168e-10
 55.42286     91.0 8.884e+03 9.651e-11
 55.46212     92.8 8.786e+03 8.960e-11
 55.50137     94.8 8.780e+03 9.070e-11
 55.54063     96.8 8.826e+03 9.737e-11
 55.57988     98.8 8.959e+03 1.128e-10
 55.60795    100.8 9.117e+03 1.361e-10
 55.62758    101.7 9.122e+03 1.362e-10
 55.65840    103.7 9.290e+03 1.639e-10
 55.69765    105.8 9.470e+03 1.898e-10
 55.73691    107.8 9.660e+03 2.033e-10
 55.76140    109.7 9.735e+03 2.033e-10
 55.78103    109.4 9.733e+03 2.061e-10
 55.81542    111.1 9.761e+03 2.026e-10
 55.85468    112.9 9.828e+03 1.950e-10
 55.89394    114.7 9.929e+03 1.910e-10
 55.93319    116.2 1.004e+04 2.002e-10
 55.97245    117.7 1.034e+04 2.323e-10
 56.01171    119.1 1.074e+04 2.921e-10
 56.05096    120.3 1.120e+04 3.825e-10
 56.09022    121.4 1.167e+04 5.127e-10
 56.11415    122.3 1.210e+04 6.727e-10
 56.13378    123.3 1.157e+04 4.486e-10
 56.15882    122.8 1.179e+04 5.381e-10
 56.17835    122.9 1.187e+04 5.939e-10
 56.19798    123.2 1.182e+04 6.085e-10
 56.21761    123.5 1.178e+04 6.163e-10
 56.23723    123.9 1.168e+04 6.099e-10
 56.25686    124.3 1.159e+04 5.901e-10
 56.27649    124.7 1.151e+04 5.651e-10
 56.29612    125.1 1.142e+04 5.420e-10
 56.31575    125.6 1.134e+04 5.085e-10
 56.33538    126.2 1.119e+04 4.574e-10
 56.35500    126.5 1.108e+04 3.909e-10
 56.36706    126.7 1.102e+04 3.627e-10
 56.37688    127.8 1.105e+04 4.124e-10
 56.39202    128.2 1.099e+04 3.785e-10
 56.41174    127.6 1.087e+04 3.365e-10
 56.44353    128.9 1.077e+04 3.160e-10
 56.48278    130.3 1.074e+04 3.164e-10
 56.52204    131.8 1.075e+04 3.230e-10
 56.56130    133.2 1.080e+04 3.376e-10
 56.60055    134.5 1.087e+04 3.489e-10
 56.63981    137.4 1.111e+04 4.336e-10
 56.67906    138.8 1.109e+04 4.405e-10
 56.71832    139.8 1.109e+04 4.557e-10
 56.75758    140.6 1.104e+04 4.768e-10
 56.79683    141.6 1.096e+04 4.971e-10
 56.83609    142.4 1.091e+04 4.946e-10
 56.86355    142.5 1.077e+04 4.532e-10
 56.87327    143.0 1.086e+04 4.979e-10
 56.88497    143.6 1.076e+04 4.726e-10
 56.90459    144.2 1.071e+04 4.475e-10
 56.92422    144.5 1.070e+04 4.375e-10
 56.95376    145.2 1.058e+04 4.073e-10
 56.99312    145.8 1.055e+04 3.996e-10
 57.02302    146.1 1.056e+04 4.005e-10
 57.04265    146.9 1.050e+04 3.997e-10
 57.07163    146.5 1.051e+04 4.050e-10
 57.10694    146.8 1.042e+04 3.960e-10
 57.12647    147.5 1.053e+04 4.560e-10
 57.14013    147.9 1.042e+04 4.292e-10
 57.15976    148.0 1.037e+04 4.148e-10
 57.18930    149.0 1.037e+04 3.899e-10
 57.22865    149.8 1.026e+04 3.295e-10
 57.26791    150.2 1.001e+04 2.567e-10
 57.30717    150.1 9.766e+03 2.095e-10
 57.34642    149.9 9.670e+03 1.999e-10
 57.38568    149.9 9.677e+03 2.020e-10
 57.42494    149.7 9.777e+03 2.154e-10
 57.46419    149.7 1.002e+04 2.522e-10
 57.50345    149.3 1.019e+04 2.836e-10
 57.53279    149.5 1.032e+04 3.168e-10
 57.55232    149.0 1.064e+04 3.920e-10
 57.57195    146.9 1.151e+04 6.781e-10
 57.59158    144.1 1.355e+04 1.600e-09
 57.61121    142.2 1.582e+04 4.041e-09
 57.62276    141.1 1.765e+04 8.423e-09
 57.63257    141.1 1.744e+04 7.810e-09
 57.65047    139.5 1.844e+04 1.051e-08
 57.66345    137.3 1.844e+04 1.018e-08
 57.67327    137.6 1.771e+04 8.119e-09
 57.68972    135.8 1.723e+04 6.493e-09
 57.70935    134.2 1.614e+04 3.854e-09
 57.72898    131.5 1.457e+04 1.941e-09
 57.74861    128.0 1.293e+04 1.202e-09
 57.76823    125.8 1.257e+04 1.155e-09
 57.78786    125.1 1.257e+04 1.167e-09
 57.80749    124.6 1.272e+04 1.251e-09
 57.82712    124.0 1.302e+04 1.427e-09
 57.84675    123.3 1.338e+04 1.705e-09
 57.86605    122.8 1.363e+04 2.056e-09
 57.87586    122.9 1.375e+04 2.080e-09
 57.88600    122.5 1.380e+04 2.314e-09
 57.90563    122.1 1.376e+04 2.304e-09
 57.92526    122.0 1.356e+04 2.191e-09
 57.94489    122.1 1.316e+04 1.838e-09
 57.96452    122.1 1.265e+04 1.371e-09
 57.97886    121.8 1.209e+04 9.328e-10
 57.98867    122.2 1.224e+04 9.800e-10
 58.00377    121.0 1.175e+04 6.529e-10
 58.02340    119.8 1.129e+04 5.349e-10
 58.05294    119.2 1.092e+04 4.971e-10
 58.09230    118.2 1.090e+04 5.056e-10
 58.11935    117.5 1.092e+04 5.414e-10
 58.13897    116.6 1.111e+04 6.022e-10
 58.17081    115.9 1.107e+04 6.053e-10
 58.21006    115.3 1.091e+04 5.696e-10
 58.24932    114.8 1.061e+04 4.809e-10
 58.28465    114.3 1.025e+04 3.772e-10
 58.30427    114.1 1.034e+04 3.971e-10
 58.32783    113.9 9.998e+03 3.108e-10
 58.36709    113.7 9.703e+03 2.481e-10
 58.40635    113.8 9.549e+03 2.230e-10
 58.44560    113.9 9.581e+03 2.264e-10
 58.48486    113.8 9.689e+03 2.460e-10
 58.52412    113.2 9.740e+03 2.756e-10
 58.55346    113.2 9.674e+03 2.945e-10
 58.57299    114.0 9.677e+03 3.278e-10
 58.59262    114.1 1.000e+04 4.130e-10
 58.60967    112.5 1.120e+04 7.761e-10
 58.61948    112.8 1.139e+04 7.990e-10
 58.62536    106.4 1.562e+04 1.863e-09
 58.63517    109.8 1.491e+04 1.646e-09
 58.64655    102.9 1.865e+04 3.152e-09
 58.65631     96.3 1.998e+04 6.575e-09
 58.66613     94.3 1.924e+04 1.296e-08
 58.67594     94.7 1.871e+04 2.093e-08
 58.68576     95.5 1.901e+04 2.587e-08
 58.69557     95.5 1.944e+04 2.569e-08
 58.70538     94.9 2.000e+04 2.365e-08
 58.71520     93.1 2.145e+04 1.754e-08
 58.72501     87.0 2.259e+04 1.024e-08
 58.73483     83.4 2.164e+04 7.733e-09
 58.74960     76.4 1.990e+04 5.419e-09
 58.76927     69.5 1.508e+04 3.199e-09
 58.78890     68.2 1.319e+04 2.330e-09
 58.80853     68.1 1.286e+04 1.733e-09
 58.82816     67.4 1.271e+04 1.203e-09
 58.84779     65.3 1.215e+04 8.292e-10
 58.86741     63.5 1.126e+04 6.149e-10
 58.87846     63.0 1.069e+04 5.261e-10
 58.88827     62.5 1.110e+04 6.797e-10
 58.90667     62.6 1.081e+04 5.790e-10
 58.92508     63.3 1.057e+04 4.847e-10
 58.93489     63.4 1.049e+04 4.102e-10
 58.95584     63.2 1.057e+04 3.482e-10
 58.99519     62.5 1.063e+04 3.226e-10
 59.03445     61.8 1.062e+04 2.775e-10
 59.07371     60.9 1.073e+04 2.708e-10
 59.11213     59.8 1.078e+04 2.931e-10
 59.13176     58.4 1.083e+04 3.161e-10
 59.15222     58.1 1.083e+04 3.421e-10
 59.18156     58.0 1.080e+04 3.416e-10
 59.20109     58.2 1.078e+04 3.433e-10
 59.22072     57.7 1.079e+04 3.631e-10
 59.24035     57.0 1.105e+04 4.222e-10
 59.25030     55.7 1.164e+04 5.765e-10
 59.26011     57.3 1.138e+04 4.872e-10
 59.27961     56.2 1.201e+04 7.359e-10
 59.29923     55.2 1.279e+04 1.176e-09
 59.31886     54.5 1.355e+04 1.811e-09
 59.33849     54.1 1.405e+04 2.431e-09
 59.35812     53.6 1.425e+04 2.674e-09
 59.37485     53.0 1.406e+04 2.502e-09
 59.38466     52.0 1.464e+04 3.011e-09
 59.39738     50.8 1.444e+04 2.780e-09
 59.41700     49.4 1.412e+04 2.473e-09
 59.43663     48.6 1.360e+04 2.110e-09
 59.45626     48.2 1.308e+04 1.738e-09
 59.47589     47.8 1.264e+04 1.409e-09
 59.49552     46.9 1.248e+04 1.189e-09
 59.51515     45.4 1.268e+04 1.147e-09
 59.53477     43.7 1.280e+04 1.213e-09
 59.55440     42.6 1.279e+04 1.364e-09
 59.56570     41.8 1.304e+04 1.592e-09
 59.57551     43.7 1.288e+04 1.471e-09
 59.59366     42.9 1.332e+04 1.745e-09
 59.61329     41.8 1.414e+04 2.136e-09
 59.62795     40.3 1.490e+04 2.605e-09
 59.63776     38.2 1.509e+04 3.065e-09
 59.65254     37.0 1.495e+04 3.362e-09
 59.67217     36.3 1.490e+04 3.473e-09
 59.69180     36.0 1.475e+04 3.644e-09
 59.71143     36.0 1.472e+04 3.570e-09
 59.73106     35.9 1.468e+04 3.207e-09
 59.75068     35.7 1.443e+04 2.640e-09
 59.77031     35.0 1.404e+04 2.181e-09
 59.78994     34.3 1.348e+04 1.782e-09
 59.80957     33.8 1.305e+04 1.511e-09
 59.82920     33.5 1.273e+04 1.401e-09
 59.84882     33.4 1.275e+04 1.352e-09
 59.86845     33.0 1.301e+04 1.398e-09
 59.88105     32.7 1.301e+04 1.511e-09
 59.89087     33.2 1.215e+04 8.651e-10
 59.90771     33.0 1.236e+04 9.179e-10
 59.92734     32.9 1.220e+04 1.074e-09
 59.94697     32.7 1.242e+04 1.150e-09
 59.96659     32.1 1.274e+04 1.314e-09
 59.98622     31.7 1.274e+04 1.439e-09
 60.00585     31.4 1.257e+04 1.587e-09
 60.02548     31.5 1.257e+04 1.679e-09
 60.04511     31.3 1.290e+04 1.719e-09
 60.06474     30.8 1.298e+04 1.805e-09
 60.08436     30.0 1.326e+04 1.742e-09
 60.10399     29.2 1.304e+04 1.915e-09
 60.12362     28.9 1.322e+04 1.860e-09
 60.13416     28.7 1.316e+04 1.873e-09
 60.14397     27.3 1.318e+04 1.879e-09
 60.16288     26.9 1.311e+04 1.657e-09
 60.18250     26.5 1.289e+04 1.491e-09
 60.19651     25.9 1.263e+04 1.269e-09
 60.20633     26.9 1.262e+04 1.281e-09
 60.22176     26.2 1.226e+04 1.160e-09
 60.24139     25.7 1.205e+04 1.062e-09
 60.26102     25.5 1.193e+04 1.029e-09
 60.28065     25.4 1.171e+04 9.889e-10
 60.30027     26.8 1.175e+04 1.015e-09
 60.32981     26.2 1.164e+04 9.202e-10
 60.36917     26.4 1.120e+04 7.147e-10
 60.40842     26.5 1.081e+04 5.566e-10
 60.44768     26.8 1.046e+04 4.834e-10
 60.48694     27.4 1.030e+04 4.434e-10
 60.52619     28.1 1.030e+04 4.388e-10
 60.56545     29.3 1.033e+04 4.535e-10
 60.60471     30.1 1.035e+04 4.554e-10
 60.63074     30.8 1.023e+04 4.010e-10
 60.65037     30.9 1.023e+04 4.091e-10
 60.68322     31.4 9.969e+03 3.278e-10
 60.72248     31.2 9.825e+03 2.546e-10
 60.76173     31.1 9.888e+03 2.541e-10
 60.80099     30.7 1.022e+04 2.978e-10
 60.82742     28.3 9.997e+03 3.102e-10
 60.83714     28.0 1.005e+04 3.387e-10
 60.84986     29.1 1.009e+04 3.531e-10
 60.86949     29.2 1.039e+04 4.816e-10
 60.88365     28.5 1.129e+04 5.930e-10
 60.89346     29.7 1.093e+04 5.581e-10
 60.90875     22.4 1.631e+04 1.195e-09
 60.92838     11.2 2.125e+04 5.275e-09
 60.94305      7.3 2.064e+04 1.720e-08
 60.95281      6.3 2.068e+04 2.888e-08
 60.96263      5.7 2.073e+04 4.495e-08
 60.97244      6.1 2.166e+04 5.158e-08
 60.98226      5.8 2.242e+04 4.914e-08
 60.98983      4.1 2.483e+04 2.940e-08
 60.99474      3.7 2.493e+04 2.367e-08
 61.00684     -4.3 2.312e+04 1.144e-08
 61.02652    -17.0 1.589e+04 4.402e-09
 61.04615    -19.8 1.413e+04 3.156e-09
 61.06577    -20.4 1.368e+04 2.695e-09
 61.08540    -21.3 1.291e+04 1.982e-09
 61.10503    -22.1 1.216e+04 1.420e-09
 61.12466    -22.9 1.152e+04 1.049e-09
 61.13675    -23.6 1.100e+04 8.117e-10
 61.14501    -23.0 1.118e+04 8.755e-10
 61.15254    -22.7 1.134e+04 9.448e-10
 61.16391    -23.4 1.077e+04 6.972e-10
 61.18354    -23.8 1.030e+04 5.297e-10
 61.20317    -24.0 9.967e+03 4.129e-10
 61.23271    -24.5 9.827e+03 3.304e-10
 61.27207    -26.8 9.750e+03 2.908e-10
 61.31132    -30.1 1.008e+04 3.258e-10
 61.35058    -34.1 1.174e+04 6.901e-10
 61.37992    -38.2 1.276e+04 1.435e-09
 61.38985    -39.5 1.400e+04 2.364e-09
 61.39967    -39.0 1.367e+04 2.012e-09
 61.41908    -40.6 1.507e+04 3.466e-09
 61.43871    -42.0 1.667e+04 6.035e-09
 61.45813    -43.8 1.767e+04 8.589e-09
 61.46795    -43.8 1.736e+04 7.881e-09
 61.47797    -45.8 1.758e+04 8.602e-09
 61.49759    -47.9 1.734e+04 8.143e-09
 61.51722    -49.8 1.668e+04 5.946e-09
 61.53685    -52.6 1.587e+04 4.044e-09
 61.55648    -55.9 1.506e+04 3.022e-09
 61.57611    -58.7 1.461e+04 2.653e-09
 61.59574    -60.7 1.448e+04 2.555e-09
 61.61536    -62.2 1.445e+04 2.555e-09
 61.63314    -63.8 1.452e+04 2.653e-09
 61.64296    -62.3 1.494e+04 3.047e-09
 61.65462    -64.2 1.506e+04 3.143e-09
 61.67425    -66.4 1.544e+04 3.572e-09
 61.69388    -68.6 1.620e+04 4.687e-09
 61.71350    -70.3 1.706e+04 6.372e-09
 61.73313    -71.9 1.766e+04 7.845e-09
 61.75276    -73.7 1.781e+04 8.244e-09
 61.77239    -75.4 1.753e+04 7.643e-09
 61.78335    -76.9 1.666e+04 5.574e-09
 61.79317    -76.4 1.630e+04 4.612e-09
 61.81165    -78.5 1.532e+04 3.197e-09
 61.83127    -80.8 1.443e+04 2.478e-09
 61.85090    -82.9 1.389e+04 2.260e-09
 61.87053    -84.2 1.368e+04 2.267e-09
 61.88624    -84.9 1.363e+04 2.408e-09
 61.89606    -85.1 1.356e+04 2.313e-09
 61.90979    -85.4 1.350e+04 2.269e-09
 61.92941    -85.5 1.342e+04 2.087e-09
 61.94904    -85.9 1.320e+04 1.698e-09
 61.96867    -86.7 1.278e+04 1.194e-09
 61.98830    -88.2 1.209e+04 7.661e-10
 62.00793    -89.9 1.127e+04 5.218e-10
 62.02756    -91.3 1.085e+04 4.539e-10
 62.05710    -92.3 1.070e+04 4.449e-10
 62.08914    -93.7 1.057e+04 4.385e-10
 62.10877    -93.0 1.054e+04 4.124e-10
 62.12973    -94.0 1.070e+04 4.611e-10
 62.14936    -95.3 1.093e+04 5.393e-10
 62.17496    -96.3 1.122e+04 6.557e-10
 62.21422    -97.4 1.137e+04 7.156e-10
 62.25348    -98.6 1.139e+04 7.312e-10
 62.29273    -99.4 1.121e+04 6.436e-10
 62.32208    -99.2 1.092e+04 5.439e-10
 62.34161    -99.4 1.087e+04 5.070e-10
 62.36124   -100.7 1.045e+04 4.053e-10
 62.38086   -101.4 1.030e+04 3.846e-10
 62.39245   -102.0 1.024e+04 3.812e-10
 62.40226   -102.6 1.032e+04 4.072e-10
 62.41416   -102.9 1.055e+04 4.952e-10
 62.42398   -102.3 1.069e+04 5.301e-10
 62.43975   -102.5 1.101e+04 6.544e-10
 62.45938   -102.8 1.141e+04 8.144e-10
 62.47900   -103.3 1.185e+04 1.003e-09
 62.49863   -103.8 1.220e+04 1.175e-09
 62.51826   -104.3 1.235e+04 1.259e-09
 62.53789   -104.8 1.246e+04 1.313e-09
 62.55752   -105.6 1.251e+04 1.345e-09
 62.57715   -106.1 1.252e+04 1.341e-09
 62.59677   -106.5 1.247e+04 1.292e-09
 62.61640   -106.7 1.232e+04 1.196e-09
 62.63583   -106.8 1.202e+04 1.025e-09
 62.65556   -107.7 1.260e+04 1.301e-09
 62.68530   -107.5 1.239e+04 1.172e-09
 62.71995   -107.0 1.229e+04 1.110e-09
 62.73958   -107.7 1.239e+04 1.113e-09
 62.76381   -107.3 1.251e+04 1.137e-09
 62.80307   -107.3 1.302e+04 1.376e-09
 62.84232   -107.4 1.340e+04 1.757e-09
 62.87167   -106.6 1.346e+04 1.959e-09
 62.88884   -106.6 1.401e+04 2.567e-09
 62.89865   -107.6 1.406e+04 2.637e-09
 62.91083   -107.5 1.427e+04 2.872e-09
 62.93045   -107.5 1.433e+04 2.881e-09
 62.95008   -107.8 1.428e+04 2.564e-09
 62.96971   -108.7 1.403e+04 2.106e-09
 62.98934   -110.2 1.368e+04 1.760e-09
 63.00897   -111.9 1.339e+04 1.609e-09
 63.02859   -113.4 1.331e+04 1.582e-09
 63.04497   -114.8 1.332e+04 1.665e-09
 63.05479   -113.8 1.340e+04 1.620e-09
 63.06785   -114.5 1.346e+04 1.786e-09
 63.08748   -115.0 1.361e+04 2.005e-09
 63.10711   -115.2 1.377e+04 2.186e-09
 63.12674   -115.6 1.383e+04 2.236e-09
 63.14194   -116.1 1.380e+04 2.168e-09
 63.16167   -117.7 1.307e+04 1.493e-09
 63.19563   -118.2 1.218e+04 1.033e-09
 63.23489   -118.8 1.131e+04 6.753e-10
 63.27414   -119.4 1.102e+04 5.680e-10
 63.31340   -119.9 1.102e+04 5.635e-10
 63.35076   -120.5 1.174e+04 7.871e-10
 63.37039   -119.0 1.157e+04 7.576e-10
 63.39191   -119.7 1.208e+04 9.857e-10
 63.43117   -120.7 1.229e+04 1.091e-09
 63.47042   -122.0 1.228e+04 1.096e-09
 63.50968   -123.1 1.186e+04 9.338e-10
 63.54894   -123.8 1.136e+04 7.318e-10
 63.58819   -124.1 1.095e+04 5.794e-10
 63.62745   -124.0 1.063e+04 4.677e-10
 63.64834   -123.1 1.030e+04 3.718e-10
 63.66797   -123.2 1.023e+04 3.626e-10
 63.70596   -121.6 1.000e+04 3.006e-10
 63.74522   -119.9 9.865e+03 2.604e-10
 63.78448   -118.0 9.818e+03 2.399e-10
 63.82373   -116.0 9.816e+03 2.339e-10
 63.86299   -114.1 9.838e+03 2.335e-10
 63.90224   -112.2 9.977e+03 2.481e-10
 63.94150   -110.3 1.012e+04 2.797e-10
 63.98076   -108.4 1.024e+04 3.142e-10
 64.00120   -106.7 1.033e+04 3.385e-10
 64.02083   -105.6 1.038e+04 3.510e-10
 64.05927   -103.9 1.040e+04 3.613e-10
 64.09853   -102.2 1.039e+04 3.609e-10
 64.13492   -100.4 1.033e+04 3.348e-10
 64.15455   -100.6 1.047e+04 3.720e-10
 64.17704    -98.7 1.029e+04 3.026e-10
 64.21630    -96.7 1.014e+04 2.396e-10
 64.25555    -94.7 1.004e+04 1.944e-10
 64.29481    -92.6 9.997e+03 1.677e-10
 64.33407    -90.5 1.000e+04 1.572e-10
 64.37332    -88.3 1.001e+04 1.551e-10
 64.41258    -86.0 1.004e+04 1.550e-10
 64.45183    -83.7 1.016e+04 1.611e-10
 64.49109    -81.5 1.033e+04 1.749e-10
 64.53035    -79.3 1.052e+04 1.960e-10
 64.56960    -77.2 1.069e+04 2.239e-10
 64.60886    -75.0 1.085e+04 2.608e-10
 64.63201    -72.9 1.104e+04 3.051e-10
 64.64464    -71.4 1.081e+04 2.682e-10
 64.66075    -72.0 1.097e+04 3.009e-10
 64.68737    -70.2 1.132e+04 3.699e-10
 64.72663    -68.5 1.167e+04 4.601e-10
 64.76589    -66.8 1.195e+04 5.618e-10
 64.79523    -64.8 1.200e+04 5.944e-10
 64.81476    -64.3 1.208e+04 6.311e-10
 64.83439    -63.4 1.221e+04 7.027e-10
 64.85402    -62.7 1.233e+04 7.773e-10
 64.87365    -61.8 1.245e+04 8.716e-10
 64.89327    -61.0 1.258e+04 9.569e-10
 64.90384    -60.4 1.271e+04 1.044e-09
 64.91366    -61.4 1.283e+04 1.186e-09
 64.93253    -60.9 1.289e+04 1.233e-09
 64.94722    -60.7 1.290e+04 1.240e-09
 64.95703    -60.2 1.307e+04 1.331e-09
 64.97179    -60.0 1.306e+04 1.334e-09
 64.99142    -59.7 1.298e+04 1.333e-09
 65.01104    -59.3 1.285e+04 1.267e-09
 65.03067    -59.1 1.274e+04 1.209e-09
 65.05030    -58.7 1.260e+04 1.151e-09
 65.06993    -58.4 1.246e+04 1.094e-09
 65.08956    -58.1 1.234e+04 1.053e-09
 65.10918    -57.7 1.225e+04 1.031e-09
 65.12881    -57.3 1.220e+04 1.017e-09
 65.14713    -56.9 1.215e+04 9.982e-10
 65.15695    -57.6 1.211e+04 9.782e-10
 65.16807    -57.0 1.199e+04 9.231e-10
 65.18770    -56.3 1.182e+04 8.437e-10
 65.20733    -55.5 1.160e+04 7.419e-10
 65.22695    -54.6 1.135e+04 6.323e-10
 65.24658    -53.8 1.110e+04 5.285e-10
 65.26263    -53.1 1.088e+04 4.450e-10
 65.27244    -52.8 1.110e+04 5.292e-10
 65.28584    -52.0 1.090e+04 4.512e-10
 65.30547    -51.4 1.076e+04 3.961e-10
 65.32509    -51.0 1.071e+04 3.785e-10
 65.35463    -49.8 1.068e+04 3.644e-10
 65.39399    -48.2 1.061e+04 3.534e-10
 65.42333    -47.3 1.054e+04 3.362e-10
 65.44286    -47.1 1.053e+04 3.380e-10
 65.46249    -46.2 1.057e+04 3.704e-10
 65.48212    -46.1 1.058e+04 3.814e-10
 65.50175    -45.5 1.068e+04 4.348e-10
 65.52138    -45.1 1.080e+04 4.910e-10
 65.54101    -44.5 1.095e+04 5.667e-10
 65.56063    -44.0 1.110e+04 6.186e-10
 65.57803    -43.6 1.119e+04 6.398e-10
 65.58784    -43.7 1.122e+04 6.615e-10
 65.59989    -43.4 1.124e+04 6.565e-10
 65.61952    -43.1 1.117e+04 6.097e-10
 65.63915    -42.9 1.108e+04 5.525e-10
 65.65334    -42.8 1.102e+04 5.098e-10
 65.67306    -42.8 1.060e+04 3.766e-10
 65.70804    -42.6 1.038e+04 3.230e-10
 65.74730    -42.6 1.024e+04 3.018e-10
 65.78655    -42.7 1.022e+04 3.176e-10
 65.82581    -42.5 1.042e+04 3.735e-10
 65.85515    -43.2 1.047e+04 4.321e-10
 65.87468    -43.2 1.061e+04 4.917e-10
 65.89344    -43.3 1.073e+04 5.470e-10
 65.90325    -43.5 1.089e+04 5.996e-10
 65.90644    -43.6 1.099e+04 6.331e-10
 65.91625    -43.6 1.132e+04 7.818e-10
 65.93357    -47.7 1.348e+04 1.182e-09
 65.95320    -53.6 1.609e+04 2.250e-09
 65.96787    -57.0 1.722e+04 3.589e-09
 65.97764    -57.6 1.748e+04 3.931e-09
 65.98745    -60.1 1.797e+04 5.754e-09
 65.99726    -61.4 1.844e+04 7.902e-09
 66.01203    -62.9 1.875e+04 1.097e-08
 66.03171    -64.3 1.888e+04 1.233e-08
 66.05134    -66.3 1.858e+04 1.004e-08
 66.07097    -68.6 1.740e+04 5.398e-09
 66.09059    -72.0 1.534e+04 2.142e-09
 66.11022    -76.4 1.260e+04 9.344e-10
 66.12985    -79.2 1.099e+04 6.644e-10
 66.14948    -80.0 1.074e+04 6.271e-10
 66.15954    -80.2 1.080e+04 6.356e-10
 66.16936    -83.2 1.149e+04 8.248e-10
 66.18874    -84.0 1.235e+04 1.135e-09
 66.20836    -85.1 1.324e+04 1.669e-09
 66.21866    -86.0 1.406e+04 2.465e-09
 66.22847    -86.1 1.385e+04 2.208e-09
 66.24762    -86.5 1.466e+04 3.279e-09
 66.26725    -86.5 1.535e+04 4.405e-09
 66.28688    -86.4 1.584e+04 5.111e-09
 66.30651    -86.4 1.603e+04 5.351e-09
 66.32613    -86.5 1.586e+04 4.697e-09
 66.34576    -86.7 1.531e+04 3.434e-09
 66.36539    -87.5 1.432e+04 2.152e-09
 66.38502    -88.8 1.277e+04 1.253e-09
 66.40283    -90.2 1.083e+04 7.754e-10
 66.41264    -92.2 9.479e+03 5.158e-10
 66.42427    -92.3 9.519e+03 4.004e-10
 66.44390    -91.5 9.502e+03 3.696e-10
 66.46353    -90.6 9.535e+03 3.715e-10
 66.49307    -90.0 9.812e+03 4.199e-10
 66.52444    -88.8 1.028e+04 4.648e-10
 66.54407    -87.9 9.801e+03 4.078e-10
 66.57168    -87.0 1.036e+04 4.879e-10
 66.61094    -86.5 1.115e+04 6.939e-10
 66.64631    -86.5 1.183e+04 1.036e-09
 66.66594    -86.5 1.159e+04 7.824e-10
 66.68945    -86.5 1.220e+04 1.194e-09
 66.71880    -86.3 1.263e+04 1.698e-09
 66.73833    -85.7 1.295e+04 1.920e-09
 66.75795    -85.2 1.336e+04 2.177e-09
 66.77758    -84.7 1.375e+04 2.437e-09
 66.79721    -84.2 1.404e+04 2.649e-09
 66.81684    -83.7 1.417e+04 2.761e-09
 66.83647    -83.3 1.422e+04 2.807e-09
 66.84947    -82.8 1.425e+04 2.825e-09
 66.85928    -81.7 1.345e+04 2.080e-09
 66.87572    -81.1 1.348e+04 2.050e-09
 66.89535    -80.5 1.351e+04 2.040e-09
 66.90904    -79.9 1.360e+04 2.061e-09
 66.91885    -80.1 1.348e+04 2.020e-09
 66.93461    -79.7 1.370e+04 2.163e-09
 66.95424    -79.4 1.398e+04 2.401e-09
 66.97386    -79.0 1.430e+04 2.739e-09
 66.99349    -78.7 1.464e+04 3.167e-09
 67.01312    -78.2 1.495e+04 3.654e-09
 67.03275    -77.7 1.522e+04 4.148e-09
 67.05238    -77.1 1.544e+04 4.598e-09
 67.07201    -76.4 1.564e+04 4.991e-09
 67.09163    -75.6 1.581e+04 5.336e-09
 67.11126    -74.7 1.592e+04 5.531e-09
 67.13089    -73.8 1.605e+04 5.602e-09
 67.15052    -72.9 1.609e+04 5.594e-09
 67.16214    -72.1 1.621e+04 5.454e-09
 67.16668    -73.2 1.617e+04 4.761e-09
 67.17469    -72.7 1.617e+04 4.699e-09
 67.18977    -72.5 1.652e+04 4.970e-09
 67.20940    -72.4 1.697e+04 5.497e-09
 67.22903    -72.2 1.754e+04 6.539e-09
 67.24866    -71.7 1.823e+04 8.334e-09
 67.26829    -71.0 1.906e+04 1.104e-08
 67.28792    -70.3 2.000e+04 1.449e-08
 67.30754    -70.1 2.092e+04 1.832e-08
 67.32717    -70.6 2.167e+04 2.257e-08
 67.34184    -71.9 2.251e+04 2.873e-08
 67.35161    -72.5 2.272e+04 3.312e-08
 67.36142    -72.8 2.286e+04 3.806e-08
 67.37124    -73.0 2.296e+04 4.416e-08
 67.38105    -73.3 2.296e+04 5.032e-08
 67.39087    -73.8 2.281e+04 5.352e-08
 67.40068    -74.0 2.260e+04 5.415e-08
 67.41024    -74.1 2.237e+04 5.053e-08
 67.41514    -74.6 2.209e+04 3.492e-08
 67.42031    -74.6 2.202e+04 2.718e-08
 67.43012    -75.5 2.204e+04 2.004e-08
 67.43994    -76.3 2.203e+04 1.814e-08
 67.44975    -77.0 2.214e+04 1.365e-08
 67.46452    -78.9 2.216e+04 6.684e-09
 67.48028    -81.1 2.248e+04 3.159e-09
 67.49009    -83.1 2.348e+04 1.436e-09
 67.50383    -86.6 2.095e+04 7.064e-10
 67.52345    -89.2 1.665e+04 4.333e-10
 67.54308    -90.6 1.292e+04 3.319e-10
 67.56271    -91.0 1.151e+04 2.836e-10
 67.58234    -90.5 1.111e+04 2.573e-10
 67.60197    -89.6 1.099e+04 2.460e-10
 67.62160    -88.5 1.098e+04 2.420e-10
 67.64122    -87.2 1.100e+04 2.411e-10
 67.65853    -85.9 1.107e+04 2.420e-10
 67.67825    -85.2 1.084e+04 2.271e-10
 67.71012    -82.8 1.079e+04 2.244e-10
 67.74937    -80.2 1.072e+04 2.260e-10
 67.78606    -77.8 1.073e+04 2.458e-10
 67.80569    -77.8 1.093e+04 3.027e-10
 67.82789    -75.9 1.096e+04 3.291e-10
 67.85723    -74.2 1.095e+04 3.446e-10
 67.87676    -73.9 1.096e+04 3.600e-10
 67.89639    -73.0 1.103e+04 4.109e-10
 67.91163    -72.3 1.111e+04 4.656e-10
 67.92144    -72.7 1.113e+04 4.825e-10
 67.93565    -72.1 1.126e+04 5.608e-10
 67.95527    -71.5 1.138e+04 6.241e-10
 67.97490    -71.2 1.147e+04 6.806e-10
 67.99453    -70.9 1.151e+04 7.221e-10
 68.01416    -70.9 1.154e+04 7.660e-10
 68.03379    -70.9 1.169e+04 8.491e-10
 68.06333    -71.2 1.206e+04 1.018e-09
 68.09277    -71.1 1.187e+04 9.451e-10
 68.11109    -72.0 1.227e+04 1.081e-09
 68.12090    -73.3 1.284e+04 1.399e-09
 68.13193    -74.9 1.339e+04 1.755e-09
 68.15156    -76.5 1.378e+04 2.120e-09
 68.16473    -78.1 1.386e+04 2.344e-09
 68.17455    -77.8 1.333e+04 1.934e-09
 68.19081    -79.1 1.333e+04 2.007e-09
 68.21044    -80.2 1.318e+04 1.954e-09
 68.23007    -81.1 1.292e+04 1.743e-09
 68.24970    -82.0 1.255e+04 1.407e-09
 68.26933    -82.9 1.216e+04 1.110e-09
 68.29887    -83.5 1.201e+04 9.406e-10
 68.33822    -84.8 1.090e+04 5.340e-10
 68.37748    -85.9 9.888e+03 3.254e-10
 68.41673    -86.4 9.278e+03 2.293e-10
 68.45599    -86.0 8.807e+03 1.736e-10
 68.49525    -85.0 8.779e+03 1.786e-10
 68.53450    -83.9 8.802e+03 1.840e-10
 68.57376    -82.6 8.802e+03 1.860e-10
 68.61301    -81.3 8.794e+03 1.876e-10
 68.65150    -79.9 8.798e+03 1.955e-10
 68.67113    -79.4 8.858e+03 2.111e-10
 68.69153    -77.8 8.881e+03 2.222e-10
 68.73078    -76.1 8.927e+03 2.331e-10
 68.77004    -74.4 8.963e+03 2.383e-10
 68.80930    -72.7 8.986e+03 2.390e-10
 68.84855    -71.0 9.004e+03 2.376e-10
 68.88781    -69.6 9.029e+03 2.375e-10
 68.92707    -68.8 9.151e+03 2.668e-10
 68.96632    -68.6 9.708e+03 3.810e-10
 69.00558    -69.1 1.072e+04 6.212e-10
 69.03492    -69.9 1.180e+04 9.511e-10
 69.05445    -73.3 1.354e+04 1.580e-09
 69.06712    -77.1 1.559e+04 3.387e-09
 69.07693    -77.9 1.701e+04 4.579e-09
 69.09371    -80.7 1.842e+04 9.297e-09
 69.10838    -81.7 1.874e+04 1.197e-08
 69.11815    -82.9 1.907e+04 1.470e-08
 69.12796    -83.9 1.930e+04 1.767e-08
 69.13778    -84.8 1.940e+04 1.928e-08
 69.14759    -85.5 1.947e+04 1.983e-08
 69.15740    -86.2 1.953e+04 1.871e-08
 69.16722    -87.0 1.949e+04 1.510e-08
 69.17703    -89.4 1.961e+04 1.297e-08
 69.19180    -91.4 1.894e+04 1.058e-08
 69.21148    -92.1 1.767e+04 7.196e-09
 69.23111    -93.1 1.629e+04 4.115e-09
 69.25074    -94.1 1.512e+04 2.358e-09
 69.27036    -95.0 1.408e+04 1.421e-09
 69.28999    -96.2 1.299e+04 9.718e-10
 69.30962    -97.2 1.228e+04 8.311e-10
 69.32925    -97.6 1.188e+04 8.771e-10
 69.34888    -97.2 1.207e+04 1.090e-09
 69.36851    -96.4 1.240e+04 1.392e-09
 69.38252    -95.4 1.277e+04 1.735e-09
 69.39234    -95.4 1.228e+04 1.493e-09
 69.40776    -94.2 1.271e+04 1.782e-09
 69.42043    -93.1 1.311e+04 2.062e-09
 69.43025    -93.6 1.282e+04 1.716e-09
 69.44702    -92.9 1.305e+04 1.768e-09
 69.46665    -92.4 1.328e+04 1.805e-09
 69.48627    -92.1 1.354e+04 1.853e-09
 69.50590    -92.0 1.379e+04 1.916e-09
 69.52553    -92.0 1.401e+04 1.991e-09
 69.54516    -92.0 1.421e+04 2.082e-09
 69.56479    -92.4 1.445e+04 2.228e-09
 69.58442    -93.5 1.475e+04 2.490e-09
 69.60404    -94.9 1.507e+04 2.944e-09
 69.62367    -96.3 1.546e+04 3.681e-09
 69.64330    -97.5 1.596e+04 4.716e-09
 69.66293    -98.4 1.646e+04 5.841e-09
 69.67353    -99.2 1.680e+04 6.585e-09
 69.68335    -99.1 1.644e+04 6.196e-09
 69.69793    -99.8 1.660e+04 6.496e-09
 69.70774    -99.9 1.622e+04 5.502e-09
 69.72181   -100.9 1.625e+04 5.426e-09
 69.74144   -102.0 1.598e+04 4.425e-09
 69.76107   -103.4 1.526e+04 3.168e-09
 69.78070   -105.0 1.432e+04 2.213e-09
 69.80033   -106.3 1.337e+04 1.605e-09
 69.81995   -107.1 1.262e+04 1.243e-09
 69.83958   -107.3 1.213e+04 1.022e-09
 69.85921   -107.3 1.180e+04 8.634e-10
 69.87884   -106.9 1.152e+04 7.238e-10
 69.89847   -106.5 1.130e+04 5.958e-10
 69.91682   -106.1 1.113e+04 4.809e-10
 69.92664   -105.6 1.122e+04 5.539e-10
 69.93772   -105.2 1.101e+04 4.429e-10
 69.95735   -105.1 1.079e+04 3.650e-10
 69.98689   -105.4 1.053e+04 3.205e-10
 70.02625   -104.3 1.036e+04 3.053e-10
 70.06550   -103.2 1.024e+04 3.043e-10
 70.10476   -102.0 1.016e+04 3.128e-10
 70.14402   -100.8 1.017e+04 3.353e-10
 70.17012    -99.7 1.020e+04 3.591e-10
 70.18975    -98.5 1.008e+04 3.099e-10
 70.22253    -97.4 1.018e+04 3.402e-10
 70.26178    -96.1 1.018e+04 3.576e-10
 70.30104    -94.9 1.018e+04 3.625e-10
 70.32893    -93.7 1.016e+04 3.695e-10
 70.34856    -94.9 1.007e+04 3.621e-10
 70.37955    -93.9 1.002e+04 3.755e-10
 70.41881    -92.8 9.976e+03 3.933e-10
 70.45807    -91.7 9.953e+03 4.166e-10
 70.49732    -90.6 9.989e+03 4.481e-10
 70.52667    -89.4 1.005e+04 4.961e-10
 70.54620    -88.6 1.008e+04 5.453e-10
 70.56583    -87.9 1.011e+04 5.761e-10
 70.58545    -87.2 1.013e+04 5.806e-10
 70.60508    -86.5 1.014e+04 5.724e-10
 70.62471    -85.8 1.014e+04 5.567e-10
 70.64414    -85.2 1.012e+04 5.321e-10
 70.65396    -85.8 9.989e+03 4.810e-10
 70.66397    -85.2 9.949e+03 4.588e-10
 70.67613    -84.7 9.936e+03 4.430e-10
 70.68594    -84.1 1.030e+04 5.695e-10
 70.70322    -83.7 1.031e+04 5.585e-10
 70.72285    -83.4 1.032e+04 5.580e-10
 70.74248    -83.4 1.051e+04 5.826e-10
 70.76211    -83.5 1.083e+04 6.894e-10
 70.78174    -83.5 1.126e+04 8.702e-10
 70.81128    -83.3 1.202e+04 1.203e-09
 70.84072    -84.4 1.277e+04 1.698e-09
 70.86025    -85.0 1.344e+04 2.205e-09
 70.87988    -85.6 1.398e+04 2.668e-09
 70.89951    -86.3 1.441e+04 2.969e-09
 70.91913    -87.2 1.471e+04 3.050e-09
 70.92923    -88.5 1.483e+04 3.025e-09
 70.93905    -88.3 1.581e+04 4.532e-09
 70.95839    -89.6 1.593e+04 4.542e-09
 70.96936    -91.1 1.581e+04 4.250e-09
 70.97918    -91.5 1.535e+04 3.460e-09
 70.99765    -92.9 1.511e+04 3.392e-09
 71.01728    -94.0 1.468e+04 3.124e-09
 71.03690    -94.8 1.412e+04 2.662e-09
 71.05653    -95.3 1.353e+04 2.112e-09
 71.07616    -95.7 1.290e+04 1.607e-09
 71.09579    -96.0 1.230e+04 1.216e-09
 71.11542    -96.1 1.178e+04 9.391e-10
 71.13504    -96.1 1.136e+04 7.348e-10
 71.15467    -95.6 1.103e+04 5.734e-10
 71.17252    -95.0 1.083e+04 4.516e-10
 71.18233    -95.2 1.086e+04 4.756e-10
 71.20384    -94.8 1.072e+04 3.846e-10
 71.24319    -93.9 1.051e+04 3.158e-10
 71.28245    -92.6 1.027e+04 2.588e-10
 71.32171    -91.4 1.020e+04 2.275e-10
 71.36096    -90.3 1.019e+04 2.176e-10
 71.40022    -89.4 1.028e+04 2.198e-10
 71.43948    -88.7 1.046e+04 2.418e-10
 71.47873    -88.5 1.070e+04 2.789e-10
 71.51799    -88.5 1.098e+04 3.428e-10
 71.54733    -88.8 1.115e+04 4.158e-10
 71.56686    -89.4 1.124e+04 4.769e-10
 71.58649    -89.9 1.134e+04 5.796e-10
 71.60018    -90.2 1.153e+04 6.339e-10
 71.60999    -90.8 1.136e+04 5.849e-10
 71.62575    -91.4 1.151e+04 5.638e-10
 71.64538    -92.4 1.150e+04 4.914e-10
 71.66501    -93.7 1.143e+04 4.032e-10
 71.67872    -95.3 1.131e+04 3.378e-10
 71.68854    -96.1 1.135e+04 3.683e-10
 71.70426    -97.6 1.127e+04 3.540e-10
 71.72389    -98.8 1.127e+04 3.518e-10
 71.74352    -99.7 1.134e+04 3.639e-10
 71.76315   -100.3 1.138e+04 3.860e-10
 71.78278   -100.8 1.136e+04 4.220e-10
 71.80240   -101.0 1.137e+04 4.665e-10
 71.82203   -101.1 1.138e+04 5.224e-10
 71.84166   -101.2 1.143e+04 5.488e-10
 71.87120   -101.7 1.145e+04 5.598e-10
 71.91055   -101.5 1.135e+04 5.260e-10
 71.94981   -101.3 1.122e+04 4.764e-10
 71.97915   -101.8 1.112e+04 4.245e-10
 71.99869   -102.0 1.114e+04 4.227e-10
 72.01831   -102.3 1.111e+04 4.367e-10
 72.03794   -102.6 1.119e+04 4.953e-10
 72.05757   -102.7 1.125e+04 5.806e-10
 72.07720   -102.5 1.128e+04 6.673e-10
 72.09683   -102.2 1.127e+04 7.321e-10
 72.11645   -101.8 1.124e+04 7.553e-10
 72.13608   -101.2 1.114e+04 7.607e-10
 72.15571   -100.7 1.094e+04 6.962e-10
 72.17511   -100.1 1.072e+04 5.885e-10
 72.18493   -100.9 1.045e+04 4.465e-10
 72.19497   -100.8 1.023e+04 3.636e-10
 72.22127   -100.6 1.002e+04 2.988e-10
 72.24100   -101.1 9.999e+03 2.942e-10
 72.26386    -99.7 9.549e+03 2.071e-10
 72.30312    -98.2 9.298e+03 1.653e-10
 72.34237    -96.6 9.227e+03 1.486e-10
 72.38163    -95.1 9.226e+03 1.466e-10
 72.42089    -93.9 9.438e+03 1.758e-10
 72.46014    -93.0 9.849e+03 2.553e-10
 72.49940    -92.1 1.029e+04 3.752e-10
 72.53866    -91.6 1.069e+04 4.874e-10
 72.57791    -91.5 1.120e+04 6.239e-10
 72.61717    -92.0 1.165e+04 7.365e-10
 72.65643    -93.5 1.185e+04 7.988e-10
 72.68152    -95.4 1.182e+04 8.568e-10
 72.70114    -94.5 1.141e+04 5.906e-10
 72.73494    -96.1 1.132e+04 7.019e-10
 72.77419    -97.1 1.137e+04 7.495e-10
 72.81345    -98.0 1.135e+04 7.437e-10
 72.85218    -99.4 1.105e+04 6.366e-10
 72.87181   -100.7 1.076e+04 5.140e-10
 72.89196   -101.9 1.066e+04 4.550e-10
 72.93122   -103.3 1.057e+04 4.232e-10
 72.96057   -103.1 1.059e+04 4.396e-10
 72.98010   -103.8 1.066e+04 4.727e-10
 72.99972   -104.9 1.074e+04 5.782e-10
 73.01935   -105.4 1.097e+04 7.320e-10
 73.03898   -105.6 1.119e+04 8.924e-10
 73.05861   -105.6 1.134e+04 1.015e-09
 73.07824   -105.6 1.138e+04 1.062e-09
 73.09787   -105.5 1.124e+04 1.034e-09
 73.11749   -105.4 1.105e+04 9.273e-10
 73.13712   -105.2 1.075e+04 7.666e-10
 73.15675   -105.1 1.040e+04 5.899e-10
 73.17638   -105.2 1.005e+04 4.442e-10
 73.18762   -105.5 9.689e+03 3.407e-10
 73.20735   -105.6 9.586e+03 3.144e-10
 73.24527   -104.6 9.206e+03 2.510e-10
 73.28453   -103.5 9.078e+03 2.338e-10
 73.32378   -102.4 9.058e+03 2.315e-10
 73.36304   -101.7 9.358e+03 2.738e-10
 73.40230   -101.0 9.870e+03 3.700e-10
 73.43091   -100.8 1.012e+04 4.368e-10
 73.44063   -101.5 1.031e+04 5.143e-10
 73.45117   -101.4 1.072e+04 6.934e-10
 73.47080   -101.3 1.115e+04 9.224e-10
 73.49043   -101.3 1.167e+04 1.227e-09
 73.50242   -101.5 1.228e+04 1.672e-09
 73.51224   -102.2 1.235e+04 1.777e-09
 73.52969   -102.3 1.289e+04 2.301e-09
 73.54931   -102.2 1.339e+04 2.952e-09
 73.56894   -101.8 1.378e+04 3.481e-09
 73.58857   -101.6 1.400e+04 3.706e-09
 73.60820   -101.6 1.406e+04 3.736e-09
 73.62783   -101.6 1.399e+04 3.486e-09
 73.64745   -102.0 1.370e+04 2.959e-09
 73.66708   -102.9 1.331e+04 2.445e-09
 73.68392   -104.0 1.290e+04 2.074e-09
 73.69373   -104.0 1.232e+04 1.631e-09
 73.70634   -104.8 1.217e+04 1.559e-09
 73.72597   -105.3 1.204e+04 1.484e-09
 73.75551   -106.1 1.175e+04 1.310e-09
 73.79486   -106.2 1.174e+04 1.349e-09
 73.83412   -106.1 1.166e+04 1.318e-09
 73.87337   -105.5 1.148e+04 1.217e-09
 73.91263   -104.2 1.124e+04 1.048e-09
 73.95189   -102.7 1.100e+04 8.854e-10
 73.99114   -101.1 1.086e+04 7.860e-10
 74.03040    -99.5 1.083e+04 7.592e-10
 74.06966    -98.0 1.087e+04 7.630e-10
 74.10891    -96.5 1.097e+04 8.058e-10
 74.13343    -95.0 1.102e+04 8.472e-10
 74.15306    -95.0 1.092e+04 7.765e-10
 74.18050    -93.4 1.096e+04 8.138e-10
 74.20013    -92.7 1.072e+04 6.944e-10
 74.22668    -91.0 1.062e+04 6.650e-10
 74.26594    -89.2 1.048e+04 6.147e-10
 74.30520    -87.5 1.032e+04 5.576e-10
 74.34445    -85.7 1.019e+04 5.052e-10
 74.38371    -83.9 1.010e+04 4.717e-10
 74.42296    -82.2 1.003e+04 4.542e-10
 74.46222    -80.5 1.006e+04 4.528e-10
 74.50148    -79.0 1.018e+04 4.823e-10
 74.54073    -77.6 1.038e+04 5.398e-10
 74.57999    -76.3 1.067e+04 6.418e-10
 74.61925    -75.1 1.103e+04 8.231e-10
 74.65850    -73.9 1.143e+04 1.074e-09
 74.68671    -72.9 1.184e+04 1.277e-09
 74.70633    -72.5 1.215e+04 1.503e-09
 74.73702    -71.9 1.248e+04 1.651e-09
 74.76424    -71.7 1.254e+04 1.651e-09
 74.78387    -72.7 1.250e+04 1.459e-09
 74.80562    -72.6 1.231e+04 1.252e-09
 74.82515    -72.6 1.223e+04 1.166e-09
 74.84478    -73.0 1.216e+04 1.073e-09
 74.86440    -73.3 1.218e+04 1.058e-09
 74.88403    -73.7 1.222e+04 1.108e-09
 74.90366    -73.8 1.230e+04 1.216e-09
 74.92329    -73.9 1.234e+04 1.342e-09
 74.93961    -73.8 1.238e+04 1.462e-09
 74.94943    -73.7 1.211e+04 1.353e-09
 74.96254    -73.3 1.212e+04 1.381e-09
 74.98217    -73.1 1.210e+04 1.354e-09
 75.01171    -73.2 1.215e+04 1.311e-09
 75.05107    -72.6 1.174e+04 1.065e-09
 75.09032    -71.9 1.121e+04 8.146e-10
 75.12958    -71.0 1.081e+04 6.522e-10
 75.16884    -70.0 1.065e+04 5.852e-10
 75.19291    -68.8 1.062e+04 5.718e-10
 75.21254    -68.1 1.030e+04 4.689e-10
 75.24735    -66.8 1.047e+04 5.402e-10
 75.28661    -65.4 1.065e+04 6.158e-10
 75.32586    -64.1 1.075e+04 6.588e-10
 75.36512    -62.8 1.076e+04 6.662e-10
 75.39505    -61.5 1.066e+04 6.133e-10
 75.41468    -61.0 1.022e+04 4.693e-10
 75.44363    -59.6 1.014e+04 4.337e-10
 75.48289    -58.1 1.000e+04 3.775e-10
 75.52214    -56.6 9.831e+03 3.190e-10
 75.56140    -55.2 9.701e+03 2.734e-10
 75.60066    -53.6 9.658e+03 2.558e-10
 75.63991    -51.9 9.630e+03 2.551e-10
 75.67917    -50.0 9.580e+03 2.630e-10
 75.69912    -47.9 9.528e+03 2.666e-10
 75.71874    -47.0 9.421e+03 2.280e-10
 75.75768    -44.9 9.361e+03 2.278e-10
 75.79694    -42.7 9.229e+03 2.119e-10
 75.83620    -40.5 9.066e+03 1.825e-10
 75.87545    -38.2 8.905e+03 1.513e-10
 75.91471    -36.1 8.769e+03 1.263e-10
 75.95396    -33.9 8.663e+03 1.094e-10
 75.99322    -31.6 8.554e+03 9.810e-11
 76.02586    -29.2 8.450e+03 8.810e-11
 76.04549    -29.6 8.437e+03 9.152e-11
 76.07173    -27.2 8.351e+03 8.178e-11
 76.11099    -24.7 8.288e+03 7.216e-11
 76.15025    -22.3 8.250e+03 6.406e-11
 76.18569    -19.9 8.261e+03 6.023e-11
 76.20532    -19.5 8.296e+03 6.267e-11
 76.22876    -17.3 8.304e+03 6.026e-11
 76.26802    -15.2 8.387e+03 6.133e-11
 76.30727    -13.5 8.494e+03 6.638e-11
 76.34653    -11.9 8.698e+03 8.444e-11
 76.38579    -10.1 9.022e+03 1.271e-10
 76.42504     -8.5 9.296e+03 1.885e-10
 76.46430     -7.0 9.560e+03 2.711e-10
 76.50355     -5.6 9.806e+03 3.813e-10
 76.54281     -3.8 1.009e+04 4.937e-10
 76.58207     -2.4 1.039e+04 5.527e-10
 76.62132     -2.0 1.082e+04 5.743e-10
 76.65667     -3.4 1.132e+04 6.534e-10
 76.67630     -2.6 1.060e+04 3.947e-10
 76.69190     -4.2 1.118e+04 6.771e-10
 76.71153     -2.6 9.787e+03 2.521e-10
 76.73909     -2.7 1.074e+04 6.080e-10
 76.77835     -1.7 1.139e+04 1.042e-09
 76.81761     -1.7 1.180e+04 1.309e-09
 76.84695     -2.4 1.180e+04 1.225e-09
 76.86648     -2.2 1.178e+04 1.183e-09
 76.88611     -2.9 1.144e+04 1.051e-09
 76.90574     -2.8 1.174e+04 1.057e-09
 76.92537     -3.9 1.207e+04 1.047e-09
 76.94480     -5.5 1.202e+04 1.088e-09
 76.95462     -4.1 1.274e+04 1.311e-09
 76.96462     -6.1 1.221e+04 1.306e-09
 76.98169     -6.8 1.195e+04 1.425e-09
 76.99151     -6.4 1.174e+04 1.274e-09
 77.00388     -6.5 1.190e+04 1.440e-09
 77.02351     -6.4 1.201e+04 1.510e-09
 77.04313     -6.5 1.201e+04 1.517e-09
 77.06276     -6.7 1.182e+04 1.353e-09
 77.08239     -7.4 1.169e+04 1.200e-09
 77.10202     -8.2 1.179e+04 1.166e-09
 77.12165     -9.7 1.184e+04 1.174e-09
 77.14128    -11.0 1.201e+04 1.307e-09
 77.16090    -12.1 1.214e+04 1.474e-09
 77.18053    -12.9 1.222e+04 1.594e-09
 77.19791    -13.6 1.213e+04 1.585e-09
 77.20772    -13.6 1.207e+04 1.486e-09
 77.21979    -14.2 1.200e+04 1.496e-09
 77.23942    -14.7 1.182e+04 1.452e-09
 77.25905    -14.9 1.150e+04 1.212e-09
 77.27867    -15.2 1.110e+04 9.146e-10
 77.29710    -16.0 1.068e+04 6.693e-10
 77.30691    -15.6 1.072e+04 6.968e-10
 77.31793    -16.7 1.030e+04 5.009e-10
 77.33756    -18.0 9.977e+03 3.939e-10
 77.35719    -19.2 9.835e+03 3.475e-10
 77.37681    -19.9 9.835e+03 3.421e-10
 77.39644    -20.9 9.908e+03 3.520e-10
 77.41607    -21.5 9.999e+03 3.753e-10
 77.43570    -22.3 1.005e+04 4.106e-10
 77.45101    -22.4 1.008e+04 4.270e-10
 77.46082    -23.0 1.029e+04 5.067e-10
 77.47496    -23.1 1.028e+04 5.191e-10
 77.49458    -23.2 1.025e+04 5.141e-10
 77.51421    -23.1 1.010e+04 4.607e-10
 77.53384    -23.2 9.983e+03 4.129e-10
 77.56338    -23.3 9.841e+03 3.633e-10
 77.60273    -23.1 9.688e+03 3.427e-10
 77.64199    -22.2 9.515e+03 3.330e-10
 77.68125    -21.0 9.355e+03 3.245e-10
 77.70431    -19.4 9.207e+03 2.991e-10
 77.72393    -20.4 9.220e+03 3.043e-10
 77.75976    -18.6 9.012e+03 2.602e-10
 77.79902    -16.8 8.809e+03 2.126e-10
 77.83827    -15.0 8.633e+03 1.748e-10
 77.87753    -13.1 8.512e+03 1.526e-10
 77.91679    -11.1 8.402e+03 1.379e-10
 77.93792     -8.9 8.318e+03 1.265e-10
 77.95755     -8.9 8.236e+03 1.164e-10
 77.99530     -6.7 8.196e+03 1.084e-10
 78.03455     -4.5 8.206e+03 1.070e-10
 78.07381     -3.6 8.588e+03 1.314e-10
 78.11307     -3.9 9.229e+03 2.652e-10
 78.15232     -3.6 1.022e+04 6.224e-10
 78.18167     -1.9 1.114e+04 1.053e-09
 78.20050     -2.2 1.123e+04 1.116e-09
 78.21032     -2.7 1.130e+04 1.168e-09
 78.22083     -2.0 1.152e+04 1.417e-09
 78.24046     -0.8 1.155e+04 1.442e-09
 78.27000     -0.1 1.159e+04 1.238e-09
 78.30935     -0.5 1.050e+04 6.108e-10
 78.33869     -0.7 9.797e+03 3.660e-10
 78.35822     -0.5 9.762e+03 3.540e-10
 78.38776     -0.6 9.388e+03 2.881e-10
 78.42712      0.8 9.480e+03 3.065e-10
 78.46638      2.2 9.697e+03 3.574e-10
 78.50563      3.8 9.950e+03 4.342e-10
 78.53498      5.2 1.008e+04 4.629e-10
 78.55451      5.6 1.016e+04 4.764e-10
 78.56854      6.3 1.038e+04 5.361e-10
 78.58826      6.7 1.021e+04 4.553e-10
 78.61349      7.0 1.044e+04 5.686e-10
 78.63302      7.4 1.056e+04 6.428e-10
 78.65265      8.1 1.075e+04 7.693e-10
 78.67228      8.9 1.101e+04 8.581e-10
 78.69699      9.8 1.139e+04 9.733e-10
 78.71662      9.9 1.154e+04 1.048e-09
 78.74107     10.2 1.211e+04 1.284e-09
 78.77051      8.6 1.288e+04 1.791e-09
 78.79005      7.8 1.332e+04 2.211e-09
 78.80967      7.5 1.360e+04 2.775e-09
 78.82930      8.2 1.346e+04 3.270e-09
 78.84893      9.5 1.334e+04 3.302e-09
 78.86856     10.8 1.338e+04 2.764e-09
 78.88394     11.5 1.337e+04 1.954e-09
 78.89376     11.7 1.372e+04 2.430e-09
 78.90781     11.2 1.324e+04 1.492e-09
 78.92744      9.5 1.208e+04 8.783e-10
 78.94707      8.3 1.092e+04 5.410e-10
 78.95981      7.7 1.040e+04 3.733e-10
 78.96962      8.5 1.092e+04 5.071e-10
 78.98633      8.1 1.050e+04 3.629e-10
 79.00596      7.7 1.024e+04 2.926e-10
 79.02558      7.6 1.015e+04 2.746e-10
 79.05512      7.7 1.023e+04 2.600e-10
 79.09448      7.4 1.045e+04 3.030e-10
 79.12382      6.6 1.063e+04 4.345e-10
 79.14335      6.4 1.087e+04 5.141e-10
 79.16298      6.5 1.096e+04 6.467e-10
 79.18261      7.0 1.094e+04 6.842e-10
 79.19935      7.1 1.104e+04 6.589e-10
 79.20916      6.7 1.115e+04 6.976e-10
 79.21291      5.5 1.186e+04 6.138e-10
 79.22273      5.6 1.215e+04 6.761e-10
 79.24149      2.6 1.224e+04 6.611e-10
 79.26112      0.2 1.139e+04 7.452e-10
 79.28075     -0.3 1.127e+04 9.188e-10
 79.30038      0.8 1.175e+04 1.052e-09
 79.32001      0.5 1.170e+04 9.901e-10
 79.33964      0.7 1.163e+04 8.693e-10
 79.35926     -0.5 1.081e+04 6.265e-10
 79.37889     -0.5 1.063e+04 5.515e-10
 79.39852     -0.9 1.027e+04 4.429e-10
 79.41815     -0.6 1.021e+04 4.172e-10
 79.44769     -0.6 1.012e+04 3.689e-10
 79.48704     -0.4 1.009e+04 3.384e-10
 79.51485     -0.2 1.013e+04 3.668e-10
 79.52457     -0.8 1.014e+04 3.795e-10
 79.53592     -0.7 1.021e+04 4.345e-10
 79.55555     -0.5 1.022e+04 5.372e-10
 79.57517      0.3 1.030e+04 6.010e-10
 79.59480      1.2 1.051e+04 6.629e-10
 79.61443      1.7 1.074e+04 6.883e-10
 79.63406      1.6 1.102e+04 6.807e-10
 79.65369      1.1 1.112e+04 7.154e-10
 79.68323      1.9 1.118e+04 7.777e-10
 79.70950      1.6 1.133e+04 8.965e-10
 79.72913     -0.5 1.111e+04 8.667e-10
 79.76184     -0.1 1.121e+04 9.794e-10
 79.80109      0.9 1.144e+04 1.018e-09
 79.83035      1.6 1.140e+04 9.070e-10
 79.84998      0.8 1.125e+04 7.828e-10
 79.87961      1.4 1.069e+04 5.934e-10
 79.91886      2.7 1.031e+04 4.951e-10
 79.95812      4.2 1.014e+04 4.215e-10
 79.99738      5.6 1.013e+04 4.198e-10
 80.03663      7.4 1.021e+04 4.974e-10
 80.06598      9.7 1.034e+04 5.724e-10
 80.08551     10.3 1.034e+04 5.745e-10
 80.10514     12.3 1.050e+04 6.108e-10
 80.12476     12.9 1.053e+04 6.169e-10
 80.14439     14.6 1.054e+04 5.930e-10
 80.15538     15.2 1.056e+04 5.960e-10
 80.16519     15.1 1.076e+04 6.897e-10
 80.18365     16.5 1.085e+04 6.593e-10
 80.20328     16.9 1.093e+04 6.706e-10
 80.21551     17.8 1.086e+04 7.253e-10
 80.22532     17.7 1.115e+04 9.054e-10
 80.24253     18.6 1.146e+04 1.026e-09
 80.26216     17.5 1.261e+04 1.410e-09
 80.28179     12.0 1.647e+04 3.381e-09
 80.30142      8.1 1.782e+04 8.586e-09
 80.32105      9.9 1.846e+04 2.028e-08
 80.33572     10.9 1.865e+04 3.080e-08
 80.34196     12.3 1.877e+04 3.366e-08
 80.34687     12.3 1.890e+04 3.288e-08
 80.35530     13.4 1.893e+04 2.933e-08
 80.36511     14.1 1.950e+04 2.535e-08
 80.37493     13.6 2.136e+04 1.739e-08
 80.38474     12.0 2.138e+04 1.212e-08
 80.39951      6.5 1.864e+04 5.664e-09
 80.41919     -1.8 1.383e+04 2.483e-09
 80.43881     -3.1 1.295e+04 2.030e-09
 80.45844     -4.0 1.267e+04 1.661e-09
 80.46861     -4.8 1.245e+04 1.493e-09
 80.47113     -6.3 1.230e+04 1.420e-09
 80.48060     -6.9 1.208e+04 1.257e-09
 80.50761     -7.8 1.166e+04 1.053e-09
 80.54697     -8.6 1.115e+04 8.316e-10
 80.58622     -8.7 1.076e+04 6.934e-10
 80.62548     -8.2 1.027e+04 5.144e-10
 80.66473     -7.3 9.692e+03 3.203e-10
 80.70228     -6.3 9.185e+03 1.860e-10
 80.72191     -7.2 9.076e+03 1.636e-10
 80.74325     -6.0 8.786e+03 1.063e-10
 80.78250     -4.6 8.608e+03 8.017e-11
 80.82176     -2.9 8.501e+03 6.706e-11
 80.86102     -1.0 8.461e+03 5.900e-11
 80.90027      1.0 8.463e+03 5.648e-11
 80.93953      3.1 8.497e+03 5.682e-11
 80.97879      4.9 8.653e+03 6.210e-11
 81.01804      6.2 8.863e+03 7.844e-11
 81.05730      7.3 9.046e+03 1.186e-10
 81.09197      8.7 9.346e+03 2.042e-10
 81.11160      9.5 9.197e+03 1.790e-10
 81.13581     10.9 9.735e+03 2.969e-10
 81.17507     11.8 1.018e+04 4.079e-10
 81.20848     13.4 1.013e+04 5.063e-10
 81.22811     13.6 1.015e+04 4.952e-10
 81.25358     15.3 1.021e+04 3.744e-10
 81.29284     16.4 1.002e+04 2.472e-10
 81.33209     17.2 9.773e+03 1.705e-10
 81.37135     18.2 9.508e+03 1.377e-10
 81.41061     19.9 9.406e+03 1.385e-10
 81.44986     21.7 9.462e+03 1.549e-10
 81.48912     23.7 9.518e+03 2.015e-10
 81.52838     26.2 9.641e+03 2.457e-10
 81.56763     28.7 9.911e+03 2.876e-10
 81.60689     30.3 1.026e+04 3.249e-10
 81.64614     31.6 1.039e+04 3.412e-10
 81.67549     32.0 1.061e+04 4.166e-10
 81.69502     32.4 1.068e+04 4.775e-10
 81.71449     32.9 1.080e+04 5.813e-10
 81.72431     32.6 1.109e+04 7.234e-10
 81.73240     33.6 1.119e+04 7.966e-10
 81.74222     34.0 1.174e+04 1.076e-09
 81.75390     35.0 1.175e+04 1.078e-09
 81.77353     36.0 1.169e+04 1.014e-09
 81.79316     37.0 1.150e+04 8.467e-10
 81.81279     37.7 1.125e+04 6.710e-10
 81.83242     38.3 1.103e+04 4.928e-10
 81.85205     38.3 1.091e+04 3.803e-10
 81.87167     38.4 1.074e+04 2.857e-10
 81.89130     38.4 1.067e+04 2.557e-10
 81.91093     39.1 1.044e+04 2.445e-10
 81.93056     39.2 1.036e+04 2.418e-10
 81.95019     40.6 1.030e+04 2.742e-10
 81.96760     41.0 1.035e+04 2.897e-10
 81.97741     40.7 1.035e+04 2.905e-10
 81.99936     42.8 1.041e+04 3.593e-10
 82.03871     45.0 1.037e+04 3.657e-10
 82.07797     47.1 1.034e+04 3.761e-10
 82.11722     49.1 1.032e+04 4.037e-10
 82.15648     51.1 1.034e+04 4.450e-10
 82.19573     53.0 1.040e+04 4.862e-10
 82.22089     54.7 1.053e+04 5.433e-10
 82.24052     52.7 1.083e+04 6.684e-10
 82.27425     53.0 1.135e+04 9.025e-10
 82.31350     52.9 1.198e+04 1.356e-09
 82.35276     52.7 1.217e+04 1.663e-09
 82.37322     52.8 1.188e+04 1.521e-09
 82.39285     52.9 1.170e+04 1.411e-09
 82.43127     53.6 1.097e+04 9.896e-10
 82.47053     54.3 9.978e+03 4.705e-10
 82.50979     53.8 8.861e+03 1.831e-10
 82.54904     53.0 8.317e+03 1.315e-10
 82.58830     53.4 8.299e+03 1.375e-10
 82.62756     54.1 8.479e+03 1.836e-10
 82.66681     55.1 8.936e+03 3.041e-10
 82.70607     56.5 9.372e+03 4.717e-10
 82.72710     57.8 9.577e+03 5.746e-10
 82.74673     58.0 9.405e+03 5.045e-10
 82.78458     59.0 9.355e+03 4.923e-10
 82.82384     60.2 9.057e+03 4.009e-10
 82.86309     61.3 8.615e+03 2.736e-10
 82.90235     61.9 8.159e+03 1.810e-10
 82.94161     62.5 7.884e+03 1.477e-10
 82.98086     63.5 7.883e+03 1.513e-10
 83.00403     64.7 7.959e+03 1.733e-10
 83.02366     64.9 7.920e+03 1.662e-10
 83.05938     66.4 8.023e+03 1.887e-10
 83.09863     67.9 8.061e+03 1.953e-10
 83.13789     69.5 8.028e+03 1.897e-10
 83.17715     71.2 7.894e+03 1.674e-10
 83.21367     73.0 7.685e+03 1.364e-10
 83.23330     73.3 7.587e+03 1.250e-10
 83.25566     75.1 7.370e+03 1.016e-10
 83.29491     77.0 7.224e+03 8.751e-11
 83.33417     79.1 7.123e+03 7.716e-11
 83.37343     81.3 7.029e+03 6.917e-11
 83.41268     83.6 6.953e+03 6.259e-11
 83.45194     86.0 6.877e+03 5.771e-11
 83.49120     88.4 6.818e+03 5.674e-11
 83.53045     90.8 6.818e+03 5.698e-11
 83.56971     93.2 6.821e+03 5.769e-11
 83.60897     95.6 6.831e+03 5.832e-11
 83.63485     97.9 6.835e+03 5.838e-11
 83.65447     97.7 6.889e+03 6.534e-11
 83.68748     99.9 6.861e+03 6.278e-11
 83.71988    102.0 6.832e+03 6.047e-11
 83.73951    102.4 6.910e+03 6.692e-11
 83.76599    104.5 6.898e+03 6.534e-11
 83.80525    106.5 6.900e+03 6.530e-11
 83.84450    108.5 6.922e+03 6.631e-11
 83.88376    110.5 6.975e+03 6.987e-11
 83.92302    112.5 7.055e+03 7.589e-11
 83.96227    114.5 7.148e+03 8.353e-11
 84.00153    116.5 7.252e+03 9.296e-11
 84.04079    118.5 7.361e+03 1.036e-10
 84.08004    120.4 7.470e+03 1.142e-10
 84.11930    122.3 7.580e+03 1.235e-10
 84.15856    124.2 7.677e+03 1.297e-10
 84.19781    126.0 7.778e+03 1.344e-10
 84.22608    127.7 7.875e+03 1.387e-10
 84.24571    128.5 7.700e+03 1.224e-10
 84.26566    130.3 7.749e+03 1.238e-10
 84.28528    129.8 7.667e+03 1.164e-10
 84.31558    131.5 7.766e+03 1.234e-10
 84.35484    133.1 7.933e+03 1.418e-10
 84.39409    134.7 8.229e+03 1.805e-10
 84.43335    136.3 8.631e+03 2.469e-10
 84.47261    137.6 9.074e+03 3.392e-10
 84.50195    138.3 9.195e+03 3.773e-10
 84.52148    139.0 9.389e+03 4.331e-10
 84.54111    139.7 9.759e+03 5.483e-10
 84.56074    140.1 1.022e+04 7.191e-10
 84.58037    140.1 1.077e+04 9.423e-10
 84.59068    139.9 1.143e+04 1.245e-09
 84.60049    139.7 1.156e+04 1.312e-09
 84.61962    139.2 1.227e+04 1.722e-09
 84.63925    138.4 1.287e+04 2.207e-09
 84.65888    137.7 1.331e+04 2.676e-09
 84.67851    136.9 1.358e+04 2.993e-09
 84.69814    135.7 1.371e+04 3.130e-09
 84.71776    134.2 1.383e+04 3.201e-09
 84.73209    132.4 1.404e+04 3.321e-09
 84.74191    134.2 1.386e+04 3.171e-09
 84.75702    132.4 1.416e+04 3.424e-09
 84.77665    130.8 1.460e+04 3.872e-09
 84.79628    129.6 1.504e+04 4.495e-09
 84.81591    128.9 1.537e+04 4.920e-09
 84.83553    128.8 1.533e+04 4.806e-09
 84.85516    128.9 1.511e+04 4.295e-09
 84.87479    129.0 1.462e+04 3.369e-09
 84.89442    128.9 1.385e+04 2.378e-09
 84.90609    128.4 1.281e+04 1.655e-09
 84.91590    126.0 1.265e+04 1.521e-09
 84.93367    125.3 1.159e+04 1.168e-09
 84.95330    125.3 1.121e+04 1.072e-09
 84.97293    125.8 1.124e+04 1.095e-09
 84.98520    126.5 1.136e+04 1.188e-09
 84.99501    128.2 1.144e+04 1.205e-09
 85.01219    128.9 1.170e+04 1.328e-09
 85.03182    129.4 1.206e+04 1.585e-09
 85.05144    129.3 1.269e+04 2.060e-09
 85.07107    129.0 1.386e+04 2.867e-09
 85.09070    128.1 1.522e+04 4.148e-09
 85.11033    126.9 1.639e+04 5.866e-09
 85.12996    125.8 1.716e+04 7.594e-09
 85.14958    124.7 1.750e+04 8.676e-09
 85.16921    123.6 1.733e+04 8.369e-09
 85.18884    122.3 1.686e+04 7.141e-09
 85.20847    120.7 1.620e+04 5.461e-09
 85.22149    118.3 1.548e+04 4.202e-09
 85.23130    116.8 1.471e+04 3.356e-09
 85.23830    114.3 1.432e+04 3.344e-09
 85.24811    116.5 1.477e+04 3.403e-09
 85.26735    113.8 1.458e+04 3.467e-09
 85.28698    111.7 1.453e+04 3.733e-09
 85.30661    110.1 1.455e+04 3.792e-09
 85.32624    108.9 1.446e+04 3.646e-09
 85.34587    107.8 1.408e+04 3.055e-09
 85.36550    106.2 1.356e+04 2.170e-09
 85.38512    103.6 1.278e+04 1.421e-09
 85.40475    100.2 1.184e+04 1.019e-09
 85.42438     97.3 1.115e+04 9.332e-10
 85.44401     95.9 1.101e+04 9.264e-10
 85.46364     95.4 1.099e+04 9.413e-10
 85.48159     95.1 1.102e+04 9.697e-10
 85.49140     95.1 1.115e+04 1.018e-09
 85.50289     94.8 1.119e+04 1.036e-09
 85.52252     94.4 1.125e+04 1.051e-09
 85.53690     94.0 1.134e+04 1.076e-09
 85.54671     94.9 1.139e+04 1.112e-09
 85.56178     94.6 1.148e+04 1.140e-09
 85.58141     94.2 1.161e+04 1.196e-09
 85.60103     93.9 1.175e+04 1.272e-09
 85.62066     93.8 1.190e+04 1.358e-09
 85.64029     93.8 1.201e+04 1.441e-09
 85.65992     93.9 1.207e+04 1.495e-09
 85.67955     94.1 1.205e+04 1.499e-09
 85.69917     94.5 1.195e+04 1.460e-09
 85.71880     95.1 1.182e+04 1.361e-09
 85.73469     95.6 1.172e+04 1.262e-09
 85.74450     95.1 1.140e+04 1.089e-09
 85.75806     96.1 1.112e+04 8.527e-10
 85.77769     96.4 1.106e+04 8.025e-10
 85.80723     97.6 1.038e+04 5.264e-10
 85.84658     98.8 9.611e+03 3.471e-10
 85.88584    100.3 9.374e+03 3.141e-10
 85.92509    101.4 9.408e+03 3.302e-10
 85.95444    102.8 9.362e+03 3.431e-10
 85.97397    103.9 9.402e+03 3.823e-10
 85.98779    104.9 9.647e+03 4.637e-10
 85.99761    104.1 9.780e+03 5.015e-10
 86.01323    105.2 1.013e+04 6.395e-10
 86.03285    106.3 1.067e+04 8.369e-10
 86.05248    107.5 1.119e+04 1.070e-09
 86.08202    108.9 1.188e+04 1.382e-09
 86.12138    110.4 1.261e+04 1.851e-09
 86.15072    111.1 1.284e+04 2.049e-09
 86.16771    111.8 1.292e+04 2.098e-09
 86.17752    113.1 1.307e+04 2.227e-09
 86.18988    113.6 1.310e+04 2.231e-09
 86.20951    114.1 1.303e+04 2.148e-09
 86.22914    114.5 1.288e+04 1.997e-09
 86.24089    115.0 1.262e+04 1.774e-09
 86.25081    114.9 1.204e+04 1.322e-09
 86.27840    116.0 1.144e+04 1.005e-09
 86.31766    117.3 1.074e+04 7.344e-10
 86.35691    119.0 9.900e+03 5.189e-10
 86.39617    120.8 9.589e+03 3.970e-10
 86.43543    122.7 9.588e+03 3.514e-10
 86.47468    124.9 9.776e+03 3.479e-10
 86.51394    127.3 1.021e+04 3.871e-10
 86.55320    130.3 1.091e+04 4.656e-10
 86.59245    133.1 1.140e+04 5.507e-10
 86.63171    136.2 1.240e+04 7.156e-10
 86.66105    138.3 1.154e+04 5.246e-10
 86.68058    140.0 1.181e+04 5.487e-10
 86.70021    141.1 1.260e+04 7.157e-10
 86.71984    142.1 1.334e+04 9.952e-10
 86.73728    143.1 1.406e+04 1.392e-09
 86.74710    144.7 1.193e+04 5.806e-10
 86.75910    145.6 1.285e+04 8.072e-10
 86.77873    146.4 1.385e+04 1.187e-09
 86.79835    147.0 1.493e+04 1.844e-09
 86.80833    147.4 1.602e+04 2.946e-09
 86.81815    148.6 1.518e+04 1.964e-09
 86.83761    148.9 1.632e+04 3.235e-09
 86.85724    149.1 1.727e+04 5.121e-09
 86.87687    149.2 1.796e+04 7.342e-09
 86.89650    149.5 1.840e+04 9.217e-09
 86.91612    149.8 1.862e+04 1.007e-08
 86.93575    150.1 1.850e+04 9.732e-09
 86.95538    150.5 1.827e+04 9.001e-09
 86.97501    150.7 1.760e+04 6.773e-09
 86.99039    150.7 1.657e+04 4.263e-09
 87.00020    152.6 1.739e+04 6.718e-09
 87.01426    152.7 1.651e+04 4.427e-09
 87.03389    152.4 1.528e+04 2.532e-09
 87.05352    151.4 1.359e+04 1.327e-09
 87.07315    149.9 1.146e+04 7.067e-10
 87.09278    148.7 9.938e+03 4.431e-10
 87.11241    148.4 9.399e+03 3.552e-10
 87.12374    148.9 9.251e+03 3.240e-10
 87.13355    149.4 9.336e+03 3.391e-10
 87.15166    149.7 9.298e+03 3.230e-10
 87.18120    150.7 9.215e+03 2.994e-10
 87.22056    152.6 9.069e+03 2.773e-10
 87.24368    154.4 8.919e+03 2.512e-10
 87.26331    154.4 9.316e+03 3.147e-10
 87.29907    155.9 9.278e+03 3.095e-10
 87.33833    157.3 9.294e+03 3.112e-10
 87.37758    158.5 9.358e+03 3.198e-10
 87.41684    159.3 9.472e+03 3.401e-10
 87.43934    160.0 9.581e+03 3.656e-10
 87.44905    160.2 9.551e+03 3.593e-10
 87.46571    160.5 9.557e+03 3.619e-10
 87.48534    161.1 9.609e+03 3.808e-10
 87.49659    161.6 9.726e+03 4.119e-10
 87.50641    161.9 1.010e+04 5.144e-10
 87.52460    162.6 1.046e+04 6.204e-10
 87.54423    163.1 1.086e+04 7.518e-10
 87.56385    163.6 1.126e+04 9.010e-10
 87.58348    163.8 1.164e+04 1.066e-09
 87.60311    163.8 1.203e+04 1.251e-09
 87.62274    163.8 1.246e+04 1.468e-09
 87.64237    163.7 1.297e+04 1.738e-09
 87.66200    163.5 1.352e+04 2.107e-09
 87.68162    163.2 1.408e+04 2.594e-09
 87.70125    163.0 1.463e+04 3.174e-09
 87.72088    163.0 1.510e+04 3.711e-09
 87.73988    162.8 1.535e+04 3.934e-09
 87.74969    161.7 1.535e+04 3.919e-09
 87.75455    161.3 1.535e+04 3.898e-09
 87.76436    161.2 1.535e+04 3.887e-09
 87.77976    160.8 1.517e+04 3.690e-09
 87.79939    160.8 1.476e+04 3.223e-09
 87.81902    160.9 1.417e+04 2.584e-09
 87.83865    161.0 1.351e+04 1.985e-09
 87.85828    160.8 1.290e+04 1.529e-09
 87.87791    160.3 1.239e+04 1.225e-09
 87.89753    159.9 1.202e+04 1.051e-09
 87.91716    159.8 1.180e+04 9.695e-10
 87.93679    159.9 1.168e+04 9.422e-10
 87.95642    160.4 1.165e+04 9.362e-10
 87.97605    161.3 1.166e+04 9.392e-10
 87.99298    162.4 1.171e+04 9.530e-10
 88.00280    161.9 1.236e+04 1.250e-09
 88.01530    163.1 1.249e+04 1.307e-09
 88.03493    164.4 1.268e+04 1.391e-09
 88.05456    165.6 1.299e+04 1.534e-09
 88.06995    166.6 1.352e+04 1.803e-09
 88.07977    164.9 1.433e+04 2.265e-09
 88.09382    165.6 1.537e+04 2.969e-09
 88.11344    166.1 1.664e+04 4.155e-09
 88.13307    166.7 1.810e+04 6.147e-09
 88.15270    167.5 1.974e+04 9.511e-09
 88.17233    168.3 2.153e+04 1.410e-08
 88.18700    168.7 2.233e+04 1.695e-08
 88.19677    168.7 2.297e+04 2.061e-08
 88.20658    168.4 2.373e+04 2.568e-08
 88.21639    168.0 2.436e+04 3.197e-08
 88.22621    167.7 2.475e+04 3.891e-08
 88.23247    167.2 2.511e+04 4.434e-08
 88.23737    164.4 2.619e+04 2.993e-08
 88.24584    163.4 2.656e+04 2.881e-08
 88.25089    162.1 2.695e+04 2.535e-08
 88.25580    160.5 2.867e+04 1.303e-08
 88.26547    158.9 2.887e+04 9.842e-09
 88.27528    157.7 2.866e+04 7.574e-09
 88.28509    156.1 2.854e+04 5.596e-09
 88.29491    155.0 2.790e+04 4.686e-09
 88.30968    154.6 2.726e+04 3.167e-09
 88.32935    152.0 2.553e+04 2.236e-09
 88.34898    149.8 2.476e+04 1.958e-09
 88.36861    148.0 2.514e+04 1.745e-09
 88.38536    146.2 2.623e+04 1.457e-09
 88.39517    144.4 1.735e+04 6.616e-10
 88.40787    142.7 1.521e+04 6.864e-10
 88.42750    140.7 1.295e+04 7.629e-10
 88.44712    139.0 1.218e+04 8.337e-10
 88.46675    137.8 1.210e+04 9.377e-10
 88.48638    137.0 1.235e+04 1.072e-09
 88.49919    136.4 1.267e+04 1.242e-09
 88.50900    136.1 1.238e+04 1.113e-09
 88.52564    136.1 1.280e+04 1.288e-09
 88.54526    136.2 1.331e+04 1.504e-09
 88.56489    136.4 1.371e+04 1.699e-09
 88.58452    136.6 1.475e+04 1.781e-09
 88.60415    136.0 1.794e+04 1.788e-09
 88.62378    135.3 2.366e+04 1.728e-09
 88.64341    134.6 2.868e+04 1.618e-09
 88.66303    136.4 2.470e+04 1.790e-09
 88.68266    137.1 2.272e+04 1.925e-09
 88.70076    136.2 2.480e+04 2.206e-09
 88.71058    142.2 1.635e+04 1.820e-09
 88.72192    141.1 1.858e+04 1.946e-09
 88.74155    141.4 1.881e+04 2.347e-09
 88.75229    142.1 1.907e+04 3.423e-09
 88.75715    138.8 3.519e+04 3.710e-09
 88.76598    138.6 3.604e+04 5.430e-09
 88.77580    138.0 3.592e+04 9.440e-09
 88.78561    137.5 3.490e+04 1.983e-08
 88.79543    137.4 3.377e+04 4.183e-08
 88.80524    137.5 3.198e+04 8.590e-08
 88.81505    137.9 3.048e+04 1.456e-07
 88.82487    138.6 2.943e+04 2.096e-07
 88.83468    139.7 2.856e+04 2.742e-07
 88.84450    140.9 2.783e+04 3.440e-07
 88.85431    142.0 2.724e+04 4.281e-07
 88.86328    142.4 2.668e+04 5.218e-07
 88.86818    145.8 3.051e+04 2.160e-07
 88.87384    146.0 2.943e+04 3.052e-07
 88.87874    144.5 2.533e+04 6.624e-07
 88.88375    144.5 2.525e+04 7.341e-07
 88.89357    144.6 2.506e+04 7.803e-07
 88.90338    144.9 2.501e+04 7.654e-07
 88.91320    145.3 2.484e+04 7.275e-07
 88.92301    145.8 2.453e+04 6.672e-07
 88.93282    146.1 2.558e+04 5.307e-07
 88.94264    146.4 2.662e+04 4.250e-07
 88.95245    146.7 2.707e+04 3.617e-07
 88.96227    147.3 2.719e+04 3.211e-07
 88.97208    147.7 2.730e+04 2.884e-07
 88.98189    148.1 2.757e+04 2.549e-07
 88.99171    148.5 2.794e+04 2.197e-07
 89.00039    149.1 2.830e+04 1.865e-07
 89.00529    148.9 3.190e+04 4.699e-08
 89.01134    149.7 3.212e+04 3.965e-08
 89.02098    150.6 3.214e+04 3.396e-08
 89.02589    152.2 2.935e+04 1.033e-07
 89.03097    152.9 2.980e+04 8.423e-08
 89.04078    153.7 3.020e+04 6.971e-08
 89.05059    154.5 3.053e+04 5.907e-08
 89.06041    155.3 3.082e+04 5.134e-08
 89.07022    156.0 3.109e+04 4.550e-08
 89.08004    156.7 3.125e+04 4.059e-08
 89.08985    157.3 3.124e+04 3.634e-08
 89.09966    158.0 3.113e+04 3.291e-08
 89.10948    158.7 3.106e+04 3.044e-08
 89.11929    159.5 3.109e+04 2.887e-08
 89.12694    160.2 3.118e+04 2.797e-08
 89.13185    160.3 2.590e+04 9.131e-09
 89.13892    160.9 2.562e+04 9.470e-09
 89.14873    161.6 2.538e+04 9.806e-09
 89.15855    162.2 2.515e+04 1.013e-08
 89.16836    162.9 2.491e+04 1.056e-08
 89.17818    163.5 2.479e+04 1.131e-08
 89.18359    163.9 2.487e+04 1.234e-08
 89.18850    165.5 2.883e+04 1.857e-08
 89.19780    165.6 2.891e+04 1.973e-08
 89.20762    165.5 2.857e+04 2.070e-08
 89.21743    165.5 2.824e+04 2.093e-08
 89.22725    165.6 2.769e+04 2.129e-08
 89.23706    165.6 2.722e+04 2.208e-08
 89.24688    165.6 2.667e+04 2.379e-08
 89.25349    165.4 2.619e+04 2.610e-08
 89.25840    164.8 2.113e+04 1.476e-08
 89.26650    164.4 2.123e+04 1.698e-08
 89.27632    164.1 2.123e+04 1.894e-08
 89.28613    163.9 2.121e+04 2.052e-08
 89.29595    163.7 2.130e+04 2.200e-08
 89.30576    163.6 2.158e+04 2.399e-08
 89.31557    163.4 2.207e+04 2.716e-08
 89.32539    163.1 2.264e+04 3.202e-08
 89.33520    162.6 2.317e+04 3.811e-08
 89.34129    162.1 2.355e+04 4.462e-08
 89.34620    162.4 2.381e+04 5.276e-08
 89.35483    162.1 2.407e+04 6.277e-08
 89.36464    161.7 2.435e+04 7.400e-08
 89.37446    161.3 2.472e+04 8.521e-08
 89.38004    160.6 2.538e+04 9.057e-08
 89.38495    160.1 2.504e+04 7.507e-08
 89.39409    159.3 2.561e+04 8.117e-08
 89.40390    158.6 2.609e+04 8.392e-08
 89.41372    158.0 2.656e+04 8.548e-08
 89.42353    157.5 2.697e+04 9.657e-08
 89.43334    156.9 2.721e+04 1.235e-07
 89.44068    156.3 2.877e+04 1.247e-07
 89.44327    156.3 2.930e+04 1.221e-07
 89.44572    156.0 2.823e+04 1.473e-07
 89.45047    155.1 2.887e+04 1.796e-07
 89.45538    152.0 2.824e+04 3.435e-07
 89.46028    146.2 2.324e+04 1.493e-06
 89.46519    141.3 1.921e+04 6.296e-06
 89.47010    139.8 1.793e+04 1.127e-05
 89.47500    139.0 1.799e+04 1.015e-05
 89.47991    138.3 1.836e+04 6.693e-06
 89.48482    135.8 2.022e+04 2.761e-06
 89.48973    129.6 2.583e+04 8.841e-07
 89.49463    122.3 3.348e+04 2.449e-07
 89.49897    111.6 3.696e+04 1.616e-07
 89.50354    103.0 4.944e+04 3.017e-08
 89.50659    100.8 5.377e+04 1.375e-08
 89.51186     85.7 3.144e+04 1.634e-08
 89.52167     82.5 2.395e+04 1.771e-08
 89.53148     83.0 2.367e+04 1.782e-08
 89.54130     83.5 2.348e+04 1.903e-08
 89.55111     83.9 2.332e+04 2.218e-08
 89.56093     84.1 2.338e+04 2.684e-08
 89.57074     84.4 2.341e+04 3.355e-08
 89.58056     84.6 2.330e+04 4.384e-08
 89.59037     84.9 2.311e+04 6.019e-08
 89.60018     85.3 2.293e+04 8.287e-08
 89.61000     85.2 2.270e+04 9.816e-08
 89.61981     84.9 2.260e+04 9.771e-08
 89.62824     84.9 2.243e+04 9.133e-08
 89.63314     84.9 2.259e+04 5.848e-08
 89.63944     85.3 2.234e+04 5.062e-08
 89.64925     85.9 2.205e+04 4.015e-08
 89.65670     86.9 2.160e+04 2.961e-08
 89.66160     86.6 2.166e+04 2.695e-08
 89.66888     87.4 2.130e+04 2.119e-08
 89.67870     88.3 2.089e+04 1.688e-08
 89.68851     88.8 2.061e+04 1.415e-08
 89.69832     89.4 2.011e+04 1.152e-08
 89.70814     89.7 1.984e+04 1.032e-08
 89.71795     90.8 1.922e+04 8.436e-09
 89.72777     91.1 1.914e+04 8.190e-09
 89.74254     92.6 1.838e+04 6.416e-09
 89.75488     94.0 1.729e+04 4.799e-09
 89.76470     93.6 1.644e+04 3.414e-09
 89.78184     95.0 1.570e+04 2.938e-09
 89.80147     96.7 1.515e+04 2.641e-09
 89.82110     98.6 1.475e+04 2.424e-09
 89.84073    100.5 1.441e+04 2.215e-09
 89.86035    102.3 1.408e+04 1.979e-09
 89.87998    104.1 1.372e+04 1.716e-09
 89.89961    105.9 1.333e+04 1.446e-09
 89.91924    107.7 1.295e+04 1.194e-09
 89.93887    109.3 1.255e+04 9.717e-10
 89.95850    110.9 1.211e+04 7.884e-10
 89.97220    112.5 1.168e+04 6.473e-10
 89.98201    112.4 1.195e+04 7.546e-10
 89.99775    114.0 1.152e+04 6.387e-10
 90.00799    115.5 1.114e+04 5.506e-10
 90.01780    115.5 1.145e+04 5.433e-10
 90.03701    116.8 1.109e+04 4.724e-10
 90.05664    118.3 1.074e+04 4.259e-10
 90.07626    119.8 1.049e+04 4.045e-10
 90.09589    121.4 1.037e+04 4.032e-10
 90.11552    122.9 1.034e+04 4.067e-10
 90.13515    124.4 1.029e+04 4.193e-10
 90.15478    125.9 1.029e+04 4.408e-10
 90.17441    127.4 1.033e+04 4.686e-10
 90.19403    128.9 1.037e+04 4.997e-10
 90.21366    130.4 1.041e+04 5.317e-10
 90.23329    131.9 1.045e+04 5.634e-10
 90.25128    133.3 1.049e+04 5.919e-10
 90.26109    133.3 1.065e+04 6.223e-10
 90.27255    134.7 1.067e+04 6.453e-10
 90.28760    136.1 1.072e+04 6.689e-10
 90.29742    136.3 1.093e+04 7.520e-10
 90.31180    137.7 1.101e+04 7.895e-10
 90.33143    139.0 1.107e+04 8.222e-10
 90.35106    140.2 1.111e+04 8.435e-10
 90.37069    141.4 1.110e+04 8.504e-10
 90.39032    142.4 1.109e+04 8.508e-10
 90.40994    143.4 1.105e+04 8.478e-10
 90.42957    144.4 1.102e+04 8.430e-10
 90.44920    145.3 1.100e+04 8.387e-10
 90.46883    146.0 1.100e+04 8.303e-10
 90.48846    146.8 1.099e+04 8.292e-10
 90.50438    147.4 1.102e+04 8.435e-10
 90.51419    146.9 1.127e+04 9.013e-10
 90.52771    147.4 1.138e+04 9.335e-10
 90.54734    148.0 1.150e+04 9.723e-10
 90.56697    148.4 1.161e+04 1.012e-09
 90.58660    148.8 1.171e+04 1.047e-09
 90.60301    149.1 1.179e+04 1.072e-09
 90.61282    149.6 1.154e+04 9.696e-10
 90.62585    149.9 1.163e+04 9.970e-10
 90.64548    150.0 1.164e+04 9.978e-10
 90.66511    150.1 1.159e+04 9.847e-10
 90.68474    150.2 1.146e+04 9.491e-10
 90.70437    150.2 1.129e+04 8.930e-10
 90.72400    150.3 1.110e+04 8.181e-10
 90.74362    150.4 1.086e+04 7.327e-10
 90.75748    150.5 1.060e+04 6.410e-10
 90.76729    149.9 1.059e+04 6.567e-10
 90.78288    150.0 1.034e+04 5.691e-10
 90.80251    150.0 1.009e+04 4.900e-10
 90.82214    150.1 9.895e+03 4.297e-10
 90.84177    150.1 9.823e+03 4.089e-10
 90.87130    151.4 9.803e+03 3.968e-10
 90.91066    152.9 9.538e+03 3.323e-10
 90.94992    154.4 9.241e+03 2.661e-10
 90.98917    156.1 8.942e+03 2.061e-10
 91.02843    158.0 8.685e+03 1.604e-10
 91.06768    160.2 8.559e+03 1.395e-10
 91.10694    162.7 8.563e+03 1.390e-10
 91.14620    165.4 8.583e+03 1.419e-10
 91.18545    168.3 8.656e+03 1.539e-10
 91.22420    171.1 8.816e+03 1.772e-10
 91.24383    171.8 8.849e+03 1.809e-10
 91.25407    174.7 9.092e+03 2.165e-10
 91.27369    175.6 9.519e+03 2.671e-10
 91.30322    178.4 9.838e+03 3.165e-10
 91.34248    181.2 1.012e+04 3.665e-10
 91.38174    183.3 1.020e+04 3.938e-10
 91.41108    184.3 1.010e+04 3.866e-10
 91.43061    185.1 1.004e+04 3.821e-10
 91.45024    187.6 9.996e+03 3.810e-10
 91.46987    188.9 1.003e+04 3.868e-10
 91.48950    191.3 1.007e+04 3.837e-10
 91.50697    192.1 1.009e+04 3.830e-10
 91.51679    192.4 1.019e+04 4.020e-10
 91.52875    194.5 1.018e+04 3.838e-10
 91.54838    195.3 1.017e+04 3.746e-10
 91.55904    197.3 1.017e+04 3.608e-10
 91.56885    198.3 1.027e+04 4.113e-10
 91.58764    199.6 1.026e+04 3.974e-10
 91.60727    201.2 1.026e+04 3.840e-10
 91.62689    202.5 1.027e+04 3.758e-10
 91.64652    204.0 1.027e+04 3.683e-10
 91.66615    205.4 1.029e+04 3.649e-10
 91.68578    206.9 1.030e+04 3.614e-10
 91.70541    208.1 1.032e+04 3.609e-10
 91.72503    209.7 1.033e+04 3.604e-10
 91.74466    211.1 1.035e+04 3.616e-10
 91.76008    212.7 1.037e+04 3.634e-10
 91.77980    214.2 1.036e+04 3.373e-10
 91.81356    217.3 1.040e+04 3.426e-10
 91.85281    220.4 1.045e+04 3.452e-10
 91.87464    223.7 1.042e+04 3.413e-10
 91.89427    224.8 1.067e+04 3.739e-10
 91.93133    228.2 1.070e+04 3.642e-10
 91.97058    231.4 1.060e+04 3.342e-10
 92.00984    234.1 1.036e+04 2.946e-10
 92.04910    236.4 1.013e+04 2.596e-10
 92.08835    238.5 1.007e+04 2.430e-10
 92.12761    240.5 1.009e+04 2.425e-10
 92.16686    242.5 1.016e+04 2.461e-10
 92.20612    244.3 1.042e+04 2.683e-10
 92.24538    245.2 1.064e+04 2.915e-10
 92.26638    246.2 1.057e+04 2.941e-10
 92.28601    249.2 1.041e+04 2.781e-10
 92.31398    249.5 1.058e+04 3.019e-10
 92.33351    250.0 1.075e+04 3.351e-10
 92.35314    250.9 1.093e+04 4.005e-10
 92.37277    252.2 1.113e+04 5.047e-10
 92.39239    253.6 1.145e+04 6.550e-10
 92.41202    254.8 1.194e+04 8.657e-10
 92.43165    256.0 1.256e+04 1.161e-09
 92.45128    257.0 1.342e+04 1.591e-09
 92.47091    258.0 1.453e+04 2.209e-09
 92.49053    259.1 1.591e+04 3.045e-09
 92.50526    259.8 1.721e+04 4.045e-09
 92.51448    260.0 1.697e+04 3.738e-09
 92.51938    261.1 1.466e+04 2.420e-09
 92.52979    261.7 1.528e+04 2.713e-09
 92.54942    261.9 1.556e+04 2.725e-09
 92.56905    262.4 1.585e+04 2.728e-09
 92.58868    263.0 1.604e+04 2.547e-09
 92.60830    263.8 1.609e+04 2.161e-09
 92.62793    264.4 1.606e+04 1.680e-09
 92.64098    264.5 1.618e+04 1.415e-09
 92.64584    264.5 1.609e+04 1.358e-09
 92.65237    264.6 1.619e+04 1.278e-09
 92.66218    264.9 1.614e+04 1.187e-09
 92.66777    265.2 1.603e+04 1.102e-09
 92.67268    265.2 1.579e+04 1.084e-09
 92.68181    265.6 1.559e+04 1.044e-09
 92.69163    266.0 1.584e+04 9.998e-10
 92.70144    266.1 1.644e+04 1.011e-09
 92.71125    265.6 1.998e+04 1.040e-09
 92.72107    264.2 3.431e+04 8.946e-10
 92.73088    260.8 5.734e+04 1.218e-09
 92.74070    258.8 5.550e+04 4.143e-09
 92.75051    258.1 4.467e+04 1.976e-08
 92.76032    257.5 3.732e+04 7.577e-08
 92.76748    256.5 3.074e+04 2.834e-07
 92.77239    260.3 4.923e+04 1.076e-08
 92.77995    259.0 3.669e+04 7.694e-08
 92.78977    258.4 2.953e+04 3.661e-07
 92.79710    257.2 2.658e+04 7.468e-07
 92.80199    256.2 2.451e+04 1.330e-06
 92.80689    255.4 2.265e+04 2.429e-06
 92.81180    254.1 2.132e+04 3.881e-06
 92.81671    252.3 2.048e+04 5.498e-06
 92.82161    250.2 2.009e+04 6.833e-06
 92.82542    248.1 1.975e+04 7.562e-06
 92.82788    247.5 2.099e+04 4.105e-06
 92.83071    246.1 2.108e+04 3.463e-06
 92.83316    250.4 2.014e+04 6.495e-06
 92.83634    248.8 2.013e+04 6.199e-06
 92.84124    246.8 2.051e+04 4.898e-06
 92.84615    245.4 2.165e+04 2.897e-06
 92.85106    244.0 2.394e+04 1.394e-06
 92.85844    240.3 3.322e+04 1.295e-07
 92.86828    235.6 4.039e+04 2.040e-08
 92.87809    230.4 4.243e+04 4.173e-09
 92.88791    226.1 3.545e+04 1.736e-09
 92.89403    222.2 2.738e+04 1.054e-09
 92.89894    233.3 3.595e+04 1.141e-08
 92.90754    230.0 3.510e+04 4.860e-09
 92.91735    226.1 3.276e+04 2.098e-09
 92.92716    222.0 2.767e+04 1.100e-09
 92.93698    217.6 2.210e+04 8.632e-10
 92.94679    214.7 1.783e+04 8.217e-10
 92.95661    212.4 1.596e+04 1.004e-09
 92.96642    211.2 1.513e+04 1.178e-09
 92.97623    208.7 1.567e+04 1.663e-09
 92.98317    207.0 1.633e+04 2.177e-09
 92.98808    206.4 1.606e+04 2.206e-09
 92.99586    202.0 1.892e+04 3.249e-09
 93.00568    198.0 2.035e+04 4.274e-09
 93.01549    195.8 2.109e+04 5.158e-09
 93.02058    192.5 2.213e+04 6.420e-09
 93.02549    195.2 2.184e+04 6.233e-09
 93.03512    190.8 2.307e+04 8.013e-09
 93.04493    184.8 2.444e+04 1.065e-08
 93.05475    177.3 2.558e+04 1.479e-08
 93.06456    169.1 2.598e+04 2.193e-08
 93.07438    161.7 2.586e+04 3.350e-08
 93.08419    155.7 2.561e+04 4.850e-08
 93.09400    150.6 2.531e+04 5.428e-08
 93.10382    146.0 2.486e+04 5.132e-08
 93.11363    142.3 2.389e+04 4.132e-08
 93.12345    139.1 2.305e+04 2.924e-08
 93.13326    135.8 2.237e+04 1.915e-08
 93.14088    132.3 2.165e+04 1.196e-08
 93.14494    132.2 2.141e+04 1.054e-08
 93.14713    132.6 2.199e+04 1.277e-08
 93.15289    128.2 2.108e+04 7.648e-09
 93.16270    123.6 1.964e+04 4.872e-09
 93.17747    118.7 1.818e+04 3.319e-09
 93.19715    112.7 1.564e+04 2.090e-09
 93.21678    107.0 1.376e+04 1.524e-09
 93.23641    102.8 1.356e+04 1.403e-09
 93.25603    100.2 1.367e+04 1.426e-09
 93.26888     98.2 1.396e+04 1.500e-09
 93.27869     91.6 1.601e+04 2.203e-09
 93.29529     89.9 1.650e+04 2.515e-09
 93.31492     89.3 1.689e+04 2.862e-09
 93.33455     89.3 1.721e+04 3.236e-09
 93.35418     89.9 1.752e+04 3.651e-09
 93.36885     91.5 1.731e+04 3.708e-09
 93.37861     91.7 1.739e+04 3.796e-09
 93.38843     92.5 1.758e+04 4.186e-09
 93.39533     92.7 1.774e+04 4.362e-09
 93.40024     91.1 1.861e+04 5.454e-09
 93.40806     91.6 1.888e+04 5.912e-09
 93.41787     92.0 1.913e+04 6.265e-09
 93.42768     92.4 1.938e+04 6.478e-09
 93.43750     92.9 1.960e+04 6.563e-09
 93.44731     93.5 1.985e+04 6.352e-09
 93.45628     93.8 2.002e+04 6.308e-09
 93.46119     93.9 1.953e+04 5.724e-09
 93.47190     94.9 1.936e+04 5.057e-09
 93.49157     95.7 1.930e+04 4.404e-09
 93.51120     96.8 1.818e+04 4.025e-09
 93.52198     97.3 1.797e+04 3.797e-09
 93.53179     91.5 1.988e+04 3.532e-09
 93.54550     92.4 1.977e+04 3.617e-09
 93.55527     92.7 1.976e+04 3.658e-09
 93.57004     91.6 1.938e+04 4.003e-09
 93.58971     90.4 1.992e+04 5.291e-09
 93.60934     90.0 2.058e+04 7.562e-09
 93.62897     90.4 2.116e+04 1.075e-08
 93.64357     90.6 2.168e+04 1.433e-08
 93.64843     89.6 2.132e+04 1.383e-08
 93.65341     90.1 2.146e+04 1.608e-08
 93.66322     90.6 2.181e+04 1.984e-08
 93.67304     91.2 2.211e+04 2.249e-08
 93.68285     91.8 2.236e+04 2.554e-08
 93.69266     92.4 2.271e+04 2.586e-08
 93.70248     92.9 2.344e+04 2.384e-08
 93.71229     92.9 2.435e+04 1.958e-08
 93.72211     92.7 2.671e+04 1.185e-08
 93.73192     91.8 2.959e+04 6.540e-09
 93.74174     90.2 3.200e+04 3.425e-09
 93.75155     87.8 3.205e+04 2.372e-09
 93.76136     86.0 2.797e+04 2.165e-09
 93.77008     82.8 2.540e+04 1.364e-09
 93.77503     80.5 1.606e+04 3.496e-09
 93.77669     80.0 1.535e+04 3.399e-09
 93.78651     78.3 1.517e+04 3.223e-09
 93.80562     78.8 1.485e+04 2.912e-09
 93.82525     79.7 1.461e+04 2.508e-09
 93.84488     80.7 1.432e+04 2.072e-09
 93.86451     81.5 1.400e+04 1.722e-09
 93.88414     81.9 1.367e+04 1.474e-09
 93.90377     82.0 1.337e+04 1.327e-09
 93.92339     82.3 1.321e+04 1.305e-09
 93.94302     83.0 1.323e+04 1.345e-09
 93.96265     83.8 1.334e+04 1.453e-09
 93.98228     84.7 1.348e+04 1.597e-09
 94.00191     85.6 1.364e+04 1.753e-09
 94.01837     86.5 1.383e+04 1.920e-09
 94.02818     86.1 1.415e+04 2.110e-09
 94.04116     86.7 1.437e+04 2.272e-09
 94.06079     87.1 1.460e+04 2.391e-09
 94.08042     87.2 1.471e+04 2.401e-09
 94.09210     87.4 1.470e+04 2.312e-09
 94.10191     85.8 1.479e+04 2.333e-09
 94.11968     86.0 1.452e+04 2.048e-09
 94.13930     86.2 1.431e+04 1.784e-09
 94.15893     86.2 1.411e+04 1.538e-09
 94.17856     86.3 1.386e+04 1.306e-09
 94.19819     86.4 1.356e+04 1.105e-09
 94.21782     86.3 1.322e+04 9.451e-10
 94.23745     86.2 1.289e+04 8.390e-10
 94.25707     87.0 1.245e+04 7.548e-10
 94.27147     87.4 1.267e+04 8.153e-10
 94.28129     86.2 1.221e+04 6.967e-10
 94.29633     87.4 1.247e+04 7.764e-10
 94.32587     87.1 1.298e+04 9.649e-10
 94.36522     86.1 1.409e+04 1.380e-09
 94.39457     83.5 1.450e+04 1.636e-09
 94.40750     83.5 1.446e+04 1.781e-09
 94.41741     80.3 1.444e+04 1.642e-09
 94.43382     81.1 1.441e+04 1.864e-09
 94.45336     81.3 1.435e+04 1.916e-09
 94.47298     81.3 1.433e+04 1.976e-09
 94.49261     81.3 1.429e+04 1.962e-09
 94.51224     81.0 1.437e+04 1.961e-09
 94.52457     80.3 1.434e+04 1.868e-09
 94.53439     80.4 1.421e+04 1.540e-09
 94.55150     79.6 1.415e+04 1.335e-09
 94.57112     78.9 1.388e+04 1.194e-09
 94.59075     77.1 1.347e+04 1.060e-09
 94.61038     77.2 1.305e+04 9.776e-10
 94.63001     76.6 1.257e+04 8.948e-10
 94.64964     76.4 1.213e+04 8.336e-10
 94.66927     76.5 1.199e+04 8.187e-10
 94.68889     76.7 1.200e+04 8.229e-10
 94.70852     76.9 1.202e+04 8.193e-10
 94.72291     77.3 1.198e+04 7.980e-10
 94.73272     76.3 1.154e+04 6.407e-10
 94.74778     76.4 1.172e+04 6.808e-10
 94.76741     77.2 1.175e+04 6.985e-10
 94.77777     77.7 1.196e+04 7.581e-10
 94.78759     77.9 1.157e+04 6.662e-10
 94.80666     78.0 1.163e+04 6.849e-10
 94.82629     77.4 1.177e+04 7.089e-10
 94.84592     78.0 1.181e+04 7.270e-10
 94.86555     78.1 1.207e+04 7.904e-10
 94.88518     77.9 1.237e+04 8.826e-10
 94.90480     78.0 1.245e+04 9.393e-10
 94.92443     78.5 1.235e+04 9.201e-10
 94.94406     79.3 1.208e+04 8.509e-10
 94.96369     80.2 1.175e+04 7.502e-10
 94.98332     81.0 1.144e+04 6.762e-10
 95.00295     81.7 1.132e+04 6.612e-10
 95.02096     82.4 1.131e+04 6.706e-10
 95.03078     83.1 1.167e+04 7.817e-10
 95.03831     83.9 1.166e+04 8.056e-10
 95.04813     83.4 1.188e+04 8.442e-10
 95.06183     84.2 1.200e+04 9.427e-10
 95.08146     85.3 1.220e+04 1.099e-09
 95.10109     86.3 1.255e+04 1.327e-09
 95.12071     86.9 1.346e+04 1.718e-09
 95.14034     86.8 1.490e+04 2.379e-09
 95.15997     86.2 1.644e+04 3.356e-09
 95.17960     85.4 1.741e+04 4.313e-09
 95.19923     84.8 1.812e+04 5.246e-09
 95.21886     84.3 1.839e+04 6.251e-09
 95.23848     83.9 1.816e+04 6.284e-09
 95.25811     83.6 1.752e+04 6.036e-09
 95.27407     83.5 1.689e+04 5.653e-09
 95.28388     85.0 1.787e+04 6.846e-09
 95.29737     84.9 1.721e+04 5.837e-09
 95.31700     84.6 1.662e+04 4.929e-09
 95.33662     84.3 1.610e+04 4.152e-09
 95.35372     83.9 1.564e+04 3.399e-09
 95.36353     81.8 1.584e+04 2.423e-09
 95.37588     81.1 1.495e+04 1.863e-09
 95.39551     80.5 1.413e+04 1.536e-09
 95.41514     80.0 1.352e+04 1.364e-09
 95.43477     79.7 1.319e+04 1.296e-09
 95.45439     79.5 1.306e+04 1.293e-09
 95.47402     79.5 1.303e+04 1.326e-09
 95.49365     79.4 1.311e+04 1.472e-09
 95.51328     79.4 1.338e+04 1.722e-09
 95.52717     79.6 1.375e+04 2.061e-09
 95.53698     80.2 1.359e+04 1.878e-09
 95.55253     80.4 1.403e+04 2.297e-09
 95.57216     80.9 1.449e+04 2.767e-09
 95.59179     81.7 1.498e+04 3.232e-09
 95.61142     81.9 1.550e+04 3.677e-09
 95.63105     81.8 1.614e+04 4.198e-09
 95.65068     80.8 1.734e+04 4.991e-09
 95.66912     78.3 1.902e+04 6.592e-09
 95.67894     78.6 1.839e+04 7.119e-09
 95.68993     76.4 1.967e+04 1.001e-08
 95.70956     74.7 2.059e+04 1.407e-08
 95.72919     73.6 2.077e+04 1.568e-08
 95.74882     72.5 2.044e+04 1.459e-08
 95.76349     71.7 2.032e+04 1.353e-08
 95.77325     71.9 1.973e+04 1.150e-08
 95.78017     72.4 1.895e+04 8.964e-09
 95.78508     72.3 1.943e+04 1.077e-08
 95.79288     72.8 1.871e+04 8.499e-09
 95.80270     73.1 1.820e+04 6.447e-09
 95.81251     73.1 1.782e+04 5.218e-09
 95.82233     73.0 1.746e+04 4.261e-09
 95.83164     72.9 1.726e+04 3.957e-09
 95.83654     73.4 1.752e+04 4.359e-09
 95.84691     73.5 1.719e+04 3.445e-09
 95.86659     73.7 1.668e+04 2.533e-09
 95.88621     73.6 1.586e+04 1.702e-09
 95.90584     72.8 1.470e+04 1.146e-09
 95.92547     72.4 1.395e+04 9.748e-10
 95.94510     72.6 1.424e+04 1.030e-09
 95.96473     72.8 1.466e+04 1.168e-09
 95.97940     72.6 1.532e+04 1.501e-09
 95.98916     72.6 1.587e+04 1.763e-09
 95.99425     72.1 1.718e+04 2.279e-09
 95.99915     71.8 1.913e+04 2.930e-09
 96.00879     67.9 2.560e+04 6.235e-09
 96.01861     58.5 3.128e+04 3.611e-08
 96.02837     47.8 2.483e+04 4.478e-07
 96.03328     47.1 2.321e+04 6.843e-07
 96.03576     42.2 2.157e+04 1.472e-06
 96.04064     40.1 2.057e+04 2.069e-06
 96.04555     38.6 2.041e+04 2.280e-06
 96.05045     37.5 2.051e+04 2.114e-06
 96.05536     36.6 2.092e+04 1.680e-06
 96.06027     35.8 2.133e+04 1.294e-06
 96.06765     34.0 2.284e+04 5.529e-07
 96.07749     32.7 2.507e+04 2.203e-07
 96.08731     31.7 2.791e+04 7.940e-08
 96.09712     30.8 2.919e+04 3.270e-08
 96.10693     29.8 2.860e+04 1.731e-08
 96.12170     25.3 2.388e+04 7.223e-09
 96.14138     23.2 1.924e+04 5.048e-09
 96.16101     23.7 1.685e+04 4.353e-09
 96.18064     25.4 1.672e+04 4.259e-09
 96.20027     27.2 1.671e+04 4.290e-09
 96.21989     29.0 1.647e+04 4.170e-09
 96.23952     30.7 1.632e+04 4.085e-09
 96.25915     32.4 1.615e+04 3.965e-09
 96.27666     34.3 1.599e+04 3.829e-09
 96.28648     33.6 1.513e+04 3.075e-09
 96.29841     35.5 1.523e+04 3.053e-09
 96.30975     37.0 1.537e+04 3.025e-09
 96.31956     37.0 1.479e+04 2.524e-09
 96.33766     38.0 1.490e+04 2.468e-09
 96.35729     38.3 1.490e+04 2.422e-09
 96.37692     38.5 1.468e+04 2.355e-09
 96.39655     38.9 1.421e+04 2.240e-09
 96.41618     39.8 1.374e+04 2.134e-09
 96.43580     40.8 1.345e+04 2.074e-09
 96.45543     41.8 1.348e+04 2.099e-09
 96.47506     42.4 1.375e+04 2.229e-09
 96.49469     42.4 1.433e+04 2.521e-09
 96.51432     42.1 1.506e+04 2.979e-09
 96.52976     41.6 1.575e+04 3.510e-09
 96.53958     41.3 1.548e+04 3.262e-09
 96.55357     40.6 1.609e+04 3.908e-09
 96.57320     40.1 1.645e+04 4.572e-09
 96.59283     40.0 1.665e+04 5.235e-09
 96.61246     40.2 1.675e+04 5.817e-09
 96.62515     40.2 1.692e+04 6.265e-09
 96.63497     38.7 1.822e+04 8.886e-09
 96.65171     37.9 1.904e+04 1.001e-08
 96.67134     37.0 1.973e+04 1.133e-08
 96.69097     36.3 1.981e+04 1.217e-08
 96.71060     35.8 1.954e+04 1.208e-08
 96.73023     35.8 1.890e+04 1.124e-08
 96.74986     36.3 1.800e+04 9.396e-09
 96.76948     37.1 1.705e+04 7.109e-09
 96.78287     38.0 1.605e+04 4.909e-09
 96.79268     37.2 1.468e+04 2.766e-09
 96.80874     37.3 1.381e+04 1.667e-09
 96.82837     36.4 1.343e+04 1.019e-09
 96.84800     34.9 1.327e+04 6.434e-10
 96.86762     33.2 1.290e+04 5.007e-10
 96.88725     33.6 1.165e+04 4.010e-10
 96.90688     33.4 1.086e+04 4.186e-10
 96.92651     33.9 1.031e+04 4.691e-10
 96.94056     34.0 1.077e+04 6.816e-10
 96.95037     34.2 1.040e+04 5.783e-10
 96.96577     35.0 1.164e+04 8.145e-10
 96.98539     35.8 1.191e+04 8.230e-10
 97.00502     39.7 1.172e+04 6.997e-10
 97.02465     37.7 1.243e+04 5.529e-10
 97.03597     37.8 1.241e+04 5.201e-10
 97.04578     37.1 1.158e+04 4.155e-10
 97.07382     35.2 1.055e+04 3.079e-10
 97.11317     34.4 9.396e+03 2.582e-10
 97.15243     35.7 9.271e+03 2.768e-10
 97.19169     37.3 9.463e+03 3.260e-10
 97.23094     40.4 9.631e+03 3.678e-10
 97.25606     41.8 9.867e+03 4.320e-10
 97.26578     41.8 9.894e+03 4.383e-10
 97.27926     43.5 9.964e+03 4.695e-10
 97.28907     43.2 1.025e+04 5.559e-10
 97.29945     44.3 1.031e+04 5.804e-10
 97.31907     45.3 1.039e+04 6.100e-10
 97.33870     46.2 1.054e+04 6.453e-10
 97.35833     47.2 1.069e+04 6.770e-10
 97.37796     48.1 1.067e+04 6.730e-10
 97.39759     50.5 1.051e+04 6.221e-10
 97.41721     51.7 1.030e+04 4.992e-10
 97.43684     52.8 1.028e+04 4.443e-10
 97.46638     53.3 1.002e+04 3.476e-10
 97.50574     54.9 9.842e+03 3.052e-10
 97.54499     56.8 9.698e+03 2.916e-10
 97.57157     58.8 9.686e+03 2.871e-10
 97.59119     58.0 9.753e+03 2.962e-10
 97.62351     59.8 9.693e+03 2.902e-10
 97.66276     61.9 9.777e+03 3.000e-10
 97.70202     63.9 9.833e+03 3.051e-10
 97.74128     65.6 9.786e+03 2.965e-10
 97.77584     69.0 9.819e+03 3.225e-10
 97.79547     68.4 1.021e+04 4.436e-10
 97.81979     70.0 1.094e+04 6.016e-10
 97.85904     71.5 1.178e+04 8.806e-10
 97.89830     73.4 1.253e+04 1.282e-09
 97.93756     75.4 1.311e+04 1.685e-09
 97.97681     77.6 1.366e+04 1.960e-09
 98.01607     78.7 1.408e+04 2.085e-09
 98.03866     78.5 1.403e+04 2.065e-09
 98.04838     77.7 1.407e+04 2.065e-09
 98.06495     78.2 1.382e+04 1.944e-09
 98.08457     79.2 1.342e+04 1.768e-09
 98.10420     80.3 1.303e+04 1.589e-09
 98.12383     81.5 1.271e+04 1.423e-09
 98.14346     82.8 1.247e+04 1.270e-09
 98.16309     83.9 1.223e+04 1.109e-09
 98.18271     84.9 1.195e+04 9.426e-10
 98.20218     85.7 1.163e+04 7.847e-10
 98.21200     86.6 1.181e+04 8.323e-10
 98.22197     87.3 1.154e+04 7.099e-10
 98.24160     87.9 1.125e+04 6.147e-10
 98.26123     88.5 1.095e+04 5.506e-10
 98.28086     89.2 1.069e+04 5.227e-10
 98.29167     90.2 1.040e+04 4.940e-10
 98.30148     89.6 1.058e+04 5.247e-10
 98.32011     90.7 1.046e+04 5.512e-10
 98.33974     91.9 1.040e+04 5.793e-10
 98.35937     93.0 1.039e+04 6.158e-10
 98.37900     94.0 1.047e+04 6.617e-10
 98.39863     95.0 1.065e+04 7.195e-10
 98.41825     95.8 1.090e+04 7.900e-10
 98.43788     96.6 1.118e+04 8.765e-10
 98.45751     97.3 1.148e+04 9.828e-10
 98.47714     97.9 1.176e+04 1.102e-09
 98.49677     98.4 1.194e+04 1.218e-09
 98.51639     98.9 1.206e+04 1.324e-09
 98.52740     99.4 1.215e+04 1.421e-09
 98.53615     99.6 1.234e+04 1.445e-09
 98.54477     99.2 1.329e+04 2.031e-09
 98.55565     99.9 1.335e+04 2.202e-09
 98.57528    100.4 1.353e+04 2.424e-09
 98.59491    100.3 1.409e+04 2.792e-09
 98.61454     99.5 1.532e+04 3.504e-09
 98.63416     97.9 1.672e+04 4.648e-09
 98.65379     96.5 1.764e+04 6.093e-09
 98.67342     95.8 1.788e+04 7.348e-09
 98.69305     95.6 1.779e+04 7.656e-09
 98.71268     95.4 1.760e+04 7.397e-09
 98.73230     94.8 1.716e+04 6.471e-09
 98.75193     93.9 1.670e+04 5.198e-09
 98.77156     92.4 1.629e+04 4.039e-09
 98.78806     90.4 1.584e+04 3.200e-09
 98.79787     87.8 1.481e+04 2.447e-09
 98.81082     86.4 1.392e+04 2.079e-09
 98.83045     85.7 1.371e+04 2.014e-09
 98.84281     85.3 1.376e+04 2.022e-09
 98.85262     83.0 1.620e+04 3.030e-09
 98.86970     82.5 1.589e+04 2.988e-09
 98.88933     82.4 1.531e+04 2.810e-09
 98.90896     82.4 1.454e+04 2.506e-09
 98.92859     82.4 1.381e+04 2.214e-09
 98.94821     82.6 1.339e+04 2.041e-09
 98.96784     82.9 1.331e+04 2.005e-09
 98.98747     83.6 1.325e+04 1.991e-09
 99.00710     84.4 1.312e+04 1.963e-09
 99.02673     85.5 1.298e+04 1.928e-09
 99.04116     86.8 1.297e+04 1.933e-09
 99.05097     86.6 1.287e+04 1.880e-09
 99.06598     87.6 1.305e+04 1.978e-09
 99.08561     88.3 1.362e+04 2.255e-09
 99.10524     88.9 1.448e+04 2.690e-09
 99.12487     89.1 1.520e+04 2.993e-09
 99.14450     89.1 1.526e+04 2.982e-09
 99.15821     89.2 1.510e+04 2.802e-09
 99.16803     88.3 1.474e+04 2.363e-09
 99.18375     88.5 1.447e+04 2.159e-09
 99.20338     88.6 1.404e+04 2.005e-09
 99.22301     89.0 1.383e+04 1.999e-09
 99.24264     89.5 1.386e+04 2.057e-09
 99.26227     89.8 1.404e+04 2.283e-09
 99.28189     90.3 1.434e+04 2.639e-09
 99.29426     90.9 1.467e+04 3.077e-09
 99.30408     91.0 1.500e+04 3.252e-09
 99.32115     91.9 1.522e+04 3.689e-09
 99.34078     93.2 1.536e+04 4.010e-09
 99.36041     94.7 1.532e+04 4.068e-09
 99.38004     96.3 1.530e+04 4.037e-09
 99.39966     98.0 1.522e+04 3.889e-09
 99.41929     99.7 1.506e+04 3.607e-09
 99.43892    101.5 1.481e+04 3.294e-09
 99.45855    103.1 1.472e+04 3.059e-09
 99.47362    104.2 1.497e+04 2.832e-09
 99.48343    101.4 1.577e+04 3.232e-09
 99.49780    101.5 1.654e+04 3.608e-09
 99.51743    101.6 1.760e+04 4.487e-09
 99.53706    101.6 1.816e+04 5.532e-09
 99.54737    102.1 1.842e+04 6.871e-09
 99.55718    102.5 1.881e+04 7.217e-09
 99.57136    102.7 1.874e+04 7.759e-09
 99.58113    103.3 1.882e+04 8.379e-09
 99.59094    103.8 1.905e+04 9.456e-09
 99.60076    104.2 1.934e+04 1.085e-08
 99.61057    104.4 1.962e+04 1.221e-08
 99.62038    104.5 1.983e+04 1.336e-08
 99.63020    104.6 1.996e+04 1.418e-08
 99.63613    104.7 1.990e+04 1.501e-08
 99.64104    103.5 2.028e+04 1.276e-08
 99.64983    103.6 2.067e+04 1.187e-08
 99.65964    103.4 2.107e+04 1.049e-08
 99.66891    102.9 2.132e+04 8.812e-09
 99.67382    102.7 2.114e+04 8.841e-09
 99.67927    102.0 2.094e+04 7.145e-09
 99.68908    100.4 2.028e+04 5.362e-09
 99.69890     99.1 1.923e+04 4.355e-09
 99.70871     97.4 1.803e+04 3.472e-09
 99.71852     96.4 1.696e+04 2.978e-09
 99.73329     96.0 1.626e+04 2.605e-09
 99.75297     92.9 1.460e+04 2.006e-09
 99.77260     90.0 1.381e+04 1.737e-09
 99.78902     87.8 1.378e+04 1.735e-09
 99.79726     86.6 1.348e+04 1.660e-09
 99.80047     86.4 1.384e+04 1.964e-09
 99.81186     85.0 1.397e+04 2.113e-09
 99.83148     83.6 1.417e+04 2.290e-09
 99.85111     82.3 1.430e+04 2.393e-09
 99.87074     80.9 1.448e+04 2.390e-09
 99.89037     79.5 1.457e+04 2.346e-09
 99.91000     77.6 1.470e+04 2.222e-09
 99.92963     75.1 1.479e+04 2.104e-09
 99.94925     72.2 1.478e+04 2.034e-09
 99.96888     69.5 1.463e+04 1.975e-09
 99.98851     67.3 1.440e+04 1.912e-09
100.00814     65.9 1.420e+04 1.832e-09
