# Columns:
#   distance along LOS (in CHIMPs)
#   peculiar velocity  (in km/s)
#   temperature (K)
#   HI number density
# pos=(8.24535,161.236,182.592), angles=(2.05723,4.67865)
  0.01562     70.9 9.645e+03 4.466e-10
  0.03669     71.0 9.635e+03 4.488e-10
  0.06425     72.8 9.783e+03 4.959e-10
  0.10058     74.6 9.922e+03 5.363e-10
  0.12269     74.8 9.744e+03 4.858e-10
  0.15268     76.5 9.753e+03 4.644e-10
  0.18658     78.2 9.636e+03 4.084e-10
  0.20868     78.6 9.339e+03 3.303e-10
  0.24110     80.2 9.119e+03 2.753e-10
  0.27257     81.8 8.928e+03 2.338e-10
  0.29468     82.4 8.885e+03 2.284e-10
  0.32953     84.3 8.771e+03 1.973e-10
  0.35856     86.3 8.680e+03 1.718e-10
  0.38067     87.1 8.720e+03 1.814e-10
  0.41795     89.1 8.638e+03 1.585e-10
  0.44456     91.2 8.557e+03 1.436e-10
  0.46666     92.0 8.680e+03 1.618e-10
  0.50638     94.1 8.620e+03 1.540e-10
  0.53055     96.3 8.623e+03 1.548e-10
  0.55266     97.0 8.778e+03 1.759e-10
  0.59444     99.0 8.805e+03 1.805e-10
  0.61654     99.5 8.965e+03 2.028e-10
  0.63902    101.3 9.047e+03 2.204e-10
  0.68043    102.9 9.325e+03 2.893e-10
  0.70254    103.3 9.357e+03 2.779e-10
  0.72745    104.7 9.809e+03 3.959e-10
  0.76642    106.0 1.038e+04 5.776e-10
  0.78853    106.1 1.023e+04 4.908e-10
  0.81587    107.1 1.066e+04 6.299e-10
  0.85242    107.8 1.070e+04 6.361e-10
  0.87452    108.0 1.055e+04 5.584e-10
  0.90430    108.9 1.046e+04 5.297e-10
  0.93841    110.2 1.019e+04 4.327e-10
  0.96052    110.6 1.004e+04 3.821e-10
  0.99273    112.1 9.767e+03 2.939e-10
  1.02441    113.7 9.515e+03 2.198e-10
  1.04651    113.8 9.467e+03 2.016e-10
  1.08115    115.5 9.314e+03 1.618e-10
  1.11040    117.5 9.247e+03 1.474e-10
  1.13251    117.4 9.185e+03 1.446e-10
  1.16958    119.6 9.198e+03 1.463e-10
  1.19639    121.9 9.277e+03 1.548e-10
  1.21850    121.4 9.323e+03 1.620e-10
  1.25800    123.9 9.730e+03 2.059e-10
  1.28239    126.5 1.021e+04 2.839e-10
  1.28540    125.1 1.047e+04 3.367e-10
  1.30523    125.9 1.059e+04 3.537e-10
  1.32529    126.6 1.069e+04 4.042e-10
  1.33624    125.9 1.073e+04 4.231e-10
  1.35713    126.4 1.088e+04 5.146e-10
  1.36818    125.2 1.088e+04 5.097e-10
  1.37939    126.1 1.105e+04 6.213e-10
  1.40013    127.2 1.131e+04 7.424e-10
  1.41118    125.8 1.121e+04 6.456e-10
  1.42361    126.7 1.142e+04 7.265e-10
  1.44312    127.5 1.160e+04 7.869e-10
  1.45418    125.7 1.134e+04 5.911e-10
  1.46782    126.3 1.138e+04 6.058e-10
  1.48612    126.7 1.138e+04 6.005e-10
  1.49717    125.0 1.110e+04 4.502e-10
  1.51203    125.3 1.110e+04 4.491e-10
  1.52912    125.3 1.114e+04 4.421e-10
  1.54017    123.8 1.097e+04 3.600e-10
  1.55625    123.9 1.105e+04 3.803e-10
  1.57211    123.8 1.114e+04 4.197e-10
  1.58317    122.8 1.111e+04 4.203e-10
  1.60046    122.7 1.129e+04 4.823e-10
  1.61511    122.0 1.156e+04 5.688e-10
  1.62617    121.0 1.162e+04 6.078e-10
  1.64467    119.9 1.202e+04 8.042e-10
  1.65811    119.4 1.220e+04 9.075e-10
  1.66916    118.2 1.228e+04 1.010e-09
  1.69015    118.7 1.246e+04 1.087e-09
  1.71226    116.2 1.240e+04 1.038e-09
  1.74425    114.6 1.234e+04 8.199e-10
  1.77624    111.1 1.179e+04 4.927e-10
  1.79835    108.5 1.184e+04 4.889e-10
  1.83277    105.3 1.114e+04 4.302e-10
  1.86223    104.1 1.103e+04 4.422e-10
  1.87319    102.8 1.102e+04 4.458e-10
  1.88785    102.7 1.102e+04 4.421e-10
  1.90504    102.4 1.095e+04 4.337e-10
  1.91609    101.3 1.117e+04 4.980e-10
  1.93101    101.0 1.115e+04 5.014e-10
  1.94206    101.4 1.151e+04 6.426e-10
  1.94813    102.0 1.109e+04 4.974e-10
  1.97033     99.9 1.133e+04 6.104e-10
  1.99113    100.8 1.124e+04 5.940e-10
  2.00208    100.1 1.130e+04 6.352e-10
  2.02049    100.4 1.125e+04 6.279e-10
  2.03403    100.8 1.121e+04 6.206e-10
  2.04508    100.0 1.129e+04 6.674e-10
  2.06470    100.5 1.124e+04 6.468e-10
  2.07702    100.9 1.121e+04 6.240e-10
  2.08808    100.3 1.121e+04 6.241e-10
  2.10891    100.7 1.115e+04 5.786e-10
  2.13102    100.2 1.098e+04 5.083e-10
  2.15196    100.5 1.086e+04 4.657e-10
  2.16302     99.7 1.081e+04 4.656e-10
  2.17523     99.9 1.073e+04 4.387e-10
  2.19496    100.0 1.066e+04 4.297e-10
  2.20601     99.3 1.068e+04 4.568e-10
  2.21944     99.7 1.069e+04 4.631e-10
  2.23796    100.0 1.072e+04 4.711e-10
  2.24901     99.1 1.082e+04 5.297e-10
  2.27000     99.9 1.086e+04 5.349e-10
  2.29211     98.3 1.131e+04 7.182e-10
  2.30787     98.6 1.149e+04 7.921e-10
  2.32395     98.8 1.166e+04 8.570e-10
  2.33500     97.2 1.221e+04 1.147e-09
  2.35208     97.7 1.219e+04 1.159e-09
  2.36695     98.2 1.211e+04 1.137e-09
  2.37800     96.9 1.229e+04 1.262e-09
  2.39630     97.6 1.209e+04 1.127e-09
  2.40994     98.2 1.192e+04 1.017e-09
  2.42100     95.4 1.287e+04 1.214e-09
  2.44051     95.3 1.300e+04 1.187e-09
  2.45294     95.1 1.336e+04 1.216e-09
  2.46399     90.5 1.551e+04 2.888e-09
  2.48472     90.5 1.588e+04 3.454e-09
  2.49594     90.6 1.622e+04 3.930e-09
  2.50142     89.0 1.651e+04 5.889e-09
  2.51181     89.1 1.671e+04 6.524e-09
  2.51734     89.1 1.700e+04 9.840e-09
  2.52331     89.7 1.725e+04 1.088e-08
  2.53331     90.3 1.754e+04 1.142e-08
  2.53884     90.6 1.784e+04 1.238e-08
  2.55099     90.5 1.787e+04 1.234e-08
  2.57088     90.5 1.766e+04 1.118e-08
  2.58193     89.9 1.728e+04 9.614e-09
  2.59014     89.9 1.685e+04 7.853e-09
  2.60119     89.7 1.682e+04 7.717e-09
  2.61388     89.4 1.634e+04 6.129e-09
  2.62493     86.7 1.569e+04 3.801e-09
  2.63947     85.4 1.522e+04 3.396e-09
  2.65687     84.2 1.478e+04 3.070e-09
  2.66793     81.5 1.388e+04 2.677e-09
  2.68368     81.4 1.379e+04 2.935e-09
  2.69987     81.4 1.374e+04 2.933e-09
  2.71092     81.2 1.380e+04 3.022e-09
  2.72790     80.8 1.378e+04 2.974e-09
  2.74287     80.2 1.363e+04 2.748e-09
  2.75392     79.9 1.365e+04 2.538e-09
  2.77211     78.6 1.337e+04 2.210e-09
  2.78586     77.0 1.306e+04 1.938e-09
  2.79692     75.6 1.297e+04 1.430e-09
  2.81632     73.3 1.235e+04 1.213e-09
  2.82886     71.6 1.182e+04 1.067e-09
  2.83991     67.2 1.345e+04 8.872e-10
  2.86053     65.5 1.246e+04 7.586e-10
  2.87186     64.0 1.198e+04 6.744e-10
  2.88291     56.9 1.348e+04 1.141e-09
  2.90380     56.3 1.249e+04 1.075e-09
  2.91485     52.6 1.286e+04 2.003e-09
  2.92685     53.0 1.284e+04 1.940e-09
  2.94680     53.4 1.307e+04 1.942e-09
  2.95785     50.1 1.601e+04 3.925e-09
  2.97107     49.6 1.704e+04 4.632e-09
  2.98979     49.0 1.798e+04 5.699e-09
  3.00085     44.7 1.907e+04 1.084e-08
  3.01528     44.2 1.928e+04 1.352e-08
  3.03279     43.7 1.952e+04 1.617e-08
  3.04384     41.8 1.980e+04 1.957e-08
  3.05949     41.4 2.004e+04 2.068e-08
  3.07579     40.7 1.995e+04 2.086e-08
  3.08684     39.3 1.978e+04 1.495e-08
  3.10371     38.7 1.937e+04 1.238e-08
  3.11878     38.1 1.861e+04 9.352e-09
  3.12984     33.8 1.661e+04 3.891e-09
  3.14792     32.6 1.529e+04 3.113e-09
  3.16178     31.6 1.421e+04 2.549e-09
  3.17283     28.9 1.307e+04 2.083e-09
  3.19213     29.1 1.306e+04 2.119e-09
  3.20478     29.3 1.309e+04 2.213e-09
  3.21583     28.8 1.308e+04 2.279e-09
  3.23635     29.2 1.329e+04 2.527e-09
  3.24777     29.6 1.358e+04 2.847e-09
  3.24964     29.3 1.349e+04 2.814e-09
  3.26032     29.7 1.376e+04 3.106e-09
  3.27972     30.3 1.421e+04 3.700e-09
  3.29077     30.4 1.346e+04 2.535e-09
  3.30267     31.1 1.384e+04 2.876e-09
  3.32271     31.8 1.417e+04 3.142e-09
  3.33377     31.1 1.288e+04 1.558e-09
  3.34688     31.4 1.307e+04 1.612e-09
  3.36571     31.6 1.319e+04 1.610e-09
  3.37676     29.6 1.134e+04 7.787e-10
  3.39109     29.8 1.135e+04 7.781e-10
  3.40871     30.1 1.139e+04 7.816e-10
  3.41976     28.6 1.048e+04 5.342e-10
  3.43531     28.7 1.055e+04 5.441e-10
  3.45171     28.8 1.065e+04 5.625e-10
  3.46276     27.8 1.039e+04 4.982e-10
  3.47952     27.6 1.054e+04 5.374e-10
  3.49470     27.3 1.071e+04 5.969e-10
  3.50576     26.4 1.067e+04 5.897e-10
  3.52373     26.0 1.087e+04 6.810e-10
  3.53770     25.8 1.107e+04 7.934e-10
  3.54875     25.2 1.104e+04 7.959e-10
  3.56794     25.3 1.119e+04 8.701e-10
  3.58070     25.3 1.119e+04 8.702e-10
  3.59175     25.1 1.098e+04 7.803e-10
  3.61216     25.4 1.085e+04 6.994e-10
  3.62369     25.6 1.067e+04 5.347e-10
  3.64590     24.7 1.031e+04 3.652e-10
  3.68777     24.7 9.992e+03 2.399e-10
  3.70988     23.8 9.513e+03 1.564e-10
  3.73394     23.8 9.261e+03 1.297e-10
  3.77377     24.3 9.237e+03 1.321e-10
  3.79587     23.9 9.214e+03 1.312e-10
  3.82237     24.7 9.270e+03 1.509e-10
  3.85976     25.4 9.400e+03 1.849e-10
  3.88187     25.2 9.641e+03 2.404e-10
  3.89754     26.0 9.772e+03 2.668e-10
  3.91964     26.7 9.576e+03 2.276e-10
  3.94576     27.4 9.850e+03 2.673e-10
  3.96786     27.3 9.950e+03 2.950e-10
  3.99922     27.6 1.007e+04 3.061e-10
  4.03165     27.4 1.015e+04 3.209e-10
  4.04261     27.2 1.024e+04 3.365e-10
  4.05429     26.9 1.034e+04 3.541e-10
  4.07455     26.6 1.073e+04 4.110e-10
  4.08560     26.4 1.068e+04 4.217e-10
  4.09850     25.7 1.150e+04 5.568e-10
  4.11755     22.7 1.397e+04 1.228e-09
  4.12860     23.0 1.316e+04 9.775e-10
  4.14272     18.5 1.635e+04 3.061e-09
  4.16054     16.2 1.802e+04 8.502e-09
  4.17160     15.8 1.759e+04 7.151e-09
  4.18693     15.9 1.826e+04 1.318e-08
  4.20354     16.0 1.818e+04 1.364e-08
  4.21459     16.2 1.768e+04 1.142e-08
  4.23114     16.5 1.729e+04 1.028e-08
  4.24654     16.9 1.625e+04 6.827e-09
  4.25759     16.8 1.577e+04 5.062e-09
  4.27536     15.8 1.463e+04 3.033e-09
  4.28953     13.8 1.335e+04 1.851e-09
  4.30059     12.5 1.296e+04 1.423e-09
  4.31957     11.6 1.290e+04 1.434e-09
  4.33253     10.8 1.313e+04 1.672e-09
  4.34358     10.5 1.269e+04 1.233e-09
  4.36378      9.9 1.364e+04 1.885e-09
  4.37553     10.7 1.485e+04 3.366e-09
  4.38658     10.9 1.370e+04 1.567e-09
  4.40747     12.0 1.445e+04 2.180e-09
  4.41853     10.6 1.236e+04 9.515e-10
  4.43010     10.6 1.254e+04 1.056e-09
  4.45047     10.5 1.250e+04 1.058e-09
  4.46162      9.3 1.156e+04 7.595e-10
  4.48556      9.5 1.139e+04 7.346e-10
  4.52560      9.8 1.097e+04 6.113e-10
  4.54771      8.8 1.086e+04 5.196e-10
  4.57399      9.4 1.038e+04 3.928e-10
  4.61160     10.2 9.876e+03 2.632e-10
  4.63370      5.8 1.274e+04 2.766e-10
  4.66242      5.9 1.157e+04 1.968e-10
  4.69759      5.8 1.099e+04 2.499e-10
  4.71960      1.6 1.268e+04 9.219e-10
  4.73959      1.9 1.290e+04 1.085e-09
  4.75145      2.5 1.306e+04 1.190e-09
  4.76250      0.9 1.482e+04 2.518e-09
  4.78339      1.6 1.464e+04 2.401e-09
  4.79444      0.2 1.604e+04 4.215e-09
  4.80591      0.8 1.565e+04 3.770e-09
  4.82639      1.5 1.528e+04 3.320e-09
  4.83744     -0.9 1.567e+04 3.722e-09
  4.85013     -0.0 1.523e+04 3.281e-09
  4.86938      0.8 1.493e+04 2.997e-09
  4.88044     -1.7 1.482e+04 2.948e-09
  4.89434     -1.0 1.466e+04 2.879e-09
  4.91238     -0.3 1.445e+04 2.800e-09
  4.92343     -2.3 1.399e+04 2.329e-09
  4.93855     -1.2 1.405e+04 2.563e-09
  4.95538     -0.2 1.412e+04 2.800e-09
  4.96643     -1.8 1.355e+04 1.731e-09
  4.98277     -0.6 1.374e+04 2.049e-09
  4.99837      0.5 1.388e+04 2.364e-09
  5.00943     -1.3 1.293e+04 1.054e-09
  5.02698     -0.0 1.311e+04 1.253e-09
  5.04137      1.1 1.325e+04 1.455e-09
  5.05242     -0.8 1.176e+04 5.556e-10
  5.07119      0.3 1.194e+04 6.349e-10
  5.08437      1.6 1.212e+04 7.251e-10
  5.09542     -0.1 1.055e+04 3.093e-10
  5.11540      0.7 1.079e+04 3.373e-10
  5.12736      2.9 1.166e+04 4.997e-10
  5.14957      1.5 1.001e+04 2.237e-10
  5.19145      3.9 1.011e+04 2.517e-10
  5.21355      3.4 9.316e+03 1.616e-10
  5.21580      5.5 9.259e+03 1.607e-10
  5.23790      6.0 9.367e+03 1.833e-10
  5.27744      8.1 9.361e+03 1.877e-10
  5.29955      7.7 9.142e+03 1.553e-10
  5.32561      9.6 9.200e+03 1.758e-10
  5.36343     11.6 9.345e+03 2.126e-10
  5.38554     11.5 9.297e+03 2.079e-10
  5.41404     13.4 9.438e+03 2.455e-10
  5.44943     15.2 9.544e+03 2.615e-10
  5.47153     15.3 9.525e+03 2.588e-10
  5.50246     16.8 9.588e+03 2.601e-10
  5.53542     18.0 9.637e+03 2.633e-10
  5.55753     18.5 9.681e+03 2.714e-10
  5.59089     19.8 9.727e+03 2.759e-10
  5.62142     20.6 9.867e+03 2.963e-10
  5.64352     22.2 1.008e+04 3.220e-10
  5.66431     22.1 1.001e+04 3.210e-10
  5.67527     22.8 9.984e+03 3.209e-10
  5.69018     22.8 9.960e+03 3.365e-10
  5.70721     22.3 1.003e+04 3.869e-10
  5.71827     22.9 1.033e+04 4.028e-10
  5.73439     21.8 1.056e+04 4.788e-10
  5.75021     20.4 1.077e+04 5.764e-10
  5.76126     17.0 1.511e+04 7.153e-10
  5.77860     14.8 1.514e+04 7.820e-10
  5.79321     12.6 1.611e+04 8.556e-10
  5.80426      5.8 2.308e+04 5.296e-09
  5.82281      4.4 2.241e+04 5.403e-09
  5.83620      4.4 2.118e+04 4.788e-09
  5.84726      0.7 2.234e+04 1.341e-08
  5.86368      0.1 2.103e+04 7.423e-09
  5.87473      2.1 2.042e+04 5.814e-09
  5.87920      1.2 1.820e+04 4.598e-09
  5.89025     -4.1 1.911e+04 5.688e-09
  5.91114     -4.9 1.717e+04 4.766e-09
  5.93325    -10.2 1.573e+04 3.969e-09
  5.95414    -10.4 1.495e+04 3.264e-09
  5.96519    -14.6 1.381e+04 1.969e-09
  5.97756    -15.0 1.325e+04 1.548e-09
  5.99714    -15.6 1.281e+04 1.272e-09
  6.00819    -19.3 1.194e+04 7.922e-10
  6.02177    -19.9 1.173e+04 7.237e-10
  6.04013    -20.7 1.154e+04 6.875e-10
  6.05119    -23.3 1.099e+04 5.148e-10
  6.06599    -24.1 1.069e+04 4.914e-10
  6.08313    -25.1 1.052e+04 4.739e-10
  6.09418    -26.9 1.024e+04 3.916e-10
  6.11020    -27.9 1.012e+04 3.722e-10
  6.12613    -28.8 1.011e+04 3.728e-10
  6.13718    -30.2 1.002e+04 3.461e-10
  6.15441    -31.1 1.010e+04 3.706e-10
  6.16912    -32.4 1.032e+04 4.340e-10
  6.18018    -34.0 1.036e+04 4.403e-10
  6.19863    -35.8 1.075e+04 5.765e-10
  6.21212    -37.8 1.128e+04 8.163e-10
  6.22318    -39.5 1.124e+04 8.283e-10
  6.24284    -41.6 1.181e+04 1.130e-09
  6.25512    -44.0 1.242e+04 1.488e-09
  6.26617    -46.0 1.211e+04 1.258e-09
  6.28705    -49.3 1.251e+04 1.481e-09
  6.30916    -55.2 1.234e+04 1.447e-09
  6.33006    -58.5 1.251e+04 1.607e-09
  6.34111    -59.9 1.217e+04 1.428e-09
  6.35337    -62.7 1.226e+04 1.454e-09
  6.37306    -65.2 1.221e+04 1.427e-09
  6.38411    -66.0 1.200e+04 1.322e-09
  6.39759    -68.0 1.181e+04 1.253e-09
  6.41605    -69.4 1.147e+04 1.145e-09
  6.42711    -69.7 1.139e+04 1.122e-09
  6.44180    -70.6 1.108e+04 1.037e-09
  6.45905    -71.0 1.076e+04 9.051e-10
  6.47010    -71.1 1.074e+04 8.935e-10
  6.48601    -71.2 1.048e+04 7.684e-10
  6.50205    -71.3 1.025e+04 6.534e-10
  6.51310    -71.7 1.025e+04 6.536e-10
  6.52281    -72.0 1.001e+04 5.494e-10
  6.53386    -72.8 9.727e+03 4.488e-10
  6.54504    -72.9 9.540e+03 3.917e-10
  6.55610    -73.4 9.694e+03 4.176e-10
  6.57444    -73.3 9.600e+03 4.015e-10
  6.58804    -73.2 9.532e+03 3.998e-10
  6.59909    -73.7 9.754e+03 4.562e-10
  6.61865    -73.5 9.764e+03 4.665e-10
  6.63104    -73.5 9.884e+03 5.062e-10
  6.64209    -74.1 1.016e+04 5.819e-10
  6.66286    -74.4 1.048e+04 6.741e-10
  6.67403    -74.7 1.088e+04 8.230e-10
  6.68509    -75.5 1.107e+04 9.120e-10
  6.70598    -75.7 1.142e+04 1.117e-09
  6.71703    -76.4 1.143e+04 1.137e-09
  6.72918    -76.3 1.170e+04 1.327e-09
  6.74897    -76.1 1.186e+04 1.472e-09
  6.76003    -76.5 1.152e+04 1.289e-09
  6.77340    -76.4 1.141e+04 1.190e-09
  6.79197    -76.3 1.117e+04 1.040e-09
  6.80302    -76.5 1.074e+04 8.248e-10
  6.81761    -76.3 1.050e+04 7.181e-10
  6.83497    -76.1 1.034e+04 6.464e-10
  6.84602    -76.2 1.001e+04 5.136e-10
  6.86182    -75.6 9.917e+03 4.498e-10
  6.87796    -75.5 9.891e+03 4.318e-10
  6.88912    -75.6 9.713e+03 3.817e-10
  6.91729    -74.7 9.684e+03 3.536e-10
  6.95310    -73.1 9.476e+03 2.982e-10
  6.97521    -72.2 9.176e+03 2.409e-10
  7.00571    -70.4 9.012e+03 1.933e-10
  7.03909    -68.6 8.893e+03 1.430e-10
  7.06120    -67.8 8.810e+03 1.277e-10
  7.09414    -66.3 8.754e+03 9.733e-11
  7.12509    -64.9 8.643e+03 9.064e-11
  7.14719    -64.0 8.570e+03 8.316e-11
  7.18256    -62.4 8.558e+03 8.482e-11
  7.21108    -60.7 8.536e+03 9.405e-11
  7.23319    -59.9 8.438e+03 8.447e-11
  7.27099    -58.2 8.443e+03 9.958e-11
  7.29707    -56.3 8.486e+03 1.174e-10
  7.31918    -55.5 8.371e+03 1.015e-10
  7.35942    -53.7 8.437e+03 1.169e-10
  7.38307    -51.9 8.511e+03 1.306e-10
  7.40517    -51.2 8.381e+03 1.126e-10
  7.44696    -49.5 8.449e+03 1.246e-10
  7.46906    -48.6 8.320e+03 1.056e-10
  7.49206    -47.0 8.394e+03 1.150e-10
  7.53295    -45.3 8.478e+03 1.244e-10
  7.55506    -44.5 8.361e+03 1.049e-10
  7.58048    -43.0 8.466e+03 1.151e-10
  7.61894    -41.6 8.573e+03 1.264e-10
  7.64105    -40.8 8.435e+03 1.052e-10
  7.66891    -39.3 8.512e+03 1.107e-10
  7.70494    -37.8 8.546e+03 1.103e-10
  7.72704    -36.9 8.389e+03 8.914e-11
  7.75733    -35.4 8.402e+03 8.592e-11
  7.79093    -33.9 8.415e+03 8.210e-11
  7.81304    -33.0 8.311e+03 6.832e-11
  7.83021    -31.5 8.331e+03 6.799e-11
  7.85232    -31.5 8.308e+03 7.238e-11
  7.87692    -30.0 8.359e+03 7.813e-11
  7.89903    -29.1 8.296e+03 6.505e-11
  7.93419    -27.7 8.369e+03 7.774e-11
  7.96292    -26.2 8.491e+03 9.914e-11
  7.98502    -25.3 8.450e+03 8.770e-11
  8.02261    -23.9 8.591e+03 1.135e-10
  8.04891    -22.6 8.757e+03 1.460e-10
  8.07102    -21.7 8.760e+03 1.395e-10
  8.11104    -20.4 8.963e+03 1.779e-10
  8.13490    -19.2 9.277e+03 2.283e-10
  8.15701    -18.4 9.259e+03 2.216e-10
  8.19879    -17.3 9.686e+03 2.880e-10
  8.22090    -16.7 9.671e+03 2.779e-10
  8.24368    -16.3 1.007e+04 3.540e-10
  8.27674    -16.5 1.031e+04 4.175e-10
  8.29564    -17.1 1.059e+04 5.180e-10
  8.30670    -17.1 1.066e+04 5.232e-10
  8.32086    -18.0 1.107e+04 6.971e-10
  8.33864    -19.1 1.159e+04 9.432e-10
  8.34969    -19.6 1.172e+04 1.014e-09
  8.36507    -21.0 1.228e+04 1.407e-09
  8.38164    -22.5 1.296e+04 1.979e-09
  8.39269    -22.5 1.281e+04 1.876e-09
  8.40928    -23.9 1.329e+04 2.234e-09
  8.42463    -25.2 1.369e+04 2.415e-09
  8.43569    -25.1 1.308e+04 1.679e-09
  8.45350    -26.8 1.311e+04 1.527e-09
  8.46763    -28.3 1.292e+04 1.334e-09
  8.47868    -28.7 1.233e+04 9.134e-10
  8.48914    -29.7 1.199e+04 8.073e-10
  8.50020    -29.8 1.219e+04 9.617e-10
  8.51063    -30.4 1.188e+04 7.848e-10
  8.52168    -30.0 1.151e+04 6.340e-10
  8.54192    -30.0 1.138e+04 5.240e-10
  8.55362    -29.9 1.129e+04 4.462e-10
  8.56468    -29.4 1.118e+04 3.979e-10
  8.59729    -29.0 1.107e+04 3.432e-10
  8.62876    -28.2 1.089e+04 3.166e-10
  8.65087    -27.3 1.065e+04 2.790e-10
  8.68581    -26.4 1.068e+04 2.911e-10
  8.71475    -25.6 1.074e+04 3.379e-10
  8.73686    -24.8 1.051e+04 2.878e-10
  8.77424    -24.0 1.060e+04 3.379e-10
  8.80075    -22.9 1.062e+04 3.532e-10
  8.82285    -21.9 1.034e+04 2.729e-10
  8.86266    -20.9 1.036e+04 2.754e-10
  8.88674    -19.8 1.042e+04 2.827e-10
  8.90885    -18.5 1.006e+04 2.109e-10
  8.95063    -17.6 1.023e+04 2.396e-10
  8.97273    -16.2 9.912e+03 1.853e-10
  8.99530    -15.2 1.012e+04 2.318e-10
  9.03662    -14.2 1.034e+04 2.791e-10
  9.05873    -12.5 1.006e+04 2.348e-10
  9.08373    -11.4 1.028e+04 2.644e-10
  9.12261    -10.4 1.055e+04 2.876e-10
  9.14314     -8.8 1.035e+04 2.656e-10
  9.14847     -9.0 1.048e+04 2.924e-10
  9.16100     -8.8 1.061e+04 3.027e-10
  9.17647     -8.8 1.074e+04 3.183e-10
  9.18752     -7.9 1.066e+04 3.142e-10
  9.20512     -8.0 1.091e+04 3.641e-10
  9.21947     -8.5 1.137e+04 5.128e-10
  9.23052     -7.7 1.126e+04 4.834e-10
  9.24933     -8.5 1.188e+04 7.933e-10
  9.26246     -8.8 1.262e+04 1.425e-09
  9.27352     -8.1 1.246e+04 1.297e-09
  9.29355     -7.9 1.310e+04 2.052e-09
  9.30546     -7.9 1.359e+04 2.356e-09
  9.31651     -7.5 1.329e+04 2.001e-09
  9.34891     -8.3 1.295e+04 1.634e-09
  9.38060     -8.9 1.233e+04 1.075e-09
  9.40270     -7.6 1.182e+04 8.345e-10
  9.43743     -8.0 1.118e+04 4.406e-10
  9.46659     -8.6 1.064e+04 2.187e-10
  9.48870     -7.4 1.051e+04 2.088e-10
  9.52586     -7.6 1.016e+04 1.698e-10
  9.55258     -7.2 1.005e+04 1.704e-10
  9.57469     -5.8 1.004e+04 1.699e-10
  9.61429     -5.2 1.001e+04 1.745e-10
  9.63858     -4.4 1.002e+04 1.830e-10
  9.66068     -3.5 1.006e+04 1.872e-10
  9.70246     -2.9 1.017e+04 2.036e-10
  9.72457     -2.3 1.038e+04 2.393e-10
  9.74693     -1.9 1.043e+04 2.663e-10
  9.78846     -1.7 1.039e+04 2.624e-10
  9.81056     -1.2 1.072e+04 3.827e-10
  9.83535     -0.9 1.056e+04 3.429e-10
  9.87445     -0.4 1.022e+04 2.356e-10
  9.89656      0.1 1.063e+04 3.762e-10
  9.92378      0.2 1.022e+04 2.187e-10
  9.96044      0.1 9.726e+03 1.207e-10
  9.98255      0.3 1.041e+04 2.557e-10
 10.01220     -0.1 9.959e+03 1.655e-10
 10.04644     -0.3 9.580e+03 1.331e-10
 10.06854     -0.5 1.033e+04 2.774e-10
 10.10063     -0.6 1.003e+04 2.322e-10
 10.13243     -0.6 9.869e+03 2.218e-10
 10.15454     -0.9 1.047e+04 3.854e-10
 10.18906     -0.6 1.018e+04 3.325e-10
 10.21843      0.0 9.949e+03 2.891e-10
 10.24053     -0.4 1.017e+04 3.454e-10
 10.27748      0.2 9.903e+03 2.730e-10
 10.30442      0.9 9.684e+03 2.238e-10
 10.32653      0.5 9.755e+03 2.382e-10
 10.36591      1.6 9.541e+03 2.046e-10
 10.39041      2.9 9.318e+03 1.659e-10
 10.41252      3.0 9.483e+03 2.101e-10
 10.44462      4.6 9.262e+03 1.692e-10
 10.46669      4.2 9.195e+03 1.472e-10
 10.49851      5.8 9.064e+03 1.415e-10
 10.54029      7.1 8.681e+03 8.719e-11
 10.56240      7.2 8.854e+03 1.512e-10
 10.58698      7.9 8.776e+03 9.304e-11
 10.62629      8.1 9.024e+03 8.593e-11
 10.64839      5.8 1.038e+04 3.107e-10
 10.67540      5.4 1.080e+04 3.376e-10
 10.71228      5.5 1.128e+04 4.100e-10
 10.73429      4.3 1.305e+04 1.392e-09
 10.75258      4.4 1.298e+04 1.389e-09
 10.76614      4.6 1.291e+04 1.411e-09
 10.77719      3.9 1.338e+04 2.037e-09
 10.79818      4.9 1.282e+04 1.471e-09
 10.82028      3.4 1.327e+04 2.223e-09
 10.84101      3.7 1.308e+04 2.116e-09
 10.86311      3.2 1.275e+04 1.927e-09
 10.88407      3.7 1.247e+04 1.706e-09
 10.89513      3.0 1.186e+04 1.202e-09
 10.90733      3.5 1.158e+04 1.040e-09
 10.92707      4.0 1.131e+04 9.030e-10
 10.93812      3.2 1.066e+04 5.944e-10
 10.95154      3.7 1.050e+04 5.479e-10
 10.97007      4.3 1.039e+04 5.171e-10
 10.98112      3.9 9.978e+03 3.894e-10
 10.99575      4.5 9.986e+03 3.895e-10
 11.01306      5.3 9.985e+03 3.928e-10
 11.02412      5.4 9.785e+03 3.400e-10
 11.03996      5.8 9.807e+03 3.444e-10
 11.05606      6.8 9.826e+03 3.552e-10
 11.07826      7.2 9.695e+03 3.146e-10
 11.11753      8.3 9.779e+03 3.398e-10
 11.14225      9.1 9.890e+03 3.711e-10
 11.16435      9.3 9.693e+03 3.173e-10
 11.20596      9.8 9.900e+03 3.806e-10
 11.25017     10.8 9.947e+03 4.145e-10
 11.28323     11.3 1.007e+04 4.771e-10
 11.30299     11.7 1.025e+04 5.509e-10
 11.31404     11.9 1.013e+04 5.100e-10
 11.32735     12.2 1.032e+04 5.857e-10
 11.34598     12.3 1.055e+04 6.287e-10
 11.35704     12.6 1.039e+04 6.032e-10
 11.37156     12.7 1.053e+04 6.105e-10
 11.38898     12.7 1.055e+04 6.008e-10
 11.40003     13.0 1.044e+04 5.655e-10
 11.42693     13.2 1.051e+04 5.387e-10
 11.46412     13.3 1.053e+04 4.653e-10
 11.48622     14.0 1.045e+04 4.704e-10
 11.51545     13.9 1.047e+04 4.383e-10
 11.54851     13.4 1.044e+04 4.367e-10
 11.56097     12.9 1.048e+04 4.550e-10
 11.57202     12.9 1.049e+04 4.726e-10
 11.59263     12.6 1.060e+04 5.049e-10
 11.60396     12.3 1.076e+04 5.483e-10
 11.61502     12.3 1.077e+04 5.517e-10
 11.63591     11.9 1.091e+04 5.952e-10
 11.64696     11.9 1.087e+04 5.825e-10
 11.65895     11.6 1.097e+04 6.123e-10
 11.67891     11.2 1.110e+04 6.424e-10
 11.68996     11.4 1.096e+04 5.936e-10
 11.70316     11.2 1.105e+04 5.983e-10
 11.72190     11.0 1.115e+04 6.040e-10
 11.73296     11.3 1.094e+04 5.233e-10
 11.74737     11.3 1.100e+04 5.186e-10
 11.76269     11.2 1.106e+04 5.218e-10
 11.76916     10.7 1.119e+04 5.594e-10
 11.77595     11.2 1.095e+04 4.622e-10
 11.79159     11.2 1.103e+04 4.825e-10
 11.80790     11.3 1.111e+04 5.133e-10
 11.81895     11.9 1.094e+04 4.360e-10
 11.83580     11.9 1.108e+04 4.869e-10
 11.85089     11.9 1.120e+04 5.483e-10
 11.86195     12.5 1.115e+04 4.964e-10
 11.88001     12.6 1.129e+04 5.853e-10
 11.89389     12.7 1.143e+04 6.861e-10
 11.90494     13.3 1.141e+04 6.581e-10
 11.92423     13.4 1.160e+04 7.982e-10
 11.93689     13.4 1.183e+04 9.603e-10
 11.94794     13.9 1.185e+04 9.723e-10
 11.96844     13.7 1.216e+04 1.209e-09
 11.97988     13.4 1.243e+04 1.418e-09
 11.99094     13.8 1.251e+04 1.510e-09
 12.01183     13.3 1.271e+04 1.591e-09
 12.02288     13.5 1.275e+04 1.657e-09
 12.03476     12.7 1.275e+04 1.633e-09
 12.05482     11.8 1.269e+04 1.492e-09
 12.06588     11.9 1.269e+04 1.518e-09
 12.07897     10.6 1.256e+04 1.235e-09
 12.09782      8.8 1.235e+04 9.649e-10
 12.10887      8.7 1.232e+04 9.693e-10
 12.12319      6.5 1.187e+04 7.987e-10
 12.14082      4.5 1.136e+04 7.367e-10
 12.15187      4.6 1.130e+04 6.998e-10
 12.16740      3.2 1.091e+04 6.533e-10
 12.18381      2.2 1.077e+04 6.353e-10
 12.19487      2.3 1.048e+04 5.202e-10
 12.21161      1.6 1.038e+04 4.728e-10
 12.22681      1.0 1.034e+04 4.358e-10
 12.23786      0.6 9.979e+03 3.211e-10
 12.25583      0.3 9.914e+03 3.030e-10
 12.26981      0.0 9.828e+03 2.932e-10
 12.28086     -0.2 9.618e+03 2.496e-10
 12.30004     -0.3 9.630e+03 2.540e-10
 12.31280     -0.3 9.643e+03 2.562e-10
 12.32395     -0.3 9.509e+03 2.301e-10
 12.35550     -0.3 9.676e+03 2.647e-10
 12.38784      0.1 9.636e+03 2.653e-10
 12.39880      0.1 9.535e+03 2.509e-10
 12.41057     -0.3 9.807e+03 3.021e-10
 12.42182     -1.4 1.032e+04 4.498e-10
 12.43093     -2.2 1.061e+04 5.593e-10
 12.44179     -2.0 1.058e+04 5.392e-10
 12.45479     -2.9 1.108e+04 8.601e-10
 12.47374     -3.3 1.154e+04 1.243e-09
 12.48479     -3.2 1.149e+04 1.247e-09
 12.49900     -3.6 1.194e+04 1.616e-09
 12.51673     -4.6 1.264e+04 2.012e-09
 12.52779     -4.4 1.240e+04 1.835e-09
 12.54321     -6.8 1.339e+04 2.303e-09
 12.55973    -10.4 1.458e+04 3.221e-09
 12.57078    -10.7 1.428e+04 2.768e-09
 12.58742    -15.4 1.543e+04 4.351e-09
 12.60273    -20.3 1.670e+04 6.891e-09
 12.61378    -22.3 1.708e+04 7.115e-09
 12.63164    -28.3 1.806e+04 9.784e-09
 12.64568    -31.7 1.863e+04 1.116e-08
 12.65115    -32.5 1.865e+04 1.123e-08
 12.65917    -35.2 1.889e+04 1.268e-08
 12.66713    -37.4 1.842e+04 1.275e-08
 12.67265    -37.6 1.793e+04 1.167e-08
 12.68128    -39.1 1.715e+04 1.048e-08
 12.68862    -40.6 1.644e+04 8.868e-09
 12.69415    -40.9 1.596e+04 7.379e-09
 12.70339    -42.6 1.531e+04 6.180e-09
 12.72002    -44.4 1.472e+04 4.916e-09
 12.73172    -47.1 1.427e+04 3.771e-09
 12.74277    -47.5 1.363e+04 3.046e-09
 12.76366    -50.6 1.295e+04 2.271e-09
 12.77472    -51.0 1.241e+04 1.900e-09
 12.78638    -52.8 1.174e+04 1.534e-09
 12.80666    -54.3 1.124e+04 1.197e-09
 12.81771    -53.9 1.112e+04 1.132e-09
 12.83060    -55.5 1.135e+04 1.111e-09
 12.84966    -61.0 1.305e+04 1.423e-09
 12.86071    -60.7 1.272e+04 1.267e-09
 12.87481    -68.5 1.407e+04 2.342e-09
 12.89265    -69.6 1.398e+04 3.966e-09
 12.90371    -69.1 1.347e+04 3.162e-09
 12.91902    -68.9 1.379e+04 4.062e-09
 12.93565    -68.7 1.375e+04 3.843e-09
 12.94670    -68.7 1.327e+04 3.109e-09
 12.96324    -69.4 1.338e+04 2.533e-09
 12.97865    -71.7 1.296e+04 1.658e-09
 12.98970    -71.6 1.243e+04 1.458e-09
 13.00745    -74.4 1.148e+04 8.774e-10
 13.02164    -77.0 1.043e+04 5.957e-10
 13.03270    -76.1 1.040e+04 5.838e-10
 13.05166    -77.4 9.868e+03 4.516e-10
 13.06464    -78.1 9.617e+03 3.988e-10
 13.07182    -77.2 9.612e+03 3.937e-10
 13.08095    -76.9 9.680e+03 4.236e-10
 13.09588    -77.3 9.641e+03 3.910e-10
 13.10764    -77.6 9.713e+03 3.871e-10
 13.11869    -76.5 9.717e+03 3.863e-10
 13.13958    -76.8 9.787e+03 4.299e-10
 13.15063    -75.8 9.933e+03 4.524e-10
 13.16220    -75.8 1.019e+04 5.041e-10
 13.18258    -75.3 1.038e+04 6.116e-10
 13.19363    -74.7 1.076e+04 7.165e-10
 13.20641    -74.7 1.131e+04 9.036e-10
 13.22557    -75.1 1.236e+04 1.419e-09
 13.23663    -74.0 1.247e+04 1.597e-09
 13.25062    -75.4 1.447e+04 2.804e-09
 13.26857    -77.2 1.655e+04 5.297e-09
 13.27962    -75.7 1.677e+04 5.684e-09
 13.29483    -76.3 1.800e+04 9.767e-09
 13.31157    -75.5 1.800e+04 1.346e-08
 13.32262    -74.3 1.873e+04 1.568e-08
 13.33905    -73.3 1.844e+04 1.848e-08
 13.35456    -72.4 1.844e+04 1.297e-08
 13.36562    -72.2 1.900e+04 2.165e-08
 13.38326    -72.5 1.937e+04 1.271e-08
 13.39756    -74.1 2.045e+04 4.989e-09
 13.40266    -73.4 1.949e+04 1.585e-08
 13.40489    -73.3 1.963e+04 1.330e-08
 13.41080    -74.2 2.036e+04 9.193e-09
 13.42743    -75.8 2.202e+04 8.065e-09
 13.44056    -78.8 2.464e+04 3.090e-09
 13.44604    -76.7 2.326e+04 1.217e-08
 13.45501    -77.1 2.362e+04 9.243e-09
 13.47164    -76.8 2.349e+04 7.325e-09
 13.48355    -77.3 2.312e+04 1.766e-09
 13.49461    -75.7 2.403e+04 4.858e-09
 13.51550    -80.3 1.722e+04 1.100e-09
 13.52655    -79.0 1.946e+04 2.579e-09
 13.53801    -82.2 1.321e+04 8.537e-10
 13.55850    -82.5 1.118e+04 6.510e-10
 13.56955    -82.4 1.382e+04 1.090e-09
 13.58222    -82.2 1.295e+04 8.103e-10
 13.60149    -81.8 1.233e+04 6.573e-10
 13.61255    -82.5 1.554e+04 1.373e-09
 13.62643    -82.0 1.505e+04 9.355e-10
 13.64449    -81.6 1.368e+04 6.584e-10
 13.65554    -82.6 1.697e+04 1.794e-09
 13.67065    -84.0 1.558e+04 1.205e-09
 13.68749    -85.0 1.432e+04 1.067e-09
 13.69854    -86.2 1.638e+04 2.846e-09
 13.71486    -86.3 1.552e+04 2.681e-09
 13.72902    -85.8 1.502e+04 2.695e-09
 13.73359    -84.2 1.288e+04 1.284e-09
 13.74154    -84.6 1.459e+04 2.296e-09
 13.75907    -84.1 1.384e+04 1.998e-09
 13.77348    -84.0 1.322e+04 1.781e-09
 13.78453    -84.1 1.416e+04 2.369e-09
 13.80329    -84.9 1.375e+04 2.086e-09
 13.81648    -86.2 1.396e+04 2.155e-09
 13.82753    -86.4 1.445e+04 2.560e-09
 13.84750    -88.3 1.473e+04 2.936e-09
 13.85947    -89.5 1.469e+04 3.714e-09
 13.87053    -89.0 1.478e+04 3.948e-09
 13.89142    -89.1 1.459e+04 4.494e-09
 13.90247    -88.3 1.457e+04 4.438e-09
 13.91382    -88.2 1.426e+04 4.169e-09
 13.93441    -87.8 1.401e+04 3.735e-09
 13.94547    -87.2 1.387e+04 3.367e-09
 13.95803    -87.5 1.358e+04 2.670e-09
 13.97741    -88.9 1.312e+04 2.010e-09
 13.98846    -88.7 1.292e+04 1.893e-09
 14.00224    -90.0 1.233e+04 1.527e-09
 14.02041    -90.6 1.195e+04 1.302e-09
 14.03146    -90.1 1.194e+04 1.343e-09
 14.04646    -90.5 1.176e+04 1.183e-09
 14.06340    -90.8 1.155e+04 1.038e-09
 14.07446    -90.2 1.158e+04 1.065e-09
 14.09067    -90.4 1.131e+04 9.340e-10
 14.10640    -90.5 1.108e+04 8.392e-10
 14.11745    -89.8 1.106e+04 8.334e-10
 14.13488    -89.8 1.096e+04 7.955e-10
 14.14940    -89.5 1.064e+04 6.874e-10
 14.16045    -88.9 1.069e+04 7.040e-10
 14.17910    -88.5 1.053e+04 6.238e-10
 14.21235    -88.0 1.017e+04 4.811e-10
 14.23559    -86.9 9.719e+03 3.413e-10
 14.25769    -85.8 9.877e+03 3.946e-10
 14.29947    -84.9 9.574e+03 3.010e-10
 14.32158    -83.8 9.805e+03 3.704e-10
 14.34509    -82.9 9.699e+03 3.403e-10
 14.37729    -81.8 9.758e+03 3.428e-10
 14.39556    -81.6 9.374e+03 2.512e-10
 14.40757    -80.5 9.621e+03 3.241e-10
 14.43352    -79.5 9.821e+03 3.631e-10
 14.47146    -78.6 9.935e+03 4.145e-10
 14.49357    -77.4 9.995e+03 4.488e-10
 14.51079    -77.0 1.011e+04 5.342e-10
 14.52532    -76.4 1.012e+04 5.535e-10
 14.53637    -75.8 1.013e+04 5.556e-10
 14.55491    -75.0 1.026e+04 5.754e-10
 14.56831    -74.5 1.035e+04 5.820e-10
 14.57937    -74.0 1.035e+04 5.655e-10
 14.61027    -73.8 1.032e+04 5.504e-10
 14.64345    -73.3 1.027e+04 5.087e-10
 14.66555    -72.5 1.027e+04 5.487e-10
 14.69880    -72.0 1.009e+04 5.047e-10
 14.72944    -71.4 9.797e+03 4.197e-10
 14.75155    -70.4 9.787e+03 4.484e-10
 14.78722    -69.8 9.509e+03 3.555e-10
 14.81544    -69.4 9.395e+03 3.146e-10
 14.83754    -68.7 9.385e+03 3.310e-10
 14.87565    -68.4 9.430e+03 3.298e-10
 14.90143    -68.4 9.631e+03 4.085e-10
 14.92354    -67.7 9.537e+03 4.225e-10
 14.96408    -67.0 9.656e+03 4.905e-10
 14.98742    -66.1 9.681e+03 5.117e-10
 15.00953    -65.4 9.483e+03 4.556e-10
 15.05131    -64.5 9.248e+03 3.819e-10
 15.07342    -63.8 9.051e+03 3.305e-10
 15.09672    -63.1 8.815e+03 2.749e-10
 15.13730    -62.0 8.709e+03 2.523e-10
 15.15941    -61.4 8.553e+03 2.246e-10
 15.18514    -60.3 8.624e+03 2.268e-10
 15.22330    -59.5 8.838e+03 2.594e-10
 15.24540    -59.3 8.798e+03 2.453e-10
 15.27357    -59.0 9.148e+03 3.214e-10
 15.30929    -58.8 9.561e+03 4.309e-10
 15.33140    -58.9 9.505e+03 4.213e-10
 15.35084    -58.7 9.743e+03 5.050e-10
 15.36315    -58.5 9.964e+03 5.454e-10
 15.37420    -58.6 9.918e+03 5.270e-10
 15.39496    -58.8 1.012e+04 5.757e-10
 15.40614    -59.0 1.024e+04 6.050e-10
 15.41720    -59.1 1.016e+04 5.727e-10
 15.43809    -59.4 1.019e+04 5.860e-10
 15.44914    -59.6 1.010e+04 5.437e-10
 15.46128    -59.7 1.013e+04 5.503e-10
 15.48108    -60.1 1.033e+04 5.928e-10
 15.50329    -60.4 1.030e+04 5.537e-10
 15.52418    -60.8 1.027e+04 5.245e-10
 15.53513    -61.1 1.027e+04 5.235e-10
 15.54970    -61.1 1.022e+04 5.128e-10
 15.56708    -61.3 1.001e+04 4.543e-10
 15.57813    -61.7 9.975e+03 4.486e-10
 15.59392    -61.8 1.000e+04 4.454e-10
 15.61007    -62.4 9.988e+03 4.391e-10
 15.62113    -62.2 9.888e+03 4.201e-10
 15.63813    -62.5 9.734e+03 4.010e-10
 15.65307    -62.6 9.525e+03 3.768e-10
 15.67527    -62.7 9.482e+03 3.601e-10
 15.69555    -63.0 9.263e+03 2.940e-10
 15.71766    -62.5 9.237e+03 2.936e-10
 15.73926    -62.9 9.030e+03 2.316e-10
 15.76136    -62.8 8.855e+03 2.192e-10
 15.80315    -63.2 8.805e+03 2.046e-10
 15.82525    -62.9 8.752e+03 2.111e-10
 15.84834    -64.1 9.054e+03 2.891e-10
 15.88914    -66.8 1.032e+04 4.619e-10
 15.91115    -69.3 1.038e+04 7.923e-10
 15.92552    -73.6 1.472e+04 1.641e-09
 15.94299    -80.7 2.076e+04 3.460e-09
 15.95405    -88.8 2.273e+04 6.468e-09
 15.96415    -91.7 2.562e+04 7.680e-09
 15.96992    -97.7 3.083e+04 1.200e-08
 15.97545   -103.4 2.952e+04 1.438e-08
 15.98589   -111.0 3.040e+04 2.279e-08
 15.99142   -115.5 2.756e+04 2.404e-08
 15.99726   -120.2 2.619e+04 3.351e-08
 16.00739   -124.2 2.342e+04 4.859e-08
 16.01292   -124.5 2.223e+04 3.554e-08
 16.01930   -126.0 2.135e+04 4.356e-08
 16.02482   -124.3 2.286e+04 3.448e-08
 16.02889   -125.7 2.174e+04 4.740e-08
 16.03442   -125.1 2.097e+04 2.842e-08
 16.04148   -125.7 2.071e+04 3.122e-08
 16.05039   -126.0 2.045e+04 3.384e-08
 16.05591   -125.8 2.013e+04 2.064e-08
 16.06358   -125.8 1.993e+04 2.169e-08
 16.07189   -125.4 1.985e+04 2.271e-08
 16.07741   -125.3 1.941e+04 1.458e-08
 16.08569   -124.9 1.950e+04 1.489e-08
 16.09339   -124.5 1.975e+04 1.506e-08
 16.09891   -124.9 1.888e+04 9.954e-09
 16.10780   -124.8 1.897e+04 9.736e-09
 16.11488   -124.8 1.882e+04 9.324e-09
 16.12041   -125.3 1.741e+04 6.366e-09
 16.12990   -125.3 1.716e+04 6.165e-09
 16.13638   -125.3 1.690e+04 6.000e-09
 16.14191   -125.3 1.602e+04 4.720e-09
 16.15201   -125.2 1.601e+04 4.847e-09
 16.15793   -124.5 1.632e+04 5.479e-09
 16.16903   -124.1 1.501e+04 3.535e-09
 16.18992   -123.0 1.510e+04 3.711e-09
 16.20097   -123.2 1.387e+04 2.431e-09
 16.21290   -121.9 1.398e+04 2.597e-09
 16.23292   -120.6 1.420e+04 2.850e-09
 16.24397   -121.1 1.343e+04 2.091e-09
 16.25711   -119.8 1.409e+04 2.470e-09
 16.27592   -119.0 1.527e+04 3.215e-09
 16.28697   -119.9 1.524e+04 3.006e-09
 16.30133   -119.6 1.702e+04 4.380e-09
 16.31891   -119.5 1.956e+04 6.918e-09
 16.32997   -120.2 1.860e+04 6.856e-09
 16.34343   -119.8 2.058e+04 1.084e-08
 16.35449   -120.2 1.992e+04 1.432e-08
 16.36186   -119.8 2.092e+04 1.750e-08
 16.37291   -120.6 2.078e+04 1.766e-08
 16.38336   -120.0 2.169e+04 2.174e-08
 16.38884   -120.7 2.168e+04 2.164e-08
 16.39518   -120.5 2.191e+04 2.396e-08
 16.40481   -120.5 2.235e+04 2.682e-08
 16.41033   -121.5 2.243e+04 2.641e-08
 16.41729   -122.8 2.418e+04 2.954e-08
 16.42631   -126.8 2.860e+04 3.662e-08
 16.43183   -130.1 3.006e+04 3.702e-08
 16.43940   -136.2 3.348e+04 4.731e-08
 16.44780   -143.0 3.346e+04 6.122e-08
 16.45333   -145.1 3.046e+04 6.163e-08
 16.46150   -151.7 2.900e+04 6.612e-08
 16.46930   -157.8 2.683e+04 6.641e-08
 16.47483   -157.8 2.578e+04 6.498e-08
 16.48361   -162.4 2.471e+04 5.939e-08
 16.49080   -166.4 2.365e+04 5.109e-08
 16.49633   -165.6 2.360e+04 4.864e-08
 16.50572   -168.7 2.252e+04 3.868e-08
 16.51230   -170.9 2.162e+04 2.937e-08
 16.51783   -170.1 2.163e+04 2.979e-08
 16.52782   -172.0 2.093e+04 2.269e-08
 16.53380   -173.5 2.034e+04 1.649e-08
 16.53932   -172.9 2.021e+04 1.777e-08
 16.54977   -174.0 1.959e+04 1.285e-08
 16.55530   -173.3 1.949e+04 1.404e-08
 16.56098   -174.0 1.888e+04 1.016e-08
 16.57127   -174.8 1.817e+04 6.885e-09
 16.57680   -173.9 1.837e+04 8.128e-09
 16.58309   -174.6 1.752e+04 5.610e-09
 16.59277   -174.9 1.665e+04 4.231e-09
 16.59829   -174.2 1.710e+04 4.861e-09
 16.60879   -174.7 1.623e+04 3.578e-09
 16.61989   -173.4 1.729e+04 4.953e-09
 16.63293   -173.5 1.657e+04 3.239e-09
 16.65183   -173.5 1.464e+04 1.659e-09
 16.66289   -172.9 1.815e+04 3.343e-09
 16.67714   -173.3 1.629e+04 1.518e-09
 16.69483   -174.6 1.481e+04 1.178e-09
 16.70588   -178.3 2.412e+04 6.035e-09
 16.71578   -181.0 2.564e+04 3.587e-09
 16.72176   -185.6 2.659e+04 4.613e-09
 16.72728   -187.9 2.754e+04 1.336e-08
 16.73773   -192.8 2.699e+04 2.363e-08
 16.74326   -194.7 2.638e+04 6.359e-08
 16.74889   -197.8 2.543e+04 8.738e-08
 16.75923   -200.1 2.481e+04 9.909e-08
 16.76475   -202.2 2.466e+04 1.307e-07
 16.77099   -203.3 2.393e+04 1.180e-07
 16.78073   -203.6 2.363e+04 9.675e-08
 16.78625   -205.4 2.336e+04 8.703e-08
 16.79310   -205.4 2.314e+04 5.962e-08
 16.80222   -205.5 2.281e+04 4.011e-08
 16.80775   -207.9 2.172e+04 2.264e-08
 16.81521   -208.8 2.091e+04 1.529e-08
 16.82372   -209.8 1.970e+04 1.053e-08
 16.82925   -212.7 1.767e+04 7.253e-09
 16.83731   -213.2 1.660e+04 5.798e-09
 16.84522   -213.4 1.586e+04 4.896e-09
 16.85075   -214.3 1.542e+04 4.598e-09
 16.85942   -214.0 1.528e+04 4.334e-09
 16.86677   -213.7 1.472e+04 3.624e-09
 16.87787   -215.0 1.437e+04 3.510e-09
 16.89821   -214.1 1.360e+04 2.660e-09
 16.90981   -213.3 1.281e+04 2.065e-09
 16.92087   -213.8 1.306e+04 2.381e-09
 16.94176   -212.7 1.246e+04 1.915e-09
 16.95281   -212.9 1.257e+04 2.024e-09
 16.96452   -212.0 1.198e+04 1.591e-09
 16.98475   -211.2 1.145e+04 1.261e-09
 16.99581   -211.4 1.144e+04 1.259e-09
 17.00256   -210.8 1.100e+04 1.010e-09
 17.01362   -210.7 1.078e+04 8.866e-10
 17.02775   -210.2 1.046e+04 7.458e-10
 17.03880   -210.3 1.040e+04 7.277e-10
 17.05295   -209.8 1.019e+04 6.504e-10
 17.07075   -209.1 1.011e+04 6.253e-10
 17.08180   -209.1 1.006e+04 5.990e-10
 17.09716   -208.4 1.006e+04 5.939e-10
 17.11374   -208.2 1.022e+04 6.203e-10
 17.12480   -208.1 1.022e+04 6.048e-10
 17.14138   -208.0 1.050e+04 6.984e-10
 17.15674   -208.0 1.097e+04 9.046e-10
 17.16779   -207.7 1.095e+04 8.354e-10
 17.18559   -207.6 1.146e+04 1.100e-09
 17.19974   -207.5 1.209e+04 1.497e-09
 17.21079   -207.1 1.184e+04 1.272e-09
 17.22980   -206.9 1.238e+04 1.608e-09
 17.24274   -206.6 1.290e+04 2.020e-09
 17.25379   -206.4 1.245e+04 1.608e-09
 17.27402   -206.1 1.282e+04 1.912e-09
 17.28573   -205.8 1.321e+04 2.297e-09
 17.29679   -205.8 1.268e+04 1.823e-09
 17.31768   -205.4 1.301e+04 2.151e-09
 17.32873   -205.5 1.257e+04 1.807e-09
 17.34034   -204.9 1.284e+04 2.077e-09
 17.36067   -204.3 1.311e+04 2.350e-09
 17.37173   -204.3 1.259e+04 1.964e-09
 17.38455   -203.6 1.276e+04 2.100e-09
 17.40367   -202.9 1.289e+04 2.189e-09
 17.41472   -202.7 1.235e+04 1.813e-09
 17.42876   -202.0 1.243e+04 1.844e-09
 17.44667   -201.3 1.252e+04 1.881e-09
 17.45772   -201.3 1.210e+04 1.626e-09
 17.47298   -200.6 1.227e+04 1.708e-09
 17.48966   -200.1 1.257e+04 1.902e-09
 17.50072   -200.3 1.228e+04 1.707e-09
 17.51719   -199.9 1.272e+04 2.026e-09
 17.53266   -199.5 1.324e+04 2.510e-09
 17.54371   -200.1 1.294e+04 2.182e-09
 17.56140   -199.6 1.350e+04 2.733e-09
 17.57566   -199.1 1.419e+04 3.518e-09
 17.58671   -200.1 1.359e+04 2.628e-09
 17.60562   -199.7 1.430e+04 3.305e-09
 17.61865   -199.5 1.526e+04 4.391e-09
 17.62971   -201.3 1.410e+04 2.641e-09
 17.64983   -201.8 1.534e+04 3.608e-09
 17.66165   -202.5 1.684e+04 5.516e-09
 17.67270   -204.6 1.685e+04 4.767e-09
 17.69359   -205.3 1.834e+04 7.885e-09
 17.70465   -208.2 1.673e+04 4.487e-09
 17.71615   -208.2 1.821e+04 7.343e-09
 17.73659   -208.2 1.920e+04 1.050e-08
 17.74764   -209.8 1.757e+04 5.897e-09
 17.76036   -209.7 1.847e+04 7.348e-09
 17.77689   -209.9 1.748e+04 5.859e-09
 17.78502   -210.2 1.802e+04 6.537e-09
 17.79054   -210.8 1.675e+04 4.989e-09
 17.79895   -210.9 1.735e+04 5.702e-09
 17.80651   -211.2 1.807e+04 6.778e-09
 17.81204   -211.8 1.674e+04 5.048e-09
 17.82106   -212.2 1.742e+04 6.048e-09
 17.82801   -212.4 1.801e+04 7.550e-09
 17.83354   -212.8 1.692e+04 5.503e-09
 17.84316   -212.8 1.775e+04 7.344e-09
 17.84951   -212.5 1.853e+04 9.960e-09
 17.85504   -213.2 1.768e+04 7.207e-09
 17.86527   -213.0 1.855e+04 1.021e-08
 17.87101   -212.6 1.927e+04 1.404e-08
 17.87654   -213.6 1.840e+04 9.922e-09
 17.88698   -213.2 1.914e+04 1.382e-08
 17.89251   -214.1 1.814e+04 9.134e-09
 17.89843   -213.8 1.888e+04 1.264e-08
 17.90848   -213.6 1.947e+04 1.646e-08
 17.91401   -214.3 1.856e+04 1.114e-08
 17.92054   -214.1 1.914e+04 1.426e-08
 17.93717   -214.4 1.924e+04 1.480e-08
 17.95157   -214.5 1.945e+04 1.669e-08
 17.96263   -215.4 1.739e+04 8.072e-09
 17.98143   -215.1 1.764e+04 1.005e-08
 17.99457   -214.2 1.776e+04 1.119e-08
 18.00562   -214.8 1.603e+04 6.389e-09
 18.02564   -213.9 1.621e+04 7.313e-09
 18.03757   -213.0 1.624e+04 7.450e-09
 18.04862   -213.3 1.512e+04 5.431e-09
 18.06951   -212.3 1.528e+04 5.794e-09
 18.08056   -212.3 1.448e+04 4.509e-09
 18.09196   -211.4 1.463e+04 4.771e-09
 18.11251   -210.5 1.459e+04 4.279e-09
 18.12356   -210.3 1.409e+04 3.938e-09
 18.13617   -209.4 1.399e+04 3.291e-09
 18.15551   -208.4 1.331e+04 2.462e-09
 18.16656   -208.2 1.328e+04 2.493e-09
 18.18039   -207.3 1.268e+04 1.823e-09
 18.19850   -206.5 1.214e+04 1.293e-09
 18.20956   -206.1 1.211e+04 1.359e-09
 18.22460   -205.2 1.162e+04 9.546e-10
 18.24150   -204.2 1.114e+04 6.628e-10
 18.25255   -203.6 1.112e+04 6.817e-10
 18.26881   -202.3 1.070e+04 4.717e-10
 18.28450   -200.9 1.040e+04 3.602e-10
 18.29555   -200.4 1.045e+04 3.650e-10
 18.30987   -199.5 1.035e+04 3.204e-10
 18.32443   -199.5 1.024e+04 2.936e-10
 18.33874   -199.4 1.027e+04 2.774e-10
 18.36849   -197.5 9.966e+03 2.178e-10
 18.40263   -195.0 9.723e+03 1.843e-10
 18.42473   -194.4 9.664e+03 1.615e-10
 18.45691   -192.1 9.598e+03 1.512e-10
 18.48862   -189.7 9.589e+03 1.498e-10
 18.51073   -189.1 9.588e+03 1.353e-10
 18.54534   -187.1 9.694e+03 1.429e-10
 18.57462   -185.3 9.940e+03 1.850e-10
 18.59672   -184.6 9.855e+03 1.568e-10
 18.63377   -182.9 9.974e+03 2.111e-10
 18.66061   -181.4 1.011e+04 2.858e-10
 18.68272   -180.7 9.973e+03 2.505e-10
 18.72219   -179.4 1.014e+04 3.381e-10
 18.74660   -178.3 1.026e+04 4.275e-10
 18.76871   -178.0 1.030e+04 4.367e-10
 18.78950   -177.2 1.045e+04 5.454e-10
 18.80046   -177.2 1.048e+04 5.573e-10
 18.82135   -177.0 1.050e+04 5.970e-10
 18.83240   -176.9 1.052e+04 6.207e-10
 18.84358   -176.6 1.054e+04 6.369e-10
 18.86434   -176.5 1.053e+04 6.286e-10
 18.87540   -176.5 1.056e+04 6.658e-10
 18.88780   -176.2 1.043e+04 6.042e-10
 18.90734   -176.0 1.022e+04 5.092e-10
 18.91839   -175.9 1.019e+04 5.190e-10
 18.94316   -175.6 9.842e+03 3.895e-10
 18.98248   -175.5 9.598e+03 3.350e-10
 19.00458   -175.6 9.505e+03 3.194e-10
 19.03168   -175.3 9.294e+03 2.936e-10
 19.06847   -174.6 9.245e+03 2.929e-10
 19.09058   -174.5 9.200e+03 2.837e-10
 19.12011   -173.8 9.206e+03 3.241e-10
 19.15446   -173.0 9.290e+03 3.828e-10
 19.17657   -172.8 9.292e+03 3.818e-10
 19.20854   -171.9 9.382e+03 4.302e-10
 19.24046   -171.1 9.402e+03 4.474e-10
 19.26256   -170.8 9.553e+03 4.890e-10
 19.29696   -170.1 9.548e+03 4.939e-10
 19.32645   -169.3 9.374e+03 4.566e-10
 19.34856   -169.0 9.679e+03 5.413e-10
 19.38539   -168.4 9.486e+03 4.822e-10
 19.41245   -168.1 9.296e+03 4.266e-10
 19.43455   -168.1 9.539e+03 4.966e-10
 19.47382   -168.0 9.302e+03 4.315e-10
 19.49844   -168.0 9.059e+03 3.833e-10
 19.52055   -168.2 9.054e+03 3.813e-10
 19.56224   -168.0 8.753e+03 3.230e-10
 19.60612   -167.4 8.283e+03 2.326e-10
 19.62822   -166.7 8.709e+03 3.187e-10
 19.64832   -165.9 8.269e+03 2.339e-10
 19.67043   -165.7 8.212e+03 2.212e-10
 19.69488   -164.8 7.866e+03 1.712e-10
 19.73431   -163.6 7.743e+03 1.570e-10
 19.75642   -163.3 7.745e+03 1.553e-10
 19.78331   -162.0 7.728e+03 1.543e-10
 19.82031   -161.0 7.837e+03 1.767e-10
 19.84241   -161.2 7.920e+03 1.807e-10
 19.87173   -160.7 8.378e+03 2.551e-10
 19.90630   -160.1 8.830e+03 3.543e-10
 19.92841   -160.9 9.292e+03 4.557e-10
 19.96016   -160.5 9.793e+03 6.150e-10
 19.99229   -160.2 1.022e+04 7.697e-10
 20.01440   -161.5 1.055e+04 9.184e-10
 20.04859   -161.6 1.076e+04 1.014e-09
 20.07829   -161.8 1.081e+04 1.035e-09
 20.10039   -163.2 1.083e+04 1.055e-09
 20.13701   -163.3 1.062e+04 9.238e-10
 20.16428   -163.6 1.020e+04 7.177e-10
 20.18639   -164.3 1.010e+04 6.993e-10
 20.22544   -164.7 9.793e+03 5.702e-10
 20.25027   -165.2 9.594e+03 5.151e-10
 20.27238   -165.4 9.526e+03 4.813e-10
 20.31387   -165.5 9.399e+03 4.508e-10
 20.33627   -165.5 9.325e+03 4.311e-10
 20.35837   -165.2 9.129e+03 3.528e-10
 20.40016   -164.8 9.050e+03 3.279e-10
 20.42226   -164.4 8.860e+03 2.580e-10
 20.44650   -163.8 8.822e+03 2.374e-10
 20.48615   -162.9 8.808e+03 2.237e-10
 20.50826   -162.3 8.649e+03 1.732e-10
 20.53493   -161.2 8.652e+03 1.704e-10
 20.57214   -160.0 8.679e+03 1.723e-10
 20.59425   -159.2 8.538e+03 1.322e-10
 20.62336   -157.8 8.575e+03 1.396e-10
 20.65814   -156.2 8.580e+03 1.508e-10
 20.68024   -155.3 8.477e+03 1.144e-10
 20.71178   -153.6 8.490e+03 1.245e-10
 20.74413   -151.7 8.508e+03 1.326e-10
 20.76624   -150.8 8.497e+03 1.076e-10
 20.80021   -149.0 8.574e+03 1.200e-10
 20.83012   -147.1 8.657e+03 1.300e-10
 20.85223   -146.6 8.774e+03 1.260e-10
 20.88864   -144.8 8.883e+03 1.420e-10
 20.91612   -143.1 9.004e+03 1.503e-10
 20.92975   -142.8 9.172e+03 1.720e-10
 20.94648   -142.7 9.352e+03 2.254e-10
 20.97706   -141.3 9.492e+03 2.463e-10
 21.00211   -140.3 9.683e+03 2.780e-10
 21.02422   -140.3 9.935e+03 3.420e-10
 21.06549   -139.8 1.038e+04 4.841e-10
 21.08810   -139.5 1.100e+04 7.418e-10
 21.11021   -139.4 1.123e+04 8.567e-10
 21.15199   -139.3 1.167e+04 1.108e-09
 21.17410   -139.2 1.170e+04 1.070e-09
 21.19813   -138.9 1.179e+04 1.106e-09
 21.23119   -138.2 1.175e+04 1.019e-09
 21.24884   -137.6 1.171e+04 1.009e-09
 21.25990   -137.7 1.162e+04 8.703e-10
 21.27531   -137.1 1.168e+04 8.693e-10
 21.29184   -136.8 1.194e+04 9.492e-10
 21.30289   -137.0 1.185e+04 8.478e-10
 21.31952   -137.0 1.221e+04 1.077e-09
 21.33484   -137.3 1.284e+04 1.491e-09
 21.34589   -137.2 1.269e+04 1.322e-09
 21.36373   -137.8 1.371e+04 2.058e-09
 21.37783   -138.5 1.486e+04 3.417e-09
 21.38889   -138.6 1.469e+04 2.920e-09
 21.40795   -139.0 1.563e+04 4.848e-09
 21.42083   -138.8 1.632e+04 7.089e-09
 21.43188   -139.1 1.604e+04 6.725e-09
 21.45216   -138.2 1.649e+04 8.422e-09
 21.46383   -137.6 1.646e+04 8.893e-09
 21.47488   -137.1 1.650e+04 9.887e-09
 21.49577   -136.6 1.634e+04 9.144e-09
 21.50682   -135.9 1.668e+04 1.095e-08
 21.51848   -135.3 1.599e+04 7.817e-09
 21.53877   -135.7 1.506e+04 5.098e-09
 21.54982   -135.4 1.566e+04 5.769e-09
 21.56269   -137.1 1.548e+04 4.625e-09
 21.58176   -141.0 1.685e+04 4.945e-09
 21.59133   -144.1 1.831e+04 8.346e-09
 21.59437   -143.4 1.865e+04 1.023e-08
 21.60133   -147.2 2.015e+04 1.551e-08
 21.60869   -148.5 2.091e+04 3.412e-08
 21.61422   -148.8 2.099e+04 4.016e-08
 21.62339   -149.7 2.142e+04 7.862e-08
 21.63019   -150.0 2.180e+04 1.633e-07
 21.63572   -150.7 2.148e+04 1.347e-07
 21.64549   -151.1 2.155e+04 1.831e-07
 21.65169   -152.0 2.146e+04 1.929e-07
 21.65722   -151.8 2.106e+04 1.150e-07
 21.66760   -151.1 2.078e+04 8.846e-08
 21.67319   -149.9 2.093e+04 5.545e-08
 21.67871   -149.8 2.059e+04 3.855e-08
 21.68916   -149.5 2.066e+04 2.336e-08
 21.69469   -150.2 1.999e+04 1.754e-08
 21.70076   -151.5 1.920e+04 1.027e-08
 21.71066   -153.9 1.732e+04 5.723e-09
 21.71618   -154.9 1.631e+04 4.983e-09
 21.72287   -156.0 1.533e+04 3.556e-09
 21.73949   -156.7 1.442e+04 2.294e-09
 21.75375   -157.6 1.267e+04 1.031e-09
 21.76480   -157.0 1.264e+04 1.213e-09
 21.78376   -157.4 1.202e+04 7.624e-10
 21.79675   -157.4 1.143e+04 5.899e-10
 21.80780   -156.6 1.181e+04 7.048e-10
 21.82797   -156.6 1.127e+04 5.894e-10
 21.83975   -156.3 1.099e+04 5.637e-10
 21.85080   -155.9 1.120e+04 6.016e-10
 21.87169   -155.6 1.101e+04 5.865e-10
 21.88274   -155.3 1.120e+04 6.200e-10
 21.89429   -155.1 1.109e+04 6.157e-10
 21.91469   -154.9 1.105e+04 6.514e-10
 21.92574   -154.9 1.124e+04 6.789e-10
 21.93850   -155.0 1.135e+04 7.764e-10
 21.95768   -155.3 1.152e+04 9.184e-10
 21.96874   -155.4 1.174e+04 1.050e-09
 21.98272   -155.5 1.193e+04 1.278e-09
 22.00068   -155.7 1.209e+04 1.454e-09
 22.01173   -155.4 1.235e+04 1.707e-09
 22.02693   -155.7 1.242e+04 1.775e-09
 22.04368   -156.1 1.241e+04 1.767e-09
 22.05473   -155.8 1.265e+04 2.025e-09
 22.07114   -156.2 1.244e+04 1.852e-09
 22.08667   -156.6 1.214e+04 1.622e-09
 22.09773   -156.2 1.236e+04 1.812e-09
 22.11536   -156.6 1.195e+04 1.521e-09
 22.12967   -156.7 1.149e+04 1.264e-09
 22.14072   -156.3 1.164e+04 1.339e-09
 22.15957   -156.2 1.118e+04 1.067e-09
 22.17267   -156.0 1.084e+04 8.727e-10
 22.18372   -155.5 1.086e+04 8.780e-10
 22.20378   -155.3 1.061e+04 6.971e-10
 22.21566   -155.2 1.042e+04 5.637e-10
 22.22672   -154.5 1.042e+04 5.654e-10
 22.24244   -154.7 1.031e+04 4.831e-10
 22.25311   -154.4 1.022e+04 4.813e-10
 22.25866   -153.6 1.022e+04 4.806e-10
 22.27010   -153.8 1.008e+04 4.211e-10
 22.29060   -154.0 1.002e+04 4.015e-10
 22.30166   -153.1 1.002e+04 3.908e-10
 22.31431   -153.1 1.000e+04 3.850e-10
 22.33360   -153.1 1.009e+04 4.136e-10
 22.34465   -152.1 1.005e+04 3.891e-10
 22.35853   -152.0 1.021e+04 4.553e-10
 22.37660   -151.8 1.039e+04 5.490e-10
 22.38765   -150.8 1.041e+04 5.284e-10
 22.40274   -150.6 1.065e+04 6.433e-10
 22.41959   -150.5 1.093e+04 7.597e-10
 22.43065   -149.4 1.102e+04 7.960e-10
 22.44695   -149.3 1.133e+04 9.368e-10
 22.46259   -149.5 1.152e+04 1.007e-09
 22.47364   -148.2 1.177e+04 1.168e-09
 22.49117   -148.4 1.185e+04 1.205e-09
 22.50559   -148.6 1.177e+04 1.136e-09
 22.51664   -147.2 1.223e+04 1.443e-09
 22.53538   -147.3 1.182e+04 1.142e-09
 22.54858   -147.6 1.104e+04 7.008e-10
 22.55964   -145.8 1.153e+04 1.027e-09
 22.57959   -146.4 1.030e+04 5.327e-10
 22.59168   -147.9 1.012e+04 2.557e-10
 22.60273   -143.9 8.862e+03 4.590e-10
 22.62352   -145.7 9.724e+03 2.463e-10
 22.63458   -144.5 1.167e+04 5.044e-10
 22.65557   -151.2 1.100e+04 1.773e-10
 22.67767   -155.1 1.234e+04 7.372e-10
 22.69013   -158.6 1.265e+04 8.660e-10
 22.70952   -160.4 1.280e+04 7.985e-10
 22.72057   -161.9 1.645e+04 1.929e-09
 22.73434   -162.5 1.422e+04 1.456e-09
 22.75252   -162.6 1.305e+04 1.209e-09
 22.76357   -163.8 1.408e+04 1.767e-09
 22.77855   -163.1 1.303e+04 1.413e-09
 22.79551   -162.8 1.258e+04 1.239e-09
 22.80657   -163.7 1.317e+04 1.465e-09
 22.82755   -163.0 1.260e+04 1.193e-09
 22.84966   -163.2 1.272e+04 1.337e-09
 22.87813   -162.9 1.259e+04 1.283e-09
 22.91364   -160.8 1.189e+04 9.513e-10
 22.93575   -161.6 1.235e+04 1.250e-09
 22.96665   -158.9 1.154e+04 8.517e-10
 22.99964   -156.7 1.105e+04 5.857e-10
 23.02174   -156.9 1.129e+04 7.695e-10
 23.05508   -154.7 1.102e+04 5.700e-10
 23.08563   -152.8 1.080e+04 4.299e-10
 23.10774   -152.5 1.105e+04 5.774e-10
 23.14351   -150.7 1.085e+04 4.572e-10
 23.17163   -149.2 1.069e+04 3.794e-10
 23.19373   -148.9 1.090e+04 4.984e-10
 23.23193   -147.5 1.080e+04 4.539e-10
 23.25762   -146.2 1.075e+04 4.421e-10
 23.27973   -145.7 1.094e+04 5.480e-10
 23.32036   -144.5 1.093e+04 5.412e-10
 23.34361   -143.2 1.090e+04 5.360e-10
 23.36572   -142.7 1.107e+04 5.868e-10
 23.40750   -141.5 1.109e+04 5.725e-10
 23.42961   -141.2 1.113e+04 5.827e-10
 23.45300   -140.1 1.120e+04 5.882e-10
 23.49349   -139.0 1.129e+04 6.297e-10
 23.51560   -138.4 1.129e+04 6.224e-10
 23.53879   -137.2 1.133e+04 6.611e-10
 23.56090   -136.9 1.099e+04 5.236e-10
 23.57949   -135.6 1.097e+04 5.119e-10
 23.60159   -134.7 1.093e+04 5.051e-10
 23.62985   -133.0 1.086e+04 4.751e-10
 23.66548   -131.2 1.071e+04 4.025e-10
 23.68759   -130.1 1.076e+04 4.355e-10
 23.71828   -128.2 1.059e+04 3.443e-10
 23.75147   -126.2 1.039e+04 2.391e-10
 23.77358   -125.1 1.055e+04 2.928e-10
 23.80670   -123.2 1.036e+04 1.999e-10
 23.83747   -121.4 1.016e+04 1.396e-10
 23.85957   -120.3 1.039e+04 1.858e-10
 23.89513   -118.3 1.022e+04 1.435e-10
 23.92346   -116.2 1.008e+04 1.177e-10
 23.94557   -115.2 1.037e+04 1.811e-10
 23.98356   -113.0 1.029e+04 1.544e-10
 24.00946   -110.8 1.017e+04 1.270e-10
 24.03156   -109.8 1.046e+04 2.116e-10
 24.07198   -107.7 1.032e+04 1.643e-10
 24.09545   -105.7 1.016e+04 1.338e-10
 24.11756   -104.7 1.039e+04 1.894e-10
 24.15934   -102.8 1.026e+04 1.562e-10
 24.18144   -101.9 1.043e+04 1.960e-10
 24.20462   -100.1 1.038e+04 1.682e-10
 24.24533    -98.4 1.049e+04 1.536e-10
 24.26744    -97.6 1.051e+04 1.775e-10
 24.29305    -95.9 1.059e+04 1.745e-10
 24.33132    -94.2 1.049e+04 1.813e-10
 24.35343    -93.0 1.048e+04 1.926e-10
 24.38147    -91.2 1.031e+04 1.873e-10
 24.41732    -89.5 1.017e+04 1.719e-10
 24.43942    -88.3 1.021e+04 1.687e-10
 24.46990    -87.0 1.026e+04 1.540e-10
 24.50331    -85.7 1.020e+04 1.545e-10
 24.52542    -84.5 1.021e+04 1.553e-10
 24.55833    -83.0 1.006e+04 1.492e-10
 24.58930    -81.4 9.931e+03 1.264e-10
 24.61141    -80.1 9.965e+03 1.193e-10
 24.64675    -78.8 9.899e+03 9.259e-11
 24.67530    -77.4 9.839e+03 7.174e-11
 24.69740    -76.3 9.820e+03 6.906e-11
 24.73518    -74.7 9.825e+03 5.465e-11
 24.76129    -73.0 9.855e+03 4.378e-11
 24.78340    -71.8 9.852e+03 4.303e-11
 24.82361    -70.2 9.929e+03 3.563e-11
 24.84728    -68.7 9.926e+03 3.154e-11
 24.85862    -67.3 9.947e+03 3.042e-11
 24.87916    -67.6 9.909e+03 3.280e-11
 24.91117    -65.9 9.887e+03 3.383e-11
 24.93328    -64.5 9.916e+03 3.290e-11
 24.95624    -62.6 9.886e+03 3.490e-11
 24.99717    -60.6 9.940e+03 3.574e-11
 25.01927    -59.1 9.961e+03 3.495e-11
 25.04467    -57.2 1.001e+04 3.470e-11
 25.08316    -55.3 1.011e+04 3.368e-11
 25.10527    -53.8 1.012e+04 3.367e-11
 25.13310    -51.9 1.019e+04 3.333e-11
 25.16915    -50.0 1.028e+04 3.360e-11
 25.19126    -48.5 1.031e+04 3.446e-11
 25.22152    -46.8 1.040e+04 3.698e-11
 25.25515    -45.1 1.049e+04 4.248e-11
 25.27725    -43.7 1.049e+04 4.772e-11
 25.30995    -42.2 1.062e+04 6.374e-11
 25.34114    -40.5 1.074e+04 9.271e-11
 25.36325    -39.0 1.079e+04 1.142e-10
 25.39838    -37.3 1.104e+04 1.654e-10
 25.42713    -36.0 1.136e+04 2.352e-10
 25.44924    -34.3 1.140e+04 2.526e-10
 25.48680    -33.5 1.159e+04 3.378e-10
 25.51313    -33.1 1.178e+04 4.920e-10
 25.53523    -31.3 1.179e+04 4.896e-10
 25.57523    -31.1 1.212e+04 6.409e-10
 25.59912    -31.5 1.221e+04 6.387e-10
 25.62123    -30.3 1.229e+04 6.438e-10
 25.66301    -30.5 1.216e+04 5.246e-10
 25.68511    -29.9 1.222e+04 5.309e-10
 25.70787    -30.6 1.224e+04 3.364e-10
 25.74900    -31.4 1.204e+04 2.703e-10
 25.77101    -33.4 1.315e+04 2.829e-10
 25.78505    -33.1 1.328e+04 3.162e-10
 25.80286    -32.6 1.299e+04 3.208e-10
 25.81391    -33.1 1.452e+04 6.175e-10
 25.83490    -31.1 1.322e+04 4.985e-10
 25.85700    -32.4 1.433e+04 1.638e-09
 25.87347    -31.6 1.395e+04 1.714e-09
 25.88885    -30.9 1.374e+04 2.005e-09
 25.89990    -31.0 1.540e+04 4.200e-09
 25.91768    -30.0 1.512e+04 4.233e-09
 25.93185    -29.0 1.503e+04 4.421e-09
 25.94290    -28.8 1.649e+04 7.188e-09
 25.96190    -28.1 1.626e+04 6.487e-09
 25.97484    -27.6 1.602e+04 5.896e-09
 25.98590    -27.9 1.716e+04 7.688e-09
 26.00611    -27.6 1.670e+04 6.214e-09
 26.01784    -27.3 1.626e+04 4.804e-09
 26.02889    -28.1 1.659e+04 4.788e-09
 26.04978    -28.0 1.586e+04 3.284e-09
 26.06084    -29.2 1.567e+04 2.901e-09
 26.07243    -29.4 1.465e+04 1.852e-09
 26.09278    -29.3 1.372e+04 1.261e-09
 26.10383    -30.7 1.319e+04 1.085e-09
 26.11664    -30.9 1.280e+04 9.324e-10
 26.13578    -30.2 1.223e+04 7.200e-10
 26.14683    -31.1 1.211e+04 7.044e-10
 26.16086    -30.8 1.205e+04 6.625e-10
 26.17521    -29.1 1.206e+04 6.726e-10
 26.18217    -29.5 1.165e+04 4.628e-10
 26.20108    -30.8 1.185e+04 6.341e-10
 26.23843    -29.3 1.158e+04 5.388e-10
 26.26496    -27.5 1.136e+04 4.600e-10
 26.28707    -28.4 1.141e+04 5.822e-10
 26.30786    -26.9 1.115e+04 4.753e-10
 26.31882    -27.2 1.110e+04 4.910e-10
 26.33771    -26.8 1.102e+04 4.414e-10
 26.35086    -25.9 1.090e+04 3.700e-10
 26.37306    -26.4 1.079e+04 3.846e-10
 26.41484    -24.3 1.052e+04 3.061e-10
 26.43695    -24.4 1.045e+04 3.192e-10
 26.45949    -22.1 1.024e+04 2.377e-10
 26.50084    -20.0 1.008e+04 1.707e-10
 26.52294    -19.4 1.011e+04 1.921e-10
 26.54792    -17.3 1.003e+04 1.368e-10
 26.58683    -15.3 9.872e+03 1.181e-10
 26.60894    -14.3 1.007e+04 1.395e-10
 26.63634    -12.2 9.966e+03 1.302e-10
 26.67282    -10.1 9.925e+03 1.364e-10
 26.69493     -9.1 1.013e+04 1.777e-10
 26.72477     -7.0 1.014e+04 1.871e-10
 26.75882     -5.0 1.028e+04 2.355e-10
 26.78093     -4.1 1.051e+04 2.905e-10
 26.81320     -2.3 1.071e+04 3.573e-10
 26.84481     -0.7 1.094e+04 4.624e-10
 26.86692      0.2 1.096e+04 5.019e-10
 26.90162      1.8 1.123e+04 6.535e-10
 26.93081      3.3 1.165e+04 8.688e-10
 26.95291      4.2 1.183e+04 1.003e-09
 26.99005      5.6 1.254e+04 1.375e-09
 27.01670      5.2 1.311e+04 1.665e-09
 27.02766      5.1 1.345e+04 1.885e-09
 27.04512      3.7 1.417e+04 2.481e-09
 27.05960      2.2 1.482e+04 3.593e-09
 27.07065      1.7 1.492e+04 4.208e-09
 27.08933      1.5 1.526e+04 5.508e-09
 27.10260      1.5 1.566e+04 6.648e-09
 27.11365      1.2 1.532e+04 5.767e-09
 27.13355      0.8 1.533e+04 5.495e-09
 27.14559      0.4 1.525e+04 4.748e-09
 27.15665     -0.7 1.466e+04 3.500e-09
 27.17754     -1.8 1.428e+04 2.797e-09
 27.18859     -3.1 1.356e+04 2.115e-09
 27.19987     -3.5 1.320e+04 1.837e-09
 27.22053     -3.7 1.302e+04 1.720e-09
 27.23159     -4.1 1.279e+04 1.605e-09
 27.25258     -3.1 1.286e+04 1.610e-09
 27.27478     -3.7 1.247e+04 1.520e-09
 27.29954     -2.9 1.251e+04 1.529e-09
 27.33260     -2.6 1.261e+04 1.569e-09
 27.34953     -2.6 1.263e+04 1.603e-09
 27.36068     -3.2 1.247e+04 1.557e-09
 27.38797     -2.6 1.268e+04 1.620e-09
 27.42466     -1.9 1.285e+04 1.654e-09
 27.44677     -3.0 1.243e+04 1.560e-09
 27.46524     -2.7 1.259e+04 1.618e-09
 27.47852     -2.7 1.264e+04 1.639e-09
 27.48464     -3.1 1.262e+04 1.633e-09
 27.49337     -4.6 1.261e+04 1.709e-09
 27.50936     -4.1 1.270e+04 1.702e-09
 27.52151     -3.9 1.277e+04 1.705e-09
 27.53257     -4.3 1.277e+04 1.710e-09
 27.55346     -4.1 1.279e+04 1.711e-09
 27.56451     -4.6 1.273e+04 1.704e-09
 27.57568     -4.4 1.272e+04 1.677e-09
 27.59645     -4.0 1.274e+04 1.660e-09
 27.60751     -4.5 1.259e+04 1.580e-09
 27.61989     -4.2 1.260e+04 1.534e-09
 27.63945     -4.0 1.262e+04 1.499e-09
 27.65050     -4.5 1.236e+04 1.345e-09
 27.66410     -4.1 1.236e+04 1.294e-09
 27.68245     -3.8 1.236e+04 1.252e-09
 27.69350     -4.0 1.208e+04 1.116e-09
 27.70832     -3.6 1.205e+04 1.077e-09
 27.72544     -3.1 1.204e+04 1.048e-09
 27.73650     -3.1 1.185e+04 9.538e-10
 27.75253     -2.7 1.188e+04 9.286e-10
 27.76844     -2.3 1.190e+04 9.136e-10
 27.77949     -2.3 1.179e+04 8.596e-10
 27.79674     -1.9 1.183e+04 8.721e-10
 27.81144     -1.4 1.185e+04 8.826e-10
 27.82249     -1.3 1.182e+04 8.531e-10
 27.84096     -0.7 1.185e+04 8.547e-10
 27.85443     -0.1 1.187e+04 8.407e-10
 27.86549      0.0 1.188e+04 8.227e-10
 27.88517      0.4 1.194e+04 7.981e-10
 27.91842      0.9 1.231e+04 9.172e-10
 27.96273      1.9 1.290e+04 1.094e-09
 28.00451      1.9 1.367e+04 1.374e-09
 28.02652      1.8 1.376e+04 1.624e-09
 28.03992      1.6 1.409e+04 1.995e-09
 28.05836      1.6 1.444e+04 2.478e-09
 28.06942      1.4 1.513e+04 3.873e-09
 28.08413      1.4 1.518e+04 4.379e-09
 28.10136      1.6 1.506e+04 4.523e-09
 28.11241      1.5 1.577e+04 6.126e-09
 28.12834      1.7 1.548e+04 5.324e-09
 28.14145      1.7 1.515e+04 4.384e-09
 28.14641      0.1 1.532e+04 4.303e-09
 28.15541     -0.7 1.557e+04 4.263e-09
 28.17255     -1.3 1.504e+04 3.192e-09
 28.18735     -2.0 1.454e+04 2.599e-09
 28.19841     -3.5 1.426e+04 2.200e-09
 28.21677     -2.8 1.397e+04 2.112e-09
 28.23035     -2.3 1.371e+04 1.949e-09
 28.24141     -3.6 1.341e+04 1.751e-09
 28.26239     -0.5 1.350e+04 1.753e-09
 28.28460     -3.0 1.270e+04 1.304e-09
 28.31644     -0.8 1.259e+04 1.142e-09
 28.34839      0.1 1.262e+04 1.009e-09
 28.37049     -0.6 1.230e+04 8.737e-10
 28.39138      0.5 1.234e+04 8.675e-10
 28.40234     -0.0 1.226e+04 8.413e-10
 28.41573      0.4 1.220e+04 8.439e-10
 28.43428      1.0 1.220e+04 8.673e-10
 28.44534      0.6 1.220e+04 8.565e-10
 28.45994      1.4 1.231e+04 9.033e-10
 28.47728      2.1 1.246e+04 9.611e-10
 28.48833      1.6 1.247e+04 9.360e-10
 28.50415      2.2 1.254e+04 9.766e-10
 28.52028      2.7 1.255e+04 1.006e-09
 28.53133      2.1 1.236e+04 9.166e-10
 28.54837      2.5 1.230e+04 9.069e-10
 28.56327      2.9 1.224e+04 8.948e-10
 28.57433      2.3 1.203e+04 8.091e-10
 28.59258      2.6 1.201e+04 8.061e-10
 28.60627      3.0 1.200e+04 8.080e-10
 28.61732      2.5 1.184e+04 7.530e-10
 28.63679      2.8 1.184e+04 7.598e-10
 28.64927      3.2 1.184e+04 7.658e-10
 28.66032      2.6 1.170e+04 7.107e-10
 28.68101      3.0 1.168e+04 7.030e-10
 28.69226      3.3 1.165e+04 6.846e-10
 28.70332      2.8 1.146e+04 6.098e-10
 28.72421      3.1 1.140e+04 5.866e-10
 28.73526      2.7 1.122e+04 5.278e-10
 28.74733      3.4 1.115e+04 4.959e-10
 28.76720      3.5 1.111e+04 4.768e-10
 28.77826      3.5 1.095e+04 4.355e-10
 28.78962      5.1 1.091e+04 4.246e-10
 28.81183      4.3 1.067e+04 3.338e-10
 28.84234      5.7 1.053e+04 2.871e-10
 28.86445      5.5 1.025e+04 2.324e-10
 28.89121      6.5 1.015e+04 2.113e-10
 28.92833      7.5 1.013e+04 2.068e-10
 28.95044      7.3 1.003e+04 1.976e-10
 28.97964      8.4 1.018e+04 2.130e-10
 29.01433      9.4 1.032e+04 2.399e-10
 29.03643      8.9 1.036e+04 2.555e-10
 29.06807      9.6 1.061e+04 2.982e-10
 29.10032      9.9 1.086e+04 3.475e-10
 29.12243      8.8 1.088e+04 3.757e-10
 29.15649      8.7 1.103e+04 4.239e-10
 29.18631      8.6 1.116e+04 4.706e-10
 29.20842      7.4 1.113e+04 4.741e-10
 29.24492      7.2 1.115e+04 4.887e-10
 29.27231      7.0 1.120e+04 4.664e-10
 29.29441      5.5 1.107e+04 3.965e-10
 29.33334      4.9 1.121e+04 3.535e-10
 29.35830      4.3 1.132e+04 3.526e-10
 29.38041      2.9 1.104e+04 3.099e-10
 29.42177      2.5 1.123e+04 3.385e-10
 29.44429      2.2 1.146e+04 3.726e-10
 29.46640      0.8 1.134e+04 3.473e-10
 29.50818      0.1 1.167e+04 4.074e-10
 29.53029     -1.8 1.178e+04 4.268e-10
 29.54326     -3.3 1.212e+04 5.683e-10
 29.56204     -5.2 1.216e+04 7.072e-10
 29.57309     -6.2 1.214e+04 7.286e-10
 29.58738     -7.5 1.199e+04 7.790e-10
 29.60503     -8.3 1.190e+04 7.608e-10
 29.61609     -9.1 1.181e+04 6.937e-10
 29.63159    -10.5 1.177e+04 5.651e-10
 29.64803    -12.1 1.168e+04 4.429e-10
 29.65908    -13.2 1.158e+04 3.796e-10
 29.68007    -13.2 1.149e+04 3.348e-10
 29.70228    -13.4 1.133e+04 3.000e-10
 29.73126    -14.4 1.103e+04 2.459e-10
 29.76616    -15.4 1.082e+04 2.216e-10
 29.78827    -15.8 1.061e+04 1.925e-10
 29.81969    -16.8 1.053e+04 1.842e-10
 29.85216    -17.8 1.047e+04 1.790e-10
 29.87426    -18.2 1.044e+04 1.738e-10
 29.90812    -19.2 1.036e+04 1.717e-10
 29.93815    -19.9 1.026e+04 1.664e-10
 29.96026    -20.2 1.024e+04 1.629e-10
 29.99654    -20.6 1.013e+04 1.470e-10
 30.02414    -20.9 1.003e+04 1.314e-10
 30.04625    -21.0 1.000e+04 1.195e-10
 30.08497    -21.0 9.903e+03 1.093e-10
 30.10798    -20.8 9.807e+03 1.048e-10
 30.11104    -20.4 9.796e+03 1.061e-10
 30.13224    -20.3 9.788e+03 9.776e-11
 30.17339    -19.7 9.740e+03 9.322e-11
 30.19613    -19.1 9.696e+03 8.878e-11
 30.21824    -18.9 9.715e+03 8.253e-11
 30.26002    -18.2 9.690e+03 8.197e-11
 30.28212    -18.0 9.700e+03 7.780e-11
 30.30603    -17.2 9.692e+03 7.824e-11
 30.34601    -16.4 9.652e+03 8.109e-11
 30.36812    -16.1 9.639e+03 7.748e-11
 30.39446    -15.2 9.555e+03 8.201e-11
 30.43201    -14.3 9.460e+03 8.632e-11
 30.45411    -13.9 9.473e+03 8.349e-11
 30.48289    -13.1 9.395e+03 8.573e-11
 30.51800    -12.4 9.359e+03 8.691e-11
 30.54011    -12.0 9.365e+03 8.653e-11
 30.57131    -11.4 9.332e+03 8.874e-11
 30.60399    -11.0 9.314e+03 9.470e-11
 30.62610    -10.9 9.415e+03 9.966e-11
 30.65974    -10.8 9.462e+03 1.227e-10
 30.68999    -10.7 9.521e+03 1.584e-10
 30.71209    -10.7 9.600e+03 1.743e-10
 30.74817    -10.7 9.592e+03 2.037e-10
 30.77598    -10.8 9.556e+03 2.062e-10
 30.79809    -10.8 9.581e+03 2.032e-10
 30.83659    -10.7 9.415e+03 1.853e-10
 30.86197    -10.5 9.178e+03 1.516e-10
 30.88408    -10.1 9.115e+03 1.346e-10
 30.92502     -9.6 8.889e+03 1.004e-10
 30.94797     -8.9 8.700e+03 7.671e-11
 30.97007     -8.3 8.679e+03 6.746e-11
 31.01185     -7.4 8.497e+03 5.980e-11
 31.03396     -6.6 8.464e+03 5.701e-11
 31.05766     -5.2 8.447e+03 5.711e-11
 31.09785     -3.7 8.443e+03 5.782e-11
 31.11995     -2.7 8.493e+03 5.663e-11
 31.14608     -1.2 8.513e+03 5.927e-11
 31.18384      0.3 8.555e+03 6.273e-11
 31.20595      1.4 8.641e+03 6.360e-11
 31.23451      2.9 8.704e+03 6.956e-11
 31.26983      4.4 8.779e+03 7.744e-11
 31.29194      5.5 8.847e+03 8.119e-11
 31.32294      7.0 8.927e+03 9.344e-11
 31.35583      8.5 9.005e+03 1.086e-10
 31.37794      9.7 9.031e+03 1.131e-10
 31.40413     11.3 9.095e+03 1.327e-10
 31.42624     12.1 8.999e+03 1.135e-10
 31.44182     13.8 9.061e+03 1.355e-10
 31.46393     15.1 9.057e+03 1.415e-10
 31.49979     17.0 9.238e+03 1.779e-10
 31.52782     19.2 9.586e+03 2.310e-10
 31.54992     20.6 9.650e+03 2.460e-10
 31.58821     22.7 1.021e+04 3.359e-10
 31.61371     23.0 1.085e+04 4.741e-10
 31.63582     24.3 1.095e+04 5.385e-10
 31.65671     23.9 1.135e+04 7.069e-10
 31.66766     24.5 1.139e+04 7.397e-10
 31.68750     24.4 1.189e+04 9.734e-10
 31.69961     24.4 1.245e+04 1.347e-09
 31.71066     24.9 1.250e+04 1.399e-09
 31.73155     24.5 1.336e+04 2.100e-09
 31.74260     25.0 1.351e+04 2.226e-09
 31.75382     24.3 1.468e+04 3.540e-09
 31.77455     23.1 1.611e+04 5.665e-09
 31.78560     23.7 1.611e+04 5.688e-09
 31.79803     22.1 1.742e+04 8.254e-09
 31.81754     19.9 1.849e+04 1.050e-08
 31.82860     20.9 1.808e+04 8.848e-09
 31.84225     18.1 1.826e+04 8.701e-09
 31.86054     15.0 1.807e+04 7.500e-09
 31.87159     15.8 1.752e+04 6.055e-09
 31.88646     11.9 1.670e+04 4.420e-09
 31.90354      7.5 1.527e+04 2.914e-09
 31.91459      7.8 1.484e+04 2.668e-09
 31.93067      3.2 1.342e+04 1.918e-09
 31.94654     -0.8 1.237e+04 1.484e-09
 31.95759     -0.4 1.244e+04 1.526e-09
 31.97488     -3.6 1.196e+04 1.224e-09
 31.98953     -6.3 1.189e+04 1.104e-09
 32.00059     -6.2 1.190e+04 1.102e-09
 32.01910     -8.9 1.190e+04 1.114e-09
 32.03253    -11.5 1.183e+04 1.181e-09
 32.04358    -11.4 1.181e+04 1.181e-09
 32.06307    -13.3 1.190e+04 1.389e-09
 32.07412    -14.5 1.163e+04 1.394e-09
 32.07553    -15.6 1.171e+04 1.444e-09
 32.08658    -15.1 1.176e+04 1.481e-09
 32.10747    -16.2 1.176e+04 1.449e-09
 32.12958    -16.9 1.182e+04 1.354e-09
 32.15047    -18.6 1.159e+04 1.107e-09
 32.16152    -18.2 1.165e+04 1.161e-09
 32.17384    -20.2 1.119e+04 9.135e-10
 32.19346    -22.0 1.072e+04 7.470e-10
 32.20452    -21.7 1.087e+04 8.281e-10
 32.21806    -23.0 1.061e+04 7.140e-10
 32.23646    -23.8 1.045e+04 6.483e-10
 32.24751    -23.4 1.058e+04 6.761e-10
 32.26227    -23.9 1.045e+04 6.400e-10
 32.27946    -24.1 1.045e+04 6.403e-10
 32.29051    -23.7 1.045e+04 6.496e-10
 32.30648    -23.7 1.046e+04 6.528e-10
 32.32245    -23.8 1.047e+04 6.560e-10
 32.33351    -23.3 1.045e+04 6.451e-10
 32.35070    -23.3 1.041e+04 6.309e-10
 32.36545    -23.3 1.034e+04 6.056e-10
 32.37650    -22.8 1.029e+04 5.741e-10
 32.39491    -22.7 1.021e+04 5.401e-10
 32.40845    -22.7 1.014e+04 5.121e-10
 32.41950    -22.0 1.010e+04 4.806e-10
 32.43912    -22.0 1.004e+04 4.578e-10
 32.45144    -22.1 1.003e+04 4.533e-10
 32.46250    -21.3 9.952e+03 4.204e-10
 32.48334    -21.5 9.969e+03 4.248e-10
 32.50544    -20.9 9.963e+03 4.181e-10
 32.52638    -21.2 1.013e+04 4.683e-10
 32.53744    -20.3 1.007e+04 4.489e-10
 32.54966    -20.7 1.035e+04 5.259e-10
 32.56938    -21.3 1.070e+04 6.285e-10
 32.58043    -20.3 1.068e+04 6.308e-10
 32.59387    -21.1 1.112e+04 7.724e-10
 32.61238    -23.1 1.198e+04 1.043e-09
 32.62343    -22.5 1.201e+04 1.098e-09
 32.63808    -27.1 1.412e+04 2.233e-09
 32.65537    -32.1 1.690e+04 6.083e-09
 32.66643    -31.3 1.685e+04 6.017e-09
 32.68229    -34.3 1.839e+04 1.269e-08
 32.69837    -36.8 1.874e+04 1.486e-08
 32.70942    -36.4 1.860e+04 1.385e-08
 32.72220    -38.3 1.813e+04 1.192e-08
 32.73325    -37.1 1.813e+04 1.229e-08
 32.74137    -38.3 1.706e+04 7.856e-09
 32.75242    -37.6 1.705e+04 7.622e-09
 32.77072    -39.6 1.579e+04 3.319e-09
 32.78436    -43.3 1.414e+04 1.168e-09
 32.79542    -43.1 1.417e+04 1.186e-09
 32.81493    -47.2 1.188e+04 5.708e-10
 32.82736    -48.9 1.126e+04 5.140e-10
 32.83842    -48.9 1.139e+04 5.682e-10
 32.85915    -48.6 1.142e+04 5.791e-10
 32.87036    -48.4 1.150e+04 6.047e-10
 32.88141    -48.1 1.158e+04 6.646e-10
 32.91451    -46.3 1.172e+04 7.224e-10
 32.94540    -44.8 1.180e+04 8.177e-10
 32.95635    -44.5 1.223e+04 9.822e-10
 32.96968    -43.7 1.230e+04 1.032e-09
 32.98830    -42.8 1.236e+04 1.129e-09
 32.99935    -42.6 1.255e+04 1.214e-09
 33.01389    -41.9 1.255e+04 1.266e-09
 33.03129    -41.6 1.281e+04 1.416e-09
 33.04235    -41.3 1.277e+04 1.390e-09
 33.05811    -41.0 1.312e+04 1.554e-09
 33.07429    -40.9 1.374e+04 1.907e-09
 33.08534    -40.4 1.339e+04 1.643e-09
 33.10232    -40.2 1.396e+04 1.955e-09
 33.11729    -40.3 1.463e+04 2.488e-09
 33.12834    -39.6 1.399e+04 1.969e-09
 33.14653    -39.8 1.480e+04 2.609e-09
 33.16028    -40.5 1.591e+04 3.986e-09
 33.17134    -39.2 1.512e+04 2.970e-09
 33.19075    -40.1 1.650e+04 4.977e-09
 33.20328    -40.9 1.724e+04 7.562e-09
 33.21433    -39.7 1.710e+04 6.188e-09
 33.23496    -40.5 1.772e+04 9.386e-09
 33.24628    -40.8 1.797e+04 1.118e-08
 33.25733    -40.0 1.818e+04 1.194e-08
 33.27822    -40.0 1.848e+04 1.410e-08
 33.28927    -39.2 1.875e+04 1.586e-08
 33.30128    -39.1 1.908e+04 1.708e-08
 33.32122    -39.2 1.920e+04 1.309e-08
 33.33227    -38.6 1.937e+04 1.816e-08
 33.34549    -39.8 2.030e+04 1.174e-08
 33.36421    -48.5 2.546e+04 9.150e-09
 33.37527    -45.7 2.506e+04 1.514e-08
 33.38128    -54.1 2.479e+04 1.301e-08
 33.39233    -53.2 2.467e+04 1.154e-08
 33.40721    -59.0 1.845e+04 1.137e-08
 33.41826    -56.8 2.094e+04 1.396e-08
 33.43392    -59.3 1.687e+04 1.113e-08
 33.45021    -59.8 1.636e+04 6.503e-09
 33.46126    -59.8 1.630e+04 6.291e-09
 33.47813    -63.0 1.574e+04 3.264e-09
 33.49320    -67.7 1.411e+04 1.719e-09
 33.50426    -67.8 1.359e+04 1.577e-09
 33.52525    -69.6 1.237e+04 1.181e-09
 33.54735    -68.7 1.200e+04 1.062e-09
 33.57771    -69.9 1.155e+04 9.281e-10
 33.61134    -69.6 1.092e+04 7.560e-10
 33.63344    -68.5 1.095e+04 7.366e-10
 33.66623    -67.5 1.036e+04 4.657e-10
 33.69733    -67.3 9.817e+03 2.951e-10
 33.71944    -66.2 9.953e+03 3.060e-10
 33.75466    -66.2 9.672e+03 2.431e-10
 33.78332    -65.9 9.590e+03 2.758e-10
 33.80543    -64.9 9.918e+03 3.056e-10
 33.84308    -63.8 9.876e+03 4.118e-10
 33.86932    -62.3 9.682e+03 4.071e-10
 33.89142    -61.5 1.012e+04 5.362e-10
 33.93151    -59.7 9.839e+03 4.372e-10
 33.95531    -58.4 9.461e+03 2.410e-10
 33.97742    -57.8 9.903e+03 4.214e-10
 34.01855    -57.3 9.576e+03 2.286e-10
 34.03991    -57.4 9.588e+03 2.159e-10
 34.04130    -56.6 1.000e+04 3.889e-10
 34.06415    -56.9 9.824e+03 2.537e-10
 34.10519    -57.1 9.566e+03 2.471e-10
 34.12730    -56.0 9.985e+03 3.417e-10
 34.15258    -55.3 9.877e+03 3.350e-10
 34.19119    -54.2 9.751e+03 3.039e-10
 34.21329    -53.4 1.015e+04 3.283e-10
 34.24100    -52.5 1.009e+04 2.695e-10
 34.27718    -51.9 1.008e+04 2.264e-10
 34.29929    -51.2 1.032e+04 3.305e-10
 34.32943    -50.9 1.035e+04 3.405e-10
 34.36317    -51.8 1.081e+04 4.510e-10
 34.38528    -50.9 1.094e+04 5.639e-10
 34.40607    -51.6 1.120e+04 8.358e-10
 34.41703    -51.4 1.124e+04 8.694e-10
 34.42871    -51.5 1.139e+04 9.722e-10
 34.44897    -51.9 1.175e+04 1.263e-09
 34.46002    -51.6 1.170e+04 1.297e-09
 34.47293    -51.6 1.180e+04 1.358e-09
 34.49197    -51.6 1.171e+04 1.299e-09
 34.50302    -51.0 1.157e+04 1.208e-09
 34.51714    -51.7 1.144e+04 1.005e-09
 34.53496    -52.5 1.103e+04 7.854e-10
 34.54602    -52.2 1.084e+04 6.895e-10
 34.56135    -53.0 1.026e+04 5.278e-10
 34.59461    -53.3 9.890e+03 3.622e-10
 34.62115    -53.0 9.551e+03 2.600e-10
 34.64326    -52.0 9.291e+03 2.127e-10
 34.68313    -51.5 9.056e+03 1.876e-10
 34.70715    -50.3 8.910e+03 1.736e-10
 34.72925    -49.3 8.877e+03 1.687e-10
 34.77103    -47.8 8.867e+03 1.667e-10
 34.79314    -46.9 8.846e+03 1.664e-10
 34.81577    -45.6 8.923e+03 1.742e-10
 34.85703    -44.4 9.112e+03 2.043e-10
 34.87913    -43.9 9.027e+03 1.952e-10
 34.90420    -43.4 9.424e+03 2.718e-10
 34.94302    -42.8 1.044e+04 5.866e-10
 34.96513    -44.1 1.042e+04 5.790e-10
 34.98148    -44.3 1.106e+04 8.457e-10
 34.99688    -47.4 1.288e+04 1.596e-09
 35.00793    -49.0 1.271e+04 1.601e-09
 35.02559    -51.3 1.364e+04 2.960e-09
 35.03987    -52.7 1.438e+04 4.290e-09
 35.05093    -53.4 1.395e+04 3.684e-09
 35.06980    -55.5 1.436e+04 3.686e-09
 35.08287    -58.5 1.446e+04 2.788e-09
 35.09392    -60.2 1.393e+04 2.100e-09
 35.11402    -64.9 1.300e+04 1.624e-09
 35.12587    -68.3 1.227e+04 1.465e-09
 35.13692    -69.3 1.208e+04 1.432e-09
 35.15781    -70.1 1.193e+04 1.529e-09
 35.16886    -70.4 1.190e+04 1.563e-09
 35.18034    -70.4 1.194e+04 1.569e-09
 35.20081    -70.4 1.197e+04 1.331e-09
 35.21186    -70.3 1.188e+04 1.245e-09
 35.22455    -71.3 1.188e+04 1.010e-09
 35.24380    -72.9 1.163e+04 9.023e-10
 35.25486    -73.3 1.151e+04 7.829e-10
 35.26876    -74.0 1.147e+04 8.457e-10
 35.28680    -74.1 1.165e+04 9.787e-10
 35.29785    -74.4 1.141e+04 9.042e-10
 35.31298    -74.2 1.148e+04 1.013e-09
 35.32980    -73.7 1.164e+04 1.075e-09
 35.34085    -73.6 1.144e+04 9.471e-10
 35.34766    -73.5 1.123e+04 8.196e-10
 35.35872    -73.3 1.147e+04 9.446e-10
 35.37279    -73.1 1.112e+04 7.479e-10
 35.38385    -73.1 1.099e+04 6.040e-10
 35.40140    -72.7 1.106e+04 4.712e-10
 35.43466    -73.3 1.067e+04 2.677e-10
 35.45898    -73.1 9.904e+03 1.592e-10
 35.48109    -72.7 9.676e+03 1.282e-10
 35.52287    -71.7 9.548e+03 1.117e-10
 35.54498    -70.9 9.537e+03 9.900e-11
 35.56740    -69.6 9.537e+03 9.552e-11
 35.60886    -68.6 9.661e+03 1.058e-10
 35.63097    -67.6 9.636e+03 8.887e-11
 35.65582    -66.5 9.600e+03 1.096e-10
 35.69486    -65.0 9.617e+03 1.365e-10
 35.71696    -64.1 9.621e+03 9.982e-11
 35.74425    -62.9 9.720e+03 1.089e-10
 35.78085    -62.1 9.774e+03 1.192e-10
 35.80296    -61.5 9.711e+03 9.544e-11
 35.83268    -60.6 9.645e+03 1.184e-10
 35.86684    -59.9 9.774e+03 1.586e-10
 35.88895    -59.3 9.805e+03 1.386e-10
 35.92110    -59.2 1.028e+04 2.248e-10
 35.95284    -59.6 1.097e+04 4.013e-10
 35.97495    -59.0 1.075e+04 3.571e-10
 35.99574    -59.0 1.082e+04 5.465e-10
 36.00415    -58.4 1.074e+04 4.726e-10
 36.00679    -58.1 1.073e+04 4.860e-10
 36.02039    -58.5 1.113e+04 5.342e-10
 36.03873    -61.4 1.277e+04 7.292e-10
 36.06094    -59.2 1.197e+04 4.719e-10
 36.09795    -61.9 1.196e+04 8.853e-10
 36.12473    -60.6 1.207e+04 1.491e-09
 36.14683    -59.9 1.183e+04 1.208e-09
 36.16772    -59.1 1.201e+04 1.363e-09
 36.17868    -58.2 1.183e+04 1.268e-09
 36.19724    -58.1 1.185e+04 1.170e-09
 36.21062    -57.9 1.202e+04 6.259e-10
 36.22168    -56.2 1.206e+04 7.444e-10
 36.24145    -57.1 1.169e+04 6.170e-10
 36.27461    -57.0 1.138e+04 3.857e-10
 36.31892    -54.8 1.095e+04 2.995e-10
 36.36070    -54.6 1.065e+04 2.125e-10
 36.38281    -52.1 1.075e+04 2.711e-10
 36.40745    -51.7 1.054e+04 2.130e-10
 36.44669    -51.3 1.025e+04 1.761e-10
 36.46880    -48.8 1.044e+04 2.076e-10
 36.49587    -48.2 1.010e+04 1.659e-10
 36.53269    -47.6 9.991e+03 1.194e-10
 36.55479    -45.3 1.013e+04 1.330e-10
 36.58430    -45.0 9.812e+03 1.009e-10
 36.61868    -44.8 9.659e+03 9.294e-11
 36.64079    -42.9 9.691e+03 9.460e-11
 36.65506    -42.4 9.720e+03 9.591e-11
 36.67717    -42.0 9.639e+03 1.032e-10
 36.70467    -41.0 9.494e+03 1.118e-10
 36.72678    -39.5 9.606e+03 1.245e-10
 36.76115    -38.2 9.468e+03 1.242e-10
 36.79067    -36.8 9.424e+03 1.174e-10
 36.81277    -35.5 9.504e+03 1.515e-10
 36.84958    -33.9 9.445e+03 1.471e-10
 36.87666    -32.1 9.468e+03 1.258e-10
 36.89877    -30.6 9.587e+03 1.642e-10
 36.93800    -29.1 9.672e+03 1.286e-10
 36.96266    -27.9 9.645e+03 1.110e-10
 36.98476    -26.6 9.760e+03 1.305e-10
 37.02643    -25.3 9.718e+03 1.257e-10
 37.07064    -23.0 9.870e+03 1.451e-10
 37.11254    -21.9 1.003e+04 1.919e-10
 37.13464    -20.5 1.002e+04 1.675e-10
 37.15907    -19.2 1.017e+04 2.229e-10
 37.19853    -17.8 1.039e+04 2.762e-10
 37.22064    -16.6 1.033e+04 2.347e-10
 37.24750    -15.1 1.049e+04 2.822e-10
 37.28452    -13.8 1.053e+04 2.916e-10
 37.30663    -12.2 1.053e+04 2.888e-10
 37.33592    -10.6 1.041e+04 2.665e-10
 37.37052     -8.9 1.018e+04 2.094e-10
 37.39262     -7.3 1.032e+04 2.164e-10
 37.42435     -5.5 1.012e+04 1.426e-10
 37.45651     -3.8 9.956e+03 9.174e-11
 37.47862     -2.2 1.013e+04 1.014e-10
 37.51277     -0.8 1.007e+04 6.505e-11
 37.54250      0.5 9.952e+03 5.009e-11
 37.56461      1.9 1.019e+04 5.650e-11
 37.60120      3.4 9.937e+03 5.338e-11
 37.62850      5.3 9.875e+03 5.263e-11
 37.65060      6.7 9.947e+03 6.513e-11
 37.68963      8.7 9.928e+03 6.456e-11
 37.71449     10.6 9.961e+03 6.540e-11
 37.73660     11.8 1.004e+04 7.962e-11
 37.77805     13.6 1.009e+04 8.405e-11
 37.80049     15.3 1.017e+04 9.676e-11
 37.82259     16.4 1.026e+04 1.176e-10
 37.86437     18.1 1.036e+04 1.433e-10
 37.88648     19.3 1.049e+04 1.690e-10
 37.91069     21.0 1.068e+04 1.935e-10
 37.95037     22.7 1.087e+04 2.168e-10
 37.96878     23.9 1.099e+04 2.161e-10
 37.97332     24.3 1.073e+04 1.941e-10
 37.99912     25.8 1.090e+04 2.066e-10
 38.03636     27.1 1.107e+04 2.218e-10
 38.05847     28.3 1.115e+04 2.193e-10
 38.08755     29.6 1.125e+04 2.368e-10
 38.12235     30.8 1.138e+04 2.402e-10
 38.14446     32.2 1.131e+04 2.292e-10
 38.17597     33.4 1.136e+04 2.215e-10
 38.20835     34.5 1.141e+04 2.049e-10
 38.23045     36.1 1.134e+04 1.888e-10
 38.26440     37.2 1.141e+04 1.802e-10
 38.29434     38.3 1.143e+04 1.813e-10
 38.31645     40.1 1.140e+04 1.651e-10
 38.35282     41.1 1.147e+04 1.670e-10
 38.38033     41.8 1.153e+04 1.758e-10
 38.40244     43.7 1.145e+04 1.666e-10
 38.44125     44.2 1.147e+04 1.796e-10
 38.46633     44.6 1.147e+04 2.011e-10
 38.48843     46.6 1.139e+04 2.107e-10
 38.52968     46.7 1.137e+04 2.467e-10
 38.55232     46.7 1.131e+04 3.019e-10
 38.57443     48.4 1.133e+04 3.091e-10
 38.61621     48.3 1.120e+04 3.667e-10
 38.63831     50.1 1.124e+04 3.410e-10
 38.66232     49.8 1.118e+04 3.402e-10
 38.70220     50.0 1.104e+04 3.253e-10
 38.72431     51.5 1.100e+04 3.137e-10
 38.75074     51.7 1.083e+04 2.600e-10
 38.78820     52.1 1.069e+04 1.905e-10
 38.81030     53.4 1.061e+04 1.966e-10
 38.83917     53.7 1.054e+04 1.389e-10
 38.87419     54.0 1.034e+04 1.125e-10
 38.89630     55.4 1.034e+04 1.187e-10
 38.92760     55.8 1.027e+04 1.134e-10
 38.96018     56.3 1.027e+04 1.131e-10
 38.98229     57.5 1.030e+04 1.164e-10
 39.01602     57.7 1.031e+04 1.154e-10
 39.04618     57.9 1.034e+04 1.177e-10
 39.06828     58.7 1.040e+04 1.272e-10
 39.10445     58.3 1.054e+04 1.439e-10
 39.13217     57.8 1.077e+04 1.816e-10
 39.15428     58.5 1.086e+04 2.261e-10
 39.19287     57.8 1.113e+04 2.753e-10
 39.21816     56.4 1.164e+04 4.081e-10
 39.24027     56.3 1.191e+04 5.897e-10
 39.26948     54.0 1.233e+04 1.038e-09
 39.29158     54.9 1.284e+04 1.443e-09
 39.30416     52.9 1.288e+04 1.619e-09
 39.32626     52.6 1.305e+04 1.861e-09
 39.36804     50.5 1.258e+04 1.456e-09
 39.39015     50.0 1.244e+04 1.360e-09
 39.41394     47.8 1.138e+04 6.731e-10
 39.45404     45.1 1.051e+04 3.874e-10
 39.47614     44.1 1.009e+04 2.431e-10
 39.50237     42.8 1.013e+04 2.545e-10
 39.54003     42.3 1.019e+04 2.693e-10
 39.56214     41.7 1.001e+04 2.173e-10
 39.59079     42.3 1.031e+04 2.980e-10
 39.62385     42.2 1.054e+04 3.686e-10
 39.63688     42.1 1.079e+04 4.825e-10
 39.64794     41.9 1.084e+04 5.472e-10
 39.66797     42.1 1.130e+04 7.872e-10
 39.67988     42.2 1.189e+04 1.123e-09
 39.69093     41.9 1.209e+04 1.262e-09
 39.71182     41.5 1.273e+04 1.766e-09
 39.72288     41.2 1.267e+04 1.725e-09
 39.73429     40.8 1.313e+04 2.329e-09
 39.75482     40.8 1.342e+04 3.083e-09
 39.76587     41.1 1.307e+04 2.351e-09
 39.77850     41.1 1.314e+04 2.520e-09
 39.79782     41.0 1.309e+04 2.475e-09
 39.82002     39.3 1.245e+04 1.375e-09
 39.85607     38.4 1.186e+04 1.231e-09
 39.88401     38.0 1.133e+04 1.103e-09
 39.90611     37.8 1.049e+04 5.450e-10
 39.94450     38.6 1.045e+04 5.018e-10
 39.97000     39.5 1.058e+04 4.658e-10
 39.99211     37.3 1.044e+04 2.609e-10
 40.03292     37.7 1.049e+04 2.991e-10
 40.05599     38.2 1.042e+04 3.124e-10
 40.07810     37.3 1.021e+04 4.422e-10
 40.11988     38.2 1.025e+04 4.376e-10
 40.14199     38.6 9.987e+03 5.806e-10
 40.16556     39.7 9.923e+03 5.152e-10
 40.20587     40.9 9.824e+03 3.916e-10
 40.22798     41.6 9.652e+03 3.329e-10
 40.25399     42.7 9.592e+03 2.547e-10
 40.29187     43.5 9.522e+03 2.118e-10
 40.31397     44.0 9.398e+03 1.673e-10
 40.34242     45.0 9.411e+03 1.682e-10
 40.37786     46.2 9.451e+03 1.734e-10
 40.39997     46.4 9.386e+03 1.494e-10
 40.43084     47.5 9.409e+03 1.669e-10
 40.46385     48.8 9.515e+03 2.094e-10
 40.48596     48.8 9.536e+03 1.948e-10
 40.51927     49.8 9.805e+03 2.831e-10
 40.54985     50.7 1.017e+04 4.130e-10
 40.57196     50.5 1.009e+04 3.548e-10
 40.58774     51.2 1.046e+04 4.550e-10
 40.60984     52.0 1.056e+04 5.015e-10
 40.63584     51.9 1.100e+04 6.226e-10
 40.65795     50.0 1.063e+04 4.732e-10
 40.69612     48.8 1.091e+04 5.549e-10
 40.72184     46.5 1.111e+04 6.057e-10
 40.74394     45.5 1.059e+04 4.216e-10
 40.78455     42.9 1.061e+04 4.186e-10
 40.80783     40.0 1.064e+04 4.512e-10
 40.82994     40.1 1.020e+04 2.747e-10
 40.87172     38.2 1.016e+04 2.745e-10
 40.89382     38.6 9.728e+03 2.220e-10
 40.91719     38.2 9.595e+03 2.067e-10
 40.95771     38.2 9.469e+03 1.712e-10
 40.97982     39.7 9.340e+03 1.541e-10
 41.00561     39.8 9.336e+03 1.287e-10
 41.04370     40.0 9.368e+03 1.304e-10
 41.06581     41.9 9.257e+03 1.179e-10
 41.09404     42.3 9.383e+03 1.380e-10
 41.12970     42.9 9.517e+03 1.929e-10
 41.15180     44.5 9.491e+03 1.668e-10
 41.18247     45.6 9.610e+03 2.167e-10
 41.21569     46.7 9.712e+03 2.294e-10
 41.23780     48.3 9.547e+03 1.888e-10
 41.27089     49.3 9.577e+03 1.838e-10
 41.30168     50.2 9.669e+03 1.863e-10
 41.32379     51.9 9.492e+03 1.437e-10
 41.35932     52.5 9.648e+03 1.632e-10
 41.38768     53.0 1.000e+04 2.531e-10
 41.40978     54.7 9.717e+03 1.784e-10
 41.44774     55.6 1.011e+04 3.271e-10
 41.47367     56.7 1.060e+04 5.513e-10
 41.49578     58.6 1.017e+04 3.714e-10
 41.53617     59.6 1.054e+04 5.048e-10
 41.55967     60.5 1.064e+04 5.175e-10
 41.58177     62.6 1.031e+04 3.433e-10
 41.62355     63.5 1.030e+04 3.309e-10
 41.64566     65.6 1.013e+04 2.091e-10
 41.66881     66.4 1.009e+04 2.014e-10
 41.70955     67.4 9.979e+03 1.773e-10
 41.73165     69.4 9.968e+03 1.359e-10
 41.75724     70.6 9.846e+03 1.315e-10
 41.79554     72.0 9.709e+03 1.233e-10
 41.81765     74.1 9.742e+03 1.165e-10
 41.84566     75.5 9.706e+03 1.148e-10
 41.88153     77.0 9.690e+03 1.091e-10
 41.89765     79.0 9.774e+03 1.204e-10
 41.90599     79.0 9.860e+03 1.373e-10
 41.93409     80.4 9.840e+03 1.335e-10
 41.96753     81.8 9.782e+03 1.197e-10
 41.98963     83.7 9.944e+03 1.650e-10
 42.02251     85.1 9.869e+03 1.469e-10
 42.05352     86.4 9.750e+03 1.213e-10
 42.07563     88.1 1.019e+04 2.078e-10
 42.11094     89.2 1.002e+04 1.752e-10
 42.13951     90.1 1.000e+04 1.566e-10
 42.16162     91.7 1.049e+04 2.878e-10
 42.19937     92.4 1.034e+04 2.458e-10
 42.22551     93.2 1.033e+04 2.237e-10
 42.24761     94.2 1.061e+04 3.307e-10
 42.28779     95.1 1.053e+04 2.643e-10
 42.31150     96.0 1.049e+04 2.127e-10
 42.33361     96.8 1.062e+04 2.439e-10
 42.37539     97.7 1.052e+04 1.891e-10
 42.39750     98.5 1.060e+04 2.141e-10
 42.42043     99.5 1.053e+04 1.859e-10
 42.46138    100.7 1.045e+04 1.730e-10
 42.48349    101.7 1.048e+04 2.098e-10
 42.50886    103.1 1.042e+04 1.982e-10
 42.54738    104.4 1.039e+04 1.860e-10
 42.56948    105.6 1.046e+04 2.246e-10
 42.59729    106.9 1.043e+04 2.139e-10
 42.63337    108.2 1.040e+04 2.080e-10
 42.65548    109.5 1.050e+04 2.429e-10
 42.68571    110.6 1.045e+04 2.314e-10
 42.71936    111.8 1.037e+04 2.210e-10
 42.74147    113.0 1.038e+04 2.295e-10
 42.77414    114.1 1.023e+04 2.093e-10
 42.80536    115.3 1.010e+04 1.881e-10
 42.82746    116.6 1.008e+04 1.836e-10
 42.86256    117.8 9.974e+03 1.639e-10
 42.89135    119.0 9.886e+03 1.490e-10
 42.91346    120.3 9.873e+03 1.487e-10
 42.95099    121.5 9.794e+03 1.380e-10
 42.97734    122.8 9.710e+03 1.277e-10
 42.99945    124.1 9.686e+03 1.314e-10
 43.03942    125.4 9.601e+03 1.214e-10
 43.06334    126.8 9.528e+03 1.122e-10
 43.08544    128.0 9.534e+03 1.151e-10
 43.12722    129.4 9.497e+03 1.059e-10
 43.14933    130.6 9.512e+03 1.049e-10
 43.17206    131.8 9.478e+03 9.828e-11
 43.20215    133.2 9.453e+03 9.550e-11
 43.22120    133.2 9.363e+03 8.314e-11
 43.23532    134.2 9.338e+03 7.890e-11
 43.26048    135.5 9.327e+03 8.031e-11
 43.29921    136.9 9.323e+03 8.384e-11
 43.32132    137.9 9.294e+03 8.071e-11
 43.34891    139.4 9.311e+03 8.821e-11
 43.38521    140.8 9.350e+03 9.886e-11
 43.40731    141.9 9.367e+03 1.022e-10
 43.43734    143.3 9.460e+03 1.240e-10
 43.47120    144.7 9.620e+03 1.561e-10
 43.49331    145.7 9.715e+03 1.763e-10
 43.52576    147.0 1.000e+04 2.337e-10
 43.55719    148.0 1.036e+04 3.046e-10
 43.57930    148.5 1.056e+04 3.560e-10
 43.61419    148.8 1.076e+04 4.379e-10
 43.64319    149.1 1.099e+04 5.460e-10
 43.66529    149.2 1.119e+04 6.662e-10
 43.70261    149.3 1.148e+04 8.413e-10
 43.72918    149.1 1.187e+04 1.078e-09
 43.75129    148.6 1.215e+04 1.326e-09
 43.79104    148.1 1.237e+04 1.486e-09
 43.81517    147.9 1.247e+04 1.534e-09
 43.83728    147.1 1.210e+04 1.236e-09
 43.87906    147.0 1.178e+04 9.349e-10
 43.90117    146.1 1.090e+04 4.495e-10
 43.92368    145.9 1.079e+04 3.245e-10
 43.96505    146.3 1.090e+04 3.223e-10
 43.98716    145.2 9.994e+03 1.547e-10
 44.01211    146.2 1.027e+04 1.887e-10
 44.05105    146.5 1.052e+04 2.197e-10
 44.07315    146.3 9.985e+03 1.939e-10
 44.08938    146.2 1.021e+04 2.155e-10
 44.10490    145.8 1.052e+04 2.459e-10
 44.11596    145.7 1.048e+04 2.471e-10
 44.13350    143.4 1.169e+04 3.955e-10
 44.14790    138.6 1.399e+04 1.125e-09
 44.15895    137.8 1.409e+04 1.195e-09
 44.17771    133.7 1.558e+04 2.534e-09
 44.19060    129.2 1.758e+04 5.606e-09
 44.19268    128.9 1.760e+04 6.833e-09
 44.19633    128.0 1.791e+04 7.838e-09
 44.20525    125.2 1.923e+04 1.740e-08
 44.21230    123.7 2.022e+04 3.039e-08
 44.21782    123.1 2.062e+04 3.285e-08
 44.22735    121.7 2.144e+04 3.638e-08
 44.23380    119.7 2.148e+04 3.427e-08
 44.23932    118.1 2.160e+04 3.146e-08
 44.24946    116.3 2.128e+04 2.598e-08
 44.26579    112.5 2.098e+04 1.257e-08
 44.27689    110.2 2.078e+04 9.778e-09
 44.28824     99.9 1.853e+04 2.529e-09
 44.30883     89.7 1.334e+04 1.688e-09
 44.31989     88.7 1.342e+04 1.965e-09
 44.33246     85.9 1.340e+04 2.067e-09
 44.35183     84.2 1.393e+04 2.715e-09
 44.36288     84.3 1.425e+04 3.230e-09
 44.37667     83.4 1.483e+04 4.609e-09
 44.39483     82.9 1.497e+04 5.292e-09
 44.40588     83.1 1.484e+04 4.867e-09
 44.42088     82.8 1.471e+04 4.554e-09
 44.43782     82.5 1.431e+04 3.371e-09
 44.44888     82.0 1.392e+04 2.383e-09
 44.46510     80.6 1.338e+04 1.599e-09
 44.48082     79.8 1.313e+04 1.363e-09
 44.50288     77.8 1.234e+04 9.164e-10
 44.54251     77.6 1.119e+04 5.407e-10
 44.56701     77.7 1.100e+04 5.107e-10
 44.58912     77.8 1.097e+04 5.062e-10
 44.63090     78.2 1.088e+04 4.785e-10
 44.67511     78.5 1.076e+04 4.402e-10
 44.71689     78.9 1.058e+04 3.777e-10
 44.73900     79.0 1.057e+04 3.868e-10
 44.76373     79.5 1.034e+04 3.259e-10
 44.80288     80.1 1.020e+04 3.076e-10
 44.82499     80.3 1.009e+04 2.874e-10
 44.85216     81.1 1.008e+04 2.911e-10
 44.88888     81.8 1.022e+04 3.309e-10
 44.91098     81.9 1.012e+04 3.016e-10
 44.94058     82.1 1.041e+04 3.947e-10
 44.97487     81.9 1.071e+04 5.382e-10
 44.99698     82.2 1.075e+04 5.456e-10
 45.02901     81.8 1.111e+04 8.030e-10
 45.06086     81.1 1.159e+04 1.195e-09
 45.08297     81.7 1.153e+04 1.239e-09
 45.11743     81.0 1.178e+04 1.286e-09
 45.14676     80.5 1.196e+04 1.423e-09
 45.15772     80.9 1.187e+04 1.390e-09
 45.16829     80.4 1.188e+04 1.375e-09
 45.17934     80.3 1.161e+04 1.152e-09
 45.18966     79.7 1.157e+04 1.117e-09
 45.20071     80.1 1.148e+04 1.042e-09
 45.21672     79.8 1.139e+04 9.980e-10
 45.23266     79.9 1.118e+04 8.924e-10
 45.24371     80.2 1.114e+04 8.809e-10
 45.26093     80.3 1.098e+04 7.674e-10
 45.27565     80.5 1.078e+04 5.475e-10
 45.28671     81.1 1.074e+04 6.117e-10
 45.30514     81.0 1.064e+04 5.013e-10
 45.31875     81.3 1.043e+04 3.162e-10
 45.34095     82.5 1.043e+04 3.887e-10
 45.38271     83.1 1.029e+04 3.015e-10
 45.42693     85.1 1.038e+04 3.581e-10
 45.46873     85.8 1.054e+04 3.899e-10
 45.49083     86.9 1.049e+04 4.108e-10
 45.50420     87.1 1.061e+04 4.718e-10
 45.52258     87.2 1.087e+04 5.586e-10
 45.53363     87.8 1.078e+04 5.244e-10
 45.54832     87.8 1.117e+04 6.239e-10
 45.56558     86.9 1.181e+04 8.516e-10
 45.57663     87.3 1.170e+04 7.480e-10
 45.59253     85.8 1.246e+04 1.220e-09
 45.60857     84.7 1.311e+04 2.109e-09
 45.61963     84.5 1.304e+04 1.946e-09
 45.63674     84.0 1.355e+04 3.001e-09
 45.65157     83.4 1.375e+04 3.301e-09
 45.66263     83.4 1.369e+04 3.229e-09
 45.68096     82.8 1.358e+04 3.056e-09
 45.69457     82.1 1.319e+04 2.423e-09
 45.70562     82.2 1.319e+04 2.441e-09
 45.72517     81.5 1.249e+04 1.512e-09
 45.73757     79.9 1.174e+04 9.439e-10
 45.74862     80.4 1.177e+04 9.538e-10
 45.78053     80.1 1.097e+04 5.223e-10
 45.81270     80.1 9.926e+03 2.386e-10
 45.82652     80.9 1.011e+04 2.529e-10
 45.83867     82.0 1.034e+04 3.389e-10
 45.86906     82.4 9.605e+03 1.771e-10
 45.89869     83.1 9.112e+03 1.312e-10
 45.92080     84.2 9.325e+03 1.671e-10
 45.95748     85.5 9.175e+03 1.628e-10
 45.98469     87.1 9.169e+03 1.750e-10
 46.00679     88.0 9.409e+03 2.230e-10
 46.04591     89.5 9.425e+03 2.424e-10
 46.07068     91.0 9.443e+03 2.565e-10
 46.09279     91.8 9.566e+03 2.691e-10
 46.13434     93.1 9.533e+03 2.551e-10
 46.15668     94.3 9.546e+03 2.474e-10
 46.17878     94.9 9.491e+03 2.256e-10
 46.22056     96.0 9.458e+03 2.250e-10
 46.24267     96.8 9.485e+03 2.276e-10
 46.26698     98.1 9.509e+03 2.403e-10
 46.30656     99.4 9.630e+03 2.690e-10
 46.32866    100.2 9.710e+03 2.852e-10
 46.35540    101.4 9.771e+03 3.052e-10
 46.38846    102.1 1.001e+04 3.732e-10
 46.40341    102.6 1.026e+04 4.602e-10
 46.41446    103.1 1.031e+04 4.802e-10
 46.43258    103.6 1.063e+04 5.991e-10
 46.44640    103.8 1.101e+04 7.758e-10
 46.45746    104.2 1.114e+04 8.066e-10
 46.47549    104.0 1.162e+04 1.088e-09
 46.48655    105.1 1.117e+04 8.129e-10
 46.48940    104.8 1.175e+04 1.151e-09
 46.50045    105.0 1.200e+04 1.259e-09
 46.52101    104.7 1.259e+04 1.862e-09
 46.53240    104.8 1.309e+04 2.676e-09
 46.54345    105.0 1.340e+04 2.976e-09
 46.56434    105.4 1.365e+04 3.494e-09
 46.57540    105.6 1.387e+04 3.752e-09
 46.58733    105.8 1.383e+04 3.640e-09
 46.60734    105.8 1.360e+04 3.179e-09
 46.61839    106.0 1.377e+04 3.282e-09
 46.63154    105.5 1.338e+04 2.466e-09
 46.65034    103.8 1.282e+04 1.790e-09
 46.66139    103.8 1.286e+04 1.733e-09
 46.67575    101.4 1.198e+04 1.361e-09
 46.69333     99.6 1.172e+04 1.340e-09
 46.70439     99.4 1.155e+04 1.243e-09
 46.71997     98.1 1.166e+04 1.317e-09
 46.73633     97.2 1.197e+04 1.535e-09
 46.74738     96.9 1.183e+04 1.428e-09
 46.76418     96.2 1.217e+04 1.691e-09
 46.77933     95.6 1.229e+04 1.753e-09
 46.79038     95.5 1.223e+04 1.714e-09
 46.80839     94.9 1.222e+04 1.684e-09
 46.82232     94.2 1.217e+04 1.551e-09
 46.83338     94.3 1.213e+04 1.568e-09
 46.85260     93.6 1.203e+04 1.416e-09
 46.86532     92.8 1.199e+04 1.348e-09
 46.87637     93.3 1.197e+04 1.366e-09
 46.89682     92.7 1.194e+04 1.330e-09
 46.90832     92.1 1.203e+04 1.300e-09
 46.91937     92.9 1.189e+04 1.274e-09
 46.94026     92.3 1.185e+04 1.172e-09
 46.95131     93.2 1.170e+04 1.116e-09
 46.96314     92.7 1.147e+04 9.349e-10
 46.98326     92.4 1.127e+04 8.134e-10
 46.99431     93.3 1.104e+04 7.280e-10
 47.00735     93.0 1.084e+04 5.727e-10
 47.02625     92.9 1.072e+04 5.002e-10
 47.03731     93.5 1.060e+04 4.598e-10
 47.05829     93.0 1.045e+04 3.659e-10
 47.08040     93.4 1.035e+04 3.554e-10
 47.09578     93.4 1.031e+04 3.507e-10
 47.11225     93.4 1.031e+04 3.535e-10
 47.12330     93.5 1.033e+04 3.837e-10
 47.13462     93.4 1.043e+04 4.259e-10
 47.14568     94.8 1.045e+04 4.312e-10
 47.15524     94.6 1.063e+04 4.978e-10
 47.16630     93.1 1.113e+04 6.578e-10
 47.18420     91.5 1.193e+04 9.446e-10
 47.19824     89.4 1.299e+04 1.512e-09
 47.20929     86.7 1.370e+04 2.370e-09
 47.22842     84.9 1.438e+04 3.441e-09
 47.24124     83.1 1.477e+04 4.103e-09
 47.25229     80.9 1.464e+04 3.858e-09
 47.27263     78.7 1.469e+04 3.556e-09
 47.28423     75.6 1.463e+04 2.708e-09
 47.29529     71.2 1.370e+04 1.474e-09
 47.31618     66.9 1.210e+04 9.963e-10
 47.33838     59.2 1.049e+04 6.329e-10
 47.37230     54.6 9.973e+03 5.192e-10
 47.40237     51.2 9.995e+03 5.154e-10
 47.42447     50.5 9.732e+03 4.371e-10
 47.46073     48.9 9.906e+03 5.526e-10
 47.48836     49.2 9.931e+03 5.926e-10
 47.51047     49.2 9.730e+03 5.137e-10
 47.54916     50.1 9.796e+03 5.119e-10
 47.57426     50.4 9.875e+03 5.151e-10
 47.59636     50.0 9.889e+03 5.280e-10
 47.63758     50.6 9.976e+03 6.031e-10
 47.66035     51.7 1.015e+04 6.998e-10
 47.68245     51.3 1.046e+04 8.277e-10
 47.72423     52.3 1.058e+04 8.510e-10
 47.74634     51.6 1.060e+04 8.487e-10
 47.77022     52.8 1.042e+04 7.240e-10
 47.81023     52.9 1.030e+04 5.615e-10
 47.83233     52.3 9.996e+03 4.194e-10
 47.85865     51.8 9.999e+03 4.130e-10
 47.89622     51.3 1.016e+04 5.015e-10
 47.91833     51.1 9.624e+03 3.264e-10
 47.94707     51.8 9.691e+03 3.768e-10
 47.98222     52.8 9.590e+03 3.417e-10
 48.00432     53.1 9.141e+03 2.263e-10
 48.03550     53.9 9.109e+03 1.942e-10
 48.06821     54.5 9.124e+03 1.582e-10
 48.09032     55.3 8.986e+03 1.379e-10
 48.12393     56.3 8.994e+03 1.248e-10
 48.15420     57.6 8.951e+03 1.144e-10
 48.17631     58.8 8.935e+03 1.104e-10
 48.21235     60.3 8.909e+03 1.037e-10
 48.24020     61.8 8.906e+03 9.830e-11
 48.26230     63.0 8.908e+03 1.046e-10
 48.30078     64.4 8.960e+03 1.100e-10
 48.32619     65.7 9.099e+03 1.311e-10
 48.34830     67.0 9.135e+03 1.471e-10
 48.38921     68.2 9.379e+03 2.033e-10
 48.41218     69.6 9.716e+03 2.916e-10
 48.43184     70.9 9.712e+03 2.852e-10
 48.45308     71.4 9.451e+03 2.439e-10
 48.47607     72.6 9.741e+03 3.130e-10
 48.49818     73.9 9.677e+03 2.962e-10
 48.52185     74.9 9.826e+03 3.190e-10
 48.56206     75.8 9.795e+03 3.120e-10
 48.58417     77.0 9.699e+03 2.896e-10
 48.61027     77.9 9.552e+03 2.658e-10
 48.64806     78.7 9.295e+03 2.186e-10
 48.67016     79.9 9.275e+03 2.198e-10
 48.69870     80.3 9.011e+03 1.728e-10
 48.73405     80.3 8.993e+03 1.675e-10
 48.75616     81.3 8.967e+03 1.727e-10
 48.78712     80.1 9.290e+03 2.118e-10
 48.81995     78.3 9.946e+03 3.537e-10
 48.84205     78.6 1.006e+04 4.435e-10
 48.87555     77.8 1.057e+04 7.307e-10
 48.90604     76.5 1.102e+04 9.472e-10
 48.92815     77.2 1.092e+04 8.869e-10
 48.96398     74.7 1.092e+04 9.261e-10
 48.99203     73.5 1.051e+04 8.547e-10
 49.01414     74.1 1.058e+04 8.644e-10
 49.05240     74.1 9.939e+03 6.835e-10
 49.07803     73.8 9.345e+03 4.353e-10
 49.10013     74.2 9.510e+03 4.806e-10
 49.14083     73.4 9.284e+03 3.690e-10
 49.16402     72.7 9.337e+03 3.861e-10
 49.18613     72.7 9.496e+03 4.416e-10
 49.22791     72.8 9.517e+03 5.111e-10
 49.25001     73.0 9.773e+03 5.922e-10
 49.27347     73.0 9.781e+03 5.677e-10
 49.31390     72.8 9.628e+03 4.897e-10
 49.33601     72.8 9.472e+03 4.216e-10
 49.36190     72.6 8.997e+03 2.781e-10
 49.39989     72.2 8.430e+03 1.666e-10
 49.42200     71.7 8.164e+03 1.456e-10
 49.45032     71.6 7.816e+03 1.079e-10
 49.48589     72.0 7.615e+03 8.809e-11
 49.50799     72.3 7.652e+03 1.006e-10
 49.53875     73.4 7.674e+03 1.023e-10
 49.57188     74.5 7.771e+03 1.113e-10
 49.59399     74.9 7.923e+03 1.346e-10
 49.62717     76.0 8.060e+03 1.516e-10
 49.65787     77.1 8.233e+03 1.759e-10
 49.67998     77.4 8.391e+03 1.982e-10
 49.71560     78.3 8.547e+03 2.253e-10
 49.74387     79.3 8.728e+03 2.530e-10
 49.75539     79.4 8.873e+03 2.716e-10
 49.77134     80.1 8.756e+03 2.513e-10
 49.80403     81.1 8.819e+03 2.518e-10
 49.82986     82.2 8.815e+03 2.432e-10
 49.85197     82.2 8.971e+03 2.691e-10
 49.89245     83.3 8.979e+03 2.463e-10
 49.91586     84.3 9.003e+03 2.273e-10
 49.93796     83.9 9.316e+03 3.000e-10
 49.97974     84.7 9.447e+03 3.247e-10
 50.00185     84.0 9.842e+03 4.574e-10
 50.02509     84.7 1.011e+04 5.442e-10
 50.06574     84.9 1.049e+04 6.698e-10
 50.08784     83.2 1.113e+04 8.609e-10
 50.11352     82.3 1.176e+04 1.088e-09
 50.15173     81.4 1.217e+04 1.279e-09
 50.17384     78.8 1.241e+04 1.367e-09
 50.19079     79.4 1.207e+04 1.207e-09
 50.20558     79.5 1.200e+04 1.145e-09
 50.21664     78.8 1.176e+04 1.013e-09
 50.23491     79.3 1.158e+04 8.417e-10
 50.24858     79.6 1.147e+04 6.418e-10
 50.25964     79.0 1.134e+04 5.013e-10
 50.27912     78.5 1.135e+04 3.570e-10
 50.29158     77.7 1.101e+04 3.132e-10
 50.30263     77.2 1.082e+04 3.024e-10
 50.32334     76.8 1.080e+04 3.140e-10
 50.33458     76.5 1.077e+04 3.592e-10
 50.34563     76.6 1.081e+04 3.623e-10
 50.36652     76.8 1.093e+04 4.727e-10
 50.37757     77.1 1.103e+04 4.814e-10
 50.38966     77.6 1.120e+04 5.886e-10
 50.40817     78.0 1.139e+04 6.886e-10
 50.41697     77.7 1.194e+04 7.946e-10
 50.42057     77.9 1.218e+04 8.762e-10
 50.43387     77.9 1.237e+04 1.010e-09
 50.45251     77.8 1.249e+04 1.130e-09
 50.46357     77.8 1.262e+04 1.247e-09
 50.47808     77.7 1.270e+04 1.422e-09
 50.49551     77.7 1.268e+04 1.521e-09
 50.50656     77.7 1.286e+04 1.819e-09
 50.52229     77.9 1.283e+04 1.819e-09
 50.53851     78.4 1.268e+04 1.686e-09
 50.54956     78.6 1.299e+04 2.125e-09
 50.56651     79.1 1.283e+04 1.811e-09
 50.58150     79.5 1.254e+04 1.335e-09
 50.59256     79.8 1.298e+04 1.764e-09
 50.61072     79.8 1.272e+04 1.303e-09
 50.62450     79.7 1.222e+04 9.740e-10
 50.63555     79.9 1.279e+04 1.263e-09
 50.65493     79.7 1.234e+04 1.015e-09
 50.66759     80.3 1.177e+04 8.732e-10
 50.67865     80.3 1.226e+04 1.076e-09
 50.69915     80.4 1.216e+04 1.035e-09
 50.71049     81.4 1.174e+04 8.768e-10
 50.72155     81.5 1.192e+04 9.804e-10
 50.74244     81.8 1.186e+04 9.297e-10
 50.75349     82.0 1.220e+04 1.106e-09
 50.76547     82.9 1.173e+04 8.285e-10
 50.78543     83.1 1.162e+04 7.240e-10
 50.79649     83.0 1.166e+04 7.420e-10
 50.80968     83.5 1.135e+04 6.083e-10
 50.82843     83.7 1.134e+04 5.917e-10
 50.83948     83.5 1.138e+04 6.056e-10
 50.86504     84.4 1.131e+04 5.955e-10
 50.89820     84.9 1.134e+04 6.405e-10
 50.91442     85.3 1.150e+04 7.296e-10
 50.92558     84.9 1.149e+04 7.146e-10
 50.94242     85.1 1.172e+04 8.733e-10
 50.95742     85.3 1.203e+04 1.042e-09
 50.96847     85.0 1.199e+04 1.069e-09
 50.98653     85.1 1.229e+04 1.233e-09
 51.00042     85.1 1.262e+04 1.443e-09
 51.01147     84.8 1.258e+04 1.423e-09
 51.03075     84.4 1.295e+04 1.587e-09
 51.04341     84.1 1.325e+04 1.742e-09
 51.05447     83.7 1.310e+04 1.557e-09
 51.06730     82.7 1.358e+04 1.827e-09
 51.07835     83.0 1.291e+04 1.172e-09
 51.08641     81.7 1.334e+04 1.325e-09
 51.09746     81.4 1.277e+04 1.084e-09
 51.11835     80.2 1.297e+04 1.216e-09
 51.12941     79.9 1.238e+04 1.010e-09
 51.14128     78.6 1.246e+04 1.172e-09
 51.16135     77.7 1.246e+04 1.335e-09
 51.17241     77.7 1.220e+04 1.251e-09
 51.18549     77.3 1.232e+04 1.390e-09
 51.20435     77.0 1.239e+04 1.386e-09
 51.21540     77.4 1.238e+04 1.397e-09
 51.22970     77.2 1.231e+04 1.327e-09
 51.24735     76.7 1.226e+04 1.208e-09
 51.25840     77.2 1.221e+04 1.240e-09
 51.27392     76.5 1.212e+04 1.116e-09
 51.29034     75.7 1.194e+04 1.053e-09
 51.30140     76.3 1.192e+04 1.061e-09
 51.31813     75.6 1.177e+04 1.039e-09
 51.33334     75.3 1.167e+04 1.048e-09
 51.34439     76.0 1.162e+04 1.039e-09
 51.36234     75.6 1.151e+04 1.019e-09
 51.39560     76.5 1.132e+04 9.678e-10
 51.41953     76.7 1.081e+04 7.663e-10
 51.44163     77.7 1.068e+04 6.872e-10
 51.48342     77.8 1.015e+04 5.060e-10
 51.50552     78.5 9.984e+03 4.315e-10
 51.52834     78.5 9.769e+03 4.045e-10
 51.56941     78.6 9.811e+03 4.252e-10
 51.59142     78.8 9.824e+03 4.381e-10
 51.60552     78.5 1.012e+04 5.190e-10
 51.62326     78.1 1.047e+04 6.219e-10
 51.63432     78.0 1.058e+04 6.738e-10
 51.65530     77.9 1.104e+04 8.936e-10
 51.67741     77.6 1.123e+04 1.024e-09
 51.69394     76.8 1.160e+04 1.226e-09
 51.70926     76.5 1.170e+04 1.304e-09
 51.71963     76.5 1.169e+04 1.291e-09
 51.72643     76.8 1.155e+04 1.252e-09
 51.73816     76.0 1.150e+04 1.197e-09
 51.75225     75.4 1.141e+04 1.118e-09
 51.76331     75.5 1.124e+04 1.021e-09
 51.79352     72.1 1.132e+04 8.542e-10
 51.82739     66.2 1.169e+04 1.041e-09
 51.84950     65.7 1.124e+04 9.043e-10
 51.88204     62.5 1.166e+04 1.286e-09
 51.91338     59.8 1.188e+04 1.367e-09
 51.93549     59.9 1.126e+04 9.549e-10
 51.97047     57.8 1.078e+04 7.720e-10
 51.99938     55.0 1.037e+04 5.083e-10
 52.02148     54.8 9.988e+03 3.847e-10
 52.05890     50.4 1.056e+04 3.888e-10
 52.08537     47.5 1.031e+04 5.814e-10
 52.10748     47.4 1.011e+04 4.947e-10
 52.12827     44.8 1.012e+04 5.062e-10
 52.13923     45.0 1.003e+04 4.739e-10
 52.15818     44.4 1.002e+04 4.726e-10
 52.17127     42.7 9.739e+03 4.287e-10
 52.19347     42.8 9.527e+03 3.819e-10
 52.23525     42.0 9.090e+03 3.060e-10
 52.25736     42.6 8.958e+03 2.824e-10
 52.27996     42.5 8.663e+03 1.876e-10
 52.32124     41.7 8.435e+03 1.497e-10
 52.34335     42.6 8.373e+03 1.405e-10
 52.36364     43.1 8.386e+03 1.476e-10
 52.38575     41.6 8.350e+03 1.615e-10
 52.40724     42.9 8.411e+03 1.911e-10
 52.42934     43.5 8.558e+03 2.099e-10
 52.45681     45.2 8.661e+03 2.280e-10
 52.49323     46.5 8.688e+03 2.128e-10
 52.51534     47.4 8.938e+03 2.604e-10
 52.54524     48.3 8.944e+03 2.382e-10
 52.57923     49.5 8.919e+03 2.362e-10
 52.60133     50.0 8.984e+03 2.359e-10
 52.63367     51.3 9.058e+03 2.526e-10
 52.66522     52.8 9.115e+03 2.610e-10
 52.68733     53.1 9.108e+03 2.575e-10
 52.72209     54.8 9.022e+03 2.526e-10
 52.75121     57.0 8.904e+03 2.206e-10
 52.77332     57.2 8.868e+03 2.166e-10
 52.81052     58.8 8.993e+03 1.941e-10
 52.83721     59.7 9.271e+03 2.210e-10
 52.85931     59.6 9.189e+03 2.225e-10
 52.89895     60.4 9.910e+03 4.123e-10
 52.92310     59.5 1.007e+04 6.138e-10
 52.94521     61.1 1.068e+04 6.719e-10
 52.96610     60.9 1.123e+04 1.034e-09
 52.97705     62.0 1.079e+04 8.219e-10
 52.99795     60.8 1.256e+04 1.323e-09
 53.00900     62.5 1.125e+04 9.210e-10
 53.02034     59.9 1.439e+04 1.807e-09
 53.03363     56.8 1.685e+04 4.167e-09
 53.04318     56.7 1.682e+04 3.660e-09
 53.05200     59.1 1.551e+04 2.173e-09
 53.06455     56.7 1.686e+04 5.339e-09
 53.08394     55.7 1.752e+04 9.405e-09
 53.09499     57.2 1.714e+04 7.518e-09
 53.10876     55.2 1.929e+04 1.334e-08
 53.12529     52.8 2.147e+04 2.090e-08
 53.13236     51.8 2.278e+04 2.326e-08
 53.13789     51.4 2.306e+04 3.066e-08
 53.14735     49.5 2.414e+04 3.342e-08
 53.15386     45.1 2.448e+04 3.096e-08
 53.15939     45.4 2.536e+04 5.615e-08
 53.16946     39.6 2.477e+04 4.775e-08
 53.17536     35.0 2.364e+04 4.022e-08
 53.18089     35.6 2.444e+04 7.453e-08
 53.19133     32.0 2.375e+04 5.565e-08
 53.19686     32.3 2.437e+04 8.902e-08
 53.20262     28.3 2.343e+04 5.571e-08
 53.21283     25.0 2.235e+04 3.668e-08
 53.21836     24.2 2.291e+04 3.697e-08
 53.22473     22.0 2.138e+04 2.324e-08
 53.24135     19.4 1.965e+04 1.366e-08
 53.25593     16.9 1.820e+04 7.871e-09
 53.26698     13.8 1.748e+04 5.024e-09
 53.28562      9.0 1.473e+04 2.637e-09
 53.29892      6.6 1.336e+04 1.982e-09
 53.30998      5.5 1.325e+04 1.976e-09
 53.32983      4.5 1.295e+04 1.847e-09
 53.34192      3.7 1.261e+04 1.699e-09
 53.35297      4.0 1.293e+04 1.970e-09
 53.37386      3.5 1.256e+04 1.787e-09
 53.38492      4.3 1.275e+04 1.990e-09
 53.39615      3.9 1.224e+04 1.578e-09
 53.41686      3.0 1.189e+04 1.225e-09
 53.42791      2.9 1.241e+04 1.367e-09
 53.44036     -1.9 1.381e+04 1.295e-09
 53.45986     -9.3 1.630e+04 1.954e-09
 53.47091    -12.7 1.735e+04 3.116e-09
 53.47900    -15.7 1.697e+04 4.345e-09
 53.48678    -16.8 1.719e+04 5.264e-09
 53.49231    -18.8 1.778e+04 7.465e-09
 53.50106    -20.1 1.822e+04 1.110e-08
 53.50828    -20.5 1.893e+04 1.501e-08
 53.51381    -21.5 1.972e+04 2.047e-08
 53.52316    -21.7 2.022e+04 2.422e-08
 53.52978    -22.2 2.055e+04 2.611e-08
 53.53531    -23.1 2.067e+04 2.909e-08
 53.54527    -23.7 2.075e+04 2.672e-08
 53.55128    -24.6 2.078e+04 2.404e-08
 53.55681    -25.7 2.064e+04 2.210e-08
 53.56725    -26.9 2.024e+04 1.805e-08
 53.57278    -28.5 1.957e+04 1.459e-08
 53.57843    -30.2 1.854e+04 1.132e-08
 53.58875    -31.7 1.743e+04 9.057e-09
 53.59428    -33.2 1.641e+04 6.939e-09
 53.60054    -33.6 1.589e+04 6.110e-09
 53.61717    -33.6 1.556e+04 5.262e-09
 53.63184    -34.0 1.504e+04 4.450e-09
 53.64290    -35.4 1.420e+04 3.126e-09
 53.66143    -36.0 1.394e+04 2.859e-09
 53.67484    -36.8 1.386e+04 2.774e-09
 53.68407    -37.9 1.326e+04 2.121e-09
 53.69276    -38.6 1.363e+04 2.509e-09
 53.70564    -39.0 1.368e+04 2.739e-09
 53.71784    -39.3 1.368e+04 2.979e-09
 53.72889    -39.6 1.306e+04 2.311e-09
 53.74978    -39.6 1.318e+04 2.629e-09
 53.77189    -39.4 1.263e+04 2.143e-09
 53.79278    -39.3 1.264e+04 2.192e-09
 53.80383    -39.0 1.188e+04 1.508e-09
 53.81617    -38.9 1.181e+04 1.499e-09
 53.83577    -38.7 1.152e+04 1.371e-09
 53.84683    -38.9 1.076e+04 9.128e-10
 53.86039    -39.0 1.050e+04 8.412e-10
 53.87877    -39.4 1.027e+04 7.825e-10
 53.88982    -39.7 9.742e+03 5.898e-10
 53.90460    -39.9 9.688e+03 6.207e-10
 53.92177    -40.0 9.725e+03 6.623e-10
 53.93282    -40.2 9.811e+03 6.787e-10
 53.94881    -41.0 1.046e+04 7.857e-10
 53.96477    -42.5 1.185e+04 9.845e-10
 53.97582    -48.4 1.682e+04 2.573e-09
 53.99303    -50.7 1.774e+04 3.994e-09
 54.00776    -53.0 1.788e+04 5.499e-09
 54.01882    -55.2 1.855e+04 9.653e-09
 54.03724    -56.3 1.788e+04 9.858e-09
 54.05076    -57.2 1.754e+04 9.833e-09
 54.05624    -57.4 1.760e+04 9.781e-09
 54.06477    -57.7 1.744e+04 8.969e-09
 54.08140    -58.6 1.720e+04 7.616e-09
 54.09376    -59.5 1.704e+04 6.435e-09
 54.10481    -60.9 1.765e+04 4.175e-09
 54.12567    -62.9 1.732e+04 3.062e-09
 54.14777    -69.2 1.580e+04 1.727e-09
 54.16870    -70.3 1.589e+04 1.649e-09
 54.17975    -72.4 1.339e+04 1.948e-09
 54.19199    -72.4 1.422e+04 2.106e-09
 54.21169    -72.2 1.504e+04 2.544e-09
 54.22275    -72.3 1.401e+04 2.865e-09
 54.23620    -71.8 1.441e+04 3.243e-09
 54.25469    -71.7 1.562e+04 3.938e-09
 54.26574    -71.0 1.416e+04 3.521e-09
 54.28041    -71.2 1.543e+04 4.245e-09
 54.29769    -71.5 1.690e+04 6.157e-09
 54.30874    -70.5 1.507e+04 4.123e-09
 54.32462    -71.1 1.632e+04 5.259e-09
 54.34068    -71.5 1.731e+04 6.405e-09
 54.34584    -71.5 1.529e+04 3.566e-09
 54.35189    -74.8 1.334e+04 2.140e-09
 54.36884    -76.0 1.333e+04 2.198e-09
 54.38368    -77.1 1.324e+04 2.201e-09
 54.39473    -77.0 1.208e+04 1.725e-09
 54.41305    -77.8 1.205e+04 1.735e-09
 54.42668    -78.4 1.205e+04 1.712e-09
 54.43773    -77.6 1.213e+04 1.729e-09
 54.45726    -78.2 1.215e+04 1.728e-09
 54.46967    -78.7 1.217e+04 1.710e-09
 54.48073    -78.1 1.222e+04 1.797e-09
 54.50148    -78.8 1.217e+04 1.731e-09
 54.51267    -79.4 1.204e+04 1.648e-09
 54.52372    -79.0 1.188e+04 1.614e-09
 54.54461    -79.6 1.166e+04 1.470e-09
 54.55567    -79.2 1.147e+04 1.408e-09
 54.56780    -79.8 1.117e+04 1.232e-09
 54.58761    -80.2 1.082e+04 1.058e-09
 54.59866    -80.0 1.060e+04 9.872e-10
 54.61201    -80.3 1.015e+04 7.970e-10
 54.63061    -80.3 9.684e+03 6.222e-10
 54.64166    -80.1 9.515e+03 5.729e-10
 54.65622    -80.2 9.105e+03 4.426e-10
 54.67360    -80.3 8.852e+03 3.653e-10
 54.68466    -79.7 8.884e+03 3.704e-10
 54.71159    -79.6 8.722e+03 3.286e-10
 54.74874    -79.0 8.417e+03 2.714e-10
 54.77085    -78.2 8.313e+03 2.643e-10
 54.80011    -77.5 8.189e+03 2.430e-10
 54.83473    -77.2 8.180e+03 2.396e-10
 54.85684    -76.9 8.275e+03 2.626e-10
 54.88854    -77.3 8.762e+03 3.366e-10
 54.92073    -78.2 9.282e+03 4.501e-10
 54.94283    -77.8 9.485e+03 5.214e-10
 54.97696    -79.9 9.485e+03 5.305e-10
 55.00016    -82.0 9.206e+03 4.214e-10
 55.00781    -80.8 9.385e+03 4.765e-10
 55.02883    -79.6 9.202e+03 4.329e-10
 55.06539    -81.0 8.598e+03 2.892e-10
 55.09271    -82.5 7.955e+03 1.977e-10
 55.11482    -80.5 7.721e+03 1.709e-10
 55.15382    -81.0 7.394e+03 1.365e-10
 55.17871    -80.8 7.300e+03 1.288e-10
 55.20081    -78.6 7.092e+03 1.054e-10
 55.24224    -78.0 7.026e+03 1.043e-10
 55.26470    -77.0 7.100e+03 1.168e-10
 55.28681    -74.8 6.869e+03 9.140e-11
 55.32859    -73.5 6.935e+03 1.050e-10
 55.35070    -71.2 6.927e+03 9.222e-11
 55.37488    -69.8 6.976e+03 1.033e-10
 55.41458    -68.4 7.115e+03 1.182e-10
 55.43669    -65.9 7.106e+03 1.154e-10
 55.46331    -64.6 7.209e+03 1.276e-10
 55.50058    -63.5 7.582e+03 1.577e-10
 55.52268    -60.9 7.371e+03 1.408e-10
 55.55173    -59.9 7.593e+03 1.669e-10
 55.58657    -59.6 8.678e+03 2.787e-10
 55.60868    -56.6 7.853e+03 1.869e-10
 55.64016    -57.0 9.360e+03 3.760e-10
 55.67256    -57.4 1.083e+04 8.323e-10
 55.69467    -54.7 1.031e+04 5.897e-10
 55.72859    -55.2 1.153e+04 1.216e-09
 55.75846    -54.7 1.187e+04 1.520e-09
 55.76942    -53.0 1.172e+04 1.364e-09
 55.78366    -53.6 1.203e+04 1.566e-09
 55.80136    -54.7 1.221e+04 1.804e-09
 55.81241    -53.4 1.222e+04 1.824e-09
 55.82787    -54.4 1.219e+04 1.878e-09
 55.84436    -55.0 1.176e+04 1.649e-09
 55.85541    -53.9 1.204e+04 1.888e-09
 55.87208    -54.1 1.157e+04 1.494e-09
 55.88735    -54.3 1.107e+04 1.103e-09
 55.89841    -53.2 1.139e+04 1.339e-09
 55.91630    -53.4 1.086e+04 9.700e-10
 55.93035    -53.6 1.042e+04 7.059e-10
 55.94140    -52.5 1.063e+04 8.513e-10
 55.96051    -52.7 1.024e+04 6.387e-10
 55.97335    -52.6 1.000e+04 5.017e-10
 55.98440    -51.5 1.015e+04 6.055e-10
 56.00472    -51.3 9.978e+03 4.907e-10
 56.01644    -51.2 9.830e+03 3.875e-10
 56.02749    -49.8 9.993e+03 4.915e-10
 56.04829    -49.2 9.940e+03 4.398e-10
 56.05934    -48.2 1.002e+04 4.924e-10
 56.08033    -47.9 9.986e+03 4.234e-10
 56.10243    -46.0 1.008e+04 4.586e-10
 56.12641    -44.7 1.017e+04 4.492e-10
 56.16642    -43.1 1.016e+04 4.316e-10
 56.18853    -41.5 1.032e+04 4.715e-10
 56.21493    -40.1 1.032e+04 4.720e-10
 56.25241    -38.5 1.036e+04 4.766e-10
 56.27452    -36.6 1.053e+04 5.494e-10
 56.29632    -35.4 1.064e+04 5.650e-10
 56.31842    -34.1 1.065e+04 5.770e-10
 56.33841    -33.2 1.081e+04 6.112e-10
 56.36051    -31.3 1.093e+04 6.791e-10
 56.39178    -30.6 1.115e+04 7.342e-10
 56.42440    -30.3 1.151e+04 8.366e-10
 56.44651    -28.5 1.153e+04 8.583e-10
 56.48021    -28.5 1.199e+04 1.020e-09
 56.51030    -28.6 1.212e+04 1.057e-09
 56.52125    -28.0 1.203e+04 1.024e-09
 56.53528    -28.8 1.211e+04 1.075e-09
 56.55319    -29.5 1.212e+04 1.088e-09
 56.56425    -28.8 1.192e+04 1.007e-09
 56.57949    -29.3 1.192e+04 9.830e-10
 56.59619    -29.6 1.167e+04 8.601e-10
 56.60724    -29.0 1.148e+04 7.725e-10
 56.62371    -29.1 1.123e+04 6.740e-10
 56.63919    -28.9 1.106e+04 6.023e-10
 56.65024    -28.3 1.083e+04 5.057e-10
 56.66792    -28.3 1.061e+04 4.259e-10
 56.68228    -28.2 1.037e+04 3.552e-10
 56.70449    -27.2 1.002e+04 2.665e-10
 56.74549    -26.1 9.674e+03 1.938e-10
 56.76837    -24.6 9.453e+03 1.475e-10
 56.79048    -23.3 9.310e+03 1.421e-10
 56.83226    -21.8 9.267e+03 1.234e-10
 56.85437    -20.3 9.255e+03 1.241e-10
 56.87813    -18.8 9.264e+03 1.183e-10
 56.91825    -17.4 9.281e+03 1.167e-10
 56.94036    -15.7 9.263e+03 1.189e-10
 56.96655    -14.4 9.270e+03 1.192e-10
 57.00425    -13.2 9.301e+03 1.235e-10
 57.02635    -11.8 9.346e+03 1.380e-10
 57.05498    -10.7 9.428e+03 1.542e-10
 57.09024     -9.7 9.508e+03 1.710e-10
 57.11235     -8.6 9.619e+03 2.037e-10
 57.14341     -7.8 9.653e+03 2.131e-10
 57.17624     -7.0 9.676e+03 2.176e-10
 57.19834     -6.1 9.694e+03 2.299e-10
 57.23183     -5.5 9.691e+03 2.225e-10
 57.26223     -5.1 9.721e+03 2.231e-10
 57.28434     -4.3 9.714e+03 2.250e-10
 57.32026     -4.2 9.851e+03 2.407e-10
 57.34822     -4.0 9.995e+03 2.752e-10
 57.37033     -3.4 1.004e+04 3.039e-10
 57.40869     -3.2 1.013e+04 3.435e-10
 57.43422     -3.0 1.014e+04 3.560e-10
 57.45632     -2.3 1.023e+04 4.100e-10
 57.49711     -1.6 1.007e+04 3.519e-10
 57.52021     -0.6 9.877e+03 2.768e-10
 57.54232      0.2 9.864e+03 2.751e-10
 57.58410      1.5 9.728e+03 2.188e-10
 57.60620      2.4 9.671e+03 2.093e-10
 57.61457      3.9 9.610e+03 1.742e-10
 57.63668      3.7 9.900e+03 2.505e-10
 57.67009      5.4 9.865e+03 2.140e-10
 57.69220      6.5 9.744e+03 1.806e-10
 57.71818      8.4 9.769e+03 1.615e-10
 57.75608     10.3 9.799e+03 1.569e-10
 57.77819     11.4 9.704e+03 1.471e-10
 57.80660     12.9 9.951e+03 1.607e-10
 57.84208     14.2 1.050e+04 2.553e-10
 57.86418     15.2 1.049e+04 2.718e-10
 57.89503     16.8 1.104e+04 4.904e-10
 57.92807     18.1 1.161e+04 8.448e-10
 57.95018     19.3 1.150e+04 7.708e-10
 57.98346     20.1 1.221e+04 1.081e-09
 58.01397     20.3 1.245e+04 1.154e-09
 58.02492     20.4 1.168e+04 9.611e-10
 58.03853     18.2 1.437e+04 1.162e-09
 58.05687     13.9 2.006e+04 2.575e-09
 58.06792     16.9 1.856e+04 1.314e-09
 58.08274      8.4 2.160e+04 6.585e-09
 58.09927      4.0 2.180e+04 1.783e-08
 58.10529      2.6 2.178e+04 2.695e-08
 58.11087      5.1 2.196e+04 1.650e-08
 58.12131      2.2 2.185e+04 3.775e-08
 58.12679      2.7 2.199e+04 3.634e-08
 58.13238      2.0 2.252e+04 4.511e-08
 58.14276      0.4 2.275e+04 4.737e-08
 58.14829      1.1 2.316e+04 4.812e-08
 58.15449     -1.5 2.364e+04 4.323e-08
 58.16426     -5.6 2.350e+04 2.304e-08
 58.16979     -4.3 2.385e+04 2.924e-08
 58.17660     -8.9 2.234e+04 1.432e-08
 58.18581    -14.8 1.904e+04 7.100e-09
 58.19691    -12.0 2.058e+04 1.061e-08
 58.21538    -19.7 1.580e+04 4.778e-09
 58.22885    -23.9 1.403e+04 3.562e-09
 58.23991    -22.6 1.451e+04 4.006e-09
 58.25959    -25.0 1.419e+04 3.561e-09
 58.27185    -27.4 1.431e+04 3.541e-09
 58.27471    -26.9 1.450e+04 3.719e-09
 58.28456    -28.9 1.435e+04 3.375e-09
 58.30379    -31.6 1.433e+04 3.454e-09
 58.32590    -33.3 1.413e+04 3.505e-09
 58.34679    -34.8 1.391e+04 3.325e-09
 58.35784    -34.4 1.360e+04 2.870e-09
 58.37013    -35.6 1.322e+04 2.242e-09
 58.38979    -37.1 1.272e+04 1.550e-09
 58.40084    -36.9 1.243e+04 1.300e-09
 58.41434    -38.7 1.191e+04 8.962e-10
 58.43278    -40.5 1.139e+04 6.585e-10
 58.44384    -40.1 1.133e+04 6.539e-10
 58.45855    -41.3 1.104e+04 5.719e-10
 58.47578    -42.0 1.086e+04 5.200e-10
 58.48683    -41.3 1.096e+04 5.748e-10
 58.50277    -41.7 1.086e+04 5.372e-10
 58.51878    -42.0 1.084e+04 4.946e-10
 58.52983    -41.5 1.093e+04 5.629e-10
 58.54698    -41.6 1.092e+04 5.159e-10
 58.56178    -41.7 1.093e+04 4.922e-10
 58.57283    -41.7 1.097e+04 5.467e-10
 58.59119    -41.9 1.098e+04 5.069e-10
 58.60477    -42.2 1.099e+04 4.757e-10
 58.61583    -42.1 1.099e+04 5.053e-10
 58.63541    -42.0 1.098e+04 4.666e-10
 58.64777    -42.1 1.096e+04 4.480e-10
 58.65882    -42.2 1.094e+04 4.591e-10
 58.67981    -42.4 1.083e+04 4.145e-10
 58.70201    -42.0 1.089e+04 4.237e-10
 58.73508    -41.8 1.058e+04 3.593e-10
 58.76590    -41.1 1.029e+04 3.049e-10
 58.78801    -40.5 1.030e+04 3.103e-10
 58.82351    -39.5 1.024e+04 2.841e-10
 58.85190    -38.4 1.026e+04 2.740e-10
 58.87400    -37.7 1.034e+04 2.915e-10
 58.91073    -36.8 1.037e+04 2.919e-10
 58.93283    -38.7 1.059e+04 3.089e-10
 58.93789    -37.7 1.079e+04 3.432e-10
 58.96000    -37.2 1.106e+04 4.213e-10
 59.00036    -36.1 1.112e+04 4.441e-10
 59.02388    -35.0 1.111e+04 4.399e-10
 59.04599    -34.4 1.125e+04 4.735e-10
 59.08777    -33.2 1.105e+04 4.159e-10
 59.10988    -32.6 1.103e+04 4.105e-10
 59.13300    -31.0 1.081e+04 3.482e-10
 59.17376    -29.2 1.062e+04 2.927e-10
 59.19587    -28.4 1.062e+04 2.777e-10
 59.22142    -26.4 1.050e+04 2.327e-10
 59.25976    -24.4 1.044e+04 1.963e-10
 59.28186    -23.4 1.046e+04 1.875e-10
 59.30985    -21.3 1.043e+04 1.644e-10
 59.34575    -19.3 1.039e+04 1.438e-10
 59.36786    -18.2 1.042e+04 1.473e-10
 59.39828    -16.2 1.041e+04 1.314e-10
 59.43174    -14.3 1.041e+04 1.182e-10
 59.45385    -13.2 1.045e+04 1.314e-10
 59.48670    -11.3 1.046e+04 1.221e-10
 59.51774     -9.4 1.046e+04 1.168e-10
 59.53984     -8.3 1.052e+04 1.367e-10
 59.57513     -6.5 1.053e+04 1.307e-10
 59.60373     -4.6 1.053e+04 1.258e-10
 59.62584     -3.5 1.063e+04 1.469e-10
 59.66356     -1.7 1.061e+04 1.378e-10
 59.68972      0.1 1.057e+04 1.315e-10
 59.71183      1.2 1.069e+04 1.532e-10
 59.75198      3.0 1.066e+04 1.468e-10
 59.77572      4.9 1.066e+04 1.407e-10
 59.79782      5.9 1.077e+04 1.654e-10
 59.83961      7.8 1.074e+04 1.546e-10
 59.86171      8.8 1.084e+04 1.818e-10
 59.88462     10.7 1.079e+04 1.607e-10
 59.92560     12.6 1.074e+04 1.360e-10
 59.94771     13.7 1.079e+04 1.561e-10
 59.97305     15.6 1.073e+04 1.257e-10
 60.01159     17.6 1.069e+04 1.008e-10
 60.03370     18.6 1.072e+04 1.174e-10
 60.06147     20.5 1.068e+04 9.642e-11
 60.09759     22.4 1.065e+04 8.368e-11
 60.11969     23.4 1.065e+04 9.964e-11
 60.14990     25.2 1.061e+04 9.084e-11
 60.18358     27.1 1.059e+04 8.693e-11
 60.20569     28.1 1.059e+04 1.003e-10
 60.22899     30.0 1.059e+04 9.703e-11
 60.25109     29.4 1.056e+04 9.787e-11
 60.26957     31.2 1.053e+04 9.546e-11
 60.29168     32.3 1.054e+04 1.049e-10
 60.32675     34.1 1.053e+04 1.042e-10
 60.35557     35.8 1.054e+04 1.047e-10
 60.37767     37.0 1.055e+04 1.129e-10
 60.41518     38.6 1.061e+04 1.187e-10
 60.44156     40.1 1.068e+04 1.314e-10
 60.46367     41.2 1.070e+04 1.344e-10
 60.50361     42.6 1.077e+04 1.449e-10
 60.52755     43.9 1.085e+04 1.543e-10
 60.54966     44.8 1.086e+04 1.458e-10
 60.59144     45.9 1.092e+04 1.513e-10
 60.61355     46.8 1.090e+04 1.449e-10
 60.63624     47.7 1.097e+04 1.617e-10
 60.67744     48.5 1.105e+04 1.910e-10
 60.69954     49.2 1.107e+04 2.097e-10
 60.72467     49.8 1.130e+04 2.826e-10
 60.76343     50.2 1.160e+04 3.727e-10
 60.78554     50.6 1.191e+04 4.636e-10
 60.81310     50.4 1.215e+04 5.389e-10
 60.84942     49.9 1.225e+04 5.719e-10
 60.87153     49.6 1.232e+04 5.783e-10
 60.90152     48.8 1.229e+04 5.710e-10
 60.93542     47.4 1.239e+04 5.842e-10
 60.95752     47.1 1.237e+04 5.309e-10
 60.98995     45.3 1.248e+04 6.077e-10
 61.02141     44.0 1.265e+04 7.901e-10
 61.04352     44.6 1.270e+04 8.497e-10
 61.06431     43.9 1.290e+04 9.855e-10
 61.07526     44.2 1.298e+04 1.057e-09
 61.08923     42.7 1.299e+04 1.128e-09
 61.10721     41.3 1.290e+04 1.152e-09
 61.11826     41.6 1.282e+04 1.214e-09
 61.13345     40.6 1.244e+04 1.130e-09
 61.16670     40.5 1.230e+04 1.058e-09
 61.19340     40.4 1.219e+04 9.147e-10
 61.21550     41.6 1.234e+04 1.022e-09
 61.25523     40.5 1.207e+04 7.549e-10
 61.27939     39.5 1.173e+04 5.494e-10
 61.30150     40.7 1.178e+04 5.845e-10
 61.34328     40.3 1.154e+04 4.584e-10
 61.36538     41.4 1.159e+04 4.948e-10
 61.38787     41.4 1.145e+04 4.235e-10
 61.42927     41.6 1.134e+04 3.756e-10
 61.45138     42.8 1.140e+04 4.196e-10
 61.47629     43.3 1.133e+04 3.945e-10
 61.51526     43.7 1.128e+04 3.763e-10
 61.53737     45.0 1.140e+04 4.451e-10
 61.54725     45.3 1.142e+04 4.368e-10
 61.56935     44.8 1.153e+04 4.194e-10
 61.60126     45.0 1.154e+04 4.144e-10
 61.62336     46.2 1.177e+04 4.821e-10
 61.65315     46.1 1.172e+04 4.912e-10
 61.68725     45.9 1.167e+04 5.017e-10
 61.70936     46.7 1.179e+04 5.709e-10
 61.74157     46.5 1.156e+04 5.509e-10
 61.77325     46.8 1.138e+04 4.907e-10
 61.79535     47.8 1.141e+04 5.181e-10
 61.83000     48.1 1.130e+04 4.120e-10
 61.85924     48.3 1.118e+04 3.217e-10
 61.88135     49.0 1.122e+04 3.273e-10
 61.91843     49.3 1.111e+04 2.643e-10
 61.94523     49.9 1.105e+04 2.339e-10
 61.96734     50.8 1.105e+04 2.193e-10
 62.00685     51.7 1.101e+04 1.964e-10
 62.03123     52.7 1.099e+04 1.811e-10
 62.05333     53.7 1.099e+04 1.593e-10
 62.09511     54.8 1.098e+04 1.468e-10
 62.13933     57.1 1.099e+04 1.282e-10
 62.18111     58.4 1.100e+04 1.225e-10
 62.20321     59.5 1.100e+04 1.219e-10
 62.22792     60.9 1.102e+04 1.159e-10
 62.26710     62.2 1.104e+04 1.120e-10
 62.28921     63.3 1.108e+04 1.180e-10
 62.31634     64.6 1.111e+04 1.201e-10
 62.35309     65.8 1.113e+04 1.275e-10
 62.37520     66.9 1.113e+04 1.426e-10
 62.40477     68.1 1.113e+04 1.576e-10
 62.43909     69.4 1.115e+04 1.735e-10
 62.46119     70.4 1.115e+04 1.860e-10
 62.49320     71.5 1.117e+04 1.952e-10
 62.52508     72.4 1.122e+04 2.013e-10
 62.54719     73.2 1.116e+04 1.982e-10
 62.58162     74.0 1.120e+04 2.048e-10
 62.61108     74.8 1.125e+04 2.345e-10
 62.63318     75.7 1.108e+04 2.185e-10
 62.67005     76.6 1.114e+04 2.622e-10
 62.69707     77.3 1.123e+04 3.106e-10
 62.71918     78.2 1.118e+04 3.093e-10
 62.75848     78.8 1.133e+04 3.647e-10
 62.78306     79.4 1.147e+04 4.387e-10
 62.80517     80.4 1.152e+04 5.201e-10
 62.82596     80.7 1.169e+04 6.023e-10
 62.83692     81.1 1.174e+04 6.822e-10
 62.85426     81.0 1.179e+04 7.919e-10
 62.86531     81.5 1.181e+04 8.292e-10
 62.87987     82.6 1.209e+04 1.073e-09
 62.90080     83.0 1.223e+04 1.165e-09
 62.91186     83.3 1.247e+04 1.337e-09
 62.92408     83.5 1.267e+04 1.425e-09
 62.94380     83.5 1.284e+04 1.489e-09
 62.95485     83.2 1.317e+04 1.773e-09
 62.96829     82.8 1.323e+04 1.807e-09
 62.98680     82.2 1.320e+04 1.784e-09
 62.99785     81.7 1.325e+04 1.900e-09
 63.01251     80.4 1.329e+04 1.748e-09
 63.02979     77.9 1.352e+04 1.687e-09
 63.04085     77.3 1.358e+04 1.698e-09
 63.05672     73.8 1.427e+04 2.216e-09
 63.07279     70.9 1.474e+04 3.211e-09
 63.08384     70.6 1.469e+04 3.242e-09
 63.10093     68.1 1.506e+04 4.096e-09
 63.11579     65.1 1.521e+04 4.285e-09
 63.12684     63.9 1.530e+04 4.283e-09
 63.14514     59.3 1.530e+04 4.056e-09
 63.15879     54.3 1.476e+04 3.586e-09
 63.16984     52.7 1.468e+04 3.672e-09
 63.18936     48.8 1.420e+04 3.456e-09
 63.20178     46.0 1.400e+04 3.311e-09
 63.21284     45.1 1.373e+04 2.995e-09
 63.23357     42.6 1.332e+04 2.388e-09
 63.24478     39.5 1.259e+04 1.574e-09
 63.25583     38.5 1.195e+04 1.286e-09
 63.27672     35.3 1.094e+04 8.195e-10
 63.28778     35.3 1.074e+04 7.863e-10
 63.29989     33.6 1.031e+04 5.715e-10
 63.31972     32.3 9.963e+03 4.302e-10
 63.33077     33.1 9.987e+03 4.307e-10
 63.34410     32.2 9.724e+03 3.538e-10
 63.36281     31.6 9.591e+03 3.165e-10
 63.38502     32.7 9.634e+03 3.207e-10
 63.42167     32.7 9.294e+03 2.582e-10
 63.44891     33.0 8.973e+03 2.256e-10
 63.47101     33.6 9.105e+03 2.349e-10
 63.51010     34.5 9.048e+03 2.297e-10
 63.53490     35.6 9.204e+03 2.470e-10
 63.55701     36.3 9.155e+03 2.454e-10
 63.59852     37.6 9.508e+03 3.012e-10
 63.62089     39.3 9.771e+03 3.735e-10
 63.64300     40.1 9.804e+03 3.898e-10
 63.68478     41.7 1.008e+04 4.975e-10
 63.70689     42.9 1.012e+04 5.210e-10
 63.72001     43.8 1.046e+04 6.586e-10
 63.73863     44.1 1.067e+04 7.278e-10
 63.74969     44.3 1.081e+04 7.953e-10
 63.77068     45.4 1.133e+04 9.818e-10
 63.79278     45.7 1.161e+04 1.097e-09
 63.80834     46.0 1.212e+04 1.388e-09
 63.82463     46.0 1.251e+04 1.664e-09
 63.83568     45.9 1.272e+04 1.815e-09
 63.85256     46.0 1.300e+04 2.074e-09
 63.86762     46.1 1.320e+04 2.249e-09
 63.87868     45.9 1.319e+04 2.214e-09
 63.89677     45.9 1.336e+04 2.333e-09
 63.91062     45.9 1.359e+04 2.455e-09
 63.92167     45.5 1.350e+04 2.209e-09
 63.94098     45.3 1.383e+04 2.348e-09
 63.95362     44.9 1.420e+04 2.541e-09
 63.96467     44.1 1.403e+04 2.204e-09
 63.98519     43.4 1.429e+04 2.443e-09
 63.99662     42.5 1.439e+04 2.665e-09
 64.00767     41.4 1.399e+04 2.459e-09
 64.02856     40.4 1.396e+04 2.636e-09
 64.03961     39.3 1.374e+04 2.625e-09
 64.05151     38.4 1.375e+04 2.797e-09
 64.07156     37.5 1.374e+04 2.863e-09
 64.08261     36.4 1.377e+04 2.887e-09
 64.09573     35.4 1.372e+04 2.832e-09
 64.11455     34.5 1.367e+04 2.897e-09
 64.12561     33.4 1.371e+04 2.961e-09
 64.13994     32.8 1.380e+04 3.162e-09
 64.15755     32.6 1.400e+04 3.487e-09
 64.16802     31.4 1.438e+04 3.706e-09
 64.17252     30.8 1.454e+04 3.395e-09
 64.18415     30.5 1.499e+04 3.992e-09
 64.20055     30.4 1.535e+04 4.439e-09
 64.21160     28.8 1.580e+04 5.143e-09
 64.22837     28.8 1.585e+04 5.312e-09
 64.24354     28.8 1.576e+04 5.192e-09
 64.25460     27.4 1.592e+04 5.616e-09
 64.27258     27.7 1.548e+04 4.727e-09
 64.28654     27.7 1.504e+04 3.748e-09
 64.29759     26.8 1.491e+04 3.444e-09
 64.31679     26.7 1.439e+04 2.465e-09
 64.32954     26.6 1.394e+04 1.773e-09
 64.34059     25.5 1.388e+04 1.701e-09
 64.36101     25.1 1.351e+04 1.341e-09
 64.37253     25.0 1.321e+04 1.127e-09
 64.38359     24.3 1.321e+04 1.162e-09
 64.40448     24.8 1.303e+04 1.064e-09
 64.41553     24.5 1.308e+04 1.127e-09
 64.43652     26.1 1.294e+04 1.020e-09
 64.45872     25.6 1.299e+04 1.139e-09
 64.48279     27.6 1.281e+04 1.007e-09
 64.52261     29.2 1.288e+04 9.205e-10
 64.54472     27.9 1.289e+04 9.178e-10
 64.57121     29.2 1.291e+04 8.671e-10
 64.60860     29.9 1.295e+04 8.610e-10
 64.63071     28.6 1.275e+04 7.669e-10
 64.65964     29.2 1.265e+04 7.416e-10
 64.69460     30.1 1.265e+04 7.598e-10
 64.71670     29.5 1.228e+04 6.161e-10
 64.74807     30.6 1.229e+04 5.980e-10
 64.78059     31.6 1.225e+04 5.508e-10
 64.80270     31.1 1.189e+04 4.225e-10
 64.83649     32.4 1.191e+04 4.153e-10
 64.86658     33.6 1.206e+04 4.190e-10
 64.88869     33.7 1.199e+04 3.778e-10
 64.92492     35.1 1.238e+04 4.682e-10
 64.95258     36.6 1.278e+04 6.498e-10
 64.97468     37.0 1.261e+04 5.357e-10
 65.01335     38.5 1.300e+04 7.475e-10
 65.03857     39.9 1.343e+04 1.029e-09
 65.06068     40.2 1.315e+04 8.574e-10
 65.10177     41.5 1.351e+04 1.146e-09
 65.12456     42.6 1.378e+04 1.405e-09
 65.14667     42.5 1.357e+04 1.354e-09
 65.18845     43.5 1.378e+04 1.531e-09
 65.21056     43.2 1.356e+04 1.444e-09
 65.23441     44.1 1.357e+04 1.447e-09
 65.27445     45.0 1.336e+04 1.281e-09
 65.29655     44.1 1.325e+04 1.282e-09
 65.32284     44.3 1.290e+04 1.081e-09
 65.36044     44.4 1.259e+04 9.350e-10
 65.38255     43.1 1.268e+04 1.059e-09
 65.41126     43.2 1.233e+04 9.082e-10
 65.44643     44.0 1.193e+04 7.626e-10
 65.46854     42.5 1.228e+04 9.501e-10
 65.47992     43.6 1.175e+04 7.177e-10
 65.50202     42.4 1.225e+04 9.370e-10
 65.53243     43.9 1.180e+04 6.902e-10
 65.55453     43.1 1.178e+04 6.923e-10
 65.58812     44.7 1.144e+04 5.068e-10
 65.61842     46.3 1.124e+04 4.158e-10
 65.64053     46.4 1.126e+04 4.382e-10
 65.67654     48.4 1.117e+04 4.114e-10
 65.70441     50.4 1.114e+04 4.057e-10
 65.72652     50.7 1.142e+04 5.054e-10
 65.76497     52.3 1.167e+04 6.416e-10
 65.79041     53.8 1.210e+04 9.228e-10
 65.81251     54.2 1.244e+04 1.158e-09
 65.85339     55.5 1.292e+04 1.603e-09
 65.87640     56.6 1.336e+04 2.040e-09
 65.89851     56.8 1.338e+04 2.048e-09
 65.94029     57.3 1.352e+04 2.183e-09
 65.96239     57.7 1.339e+04 2.065e-09
 65.98603     58.3 1.323e+04 1.981e-09
 66.02628     59.2 1.291e+04 1.708e-09
 66.04839     60.0 1.275e+04 1.577e-09
 66.07446     61.0 1.259e+04 1.442e-09
 66.11227     62.2 1.257e+04 1.389e-09
 66.13438     63.2 1.262e+04 1.384e-09
 66.16289     64.7 1.286e+04 1.487e-09
 66.19827     66.5 1.297e+04 1.560e-09
 66.22028     66.9 1.334e+04 1.898e-09
 66.24006     67.5 1.368e+04 2.247e-09
 66.25212     67.8 1.378e+04 2.269e-09
 66.26318     68.0 1.418e+04 2.741e-09
 66.28407     68.3 1.429e+04 2.804e-09
 66.29512     68.4 1.477e+04 3.581e-09
 66.30638     68.6 1.475e+04 3.436e-09
 66.32706     68.8 1.441e+04 2.876e-09
 66.33812     69.0 1.473e+04 3.537e-09
 66.35060     69.2 1.419e+04 2.645e-09
 66.37006     69.2 1.367e+04 2.043e-09
 66.38111     69.3 1.376e+04 2.153e-09
 66.39481     69.3 1.337e+04 1.749e-09
 66.42807     69.6 1.309e+04 1.492e-09
 66.45625     70.2 1.320e+04 1.567e-09
 66.47836     70.3 1.306e+04 1.334e-09
 66.51659     70.9 1.304e+04 1.333e-09
 66.54224     70.9 1.315e+04 1.425e-09
 66.56435     71.7 1.289e+04 1.099e-09
 66.60502     71.6 1.310e+04 1.242e-09
 66.62824     71.1 1.324e+04 1.387e-09
 66.65034     72.3 1.289e+04 1.072e-09
 66.69212     71.8 1.298e+04 1.176e-09
 66.71423     73.3 1.264e+04 8.908e-10
 66.73766     72.8 1.277e+04 1.037e-09
 66.77607     72.1 1.266e+04 1.164e-09
 66.79442     72.5 1.309e+04 1.491e-09
 66.80022     74.2 1.323e+04 1.562e-09
 66.82608     73.2 1.312e+04 1.724e-09
 66.86411     72.3 1.253e+04 1.470e-09
 66.88622     73.7 1.303e+04 1.876e-09
 66.91451     72.6 1.197e+04 1.076e-09
 66.95010     71.8 1.070e+04 5.186e-10
 66.97221     72.9 1.088e+04 5.888e-10
 67.00294     72.9 9.859e+03 3.033e-10
 67.03610     74.1 9.368e+03 2.013e-10
 67.05820     75.2 9.372e+03 1.986e-10
 67.09136     76.7 9.004e+03 1.443e-10
 67.12209     78.2 8.773e+03 1.165e-10
 67.14420     79.2 8.769e+03 1.267e-10
 67.17979     80.8 8.661e+03 1.176e-10
 67.20809     82.5 8.594e+03 1.135e-10
 67.23019     83.5 8.669e+03 1.346e-10
 67.26822     85.0 8.637e+03 1.337e-10
 67.29408     86.5 8.619e+03 1.343e-10
 67.31619     87.2 8.743e+03 1.630e-10
 67.35664     88.5 8.692e+03 1.654e-10
 67.38007     90.0 8.647e+03 1.665e-10
 67.40218     90.3 8.709e+03 1.811e-10
 67.44396     91.6 8.622e+03 1.654e-10
 67.46607     91.5 8.612e+03 1.634e-10
 67.48928     92.6 8.586e+03 1.582e-10
 67.52995     93.7 8.606e+03 1.613e-10
 67.55206     93.4 8.507e+03 1.464e-10
 67.57771     94.4 8.576e+03 1.552e-10
 67.61595     95.2 8.678e+03 1.726e-10
 67.63805     95.1 8.467e+03 1.436e-10
 67.66613     95.9 8.557e+03 1.728e-10
 67.70194     96.8 8.655e+03 2.144e-10
 67.72405     97.0 8.563e+03 2.130e-10
 67.75456     98.3 8.747e+03 2.540e-10
 67.78793     99.5 8.787e+03 2.653e-10
 67.81004    100.0 8.816e+03 2.803e-10
 67.84299    101.1 8.790e+03 2.768e-10
 67.87393    102.2 8.558e+03 2.298e-10
 67.89603    102.5 8.642e+03 2.455e-10
 67.93141    103.4 8.394e+03 2.006e-10
 67.95992    104.3 8.285e+03 1.887e-10
 67.98203    104.5 8.340e+03 2.012e-10
 68.01984    105.6 8.304e+03 2.045e-10
 68.04592    106.9 8.415e+03 2.277e-10
 68.06802    107.2 8.422e+03 2.325e-10
 68.09433    108.5 8.566e+03 2.554e-10
 68.11644    108.7 8.470e+03 2.376e-10
 68.13191    110.0 8.596e+03 2.596e-10
 68.15402    110.3 8.480e+03 2.437e-10
 68.19580    111.5 8.696e+03 2.788e-10
 68.21790    111.7 8.705e+03 2.777e-10
 68.24090    113.1 9.066e+03 3.284e-10
 68.28179    114.7 9.512e+03 3.932e-10
 68.30380    114.9 9.555e+03 4.174e-10
 68.31808    115.2 9.841e+03 5.505e-10
 68.33564    114.9 1.001e+04 6.215e-10
 68.34670    114.9 1.007e+04 6.632e-10
 68.36229    115.3 1.040e+04 7.870e-10
 68.37864    115.4 1.076e+04 9.274e-10
 68.38969    115.5 1.088e+04 9.970e-10
 68.40651    115.6 1.129e+04 1.185e-09
 68.42164    115.5 1.174e+04 1.411e-09
 68.43269    115.4 1.202e+04 1.569e-09
 68.45072    115.0 1.252e+04 1.873e-09
 68.46463    114.7 1.293e+04 2.193e-09
 68.47569    114.3 1.320e+04 2.462e-09
 68.49493    114.0 1.338e+04 2.703e-09
 68.50763    113.6 1.338e+04 2.759e-09
 68.51868    113.2 1.350e+04 2.926e-09
 68.53915    113.0 1.324e+04 2.758e-09
 68.55063    112.9 1.282e+04 2.266e-09
 68.56168    112.6 1.283e+04 2.267e-09
 68.58257    112.0 1.227e+04 1.732e-09
 68.59363    111.6 1.224e+04 1.716e-09
 68.60547    110.1 1.153e+04 1.295e-09
 68.62557    109.0 1.092e+04 1.026e-09
 68.63662    108.6 1.090e+04 1.028e-09
 68.64968    107.9 1.061e+04 8.898e-10
 68.66857    107.0 1.046e+04 7.849e-10
 68.67962    106.5 1.046e+04 8.123e-10
 68.69389    105.0 1.025e+04 7.004e-10
 68.71156    102.9 9.975e+03 6.010e-10
 68.72262    102.5 9.947e+03 6.455e-10
 68.73811     99.7 9.798e+03 5.822e-10
 68.75326     96.5 9.782e+03 5.722e-10
 68.75866     96.7 1.007e+04 7.076e-10
 68.76561     93.8 1.129e+04 1.044e-09
 68.78232     88.8 1.187e+04 1.169e-09
 68.79756     84.1 1.292e+04 1.689e-09
 68.80861     80.1 1.442e+04 2.850e-09
 68.82653     76.8 1.576e+04 4.351e-09
 68.84055     74.2 1.720e+04 6.657e-09
 68.85161     71.1 1.775e+04 7.296e-09
 68.87075     69.0 1.843e+04 9.889e-09
 68.88355     67.7 1.905e+04 1.292e-08
 68.89460     64.7 1.880e+04 1.031e-08
 68.91496     64.0 1.925e+04 1.151e-08
 68.92655     63.5 1.956e+04 1.188e-08
 68.93760     59.8 1.863e+04 5.708e-09
 68.95849     58.8 1.847e+04 4.199e-09
 68.96954     53.0 1.566e+04 1.520e-09
 68.98128     50.2 1.379e+04 1.038e-09
 69.00149     47.4 1.211e+04 8.278e-10
 69.01254     42.7 1.077e+04 7.365e-10
 69.02549     41.9 1.050e+04 6.641e-10
 69.04448     41.4 1.043e+04 6.082e-10
 69.05554     39.5 1.039e+04 5.823e-10
 69.06971     37.4 1.074e+04 5.876e-10
 69.08748     30.7 1.295e+04 8.241e-10
 69.09853     23.9 1.448e+04 1.342e-09
 69.11392     17.1 1.587e+04 3.359e-09
 69.13048     13.2 1.686e+04 6.616e-09
 69.14153     10.2 1.688e+04 6.642e-09
 69.15813      6.9 1.753e+04 7.456e-09
 69.17347      2.4 1.776e+04 5.953e-09
 69.18453     -3.2 1.630e+04 3.300e-09
 69.20234    -10.6 1.365e+04 1.523e-09
 69.21647    -17.3 1.083e+04 8.354e-10
 69.22752    -19.7 1.060e+04 6.966e-10
 69.24656    -21.2 1.049e+04 6.088e-10
 69.25947    -22.3 1.031e+04 5.181e-10
 69.27052    -23.7 1.010e+04 4.593e-10
 69.29077    -25.5 9.751e+03 3.957e-10
 69.30246    -27.0 9.591e+03 3.847e-10
 69.31352    -28.2 9.589e+03 3.857e-10
 69.33441    -29.1 9.582e+03 3.837e-10
 69.34546    -30.0 9.602e+03 3.934e-10
 69.35709    -30.6 9.655e+03 4.176e-10
 69.37740    -30.9 9.782e+03 4.640e-10
 69.38846    -31.4 9.825e+03 4.871e-10
 69.40130    -31.5 9.970e+03 5.307e-10
 69.42040    -31.0 1.008e+04 5.582e-10
 69.43145    -31.7 1.010e+04 5.516e-10
 69.44552    -31.8 1.023e+04 5.837e-10
 69.46340    -31.9 1.036e+04 6.161e-10
 69.47445    -32.9 1.034e+04 5.953e-10
 69.48973    -33.0 1.045e+04 6.252e-10
 69.50640    -33.0 1.056e+04 6.572e-10
 69.51745    -33.8 1.047e+04 6.121e-10
 69.53394    -33.8 1.052e+04 6.227e-10
 69.54939    -33.6 1.053e+04 6.206e-10
 69.56045    -34.4 1.034e+04 5.161e-10
 69.57816    -34.2 1.029e+04 4.894e-10
 69.59239    -33.9 1.022e+04 4.565e-10
 69.60344    -34.5 1.008e+04 3.845e-10
 69.62237    -34.2 1.005e+04 3.643e-10
 69.63539    -33.8 1.003e+04 3.535e-10
 69.64644    -34.2 1.001e+04 3.478e-10
 69.66658    -33.9 1.005e+04 3.568e-10
 69.67838    -33.6 1.010e+04 3.737e-10
 69.68944    -34.0 1.015e+04 3.857e-10
 69.71033    -34.1 1.030e+04 4.385e-10
 69.72138    -34.6 1.046e+04 4.952e-10
 69.73290    -34.8 1.071e+04 6.110e-10
 69.75332    -35.1 1.105e+04 7.386e-10
 69.76438    -35.7 1.129e+04 8.715e-10
 69.77712    -36.0 1.173e+04 9.914e-10
 69.79632    -36.5 1.203e+04 1.109e-09
 69.80737    -37.5 1.244e+04 1.345e-09
 69.82133    -38.4 1.283e+04 1.523e-09
 69.83932    -39.8 1.317e+04 1.680e-09
 69.85037    -41.5 1.360e+04 2.099e-09
 69.86554    -42.8 1.362e+04 2.120e-09
 69.88231    -44.0 1.355e+04 2.085e-09
 69.89337    -45.6 1.380e+04 2.464e-09
 69.90975    -46.8 1.337e+04 2.052e-09
 69.92531    -48.1 1.285e+04 1.629e-09
 69.93636    -50.0 1.266e+04 1.558e-09
 69.95397    -50.8 1.198e+04 1.114e-09
 69.96831    -51.7 1.136e+04 7.426e-10
 69.97936    -53.2 1.101e+04 5.840e-10
 69.99818    -54.3 1.061e+04 3.843e-10
 70.01130    -55.5 1.034e+04 2.898e-10
 70.02236    -56.4 1.019e+04 2.631e-10
 70.04334    -56.3 1.012e+04 2.457e-10
 70.06555    -58.1 1.014e+04 2.582e-10
 70.09786    -58.7 1.024e+04 2.662e-10
 70.12934    -59.2 1.037e+04 2.948e-10
 70.14029    -60.6 1.056e+04 3.595e-10
 70.15293    -61.7 1.082e+04 4.475e-10
 70.17224    -63.2 1.113e+04 6.043e-10
 70.18329    -65.1 1.147e+04 7.851e-10
 70.19714    -66.3 1.193e+04 9.904e-10
 70.21523    -67.6 1.239e+04 1.215e-09
 70.22629    -69.8 1.277e+04 1.437e-09
 70.24135    -71.2 1.302e+04 1.618e-09
 70.25823    -72.6 1.309e+04 1.697e-09
 70.26928    -74.9 1.319e+04 1.795e-09
 70.28557    -77.1 1.342e+04 1.856e-09
 70.30123    -80.1 1.404e+04 2.031e-09
 70.31228    -85.7 1.556e+04 2.821e-09
 70.32978    -89.8 1.647e+04 3.701e-09
 70.34422    -93.3 1.691e+04 4.649e-09
 70.35528    -98.1 1.706e+04 5.223e-09
 70.37399   -100.3 1.674e+04 4.927e-09
 70.38722   -101.7 1.629e+04 4.343e-09
 70.39827   -105.0 1.559e+04 2.754e-09
 70.41821   -106.4 1.495e+04 1.766e-09
 70.43022   -108.1 1.417e+04 1.098e-09
 70.44127   -112.6 1.239e+04 6.135e-10
 70.46216   -114.0 1.134e+04 4.993e-10
 70.47322   -116.2 1.086e+04 4.806e-10
 70.48453   -115.7 1.084e+04 4.565e-10
 70.50516   -115.0 1.085e+04 4.395e-10
 70.51621   -115.7 1.086e+04 4.414e-10
 70.52874   -115.1 1.088e+04 4.285e-10
 70.54816   -114.5 1.090e+04 4.192e-10
 70.55921   -115.5 1.096e+04 4.373e-10
 70.57295   -115.2 1.107e+04 4.369e-10
 70.59115   -114.9 1.116e+04 4.552e-10
 70.60221   -116.2 1.134e+04 5.206e-10
 70.61716   -115.8 1.147e+04 5.554e-10
 70.63415   -115.3 1.160e+04 5.902e-10
 70.64520   -116.8 1.202e+04 7.058e-10
 70.67253   -117.3 1.245e+04 8.276e-10
 70.70874   -117.1 1.305e+04 1.123e-09
 70.72320   -119.5 1.369e+04 1.724e-09
 70.73120   -121.4 1.398e+04 2.141e-09
 70.74980   -121.2 1.420e+04 2.514e-09
 70.76314   -120.9 1.439e+04 2.753e-09
 70.77419   -122.8 1.421e+04 2.512e-09
 70.79402   -122.5 1.420e+04 2.399e-09
 70.80614   -122.4 1.409e+04 2.199e-09
 70.81719   -125.2 1.336e+04 1.595e-09
 70.84938   -126.1 1.290e+04 1.366e-09
 70.88127   -124.7 1.223e+04 1.123e-09
 70.90338   -126.3 1.147e+04 8.132e-10
 70.93791   -124.4 1.138e+04 7.667e-10
 70.96727   -122.5 1.133e+04 7.512e-10
 70.98937   -123.2 1.081e+04 5.200e-10
 71.02633   -121.4 1.105e+04 5.744e-10
 71.05326   -119.6 1.137e+04 7.115e-10
 71.07537   -120.4 1.092e+04 4.853e-10
 71.11476   -118.6 1.134e+04 6.614e-10
 71.13925   -117.1 1.177e+04 8.797e-10
 71.16136   -118.0 1.131e+04 6.209e-10
 71.20314   -116.5 1.167e+04 8.339e-10
 71.24735   -116.3 1.162e+04 8.774e-10
 71.28913   -115.2 1.166e+04 9.618e-10
 71.31124   -116.5 1.149e+04 8.912e-10
 71.33582   -115.3 1.147e+04 8.805e-10
 71.37513   -113.9 1.139e+04 8.354e-10
 71.39723   -115.1 1.147e+04 8.488e-10
 71.42425   -113.4 1.155e+04 8.478e-10
 71.45731   -112.9 1.125e+04 7.088e-10
 71.47198   -112.7 1.130e+04 7.241e-10
 71.48303   -114.2 1.144e+04 7.831e-10
 71.50143   -114.1 1.146e+04 8.025e-10
 71.51498   -114.0 1.151e+04 8.312e-10
 71.52603   -115.7 1.148e+04 8.554e-10
 71.54564   -115.6 1.150e+04 8.808e-10
 71.55797   -115.4 1.152e+04 9.151e-10
 71.56903   -117.1 1.129e+04 8.348e-10
 71.58985   -117.0 1.121e+04 8.197e-10
 71.61196   -118.5 1.060e+04 6.644e-10
 71.63291   -118.3 1.035e+04 6.006e-10
 71.64397   -119.4 9.925e+03 4.520e-10
 71.65617   -119.2 9.786e+03 4.119e-10
 71.68943   -118.8 9.581e+03 3.525e-10
 71.71910   -117.8 9.177e+03 2.642e-10
 71.74121   -119.1 8.544e+03 1.544e-10
 71.77795   -118.0 8.198e+03 1.088e-10
 71.80510   -116.8 7.940e+03 8.081e-11
 71.82720   -118.1 7.779e+03 6.978e-11
 71.86638   -116.5 7.699e+03 6.434e-11
 71.89109   -114.8 7.665e+03 6.148e-11
 71.91320   -115.5 7.698e+03 6.442e-11
 71.95481   -113.7 7.707e+03 6.402e-11
 71.99902   -112.8 7.833e+03 7.137e-11
 72.02700   -111.3 7.936e+03 7.715e-11
 72.04684   -110.9 7.759e+03 6.092e-11
 72.06308   -111.9 7.876e+03 7.009e-11
 72.08745   -110.5 7.993e+03 8.004e-11
 72.12696   -109.2 8.223e+03 1.002e-10
 72.14907   -110.5 8.450e+03 1.254e-10
 72.17587   -109.4 8.764e+03 1.655e-10
 72.21296   -108.3 9.083e+03 2.206e-10
 72.23506   -109.7 9.257e+03 2.560e-10
 72.26430   -108.4 9.483e+03 3.039e-10
 72.29895   -107.2 9.665e+03 3.341e-10
 72.32106   -108.3 9.866e+03 3.569e-10
 72.35273   -107.1 9.870e+03 3.505e-10
 72.38494   -106.2 9.820e+03 3.289e-10
 72.40705   -107.6 1.007e+04 3.664e-10
 72.44115   -106.9 1.002e+04 3.551e-10
 72.47094   -106.3 1.001e+04 3.531e-10
 72.49304   -108.0 1.063e+04 5.507e-10
 72.52958   -107.1 1.067e+04 5.665e-10
 72.55693   -106.0 1.063e+04 5.712e-10
 72.57904   -107.0 1.116e+04 8.798e-10
 72.61800   -105.6 1.093e+04 7.493e-10
 72.64293   -104.3 1.077e+04 6.587e-10
 72.66503   -105.2 1.102e+04 7.916e-10
 72.70643   -103.8 1.101e+04 7.739e-10
 72.72892   -102.5 1.120e+04 8.319e-10
 72.75103   -102.8 1.123e+04 8.355e-10
 72.79281   -101.2 1.162e+04 9.657e-10
 72.81491   -101.4 1.178e+04 8.787e-10
 72.82792   -100.4 1.180e+04 8.716e-10
 72.84666   -100.2 1.181e+04 9.521e-10
 72.85771   -100.8 1.205e+04 1.001e-09
 72.87203   -101.2 1.255e+04 1.523e-09
 72.88966   -102.3 1.485e+04 2.915e-09
 72.90071   -102.2 1.533e+04 3.623e-09
 72.91625   -102.5 1.819e+04 6.865e-09
 72.93265   -103.6 2.149e+04 1.218e-08
 72.94371   -100.3 2.119e+04 1.313e-08
 72.95410   -101.3 2.273e+04 1.833e-08
 72.95958    -99.6 2.263e+04 1.810e-08
 72.96589    -99.7 2.335e+04 2.039e-08
 72.97555   -100.4 2.509e+04 2.367e-08
 72.98108    -98.7 2.736e+04 2.272e-08
 72.98800   -105.1 3.257e+04 4.508e-08
 72.99705   -113.2 3.022e+04 1.546e-07
 73.00258   -117.4 2.873e+04 4.810e-07
 73.00732   -122.5 2.914e+04 3.361e-07
 73.01052   -125.6 3.001e+04 2.899e-07
 73.01305   -128.0 2.826e+04 5.063e-07
 73.01538   -125.9 3.255e+04 1.380e-07
 73.01837   -137.9 3.480e+04 1.070e-07
 73.02126   -148.2 3.692e+04 8.184e-08
 73.02403   -157.2 3.633e+04 1.278e-07
 73.02925   -167.2 3.484e+04 9.403e-08
 73.03201   -170.9 3.414e+04 1.057e-07
 73.03492   -174.2 3.242e+04 8.653e-08
 73.04002   -176.7 2.922e+04 7.508e-08
 73.04558   -181.3 3.019e+04 7.463e-08
 73.05432   -182.3 2.675e+04 5.346e-08
 73.06155   -182.1 2.599e+04 3.983e-08
 73.06707   -183.2 2.731e+04 2.613e-08
 73.07642   -183.4 2.746e+04 2.073e-08
 73.08305   -183.9 2.785e+04 1.767e-08
 73.08857   -186.3 2.484e+04 1.087e-08
 73.09853   -187.6 2.353e+04 8.167e-09
 73.10454   -189.1 2.163e+04 6.123e-09
 73.11007   -190.6 1.731e+04 4.990e-09
 73.12052   -191.0 1.655e+04 4.010e-09
 73.12604   -190.2 1.608e+04 3.965e-09
 73.13169   -190.4 1.575e+04 3.403e-09
 73.14201   -190.5 1.543e+04 2.937e-09
 73.14759   -188.3 1.575e+04 3.741e-09
 73.15942   -188.7 1.433e+04 2.324e-09
 73.17958   -189.0 1.319e+04 1.449e-09
 73.19064   -187.1 1.372e+04 1.708e-09
 73.20363   -187.1 1.305e+04 1.164e-09
 73.22258   -187.2 1.249e+04 8.455e-10
 73.23363   -186.2 1.301e+04 9.621e-10
 73.24785   -186.6 1.252e+04 7.760e-10
 73.26558   -186.6 1.223e+04 7.024e-10
 73.27663   -186.2 1.260e+04 8.109e-10
 73.29206   -186.1 1.244e+04 7.736e-10
 73.30857   -186.0 1.229e+04 7.393e-10
 73.31963   -185.2 1.184e+04 1.031e-09
 73.33401   -184.9 1.160e+04 9.733e-10
 73.34507   -184.6 1.157e+04 9.186e-10
 73.35157   -183.9 1.134e+04 8.145e-10
 73.36262   -183.0 1.161e+04 9.139e-10
 73.38049   -182.1 1.148e+04 7.147e-10
 73.39457   -181.4 1.136e+04 5.172e-10
 73.40562   -181.0 1.151e+04 6.345e-10
 73.42470   -180.1 1.135e+04 4.733e-10
 73.45796   -179.3 1.116e+04 3.743e-10
 73.48075   -179.0 1.099e+04 2.888e-10
 73.50286   -177.4 1.107e+04 3.586e-10
 73.54464   -176.6 1.082e+04 2.647e-10
 73.56675   -175.3 1.102e+04 3.083e-10
 73.59069   -173.9 1.075e+04 2.168e-10
 73.63064   -172.2 1.047e+04 1.522e-10
 73.65274   -171.2 1.060e+04 1.708e-10
 73.67912   -169.5 1.037e+04 1.259e-10
 73.71663   -167.8 1.028e+04 1.075e-10
 73.73874   -166.6 1.033e+04 1.126e-10
 73.76755   -165.0 1.033e+04 1.081e-10
 73.80262   -163.5 1.034e+04 1.083e-10
 73.82473   -162.5 1.039e+04 1.113e-10
 73.85597   -161.3 1.058e+04 1.193e-10
 73.88862   -160.2 1.071e+04 1.427e-10
 73.91072   -159.4 1.078e+04 1.433e-10
 73.94440   -158.3 1.082e+04 1.623e-10
 73.97461   -157.2 1.080e+04 1.724e-10
 73.99672   -156.4 1.086e+04 1.740e-10
 74.03282   -155.1 1.083e+04 1.761e-10
 74.06060   -153.5 1.072e+04 1.697e-10
 74.08271   -152.5 1.075e+04 1.717e-10
 74.12125   -150.6 1.067e+04 1.538e-10
 74.14660   -148.5 1.061e+04 1.311e-10
 74.16870   -147.4 1.068e+04 1.387e-10
 74.20968   -145.3 1.065e+04 1.145e-10
 74.23259   -143.2 1.063e+04 9.217e-11
 74.25470   -142.4 1.082e+04 1.180e-10
 74.29648   -140.4 1.085e+04 9.611e-11
 74.31858   -139.8 1.103e+04 1.683e-10
 74.34232   -138.0 1.111e+04 1.607e-10
 74.38247   -136.3 1.118e+04 1.595e-10
 74.40458   -135.9 1.145e+04 3.382e-10
 74.43074   -134.3 1.159e+04 4.263e-10
 74.46847   -132.7 1.176e+04 5.625e-10
 74.49057   -131.9 1.220e+04 8.378e-10
 74.51917   -130.3 1.238e+04 9.677e-10
 74.55446   -128.6 1.249e+04 1.044e-09
 74.57657   -127.9 1.234e+04 8.673e-10
 74.60760   -126.1 1.236e+04 7.692e-10
 74.64045   -124.3 1.241e+04 6.669e-10
 74.65216   -123.7 1.220e+04 3.792e-10
 74.66352   -124.3 1.217e+04 3.653e-10
 74.69602   -122.8 1.231e+04 3.400e-10
 74.72645   -122.1 1.248e+04 3.428e-10
 74.74855   -121.5 1.207e+04 2.155e-10
 74.78445   -121.4 1.254e+04 3.020e-10
 74.81244   -121.8 1.378e+04 8.934e-10
 74.83455   -120.5 1.347e+04 8.758e-10
 74.87287   -120.5 1.435e+04 2.131e-09
 74.89834   -119.8 1.486e+04 3.321e-09
 74.90929   -119.3 1.489e+04 3.368e-09
 74.92795   -119.5 1.520e+04 3.976e-09
 74.94123   -119.9 1.530e+04 4.196e-09
 74.95229   -119.5 1.535e+04 4.323e-09
 74.97216   -119.9 1.531e+04 4.320e-09
 74.98423   -120.2 1.511e+04 3.906e-09
 74.99528   -120.0 1.512e+04 3.999e-09
 75.01618   -120.3 1.486e+04 3.435e-09
 75.02723   -120.2 1.484e+04 3.461e-09
 75.03848   -120.5 1.458e+04 3.005e-09
 75.05917   -120.8 1.437e+04 2.713e-09
 75.07023   -120.8 1.424e+04 2.593e-09
 75.08269   -121.0 1.406e+04 2.389e-09
 75.10217   -121.2 1.400e+04 2.302e-09
 75.11322   -121.3 1.382e+04 2.042e-09
 75.12690   -121.8 1.383e+04 2.031e-09
 75.14517   -123.1 1.406e+04 2.051e-09
 75.15622   -124.2 1.424e+04 1.796e-09
 75.17112   -127.6 1.529e+04 2.260e-09
 75.18816   -131.6 1.601e+04 3.303e-09
 75.19922   -133.8 1.617e+04 3.826e-09
 75.21533   -137.3 1.650e+04 5.977e-09
 75.23116   -140.3 1.678e+04 7.830e-09
 75.24221   -141.7 1.711e+04 8.999e-09
 75.25954   -143.5 1.717e+04 9.427e-09
 75.27416   -144.5 1.682e+04 8.509e-09
 75.28521   -145.4 1.684e+04 9.391e-09
 75.30035   -146.7 1.611e+04 7.366e-09
 75.31140   -145.0 1.587e+04 6.076e-09
 75.31715   -146.3 1.523e+04 4.853e-09
 75.32821   -146.7 1.523e+04 5.823e-09
 75.34797   -147.3 1.472e+04 4.620e-09
 75.36015   -147.7 1.436e+04 3.903e-09
 75.37120   -147.3 1.446e+04 4.072e-09
 75.39209   -147.4 1.426e+04 3.488e-09
 75.41420   -147.3 1.403e+04 2.957e-09
 75.43509   -147.2 1.388e+04 2.848e-09
 75.44614   -147.0 1.371e+04 2.573e-09
 75.45850   -146.7 1.365e+04 2.773e-09
 75.47809   -146.4 1.378e+04 3.130e-09
 75.48914   -146.0 1.362e+04 2.932e-09
 75.50272   -145.5 1.392e+04 3.521e-09
 75.52108   -144.9 1.424e+04 4.210e-09
 75.53214   -144.5 1.405e+04 3.867e-09
 75.54693   -144.0 1.445e+04 4.749e-09
 75.56408   -143.7 1.482e+04 5.654e-09
 75.57513   -143.2 1.445e+04 4.626e-09
 75.59114   -143.1 1.480e+04 5.500e-09
 75.60708   -143.0 1.510e+04 6.421e-09
 75.61813   -143.0 1.461e+04 4.658e-09
 75.63536   -143.2 1.482e+04 5.369e-09
 75.65007   -143.4 1.496e+04 6.088e-09
 75.66113   -143.4 1.428e+04 3.763e-09
 75.67957   -143.4 1.439e+04 4.242e-09
 75.69307   -143.4 1.446e+04 4.636e-09
 75.70412   -143.4 1.399e+04 3.344e-09
 75.72378   -143.4 1.405e+04 3.470e-09
 75.73607   -143.5 1.404e+04 3.498e-09
 75.75827   -142.8 1.341e+04 2.220e-09
 75.80015   -142.5 1.322e+04 2.156e-09
 75.82226   -140.9 1.286e+04 1.586e-09
 75.84556   -140.5 1.275e+04 1.542e-09
 75.88614   -139.8 1.261e+04 1.413e-09
 75.90825   -138.4 1.267e+04 1.496e-09
 75.93399   -137.7 1.263e+04 1.456e-09
 75.95967   -137.1 1.274e+04 1.581e-09
 75.97571   -136.6 1.227e+04 1.163e-09
 75.99424   -135.3 1.238e+04 1.390e-09
 76.02242   -134.7 1.235e+04 1.385e-09
 76.05813   -134.1 1.239e+04 1.430e-09
 76.08024   -132.9 1.234e+04 1.434e-09
 76.11084   -132.4 1.229e+04 1.374e-09
 76.14412   -131.8 1.223e+04 1.266e-09
 76.16623   -130.7 1.213e+04 1.161e-09
 76.19927   -130.1 1.206e+04 1.037e-09
 76.23012   -129.5 1.200e+04 9.455e-10
 76.25222   -128.4 1.219e+04 9.811e-10
 76.28769   -127.8 1.221e+04 9.656e-10
 76.31611   -127.0 1.224e+04 9.832e-10
 76.32707   -127.0 1.232e+04 1.111e-09
 76.34277   -126.7 1.233e+04 1.147e-09
 76.35891   -126.4 1.235e+04 1.197e-09
 76.36997   -126.5 1.241e+04 1.311e-09
 76.38698   -126.2 1.242e+04 1.353e-09
 76.40191   -125.8 1.242e+04 1.369e-09
 76.41296   -125.6 1.230e+04 1.386e-09
 76.43119   -125.1 1.224e+04 1.340e-09
 76.44491   -124.4 1.218e+04 1.270e-09
 76.45596   -124.1 1.202e+04 1.190e-09
 76.47541   -123.5 1.198e+04 1.108e-09
 76.48790   -123.0 1.200e+04 1.038e-09
 76.51011   -122.4 1.188e+04 8.246e-10
 76.55199   -121.5 1.168e+04 6.763e-10
 76.57409   -120.8 1.146e+04 5.287e-10
 76.59719   -119.2 1.119e+04 3.906e-10
 76.63798   -117.4 1.102e+04 2.796e-10
 76.66009   -116.7 1.091e+04 2.389e-10
 76.68561   -115.1 1.087e+04 1.824e-10
 76.72397   -113.4 1.085e+04 1.507e-10
 76.74608   -112.6 1.076e+04 1.473e-10
 76.77404   -110.8 1.077e+04 1.336e-10
 76.80997   -108.9 1.079e+04 1.265e-10
 76.83207   -108.0 1.073e+04 1.225e-10
 76.86247   -106.2 1.075e+04 1.173e-10
 76.89596   -104.3 1.077e+04 1.134e-10
 76.91807   -103.5 1.073e+04 1.103e-10
 76.95089   -101.7 1.073e+04 1.070e-10
 76.98195    -99.9 1.072e+04 1.041e-10
 77.00406    -99.2 1.071e+04 1.041e-10
 77.03932    -97.3 1.070e+04 1.015e-10
 77.06795    -95.4 1.069e+04 9.924e-11
 77.09005    -94.5 1.066e+04 9.960e-11
 77.12774    -92.5 1.066e+04 9.640e-11
 77.15394    -90.5 1.069e+04 9.255e-11
 77.17605    -89.5 1.064e+04 8.889e-11
 77.21617    -87.5 1.068e+04 8.291e-11
 77.23994    -85.5 1.074e+04 7.681e-11
 77.25748    -84.5 1.070e+04 7.164e-11
 77.27793    -84.3 1.074e+04 7.087e-11
 77.30382    -82.3 1.077e+04 6.736e-11
 77.32593    -81.4 1.067e+04 6.659e-11
 77.34881    -79.5 1.068e+04 6.631e-11
 77.38982    -77.6 1.077e+04 6.588e-11
 77.41192    -76.7 1.082e+04 6.693e-11
 77.43724    -75.0 1.091e+04 7.345e-11
 77.47581    -73.2 1.085e+04 8.662e-11
 77.49792    -72.2 1.085e+04 9.428e-11
 77.52566    -70.3 1.080e+04 1.116e-10
 77.56180    -68.4 1.077e+04 1.319e-10
 77.58391    -67.3 1.080e+04 1.359e-10
 77.61409    -65.4 1.078e+04 1.520e-10
 77.64780    -63.5 1.078e+04 1.646e-10
 77.66990    -62.5 1.079e+04 1.583e-10
 77.70252    -60.5 1.080e+04 1.627e-10
 77.73379    -58.6 1.082e+04 1.645e-10
 77.75590    -57.7 1.085e+04 1.618e-10
 77.79094    -55.9 1.090e+04 1.707e-10
 77.81978    -54.3 1.097e+04 1.990e-10
 77.84189    -53.6 1.099e+04 2.263e-10
 77.87937    -52.1 1.109e+04 3.125e-10
 77.90578    -50.6 1.129e+04 4.440e-10
 77.92788    -49.8 1.135e+04 4.753e-10
 77.96779    -48.5 1.158e+04 6.077e-10
 77.99177    -47.6 1.176e+04 7.230e-10
 78.01388    -47.2 1.182e+04 7.332e-10
 78.05566    -46.6 1.207e+04 9.089e-10
 78.07776    -46.6 1.215e+04 9.666e-10
 78.10043    -46.4 1.251e+04 1.312e-09
 78.14165    -46.5 1.302e+04 1.913e-09
 78.16376    -46.9 1.290e+04 1.834e-09
 78.18886    -47.1 1.348e+04 2.755e-09
 78.22765    -47.2 1.395e+04 3.829e-09
 78.24975    -47.3 1.354e+04 3.056e-09
 78.27729    -47.4 1.375e+04 3.546e-09
 78.31364    -47.7 1.371e+04 3.518e-09
 78.33575    -47.4 1.307e+04 2.284e-09
 78.36571    -47.1 1.262e+04 1.783e-09
 78.39963    -45.9 1.192e+04 1.064e-09
 78.42174    -45.3 1.166e+04 8.541e-10
 78.45414    -44.1 1.130e+04 6.127e-10
 78.48563    -42.7 1.105e+04 4.968e-10
 78.50773    -41.8 1.108e+04 5.520e-10
 78.54256    -40.2 1.099e+04 5.317e-10
 78.57162    -38.5 1.089e+04 5.213e-10
 78.58103    -37.6 1.089e+04 5.192e-10
 78.59619    -37.0 1.078e+04 4.297e-10
 78.63099    -35.2 1.069e+04 4.029e-10
 78.65761    -33.2 1.063e+04 3.603e-10
 78.67972    -32.2 1.052e+04 3.098e-10
 78.71942    -30.2 1.049e+04 2.518e-10
 78.74361    -28.4 1.049e+04 2.025e-10
 78.76571    -27.4 1.042e+04 1.567e-10
 78.80749    -25.6 1.043e+04 1.286e-10
 78.82960    -24.7 1.030e+04 1.146e-10
 78.85206    -22.9 1.031e+04 1.023e-10
 78.89349    -21.0 1.033e+04 9.663e-11
 78.91559    -19.8 1.025e+04 9.615e-11
 78.94048    -17.8 1.026e+04 9.286e-11
 78.97948    -15.7 1.029e+04 9.476e-11
 79.00159    -14.6 1.023e+04 8.963e-11
 79.02891    -12.4 1.026e+04 8.675e-11
 79.06548    -10.2 1.032e+04 8.326e-11
 79.08758     -9.2 1.026e+04 7.429e-11
 79.11734     -7.1 1.032e+04 6.773e-11
 79.15147     -5.1 1.036e+04 6.451e-11
 79.17358     -4.2 1.025e+04 6.300e-11
 79.20576     -2.3 1.028e+04 6.194e-11
 79.23746     -0.6 1.038e+04 6.789e-11
 79.25957      0.2 1.036e+04 6.898e-11
 79.29419      1.9 1.042e+04 8.291e-11
 79.32346      3.7 1.047e+04 1.014e-10
 79.34556      4.4 1.046e+04 1.066e-10
 79.38261      6.2 1.053e+04 1.235e-10
 79.40945      8.0 1.056e+04 1.380e-10
 79.43156      8.5 1.059e+04 1.378e-10
 79.47104     10.0 1.063e+04 1.452e-10
 79.49544     11.2 1.072e+04 1.589e-10
 79.51755     11.3 1.076e+04 1.475e-10
 79.55933     12.3 1.086e+04 1.784e-10
 79.60354     13.2 1.095e+04 2.115e-10
 79.64532     14.5 1.106e+04 2.720e-10
 79.66743     14.4 1.099e+04 2.117e-10
 79.69211     15.8 1.104e+04 2.230e-10
 79.73132     17.2 1.105e+04 2.082e-10
 79.75342     17.2 1.102e+04 1.456e-10
 79.78053     18.4 1.104e+04 1.234e-10
 79.81731     19.4 1.102e+04 1.130e-10
 79.83942     19.5 1.085e+04 1.115e-10
 79.86896     21.2 1.082e+04 1.285e-10
 79.89234     23.1 1.082e+04 1.475e-10
 79.90458     23.2 1.086e+04 1.765e-10
 79.92541     23.9 1.083e+04 1.713e-10
 79.95739     25.9 1.086e+04 1.661e-10
 79.98930     27.8 1.089e+04 1.531e-10
 80.01141     28.3 1.087e+04 1.507e-10
 80.04581     30.1 1.089e+04 1.485e-10
 80.07529     31.9 1.092e+04 1.502e-10
 80.09740     32.6 1.086e+04 1.621e-10
 80.13424     34.7 1.082e+04 1.675e-10
 80.16129     37.0 1.082e+04 1.571e-10
 80.18339     37.9 1.084e+04 1.591e-10
 80.22266     40.1 1.098e+04 1.198e-10
 80.24728     41.8 1.126e+04 8.427e-11
 80.26939     42.3 1.124e+04 8.619e-11
 80.31109     43.7 1.114e+04 7.566e-11
 80.35530     46.3 1.099e+04 8.177e-11
 80.39716     48.1 1.098e+04 9.339e-11
 80.41927     48.9 1.102e+04 1.016e-10
 80.44373     50.9 1.094e+04 1.331e-10
 80.48315     53.3 1.099e+04 1.816e-10
 80.50526     54.0 1.108e+04 1.976e-10
 80.53216     56.4 1.118e+04 2.867e-10
 80.56915     58.8 1.137e+04 4.029e-10
 80.59125     59.3 1.148e+04 4.336e-10
 80.62058     61.5 1.174e+04 5.896e-10
 80.65514     63.5 1.200e+04 7.749e-10
 80.67725     63.8 1.199e+04 7.545e-10
 80.70901     65.8 1.221e+04 9.652e-10
 80.74113     67.6 1.243e+04 1.162e-09
 80.76324     67.8 1.237e+04 1.014e-09
 80.79743     69.2 1.274e+04 1.294e-09
 80.82713     70.2 1.317e+04 1.854e-09
 80.84923     69.7 1.303e+04 1.671e-09
 80.88586     70.7 1.346e+04 2.254e-09
 80.91312     71.3 1.365e+04 2.373e-09
 80.93523     70.6 1.337e+04 2.071e-09
 80.97429     71.1 1.332e+04 1.912e-09
 80.99912     71.6 1.303e+04 1.588e-09
 81.02122     71.4 1.251e+04 1.056e-09
 81.06271     72.1 1.226e+04 7.720e-10
 81.08511     73.1 1.202e+04 5.444e-10
 81.10722     73.2 1.153e+04 3.079e-10
 81.14900     74.2 1.134e+04 2.195e-10
 81.17110     74.4 1.114e+04 1.662e-10
 81.18850     75.7 1.100e+04 1.511e-10
 81.21060     75.8 1.082e+04 1.236e-10
 81.23499     77.4 1.083e+04 1.281e-10
 81.25710     78.2 1.086e+04 1.434e-10
 81.28378     80.0 1.093e+04 1.497e-10
 81.32098     81.7 1.102e+04 1.494e-10
 81.34309     82.4 1.105e+04 1.666e-10
 81.37221     83.9 1.111e+04 1.581e-10
 81.40698     85.4 1.114e+04 1.580e-10
 81.42908     85.9 1.117e+04 1.692e-10
 81.46063     87.2 1.121e+04 1.743e-10
 81.49297     88.3 1.128e+04 2.002e-10
 81.51508     88.6 1.131e+04 2.143e-10
 81.54906     89.4 1.141e+04 2.868e-10
 81.57896     90.0 1.155e+04 4.036e-10
 81.60107     89.8 1.162e+04 4.726e-10
 81.63748     90.1 1.180e+04 6.336e-10
 81.66496     90.1 1.196e+04 7.685e-10
 81.68706     89.5 1.193e+04 7.727e-10
 81.72591     89.1 1.199e+04 8.198e-10
 81.75095     88.6 1.199e+04 8.141e-10
 81.77306     87.9 1.190e+04 7.582e-10
 81.81434     87.7 1.174e+04 6.625e-10
 81.83695     87.7 1.151e+04 5.055e-10
 81.85905     87.4 1.127e+04 3.433e-10
 81.90083     87.5 1.106e+04 2.171e-10
 81.92294     87.0 1.094e+04 1.249e-10
 81.94698     87.2 1.075e+04 9.517e-11
 81.98683     87.9 1.059e+04 8.517e-11
 82.00893     88.0 1.047e+04 7.232e-11
 82.03540     89.4 1.047e+04 7.678e-11
 82.07282     90.7 1.051e+04 8.228e-11
 82.09493     91.1 1.052e+04 8.350e-11
 82.12383     92.2 1.058e+04 9.454e-11
 82.15881     93.1 1.068e+04 1.113e-10
 82.18092     93.5 1.070e+04 1.235e-10
 82.21225     94.4 1.078e+04 1.550e-10
 82.24481     95.1 1.089e+04 1.952e-10
 82.26691     95.7 1.094e+04 2.225e-10
 82.30068     96.4 1.105e+04 2.630e-10
 82.33080     97.1 1.110e+04 2.951e-10
 82.35291     97.7 1.116e+04 3.006e-10
 82.38911     98.4 1.119e+04 3.156e-10
 82.41679     99.1 1.120e+04 3.187e-10
 82.43890     99.7 1.121e+04 3.196e-10
 82.47753    100.5 1.121e+04 3.151e-10
 82.50279    101.5 1.115e+04 2.868e-10
 82.50990    102.2 1.118e+04 2.904e-10
 82.52886    102.8 1.111e+04 2.809e-10
 82.56596    103.9 1.106e+04 2.493e-10
 82.58878    105.1 1.103e+04 1.996e-10
 82.61089    105.9 1.106e+04 2.183e-10
 82.65267    106.9 1.105e+04 1.767e-10
 82.67477    107.8 1.110e+04 2.010e-10
 82.69860    108.7 1.112e+04 1.722e-10
 82.73866    109.6 1.113e+04 1.638e-10
 82.76077    110.5 1.118e+04 1.753e-10
 82.78703    111.4 1.116e+04 1.750e-10
 82.82466    112.3 1.113e+04 1.873e-10
 82.84676    113.3 1.113e+04 1.873e-10
 82.87545    114.2 1.112e+04 2.088e-10
 82.91065    115.1 1.113e+04 2.322e-10
 82.93276    116.0 1.115e+04 2.413e-10
 82.96388    116.8 1.121e+04 2.644e-10
 82.99664    117.5 1.125e+04 2.662e-10
 83.01875    118.2 1.128e+04 2.884e-10
 83.05230    118.8 1.128e+04 2.722e-10
 83.08264    119.2 1.127e+04 2.346e-10
 83.10474    119.7 1.127e+04 2.305e-10
 83.14073    120.0 1.123e+04 1.952e-10
 83.16863    120.2 1.118e+04 1.825e-10
 83.19074    120.6 1.117e+04 1.733e-10
 83.22916    120.9 1.115e+04 1.781e-10
 83.25462    121.2 1.113e+04 1.833e-10
 83.27673    121.5 1.113e+04 1.741e-10
 83.31758    121.8 1.110e+04 1.738e-10
 83.34062    122.0 1.104e+04 1.691e-10
 83.36272    122.3 1.103e+04 1.640e-10
 83.40450    122.6 1.097e+04 1.565e-10
 83.42661    122.9 1.097e+04 1.553e-10
 83.45022    123.3 1.097e+04 1.477e-10
 83.49050    123.8 1.101e+04 1.430e-10
 83.51260    124.2 1.101e+04 1.385e-10
 83.53865    124.9 1.099e+04 1.347e-10
 83.57649    125.7 1.096e+04 1.350e-10
 83.59860    126.1 1.095e+04 1.336e-10
 83.62708    126.9 1.094e+04 1.394e-10
 83.66249    127.7 1.098e+04 1.535e-10
 83.68459    127.9 1.104e+04 1.659e-10
 83.71550    128.6 1.117e+04 1.947e-10
 83.74848    129.2 1.134e+04 2.294e-10
 83.77059    129.1 1.144e+04 2.414e-10
 83.80291    129.3 1.161e+04 2.679e-10
 83.82502    128.8 1.166e+04 2.617e-10
 83.83447    128.2 1.187e+04 3.164e-10
 83.85658    127.5 1.185e+04 2.901e-10
 83.89235    126.6 1.200e+04 3.964e-10
 83.92047    125.5 1.217e+04 6.007e-10
 83.94257    125.0 1.214e+04 5.521e-10
 83.98078    123.4 1.231e+04 7.363e-10
 84.00646    120.7 1.269e+04 9.251e-10
 84.02857    120.9 1.238e+04 7.542e-10
 84.06921    117.6 1.244e+04 7.538e-10
 84.09245    114.4 1.224e+04 6.663e-10
 84.11456    115.3 1.202e+04 5.606e-10
 84.15634    113.3 1.163e+04 4.981e-10
 84.17845    114.3 1.147e+04 4.587e-10
 84.20185    113.5 1.149e+04 4.769e-10
 84.24233    113.4 1.154e+04 5.158e-10
 84.26444    114.4 1.150e+04 5.001e-10
 84.29027    114.6 1.155e+04 5.084e-10
 84.32833    115.1 1.158e+04 4.692e-10
 84.35043    115.9 1.151e+04 4.450e-10
 84.37870    116.2 1.150e+04 3.729e-10
 84.41432    116.7 1.151e+04 3.604e-10
 84.43643    117.3 1.136e+04 3.120e-10
 84.46712    117.8 1.141e+04 3.219e-10
 84.50031    117.7 1.158e+04 4.008e-10
 84.52242    118.2 1.133e+04 3.371e-10
 84.55555    118.1 1.161e+04 4.727e-10
 84.58631    117.9 1.198e+04 6.545e-10
 84.60842    118.6 1.186e+04 6.189e-10
 84.64398    118.5 1.205e+04 6.767e-10
 84.67230    118.6 1.204e+04 6.134e-10
 84.69441    119.4 1.200e+04 6.084e-10
 84.73240    119.8 1.190e+04 4.377e-10
 84.75830    120.4 1.196e+04 2.812e-10
 84.78040    121.1 1.180e+04 2.529e-10
 84.82083    121.5 1.174e+04 1.601e-10
 84.84429    122.4 1.167e+04 1.454e-10
 84.86640    122.7 1.131e+04 1.396e-10
 84.90818    123.9 1.129e+04 1.424e-10
 84.93028    124.2 1.119e+04 1.415e-10
 84.95347    125.5 1.114e+04 1.549e-10
 84.99417    126.8 1.121e+04 1.866e-10
 85.01628    127.0 1.110e+04 1.818e-10
 85.04190    128.1 1.119e+04 2.247e-10
 85.08016    129.1 1.127e+04 2.737e-10
 85.10227    129.2 1.117e+04 2.407e-10
 85.12117    130.1 1.122e+04 2.655e-10
 85.14328    130.2 1.128e+04 2.938e-10
 85.16616    130.8 1.131e+04 2.944e-10
 85.18826    131.0 1.106e+04 2.153e-10
 85.21875    131.7 1.110e+04 2.208e-10
 85.25215    132.1 1.121e+04 2.364e-10
 85.27426    132.8 1.098e+04 1.851e-10
 85.30717    133.2 1.110e+04 2.094e-10
 85.33814    133.4 1.124e+04 2.423e-10
 85.36025    134.6 1.106e+04 2.079e-10
 85.39560    134.9 1.121e+04 2.693e-10
 85.42414    135.3 1.140e+04 3.630e-10
 85.44624    136.6 1.125e+04 3.340e-10
 85.48403    137.0 1.144e+04 4.428e-10
 85.51013    137.4 1.151e+04 5.177e-10
 85.53224    138.8 1.147e+04 5.116e-10
 85.57245    139.2 1.146e+04 5.244e-10
 85.59613    139.9 1.133e+04 4.862e-10
 85.61823    140.7 1.137e+04 5.085e-10
 85.66001    141.4 1.118e+04 4.472e-10
 85.68202    141.8 1.120e+04 4.584e-10
 85.70499    142.3 1.108e+04 4.353e-10
 85.74601    142.5 1.106e+04 4.383e-10
 85.76802    142.9 1.102e+04 4.439e-10
 85.78010    143.1 1.106e+04 4.660e-10
 85.79116    142.8 1.104e+04 4.499e-10
 85.79986    142.8 1.114e+04 4.973e-10
 85.81091    143.1 1.105e+04 4.807e-10
 85.82648    143.1 1.117e+04 5.380e-10
 85.84286    143.0 1.134e+04 6.116e-10
 85.85391    143.3 1.123e+04 5.857e-10
 85.87070    143.1 1.140e+04 6.650e-10
 85.88585    142.9 1.154e+04 7.467e-10
 85.89691    143.2 1.150e+04 7.438e-10
 85.91491    142.9 1.162e+04 7.816e-10
 85.92885    142.5 1.162e+04 7.772e-10
 85.93990    142.9 1.162e+04 7.774e-10
 85.95912    142.6 1.154e+04 7.452e-10
 85.97185    142.4 1.138e+04 6.796e-10
 85.98290    142.8 1.139e+04 6.895e-10
 86.00334    142.5 1.126e+04 6.246e-10
 86.01484    142.3 1.126e+04 6.123e-10
 86.02590    142.7 1.129e+04 6.390e-10
 86.04679    142.3 1.136e+04 6.524e-10
 86.05784    142.7 1.143e+04 7.046e-10
 86.06966    141.7 1.176e+04 7.963e-10
 86.08979    140.3 1.226e+04 1.085e-09
 86.10084    140.5 1.248e+04 1.254e-09
 86.11387    139.5 1.301e+04 1.888e-09
 86.13278    139.0 1.335e+04 2.456e-09
 86.14384    139.3 1.366e+04 2.893e-09
 86.15808    138.9 1.368e+04 2.900e-09
 86.17578    138.6 1.351e+04 2.604e-09
 86.18683    138.8 1.374e+04 2.918e-09
 86.20230    138.2 1.338e+04 2.099e-09
 86.21878    136.7 1.295e+04 1.385e-09
 86.22983    136.8 1.309e+04 1.439e-09
 86.24651    134.5 1.246e+04 1.033e-09
 86.26177    132.7 1.197e+04 9.434e-10
 86.27283    132.5 1.219e+04 1.036e-09
 86.29072    131.1 1.224e+04 1.093e-09
 86.30477    129.8 1.261e+04 1.338e-09
 86.31582    129.2 1.293e+04 1.589e-09
 86.33493    128.1 1.360e+04 2.308e-09
 86.34777    127.3 1.430e+04 3.360e-09
 86.35882    127.0 1.450e+04 3.552e-09
 86.37915    126.4 1.511e+04 4.805e-09
 86.39076    125.9 1.549e+04 6.014e-09
 86.40182    125.5 1.545e+04 5.836e-09
 86.42271    125.7 1.563e+04 6.655e-09
 86.43376    125.4 1.556e+04 6.322e-09
 86.43923    125.6 1.556e+04 6.420e-09
 86.45029    125.3 1.520e+04 5.249e-09
 86.46570    125.7 1.495e+04 4.674e-09
 86.47676    125.4 1.461e+04 3.599e-09
 86.48968    125.5 1.431e+04 2.954e-09
 86.50870    125.2 1.410e+04 2.426e-09
 86.51975    124.5 1.387e+04 2.083e-09
 86.53389    123.0 1.425e+04 2.304e-09
 86.55170    120.3 1.500e+04 3.087e-09
 86.56275    118.5 1.564e+04 3.654e-09
 86.57253    117.9 1.579e+04 4.826e-09
 86.57862    117.7 1.581e+04 5.263e-09
 86.58415    116.7 1.630e+04 6.270e-09
 86.59464    117.5 1.665e+04 8.971e-09
 86.60570    117.1 1.736e+04 1.194e-08
 86.62227    118.1 1.775e+04 1.405e-08
 86.63769    118.8 1.753e+04 1.190e-08
 86.64874    118.6 1.823e+04 1.263e-08
 86.66653    117.9 1.739e+04 6.479e-09
 86.68069    114.8 1.656e+04 3.113e-09
 86.69174    112.1 1.618e+04 2.165e-09
 86.71075    108.3 1.383e+04 1.390e-09
 86.72368    107.8 1.307e+04 1.287e-09
 86.73474    106.2 1.260e+04 1.138e-09
 86.75496    107.0 1.254e+04 1.054e-09
 86.76668    107.6 1.249e+04 1.043e-09
 86.77773    106.8 1.238e+04 9.566e-10
 86.79862    107.6 1.237e+04 9.237e-10
 86.80968    107.1 1.221e+04 8.473e-10
 86.82128    107.4 1.221e+04 8.370e-10
 86.84172    108.7 1.246e+04 9.145e-10
 86.86392    107.9 1.191e+04 6.902e-10
 86.89885    108.4 1.245e+04 8.329e-10
 86.92771    107.5 1.333e+04 1.200e-09
 86.93867    107.1 1.260e+04 8.481e-10
 86.95392    106.1 1.397e+04 1.564e-09
 86.97061    105.0 1.552e+04 3.371e-09
 86.98167    104.1 1.472e+04 2.151e-09
 86.99813    103.3 1.589e+04 4.260e-09
 87.01361    102.9 1.673e+04 6.524e-09
 87.02466    102.1 1.536e+04 4.082e-09
 87.04234    101.6 1.587e+04 4.710e-09
 87.05661    100.4 1.644e+04 4.987e-09
 87.06766    100.1 1.470e+04 2.804e-09
 87.08656     98.1 1.537e+04 2.992e-09
 87.09836     95.3 1.654e+04 3.851e-09
 87.10035     94.4 1.611e+04 2.950e-09
 87.11066     94.3 1.387e+04 1.478e-09
 87.13077     91.8 1.506e+04 1.980e-09
 87.14260     89.5 1.631e+04 3.480e-09
 87.15365     89.6 1.470e+04 1.867e-09
 87.17454     87.6 1.565e+04 3.116e-09
 87.18560     87.7 1.459e+04 2.079e-09
 87.19709     86.9 1.482e+04 2.888e-09
 87.21754     86.4 1.464e+04 3.080e-09
 87.22859     86.5 1.431e+04 2.530e-09
 87.24130     86.5 1.407e+04 2.352e-09
 87.26054     86.2 1.372e+04 1.900e-09
 87.27159     86.3 1.354e+04 1.804e-09
 87.28552     86.2 1.310e+04 1.450e-09
 87.30353     86.1 1.272e+04 1.205e-09
 87.31459     86.4 1.265e+04 1.192e-09
 87.32973     86.5 1.240e+04 1.053e-09
 87.34653     87.0 1.220e+04 9.669e-10
 87.35758     87.2 1.217e+04 9.615e-10
 87.37394     87.7 1.206e+04 9.091e-10
 87.38953     88.7 1.201e+04 8.790e-10
 87.40058     88.6 1.197e+04 8.810e-10
 87.41816     89.6 1.196e+04 8.800e-10
 87.43252     90.6 1.204e+04 8.777e-10
 87.44358     90.5 1.197e+04 8.880e-10
 87.46237     91.4 1.201e+04 9.161e-10
 87.47552     92.3 1.212e+04 9.497e-10
 87.48657     92.1 1.202e+04 9.380e-10
 87.50658     93.0 1.212e+04 9.975e-10
 87.51852     94.0 1.219e+04 1.077e-09
 87.52957     93.6 1.192e+04 9.865e-10
 87.55046     94.7 1.205e+04 1.056e-09
 87.56151     94.0 1.168e+04 9.013e-10
 87.57290     94.7 1.190e+04 9.864e-10
 87.59346     94.7 1.247e+04 1.198e-09
 87.60451     94.2 1.172e+04 9.188e-10
 87.61712     94.2 1.227e+04 1.140e-09
 87.63645     94.2 1.295e+04 1.515e-09
 87.64751     94.0 1.176e+04 9.519e-10
 87.66133     94.1 1.211e+04 1.093e-09
 87.67945     94.1 1.239e+04 1.238e-09
 87.69050     93.4 1.117e+04 7.353e-10
 87.70554     93.3 1.123e+04 7.629e-10
 87.72245     93.2 1.138e+04 8.454e-10
 87.73350     93.0 1.088e+04 6.345e-10
 87.74644     93.0 1.094e+04 7.021e-10
 87.75749     92.8 1.095e+04 6.791e-10
 87.76544     93.2 1.098e+04 7.421e-10
 87.77650     93.8 1.091e+04 6.398e-10
 87.79397     94.4 1.092e+04 6.871e-10
 87.80844     95.1 1.086e+04 6.853e-10
 87.81949     95.4 1.084e+04 6.502e-10
 87.83818     96.2 1.077e+04 6.336e-10
 87.85144     96.9 1.080e+04 6.022e-10
 87.86249     97.4 1.068e+04 5.971e-10
 87.88239     98.1 1.077e+04 5.921e-10
 87.89444     98.4 1.114e+04 6.173e-10
 87.90549     99.2 1.074e+04 5.846e-10
 87.92638     99.5 1.128e+04 6.351e-10
 87.93743    100.2 1.075e+04 5.889e-10
 87.94871    100.3 1.151e+04 6.747e-10
 87.96938     99.8 1.273e+04 9.758e-10
 87.98043    100.8 1.183e+04 7.346e-10
 87.99293    100.0 1.329e+04 1.182e-09
 88.01237     99.1 1.438e+04 2.239e-09
 88.02343    100.0 1.372e+04 1.405e-09
 88.03714     99.1 1.467e+04 2.655e-09
 88.05537     98.9 1.515e+04 4.391e-09
 88.06642     99.3 1.470e+04 2.858e-09
 88.08135     99.2 1.509e+04 4.364e-09
 88.09837     99.3 1.530e+04 5.352e-09
 88.10942     99.4 1.487e+04 4.035e-09
 88.12557     99.5 1.506e+04 4.786e-09
 88.14136     99.4 1.512e+04 4.807e-09
 88.15242     99.5 1.466e+04 3.848e-09
 88.16978     99.0 1.481e+04 3.884e-09
 88.18436     98.3 1.491e+04 3.724e-09
 88.19541     98.6 1.428e+04 2.925e-09
 88.21399     97.8 1.437e+04 2.991e-09
 88.22736     97.1 1.438e+04 3.010e-09
 88.23841     97.6 1.384e+04 2.442e-09
 88.25821     97.1 1.410e+04 2.845e-09
 88.27035     96.8 1.440e+04 3.347e-09
 88.28141     97.4 1.423e+04 3.038e-09
 88.30230     97.0 1.491e+04 4.214e-09
 88.31335     97.5 1.484e+04 3.676e-09
 88.32453     97.1 1.574e+04 5.626e-09
 88.34529     96.8 1.668e+04 8.248e-09
 88.35635     96.9 1.670e+04 7.991e-09
 88.36874     97.0 1.765e+04 1.179e-08
 88.38829     97.3 1.825e+04 1.441e-08
 88.39934     97.2 1.836e+04 1.472e-08
 88.40557     97.0 1.856e+04 1.472e-08
 88.41662     97.3 1.798e+04 1.207e-08
 88.43129     97.2 1.802e+04 1.140e-08
 88.44234     97.1 1.802e+04 1.126e-08
 88.45717     96.5 1.804e+04 1.044e-08
 88.47428     95.8 1.755e+04 9.261e-09
 88.48534     95.6 1.781e+04 9.518e-09
 88.50138     94.7 1.765e+04 1.015e-08
 88.51723     94.2 1.758e+04 1.133e-08
 88.52829     93.9 1.790e+04 1.247e-08
 88.53873     93.7 1.770e+04 1.428e-08
 88.54421     93.7 1.811e+04 1.614e-08
 88.55102     93.9 1.823e+04 1.772e-08
 88.56018     94.8 1.814e+04 1.831e-08
 88.57128     94.7 1.867e+04 1.836e-08
 88.58980     95.3 1.843e+04 1.623e-08
 88.60327     95.8 1.790e+04 1.218e-08
 88.61433     95.2 1.791e+04 1.157e-08
 88.63402     94.8 1.738e+04 8.616e-09
 88.64627     94.0 1.714e+04 6.929e-09
 88.65732     92.8 1.706e+04 6.030e-09
 88.67821     92.1 1.676e+04 5.801e-09
 88.70032     90.8 1.641e+04 4.408e-09
 88.72121     91.2 1.672e+04 5.277e-09
 88.73226     89.1 1.594e+04 2.910e-09
 88.74455     89.5 1.639e+04 3.523e-09
 88.76421     89.8 1.681e+04 4.267e-09
 88.77526     87.1 1.503e+04 1.822e-09
 88.78876     87.5 1.566e+04 2.081e-09
 88.80721     88.2 1.638e+04 2.367e-09
 88.81826     84.1 1.255e+04 9.080e-10
 88.83298     84.1 1.230e+04 8.060e-10
 88.85020     83.4 1.177e+04 7.208e-10
 88.86126     79.7 1.079e+04 6.809e-10
 88.87719     79.2 1.064e+04 6.308e-10
 88.89320     79.0 1.051e+04 5.963e-10
 88.90425     78.6 1.053e+04 6.120e-10
 88.92140     78.9 1.049e+04 5.918e-10
 88.93620     79.3 1.047e+04 5.774e-10
 88.94725     79.1 1.066e+04 6.356e-10
 88.96562     79.7 1.066e+04 6.127e-10
 88.97919     80.2 1.064e+04 5.902e-10
 88.99025     79.7 1.079e+04 6.449e-10
 89.00983     80.4 1.074e+04 6.175e-10
 89.02219     81.1 1.075e+04 6.170e-10
 89.03324     80.3 1.101e+04 7.238e-10
 89.05365     80.8 1.107e+04 7.353e-10
 89.06470     81.3 1.107e+04 7.278e-10
 89.07615     80.4 1.176e+04 1.036e-09
 89.09713     80.7 1.203e+04 1.138e-09
 89.10818     79.3 1.274e+04 1.705e-09
 89.12036     79.1 1.312e+04 1.979e-09
 89.14013     78.8 1.352e+04 2.380e-09
 89.15118     77.3 1.370e+04 2.615e-09
 89.16458     77.2 1.399e+04 2.990e-09
 89.18312     77.3 1.428e+04 3.435e-09
 89.19418     75.9 1.401e+04 2.960e-09
 89.20879     76.2 1.400e+04 2.863e-09
 89.22612     76.5 1.386e+04 2.487e-09
 89.23717     74.3 1.312e+04 1.467e-09
 89.25300     73.8 1.272e+04 1.079e-09
 89.26912     73.0 1.217e+04 7.691e-10
 89.28017     69.8 1.120e+04 4.892e-10
 89.29721     69.0 1.073e+04 4.054e-10
 89.31211     68.6 1.052e+04 3.626e-10
 89.32317     67.0 1.060e+04 3.195e-10
 89.34143     66.9 1.065e+04 3.254e-10
 89.35511     66.5 1.082e+04 3.457e-10
 89.36616     64.3 1.089e+04 3.523e-10
 89.38564     63.5 1.109e+04 4.057e-10
 89.39811     62.7 1.126e+04 4.889e-10
 89.40916     60.3 1.145e+04 5.620e-10
 89.42985     60.1 1.158e+04 6.489e-10
 89.44110     60.1 1.164e+04 6.558e-10
 89.45216     58.1 1.168e+04 6.780e-10
 89.47305     58.0 1.156e+04 6.412e-10
 89.48410     56.2 1.148e+04 6.398e-10
 89.49617     56.6 1.116e+04 5.587e-10
 89.51604     56.5 1.098e+04 5.013e-10
 89.52710     54.9 1.098e+04 5.020e-10
 89.54039     54.9 1.076e+04 4.281e-10
 89.55904     54.8 1.070e+04 3.927e-10
 89.57009     53.5 1.075e+04 4.068e-10
 89.59108     54.5 1.066e+04 3.447e-10
 89.61319     52.6 1.084e+04 4.042e-10
 89.62881     53.1 1.071e+04 3.864e-10
 89.64503     53.2 1.072e+04 3.871e-10
 89.65609     52.1 1.081e+04 4.411e-10
 89.67303     52.8 1.064e+04 4.195e-10
 89.68803     53.0 1.066e+04 4.175e-10
 89.69908     52.0 1.079e+04 4.690e-10
 89.71278     52.6 1.070e+04 4.440e-10
 89.72383     53.4 1.061e+04 4.210e-10
 89.73103     53.3 1.066e+04 4.273e-10
 89.74208     52.3 1.083e+04 4.702e-10
 89.76307     52.9 1.063e+04 4.522e-10
 89.78527     50.2 1.131e+04 6.567e-10
 89.81691     51.6 1.105e+04 6.502e-10
 89.84916     52.5 1.102e+04 6.563e-10
 89.87127     50.3 1.173e+04 9.933e-10
 89.89206     52.3 1.134e+04 8.011e-10
 89.90302     51.2 1.159e+04 9.453e-10
 89.91620     51.9 1.149e+04 8.754e-10
 89.93496     52.5 1.129e+04 7.973e-10
 89.94601     51.3 1.153e+04 9.198e-10
 89.96041     51.9 1.130e+04 8.367e-10
 89.97796     52.5 1.106e+04 7.572e-10
 89.98901     51.3 1.137e+04 9.056e-10
 90.00462     52.1 1.125e+04 8.685e-10
 90.02095     52.8 1.118e+04 8.303e-10
 90.03201     51.8 1.152e+04 1.024e-09
 90.04884     52.7 1.149e+04 1.006e-09
 90.06395     53.7 1.137e+04 9.524e-10
 90.07500     52.0 1.208e+04 1.260e-09
 90.09305     50.9 1.330e+04 1.571e-09
 90.10695     48.6 1.512e+04 2.284e-09
 90.11800     44.7 1.553e+04 5.240e-09
 90.13726     45.3 1.578e+04 7.762e-09
 90.14994     46.5 1.553e+04 9.162e-09
 90.16100     48.3 1.496e+04 8.262e-09
 90.18148     49.6 1.481e+04 7.947e-09
 90.19294     50.9 1.441e+04 6.781e-09
 90.20399     51.5 1.408e+04 4.205e-09
 90.22488     51.6 1.392e+04 2.795e-09
 90.23594     47.2 1.623e+04 1.098e-09
 90.24780     45.5 1.541e+04 8.118e-10
 90.26788     43.5 1.451e+04 6.128e-10
 90.27903     36.2 1.200e+04 7.826e-10
 90.30326     35.9 1.095e+04 7.706e-10
 90.34302     36.8 1.048e+04 7.271e-10
 90.36512     34.9 1.101e+04 9.548e-10
 90.37210     36.3 1.052e+04 7.064e-10
 90.39421     36.4 1.061e+04 8.150e-10
 90.42901     37.9 1.026e+04 5.847e-10
 90.45112     33.4 1.015e+04 3.923e-10
 90.48011     34.3 9.535e+03 2.751e-10
 90.51500     35.8 9.045e+03 2.071e-10
 90.53711     31.9 1.001e+04 3.742e-10
 90.56854     34.3 1.005e+04 3.924e-10
 90.60100     36.7 1.013e+04 4.214e-10
 90.62310     33.1 1.150e+04 8.588e-10
 90.65696     35.7 1.187e+04 1.030e-09
 90.68699     38.6 1.230e+04 1.284e-09
 90.69795     34.5 1.267e+04 1.422e-09
 90.71203     35.9 1.295e+04 1.586e-09
 90.72979     36.9 1.331e+04 1.909e-09
 90.74085     34.8 1.350e+04 1.784e-09
 90.75625     35.9 1.388e+04 2.059e-09
 90.77279     36.8 1.426e+04 2.388e-09
 90.78384     34.5 1.305e+04 1.141e-09
 90.80046     35.4 1.337e+04 1.200e-09
 90.81579     36.4 1.381e+04 1.280e-09
 90.82684     33.0 1.106e+04 4.640e-10
 90.84467     33.5 1.128e+04 4.403e-10
 90.85878     33.8 1.146e+04 4.412e-10
 90.86984     31.8 9.801e+03 2.944e-10
 90.88889     32.1 9.859e+03 3.032e-10
 90.90178     32.4 9.973e+03 3.350e-10
 90.91283     31.8 9.733e+03 3.287e-10
 90.93310     32.0 9.798e+03 3.511e-10
 90.94478     32.7 1.010e+04 4.242e-10
 90.96698     32.9 1.034e+04 5.322e-10
 90.99952     33.8 1.054e+04 6.226e-10
 91.01972     34.1 1.067e+04 6.813e-10
 91.03087     33.7 1.070e+04 7.147e-10
 91.04373     34.3 1.095e+04 8.041e-10
 91.06271     34.6 1.114e+04 8.748e-10
 91.07377     34.4 1.103e+04 8.173e-10
 91.08785     34.7 1.114e+04 8.475e-10
 91.10571     35.0 1.121e+04 8.748e-10
 91.11676     34.8 1.118e+04 8.354e-10
 91.13206     35.1 1.126e+04 8.847e-10
 91.14871     35.2 1.142e+04 9.765e-10
 91.15976     34.2 1.172e+04 9.878e-10
 91.17627     33.7 1.215e+04 1.198e-09
 91.19170     33.7 1.248e+04 1.505e-09
 91.20276     32.5 1.288e+04 1.897e-09
 91.22049     33.3 1.288e+04 2.212e-09
 91.23470     34.1 1.285e+04 2.182e-09
 91.24575     33.7 1.301e+04 2.368e-09
 91.26470     34.4 1.283e+04 2.108e-09
 91.27770     34.7 1.267e+04 1.821e-09
 91.28875     33.9 1.264e+04 1.567e-09
 91.30891     33.3 1.236e+04 1.296e-09
 91.32069     32.5 1.220e+04 1.211e-09
 91.33175     31.0 1.193e+04 1.000e-09
 91.35264     30.3 1.198e+04 1.022e-09
 91.36369     29.0 1.166e+04 8.487e-10
 91.37523     28.6 1.178e+04 9.361e-10
 91.39563     28.4 1.188e+04 1.036e-09
 91.40669     27.5 1.156e+04 9.168e-10
 91.41945     27.2 1.154e+04 9.580e-10
 91.43863     27.0 1.145e+04 9.457e-10
 91.44968     26.5 1.117e+04 8.524e-10
 91.46366     26.5 1.096e+04 7.804e-10
 91.48163     26.6 1.073e+04 6.540e-10
 91.49268     26.1 1.053e+04 5.240e-10
 91.50787     25.8 1.034e+04 4.187e-10
 91.52463     25.6 1.019e+04 3.535e-10
 91.54683     25.2 1.011e+04 3.053e-10
 91.58544     25.2 9.892e+03 2.811e-10
 91.61081     25.8 9.860e+03 2.898e-10
 91.63292     25.7 9.851e+03 2.875e-10
 91.66825     26.6 9.967e+03 3.201e-10
 91.69036     26.2 9.570e+03 2.333e-10
 91.69681     27.0 9.724e+03 2.579e-10
 91.71891     26.6 9.790e+03 2.611e-10
 91.76069     27.3 9.941e+03 2.813e-10
 91.78280     26.9 9.968e+03 2.793e-10
 91.80651     27.4 1.017e+04 3.208e-10
 91.84669     27.8 1.040e+04 3.885e-10
 91.86879     27.6 1.040e+04 3.835e-10
 91.89493     28.0 1.050e+04 4.457e-10
 91.92799     28.3 1.047e+04 4.587e-10
 91.94354     28.5 1.048e+04 4.682e-10
 91.95469     28.6 1.033e+04 4.035e-10
 91.98336     29.0 1.038e+04 4.205e-10
 92.01868     29.4 1.040e+04 4.323e-10
 92.04078     29.6 1.018e+04 3.438e-10
 92.07178     29.9 1.030e+04 3.778e-10
 92.10467     30.2 1.048e+04 4.418e-10
 92.12678     30.6 1.020e+04 3.586e-10
 92.16021     31.0 1.050e+04 4.656e-10
 92.19066     31.5 1.079e+04 5.923e-10
 92.21277     32.1 1.073e+04 5.405e-10
 92.24864     32.7 1.097e+04 6.135e-10
 92.27666     33.0 1.114e+04 6.251e-10
 92.28761     32.9 1.117e+04 6.322e-10
 92.30371     32.9 1.122e+04 6.237e-10
 92.31946     32.8 1.132e+04 6.227e-10
 92.33051     32.4 1.163e+04 6.684e-10
 92.33824     32.1 1.181e+04 6.959e-10
 92.34929     32.7 1.102e+04 4.998e-10
 92.36245     32.4 1.117e+04 5.162e-10
 92.37351     32.1 1.139e+04 5.688e-10
 92.39213     32.0 1.142e+04 5.987e-10
 92.42539     32.1 1.197e+04 9.136e-10
 92.44864     33.4 1.174e+04 8.375e-10
 92.47075     33.8 1.181e+04 9.141e-10
 92.51253     35.0 1.146e+04 7.884e-10
 92.53464     35.4 1.142e+04 8.035e-10
 92.55813     36.6 1.131e+04 7.656e-10
 92.59852     37.9 1.129e+04 7.697e-10
 92.62063     38.7 1.101e+04 6.283e-10
 92.64655     39.9 1.102e+04 6.442e-10
 92.68452     41.1 1.099e+04 6.338e-10
 92.70662     42.1 1.058e+04 4.304e-10
 92.73498     43.0 1.045e+04 3.921e-10
 92.77051     43.6 1.031e+04 3.488e-10
 92.79262     44.2 1.014e+04 2.812e-10
 92.82341     44.6 1.008e+04 2.797e-10
 92.85651     44.8 1.007e+04 2.878e-10
 92.87861     45.6 1.005e+04 2.824e-10
 92.91183     45.7 1.011e+04 3.032e-10
 92.94250     45.8 1.021e+04 3.337e-10
 92.96461     46.1 1.038e+04 3.471e-10
 92.98651     45.9 1.061e+04 4.099e-10
 93.00862     47.6 1.034e+04 3.335e-10
 93.02849     47.5 1.069e+04 4.290e-10
 93.05060     47.1 1.110e+04 5.746e-10
 93.08869     47.0 1.150e+04 7.791e-10
 93.11449     47.1 1.177e+04 9.330e-10
 93.13659     46.5 1.190e+04 9.923e-10
 93.17711     46.3 1.186e+04 9.564e-10
 93.20048     46.4 1.161e+04 7.819e-10
 93.22259     45.4 1.135e+04 6.309e-10
 93.26437     45.4 1.094e+04 4.734e-10
 93.28647     43.9 1.077e+04 4.474e-10
 93.30975     44.1 1.065e+04 4.353e-10
 93.35036     44.3 1.059e+04 4.472e-10
 93.37247     43.2 1.055e+04 4.930e-10
 93.39818     43.3 1.034e+04 4.669e-10
 93.43635     43.5 1.015e+04 4.112e-10
 93.45846     42.8 1.002e+04 3.731e-10
 93.48660     43.1 9.681e+03 2.783e-10
 93.52235     43.5 9.376e+03 2.029e-10
 93.54445     43.3 9.323e+03 1.943e-10
 93.57503     44.1 9.081e+03 1.467e-10
 93.60834     45.2 8.853e+03 1.157e-10
 93.63045     45.4 8.898e+03 1.511e-10
 93.66346     46.9 8.831e+03 1.499e-10
 93.69433     48.5 8.829e+03 1.523e-10
 93.71644     48.8 8.998e+03 2.106e-10
 93.75188     50.5 9.066e+03 2.414e-10
 93.78033     52.3 9.313e+03 3.105e-10
 93.80244     52.7 9.626e+03 4.116e-10
 93.82323     53.7 9.807e+03 4.857e-10
 93.83418     53.5 9.849e+03 5.034e-10
 93.85117     54.0 9.992e+03 5.753e-10
 93.86613     54.8 1.019e+04 6.698e-10
 93.87718     54.6 1.023e+04 6.894e-10
 93.89538     55.2 1.037e+04 7.579e-10
 93.92864     56.4 1.046e+04 7.977e-10
 93.95232     58.0 1.064e+04 8.915e-10
 93.97442     57.4 1.028e+04 7.279e-10
 94.01620     58.9 1.049e+04 8.026e-10
 94.03821     57.7 1.032e+04 7.347e-10
 94.05013     57.8 1.055e+04 8.089e-10
 94.07006     57.5 1.086e+04 9.231e-10
 94.08111     56.6 1.084e+04 9.541e-10
 94.09434     56.2 1.126e+04 1.203e-09
 94.11305     55.8 1.178e+04 1.599e-09
 94.12411     55.6 1.172e+04 1.648e-09
 94.13855     55.7 1.233e+04 2.202e-09
 94.15605     55.9 1.281e+04 2.786e-09
 94.16710     56.2 1.253e+04 2.525e-09
 94.18277     56.1 1.292e+04 2.740e-09
 94.19905     55.2 1.309e+04 2.728e-09
 94.21010     55.1 1.303e+04 2.595e-09
 94.22698     53.0 1.353e+04 2.647e-09
 94.24204     50.3 1.367e+04 2.595e-09
 94.25310     48.7 1.455e+04 3.621e-09
 94.27119     46.7 1.444e+04 3.581e-09
 94.28504     45.6 1.401e+04 3.277e-09
 94.29609     45.7 1.489e+04 5.038e-09
 94.30458     45.8 1.413e+04 3.980e-09
 94.31563     46.7 1.354e+04 3.066e-09
 94.32804     46.7 1.289e+04 2.489e-09
 94.33909     47.4 1.343e+04 3.143e-09
 94.35962     47.2 1.267e+04 2.306e-09
 94.37104     46.6 1.199e+04 1.800e-09
 94.38209     46.7 1.209e+04 1.852e-09
 94.40298     46.3 1.181e+04 1.730e-09
 94.41403     46.4 1.177e+04 1.704e-09
 94.42594     46.6 1.177e+04 1.708e-09
 94.44598     46.8 1.186e+04 1.764e-09
 94.45703     47.2 1.167e+04 1.597e-09
 94.47015     47.1 1.210e+04 1.860e-09
 94.48897     46.8 1.272e+04 2.380e-09
 94.50003     47.2 1.276e+04 2.250e-09
 94.51436     46.7 1.356e+04 3.099e-09
 94.53197     46.0 1.419e+04 3.737e-09
 94.54302     45.5 1.461e+04 3.956e-09
 94.55858     44.3 1.472e+04 3.997e-09
 94.57497     43.0 1.454e+04 3.649e-09
 94.58602     41.8 1.509e+04 4.136e-09
 94.60279     39.7 1.457e+04 3.069e-09
 94.61796     36.2 1.367e+04 2.041e-09
 94.62902     34.4 1.439e+04 2.609e-09
 94.64700     30.1 1.304e+04 1.941e-09
 94.66096     26.7 1.211e+04 1.825e-09
 94.67201     25.4 1.222e+04 1.944e-09
 94.69122     24.2 1.198e+04 1.878e-09
 94.70396     23.6 1.189e+04 1.801e-09
 94.71501     22.7 1.170e+04 1.657e-09
 94.73543     22.0 1.149e+04 1.425e-09
 94.74695     20.8 1.110e+04 1.134e-09
 94.75801     19.9 1.079e+04 9.791e-10
 94.77890     18.5 1.025e+04 7.479e-10
 94.78995     18.0 1.006e+04 6.873e-10
 94.80175     16.8 9.579e+03 5.284e-10
 94.82189     15.9 9.250e+03 4.423e-10
 94.83295     16.0 9.243e+03 4.510e-10
 94.85393     15.5 8.831e+03 3.470e-10
 94.87614     16.4 8.804e+03 3.460e-10
 94.90142     16.1 8.366e+03 2.532e-10
 94.94003     15.5 8.079e+03 1.953e-10
 94.96213     16.2 8.316e+03 2.229e-10
 94.98985     15.6 8.025e+03 1.721e-10
 95.02602     15.2 7.839e+03 1.479e-10
 95.04813     16.0 7.956e+03 1.554e-10
 95.07828     15.8 7.748e+03 1.351e-10
 95.11201     15.9 7.735e+03 1.356e-10
 95.13412     16.6 7.722e+03 1.319e-10
 95.16670     16.9 7.754e+03 1.380e-10
 95.19801     17.5 7.975e+03 1.708e-10
 95.22011     18.2 7.933e+03 1.628e-10
 95.25513     18.8 8.459e+03 2.408e-10
 95.28400     18.9 8.938e+03 3.437e-10
 95.30611     19.8 8.826e+03 3.120e-10
 95.32690     19.7 9.043e+03 3.768e-10
 95.33786     20.1 8.977e+03 3.558e-10
 95.35441     20.1 9.173e+03 4.059e-10
 95.36980     20.1 9.419e+03 4.722e-10
 95.38085     20.4 9.382e+03 4.502e-10
 95.39863     20.4 9.654e+03 5.239e-10
 95.41280     20.3 9.965e+03 6.198e-10
 95.42385     20.5 9.959e+03 6.170e-10
 95.44284     19.8 1.069e+04 8.268e-10
 95.45579     17.6 1.225e+04 1.370e-09
 95.46685     18.0 1.236e+04 1.470e-09
 95.48705     15.4 1.430e+04 2.844e-09
 95.49879     13.1 1.573e+04 5.256e-09
 95.50984     13.5 1.626e+04 5.853e-09
 95.53073     11.7 1.730e+04 9.117e-09
 95.54179     11.6 1.789e+04 1.002e-08
 95.55337      9.3 1.807e+04 1.076e-08
 95.57373      7.2 1.764e+04 9.858e-09
 95.58478      6.6 1.768e+04 9.910e-09
 95.59759      4.9 1.649e+04 7.165e-09
 95.61178      3.5 1.509e+04 4.367e-09
 95.61987      4.4 1.539e+04 5.519e-09
 95.62778      4.2 1.486e+04 4.637e-09
 95.64180      3.4 1.403e+04 2.924e-09
 95.65972      2.0 1.323e+04 1.792e-09
 95.67078      1.6 1.283e+04 1.477e-09
 95.68601      0.1 1.208e+04 1.041e-09
 95.70272     -0.9 1.141e+04 8.305e-10
 95.71377     -0.8 1.120e+04 7.646e-10
 95.73023     -1.1 1.090e+04 6.817e-10
 95.74572     -1.2 1.073e+04 6.246e-10
 95.75677     -1.0 1.070e+04 5.981e-10
 95.77444     -1.3 1.055e+04 5.623e-10
 95.78871     -1.8 1.039e+04 5.282e-10
 95.79977     -1.8 1.042e+04 5.485e-10
 95.82980     -2.0 1.043e+04 5.629e-10
 95.86385     -2.1 1.013e+04 5.157e-10
 95.88596     -2.0 1.036e+04 6.165e-10
 95.91833     -1.6 9.849e+03 4.880e-10
 95.94984     -0.6 9.328e+03 2.899e-10
 95.97195     -0.3 9.474e+03 3.278e-10
 96.00675     -0.1 9.028e+03 1.599e-10
 96.03584     -0.4 8.725e+03 1.121e-10
 96.05794     -0.5 8.901e+03 1.617e-10
 96.09518     -0.0 8.904e+03 1.664e-10
 96.12183      0.8 9.038e+03 1.973e-10
 96.14394      0.8 9.217e+03 2.298e-10
 96.18361      1.7 9.539e+03 2.922e-10
 96.20782      2.3 9.824e+03 3.710e-10
 96.22993      2.2 9.752e+03 3.158e-10
 96.27171      2.6 9.955e+03 3.464e-10
 96.29382      2.2 9.968e+03 2.995e-10
 96.30509      2.2 1.016e+04 3.392e-10
 96.32557      2.0 1.034e+04 3.842e-10
 96.33662      1.7 1.027e+04 3.620e-10
 96.34921      1.3 1.051e+04 4.526e-10
 96.36856      1.0 1.072e+04 5.900e-10
 96.37962      1.0 1.056e+04 5.564e-10
 96.39342      1.1 1.069e+04 7.177e-10
 96.41156      1.5 1.086e+04 8.326e-10
 96.42261      1.9 1.066e+04 7.387e-10
 96.43764      2.1 1.084e+04 7.471e-10
 96.45456      2.0 1.082e+04 7.246e-10
 96.46561      2.1 1.060e+04 6.022e-10
 96.48185      1.7 1.079e+04 5.639e-10
 96.49755      0.7 1.094e+04 5.645e-10
 96.50861      0.9 1.072e+04 4.772e-10
 96.52606     -0.4 1.102e+04 5.119e-10
 96.54055     -1.9 1.129e+04 6.104e-10
 96.55160     -1.4 1.110e+04 5.580e-10
 96.57028     -2.5 1.134e+04 7.539e-10
 96.58355     -2.9 1.159e+04 1.044e-09
 96.59460     -2.5 1.173e+04 1.078e-09
 96.61449     -2.4 1.213e+04 1.494e-09
 96.62654     -2.2 1.238e+04 1.721e-09
 96.63760     -1.8 1.266e+04 1.972e-09
 96.65849     -1.7 1.267e+04 1.959e-09
 96.66954     -1.3 1.284e+04 2.184e-09
 96.68081     -1.2 1.267e+04 1.999e-09
 96.70148     -1.1 1.234e+04 1.686e-09
 96.71254     -0.6 1.251e+04 1.792e-09
 96.72502     -0.7 1.224e+04 1.488e-09
 96.74448     -1.0 1.197e+04 1.242e-09
 96.75553     -0.6 1.212e+04 1.296e-09
 96.76923     -1.1 1.188e+04 1.111e-09
 96.78748     -1.5 1.168e+04 9.657e-10
 96.79853     -1.3 1.184e+04 1.037e-09
 96.81345     -1.7 1.175e+04 9.440e-10
 96.83047     -2.1 1.172e+04 8.697e-10
 96.84153     -2.3 1.211e+04 1.066e-09
 96.85766     -3.0 1.225e+04 1.044e-09
 96.87347     -3.7 1.234e+04 9.866e-10
 96.88452     -4.4 1.321e+04 1.531e-09
 96.90187     -4.7 1.319e+04 1.343e-09
 96.91647     -4.8 1.282e+04 1.018e-09
 96.92253     -4.8 1.375e+04 1.674e-09
 96.93004     -4.2 1.268e+04 1.006e-09
 96.94609     -4.6 1.186e+04 6.404e-10
 96.95946     -5.2 1.097e+04 4.208e-10
 96.97052     -5.0 1.169e+04 5.621e-10
 96.99030     -5.7 1.090e+04 3.593e-10
 97.02345     -5.6 1.065e+04 2.700e-10
 97.06776     -4.4 1.064e+04 2.887e-10
 97.10954     -3.0 1.050e+04 2.837e-10
 97.13165     -2.2 1.033e+04 3.656e-10
 97.14514     -1.5 1.026e+04 3.514e-10
 97.16340     -0.8 1.021e+04 3.634e-10
 97.17445     -0.2 1.007e+04 4.061e-10
 97.18926      0.9 1.018e+04 4.544e-10
 97.20639      1.8 1.042e+04 5.267e-10
 97.21745      2.5 1.041e+04 5.431e-10
 97.24462      4.3 1.111e+04 7.688e-10
 97.27778      4.6 1.158e+04 9.852e-10
 97.29239      3.6 1.242e+04 1.459e-09
 97.30344      3.7 1.263e+04 1.535e-09
 97.32190      2.7 1.378e+04 2.894e-09
 97.33538      3.3 1.483e+04 5.228e-09
 97.34644      3.7 1.496e+04 5.453e-09
 97.36611      5.2 1.577e+04 7.890e-09
 97.37838      6.2 1.590e+04 8.090e-09
 97.38943      6.8 1.589e+04 8.113e-09
 97.41032      8.1 1.565e+04 7.241e-09
 97.43243      9.7 1.483e+04 4.745e-09
 97.45332      9.5 1.410e+04 2.904e-09
 97.46437      9.9 1.379e+04 2.536e-09
 97.47664      8.6 1.289e+04 1.631e-09
 97.49632      7.1 1.170e+04 1.129e-09
 97.50737      7.9 1.157e+04 1.082e-09
 97.52086      7.7 1.091e+04 9.701e-10
 97.53931      8.2 1.087e+04 9.679e-10
 97.55037      9.1 1.099e+04 9.724e-10
 97.56507      9.4 1.108e+04 1.010e-09
 97.57812      9.5 1.137e+04 1.133e-09
 97.58430      9.0 1.144e+04 1.217e-09
 97.59336      9.5 1.161e+04 1.343e-09
 97.60928      9.1 1.203e+04 1.785e-09
 97.62531      7.7 1.290e+04 2.732e-09
 97.63636      8.0 1.333e+04 3.259e-09
 97.65350      6.1 1.507e+04 6.072e-09
 97.66830      5.3 1.648e+04 1.012e-08
 97.67936      5.3 1.712e+04 1.217e-08
 97.69771      5.2 1.735e+04 1.294e-08
 97.71130      5.9 1.702e+04 1.122e-08
 97.72235      6.3 1.728e+04 1.191e-08
 97.74192      7.3 1.628e+04 6.803e-09
 97.75430      6.7 1.515e+04 2.599e-09
 97.76535      6.7 1.485e+04 2.338e-09
 97.78614      2.3 1.320e+04 6.564e-10
 97.79729     -4.2 1.003e+04 2.417e-10
 97.80835     -4.3 9.989e+03 2.248e-10
 97.82924     -5.8 9.238e+03 2.008e-10
 97.84029     -5.1 9.480e+03 2.034e-10
 97.86128     -5.5 8.848e+03 1.705e-10
 97.88348     -5.1 8.748e+03 1.425e-10
 97.90792     -4.7 8.652e+03 1.402e-10
 97.94737     -4.1 8.736e+03 1.509e-10
 97.96948     -3.7 8.668e+03 1.403e-10
 97.99634     -2.9 8.844e+03 1.735e-10
 98.03336     -2.0 9.335e+03 2.673e-10
 98.05547     -1.2 9.068e+03 2.333e-10
 98.08477     -0.4 9.492e+03 3.465e-10
 98.11783      0.7 9.600e+03 4.155e-10
 98.13022      1.2 9.674e+03 4.642e-10
 98.14137      1.8 9.552e+03 3.913e-10
 98.16205      2.4 9.809e+03 5.020e-10
 98.17321      3.0 1.001e+04 5.727e-10
 98.18427      3.5 9.856e+03 4.859e-10
 98.20525      4.0 1.012e+04 5.790e-10
 98.22538      5.5 9.821e+03 4.508e-10
 98.23744      6.0 9.906e+03 5.098e-10
 98.26162      6.8 1.006e+04 5.101e-10
 98.29134      7.3 1.027e+04 5.276e-10
 98.31345      8.9 1.020e+04 4.734e-10
 98.35005      9.2 1.050e+04 5.925e-10
 98.37734      9.8 1.085e+04 8.456e-10
 98.39945     11.5 1.103e+04 9.491e-10
 98.43848     12.9 1.159e+04 1.341e-09
 98.46323     13.6 1.182e+04 1.606e-09
 98.47419     14.6 1.181e+04 1.655e-09
 98.49355     15.7 1.183e+04 1.733e-09
 98.50613     17.1 1.203e+04 1.775e-09
 98.51719     18.3 1.196e+04 1.597e-09
 98.53776     18.8 1.236e+04 1.675e-09
 98.54913     18.7 1.326e+04 2.016e-09
 98.56018     19.4 1.354e+04 1.782e-09
 98.58107     18.5 1.577e+04 3.117e-09
 98.59213     19.0 1.603e+04 2.331e-09
 98.59850     14.9 1.961e+04 5.347e-09
 98.60800     11.5 2.086e+04 1.128e-08
 98.61353     10.3 2.166e+04 1.161e-08
 98.62056      8.6 2.029e+04 2.870e-08
 98.62950      8.9 1.955e+04 6.470e-08
 98.63503      8.5 1.963e+04 7.828e-08
 98.64267     10.4 1.979e+04 1.432e-07
 98.65100     11.3 2.036e+04 1.758e-07
 98.65652     11.3 2.045e+04 1.711e-07
 98.66477     12.6 2.048e+04 1.479e-07
 98.67250     14.4 2.065e+04 9.734e-08
 98.67802     15.1 2.082e+04 6.759e-08
 98.68688     15.0 2.099e+04 3.437e-08
 98.69400     13.0 2.039e+04 1.930e-08
 98.69952     11.5 1.914e+04 1.383e-08
 98.71002     10.3 1.725e+04 9.288e-09
 98.72112     10.1 1.606e+04 6.632e-09
 98.73672      9.2 1.460e+04 3.958e-09
 98.75306      8.0 1.369e+04 2.325e-09
 98.76411      8.6 1.335e+04 2.252e-09
 98.78093      8.0 1.266e+04 1.411e-09
 98.79606      7.3 1.222e+04 8.992e-10
 98.80711      8.6 1.223e+04 1.024e-09
 98.82515      8.4 1.190e+04 6.426e-10
 98.83905      7.9 1.177e+04 4.459e-10
 98.85011      9.2 1.179e+04 5.147e-10
 98.87110      7.2 1.068e+04 2.691e-10
 98.89330      9.4 1.092e+04 2.794e-10
 98.92482      7.4 9.390e+03 1.856e-10
 98.95719      6.7 8.973e+03 1.876e-10
 98.97929      8.0 8.986e+03 1.865e-10
 99.01325      7.8 8.884e+03 2.035e-10
 99.04318      7.5 9.004e+03 2.538e-10
 99.06529      8.0 8.964e+03 2.340e-10
 99.10167      7.0 9.482e+03 3.698e-10
 99.12917      6.2 1.003e+04 5.485e-10
 99.14013      6.4 9.840e+03 4.747e-10
 99.15674      6.3 9.975e+03 5.276e-10
 99.17198      6.2 1.006e+04 5.720e-10
 99.18303      6.2 1.004e+04 5.528e-10
 99.20096      6.1 1.008e+04 5.602e-10
 99.21507      6.1 1.002e+04 5.666e-10
 99.23727      5.6 9.785e+03 4.826e-10
 99.27853      5.7 9.332e+03 3.493e-10
 99.30116      5.6 8.904e+03 2.244e-10
 99.32327      5.4 8.844e+03 2.192e-10
 99.36505      5.5 8.511e+03 1.525e-10
 99.38716      5.9 8.610e+03 1.749e-10
 99.41116      6.4 8.359e+03 1.443e-10
 99.45104      7.1 8.349e+03 1.491e-10
 99.47315      7.0 8.516e+03 1.826e-10
 99.49959      6.7 8.860e+03 2.257e-10
 99.53360      5.6 9.952e+03 4.069e-10
 99.54884      5.9 1.137e+04 6.649e-10
 99.55895      4.5 1.255e+04 1.054e-09
 99.57677      4.0 1.306e+04 1.615e-09
 99.59089      4.0 1.365e+04 2.225e-09
 99.60194      2.0 1.542e+04 4.259e-09
 99.62098      0.9 1.690e+04 5.289e-09
 99.63389     -1.6 1.881e+04 6.744e-09
 99.64494     -5.9 1.977e+04 1.242e-08
 99.65534     -8.2 1.974e+04 1.253e-08
 99.66082    -10.3 1.934e+04 1.907e-08
 99.67062    -11.2 1.899e+04 2.356e-08
 99.67679    -11.5 1.841e+04 3.248e-08
 99.68231    -12.5 1.790e+04 4.601e-08
 99.69273    -11.0 1.780e+04 4.647e-08
 99.70378     -8.4 1.761e+04 4.603e-08
 99.71426     -6.2 1.714e+04 3.230e-08
 99.71978     -5.6 1.710e+04 3.190e-08
 99.73147     -3.5 1.675e+04 1.606e-08
 99.75182     -3.7 1.630e+04 5.054e-09
 99.76288     -6.7 1.563e+04 3.254e-09
 99.77573    -10.8 1.415e+04 1.334e-09
 99.79482    -14.2 1.165e+04 6.597e-10
 99.80588    -14.8 1.150e+04 7.434e-10
 99.81994    -15.3 1.102e+04 6.711e-10
 99.83782    -15.3 1.072e+04 5.885e-10
 99.84887    -15.6 1.089e+04 6.962e-10
 99.86415    -15.5 1.088e+04 6.783e-10
 99.88082    -14.6 1.065e+04 5.454e-10
 99.90302    -14.6 1.088e+04 6.039e-10
 99.94172    -15.1 1.048e+04 3.622e-10
 99.96700    -15.7 1.012e+04 2.315e-10
 99.98911    -17.8 1.021e+04 2.245e-10
