# Columns:
#   distance along LOS (in CHIMPs)
#   peculiar velocity  (in km/s)
#   temperature (K)
#   HI number density
# pos=(174.651,134.871,31.6728), angles=(1.49849,5.88331)
  0.00864     45.3 1.009e+04 3.693e-10
  0.03317     44.8 1.005e+04 3.511e-10
  0.05443     46.2 9.970e+03 3.474e-10
  0.07033     45.7 1.000e+04 3.553e-10
  0.09002     45.3 1.006e+04 3.699e-10
  0.10065     45.8 1.004e+04 3.745e-10
  0.11275     45.1 1.026e+04 4.151e-10
  0.13401     42.9 1.089e+04 5.568e-10
  0.14706     39.2 1.238e+04 1.029e-09
  0.15769     40.0 1.213e+04 9.747e-10
  0.16649     36.8 1.327e+04 1.784e-09
  0.17712     36.1 1.389e+04 2.230e-09
  0.19347     33.8 1.394e+04 2.769e-09
  0.20410     34.3 1.381e+04 2.584e-09
  0.21905     32.2 1.361e+04 2.480e-09
  0.23988     30.5 1.292e+04 1.944e-09
  0.25051     30.8 1.290e+04 1.939e-09
  0.26157     28.7 1.204e+04 1.246e-09
  0.28283     25.7 1.118e+04 7.590e-10
  0.29692     22.4 1.056e+04 6.330e-10
  0.30755     22.8 1.064e+04 6.792e-10
  0.32535     20.6 1.054e+04 6.828e-10
  0.34333     19.1 1.055e+04 7.329e-10
  0.35396     19.8 1.054e+04 7.252e-10
  0.36787     18.7 1.073e+04 8.163e-10
  0.38913     17.7 1.103e+04 9.371e-10
  0.40037     16.1 1.152e+04 1.139e-09
  0.41100     16.4 1.131e+04 1.005e-09
  0.42922     15.2 1.153e+04 1.154e-09
  0.43985     15.3 1.117e+04 9.639e-10
  0.44688     13.2 1.208e+04 1.495e-09
  0.46823     13.8 1.172e+04 1.245e-09
  0.50625     12.2 1.219e+04 1.666e-09
  0.53804     11.4 1.226e+04 1.766e-09
  0.55023      9.8 1.269e+04 2.097e-09
  0.56086      9.8 1.281e+04 2.001e-09
  0.58046      7.8 1.322e+04 2.634e-09
  0.59664      7.5 1.352e+04 3.242e-09
  0.60727      7.6 1.353e+04 3.352e-09
  0.62298      8.0 1.359e+04 3.475e-09
  0.64305      8.7 1.348e+04 3.278e-09
  0.65368      9.1 1.345e+04 3.292e-09
  0.66550      9.8 1.305e+04 2.592e-09
  0.68676      9.7 1.247e+04 1.829e-09
  0.70009      9.0 1.181e+04 1.227e-09
  0.70528      9.2 1.152e+04 1.079e-09
  0.71321      9.2 1.137e+04 1.061e-09
  0.72928      8.2 1.066e+04 7.343e-10
  0.74650      7.3 1.009e+04 5.573e-10
  0.75713      7.4 9.795e+03 4.688e-10
  0.77180      7.5 9.580e+03 4.150e-10
  0.79291      8.2 9.600e+03 4.165e-10
  0.80354      8.5 9.502e+03 3.603e-10
  0.81432     -0.4 2.027e+04 4.341e-10
  0.82670    -19.4 3.169e+04 2.601e-09
  0.83196    -22.3 3.328e+04 3.109e-09
  0.83916    -26.2 2.731e+04 1.137e-08
  0.84447    -22.2 3.036e+04 5.173e-09
  0.84985    -23.9 2.232e+04 2.796e-08
  0.85517    -24.8 2.162e+04 4.031e-08
  0.86206    -22.2 2.030e+04 7.601e-08
  0.87269    -18.6 2.095e+04 1.086e-07
  0.87837    -16.2 2.145e+04 1.261e-07
  0.88369    -16.0 2.139e+04 1.828e-07
  0.89394    -15.2 2.213e+04 1.852e-07
  0.90158    -17.0 2.341e+04 1.656e-07
  0.90689    -17.4 2.342e+04 2.205e-07
  0.91520    -22.6 2.634e+04 1.865e-07
  0.92478    -31.9 3.524e+04 7.550e-08
  0.93010    -32.7 3.520e+04 7.586e-08
  0.93646    -47.3 2.910e+04 2.796e-08
  0.94709    -57.3 1.991e+04 1.773e-08
  0.95330    -57.5 1.949e+04 1.807e-08
  0.95862    -57.3 1.942e+04 1.840e-08
  0.96835    -56.8 1.924e+04 1.758e-08
  0.97584    -56.1 1.894e+04 1.570e-08
  0.98652    -55.2 1.781e+04 1.086e-08
  0.99976    -54.7 1.792e+04 8.795e-09
  1.00503    -54.5 1.750e+04 8.011e-09
  1.01087    -54.3 1.739e+04 6.608e-09
  1.02687    -55.4 1.627e+04 4.422e-09
  1.04622    -55.7 1.530e+04 3.118e-09
  1.05685    -55.1 1.457e+04 2.409e-09
  1.06943    -55.1 1.364e+04 1.635e-09
  1.09069    -55.0 1.266e+04 1.142e-09
  1.10326    -54.9 1.175e+04 8.232e-10
  1.11389    -54.6 1.090e+04 6.085e-10
  1.13321    -54.3 1.034e+04 4.677e-10
  1.14967    -53.5 9.975e+03 3.892e-10
  1.16030    -52.7 9.675e+03 3.378e-10
  1.17573    -52.0 9.645e+03 3.218e-10
  1.19608    -51.3 9.628e+03 3.207e-10
  1.20671    -51.0 9.478e+03 2.991e-10
  1.22813    -49.8 9.307e+03 2.826e-10
  1.24949    -49.3 8.931e+03 2.247e-10
  1.25332    -47.5 8.627e+03 1.767e-10
  1.27458    -45.9 8.535e+03 1.686e-10
  1.31411    -44.3 8.377e+03 1.402e-10
  1.34614    -42.8 8.270e+03 1.217e-10
  1.36740    -41.2 8.266e+03 1.247e-10
  1.39915    -40.0 8.262e+03 1.158e-10
  1.43896    -39.2 8.309e+03 1.170e-10
  1.46022    -37.7 8.354e+03 1.213e-10
  1.48419    -37.4 8.413e+03 1.387e-10
  1.52671    -36.9 8.482e+03 1.848e-10
  1.55304    -36.2 8.645e+03 2.140e-10
  1.57430    -35.4 8.758e+03 2.255e-10
  1.61175    -35.5 8.873e+03 2.326e-10
  1.64586    -37.9 9.129e+03 2.304e-10
  1.66712    -37.7 9.399e+03 2.547e-10
  1.69679    -42.6 1.043e+04 3.617e-10
  1.73868    -46.1 1.123e+04 7.945e-10
  1.75994    -46.2 1.152e+04 9.387e-10
  1.77110    -46.1 1.178e+04 1.273e-09
  1.78538    -46.6 1.220e+04 1.548e-09
  1.79611    -45.5 1.178e+04 1.218e-09
  1.82434    -46.1 1.225e+04 1.612e-09
  1.85276    -47.4 1.230e+04 1.616e-09
  1.87402    -47.2 1.247e+04 1.719e-09
  1.90938    -49.0 1.189e+04 1.330e-09
  1.94558    -50.4 1.113e+04 1.022e-09
  1.96674    -50.5 1.148e+04 1.169e-09
  1.98360    -50.3 1.140e+04 1.124e-09
  2.00243    -55.2 1.897e+04 8.752e-10
  2.01306    -65.2 4.367e+04 1.036e-09
  2.02075    -83.1 7.636e+04 6.344e-10
  2.03085    -92.6 4.459e+04 8.308e-09
  2.03616    -93.8 3.505e+04 3.201e-08
  2.04196    -96.4 2.432e+04 1.581e-07
  2.05259    -96.8 2.157e+04 3.753e-07
  2.05864    -96.8 2.100e+04 5.110e-07
  2.06010    -98.4 2.048e+04 3.802e-07
  2.06468    -98.9 2.053e+04 3.728e-07
  2.07385    -97.9 2.039e+04 3.311e-07
  2.08257    -97.3 2.152e+04 2.129e-07
  2.08789    -98.7 2.338e+04 1.371e-07
  2.09511    -99.9 2.849e+04 5.812e-08
  2.10574   -106.2 3.591e+04 2.036e-08
  2.11637   -126.9 2.458e+04 4.064e-09
  2.12700   -134.7 1.587e+04 3.415e-09
  2.13430   -136.6 1.471e+04 3.474e-09
  2.13961   -136.7 1.435e+04 3.573e-09
  2.14826   -137.5 1.510e+04 4.547e-09
  2.15750   -138.1 1.578e+04 5.723e-09
  2.16282   -138.0 1.578e+04 5.856e-09
  2.17488   -138.6 1.675e+04 8.000e-09
  2.19619   -139.6 1.856e+04 1.362e-08
  2.20933   -141.1 1.995e+04 1.872e-08
  2.21996   -139.9 1.955e+04 1.889e-08
  2.23871   -142.0 2.023e+04 2.110e-08
  2.25574   -144.3 2.035e+04 2.138e-08
  2.26637   -143.1 1.980e+04 2.055e-08
  2.28123   -144.9 1.968e+04 1.765e-08
  2.30215   -146.8 1.894e+04 1.275e-08
  2.31278   -145.5 1.878e+04 1.273e-08
  2.32146   -147.7 1.772e+04 8.813e-09
  2.33209   -147.6 1.774e+04 7.936e-09
  2.34501   -149.7 1.620e+04 5.179e-09
  2.35919   -151.4 1.478e+04 3.534e-09
  2.36982   -150.5 1.538e+04 4.166e-09
  2.38753   -151.8 1.431e+04 2.980e-09
  2.40560   -152.7 1.348e+04 2.211e-09
  2.41623   -151.6 1.405e+04 2.742e-09
  2.43005   -152.3 1.330e+04 2.013e-09
  2.45131   -153.0 1.244e+04 1.488e-09
  2.46264   -153.7 1.154e+04 1.140e-09
  2.47327   -152.4 1.214e+04 1.288e-09
  2.49383   -153.1 1.121e+04 9.738e-10
  2.50905   -153.4 1.052e+04 8.097e-10
  2.51968   -152.4 1.084e+04 8.231e-10
  2.53634   -152.6 1.022e+04 7.011e-10
  2.55546   -152.6 1.003e+04 6.408e-10
  2.56609   -151.8 9.989e+03 6.044e-10
  2.57886   -151.7 9.824e+03 5.535e-10
  2.59482   -151.4 9.702e+03 5.202e-10
  2.60545   -151.2 9.738e+03 5.497e-10
  2.61250   -150.8 9.660e+03 5.115e-10
  2.62313   -150.2 9.560e+03 4.625e-10
  2.64264   -149.8 9.526e+03 4.289e-10
  2.65901   -149.5 9.523e+03 3.991e-10
  2.66964   -148.7 9.415e+03 3.705e-10
  2.68516   -148.3 9.412e+03 3.567e-10
  2.71715   -148.0 9.411e+03 3.438e-10
  2.75193   -147.2 9.456e+03 3.425e-10
  2.77319   -146.4 9.444e+03 3.329e-10
  2.80228   -145.9 9.737e+03 3.730e-10
  2.84475   -145.5 1.007e+04 4.653e-10
  2.86822   -144.9 1.041e+04 6.312e-10
  2.87881   -145.6 1.058e+04 7.097e-10
  2.89776   -145.4 1.074e+04 7.825e-10
  2.91222   -145.1 1.087e+04 8.393e-10
  2.92285   -144.9 1.087e+04 8.373e-10
  2.94028   -144.7 1.094e+04 8.713e-10
  2.95863   -144.5 1.097e+04 8.822e-10
  2.96926   -144.3 1.082e+04 8.033e-10
  2.98280   -144.2 1.082e+04 8.048e-10
  3.00406   -144.0 1.077e+04 7.899e-10
  3.01567   -143.8 1.065e+04 7.308e-10
  3.02630   -143.6 1.054e+04 6.594e-10
  3.04657   -143.5 1.048e+04 6.233e-10
  3.06208   -143.3 1.037e+04 5.606e-10
  3.07271   -143.3 1.035e+04 5.677e-10
  3.08909   -143.1 1.031e+04 5.498e-10
  3.10849   -143.0 1.024e+04 5.189e-10
  3.11912   -143.1 1.041e+04 5.794e-10
  3.13090   -143.1 1.044e+04 5.869e-10
  3.14153   -143.7 1.061e+04 6.346e-10
  3.15287   -143.6 1.065e+04 6.339e-10
  3.16553   -143.4 1.069e+04 6.009e-10
  3.17616   -143.4 1.126e+04 8.981e-10
  3.19539   -143.2 1.139e+04 9.481e-10
  3.22738   -143.0 1.153e+04 9.990e-10
  3.25855   -142.8 1.172e+04 8.480e-10
  3.27981   -142.4 1.285e+04 2.298e-09
  3.31251   -141.7 1.260e+04 1.930e-09
  3.35137   -141.2 1.186e+04 1.232e-09
  3.37253   -140.2 1.247e+04 1.798e-09
  3.38673   -140.3 1.223e+04 1.576e-09
  3.40426   -140.3 1.205e+04 1.454e-09
  3.41489   -140.8 1.161e+04 1.211e-09
  3.41884   -140.8 1.159e+04 1.185e-09
  3.42947   -140.5 1.203e+04 1.359e-09
  3.45051   -140.5 1.202e+04 1.340e-09
  3.46525   -140.5 1.202e+04 1.321e-09
  3.47588   -140.1 1.240e+04 1.489e-09
  3.49303   -140.1 1.242e+04 1.492e-09
  3.51166   -140.2 1.244e+04 1.484e-09
  3.52229   -140.4 1.253e+04 1.522e-09
  3.53555   -140.6 1.255e+04 1.540e-09
  3.55680   -140.7 1.254e+04 1.558e-09
  3.56870   -140.8 1.252e+04 1.563e-09
  3.57933   -140.8 1.267e+04 1.658e-09
  3.59932   -140.9 1.267e+04 1.671e-09
  3.61511   -140.9 1.265e+04 1.672e-09
  3.62574   -140.9 1.268e+04 1.686e-09
  3.64184   -140.9 1.253e+04 1.634e-09
  3.66152   -140.8 1.232e+04 1.482e-09
  3.67215   -140.7 1.232e+04 1.365e-09
  3.67762   -140.5 1.203e+04 1.138e-09
  3.68825   -141.2 1.192e+04 1.087e-09
  3.70562   -140.9 1.160e+04 8.792e-10
  3.71856   -140.5 1.125e+04 6.950e-10
  3.72919   -140.6 1.125e+04 6.374e-10
  3.74814   -140.2 1.093e+04 5.040e-10
  3.76497   -139.7 1.063e+04 4.032e-10
  3.77560   -140.0 1.067e+04 4.000e-10
  3.79066   -139.6 1.048e+04 3.427e-10
  3.82265   -139.3 1.034e+04 3.109e-10
  3.85799   -138.3 1.005e+04 2.601e-10
  3.87925   -138.5 1.033e+04 3.741e-10
  3.90778   -137.0 9.993e+03 2.959e-10
  3.94054   -135.4 9.705e+03 2.345e-10
  3.96180   -136.5 9.677e+03 2.482e-10
  3.97207   -135.0 9.500e+03 2.113e-10
  3.99333   -134.7 9.739e+03 2.724e-10
  4.03534   -133.3 9.683e+03 2.616e-10
  4.06489   -131.9 9.666e+03 2.611e-10
  4.08615   -131.4 9.946e+03 3.456e-10
  4.12038   -130.0 9.926e+03 3.713e-10
  4.15771   -128.6 9.860e+03 3.878e-10
  4.17897   -127.9 1.020e+04 4.737e-10
  4.20542   -126.6 1.020e+04 4.768e-10
  4.24794   -125.3 1.013e+04 4.710e-10
  4.27179   -124.0 1.005e+04 4.409e-10
  4.29305   -124.1 1.059e+04 5.708e-10
  4.33297   -122.8 1.047e+04 5.218e-10
  4.36461   -121.3 1.031e+04 4.534e-10
  4.38587   -121.8 1.091e+04 6.767e-10
  4.41801   -120.2 1.072e+04 5.632e-10
  4.45743   -118.4 1.069e+04 4.873e-10
  4.47869   -119.2 1.124e+04 8.003e-10
  4.48726   -117.8 1.131e+04 8.129e-10
  4.50852   -119.1 1.171e+04 1.181e-09
  4.54557   -117.9 1.193e+04 1.304e-09
  4.57151   -116.8 1.215e+04 1.432e-09
  4.59277   -117.7 1.227e+04 1.530e-09
  4.63061   -116.6 1.225e+04 1.473e-09
  4.66433   -115.5 1.207e+04 1.234e-09
  4.68559   -117.7 1.136e+04 7.548e-10
  4.71565   -118.2 1.111e+04 6.637e-10
  4.74744   -119.3 1.098e+04 6.546e-10
  4.76042   -120.1 1.098e+04 6.555e-10
  4.77004   -120.7 1.080e+04 5.489e-10
  4.77822   -122.6 1.096e+04 6.155e-10
  4.78986   -123.9 1.113e+04 7.041e-10
  4.81112   -125.1 1.139e+04 8.306e-10
  4.82463   -126.4 1.178e+04 1.087e-09
  4.83526   -127.4 1.174e+04 1.193e-09
  4.85364   -128.2 1.204e+04 1.428e-09
  4.87104   -129.0 1.231e+04 1.705e-09
  4.88167   -129.8 1.225e+04 1.690e-09
  4.89616   -130.4 1.234e+04 1.809e-09
  4.91742   -131.0 1.234e+04 1.836e-09
  4.93868   -132.1 1.222e+04 1.837e-09
  4.95994   -132.2 1.191e+04 1.709e-09
  4.97449   -132.0 1.160e+04 1.514e-09
  4.98512   -132.5 1.169e+04 1.596e-09
  5.00246   -132.1 1.134e+04 1.380e-09
  5.02090   -131.6 1.097e+04 1.158e-09
  5.03096   -131.9 1.099e+04 1.172e-09
  5.03377   -131.9 1.112e+04 1.216e-09
  5.04498   -131.3 1.080e+04 1.024e-09
  5.06623   -130.7 1.047e+04 8.580e-10
  5.07794   -129.9 1.014e+04 7.067e-10
  5.08857   -130.1 1.001e+04 6.426e-10
  5.10875   -129.2 9.756e+03 5.313e-10
  5.14074   -128.3 9.557e+03 4.296e-10
  5.17096   -127.1 9.367e+03 3.679e-10
  5.19222   -127.7 9.334e+03 3.485e-10
  5.22588   -125.6 8.995e+03 2.797e-10
  5.26378   -123.4 8.713e+03 2.284e-10
  5.28504   -123.8 8.693e+03 2.225e-10
  5.31092   -121.5 8.491e+03 1.825e-10
  5.35343   -119.2 8.368e+03 1.534e-10
  5.37786   -117.0 8.299e+03 1.361e-10
  5.39912   -117.2 8.291e+03 1.318e-10
  5.43847   -114.9 8.276e+03 1.234e-10
  5.47068   -112.7 8.274e+03 1.218e-10
  5.49194   -112.8 8.354e+03 1.235e-10
  5.52351   -110.6 8.354e+03 1.229e-10
  5.55942   -108.5 8.430e+03 1.294e-10
  5.57815   -108.4 8.509e+03 1.391e-10
  5.58476   -108.1 8.656e+03 1.551e-10
  5.60855   -106.0 8.701e+03 1.648e-10
  5.65107   -103.9 8.733e+03 1.708e-10
  5.67758   -101.8 8.737e+03 1.717e-10
  5.69884   -101.4 8.865e+03 1.876e-10
  5.73611    -99.2 8.867e+03 1.842e-10
  5.77040    -97.1 8.849e+03 1.671e-10
  5.79166    -96.8 9.035e+03 1.953e-10
  5.82115    -94.6 9.006e+03 1.819e-10
  5.86322    -92.5 8.959e+03 1.691e-10
  5.88448    -92.1 9.112e+03 1.939e-10
  5.90618    -90.0 9.074e+03 1.872e-10
  5.94870    -87.9 9.063e+03 1.854e-10
  5.97730    -85.8 9.206e+03 1.843e-10
  5.99856    -85.8 9.429e+03 2.046e-10
  6.03374    -84.1 9.691e+03 2.373e-10
  6.07012    -82.4 9.937e+03 3.086e-10
  6.09138    -83.4 1.051e+04 4.368e-10
  6.10614    -81.7 1.084e+04 5.630e-10
  6.12740    -81.2 1.100e+04 6.249e-10
  6.16130    -79.7 1.130e+04 7.473e-10
  6.18420    -78.3 1.171e+04 9.343e-10
  6.20546    -80.6 1.195e+04 1.056e-09
  6.24634    -79.7 1.227e+04 1.250e-09
  6.27702    -78.7 1.260e+04 1.534e-09
  6.29828    -80.9 1.198e+04 1.140e-09
  6.33138    -79.6 1.204e+04 1.143e-09
  6.36984    -78.2 1.207e+04 1.135e-09
  6.39110    -79.6 1.103e+04 5.970e-10
  6.41641    -77.9 1.091e+04 5.324e-10
  6.45893    -75.8 1.082e+04 4.735e-10
  6.48392    -74.0 1.051e+04 3.997e-10
  6.50518    -73.7 1.017e+04 2.490e-10
  6.54397    -71.4 1.015e+04 2.460e-10
  6.57674    -69.0 1.019e+04 2.636e-10
  6.59800    -69.0 1.026e+04 2.199e-10
  6.62901    -66.8 1.034e+04 2.876e-10
  6.65285    -64.6 1.055e+04 3.842e-10
  6.67215    -63.7 1.071e+04 4.040e-10
  6.69082    -65.2 1.171e+04 5.735e-10
  6.71405    -63.7 1.258e+04 1.060e-09
  6.73714    -62.0 1.263e+04 1.227e-09
  6.74767    -63.1 1.333e+04 2.003e-09
  6.76700    -62.3 1.367e+04 2.546e-09
  6.78345    -61.5 1.397e+04 3.085e-09
  6.79408    -62.2 1.427e+04 3.657e-09
  6.80952    -61.8 1.438e+04 3.708e-09
  6.82986    -61.8 1.459e+04 3.880e-09
  6.84049    -62.2 1.424e+04 3.227e-09
  6.85204    -62.4 1.421e+04 2.971e-09
  6.87330    -62.3 1.420e+04 2.829e-09
  6.88690    -62.0 1.423e+04 2.668e-09
  6.89753    -63.4 1.303e+04 1.089e-09
  6.91539    -63.5 1.279e+04 9.369e-10
  6.92602    -62.9 1.311e+04 1.413e-09
  6.93331    -63.1 1.290e+04 1.143e-09
  6.94394    -65.2 1.129e+04 4.431e-10
  6.95834    -65.5 1.109e+04 3.768e-10
  6.97960    -65.8 1.087e+04 3.366e-10
  6.99035    -65.8 1.065e+04 3.351e-10
  7.00098    -66.0 1.033e+04 2.513e-10
  7.02212    -65.8 1.033e+04 2.534e-10
  7.03676    -65.3 1.033e+04 2.595e-10
  7.04739    -65.3 1.012e+04 2.201e-10
  7.06464    -65.1 1.008e+04 2.208e-10
  7.08317    -64.5 1.007e+04 2.343e-10
  7.10453    -64.4 9.930e+03 2.059e-10
  7.13924    -63.1 9.916e+03 2.264e-10
  7.17103    -61.4 9.823e+03 2.259e-10
  7.18662    -61.2 9.779e+03 2.274e-10
  7.19390    -61.2 9.654e+03 1.927e-10
  7.19957    -61.0 9.536e+03 1.649e-10
  7.22428    -59.2 9.595e+03 1.796e-10
  7.26680    -57.1 9.666e+03 1.952e-10
  7.29027    -54.8 9.728e+03 2.042e-10
  7.31153    -54.7 9.304e+03 1.380e-10
  7.35184    -52.6 9.372e+03 1.383e-10
  7.38309    -50.8 9.494e+03 1.422e-10
  7.40435    -50.9 9.287e+03 1.181e-10
  7.43687    -49.1 9.221e+03 1.503e-10
  7.47591    -46.5 9.188e+03 1.948e-10
  7.49717    -46.3 9.095e+03 1.747e-10
  7.52191    -43.6 9.210e+03 1.923e-10
  7.56443    -41.3 9.342e+03 1.927e-10
  7.58999    -39.3 9.462e+03 2.043e-10
  7.61125    -40.1 9.602e+03 2.226e-10
  7.64947    -38.7 9.836e+03 3.206e-10
  7.68281    -36.5 1.003e+04 5.036e-10
  7.70407    -37.3 1.013e+04 5.794e-10
  7.72502    -34.9 1.033e+04 6.687e-10
  7.74628    -34.9 9.863e+03 3.410e-10
  7.77563    -33.1 9.909e+03 3.392e-10
  7.79689    -34.2 9.625e+03 2.582e-10
  7.81955    -32.5 9.485e+03 2.120e-10
  7.86207    -30.9 9.403e+03 1.864e-10
  7.88971    -29.0 9.301e+03 1.822e-10
  7.91097    -29.9 8.903e+03 9.654e-11
  7.94710    -28.0 8.815e+03 1.025e-10
  7.98253    -26.0 8.853e+03 1.224e-10
  8.00379    -26.1 8.492e+03 7.557e-11
  8.03214    -23.8 8.496e+03 8.597e-11
  8.07466    -21.6 8.559e+03 9.829e-11
  8.09661    -19.4 8.624e+03 1.118e-10
  8.11787    -18.8 8.370e+03 6.945e-11
  8.15970    -16.5 8.451e+03 7.488e-11
  8.18943    -14.3 8.519e+03 8.497e-11
  8.21069    -13.9 8.492e+03 7.628e-11
  8.24474    -11.5 8.546e+03 9.136e-11
  8.27174     -9.1 8.627e+03 1.088e-10
  8.28799     -9.0 8.599e+03 1.210e-10
  8.30351     -8.5 8.601e+03 1.147e-10
  8.32978     -6.0 8.681e+03 1.341e-10
  8.37230     -3.6 8.800e+03 1.543e-10
  8.39633     -1.3 8.951e+03 1.783e-10
  8.41759     -1.0 8.931e+03 1.558e-10
  8.45733      1.2 9.083e+03 1.814e-10
  8.48915      3.5 9.275e+03 2.187e-10
  8.51041      3.7 9.151e+03 1.827e-10
  8.54237      6.0 9.296e+03 2.146e-10
  8.58197      8.3 9.440e+03 2.468e-10
  8.60323      8.6 9.131e+03 1.911e-10
  8.62741     10.8 9.203e+03 2.091e-10
  8.66993     13.1 9.247e+03 2.256e-10
  8.69605     15.3 9.261e+03 2.410e-10
  8.71731     15.7 8.841e+03 1.684e-10
  8.75497     18.0 8.839e+03 1.794e-10
  8.78887     20.4 8.859e+03 1.924e-10
  8.80984     20.8 8.535e+03 1.353e-10
  8.81845     20.9 8.593e+03 1.438e-10
  8.84001     23.3 8.589e+03 1.499e-10
  8.88170     25.7 8.585e+03 1.548e-10
  8.90295     26.0 8.390e+03 1.240e-10
  8.92504     28.6 8.390e+03 1.280e-10
  8.96756     31.2 8.384e+03 1.303e-10
  8.99578     33.9 8.377e+03 1.318e-10
  9.01704     34.2 8.305e+03 1.217e-10
  9.05260     36.8 8.289e+03 1.212e-10
  9.08860     39.5 8.261e+03 1.198e-10
  9.10986     39.7 8.237e+03 1.177e-10
  9.13764     42.5 8.204e+03 1.156e-10
  9.18016     45.2 8.177e+03 1.129e-10
  9.20268     47.9 8.150e+03 1.092e-10
  9.22394     48.1 8.150e+03 1.164e-10
  9.26520     50.8 8.116e+03 1.140e-10
  9.29550     53.6 8.071e+03 1.100e-10
  9.31676     53.9 8.151e+03 1.319e-10
  9.34391     56.7 8.087e+03 1.219e-10
  9.36517     56.8 7.961e+03 1.040e-10
  9.38832     59.7 7.902e+03 9.576e-11
  9.40958     59.9 7.983e+03 1.012e-10
  9.43527     62.6 7.925e+03 9.178e-11
  9.47779     65.4 7.856e+03 8.402e-11
  9.50240     68.1 7.835e+03 7.997e-11
  9.52366     68.1 7.973e+03 9.552e-11
  9.56283     70.8 7.988e+03 9.878e-11
  9.59522     73.5 8.032e+03 1.065e-10
  9.61648     73.3 8.225e+03 1.403e-10
  9.64787     75.9 8.303e+03 1.589e-10
  9.68804     78.5 8.396e+03 1.837e-10
  9.70930     78.0 8.615e+03 2.301e-10
  9.73291     80.4 8.729e+03 2.645e-10
  9.77543     82.8 8.887e+03 3.077e-10
  9.80212     85.2 9.093e+03 3.587e-10
  9.82338     84.3 9.280e+03 4.079e-10
  9.86047     86.5 9.486e+03 4.555e-10
  9.89062     88.5 9.665e+03 4.918e-10
  9.90384     87.9 9.565e+03 4.761e-10
  9.91620     86.7 9.618e+03 4.955e-10
  9.94550     88.5 9.588e+03 4.857e-10
  9.98776     90.3 9.456e+03 4.449e-10
 10.00902     89.1 9.361e+03 4.322e-10
 10.03054     91.0 9.092e+03 3.504e-10
 10.07306     92.9 8.770e+03 2.663e-10
 10.10184     94.9 8.440e+03 1.960e-10
 10.12310     93.8 8.445e+03 1.960e-10
 10.15810     95.7 8.142e+03 1.518e-10
 10.19466     98.0 7.971e+03 1.335e-10
 10.21592     97.2 8.464e+03 1.979e-10
 10.24314     99.9 8.546e+03 2.040e-10
 10.28566    103.2 8.856e+03 2.234e-10
 10.30864    102.9 9.549e+03 3.016e-10
 10.31918     99.6 1.066e+04 6.081e-10
 10.33861     98.5 1.170e+04 9.904e-10
 10.35496     97.3 1.281e+04 1.670e-09
 10.36559     95.1 1.353e+04 2.633e-09
 10.38113     94.8 1.440e+04 3.856e-09
 10.40137     94.7 1.520e+04 5.125e-09
 10.41200     92.8 1.521e+04 5.247e-09
 10.42365     91.4 1.652e+04 4.958e-09
 10.43714     88.0 1.753e+04 4.668e-09
 10.44777     83.7 1.751e+04 3.816e-09
 10.45841     77.5 1.755e+04 3.907e-09
 10.46904     70.1 1.642e+04 3.806e-09
 10.48743     66.9 1.589e+04 4.808e-09
 10.50482     65.4 1.591e+04 5.976e-09
 10.51545     64.1 1.596e+04 6.350e-09
 10.52995     63.7 1.622e+04 6.478e-09
 10.55121     63.2 1.614e+04 6.123e-09
 10.57247     61.1 1.473e+04 3.046e-09
 10.59373     60.2 1.386e+04 2.178e-09
 10.60827     59.4 1.292e+04 1.596e-09
 10.61890     57.4 1.165e+04 9.391e-10
 10.63625     57.4 1.124e+04 8.113e-10
 10.65468     57.7 1.107e+04 7.444e-10
 10.66531     56.8 1.070e+04 5.754e-10
 10.67876     57.5 1.070e+04 5.612e-10
 10.69987     58.2 1.071e+04 5.499e-10
 10.71050     56.7 1.038e+04 4.481e-10
 10.71172     57.3 1.037e+04 4.493e-10
 10.72235     56.4 1.025e+04 4.152e-10
 10.74254     57.1 1.024e+04 4.297e-10
 10.75813     57.8 1.033e+04 4.623e-10
 10.76876     57.3 1.021e+04 4.357e-10
 10.78506     58.1 1.037e+04 4.877e-10
 10.80454     58.7 1.063e+04 5.663e-10
 10.81517     58.2 1.048e+04 5.218e-10
 10.82758     58.8 1.079e+04 6.221e-10
 10.84884     59.2 1.118e+04 7.541e-10
 10.86158     59.4 1.162e+04 9.228e-10
 10.87221     59.3 1.135e+04 7.997e-10
 10.89136     59.5 1.175e+04 9.621e-10
 10.90799     59.5 1.210e+04 1.102e-09
 10.91862     59.5 1.170e+04 8.874e-10
 10.93388     59.3 1.184e+04 9.070e-10
 10.95440     59.1 1.184e+04 8.993e-10
 10.96503     58.9 1.141e+04 7.084e-10
 10.97322     58.8 1.139e+04 6.854e-10
 10.98385     57.5 1.134e+04 6.508e-10
 10.99766     57.3 1.129e+04 6.077e-10
 11.01144     56.9 1.123e+04 5.744e-10
 11.02207     56.8 1.100e+04 5.070e-10
 11.04018     56.4 1.103e+04 5.124e-10
 11.05785     56.0 1.110e+04 5.366e-10
 11.06848     56.0 1.101e+04 5.149e-10
 11.08270     55.7 1.116e+04 5.715e-10
 11.10396     55.5 1.131e+04 6.375e-10
 11.11489     55.3 1.141e+04 6.876e-10
 11.12552     55.3 1.141e+04 6.858e-10
 11.14647     55.1 1.151e+04 7.263e-10
 11.16130     54.9 1.160e+04 7.653e-10
 11.17193     54.6 1.173e+04 8.226e-10
 11.18899     54.3 1.189e+04 9.147e-10
 11.20771     53.9 1.209e+04 1.040e-09
 11.21834     53.6 1.223e+04 1.177e-09
 11.23151     53.3 1.244e+04 1.357e-09
 11.24658     53.0 1.264e+04 1.535e-09
 11.25721     52.0 1.231e+04 1.284e-09
 11.26475     52.0 1.239e+04 1.359e-09
 11.27538     51.9 1.238e+04 1.391e-09
 11.29529     52.0 1.261e+04 1.515e-09
 11.31116     52.0 1.275e+04 1.613e-09
 11.32179     51.8 1.255e+04 1.593e-09
 11.33781     51.7 1.267e+04 1.643e-09
 11.35757     51.6 1.273e+04 1.663e-09
 11.36820     51.2 1.240e+04 1.384e-09
 11.38033     50.9 1.255e+04 1.478e-09
 11.40159     50.4 1.266e+04 1.582e-09
 11.41461     50.0 1.273e+04 1.688e-09
 11.42524     49.6 1.221e+04 1.309e-09
 11.44411     49.5 1.230e+04 1.390e-09
 11.46102     49.6 1.238e+04 1.449e-09
 11.47165     49.3 1.191e+04 1.098e-09
 11.48663     49.1 1.198e+04 1.120e-09
 11.50743     48.8 1.212e+04 1.160e-09
 11.51806     47.9 1.184e+04 9.507e-10
 11.51994     46.1 1.245e+04 1.216e-09
 11.53057     45.0 1.258e+04 1.254e-09
 11.55041     41.7 1.387e+04 2.004e-09
 11.56447     38.1 1.516e+04 3.528e-09
 11.57510     36.8 1.537e+04 4.083e-09
 11.58756     36.4 1.569e+04 4.900e-09
 11.59289     35.6 1.609e+04 5.811e-09
 11.59821     35.1 1.623e+04 6.144e-09
 11.60877     34.1 1.680e+04 7.376e-09
 11.61610     32.9 1.711e+04 7.843e-09
 11.62141     32.4 1.712e+04 7.856e-09
 11.63003     31.2 1.698e+04 7.433e-09
 11.63931     30.1 1.654e+04 6.436e-09
 11.64462     29.7 1.632e+04 5.995e-09
 11.65666     28.8 1.568e+04 4.474e-09
 11.66792     26.4 1.467e+04 2.458e-09
 11.67855     25.6 1.433e+04 1.978e-09
 11.69922     20.8 1.272e+04 8.962e-10
 11.71433     15.9 1.079e+04 5.299e-10
 11.72496     15.4 1.064e+04 5.184e-10
 11.74174     13.7 1.020e+04 4.722e-10
 11.76074     13.4 1.014e+04 4.629e-10
 11.77137     13.9 1.034e+04 4.786e-10
 11.78267     13.8 1.034e+04 4.719e-10
 11.79330     14.1 1.012e+04 4.255e-10
 11.80552     13.8 1.013e+04 4.254e-10
 11.81778     13.3 1.016e+04 4.300e-10
 11.82841     13.4 1.035e+04 4.618e-10
 11.84804     12.5 1.047e+04 4.999e-10
 11.86419     11.4 1.071e+04 5.994e-10
 11.87482     11.5 1.091e+04 6.822e-10
 11.89056     10.7 1.117e+04 8.657e-10
 11.91060     10.2 1.138e+04 1.052e-09
 11.92123     10.5 1.150e+04 1.120e-09
 11.93308     10.2 1.152e+04 1.130e-09
 11.95434      9.9 1.148e+04 1.096e-09
 11.96764      9.7 1.136e+04 9.666e-10
 11.97827      9.8 1.136e+04 9.017e-10
 11.99686      9.2 1.115e+04 7.290e-10
 12.01405      8.3 1.090e+04 5.791e-10
 12.02468      7.9 1.083e+04 5.345e-10
 12.03938      6.6 1.050e+04 4.315e-10
 12.05612      5.4 1.012e+04 3.523e-10
 12.07748      7.3 1.016e+04 3.606e-10
 12.10707      7.1 9.995e+03 3.404e-10
 12.12833      7.7 9.772e+03 2.970e-10
 12.15650      7.6 9.788e+03 2.906e-10
 12.19902      7.4 9.888e+03 3.001e-10
 12.22115      6.8 1.005e+04 3.336e-10
 12.24241      7.0 9.938e+03 3.111e-10
 12.26746      6.2 1.011e+04 3.738e-10
 12.27800      6.5 1.008e+04 3.703e-10
 12.29449      5.9 1.024e+04 4.481e-10
 12.31378      5.4 1.049e+04 5.787e-10
 12.32441      5.8 1.044e+04 5.426e-10
 12.32938      5.6 1.062e+04 6.036e-10
 12.34001      6.0 1.060e+04 6.086e-10
 12.35827      5.8 1.061e+04 6.059e-10
 12.37082      5.6 1.059e+04 5.779e-10
 12.38145      5.9 1.054e+04 5.407e-10
 12.40079      5.2 1.043e+04 4.392e-10
 12.41723      4.9 1.036e+04 3.967e-10
 12.42795      5.2 1.038e+04 3.990e-10
 12.45413      5.0 1.016e+04 3.136e-10
 12.49665      5.6 1.005e+04 2.762e-10
 12.52087      6.4 1.006e+04 2.772e-10
 12.54213      7.3 9.990e+03 2.513e-10
 12.56719      7.6 1.005e+04 2.626e-10
 12.57772      8.0 1.003e+04 2.550e-10
 12.59211      7.9 1.024e+04 2.804e-10
 12.61337      7.5 1.069e+04 3.723e-10
 12.62413      6.4 1.144e+04 6.309e-10
 12.63476      6.6 1.133e+04 5.835e-10
 12.65591      5.6 1.218e+04 1.087e-09
 12.67054      5.2 1.302e+04 1.932e-09
 12.68117      5.4 1.287e+04 1.822e-09
 12.69842      5.4 1.358e+04 2.715e-09
 12.71695      5.1 1.395e+04 2.938e-09
 12.72758      5.5 1.396e+04 2.949e-09
 12.74094      4.9 1.397e+04 2.883e-09
 12.76220      4.2 1.385e+04 2.514e-09
 12.77399      3.2 1.350e+04 1.929e-09
 12.78462      3.4 1.359e+04 2.083e-09
 12.80472      2.1 1.313e+04 1.615e-09
 12.82040      0.7 1.259e+04 1.288e-09
 12.83103      1.3 1.272e+04 1.454e-09
 12.84724      0.4 1.233e+04 1.238e-09
 12.86547     -0.2 1.208e+04 1.066e-09
 12.87440      0.6 1.158e+04 7.178e-10
 12.87744      1.3 1.176e+04 8.571e-10
 12.88976      0.7 1.166e+04 7.183e-10
 12.91102     -0.3 1.172e+04 6.786e-10
 12.92385     -1.7 1.178e+04 6.978e-10
 12.93448     -0.9 1.196e+04 7.787e-10
 12.95354     -2.9 1.216e+04 8.742e-10
 12.97026     -4.8 1.239e+04 1.196e-09
 12.98089     -4.1 1.253e+04 1.235e-09
 12.99606     -5.2 1.267e+04 1.661e-09
 13.01667     -5.5 1.279e+04 1.796e-09
 13.02730     -5.1 1.280e+04 1.790e-09
 13.03858     -5.3 1.277e+04 1.679e-09
 13.05984     -5.6 1.262e+04 1.295e-09
 13.07371     -6.7 1.247e+04 8.965e-10
 13.08434     -6.3 1.241e+04 8.527e-10
 13.10236     -7.9 1.200e+04 6.638e-10
 13.12022    -10.2 1.215e+04 7.826e-10
 13.13085     -8.5 1.188e+04 6.254e-10
 13.13882     -8.8 1.191e+04 6.559e-10
 13.14955     -7.0 1.181e+04 6.006e-10
 13.17696     -8.1 1.187e+04 7.030e-10
 13.21314     -7.9 1.219e+04 1.076e-09
 13.23440     -6.7 1.186e+04 8.748e-10
 13.26200     -6.0 1.219e+04 1.317e-09
 13.30452     -5.1 1.222e+04 1.356e-09
 13.32722     -4.1 1.194e+04 1.131e-09
 13.34848     -2.6 1.195e+04 1.166e-09
 13.38956     -1.7 1.157e+04 8.734e-10
 13.42004     -1.3 1.100e+04 5.499e-10
 13.44130      0.4 1.125e+04 6.533e-10
 13.47459      0.4 1.076e+04 4.302e-10
 13.51286      0.2 1.053e+04 3.625e-10
 13.53412      1.7 1.068e+04 3.665e-10
 13.55963      1.9 1.056e+04 3.432e-10
 13.59142      2.4 1.064e+04 3.493e-10
 13.61259      2.4 1.081e+04 3.619e-10
 13.62674      2.1 1.099e+04 3.900e-10
 13.63737      2.6 1.097e+04 3.700e-10
 13.65511      2.3 1.113e+04 4.033e-10
 13.67315      1.9 1.132e+04 4.728e-10
 13.68232      2.6 1.114e+04 4.147e-10
 13.68554      2.8 1.134e+04 4.615e-10
 13.69762      2.4 1.141e+04 5.333e-10
 13.71966      2.1 1.171e+04 7.809e-10
 13.74102      3.8 1.114e+04 5.515e-10
 13.77223      4.2 1.104e+04 6.328e-10
 13.81258      4.9 1.095e+04 6.453e-10
 13.83384      6.7 1.059e+04 4.787e-10
 13.85727      7.6 1.050e+04 4.697e-10
 13.89979      8.8 1.030e+04 4.108e-10
 13.92666      9.9 1.003e+04 3.059e-10
 13.94792     11.7 1.008e+04 3.060e-10
 13.98482     12.9 9.856e+03 2.337e-10
 14.01948     14.0 9.544e+03 1.948e-10
 14.04074     15.9 9.815e+03 2.134e-10
 14.06986     17.2 9.525e+03 1.920e-10
 14.11230     18.5 9.452e+03 1.888e-10
 14.15482     21.7 9.476e+03 1.734e-10
 14.19742     23.2 9.401e+03 1.595e-10
 14.22182     24.8 9.360e+03 1.594e-10
 14.22952     25.4 9.396e+03 1.450e-10
 14.24764     27.0 9.461e+03 1.125e-10
 14.28246     28.5 9.456e+03 1.101e-10
 14.31920     30.1 9.461e+03 1.175e-10
 14.34046     31.4 9.572e+03 9.906e-11
 14.36750     33.0 9.617e+03 1.076e-10
 14.41002     34.7 9.701e+03 1.338e-10
 14.43328     36.5 9.834e+03 1.750e-10
 14.45454     37.6 9.872e+03 1.464e-10
 14.49505     39.5 9.934e+03 1.804e-10
 14.52610     41.6 9.975e+03 2.060e-10
 14.54736     42.6 9.980e+03 1.751e-10
 14.58009     44.7 9.965e+03 1.721e-10
 14.61892     46.7 9.893e+03 1.629e-10
 14.64018     47.8 9.935e+03 1.455e-10
 14.66513     49.9 9.816e+03 1.317e-10
 14.70765     52.3 9.778e+03 1.307e-10
 14.73300     54.6 9.774e+03 1.345e-10
 14.75137     55.8 9.799e+03 1.263e-10
 14.76853     56.2 9.772e+03 1.024e-10
 14.79269     58.6 9.779e+03 1.120e-10
 14.82582     61.0 9.834e+03 1.382e-10
 14.84708     62.3 9.862e+03 1.306e-10
 14.87773     64.7 9.994e+03 1.668e-10
 14.91864     67.0 1.014e+04 2.244e-10
 14.93990     68.3 1.018e+04 2.101e-10
 14.96276     70.6 1.035e+04 2.691e-10
 15.00528     72.8 1.053e+04 3.518e-10
 15.03272     74.9 1.074e+04 4.638e-10
 15.05398     76.2 1.071e+04 3.937e-10
 15.09032     78.3 1.090e+04 4.845e-10
 15.12555     80.3 1.109e+04 5.863e-10
 15.14680     81.3 1.108e+04 5.457e-10
 15.17536     83.3 1.126e+04 6.489e-10
 15.21788     85.1 1.146e+04 7.614e-10
 15.23963     87.0 1.178e+04 9.224e-10
 15.26089     87.6 1.217e+04 9.613e-10
 15.28594     88.4 1.235e+04 1.095e-09
 15.29647     88.2 1.247e+04 1.122e-09
 15.30442     88.7 1.272e+04 1.316e-09
 15.31505     89.4 1.287e+04 1.436e-09
 15.33225     89.9 1.315e+04 1.687e-09
 15.34288     89.6 1.297e+04 1.602e-09
 15.35587     90.1 1.327e+04 1.988e-09
 15.37713     90.6 1.377e+04 2.600e-09
 15.38929     91.5 1.435e+04 3.414e-09
 15.39992     91.4 1.359e+04 2.560e-09
 15.41965     92.0 1.408e+04 3.088e-09
 15.43570     92.5 1.452e+04 3.547e-09
 15.44633     92.1 1.342e+04 2.151e-09
 15.46217     92.2 1.374e+04 2.299e-09
 15.48211     91.7 1.409e+04 2.446e-09
 15.49274     91.7 1.259e+04 1.345e-09
 15.50469     91.0 1.335e+04 1.572e-09
 15.52595     89.3 1.496e+04 2.199e-09
 15.53915     86.0 1.797e+04 4.787e-09
 15.54978     89.2 1.423e+04 1.637e-09
 15.56715     85.6 1.794e+04 5.169e-09
 15.57778     84.6 1.943e+04 7.222e-09
 15.58556     81.6 2.127e+04 1.631e-08
 15.59619     85.0 2.001e+04 9.803e-09
 15.61099     82.9 2.184e+04 1.881e-08
 15.63197     81.1 2.261e+04 2.017e-08
 15.64255     83.1 2.277e+04 2.329e-08
 15.64809     81.7 2.332e+04 2.510e-08
 15.65872     80.4 2.350e+04 2.312e-08
 15.66571     79.1 2.351e+04 1.760e-08
 15.67102     80.3 2.406e+04 2.764e-08
 15.67998     79.4 2.414e+04 2.105e-08
 15.68896     77.4 2.395e+04 5.033e-09
 15.69428     79.5 2.501e+04 2.493e-08
 15.70124     78.0 2.543e+04 1.337e-08
 15.70904     76.4 2.595e+04 6.077e-09
 15.71436     76.4 2.657e+04 5.065e-09
 15.71743     74.4 2.685e+04 1.995e-09
 15.72275     77.4 2.690e+04 8.002e-09
 15.73537     73.1 2.650e+04 9.869e-10
 15.74600     75.5 3.756e+04 1.632e-09
 15.75976     72.8 3.201e+04 2.043e-09
 15.78106     67.9 2.338e+04 7.291e-10
 15.79246     65.7 1.207e+04 7.957e-10
 15.80309     68.7 2.463e+04 2.211e-09
 15.82358     66.0 1.182e+04 1.476e-09
 15.83887     66.2 1.137e+04 1.440e-09
 15.84517     65.8 1.235e+04 2.370e-09
 15.85113     65.5 1.173e+04 1.762e-09
 15.86610     66.1 1.174e+04 1.674e-09
 15.88528     67.3 1.185e+04 1.608e-09
 15.89591     66.6 1.202e+04 1.794e-09
 15.90862     68.1 1.201e+04 1.582e-09
 15.92988     69.3 1.202e+04 1.417e-09
 15.94232     70.2 1.192e+04 1.303e-09
 15.95295     69.1 1.189e+04 1.155e-09
 15.97240     70.0 1.186e+04 1.062e-09
 15.98873     71.2 1.174e+04 1.038e-09
 15.99936     69.8 1.110e+04 8.867e-10
 16.01492     71.3 1.115e+04 9.065e-10
 16.03514     72.6 1.124e+04 9.466e-10
 16.04577     71.6 1.114e+04 9.313e-10
 16.05744     72.7 1.146e+04 1.010e-09
 16.07870     73.4 1.197e+04 1.126e-09
 16.09218     72.9 1.290e+04 1.382e-09
 16.10281     70.0 1.500e+04 2.859e-09
 16.11386     70.1 1.603e+04 4.269e-09
 16.12449     70.3 1.555e+04 4.060e-09
 16.13711     70.0 1.630e+04 5.141e-09
 16.14381     69.7 1.689e+04 6.353e-09
 16.14913     69.0 1.738e+04 9.286e-09
 16.15832     69.1 1.772e+04 1.066e-08
 16.16702     69.3 1.800e+04 1.181e-08
 16.17233     69.3 1.829e+04 1.358e-08
 16.17958     69.4 1.850e+04 1.390e-08
 16.19021     69.4 1.866e+04 1.418e-08
 16.20084     69.0 1.858e+04 1.426e-08
 16.21147     69.2 1.846e+04 1.384e-08
 16.21874     69.6 1.836e+04 1.315e-08
 16.22406     69.7 1.767e+04 1.049e-08
 16.23273     69.9 1.753e+04 9.132e-09
 16.24195     69.9 1.749e+04 7.963e-09
 16.24726     69.5 1.655e+04 5.097e-09
 16.25044     68.8 1.641e+04 4.287e-09
 16.25576     69.1 1.673e+04 5.111e-09
 16.26462     68.5 1.664e+04 4.492e-09
 16.27047     67.9 1.648e+04 4.018e-09
 16.27578     66.7 1.533e+04 2.445e-09
 16.28588     65.8 1.514e+04 2.226e-09
 16.29367     65.3 1.496e+04 2.079e-09
 16.29904     64.0 1.401e+04 1.331e-09
 16.31255     63.1 1.395e+04 1.351e-09
 16.33381     62.2 1.404e+04 1.472e-09
 16.34550     61.3 1.458e+04 1.819e-09
 16.35613     59.4 1.238e+04 1.127e-09
 16.37633     58.9 1.289e+04 1.500e-09
 16.38722     58.2 1.390e+04 2.232e-09
 16.39211     59.2 1.418e+04 2.644e-09
 16.40249     58.7 1.327e+04 2.209e-09
 16.41349     58.2 1.393e+04 2.569e-09
 16.42033     57.6 1.451e+04 2.852e-09
 16.42564     57.8 1.392e+04 2.346e-09
 16.43470     56.5 1.456e+04 2.540e-09
 16.44353     55.6 1.552e+04 2.904e-09
 16.44890     56.2 1.406e+04 1.995e-09
 16.45601     54.1 1.513e+04 2.414e-09
 16.46659     52.4 1.618e+04 2.950e-09
 16.47205     50.5 1.715e+04 4.127e-09
 16.47737     50.7 1.545e+04 2.636e-09
 16.48785     49.9 1.586e+04 3.197e-09
 16.49526     49.1 1.632e+04 4.459e-09
 16.50594     49.5 1.525e+04 2.937e-09
 16.52515     49.4 1.543e+04 3.637e-09
 16.54177     48.9 1.574e+04 4.216e-09
 16.55240     49.5 1.325e+04 1.736e-09
 16.56767     48.8 1.397e+04 2.269e-09
 16.58818     48.4 1.464e+04 2.773e-09
 16.59881     49.1 1.277e+04 1.624e-09
 16.61019     48.8 1.337e+04 1.972e-09
 16.63145     48.1 1.418e+04 2.399e-09
 16.64522     47.2 1.519e+04 3.135e-09
 16.65309     48.5 1.370e+04 2.219e-09
 16.66058     48.0 1.468e+04 2.907e-09
 16.67397     47.2 1.573e+04 3.875e-09
 16.69163     46.5 1.605e+04 4.694e-09
 16.70226     47.8 1.512e+04 3.131e-09
 16.71648     47.0 1.515e+04 3.129e-09
 16.73774     46.4 1.488e+04 2.900e-09
 16.74867     46.1 1.417e+04 2.264e-09
 16.75930     46.7 1.374e+04 1.693e-09
 16.78026     45.9 1.304e+04 1.255e-09
 16.79508     45.1 1.227e+04 8.832e-10
 16.80571     46.0 1.223e+04 8.570e-10
 16.82278     45.2 1.173e+04 6.505e-10
 16.84149     44.5 1.121e+04 5.316e-10
 16.85212     45.8 1.156e+04 5.511e-10
 16.86530     45.2 1.112e+04 4.725e-10
 16.88656     44.9 1.079e+04 4.373e-10
 16.89853     44.7 1.070e+04 4.191e-10
 16.90916     45.8 1.074e+04 4.108e-10
 16.92330     45.8 1.070e+04 3.985e-10
 16.93393     45.5 1.064e+04 3.824e-10
 16.94494     45.5 1.066e+04 3.781e-10
 16.95557     46.5 1.066e+04 3.613e-10
 16.97160     46.5 1.067e+04 3.617e-10
 16.99135     46.2 1.075e+04 3.700e-10
 17.00198     47.4 1.072e+04 3.600e-10
 17.01412     46.9 1.087e+04 3.764e-10
 17.03538     46.0 1.126e+04 4.476e-10
 17.04839     44.6 1.200e+04 6.757e-10
 17.05902     45.9 1.160e+04 5.435e-10
 17.07790     44.5 1.232e+04 8.749e-10
 17.09480     43.5 1.303e+04 1.521e-09
 17.10543     44.2 1.266e+04 1.186e-09
 17.12042     43.4 1.324e+04 1.893e-09
 17.14121     43.0 1.367e+04 2.643e-09
 17.15184     43.1 1.361e+04 2.464e-09
 17.16294     42.7 1.381e+04 2.840e-09
 17.18420     42.3 1.380e+04 2.817e-09
 17.19666     42.0 1.361e+04 2.572e-09
 17.20009     41.3 1.357e+04 2.534e-09
 17.20888     41.5 1.377e+04 2.746e-09
 17.22671     41.5 1.340e+04 2.335e-09
 17.24476     41.3 1.263e+04 1.455e-09
 17.25539     41.7 1.301e+04 1.881e-09
 17.26923     41.6 1.260e+04 1.531e-09
 17.30122     42.1 1.212e+04 1.228e-09
 17.33768     42.9 1.170e+04 1.068e-09
 17.35894     44.2 1.202e+04 1.243e-09
 17.38636     45.7 1.195e+04 1.266e-09
 17.42888     47.3 1.179e+04 1.214e-09
 17.45176     49.0 1.145e+04 1.042e-09
 17.46120     50.4 1.209e+04 1.389e-09
 17.48084     50.1 1.219e+04 1.500e-09
 17.51391     51.8 1.164e+04 1.189e-09
 17.54458     53.5 1.094e+04 8.627e-10
 17.56584     55.3 1.141e+04 1.060e-09
 17.59895     56.9 1.052e+04 6.684e-10
 17.63740     58.4 9.802e+03 4.386e-10
 17.65866     60.1 1.035e+04 4.955e-10
 17.68399     61.3 9.458e+03 2.862e-10
 17.72651     62.9 8.911e+03 1.819e-10
 17.75148     64.7 8.546e+03 1.188e-10
 17.77274     64.7 9.966e+03 1.706e-10
 17.81155     66.9 8.735e+03 1.015e-10
 17.84430     69.2 8.361e+03 9.546e-11
 17.86556     69.2 1.054e+04 2.968e-10
 17.89659     72.6 9.249e+03 2.212e-10
 17.93712     75.6 8.865e+03 2.069e-10
 17.95828     77.0 9.275e+03 2.999e-10
 17.97080     78.6 9.137e+03 2.928e-10
 17.99206     80.0 9.138e+03 2.958e-10
 18.00459     81.8 9.143e+03 3.031e-10
 18.00801     81.8 9.213e+03 3.307e-10
 18.02746     82.9 9.115e+03 3.085e-10
 18.05120     85.8 9.098e+03 3.156e-10
 18.06173     85.6 9.389e+03 3.927e-10
 18.07710     87.3 9.376e+03 3.957e-10
 18.09741     89.0 9.403e+03 4.073e-10
 18.10804     89.7 9.656e+03 4.800e-10
 18.11962     91.3 9.713e+03 4.861e-10
 18.14088     92.7 9.774e+03 4.974e-10
 18.15445     94.2 9.809e+03 5.091e-10
 18.16508     94.1 1.190e+04 7.691e-10
 18.18340     95.7 1.197e+04 7.735e-10
 18.20086     97.1 1.216e+04 8.005e-10
 18.21149     96.2 1.474e+04 1.766e-09
 18.22592     97.4 1.494e+04 1.850e-09
 18.24717     98.6 1.500e+04 1.947e-09
 18.25790     99.7 1.498e+04 2.049e-09
 18.26853     99.7 1.563e+04 4.130e-09
 18.27946    100.9 1.544e+04 4.104e-09
 18.29009    102.0 1.545e+04 2.318e-09
 18.30432    103.1 1.536e+04 2.451e-09
 18.31494    103.4 1.606e+04 5.073e-09
 18.33221    104.7 1.574e+04 4.887e-09
 18.35073    106.2 1.539e+04 4.703e-09
 18.36136    107.4 1.575e+04 6.921e-09
 18.37473    108.9 1.542e+04 6.150e-09
 18.39599    110.2 1.515e+04 5.568e-09
 18.40777    111.4 1.493e+04 5.078e-09
 18.41840    112.8 1.518e+04 5.526e-09
 18.43851    113.9 1.500e+04 4.922e-09
 18.45418    114.9 1.496e+04 4.362e-09
 18.46481    115.7 1.555e+04 3.616e-09
 18.48103    116.3 1.541e+04 3.169e-09
 18.50059    116.7 1.520e+04 2.827e-09
 18.51122    116.3 1.439e+04 1.982e-09
 18.52355    116.4 1.389e+04 1.856e-09
 18.54219    116.6 1.341e+04 1.818e-09
 18.55282    118.7 1.526e+04 2.852e-09
 18.55763    118.7 1.481e+04 2.564e-09
 18.56826    118.3 1.349e+04 2.032e-09
 18.58733    118.5 1.341e+04 2.026e-09
 18.60404    118.6 1.343e+04 2.047e-09
 18.61467    118.8 1.310e+04 1.982e-09
 18.62985    118.5 1.347e+04 2.236e-09
 18.65045    117.9 1.414e+04 2.758e-09
 18.66108    117.1 1.447e+04 2.958e-09
 18.67237    115.9 1.533e+04 3.968e-09
 18.68413    115.5 1.562e+04 4.477e-09
 18.68537    115.5 1.564e+04 4.482e-09
 18.68950    115.1 1.574e+04 4.551e-09
 18.69884    114.2 1.620e+04 5.240e-09
 18.70739    112.8 1.686e+04 6.424e-09
 18.71270    111.0 1.709e+04 6.938e-09
 18.72010    108.4 1.800e+04 9.284e-09
 18.73059    103.9 1.968e+04 1.418e-08
 18.73591    101.4 2.014e+04 1.592e-08
 18.74136     94.3 2.395e+04 3.143e-08
 18.75199     86.5 2.720e+04 6.126e-08
 18.75911     79.1 2.947e+04 8.208e-08
 18.76443     74.3 3.093e+04 7.098e-08
 18.77325     66.6 3.096e+04 6.513e-08
 18.78232     59.9 3.046e+04 4.565e-08
 18.78763     54.7 2.915e+04 3.980e-08
 18.79451     49.2 2.656e+04 2.587e-08
 18.80514     44.8 2.396e+04 1.814e-08
 18.81084     44.0 2.251e+04 1.436e-08
 18.81588     40.2 2.119e+04 1.418e-08
 18.82617     35.3 1.967e+04 1.228e-08
 18.84244     35.0 1.827e+04 1.034e-08
 18.85735     35.7 1.821e+04 1.034e-08
 18.86798     34.0 1.779e+04 8.982e-09
 18.88496     35.0 1.776e+04 9.235e-09
 18.90376     36.2 1.775e+04 9.867e-09
 18.91439     34.2 1.645e+04 5.623e-09
 18.92748     35.5 1.670e+04 6.457e-09
 18.94874     36.6 1.711e+04 7.649e-09
 18.96080     37.8 1.753e+04 9.026e-09
 18.97143     36.1 1.525e+04 3.965e-09
 18.99126     37.3 1.552e+04 4.308e-09
 19.00721     38.3 1.552e+04 4.306e-09
 19.01784     36.2 1.264e+04 1.935e-09
 19.03378     36.9 1.256e+04 1.866e-09
 19.05362     37.2 1.233e+04 1.687e-09
 19.06425     35.8 1.139e+04 1.221e-09
 19.07630     36.1 1.129e+04 1.160e-09
 19.08890     36.3 1.109e+04 1.054e-09
 19.09953     36.7 1.089e+04 9.938e-10
 19.11066     37.0 1.063e+04 8.680e-10
 19.12129     36.7 1.063e+04 8.624e-10
 19.14008     37.1 1.041e+04 7.383e-10
 19.15707     37.6 1.023e+04 6.261e-10
 19.16770     35.0 1.310e+04 1.127e-09
 19.18260     34.9 1.390e+04 1.167e-09
 19.20348     34.9 1.484e+04 1.257e-09
 19.21411     32.8 1.669e+04 4.678e-09
 19.22512     33.4 1.731e+04 5.734e-09
 19.24638     34.3 1.784e+04 6.440e-09
 19.26052     35.1 1.785e+04 6.356e-09
 19.27115     35.0 1.919e+04 1.733e-08
 19.28889     35.8 1.895e+04 1.585e-08
 19.30693     37.1 1.829e+04 1.236e-08
 19.31756     36.7 1.919e+04 1.830e-08
 19.33141     38.2 1.853e+04 1.421e-08
 19.35163     39.5 1.817e+04 1.177e-08
 19.36226     39.5 1.793e+04 1.032e-08
 19.36397     40.1 1.778e+04 9.128e-09
 19.37460     39.8 1.874e+04 1.270e-08
 19.39519     40.7 1.870e+04 1.248e-08
 19.41038     41.7 1.862e+04 1.224e-08
 19.42101     41.6 1.903e+04 1.347e-08
 19.43771     42.8 1.892e+04 1.291e-08
 19.45679     44.1 1.857e+04 1.142e-08
 19.46742     44.4 1.873e+04 1.165e-08
 19.48023     45.9 1.828e+04 9.483e-09
 19.50149     47.4 1.764e+04 7.047e-09
 19.51383     48.7 1.681e+04 4.681e-09
 19.52446     48.8 1.742e+04 5.929e-09
 19.54401     49.9 1.669e+04 4.016e-09
 19.56024     50.8 1.577e+04 2.446e-09
 19.57087     51.8 1.708e+04 4.661e-09
 19.58653     53.2 1.651e+04 3.107e-09
 19.60665     54.4 1.581e+04 1.818e-09
 19.61728     56.4 1.759e+04 4.662e-09
 19.62499     58.0 1.739e+04 2.882e-09
 19.63562     57.4 1.763e+04 2.277e-09
 19.65031     58.2 1.610e+04 9.419e-10
 19.66369     57.9 1.222e+04 6.414e-10
 19.67432     62.3 2.131e+04 1.382e-09
 19.69283     61.2 1.853e+04 6.474e-10
 19.71010     58.8 1.544e+04 6.787e-10
 19.72073     61.5 4.080e+04 1.533e-09
 19.73535     51.1 5.097e+04 1.002e-09
 19.75651     37.9 3.722e+04 2.563e-09
 19.77241     27.2 2.198e+04 2.347e-08
 19.78308     27.1 2.105e+04 2.880e-08
 19.79025     27.4 2.113e+04 3.087e-08
 19.79556     25.8 2.172e+04 4.228e-08
 19.80434     26.2 2.179e+04 3.727e-08
 19.81345     26.8 2.158e+04 3.194e-08
 19.81877     25.1 2.170e+04 3.154e-08
 19.82560     25.6 2.127e+04 2.466e-08
 19.83623     26.0 2.087e+04 1.821e-08
 19.84197     26.2 2.056e+04 1.330e-08
 19.84729     23.0 1.947e+04 6.612e-09
 19.85749     23.0 1.878e+04 4.775e-09
 19.86518     22.5 1.813e+04 3.991e-09
 19.87054     19.5 1.643e+04 2.274e-09
 19.88416     20.3 1.445e+04 1.574e-09
 19.89834     19.7 1.232e+04 1.038e-09
 19.90897     21.2 1.302e+04 1.486e-09
 19.91700     21.1 1.189e+04 1.155e-09
 19.92763     19.8 1.071e+04 7.830e-10
 19.94794     21.4 1.070e+04 8.017e-10
 19.96341     22.9 1.073e+04 8.185e-10
 19.97404     23.7 1.050e+04 7.059e-10
 19.99046     24.9 1.054e+04 7.195e-10
 20.00982     26.0 1.054e+04 7.181e-10
 20.02045     26.7 1.036e+04 6.600e-10
 20.03298     27.7 1.037e+04 6.621e-10
 20.05424     28.8 1.034e+04 6.475e-10
 20.06686     29.7 1.026e+04 6.113e-10
 20.07749     30.4 1.035e+04 6.245e-10
 20.10749     31.5 1.029e+04 5.724e-10
 20.14925     33.0 1.002e+04 4.908e-10
 20.17051     34.5 1.030e+04 6.027e-10
 20.17190     35.8 1.012e+04 5.437e-10
 20.19316     36.0 1.024e+04 5.652e-10
 20.23514     37.1 9.871e+03 4.324e-10
 20.26333     38.3 9.472e+03 3.244e-10
 20.28459     39.3 9.954e+03 4.838e-10
 20.32018     40.6 9.719e+03 4.232e-10
 20.35615     42.2 9.681e+03 4.188e-10
 20.37741     43.1 1.009e+04 5.463e-10
 20.40522     44.5 1.022e+04 5.744e-10
 20.44774     46.0 1.045e+04 6.445e-10
 20.47023     47.4 1.057e+04 6.830e-10
 20.49149     47.6 1.131e+04 1.007e-09
 20.53277     48.7 1.149e+04 1.059e-09
 20.56295     49.1 1.158e+04 1.104e-09
 20.57349     48.9 1.240e+04 1.675e-09
 20.58573     49.5 1.227e+04 1.578e-09
 20.60699     50.0 1.206e+04 1.435e-09
 20.61990     50.6 1.181e+04 1.269e-09
 20.63053     50.6 1.241e+04 1.668e-09
 20.64951     51.4 1.207e+04 1.427e-09
 20.66631     52.3 1.173e+04 1.199e-09
 20.67694     52.2 1.204e+04 1.366e-09
 20.69725     53.6 1.163e+04 1.088e-09
 20.71861     52.7 1.153e+04 9.784e-10
 20.74537     54.9 1.100e+04 7.266e-10
 20.76995     57.0 1.061e+04 5.778e-10
 20.79121     57.0 1.088e+04 6.864e-10
 20.83041     59.3 1.066e+04 6.167e-10
 20.86277     61.7 1.058e+04 6.161e-10
 20.88403     62.2 1.080e+04 7.247e-10
 20.91545     64.9 1.093e+04 7.963e-10
 20.95559     67.9 1.127e+04 9.329e-10
 20.97685     68.5 1.170e+04 1.193e-09
 20.98124     69.8 1.186e+04 1.235e-09
 20.99177     69.5 1.192e+04 1.320e-09
 21.01092     70.2 1.225e+04 1.524e-09
 21.02307     70.8 1.273e+04 1.893e-09
 21.03370     70.5 1.301e+04 2.283e-09
 21.05344     71.3 1.364e+04 3.015e-09
 21.06948     72.1 1.430e+04 3.968e-09
 21.08011     72.4 1.444e+04 4.368e-09
 21.09596     73.2 1.518e+04 5.661e-09
 21.11589     74.0 1.580e+04 6.940e-09
 21.12652     74.0 1.584e+04 7.058e-09
 21.13848     74.6 1.630e+04 8.173e-09
 21.15974     75.0 1.649e+04 8.573e-09
 21.17293     75.5 1.646e+04 8.225e-09
 21.18356     75.4 1.646e+04 8.435e-09
 21.20226     75.8 1.633e+04 7.542e-09
 21.21934     75.9 1.597e+04 5.963e-09
 21.22997     75.7 1.609e+04 6.712e-09
 21.24387     75.7 1.561e+04 5.028e-09
 21.25450     75.6 1.677e+04 9.417e-09
 21.26575     75.7 1.605e+04 6.946e-09
 21.27638     75.7 1.623e+04 7.716e-09
 21.28729     76.1 1.537e+04 5.423e-09
 21.30855     76.6 1.435e+04 3.592e-09
 21.32279     76.8 1.341e+04 2.471e-09
 21.33342     77.0 1.382e+04 2.997e-09
 21.35107     77.3 1.302e+04 2.200e-09
 21.36920     78.0 1.268e+04 1.796e-09
 21.37983     77.9 1.279e+04 2.024e-09
 21.39359     78.8 1.234e+04 1.631e-09
 21.42558     80.3 1.208e+04 1.399e-09
 21.46222     82.6 1.154e+04 1.061e-09
 21.48348     82.6 1.211e+04 1.412e-09
 21.51072     85.1 1.180e+04 1.195e-09
 21.55323     87.6 1.164e+04 1.072e-09
 21.57630     90.0 1.164e+04 1.001e-09
 21.58683     89.0 1.251e+04 1.693e-09
 21.60619     90.2 1.259e+04 1.732e-09
 21.62251     91.1 1.270e+04 1.787e-09
 21.63314     91.0 1.328e+04 2.392e-09
 21.64871     92.1 1.356e+04 2.772e-09
 21.66892     93.2 1.376e+04 3.061e-09
 21.67955     93.4 1.432e+04 4.110e-09
 21.69123     94.5 1.448e+04 4.382e-09
 21.71249     95.7 1.459e+04 4.585e-09
 21.72596     96.8 1.467e+04 4.744e-09
 21.73659     96.8 1.489e+04 5.173e-09
 21.75501     97.9 1.495e+04 5.317e-09
 21.77237     99.1 1.500e+04 5.449e-09
 21.78300     99.2 1.503e+04 5.448e-09
 21.79058    100.1 1.506e+04 5.528e-09
 21.80121    100.1 1.455e+04 3.878e-09
 21.81878    100.9 1.461e+04 3.877e-09
 21.84004    101.6 1.406e+04 2.898e-09
 21.86130    102.3 1.413e+04 2.994e-09
 21.87582    103.0 1.419e+04 3.127e-09
 21.88645    102.6 1.326e+04 2.276e-09
 21.90382    103.3 1.332e+04 2.410e-09
 21.92223    104.0 1.330e+04 2.499e-09
 21.93286    103.6 1.246e+04 1.913e-09
 21.94634    104.3 1.247e+04 1.973e-09
 21.96760    104.9 1.245e+04 1.979e-09
 21.97927    105.5 1.234e+04 1.960e-09
 21.98990    105.2 1.187e+04 1.667e-09
 22.01012    105.8 1.186e+04 1.690e-09
 22.02568    106.3 1.187e+04 1.728e-09
 22.03631    106.2 1.162e+04 1.589e-09
 22.05264    106.6 1.172e+04 1.699e-09
 22.06394    107.2 1.184e+04 1.843e-09
 22.07277    107.5 1.132e+04 1.381e-09
 22.08272    107.4 1.124e+04 1.351e-09
 22.09516    108.0 1.136e+04 1.449e-09
 22.11642    108.6 1.141e+04 1.491e-09
 22.12913    109.1 1.139e+04 1.487e-09
 22.13976    108.9 1.131e+04 1.473e-09
 22.15894    109.5 1.126e+04 1.447e-09
 22.17554    110.0 1.127e+04 1.429e-09
 22.18617    109.5 1.130e+04 1.506e-09
 22.20146    109.8 1.138e+04 1.536e-09
 22.22195    109.8 1.162e+04 1.642e-09
 22.23258    108.9 1.197e+04 1.891e-09
 22.24398    108.3 1.244e+04 2.223e-09
 22.26524    107.7 1.315e+04 2.796e-09
 22.27899    107.2 1.395e+04 3.591e-09
 22.28962    106.2 1.397e+04 3.718e-09
 22.30775    105.5 1.450e+04 4.262e-09
 22.32365    104.5 1.473e+04 4.359e-09
 22.33062    103.7 1.480e+04 4.395e-09
 22.33359    103.1 1.464e+04 4.155e-09
 22.33725    103.2 1.420e+04 3.787e-09
 22.35027    101.1 1.457e+04 3.691e-09
 22.37153     98.1 1.459e+04 3.527e-09
 22.38244     94.4 1.451e+04 3.279e-09
 22.39307     93.7 1.353e+04 2.461e-09
 22.41405     90.5 1.328e+04 2.274e-09
 22.42885     88.0 1.287e+04 1.957e-09
 22.43948     88.7 1.229e+04 1.688e-09
 22.45657     86.9 1.188e+04 1.430e-09
 22.47527     85.4 1.136e+04 1.144e-09
 22.48590     86.6 1.137e+04 1.182e-09
 22.49909     85.4 1.096e+04 9.702e-10
 22.52035     84.5 1.051e+04 7.788e-10
 22.53231     83.8 1.010e+04 6.403e-10
 22.54294     85.0 1.031e+04 6.949e-10
 22.56287     84.5 9.934e+03 5.756e-10
 22.57872     84.1 9.703e+03 5.155e-10
 22.58935     85.2 9.735e+03 5.097e-10
 22.60003     85.0 9.613e+03 4.781e-10
 22.61066     85.6 9.692e+03 4.888e-10
 22.62513     85.6 9.602e+03 4.707e-10
 22.63576     86.4 9.582e+03 4.504e-10
 22.64791     86.4 9.569e+03 4.483e-10
 22.66917     86.6 9.608e+03 4.553e-10
 22.68217     86.8 9.706e+03 4.761e-10
 22.69280     87.5 9.640e+03 4.473e-10
 22.71169     87.7 9.757e+03 4.766e-10
 22.72858     88.1 9.903e+03 5.172e-10
 22.73921     88.7 9.831e+03 4.902e-10
 22.75421     89.2 1.001e+04 5.421e-10
 22.77499     89.7 1.017e+04 5.921e-10
 22.78562     90.3 1.015e+04 5.711e-10
 22.79672     90.8 1.033e+04 6.003e-10
 22.81798     91.3 1.043e+04 6.019e-10
 22.83203     91.7 1.045e+04 5.927e-10
 22.84266     92.2 1.044e+04 5.657e-10
 22.86285     92.3 1.046e+04 5.118e-10
 22.88078     93.9 1.070e+04 6.984e-10
 22.88907     94.6 1.066e+04 6.747e-10
 22.90302     95.0 1.061e+04 6.390e-10
 22.92428     95.5 1.055e+04 5.967e-10
 22.93548     95.9 1.050e+04 5.610e-10
 22.94611     96.7 1.045e+04 5.468e-10
 22.96680     97.1 1.042e+04 5.212e-10
 22.98189     97.6 1.042e+04 5.050e-10
 22.99252     98.4 1.034e+04 4.933e-10
 23.00932     98.8 1.034e+04 4.837e-10
 23.02830     99.4 1.036e+04 4.768e-10
 23.03893    100.4 1.031e+04 4.673e-10
 23.05184    100.8 1.035e+04 4.647e-10
 23.07481    101.1 1.044e+04 4.725e-10
 23.09616    102.9 1.025e+04 4.515e-10
 23.12644    104.3 1.024e+04 4.338e-10
 23.16772    105.7 1.020e+04 3.945e-10
 23.18898    107.2 1.006e+04 3.872e-10
 23.21148    108.8 1.001e+04 3.447e-10
 23.25400    110.5 1.000e+04 3.163e-10
 23.28180    112.4 1.001e+04 3.141e-10
 23.30306    114.1 9.909e+03 3.045e-10
 23.33904    116.0 9.989e+03 3.104e-10
 23.37463    117.5 1.010e+04 3.334e-10
 23.39588    119.3 1.008e+04 3.304e-10
 23.40957    119.8 1.010e+04 3.562e-10
 23.42010    120.2 1.021e+04 4.408e-10
 23.43147    121.2 1.030e+04 5.094e-10
 23.44210    121.9 1.027e+04 4.931e-10
 23.45577    123.0 1.044e+04 5.783e-10
 23.47703    124.1 1.068e+04 6.840e-10
 23.48851    125.1 1.097e+04 8.067e-10
 23.49914    125.7 1.084e+04 7.440e-10
 23.51955    126.8 1.113e+04 8.628e-10
 23.53492    127.8 1.146e+04 1.004e-09
 23.54555    128.2 1.126e+04 8.849e-10
 23.56207    129.2 1.157e+04 1.002e-09
 23.58133    130.2 1.192e+04 1.140e-09
 23.59196    130.3 1.159e+04 9.521e-10
 23.60459    131.2 1.189e+04 1.046e-09
 23.62585    132.2 1.229e+04 1.180e-09
 23.63837    132.7 1.292e+04 1.408e-09
 23.64900    132.2 1.219e+04 1.047e-09
 23.66837    132.2 1.297e+04 1.283e-09
 23.68283    131.3 1.454e+04 1.938e-09
 23.68861    131.5 1.325e+04 1.226e-09
 23.69541    130.0 1.284e+04 1.091e-09
 23.71089    127.2 1.519e+04 1.975e-09
 23.72678    125.5 1.620e+04 2.728e-09
 23.73641    123.8 1.711e+04 3.690e-09
 23.74172    122.1 1.678e+04 3.572e-09
 23.74799    120.3 1.778e+04 5.328e-09
 23.75862    118.7 1.849e+04 7.965e-09
 23.76493    117.1 1.902e+04 1.153e-08
 23.77024    115.2 1.965e+04 1.175e-08
 23.77988    111.3 2.287e+04 1.849e-08
 23.78813    105.9 2.605e+04 2.983e-08
 23.79345    102.8 2.701e+04 3.430e-08
 23.80114     96.7 2.786e+04 4.758e-08
 23.81134     86.7 3.066e+04 5.972e-08
 23.81665     83.6 3.074e+04 5.590e-08
 23.81941     65.3 3.848e+04 5.430e-08
 23.82472     57.0 4.130e+04 4.758e-08
 23.83303     34.0 4.304e+04 3.394e-08
 23.83986     14.8 3.422e+04 2.408e-08
 23.84517     16.3 3.195e+04 2.307e-08
 23.85429      1.0 2.944e+04 1.496e-08
 23.86306     -6.1 2.833e+04 1.084e-08
 23.86838     -2.7 2.718e+04 1.145e-08
 23.88091    -22.3 3.054e+04 8.612e-09
 23.90222    -30.8 2.152e+04 6.938e-09
 23.92348    -36.8 1.701e+04 7.734e-09
 23.93809    -37.5 1.685e+04 7.513e-09
 23.94872    -33.9 1.680e+04 7.612e-09
 23.95618    -34.2 1.669e+04 6.637e-09
 23.96681    -33.3 1.610e+04 6.314e-09
 23.98450    -34.2 1.628e+04 5.238e-09
 23.99513    -30.9 1.605e+04 5.578e-09
 24.00852    -33.3 1.681e+04 4.550e-09
 24.02978    -37.7 1.713e+04 3.104e-09
 24.04154    -42.6 1.407e+04 2.117e-09
 24.05217    -38.5 1.573e+04 2.856e-09
 24.07230    -41.6 1.306e+04 2.254e-09
 24.08795    -41.7 1.309e+04 2.270e-09
 24.09858    -40.0 1.331e+04 2.506e-09
 24.11482    -40.3 1.350e+04 2.441e-09
 24.13436    -42.2 1.349e+04 2.063e-09
 24.14499    -40.7 1.379e+04 2.302e-09
 24.15734    -43.9 1.353e+04 2.085e-09
 24.17860    -46.6 1.345e+04 2.081e-09
 24.19140    -48.6 1.353e+04 2.297e-09
 24.20203    -47.4 1.338e+04 2.404e-09
 24.21891    -48.5 1.358e+04 2.543e-09
 24.22954    -49.4 1.345e+04 2.382e-09
 24.23781    -50.7 1.370e+04 2.502e-09
 24.24844    -50.2 1.388e+04 2.543e-09
 24.26364    -52.8 1.431e+04 2.743e-09
 24.28422    -56.4 1.484e+04 3.094e-09
 24.29485    -57.1 1.517e+04 3.554e-09
 24.30616    -60.7 1.567e+04 4.639e-09
 24.32741    -63.7 1.620e+04 5.953e-09
 24.34126    -66.2 1.638e+04 7.047e-09
 24.35189    -65.1 1.599e+04 6.389e-09
 24.36993    -66.8 1.578e+04 6.025e-09
 24.38767    -68.1 1.506e+04 4.331e-09
 24.39830    -68.1 1.428e+04 2.765e-09
 24.41245    -70.4 1.310e+04 1.588e-09
 24.43371    -73.0 1.174e+04 8.752e-10
 24.44471    -75.1 1.068e+04 5.196e-10
 24.45534    -75.4 1.033e+04 3.888e-10
 24.47623    -76.4 9.963e+03 2.983e-10
 24.49112    -76.7 9.859e+03 2.716e-10
 24.49663    -75.9 9.807e+03 2.549e-10
 24.50309    -76.9 9.821e+03 2.497e-10
 24.52958    -77.6 9.567e+03 2.172e-10
 24.57210    -77.8 9.485e+03 1.990e-10
 24.59477    -78.0 9.552e+03 1.916e-10
 24.61603    -77.2 9.529e+03 1.891e-10
 24.65713    -77.4 9.775e+03 2.017e-10
 24.68759    -77.7 1.004e+04 2.337e-10
 24.70885    -76.7 1.001e+04 2.336e-10
 24.74217    -77.0 1.022e+04 2.807e-10
 24.78041    -77.0 1.032e+04 3.370e-10
 24.80167    -75.8 1.032e+04 3.353e-10
 24.82721    -75.5 1.031e+04 3.557e-10
 24.86973    -75.3 1.027e+04 3.579e-10
 24.89439    -75.2 1.018e+04 3.377e-10
 24.90493    -74.6 1.026e+04 3.557e-10
 24.92268    -75.0 1.036e+04 3.714e-10
 24.94071    -76.7 1.104e+04 4.755e-10
 24.95134    -76.2 1.103e+04 5.485e-10
 24.96520    -77.7 1.170e+04 8.148e-10
 24.98646    -78.7 1.228e+04 1.196e-09
 24.99775    -79.3 1.266e+04 1.559e-09
 25.00838    -78.1 1.265e+04 1.745e-09
 25.02835    -78.4 1.283e+04 1.873e-09
 25.03898    -78.8 1.215e+04 1.294e-09
 25.04416    -79.4 1.216e+04 1.306e-09
 25.05479    -78.2 1.224e+04 1.472e-09
 25.07150    -78.8 1.205e+04 1.233e-09
 25.09057    -79.9 1.159e+04 9.068e-10
 25.10120    -78.5 1.172e+04 9.372e-10
 25.11402    -80.3 1.116e+04 6.654e-10
 25.13528    -81.9 1.064e+04 5.409e-10
 25.14761    -82.9 1.027e+04 4.972e-10
 25.15824    -82.3 1.025e+04 4.426e-10
 25.17780    -82.8 1.001e+04 4.253e-10
 25.19402    -82.9 9.845e+03 4.170e-10
 25.20465    -82.4 9.862e+03 3.856e-10
 25.22032    -82.3 9.741e+03 3.832e-10
 25.25230    -82.3 9.540e+03 3.516e-10
 25.28703    -82.3 9.154e+03 2.624e-10
 25.30829    -81.3 9.163e+03 2.530e-10
 25.33744    -81.6 8.679e+03 1.617e-10
 25.37985    -81.9 8.312e+03 1.156e-10
 25.42237    -81.3 8.303e+03 1.091e-10
 25.46500    -81.4 8.288e+03 1.084e-10
 25.49394    -81.5 8.270e+03 1.135e-10
 25.51519    -81.0 8.378e+03 1.465e-10
 25.55004    -81.2 8.358e+03 1.485e-10
 25.57526    -81.2 8.220e+03 1.416e-10
 25.59072    -81.1 8.222e+03 1.405e-10
 25.60802    -80.2 8.324e+03 1.709e-10
 25.63507    -80.4 8.185e+03 1.384e-10
 25.67759    -80.7 8.053e+03 1.135e-10
 25.70084    -81.3 8.010e+03 1.033e-10
 25.72210    -81.2 8.105e+03 1.178e-10
 25.76263    -82.0 8.123e+03 1.159e-10
 25.79366    -83.0 8.393e+03 1.301e-10
 25.81492    -83.1 8.403e+03 1.364e-10
 25.84767    -84.0 8.618e+03 1.686e-10
 25.88648    -84.9 8.837e+03 2.097e-10
 25.90774    -85.3 8.771e+03 1.899e-10
 25.93271    -86.2 8.944e+03 2.130e-10
 25.97523    -87.3 9.082e+03 2.265e-10
 26.00056    -88.7 9.168e+03 2.321e-10
 26.02182    -88.7 9.225e+03 2.320e-10
 26.06027    -89.9 9.244e+03 2.169e-10
 26.09338    -91.1 9.283e+03 2.145e-10
 26.11257    -90.6 9.350e+03 2.132e-10
 26.12198    -92.3 9.674e+03 2.989e-10
 26.14530    -93.2 9.881e+03 3.101e-10
 26.18620    -94.0 1.040e+04 4.501e-10
 26.20746    -93.2 1.014e+04 3.401e-10
 26.23034    -93.6 1.065e+04 5.297e-10
 26.27286    -93.9 1.109e+04 7.964e-10
 26.30028    -94.1 1.145e+04 1.021e-09
 26.32154    -93.4 1.129e+04 8.374e-10
 26.35790    -93.6 1.170e+04 1.084e-09
 26.39310    -94.0 1.235e+04 1.383e-09
 26.41436    -94.4 1.244e+04 1.399e-09
 26.43221    -97.7 1.347e+04 2.029e-09
 26.44994   -100.6 1.511e+04 3.419e-09
 26.46057   -100.8 1.522e+04 3.511e-09
 26.47463   -103.2 1.670e+04 6.602e-09
 26.49589   -104.8 1.760e+04 1.028e-08
 26.50698   -106.2 1.794e+04 1.154e-08
 26.51761   -106.2 1.738e+04 9.264e-09
 26.53841   -107.8 1.727e+04 8.465e-09
 26.55335   -109.9 1.634e+04 5.123e-09
 26.56398   -109.8 1.648e+04 4.607e-09
 26.58093   -112.9 1.511e+04 2.539e-09
 26.59981   -116.3 1.367e+04 1.493e-09
 26.61044   -116.6 1.335e+04 1.214e-09
 26.62345   -119.0 1.220e+04 7.754e-10
 26.64471   -119.9 1.164e+04 5.812e-10
 26.65685   -120.1 1.149e+04 4.892e-10
 26.65937   -119.8 1.126e+04 5.191e-10
 26.66849   -120.2 1.081e+04 4.549e-10
 26.68723   -120.2 1.074e+04 3.894e-10
 26.70326   -120.1 1.068e+04 3.430e-10
 26.71389   -119.4 1.017e+04 4.315e-10
 26.74047   -118.9 1.033e+04 3.830e-10
 26.78309   -118.4 1.031e+04 3.272e-10
 26.80690   -117.8 1.021e+04 2.613e-10
 26.82816   -117.3 1.033e+04 2.703e-10
 26.86813   -116.5 1.012e+04 2.237e-10
 26.89972   -115.4 1.000e+04 1.895e-10
 26.92098   -115.1 1.008e+04 1.920e-10
 26.95317   -113.9 1.002e+04 1.749e-10
 26.99254   -112.6 1.002e+04 1.674e-10
 27.01380   -112.3 1.002e+04 1.656e-10
 27.03821   -111.2 1.008e+04 1.705e-10
 27.08073   -110.4 1.029e+04 2.076e-10
 27.10662   -109.9 1.059e+04 2.870e-10
 27.12788   -110.2 1.082e+04 3.047e-10
 27.16576   -109.6 1.116e+04 4.318e-10
 27.19414   -108.9 1.133e+04 5.351e-10
 27.20656   -109.8 1.053e+04 3.335e-10
 27.22070   -109.3 1.050e+04 3.208e-10
 27.25080   -108.7 1.043e+04 3.257e-10
 27.29226   -108.0 1.033e+04 3.284e-10
 27.31352   -107.9 1.036e+04 2.757e-10
 27.33584   -107.2 1.027e+04 2.548e-10
 27.37836   -106.4 1.013e+04 2.324e-10
 27.40634   -105.6 9.984e+03 2.133e-10
 27.42760   -105.8 9.969e+03 2.157e-10
 27.46340   -104.8 9.891e+03 2.136e-10
 27.49917   -103.9 9.848e+03 2.157e-10
 27.52042   -103.8 9.839e+03 2.361e-10
 27.54844   -103.0 9.796e+03 2.444e-10
 27.59096   -102.4 9.879e+03 2.766e-10
 27.61325   -101.8 1.000e+04 3.147e-10
 27.63450   -101.8 9.803e+03 2.695e-10
 27.67599   -101.2 9.838e+03 2.949e-10
 27.70607   -100.5 9.857e+03 3.043e-10
 27.72733   -100.3 9.665e+03 2.539e-10
 27.74086    -99.6 9.620e+03 2.514e-10
 27.76212   -100.0 9.337e+03 2.051e-10
 27.79889    -99.2 9.267e+03 1.975e-10
 27.82015    -99.0 9.204e+03 1.808e-10
 27.84607    -98.1 9.184e+03 1.791e-10
 27.88859    -97.2 9.183e+03 1.826e-10
 27.91297    -96.4 9.246e+03 2.023e-10
 27.93423    -96.1 9.297e+03 2.128e-10
 27.97363    -95.3 9.476e+03 2.522e-10
 28.00579    -94.5 9.650e+03 2.945e-10
 28.02705    -94.3 9.839e+03 3.650e-10
 28.05867    -93.2 9.951e+03 4.085e-10
 28.09861    -92.3 9.949e+03 4.177e-10
 28.11987    -91.9 9.882e+03 4.660e-10
 28.14370    -90.8 9.803e+03 4.581e-10
 28.18622    -89.8 9.631e+03 3.969e-10
 28.21269    -88.6 9.347e+03 3.145e-10
 28.23395    -88.1 9.325e+03 3.425e-10
 28.26631    -86.7 9.065e+03 2.876e-10
 28.28757    -86.4 8.882e+03 2.549e-10
 28.30551    -84.9 8.756e+03 2.316e-10
 28.32677    -84.2 8.705e+03 2.206e-10
 28.35630    -82.8 8.699e+03 2.210e-10
 28.39833    -81.3 8.752e+03 2.291e-10
 28.41959    -80.7 8.721e+03 2.173e-10
 28.44134    -79.3 8.797e+03 2.322e-10
 28.48386    -77.8 8.837e+03 2.395e-10
 28.51241    -76.4 8.884e+03 2.433e-10
 28.53367    -75.8 8.831e+03 2.394e-10
 28.56890    -74.6 8.977e+03 2.527e-10
 28.60523    -73.4 9.267e+03 2.882e-10
 28.62649    -73.0 9.127e+03 2.712e-10
 28.65393    -72.2 9.420e+03 3.207e-10
 28.68573    -71.2 9.537e+03 3.447e-10
 28.70689    -71.5 9.771e+03 4.214e-10
 28.71912    -71.8 1.022e+04 6.236e-10
 28.72975    -72.0 1.021e+04 5.656e-10
 28.74941    -72.3 1.066e+04 8.022e-10
 28.76553    -72.2 1.117e+04 1.092e-09
 28.77616    -72.6 1.092e+04 9.881e-10
 28.79193    -72.2 1.117e+04 1.116e-09
 28.81194    -71.9 1.143e+04 1.164e-09
 28.82221    -72.1 1.084e+04 9.576e-10
 28.82346    -71.1 1.061e+04 8.924e-10
 28.83445    -70.8 1.072e+04 8.426e-10
 28.85571    -71.1 1.091e+04 7.788e-10
 28.86898    -72.5 1.141e+04 7.468e-10
 28.87961    -72.6 1.088e+04 5.999e-10
 28.89822    -74.4 1.140e+04 6.576e-10
 28.91539    -75.6 1.167e+04 9.353e-10
 28.92602    -75.6 1.125e+04 7.256e-10
 28.94074    -75.8 1.154e+04 1.117e-09
 28.96180    -75.2 1.188e+04 1.529e-09
 28.97243    -75.3 1.151e+04 1.187e-09
 28.98326    -74.7 1.182e+04 1.355e-09
 29.00452    -74.4 1.195e+04 1.380e-09
 29.01893    -73.7 1.211e+04 1.405e-09
 29.04029    -74.4 1.129e+04 9.144e-10
 29.07913    -73.9 1.094e+04 7.283e-10
 29.11185    -73.4 1.069e+04 6.372e-10
 29.13311    -73.4 1.083e+04 6.447e-10
 29.16416    -72.8 1.084e+04 6.518e-10
 29.20467    -72.4 1.121e+04 8.098e-10
 29.22593    -73.0 1.190e+04 1.126e-09
 29.24920    -72.5 1.217e+04 1.423e-09
 29.29172    -71.8 1.241e+04 1.648e-09
 29.31866    -71.1 1.244e+04 1.726e-09
 29.32919    -71.2 1.231e+04 1.575e-09
 29.34468    -71.0 1.232e+04 1.552e-09
 29.35955    -70.7 1.238e+04 1.549e-09
 29.36921    -70.3 1.238e+04 1.485e-09
 29.37560    -71.0 1.228e+04 1.336e-09
 29.38719    -70.8 1.232e+04 1.341e-09
 29.40845    -70.5 1.243e+04 1.394e-09
 29.42201    -70.2 1.255e+04 1.472e-09
 29.43264    -70.9 1.238e+04 1.398e-09
 29.45097    -70.6 1.244e+04 1.440e-09
 29.46842    -70.4 1.251e+04 1.480e-09
 29.47905    -70.5 1.223e+04 1.327e-09
 29.49349    -70.1 1.226e+04 1.288e-09
 29.51475    -69.8 1.236e+04 1.247e-09
 29.53601    -70.0 1.208e+04 8.717e-10
 29.55727    -70.2 1.222e+04 8.345e-10
 29.57187    -70.5 1.229e+04 8.174e-10
 29.58250    -71.1 1.185e+04 7.414e-10
 29.59979    -71.4 1.188e+04 7.613e-10
 29.61828    -71.7 1.191e+04 7.810e-10
 29.62891    -71.9 1.177e+04 7.894e-10
 29.63290    -72.0 1.188e+04 8.059e-10
 29.64353    -71.8 1.184e+04 7.655e-10
 29.66357    -71.8 1.197e+04 7.956e-10
 29.67532    -71.8 1.214e+04 8.175e-10
 29.68595    -71.7 1.228e+04 9.054e-10
 29.70609    -71.9 1.261e+04 9.394e-10
 29.72173    -72.7 1.300e+04 1.013e-09
 29.73236    -73.1 1.302e+04 1.133e-09
 29.74861    -73.8 1.327e+04 1.304e-09
 29.76814    -74.1 1.344e+04 1.583e-09
 29.77877    -73.9 1.336e+04 1.688e-09
 29.79113    -73.7 1.357e+04 1.876e-09
 29.81239    -73.3 1.371e+04 1.932e-09
 29.82518    -72.8 1.377e+04 1.902e-09
 29.83581    -73.3 1.339e+04 1.531e-09
 29.85491    -73.4 1.327e+04 1.213e-09
 29.87159    -73.7 1.306e+04 9.424e-10
 29.88222    -74.6 1.252e+04 8.376e-10
 29.89563    -74.9 1.228e+04 7.229e-10
 29.90626    -74.7 1.203e+04 6.917e-10
 29.91800    -74.8 1.187e+04 6.272e-10
 29.92863    -75.3 1.190e+04 6.043e-10
 29.93994    -75.0 1.180e+04 5.952e-10
 29.96120    -74.5 1.175e+04 5.967e-10
 29.97504    -73.9 1.171e+04 6.145e-10
 29.98567    -73.9 1.165e+04 6.419e-10
 30.00372    -73.4 1.161e+04 6.548e-10
 30.02145    -72.8 1.161e+04 6.748e-10
 30.03208    -73.3 1.140e+04 7.146e-10
 30.04624    -72.7 1.144e+04 7.373e-10
 30.06750    -72.2 1.150e+04 7.827e-10
 30.07849    -71.7 1.154e+04 8.609e-10
 30.08912    -71.5 1.138e+04 8.494e-10
 30.11002    -70.9 1.141e+04 9.270e-10
 30.12490    -70.2 1.149e+04 1.013e-09
 30.13553    -69.9 1.141e+04 8.240e-10
 30.15254    -69.2 1.150e+04 8.871e-10
 30.16899    -68.7 1.159e+04 9.675e-10
 30.17713    -68.3 1.115e+04 7.041e-10
 30.18194    -68.1 1.084e+04 5.918e-10
 30.19506    -67.7 1.093e+04 6.408e-10
 30.21632    -67.4 1.107e+04 7.239e-10
 30.22835    -67.2 1.126e+04 8.398e-10
 30.23898    -67.0 1.128e+04 6.149e-10
 30.25884    -66.8 1.151e+04 7.394e-10
 30.27476    -66.7 1.168e+04 8.732e-10
 30.28539    -66.4 1.121e+04 8.264e-10
 30.30136    -66.1 1.145e+04 9.568e-10
 30.32117    -65.8 1.164e+04 1.038e-09
 30.33180    -65.6 1.166e+04 9.092e-10
 30.34388    -65.5 1.174e+04 9.501e-10
 30.36514    -65.3 1.176e+04 9.615e-10
 30.37821    -65.2 1.176e+04 9.549e-10
 30.38884    -64.8 1.164e+04 9.212e-10
 30.40765    -64.8 1.167e+04 9.085e-10
 30.42472    -65.0 1.167e+04 8.669e-10
 30.43825    -64.4 1.160e+04 7.464e-10
 30.45307    -63.8 1.146e+04 7.242e-10
 30.48216    -63.7 1.130e+04 6.488e-10
 30.51764    -63.4 1.101e+04 5.436e-10
 30.53890    -63.1 1.094e+04 4.627e-10
 30.56730    -63.0 1.069e+04 3.844e-10
 30.60982    -63.2 1.052e+04 3.399e-10
 30.63172    -63.5 1.048e+04 3.333e-10
 30.65298    -63.6 1.062e+04 3.946e-10
 30.69485    -63.5 1.081e+04 4.479e-10
 30.72444    -63.5 1.085e+04 4.573e-10
 30.73497    -64.3 1.078e+04 5.115e-10
 30.74781    -64.3 1.081e+04 5.179e-10
 30.76907    -64.4 1.086e+04 5.177e-10
 30.78139    -64.6 1.098e+04 5.052e-10
 30.79202    -65.9 1.151e+04 6.063e-10
 30.81159    -66.9 1.203e+04 6.436e-10
 30.82780    -68.0 1.240e+04 7.144e-10
 30.83843    -69.6 1.242e+04 1.196e-09
 30.85411    -70.3 1.235e+04 1.423e-09
 30.87421    -70.6 1.226e+04 1.623e-09
 30.88484    -70.4 1.246e+04 2.297e-09
 30.89663    -70.6 1.276e+04 2.338e-09
 30.91788    -70.9 1.300e+04 2.272e-09
 30.93125    -71.8 1.358e+04 2.062e-09
 30.94188    -75.0 1.520e+04 2.690e-09
 30.96040    -77.3 1.536e+04 2.801e-09
 30.97766    -79.6 1.506e+04 3.227e-09
 30.98505    -81.0 1.496e+04 4.901e-09
 30.98906    -80.1 1.433e+04 3.327e-09
 31.00292    -81.0 1.444e+04 3.908e-09
 31.02407    -81.7 1.493e+04 4.988e-09
 31.03470    -82.2 1.503e+04 5.142e-09
 31.04544    -82.7 1.565e+04 6.381e-09
 31.06670    -82.8 1.662e+04 7.889e-09
 31.08111    -82.9 1.720e+04 9.847e-09
 31.09174    -84.8 1.557e+04 3.989e-09
 31.10922    -85.6 1.557e+04 3.625e-09
 31.12752    -86.8 1.516e+04 2.939e-09
 31.13815    -89.6 1.258e+04 1.216e-09
 31.15174    -90.2 1.224e+04 1.119e-09
 31.17300    -90.6 1.194e+04 1.051e-09
 31.18456    -90.8 1.175e+04 9.801e-10
 31.19519    -90.6 1.130e+04 6.579e-10
 31.21552    -90.2 1.120e+04 6.068e-10
 31.23097    -89.8 1.114e+04 5.442e-10
 31.25232    -89.9 1.096e+04 3.713e-10
 31.29012    -89.1 1.077e+04 3.306e-10
 31.32398    -87.9 1.038e+04 2.475e-10
 31.34524    -87.7 1.021e+04 1.999e-10
 31.37516    -86.4 1.001e+04 1.559e-10
 31.41680    -85.3 9.875e+03 1.133e-10
 31.43806    -85.6 1.001e+04 1.386e-10
 31.46020    -84.6 9.857e+03 1.239e-10
 31.50272    -83.4 9.660e+03 1.166e-10
 31.52534    -82.0 9.494e+03 1.099e-10
 31.53225    -81.5 9.502e+03 1.059e-10
 31.55214    -81.4 9.487e+03 1.526e-10
 31.58776    -79.7 9.321e+03 1.264e-10
 31.62370    -77.8 9.160e+03 1.014e-10
 31.64496    -77.4 9.158e+03 1.078e-10
 31.67280    -75.5 9.008e+03 8.037e-11
 31.71531    -73.6 8.894e+03 6.192e-11
 31.73779    -71.7 8.820e+03 5.083e-11
 31.75904    -71.3 8.798e+03 4.671e-11
 31.80035    -69.3 8.739e+03 4.271e-11
 31.83061    -67.2 8.724e+03 4.148e-11
 31.85187    -66.7 8.713e+03 4.015e-11
 31.88539    -64.8 8.742e+03 4.183e-11
 31.92343    -63.2 8.822e+03 5.286e-11
 31.94469    -62.7 8.793e+03 5.762e-11
 31.97043    -61.0 8.812e+03 9.147e-11
 32.01295    -59.1 8.917e+03 1.481e-10
 32.03751    -57.0 9.084e+03 2.163e-10
 32.05409    -56.3 9.084e+03 2.196e-10
 32.07206    -55.8 9.104e+03 2.205e-10
 32.09799    -53.7 9.236e+03 2.712e-10
 32.13033    -51.9 9.276e+03 2.897e-10
 32.15159    -51.2 9.211e+03 2.649e-10
 32.18302    -49.4 9.094e+03 2.611e-10
 32.22315    -47.5 8.878e+03 2.295e-10
 32.24441    -46.7 8.827e+03 2.099e-10
 32.26806    -44.7 8.659e+03 1.749e-10
 32.31058    -42.6 8.499e+03 1.338e-10
 32.33723    -40.5 8.350e+03 9.231e-11
 32.35849    -39.8 8.372e+03 8.973e-11
 32.39562    -37.7 8.179e+03 5.742e-11
 32.43005    -35.9 7.999e+03 4.348e-11
 32.45131    -35.2 8.117e+03 4.915e-11
 32.48066    -33.2 7.901e+03 4.486e-11
 32.52287    -31.2 7.773e+03 5.449e-11
 32.54413    -30.2 7.810e+03 5.895e-11
 32.56570    -27.9 7.788e+03 7.338e-11
 32.59751    -25.5 7.894e+03 9.405e-11
 32.61877    -25.1 7.936e+03 9.389e-11
 32.63695    -22.9 8.144e+03 1.214e-10
 32.65821    -22.5 8.273e+03 1.351e-10
 32.69325    -20.5 8.529e+03 1.824e-10
 32.72977    -18.9 8.836e+03 2.522e-10
 32.75103    -18.4 9.122e+03 2.980e-10
 32.77829    -17.4 9.673e+03 4.424e-10
 32.82081    -16.4 1.025e+04 7.153e-10
 32.84385    -14.9 1.076e+04 1.023e-09
 32.86511    -14.4 1.115e+04 1.215e-09
 32.90585    -12.8 1.125e+04 1.295e-09
 32.93667    -11.8 1.114e+04 1.132e-09
 32.95793    -12.5 1.119e+04 1.045e-09
 32.99089    -12.6 1.112e+04 1.046e-09
 33.02949    -13.2 1.143e+04 1.341e-09
 33.05075    -13.5 1.091e+04 1.123e-09
 33.07593    -12.5 1.110e+04 1.244e-09
 33.11845    -12.1 1.107e+04 1.227e-09
 33.14357    -12.0 1.082e+04 1.106e-09
 33.14809    -12.8 1.068e+04 9.509e-10
 33.16548    -13.8 1.087e+04 1.017e-09
 33.20348    -15.0 1.119e+04 1.283e-09
 33.23639    -15.6 1.141e+04 1.529e-09
 33.25755    -15.8 1.154e+04 1.745e-09
 33.27770    -15.9 1.144e+04 1.684e-09
 33.29324    -16.6 1.164e+04 1.388e-09
 33.30387    -17.4 1.283e+04 1.982e-09
 33.32022    -18.9 1.286e+04 1.642e-09
 33.33965    -19.6 1.255e+04 1.220e-09
 33.35028    -19.9 1.287e+04 2.091e-09
 33.36274    -20.3 1.211e+04 1.352e-09
 33.38400    -21.7 1.130e+04 9.799e-10
 33.41598    -23.2 1.102e+04 1.051e-09
 33.44329    -23.6 1.055e+04 8.283e-10
 33.46455    -24.7 1.092e+04 1.018e-09
 33.50112    -25.1 1.040e+04 7.357e-10
 33.53611    -25.2 9.947e+03 5.808e-10
 33.55728    -25.8 1.005e+04 6.580e-10
 33.57533    -26.0 9.873e+03 5.860e-10
 33.59296    -26.0 9.758e+03 5.424e-10
 33.60359    -26.4 9.746e+03 5.532e-10
 33.61785    -26.5 9.672e+03 5.225e-10
 33.63911    -26.5 9.601e+03 5.051e-10
 33.65000    -26.3 9.661e+03 5.140e-10
 33.66063    -26.7 9.590e+03 4.883e-10
 33.68011    -26.7 9.656e+03 4.896e-10
 33.69074    -26.8 9.476e+03 4.529e-10
 33.69641    -26.9 9.593e+03 4.528e-10
 33.70704    -27.4 9.514e+03 4.293e-10
 33.72415    -27.5 9.577e+03 4.405e-10
 33.74282    -27.9 9.678e+03 4.556e-10
 33.75345    -28.5 9.696e+03 4.674e-10
 33.76667    -28.5 9.806e+03 4.812e-10
 33.78793    -28.5 9.848e+03 4.850e-10
 33.79986    -28.3 9.802e+03 4.667e-10
 33.81049    -28.4 9.839e+03 4.790e-10
 33.83045    -28.3 9.636e+03 4.151e-10
 33.84627    -28.2 9.511e+03 3.697e-10
 33.85690    -28.3 9.678e+03 3.927e-10
 33.87297    -28.5 9.503e+03 3.214e-10
 33.89268    -28.6 9.415e+03 2.848e-10
 33.90331    -29.0 9.659e+03 3.445e-10
 33.91549    -29.7 9.515e+03 2.956e-10
 33.93675    -29.8 9.586e+03 2.856e-10
 33.94972    -30.3 9.572e+03 2.735e-10
 33.95582    -30.6 1.027e+04 4.466e-10
 33.96410    -29.8 9.735e+03 3.121e-10
 33.97926    -29.9 9.689e+03 3.191e-10
 33.99613    -29.7 9.617e+03 3.500e-10
 34.00676    -29.7 9.955e+03 4.631e-10
 34.02178    -29.6 9.873e+03 4.648e-10
 34.04254    -29.1 9.873e+03 4.948e-10
 34.05317    -28.7 1.021e+04 6.230e-10
 34.06430    -28.2 1.022e+04 6.343e-10
 34.08556    -27.7 1.025e+04 6.524e-10
 34.09958    -27.1 1.026e+04 6.702e-10
 34.11021    -27.2 1.063e+04 7.741e-10
 34.12808    -27.0 1.091e+04 8.550e-10
 34.14599    -26.9 1.141e+04 9.624e-10
 34.15662    -27.8 1.212e+04 1.347e-09
 34.17060    -27.9 1.272e+04 1.665e-09
 34.19186    -27.8 1.320e+04 2.039e-09
 34.20303    -27.6 1.357e+04 2.521e-09
 34.21366    -27.2 1.382e+04 3.305e-09
 34.22683    -26.7 1.424e+04 3.874e-09
 34.23746    -25.8 1.328e+04 2.294e-09
 34.24944    -25.7 1.380e+04 2.966e-09
 34.26007    -25.0 1.400e+04 3.481e-09
 34.27690    -25.8 1.539e+04 4.857e-09
 34.29585    -27.9 1.778e+04 8.368e-09
 34.30648    -28.0 1.829e+04 7.602e-09
 34.31942    -30.3 2.016e+04 1.233e-08
 34.33531    -31.4 2.045e+04 1.624e-08
 34.34589    -31.1 2.058e+04 1.989e-08
 34.35279    -30.5 2.097e+04 2.210e-08
 34.36347    -31.2 2.098e+04 1.765e-08
 34.38320    -30.4 2.104e+04 1.456e-08
 34.39930    -31.6 2.092e+04 7.977e-09
 34.40993    -34.8 2.039e+04 5.529e-09
 34.42572    -39.8 1.654e+04 2.640e-09
 34.44571    -44.2 1.198e+04 1.482e-09
 34.45634    -43.6 1.234e+04 1.994e-09
 34.46823    -43.8 1.152e+04 1.243e-09
 34.48949    -44.3 1.047e+04 6.985e-10
 34.50275    -45.2 9.292e+03 4.012e-10
 34.51338    -44.5 9.521e+03 4.035e-10
 34.53201    -45.9 9.000e+03 2.749e-10
 34.54916    -46.7 8.872e+03 2.436e-10
 34.55979    -46.8 8.791e+03 2.270e-10
 34.57453    -47.5 8.798e+03 2.261e-10
 34.59557    -48.1 8.951e+03 2.476e-10
 34.60620    -48.2 8.878e+03 2.471e-10
 34.61705    -48.7 9.114e+03 2.866e-10
 34.63831    -49.4 9.356e+03 3.795e-10
 34.65261    -49.6 9.601e+03 4.322e-10
 34.66324    -50.2 9.769e+03 4.929e-10
 34.68083    -50.5 1.006e+04 5.670e-10
 34.69902    -51.1 1.018e+04 5.885e-10
 34.70965    -51.8 1.034e+04 6.382e-10
 34.72335    -52.7 1.036e+04 6.015e-10
 34.74461    -54.0 1.027e+04 5.296e-10
 34.75606    -55.5 1.011e+04 4.898e-10
 34.76374    -56.6 1.013e+04 5.142e-10
 34.77354    -54.3 1.003e+04 4.704e-10
 34.78713    -55.5 9.911e+03 4.594e-10
 34.80247    -56.4 9.943e+03 4.620e-10
 34.81310    -57.3 1.010e+04 4.931e-10
 34.82965    -58.2 1.024e+04 5.026e-10
 34.84889    -59.2 1.041e+04 5.173e-10
 34.85951    -60.7 1.067e+04 5.474e-10
 34.87217    -61.9 1.086e+04 5.753e-10
 34.89343    -63.0 1.108e+04 6.201e-10
 34.90593    -64.0 1.133e+04 6.845e-10
 34.91655    -65.6 1.160e+04 8.011e-10
 34.94180    -65.6 1.185e+04 8.509e-10
 34.96316    -70.2 1.250e+04 1.320e-09
 34.97856    -72.3 1.244e+04 1.444e-09
 34.99875    -74.1 1.267e+04 1.558e-09
 35.00938    -76.4 1.271e+04 1.617e-09
 35.02098    -78.5 1.272e+04 1.534e-09
 35.03627    -80.7 1.266e+04 1.400e-09
 35.04690    -81.0 1.410e+04 2.328e-09
 35.05579    -84.3 1.417e+04 2.183e-09
 35.06642    -87.3 1.386e+04 2.100e-09
 35.08476    -90.8 1.407e+04 2.099e-09
 35.10220    -95.6 1.498e+04 2.565e-09
 35.11283    -97.1 1.507e+04 2.822e-09
 35.12728   -101.2 1.603e+04 4.591e-09
 35.14854   -103.8 1.676e+04 7.379e-09
 35.16980   -105.5 1.706e+04 8.974e-09
 35.19106   -107.2 1.723e+04 9.230e-09
 35.20565   -110.0 1.721e+04 6.887e-09
 35.21628   -110.6 1.675e+04 5.566e-09
 35.23358   -116.0 1.553e+04 2.751e-09
 35.25206   -123.2 1.311e+04 1.172e-09
 35.26269   -123.6 1.260e+04 1.057e-09
 35.27610   -129.6 1.100e+04 5.942e-10
 35.29736   -133.0 1.057e+04 4.772e-10
 35.30910   -135.3 1.053e+04 4.468e-10
 35.31074   -136.0 1.058e+04 4.429e-10
 35.32026   -136.2 1.070e+04 4.812e-10
 35.33988   -139.2 1.075e+04 4.761e-10
 35.35551   -142.1 1.088e+04 4.795e-10
 35.36614   -144.1 1.119e+04 5.344e-10
 35.38240   -146.9 1.136e+04 5.874e-10
 35.40192   -149.5 1.154e+04 6.441e-10
 35.41255   -152.2 1.203e+04 8.189e-10
 35.42492   -154.6 1.207e+04 8.728e-10
 35.44618   -156.7 1.200e+04 9.110e-10
 35.45896   -158.3 1.190e+04 9.248e-10
 35.46959   -160.3 1.196e+04 1.040e-09
 35.48869   -161.1 1.172e+04 9.562e-10
 35.50537   -161.8 1.147e+04 8.357e-10
 35.51600   -163.2 1.134e+04 7.506e-10
 35.53121   -163.6 1.098e+04 5.569e-10
 35.55178   -163.7 1.068e+04 4.189e-10
 35.56241   -165.3 1.054e+04 3.662e-10
 35.58446   -166.3 1.038e+04 3.022e-10
 35.62708   -167.4 1.017e+04 2.375e-10
 35.65542   -168.2 9.999e+03 1.929e-10
 35.67668   -169.6 1.012e+04 2.124e-10
 35.71212   -170.3 1.012e+04 2.081e-10
 35.74824   -171.1 1.021e+04 2.127e-10
 35.76950   -172.1 1.032e+04 2.493e-10
 35.79715   -173.1 1.059e+04 2.957e-10
 35.83528   -174.3 1.088e+04 3.890e-10
 35.85654   -175.3 1.100e+04 4.650e-10
 35.86233   -176.5 1.110e+04 5.128e-10
 35.88358   -177.7 1.112e+04 5.187e-10
 35.92471   -178.9 1.109e+04 5.168e-10
 35.95515   -179.8 1.092e+04 4.574e-10
 35.97641   -181.0 1.084e+04 4.193e-10
 36.00975   -181.7 1.061e+04 3.186e-10
 36.04797   -181.9 1.039e+04 2.275e-10
 36.06923   -182.7 1.035e+04 2.111e-10
 36.09479   -182.4 1.023e+04 1.515e-10
 36.13731   -182.1 1.018e+04 1.146e-10
 36.16205   -181.6 1.015e+04 9.650e-11
 36.18331   -181.8 1.015e+04 9.299e-11
 36.22235   -181.2 1.009e+04 8.638e-11
 36.25487   -180.6 1.004e+04 8.462e-11
 36.27613   -180.5 1.002e+04 7.899e-11
 36.30738   -179.7 1.001e+04 7.860e-11
 36.34769   -179.0 9.986e+03 7.984e-11
 36.36895   -178.6 9.994e+03 7.354e-11
 36.38199   -177.9 9.979e+03 7.909e-11
 36.40325   -178.0 9.990e+03 8.668e-11
 36.43494   -177.4 9.972e+03 1.013e-10
 36.46177   -177.0 1.003e+04 1.242e-10
 36.48303   -176.8 1.020e+04 1.464e-10
 36.51998   -176.6 1.033e+04 2.080e-10
 36.55459   -176.4 1.052e+04 2.929e-10
 36.57585   -176.3 1.079e+04 3.827e-10
 36.60502   -176.4 1.100e+04 5.025e-10
 36.64741   -176.7 1.115e+04 6.015e-10
 36.68993   -177.2 1.140e+04 7.296e-10
 36.73258   -177.6 1.138e+04 7.364e-10
 36.76149   -177.8 1.112e+04 6.604e-10
 36.78275   -177.9 1.128e+04 7.222e-10
 36.81761   -177.9 1.095e+04 5.531e-10
 36.85431   -177.7 1.060e+04 3.976e-10
 36.87557   -177.6 1.074e+04 4.335e-10
 36.90265   -177.3 1.044e+04 3.167e-10
 36.92871   -177.0 1.024e+04 2.565e-10
 36.94997   -177.0 1.033e+04 2.863e-10
 36.96839   -176.7 1.019e+04 2.417e-10
 36.98965   -176.6 1.025e+04 2.400e-10
 37.03021   -176.2 1.016e+04 2.111e-10
 37.06121   -175.7 1.009e+04 1.907e-10
 37.08247   -175.6 1.011e+04 1.897e-10
 37.11525   -175.2 1.010e+04 1.745e-10
 37.15403   -174.8 1.011e+04 1.710e-10
 37.17529   -174.9 1.023e+04 1.827e-10
 37.20029   -174.6 1.027e+04 1.951e-10
 37.24281   -174.3 1.035e+04 2.149e-10
 37.26811   -174.1 1.043e+04 2.420e-10
 37.28937   -174.6 1.053e+04 2.664e-10
 37.32784   -174.4 1.060e+04 2.882e-10
 37.36093   -174.0 1.065e+04 2.981e-10
 37.38219   -174.7 1.071e+04 3.045e-10
 37.41288   -174.4 1.071e+04 2.904e-10
 37.45375   -174.0 1.070e+04 2.653e-10
 37.47377   -174.6 1.075e+04 2.478e-10
 37.47542   -175.0 1.076e+04 2.479e-10
 37.49792   -174.5 1.072e+04 2.136e-10
 37.54044   -173.9 1.066e+04 1.836e-10
 37.56783   -173.1 1.058e+04 1.593e-10
 37.58909   -173.4 1.059e+04 1.420e-10
 37.62548   -172.4 1.051e+04 1.240e-10
 37.66065   -171.4 1.046e+04 1.108e-10
 37.68191   -171.4 1.047e+04 9.814e-11
 37.71052   -170.2 1.048e+04 9.212e-11
 37.75304   -169.1 1.049e+04 9.120e-11
 37.77473   -168.3 1.054e+04 9.184e-11
 37.79599   -168.3 1.062e+04 8.421e-11
 37.83807   -168.2 1.108e+04 1.081e-10
 37.86755   -168.1 1.126e+04 1.940e-10
 37.88881   -168.0 1.126e+04 1.951e-10
 37.92311   -167.7 1.143e+04 3.303e-10
 37.96038   -167.7 1.164e+04 4.633e-10
 37.98164   -167.4 1.159e+04 4.258e-10
 38.00088   -167.7 1.170e+04 4.690e-10
 38.02213   -167.3 1.174e+04 4.852e-10
 38.05067   -167.9 1.176e+04 4.947e-10
 38.07446   -168.6 1.168e+04 4.606e-10
 38.09572   -168.1 1.168e+04 4.369e-10
 38.13571   -168.7 1.156e+04 3.944e-10
 38.16728   -169.4 1.154e+04 3.896e-10
 38.18854   -168.9 1.156e+04 3.822e-10
 38.22075   -169.6 1.164e+04 4.523e-10
 38.26010   -170.2 1.178e+04 5.892e-10
 38.28136   -169.8 1.191e+04 6.225e-10
 38.30578   -170.3 1.200e+04 7.188e-10
 38.34830   -170.7 1.201e+04 7.420e-10
 38.37418   -171.0 1.192e+04 6.829e-10
 38.39544   -170.8 1.194e+04 6.899e-10
 38.43334   -170.5 1.178e+04 5.455e-10
 38.46700   -170.1 1.162e+04 4.286e-10
 38.48826   -170.1 1.151e+04 3.848e-10
 38.51838   -169.3 1.135e+04 3.099e-10
 38.54759   -168.5 1.130e+04 2.818e-10
 38.56777   -167.9 1.134e+04 3.173e-10
 38.58108   -167.7 1.122e+04 2.655e-10
 38.60342   -166.8 1.123e+04 2.572e-10
 38.64594   -166.0 1.123e+04 2.511e-10
 38.67390   -165.2 1.122e+04 2.376e-10
 38.69516   -165.2 1.121e+04 2.110e-10
 38.73098   -164.5 1.118e+04 1.979e-10
 38.76672   -163.8 1.114e+04 1.790e-10
 38.78798   -163.8 1.114e+04 1.772e-10
 38.81601   -163.1 1.110e+04 1.603e-10
 38.85853   -162.3 1.107e+04 1.471e-10
 38.88080   -161.5 1.108e+04 1.413e-10
 38.90206   -161.3 1.100e+04 1.301e-10
 38.94357   -160.5 1.101e+04 1.263e-10
 38.97362   -159.8 1.109e+04 1.258e-10
 38.99488   -159.5 1.101e+04 1.113e-10
 39.02861   -159.0 1.121e+04 1.212e-10
 39.06644   -158.7 1.130e+04 1.584e-10
 39.08770   -158.4 1.135e+04 1.439e-10
 39.09430   -158.1 1.143e+04 2.170e-10
 39.11556   -157.1 1.111e+04 1.216e-10
 39.15617   -156.9 1.120e+04 1.680e-10
 39.18052   -156.7 1.137e+04 2.462e-10
 39.20178   -156.2 1.134e+04 2.383e-10
 39.24121   -156.0 1.155e+04 3.357e-10
 39.27334   -155.5 1.174e+04 4.126e-10
 39.29460   -155.1 1.172e+04 4.123e-10
 39.32624   -154.8 1.181e+04 4.434e-10
 39.36616   -154.4 1.184e+04 4.513e-10
 39.38742   -154.0 1.174e+04 4.229e-10
 39.41128   -153.6 1.171e+04 4.058e-10
 39.45380   -153.2 1.172e+04 3.990e-10
 39.48015   -152.5 1.184e+04 4.078e-10
 39.50140   -152.5 1.190e+04 4.170e-10
 39.52656   -152.5 1.231e+04 5.352e-10
 39.53709   -152.4 1.234e+04 5.635e-10
 39.54927   -153.0 1.255e+04 6.651e-10
 39.57053   -154.2 1.315e+04 1.128e-09
 39.58350   -155.5 1.380e+04 1.839e-09
 39.59413   -154.8 1.360e+04 1.623e-09
 39.61305   -156.0 1.419e+04 2.478e-09
 39.62991   -157.2 1.458e+04 3.278e-09
 39.63642   -156.7 1.443e+04 2.893e-09
 39.64082   -156.8 1.485e+04 3.406e-09
 39.65557   -158.0 1.502e+04 3.693e-09
 39.67632   -159.3 1.501e+04 3.720e-09
 39.68695   -158.8 1.479e+04 3.425e-09
 39.69809   -159.8 1.446e+04 3.182e-09
 39.71935   -160.4 1.400e+04 2.764e-09
 39.73336   -161.0 1.359e+04 2.353e-09
 39.74399   -160.7 1.358e+04 2.288e-09
 39.76187   -161.1 1.332e+04 2.040e-09
 39.77977   -161.3 1.315e+04 1.828e-09
 39.79040   -161.3 1.333e+04 2.009e-09
 39.80439   -161.6 1.326e+04 1.917e-09
 39.82565   -161.8 1.320e+04 1.855e-09
 39.83681   -162.0 1.316e+04 1.811e-09
 39.84744   -162.1 1.351e+04 2.301e-09
 39.86817   -162.3 1.346e+04 2.284e-09
 39.88322   -162.4 1.332e+04 2.167e-09
 39.89385   -162.6 1.361e+04 2.623e-09
 39.90355   -162.6 1.336e+04 2.240e-09
 39.91418   -162.7 1.308e+04 1.797e-09
 39.92963   -162.8 1.289e+04 1.521e-09
 39.94026   -163.1 1.289e+04 1.539e-09
 39.95321   -163.1 1.270e+04 1.312e-09
 39.97447   -163.2 1.255e+04 1.156e-09
 39.98667   -163.3 1.247e+04 1.072e-09
 39.99730   -163.4 1.235e+04 9.941e-10
 40.01699   -163.4 1.231e+04 9.452e-10
 40.03308   -163.5 1.229e+04 9.227e-10
 40.04371   -163.6 1.211e+04 8.250e-10
 40.05950   -163.6 1.207e+04 8.007e-10
 40.07949   -163.6 1.202e+04 7.746e-10
 40.09012   -163.5 1.181e+04 6.581e-10
 40.10202   -163.4 1.171e+04 6.119e-10
 40.12328   -163.2 1.157e+04 5.544e-10
 40.13653   -162.9 1.142e+04 5.010e-10
 40.14716   -162.8 1.141e+04 4.800e-10
 40.16638   -162.9 1.131e+04 4.488e-10
 40.18361   -162.6 1.136e+04 4.533e-10
 40.19377   -162.6 1.122e+04 3.848e-10
 40.21915   -162.0 1.089e+04 3.241e-10
 40.26167   -161.1 1.060e+04 2.617e-10
 40.28659   -160.1 1.042e+04 2.055e-10
 40.30785   -159.7 1.042e+04 2.214e-10
 40.34670   -158.5 1.033e+04 1.822e-10
 40.37941   -157.2 1.027e+04 1.451e-10
 40.40067   -156.9 1.031e+04 1.812e-10
 40.43174   -155.5 1.022e+04 1.445e-10
 40.47223   -154.1 1.014e+04 1.132e-10
 40.49349   -153.8 1.015e+04 1.490e-10
 40.51678   -152.3 1.007e+04 1.210e-10
 40.55930   -150.8 1.002e+04 1.052e-10
 40.58631   -149.3 1.000e+04 9.939e-11
 40.60757   -148.9 1.001e+04 1.273e-10
 40.64434   -147.5 1.002e+04 1.231e-10
 40.67913   -146.2 1.003e+04 1.225e-10
 40.70039   -145.9 1.004e+04 1.540e-10
 40.71319   -145.2 1.018e+04 1.730e-10
 40.73445   -144.7 1.022e+04 1.545e-10
 40.77190   -144.6 1.050e+04 2.535e-10
 40.81441   -144.8 1.109e+04 5.900e-10
 40.85693   -145.0 1.141e+04 8.306e-10
 40.88603   -145.6 1.157e+04 9.428e-10
 40.90729   -146.5 1.165e+04 1.005e-09
 40.94197   -147.4 1.149e+04 9.327e-10
 40.97885   -148.0 1.116e+04 7.662e-10
 41.00011   -148.5 1.112e+04 7.537e-10
 41.02701   -148.8 1.079e+04 6.017e-10
 41.06953   -148.9 1.049e+04 5.031e-10
 41.09293   -148.5 1.024e+04 4.389e-10
 41.11419   -148.3 1.013e+04 3.896e-10
 41.15457   -147.6 9.945e+03 3.424e-10
 41.18575   -146.9 9.825e+03 3.203e-10
 41.20701   -146.4 9.722e+03 2.823e-10
 41.23864   -145.5 9.697e+03 2.787e-10
 41.25990   -145.5 9.812e+03 3.102e-10
 41.27857   -144.6 9.805e+03 3.105e-10
 41.29983   -144.0 9.703e+03 2.685e-10
 41.32464   -143.2 9.697e+03 2.760e-10
 41.36716   -142.5 9.693e+03 2.790e-10
 41.39265   -141.7 9.651e+03 2.770e-10
 41.41391   -140.9 9.587e+03 2.505e-10
 41.45220   -140.1 9.501e+03 2.404e-10
 41.48547   -139.3 9.443e+03 2.232e-10
 41.50673   -138.6 9.477e+03 2.234e-10
 41.53724   -138.2 9.516e+03 2.219e-10
 41.57829   -138.1 9.572e+03 2.305e-10
 41.59955   -138.1 9.809e+03 3.013e-10
 41.62228   -138.2 9.812e+03 3.171e-10
 41.66480   -138.4 9.783e+03 3.192e-10
 41.69237   -138.2 9.594e+03 2.878e-10
 41.71363   -138.3 9.687e+03 3.290e-10
 41.74984   -138.0 9.433e+03 2.356e-10
 41.78519   -137.5 9.201e+03 1.655e-10
 41.80645   -137.4 9.242e+03 1.654e-10
 41.83487   -136.7 9.042e+03 1.189e-10
 41.87739   -135.8 8.941e+03 9.221e-11
 41.89927   -134.8 8.926e+03 7.815e-11
 41.92053   -134.9 9.019e+03 8.592e-11
 41.96243   -133.9 8.991e+03 7.994e-11
 41.99209   -132.8 8.992e+03 7.703e-11
 42.01335   -133.0 9.086e+03 8.904e-11
 42.04747   -132.0 9.089e+03 8.816e-11
 42.08492   -131.2 9.162e+03 9.214e-11
 42.10618   -131.4 9.261e+03 1.139e-10
 42.13251   -130.7 9.338e+03 1.356e-10
 42.17503   -130.0 9.435e+03 1.685e-10
 42.19900   -129.3 9.548e+03 2.041e-10
 42.22026   -129.4 9.658e+03 2.305e-10
 42.26007   -128.9 9.732e+03 2.486e-10
 42.29182   -128.3 9.747e+03 2.523e-10
 42.31308   -128.4 9.800e+03 2.607e-10
 42.33207   -127.6 9.715e+03 2.299e-10
 42.35333   -126.8 9.619e+03 1.993e-10
 42.38464   -125.7 9.524e+03 1.562e-10
 42.40590   -125.4 9.535e+03 1.495e-10
 42.43014   -124.1 9.457e+03 1.073e-10
 42.47266   -122.9 9.425e+03 8.177e-11
 42.49872   -121.6 9.451e+03 7.340e-11
 42.51998   -121.3 9.509e+03 7.403e-11
 42.55770   -120.5 9.549e+03 7.387e-11
 42.59154   -120.6 1.008e+04 8.546e-11
 42.61280   -120.5 1.017e+04 9.909e-11
 42.64274   -120.7 1.031e+04 1.694e-10
 42.68436   -120.9 1.051e+04 2.854e-10
 42.70562   -120.7 1.057e+04 2.801e-10
 42.72778   -121.1 1.089e+04 3.956e-10
 42.77030   -122.0 1.131e+04 5.430e-10
 42.79844   -122.9 1.173e+04 7.321e-10
 42.81970   -122.4 1.153e+04 5.992e-10
 42.85533   -122.8 1.166e+04 6.845e-10
 42.87869   -122.1 1.152e+04 6.034e-10
 42.89335   -121.5 1.154e+04 5.240e-10
 42.91252   -121.1 1.136e+04 4.388e-10
 42.94037   -121.0 1.143e+04 4.079e-10
 42.98289   -120.7 1.119e+04 3.083e-10
 43.00534   -120.0 1.092e+04 2.135e-10
 43.02660   -119.1 1.085e+04 1.927e-10
 43.06793   -118.1 1.075e+04 1.429e-10
 43.09816   -117.1 1.080e+04 1.203e-10
 43.11942   -116.6 1.085e+04 1.326e-10
 43.15297   -116.0 1.100e+04 1.391e-10
 43.19098   -115.6 1.121e+04 2.013e-10
 43.21224   -115.3 1.132e+04 3.016e-10
 43.23801   -114.7 1.151e+04 4.733e-10
 43.28053   -114.3 1.182e+04 7.029e-10
 43.30506   -114.3 1.220e+04 9.942e-10
 43.32632   -113.9 1.211e+04 9.299e-10
 43.36556   -114.1 1.245e+04 1.130e-09
 43.39788   -115.1 1.274e+04 1.288e-09
 43.41530   -115.3 1.263e+04 1.120e-09
 43.42550   -113.9 1.274e+04 1.263e-09
 43.45060   -115.1 1.285e+04 1.329e-09
 43.49070   -116.2 1.278e+04 1.281e-09
 43.51196   -116.1 1.273e+04 1.266e-09
 43.53564   -116.6 1.230e+04 9.738e-10
 43.57816   -116.7 1.189e+04 6.951e-10
 43.60478   -116.6 1.160e+04 5.237e-10
 43.62604   -116.0 1.137e+04 4.214e-10
 43.66320   -115.2 1.108e+04 3.177e-10
 43.69760   -113.8 1.085e+04 2.567e-10
 43.71886   -113.1 1.069e+04 2.064e-10
 43.74824   -111.6 1.058e+04 1.797e-10
 43.79042   -110.0 1.055e+04 1.662e-10
 43.81168   -109.3 1.047e+04 1.577e-10
 43.83327   -107.8 1.049e+04 1.564e-10
 43.87579   -106.4 1.060e+04 1.594e-10
 43.90450   -105.0 1.062e+04 1.717e-10
 43.92576   -104.6 1.056e+04 1.778e-10
 43.95095   -103.4 1.055e+04 1.900e-10
 43.97221   -103.0 1.056e+04 2.671e-10
 43.99732   -101.7 1.053e+04 2.900e-10
 44.01858   -101.2 1.028e+04 2.547e-10
 44.04587    -99.9 1.022e+04 2.526e-10
 44.08839    -98.6 1.018e+04 2.592e-10
 44.11140    -97.4 1.018e+04 2.743e-10
 44.13266    -96.9 1.008e+04 2.018e-10
 44.17343    -96.0 1.011e+04 2.245e-10
 44.20423    -95.3 1.012e+04 2.459e-10
 44.22549    -95.0 1.009e+04 2.136e-10
 44.25847    -94.5 1.007e+04 2.363e-10
 44.29705    -94.0 1.006e+04 2.704e-10
 44.31831    -93.6 1.006e+04 2.581e-10
 44.34350    -93.1 1.006e+04 3.029e-10
 44.38602    -92.4 1.007e+04 3.521e-10
 44.41113    -91.7 1.010e+04 3.883e-10
 44.43239    -91.2 9.951e+03 3.498e-10
 44.47106    -90.4 9.954e+03 3.610e-10
 44.49767    -89.6 1.002e+04 3.697e-10
 44.50929    -89.4 9.921e+03 3.993e-10
 44.52521    -88.4 9.751e+03 3.332e-10
 44.55610    -87.6 9.994e+03 4.290e-10
 44.59677    -86.7 1.024e+04 5.538e-10
 44.61803    -85.7 1.025e+04 5.493e-10
 44.64114    -84.8 1.056e+04 7.144e-10
 44.68366    -84.2 1.080e+04 8.290e-10
 44.71085    -83.9 1.089e+04 8.675e-10
 44.73211    -82.8 1.134e+04 1.120e-09
 44.76870    -82.9 1.142e+04 1.182e-09
 44.80367    -83.4 1.127e+04 1.110e-09
 44.82493    -82.6 1.183e+04 1.521e-09
 44.85373    -82.8 1.137e+04 1.258e-09
 44.89625    -82.6 1.064e+04 7.792e-10
 44.91775    -82.3 9.879e+03 4.063e-10
 44.93901    -81.4 1.013e+04 5.119e-10
 44.98129    -81.1 9.424e+03 2.629e-10
 45.01057    -80.7 9.072e+03 1.970e-10
 45.03114    -79.9 9.131e+03 2.031e-10
 45.04438    -79.4 8.916e+03 1.864e-10
 45.06633    -78.3 8.782e+03 1.610e-10
 45.10339    -76.7 8.756e+03 1.582e-10
 45.12465    -76.1 8.693e+03 1.658e-10
 45.15137    -74.5 8.704e+03 1.673e-10
 45.19389    -72.7 8.710e+03 1.835e-10
 45.21747    -70.9 8.744e+03 2.000e-10
 45.23873    -70.3 8.708e+03 1.897e-10
 45.27893    -68.5 8.780e+03 2.046e-10
 45.31029    -66.8 8.910e+03 2.251e-10
 45.33155    -66.4 8.833e+03 1.961e-10
 45.36396    -64.9 9.021e+03 2.212e-10
 45.40311    -63.7 9.229e+03 2.565e-10
 45.42437    -63.8 9.223e+03 2.231e-10
 45.44900    -63.2 9.514e+03 2.966e-10
 45.49152    -63.1 1.013e+04 4.452e-10
 45.51719    -63.4 1.100e+04 7.408e-10
 45.52772    -65.1 1.136e+04 9.609e-10
 45.54448    -65.0 1.183e+04 1.337e-09
 45.56341    -65.0 1.209e+04 1.665e-09
 45.57404    -65.9 1.261e+04 2.304e-09
 45.58027    -65.3 1.298e+04 2.730e-09
 45.59100    -64.6 1.216e+04 1.604e-09
 45.60835    -64.8 1.281e+04 2.401e-09
 45.62045    -64.3 1.293e+04 2.524e-09
 45.63108    -65.0 1.310e+04 2.674e-09
 45.65077    -64.7 1.323e+04 2.709e-09
 45.66686    -64.7 1.335e+04 2.711e-09
 45.67749    -65.5 1.320e+04 2.641e-09
 45.69329    -65.4 1.317e+04 2.605e-09
 45.71327    -65.3 1.318e+04 2.576e-09
 45.72390    -65.4 1.295e+04 2.358e-09
 45.73581    -69.4 1.767e+04 2.398e-09
 45.74705    -81.3 2.722e+04 4.385e-09
 45.75232    -83.5 2.958e+04 5.055e-09
 45.76229    -88.4 2.958e+04 1.030e-08
 45.77021    -93.8 2.727e+04 2.694e-08
 45.77552    -95.4 2.811e+04 3.388e-08
 45.78355    -98.8 2.391e+04 6.854e-08
 45.79342   -101.3 2.243e+04 8.972e-08
 45.79873   -102.6 2.286e+04 1.046e-07
 45.80481   -103.7 2.208e+04 1.036e-07
 45.81544   -104.6 2.246e+04 6.666e-08
 45.82194   -108.6 2.342e+04 2.463e-08
 45.82725   -109.5 2.385e+04 1.987e-08
 45.83670   -118.9 2.152e+04 4.724e-09
 45.84514   -126.5 1.517e+04 1.998e-09
 45.85046   -126.9 1.510e+04 1.802e-09
 45.85358   -128.6 1.277e+04 1.504e-09
 45.86402   -131.3 1.157e+04 1.215e-09
 45.87376   -131.6 1.136e+04 9.921e-10
 45.88463   -130.4 1.045e+04 8.661e-10
 45.90589   -128.7 1.032e+04 8.538e-10
 45.92017   -127.8 1.046e+04 9.066e-10
 45.93080   -127.0 1.020e+04 7.707e-10
 45.94841   -126.2 1.043e+04 8.656e-10
 45.96658   -125.4 1.062e+04 9.245e-10
 45.97721   -124.5 1.050e+04 8.829e-10
 45.99093   -123.8 1.064e+04 9.362e-10
 46.01219   -123.3 1.068e+04 9.461e-10
 46.02362   -122.8 1.071e+04 8.835e-10
 46.03425   -121.7 1.075e+04 9.855e-10
 46.05471   -121.2 1.072e+04 8.991e-10
 46.07003   -121.0 1.065e+04 7.724e-10
 46.08066   -119.7 1.076e+04 9.143e-10
 46.09722   -119.4 1.067e+04 7.729e-10
 46.11636   -119.2 1.061e+04 6.836e-10
 46.12699   -117.9 1.103e+04 9.802e-10
 46.13974   -117.7 1.097e+04 8.779e-10
 46.16100   -117.6 1.098e+04 8.540e-10
 46.17348   -118.2 1.097e+04 9.132e-10
 46.18411   -116.3 1.108e+04 9.559e-10
 46.20352   -117.4 1.140e+04 1.178e-09
 46.21989   -119.0 1.345e+04 2.279e-09
 46.23052   -116.6 1.256e+04 1.703e-09
 46.24604   -118.4 1.487e+04 3.419e-09
 46.26630   -120.6 1.714e+04 6.432e-09
 46.27693   -119.6 1.727e+04 5.181e-09
 46.28320   -124.1 1.986e+04 1.114e-08
 46.29378   -126.9 2.096e+04 1.422e-08
 46.30004   -130.7 2.260e+04 1.841e-08
 46.30535   -132.4 2.386e+04 2.196e-08
 46.31504   -136.8 2.511e+04 2.846e-08
 46.32324   -140.5 2.508e+04 3.293e-08
 46.32856   -142.0 2.493e+04 4.618e-08
 46.33630   -144.8 2.448e+04 4.776e-08
 46.34645   -146.8 2.307e+04 4.703e-08
 46.35176   -147.6 2.239e+04 6.200e-08
 46.35756   -149.0 2.167e+04 4.732e-08
 46.36819   -150.0 2.102e+04 3.407e-08
 46.37497   -150.7 2.023e+04 2.474e-08
 46.38028   -151.3 2.003e+04 2.625e-08
 46.38945   -151.7 1.924e+04 1.912e-08
 46.39493   -151.8 1.837e+04 1.441e-08
 46.39834   -152.7 1.717e+04 1.632e-08
 46.40349   -153.1 1.682e+04 1.531e-08
 46.41071   -152.5 1.637e+04 1.174e-08
 46.42134   -152.2 1.594e+04 9.110e-09
 46.43197   -152.5 1.506e+04 6.344e-09
 46.44260   -152.4 1.454e+04 5.376e-09
 46.45859   -152.3 1.409e+04 4.473e-09
 46.47320   -150.9 1.344e+04 3.174e-09
 46.48383   -150.8 1.281e+04 2.374e-09
 46.50116   -149.7 1.274e+04 1.831e-09
 46.51961   -148.7 1.288e+04 1.555e-09
 46.53024   -148.6 1.253e+04 1.257e-09
 46.54368   -147.5 1.247e+04 1.153e-09
 46.56494   -146.3 1.231e+04 1.105e-09
 46.57665   -145.1 1.212e+04 1.096e-09
 46.58728   -144.6 1.173e+04 9.181e-10
 46.60745   -143.3 1.162e+04 9.174e-10
 46.62306   -142.1 1.149e+04 9.216e-10
 46.63369   -141.4 1.114e+04 7.730e-10
 46.64997   -140.2 1.102e+04 7.702e-10
 46.66307   -139.1 1.090e+04 7.668e-10
 46.67194   -138.8 1.029e+04 7.676e-10
 46.68010   -138.1 1.006e+04 6.600e-10
 46.69249   -137.1 1.005e+04 6.499e-10
 46.71375   -136.1 1.005e+04 6.488e-10
 46.72651   -135.4 1.008e+04 6.561e-10
 46.73714   -134.7 9.907e+03 5.741e-10
 46.75627   -134.1 9.986e+03 6.261e-10
 46.77292   -133.6 1.010e+04 7.348e-10
 46.78355   -132.9 9.961e+03 6.695e-10
 46.79879   -132.2 1.009e+04 8.177e-10
 46.81933   -131.5 1.028e+04 9.952e-10
 46.82996   -130.7 1.011e+04 9.140e-10
 46.84131   -130.0 1.031e+04 1.092e-09
 46.86257   -129.3 1.052e+04 1.250e-09
 46.87637   -128.7 1.072e+04 1.365e-09
 46.88700   -127.8 1.044e+04 1.208e-09
 46.90509   -127.2 1.057e+04 1.267e-09
 46.92278   -126.5 1.070e+04 1.300e-09
 46.93286   -125.6 1.036e+04 1.123e-09
 46.93643   -125.2 1.017e+04 1.039e-09
 46.94761   -124.2 1.007e+04 9.599e-10
 46.96887   -123.3 9.985e+03 8.370e-10
 46.97982   -122.3 9.945e+03 7.257e-10
 46.99045   -121.5 9.731e+03 6.456e-10
 47.01139   -120.7 9.724e+03 5.671e-10
 47.02623   -120.0 9.764e+03 5.008e-10
 47.03686   -119.1 9.601e+03 4.558e-10
 47.05391   -118.1 9.600e+03 3.891e-10
 47.07264   -117.1 9.678e+03 3.383e-10
 47.08327   -115.7 9.550e+03 3.133e-10
 47.09643   -114.6 9.635e+03 3.058e-10
 47.11768   -113.7 9.870e+03 3.292e-10
 47.12978   -112.8 9.928e+03 3.652e-10
 47.15114   -111.6 9.943e+03 2.817e-10
 47.18872   -109.4 9.724e+03 2.609e-10
 47.20998   -108.6 8.971e+03 9.817e-11
 47.22270   -106.1 8.979e+03 9.258e-11
 47.24396   -104.4 8.765e+03 7.308e-11
 47.27733   -101.9 8.788e+03 7.043e-11
 47.31552    -99.3 8.837e+03 7.200e-11
 47.33678    -97.7 8.636e+03 6.157e-11
 47.36237    -95.1 8.768e+03 6.343e-11
 47.40488    -92.6 8.922e+03 7.416e-11
 47.42960    -90.1 9.005e+03 9.729e-11
 47.45086    -89.1 9.300e+03 8.121e-11
 47.48992    -87.1 9.453e+03 1.260e-10
 47.52242    -85.0 9.637e+03 2.241e-10
 47.54368    -84.8 1.003e+04 2.464e-10
 47.57496    -82.5 1.032e+04 4.565e-10
 47.61524    -79.9 1.076e+04 7.897e-10
 47.63650    -79.4 1.057e+04 7.143e-10
 47.66000    -76.7 1.097e+04 9.248e-10
 47.70252    -74.1 1.135e+04 1.057e-09
 47.72932    -71.6 1.152e+04 1.075e-09
 47.74098    -71.4 1.045e+04 4.301e-10
 47.75670    -70.9 9.598e+03 3.481e-10
 47.78756    -68.6 9.710e+03 3.172e-10
 47.82214    -66.5 9.786e+03 2.656e-10
 47.84340    -66.1 9.394e+03 1.368e-10
 47.87260    -64.5 9.495e+03 1.113e-10
 47.91496    -63.0 9.615e+03 1.036e-10
 47.95748    -61.4 9.558e+03 9.025e-11
 48.00015    -59.8 9.622e+03 1.244e-10
 48.02904    -58.0 9.684e+03 1.751e-10
 48.05030    -57.3 9.638e+03 1.860e-10
 48.08519    -55.2 9.722e+03 2.259e-10
 48.12186    -53.1 9.840e+03 2.450e-10
 48.14312    -52.3 9.815e+03 2.518e-10
 48.17023    -50.1 9.814e+03 2.481e-10
 48.21275    -47.9 9.804e+03 2.218e-10
 48.23594    -45.7 9.816e+03 1.845e-10
 48.25720    -44.8 9.818e+03 1.692e-10
 48.28215    -42.8 9.838e+03 1.403e-10
 48.30341    -42.2 9.861e+03 1.889e-10
 48.32877    -40.1 9.875e+03 1.502e-10
 48.35003    -39.6 9.857e+03 1.422e-10
 48.38283    -37.7 9.898e+03 1.164e-10
 48.42159    -35.8 9.902e+03 9.992e-11
 48.44285    -35.4 9.804e+03 1.208e-10
 48.46786    -33.6 9.854e+03 1.092e-10
 48.51038    -31.6 9.855e+03 1.068e-10
 48.53567    -29.8 9.916e+03 1.080e-10
 48.55693    -29.8 9.775e+03 1.659e-10
 48.59542    -29.1 1.038e+04 1.938e-10
 48.62849    -29.1 1.082e+04 3.503e-10
 48.64975    -29.1 1.098e+04 4.355e-10
 48.68046    -29.2 1.167e+04 8.384e-10
 48.72131    -28.9 1.240e+04 1.361e-09
 48.74257    -29.7 1.240e+04 1.213e-09
 48.76550    -29.9 1.257e+04 1.331e-09
 48.80761    -30.2 1.213e+04 1.027e-09
 48.82886    -29.5 1.215e+04 9.049e-10
 48.83539    -29.9 1.157e+04 5.526e-10
 48.85665    -30.0 1.134e+04 8.183e-10
 48.89306    -29.7 1.092e+04 5.513e-10
 48.92821    -29.1 1.059e+04 4.233e-10
 48.94947    -28.4 1.067e+04 4.307e-10
 48.97809    -27.9 1.040e+04 3.717e-10
 49.02061    -26.9 1.031e+04 3.679e-10
 49.04229    -26.0 1.039e+04 4.036e-10
 49.06355    -26.1 1.050e+04 5.072e-10
 49.10565    -25.0 1.060e+04 6.506e-10
 49.13511    -23.8 1.067e+04 7.342e-10
 49.15637    -22.8 1.084e+04 8.912e-10
 49.19069    -21.6 1.079e+04 8.790e-10
 49.22793    -20.3 1.075e+04 7.775e-10
 49.24919    -19.8 1.056e+04 5.141e-10
 49.27573    -19.2 1.034e+04 4.599e-10
 49.31825    -18.1 1.019e+04 4.463e-10
 49.34201    -16.6 1.010e+04 4.115e-10
 49.35682    -16.3 1.001e+04 4.130e-10
 49.37558    -15.8 9.824e+03 3.076e-10
 49.40329    -14.4 9.875e+03 3.106e-10
 49.43483    -13.2 1.006e+04 3.018e-10
 49.45609    -13.2 1.003e+04 3.469e-10
 49.48832    -12.3 1.019e+04 4.143e-10
 49.52765    -11.0 1.033e+04 5.523e-10
 49.54881    -10.5 1.025e+04 5.937e-10
 49.56254     -9.0 1.066e+04 7.242e-10
 49.58380     -8.7 1.061e+04 7.199e-10
 49.59513     -7.1 1.070e+04 7.642e-10
 49.60576     -7.0 1.075e+04 7.726e-10
 49.62632     -6.4 1.067e+04 7.507e-10
 49.63811     -5.0 1.055e+04 6.721e-10
 49.64270     -5.0 1.046e+04 6.525e-10
 49.65217     -5.3 1.051e+04 7.819e-10
 49.66883     -4.3 1.021e+04 6.973e-10
 49.68795     -3.1 9.990e+03 5.875e-10
 49.69858     -2.3 1.015e+04 5.988e-10
 49.71135     -1.0 1.030e+04 6.022e-10
 49.73445     -1.2 1.064e+04 5.289e-10
 49.75581     -1.8 1.093e+04 4.844e-10
 49.78596     -2.5 1.127e+04 8.805e-10
 49.81775     -0.0 1.155e+04 1.791e-09
 49.83781      1.9 1.215e+04 2.159e-09
 49.84853      0.4 1.198e+04 1.685e-09
 49.86027     -0.2 1.229e+04 1.881e-09
 49.88143      1.0 1.204e+04 1.904e-09
 49.89485      1.4 1.225e+04 2.148e-09
 49.90363      1.1 1.215e+04 2.346e-09
 49.91147      1.0 1.220e+04 2.298e-09
 49.92395      1.8 1.217e+04 2.214e-09
 49.94126      2.3 1.228e+04 2.292e-09
 49.95189      1.8 1.235e+04 1.874e-09
 49.96647      2.5 1.228e+04 1.929e-09
 49.98767      3.0 1.239e+04 1.878e-09
 50.00893      2.0 1.178e+04 1.660e-09
 50.03025      2.5 1.178e+04 1.651e-09
 50.04471      3.0 1.236e+04 1.511e-09
 50.05534      3.1 1.183e+04 1.323e-09
 50.07277      3.4 1.167e+04 1.327e-09
 50.09112      4.0 1.161e+04 1.212e-09
 50.10175      4.3 1.104e+04 9.659e-10
 50.11529      4.5 1.136e+04 9.853e-10
 50.13655      4.6 1.231e+04 8.638e-10
 50.14816      3.6 1.198e+04 1.030e-09
 50.15879      2.6 1.104e+04 9.339e-10
 50.17420      3.5 1.099e+04 1.011e-09
 50.18483      3.2 1.126e+04 1.179e-09
 50.21105      3.6 1.204e+04 1.438e-09
 50.24117      4.7 1.240e+04 1.082e-09
 50.26243      4.5 1.212e+04 8.905e-10
 50.29619      3.7 1.171e+04 8.189e-10
 50.33400      4.0 1.117e+04 7.556e-10
 50.35525      4.8 1.106e+04 7.398e-10
 50.38123      5.5 1.066e+04 5.845e-10
 50.42374      6.9 1.019e+04 4.514e-10
 50.44775      8.5 9.825e+03 3.198e-10
 50.45082      8.2 9.648e+03 2.632e-10
 50.46934      9.0 9.748e+03 3.229e-10
 50.50878     10.4 9.670e+03 2.466e-10
 50.54090     11.8 9.602e+03 2.071e-10
 50.56216     13.0 9.573e+03 2.308e-10
 50.59382     14.9 9.487e+03 2.080e-10
 50.63372     16.7 9.504e+03 1.896e-10
 50.65498     17.9 9.510e+03 1.681e-10
 50.67886     19.5 9.517e+03 1.453e-10
 50.72138     21.0 9.410e+03 1.407e-10
 50.74780     22.4 9.399e+03 1.447e-10
 50.76906     23.2 9.488e+03 1.215e-10
 50.80642     24.5 9.471e+03 1.353e-10
 50.84062     25.9 9.401e+03 1.563e-10
 50.86188     26.4 9.613e+03 1.791e-10
 50.89146     27.5 9.668e+03 2.236e-10
 50.93344     28.6 9.712e+03 2.661e-10
 50.95470     29.1 9.990e+03 4.379e-10
 50.97320     30.4 1.006e+04 5.204e-10
 50.99446     30.2 1.000e+04 4.511e-10
 51.01901     31.2 1.011e+04 4.740e-10
 51.04752     32.2 1.017e+04 4.694e-10
 51.06878     32.5 1.030e+04 4.574e-10
 51.10405     33.4 1.034e+04 3.949e-10
 51.14034     33.9 1.066e+04 3.478e-10
 51.16160     33.3 1.057e+04 3.565e-10
 51.18909     33.5 1.074e+04 4.189e-10
 51.23161     33.8 1.106e+04 5.664e-10
 51.25442     33.8 1.159e+04 8.058e-10
 51.27568     33.6 1.178e+04 9.989e-10
 51.31665     33.4 1.250e+04 1.610e-09
 51.34724     33.5 1.298e+04 2.269e-09
 51.36850     33.8 1.323e+04 2.335e-09
 51.40169     33.0 1.310e+04 2.232e-09
 51.44006     33.2 1.216e+04 1.451e-09
 51.46132     32.9 1.224e+04 1.541e-09
 51.48672     33.4 1.118e+04 6.861e-10
 51.51992     32.2 1.047e+04 2.917e-10
 51.54118     32.3 1.038e+04 2.886e-10
 51.55414     32.0 1.039e+04 2.919e-10
 51.57540     30.8 1.111e+04 4.841e-10
 51.61428     31.1 1.136e+04 7.570e-10
 51.64696     32.0 1.131e+04 8.386e-10
 51.66822     32.1 1.157e+04 1.292e-09
 51.69932     34.4 1.097e+04 7.685e-10
 51.73978     36.1 1.065e+04 3.258e-10
 51.76104     34.9 1.078e+04 2.083e-10
 51.78436     34.6 1.015e+04 1.253e-10
 51.82688     35.8 9.863e+03 1.192e-10
 51.85386     37.9 9.861e+03 1.213e-10
 51.87512     38.4 1.011e+04 1.276e-10
 51.91192     40.5 1.028e+04 1.387e-10
 51.94668     42.4 1.044e+04 1.571e-10
 51.96794     42.3 1.086e+04 1.784e-10
 51.99695     43.9 1.097e+04 2.292e-10
 52.03947     45.3 1.099e+04 3.144e-10
 52.06663     47.2 1.134e+04 6.162e-10
 52.08789     47.6 1.113e+04 3.875e-10
 52.12451     49.1 1.113e+04 4.911e-10
 52.15358     50.6 1.116e+04 6.277e-10
 52.17484     51.3 1.133e+04 6.818e-10
 52.20955     52.8 1.133e+04 7.453e-10
 52.24640     54.3 1.130e+04 7.566e-10
 52.26766     55.4 1.123e+04 4.551e-10
 52.29459     57.0 1.108e+04 4.220e-10
 52.33711     58.6 1.087e+04 3.789e-10
 52.36048     60.2 1.068e+04 3.332e-10
 52.38174     60.5 1.074e+04 2.042e-10
 52.42215     62.2 1.058e+04 2.151e-10
 52.45331     64.1 1.040e+04 2.410e-10
 52.47457     65.0 1.047e+04 1.952e-10
 52.50718     67.0 1.047e+04 2.418e-10
 52.54613     69.0 1.053e+04 2.917e-10
 52.56739     70.0 1.072e+04 2.606e-10
 52.59209     72.0 1.081e+04 3.146e-10
 52.63461     75.0 1.094e+04 3.337e-10
 52.66021     76.9 1.096e+04 3.547e-10
 52.68147     78.1 1.116e+04 3.731e-10
 52.71978     79.9 1.117e+04 3.973e-10
 52.75303     81.7 1.113e+04 4.307e-10
 52.77429     83.0 1.145e+04 4.880e-10
 52.80482     84.8 1.149e+04 5.349e-10
 52.84585     86.7 1.145e+04 6.148e-10
 52.86711     88.1 1.193e+04 8.392e-10
 52.88986     90.1 1.199e+04 9.699e-10
 52.93238     92.1 1.193e+04 9.621e-10
 52.95993     93.7 1.183e+04 8.839e-10
 52.98119     95.4 1.247e+04 1.369e-09
 53.00624     96.2 1.240e+04 1.320e-09
 53.01677     96.4 1.246e+04 1.428e-09
 53.02785     97.6 1.235e+04 1.402e-09
 53.04911     98.7 1.212e+04 1.297e-09
 53.06318    100.0 1.190e+04 1.149e-09
 53.07381    100.9 1.213e+04 1.319e-09
 53.09163    102.0 1.188e+04 1.130e-09
 53.10959    103.0 1.172e+04 1.000e-09
 53.12022    104.1 1.188e+04 1.064e-09
 53.13415    105.0 1.202e+04 9.824e-10
 53.14924    105.9 1.206e+04 9.869e-10
 53.15987    106.2 1.243e+04 1.454e-09
 53.16663    107.1 1.247e+04 1.457e-09
 53.17726    108.0 1.260e+04 1.518e-09
 53.19792    108.9 1.273e+04 1.549e-09
 53.21304    109.6 1.290e+04 1.630e-09
 53.22367    110.5 1.305e+04 1.695e-09
 53.24044    111.2 1.320e+04 1.820e-09
 53.25945    111.9 1.330e+04 1.960e-09
 53.27008    112.9 1.348e+04 2.086e-09
 53.28296    113.5 1.355e+04 2.279e-09
 53.30422    114.1 1.362e+04 2.462e-09
 53.31649    114.5 1.371e+04 2.613e-09
 53.32712    115.4 1.401e+04 3.071e-09
 53.34674    115.6 1.414e+04 3.355e-09
 53.36290    115.9 1.433e+04 3.613e-09
 53.37353    116.7 1.481e+04 4.767e-09
 53.38926    116.7 1.501e+04 5.038e-09
 53.40931    116.6 1.501e+04 5.026e-09
 53.41994    117.3 1.555e+04 6.749e-09
 53.42259    117.4 1.538e+04 6.396e-09
 53.43322    117.7 1.534e+04 6.365e-09
 53.45304    118.0 1.513e+04 5.946e-09
 53.46635    118.4 1.482e+04 5.233e-09
 53.47698    119.4 1.509e+04 6.189e-09
 53.49556    119.8 1.459e+04 4.823e-09
 53.51277    120.1 1.408e+04 3.745e-09
 53.52339    120.7 1.405e+04 3.645e-09
 53.53808    121.0 1.357e+04 2.885e-09
 53.55918    121.4 1.316e+04 2.398e-09
 53.56981    122.0 1.300e+04 2.250e-09
 53.58060    122.7 1.272e+04 2.012e-09
 53.60186    123.7 1.257e+04 1.899e-09
 53.61622    124.8 1.258e+04 1.898e-09
 53.62685    125.8 1.254e+04 1.904e-09
 53.64438    127.0 1.267e+04 1.955e-09
 53.66263    127.7 1.299e+04 2.143e-09
 53.67326    128.4 1.319e+04 2.335e-09
 53.68532    128.6 1.384e+04 2.934e-09
 53.69595    129.7 1.385e+04 3.609e-09
 53.70815    130.3 1.471e+04 4.822e-09
 53.71967    130.8 1.556e+04 6.409e-09
 53.72493    130.9 1.593e+04 6.976e-09
 53.73463    130.9 1.609e+04 7.394e-09
 53.74277    130.7 1.642e+04 8.348e-09
 53.74809    130.7 1.693e+04 9.743e-09
 53.75589    130.7 1.743e+04 1.182e-08
 53.76598    130.6 1.790e+04 1.440e-08
 53.77129    130.9 1.844e+04 1.726e-08
 53.77715    131.0 1.874e+04 2.028e-08
 53.78778    131.3 1.898e+04 2.355e-08
 53.79450    131.7 1.926e+04 2.725e-08
 53.79981    132.2 1.974e+04 2.993e-08
 53.80904    132.6 2.007e+04 3.352e-08
 53.81770    132.8 2.047e+04 3.637e-08
 53.82302    133.4 2.073e+04 3.547e-08
 53.82722    133.4 2.092e+04 3.685e-08
 53.83253    134.0 2.118e+04 5.971e-08
 53.84091    133.9 2.131e+04 6.382e-08
 53.85154    134.1 2.179e+04 6.126e-08
 53.86219    133.9 2.191e+04 6.212e-08
 53.86943    133.7 2.208e+04 6.349e-08
 53.87474    133.5 2.286e+04 5.170e-08
 53.88345    133.2 2.311e+04 5.393e-08
 53.89263    132.7 2.332e+04 5.645e-08
 53.89795    132.0 2.377e+04 3.981e-08
 53.90471    131.3 2.383e+04 4.193e-08
 53.91534    130.7 2.384e+04 4.555e-08
 53.92115    130.0 2.392e+04 5.022e-08
 53.92647    128.6 2.364e+04 2.911e-08
 53.93660    127.4 2.382e+04 3.006e-08
 53.94436    125.8 2.398e+04 3.043e-08
 53.94967    124.1 2.240e+04 1.967e-08
 53.95786    122.2 2.253e+04 2.096e-08
 53.96389    120.2 2.262e+04 2.316e-08
 53.96829    120.0 2.412e+04 5.348e-08
 53.97288    118.4 2.291e+04 5.354e-08
 53.97912    116.3 2.345e+04 6.184e-08
 53.98975    114.4 2.372e+04 6.607e-08
 53.99608    112.5 2.367e+04 6.609e-08
 54.00140    111.4 2.326e+04 7.896e-08
 54.01101    110.2 2.303e+04 7.483e-08
 54.01929    109.6 2.267e+04 6.329e-08
 54.02460    109.7 2.238e+04 7.141e-08
 54.03227    109.7 2.210e+04 5.043e-08
 54.04250    109.3 2.182e+04 3.434e-08
 54.04781    109.2 2.190e+04 3.226e-08
 54.05353    108.1 2.151e+04 2.256e-08
 54.06575    105.3 2.055e+04 1.560e-08
 54.07643    103.0 2.015e+04 1.395e-08
 54.09083     99.6 1.922e+04 1.394e-08
 54.10672     97.8 1.890e+04 1.409e-08
 54.11730     96.9 1.886e+04 1.545e-08
 54.12274     96.3 1.922e+04 1.802e-08
 54.12806     95.7 1.980e+04 2.069e-08
 54.13856     95.3 2.021e+04 2.387e-08
 54.14595     94.9 2.065e+04 2.616e-08
 54.15126     92.8 2.291e+04 3.705e-08
 54.15982     92.0 2.337e+04 3.913e-08
 54.16915     91.1 2.351e+04 3.891e-08
 54.17447     88.5 2.455e+04 6.570e-08
 54.18108     87.8 2.436e+04 6.050e-08
 54.19171     87.1 2.402e+04 5.329e-08
 54.19767     86.5 2.344e+04 4.520e-08
 54.20299     84.9 2.204e+04 5.972e-08
 54.21297     84.6 2.143e+04 4.783e-08
 54.22088     84.5 2.091e+04 4.042e-08
 54.22619     84.0 2.078e+04 4.557e-08
 54.23194     83.9 2.036e+04 3.906e-08
 54.23725     83.3 2.079e+04 4.617e-08
 54.24408     83.6 2.021e+04 3.938e-08
 54.24940     83.1 2.007e+04 3.490e-08
 54.26086     83.7 1.982e+04 3.061e-08
 54.27270     84.4 1.937e+04 2.593e-08
 54.28333     83.5 1.892e+04 1.713e-08
 54.30342     84.6 1.865e+04 1.587e-08
 54.31911     85.9 1.842e+04 1.478e-08
 54.32974     84.8 1.733e+04 8.468e-09
 54.34594     86.2 1.710e+04 7.906e-09
 54.36552     87.6 1.676e+04 7.053e-09
 54.37615     86.8 1.511e+04 4.431e-09
 54.38846     88.1 1.486e+04 3.942e-09
 54.40972     89.2 1.446e+04 3.387e-09
 54.42256     90.0 1.392e+04 2.869e-09
 54.43319     90.0 1.297e+04 2.493e-09
 54.45224     91.0 1.273e+04 2.245e-09
 54.46897     92.2 1.256e+04 2.031e-09
 54.47960     92.7 1.276e+04 1.955e-09
 54.50549     93.9 1.254e+04 1.746e-09
 54.54810     95.7 1.221e+04 1.411e-09
 54.57262     97.4 1.193e+04 1.162e-09
 54.59388     98.1 1.149e+04 8.755e-10
 54.63314     99.9 1.137e+04 8.320e-10
 54.66544    101.7 1.140e+04 8.644e-10
 54.68670    102.6 1.109e+04 6.752e-10
 54.71818    104.4 1.120e+04 7.776e-10
 54.75768    106.1 1.156e+04 1.076e-09
 54.77650    106.1 1.153e+04 1.061e-09
 54.77952    107.4 1.121e+04 8.799e-10
 54.80322    109.1 1.156e+04 1.116e-09
 54.84574    110.7 1.201e+04 1.491e-09
 54.87234    112.1 1.241e+04 1.800e-09
 54.89360    113.5 1.188e+04 1.308e-09
 54.93078    114.8 1.203e+04 1.373e-09
 54.96516    116.1 1.200e+04 1.339e-09
 54.98642    117.8 1.154e+04 9.119e-10
 55.01581    119.3 1.149e+04 8.516e-10
 55.05798    120.9 1.134e+04 7.147e-10
 55.07924    122.5 1.106e+04 5.072e-10
 55.10085    124.2 1.095e+04 4.273e-10
 55.14337    126.0 1.082e+04 3.417e-10
 55.17206    128.0 1.071e+04 2.771e-10
 55.19332    129.6 1.060e+04 2.743e-10
 55.22841    131.8 1.061e+04 2.708e-10
 55.26488    134.0 1.066e+04 2.762e-10
 55.28614    135.6 1.075e+04 3.087e-10
 55.30440    137.4 1.101e+04 3.647e-10
 55.32566    137.4 1.109e+04 4.028e-10
 55.35597    139.0 1.137e+04 5.344e-10
 55.37896    140.7 1.180e+04 7.774e-10
 55.38949    140.5 1.180e+04 7.695e-10
 55.40892    141.2 1.203e+04 9.225e-10
 55.42517    141.9 1.234e+04 1.146e-09
 55.43580    142.2 1.241e+04 1.221e-09
 55.45144    143.0 1.268e+04 1.481e-09
 55.47168    143.7 1.316e+04 1.885e-09
 55.48231    143.5 1.320e+04 2.070e-09
 55.49396    143.9 1.344e+04 2.354e-09
 55.51522    144.4 1.366e+04 2.578e-09
 55.52862    144.9 1.376e+04 2.670e-09
 55.53925    145.2 1.377e+04 2.932e-09
 55.56450    145.7 1.372e+04 2.609e-09
 55.58586    145.2 1.362e+04 2.536e-09
 55.61108    146.0 1.342e+04 2.118e-09
 55.65360    146.7 1.317e+04 1.695e-09
 55.67868    147.5 1.296e+04 1.425e-09
 55.69994    147.0 1.239e+04 1.158e-09
 55.73864    148.0 1.241e+04 1.091e-09
 55.77150    149.3 1.240e+04 1.013e-09
 55.79276    149.2 1.189e+04 7.912e-10
 55.82368    150.5 1.191e+04 6.793e-10
 55.85111    151.9 1.182e+04 5.057e-10
 55.87050    151.1 1.150e+04 3.401e-10
 55.88558    151.0 1.119e+04 3.282e-10
 55.90872    152.3 1.101e+04 2.175e-10
 55.95124    153.5 1.085e+04 1.546e-10
 55.97840    155.0 1.077e+04 1.435e-10
 55.99966    155.3 1.054e+04 1.576e-10
 56.03627    157.0 1.054e+04 1.573e-10
 56.07122    158.8 1.059e+04 1.588e-10
 56.09248    159.3 1.036e+04 1.893e-10
 56.12131    160.9 1.047e+04 1.998e-10
 56.16383    162.4 1.060e+04 2.033e-10
 56.18530    163.7 1.066e+04 2.021e-10
 56.20656    164.4 1.053e+04 2.365e-10
 56.24887    165.7 1.056e+04 2.315e-10
 56.27812    167.0 1.058e+04 2.183e-10
 56.29938    167.6 1.054e+04 2.258e-10
 56.33391    169.0 1.054e+04 2.071e-10
 56.37094    170.5 1.052e+04 1.881e-10
 56.39220    171.2 1.042e+04 1.803e-10
 56.41895    173.1 1.036e+04 1.241e-10
 56.46147    174.7 1.033e+04 1.087e-10
 56.48502    176.4 1.032e+04 1.071e-10
 56.50628    177.1 1.021e+04 9.824e-11
 56.54650    179.0 1.021e+04 9.858e-11
 56.57785    181.0 1.022e+04 1.014e-10
 56.59910    181.7 1.010e+04 8.891e-11
 56.63154    183.8 1.014e+04 9.322e-11
 56.67067    185.9 1.021e+04 9.753e-11
 56.69193    186.6 1.010e+04 8.226e-11
 56.71658    188.6 1.015e+04 8.544e-11
 56.75910    190.7 1.024e+04 8.549e-11
 56.78475    192.8 1.027e+04 8.475e-11
 56.80601    193.5 1.016e+04 7.174e-11
 56.84414    195.5 1.019e+04 7.015e-11
 56.87757    197.5 1.022e+04 6.772e-11
 56.89883    198.2 1.011e+04 5.784e-11
 56.92328    200.1 1.012e+04 5.518e-11
 56.94454    200.0 9.972e+03 5.339e-11
 56.97039    201.9 9.992e+03 5.331e-11
 56.99165    202.5 9.874e+03 5.162e-11
 57.01421    204.3 9.883e+03 5.147e-11
 57.05673    206.1 9.923e+03 5.203e-11
 57.08447    207.8 9.987e+03 5.471e-11
 57.10573    208.4 9.862e+03 5.350e-11
 57.14177    210.0 9.868e+03 5.677e-11
 57.17729    211.6 9.892e+03 6.203e-11
 57.19855    212.5 9.871e+03 6.202e-11
 57.22681    214.2 9.901e+03 6.943e-11
 57.26933    215.7 9.943e+03 7.926e-11
 57.29137    217.2 9.995e+03 9.191e-11
 57.31263    218.3 9.998e+03 9.245e-11
 57.35437    219.8 1.006e+04 1.089e-10
 57.38419    221.2 1.014e+04 1.313e-10
 57.40545    222.3 1.015e+04 1.332e-10
 57.43941    223.7 1.023e+04 1.625e-10
 57.47000    225.0 1.030e+04 2.005e-10
 57.48634    224.9 1.036e+04 2.528e-10
 57.49827    226.0 1.044e+04 2.616e-10
 57.52444    227.4 1.046e+04 2.989e-10
 57.56696    228.7 1.045e+04 3.341e-10
 57.59109    230.0 1.046e+04 3.738e-10
 57.61235    231.0 1.059e+04 4.023e-10
 57.65200    232.3 1.070e+04 4.845e-10
 57.68391    233.6 1.095e+04 6.283e-10
 57.70517    234.5 1.131e+04 7.760e-10
 57.73704    235.6 1.176e+04 1.089e-09
 57.77673    236.3 1.218e+04 1.459e-09
 57.79799    236.6 1.246e+04 1.596e-09
 57.82208    236.7 1.261e+04 1.708e-09
 57.86460    236.6 1.260e+04 1.689e-09
 57.89081    236.2 1.247e+04 1.570e-09
 57.91207    236.1 1.243e+04 1.501e-09
 57.94964    235.9 1.202e+04 1.177e-09
 57.98363    235.9 1.139e+04 7.844e-10
 58.00489    235.9 1.120e+04 6.534e-10
 58.01671    236.3 1.052e+04 3.929e-10
 58.03797    236.6 1.054e+04 4.117e-10
 58.07645    237.4 9.923e+03 2.327e-10
 58.09771    237.7 9.853e+03 2.158e-10
 58.11971    238.9 9.460e+03 1.396e-10
 58.16223    240.5 9.141e+03 1.183e-10
 58.19053    242.4 9.117e+03 1.171e-10
 58.21179    242.8 9.224e+03 1.230e-10
 58.24727    244.9 9.224e+03 1.229e-10
 58.28335    247.0 9.223e+03 1.234e-10
 58.30461    247.3 9.321e+03 1.317e-10
 58.33231    249.4 9.324e+03 1.342e-10
 58.37483    251.4 9.320e+03 1.374e-10
 58.39743    253.5 9.297e+03 1.411e-10
 58.41869    253.7 9.373e+03 1.469e-10
 58.45987    255.8 9.333e+03 1.481e-10
 58.49025    258.0 9.282e+03 1.493e-10
 58.51151    258.2 9.320e+03 1.490e-10
 58.54217    260.4 9.303e+03 1.489e-10
 58.56343    260.2 9.326e+03 1.789e-10
 58.58308    262.5 9.320e+03 1.793e-10
 58.60433    262.7 9.347e+03 1.735e-10
 58.62994    265.0 9.332e+03 1.814e-10
 58.67246    267.2 9.378e+03 1.974e-10
 58.69716    269.5 9.499e+03 2.250e-10
 58.71842    269.4 9.524e+03 2.229e-10
 58.75750    271.4 9.694e+03 2.625e-10
 58.78998    273.3 9.914e+03 3.169e-10
 58.81124    273.2 9.903e+03 2.915e-10
 58.84254    274.8 1.015e+04 3.543e-10
 58.88280    276.3 1.042e+04 4.336e-10
 58.90406    276.1 1.020e+04 3.314e-10
 58.92758    277.2 1.037e+04 3.872e-10
 58.97010    278.1 1.050e+04 4.467e-10
 58.99688    278.9 1.059e+04 5.071e-10
 59.01814    278.6 1.022e+04 3.722e-10
 59.05513    279.2 1.033e+04 4.438e-10
 59.08888    279.7 1.046e+04 5.270e-10
 59.10218    279.6 1.032e+04 4.890e-10
 59.11096    279.5 1.011e+04 4.067e-10
 59.14017    279.5 1.020e+04 4.704e-10
 59.18252    279.3 1.030e+04 5.075e-10
 59.22504    278.4 1.036e+04 4.916e-10
 59.26773    277.6 1.037e+04 4.872e-10
 59.29660    276.5 1.032e+04 4.538e-10
 59.31786    275.7 1.035e+04 4.596e-10
 59.35277    274.6 1.011e+04 3.710e-10
 59.38942    273.7 9.740e+03 2.678e-10
 59.41068    273.1 9.773e+03 2.901e-10
 59.43781    272.7 9.354e+03 2.173e-10
 59.48033    272.5 9.035e+03 1.860e-10
 59.50350    272.6 8.983e+03 1.850e-10
 59.52476    272.5 9.203e+03 2.175e-10
 59.56536    273.2 9.156e+03 2.137e-10
 59.59632    274.0 9.186e+03 2.177e-10
 59.61758    273.9 9.375e+03 2.394e-10
 59.63550    274.1 9.365e+03 2.397e-10
 59.65676    275.0 9.429e+03 2.446e-10
 59.68219    274.8 9.513e+03 2.643e-10
 59.69958    274.6 9.672e+03 3.056e-10
 59.71020    274.8 9.763e+03 3.414e-10
 59.72462    274.1 1.018e+04 4.736e-10
 59.74588    273.1 1.077e+04 7.070e-10
 59.75662    271.8 1.149e+04 1.055e-09
 59.76724    270.7 1.229e+04 1.394e-09
 59.78839    269.1 1.317e+04 1.914e-09
 59.80303    267.2 1.385e+04 2.103e-09
 59.81366    265.6 1.494e+04 3.061e-09
 59.83091    263.7 1.490e+04 2.981e-09
 59.84944    262.0 1.455e+04 2.530e-09
 59.86007    261.2 1.513e+04 3.490e-09
 59.87343    259.9 1.405e+04 2.253e-09
 59.89469    258.2 1.262e+04 1.378e-09
 59.90648    256.2 1.174e+04 1.120e-09
 59.90991    255.5 1.204e+04 1.275e-09
 59.91939    257.4 1.223e+04 1.265e-09
 59.93721    255.7 1.206e+04 1.226e-09
 59.95289    254.5 1.214e+04 1.267e-09
 59.96352    253.7 1.250e+04 1.502e-09
 59.97973    251.4 1.310e+04 1.875e-09
 59.99930    246.3 1.542e+04 4.015e-09
 60.00993    244.2 1.606e+04 4.945e-09
 60.02225    237.4 1.889e+04 9.922e-09
 60.04351    229.9 2.092e+04 1.135e-08
 60.05634    221.8 2.126e+04 1.021e-08
 60.06697    219.2 2.082e+04 8.398e-09
 60.08603    211.1 2.094e+04 4.209e-09
 60.10275    203.0 1.883e+04 1.531e-09
 60.11338    200.5 1.699e+04 1.173e-09
 60.12855    191.8 1.226e+04 5.368e-10
 60.16054    189.2 1.113e+04 5.641e-10
 60.18231    189.0 1.100e+04 5.662e-10
 60.19618    187.7 1.081e+04 5.209e-10
 60.21702    187.4 1.078e+04 5.192e-10
 60.24567    188.0 1.072e+04 4.767e-10
 60.28819    188.5 1.057e+04 4.073e-10
 60.30984    188.8 1.035e+04 3.539e-10
 60.33110    188.1 1.031e+04 3.501e-10
 60.37323    188.4 1.025e+04 3.484e-10
 60.40266    188.7 1.026e+04 3.599e-10
 60.42392    187.9 1.043e+04 4.028e-10
 60.45827    187.6 1.055e+04 4.577e-10
 60.49548    187.0 1.076e+04 5.412e-10
 60.51674    185.6 1.098e+04 6.217e-10
 60.54331    184.0 1.122e+04 7.050e-10
 60.58582    181.3 1.157e+04 8.273e-10
 60.60956    177.6 1.206e+04 1.042e-09
 60.63082    173.6 1.250e+04 1.264e-09
 60.67086    169.1 1.263e+04 1.334e-09
 60.70239    164.8 1.252e+04 1.270e-09
 60.71803    161.4 1.220e+04 1.049e-09
 60.72902    161.7 1.202e+04 9.610e-10
 60.75590    158.8 1.128e+04 6.089e-10
 60.79521    156.0 1.025e+04 3.478e-10
 60.81647    153.6 9.699e+03 2.932e-10
 60.84094    152.0 9.510e+03 2.820e-10
 60.88346    151.0 9.525e+03 2.793e-10
 60.90929    150.0 9.570e+03 2.803e-10
 60.93055    149.9 9.827e+03 3.072e-10
 60.96850    148.5 9.967e+03 3.009e-10
 61.00211    146.3 1.009e+04 2.987e-10
 61.02337    145.9 1.037e+04 3.188e-10
 61.04281    144.8 1.037e+04 3.201e-10
 61.05895    143.8 1.042e+04 3.241e-10
 61.06958    143.6 1.055e+04 3.407e-10
 61.08523    141.6 1.081e+04 3.851e-10
 61.10536    139.2 1.110e+04 4.615e-10
 61.11599    138.4 1.142e+04 5.676e-10
 61.12775    136.6 1.160e+04 6.733e-10
 61.14901    133.9 1.251e+04 8.886e-10
 61.16240    126.7 1.534e+04 1.904e-09
 61.16767    125.5 1.591e+04 2.325e-09
 61.17548    121.8 1.724e+04 3.262e-09
 61.18551    116.9 1.930e+04 5.674e-09
 61.19082    115.6 2.015e+04 6.245e-09
 61.19674    110.0 2.196e+04 1.292e-08
 61.20737    106.4 2.225e+04 2.343e-08
 61.21403    104.4 2.152e+04 3.071e-08
 61.21934    103.7 2.112e+04 3.605e-08
 61.22863    102.3 2.091e+04 3.490e-08
 61.23723    101.3 2.039e+04 3.021e-08
 61.24255    101.4 2.014e+04 3.007e-08
 61.25423     99.8 1.935e+04 1.676e-08
 61.26483    100.0 1.941e+04 1.892e-08
 61.27648     97.3 1.735e+04 5.666e-09
 61.29782     93.3 1.420e+04 1.712e-09
 61.31226     87.8 1.020e+04 6.437e-10
 61.32289     87.5 1.089e+04 4.715e-10
 61.35107     82.6 9.502e+03 2.277e-10
 61.39369     82.0 9.244e+03 2.179e-10
 61.41591     82.2 9.244e+03 2.188e-10
 61.43717     83.0 9.104e+03 2.186e-10
 61.47873     83.1 9.122e+03 2.310e-10
 61.50873     83.3 9.229e+03 2.638e-10
 61.52999     83.1 9.386e+03 2.579e-10
 61.55304     82.9 9.487e+03 2.845e-10
 61.56557     82.8 9.559e+03 3.163e-10
 61.57620     82.4 9.747e+03 3.321e-10
 61.59546     81.6 9.975e+03 4.104e-10
 61.61198     80.6 1.039e+04 5.742e-10
 61.62261     79.3 1.068e+04 6.272e-10
 61.63798     78.2 1.124e+04 9.337e-10
 61.65839     77.0 1.283e+04 1.533e-09
 61.66902     76.9 1.138e+04 1.106e-09
 61.68050     76.0 1.186e+04 1.290e-09
 61.70176     74.7 1.230e+04 1.314e-09
 61.71543     73.1 1.234e+04 1.273e-09
 61.73679     71.8 1.093e+04 7.774e-10
 61.77636     70.1 1.062e+04 6.063e-10
 61.80119     69.0 1.036e+04 5.040e-10
 61.81202     68.6 1.006e+04 4.361e-10
 61.82971     68.6 9.326e+03 3.465e-10
 61.86140     67.8 9.398e+03 3.659e-10
 61.90127     66.9 9.703e+03 4.491e-10
 61.92253     67.4 9.605e+03 4.464e-10
 61.94644     66.5 9.982e+03 5.648e-10
 61.98896     65.6 1.001e+04 5.659e-10
 62.01535     65.1 9.815e+03 4.807e-10
 62.03661     65.7 9.783e+03 4.980e-10
 62.07399     64.9 9.225e+03 3.068e-10
 62.10817     63.5 8.742e+03 1.977e-10
 62.12943     64.0 8.820e+03 2.388e-10
 62.15903     62.9 8.828e+03 2.588e-10
 62.20099     62.4 9.026e+03 3.312e-10
 62.22225     63.3 9.328e+03 3.804e-10
 62.24407     63.3 9.546e+03 4.481e-10
 62.28659     62.8 9.563e+03 4.358e-10
 62.31507     62.0 9.458e+03 3.789e-10
 62.33387     62.5 9.668e+03 3.751e-10
 62.34791     62.0 9.869e+03 4.253e-10
 62.37163     60.6 9.825e+03 3.957e-10
 62.40789     59.1 9.890e+03 4.142e-10
 62.42906     58.5 1.013e+04 3.779e-10
 62.44584     58.0 1.022e+04 3.954e-10
 62.46474     57.6 1.034e+04 4.262e-10
 62.47537     57.6 1.029e+04 4.085e-10
 62.48836     57.4 1.038e+04 4.428e-10
 62.50962     57.2 1.053e+04 4.904e-10
 62.52178     56.9 1.069e+04 5.461e-10
 62.53241     55.9 1.054e+04 4.605e-10
 62.55214     55.4 1.066e+04 5.184e-10
 62.56819     55.0 1.079e+04 5.964e-10
 62.57882     54.6 1.066e+04 5.781e-10
 62.59466     54.2 1.086e+04 6.848e-10
 62.61044     54.1 1.108e+04 8.238e-10
 62.61975     53.4 1.104e+04 8.152e-10
 62.62523     53.1 1.088e+04 9.058e-10
 62.63718     53.4 1.114e+04 1.049e-09
 62.66917     53.6 1.123e+04 1.060e-09
 62.70762     53.6 1.109e+04 9.883e-10
 62.72887     53.7 1.110e+04 1.071e-09
 62.75430     53.9 1.066e+04 8.397e-10
 62.79682     54.2 1.011e+04 6.190e-10
 62.82170     54.7 9.567e+03 4.180e-10
 62.84295     55.2 9.453e+03 3.699e-10
 62.87336     55.7 9.052e+03 2.396e-10
 62.89462     54.7 9.215e+03 2.837e-10
 62.91452     55.1 8.886e+03 2.178e-10
 62.93578     55.9 8.814e+03 2.070e-10
 62.96690     56.6 8.657e+03 1.930e-10
 63.00734     57.6 8.655e+03 1.941e-10
 63.02860     58.6 8.595e+03 1.754e-10
 63.05194     59.6 8.616e+03 1.829e-10
 63.09445     60.5 8.741e+03 2.145e-10
 63.12142     61.1 9.069e+03 2.750e-10
 63.14268     61.7 9.166e+03 2.729e-10
 63.17949     61.8 9.501e+03 3.567e-10
 63.21128     61.4 9.969e+03 5.098e-10
 63.22467     61.5 1.024e+04 6.534e-10
 63.23530     61.7 1.030e+04 6.904e-10
 63.25371     61.9 1.056e+04 8.365e-10
 63.27108     62.1 1.083e+04 9.788e-10
 63.28171     62.4 1.098e+04 1.006e-09
 63.29623     62.4 1.134e+04 1.146e-09
 63.31749     62.0 1.179e+04 1.316e-09
 63.33874     60.9 1.246e+04 1.587e-09
 63.36000     60.0 1.289e+04 1.942e-09
 63.37453     59.3 1.326e+04 2.415e-09
 63.38516     59.0 1.326e+04 2.479e-09
 63.40252     58.3 1.362e+04 2.975e-09
 63.41988     57.5 1.413e+04 3.511e-09
 63.42767     55.7 1.398e+04 3.419e-09
 63.43157     55.4 1.345e+04 2.997e-09
 63.44504     54.6 1.344e+04 2.988e-09
 63.46630     53.9 1.319e+04 2.758e-09
 63.47798     53.3 1.263e+04 2.255e-09
 63.48861     53.2 1.217e+04 1.949e-09
 63.51386     51.6 1.139e+04 1.073e-09
 63.53522     51.3 1.075e+04 8.749e-10
 63.56217     50.1 9.529e+03 4.219e-10
 63.60468     48.7 8.408e+03 2.121e-10
 63.62804     48.3 8.208e+03 1.493e-10
 63.64930     49.7 8.001e+03 1.314e-10
 63.68972     49.9 8.021e+03 1.238e-10
 63.72086     50.3 8.032e+03 1.267e-10
 63.74212     51.4 7.833e+03 9.845e-11
 63.77476     51.9 7.906e+03 1.126e-10
 63.81368     52.5 8.021e+03 1.387e-10
 63.83494     53.4 7.849e+03 1.151e-10
 63.85980     54.3 7.976e+03 1.435e-10
 63.90232     55.3 8.176e+03 1.537e-10
 63.92776     56.1 8.254e+03 1.529e-10
 63.94902     57.1 8.086e+03 1.304e-10
 63.96679     57.7 8.163e+03 1.247e-10
 63.98805     57.4 8.067e+03 1.070e-10
 64.02058     57.8 8.092e+03 1.063e-10
 64.04184     58.5 7.871e+03 8.337e-11
 64.07240     58.9 7.856e+03 8.486e-11
 64.11340     59.5 7.852e+03 9.052e-11
 64.13466     60.3 7.630e+03 7.480e-11
 64.15743     60.9 7.675e+03 8.360e-11
 64.19995     61.3 7.879e+03 1.043e-10
 64.22748     61.7 8.330e+03 1.583e-10
 64.24874     62.4 8.132e+03 1.392e-10
 64.28499     62.9 8.721e+03 2.347e-10
 64.32030     63.5 9.271e+03 3.602e-10
 64.34156     63.8 9.107e+03 3.154e-10
 64.37003     64.0 9.524e+03 4.061e-10
 64.41255     63.9 9.812e+03 4.653e-10
 64.43438     63.2 1.006e+04 5.292e-10
 64.45564     63.0 9.806e+03 5.105e-10
 64.48070     62.3 9.922e+03 5.840e-10
 64.49123     62.4 9.911e+03 5.654e-10
 64.50268     62.0 9.983e+03 6.149e-10
 64.51331     60.9 9.871e+03 5.622e-10
 64.52701     60.5 1.001e+04 6.074e-10
 64.54837     60.6 9.526e+03 4.449e-10
 64.58263     59.4 9.584e+03 4.340e-10
 64.62002     58.0 9.653e+03 3.906e-10
 64.64128     59.0 8.872e+03 2.763e-10
 64.66766     58.2 9.044e+03 2.937e-10
 64.71018     57.9 9.274e+03 3.187e-10
 64.73410     57.8 9.457e+03 3.488e-10
 64.75536     59.6 9.356e+03 3.498e-10
 64.79522     59.4 9.582e+03 3.651e-10
 64.82693     58.8 9.722e+03 3.742e-10
 64.84818     59.9 9.759e+03 3.888e-10
 64.88026     58.3 9.744e+03 3.840e-10
 64.91975     56.4 9.812e+03 3.878e-10
 64.94091     55.9 9.815e+03 4.080e-10
 64.95447     54.6 9.820e+03 4.101e-10
 64.97573     53.4 9.860e+03 4.260e-10
 64.98722     51.9 1.005e+04 4.674e-10
 64.99785     51.5 1.025e+04 5.369e-10
 65.01825     49.7 1.054e+04 6.343e-10
 65.03363     48.2 1.070e+04 7.199e-10
 65.04351     46.9 1.123e+04 9.450e-10
 65.04939     46.4 1.114e+04 9.462e-10
 65.06077     44.3 1.186e+04 1.159e-09
 65.08004     35.5 1.746e+04 2.672e-09
 65.09067     36.3 1.636e+04 2.722e-09
 65.10329     29.9 1.851e+04 6.282e-09
 65.12455     28.5 1.653e+04 8.746e-09
 65.13708     29.3 1.548e+04 7.787e-09
 65.14771     28.9 1.474e+04 4.929e-09
 65.16707     29.2 1.373e+04 3.428e-09
 65.18349     28.2 1.313e+04 2.092e-09
 65.19412     26.9 1.232e+04 1.557e-09
 65.20959     26.5 1.130e+04 8.905e-10
 65.22990     25.1 1.074e+04 5.377e-10
 65.24053     25.9 1.040e+04 5.467e-10
 65.25211     25.3 1.004e+04 3.566e-10
 65.27337     24.4 9.724e+03 2.683e-10
 65.28694     24.3 9.452e+03 2.385e-10
 65.29757     24.9 9.515e+03 2.497e-10
 65.31212     24.9 9.494e+03 2.489e-10
 65.32275     24.8 9.447e+03 2.426e-10
 65.33335     24.6 9.634e+03 2.715e-10
 65.34398     25.3 9.667e+03 2.859e-10
 65.35840     25.1 9.841e+03 3.317e-10
 65.37966     24.7 1.019e+04 4.561e-10
 65.39039     25.1 1.038e+04 5.715e-10
 65.40102     25.5 1.041e+04 5.820e-10
 65.42627     25.5 1.114e+04 8.339e-10
 65.44763     26.3 1.124e+04 9.399e-10
 65.47553     27.5 1.097e+04 8.027e-10
 65.51805     28.8 1.070e+04 5.234e-10
 65.54045     29.4 1.048e+04 3.431e-10
 65.56171     30.0 1.057e+04 3.972e-10
 65.58567     31.4 1.038e+04 3.790e-10
 65.60693     31.3 1.068e+04 4.168e-10
 65.63327     32.6 1.091e+04 5.044e-10
 65.65453     32.6 1.139e+04 6.911e-10
 65.67740     33.5 1.134e+04 7.885e-10
 65.69011     34.4 1.136e+04 1.031e-09
 65.70074     34.1 1.179e+04 1.219e-09
 65.71982     35.5 1.192e+04 1.675e-09
 65.73652     37.2 1.215e+04 2.071e-09
 65.74715     36.9 1.259e+04 2.468e-09
 65.76234     38.8 1.283e+04 2.910e-09
 65.78293     40.5 1.311e+04 2.988e-09
 65.79356     40.1 1.353e+04 3.554e-09
 65.80486     41.5 1.405e+04 3.611e-09
 65.82612     42.2 1.458e+04 3.560e-09
 65.83997     42.0 1.460e+04 3.310e-09
 65.85060     41.4 1.502e+04 3.939e-09
 65.85884     41.0 1.481e+04 3.736e-09
 65.86947     39.0 1.348e+04 2.533e-09
 65.88638     38.9 1.346e+04 2.600e-09
 65.89701     38.1 1.353e+04 2.503e-09
 65.91115     37.5 1.370e+04 2.693e-09
 65.93241     37.0 1.421e+04 3.276e-09
 65.94343     36.7 1.482e+04 4.349e-09
 65.95405     35.4 1.449e+04 2.859e-09
 65.97493     35.8 1.501e+04 3.460e-09
 65.98984     36.5 1.535e+04 3.714e-09
 66.00047     33.5 1.399e+04 1.824e-09
 66.01745     33.1 1.395e+04 1.690e-09
 66.03625     32.3 1.349e+04 1.474e-09
 66.04688     29.6 1.203e+04 1.247e-09
 66.05997     29.0 1.216e+04 1.260e-09
 66.08123     28.4 1.230e+04 1.258e-09
 66.09329     27.7 1.258e+04 1.341e-09
 66.10392     27.6 1.258e+04 1.487e-09
 66.12156     27.6 1.268e+04 1.462e-09
 66.13219     27.5 1.353e+04 2.852e-09
 66.13970     28.2 1.357e+04 2.760e-09
 66.15033     28.5 1.347e+04 2.370e-09
 66.16627     28.7 1.347e+04 1.912e-09
 66.18611     28.6 1.311e+04 1.465e-09
 66.19674     27.8 1.268e+04 1.196e-09
 66.20879     27.6 1.216e+04 9.026e-10
 66.23261     28.0 1.195e+04 8.180e-10
 66.25397     26.8 1.121e+04 7.622e-10
 66.28339     27.7 1.068e+04 5.470e-10
 66.32553     29.0 1.051e+04 4.800e-10
 66.34679     29.0 1.027e+04 4.591e-10
 66.36843     30.4 1.010e+04 4.252e-10
 66.41095     32.0 1.010e+04 4.182e-10
 66.43961     33.3 1.024e+04 4.518e-10
 66.46087     33.6 9.560e+03 2.184e-10
 66.49599     34.3 9.690e+03 2.214e-10
 66.53243     34.7 9.913e+03 2.492e-10
 66.55369     34.8 9.224e+03 1.061e-10
 66.58103     35.5 9.322e+03 1.355e-10
 66.62355     36.4 9.407e+03 1.679e-10
 66.64651     37.5 9.442e+03 1.930e-10
 66.65955     38.2 9.213e+03 1.316e-10
 66.67910     37.5 9.193e+03 1.300e-10
 66.70858     38.6 9.256e+03 1.539e-10
 66.73933     39.7 9.386e+03 1.721e-10
 66.76059     40.8 9.236e+03 1.458e-10
 66.79362     41.9 9.351e+03 1.769e-10
 66.83216     43.0 9.541e+03 2.116e-10
 66.85341     44.0 9.419e+03 1.733e-10
 66.87866     45.1 9.568e+03 2.041e-10
 66.92118     46.2 9.625e+03 2.092e-10
 66.94624     47.5 9.629e+03 1.999e-10
 66.96749     48.5 9.508e+03 1.735e-10
 67.00622     50.0 9.490e+03 1.494e-10
 67.03906     51.6 9.489e+03 1.146e-10
 67.06032     52.4 9.421e+03 1.022e-10
 67.09126     53.8 9.439e+03 7.988e-11
 67.13188     55.0 9.516e+03 6.509e-11
 67.15314     55.9 9.487e+03 6.894e-11
 67.17629     57.3 9.507e+03 6.568e-11
 67.20456     58.7 9.533e+03 6.664e-11
 67.22582     57.4 9.545e+03 7.557e-11
 67.24596     59.0 9.557e+03 9.294e-11
 67.26722     60.2 9.505e+03 9.932e-11
 67.30385     62.0 9.525e+03 1.216e-10
 67.33878     63.8 9.582e+03 1.455e-10
 67.36004     64.8 9.541e+03 1.418e-10
 67.38889     66.4 9.660e+03 1.699e-10
 67.43141     68.0 9.963e+03 2.132e-10
 67.47393     69.9 1.043e+04 2.982e-10
 67.49917     69.5 1.083e+04 3.856e-10
 67.50970     69.4 1.095e+04 4.613e-10
 67.52688     68.9 1.145e+04 7.094e-10
 67.54548     68.5 1.208e+04 1.112e-09
 67.55611     68.8 1.223e+04 1.478e-09
 67.56940     68.8 1.299e+04 2.320e-09
 67.59066     69.1 1.373e+04 3.313e-09
 67.60252     69.4 1.426e+04 3.907e-09
 67.61315     70.2 1.421e+04 4.018e-09
 67.63318     70.2 1.424e+04 3.820e-09
 67.64893     70.0 1.399e+04 3.066e-09
 67.65956     70.4 1.379e+04 2.889e-09
 67.67570     69.7 1.323e+04 1.935e-09
 67.69534     68.0 1.234e+04 1.193e-09
 67.70597     68.6 1.223e+04 1.199e-09
 67.72895     68.4 1.154e+04 7.905e-10
 67.75127     68.0 1.026e+04 4.284e-10
 67.75355     67.2 1.003e+04 4.040e-10
 67.77384     68.5 1.012e+04 4.156e-10
 67.81408     69.3 9.545e+03 2.728e-10
 67.84540     70.2 9.135e+03 1.851e-10
 67.86666     71.8 9.144e+03 1.840e-10
 67.89912     72.8 8.968e+03 1.471e-10
 67.93822     74.0 8.984e+03 1.502e-10
 67.95948     75.7 8.941e+03 1.491e-10
 67.98416     76.9 9.028e+03 1.665e-10
 68.02668     78.1 9.191e+03 2.033e-10
 68.05230     79.2 9.338e+03 2.400e-10
 68.07356     80.8 9.559e+03 2.875e-10
 68.11172     81.8 9.760e+03 3.366e-10
 68.14512     82.8 9.861e+03 3.367e-10
 68.16638     84.0 1.016e+04 4.392e-10
 68.19675     84.6 1.011e+04 4.109e-10
 68.23794     84.9 1.003e+04 3.362e-10
 68.25910     85.6 1.030e+04 4.285e-10
 68.27097     85.4 1.017e+04 3.650e-10
 68.28716     85.2 1.001e+04 3.171e-10
 68.29779     84.5 9.912e+03 2.999e-10
 68.30542     84.0 9.801e+03 2.689e-10
 68.31605     83.9 1.054e+04 3.516e-10
 68.33475     81.9 1.115e+04 3.921e-10
 68.35183     77.5 1.296e+04 6.087e-10
 68.36246     72.6 1.501e+04 1.810e-09
 68.37727     70.1 1.519e+04 3.367e-09
 68.39824     70.1 1.522e+04 5.519e-09
 68.40887     70.7 1.550e+04 7.133e-09
 68.41978     71.0 1.529e+04 6.763e-09
 68.44104     71.4 1.507e+04 5.776e-09
 68.45528     71.3 1.484e+04 4.209e-09
 68.46591     69.4 1.506e+04 2.161e-09
 68.48356     66.1 1.488e+04 1.208e-09
 68.50169     61.8 1.333e+04 8.315e-10
 68.51232     57.9 1.157e+04 7.711e-10
 68.52608     56.9 1.151e+04 8.108e-10
 68.54734     56.7 1.155e+04 9.051e-10
 68.55873     56.6 1.166e+04 1.009e-09
 68.56127     56.2 1.187e+04 1.187e-09
 68.57115     55.3 1.208e+04 1.386e-09
 68.58986     55.2 1.195e+04 1.318e-09
 68.60514     55.2 1.178e+04 1.214e-09
 68.61577     54.9 1.177e+04 1.245e-09
 68.63238     54.8 1.145e+04 1.074e-09
 68.65165     55.8 1.128e+04 9.212e-10
 68.67300     55.4 1.096e+04 7.664e-10
 68.70698     55.7 1.052e+04 5.126e-10
 68.74456     56.1 1.019e+04 3.826e-10
 68.76582     55.3 9.846e+03 3.108e-10
 68.79202     56.5 9.490e+03 2.546e-10
 68.82344     57.9 9.300e+03 2.152e-10
 68.84470     57.0 9.196e+03 2.002e-10
 68.85864     58.6 9.206e+03 1.719e-10
 68.87990     58.6 8.975e+03 1.581e-10
 68.91958     60.4 9.021e+03 1.439e-10
 68.95147     62.3 9.059e+03 1.463e-10
 68.97272     62.2 8.936e+03 1.440e-10
 69.00462     64.0 9.039e+03 1.541e-10
 69.04429     65.8 9.271e+03 1.893e-10
 69.06555     65.6 9.194e+03 1.869e-10
 69.08966     67.6 9.399e+03 2.311e-10
 69.13218     69.6 9.603e+03 2.701e-10
 69.15837     71.5 9.781e+03 2.839e-10
 69.17963     70.9 9.557e+03 2.176e-10
 69.21721     72.5 9.604e+03 2.130e-10
 69.25119     74.1 9.663e+03 2.065e-10
 69.27245     73.1 9.550e+03 1.867e-10
 69.30225     74.7 9.675e+03 2.046e-10
 69.34401     76.3 9.872e+03 2.328e-10
 69.36527     75.3 9.852e+03 2.424e-10
 69.37016     76.9 1.014e+04 2.874e-10
 69.39142     75.5 1.035e+04 3.236e-10
 69.42981     77.5 1.073e+04 3.900e-10
 69.45799     78.6 1.077e+04 4.097e-10
 69.47925     77.9 1.069e+04 3.401e-10
 69.50412     79.3 1.088e+04 3.904e-10
 69.51493     80.0 1.109e+04 4.663e-10
 69.52556     78.8 1.109e+04 3.644e-10
 69.54654     78.6 1.167e+04 4.436e-10
 69.56134     78.1 1.239e+04 6.469e-10
 69.57197     74.1 1.272e+04 7.107e-10
 69.58906     72.9 1.362e+04 1.221e-09
 69.60775     71.7 1.454e+04 2.129e-09
 69.61838     68.6 1.384e+04 2.369e-09
 69.63158     68.1 1.448e+04 3.214e-09
 69.64332     67.4 1.483e+04 3.402e-09
 69.65395     66.1 1.448e+04 2.986e-09
 69.66479     64.8 1.432e+04 2.682e-09
 69.67542     61.8 1.321e+04 1.620e-09
 69.69536     60.1 1.247e+04 1.135e-09
 69.71120     58.4 1.168e+04 7.903e-10
 69.72183     56.9 1.116e+04 6.190e-10
 69.73788     56.1 1.087e+04 5.094e-10
 69.75761     55.6 1.077e+04 4.484e-10
 69.77897     53.9 1.075e+04 3.446e-10
 69.81248     53.9 1.059e+04 3.461e-10
 69.85063     54.2 1.060e+04 3.560e-10
 69.87189     52.6 1.061e+04 3.404e-10
 69.89561     53.3 1.063e+04 3.216e-10
 69.91687     53.2 1.095e+04 4.324e-10
 69.94004     54.2 1.095e+04 4.018e-10
 69.96471     55.1 1.089e+04 3.877e-10
 69.98597     54.2 1.086e+04 3.657e-10
 70.01102     55.0 1.080e+04 3.709e-10
 70.02155     54.8 1.086e+04 3.792e-10
 70.03551     55.1 1.089e+04 4.118e-10
 70.05677     55.5 1.098e+04 4.608e-10
 70.06796     55.8 1.113e+04 5.250e-10
 70.07859     55.2 1.127e+04 6.189e-10
 70.09929     55.5 1.152e+04 7.645e-10
 70.11438     55.5 1.184e+04 9.657e-10
 70.12501     54.8 1.207e+04 1.279e-09
 70.14181     54.4 1.266e+04 1.772e-09
 70.16079     53.7 1.340e+04 2.576e-09
 70.17142     53.6 1.398e+04 3.344e-09
 70.17940     53.3 1.476e+04 4.839e-09
 70.19003     53.1 1.452e+04 4.354e-09
 70.20559     53.3 1.530e+04 6.181e-09
 70.21783     53.4 1.579e+04 7.388e-09
 70.22846     53.8 1.512e+04 4.826e-09
 70.24811     53.6 1.519e+04 4.334e-09
 70.26424     52.8 1.506e+04 3.364e-09
 70.27487     49.1 1.336e+04 1.723e-09
 70.29063     46.3 1.233e+04 1.301e-09
 70.31065     43.8 1.152e+04 1.085e-09
 70.32128     42.6 1.131e+04 1.066e-09
 70.33315     41.3 1.129e+04 1.063e-09
 70.35441     40.3 1.120e+04 1.037e-09
 70.36769     39.5 1.097e+04 9.527e-10
 70.37832     38.7 1.111e+04 1.065e-09
 70.39693     38.1 1.060e+04 8.550e-10
 70.41410     37.2 1.014e+04 6.448e-10
 70.42473     35.6 1.021e+04 5.843e-10
 70.44223     36.0 9.796e+03 4.397e-10
 70.46339     34.2 9.927e+03 4.518e-10
 70.47133     25.7 1.299e+04 5.429e-10
 70.49279     23.2 1.239e+04 6.383e-10
 70.53531     22.6 1.184e+04 8.042e-10
 70.56415     22.5 1.215e+04 1.042e-09
 70.58541     16.1 1.289e+04 1.534e-09
 70.60962     17.8 1.308e+04 1.579e-09
 70.62100     16.6 1.380e+04 1.808e-09
 70.63163     11.1 1.399e+04 1.899e-09
 70.65204      8.8 1.377e+04 2.130e-09
 70.66741      7.3 1.335e+04 2.318e-09
 70.67804      4.0 1.230e+04 1.793e-09
 70.69456      3.8 1.223e+04 1.710e-09
 70.71382      3.3 1.201e+04 1.455e-09
 70.72412      0.7 1.140e+04 1.018e-09
 70.72612      0.0 1.125e+04 9.296e-10
 70.73708     -1.8 1.097e+04 7.208e-10
 70.75834     -4.4 1.065e+04 5.863e-10
 70.77086     -6.9 1.039e+04 5.560e-10
 70.78149     -9.4 1.023e+04 5.349e-10
 70.80086    -11.6 1.044e+04 6.126e-10
 70.81727    -15.3 1.136e+04 8.971e-10
 70.82790    -16.9 1.140e+04 9.195e-10
 70.84338    -20.1 1.229e+04 1.500e-09
 70.86368    -22.0 1.250e+04 2.011e-09
 70.87431    -22.5 1.205e+04 1.633e-09
 70.88590    -24.3 1.235e+04 1.785e-09
 70.90716    -29.8 1.421e+04 2.374e-09
 70.92072    -36.2 1.416e+04 2.583e-09
 70.93135    -36.9 1.368e+04 2.411e-09
 70.94967    -38.7 1.251e+04 2.033e-09
 70.96713    -39.9 1.174e+04 1.475e-09
 70.97776    -39.7 1.189e+04 1.486e-09
 70.98884    -42.3 1.196e+04 9.328e-10
 70.99947    -40.8 1.189e+04 9.397e-10
 71.01345    -46.1 1.185e+04 5.358e-10
 71.03471    -53.2 1.120e+04 4.978e-10
 71.05597    -57.6 1.106e+04 6.286e-10
 71.07058    -60.0 1.145e+04 9.288e-10
 71.08121    -60.1 1.183e+04 1.114e-09
 71.09849    -62.2 1.250e+04 1.434e-09
 71.11699    -64.5 1.307e+04 1.638e-09
 71.12762    -64.8 1.319e+04 1.744e-09
 71.14101    -67.7 1.328e+04 1.689e-09
 71.16227    -70.6 1.299e+04 1.452e-09
 71.17403    -73.6 1.269e+04 1.161e-09
 71.18466    -74.9 1.303e+04 1.278e-09
 71.20479    -77.9 1.260e+04 1.082e-09
 71.22044    -80.2 1.224e+04 1.001e-09
 71.23107    -81.3 1.264e+04 1.289e-09
 71.24731    -82.6 1.285e+04 1.378e-09
 71.26220    -84.2 1.289e+04 1.426e-09
 71.27111    -82.8 1.302e+04 1.508e-09
 71.27748    -84.0 1.323e+04 1.809e-09
 71.30056    -86.8 1.302e+04 1.656e-09
 71.34317    -88.7 1.274e+04 1.452e-09
 71.37050    -90.2 1.234e+04 1.197e-09
 71.39176    -91.9 1.172e+04 8.320e-10
 71.42821    -93.3 1.117e+04 6.772e-10
 71.46332    -93.8 1.085e+04 6.212e-10
 71.48458    -94.2 1.032e+04 4.390e-10
 71.51325    -93.7 1.009e+04 4.054e-10
 71.53575    -92.9 9.728e+03 3.139e-10
 71.55701    -91.7 1.005e+04 4.288e-10
 71.57740    -90.8 9.583e+03 2.737e-10
 71.59866    -90.7 9.486e+03 2.414e-10
 71.64081    -89.8 9.068e+03 1.368e-10
 71.67022    -89.3 8.702e+03 8.577e-11
 71.69148    -89.4 8.827e+03 8.719e-11
 71.72584    -89.0 8.818e+03 8.294e-11
 71.76304    -88.7 9.000e+03 1.024e-10
 71.78430    -89.2 9.203e+03 1.480e-10
 71.81088    -88.5 9.333e+03 2.172e-10
 71.85340    -87.4 9.465e+03 2.921e-10
 71.87712    -86.2 9.535e+03 3.247e-10
 71.89838    -86.3 9.629e+03 3.419e-10
 71.93844    -84.9 9.453e+03 3.040e-10
 71.96994    -83.6 9.200e+03 2.224e-10
 71.99120    -83.5 9.147e+03 1.983e-10
 72.02348    -82.6 8.995e+03 1.545e-10
 72.06121    -81.7 8.929e+03 1.451e-10
 72.07923    -80.6 8.962e+03 1.505e-10
 72.08402    -80.3 8.974e+03 1.482e-10
 72.10852    -79.0 8.935e+03 1.485e-10
 72.15104    -77.7 8.973e+03 1.712e-10
 72.17684    -76.0 9.016e+03 1.941e-10
 72.19810    -75.6 9.134e+03 2.001e-10
 72.23607    -73.8 9.238e+03 2.131e-10
 72.26966    -72.4 9.290e+03 2.116e-10
 72.29092    -72.0 9.445e+03 2.443e-10
 72.32111    -70.8 9.396e+03 2.221e-10
 72.36248    -69.7 9.330e+03 2.067e-10
 72.38374    -69.1 9.401e+03 2.248e-10
 72.40615    -67.9 9.302e+03 2.040e-10
 72.44867    -66.4 9.288e+03 1.923e-10
 72.47656    -64.7 9.344e+03 1.781e-10
 72.49782    -64.3 9.315e+03 1.510e-10
 72.53371    -62.9 9.299e+03 1.317e-10
 72.56938    -61.7 9.342e+03 1.275e-10
 72.59064    -61.0 9.202e+03 1.101e-10
 72.60792    -59.5 9.246e+03 1.177e-10
 72.62918    -58.5 9.366e+03 1.371e-10
 72.66127    -57.0 9.400e+03 1.579e-10
 72.68346    -55.1 9.446e+03 2.218e-10
 72.70472    -54.3 9.329e+03 1.617e-10
 72.74630    -52.1 9.475e+03 2.117e-10
 72.77628    -50.1 9.751e+03 2.618e-10
 72.79754    -49.5 9.683e+03 2.192e-10
 72.83134    -48.4 1.013e+04 2.828e-10
 72.86910    -47.4 1.055e+04 4.561e-10
 72.89036    -47.5 1.055e+04 4.421e-10
 72.91638    -46.2 1.102e+04 7.018e-10
 72.95890    -45.0 1.160e+04 9.596e-10
 72.98318    -43.8 1.189e+04 1.166e-09
 73.00444    -44.1 1.184e+04 1.158e-09
 73.04394    -42.6 1.193e+04 1.172e-09
 73.07601    -40.9 1.185e+04 1.081e-09
 73.09726    -41.0 1.159e+04 8.476e-10
 73.12898    -39.0 1.152e+04 7.921e-10
 73.15464    -37.1 1.156e+04 7.437e-10
 73.17323    -36.6 1.143e+04 6.625e-10
 73.19009    -36.4 1.131e+04 5.774e-10
 73.21401    -34.6 1.162e+04 7.131e-10
 73.25653    -33.0 1.209e+04 1.004e-09
 73.28291    -31.0 1.260e+04 1.422e-09
 73.30417    -30.2 1.260e+04 1.445e-09
 73.34157    -28.6 1.301e+04 1.685e-09
 73.37573    -27.0 1.289e+04 1.558e-09
 73.39699    -25.9 1.296e+04 1.620e-09
 73.42661    -24.0 1.265e+04 1.292e-09
 73.46855    -22.2 1.227e+04 8.802e-10
 73.48981    -21.1 1.239e+04 9.921e-10
 73.51165    -19.7 1.218e+04 7.618e-10
 73.55417    -18.5 1.210e+04 6.881e-10
 73.58263    -17.2 1.227e+04 7.416e-10
 73.59316    -16.8 1.252e+04 8.748e-10
 73.60712    -16.6 1.259e+04 9.078e-10
 73.62838    -16.5 1.273e+04 1.055e-09
 73.63947    -16.0 1.275e+04 1.258e-09
 73.65010    -15.4 1.288e+04 1.307e-09
 73.67090    -14.6 1.286e+04 1.443e-09
 73.68588    -13.9 1.283e+04 1.439e-09
 73.69488    -13.6 1.285e+04 1.447e-09
 73.70116    -13.6 1.269e+04 1.281e-09
 73.71342    -13.0 1.258e+04 1.175e-09
 73.73229    -12.5 1.243e+04 1.025e-09
 73.74292    -12.4 1.246e+04 1.053e-09
 73.75594    -12.0 1.233e+04 9.104e-10
 73.77720    -11.7 1.222e+04 7.918e-10
 73.78933    -11.4 1.200e+04 6.921e-10
 73.79996    -11.5 1.208e+04 7.560e-10
 73.81972    -11.0 1.196e+04 7.224e-10
 73.83574    -10.5 1.204e+04 7.481e-10
 73.84637    -10.9 1.215e+04 8.139e-10
 73.86224    -10.8 1.224e+04 8.660e-10
 73.88215    -11.7 1.275e+04 1.039e-09
 73.89278    -12.0 1.250e+04 1.017e-09
 73.90476    -14.2 1.408e+04 1.632e-09
 73.92602    -16.0 1.631e+04 3.797e-09
 73.93919    -17.0 1.753e+04 7.600e-09
 73.94982    -16.7 1.652e+04 4.297e-09
 73.96388    -17.7 1.733e+04 6.908e-09
 73.97451    -18.7 1.804e+04 1.075e-08
 73.98560    -19.3 1.789e+04 1.027e-08
 73.99623    -20.3 1.702e+04 7.105e-09
 74.01105    -22.2 1.715e+04 6.907e-09
 74.03201    -24.9 1.734e+04 6.676e-09
 74.04264    -26.4 1.742e+04 7.605e-09
 74.05357    -28.6 1.737e+04 7.442e-09
 74.07483    -29.7 1.650e+04 6.051e-09
 74.08905    -30.6 1.514e+04 3.977e-09
 74.09968    -30.2 1.520e+04 4.072e-09
 74.11735    -31.2 1.380e+04 2.150e-09
 74.13546    -32.4 1.249e+04 1.073e-09
 74.14609    -32.9 1.218e+04 7.896e-10
 74.15987    -34.7 1.136e+04 4.049e-10
 74.18113    -36.0 1.099e+04 2.391e-10
 74.19250    -36.8 1.079e+04 1.991e-10
 74.20313    -36.9 1.066e+04 1.912e-10
 74.22671    -36.7 1.010e+04 1.451e-10
 74.24807    -36.5 1.013e+04 1.509e-10
 74.27489    -35.5 1.015e+04 1.634e-10
 74.29615    -35.1 9.917e+03 1.362e-10
 74.31951    -33.9 1.010e+04 1.646e-10
 74.36203    -32.9 1.047e+04 2.411e-10
 74.38897    -32.0 1.088e+04 3.734e-10
 74.41023    -31.4 1.084e+04 3.614e-10
 74.44707    -30.5 1.139e+04 5.767e-10
 74.48179    -29.9 1.203e+04 8.847e-10
 74.50305    -30.2 1.267e+04 1.263e-09
 74.52138    -30.2 1.313e+04 1.650e-09
 74.53864    -30.2 1.364e+04 2.186e-09
 74.54927    -30.7 1.432e+04 2.966e-09
 74.56380    -31.0 1.498e+04 3.909e-09
 74.58505    -31.1 1.536e+04 4.670e-09
 74.60631    -31.5 1.594e+04 6.262e-09
 74.62758    -31.2 1.563e+04 5.792e-09
 74.64209    -31.2 1.524e+04 4.937e-09
 74.65272    -31.3 1.535e+04 5.141e-09
 74.67010    -31.6 1.504e+04 3.944e-09
 74.68850    -32.5 1.468e+04 3.026e-09
 74.69913    -33.2 1.443e+04 2.248e-09
 74.71262    -34.7 1.385e+04 1.724e-09
 74.73388    -35.7 1.317e+04 1.418e-09
 74.74554    -36.2 1.243e+04 1.186e-09
 74.75617    -37.3 1.152e+04 9.850e-10
 74.77333    -37.4 1.086e+04 7.638e-10
 74.78396    -36.0 1.219e+04 1.233e-09
 74.79195    -36.6 1.156e+04 1.000e-09
 74.80258    -37.4 1.103e+04 9.026e-10
 74.82965    -36.8 1.159e+04 8.609e-10
 74.87226    -37.3 1.110e+04 6.033e-10
 74.89559    -38.6 1.124e+04 5.784e-10
 74.91685    -37.4 1.093e+04 5.186e-10
 74.95730    -39.5 1.178e+04 6.421e-10
 74.98832    -40.6 1.189e+04 9.993e-10
 75.00958    -40.1 1.205e+04 1.053e-09
 75.03161    -40.8 1.223e+04 1.498e-09
 75.04526    -40.7 1.242e+04 1.745e-09
 75.04980    -40.3 1.225e+04 1.570e-09
 75.05731    -40.3 1.240e+04 1.746e-09
 75.07403    -40.6 1.272e+04 1.987e-09
 75.09167    -40.9 1.282e+04 1.952e-09
 75.10230    -40.3 1.252e+04 1.757e-09
 75.11655    -40.4 1.252e+04 1.609e-09
 75.13781    -41.1 1.282e+04 1.582e-09
 75.14871    -42.4 1.372e+04 1.622e-09
 75.15934    -41.5 1.286e+04 1.106e-09
 75.18033    -42.6 1.353e+04 1.197e-09
 75.19512    -44.2 1.377e+04 1.517e-09
 75.20575    -43.3 1.303e+04 1.027e-09
 75.22285    -43.7 1.292e+04 1.240e-09
 75.24153    -44.6 1.315e+04 1.659e-09
 75.25216    -44.2 1.273e+04 1.232e-09
 75.26537    -47.4 1.478e+04 1.967e-09
 75.28663    -50.6 1.593e+04 3.358e-09
 75.29857    -51.3 1.517e+04 5.512e-09
 75.30920    -51.1 1.500e+04 5.394e-09
 75.32004    -49.7 1.472e+04 6.279e-09
 75.33067    -49.7 1.474e+04 6.400e-09
 75.34498    -48.0 1.498e+04 4.029e-09
 75.35561    -47.2 1.485e+04 3.879e-09
 75.37167    -48.4 1.522e+04 1.585e-09
 75.39139    -52.7 1.286e+04 7.425e-10
 75.40202    -52.3 1.276e+04 6.568e-10
 75.41419    -54.0 1.140e+04 4.592e-10
 75.43545    -53.6 1.139e+04 4.031e-10
 75.44843    -53.4 1.144e+04 3.663e-10
 75.45906    -53.0 1.146e+04 3.546e-10
 75.47796    -53.0 1.136e+04 3.456e-10
 75.49484    -52.8 1.131e+04 3.615e-10
 75.50547    -52.6 1.138e+04 3.616e-10
 75.52048    -52.4 1.136e+04 4.040e-10
 75.54125    -52.0 1.143e+04 4.813e-10
 75.55188    -51.6 1.145e+04 4.975e-10
 75.56300    -51.4 1.167e+04 5.690e-10
 75.58277    -51.3 1.195e+04 6.873e-10
 75.59340    -51.8 1.219e+04 8.741e-10
 75.59829    -52.2 1.241e+04 1.100e-09
 75.60892    -51.6 1.254e+04 1.026e-09
 75.62678    -51.6 1.270e+04 1.296e-09
 75.64470    -51.5 1.267e+04 1.542e-09
 75.65533    -51.2 1.270e+04 1.341e-09
 75.66930    -50.6 1.259e+04 1.470e-09
 75.69056    -50.3 1.253e+04 1.462e-09
 75.70174    -49.7 1.233e+04 1.406e-09
 75.72310    -49.5 1.223e+04 1.260e-09
 75.74825    -49.2 1.192e+04 9.880e-10
 75.75878    -49.0 1.192e+04 9.898e-10
 75.77560    -48.9 1.177e+04 9.224e-10
 75.79456    -48.8 1.142e+04 6.933e-10
 75.80519    -48.2 1.138e+04 6.512e-10
 75.81812    -48.1 1.097e+04 5.581e-10
 75.84559    -47.0 1.065e+04 4.158e-10
 75.86695    -47.1 1.056e+04 4.164e-10
 75.88758    -45.4 1.000e+04 2.572e-10
 75.90884    -44.1 9.978e+03 2.277e-10
 75.93524    -42.5 9.762e+03 1.383e-10
 75.97776    -41.5 9.666e+03 9.697e-11
 76.00166    -40.0 9.527e+03 8.631e-11
 76.02292    -38.7 9.555e+03 8.427e-11
 76.06280    -36.8 9.405e+03 7.908e-11
 76.09448    -34.5 9.270e+03 6.983e-11
 76.11574    -33.2 9.308e+03 6.857e-11
 76.14784    -31.3 9.320e+03 5.659e-11
 76.18730    -29.7 9.431e+03 4.847e-11
 76.20856    -28.6 9.504e+03 5.277e-11
 76.23288    -27.2 9.538e+03 5.561e-11
 76.27539    -25.6 9.508e+03 6.603e-11
 76.30138    -23.5 9.437e+03 8.057e-11
 76.32264    -22.2 9.467e+03 8.743e-11
 76.36043    -20.0 9.475e+03 9.684e-11
 76.39240    -18.0 9.463e+03 1.000e-10
 76.40491    -18.2 9.462e+03 9.153e-11
 76.41546    -17.0 9.488e+03 8.845e-11
 76.44547    -15.2 9.488e+03 9.119e-11
 76.48702    -13.5 9.502e+03 9.940e-11
 76.50828    -12.2 9.481e+03 8.374e-11
 76.53051    -10.6 9.490e+03 9.275e-11
 76.57303     -9.1 9.480e+03 1.083e-10
 76.60110     -7.5 9.439e+03 1.382e-10
 76.62236     -6.0 9.436e+03 9.888e-11
 76.65807     -4.2 9.395e+03 1.218e-10
 76.69392     -2.3 9.324e+03 1.363e-10
 76.71518     -0.9 9.362e+03 9.384e-11
 76.74311      1.1 9.312e+03 9.739e-11
 76.78562      2.9 9.253e+03 9.784e-11
 76.80800      4.8 9.233e+03 9.914e-11
 76.82926      6.0 9.270e+03 7.782e-11
 76.87066      7.8 9.284e+03 8.521e-11
 76.90082      9.5 9.362e+03 1.001e-10
 76.92208     10.7 9.377e+03 8.632e-11
 76.93912     12.3 9.497e+03 1.115e-10
 76.96038     12.2 9.634e+03 1.280e-10
 76.99364     13.8 9.826e+03 1.842e-10
 77.01490     15.0 9.790e+03 1.526e-10
 77.04074     16.6 1.003e+04 2.110e-10
 77.08326     18.0 1.024e+04 2.539e-10
 77.10772     19.2 1.026e+04 2.537e-10
 77.12898     20.4 1.023e+04 2.505e-10
 77.16830     21.6 1.017e+04 2.336e-10
 77.20054     22.9 1.000e+04 1.937e-10
 77.22180     23.9 1.005e+04 2.298e-10
 77.25334     25.2 9.861e+03 1.802e-10
 77.29337     26.5 9.701e+03 1.392e-10
 77.31463     27.6 9.801e+03 1.740e-10
 77.33837     28.9 9.664e+03 1.275e-10
 77.38089     30.1 9.411e+03 1.076e-10
 77.40745     31.4 9.317e+03 1.068e-10
 77.42871     32.1 9.441e+03 1.122e-10
 77.46457     33.3 9.407e+03 1.132e-10
 77.48583     33.4 9.391e+03 1.075e-10
 77.50027     34.7 9.351e+03 1.178e-10
 77.52153     35.1 9.529e+03 1.499e-10
 77.55097     36.2 9.532e+03 1.668e-10
 77.59309     37.3 9.553e+03 1.935e-10
 77.61435     37.5 9.800e+03 2.818e-10
 77.63601     38.2 9.891e+03 3.217e-10
 77.67853     38.7 1.005e+04 3.784e-10
 77.70717     38.7 1.028e+04 4.631e-10
 77.72843     38.3 1.074e+04 6.465e-10
 77.76357     37.7 1.097e+04 8.062e-10
 77.79999     36.9 1.134e+04 1.087e-09
 77.82125     36.5 1.159e+04 1.319e-09
 77.83788     36.5 1.166e+04 1.379e-09
 77.85683     36.2 1.179e+04 1.447e-09
 77.86746     36.1 1.175e+04 1.421e-09
 77.88030     35.7 1.177e+04 1.410e-09
 77.90156     35.4 1.171e+04 1.340e-09
 77.91387     35.0 1.153e+04 1.119e-09
 77.93523     34.2 1.095e+04 7.958e-10
 77.97616     32.7 1.028e+04 4.537e-10
 78.00689     30.8 9.757e+03 3.426e-10
 78.02076     31.0 9.428e+03 3.051e-10
 78.03255     32.3 9.960e+03 3.699e-10
 78.06120     30.5 9.561e+03 3.512e-10
 78.09971     29.6 9.377e+03 3.494e-10
 78.12097     30.2 9.300e+03 3.328e-10
 78.14624     29.8 9.231e+03 3.348e-10
 78.18876     29.6 9.106e+03 3.260e-10
 78.21379     29.4 8.975e+03 3.031e-10
 78.23505     30.9 8.947e+03 3.069e-10
 78.27380     31.0 8.736e+03 2.502e-10
 78.30661     31.1 8.535e+03 2.082e-10
 78.32787     32.6 8.426e+03 1.827e-10
 78.35883     32.7 8.221e+03 1.532e-10
 78.39943     33.1 8.094e+03 1.403e-10
 78.42069     34.6 8.025e+03 1.338e-10
 78.44387     35.4 7.935e+03 1.272e-10
 78.48639     36.4 7.866e+03 1.218e-10
 78.51351     37.6 7.866e+03 1.218e-10
 78.53477     39.3 7.900e+03 1.282e-10
 78.55800     40.2 7.979e+03 1.392e-10
 78.57926     40.7 7.952e+03 1.290e-10
 78.60633     40.8 8.199e+03 1.685e-10
 78.62759     42.0 8.304e+03 1.878e-10
 78.65647     42.1 8.968e+03 3.435e-10
 78.69899     42.6 9.605e+03 5.788e-10
 78.74151     43.8 1.001e+04 6.833e-10
 78.76672     43.6 9.976e+03 6.580e-10
 78.77726     43.8 9.944e+03 6.458e-10
 78.79446     43.8 9.785e+03 5.591e-10
 78.81314     43.5 9.478e+03 4.084e-10
 78.83449     44.5 9.352e+03 3.668e-10
 78.86906     44.0 8.628e+03 2.114e-10
 78.90605     43.1 8.159e+03 1.593e-10
 78.92731     44.3 8.549e+03 2.013e-10
 78.94337     43.7 8.367e+03 1.816e-10
 78.96290     42.8 8.416e+03 1.892e-10
 78.97353     42.9 8.492e+03 1.986e-10
 78.98580     39.5 9.533e+03 2.919e-10
 79.00706     29.1 1.316e+04 1.122e-09
 79.01994     21.2 1.562e+04 3.322e-09
 79.03057     18.5 1.609e+04 4.390e-09
 79.04309     12.1 1.886e+04 1.030e-08
 79.04836     10.8 1.920e+04 1.173e-08
 79.05479      9.1 1.973e+04 1.646e-08
 79.06542      5.7 2.129e+04 2.452e-08
 79.07157      4.2 2.085e+04 2.420e-08
 79.07693      4.8 2.101e+04 2.112e-08
 79.09209      2.4 1.979e+04 1.690e-08
 79.10452      0.4 1.763e+04 9.261e-09
 79.11456     -0.3 1.717e+04 8.493e-09
 79.12339     -2.8 1.633e+04 5.133e-09
 79.13461     -6.2 1.351e+04 2.129e-09
 79.15587     -9.8 1.139e+04 8.809e-10
 79.16980    -11.7 1.009e+04 5.495e-10
 79.18043    -11.2 1.013e+04 5.407e-10
 79.20568    -10.2 9.524e+03 3.137e-10
 79.22703     -8.8 9.731e+03 3.241e-10
 79.25174     -8.5 9.051e+03 1.805e-10
 79.29425     -7.6 8.854e+03 1.641e-10
 79.31986     -8.1 9.218e+03 2.216e-10
 79.34111     -7.5 9.419e+03 2.423e-10
 79.37929     -7.7 1.001e+04 4.957e-10
 79.41268     -7.0 1.055e+04 7.895e-10
 79.43394     -5.9 1.048e+04 7.182e-10
 79.46433     -5.4 1.045e+04 6.163e-10
 79.50550     -6.2 1.047e+04 4.430e-10
 79.52676     -5.5 1.027e+04 3.387e-10
 79.54937     -7.0 9.919e+03 3.008e-10
 79.59189     -7.8 9.977e+03 3.270e-10
 79.61958     -8.8 1.050e+04 4.356e-10
 79.63660     -6.8 1.023e+04 3.909e-10
 79.65143     -7.4 1.046e+04 4.314e-10
 79.67693     -8.7 1.127e+04 6.878e-10
 79.70872     -9.7 1.207e+04 1.103e-09
 79.72283    -11.3 1.315e+04 1.415e-09
 79.73356     -7.7 1.247e+04 9.813e-10
 79.75124    -11.8 1.371e+04 2.228e-09
 79.76924    -12.6 1.340e+04 3.254e-09
 79.77987    -12.2 1.322e+04 3.169e-09
 79.79366    -11.2 1.339e+04 3.871e-09
 79.81492    -10.6 1.369e+04 3.112e-09
 79.82628    -11.2 1.331e+04 1.780e-09
 79.83691     -9.0 1.356e+04 2.078e-09
 79.85744    -12.0 1.254e+04 8.547e-10
 79.88943    -15.4 1.009e+04 3.259e-10
 79.91930    -16.5 8.762e+03 1.398e-10
 79.94056    -15.5 8.870e+03 1.590e-10
 79.97456    -15.5 8.457e+03 1.006e-10
 80.01212    -14.6 8.241e+03 8.328e-11
 80.03338    -13.3 8.316e+03 9.458e-11
 80.05960    -12.2 8.240e+03 8.612e-11
 80.10212    -11.1 8.219e+03 8.324e-11
 80.12620    -10.1 8.302e+03 8.585e-11
 80.14746     -8.7 8.327e+03 9.752e-11
 80.17689     -8.0 8.349e+03 1.133e-10
 80.19815     -8.2 8.348e+03 1.058e-10
 80.21902     -7.0 8.402e+03 1.209e-10
 80.24028     -5.7 8.471e+03 1.435e-10
 80.27220     -4.5 8.580e+03 1.516e-10
 80.31184     -3.6 8.684e+03 1.402e-10
 80.33310     -2.5 8.820e+03 1.894e-10
 80.35723     -1.7 8.777e+03 1.761e-10
 80.39975     -0.7 8.802e+03 1.662e-10
 80.42592     -0.2 9.206e+03 1.776e-10
 80.44718      1.0 9.271e+03 1.758e-10
 80.48479     -0.7 9.901e+03 2.064e-10
 80.51874     -2.3 1.037e+04 4.884e-10
 80.54000     -2.0 1.037e+04 4.962e-10
 80.56983     -1.3 1.108e+04 9.405e-10
 80.61156     -1.2 1.147e+04 1.110e-09
 80.63282     -0.7 1.135e+04 1.016e-09
 80.65487     -0.9 1.110e+04 7.824e-10
 80.69739     -1.3 1.055e+04 5.012e-10
 80.72360     -1.4 1.019e+04 3.711e-10
 80.73060     -2.4 9.641e+03 2.060e-10
 80.74690     -1.8 9.490e+03 1.540e-10
 80.78243     -1.7 9.650e+03 1.404e-10
 80.81846     -2.6 9.797e+03 1.804e-10
 80.83972     -1.7 9.771e+03 1.825e-10
 80.86746     -1.4 9.819e+03 2.998e-10
 80.90998      0.0 9.947e+03 3.662e-10
 80.93254      1.1 1.009e+04 2.692e-10
 80.95380      2.3 1.009e+04 2.416e-10
 80.99502      2.2 1.011e+04 1.226e-10
 81.02536      0.8 9.781e+03 8.756e-11
 81.04662      1.8 9.816e+03 9.117e-11
 81.08006      1.5 9.645e+03 9.203e-11
 81.11818      1.9 9.387e+03 1.221e-10
 81.13944      3.0 9.418e+03 1.626e-10
 81.16510      4.3 9.387e+03 1.772e-10
 81.20762      5.3 9.573e+03 1.393e-10
 81.23226      5.4 9.552e+03 1.107e-10
 81.25244      6.8 9.579e+03 1.288e-10
 81.27031      7.2 9.530e+03 1.273e-10
 81.29266      7.0 9.484e+03 1.052e-10
 81.32508      7.1 9.617e+03 1.167e-10
 81.34634      8.5 9.533e+03 1.156e-10
 81.37769      7.9 9.835e+03 1.725e-10
 81.41791      8.4 1.019e+04 3.576e-10
 81.43917      8.8 1.028e+04 3.443e-10
 81.46273     10.1 1.064e+04 6.545e-10
 81.48548     10.6 1.093e+04 7.043e-10
 81.49601     10.6 1.104e+04 8.182e-10
 81.51569     10.3 1.134e+04 8.806e-10
 81.53179      9.7 1.177e+04 8.835e-10
 81.53832      9.6 1.199e+04 1.060e-09
 81.54348      9.8 1.218e+04 1.201e-09
 81.55820      9.2 1.221e+04 1.277e-09
 81.57820      9.1 1.194e+04 1.371e-09
 81.58883      9.1 1.195e+04 1.409e-09
 81.60072      9.5 1.186e+04 1.344e-09
 81.62198      9.5 1.199e+04 1.218e-09
 81.63524      8.9 1.237e+04 1.241e-09
 81.64587      9.1 1.185e+04 1.124e-09
 81.66450      7.2 1.313e+04 1.352e-09
 81.68165      4.2 1.453e+04 2.295e-09
 81.69228      5.1 1.383e+04 1.561e-09
 81.70702      3.5 1.389e+04 2.690e-09
 81.72806      4.2 1.387e+04 4.470e-09
 81.73869      4.5 1.327e+04 2.596e-09
 81.74954      5.6 1.327e+04 3.299e-09
 81.77080      6.6 1.336e+04 3.424e-09
 81.78510      6.9 1.364e+04 2.623e-09
 81.79573      6.1 1.266e+04 1.902e-09
 81.80620      5.9 1.275e+04 1.499e-09
 81.81683      5.6 1.266e+04 1.457e-09
 81.83151      4.7 1.255e+04 1.214e-09
 81.84214      5.3 1.207e+04 9.441e-10
 81.85584      4.3 1.179e+04 8.881e-10
 81.87710      4.0 1.171e+04 8.882e-10
 81.88855      3.9 1.175e+04 9.232e-10
 81.89918      3.8 1.154e+04 8.439e-10
 81.91962      3.8 1.174e+04 9.980e-10
 81.93496      3.3 1.197e+04 1.180e-09
 81.94559      3.5 1.183e+04 1.144e-09
 81.96214      3.1 1.231e+04 1.482e-09
 81.98137      2.4 1.288e+04 1.950e-09
 81.99200      3.2 1.231e+04 1.586e-09
 82.00466      3.2 1.264e+04 1.942e-09
 82.02592      3.3 1.306e+04 2.233e-09
 82.03841      3.2 1.354e+04 2.406e-09
 82.04904      3.1 1.261e+04 1.533e-09
 82.06843      2.1 1.280e+04 1.555e-09
 82.07956      0.6 1.273e+04 1.544e-09
 82.08532      0.0 1.222e+04 1.259e-09
 82.09545      0.2 1.168e+04 1.063e-09
 82.11095     -0.7 1.184e+04 1.222e-09
 82.13123     -1.3 1.191e+04 1.349e-09
 82.14186     -0.4 1.186e+04 1.275e-09
 82.15347     -0.7 1.198e+04 1.380e-09
 82.17473     -1.1 1.201e+04 1.391e-09
 82.18827     -1.6 1.208e+04 1.343e-09
 82.19890     -0.6 1.201e+04 1.348e-09
 82.21725     -1.5 1.216e+04 1.305e-09
 82.23468     -3.3 1.247e+04 1.276e-09
 82.24531     -1.8 1.262e+04 1.390e-09
 82.25977     -4.4 1.297e+04 1.478e-09
 82.28103     -6.4 1.285e+04 1.739e-09
 82.30229     -7.1 1.303e+04 2.199e-09
 82.32355     -7.7 1.275e+04 2.181e-09
 82.33813     -8.4 1.293e+04 1.698e-09
 82.34624     -7.6 1.337e+04 2.295e-09
 82.35292     -7.9 1.332e+04 2.346e-09
 82.36607     -9.8 1.313e+04 1.430e-09
 82.38454    -13.0 1.220e+04 7.981e-10
 82.39517    -12.5 1.306e+04 1.189e-09
 82.40859    -15.5 1.215e+04 7.421e-10
 82.42985    -17.3 1.169e+04 5.892e-10
 82.44158    -18.5 1.168e+04 5.555e-10
 82.45221    -22.9 1.441e+04 1.328e-09
 82.47237    -25.2 1.518e+04 1.868e-09
 82.48800    -27.8 1.680e+04 2.947e-09
 82.49326    -27.9 1.614e+04 4.145e-09
 82.49884    -28.8 1.662e+04 4.832e-09
 82.50947    -30.6 1.782e+04 6.887e-09
 82.51642    -33.2 1.910e+04 1.065e-08
 82.52173    -32.8 1.881e+04 1.085e-08
 82.53073    -35.2 2.000e+04 1.809e-08
 82.53962    -36.8 2.025e+04 3.533e-08
 82.54494    -36.2 2.030e+04 2.773e-08
 82.55199    -36.6 2.044e+04 5.358e-08
 82.56262    -36.5 2.070e+04 8.307e-08
 82.56814    -36.3 2.121e+04 1.006e-07
 82.57346    -37.4 2.187e+04 5.286e-08
 82.58388    -38.8 2.224e+04 5.313e-08
 82.59135    -41.0 2.256e+04 3.796e-08
 82.59666    -44.2 2.185e+04 2.066e-08
 82.60514    -45.8 2.090e+04 1.750e-08
 82.61560    -49.7 1.830e+04 1.030e-08
 82.62628    -49.1 1.824e+04 1.075e-08
 82.63786    -50.5 1.711e+04 5.755e-09
 82.64849    -50.6 1.632e+04 5.117e-09
 82.66370    -53.1 1.505e+04 1.863e-09
 82.68427    -57.4 1.297e+04 8.155e-10
 82.69490    -57.7 1.272e+04 7.775e-10
 82.70622    -60.3 1.120e+04 5.443e-10
 82.72748    -60.9 1.089e+04 5.110e-10
 82.74131    -61.0 1.088e+04 5.081e-10
 82.75194    -61.1 1.081e+04 5.060e-10
 82.77000    -61.1 1.073e+04 4.926e-10
 82.78772    -60.9 1.061e+04 4.575e-10
 82.79835    -60.8 1.058e+04 4.593e-10
 82.81252    -60.6 1.040e+04 4.088e-10
 82.83378    -60.5 1.027e+04 3.638e-10
 82.84485    -60.5 1.017e+04 3.322e-10
 82.86621    -60.1 1.012e+04 3.458e-10
 82.88920    -58.9 9.831e+03 2.783e-10
 82.91046    -57.8 9.848e+03 2.448e-10
 82.93777    -56.2 9.490e+03 1.796e-10
 82.95903    -55.7 9.510e+03 2.129e-10
 82.99342    -54.0 9.279e+03 1.669e-10
 83.03059    -52.4 9.150e+03 1.383e-10
 83.05185    -51.7 9.234e+03 1.837e-10
 83.07846    -49.9 9.161e+03 1.655e-10
 83.12098    -48.1 9.109e+03 1.493e-10
 83.14467    -46.2 9.081e+03 1.339e-10
 83.16593    -45.4 9.136e+03 1.651e-10
 83.20602    -43.5 9.099e+03 1.430e-10
 83.23749    -41.6 9.082e+03 1.237e-10
 83.25875    -40.8 9.085e+03 1.358e-10
 83.29106    -39.1 9.065e+03 1.181e-10
 83.33031    -37.3 9.064e+03 1.067e-10
 83.35157    -36.5 9.029e+03 1.109e-10
 83.37609    -34.7 9.029e+03 1.053e-10
 83.41465    -32.8 9.035e+03 1.028e-10
 83.43591    -32.0 8.996e+03 8.707e-11
 83.44439    -30.1 9.004e+03 8.640e-11
 83.46565    -29.1 8.984e+03 8.692e-11
 83.50365    -27.2 9.005e+03 8.339e-11
 83.53722    -25.2 9.048e+03 8.066e-11
 83.55848    -24.2 9.028e+03 6.721e-11
 83.58869    -22.4 9.078e+03 6.369e-11
 83.63004    -20.7 9.101e+03 6.313e-11
 83.65130    -19.9 9.041e+03 5.148e-11
 83.67373    -18.6 9.284e+03 5.442e-11
 83.71625    -17.6 9.356e+03 7.333e-11
 83.74412    -16.5 9.450e+03 1.179e-10
 83.76538    -16.0 9.460e+03 1.198e-10
 83.80129    -14.8 9.727e+03 2.068e-10
 83.83694    -13.3 1.008e+04 3.170e-10
 83.85820    -12.8 1.011e+04 3.305e-10
 83.88632    -11.5 1.027e+04 3.664e-10
 83.92884    -10.1 1.022e+04 3.385e-10
 83.95102     -8.3 1.005e+04 2.287e-10
 83.96228     -8.0 9.950e+03 1.800e-10
 83.98263     -7.4 9.848e+03 1.453e-10
 84.01388     -6.2 9.891e+03 1.016e-10
 84.04384     -4.9 9.906e+03 8.802e-11
 84.06510     -4.9 9.811e+03 8.174e-11
 84.09892     -3.3 9.880e+03 8.202e-11
 84.13666     -1.7 9.970e+03 8.888e-11
 84.15792     -1.6 9.907e+03 8.672e-11
 84.18396      0.0 1.000e+04 9.281e-11
 84.22648      1.7 1.008e+04 9.431e-11
 84.25074      3.4 1.015e+04 8.503e-11
 84.27200      3.5 9.994e+03 7.162e-11
 84.31152      4.8 1.014e+04 5.584e-11
 84.34356      5.4 1.025e+04 4.691e-11
 84.36482      5.3 1.022e+04 4.726e-11
 84.39655      6.0 1.032e+04 4.784e-11
 84.43638      6.5 1.018e+04 6.420e-11
 84.45764      7.1 1.008e+04 7.501e-11
 84.48159      8.9 1.012e+04 9.524e-11
 84.50808     10.6 1.028e+04 1.021e-10
 84.52934     10.6 1.028e+04 8.185e-11
 84.55046     11.6 1.050e+04 7.655e-11
 84.57172     11.9 1.053e+04 7.726e-11
 84.60915     12.5 1.078e+04 8.077e-11
 84.64328     13.3 1.083e+04 1.068e-10
 84.66454     13.8 1.071e+04 1.190e-10
 84.69419     15.6 1.088e+04 1.468e-10
 84.73610     17.2 1.106e+04 1.537e-10
 84.75736     18.1 1.082e+04 1.531e-10
 84.77923     19.3 1.092e+04 1.348e-10
 84.82175     20.5 1.111e+04 1.279e-10
 84.85018     20.9 1.137e+04 1.431e-10
 84.87144     21.6 1.130e+04 1.635e-10
 84.90678     22.5 1.133e+04 2.569e-10
 84.94300     24.6 1.137e+04 3.652e-10
 84.96426     25.3 1.141e+04 4.556e-10
 84.99182     27.0 1.150e+04 4.293e-10
 85.03354     28.9 1.157e+04 2.888e-10
 85.05480     29.7 1.164e+04 3.480e-10
 85.05708     30.7 1.166e+04 2.294e-10
 85.07834     31.3 1.170e+04 2.374e-10
 85.11938     32.0 1.142e+04 1.836e-10
 85.14990     33.3 1.109e+04 1.712e-10
 85.17116     33.7 1.106e+04 1.752e-10
 85.20442     35.2 1.099e+04 1.743e-10
 85.24272     36.6 1.102e+04 1.754e-10
 85.26398     37.0 1.097e+04 1.855e-10
 85.28946     37.9 1.104e+04 2.001e-10
 85.33198     38.6 1.110e+04 2.369e-10
 85.35680     39.2 1.110e+04 2.807e-10
 85.37806     39.8 1.102e+04 2.766e-10
 85.41701     40.6 1.100e+04 3.046e-10
 85.44962     41.6 1.090e+04 2.911e-10
 85.47088     42.4 1.074e+04 2.354e-10
 85.50205     43.3 1.070e+04 1.771e-10
 85.54245     43.4 1.069e+04 1.252e-10
 85.56371     43.9 1.055e+04 1.035e-10
 85.58025     43.7 1.046e+04 1.105e-10
 85.60151     45.3 1.063e+04 1.350e-10
 85.62961     44.9 1.057e+04 1.544e-10
 85.65653     45.0 1.057e+04 1.870e-10
 85.67779     46.3 1.050e+04 1.988e-10
 85.71465     46.6 1.062e+04 2.328e-10
 85.74935     46.2 1.103e+04 2.684e-10
 85.77061     47.8 1.090e+04 2.601e-10
 85.79969     47.2 1.122e+04 3.039e-10
 85.84217     46.8 1.124e+04 3.815e-10
 85.88469     48.1 1.100e+04 3.040e-10
 85.92724     48.1 1.101e+04 3.628e-10
 85.95625     48.7 1.096e+04 4.198e-10
 85.97751     50.2 1.071e+04 3.133e-10
 86.01228     51.2 1.066e+04 3.181e-10
 86.04907     52.7 1.059e+04 2.879e-10
 86.07033     54.3 1.038e+04 2.202e-10
 86.09732     55.6 1.046e+04 1.724e-10
 86.12697     56.1 1.067e+04 1.599e-10
 86.14823     55.7 1.082e+04 2.214e-10
 86.16315     56.4 1.095e+04 3.314e-10
 86.18441     58.2 1.066e+04 2.043e-10
 86.22488     59.4 1.068e+04 3.013e-10
 86.25597     60.9 1.065e+04 3.430e-10
 86.27723     62.6 1.051e+04 2.828e-10
 86.30992     64.1 1.049e+04 2.833e-10
 86.34879     65.4 1.046e+04 2.482e-10
 86.37005     67.3 1.043e+04 2.553e-10
 86.39495     68.1 1.052e+04 2.291e-10
 86.43747     68.1 1.078e+04 2.615e-10
 86.46287     67.8 1.101e+04 4.019e-10
 86.48413     69.8 1.101e+04 3.153e-10
 86.50918     69.2 1.110e+04 4.951e-10
 86.51971     69.9 1.109e+04 4.187e-10
 86.53295     70.2 1.117e+04 5.804e-10
 86.55421     70.6 1.127e+04 6.603e-10
 86.56612     70.7 1.137e+04 6.659e-10
 86.57675     71.2 1.136e+04 6.504e-10
 86.59673     71.0 1.145e+04 6.631e-10
 86.61253     70.6 1.144e+04 6.804e-10
 86.62316     71.2 1.147e+04 6.816e-10
 86.63924     70.9 1.141e+04 6.794e-10
 86.65895     70.8 1.125e+04 6.544e-10
 86.66958     71.4 1.128e+04 6.621e-10
 86.67348     71.5 1.112e+04 5.846e-10
 86.68411     71.5 1.115e+04 6.404e-10
 86.70302     71.3 1.108e+04 5.219e-10
 86.71599     70.5 1.086e+04 4.044e-10
 86.72662     71.1 1.095e+04 4.108e-10
 86.74554     70.3 1.079e+04 3.649e-10
 86.76249     70.3 1.044e+04 3.240e-10
 86.78385     70.6 1.057e+04 3.386e-10
 86.82015     71.1 1.009e+04 2.614e-10
 86.85541     71.6 9.827e+03 1.900e-10
 86.87667     71.7 9.894e+03 1.858e-10
 86.90518     72.2 9.812e+03 1.735e-10
 86.94770     72.6 9.943e+03 1.964e-10
 86.96949     73.2 1.028e+04 2.911e-10
 86.99075     73.5 1.028e+04 2.883e-10
 87.03274     74.3 1.060e+04 4.275e-10
 87.06231     74.9 1.088e+04 5.791e-10
 87.08357     75.6 1.081e+04 5.411e-10
 87.11778     75.8 1.093e+04 6.562e-10
 87.15513     75.7 1.090e+04 6.866e-10
 87.17639     76.5 1.093e+04 6.906e-10
 87.19913     76.7 1.082e+04 6.740e-10
 87.22039     76.6 1.088e+04 7.175e-10
 87.24534     77.0 1.054e+04 5.565e-10
 87.26921     77.2 1.025e+04 4.207e-10
 87.29047     78.4 1.056e+04 5.042e-10
 87.33038     78.6 1.020e+04 3.884e-10
 87.36203     79.2 9.882e+03 3.399e-10
 87.38329     80.1 1.007e+04 3.737e-10
 87.41541     81.3 9.813e+03 3.435e-10
 87.45485     83.0 9.598e+03 3.036e-10
 87.47611     83.7 9.909e+03 3.793e-10
 87.50045     85.5 9.727e+03 3.293e-10
 87.54297     87.2 9.544e+03 2.855e-10
 87.56893     88.9 9.400e+03 2.769e-10
 87.59019     89.7 9.660e+03 3.334e-10
 87.62801     91.5 9.611e+03 3.380e-10
 87.66176     93.5 9.593e+03 3.533e-10
 87.68302     94.1 9.695e+03 3.593e-10
 87.71305     96.1 9.625e+03 3.557e-10
 87.74585     98.2 9.476e+03 3.406e-10
 87.76612     98.3 9.273e+03 2.878e-10
 87.77584     99.0 9.278e+03 2.813e-10
 87.79809    101.2 9.051e+03 2.373e-10
 87.84061    103.4 8.803e+03 1.865e-10
 87.86866    105.5 8.578e+03 1.413e-10
 87.88992    106.5 8.568e+03 1.411e-10
 87.92564    108.5 8.352e+03 1.089e-10
 87.96148    110.5 8.140e+03 9.526e-11
 87.98274    111.8 8.176e+03 9.883e-11
 88.01068    114.0 8.133e+03 9.755e-11
 88.05320    116.1 8.148e+03 1.018e-10
 88.07556    118.3 8.241e+03 1.181e-10
 88.09682    119.6 8.298e+03 1.227e-10
 88.13824    121.9 8.496e+03 1.527e-10
 88.16838    124.3 8.908e+03 2.152e-10
 88.18964    125.4 8.828e+03 1.998e-10
 88.22328    127.9 9.309e+03 2.747e-10
 88.26120    130.2 9.896e+03 3.760e-10
 88.28246    131.6 9.601e+03 3.118e-10
 88.29256    133.8 1.000e+04 3.887e-10
 88.30310    132.1 1.031e+04 4.889e-10
 88.31804    132.7 1.049e+04 5.538e-10
 88.32867    133.9 1.027e+04 4.745e-10
 88.34001    134.2 1.075e+04 5.872e-10
 88.36127    133.1 1.405e+04 1.129e-09
 88.37508    128.8 1.963e+04 4.655e-09
 88.38571    132.4 1.768e+04 2.166e-09
 88.40379    127.5 2.192e+04 8.107e-09
 88.41969    124.8 2.319e+04 1.635e-08
 88.42671    123.8 2.281e+04 3.802e-08
 88.43071    124.1 2.336e+04 2.675e-08
 88.43426    124.2 2.308e+04 2.714e-08
 88.44090    124.7 2.216e+04 5.854e-08
 88.44992    126.0 2.179e+04 8.983e-08
 88.45523    126.0 2.192e+04 8.430e-08
 88.46216    126.7 2.226e+04 1.023e-07
 88.47279    126.3 2.234e+04 9.659e-08
 88.47844    126.6 2.221e+04 7.135e-08
 88.48375    126.8 2.188e+04 6.950e-08
 88.49405    127.4 2.196e+04 4.356e-08
 88.50164    127.3 2.321e+04 2.523e-08
 88.50696    128.2 2.202e+04 2.759e-08
 88.51530    127.2 2.439e+04 1.629e-08
 88.52485    124.4 2.604e+04 7.472e-09
 88.53016    127.1 2.473e+04 1.191e-08
 88.53656    124.1 2.493e+04 5.664e-09
 88.54719    120.2 2.118e+04 2.624e-09
 88.55337    118.7 1.856e+04 2.255e-09
 88.55868    121.2 2.008e+04 2.655e-09
 88.56568    118.0 1.538e+04 1.716e-09
 88.57384    118.0 1.559e+04 1.674e-09
 88.58198    124.0 1.951e+04 2.640e-09
 88.59513    119.6 1.441e+04 1.494e-09
 88.61639    117.9 1.166e+04 1.126e-09
 88.62839    118.7 1.148e+04 1.039e-09
 88.63902    120.4 1.165e+04 1.098e-09
 88.65890    121.4 1.156e+04 1.050e-09
 88.67480    121.9 1.149e+04 9.508e-10
 88.68543    123.9 1.168e+04 1.065e-09
 88.70142    124.5 1.160e+04 1.000e-09
 88.72122    125.0 1.141e+04 8.294e-10
 88.73185    127.0 1.175e+04 1.041e-09
 88.74394    127.5 1.156e+04 9.172e-10
 88.76520    128.2 1.125e+04 7.258e-10
 88.77826    128.7 1.084e+04 5.974e-10
 88.78889    130.9 1.155e+04 8.736e-10
 88.80772    131.8 1.121e+04 6.995e-10
 88.82467    132.5 1.082e+04 5.778e-10
 88.83477    134.6 1.165e+04 8.999e-10
 88.83908    134.5 1.182e+04 9.947e-10
 88.85024    135.5 1.144e+04 7.816e-10
 88.87108    136.4 1.101e+04 6.147e-10
 88.88171    138.6 1.194e+04 1.014e-09
 88.89276    139.6 1.161e+04 7.845e-10
 88.91402    140.4 1.117e+04 6.040e-10
 88.92812    141.1 1.081e+04 4.733e-10
 88.93875    143.9 1.174e+04 7.938e-10
 88.95654    144.6 1.128e+04 6.096e-10
 88.97453    145.0 1.086e+04 4.864e-10
 88.98516    148.3 1.175e+04 7.607e-10
 88.99906    148.6 1.137e+04 6.228e-10
 89.02032    148.6 1.127e+04 5.991e-10
 89.03157    148.5 1.138e+04 6.503e-10
 89.04220    151.9 1.210e+04 8.188e-10
 89.06284    151.6 1.222e+04 8.853e-10
 89.07798    151.2 1.247e+04 1.029e-09
 89.08861    154.8 1.313e+04 1.158e-09
 89.10181    154.2 1.341e+04 1.354e-09
 89.11244    153.2 1.293e+04 1.156e-09
 89.12439    152.6 1.319e+04 1.354e-09
 89.13502    156.3 1.381e+04 1.509e-09
 89.14788    155.0 1.430e+04 1.748e-09
 89.16913    153.1 1.487e+04 1.999e-09
 89.18138    152.9 1.555e+04 2.300e-09
 89.18664    155.0 1.561e+04 2.491e-09
 89.19561    151.9 1.843e+04 2.988e-09
 89.20453    135.5 3.623e+04 9.114e-09
 89.20985    142.3 3.335e+04 6.204e-09
 89.21687    124.3 3.379e+04 4.884e-08
 89.22482    121.2 2.719e+04 1.436e-07
 89.23011    117.2 2.586e+04 2.870e-07
 89.23301    109.1 2.376e+04 1.228e-06
 89.23566    109.4 2.377e+04 1.269e-06
 89.24074     99.8 2.057e+04 5.340e-06
 89.24366     84.6 2.348e+04 3.281e-06
 89.24487     95.0 2.118e+04 5.390e-06
 89.24727     94.8 2.062e+04 6.595e-06
 89.25137     76.5 2.730e+04 1.605e-06
 89.25621     53.6 3.657e+04 1.056e-07
 89.25887     49.7 3.868e+04 1.126e-07
 89.26200     37.1 3.437e+04 7.349e-08
 89.27000     30.2 3.585e+04 7.589e-08
 89.27947     16.4 3.281e+04 7.130e-08
 89.28478      4.3 2.876e+04 1.386e-07
 89.29128     -0.7 2.630e+04 1.373e-07
 89.30191     -2.8 2.486e+04 1.557e-07
 89.30799     -4.2 2.468e+04 1.743e-07
 89.31330     -8.9 2.487e+04 1.686e-07
 89.32317    -10.1 2.480e+04 1.623e-07
 89.33119    -11.0 2.478e+04 1.329e-07
 89.33651    -13.2 2.514e+04 7.647e-08
 89.34443    -13.6 2.525e+04 4.894e-08
 89.35440    -14.2 2.507e+04 3.023e-08
 89.35971    -16.1 2.497e+04 1.472e-08
 89.36569    -17.0 2.373e+04 1.130e-08
 89.37512    -17.3 2.248e+04 1.046e-08
 89.38176    -19.0 2.315e+04 1.034e-08
 89.38833    -22.3 2.129e+04 3.929e-09
 89.40299    -22.1 1.887e+04 3.374e-09
 89.42411    -20.4 1.676e+04 2.706e-09
 89.43474    -20.8 1.404e+04 1.936e-09
 89.44551    -18.3 1.338e+04 1.790e-09
 89.46677    -15.5 1.298e+04 1.694e-09
 89.48115    -12.5 1.270e+04 1.596e-09
 89.49178    -11.0 1.241e+04 1.460e-09
 89.50929     -8.1 1.208e+04 1.294e-09
 89.52756     -5.3 1.174e+04 1.104e-09
 89.53819     -3.9 1.152e+04 1.028e-09
 89.55181     -1.4 1.109e+04 8.141e-10
 89.57307      0.7 1.070e+04 6.252e-10
 89.58460      2.5 1.039e+04 4.789e-10
 89.59523      3.7 1.008e+04 4.486e-10
 89.61559      5.0 9.853e+03 3.531e-10
 89.63101      6.2 9.775e+03 3.172e-10
 89.64164      7.4 9.613e+03 3.058e-10
 89.66689      8.0 9.603e+03 2.930e-10
 89.68824     11.2 9.384e+03 2.731e-10
 89.71145     13.3 9.224e+03 2.620e-10
 89.75397     15.4 9.170e+03 2.676e-10
 89.78107     17.1 9.295e+03 2.909e-10
 89.80233     19.9 9.323e+03 2.954e-10
 89.83901     21.3 9.377e+03 3.024e-10
 89.87389     22.4 9.365e+03 2.835e-10
 89.89515     25.1 9.557e+03 3.265e-10
 89.91145     25.9 9.536e+03 2.932e-10
 89.93271     27.0 9.415e+03 2.911e-10
 89.96656     27.7 9.451e+03 2.770e-10
 90.00908     29.9 9.712e+03 3.109e-10
 90.05160     30.1 9.884e+03 3.157e-10
 90.08079     30.7 9.999e+03 3.363e-10
 90.09132     31.7 1.008e+04 3.774e-10
 90.10456     32.2 1.009e+04 3.779e-10
 90.12582     33.0 1.010e+04 3.755e-10
 90.13763     33.8 1.005e+04 3.623e-10
 90.14826     34.9 1.026e+04 4.248e-10
 90.16833     35.9 1.018e+04 4.014e-10
 90.18404     36.9 1.012e+04 3.815e-10
 90.18969     37.8 1.032e+04 4.479e-10
 90.19524     37.8 1.041e+04 5.388e-10
 90.21085     38.7 1.042e+04 5.313e-10
 90.23045     39.2 1.085e+04 5.602e-10
 90.24108     40.5 1.079e+04 6.393e-10
 90.25337     40.7 1.130e+04 7.347e-10
 90.27463     37.6 1.272e+04 1.486e-09
 90.28749     33.0 1.799e+04 4.361e-09
 90.29812     32.3 2.024e+04 5.695e-09
 90.31065     29.6 2.252e+04 1.190e-08
 90.31592     28.8 2.321e+04 1.507e-08
 90.32119     25.8 2.306e+04 4.069e-08
 90.32650     26.5 2.367e+04 2.781e-08
 90.33300     24.4 2.341e+04 6.688e-08
 90.33912     23.2 2.288e+04 1.197e-07
 90.34444     23.5 2.286e+04 1.595e-07
 90.35426     21.9 2.278e+04 1.847e-07
 90.36233     19.8 2.304e+04 1.805e-07
 90.36764     19.6 2.324e+04 1.765e-07
 90.37552     16.3 2.491e+04 1.038e-07
 90.38553     10.9 2.705e+04 5.057e-08
 90.39085      9.6 2.743e+04 3.987e-08
 90.39678      2.3 2.699e+04 2.175e-08
 90.40741     -4.2 2.424e+04 1.590e-08
 90.41405     -8.9 2.181e+04 1.337e-08
 90.41937     -8.6 2.162e+04 1.224e-08
 90.42867    -12.2 1.992e+04 1.049e-08
 90.43726    -15.0 1.881e+04 9.582e-09
 90.44257    -14.6 1.852e+04 8.701e-09
 90.44993    -16.4 1.810e+04 8.402e-09
 90.45787    -17.9 1.797e+04 8.274e-09
 90.46309    -16.8 1.794e+04 7.074e-09
 90.46578    -15.9 1.761e+04 6.362e-09
 90.47119    -17.3 1.760e+04 6.674e-09
 90.48371    -19.3 1.805e+04 7.308e-09
 90.49439    -17.7 1.713e+04 5.856e-09
 90.50849    -21.1 1.716e+04 5.904e-09
 90.52975    -23.9 1.761e+04 5.415e-09
 90.54080    -26.7 1.693e+04 4.363e-09
 90.55143    -24.4 1.626e+04 3.689e-09
 90.57227    -26.8 1.542e+04 3.143e-09
 90.58721    -28.7 1.446e+04 2.641e-09
 90.59784    -26.0 1.436e+04 2.469e-09
 90.61479    -27.2 1.377e+04 2.197e-09
 90.63362    -28.1 1.327e+04 1.909e-09
 90.64425    -24.7 1.366e+04 1.898e-09
 90.65731    -26.5 1.346e+04 1.706e-09
 90.67320    -27.6 1.314e+04 1.526e-09
 90.68378    -29.1 1.328e+04 1.412e-09
 90.69057    -31.5 1.303e+04 1.215e-09
 90.69588    -31.5 2.628e+04 1.051e-09
 90.70504    -32.8 2.389e+04 9.608e-10
 90.71377    -34.4 1.570e+04 1.042e-09
 90.71909    -32.1 4.419e+04 8.159e-10
 90.72591    -35.4 1.723e+04 1.087e-09
 90.73123    -34.8 1.298e+04 1.344e-09
 90.73703    -36.5 1.269e+04 1.174e-09
 90.74766    -36.6 1.322e+04 1.457e-09
 90.76355    -37.7 1.342e+04 1.547e-09
 90.78349    -38.5 1.345e+04 1.549e-09
 90.79407    -38.0 1.404e+04 1.971e-09
 90.80607    -37.7 1.430e+04 2.179e-09
 90.82738    -37.8 1.436e+04 2.213e-09
 90.84053    -38.2 1.428e+04 2.175e-09
 90.84579    -37.4 1.461e+04 2.585e-09
 90.85386    -37.5 1.457e+04 2.541e-09
 90.86259    -38.0 1.451e+04 2.492e-09
 90.86705    -37.8 1.456e+04 2.550e-09
 90.86895    -37.0 1.483e+04 2.844e-09
 90.87512    -37.5 1.484e+04 2.825e-09
 90.88575    -38.1 1.484e+04 2.840e-09
 90.89215    -38.6 1.479e+04 2.885e-09
 90.89747    -38.4 1.601e+04 3.409e-09
 90.90701    -38.7 1.582e+04 3.444e-09
 90.91536    -38.8 1.566e+04 3.541e-09
 90.92067    -39.2 2.146e+04 6.402e-09
 90.92827    -38.9 2.082e+04 5.909e-09
 90.93856    -38.5 2.019e+04 5.605e-09
 90.94388    -39.9 3.029e+04 2.673e-08
 90.94953    -39.1 3.038e+04 2.061e-08
 90.96016    -38.2 2.996e+04 1.571e-08
 90.96708    -37.4 2.879e+04 1.222e-08
 90.97240    -37.6 3.361e+04 8.415e-08
 90.98142    -36.4 3.457e+04 6.227e-08
 90.99029    -35.4 3.524e+04 4.539e-08
 90.99560    -34.1 3.233e+04 2.121e-07
 90.99927    -32.5 3.334e+04 1.819e-07
 91.00458    -32.4 3.763e+04 5.072e-08
 91.01331    -31.1 3.897e+04 3.422e-08
 91.01881    -29.9 3.994e+04 2.325e-08
 91.02412    -25.6 3.651e+04 1.500e-07
 91.03457    -24.0 3.774e+04 1.258e-07
 91.04201    -25.5 3.929e+04 1.115e-07
 91.04733    -18.9 3.341e+04 3.427e-07
 91.05582    -23.0 3.509e+04 3.500e-07
 91.06522    -34.5 3.327e+04 4.728e-07
 91.07053    -23.5 3.126e+04 5.437e-07
 91.07440    -33.7 2.609e+04 1.024e-06
 91.07943    -36.8 2.323e+04 1.558e-06
 91.08209    -33.4 2.480e+04 1.157e-06
 91.08501    -35.9 2.424e+04 1.358e-06
 91.09032    -41.7 2.416e+04 1.398e-06
 91.09369    -47.7 2.609e+04 1.119e-06
 91.09903    -50.6 4.356e+04 1.168e-07
 91.10897    -69.1 6.951e+04 1.509e-08
 91.11694    -91.9 8.657e+04 5.054e-09
 91.12226    -90.7 8.917e+04 1.299e-09
 91.13023   -105.6 8.890e+04 1.119e-09
 91.13595   -117.4 8.797e+04 1.270e-09
 91.14055   -125.1 6.471e+04 8.401e-09
 91.14546   -118.7 7.473e+04 1.684e-09
 91.15149   -120.9 7.353e+04 2.384e-09
 91.16212   -121.4 6.448e+04 4.845e-09
 91.16867   -121.1 5.567e+04 9.455e-09
 91.17398   -115.6 1.080e+05 4.420e-10
 91.18338   -116.6 1.084e+05 5.461e-10
 91.19187   -118.8 8.165e+04 1.884e-09
 91.19724   -114.3 8.859e+04 3.728e-10
 91.21005   -116.8 1.013e+05 6.326e-10
 91.22595   -114.6 1.025e+05 7.328e-10
 91.23653   -114.8 9.565e+04 1.045e-09
 91.24360   -115.3 8.553e+04 1.596e-09
 91.25428   -111.9 9.663e+04 2.601e-10
 91.26741   -110.4 9.634e+04 2.230e-10
 91.27804   -115.6 7.510e+04 1.779e-09
 91.29011   -110.0 7.720e+04 6.514e-10
 91.30074   -110.0 6.165e+04 2.489e-10
 91.31635   -111.0 2.862e+04 3.737e-10
 91.33652   -113.3 1.321e+04 5.380e-10
 91.34715   -112.4 1.093e+04 6.097e-10
 91.35887   -112.0 1.079e+04 5.700e-10
 91.38013   -111.3 1.068e+04 5.510e-10
 91.39356   -110.8 1.064e+04 5.380e-10
 91.40419   -109.6 1.067e+04 5.381e-10
 91.42265   -109.1 1.064e+04 5.304e-10
 91.43997   -108.8 1.063e+04 5.291e-10
 91.45060   -107.3 1.066e+04 5.227e-10
 91.46517   -106.9 1.066e+04 5.238e-10
 91.48638   -106.5 1.092e+04 5.519e-10
 91.50764   -104.5 1.144e+04 5.910e-10
 91.52895   -104.3 1.187e+04 6.553e-10
 91.54077   -104.3 1.221e+04 7.227e-10
 91.54461   -105.4 1.236e+04 7.840e-10
 91.55405   -103.5 1.226e+04 7.942e-10
 91.57147   -103.8 1.251e+04 8.755e-10
 91.58983   -104.1 1.281e+04 9.650e-10
 91.60046   -102.3 1.268e+04 9.690e-10
 91.61399   -102.5 1.291e+04 1.028e-09
 91.63525   -102.8 1.310e+04 1.093e-09
 91.64687   -103.0 1.312e+04 1.179e-09
 91.65750   -101.5 1.296e+04 1.024e-09
 91.67777   -101.7 1.289e+04 1.037e-09
 91.69328   -101.6 1.276e+04 1.084e-09
 91.70391   -100.4 1.260e+04 9.298e-10
 91.72028   -100.2 1.250e+04 9.629e-10
 91.73969    -99.7 1.247e+04 1.014e-09
 91.75032    -98.7 1.231e+04 8.933e-10
 91.76280    -98.2 1.229e+04 9.168e-10
 91.78406    -97.6 1.227e+04 9.306e-10
 91.79673    -96.8 1.227e+04 9.376e-10
 91.80553    -95.9 1.208e+04 8.227e-10
 91.81412    -96.5 1.207e+04 8.741e-10
 91.82658    -95.6 1.207e+04 8.775e-10
 91.84314    -94.8 1.217e+04 9.050e-10
 91.85377    -94.0 1.192e+04 7.855e-10
 91.86910    -93.3 1.209e+04 8.559e-10
 91.88955    -92.7 1.240e+04 9.980e-10
 91.90018    -92.1 1.204e+04 8.159e-10
 91.91162    -91.5 1.244e+04 9.855e-10
 91.93288    -91.0 1.289e+04 1.249e-09
 91.94659    -90.4 1.336e+04 1.618e-09
 91.95722    -89.8 1.283e+04 1.165e-09
 91.97540    -89.1 1.326e+04 1.469e-09
 91.99300    -88.3 1.361e+04 1.806e-09
 92.00363    -88.0 1.282e+04 1.154e-09
 92.01792    -87.3 1.304e+04 1.327e-09
 92.03918    -86.6 1.314e+04 1.454e-09
 92.05004    -85.9 1.312e+04 1.516e-09
 92.06067    -86.0 1.211e+04 9.266e-10
 92.07685    -85.3 1.210e+04 9.390e-10
 92.08748    -85.2 1.260e+04 1.310e-09
 92.09645    -84.5 1.234e+04 1.192e-09
 92.10708    -84.6 1.155e+04 7.607e-10
 92.12422    -83.9 1.143e+04 6.824e-10
 92.14286    -83.2 1.135e+04 6.037e-10
 92.15349    -83.3 1.108e+04 4.750e-10
 92.17746    -82.1 1.132e+04 5.562e-10
 92.20010    -79.3 1.113e+04 5.210e-10
 92.22136    -78.4 1.004e+04 2.609e-10
 92.26260    -75.2 9.977e+03 2.544e-10
 92.29292    -72.1 1.001e+04 2.567e-10
 92.31418    -71.6 8.900e+03 1.269e-10
 92.34764    -69.0 9.127e+03 1.289e-10
 92.38574    -66.5 9.596e+03 1.505e-10
 92.40700    -66.1 8.430e+03 9.891e-11
 92.43268    -63.9 8.782e+03 1.068e-10
 92.47519    -61.9 9.618e+03 1.553e-10
 92.49982    -60.0 1.057e+04 2.881e-10
 92.52108    -59.5 8.784e+03 1.495e-10
 92.56023    -57.9 9.291e+03 2.227e-10
 92.59264    -56.7 9.892e+03 3.539e-10
 92.61365    -55.8 8.897e+03 2.303e-10
 92.62376    -56.3 9.190e+03 2.923e-10
 92.64527    -55.6 9.480e+03 3.876e-10
 92.68546    -55.0 9.911e+03 4.593e-10
 92.70672    -54.0 9.053e+03 3.059e-10
 92.73031    -53.2 9.092e+03 3.096e-10
 92.77283    -52.3 9.097e+03 2.941e-10
 92.79954    -51.1 9.094e+03 2.756e-10
 92.82080    -49.5 8.497e+03 1.818e-10
 92.85787    -48.0 8.487e+03 1.754e-10
 92.89236    -46.3 8.669e+03 1.809e-10
 92.91362    -44.9 8.213e+03 1.247e-10
 92.94291    -43.2 8.381e+03 1.447e-10
 92.98518    -41.4 8.601e+03 1.795e-10
 93.00644    -40.1 8.310e+03 1.465e-10
 93.02794    -38.1 8.638e+03 1.976e-10
 93.07046    -36.0 9.050e+03 2.648e-10
 93.09926    -33.9 9.479e+03 3.425e-10
 93.12052    -32.6 9.470e+03 3.430e-10
 93.14921    -30.8 9.773e+03 4.077e-10
 93.17038    -31.1 1.026e+04 5.624e-10
 93.18720    -30.6 1.030e+04 6.295e-10
 93.20252    -30.1 1.038e+04 6.785e-10
 93.21315    -29.5 1.034e+04 6.667e-10
 93.22971    -28.8 1.041e+04 7.033e-10
 93.24893    -28.2 1.047e+04 7.262e-10
 93.25956    -27.6 1.046e+04 7.204e-10
 93.27223    -27.0 1.052e+04 7.333e-10
 93.29349    -26.6 1.054e+04 7.363e-10
 93.30597    -26.2 1.057e+04 7.116e-10
 93.31660    -25.3 1.062e+04 7.171e-10
 93.33601    -24.9 1.059e+04 6.889e-10
 93.35238    -24.6 1.052e+04 6.533e-10
 93.36301    -23.7 1.060e+04 6.930e-10
 93.37853    -23.3 1.057e+04 6.672e-10
 93.39879    -22.9 1.050e+04 6.305e-10
 93.40942    -21.9 1.071e+04 7.348e-10
 93.42105    -21.6 1.069e+04 7.357e-10
 93.43301    -21.7 1.097e+04 7.867e-10
 93.44364    -26.1 1.271e+04 9.531e-10
 93.45583    -28.8 1.441e+04 1.383e-09
 93.46646    -28.6 1.574e+04 2.203e-09
 93.48483    -30.7 1.660e+04 3.326e-09
 93.50224    -32.6 1.692e+04 4.356e-09
 93.51282    -31.7 1.790e+04 5.008e-09
 93.52194    -33.5 1.815e+04 6.296e-09
 93.53066    -35.1 1.827e+04 7.853e-09
 93.53598    -35.3 1.855e+04 9.451e-09
 93.54320    -36.7 1.852e+04 1.089e-08
 93.55383    -38.5 1.915e+04 1.218e-08
 93.56427    -43.9 2.306e+04 1.662e-08
 93.56959    -47.6 2.435e+04 1.574e-08
 93.57509    -53.7 2.607e+04 1.745e-08
 93.58239    -60.7 2.659e+04 1.803e-08
 93.58770    -65.6 2.620e+04 1.854e-08
 93.59634    -72.4 2.371e+04 1.668e-08
 93.60559    -77.8 2.110e+04 1.494e-08
 93.61091    -81.3 1.996e+04 1.326e-08
 93.61760    -84.1 1.924e+04 1.171e-08
 93.62823    -85.8 1.919e+04 1.042e-08
 93.63411    -87.4 1.924e+04 9.224e-09
 93.63943    -90.3 1.892e+04 6.933e-09
 93.64949    -91.9 1.885e+04 6.105e-09
 93.65732    -92.9 1.889e+04 5.820e-09
 93.66263    -98.0 1.929e+04 4.555e-09
 93.67612   -100.7 1.901e+04 4.128e-09
 93.69573   -104.1 1.759e+04 3.746e-09
 93.70636   -105.2 1.536e+04 2.678e-09
 93.70914   -107.5 1.495e+04 2.595e-09
 93.71977   -112.8 1.543e+04 3.136e-09
 93.73994   -111.9 1.548e+04 3.510e-09
 93.75555   -110.5 1.561e+04 3.934e-09
 93.76082   -112.6 1.658e+04 5.035e-09
 93.76642   -112.5 1.679e+04 5.491e-09
 93.77705   -112.1 1.715e+04 6.471e-09
 93.78397   -111.7 1.758e+04 7.404e-09
 93.78929   -112.3 1.797e+04 8.683e-09
 93.80191   -110.9 1.809e+04 8.557e-09
 93.81259   -113.0 1.965e+04 1.373e-08
 93.81962   -111.5 1.971e+04 1.256e-08
 93.83020   -111.6 2.007e+04 1.317e-08
 93.83570   -111.4 2.045e+04 1.393e-08
 93.83781   -112.6 2.106e+04 1.738e-08
 93.84294   -112.1 2.136e+04 2.387e-08
 93.85146   -111.6 2.177e+04 2.588e-08
 93.85890   -111.2 2.221e+04 2.795e-08
 93.86422   -112.4 2.263e+04 3.488e-08
 93.87272   -112.2 2.298e+04 3.851e-08
 93.88211   -112.3 2.321e+04 4.124e-08
 93.88742   -113.6 2.321e+04 4.380e-08
 93.89398   -113.9 2.327e+04 4.638e-08
 93.90461   -115.1 2.327e+04 4.717e-08
 93.91063   -116.3 2.299e+04 4.708e-08
 93.91594   -117.4 2.291e+04 4.605e-08
 93.92587   -117.9 2.255e+04 4.416e-08
 93.93383   -118.2 2.230e+04 4.094e-08
 93.93915   -118.9 2.206e+04 3.695e-08
 93.94713   -119.5 2.181e+04 3.241e-08
 93.95704   -119.9 2.133e+04 2.687e-08
 93.96235   -120.3 2.060e+04 2.066e-08
 93.96904   -120.7 1.985e+04 1.651e-08
 93.97972   -120.8 1.988e+04 1.647e-08
 93.99506   -121.1 1.871e+04 1.179e-08
 94.00886   -120.8 1.777e+04 8.870e-09
 94.01949   -121.4 1.653e+04 5.216e-09
 94.03758   -121.0 1.540e+04 3.847e-09
 94.05527   -120.3 1.449e+04 2.935e-09
 94.06590   -121.0 1.304e+04 1.646e-09
 94.08010   -120.1 1.249e+04 1.344e-09
 94.10136   -119.2 1.204e+04 1.112e-09
 94.11231   -118.2 1.170e+04 9.490e-10
 94.12294   -118.5 1.080e+04 6.803e-10
 94.14388   -117.3 1.068e+04 6.070e-10
 94.15872   -116.0 1.053e+04 5.273e-10
 94.16935   -116.2 9.830e+03 3.914e-10
 94.18640   -114.8 9.760e+03 3.571e-10
 94.20523   -113.0 9.865e+03 3.527e-10
 94.22659   -112.0 8.708e+03 1.961e-10
 94.24264   -108.7 8.505e+03 1.422e-10
 94.26390   -108.2 8.707e+03 1.840e-10
 94.29815   -105.2 8.726e+03 1.548e-10
 94.31941   -104.4 8.744e+03 1.392e-10
 94.34604   -101.5 8.761e+03 1.344e-10
 94.38856    -98.7 8.767e+03 1.339e-10
 94.41223    -96.0 8.807e+03 1.350e-10
 94.43349    -95.3 8.778e+03 1.254e-10
 94.47360    -92.8 8.838e+03 1.273e-10
 94.50505    -90.3 8.858e+03 1.281e-10
 94.52631    -89.7 8.841e+03 1.248e-10
 94.55863    -87.3 8.842e+03 1.251e-10
 94.59787    -84.8 8.841e+03 1.226e-10
 94.61913    -84.2 8.857e+03 1.248e-10
 94.64367    -81.8 8.866e+03 1.175e-10
 94.68619    -79.5 8.873e+03 1.073e-10
 94.71195    -77.2 8.881e+03 9.603e-11
 94.73321    -76.6 9.044e+03 1.227e-10
 94.76810    -74.5 9.066e+03 1.136e-10
 94.78936    -74.2 8.934e+03 8.838e-11
 94.80477    -72.1 8.943e+03 7.991e-11
 94.82603    -71.5 9.239e+03 1.225e-10
 94.85627    -69.4 9.269e+03 1.133e-10
 94.89759    -67.3 9.298e+03 1.056e-10
 94.91885    -67.0 9.710e+03 1.800e-10
 94.94131    -64.9 9.732e+03 1.699e-10
 94.98383    -62.9 9.746e+03 1.679e-10
 95.01167    -61.3 9.819e+03 1.687e-10
 95.03293    -61.2 1.022e+04 2.741e-10
 95.06886    -60.0 1.073e+04 3.727e-10
 95.10449    -58.7 1.128e+04 6.210e-10
 95.12575    -58.7 1.140e+04 7.780e-10
 95.15390    -57.6 1.182e+04 1.047e-09
 95.19642    -56.8 1.207e+04 1.241e-09
 95.21857    -56.2 1.212e+04 1.292e-09
 95.23983    -56.2 1.190e+04 1.181e-09
 95.28146    -55.0 1.163e+04 1.093e-09
 95.31139    -53.2 1.115e+04 8.449e-10
 95.32349    -52.6 1.066e+04 6.140e-10
 95.33607    -52.3 1.099e+04 7.518e-10
 95.36650    -50.4 1.069e+04 6.385e-10
 95.40421    -48.3 1.041e+04 5.452e-10
 95.42547    -47.6 1.011e+04 4.158e-10
 95.45154    -45.4 1.001e+04 3.985e-10
 95.49406    -43.1 9.912e+03 3.794e-10
 95.51829    -40.7 9.802e+03 3.572e-10
 95.53955    -40.0 9.738e+03 3.267e-10
 95.57909    -37.7 9.710e+03 3.293e-10
 95.61111    -35.4 9.669e+03 3.280e-10
 95.63237    -34.8 9.714e+03 3.418e-10
 95.66413    -32.6 9.733e+03 3.590e-10
 95.70393    -30.6 9.744e+03 3.757e-10
 95.72519    -30.0 9.904e+03 4.381e-10
 95.74917    -28.0 9.965e+03 4.770e-10
 95.79169    -26.0 9.989e+03 5.041e-10
 95.81801    -23.9 9.983e+03 5.111e-10
 95.83927    -23.5 1.012e+04 5.700e-10
 95.86153    -21.4 9.944e+03 5.171e-10
 95.88279    -21.7 9.804e+03 4.627e-10
 95.91084    -19.4 9.534e+03 3.645e-10
 95.93209    -19.1 9.511e+03 3.544e-10
 95.96177    -16.9 9.272e+03 2.782e-10
 96.00366    -14.7 9.085e+03 2.299e-10
 96.02492    -14.4 9.021e+03 2.212e-10
 96.04680    -12.1 8.922e+03 2.067e-10
 96.08932     -9.6 8.878e+03 2.035e-10
 96.11774     -7.1 8.867e+03 2.073e-10
 96.13900     -6.6 8.833e+03 2.121e-10
 96.17436     -4.1 8.846e+03 2.176e-10
 96.21056     -1.6 8.855e+03 2.192e-10
 96.23182     -1.2 8.833e+03 2.186e-10
 96.25940      1.2 8.823e+03 2.189e-10
 96.30192      3.4 8.870e+03 2.236e-10
 96.32464      5.4 9.001e+03 2.461e-10
 96.34590      5.5 9.070e+03 2.768e-10
 96.38696      7.5 9.267e+03 3.397e-10
 96.41746      8.9 9.300e+03 3.426e-10
 96.43872      9.1 9.357e+03 3.734e-10
 96.47200     10.7 9.385e+03 3.773e-10
 96.51028     12.1 9.373e+03 3.598e-10
 96.53154     12.2 9.401e+03 3.735e-10
 96.55703     13.5 9.239e+03 3.252e-10
 96.59955     14.9 9.039e+03 2.830e-10
 96.62436     16.5 8.887e+03 2.538e-10
 96.64562     16.9 8.896e+03 2.545e-10
 96.68459     18.6 8.854e+03 2.441e-10
 96.71718     20.2 9.000e+03 2.568e-10
 96.73844     20.3 9.262e+03 2.863e-10
 96.75890     20.8 9.507e+03 3.338e-10
 96.77402     20.3 9.709e+03 3.878e-10
 96.78465     19.4 1.004e+04 5.207e-10
 96.80132     18.9 1.053e+04 8.253e-10
 96.82043     18.9 1.112e+04 1.227e-09
 96.83106     19.0 1.150e+04 1.541e-09
 96.84384     19.7 1.223e+04 2.060e-09
 96.86510     20.4 1.286e+04 2.432e-09
 96.87747     20.7 1.312e+04 2.496e-09
 96.88810     20.3 1.317e+04 2.421e-09
 96.90762     20.0 1.297e+04 1.929e-09
 96.92388     19.1 1.211e+04 1.337e-09
 96.93451     17.5 1.160e+04 1.057e-09
 96.94413     16.4 1.053e+04 7.581e-10
 96.95476     15.9 1.048e+04 7.243e-10
 96.97030     15.4 1.005e+04 5.339e-10
 96.98092     14.4 1.006e+04 5.215e-10
 96.99266     14.2 9.900e+03 4.111e-10
 97.01680     14.0 9.560e+03 3.144e-10
 97.03816     12.4 9.541e+03 3.342e-10
 97.06726     13.2 9.161e+03 2.850e-10
 97.10972     14.6 9.006e+03 2.565e-10
 97.15224     14.8 8.812e+03 2.224e-10
 97.19482     16.5 8.724e+03 1.842e-10
 97.22380     18.1 8.622e+03 1.410e-10
 97.24506     16.8 8.349e+03 9.801e-11
 97.27986     18.0 8.196e+03 7.936e-11
 97.31662     19.1 8.092e+03 7.573e-11
 97.33788     18.1 8.073e+03 7.581e-11
 97.36490     19.4 8.160e+03 7.927e-11
 97.40742     20.5 8.263e+03 9.715e-11
 97.43070     21.4 8.469e+03 1.254e-10
 97.45196     20.4 8.775e+03 1.601e-10
 97.48041     20.7 9.113e+03 2.169e-10
 97.50167     21.4 8.616e+03 1.515e-10
 97.52352     21.1 8.929e+03 1.867e-10
 97.54478     19.2 9.141e+03 2.114e-10
 97.57749     18.1 9.414e+03 2.822e-10
 97.61634     17.0 9.657e+03 3.687e-10
 97.63760     14.8 9.916e+03 4.412e-10
 97.66253     13.7 9.994e+03 4.755e-10
 97.70505     12.4 9.825e+03 3.883e-10
 97.73042     10.5 9.506e+03 2.526e-10
 97.75168      8.5 9.385e+03 2.251e-10
 97.79009      6.9 9.145e+03 1.684e-10
 97.82324      6.0 9.113e+03 1.587e-10
 97.84450      5.1 9.176e+03 1.653e-10
 97.87513      4.8 9.321e+03 1.961e-10
 97.91607      4.7 9.426e+03 2.356e-10
 97.93732      4.0 9.716e+03 3.141e-10
 97.96017      4.2 9.956e+03 3.865e-10
 98.00269      4.4 1.004e+04 3.994e-10
 98.02712      4.3 1.009e+04 4.022e-10
 98.03332      4.1 1.021e+04 4.332e-10
 98.04068      3.6 1.048e+04 5.352e-10
 98.05564      3.3 1.050e+04 5.248e-10
 98.07636      3.0 1.043e+04 4.721e-10
 98.08699      2.3 1.049e+04 4.820e-10
 98.09816      1.8 1.032e+04 4.281e-10
 98.12287      1.9 1.020e+04 3.854e-10
 98.14423      0.4 1.015e+04 3.483e-10
 98.17276     -0.4 9.939e+03 2.580e-10
 98.21528     -1.1 9.936e+03 2.248e-10
 98.23705     -2.2 1.012e+04 2.405e-10
 98.25831     -4.0 1.016e+04 2.507e-10
 98.28336     -4.2 1.028e+04 2.818e-10
 98.29389     -5.1 1.034e+04 3.042e-10
 98.30029     -6.3 1.075e+04 3.809e-10
 98.31092     -5.1 1.045e+04 3.059e-10
 98.32967     -6.4 1.080e+04 3.960e-10
 98.34030     -7.7 1.114e+04 5.168e-10
 98.35327     -9.1 1.163e+04 7.274e-10
 98.37453    -10.1 1.196e+04 9.850e-10
 98.38671    -10.7 1.210e+04 1.206e-09
 98.39734    -11.3 1.219e+04 1.348e-09
 98.41705    -11.6 1.208e+04 1.365e-09
 98.43312    -11.8 1.180e+04 1.178e-09
 98.44375    -12.5 1.171e+04 1.005e-09
 98.45957    -13.4 1.148e+04 6.677e-10
 98.47953    -15.0 1.110e+04 4.026e-10
 98.49016    -16.4 1.075e+04 3.310e-10
 98.51282    -17.5 1.002e+04 2.264e-10
 98.53677    -17.7 9.507e+03 1.813e-10
 98.55517    -19.1 9.505e+03 2.163e-10
 98.57374    -18.1 9.668e+03 2.383e-10
 98.59786    -17.3 9.572e+03 2.422e-10
 98.62959    -16.3 9.418e+03 2.282e-10
 98.65085    -17.3 9.587e+03 2.638e-10
 98.68299    -16.3 9.463e+03 2.429e-10
 98.72241    -15.5 9.441e+03 2.345e-10
 98.74367    -16.4 9.548e+03 2.546e-10
 98.76803    -15.7 9.543e+03 2.541e-10
 98.81055    -14.9 9.567e+03 2.680e-10
 98.83649    -14.0 9.588e+03 2.790e-10
 98.85775    -14.7 9.589e+03 2.894e-10
 98.89559    -13.7 9.530e+03 2.508e-10
 98.92931    -12.9 9.469e+03 2.026e-10
 98.95057    -13.7 9.404e+03 1.693e-10
 98.98063    -13.2 9.321e+03 1.266e-10
 99.02213    -12.7 9.198e+03 1.028e-10
 99.04339    -13.5 9.156e+03 1.025e-10
 99.06566    -12.7 9.089e+03 9.420e-11
 99.09929    -11.7 9.065e+03 9.056e-11
 99.12055    -11.4 9.116e+03 1.013e-10
 99.13621    -10.2 9.121e+03 9.316e-11
 99.15747    -10.4 9.124e+03 9.335e-11
 99.19322     -9.2 9.144e+03 8.511e-11
 99.22903     -7.8 9.165e+03 7.819e-11
 99.25029     -8.1 9.155e+03 7.855e-11
 99.27826     -6.6 9.153e+03 7.502e-11
 99.32078     -5.0 9.165e+03 7.405e-11
 99.34311     -3.5 9.247e+03 7.484e-11
 99.36437     -3.3 9.195e+03 6.999e-11
 99.40582     -1.7 9.272e+03 7.141e-11
 99.43593     -0.0 9.307e+03 7.622e-11
 99.45719      0.2 9.306e+03 5.641e-11
 99.49086      1.8 9.372e+03 5.593e-11
 99.52875      3.3 9.421e+03 5.875e-11
 99.55001      3.3 9.286e+03 5.063e-11
 99.57589      5.2 9.269e+03 5.781e-11
 99.61841      7.3 9.308e+03 6.275e-11
 99.64283      9.4 9.346e+03 6.457e-11
 99.64917      9.9 9.343e+03 6.103e-11
 99.66727     10.0 9.352e+03 6.557e-11
 99.70345     12.1 9.336e+03 6.529e-11
 99.73565     13.8 9.536e+03 6.610e-11
 99.75691     14.2 9.554e+03 6.569e-11
 99.78849     14.7 9.933e+03 9.515e-11
 99.82847     14.8 1.017e+04 2.126e-10
 99.84973     14.6 1.036e+04 2.445e-10
 99.87353     15.3 1.110e+04 6.114e-10
 99.91605     16.3 1.191e+04 1.189e-09
 99.94255     17.1 1.234e+04 1.496e-09
 99.96381     16.9 1.239e+04 1.590e-09
100.00109     17.1 1.177e+04 1.048e-09
