# Columns:
#   distance along LOS (in CHIMPs)
#   peculiar velocity  (in km/s)
#   temperature (K)
#   HI number density
# pos=(43.2434,235.263,23.6379), angles=(1.87976,3.1409)
  0.00335   -101.5 2.216e+04 5.567e-08
  0.00798   -102.0 2.175e+04 3.719e-08
  0.01439   -103.3 2.097e+04 2.186e-08
  0.02982   -105.3 1.961e+04 1.232e-08
  0.05037   -107.0 1.810e+04 6.124e-09
  0.06583   -110.3 1.625e+04 2.565e-09
  0.07608   -114.5 1.426e+04 1.430e-09
  0.09137   -119.7 1.230e+04 1.066e-09
  0.11187   -122.9 1.212e+04 1.028e-09
  0.12869   -124.6 1.198e+04 1.081e-09
  0.13895   -125.8 1.221e+04 1.382e-09
  0.15288   -126.1 1.265e+04 1.811e-09
  0.17338   -126.2 1.297e+04 2.233e-09
  0.19156   -126.2 1.318e+04 2.498e-09
  0.20181   -126.7 1.329e+04 2.626e-09
  0.21438   -127.0 1.325e+04 2.528e-09
  0.23489   -127.6 1.316e+04 2.294e-09
  0.25443   -128.4 1.300e+04 1.975e-09
  0.26468   -129.4 1.273e+04 1.656e-09
  0.27589   -131.0 1.252e+04 1.431e-09
  0.29639   -132.9 1.235e+04 1.328e-09
  0.31689   -135.0 1.228e+04 1.306e-09
  0.32755   -137.1 1.235e+04 1.412e-09
  0.33780   -137.7 1.233e+04 1.420e-09
  0.35790   -139.2 1.246e+04 1.517e-09
  0.37840   -140.6 1.250e+04 1.550e-09
  0.39042   -141.8 1.249e+04 1.553e-09
  0.40067   -141.7 1.257e+04 1.607e-09
  0.41940   -142.7 1.237e+04 1.497e-09
  0.43991   -143.5 1.199e+04 1.279e-09
  0.45329   -144.2 1.152e+04 1.034e-09
  0.46354   -144.1 1.148e+04 9.800e-10
  0.48091   -144.7 1.099e+04 7.820e-10
  0.50141   -145.0 1.054e+04 6.237e-10
  0.51616   -145.2 1.014e+04 4.966e-10
  0.52641   -145.4 1.019e+04 5.151e-10
  0.54242   -145.4 9.904e+03 4.311e-10
  0.56292   -145.2 9.655e+03 3.677e-10
  0.57903   -144.4 9.487e+03 3.276e-10
  0.58928   -144.8 9.618e+03 3.833e-10
  0.60392   -144.0 9.591e+03 3.600e-10
  0.62443   -143.2 9.616e+03 3.567e-10
  0.64190   -142.8 9.949e+03 3.792e-10
  0.65215   -144.7 1.203e+04 7.315e-10
  0.66543   -144.8 1.282e+04 8.726e-10
  0.68593   -144.8 1.328e+04 1.016e-09
  0.70126   -145.0 1.375e+04 1.254e-09
  0.70979   -145.3 1.433e+04 1.436e-09
  0.71492   -147.8 1.777e+04 2.391e-09
  0.72171   -150.1 2.131e+04 3.279e-09
  0.73196   -153.4 2.557e+04 5.417e-09
  0.74123   -157.2 2.763e+04 1.275e-08
  0.74635   -163.2 2.715e+04 6.121e-08
  0.75247   -165.2 2.537e+04 1.332e-07
  0.76272   -166.8 2.326e+04 2.882e-07
  0.77266   -168.1 2.197e+04 5.281e-07
  0.77779   -170.0 2.173e+04 5.173e-07
  0.78322   -171.6 2.117e+04 7.172e-07
  0.79347   -174.0 2.095e+04 7.933e-07
  0.80372   -176.6 2.079e+04 7.734e-07
  0.80922   -178.2 2.076e+04 5.368e-07
  0.81435   -177.9 2.149e+04 2.146e-07
  0.82422   -178.9 2.254e+04 9.227e-08
  0.83447   -180.1 2.462e+04 3.429e-08
  0.84066   -181.7 2.781e+04 1.243e-08
  0.85096   -185.2 3.581e+04 2.467e-09
  0.87045   -189.8 3.419e+04 1.065e-09
  0.89095   -192.7 2.959e+04 6.598e-10
  0.90362   -194.9 2.097e+04 5.392e-10
  0.91387   -197.8 1.166e+04 6.205e-10
  0.93196   -196.5 1.147e+04 6.219e-10
  0.95246   -195.1 1.142e+04 6.343e-10
  0.96649   -193.4 1.149e+04 6.497e-10
  0.97674   -192.6 1.150e+04 6.811e-10
  0.99346   -190.9 1.156e+04 7.160e-10
  1.01396   -189.2 1.165e+04 7.579e-10
  1.02936   -187.4 1.176e+04 8.074e-10
  1.03961   -187.2 1.220e+04 9.999e-10
  1.05497   -185.7 1.242e+04 1.108e-09
  1.07547   -184.1 1.268e+04 1.241e-09
  1.09223   -182.5 1.300e+04 1.417e-09
  1.10248   -183.0 1.370e+04 2.081e-09
  1.11647   -181.6 1.404e+04 2.492e-09
  1.13698   -180.4 1.439e+04 3.029e-09
  1.15510   -179.1 1.476e+04 3.724e-09
  1.16535   -179.2 1.525e+04 4.891e-09
  1.17798   -177.9 1.568e+04 5.772e-09
  1.19848   -176.7 1.613e+04 6.779e-09
  1.21797   -175.6 1.659e+04 7.937e-09
  1.22822   -175.8 1.660e+04 7.803e-09
  1.23949   -174.8 1.704e+04 8.740e-09
  1.25999   -173.9 1.746e+04 9.272e-09
  1.28049   -173.3 1.764e+04 9.361e-09
  1.29109   -173.0 1.789e+04 9.016e-09
  1.30134   -173.4 1.706e+04 5.852e-09
  1.32150   -173.3 1.710e+04 5.458e-09
  1.34200   -173.2 1.714e+04 5.188e-09
  1.35396   -173.3 1.717e+04 5.004e-09
  1.36421   -173.9 1.593e+04 3.177e-09
  1.38300   -174.0 1.596e+04 3.141e-09
  1.40350   -174.0 1.596e+04 3.006e-09
  1.41683   -174.2 1.580e+04 2.699e-09
  1.42708   -174.3 1.465e+04 2.090e-09
  1.44451   -174.5 1.439e+04 1.849e-09
  1.46501   -174.8 1.393e+04 1.581e-09
  1.47970   -174.9 1.339e+04 1.364e-09
  1.48995   -174.4 1.311e+04 1.376e-09
  1.50601   -174.3 1.294e+04 1.237e-09
  1.52652   -174.1 1.279e+04 1.142e-09
  1.54256   -173.7 1.267e+04 1.091e-09
  1.55282   -173.3 1.266e+04 1.129e-09
  1.57787   -173.0 1.250e+04 1.043e-09
  1.60563   -171.1 1.218e+04 8.888e-10
  1.62613   -168.6 1.214e+04 9.139e-10
  1.65997   -166.4 1.189e+04 7.802e-10
  1.70098   -163.8 1.169e+04 6.682e-10
  1.73137   -161.1 1.153e+04 5.741e-10
  1.74152   -160.4 1.169e+04 6.336e-10
  1.75204   -159.6 1.161e+04 5.966e-10
  1.77254   -158.4 1.150e+04 5.389e-10
  1.79304   -157.7 1.142e+04 5.051e-10
  1.80429   -156.5 1.132e+04 4.635e-10
  1.81454   -155.9 1.140e+04 4.844e-10
  1.83405   -155.0 1.135e+04 4.678e-10
  1.85455   -154.0 1.130e+04 4.546e-10
  1.86716   -153.0 1.127e+04 4.478e-10
  1.87741   -152.4 1.135e+04 4.654e-10
  1.89555   -151.4 1.131e+04 4.595e-10
  1.91606   -150.7 1.130e+04 4.584e-10
  1.93003   -150.0 1.129e+04 4.647e-10
  1.94028   -149.4 1.137e+04 4.806e-10
  1.95706   -148.9 1.138e+04 4.952e-10
  1.97756   -148.5 1.141e+04 5.377e-10
  1.99290   -148.2 1.148e+04 6.051e-10
  2.00315   -147.9 1.162e+04 6.605e-10
  2.01857   -147.6 1.173e+04 7.757e-10
  2.03907   -147.3 1.187e+04 9.046e-10
  2.05577   -147.0 1.199e+04 1.022e-09
  2.06602   -146.9 1.220e+04 1.224e-09
  2.08007   -146.5 1.224e+04 1.311e-09
  2.10057   -145.9 1.224e+04 1.332e-09
  2.11864   -145.2 1.221e+04 1.334e-09
  2.12889   -144.9 1.235e+04 1.575e-09
  2.14158   -143.9 1.210e+04 1.423e-09
  2.16208   -142.8 1.182e+04 1.232e-09
  2.18150   -141.7 1.155e+04 1.044e-09
  2.19176   -141.5 1.159e+04 1.045e-09
  2.20308   -140.4 1.132e+04 8.793e-10
  2.22359   -139.3 1.109e+04 7.580e-10
  2.24409   -138.3 1.092e+04 6.687e-10
  2.25462   -137.1 1.077e+04 6.038e-10
  2.26488   -137.0 1.076e+04 5.979e-10
  2.28509   -135.7 1.065e+04 5.544e-10
  2.30559   -134.4 1.059e+04 5.273e-10
  2.31749   -133.1 1.056e+04 5.112e-10
  2.32774   -132.9 1.053e+04 5.067e-10
  2.34660   -131.6 1.052e+04 4.998e-10
  2.36710   -130.2 1.051e+04 4.946e-10
  2.38036   -128.9 1.050e+04 4.911e-10
  2.39061   -128.7 1.049e+04 4.830e-10
  2.40811   -127.7 1.048e+04 4.792e-10
  2.43896   -126.4 1.048e+04 4.745e-10
  2.48006   -123.5 1.035e+04 4.563e-10
  2.50630   -120.9 1.024e+04 4.450e-10
  2.52680   -119.9 1.001e+04 3.804e-10
  2.56207   -117.5 1.001e+04 3.796e-10
  2.60307   -115.5 1.001e+04 3.792e-10
  2.63203   -113.7 9.972e+03 3.824e-10
  2.65254   -113.1 9.905e+03 3.494e-10
  2.68508   -111.5 9.986e+03 3.879e-10
  2.72608   -109.9 1.006e+04 4.204e-10
  2.75777   -108.2 1.014e+04 4.553e-10
  2.77827   -108.0 1.064e+04 5.860e-10
  2.80809   -105.9 1.081e+04 6.558e-10
  2.84909   -103.5 1.118e+04 7.677e-10
  2.88351   -101.1 1.157e+04 8.829e-10
  2.90391   -101.4 1.266e+04 1.410e-09
  2.92066   -100.6 1.311e+04 1.787e-09
  2.94116    -99.9 1.354e+04 2.266e-09
  2.95643    -99.2 1.408e+04 3.035e-09
  2.96669    -98.6 1.428e+04 3.573e-09
  2.98216    -97.7 1.482e+04 4.488e-09
  3.00266    -96.6 1.548e+04 5.817e-09
  3.01930    -95.4 1.620e+04 7.650e-09
  3.02955    -94.8 1.605e+04 7.204e-09
  3.04367    -93.5 1.676e+04 9.189e-09
  3.06417    -92.8 1.755e+04 1.129e-08
  3.08217    -92.7 1.862e+04 1.311e-08
  3.09242    -93.5 1.939e+04 1.262e-08
  3.10518    -94.2 2.123e+04 1.568e-08
  3.11868    -94.4 2.246e+04 1.821e-08
  3.12376    -95.4 2.334e+04 2.086e-08
  3.13071    -95.7 2.426e+04 2.484e-08
  3.14096    -95.7 2.531e+04 3.084e-08
  3.15007    -95.5 2.638e+04 3.846e-08
  3.15519    -96.5 2.589e+04 4.661e-08
  3.16146    -96.5 2.638e+04 5.990e-08
  3.17171    -96.7 2.630e+04 8.377e-08
  3.18150    -97.4 2.587e+04 1.344e-07
  3.18663    -99.8 2.554e+04 1.338e-07
  3.19221   -101.2 2.425e+04 2.447e-07
  3.20246   -103.7 2.308e+04 4.380e-07
  3.21271   -109.0 2.274e+04 6.140e-07
  3.21806   -117.1 2.273e+04 6.544e-07
  3.22319   -117.9 2.255e+04 4.092e-07
  3.23322   -124.2 2.233e+04 3.304e-07
  3.24347   -128.9 2.238e+04 1.747e-07
  3.24950   -131.3 2.237e+04 7.922e-08
  3.25462   -128.9 2.258e+04 5.393e-08
  3.26397   -130.6 2.207e+04 2.977e-08
  3.27422   -131.7 2.114e+04 1.927e-08
  3.28093   -132.4 2.015e+04 1.427e-08
  3.28606   -131.2 2.004e+04 1.104e-08
  3.29472   -131.7 1.925e+04 9.327e-09
  3.30497   -131.8 1.847e+04 8.256e-09
  3.31237   -131.7 1.800e+04 7.890e-09
  3.31749   -131.2 1.803e+04 7.942e-09
  3.33065   -131.4 1.734e+04 7.741e-09
  3.34390   -131.1 1.658e+04 7.080e-09
  3.35415   -129.7 1.679e+04 6.884e-09
  3.37170   -129.4 1.661e+04 6.960e-09
  3.39220   -129.2 1.635e+04 7.513e-09
  3.40677   -129.3 1.666e+04 8.236e-09
  3.41702   -128.3 1.697e+04 8.498e-09
  3.43321   -129.5 1.780e+04 9.897e-09
  3.45371   -131.7 1.887e+04 1.112e-08
  3.46964   -135.5 1.947e+04 1.112e-08
  3.47989   -136.5 2.136e+04 1.449e-08
  3.48954   -140.3 2.200e+04 1.417e-08
  3.49974   -142.7 2.175e+04 1.321e-08
  3.51517   -147.0 2.053e+04 1.155e-08
  3.53251   -152.4 1.811e+04 8.881e-09
  3.54271   -152.9 1.932e+04 9.926e-09
  3.55617   -155.7 1.900e+04 8.350e-09
  3.57672   -158.5 1.924e+04 6.821e-09
  3.59537   -160.4 1.932e+04 6.512e-09
  3.60563   -161.4 2.005e+04 6.879e-09
  3.61773   -163.6 1.979e+04 6.913e-09
  3.63823   -165.1 1.928e+04 8.097e-09
  3.65824   -166.3 1.904e+04 1.013e-08
  3.66849   -166.7 1.883e+04 1.017e-08
  3.67923   -167.5 1.875e+04 1.130e-08
  3.69974   -168.4 1.868e+04 1.155e-08
  3.72024   -169.2 1.849e+04 1.156e-08
  3.73136   -170.2 1.804e+04 1.080e-08
  3.74161   -170.2 1.771e+04 8.823e-09
  3.76124   -171.2 1.715e+04 7.356e-09
  3.78174   -172.0 1.644e+04 5.690e-09
  3.79423   -172.7 1.562e+04 4.117e-09
  3.80448   -172.9 1.513e+04 3.112e-09
  3.82275   -173.3 1.431e+04 2.172e-09
  3.84325   -173.6 1.356e+04 1.499e-09
  3.85710   -173.9 1.289e+04 1.054e-09
  3.86735   -174.2 1.245e+04 8.581e-10
  3.88425   -174.5 1.195e+04 6.662e-10
  3.90476   -174.7 1.157e+04 5.557e-10
  3.91997   -174.7 1.132e+04 4.948e-10
  3.93022   -174.7 1.126e+04 4.976e-10
  3.94576   -174.5 1.120e+04 4.739e-10
  3.96626   -174.3 1.116e+04 4.544e-10
  3.98284   -174.1 1.115e+04 4.265e-10
  3.99309   -174.0 1.117e+04 4.295e-10
  4.00727   -173.8 1.114e+04 3.862e-10
  4.02777   -173.7 1.110e+04 3.516e-10
  4.04571   -173.5 1.104e+04 3.251e-10
  4.05596   -173.3 1.105e+04 3.258e-10
  4.07912   -173.0 1.099e+04 3.082e-10
  4.12022   -172.3 1.083e+04 2.782e-10
  4.16123   -171.5 1.062e+04 2.471e-10
  4.20223   -170.1 1.031e+04 2.023e-10
  4.24324   -169.1 1.014e+04 1.761e-10
  4.28424   -168.0 9.991e+03 1.518e-10
  4.30763   -166.8 9.859e+03 1.303e-10
  4.32813   -165.9 9.851e+03 1.240e-10
  4.36625   -164.4 9.753e+03 1.089e-10
  4.40725   -162.9 9.670e+03 9.694e-11
  4.43337   -161.4 9.594e+03 8.755e-11
  4.45387   -160.5 9.643e+03 9.243e-11
  4.48926   -158.9 9.607e+03 8.880e-11
  4.53026   -157.2 9.587e+03 8.752e-11
  4.55911   -155.6 9.577e+03 8.741e-11
  4.57961   -154.9 9.645e+03 1.048e-10
  4.61227   -153.3 9.640e+03 1.105e-10
  4.65328   -151.8 9.670e+03 1.242e-10
  4.68484   -150.1 9.740e+03 1.494e-10
  4.70535   -149.7 9.783e+03 1.759e-10
  4.73528   -148.1 9.864e+03 2.089e-10
  4.77629   -146.6 9.961e+03 2.438e-10
  4.81058   -145.2 1.006e+04 2.709e-10
  4.83108   -145.0 9.932e+03 2.533e-10
  4.85830   -143.8 9.935e+03 2.560e-10
  4.89930   -142.6 9.852e+03 2.431e-10
  4.93632   -141.2 9.713e+03 2.193e-10
  4.95682   -140.9 9.477e+03 1.888e-10
  4.98131   -139.5 9.350e+03 1.720e-10
  5.02231   -138.0 9.269e+03 1.638e-10
  5.06206   -136.4 9.247e+03 1.619e-10
  5.08256   -135.9 9.236e+03 1.623e-10
  5.10432   -134.2 9.234e+03 1.626e-10
  5.14533   -132.5 9.232e+03 1.703e-10
  5.18633   -130.8 9.240e+03 1.813e-10
  5.20830   -129.1 9.249e+03 1.909e-10
  5.22880   -128.8 9.173e+03 1.840e-10
  5.26834   -127.1 9.163e+03 1.868e-10
  5.30934   -125.2 9.154e+03 1.894e-10
  5.33404   -123.3 9.158e+03 1.949e-10
  5.35454   -123.1 9.027e+03 1.743e-10
  5.39135   -121.1 9.032e+03 1.800e-10
  5.43236   -119.2 9.095e+03 1.951e-10
  5.45977   -117.3 9.194e+03 2.169e-10
  5.48028   -117.0 8.972e+03 1.834e-10
  5.51436   -115.1 9.045e+03 1.948e-10
  5.55537   -113.2 9.148e+03 2.115e-10
  5.58551   -111.5 9.303e+03 2.422e-10
  5.60601   -111.1 9.060e+03 2.136e-10
  5.63738   -109.6 9.299e+03 2.655e-10
  5.67838   -108.4 9.641e+03 3.562e-10
  5.71125   -107.3 1.002e+04 4.844e-10
  5.73175   -107.0 1.001e+04 4.896e-10
  5.76039   -106.2 1.035e+04 6.356e-10
  5.80139   -105.6 1.059e+04 7.551e-10
  5.83699   -104.9 1.072e+04 8.256e-10
  5.85739   -105.0 1.065e+04 7.916e-10
  5.87295   -105.0 1.048e+04 7.737e-10
  5.89346   -105.0 1.028e+04 6.972e-10
  5.90991   -105.0 1.011e+04 6.379e-10
  5.92016   -105.0 9.964e+03 5.817e-10
  5.93446   -105.0 9.954e+03 5.706e-10
  5.95496   -105.1 1.001e+04 5.707e-10
  5.97278   -105.2 1.014e+04 6.071e-10
  5.98303   -104.9 1.008e+04 5.821e-10
  5.99597   -105.0 1.024e+04 6.495e-10
  6.01647   -105.0 1.036e+04 7.275e-10
  6.03565   -104.9 1.041e+04 7.896e-10
  6.04590   -104.5 1.040e+04 7.860e-10
  6.05747   -104.3 1.040e+04 8.112e-10
  6.07797   -104.1 1.038e+04 8.147e-10
  6.09848   -103.9 1.023e+04 7.787e-10
  6.11898   -103.3 1.011e+04 7.170e-10
  6.13948   -103.2 9.928e+03 6.304e-10
  6.15998   -103.6 9.789e+03 5.605e-10
  6.17164   -104.2 9.735e+03 5.172e-10
  6.18189   -103.4 9.928e+03 5.842e-10
  6.20099   -104.6 9.939e+03 5.769e-10
  6.22149   -107.6 1.014e+04 6.301e-10
  6.23451   -112.5 1.223e+04 1.017e-09
  6.24476   -113.8 1.378e+04 1.467e-09
  6.26249   -118.3 1.676e+04 2.637e-09
  6.27782   -120.0 1.778e+04 3.573e-09
  6.28802   -122.6 1.939e+04 5.334e-09
  6.29728   -125.4 2.028e+04 8.710e-09
  6.30241   -126.4 2.059e+04 1.185e-08
  6.30853   -127.9 2.043e+04 1.556e-08
  6.31878   -129.0 2.018e+04 1.727e-08
  6.32871   -129.8 1.958e+04 1.760e-08
  6.33384   -130.1 1.964e+04 1.740e-08
  6.33928   -130.9 1.922e+04 1.552e-08
  6.34953   -131.9 1.876e+04 1.294e-08
  6.35978   -133.0 1.821e+04 1.059e-08
  6.36527   -133.6 1.781e+04 8.834e-09
  6.37045   -134.5 1.784e+04 7.829e-09
  6.38551   -135.4 1.739e+04 5.302e-09
  6.40601   -137.3 1.655e+04 2.905e-09
  6.42312   -140.0 1.445e+04 1.457e-09
  6.43337   -142.0 1.287e+04 1.055e-09
  6.44701   -143.6 1.096e+04 7.969e-10
  6.46751   -144.3 1.043e+04 7.410e-10
  6.48598   -144.3 1.040e+04 7.375e-10
  6.49624   -144.4 1.024e+04 6.597e-10
  6.50852   -143.7 1.031e+04 6.667e-10
  6.53937   -142.9 1.043e+04 6.735e-10
  6.58047   -141.4 1.089e+04 7.967e-10
  6.61192   -140.5 1.135e+04 9.449e-10
  6.63242   -140.1 1.052e+04 5.943e-10
  6.66248   -139.5 1.057e+04 6.433e-10
  6.70348   -138.8 1.052e+04 6.600e-10
  6.73766   -137.8 1.042e+04 6.646e-10
  6.75816   -137.7 9.659e+03 4.531e-10
  6.78549   -136.3 9.586e+03 4.508e-10
  6.82650   -134.5 9.522e+03 4.042e-10
  6.86339   -132.6 9.435e+03 3.447e-10
  6.88390   -132.7 9.367e+03 3.165e-10
  6.90850   -130.5 9.247e+03 2.688e-10
  6.94951   -128.3 9.179e+03 2.317e-10
  6.98913   -126.0 9.049e+03 1.990e-10
  7.00963   -126.4 8.951e+03 1.836e-10
  7.03152   -123.8 8.833e+03 1.691e-10
  7.07252   -121.1 8.767e+03 1.637e-10
  7.11352   -118.4 8.701e+03 1.598e-10
  7.13537   -115.7 8.715e+03 1.586e-10
  7.15587   -116.3 8.581e+03 1.511e-10
  7.19553   -113.8 8.845e+03 2.012e-10
  7.23654   -111.4 9.677e+03 3.066e-10
  7.26111   -108.7 1.087e+04 4.857e-10
  7.28161   -110.9 1.110e+04 5.763e-10
  7.30820   -108.9 1.189e+04 7.829e-10
  7.32378   -109.5 1.264e+04 1.113e-09
  7.33403   -113.1 1.359e+04 1.784e-09
  7.34910   -113.9 1.442e+04 2.777e-09
  7.36960   -114.7 1.523e+04 3.818e-09
  7.38665   -115.8 1.592e+04 4.720e-09
  7.39690   -120.0 1.586e+04 4.539e-09
  7.41061   -122.6 1.611e+04 4.646e-09
  7.43111   -126.0 1.604e+04 4.280e-09
  7.44952   -129.9 1.540e+04 3.616e-09
  7.45977   -134.8 1.381e+04 2.527e-09
  7.47212   -138.2 1.276e+04 1.972e-09
  7.49262   -141.1 1.186e+04 1.493e-09
  7.51239   -143.9 1.126e+04 1.108e-09
  7.52264   -145.5 1.079e+04 8.618e-10
  7.53362   -148.0 1.040e+04 6.613e-10
  7.55412   -150.5 1.008e+04 5.407e-10
  7.57463   -152.7 9.901e+03 4.868e-10
  7.58551   -154.3 9.857e+03 4.725e-10
  7.59576   -154.6 9.624e+03 4.118e-10
  7.61563   -155.7 9.635e+03 4.113e-10
  7.63613   -156.6 9.727e+03 4.253e-10
  7.64838   -157.1 9.820e+03 4.504e-10
  7.65863   -156.9 9.647e+03 4.151e-10
  7.67714   -157.1 9.738e+03 4.398e-10
  7.69764   -157.1 9.823e+03 4.611e-10
  7.71125   -157.0 9.886e+03 4.816e-10
  7.72150   -156.7 9.673e+03 4.517e-10
  7.73864   -156.2 9.771e+03 4.728e-10
  7.75914   -155.5 9.917e+03 5.044e-10
  7.77412   -154.7 1.013e+04 5.495e-10
  7.78437   -154.4 9.968e+03 5.393e-10
  7.80015   -153.5 1.021e+04 5.983e-10
  7.82065   -152.4 1.043e+04 6.655e-10
  7.83699   -151.4 1.056e+04 7.274e-10
  7.84724   -151.4 1.046e+04 7.328e-10
  7.86165   -151.1 1.080e+04 7.865e-10
  7.88216   -152.6 1.381e+04 8.249e-10
  7.89985   -160.6 3.332e+04 9.954e-10
  7.91011   -163.0 3.267e+04 1.592e-09
  7.92316   -171.1 3.604e+04 4.758e-09
  7.93637   -171.1 4.083e+04 3.694e-09
  7.94144   -170.4 3.723e+04 3.497e-09
  7.94869   -172.7 3.475e+04 6.660e-09
  7.95894   -174.0 3.205e+04 1.122e-08
  7.96775   -175.0 2.934e+04 1.732e-08
  7.97288   -176.2 2.688e+04 1.351e-08
  7.97944   -177.4 2.548e+04 1.606e-08
  7.98969   -178.8 2.489e+04 1.697e-08
  7.99919   -180.6 2.355e+04 1.740e-08
  8.00431   -181.9 2.186e+04 1.455e-08
  8.01020   -184.1 2.105e+04 1.438e-08
  8.02554   -185.9 2.055e+04 1.340e-08
  8.04609   -189.4 1.581e+04 5.319e-09
  8.06668   -192.0 1.332e+04 2.632e-09
  8.08718   -194.0 1.101e+04 1.377e-09
  8.09871   -194.9 1.002e+04 8.472e-10
  8.10896   -193.6 1.000e+04 7.993e-10
  8.12818   -193.2 9.705e+03 6.341e-10
  8.14868   -191.9 9.362e+03 5.144e-10
  8.16158   -190.4 9.090e+03 4.280e-10
  8.17183   -188.5 9.087e+03 4.183e-10
  8.18969   -187.3 9.019e+03 3.773e-10
  8.22054   -186.4 9.003e+03 3.499e-10
  8.26164   -184.1 8.788e+03 2.909e-10
  8.28751   -181.0 8.463e+03 2.345e-10
  8.30802   -179.1 8.431e+03 2.359e-10
  8.34365   -176.1 8.207e+03 1.959e-10
  8.38465   -173.2 8.076e+03 1.680e-10
  8.41325   -170.3 8.009e+03 1.490e-10
  8.43375   -169.0 8.046e+03 1.563e-10
  8.46666   -166.4 8.022e+03 1.425e-10
  8.50766   -163.8 8.030e+03 1.343e-10
  8.53899   -161.2 8.056e+03 1.311e-10
  8.55949   -160.7 8.183e+03 1.505e-10
  8.58967   -158.4 8.190e+03 1.502e-10
  8.63068   -156.2 8.220e+03 1.571e-10
  8.66473   -154.3 8.556e+03 1.909e-10
  8.68523   -153.9 8.756e+03 2.378e-10
  8.71269   -152.1 9.043e+03 2.826e-10
  8.75369   -150.6 9.341e+03 3.366e-10
  8.79047   -149.3 9.636e+03 3.880e-10
  8.81097   -149.0 9.533e+03 3.785e-10
  8.83570   -147.9 9.759e+03 4.134e-10
  8.87670   -146.9 1.010e+04 4.778e-10
  8.91620   -146.1 1.060e+04 6.161e-10
  8.93671   -145.3 1.049e+04 5.853e-10
  8.95871   -144.5 1.102e+04 7.653e-10
  8.99971   -143.9 1.159e+04 1.052e-09
  9.04072   -143.1 1.208e+04 1.418e-09
  9.06244   -142.3 1.244e+04 1.739e-09
  9.08295   -141.8 1.247e+04 1.697e-09
  9.12273   -140.8 1.270e+04 1.922e-09
  9.16373   -139.8 1.271e+04 1.948e-09
  9.18808   -138.5 1.231e+04 1.689e-09
  9.19824   -138.5 1.234e+04 1.718e-09
  9.21479   -137.7 1.211e+04 1.568e-09
  9.23529   -136.8 1.188e+04 1.389e-09
  9.25086   -135.8 1.166e+04 1.213e-09
  9.26111   -135.6 1.177e+04 1.262e-09
  9.27630   -134.7 1.159e+04 1.103e-09
  9.29680   -133.7 1.140e+04 9.551e-10
  9.31372   -132.7 1.122e+04 8.203e-10
  9.32398   -132.7 1.138e+04 8.779e-10
  9.33780   -131.8 1.120e+04 7.651e-10
  9.35831   -130.8 1.101e+04 6.617e-10
  9.37659   -129.7 1.085e+04 5.672e-10
  9.38684   -129.8 1.096e+04 6.256e-10
  9.39931   -128.4 1.084e+04 5.390e-10
  9.41981   -127.3 1.081e+04 4.799e-10
  9.43956   -126.5 1.081e+04 4.404e-10
  9.46016   -126.7 1.079e+04 4.369e-10
  9.49176   -124.8 1.055e+04 3.635e-10
  9.53277   -122.3 1.016e+04 2.796e-10
  9.56540   -119.7 9.794e+03 2.074e-10
  9.58590   -119.1 9.693e+03 1.823e-10
  9.61478   -116.5 9.498e+03 1.366e-10
  9.65578   -114.0 9.370e+03 1.051e-10
  9.69113   -111.5 9.286e+03 8.482e-11
  9.71164   -111.0 9.318e+03 8.202e-11
  9.73779   -108.5 9.243e+03 7.359e-11
  9.77879   -106.0 9.186e+03 6.926e-11
  9.81687   -103.5 9.148e+03 6.777e-11
  9.83737   -102.9 9.215e+03 7.664e-11
  9.86080   -100.4 9.204e+03 7.961e-11
  9.90181    -97.9 9.176e+03 8.596e-11
  9.94261    -95.4 9.179e+03 9.562e-11
  9.96311    -94.9 9.310e+03 1.019e-10
  9.98381    -92.4 9.333e+03 1.123e-10
 10.02482    -89.9 9.369e+03 1.291e-10
 10.06582    -87.5 9.457e+03 1.536e-10
 10.08885    -85.2 9.581e+03 1.855e-10
 10.10935    -85.2 9.606e+03 1.705e-10
 10.14783    -83.0 9.714e+03 2.047e-10
 10.18883    -81.0 9.814e+03 2.420e-10
 10.21459    -79.0 9.893e+03 2.764e-10
 10.23509    -79.1 9.774e+03 2.240e-10
 10.27084    -77.1 9.773e+03 2.343e-10
 10.31185    -75.0 9.761e+03 2.358e-10
 10.34032    -72.9 9.692e+03 2.179e-10
 10.36083    -72.8 9.485e+03 1.409e-10
 10.39385    -70.6 9.422e+03 1.140e-10
 10.43486    -68.6 9.375e+03 8.879e-11
 10.46606    -66.6 9.308e+03 6.981e-11
 10.48656    -66.6 9.087e+03 6.142e-11
 10.51687    -64.6 9.034e+03 5.668e-11
 10.55787    -62.4 8.976e+03 5.362e-11
 10.59180    -60.1 8.935e+03 5.237e-11
 10.61230    -59.7 8.946e+03 5.418e-11
 10.63988    -57.4 8.943e+03 5.416e-11
 10.68088    -55.2 8.922e+03 5.797e-11
 10.71754    -52.9 8.938e+03 6.354e-11
 10.73804    -52.5 9.003e+03 6.968e-11
 10.76289    -50.3 9.038e+03 7.636e-11
 10.80390    -48.2 9.059e+03 8.441e-11
 10.84328    -46.1 9.065e+03 9.241e-11
 10.86378    -45.9 9.189e+03 1.121e-10
 10.88590    -43.8 9.205e+03 1.247e-10
 10.92691    -41.8 9.203e+03 1.351e-10
 10.96791    -39.7 9.197e+03 1.434e-10
 10.98952    -37.6 9.205e+03 1.510e-10
 11.01002    -37.6 9.570e+03 2.321e-10
 11.04992    -35.5 9.567e+03 2.363e-10
 11.09093    -33.3 9.583e+03 2.416e-10
 11.11525    -31.1 9.596e+03 2.465e-10
 11.13576    -31.4 9.943e+03 3.357e-10
 11.17293    -29.3 9.990e+03 3.369e-10
 11.21394    -27.3 1.005e+04 3.522e-10
 11.24099    -25.4 1.010e+04 3.755e-10
 11.26149    -26.0 1.052e+04 4.990e-10
 11.29595    -24.3 1.070e+04 5.744e-10
 11.32660    -23.3 1.087e+04 6.475e-10
 11.34701    -22.9 1.089e+04 6.607e-10
 11.36653    -22.1 1.094e+04 6.786e-10
 11.37679    -22.5 1.125e+04 8.118e-10
 11.38801    -22.0 1.121e+04 8.021e-10
 11.40851    -21.4 1.120e+04 7.881e-10
 11.42901    -21.1 1.113e+04 7.474e-10
 11.43965    -20.8 1.114e+04 7.358e-10
 11.44991    -21.2 1.138e+04 8.571e-10
 11.47002    -21.1 1.146e+04 8.742e-10
 11.49052    -21.1 1.155e+04 9.114e-10
 11.50252    -21.1 1.164e+04 9.366e-10
 11.51277    -22.0 1.234e+04 1.358e-09
 11.53152    -22.0 1.250e+04 1.399e-09
 11.55203    -22.1 1.269e+04 1.378e-09
 11.56539    -22.3 1.293e+04 1.265e-09
 11.57564    -24.9 1.544e+04 3.576e-09
 11.59303    -25.9 1.561e+04 3.710e-09
 11.61353    -26.7 1.547e+04 3.893e-09
 11.62826    -27.1 1.530e+04 4.109e-09
 11.63851    -27.8 1.672e+04 1.010e-08
 11.65454    -27.2 1.626e+04 9.139e-09
 11.67504    -26.4 1.594e+04 8.165e-09
 11.69113    -25.6 1.574e+04 7.261e-09
 11.70138    -26.1 1.622e+04 7.836e-09
 11.71604    -25.7 1.578e+04 6.461e-09
 11.73654    -25.0 1.524e+04 5.316e-09
 11.75400    -24.0 1.485e+04 4.498e-09
 11.76425    -24.4 1.453e+04 3.540e-09
 11.77755    -23.6 1.414e+04 3.014e-09
 11.79805    -22.7 1.377e+04 2.562e-09
 11.81687    -21.7 1.351e+04 2.307e-09
 11.82712    -22.2 1.307e+04 1.556e-09
 11.83906    -21.2 1.300e+04 1.453e-09
 11.85956    -20.4 1.301e+04 1.372e-09
 11.87974    -19.5 1.302e+04 1.287e-09
 11.89009    -20.3 1.260e+04 6.746e-10
 11.91101    -19.0 1.264e+04 5.628e-10
 11.95201    -18.4 1.251e+04 4.850e-10
 11.99302    -18.4 1.218e+04 4.504e-10
 12.01592    -18.6 1.178e+04 5.257e-10
 12.03642    -19.4 1.149e+04 4.769e-10
 12.07502    -17.9 1.178e+04 6.951e-10
 12.11603    -16.4 1.201e+04 8.361e-10
 12.14166    -15.2 1.240e+04 9.713e-10
 12.16216    -16.2 1.262e+04 9.987e-10
 12.19804    -16.3 1.329e+04 1.331e-09
 12.22869    -16.5 1.354e+04 1.424e-09
 12.24910    -16.4 1.399e+04 1.855e-09
 12.26720    -16.4 1.421e+04 2.182e-09
 12.27745    -17.4 1.408e+04 1.536e-09
 12.29010    -17.9 1.428e+04 1.723e-09
 12.31060    -18.4 1.459e+04 1.975e-09
 12.33007    -19.9 1.462e+04 2.310e-09
 12.34032    -21.4 1.381e+04 1.434e-09
 12.35161    -22.6 1.376e+04 1.680e-09
 12.37211    -23.4 1.399e+04 1.845e-09
 12.39261    -24.2 1.421e+04 1.917e-09
 12.40319    -25.4 1.444e+04 1.771e-09
 12.41344    -27.2 1.370e+04 1.113e-09
 12.43362    -29.2 1.316e+04 1.099e-09
 12.45412    -30.5 1.280e+04 1.107e-09
 12.46606    -31.0 1.267e+04 1.111e-09
 12.47631    -30.9 1.256e+04 9.334e-10
 12.49512    -31.1 1.258e+04 8.857e-10
 12.51562    -31.4 1.255e+04 7.908e-10
 12.52893    -31.9 1.248e+04 6.865e-10
 12.53918    -32.4 1.240e+04 5.861e-10
 12.55663    -32.8 1.223e+04 5.516e-10
 12.57713    -33.0 1.205e+04 5.205e-10
 12.59180    -33.1 1.187e+04 4.817e-10
 12.60205    -33.3 1.196e+04 5.021e-10
 12.61813    -33.0 1.187e+04 4.733e-10
 12.64451    -32.6 1.181e+04 4.377e-10
 12.66502    -32.7 1.191e+04 4.747e-10
 12.68999    -32.2 1.186e+04 4.524e-10
 12.73109    -31.3 1.178e+04 4.195e-10
 12.77035    -30.1 1.185e+04 4.376e-10
 12.79085    -30.8 1.199e+04 5.647e-10
 12.81310    -29.7 1.213e+04 7.789e-10
 12.85410    -28.4 1.225e+04 9.237e-10
 12.89511    -27.0 1.228e+04 9.803e-10
 12.91659    -25.7 1.217e+04 9.184e-10
 12.93709    -25.7 1.174e+04 6.605e-10
 12.97712    -24.4 1.153e+04 4.708e-10
 13.01812    -23.2 1.138e+04 3.551e-10
 13.04233    -21.8 1.125e+04 2.921e-10
 13.06283    -21.6 1.097e+04 2.058e-10
 13.10013    -19.9 1.101e+04 1.907e-10
 13.14113    -18.2 1.112e+04 1.817e-10
 13.16807    -16.9 1.124e+04 1.921e-10
 13.18857    -17.0 1.120e+04 2.078e-10
 13.22314    -16.0 1.127e+04 3.225e-10
 13.26414    -14.9 1.143e+04 4.939e-10
 13.29380    -13.8 1.157e+04 6.270e-10
 13.31431    -13.6 1.181e+04 8.682e-10
 13.34615    -12.9 1.152e+04 7.584e-10
 13.38716    -11.8 1.093e+04 4.199e-10
 13.41954    -10.6 1.048e+04 2.112e-10
 13.44004    -10.8 1.034e+04 1.526e-10
 13.46916     -9.6 1.011e+04 8.165e-11
 13.51017     -7.9 1.002e+04 5.428e-11
 13.54528     -5.9 9.903e+03 4.151e-11
 13.56578     -5.5 9.747e+03 4.056e-11
 13.59218     -3.3 9.722e+03 3.335e-11
 13.63318     -1.1 9.665e+03 3.043e-11
 13.67102      1.3 9.665e+03 3.013e-11
 13.69152      1.9 9.678e+03 3.111e-11
 13.71519      4.0 9.653e+03 3.546e-11
 13.75619      6.4 9.588e+03 4.318e-11
 13.79675      8.9 9.606e+03 5.216e-11
 13.81726      9.3 9.635e+03 6.679e-11
 13.83820     11.8 9.674e+03 8.116e-11
 13.87921     14.1 9.753e+03 9.521e-11
 13.92021     16.1 9.730e+03 1.118e-10
 13.94299     18.0 9.829e+03 1.362e-10
 13.96350     18.7 9.890e+03 1.623e-10
 14.00222     20.3 1.003e+04 2.079e-10
 14.04322     21.7 1.028e+04 3.051e-10
 14.06873     23.2 1.059e+04 5.048e-10
 14.08923     24.1 1.052e+04 4.519e-10
 14.12523     25.5 1.095e+04 7.067e-10
 14.16624     26.5 1.147e+04 9.631e-10
 14.19447     27.2 1.180e+04 1.265e-09
 14.21497     27.8 1.187e+04 1.277e-09
 14.24824     28.5 1.216e+04 1.625e-09
 14.28925     29.9 1.159e+04 1.284e-09
 14.32021     32.0 1.051e+04 6.440e-10
 14.34071     32.4 1.114e+04 9.954e-10
 14.37126     34.5 9.999e+03 3.923e-10
 14.41226     35.5 9.298e+03 1.344e-10
 14.44595     36.1 9.046e+03 5.801e-11
 14.46645     36.9 9.153e+03 9.866e-11
 14.49427     38.3 8.877e+03 6.035e-11
 14.53527     40.4 8.667e+03 5.365e-11
 14.57168     42.9 8.641e+03 5.498e-11
 14.59219     43.2 8.747e+03 8.267e-11
 14.61728     45.6 8.721e+03 8.425e-11
 14.65828     48.1 8.723e+03 8.832e-11
 14.69742     50.5 8.766e+03 9.565e-11
 14.71792     50.8 8.816e+03 1.349e-10
 14.74029     53.0 8.873e+03 1.411e-10
 14.78130     55.0 8.973e+03 1.620e-10
 14.82230     56.9 9.154e+03 2.137e-10
 14.84366     58.9 9.409e+03 2.987e-10
 14.86416     59.5 9.224e+03 2.543e-10
 14.90431     61.5 9.443e+03 3.342e-10
 14.94531     63.6 9.624e+03 4.111e-10
 14.96940     65.6 9.708e+03 4.615e-10
 14.98990     66.5 9.635e+03 4.340e-10
 15.02732     68.6 9.790e+03 5.077e-10
 15.06833     70.8 9.941e+03 5.801e-10
 15.09514     73.0 9.949e+03 5.823e-10
 15.11564     73.8 1.008e+04 6.508e-10
 15.15033     76.0 1.012e+04 6.628e-10
 15.19134     78.2 1.003e+04 6.145e-10
 15.22088     80.5 9.751e+03 4.617e-10
 15.24138     81.2 9.922e+03 5.744e-10
 15.27335     83.5 9.626e+03 4.236e-10
 15.31435     85.7 9.277e+03 2.843e-10
 15.34661     87.9 8.976e+03 1.944e-10
 15.36712     88.7 9.187e+03 2.793e-10
 15.39636     91.0 8.968e+03 2.124e-10
 15.43736     93.4 8.800e+03 1.729e-10
 15.47235     95.9 8.676e+03 1.504e-10
 15.49285     96.7 8.942e+03 2.283e-10
 15.51937     99.3 8.847e+03 2.036e-10
 15.56038    101.9 8.772e+03 1.868e-10
 15.59809    104.5 8.722e+03 1.769e-10
 15.61859    105.3 9.069e+03 2.691e-10
 15.64238    107.9 9.016e+03 2.503e-10
 15.68339    110.4 8.976e+03 2.384e-10
 15.72383    112.8 8.962e+03 2.382e-10
 15.74433    113.2 9.241e+03 3.031e-10
 15.76540    115.5 9.185e+03 2.998e-10
 15.80640    117.7 9.206e+03 3.073e-10
 15.84740    119.9 9.292e+03 3.303e-10
 15.87007    121.9 9.461e+03 3.677e-10
 15.89057    121.9 9.568e+03 4.166e-10
 15.91906    123.0 9.628e+03 4.380e-10
 15.93274    123.5 9.666e+03 4.554e-10
 15.94299    123.6 9.730e+03 5.020e-10
 15.95997    124.5 9.875e+03 5.783e-10
 15.98047    125.3 1.002e+04 6.596e-10
 15.99561    126.1 1.015e+04 7.251e-10
 16.00586    126.2 1.031e+04 8.058e-10
 16.02148    126.7 1.038e+04 8.454e-10
 16.04198    127.3 1.038e+04 8.349e-10
 16.05848    127.9 1.035e+04 7.997e-10
 16.06873    128.0 1.044e+04 8.681e-10
 16.08298    128.5 1.038e+04 8.070e-10
 16.10348    128.8 1.032e+04 7.350e-10
 16.12135    128.9 1.034e+04 6.797e-10
 16.13160    129.1 1.029e+04 7.095e-10
 16.14449    129.1 1.033e+04 6.748e-10
 16.16499    128.9 1.046e+04 6.790e-10
 16.18422    128.3 1.076e+04 7.208e-10
 16.19447    129.0 1.047e+04 7.016e-10
 16.20600    128.4 1.072e+04 7.455e-10
 16.22650    127.6 1.132e+04 8.131e-10
 16.24700    126.7 1.176e+04 9.818e-10
 16.26750    126.7 1.171e+04 9.980e-10
 16.28800    125.6 1.202e+04 1.277e-09
 16.30851    124.7 1.228e+04 1.668e-09
 16.32021    124.3 1.253e+04 2.124e-09
 16.33046    124.5 1.263e+04 2.157e-09
 16.34951    124.3 1.291e+04 2.590e-09
 16.37001    124.2 1.315e+04 2.696e-09
 16.38307    124.0 1.319e+04 2.600e-09
 16.39333    123.7 1.315e+04 2.679e-09
 16.41102    123.3 1.299e+04 2.192e-09
 16.43152    122.2 1.302e+04 1.704e-09
 16.44594    120.3 1.366e+04 1.559e-09
 16.45619    119.6 1.236e+04 1.143e-09
 16.47252    117.4 1.249e+04 1.132e-09
 16.49302    115.9 1.284e+04 1.190e-09
 16.50881    114.9 1.334e+04 1.327e-09
 16.51906    113.8 1.215e+04 1.143e-09
 16.53403    113.0 1.233e+04 1.185e-09
 16.55453    112.6 1.234e+04 1.185e-09
 16.58538    113.2 1.213e+04 1.050e-09
 16.62449    113.9 1.163e+04 7.843e-10
 16.64500    113.5 1.150e+04 8.058e-10
 16.66749    114.9 1.090e+04 5.020e-10
 16.70849    116.4 1.034e+04 3.085e-10
 16.74950    118.2 9.914e+03 2.409e-10
 16.77073    120.5 9.850e+03 2.393e-10
 16.79124    120.4 9.899e+03 2.815e-10
 16.83150    122.8 9.891e+03 2.859e-10
 16.87251    125.3 9.900e+03 3.057e-10
 16.89647    127.9 1.006e+04 3.502e-10
 16.91697    127.7 1.024e+04 4.032e-10
 16.95452    130.0 1.036e+04 4.360e-10
 16.99552    132.3 1.058e+04 4.936e-10
 17.02221    134.6 1.089e+04 5.739e-10
 17.04271    134.1 1.102e+04 6.129e-10
 17.07753    136.3 1.146e+04 7.626e-10
 17.10818    136.9 1.163e+04 8.595e-10
 17.12859    137.3 1.191e+04 1.005e-09
 17.14775    137.8 1.227e+04 1.255e-09
 17.15800    138.0 1.245e+04 1.296e-09
 17.16959    138.3 1.278e+04 1.581e-09
 17.19009    138.8 1.314e+04 2.015e-09
 17.21060    139.3 1.345e+04 2.486e-09
 17.23110    139.5 1.397e+04 3.160e-09
 17.25160    139.7 1.428e+04 3.769e-09
 17.27210    140.0 1.456e+04 4.338e-09
 17.28374    140.1 1.480e+04 4.868e-09
 17.29399    139.9 1.476e+04 4.863e-09
 17.31311    140.1 1.497e+04 5.233e-09
 17.33361    140.0 1.508e+04 5.435e-09
 17.34661    139.8 1.508e+04 5.421e-09
 17.35686    139.6 1.496e+04 4.983e-09
 17.37461    139.3 1.497e+04 4.968e-09
 17.39512    139.0 1.493e+04 4.859e-09
 17.40948    138.7 1.482e+04 4.669e-09
 17.41973    138.5 1.474e+04 4.366e-09
 17.43612    138.3 1.459e+04 4.163e-09
 17.45662    137.9 1.436e+04 3.767e-09
 17.47235    137.5 1.395e+04 3.100e-09
 17.48260    137.6 1.404e+04 3.228e-09
 17.49763    137.1 1.353e+04 2.479e-09
 17.51813    136.5 1.287e+04 1.755e-09
 17.53522    135.7 1.215e+04 1.202e-09
 17.54547    136.1 1.227e+04 1.201e-09
 17.55913    135.3 1.155e+04 7.875e-10
 17.57963    134.3 1.102e+04 5.580e-10
 17.59809    133.6 1.068e+04 4.709e-10
 17.60834    133.5 1.055e+04 4.110e-10
 17.62064    133.3 1.037e+04 3.997e-10
 17.64114    133.3 1.033e+04 3.984e-10
 17.66096    133.3 1.033e+04 4.002e-10
 17.67121    133.4 1.027e+04 3.735e-10
 17.68214    133.5 1.027e+04 3.834e-10
 17.70265    133.5 1.028e+04 4.007e-10
 17.72315    133.6 1.033e+04 4.268e-10
 17.73408    133.6 1.037e+04 4.444e-10
 17.74433    133.5 1.040e+04 4.570e-10
 17.76415    133.4 1.047e+04 4.837e-10
 17.78465    133.3 1.054e+04 5.104e-10
 17.79694    133.2 1.059e+04 5.381e-10
 17.80720    132.9 1.082e+04 6.326e-10
 17.82566    132.7 1.093e+04 6.855e-10
 17.84616    132.5 1.103e+04 7.401e-10
 17.85981    132.2 1.113e+04 7.979e-10
 17.87006    131.6 1.158e+04 1.032e-09
 17.88716    131.3 1.170e+04 1.115e-09
 17.90767    130.9 1.184e+04 1.203e-09
 17.92268    130.5 1.197e+04 1.283e-09
 17.93293    129.7 1.245e+04 1.623e-09
 17.94867    129.2 1.248e+04 1.643e-09
 17.96917    128.6 1.244e+04 1.581e-09
 17.98555    128.3 1.237e+04 1.496e-09
 17.99580    127.2 1.262e+04 1.685e-09
 18.02053    127.1 1.205e+04 1.214e-09
 18.04862    126.0 1.141e+04 7.971e-10
 18.06912    123.6 1.122e+04 6.563e-10
 18.10263    122.0 1.059e+04 3.799e-10
 18.14364    120.0 1.035e+04 3.015e-10
 18.17435    118.1 1.035e+04 3.078e-10
 18.19486    116.5 1.037e+04 3.115e-10
 18.21530    114.8 1.046e+04 3.399e-10
 18.23570    113.9 1.057e+04 3.723e-10
 18.26655    111.3 1.102e+04 5.938e-10
 18.30009    108.1 1.169e+04 1.071e-09
 18.32050    106.9 1.188e+04 1.228e-09
 18.34856    104.2 1.229e+04 1.562e-09
 18.38966    100.8 1.224e+04 1.529e-09
 18.42583     98.0 1.175e+04 1.182e-09
 18.44633     97.7 1.198e+04 1.324e-09
 18.47167     95.4 1.110e+04 6.880e-10
 18.51267     92.7 1.016e+04 3.101e-10
 18.55157     90.4 9.512e+03 2.091e-10
 18.57207     89.4 9.825e+03 2.882e-10
 18.59468     88.9 9.785e+03 2.984e-10
 18.63569     89.1 9.743e+03 3.243e-10
 18.67669     89.8 9.734e+03 3.462e-10
 18.69781     90.9 9.733e+03 3.486e-10
 18.71831     90.4 9.800e+03 3.635e-10
 18.75870     91.6 9.682e+03 3.178e-10
 18.79970     92.9 9.551e+03 2.680e-10
 18.82355     94.1 9.423e+03 2.178e-10
 18.84405     93.4 9.282e+03 1.568e-10
 18.88171     94.5 9.271e+03 1.433e-10
 18.92271     95.5 9.335e+03 1.523e-10
 18.94928     95.8 9.637e+03 2.124e-10
 18.96979     95.3 9.768e+03 2.428e-10
 18.99437     95.2 1.017e+04 3.737e-10
 19.01196     95.2 1.038e+04 4.695e-10
 19.02221     95.0 1.046e+04 5.002e-10
 19.03528     95.0 1.086e+04 7.136e-10
 19.05578     95.1 1.135e+04 1.014e-09
 19.07492     95.1 1.171e+04 1.117e-09
 19.08517     95.0 1.182e+04 1.244e-09
 19.09679     94.9 1.196e+04 1.251e-09
 19.11729     94.6 1.198e+04 1.217e-09
 19.13769     94.2 1.193e+04 1.161e-09
 19.15820     94.3 1.176e+04 9.536e-10
 19.17879     94.0 1.140e+04 7.348e-10
 19.20066     94.0 1.103e+04 5.078e-10
 19.22116     93.7 1.090e+04 4.252e-10
 19.25065     93.5 1.068e+04 3.176e-10
 19.29175     93.5 1.031e+04 2.129e-10
 19.32650     93.9 9.965e+03 1.723e-10
 19.34700     92.3 1.073e+04 3.745e-10
 19.37376     93.2 1.066e+04 4.160e-10
 19.41476     94.5 1.068e+04 4.745e-10
 19.45223     96.1 1.072e+04 5.394e-10
 19.47274     94.6 1.131e+04 8.184e-10
 19.49677     96.5 1.103e+04 6.428e-10
 19.53778     98.5 1.070e+04 5.062e-10
 19.57797    100.5 1.045e+04 4.062e-10
 19.59847     98.6 1.031e+04 2.460e-10
 19.61978    100.7 1.000e+04 2.043e-10
 19.66079    103.0 9.760e+03 1.874e-10
 19.70179    105.4 9.568e+03 1.830e-10
 19.72421    108.0 9.514e+03 1.834e-10
 19.74471    106.6 9.302e+03 1.435e-10
 19.78380    109.2 9.273e+03 1.453e-10
 19.82481    111.8 9.223e+03 1.522e-10
 19.84995    114.2 9.220e+03 1.672e-10
 19.87045    113.2 9.203e+03 1.609e-10
 19.90681    115.5 9.227e+03 1.774e-10
 19.94782    117.6 9.287e+03 1.989e-10
 19.97569    119.4 9.338e+03 2.225e-10
 19.99619    118.7 9.486e+03 2.496e-10
 20.02983    120.4 9.662e+03 2.951e-10
 20.07083    121.8 9.820e+03 3.438e-10
 20.10133    122.4 9.902e+03 3.900e-10
 20.11148    122.4 1.011e+04 5.157e-10
 20.12189    123.3 1.031e+04 6.503e-10
 20.14239    124.1 1.059e+04 8.382e-10
 20.16289    124.9 1.093e+04 1.087e-09
 20.17435    125.7 1.131e+04 1.403e-09
 20.18460    125.9 1.152e+04 1.464e-09
 20.20390    126.8 1.179e+04 1.780e-09
 20.22440    127.7 1.206e+04 2.132e-09
 20.23722    128.6 1.232e+04 2.479e-09
 20.24757    128.3 1.182e+04 1.465e-09
 20.27585    129.7 1.203e+04 1.482e-09
 20.31685    130.9 1.207e+04 1.423e-09
 20.34751    131.3 1.204e+04 1.349e-09
 20.36296    131.6 1.197e+04 1.255e-09
 20.37331    129.5 1.110e+04 7.076e-10
 20.39886    129.9 1.116e+04 7.300e-10
 20.43987    129.8 1.141e+04 8.168e-10
 20.47864    129.3 1.178e+04 9.728e-10
 20.49914    126.1 1.156e+04 1.121e-09
 20.52188    125.6 1.156e+04 1.129e-09
 20.56288    124.9 1.147e+04 1.077e-09
 20.60388    124.1 1.130e+04 9.767e-10
 20.62488    123.0 1.107e+04 8.689e-10
 20.64538    121.6 1.064e+04 7.861e-10
 20.68589    121.3 1.029e+04 6.648e-10
 20.72690    121.3 9.862e+03 4.800e-10
 20.75062    121.7 9.389e+03 2.818e-10
 20.77112    122.0 9.066e+03 2.092e-10
 20.80890    122.2 8.614e+03 9.686e-11
 20.84991    122.1 8.199e+03 6.217e-11
 20.87636    122.2 8.152e+03 6.185e-11
 20.89686    122.8 8.099e+03 5.213e-11
 20.93192    123.6 8.087e+03 5.455e-11
 20.97292    124.5 8.094e+03 6.581e-11
 21.00209    125.6 8.170e+03 8.838e-11
 21.02260    126.6 8.157e+03 1.017e-10
 21.05493    127.8 8.265e+03 1.299e-10
 21.09593    128.9 8.324e+03 1.423e-10
 21.12783    129.8 8.317e+03 1.415e-10
 21.14833    130.7 8.378e+03 1.575e-10
 21.17794    131.6 8.288e+03 1.444e-10
 21.21895    132.8 8.146e+03 1.244e-10
 21.25357    134.0 8.000e+03 1.059e-10
 21.27407    134.5 8.004e+03 1.101e-10
 21.30095    135.8 7.884e+03 1.026e-10
 21.34196    137.2 7.808e+03 1.001e-10
 21.37931    138.8 7.762e+03 9.891e-11
 21.39981    139.5 7.813e+03 1.155e-10
 21.42397    141.2 7.774e+03 1.143e-10
 21.46497    143.0 7.717e+03 1.105e-10
 21.50505    144.8 7.653e+03 1.029e-10
 21.52555    145.4 7.653e+03 9.951e-11
 21.54698    147.3 7.587e+03 8.916e-11
 21.58798    149.2 7.522e+03 7.702e-11
 21.62899    151.1 7.463e+03 6.465e-11
 21.65129    153.0 7.412e+03 5.325e-11
 21.67179    153.3 7.376e+03 5.036e-11
 21.71100    155.2 7.334e+03 4.286e-11
 21.75200    157.0 7.308e+03 3.645e-11
 21.77702    158.8 7.286e+03 3.192e-11
 21.79753    159.1 7.299e+03 3.610e-11
 21.83401    160.9 7.311e+03 3.388e-11
 21.87501    162.7 7.317e+03 3.371e-11
 21.90276    164.5 7.318e+03 3.384e-11
 21.92326    164.7 7.410e+03 4.369e-11
 21.95702    166.3 7.459e+03 4.431e-11
 21.99802    167.9 7.513e+03 4.646e-11
 22.02850    169.3 7.580e+03 5.144e-11
 22.04900    169.2 7.807e+03 8.448e-11
 22.08003    170.4 7.917e+03 1.004e-10
 22.12104    171.4 8.066e+03 1.251e-10
 22.15424    172.4 8.249e+03 1.586e-10
 22.17474    172.6 8.634e+03 2.452e-10
 22.20304    173.4 8.750e+03 2.697e-10
 22.24405    174.1 8.835e+03 2.820e-10
 22.27998    174.7 8.891e+03 2.870e-10
 22.30048    174.8 8.960e+03 2.819e-10
 22.32606    175.5 8.938e+03 2.805e-10
 22.36706    176.2 8.944e+03 2.836e-10
 22.40571    177.0 8.990e+03 3.015e-10
 22.42622    177.5 8.925e+03 2.569e-10
 22.44907    178.5 8.997e+03 2.835e-10
 22.49007    179.5 9.166e+03 3.374e-10
 22.53108    180.5 9.395e+03 4.120e-10
 22.55195    181.3 9.631e+03 4.780e-10
 22.57246    182.0 9.496e+03 4.088e-10
 22.61309    182.7 9.604e+03 4.407e-10
 22.65409    183.3 9.604e+03 4.388e-10
 22.67769    183.9 9.566e+03 4.189e-10
 22.69819    184.7 9.404e+03 3.665e-10
 22.73610    185.5 9.345e+03 3.454e-10
 22.77710    186.3 9.276e+03 3.169e-10
 22.80343    187.3 9.217e+03 2.909e-10
 22.82393    188.1 9.144e+03 2.723e-10
 22.85911    189.2 9.124e+03 2.589e-10
 22.90012    190.3 9.111e+03 2.434e-10
 22.92917    191.6 9.101e+03 2.248e-10
 22.94967    192.4 8.937e+03 1.968e-10
 22.98212    193.7 8.944e+03 1.797e-10
 23.02313    194.9 8.961e+03 1.590e-10
 23.05490    196.1 8.977e+03 1.373e-10
 23.07541    196.9 8.819e+03 1.176e-10
 23.10514    197.9 8.819e+03 1.052e-10
 23.14614    199.0 8.809e+03 9.317e-11
 23.18064    200.0 8.786e+03 8.317e-11
 23.20114    201.0 8.680e+03 8.021e-11
 23.22815    202.3 8.697e+03 7.737e-11
 23.26915    203.7 8.707e+03 7.746e-11
 23.30638    205.1 8.758e+03 7.912e-11
 23.32688    206.2 8.766e+03 8.006e-11
 23.35116    207.7 8.884e+03 9.027e-11
 23.39216    209.2 9.034e+03 1.082e-10
 23.43212    210.5 9.203e+03 1.343e-10
 23.45262    211.8 9.183e+03 1.480e-10
 23.47417    213.2 9.393e+03 1.868e-10
 23.51518    214.5 9.611e+03 2.344e-10
 23.55618    215.7 9.828e+03 2.867e-10
 23.57836    216.8 1.005e+04 3.312e-10
 23.59886    218.0 1.009e+04 3.972e-10
 23.63819    218.7 1.025e+04 4.468e-10
 23.66884    219.7 1.036e+04 5.116e-10
 23.68925    220.8 1.058e+04 5.443e-10
 23.70390    221.5 1.066e+04 5.420e-10
 23.71415    222.5 1.087e+04 7.399e-10
 23.73025    223.1 1.090e+04 7.334e-10
 23.75076    223.4 1.100e+04 6.972e-10
 23.76677    223.6 1.108e+04 6.245e-10
 23.77702    224.7 1.134e+04 9.502e-10
 23.79176    224.9 1.140e+04 8.429e-10
 23.81226    225.1 1.136e+04 6.972e-10
 23.82964    225.2 1.123e+04 5.512e-10
 23.83989    226.3 1.173e+04 9.395e-10
 23.85327    226.6 1.151e+04 7.115e-10
 23.87377    226.7 1.120e+04 5.243e-10
 23.89251    226.6 1.071e+04 3.990e-10
 23.90276    228.0 1.128e+04 5.830e-10
 23.92512    227.4 1.056e+04 4.156e-10
 23.95557    227.9 1.049e+04 4.268e-10
 23.97607    229.3 1.087e+04 5.487e-10
 24.00723    229.5 1.089e+04 5.882e-10
 24.04823    229.6 1.113e+04 7.221e-10
 24.08131    229.6 1.145e+04 8.796e-10
 24.10181    230.5 1.161e+04 9.094e-10
 24.13024    229.7 1.160e+04 9.096e-10
 24.17124    228.6 1.152e+04 8.689e-10
 24.20705    227.4 1.141e+04 7.864e-10
 24.22755    227.6 1.125e+04 6.992e-10
 24.25325    226.3 1.116e+04 6.103e-10
 24.29426    224.9 1.110e+04 5.312e-10
 24.33279    223.7 1.097e+04 4.547e-10
 24.35329    223.4 1.078e+04 3.885e-10
 24.37626    222.7 1.057e+04 3.116e-10
 24.41727    222.5 1.035e+04 2.577e-10
 24.45827    222.3 1.017e+04 2.245e-10
 24.47903    222.3 1.002e+04 2.046e-10
 24.49953    221.9 9.823e+03 1.867e-10
 24.54028    222.2 9.717e+03 1.779e-10
 24.58128    222.8 9.636e+03 1.699e-10
 24.60476    223.6 9.574e+03 1.631e-10
 24.62527    223.5 9.569e+03 1.657e-10
 24.66329    224.6 9.561e+03 1.646e-10
 24.70430    225.8 9.563e+03 1.654e-10
 24.73050    227.1 9.576e+03 1.701e-10
 24.75100    227.1 9.631e+03 1.902e-10
 24.78631    228.4 9.674e+03 2.033e-10
 24.82731    229.8 9.722e+03 2.241e-10
 24.85624    231.1 9.781e+03 2.545e-10
 24.87674    231.1 9.895e+03 2.877e-10
 24.90932    232.5 9.997e+03 3.317e-10
 24.95032    233.9 1.019e+04 4.019e-10
 24.98198    235.3 1.050e+04 5.048e-10
 25.00248    235.1 1.058e+04 5.158e-10
 25.03233    235.9 1.084e+04 5.974e-10
 25.07333    235.8 1.089e+04 6.095e-10
 25.10772    235.7 1.086e+04 5.942e-10
 25.12822    235.8 1.087e+04 5.914e-10
 25.15534    236.1 1.073e+04 5.243e-10
 25.19635    236.5 1.047e+04 4.142e-10
 25.23345    236.9 1.018e+04 3.102e-10
 25.25396    236.9 1.085e+04 4.765e-10
 25.27835    237.3 1.079e+04 4.689e-10
 25.31936    237.8 1.078e+04 4.737e-10
 25.35919    238.3 1.074e+04 4.780e-10
 25.37969    238.9 1.191e+04 9.956e-10
 25.40137    239.2 1.178e+04 9.734e-10
 25.44237    239.7 1.149e+04 8.817e-10
 25.48338    240.4 1.110e+04 7.294e-10
 25.50543    241.2 1.070e+04 5.777e-10
 25.52593    240.6 1.119e+04 7.176e-10
 25.56538    241.4 1.065e+04 5.019e-10
 25.60639    242.4 1.026e+04 3.787e-10
 25.63117    243.5 1.003e+04 3.178e-10
 25.65167    243.1 1.002e+04 3.070e-10
 25.68840    244.5 9.861e+03 2.939e-10
 25.72940    246.0 9.791e+03 2.891e-10
 25.75691    247.6 9.746e+03 2.860e-10
 25.77741    247.6 9.810e+03 2.994e-10
 25.81141    249.1 9.770e+03 3.004e-10
 25.85241    250.7 9.755e+03 3.026e-10
 25.88264    252.2 9.767e+03 3.120e-10
 25.90315    252.3 9.879e+03 3.440e-10
 25.93442    253.9 9.922e+03 3.641e-10
 25.97542    255.5 1.001e+04 3.958e-10
 26.00838    257.1 1.014e+04 4.424e-10
 26.02888    257.3 1.013e+04 4.386e-10
 26.05743    258.8 1.028e+04 4.953e-10
 26.09844    260.2 1.050e+04 5.854e-10
 26.13412    261.5 1.080e+04 7.224e-10
 26.15453    261.3 1.096e+04 8.060e-10
 26.17000    262.0 1.119e+04 9.225e-10
 26.19050    262.5 1.141e+04 1.040e-09
 26.20705    263.0 1.166e+04 1.183e-09
 26.21730    262.8 1.166e+04 1.166e-09
 26.23151    263.1 1.191e+04 1.320e-09
 26.25976    264.2 1.218e+04 1.471e-09
 26.28026    263.3 1.223e+04 1.466e-09
 26.29301    263.3 1.240e+04 1.543e-09
 26.30659    263.1 1.253e+04 1.568e-09
 26.31684    263.5 1.242e+04 1.530e-09
 26.33278    263.3 1.252e+04 1.540e-09
 26.34303    262.9 1.228e+04 1.248e-09
 26.35452    262.5 1.232e+04 1.243e-09
 26.37502    262.1 1.236e+04 1.218e-09
 26.39552    261.5 1.238e+04 1.166e-09
 26.40590    260.8 1.234e+04 1.093e-09
 26.41615    259.7 1.216e+04 8.505e-10
 26.43653    259.0 1.207e+04 8.019e-10
 26.45703    258.3 1.197e+04 7.559e-10
 26.46877    257.7 1.186e+04 7.157e-10
 26.47902    256.7 1.174e+04 6.703e-10
 26.49803    256.4 1.171e+04 6.691e-10
 26.51853    256.2 1.167e+04 6.623e-10
 26.53164    256.0 1.163e+04 6.460e-10
 26.54189    255.4 1.174e+04 6.835e-10
 26.55954    255.3 1.170e+04 6.651e-10
 26.58004    255.2 1.163e+04 6.236e-10
 26.59451    255.2 1.153e+04 5.644e-10
 26.60476    254.6 1.173e+04 6.197e-10
 26.62104    254.6 1.163e+04 5.454e-10
 26.64155    254.6 1.151e+04 4.763e-10
 26.65738    254.6 1.138e+04 4.272e-10
 26.66763    253.8 1.169e+04 4.772e-10
 26.68255    253.8 1.162e+04 4.680e-10
 26.70305    253.8 1.162e+04 4.690e-10
 26.72025    254.0 1.162e+04 4.766e-10
 26.73050    253.0 1.183e+04 5.576e-10
 26.74406    253.2 1.191e+04 5.956e-10
 26.76456    253.3 1.203e+04 6.586e-10
 26.78312    253.4 1.219e+04 7.477e-10
 26.79337    252.3 1.235e+04 9.749e-10
 26.80556    252.5 1.254e+04 1.159e-09
 26.82607    252.7 1.273e+04 1.392e-09
 26.84599    253.0 1.290e+04 1.667e-09
 26.85624    252.5 1.308e+04 2.013e-09
 26.86707    253.1 1.317e+04 2.181e-09
 26.88757    253.6 1.320e+04 2.273e-09
 26.90807    254.0 1.319e+04 2.296e-09
 26.91911    254.6 1.314e+04 2.254e-09
 26.92936    253.9 1.261e+04 1.557e-09
 26.94908    254.3 1.240e+04 1.269e-09
 26.96958    254.1 1.222e+04 9.926e-10
 26.98197    253.7 1.204e+04 7.595e-10
 26.99223    251.6 1.117e+04 4.310e-10
 27.01058    250.6 1.078e+04 3.778e-10
 27.03109    249.8 1.063e+04 3.754e-10
 27.04484    249.1 1.061e+04 3.820e-10
 27.05509    248.2 1.035e+04 3.511e-10
 27.07209    247.6 1.056e+04 4.264e-10
 27.09259    247.0 1.086e+04 5.383e-10
 27.10771    246.4 1.129e+04 7.267e-10
 27.11796    245.9 1.135e+04 7.586e-10
 27.13360    245.4 1.176e+04 9.958e-10
 27.15410    245.0 1.216e+04 1.305e-09
 27.17058    244.7 1.249e+04 1.612e-09
 27.18093    244.8 1.195e+04 1.453e-09
 27.20555    244.0 1.198e+04 1.479e-09
 27.24655    243.2 1.184e+04 1.366e-09
 27.28626    242.5 1.142e+04 1.080e-09
 27.30677    241.0 1.033e+04 4.714e-10
 27.32856    240.0 9.845e+03 3.418e-10
 27.36957    239.1 9.453e+03 2.763e-10
 27.41057    238.4 9.165e+03 2.429e-10
 27.43250    238.1 8.940e+03 2.142e-10
 27.45301    237.5 8.967e+03 2.325e-10
 27.49258    237.4 8.817e+03 2.123e-10
 27.53358    237.5 8.595e+03 1.827e-10
 27.55824    237.8 8.338e+03 1.549e-10
 27.57874    237.7 8.528e+03 1.788e-10
 27.61559    238.1 8.353e+03 1.554e-10
 27.65659    238.9 8.344e+03 1.533e-10
 27.68398    239.7 8.357e+03 1.543e-10
 27.70448    239.1 8.470e+03 1.407e-10
 27.73860    239.8 8.489e+03 1.401e-10
 27.77961    240.5 8.513e+03 1.390e-10
 27.80972    241.2 8.524e+03 1.371e-10
 27.83022    240.1 8.345e+03 1.270e-10
 27.86162    240.8 8.290e+03 1.273e-10
 27.90262    241.7 8.270e+03 1.281e-10
 27.93546    242.7 8.216e+03 1.330e-10
 27.95596    242.5 8.217e+03 1.316e-10
 27.98463    243.8 8.235e+03 1.432e-10
 28.02563    245.1 8.334e+03 1.627e-10
 28.06119    246.4 8.507e+03 1.912e-10
 28.08170    246.2 8.707e+03 2.070e-10
 28.10764    247.4 8.994e+03 2.572e-10
 28.14864    248.3 9.285e+03 3.162e-10
 28.18693    249.1 9.516e+03 3.692e-10
 28.20743    248.9 9.832e+03 4.182e-10
 28.23065    249.4 9.860e+03 4.196e-10
 28.27166    249.8 9.834e+03 4.126e-10
 28.31266    250.2 9.723e+03 3.935e-10
 28.35366    249.8 9.765e+03 3.744e-10
 28.39467    250.0 9.713e+03 3.751e-10
 28.42532    250.5 9.743e+03 3.949e-10
 28.44573    251.0 9.837e+03 4.310e-10
 28.45871    251.2 9.998e+03 4.868e-10
 28.46896    250.6 1.043e+04 5.181e-10
 28.48673    250.5 1.072e+04 6.268e-10
 28.50723    250.3 1.112e+04 7.930e-10
 28.52158    250.0 1.163e+04 1.047e-09
 28.53183    249.3 1.179e+04 1.273e-09
 28.54824    249.0 1.224e+04 1.684e-09
 28.56874    248.8 1.276e+04 2.244e-09
 28.58445    248.6 1.331e+04 2.944e-09
 28.59470    248.1 1.349e+04 2.885e-09
 28.60975    247.4 1.410e+04 3.367e-09
 28.63025    246.4 1.469e+04 3.705e-09
 28.64732    244.9 1.514e+04 3.766e-09
 28.65757    242.9 1.536e+04 3.208e-09
 28.67125    240.9 1.517e+04 3.320e-09
 28.69175    239.1 1.498e+04 3.342e-09
 28.71019    237.8 1.454e+04 3.352e-09
 28.72044    236.8 1.406e+04 3.362e-09
 28.73276    236.5 1.402e+04 3.382e-09
 28.75326    236.5 1.391e+04 3.352e-09
 28.77306    236.5 1.371e+04 3.191e-09
 28.78331    236.7 1.387e+04 3.083e-09
 28.79426    236.9 1.364e+04 2.825e-09
 28.81477    237.0 1.336e+04 2.480e-09
 28.83527    237.0 1.309e+04 2.082e-09
 28.84618    237.1 1.279e+04 1.684e-09
 28.85643    235.9 1.254e+04 9.927e-10
 28.87627    235.5 1.209e+04 8.100e-10
 28.89677    235.0 1.155e+04 6.628e-10
 28.90905    234.6 1.099e+04 5.573e-10
 28.91930    233.1 1.015e+04 4.428e-10
 28.93778    233.1 1.001e+04 4.345e-10
 28.95828    233.3 9.998e+03 4.346e-10
 28.97192    233.5 9.995e+03 4.377e-10
 28.98217    233.1 9.824e+03 4.046e-10
 28.99928    233.3 9.824e+03 4.089e-10
 29.01979    233.5 9.859e+03 4.277e-10
 29.03479    233.4 9.959e+03 4.643e-10
 29.04504    232.3 9.841e+03 3.966e-10
 29.06079    232.2 9.921e+03 4.258e-10
 29.08129    231.9 1.008e+04 4.767e-10
 29.09765    231.5 1.030e+04 5.488e-10
 29.10791    230.3 1.000e+04 4.304e-10
 29.12230    229.9 1.022e+04 5.032e-10
 29.14280    229.3 1.046e+04 5.892e-10
 29.16052    228.5 1.063e+04 6.722e-10
 29.17077    227.7 1.036e+04 5.385e-10
 29.18380    226.8 1.038e+04 5.844e-10
 29.20431    225.8 1.036e+04 5.877e-10
 29.22339    224.7 1.029e+04 5.838e-10
 29.23364    223.6 1.020e+04 5.520e-10
 29.24531    222.3 1.024e+04 5.665e-10
 29.26581    220.8 1.040e+04 6.132e-10
 29.28626    219.0 1.086e+04 7.290e-10
 29.30676    215.1 1.216e+04 1.459e-09
 29.32732    213.7 1.267e+04 1.972e-09
 29.34782    213.5 1.316e+04 2.649e-09
 29.35938    213.6 1.367e+04 3.359e-09
 29.36963    213.7 1.392e+04 3.711e-09
 29.38882    213.7 1.445e+04 3.830e-09
 29.40933    213.7 1.450e+04 3.741e-09
 29.42225    213.4 1.462e+04 3.360e-09
 29.43250    211.4 1.427e+04 2.105e-09
 29.45033    209.5 1.378e+04 1.490e-09
 29.47083    206.9 1.276e+04 1.002e-09
 29.48512    204.0 1.147e+04 7.228e-10
 29.49537    201.5 1.040e+04 6.077e-10
 29.51184    200.0 1.035e+04 5.903e-10
 29.53234    198.8 1.035e+04 5.892e-10
 29.54799    197.5 1.037e+04 5.896e-10
 29.55824    196.6 1.039e+04 5.798e-10
 29.57334    194.8 1.043e+04 5.597e-10
 29.59384    193.4 1.039e+04 5.313e-10
 29.61086    191.8 1.034e+04 4.845e-10
 29.63146    191.0 1.023e+04 4.387e-10
 29.66580    188.8 9.881e+03 3.407e-10
 29.70680    186.4 9.560e+03 2.672e-10
 29.73679    183.6 9.538e+03 2.552e-10
 29.75729    184.4 9.250e+03 2.308e-10
 29.78881    181.9 9.292e+03 2.343e-10
 29.82981    178.7 9.479e+03 2.477e-10
 29.86253    175.3 9.654e+03 2.621e-10
 29.88303    177.4 9.603e+03 2.686e-10
 29.90147    175.7 9.693e+03 2.839e-10
 29.92188    174.4 9.765e+03 3.023e-10
 29.93545    172.5 9.963e+03 3.565e-10
 29.94570    173.4 1.005e+04 3.691e-10
 29.96288    170.8 1.050e+04 4.925e-10
 29.98338    167.7 1.124e+04 7.300e-10
 29.99832    164.4 1.219e+04 1.168e-09
 30.00857    166.1 1.177e+04 1.004e-09
 30.02439    163.2 1.256e+04 1.465e-09
 30.04489    160.5 1.320e+04 2.050e-09
 30.06119    158.1 1.355e+04 2.512e-09
 30.07144    159.7 1.306e+04 1.904e-09
 30.08589    157.1 1.306e+04 2.035e-09
 30.10640    154.5 1.304e+04 2.007e-09
 30.12406    152.7 1.294e+04 1.913e-09
 30.13441    156.1 1.267e+04 1.623e-09
 30.15785    152.1 1.258e+04 1.554e-09
 30.19885    148.9 1.219e+04 1.210e-09
 30.23974    146.0 1.153e+04 7.927e-10
 30.28075    148.2 1.104e+04 6.793e-10
 30.32186    146.6 1.011e+04 3.877e-10
 30.36287    145.7 9.046e+03 2.358e-10
 30.38598    146.1 8.453e+03 1.729e-10
 30.40648    149.3 8.952e+03 2.222e-10
 30.44488    149.8 8.209e+03 1.400e-10
 30.48588    150.9 8.142e+03 1.256e-10
 30.51172    152.4 8.100e+03 1.247e-10
 30.53222    154.6 7.888e+03 1.377e-10
 30.56789    156.4 7.974e+03 1.282e-10
 30.60889    158.8 7.974e+03 1.282e-10
 30.63746    161.4 7.991e+03 1.300e-10
 30.65796    163.0 7.962e+03 1.300e-10
 30.69090    165.6 7.979e+03 1.304e-10
 30.73190    168.2 8.047e+03 1.331e-10
 30.76320    170.8 8.155e+03 1.433e-10
 30.78370    172.2 8.030e+03 1.296e-10
 30.81391    174.9 8.136e+03 1.370e-10
 30.85492    177.5 8.304e+03 1.541e-10
 30.88893    180.0 8.537e+03 1.858e-10
 30.90944    181.6 8.309e+03 1.568e-10
 30.93692    184.1 8.554e+03 1.840e-10
 30.97793    186.7 8.908e+03 2.312e-10
 31.01467    189.0 9.302e+03 2.983e-10
 31.03517    190.8 9.061e+03 2.435e-10
 31.05994    192.9 9.426e+03 2.957e-10
 31.08769    193.6 9.567e+03 3.252e-10
 31.09785    193.7 9.537e+03 3.176e-10
 31.11100    194.7 9.610e+03 3.293e-10
 31.13150    196.0 9.732e+03 3.562e-10
 31.15047    197.6 9.958e+03 4.162e-10
 31.16072    198.1 9.986e+03 3.823e-10
 31.17250    199.5 1.025e+04 4.596e-10
 31.19301    200.7 1.057e+04 5.813e-10
 31.21333    201.8 1.091e+04 7.371e-10
 31.22359    202.7 1.100e+04 6.802e-10
 31.23401    203.7 1.132e+04 8.442e-10
 31.25451    204.7 1.159e+04 1.021e-09
 31.27501    205.7 1.185e+04 1.210e-09
 31.28645    206.6 1.210e+04 1.415e-09
 31.29671    207.7 1.224e+04 1.279e-09
 31.31602    208.5 1.242e+04 1.500e-09
 31.33652    209.3 1.266e+04 1.782e-09
 31.34932    210.0 1.298e+04 2.171e-09
 31.35957    210.6 1.343e+04 2.166e-09
 31.37752    211.3 1.404e+04 2.961e-09
 31.39803    212.0 1.481e+04 4.112e-09
 31.41219    212.0 1.534e+04 5.040e-09
 31.41727    211.7 1.562e+04 4.978e-09
 31.42356    211.7 1.594e+04 5.776e-09
 31.43381    211.7 1.643e+04 7.233e-09
 31.44353    211.7 1.696e+04 9.308e-09
 31.44865    211.7 1.721e+04 1.028e-08
 31.45431    211.8 1.768e+04 1.352e-08
 31.46456    212.0 1.813e+04 1.741e-08
 31.47481    212.5 1.862e+04 2.198e-08
 31.48009    212.9 1.911e+04 2.696e-08
 31.48521    213.0 1.964e+04 2.921e-08
 31.49531    213.1 2.006e+04 3.453e-08
 31.50556    213.0 2.047e+04 3.709e-08
 31.51152    212.5 2.057e+04 3.707e-08
 31.51665    212.5 2.066e+04 3.562e-08
 31.52607    211.9 2.061e+04 3.509e-08
 31.53632    211.7 2.054e+04 3.433e-08
 31.54296    211.5 2.054e+04 3.430e-08
 31.54808    211.4 2.054e+04 2.738e-08
 31.55682    211.0 2.055e+04 2.742e-08
 31.56707    210.8 2.056e+04 2.773e-08
 31.57439    210.9 2.060e+04 2.851e-08
 31.57952    210.7 2.060e+04 1.994e-08
 31.58757    210.7 2.073e+04 2.036e-08
 31.59782    210.7 2.084e+04 2.079e-08
 31.60583    211.0 2.091e+04 2.109e-08
 31.61100    209.9 2.040e+04 7.771e-09
 31.62355    210.1 2.124e+04 6.107e-09
 31.64405    209.8 2.253e+04 4.128e-09
 31.66367    208.5 2.366e+04 2.437e-09
 31.67392    201.2 1.513e+04 5.523e-10
 31.68506    199.3 1.320e+04 5.108e-10
 31.70556    198.4 1.256e+04 5.098e-10
 31.72606    198.0 1.245e+04 5.166e-10
 31.73679    198.1 1.228e+04 5.519e-10
 31.74704    199.3 1.168e+04 5.083e-10
 31.76706    199.6 1.183e+04 5.784e-10
 31.78757    199.8 1.205e+04 6.694e-10
 31.79966    199.7 1.243e+04 8.332e-10
 31.80991    200.8 1.248e+04 8.442e-10
 31.82857    200.4 1.309e+04 1.112e-09
 31.84907    199.4 1.388e+04 1.605e-09
 31.86253    198.3 1.472e+04 2.521e-09
 31.87278    199.1 1.500e+04 2.533e-09
 31.89008    197.9 1.579e+04 3.941e-09
 31.91058    196.8 1.661e+04 6.307e-09
 31.92539    196.1 1.759e+04 9.881e-09
 31.93565    197.1 1.760e+04 9.049e-09
 31.95158    196.3 1.847e+04 1.337e-08
 31.97208    194.9 1.914e+04 1.622e-08
 31.98826    192.8 1.920e+04 1.620e-08
 31.99851    192.9 1.872e+04 1.297e-08
 32.01309    190.7 1.848e+04 1.239e-08
 32.03359    189.2 1.776e+04 1.028e-08
 32.05113    188.2 1.671e+04 7.536e-09
 32.06138    187.4 1.630e+04 6.396e-09
 32.07459    186.3 1.564e+04 5.070e-09
 32.09510    185.1 1.591e+04 4.542e-09
 32.11400    183.4 1.621e+04 4.581e-09
 32.12425    182.0 1.651e+04 5.507e-09
 32.13610    179.6 1.745e+04 6.583e-09
 32.15660    177.2 1.810e+04 8.046e-09
 32.17687    175.3 1.808e+04 9.218e-09
 32.18712    174.5 1.890e+04 1.205e-08
 32.19761    172.5 1.883e+04 1.168e-08
 32.21811    170.9 1.857e+04 9.895e-09
 32.23861    169.3 1.823e+04 7.043e-09
 32.24999    167.1 1.773e+04 4.401e-09
 32.26024    163.0 1.877e+04 3.682e-09
 32.27961    159.1 1.596e+04 2.187e-09
 32.30012    156.7 1.313e+04 1.651e-09
 32.31286    156.2 1.235e+04 1.438e-09
 32.32311    154.7 1.241e+04 1.624e-09
 32.34112    155.9 1.224e+04 1.506e-09
 32.37197    157.3 1.182e+04 1.185e-09
 32.41307    159.5 1.112e+04 7.985e-10
 32.43879    162.0 1.026e+04 4.701e-10
 32.45929    160.6 9.684e+03 2.479e-10
 32.49508    162.6 8.904e+03 1.585e-10
 32.53609    164.8 8.444e+03 1.321e-10
 32.56453    167.4 8.397e+03 1.312e-10
 32.58503    167.1 8.730e+03 1.585e-10
 32.61809    169.9 8.699e+03 1.678e-10
 32.65910    172.4 8.755e+03 1.898e-10
 32.69027    174.8 8.918e+03 2.236e-10
 32.71077    174.7 9.344e+03 2.995e-10
 32.74111    176.7 9.572e+03 3.511e-10
 32.78211    178.2 9.739e+03 3.996e-10
 32.81277    178.7 9.794e+03 4.239e-10
 32.82606    179.4 9.938e+03 4.566e-10
 32.83631    180.0 1.017e+04 5.078e-10
 32.85367    180.7 1.050e+04 5.757e-10
 32.87417    181.0 1.073e+04 6.307e-10
 32.90503    181.0 1.136e+04 8.041e-10
 32.94174    180.2 1.211e+04 1.063e-09
 32.96215    178.2 1.160e+04 8.893e-10
 32.97669    177.2 1.192e+04 1.042e-09
 32.99719    176.2 1.223e+04 1.219e-09
 33.01467    175.2 1.251e+04 1.399e-09
 33.02492    174.8 1.252e+04 1.321e-09
 33.03819    173.7 1.279e+04 1.451e-09
 33.05869    172.5 1.303e+04 1.551e-09
 33.07754    171.0 1.326e+04 1.654e-09
 33.08779    169.9 1.277e+04 1.391e-09
 33.09970    167.8 1.316e+04 1.653e-09
 33.12020    165.5 1.362e+04 2.158e-09
 33.14041    163.6 1.428e+04 3.090e-09
 33.15066    163.4 1.468e+04 3.318e-09
 33.16120    162.7 1.570e+04 4.966e-09
 33.18171    162.1 1.652e+04 6.585e-09
 33.20221    160.8 1.679e+04 6.829e-09
 33.21353    159.2 1.668e+04 6.453e-09
 33.22378    159.1 1.690e+04 5.804e-09
 33.24321    158.1 1.647e+04 4.444e-09
 33.26371    156.8 1.560e+04 2.806e-09
 33.27640    154.9 1.425e+04 1.565e-09
 33.28665    152.5 1.362e+04 1.244e-09
 33.30472    150.1 1.229e+04 8.196e-10
 33.32522    148.3 1.210e+04 6.680e-10
 33.33926    147.3 1.210e+04 6.640e-10
 33.34952    146.7 1.232e+04 8.403e-10
 33.36622    146.2 1.244e+04 8.741e-10
 33.38673    145.7 1.268e+04 9.527e-10
 33.40213    145.1 1.296e+04 1.061e-09
 33.41238    144.5 1.346e+04 1.518e-09
 33.42773    143.7 1.373e+04 1.725e-09
 33.44823    142.9 1.396e+04 1.941e-09
 33.46500    142.2 1.415e+04 2.169e-09
 33.47525    142.0 1.467e+04 2.659e-09
 33.48924    141.6 1.483e+04 2.936e-09
 33.50974    141.4 1.497e+04 3.173e-09
 33.52787    141.1 1.504e+04 3.226e-09
 33.53812    141.3 1.519e+04 3.254e-09
 33.55074    140.9 1.516e+04 3.195e-09
 33.57125    140.6 1.504e+04 2.976e-09
 33.59074    140.3 1.483e+04 2.621e-09
 33.60099    139.7 1.419e+04 1.482e-09
 33.61225    139.1 1.376e+04 1.235e-09
 33.63275    138.3 1.342e+04 1.056e-09
 33.65325    137.4 1.311e+04 9.565e-10
 33.66386    136.6 1.298e+04 9.574e-10
 33.67411    135.3 1.223e+04 7.289e-10
 33.69426    134.8 1.238e+04 7.967e-10
 33.71476    134.1 1.260e+04 8.937e-10
 33.72673    133.1 1.293e+04 1.038e-09
 33.73698    132.5 1.275e+04 9.933e-10
 33.75576    131.3 1.316e+04 1.198e-09
 33.77627    130.0 1.367e+04 1.524e-09
 33.78960    128.9 1.419e+04 1.996e-09
 33.79985    129.2 1.416e+04 1.894e-09
 33.81727    128.3 1.463e+04 2.267e-09
 33.83777    127.2 1.488e+04 2.360e-09
 33.85247    125.9 1.488e+04 2.323e-09
 33.86272    125.6 1.488e+04 2.238e-09
 33.87878    123.8 1.483e+04 2.032e-09
 33.89928    121.5 1.461e+04 1.693e-09
 33.91534    118.8 1.419e+04 1.413e-09
 33.92559    118.8 1.424e+04 1.613e-09
 33.94028    116.4 1.382e+04 1.435e-09
 33.96078    114.3 1.347e+04 1.324e-09
 33.97821    112.5 1.322e+04 1.251e-09
 33.98846    113.3 1.340e+04 1.236e-09
 34.00179    111.5 1.310e+04 1.060e-09
 34.02229    109.8 1.288e+04 9.410e-10
 34.04107    108.1 1.285e+04 9.166e-10
 34.05133    107.5 1.266e+04 7.345e-10
 34.06329    105.6 1.262e+04 7.366e-10
 34.08380    103.9 1.261e+04 7.672e-10
 34.10394    102.8 1.266e+04 8.666e-10
 34.11419    101.7 1.254e+04 8.314e-10
 34.12480    101.6 1.271e+04 9.838e-10
 34.14530    101.6 1.291e+04 1.148e-09
 34.16580    101.9 1.319e+04 1.313e-09
 34.17706    102.2 1.365e+04 1.525e-09
 34.18731    101.6 1.345e+04 1.579e-09
 34.20681    101.9 1.394e+04 1.697e-09
 34.22214    101.5 1.430e+04 1.743e-09
 34.23234    101.2 1.446e+04 1.757e-09
 34.23983    101.1 1.465e+04 1.730e-09
 34.25013    101.8 1.450e+04 1.610e-09
 34.26314    101.3 1.479e+04 1.552e-09
 34.27127    100.9 1.478e+04 1.497e-09
 34.27639    101.2 1.462e+04 1.419e-09
 34.28359    101.3 1.438e+04 1.278e-09
 34.29385    101.7 1.412e+04 1.173e-09
 34.30270    101.8 1.381e+04 1.075e-09
 34.31300    102.2 1.329e+04 8.883e-10
 34.32465    101.5 1.347e+04 8.591e-10
 34.33414    100.5 1.623e+04 8.922e-10
 34.33926    101.6 1.293e+04 7.123e-10
 34.34510    101.0 1.473e+04 7.202e-10
 34.35535     98.3 2.376e+04 8.879e-10
 34.36557     95.2 3.657e+04 2.158e-09
 34.37582     98.5 2.790e+04 1.036e-09
 34.38610     96.6 3.693e+04 2.611e-09
 34.39636     95.7 3.639e+04 7.140e-09
 34.40213     95.1 3.189e+04 1.723e-08
 34.40726     97.7 3.438e+04 2.631e-09
 34.41686     96.6 3.450e+04 7.630e-09
 34.42711     96.3 3.067e+04 1.977e-08
 34.43357     96.5 2.689e+04 4.708e-08
 34.43869     98.3 3.338e+04 9.374e-09
 34.44761     98.3 3.039e+04 2.613e-08
 34.45786     98.6 2.681e+04 6.717e-08
 34.46500     99.2 2.399e+04 1.781e-07
 34.47013     99.8 3.021e+04 2.847e-08
 34.47836    100.3 2.700e+04 8.671e-08
 34.48861     99.9 2.404e+04 2.657e-07
 34.49644     99.2 2.172e+04 7.659e-07
 34.50156    100.3 2.837e+04 6.462e-08
 34.50912     99.8 2.429e+04 2.796e-07
 34.51937    100.0 2.140e+04 9.550e-07
 34.52787    100.1 2.185e+04 1.425e-06
 34.53300    101.2 2.334e+04 4.779e-07
 34.53987    101.9 2.152e+04 1.257e-06
 34.55012    102.0 2.376e+04 1.159e-06
 34.55930    100.3 3.297e+04 4.225e-07
 34.56443    105.3 2.221e+04 1.445e-06
 34.57062    104.5 2.472e+04 1.085e-06
 34.58087    100.6 3.872e+04 2.179e-07
 34.59074     93.6 6.290e+04 1.859e-08
 34.59586    106.0 2.764e+04 7.551e-07
 34.60138     99.7 4.529e+04 1.082e-07
 34.61163     88.6 6.656e+04 1.315e-08
 34.62188     74.7 5.932e+04 6.441e-09
 34.62730     64.9 3.655e+04 8.181e-09
 34.63242     81.0 4.683e+04 5.343e-08
 34.64238     70.3 4.221e+04 3.432e-08
 34.65263     64.3 3.987e+04 1.354e-08
 34.65873     60.1 3.098e+04 6.762e-09
 34.66386     69.8 5.019e+04 1.163e-08
 34.67313     53.0 2.712e+04 5.881e-09
 34.68338     50.4 2.149e+04 6.094e-09
 34.69022     48.7 1.930e+04 6.809e-09
 34.69534     46.8 1.913e+04 6.911e-09
 34.70389     46.8 1.906e+04 6.991e-09
 34.71931     45.6 1.916e+04 8.864e-09
 34.73986     45.1 1.906e+04 9.574e-09
 34.75313     45.7 1.869e+04 9.156e-09
 34.76339     43.3 1.988e+04 1.518e-08
 34.78087     44.7 1.933e+04 1.412e-08
 34.80137     46.3 1.897e+04 1.271e-08
 34.81600     47.8 1.848e+04 1.071e-08
 34.82625     46.8 1.871e+04 1.138e-08
 34.84237     49.0 1.783e+04 8.409e-09
 34.86288     50.8 1.688e+04 5.886e-09
 34.87887     52.1 1.582e+04 3.879e-09
 34.88912     52.0 1.584e+04 3.454e-09
 34.90388     52.5 1.438e+04 2.089e-09
 34.92438     52.6 1.274e+04 1.282e-09
 34.94174     52.6 1.139e+04 8.632e-10
 34.95199     52.4 1.108e+04 7.581e-10
 34.96539     52.9 1.040e+04 5.929e-10
 34.98589     54.2 1.015e+04 5.135e-10
 35.00461     55.7 1.007e+04 4.768e-10
 35.01486     56.2 1.004e+04 4.663e-10
 35.02689     57.7 9.963e+03 4.376e-10
 35.04739     58.9 9.894e+03 4.143e-10
 35.06748     60.0 9.809e+03 3.900e-10
 35.07773     60.7 9.818e+03 3.929e-10
 35.08840     61.6 9.730e+03 3.701e-10
 35.10890     62.3 9.670e+03 3.526e-10
 35.12940     62.8 9.651e+03 3.413e-10
 35.14060     63.0 9.615e+03 3.276e-10
 35.15085     63.7 9.638e+03 3.279e-10
 35.17041     63.7 9.601e+03 3.150e-10
 35.19091     63.4 9.564e+03 3.011e-10
 35.20347     63.3 9.494e+03 2.922e-10
 35.21372     63.3 9.512e+03 2.920e-10
 35.23191     63.3 9.400e+03 2.837e-10
 35.25241     63.5 9.396e+03 2.874e-10
 35.26634     63.7 9.471e+03 3.060e-10
 35.27659     63.0 9.504e+03 3.104e-10
 35.29342     63.4 9.680e+03 3.478e-10
 35.31392     64.0 1.003e+04 4.166e-10
 35.32921     64.2 1.066e+04 5.552e-10
 35.33946     63.1 1.089e+04 5.948e-10
 35.35492     62.0 1.279e+04 9.990e-10
 35.37543     60.8 1.523e+04 1.839e-09
 35.39075     59.6 1.652e+04 2.797e-09
 35.39710     59.1 1.769e+04 3.640e-09
 35.40223     55.0 2.065e+04 6.190e-09
 35.41121     53.9 2.172e+04 9.403e-09
 35.42146     53.3 2.243e+04 1.424e-08
 35.42854     53.1 2.297e+04 2.084e-08
 35.43366     51.5 2.250e+04 4.422e-08
 35.44196     52.0 2.281e+04 7.272e-08
 35.45221     52.1 2.298e+04 9.195e-08
 35.45997     51.7 2.300e+04 9.301e-08
 35.46510     51.1 2.289e+04 1.665e-07
 35.47271     50.7 2.291e+04 1.234e-07
 35.48297     50.2 2.321e+04 8.353e-08
 35.49141     49.4 2.361e+04 5.735e-08
 35.49653     48.5 2.352e+04 5.144e-08
 35.50347     47.0 2.355e+04 3.652e-08
 35.51372     45.6 2.294e+04 2.685e-08
 35.52284     44.2 2.205e+04 2.093e-08
 35.52797     43.1 2.115e+04 1.509e-08
 35.53939     41.5 1.945e+04 1.027e-08
 35.55995     41.1 1.769e+04 7.687e-09
 35.58045     41.5 1.661e+04 6.072e-09
 35.59093     42.5 1.591e+04 4.816e-09
 35.60118     41.5 1.465e+04 3.541e-09
 35.62145     42.8 1.411e+04 3.104e-09
 35.64195     44.0 1.367e+04 2.647e-09
 35.65380     45.5 1.329e+04 2.182e-09
 35.66405     45.7 1.267e+04 2.039e-09
 35.68296     47.4 1.247e+04 1.756e-09
 35.70346     49.1 1.219e+04 1.423e-09
 35.71667     50.8 1.185e+04 1.039e-09
 35.72692     51.3 1.163e+04 1.205e-09
 35.74446     53.1 1.134e+04 8.960e-10
 35.76497     54.6 1.105e+04 6.180e-10
 35.77954     55.8 1.063e+04 3.967e-10
 35.78979     56.9 1.087e+04 6.045e-10
 35.80597     57.7 1.082e+04 4.021e-10
 35.82647     58.4 1.037e+04 2.800e-10
 35.85732     60.5 1.015e+04 2.530e-10
 35.89522     62.7 9.371e+03 1.738e-10
 35.91563     64.4 9.803e+03 2.045e-10
 35.93933     66.5 9.819e+03 2.204e-10
 35.98043     68.6 9.221e+03 1.789e-10
 36.02096     70.9 8.960e+03 1.610e-10
 36.04136     72.2 9.307e+03 2.088e-10
 36.06234     74.3 9.557e+03 2.438e-10
 36.10345     76.4 9.432e+03 2.206e-10
 36.14445     78.3 9.315e+03 1.936e-10
 36.16720     79.9 9.089e+03 1.636e-10
 36.18770     80.8 9.642e+03 2.398e-10
 36.22646     82.2 9.336e+03 1.939e-10
 36.26746     83.5 9.165e+03 1.937e-10
 36.29294     84.9 9.172e+03 2.047e-10
 36.31344     85.6 9.221e+03 2.246e-10
 36.34947     87.0 9.229e+03 2.352e-10
 36.39047     88.4 9.310e+03 2.590e-10
 36.41868     89.9 9.441e+03 2.858e-10
 36.43918     90.4 9.269e+03 2.466e-10
 36.47248     91.6 9.386e+03 2.608e-10
 36.51349     92.8 9.540e+03 2.792e-10
 36.54441     93.7 9.724e+03 3.019e-10
 36.56492     94.3 9.367e+03 2.428e-10
 36.59550     95.2 9.593e+03 2.734e-10
 36.63650     96.0 9.906e+03 3.303e-10
 36.67015     96.6 1.016e+04 3.969e-10
 36.69065     97.6 9.981e+03 3.288e-10
 36.70816     98.2 1.020e+04 3.869e-10
 36.72856     98.2 1.045e+04 4.666e-10
 36.74308     98.2 1.072e+04 5.608e-10
 36.75333     98.8 1.062e+04 5.031e-10
 36.76957     98.7 1.093e+04 6.136e-10
 36.79007     98.5 1.127e+04 7.302e-10
 36.80595     98.2 1.155e+04 8.363e-10
 36.81620     98.9 1.152e+04 8.151e-10
 36.83107     98.6 1.178e+04 9.310e-10
 36.85158     98.0 1.217e+04 1.086e-09
 36.86881     94.5 1.452e+04 1.772e-09
 36.87907     97.3 1.349e+04 1.468e-09
 36.89258     90.2 1.802e+04 3.860e-09
 36.91308     84.2 1.984e+04 9.216e-09
 36.92841     82.3 2.015e+04 1.262e-08
 36.93671     81.3 1.996e+04 1.553e-08
 36.94184     81.9 2.040e+04 1.589e-08
 36.94886     81.0 2.007e+04 1.722e-08
 36.95911     80.6 1.971e+04 1.637e-08
 36.96815     79.7 1.964e+04 1.366e-08
 36.97327     80.5 1.966e+04 1.587e-08
 36.97962     79.2 2.028e+04 1.043e-08
 36.98987     72.8 2.356e+04 9.633e-09
 36.99958     64.5 2.417e+04 8.784e-09
 37.00471     69.0 2.416e+04 8.600e-09
 37.01037     56.6 2.491e+04 1.015e-08
 37.02062     52.6 2.121e+04 9.789e-09
 37.03087     48.0 1.979e+04 1.223e-08
 37.03614     47.8 1.964e+04 1.228e-08
 37.04127     48.2 1.988e+04 1.219e-08
 37.05137     43.4 1.905e+04 1.268e-08
 37.06162     42.8 1.888e+04 1.256e-08
 37.06757     33.3 2.503e+04 1.768e-08
 37.07270     35.7 2.316e+04 1.705e-08
 37.08213     25.1 3.051e+04 2.370e-08
 37.09238     14.2 3.189e+04 2.694e-08
 37.09901      2.1 2.550e+04 2.371e-08
 37.10413      5.1 2.770e+04 3.008e-08
 37.11288     -6.1 2.392e+04 1.973e-08
 37.12313    -12.9 2.485e+04 1.560e-08
 37.13044    -23.8 2.566e+04 9.238e-09
 37.13557    -21.0 2.613e+04 1.153e-08
 37.14363    -34.0 2.360e+04 6.424e-09
 37.15388    -45.3 1.862e+04 4.237e-09
 37.16188    -51.3 1.673e+04 3.699e-09
 37.16700    -50.5 1.717e+04 3.949e-09
 37.17956    -55.3 1.639e+04 3.610e-09
 37.19341    -63.0 1.524e+04 3.311e-09
 37.20366    -61.8 1.546e+04 3.543e-09
 37.22061    -66.7 1.494e+04 2.924e-09
 37.24111    -71.3 1.401e+04 2.165e-09
 37.25628    -75.4 1.331e+04 1.627e-09
 37.26653    -74.7 1.335e+04 1.646e-09
 37.28212    -78.3 1.282e+04 1.321e-09
 37.30262    -81.5 1.256e+04 1.199e-09
 37.31915    -84.4 1.250e+04 1.182e-09
 37.32940    -83.5 1.252e+04 1.161e-09
 37.34363    -86.1 1.252e+04 1.168e-09
 37.36413    -88.4 1.261e+04 1.279e-09
 37.38202    -90.3 1.275e+04 1.428e-09
 37.39227    -89.5 1.278e+04 1.418e-09
 37.40513    -91.1 1.281e+04 1.512e-09
 37.42563    -92.6 1.280e+04 1.529e-09
 37.44489    -93.9 1.258e+04 1.435e-09
 37.45514    -93.2 1.280e+04 1.565e-09
 37.46664    -94.4 1.250e+04 1.348e-09
 37.48714    -96.0 1.218e+04 1.082e-09
 37.50764    -98.0 1.198e+04 9.074e-10
 37.51801   -100.3 1.194e+04 8.583e-10
 37.52826    -99.9 1.257e+04 1.119e-09
 37.54865   -102.5 1.258e+04 1.116e-09
 37.56915   -105.0 1.282e+04 1.264e-09
 37.58087   -106.9 1.318e+04 1.597e-09
 37.59113   -106.9 1.391e+04 2.147e-09
 37.61015   -108.6 1.415e+04 2.530e-09
 37.63065   -110.3 1.432e+04 2.789e-09
 37.64374   -112.2 1.440e+04 2.942e-09
 37.65399   -112.4 1.477e+04 3.453e-09
 37.67166   -114.2 1.466e+04 3.334e-09
 37.69216   -115.9 1.453e+04 3.247e-09
 37.70661   -117.5 1.442e+04 3.229e-09
 37.71686   -117.7 1.419e+04 3.021e-09
 37.73316   -118.8 1.385e+04 2.790e-09
 37.75367   -119.4 1.338e+04 2.427e-09
 37.76948   -119.6 1.277e+04 1.951e-09
 37.77973   -119.7 1.227e+04 1.508e-09
 37.79467   -119.9 1.169e+04 1.152e-09
 37.81517   -120.1 1.112e+04 8.416e-10
 37.83235   -120.5 1.057e+04 6.039e-10
 37.84260   -121.0 1.027e+04 4.920e-10
 37.86653   -121.2 9.897e+03 4.026e-10
 37.90763   -120.2 9.489e+03 3.194e-10
 37.94803   -118.7 8.948e+03 2.276e-10
 37.96854   -118.3 8.863e+03 2.159e-10
 37.98964   -116.8 8.504e+03 1.637e-10
 38.03064   -115.2 8.257e+03 1.296e-10
 38.07164   -113.6 8.130e+03 1.113e-10
 38.09427   -111.9 8.108e+03 1.058e-10
 38.11478   -111.6 8.234e+03 1.260e-10
 38.15365   -110.8 8.158e+03 1.317e-10
 38.19466   -110.9 8.961e+03 2.138e-10
 38.22001   -111.4 1.044e+04 4.320e-10
 38.24051   -113.1 1.173e+04 7.615e-10
 38.26632   -112.8 1.202e+04 9.222e-10
 38.28268   -113.5 1.279e+04 1.312e-09
 38.29294   -114.8 1.379e+04 2.242e-09
 38.30722   -115.1 1.428e+04 3.105e-09
 38.32772   -115.4 1.446e+04 3.689e-09
 38.34555   -115.8 1.445e+04 3.843e-09
 38.35580   -116.2 1.430e+04 3.622e-09
 38.36873   -116.5 1.409e+04 3.192e-09
 38.38923   -117.0 1.372e+04 2.570e-09
 38.40842   -117.7 1.326e+04 1.943e-09
 38.41867   -119.0 1.250e+04 1.090e-09
 38.43023   -120.2 1.188e+04 7.700e-10
 38.45074   -121.4 1.125e+04 5.623e-10
 38.47124   -122.3 1.069e+04 4.342e-10
 38.49184   -124.1 9.764e+03 2.598e-10
 38.52269   -124.0 9.530e+03 2.421e-10
 38.56369   -123.6 9.395e+03 2.247e-10
 38.59722   -123.3 9.302e+03 2.113e-10
 38.61773   -123.7 8.886e+03 1.437e-10
 38.64570   -123.5 8.840e+03 1.373e-10
 38.68671   -123.1 8.809e+03 1.331e-10
 38.72296   -122.7 8.805e+03 1.319e-10
 38.74346   -122.8 8.545e+03 1.133e-10
 38.76871   -122.4 8.560e+03 1.160e-10
 38.80972   -122.0 8.618e+03 1.263e-10
 38.84870   -121.7 8.707e+03 1.409e-10
 38.86920   -121.6 8.698e+03 1.412e-10
 38.89173   -121.4 8.802e+03 1.553e-10
 38.93273   -121.5 8.896e+03 1.673e-10
 38.97373   -121.7 9.039e+03 1.840e-10
 38.99494   -122.3 9.319e+03 2.179e-10
 39.01544   -122.2 9.294e+03 2.203e-10
 39.05574   -123.3 9.606e+03 2.659e-10
 39.09675   -124.8 9.889e+03 3.118e-10
 39.12068   -126.5 1.001e+04 3.343e-10
 39.14118   -126.2 9.833e+03 3.150e-10
 39.17876   -127.7 9.832e+03 3.156e-10
 39.21976   -129.0 9.671e+03 2.788e-10
 39.24642   -129.8 9.399e+03 2.192e-10
 39.26692   -129.1 9.322e+03 2.125e-10
 39.30177   -129.4 9.118e+03 1.722e-10
 39.34277   -129.5 8.979e+03 1.458e-10
 39.37215   -129.4 8.886e+03 1.304e-10
 39.39266   -128.5 8.826e+03 1.278e-10
 39.42478   -127.7 8.746e+03 1.173e-10
 39.46578   -126.8 8.687e+03 1.093e-10
 39.49789   -125.7 8.633e+03 1.013e-10
 39.51839   -124.7 8.533e+03 9.292e-11
 39.54779   -123.5 8.486e+03 8.612e-11
 39.58880   -122.2 8.442e+03 8.057e-11
 39.62363   -120.8 8.413e+03 7.697e-11
 39.64413   -119.8 8.351e+03 6.964e-11
 39.67080   -118.4 8.349e+03 6.918e-11
 39.71181   -117.1 8.354e+03 6.912e-11
 39.74937   -116.0 8.433e+03 7.553e-11
 39.76987   -115.2 8.427e+03 6.899e-11
 39.79382   -114.1 8.522e+03 8.807e-11
 39.83482   -113.0 8.650e+03 1.154e-10
 39.87511   -111.8 8.811e+03 1.487e-10
 39.89561   -111.4 8.794e+03 1.387e-10
 39.91683   -110.4 8.945e+03 1.738e-10
 39.95783   -109.7 9.072e+03 2.087e-10
 39.99884   -109.5 9.231e+03 2.507e-10
 40.02135   -109.6 9.630e+03 3.280e-10
 40.04185   -109.4 9.652e+03 3.307e-10
 40.08085   -109.6 1.032e+04 4.668e-10
 40.12185   -110.4 1.127e+04 7.236e-10
 40.14708   -112.0 1.215e+04 1.163e-09
 40.16759   -111.8 1.168e+04 8.684e-10
 40.19351   -114.1 1.241e+04 1.343e-09
 40.20976   -115.4 1.288e+04 1.709e-09
 40.22001   -115.9 1.290e+04 1.610e-09
 40.23442   -117.2 1.356e+04 2.213e-09
 40.25492   -118.7 1.440e+04 3.101e-09
 40.27263   -120.5 1.495e+04 3.917e-09
 40.28288   -120.6 1.557e+04 4.826e-09
 40.29592   -122.4 1.579e+04 5.397e-09
 40.31642   -124.3 1.572e+04 5.438e-09
 40.33550   -125.8 1.505e+04 4.494e-09
 40.34575   -125.9 1.544e+04 5.128e-09
 40.35743   -127.0 1.435e+04 3.220e-09
 40.37793   -128.5 1.317e+04 1.902e-09
 40.39836   -130.4 1.217e+04 1.234e-09
 40.41887   -131.8 1.163e+04 9.871e-10
 40.43944   -132.3 1.134e+04 8.750e-10
 40.45994   -132.3 1.124e+04 8.424e-10
 40.47148   -132.2 1.121e+04 8.297e-10
 40.48174   -131.7 1.123e+04 8.352e-10
 40.50094   -131.4 1.121e+04 8.295e-10
 40.52145   -131.1 1.122e+04 8.305e-10
 40.53435   -130.8 1.127e+04 8.317e-10
 40.54460   -130.4 1.129e+04 8.433e-10
 40.56245   -131.7 1.182e+04 8.867e-10
 40.58295   -139.2 1.536e+04 1.127e-09
 40.59722   -145.8 2.170e+04 9.418e-09
 40.60747   -145.1 2.099e+04 5.971e-09
 40.61878   -146.8 2.285e+04 3.752e-08
 40.62856   -146.4 2.362e+04 9.821e-08
 40.63368   -146.7 2.361e+04 7.896e-08
 40.63923   -146.8 2.427e+04 1.467e-07
 40.64949   -149.4 2.456e+04 1.854e-07
 40.65974   -153.3 2.443e+04 1.876e-07
 40.66512   -155.2 2.360e+04 1.278e-07
 40.67024   -154.2 2.323e+04 1.017e-07
 40.68024   -154.7 2.225e+04 5.122e-08
 40.69049   -155.3 2.102e+04 2.157e-08
 40.69655   -156.6 1.937e+04 9.823e-09
 40.70168   -155.8 1.932e+04 1.028e-08
 40.71099   -157.3 1.821e+04 6.335e-09
 40.72291   -159.2 1.704e+04 3.892e-09
 40.73321   -157.0 1.694e+04 4.181e-09
 40.74697   -160.0 1.434e+04 1.571e-09
 40.76747   -163.0 1.227e+04 7.370e-10
 40.78583   -164.2 1.155e+04 5.752e-10
 40.79608   -163.3 1.161e+04 5.763e-10
 40.80847   -163.6 1.143e+04 5.435e-10
 40.82898   -163.7 1.138e+04 5.378e-10
 40.84870   -163.8 1.136e+04 5.378e-10
 40.85895   -163.0 1.144e+04 5.422e-10
 40.86998   -163.3 1.138e+04 5.566e-10
 40.89048   -163.5 1.138e+04 5.724e-10
 40.91098   -163.6 1.140e+04 5.881e-10
 40.92182   -163.9 1.141e+04 6.014e-10
 40.93207   -163.1 1.139e+04 5.871e-10
 40.95199   -163.3 1.143e+04 5.846e-10
 40.97249   -163.8 1.150e+04 5.845e-10
 40.98469   -164.5 1.181e+04 5.916e-10
 40.99494   -163.6 1.160e+04 5.460e-10
 41.01349   -164.7 1.216e+04 5.714e-10
 41.03400   -166.0 1.266e+04 6.996e-10
 41.04756   -167.4 1.304e+04 9.166e-10
 41.05781   -166.6 1.304e+04 8.210e-10
 41.07500   -168.1 1.335e+04 1.110e-09
 41.09550   -169.6 1.354e+04 1.394e-09
 41.11042   -171.0 1.363e+04 1.599e-09
 41.12068   -170.4 1.376e+04 1.669e-09
 41.13651   -171.8 1.382e+04 1.819e-09
 41.15701   -173.0 1.384e+04 1.853e-09
 41.17329   -174.3 1.370e+04 1.701e-09
 41.18354   -173.7 1.387e+04 1.849e-09
 41.19801   -175.0 1.359e+04 1.547e-09
 41.21852   -176.1 1.320e+04 1.194e-09
 41.23616   -177.2 1.276e+04 8.877e-10
 41.24641   -176.7 1.280e+04 8.539e-10
 41.25952   -177.7 1.236e+04 6.257e-10
 41.28002   -178.6 1.204e+04 4.900e-10
 41.29903   -179.2 1.183e+04 4.088e-10
 41.30928   -178.9 1.185e+04 3.957e-10
 41.32103   -179.3 1.173e+04 3.562e-10
 41.34153   -179.4 1.164e+04 3.295e-10
 41.36190   -179.3 1.160e+04 3.143e-10
 41.37215   -179.0 1.169e+04 3.247e-10
 41.39288   -179.1 1.162e+04 3.035e-10
 41.42496   -179.1 1.143e+04 2.730e-10
 41.44547   -178.4 1.159e+04 3.077e-10
 41.47499   -178.7 1.154e+04 3.006e-10
 41.49799   -179.3 1.140e+04 2.936e-10
 41.50814   -179.3 1.149e+04 3.218e-10
 41.52605   -179.9 1.157e+04 3.590e-10
 41.54655   -180.5 1.165e+04 4.054e-10
 41.56076   -180.9 1.166e+04 4.409e-10
 41.57101   -180.6 1.177e+04 4.944e-10
 41.58755   -180.8 1.176e+04 5.076e-10
 41.60805   -181.0 1.174e+04 5.121e-10
 41.62363   -181.3 1.170e+04 5.149e-10
 41.63388   -181.3 1.182e+04 5.838e-10
 41.64906   -181.5 1.171e+04 5.486e-10
 41.67634   -182.0 1.157e+04 4.989e-10
 41.69685   -181.4 1.152e+04 4.921e-10
 41.71057   -181.5 1.138e+04 4.371e-10
 41.73107   -181.7 1.135e+04 4.151e-10
 41.74937   -182.0 1.131e+04 3.882e-10
 41.75962   -181.9 1.134e+04 4.033e-10
 41.77207   -182.2 1.135e+04 3.908e-10
 41.79257   -182.7 1.136e+04 3.871e-10
 41.81223   -183.3 1.139e+04 3.889e-10
 41.82249   -183.0 1.149e+04 4.190e-10
 41.84393   -183.6 1.158e+04 4.412e-10
 41.88503   -184.3 1.155e+04 4.328e-10
 41.92603   -184.8 1.156e+04 4.337e-10
 41.94842   -185.4 1.158e+04 4.411e-10
 41.96892   -185.2 1.180e+04 5.035e-10
 42.00804   -186.0 1.179e+04 4.883e-10
 42.04904   -186.7 1.181e+04 4.865e-10
 42.07416   -187.2 1.184e+04 5.028e-10
 42.08431   -186.8 1.186e+04 5.378e-10
 42.10010   -187.0 1.185e+04 5.455e-10
 42.12061   -187.3 1.181e+04 5.569e-10
 42.13683   -187.6 1.178e+04 5.648e-10
 42.14708   -187.7 1.173e+04 5.526e-10
 42.16161   -187.9 1.167e+04 5.580e-10
 42.18211   -188.0 1.150e+04 5.626e-10
 42.19970   -188.1 1.139e+04 5.402e-10
 42.20995   -187.9 1.136e+04 5.146e-10
 42.22312   -187.8 1.128e+04 4.761e-10
 42.25397   -187.5 1.119e+04 4.044e-10
 42.29507   -187.8 1.104e+04 3.685e-10
 42.32563   -187.5 1.078e+04 3.091e-10
 42.34613   -187.2 1.077e+04 3.031e-10
 42.37708   -186.2 1.045e+04 2.368e-10
 42.41808   -185.0 1.018e+04 1.802e-10
 42.45137   -183.8 9.988e+03 1.383e-10
 42.47187   -183.3 9.955e+03 1.344e-10
 42.50009   -181.9 9.807e+03 1.075e-10
 42.54109   -180.4 9.713e+03 9.135e-11
 42.57711   -179.0 9.661e+03 8.236e-11
 42.59761   -178.4 9.655e+03 8.348e-11
 42.62310   -177.0 9.611e+03 7.960e-11
 42.66411   -175.5 9.584e+03 7.830e-11
 42.70285   -174.1 9.573e+03 7.807e-11
 42.72335   -173.5 9.560e+03 8.068e-11
 42.74611   -172.1 9.535e+03 8.179e-11
 42.78712   -170.7 9.517e+03 8.363e-11
 42.82812   -169.4 9.512e+03 8.909e-11
 42.84909   -168.1 9.560e+03 1.004e-10
 42.86959   -167.7 9.544e+03 1.008e-10
 42.91013   -166.5 9.619e+03 1.178e-10
 42.95114   -165.4 9.704e+03 1.389e-10
 42.97482   -164.4 9.791e+03 1.603e-10
 42.99533   -164.3 9.779e+03 1.587e-10
 43.03314   -163.5 9.853e+03 1.753e-10
 43.07415   -163.1 9.910e+03 1.862e-10
 43.10056   -163.2 9.955e+03 1.911e-10
 43.12106   -163.6 9.883e+03 1.789e-10
 43.15616   -164.3 9.971e+03 1.805e-10
 43.19716   -169.3 1.081e+04 1.954e-10
 43.22630   -177.9 1.418e+04 5.011e-10
 43.24680   -177.8 1.371e+04 5.438e-10
 43.26882   -183.0 1.512e+04 1.696e-09
 43.28897   -185.4 1.607e+04 3.248e-09
 43.29922   -185.2 1.583e+04 2.969e-09
 43.30973   -188.6 1.635e+04 4.285e-09
 43.33023   -192.6 1.644e+04 4.632e-09
 43.35073   -196.9 1.608e+04 4.446e-09
 43.36209   -201.1 1.482e+04 2.952e-09
 43.37234   -200.9 1.470e+04 2.941e-09
 43.39173   -204.7 1.312e+04 1.625e-09
 43.41224   -207.7 1.155e+04 9.122e-10
 43.42496   -209.6 1.064e+04 6.063e-10
 43.43521   -209.2 1.081e+04 6.481e-10
 43.45324   -210.2 1.044e+04 4.978e-10
 43.47374   -210.6 1.028e+04 4.191e-10
 43.48783   -210.7 1.016e+04 3.783e-10
 43.49808   -210.5 1.016e+04 3.849e-10
 43.52510   -210.4 1.005e+04 3.576e-10
 43.56620   -210.4 9.808e+03 3.121e-10
 43.60351   -210.4 9.539e+03 2.592e-10
 43.62402   -210.1 9.623e+03 2.836e-10
 43.64821   -210.1 9.505e+03 2.535e-10
 43.68921   -210.2 9.488e+03 2.448e-10
 43.72925   -210.7 9.515e+03 2.469e-10
 43.74975   -211.3 1.004e+04 3.522e-10
 43.77122   -212.6 1.062e+04 4.777e-10
 43.81222   -214.2 1.115e+04 6.419e-10
 43.85323   -216.0 1.152e+04 7.660e-10
 43.87549   -218.0 1.167e+04 8.002e-10
 43.89599   -219.8 1.200e+04 8.006e-10
 43.93523   -222.0 1.170e+04 6.375e-10
 43.96589   -225.6 1.108e+04 4.498e-10
 43.98629   -227.5 1.070e+04 3.982e-10
 44.00103   -228.3 1.057e+04 3.833e-10
 44.02163   -229.9 1.039e+04 3.514e-10
 44.05825   -230.0 1.025e+04 3.229e-10
 44.09925   -230.8 1.010e+04 2.986e-10
 44.12697   -231.9 1.005e+04 2.901e-10
 44.14747   -233.0 9.794e+03 2.426e-10
 44.18126   -234.5 9.927e+03 2.661e-10
 44.22226   -236.2 1.043e+04 3.707e-10
 44.25270   -238.1 1.086e+04 5.100e-10
 44.27321   -238.6 1.094e+04 5.536e-10
 44.30427   -240.6 1.116e+04 6.511e-10
 44.34528   -242.6 1.119e+04 6.706e-10
 44.37844   -244.2 1.115e+04 6.458e-10
 44.39894   -244.9 1.119e+04 6.387e-10
 44.42728   -246.2 1.096e+04 5.105e-10
 44.46829   -247.1 1.075e+04 3.848e-10
 44.50418   -247.9 1.066e+04 3.085e-10
 44.52468   -249.3 1.093e+04 3.601e-10
 44.55030   -250.1 1.107e+04 3.491e-10
 44.57720   -250.0 1.113e+04 3.419e-10
 44.58736   -251.3 1.135e+04 3.978e-10
 44.60136   -251.8 1.140e+04 4.017e-10
 44.62982   -252.2 1.140e+04 3.864e-10
 44.65042   -254.5 1.179e+04 5.882e-10
 44.67331   -256.2 1.183e+04 6.162e-10
 44.71431   -257.6 1.180e+04 6.045e-10
 44.75532   -259.2 1.171e+04 5.506e-10
 44.77616   -260.6 1.163e+04 5.107e-10
 44.78631   -261.4 1.155e+04 4.501e-10
 44.80638   -262.6 1.147e+04 3.959e-10
 44.83723   -264.1 1.134e+04 3.499e-10
 44.87833   -265.1 1.133e+04 3.381e-10
 44.90190   -266.3 1.144e+04 3.430e-10
 44.92240   -267.1 1.107e+04 2.660e-10
 44.96034   -268.2 1.131e+04 3.181e-10
 45.00134   -269.0 1.161e+04 4.337e-10
 45.02763   -269.7 1.186e+04 5.588e-10
 45.04814   -269.6 1.163e+04 5.072e-10
 45.08335   -269.7 1.188e+04 6.042e-10
 45.12435   -269.9 1.195e+04 6.289e-10
 45.15337   -269.9 1.194e+04 6.152e-10
 45.17387   -269.7 1.192e+04 6.036e-10
 45.20636   -269.6 1.180e+04 5.113e-10
 45.24737   -269.4 1.159e+04 3.962e-10
 45.27911   -268.8 1.137e+04 3.165e-10
 45.29961   -268.5 1.134e+04 3.108e-10
 45.32938   -267.9 1.112e+04 2.622e-10
 45.37038   -267.0 1.102e+04 2.478e-10
 45.40485   -265.9 1.100e+04 2.464e-10
 45.42535   -265.4 1.099e+04 2.452e-10
 45.45239   -264.5 1.108e+04 2.583e-10
 45.49339   -263.7 1.120e+04 2.833e-10
 45.53059   -263.2 1.125e+04 2.977e-10
 45.55109   -262.6 1.124e+04 2.997e-10
 45.57540   -262.2 1.126e+04 3.022e-10
 45.61640   -261.7 1.123e+04 2.977e-10
 45.65632   -261.2 1.113e+04 2.756e-10
 45.67683   -260.5 1.117e+04 2.756e-10
 45.69841   -260.0 1.110e+04 2.578e-10
 45.73942   -259.6 1.105e+04 2.457e-10
 45.78042   -259.2 1.102e+04 2.428e-10
 45.80256   -258.8 1.099e+04 2.438e-10
 45.82307   -258.4 1.110e+04 2.515e-10
 45.86243   -257.9 1.109e+04 2.537e-10
 45.90343   -257.3 1.106e+04 2.557e-10
 45.92830   -256.4 1.100e+04 2.549e-10
 45.94880   -256.1 1.116e+04 2.659e-10
 45.98544   -255.1 1.111e+04 2.549e-10
 46.02645   -253.9 1.106e+04 2.365e-10
 46.05404   -252.7 1.100e+04 2.161e-10
 46.07454   -252.5 1.118e+04 2.269e-10
 46.10845   -251.3 1.111e+04 2.066e-10
 46.14946   -249.9 1.104e+04 1.894e-10
 46.17978   -248.4 1.099e+04 1.753e-10
 46.20028   -248.2 1.109e+04 1.869e-10
 46.23147   -246.6 1.102e+04 1.710e-10
 46.27247   -244.8 1.097e+04 1.548e-10
 46.30552   -243.1 1.093e+04 1.371e-10
 46.32602   -242.7 1.099e+04 1.458e-10
 46.35448   -240.8 1.095e+04 1.267e-10
 46.39548   -239.0 1.091e+04 1.088e-10
 46.43125   -237.1 1.087e+04 9.333e-11
 46.45176   -236.7 1.094e+04 1.099e-10
 46.47749   -234.7 1.091e+04 9.845e-11
 46.51849   -232.7 1.089e+04 8.991e-11
 46.55699   -230.7 1.088e+04 8.427e-11
 46.57749   -230.1 1.094e+04 1.091e-10
 46.60050   -228.1 1.093e+04 1.033e-10
 46.64151   -226.1 1.093e+04 9.926e-11
 46.68251   -224.0 1.093e+04 9.711e-11
 46.70323   -222.0 1.095e+04 9.689e-11
 46.72373   -221.4 1.100e+04 1.200e-10
 46.76452   -219.4 1.101e+04 1.201e-10
 46.80552   -217.4 1.104e+04 1.213e-10
 46.82897   -215.4 1.112e+04 1.281e-10
 46.84947   -214.7 1.115e+04 1.592e-10
 46.88753   -212.8 1.121e+04 1.727e-10
 46.92854   -210.9 1.125e+04 1.921e-10
 46.95471   -209.1 1.130e+04 2.153e-10
 46.97521   -208.3 1.133e+04 2.446e-10
 47.01054   -206.4 1.138e+04 2.622e-10
 47.05155   -204.5 1.143e+04 2.809e-10
 47.08045   -202.5 1.151e+04 3.025e-10
 47.10095   -201.8 1.149e+04 2.993e-10
 47.13356   -199.8 1.159e+04 3.260e-10
 47.17456   -198.0 1.173e+04 3.756e-10
 47.20618   -196.3 1.192e+04 4.625e-10
 47.22669   -195.5 1.191e+04 4.422e-10
 47.25657   -193.9 1.220e+04 6.011e-10
 47.29757   -192.6 1.255e+04 8.302e-10
 47.33192   -191.8 1.281e+04 1.091e-09
 47.35242   -191.1 1.296e+04 1.121e-09
 47.37958   -190.8 1.310e+04 1.370e-09
 47.42059   -190.8 1.310e+04 1.439e-09
 47.45766   -191.0 1.297e+04 1.440e-09
 47.47816   -190.5 1.321e+04 1.611e-09
 47.50259   -190.3 1.290e+04 1.459e-09
 47.53068   -190.2 1.272e+04 1.311e-09
 47.54083   -190.0 1.292e+04 1.458e-09
 47.55365   -190.1 1.271e+04 1.318e-09
 47.57416   -190.1 1.251e+04 1.191e-09
 47.59345   -190.1 1.224e+04 1.037e-09
 47.60370   -189.9 1.240e+04 1.146e-09
 47.61516   -189.5 1.208e+04 9.424e-10
 47.63566   -188.9 1.178e+04 7.526e-10
 47.65616   -188.2 1.156e+04 6.113e-10
 47.66657   -187.4 1.145e+04 5.375e-10
 47.67682   -187.5 1.149e+04 5.481e-10
 47.70752   -186.9 1.139e+04 4.951e-10
 47.72964   -186.1 1.116e+04 4.239e-10
 47.75014   -186.1 1.116e+04 4.292e-10
 47.78962   -184.3 1.090e+04 3.619e-10
 47.83063   -182.2 1.082e+04 3.298e-10
 47.85537   -180.5 1.082e+04 3.241e-10
 47.87588   -180.3 1.083e+04 3.257e-10
 47.91264   -178.8 1.083e+04 3.278e-10
 47.95364   -177.5 1.092e+04 3.363e-10
 47.98111   -176.4 1.101e+04 3.576e-10
 48.00161   -176.3 1.104e+04 3.751e-10
 48.03565   -175.3 1.107e+04 3.945e-10
 48.07665   -174.4 1.107e+04 4.024e-10
 48.10685   -173.5 1.104e+04 4.032e-10
 48.12735   -173.6 1.098e+04 4.041e-10
 48.15866   -172.7 1.089e+04 3.579e-10
 48.19966   -171.8 1.081e+04 3.014e-10
 48.23259   -170.8 1.075e+04 2.497e-10
 48.25309   -170.9 1.076e+04 2.505e-10
 48.28167   -169.7 1.071e+04 2.112e-10
 48.32268   -168.4 1.063e+04 1.793e-10
 48.35833   -166.8 1.056e+04 1.538e-10
 48.37883   -166.7 1.055e+04 1.563e-10
 48.40468   -164.9 1.049e+04 1.374e-10
 48.44569   -163.0 1.045e+04 1.256e-10
 48.48406   -161.0 1.042e+04 1.188e-10
 48.50457   -160.8 1.040e+04 1.220e-10
 48.52770   -158.7 1.038e+04 1.157e-10
 48.56870   -156.5 1.037e+04 1.110e-10
 48.60971   -154.4 1.037e+04 1.077e-10
 48.65071   -151.7 1.038e+04 1.058e-10
 48.69171   -149.6 1.038e+04 1.059e-10
 48.73272   -147.7 1.040e+04 1.068e-10
 48.75604   -146.1 1.055e+04 1.144e-10
 48.77654   -145.7 1.056e+04 1.173e-10
 48.81473   -144.4 1.075e+04 1.625e-10
 48.85573   -143.3 1.091e+04 2.424e-10
 48.88178   -142.2 1.108e+04 3.379e-10
 48.90228   -141.7 1.109e+04 3.389e-10
 48.93774   -140.7 1.123e+04 4.071e-10
 48.97874   -139.9 1.130e+04 4.365e-10
 49.00752   -139.2 1.132e+04 4.434e-10
 49.02802   -138.7 1.128e+04 4.071e-10
 49.06075   -138.0 1.127e+04 3.862e-10
 49.10176   -137.4 1.120e+04 3.505e-10
 49.13326   -136.8 1.110e+04 3.202e-10
 49.15376   -136.4 1.101e+04 3.132e-10
 49.18376   -135.7 1.100e+04 3.055e-10
 49.22477   -135.1 1.098e+04 3.060e-10
 49.25899   -134.3 1.105e+04 3.289e-10
 49.27950   -134.0 1.122e+04 3.587e-10
 49.30678   -133.2 1.142e+04 3.910e-10
 49.34778   -132.3 1.159e+04 4.290e-10
 49.38473   -131.7 1.170e+04 4.802e-10
 49.40523   -132.0 1.182e+04 4.878e-10
 49.41944   -131.8 1.188e+04 5.715e-10
 49.43984   -131.8 1.191e+04 6.241e-10
 49.45766   -132.0 1.194e+04 7.205e-10
 49.46791   -132.4 1.197e+04 7.721e-10
 49.48085   -132.3 1.195e+04 8.225e-10
 49.50135   -132.1 1.193e+04 8.433e-10
 49.52053   -131.9 1.191e+04 8.247e-10
 49.53078   -132.1 1.190e+04 8.028e-10
 49.54235   -131.8 1.189e+04 7.562e-10
 49.56286   -131.5 1.190e+04 7.224e-10
 49.58336   -131.3 1.191e+04 7.070e-10
 49.60386   -131.7 1.197e+04 6.843e-10
 49.62436   -131.6 1.208e+04 7.311e-10
 49.64486   -131.5 1.215e+04 8.030e-10
 49.65651   -131.3 1.218e+04 8.783e-10
 49.66677   -131.6 1.214e+04 8.855e-10
 49.68587   -131.3 1.216e+04 9.297e-10
 49.70637   -130.9 1.216e+04 9.489e-10
 49.71938   -130.6 1.215e+04 9.519e-10
 49.72963   -130.8 1.210e+04 9.195e-10
 49.74737   -130.4 1.204e+04 8.885e-10
 49.76788   -129.9 1.199e+04 8.398e-10
 49.78225   -129.5 1.195e+04 7.855e-10
 49.79250   -129.7 1.193e+04 7.087e-10
 49.80888   -129.3 1.197e+04 6.534e-10
 49.83973   -129.0 1.202e+04 5.899e-10
 49.88083   -128.1 1.201e+04 5.318e-10
 49.90819   -127.3 1.194e+04 4.598e-10
 49.92869   -127.3 1.181e+04 3.992e-10
 49.96284   -126.2 1.167e+04 3.447e-10
 50.00385   -125.0 1.152e+04 3.154e-10
 50.03392   -123.7 1.147e+04 3.086e-10
 50.05443   -123.2 1.148e+04 3.082e-10
 50.08585   -121.7 1.144e+04 3.105e-10
 50.12686   -120.1 1.144e+04 3.235e-10
 50.15966   -118.5 1.149e+04 3.454e-10
 50.18016   -117.7 1.156e+04 3.786e-10
 50.20887   -115.8 1.165e+04 4.064e-10
 50.24987   -113.9 1.176e+04 4.355e-10
 50.28540   -112.1 1.185e+04 4.591e-10
 50.30590   -111.2 1.204e+04 5.026e-10
 50.33188   -109.9 1.206e+04 5.094e-10
 50.35842   -108.9 1.204e+04 5.219e-10
 50.36857   -109.0 1.212e+04 5.626e-10
 50.38294   -108.8 1.214e+04 5.827e-10
 50.40344   -108.5 1.218e+04 6.217e-10
 50.42119   -108.3 1.222e+04 6.686e-10
 50.43144   -108.2 1.238e+04 7.274e-10
 50.44445   -108.1 1.241e+04 7.538e-10
 50.46495   -108.2 1.246e+04 7.702e-10
 50.48406   -109.2 1.262e+04 8.032e-10
 50.49431   -111.4 1.331e+04 9.533e-10
 50.50595   -116.3 1.515e+04 1.644e-09
 50.52645   -121.0 1.702e+04 3.196e-09
 50.54178   -124.8 1.916e+04 5.904e-09
 50.55196   -127.3 2.028e+04 9.342e-09
 50.56221   -131.0 2.124e+04 1.964e-08
 50.57249   -132.2 2.106e+04 2.292e-08
 50.58274   -133.1 2.092e+04 2.351e-08
 50.58852   -133.7 2.012e+04 2.266e-08
 50.59364   -134.5 1.996e+04 2.203e-08
 50.60324   -135.0 1.927e+04 1.640e-08
 50.61349   -135.8 1.837e+04 1.165e-08
 50.61995   -136.7 1.745e+04 8.181e-09
 50.62508   -137.6 1.711e+04 7.429e-09
 50.63399   -137.9 1.654e+04 6.050e-09
 50.64942   -137.9 1.611e+04 5.050e-09
 50.66997   -137.3 1.513e+04 3.372e-09
 50.68292   -136.9 1.422e+04 2.241e-09
 50.69317   -137.5 1.395e+04 1.792e-09
 50.71097   -137.1 1.359e+04 1.403e-09
 50.73147   -136.7 1.339e+04 1.200e-09
 50.74579   -136.2 1.322e+04 1.085e-09
 50.75604   -136.5 1.306e+04 9.699e-10
 50.78283   -135.3 1.311e+04 1.048e-09
 50.80885   -133.2 1.300e+04 1.052e-09
 50.82935   -133.5 1.246e+04 7.232e-10
 50.86493   -131.9 1.240e+04 7.370e-10
 50.90594   -130.5 1.230e+04 7.379e-10
 50.93459   -129.0 1.194e+04 6.756e-10
 50.95509   -129.0 1.133e+04 3.914e-10
 50.98795   -127.5 1.105e+04 3.103e-10
 51.02895   -126.0 1.076e+04 2.323e-10
 51.06033   -124.5 1.047e+04 1.776e-10
 51.08083   -124.8 1.024e+04 1.636e-10
 51.11096   -123.3 1.019e+04 1.532e-10
 51.15196   -121.8 1.019e+04 1.504e-10
 51.18607   -120.5 1.019e+04 1.504e-10
 51.20657   -120.9 1.014e+04 1.671e-10
 51.23397   -120.1 1.029e+04 2.125e-10
 51.27497   -119.4 1.058e+04 3.006e-10
 51.31180   -118.9 1.091e+04 4.378e-10
 51.33231   -119.1 1.072e+04 3.923e-10
 51.35698   -118.5 1.097e+04 4.893e-10
 51.39799   -118.1 1.116e+04 5.875e-10
 51.43754   -117.8 1.118e+04 6.441e-10
 51.45804   -117.8 1.070e+04 4.612e-10
 51.47999   -117.3 1.066e+04 4.793e-10
 51.52100   -116.7 1.063e+04 4.940e-10
 51.56200   -115.9 1.064e+04 5.134e-10
 51.58378   -114.8 1.067e+04 5.330e-10
 51.60428   -115.0 1.041e+04 4.448e-10
 51.64401   -114.1 1.042e+04 4.506e-10
 51.68502   -113.0 1.042e+04 4.457e-10
 51.70952   -111.8 1.037e+04 4.016e-10
 51.73002   -111.8 1.002e+04 2.895e-10
 51.76702   -110.6 9.912e+03 2.492e-10
 51.80803   -109.5 9.855e+03 2.346e-10
 51.83526   -108.2 9.868e+03 2.352e-10
 51.85576   -108.3 9.877e+03 2.504e-10
 51.89004   -107.0 9.917e+03 2.841e-10
 51.93104   -105.5 9.986e+03 3.349e-10
 51.96100   -104.0 1.007e+04 3.905e-10
 51.98150   -104.0 1.026e+04 4.872e-10
 52.01305   -102.4 1.029e+04 5.059e-10
 52.05405   -100.9 1.025e+04 4.828e-10
 52.08673    -99.5 1.019e+04 4.380e-10
 52.10724    -99.7 1.015e+04 4.084e-10
 52.13606    -98.4 1.007e+04 3.653e-10
 52.17707    -97.3 1.001e+04 3.401e-10
 52.21247    -96.2 9.989e+03 3.320e-10
 52.23297    -96.4 9.961e+03 3.184e-10
 52.25907    -95.1 1.015e+04 3.547e-10
 52.28549    -93.9 1.038e+04 4.150e-10
 52.29565    -94.3 1.048e+04 4.382e-10
 52.31013    -94.2 1.068e+04 5.088e-10
 52.33064    -93.9 1.090e+04 6.135e-10
 52.34827    -93.6 1.104e+04 7.060e-10
 52.35852    -93.7 1.103e+04 7.227e-10
 52.37164    -93.3 1.109e+04 7.661e-10
 52.39214    -92.9 1.111e+04 7.783e-10
 52.41113    -92.5 1.106e+04 7.630e-10
 52.42139    -92.6 1.094e+04 6.773e-10
 52.43315    -92.3 1.083e+04 5.883e-10
 52.45365    -92.1 1.071e+04 4.990e-10
 52.47400    -91.8 1.062e+04 4.353e-10
 52.48435    -92.7 1.054e+04 3.824e-10
 52.50510    -92.2 1.048e+04 3.551e-10
 52.53575    -91.9 1.054e+04 3.771e-10
 52.54712    -91.9 1.058e+04 3.976e-10
 52.55737    -92.7 1.058e+04 4.073e-10
 52.57666    -92.7 1.070e+04 4.495e-10
 52.59716    -92.8 1.085e+04 5.021e-10
 52.60999    -93.0 1.101e+04 5.619e-10
 52.62024    -93.7 1.109e+04 6.115e-10
 52.63817    -93.9 1.123e+04 6.820e-10
 52.65867    -94.2 1.135e+04 7.408e-10
 52.67286    -94.5 1.145e+04 7.827e-10
 52.68311    -95.5 1.162e+04 8.647e-10
 52.69967    -96.4 1.182e+04 9.106e-10
 52.72017    -97.6 1.201e+04 9.604e-10
 52.73573    -99.1 1.212e+04 1.017e-09
 52.74598   -101.4 1.247e+04 1.298e-09
 52.76118   -103.0 1.239e+04 1.346e-09
 52.78168   -104.1 1.225e+04 1.363e-09
 52.79860   -104.7 1.176e+04 1.354e-09
 52.80885   -105.7 1.180e+04 1.520e-09
 52.82268   -106.0 1.136e+04 1.166e-09
 52.84319   -106.3 1.101e+04 8.506e-10
 52.86147   -106.7 1.064e+04 5.887e-10
 52.87172   -108.3 1.043e+04 4.782e-10
 52.88419   -108.9 9.963e+03 3.472e-10
 52.91504   -109.3 9.548e+03 2.698e-10
 52.95614   -108.0 8.961e+03 1.888e-10
 52.98740   -106.0 8.445e+03 1.341e-10
 53.00790   -107.0 8.447e+03 1.340e-10
 53.03815   -105.1 8.317e+03 1.096e-10
 53.07916   -103.1 8.255e+03 9.475e-11
 53.11314   -101.1 8.226e+03 8.776e-11
 53.13364   -102.1 8.338e+03 1.072e-10
 53.16116   -100.0 8.340e+03 1.074e-10
 53.20217    -98.0 8.417e+03 1.120e-10
 53.23888    -96.2 8.551e+03 1.257e-10
 53.25938    -97.5 8.822e+03 1.772e-10
 53.28418    -95.7 8.998e+03 2.130e-10
 53.32518    -93.8 9.169e+03 2.551e-10
 53.36462    -91.9 9.327e+03 2.977e-10
 53.38512    -93.2 9.520e+03 3.722e-10
 53.40719    -91.4 9.614e+03 3.920e-10
 53.44819    -89.6 9.712e+03 4.069e-10
 53.48920    -87.8 9.818e+03 4.242e-10
 53.51086    -86.1 9.923e+03 4.402e-10
 53.52101    -87.5 1.003e+04 4.822e-10
 53.54026    -87.3 1.010e+04 5.051e-10
 53.56076    -87.0 1.018e+04 5.463e-10
 53.57353    -86.8 1.026e+04 5.799e-10
 53.58378    -88.3 1.060e+04 7.222e-10
 53.60176    -88.3 1.086e+04 8.378e-10
 53.62227    -88.4 1.117e+04 1.009e-09
 53.63640    -88.4 1.154e+04 1.246e-09
 53.64665    -89.6 1.211e+04 1.656e-09
 53.66327    -89.4 1.241e+04 1.875e-09
 53.68377    -89.1 1.258e+04 1.968e-09
 53.69927    -88.9 1.268e+04 1.947e-09
 53.70952    -90.1 1.263e+04 1.853e-09
 53.72478    -89.8 1.257e+04 1.738e-09
 53.74528    -89.4 1.253e+04 1.628e-09
 53.76223    -88.8 1.259e+04 1.565e-09
 53.78283    -90.9 1.169e+04 8.825e-10
 53.81723    -90.8 1.090e+04 5.858e-10
 53.85823    -90.6 1.040e+04 4.500e-10
 53.88807    -89.6 1.016e+04 3.911e-10
 53.90857    -90.8 9.980e+03 3.509e-10
 53.94024    -89.1 9.977e+03 3.420e-10
 53.98125    -87.2 9.949e+03 3.152e-10
 54.01381    -85.3 9.891e+03 2.765e-10
 54.03431    -85.6 9.748e+03 2.317e-10
 54.06326    -83.6 9.680e+03 1.904e-10
 54.10426    -81.5 9.608e+03 1.534e-10
 54.13954    -79.4 9.556e+03 1.250e-10
 54.16005    -79.5 9.474e+03 9.737e-11
 54.18627    -77.3 9.432e+03 8.458e-11
 54.22727    -75.0 9.386e+03 7.779e-11
 54.26528    -72.5 9.361e+03 7.543e-11
 54.28578    -72.5 9.255e+03 6.201e-11
 54.30928    -70.0 9.265e+03 6.120e-11
 54.35028    -67.5 9.276e+03 6.121e-11
 54.39102    -65.1 9.421e+03 6.295e-11
 54.41152    -65.0 9.266e+03 5.078e-11
 54.43229    -62.9 9.508e+03 5.290e-11
 54.47330    -61.1 9.705e+03 6.767e-11
 54.51430    -59.2 9.725e+03 1.086e-10
 54.53726    -57.2 9.811e+03 1.741e-10
 54.55776    -57.3 9.723e+03 1.728e-10
 54.59631    -55.1 9.920e+03 2.490e-10
 54.63731    -53.1 1.009e+04 2.997e-10
 54.66300    -51.2 1.014e+04 3.123e-10
 54.68350    -51.5 1.014e+04 3.212e-10
 54.71932    -49.6 1.015e+04 3.083e-10
 54.76033    -47.7 1.010e+04 2.385e-10
 54.78874    -45.9 1.001e+04 1.737e-10
 54.80924    -46.5 1.007e+04 1.740e-10
 54.84233    -45.1 1.005e+04 1.402e-10
 54.88334    -43.7 1.006e+04 1.312e-10
 54.91447    -42.4 1.006e+04 1.318e-10
 54.93498    -43.0 1.019e+04 1.220e-10
 54.96535    -41.9 1.033e+04 1.193e-10
 55.00635    -41.2 1.053e+04 1.177e-10
 55.04021    -41.3 1.116e+04 1.231e-10
 55.06071    -41.9 1.113e+04 1.239e-10
 55.08836    -41.8 1.119e+04 1.892e-10
 55.12936    -41.1 1.114e+04 2.928e-10
 55.16595    -39.9 1.112e+04 3.778e-10
 55.18645    -39.7 1.120e+04 4.116e-10
 55.21137    -38.6 1.123e+04 4.264e-10
 55.25237    -37.6 1.115e+04 3.655e-10
 55.29169    -36.8 1.111e+04 2.876e-10
 55.31219    -37.3 1.123e+04 3.152e-10
 55.33438    -36.8 1.118e+04 3.055e-10
 55.37539    -36.1 1.107e+04 3.151e-10
 55.41639    -34.9 1.093e+04 3.175e-10
 55.43793    -33.4 1.065e+04 2.829e-10
 55.45843    -33.6 1.075e+04 3.043e-10
 55.49840    -32.4 1.073e+04 2.211e-10
 55.53940    -31.8 1.079e+04 2.029e-10
 55.56367    -32.1 1.097e+04 2.179e-10
 55.58417    -33.0 1.100e+04 2.518e-10
 55.62141    -33.5 1.143e+04 5.165e-10
 55.65207    -33.9 1.182e+04 8.794e-10
 55.67247    -34.2 1.207e+04 1.109e-09
 55.68921    -34.3 1.226e+04 1.291e-09
 55.69946    -34.6 1.221e+04 1.215e-09
 55.71348    -35.3 1.221e+04 1.208e-09
 55.73398    -36.0 1.191e+04 9.734e-10
 55.75208    -37.1 1.157e+04 6.885e-10
 55.76233    -37.6 1.144e+04 6.113e-10
 55.76933    -39.1 1.117e+04 4.511e-10
 55.77958    -38.4 1.121e+04 4.624e-10
 55.79548    -39.6 1.090e+04 3.535e-10
 55.81504    -40.5 1.061e+04 2.907e-10
 55.83564    -40.5 1.065e+04 3.036e-10
 55.86744    -41.3 1.029e+04 2.641e-10
 55.90844    -41.5 1.015e+04 2.562e-10
 55.94088    -41.3 1.004e+04 2.615e-10
 55.96138    -40.6 1.029e+04 3.575e-10
 55.99045    -39.7 1.020e+04 3.591e-10
 56.03145    -38.6 1.001e+04 3.162e-10
 56.06662    -37.6 9.960e+03 2.449e-10
 56.08712    -36.8 1.005e+04 2.988e-10
 56.11346    -35.9 1.009e+04 2.236e-10
 56.15447    -35.4 1.025e+04 1.964e-10
 56.19236    -35.3 1.041e+04 1.956e-10
 56.21286    -34.5 1.055e+04 2.474e-10
 56.23647    -34.7 1.083e+04 3.339e-10
 56.27748    -34.6 1.092e+04 5.608e-10
 56.31809    -33.8 1.119e+04 8.591e-10
 56.33860    -33.3 1.144e+04 9.989e-10
 56.35949    -32.2 1.180e+04 1.216e-09
 56.39014    -31.7 1.182e+04 1.208e-09
 56.40127    -31.6 1.178e+04 1.131e-09
 56.41152    -31.6 1.181e+04 1.096e-09
 56.43105    -31.3 1.171e+04 9.152e-10
 56.45155    -31.2 1.152e+04 7.566e-10
 56.46414    -31.3 1.130e+04 6.474e-10
 56.47439    -31.4 1.133e+04 6.365e-10
 56.49255    -31.5 1.121e+04 6.081e-10
 56.51306    -31.4 1.117e+04 6.080e-10
 56.52701    -31.3 1.116e+04 6.803e-10
 56.53726    -31.6 1.134e+04 7.606e-10
 56.55406    -31.2 1.149e+04 9.360e-10
 56.57456    -30.4 1.166e+04 1.111e-09
 56.58997    -29.6 1.177e+04 1.212e-09
 56.61057    -29.9 1.217e+04 1.427e-09
 56.63617    -28.8 1.206e+04 1.448e-09
 56.65274    -28.6 1.206e+04 1.448e-09
 56.66300    -28.9 1.221e+04 1.527e-09
 56.67707    -28.3 1.207e+04 1.420e-09
 56.69758    -27.7 1.190e+04 1.258e-09
 56.71561    -27.1 1.178e+04 1.102e-09
 56.72586    -27.3 1.170e+04 1.038e-09
 56.73858    -26.8 1.155e+04 8.789e-10
 56.75908    -26.5 1.148e+04 7.825e-10
 56.77848    -26.2 1.142e+04 7.352e-10
 56.78873    -26.4 1.134e+04 7.100e-10
 56.81043    -25.7 1.139e+04 7.060e-10
 56.84155    -24.5 1.138e+04 7.359e-10
 56.86205    -25.0 1.148e+04 7.865e-10
 56.89254    -25.2 1.233e+04 1.131e-09
 56.91457    -25.7 1.314e+04 1.470e-09
 56.92472    -27.4 1.366e+04 2.124e-09
 56.94360    -28.3 1.428e+04 3.351e-09
 56.96410    -28.4 1.475e+04 4.964e-09
 56.97734    -27.7 1.511e+04 6.246e-09
 56.98759    -27.3 1.512e+04 6.372e-09
 57.00511    -26.6 1.523e+04 6.320e-09
 57.02561    -25.9 1.536e+04 4.567e-09
 57.04021    -26.2 1.531e+04 2.742e-09
 57.05046    -28.8 1.501e+04 2.058e-09
 57.06661    -33.2 1.429e+04 1.597e-09
 57.08711    -36.6 1.407e+04 1.587e-09
 57.10308    -38.7 1.421e+04 1.999e-09
 57.11333    -39.7 1.396e+04 2.418e-09
 57.12812    -39.7 1.404e+04 3.162e-09
 57.14862    -39.1 1.411e+04 3.445e-09
 57.16595    -38.3 1.399e+04 3.424e-09
 57.17620    -38.2 1.371e+04 2.377e-09
 57.18962    -37.8 1.375e+04 1.528e-09
 57.21013    -38.6 1.375e+04 8.658e-10
 57.22882    -40.3 1.320e+04 4.789e-10
 57.23907    -42.8 1.203e+04 2.738e-10
 57.25113    -43.5 1.131e+04 2.212e-10
 57.27163    -43.3 1.109e+04 2.095e-10
 57.30248    -41.6 1.117e+04 2.100e-10
 57.34359    -39.9 1.133e+04 2.159e-10
 57.36500    -38.3 1.147e+04 2.547e-10
 57.38550    -39.9 1.179e+04 3.191e-10
 57.41525    -38.7 1.195e+04 3.982e-10
 57.42767    -38.6 1.197e+04 4.507e-10
 57.43793    -39.6 1.197e+04 5.082e-10
 57.45615    -38.9 1.217e+04 7.152e-10
 57.47665    -38.3 1.227e+04 8.866e-10
 57.49054    -37.8 1.248e+04 1.057e-09
 57.50079    -38.7 1.235e+04 1.029e-09
 57.51766    -38.3 1.258e+04 1.178e-09
 57.53816    -38.1 1.286e+04 1.299e-09
 57.55341    -38.1 1.319e+04 1.359e-09
 57.56366    -39.9 1.285e+04 1.053e-09
 57.57916    -40.7 1.291e+04 1.029e-09
 57.59967    -41.7 1.274e+04 9.986e-10
 57.61628    -42.5 1.247e+04 1.023e-09
 57.63688    -44.9 1.221e+04 1.107e-09
 57.67162    -45.8 1.205e+04 1.202e-09
 57.71262    -46.2 1.196e+04 1.188e-09
 57.74212    -46.2 1.136e+04 9.084e-10
 57.76262    -46.9 1.095e+04 7.767e-10
 57.78428    -46.2 1.062e+04 6.074e-10
 57.80469    -46.0 1.051e+04 5.750e-10
 57.81514    -45.4 1.040e+04 5.299e-10
 57.82539    -45.8 1.020e+04 4.483e-10
 57.84569    -45.4 1.014e+04 4.213e-10
 57.86619    -44.8 1.012e+04 4.127e-10
 57.87801    -44.1 1.019e+04 4.218e-10
 57.88836    -45.3 9.676e+03 2.773e-10
 57.91764    -44.4 9.838e+03 2.779e-10
 57.95865    -44.3 1.030e+04 3.397e-10
 57.98930    -44.2 1.047e+04 4.290e-10
 58.00375    -44.6 1.058e+04 5.054e-10
 58.01400    -45.7 1.031e+04 4.978e-10
 58.03021    -45.7 1.053e+04 6.774e-10
 58.05071    -45.5 1.070e+04 8.238e-10
 58.06661    -45.3 1.084e+04 9.042e-10
 58.07687    -45.6 1.078e+04 8.936e-10
 58.09172    -45.6 1.080e+04 9.027e-10
 58.11933    -45.6 1.077e+04 8.912e-10
 58.13993    -46.2 1.051e+04 8.016e-10
 58.16367    -46.2 1.011e+04 5.839e-10
 58.20467    -46.4 9.655e+03 4.048e-10
 58.24517    -46.6 9.428e+03 3.390e-10
 58.26567    -46.6 9.345e+03 3.452e-10
 58.28668    -46.1 9.328e+03 3.428e-10
 58.32768    -45.6 9.486e+03 3.968e-10
 58.36869    -44.9 9.626e+03 4.539e-10
 58.39141    -44.2 9.648e+03 4.639e-10
 58.41191    -44.5 9.582e+03 4.414e-10
 58.45070    -44.3 9.448e+03 3.939e-10
 58.49170    -44.0 9.267e+03 3.457e-10
 58.51714    -43.5 9.184e+03 3.321e-10
 58.53765    -44.2 9.486e+03 4.430e-10
 58.57371    -43.0 9.543e+03 4.823e-10
 58.61471    -41.5 9.641e+03 5.209e-10
 58.64288    -40.2 9.790e+03 5.558e-10
 58.66338    -43.8 1.168e+04 1.017e-09
 58.68637    -43.2 1.221e+04 1.120e-09
 58.70556    -44.4 1.329e+04 1.536e-09
 58.71581    -46.7 1.369e+04 2.838e-09
 58.72728    -47.0 1.410e+04 4.449e-09
 58.74778    -46.6 1.440e+04 6.391e-09
 58.76828    -45.5 1.486e+04 8.620e-09
 58.77868    -44.1 1.526e+04 1.011e-08
 58.78893    -42.8 1.495e+04 8.402e-09
 58.80929    -41.6 1.508e+04 8.080e-09
 58.82979    -40.3 1.517e+04 5.606e-09
 58.84154    -40.2 1.522e+04 3.184e-09
 58.85180    -43.7 1.448e+04 1.380e-09
 58.87079    -45.8 1.261e+04 8.467e-10
 58.89426    -46.4 1.181e+04 6.402e-10
 58.91486    -47.9 1.034e+04 4.157e-10
 58.94275    -47.1 9.850e+03 3.005e-10
 58.98375    -46.2 9.633e+03 2.512e-10
 59.02010    -45.0 9.611e+03 2.448e-10
 59.04060    -45.3 9.770e+03 2.324e-10
 59.06576    -45.2 1.030e+04 2.895e-10
 59.10676    -45.5 1.122e+04 5.635e-10
 59.14583    -45.4 1.234e+04 1.109e-09
 59.16624    -47.8 1.373e+04 2.047e-09
 59.17833    -47.8 1.437e+04 2.878e-09
 59.19883    -47.9 1.491e+04 3.936e-09
 59.21876    -48.0 1.542e+04 5.176e-09
 59.22901    -48.1 1.519e+04 6.115e-09
 59.23983    -48.1 1.561e+04 6.923e-09
 59.26033    -48.0 1.596e+04 7.570e-09
 59.28084    -47.8 1.612e+04 7.817e-09
 59.29188    -47.5 1.608e+04 7.537e-09
 59.30213    -48.1 1.497e+04 4.981e-09
 59.32184    -48.1 1.449e+04 4.159e-09
 59.34234    -48.3 1.393e+04 3.370e-09
 59.35475    -48.5 1.358e+04 2.875e-09
 59.36500    -48.6 1.281e+04 2.136e-09
 59.38335    -48.4 1.281e+04 2.110e-09
 59.40385    -48.3 1.300e+04 2.224e-09
 59.41762    -48.1 1.333e+04 2.466e-09
 59.42787    -47.6 1.277e+04 1.906e-09
 59.44485    -47.3 1.309e+04 2.113e-09
 59.46535    -47.0 1.336e+04 2.287e-09
 59.48048    -46.7 1.344e+04 2.334e-09
 59.49074    -46.1 1.300e+04 1.873e-09
 59.50636    -45.9 1.305e+04 1.894e-09
 59.52686    -45.7 1.303e+04 1.805e-09
 59.54335    -45.5 1.283e+04 1.535e-09
 59.55360    -45.0 1.266e+04 1.592e-09
 59.56786    -44.8 1.253e+04 1.307e-09
 59.58837    -44.9 1.234e+04 1.073e-09
 59.60622    -45.1 1.207e+04 9.119e-10
 59.61647    -44.5 1.221e+04 9.726e-10
 59.62937    -44.8 1.201e+04 8.781e-10
 59.64987    -44.9 1.189e+04 8.571e-10
 59.66909    -44.8 1.185e+04 8.577e-10
 59.67934    -44.4 1.201e+04 8.789e-10
 59.69088    -44.2 1.199e+04 8.846e-10
 59.71138    -43.8 1.196e+04 9.188e-10
 59.73188    -43.5 1.199e+04 9.376e-10
 59.76273    -43.0 1.201e+04 9.515e-10
 59.79502    -41.8 1.180e+04 8.414e-10
 59.81553    -41.7 1.172e+04 7.416e-10
 59.84484    -40.7 1.165e+04 7.153e-10
 59.88584    -39.7 1.159e+04 7.037e-10
 59.92076    -38.9 1.161e+04 7.321e-10
 59.94126    -39.3 1.223e+04 1.096e-09
 59.96785    -38.6 1.242e+04 1.199e-09
 60.00885    -37.7 1.247e+04 1.233e-09
 60.04650    -36.7 1.238e+04 1.147e-09
 60.06700    -36.9 1.262e+04 1.301e-09
 60.09086    -35.8 1.211e+04 9.313e-10
 60.13187    -34.8 1.157e+04 6.156e-10
 60.17224    -33.8 1.129e+04 4.302e-10
 60.19274    -33.6 1.129e+04 4.023e-10
 60.21387    -32.6 1.116e+04 3.285e-10
 60.25488    -31.3 1.109e+04 3.093e-10
 60.29588    -29.8 1.111e+04 3.046e-10
 60.31848    -28.2 1.119e+04 2.977e-10
 60.33898    -27.7 1.106e+04 2.660e-10
 60.37789    -26.0 1.111e+04 2.454e-10
 60.41890    -24.4 1.117e+04 2.361e-10
 60.44422    -23.3 1.150e+04 2.467e-10
 60.46472    -23.0 1.157e+04 2.466e-10
 60.50090    -22.7 1.172e+04 4.008e-10
 60.54191    -21.8 1.208e+04 7.307e-10
 60.56995    -20.3 1.257e+04 1.130e-09
 60.59046    -21.0 1.309e+04 1.152e-09
 60.62392    -20.1 1.328e+04 1.391e-09
 60.66492    -19.1 1.291e+04 1.209e-09
 60.69569    -17.8 1.248e+04 7.662e-10
 60.71619    -18.4 1.215e+04 6.766e-10
 60.74693    -17.9 1.195e+04 4.795e-10
 60.76871    -17.3 1.200e+04 4.082e-10
 60.77887    -17.4 1.187e+04 3.873e-10
 60.79799    -17.2 1.186e+04 3.886e-10
 60.81849    -16.8 1.202e+04 4.287e-10
 60.83149    -16.8 1.195e+04 4.644e-10
 60.84183    -16.7 1.201e+04 4.204e-10
 60.85959    -16.1 1.200e+04 4.963e-10
 60.88000    -15.9 1.208e+04 5.248e-10
 60.89435    -15.2 1.228e+04 6.086e-10
 60.90461    -15.1 1.207e+04 5.139e-10
 60.92100    -14.8 1.211e+04 5.250e-10
 60.94150    -14.5 1.210e+04 5.271e-10
 60.95722    -14.2 1.206e+04 5.074e-10
 60.96747    -14.0 1.197e+04 4.412e-10
 60.98251    -13.4 1.194e+04 4.103e-10
 61.00301    -13.2 1.195e+04 3.967e-10
 61.02009    -12.6 1.207e+04 3.515e-10
 61.03034    -12.5 1.202e+04 3.471e-10
 61.04401    -12.5 1.207e+04 3.466e-10
 61.06452    -12.2 1.226e+04 3.204e-10
 61.08296    -12.4 1.230e+04 3.489e-10
 61.09331    -11.1 1.215e+04 3.403e-10
 61.11597    -10.2 1.212e+04 3.660e-10
 61.15697     -9.3 1.220e+04 4.437e-10
 61.19797     -7.9 1.213e+04 4.917e-10
 61.21915     -6.2 1.200e+04 4.695e-10
 61.23965     -5.6 1.229e+04 5.887e-10
 61.27998     -4.0 1.211e+04 4.813e-10
 61.32099     -2.1 1.170e+04 2.905e-10
 61.34488     -0.2 1.131e+04 1.486e-10
 61.36539      0.8 1.142e+04 2.418e-10
 61.40299      2.3 1.130e+04 1.105e-10
 61.44400      3.1 1.138e+04 6.705e-11
 61.47062      4.5 1.136e+04 6.005e-11
 61.49112      4.8 1.113e+04 9.672e-11
 61.52601      6.5 1.101e+04 1.283e-10
 61.56701      8.9 1.108e+04 1.725e-10
 61.59636     11.2 1.138e+04 2.008e-10
 61.61686     11.7 1.148e+04 3.679e-10
 61.64902     13.6 1.203e+04 3.677e-10
 61.69002     13.8 1.257e+04 4.534e-10
 61.72210     14.4 1.269e+04 8.409e-10
 61.74260     15.0 1.312e+04 7.672e-10
 61.77203     16.5 1.279e+04 9.924e-10
 61.81304     18.2 1.260e+04 9.741e-10
 61.84784     19.9 1.247e+04 7.691e-10
 61.86834     18.8 1.290e+04 8.643e-10
 61.89504     18.4 1.305e+04 9.847e-10
 61.92086     17.9 1.282e+04 1.112e-09
 61.93101     17.1 1.342e+04 1.419e-09
 61.94610     17.5 1.294e+04 1.633e-09
 61.96661     18.2 1.277e+04 1.713e-09
 61.98363     18.9 1.271e+04 1.657e-09
 61.99388     19.1 1.319e+04 1.871e-09
 62.00761     20.6 1.275e+04 1.379e-09
 62.02811     20.3 1.273e+04 1.083e-09
 62.04650     20.6 1.244e+04 7.029e-10
 62.05675     20.4 1.248e+04 7.172e-10
 62.06912     19.5 1.251e+04 5.417e-10
 62.08962     18.9 1.204e+04 4.531e-10
 62.10937     18.7 1.193e+04 4.456e-10
 62.11962     18.6 1.173e+04 5.107e-10
 62.14097     19.2 1.163e+04 5.174e-10
 62.18207     20.3 1.160e+04 5.246e-10
 62.22308     21.0 1.180e+04 5.093e-10
 62.24545     20.8 1.223e+04 5.194e-10
 62.25561     20.0 1.229e+04 4.869e-10
 62.27414     19.9 1.218e+04 5.462e-10
 62.29464     20.0 1.211e+04 6.329e-10
 62.30823     20.4 1.209e+04 7.105e-10
 62.31848     20.3 1.195e+04 6.798e-10
 62.33564     21.0 1.198e+04 6.826e-10
 62.35615     21.7 1.194e+04 6.511e-10
 62.37109     22.5 1.195e+04 5.440e-10
 62.38135     21.5 1.213e+04 5.575e-10
 62.39715     21.6 1.206e+04 5.179e-10
 62.42800     22.4 1.209e+04 4.375e-10
 62.46910     23.2 1.215e+04 3.304e-10
 62.49703     24.0 1.204e+04 2.614e-10
 62.51753     24.8 1.157e+04 4.650e-10
 62.55111     26.1 1.152e+04 3.605e-10
 62.59211     27.4 1.146e+04 2.805e-10
 62.62277     28.6 1.149e+04 2.674e-10
 62.64327     28.7 1.164e+04 2.591e-10
 62.67412     29.4 1.167e+04 2.912e-10
 62.71513     30.1 1.200e+04 5.228e-10
 62.74578     30.0 1.229e+04 7.036e-10
 62.75856     29.8 1.271e+04 9.709e-10
 62.76881     29.3 1.262e+04 9.437e-10
 62.78669     28.8 1.300e+04 1.432e-09
 62.80719     28.5 1.343e+04 2.113e-09
 62.82143     28.3 1.387e+04 2.907e-09
 62.83168     28.6 1.360e+04 2.550e-09
 62.84820     27.7 1.383e+04 2.730e-09
 62.86870     26.9 1.359e+04 2.575e-09
 62.88430     25.8 1.297e+04 2.234e-09
 62.89465     26.6 1.285e+04 1.656e-09
 62.92015     25.4 1.184e+04 1.067e-09
 62.96115     25.7 1.075e+04 5.878e-10
 62.99998     26.6 1.003e+04 2.857e-10
 63.02048     26.7 9.856e+03 1.881e-10
 63.04316     27.1 9.663e+03 1.200e-10
 63.08416     28.0 9.515e+03 1.125e-10
 63.12517     29.2 9.472e+03 1.201e-10
 63.14622     30.8 9.396e+03 1.363e-10
 63.16672     31.4 9.459e+03 1.519e-10
 63.20718     33.1 9.424e+03 1.528e-10
 63.24818     35.0 9.332e+03 1.395e-10
 63.27196     36.7 9.297e+03 1.065e-10
 63.29246     37.1 9.218e+03 1.371e-10
 63.33019     38.3 9.140e+03 1.116e-10
 63.37119     39.5 9.085e+03 1.033e-10
 63.39769     40.9 9.087e+03 1.042e-10
 63.41820     41.4 9.142e+03 1.305e-10
 63.45320     43.0 9.145e+03 1.301e-10
 63.49421     44.5 9.150e+03 1.276e-10
 63.52343     46.1 9.145e+03 1.238e-10
 63.54393     46.7 9.143e+03 1.394e-10
 63.57621     48.2 9.103e+03 1.398e-10
 63.61722     49.9 9.135e+03 1.350e-10
 63.64917     51.5 9.167e+03 1.285e-10
 63.66967     52.1 9.175e+03 1.388e-10
 63.69923     53.7 9.193e+03 1.308e-10
 63.74023     55.3 9.205e+03 1.184e-10
 63.77491     56.8 9.222e+03 1.033e-10
 63.79541     57.1 9.264e+03 1.429e-10
 63.82224     58.7 9.277e+03 1.283e-10
 63.86324     60.3 9.295e+03 1.125e-10
 63.90065     61.7 9.255e+03 1.015e-10
 63.92115     62.2 9.433e+03 1.389e-10
 63.94525     63.6 9.470e+03 1.218e-10
 63.98626     65.1 9.491e+03 1.221e-10
 64.02638     66.8 9.548e+03 1.262e-10
 64.04689     67.2 9.668e+03 1.523e-10
 64.06826     68.9 9.677e+03 1.553e-10
 64.10927     70.8 9.740e+03 1.725e-10
 64.15027     72.9 1.002e+04 2.237e-10
 64.17262     74.5 1.041e+04 3.163e-10
 64.19313     75.1 1.042e+04 3.295e-10
 64.22193     75.2 1.060e+04 4.188e-10
 64.23530     75.6 1.083e+04 5.684e-10
 64.24555     75.9 1.086e+04 5.647e-10
 64.26284     76.8 1.119e+04 8.060e-10
 64.28334     77.7 1.159e+04 1.138e-09
 64.29817     78.6 1.198e+04 1.526e-09
 64.30842     79.1 1.190e+04 1.341e-09
 64.32434     79.8 1.231e+04 1.629e-09
 64.34485     80.4 1.272e+04 1.907e-09
 64.36104     80.8 1.308e+04 2.157e-09
 64.37129     81.1 1.278e+04 1.713e-09
 64.38585     81.3 1.301e+04 1.890e-09
 64.40635     81.2 1.320e+04 2.067e-09
 64.42390     81.2 1.337e+04 2.252e-09
 64.43416     81.5 1.278e+04 1.700e-09
 64.44736     81.5 1.303e+04 1.943e-09
 64.46786     81.4 1.336e+04 2.297e-09
 64.48677     81.4 1.371e+04 2.785e-09
 64.49702     81.9 1.333e+04 2.212e-09
 64.50886     81.9 1.379e+04 2.930e-09
 64.52936     82.0 1.415e+04 3.717e-09
 64.54964     82.1 1.443e+04 4.431e-09
 64.55989     82.5 1.443e+04 4.200e-09
 64.57037     82.6 1.485e+04 5.253e-09
 64.59087     82.6 1.519e+04 6.028e-09
 64.61137     82.7 1.548e+04 6.582e-09
 64.62276     82.8 1.565e+04 6.536e-09
 64.63301     82.9 1.613e+04 8.535e-09
 64.65238     83.0 1.618e+04 8.126e-09
 64.67288     83.2 1.607e+04 6.255e-09
 64.68563     83.1 1.584e+04 3.687e-09
 64.69588     83.8 1.625e+04 6.350e-09
 64.71388     83.4 1.593e+04 3.090e-09
 64.73439     82.0 1.560e+04 1.210e-09
 64.76524     79.3 1.425e+04 3.853e-10
 64.80131     77.7 1.018e+04 1.584e-10
 64.82182     79.6 1.231e+04 1.899e-10
 64.84734     79.4 9.421e+03 9.918e-11
 64.88835     80.5 9.058e+03 6.489e-11
 64.92705     82.3 9.076e+03 4.427e-11
 64.94755     82.7 9.157e+03 3.833e-11
 64.97035     84.3 8.926e+03 3.209e-11
 65.01136     86.0 8.863e+03 3.210e-11
 65.05236     87.9 8.860e+03 3.240e-11
 65.07329     89.8 8.859e+03 3.377e-11
 65.09379     90.2 8.791e+03 3.397e-11
 65.13437     92.0 8.811e+03 3.753e-11
 65.17537     93.8 8.819e+03 4.282e-11
 65.19903     95.5 8.821e+03 4.961e-11
 65.21953     95.8 8.807e+03 4.974e-11
 65.25738     97.5 8.802e+03 5.700e-11
 65.29839     99.0 8.797e+03 6.547e-11
 65.32477    100.6 8.803e+03 7.410e-11
 65.34527    101.0 8.795e+03 7.342e-11
 65.38040    102.7 8.789e+03 8.269e-11
 65.42140    104.2 8.796e+03 8.581e-11
 65.45051    105.8 8.806e+03 8.504e-11
 65.47101    106.3 8.791e+03 8.876e-11
 65.50341    107.9 8.809e+03 8.440e-11
 65.54441    109.5 8.802e+03 7.521e-11
 65.57624    111.1 8.763e+03 6.445e-11
 65.59675    111.6 8.788e+03 6.658e-11
 65.62642    113.1 8.722e+03 5.600e-11
 65.66742    114.7 8.561e+03 5.159e-11
 65.70198    116.3 8.479e+03 5.162e-11
 65.72248    116.8 8.535e+03 5.270e-11
 65.74943    118.5 8.500e+03 5.315e-11
 65.79044    120.2 8.463e+03 5.574e-11
 65.82772    121.9 8.469e+03 6.094e-11
 65.84822    122.5 8.541e+03 6.506e-11
 65.87245    124.2 8.526e+03 7.380e-11
 65.91345    125.9 8.560e+03 8.683e-11
 65.95346    127.5 8.606e+03 1.051e-10
 65.97396    128.1 8.701e+03 1.182e-10
 65.99546    129.7 8.820e+03 1.486e-10
 66.03646    131.2 9.046e+03 1.978e-10
 66.07747    132.5 9.295e+03 2.543e-10
 66.09970    133.5 9.574e+03 3.187e-10
 66.10985    133.5 9.670e+03 3.712e-10
 66.12853    133.9 9.790e+03 4.019e-10
 66.14903    134.1 9.897e+03 4.375e-10
 66.16237    134.2 9.978e+03 4.655e-10
 66.17262    134.4 1.022e+04 5.553e-10
 66.19003    134.5 1.031e+04 6.016e-10
 66.21053    134.6 1.039e+04 6.409e-10
 66.22524    134.7 1.045e+04 6.662e-10
 66.23549    134.8 1.074e+04 7.433e-10
 66.25154    135.0 1.072e+04 7.472e-10
 66.27204    135.3 1.070e+04 7.396e-10
 66.28811    135.6 1.065e+04 7.230e-10
 66.29836    135.5 1.071e+04 7.270e-10
 66.31304    136.0 1.067e+04 7.139e-10
 66.33355    136.5 1.067e+04 7.146e-10
 66.35098    137.0 1.072e+04 7.269e-10
 66.36123    137.1 1.066e+04 7.047e-10
 66.37455    137.5 1.073e+04 7.349e-10
 66.39505    138.1 1.095e+04 8.257e-10
 66.41385    138.4 1.119e+04 9.368e-10
 66.42410    138.6 1.104e+04 8.801e-10
 66.43606    139.1 1.136e+04 1.038e-09
 66.45656    139.5 1.167e+04 1.207e-09
 66.47672    139.9 1.194e+04 1.356e-09
 66.49732    141.0 1.189e+04 1.319e-09
 66.52851    141.4 1.203e+04 1.404e-09
 66.56952    142.0 1.187e+04 1.323e-09
 66.60265    143.0 1.144e+04 1.076e-09
 66.62315    143.9 1.112e+04 8.772e-10
 66.65152    145.1 1.083e+04 7.530e-10
 66.69253    146.5 1.049e+04 6.196e-10
 66.72839    148.0 1.017e+04 5.244e-10
 66.74889    149.0 1.017e+04 5.161e-10
 66.77454    150.6 9.958e+03 4.598e-10
 66.81554    152.3 9.789e+03 4.192e-10
 66.85412    154.2 9.679e+03 3.926e-10
 66.87463    155.0 9.657e+03 3.681e-10
 66.89755    156.8 9.595e+03 3.613e-10
 66.93855    158.7 9.582e+03 3.589e-10
 66.97956    160.7 9.566e+03 3.589e-10
 67.00036    162.7 9.572e+03 3.616e-10
 67.02087    163.3 9.450e+03 3.051e-10
 67.06156    165.3 9.476e+03 3.020e-10
 67.10257    167.2 9.516e+03 2.997e-10
 67.12610    169.0 9.589e+03 3.012e-10
 67.14660    169.6 9.443e+03 2.546e-10
 67.18458    171.2 9.554e+03 2.646e-10
 67.22558    172.7 9.696e+03 2.843e-10
 67.25184    173.9 9.855e+03 3.130e-10
 67.27234    174.2 9.759e+03 2.988e-10
 67.30759    175.2 9.922e+03 3.320e-10
 67.34859    176.0 1.010e+04 3.669e-10
 67.37758    176.7 1.028e+04 3.945e-10
 67.39808    176.8 1.035e+04 4.302e-10
 67.43060    177.3 1.056e+04 4.750e-10
 67.47161    177.8 1.075e+04 4.993e-10
 67.50332    178.5 1.089e+04 5.068e-10
 67.52382    178.2 1.109e+04 6.013e-10
 67.55361    178.9 1.110e+04 5.935e-10
 67.59462    179.8 1.112e+04 5.955e-10
 67.62905    180.9 1.137e+04 6.652e-10
 67.64956    179.7 1.156e+04 8.463e-10
 67.67663    181.1 1.191e+04 1.003e-09
 67.71763    182.4 1.231e+04 1.235e-09
 67.75479    183.9 1.286e+04 1.579e-09
 67.77529    181.9 1.259e+04 1.328e-09
 67.79964    183.0 1.266e+04 1.279e-09
 67.84064    183.7 1.259e+04 1.003e-09
 67.88053    183.7 1.214e+04 7.021e-10
 67.90103    181.3 1.114e+04 5.102e-10
 67.92265    181.6 1.089e+04 4.671e-10
 67.96366    182.2 1.093e+04 4.810e-10
 68.00466    182.5 1.097e+04 4.926e-10
 68.02677    182.6 1.098e+04 4.872e-10
 68.04727    181.8 1.058e+04 3.408e-10
 68.08667    181.4 1.034e+04 2.735e-10
 68.12767    181.0 1.017e+04 2.430e-10
 68.15251    180.6 1.010e+04 2.380e-10
 68.17301    180.2 9.821e+03 2.258e-10
 68.19933    180.1 9.864e+03 2.359e-10
 68.21518    179.9 9.969e+03 2.604e-10
 68.22543    179.8 1.003e+04 2.695e-10
 68.24024    179.4 1.036e+04 3.484e-10
 68.26074    178.9 1.078e+04 5.024e-10
 68.27805    178.7 1.121e+04 7.625e-10
 68.28830    178.8 1.123e+04 7.889e-10
 68.30174    179.0 1.154e+04 1.134e-09
 68.32225    179.4 1.186e+04 1.587e-09
 68.34092    180.0 1.222e+04 2.146e-09
 68.35117    180.4 1.199e+04 1.815e-09
 68.36325    181.2 1.240e+04 2.310e-09
 68.38375    182.0 1.279e+04 2.816e-09
 68.40379    183.0 1.311e+04 3.407e-09
 68.41404    183.2 1.285e+04 2.814e-09
 68.42476    184.1 1.342e+04 2.969e-09
 68.44526    184.9 1.350e+04 2.893e-09
 68.46576    185.6 1.353e+04 2.669e-09
 68.47691    186.3 1.345e+04 2.296e-09
 68.48716    186.5 1.336e+04 1.979e-09
 68.50677    186.8 1.316e+04 1.683e-09
 68.52727    186.9 1.278e+04 1.360e-09
 68.53978    186.8 1.199e+04 1.021e-09
 68.55003    186.7 1.168e+04 8.316e-10
 68.57862    188.0 1.211e+04 9.496e-10
 68.61972    188.0 1.120e+04 7.623e-10
 68.65546    187.9 1.057e+04 6.329e-10
 68.67596    187.4 1.004e+04 4.631e-10
 68.70173    187.4 9.582e+03 3.712e-10
 68.74273    187.3 9.191e+03 2.790e-10
 68.78120    187.2 8.810e+03 2.009e-10
 68.80170    187.0 8.729e+03 1.949e-10
 68.82474    187.1 8.454e+03 1.633e-10
 68.86575    187.7 8.410e+03 1.613e-10
 68.90675    188.7 8.438e+03 1.671e-10
 68.94775    189.5 8.886e+03 2.489e-10
 68.98876    190.2 9.267e+03 3.347e-10
 69.02976    190.4 9.531e+03 4.199e-10
 69.05308    191.3 1.001e+04 6.000e-10
 69.07358    192.3 1.030e+04 6.943e-10
 69.10142    192.7 1.052e+04 7.892e-10
 69.11585    193.2 1.068e+04 8.394e-10
 69.12610    193.0 1.045e+04 7.234e-10
 69.14233    193.3 1.045e+04 6.951e-10
 69.16283    193.5 1.034e+04 6.324e-10
 69.17872    193.7 1.016e+04 5.582e-10
 69.19932    193.5 9.524e+03 3.396e-10
 69.22444    193.5 9.448e+03 3.292e-10
 69.24159    193.6 9.468e+03 3.345e-10
 69.25184    193.5 9.294e+03 2.878e-10
 69.26534    193.6 9.303e+03 2.893e-10
 69.28584    193.6 9.372e+03 3.007e-10
 69.30446    193.5 9.613e+03 3.430e-10
 69.31471    193.6 9.022e+03 2.490e-10
 69.32685    193.5 9.251e+03 2.807e-10
 69.34735    193.3 9.512e+03 3.435e-10
 69.36732    192.7 9.815e+03 4.426e-10
 69.37758    193.5 9.386e+03 3.266e-10
 69.38835    191.0 1.077e+04 6.603e-10
 69.40886    186.5 1.366e+04 1.567e-09
 69.42418    184.2 1.505e+04 2.329e-09
 69.43439    181.1 1.739e+04 4.059e-09
 69.44035    176.2 2.014e+04 9.318e-09
 69.44547    176.9 2.007e+04 8.506e-09
 69.45489    171.7 2.171e+04 2.006e-08
 69.46514    167.7 2.280e+04 3.337e-08
 69.47178    164.2 2.383e+04 3.541e-08
 69.47691    165.0 2.380e+04 4.182e-08
 69.48564    160.9 2.420e+04 3.938e-08
 69.49589    156.2 2.550e+04 2.849e-08
 69.50326    146.5 2.638e+04 8.799e-09
 69.50839    150.3 2.782e+04 1.542e-08
 69.51639    144.2 2.840e+04 7.303e-09
 69.53182    131.2 2.407e+04 1.828e-09
 69.55237    120.5 1.347e+04 1.447e-09
 69.56618    115.0 1.036e+04 1.312e-09
 69.57643    113.5 9.620e+03 1.302e-09
 69.60372    110.3 1.010e+04 8.094e-10
 69.64483    107.1 1.021e+04 5.567e-10
 69.68186    103.2 1.025e+04 4.713e-10
 69.70237    100.1 1.052e+04 5.303e-10
 69.72683     95.5 1.057e+04 5.516e-10
 69.76784     91.5 1.060e+04 5.820e-10
 69.80760     88.1 1.055e+04 5.846e-10
 69.82801     85.2 1.084e+04 7.094e-10
 69.83940     84.0 1.076e+04 7.053e-10
 69.85990     83.3 1.079e+04 7.174e-10
 69.89075     80.6 1.169e+04 1.001e-09
 69.93185     78.7 1.211e+04 1.205e-09
 69.95384     77.5 1.204e+04 1.203e-09
 69.96400     76.2 1.259e+04 1.770e-09
 69.98291     76.4 1.228e+04 1.624e-09
 70.01376     76.8 1.204e+04 1.346e-09
 70.05487     76.8 1.071e+04 5.385e-10
 70.07958     75.3 8.928e+03 1.640e-10
 70.10008     73.1 8.923e+03 1.306e-10
 70.13687     71.7 8.427e+03 1.102e-10
 70.17788     71.6 8.405e+03 1.126e-10
 70.20532     71.9 8.504e+03 1.351e-10
 70.22582     70.7 8.958e+03 1.996e-10
 70.25989     71.1 9.296e+03 2.913e-10
 70.30089     71.7 9.557e+03 3.725e-10
 70.33106     72.2 9.562e+03 3.747e-10
 70.35156     71.6 9.599e+03 3.768e-10
 70.38290     72.1 9.399e+03 2.744e-10
 70.42390     72.4 9.030e+03 1.763e-10
 70.45679     72.5 8.510e+03 1.213e-10
 70.47730     70.7 8.211e+03 1.053e-10
 70.50591     71.6 8.176e+03 1.061e-10
 70.54692     72.8 8.221e+03 1.142e-10
 70.58253     74.0 8.436e+03 1.374e-10
 70.60303     71.5 8.866e+03 1.889e-10
 70.62892     72.9 8.972e+03 2.562e-10
 70.66993     74.5 9.188e+03 3.306e-10
 70.70827     76.2 9.422e+03 4.052e-10
 70.72877     74.5 9.690e+03 4.134e-10
 70.75194     75.6 9.747e+03 4.061e-10
 70.79294     76.6 9.811e+03 3.857e-10
 70.83395     77.4 9.847e+03 3.715e-10
 70.87495     76.2 9.641e+03 3.462e-10
 70.91595     77.0 9.754e+03 3.581e-10
 70.94661     76.9 9.767e+03 3.575e-10
 70.96701     77.0 9.779e+03 3.632e-10
 70.98005     77.0 9.921e+03 4.090e-10
 70.99030     75.7 9.841e+03 4.009e-10
 71.00802     75.6 1.016e+04 5.150e-10
 71.02852     75.5 1.058e+04 6.983e-10
 71.04292     75.4 1.104e+04 9.623e-10
 71.05317     74.7 1.094e+04 9.270e-10
 71.06952     74.9 1.138e+04 1.191e-09
 71.09003     75.3 1.185e+04 1.483e-09
 71.10579     75.7 1.231e+04 1.741e-09
 71.11604     75.1 1.204e+04 1.226e-09
 71.13103     75.1 1.215e+04 1.216e-09
 71.16188     74.3 1.184e+04 9.771e-10
 71.20298     73.8 1.164e+04 8.619e-10
 71.23172     73.3 1.114e+04 7.662e-10
 71.25223     72.7 1.028e+04 4.109e-10
 71.28499     72.5 1.030e+04 4.351e-10
 71.32599     72.5 1.046e+04 5.471e-10
 71.35746     72.9 1.063e+04 6.805e-10
 71.37796     72.2 1.020e+04 4.746e-10
 71.40800     72.8 1.017e+04 4.796e-10
 71.44901     73.7 1.000e+04 4.396e-10
 71.48320     74.7 9.654e+03 3.343e-10
 71.50370     74.4 9.144e+03 1.737e-10
 71.53102     75.2 8.831e+03 1.029e-10
 71.57202     75.8 8.518e+03 6.508e-11
 71.60894     76.5 8.297e+03 5.124e-11
 71.62944     75.8 8.137e+03 4.268e-11
 71.65403     77.2 8.135e+03 4.422e-11
 71.69503     78.6 8.182e+03 5.041e-11
 71.73468     80.0 8.284e+03 6.342e-11
 71.75518     79.7 8.290e+03 7.696e-11
 71.77704     81.0 8.480e+03 1.127e-10
 71.81804     82.4 8.705e+03 1.551e-10
 71.85905     83.7 8.925e+03 1.849e-10
 71.88092     84.7 8.971e+03 1.841e-10
 71.90142     84.5 8.914e+03 1.662e-10
 71.94106     85.3 8.933e+03 1.349e-10
 71.98206     86.0 8.922e+03 9.678e-11
 72.00665     86.4 8.845e+03 6.794e-11
 72.02716     85.8 8.721e+03 5.654e-11
 72.06407     86.3 8.480e+03 5.403e-11
 72.10507     87.1 8.456e+03 5.423e-11
 72.13239     88.1 8.421e+03 5.647e-11
 72.15289     88.2 8.489e+03 6.052e-11
 72.18708     89.2 8.540e+03 7.165e-11
 72.22809     90.3 8.616e+03 8.792e-11
 72.25813     91.5 8.683e+03 1.077e-10
 72.27863     92.0 8.792e+03 1.144e-10
 72.31009     93.2 8.765e+03 1.234e-10
 72.35110     94.3 8.747e+03 1.236e-10
 72.38387     95.3 8.708e+03 1.239e-10
 72.40437     95.5 8.752e+03 1.213e-10
 72.43311     96.6 8.762e+03 1.224e-10
 72.47411     97.6 8.824e+03 1.298e-10
 72.50960     98.7 8.966e+03 1.596e-10
 72.53011     98.9 9.294e+03 2.409e-10
 72.55612    100.3 9.535e+03 3.336e-10
 72.59712    101.7 9.845e+03 4.556e-10
 72.63534    103.2 1.015e+04 5.924e-10
 72.65575    103.8 1.040e+04 8.019e-10
 72.66868    104.5 1.057e+04 8.519e-10
 72.68919    105.2 1.060e+04 8.523e-10
 72.70827    105.9 1.059e+04 8.413e-10
 72.71852    106.3 1.107e+04 1.037e-09
 72.73019    107.1 1.102e+04 9.449e-10
 72.75069    107.9 1.094e+04 8.211e-10
 72.77114    108.7 1.087e+04 6.936e-10
 72.79164    109.5 1.124e+04 6.097e-10
 72.81220    110.1 1.116e+04 5.118e-10
 72.83270    110.6 1.101e+04 4.631e-10
 72.84426    111.2 1.088e+04 4.592e-10
 72.85451    111.2 1.098e+04 4.741e-10
 72.87371    112.0 1.094e+04 4.749e-10
 72.89421    112.9 1.094e+04 4.801e-10
 72.90713    113.7 1.098e+04 5.056e-10
 72.91738    113.7 1.081e+04 5.192e-10
 72.93521    114.3 1.089e+04 5.674e-10
 72.95571    115.1 1.104e+04 6.431e-10
 72.96999    115.7 1.128e+04 7.517e-10
 72.98025    115.6 1.105e+04 7.378e-10
 72.99672    116.1 1.130e+04 8.563e-10
 73.01722    116.7 1.158e+04 9.901e-10
 73.03286    117.2 1.185e+04 1.126e-09
 73.04311    116.7 1.171e+04 1.085e-09
 73.05822    117.2 1.189e+04 1.179e-09
 73.07873    117.5 1.200e+04 1.217e-09
 73.09573    117.8 1.200e+04 1.215e-09
 73.10598    117.0 1.184e+04 1.192e-09
 73.11973    117.3 1.172e+04 1.151e-09
 73.14023    117.6 1.154e+04 1.073e-09
 73.15860    117.8 1.137e+04 9.846e-10
 73.16885    117.3 1.133e+04 9.859e-10
 73.18124    117.3 1.120e+04 9.210e-10
 73.20174    117.2 1.116e+04 9.177e-10
 73.22147    117.2 1.114e+04 9.259e-10
 73.23172    116.7 1.111e+04 9.403e-10
 73.24274    116.6 1.112e+04 9.867e-10
 73.26324    116.2 1.125e+04 1.180e-09
 73.28375    115.1 1.242e+04 1.646e-09
 73.29459    113.5 1.425e+04 2.405e-09
 73.30484    109.7 1.611e+04 3.686e-09
 73.31958    109.0 1.655e+04 4.093e-09
 73.32593    108.2 1.701e+04 4.503e-09
 73.33105    106.6 1.742e+04 5.341e-09
 73.34003    105.1 1.778e+04 6.457e-09
 73.35028    103.9 1.790e+04 7.528e-09
 73.35736    102.9 1.814e+04 9.040e-09
 73.36249    101.9 1.794e+04 1.063e-08
 73.37078    101.4 1.813e+04 1.179e-08
 73.38621    100.9 1.870e+04 1.456e-08
 73.40676     99.5 1.912e+04 1.596e-08
 73.42033     97.4 1.907e+04 1.539e-08
 73.43058     95.8 1.821e+04 1.169e-08
 73.44776     94.1 1.762e+04 9.879e-09
 73.46827     92.8 1.695e+04 8.246e-09
 73.48320     91.9 1.633e+04 7.012e-09
 73.49345     91.3 1.616e+04 6.377e-09
 73.50927     91.4 1.601e+04 6.179e-09
 73.52977     92.0 1.592e+04 6.070e-09
 73.54607     93.1 1.592e+04 6.096e-09
 73.55632     93.2 1.601e+04 6.194e-09
 73.57078     94.8 1.607e+04 6.329e-09
 73.59128     96.6 1.620e+04 6.532e-09
 73.60893     98.5 1.663e+04 6.759e-09
 73.61919     96.6 1.853e+04 7.412e-09
 73.63228     97.6 2.048e+04 8.677e-09
 73.65278     98.5 2.257e+04 1.003e-08
 73.66811     96.7 2.558e+04 1.272e-08
 73.67683     94.1 2.843e+04 1.842e-08
 73.68196     88.5 2.850e+04 3.629e-08
 73.68856     86.4 2.747e+04 5.968e-08
 73.69882     85.1 2.608e+04 9.104e-08
 73.70827     84.5 2.515e+04 1.237e-07
 73.71339     80.6 2.408e+04 1.289e-07
 73.71932     80.1 2.382e+04 1.183e-07
 73.72957     78.6 2.362e+04 9.258e-08
 73.73970     75.8 2.402e+04 5.856e-08
 73.74483     61.4 2.601e+04 7.650e-09
 73.75007     52.7 2.444e+04 2.850e-09
 73.76032     45.7 2.321e+04 1.403e-09
 73.77057     40.6 2.341e+04 8.584e-10
 73.77626     37.6 2.409e+04 5.626e-10
 73.78139     30.7 1.302e+04 3.080e-10
 73.79108     28.0 1.194e+04 3.171e-10
 73.80133     26.7 1.070e+04 3.215e-10
 73.80774     24.9 1.229e+04 3.546e-10
 73.81804     25.2 9.654e+03 3.574e-10
 73.83730     24.6 9.754e+03 4.358e-10
 73.85780     24.2 1.005e+04 5.253e-10
 73.87066     24.0 1.033e+04 6.179e-10
 73.88091     24.4 1.053e+04 6.601e-10
 73.89881     24.1 1.094e+04 7.918e-10
 73.91931     23.9 1.133e+04 9.087e-10
 73.93353     23.3 1.170e+04 1.012e-09
 73.94378     22.3 1.223e+04 1.270e-09
 73.96031     21.1 1.255e+04 1.419e-09
 73.98082     19.6 1.285e+04 1.615e-09
 73.99640     18.2 1.312e+04 1.882e-09
 74.00665     17.2 1.314e+04 2.004e-09
 74.02182     16.3 1.331e+04 2.212e-09
 74.04232     16.0 1.330e+04 2.336e-09
 74.05927     15.6 1.325e+04 2.233e-09
 74.06952     14.5 1.279e+04 1.805e-09
 74.08333     13.2 1.265e+04 1.677e-09
 74.10383     11.5 1.263e+04 1.676e-09
 74.12214      9.4 1.272e+04 1.787e-09
 74.13239      8.6 1.235e+04 1.595e-09
 74.14483      7.1 1.283e+04 2.008e-09
 74.16534      6.3 1.329e+04 2.478e-09
 74.18501      5.6 1.339e+04 2.560e-09
 74.19526      5.7 1.327e+04 2.462e-09
 74.20634      5.2 1.314e+04 2.349e-09
 74.22684      4.7 1.269e+04 1.929e-09
 74.24734      3.8 1.205e+04 1.386e-09
 74.25813      2.3 1.136e+04 9.454e-10
 74.26838      2.5 1.129e+04 8.953e-10
 74.28835      0.8 1.073e+04 6.283e-10
 74.30885     -0.6 1.033e+04 4.951e-10
 74.32100     -1.5 1.026e+04 4.409e-10
 74.33125     -1.4 1.034e+04 4.168e-10
 74.34985     -1.7 1.035e+04 4.186e-10
 74.37036     -2.1 1.043e+04 4.310e-10
 74.38386     -2.5 1.052e+04 4.538e-10
 74.39412     -2.7 1.067e+04 4.590e-10
 74.41136     -3.3 1.082e+04 5.274e-10
 74.43186     -4.2 1.110e+04 6.487e-10
 74.44673     -5.5 1.164e+04 8.815e-10
 74.45698     -5.8 1.174e+04 9.367e-10
 74.47287     -7.4 1.230e+04 1.323e-09
 74.49337     -8.0 1.253e+04 1.789e-09
 74.50960     -7.8 1.256e+04 1.929e-09
 74.51985     -7.6 1.209e+04 1.521e-09
 74.53437     -7.4 1.186e+04 1.366e-09
 74.55487     -7.8 1.165e+04 1.050e-09
 74.57247     -9.2 1.151e+04 7.374e-10
 74.58272    -10.1 1.112e+04 5.867e-10
 74.59588    -12.5 1.068e+04 4.433e-10
 74.61638    -14.2 1.009e+04 3.928e-10
 74.63534    -14.5 9.879e+03 3.905e-10
 74.64559    -14.2 9.879e+03 3.897e-10
 74.65738    -14.2 9.856e+03 3.907e-10
 74.68806    -13.9 9.757e+03 3.679e-10
 74.72916    -12.5 9.665e+03 3.582e-10
 74.77034    -11.7 9.469e+03 2.920e-10
 74.81135    -10.9 9.268e+03 2.341e-10
 74.83439     -9.9 9.074e+03 1.910e-10
 74.85490     -9.6 9.240e+03 2.339e-10
 74.89335     -8.6 9.216e+03 2.117e-10
 74.93436     -7.8 9.339e+03 2.249e-10
 74.96013     -7.7 9.692e+03 3.028e-10
 74.98063     -8.3 1.021e+04 5.033e-10
 75.01637     -7.7 1.072e+04 8.006e-10
 75.05737     -6.9 1.100e+04 1.022e-09
 75.08587     -6.3 1.093e+04 9.874e-10
 75.10637     -6.7 1.094e+04 1.007e-09
 75.13938     -6.0 1.046e+04 6.973e-10
 75.18038     -5.7 9.869e+03 4.171e-10
 75.21161     -5.7 9.345e+03 2.640e-10
 75.23211     -6.4 9.074e+03 2.078e-10
 75.26239     -6.0 8.773e+03 1.631e-10
 75.30340     -5.0 8.730e+03 1.462e-10
 75.33734     -3.8 8.751e+03 1.472e-10
 75.35785     -3.9 8.638e+03 1.254e-10
 75.38540     -3.0 8.824e+03 1.453e-10
 75.42641     -2.1 9.257e+03 2.038e-10
 75.45706     -2.0 9.395e+03 2.404e-10
 75.47314     -2.3 9.620e+03 2.765e-10
 75.48339     -3.0 9.752e+03 2.925e-10
 75.49797     -5.4 1.088e+04 5.009e-10
 75.51847    -10.3 1.280e+04 1.279e-09
 75.53601    -11.8 1.396e+04 2.998e-09
 75.54626    -12.1 1.406e+04 3.214e-09
 75.55948    -12.0 1.427e+04 4.068e-09
 75.57998    -11.7 1.414e+04 3.866e-09
 75.59888    -11.4 1.363e+04 2.934e-09
 75.60913    -12.8 1.339e+04 2.485e-09
 75.62098    -13.4 1.255e+04 1.365e-09
 75.64148    -15.4 1.176e+04 6.318e-10
 75.66175    -18.7 1.055e+04 2.667e-10
 75.67200    -19.8 1.033e+04 2.491e-10
 75.68249    -20.3 1.018e+04 2.316e-10
 75.71334    -20.2 9.756e+03 2.137e-10
 75.73506    -20.0 9.732e+03 2.437e-10
 75.75556    -21.2 9.878e+03 2.800e-10
 75.79544    -20.6 1.025e+04 4.157e-10
 75.82610    -20.7 1.056e+04 5.444e-10
 75.84650    -20.7 1.080e+04 6.633e-10
 75.86060    -20.7 1.101e+04 7.708e-10
 75.87085    -21.4 1.097e+04 7.671e-10
 75.88751    -21.7 1.107e+04 8.268e-10
 75.90801    -22.1 1.108e+04 8.848e-10
 75.92347    -22.5 1.105e+04 9.262e-10
 75.93372    -23.3 1.084e+04 8.179e-10
 75.94902    -23.9 1.086e+04 8.249e-10
 75.96952    -25.4 1.121e+04 8.932e-10
 75.98634    -29.3 1.234e+04 1.179e-09
 75.99659    -31.5 1.252e+04 1.270e-09
 76.01052    -35.7 1.328e+04 2.161e-09
 76.03102    -37.2 1.323e+04 2.926e-09
 76.04921    -37.6 1.309e+04 2.899e-09
 76.05946    -38.2 1.285e+04 2.679e-09
 76.07203    -39.9 1.307e+04 2.385e-09
 76.09253    -43.6 1.304e+04 1.815e-09
 76.11208    -48.3 1.189e+04 1.238e-09
 76.12233    -49.5 1.158e+04 1.176e-09
 76.13353    -52.9 1.056e+04 9.464e-10
 76.15404    -54.9 1.067e+04 8.755e-10
 76.17454    -56.9 1.080e+04 8.465e-10
 76.18520    -59.5 1.055e+04 7.990e-10
 76.19545    -60.4 1.060e+04 8.561e-10
 76.21554    -62.1 1.029e+04 7.949e-10
 76.23604    -63.4 1.018e+04 7.760e-10
 76.24807    -64.2 1.012e+04 7.566e-10
 76.25832    -64.9 1.013e+04 7.578e-10
 76.27705    -66.0 9.911e+03 6.781e-10
 76.29755    -66.6 9.688e+03 6.134e-10
 76.31094    -67.3 9.395e+03 5.214e-10
 76.32119    -68.1 9.315e+03 5.002e-10
 76.33855    -68.5 9.118e+03 4.380e-10
 76.36365    -68.4 9.037e+03 3.698e-10
 76.38425    -69.7 8.949e+03 3.560e-10
 76.41051    -70.9 8.772e+03 3.092e-10
 76.45151    -71.1 8.697e+03 3.096e-10
 76.48949    -70.4 8.517e+03 3.069e-10
 76.50999    -70.6 8.394e+03 2.809e-10
 76.53352    -69.3 8.150e+03 2.116e-10
 76.57452    -68.7 7.954e+03 1.546e-10
 76.61523    -68.5 7.853e+03 1.319e-10
 76.63573    -68.5 7.835e+03 1.302e-10
 76.65653    -67.8 7.923e+03 1.380e-10
 76.69754    -66.7 8.053e+03 1.744e-10
 76.73854    -65.3 8.275e+03 2.171e-10
 76.76147    -63.9 8.547e+03 2.612e-10
 76.78197    -63.9 8.564e+03 2.503e-10
 76.82055    -62.8 8.744e+03 2.957e-10
 76.86155    -61.6 8.814e+03 3.109e-10
 76.88720    -60.2 8.785e+03 2.886e-10
 76.90771    -60.3 8.845e+03 3.028e-10
 76.94356    -59.2 8.849e+03 2.575e-10
 76.98456    -58.5 8.930e+03 2.435e-10
 77.01294    -58.0 9.027e+03 2.773e-10
 77.03344    -57.9 8.999e+03 2.699e-10
 77.06657    -56.7 9.114e+03 3.037e-10
 77.10758    -55.7 9.341e+03 3.075e-10
 77.13868    -55.3 9.596e+03 3.322e-10
 77.15918    -55.3 9.655e+03 3.457e-10
 77.18959    -54.7 9.849e+03 4.080e-10
 77.23059    -53.9 9.892e+03 4.172e-10
 77.26442    -52.8 9.889e+03 3.639e-10
 77.28492    -52.2 9.905e+03 3.642e-10
 77.31260    -51.5 1.002e+04 2.852e-10
 77.35360    -50.8 9.932e+03 2.726e-10
 77.39016    -49.9 9.889e+03 2.935e-10
 77.41066    -49.2 9.843e+03 2.627e-10
 77.43561    -47.9 9.842e+03 2.956e-10
 77.47661    -46.3 9.887e+03 3.093e-10
 77.51589    -44.2 9.789e+03 2.837e-10
 77.53640    -43.5 9.658e+03 2.367e-10
 77.55862    -41.5 9.588e+03 1.872e-10
 77.59963    -39.8 9.556e+03 1.411e-10
 77.64063    -38.4 9.523e+03 1.131e-10
 77.66213    -37.1 9.415e+03 1.006e-10
 77.68264    -36.5 9.370e+03 1.106e-10
 77.72264    -34.9 9.315e+03 1.140e-10
 77.76364    -33.1 9.284e+03 1.198e-10
 77.78787    -31.3 9.329e+03 1.288e-10
 77.80837    -30.8 9.347e+03 1.492e-10
 77.84565    -29.4 9.501e+03 1.709e-10
 77.88666    -28.5 9.709e+03 2.398e-10
 77.91361    -26.7 1.022e+04 4.216e-10
 77.93411    -26.6 1.028e+04 4.490e-10
 77.96866    -25.2 1.109e+04 7.626e-10
 77.99932    -25.6 1.181e+04 1.156e-09
 78.01972    -25.7 1.240e+04 1.688e-09
 78.03915    -25.5 1.289e+04 2.326e-09
 78.04940    -25.9 1.286e+04 2.364e-09
 78.06073    -25.4 1.326e+04 2.923e-09
 78.08123    -24.8 1.348e+04 3.307e-09
 78.10173    -24.2 1.347e+04 3.500e-09
 78.11227    -23.9 1.354e+04 3.367e-09
 78.12252    -23.8 1.295e+04 2.629e-09
 78.14274    -24.1 1.342e+04 2.458e-09
 78.16324    -26.3 1.511e+04 2.943e-09
 78.17509    -29.2 1.659e+04 3.172e-09
 78.18017    -30.8 1.662e+04 2.721e-09
 78.18877    -32.7 1.789e+04 3.178e-09
 78.19902    -39.0 2.151e+04 6.210e-09
 78.20648    -42.6 2.026e+04 1.063e-08
 78.21160    -43.0 1.979e+04 8.833e-09
 78.21952    -43.3 1.802e+04 1.409e-08
 78.22977    -42.9 1.720e+04 2.120e-08
 78.23791    -41.4 1.744e+04 3.061e-08
 78.24304    -41.8 1.724e+04 2.830e-08
 78.25027    -40.2 1.798e+04 3.605e-08
 78.26053    -39.1 1.820e+04 3.560e-08
 78.26935    -37.9 1.818e+04 3.051e-08
 78.27447    -37.7 1.815e+04 3.049e-08
 78.28620    -37.0 1.797e+04 1.908e-08
 78.30088    -38.2 1.801e+04 8.678e-09
 78.31113    -37.8 1.765e+04 9.482e-09
 78.32725    -41.6 1.663e+04 3.601e-09
 78.34776    -47.2 1.330e+04 1.628e-09
 78.36375    -48.9 1.142e+04 1.172e-09
 78.37400    -48.6 1.127e+04 1.061e-09
 78.38876    -48.4 1.082e+04 9.144e-10
 78.40926    -47.5 1.049e+04 8.008e-10
 78.42662    -46.6 1.025e+04 6.943e-10
 78.43687    -46.6 1.009e+04 6.087e-10
 78.46062    -45.6 9.760e+03 4.022e-10
 78.50172    -43.5 9.081e+03 2.164e-10
 78.54230    -43.1 8.723e+03 1.161e-10
 78.56280    -42.9 8.662e+03 1.087e-10
 78.58373    -42.7 8.551e+03 9.271e-11
 78.62473    -42.2 8.538e+03 9.742e-11
 78.66573    -41.3 8.534e+03 1.232e-10
 78.68854    -39.8 8.483e+03 1.474e-10
 78.70904    -39.4 8.391e+03 1.343e-10
 78.74774    -37.6 8.261e+03 1.242e-10
 78.78875    -35.8 8.071e+03 1.002e-10
 78.81428    -34.0 7.903e+03 7.397e-11
 78.83478    -33.5 7.794e+03 5.770e-11
 78.87075    -31.9 7.704e+03 4.272e-11
 78.91176    -30.5 7.671e+03 3.349e-11
 78.94001    -29.0 7.636e+03 2.944e-11
 78.96052    -28.3 7.577e+03 2.701e-11
 78.99377    -26.6 7.574e+03 2.709e-11
 79.03477    -24.7 7.592e+03 2.769e-11
 79.06575    -22.9 7.633e+03 2.932e-11
 79.08625    -21.9 7.638e+03 2.836e-11
 79.11678    -20.0 7.717e+03 3.048e-11
 79.15778    -18.2 7.826e+03 3.457e-11
 79.19149    -16.3 7.940e+03 4.111e-11
 79.21199    -15.4 7.947e+03 4.048e-11
 79.23979    -13.7 8.064e+03 5.045e-11
 79.28080    -12.2 8.199e+03 6.647e-11
 79.31723    -10.8 8.353e+03 9.424e-11
 79.33773     -9.9 8.356e+03 9.224e-11
 79.36280     -8.5 8.552e+03 1.348e-10
 79.40381     -7.0 8.815e+03 1.879e-10
 79.44297     -5.5 9.042e+03 2.193e-10
 79.46347     -4.6 9.027e+03 2.146e-10
 79.48582     -3.4 9.067e+03 2.090e-10
 79.52682     -2.3 9.084e+03 1.775e-10
 79.56783     -1.5 9.063e+03 1.321e-10
 79.58921     -0.9 9.011e+03 1.053e-10
 79.60971      0.1 9.063e+03 1.137e-10
 79.64983      0.8 9.028e+03 1.108e-10
 79.69084      1.8 9.045e+03 1.171e-10
 79.71494      2.9 9.088e+03 1.394e-10
 79.73545      3.9 9.113e+03 1.387e-10
 79.77285      5.3 9.182e+03 1.683e-10
 79.81385      6.7 9.294e+03 1.954e-10
 79.84068      7.9 9.416e+03 2.024e-10
 79.86118      8.6 9.466e+03 2.030e-10
 79.89586      9.3 9.667e+03 2.180e-10
 79.93686      9.7 9.841e+03 2.342e-10
 79.96642      9.9 9.915e+03 2.440e-10
 79.98692     10.3 1.016e+04 3.191e-10
 80.01887     10.3 1.014e+04 3.235e-10
 80.05987     10.3 1.009e+04 3.205e-10
 80.09216     10.4 1.001e+04 3.142e-10
 80.11266     10.1 1.035e+04 4.678e-10
 80.14188     10.1 1.034e+04 4.894e-10
 80.18289     10.2 1.037e+04 5.194e-10
 80.21790     10.4 1.043e+04 5.591e-10
 80.23840      9.6 1.062e+04 7.143e-10
 80.26490     10.0 1.065e+04 7.362e-10
 80.29092     10.6 1.054e+04 6.713e-10
 80.30107     10.3 1.052e+04 6.790e-10
 80.31596     10.5 1.048e+04 6.830e-10
 80.33646     10.9 1.029e+04 6.839e-10
 80.35369     11.4 1.016e+04 6.501e-10
 80.36394     11.1 9.987e+03 5.530e-10
 80.38781     11.0 9.932e+03 4.625e-10
 80.42891     11.7 9.805e+03 4.063e-10
 80.46937     12.5 9.558e+03 3.381e-10
 80.48987     12.6 9.477e+03 3.350e-10
 80.51092     13.4 9.437e+03 3.077e-10
 80.55192     14.2 9.479e+03 3.080e-10
 80.59293     14.7 9.667e+03 3.286e-10
 80.61551     15.1 9.832e+03 3.467e-10
 80.62567     15.4 9.947e+03 3.811e-10
 80.64399     14.6 1.029e+04 5.018e-10
 80.66449     13.9 1.066e+04 6.955e-10
 80.67829     13.4 1.104e+04 9.445e-10
 80.68854     13.6 1.134e+04 1.118e-09
 80.70549     13.2 1.167e+04 1.315e-09
 80.72600     12.6 1.197e+04 1.344e-09
 80.74115     11.2 1.226e+04 1.367e-09
 80.75141     10.6 1.276e+04 1.703e-09
 80.76700      7.8 1.337e+04 1.864e-09
 80.78750      4.5 1.374e+04 2.177e-09
 80.80402      2.0 1.358e+04 2.465e-09
 80.81427      2.1 1.396e+04 2.886e-09
 80.82851      0.9 1.350e+04 2.641e-09
 80.84901      0.2 1.315e+04 2.127e-09
 80.86689     -0.7 1.290e+04 1.558e-09
 80.87714     -0.9 1.306e+04 1.433e-09
 80.89001     -2.9 1.274e+04 9.771e-10
 80.91052     -5.3 1.239e+04 7.776e-10
 80.92976     -7.1 1.187e+04 8.018e-10
 80.94001     -7.3 1.195e+04 8.679e-10
 80.96187     -8.3 1.187e+04 9.018e-10
 80.99283     -8.5 1.179e+04 9.701e-10
 81.01333     -8.4 1.200e+04 1.107e-09
 81.04397     -8.4 1.165e+04 9.733e-10
 81.08498     -8.2 1.139e+04 7.878e-10
 81.11563     -8.3 1.126e+04 6.734e-10
 81.12862     -8.8 1.118e+04 6.028e-10
 81.13887     -8.9 1.099e+04 5.502e-10
 81.15654     -9.4 1.095e+04 5.519e-10
 81.17704     -9.8 1.087e+04 5.785e-10
 81.19149    -10.0 1.080e+04 6.463e-10
 81.20174     -9.8 1.072e+04 6.355e-10
 81.21805     -9.7 1.075e+04 7.408e-10
 81.23855     -9.5 1.092e+04 8.787e-10
 81.25436     -9.3 1.123e+04 1.060e-09
 81.26461     -8.9 1.122e+04 1.042e-09
 81.28990     -8.7 1.159e+04 1.163e-09
 81.33100     -8.4 1.207e+04 1.449e-09
 81.36166     -8.1 1.271e+04 2.050e-09
 81.38009     -7.8 1.280e+04 2.167e-09
 81.39035     -7.8 1.336e+04 2.966e-09
 81.40256     -7.4 1.349e+04 3.122e-09
 81.42307     -6.9 1.353e+04 3.189e-09
 81.44296     -6.3 1.354e+04 3.176e-09
 81.45321     -6.2 1.386e+04 3.700e-09
 81.46407     -5.7 1.379e+04 3.537e-09
 81.48457     -5.1 1.371e+04 3.396e-09
 81.50507     -4.4 1.367e+04 3.309e-09
 81.51608     -3.7 1.368e+04 3.279e-09
 81.52633     -3.8 1.369e+04 3.275e-09
 81.54608     -3.0 1.375e+04 3.303e-09
 81.56658     -2.7 1.395e+04 3.455e-09
 81.57895     -2.6 1.428e+04 3.976e-09
 81.58920     -2.9 1.402e+04 3.592e-09
 81.60759     -2.4 1.467e+04 4.655e-09
 81.62809     -2.7 1.555e+04 6.219e-09
 81.64182     -4.4 1.783e+04 1.067e-08
 81.65207     -5.2 1.711e+04 8.113e-09
 81.66392     -6.8 1.855e+04 1.144e-08
 81.67316     -7.6 1.922e+04 1.394e-08
 81.67828     -7.8 1.875e+04 1.229e-08
 81.68437     -8.8 1.920e+04 1.529e-08
 81.69462     -9.0 1.919e+04 1.769e-08
 81.70459     -9.1 1.905e+04 1.752e-08
 81.70972     -9.3 1.854e+04 1.518e-08
 81.71512     -9.5 1.841e+04 1.487e-08
 81.73055     -9.2 1.771e+04 1.254e-08
 81.75110     -9.0 1.662e+04 7.789e-09
 81.76756     -9.9 1.556e+04 4.203e-09
 81.77781     -9.9 1.491e+04 3.485e-09
 81.79210    -13.0 1.378e+04 2.001e-09
 81.81261    -16.4 1.213e+04 1.349e-09
 81.83043    -18.0 1.161e+04 1.288e-09
 81.84068    -17.7 1.147e+04 1.109e-09
 81.85361    -20.7 1.220e+04 1.405e-09
 81.87411    -25.3 1.406e+04 2.340e-09
 81.89330    -28.8 1.506e+04 4.009e-09
 81.90355    -30.3 1.524e+04 4.790e-09
 81.91512    -31.7 1.560e+04 6.107e-09
 81.93562    -33.4 1.556e+04 5.893e-09
 81.95612    -34.8 1.513e+04 4.909e-09
 81.97662    -37.9 1.400e+04 2.734e-09
 81.99712    -41.1 1.267e+04 1.711e-09
 82.01763    -43.5 1.148e+04 1.149e-09
 82.02929    -44.8 1.075e+04 8.473e-10
 82.03954    -45.2 1.073e+04 8.539e-10
 82.05863    -45.8 1.044e+04 7.178e-10
 82.07913    -46.6 1.029e+04 6.309e-10
 82.09216    -47.4 1.017e+04 5.743e-10
 82.10241    -47.6 1.030e+04 6.252e-10
 82.12014    -48.5 1.021e+04 5.999e-10
 82.14064    -49.2 1.016e+04 5.979e-10
 82.15502    -49.8 1.015e+04 6.068e-10
 82.16528    -49.6 1.011e+04 6.240e-10
 82.18164    -49.8 1.009e+04 6.206e-10
 82.20215    -50.2 1.017e+04 6.249e-10
 82.21789    -50.6 1.028e+04 6.347e-10
 82.22814    -50.2 1.020e+04 5.771e-10
 82.24315    -50.7 1.031e+04 5.698e-10
 82.26365    -51.6 1.054e+04 5.962e-10
 82.28076    -53.1 1.102e+04 6.695e-10
 82.29101    -53.1 1.099e+04 6.034e-10
 82.30466    -54.5 1.114e+04 7.118e-10
 82.32516    -55.0 1.094e+04 8.628e-10
 82.34363    -56.0 1.147e+04 9.615e-10
 82.35388    -57.1 1.207e+04 1.176e-09
 82.36616    -60.3 1.450e+04 1.608e-09
 82.38666    -63.5 1.542e+04 2.091e-09
 82.40650    -66.3 1.429e+04 2.334e-09
 82.41675    -65.6 1.401e+04 2.522e-09
 82.42767    -66.4 1.303e+04 2.448e-09
 82.44817    -66.8 1.268e+04 2.189e-09
 82.46867    -67.2 1.259e+04 1.964e-09
 82.47962    -67.9 1.253e+04 1.744e-09
 82.48987    -67.6 1.222e+04 1.448e-09
 82.50968    -68.9 1.193e+04 1.312e-09
 82.53018    -70.4 1.188e+04 1.277e-09
 82.54249    -72.4 1.233e+04 1.415e-09
 82.55274    -71.6 1.182e+04 1.171e-09
 82.57118    -73.2 1.229e+04 1.415e-09
 82.59168    -74.2 1.227e+04 1.651e-09
 82.60536    -74.4 1.212e+04 1.722e-09
 82.61561    -73.4 1.183e+04 1.477e-09
 82.63269    -73.2 1.157e+04 1.466e-09
 82.65319    -72.7 1.138e+04 1.241e-09
 82.66823    -72.7 1.138e+04 9.310e-10
 82.67848    -71.7 1.116e+04 8.971e-10
 82.69419    -73.1 1.124e+04 6.805e-10
 82.71470    -75.3 1.043e+04 4.929e-10
 82.73110    -76.8 9.782e+03 4.137e-10
 82.74135    -75.4 1.000e+04 4.274e-10
 82.75570    -75.9 9.790e+03 4.031e-10
 82.77620    -76.3 9.794e+03 4.192e-10
 82.79396    -77.0 1.011e+04 4.620e-10
 82.80422    -76.1 1.032e+04 4.675e-10
 82.81721    -77.3 1.071e+04 5.760e-10
 82.83771    -78.4 1.113e+04 7.847e-10
 82.85683    -78.9 1.149e+04 1.101e-09
 82.86708    -78.5 1.169e+04 1.161e-09
 82.87871    -78.6 1.206e+04 1.593e-09
 82.89922    -78.1 1.243e+04 1.977e-09
 82.91970    -77.7 1.272e+04 2.149e-09
 82.94020    -77.4 1.292e+04 2.239e-09
 82.96072    -77.9 1.302e+04 2.041e-09
 82.98122    -79.0 1.306e+04 1.838e-09
 82.99282    -80.6 1.319e+04 1.740e-09
 83.00307    -80.2 1.321e+04 1.752e-09
 83.02223    -81.7 1.331e+04 1.726e-09
 83.04273    -83.0 1.325e+04 1.720e-09
 83.05569    -83.7 1.300e+04 1.688e-09
 83.06594    -83.1 1.273e+04 1.428e-09
 83.08373    -83.4 1.230e+04 1.247e-09
 83.10424    -83.6 1.187e+04 9.999e-10
 83.11856    -84.3 1.150e+04 7.712e-10
 83.12881    -83.8 1.109e+04 6.096e-10
 83.14524    -84.6 1.086e+04 4.997e-10
 83.16574    -85.3 1.070e+04 4.543e-10
 83.18143    -85.7 1.065e+04 4.483e-10
 83.19168    -84.7 1.033e+04 3.528e-10
 83.20675    -84.7 1.035e+04 3.778e-10
 83.22725    -84.6 1.042e+04 4.281e-10
 83.25810    -83.6 1.046e+04 4.498e-10
 83.28885    -82.3 1.034e+04 4.612e-10
 83.30717    -82.2 1.033e+04 4.653e-10
 83.31752    -81.7 1.013e+04 4.046e-10
 83.32986    -80.8 1.022e+04 4.772e-10
 83.35026    -80.6 1.022e+04 4.872e-10
 83.38111    -79.3 1.032e+04 5.316e-10
 83.42221    -77.8 1.031e+04 5.243e-10
 83.44335    -76.7 1.018e+04 4.830e-10
 83.46385    -76.8 1.013e+04 4.979e-10
 83.50422    -76.2 1.002e+04 4.674e-10
 83.54523    -75.9 1.021e+04 5.178e-10
 83.56899    -75.4 1.065e+04 7.193e-10
 83.58949    -75.6 1.041e+04 6.457e-10
 83.61689    -74.4 1.071e+04 7.949e-10
 83.63176    -74.5 1.117e+04 1.004e-09
 83.64201    -74.7 1.085e+04 8.573e-10
 83.65779    -74.8 1.135e+04 1.141e-09
 83.67829    -75.2 1.165e+04 1.458e-09
 83.69463    -75.3 1.203e+04 1.879e-09
 83.70488    -75.3 1.163e+04 1.684e-09
 83.71930    -75.2 1.209e+04 2.076e-09
 83.73980    -75.1 1.278e+04 2.507e-09
 83.75750    -75.3 1.352e+04 2.892e-09
 83.76775    -75.5 1.298e+04 2.485e-09
 83.78080    -75.8 1.340e+04 2.673e-09
 83.80131    -75.9 1.354e+04 2.723e-09
 83.82037    -75.6 1.338e+04 2.582e-09
 83.83062    -75.5 1.253e+04 2.087e-09
 83.84231    -74.6 1.214e+04 1.765e-09
 83.86281    -73.8 1.168e+04 1.402e-09
 83.88324    -73.3 1.111e+04 1.059e-09
 83.90374    -72.9 1.029e+04 7.328e-10
 83.92432    -72.6 9.965e+03 6.013e-10
 83.94482    -72.3 9.773e+03 5.397e-10
 83.95636    -71.6 9.633e+03 5.013e-10
 83.96661    -71.5 9.612e+03 5.015e-10
 83.98582    -70.9 9.539e+03 4.706e-10
 84.00633    -70.5 9.591e+03 4.746e-10
 84.01923    -69.5 9.918e+03 5.304e-10
 84.02948    -69.4 1.005e+04 6.146e-10
 84.04733    -69.4 1.004e+04 6.248e-10
 84.07194    -67.7 1.050e+04 7.465e-10
 84.09254    -67.4 1.068e+04 9.802e-10
 84.10893    -65.3 1.087e+04 9.651e-10
 84.12934    -64.7 1.062e+04 8.759e-10
 84.16019    -62.9 1.040e+04 7.577e-10
 84.19778    -61.2 9.684e+03 4.428e-10
 84.21828    -60.7 9.739e+03 4.970e-10
 84.24230    -59.6 9.219e+03 3.252e-10
 84.28330    -57.9 8.966e+03 2.733e-10
 84.32352    -55.7 8.830e+03 2.593e-10
 84.34402    -55.3 8.700e+03 2.541e-10
 84.36531    -52.9 8.689e+03 2.466e-10
 84.40631    -50.7 8.837e+03 2.513e-10
 84.44732    -48.7 9.107e+03 3.177e-10
 84.46976    -46.7 9.465e+03 4.043e-10
 84.49026    -46.3 9.316e+03 3.798e-10
 84.52932    -43.9 9.502e+03 4.385e-10
 84.57033    -41.3 9.487e+03 4.513e-10
 84.59549    -38.6 9.518e+03 4.627e-10
 84.61600    -38.1 9.289e+03 3.879e-10
 84.65234    -35.2 9.239e+03 3.624e-10
 84.69334    -32.2 9.152e+03 3.135e-10
 84.72123    -29.4 9.137e+03 2.635e-10
 84.74173    -29.4 8.948e+03 2.151e-10
 84.77535    -26.8 8.987e+03 2.027e-10
 84.81635    -24.1 9.068e+03 2.127e-10
 84.84697    -21.6 9.249e+03 2.430e-10
 84.86747    -21.8 9.148e+03 2.335e-10
 84.89836    -19.0 9.344e+03 2.971e-10
 84.93937    -15.9 9.593e+03 3.755e-10
 84.97271    -12.6 9.823e+03 4.470e-10
 84.99321    -12.8 9.614e+03 3.756e-10
 85.02137     -9.7 9.699e+03 3.940e-10
 85.06238     -6.8 9.707e+03 3.980e-10
 85.09845     -3.9 9.702e+03 4.018e-10
 85.11895     -4.3 9.498e+03 3.426e-10
 85.14439     -1.7 9.502e+03 3.555e-10
 85.18539      1.3 9.571e+03 3.820e-10
 85.22418      4.1 9.745e+03 4.266e-10
 85.24469      3.6 9.656e+03 4.028e-10
 85.26740      5.8 9.795e+03 4.505e-10
 85.29721      7.1 9.838e+03 4.912e-10
 85.30736      6.8 9.804e+03 4.802e-10
 85.31846      7.9 9.853e+03 5.259e-10
 85.33896      9.0 9.989e+03 5.851e-10
 85.35946     10.0 1.015e+04 6.377e-10
 85.37023     10.9 1.027e+04 6.879e-10
 85.38048     10.3 1.023e+04 6.780e-10
 85.40047     11.1 1.033e+04 7.245e-10
 85.42097     11.7 1.045e+04 7.777e-10
 85.43310     12.2 1.063e+04 8.461e-10
 85.44335     11.6 1.049e+04 8.070e-10
 85.46197     11.7 1.062e+04 8.750e-10
 85.48248     11.8 1.071e+04 9.540e-10
 85.49597     11.7 1.073e+04 1.009e-09
 85.50622     11.2 1.046e+04 9.058e-10
 85.52348     11.0 1.043e+04 9.006e-10
 85.54398     10.8 1.040e+04 8.845e-10
 85.55884     10.3 1.034e+04 8.446e-10
 85.56909      9.6 1.027e+04 8.056e-10
 85.58499      8.4 1.023e+04 7.677e-10
 85.60549      6.8 1.016e+04 7.206e-10
 85.62170      5.2 1.003e+04 6.905e-10
 85.63196      4.1 1.022e+04 7.637e-10
 85.64649      2.9 1.011e+04 7.443e-10
 85.66699      2.2 9.979e+03 7.295e-10
 85.68457      2.0 9.854e+03 7.088e-10
 85.69482      1.4 9.888e+03 7.251e-10
 85.70800      1.4 9.691e+03 6.713e-10
 85.72850      1.7 9.461e+03 5.964e-10
 85.74744      2.0 9.215e+03 5.060e-10
 85.75769      1.6 9.104e+03 4.575e-10
 85.76950      1.6 9.015e+03 4.174e-10
 85.80036      2.4 8.741e+03 3.521e-10
 85.84146      3.6 8.481e+03 3.080e-10
 85.87338      4.9 8.468e+03 3.055e-10
 85.89388      4.8 8.455e+03 3.035e-10
 85.92347      6.2 8.544e+03 3.256e-10
 85.96447      7.6 8.738e+03 3.708e-10
 85.99911      9.1 9.000e+03 4.299e-10
 86.01962      9.4 8.920e+03 4.182e-10
 86.04648     11.2 9.102e+03 4.403e-10
 86.08748     12.7 9.155e+03 4.353e-10
 86.12485     14.0 9.245e+03 4.394e-10
 86.14535     14.4 9.077e+03 3.984e-10
 86.16949     15.3 9.266e+03 4.259e-10
 86.19787     15.9 9.422e+03 4.794e-10
 86.20803     16.3 9.318e+03 4.431e-10
 86.22055     16.7 9.360e+03 4.559e-10
 86.24105     17.7 9.441e+03 4.723e-10
 86.26065     18.1 9.487e+03 4.784e-10
 86.27099     18.4 9.296e+03 4.134e-10
 86.29250     19.6 9.303e+03 4.029e-10
 86.33351     20.8 9.188e+03 3.605e-10
 86.37451     21.9 9.212e+03 3.623e-10
 86.39673     22.2 9.285e+03 3.829e-10
 86.40689     22.7 9.204e+03 3.659e-10
 86.42557     22.8 9.373e+03 4.102e-10
 86.44607     23.0 9.698e+03 5.068e-10
 86.45950     23.2 1.015e+04 6.577e-10
 86.46975     23.6 1.003e+04 6.235e-10
 86.48708     23.7 1.056e+04 8.229e-10
 86.50758     23.8 1.115e+04 1.084e-09
 86.52237     23.8 1.173e+04 1.411e-09
 86.53262     24.3 1.156e+04 1.329e-09
 86.54858     24.4 1.205e+04 1.663e-09
 86.56909     24.6 1.219e+04 1.761e-09
 86.58524     24.8 1.214e+04 1.729e-09
 86.59549     25.3 1.202e+04 1.665e-09
 86.61009     25.6 1.188e+04 1.563e-09
 86.63059     25.9 1.155e+04 1.304e-09
 86.64811     25.8 1.110e+04 9.657e-10
 86.65836     26.4 1.112e+04 9.881e-10
 86.67160     26.1 1.092e+04 8.680e-10
 86.70245     26.3 1.057e+04 7.304e-10
 86.74355     26.1 1.030e+04 6.577e-10
 86.77404     25.8 1.024e+04 6.533e-10
 86.79455     27.2 1.074e+04 8.372e-10
 86.82556     26.6 1.062e+04 8.034e-10
 86.86656     25.9 1.043e+04 7.494e-10
 86.89978     24.9 1.042e+04 7.333e-10
 86.92028     26.2 1.052e+04 7.553e-10
 86.94857     24.6 1.052e+04 7.492e-10
 86.98957     22.0 1.066e+04 7.906e-10
 87.02552     18.7 1.137e+04 1.026e-09
 87.04602     18.8 1.162e+04 1.084e-09
 87.06123     15.7 1.217e+04 1.390e-09
 87.08164     14.3 1.237e+04 1.547e-09
 87.09844     13.5 1.239e+04 1.543e-09
 87.10870     13.0 1.249e+04 1.615e-09
 87.12264     12.1 1.244e+04 1.579e-09
 87.14314     11.7 1.228e+04 1.487e-09
 87.16131     11.6 1.196e+04 1.292e-09
 87.17156     11.4 1.199e+04 1.308e-09
 87.18415     11.3 1.156e+04 1.056e-09
 87.20465     11.2 1.109e+04 8.212e-10
 87.22418     11.1 1.069e+04 6.442e-10
 87.23443     11.0 1.066e+04 6.546e-10
 87.24565     11.0 1.031e+04 5.365e-10
 87.26616     11.2 1.008e+04 4.817e-10
 87.28666     11.7 1.010e+04 4.839e-10
 87.29730     11.3 1.030e+04 5.094e-10
 87.30755     10.8 1.047e+04 5.394e-10
 87.32766      9.3 1.178e+04 7.393e-10
 87.34816      8.1 1.305e+04 1.294e-09
 87.36017      7.8 1.393e+04 2.192e-09
 87.37042      7.6 1.391e+04 2.216e-09
 87.38917      8.0 1.447e+04 3.249e-09
 87.40967      8.6 1.494e+04 4.041e-09
 87.42304      8.8 1.529e+04 4.339e-09
 87.43329      8.5 1.487e+04 3.703e-09
 87.45067      8.1 1.502e+04 3.624e-09
 87.47118      7.5 1.492e+04 3.477e-09
 87.48591      6.9 1.468e+04 3.297e-09
 87.49616      6.8 1.410e+04 2.802e-09
 87.51218      6.6 1.390e+04 2.719e-09
 87.53268      6.6 1.375e+04 2.658e-09
 87.54878      6.7 1.368e+04 2.603e-09
 87.55903      7.1 1.326e+04 2.249e-09
 87.57369      7.0 1.327e+04 2.210e-09
 87.59419      6.7 1.339e+04 2.214e-09
 87.61165      5.7 1.368e+04 2.304e-09
 87.62190      6.1 1.337e+04 2.010e-09
 87.63519      4.5 1.379e+04 2.247e-09
 87.65569      3.0 1.411e+04 2.585e-09
 87.67452      2.0 1.427e+04 2.694e-09
 87.68477      2.7 1.396e+04 2.434e-09
 87.69670      2.0 1.390e+04 2.355e-09
 87.71720      1.0 1.373e+04 2.045e-09
 87.73738     -0.7 1.339e+04 1.613e-09
 87.74764      0.4 1.319e+04 1.479e-09
 87.75821     -1.9 1.263e+04 1.131e-09
 87.77871     -4.3 1.191e+04 9.143e-10
 87.79921     -5.9 1.142e+04 8.054e-10
 87.81050     -6.8 1.127e+04 7.532e-10
 87.82076     -5.8 1.128e+04 7.508e-10
 87.84021     -6.4 1.130e+04 7.331e-10
 87.86072     -7.2 1.134e+04 7.091e-10
 87.87337     -8.4 1.138e+04 6.892e-10
 87.88362     -7.0 1.157e+04 7.542e-10
 87.90172     -8.2 1.160e+04 7.513e-10
 87.92222     -9.6 1.159e+04 7.603e-10
 87.93624    -11.3 1.207e+04 8.905e-10
 87.94649     -9.0 1.201e+04 9.053e-10
 87.96323    -13.3 1.417e+04 1.400e-09
 87.98373    -23.5 1.894e+04 4.839e-09
 87.99906    -26.2 1.881e+04 9.127e-09
 88.00926    -25.1 1.824e+04 1.070e-08
 88.02468    -25.6 1.827e+04 1.181e-08
 88.04523    -26.7 1.879e+04 7.298e-09
 88.06198    -34.9 2.512e+04 1.524e-09
 88.07223    -29.2 2.361e+04 4.153e-09
 88.08624    -44.4 2.855e+04 5.732e-10
 88.10674    -62.2 1.028e+04 3.450e-10
 88.12485    -64.5 9.794e+03 4.212e-10
 88.13510    -63.7 9.765e+03 4.243e-10
 88.14774    -65.2 9.992e+03 4.843e-10
 88.16825    -67.0 1.024e+04 5.428e-10
 88.18772    -68.9 1.046e+04 6.025e-10
 88.19797    -67.4 1.024e+04 5.455e-10
 88.20925    -69.4 1.037e+04 5.818e-10
 88.22975    -71.4 1.044e+04 6.120e-10
 88.25025    -73.4 1.051e+04 6.357e-10
 88.26084    -76.0 1.082e+04 6.724e-10
 88.27109    -74.3 1.063e+04 6.174e-10
 88.29126    -78.0 1.143e+04 7.368e-10
 88.31176    -82.6 1.222e+04 9.909e-10
 88.32371    -86.4 1.262e+04 1.388e-09
 88.33396    -85.2 1.293e+04 1.527e-09
 88.35276    -87.6 1.318e+04 2.039e-09
 88.37327    -89.0 1.331e+04 2.249e-09
 88.38658    -90.3 1.332e+04 2.229e-09
 88.39683    -89.1 1.368e+04 2.571e-09
 88.41427    -90.3 1.314e+04 1.925e-09
 88.43477    -92.2 1.219e+04 1.194e-09
 88.44945    -94.4 1.112e+04 7.685e-10
 88.45970    -93.3 1.123e+04 7.828e-10
 88.47578    -95.1 1.038e+04 5.734e-10
 88.49628    -95.8 1.012e+04 5.003e-10
 88.51231    -96.0 1.004e+04 4.815e-10
 88.52257    -95.1 1.000e+04 4.631e-10
 88.53728    -95.2 9.988e+03 4.595e-10
 88.55779    -95.2 1.005e+04 4.715e-10
 88.57518    -95.5 1.034e+04 5.401e-10
 88.58543    -94.3 1.020e+04 4.999e-10
 88.59879    -94.7 1.058e+04 5.983e-10
 88.61929    -95.2 1.111e+04 7.671e-10
 88.63805    -95.9 1.179e+04 1.052e-09
 88.64830    -94.7 1.156e+04 9.232e-10
 88.66030    -95.4 1.232e+04 1.310e-09
 88.68080    -95.8 1.315e+04 1.867e-09
 88.70092    -96.1 1.399e+04 2.562e-09
 88.71117    -95.0 1.364e+04 2.280e-09
 88.72180    -95.3 1.442e+04 2.989e-09
 88.74230    -95.7 1.507e+04 3.611e-09
 88.76281    -96.4 1.548e+04 4.003e-09
 88.77404    -97.3 1.558e+04 4.135e-09
 88.78429    -96.0 1.563e+04 4.145e-09
 88.80381    -97.1 1.576e+04 4.326e-09
 88.82431    -98.2 1.573e+04 4.414e-09
 88.83691    -99.1 1.539e+04 4.040e-09
 88.84716    -98.6 1.601e+04 4.986e-09
 88.86532    -99.2 1.577e+04 4.896e-09
 88.88582    -99.7 1.564e+04 4.317e-09
 88.89978   -100.4 1.523e+04 3.321e-09
 88.91003    -99.6 1.628e+04 5.710e-09
 88.92682   -100.5 1.567e+04 4.172e-09
 88.94732   -101.8 1.474e+04 2.882e-09
 88.96265   -103.4 1.354e+04 2.002e-09
 88.97290   -102.2 1.492e+04 3.212e-09
 88.98833   -103.9 1.349e+04 2.163e-09
 89.00883   -104.9 1.235e+04 1.617e-09
 89.02552   -105.3 1.199e+04 1.388e-09
 89.03577   -105.9 1.241e+04 1.612e-09
 89.04984   -106.7 1.247e+04 1.527e-09
 89.07034   -108.1 1.332e+04 1.581e-09
 89.08839   -109.8 1.443e+04 1.771e-09
 89.09864   -113.7 1.634e+04 2.699e-09
 89.11134   -115.1 1.645e+04 3.182e-09
 89.13184   -115.9 1.608e+04 3.498e-09
 89.15125   -116.3 1.539e+04 3.566e-09
 89.16151   -118.2 1.508e+04 3.802e-09
 89.17285   -118.1 1.443e+04 3.366e-09
 89.19335   -118.2 1.386e+04 2.848e-09
 89.21385   -118.4 1.341e+04 2.302e-09
 89.22437   -118.8 1.297e+04 1.801e-09
 89.23463   -121.6 1.204e+04 9.979e-10
 89.25486   -122.4 1.146e+04 7.357e-10
 89.27536   -123.1 1.091e+04 5.648e-10
 89.28724   -123.7 1.043e+04 4.629e-10
 89.29749   -126.1 9.610e+03 3.060e-10
 89.31636   -126.0 9.575e+03 3.089e-10
 89.33686   -125.9 9.544e+03 3.104e-10
 89.35011   -125.6 9.607e+03 3.379e-10
 89.37071   -127.3 9.415e+03 3.078e-10
 89.40882   -126.8 9.453e+03 3.308e-10
 89.44982   -126.5 9.421e+03 3.341e-10
 89.47605   -126.4 9.313e+03 3.245e-10
 89.49655   -129.9 8.997e+03 2.822e-10
 89.53183   -130.0 8.976e+03 2.783e-10
 89.57283   -130.1 8.976e+03 2.771e-10
 89.60178   -130.3 8.989e+03 2.790e-10
 89.62229   -133.2 8.839e+03 2.608e-10
 89.65484   -132.9 8.809e+03 2.614e-10
 89.69585   -133.4 8.912e+03 2.788e-10
 89.72752   -138.4 1.014e+04 3.348e-10
 89.74793   -149.9 1.301e+04 6.981e-10
 89.76741   -154.4 1.506e+04 1.720e-09
 89.78791   -157.1 1.648e+04 3.878e-09
 89.80045   -159.4 1.774e+04 6.415e-09
 89.81070   -163.3 1.854e+04 8.637e-09
 89.82891   -167.6 1.904e+04 8.950e-09
 89.84942   -173.6 1.909e+04 8.696e-09
 89.86332   -180.3 1.826e+04 7.055e-09
 89.87357   -185.6 1.633e+04 4.254e-09
 89.89042   -190.8 1.505e+04 3.175e-09
 89.91092   -194.7 1.419e+04 2.408e-09
 89.92618   -198.0 1.347e+04 1.760e-09
 89.93644   -200.1 1.268e+04 1.250e-09
 89.95193   -202.7 1.206e+04 9.238e-10
 89.97243   -205.3 1.147e+04 6.959e-10
 89.98905   -207.8 1.121e+04 5.827e-10
 89.99930   -208.7 1.104e+04 5.277e-10
 90.01343   -211.2 1.104e+04 5.124e-10
 90.03393   -214.1 1.116e+04 5.105e-10
 90.05192   -217.5 1.202e+04 6.116e-10
 90.06217   -217.8 1.180e+04 5.966e-10
 90.07494   -220.7 1.257e+04 8.417e-10
 90.09544   -223.3 1.323e+04 1.192e-09
 90.11479   -225.6 1.370e+04 1.573e-09
 90.12504   -225.7 1.339e+04 1.352e-09
 90.13644   -227.9 1.367e+04 1.646e-09
 90.15695   -229.8 1.371e+04 1.857e-09
 90.17745   -231.4 1.368e+04 1.928e-09
 90.18791   -232.8 1.362e+04 1.939e-09
 90.19816   -232.8 1.356e+04 1.859e-09
 90.21845   -233.8 1.347e+04 1.862e-09
 90.23895   -234.7 1.321e+04 1.702e-09
 90.25078   -235.5 1.286e+04 1.425e-09
 90.26103   -235.4 1.300e+04 1.536e-09
 90.27996   -236.3 1.268e+04 1.240e-09
 90.30046   -237.4 1.232e+04 9.597e-10
 90.31365   -238.6 1.193e+04 7.303e-10
 90.32390   -238.7 1.215e+04 8.587e-10
 90.34147   -240.0 1.180e+04 6.865e-10
 90.36197   -241.0 1.149e+04 5.569e-10
 90.37652   -241.9 1.122e+04 4.570e-10
 90.38677   -241.8 1.159e+04 6.287e-10
 90.40297   -242.3 1.137e+04 5.254e-10
 90.42347   -242.8 1.113e+04 4.340e-10
 90.43939   -243.1 1.092e+04 3.776e-10
 90.44964   -242.9 1.119e+04 4.449e-10
 90.47483   -243.5 1.076e+04 3.360e-10
 90.50245   -243.5 1.030e+04 2.425e-10
 90.52295   -243.5 1.056e+04 2.837e-10
 90.55693   -243.5 1.002e+04 1.968e-10
 90.59794   -243.5 9.480e+03 1.375e-10
 90.62819   -243.0 9.101e+03 1.071e-10
 90.64869   -242.8 9.195e+03 1.202e-10
 90.67994   -242.0 8.983e+03 1.057e-10
 90.72095   -241.2 8.926e+03 1.024e-10
 90.75393   -240.3 8.918e+03 1.019e-10
 90.77443   -239.9 9.057e+03 1.144e-10
 90.80296   -239.7 9.070e+03 1.188e-10
 90.84396   -239.9 9.329e+03 1.529e-10
 90.87966   -240.3 9.721e+03 2.110e-10
 90.90017   -240.7 1.033e+04 3.168e-10
 90.92597   -241.5 1.065e+04 4.178e-10
 90.96697   -242.4 1.074e+04 4.763e-10
 91.00540   -243.0 1.072e+04 4.894e-10
 91.02590   -243.9 1.103e+04 5.974e-10
 91.04898   -244.4 1.061e+04 4.943e-10
 91.08999   -245.2 1.033e+04 4.099e-10
 91.13099   -246.4 1.017e+04 3.736e-10
 91.17199   -248.5 9.934e+03 3.589e-10
 91.21300   -253.7 1.090e+04 3.458e-10
 91.24365   -276.0 1.759e+04 3.649e-10
 91.25888   -298.1 4.262e+04 6.609e-10
 91.26909   -307.9 3.888e+04 3.832e-09
 91.27709   -315.8 3.057e+04 2.481e-08
 91.28221   -318.0 2.892e+04 4.518e-08
 91.28959   -323.4 2.710e+04 1.367e-07
 91.29984   -331.3 2.777e+04 1.858e-07
 91.30852   -343.7 2.845e+04 1.747e-07
 91.31365   -349.7 2.901e+04 1.440e-07
 91.32034   -370.2 2.680e+04 2.874e-08
 91.33059   -390.3 1.912e+04 2.623e-09
 91.33996   -396.1 1.320e+04 8.771e-10
 91.34508   -396.7 1.255e+04 8.713e-10
 91.35109   -397.5 1.175e+04 7.366e-10
 91.36652   -398.5 1.139e+04 6.006e-10
 91.38707   -399.5 9.965e+03 3.468e-10
 91.40292   -399.4 9.343e+03 2.610e-10
 91.41317   -399.3 9.366e+03 2.661e-10
 91.42807   -398.0 9.242e+03 2.490e-10
 91.45893   -397.1 9.124e+03 2.382e-10
 91.50003   -395.5 8.755e+03 2.051e-10
 91.52886   -392.5 8.285e+03 1.703e-10
 91.54936   -391.9 8.385e+03 1.808e-10
 91.58204   -388.6 8.018e+03 1.498e-10
 91.62304   -385.6 7.833e+03 1.280e-10
 91.65459   -382.5 7.693e+03 1.121e-10
 91.67510   -381.5 7.693e+03 1.149e-10
 91.70505   -378.4 7.563e+03 9.943e-11
 91.74605   -375.2 7.427e+03 8.741e-11
 91.78033   -372.0 7.320e+03 7.793e-11
 91.80083   -370.8 7.322e+03 8.065e-11
 91.82806   -367.6 7.249e+03 7.235e-11
 91.86906   -364.4 7.258e+03 6.803e-11
 91.90607   -361.2 7.272e+03 6.680e-11
 91.92657   -359.9 7.380e+03 7.706e-11
 91.95107   -356.7 7.377e+03 7.552e-11
 91.99208   -353.6 7.382e+03 7.483e-11
 92.03181   -350.6 7.388e+03 7.456e-11
 92.05231   -349.1 7.457e+03 8.325e-11
 92.07409   -346.2 7.441e+03 8.100e-11
 92.11509   -343.3 7.419e+03 7.873e-11
 92.15609   -340.4 7.394e+03 7.665e-11
 92.17805   -337.6 7.380e+03 7.565e-11
 92.19855   -336.0 7.406e+03 7.737e-11
 92.23810   -333.2 7.402e+03 7.654e-11
 92.27911   -330.4 7.401e+03 7.716e-11
 92.30379   -327.8 7.503e+03 8.541e-11
 92.32429   -326.2 7.516e+03 8.603e-11
 92.36111   -323.6 7.686e+03 1.009e-10
 92.40212   -321.0 7.878e+03 1.242e-10
 92.42952   -318.4 8.098e+03 1.561e-10
 92.45003   -316.9 8.194e+03 1.599e-10
 92.48413   -314.3 8.395e+03 1.974e-10
 92.52513   -311.6 8.620e+03 2.439e-10
 92.55526   -308.9 8.868e+03 2.946e-10
 92.57576   -307.6 8.864e+03 2.862e-10
 92.60714   -304.9 9.062e+03 3.318e-10
 92.64814   -302.3 9.259e+03 3.778e-10
 92.68100   -299.6 9.451e+03 4.188e-10
 92.70150   -298.3 9.322e+03 3.818e-10
 92.73015   -295.6 9.528e+03 4.252e-10
 92.77116   -292.8 9.756e+03 4.701e-10
 92.80674   -290.1 9.985e+03 5.149e-10
 92.82724   -288.8 9.811e+03 4.743e-10
 92.85316   -286.2 1.005e+04 5.308e-10
 92.89417   -283.8 1.027e+04 5.849e-10
 92.93248   -281.4 1.047e+04 6.411e-10
 92.95298   -280.0 1.015e+04 5.412e-10
 92.97618   -277.6 1.034e+04 5.921e-10
 93.01718   -275.4 1.054e+04 6.542e-10
 93.05818   -273.3 1.074e+04 7.230e-10
 93.09919   -269.6 1.062e+04 6.692e-10
 93.14019   -267.9 1.075e+04 7.243e-10
 93.18120   -265.9 1.078e+04 7.586e-10
 93.20445   -263.9 1.077e+04 7.639e-10
 93.22496   -262.0 1.081e+04 7.560e-10
 93.26321   -260.1 1.084e+04 7.742e-10
 93.30421   -258.2 1.070e+04 7.121e-10
 93.33019   -256.4 1.047e+04 6.083e-10
 93.35069   -254.8 1.090e+04 7.905e-10
 93.38622   -253.2 1.067e+04 6.782e-10
 93.42722   -251.6 1.042e+04 5.565e-10
 93.45593   -250.2 1.018e+04 4.534e-10
 93.47643   -248.9 1.102e+04 7.189e-10
 93.49888   -248.2 1.057e+04 5.370e-10
 93.51860   -247.6 1.043e+04 4.858e-10
 93.52885   -247.2 1.100e+04 6.570e-10
 93.53979   -246.5 1.083e+04 5.982e-10
 93.56029   -245.6 1.073e+04 5.650e-10
 93.58079   -244.8 1.065e+04 5.376e-10
 93.59172   -244.3 1.063e+04 5.201e-10
 93.60207   -244.5 1.120e+04 7.126e-10
 93.63224   -243.1 1.098e+04 6.155e-10
 93.65469   -242.7 1.084e+04 5.272e-10
 93.66484   -242.1 1.099e+04 6.049e-10
 93.68330   -242.0 1.097e+04 5.674e-10
 93.70380   -241.7 1.092e+04 4.995e-10
 93.71746   -241.3 1.082e+04 4.397e-10
 93.72771   -241.0 1.106e+04 5.288e-10
 93.74481   -240.6 1.097e+04 4.638e-10
 93.76531   -240.1 1.088e+04 4.017e-10
 93.78033   -239.3 1.080e+04 3.543e-10
 93.79058   -239.6 1.091e+04 4.221e-10
 93.80631   -238.7 1.078e+04 3.784e-10
 93.83305   -237.8 1.073e+04 3.471e-10
 93.85355   -237.5 1.107e+04 4.817e-10
 93.86782   -236.4 1.114e+04 4.763e-10
 93.88832   -235.3 1.117e+04 4.732e-10
 93.91917   -233.9 1.125e+04 5.115e-10
 93.95888   -231.1 1.118e+04 4.944e-10
 93.97929   -230.7 1.175e+04 7.589e-10
 94.00118   -229.0 1.179e+04 7.971e-10
 94.04228   -225.6 1.169e+04 7.749e-10
 94.08329   -222.2 1.168e+04 7.744e-10
 94.10512   -219.2 1.197e+04 8.228e-10
 94.12562   -219.8 1.213e+04 9.358e-10
 94.15495   -217.1 1.214e+04 9.021e-10
 94.16779   -216.2 1.241e+04 9.654e-10
 94.17805   -216.4 1.239e+04 9.664e-10
 94.19585   -215.0 1.257e+04 1.011e-09
 94.21636   -214.1 1.272e+04 1.061e-09
 94.23066   -212.8 1.302e+04 1.181e-09
 94.24091   -212.9 1.285e+04 1.123e-09
 94.25736   -212.3 1.323e+04 1.298e-09
 94.27786   -211.6 1.388e+04 1.666e-09
 94.29353   -211.0 1.469e+04 2.338e-09
 94.30378   -211.8 1.523e+04 2.449e-09
 94.31887   -211.1 1.648e+04 4.126e-09
 94.33937   -210.4 1.755e+04 7.004e-09
 94.35640   -209.5 1.852e+04 1.126e-08
 94.36665   -210.9 1.887e+04 1.252e-08
 94.38037   -210.4 1.963e+04 1.886e-08
 94.39291   -209.7 2.033e+04 2.864e-08
 94.39799   -210.4 2.035e+04 2.911e-08
 94.40590   -210.2 2.059e+04 3.503e-08
 94.41615   -209.9 2.076e+04 4.194e-08
 94.42430   -209.7 2.079e+04 4.769e-08
 94.42942   -210.1 2.029e+04 3.996e-08
 94.43666   -209.7 2.024e+04 4.121e-08
 94.44691   -209.4 2.011e+04 4.089e-08
 94.45573   -209.3 2.005e+04 3.780e-08
 94.46086   -209.7 1.961e+04 2.638e-08
 94.46741   -209.8 1.948e+04 2.449e-08
 94.47766   -210.0 1.932e+04 2.247e-08
 94.48717   -210.3 1.914e+04 2.071e-08
 94.49229   -210.8 1.860e+04 1.464e-08
 94.49816   -211.1 1.842e+04 1.413e-08
 94.50841   -211.3 1.827e+04 1.367e-08
 94.51860   -211.4 1.817e+04 1.340e-08
 94.52373   -211.8 1.759e+04 9.638e-09
 94.52891   -211.8 1.754e+04 9.649e-09
 94.53917   -211.8 1.754e+04 9.754e-09
 94.54942   -211.8 1.768e+04 1.015e-08
 94.55521   -211.8 1.786e+04 1.098e-08
 94.56551   -212.3 1.651e+04 6.047e-09
 94.58539   -212.2 1.655e+04 6.304e-09
 94.60590   -212.0 1.663e+04 6.665e-09
 94.61813   -211.8 1.661e+04 6.781e-09
 94.62838   -211.7 1.511e+04 3.623e-09
 94.64690   -211.4 1.506e+04 3.652e-09
 94.66740   -210.8 1.475e+04 3.528e-09
 94.68100   -210.1 1.446e+04 3.252e-09
 94.69125   -209.8 1.362e+04 2.057e-09
 94.70841   -209.0 1.347e+04 1.963e-09
 94.72891   -208.1 1.330e+04 1.830e-09
 94.74387   -207.0 1.312e+04 1.667e-09
 94.75412   -206.7 1.275e+04 1.273e-09
 94.76991   -205.6 1.262e+04 1.207e-09
 94.79041   -204.4 1.247e+04 1.130e-09
 94.80674   -203.1 1.231e+04 1.027e-09
 94.81699   -202.4 1.203e+04 8.541e-10
 94.83142   -200.8 1.191e+04 7.666e-10
 94.85192   -199.2 1.184e+04 6.559e-10
 94.86960   -197.6 1.181e+04 5.493e-10
 94.87986   -197.1 1.182e+04 5.092e-10
 94.90327   -196.1 1.181e+04 4.506e-10
 94.94437   -194.3 1.159e+04 3.686e-10
 94.98529   -192.1 1.130e+04 2.930e-10
 95.02629   -188.7 1.106e+04 2.264e-10
 95.06739   -186.5 1.094e+04 1.914e-10
 95.10839   -184.3 1.090e+04 1.675e-10
 95.13153   -182.2 1.090e+04 1.515e-10
 95.15203   -181.2 1.087e+04 1.451e-10
 95.19040   -179.1 1.086e+04 1.290e-10
 95.23140   -176.9 1.086e+04 1.168e-10
 95.25726   -174.8 1.086e+04 1.105e-10
 95.27777   -173.8 1.079e+04 9.902e-11
 95.31341   -171.6 1.079e+04 9.239e-11
 95.35442   -169.5 1.080e+04 9.109e-11
 95.38300   -167.5 1.082e+04 9.887e-11
 95.40350   -166.4 1.076e+04 8.311e-11
 95.43642   -164.5 1.086e+04 9.375e-11
 95.47743   -162.7 1.097e+04 1.219e-10
 95.50874   -160.9 1.106e+04 1.655e-10
 95.52924   -160.1 1.103e+04 1.309e-10
 95.55944   -158.3 1.109e+04 1.781e-10
 95.60044   -156.4 1.117e+04 2.320e-10
 95.63448   -154.6 1.124e+04 2.762e-10
 95.65498   -153.9 1.117e+04 2.493e-10
 95.68245   -152.2 1.122e+04 2.781e-10
 95.72345   -150.7 1.123e+04 2.837e-10
 95.76022   -149.1 1.120e+04 2.707e-10
 95.78072   -148.4 1.114e+04 2.623e-10
 95.80546   -146.9 1.103e+04 2.337e-10
 95.84647   -145.4 1.090e+04 2.029e-10
 95.88595   -144.0 1.080e+04 1.898e-10
 95.90646   -143.2 1.073e+04 1.718e-10
 95.92847   -141.7 1.067e+04 1.666e-10
 95.96948   -140.2 1.064e+04 1.663e-10
 96.01048   -138.6 1.061e+04 1.669e-10
 96.03219   -137.0 1.048e+04 1.674e-10
 96.05270   -136.1 1.041e+04 1.437e-10
 96.09249   -134.4 1.022e+04 1.381e-10
 96.13349   -132.6 1.012e+04 1.214e-10
 96.15793   -130.8 1.005e+04 1.029e-10
 96.17843   -129.8 9.989e+03 8.781e-11
 96.21550   -128.1 9.926e+03 7.306e-11
 96.25651   -126.4 9.866e+03 6.460e-11
 96.28367   -124.8 9.844e+03 6.240e-11
 96.30417   -123.7 9.865e+03 5.002e-11
 96.33851   -122.3 9.877e+03 4.961e-11
 96.37952   -121.2 9.966e+03 5.754e-11
 96.40941   -120.3 9.998e+03 8.098e-11
 96.42991   -119.7 1.002e+04 7.320e-11
 96.46153   -118.7 1.004e+04 1.084e-10
 96.50253   -117.7 1.011e+04 1.394e-10
 96.53515   -117.1 1.020e+04 1.588e-10
 96.55565   -117.1 1.027e+04 1.645e-10
 96.58454   -117.6 1.048e+04 1.946e-10
 96.62554   -118.6 1.073e+04 2.611e-10
 96.66088   -119.5 1.093e+04 3.743e-10
 96.68139   -120.5 1.119e+04 5.261e-10
 96.70755   -121.3 1.122e+04 6.488e-10
 96.74856   -121.9 1.115e+04 7.162e-10
 96.78662   -122.4 1.104e+04 7.232e-10
 96.80712   -123.5 1.098e+04 7.129e-10
 96.83056   -123.5 1.074e+04 6.204e-10
 96.87157   -123.3 1.048e+04 5.048e-10
 96.91236   -123.0 1.022e+04 3.946e-10
 96.93286   -123.4 1.021e+04 3.918e-10
 96.95358   -122.8 9.975e+03 3.043e-10
 96.99458   -122.1 9.804e+03 2.463e-10
 97.03559   -121.2 9.678e+03 2.140e-10
 97.05860   -120.2 9.587e+03 1.977e-10
 97.07910   -120.2 9.598e+03 1.904e-10
 97.11759   -119.0 9.558e+03 1.838e-10
 97.15860   -117.7 9.552e+03 1.822e-10
 97.18434   -116.5 9.591e+03 1.974e-10
 97.20484   -116.8 9.719e+03 2.145e-10
 97.24061   -115.9 9.923e+03 2.980e-10
 97.28161   -115.0 1.018e+04 4.142e-10
 97.31007   -114.2 1.044e+04 5.349e-10
 97.33058   -115.3 1.065e+04 6.109e-10
 97.36362   -115.3 1.087e+04 7.223e-10
 97.40462   -115.8 1.108e+04 8.338e-10
 97.43581   -116.7 1.149e+04 1.042e-09
 97.45631   -117.8 1.147e+04 1.079e-09
 97.48663   -118.6 1.179e+04 1.310e-09
 97.52763   -119.4 1.203e+04 1.479e-09
 97.55829   -119.7 1.186e+04 1.360e-09
 97.57161   -120.2 1.188e+04 1.346e-09
 97.58186   -119.9 1.163e+04 1.099e-09
 97.59920   -120.5 1.168e+04 1.066e-09
 97.61970   -121.2 1.179e+04 1.062e-09
 97.63448   -122.0 1.202e+04 1.137e-09
 97.64473   -121.7 1.193e+04 1.013e-09
 97.66070   -122.4 1.217e+04 1.184e-09
 97.68120   -122.9 1.234e+04 1.333e-09
 97.69734   -123.5 1.239e+04 1.382e-09
 97.70760   -123.2 1.244e+04 1.398e-09
 97.72221   -123.9 1.243e+04 1.406e-09
 97.74271   -124.5 1.220e+04 1.247e-09
 97.76021   -125.1 1.185e+04 9.786e-10
 97.77046   -124.8 1.197e+04 1.034e-09
 97.78372   -125.3 1.158e+04 7.729e-10
 97.80422   -125.7 1.126e+04 5.893e-10
 97.82308   -125.8 1.107e+04 4.920e-10
 97.83333   -125.6 1.110e+04 4.883e-10
 97.85557   -125.7 1.102e+04 4.251e-10
 97.89667   -126.0 1.074e+04 3.306e-10
 97.93768   -125.8 1.041e+04 2.534e-10
 97.95927   -124.8 1.018e+04 2.071e-10
 97.97977   -124.2 1.019e+04 2.007e-10
 98.01968   -122.9 1.014e+04 1.795e-10
 98.06069   -121.4 1.012e+04 1.578e-10
 98.08500   -120.1 1.010e+04 1.345e-10
 98.10551   -119.3 1.014e+04 1.365e-10
 98.14270   -117.9 1.012e+04 1.149e-10
 98.18370   -116.6 1.009e+04 9.763e-11
 98.21074   -115.3 1.007e+04 8.824e-11
 98.23124   -114.6 1.018e+04 9.151e-11
 98.26571   -113.2 1.019e+04 8.911e-11
 98.30671   -112.0 1.023e+04 8.919e-11
 98.33648   -110.9 1.025e+04 9.900e-11
 98.35698   -110.4 1.041e+04 1.093e-10
 98.38872   -109.2 1.044e+04 1.195e-10
 98.42973   -108.0 1.043e+04 1.288e-10
 98.46222   -106.8 1.049e+04 1.342e-10
 98.48272   -106.4 1.059e+04 1.509e-10
 98.51173   -105.2 1.063e+04 1.514e-10
 98.55274   -103.9 1.068e+04 1.522e-10
 98.58796   -102.6 1.075e+04 1.531e-10
 98.60846   -102.3 1.082e+04 1.707e-10
 98.63475   -101.0 1.088e+04 1.706e-10
 98.67575    -99.6 1.094e+04 1.651e-10
 98.71369    -98.2 1.095e+04 1.573e-10
 98.73420    -97.7 1.093e+04 1.663e-10
 98.75776    -96.2 1.091e+04 1.582e-10
 98.79876    -94.6 1.091e+04 1.567e-10
 98.83943    -93.0 1.089e+04 1.683e-10
 98.85993    -92.3 1.086e+04 1.555e-10
 98.88077    -90.6 1.088e+04 1.682e-10
 98.92178    -88.9 1.092e+04 1.883e-10
 98.96278    -87.1 1.098e+04 2.089e-10
 98.98567    -85.3 1.104e+04 2.256e-10
 99.00617    -84.8 1.099e+04 2.105e-10
 99.04479    -83.0 1.104e+04 2.323e-10
 99.08579    -81.3 1.107e+04 2.406e-10
 99.11141    -79.6 1.105e+04 2.357e-10
 99.13191    -79.1 1.104e+04 2.381e-10
 99.16780    -77.4 1.099e+04 2.253e-10
 99.20880    -75.7 1.095e+04 2.082e-10
 99.23715    -73.9 1.092e+04 1.887e-10
 99.25765    -73.2 1.085e+04 1.682e-10
 99.29081    -71.4 1.084e+04 1.519e-10
 99.33182    -69.7 1.086e+04 1.422e-10
 99.36289    -67.8 1.087e+04 1.397e-10
 99.38339    -67.3 1.080e+04 1.244e-10
 99.41382    -65.7 1.090e+04 1.288e-10
 99.45483    -64.4 1.103e+04 1.567e-10
 99.48862    -63.3 1.110e+04 2.325e-10
 99.50913    -62.5 1.095e+04 1.963e-10
 99.53684    -61.2 1.104e+04 2.910e-10
 99.57784    -59.7 1.119e+04 4.408e-10
 99.61436    -58.2 1.140e+04 6.090e-10
 99.63486    -57.0 1.107e+04 3.661e-10
 99.65985    -55.7 1.120e+04 4.331e-10
 99.70085    -54.5 1.128e+04 4.745e-10
 99.74010    -53.4 1.132e+04 4.654e-10
 99.76060    -52.5 1.115e+04 3.439e-10
 99.78286    -51.3 1.126e+04 3.665e-10
 99.82387    -50.3 1.131e+04 3.424e-10
 99.86487    -49.8 1.131e+04 3.032e-10
 99.88634    -49.6 1.124e+04 2.909e-10
 99.90684    -48.5 1.125e+04 2.910e-10
 99.94688    -48.0 1.107e+04 3.078e-10
 99.98788    -46.8 1.096e+04 3.393e-10
