# Columns:
#   distance along LOS (in CHIMPs)
#   peculiar velocity  (in km/s)
#   temperature (K)
#   HI number density
# pos=(100.866,156.623,106.879), angles=(2.96441,0.480689)
  0.00043     -9.7 1.281e+04 1.084e-09
  0.00231    -10.4 1.259e+04 8.734e-10
  0.00635    -10.4 1.294e+04 1.738e-09
  0.01481    -10.6 1.295e+04 8.541e-10
  0.03062    -11.1 1.265e+04 7.765e-10
  0.05046    -11.0 1.259e+04 7.608e-10
  0.08032     -9.9 1.254e+04 1.034e-09
  0.11718     -8.2 1.256e+04 9.751e-10
  0.13702    -10.0 9.927e+03 2.021e-10
  0.15979     -8.1 9.683e+03 2.118e-10
  0.19947     -6.3 9.564e+03 1.989e-10
  0.23146     -4.4 9.639e+03 2.102e-10
  0.25130     -4.4 1.077e+04 3.298e-10
  0.27884     -2.6 1.071e+04 3.342e-10
  0.31852     -0.5 1.085e+04 3.949e-10
  0.34819      2.1 9.975e+03 2.778e-10
  0.36793      2.2 9.864e+03 2.452e-10
  0.38085      2.9 1.005e+04 2.467e-10
  0.39077      2.9 9.210e+03 1.716e-10
  0.40761      3.9 9.411e+03 1.767e-10
  0.42746      4.5 9.842e+03 1.864e-10
  0.44730      5.0 1.063e+04 2.171e-10
  0.46714      4.9 1.183e+04 3.004e-10
  0.48006      4.8 1.295e+04 4.788e-10
  0.48998      4.1 1.355e+04 8.009e-10
  0.50286      4.6 1.362e+04 1.307e-09
  0.51278      4.7 1.277e+04 5.423e-10
  0.52667      4.5 1.358e+04 1.046e-09
  0.54651      4.7 1.422e+04 2.026e-09
  0.56635      5.4 1.461e+04 3.551e-09
  0.58619      6.7 1.507e+04 5.404e-09
  0.60603      8.1 1.575e+04 7.097e-09
  0.62087      7.5 1.639e+04 8.428e-09
  0.62974      7.0 1.677e+04 9.301e-09
  0.63475      7.4 1.649e+04 7.570e-09
  0.64071      5.2 1.790e+04 1.064e-08
  0.65058      5.0 1.826e+04 1.194e-08
  0.66050      4.4 1.795e+04 1.489e-08
  0.67042      4.6 1.754e+04 1.707e-08
  0.68034      5.2 1.733e+04 1.819e-08
  0.69026      5.6 1.739e+04 1.856e-08
  0.70519      7.1 1.705e+04 1.405e-08
  0.71894      8.0 1.671e+04 1.060e-08
  0.72886      7.8 1.660e+04 1.113e-08
  0.74493      7.6 1.612e+04 7.650e-09
  0.75681      6.9 1.529e+04 5.480e-09
  0.76673      7.1 1.535e+04 4.015e-09
  0.78461      6.5 1.440e+04 3.221e-09
  0.80445      6.5 1.371e+04 2.835e-09
  0.82429      7.0 1.329e+04 2.615e-09
  0.84414      7.7 1.325e+04 2.578e-09
  0.86398      8.3 1.324e+04 2.631e-09
  0.87882      8.8 1.332e+04 2.796e-09
  0.88874      8.6 1.288e+04 1.834e-09
  0.90366      9.4 1.298e+04 2.013e-09
  0.92350     10.4 1.306e+04 2.184e-09
  0.94335     11.4 1.313e+04 2.216e-09
  0.95781     12.6 1.320e+04 2.120e-09
  0.96773     12.8 1.362e+04 2.772e-09
  0.98303     13.7 1.385e+04 2.493e-09
  1.00083     13.9 1.402e+04 2.142e-09
  1.01075     13.1 1.307e+04 1.348e-09
  1.02271     12.8 1.285e+04 1.270e-09
  1.04255     12.2 1.261e+04 1.306e-09
  1.06240     11.7 1.239e+04 1.408e-09
  1.08224     11.8 1.225e+04 1.532e-09
  1.10208     12.3 1.215e+04 1.525e-09
  1.12192     13.0 1.210e+04 1.445e-09
  1.13276     13.8 1.191e+04 1.097e-09
  1.14269     13.8 1.183e+04 1.245e-09
  1.16161     14.3 1.185e+04 1.044e-09
  1.18145     14.8 1.177e+04 7.862e-10
  1.19669     14.9 1.175e+04 6.098e-10
  1.20661     14.7 1.176e+04 5.968e-10
  1.22113     15.6 1.117e+04 4.318e-10
  1.24097     15.5 1.079e+04 3.316e-10
  1.27083     16.4 1.094e+04 2.772e-10
  1.31062     17.5 1.025e+04 2.006e-10
  1.35030     18.7 9.730e+03 1.845e-10
  1.37698     20.4 9.772e+03 1.875e-10
  1.39683     20.1 1.173e+04 3.281e-10
  1.42967     22.1 1.104e+04 3.271e-10
  1.46935     24.3 1.060e+04 3.173e-10
  1.50903     26.5 1.017e+04 2.735e-10
  1.54872     28.4 1.002e+04 2.493e-10
  1.58840     30.1 1.009e+04 2.556e-10
  1.62101     31.3 1.028e+04 2.830e-10
  1.64075     31.5 1.064e+04 3.634e-10
  1.65765     32.0 1.080e+04 4.359e-10
  1.67444     32.2 1.102e+04 5.379e-10
  1.68436     32.9 1.086e+04 4.627e-10
  1.69734     33.0 1.102e+04 5.694e-10
  1.71718     33.1 1.113e+04 7.141e-10
  1.73702     33.4 1.125e+04 8.506e-10
  1.75275     33.6 1.135e+04 8.876e-10
  1.76267     33.8 1.158e+04 9.271e-10
  1.78672     34.3 1.128e+04 8.197e-10
  1.82650     34.8 1.082e+04 4.760e-10
  1.86503     34.4 1.018e+04 1.734e-10
  1.88487     34.2 1.014e+04 1.565e-10
  1.90587     32.0 9.187e+03 7.165e-11
  1.94556     31.8 8.904e+03 6.538e-11
  1.98524     32.3 8.912e+03 6.766e-11
  2.02492     32.5 9.116e+03 8.383e-11
  2.06461     32.6 9.723e+03 1.675e-10
  2.09427     32.9 1.005e+04 2.494e-10
  2.11402     33.0 1.046e+04 3.498e-10
  2.12870     32.5 1.137e+04 5.458e-10
  2.13862     32.6 1.157e+04 5.811e-10
  2.15219     30.2 1.349e+04 1.224e-09
  2.16211     29.3 1.412e+04 1.415e-09
  2.17354     27.8 1.514e+04 3.472e-09
  2.19338     28.1 1.616e+04 7.103e-09
  2.21323     28.5 1.730e+04 1.097e-08
  2.23307     28.4 1.850e+04 1.263e-08
  2.25072     26.9 1.928e+04 1.152e-08
  2.26059     26.1 1.996e+04 2.520e-08
  2.26769     24.8 2.036e+04 2.151e-08
  2.27649     23.5 2.046e+04 1.727e-08
  2.28145     23.5 2.107e+04 1.438e-08
  2.28754     21.8 2.026e+04 1.181e-08
  2.29746     20.6 1.957e+04 9.411e-09
  2.31239     19.5 1.862e+04 8.836e-09
  2.33228     18.6 1.654e+04 5.147e-09
  2.35212     18.2 1.448e+04 3.069e-09
  2.37196     18.2 1.305e+04 1.930e-09
  2.38265     18.5 1.218e+04 1.329e-09
  2.39183     18.4 1.292e+04 1.820e-09
  2.40098     19.1 1.286e+04 1.783e-09
  2.42166     19.8 1.215e+04 1.231e-09
  2.46145     21.5 1.098e+04 6.509e-10
  2.50113     23.1 1.024e+04 4.435e-10
  2.54081     25.3 1.009e+04 4.319e-10
  2.58050     27.4 1.020e+04 4.671e-10
  2.61695     29.4 1.064e+04 6.254e-10
  2.63679     29.5 1.114e+04 8.328e-10
  2.64985     30.0 1.164e+04 1.095e-09
  2.66959     30.4 1.205e+04 1.380e-09
  2.68943     30.8 1.256e+04 1.763e-09
  2.70927     31.3 1.309e+04 2.127e-09
  2.72912     31.9 1.366e+04 2.378e-09
  2.74869     32.3 1.443e+04 2.579e-09
  2.75861     29.9 1.643e+04 4.164e-09
  2.76880     28.7 1.752e+04 5.644e-09
  2.78864     26.9 1.845e+04 8.370e-09
  2.80848     25.6 1.941e+04 1.383e-08
  2.81956     24.4 2.077e+04 1.709e-08
  2.82448     24.3 2.027e+04 2.260e-08
  2.83319     24.5 2.060e+04 2.989e-08
  2.84311     24.8 2.104e+04 3.573e-08
  2.85303     25.0 2.142e+04 3.928e-08
  2.86295     25.1 2.162e+04 4.077e-08
  2.87287     25.3 2.181e+04 4.150e-08
  2.87863     25.4 2.186e+04 3.999e-08
  2.88132     24.6 2.199e+04 3.354e-08
  2.88548     25.2 2.219e+04 3.525e-08
  2.89271     24.8 2.217e+04 3.129e-08
  2.90263     23.9 2.211e+04 2.869e-08
  2.91256     22.6 2.194e+04 2.683e-08
  2.92248     21.1 2.126e+04 2.458e-08
  2.93240     19.6 2.014e+04 2.188e-08
  2.94153     19.0 1.906e+04 1.962e-08
  2.94649     19.1 1.975e+04 2.289e-08
  2.95224     18.6 1.983e+04 2.302e-08
  2.96216     18.3 1.957e+04 2.138e-08
  2.97208     18.2 1.895e+04 1.843e-08
  2.98200     18.4 1.833e+04 1.379e-08
  2.99192     17.9 1.810e+04 1.155e-08
  3.00258     18.1 1.700e+04 6.934e-09
  3.01255     17.5 2.001e+04 1.371e-08
  3.02674     17.0 1.901e+04 9.012e-09
  3.04659     16.1 1.764e+04 5.323e-09
  3.06643     15.0 1.627e+04 3.172e-09
  3.08627     14.2 1.521e+04 2.034e-09
  3.10611     13.7 1.446e+04 1.434e-09
  3.11761     13.8 1.384e+04 1.097e-09
  3.12622     13.4 1.272e+04 6.892e-10
  3.13456     13.1 1.488e+04 2.451e-09
  3.14580     13.4 1.457e+04 2.118e-09
  3.16564     14.0 1.431e+04 1.862e-09
  3.18548     14.6 1.404e+04 1.614e-09
  3.20532     15.1 1.379e+04 1.364e-09
  3.22516     15.7 1.352e+04 1.118e-09
  3.24501     16.1 1.318e+04 8.913e-10
  3.25658     16.4 1.271e+04 7.273e-10
  3.26650     17.0 1.430e+04 2.264e-09
  3.28469     17.4 1.389e+04 1.783e-09
  3.30453     17.8 1.345e+04 1.429e-09
  3.32437     18.2 1.299e+04 1.196e-09
  3.34421     18.5 1.260e+04 1.077e-09
  3.35648     18.6 1.248e+04 1.082e-09
  3.36640     17.2 1.236e+04 1.024e-09
  3.37859     16.7 1.259e+04 1.381e-09
  3.38851     18.9 1.335e+04 1.468e-09
  3.40374     18.3 1.366e+04 1.746e-09
  3.42358     17.7 1.394e+04 2.165e-09
  3.44342     17.3 1.382e+04 2.670e-09
  3.46327     17.5 1.362e+04 3.089e-09
  3.48311     17.9 1.354e+04 3.258e-09
  3.50060     18.4 1.353e+04 3.112e-09
  3.51052     18.5 1.331e+04 2.971e-09
  3.52279     19.4 1.332e+04 2.846e-09
  3.54263     20.0 1.348e+04 2.441e-09
  3.56248     19.7 1.352e+04 1.775e-09
  3.58232     18.2 1.259e+04 1.154e-09
  3.59545     18.0 1.156e+04 8.143e-10
  3.61539     15.2 1.022e+04 7.111e-10
  3.63273     16.2 9.625e+03 5.664e-10
  3.65257     18.6 1.007e+04 5.618e-10
  3.69164     19.8 9.573e+03 5.101e-10
  3.73133     21.8 9.444e+03 5.108e-10
  3.77101     24.1 9.478e+03 5.206e-10
  3.81069     26.4 9.589e+03 5.070e-10
  3.83433     28.1 9.691e+03 5.411e-10
  3.84415     28.0 9.485e+03 4.415e-10
  3.86010     28.3 9.406e+03 4.153e-10
  3.87656     29.8 9.380e+03 4.047e-10
  3.88648     30.7 9.610e+03 5.188e-10
  3.89979     31.7 9.608e+03 5.126e-10
  3.91963     32.7 9.608e+03 5.135e-10
  3.93947     33.8 9.607e+03 5.182e-10
  3.95931     34.9 9.636e+03 5.276e-10
  3.97916     36.0 9.624e+03 5.321e-10
  3.99857     37.2 9.640e+03 5.405e-10
  4.00849     37.7 9.872e+03 5.926e-10
  4.01884     38.9 9.853e+03 5.893e-10
  4.03868     40.0 9.783e+03 5.797e-10
  4.05852     41.3 9.771e+03 5.786e-10
  4.07311     42.6 9.801e+03 5.854e-10
  4.08303     42.4 9.566e+03 5.135e-10
  4.09821     43.9 9.694e+03 5.351e-10
  4.11805     45.1 9.822e+03 5.606e-10
  4.13050     46.4 9.913e+03 5.862e-10
  4.14042     47.0 9.738e+03 5.448e-10
  4.15773     48.3 9.909e+03 5.857e-10
  4.17757     49.4 1.014e+04 6.525e-10
  4.19742     50.4 1.038e+04 7.454e-10
  4.21726     51.3 1.061e+04 8.634e-10
  4.23710     52.3 1.087e+04 1.012e-09
  4.25251     53.3 1.117e+04 1.197e-09
  4.26244     53.7 1.105e+04 1.127e-09
  4.27678     54.6 1.141e+04 1.362e-09
  4.29663     55.5 1.174e+04 1.623e-09
  4.31198     56.4 1.206e+04 1.879e-09
  4.32190     56.5 1.204e+04 1.892e-09
  4.33631     57.4 1.230e+04 1.992e-09
  4.35615     58.3 1.231e+04 1.972e-09
  4.37453     59.0 1.228e+04 1.876e-09
  4.38445     59.6 1.250e+04 2.212e-09
  4.39583     60.2 1.244e+04 2.138e-09
  4.41568     60.7 1.234e+04 2.016e-09
  4.43552     61.1 1.228e+04 1.960e-09
  4.45536     61.2 1.233e+04 1.982e-09
  4.47520     61.2 1.246e+04 2.099e-09
  4.49504     61.4 1.264e+04 2.352e-09
  4.50646     62.1 1.274e+04 2.614e-09
  4.51638     62.2 1.284e+04 2.426e-09
  4.53473     62.6 1.270e+04 2.398e-09
  4.55086     63.1 1.232e+04 2.217e-09
  4.56078     63.2 1.314e+04 2.957e-09
  4.57441     62.6 1.449e+04 2.930e-09
  4.59425     59.9 1.775e+04 3.507e-09
  4.61410     56.0 2.039e+04 5.591e-09
  4.62847     52.5 2.114e+04 9.501e-09
  4.63839     54.4 1.957e+04 3.961e-09
  4.65378     51.2 2.000e+04 6.842e-09
  4.67362     49.3 1.981e+04 1.068e-08
  4.69346     48.2 1.942e+04 1.336e-08
  4.71331     47.9 1.884e+04 1.320e-08
  4.73315     48.0 1.817e+04 1.033e-08
  4.75048     47.6 1.710e+04 5.987e-09
  4.76041     48.0 1.642e+04 6.042e-09
  4.77283     47.0 1.536e+04 3.362e-09
  4.78973     45.1 1.354e+04 1.654e-09
  4.79965     43.2 1.186e+04 1.086e-09
  4.81251     42.4 1.052e+04 7.105e-10
  4.83236     42.8 1.007e+04 5.261e-10
  4.85220     43.3 9.984e+03 4.413e-10
  4.87204     44.3 9.865e+03 3.765e-10
  4.88242     45.0 9.832e+03 3.515e-10
  4.89234     45.7 1.004e+04 4.439e-10
  4.92174     47.3 9.998e+03 4.284e-10
  4.96152     50.0 9.627e+03 3.533e-10
  5.00121     52.7 9.564e+03 3.448e-10
  5.02880     55.5 9.647e+03 3.631e-10
  5.04864     56.0 9.281e+03 2.643e-10
  5.08058     58.8 9.504e+03 3.127e-10
  5.11672     61.5 9.842e+03 4.084e-10
  5.13656     62.3 9.839e+03 4.357e-10
  5.15994     65.2 1.020e+04 5.751e-10
  5.19963     68.1 1.059e+04 7.519e-10
  5.23931     70.9 1.096e+04 9.176e-10
  5.27899     73.4 1.116e+04 9.739e-10
  5.31868     75.6 1.115e+04 9.610e-10
  5.35836     78.1 1.102e+04 8.788e-10
  5.38058     80.5 1.079e+04 7.405e-10
  5.40042     80.7 1.042e+04 5.851e-10
  5.43773     83.0 1.021e+04 4.988e-10
  5.47741     85.3 1.005e+04 4.381e-10
  5.50655     87.6 9.928e+03 3.935e-10
  5.52640     87.5 9.915e+03 3.969e-10
  5.55678     89.7 9.834e+03 3.732e-10
  5.59646     92.0 9.815e+03 3.718e-10
  5.62461     94.2 9.844e+03 3.798e-10
  5.64445     94.7 9.932e+03 4.005e-10
  5.67583     96.5 9.951e+03 4.062e-10
  5.71552     98.1 9.987e+03 4.137e-10
  5.75520     99.5 1.000e+04 4.140e-10
  5.79488    100.5 9.972e+03 3.961e-10
  5.83457    101.3 9.957e+03 3.663e-10
  5.86863    101.7 9.961e+03 3.434e-10
  5.88847    102.3 1.000e+04 3.491e-10
  5.91394    102.9 1.000e+04 3.388e-10
  5.95362    103.4 9.984e+03 3.262e-10
  5.98430    103.9 1.001e+04 3.096e-10
  6.00415    103.8 1.001e+04 2.945e-10
  6.03299    104.5 1.001e+04 2.586e-10
  6.07267    105.2 9.973e+03 2.578e-10
  6.11235    106.0 1.017e+04 2.771e-10
  6.13250    107.3 1.044e+04 3.256e-10
  6.15234    107.8 9.843e+03 2.247e-10
  6.19172    108.7 1.006e+04 2.719e-10
  6.23141    109.5 1.024e+04 3.474e-10
  6.25441    109.5 1.037e+04 4.293e-10
  6.26423    109.7 1.025e+04 3.865e-10
  6.28081    109.8 1.030e+04 4.416e-10
  6.30066    110.0 1.037e+04 4.984e-10
  6.32050    110.0 1.047e+04 5.430e-10
  6.34034    109.8 1.064e+04 5.955e-10
  6.36018    109.0 1.102e+04 7.140e-10
  6.37633    106.9 1.176e+04 1.008e-09
  6.38625    108.0 1.149e+04 8.256e-10
  6.39987    105.0 1.258e+04 1.324e-09
  6.41971    101.4 1.368e+04 2.350e-09
  6.43955     98.2 1.448e+04 3.654e-09
  6.45939     95.1 1.480e+04 3.987e-09
  6.47178     91.9 1.472e+04 3.738e-09
  6.48170     90.9 1.516e+04 4.062e-09
  6.49834     87.5 1.443e+04 2.739e-09
  6.50826     88.5 1.474e+04 3.245e-09
  6.51892     84.8 1.358e+04 1.895e-09
  6.53876     80.7 1.174e+04 1.083e-09
  6.55860     77.8 1.045e+04 8.163e-10
  6.57844     77.3 1.027e+04 7.719e-10
  6.59829     77.2 1.021e+04 7.502e-10
  6.61813     77.3 1.012e+04 7.135e-10
  6.63027     77.4 9.998e+03 6.595e-10
  6.64019     77.8 1.017e+04 7.459e-10
  6.65781     77.9 1.000e+04 6.658e-10
  6.67765     78.0 9.812e+03 5.833e-10
  6.69749     78.0 9.616e+03 5.068e-10
  6.71065     77.9 9.426e+03 4.464e-10
  6.72058     77.3 9.375e+03 4.277e-10
  6.73718     77.2 9.223e+03 4.124e-10
  6.75228     77.3 9.207e+03 4.133e-10
  6.76220     77.3 9.393e+03 4.544e-10
  6.77686     77.2 9.428e+03 4.648e-10
  6.79670     77.0 9.588e+03 5.088e-10
  6.81655     76.8 9.846e+03 5.986e-10
  6.83639     76.6 1.017e+04 7.310e-10
  6.85623     76.3 1.051e+04 8.963e-10
  6.87430     76.1 1.082e+04 1.065e-09
  6.88422     76.0 1.111e+04 1.238e-09
  6.89591     75.8 1.127e+04 1.335e-09
  6.91576     75.4 1.135e+04 1.339e-09
  6.93560     74.8 1.142e+04 1.350e-09
  6.94953     73.9 1.155e+04 1.375e-09
  6.95945     73.2 1.149e+04 1.322e-09
  6.97528     71.9 1.153e+04 1.346e-09
  6.99512     70.5 1.145e+04 1.330e-09
  7.00623     69.2 1.142e+04 1.304e-09
  7.01615     69.1 1.186e+04 1.518e-09
  7.03481     65.4 1.284e+04 2.003e-09
  7.05465     59.5 1.518e+04 3.205e-09
  7.07449     53.8 1.640e+04 4.702e-09
  7.08932     50.0 1.659e+04 5.442e-09
  7.09920     47.8 1.609e+04 5.247e-09
  7.11413     45.4 1.506e+04 4.187e-09
  7.12824     41.6 1.388e+04 2.450e-09
  7.13816     41.8 1.474e+04 2.968e-09
  7.15386     35.5 1.303e+04 1.339e-09
  7.17370     29.0 1.061e+04 6.616e-10
  7.18840     26.4 9.615e+03 4.948e-10
  7.19833     26.3 9.541e+03 4.566e-10
  7.21338     25.5 9.521e+03 3.911e-10
  7.23323     25.1 9.551e+03 3.631e-10
  7.26309     23.7 9.650e+03 3.347e-10
  7.30287     23.2 9.467e+03 2.820e-10
  7.34255     23.1 9.261e+03 2.339e-10
  7.37246     23.2 9.194e+03 2.190e-10
  7.39230     22.3 9.562e+03 2.698e-10
  7.41190     22.8 9.484e+03 2.538e-10
  7.42728     22.9 9.502e+03 2.555e-10
  7.43730     23.1 9.561e+03 2.515e-10
  7.45158     23.7 9.538e+03 2.672e-10
  7.47133     23.8 9.618e+03 2.825e-10
  7.49117     23.9 9.697e+03 3.069e-10
  7.50420     24.1 9.869e+03 3.405e-10
  7.51412     22.7 1.043e+04 4.237e-10
  7.53085     21.5 1.148e+04 5.869e-10
  7.55070     18.1 1.389e+04 1.170e-09
  7.57054     13.5 1.502e+04 2.553e-09
  7.59038     13.5 1.500e+04 4.582e-09
  7.61022     14.5 1.489e+04 6.017e-09
  7.62621     15.7 1.489e+04 5.910e-09
  7.63613     15.6 1.515e+04 5.778e-09
  7.64991     15.1 1.519e+04 4.018e-09
  7.66615     12.5 1.485e+04 2.397e-09
  7.67608     14.5 1.473e+04 2.388e-09
  7.68959     10.1 1.352e+04 1.402e-09
  7.70943      6.0 1.194e+04 1.171e-09
  7.72927      4.2 1.178e+04 1.312e-09
  7.74822      3.2 1.218e+04 1.763e-09
  7.75814      3.0 1.233e+04 2.034e-09
  7.76896      2.6 1.307e+04 2.597e-09
  7.78880      2.4 1.373e+04 3.039e-09
  7.80864      2.1 1.378e+04 2.902e-09
  7.82848      2.4 1.315e+04 2.338e-09
  7.84832      2.0 1.249e+04 1.555e-09
  7.86817      0.8 1.191e+04 1.022e-09
  7.88016     -1.1 1.141e+04 6.708e-10
  7.89008     -1.4 1.116e+04 6.118e-10
  7.90503     -3.5 1.117e+04 5.351e-10
  7.91495     -2.0 1.112e+04 5.098e-10
  7.92769     -3.9 1.089e+04 5.520e-10
  7.94753     -5.4 1.075e+04 6.276e-10
  7.96738     -5.2 1.069e+04 8.614e-10
  7.98722     -4.0 1.055e+04 1.001e-09
  8.00217     -2.7 1.072e+04 9.971e-10
  8.01209     -3.4 1.153e+04 1.468e-09
  8.02690     -2.4 1.197e+04 1.536e-09
  8.04674     -2.2 1.236e+04 1.450e-09
  8.06659     -2.6 1.260e+04 1.442e-09
  8.08643     -3.1 1.270e+04 1.508e-09
  8.10627     -3.4 1.285e+04 1.644e-09
  8.12418     -3.0 1.290e+04 1.846e-09
  8.13410     -4.3 1.500e+04 5.066e-09
  8.14390     -3.4 1.492e+04 5.210e-09
  8.15383     -2.2 1.371e+04 3.147e-09
  8.16579     -0.6 1.347e+04 2.996e-09
  8.18564      1.0 1.319e+04 2.623e-09
  8.20548      2.2 1.288e+04 2.162e-09
  8.22532      3.4 1.249e+04 1.734e-09
  8.24516      4.1 1.211e+04 1.348e-09
  8.25611      4.1 1.197e+04 1.213e-09
  8.26603      3.6 1.257e+04 1.630e-09
  8.29486      4.9 1.197e+04 1.279e-09
  8.33465      7.2 1.124e+04 9.037e-10
  8.36840      9.5 1.071e+04 7.118e-10
  8.38697      8.8 1.085e+04 9.279e-10
  8.39290     10.0 1.117e+04 1.114e-09
  8.41401     12.8 1.081e+04 9.124e-10
  8.45370     15.6 1.046e+04 7.272e-10
  8.49338     18.4 1.023e+04 6.171e-10
  8.53307     21.1 1.017e+04 5.916e-10
  8.57275     23.8 1.030e+04 6.539e-10
  8.61242     26.4 1.100e+04 8.934e-10
  8.65211     28.4 1.126e+04 1.008e-09
  8.69180     29.7 1.229e+04 1.624e-09
  8.72147     30.2 1.314e+04 2.646e-09
  8.74121     31.4 1.358e+04 3.540e-09
  8.75408     32.6 1.393e+04 4.229e-09
  8.76400     32.8 1.369e+04 3.545e-09
  8.78089     33.6 1.375e+04 3.714e-09
  8.80074     34.1 1.368e+04 3.643e-09
  8.82058     34.5 1.348e+04 3.403e-09
  8.84042     34.8 1.320e+04 3.084e-09
  8.86026     34.9 1.293e+04 2.785e-09
  8.87045     35.2 1.269e+04 2.533e-09
  8.87636     35.7 1.289e+04 2.869e-09
  8.88602     35.7 1.261e+04 2.534e-09
  8.89995     36.2 1.243e+04 2.351e-09
  8.91979     36.6 1.230e+04 2.192e-09
  8.93963     37.2 1.224e+04 2.058e-09
  8.95947     37.5 1.220e+04 1.946e-09
  8.97931     37.7 1.218e+04 1.852e-09
  8.99811     37.9 1.217e+04 1.807e-09
  9.00803     37.7 1.246e+04 1.665e-09
  9.01900     37.6 1.264e+04 1.755e-09
  9.03884     37.4 1.279e+04 1.935e-09
  9.05868     37.2 1.298e+04 2.166e-09
  9.07852     36.9 1.320e+04 2.444e-09
  9.09836     36.9 1.339e+04 2.682e-09
  9.10933     37.0 1.345e+04 2.731e-09
  9.11925     38.0 1.313e+04 2.447e-09
  9.13004     38.0 1.318e+04 2.390e-09
  9.13996     36.8 1.355e+04 3.087e-09
  9.15789     36.6 1.330e+04 2.908e-09
  9.17773     36.2 1.295e+04 2.670e-09
  9.19757     35.8 1.266e+04 2.574e-09
  9.21742     35.5 1.258e+04 2.573e-09
  9.23726     35.3 1.268e+04 2.616e-09
  9.25205     35.4 1.307e+04 2.726e-09
  9.26197     33.6 1.423e+04 3.147e-09
  9.27694     33.6 1.427e+04 3.142e-09
  9.29678     33.8 1.403e+04 2.977e-09
  9.31662     34.1 1.364e+04 2.700e-09
  9.33647     34.5 1.323e+04 2.412e-09
  9.34820     34.9 1.292e+04 2.114e-09
  9.35812     36.1 1.321e+04 2.376e-09
  9.37406     36.6 1.295e+04 2.139e-09
  9.38399     35.0 1.288e+04 1.955e-09
  9.39599     35.2 1.290e+04 1.736e-09
  9.41583     35.0 1.300e+04 1.591e-09
  9.43568     34.7 1.332e+04 1.534e-09
  9.45552     34.3 1.367e+04 1.566e-09
  9.47536     33.5 1.378e+04 1.727e-09
  9.49520     33.0 1.353e+04 1.970e-09
  9.50600     33.0 1.322e+04 2.225e-09
  9.51592     31.0 1.380e+04 2.883e-09
  9.53489     31.7 1.387e+04 2.859e-09
  9.55473     32.3 1.398e+04 2.714e-09
  9.57457     32.5 1.405e+04 2.465e-09
  9.58708     32.1 1.404e+04 2.214e-09
  9.59700     33.1 1.405e+04 2.209e-09
  9.61425     32.5 1.401e+04 2.053e-09
  9.62801     31.7 1.396e+04 2.105e-09
  9.63793     29.2 1.378e+04 2.394e-09
  9.65394     29.2 1.381e+04 2.747e-09
  9.67378     29.6 1.386e+04 3.115e-09
  9.69362     30.7 1.387e+04 3.439e-09
  9.71346     32.0 1.388e+04 3.618e-09
  9.73330     33.3 1.386e+04 3.493e-09
  9.75002     34.6 1.377e+04 2.972e-09
  9.75994     33.6 1.331e+04 1.626e-09
  9.77299     33.8 1.284e+04 1.162e-09
  9.80285     36.0 1.261e+04 1.171e-09
  9.82615     37.8 1.183e+04 6.961e-10
  9.84599     38.5 1.227e+04 9.960e-10
  9.87223     40.5 1.165e+04 6.250e-10
  9.89207     38.1 1.090e+04 3.909e-10
  9.92200     40.3 1.072e+04 2.796e-10
  9.96168     42.5 1.052e+04 2.274e-10
 10.00137     45.0 1.033e+04 2.143e-10
 10.04105     47.5 1.027e+04 2.177e-10
 10.08073     50.1 1.030e+04 2.277e-10
 10.11625     52.8 1.032e+04 2.205e-10
 10.13610     51.7 9.963e+03 1.203e-10
 10.16010     54.2 9.941e+03 1.113e-10
 10.19978     56.7 9.875e+03 1.054e-10
 10.23947     59.2 9.797e+03 1.024e-10
 10.27915     61.7 9.717e+03 1.006e-10
 10.30390     64.3 9.651e+03 9.793e-11
 10.32374     65.0 9.655e+03 9.064e-11
 10.35852     67.6 9.603e+03 8.976e-11
 10.38012     70.1 9.575e+03 8.413e-11
 10.39996     69.7 9.556e+03 5.981e-11
 10.43789     72.1 9.544e+03 5.523e-11
 10.47757     74.3 9.510e+03 5.252e-11
 10.51725     76.6 9.490e+03 5.400e-11
 10.55694     78.8 9.462e+03 5.913e-11
 10.59662     81.0 9.430e+03 6.950e-11
 10.62414     83.4 9.414e+03 8.656e-11
 10.64399     83.2 9.383e+03 8.780e-11
 10.67599     85.6 9.396e+03 1.028e-10
 10.71567     88.0 9.430e+03 1.124e-10
 10.75536     90.2 9.446e+03 1.118e-10
 10.78165     92.3 9.470e+03 1.090e-10
 10.80149     93.2 9.390e+03 1.052e-10
 10.83473     95.3 9.399e+03 9.958e-11
 10.86817     97.2 9.402e+03 9.411e-11
 10.88801     97.0 9.336e+03 7.408e-11
 10.91409     99.1 9.332e+03 7.401e-11
 10.95378    101.1 9.337e+03 7.446e-11
 10.99346    103.2 9.351e+03 7.637e-11
 11.03314    105.2 9.377e+03 8.203e-11
 11.07283    107.1 9.409e+03 9.533e-11
 11.11219    109.0 9.512e+03 1.273e-10
 11.13203    109.1 9.382e+03 1.181e-10
 11.15220    111.4 9.634e+03 1.850e-10
 11.19188    113.5 9.992e+03 2.869e-10
 11.23156    115.1 1.044e+04 4.281e-10
 11.25940    116.3 1.091e+04 6.008e-10
 11.27924    117.6 1.078e+04 5.277e-10
 11.31093    118.7 1.119e+04 6.732e-10
 11.35061    119.4 1.128e+04 6.817e-10
 11.37606    120.0 1.122e+04 6.263e-10
 11.39590    120.0 1.087e+04 4.579e-10
 11.42998    120.6 1.063e+04 3.621e-10
 11.46967    121.4 1.028e+04 2.562e-10
 11.50935    122.4 9.952e+03 1.773e-10
 11.54903    123.4 9.714e+03 1.272e-10
 11.58872    124.6 9.584e+03 9.839e-11
 11.62008    125.9 9.517e+03 8.249e-11
 11.63992    125.7 9.557e+03 8.501e-11
 11.66808    127.0 9.493e+03 7.391e-11
 11.70777    128.4 9.398e+03 6.676e-11
 11.73715    129.8 9.249e+03 6.477e-11
 11.75699    130.4 9.243e+03 6.620e-11
 11.78714    131.7 9.185e+03 6.578e-11
 11.82682    133.0 9.175e+03 6.617e-11
 11.86411    134.3 9.151e+03 6.818e-11
 11.88395    133.9 9.169e+03 6.820e-11
 11.90619    134.8 9.196e+03 7.311e-11
 11.94587    135.5 9.320e+03 8.351e-11
 11.98555    136.2 9.534e+03 1.114e-10
 12.02524    137.1 9.815e+03 1.609e-10
 12.06492    137.9 1.018e+04 2.421e-10
 12.10461    138.7 1.045e+04 3.287e-10
 12.12797    139.3 1.066e+04 3.996e-10
 12.14782    138.2 1.077e+04 4.674e-10
 12.18397    139.2 1.060e+04 4.191e-10
 12.21490    140.3 1.030e+04 3.323e-10
 12.23474    141.1 1.009e+04 2.421e-10
 12.26334    142.0 9.737e+03 1.794e-10
 12.30303    143.2 9.393e+03 1.553e-10
 12.34271    144.7 9.328e+03 1.555e-10
 12.37200    146.4 9.300e+03 1.597e-10
 12.39184    146.1 9.235e+03 1.579e-10
 12.42208    148.0 9.252e+03 1.781e-10
 12.46176    149.9 9.384e+03 2.119e-10
 12.50144    151.7 9.627e+03 2.616e-10
 12.54113    153.1 9.921e+03 3.225e-10
 12.57079    153.2 1.015e+04 3.744e-10
 12.59054    153.3 1.044e+04 4.562e-10
 12.61038    153.3 1.080e+04 5.964e-10
 12.62575    153.2 1.116e+04 7.805e-10
 12.63567    152.6 1.138e+04 9.447e-10
 12.65006    152.4 1.170e+04 1.169e-09
 12.66991    152.1 1.196e+04 1.367e-09
 12.68975    151.6 1.219e+04 1.549e-09
 12.70237    151.0 1.247e+04 1.771e-09
 12.71229    150.9 1.268e+04 1.981e-09
 12.72943    150.3 1.308e+04 2.365e-09
 12.74776    149.8 1.343e+04 2.570e-09
 12.75768    149.4 1.284e+04 1.873e-09
 12.76911    148.3 1.287e+04 1.776e-09
 12.78896    147.0 1.273e+04 1.575e-09
 12.80880    145.7 1.237e+04 1.301e-09
 12.82864    144.4 1.179e+04 1.017e-09
 12.84848    143.2 1.115e+04 7.836e-10
 12.86832    142.4 1.057e+04 6.112e-10
 12.87969    142.1 1.010e+04 4.809e-10
 12.88961    141.6 1.017e+04 4.961e-10
 12.90801    141.5 9.893e+03 4.121e-10
 12.92785    141.6 9.793e+03 3.793e-10
 12.94125    141.8 9.841e+03 3.856e-10
 12.95117    142.1 9.733e+03 3.640e-10
 12.96753    142.0 9.914e+03 3.878e-10
 12.98738    141.1 1.077e+04 5.153e-10
 13.00171    138.7 1.271e+04 1.016e-09
 13.01163    136.2 1.403e+04 1.771e-09
 13.02706    135.1 1.524e+04 3.237e-09
 13.04189    135.1 1.571e+04 4.038e-09
 13.05176    134.8 1.625e+04 5.253e-09
 13.06059    134.5 1.655e+04 7.094e-09
 13.06555    135.2 1.645e+04 5.767e-09
 13.06757    134.9 1.676e+04 7.453e-09
 13.07253    133.9 1.707e+04 8.471e-09
 13.08153    133.0 1.799e+04 1.074e-08
 13.09145    130.1 2.073e+04 1.434e-08
 13.10137    125.2 2.407e+04 2.130e-08
 13.11129    119.5 2.593e+04 3.174e-08
 13.12121    113.6 2.448e+04 4.348e-08
 13.12858    108.2 2.383e+04 4.432e-08
 13.13354    106.9 2.329e+04 3.978e-08
 13.14105    102.8 2.231e+04 3.940e-08
 13.15097     99.6 2.186e+04 3.554e-08
 13.16089     96.6 2.196e+04 2.814e-08
 13.17082     93.7 2.220e+04 2.022e-08
 13.18007     89.5 2.122e+04 1.011e-08
 13.18504     90.4 2.227e+04 1.849e-08
 13.18959     88.0 2.184e+04 1.245e-08
 13.19455     88.9 2.162e+04 1.233e-08
 13.20559     85.1 2.045e+04 7.428e-09
 13.22548     79.6 1.593e+04 2.473e-09
 13.24532     74.8 1.131e+04 9.585e-10
 13.25565     73.9 1.093e+04 5.850e-10
 13.26557     74.3 1.063e+04 4.415e-10
 13.28500     74.6 1.028e+04 3.762e-10
 13.30485     75.2 9.976e+03 3.121e-10
 13.32469     76.1 9.703e+03 2.555e-10
 13.34453     76.5 9.592e+03 2.319e-10
 13.36437     77.8 9.592e+03 2.328e-10
 13.37766     78.5 9.617e+03 2.361e-10
 13.38768     78.5 9.503e+03 2.147e-10
 13.41417     80.2 9.734e+03 2.620e-10
 13.45386     81.7 1.000e+04 3.532e-10
 13.48352     82.5 1.006e+04 4.071e-10
 13.49967     83.4 1.022e+04 4.912e-10
 13.50960     83.5 1.029e+04 5.280e-10
 13.52311     84.4 1.048e+04 6.311e-10
 13.54295     85.3 1.065e+04 6.937e-10
 13.56279     85.8 1.072e+04 6.998e-10
 13.58263     86.3 1.071e+04 6.911e-10
 13.60247     86.8 1.065e+04 6.543e-10
 13.62169     87.4 1.054e+04 5.863e-10
 13.63161     87.6 1.057e+04 5.962e-10
 13.64805     88.4 1.050e+04 5.358e-10
 13.66799     88.5 1.025e+04 4.408e-10
 13.69196     89.2 1.028e+04 4.348e-10
 13.73164     89.9 1.035e+04 4.539e-10
 13.77133     90.5 1.051e+04 4.950e-10
 13.81101     91.0 1.069e+04 5.399e-10
 13.85069     91.4 1.080e+04 5.623e-10
 13.87583     91.9 1.083e+04 5.634e-10
 13.89567     92.3 1.114e+04 7.160e-10
 13.92004     92.5 1.103e+04 6.591e-10
 13.93979     92.7 1.099e+04 6.311e-10
 13.95963     92.8 1.101e+04 6.355e-10
 13.97947     92.8 1.108e+04 6.624e-10
 13.99764     92.8 1.119e+04 7.197e-10
 14.00757     93.0 1.131e+04 7.831e-10
 14.01915     93.1 1.140e+04 8.726e-10
 14.03900     93.4 1.151e+04 9.474e-10
 14.05884     93.6 1.163e+04 9.490e-10
 14.07868     93.8 1.164e+04 9.297e-10
 14.09852     93.9 1.163e+04 8.564e-10
 14.11836     94.0 1.157e+04 7.191e-10
 14.12958     93.9 1.147e+04 5.530e-10
 14.13692     94.0 1.144e+04 4.992e-10
 14.14554     94.7 1.181e+04 7.116e-10
 14.15805     94.5 1.168e+04 4.787e-10
 14.17789     93.6 1.148e+04 3.202e-10
 14.19773     92.5 1.111e+04 2.661e-10
 14.21757     91.9 1.087e+04 2.655e-10
 14.23741     91.5 1.086e+04 2.728e-10
 14.25159     91.1 1.091e+04 3.034e-10
 14.26151     91.3 1.094e+04 2.992e-10
 14.27710     90.8 1.114e+04 3.919e-10
 14.29694     90.4 1.125e+04 4.894e-10
 14.32680     90.8 1.151e+04 6.462e-10
 14.36388     90.5 1.165e+04 7.128e-10
 14.38372     90.7 1.156e+04 6.551e-10
 14.40627     90.5 1.144e+04 5.871e-10
 14.44595     90.6 1.108e+04 3.777e-10
 14.48563     90.8 1.069e+04 1.828e-10
 14.52532     90.6 1.034e+04 8.290e-11
 14.56500     90.6 1.003e+04 6.077e-11
 14.60365     91.1 9.950e+03 6.057e-11
 14.62349     92.2 1.006e+04 6.591e-11
 14.62774     93.0 1.004e+04 6.623e-11
 14.64758     93.2 1.003e+04 6.577e-11
 14.68405     94.1 1.003e+04 6.953e-11
 14.72374     95.0 1.012e+04 7.904e-11
 14.76342     95.8 1.020e+04 9.349e-11
 14.80310     96.6 1.025e+04 1.077e-10
 14.84279     97.4 1.029e+04 1.129e-10
 14.87177     98.2 1.027e+04 1.103e-10
 14.89161     97.8 1.026e+04 1.118e-10
 14.92216     98.7 1.022e+04 9.445e-11
 14.96184     99.7 1.017e+04 7.971e-11
 15.00152    100.8 1.011e+04 7.393e-11
 15.04121    102.1 1.010e+04 7.419e-11
 15.08089    103.5 1.010e+04 7.656e-11
 15.10124    104.9 1.012e+04 8.098e-11
 15.11630    105.1 1.021e+04 9.540e-11
 15.13563    104.9 1.015e+04 9.612e-11
 15.16026    106.4 1.023e+04 1.053e-10
 15.19994    107.9 1.033e+04 1.115e-10
 15.23963    109.2 1.043e+04 1.163e-10
 15.27931    110.5 1.051e+04 1.227e-10
 15.31899    111.6 1.055e+04 1.390e-10
 15.35868    112.7 1.065e+04 1.697e-10
 15.37966    114.1 1.084e+04 2.359e-10
 15.39950    113.3 1.088e+04 2.317e-10
 15.43804    114.3 1.115e+04 2.988e-10
 15.47773    114.4 1.135e+04 3.587e-10
 15.50157    114.8 1.147e+04 4.121e-10
 15.51139    114.2 1.145e+04 3.838e-10
 15.52714    114.3 1.152e+04 4.456e-10
 15.54698    114.4 1.162e+04 5.306e-10
 15.56682    114.6 1.176e+04 6.189e-10
 15.57880    114.7 1.190e+04 6.934e-10
 15.58872    114.7 1.171e+04 5.610e-10
 15.60651    114.9 1.183e+04 6.130e-10
 15.62349    114.9 1.193e+04 6.227e-10
 15.63341    114.5 1.182e+04 4.996e-10
 15.64619    114.4 1.185e+04 4.989e-10
 15.66603    114.3 1.185e+04 4.911e-10
 15.68587    114.2 1.180e+04 4.760e-10
 15.70571    114.0 1.174e+04 4.617e-10
 15.72556    114.0 1.163e+04 4.614e-10
 15.74540    114.1 1.161e+04 4.711e-10
 15.75542    114.3 1.164e+04 4.922e-10
 15.76534    114.1 1.175e+04 5.153e-10
 15.79510    114.2 1.192e+04 5.471e-10
 15.83488    113.6 1.277e+04 8.117e-10
 15.86455    111.9 1.379e+04 1.380e-09
 15.87743    111.1 1.451e+04 2.307e-09
 15.88735    110.8 1.533e+04 4.474e-09
 15.90413    111.0 1.579e+04 6.032e-09
 15.92398    110.9 1.588e+04 6.268e-09
 15.94382    110.8 1.577e+04 6.018e-09
 15.96366    110.8 1.532e+04 5.143e-09
 15.98350    111.0 1.465e+04 3.954e-09
 15.99944    111.1 1.391e+04 2.882e-09
 16.00936    110.9 1.396e+04 2.981e-09
 16.02319    111.0 1.324e+04 2.068e-09
 16.04303    110.9 1.257e+04 1.422e-09
 16.05655    110.9 1.202e+04 1.025e-09
 16.06647    110.3 1.173e+04 8.480e-10
 16.08271    110.2 1.135e+04 6.768e-10
 16.11163    111.3 1.099e+04 5.126e-10
 16.13157    111.0 1.065e+04 4.263e-10
 16.15235    112.2 1.023e+04 3.142e-10
 16.19204    113.6 9.955e+03 2.825e-10
 16.23172    114.9 9.968e+03 2.872e-10
 16.27140    117.0 1.030e+04 3.499e-10
 16.29552    117.8 1.058e+04 4.265e-10
 16.30534    117.6 1.050e+04 4.067e-10
 16.32081    118.3 1.066e+04 4.600e-10
 16.34066    119.0 1.083e+04 5.214e-10
 16.36050    119.7 1.108e+04 6.092e-10
 16.37540    120.1 1.146e+04 7.408e-10
 16.38532    119.8 1.200e+04 9.623e-10
 16.40018    120.0 1.257e+04 1.238e-09
 16.42002    120.2 1.315e+04 1.616e-09
 16.43987    120.3 1.374e+04 2.123e-09
 16.45971    120.4 1.434e+04 2.779e-09
 16.47955    120.5 1.498e+04 3.574e-09
 16.49741    120.5 1.555e+04 4.278e-09
 16.50733    120.1 1.592e+04 4.637e-09
 16.51923    119.6 1.601e+04 4.610e-09
 16.53430    119.0 1.602e+04 4.336e-09
 16.54422    117.4 1.358e+04 1.323e-09
 16.55892    116.6 1.313e+04 1.069e-09
 16.57876    115.7 1.254e+04 8.494e-10
 16.59860    114.7 1.196e+04 6.960e-10
 16.61844    113.8 1.161e+04 6.146e-10
 16.62935    113.2 1.151e+04 5.785e-10
 16.63927    112.1 1.157e+04 5.730e-10
 16.65813    111.0 1.209e+04 6.310e-10
 16.67797    109.0 1.393e+04 9.124e-10
 16.69781    106.6 1.629e+04 1.736e-09
 16.71765    104.3 1.772e+04 3.211e-09
 16.73749    102.3 1.813e+04 5.735e-09
 16.75136    100.2 1.822e+04 8.234e-09
 16.76128     99.5 1.736e+04 9.016e-09
 16.77317     98.2 1.705e+04 9.051e-09
 16.78309     97.6 1.586e+04 4.134e-09
 16.79702     96.5 1.509e+04 5.020e-09
 16.81686     95.9 1.473e+04 4.793e-09
 16.83670     95.6 1.410e+04 3.935e-09
 16.85654     95.2 1.346e+04 2.511e-09
 16.87337     94.6 1.280e+04 1.624e-09
 16.88329     95.2 1.278e+04 1.612e-09
 16.90625     93.8 1.104e+04 6.141e-10
 16.94603     92.3 8.828e+03 2.351e-10
 16.98571     92.2 8.502e+03 1.461e-10
 17.01224     92.7 8.328e+03 1.360e-10
 17.03208     93.1 8.454e+03 1.604e-10
 17.06508     93.7 8.389e+03 1.585e-10
 17.10476     94.5 8.385e+03 1.598e-10
 17.12751     95.2 8.386e+03 1.631e-10
 17.14735     96.2 8.410e+03 1.619e-10
 17.18413     96.6 8.404e+03 1.615e-10
 17.22382     96.7 8.363e+03 1.587e-10
 17.26350     96.7 8.354e+03 1.593e-10
 17.30318     96.6 8.369e+03 1.659e-10
 17.34287     96.2 8.471e+03 1.933e-10
 17.37154     95.8 8.744e+03 2.537e-10
 17.39138     96.9 8.701e+03 2.359e-10
 17.42223     96.5 9.069e+03 3.249e-10
 17.46192     96.0 9.513e+03 4.528e-10
 17.48999     95.4 9.894e+03 5.622e-10
 17.50983     95.0 9.616e+03 4.537e-10
 17.54129     94.0 9.661e+03 4.525e-10
 17.58097     92.8 9.607e+03 4.124e-10
 17.61556     91.3 9.384e+03 3.196e-10
 17.63540     92.5 9.670e+03 4.047e-10
 17.66034     90.6 9.409e+03 3.039e-10
 17.70002     88.2 9.167e+03 2.409e-10
 17.73970     85.4 9.060e+03 2.323e-10
 17.77939     82.7 9.128e+03 2.379e-10
 17.81907     80.3 9.253e+03 2.486e-10
 17.85876     77.9 9.428e+03 2.665e-10
 17.87943     75.6 9.624e+03 2.832e-10
 17.89927     75.6 9.679e+03 2.881e-10
 17.93812     73.6 9.717e+03 2.858e-10
 17.96774     71.4 9.733e+03 2.548e-10
 17.98758     71.2 9.720e+03 2.498e-10
 18.01749     69.4 9.849e+03 2.409e-10
 18.04716     67.2 1.025e+04 2.668e-10
 18.06690     61.9 1.175e+04 4.857e-10
 18.08674     57.0 1.308e+04 1.302e-09
 18.10658     54.7 1.359e+04 2.237e-09
 18.12335     51.9 1.378e+04 2.081e-09
 18.14329     52.9 1.349e+04 1.863e-09
 18.17623     48.3 1.337e+04 1.152e-09
 18.21591     42.1 1.233e+04 3.996e-10
 18.25559     36.5 1.022e+04 1.549e-10
 18.29528     34.4 9.776e+03 1.159e-10
 18.33496     33.8 9.792e+03 1.176e-10
 18.36747     33.2 9.888e+03 1.298e-10
 18.38732     33.8 1.000e+04 1.309e-10
 18.41433     33.2 1.003e+04 1.672e-10
 18.44549     32.8 1.009e+04 2.179e-10
 18.46533     32.6 1.014e+04 2.476e-10
 18.49370     32.1 1.012e+04 2.482e-10
 18.53338     31.5 1.009e+04 2.312e-10
 18.57306     30.8 1.002e+04 2.070e-10
 18.61150     30.1 9.893e+03 1.876e-10
 18.63134     30.9 9.889e+03 1.839e-10
 18.65243     30.4 9.834e+03 1.815e-10
 18.69212     29.9 9.837e+03 1.944e-10
 18.73180     29.4 9.936e+03 2.410e-10
 18.77148     29.1 1.012e+04 3.216e-10
 18.81117     28.8 1.038e+04 4.308e-10
 18.85085     28.4 1.073e+04 5.794e-10
 18.87536     27.6 1.109e+04 7.533e-10
 18.89521     28.4 1.104e+04 6.784e-10
 18.92324     27.3 1.136e+04 8.397e-10
 18.94308     25.6 1.089e+04 5.733e-10
 18.96990     24.0 1.107e+04 6.819e-10
 19.00959     22.0 1.130e+04 7.984e-10
 19.04927     19.2 1.183e+04 1.072e-09
 19.08895     16.5 1.253e+04 1.599e-09
 19.11939     14.2 1.273e+04 1.750e-09
 19.13923     13.8 1.292e+04 1.939e-09
 19.16832     12.1 1.275e+04 1.715e-09
 19.19799     11.1 1.229e+04 1.257e-09
 19.21773      9.9 1.192e+04 9.665e-10
 19.23757      8.8 1.145e+04 7.376e-10
 19.25113      7.4 1.112e+04 5.957e-10
 19.26105      8.0 1.127e+04 6.426e-10
 19.27726      7.0 1.094e+04 5.162e-10
 19.29710      6.1 1.073e+04 4.444e-10
 19.31694      5.0 1.071e+04 4.070e-10
 19.33678      3.8 1.081e+04 4.104e-10
 19.35662     -0.6 1.149e+04 4.889e-10
 19.37314     -3.4 1.164e+04 5.436e-10
 19.38306     -6.1 1.197e+04 6.580e-10
 19.39631     -8.6 1.284e+04 8.944e-10
 19.41072    -11.8 1.420e+04 1.829e-09
 19.42064    -10.6 1.325e+04 1.651e-09
 19.43599    -12.4 1.498e+04 2.164e-09
 19.45583    -16.5 1.698e+04 2.960e-09
 19.47567    -21.1 1.726e+04 4.400e-09
 19.49515    -23.6 1.639e+04 6.249e-09
 19.50507    -24.2 1.691e+04 7.907e-09
 19.51536    -24.1 1.715e+04 1.018e-08
 19.53520    -23.7 1.717e+04 1.058e-08
 19.55504    -23.1 1.704e+04 8.276e-09
 19.57488    -23.9 1.657e+04 5.276e-09
 19.59473    -25.9 1.552e+04 2.933e-09
 19.61457    -27.8 1.385e+04 1.636e-09
 19.62708    -28.5 1.254e+04 1.074e-09
 19.63701    -28.4 1.378e+04 2.011e-09
 19.64959    -29.1 1.272e+04 1.358e-09
 19.65951    -29.1 1.369e+04 2.298e-09
 19.67409    -30.0 1.300e+04 1.801e-09
 19.69394    -30.5 1.280e+04 1.618e-09
 19.71378    -30.9 1.269e+04 1.558e-09
 19.73362    -30.9 1.260e+04 1.524e-09
 19.74910    -30.4 1.250e+04 1.525e-09
 19.75902    -30.5 1.298e+04 2.189e-09
 19.77330    -29.8 1.275e+04 2.055e-09
 19.80316    -29.3 1.209e+04 1.489e-09
 19.84295    -28.1 1.179e+04 1.409e-09
 19.87130    -26.7 1.132e+04 1.123e-09
 19.88726    -27.1 1.142e+04 1.141e-09
 19.89858    -28.5 1.122e+04 1.064e-09
 19.92231    -27.4 1.047e+04 7.904e-10
 19.96200    -26.0 9.892e+03 6.109e-10
 20.00168    -25.0 9.586e+03 4.517e-10
 20.04136    -25.5 9.567e+03 3.713e-10
 20.08105    -26.6 9.934e+03 4.368e-10
 20.11533    -26.0 1.010e+04 5.880e-10
 20.13517    -26.6 1.106e+04 1.074e-09
 20.16042    -25.2 1.051e+04 8.731e-10
 20.20010    -23.8 9.801e+03 5.919e-10
 20.23978    -22.9 9.404e+03 4.737e-10
 20.27947    -21.5 9.196e+03 4.284e-10
 20.31915    -19.8 9.066e+03 4.069e-10
 20.35649    -17.9 8.962e+03 4.097e-10
 20.37633    -18.8 9.137e+03 4.668e-10
 20.37919    -16.9 9.038e+03 4.434e-10
 20.39904    -17.8 8.487e+03 2.693e-10
 20.43820    -15.8 8.594e+03 2.709e-10
 20.47789    -14.1 8.568e+03 2.582e-10
 20.50111    -12.3 8.385e+03 2.579e-10
 20.51093    -12.9 8.315e+03 2.399e-10
 20.52730    -13.0 8.548e+03 2.699e-10
 20.54714    -14.2 9.253e+03 3.251e-10
 20.56698    -17.1 1.113e+04 5.892e-10
 20.58682    -19.5 1.283e+04 1.298e-09
 20.60509    -20.4 1.364e+04 2.654e-09
 20.61501    -21.3 1.483e+04 5.067e-09
 20.62150    -20.5 1.519e+04 6.317e-09
 20.62789    -20.0 1.558e+04 7.436e-09
 20.63285    -19.9 1.567e+04 7.657e-09
 20.64129    -19.4 1.600e+04 8.702e-09
 20.65121    -18.8 1.634e+04 9.639e-09
 20.66614    -17.8 1.707e+04 1.130e-08
 20.68603    -17.1 1.764e+04 1.144e-08
 20.70587    -16.7 1.813e+04 1.108e-08
 20.72571    -17.1 1.891e+04 1.114e-08
 20.74504    -17.4 1.924e+04 1.095e-08
 20.75496    -16.7 1.920e+04 1.159e-08
 20.76540    -16.1 1.919e+04 1.211e-08
 20.78524    -14.9 1.946e+04 1.368e-08
 20.80508    -13.0 2.002e+04 1.564e-08
 20.82492    -11.0 2.044e+04 1.521e-08
 20.84397     -8.8 2.097e+04 1.226e-08
 20.85389    -13.0 2.039e+04 1.079e-08
 20.86461    -14.4 2.203e+04 6.553e-09
 20.87697    -19.1 2.577e+04 4.042e-09
 20.88188    -13.7 2.918e+04 1.989e-08
 20.88931    -16.9 3.063e+04 1.757e-08
 20.89923    -22.8 3.000e+04 1.296e-08
 20.90915    -27.7 2.916e+04 9.665e-09
 20.92408    -37.5 2.289e+04 7.169e-09
 20.94398    -41.5 1.864e+04 5.101e-09
 20.96382    -42.2 1.625e+04 4.469e-09
 20.98366    -42.0 1.578e+04 4.571e-09
 20.99898    -41.5 1.555e+04 4.687e-09
 21.00890    -42.5 1.603e+04 5.582e-09
 21.02334    -41.8 1.540e+04 5.105e-09
 21.04318    -40.9 1.465e+04 4.136e-09
 21.06303    -40.2 1.392e+04 3.040e-09
 21.08284    -40.1 1.311e+04 2.068e-09
 21.11114    -40.8 1.201e+04 1.295e-09
 21.13101    -41.1 1.169e+04 1.182e-09
 21.15241    -41.9 1.092e+04 8.243e-10
 21.19219    -40.8 1.041e+04 6.412e-10
 21.23188    -39.5 1.035e+04 6.230e-10
 21.27156    -38.5 1.059e+04 7.081e-10
 21.30123    -37.4 1.085e+04 8.517e-10
 21.32097    -37.5 1.090e+04 8.775e-10
 21.33164    -36.9 1.144e+04 1.124e-09
 21.34156    -36.5 1.129e+04 1.067e-09
 21.36065    -36.6 1.139e+04 1.110e-09
 21.37494    -36.5 1.187e+04 1.322e-09
 21.38486    -35.9 1.166e+04 1.252e-09
 21.40034    -35.8 1.207e+04 1.399e-09
 21.42018    -36.1 1.251e+04 1.641e-09
 21.44002    -36.3 1.283e+04 1.962e-09
 21.45986    -36.4 1.300e+04 2.323e-09
 21.47971    -36.3 1.322e+04 2.695e-09
 21.49695    -36.1 1.344e+04 2.904e-09
 21.50687    -35.2 1.336e+04 2.883e-09
 21.51939    -35.4 1.369e+04 3.094e-09
 21.53923    -35.8 1.392e+04 3.345e-09
 21.55907    -36.4 1.414e+04 3.552e-09
 21.57051    -36.9 1.419e+04 3.627e-09
 21.58044    -36.5 1.466e+04 4.274e-09
 21.59876    -37.0 1.447e+04 4.183e-09
 21.61860    -37.0 1.395e+04 3.631e-09
 21.62888    -36.7 1.334e+04 2.789e-09
 21.63880    -36.4 1.392e+04 3.612e-09
 21.65828    -36.2 1.314e+04 2.503e-09
 21.67813    -36.4 1.229e+04 1.594e-09
 21.70799    -37.7 1.140e+04 1.042e-09
 21.74777    -38.0 1.053e+04 6.782e-10
 21.78745    -37.3 1.008e+04 5.750e-10
 21.80958    -36.1 1.003e+04 5.555e-10
 21.82943    -35.3 1.003e+04 5.624e-10
 21.86318    -33.8 1.001e+04 5.667e-10
 21.88302    -33.8 9.884e+03 4.915e-10
 21.90650    -32.0 9.894e+03 5.287e-10
 21.94619    -29.6 9.994e+03 6.028e-10
 21.98587    -26.8 1.007e+04 6.400e-10
 22.02555    -24.3 1.015e+04 5.795e-10
 22.06524    -22.6 1.021e+04 5.245e-10
 22.10492    -20.9 1.024e+04 5.639e-10
 22.12705    -18.5 1.022e+04 6.123e-10
 22.14689    -18.2 9.299e+03 2.880e-10
 22.18429    -15.7 9.249e+03 2.822e-10
 22.22397    -13.3 9.213e+03 2.765e-10
 22.26366    -11.2 9.170e+03 2.721e-10
 22.28734     -9.0 9.220e+03 2.979e-10
 22.30718     -8.4 9.607e+03 3.692e-10
 22.34302     -6.4 9.698e+03 4.050e-10
 22.37107     -4.3 9.969e+03 5.000e-10
 22.39091     -3.8 9.387e+03 3.154e-10
 22.42239     -1.9 9.865e+03 4.506e-10
 22.46208      0.1 1.050e+04 7.081e-10
 22.50176      2.3 1.125e+04 1.068e-09
 22.54144      4.3 1.202e+04 1.463e-09
 22.57111      4.2 1.272e+04 1.924e-09
 22.59085      4.4 1.329e+04 2.459e-09
 22.61069      4.8 1.380e+04 3.192e-09
 22.62482      5.7 1.425e+04 4.046e-09
 22.63474      5.7 1.413e+04 3.998e-09
 22.65038      6.6 1.432e+04 4.371e-09
 22.67022      7.6 1.428e+04 4.276e-09
 22.69006      8.5 1.411e+04 3.810e-09
 22.70990      9.0 1.389e+04 3.120e-09
 22.72975      9.2 1.347e+04 2.334e-09
 22.74683      8.9 1.303e+04 1.807e-09
 22.75676      8.6 1.254e+04 1.334e-09
 22.76499      9.0 1.212e+04 1.161e-09
 22.77491      8.2 1.300e+04 1.783e-09
 22.78927      8.4 1.247e+04 1.501e-09
 22.81913      9.4 1.245e+04 1.612e-09
 22.85891     11.0 1.194e+04 1.359e-09
 22.87896     12.9 1.165e+04 1.216e-09
 22.89880     12.7 1.117e+04 1.050e-09
 22.93828     14.8 1.105e+04 9.967e-10
 22.97796     17.1 1.100e+04 9.527e-10
 23.01765     19.5 1.097e+04 9.033e-10
 23.05733     21.8 1.093e+04 8.620e-10
 23.09702     24.2 1.094e+04 8.340e-10
 23.12299     26.5 1.097e+04 8.221e-10
 23.14283     26.9 1.035e+04 5.461e-10
 23.17638     29.2 1.045e+04 5.808e-10
 23.21607     31.6 1.059e+04 6.325e-10
 23.24284     34.0 1.078e+04 7.062e-10
 23.26268     33.7 1.056e+04 5.488e-10
 23.29543     36.0 1.075e+04 6.069e-10
 23.33512     38.3 1.098e+04 7.008e-10
 23.36701     40.7 1.130e+04 8.551e-10
 23.38685     41.1 1.107e+04 7.857e-10
 23.41449     43.7 1.184e+04 1.120e-09
 23.44415     44.6 1.218e+04 1.354e-09
 23.46390     45.4 1.247e+04 1.582e-09
 23.48152     46.1 1.277e+04 1.859e-09
 23.49144     46.2 1.282e+04 1.791e-09
 23.49875     47.0 1.323e+04 2.188e-09
 23.50867     47.1 1.308e+04 2.072e-09
 23.52342     48.1 1.362e+04 2.545e-09
 23.54326     48.7 1.425e+04 3.114e-09
 23.56311     48.8 1.487e+04 3.745e-09
 23.58295     48.5 1.559e+04 4.621e-09
 23.60279     47.6 1.637e+04 6.104e-09
 23.62076     46.9 1.708e+04 8.434e-09
 23.63068     47.2 1.626e+04 5.276e-09
 23.64247     46.8 1.643e+04 6.298e-09
 23.66231     46.5 1.634e+04 6.315e-09
 23.68216     46.6 1.596e+04 5.857e-09
 23.70200     46.6 1.534e+04 4.663e-09
 23.72039     46.3 1.460e+04 3.336e-09
 23.73031     46.5 1.522e+04 4.459e-09
 23.74168     45.8 1.434e+04 3.137e-09
 23.75269     45.0 1.354e+04 2.355e-09
 23.76262     45.0 1.283e+04 1.670e-09
 23.78137     44.9 1.240e+04 1.536e-09
 23.80121     45.1 1.218e+04 1.520e-09
 23.82105     45.7 1.213e+04 1.553e-09
 23.84089     46.6 1.210e+04 1.622e-09
 23.86073     47.6 1.216e+04 1.709e-09
 23.87471     48.6 1.230e+04 1.819e-09
 23.88463     48.8 1.215e+04 1.666e-09
 23.90042     49.7 1.241e+04 1.840e-09
 23.92026     50.3 1.282e+04 2.150e-09
 23.94010     50.7 1.332e+04 2.675e-09
 23.95927     50.9 1.384e+04 3.492e-09
 23.96919     50.4 1.382e+04 3.630e-09
 23.97978     51.0 1.420e+04 4.684e-09
 23.99672     52.1 1.471e+04 5.882e-09
 24.00664     52.3 1.481e+04 6.102e-09
 24.01947     53.6 1.540e+04 7.091e-09
 24.03931     54.8 1.611e+04 7.861e-09
 24.05414     55.0 1.659e+04 8.817e-09
 24.06259     55.2 1.684e+04 9.210e-09
 24.06755     55.5 1.657e+04 8.709e-09
 24.07394     55.5 1.670e+04 8.322e-09
 24.08357     55.4 1.677e+04 7.722e-09
 24.08853     54.6 1.622e+04 5.503e-09
 24.09378     53.8 1.623e+04 5.322e-09
 24.10370     52.8 1.599e+04 5.163e-09
 24.11863     51.8 1.650e+04 6.450e-09
 24.13852     51.1 1.580e+04 5.612e-09
 24.15836     50.1 1.570e+04 5.937e-09
 24.17820     49.7 1.581e+04 6.739e-09
 24.19805     49.7 1.613e+04 7.777e-09
 24.21789     50.0 1.669e+04 1.056e-08
 24.23773     50.3 1.702e+04 1.134e-08
 24.25066     50.5 1.705e+04 1.109e-08
 24.26058     50.5 1.622e+04 8.335e-09
 24.27741     50.8 1.622e+04 8.301e-09
 24.29726     51.3 1.611e+04 7.846e-09
 24.31710     51.8 1.585e+04 6.899e-09
 24.33694     52.2 1.542e+04 5.733e-09
 24.35678     52.5 1.489e+04 4.676e-09
 24.37268     52.7 1.434e+04 3.761e-09
 24.38260     52.9 1.439e+04 3.916e-09
 24.39646     53.0 1.389e+04 3.276e-09
 24.41631     53.2 1.339e+04 2.712e-09
 24.43615     53.4 1.292e+04 2.275e-09
 24.44694     53.6 1.258e+04 1.962e-09
 24.45686     53.6 1.278e+04 2.110e-09
 24.47583     53.9 1.264e+04 1.897e-09
 24.49469     54.1 1.264e+04 1.757e-09
 24.50461     54.3 1.343e+04 2.736e-09
 24.51552     54.4 1.379e+04 2.985e-09
 24.53536     54.4 1.431e+04 3.466e-09
 24.55520     54.4 1.497e+04 4.186e-09
 24.57504     54.6 1.562e+04 5.054e-09
 24.59488     54.8 1.607e+04 5.734e-09
 24.61473     54.8 1.613e+04 5.944e-09
 24.62662     54.6 1.601e+04 5.776e-09
 24.63654     55.0 1.773e+04 1.091e-08
 24.65441     55.0 1.716e+04 8.837e-09
 24.67425     54.9 1.628e+04 6.495e-09
 24.68581     54.5 1.526e+04 4.675e-09
 24.69573     53.9 1.477e+04 4.259e-09
 24.71394     53.4 1.409e+04 3.431e-09
 24.73378     53.2 1.356e+04 2.860e-09
 24.74863     53.2 1.314e+04 2.470e-09
 24.75855     52.7 1.374e+04 3.023e-09
 24.77346     52.9 1.341e+04 2.743e-09
 24.79330     53.4 1.304e+04 2.387e-09
 24.81314     53.8 1.268e+04 2.029e-09
 24.84301     54.4 1.193e+04 1.313e-09
 24.87084     55.3 1.121e+04 9.205e-10
 24.88066     55.1 1.179e+04 1.235e-09
 24.89251     55.3 1.147e+04 1.042e-09
 24.91235     55.8 1.102e+04 8.370e-10
 24.92469     56.3 1.075e+04 7.184e-10
 24.93461     56.3 1.063e+04 6.904e-10
 24.95204     56.8 1.050e+04 6.513e-10
 24.97188     57.3 1.047e+04 6.447e-10
 25.00174     58.0 1.046e+04 6.199e-10
 25.04152     59.0 1.047e+04 6.372e-10
 25.08121     60.0 1.046e+04 6.355e-10
 25.11487     60.8 1.037e+04 5.899e-10
 25.13471     61.4 9.971e+03 4.809e-10
 25.15384     62.4 9.834e+03 4.437e-10
 25.17368     62.2 1.014e+04 5.503e-10
 25.20026     63.2 9.865e+03 4.526e-10
 25.23994     64.4 9.456e+03 3.170e-10
 25.27962     65.6 9.031e+03 2.128e-10
 25.31931     66.9 8.724e+03 1.428e-10
 25.35889     68.1 8.537e+03 1.023e-10
 25.39857     70.4 8.507e+03 1.081e-10
 25.43836     71.8 8.425e+03 9.528e-11
 25.47804     73.2 8.342e+03 8.530e-11
 25.51773     74.6 8.258e+03 7.613e-11
 25.55741     76.0 8.200e+03 6.875e-11
 25.59709     77.4 8.205e+03 6.637e-11
 25.62276     78.7 8.238e+03 6.822e-11
 25.63741     79.5 8.245e+03 7.386e-11
 25.65143     79.3 8.289e+03 7.936e-11
 25.67646     80.4 8.421e+03 8.881e-11
 25.71615     81.5 8.692e+03 1.171e-10
 25.74467     81.9 8.830e+03 1.320e-10
 25.75449     81.9 8.825e+03 1.347e-10
 25.76556     82.0 8.900e+03 1.441e-10
 25.78540     81.6 9.309e+03 1.756e-10
 25.80524     78.2 1.114e+04 3.819e-10
 25.82508     73.6 1.295e+04 1.031e-09
 25.83991     71.2 1.368e+04 1.721e-09
 25.84979     68.6 1.472e+04 2.937e-09
 25.85971     63.9 1.838e+04 6.654e-09
 25.86963     58.6 2.307e+04 1.694e-08
 25.87641     54.0 2.562e+04 3.656e-08
 25.88137     57.1 2.432e+04 2.262e-08
 25.88505     52.3 2.634e+04 4.020e-08
 25.89001     50.7 2.645e+04 3.918e-08
 25.89939     45.5 2.603e+04 4.837e-08
 25.90931     40.5 2.508e+04 4.881e-08
 25.91923     36.1 2.396e+04 4.228e-08
 25.92915     33.0 2.343e+04 3.130e-08
 25.93741     30.7 2.389e+04 2.097e-08
 25.94237     31.2 2.173e+04 3.481e-08
 25.94900     30.2 2.228e+04 2.264e-08
 25.96393     26.0 2.419e+04 8.112e-09
 25.98382     20.1 2.103e+04 3.325e-09
 25.99852     13.2 1.556e+04 1.799e-09
 26.00844     16.1 1.815e+04 1.697e-09
 26.02350     11.0 1.322e+04 1.387e-09
 26.04334      9.5 1.349e+04 1.490e-09
 26.06318      8.0 1.437e+04 1.871e-09
 26.08303      7.2 1.498e+04 2.430e-09
 26.10287      7.3 1.457e+04 2.560e-09
 26.11906      8.3 1.381e+04 2.331e-09
 26.12680      8.2 1.348e+04 2.010e-09
 26.13045      9.5 1.299e+04 1.313e-09
 26.14255      9.4 1.255e+04 1.032e-09
 26.16239      9.3 1.207e+04 7.381e-10
 26.19225      9.8 1.130e+04 4.666e-10
 26.23204     10.0 1.027e+04 3.058e-10
 26.27172     10.6 9.739e+03 2.497e-10
 26.31140     12.0 9.643e+03 2.347e-10
 26.35109     13.5 9.651e+03 2.276e-10
 26.37467     14.6 9.876e+03 2.496e-10
 26.39451     17.1 9.747e+03 2.279e-10
 26.43045     17.2 1.010e+04 2.740e-10
 26.47014     14.9 1.157e+04 5.395e-10
 26.49659      8.5 1.392e+04 1.571e-09
 26.50641     10.2 1.368e+04 1.297e-09
 26.51955      8.1 1.435e+04 2.652e-09
 26.53939      8.0 1.477e+04 4.100e-09
 26.55923      6.7 1.584e+04 5.175e-09
 26.57907      1.9 1.770e+04 6.216e-09
 26.59681     -5.6 1.877e+04 7.460e-09
 26.60673     -7.3 1.920e+04 9.393e-09
 26.61850    -12.6 1.794e+04 1.036e-08
 26.62842    -12.4 1.781e+04 1.018e-08
 26.63860    -14.0 1.654e+04 9.725e-09
 26.65844    -13.8 1.577e+04 6.669e-09
 26.67828    -16.6 1.729e+04 3.774e-09
 26.69812    -28.0 1.755e+04 2.444e-09
 26.71797    -38.8 1.427e+04 1.963e-09
 26.73781    -41.4 1.305e+04 2.272e-09
 26.75043    -41.9 1.305e+04 2.409e-09
 26.76035    -40.8 1.280e+04 2.107e-09
 26.77749    -41.0 1.285e+04 2.146e-09
 26.79733    -41.8 1.312e+04 1.737e-09
 26.81718    -45.2 1.340e+04 1.229e-09
 26.83569    -50.5 1.342e+04 1.078e-09
 26.84561    -48.8 1.349e+04 1.134e-09
 26.85686    -53.8 1.354e+04 1.211e-09
 26.87244    -57.0 1.349e+04 1.846e-09
 26.88237    -54.4 1.398e+04 1.450e-09
 26.89654    -57.1 1.387e+04 2.324e-09
 26.91639    -58.5 1.413e+04 2.955e-09
 26.93623    -60.3 1.430e+04 3.079e-09
 26.95607    -63.1 1.427e+04 2.424e-09
 26.97591    -68.0 1.341e+04 1.427e-09
 26.99446    -74.8 1.279e+04 1.114e-09
 27.00438    -72.9 1.359e+04 1.507e-09
 27.01559    -80.6 1.346e+04 1.427e-09
 27.03544    -86.8 1.456e+04 2.295e-09
 27.05528    -90.1 1.556e+04 4.544e-09
 27.07456    -91.7 1.628e+04 6.941e-09
 27.08448    -91.9 1.601e+04 6.460e-09
 27.09496    -93.3 1.608e+04 6.864e-09
 27.11480    -94.7 1.587e+04 6.563e-09
 27.12639    -96.3 1.518e+04 4.722e-09
 27.13631    -96.8 1.502e+04 4.501e-09
 27.15449    -99.3 1.402e+04 3.007e-09
 27.17433   -102.3 1.293e+04 2.093e-09
 27.19417   -104.6 1.217e+04 1.670e-09
 27.21401   -105.8 1.194e+04 1.559e-09
 27.23386   -106.8 1.195e+04 1.552e-09
 27.24840   -110.1 1.323e+04 1.737e-09
 27.25832   -111.5 1.372e+04 1.867e-09
 27.27354   -116.8 1.639e+04 3.895e-09
 27.29338   -120.8 1.780e+04 8.432e-09
 27.31322   -123.3 1.864e+04 1.424e-08
 27.32336   -125.5 1.920e+04 1.763e-08
 27.33328   -126.3 1.919e+04 1.763e-08
 27.35291   -128.5 1.951e+04 1.908e-08
 27.37041   -131.7 1.966e+04 1.788e-08
 27.38034   -132.7 1.952e+04 1.442e-08
 27.39259   -139.0 1.871e+04 6.587e-09
 27.41243   -147.6 1.546e+04 1.954e-09
 27.43227   -155.2 1.144e+04 7.408e-10
 27.45212   -158.2 1.009e+04 5.161e-10
 27.47196   -159.2 9.846e+03 4.416e-10
 27.49180   -160.4 9.660e+03 3.701e-10
 27.50235   -161.9 9.434e+03 3.144e-10
 27.51227   -161.8 9.604e+03 3.565e-10
 27.53148   -163.2 9.544e+03 3.344e-10
 27.55133   -164.5 9.545e+03 3.305e-10
 27.56223   -166.0 9.610e+03 3.320e-10
 27.57215   -165.1 9.495e+03 3.236e-10
 27.59101   -166.7 9.734e+03 3.333e-10
 27.61085   -168.5 1.023e+04 4.131e-10
 27.62436   -170.4 1.079e+04 5.872e-10
 27.63428   -171.3 1.110e+04 8.285e-10
 27.65054   -172.6 1.163e+04 1.125e-09
 27.67038   -173.5 1.216e+04 1.450e-09
 27.69022   -174.2 1.257e+04 1.714e-09
 27.71006   -174.8 1.276e+04 1.826e-09
 27.72990   -175.4 1.279e+04 1.837e-09
 27.74637   -176.1 1.256e+04 1.634e-09
 27.75629   -176.9 1.212e+04 1.373e-09
 27.76959   -177.8 1.151e+04 1.042e-09
 27.78943   -178.9 1.088e+04 7.901e-10
 27.80111   -179.8 1.036e+04 6.232e-10
 27.81103   -178.6 1.086e+04 7.950e-10
 27.82911   -179.5 1.033e+04 6.335e-10
 27.84895   -180.3 1.001e+04 5.343e-10
 27.86838   -180.8 9.840e+03 4.714e-10
 27.87830   -181.7 9.705e+03 3.992e-10
 27.88864   -182.3 9.667e+03 3.696e-10
 27.90848   -183.0 9.678e+03 3.626e-10
 27.93834   -184.2 9.824e+03 3.635e-10
 27.97812   -186.8 1.077e+04 4.692e-10
 28.01781   -188.9 1.168e+04 7.713e-10
 28.04018   -190.4 1.211e+04 1.140e-09
 28.05000   -192.5 1.226e+04 1.398e-09
 28.06722   -192.9 1.211e+04 1.389e-09
 28.08706   -193.1 1.194e+04 1.326e-09
 28.10690   -193.4 1.169e+04 1.222e-09
 28.12233   -193.7 1.145e+04 1.092e-09
 28.14227   -196.3 1.052e+04 7.218e-10
 28.17654   -196.6 9.908e+03 5.134e-10
 28.21622   -196.6 9.518e+03 4.099e-10
 28.25591   -196.4 9.313e+03 3.559e-10
 28.29559   -195.8 9.150e+03 3.183e-10
 28.33528   -194.9 9.025e+03 2.926e-10
 28.36655   -193.6 8.972e+03 2.793e-10
 28.38639   -193.6 8.737e+03 2.378e-10
 28.41464   -192.6 8.890e+03 2.635e-10
 28.45433   -191.9 9.255e+03 3.314e-10
 28.49401   -191.4 9.715e+03 4.345e-10
 28.51793   -191.0 1.019e+04 5.690e-10
 28.53777   -190.9 1.048e+04 6.952e-10
 28.57338   -190.7 1.092e+04 8.764e-10
 28.61057   -190.7 1.117e+04 9.839e-10
 28.63041   -191.9 1.141e+04 1.138e-09
 28.65275   -192.1 1.141e+04 1.140e-09
 28.69243   -192.2 1.121e+04 9.995e-10
 28.73211   -191.8 1.082e+04 7.586e-10
 28.77180   -191.2 1.041e+04 5.554e-10
 28.81148   -190.3 1.010e+04 4.240e-10
 28.85117   -189.2 9.965e+03 3.563e-10
 28.87444   -188.0 9.952e+03 3.358e-10
 28.89428   -188.6 1.002e+04 3.476e-10
 28.93053   -187.7 1.008e+04 3.625e-10
 28.97022   -187.3 1.086e+04 5.537e-10
 28.99568   -187.1 1.189e+04 1.003e-09
 29.01552   -186.8 1.163e+04 8.654e-10
 29.04958   -186.6 1.253e+04 1.451e-09
 29.07925   -186.8 1.351e+04 2.551e-09
 29.09899   -186.8 1.374e+04 2.890e-09
 29.11827   -186.7 1.383e+04 3.039e-09
 29.12819   -187.2 1.444e+04 4.181e-09
 29.13868   -186.9 1.436e+04 4.130e-09
 29.15852   -186.4 1.404e+04 3.524e-09
 29.17836   -185.9 1.359e+04 2.598e-09
 29.19820   -185.7 1.300e+04 1.729e-09
 29.21805   -185.9 1.223e+04 1.085e-09
 29.23436   -186.5 1.132e+04 6.861e-10
 29.24428   -184.8 1.287e+04 1.179e-09
 29.25020   -185.3 1.204e+04 7.087e-10
 29.26012   -185.9 1.219e+04 6.718e-10
 29.27757   -186.6 1.105e+04 4.137e-10
 29.29741   -187.2 1.020e+04 3.211e-10
 29.31725   -187.4 9.833e+03 2.933e-10
 29.33710   -187.1 9.728e+03 2.723e-10
 29.36239   -186.7 9.647e+03 2.578e-10
 29.38223   -187.7 9.458e+03 2.375e-10
 29.40664   -187.6 9.438e+03 2.337e-10
 29.44642   -186.8 9.386e+03 2.341e-10
 29.47343   -186.5 9.457e+03 2.533e-10
 29.48325   -186.7 9.982e+03 3.025e-10
 29.49423   -186.8 1.017e+04 3.590e-10
 29.50415   -187.2 1.016e+04 3.647e-10
 29.52569   -187.1 1.038e+04 4.464e-10
 29.56547   -186.5 1.026e+04 5.279e-10
 29.60516   -185.9 1.028e+04 5.706e-10
 29.62635   -185.0 1.014e+04 5.620e-10
 29.64620   -185.3 9.914e+03 5.015e-10
 29.68452   -183.8 9.590e+03 4.233e-10
 29.72421   -182.3 9.293e+03 3.503e-10
 29.76389   -180.6 9.087e+03 3.036e-10
 29.80358   -178.8 9.012e+03 2.842e-10
 29.84326   -177.0 8.999e+03 2.804e-10
 29.87038   -175.3 9.050e+03 2.892e-10
 29.89022   -175.2 9.034e+03 2.823e-10
 29.92263   -173.8 9.278e+03 3.392e-10
 29.95118   -172.5 9.624e+03 4.410e-10
 29.97102   -171.8 9.326e+03 3.536e-10
 30.00200   -170.3 9.769e+03 4.861e-10
 30.04168   -168.7 1.029e+04 6.835e-10
 30.08136   -167.3 1.084e+04 9.232e-10
 30.11440   -166.0 1.132e+04 1.161e-09
 30.13424   -166.6 1.137e+04 1.233e-09
 30.16073   -165.6 1.161e+04 1.369e-09
 30.20041   -164.5 1.166e+04 1.374e-09
 30.24010   -163.5 1.143e+04 1.098e-09
 30.27978   -162.5 1.086e+04 7.662e-10
 30.30945   -161.6 1.046e+04 6.265e-10
 30.32919   -161.3 1.018e+04 5.438e-10
 30.34903   -160.8 9.865e+03 4.605e-10
 30.36815   -160.4 9.715e+03 4.172e-10
 30.37817   -161.1 9.545e+03 3.821e-10
 30.39883   -159.8 9.368e+03 3.312e-10
 30.42893   -158.3 9.245e+03 2.956e-10
 30.44867   -156.6 9.615e+03 4.213e-10
 30.47810   -155.5 9.548e+03 4.000e-10
 30.51788   -153.8 9.333e+03 3.398e-10
 30.55757   -151.6 9.145e+03 2.795e-10
 30.59725   -149.6 9.045e+03 2.377e-10
 30.62229   -147.5 9.030e+03 2.098e-10
 30.64214   -148.1 9.027e+03 2.109e-10
 30.67662   -146.2 9.015e+03 1.996e-10
 30.71630   -144.2 9.011e+03 1.964e-10
 30.75599   -142.3 9.011e+03 1.954e-10
 30.79567   -140.4 9.159e+03 1.972e-10
 30.83535   -138.7 9.213e+03 2.249e-10
 30.86632   -137.0 9.348e+03 2.705e-10
 30.88616   -137.7 9.191e+03 2.520e-10
 30.90668   -136.0 9.268e+03 3.046e-10
 30.92652   -135.3 9.498e+03 2.980e-10
 30.95441   -133.8 9.730e+03 3.653e-10
 30.99409   -132.5 9.782e+03 3.970e-10
 31.03377   -131.3 9.752e+03 4.005e-10
 31.07346   -129.9 9.430e+03 3.667e-10
 31.11034   -128.4 8.999e+03 2.971e-10
 31.13018   -128.7 8.901e+03 2.845e-10
 31.15283   -126.9 8.595e+03 2.256e-10
 31.19251   -125.1 8.366e+03 1.842e-10
 31.23219   -123.3 8.272e+03 1.622e-10
 31.27188   -121.5 8.269e+03 1.573e-10
 31.31156   -119.6 8.368e+03 1.594e-10
 31.35124   -117.8 8.564e+03 1.699e-10
 31.37421   -116.0 8.743e+03 1.833e-10
 31.38755   -116.3 8.760e+03 1.799e-10
 31.40427   -116.8 1.003e+04 4.319e-10
 31.43061   -115.0 1.029e+04 5.118e-10
 31.47030   -113.3 1.060e+04 5.876e-10
 31.50998   -111.9 1.108e+04 6.931e-10
 31.54966   -110.5 1.183e+04 8.810e-10
 31.57933   -109.5 1.226e+04 9.591e-10
 31.59907   -108.8 1.271e+04 1.191e-09
 31.61804   -107.8 1.287e+04 1.478e-09
 31.62796   -108.3 1.289e+04 1.594e-09
 31.63303   -108.2 1.365e+04 2.220e-09
 31.64295   -109.1 1.380e+04 2.298e-09
 31.65860   -110.0 1.527e+04 3.316e-09
 31.67844   -112.0 1.726e+04 5.410e-09
 31.69828   -113.9 1.923e+04 8.881e-09
 31.71812   -115.6 2.082e+04 1.326e-08
 31.73296   -117.1 2.250e+04 2.105e-08
 31.74283   -117.7 2.306e+04 2.316e-08
 31.74987   -118.2 2.377e+04 2.544e-08
 31.75445   -118.9 2.414e+04 2.933e-08
 31.75733   -119.2 2.141e+04 1.411e-08
 31.76267   -119.7 2.076e+04 1.276e-08
 31.77259   -120.4 1.976e+04 1.051e-08
 31.78251   -121.1 1.872e+04 8.434e-09
 31.79243   -122.2 1.761e+04 6.333e-09
 31.80235   -123.2 1.676e+04 4.923e-09
 31.81088   -124.5 1.578e+04 3.671e-09
 31.81584   -124.8 1.596e+04 3.842e-09
 31.82220   -125.8 1.562e+04 3.304e-09
 31.83212   -126.7 1.557e+04 3.040e-09
 31.84204   -126.8 1.571e+04 3.014e-09
 31.85697   -127.3 1.557e+04 2.823e-09
 31.87191   -127.9 1.462e+04 2.418e-09
 31.88183   -128.2 1.137e+04 1.312e-09
 31.89670   -127.9 1.128e+04 1.284e-09
 31.91654   -127.4 1.126e+04 1.278e-09
 31.93638   -127.0 1.131e+04 1.314e-09
 31.95623   -128.4 1.212e+04 1.503e-09
 31.97607   -132.2 1.431e+04 1.906e-09
 31.99399   -137.1 1.656e+04 2.805e-09
 32.00392   -137.5 2.062e+04 5.708e-09
 32.01575   -143.0 2.053e+04 8.864e-09
 32.03559   -148.1 2.050e+04 1.200e-08
 32.05544   -151.8 2.051e+04 1.475e-08
 32.07027   -152.8 2.038e+04 1.503e-08
 32.08014   -153.3 2.023e+04 1.538e-08
 32.09507   -153.8 1.990e+04 1.623e-08
 32.11078   -153.1 1.913e+04 1.511e-08
 32.12070   -150.3 1.766e+04 8.299e-09
 32.12593   -149.7 1.724e+04 7.608e-09
 32.13585   -151.1 1.778e+04 8.063e-09
 32.15465   -149.5 1.715e+04 7.656e-09
 32.17449   -147.9 1.672e+04 7.466e-09
 32.19433   -146.4 1.640e+04 7.391e-09
 32.21417   -144.8 1.617e+04 7.391e-09
 32.23401   -143.2 1.597e+04 7.344e-09
 32.24794   -141.4 1.572e+04 7.082e-09
 32.25786   -141.5 1.536e+04 6.545e-09
 32.27370   -139.8 1.498e+04 5.814e-09
 32.29354   -138.4 1.466e+04 5.103e-09
 32.31338   -137.2 1.448e+04 4.595e-09
 32.33322   -136.0 1.419e+04 4.184e-09
 32.34966   -134.8 1.388e+04 3.740e-09
 32.35958   -134.4 1.466e+04 4.506e-09
 32.36995   -133.1 1.454e+04 4.458e-09
 32.37987   -133.1 1.378e+04 3.395e-09
 32.39275   -131.8 1.353e+04 3.238e-09
 32.41259   -130.7 1.323e+04 2.970e-09
 32.43243   -129.6 1.294e+04 2.662e-09
 32.45227   -128.7 1.283e+04 2.383e-09
 32.47212   -128.4 1.294e+04 2.270e-09
 32.49196   -128.6 1.408e+04 2.332e-09
 32.51180   -128.1 1.371e+04 1.837e-09
 32.53164   -128.9 1.583e+04 2.222e-09
 32.55148   -129.9 1.765e+04 2.913e-09
 32.57133   -131.0 1.834e+04 3.714e-09
 32.58853   -131.8 1.826e+04 4.665e-09
 32.59845   -132.0 1.882e+04 1.788e-08
 32.61101   -132.2 1.859e+04 1.887e-08
 32.62390   -132.0 1.845e+04 1.936e-08
 32.63382   -130.4 1.770e+04 1.240e-08
 32.65069   -130.1 1.758e+04 1.270e-08
 32.67053   -129.4 1.717e+04 1.217e-08
 32.69038   -128.6 1.670e+04 1.055e-08
 32.71022   -127.8 1.630e+04 8.898e-09
 32.73006   -127.1 1.590e+04 7.325e-09
 32.74591   -126.6 1.554e+04 6.280e-09
 32.75583   -125.1 1.496e+04 5.186e-09
 32.76974   -124.3 1.455e+04 4.374e-09
 32.78959   -123.7 1.417e+04 3.744e-09
 32.80943   -123.1 1.379e+04 3.245e-09
 32.82741   -122.4 1.340e+04 2.847e-09
 32.83733   -122.8 1.335e+04 2.872e-09
 32.84911   -122.0 1.299e+04 2.595e-09
 32.86792   -121.1 1.273e+04 2.410e-09
 32.87784   -120.2 1.225e+04 1.794e-09
 32.88880   -119.4 1.200e+04 1.674e-09
 32.90864   -118.4 1.179e+04 1.617e-09
 32.92848   -117.3 1.171e+04 1.545e-09
 32.94832   -116.2 1.165e+04 1.478e-09
 32.96816   -115.1 1.160e+04 1.378e-09
 32.98801   -114.0 1.150e+04 1.232e-09
 32.99985   -112.9 1.134e+04 1.053e-09
 33.00978   -112.5 1.096e+04 8.581e-10
 33.02769   -111.5 1.076e+04 7.282e-10
 33.04753   -110.5 1.046e+04 5.969e-10
 33.06628   -109.6 1.009e+04 4.916e-10
 33.07620   -109.0 1.064e+04 7.063e-10
 33.08721   -108.0 1.035e+04 5.474e-10
 33.10706   -107.2 1.001e+04 4.277e-10
 33.12187   -106.6 9.660e+03 3.528e-10
 33.14181   -106.1 9.373e+03 3.231e-10
 33.17670   -104.1 9.079e+03 2.649e-10
 33.21638   -101.6 8.837e+03 2.070e-10
 33.25607    -99.0 8.625e+03 1.553e-10
 33.29543    -96.4 8.419e+03 1.194e-10
 33.31527    -96.4 8.341e+03 1.083e-10
 33.33543    -93.9 8.139e+03 8.418e-11
 33.36609    -91.4 8.026e+03 7.233e-11
 33.38593    -90.6 8.006e+03 7.271e-11
 33.41480    -88.1 7.973e+03 6.947e-11
 33.45448    -85.8 7.975e+03 6.906e-11
 33.49417    -83.7 8.089e+03 7.718e-11
 33.53385    -81.9 8.250e+03 1.052e-10
 33.57354    -80.0 8.410e+03 1.428e-10
 33.61011    -78.2 8.620e+03 1.841e-10
 33.62995    -77.2 8.364e+03 1.627e-10
 33.65290    -75.5 8.488e+03 1.834e-10
 33.69259    -74.2 8.592e+03 2.074e-10
 33.73227    -73.4 8.828e+03 2.560e-10
 33.77196    -73.0 9.423e+03 3.800e-10
 33.79302    -72.7 1.038e+04 6.735e-10
 33.81287    -72.6 1.018e+04 6.214e-10
 33.85132    -72.1 1.109e+04 1.057e-09
 33.87388    -71.4 1.168e+04 1.465e-09
 33.89372    -71.0 1.150e+04 1.288e-09
 33.92067    -71.3 1.258e+04 2.163e-09
 33.94042    -71.8 1.335e+04 2.865e-09
 33.96026    -72.6 1.397e+04 3.513e-09
 33.98010    -73.6 1.430e+04 3.788e-09
 33.99579    -74.7 1.436e+04 3.840e-09
 34.00571    -73.5 1.399e+04 3.318e-09
 34.01978    -74.6 1.386e+04 3.155e-09
 34.03170    -75.5 1.327e+04 2.415e-09
 34.04162    -76.0 1.337e+04 2.668e-09
 34.05947    -77.0 1.240e+04 1.749e-09
 34.07931    -77.9 1.150e+04 1.096e-09
 34.09915    -78.9 1.074e+04 6.987e-10
 34.11781    -79.7 1.014e+04 4.863e-10
 34.12773    -78.8 1.018e+04 4.839e-10
 34.13883    -79.0 9.762e+03 3.722e-10
 34.16870    -79.1 9.429e+03 2.974e-10
 34.20848    -79.1 9.045e+03 2.206e-10
 34.24816    -78.6 8.867e+03 1.891e-10
 34.27077    -77.6 8.754e+03 1.752e-10
 34.29062    -77.1 8.743e+03 1.783e-10
 34.32753    -75.9 8.657e+03 1.618e-10
 34.36203    -74.5 8.552e+03 1.446e-10
 34.38187    -73.8 8.491e+03 1.408e-10
 34.40690    -72.4 8.380e+03 1.251e-10
 34.44658    -70.8 8.284e+03 1.108e-10
 34.48626    -69.3 8.199e+03 9.868e-11
 34.52595    -67.7 8.125e+03 8.906e-11
 34.56563    -66.1 8.060e+03 8.237e-11
 34.60531    -64.4 8.005e+03 7.838e-11
 34.62589    -62.6 7.961e+03 7.638e-11
 34.64573    -61.9 8.051e+03 8.206e-11
 34.68468    -60.2 8.046e+03 8.154e-11
 34.72437    -58.3 8.038e+03 8.133e-11
 34.74852    -56.5 7.999e+03 8.378e-11
 34.76837    -55.9 8.003e+03 8.007e-11
 34.80373    -53.9 7.993e+03 7.924e-11
 34.84342    -52.2 8.064e+03 8.432e-11
 34.86992    -50.9 8.292e+03 1.080e-10
 34.88976    -50.3 8.360e+03 1.292e-10
 34.92279    -49.0 8.681e+03 1.836e-10
 34.96247    -47.5 9.065e+03 2.579e-10
 35.00215    -46.2 9.387e+03 3.365e-10
 35.04184    -45.0 9.492e+03 3.817e-10
 35.08152    -43.9 9.488e+03 3.906e-10
 35.11394    -42.7 9.377e+03 3.753e-10
 35.13378    -42.1 9.513e+03 3.871e-10
 35.16089    -41.1 9.339e+03 3.414e-10
 35.20057    -40.1 9.308e+03 3.290e-10
 35.22627    -39.4 9.409e+03 3.482e-10
 35.24612    -39.4 9.284e+03 2.798e-10
 35.27994    -39.7 9.792e+03 3.892e-10
 35.31962    -42.2 1.149e+04 8.681e-10
 35.34929    -44.9 1.294e+04 1.854e-09
 35.36769    -45.9 1.370e+04 3.134e-09
 35.37761    -46.5 1.412e+04 4.148e-09
 35.38887    -45.9 1.440e+04 5.518e-09
 35.40872    -44.8 1.443e+04 5.856e-09
 35.42856    -43.6 1.402e+04 5.201e-09
 35.44840    -42.6 1.328e+04 3.278e-09
 35.46495    -42.8 1.238e+04 1.688e-09
 35.47487    -43.1 1.217e+04 1.389e-09
 35.48808    -45.6 1.124e+04 7.259e-10
 35.49962    -46.9 1.036e+04 4.499e-10
 35.50954    -47.6 1.008e+04 3.209e-10
 35.52777    -47.9 9.768e+03 2.797e-10
 35.55763    -47.7 9.677e+03 2.720e-10
 35.59741    -46.8 9.294e+03 2.068e-10
 35.62183    -45.4 8.856e+03 1.409e-10
 35.64167    -45.2 8.677e+03 1.008e-10
 35.67678    -44.0 8.672e+03 9.288e-11
 35.70402    -42.9 8.736e+03 9.290e-11
 35.72387    -41.9 8.650e+03 9.010e-11
 35.75614    -41.5 9.013e+03 1.107e-10
 35.79583    -41.6 9.479e+03 1.760e-10
 35.83551    -42.0 1.015e+04 3.377e-10
 35.86585    -42.1 1.083e+04 6.190e-10
 35.88570    -42.3 1.110e+04 7.795e-10
 35.91488    -42.2 1.140e+04 9.370e-10
 35.95456    -42.3 1.134e+04 8.811e-10
 35.99425    -42.3 1.112e+04 6.967e-10
 36.03393    -42.3 1.112e+04 6.549e-10
 36.07362    -43.4 1.225e+04 9.928e-10
 36.10328    -44.4 1.341e+04 1.897e-09
 36.11960    -45.2 1.440e+04 3.257e-09
 36.12953    -46.2 1.454e+04 3.630e-09
 36.14287    -46.1 1.517e+04 5.653e-09
 36.16271    -45.0 1.562e+04 7.466e-09
 36.18158    -44.1 1.568e+04 8.072e-09
 36.19150    -44.4 1.627e+04 9.660e-09
 36.20239    -43.8 1.623e+04 9.815e-09
 36.22223    -43.3 1.547e+04 8.185e-09
 36.24162    -43.3 1.457e+04 5.315e-09
 36.25154    -44.1 1.430e+04 4.781e-09
 36.26192    -45.8 1.374e+04 2.989e-09
 36.28176    -47.1 1.335e+04 2.062e-09
 36.30160    -47.9 1.303e+04 1.612e-09
 36.32144    -48.5 1.248e+04 1.380e-09
 36.34129    -48.9 1.203e+04 1.295e-09
 36.36113    -48.8 1.189e+04 1.272e-09
 36.37355    -48.4 1.185e+04 1.276e-09
 36.38347    -48.2 1.178e+04 1.367e-09
 36.40081    -47.6 1.176e+04 1.352e-09
 36.42045    -47.0 1.159e+04 1.216e-09
 36.43037    -46.7 1.174e+04 1.311e-09
 36.44049    -46.0 1.156e+04 1.143e-09
 36.46034    -45.3 1.128e+04 9.208e-10
 36.48018    -44.5 1.097e+04 6.966e-10
 36.49556    -43.7 1.071e+04 4.992e-10
 36.50548    -43.9 1.075e+04 5.461e-10
 36.51986    -43.4 1.048e+04 4.028e-10
 36.54972    -43.0 9.943e+03 2.402e-10
 36.58950    -41.4 9.403e+03 1.516e-10
 36.61777    -39.6 9.185e+03 1.284e-10
 36.63761    -39.3 9.132e+03 1.830e-10
 36.65952    -37.1 9.013e+03 1.639e-10
 36.67937    -36.1 9.082e+03 1.907e-10
 36.70856    -33.8 8.936e+03 1.675e-10
 36.74824    -31.4 8.828e+03 1.419e-10
 36.78792    -29.0 8.748e+03 1.152e-10
 36.82761    -26.8 8.705e+03 9.464e-11
 36.86179    -24.9 8.694e+03 8.737e-11
 36.88164    -24.7 8.639e+03 7.718e-11
 36.90697    -23.1 8.824e+03 7.945e-11
 36.94666    -22.2 9.049e+03 1.192e-10
 36.98634    -20.7 9.124e+03 2.112e-10
 37.02603    -17.9 9.370e+03 3.418e-10
 37.06571    -15.0 9.696e+03 4.358e-10
 37.10539    -12.8 9.798e+03 4.472e-10
 37.12566    -11.3 9.989e+03 4.334e-10
 37.13770    -10.2 9.742e+03 3.657e-10
 37.15712     -9.5 9.737e+03 4.139e-10
 37.18476     -8.6 1.045e+04 5.430e-10
 37.21443    -11.2 1.193e+04 1.220e-09
 37.23417    -12.1 1.328e+04 2.265e-09
 37.24748    -12.8 1.455e+04 4.357e-09
 37.25740    -12.2 1.456e+04 4.647e-09
 37.27385    -11.7 1.564e+04 8.548e-09
 37.29370     -9.8 1.647e+04 1.208e-08
 37.31354     -8.3 1.666e+04 1.280e-08
 37.33338     -7.1 1.691e+04 8.613e-09
 37.35322     -8.0 1.832e+04 4.347e-09
 37.36949    -15.1 1.768e+04 1.897e-09
 37.37941    -12.6 2.002e+04 3.849e-09
 37.38588    -22.8 1.522e+04 2.129e-09
 37.39580    -14.5 1.847e+04 3.407e-09
 37.41275    -24.0 1.515e+04 2.511e-09
 37.43259    -31.2 1.863e+04 4.546e-09
 37.44742    -39.6 2.189e+04 1.121e-08
 37.45729    -42.2 2.259e+04 1.466e-08
 37.46722    -46.0 2.274e+04 2.145e-08
 37.47714    -47.9 2.223e+04 2.635e-08
 37.48706    -49.6 2.161e+04 2.848e-08
 37.49636    -50.4 2.055e+04 2.562e-08
 37.50132    -51.5 2.108e+04 4.010e-08
 37.50522    -52.1 2.063e+04 2.769e-08
 37.51018    -52.3 2.101e+04 3.082e-08
 37.51682    -53.2 2.055e+04 1.944e-08
 37.52674    -54.6 1.965e+04 1.277e-08
 37.53666    -56.7 1.839e+04 8.188e-09
 37.54658    -58.9 1.659e+04 5.182e-09
 37.55650    -60.4 1.519e+04 3.604e-09
 37.57143    -61.2 1.402e+04 2.538e-09
 37.59132    -61.5 1.246e+04 1.448e-09
 37.61117    -60.8 1.213e+04 1.173e-09
 37.62343    -60.1 1.187e+04 9.678e-10
 37.62710    -62.4 1.077e+04 6.464e-10
 37.63467    -63.6 1.029e+04 5.946e-10
 37.65085    -62.6 1.009e+04 5.664e-10
 37.67069    -61.7 1.005e+04 5.607e-10
 37.69053    -60.9 1.008e+04 5.653e-10
 37.71038    -60.2 1.015e+04 6.143e-10
 37.73022    -59.4 1.031e+04 7.071e-10
 37.74545    -58.7 1.053e+04 8.246e-10
 37.75537    -59.3 1.098e+04 9.670e-10
 37.76990    -58.8 1.145e+04 1.195e-09
 37.78974    -58.4 1.201e+04 1.488e-09
 37.80959    -58.5 1.267e+04 1.857e-09
 37.82943    -59.1 1.370e+04 2.407e-09
 37.84927    -61.1 1.519e+04 3.421e-09
 37.86363    -63.9 1.657e+04 5.279e-09
 37.87189    -63.8 1.643e+04 5.216e-09
 37.87738    -63.6 1.696e+04 7.206e-09
 37.88895    -65.9 1.803e+04 1.032e-08
 37.90879    -67.4 1.880e+04 1.409e-08
 37.92864    -68.5 1.922e+04 1.680e-08
 37.94848    -69.5 1.927e+04 1.722e-08
 37.96832    -69.8 1.863e+04 1.394e-08
 37.98816    -69.7 1.743e+04 8.296e-09
 37.99939    -70.8 1.591e+04 4.468e-09
 38.00931    -72.2 1.586e+04 4.142e-09
 38.02785    -73.8 1.425e+04 2.451e-09
 38.04769    -75.1 1.309e+04 1.712e-09
 38.06753    -75.5 1.245e+04 1.432e-09
 38.08737    -75.6 1.223e+04 1.347e-09
 38.10250    -75.6 1.219e+04 1.330e-09
 38.11242    -75.6 1.263e+04 1.400e-09
 38.12140    -77.0 1.321e+04 1.755e-09
 38.13132    -77.7 1.328e+04 1.822e-09
 38.14690    -79.3 1.422e+04 2.706e-09
 38.16674    -80.7 1.508e+04 4.029e-09
 38.18658    -81.8 1.589e+04 5.459e-09
 38.20642    -82.9 1.638e+04 6.180e-09
 38.22627    -84.4 1.646e+04 6.205e-09
 38.24342    -86.1 1.593e+04 4.665e-09
 38.25334    -85.2 1.685e+04 5.636e-09
 38.26595    -87.4 1.603e+04 3.145e-09
 38.28579    -90.7 1.420e+04 1.541e-09
 38.30563    -93.9 1.193e+04 7.977e-10
 38.32547    -95.9 1.034e+04 5.681e-10
 38.34138    -96.5 1.002e+04 5.030e-10
 38.35130    -97.9 1.048e+04 5.433e-10
 38.36516    -98.2 1.014e+04 5.210e-10
 38.37535    -98.3 1.011e+04 5.232e-10
 38.38527    -98.3 1.059e+04 5.775e-10
 38.40484    -98.3 1.048e+04 5.798e-10
 38.42468    -98.0 1.032e+04 6.116e-10
 38.44453    -97.4 1.024e+04 6.260e-10
 38.46437    -96.8 1.019e+04 6.292e-10
 38.48421    -96.2 1.005e+04 6.184e-10
 38.49736    -95.6 9.939e+03 5.678e-10
 38.50728    -95.2 9.860e+03 5.157e-10
 38.52389    -94.9 9.697e+03 4.404e-10
 38.54374    -94.7 9.562e+03 3.880e-10
 38.57043    -94.7 9.556e+03 3.730e-10
 38.59037    -96.6 9.289e+03 3.185e-10
 38.60965    -96.8 9.234e+03 3.060e-10
 38.62949    -96.0 9.140e+03 2.875e-10
 38.65306    -96.8 9.233e+03 3.059e-10
 38.69275    -98.4 9.719e+03 4.046e-10
 38.73243   -100.1 1.024e+04 5.718e-10
 38.76209   -100.8 1.048e+04 6.806e-10
 38.78184   -102.0 1.060e+04 7.677e-10
 38.80168   -103.0 1.062e+04 8.043e-10
 38.81913   -103.9 1.062e+04 8.101e-10
 38.82905   -104.3 1.080e+04 9.219e-10
 38.84136   -105.0 1.073e+04 8.868e-10
 38.86121   -105.8 1.071e+04 8.587e-10
 38.87332   -106.7 1.073e+04 8.548e-10
 38.88324   -105.4 1.061e+04 8.070e-10
 38.90089   -106.2 1.068e+04 8.075e-10
 38.92073   -107.1 1.095e+04 8.723e-10
 38.94057   -108.1 1.123e+04 9.969e-10
 38.96042   -108.9 1.146e+04 1.130e-09
 38.98026   -109.6 1.155e+04 1.204e-09
 38.99533   -109.8 1.156e+04 1.218e-09
 39.00525   -108.2 1.148e+04 1.207e-09
 39.01994   -108.2 1.148e+04 1.208e-09
 39.03978   -108.0 1.133e+04 1.119e-09
 39.05800   -107.8 1.114e+04 9.714e-10
 39.06792   -108.3 1.162e+04 1.258e-09
 39.07947   -107.9 1.136e+04 1.060e-09
 39.09931   -107.4 1.107e+04 8.933e-10
 39.11734   -106.9 1.078e+04 7.631e-10
 39.12726   -105.7 1.082e+04 8.137e-10
 39.13899   -105.2 1.056e+04 6.943e-10
 39.15883   -104.6 1.029e+04 6.011e-10
 39.17868   -103.8 1.004e+04 5.283e-10
 39.19852   -102.8 9.830e+03 4.690e-10
 39.21836   -101.6 9.725e+03 4.246e-10
 39.24822   -100.3 9.712e+03 3.928e-10
 39.28800    -98.7 9.587e+03 3.552e-10
 39.32769    -96.4 9.460e+03 3.291e-10
 39.36156    -94.1 9.437e+03 3.246e-10
 39.38140    -93.4 9.606e+03 3.055e-10
 39.40705    -91.8 9.719e+03 3.229e-10
 39.44674    -90.2 1.008e+04 4.452e-10
 39.48642    -88.7 1.049e+04 6.553e-10
 39.52603    -87.1 1.085e+04 8.743e-10
 39.56571    -85.6 1.106e+04 9.643e-10
 39.60547    -84.5 1.111e+04 9.992e-10
 39.64516    -83.4 1.068e+04 8.800e-10
 39.68484    -82.0 1.025e+04 6.401e-10
 39.72452    -81.3 9.931e+03 4.732e-10
 39.76421    -80.7 9.792e+03 3.837e-10
 39.80389    -80.1 9.778e+03 3.300e-10
 39.84357    -79.6 9.856e+03 2.916e-10
 39.86945    -79.0 9.958e+03 2.614e-10
 39.88929    -78.6 1.002e+04 2.631e-10
 39.92294    -77.8 1.004e+04 2.376e-10
 39.96263    -76.7 1.001e+04 2.156e-10
 40.00231    -75.3 9.944e+03 2.044e-10
 40.02362    -73.7 9.916e+03 2.025e-10
 40.04346    -74.8 1.027e+04 2.877e-10
 40.08168    -73.2 1.060e+04 3.111e-10
 40.11348    -71.7 1.092e+04 3.997e-10
 40.13332    -71.9 1.114e+04 4.021e-10
 40.16105    -70.5 1.146e+04 7.003e-10
 40.20073    -68.8 1.186e+04 1.195e-09
 40.24041    -66.8 1.234e+04 1.747e-09
 40.28010    -65.0 1.273e+04 2.044e-09
 40.31978    -63.4 1.286e+04 2.076e-09
 40.34945    -62.3 1.307e+04 2.129e-09
 40.36723    -61.6 1.311e+04 1.981e-09
 40.37715    -61.1 1.302e+04 1.992e-09
 40.38903    -60.5 1.298e+04 2.040e-09
 40.40887    -60.0 1.296e+04 2.128e-09
 40.42872    -59.2 1.300e+04 2.218e-09
 40.44856    -58.4 1.318e+04 2.324e-09
 40.46840    -57.5 1.351e+04 2.373e-09
 40.48824    -56.5 1.378e+04 2.344e-09
 40.49916    -55.4 1.439e+04 2.096e-09
 40.50217    -55.7 1.372e+04 3.400e-09
 40.51109    -55.9 1.326e+04 2.393e-09
 40.52793    -54.9 1.362e+04 2.178e-09
 40.54777    -53.9 1.407e+04 1.815e-09
 40.56761    -53.1 1.446e+04 1.443e-09
 40.58745    -52.2 1.489e+04 1.083e-09
 40.60729    -51.3 1.506e+04 7.923e-10
 40.62117    -50.9 1.448e+04 5.596e-10
 40.63109    -50.3 1.433e+04 1.387e-09
 40.64698    -49.4 1.475e+04 9.858e-10
 40.66682    -48.6 1.471e+04 7.202e-10
 40.68666    -48.1 1.401e+04 4.982e-10
 40.70650    -47.7 1.276e+04 3.591e-10
 40.72634    -47.2 1.171e+04 2.824e-10
 40.74005    -46.5 1.097e+04 2.371e-10
 40.74697    -47.0 1.128e+04 2.505e-10
 40.75311    -46.2 1.506e+04 6.332e-10
 40.76603    -46.0 1.396e+04 5.054e-10
 40.78587    -45.7 1.269e+04 4.321e-10
 40.80571    -45.0 1.165e+04 3.883e-10
 40.82555    -44.4 1.092e+04 3.659e-10
 40.84540    -43.7 1.064e+04 3.619e-10
 40.86520    -42.8 1.051e+04 3.623e-10
 40.88504    -42.3 1.191e+04 6.843e-10
 40.90492    -41.5 1.170e+04 6.381e-10
 40.92476    -40.6 1.148e+04 5.806e-10
 40.94460    -39.7 1.120e+04 5.317e-10
 40.96445    -38.5 1.107e+04 5.093e-10
 40.97902    -36.8 1.109e+04 5.140e-10
 40.98894    -38.0 1.076e+04 3.395e-10
 40.99713    -37.0 1.061e+04 2.980e-10
 41.00705    -36.3 1.081e+04 3.369e-10
 41.03399    -36.1 1.035e+04 2.404e-10
 41.07377    -33.4 9.730e+03 1.530e-10
 41.10942    -30.6 9.372e+03 1.050e-10
 41.12926    -30.1 9.378e+03 1.043e-10
 41.15314    -27.6 9.352e+03 7.542e-11
 41.19282    -25.1 9.329e+03 6.324e-11
 41.23251    -22.6 9.326e+03 6.067e-11
 41.27219    -20.3 9.469e+03 6.456e-11
 41.31188    -18.4 9.528e+03 7.861e-11
 41.35156    -16.2 9.550e+03 1.083e-10
 41.37328    -13.6 9.639e+03 1.471e-10
 41.39312    -13.3 9.689e+03 2.331e-10
 41.43093    -10.2 9.766e+03 2.841e-10
 41.45687     -7.5 9.765e+03 2.726e-10
 41.47671     -8.4 9.537e+03 1.674e-10
 41.51029     -6.0 9.408e+03 1.213e-10
 41.54998     -4.0 9.316e+03 8.440e-11
 41.58966     -2.0 9.087e+03 6.581e-11
 41.61731      0.3 8.931e+03 5.535e-11
 41.63715      0.7 8.961e+03 6.000e-11
 41.66903      3.0 8.919e+03 5.566e-11
 41.70871      5.4 8.956e+03 5.496e-11
 41.74840      7.6 9.037e+03 5.756e-11
 41.78808      9.6 9.192e+03 6.502e-11
 41.82776     11.5 9.291e+03 8.285e-11
 41.86133     13.5 9.420e+03 1.136e-10
 41.88117     14.3 9.357e+03 1.095e-10
 41.90713     16.3 9.487e+03 1.403e-10
 41.93462     18.2 9.664e+03 1.772e-10
 41.95446     17.4 9.652e+03 1.813e-10
 41.98650     19.3 9.789e+03 2.268e-10
 42.02618     21.1 9.864e+03 2.637e-10
 42.06587     22.9 9.914e+03 2.894e-10
 42.10536     24.6 1.002e+04 3.161e-10
 42.12520     25.0 9.958e+03 2.997e-10
 42.14523     26.7 1.010e+04 3.689e-10
 42.18492     28.5 1.028e+04 4.403e-10
 42.22460     30.2 1.044e+04 4.769e-10
 42.26429     32.0 1.052e+04 4.936e-10
 42.30397     34.0 1.045e+04 4.532e-10
 42.34365     36.1 1.028e+04 3.648e-10
 42.36922     38.0 1.002e+04 2.694e-10
 42.38906     38.2 1.000e+04 2.546e-10
 42.41237     39.9 9.802e+03 2.058e-10
 42.43221     39.0 9.775e+03 1.794e-10
 42.46271     41.0 9.778e+03 1.850e-10
 42.50239     43.2 9.971e+03 2.230e-10
 42.54207     45.2 1.029e+04 2.927e-10
 42.57174     46.3 1.042e+04 3.559e-10
 42.59148     47.3 1.059e+04 4.395e-10
 42.61132     48.4 1.084e+04 5.512e-10
 42.62297     49.5 1.119e+04 6.798e-10
 42.63289     49.2 1.133e+04 8.106e-10
 42.65101     50.1 1.169e+04 9.741e-10
 42.67085     49.9 1.212e+04 1.106e-09
 42.69069     50.4 1.264e+04 1.358e-09
 42.71053     51.0 1.318e+04 1.712e-09
 42.73038     51.4 1.373e+04 2.171e-09
 42.74498     51.6 1.427e+04 2.713e-09
 42.75490     51.3 1.415e+04 2.663e-09
 42.77006     50.6 1.527e+04 3.483e-09
 42.78990     49.0 1.651e+04 4.936e-09
 42.80974     47.6 1.732e+04 7.112e-09
 42.82958     46.6 1.730e+04 8.885e-09
 42.84943     46.1 1.708e+04 8.796e-09
 42.86700     46.3 1.643e+04 7.646e-09
 42.87692     46.4 1.668e+04 9.512e-09
 42.88911     47.2 1.573e+04 5.878e-09
 42.89984     47.1 1.464e+04 3.044e-09
 42.90977     47.3 1.460e+04 3.076e-09
 42.92879     46.2 1.343e+04 1.375e-09
 42.94864     43.9 1.249e+04 8.133e-10
 42.97850     43.0 1.139e+04 5.454e-10
 43.01828     43.1 1.069e+04 4.554e-10
 43.05796     44.2 1.064e+04 4.851e-10
 43.09765     45.3 1.085e+04 5.910e-10
 43.12114     46.1 1.131e+04 7.372e-10
 43.14098     44.7 1.074e+04 4.778e-10
 43.16699     44.5 1.115e+04 6.157e-10
 43.18674     44.6 1.126e+04 6.857e-10
 43.20658     44.4 1.143e+04 7.494e-10
 43.22642     43.9 1.179e+04 8.948e-10
 43.24295     43.3 1.215e+04 1.169e-09
 43.25287     43.2 1.195e+04 1.074e-09
 43.26611     43.2 1.216e+04 1.401e-09
 43.28595     43.7 1.224e+04 1.681e-09
 43.30579     44.4 1.224e+04 1.833e-09
 43.32563     45.3 1.215e+04 1.867e-09
 43.34547     46.2 1.204e+04 1.794e-09
 43.36497     47.0 1.182e+04 1.651e-09
 43.37489     47.4 1.179e+04 9.420e-10
 43.37759     48.1 1.161e+04 7.895e-10
 43.38752     47.9 1.186e+04 8.550e-10
 43.40500     48.2 1.149e+04 6.715e-10
 43.42484     48.7 1.119e+04 5.591e-10
 43.44468     49.3 1.086e+04 4.547e-10
 43.46453     49.7 1.061e+04 3.969e-10
 43.49439     50.5 1.012e+04 3.327e-10
 43.53417     52.3 1.000e+04 3.472e-10
 43.56383     53.1 9.909e+03 3.870e-10
 43.58358     53.6 9.973e+03 4.686e-10
 43.60342     54.0 1.027e+04 6.214e-10
 43.61647     54.1 1.066e+04 8.700e-10
 43.62204     53.7 1.060e+04 8.739e-10
 43.62883     52.8 1.092e+04 9.616e-10
 43.64310     53.4 1.136e+04 1.362e-09
 43.66294     54.1 1.176e+04 1.801e-09
 43.68279     55.0 1.227e+04 2.071e-09
 43.70263     55.8 1.242e+04 2.057e-09
 43.72247     56.4 1.248e+04 1.925e-09
 43.74092     56.6 1.240e+04 1.543e-09
 43.75084     54.2 1.178e+04 9.091e-10
 43.76215     53.4 1.096e+04 6.376e-10
 43.78200     52.1 1.023e+04 4.717e-10
 43.80184     51.8 9.919e+03 3.916e-10
 43.82168     51.7 9.975e+03 3.859e-10
 43.84152     51.4 9.877e+03 3.526e-10
 43.85534     51.2 9.847e+03 3.512e-10
 43.86536     51.8 9.832e+03 3.493e-10
 43.87305     51.8 9.827e+03 3.679e-10
 43.88287     49.8 9.980e+03 5.064e-10
 43.90105     50.0 9.956e+03 5.273e-10
 43.92089     50.2 9.962e+03 5.447e-10
 43.94073     50.5 9.983e+03 5.538e-10
 43.96057     50.6 1.002e+04 5.582e-10
 43.98041     50.8 1.005e+04 5.649e-10
 43.99487     50.8 1.009e+04 5.753e-10
 44.00479     49.9 1.017e+04 6.037e-10
 44.02010     50.0 1.018e+04 6.083e-10
 44.03994     50.0 1.018e+04 6.134e-10
 44.05978     50.1 1.016e+04 6.111e-10
 44.07962     50.2 1.011e+04 5.995e-10
 44.09422     50.3 1.001e+04 5.712e-10
 44.10414     50.6 9.792e+03 4.913e-10
 44.11688     50.7 9.675e+03 4.558e-10
 44.12680     50.3 9.659e+03 4.517e-10
 44.13915     50.5 9.593e+03 4.315e-10
 44.15899     50.9 9.544e+03 4.188e-10
 44.17883     51.1 9.555e+03 4.174e-10
 44.19868     51.4 9.568e+03 4.214e-10
 44.21852     51.7 9.615e+03 4.364e-10
 44.23836     52.0 9.702e+03 4.581e-10
 44.24881     52.2 9.824e+03 4.828e-10
 44.25873     52.7 9.864e+03 5.104e-10
 44.28806     52.9 9.933e+03 5.210e-10
 44.32337     53.2 1.022e+04 6.164e-10
 44.34321     53.4 1.015e+04 6.150e-10
 44.36110     53.6 1.025e+04 6.763e-10
 44.38094     55.3 1.108e+04 9.574e-10
 44.40721     55.5 1.126e+04 1.009e-09
 44.44689     55.6 1.108e+04 9.316e-10
 44.48658     56.1 1.047e+04 6.755e-10
 44.52626     56.3 9.585e+03 3.707e-10
 44.56595     56.1 8.629e+03 1.921e-10
 44.60512     55.6 8.330e+03 1.454e-10
 44.62497     56.2 9.581e+03 3.231e-10
 44.64531     55.9 9.277e+03 3.161e-10
 44.68500     56.1 9.227e+03 3.398e-10
 44.72468     56.7 9.414e+03 4.250e-10
 44.76436     57.7 9.694e+03 5.299e-10
 44.80112     58.7 9.896e+03 5.995e-10
 44.82096     58.7 1.022e+04 7.159e-10
 44.84373     59.6 1.037e+04 7.413e-10
 44.86889     59.8 1.033e+04 7.240e-10
 44.87872     59.0 1.016e+04 6.648e-10
 44.89314     59.2 1.019e+04 6.755e-10
 44.91298     59.1 1.029e+04 7.115e-10
 44.93283     59.1 1.039e+04 7.543e-10
 44.96269     58.9 1.064e+04 8.600e-10
 45.00247     58.8 1.086e+04 9.842e-10
 45.04215     58.3 1.111e+04 1.110e-09
 45.08184     57.5 1.136e+04 1.224e-09
 45.11301     56.5 1.150e+04 1.302e-09
 45.13276     54.9 1.192e+04 1.543e-09
 45.15109     54.8 1.210e+04 1.547e-09
 45.17093     54.8 1.207e+04 1.481e-09
 45.19077     54.7 1.202e+04 1.345e-09
 45.21061     54.6 1.193e+04 1.272e-09
 45.23045     54.9 1.151e+04 1.035e-09
 45.24475     54.9 1.118e+04 8.882e-10
 45.25467     54.9 1.162e+04 1.026e-09
 45.27877     55.6 1.114e+04 8.369e-10
 45.29871     55.4 1.030e+04 5.648e-10
 45.31994     57.0 9.612e+03 3.709e-10
 45.35704     59.0 9.157e+03 2.453e-10
 45.37688     58.6 9.767e+03 4.725e-10
 45.39931     61.0 9.503e+03 3.740e-10
 45.43899     63.5 9.351e+03 3.078e-10
 45.47867     66.0 9.265e+03 2.660e-10
 45.51836     68.6 9.272e+03 2.587e-10
 45.55804     71.5 9.292e+03 2.608e-10
 45.59772     74.3 9.381e+03 2.760e-10
 45.62091     77.1 9.571e+03 3.241e-10
 45.64075     77.1 1.051e+04 6.694e-10
 45.67709     80.0 1.088e+04 8.238e-10
 45.71678     82.7 1.145e+04 1.077e-09
 45.74282     84.2 1.157e+04 1.171e-09
 45.75264     83.7 1.188e+04 1.400e-09
 45.76619     84.6 1.224e+04 1.755e-09
 45.77627     85.7 1.262e+04 2.144e-09
 45.78619     86.2 1.234e+04 1.982e-09
 45.80587     87.4 1.272e+04 2.348e-09
 45.82571     88.6 1.314e+04 2.730e-09
 45.84555     89.9 1.351e+04 3.179e-09
 45.86473     91.1 1.393e+04 3.670e-09
 45.87466     90.6 1.428e+04 2.945e-09
 45.88524     91.4 1.433e+04 2.916e-09
 45.90508     92.1 1.439e+04 2.805e-09
 45.92492     92.6 1.434e+04 2.582e-09
 45.94476     92.9 1.407e+04 2.277e-09
 45.96460     93.2 1.363e+04 1.952e-09
 45.98445     93.6 1.308e+04 1.641e-09
 45.99667     94.1 1.248e+04 1.360e-09
 46.00659     93.2 1.178e+04 1.080e-09
 46.01514     94.3 1.149e+04 9.051e-10
 46.02506     94.9 1.172e+04 1.034e-09
 46.04397     95.9 1.145e+04 8.522e-10
 46.06381     97.3 1.134e+04 7.029e-10
 46.08366     98.1 1.132e+04 6.384e-10
 46.10886     99.4 1.095e+04 4.558e-10
 46.12880     98.0 1.076e+04 3.648e-10
 46.15330    100.1 1.046e+04 3.062e-10
 46.19298    102.5 1.037e+04 3.035e-10
 46.23267    105.3 1.042e+04 3.162e-10
 46.25421    107.9 1.058e+04 3.467e-10
 46.27405    109.9 1.059e+04 3.358e-10
 46.30201    110.9 1.080e+04 3.821e-10
 46.32176    111.9 1.095e+04 4.352e-10
 46.34160    112.9 1.105e+04 4.944e-10
 46.36144    114.1 1.112e+04 5.549e-10
 46.37262    115.2 1.118e+04 6.175e-10
 46.38255    114.5 1.131e+04 9.074e-10
 46.40113    115.6 1.142e+04 1.007e-09
 46.42097    116.7 1.157e+04 1.132e-09
 46.44081    117.7 1.174e+04 1.287e-09
 46.46065    118.8 1.191e+04 1.463e-09
 46.48049    119.9 1.208e+04 1.650e-09
 46.49289    121.1 1.225e+04 1.817e-09
 46.49711    121.5 1.209e+04 1.654e-09
 46.50456    121.2 1.228e+04 1.844e-09
 46.52018    122.3 1.240e+04 1.959e-09
 46.54002    123.3 1.249e+04 2.009e-09
 46.55986    124.3 1.250e+04 1.993e-09
 46.57970    125.3 1.250e+04 1.891e-09
 46.59954    126.2 1.242e+04 1.692e-09
 46.61665    126.8 1.227e+04 1.477e-09
 46.62657    125.3 1.191e+04 1.240e-09
 46.63923    125.5 1.169e+04 1.230e-09
 46.65907    125.7 1.168e+04 1.263e-09
 46.67891    125.9 1.173e+04 1.378e-09
 46.69875    126.3 1.193e+04 1.567e-09
 46.71860    126.7 1.219e+04 1.771e-09
 46.73177    126.8 1.240e+04 1.887e-09
 46.74169    127.7 1.223e+04 1.704e-09
 46.74858    127.5 1.244e+04 1.751e-09
 46.75850    126.0 1.336e+04 2.316e-09
 46.77812    125.7 1.342e+04 2.300e-09
 46.79796    125.3 1.343e+04 2.166e-09
 46.81781    124.9 1.325e+04 1.868e-09
 46.83765    124.3 1.285e+04 1.482e-09
 46.85749    123.5 1.226e+04 1.106e-09
 46.87059    122.5 1.157e+04 8.224e-10
 46.88052    120.9 1.177e+04 8.325e-10
 46.90719    120.2 1.105e+04 5.983e-10
 46.94697    119.6 9.796e+03 3.653e-10
 46.98666    119.3 9.146e+03 2.776e-10
 47.02634    119.3 8.991e+03 2.503e-10
 47.06602    119.7 8.985e+03 2.495e-10
 47.10489    120.0 9.041e+03 2.583e-10
 47.12473    119.5 9.035e+03 2.487e-10
 47.14539    119.9 9.222e+03 2.851e-10
 47.18508    119.8 9.435e+03 3.372e-10
 47.20961    119.8 9.670e+03 4.209e-10
 47.21944    120.5 9.650e+03 4.066e-10
 47.23449    120.2 1.001e+04 5.330e-10
 47.24655    119.9 1.049e+04 7.212e-10
 47.25647    120.3 1.049e+04 7.191e-10
 47.27417    120.2 1.102e+04 9.600e-10
 47.29401    120.0 1.159e+04 1.257e-09
 47.31385    119.8 1.209e+04 1.550e-09
 47.33369    119.5 1.230e+04 1.628e-09
 47.35354    119.0 1.228e+04 1.597e-09
 47.36856    118.7 1.208e+04 1.428e-09
 47.37848    119.4 1.214e+04 1.477e-09
 47.39322    119.1 1.181e+04 1.202e-09
 47.41306    118.7 1.135e+04 9.142e-10
 47.43290    118.1 1.099e+04 7.700e-10
 47.44839    117.4 1.096e+04 7.666e-10
 47.45831    117.5 1.125e+04 9.423e-10
 47.47259    116.9 1.131e+04 9.939e-10
 47.49058    116.4 1.156e+04 1.174e-09
 47.50050    117.0 1.146e+04 1.115e-09
 47.51227    116.8 1.177e+04 1.336e-09
 47.53211    116.8 1.224e+04 1.643e-09
 47.55196    116.8 1.278e+04 2.041e-09
 47.57180    116.6 1.334e+04 2.492e-09
 47.59164    116.4 1.382e+04 2.893e-09
 47.61148    115.8 1.412e+04 3.120e-09
 47.62251    115.0 1.418e+04 3.154e-09
 47.63243    115.3 1.328e+04 2.081e-09
 47.65117    114.0 1.331e+04 2.112e-09
 47.67101    112.4 1.337e+04 2.217e-09
 47.68727    110.7 1.354e+04 2.523e-09
 47.69719    111.4 1.333e+04 2.343e-09
 47.71069    109.8 1.388e+04 3.022e-09
 47.73053    108.2 1.460e+04 4.072e-09
 47.74452    106.7 1.533e+04 5.295e-09
 47.75444    107.4 1.517e+04 5.268e-09
 47.77022    106.0 1.591e+04 6.018e-09
 47.79006    103.9 1.612e+04 5.954e-09
 47.80990    101.3 1.634e+04 5.382e-09
 47.82974     98.2 1.639e+04 4.159e-09
 47.84958     94.5 1.589e+04 2.994e-09
 47.86653     91.1 1.482e+04 2.229e-09
 47.87645     92.6 1.422e+04 1.817e-09
 47.88927     90.1 1.323e+04 1.515e-09
 47.90911     88.7 1.272e+04 1.396e-09
 47.93897     88.9 1.219e+04 1.130e-09
 47.97875     88.7 1.154e+04 8.335e-10
 48.01844     89.1 1.100e+04 6.014e-10
 48.05812     89.6 1.059e+04 4.317e-10
 48.09780     90.4 1.026e+04 3.083e-10
 48.12067     91.6 1.002e+04 2.388e-10
 48.14052     93.9 1.011e+04 2.824e-10
 48.16521     95.4 9.951e+03 2.336e-10
 48.18505     96.0 9.812e+03 2.060e-10
 48.21685     98.0 9.816e+03 2.052e-10
 48.25654     99.9 9.870e+03 2.115e-10
 48.29622    101.8 1.003e+04 2.377e-10
 48.33591    103.6 1.027e+04 2.888e-10
 48.36470    105.2 1.049e+04 3.522e-10
 48.38454    107.9 1.026e+04 2.949e-10
 48.41527    109.7 1.045e+04 3.392e-10
 48.45496    111.1 1.052e+04 3.523e-10
 48.49464    112.5 1.049e+04 3.512e-10
 48.53432    114.0 1.038e+04 3.492e-10
 48.57401    115.6 1.035e+04 3.522e-10
 48.60872    117.1 1.032e+04 3.750e-10
 48.62856    120.3 1.050e+04 3.525e-10
 48.64296    121.8 1.058e+04 3.836e-10
 48.66280    123.0 1.063e+04 3.498e-10
 48.68304    123.2 1.062e+04 3.705e-10
 48.70279    123.6 1.066e+04 4.135e-10
 48.72263    124.3 1.064e+04 4.775e-10
 48.74046    125.3 1.061e+04 5.370e-10
 48.75038    126.9 1.067e+04 5.062e-10
 48.76231    127.8 1.073e+04 5.692e-10
 48.78215    128.6 1.071e+04 6.079e-10
 48.80200    129.4 1.068e+04 6.091e-10
 48.82184    130.1 1.061e+04 5.988e-10
 48.84168    131.0 1.048e+04 5.652e-10
 48.86152    131.8 1.033e+04 5.152e-10
 48.87239    132.5 1.017e+04 4.542e-10
 48.88231    133.8 1.041e+04 5.569e-10
 48.89156    134.4 1.019e+04 4.939e-10
 48.90148    134.5 1.044e+04 5.585e-10
 48.92105    135.2 1.015e+04 4.889e-10
 48.94089    135.9 9.841e+03 4.242e-10
 48.96073    136.5 9.568e+03 3.743e-10
 48.98057    137.1 9.390e+03 3.506e-10
 48.99441    137.7 9.373e+03 3.506e-10
 49.00433    138.9 9.485e+03 3.787e-10
 49.02026    139.6 9.435e+03 3.799e-10
 49.04010    140.3 9.426e+03 3.951e-10
 49.05994    141.0 9.506e+03 4.496e-10
 49.07978    141.8 9.764e+03 5.451e-10
 49.09962    142.6 1.012e+04 6.804e-10
 49.11642    143.6 1.058e+04 8.660e-10
 49.12634    144.6 1.027e+04 7.066e-10
 49.13044    145.6 1.065e+04 8.773e-10
 49.14036    145.8 1.052e+04 6.882e-10
 49.15915    146.9 1.091e+04 8.242e-10
 49.17899    147.9 1.152e+04 1.021e-09
 49.19883    148.2 1.252e+04 1.351e-09
 49.21867    148.3 1.381e+04 1.950e-09
 49.23843    148.3 1.495e+04 2.983e-09
 49.25827    149.9 1.504e+04 2.739e-09
 49.27820    150.2 1.584e+04 4.127e-09
 49.29804    150.7 1.619e+04 5.671e-09
 49.31788    151.4 1.603e+04 6.206e-09
 49.33773    152.5 1.592e+04 6.050e-09
 49.35757    153.6 1.555e+04 5.296e-09
 49.36931    154.6 1.508e+04 3.831e-09
 49.37219    154.8 1.536e+04 4.737e-09
 49.38028    155.2 1.559e+04 4.588e-09
 49.39725    156.4 1.532e+04 4.096e-09
 49.41709    157.2 1.498e+04 3.060e-09
 49.43694    157.6 1.449e+04 1.909e-09
 49.45678    157.4 1.367e+04 1.065e-09
 49.47662    156.6 1.227e+04 6.271e-10
 49.49237    156.0 1.084e+04 4.682e-10
 49.50230    158.3 1.219e+04 6.094e-10
 49.51630    157.7 1.064e+04 4.590e-10
 49.53615    158.2 1.014e+04 4.341e-10
 49.55599    158.9 1.011e+04 4.313e-10
 49.57583    159.8 1.013e+04 4.327e-10
 49.59567    160.6 1.025e+04 4.383e-10
 49.60819    161.3 1.047e+04 4.547e-10
 49.61698    161.8 1.045e+04 4.896e-10
 49.62431    162.5 1.027e+04 4.903e-10
 49.63535    163.4 1.028e+04 4.863e-10
 49.65520    164.3 1.032e+04 4.842e-10
 49.67504    165.2 1.045e+04 4.862e-10
 49.69488    166.0 1.083e+04 4.978e-10
 49.71472    166.6 1.152e+04 5.427e-10
 49.73456    167.2 1.211e+04 6.712e-10
 49.74632    167.9 1.252e+04 8.994e-10
 49.75624    169.7 1.152e+04 5.739e-10
 49.77425    170.5 1.212e+04 7.176e-10
 49.79409    171.3 1.256e+04 9.722e-10
 49.81393    172.2 1.287e+04 1.359e-09
 49.83377    173.3 1.317e+04 1.843e-09
 49.84706    174.5 1.345e+04 2.397e-09
 49.85698    174.7 1.308e+04 2.015e-09
 49.86833    176.1 1.335e+04 2.575e-09
 49.87825    177.2 1.346e+04 1.913e-09
 49.89330    178.5 1.359e+04 2.547e-09
 49.91314    180.0 1.389e+04 3.191e-09
 49.93298    181.7 1.423e+04 3.790e-09
 49.95282    183.3 1.464e+04 4.325e-09
 49.97267    184.9 1.545e+04 4.224e-09
 49.99034    186.3 1.560e+04 4.018e-09
 50.00022    187.3 1.598e+04 5.135e-09
 50.00729    188.1 1.610e+04 4.914e-09
 50.01721    188.7 1.621e+04 4.666e-09
 50.03214    190.2 1.652e+04 4.606e-09
 50.05203    191.5 1.656e+04 3.756e-09
 50.07188    192.6 1.635e+04 2.785e-09
 50.08594    193.3 1.571e+04 1.901e-09
 50.09586    193.7 1.618e+04 2.330e-09
 50.11156    194.4 1.542e+04 1.673e-09
 50.12228    195.1 1.432e+04 1.214e-09
 50.12719    196.3 1.542e+04 1.799e-09
 50.13626    196.6 1.492e+04 1.581e-09
 50.14619    197.1 1.432e+04 1.331e-09
 50.15611    197.4 1.381e+04 1.188e-09
 50.16603    198.0 1.326e+04 1.065e-09
 50.17595    198.5 1.283e+04 9.845e-10
 50.19088    200.2 1.257e+04 9.702e-10
 50.21077    202.1 1.220e+04 9.216e-10
 50.23061    204.5 1.216e+04 9.263e-10
 50.24429    207.1 1.219e+04 9.411e-10
 50.24920    207.5 1.255e+04 1.005e-09
 50.25532    208.8 1.244e+04 1.003e-09
 50.26524    210.7 1.252e+04 1.008e-09
 50.27516    212.0 1.251e+04 1.014e-09
 50.28508    213.9 1.261e+04 1.028e-09
 50.29500    215.1 1.266e+04 1.033e-09
 50.30993    219.0 1.310e+04 1.093e-09
 50.32481    223.0 1.331e+04 1.103e-09
 50.33469    223.7 1.359e+04 1.132e-09
 50.34460    225.6 1.402e+04 1.162e-09
 50.35453    227.0 1.442e+04 1.196e-09
 50.36445    228.1 1.529e+04 1.236e-09
 50.37116    228.6 1.580e+04 1.276e-09
 50.37613    232.4 1.607e+04 1.354e-09
 50.38429    233.2 1.647e+04 1.408e-09
 50.39421    233.7 1.707e+04 1.503e-09
 50.40413    233.3 1.845e+04 1.683e-09
 50.41405    230.2 2.251e+04 2.223e-09
 50.42397    223.1 3.283e+04 3.599e-09
 50.43217    214.2 4.188e+04 7.735e-09
 50.43713    216.7 4.235e+04 1.225e-08
 50.44381    206.3 3.413e+04 6.772e-08
 50.44911    197.0 2.683e+04 3.166e-07
 50.45407    186.6 2.539e+04 5.895e-07
 50.46366    173.4 2.895e+04 4.570e-07
 50.47358    158.8 3.977e+04 1.434e-07
 50.48350    140.6 6.666e+04 1.360e-08
 50.49318    115.1 1.021e+05 1.230e-09
 50.49814     92.5 8.547e+04 1.183e-09
 50.50334     70.9 4.474e+04 1.878e-09
 50.51326     66.9 4.446e+04 1.740e-09
 50.52318     76.4 6.134e+04 1.370e-09
 50.53310     77.2 6.622e+04 1.264e-09
 50.54803     72.7 8.407e+04 8.720e-10
 50.56369     74.4 7.821e+04 8.515e-10
 50.57361     58.5 1.622e+04 1.866e-09
 50.58777     57.8 1.411e+04 1.798e-09
 50.60761     57.7 1.378e+04 1.728e-09
 50.62025     57.5 1.359e+04 1.598e-09
 50.63017     55.9 1.316e+04 1.304e-09
 50.64729     56.0 1.288e+04 1.148e-09
 50.67715     55.3 1.229e+04 8.045e-10
 50.71693     53.8 1.133e+04 4.781e-10
 50.75662     53.1 1.014e+04 2.820e-10
 50.79630     52.8 9.970e+03 2.700e-10
 50.83598     52.3 1.020e+04 2.984e-10
 50.86437     52.7 1.022e+04 3.054e-10
 50.88421     51.3 1.025e+04 2.822e-10
 50.90533     51.8 1.026e+04 3.016e-10
 50.92508     52.2 1.031e+04 3.250e-10
 50.94492     52.1 1.045e+04 3.658e-10
 50.96476     51.9 1.062e+04 4.172e-10
 50.98460     51.5 1.089e+04 4.903e-10
 50.99620     50.2 1.157e+04 6.506e-10
 51.00613     50.4 1.130e+04 5.926e-10
 51.02429     48.2 1.255e+04 9.800e-10
 51.04144     46.1 1.359e+04 1.725e-09
 51.05136     48.1 1.312e+04 1.266e-09
 51.06397     47.0 1.406e+04 2.234e-09
 51.08381     47.4 1.448e+04 3.093e-09
 51.10365     47.6 1.441e+04 3.082e-09
 51.11822     48.0 1.395e+04 2.670e-09
 51.12814     48.8 1.392e+04 2.616e-09
 51.14334     48.4 1.344e+04 1.836e-09
 51.16318     47.3 1.282e+04 1.228e-09
 51.19304     45.2 1.198e+04 7.114e-10
 51.23282     42.1 1.069e+04 4.896e-10
 51.27251     42.0 1.052e+04 4.623e-10
 51.31219     42.5 1.034e+04 4.227e-10
 51.35187     43.5 1.004e+04 3.312e-10
 51.37236     44.4 9.652e+03 2.285e-10
 51.39220     45.3 9.636e+03 2.208e-10
 51.43124     46.0 9.358e+03 1.614e-10
 51.47093     47.0 9.341e+03 1.609e-10
 51.50946     47.9 9.413e+03 1.815e-10
 51.52931     48.3 9.084e+03 1.019e-10
 51.55029     49.2 9.271e+03 1.558e-10
 51.58998     50.5 9.509e+03 2.527e-10
 51.61638     52.2 9.620e+03 3.308e-10
 51.63622     52.9 9.709e+03 3.198e-10
 51.66934     54.4 9.683e+03 3.577e-10
 51.70903     55.8 9.618e+03 3.416e-10
 51.74871     57.3 9.423e+03 2.804e-10
 51.78840     58.6 9.202e+03 2.008e-10
 51.82808     59.7 8.979e+03 1.413e-10
 51.86041     60.8 8.701e+03 1.172e-10
 51.88025     61.0 9.122e+03 1.694e-10
 51.90745     62.4 8.943e+03 1.614e-10
 51.94713     64.2 8.926e+03 1.621e-10
 51.98681     66.4 8.920e+03 1.678e-10
 52.00706     68.7 9.010e+03 1.810e-10
 52.02690     69.2 8.802e+03 1.728e-10
 52.06618     71.6 8.849e+03 1.843e-10
 52.10443     74.1 9.058e+03 2.103e-10
 52.12427     73.2 9.633e+03 2.987e-10
 52.13553     74.8 9.629e+03 3.012e-10
 52.15528     76.0 9.713e+03 3.137e-10
 52.17512     77.0 9.791e+03 3.412e-10
 52.19496     78.2 9.940e+03 3.939e-10
 52.21480     78.8 1.034e+04 5.097e-10
 52.23464     78.4 1.137e+04 7.638e-10
 52.24574     77.1 1.307e+04 1.334e-09
 52.24726     77.8 1.221e+04 1.058e-09
 52.25601     76.4 1.293e+04 1.324e-09
 52.27433     75.2 1.410e+04 2.124e-09
 52.29417     74.8 1.480e+04 3.073e-09
 52.31401     74.5 1.502e+04 3.493e-09
 52.33385     73.8 1.499e+04 3.433e-09
 52.35369     72.9 1.481e+04 3.084e-09
 52.36810     71.3 1.454e+04 2.460e-09
 52.37802     70.0 1.413e+04 2.042e-09
 52.39338     67.0 1.380e+04 1.562e-09
 52.41322     63.4 1.329e+04 1.243e-09
 52.43306     59.9 1.271e+04 1.067e-09
 52.45290     57.0 1.240e+04 1.052e-09
 52.47275     53.6 1.283e+04 1.176e-09
 52.48461     45.9 1.568e+04 2.049e-09
 52.49206     52.8 1.319e+04 1.261e-09
 52.50003     51.5 1.354e+04 1.284e-09
 52.51243     41.2 1.838e+04 3.000e-09
 52.53227     31.0 2.093e+04 7.543e-09
 52.55211     21.7 2.188e+04 1.258e-08
 52.57196     12.6 2.169e+04 1.451e-08
 52.59180      6.2 1.996e+04 1.011e-08
 52.61164     -0.7 1.691e+04 5.369e-09
 52.62205     -6.6 1.458e+04 2.942e-09
 52.63197     -6.5 1.413e+04 2.574e-09
 52.65132     -9.9 1.358e+04 1.808e-09
 52.67116    -13.6 1.247e+04 1.186e-09
 52.69101    -17.0 1.127e+04 7.621e-10
 52.71085    -18.0 1.104e+04 6.631e-10
 52.72349    -20.0 1.038e+04 5.213e-10
 52.73341    -21.0 1.057e+04 5.555e-10
 52.74406    -21.4 1.062e+04 5.337e-10
 52.75398    -21.9 1.064e+04 5.346e-10
 52.77037    -23.1 1.065e+04 5.170e-10
 52.79022    -24.1 1.108e+04 5.729e-10
 52.81006    -25.9 1.124e+04 6.410e-10
 52.82990    -26.7 1.181e+04 8.628e-10
 52.84974    -27.7 1.227e+04 1.143e-09
 52.86607    -28.2 1.293e+04 1.552e-09
 52.87599    -29.9 1.356e+04 1.786e-09
 52.88943    -30.1 1.417e+04 2.263e-09
 52.90927    -29.9 1.438e+04 2.498e-09
 52.92911    -29.6 1.404e+04 2.547e-09
 52.94895    -29.4 1.371e+04 2.215e-09
 52.96236    -29.3 1.341e+04 1.956e-09
 52.97228    -32.4 1.350e+04 1.784e-09
 52.98808    -32.1 1.344e+04 1.635e-09
 52.99800    -33.1 1.383e+04 1.739e-09
 53.00848    -32.7 1.338e+04 1.574e-09
 53.02832    -31.6 1.292e+04 1.461e-09
 53.04816    -30.4 1.260e+04 1.413e-09
 53.06800    -29.2 1.252e+04 1.408e-09
 53.08784    -27.4 1.260e+04 1.476e-09
 53.10769    -25.7 1.262e+04 1.496e-09
 53.12002    -23.7 1.288e+04 1.601e-09
 53.12994    -24.7 1.287e+04 1.545e-09
 53.14737    -23.4 1.328e+04 1.656e-09
 53.16721    -23.0 1.458e+04 2.002e-09
 53.18705    -23.3 1.693e+04 3.050e-09
 53.20124    -24.4 1.906e+04 5.055e-09
 53.21116    -26.6 1.907e+04 9.873e-09
 53.22674    -25.9 1.955e+04 1.563e-08
 53.24157    -26.0 1.993e+04 2.228e-08
 53.24689    -25.8 2.007e+04 2.852e-08
 53.25185    -25.9 2.022e+04 3.605e-08
 53.26136    -26.0 2.067e+04 4.715e-08
 53.27128    -25.7 2.109e+04 6.121e-08
 53.28121    -25.4 2.071e+04 7.230e-08
 53.29113    -24.7 2.010e+04 7.729e-08
 53.30105    -23.0 1.985e+04 7.998e-08
 53.30790    -20.8 1.947e+04 7.767e-08
 53.31286    -20.5 1.916e+04 8.340e-08
 53.32058    -18.0 1.945e+04 5.639e-08
 53.32554    -17.2 2.112e+04 3.823e-08
 53.33081    -16.4 2.392e+04 2.109e-08
 53.34073    -17.0 2.632e+04 1.079e-08
 53.35065    -21.6 2.359e+04 6.046e-09
 53.36057    -28.6 1.626e+04 2.938e-09
 53.36890    -29.6 1.467e+04 2.359e-09
 53.37386    -29.7 1.454e+04 2.734e-09
 53.38542    -28.7 1.402e+04 2.444e-09
 53.40531    -27.0 1.335e+04 1.974e-09
 53.42516    -25.2 1.335e+04 1.838e-09
 53.44011    -23.6 1.340e+04 1.671e-09
 53.45003    -23.8 1.370e+04 2.603e-09
 53.46484    -22.2 1.385e+04 2.508e-09
 53.48468    -20.6 1.369e+04 2.317e-09
 53.49597    -18.9 1.364e+04 2.148e-09
 53.50589    -18.5 1.352e+04 2.126e-09
 53.52437    -17.1 1.356e+04 1.980e-09
 53.54421    -16.0 1.348e+04 1.835e-09
 53.56405    -14.7 1.328e+04 1.708e-09
 53.58389    -13.2 1.309e+04 1.601e-09
 53.60373    -11.6 1.305e+04 1.570e-09
 53.61799    -10.5 1.305e+04 1.524e-09
 53.62791    -10.3 1.307e+04 1.487e-09
 53.64342     -9.2 1.310e+04 1.414e-09
 53.66326     -7.9 1.344e+04 1.538e-09
 53.67899     -7.3 1.433e+04 1.908e-09
 53.68891     -9.6 1.491e+04 2.811e-09
 53.70294     -9.6 1.563e+04 3.652e-09
 53.72278     -9.1 1.619e+04 4.550e-09
 53.74000     -7.9 1.601e+04 5.585e-09
 53.74992     -8.5 1.591e+04 5.838e-09
 53.76247     -6.8 1.574e+04 7.055e-09
 53.78231     -5.5 1.620e+04 7.850e-09
 53.80215     -4.8 1.675e+04 7.709e-09
 53.82199     -4.5 1.710e+04 6.386e-09
 53.84184     -4.9 1.697e+04 4.501e-09
 53.85667     -6.2 1.611e+04 1.940e-09
 53.86654     -8.1 1.448e+04 1.532e-09
 53.87188     -8.7 1.411e+04 1.384e-09
 53.88185    -12.0 1.319e+04 1.315e-09
 53.90136    -15.3 1.219e+04 1.084e-09
 53.91786    -17.3 1.177e+04 1.023e-09
 53.92778    -17.3 1.072e+04 6.235e-10
 53.94105    -17.7 1.048e+04 6.807e-10
 53.96089    -17.3 1.038e+04 7.656e-10
 53.98073    -16.2 1.044e+04 8.183e-10
 53.99394    -14.9 1.050e+04 8.597e-10
 54.00386    -15.3 1.051e+04 8.698e-10
 54.02041    -14.1 1.053e+04 8.303e-10
 54.04026    -13.1 1.037e+04 7.607e-10
 54.06010    -11.8 1.008e+04 6.533e-10
 54.07994    -10.4 9.819e+03 5.167e-10
 54.09978     -9.6 9.626e+03 4.814e-10
 54.11605     -7.8 9.603e+03 4.050e-10
 54.13599     -8.3 9.460e+03 3.306e-10
 54.16942     -6.7 9.345e+03 2.836e-10
 54.20911     -5.3 9.313e+03 2.889e-10
 54.24879     -3.3 9.300e+03 3.100e-10
 54.28847     -1.0 9.222e+03 2.875e-10
 54.32816      1.3 9.068e+03 2.241e-10
 54.36017      2.9 8.917e+03 1.576e-10
 54.38002      3.1 9.113e+03 2.036e-10
 54.39581      4.5 8.872e+03 1.352e-10
 54.41565      5.2 9.117e+03 1.989e-10
 54.44721      6.8 8.828e+03 1.294e-10
 54.48689      7.9 8.575e+03 8.849e-11
 54.52658      9.1 8.471e+03 7.730e-11
 54.56626      9.6 8.635e+03 9.059e-11
 54.60420      9.8 9.151e+03 1.656e-10
 54.62404     10.4 8.836e+03 1.170e-10
 54.64563     11.1 9.475e+03 2.379e-10
 54.67529     10.7 9.978e+03 3.554e-10
 54.69504     11.2 1.012e+04 4.168e-10
 54.71488     10.4 1.079e+04 6.212e-10
 54.73472     10.7 1.096e+04 7.198e-10
 54.76458      9.6 1.139e+04 8.902e-10
 54.80436      8.7 1.126e+04 8.756e-10
 54.84405      7.8 1.093e+04 6.903e-10
 54.86806      6.0 1.115e+04 6.288e-10
 54.87763      4.5 1.192e+04 8.934e-10
 54.89330      3.6 1.184e+04 9.198e-10
 54.92341      2.3 1.200e+04 1.002e-09
 54.96310      2.6 1.230e+04 1.249e-09
 55.00278      4.1 1.248e+04 1.386e-09
 55.04247      5.9 1.265e+04 1.446e-09
 55.08215      7.4 1.278e+04 1.508e-09
 55.11182      7.5 1.296e+04 1.635e-09
 55.12181      8.1 1.315e+04 1.855e-09
 55.12233      6.8 1.367e+04 2.478e-09
 55.13208      7.2 1.375e+04 2.600e-09
 55.15140      8.2 1.406e+04 3.108e-09
 55.17124      9.6 1.437e+04 3.675e-09
 55.19109     11.1 1.474e+04 4.292e-09
 55.21093     12.7 1.504e+04 4.788e-09
 55.23077     14.4 1.531e+04 4.968e-09
 55.24383     15.9 1.541e+04 4.900e-09
 55.25375     15.4 1.572e+04 4.849e-09
 55.27045     16.7 1.583e+04 4.519e-09
 55.29029     17.9 1.592e+04 4.221e-09
 55.31014     18.7 1.588e+04 3.966e-09
 55.32998     19.3 1.571e+04 3.682e-09
 55.34982     20.1 1.543e+04 3.485e-09
 55.36103     21.1 1.536e+04 3.523e-09
 55.36713     19.9 1.494e+04 3.372e-09
 55.37576     19.0 1.467e+04 3.349e-09
 55.38950     19.8 1.479e+04 3.608e-09
 55.40935     21.0 1.478e+04 3.823e-09
 55.42919     22.3 1.485e+04 4.076e-09
 55.44903     23.7 1.486e+04 4.341e-09
 55.46887     25.1 1.472e+04 4.393e-09
 55.48785     26.6 1.447e+04 4.139e-09
 55.49777     26.7 1.400e+04 3.118e-09
 55.50856     28.3 1.364e+04 2.617e-09
 55.52840     29.9 1.330e+04 2.144e-09
 55.54824     31.0 1.294e+04 1.729e-09
 55.56808     32.0 1.250e+04 1.374e-09
 55.58792     33.1 1.203e+04 1.104e-09
 55.59991     34.1 1.163e+04 9.114e-10
 55.60983     33.6 1.113e+04 7.947e-10
 55.61978     34.7 1.083e+04 6.784e-10
 55.62971     34.4 1.054e+04 5.317e-10
 55.64745     35.7 1.032e+04 4.658e-10
 55.66729     37.2 1.013e+04 4.096e-10
 55.68713     38.4 1.005e+04 3.798e-10
 55.70697     39.8 9.988e+03 3.570e-10
 55.72682     41.0 9.947e+03 3.401e-10
 55.74180     42.2 9.951e+03 3.398e-10
 55.75172     41.7 9.939e+03 3.267e-10
 55.76650     42.7 1.002e+04 3.476e-10
 55.78634     43.6 1.026e+04 3.862e-10
 55.80618     44.5 1.054e+04 4.551e-10
 55.82603     45.5 1.078e+04 5.411e-10
 55.83878     46.7 1.099e+04 6.360e-10
 55.84870     46.8 1.085e+04 5.732e-10
 55.86381     48.1 1.111e+04 6.774e-10
 55.87373     47.3 1.114e+04 7.223e-10
 55.88555     48.5 1.137e+04 8.144e-10
 55.90539     49.4 1.164e+04 9.114e-10
 55.92524     50.3 1.205e+04 1.024e-09
 55.94508     50.8 1.266e+04 1.211e-09
 55.96492     50.9 1.334e+04 1.491e-09
 55.98476     50.9 1.397e+04 1.856e-09
 55.99574     51.1 1.453e+04 2.291e-09
 56.00566     48.6 1.337e+04 1.235e-09
 56.02444     48.1 1.381e+04 1.463e-09
 56.04429     46.8 1.483e+04 1.870e-09
 56.06413     44.2 1.685e+04 2.798e-09
 56.07766     42.6 1.801e+04 4.070e-09
 56.08758     42.8 1.795e+04 4.498e-09
 56.09880     41.0 1.911e+04 5.441e-09
 56.10868     38.0 2.074e+04 7.470e-09
 56.11766     33.2 2.376e+04 1.272e-08
 56.12262     30.8 2.258e+04 1.121e-08
 56.12852     26.3 2.364e+04 2.005e-08
 56.13844     22.8 2.303e+04 3.286e-08
 56.14836     20.5 2.217e+04 5.073e-08
 56.15828     18.7 2.219e+04 7.585e-08
 56.16820     16.4 2.328e+04 9.233e-08
 56.17812     13.3 2.378e+04 8.745e-08
 56.18362     10.0 2.455e+04 6.347e-08
 56.18858      9.7 2.390e+04 5.058e-08
 56.19700      5.5 2.397e+04 3.052e-08
 56.20196      6.1 2.404e+04 3.773e-08
 56.20788      1.2 2.308e+04 2.302e-08
 56.21781     -4.4 2.108e+04 1.461e-08
 56.22773     -8.1 1.916e+04 1.126e-08
 56.23972    -11.1 1.910e+04 1.119e-08
 56.24969    -11.2 1.824e+04 7.691e-09
 56.26255    -15.3 1.831e+04 8.084e-09
 56.28239    -17.8 1.823e+04 8.919e-09
 56.30223    -18.7 1.740e+04 9.051e-09
 56.31653    -18.2 1.651e+04 7.933e-09
 56.32645    -17.3 1.666e+04 9.264e-09
 56.34192    -16.6 1.605e+04 6.874e-09
 56.36176    -16.8 1.561e+04 4.658e-09
 56.38160    -18.1 1.433e+04 2.857e-09
 56.40144    -19.7 1.287e+04 1.748e-09
 56.42128    -20.3 1.160e+04 1.113e-09
 56.44112    -19.6 1.069e+04 7.899e-10
 56.46097    -18.8 1.040e+04 5.695e-10
 56.48081    -18.7 1.028e+04 4.086e-10
 56.49371    -19.2 1.015e+04 3.060e-10
 56.50363    -19.7 1.040e+04 3.096e-10
 56.52049    -20.7 1.015e+04 2.691e-10
 56.54033    -21.4 1.020e+04 2.767e-10
 56.55541    -22.2 1.065e+04 3.346e-10
 56.56533    -22.2 1.104e+04 4.330e-10
 56.58002    -22.5 1.122e+04 6.101e-10
 56.59986    -22.1 1.131e+04 8.084e-10
 56.61572    -21.4 1.150e+04 1.026e-09
 56.62564    -21.5 1.193e+04 1.325e-09
 56.63954    -21.5 1.243e+04 1.568e-09
 56.65939    -24.2 1.448e+04 2.429e-09
 56.67923    -28.2 1.635e+04 4.295e-09
 56.69907    -29.6 1.651e+04 6.929e-09
 56.71891    -28.3 1.640e+04 9.493e-09
 56.73774    -26.8 1.623e+04 9.913e-09
 56.74766    -26.5 1.632e+04 1.024e-08
 56.75859    -24.0 1.596e+04 7.992e-09
 56.77844    -22.6 1.567e+04 4.995e-09
 56.79428    -24.2 1.486e+04 2.705e-09
 56.80420    -23.9 1.470e+04 2.837e-09
 56.81812    -26.6 1.276e+04 1.359e-09
 56.83796    -29.1 1.102e+04 7.574e-10
 56.85985    -30.5 1.012e+04 4.356e-10
 56.87979    -28.2 1.074e+04 6.953e-10
 56.90760    -28.0 9.966e+03 4.157e-10
 56.94729    -28.1 9.585e+03 3.254e-10
 56.98697    -27.7 9.414e+03 3.092e-10
 57.02666    -27.0 9.343e+03 3.183e-10
 57.06634    -25.9 8.966e+03 2.660e-10
 57.10397    -25.3 7.843e+03 1.667e-10
 57.12381    -22.4 8.699e+03 3.393e-10
 57.14571    -23.9 8.341e+03 1.542e-10
 57.18539    -25.1 8.115e+03 1.462e-10
 57.22507    -27.5 8.652e+03 1.916e-10
 57.24572    -31.3 7.883e+03 2.347e-10
 57.25555    -34.4 1.032e+04 5.475e-10
 57.27203    -36.9 1.162e+04 9.401e-10
 57.28195    -37.2 1.232e+04 1.135e-09
 57.29433    -39.1 1.439e+04 2.585e-09
 57.31417    -48.6 1.981e+04 7.217e-09
 57.32900    -56.6 2.310e+04 1.566e-08
 57.33887    -61.5 2.428e+04 2.264e-08
 57.34879    -66.2 2.510e+04 3.063e-08
 57.35871    -72.0 2.525e+04 3.387e-08
 57.36754    -78.7 2.489e+04 3.272e-08
 57.37250    -78.6 2.353e+04 2.539e-08
 57.37856    -85.2 2.324e+04 1.864e-08
 57.38848    -91.9 2.346e+04 1.252e-08
 57.39633    -98.3 2.305e+04 7.777e-09
 57.40129   -101.2 2.286e+04 7.862e-09
 57.40832   -107.9 1.872e+04 4.743e-09
 57.41824   -111.3 1.611e+04 3.688e-09
 57.43317   -112.3 1.514e+04 3.109e-09
 57.45306   -114.6 1.333e+04 2.630e-09
 57.47290   -114.9 1.292e+04 2.417e-09
 57.48965   -114.9 1.271e+04 2.253e-09
 57.49957   -114.8 1.255e+04 1.955e-09
 57.51091   -114.9 1.240e+04 1.898e-09
 57.52083   -115.2 1.244e+04 1.982e-09
 57.53243   -115.2 1.220e+04 1.768e-09
 57.55227   -115.1 1.199e+04 1.584e-09
 57.57211   -114.9 1.173e+04 1.376e-09
 57.59195   -114.7 1.145e+04 1.157e-09
 57.61166   -114.6 1.114e+04 9.527e-10
 57.62158   -114.8 1.117e+04 9.585e-10
 57.63164   -114.7 1.087e+04 7.861e-10
 57.65148   -114.6 1.060e+04 6.550e-10
 57.67132   -114.4 1.037e+04 5.650e-10
 57.69116   -113.9 1.023e+04 5.091e-10
 57.71101   -113.4 1.015e+04 4.744e-10
 57.73996   -112.5 1.007e+04 4.275e-10
 57.75980   -112.5 1.012e+04 4.449e-10
 57.77053   -111.8 1.013e+04 4.443e-10
 57.79037   -111.2 1.019e+04 4.511e-10
 57.81022   -110.6 1.024e+04 4.672e-10
 57.83006   -110.1 1.030e+04 4.956e-10
 57.84990   -109.7 1.036e+04 5.377e-10
 57.86561   -109.1 1.046e+04 5.981e-10
 57.87553   -109.2 1.039e+04 5.454e-10
 57.88958   -108.7 1.050e+04 6.158e-10
 57.90942   -108.0 1.063e+04 6.990e-10
 57.92927   -107.3 1.080e+04 7.896e-10
 57.94911   -106.6 1.097e+04 8.776e-10
 57.96895   -105.9 1.110e+04 9.414e-10
 57.98762   -105.3 1.113e+04 9.671e-10
 57.99741   -105.2 1.105e+04 9.191e-10
 57.99858   -105.6 1.143e+04 1.096e-09
 58.00863   -104.7 1.139e+04 1.087e-09
 58.02848   -103.8 1.121e+04 1.009e-09
 58.04832   -102.8 1.094e+04 8.846e-10
 58.06816   -101.9 1.062e+04 7.473e-10
 58.09802   -101.2 1.042e+04 6.202e-10
 58.11975    -99.9 1.027e+04 5.235e-10
 58.13959   -102.2 1.174e+04 9.408e-10
 58.17749   -101.9 1.247e+04 1.222e-09
 58.21717   -101.1 1.276e+04 1.552e-09
 58.23765   -100.1 1.280e+04 1.793e-09
 58.24230   -101.1 1.269e+04 1.749e-09
 58.25149   -102.0 1.283e+04 1.973e-09
 58.26658   -101.3 1.281e+04 1.966e-09
 58.28642   -100.7 1.280e+04 1.939e-09
 58.30626    -99.9 1.285e+04 1.887e-09
 58.32610    -99.2 1.283e+04 1.796e-09
 58.34595    -98.3 1.271e+04 1.659e-09
 58.36358    -97.7 1.253e+04 1.458e-09
 58.37350    -99.8 1.188e+04 1.070e-09
 58.38563    -99.6 1.172e+04 9.913e-10
 58.40547    -99.5 1.158e+04 9.456e-10
 58.42531    -99.3 1.150e+04 9.358e-10
 58.44516    -99.0 1.144e+04 9.482e-10
 58.46500    -98.4 1.140e+04 9.731e-10
 58.47633    -97.8 1.138e+04 9.745e-10
 58.48625    -98.7 1.127e+04 8.752e-10
 58.49551    -98.0 1.122e+04 8.160e-10
 58.50543    -99.0 1.121e+04 7.590e-10
 58.52452    -98.7 1.125e+04 7.131e-10
 58.54437    -98.8 1.130e+04 6.976e-10
 58.56421    -99.3 1.150e+04 7.041e-10
 58.58405   -100.4 1.182e+04 8.509e-10
 58.60389   -101.5 1.208e+04 1.113e-09
 58.61752   -102.1 1.240e+04 1.483e-09
 58.62744   -103.3 1.214e+04 1.394e-09
 58.64357   -103.7 1.243e+04 1.646e-09
 58.66342   -104.4 1.274e+04 1.774e-09
 58.68326   -106.1 1.314e+04 1.830e-09
 58.70310   -109.6 1.376e+04 1.863e-09
 58.71520   -115.0 1.470e+04 1.910e-09
 58.72513   -117.6 1.547e+04 2.181e-09
 58.73953   -122.6 1.642e+04 2.861e-09
 58.74946   -121.4 1.495e+04 2.230e-09
 58.76263   -124.5 1.527e+04 2.994e-09
 58.78247   -126.0 1.531e+04 3.760e-09
 58.80231   -126.6 1.529e+04 4.421e-09
 58.82215   -126.6 1.522e+04 4.854e-09
 58.84199   -126.4 1.523e+04 5.092e-09
 58.86155   -126.3 1.526e+04 5.111e-09
 58.87147   -125.8 1.462e+04 4.092e-09
 58.88168   -125.5 1.451e+04 3.969e-09
 58.90152   -125.3 1.435e+04 3.602e-09
 58.92136   -125.5 1.428e+04 3.230e-09
 58.94120   -125.9 1.433e+04 3.056e-09
 58.95408   -126.6 1.456e+04 3.041e-09
 58.96400   -126.3 1.445e+04 2.939e-09
 58.98089   -127.1 1.495e+04 3.341e-09
 58.99348   -127.6 1.537e+04 4.020e-09
 59.00340   -126.4 1.443e+04 2.997e-09
 59.02057   -126.9 1.499e+04 3.783e-09
 59.04041   -127.0 1.536e+04 4.665e-09
 59.05444   -127.2 1.584e+04 5.822e-09
 59.05935   -126.7 1.531e+04 4.886e-09
 59.06512   -126.7 1.549e+04 5.232e-09
 59.07342   -126.6 1.570e+04 5.879e-09
 59.07838   -126.4 1.567e+04 5.864e-09
 59.08496   -126.4 1.585e+04 6.257e-09
 59.09488   -126.4 1.610e+04 7.000e-09
 59.10480   -126.5 1.621e+04 7.250e-09
 59.11472   -126.8 1.625e+04 7.337e-09
 59.12036   -127.3 1.610e+04 7.088e-09
 59.12532   -126.9 1.578e+04 6.258e-09
 59.13957   -127.5 1.563e+04 6.033e-09
 59.15946   -128.0 1.554e+04 5.953e-09
 59.17931   -128.7 1.518e+04 5.184e-09
 59.19296   -129.3 1.459e+04 4.182e-09
 59.20288   -128.8 1.460e+04 4.241e-09
 59.21899   -129.1 1.379e+04 3.064e-09
 59.23750   -129.1 1.283e+04 1.998e-09
 59.24743   -128.6 1.298e+04 2.230e-09
 59.25867   -128.6 1.206e+04 1.412e-09
 59.27852   -128.7 1.120e+04 8.626e-10
 59.29836   -128.8 1.052e+04 5.453e-10
 59.31820   -129.0 1.006e+04 3.812e-10
 59.33804   -129.0 9.825e+03 3.166e-10
 59.35961   -128.9 9.668e+03 2.875e-10
 59.37955   -129.1 9.975e+03 3.389e-10
 59.40768   -129.2 9.889e+03 3.289e-10
 59.44737   -129.3 9.829e+03 3.380e-10
 59.48705   -129.4 9.798e+03 3.439e-10
 59.52673   -129.8 9.756e+03 3.264e-10
 59.56642   -130.1 9.741e+03 2.961e-10
 59.60374   -130.3 9.777e+03 2.673e-10
 59.62358   -131.2 9.587e+03 2.248e-10
 59.64579   -131.1 9.496e+03 1.985e-10
 59.67090   -130.9 9.397e+03 1.748e-10
 59.69074   -129.9 9.217e+03 1.423e-10
 59.72515   -129.4 9.218e+03 1.359e-10
 59.76484   -128.8 9.263e+03 1.317e-10
 59.80452   -128.1 9.290e+03 1.257e-10
 59.84420   -127.3 9.300e+03 1.165e-10
 59.86760   -126.5 9.271e+03 1.067e-10
 59.88744   -126.4 9.225e+03 9.820e-11
 59.92357   -125.4 9.150e+03 8.819e-11
 59.96326   -124.3 9.090e+03 8.194e-11
 60.00294   -123.0 9.077e+03 7.989e-11
 60.04262   -121.7 9.084e+03 8.022e-11
 60.08231   -120.4 9.145e+03 8.951e-11
 60.11163   -119.1 9.224e+03 1.049e-10
 60.13147   -118.7 9.178e+03 8.697e-11
 60.14865   -117.4 9.230e+03 9.912e-11
 60.16849   -116.3 9.412e+03 1.458e-10
 60.20136   -114.8 9.511e+03 1.673e-10
 60.24104   -113.4 9.567e+03 1.767e-10
 60.28073   -112.1 9.576e+03 1.781e-10
 60.32041   -110.7 9.563e+03 1.705e-10
 60.35565   -109.1 9.558e+03 1.577e-10
 60.37549   -108.6 9.456e+03 1.410e-10
 60.39978   -107.0 9.477e+03 1.396e-10
 60.43946   -105.4 9.580e+03 1.501e-10
 60.47915   -103.8 9.760e+03 1.831e-10
 60.51883   -102.3 9.971e+03 2.424e-10
 60.55851   -100.7 1.015e+04 3.069e-10
 60.59820    -99.2 1.025e+04 3.513e-10
 60.61952    -97.9 1.025e+04 3.610e-10
 60.62788    -97.0 1.031e+04 3.714e-10
 60.64624    -96.4 1.031e+04 3.742e-10
 60.67756    -95.0 1.017e+04 3.626e-10
 60.71725    -93.1 9.790e+03 2.737e-10
 60.75693    -91.0 9.379e+03 1.761e-10
 60.79662    -88.9 9.071e+03 1.073e-10
 60.83630    -86.8 8.883e+03 6.677e-11
 60.86354    -84.8 8.757e+03 4.599e-11
 60.88338    -83.9 8.826e+03 5.862e-11
 60.91567    -81.7 8.709e+03 4.338e-11
 60.95535    -79.5 8.616e+03 3.531e-11
 60.99503    -77.3 8.565e+03 3.095e-11
 61.03472    -75.1 8.548e+03 2.909e-11
 61.07440    -72.9 8.545e+03 2.864e-11
 61.10415    -70.8 8.566e+03 2.990e-11
 61.11747    -69.9 8.530e+03 2.341e-11
 61.12741    -69.5 8.597e+03 2.959e-11
 61.15377    -67.5 8.601e+03 3.273e-11
 61.19345    -65.6 8.578e+03 3.825e-11
 61.23314    -63.4 8.556e+03 4.441e-11
 61.27282    -61.2 8.551e+03 4.866e-11
 61.31250    -58.9 8.560e+03 4.973e-11
 61.35159    -56.7 8.550e+03 4.752e-11
 61.37143    -56.4 8.608e+03 5.305e-11
 61.39187    -54.4 8.600e+03 4.933e-11
 61.43156    -52.4 8.599e+03 4.835e-11
 61.47124    -50.4 8.601e+03 5.021e-11
 61.51092    -48.5 8.602e+03 5.790e-11
 61.55061    -46.3 8.607e+03 6.776e-11
 61.58190    -44.1 8.661e+03 7.613e-11
 61.60174    -43.3 8.619e+03 7.244e-11
 61.61546    -41.2 8.667e+03 7.488e-11
 61.63530    -41.0 8.674e+03 6.868e-11
 61.66966    -39.0 8.701e+03 6.860e-11
 61.70934    -37.1 8.729e+03 7.056e-11
 61.74903    -35.1 8.747e+03 7.612e-11
 61.78871    -33.1 8.794e+03 8.347e-11
 61.82839    -31.1 8.879e+03 9.309e-11
 61.85948    -29.1 8.937e+03 1.054e-10
 61.87932    -29.0 8.971e+03 1.105e-10
 61.90776    -27.1 9.040e+03 1.313e-10
 61.94745    -25.3 9.082e+03 1.533e-10
 61.98713    -23.2 9.083e+03 1.755e-10
 62.02681    -20.8 9.061e+03 1.709e-10
 62.05965    -18.5 9.046e+03 1.417e-10
 62.07949    -18.1 9.084e+03 1.675e-10
 62.10350    -15.8 9.053e+03 1.362e-10
 62.12335    -15.5 9.061e+03 1.360e-10
 62.14586    -13.4 9.018e+03 1.001e-10
 62.18555    -11.5 8.922e+03 7.354e-11
 62.22523     -9.3 8.792e+03 5.770e-11
 62.26492     -7.1 8.719e+03 4.749e-11
 62.30460     -4.9 8.727e+03 4.406e-11
 62.34428     -2.6 8.728e+03 4.521e-11
 62.36737     -0.2 8.764e+03 4.887e-11
 62.38721     -0.1 8.800e+03 6.228e-11
 62.42365      2.4 8.872e+03 7.318e-11
 62.46333      4.9 8.960e+03 8.707e-11
 62.50302      7.3 9.067e+03 1.050e-10
 62.53740      9.7 9.189e+03 1.283e-10
 62.55724     10.4 9.074e+03 1.050e-10
 62.58239     12.8 9.212e+03 1.279e-10
 62.61140     15.1 9.381e+03 1.566e-10
 62.63124     15.2 9.562e+03 2.098e-10
 62.66175     17.3 9.751e+03 2.559e-10
 62.70144     19.4 9.911e+03 3.019e-10
 62.74112     21.5 1.005e+04 3.406e-10
 62.78081     23.5 1.015e+04 3.627e-10
 62.82049     25.6 1.019e+04 3.658e-10
 62.85542     27.7 1.021e+04 3.607e-10
 62.87526     27.7 1.014e+04 3.311e-10
 62.89986     29.8 1.009e+04 3.011e-10
 62.93954     32.0 1.010e+04 2.996e-10
 62.97922     34.1 1.018e+04 3.287e-10
 63.01515     36.3 1.041e+04 4.030e-10
 63.03499     36.6 1.003e+04 2.299e-10
 63.05859     38.6 1.019e+04 2.838e-10
 63.09828     40.7 1.041e+04 3.607e-10
 63.11929     42.7 1.065e+04 4.260e-10
 63.13913     42.9 1.069e+04 4.379e-10
 63.17764     44.6 1.082e+04 4.454e-10
 63.21733     46.0 1.084e+04 4.186e-10
 63.25701     47.3 1.078e+04 3.725e-10
 63.29669     48.7 1.074e+04 3.514e-10
 63.33638     50.2 1.077e+04 3.577e-10
 63.36331     51.6 1.086e+04 3.856e-10
 63.38315     51.8 1.086e+04 3.924e-10
 63.41575     53.3 1.098e+04 4.422e-10
 63.45543     55.2 1.108e+04 4.860e-10
 63.48509     56.3 1.109e+04 4.967e-10
 63.49505     57.0 1.112e+04 4.976e-10
 63.50276     57.1 1.111e+04 4.918e-10
 63.51265     56.7 1.118e+04 4.914e-10
 63.52478     57.8 1.117e+04 4.966e-10
 63.54452     58.6 1.117e+04 4.970e-10
 63.56436     59.4 1.119e+04 4.956e-10
 63.58421     60.2 1.122e+04 4.940e-10
 63.60405     61.0 1.126e+04 4.945e-10
 63.61706     61.6 1.130e+04 4.982e-10
 63.62698     61.8 1.136e+04 5.075e-10
 63.64373     62.4 1.146e+04 5.230e-10
 63.66357     62.9 1.164e+04 5.598e-10
 63.68342     62.8 1.187e+04 6.294e-10
 63.70326     62.6 1.214e+04 7.581e-10
 63.72310     62.2 1.243e+04 9.741e-10
 63.73907     61.8 1.270e+04 1.278e-09
 63.74755     61.9 1.287e+04 1.505e-09
 63.75142     61.7 1.324e+04 2.030e-09
 63.76278     61.5 1.340e+04 2.224e-09
 63.78263     60.9 1.339e+04 2.177e-09
 63.80247     60.1 1.329e+04 1.983e-09
 63.82231     58.8 1.317e+04 1.746e-09
 63.84215     57.1 1.313e+04 1.604e-09
 63.86108     55.3 1.310e+04 1.571e-09
 63.87101     54.7 1.313e+04 1.564e-09
 63.88183     53.1 1.313e+04 1.629e-09
 63.90168     51.9 1.301e+04 1.665e-09
 63.92152     51.5 1.283e+04 1.658e-09
 63.94136     51.5 1.252e+04 1.584e-09
 63.96120     51.6 1.218e+04 1.405e-09
 63.98038     52.0 1.178e+04 1.168e-09
 63.99030     51.5 1.184e+04 1.223e-09
 63.99302     52.0 1.130e+04 9.119e-10
 64.00294     52.2 1.131e+04 9.015e-10
 64.02073     52.7 1.085e+04 6.328e-10
 64.05059     52.8 1.042e+04 4.336e-10
 64.09037     54.4 9.920e+03 3.002e-10
 64.11522     56.4 9.564e+03 2.370e-10
 64.13507     56.8 9.482e+03 2.053e-10
 64.16974     58.9 9.231e+03 1.805e-10
 64.20942     61.3 9.090e+03 1.748e-10
 64.24911     63.8 9.086e+03 1.753e-10
 64.28879     66.2 9.093e+03 1.786e-10
 64.32847     68.5 9.122e+03 1.917e-10
 64.35925     70.6 9.349e+03 2.258e-10
 64.37909     71.0 9.526e+03 2.457e-10
 64.40784     72.1 9.831e+03 3.171e-10
 64.43751     72.0 1.004e+04 3.910e-10
 64.45725     71.9 1.038e+04 5.289e-10
 64.46805     72.2 1.081e+04 7.333e-10
 64.47797     71.3 1.104e+04 8.084e-10
 64.49099     71.4 1.148e+04 1.037e-09
 64.50091     71.6 1.188e+04 1.350e-09
 64.51678     71.5 1.225e+04 1.514e-09
 64.53662     71.2 1.230e+04 1.513e-09
 64.55646     70.6 1.224e+04 1.463e-09
 64.57630     70.1 1.201e+04 1.348e-09
 64.59614     69.6 1.175e+04 1.255e-09
 64.61300     69.3 1.169e+04 1.246e-09
 64.62292     69.4 1.185e+04 1.367e-09
 64.63583     69.1 1.184e+04 1.364e-09
 64.65567     68.9 1.196e+04 1.459e-09
 64.67551     68.5 1.234e+04 1.712e-09
 64.69535     67.9 1.298e+04 2.185e-09
 64.70692     67.3 1.377e+04 2.951e-09
 64.71684     66.1 1.398e+04 3.187e-09
 64.73501     66.0 1.473e+04 4.369e-09
 64.75485     66.4 1.407e+04 3.328e-09
 64.77472     66.3 1.407e+04 3.317e-09
 64.79456     66.4 1.394e+04 3.133e-09
 64.81440     66.5 1.369e+04 2.692e-09
 64.83425     66.2 1.390e+04 2.266e-09
 64.85409     65.2 1.431e+04 2.297e-09
 64.86694     62.8 1.570e+04 2.772e-09
 64.87687     65.0 1.353e+04 1.540e-09
 64.89377     62.8 1.535e+04 2.060e-09
 64.90860     61.0 1.648e+04 2.739e-09
 64.91848     59.4 1.787e+04 3.698e-09
 64.92785     56.8 1.969e+04 6.228e-09
 64.93281     59.5 1.817e+04 3.598e-09
 64.93832     56.6 2.019e+04 6.568e-09
 64.94570     54.0 2.112e+04 1.243e-08
 64.95066     52.9 2.068e+04 1.469e-08
 64.95816     51.8 2.068e+04 2.216e-08
 64.96808     50.8 2.078e+04 3.140e-08
 64.97800     47.9 2.367e+04 4.685e-08
 64.98792     42.6 2.873e+04 6.853e-08
 64.99382     36.1 3.090e+04 7.279e-08
 64.99878     41.5 2.977e+04 8.034e-08
 65.00776     34.8 3.085e+04 7.740e-08
 65.01769     28.4 2.931e+04 5.751e-08
 65.02761     22.4 2.407e+04 3.920e-08
 65.03753     18.3 2.010e+04 3.003e-08
 65.04745     16.9 1.951e+04 2.468e-08
 65.05483     16.3 1.971e+04 2.007e-08
 65.05979     16.6 1.975e+04 2.636e-08
 65.06514     16.0 2.004e+04 2.177e-08
 65.07010     15.8 1.990e+04 1.705e-08
 65.07721     15.1 1.997e+04 1.412e-08
 65.09214     12.5 2.067e+04 7.053e-09
 65.11097      7.2 1.982e+04 2.537e-09
 65.12089     11.5 2.031e+04 8.670e-09
 65.13187      6.8 2.014e+04 3.643e-09
 65.15172      1.0 1.750e+04 1.722e-09
 65.17156     -3.0 1.278e+04 1.554e-09
 65.18467     -4.6 1.255e+04 1.791e-09
 65.19460     -4.3 1.362e+04 2.672e-09
 65.21124     -6.2 1.487e+04 3.997e-09
 65.23108     -8.1 1.661e+04 6.397e-09
 65.24290     -9.4 1.774e+04 9.986e-09
 65.25282     -7.3 1.598e+04 4.326e-09
 65.27077     -9.7 1.762e+04 5.683e-09
 65.29061    -13.9 1.985e+04 7.419e-09
 65.31045    -18.1 2.056e+04 9.592e-09
 65.33029    -21.4 1.911e+04 1.125e-08
 65.35014    -22.5 1.761e+04 1.154e-08
 65.36491    -21.7 1.660e+04 9.776e-09
 65.37483    -22.6 1.499e+04 5.399e-09
 65.38982    -21.8 1.488e+04 4.622e-09
 65.40966    -21.9 1.442e+04 3.031e-09
 65.42355    -24.8 1.307e+04 1.867e-09
 65.43347    -25.0 1.328e+04 1.975e-09
 65.44934    -26.9 1.192e+04 1.360e-09
 65.47921    -27.2 1.146e+04 1.112e-09
 65.51899    -27.0 1.118e+04 9.207e-10
 65.55867    -27.7 1.114e+04 8.823e-10
 65.59835    -28.3 1.119e+04 9.703e-10
 65.61905    -28.2 1.118e+04 1.051e-09
 65.63890    -27.6 1.110e+04 9.846e-10
 65.67772    -27.4 1.075e+04 8.319e-10
 65.71741    -27.3 1.021e+04 5.695e-10
 65.75709    -27.6 9.658e+03 3.761e-10
 65.79677    -27.2 9.327e+03 2.676e-10
 65.83646    -27.2 9.060e+03 1.794e-10
 65.86308    -27.4 8.968e+03 1.644e-10
 65.88292    -26.7 9.097e+03 1.908e-10
 65.90149    -26.6 9.043e+03 1.921e-10
 65.92134    -27.2 9.467e+03 3.128e-10
 65.95551    -26.1 9.494e+03 3.567e-10
 65.99519    -24.6 9.363e+03 3.461e-10
 66.03488    -22.8 8.970e+03 2.294e-10
 66.07456    -21.7 8.666e+03 1.271e-10
 66.10710    -21.4 8.515e+03 8.391e-11
 66.12694    -20.5 8.498e+03 8.324e-11
 66.15393    -20.0 8.475e+03 7.534e-11
 66.19361    -19.3 8.566e+03 8.720e-11
 66.23329    -18.2 8.553e+03 1.126e-10
 66.27298    -16.5 8.547e+03 1.271e-10
 66.31266    -14.9 8.423e+03 1.150e-10
 66.35113    -13.2 8.296e+03 8.340e-11
 66.37097    -12.4 8.353e+03 7.928e-11
 66.37924    -11.4 8.295e+03 5.436e-11
 66.39909    -12.3 8.329e+03 5.087e-11
 66.43171    -11.9 8.361e+03 4.578e-11
 66.47140    -13.0 9.018e+03 5.461e-11
 66.51108    -13.5 9.282e+03 1.549e-10
 66.55077    -12.0 9.667e+03 3.314e-10
 66.59045    -10.6 1.000e+04 4.905e-10
 66.61499     -9.6 1.025e+04 5.853e-10
 66.63484     -8.8 9.977e+03 4.120e-10
 66.66982     -8.9 1.029e+04 3.864e-10
 66.70950    -11.5 1.108e+04 6.233e-10
 66.73691    -15.5 1.277e+04 1.280e-09
 66.74673    -15.3 1.248e+04 1.197e-09
 66.75891    -16.3 1.311e+04 1.987e-09
 66.77875    -16.8 1.354e+04 3.451e-09
 66.79859    -15.2 1.350e+04 4.372e-09
 66.81844    -13.4 1.337e+04 4.430e-09
 66.83828    -11.2 1.318e+04 3.744e-09
 66.85690    -11.4 1.257e+04 1.731e-09
 66.86762    -13.1 1.230e+04 1.284e-09
 66.87886    -14.0 1.150e+04 1.334e-09
 66.90792    -14.1 9.985e+03 5.981e-10
 66.94760    -13.5 9.055e+03 2.751e-10
 66.98729    -12.7 8.560e+03 1.904e-10
 67.02697    -11.5 8.336e+03 1.650e-10
 67.06665    -10.0 8.416e+03 1.650e-10
 67.10304     -9.0 8.453e+03 1.758e-10
 67.12288     -8.3 8.190e+03 1.137e-10
 67.14602     -7.8 8.128e+03 1.225e-10
 67.18571     -6.7 8.041e+03 1.468e-10
 67.22539     -5.3 8.056e+03 1.435e-10
 67.26507     -3.5 7.964e+03 1.151e-10
 67.30476     -2.2 7.785e+03 8.158e-11
 67.33475     -1.3 7.652e+03 5.815e-11
 67.35459     -2.0 7.629e+03 5.368e-11
 67.36691     -1.0 7.528e+03 4.671e-11
 67.38675     -0.4 7.496e+03 4.788e-11
 67.42381      0.7 7.479e+03 4.617e-11
 67.46349      1.7 7.580e+03 5.113e-11
 67.50318      2.9 7.699e+03 7.078e-11
 67.54286      4.6 7.780e+03 9.111e-11
 67.58254      6.5 7.773e+03 9.203e-11
 67.61093      8.6 7.706e+03 7.764e-11
 67.63077      9.3 7.698e+03 8.033e-11
 67.66191     11.1 7.653e+03 6.243e-11
 67.70159     12.6 7.625e+03 4.644e-11
 67.74128     13.7 7.571e+03 3.674e-11
 67.78096     15.1 7.531e+03 3.510e-11
 67.81250     16.6 7.562e+03 3.572e-11
 67.83234     15.7 7.564e+03 3.558e-11
 67.85496     17.2 7.658e+03 3.852e-11
 67.87480     18.0 7.706e+03 4.754e-11
 67.90001     19.4 7.805e+03 5.438e-11
 67.93970     20.2 8.068e+03 6.529e-11
 67.97938     20.7 8.512e+03 9.539e-11
 68.01907     21.3 8.821e+03 1.439e-10
 68.05875     22.0 8.992e+03 1.835e-10
 68.09843     22.5 9.093e+03 1.938e-10
 68.11882     22.8 9.197e+03 1.960e-10
 68.13866     23.5 9.562e+03 2.776e-10
 68.17780     23.2 9.724e+03 2.917e-10
 68.21748     22.2 1.011e+04 3.674e-10
 68.25717     21.3 1.055e+04 5.557e-10
 68.29025     20.9 1.083e+04 7.461e-10
 68.31009     19.7 1.095e+04 8.090e-10
 68.33654     19.6 1.084e+04 7.728e-10
 68.36285     20.0 1.038e+04 5.818e-10
 68.38269     20.5 1.049e+04 5.806e-10
 68.41590     20.5 9.877e+03 3.444e-10
 68.45559     20.5 9.388e+03 1.933e-10
 68.49527     20.4 8.993e+03 1.250e-10
 68.53495     21.0 8.824e+03 1.178e-10
 68.57464     21.8 8.885e+03 1.266e-10
 68.60687     22.5 9.058e+03 1.714e-10
 68.62671     22.8 9.186e+03 2.076e-10
 68.65401     23.9 9.766e+03 3.554e-10
 68.68367     23.4 1.043e+04 4.810e-10
 68.70342     20.5 1.215e+04 8.863e-10
 68.72326     17.5 1.342e+04 1.918e-09
 68.73861     17.4 1.397e+04 3.459e-09
 68.74853     17.6 1.449e+04 4.799e-09
 68.76294     18.5 1.484e+04 5.746e-09
 68.77772     18.8 1.481e+04 5.498e-09
 68.78764     18.8 1.512e+04 6.126e-09
 68.80262     18.2 1.507e+04 4.915e-09
 68.82247     15.7 1.477e+04 3.593e-09
 68.84231     12.3 1.390e+04 2.615e-09
 68.86062      9.5 1.292e+04 2.061e-09
 68.87054      9.3 1.260e+04 1.803e-09
 68.89201      7.6 1.177e+04 1.286e-09
 68.93179      4.9 1.104e+04 8.453e-10
 68.96146      3.1 1.090e+04 7.771e-10
 68.98120      1.7 1.060e+04 7.365e-10
 68.99255      0.9 1.027e+04 6.539e-10
 69.00248      1.8 1.012e+04 6.278e-10
 69.01660      1.5 9.924e+03 5.717e-10
 69.02652      1.5 9.782e+03 5.006e-10
 69.05075      0.8 9.619e+03 4.217e-10
 69.09053      1.0 9.194e+03 3.044e-10
 69.11476      0.8 8.921e+03 2.116e-10
 69.13460      2.6 8.919e+03 2.193e-10
 69.16990      2.5 8.799e+03 1.883e-10
 69.20958      2.4 8.850e+03 1.977e-10
 69.24575      2.3 9.065e+03 2.414e-10
 69.26559      3.8 8.961e+03 2.170e-10
 69.28895      3.9 9.309e+03 2.839e-10
 69.31861      3.8 9.678e+03 3.661e-10
 69.33836      2.9 1.025e+04 4.609e-10
 69.35820     -1.0 1.207e+04 8.368e-10
 69.36851     -4.7 1.334e+04 1.502e-09
 69.37843     -3.3 1.350e+04 1.357e-09
 69.39788     -6.0 1.316e+04 2.058e-09
 69.41772     -5.4 1.261e+04 2.943e-09
 69.43757     -5.0 1.319e+04 2.489e-09
 69.45741     -5.8 1.345e+04 1.637e-09
 69.47725     -9.2 1.194e+04 9.384e-10
 69.49052    -12.8 1.059e+04 5.948e-10
 69.49770    -11.1 1.100e+04 6.710e-10
 69.50427    -10.4 1.112e+04 6.010e-10
 69.51693    -13.0 1.021e+04 4.621e-10
 69.53677    -13.7 1.037e+04 4.568e-10
 69.55662    -15.2 1.082e+04 5.301e-10
 69.57646    -16.7 1.103e+04 6.957e-10
 69.59630    -17.4 1.128e+04 9.648e-10
 69.61254    -18.0 1.172e+04 1.298e-09
 69.62246    -17.8 1.149e+04 1.158e-09
 69.63598    -18.1 1.229e+04 1.594e-09
 69.65583    -19.5 1.292e+04 1.995e-09
 69.67567    -21.7 1.346e+04 2.233e-09
 69.69551    -25.6 1.414e+04 2.342e-09
 69.71535    -30.8 1.467e+04 2.529e-09
 69.73322    -36.3 1.443e+04 2.819e-09
 69.74250    -36.6 1.509e+04 3.478e-09
 69.74447    -36.3 1.539e+04 3.814e-09
 69.75504    -40.9 1.501e+04 3.912e-09
 69.77488    -43.7 1.495e+04 3.877e-09
 69.79472    -46.1 1.461e+04 3.302e-09
 69.81456    -48.4 1.374e+04 2.372e-09
 69.83440    -50.4 1.266e+04 1.610e-09
 69.85425    -51.7 1.178e+04 1.116e-09
 69.86648    -52.6 1.119e+04 8.302e-10
 69.87640    -52.8 1.157e+04 9.961e-10
 69.89393    -53.5 1.103e+04 7.758e-10
 69.91377    -53.8 1.067e+04 6.763e-10
 69.93361    -53.6 1.046e+04 6.318e-10
 69.95345    -53.0 1.035e+04 6.078e-10
 69.97210    -52.3 1.030e+04 5.847e-10
 69.98202    -52.5 1.039e+04 6.256e-10
 69.98849    -51.7 1.032e+04 5.994e-10
 69.99841    -52.0 1.043e+04 6.756e-10
 70.01298    -51.2 1.034e+04 6.474e-10
 70.03282    -50.4 1.027e+04 6.227e-10
 70.05266    -49.6 1.025e+04 6.025e-10
 70.08252    -48.6 1.021e+04 5.714e-10
 70.11070    -47.3 1.023e+04 5.902e-10
 70.13054    -47.0 1.019e+04 5.699e-10
 70.16199    -45.7 1.026e+04 5.901e-10
 70.20125    -44.9 1.049e+04 6.662e-10
 70.22109    -45.2 1.056e+04 7.013e-10
 70.24136    -45.1 1.096e+04 8.894e-10
 70.28104    -45.1 1.150e+04 1.195e-09
 70.31071    -44.7 1.189e+04 1.518e-09
 70.33045    -44.8 1.193e+04 1.555e-09
 70.35463    -45.1 1.175e+04 1.461e-09
 70.37457    -44.6 1.228e+04 1.748e-09
 70.40009    -44.0 1.179e+04 1.433e-09
 70.43978    -43.2 1.094e+04 9.921e-10
 70.47946    -41.9 1.025e+04 6.894e-10
 70.51914    -40.0 9.772e+03 5.234e-10
 70.55883    -37.6 9.604e+03 4.652e-10
 70.59851    -35.1 9.642e+03 4.549e-10
 70.61849    -33.5 1.012e+04 5.120e-10
 70.62832    -33.4 1.068e+04 6.720e-10
 70.64792    -32.6 1.113e+04 8.029e-10
 70.66776    -32.2 1.179e+04 1.045e-09
 70.68760    -32.3 1.261e+04 1.437e-09
 70.69864    -32.6 1.356e+04 2.111e-09
 70.70856    -33.6 1.382e+04 2.733e-09
 70.72729    -33.6 1.459e+04 3.674e-09
 70.74041    -33.4 1.515e+04 4.535e-09
 70.75033    -31.3 1.511e+04 4.323e-09
 70.76697    -31.0 1.531e+04 4.654e-09
 70.78681    -30.8 1.512e+04 4.546e-09
 70.80666    -30.5 1.453e+04 3.592e-09
 70.82650    -31.1 1.402e+04 2.461e-09
 70.84634    -33.9 1.334e+04 1.537e-09
 70.86242    -37.7 1.214e+04 9.091e-10
 70.87234    -39.4 1.947e+04 1.085e-09
 70.88602    -49.7 2.993e+04 9.060e-10
 70.90587    -64.4 4.239e+04 1.318e-09
 70.92070    -69.5 4.182e+04 1.489e-09
 70.92829    -74.4 4.008e+04 3.040e-09
 70.93325    -81.1 3.611e+04 1.263e-08
 70.93742    -84.5 3.071e+04 3.122e-08
 70.94238    -87.0 2.742e+04 6.548e-08
 70.95041    -89.2 2.547e+04 1.001e-07
 70.96033    -90.8 2.454e+04 1.210e-07
 70.97025    -91.7 2.418e+04 1.227e-07
 70.98018    -92.6 2.402e+04 1.165e-07
 70.98930    -94.1 2.431e+04 1.017e-07
 70.99426    -97.1 2.503e+04 6.106e-08
 71.00002   -100.2 2.599e+04 3.822e-08
 71.00994   -104.5 2.635e+04 2.133e-08
 71.01986   -109.7 2.517e+04 1.165e-08
 71.02978   -115.1 2.242e+04 7.107e-09
 71.03970   -119.6 1.974e+04 5.141e-09
 71.04962   -122.3 1.826e+04 4.283e-09
 71.05526   -123.9 1.743e+04 3.928e-09
 71.05754   -125.3 1.676e+04 3.578e-09
 71.06182   -123.7 1.657e+04 3.288e-09
 71.06946   -124.2 1.648e+04 3.366e-09
 71.07938   -125.3 1.622e+04 3.518e-09
 71.08931   -125.6 1.623e+04 3.599e-09
 71.10424   -126.9 1.595e+04 3.917e-09
 71.11637   -127.4 1.552e+04 4.105e-09
 71.12629   -129.1 1.556e+04 4.553e-09
 71.14397   -128.1 1.560e+04 4.930e-09
 71.16381   -127.4 1.565e+04 5.243e-09
 71.17634   -126.2 1.549e+04 5.211e-09
 71.18627   -125.2 1.516e+04 4.784e-09
 71.20349   -124.6 1.519e+04 4.893e-09
 71.22334   -123.8 1.522e+04 4.942e-09
 71.23838   -122.8 1.533e+04 5.002e-09
 71.24830   -123.3 1.523e+04 4.833e-09
 71.26302   -122.5 1.529e+04 4.780e-09
 71.28286   -121.9 1.522e+04 4.685e-09
 71.30270   -121.4 1.502e+04 4.498e-09
 71.32255   -120.7 1.476e+04 4.307e-09
 71.34239   -120.0 1.447e+04 4.080e-09
 71.36039   -119.4 1.417e+04 3.794e-09
 71.37031   -119.5 1.330e+04 2.831e-09
 71.38207   -118.8 1.313e+04 2.607e-09
 71.40191   -118.2 1.298e+04 2.271e-09
 71.41527   -117.9 1.271e+04 1.897e-09
 71.42519   -116.7 1.257e+04 2.109e-09
 71.44160   -116.5 1.224e+04 1.725e-09
 71.46144   -116.3 1.182e+04 1.354e-09
 71.48128   -116.3 1.138e+04 1.059e-09
 71.49232   -116.2 1.092e+04 8.530e-10
 71.50224   -116.0 1.042e+04 5.987e-10
 71.52096   -115.5 9.991e+03 4.910e-10
 71.54081   -114.6 9.648e+03 4.025e-10
 71.56065   -113.5 9.369e+03 3.375e-10
 71.58049   -112.5 9.166e+03 2.969e-10
 71.60033   -111.5 9.000e+03 2.678e-10
 71.61434   -110.2 8.834e+03 2.423e-10
 71.63428   -109.3 8.507e+03 1.879e-10
 71.65424   -106.5 8.322e+03 1.649e-10
 71.67408   -105.8 8.216e+03 1.539e-10
 71.70966   -102.8 8.135e+03 1.458e-10
 71.74934    -99.8 8.120e+03 1.444e-10
 71.77901    -97.7 8.069e+03 1.424e-10
 71.79875    -97.0 8.046e+03 1.414e-10
 71.81859    -95.5 8.016e+03 1.409e-10
 71.83843    -94.5 8.003e+03 1.402e-10
 71.85828    -93.2 8.005e+03 1.419e-10
 71.87822    -91.7 7.908e+03 1.170e-10
 71.89312    -89.8 8.018e+03 1.294e-10
 71.90294    -89.1 7.977e+03 1.274e-10
 71.91780    -88.8 7.978e+03 1.286e-10
 71.93764    -87.5 8.131e+03 1.485e-10
 71.95749    -87.3 8.282e+03 1.815e-10
 71.97733    -87.6 9.334e+03 3.271e-10
 71.99029    -88.3 1.084e+04 7.043e-10
 72.00021    -85.4 9.024e+03 2.668e-10
 72.01701    -86.0 1.052e+04 5.949e-10
 72.03685    -86.5 1.192e+04 1.343e-09
 72.05670    -86.3 1.336e+04 2.756e-09
 72.07654    -85.7 1.504e+04 4.902e-09
 72.09638    -85.2 1.679e+04 7.376e-09
 72.11231    -84.9 1.811e+04 8.758e-09
 72.12223    -83.4 1.670e+04 7.996e-09
 72.13189    -83.0 1.837e+04 1.025e-08
 72.14181    -82.4 1.822e+04 1.051e-08
 72.15591    -82.4 1.986e+04 1.323e-08
 72.17575    -84.0 2.040e+04 1.382e-08
 72.19559    -86.1 1.949e+04 9.688e-09
 72.21543    -88.4 1.666e+04 5.216e-09
 72.23432    -90.4 1.386e+04 2.831e-09
 72.24424    -87.0 1.758e+04 6.564e-09
 72.25511    -89.6 1.412e+04 3.178e-09
 72.27496    -91.3 1.269e+04 1.951e-09
 72.29480    -92.3 1.221e+04 1.532e-09
 72.31464    -93.0 1.182e+04 1.355e-09
 72.33448    -93.3 1.169e+04 1.313e-09
 72.35432    -93.4 1.167e+04 1.314e-09
 72.36625    -93.5 1.169e+04 1.343e-09
 72.37277    -93.5 1.199e+04 1.564e-09
 72.38069    -93.8 1.210e+04 1.660e-09
 72.39401    -93.9 1.210e+04 1.642e-09
 72.41385    -93.9 1.198e+04 1.575e-09
 72.43369    -93.7 1.172e+04 1.457e-09
 72.45353    -93.2 1.143e+04 1.307e-09
 72.47338    -92.5 1.112e+04 1.145e-09
 72.48826    -91.7 1.083e+04 9.869e-10
 72.49818    -91.9 1.112e+04 1.066e-09
 72.51306    -91.0 1.084e+04 9.078e-10
 72.53290    -90.0 1.069e+04 7.941e-10
 72.55274    -89.2 1.065e+04 7.171e-10
 72.57258    -88.2 1.068e+04 6.666e-10
 72.59243    -87.1 1.070e+04 6.341e-10
 72.60974    -86.0 1.065e+04 5.927e-10
 72.61777    -85.6 1.157e+04 7.242e-10
 72.62029    -87.6 1.342e+04 1.350e-09
 72.63211    -86.9 1.417e+04 1.588e-09
 72.65195    -85.9 1.496e+04 1.934e-09
 72.67179    -85.2 1.568e+04 2.361e-09
 72.69164    -84.5 1.626e+04 2.922e-09
 72.71148    -84.2 1.658e+04 3.657e-09
 72.73132    -84.0 1.678e+04 4.576e-09
 72.74221    -83.9 1.701e+04 5.850e-09
 72.75213    -83.3 1.788e+04 1.138e-08
 72.77100    -83.6 1.838e+04 1.290e-08
 72.79085    -84.1 1.878e+04 1.417e-08
 72.81069    -85.0 1.894e+04 1.442e-08
 72.83053    -86.3 1.912e+04 1.282e-08
 72.84852    -88.3 1.928e+04 1.001e-08
 72.85839    -90.0 2.255e+04 1.369e-08
 72.86412    -92.2 2.280e+04 1.284e-08
 72.86908    -93.9 2.365e+04 1.767e-08
 72.87508    -96.1 2.283e+04 1.716e-08
 72.88500    -98.2 2.202e+04 1.706e-08
 72.89492   -100.5 2.109e+04 1.855e-08
 72.90484   -101.2 2.069e+04 1.774e-08
 72.91476   -102.3 2.003e+04 1.707e-08
 72.92969   -103.6 1.915e+04 2.022e-08
 72.94958   -103.8 1.838e+04 1.612e-08
 72.96942   -103.4 1.764e+04 1.094e-08
 72.98623   -102.7 1.702e+04 6.977e-09
 72.99615   -102.6 1.646e+04 1.112e-08
 73.00911   -102.3 1.601e+04 7.646e-09
 73.02895   -101.9 1.551e+04 5.324e-09
 73.04879   -100.9 1.534e+04 3.580e-09
 73.06863    -99.4 1.525e+04 2.575e-09
 73.08739    -97.9 1.492e+04 1.934e-09
 73.09732    -98.4 1.467e+04 2.002e-09
 73.10824    -96.9 1.429e+04 1.534e-09
 73.12809    -95.5 1.368e+04 2.090e-09
 73.14800    -94.2 1.387e+04 1.666e-09
 73.16784    -92.8 1.396e+04 1.352e-09
 73.18768    -91.5 1.412e+04 1.086e-09
 73.20753    -90.4 1.417e+04 8.649e-10
 73.22737    -89.4 1.399e+04 7.116e-10
 73.24018    -88.4 1.376e+04 6.154e-10
 73.25010    -88.3 1.539e+04 1.942e-09
 73.26705    -87.5 1.586e+04 1.804e-09
 73.28689    -86.9 1.611e+04 1.726e-09
 73.30673    -86.4 1.614e+04 1.683e-09
 73.32627    -85.8 1.599e+04 1.675e-09
 73.33619    -85.8 1.577e+04 1.937e-09
 73.34642    -85.2 1.558e+04 1.960e-09
 73.36219    -84.6 1.512e+04 2.123e-09
 73.37211    -84.3 1.505e+04 5.389e-09
 73.38610    -83.4 1.474e+04 5.326e-09
 73.40594    -82.2 1.449e+04 5.304e-09
 73.42579    -81.0 1.423e+04 5.253e-09
 73.44563    -79.6 1.395e+04 4.941e-09
 73.46547    -78.2 1.374e+04 4.286e-09
 73.48420    -76.7 1.352e+04 3.513e-09
 73.49412    -76.8 1.372e+04 3.232e-09
 73.50515    -75.9 1.361e+04 2.618e-09
 73.52500    -75.2 1.356e+04 2.194e-09
 73.54484    -74.5 1.342e+04 1.868e-09
 73.56468    -73.8 1.326e+04 1.634e-09
 73.57507    -73.1 1.311e+04 1.465e-09
 73.58499    -72.8 1.308e+04 1.463e-09
 73.60436    -72.1 1.294e+04 1.338e-09
 73.61613    -71.2 1.292e+04 1.269e-09
 73.62606    -71.6 1.301e+04 1.742e-09
 73.64405    -70.7 1.299e+04 1.748e-09
 73.66389    -70.0 1.301e+04 1.802e-09
 73.68373    -69.6 1.332e+04 1.897e-09
 73.70357    -69.6 1.374e+04 2.107e-09
 73.72341    -69.6 1.428e+04 2.416e-09
 73.73815    -69.8 1.487e+04 2.792e-09
 73.74807    -70.4 1.552e+04 3.551e-09
 73.76310    -70.4 1.570e+04 3.712e-09
 73.78294    -70.4 1.580e+04 3.674e-09
 73.80278    -70.4 1.573e+04 3.514e-09
 73.81394    -70.5 1.556e+04 3.275e-09
 73.82386    -71.0 1.480e+04 2.503e-09
 73.84247    -70.9 1.463e+04 2.181e-09
 73.86016    -70.8 1.453e+04 1.885e-09
 73.87008    -71.6 1.301e+04 1.333e-09
 73.88215    -72.0 1.267e+04 1.110e-09
 73.90199    -72.3 1.234e+04 9.676e-10
 73.92183    -72.5 1.211e+04 8.907e-10
 73.94168    -72.6 1.205e+04 8.507e-10
 73.96152    -72.7 1.206e+04 8.120e-10
 73.98136    -72.7 1.206e+04 7.694e-10
 73.99209    -72.7 1.199e+04 7.233e-10
 74.00201    -72.9 1.218e+04 8.527e-10
 74.02104    -72.9 1.189e+04 7.621e-10
 74.04089    -73.0 1.159e+04 6.614e-10
 74.05282    -73.1 1.136e+04 5.666e-10
 74.06274    -73.1 1.133e+04 5.624e-10
 74.08057    -73.3 1.120e+04 4.783e-10
 74.10041    -73.8 1.118e+04 4.150e-10
 74.11410    -74.6 1.124e+04 3.887e-10
 74.12403    -74.5 1.123e+04 3.891e-10
 74.14009    -75.8 1.130e+04 3.868e-10
 74.15994    -77.6 1.159e+04 4.365e-10
 74.17978    -79.3 1.171e+04 5.921e-10
 74.19962    -80.5 1.191e+04 7.988e-10
 74.21946    -81.5 1.225e+04 9.705e-10
 74.23612    -82.8 1.262e+04 1.023e-09
 74.24604    -83.1 1.248e+04 1.124e-09
 74.25915    -85.1 1.262e+04 1.153e-09
 74.27899    -87.4 1.269e+04 1.116e-09
 74.29169    -89.7 1.262e+04 9.775e-10
 74.30161    -89.3 1.261e+04 9.578e-10
 74.31867    -91.4 1.251e+04 8.410e-10
 74.33851    -92.9 1.247e+04 7.847e-10
 74.35813    -94.0 1.248e+04 7.666e-10
 74.36805    -94.8 1.286e+04 1.070e-09
 74.37820    -95.6 1.273e+04 1.046e-09
 74.39804    -96.0 1.251e+04 1.011e-09
 74.41788    -96.2 1.220e+04 9.384e-10
 74.43772    -96.0 1.186e+04 8.107e-10
 74.45756    -95.7 1.151e+04 6.448e-10
 74.47741    -95.6 1.114e+04 4.769e-10
 74.49006    -95.6 1.101e+04 4.098e-10
 74.49998    -95.8 1.096e+04 3.961e-10
 74.52074    -95.6 1.081e+04 3.309e-10
 74.54068    -95.2 1.071e+04 3.032e-10
 74.56689    -94.0 1.043e+04 2.362e-10
 74.60235    -92.7 1.038e+04 2.233e-10
 74.62219    -93.3 1.002e+04 1.583e-10
 74.64626    -92.0 1.009e+04 1.633e-10
 74.68594    -91.1 1.053e+04 2.429e-10
 74.72563    -90.1 1.098e+04 4.032e-10
 74.75529    -89.9 1.118e+04 5.396e-10
 74.76944    -89.9 1.138e+04 6.605e-10
 74.77936    -89.6 1.136e+04 6.332e-10
 74.79488    -89.4 1.165e+04 7.864e-10
 74.81472    -89.4 1.193e+04 8.938e-10
 74.83456    -89.5 1.221e+04 9.827e-10
 74.85440    -89.8 1.240e+04 1.046e-09
 74.86602    -90.1 1.246e+04 1.068e-09
 74.87594    -90.5 1.255e+04 1.250e-09
 74.89409    -90.8 1.251e+04 1.220e-09
 74.91393    -91.0 1.238e+04 1.109e-09
 74.93377    -91.4 1.223e+04 9.974e-10
 74.95361    -91.9 1.213e+04 9.376e-10
 74.97345    -92.6 1.211e+04 9.177e-10
 74.98803    -93.3 1.213e+04 9.411e-10
 74.99795    -93.3 1.191e+04 7.777e-10
 75.00832    -94.0 1.191e+04 8.132e-10
 75.01824    -93.6 1.188e+04 8.076e-10
 75.03298    -94.1 1.178e+04 8.418e-10
 75.05282    -94.4 1.167e+04 8.610e-10
 75.07266    -94.5 1.152e+04 8.675e-10
 75.09251    -94.4 1.124e+04 8.472e-10
 75.11004    -94.0 1.098e+04 7.561e-10
 75.11996    -94.2 1.102e+04 7.538e-10
 75.13219    -93.8 1.079e+04 6.570e-10
 75.15203    -93.4 1.062e+04 5.295e-10
 75.17187    -93.3 1.048e+04 4.239e-10
 75.20173    -93.1 1.040e+04 3.556e-10
 75.24151    -92.7 1.011e+04 2.893e-10
 75.28120    -91.5 9.799e+03 2.499e-10
 75.32088    -90.0 9.666e+03 2.385e-10
 75.35426    -88.4 9.592e+03 2.413e-10
 75.37410    -88.5 9.678e+03 2.575e-10
 75.40025    -86.7 9.644e+03 2.633e-10
 75.43993    -84.7 9.671e+03 2.795e-10
 75.47634    -82.8 9.700e+03 2.964e-10
 75.49618    -82.5 9.281e+03 1.980e-10
 75.51930    -80.6 9.311e+03 2.160e-10
 75.55899    -78.6 9.349e+03 2.412e-10
 75.59829    -76.6 9.385e+03 2.698e-10
 75.61813    -76.5 9.082e+03 1.954e-10
 75.63835    -74.4 9.079e+03 2.066e-10
 75.67804    -72.3 9.062e+03 2.130e-10
 75.71772    -70.2 9.020e+03 2.104e-10
 75.75740    -68.2 8.997e+03 2.001e-10
 75.79709    -66.2 8.975e+03 1.882e-10
 75.83677    -64.3 8.955e+03 1.798e-10
 75.86215    -62.5 8.981e+03 1.747e-10
 75.88200    -62.5 8.931e+03 1.439e-10
 75.91614    -60.9 8.995e+03 1.568e-10
 75.95409    -59.4 9.096e+03 1.809e-10
 75.97393    -58.8 9.119e+03 1.720e-10
 75.99551    -57.4 9.245e+03 2.008e-10
 76.03519    -55.9 9.367e+03 2.396e-10
 76.07487    -54.3 9.506e+03 2.722e-10
 76.10618    -52.8 9.618e+03 2.857e-10
 76.12602    -53.2 9.726e+03 3.248e-10
 76.15424    -51.9 9.779e+03 3.253e-10
 76.19393    -50.6 9.884e+03 3.351e-10
 76.23361    -49.4 1.016e+04 4.092e-10
 76.26327    -48.6 1.043e+04 4.943e-10
 76.28302    -48.6 1.064e+04 6.036e-10
 76.30286    -48.3 1.119e+04 8.274e-10
 76.32270    -48.7 1.198e+04 1.137e-09
 76.34254    -49.4 1.274e+04 1.722e-09
 76.35993    -50.0 1.309e+04 2.510e-09
 76.36985    -50.8 1.305e+04 1.854e-09
 76.38223    -50.8 1.338e+04 2.878e-09
 76.40207    -49.6 1.348e+04 3.608e-09
 76.42191    -48.1 1.349e+04 3.753e-09
 76.44157    -46.3 1.325e+04 3.153e-09
 76.45149    -46.2 1.273e+04 2.381e-09
 76.46160    -45.3 1.237e+04 1.402e-09
 76.48144    -45.4 1.168e+04 6.756e-10
 76.49186    -46.9 1.105e+04 3.522e-10
 76.50178    -46.7 1.106e+04 3.386e-10
 76.52112    -47.7 1.056e+04 2.365e-10
 76.55098    -47.7 1.047e+04 2.123e-10
 76.59076    -46.4 1.054e+04 2.225e-10
 76.61407    -44.9 1.073e+04 2.735e-10
 76.62389    -45.4 1.100e+04 2.752e-10
 76.64017    -45.1 1.101e+04 3.063e-10
 76.66002    -44.0 1.113e+04 3.935e-10
 76.67986    -43.4 1.113e+04 4.505e-10
 76.69036    -42.1 1.125e+04 5.489e-10
 76.70028    -41.5 1.103e+04 4.618e-10
 76.71954    -40.8 1.105e+04 4.945e-10
 76.73588    -39.5 1.117e+04 5.413e-10
 76.74581    -39.3 1.106e+04 5.388e-10
 76.75922    -38.3 1.111e+04 5.457e-10
 76.77907    -37.2 1.119e+04 5.649e-10
 76.79891    -36.2 1.124e+04 5.822e-10
 76.81875    -35.0 1.133e+04 6.130e-10
 76.83859    -34.0 1.143e+04 6.505e-10
 76.85790    -32.7 1.164e+04 7.160e-10
 76.86782    -32.7 1.154e+04 6.574e-10
 76.87828    -31.8 1.166e+04 7.335e-10
 76.89812    -30.7 1.203e+04 8.849e-10
 76.91796    -29.9 1.264e+04 1.148e-09
 76.92924    -29.4 1.345e+04 1.629e-09
 76.93916    -28.6 1.236e+04 9.891e-10
 76.95764    -28.0 1.297e+04 1.396e-09
 76.97749    -27.7 1.409e+04 2.326e-09
 76.98983    -27.9 1.580e+04 4.305e-09
 76.99975    -28.7 1.601e+04 4.527e-09
 77.01717    -29.7 1.797e+04 9.292e-09
 77.03701    -31.2 1.982e+04 1.913e-08
 77.04863    -32.0 2.110e+04 3.231e-08
 77.05248    -32.5 2.113e+04 3.184e-08
 77.05570    -32.4 2.110e+04 2.929e-08
 77.06172    -33.7 2.155e+04 3.744e-08
 77.07164    -34.2 2.189e+04 4.537e-08
 77.08156    -35.4 2.194e+04 4.659e-08
 77.09148    -36.3 2.185e+04 3.905e-08
 77.10140    -37.4 2.208e+04 2.726e-08
 77.11179    -41.6 2.083e+04 1.563e-08
 77.12176    -40.0 2.034e+04 1.364e-08
 77.13622    -45.1 1.721e+04 6.134e-09
 77.15606    -47.2 1.486e+04 3.979e-09
 77.16811    -47.3 1.410e+04 3.364e-09
 77.17803    -48.0 1.332e+04 2.295e-09
 77.19575    -47.3 1.285e+04 1.916e-09
 77.21559    -46.0 1.256e+04 1.591e-09
 77.23385    -44.9 1.241e+04 1.303e-09
 77.24378    -44.2 1.231e+04 1.397e-09
 77.25527    -43.0 1.219e+04 1.153e-09
 77.27511    -41.8 1.217e+04 9.233e-10
 77.29496    -40.7 1.218e+04 7.356e-10
 77.31480    -39.8 1.227e+04 6.187e-10
 77.33464    -39.0 1.237e+04 5.554e-10
 77.35448    -38.2 1.243e+04 5.388e-10
 77.36579    -37.6 1.283e+04 5.618e-10
 77.37571    -38.4 1.317e+04 7.519e-10
 77.39417    -38.3 1.356e+04 1.062e-09
 77.40699    -38.0 1.412e+04 1.687e-09
 77.41691    -39.3 1.338e+04 1.340e-09
 77.43385    -39.2 1.393e+04 2.169e-09
 77.45369    -38.9 1.454e+04 3.190e-09
 77.46852    -38.5 1.545e+04 4.597e-09
 77.47840    -39.8 1.697e+04 5.889e-09
 77.48770    -40.5 2.014e+04 9.003e-09
 77.49266    -39.7 1.781e+04 7.916e-09
 77.49824    -41.2 2.009e+04 1.070e-08
 77.50816    -41.8 2.208e+04 1.507e-08
 77.51808    -42.4 2.290e+04 1.952e-08
 77.52633    -42.6 2.279e+04 2.276e-08
 77.53129    -41.6 2.179e+04 1.482e-08
 77.53792    -42.2 2.161e+04 1.656e-08
 77.54784    -42.9 2.066e+04 1.742e-08
 77.55367    -43.1 2.002e+04 1.784e-08
 77.55863    -43.2 1.984e+04 1.690e-08
 77.57269    -43.2 1.970e+04 1.759e-08
 77.59258    -42.7 1.884e+04 1.412e-08
 77.60981    -42.0 1.807e+04 1.197e-08
 77.61973    -42.0 1.770e+04 1.050e-08
 77.63227    -40.9 1.715e+04 8.795e-09
 77.64586    -40.0 1.676e+04 7.228e-09
 77.65578    -38.6 1.688e+04 8.476e-09
 77.67195    -37.7 1.661e+04 7.513e-09
 77.69179    -36.8 1.631e+04 6.555e-09
 77.71164    -35.8 1.601e+04 5.585e-09
 77.73148    -34.7 1.566e+04 4.582e-09
 77.74175    -33.5 1.534e+04 3.567e-09
 77.75167    -33.7 1.480e+04 3.079e-09
 77.77116    -32.7 1.458e+04 2.403e-09
 77.79100    -31.6 1.437e+04 1.749e-09
 77.81084    -30.8 1.422e+04 1.183e-09
 77.83069    -30.5 1.380e+04 8.535e-10
 77.85053    -30.5 1.355e+04 7.735e-10
 77.86376    -31.4 1.440e+04 8.941e-10
 77.87368    -30.3 1.352e+04 6.661e-10
 77.88474    -31.6 1.459e+04 8.284e-10
 77.89466    -28.2 1.539e+04 8.708e-10
 77.91005    -29.7 1.625e+04 1.087e-09
 77.92990    -31.7 1.656e+04 1.604e-09
 77.94974    -33.4 1.613e+04 2.448e-09
 77.96958    -33.8 1.629e+04 3.758e-09
 77.98577    -33.3 1.696e+04 5.552e-09
 77.99569    -32.8 1.708e+04 5.207e-09
 78.00926    -32.3 1.786e+04 7.367e-09
 78.02911    -32.5 1.827e+04 9.278e-09
 78.04895    -32.9 1.845e+04 1.088e-08
 78.06879    -32.9 1.862e+04 1.242e-08
 78.08863    -32.6 1.881e+04 1.386e-08
 78.10778    -32.1 1.881e+04 1.442e-08
 78.11770    -31.2 1.959e+04 1.759e-08
 78.12361    -31.2 1.906e+04 1.596e-08
 78.13353    -29.6 2.071e+04 2.226e-08
 78.14816    -29.7 2.056e+04 2.033e-08
 78.16800    -29.8 2.031e+04 1.883e-08
 78.18784    -30.2 2.014e+04 1.730e-08
 78.20768    -31.5 1.983e+04 1.451e-08
 78.22752    -34.0 1.908e+04 1.132e-08
 78.23971    -36.6 1.859e+04 9.142e-09
 78.24964    -36.3 1.741e+04 7.118e-09
 78.26721    -37.2 1.772e+04 6.701e-09
 78.28705    -38.4 1.792e+04 6.554e-09
 78.30689    -40.0 1.742e+04 6.517e-09
 78.32673    -41.1 1.657e+04 6.791e-09
 78.34658    -41.4 1.590e+04 6.924e-09
 78.36173    -41.3 1.536e+04 6.727e-09
 78.36772    -40.1 1.536e+04 6.659e-09
 78.37241    -39.5 1.613e+04 9.550e-09
 78.38626    -39.4 1.547e+04 7.261e-09
 78.40610    -39.5 1.479e+04 5.711e-09
 78.42594    -40.0 1.470e+04 5.038e-09
 78.44579    -41.5 1.484e+04 4.807e-09
 78.46563    -43.4 1.491e+04 4.734e-09
 78.48374    -44.7 1.469e+04 4.674e-09
 78.49366    -45.7 1.505e+04 6.047e-09
 78.50531    -45.9 1.444e+04 5.713e-09
 78.52515    -45.4 1.391e+04 4.564e-09
 78.54500    -44.9 1.368e+04 3.295e-09
 78.56484    -45.4 1.366e+04 2.206e-09
 78.58468    -48.1 1.303e+04 1.384e-09
 78.60136    -51.1 1.144e+04 9.290e-10
 78.61128    -52.1 1.053e+04 6.786e-10
 78.61567    -52.6 1.029e+04 6.570e-10
 78.62559    -53.3 1.056e+04 8.211e-10
 78.64420    -52.6 1.060e+04 8.256e-10
 78.66405    -51.9 1.072e+04 8.186e-10
 78.68389    -51.5 1.089e+04 7.701e-10
 78.70373    -51.2 1.097e+04 7.303e-10
 78.72357    -51.0 1.098e+04 7.194e-10
 78.73768    -50.9 1.110e+04 7.249e-10
 78.74761    -52.3 1.116e+04 7.679e-10
 78.76326    -52.5 1.138e+04 8.742e-10
 78.78310    -52.8 1.176e+04 1.101e-09
 78.80294    -53.4 1.239e+04 1.533e-09
 78.82278    -53.8 1.320e+04 2.301e-09
 78.84024    -53.8 1.414e+04 3.520e-09
 78.85016    -53.7 1.354e+04 2.705e-09
 78.85970    -53.2 1.427e+04 3.715e-09
 78.86962    -52.7 1.313e+04 1.962e-09
 78.88231    -52.9 1.357e+04 2.187e-09
 78.90215    -53.8 1.389e+04 2.305e-09
 78.92199    -55.5 1.400e+04 2.372e-09
 78.94183    -57.9 1.394e+04 2.471e-09
 78.96167    -60.2 1.377e+04 2.629e-09
 78.98152    -61.6 1.350e+04 2.824e-09
 78.99163    -62.0 1.341e+04 2.966e-09
 79.00155    -62.5 1.383e+04 3.607e-09
 79.02120    -62.2 1.354e+04 3.322e-09
 79.04104    -61.8 1.304e+04 2.452e-09
 79.06088    -61.9 1.252e+04 1.671e-09
 79.07911    -62.8 1.196e+04 1.134e-09
 79.08903    -62.9 1.193e+04 1.105e-09
 79.10057    -63.9 1.134e+04 8.121e-10
 79.11364    -64.4 1.091e+04 6.690e-10
 79.12356    -66.2 1.077e+04 6.929e-10
 79.14025    -66.2 1.064e+04 6.765e-10
 79.16009    -65.9 1.060e+04 6.789e-10
 79.17994    -65.6 1.059e+04 7.212e-10
 79.19978    -65.2 1.064e+04 7.762e-10
 79.21962    -64.5 1.070e+04 8.262e-10
 79.23565    -63.9 1.075e+04 8.596e-10
 79.24557    -64.5 1.076e+04 8.601e-10
 79.25930    -63.9 1.074e+04 8.429e-10
 79.27915    -63.3 1.069e+04 7.861e-10
 79.29899    -62.8 1.062e+04 7.329e-10
 79.31799    -62.4 1.057e+04 6.953e-10
 79.32791    -62.8 1.053e+04 6.714e-10
 79.33867    -62.3 1.047e+04 6.516e-10
 79.35767    -61.8 1.047e+04 6.488e-10
 79.36759    -62.6 1.029e+04 5.392e-10
 79.37835    -62.1 1.035e+04 5.596e-10
 79.39820    -61.8 1.042e+04 5.820e-10
 79.41804    -61.5 1.055e+04 6.101e-10
 79.43788    -61.6 1.073e+04 6.588e-10
 79.45772    -61.9 1.095e+04 7.383e-10
 79.47756    -62.3 1.121e+04 8.601e-10
 79.48960    -62.6 1.149e+04 1.034e-09
 79.49952    -63.5 1.149e+04 1.084e-09
 79.51725    -63.5 1.172e+04 1.285e-09
 79.53709    -63.4 1.191e+04 1.482e-09
 79.55686    -63.5 1.200e+04 1.555e-09
 79.57671    -64.0 1.212e+04 1.686e-09
 79.60179    -63.2 1.204e+04 1.630e-09
 79.62173    -64.0 1.142e+04 1.338e-09
 79.64642    -63.3 1.053e+04 8.688e-10
 79.68610    -62.5 9.632e+03 4.936e-10
 79.72578    -62.1 8.946e+03 2.772e-10
 79.76547    -62.3 8.632e+03 1.977e-10
 79.79593    -62.0 8.740e+03 1.919e-10
 79.81578    -65.3 1.102e+04 6.076e-10
 79.84483    -65.5 1.134e+04 7.616e-10
 79.86565    -66.5 1.146e+04 8.742e-10
 79.87548    -68.1 1.200e+04 1.015e-09
 79.89424    -70.0 1.344e+04 1.740e-09
 79.91409    -71.5 1.497e+04 2.934e-09
 79.93393    -73.1 1.609e+04 5.032e-09
 79.95377    -74.1 1.694e+04 7.332e-09
 79.97361    -75.0 1.750e+04 9.404e-09
 79.98757    -75.7 1.773e+04 9.935e-09
 79.99749    -77.2 1.740e+04 8.470e-09
 80.01330    -78.6 1.681e+04 5.687e-09
 80.03314    -81.0 1.532e+04 3.043e-09
 80.04453    -83.7 1.299e+04 1.540e-09
 80.05446    -86.9 1.112e+04 8.624e-10
 80.07282    -87.4 1.063e+04 6.162e-10
 80.09266    -87.4 1.049e+04 4.993e-10
 80.10958    -87.2 1.037e+04 4.223e-10
 80.11950    -87.2 1.022e+04 3.654e-10
 80.13235    -86.9 1.013e+04 3.341e-10
 80.15219    -86.3 1.012e+04 3.224e-10
 80.17203    -86.0 1.010e+04 3.187e-10
 80.20189    -84.5 1.011e+04 3.329e-10
 80.24167    -83.2 1.019e+04 3.456e-10
 80.27134    -82.0 1.025e+04 3.301e-10
 80.28341    -81.7 1.027e+04 3.344e-10
 80.29343    -82.0 1.015e+04 2.874e-10
 80.32104    -80.5 1.031e+04 2.997e-10
 80.35380    -78.9 1.044e+04 3.160e-10
 80.37364    -78.8 1.074e+04 3.998e-10
 80.39039    -77.4 1.080e+04 4.153e-10
 80.41013    -76.9 1.077e+04 4.153e-10
 80.42998    -75.9 1.081e+04 4.256e-10
 80.44982    -75.5 1.077e+04 4.207e-10
 80.47968    -74.3 1.082e+04 4.309e-10
 80.51946    -73.1 1.079e+04 3.985e-10
 80.55914    -71.8 1.069e+04 3.687e-10
 80.59782    -70.6 1.054e+04 3.406e-10
 80.61767    -70.8 1.048e+04 3.395e-10
 80.63851    -69.5 1.032e+04 3.235e-10
 80.67819    -68.0 1.026e+04 3.241e-10
 80.71788    -66.7 1.029e+04 3.533e-10
 80.75143    -65.7 1.050e+04 4.115e-10
 80.77128    -65.4 1.055e+04 4.167e-10
 80.78723    -64.8 1.081e+04 5.361e-10
 80.80697    -64.8 1.091e+04 5.825e-10
 80.82681    -64.2 1.114e+04 6.952e-10
 80.84665    -64.0 1.128e+04 7.701e-10
 80.86150    -63.7 1.135e+04 8.178e-10
 80.87142    -63.8 1.130e+04 7.920e-10
 80.88634    -63.7 1.124e+04 7.922e-10
 80.90618    -63.5 1.109e+04 7.652e-10
 80.92602    -63.4 1.091e+04 7.028e-10
 80.94586    -63.2 1.073e+04 6.445e-10
 80.96571    -62.9 1.065e+04 6.008e-10
 80.98351    -62.4 1.071e+04 5.844e-10
 80.99343    -62.2 1.055e+04 5.580e-10
 81.00003    -62.0 1.047e+04 5.169e-10
 81.00996    -62.1 1.069e+04 5.905e-10
 81.03525    -61.6 1.045e+04 4.922e-10
 81.07503    -60.7 1.044e+04 4.799e-10
 81.10571    -59.8 1.046e+04 5.004e-10
 81.12546    -59.3 1.060e+04 5.666e-10
 81.15430    -58.4 1.079e+04 6.909e-10
 81.19408    -57.2 1.106e+04 8.720e-10
 81.22918    -56.1 1.139e+04 1.062e-09
 81.24903    -56.0 1.136e+04 1.043e-09
 81.27345    -54.9 1.169e+04 1.236e-09
 81.30312    -53.7 1.192e+04 1.431e-09
 81.32286    -53.5 1.191e+04 1.438e-09
 81.34270    -52.6 1.188e+04 1.440e-09
 81.35946    -52.4 1.181e+04 1.408e-09
 81.36948    -51.9 1.178e+04 1.383e-09
 81.39250    -50.3 1.145e+04 1.194e-09
 81.43219    -48.7 1.109e+04 9.758e-10
 81.47187    -47.3 1.069e+04 7.930e-10
 81.51155    -45.6 1.051e+04 7.082e-10
 81.55124    -44.0 1.048e+04 6.835e-10
 81.59092    -42.6 1.050e+04 6.854e-10
 81.61361    -41.5 1.053e+04 6.901e-10
 81.63345    -40.5 1.071e+04 8.020e-10
 81.67029    -39.4 1.064e+04 7.942e-10
 81.70693    -38.6 1.053e+04 6.953e-10
 81.72668    -38.2 1.117e+04 9.890e-10
 81.73542    -38.7 1.079e+04 8.318e-10
 81.74534    -37.4 1.098e+04 9.043e-10
 81.75938    -38.2 1.071e+04 7.300e-10
 81.77922    -39.6 1.043e+04 6.049e-10
 81.79907    -40.7 1.038e+04 6.311e-10
 81.81891    -41.6 1.049e+04 6.769e-10
 81.83875    -41.8 1.072e+04 7.978e-10
 81.85743    -41.8 1.091e+04 8.965e-10
 81.86736    -40.6 1.069e+04 7.791e-10
 81.87843    -40.6 1.076e+04 8.520e-10
 81.89828    -40.3 1.089e+04 9.049e-10
 81.91812    -40.1 1.096e+04 9.145e-10
 81.93796    -40.0 1.117e+04 9.172e-10
 81.95554    -40.6 1.169e+04 9.579e-10
 81.96546    -39.9 1.150e+04 9.338e-10
 81.97764    -40.6 1.204e+04 1.009e-09
 81.98937    -41.3 1.242e+04 1.159e-09
 81.99929    -39.1 1.217e+04 1.055e-09
 82.01733    -39.9 1.260e+04 1.273e-09
 82.03717    -40.2 1.241e+04 1.483e-09
 82.05701    -40.0 1.221e+04 1.628e-09
 82.07685    -39.2 1.215e+04 1.666e-09
 82.09669    -38.6 1.225e+04 1.506e-09
 82.11138    -38.3 1.229e+04 1.263e-09
 82.12130    -36.9 1.269e+04 2.005e-09
 82.13638    -36.7 1.268e+04 1.768e-09
 82.15622    -36.4 1.271e+04 1.487e-09
 82.17606    -36.3 1.253e+04 1.160e-09
 82.19441    -36.2 1.195e+04 8.635e-10
 82.20433    -34.7 1.276e+04 1.220e-09
 82.21575    -35.1 1.191e+04 8.353e-10
 82.23339    -35.5 1.076e+04 5.823e-10
 82.24331    -34.6 1.204e+04 9.931e-10
 82.25543    -35.5 1.087e+04 7.327e-10
 82.27527    -35.2 1.068e+04 6.803e-10
 82.29511    -34.6 1.108e+04 6.809e-10
 82.31496    -35.0 1.175e+04 7.639e-10
 82.33480    -36.6 1.274e+04 1.041e-09
 82.35464    -38.2 1.344e+04 1.590e-09
 82.36532    -39.6 1.405e+04 2.872e-09
 82.37525    -39.8 1.505e+04 4.675e-09
 82.39432    -39.6 1.567e+04 7.154e-09
 82.41416    -38.5 1.606e+04 8.408e-09
 82.43329    -37.9 1.596e+04 7.935e-09
 82.44321    -36.9 1.673e+04 1.069e-08
 82.45385    -35.6 1.600e+04 6.317e-09
 82.47369    -36.6 1.467e+04 2.449e-09
 82.48734    -41.9 1.223e+04 9.499e-10
 82.49726    -41.4 1.278e+04 1.103e-09
 82.51337    -44.2 1.080e+04 6.353e-10
 82.54323    -44.8 1.019e+04 5.151e-10
 82.58302    -44.5 9.528e+03 3.744e-10
 82.60954    -43.8 9.307e+03 3.329e-10
 82.62939    -44.1 9.052e+03 2.731e-10
 82.66238    -43.3 8.949e+03 2.606e-10
 82.70207    -41.1 8.997e+03 2.727e-10
 82.74175    -41.0 9.128e+03 3.348e-10
 82.78143    -40.9 9.264e+03 4.033e-10
 82.82112    -40.8 9.354e+03 4.383e-10
 82.85357    -41.2 9.318e+03 4.257e-10
 82.87341    -40.4 9.445e+03 4.434e-10
 82.90049    -41.9 8.795e+03 3.326e-10
 82.94017    -43.2 8.566e+03 2.839e-10
 82.97985    -44.6 8.589e+03 2.783e-10
 83.01954    -49.7 9.805e+03 3.860e-10
 83.04920    -58.8 1.124e+04 1.103e-09
 83.06895    -68.9 1.806e+04 3.502e-09
 83.08879    -77.9 2.183e+04 1.076e-08
 83.10732    -87.1 2.253e+04 1.653e-08
 83.11724    -91.7 2.236e+04 1.600e-08
 83.12847   -103.1 1.965e+04 9.906e-09
 83.14831   -115.5 1.492e+04 2.306e-09
 83.15983   -124.8 1.176e+04 7.170e-10
 83.16975   -126.8 1.152e+04 6.427e-10
 83.18800   -128.8 1.075e+04 4.844e-10
 83.20784   -129.3 1.065e+04 4.623e-10
 83.22768   -129.4 1.059e+04 4.563e-10
 83.23925   -129.2 1.056e+04 4.553e-10
 83.24917   -130.1 1.091e+04 6.217e-10
 83.26737   -129.7 1.087e+04 6.228e-10
 83.28721   -129.1 1.085e+04 6.772e-10
 83.30705   -128.6 1.104e+04 7.836e-10
 83.32689   -127.9 1.131e+04 9.345e-10
 83.34673   -127.1 1.166e+04 1.135e-09
 83.36126   -126.5 1.207e+04 1.381e-09
 83.37118   -126.6 1.195e+04 1.322e-09
 83.38642   -126.0 1.221e+04 1.482e-09
 83.39871   -125.6 1.239e+04 1.607e-09
 83.40863   -125.7 1.238e+04 1.573e-09
 83.42610   -125.3 1.250e+04 1.669e-09
 83.44594   -124.8 1.253e+04 1.708e-09
 83.46578   -124.2 1.253e+04 1.715e-09
 83.48328   -123.5 1.240e+04 1.672e-09
 83.49320   -123.4 1.220e+04 1.467e-09
 83.50547   -122.7 1.209e+04 1.399e-09
 83.52531   -122.1 1.193e+04 1.296e-09
 83.54515   -121.5 1.176e+04 1.181e-09
 83.56499   -120.9 1.157e+04 1.066e-09
 83.58484   -120.3 1.141e+04 9.653e-10
 83.60468   -119.7 1.129e+04 8.854e-10
 83.61521   -119.1 1.123e+04 8.215e-10
 83.62513   -119.1 1.109e+04 7.445e-10
 83.63758   -118.6 1.103e+04 6.889e-10
 83.64750   -118.9 1.134e+04 8.370e-10
 83.66420   -118.4 1.126e+04 7.633e-10
 83.68405   -118.0 1.117e+04 6.972e-10
 83.70389   -117.6 1.109e+04 6.477e-10
 83.72373   -117.2 1.107e+04 6.228e-10
 83.73722   -116.9 1.109e+04 6.166e-10
 83.74714   -117.4 1.113e+04 5.636e-10
 83.76341   -117.4 1.145e+04 6.356e-10
 83.78326   -117.5 1.194e+04 7.775e-10
 83.80310   -117.6 1.248e+04 1.006e-09
 83.82294   -117.6 1.306e+04 1.406e-09
 83.84278   -117.6 1.358e+04 1.964e-09
 83.85923   -117.5 1.405e+04 2.703e-09
 83.86915   -118.1 1.417e+04 2.902e-09
 83.87646   -118.0 1.460e+04 3.527e-09
 83.88638   -119.9 1.488e+04 3.684e-09
 83.90231   -120.1 1.524e+04 4.021e-09
 83.92215   -120.7 1.568e+04 4.320e-09
 83.94199   -122.0 1.620e+04 4.593e-09
 83.96183   -124.0 1.664e+04 4.851e-09
 83.98125   -126.0 1.682e+04 5.119e-09
 83.99117   -127.0 1.638e+04 4.697e-09
 84.00152   -128.2 1.626e+04 5.140e-09
 84.02136   -128.9 1.614e+04 5.455e-09
 84.04120   -129.1 1.579e+04 5.364e-09
 84.06104   -129.0 1.507e+04 4.434e-09
 84.08088   -128.6 1.427e+04 3.322e-09
 84.10073   -128.1 1.341e+04 2.290e-09
 84.11318   -127.7 1.265e+04 1.524e-09
 84.11786   -127.5 1.286e+04 1.773e-09
 84.12525   -128.5 1.239e+04 1.332e-09
 84.14041   -127.9 1.181e+04 9.110e-10
 84.16025   -127.2 1.136e+04 6.518e-10
 84.18009   -126.4 1.104e+04 4.926e-10
 84.19994   -125.4 1.079e+04 3.938e-10
 84.21978   -124.4 1.061e+04 3.389e-10
 84.24964   -122.6 1.044e+04 3.018e-10
 84.28942   -119.9 1.030e+04 2.863e-10
 84.32910   -117.2 1.015e+04 2.719e-10
 84.35740   -114.7 9.971e+03 2.461e-10
 84.37724   -113.9 1.012e+04 2.814e-10
 84.40847   -111.4 9.714e+03 2.129e-10
 84.44815   -108.7 9.359e+03 1.679e-10
 84.48784   -106.1 9.259e+03 1.516e-10
 84.52752   -103.6 9.248e+03 1.500e-10
 84.56721   -101.2 9.286e+03 1.589e-10
 84.59328    -98.8 9.336e+03 1.810e-10
 84.60765    -99.5 9.339e+03 1.759e-10
 84.62126    -98.6 9.318e+03 1.586e-10
 84.64657    -96.3 9.342e+03 1.777e-10
 84.68626    -93.9 9.364e+03 1.961e-10
 84.72594    -91.5 9.352e+03 2.056e-10
 84.76562    -89.1 9.338e+03 2.074e-10
 84.80531    -86.7 9.296e+03 2.039e-10
 84.84499    -84.4 9.296e+03 1.983e-10
 84.86529    -82.1 9.307e+03 1.979e-10
 84.88513    -81.5 9.288e+03 1.817e-10
 84.92436    -79.6 9.460e+03 1.956e-10
 84.96404    -78.1 9.676e+03 2.552e-10
 85.00373    -76.4 9.929e+03 3.646e-10
 85.04341    -74.6 1.022e+04 5.046e-10
 85.07103    -72.9 1.045e+04 6.131e-10
 85.09087    -73.7 1.014e+04 4.825e-10
 85.10931    -72.3 1.016e+04 4.984e-10
 85.12916    -71.8 1.034e+04 5.538e-10
 85.16246    -70.6 1.034e+04 5.577e-10
 85.20215    -69.5 1.024e+04 4.945e-10
 85.24183    -68.6 1.008e+04 3.967e-10
 85.28151    -67.9 9.959e+03 3.210e-10
 85.32120    -67.1 9.910e+03 2.830e-10
 85.35334    -66.3 9.903e+03 2.714e-10
 85.37318    -66.1 1.008e+04 3.389e-10
 85.40056    -65.1 1.004e+04 3.371e-10
 85.44025    -64.0 9.999e+03 3.556e-10
 85.47993    -62.7 9.970e+03 3.627e-10
 85.51962    -61.1 9.887e+03 3.528e-10
 85.54878    -59.4 9.802e+03 3.176e-10
 85.56862    -59.5 9.852e+03 3.023e-10
 85.59736    -57.8 9.802e+03 2.787e-10
 85.61720    -57.7 9.898e+03 3.078e-10
 85.63867    -56.2 9.969e+03 3.093e-10
 85.67835    -54.9 1.024e+04 3.480e-10
 85.71804    -54.3 1.080e+04 4.639e-10
 85.75772    -54.1 1.144e+04 7.353e-10
 85.79740    -53.7 1.203e+04 1.206e-09
 85.83709    -53.1 1.247e+04 1.597e-09
 85.86123    -52.7 1.255e+04 1.631e-09
 85.87105    -53.1 1.288e+04 1.941e-09
 85.88650    -52.9 1.286e+04 1.869e-09
 85.91636    -52.2 1.278e+04 1.700e-09
 85.95614    -51.7 1.272e+04 1.553e-09
 85.99582    -51.2 1.273e+04 1.542e-09
 86.02549    -51.1 1.299e+04 1.769e-09
 86.03625    -50.9 1.315e+04 1.887e-09
 86.04617    -51.9 1.301e+04 1.813e-09
 86.06507    -51.2 1.317e+04 1.941e-09
 86.08492    -51.0 1.324e+04 2.036e-09
 86.10476    -50.5 1.368e+04 2.293e-09
 86.11498    -50.7 1.415e+04 2.617e-09
 86.12490    -51.3 1.511e+04 3.787e-09
 86.14444    -51.5 1.570e+04 4.900e-09
 86.16428    -51.5 1.609e+04 6.455e-09
 86.18412    -50.9 1.641e+04 8.304e-09
 86.20397    -50.0 1.672e+04 9.629e-09
 86.22381    -49.4 1.697e+04 1.002e-08
 86.23699    -49.1 1.720e+04 1.025e-08
 86.24691    -49.5 1.767e+04 1.170e-08
 86.26349    -49.6 1.761e+04 1.124e-08
 86.27513    -49.5 1.757e+04 1.117e-08
 86.28505    -49.7 1.721e+04 1.088e-08
 86.30318    -49.3 1.717e+04 1.091e-08
 86.32302    -48.8 1.714e+04 1.078e-08
 86.34286    -48.4 1.713e+04 1.027e-08
 86.35900    -48.3 1.720e+04 9.886e-09
 86.36892    -48.8 1.718e+04 9.674e-09
 86.38254    -49.5 1.773e+04 1.039e-08
 86.40239    -51.2 1.855e+04 1.305e-08
 86.41722    -51.8 1.870e+04 1.438e-08
 86.42487    -52.7 1.902e+04 1.596e-08
 86.42983    -52.7 1.901e+04 1.655e-08
 86.43701    -53.7 1.944e+04 2.338e-08
 86.44693    -54.5 1.946e+04 2.987e-08
 86.45685    -54.3 1.984e+04 3.842e-08
 86.46677    -54.3 2.011e+04 4.435e-08
 86.47669    -54.0 2.052e+04 4.793e-08
 86.48588    -54.3 2.078e+04 4.638e-08
 86.49084    -54.7 2.110e+04 4.901e-08
 86.49654    -54.9 2.147e+04 4.159e-08
 86.50646    -55.7 2.170e+04 3.249e-08
 86.51391    -57.1 2.124e+04 2.479e-08
 86.51887    -56.8 2.098e+04 2.463e-08
 86.52630    -58.2 2.026e+04 1.941e-08
 86.54123    -59.3 1.937e+04 1.576e-08
 86.56112    -60.9 1.780e+04 1.076e-08
 86.58096    -61.3 1.653e+04 7.582e-09
 86.60080    -61.2 1.561e+04 5.220e-09
 86.61295    -61.0 1.478e+04 3.431e-09
 86.62287    -61.6 1.467e+04 2.800e-09
 86.64049    -62.0 1.365e+04 1.827e-09
 86.66033    -62.1 1.275e+04 1.382e-09
 86.68017    -61.7 1.227e+04 1.239e-09
 86.71003    -61.0 1.238e+04 1.330e-09
 86.74981    -59.1 1.229e+04 1.379e-09
 86.78950    -57.2 1.220e+04 1.375e-09
 86.82918    -55.1 1.191e+04 1.174e-09
 86.85717    -53.1 1.156e+04 9.359e-10
 86.87701    -53.8 1.143e+04 8.546e-10
 86.90855    -51.7 1.108e+04 6.554e-10
 86.94823    -49.3 1.084e+04 5.607e-10
 86.98203    -46.7 1.070e+04 5.116e-10
 87.00187    -46.9 1.063e+04 5.027e-10
 87.02760    -44.2 1.049e+04 4.562e-10
 87.06728    -41.3 1.041e+04 4.053e-10
 87.10119    -38.6 1.037e+04 3.483e-10
 87.12103    -38.6 1.021e+04 3.057e-10
 87.14665    -35.7 1.014e+04 2.667e-10
 87.18634    -33.0 1.013e+04 2.253e-10
 87.22602    -30.4 1.013e+04 1.905e-10
 87.26570    -28.0 1.023e+04 1.666e-10
 87.30539    -25.7 1.022e+04 1.749e-10
 87.34507    -23.2 1.020e+04 2.045e-10
 87.38475    -20.0 1.032e+04 2.558e-10
 87.42444    -17.7 1.055e+04 2.736e-10
 87.45978    -15.7 1.081e+04 3.139e-10
 87.47962    -15.7 1.074e+04 3.029e-10
 87.50381    -13.9 1.091e+04 3.726e-10
 87.54349    -11.9 1.101e+04 4.595e-10
 87.58317     -9.8 1.102e+04 5.082e-10
 87.60908     -7.7 1.099e+04 4.825e-10
 87.62892     -8.0 1.175e+04 9.370e-10
 87.66254     -6.4 1.176e+04 8.779e-10
 87.70222     -5.0 1.163e+04 7.566e-10
 87.74191     -3.7 1.143e+04 6.581e-10
 87.78159     -1.9 1.120e+04 5.717e-10
 87.82128      0.1 1.099e+04 4.987e-10
 87.85311      2.2 1.081e+04 4.313e-10
 87.87295      1.6 1.093e+04 4.948e-10
 87.90064      3.9 1.068e+04 3.744e-10
 87.93753      6.2 1.053e+04 2.896e-10
 87.95737      6.4 1.055e+04 2.884e-10
 87.98001      8.4 1.051e+04 2.497e-10
 88.01970     10.4 1.051e+04 2.421e-10
 88.05938     12.4 1.053e+04 2.523e-10
 88.09713     14.5 1.053e+04 2.679e-10
 88.11697     14.0 1.063e+04 2.789e-10
 88.13875     16.2 1.078e+04 3.250e-10
 88.17843     18.4 1.090e+04 3.696e-10
 88.21811     20.6 1.091e+04 3.780e-10
 88.25780     22.9 1.087e+04 3.605e-10
 88.29748     25.2 1.082e+04 3.149e-10
 88.33717     27.6 1.081e+04 2.676e-10
 88.36100     29.9 1.081e+04 2.329e-10
 88.38084     29.7 1.107e+04 3.498e-10
 88.41528     32.1 1.104e+04 3.253e-10
 88.43512     32.0 1.108e+04 3.070e-10
 88.45622     34.4 1.117e+04 3.010e-10
 88.49590     36.7 1.129e+04 3.056e-10
 88.53558     38.8 1.151e+04 3.238e-10
 88.57527     40.9 1.171e+04 3.569e-10
 88.60492     42.3 1.188e+04 3.822e-10
 88.62467     42.4 1.217e+04 6.969e-10
 88.64452     43.2 1.217e+04 7.197e-10
 88.66388     43.9 1.214e+04 7.503e-10
 88.67380     43.9 1.210e+04 6.263e-10
 88.68420     44.5 1.204e+04 6.705e-10
 88.70405     45.2 1.198e+04 7.199e-10
 88.72389     45.8 1.194e+04 7.716e-10
 88.73676     46.6 1.192e+04 8.223e-10
 88.74668     46.5 1.202e+04 9.765e-10
 88.76357     47.2 1.202e+04 9.723e-10
 88.78341     47.9 1.204e+04 9.653e-10
 88.80325     48.6 1.209e+04 9.656e-10
 88.82310     49.1 1.218e+04 9.776e-10
 88.84294     49.4 1.232e+04 1.007e-09
 88.85877     49.7 1.245e+04 1.054e-09
 88.86869     49.5 1.256e+04 1.212e-09
 88.88262     49.8 1.271e+04 1.298e-09
 88.90246     50.1 1.278e+04 1.326e-09
 88.91268     50.4 1.277e+04 1.319e-09
 88.92260     50.5 1.247e+04 1.048e-09
 88.94215     50.9 1.245e+04 1.020e-09
 88.96199     51.3 1.242e+04 9.505e-10
 88.98078     51.8 1.238e+04 8.531e-10
 88.99070     51.9 1.242e+04 9.741e-10
 89.00167     52.2 1.237e+04 8.459e-10
 89.02152     52.5 1.234e+04 7.325e-10
 89.04136     52.7 1.228e+04 6.361e-10
 89.06120     52.8 1.219e+04 5.726e-10
 89.09106     53.3 1.194e+04 5.150e-10
 89.11291     54.7 1.175e+04 4.579e-10
 89.13275     54.9 1.180e+04 5.502e-10
 89.17052     56.4 1.167e+04 4.590e-10
 89.21021     58.0 1.159e+04 3.731e-10
 89.24989     59.6 1.153e+04 3.339e-10
 89.28958     61.5 1.156e+04 3.361e-10
 89.32926     63.3 1.177e+04 3.667e-10
 89.35684     63.6 1.188e+04 3.923e-10
 89.36666     62.8 1.190e+04 3.891e-10
 89.37867     63.3 1.192e+04 4.302e-10
 89.39043     63.8 1.192e+04 4.956e-10
 89.40035     63.2 1.192e+04 4.941e-10
 89.41835     63.7 1.195e+04 5.653e-10
 89.43820     64.2 1.205e+04 6.388e-10
 89.45804     64.5 1.223e+04 7.273e-10
 89.47788     64.5 1.244e+04 8.419e-10
 89.48867     64.3 1.267e+04 1.003e-09
 89.49859     63.8 1.264e+04 8.307e-10
 89.51756     63.4 1.283e+04 1.056e-09
 89.53740     62.8 1.307e+04 1.359e-09
 89.55725     62.2 1.350e+04 1.812e-09
 89.57709     61.6 1.405e+04 2.435e-09
 89.59693     60.7 1.465e+04 3.093e-09
 89.61069     59.6 1.527e+04 3.629e-09
 89.62061     58.9 1.554e+04 3.989e-09
 89.62930     58.4 1.554e+04 3.913e-09
 89.63922     59.6 1.459e+04 2.246e-09
 89.65646     58.3 1.474e+04 2.282e-09
 89.67630     56.4 1.501e+04 2.490e-09
 89.69614     54.7 1.513e+04 2.926e-09
 89.71598     53.3 1.512e+04 3.475e-09
 89.73270     52.4 1.506e+04 4.002e-09
 89.74262     52.6 1.526e+04 4.826e-09
 89.75567     52.1 1.512e+04 4.555e-09
 89.77551     51.8 1.491e+04 4.013e-09
 89.79535     51.4 1.458e+04 3.325e-09
 89.81519     50.7 1.416e+04 2.606e-09
 89.83503     50.2 1.347e+04 1.930e-09
 89.85471     50.2 1.333e+04 1.828e-09
 89.86473     49.4 1.292e+04 1.500e-09
 89.86837     49.7 1.221e+04 1.105e-09
 89.88821     51.9 1.228e+04 1.116e-09
 89.92452     52.3 1.166e+04 7.431e-10
 89.96420     53.0 1.118e+04 5.095e-10
 90.00388     53.9 1.074e+04 4.387e-10
 90.04357     55.2 1.068e+04 4.384e-10
 90.08325     56.6 1.066e+04 4.513e-10
 90.10885     58.0 1.064e+04 4.811e-10
 90.12869     58.1 1.061e+04 4.850e-10
 90.16262     59.3 1.056e+04 4.815e-10
 90.20230     60.6 1.044e+04 4.507e-10
 90.24199     61.7 1.029e+04 3.963e-10
 90.28167     62.9 1.014e+04 3.265e-10
 90.32135     64.0 1.001e+04 2.526e-10
 90.34612     65.0 9.883e+03 1.838e-10
 90.35780     66.2 1.013e+04 2.778e-10
 90.37272     66.2 1.015e+04 2.846e-10
 90.40072     67.2 1.006e+04 2.167e-10
 90.44041     68.2 9.951e+03 1.538e-10
 90.48009     69.1 9.790e+03 1.153e-10
 90.51977     70.3 9.678e+03 1.097e-10
 90.55946     71.8 9.681e+03 1.129e-10
 90.59690     73.3 9.702e+03 1.296e-10
 90.61674     73.1 9.742e+03 1.462e-10
 90.63883     74.6 9.878e+03 1.984e-10
 90.67851     76.2 1.014e+04 2.888e-10
 90.71819     77.7 1.053e+04 4.324e-10
 90.75788     79.0 1.102e+04 6.423e-10
 90.79756     80.2 1.156e+04 9.241e-10
 90.82387     81.1 1.212e+04 1.242e-09
 90.84371     80.8 1.209e+04 1.274e-09
 90.86077     81.5 1.252e+04 1.515e-09
 90.88061     80.8 1.223e+04 1.362e-09
 90.91661     81.2 1.230e+04 1.354e-09
 90.95630     81.7 1.232e+04 1.307e-09
 90.99598     82.6 1.240e+04 1.246e-09
 91.03566     83.5 1.261e+04 1.276e-09
 91.06265     83.3 1.295e+04 1.369e-09
 91.07247     83.3 1.299e+04 1.390e-09
 91.08507     82.5 1.363e+04 1.773e-09
 91.10459     81.0 1.473e+04 2.832e-09
 91.11452     80.5 1.474e+04 2.946e-09
 91.12476     79.5 1.601e+04 5.277e-09
 91.14460     79.0 1.735e+04 9.350e-09
 91.16444     78.5 1.849e+04 1.465e-08
 91.18428     77.6 1.902e+04 1.675e-08
 91.20412     76.6 1.897e+04 1.627e-08
 91.22397     75.9 1.866e+04 1.397e-08
 91.23653     74.9 1.805e+04 1.035e-08
 91.24645     74.8 1.748e+04 7.712e-09
 91.26365     73.4 1.669e+04 5.424e-09
 91.28349     72.3 1.586e+04 3.986e-09
 91.30143     71.5 1.518e+04 3.191e-09
 91.31135     70.7 1.418e+04 1.852e-09
 91.32318     70.5 1.392e+04 1.751e-09
 91.34302     70.4 1.385e+04 1.751e-09
 91.35854     70.3 1.387e+04 1.802e-09
 91.36846     70.3 1.386e+04 1.824e-09
 91.38270     70.3 1.402e+04 1.997e-09
 91.40254     70.3 1.419e+04 2.141e-09
 91.42238     70.3 1.425e+04 2.151e-09
 91.44223     70.1 1.421e+04 2.110e-09
 91.46207     70.1 1.405e+04 1.935e-09
 91.48055     70.2 1.377e+04 1.647e-09
 91.49047     70.1 1.391e+04 1.820e-09
 91.50175     70.1 1.361e+04 1.481e-09
 91.52159     69.9 1.333e+04 1.210e-09
 91.54030     69.7 1.306e+04 1.054e-09
 91.55022     70.4 1.268e+04 7.587e-10
 91.56128     70.3 1.255e+04 7.576e-10
 91.58112     70.3 1.255e+04 7.721e-10
 91.60096     70.4 1.255e+04 8.321e-10
 91.61248     70.6 1.260e+04 9.494e-10
 91.62241     70.2 1.295e+04 1.233e-09
 91.64065     70.6 1.306e+04 1.438e-09
 91.66049     71.0 1.320e+04 1.650e-09
 91.68033     71.4 1.334e+04 1.809e-09
 91.70017     71.7 1.348e+04 1.924e-09
 91.72001     71.8 1.348e+04 1.921e-09
 91.73450     72.0 1.339e+04 1.875e-09
 91.74442     71.5 1.318e+04 1.710e-09
 91.75970     72.0 1.282e+04 1.457e-09
 91.77918     72.7 1.249e+04 1.226e-09
 91.78910     72.8 1.256e+04 1.296e-09
 91.79938     73.4 1.228e+04 1.081e-09
 91.81922     74.0 1.207e+04 9.160e-10
 91.83906     74.6 1.193e+04 8.111e-10
 91.85651     75.2 1.189e+04 7.633e-10
 91.86643     74.8 1.177e+04 6.950e-10
 91.87875     75.5 1.182e+04 7.045e-10
 91.89859     75.9 1.201e+04 7.517e-10
 91.91843     76.1 1.233e+04 8.644e-10
 91.93827     75.9 1.271e+04 1.056e-09
 91.95812     75.6 1.310e+04 1.364e-09
 91.97796     75.4 1.350e+04 1.810e-09
 91.98844     75.4 1.388e+04 2.333e-09
 91.99836     75.1 1.379e+04 2.366e-09
 92.01764     75.2 1.399e+04 2.647e-09
 92.02797     75.2 1.398e+04 2.617e-09
 92.03789     74.6 1.401e+04 2.578e-09
 92.05733     74.5 1.378e+04 2.257e-09
 92.07717     74.4 1.330e+04 1.685e-09
 92.09701     74.0 1.267e+04 1.131e-09
 92.11045     73.3 1.199e+04 7.373e-10
 92.12038     73.1 1.183e+04 6.687e-10
 92.13669     72.5 1.124e+04 4.747e-10
 92.15653     72.4 1.081e+04 3.731e-10
 92.17638     72.6 1.055e+04 3.201e-10
 92.19622     72.9 1.026e+04 3.072e-10
 92.22608     74.0 1.032e+04 3.164e-10
 92.25584     74.9 1.030e+04 3.189e-10
 92.26685     75.5 1.029e+04 3.289e-10
 92.27677     75.5 1.040e+04 3.383e-10
 92.29543     76.2 1.043e+04 3.564e-10
 92.31527     76.8 1.044e+04 3.622e-10
 92.33511     77.4 1.043e+04 3.605e-10
 92.35448     77.9 1.041e+04 3.539e-10
 92.36440     77.8 1.043e+04 3.561e-10
 92.38481     78.9 1.061e+04 3.812e-10
 92.42460     80.6 1.050e+04 3.547e-10
 92.46428     82.3 1.037e+04 3.397e-10
 92.48651     83.2 1.016e+04 3.252e-10
 92.49633     83.2 1.017e+04 3.253e-10
 92.50572     84.1 1.014e+04 3.390e-10
 92.51564     84.2 1.042e+04 3.973e-10
 92.53353     85.1 1.042e+04 4.289e-10
 92.55337     86.2 1.045e+04 4.631e-10
 92.57321     87.3 1.053e+04 5.023e-10
 92.59306     88.4 1.064e+04 5.516e-10
 92.60842     89.5 1.085e+04 6.216e-10
 92.61834     89.1 1.108e+04 6.828e-10
 92.63274     89.7 1.156e+04 8.379e-10
 92.65258     90.1 1.244e+04 1.117e-09
 92.67242     90.5 1.369e+04 1.632e-09
 92.69227     91.3 1.485e+04 2.321e-09
 92.71211     92.2 1.555e+04 2.794e-09
 92.72694     92.2 1.585e+04 3.052e-09
 92.73530     91.6 1.713e+04 3.779e-09
 92.74026     89.4 1.864e+04 5.346e-09
 92.74450     86.9 2.100e+04 8.462e-09
 92.74946     87.6 2.006e+04 5.799e-09
 92.75665     83.6 2.283e+04 1.086e-08
 92.76658     79.7 2.379e+04 2.252e-08
 92.77650     77.0 2.342e+04 4.489e-08
 92.78642     75.5 2.284e+04 7.938e-08
 92.79630     74.7 2.247e+04 1.212e-07
 92.80623     74.3 2.331e+04 1.276e-07
 92.81618     72.8 2.375e+04 1.185e-07
 92.82610     70.7 2.516e+04 8.972e-08
 92.83602     67.1 2.708e+04 5.209e-08
 92.84594     61.5 2.792e+04 2.610e-08
 92.85586     54.3 2.508e+04 1.409e-08
 92.86227     48.0 1.994e+04 1.018e-08
 92.86539     47.8 1.732e+04 7.821e-09
 92.86890     48.4 1.773e+04 6.862e-09
 92.87571     46.9 1.687e+04 6.764e-09
 92.88563     46.8 1.677e+04 6.890e-09
 92.89555     46.8 1.677e+04 7.115e-09
 92.90547     46.7 1.670e+04 7.129e-09
 92.91539     46.5 1.656e+04 7.075e-09
 92.92328     46.5 1.643e+04 6.905e-09
 92.92824     47.5 1.590e+04 5.963e-09
 92.93523     47.5 1.587e+04 5.923e-09
 92.94515     47.8 1.583e+04 5.752e-09
 92.95507     48.0 1.581e+04 5.632e-09
 92.96499     48.1 1.594e+04 5.388e-09
 92.97492     48.1 1.596e+04 5.275e-09
 92.98338     48.5 1.594e+04 4.884e-09
 92.98783     48.6 1.554e+04 4.155e-09
 92.99430     50.3 1.464e+04 3.538e-09
 93.00974     50.9 1.448e+04 3.002e-09
 93.02958     51.2 1.428e+04 2.608e-09
 93.04942     51.6 1.406e+04 2.450e-09
 93.06926     52.1 1.389e+04 2.419e-09
 93.08910     53.0 1.377e+04 2.425e-09
 93.10639     54.0 1.364e+04 2.431e-09
 93.11631     55.3 1.372e+04 2.362e-09
 93.12879     56.3 1.374e+04 2.491e-09
 93.14863     57.3 1.410e+04 2.798e-09
 93.16847     58.3 1.446e+04 3.119e-09
 93.18831     59.2 1.486e+04 3.469e-09
 93.20816     60.0 1.539e+04 3.922e-09
 93.22235     60.8 1.600e+04 4.484e-09
 93.23227     62.3 1.346e+04 2.057e-09
 93.23833     63.1 1.392e+04 2.230e-09
 93.24825     64.0 1.527e+04 3.342e-09
 93.26768     64.9 1.560e+04 3.645e-09
 93.28752     65.6 1.603e+04 4.139e-09
 93.30736     66.2 1.645e+04 4.876e-09
 93.32721     66.9 1.678e+04 5.879e-09
 93.34705     67.8 1.711e+04 7.122e-09
 93.36034     68.8 1.741e+04 8.326e-09
 93.37026     69.8 1.859e+04 1.062e-08
 93.38673     70.9 1.876e+04 1.146e-08
 93.40657     72.0 1.890e+04 1.196e-08
 93.42642     73.4 1.917e+04 1.252e-08
 93.44626     74.6 1.970e+04 1.365e-08
 93.46109     75.4 2.058e+04 1.522e-08
 93.46609     75.8 2.101e+04 1.623e-08
 93.47105     76.9 2.028e+04 1.662e-08
 93.48088     77.3 2.042e+04 1.760e-08
 93.48721     77.9 2.034e+04 1.816e-08
 93.49217     78.2 2.091e+04 1.891e-08
 93.50073     78.9 2.098e+04 1.972e-08
 93.51065     79.8 2.116e+04 2.054e-08
 93.52057     80.6 2.157e+04 2.168e-08
 93.53049     81.1 2.224e+04 2.328e-08
 93.54041     81.5 2.321e+04 2.583e-08
 93.54822     81.6 2.445e+04 3.047e-08
 93.55318     82.2 2.485e+04 3.126e-08
 93.56025     82.1 2.638e+04 4.008e-08
 93.57017     81.7 2.750e+04 5.720e-08
 93.58009     81.3 2.778e+04 8.833e-08
 93.58552     80.9 2.717e+04 1.351e-07
 93.59048     83.3 2.673e+04 5.872e-08
 93.59993     82.2 2.686e+04 1.102e-07
 93.60923     81.5 2.579e+04 2.006e-07
 93.61419     83.2 2.621e+04 1.922e-07
 93.61978     83.0 2.464e+04 2.984e-07
 93.62970     83.1 2.345e+04 4.050e-07
 93.63962     83.4 2.278e+04 5.233e-07
 93.64954     83.4 2.206e+04 6.433e-07
 93.65946     82.8 2.191e+04 6.521e-07
 93.66938     82.1 2.184e+04 6.053e-07
 93.67519     81.5 2.217e+04 4.889e-07
 93.68015     83.6 2.200e+04 5.175e-07
 93.68922     83.3 2.268e+04 3.931e-07
 93.69914     82.4 2.432e+04 2.644e-07
 93.70496     81.1 2.756e+04 1.398e-07
 93.70992     83.3 2.433e+04 2.848e-07
 93.71899     81.1 2.721e+04 1.502e-07
 93.72891     78.6 3.365e+04 5.183e-08
 93.73620     74.8 4.569e+04 1.245e-08
 93.74116     78.7 4.133e+04 2.524e-08
 93.74875     73.9 6.338e+04 3.724e-09
 93.75867     66.3 5.829e+04 2.737e-09
 93.76859     57.8 3.849e+04 4.417e-09
 93.77851     52.2 2.693e+04 6.480e-09
 93.78843     48.7 2.122e+04 9.405e-09
 93.79720     46.5 1.965e+04 1.175e-08
 93.80216     46.6 1.942e+04 1.297e-08
 93.80827     45.5 1.960e+04 1.819e-08
 93.81820     44.5 2.051e+04 2.555e-08
 93.82440     43.1 2.141e+04 3.128e-08
 93.82936     43.6 2.114e+04 2.432e-08
 93.83804     41.7 2.178e+04 2.549e-08
 93.84796     39.7 2.202e+04 2.503e-08
 93.85788     37.4 2.246e+04 2.292e-08
 93.86317     34.9 2.272e+04 1.983e-08
 93.86813     34.3 2.236e+04 2.271e-08
 93.87772     31.4 2.233e+04 1.885e-08
 93.88764     28.4 2.185e+04 1.530e-08
 93.90257     23.3 2.012e+04 1.145e-08
 93.92246     19.5 1.845e+04 8.816e-09
 93.93897     17.4 1.808e+04 7.192e-09
 93.94889     18.4 1.974e+04 1.088e-08
 93.96215     17.2 2.070e+04 1.049e-08
 93.97698     15.4 2.068e+04 7.892e-09
 93.98518     14.6 2.013e+04 6.907e-09
 93.99019     12.0 1.966e+04 5.680e-09
 94.00183      9.9 1.875e+04 4.546e-09
 94.02167      6.7 1.712e+04 3.794e-09
 94.04151      2.9 1.658e+04 3.752e-09
 94.06136     -1.6 1.656e+04 4.234e-09
 94.08120     -4.1 1.803e+04 5.572e-09
 94.10104     -4.9 1.922e+04 7.853e-09
 94.11225     -4.5 1.960e+04 1.072e-08
 94.12217     -4.4 1.779e+04 5.905e-09
 94.14072     -3.8 1.804e+04 7.335e-09
 94.16057     -2.9 1.814e+04 8.605e-09
 94.17785     -1.7 1.807e+04 9.405e-09
 94.18777     -3.3 1.887e+04 1.293e-08
 94.20025     -1.6 1.834e+04 1.183e-08
 94.22009     -0.0 1.797e+04 1.086e-08
 94.23427      1.3 1.753e+04 9.723e-09
 94.24419      1.0 1.627e+04 6.232e-09
 94.25978      2.5 1.577e+04 5.569e-09
 94.27962      4.0 1.532e+04 4.896e-09
 94.29946      5.4 1.495e+04 4.332e-09
 94.31930      6.6 1.464e+04 3.826e-09
 94.33914      7.8 1.435e+04 3.288e-09
 94.35628      9.3 1.393e+04 2.744e-09
 94.36620      9.1 1.327e+04 2.485e-09
 94.37883     10.6 1.300e+04 2.266e-09
 94.39867     12.0 1.285e+04 2.065e-09
 94.41672     13.3 1.269e+04 1.859e-09
 94.42664     12.2 1.200e+04 1.422e-09
 94.43835     13.7 1.171e+04 1.303e-09
 94.45819     15.0 1.153e+04 1.240e-09
 94.47804     16.5 1.138e+04 1.186e-09
 94.48821     17.8 1.129e+04 1.153e-09
 94.49813     17.8 1.136e+04 1.176e-09
 94.51772     19.2 1.127e+04 1.139e-09
 94.53756     20.4 1.122e+04 1.134e-09
 94.55740     22.1 1.117e+04 1.107e-09
 94.57725     22.8 1.118e+04 1.110e-09
 94.59709     24.8 1.116e+04 1.087e-09
 94.61022     25.7 1.120e+04 1.097e-09
 94.62014     25.5 1.137e+04 1.206e-09
 94.63677     26.7 1.141e+04 1.236e-09
 94.65560     27.9 1.150e+04 1.297e-09
 94.66552     27.9 1.099e+04 1.047e-09
 94.67646     28.9 1.098e+04 1.059e-09
 94.69630     30.2 1.096e+04 1.062e-09
 94.71614     31.3 1.096e+04 1.077e-09
 94.73224     32.4 1.095e+04 1.086e-09
 94.74216     32.1 1.133e+04 1.288e-09
 94.75582     33.3 1.126e+04 1.262e-09
 94.77566     34.4 1.120e+04 1.227e-09
 94.79551     35.6 1.112e+04 1.172e-09
 94.81535     36.8 1.098e+04 1.095e-09
 94.83519     38.0 1.080e+04 1.007e-09
 94.85425     39.3 1.065e+04 9.236e-10
 94.86417     39.0 1.055e+04 9.055e-10
 94.87487     40.4 1.038e+04 8.099e-10
 94.89447     41.7 1.020e+04 7.127e-10
 94.90439     41.8 1.005e+04 6.505e-10
 94.92458     43.6 9.892e+03 5.384e-10
 94.96436     46.2 9.740e+03 4.500e-10
 95.00404     48.9 9.736e+03 3.990e-10
 95.04373     51.8 9.829e+03 3.677e-10
 95.08341     54.8 1.001e+04 3.532e-10
 95.10839     58.0 1.016e+04 3.573e-10
 95.12823     56.1 1.040e+04 3.703e-10
 95.14337     58.2 1.043e+04 3.734e-10
 95.15319     58.8 1.036e+04 3.649e-10
 95.17250     60.1 1.052e+04 4.052e-10
 95.19234     61.3 1.072e+04 4.893e-10
 95.21219     62.5 1.092e+04 5.943e-10
 95.23020     63.7 1.113e+04 7.145e-10
 95.24013     62.6 1.109e+04 8.135e-10
 95.25187     63.9 1.128e+04 9.124e-10
 95.27171     65.3 1.155e+04 1.033e-09
 95.29155     66.6 1.172e+04 1.198e-09
 95.31140     67.9 1.188e+04 1.318e-09
 95.33124     69.1 1.204e+04 1.402e-09
 95.35108     70.2 1.221e+04 1.462e-09
 95.36214     71.2 1.235e+04 1.512e-09
 95.37206     69.9 1.150e+04 9.242e-10
 95.38215     70.8 1.150e+04 9.072e-10
 95.39207     71.4 1.181e+04 1.147e-09
 95.41061     72.3 1.178e+04 1.132e-09
 95.43045     73.3 1.175e+04 1.112e-09
 95.45029     74.4 1.171e+04 1.088e-09
 95.47013     75.4 1.169e+04 1.069e-09
 95.48415     76.4 1.172e+04 1.060e-09
 95.49407     75.0 1.126e+04 7.382e-10
 95.50981     76.1 1.146e+04 8.079e-10
 95.52966     77.2 1.163e+04 9.075e-10
 95.54950     78.2 1.200e+04 1.063e-09
 95.56934     79.2 1.274e+04 1.389e-09
 95.58918     80.7 1.335e+04 1.787e-09
 95.60402     81.9 1.346e+04 1.911e-09
 95.61102     83.2 1.356e+04 1.997e-09
 95.61599     82.7 1.349e+04 1.939e-09
 95.62092     80.3 1.813e+04 2.343e-09
 95.62588     83.1 1.422e+04 1.899e-09
 95.63373     77.3 2.391e+04 2.944e-09
 95.64365     66.4 3.160e+04 1.479e-08
 95.65357     63.7 2.517e+04 1.412e-07
 95.66349     64.8 2.156e+04 6.874e-07
 95.67091     64.9 2.042e+04 1.418e-06
 95.67446     65.4 1.926e+04 3.308e-06
 95.67694     65.0 1.900e+04 3.796e-06
 95.68059     65.3 1.798e+04 1.033e-05
 95.68307     64.7 1.778e+04 1.302e-05
 95.68577     63.0 1.682e+04 3.157e-05
 95.69073     58.6 1.688e+04 3.237e-05
 95.69569     55.5 1.746e+04 1.967e-05
 95.70065     55.5 1.860e+04 6.898e-06
 95.70497     55.6 2.037e+04 2.044e-06
 95.70745     55.4 2.142e+04 1.067e-06
 95.71307     56.4 2.092e+04 9.199e-07
 95.72302     57.0 2.231e+04 3.311e-07
 95.73294     56.6 2.598e+04 1.106e-07
 95.73800     53.9 3.409e+04 3.036e-08
 95.74046     50.3 3.986e+04 9.767e-09
 95.74532     53.2 3.277e+04 2.734e-08
 95.75278     48.6 3.910e+04 1.038e-08
 95.76270     41.4 3.484e+04 5.643e-09
 95.77262     32.9 2.086e+04 5.462e-09
 95.78254     28.0 1.590e+04 6.428e-09
 95.79246     26.5 1.606e+04 7.839e-09
 95.79900     26.3 1.660e+04 9.927e-09
 95.80396     26.6 1.629e+04 9.390e-09
 95.81231     26.5 1.666e+04 1.012e-08
 95.82223     26.1 1.714e+04 1.038e-08
 95.83215     25.2 1.790e+04 1.053e-08
 95.84207     22.4 1.983e+04 1.082e-08
 95.85199     18.7 2.121e+04 1.048e-08
 95.85980     12.2 2.170e+04 9.765e-09
 95.86286     13.6 2.173e+04 1.126e-08
 95.86497     13.2 2.149e+04 1.154e-08
 95.87183     10.7 2.102e+04 1.096e-08
 95.88676      7.3 2.028e+04 1.084e-08
 95.90665      2.8 1.908e+04 8.892e-09
 95.92649     -0.6 1.646e+04 5.794e-09
 95.94634     -2.2 1.418e+04 3.614e-09
 95.96618     -2.3 1.319e+04 2.272e-09
 95.98212     -3.0 1.306e+04 1.366e-09
 95.99204     -3.0 1.283e+04 1.377e-09
 96.00586     -4.5 1.255e+04 8.088e-10
 96.03572     -8.2 1.091e+04 3.955e-10
 96.07550     -9.0 1.001e+04 3.256e-10
 96.09897     -8.7 9.433e+03 2.369e-10
 96.10795     -7.5 1.016e+04 3.410e-10
 96.12417     -5.8 1.015e+04 3.645e-10
 96.15487     -6.3 9.541e+03 2.145e-10
 96.19456     -7.7 9.090e+03 1.531e-10
 96.23424     -8.7 9.056e+03 1.664e-10
 96.27392     -9.1 9.212e+03 2.283e-10
 96.31361     -8.5 9.526e+03 3.240e-10
 96.34835     -7.6 9.607e+03 3.612e-10
 96.36819     -5.5 9.587e+03 3.550e-10
 96.39297     -5.1 9.535e+03 3.285e-10
 96.43266     -5.5 9.577e+03 3.049e-10
 96.47234     -6.7 9.608e+03 3.062e-10
 96.51203     -8.0 9.632e+03 3.340e-10
 96.55171     -9.4 9.746e+03 3.808e-10
 96.57672    -11.1 9.827e+03 4.128e-10
 96.59656    -11.6 9.617e+03 3.573e-10
 96.61222    -13.0 9.318e+03 3.107e-10
 96.63206    -11.6 9.323e+03 3.121e-10
 96.67076    -12.9 8.969e+03 2.479e-10
 96.71044    -14.2 8.697e+03 2.042e-10
 96.75013    -14.6 8.633e+03 2.004e-10
 96.78981    -14.4 8.660e+03 2.104e-10
 96.82950    -13.5 8.720e+03 2.257e-10
 96.85624    -12.1 8.798e+03 2.377e-10
 96.87608    -11.2 8.893e+03 2.565e-10
 96.90886     -9.7 8.909e+03 2.573e-10
 96.94855     -8.1 8.956e+03 2.726e-10
 96.98823     -6.3 9.041e+03 2.968e-10
 97.02792     -4.2 9.145e+03 3.155e-10
 97.05447     -2.1 9.264e+03 3.318e-10
 97.07431     -2.9 9.385e+03 3.531e-10
 97.10027     -1.4 9.730e+03 4.187e-10
 97.12011     -0.5 9.857e+03 4.404e-10
 97.14697      0.8 1.043e+04 5.992e-10
 97.18665      2.0 1.091e+04 7.589e-10
 97.22633      3.3 1.117e+04 8.494e-10
 97.26602      4.6 1.135e+04 9.016e-10
 97.30570      4.9 1.178e+04 1.024e-09
 97.33537      3.2 1.317e+04 1.720e-09
 97.35402      3.1 1.373e+04 2.463e-09
 97.36394      3.8 1.405e+04 2.781e-09
 97.37495      2.8 1.522e+04 4.290e-09
 97.39479     -3.5 2.038e+04 1.048e-08
 97.40963     -6.5 2.243e+04 1.409e-08
 97.41745    -10.3 2.375e+04 2.308e-08
 97.42241    -10.7 2.308e+04 2.725e-08
 97.42485    -12.0 2.252e+04 3.626e-08
 97.42981    -13.0 2.237e+04 4.362e-08
 97.43934    -14.3 2.187e+04 5.140e-08
 97.44926    -15.1 2.161e+04 4.764e-08
 97.45918    -15.1 2.123e+04 3.928e-08
 97.46910    -15.2 2.170e+04 2.605e-08
 97.47903    -16.3 2.248e+04 1.729e-08
 97.48590    -17.0 2.232e+04 1.089e-08
 97.49587    -20.2 2.205e+04 5.948e-09
 97.51385    -28.4 1.600e+04 1.535e-09
 97.53202    -34.3 1.124e+04 6.729e-10
 97.54194    -36.2 1.177e+04 7.672e-10
 97.55353    -37.0 1.192e+04 7.820e-10
 97.57337    -37.5 1.218e+04 8.647e-10
 97.59321    -37.8 1.228e+04 1.001e-09
 97.60796    -37.7 1.206e+04 1.192e-09
 97.61788    -38.4 1.177e+04 1.172e-09
 97.63290    -37.7 1.161e+04 1.253e-09
 97.65274    -36.9 1.152e+04 1.310e-09
 97.67258    -35.9 1.170e+04 1.339e-09
 97.69242    -35.1 1.183e+04 1.335e-09
 97.71227    -34.5 1.187e+04 1.330e-09
 97.72997    -34.1 1.201e+04 1.283e-09
 97.73989    -35.2 1.182e+04 1.029e-09
 97.75195    -35.3 1.170e+04 9.433e-10
 97.77090    -35.7 1.139e+04 8.779e-10
 97.78082    -37.6 1.081e+04 6.988e-10
 97.79163    -37.6 1.081e+04 6.990e-10
 97.81147    -37.7 1.085e+04 7.496e-10
 97.83132    -38.1 1.106e+04 7.989e-10
 97.85116    -39.0 1.167e+04 8.629e-10
 97.86191    -40.5 1.223e+04 9.948e-10
 97.87183    -40.6 1.181e+04 7.950e-10
 97.89084    -42.1 1.208e+04 9.583e-10
 97.91068    -43.0 1.216e+04 1.181e-09
 97.93053    -43.3 1.214e+04 1.372e-09
 97.95037    -43.3 1.215e+04 1.440e-09
 97.97021    -43.5 1.205e+04 1.399e-09
 97.98392    -44.0 1.192e+04 1.330e-09
 97.99384    -44.5 1.167e+04 1.164e-09
 98.00977    -45.2 1.158e+04 1.135e-09
 98.01969    -46.6 1.239e+04 1.635e-09
 98.02974    -47.4 1.247e+04 1.669e-09
 98.04958    -48.4 1.272e+04 1.834e-09
 98.06942    -49.5 1.291e+04 2.075e-09
 98.08926    -50.1 1.303e+04 2.342e-09
 98.10593    -50.3 1.308e+04 2.518e-09
 98.11585    -50.2 1.287e+04 2.271e-09
 98.12895    -50.0 1.297e+04 2.382e-09
 98.14879    -49.8 1.290e+04 2.241e-09
 98.16863    -49.5 1.263e+04 1.822e-09
 98.18847    -49.5 1.211e+04 1.338e-09
 98.20831    -49.8 1.129e+04 9.003e-10
 98.22794    -49.6 1.085e+04 6.461e-10
 98.23786    -49.3 1.116e+04 7.619e-10
 98.25802    -50.6 1.033e+04 4.600e-10
 98.29780    -50.0 9.858e+03 3.383e-10
 98.33748    -48.6 9.428e+03 2.792e-10
 98.36007    -47.0 9.280e+03 2.697e-10
 98.37991    -46.8 9.480e+03 3.157e-10
 98.41685    -45.0 9.371e+03 3.124e-10
 98.45653    -42.9 9.241e+03 2.961e-10
 98.48772    -40.9 9.112e+03 2.529e-10
 98.50756    -40.9 9.046e+03 2.185e-10
 98.53590    -39.3 8.873e+03 1.642e-10
 98.57558    -38.3 8.732e+03 1.384e-10
 98.60410    -37.5 8.748e+03 1.377e-10
 98.62394    -37.4 8.948e+03 1.647e-10
 98.65495    -37.1 9.024e+03 2.171e-10
 98.69463    -35.9 9.235e+03 3.040e-10
 98.73432    -34.5 9.485e+03 3.460e-10
 98.77400    -33.7 9.498e+03 3.348e-10
 98.81369    -33.2 9.437e+03 2.887e-10
 98.84812    -33.2 9.323e+03 2.640e-10
 98.86796    -33.2 9.329e+03 2.730e-10
 98.89305    -32.6 9.082e+03 2.621e-10
 98.93274    -31.2 8.807e+03 2.326e-10
 98.96547    -29.7 8.576e+03 1.843e-10
 98.98531    -28.9 8.614e+03 1.868e-10
 99.01210    -28.0 8.466e+03 1.367e-10
 99.05179    -27.7 8.319e+03 1.209e-10
 99.09147    -27.1 8.305e+03 1.286e-10
 99.11199    -26.7 8.476e+03 1.616e-10
 99.13183    -26.5 8.649e+03 1.795e-10
 99.17084    -27.1 9.379e+03 2.999e-10
 99.21052    -26.7 9.800e+03 5.276e-10
 99.25021    -25.8 9.668e+03 5.249e-10
 99.28989    -25.6 9.347e+03 3.831e-10
 99.31956    -26.4 9.171e+03 2.917e-10
 99.33930    -26.7 9.129e+03 2.878e-10
 99.35582    -27.5 9.056e+03 3.151e-10
 99.36574    -26.8 8.910e+03 2.795e-10
 99.37898    -27.8 9.015e+03 3.061e-10
 99.39883    -31.9 1.063e+04 5.375e-10
 99.41867    -38.2 1.314e+04 1.421e-09
 99.43851    -42.1 1.412e+04 3.385e-09
 99.45289    -42.8 1.498e+04 5.481e-09
 99.46281    -43.4 1.502e+04 5.344e-09
 99.47318    -44.0 1.601e+04 6.650e-09
 99.48269    -44.9 1.649e+04 7.070e-09
 99.48765    -44.2 1.641e+04 7.091e-09
 99.49298    -46.2 1.645e+04 6.732e-09
 99.50290    -47.2 1.685e+04 6.493e-09
 99.51783    -51.4 1.566e+04 4.405e-09
 99.53772    -56.4 1.359e+04 3.078e-09
 99.55756    -57.8 1.288e+04 2.589e-09
 99.57740    -58.5 1.230e+04 2.086e-09
 99.59725    -59.0 1.186e+04 1.602e-09
 99.60976    -60.1 1.163e+04 1.266e-09
 99.61968    -59.4 1.149e+04 1.279e-09
 99.63693    -60.8 1.144e+04 1.068e-09
 99.65677    -62.9 1.174e+04 1.025e-09
 99.67661    -65.6 1.233e+04 1.212e-09
 99.69182    -67.8 1.262e+04 1.733e-09
 99.70174    -68.5 1.294e+04 2.426e-09
 99.71630    -68.9 1.312e+04 3.116e-09
 99.73177    -69.1 1.343e+04 3.569e-09
 99.74169    -69.5 1.340e+04 3.473e-09
 99.75598    -70.2 1.399e+04 3.853e-09
 99.77582    -72.8 1.472e+04 4.022e-09
 99.79566    -76.9 1.524e+04 4.108e-09
 99.81551    -80.9 1.518e+04 4.374e-09
 99.83535    -83.8 1.502e+04 4.521e-09
 99.85378    -85.6 1.464e+04 4.351e-09
 99.86371    -84.3 1.399e+04 3.282e-09
 99.87503    -85.8 1.361e+04 2.756e-09
 99.89487    -87.1 1.299e+04 2.135e-09
 99.91472    -87.9 1.238e+04 1.709e-09
 99.93069    -88.0 1.197e+04 1.408e-09
 99.94061    -87.8 1.210e+04 1.529e-09
 99.95440    -87.5 1.190e+04 1.302e-09
 99.97424    -86.8 1.169e+04 1.060e-09
 99.98572    -86.1 1.151e+04 8.340e-10
 99.99564    -84.8 1.163e+04 9.978e-10
