# Columns:
#   distance along LOS (in CHIMPs)
#   peculiar velocity  (in km/s)
#   temperature (K)
#   HI number density
# pos=(142.741,113.409,233.988), angles=(1.68684,3.13201)
  0.01916     40.5 1.061e+04 4.586e-10
  0.05798     42.3 1.132e+04 6.530e-10
  0.08738     42.9 1.195e+04 1.044e-09
  0.10695     43.6 1.237e+04 1.412e-09
  0.12661     44.5 1.285e+04 1.863e-09
  0.14467     45.7 1.306e+04 2.076e-09
  0.15450     45.6 1.389e+04 2.997e-09
  0.16594     46.9 1.390e+04 2.985e-09
  0.18561     48.4 1.364e+04 2.607e-09
  0.20527     50.0 1.318e+04 1.968e-09
  0.22493     51.1 1.272e+04 1.339e-09
  0.24460     51.0 1.217e+04 8.437e-10
  0.26426     50.5 1.153e+04 5.495e-10
  0.28393     50.3 1.087e+04 4.502e-10
  0.30359     50.4 1.069e+04 4.535e-10
  0.31750     50.8 1.078e+04 4.852e-10
  0.32734     50.8 1.119e+04 6.219e-10
  0.34292     51.3 1.123e+04 6.669e-10
  0.36259     52.2 1.144e+04 8.050e-10
  0.38225     52.5 1.155e+04 8.551e-10
  0.40191     53.5 1.177e+04 1.025e-09
  0.42158     54.0 1.185e+04 1.082e-09
  0.44124     55.2 1.175e+04 1.067e-09
  0.46091     55.7 1.173e+04 1.061e-09
  0.48050     57.2 1.145e+04 9.364e-10
  0.50017     57.4 1.152e+04 9.860e-10
  0.52983     59.5 1.098e+04 6.747e-10
  0.56926     61.7 1.051e+04 4.609e-10
  0.60859     63.8 1.012e+04 3.176e-10
  0.64370     65.8 9.868e+03 2.358e-10
  0.66336     65.8 1.018e+04 3.493e-10
  0.68724     67.9 9.998e+03 2.930e-10
  0.72657     70.2 9.896e+03 2.752e-10
  0.76590     72.6 9.892e+03 2.823e-10
  0.80523     75.1 9.922e+03 3.024e-10
  0.84456     77.7 9.997e+03 3.374e-10
  0.88389     80.2 1.009e+04 3.744e-10
  0.92322     82.8 1.018e+04 4.024e-10
  0.96254     85.2 1.021e+04 4.119e-10
  0.98936     87.6 1.020e+04 4.068e-10
  1.00902     87.0 1.010e+04 3.755e-10
  1.04120     89.4 9.936e+03 3.197e-10
  1.08053     91.7 9.741e+03 2.500e-10
  1.11986     94.0 9.548e+03 1.865e-10
  1.15919     96.0 9.380e+03 1.429e-10
  1.19852     97.9 9.274e+03 1.281e-10
  1.23785    100.0 9.268e+03 1.298e-10
  1.27718    102.1 9.295e+03 1.412e-10
  1.31536    104.2 9.407e+03 1.712e-10
  1.33502    103.8 9.260e+03 1.424e-10
  1.35583    106.2 9.425e+03 1.817e-10
  1.39516    108.6 9.626e+03 2.226e-10
  1.43449    110.9 9.769e+03 2.412e-10
  1.47382    113.0 9.773e+03 2.391e-10
  1.49621    115.2 9.745e+03 2.252e-10
  1.51588    115.2 9.754e+03 2.277e-10
  1.55248    117.5 9.715e+03 2.077e-10
  1.59181    119.9 9.729e+03 2.029e-10
  1.63113    122.3 9.791e+03 2.090e-10
  1.66102    124.7 9.942e+03 2.303e-10
  1.68068    124.6 1.001e+04 2.550e-10
  1.70979    127.2 1.025e+04 3.043e-10
  1.74912    129.7 1.044e+04 3.522e-10
  1.78845    132.2 1.062e+04 3.933e-10
  1.81785    133.9 1.058e+04 3.569e-10
  1.83366    134.7 1.056e+04 3.379e-10
  1.84349    134.9 1.064e+04 3.617e-10
  1.85708    136.2 1.066e+04 3.493e-10
  1.87674    137.3 1.067e+04 3.419e-10
  1.89641    138.3 1.063e+04 3.339e-10
  1.91607    139.2 1.059e+04 3.311e-10
  1.93574    140.3 1.058e+04 3.369e-10
  1.95540    141.3 1.069e+04 3.573e-10
  1.97507    141.6 1.084e+04 4.017e-10
  1.99473    141.3 1.115e+04 5.137e-10
  2.00649    140.1 1.207e+04 8.370e-10
  2.01632    138.2 1.346e+04 1.469e-09
  2.03406    136.1 1.520e+04 3.136e-09
  2.05372    134.2 1.673e+04 6.386e-09
  2.07339    132.7 1.802e+04 1.048e-08
  2.09305    130.7 1.905e+04 1.169e-08
  2.11272    128.0 1.916e+04 1.124e-08
  2.13238    125.0 1.924e+04 9.050e-09
  2.15205    121.9 1.860e+04 6.174e-09
  2.16949    119.0 1.714e+04 3.998e-09
  2.17932    115.2 1.596e+04 3.336e-09
  2.19137    113.8 1.469e+04 2.745e-09
  2.21104    113.3 1.401e+04 2.358e-09
  2.23070    113.1 1.359e+04 2.111e-09
  2.25037    113.1 1.327e+04 1.953e-09
  2.27003    113.2 1.299e+04 1.872e-09
  2.28970    113.3 1.289e+04 1.843e-09
  2.30936    113.6 1.287e+04 1.801e-09
  2.32903    113.8 1.284e+04 1.714e-09
  2.34232    114.0 1.277e+04 1.604e-09
  2.35215    113.1 1.248e+04 1.205e-09
  2.36835    113.0 1.242e+04 1.106e-09
  2.38802    112.8 1.245e+04 1.099e-09
  2.40768    112.7 1.254e+04 1.138e-09
  2.42735    112.6 1.278e+04 1.260e-09
  2.44701    112.3 1.313e+04 1.510e-09
  2.46668    112.1 1.358e+04 1.920e-09
  2.48634    111.7 1.417e+04 2.560e-09
  2.50532    111.2 1.490e+04 3.530e-09
  2.51515    110.4 1.457e+04 3.214e-09
  2.52567    109.8 1.529e+04 4.368e-09
  2.54533    109.2 1.603e+04 5.876e-09
  2.56500    108.7 1.647e+04 7.310e-09
  2.58466    108.3 1.673e+04 7.835e-09
  2.60433    107.9 1.668e+04 7.412e-09
  2.62399    107.4 1.644e+04 6.405e-09
  2.64366    107.0 1.601e+04 5.159e-09
  2.66332    106.4 1.547e+04 4.074e-09
  2.67815    105.7 1.495e+04 3.347e-09
  2.68798    106.0 1.410e+04 2.116e-09
  2.70265    105.6 1.375e+04 1.899e-09
  2.72231    105.5 1.359e+04 1.882e-09
  2.74198    105.7 1.365e+04 1.980e-09
  2.76164    106.0 1.379e+04 2.211e-09
  2.78131    106.4 1.404e+04 2.510e-09
  2.80097    106.9 1.428e+04 2.972e-09
  2.82064    107.4 1.455e+04 3.440e-09
  2.84030    108.0 1.505e+04 3.895e-09
  2.85098    108.7 1.532e+04 4.533e-09
  2.86081    109.6 1.437e+04 3.057e-09
  2.87963    110.4 1.465e+04 3.662e-09
  2.89929    111.3 1.496e+04 4.289e-09
  2.91896    112.3 1.534e+04 4.932e-09
  2.93862    113.4 1.567e+04 5.525e-09
  2.95829    114.4 1.580e+04 5.785e-09
  2.97795    115.3 1.573e+04 5.628e-09
  2.99762    116.5 1.545e+04 5.132e-09
  3.01398    117.8 1.506e+04 4.437e-09
  3.02381    118.3 1.495e+04 4.122e-09
  3.03694    119.6 1.455e+04 3.507e-09
  3.05661    120.8 1.407e+04 2.865e-09
  3.07627    122.0 1.358e+04 2.292e-09
  3.09594    123.2 1.312e+04 1.822e-09
  3.11560    124.4 1.273e+04 1.464e-09
  3.13527    125.5 1.238e+04 1.179e-09
  3.15493    126.6 1.204e+04 9.498e-10
  3.17460    127.8 1.172e+04 7.774e-10
  3.18681    129.1 1.145e+04 6.602e-10
  3.19664    129.1 1.162e+04 7.585e-10
  3.21392    130.4 1.146e+04 6.863e-10
  3.23359    131.6 1.136e+04 6.426e-10
  3.25325    132.8 1.126e+04 6.207e-10
  3.27292    134.1 1.121e+04 6.183e-10
  3.29258    135.4 1.121e+04 6.230e-10
  3.31225    136.7 1.124e+04 6.478e-10
  3.33191    137.9 1.133e+04 6.978e-10
  3.34981    139.0 1.143e+04 7.615e-10
  3.35964    138.8 1.172e+04 1.021e-09
  3.37124    139.8 1.181e+04 1.132e-09
  3.39090    141.0 1.191e+04 1.258e-09
  3.41057    142.1 1.200e+04 1.400e-09
  3.43023    143.1 1.210e+04 1.536e-09
  3.44990    144.0 1.220e+04 1.659e-09
  3.46956    145.0 1.234e+04 1.753e-09
  3.48923    145.8 1.247e+04 1.829e-09
  3.50889    146.4 1.261e+04 1.917e-09
  3.52264    147.1 1.278e+04 2.057e-09
  3.53247    146.3 1.272e+04 1.905e-09
  3.54431    146.8 1.293e+04 1.992e-09
  3.55414    146.7 1.247e+04 1.592e-09
  3.56788    146.8 1.274e+04 1.674e-09
  3.58755    146.7 1.304e+04 1.788e-09
  3.60721    146.4 1.340e+04 1.970e-09
  3.62688    145.9 1.379e+04 2.262e-09
  3.64654    145.4 1.417e+04 2.671e-09
  3.66621    144.9 1.438e+04 3.068e-09
  3.68564    144.3 1.436e+04 3.149e-09
  3.69547    143.0 1.297e+04 1.934e-09
  3.70553    142.6 1.288e+04 1.895e-09
  3.72520    142.3 1.261e+04 1.747e-09
  3.74486    142.1 1.221e+04 1.500e-09
  3.76453    141.9 1.170e+04 1.229e-09
  3.78419    141.7 1.107e+04 9.193e-10
  3.80386    141.6 1.066e+04 7.849e-10
  3.82352    141.8 1.017e+04 6.184e-10
  3.84319    141.9 9.959e+03 5.492e-10
  3.85847    142.6 9.743e+03 4.784e-10
  3.86830    142.5 9.709e+03 4.607e-10
  3.88251    143.0 9.646e+03 4.392e-10
  3.90218    143.7 9.612e+03 4.308e-10
  3.92184    144.3 9.608e+03 4.314e-10
  3.94151    144.9 9.613e+03 4.379e-10
  3.96117    145.4 9.686e+03 4.724e-10
  3.98084    145.8 9.899e+03 5.544e-10
  4.00050    146.0 1.020e+04 6.749e-10
  4.02016    146.1 1.054e+04 8.335e-10
  4.03130    146.3 1.082e+04 1.037e-09
  4.04113    146.6 1.052e+04 8.819e-10
  4.05949    146.8 1.082e+04 1.070e-09
  4.07916    147.1 1.110e+04 1.254e-09
  4.09882    147.3 1.135e+04 1.368e-09
  4.11849    147.3 1.142e+04 1.371e-09
  4.13815    147.2 1.141e+04 1.347e-09
  4.15782    147.0 1.131e+04 1.243e-09
  4.17748    146.8 1.106e+04 1.066e-09
  4.19430    146.4 1.070e+04 8.719e-10
  4.20413    147.2 1.080e+04 9.266e-10
  4.21681    146.7 1.044e+04 7.607e-10
  4.23647    146.3 1.004e+04 6.223e-10
  4.25614    146.1 9.677e+03 5.164e-10
  4.27580    146.0 9.413e+03 4.413e-10
  4.29547    146.0 9.192e+03 3.766e-10
  4.31513    146.1 9.106e+03 3.511e-10
  4.34473    146.6 9.013e+03 3.336e-10
  4.36733    148.2 8.935e+03 3.180e-10
  4.37706    148.0 9.055e+03 3.524e-10
  4.39379    148.4 9.041e+03 3.496e-10
  4.42338    149.9 9.092e+03 3.629e-10
  4.46281    151.8 9.073e+03 3.575e-10
  4.50214    154.0 9.073e+03 3.572e-10
  4.54147    155.8 9.078e+03 3.501e-10
  4.58080    157.5 9.148e+03 3.556e-10
  4.61019    158.0 9.249e+03 3.804e-10
  4.62976    158.6 9.377e+03 4.142e-10
  4.64943    159.2 9.557e+03 4.668e-10
  4.66909    159.8 9.789e+03 5.411e-10
  4.68875    160.2 1.006e+04 6.372e-10
  4.70296    160.6 1.034e+04 7.503e-10
  4.71279    160.4 1.064e+04 8.858e-10
  4.72808    160.7 1.089e+04 1.007e-09
  4.74775    160.9 1.110e+04 1.117e-09
  4.76741    160.9 1.131e+04 1.222e-09
  4.78708    160.8 1.161e+04 1.355e-09
  4.80674    160.3 1.197e+04 1.531e-09
  4.82641    159.1 1.269e+04 1.829e-09
  4.84607    157.5 1.376e+04 2.415e-09
  4.86573    155.8 1.481e+04 3.362e-09
  4.87579    154.2 1.559e+04 4.496e-09
  4.88562    154.9 1.512e+04 3.901e-09
  4.90506    153.6 1.553e+04 4.582e-09
  4.92473    152.2 1.567e+04 4.686e-09
  4.94439    150.7 1.566e+04 4.401e-09
  4.96406    148.8 1.555e+04 3.898e-09
  4.98372    146.7 1.541e+04 3.495e-09
  5.00339    144.3 1.514e+04 3.242e-09
  5.02305    142.3 1.470e+04 3.099e-09
  5.03879    140.7 1.421e+04 2.955e-09
  5.04862    141.9 1.399e+04 2.621e-09
  5.06238    140.5 1.368e+04 2.566e-09
  5.08204    139.6 1.344e+04 2.460e-09
  5.10171    138.8 1.327e+04 2.331e-09
  5.12137    137.9 1.314e+04 2.149e-09
  5.14104    137.0 1.297e+04 1.939e-09
  5.16070    136.0 1.273e+04 1.731e-09
  5.18037    135.2 1.243e+04 1.540e-09
  5.20003    134.4 1.214e+04 1.371e-09
  5.21162    133.8 1.186e+04 1.217e-09
  5.22145    134.7 1.217e+04 1.397e-09
  5.23936    134.0 1.187e+04 1.209e-09
  5.25902    133.5 1.158e+04 1.048e-09
  5.27869    133.0 1.129e+04 9.147e-10
  5.29835    132.8 1.102e+04 8.105e-10
  5.31802    132.8 1.080e+04 7.270e-10
  5.33768    132.9 1.059e+04 6.480e-10
  5.35734    133.2 1.036e+04 5.455e-10
  5.37462    133.3 1.028e+04 4.981e-10
  5.38445    133.4 1.030e+04 5.066e-10
  5.40660    133.9 1.009e+04 4.331e-10
  5.44603    135.3 9.687e+03 3.227e-10
  5.48536    136.9 9.296e+03 2.355e-10
  5.52469    138.5 8.973e+03 1.776e-10
  5.56402    140.3 8.897e+03 1.621e-10
  5.59280    142.3 8.907e+03 1.632e-10
  5.61247    141.7 8.701e+03 1.252e-10
  5.64267    143.7 8.752e+03 1.318e-10
  5.68200    145.5 8.967e+03 1.601e-10
  5.71065    147.0 9.314e+03 2.205e-10
  5.73031    147.0 9.212e+03 2.018e-10
  5.76066    148.5 9.606e+03 2.815e-10
  5.79999    150.0 1.002e+04 3.906e-10
  5.83932    151.4 1.039e+04 5.115e-10
  5.87865    152.4 1.056e+04 5.780e-10
  5.91798    153.0 1.055e+04 5.710e-10
  5.95730    153.4 1.037e+04 5.052e-10
  5.99663    153.9 9.976e+03 3.819e-10
  6.03596    154.3 9.533e+03 2.969e-10
  6.05631    154.9 9.476e+03 2.917e-10
  6.07597    154.8 9.480e+03 2.956e-10
  6.11462    155.3 9.553e+03 3.115e-10
  6.15395    155.2 9.758e+03 3.605e-10
  6.18335    154.9 9.837e+03 3.839e-10
  6.20291    154.7 9.965e+03 4.264e-10
  6.21911    154.4 1.018e+04 5.048e-10
  6.22895    154.2 1.020e+04 5.159e-10
  6.24224    153.9 1.045e+04 6.145e-10
  6.26191    153.6 1.070e+04 7.137e-10
  6.28157    153.2 1.089e+04 7.926e-10
  6.30124    152.8 1.097e+04 8.278e-10
  6.32090    152.5 1.095e+04 8.221e-10
  6.34057    152.4 1.086e+04 7.921e-10
  6.36023    152.4 1.070e+04 7.254e-10
  6.37989    152.5 1.049e+04 6.516e-10
  6.39194    152.8 1.029e+04 5.736e-10
  6.40178    152.7 1.033e+04 5.947e-10
  6.41922    153.0 1.016e+04 5.226e-10
  6.43889    153.3 1.004e+04 4.708e-10
  6.45855    153.7 1.002e+04 4.609e-10
  6.47822    154.3 1.004e+04 4.649e-10
  6.49788    154.4 1.016e+04 4.876e-10
  6.51754    154.2 1.047e+04 5.708e-10
  6.53721    153.7 1.110e+04 7.897e-10
  6.55494    152.6 1.216e+04 1.255e-09
  6.56478    152.1 1.231e+04 1.261e-09
  6.57654    150.8 1.363e+04 2.298e-09
  6.59620    150.2 1.484e+04 4.089e-09
  6.61587    150.1 1.580e+04 6.318e-09
  6.63553    149.9 1.637e+04 7.892e-09
  6.65520    149.2 1.639e+04 7.840e-09
  6.67486    148.5 1.614e+04 6.878e-09
  6.69452    147.9 1.540e+04 4.910e-09
  6.71419    147.0 1.428e+04 3.014e-09
  6.72777    145.7 1.302e+04 1.854e-09
  6.73761    145.0 1.276e+04 1.683e-09
  6.75352    143.6 1.158e+04 1.102e-09
  6.77318    142.2 1.081e+04 7.895e-10
  6.79285    141.8 1.067e+04 7.222e-10
  6.81251    141.8 1.045e+04 6.477e-10
  6.83218    142.0 1.022e+04 5.707e-10
  6.86177    142.8 9.915e+03 4.541e-10
  6.90120    143.4 9.634e+03 3.759e-10
  6.94052    144.2 9.477e+03 3.404e-10
  6.97985    145.2 9.450e+03 3.410e-10
  7.01918    146.3 9.477e+03 3.600e-10
  7.05397    147.4 9.688e+03 4.336e-10
  7.07363    146.6 9.998e+03 5.409e-10
  7.09784    147.3 1.067e+04 7.998e-10
  7.13717    147.7 1.135e+04 1.160e-09
  7.17650    147.7 1.180e+04 1.414e-09
  7.21583    147.5 1.184e+04 1.408e-09
  7.25516    147.5 1.161e+04 1.225e-09
  7.28455    146.6 1.129e+04 1.036e-09
  7.30412    146.5 1.087e+04 8.403e-10
  7.32379    146.5 1.042e+04 6.787e-10
  7.34345    146.6 1.003e+04 5.678e-10
  7.36311    146.8 9.923e+03 5.513e-10
  7.38278    147.3 9.925e+03 5.554e-10
  7.39944    147.9 9.955e+03 5.696e-10
  7.40927    147.0 9.693e+03 4.748e-10
  7.42211    147.6 9.775e+03 5.024e-10
  7.44177    148.2 9.929e+03 5.472e-10
  7.46144    148.6 1.012e+04 6.067e-10
  7.48110    149.0 1.032e+04 6.799e-10
  7.50077    149.4 1.056e+04 7.696e-10
  7.52043    149.6 1.083e+04 8.790e-10
  7.54009    149.7 1.111e+04 1.005e-09
  7.55976    149.5 1.139e+04 1.147e-09
  7.57227    149.4 1.170e+04 1.313e-09
  7.58210    148.6 1.146e+04 1.157e-09
  7.59909    148.4 1.176e+04 1.347e-09
  7.61875    148.2 1.204e+04 1.560e-09
  7.63842    148.0 1.226e+04 1.732e-09
  7.65073    147.8 1.232e+04 1.759e-09
  7.66056    148.6 1.219e+04 1.681e-09
  7.67774    148.5 1.218e+04 1.682e-09
  7.69741    148.4 1.214e+04 1.659e-09
  7.71707    148.4 1.205e+04 1.609e-09
  7.73527    148.5 1.195e+04 1.567e-09
  7.74510    148.2 1.197e+04 1.554e-09
  7.75640    148.4 1.207e+04 1.649e-09
  7.77607    148.7 1.225e+04 1.831e-09
  7.79573    149.1 1.263e+04 2.156e-09
  7.81540    149.3 1.335e+04 2.722e-09
  7.83506    149.3 1.435e+04 3.630e-09
  7.85472    148.9 1.524e+04 4.642e-09
  7.86942    147.9 1.634e+04 6.233e-09
  7.87921    147.4 1.707e+04 7.781e-09
  7.88904    147.0 1.764e+04 9.448e-09
  7.89887    146.9 1.812e+04 1.126e-08
  7.90800    146.9 1.858e+04 1.352e-08
  7.91292    146.3 1.919e+04 1.821e-08
  7.91854    146.3 1.951e+04 2.225e-08
  7.92837    146.4 1.977e+04 2.617e-08
  7.93820    146.7 1.977e+04 2.864e-08
  7.94803    147.1 1.967e+04 2.911e-08
  7.95787    148.0 1.950e+04 2.783e-08
  7.96770    148.9 1.936e+04 2.472e-08
  7.97753    149.9 1.927e+04 1.990e-08
  7.98736    150.4 1.928e+04 1.474e-08
  7.99441    150.6 1.928e+04 9.754e-09
  7.99933    150.4 1.906e+04 8.706e-09
  8.01199    150.3 1.952e+04 6.731e-09
  8.03170    147.9 1.918e+04 1.935e-09
  8.05137    144.0 1.727e+04 7.053e-10
  8.07103    140.4 1.370e+04 4.479e-10
  8.09070    138.1 1.052e+04 4.094e-10
  8.11036    138.7 1.036e+04 4.091e-10
  8.13003    139.6 1.030e+04 4.132e-10
  8.14969    140.7 1.022e+04 4.232e-10
  8.16936    141.6 1.021e+04 4.382e-10
  8.18902    142.7 1.025e+04 4.538e-10
  8.20868    143.6 1.029e+04 4.693e-10
  8.22835    144.6 1.034e+04 4.846e-10
  8.24393    145.5 1.040e+04 4.920e-10
  8.25376    145.7 1.040e+04 4.934e-10
  8.27761    147.1 1.042e+04 5.009e-10
  8.31703    148.7 1.038e+04 4.851e-10
  8.35636    150.3 1.025e+04 4.283e-10
  8.39569    151.7 1.002e+04 3.444e-10
  8.41695    153.0 9.747e+03 2.700e-10
  8.43662    152.6 9.509e+03 2.266e-10
  8.47435    153.7 9.354e+03 1.918e-10
  8.51368    154.9 9.381e+03 1.935e-10
  8.55301    155.9 9.545e+03 2.116e-10
  8.57986    156.2 9.590e+03 2.225e-10
  8.58959    156.1 9.597e+03 2.216e-10
  8.60197    156.6 9.642e+03 2.316e-10
  8.62164    157.1 9.709e+03 2.476e-10
  8.64130    157.0 9.951e+03 2.813e-10
  8.66097    155.6 1.186e+04 4.480e-10
  8.68063    151.2 1.606e+04 1.193e-09
  8.69533    149.3 1.729e+04 1.702e-09
  8.70511    146.6 1.964e+04 2.949e-09
  8.71494    143.6 2.121e+04 5.777e-09
  8.72478    141.5 2.131e+04 1.340e-08
  8.73461    141.6 2.093e+04 2.859e-08
  8.74444    142.3 2.087e+04 4.961e-08
  8.75249    142.4 2.133e+04 6.353e-08
  8.75741    142.2 2.142e+04 5.572e-08
  8.76411    141.9 2.133e+04 5.783e-08
  8.77394    141.9 2.117e+04 5.264e-08
  8.78377    141.9 2.096e+04 3.931e-08
  8.79857    141.2 2.064e+04 1.993e-08
  8.81828    139.4 2.011e+04 6.847e-09
  8.83795    136.0 1.772e+04 1.982e-09
  8.85761    132.5 1.373e+04 8.799e-10
  8.87727    131.1 1.189e+04 6.772e-10
  8.90687    132.7 1.083e+04 5.489e-10
  8.94629    133.2 9.912e+03 3.752e-10
  8.98562    134.6 9.913e+03 3.558e-10
  9.02495    136.9 9.912e+03 3.551e-10
  9.06428    139.1 9.895e+03 3.540e-10
  9.08861    141.1 9.887e+03 3.500e-10
  9.10828    143.5 9.875e+03 3.432e-10
  9.14294    145.6 9.876e+03 3.433e-10
  9.18227    147.5 9.907e+03 3.421e-10
  9.22160    149.2 9.991e+03 3.389e-10
  9.26093    150.9 1.011e+04 3.388e-10
  9.30025    152.2 1.042e+04 3.411e-10
  9.33958    152.6 1.078e+04 3.470e-10
  9.36898    153.2 1.075e+04 3.526e-10
  9.38855    154.3 1.076e+04 3.620e-10
  9.40821    155.0 1.086e+04 4.007e-10
  9.42425    155.3 1.114e+04 4.632e-10
  9.43408    157.7 1.127e+04 4.851e-10
  9.44754    157.7 1.155e+04 5.406e-10
  9.46721    157.4 1.177e+04 5.943e-10
  9.48687    156.9 1.193e+04 6.465e-10
  9.50653    156.2 1.214e+04 7.029e-10
  9.52620    155.2 1.227e+04 8.134e-10
  9.54586    153.7 1.262e+04 1.060e-09
  9.56553    151.0 1.377e+04 1.674e-09
  9.58519    146.8 1.599e+04 2.940e-09
  9.59708    142.9 1.778e+04 4.465e-09
  9.60691    147.4 1.726e+04 4.053e-09
  9.61956    144.6 1.843e+04 5.393e-09
  9.62934    142.2 1.950e+04 7.148e-09
  9.63917    139.8 2.030e+04 8.267e-09
  9.64900    137.4 2.025e+04 8.150e-09
  9.65884    135.1 1.979e+04 7.210e-09
  9.66867    133.2 1.873e+04 5.833e-09
  9.67848    131.3 1.761e+04 4.249e-09
  9.68831    131.0 1.731e+04 4.118e-09
  9.69898    128.9 1.640e+04 2.653e-09
  9.70886    126.7 1.576e+04 2.357e-09
  9.72284    121.3 1.434e+04 9.790e-10
  9.74251    114.4 1.214e+04 4.538e-10
  9.76008    109.7 1.076e+04 4.188e-10
  9.76991    111.8 1.169e+04 5.154e-10
  9.78184    108.1 1.115e+04 5.227e-10
  9.80150    106.3 1.113e+04 5.655e-10
  9.82117    105.2 1.130e+04 6.814e-10
  9.84083    104.3 1.156e+04 8.262e-10
  9.86049    103.3 1.178e+04 9.527e-10
  9.88016    102.2 1.195e+04 1.018e-09
  9.89982    100.9 1.208e+04 1.024e-09
  9.91949     99.3 1.219e+04 9.983e-10
  9.93291     97.2 1.228e+04 9.434e-10
  9.94274     96.4 1.246e+04 9.918e-10
  9.95882     93.3 1.240e+04 9.288e-10
  9.97848     90.0 1.242e+04 9.357e-10
  9.99815     86.7 1.257e+04 9.896e-10
 10.01781     84.1 1.277e+04 1.128e-09
 10.03747     82.4 1.272e+04 1.274e-09
 10.05714     81.6 1.263e+04 1.281e-09
 10.07680     81.1 1.239e+04 1.234e-09
 10.09591     80.8 1.209e+04 1.094e-09
 10.10574     79.9 1.197e+04 1.061e-09
 10.11613     79.6 1.161e+04 8.559e-10
 10.13580     79.1 1.127e+04 6.789e-10
 10.15546     78.5 1.098e+04 5.603e-10
 10.17512     77.7 1.079e+04 5.055e-10
 10.19479     77.3 1.075e+04 5.065e-10
 10.21445     76.9 1.080e+04 5.233e-10
 10.23412     76.6 1.090e+04 5.728e-10
 10.25378     76.2 1.104e+04 6.397e-10
 10.26874     75.7 1.122e+04 7.230e-10
 10.27857     75.6 1.105e+04 6.510e-10
 10.29311     74.9 1.123e+04 7.311e-10
 10.31278     74.0 1.152e+04 8.506e-10
 10.33244     72.9 1.197e+04 1.018e-09
 10.35210     71.6 1.244e+04 1.164e-09
 10.37177     70.3 1.250e+04 1.165e-09
 10.39143     69.1 1.232e+04 1.078e-09
 10.41110     67.7 1.185e+04 8.896e-10
 10.43076     65.7 1.137e+04 7.193e-10
 10.44157     63.6 1.105e+04 6.189e-10
 10.45140     63.7 1.112e+04 6.438e-10
 10.47009     61.9 1.108e+04 6.462e-10
 10.48976     60.8 1.106e+04 6.788e-10
 10.50942     60.3 1.122e+04 7.450e-10
 10.52908     60.1 1.148e+04 8.330e-10
 10.54875     59.8 1.182e+04 9.420e-10
 10.56841     59.0 1.228e+04 1.121e-09
 10.58808     57.6 1.274e+04 1.482e-09
 10.60457     55.4 1.429e+04 2.428e-09
 10.61440     56.6 1.468e+04 2.500e-09
 10.62244     53.2 1.642e+04 3.903e-09
 10.63222     53.1 1.630e+04 4.254e-09
 10.64206     48.7 1.954e+04 6.426e-09
 10.65189     43.9 2.511e+04 1.149e-08
 10.66172     39.7 2.883e+04 2.333e-08
 10.67155     37.1 2.831e+04 5.342e-08
 10.68139     33.5 2.750e+04 1.137e-07
 10.68874     29.2 2.684e+04 2.237e-07
 10.69330     25.0 2.688e+04 3.272e-07
 10.69576     25.5 2.586e+04 4.273e-07
 10.69854     20.2 2.289e+04 1.021e-06
 10.70346     15.9 2.087e+04 1.966e-06
 10.70838     12.8 2.023e+04 2.717e-06
 10.71329      9.4 2.028e+04 2.668e-06
 10.71821      6.1 2.074e+04 2.098e-06
 10.72312      2.7 2.105e+04 1.937e-06
 10.72794     -0.8 2.139e+04 1.781e-06
 10.73040     -2.9 2.276e+04 1.440e-06
 10.73296     -4.7 2.364e+04 1.181e-06
 10.74035    -12.5 2.844e+04 3.875e-07
 10.75021    -24.2 3.121e+04 8.548e-08
 10.76004    -32.1 2.667e+04 3.638e-08
 10.76988    -36.1 2.393e+04 2.187e-08
 10.77730    -39.0 2.261e+04 1.458e-08
 10.78222    -42.5 2.043e+04 1.007e-08
 10.78954    -44.0 1.930e+04 8.721e-09
 10.79937    -46.3 1.807e+04 7.212e-09
 10.80920    -46.9 1.791e+04 6.810e-09
 10.82400    -49.2 1.757e+04 5.646e-09
 10.84371    -51.2 1.704e+04 4.515e-09
 10.86338    -54.1 1.575e+04 3.644e-09
 10.88304    -57.0 1.497e+04 3.202e-09
 10.90271    -59.3 1.451e+04 2.961e-09
 10.92237    -61.8 1.438e+04 2.760e-09
 10.94040    -65.6 1.455e+04 2.680e-09
 10.95023    -66.6 1.489e+04 2.744e-09
 10.96170    -74.1 1.608e+04 2.880e-09
 10.98137    -84.5 1.745e+04 3.399e-09
 10.99607    -93.0 1.790e+04 3.962e-09
 11.00585    -94.8 1.811e+04 4.138e-09
 11.01568   -101.4 1.805e+04 4.724e-09
 11.02551   -104.8 1.843e+04 5.124e-09
 11.03164   -110.7 1.844e+04 5.506e-09
 11.03655   -111.6 1.875e+04 5.831e-09
 11.04518   -116.5 1.878e+04 5.903e-09
 11.05501   -121.1 1.818e+04 5.747e-09
 11.06484   -124.5 1.751e+04 5.227e-09
 11.07964   -127.2 1.675e+04 4.621e-09
 11.09935   -131.6 1.550e+04 3.702e-09
 11.11323   -135.2 1.424e+04 2.682e-09
 11.12306   -136.5 1.417e+04 2.584e-09
 11.13868   -138.7 1.306e+04 1.737e-09
 11.15835   -140.0 1.214e+04 1.229e-09
 11.17801   -140.7 1.151e+04 9.515e-10
 11.19767   -141.0 1.117e+04 7.968e-10
 11.21734   -141.1 1.094e+04 6.971e-10
 11.23700   -140.9 1.072e+04 6.263e-10
 11.25667   -140.6 1.055e+04 5.841e-10
 11.27623   -140.1 1.045e+04 5.619e-10
 11.28606   -141.3 1.059e+04 6.076e-10
 11.29600   -140.7 1.059e+04 6.180e-10
 11.31566   -139.9 1.059e+04 6.292e-10
 11.33532   -139.1 1.058e+04 6.380e-10
 11.35499   -138.2 1.058e+04 6.423e-10
 11.37465   -137.2 1.050e+04 6.448e-10
 11.39432   -136.2 1.047e+04 6.225e-10
 11.41398   -135.3 1.041e+04 5.936e-10
 11.43365   -134.4 1.034e+04 5.585e-10
 11.44906   -133.7 1.029e+04 5.265e-10
 11.45890   -134.4 1.030e+04 4.889e-10
 11.47298   -133.8 1.030e+04 4.786e-10
 11.49264   -133.3 1.030e+04 4.774e-10
 11.51230   -132.9 1.036e+04 4.897e-10
 11.53197   -132.5 1.048e+04 5.280e-10
 11.55163   -132.0 1.064e+04 5.766e-10
 11.57130   -131.5 1.078e+04 6.227e-10
 11.59096   -131.0 1.085e+04 6.518e-10
 11.61063   -130.5 1.086e+04 6.590e-10
 11.62189   -129.8 1.083e+04 6.578e-10
 11.63173   -130.7 1.101e+04 7.336e-10
 11.64996   -129.8 1.076e+04 6.594e-10
 11.66962   -128.6 1.044e+04 5.461e-10
 11.68928   -127.1 1.015e+04 4.407e-10
 11.70895   -125.5 1.004e+04 3.769e-10
 11.73854   -124.4 1.006e+04 3.464e-10
 11.77526   -123.3 9.991e+03 3.157e-10
 11.79492   -124.3 1.007e+04 3.441e-10
 11.81730   -122.5 9.935e+03 3.185e-10
 11.85663   -120.3 9.681e+03 2.862e-10
 11.89596   -118.0 9.386e+03 2.422e-10
 11.93528   -115.6 9.114e+03 2.021e-10
 11.97461   -113.1 8.956e+03 1.781e-10
 12.01394   -110.7 8.927e+03 1.714e-10
 12.05327   -108.5 8.953e+03 1.718e-10
 12.09260   -106.7 9.259e+03 2.047e-10
 12.12092   -105.2 9.665e+03 2.759e-10
 12.14058   -106.3 9.928e+03 3.475e-10
 12.17126   -104.5 1.024e+04 4.528e-10
 12.21059   -102.7 1.033e+04 4.962e-10
 12.24992   -101.0 1.028e+04 4.894e-10
 12.28924    -99.3 1.007e+04 4.223e-10
 12.32857    -97.5 9.742e+03 3.241e-10
 12.36790    -95.5 9.281e+03 2.153e-10
 12.40723    -93.5 8.790e+03 1.335e-10
 12.44656    -91.7 8.361e+03 8.539e-11
 12.46658    -90.0 8.065e+03 6.254e-11
 12.48625    -91.1 7.998e+03 5.818e-11
 12.52522    -89.0 7.919e+03 5.491e-11
 12.56455    -86.8 7.854e+03 5.345e-11
 12.60387    -84.5 7.825e+03 5.310e-11
 12.64320    -82.2 7.814e+03 5.395e-11
 12.68253    -80.1 7.846e+03 5.637e-11
 12.72186    -78.0 7.916e+03 6.018e-11
 12.76119    -75.9 8.014e+03 6.478e-11
 12.79258    -74.0 8.121e+03 7.006e-11
 12.81224    -74.3 8.124e+03 6.322e-11
 12.83985    -72.5 8.260e+03 6.527e-11
 12.87918    -70.8 8.399e+03 7.011e-11
 12.91851    -69.1 8.478e+03 8.193e-11
 12.95783    -67.5 8.562e+03 9.837e-11
 12.99716    -66.0 8.703e+03 1.255e-10
 13.03649    -64.7 8.992e+03 1.795e-10
 13.07582    -64.0 9.611e+03 2.932e-10
 13.11515    -63.9 1.068e+04 5.376e-10
 13.13824    -64.7 1.206e+04 1.048e-09
 13.15791    -65.0 1.257e+04 1.411e-09
 13.18388    -66.0 1.349e+04 2.270e-09
 13.20344    -65.9 1.441e+04 3.354e-09
 13.22311    -65.8 1.508e+04 4.388e-09
 13.24277    -66.0 1.536e+04 4.757e-09
 13.26244    -66.6 1.538e+04 4.753e-09
 13.28210    -67.1 1.507e+04 4.050e-09
 13.30105    -68.1 1.445e+04 3.080e-09
 13.31088    -68.3 1.433e+04 2.852e-09
 13.32143    -69.5 1.361e+04 2.286e-09
 13.34109    -70.1 1.302e+04 1.949e-09
 13.36076    -70.2 1.265e+04 1.741e-09
 13.38042    -69.8 1.234e+04 1.554e-09
 13.40009    -69.2 1.208e+04 1.368e-09
 13.41975    -68.7 1.185e+04 1.191e-09
 13.43942    -68.3 1.163e+04 1.039e-09
 13.45908    -68.0 1.150e+04 9.426e-10
 13.47388    -67.9 1.148e+04 9.145e-10
 13.48371    -67.6 1.170e+04 1.014e-09
 13.49841    -67.5 1.171e+04 1.012e-09
 13.51807    -68.0 1.207e+04 1.124e-09
 13.53774    -68.6 1.257e+04 1.511e-09
 13.55740    -68.7 1.313e+04 2.112e-09
 13.57707    -68.2 1.370e+04 2.812e-09
 13.59673    -67.6 1.418e+04 3.392e-09
 13.61640    -67.5 1.441e+04 3.583e-09
 13.63606    -67.6 1.445e+04 3.585e-09
 13.64671    -68.0 1.423e+04 3.163e-09
 13.65654    -67.3 1.466e+04 3.696e-09
 13.67539    -67.9 1.403e+04 2.921e-09
 13.69505    -68.7 1.339e+04 2.374e-09
 13.71472    -69.2 1.286e+04 2.019e-09
 13.73438    -69.2 1.248e+04 1.773e-09
 13.75405    -69.2 1.217e+04 1.579e-09
 13.77371    -69.0 1.190e+04 1.422e-09
 13.79338    -69.0 1.168e+04 1.309e-09
 13.80545    -68.8 1.151e+04 1.237e-09
 13.81195    -69.3 1.103e+04 9.806e-10
 13.81954    -68.6 1.106e+04 9.859e-10
 13.83270    -68.5 1.096e+04 9.584e-10
 13.85237    -68.2 1.090e+04 9.498e-10
 13.87203    -67.8 1.087e+04 9.503e-10
 13.89170    -67.3 1.083e+04 9.404e-10
 13.91136    -66.7 1.073e+04 9.009e-10
 13.93103    -66.1 1.057e+04 8.279e-10
 13.95069    -65.5 1.037e+04 7.333e-10
 13.97036    -64.8 1.013e+04 6.367e-10
 13.98254    -64.1 9.929e+03 5.576e-10
 13.99237    -63.7 9.993e+03 5.941e-10
 14.00968    -63.2 9.883e+03 5.468e-10
 14.02935    -62.7 9.885e+03 5.367e-10
 14.04901    -62.7 1.006e+04 5.493e-10
 14.06868    -63.2 1.081e+04 6.833e-10
 14.08834    -63.4 1.172e+04 9.817e-10
 14.10801    -63.3 1.255e+04 1.431e-09
 14.12767    -62.5 1.315e+04 1.942e-09
 14.14554    -61.1 1.355e+04 2.394e-09
 14.15537    -61.9 1.380e+04 2.611e-09
 14.16700    -61.2 1.429e+04 3.069e-09
 14.18666    -62.5 1.682e+04 4.291e-09
 14.20633    -68.6 2.332e+04 8.130e-09
 14.22103    -69.6 2.574e+04 1.075e-08
 14.23081    -73.5 2.749e+04 1.811e-08
 14.23677    -77.3 2.758e+04 3.571e-08
 14.24169    -80.5 2.582e+04 7.078e-08
 14.25048    -83.6 2.477e+04 1.244e-07
 14.26031    -88.7 2.582e+04 1.607e-07
 14.27014    -97.7 2.794e+04 1.614e-07
 14.27997   -112.1 3.218e+04 1.024e-07
 14.28980   -130.5 3.269e+04 3.582e-08
 14.29964   -146.0 2.413e+04 1.801e-08
 14.30947   -152.4 2.065e+04 1.402e-08
 14.31827   -155.1 1.999e+04 1.165e-08
 14.32319   -155.0 2.013e+04 1.234e-08
 14.32913   -158.1 1.927e+04 9.044e-09
 14.33897   -161.3 1.816e+04 6.206e-09
 14.34880   -163.8 1.711e+04 4.438e-09
 14.36359   -165.6 1.626e+04 3.434e-09
 14.38331   -168.7 1.524e+04 2.291e-09
 14.40297   -172.9 1.346e+04 1.311e-09
 14.42264   -175.8 1.232e+04 9.705e-10
 14.44230   -177.3 1.208e+04 9.175e-10
 14.46197   -178.1 1.204e+04 9.334e-10
 14.48137   -178.7 1.222e+04 1.038e-09
 14.49120   -178.2 1.182e+04 9.235e-10
 14.50129   -178.9 1.187e+04 9.788e-10
 14.52096   -179.5 1.187e+04 9.964e-10
 14.54062   -179.9 1.179e+04 9.854e-10
 14.56029   -180.3 1.158e+04 9.299e-10
 14.57995   -180.4 1.133e+04 8.642e-10
 14.59962   -180.4 1.111e+04 8.075e-10
 14.61928   -180.4 1.090e+04 7.601e-10
 14.63895   -180.2 1.070e+04 7.153e-10
 14.65420   -179.6 1.051e+04 6.717e-10
 14.66403   -179.2 1.031e+04 5.807e-10
 14.67827   -178.6 1.016e+04 5.497e-10
 14.69794   -177.9 1.006e+04 5.250e-10
 14.71760   -177.2 1.002e+04 5.092e-10
 14.73727   -176.6 1.001e+04 5.041e-10
 14.75693   -176.4 1.025e+04 5.270e-10
 14.77660   -176.4 1.067e+04 6.056e-10
 14.79626   -176.5 1.125e+04 7.576e-10
 14.81593   -176.6 1.184e+04 9.907e-10
 14.82703   -176.6 1.234e+04 1.296e-09
 14.83686   -176.4 1.240e+04 1.306e-09
 14.85525   -176.1 1.274e+04 1.629e-09
 14.87492   -175.8 1.294e+04 1.860e-09
 14.89458   -175.6 1.301e+04 1.921e-09
 14.91425   -175.5 1.310e+04 1.941e-09
 14.93391   -175.5 1.335e+04 1.963e-09
 14.95358   -176.2 1.380e+04 1.969e-09
 14.97324   -178.4 1.427e+04 1.962e-09
 14.99003   -181.7 1.444e+04 1.950e-09
 14.99986   -181.8 1.445e+04 1.871e-09
 15.01257   -185.8 1.421e+04 1.859e-09
 15.03223   -189.4 1.363e+04 1.984e-09
 15.05190   -192.1 1.339e+04 2.190e-09
 15.07156   -194.3 1.341e+04 2.333e-09
 15.09123   -196.3 1.359e+04 2.426e-09
 15.11089   -198.7 1.391e+04 2.541e-09
 15.13056   -201.6 1.454e+04 2.794e-09
 15.15022   -205.0 1.541e+04 3.366e-09
 15.16286   -208.4 1.622e+04 4.339e-09
 15.17269   -207.1 1.561e+04 3.520e-09
 15.18955   -210.1 1.628e+04 4.573e-09
 15.20921   -212.7 1.665e+04 5.527e-09
 15.22888   -215.0 1.677e+04 5.972e-09
 15.24854   -217.1 1.672e+04 5.949e-09
 15.26821   -218.9 1.650e+04 5.456e-09
 15.28787   -220.5 1.611e+04 4.662e-09
 15.30754   -221.8 1.558e+04 3.836e-09
 15.32586   -222.6 1.494e+04 3.103e-09
 15.33569   -222.0 1.446e+04 2.646e-09
 15.34686   -222.5 1.380e+04 2.124e-09
 15.36653   -222.6 1.321e+04 1.731e-09
 15.38619   -222.5 1.269e+04 1.414e-09
 15.40586   -222.0 1.218e+04 1.140e-09
 15.42552   -221.0 1.169e+04 9.024e-10
 15.44519   -219.9 1.123e+04 6.982e-10
 15.46485   -218.5 1.080e+04 5.331e-10
 15.48452   -216.9 1.047e+04 4.157e-10
 15.49879   -215.2 1.024e+04 3.340e-10
 15.50862   -215.3 1.034e+04 3.523e-10
 15.52384   -214.5 1.032e+04 3.248e-10
 15.55344   -214.0 1.030e+04 3.049e-10
 15.59286   -212.7 1.013e+04 2.705e-10
 15.63219   -211.1 9.934e+03 2.490e-10
 15.67152   -209.6 9.824e+03 2.438e-10
 15.71085   -208.0 9.798e+03 2.437e-10
 15.75018   -206.4 9.759e+03 2.495e-10
 15.78951   -204.9 9.748e+03 2.570e-10
 15.82488   -203.3 9.746e+03 2.592e-10
 15.84455   -203.6 9.844e+03 2.981e-10
 15.86817   -201.9 9.702e+03 2.647e-10
 15.90750   -200.2 9.502e+03 2.211e-10
 15.94682   -198.4 9.287e+03 1.774e-10
 15.98615   -196.5 9.118e+03 1.427e-10
 16.02548   -194.5 9.031e+03 1.215e-10
 16.06481   -192.6 9.024e+03 1.129e-10
 16.10414   -190.7 9.028e+03 1.112e-10
 16.14347   -188.9 9.049e+03 1.114e-10
 16.17055   -187.2 9.197e+03 1.194e-10
 16.19021   -187.1 9.134e+03 1.055e-10
 16.22213   -185.5 9.296e+03 1.227e-10
 16.26145   -184.0 9.447e+03 1.464e-10
 16.30078   -182.6 9.589e+03 1.762e-10
 16.34011   -181.5 9.770e+03 2.196e-10
 16.37944   -180.4 1.006e+04 2.945e-10
 16.41877   -179.5 1.048e+04 4.277e-10
 16.45810   -178.8 1.101e+04 6.409e-10
 16.49654   -178.4 1.150e+04 9.104e-10
 16.51621   -178.5 1.155e+04 9.149e-10
 16.53676   -178.5 1.188e+04 1.144e-09
 16.57609   -178.5 1.203e+04 1.256e-09
 16.61541   -178.6 1.206e+04 1.278e-09
 16.65474   -178.6 1.205e+04 1.269e-09
 16.69407   -178.2 1.190e+04 1.148e-09
 16.73340   -177.8 1.166e+04 9.683e-10
 16.77273   -177.4 1.137e+04 7.849e-10
 16.81206   -177.0 1.106e+04 6.220e-10
 16.84221   -176.5 1.077e+04 4.938e-10
 16.86187   -176.8 1.085e+04 5.049e-10
 16.89072   -176.3 1.075e+04 4.581e-10
 16.93004   -176.0 1.074e+04 4.489e-10
 16.96937   -176.0 1.082e+04 4.640e-10
 17.00870   -176.0 1.138e+04 6.202e-10
 17.04803   -176.0 1.197e+04 8.703e-10
 17.08736   -175.8 1.226e+04 1.059e-09
 17.12669   -175.5 1.227e+04 1.095e-09
 17.15609   -174.9 1.198e+04 1.038e-09
 17.17565   -174.5 1.171e+04 9.072e-10
 17.18767   -174.0 1.146e+04 7.504e-10
 17.19751   -174.4 1.153e+04 8.156e-10
 17.21498   -174.0 1.133e+04 6.994e-10
 17.23465   -173.7 1.117e+04 6.233e-10
 17.25431   -173.3 1.104e+04 5.765e-10
 17.27398   -172.8 1.094e+04 5.484e-10
 17.29364   -172.2 1.084e+04 5.210e-10
 17.31331   -171.5 1.075e+04 4.893e-10
 17.33297   -170.9 1.067e+04 4.559e-10
 17.35067   -170.4 1.062e+04 4.328e-10
 17.36051   -170.5 1.071e+04 4.674e-10
 17.37230   -170.1 1.062e+04 4.392e-10
 17.40189   -169.7 1.054e+04 4.129e-10
 17.44132   -168.2 1.042e+04 3.955e-10
 17.48065   -166.9 1.040e+04 3.904e-10
 17.51387   -165.7 1.038e+04 3.912e-10
 17.53353   -166.2 1.037e+04 4.030e-10
 17.55931   -165.3 1.032e+04 4.041e-10
 17.59863   -164.3 1.026e+04 4.013e-10
 17.63796   -163.4 1.021e+04 3.909e-10
 17.67729   -162.5 1.017e+04 3.754e-10
 17.71662   -161.7 1.009e+04 3.508e-10
 17.75595   -160.8 9.972e+03 3.174e-10
 17.79528   -159.8 9.827e+03 2.769e-10
 17.83461   -158.4 9.651e+03 2.342e-10
 17.85953   -156.8 9.455e+03 1.940e-10
 17.87919   -156.5 9.420e+03 1.942e-10
 17.90223   -154.7 9.285e+03 1.622e-10
 17.92190   -154.5 9.412e+03 1.843e-10
 17.95259   -152.7 9.289e+03 1.562e-10
 17.99192   -150.7 9.222e+03 1.375e-10
 18.03125   -148.7 9.187e+03 1.241e-10
 18.07058   -146.7 9.161e+03 1.129e-10
 18.10991   -144.7 9.132e+03 1.026e-10
 18.14924   -142.7 9.093e+03 9.242e-11
 18.18553   -140.6 9.053e+03 8.302e-11
 18.20519   -140.4 8.974e+03 7.310e-11
 18.22790   -138.4 8.959e+03 6.415e-11
 18.26722   -136.3 8.951e+03 5.572e-11
 18.30655   -134.2 8.958e+03 4.892e-11
 18.34588   -132.2 8.966e+03 4.393e-11
 18.38521   -130.1 8.973e+03 4.111e-11
 18.42454   -128.0 8.978e+03 4.029e-11
 18.46387   -125.8 8.983e+03 4.023e-11
 18.50320   -123.8 9.048e+03 4.224e-11
 18.53119   -121.8 9.114e+03 4.790e-11
 18.55086   -121.4 9.114e+03 4.803e-11
 18.58185   -119.4 9.176e+03 5.628e-11
 18.62118   -117.4 9.244e+03 6.523e-11
 18.66051   -115.5 9.336e+03 7.220e-11
 18.69984   -113.7 9.411e+03 7.661e-11
 18.73917   -112.0 9.470e+03 7.765e-11
 18.77850   -110.4 9.491e+03 7.764e-11
 18.81783   -108.9 9.533e+03 7.670e-11
 18.85716   -107.3 9.579e+03 7.477e-11
 18.89649   -105.2 9.633e+03 8.289e-11
 18.93581   -103.7 9.672e+03 7.794e-11
 18.97514   -102.3 9.710e+03 7.126e-11
 19.01447   -100.9 9.727e+03 6.537e-11
 19.05380    -99.6 9.727e+03 6.208e-11
 19.09313    -98.5 9.729e+03 6.114e-11
 19.13246    -97.5 9.772e+03 6.109e-11
 19.17179    -96.8 1.008e+04 6.697e-11
 19.20285    -96.1 1.016e+04 9.406e-11
 19.22252    -95.5 1.024e+04 9.445e-11
 19.25044    -94.7 1.033e+04 1.466e-10
 19.28977    -93.7 1.047e+04 2.085e-10
 19.32910    -92.7 1.065e+04 2.574e-10
 19.36843    -91.8 1.081e+04 2.818e-10
 19.40776    -91.1 1.095e+04 2.939e-10
 19.44709    -90.6 1.111e+04 3.148e-10
 19.48642    -90.1 1.127e+04 3.536e-10
 19.52575    -89.7 1.136e+04 3.970e-10
 19.54851    -89.3 1.138e+04 4.134e-10
 19.56818    -89.4 1.159e+04 4.801e-10
 19.60440    -89.1 1.153e+04 4.573e-10
 19.64373    -88.9 1.143e+04 4.024e-10
 19.68306    -88.8 1.138e+04 3.789e-10
 19.72239    -89.0 1.143e+04 3.902e-10
 19.76172    -89.7 1.170e+04 5.383e-10
 19.80105    -90.3 1.198e+04 7.730e-10
 19.84038    -91.2 1.214e+04 9.657e-10
 19.87451    -92.4 1.218e+04 1.016e-09
 19.89418    -92.7 1.232e+04 1.127e-09
 19.91903    -94.0 1.196e+04 9.256e-10
 19.95836    -95.5 1.150e+04 6.689e-10
 19.99769    -97.2 1.111e+04 4.965e-10
 20.03702    -98.7 1.086e+04 4.186e-10
 20.07635    -99.9 1.074e+04 3.941e-10
 20.11568   -100.8 1.067e+04 3.866e-10
 20.15501   -101.1 1.056e+04 3.751e-10
 20.19434   -101.2 1.046e+04 3.520e-10
 20.22017   -101.1 1.039e+04 3.298e-10
 20.23984   -100.8 1.031e+04 2.954e-10
 20.27299   -100.8 1.029e+04 2.898e-10
 20.31232   -100.7 1.033e+04 3.094e-10
 20.35165   -100.8 1.044e+04 3.757e-10
 20.38105   -100.7 1.048e+04 4.186e-10
 20.39281   -100.5 1.056e+04 4.581e-10
 20.40264   -100.5 1.053e+04 4.402e-10
 20.42028   -100.2 1.064e+04 5.067e-10
 20.43995    -99.8 1.072e+04 5.454e-10
 20.46954    -99.7 1.076e+04 5.637e-10
 20.50897    -99.1 1.063e+04 5.252e-10
 20.54617    -98.5 1.041e+04 4.378e-10
 20.56584    -98.4 1.036e+04 4.129e-10
 20.58762    -97.9 1.015e+04 3.498e-10
 20.62695    -97.4 1.006e+04 3.290e-10
 20.66628    -96.9 1.005e+04 3.443e-10
 20.70561    -96.2 1.008e+04 3.744e-10
 20.74494    -95.5 1.007e+04 3.928e-10
 20.78427    -94.7 1.003e+04 3.943e-10
 20.82360    -93.6 9.803e+03 3.467e-10
 20.86293    -92.2 9.562e+03 2.601e-10
 20.89183    -90.9 9.369e+03 1.812e-10
 20.91150    -91.0 9.380e+03 1.807e-10
 20.94158    -89.8 9.216e+03 1.287e-10
 20.98091    -88.6 9.076e+03 1.024e-10
 21.02024    -87.4 9.017e+03 9.399e-11
 21.05957    -86.2 9.005e+03 9.272e-11
 21.09890    -85.2 9.041e+03 9.850e-11
 21.13823    -84.5 9.174e+03 1.269e-10
 21.17756    -83.8 9.319e+03 1.657e-10
 21.21689    -83.3 9.429e+03 1.938e-10
 21.23750    -83.0 9.446e+03 2.000e-10
 21.25716    -82.9 9.428e+03 1.947e-10
 21.29554    -82.9 9.472e+03 1.797e-10
 21.33487    -83.8 9.545e+03 1.752e-10
 21.37420    -85.5 9.670e+03 1.796e-10
 21.41353    -87.1 9.822e+03 2.024e-10
 21.45286    -88.4 9.892e+03 2.426e-10
 21.49219    -89.2 9.935e+03 3.184e-10
 21.53152    -89.9 1.023e+04 3.903e-10
 21.56350    -91.5 1.070e+04 4.712e-10
 21.58306    -94.7 1.196e+04 8.570e-10
 21.60015    -96.0 1.241e+04 9.878e-10
 21.61981    -99.1 1.461e+04 1.985e-09
 21.63947   -101.9 1.618e+04 4.046e-09
 21.65914   -103.8 1.708e+04 6.279e-09
 21.67880   -105.7 1.727e+04 7.209e-09
 21.69847   -107.7 1.722e+04 7.402e-09
 21.71813   -109.1 1.640e+04 5.950e-09
 21.73613   -110.2 1.521e+04 3.359e-09
 21.74596   -111.7 1.456e+04 2.492e-09
 21.75746   -113.9 1.276e+04 1.112e-09
 21.77713   -115.6 1.103e+04 5.731e-10
 21.79679   -116.1 1.013e+04 3.831e-10
 21.81645   -115.7 9.841e+03 2.913e-10
 21.83612   -114.6 9.684e+03 2.313e-10
 21.85578   -114.0 9.761e+03 1.966e-10
 21.88538   -113.7 9.993e+03 1.680e-10
 21.90916   -112.7 9.718e+03 1.194e-10
 21.92882   -115.3 1.234e+04 3.977e-10
 21.96413   -114.2 1.202e+04 4.970e-10
 21.99882   -112.4 1.183e+04 6.630e-10
 22.01848   -113.8 1.271e+04 1.477e-09
 22.04279   -111.9 1.259e+04 1.462e-09
 22.08212   -109.9 1.248e+04 1.388e-09
 22.12145   -108.3 1.242e+04 1.325e-09
 22.16078   -107.1 1.243e+04 1.282e-09
 22.20011   -106.3 1.247e+04 1.268e-09
 22.23516   -105.9 1.255e+04 1.257e-09
 22.25482   -107.7 1.274e+04 1.323e-09
 22.27876   -107.1 1.278e+04 1.408e-09
 22.31809   -106.3 1.263e+04 1.391e-09
 22.34749   -104.5 1.225e+04 1.241e-09
 22.36706   -103.9 1.204e+04 1.109e-09
 22.38672   -103.2 1.180e+04 9.582e-10
 22.40639   -102.6 1.167e+04 8.412e-10
 22.41762   -102.1 1.151e+04 7.204e-10
 22.42746   -102.8 1.157e+04 6.816e-10
 22.44572   -102.3 1.143e+04 6.163e-10
 22.46538   -101.6 1.129e+04 5.725e-10
 22.48504   -100.8 1.117e+04 5.406e-10
 22.50471   -100.0 1.106e+04 5.107e-10
 22.52437    -99.0 1.095e+04 4.855e-10
 22.54404    -98.1 1.085e+04 4.645e-10
 22.56370    -97.2 1.076e+04 4.501e-10
 22.58062    -96.2 1.071e+04 4.447e-10
 22.59046    -96.5 1.086e+04 5.073e-10
 22.60303    -95.7 1.099e+04 5.159e-10
 22.62270    -95.0 1.108e+04 5.643e-10
 22.64236    -94.2 1.123e+04 6.711e-10
 22.66202    -93.7 1.091e+04 6.053e-10
 22.68169    -93.6 1.177e+04 8.025e-10
 22.70135    -92.7 1.133e+04 7.372e-10
 22.72102    -92.8 1.187e+04 8.139e-10
 22.74068    -94.3 1.328e+04 1.020e-09
 22.75345    -96.9 1.505e+04 1.510e-09
 22.76329    -99.2 1.882e+04 5.228e-09
 22.78001   -100.9 1.845e+04 6.784e-09
 22.79968   -101.7 1.790e+04 7.271e-09
 22.81934   -101.8 1.659e+04 6.907e-09
 22.83900   -101.6 1.541e+04 5.443e-09
 22.85867   -101.0 1.445e+04 3.840e-09
 22.87833   -100.5 1.381e+04 2.535e-09
 22.89800   -100.4 1.328e+04 1.607e-09
 22.91645   -100.5 1.272e+04 1.037e-09
 22.92629   -102.7 1.187e+04 6.034e-10
 22.93733   -102.8 1.093e+04 4.123e-10
 22.95699   -101.9 1.035e+04 3.091e-10
 22.98658   -101.2 9.967e+03 2.367e-10
 23.02601    -99.8 9.701e+03 1.880e-10
 23.06534    -97.5 9.208e+03 1.374e-10
 23.10467    -95.5 8.922e+03 1.097e-10
 23.14400    -93.7 8.756e+03 9.469e-11
 23.18333    -91.8 8.590e+03 8.257e-11
 23.22266    -89.6 8.462e+03 7.172e-11
 23.25248    -87.4 8.374e+03 6.295e-11
 23.27214    -89.3 8.338e+03 5.974e-11
 23.30131    -87.3 8.346e+03 5.810e-11
 23.34064    -85.5 8.377e+03 5.882e-11
 23.37997    -84.1 8.509e+03 7.378e-11
 23.41930    -82.8 8.747e+03 1.078e-10
 23.45863    -81.6 9.064e+03 1.577e-10
 23.49796    -80.5 9.384e+03 2.131e-10
 23.53729    -80.2 9.821e+03 2.720e-10
 23.56668    -82.7 1.063e+04 3.707e-10
 23.58625    -86.3 1.184e+04 6.115e-10
 23.59795    -89.7 1.292e+04 1.108e-09
 23.60778    -91.5 1.311e+04 1.252e-09
 23.62558    -93.5 1.389e+04 2.034e-09
 23.64524    -94.8 1.430e+04 2.550e-09
 23.66491    -96.2 1.437e+04 2.629e-09
 23.68457    -98.0 1.420e+04 2.077e-09
 23.70424   -101.3 1.370e+04 1.118e-09
 23.72390   -106.9 1.287e+04 5.695e-10
 23.74357   -113.7 1.213e+04 4.439e-10
 23.76095   -119.8 1.197e+04 4.487e-10
 23.77078   -120.8 1.193e+04 4.579e-10
 23.78290   -125.8 1.246e+04 7.416e-10
 23.80256   -130.1 1.381e+04 1.426e-09
 23.82222   -134.5 1.525e+04 2.512e-09
 23.84189   -139.1 1.643e+04 3.825e-09
 23.86155   -144.4 1.699e+04 4.726e-09
 23.88122   -150.1 1.706e+04 4.911e-09
 23.90088   -155.7 1.647e+04 4.401e-09
 23.92055   -161.1 1.529e+04 2.671e-09
 23.93378   -166.7 1.372e+04 1.344e-09
 23.94361   -164.7 1.397e+04 1.501e-09
 23.95988   -169.5 1.256e+04 8.161e-10
 23.97954   -173.4 1.183e+04 5.815e-10
 23.99920   -176.1 1.166e+04 5.350e-10
 24.01887   -178.1 1.164e+04 5.277e-10
 24.03853   -180.0 1.191e+04 5.370e-10
 24.05675   -181.7 1.233e+04 5.906e-10
 24.06658   -181.9 1.219e+04 5.766e-10
 24.07786   -183.4 1.259e+04 6.469e-10
 24.09678   -184.4 1.284e+04 7.121e-10
 24.10661   -183.6 1.283e+04 6.902e-10
 24.12712   -185.7 1.297e+04 7.907e-10
 24.16655   -187.9 1.291e+04 9.991e-10
 24.19595   -187.8 1.304e+04 1.254e-09
 24.21551   -188.3 1.313e+04 1.356e-09
 24.23518   -188.8 1.323e+04 1.458e-09
 24.25484   -189.7 1.356e+04 1.608e-09
 24.26961   -190.4 1.417e+04 1.897e-09
 24.27944   -188.0 1.333e+04 1.639e-09
 24.29417   -188.1 1.367e+04 1.793e-09
 24.31383   -188.3 1.406e+04 1.990e-09
 24.33350   -188.5 1.427e+04 2.143e-09
 24.35316   -188.6 1.429e+04 2.186e-09
 24.37283   -188.4 1.417e+04 2.177e-09
 24.39249   -188.0 1.365e+04 2.000e-09
 24.41216   -187.2 1.302e+04 1.713e-09
 24.43182   -186.2 1.245e+04 1.438e-09
 24.44244   -185.1 1.197e+04 1.212e-09
 24.45227   -183.7 1.198e+04 1.035e-09
 24.47115   -182.5 1.159e+04 9.074e-10
 24.49081   -181.3 1.127e+04 8.074e-10
 24.51048   -179.9 1.104e+04 7.277e-10
 24.53014   -178.4 1.087e+04 6.608e-10
 24.54981   -176.8 1.073e+04 6.016e-10
 24.56947   -175.2 1.062e+04 5.469e-10
 24.58914   -173.5 1.052e+04 4.974e-10
 24.60544   -171.8 1.048e+04 4.562e-10
 24.61527   -169.6 1.057e+04 4.052e-10
 24.62846   -167.8 1.059e+04 3.843e-10
 24.64813   -166.6 1.060e+04 3.743e-10
 24.66779   -164.6 1.062e+04 3.655e-10
 24.68746   -163.4 1.065e+04 3.622e-10
 24.70712   -161.1 1.067e+04 3.598e-10
 24.72679   -160.0 1.080e+04 3.614e-10
 24.74645   -157.8 1.094e+04 3.767e-10
 24.76612   -157.0 1.118e+04 4.087e-10
 24.77827   -155.3 1.151e+04 4.704e-10
 24.78810   -154.3 1.121e+04 3.955e-10
 24.80544   -153.0 1.155e+04 4.418e-10
 24.82511   -151.7 1.189e+04 5.120e-10
 24.84477   -150.2 1.227e+04 6.188e-10
 24.86444   -148.8 1.264e+04 7.729e-10
 24.88410   -147.5 1.302e+04 9.849e-10
 24.90377   -146.1 1.340e+04 1.272e-09
 24.92343   -144.7 1.378e+04 1.640e-09
 24.94127   -143.3 1.424e+04 2.027e-09
 24.95110   -142.6 1.397e+04 1.562e-09
 24.96276   -141.3 1.435e+04 2.003e-09
 24.98242   -140.0 1.483e+04 2.483e-09
 25.00209   -138.9 1.555e+04 3.060e-09
 25.02175   -138.0 1.619e+04 3.870e-09
 25.04142   -137.3 1.688e+04 4.863e-09
 25.06108   -136.7 1.762e+04 6.093e-09
 25.08075   -136.2 1.844e+04 7.677e-09
 25.10041   -135.8 1.934e+04 9.409e-09
 25.11410   -135.6 2.031e+04 1.071e-08
 25.12393   -135.6 2.061e+04 1.601e-08
 25.13477   -135.5 2.130e+04 2.001e-08
 25.14456   -135.9 2.146e+04 2.082e-08
 25.15439   -136.4 2.154e+04 2.122e-08
 25.16422   -137.2 2.153e+04 2.021e-08
 25.17405   -137.8 2.154e+04 1.954e-08
 25.18389   -138.5 2.136e+04 1.788e-08
 25.19868   -140.4 2.034e+04 1.229e-08
 25.21840   -141.4 1.944e+04 9.156e-09
 25.23806   -142.6 1.837e+04 6.620e-09
 25.25773   -143.9 1.734e+04 5.323e-09
 25.27710   -145.3 1.669e+04 4.998e-09
 25.28693   -145.3 1.673e+04 4.708e-09
 25.29705   -146.5 1.646e+04 4.663e-09
 25.31672   -147.6 1.643e+04 5.374e-09
 25.33638   -148.3 1.668e+04 7.014e-09
 25.35605   -148.8 1.704e+04 8.582e-09
 25.37571   -149.2 1.713e+04 9.405e-09
 25.39538   -149.4 1.713e+04 9.596e-09
 25.41504   -149.3 1.667e+04 9.320e-09
 25.43471   -148.6 1.605e+04 7.722e-09
 25.44993   -147.7 1.558e+04 5.945e-09
 25.45976   -146.8 1.516e+04 4.691e-09
 25.47403   -146.0 1.467e+04 3.563e-09
 25.49370   -145.3 1.426e+04 2.765e-09
 25.51336   -144.6 1.392e+04 2.227e-09
 25.53303   -143.8 1.365e+04 1.882e-09
 25.55269   -142.8 1.351e+04 1.671e-09
 25.57236   -141.9 1.344e+04 1.556e-09
 25.59202   -140.8 1.343e+04 1.513e-09
 25.61169   -139.7 1.344e+04 1.508e-09
 25.62276   -138.5 1.349e+04 1.523e-09
 25.63259   -138.3 1.271e+04 8.824e-10
 25.65101   -137.2 1.276e+04 9.147e-10
 25.67068   -136.2 1.283e+04 9.517e-10
 25.69034   -135.2 1.298e+04 9.917e-10
 25.71001   -134.5 1.324e+04 1.037e-09
 25.72967   -133.9 1.362e+04 1.091e-09
 25.74934   -133.4 1.410e+04 1.155e-09
 25.76900   -133.0 1.463e+04 1.229e-09
 25.78576   -132.6 1.504e+04 1.310e-09
 25.79559   -132.4 1.235e+04 6.812e-10
 25.80833   -132.0 1.256e+04 6.811e-10
 25.82799   -131.5 1.268e+04 6.790e-10
 25.84766   -131.0 1.275e+04 6.744e-10
 25.86732   -130.5 1.270e+04 6.668e-10
 25.88699   -130.0 1.254e+04 6.661e-10
 25.90665   -129.3 1.241e+04 6.731e-10
 25.92632   -128.5 1.228e+04 6.916e-10
 25.94598   -127.5 1.218e+04 7.184e-10
 25.95859   -126.4 1.209e+04 7.410e-10
 25.96842   -125.7 1.182e+04 5.873e-10
 25.98531   -124.7 1.179e+04 6.103e-10
 26.00497   -123.6 1.174e+04 6.298e-10
 26.02464   -122.5 1.173e+04 6.455e-10
 26.04430   -121.4 1.170e+04 6.696e-10
 26.06397   -120.3 1.174e+04 6.909e-10
 26.08363   -119.2 1.181e+04 7.120e-10
 26.10330   -118.2 1.190e+04 7.329e-10
 26.11488   -117.3 1.194e+04 7.516e-10
 26.13464   -116.8 1.210e+04 8.951e-10
 26.16239   -115.0 1.213e+04 9.641e-10
 26.18195   -114.2 1.214e+04 9.864e-10
 26.20162   -113.3 1.216e+04 1.003e-09
 26.22128   -112.5 1.211e+04 9.895e-10
 26.24095   -111.4 1.202e+04 9.583e-10
 26.26061   -110.4 1.190e+04 9.001e-10
 26.28028   -109.2 1.179e+04 8.319e-10
 26.29442   -108.0 1.170e+04 7.645e-10
 26.30425   -107.7 1.182e+04 8.821e-10
 26.31960   -106.6 1.171e+04 8.012e-10
 26.33927   -105.4 1.162e+04 7.269e-10
 26.35893   -104.2 1.155e+04 6.649e-10
 26.37860   -103.1 1.152e+04 6.109e-10
 26.39826   -101.9 1.147e+04 5.609e-10
 26.41793   -100.7 1.141e+04 5.155e-10
 26.43759    -99.5 1.137e+04 4.845e-10
 26.45725    -98.6 1.135e+04 4.666e-10
 26.46725    -97.5 1.135e+04 4.507e-10
 26.47708    -97.4 1.140e+04 4.982e-10
 26.49658    -96.4 1.140e+04 4.892e-10
 26.51625    -95.3 1.140e+04 4.840e-10
 26.53591    -94.4 1.139e+04 4.795e-10
 26.55558    -93.5 1.136e+04 4.741e-10
 26.57524    -92.6 1.134e+04 4.661e-10
 26.60484    -91.6 1.129e+04 4.571e-10
 26.63045    -89.4 1.106e+04 4.583e-10
 26.65011    -89.1 1.090e+04 4.609e-10
 26.68359    -87.2 1.066e+04 3.843e-10
 26.72292    -85.3 1.047e+04 3.196e-10
 26.76225    -83.3 1.032e+04 2.748e-10
 26.80158    -81.2 1.022e+04 2.494e-10
 26.84091    -78.9 1.017e+04 2.394e-10
 26.88024    -76.5 1.016e+04 2.368e-10
 26.91956    -74.0 1.019e+04 2.503e-10
 26.95644    -71.4 1.030e+04 2.798e-10
 26.97611    -70.8 9.979e+03 2.209e-10
 26.99822    -68.2 1.008e+04 2.561e-10
 27.03755    -65.5 1.023e+04 2.967e-10
 27.07688    -63.0 1.045e+04 3.431e-10
 27.11621    -60.6 1.071e+04 3.992e-10
 27.15554    -58.4 1.101e+04 4.735e-10
 27.19487    -56.3 1.135e+04 5.745e-10
 27.23419    -54.6 1.177e+04 6.968e-10
 27.27352    -53.2 1.230e+04 8.589e-10
 27.30201    -52.5 1.221e+04 8.222e-10
 27.31174    -52.1 1.159e+04 5.903e-10
 27.32249    -52.0 1.185e+04 7.012e-10
 27.34215    -51.7 1.211e+04 8.610e-10
 27.36182    -51.4 1.240e+04 1.023e-09
 27.38148    -51.2 1.277e+04 1.201e-09
 27.40115    -51.0 1.320e+04 1.378e-09
 27.42081    -50.8 1.354e+04 1.521e-09
 27.44048    -50.7 1.367e+04 1.589e-09
 27.46014    -50.6 1.357e+04 1.594e-09
 27.47474    -49.6 1.328e+04 1.431e-09
 27.48457    -49.0 1.279e+04 1.036e-09
 27.50940    -48.2 1.305e+04 1.205e-09
 27.54882    -46.6 1.255e+04 1.007e-09
 27.58815    -44.8 1.235e+04 9.217e-10
 27.62748    -43.0 1.239e+04 9.096e-10
 27.64777    -41.8 1.296e+04 1.150e-09
 27.66743    -39.7 1.213e+04 6.873e-10
 27.70614    -38.7 1.285e+04 1.136e-09
 27.73554    -38.9 1.380e+04 2.008e-09
 27.75511    -38.6 1.437e+04 2.675e-09
 27.77477    -37.8 1.467e+04 3.200e-09
 27.79443    -37.2 1.472e+04 3.316e-09
 27.81057    -36.5 1.464e+04 3.239e-09
 27.82040    -35.4 1.463e+04 3.159e-09
 27.83376    -34.7 1.439e+04 2.814e-09
 27.85343    -34.0 1.407e+04 2.345e-09
 27.87309    -33.5 1.363e+04 1.842e-09
 27.89276    -33.0 1.316e+04 1.427e-09
 27.91242    -32.6 1.274e+04 1.087e-09
 27.94202    -32.3 1.226e+04 7.880e-10
 27.97377    -30.3 1.164e+04 5.519e-10
 27.99333    -29.2 1.160e+04 5.422e-10
 28.01074    -27.5 1.130e+04 4.126e-10
 28.03041    -27.0 1.126e+04 3.909e-10
 28.06000    -24.9 1.126e+04 3.316e-10
 28.09943    -22.9 1.109e+04 2.921e-10
 28.13876    -20.8 1.091e+04 2.805e-10
 28.17809    -18.6 1.083e+04 2.768e-10
 28.21741    -16.4 1.080e+04 2.689e-10
 28.25674    -14.3 1.075e+04 2.401e-10
 28.29607    -12.4 1.071e+04 2.010e-10
 28.31943    -10.9 1.059e+04 1.787e-10
 28.33909    -10.1 1.061e+04 1.780e-10
 28.37473     -8.5 1.050e+04 1.763e-10
 28.41406     -7.0 1.045e+04 1.915e-10
 28.45339     -5.3 1.047e+04 2.019e-10
 28.49272     -3.8 1.054e+04 2.080e-10
 28.53205     -2.4 1.075e+04 2.149e-10
 28.57137     -0.8 1.097e+04 2.463e-10
 28.61070      1.3 1.110e+04 3.124e-10
 28.64543      3.6 1.117e+04 3.568e-10
 28.66499      3.5 1.148e+04 5.300e-10
 28.67933      4.9 1.168e+04 6.103e-10
 28.69900      5.9 1.175e+04 6.664e-10
 28.71866      7.3 1.177e+04 7.530e-10
 28.73833      8.6 1.204e+04 7.760e-10
 28.75799      9.6 1.202e+04 8.735e-10
 28.77766     10.8 1.222e+04 8.906e-10
 28.79732     11.8 1.214e+04 9.281e-10
 28.81698     13.2 1.186e+04 1.067e-09
 28.82790     14.6 1.247e+04 9.886e-10
 28.83773     14.4 1.288e+04 1.087e-09
 28.85631     15.4 1.281e+04 1.195e-09
 28.87598     15.8 1.342e+04 1.182e-09
 28.89564     15.7 1.353e+04 1.271e-09
 28.91531     15.8 1.320e+04 1.482e-09
 28.93497     16.1 1.328e+04 1.705e-09
 28.95463     16.3 1.365e+04 1.957e-09
 28.97430     15.7 1.425e+04 2.346e-09
 28.99089     14.1 1.528e+04 2.842e-09
 29.00073     11.6 1.670e+04 3.699e-09
 29.01363     10.0 1.720e+04 4.486e-09
 29.03329      8.6 1.730e+04 5.297e-09
 29.05296      7.5 1.717e+04 6.275e-09
 29.07262      6.4 1.712e+04 7.212e-09
 29.09229      4.7 1.739e+04 8.078e-09
 29.11195      2.6 1.770e+04 9.159e-09
 29.13161      0.9 1.783e+04 1.044e-08
 29.15128     -0.3 1.796e+04 1.081e-08
 29.16373     -1.5 1.738e+04 9.439e-09
 29.17356     -1.5 1.715e+04 1.024e-08
 29.19061     -2.3 1.596e+04 7.094e-09
 29.21027     -2.5 1.507e+04 4.786e-09
 29.22994     -2.5 1.444e+04 3.187e-09
 29.24960     -3.1 1.372e+04 2.001e-09
 29.26927     -4.1 1.288e+04 1.326e-09
 29.28893     -4.9 1.206e+04 1.052e-09
 29.31699     -4.1 1.175e+04 1.067e-09
 29.33675     -4.0 1.164e+04 1.059e-09
 29.35795     -1.5 1.121e+04 9.293e-10
 29.39728      1.1 1.114e+04 8.678e-10
 29.42668      3.0 1.097e+04 6.985e-10
 29.44625      3.8 1.096e+04 6.962e-10
 29.46591      4.8 1.102e+04 7.373e-10
 29.48557      5.5 1.134e+04 8.354e-10
 29.49956      6.1 1.198e+04 9.459e-10
 29.50939      5.6 1.303e+04 1.664e-09
 29.52490      6.2 1.364e+04 1.935e-09
 29.54457      7.1 1.331e+04 2.414e-09
 29.56423      8.3 1.336e+04 2.700e-09
 29.58390      9.4 1.342e+04 2.853e-09
 29.60356     10.8 1.327e+04 3.073e-09
 29.62322     12.2 1.317e+04 2.840e-09
 29.64289     13.5 1.291e+04 2.564e-09
 29.66255     14.6 1.269e+04 2.192e-09
 29.68222     15.4 1.264e+04 2.239e-09
 29.71181     15.9 1.177e+04 1.419e-09
 29.75124     18.3 1.071e+04 8.171e-10
 29.79057     20.2 1.006e+04 5.385e-10
 29.82990     22.0 9.646e+03 4.110e-10
 29.86923     24.1 9.491e+03 3.740e-10
 29.90855     26.1 9.543e+03 3.908e-10
 29.94788     28.1 9.672e+03 4.366e-10
 29.98721     30.0 9.754e+03 4.767e-10
 30.00841     31.8 9.760e+03 4.846e-10
 30.02808     31.4 9.155e+03 3.151e-10
 30.06587     33.0 9.292e+03 3.554e-10
 30.10520     34.4 9.493e+03 4.120e-10
 30.14453     35.7 9.734e+03 4.491e-10
 30.18386     36.4 9.967e+03 4.769e-10
 30.21166     36.2 1.021e+04 5.287e-10
 30.23133     36.6 1.032e+04 5.317e-10
 30.26251     36.4 1.079e+04 7.781e-10
 30.30184     36.7 1.090e+04 8.933e-10
 30.33441     37.8 1.065e+04 7.915e-10
 30.35408     38.0 1.036e+04 6.666e-10
 30.38050     39.7 9.964e+03 4.915e-10
 30.41983     40.9 9.568e+03 2.965e-10
 30.45916     41.5 9.321e+03 1.948e-10
 30.49849     42.5 9.170e+03 1.663e-10
 30.53782     44.3 9.059e+03 1.556e-10
 30.57714     46.5 8.941e+03 1.356e-10
 30.61647     48.9 8.882e+03 1.035e-10
 30.65580     50.9 8.906e+03 7.279e-11
 30.68007     52.7 8.902e+03 5.942e-11
 30.69974     53.0 8.836e+03 5.132e-11
 30.73446     55.0 8.835e+03 5.194e-11
 30.77379     57.0 8.864e+03 5.814e-11
 30.81312     59.1 8.908e+03 7.954e-11
 30.85245     61.5 9.007e+03 1.188e-10
 30.89177     64.2 9.191e+03 1.686e-10
 30.93110     66.9 9.446e+03 2.015e-10
 30.97043     69.2 9.553e+03 2.006e-10
 31.00607     71.4 9.588e+03 1.890e-10
 31.02574     71.8 9.422e+03 1.642e-10
 31.04909     73.9 9.453e+03 1.505e-10
 31.08842     75.9 9.474e+03 1.417e-10
 31.12775     77.8 9.500e+03 1.434e-10
 31.16708     79.8 9.549e+03 1.549e-10
 31.20640     81.8 9.612e+03 1.869e-10
 31.24573     83.7 9.797e+03 2.221e-10
 31.28506     85.6 9.942e+03 2.497e-10
 31.32439     87.3 1.001e+04 2.626e-10
 31.35173     88.9 1.004e+04 2.720e-10
 31.37140     89.4 1.030e+04 3.438e-10
 31.40305     90.9 1.030e+04 3.442e-10
 31.44238     92.2 1.026e+04 3.368e-10
 31.48171     93.4 1.010e+04 3.140e-10
 31.52104     94.6 9.882e+03 2.671e-10
 31.56036     95.9 9.668e+03 2.007e-10
 31.59969     97.0 9.492e+03 1.392e-10
 31.63902     98.0 9.330e+03 9.984e-11
 31.67773     99.1 9.067e+03 8.657e-11
 31.69740     99.1 9.187e+03 1.064e-10
 31.71768    100.5 9.014e+03 1.034e-10
 31.75701    102.2 8.950e+03 1.019e-10
 31.79634    104.2 8.901e+03 9.861e-11
 31.83567    106.2 8.851e+03 9.084e-11
 31.87499    108.2 8.807e+03 7.819e-11
 31.91432    110.2 8.776e+03 6.353e-11
 31.95365    112.1 8.753e+03 5.037e-11
 31.99298    114.0 8.715e+03 4.111e-11
 32.02339    115.9 8.624e+03 3.652e-11
 32.04306    115.3 8.534e+03 3.025e-11
 32.07164    117.5 8.502e+03 3.071e-11
 32.11097    119.7 8.448e+03 3.289e-11
 32.15030    122.0 8.423e+03 3.733e-11
 32.18963    124.4 8.425e+03 4.386e-11
 32.22895    126.8 8.447e+03 5.263e-11
 32.26828    129.2 8.484e+03 6.358e-11
 32.30761    131.7 8.540e+03 7.537e-11
 32.34694    134.2 8.600e+03 8.554e-11
 32.36906    136.6 8.648e+03 8.970e-11
 32.38872    136.3 8.695e+03 8.972e-11
 32.42560    138.5 8.695e+03 8.948e-11
 32.46493    140.7 8.675e+03 8.713e-11
 32.50426    142.9 8.618e+03 8.007e-11
 32.54358    145.2 8.538e+03 7.024e-11
 32.58291    147.5 8.446e+03 6.088e-11
 32.62224    149.8 8.355e+03 5.535e-11
 32.66157    152.4 8.323e+03 5.478e-11
 32.69506    155.1 8.319e+03 5.515e-11
 32.71472    155.0 8.326e+03 5.729e-11
 32.74023    157.8 8.338e+03 5.971e-11
 32.77956    160.6 8.387e+03 6.396e-11
 32.81889    163.4 8.471e+03 6.879e-11
 32.85822    166.2 8.604e+03 7.218e-11
 32.89754    168.9 8.771e+03 7.206e-11
 32.93687    171.5 8.793e+03 7.179e-11
 32.97620    174.1 8.820e+03 7.047e-11
 33.01553    176.7 8.839e+03 6.723e-11
 33.04072    179.3 8.831e+03 6.305e-11
 33.06038    179.1 8.815e+03 6.300e-11
 33.09419    181.7 8.789e+03 5.880e-11
 33.13352    184.5 8.773e+03 5.576e-11
 33.17285    187.3 8.781e+03 5.514e-11
 33.21217    190.2 8.794e+03 5.525e-11
 33.25150    193.2 8.846e+03 5.597e-11
 33.29083    196.1 8.924e+03 5.836e-11
 33.33016    199.0 9.006e+03 6.282e-11
 33.36672    201.9 9.092e+03 6.951e-11
 33.38638    201.7 9.040e+03 6.830e-11
 33.40882    204.6 9.141e+03 7.788e-11
 33.44815    207.4 9.259e+03 9.049e-11
 33.48748    210.2 9.375e+03 1.061e-10
 33.52681    212.9 9.462e+03 1.244e-10
 33.56613    215.5 9.527e+03 1.460e-10
 33.60546    218.0 9.585e+03 1.717e-10
 33.64479    220.4 9.651e+03 2.025e-10
 33.68412    222.7 9.727e+03 2.390e-10
 33.71238    225.0 9.809e+03 2.799e-10
 33.73204    224.8 9.846e+03 2.832e-10
 33.76278    227.0 9.887e+03 3.186e-10
 33.80211    229.1 9.906e+03 3.256e-10
 33.84144    231.2 9.891e+03 3.227e-10
 33.88076    233.5 9.809e+03 3.103e-10
 33.92009    235.8 9.685e+03 2.856e-10
 33.95942    238.3 9.558e+03 2.536e-10
 33.99875    240.8 9.437e+03 2.209e-10
 34.03808    243.4 9.315e+03 1.923e-10
 34.05804    245.9 9.191e+03 1.686e-10
 34.07771    245.9 9.243e+03 1.752e-10
 34.11674    248.5 9.124e+03 1.588e-10
 34.15607    251.1 8.986e+03 1.486e-10
 34.19540    253.9 8.902e+03 1.468e-10
 34.23472    256.8 8.898e+03 1.473e-10
 34.27405    259.8 8.898e+03 1.519e-10
 34.30825    262.7 8.939e+03 1.700e-10
 34.32791    263.1 8.924e+03 1.707e-10
 34.35271    266.0 9.166e+03 2.119e-10
 34.38404    268.7 9.523e+03 2.798e-10
 34.40370    268.5 9.364e+03 2.407e-10
 34.43137    271.1 9.715e+03 3.052e-10
 34.47070    273.0 9.957e+03 3.634e-10
 34.50010    274.0 1.011e+04 4.297e-10
 34.51966    275.4 1.034e+04 5.449e-10
 34.53933    276.9 1.066e+04 7.072e-10
 34.55667    278.1 1.100e+04 8.903e-10
 34.56651    277.8 1.076e+04 6.709e-10
 34.57866    278.8 1.111e+04 8.409e-10
 34.59832    279.7 1.146e+04 1.036e-09
 34.61798    280.3 1.180e+04 1.260e-09
 34.63765    280.9 1.213e+04 1.514e-09
 34.65731    281.4 1.246e+04 1.803e-09
 34.67698    282.0 1.280e+04 2.123e-09
 34.69664    282.5 1.312e+04 2.452e-09
 34.71631    282.9 1.340e+04 2.719e-09
 34.72951    283.1 1.354e+04 2.857e-09
 34.73934    283.1 1.288e+04 2.092e-09
 34.75564    283.4 1.294e+04 2.175e-09
 34.77530    283.7 1.297e+04 2.214e-09
 34.79496    284.0 1.297e+04 2.222e-09
 34.81463    284.0 1.299e+04 2.225e-09
 34.83429    284.0 1.306e+04 2.249e-09
 34.85396    284.0 1.317e+04 2.314e-09
 34.87362    283.7 1.335e+04 2.406e-09
 34.89250    283.2 1.355e+04 2.545e-09
 34.90234    284.1 1.338e+04 2.423e-09
 34.91295    283.1 1.395e+04 2.820e-09
 34.93262    281.3 1.468e+04 3.398e-09
 34.95228    278.9 1.563e+04 4.225e-09
 34.97194    275.6 1.686e+04 5.527e-09
 34.99161    271.9 1.781e+04 6.841e-09
 35.01127    268.1 1.798e+04 7.134e-09
 35.03094    264.6 1.787e+04 7.031e-09
 35.05060    261.7 1.738e+04 6.494e-09
 35.06534    259.8 1.659e+04 5.574e-09
 35.07517    259.8 1.802e+04 8.360e-09
 35.08993    258.0 1.679e+04 5.370e-09
 35.10959    255.9 1.539e+04 3.484e-09
 35.12926    253.5 1.437e+04 2.542e-09
 35.14892    251.2 1.375e+04 2.149e-09
 35.16859    249.2 1.338e+04 2.046e-09
 35.18825    247.5 1.327e+04 2.038e-09
 35.20792    245.5 1.326e+04 2.066e-09
 35.22758    243.2 1.335e+04 2.167e-09
 35.23817    240.4 1.355e+04 2.329e-09
 35.24800    238.8 1.350e+04 2.276e-09
 35.26691    235.5 1.382e+04 2.530e-09
 35.28657    231.7 1.422e+04 2.875e-09
 35.30624    227.4 1.467e+04 3.298e-09
 35.32590    222.8 1.514e+04 3.694e-09
 35.34557    218.0 1.557e+04 3.860e-09
 35.36523    213.0 1.573e+04 3.823e-09
 35.38490    207.7 1.588e+04 3.608e-09
 35.40117    202.1 1.586e+04 3.187e-09
 35.41100    200.6 1.587e+04 3.122e-09
 35.42423    194.9 1.543e+04 2.826e-09
 35.44389    189.9 1.482e+04 2.595e-09
 35.46355    185.8 1.427e+04 2.389e-09
 35.48322    182.6 1.388e+04 2.140e-09
 35.50288    179.5 1.362e+04 1.817e-09
 35.52255    176.1 1.339e+04 1.482e-09
 35.54221    172.1 1.319e+04 1.312e-09
 35.56188    167.6 1.317e+04 1.315e-09
 35.57400    163.2 1.331e+04 1.425e-09
 35.58383    159.7 1.423e+04 1.973e-09
 35.60120    154.5 1.629e+04 3.365e-09
 35.62087    149.8 1.852e+04 5.970e-09
 35.64053    145.6 2.022e+04 9.600e-09
 35.66020    141.9 2.107e+04 1.219e-08
 35.67986    138.3 2.107e+04 1.216e-08
 35.69953    135.2 2.065e+04 1.088e-08
 35.71919    132.4 1.973e+04 8.418e-09
 35.73700    129.7 1.866e+04 6.066e-09
 35.74683    126.9 1.964e+04 7.463e-09
 35.75852    124.3 1.894e+04 5.556e-09
 35.77818    122.1 1.828e+04 4.479e-09
 35.79785    120.7 1.759e+04 3.927e-09
 35.81751    120.3 1.704e+04 3.665e-09
 35.83718    120.4 1.662e+04 3.484e-09
 35.85684    120.7 1.618e+04 3.312e-09
 35.87651    121.2 1.573e+04 3.178e-09
 35.89617    121.9 1.533e+04 3.102e-09
 35.90983    122.7 1.501e+04 3.057e-09
 35.91966    122.9 1.474e+04 3.189e-09
 35.93550    123.8 1.456e+04 2.970e-09
 35.95516    124.7 1.433e+04 2.741e-09
 35.97483    125.8 1.410e+04 2.476e-09
 35.99449    127.0 1.394e+04 2.225e-09
 36.01416    128.2 1.378e+04 2.002e-09
 36.03382    129.6 1.371e+04 1.826e-09
 36.05349    131.1 1.363e+04 1.660e-09
 36.07292    133.1 1.366e+04 1.519e-09
 36.09269    132.6 1.312e+04 1.012e-09
 36.12251    135.2 1.270e+04 7.061e-10
 36.16184    137.8 1.233e+04 4.803e-10
 36.20116    140.3 1.194e+04 3.391e-10
 36.24049    142.6 1.148e+04 2.580e-10
 36.27982    145.0 1.109e+04 2.229e-10
 36.31915    147.5 1.102e+04 2.214e-10
 36.35848    150.1 1.104e+04 2.307e-10
 36.39781    152.6 1.120e+04 2.714e-10
 36.41859    153.2 1.112e+04 2.766e-10
 36.43825    154.3 1.086e+04 2.637e-10
 36.47647    156.0 1.099e+04 3.190e-10
 36.50587    156.2 1.089e+04 3.314e-10
 36.52543    156.8 1.083e+04 3.401e-10
 36.54510    157.7 1.078e+04 3.627e-10
 36.56476    158.8 1.086e+04 3.972e-10
 36.58149    159.9 1.101e+04 4.333e-10
 36.59132    160.3 1.078e+04 4.062e-10
 36.60409    161.3 1.093e+04 4.365e-10
 36.62375    162.2 1.105e+04 4.554e-10
 36.64342    162.9 1.117e+04 4.662e-10
 36.66308    163.4 1.129e+04 4.748e-10
 36.68275    163.6 1.140e+04 4.829e-10
 36.70241    163.6 1.153e+04 4.979e-10
 36.72208    163.2 1.189e+04 5.465e-10
 36.74174    161.5 1.290e+04 7.326e-10
 36.75432    158.0 1.471e+04 1.303e-09
 36.76415    162.2 1.377e+04 9.811e-10
 36.78107    158.5 1.541e+04 1.796e-09
 36.80073    155.6 1.599e+04 2.843e-09
 36.81543    153.7 1.644e+04 3.705e-09
 36.82522    150.9 1.833e+04 5.540e-09
 36.83505    146.8 2.129e+04 9.881e-09
 36.84064    142.2 2.405e+04 1.761e-08
 36.84555    146.9 2.187e+04 1.228e-08
 36.85471    142.3 2.445e+04 2.251e-08
 36.86455    137.7 2.600e+04 3.581e-08
 36.87438    132.8 2.880e+04 3.661e-08
 36.88421    127.7 2.931e+04 3.278e-08
 36.89404    122.8 3.008e+04 2.174e-08
 36.90387    118.6 2.965e+04 1.205e-08
 36.91727    108.8 2.675e+04 3.894e-09
 36.92710    112.7 2.881e+04 5.436e-09
 36.93834    107.9 2.701e+04 3.073e-09
 36.95805     95.3 1.857e+04 8.482e-10
 36.97771     86.7 1.119e+04 5.068e-10
 36.99738     85.0 1.048e+04 4.343e-10
 37.01704     83.9 1.027e+04 3.746e-10
 37.03671     81.7 1.066e+04 3.960e-10
 37.05637     77.8 1.242e+04 5.433e-10
 37.07604     73.4 1.431e+04 1.029e-09
 37.09015     70.4 1.516e+04 1.974e-09
 37.09502     72.9 1.540e+04 1.859e-09
 37.10052     72.3 1.529e+04 1.998e-09
 37.11035     71.4 1.535e+04 2.483e-09
 37.12018     71.2 1.531e+04 2.831e-09
 37.13001     71.1 1.535e+04 3.184e-09
 37.13985     71.2 1.547e+04 3.656e-09
 37.14968     70.6 1.581e+04 4.235e-09
 37.15951     69.5 1.722e+04 5.196e-09
 37.16934     67.9 2.023e+04 6.601e-09
 37.17647     65.7 2.440e+04 9.074e-09
 37.18138     61.5 3.226e+04 1.896e-08
 37.18901     59.1 3.289e+04 2.977e-08
 37.19884     57.2 3.270e+04 3.759e-08
 37.20867     55.4 3.327e+04 4.134e-08
 37.21850     53.9 3.179e+04 4.791e-08
 37.22834     52.7 3.041e+04 4.595e-08
 37.23817     51.3 3.019e+04 3.716e-08
 37.24800     50.2 2.920e+04 3.136e-08
 37.25783     49.2 2.805e+04 2.646e-08
 37.26288     48.6 2.716e+04 2.237e-08
 37.27276     45.1 2.380e+04 1.043e-08
 37.29234     45.1 2.213e+04 8.047e-09
 37.31201     45.4 2.099e+04 6.482e-09
 37.33167     45.8 2.027e+04 5.229e-09
 37.35134     46.5 1.957e+04 4.397e-09
 37.37100     47.1 1.897e+04 3.707e-09
 37.39067     47.6 1.836e+04 3.098e-09
 37.41033     47.5 1.736e+04 2.536e-09
 37.42598     47.1 1.616e+04 2.127e-09
 37.43581     42.2 1.157e+04 7.282e-10
 37.44966     42.5 1.133e+04 6.944e-10
 37.46932     42.8 1.130e+04 6.742e-10
 37.48899     43.1 1.124e+04 6.829e-10
 37.50865     43.3 1.126e+04 7.055e-10
 37.52832     43.4 1.134e+04 7.492e-10
 37.54798     43.3 1.145e+04 8.490e-10
 37.56765     43.2 1.194e+04 9.927e-10
 37.58731     43.6 1.261e+04 1.133e-09
 37.59881     44.1 1.301e+04 1.213e-09
 37.60864     43.6 1.123e+04 6.235e-10
 37.62664     44.0 1.136e+04 6.364e-10
 37.64630     44.6 1.131e+04 6.199e-10
 37.66597     45.4 1.121e+04 5.948e-10
 37.69556     46.1 1.201e+04 7.844e-10
 37.73499     47.4 1.130e+04 6.045e-10
 37.76201     49.1 1.056e+04 4.366e-10
 37.78167     48.7 8.629e+03 1.767e-10
 37.81365     50.7 8.309e+03 1.430e-10
 37.85297     53.0 8.151e+03 1.248e-10
 37.89230     55.5 8.073e+03 1.155e-10
 37.93163     58.1 8.051e+03 1.132e-10
 37.97096     60.9 8.068e+03 1.149e-10
 38.01029     63.7 8.118e+03 1.213e-10
 38.04962     66.6 8.201e+03 1.336e-10
 38.08800     69.6 8.327e+03 1.522e-10
 38.10767     69.7 8.250e+03 1.492e-10
 38.12828     72.8 8.465e+03 1.784e-10
 38.16761     76.0 8.746e+03 2.143e-10
 38.20693     79.3 9.095e+03 2.651e-10
 38.24626     82.7 9.515e+03 3.308e-10
 38.28559     85.9 9.858e+03 3.946e-10
 38.31499     87.8 9.958e+03 4.224e-10
 38.33456     89.0 9.983e+03 4.419e-10
 38.35422     90.8 1.010e+04 4.888e-10
 38.37389     93.0 1.035e+04 5.648e-10
 38.39355     95.2 1.066e+04 6.465e-10
 38.41322     97.1 1.094e+04 7.115e-10
 38.42431     98.7 1.114e+04 7.528e-10
 38.43414     98.5 1.095e+04 6.970e-10
 38.44330    100.0 1.107e+04 7.326e-10
 38.45314     99.3 1.097e+04 6.950e-10
 38.47221    100.5 1.105e+04 7.187e-10
 38.49187    101.7 1.112e+04 7.387e-10
 38.51154    102.2 1.133e+04 7.856e-10
 38.53120    101.4 1.234e+04 1.007e-09
 38.55087     98.6 1.602e+04 1.801e-09
 38.57053     95.1 1.947e+04 3.923e-09
 38.59019     92.2 2.100e+04 8.182e-09
 38.60630     90.2 2.154e+04 1.407e-08
 38.61613     92.4 1.953e+04 5.789e-09
 38.62952     90.1 2.010e+04 9.267e-09
 38.64919     88.4 2.031e+04 1.155e-08
 38.66885     87.0 2.024e+04 1.104e-08
 38.68852     85.6 1.988e+04 9.517e-09
 38.70818     83.8 1.911e+04 6.935e-09
 38.72785     81.5 1.775e+04 4.375e-09
 38.74751     78.6 1.607e+04 2.731e-09
 38.76717     75.3 1.472e+04 1.877e-09
 38.77913     71.8 1.416e+04 1.575e-09
 38.78897     75.3 1.471e+04 1.930e-09
 38.80650     71.7 1.438e+04 1.778e-09
 38.82617     68.5 1.434e+04 1.791e-09
 38.84583     65.8 1.415e+04 1.854e-09
 38.86550     63.6 1.405e+04 1.842e-09
 38.88516     62.0 1.379e+04 1.792e-09
 38.90483     60.8 1.352e+04 1.673e-09
 38.92449     59.8 1.327e+04 1.490e-09
 38.94213     58.7 1.305e+04 1.275e-09
 38.95196     61.0 1.289e+04 1.287e-09
 38.96382     59.9 1.259e+04 1.072e-09
 38.98348     58.3 1.223e+04 9.025e-10
 39.00315     56.7 1.182e+04 8.046e-10
 39.02281     55.5 1.168e+04 8.072e-10
 39.04248     54.3 1.175e+04 8.875e-10
 39.06214     53.1 1.226e+04 1.158e-09
 39.08181     52.3 1.310e+04 1.637e-09
 39.10147     51.6 1.389e+04 2.258e-09
 39.11496     50.8 1.467e+04 2.858e-09
 39.12480     52.2 1.463e+04 2.945e-09
 39.14080     51.3 1.533e+04 3.601e-09
 39.16046     50.2 1.571e+04 3.959e-09
 39.18013     49.1 1.630e+04 4.251e-09
 39.19979     48.2 1.667e+04 4.863e-09
 39.21946     48.2 1.676e+04 5.534e-09
 39.23912     48.6 1.676e+04 6.000e-09
 39.25878     49.4 1.669e+04 6.141e-09
 39.27796     50.4 1.658e+04 6.071e-09
 39.28780     50.0 1.627e+04 4.987e-09
 39.29811     51.0 1.631e+04 5.191e-09
 39.31778     51.9 1.634e+04 5.354e-09
 39.33744     52.9 1.636e+04 5.430e-09
 39.35711     53.9 1.639e+04 5.459e-09
 39.37677     54.8 1.640e+04 5.509e-09
 39.39644     55.4 1.646e+04 5.522e-09
 39.41610     55.9 1.639e+04 5.375e-09
 39.43576     56.0 1.618e+04 5.005e-09
 39.45079     55.7 1.588e+04 4.374e-09
 39.46063     57.3 1.571e+04 4.318e-09
 39.47509     56.8 1.555e+04 3.308e-09
 39.49476     55.1 1.646e+04 2.935e-09
 39.51442     51.8 1.737e+04 3.021e-09
 39.53409     47.4 1.749e+04 3.579e-09
 39.55375     41.0 1.860e+04 5.673e-09
 39.57342     33.0 2.129e+04 1.384e-08
 39.58811     28.9 2.197e+04 2.319e-08
 39.59790     28.2 2.156e+04 3.189e-08
 39.60773     27.9 2.145e+04 3.860e-08
 39.61756     27.7 2.131e+04 3.743e-08
 39.62353     27.7 2.103e+04 3.143e-08
 39.62844     27.2 2.112e+04 2.612e-08
 39.63723     26.9 2.092e+04 2.012e-08
 39.65202     24.5 2.016e+04 9.561e-09
 39.67174     20.9 1.786e+04 4.235e-09
 39.69140     17.2 1.444e+04 2.136e-09
 39.71107     16.3 1.277e+04 1.397e-09
 39.73073     17.3 1.221e+04 1.071e-09
 39.75040     18.7 1.193e+04 8.638e-10
 39.77006     19.7 1.165e+04 7.160e-10
 39.78662     20.6 1.124e+04 5.995e-10
 39.79646     21.0 1.159e+04 7.054e-10
 39.80939     22.2 1.097e+04 5.444e-10
 39.82905     23.2 1.068e+04 4.712e-10
 39.84872     24.6 1.037e+04 3.711e-10
 39.86838     24.9 1.032e+04 3.584e-10
 39.89798     27.3 1.010e+04 3.140e-10
 39.93740     29.5 9.829e+03 2.472e-10
 39.97673     31.6 9.595e+03 2.067e-10
 40.01606     33.6 9.410e+03 1.826e-10
 40.05539     35.6 9.287e+03 1.656e-10
 40.09472     37.9 9.133e+03 1.458e-10
 40.12265     40.3 8.946e+03 1.197e-10
 40.14231     40.0 8.986e+03 1.231e-10
 40.17338     42.5 8.805e+03 9.407e-11
 40.21270     44.8 8.669e+03 6.887e-11
 40.25203     46.8 8.592e+03 5.016e-11
 40.29136     48.6 8.509e+03 4.007e-11
 40.33069     50.7 8.435e+03 3.904e-11
 40.37002     53.0 8.436e+03 4.023e-11
 40.40935     55.2 8.468e+03 4.533e-11
 40.44865     57.6 8.533e+03 5.526e-11
 40.48798     59.2 8.868e+03 9.565e-11
 40.52733     61.6 8.997e+03 1.152e-10
 40.56666     63.9 9.109e+03 1.326e-10
 40.60599     66.1 9.203e+03 1.478e-10
 40.64532     68.1 9.303e+03 1.647e-10
 40.68465     70.0 9.462e+03 1.910e-10
 40.72398     71.9 9.720e+03 2.343e-10
 40.76331     73.6 1.001e+04 2.905e-10
 40.79271     74.2 1.013e+04 3.356e-10
 40.80395     75.1 1.027e+04 3.894e-10
 40.81378     74.2 1.061e+04 4.916e-10
 40.83194     74.9 1.111e+04 6.810e-10
 40.85160     75.6 1.169e+04 9.522e-10
 40.87127     76.3 1.224e+04 1.304e-09
 40.89093     77.1 1.271e+04 1.702e-09
 40.91060     78.3 1.303e+04 2.046e-09
 40.93026     79.5 1.318e+04 2.169e-09
 40.94992     80.6 1.313e+04 2.069e-09
 40.96695     81.9 1.292e+04 1.823e-09
 40.97678     81.5 1.282e+04 1.572e-09
 40.98925     82.4 1.246e+04 1.120e-09
 41.00892     82.8 1.203e+04 7.532e-10
 41.02858     83.0 1.152e+04 5.047e-10
 41.04825     83.2 1.095e+04 3.546e-10
 41.06791     83.9 1.052e+04 2.771e-10
 41.08757     84.2 1.029e+04 2.538e-10
 41.10724     85.3 9.945e+03 2.266e-10
 41.12690     86.1 9.760e+03 2.182e-10
 41.13988     88.7 9.736e+03 2.196e-10
 41.15964     87.2 9.747e+03 2.231e-10
 41.19592     90.3 9.740e+03 2.312e-10
 41.23525     93.5 9.798e+03 2.495e-10
 41.27458     96.7 9.932e+03 2.759e-10
 41.31391     99.9 1.004e+04 2.999e-10
 41.35324    103.0 1.013e+04 3.208e-10
 41.39257    105.4 1.013e+04 3.301e-10
 41.42197    106.9 1.008e+04 3.302e-10
 41.44153    108.8 1.007e+04 3.378e-10
 41.46120    110.6 1.025e+04 3.697e-10
 41.47561    112.1 1.051e+04 4.284e-10
 41.48544    112.2 1.045e+04 3.872e-10
 41.50053    113.3 1.068e+04 4.477e-10
 41.52019    114.3 1.086e+04 5.415e-10
 41.53986    115.5 1.106e+04 6.755e-10
 41.55952    116.9 1.134e+04 8.534e-10
 41.57919    118.4 1.166e+04 1.068e-09
 41.59885    119.9 1.199e+04 1.286e-09
 41.61851    121.4 1.232e+04 1.478e-09
 41.63818    122.8 1.266e+04 1.621e-09
 41.64844    124.1 1.299e+04 1.713e-09
 41.65827    124.3 1.331e+04 1.990e-09
 41.67751    125.4 1.374e+04 2.131e-09
 41.69717    126.2 1.413e+04 2.229e-09
 41.71684    126.6 1.442e+04 2.301e-09
 41.73650    126.7 1.455e+04 2.358e-09
 41.75616    126.5 1.462e+04 2.416e-09
 41.77583    126.1 1.472e+04 2.520e-09
 41.79549    125.2 1.487e+04 2.733e-09
 41.81144    124.2 1.511e+04 3.143e-09
 41.82127    125.8 1.532e+04 3.167e-09
 41.83482    124.7 1.547e+04 3.591e-09
 41.85449    123.8 1.576e+04 4.206e-09
 41.87415    122.9 1.582e+04 4.364e-09
 41.89382    121.6 1.572e+04 4.246e-09
 41.91348    120.1 1.535e+04 3.742e-09
 41.93314    118.6 1.475e+04 2.942e-09
 41.95281    116.8 1.406e+04 2.174e-09
 41.97247    114.6 1.344e+04 1.673e-09
 41.98427    112.4 1.299e+04 1.515e-09
 41.99410    111.9 1.393e+04 2.199e-09
 42.01180    110.5 1.383e+04 2.182e-09
 42.03147    109.6 1.375e+04 2.169e-09
 42.05113    109.1 1.364e+04 2.141e-09
 42.07080    109.0 1.350e+04 2.081e-09
 42.09046    109.0 1.334e+04 1.967e-09
 42.11012    109.1 1.316e+04 1.816e-09
 42.12979    109.2 1.294e+04 1.649e-09
 42.14727    109.4 1.268e+04 1.481e-09
 42.15710    108.3 1.299e+04 1.658e-09
 42.16912    108.7 1.261e+04 1.433e-09
 42.18878    109.3 1.223e+04 1.231e-09
 42.20845    110.0 1.184e+04 1.051e-09
 42.22811    110.8 1.145e+04 8.910e-10
 42.24777    111.6 1.110e+04 7.513e-10
 42.26744    112.3 1.077e+04 6.358e-10
 42.28710    113.0 1.045e+04 5.457e-10
 42.30677    113.7 1.017e+04 4.827e-10
 42.32010    114.4 9.972e+03 4.447e-10
 42.32993    113.9 9.961e+03 4.514e-10
 42.34610    114.9 9.893e+03 4.419e-10
 42.36576    116.1 9.865e+03 4.396e-10
 42.38543    117.2 9.853e+03 4.409e-10
 42.40509    118.4 9.848e+03 4.431e-10
 42.42475    119.7 9.846e+03 4.436e-10
 42.44442    120.9 9.838e+03 4.421e-10
 42.46408    122.2 9.829e+03 4.391e-10
 42.48310    123.4 9.830e+03 4.377e-10
 42.49293    123.4 1.008e+04 5.072e-10
 42.50341    124.6 1.006e+04 4.992e-10
 42.52090    125.7 1.006e+04 4.938e-10
 42.53073    124.5 9.973e+03 4.626e-10
 42.54274    125.4 1.003e+04 4.735e-10
 42.56241    126.2 1.010e+04 4.931e-10
 42.58207    127.0 1.020e+04 5.219e-10
 42.60173    127.6 1.032e+04 5.591e-10
 42.62140    128.3 1.047e+04 6.130e-10
 42.64106    128.9 1.071e+04 7.024e-10
 42.65593    129.6 1.106e+04 8.223e-10
 42.66576    130.3 1.079e+04 7.318e-10
 42.68039    130.9 1.109e+04 8.514e-10
 42.70006    131.5 1.142e+04 1.001e-09
 42.71972    132.2 1.177e+04 1.177e-09
 42.73939    133.0 1.212e+04 1.372e-09
 42.75905    133.8 1.242e+04 1.559e-09
 42.77871    134.7 1.269e+04 1.677e-09
 42.79838    135.5 1.281e+04 1.681e-09
 42.81804    136.3 1.283e+04 1.655e-09
 42.82876    137.1 1.281e+04 1.563e-09
 42.83859    136.8 1.288e+04 1.667e-09
 42.85737    137.4 1.282e+04 1.544e-09
 42.87704    137.7 1.269e+04 1.410e-09
 42.89670    137.9 1.253e+04 1.295e-09
 42.91636    138.0 1.236e+04 1.212e-09
 42.93603    138.1 1.221e+04 1.166e-09
 42.95569    138.4 1.216e+04 1.168e-09
 42.97536    138.6 1.220e+04 1.210e-09
 42.99176    138.7 1.253e+04 1.401e-09
 43.00159    137.9 1.238e+04 1.305e-09
 43.01469    138.0 1.306e+04 1.649e-09
 43.03435    138.0 1.398e+04 2.215e-09
 43.05402    138.0 1.494e+04 3.024e-09
 43.07368    138.0 1.581e+04 4.015e-09
 43.09334    137.8 1.648e+04 4.953e-09
 43.11301    137.7 1.681e+04 5.454e-09
 43.13267    137.4 1.677e+04 5.391e-09
 43.15234    137.4 1.653e+04 4.980e-09
 43.16459    137.5 1.613e+04 4.358e-09
 43.17442    136.5 1.625e+04 4.717e-09
 43.19167    137.0 1.583e+04 4.040e-09
 43.21133    137.4 1.525e+04 3.190e-09
 43.23100    137.7 1.458e+04 2.428e-09
 43.25066    137.9 1.390e+04 1.871e-09
 43.27032    138.0 1.331e+04 1.526e-09
 43.28999    138.3 1.298e+04 1.401e-09
 43.30965    139.2 1.298e+04 1.408e-09
 43.32759    140.1 1.311e+04 1.484e-09
 43.33742    139.9 1.415e+04 2.178e-09
 43.34898    140.5 1.458e+04 2.522e-09
 43.36865    141.2 1.512e+04 3.092e-09
 43.38831    142.1 1.575e+04 3.884e-09
 43.40798    143.4 1.647e+04 4.973e-09
 43.42764    144.7 1.724e+04 6.402e-09
 43.44730    145.9 1.802e+04 8.004e-09
 43.46697    146.5 1.870e+04 9.203e-09
 43.48663    146.4 1.912e+04 9.387e-09
 43.50042    145.7 1.938e+04 9.156e-09
 43.50529    143.3 1.972e+04 1.007e-08
 43.51112    142.8 1.999e+04 1.039e-08
 43.52095    141.7 2.015e+04 1.049e-08
 43.53078    140.7 2.035e+04 1.068e-08
 43.54061    139.5 2.059e+04 1.108e-08
 43.54986    137.9 2.082e+04 1.173e-08
 43.55478    137.7 2.056e+04 9.928e-09
 43.56028    135.1 2.095e+04 1.096e-08
 43.57011    131.8 2.161e+04 1.277e-08
 43.57994    127.7 2.271e+04 1.594e-08
 43.58674    122.8 2.426e+04 2.165e-08
 43.59166    117.8 2.614e+04 3.373e-08
 43.59961    111.0 2.791e+04 6.167e-08
 43.60944    103.8 2.808e+04 1.173e-07
 43.61927     96.6 2.690e+04 1.948e-07
 43.62910     90.1 2.511e+04 2.549e-07
 43.63893     84.9 2.426e+04 2.511e-07
 43.64877     81.2 2.360e+04 2.242e-07
 43.65860     78.3 2.363e+04 1.806e-07
 43.66824     76.1 2.407e+04 1.380e-07
 43.67316     74.0 2.612e+04 6.983e-08
 43.67826     72.0 2.708e+04 4.838e-08
 43.68810     70.1 2.732e+04 3.343e-08
 43.69793     68.0 2.624e+04 2.360e-08
 43.70776     65.9 2.403e+04 1.733e-08
 43.71759     64.0 2.183e+04 1.373e-08
 43.72742     62.7 2.043e+04 1.183e-08
 43.73726     62.0 1.989e+04 1.096e-08
 43.74709     61.7 1.992e+04 1.090e-08
 43.75465     61.3 2.005e+04 1.104e-08
 43.75957     61.0 1.899e+04 8.636e-09
 43.76675     60.6 1.917e+04 8.745e-09
 43.77659     59.9 1.941e+04 8.977e-09
 43.78642     59.0 1.968e+04 9.300e-09
 43.79625     57.9 1.990e+04 9.758e-09
 43.80608     57.1 2.011e+04 1.015e-08
 43.81591     56.4 2.020e+04 1.027e-08
 43.82575     56.1 2.036e+04 1.044e-08
 43.83620     55.3 2.075e+04 1.152e-08
 43.84608     57.8 1.869e+04 7.798e-09
 43.86026     57.7 1.794e+04 6.066e-09
 43.87992     57.3 1.694e+04 4.437e-09
 43.89959     57.2 1.589e+04 3.254e-09
 43.91925     57.0 1.504e+04 2.439e-09
 43.93891     56.4 1.439e+04 1.851e-09
 43.95858     55.4 1.411e+04 1.631e-09
 43.97824     54.1 1.417e+04 1.651e-09
 43.99791     52.2 1.441e+04 1.810e-09
 44.00908     51.6 1.475e+04 2.232e-09
 44.01892     49.3 1.489e+04 2.568e-09
 44.03724     49.5 1.510e+04 3.001e-09
 44.05690     50.1 1.530e+04 3.188e-09
 44.07656     50.2 1.545e+04 3.150e-09
 44.09623     49.6 1.573e+04 2.990e-09
 44.11589     48.0 1.610e+04 2.896e-09
 44.13556     45.6 1.611e+04 2.858e-09
 44.15522     43.1 1.595e+04 2.904e-09
 44.17208     40.5 1.603e+04 3.171e-09
 44.18187     38.9 1.627e+04 3.055e-09
 44.18954     35.8 1.862e+04 3.770e-09
 44.19937     32.7 2.161e+04 4.803e-09
 44.20920     28.0 2.474e+04 7.171e-09
 44.21903     25.0 2.486e+04 9.917e-09
 44.22887     21.1 2.525e+04 1.389e-08
 44.23870     18.0 2.502e+04 1.803e-08
 44.24853     14.0 2.549e+04 2.590e-08
 44.25836     11.4 2.512e+04 3.539e-08
 44.26820      8.6 2.430e+04 8.350e-08
 44.27803      7.2 2.417e+04 8.752e-08
 44.28786      6.7 2.412e+04 7.607e-08
 44.29769      6.3 2.424e+04 5.500e-08
 44.30752      5.9 2.422e+04 3.594e-08
 44.31736      5.8 2.364e+04 2.288e-08
 44.33215      3.5 2.217e+04 9.858e-09
 44.34491      2.5 1.890e+04 4.501e-09
 44.35475      3.1 2.007e+04 8.015e-09
 44.37153      3.2 1.807e+04 4.585e-09
 44.39120      4.0 1.667e+04 2.847e-09
 44.41086      4.8 1.572e+04 1.864e-09
 44.43052      5.4 1.483e+04 1.230e-09
 44.45019      5.2 1.394e+04 8.824e-10
 44.46985      5.0 1.288e+04 7.055e-10
 44.48952      5.4 1.184e+04 6.100e-10
 44.50791      6.0 1.124e+04 5.773e-10
 44.51774      8.2 1.302e+04 9.041e-10
 44.52885      8.6 1.241e+04 8.343e-10
 44.54851      9.3 1.200e+04 7.806e-10
 44.56818      9.4 1.181e+04 7.242e-10
 44.57902      9.1 1.175e+04 6.628e-10
 44.58886     11.6 1.210e+04 7.272e-10
 44.60750     10.7 1.204e+04 6.622e-10
 44.62717      9.2 1.203e+04 6.471e-10
 44.64683      7.4 1.195e+04 6.807e-10
 44.66650      5.5 1.202e+04 7.763e-10
 44.68074      3.1 1.259e+04 9.964e-10
 44.69058      5.5 1.310e+04 1.127e-09
 44.70583      2.4 1.358e+04 1.419e-09
 44.72549     -0.4 1.397e+04 1.721e-09
 44.74515     -4.3 1.518e+04 2.127e-09
 44.76482     -9.7 1.641e+04 2.705e-09
 44.78448    -14.7 1.624e+04 2.940e-09
 44.80415    -18.7 1.460e+04 2.658e-09
 44.82381    -21.2 1.413e+04 2.348e-09
 44.84348    -23.1 1.457e+04 2.234e-09
 44.85358    -26.8 1.536e+04 2.003e-09
 44.86341    -28.8 1.707e+04 2.955e-09
 44.88281    -33.8 1.703e+04 2.930e-09
 44.90247    -37.4 1.616e+04 2.777e-09
 44.92213    -40.1 1.529e+04 2.647e-09
 44.94180    -41.4 1.485e+04 2.755e-09
 44.96146    -41.9 1.493e+04 2.858e-09
 44.98113    -42.0 1.499e+04 2.900e-09
 45.00079    -42.0 1.491e+04 2.876e-09
 45.01657    -41.6 1.463e+04 2.669e-09
 45.02641    -42.1 1.409e+04 1.908e-09
 45.04012    -41.9 1.357e+04 1.488e-09
 45.05979    -41.6 1.315e+04 1.178e-09
 45.07945    -41.4 1.278e+04 9.412e-10
 45.09911    -41.4 1.235e+04 7.557e-10
 45.11878    -41.2 1.194e+04 6.265e-10
 45.13844    -40.9 1.159e+04 5.444e-10
 45.15811    -40.6 1.121e+04 4.817e-10
 45.17777    -40.0 1.086e+04 4.354e-10
 45.18941    -39.1 1.065e+04 4.066e-10
 45.19924    -39.7 1.038e+04 3.733e-10
 45.21710    -38.4 1.036e+04 3.603e-10
 45.24669    -37.9 1.023e+04 3.326e-10
 45.28612    -35.8 1.000e+04 2.992e-10
 45.32545    -33.8 9.931e+03 2.947e-10
 45.36478    -31.6 9.900e+03 3.141e-10
 45.40411    -29.0 9.944e+03 3.481e-10
 45.44344    -26.1 9.994e+03 3.717e-10
 45.48277    -23.2 9.921e+03 3.594e-10
 45.51560    -20.5 9.850e+03 3.356e-10
 45.53526    -22.1 9.299e+03 2.120e-10
 45.56142    -20.0 9.176e+03 1.982e-10
 45.60075    -17.9 9.296e+03 2.383e-10
 45.64008    -15.1 9.418e+03 2.945e-10
 45.67941    -11.7 9.573e+03 3.459e-10
 45.71874     -8.6 9.585e+03 3.507e-10
 45.75807     -5.1 9.375e+03 2.974e-10
 45.79740     -1.9 9.113e+03 2.181e-10
 45.83672      0.8 8.946e+03 1.551e-10
 45.86126      2.9 8.886e+03 1.245e-10
 45.88093      3.8 8.642e+03 1.243e-10
 45.91538      6.5 8.731e+03 1.203e-10
 45.95471      8.9 9.012e+03 1.441e-10
 45.99404     11.5 9.315e+03 1.987e-10
 46.03337     14.2 9.771e+03 2.737e-10
 46.06277     17.3 9.984e+03 3.442e-10
 46.08233     18.3 1.021e+04 3.832e-10
 46.10200     20.5 1.044e+04 4.332e-10
 46.12166     21.3 1.068e+04 4.687e-10
 46.14133     23.0 1.099e+04 5.136e-10
 46.16099     24.0 1.142e+04 5.633e-10
 46.18066     24.7 1.251e+04 6.987e-10
 46.19690     25.1 1.259e+04 7.221e-10
 46.20683     27.9 1.129e+04 5.590e-10
 46.23001     30.1 1.210e+04 7.031e-10
 46.26934     31.8 1.292e+04 9.644e-10
 46.29874     31.5 1.344e+04 1.319e-09
 46.31831     32.4 1.377e+04 1.606e-09
 46.33797     33.4 1.416e+04 1.919e-09
 46.35764     34.6 1.431e+04 2.278e-09
 46.36973     35.9 1.426e+04 2.591e-09
 46.37956     37.4 1.431e+04 2.227e-09
 46.39697     38.6 1.437e+04 2.407e-09
 46.41663     39.9 1.432e+04 2.562e-09
 46.43629     41.3 1.420e+04 2.695e-09
 46.45596     42.5 1.405e+04 2.799e-09
 46.47562     43.7 1.402e+04 2.916e-09
 46.49529     44.9 1.413e+04 3.072e-09
 46.51495     46.1 1.435e+04 3.259e-09
 46.53273     47.4 1.452e+04 3.394e-09
 46.54256     48.0 1.414e+04 2.548e-09
 46.55428     49.1 1.439e+04 2.770e-09
 46.57394     50.3 1.460e+04 2.918e-09
 46.59361     51.7 1.475e+04 2.920e-09
 46.61327     53.1 1.478e+04 2.822e-09
 46.62732     54.4 1.472e+04 2.573e-09
 46.63715     53.3 1.456e+04 2.433e-09
 46.65260     54.4 1.423e+04 2.070e-09
 46.67227     55.3 1.372e+04 1.726e-09
 46.69193     56.2 1.317e+04 1.457e-09
 46.70556     57.0 1.266e+04 1.265e-09
 46.71539     57.8 1.422e+04 1.936e-09
 46.73126     58.6 1.357e+04 1.610e-09
 46.75092     59.5 1.288e+04 1.356e-09
 46.77059     60.5 1.224e+04 1.161e-09
 46.79025     61.8 1.167e+04 1.004e-09
 46.80992     63.2 1.119e+04 8.663e-10
 46.82958     64.7 1.076e+04 7.335e-10
 46.84925     66.3 1.037e+04 6.028e-10
 46.86856     67.9 1.007e+04 5.002e-10
 46.87839     68.3 1.017e+04 4.705e-10
 46.88858     69.6 9.975e+03 3.639e-10
 46.90824     70.5 9.898e+03 3.102e-10
 46.93783     72.0 9.729e+03 2.523e-10
 46.97726     74.7 9.323e+03 1.948e-10
 47.01659     77.6 8.956e+03 1.584e-10
 47.05592     80.6 8.698e+03 1.394e-10
 47.09525     83.7 8.604e+03 1.351e-10
 47.13458     86.8 8.596e+03 1.384e-10
 47.17390     89.9 8.600e+03 1.477e-10
 47.20458     93.0 8.665e+03 1.621e-10
 47.22425     93.0 8.685e+03 1.461e-10
 47.25256     96.1 8.761e+03 1.671e-10
 47.29189     99.1 8.833e+03 1.843e-10
 47.33122    101.9 8.902e+03 1.888e-10
 47.37055    104.5 8.912e+03 1.878e-10
 47.40988    107.1 8.913e+03 1.829e-10
 47.44921    109.6 8.908e+03 1.744e-10
 47.48854    112.1 8.945e+03 1.707e-10
 47.52786    114.6 8.981e+03 1.721e-10
 47.55024    117.2 9.075e+03 1.791e-10
 47.56991    117.9 8.882e+03 1.738e-10
 47.60652    120.6 8.915e+03 1.752e-10
 47.64585    123.2 9.027e+03 1.829e-10
 47.68518    126.0 9.192e+03 2.021e-10
 47.72451    128.8 9.457e+03 2.380e-10
 47.76384    131.5 9.788e+03 2.918e-10
 47.80317    134.3 1.015e+04 3.598e-10
 47.83256    135.7 1.024e+04 3.825e-10
 47.85213    137.0 1.034e+04 4.106e-10
 47.87180    138.3 1.050e+04 4.678e-10
 47.88588    139.8 1.071e+04 5.504e-10
 47.89571    139.8 1.082e+04 5.090e-10
 47.91112    141.3 1.110e+04 6.195e-10
 47.93079    142.7 1.137e+04 7.362e-10
 47.95045    144.2 1.161e+04 8.480e-10
 47.97012    145.5 1.183e+04 9.486e-10
 47.98978    146.8 1.203e+04 1.041e-09
 48.00945    148.2 1.225e+04 1.130e-09
 48.02911    149.5 1.247e+04 1.216e-09
 48.04878    150.9 1.269e+04 1.303e-09
 48.05871    152.3 1.292e+04 1.385e-09
 48.06854    151.0 1.476e+04 2.594e-09
 48.08810    152.5 1.500e+04 2.873e-09
 48.10777    154.0 1.522e+04 3.106e-09
 48.12743    155.4 1.544e+04 3.423e-09
 48.14710    157.0 1.544e+04 3.648e-09
 48.16676    158.6 1.544e+04 3.737e-09
 48.18643    160.2 1.551e+04 3.748e-09
 48.20609    161.7 1.552e+04 3.704e-09
 48.22171    163.4 1.559e+04 3.619e-09
 48.23149    162.3 1.597e+04 6.315e-09
 48.24041    163.2 1.610e+04 6.387e-09
 48.25024    163.7 1.620e+04 6.450e-09
 48.26007    164.5 1.627e+04 6.428e-09
 48.26990    165.0 1.628e+04 6.419e-09
 48.27973    165.9 1.631e+04 6.329e-09
 48.28957    166.5 1.630e+04 6.258e-09
 48.29940    167.4 1.632e+04 6.144e-09
 48.30803    167.9 1.636e+04 6.039e-09
 48.31294    167.9 1.645e+04 6.250e-09
 48.32403    169.5 1.653e+04 6.389e-09
 48.34374    171.0 1.667e+04 6.510e-09
 48.36341    172.7 1.685e+04 6.710e-09
 48.38307    174.3 1.714e+04 7.032e-09
 48.39454    175.7 1.740e+04 7.217e-09
 48.39941    174.5 1.782e+04 9.660e-09
 48.40755    174.7 1.771e+04 9.558e-09
 48.41739    175.4 1.735e+04 9.185e-09
 48.42722    176.4 1.700e+04 8.781e-09
 48.43705    177.6 1.699e+04 8.563e-09
 48.44688    178.6 1.702e+04 8.557e-09
 48.45671    179.4 1.706e+04 8.540e-09
 48.46655    180.2 1.708e+04 8.454e-09
 48.47594    181.0 1.708e+04 8.270e-09
 48.48086    181.0 1.719e+04 8.630e-09
 48.48621    181.9 1.723e+04 8.431e-09
 48.49604    182.8 1.728e+04 8.184e-09
 48.50588    183.5 1.730e+04 7.880e-09
 48.51571    184.3 1.731e+04 7.542e-09
 48.52554    185.1 1.732e+04 7.226e-09
 48.53537    186.0 1.741e+04 6.957e-09
 48.54520    186.8 1.761e+04 6.743e-09
 48.55504    187.5 1.783e+04 6.552e-09
 48.56236    188.1 1.810e+04 6.365e-09
 48.56727    187.9 1.671e+04 5.557e-09
 48.57470    188.6 1.662e+04 5.270e-09
 48.58453    189.0 1.654e+04 5.093e-09
 48.59437    189.7 1.649e+04 4.834e-09
 48.60420    190.2 1.657e+04 4.677e-09
 48.61403    190.8 1.666e+04 4.621e-09
 48.62386    191.2 1.673e+04 4.613e-09
 48.63369    191.7 1.696e+04 4.610e-09
 48.64353    192.0 1.720e+04 4.648e-09
 48.64877    192.5 1.754e+04 4.734e-09
 48.65369    193.0 1.744e+04 4.801e-09
 48.66319    193.6 1.777e+04 4.935e-09
 48.67302    194.3 1.805e+04 5.050e-09
 48.68043    194.8 1.840e+04 5.253e-09
 48.68535    194.6 1.834e+04 4.930e-09
 48.69269    195.3 1.873e+04 5.218e-09
 48.70252    195.7 1.922e+04 5.582e-09
 48.71235    195.9 1.972e+04 5.978e-09
 48.72218    196.1 2.033e+04 6.434e-09
 48.73027    196.1 2.101e+04 6.937e-09
 48.74015    197.4 1.688e+04 4.713e-09
 48.75669    196.8 1.901e+04 5.936e-09
 48.77636    194.8 2.176e+04 8.335e-09
 48.79602    191.8 2.340e+04 1.206e-08
 48.81569    188.1 2.318e+04 1.466e-08
 48.83535    183.7 2.282e+04 1.446e-08
 48.85502    178.9 2.134e+04 1.275e-08
 48.87468    175.4 1.922e+04 9.335e-09
 48.89337    173.6 1.710e+04 5.960e-09
 48.90320    174.8 1.779e+04 5.786e-09
 48.91401    173.3 1.544e+04 3.137e-09
 48.93367    171.9 1.359e+04 1.733e-09
 48.95334    170.5 1.237e+04 1.060e-09
 48.97300    169.5 1.175e+04 7.703e-10
 48.99267    169.3 1.152e+04 6.541e-10
 49.01233    169.5 1.139e+04 6.017e-10
 49.03200    170.2 1.132e+04 5.878e-10
 49.05166    170.9 1.132e+04 5.889e-10
 49.06620    171.6 1.137e+04 6.004e-10
 49.07603    171.0 1.173e+04 6.956e-10
 49.09099    171.4 1.178e+04 7.398e-10
 49.11065    171.8 1.184e+04 7.914e-10
 49.13032    172.3 1.189e+04 8.401e-10
 49.14998    172.9 1.194e+04 8.802e-10
 49.16965    173.6 1.202e+04 9.020e-10
 49.18931    174.3 1.209e+04 9.006e-10
 49.20898    175.2 1.208e+04 8.993e-10
 49.22864    176.1 1.208e+04 8.967e-10
 49.23903    177.3 1.209e+04 8.962e-10
 49.24887    176.2 1.199e+04 8.492e-10
 49.26797    177.7 1.201e+04 8.443e-10
 49.28763    179.3 1.202e+04 8.461e-10
 49.30730    181.0 1.208e+04 8.537e-10
 49.32696    182.8 1.217e+04 8.719e-10
 49.34663    184.5 1.229e+04 8.984e-10
 49.36629    186.3 1.236e+04 9.294e-10
 49.38596    188.2 1.252e+04 9.486e-10
 49.40203    190.1 1.287e+04 9.785e-10
 49.41186    189.8 1.281e+04 8.449e-10
 49.42528    192.1 1.316e+04 9.111e-10
 49.44495    194.7 1.342e+04 9.686e-10
 49.46461    197.8 1.376e+04 1.001e-09
 49.48428    200.0 1.644e+04 9.876e-10
 49.50394    195.4 3.857e+04 8.340e-10
 49.52361    187.5 7.016e+04 1.503e-09
 49.53831    185.5 6.494e+04 3.770e-09
 49.54809    183.0 4.977e+04 1.975e-08
 49.55792    179.5 4.112e+04 7.804e-08
 49.56775    171.2 3.792e+04 1.798e-07
 49.57477    159.8 3.527e+04 2.602e-07
 49.57720    160.1 2.086e+04 3.934e-06
 49.57999    151.7 2.143e+04 2.985e-06
 49.58491    145.5 2.299e+04 1.664e-06
 49.58983    142.4 2.235e+04 1.379e-06
 49.59474    142.1 2.166e+04 1.446e-06
 49.59966    142.8 2.075e+04 1.736e-06
 49.60458    143.6 1.940e+04 2.868e-06
 49.60949    145.2 1.873e+04 5.728e-06
 49.61441    146.0 1.802e+04 1.337e-05
 49.61792    144.3 1.707e+04 3.369e-05
 49.62038    147.0 1.749e+04 1.804e-05
 49.62424    141.9 1.795e+04 2.197e-05
 49.62916    133.8 1.999e+04 1.655e-05
 49.63407    120.9 2.445e+04 7.269e-06
 49.63899    103.8 4.014e+04 7.670e-07
 49.64390     82.5 6.150e+04 5.628e-08
 49.64882     62.3 7.770e+04 8.184e-09
 49.65374     34.5 5.610e+04 3.797e-09
 49.65865     23.3 3.637e+04 5.053e-09
 49.66605     17.3 3.058e+04 3.821e-09
 49.67591     10.0 3.217e+04 2.812e-09
 49.68574      4.4 2.386e+04 2.735e-09
 49.69557     -1.9 1.924e+04 2.907e-09
 49.70458     -3.6 1.894e+04 2.756e-09
 49.70949     -4.2 1.884e+04 2.656e-09
 49.71524     -8.4 1.908e+04 2.960e-09
 49.72507     -9.0 1.878e+04 3.009e-09
 49.73490    -10.8 1.897e+04 3.571e-09
 49.74268    -10.8 1.890e+04 3.797e-09
 49.74760     -9.5 1.865e+04 3.499e-09
 49.75457    -10.0 1.890e+04 4.123e-09
 49.76440    -10.5 1.924e+04 4.686e-09
 49.77423    -12.3 1.995e+04 5.924e-09
 49.78406    -13.5 2.023e+04 7.106e-09
 49.79389    -14.0 2.042e+04 8.178e-09
 49.80373    -14.2 2.060e+04 9.017e-09
 49.81356    -14.2 2.071e+04 9.411e-09
 49.82339    -14.2 2.066e+04 9.284e-09
 49.82910    -14.2 2.033e+04 8.651e-09
 49.83401    -12.2 2.046e+04 8.745e-09
 49.84306    -12.3 2.001e+04 7.895e-09
 49.85289    -12.4 1.934e+04 6.838e-09
 49.86272    -12.9 1.865e+04 6.043e-09
 49.87255    -12.8 1.799e+04 5.194e-09
 49.88238    -12.7 1.772e+04 4.806e-09
 49.89222    -11.9 1.741e+04 4.229e-09
 49.90205    -11.6 1.737e+04 4.137e-09
 49.91060    -10.6 1.701e+04 3.788e-09
 49.91551     -9.6 1.709e+04 3.753e-09
 49.92171     -9.5 1.707e+04 3.743e-09
 49.93651     -8.0 1.658e+04 3.472e-09
 49.95622     -7.1 1.580e+04 3.212e-09
 49.97589     -5.3 1.560e+04 3.247e-09
 49.99555     -3.3 1.560e+04 3.342e-09
 50.01522     -1.0 1.570e+04 3.489e-09
 50.03488      1.2 1.577e+04 3.636e-09
 50.05455      3.2 1.581e+04 3.750e-09
 50.06924      5.4 1.571e+04 3.598e-09
 50.07851      5.6 1.577e+04 3.638e-09
 50.08348      5.9 1.527e+04 3.154e-09
 50.09387      7.8 1.539e+04 3.216e-09
 50.11354      9.7 1.548e+04 3.285e-09
 50.13320     11.4 1.558e+04 3.351e-09
 50.15287     13.0 1.569e+04 3.444e-09
 50.17253     14.1 1.566e+04 3.553e-09
 50.19220     14.8 1.650e+04 4.422e-09
 50.21186     15.6 1.752e+04 5.986e-09
 50.23152     16.4 1.838e+04 7.847e-09
 50.24652     16.8 1.898e+04 9.634e-09
 50.25636     17.2 1.752e+04 5.118e-09
 50.27085     17.4 1.792e+04 6.065e-09
 50.29052     17.8 1.773e+04 6.172e-09
 50.31018     18.6 1.714e+04 5.720e-09
 50.32985     19.5 1.631e+04 4.878e-09
 50.34951     20.2 1.557e+04 4.108e-09
 50.36918     20.9 1.499e+04 3.483e-09
 50.38884     21.6 1.455e+04 3.016e-09
 50.40850     22.3 1.423e+04 2.649e-09
 50.41936     23.0 1.397e+04 2.406e-09
 50.42919     22.7 1.327e+04 1.904e-09
 50.44783     23.4 1.311e+04 1.740e-09
 50.46750     24.1 1.291e+04 1.604e-09
 50.48716     24.7 1.269e+04 1.486e-09
 50.50683     25.5 1.248e+04 1.379e-09
 50.52649     26.4 1.232e+04 1.292e-09
 50.54616     27.1 1.220e+04 1.218e-09
 50.56582     27.8 1.211e+04 1.162e-09
 50.58235     28.4 1.203e+04 1.137e-09
 50.59219     28.0 1.202e+04 1.123e-09
 50.60515     28.8 1.197e+04 1.140e-09
 50.62481     29.7 1.191e+04 1.156e-09
 50.64448     30.7 1.185e+04 1.158e-09
 50.66414     31.9 1.177e+04 1.142e-09
 50.68381     33.3 1.170e+04 1.110e-09
 50.70347     34.5 1.164e+04 1.059e-09
 50.72313     35.6 1.155e+04 9.912e-10
 50.73374     36.7 1.144e+04 9.256e-10
 50.74357     36.4 1.113e+04 7.825e-10
 50.75519     37.5 1.112e+04 7.747e-10
 50.76502     37.3 1.088e+04 6.889e-10
 50.78213     38.3 1.089e+04 6.912e-10
 50.80179     39.2 1.092e+04 7.055e-10
 50.82146     40.1 1.102e+04 7.447e-10
 50.84112     41.1 1.120e+04 8.193e-10
 50.86079     42.0 1.146e+04 9.366e-10
 50.88045     42.8 1.176e+04 1.088e-09
 50.90011     43.7 1.207e+04 1.267e-09
 50.91818     44.6 1.241e+04 1.478e-09
 50.92802     44.6 1.220e+04 1.353e-09
 50.93944     45.4 1.258e+04 1.585e-09
 50.95911     46.1 1.297e+04 1.860e-09
 50.97877     46.9 1.341e+04 2.185e-09
 50.99844     47.6 1.387e+04 2.527e-09
 51.01810     48.1 1.430e+04 2.870e-09
 51.03777     48.5 1.471e+04 3.198e-09
 51.05743     48.7 1.504e+04 3.442e-09
 51.07709     48.7 1.531e+04 3.629e-09
 51.09102     48.7 1.557e+04 3.818e-09
 51.10085     49.2 1.575e+04 4.189e-09
 51.11642     49.1 1.607e+04 4.496e-09
 51.13609     48.6 1.671e+04 5.126e-09
 51.15575     46.9 1.814e+04 6.945e-09
 51.17542     44.6 1.973e+04 1.032e-08
 51.19012     44.0 2.029e+04 1.227e-08
 51.19990     43.0 2.101e+04 1.544e-08
 51.20973     42.0 2.180e+04 2.097e-08
 51.21956     41.1 2.241e+04 2.544e-08
 51.22940     40.1 2.308e+04 3.098e-08
 51.23923     39.2 2.353e+04 3.087e-08
 51.24906     37.9 2.414e+04 2.691e-08
 51.25883     37.0 2.447e+04 2.252e-08
 51.26375     37.1 2.367e+04 5.995e-08
 51.26872     36.6 2.396e+04 3.889e-08
 51.27856     36.2 2.428e+04 2.254e-08
 51.28839     35.0 2.389e+04 1.536e-08
 51.29822     33.5 2.313e+04 8.863e-09
 51.31302     30.8 2.088e+04 5.111e-09
 51.33273     27.5 1.636e+04 2.765e-09
 51.35240     26.4 1.467e+04 2.055e-09
 51.37206     26.9 1.449e+04 1.897e-09
 51.39172     27.5 1.458e+04 1.867e-09
 51.41139     28.0 1.468e+04 1.925e-09
 51.42685     28.2 1.502e+04 2.089e-09
 51.43668     26.2 1.451e+04 2.030e-09
 51.45072     26.3 1.485e+04 2.379e-09
 51.47038     26.5 1.524e+04 2.862e-09
 51.49005     26.4 1.568e+04 3.478e-09
 51.50971     26.0 1.643e+04 4.357e-09
 51.52938     25.2 1.740e+04 5.602e-09
 51.54904     24.5 1.804e+04 6.191e-09
 51.56870     24.0 1.817e+04 5.947e-09
 51.58340     22.0 1.743e+04 4.474e-09
 51.59319     21.2 1.687e+04 4.074e-09
 51.59958     19.3 1.671e+04 3.790e-09
 51.60946     18.3 1.624e+04 3.319e-09
 51.62770     16.2 1.601e+04 2.955e-09
 51.64736     13.8 1.541e+04 2.348e-09
 51.66703     11.2 1.438e+04 1.688e-09
 51.68669      8.3 1.326e+04 1.190e-09
 51.70636      5.3 1.245e+04 8.695e-10
 51.72602      2.7 1.200e+04 6.964e-10
 51.74568      0.3 1.207e+04 6.687e-10
 51.76268     -1.7 1.219e+04 6.844e-10
 51.77251      0.4 1.133e+04 5.720e-10
 51.78501     -0.7 1.148e+04 5.986e-10
 51.80468     -1.7 1.174e+04 6.552e-10
 51.82434     -2.1 1.190e+04 7.140e-10
 51.83904     -2.5 1.241e+04 7.981e-10
 51.84882     -3.0 1.399e+04 8.716e-10
 51.85391     -6.3 2.005e+04 1.345e-09
 51.85883     -1.9 1.255e+04 8.217e-10
 51.86849     -3.3 1.563e+04 9.980e-10
 51.87832    -10.5 2.391e+04 2.703e-09
 51.88815    -25.7 2.705e+04 2.490e-08
 51.89799    -42.4 2.602e+04 2.157e-07
 51.90782    -54.3 2.557e+04 5.759e-07
 51.91765    -62.4 2.751e+04 5.387e-07
 51.92748    -68.6 3.106e+04 3.414e-07
 51.93541    -75.2 4.363e+04 8.454e-08
 51.94033    -64.8 2.897e+04 4.146e-07
 51.94715    -71.9 3.926e+04 1.218e-07
 51.95698    -80.5 5.680e+04 1.941e-08
 51.96681    -88.2 6.876e+04 5.912e-09
 51.97664    -92.1 6.957e+04 4.180e-09
 51.98648    -92.6 6.771e+04 3.561e-09
 51.99631    -90.8 5.938e+04 4.280e-09
 52.00614    -95.2 4.601e+04 4.966e-09
 52.01597    -90.9 4.188e+04 3.720e-09
 52.02183    -97.3 2.877e+04 3.753e-09
 52.02674    -81.6 4.366e+04 5.358e-09
 52.04060   -103.4 2.157e+04 5.165e-09
 52.06031   -104.0 1.735e+04 5.068e-09
 52.07998   -102.3 1.667e+04 4.654e-09
 52.09851   -100.7 1.629e+04 4.020e-09
 52.10834    -99.8 1.602e+04 3.775e-09
 52.11931    -98.3 1.557e+04 3.240e-09
 52.13897    -97.0 1.495e+04 2.731e-09
 52.15864    -95.6 1.435e+04 2.319e-09
 52.17830    -94.1 1.393e+04 2.073e-09
 52.19797    -92.5 1.360e+04 1.894e-09
 52.21763    -90.9 1.330e+04 1.708e-09
 52.23729    -89.2 1.300e+04 1.522e-09
 52.25696    -87.6 1.267e+04 1.351e-09
 52.27134    -85.9 1.237e+04 1.207e-09
 52.28117    -85.3 1.238e+04 1.236e-09
 52.29629    -83.7 1.210e+04 1.119e-09
 52.31595    -82.1 1.185e+04 1.018e-09
 52.33562    -80.4 1.165e+04 9.341e-10
 52.35528    -78.8 1.153e+04 8.768e-10
 52.37495    -77.3 1.149e+04 8.434e-10
 52.39461    -75.8 1.150e+04 8.254e-10
 52.41427    -74.4 1.150e+04 8.224e-10
 52.43394    -73.2 1.154e+04 8.357e-10
 52.44417    -71.9 1.155e+04 8.608e-10
 52.45400    -71.2 1.164e+04 8.997e-10
 52.47327    -69.9 1.166e+04 9.384e-10
 52.49293    -68.4 1.165e+04 9.643e-10
 52.51260    -66.9 1.162e+04 9.709e-10
 52.53226    -65.2 1.152e+04 9.364e-10
 52.55192    -63.5 1.133e+04 8.489e-10
 52.57159    -61.8 1.108e+04 7.302e-10
 52.59125    -60.1 1.079e+04 6.017e-10
 52.60717    -58.5 1.046e+04 5.022e-10
 52.61700    -57.5 1.092e+04 6.345e-10
 52.63058    -55.8 1.061e+04 4.887e-10
 52.65025    -54.2 1.045e+04 4.074e-10
 52.67984    -52.8 1.064e+04 4.074e-10
 52.71927    -51.2 1.023e+04 3.635e-10
 52.75860    -48.1 9.795e+03 3.157e-10
 52.79793    -44.8 9.699e+03 2.800e-10
 52.83725    -41.3 9.577e+03 2.604e-10
 52.87658    -37.7 9.519e+03 2.457e-10
 52.91591    -34.0 9.496e+03 2.366e-10
 52.94319    -30.3 9.497e+03 2.306e-10
 52.96286    -28.9 9.504e+03 2.160e-10
 52.99457    -25.0 9.595e+03 2.133e-10
 53.03390    -21.4 9.762e+03 2.091e-10
 53.07323    -18.3 9.954e+03 2.289e-10
 53.10263    -17.0 1.041e+04 2.822e-10
 53.11583    -16.8 1.042e+04 2.833e-10
 53.12566    -16.5 1.038e+04 2.730e-10
 53.14186    -15.1 1.024e+04 3.110e-10
 53.16152    -13.8 1.057e+04 3.447e-10
 53.18119    -13.4 1.059e+04 4.026e-10
 53.20085    -12.3 1.077e+04 4.928e-10
 53.22051    -10.8 1.135e+04 7.241e-10
 53.24018     -9.2 1.209e+04 1.000e-09
 53.25984     -7.9 1.277e+04 1.329e-09
 53.27883     -7.2 1.331e+04 1.606e-09
 53.28866     -6.1 1.283e+04 1.334e-09
 53.29917     -5.6 1.318e+04 1.516e-09
 53.31884     -5.8 1.351e+04 1.728e-09
 53.33850     -6.5 1.406e+04 1.996e-09
 53.35817     -7.5 1.466e+04 2.457e-09
 53.37783     -8.9 1.496e+04 2.791e-09
 53.39749    -10.4 1.530e+04 3.051e-09
 53.41716    -12.7 1.597e+04 3.261e-09
 53.43186    -14.0 1.599e+04 3.202e-09
 53.44164    -16.2 1.754e+04 3.281e-09
 53.45147    -31.9 3.366e+04 5.243e-09
 53.45648    -47.1 3.755e+04 1.771e-08
 53.46139    -41.9 3.964e+04 1.173e-08
 53.47114    -52.1 3.158e+04 4.918e-08
 53.48097    -57.5 2.594e+04 9.764e-08
 53.49080    -61.8 2.440e+04 1.106e-07
 53.50063    -66.1 2.499e+04 9.781e-08
 53.51047    -71.5 3.009e+04 5.690e-08
 53.52030    -78.7 3.447e+04 2.694e-08
 53.53013    -88.3 3.548e+04 1.148e-08
 53.53798    -96.7 2.950e+04 7.253e-09
 53.54289    -95.6 3.090e+04 7.546e-09
 53.55476   -100.9 2.573e+04 6.294e-09
 53.57447   -109.0 1.988e+04 6.043e-09
 53.59414   -111.2 1.897e+04 6.129e-09
 53.61380   -111.8 1.981e+04 6.797e-09
 53.62449   -111.9 1.982e+04 7.207e-09
 53.63432   -112.0 2.013e+04 7.132e-09
 53.65313   -111.7 2.019e+04 7.841e-09
 53.67280   -111.0 2.021e+04 8.269e-09
 53.69246   -110.0 1.997e+04 8.001e-09
 53.71213   -108.8 1.965e+04 7.148e-09
 53.73179   -107.8 1.921e+04 5.867e-09
 53.75145   -106.9 1.868e+04 4.457e-09
 53.77112   -106.1 1.797e+04 3.108e-09
 53.78749   -105.5 1.691e+04 2.043e-09
 53.79732   -104.5 1.823e+04 3.626e-09
 53.81045   -103.7 1.709e+04 2.423e-09
 53.83011   -103.2 1.543e+04 1.640e-09
 53.84978   -102.7 1.345e+04 1.195e-09
 53.86944   -102.2 1.187e+04 9.613e-10
 53.88910   -101.2 1.111e+04 8.480e-10
 53.90877    -99.9 1.088e+04 8.160e-10
 53.92843    -98.5 1.097e+04 8.050e-10
 53.94810    -97.0 1.110e+04 7.905e-10
 53.96032    -95.5 1.113e+04 7.548e-10
 53.97015    -95.0 1.144e+04 9.405e-10
 53.98743    -93.7 1.145e+04 9.033e-10
 54.00709    -92.5 1.137e+04 8.496e-10
 54.02676    -91.2 1.125e+04 7.922e-10
 54.05635    -89.7 1.113e+04 7.472e-10
 54.09578    -87.2 1.075e+04 6.753e-10
 54.13511    -84.3 1.041e+04 6.120e-10
 54.17443    -81.3 1.031e+04 5.849e-10
 54.21376    -78.6 1.027e+04 5.612e-10
 54.25309    -75.8 1.021e+04 5.423e-10
 54.28651    -73.0 1.017e+04 5.287e-10
 54.30618    -73.3 1.037e+04 5.816e-10
 54.33175    -70.5 1.033e+04 5.571e-10
 54.37108    -67.6 1.038e+04 5.414e-10
 54.41041    -64.8 1.054e+04 5.290e-10
 54.43981    -63.5 1.067e+04 5.180e-10
 54.45915    -61.8 1.043e+04 4.774e-10
 54.46898    -61.8 9.968e+03 4.133e-10
 54.47904    -60.0 9.770e+03 3.743e-10
 54.49870    -58.1 9.713e+03 3.624e-10
 54.51837    -56.3 9.791e+03 3.648e-10
 54.53803    -54.9 1.004e+04 3.925e-10
 54.55769    -53.9 1.032e+04 4.396e-10
 54.57736    -52.8 1.064e+04 5.131e-10
 54.59702    -51.7 1.108e+04 6.280e-10
 54.61669    -50.6 1.162e+04 8.072e-10
 54.63198    -49.4 1.221e+04 1.052e-09
 54.64181    -49.7 1.285e+04 1.325e-09
 54.65602    -48.6 1.350e+04 1.730e-09
 54.67568    -47.7 1.416e+04 2.240e-09
 54.69535    -46.9 1.483e+04 2.900e-09
 54.71501    -46.4 1.540e+04 3.692e-09
 54.73467    -45.7 1.588e+04 4.590e-09
 54.75434    -45.1 1.635e+04 5.520e-09
 54.77400    -44.7 1.673e+04 6.287e-09
 54.79367    -44.4 1.699e+04 6.715e-09
 54.80481    -44.4 1.706e+04 6.848e-09
 54.81465    -44.5 1.688e+04 6.516e-09
 54.83033    -44.6 1.661e+04 5.951e-09
 54.84016    -44.7 1.669e+04 6.099e-09
 54.85266    -45.0 1.614e+04 5.321e-09
 54.87233    -45.1 1.543e+04 4.512e-09
 54.89199    -44.8 1.469e+04 3.732e-09
 54.91165    -44.2 1.408e+04 3.063e-09
 54.93132    -43.5 1.362e+04 2.543e-09
 54.95098    -42.7 1.324e+04 2.129e-09
 54.96781    -41.9 1.297e+04 1.820e-09
 54.97764    -42.0 1.228e+04 1.254e-09
 54.99031    -41.5 1.204e+04 1.109e-09
 55.00998    -41.0 1.191e+04 1.036e-09
 55.02964    -40.3 1.191e+04 1.024e-09
 55.04930    -39.8 1.204e+04 1.055e-09
 55.06897    -39.3 1.227e+04 1.144e-09
 55.08863    -38.6 1.255e+04 1.283e-09
 55.10830    -38.0 1.283e+04 1.471e-09
 55.12796    -37.4 1.307e+04 1.706e-09
 55.14064    -36.6 1.338e+04 2.020e-09
 55.15048    -36.5 1.255e+04 1.440e-09
 55.16729    -35.8 1.275e+04 1.716e-09
 55.18696    -34.8 1.295e+04 2.032e-09
 55.20662    -33.7 1.329e+04 2.437e-09
 55.22628    -32.4 1.379e+04 2.959e-09
 55.24595    -31.3 1.474e+04 3.735e-09
 55.26561    -30.9 1.706e+04 5.119e-09
 55.28528    -32.3 2.122e+04 7.595e-09
 55.29998    -33.6 2.426e+04 9.275e-09
 55.30846    -34.9 2.533e+04 1.346e-08
 55.31343    -31.7 2.053e+04 4.185e-09
 55.32461    -34.1 2.627e+04 7.550e-09
 55.33931    -36.5 2.697e+04 1.902e-08
 55.34909    -37.0 2.615e+04 2.825e-08
 55.35892    -37.5 2.496e+04 4.219e-08
 55.36875    -37.9 2.427e+04 5.515e-08
 55.37859    -38.5 2.377e+04 6.377e-08
 55.38842    -39.1 2.351e+04 6.556e-08
 55.39488    -39.4 2.316e+04 6.558e-08
 55.39979    -38.7 2.335e+04 5.920e-08
 55.40808    -39.1 2.294e+04 6.290e-08
 55.41791    -39.5 2.254e+04 6.474e-08
 55.42775    -39.7 2.207e+04 6.659e-08
 55.43758    -39.6 2.231e+04 6.555e-08
 55.44741    -39.1 2.356e+04 5.691e-08
 55.45724    -38.8 2.540e+04 4.477e-08
 55.46708    -39.3 2.767e+04 3.131e-08
 55.47638    -41.4 3.153e+04 1.871e-08
 55.48129    -37.5 2.386e+04 7.233e-08
 55.48674    -37.5 2.573e+04 5.142e-08
 55.49657    -38.2 2.858e+04 3.138e-08
 55.50640    -40.5 3.451e+04 1.645e-08
 55.51624    -42.8 4.121e+04 7.425e-09
 55.52607    -45.3 3.972e+04 3.192e-09
 55.53590    -50.4 2.535e+04 1.580e-09
 55.54573    -54.7 1.506e+04 1.298e-09
 55.55557    -55.9 1.237e+04 1.277e-09
 55.56279    -56.0 1.205e+04 1.269e-09
 55.56771    -55.4 1.299e+04 1.311e-09
 55.58020    -55.7 1.208e+04 1.269e-09
 55.59991    -55.2 1.188e+04 1.260e-09
 55.61957    -54.4 1.166e+04 1.193e-09
 55.63924    -53.7 1.147e+04 1.082e-09
 55.64930    -52.9 1.130e+04 9.563e-10
 55.65914    -52.4 1.145e+04 1.106e-09
 55.67857    -51.5 1.133e+04 1.010e-09
 55.69823    -50.8 1.119e+04 9.048e-10
 55.71789    -50.2 1.093e+04 7.811e-10
 55.73756    -49.8 1.068e+04 6.710e-10
 55.75722    -49.5 1.052e+04 6.017e-10
 55.77689    -49.3 1.048e+04 5.735e-10
 55.79655    -49.1 1.048e+04 5.682e-10
 55.81230    -49.4 1.067e+04 5.965e-10
 55.82214    -47.7 1.099e+04 7.487e-10
 55.83588    -48.2 1.137e+04 8.531e-10
 55.85555    -48.9 1.181e+04 1.035e-09
 55.87521    -49.4 1.216e+04 1.308e-09
 55.89487    -50.3 1.245e+04 1.724e-09
 55.91454    -53.2 1.386e+04 2.523e-09
 55.93420    -59.6 1.786e+04 4.473e-09
 55.95387    -67.8 2.171e+04 9.015e-09
 55.97353    -76.5 2.301e+04 1.474e-08
 55.98513    -86.0 2.312e+04 1.639e-08
 55.99497    -79.9 2.275e+04 1.680e-08
 56.01286    -89.4 2.222e+04 1.360e-08
 56.03253   -101.8 2.026e+04 5.496e-09
 56.05219   -115.2 1.654e+04 2.521e-09
 56.07185   -122.8 1.499e+04 2.188e-09
 56.09152   -125.4 1.472e+04 2.353e-09
 56.11118   -127.0 1.494e+04 2.733e-09
 56.13085   -128.8 1.490e+04 2.755e-09
 56.14813   -130.7 1.460e+04 2.578e-09
 56.15797   -128.1 1.458e+04 2.481e-09
 56.17018   -130.0 1.449e+04 2.504e-09
 56.18984   -131.5 1.429e+04 2.476e-09
 56.20950   -132.7 1.402e+04 2.317e-09
 56.22917   -133.7 1.370e+04 2.085e-09
 56.24883   -134.5 1.333e+04 1.818e-09
 56.26850   -135.2 1.293e+04 1.558e-09
 56.28816   -135.7 1.253e+04 1.335e-09
 56.30783   -136.0 1.218e+04 1.162e-09
 56.32097   -136.2 1.187e+04 1.031e-09
 56.33080   -135.1 1.240e+04 1.284e-09
 56.34716   -135.3 1.204e+04 1.117e-09
 56.36682   -135.2 1.173e+04 9.906e-10
 56.38648   -135.1 1.148e+04 8.933e-10
 56.40615   -134.8 1.127e+04 8.142e-10
 56.42581   -134.4 1.111e+04 7.471e-10
 56.44548   -133.9 1.098e+04 6.879e-10
 56.46514   -133.4 1.086e+04 6.354e-10
 56.48396   -132.9 1.077e+04 5.928e-10
 56.49380   -132.4 1.085e+04 6.334e-10
 56.50447   -132.0 1.077e+04 5.951e-10
 56.52414   -131.5 1.075e+04 5.773e-10
 56.54380   -130.9 1.075e+04 5.739e-10
 56.56346   -130.6 1.084e+04 5.793e-10
 56.58313   -130.5 1.111e+04 6.372e-10
 56.60279   -130.4 1.146e+04 7.568e-10
 56.62246   -130.2 1.188e+04 9.378e-10
 56.64212   -129.8 1.236e+04 1.182e-09
 56.65680   -129.4 1.286e+04 1.481e-09
 56.66663   -129.3 1.279e+04 1.408e-09
 56.68145   -128.9 1.332e+04 1.744e-09
 56.70112   -128.7 1.378e+04 2.073e-09
 56.72078   -128.6 1.409e+04 2.308e-09
 56.74044   -128.8 1.419e+04 2.393e-09
 56.76011   -129.1 1.418e+04 2.396e-09
 56.77977   -129.1 1.393e+04 2.230e-09
 56.79944   -129.1 1.356e+04 1.950e-09
 56.81910   -128.9 1.318e+04 1.665e-09
 56.82963   -128.7 1.279e+04 1.408e-09
 56.83946   -128.3 1.282e+04 1.413e-09
 56.85843   -128.1 1.253e+04 1.216e-09
 56.87809   -128.0 1.223e+04 1.047e-09
 56.88845   -127.8 1.195e+04 9.051e-10
 56.89829   -127.9 1.195e+04 9.021e-10
 56.91742   -127.6 1.169e+04 7.821e-10
 56.93709   -127.4 1.147e+04 6.915e-10
 56.95675   -127.0 1.126e+04 6.167e-10
 56.97642   -126.6 1.105e+04 5.446e-10
 56.99263   -126.0 1.079e+04 4.704e-10
 57.00246   -125.7 1.106e+04 5.443e-10
 57.01575   -125.2 1.083e+04 4.775e-10
 57.03541   -124.6 1.060e+04 4.185e-10
 57.05507   -124.1 1.045e+04 3.773e-10
 57.07474   -123.7 1.041e+04 3.613e-10
 57.09440   -123.4 1.041e+04 3.587e-10
 57.12400   -123.3 1.041e+04 3.544e-10
 57.16342   -122.0 1.021e+04 3.133e-10
 57.20275   -120.8 1.003e+04 2.759e-10
 57.24208   -119.4 9.875e+03 2.463e-10
 57.28141   -118.0 9.778e+03 2.258e-10
 57.31882   -116.5 9.765e+03 2.176e-10
 57.33848   -116.2 9.890e+03 2.341e-10
 57.36007   -114.7 9.874e+03 2.284e-10
 57.39940   -113.3 9.877e+03 2.278e-10
 57.43873   -112.0 9.940e+03 2.318e-10
 57.47805   -110.8 1.002e+04 2.371e-10
 57.51738   -109.5 1.006e+04 2.389e-10
 57.55671   -108.1 1.006e+04 2.386e-10
 57.59604   -106.6 1.006e+04 2.391e-10
 57.63537   -105.0 1.010e+04 2.417e-10
 57.66448   -103.5 1.009e+04 2.398e-10
 57.68415   -103.3 1.036e+04 2.936e-10
 57.70410   -102.2 1.027e+04 2.713e-10
 57.72366   -101.9 1.026e+04 2.715e-10
 57.74333   -101.2 1.031e+04 2.760e-10
 57.76299   -101.1 1.031e+04 2.780e-10
 57.78266   -100.7 1.037e+04 2.870e-10
 57.80232   -100.7 1.038e+04 2.931e-10
 57.82199   -100.9 1.056e+04 3.165e-10
 57.83712   -101.7 1.083e+04 3.797e-10
 57.84695   -102.6 1.143e+04 5.163e-10
 57.86132   -104.0 1.201e+04 7.820e-10
 57.88098   -105.2 1.282e+04 1.235e-09
 57.90064   -106.1 1.365e+04 1.913e-09
 57.92031   -106.4 1.437e+04 2.745e-09
 57.93997   -106.4 1.479e+04 3.437e-09
 57.95964   -106.4 1.492e+04 3.693e-09
 57.97930   -106.5 1.478e+04 3.539e-09
 57.99897   -106.8 1.455e+04 3.171e-09
 58.00995   -107.2 1.419e+04 2.646e-09
 58.01978   -108.7 1.448e+04 2.836e-09
 58.03829   -109.6 1.398e+04 2.275e-09
 58.05796   -110.4 1.356e+04 1.934e-09
 58.07762   -110.9 1.326e+04 1.738e-09
 58.09729   -111.2 1.303e+04 1.629e-09
 58.11695   -111.4 1.287e+04 1.555e-09
 58.13662   -111.4 1.271e+04 1.481e-09
 58.15628   -111.2 1.255e+04 1.393e-09
 58.17295   -111.1 1.238e+04 1.289e-09
 58.18278   -112.2 1.245e+04 1.352e-09
 58.19561   -112.1 1.224e+04 1.204e-09
 58.21527   -112.0 1.205e+04 1.087e-09
 58.23494   -112.0 1.193e+04 1.021e-09
 58.25460   -111.8 1.191e+04 9.984e-10
 58.27427   -111.7 1.192e+04 9.978e-10
 58.29393   -111.7 1.209e+04 1.044e-09
 58.31360   -111.7 1.233e+04 1.129e-09
 58.33326   -111.7 1.251e+04 1.206e-09
 58.34578   -111.4 1.256e+04 1.237e-09
 58.35571   -113.2 1.239e+04 1.093e-09
 58.38262   -112.9 1.260e+04 1.239e-09
 58.42195   -112.9 1.268e+04 1.321e-09
 58.46127   -112.8 1.258e+04 1.304e-09
 58.50060   -112.4 1.222e+04 1.150e-09
 58.53993   -111.7 1.176e+04 9.624e-10
 58.57926   -110.8 1.132e+04 7.902e-10
 58.61859   -109.7 1.093e+04 6.511e-10
 58.65792   -108.6 1.057e+04 5.333e-10
 58.68180   -107.4 1.022e+04 4.361e-10
 58.70147   -108.4 1.015e+04 4.114e-10
 58.73658   -107.1 9.932e+03 3.624e-10
 58.77591   -105.7 9.755e+03 3.296e-10
 58.81523   -104.3 9.593e+03 3.024e-10
 58.85456   -102.9 9.425e+03 2.736e-10
 58.89389   -101.5 9.249e+03 2.410e-10
 58.92711   -100.2 9.097e+03 2.117e-10
 58.94678   -101.3 9.359e+03 2.597e-10
 58.97255   -100.3 9.337e+03 2.523e-10
 59.00780    -99.8 9.377e+03 2.558e-10
 59.02747   -101.3 9.803e+03 3.341e-10
 59.05121   -101.1 1.019e+04 4.172e-10
 59.09054   -101.0 1.060e+04 5.419e-10
 59.12986   -100.8 1.090e+04 6.553e-10
 59.16919   -100.7 1.105e+04 7.052e-10
 59.20852   -100.6 1.112e+04 7.175e-10
 59.24785   -100.6 1.112e+04 7.096e-10
 59.28718   -100.9 1.140e+04 7.738e-10
 59.32651   -101.3 1.182e+04 9.459e-10
 59.35347   -102.0 1.206e+04 1.105e-09
 59.36320   -102.3 1.174e+04 9.685e-10
 59.37547   -102.6 1.176e+04 9.730e-10
 59.39514   -103.3 1.159e+04 9.487e-10
 59.41480   -103.7 1.151e+04 9.306e-10
 59.43447   -104.3 1.143e+04 9.221e-10
 59.45413   -104.9 1.134e+04 9.153e-10
 59.47380   -105.4 1.121e+04 8.995e-10
 59.49346   -105.6 1.104e+04 8.701e-10
 59.51313   -105.6 1.085e+04 8.280e-10
 59.52610   -105.4 1.067e+04 7.778e-10
 59.53593   -105.5 1.063e+04 7.736e-10
 59.55245   -104.9 1.043e+04 7.063e-10
 59.57212   -104.3 1.031e+04 6.626e-10
 59.59178   -103.5 1.026e+04 6.384e-10
 59.61145   -102.6 1.024e+04 6.222e-10
 59.63111   -101.8 1.025e+04 6.027e-10
 59.65078   -101.0 1.030e+04 5.914e-10
 59.67044   -100.2 1.037e+04 5.895e-10
 59.68910    -99.5 1.048e+04 5.999e-10
 59.69893    -98.7 9.988e+03 4.898e-10
 59.70977    -98.0 1.017e+04 5.157e-10
 59.72943    -97.5 1.049e+04 5.738e-10
 59.74910    -97.0 1.091e+04 6.744e-10
 59.76876    -96.6 1.134e+04 8.142e-10
 59.78843    -96.4 1.165e+04 9.481e-10
 59.80809    -96.1 1.173e+04 1.007e-09
 59.82776    -95.6 1.178e+04 1.083e-09
 59.84742    -95.4 1.172e+04 1.102e-09
 59.86193    -95.0 1.150e+04 1.075e-09
 59.87176    -93.7 1.231e+04 1.467e-09
 59.88675    -93.9 1.231e+04 1.444e-09
 59.90641    -94.3 1.230e+04 1.377e-09
 59.92608    -94.7 1.231e+04 1.323e-09
 59.94574    -95.1 1.249e+04 1.301e-09
 59.96541    -95.4 1.279e+04 1.329e-09
 59.98507    -95.7 1.306e+04 1.370e-09
 60.00474    -96.1 1.331e+04 1.460e-09
 60.02440    -96.6 1.374e+04 1.647e-09
 60.03476    -96.9 1.425e+04 1.937e-09
 60.04459    -97.8 1.567e+04 3.555e-09
 60.06373    -98.3 1.595e+04 3.968e-09
 60.08339    -98.7 1.615e+04 4.390e-09
 60.09809    -99.1 1.600e+04 4.311e-09
 60.10788    -99.5 1.633e+04 4.850e-09
 60.12267   -100.4 1.693e+04 5.824e-09
 60.14239   -103.5 1.876e+04 7.299e-09
 60.16205   -108.3 2.121e+04 9.041e-09
 60.18172   -114.1 2.324e+04 1.121e-08
 60.19776   -119.3 2.401e+04 1.163e-08
 60.20759   -122.5 2.109e+04 4.310e-09
 60.22104   -128.4 1.969e+04 3.895e-09
 60.24071   -132.6 1.762e+04 3.830e-09
 60.26037   -135.3 1.630e+04 3.526e-09
 60.28004   -137.7 1.539e+04 2.799e-09
 60.29970   -140.0 1.472e+04 2.116e-09
 60.31937   -142.3 1.418e+04 1.684e-09
 60.33903   -144.3 1.398e+04 1.496e-09
 60.35870   -146.0 1.395e+04 1.440e-09
 60.37059   -147.4 1.395e+04 1.413e-09
 60.38043   -148.5 1.398e+04 1.425e-09
 60.39802   -149.9 1.386e+04 1.359e-09
 60.41769   -151.2 1.362e+04 1.234e-09
 60.43735   -152.4 1.329e+04 1.060e-09
 60.45702   -153.9 1.295e+04 8.881e-10
 60.47668   -155.9 1.275e+04 7.738e-10
 60.49635   -158.2 1.274e+04 7.394e-10
 60.51601   -160.9 1.276e+04 7.352e-10
 60.53359   -163.7 1.280e+04 7.511e-10
 60.54342   -163.4 1.285e+04 7.429e-10
 60.55534   -165.6 1.282e+04 8.661e-10
 60.57500   -168.8 1.274e+04 1.316e-09
 60.59467   -175.0 1.794e+04 2.173e-09
 60.61433   -184.0 2.372e+04 4.780e-09
 60.63400   -194.0 2.546e+04 1.186e-08
 60.64870   -200.4 2.493e+04 2.572e-08
 60.65848   -203.4 2.466e+04 3.000e-08
 60.66831   -206.7 2.454e+04 3.109e-08
 60.67814   -209.9 2.399e+04 2.982e-08
 60.68798   -213.1 2.326e+04 2.253e-08
 60.69781   -216.1 2.261e+04 1.597e-08
 60.70637   -220.0 2.180e+04 1.132e-08
 60.71626   -221.8 2.166e+04 9.118e-09
 60.73232   -229.3 1.942e+04 5.134e-09
 60.75198   -236.7 1.690e+04 3.271e-09
 60.77165   -242.4 1.568e+04 2.460e-09
 60.79131   -246.7 1.559e+04 2.129e-09
 60.81098   -249.8 1.575e+04 1.971e-09
 60.83064   -253.0 1.597e+04 1.796e-09
 60.85031   -256.2 1.591e+04 1.604e-09
 60.86942   -259.1 1.564e+04 1.445e-09
 60.87925   -261.1 1.845e+04 4.276e-09
 60.88963   -263.9 1.847e+04 4.188e-09
 60.90930   -266.8 1.869e+04 4.249e-09
 60.92896   -270.0 1.993e+04 5.053e-09
 60.94863   -273.0 2.143e+04 6.692e-09
 60.96829   -276.1 2.243e+04 9.072e-09
 60.98299   -277.8 2.349e+04 1.438e-08
 60.98986   -279.5 2.357e+04 1.792e-08
 60.99478   -277.9 2.362e+04 1.774e-08
 61.00261   -279.5 2.359e+04 2.359e-08
 61.01244   -280.6 2.343e+04 2.885e-08
 61.02227   -281.5 2.326e+04 3.330e-08
 61.03210   -282.5 2.304e+04 3.545e-08
 61.04194   -283.5 2.293e+04 3.585e-08
 61.04707   -284.4 2.243e+04 3.402e-08
 61.05199   -285.1 2.305e+04 3.957e-08
 61.06160   -286.3 2.275e+04 3.086e-08
 61.07143   -287.4 2.222e+04 2.263e-08
 61.08126   -288.7 2.140e+04 1.558e-08
 61.09110   -290.1 2.022e+04 1.017e-08
 61.10093   -291.7 1.871e+04 6.552e-09
 61.11076   -293.0 1.713e+04 4.461e-09
 61.12059   -293.8 1.598e+04 3.431e-09
 61.12857   -294.0 1.547e+04 3.016e-09
 61.13349   -294.2 1.539e+04 3.018e-09
 61.14522   -293.5 1.512e+04 2.723e-09
 61.16494   -292.7 1.413e+04 1.802e-09
 61.18460   -292.4 1.292e+04 1.058e-09
 61.20426   -292.4 1.168e+04 6.542e-10
 61.21508   -292.5 1.078e+04 4.923e-10
 61.22492   -293.4 1.147e+04 6.209e-10
 61.24359   -292.9 1.115e+04 5.836e-10
 61.26326   -291.8 1.102e+04 5.667e-10
 61.28292   -290.4 1.097e+04 5.654e-10
 61.30259   -289.0 1.089e+04 5.841e-10
 61.32225   -287.6 1.083e+04 6.086e-10
 61.34192   -286.1 1.080e+04 6.255e-10
 61.36158   -284.7 1.077e+04 6.328e-10
 61.37808   -283.2 1.072e+04 6.341e-10
 61.38792   -283.6 1.098e+04 8.758e-10
 61.40091   -282.1 1.094e+04 8.606e-10
 61.42057   -280.8 1.093e+04 8.436e-10
 61.44024   -279.5 1.092e+04 8.289e-10
 61.45990   -278.4 1.092e+04 8.156e-10
 61.47957   -277.4 1.092e+04 8.040e-10
 61.49923   -276.4 1.091e+04 7.931e-10
 61.51890   -275.4 1.087e+04 7.815e-10
 61.53856   -274.6 1.082e+04 7.687e-10
 61.55091   -273.7 1.074e+04 7.545e-10
 61.56075   -273.4 1.134e+04 1.063e-09
 61.57789   -272.6 1.128e+04 1.021e-09
 61.59755   -271.9 1.114e+04 9.586e-10
 61.61722   -271.3 1.096e+04 8.795e-10
 61.63688   -270.7 1.075e+04 7.907e-10
 61.65655   -270.2 1.054e+04 7.030e-10
 61.67621   -269.7 1.033e+04 6.213e-10
 61.69587   -269.2 1.013e+04 5.458e-10
 61.71391   -268.7 9.971e+03 4.921e-10
 61.72375   -268.4 1.028e+04 5.832e-10
 61.73520   -267.8 1.004e+04 5.236e-10
 61.75487   -267.1 9.926e+03 4.944e-10
 61.77453   -266.3 9.895e+03 4.865e-10
 61.79420   -265.5 9.892e+03 4.855e-10
 61.81386   -264.6 9.895e+03 4.863e-10
 61.83353   -263.7 9.895e+03 4.873e-10
 61.85319   -262.6 9.875e+03 4.858e-10
 61.87285   -261.4 9.849e+03 4.760e-10
 61.88675   -260.1 9.804e+03 4.611e-10
 61.89658   -260.2 1.007e+04 5.308e-10
 61.91218   -259.0 1.002e+04 5.210e-10
 61.93185   -257.7 9.979e+03 5.089e-10
 61.95151   -256.5 9.933e+03 4.968e-10
 61.97118   -255.3 9.877e+03 4.826e-10
 61.99084   -253.8 9.798e+03 4.557e-10
 62.01051   -252.0 9.708e+03 4.163e-10
 62.04001   -250.6 9.655e+03 3.875e-10
 62.06951   -248.1 9.789e+03 4.557e-10
 62.08916   -246.8 9.736e+03 4.406e-10
 62.10883   -245.4 9.705e+03 4.327e-10
 62.12849   -244.1 9.695e+03 4.301e-10
 62.14816   -242.6 9.706e+03 4.341e-10
 62.16782   -241.3 9.737e+03 4.432e-10
 62.18749   -240.0 9.811e+03 4.661e-10
 62.20715   -238.8 9.885e+03 4.907e-10
 62.22258   -237.7 9.969e+03 5.237e-10
 62.23241   -237.7 9.934e+03 5.217e-10
 62.24648   -236.6 1.001e+04 5.538e-10
 62.26614   -235.4 1.007e+04 5.769e-10
 62.28581   -234.2 1.012e+04 5.876e-10
 62.30547   -233.1 1.014e+04 5.893e-10
 62.32514   -231.9 1.014e+04 5.873e-10
 62.34480   -230.8 1.013e+04 5.745e-10
 62.36446   -229.8 1.011e+04 5.595e-10
 62.38413   -228.8 1.012e+04 5.480e-10
 62.39541   -227.8 1.013e+04 5.447e-10
 62.40524   -227.8 1.042e+04 6.396e-10
 62.42346   -227.0 1.051e+04 6.631e-10
 62.44312   -226.3 1.063e+04 7.025e-10
 62.46279   -225.6 1.077e+04 7.624e-10
 62.48245   -224.9 1.093e+04 8.439e-10
 62.50212   -224.1 1.111e+04 9.442e-10
 62.52178   -223.4 1.130e+04 1.056e-09
 62.54144   -222.6 1.148e+04 1.169e-09
 62.55841   -221.9 1.164e+04 1.272e-09
 62.56824   -221.6 1.170e+04 1.323e-09
 62.58077   -220.9 1.172e+04 1.338e-09
 62.60044   -220.3 1.170e+04 1.333e-09
 62.62010   -219.7 1.165e+04 1.314e-09
 62.63977   -219.2 1.156e+04 1.281e-09
 62.65943   -218.5 1.144e+04 1.230e-09
 62.67910   -217.9 1.131e+04 1.165e-09
 62.69876   -217.2 1.117e+04 1.094e-09
 62.71842   -216.4 1.107e+04 1.025e-09
 62.73124   -215.8 1.099e+04 9.602e-10
 62.74107   -215.3 1.085e+04 8.830e-10
 62.75775   -214.7 1.080e+04 8.382e-10
 62.77742   -214.0 1.076e+04 7.976e-10
 62.79708   -213.4 1.072e+04 7.582e-10
 62.81675   -212.8 1.066e+04 7.182e-10
 62.83641   -212.1 1.058e+04 6.790e-10
 62.85607   -211.4 1.049e+04 6.447e-10
 62.87574   -210.7 1.041e+04 6.179e-10
 62.89424   -209.8 1.035e+04 6.001e-10
 62.90407   -209.4 1.027e+04 5.704e-10
 62.91507   -208.5 1.026e+04 5.670e-10
 62.93473   -207.5 1.026e+04 5.670e-10
 62.95440   -206.6 1.031e+04 5.767e-10
 62.97406   -205.6 1.038e+04 5.970e-10
 62.99373   -204.6 1.046e+04 6.206e-10
 63.01339   -203.5 1.053e+04 6.455e-10
 63.03305   -202.4 1.059e+04 6.743e-10
 63.04317   -201.3 1.067e+04 7.122e-10
 63.05300   -201.1 1.065e+04 6.948e-10
 63.06707   -199.9 1.071e+04 7.244e-10
 63.07690   -199.6 1.072e+04 7.160e-10
 63.09205   -198.4 1.081e+04 7.599e-10
 63.11171   -197.3 1.093e+04 8.135e-10
 63.13138   -196.2 1.108e+04 8.797e-10
 63.15104   -195.1 1.126e+04 9.607e-10
 63.17071   -193.9 1.145e+04 1.050e-09
 63.19037   -192.9 1.160e+04 1.123e-09
 63.21003   -191.8 1.167e+04 1.153e-09
 63.22970   -190.8 1.169e+04 1.157e-09
 63.23990   -189.7 1.166e+04 1.114e-09
 63.24973   -189.3 1.198e+04 1.313e-09
 63.26903   -188.2 1.193e+04 1.267e-09
 63.28869   -187.0 1.182e+04 1.184e-09
 63.30836   -185.8 1.171e+04 1.096e-09
 63.32802   -184.5 1.162e+04 1.016e-09
 63.34769   -183.3 1.155e+04 9.445e-10
 63.36735   -182.1 1.150e+04 8.855e-10
 63.38701   -180.9 1.148e+04 8.433e-10
 63.40290   -179.6 1.153e+04 8.166e-10
 63.41273   -180.0 1.283e+04 1.498e-09
 63.42634   -178.8 1.301e+04 1.579e-09
 63.44601   -177.7 1.317e+04 1.668e-09
 63.46567   -176.6 1.329e+04 1.754e-09
 63.48534   -175.4 1.336e+04 1.829e-09
 63.50500   -174.3 1.338e+04 1.888e-09
 63.52466   -173.1 1.335e+04 1.928e-09
 63.54433   -171.8 1.332e+04 1.945e-09
 63.56399   -170.5 1.318e+04 1.937e-09
 63.57573   -169.2 1.309e+04 1.906e-09
 63.58556   -169.2 1.407e+04 3.036e-09
 63.60332   -168.0 1.392e+04 2.755e-09
 63.62299   -166.8 1.378e+04 2.507e-09
 63.64265   -165.8 1.366e+04 2.288e-09
 63.66232   -164.7 1.355e+04 2.100e-09
 63.68198   -163.6 1.345e+04 1.942e-09
 63.70164   -162.6 1.335e+04 1.805e-09
 63.72131   -161.7 1.324e+04 1.690e-09
 63.73873   -160.7 1.313e+04 1.600e-09
 63.74856   -161.3 1.488e+04 3.014e-09
 63.76064   -160.2 1.467e+04 2.896e-09
 63.78030   -159.1 1.442e+04 2.759e-09
 63.79997   -157.9 1.413e+04 2.606e-09
 63.81963   -156.6 1.385e+04 2.465e-09
 63.83930   -155.2 1.363e+04 2.337e-09
 63.85896   -153.8 1.344e+04 2.207e-09
 63.87862   -152.4 1.327e+04 2.079e-09
 63.89829   -151.0 1.314e+04 1.967e-09
 63.91156   -149.6 1.303e+04 1.872e-09
 63.92139   -149.7 1.334e+04 2.072e-09
 63.93762   -148.3 1.316e+04 1.887e-09
 63.95728   -146.8 1.302e+04 1.758e-09
 63.97695   -145.4 1.293e+04 1.669e-09
 63.99661   -144.1 1.285e+04 1.599e-09
 64.01628   -142.7 1.281e+04 1.553e-09
 64.03594   -141.3 1.281e+04 1.540e-09
 64.05560   -140.0 1.282e+04 1.540e-09
 64.07456   -139.0 1.291e+04 1.559e-09
 64.08439   -139.3 1.291e+04 1.520e-09
 64.09493   -138.3 1.302e+04 1.630e-09
 64.11460   -137.2 1.314e+04 1.797e-09
 64.13426   -136.1 1.327e+04 1.988e-09
 64.15393   -135.1 1.334e+04 2.158e-09
 64.17359   -134.1 1.333e+04 2.255e-09
 64.19325   -133.1 1.331e+04 2.273e-09
 64.21292   -132.1 1.319e+04 2.245e-09
 64.23258   -130.9 1.296e+04 2.083e-09
 64.24739   -129.7 1.272e+04 1.852e-09
 64.25722   -129.8 1.275e+04 1.891e-09
 64.27191   -128.5 1.257e+04 1.696e-09
 64.29158   -127.2 1.245e+04 1.524e-09
 64.31124   -126.1 1.235e+04 1.370e-09
 64.33091   -125.0 1.221e+04 1.225e-09
 64.35057   -123.7 1.205e+04 1.091e-09
 64.37023   -122.5 1.193e+04 9.645e-10
 64.38990   -121.3 1.183e+04 8.482e-10
 64.40956   -120.2 1.174e+04 7.452e-10
 64.42022   -119.0 1.165e+04 6.569e-10
 64.43005   -118.9 1.201e+04 7.016e-10
 64.44889   -117.7 1.191e+04 6.264e-10
 64.46856   -116.4 1.179e+04 5.646e-10
 64.48822   -115.0 1.166e+04 5.090e-10
 64.50789   -113.5 1.154e+04 4.586e-10
 64.52755   -112.2 1.143e+04 4.157e-10
 64.54721   -110.7 1.132e+04 3.771e-10
 64.56688   -109.3 1.128e+04 3.593e-10
 64.58322   -107.9 1.128e+04 3.486e-10
 64.59305   -108.1 1.142e+04 3.884e-10
 64.60621   -106.5 1.138e+04 3.730e-10
 64.63580   -104.1 1.125e+04 3.196e-10
 64.67523   -101.2 1.109e+04 2.905e-10
 64.71456    -97.4 1.099e+04 2.839e-10
 64.74641    -94.2 1.105e+04 2.965e-10
 64.76608    -94.7 1.150e+04 5.125e-10
 64.79321    -91.9 1.166e+04 6.015e-10
 64.82261    -89.9 1.177e+04 6.770e-10
 64.84218    -89.0 1.193e+04 8.008e-10
 64.86184    -87.6 1.221e+04 9.954e-10
 64.88151    -86.7 1.240e+04 1.133e-09
 64.90117    -85.4 1.267e+04 1.356e-09
 64.91905    -84.8 1.284e+04 1.492e-09
 64.92888    -85.0 1.271e+04 1.438e-09
 64.94050    -84.1 1.283e+04 1.551e-09
 64.96017    -83.4 1.290e+04 1.622e-09
 64.97983    -82.5 1.297e+04 1.697e-09
 64.99950    -81.7 1.300e+04 1.726e-09
 65.01916    -80.9 1.296e+04 1.700e-09
 65.03882    -80.0 1.295e+04 1.682e-09
 65.05849    -79.0 1.292e+04 1.640e-09
 65.07815    -78.0 1.290e+04 1.585e-09
 65.09146    -77.2 1.283e+04 1.484e-09
 65.09536    -76.4 1.288e+04 1.526e-09
 65.11164    -76.5 1.191e+04 6.343e-10
 65.14717    -74.8 1.186e+04 6.048e-10
 65.18650    -73.2 1.190e+04 6.171e-10
 65.22583    -72.1 1.213e+04 7.841e-10
 65.26516    -71.1 1.233e+04 1.117e-09
 65.30449    -69.9 1.238e+04 1.384e-09
 65.34382    -69.1 1.228e+04 1.412e-09
 65.38315    -68.1 1.177e+04 1.146e-09
 65.41807    -66.6 1.108e+04 7.585e-10
 65.43774    -66.6 1.062e+04 5.671e-10
 65.46180    -64.6 9.991e+03 2.998e-10
 65.50113    -62.8 9.479e+03 1.391e-10
 65.54046    -61.2 9.243e+03 8.772e-11
 65.57979    -59.3 9.095e+03 7.856e-11
 65.61912    -57.0 9.048e+03 7.731e-11
 65.65845    -54.5 9.007e+03 7.951e-11
 65.69778    -52.0 9.030e+03 8.390e-11
 65.73711    -49.4 9.065e+03 8.575e-11
 65.76374    -46.7 9.109e+03 8.515e-11
 65.78340    -46.8 8.880e+03 7.420e-11
 65.81576    -44.3 8.827e+03 6.608e-11
 65.85509    -41.9 8.751e+03 6.047e-11
 65.89442    -39.5 8.693e+03 5.865e-11
 65.93375    -37.0 8.700e+03 5.848e-11
 65.97308    -34.6 8.788e+03 6.356e-11
 66.01241    -32.3 8.910e+03 8.002e-11
 66.05174    -29.9 9.078e+03 1.098e-10
 66.08974    -27.5 9.371e+03 1.617e-10
 66.10940    -26.5 9.205e+03 1.483e-10
 66.13039    -24.2 9.514e+03 2.126e-10
 66.16972    -22.1 9.880e+03 3.046e-10
 66.20905    -20.2 1.026e+04 4.218e-10
 66.24838    -18.4 1.050e+04 5.307e-10
 66.27230    -16.4 1.042e+04 5.146e-10
 66.28204    -16.0 1.043e+04 5.175e-10
 66.29735    -15.8 1.043e+04 5.255e-10
 66.31701    -14.2 1.056e+04 5.753e-10
 66.33668    -13.6 1.058e+04 5.791e-10
 66.35634    -12.5 1.057e+04 5.672e-10
 66.37600    -11.7 1.059e+04 5.222e-10
 66.39567    -11.3 1.058e+04 4.737e-10
 66.41533    -10.7 1.068e+04 4.514e-10
 66.43500    -10.6 1.059e+04 4.287e-10
 66.44503    -10.4 1.075e+04 4.463e-10
 66.45487     -9.6 1.081e+04 4.743e-10
 66.47433     -9.9 1.090e+04 5.108e-10
 66.49399    -10.6 1.121e+04 6.282e-10
 66.51365    -11.4 1.183e+04 8.526e-10
 66.53332    -12.5 1.256e+04 1.213e-09
 66.55298    -13.5 1.292e+04 1.661e-09
 66.57265    -14.8 1.340e+04 2.214e-09
 66.59231    -15.8 1.362e+04 2.967e-09
 66.60803    -16.2 1.364e+04 3.207e-09
 66.61787    -16.2 1.391e+04 3.543e-09
 66.63164    -16.0 1.415e+04 3.653e-09
 66.65131    -16.0 1.425e+04 2.997e-09
 66.67097    -17.9 1.355e+04 1.924e-09
 66.69063    -20.1 1.252e+04 1.306e-09
 66.71030    -21.2 1.206e+04 1.059e-09
 66.72996    -21.6 1.182e+04 9.203e-10
 66.74963    -21.6 1.159e+04 8.272e-10
 66.76929    -21.0 1.137e+04 7.579e-10
 66.78086    -20.4 1.114e+04 6.877e-10
 66.79070    -20.1 1.108e+04 6.904e-10
 66.80862    -19.3 1.085e+04 6.126e-10
 66.82829    -18.2 1.066e+04 5.371e-10
 66.84795    -17.1 1.039e+04 4.563e-10
 66.87754    -15.7 1.011e+04 3.674e-10
 66.91697    -13.7 9.810e+03 2.866e-10
 66.95630    -11.6 9.853e+03 2.860e-10
 66.99563     -9.2 1.005e+04 2.878e-10
 67.02503     -7.1 1.001e+04 2.307e-10
 67.04459     -6.5 9.911e+03 2.315e-10
 67.06426     -4.5 1.005e+04 2.693e-10
 67.08392     -3.9 1.027e+04 2.758e-10
 67.10359     -4.3 1.109e+04 3.331e-10
 67.11669     -6.1 1.279e+04 5.368e-10
 67.12653     -5.9 1.265e+04 5.026e-10
 67.13976     -8.3 1.431e+04 1.020e-09
 67.14959     -4.6 1.155e+04 4.898e-10
 67.16258     -6.6 1.237e+04 8.519e-10
 67.18224     -7.8 1.291e+04 1.611e-09
 67.20191     -7.3 1.376e+04 2.764e-09
 67.22157     -5.9 1.469e+04 4.003e-09
 67.24124     -5.0 1.543e+04 4.880e-09
 67.26090     -5.0 1.541e+04 4.622e-09
 67.27969     -6.0 1.489e+04 3.956e-09
 67.28953     -6.3 1.497e+04 3.952e-09
 67.30023     -7.8 1.458e+04 3.769e-09
 67.31990     -8.7 1.424e+04 3.844e-09
 67.33956     -9.0 1.415e+04 4.069e-09
 67.35922     -8.7 1.403e+04 4.143e-09
 67.37889     -7.5 1.355e+04 3.697e-09
 67.39855     -6.1 1.306e+04 2.837e-09
 67.41822     -4.8 1.272e+04 2.007e-09
 67.43788     -4.1 1.245e+04 1.198e-09
 67.45253     -4.1 1.217e+04 6.418e-10
 67.46236     -5.2 1.243e+04 4.377e-10
 67.47721     -6.5 1.177e+04 2.697e-10
 67.50681     -6.8 1.100e+04 2.363e-10
 67.54623     -6.9 1.032e+04 2.124e-10
 67.58556     -5.7 1.020e+04 2.655e-10
 67.62489     -3.7 1.043e+04 3.540e-10
 67.65429     -2.7 1.054e+04 4.404e-10
 67.67386     -2.1 1.060e+04 4.778e-10
 67.69352     -1.0 1.069e+04 5.624e-10
 67.71318     -0.5 1.093e+04 6.462e-10
 67.73285     -0.3 1.132e+04 8.247e-10
 67.75251     -2.8 1.356e+04 1.129e-09
 67.77218     -9.5 1.916e+04 2.818e-09
 67.78836    -13.2 2.066e+04 7.501e-09
 67.79819    -14.1 2.081e+04 6.676e-09
 67.81151    -14.5 2.008e+04 1.114e-08
 67.83117    -14.6 1.903e+04 1.218e-08
 67.85083    -14.2 1.747e+04 8.360e-09
 67.87050    -15.8 1.673e+04 3.710e-09
 67.89016    -24.5 1.268e+04 1.177e-09
 67.90983    -27.4 1.025e+04 6.835e-10
 67.92949    -27.5 9.830e+03 5.839e-10
 67.94916    -26.6 9.596e+03 5.033e-10
 67.96119    -26.1 9.413e+03 4.379e-10
 67.97102    -26.4 9.385e+03 4.495e-10
 67.98849    -25.9 9.271e+03 3.903e-10
 68.00815    -25.4 9.123e+03 3.447e-10
 68.02781    -24.9 9.063e+03 3.239e-10
 68.05741    -24.4 9.068e+03 3.109e-10
 68.09684    -23.2 8.791e+03 2.681e-10
 68.12438    -21.6 8.588e+03 2.376e-10
 68.14405    -21.8 8.739e+03 2.594e-10
 68.17549    -20.1 8.639e+03 2.467e-10
 68.21482    -18.0 8.476e+03 2.151e-10
 68.25415    -15.8 8.229e+03 1.640e-10
 68.29348    -14.1 7.963e+03 1.237e-10
 68.33281    -12.6 7.799e+03 1.089e-10
 68.37214    -10.9 7.806e+03 1.097e-10
 68.41147     -9.6 8.101e+03 1.444e-10
 68.45038     -8.0 8.472e+03 2.044e-10
 68.47004     -7.9 8.596e+03 2.300e-10
 68.49012     -5.9 8.836e+03 2.682e-10
 68.52945     -4.3 9.134e+03 3.074e-10
 68.56878     -3.5 9.805e+03 3.982e-10
 68.60811     -4.1 1.059e+04 6.249e-10
 68.64744     -4.0 1.117e+04 1.120e-09
 68.68677     -1.3 1.166e+04 1.552e-09
 68.72610      0.9 1.189e+04 1.514e-09
 68.75550      2.1 1.176e+04 8.716e-10
 68.77506      2.2 1.148e+04 7.995e-10
 68.79473      1.8 1.112e+04 5.996e-10
 68.80568      1.6 1.080e+04 5.583e-10
 68.81551      1.2 1.054e+04 4.680e-10
 68.83406      1.8 1.038e+04 4.713e-10
 68.85372      2.4 1.041e+04 4.807e-10
 68.87338      3.3 1.046e+04 5.016e-10
 68.89305      4.1 1.052e+04 5.166e-10
 68.91271      5.0 1.046e+04 5.164e-10
 68.93238      5.8 1.040e+04 5.029e-10
 68.95204      6.6 1.017e+04 4.698e-10
 68.96868      7.4 9.985e+03 4.432e-10
 68.97851      7.1 1.015e+04 5.371e-10
 68.99137      7.8 1.016e+04 4.972e-10
 69.01103      8.4 1.007e+04 4.842e-10
 69.03070      9.1 9.943e+03 4.588e-10
 69.05036     10.0 9.897e+03 4.556e-10
 69.07996     10.9 1.009e+04 4.583e-10
 69.11938     10.9 1.105e+04 6.693e-10
 69.14170     11.2 1.216e+04 1.341e-09
 69.16137     12.2 1.223e+04 1.445e-09
 69.18811     12.3 1.252e+04 1.869e-09
 69.20768     13.1 1.242e+04 2.004e-09
 69.22734     13.5 1.280e+04 2.337e-09
 69.24701     13.5 1.331e+04 2.732e-09
 69.26667     13.0 1.378e+04 3.228e-09
 69.28634     12.4 1.415e+04 3.847e-09
 69.30451     12.3 1.444e+04 4.503e-09
 69.31434     12.5 1.547e+04 5.770e-09
 69.32567     13.0 1.587e+04 6.107e-09
 69.34533     13.2 1.606e+04 5.676e-09
 69.36499     10.5 1.769e+04 6.349e-09
 69.38466      5.4 1.893e+04 7.458e-09
 69.40432      1.5 1.707e+04 9.916e-09
 69.42399      1.2 1.625e+04 1.201e-08
 69.44365      2.3 1.614e+04 1.156e-08
 69.45835      3.5 1.642e+04 1.024e-08
 69.46813      3.8 1.684e+04 9.969e-09
 69.47724      3.3 1.864e+04 8.064e-09
 69.48216      3.7 1.827e+04 9.966e-09
 69.48780      3.1 1.909e+04 8.849e-09
 69.49763      1.9 2.052e+04 6.535e-09
 69.50746      0.2 2.011e+04 5.589e-09
 69.52226     -1.3 1.888e+04 5.007e-09
 69.54197     -4.4 1.514e+04 3.246e-09
 69.56164     -4.0 1.369e+04 2.744e-09
 69.58130     -2.4 1.321e+04 2.394e-09
 69.60097     -0.7 1.288e+04 1.870e-09
 69.62063      0.3 1.269e+04 1.369e-09
 69.64030      0.7 1.241e+04 1.015e-09
 69.66989      1.5 1.213e+04 7.998e-10
 69.70932      3.0 1.135e+04 4.857e-10
 69.74865      4.8 1.108e+04 4.293e-10
 69.78797      7.1 1.098e+04 4.920e-10
 69.81336      9.8 1.099e+04 5.480e-10
 69.83303     10.1 1.083e+04 3.470e-10
 69.86663     12.6 1.098e+04 4.038e-10
 69.90596     14.4 1.120e+04 5.566e-10
 69.94529     16.6 1.196e+04 9.229e-10
 69.98462     17.3 1.280e+04 1.706e-09
 70.01402     17.5 1.345e+04 2.999e-09
 70.03358     18.3 1.410e+04 4.409e-09
 70.05325     18.9 1.502e+04 5.979e-09
 70.07291     19.5 1.569e+04 7.144e-09
 70.09258     19.9 1.576e+04 7.127e-09
 70.11224     20.8 1.561e+04 6.284e-09
 70.13191     21.5 1.543e+04 4.819e-09
 70.14900     21.2 1.547e+04 3.506e-09
 70.15883     20.4 1.510e+04 3.506e-09
 70.17123     19.3 1.470e+04 2.711e-09
 70.19090     18.3 1.428e+04 2.125e-09
 70.21056     18.1 1.372e+04 1.786e-09
 70.23023     18.2 1.345e+04 1.541e-09
 70.24989     18.2 1.333e+04 1.324e-09
 70.26956     18.1 1.294e+04 1.102e-09
 70.28922     18.2 1.225e+04 8.580e-10
 70.30889     18.0 1.169e+04 7.223e-10
 70.32183     18.4 1.122e+04 5.840e-10
 70.33166     18.2 1.140e+04 6.331e-10
 70.34821     17.8 1.134e+04 5.342e-10
 70.36788     17.4 1.120e+04 5.113e-10
 70.38754     16.6 1.132e+04 5.392e-10
 70.40721     15.9 1.132e+04 6.496e-10
 70.42687     15.8 1.133e+04 7.951e-10
 70.44654     15.9 1.153e+04 9.988e-10
 70.46620     16.5 1.155e+04 1.102e-09
 70.48483     16.9 1.159e+04 1.114e-09
 70.49466     17.2 1.150e+04 1.097e-09
 70.50553     16.7 1.186e+04 1.046e-09
 70.52519     13.6 1.326e+04 1.266e-09
 70.54486     10.1 1.416e+04 1.545e-09
 70.56452      9.1 1.305e+04 1.950e-09
 70.58419     10.2 1.219e+04 2.137e-09
 70.61378     11.5 1.236e+04 1.846e-09
 70.65321     11.9 1.162e+04 1.164e-09
 70.69254     11.6 1.075e+04 7.605e-10
 70.73187     12.7 9.827e+03 4.906e-10
 70.77119     14.6 9.303e+03 3.465e-10
 70.81052     16.6 9.041e+03 2.705e-10
 70.83069     18.6 8.876e+03 2.328e-10
 70.85035     18.7 8.861e+03 2.258e-10
 70.88918     21.1 8.785e+03 2.224e-10
 70.92851     23.4 8.855e+03 2.340e-10
 70.96784     25.7 9.012e+03 2.755e-10
 71.00717     28.1 9.216e+03 3.376e-10
 71.04650     30.6 9.435e+03 4.149e-10
 71.08583     33.1 9.625e+03 4.948e-10
 71.12515     35.6 9.779e+03 5.611e-10
 71.15669     38.0 9.895e+03 5.988e-10
 71.17635     38.1 9.843e+03 5.828e-10
 71.20381     40.2 9.861e+03 5.821e-10
 71.23654     42.2 9.862e+03 5.728e-10
 71.25621     41.5 9.545e+03 4.086e-10
 71.28247     43.3 9.535e+03 4.039e-10
 71.32180     45.1 9.478e+03 3.823e-10
 71.36113     47.1 9.321e+03 3.283e-10
 71.40046     48.9 9.106e+03 2.597e-10
 71.43978     50.5 8.889e+03 1.950e-10
 71.47911     51.8 8.742e+03 1.737e-10
 71.50235     53.0 8.779e+03 1.838e-10
 71.52201     53.7 8.690e+03 1.726e-10
 71.55777     54.7 8.796e+03 1.911e-10
 71.59710     55.6 8.999e+03 2.524e-10
 71.63643     56.5 9.176e+03 3.454e-10
 71.67576     57.3 9.332e+03 4.246e-10
 71.71509     58.1 9.464e+03 4.548e-10
 71.75442     58.6 9.477e+03 4.386e-10
 71.79374     59.0 9.406e+03 3.946e-10
 71.82835     59.3 9.283e+03 3.763e-10
 71.84801     59.7 9.445e+03 4.300e-10
 71.87240     60.2 9.458e+03 4.475e-10
 71.91173     60.7 9.595e+03 5.324e-10
 71.95106     61.7 9.968e+03 6.909e-10
 71.98046     62.1 1.021e+04 8.318e-10
 72.00002     62.6 1.039e+04 9.572e-10
 72.01081     63.1 1.057e+04 1.080e-09
 72.02065     63.2 1.050e+04 1.001e-09
 72.03935     63.7 1.058e+04 1.017e-09
 72.05902     64.1 1.058e+04 1.005e-09
 72.07868     64.6 1.054e+04 9.493e-10
 72.10828     64.7 1.051e+04 8.114e-10
 72.14770     64.9 1.029e+04 7.035e-10
 72.17401     65.2 1.006e+04 6.526e-10
 72.19367     64.9 9.768e+03 5.375e-10
 72.22636     65.6 9.930e+03 6.421e-10
 72.26569     66.4 1.006e+04 7.030e-10
 72.30502     67.0 1.004e+04 6.895e-10
 72.34435     67.7 9.851e+03 6.167e-10
 72.38368     68.4 9.528e+03 4.981e-10
 72.42300     68.9 9.122e+03 3.754e-10
 72.46233     68.7 8.847e+03 3.084e-10
 72.50001     68.2 8.914e+03 3.186e-10
 72.51967     66.9 8.938e+03 3.186e-10
 72.54099     66.0 9.337e+03 4.190e-10
 72.58032     65.4 9.995e+03 6.248e-10
 72.61965     64.6 1.027e+04 6.941e-10
 72.65898     63.8 1.021e+04 6.331e-10
 72.69831     62.8 9.863e+03 4.534e-10
 72.73764     61.4 9.534e+03 3.612e-10
 72.77696     60.2 9.506e+03 3.702e-10
 72.81629     59.5 9.669e+03 4.445e-10
 72.84567     59.4 1.013e+04 6.311e-10
 72.86524     59.0 1.054e+04 8.108e-10
 72.88492     59.1 1.086e+04 9.836e-10
 72.90459     59.3 1.105e+04 1.090e-09
 72.92425     59.3 1.133e+04 1.245e-09
 72.94392     59.3 1.149e+04 1.336e-09
 72.97351     59.2 1.188e+04 1.498e-09
 73.01294     58.7 1.200e+04 1.502e-09
 73.05227     58.2 1.195e+04 1.435e-09
 73.09159     57.9 1.167e+04 1.192e-09
 73.13092     57.7 1.112e+04 7.965e-10
 73.17025     56.9 1.047e+04 4.789e-10
 73.19133     55.3 9.998e+03 3.493e-10
 73.21100     52.6 1.074e+04 5.339e-10
 73.24891     50.5 1.081e+04 6.677e-10
 73.28824     49.8 1.092e+04 7.502e-10
 73.32757     49.8 1.081e+04 6.801e-10
 73.36690     49.3 1.061e+04 4.662e-10
 73.40623     47.5 1.064e+04 3.738e-10
 73.44555     45.7 1.056e+04 3.942e-10
 73.48488     45.3 1.031e+04 4.389e-10
 73.51733     45.9 9.981e+03 4.142e-10
 73.53699     44.5 9.477e+03 3.490e-10
 73.56354     45.9 9.061e+03 2.024e-10
 73.60287     46.8 8.905e+03 1.055e-10
 73.64220     47.2 8.737e+03 6.327e-11
 73.68153     48.0 8.428e+03 5.782e-11
 73.72086     49.5 8.421e+03 5.848e-11
 73.76018     50.8 8.475e+03 6.446e-11
 73.79951     51.7 8.604e+03 8.691e-11
 73.83884     52.7 8.781e+03 1.405e-10
 73.86299     53.8 9.093e+03 2.391e-10
 73.88266     52.6 9.106e+03 2.975e-10
 73.91750     53.6 9.663e+03 4.851e-10
 73.95683     54.2 1.018e+04 6.781e-10
 73.99616     54.5 1.054e+04 8.457e-10
 74.03549     54.6 1.080e+04 9.461e-10
 74.07482     54.6 1.083e+04 9.350e-10
 74.11414     54.8 1.084e+04 8.518e-10
 74.15347     54.6 1.079e+04 6.649e-10
 74.18899     53.8 1.053e+04 4.738e-10
 74.20865     50.1 9.964e+03 3.523e-10
 74.23213     49.7 9.573e+03 3.202e-10
 74.27146     49.8 9.564e+03 3.055e-10
 74.31079     50.2 9.648e+03 2.976e-10
 74.35012     50.2 9.744e+03 2.879e-10
 74.38945     50.1 9.769e+03 2.878e-10
 74.42877     50.1 9.755e+03 3.006e-10
 74.46810     50.7 9.692e+03 3.264e-10
 74.50743     51.8 9.637e+03 3.427e-10
 74.53465     53.2 9.610e+03 3.386e-10
 74.55432     52.4 9.764e+03 3.704e-10
 74.58609     54.0 9.725e+03 3.554e-10
 74.62542     55.7 9.645e+03 3.071e-10
 74.66475     57.2 9.556e+03 2.400e-10
 74.70408     58.3 9.432e+03 1.718e-10
 74.74341     59.4 9.385e+03 1.645e-10
 74.78273     60.4 9.401e+03 1.725e-10
 74.82206     61.7 9.534e+03 2.073e-10
 74.86065     63.0 9.790e+03 2.764e-10
 74.88022     62.3 1.028e+04 4.349e-10
 74.89069     63.0 1.037e+04 4.771e-10
 74.91036     63.7 1.045e+04 5.270e-10
 74.93002     64.4 1.043e+04 5.518e-10
 74.94969     65.3 1.039e+04 5.469e-10
 74.96935     66.2 1.030e+04 5.186e-10
 74.98901     67.1 1.025e+04 4.782e-10
 75.01861     67.3 1.003e+04 3.767e-10
 75.05804     68.2 9.733e+03 2.789e-10
 75.09736     69.0 9.395e+03 2.259e-10
 75.13669     69.8 9.275e+03 2.231e-10
 75.17602     70.9 9.322e+03 2.310e-10
 75.20631     72.2 9.510e+03 2.709e-10
 75.22598     70.6 9.438e+03 2.832e-10
 75.25468     71.7 9.795e+03 3.434e-10
 75.29401     72.6 1.011e+04 3.873e-10
 75.33313     73.3 1.013e+04 3.814e-10
 75.35279     71.7 1.013e+04 3.937e-10
 75.37267     72.5 1.004e+04 3.543e-10
 75.41200     73.5 9.807e+03 2.664e-10
 75.45132     74.4 9.498e+03 1.771e-10
 75.49065     75.1 9.131e+03 1.277e-10
 75.52998     76.1 9.011e+03 1.231e-10
 75.55198     77.4 9.024e+03 1.277e-10
 75.57164     75.8 9.127e+03 1.337e-10
 75.60864     77.4 9.445e+03 1.897e-10
 75.64797     78.7 9.989e+03 2.924e-10
 75.67737     79.5 1.015e+04 3.384e-10
 75.69693     79.9 1.039e+04 4.104e-10
 75.71478     80.1 1.074e+04 5.531e-10
 75.72461     79.0 1.091e+04 6.672e-10
 75.73626     79.4 1.127e+04 9.007e-10
 75.75593     79.7 1.156e+04 1.148e-09
 75.77559     80.1 1.174e+04 1.377e-09
 75.79526     80.5 1.186e+04 1.560e-09
 75.81492     80.9 1.184e+04 1.573e-09
 75.83458     81.2 1.176e+04 1.538e-09
 75.85425     81.5 1.160e+04 1.403e-09
 75.87391     81.7 1.146e+04 1.190e-09
 75.88761     81.4 1.153e+04 9.473e-10
 75.89744     79.7 1.165e+04 8.779e-10
 75.91324     78.3 1.199e+04 8.702e-10
 75.93291     76.7 1.230e+04 9.044e-10
 75.95257     75.3 1.232e+04 1.019e-09
 75.97224     74.1 1.227e+04 1.176e-09
 75.99190     73.6 1.223e+04 1.339e-09
 76.01156     73.4 1.232e+04 1.497e-09
 76.03123     73.2 1.237e+04 1.599e-09
 76.05061     72.9 1.232e+04 1.618e-09
 76.06044     71.6 1.229e+04 1.619e-09
 76.07056     71.5 1.223e+04 1.618e-09
 76.09022     71.4 1.213e+04 1.625e-09
 76.10989     71.5 1.212e+04 1.623e-09
 76.12955     71.7 1.211e+04 1.638e-09
 76.14922     72.0 1.214e+04 1.691e-09
 76.16888     72.4 1.219e+04 1.701e-09
 76.18854     72.7 1.218e+04 1.678e-09
 76.20821     73.0 1.214e+04 1.637e-09
 76.22344     73.3 1.207e+04 1.592e-09
 76.23327     72.7 1.208e+04 1.618e-09
 76.24754     73.1 1.200e+04 1.565e-09
 76.26720     73.5 1.193e+04 1.535e-09
 76.28687     73.9 1.185e+04 1.494e-09
 76.30653     74.4 1.177e+04 1.449e-09
 76.32619     74.9 1.171e+04 1.407e-09
 76.34586     75.7 1.169e+04 1.376e-09
 76.36552     76.4 1.168e+04 1.351e-09
 76.38519     77.2 1.165e+04 1.319e-09
 76.39627     78.2 1.162e+04 1.281e-09
 76.40610     77.6 1.136e+04 1.127e-09
 76.42452     78.6 1.127e+04 1.060e-09
 76.44418     79.7 1.121e+04 9.965e-10
 76.46385     80.8 1.119e+04 9.383e-10
 76.48351     81.8 1.124e+04 8.938e-10
 76.50317     83.0 1.130e+04 8.901e-10
 76.52284     84.3 1.145e+04 9.092e-10
 76.54250     84.7 1.184e+04 1.003e-09
 76.55927     84.0 1.287e+04 1.338e-09
 76.56910     82.4 1.207e+04 1.089e-09
 76.58183     81.6 1.360e+04 1.832e-09
 76.60150     81.6 1.510e+04 3.181e-09
 76.61620     81.6 1.587e+04 4.215e-09
 76.62598     81.2 1.633e+04 5.066e-09
 76.63581     80.7 1.673e+04 6.505e-09
 76.64559     80.8 1.715e+04 8.507e-09
 76.65051     80.8 1.644e+04 7.028e-09
 76.65548     81.1 1.669e+04 8.380e-09
 76.66531     81.6 1.712e+04 8.784e-09
 76.67514     82.0 1.729e+04 8.728e-09
 76.68497     82.0 1.739e+04 8.552e-09
 76.69480     81.7 1.767e+04 7.889e-09
 76.70464     81.1 1.789e+04 6.948e-09
 76.71447     79.8 1.796e+04 5.932e-09
 76.72430     78.2 1.772e+04 4.984e-09
 76.73200     75.8 1.735e+04 4.287e-09
 76.73692     75.7 1.692e+04 3.984e-09
 76.74397     74.6 1.670e+04 3.776e-09
 76.75876     73.0 1.632e+04 3.751e-09
 76.77848     69.1 1.651e+04 3.939e-09
 76.79318     65.2 1.736e+04 4.631e-09
 76.80296     63.5 1.706e+04 5.058e-09
 76.81279     62.4 1.709e+04 5.594e-09
 76.81842     61.7 1.733e+04 6.173e-09
 76.82334     62.0 1.768e+04 6.871e-09
 76.83246     61.1 1.755e+04 7.541e-09
 76.84229     60.7 1.750e+04 7.797e-09
 76.85212     60.4 1.738e+04 7.931e-09
 76.86195     60.0 1.728e+04 7.898e-09
 76.87178     59.7 1.706e+04 7.754e-09
 76.88162     59.5 1.682e+04 7.379e-09
 76.89145     59.4 1.650e+04 6.708e-09
 76.89992     59.2 1.616e+04 6.035e-09
 76.90484     59.2 1.603e+04 5.662e-09
 76.91608     59.6 1.560e+04 4.847e-09
 76.93579     59.7 1.487e+04 3.692e-09
 76.95546     60.0 1.397e+04 2.594e-09
 76.97512     60.3 1.297e+04 1.763e-09
 76.99478     60.8 1.206e+04 1.230e-09
 77.01445     61.4 1.137e+04 8.962e-10
 77.03411     61.9 1.078e+04 6.577e-10
 77.05378     62.6 1.032e+04 5.088e-10
 77.06793     63.5 1.008e+04 4.389e-10
 77.07777     63.4 9.381e+03 3.157e-10
 77.09311     64.5 9.360e+03 3.144e-10
 77.11277     65.8 9.382e+03 3.179e-10
 77.13244     67.1 9.470e+03 3.320e-10
 77.15210     68.5 9.615e+03 3.602e-10
 77.17176     69.7 9.882e+03 4.075e-10
 77.19143     70.3 1.041e+04 4.950e-10
 77.21109     70.1 1.128e+04 6.733e-10
 77.23076     69.3 1.264e+04 1.098e-09
 77.24076     67.3 1.400e+04 1.832e-09
 77.25060     68.1 1.295e+04 1.230e-09
 77.27009     65.0 1.465e+04 2.051e-09
 77.28479     59.6 1.763e+04 3.963e-09
 77.29457     54.0 2.066e+04 7.958e-09
 77.30440     48.2 2.320e+04 1.632e-08
 77.31423     42.9 2.448e+04 3.227e-08
 77.32217     38.4 2.487e+04 5.311e-08
 77.32708     38.6 2.477e+04 5.170e-08
 77.33390     33.7 2.492e+04 6.434e-08
 77.34373     29.4 2.467e+04 5.673e-08
 77.35356     25.9 2.387e+04 3.440e-08
 77.36339     20.7 2.297e+04 1.495e-08
 77.37323     17.3 2.192e+04 1.028e-08
 77.38802      6.4 1.895e+04 3.471e-09
 77.40089     -6.9 1.319e+04 1.206e-09
 77.40675     -6.9 1.279e+04 1.173e-09
 77.41360     -8.1 1.314e+04 1.134e-09
 77.42740    -14.1 1.134e+04 7.412e-10
 77.44707    -17.1 1.115e+04 7.082e-10
 77.46673    -20.4 1.142e+04 7.566e-10
 77.48639    -27.7 1.562e+04 9.414e-10
 77.50606    -36.8 2.139e+04 2.398e-09
 77.52572    -43.7 2.261e+04 7.336e-09
 77.54539    -47.3 2.232e+04 1.450e-08
 77.56009    -49.9 2.269e+04 2.100e-08
 77.56987    -51.4 2.339e+04 2.405e-08
 77.57650    -53.1 2.424e+04 2.793e-08
 77.58141    -56.1 2.457e+04 2.238e-08
 77.58954    -58.7 2.560e+04 1.777e-08
 77.59937    -62.7 2.465e+04 1.181e-08
 77.60920    -67.1 2.209e+04 7.380e-09
 77.61903    -71.4 1.810e+04 4.838e-09
 77.62886    -73.5 1.616e+04 3.795e-09
 77.64366    -73.8 1.540e+04 3.102e-09
 77.66337    -74.4 1.434e+04 2.392e-09
 77.68304    -76.1 1.294e+04 1.559e-09
 77.70270    -77.0 1.177e+04 9.938e-10
 77.72237    -77.8 1.098e+04 7.041e-10
 77.73959    -78.9 1.079e+04 6.481e-10
 77.74943    -79.5 1.154e+04 8.589e-10
 77.76170    -82.3 1.285e+04 9.434e-10
 77.78136    -85.7 1.424e+04 1.553e-09
 77.80103    -87.2 1.488e+04 2.728e-09
 77.82069    -87.3 1.522e+04 4.066e-09
 77.84035    -86.5 1.529e+04 4.780e-09
 77.86002    -85.6 1.525e+04 4.892e-09
 77.87968    -84.7 1.470e+04 3.876e-09
 77.89935    -84.3 1.382e+04 2.363e-09
 77.91242    -85.0 1.262e+04 1.265e-09
 77.92226    -85.6 1.255e+04 1.250e-09
 77.93868    -87.1 1.120e+04 7.086e-10
 77.95834    -87.7 1.037e+04 4.893e-10
 77.97801    -87.6 1.014e+04 4.212e-10
 77.99767    -86.8 1.010e+04 4.090e-10
 78.01733    -86.6 1.020e+04 4.186e-10
 78.04693    -87.2 1.055e+04 5.222e-10
 78.08635    -87.5 1.164e+04 1.007e-09
 78.12568    -87.2 1.243e+04 1.685e-09
 78.15508    -86.8 1.254e+04 1.863e-09
 78.17465    -86.7 1.247e+04 1.831e-09
 78.19431    -86.4 1.197e+04 1.413e-09
 78.21398    -86.3 1.129e+04 9.472e-10
 78.23364    -87.5 1.037e+04 5.855e-10
 78.24825    -88.5 9.742e+03 4.319e-10
 78.25809    -88.0 9.511e+03 3.505e-10
 78.27297    -88.1 9.287e+03 3.001e-10
 78.29264    -88.1 9.252e+03 2.884e-10
 78.31230    -87.9 9.264e+03 2.854e-10
 78.33196    -87.9 9.387e+03 2.993e-10
 78.35163    -87.8 9.563e+03 3.295e-10
 78.37129    -88.1 9.785e+03 3.838e-10
 78.39096    -88.4 1.008e+04 4.927e-10
 78.41062    -88.6 1.041e+04 6.167e-10
 78.42109    -88.7 1.071e+04 7.628e-10
 78.43092    -88.2 1.049e+04 6.927e-10
 78.44995    -88.2 1.076e+04 8.239e-10
 78.46962    -88.1 1.091e+04 9.197e-10
 78.48928    -88.0 1.095e+04 9.541e-10
 78.50894    -87.8 1.090e+04 9.522e-10
 78.52861    -87.5 1.072e+04 8.938e-10
 78.54827    -87.1 1.054e+04 7.963e-10
 78.56794    -86.8 1.037e+04 6.973e-10
 78.58409    -86.6 1.021e+04 6.134e-10
 78.59392    -86.3 1.015e+04 5.815e-10
 78.60727    -86.1 1.002e+04 5.253e-10
 78.62693    -86.0 9.914e+03 4.920e-10
 78.64659    -85.7 9.876e+03 4.791e-10
 78.66626    -85.4 9.884e+03 4.778e-10
 78.68592    -85.1 9.981e+03 4.936e-10
 78.70559    -84.8 1.012e+04 5.340e-10
 78.72525    -84.4 1.026e+04 5.883e-10
 78.74492    -83.9 1.042e+04 6.456e-10
 78.75692    -83.4 1.055e+04 6.928e-10
 78.76675    -83.3 1.059e+04 7.041e-10
 78.78425    -82.8 1.073e+04 7.532e-10
 78.80391    -82.3 1.078e+04 7.610e-10
 78.83350    -81.4 1.092e+04 7.941e-10
 78.87293    -80.5 1.091e+04 7.605e-10
 78.91028    -79.9 1.092e+04 7.533e-10
 78.92994    -80.1 1.115e+04 8.671e-10
 78.95159    -79.6 1.120e+04 9.135e-10
 78.99092    -79.2 1.126e+04 9.620e-10
 79.03025    -78.7 1.121e+04 9.557e-10
 79.06958    -77.9 1.089e+04 8.215e-10
 79.10890    -76.9 1.040e+04 5.969e-10
 79.14823    -76.0 9.878e+03 4.034e-10
 79.18756    -75.4 9.523e+03 2.966e-10
 79.22689    -74.6 9.322e+03 2.483e-10
 79.25594    -73.5 9.180e+03 2.163e-10
 79.27561    -73.4 9.052e+03 1.800e-10
 79.30555    -72.2 8.978e+03 1.576e-10
 79.34488    -70.9 8.946e+03 1.379e-10
 79.38421    -69.7 8.911e+03 1.281e-10
 79.42353    -68.6 8.902e+03 1.265e-10
 79.44938    -67.6 9.020e+03 1.365e-10
 79.46905    -68.0 8.991e+03 1.318e-10
 79.50219    -67.1 9.205e+03 1.694e-10
 79.54152    -65.9 9.400e+03 2.305e-10
 79.58085    -64.5 9.558e+03 2.838e-10
 79.60160    -63.1 9.660e+03 3.083e-10
 79.62127    -63.3 9.534e+03 2.995e-10
 79.65951    -61.9 9.398e+03 2.860e-10
 79.69884    -60.3 9.136e+03 2.338e-10
 79.73816    -58.9 8.920e+03 1.863e-10
 79.77749    -57.6 8.836e+03 1.648e-10
 79.81682    -56.5 8.825e+03 1.616e-10
 79.85615    -55.6 8.916e+03 1.827e-10
 79.89548    -54.6 9.069e+03 2.422e-10
 79.92760    -53.3 9.243e+03 3.053e-10
 79.94727    -53.1 8.922e+03 2.377e-10
 79.97414    -51.7 9.002e+03 2.646e-10
 80.01347    -50.4 9.016e+03 2.674e-10
 80.05280    -49.1 8.860e+03 2.223e-10
 80.09212    -48.0 8.671e+03 1.697e-10
 80.13145    -46.9 8.512e+03 1.385e-10
 80.17078    -45.4 8.398e+03 1.242e-10
 80.21011    -43.6 8.345e+03 1.157e-10
 80.24944    -41.7 8.315e+03 1.073e-10
 80.27326    -39.8 8.284e+03 1.021e-10
 80.29293    -39.0 8.270e+03 1.036e-10
 80.32810    -37.1 8.297e+03 1.039e-10
 80.36743    -35.2 8.345e+03 1.149e-10
 80.40675    -33.1 8.408e+03 1.317e-10
 80.44608    -30.8 8.546e+03 1.472e-10
 80.48541    -28.8 8.735e+03 1.575e-10
 80.52474    -27.3 8.938e+03 1.693e-10
 80.56407    -25.9 9.000e+03 1.936e-10
 80.59926    -23.9 9.020e+03 2.222e-10
 80.61893    -23.5 9.031e+03 2.284e-10
 80.64273    -21.7 9.025e+03 2.257e-10
 80.68206    -19.7 8.973e+03 1.952e-10
 80.72139    -18.0 8.752e+03 1.603e-10
 80.76071    -15.8 8.498e+03 1.191e-10
 80.80004    -13.9 8.421e+03 8.424e-11
 80.83937    -12.4 8.418e+03 7.195e-11
 80.87870    -11.2 8.494e+03 7.716e-11
 80.91803    -10.4 8.676e+03 1.084e-10
 80.94492     -9.1 8.877e+03 1.853e-10
 80.96459     -8.7 8.862e+03 1.906e-10
 80.99669     -7.0 9.122e+03 2.780e-10
 81.03602     -5.5 9.394e+03 3.484e-10
 81.07534     -4.2 9.609e+03 3.869e-10
 81.11467     -3.3 9.647e+03 3.801e-10
 81.15400     -1.9 9.487e+03 3.283e-10
 81.19333     -0.5 9.227e+03 2.325e-10
 81.23266      0.5 9.044e+03 1.558e-10
 81.27092      0.9 8.932e+03 1.120e-10
 81.29059      1.0 8.951e+03 1.118e-10
 81.31132      1.4 9.011e+03 8.989e-11
 81.35065      2.2 8.997e+03 1.054e-10
 81.38998      3.7 8.988e+03 1.215e-10
 81.42930      5.5 9.006e+03 1.286e-10
 81.46863      7.3 8.998e+03 1.250e-10
 81.50796      9.0 8.966e+03 1.192e-10
 81.54729     10.7 8.912e+03 1.144e-10
 81.58662     12.5 8.833e+03 1.118e-10
 81.61659     14.4 8.787e+03 1.104e-10
 81.63625     14.1 8.676e+03 9.345e-11
 81.66528     16.0 8.694e+03 9.540e-11
 81.70461     17.9 8.717e+03 1.020e-10
 81.74393     19.8 8.759e+03 1.143e-10
 81.78326     21.7 8.862e+03 1.373e-10
 81.82259     23.7 9.012e+03 1.750e-10
 81.86192     25.9 9.228e+03 2.170e-10
 81.90125     28.2 9.409e+03 2.379e-10
 81.94058     30.3 9.424e+03 2.373e-10
 81.96225     32.3 9.397e+03 2.346e-10
 81.98191     31.9 9.454e+03 2.536e-10
 82.01924     33.9 9.559e+03 2.666e-10
 82.05857     36.0 9.754e+03 3.006e-10
 82.09789     38.1 1.003e+04 3.596e-10
 82.13722     40.3 1.038e+04 4.380e-10
 82.17655     42.3 1.073e+04 5.267e-10
 82.21588     43.9 1.099e+04 6.159e-10
 82.24528     44.6 1.149e+04 9.019e-10
 82.26485     45.5 1.179e+04 1.136e-09
 82.28451     46.4 1.215e+04 1.387e-09
 82.29788     47.0 1.261e+04 1.714e-09
 82.30771     47.4 1.263e+04 1.796e-09
 82.32384     47.9 1.307e+04 2.173e-09
 82.34350     48.3 1.351e+04 2.657e-09
 82.36317     48.8 1.391e+04 3.219e-09
 82.38283     49.4 1.423e+04 3.763e-09
 82.40250     50.1 1.443e+04 4.110e-09
 82.42216     50.6 1.445e+04 4.120e-09
 82.44183     51.2 1.434e+04 3.947e-09
 82.46088     51.9 1.408e+04 3.519e-09
 82.47071     52.4 1.437e+04 3.964e-09
 82.48115     53.1 1.412e+04 3.516e-09
 82.50082     53.6 1.378e+04 2.991e-09
 82.52048     54.0 1.336e+04 2.469e-09
 82.54015     54.4 1.290e+04 2.015e-09
 82.55981     54.7 1.252e+04 1.682e-09
 82.57948     55.2 1.232e+04 1.491e-09
 82.59914     55.6 1.216e+04 1.359e-09
 82.61881     56.1 1.197e+04 1.213e-09
 82.63371     56.6 1.173e+04 1.059e-09
 82.64355     57.5 1.177e+04 1.057e-09
 82.65813     57.8 1.149e+04 9.064e-10
 82.67780     58.2 1.121e+04 7.766e-10
 82.69746     58.6 1.094e+04 6.724e-10
 82.71713     59.0 1.072e+04 5.967e-10
 82.73679     59.4 1.064e+04 5.664e-10
 82.75646     59.8 1.065e+04 5.691e-10
 82.77612     60.1 1.070e+04 5.841e-10
 82.79579     60.5 1.081e+04 6.231e-10
 82.80654     60.8 1.098e+04 6.832e-10
 82.81638     60.6 1.098e+04 6.519e-10
 82.83511     60.7 1.124e+04 7.595e-10
 82.85478     60.8 1.157e+04 8.937e-10
 82.88437     61.7 1.162e+04 9.549e-10
 82.92380     62.5 1.168e+04 9.704e-10
 82.95991     63.7 1.152e+04 9.084e-10
 82.97957     63.0 1.189e+04 1.047e-09
 83.00246     64.6 1.128e+04 7.557e-10
 83.04179     66.2 1.075e+04 5.266e-10
 83.08111     67.8 1.031e+04 3.924e-10
 83.12044     69.9 1.024e+04 3.829e-10
 83.15977     72.3 1.030e+04 4.026e-10
 83.19910     74.7 1.052e+04 4.729e-10
 83.23843     77.0 1.085e+04 5.958e-10
 83.27776     79.1 1.127e+04 7.732e-10
 83.30557     81.4 1.172e+04 9.875e-10
 83.32523     81.2 1.141e+04 8.485e-10
 83.35642     83.3 1.175e+04 1.003e-09
 83.39574     85.1 1.204e+04 1.134e-09
 83.43507     86.7 1.252e+04 1.359e-09
 83.46447     87.5 1.302e+04 1.673e-09
 83.47820     88.2 1.336e+04 1.919e-09
 83.48804     88.2 1.293e+04 1.602e-09
 83.50370     88.8 1.324e+04 1.835e-09
 83.52337     89.3 1.339e+04 2.027e-09
 83.54303     89.9 1.341e+04 2.118e-09
 83.55561     90.5 1.333e+04 2.075e-09
 83.56544     90.6 1.382e+04 2.591e-09
 83.58236     91.2 1.362e+04 2.289e-09
 83.60203     91.6 1.348e+04 2.022e-09
 83.62169     91.9 1.348e+04 1.941e-09
 83.64120     92.0 1.351e+04 1.956e-09
 83.65104     92.3 1.309e+04 1.599e-09
 83.66102     92.5 1.318e+04 1.664e-09
 83.68068     92.8 1.340e+04 1.830e-09
 83.70035     93.1 1.365e+04 2.078e-09
 83.72001     93.4 1.395e+04 2.351e-09
 83.73968     93.6 1.432e+04 2.674e-09
 83.75934     93.8 1.472e+04 3.053e-09
 83.77901     93.9 1.511e+04 3.500e-09
 83.79867     94.0 1.549e+04 4.045e-09
 83.81403     94.1 1.587e+04 4.714e-09
 83.82387     95.0 1.550e+04 4.166e-09
 83.83800     95.0 1.587e+04 4.793e-09
 83.85766     94.9 1.667e+04 5.883e-09
 83.87733     95.0 1.780e+04 8.128e-09
 83.89699     95.7 1.874e+04 1.120e-08
 83.91169     96.7 1.932e+04 1.332e-08
 83.92147     97.2 1.966e+04 1.436e-08
 83.93131     97.5 2.024e+04 1.621e-08
 83.94114     97.6 2.127e+04 1.970e-08
 83.95097     97.7 2.228e+04 2.598e-08
 83.96080     98.1 2.288e+04 3.473e-08
 83.97064     99.1 2.310e+04 4.637e-08
 83.98047    100.1 2.327e+04 6.159e-08
 83.98677    100.3 2.366e+04 8.001e-08
 83.99168    103.0 2.455e+04 7.940e-08
 84.00013    102.0 2.728e+04 1.124e-07
 84.00996     93.3 3.058e+04 1.478e-07
 84.01980     76.9 2.793e+04 2.744e-07
 84.02963     63.1 2.394e+04 4.730e-07
 84.03946     56.8 2.228e+04 6.101e-07
 84.04929     55.5 2.196e+04 5.999e-07
 84.05913     55.0 2.203e+04 5.273e-07
 84.06827     55.1 2.271e+04 3.386e-07
 84.07318     53.3 2.227e+04 5.538e-07
 84.07879     54.3 2.285e+04 2.868e-07
 84.08862     55.9 2.378e+04 1.223e-07
 84.09845     57.1 2.479e+04 4.801e-08
 84.10829     57.1 2.514e+04 2.070e-08
 84.11812     56.8 2.436e+04 1.061e-08
 84.13292     54.1 2.069e+04 3.805e-09
 84.14987     49.6 1.373e+04 1.713e-09
 84.15970     50.7 1.595e+04 1.625e-09
 84.17229     48.0 1.199e+04 1.181e-09
 84.19196     48.4 1.165e+04 1.063e-09
 84.21162     49.5 1.161e+04 1.027e-09
 84.23129     50.7 1.168e+04 1.037e-09
 84.25095     51.3 1.179e+04 1.052e-09
 84.27062     51.4 1.182e+04 1.052e-09
 84.29028     51.3 1.174e+04 1.072e-09
 84.30994     51.1 1.168e+04 1.082e-09
 84.32270     50.7 1.163e+04 1.079e-09
 84.33253     51.0 1.196e+04 1.264e-09
 84.34927     50.7 1.176e+04 1.196e-09
 84.36894     50.4 1.143e+04 1.050e-09
 84.38860     50.1 1.104e+04 8.757e-10
 84.40827     49.8 1.064e+04 6.955e-10
 84.42793     49.3 1.027e+04 5.378e-10
 84.45753     48.8 9.791e+03 3.856e-10
 84.49695     48.8 9.127e+03 2.522e-10
 84.53628     49.0 8.592e+03 1.636e-10
 84.57561     49.3 8.197e+03 1.097e-10
 84.61494     49.7 7.936e+03 8.956e-11
 84.64889     50.4 7.911e+03 8.934e-11
 84.66855     50.7 7.861e+03 8.515e-11
 84.69360     51.4 7.881e+03 8.925e-11
 84.73292     52.0 7.984e+03 1.045e-10
 84.77225     52.4 8.137e+03 1.275e-10
 84.81158     52.8 8.306e+03 1.517e-10
 84.85091     52.8 8.479e+03 1.730e-10
 84.89024     52.5 8.698e+03 1.969e-10
 84.92957     51.7 9.050e+03 2.394e-10
 84.96890     50.7 9.401e+03 3.017e-10
 84.99455     49.7 9.685e+03 3.727e-10
 85.01422     49.8 9.805e+03 4.102e-10
 85.04756     48.8 9.862e+03 4.192e-10
 85.08688     47.9 9.766e+03 3.891e-10
 85.12621     47.0 9.556e+03 3.249e-10
 85.16554     46.7 9.310e+03 2.665e-10
 85.20487     46.6 9.139e+03 2.247e-10
 85.24420     46.8 9.008e+03 1.896e-10
 85.28353     47.2 8.892e+03 1.820e-10
 85.32055     47.9 8.915e+03 1.847e-10
 85.34021     48.0 8.999e+03 2.012e-10
 85.36219     49.0 9.039e+03 2.071e-10
 85.40151     49.9 9.133e+03 2.197e-10
 85.44084     50.9 9.320e+03 2.465e-10
 85.48017     51.7 9.577e+03 2.926e-10
 85.51950     52.3 9.861e+03 3.606e-10
 85.55883     53.1 1.014e+04 4.404e-10
 85.59816     53.9 1.032e+04 4.853e-10
 85.63749     54.6 1.033e+04 4.752e-10
 85.66621     55.3 1.031e+04 4.294e-10
 85.68588     55.3 1.016e+04 3.648e-10
 85.71615     56.2 1.008e+04 3.125e-10
 85.75547     57.2 1.012e+04 3.045e-10
 85.79480     58.3 1.023e+04 3.192e-10
 85.83413     59.2 1.039e+04 3.500e-10
 85.87346     59.8 1.047e+04 3.874e-10
 85.90286     60.4 1.050e+04 4.176e-10
 85.92243     60.9 1.059e+04 4.542e-10
 85.94209     61.7 1.076e+04 5.400e-10
 85.96175     61.9 1.080e+04 5.601e-10
 85.99135     62.5 1.090e+04 6.166e-10
 86.01188     63.1 1.081e+04 6.019e-10
 86.03154     63.4 1.073e+04 5.909e-10
 86.07010     64.1 1.054e+04 5.267e-10
 86.10943     64.8 1.026e+04 4.288e-10
 86.14876     65.4 9.957e+03 3.357e-10
 86.18809     65.9 9.654e+03 2.704e-10
 86.22742     66.4 9.502e+03 2.457e-10
 86.26675     67.0 9.503e+03 2.448e-10
 86.30608     67.7 9.535e+03 2.539e-10
 86.33787     68.4 9.598e+03 2.722e-10
 86.35754     68.2 9.618e+03 2.841e-10
 86.38473     68.6 9.749e+03 3.199e-10
 86.42406     68.9 9.874e+03 3.573e-10
 86.46339     69.3 9.912e+03 3.672e-10
 86.50272     69.7 9.888e+03 3.620e-10
 86.54205     70.3 9.800e+03 3.396e-10
 86.58138     71.0 9.708e+03 3.188e-10
 86.62071     71.8 9.709e+03 3.166e-10
 86.66004     72.8 9.760e+03 3.227e-10
 86.68354     73.8 9.901e+03 3.495e-10
 86.70320     73.1 1.009e+04 4.234e-10
 86.72876     73.6 1.016e+04 4.416e-10
 86.74833     74.1 1.027e+04 4.827e-10
 86.76800     74.7 1.039e+04 5.345e-10
 86.78766     75.4 1.054e+04 5.774e-10
 86.80732     76.0 1.070e+04 6.143e-10
 86.82699     76.4 1.085e+04 6.522e-10
 86.84634     76.8 1.099e+04 6.874e-10
 86.85617     76.2 1.101e+04 6.897e-10
 86.86632     76.2 1.113e+04 7.281e-10
 86.88598     76.2 1.130e+04 8.032e-10
 86.90565     76.3 1.142e+04 8.972e-10
 86.92531     76.6 1.159e+04 1.006e-09
 86.94498     76.7 1.182e+04 1.130e-09
 86.96464     76.5 1.211e+04 1.275e-09
 86.98430     76.0 1.258e+04 1.517e-09
 87.00397     74.3 1.359e+04 2.063e-09
 87.01917     70.9 1.545e+04 3.422e-09
 87.02900     68.4 1.612e+04 4.085e-09
 87.03833     65.8 1.713e+04 5.815e-09
 87.04812     64.8 1.740e+04 6.614e-09
 87.05795     62.9 1.807e+04 8.736e-09
 87.06778     62.3 1.817e+04 9.855e-09
 87.07761     60.7 1.818e+04 9.961e-09
 87.08744     60.0 1.811e+04 9.909e-09
 87.09728     59.3 1.802e+04 9.752e-09
 87.10549     58.7 1.781e+04 9.212e-09
 87.11040     57.8 1.785e+04 9.259e-09
 87.11694     56.8 1.739e+04 7.343e-09
 87.12677     55.5 1.678e+04 5.712e-09
 87.13661     53.3 1.610e+04 4.352e-09
 87.14644     52.9 1.596e+04 4.216e-09
 87.16123     50.3 1.507e+04 3.118e-09
 87.18095     45.7 1.389e+04 2.371e-09
 87.19200     41.2 1.426e+04 2.684e-09
 87.20183     36.8 1.708e+04 4.943e-09
 87.22028     33.9 1.878e+04 8.684e-09
 87.23994     32.1 1.953e+04 1.261e-08
 87.25961     30.7 1.971e+04 1.529e-08
 87.27927     29.7 1.956e+04 1.538e-08
 87.29893     29.1 1.898e+04 1.383e-08
 87.31860     28.5 1.812e+04 1.061e-08
 87.33826     27.7 1.697e+04 7.031e-09
 87.35500     26.3 1.532e+04 4.074e-09
 87.36483     23.9 1.398e+04 2.649e-09
 87.37759     22.2 1.240e+04 1.808e-09
 87.39726     21.8 1.180e+04 1.536e-09
 87.41692     22.3 1.182e+04 1.513e-09
 87.43659     23.1 1.187e+04 1.530e-09
 87.45625     24.1 1.193e+04 1.551e-09
 87.47591     25.0 1.199e+04 1.576e-09
 87.49558     25.8 1.204e+04 1.596e-09
 87.51524     26.7 1.208e+04 1.627e-09
 87.52783     27.5 1.216e+04 1.687e-09
 87.53766     27.0 1.174e+04 1.419e-09
 87.55457     27.9 1.179e+04 1.445e-09
 87.57424     28.8 1.185e+04 1.473e-09
 87.59390     29.7 1.189e+04 1.471e-09
 87.61357     30.7 1.187e+04 1.451e-09
 87.63323     31.6 1.179e+04 1.395e-09
 87.65220     32.6 1.165e+04 1.298e-09
 87.66203     32.5 1.146e+04 1.216e-09
 87.67256     33.5 1.130e+04 1.104e-09
 87.69083     34.4 1.110e+04 9.765e-10
 87.70066     33.6 1.079e+04 8.396e-10
 87.71189     34.5 1.064e+04 7.531e-10
 87.73155     35.5 1.048e+04 6.718e-10
 87.75122     36.5 1.032e+04 6.000e-10
 87.77088     37.5 1.017e+04 5.411e-10
 87.79054     38.5 1.001e+04 4.841e-10
 87.81021     39.3 9.904e+03 4.492e-10
 87.82987     40.5 9.800e+03 4.191e-10
 87.84954     41.4 9.790e+03 4.081e-10
 87.86366     42.8 9.755e+03 3.975e-10
 87.87349     42.3 9.702e+03 3.665e-10
 87.88887     42.9 9.711e+03 3.669e-10
 87.90853     44.5 9.694e+03 3.660e-10
 87.92820     45.7 9.716e+03 3.726e-10
 87.94786     46.9 9.749e+03 3.874e-10
 87.96752     48.1 9.849e+03 4.146e-10
 87.98719     49.1 1.006e+04 4.647e-10
 88.00685     49.6 1.033e+04 5.445e-10
 88.02652     50.1 1.064e+04 6.601e-10
 88.03649     50.6 1.097e+04 8.297e-10
 88.04633     49.9 1.104e+04 8.910e-10
 88.06585     50.9 1.142e+04 1.171e-09
 88.08551     52.2 1.176e+04 1.448e-09
 88.10518     53.3 1.194e+04 1.572e-09
 88.12484     54.3 1.194e+04 1.557e-09
 88.14450     55.2 1.186e+04 1.483e-09
 88.16417     56.0 1.172e+04 1.358e-09
 88.18383     56.7 1.152e+04 1.222e-09
 88.19949     57.2 1.132e+04 1.112e-09
 88.20932     56.5 1.123e+04 1.043e-09
 88.22316     57.0 1.112e+04 1.004e-09
 88.24283     57.7 1.111e+04 1.002e-09
 88.26249     58.5 1.112e+04 1.004e-09
 88.28216     59.4 1.116e+04 1.022e-09
 88.30182     60.2 1.124e+04 1.050e-09
 88.32148     61.1 1.133e+04 1.086e-09
 88.34115     61.8 1.143e+04 1.133e-09
 88.36081     62.3 1.156e+04 1.203e-09
 88.37232     62.9 1.172e+04 1.300e-09
 88.38216     62.3 1.171e+04 1.300e-09
 88.40014     62.9 1.189e+04 1.424e-09
 88.41981     63.5 1.205e+04 1.542e-09
 88.43947     64.1 1.215e+04 1.599e-09
 88.45913     64.6 1.214e+04 1.584e-09
 88.47880     65.3 1.208e+04 1.513e-09
 88.49846     66.0 1.191e+04 1.367e-09
 88.51813     66.6 1.164e+04 1.210e-09
 88.53532     67.0 1.163e+04 1.152e-09
 88.54516     66.4 1.154e+04 1.062e-09
 88.55746     66.6 1.159e+04 1.078e-09
 88.57712     66.5 1.177e+04 1.213e-09
 88.59679     66.7 1.275e+04 1.633e-09
 88.61149     67.0 1.346e+04 1.978e-09
 88.62127     67.1 1.369e+04 2.091e-09
 88.62656     67.1 1.371e+04 2.272e-09
 88.63147     67.0 1.353e+04 2.054e-09
 88.64093     66.9 1.356e+04 2.120e-09
 88.65077     66.5 1.402e+04 2.157e-09
 88.66060     65.8 1.658e+04 2.028e-09
 88.67043     64.8 2.118e+04 2.039e-09
 88.68026     63.7 2.723e+04 2.284e-09
 88.68608     62.7 3.218e+04 2.890e-09
 88.69100     65.1 3.189e+04 1.369e-08
 88.69993     65.0 3.188e+04 2.174e-08
 88.70806     63.7 3.143e+04 4.639e-08
 88.71297     64.0 3.648e+04 8.702e-09
 88.71959     58.7 4.207e+04 1.705e-08
 88.72942     46.0 4.734e+04 3.773e-08
 88.73677     27.8 4.750e+04 4.867e-08
 88.74166     20.7 3.952e+04 5.777e-08
 88.74906      3.6 4.181e+04 5.287e-08
 88.75892    -15.6 4.918e+04 3.716e-08
 88.76875    -22.1 5.597e+04 2.579e-08
 88.77858    -24.5 5.742e+04 1.227e-08
 88.78842    -29.0 4.802e+04 6.655e-09
 88.79447    -32.9 3.701e+04 4.553e-09
 88.79939    -33.7 3.751e+04 4.195e-09
 88.81305    -33.3 2.742e+04 3.595e-09
 88.83276    -33.6 1.633e+04 3.220e-09
 88.85242    -31.7 1.464e+04 2.382e-09
 88.87115    -28.4 1.394e+04 2.114e-09
 88.88099    -28.7 1.423e+04 2.320e-09
 88.89175    -25.5 1.390e+04 2.062e-09
 88.91142    -22.8 1.360e+04 1.849e-09
 88.93108    -20.4 1.322e+04 1.606e-09
 88.95074    -18.2 1.286e+04 1.380e-09
 88.97041    -15.9 1.248e+04 1.196e-09
 88.99007    -13.6 1.221e+04 1.081e-09
 89.00974    -11.2 1.193e+04 9.535e-10
 89.02940     -9.2 1.160e+04 8.151e-10
 89.04398     -6.7 1.116e+04 6.520e-10
 89.05382     -6.8 1.116e+04 6.556e-10
 89.06873     -5.0 1.096e+04 5.707e-10
 89.08840     -2.4 1.069e+04 4.811e-10
 89.10806     -1.2 1.063e+04 4.494e-10
 89.12772      1.5 1.035e+04 3.871e-10
 89.14739      2.5 1.031e+04 3.651e-10
 89.17698      5.9 1.008e+04 3.076e-10
 89.21641      9.6 1.007e+04 2.911e-10
 89.25574     13.3 1.005e+04 2.747e-10
 89.29507     17.0 1.002e+04 2.628e-10
 89.33440     20.5 1.001e+04 2.606e-10
 89.37018     24.0 1.010e+04 2.659e-10
 89.38984     23.9 1.009e+04 2.606e-10
 89.41305     27.2 1.028e+04 2.808e-10
 89.45238     30.3 1.047e+04 3.090e-10
 89.49171     33.1 1.043e+04 3.322e-10
 89.52111     34.8 1.036e+04 3.559e-10
 89.54068     36.3 1.038e+04 3.940e-10
 89.55265     37.9 1.049e+04 4.446e-10
 89.56248     37.7 1.031e+04 3.939e-10
 89.58001     39.1 1.039e+04 4.224e-10
 89.59967     40.5 1.042e+04 4.434e-10
 89.61933     41.8 1.045e+04 4.627e-10
 89.63900     43.1 1.048e+04 4.778e-10
 89.65866     44.3 1.050e+04 4.931e-10
 89.67833     45.6 1.050e+04 5.036e-10
 89.69799     46.8 1.051e+04 5.173e-10
 89.71032     48.2 1.050e+04 5.283e-10
 89.71814     48.5 1.040e+04 4.795e-10
 89.72548     48.4 1.010e+04 3.723e-10
 89.73732     49.2 1.010e+04 3.743e-10
 89.75699     51.1 1.006e+04 3.704e-10
 89.77665     51.9 1.007e+04 3.731e-10
 89.79631     53.9 1.006e+04 3.764e-10
 89.81598     54.7 1.008e+04 3.835e-10
 89.83564     56.4 1.008e+04 3.933e-10
 89.85531     57.5 1.012e+04 4.069e-10
 89.87497     59.1 1.016e+04 4.353e-10
 89.88848     60.3 1.030e+04 4.806e-10
 89.89831     60.1 1.010e+04 3.937e-10
 89.91430     61.5 1.015e+04 4.387e-10
 89.93397     62.8 1.031e+04 5.134e-10
 89.95363     64.1 1.060e+04 6.301e-10
 89.97329     65.4 1.098e+04 7.911e-10
 89.99296     66.5 1.139e+04 9.871e-10
 90.01262     67.6 1.175e+04 1.202e-09
 90.03229     68.7 1.209e+04 1.412e-09
 90.05148     69.7 1.240e+04 1.641e-09
 90.06131     70.0 1.206e+04 1.400e-09
 90.07162     71.0 1.236e+04 1.591e-09
 90.09128     71.8 1.264e+04 1.726e-09
 90.11095     72.6 1.289e+04 1.802e-09
 90.13061     73.1 1.314e+04 1.849e-09
 90.15027     73.2 1.340e+04 1.899e-09
 90.16994     72.9 1.394e+04 2.072e-09
 90.18960     71.9 1.488e+04 2.726e-09
 90.20927     70.9 1.569e+04 3.862e-09
 90.22397     70.3 1.585e+04 4.477e-09
 90.22913     70.3 1.586e+04 4.570e-09
 90.23409     71.1 1.566e+04 4.061e-09
 90.24860     70.9 1.620e+04 5.290e-09
 90.26826     70.6 1.638e+04 5.571e-09
 90.28792     70.2 1.623e+04 5.300e-09
 90.30759     69.1 1.582e+04 4.545e-09
 90.32725     67.5 1.526e+04 3.859e-09
 90.34692     65.7 1.503e+04 3.750e-09
 90.36658     64.5 1.514e+04 3.886e-09
 90.38625     64.0 1.546e+04 4.368e-09
 90.39709     63.5 1.565e+04 4.580e-09
 90.40692     63.6 1.568e+04 4.619e-09
 90.42558     63.4 1.578e+04 4.583e-09
 90.44028     63.1 1.589e+04 4.426e-09
 90.45006     63.0 1.600e+04 4.464e-09
 90.45989     62.9 1.613e+04 4.563e-09
 90.46972     62.8 1.618e+04 4.606e-09
 90.47854     62.6 1.636e+04 4.785e-09
 90.48346     62.8 1.599e+04 4.160e-09
 90.48939     62.8 1.607e+04 4.211e-09
 90.50418     63.0 1.645e+04 4.888e-09
 90.52390     63.0 1.629e+04 4.438e-09
 90.54356     62.7 1.597e+04 3.860e-09
 90.56014     62.2 1.559e+04 3.631e-09
 90.56997     62.3 1.449e+04 2.682e-09
 90.58289     62.4 1.436e+04 2.684e-09
 90.60256     62.8 1.422e+04 2.651e-09
 90.62222     63.3 1.403e+04 2.550e-09
 90.64188     64.0 1.378e+04 2.374e-09
 90.66155     64.7 1.351e+04 2.143e-09
 90.68121     65.5 1.322e+04 1.887e-09
 90.70088     66.2 1.291e+04 1.627e-09
 90.72054     67.0 1.260e+04 1.377e-09
 90.73297     67.7 1.226e+04 1.139e-09
 90.74280     68.0 1.161e+04 8.391e-10
 90.75987     68.6 1.133e+04 6.840e-10
 90.77953     69.0 1.102e+04 5.519e-10
 90.79920     69.2 1.064e+04 4.445e-10
 90.81886     69.1 1.019e+04 3.611e-10
 90.83853     69.0 1.011e+04 3.136e-10
 90.85819     68.9 1.012e+04 3.123e-10
 90.87786     68.8 1.014e+04 3.179e-10
 90.89597     68.2 1.030e+04 3.431e-10
 90.90580     69.3 1.024e+04 3.253e-10
 90.91719     68.0 1.076e+04 4.347e-10
 90.93685     66.0 1.201e+04 7.470e-10
 90.95651     64.2 1.316e+04 1.368e-09
 90.97618     63.4 1.408e+04 2.381e-09
 90.99584     63.4 1.461e+04 3.484e-09
 91.01551     63.4 1.507e+04 3.842e-09
 91.03517     62.6 1.555e+04 3.831e-09
 91.05484     59.1 1.723e+04 4.095e-09
 91.06880     52.6 1.968e+04 6.010e-09
 91.07863     56.2 1.925e+04 5.943e-09
 91.09417     50.3 2.064e+04 8.590e-09
 91.10886     45.6 2.166e+04 1.506e-08
 91.11865     44.2 2.167e+04 1.918e-08
 91.12848     43.2 2.146e+04 2.114e-08
 91.13831     42.6 2.133e+04 2.191e-08
 91.15311     41.8 2.081e+04 1.578e-08
 91.17282     40.5 2.005e+04 1.226e-08
 91.19249     39.2 1.908e+04 9.033e-09
 91.21215     38.3 1.819e+04 7.382e-09
 91.23180     38.2 1.823e+04 7.224e-09
 91.25146     39.0 1.984e+04 1.027e-08
 91.27115     40.3 2.075e+04 1.215e-08
 91.28584     41.5 2.122e+04 1.132e-08
 91.29563     41.3 2.216e+04 1.233e-08
 91.30546     39.9 2.482e+04 1.775e-08
 91.31529     37.1 2.631e+04 3.304e-08
 91.32303     35.5 2.422e+04 8.996e-08
 91.32795     38.4 2.396e+04 8.698e-08
 91.33496     38.3 2.208e+04 2.372e-07
 91.34479     37.8 2.086e+04 6.228e-07
 91.35462     35.8 2.068e+04 8.713e-07
 91.36445     33.2 2.073e+04 7.626e-07
 91.37429     30.5 2.181e+04 3.958e-07
 91.38412     26.5 2.449e+04 1.254e-07
 91.39395     21.0 2.891e+04 3.156e-08
 91.40378     15.4 2.827e+04 1.013e-08
 91.40945     13.7 2.685e+04 8.344e-09
 91.41436     12.9 2.730e+04 4.975e-09
 91.42841      7.5 2.230e+04 2.636e-09
 91.44812      4.9 1.823e+04 1.640e-09
 91.46779      2.4 1.343e+04 1.224e-09
 91.48745      0.3 1.125e+04 9.570e-10
 91.50712     -0.5 1.070e+04 8.554e-10
 91.52678     -1.3 1.084e+04 7.453e-10
 91.54645     -1.8 1.070e+04 7.038e-10
 91.56611     -2.2 1.046e+04 6.144e-10
 91.57746     -2.3 1.039e+04 5.945e-10
 91.58729     -3.3 1.047e+04 6.285e-10
 91.61537     -2.4 1.015e+04 5.138e-10
 91.65480     -2.1 9.833e+03 4.398e-10
 91.69413     -1.2 9.855e+03 4.253e-10
 91.73082      0.2 1.000e+04 4.611e-10
 91.75049     -1.3 9.946e+03 4.589e-10
 91.75872     -0.2 1.008e+04 5.445e-10
 91.76845     -0.9 1.030e+04 6.809e-10
 91.78242     -0.0 1.045e+04 7.344e-10
 91.80208      0.9 1.049e+04 7.683e-10
 91.82175      2.0 1.057e+04 8.164e-10
 91.84141      3.2 1.068e+04 8.697e-10
 91.86108      4.4 1.079e+04 9.345e-10
 91.88074      5.5 1.085e+04 9.921e-10
 91.90041      6.6 1.084e+04 9.927e-10
 91.91329      7.9 1.086e+04 9.909e-10
 91.92312      7.6 1.084e+04 9.768e-10
 91.93973      8.7 1.089e+04 9.644e-10
 91.95940      9.6 1.092e+04 9.332e-10
 91.97906     10.4 1.095e+04 9.148e-10
 91.99873     11.0 1.100e+04 9.248e-10
 92.01839     11.4 1.111e+04 9.668e-10
 92.03806     11.9 1.122e+04 1.047e-09
 92.05772     12.5 1.141e+04 1.193e-09
 92.07629     13.1 1.168e+04 1.410e-09
 92.08612     13.3 1.139e+04 1.218e-09
 92.09705     14.0 1.163e+04 1.431e-09
 92.11671     14.9 1.186e+04 1.681e-09
 92.13638     16.1 1.210e+04 1.952e-09
 92.15604     17.3 1.232e+04 2.196e-09
 92.17571     18.4 1.265e+04 2.276e-09
 92.19537     19.4 1.277e+04 2.336e-09
 92.21504     20.2 1.294e+04 2.373e-09
 92.23470     20.8 1.301e+04 2.314e-09
 92.24912     21.4 1.299e+04 2.171e-09
 92.25895     21.9 1.327e+04 2.682e-09
 92.27403     22.5 1.333e+04 2.621e-09
 92.29369     23.0 1.330e+04 2.469e-09
 92.31336     23.5 1.317e+04 2.233e-09
 92.33302     24.0 1.298e+04 1.997e-09
 92.36262     24.6 1.222e+04 1.346e-09
 92.40204     26.0 1.203e+04 1.235e-09
 92.42215     27.6 1.198e+04 1.176e-09
 92.43188     28.0 1.260e+04 1.614e-09
 92.45101     28.8 1.259e+04 1.583e-09
 92.47067     29.5 1.260e+04 1.571e-09
 92.49034     29.9 1.271e+04 1.604e-09
 92.51000     29.9 1.295e+04 1.686e-09
 92.52967     28.8 1.376e+04 2.021e-09
 92.54933     27.0 1.506e+04 2.933e-09
 92.56900     25.1 1.612e+04 4.414e-09
 92.58495     23.2 1.682e+04 5.978e-09
 92.59478     23.0 1.918e+04 1.117e-08
 92.60832     20.0 1.969e+04 1.221e-08
 92.62799     15.7 2.013e+04 1.323e-08
 92.64765     10.9 2.046e+04 1.515e-08
 92.66732      6.7 2.048e+04 1.849e-08
 92.68698      4.6 2.045e+04 2.096e-08
 92.70168      3.1 2.070e+04 2.401e-08
 92.71147      2.8 2.064e+04 2.443e-08
 92.72130      2.5 2.050e+04 2.418e-08
 92.73113      2.2 2.036e+04 2.347e-08
 92.74096      1.9 1.997e+04 2.054e-08
 92.75079      1.3 1.962e+04 1.811e-08
 92.75773      1.1 1.923e+04 1.567e-08
 92.76761     -0.6 1.799e+04 1.021e-08
 92.78530     -1.9 1.710e+04 7.409e-09
 92.80497     -3.6 1.628e+04 5.692e-09
 92.82463     -4.9 1.569e+04 4.860e-09
 92.84430     -5.4 1.539e+04 4.506e-09
 92.86396     -5.5 1.519e+04 4.222e-09
 92.88363     -5.4 1.503e+04 3.889e-09
 92.90329     -5.3 1.488e+04 3.500e-09
 92.92078     -5.5 1.471e+04 3.122e-09
 92.93061     -7.4 1.460e+04 3.187e-09
 92.94262     -7.3 1.426e+04 2.917e-09
 92.96228     -6.9 1.406e+04 2.700e-09
 92.98195     -6.3 1.374e+04 2.511e-09
 93.00161     -5.5 1.353e+04 2.247e-09
 93.02128     -4.6 1.325e+04 1.920e-09
 93.04094     -3.9 1.293e+04 1.600e-09
 93.06061     -2.9 1.260e+04 1.327e-09
 93.08027     -2.3 1.237e+04 1.140e-09
 93.09361     -1.4 1.217e+04 9.808e-10
 93.10344     -2.6 1.185e+04 8.313e-10
 93.11960     -2.0 1.186e+04 7.875e-10
 93.14919     -0.9 1.193e+04 7.306e-10
 93.17869      0.6 1.203e+04 8.093e-10
 93.19826      1.0 1.204e+04 8.710e-10
 93.21792      1.4 1.217e+04 9.722e-10
 93.23759      1.6 1.239e+04 1.103e-09
 93.25661      1.4 1.274e+04 1.306e-09
 93.26644     -0.3 1.326e+04 1.590e-09
 93.27691     -1.1 1.409e+04 2.113e-09
 93.29658     -2.2 1.479e+04 2.765e-09
 93.31624     -3.6 1.512e+04 3.408e-09
 93.33591     -5.1 1.504e+04 3.744e-09
 93.35557     -6.1 1.504e+04 4.028e-09
 93.37524     -6.2 1.481e+04 3.708e-09
 93.39490     -6.2 1.412e+04 2.799e-09
 93.41457     -7.0 1.310e+04 1.768e-09
 93.42944     -8.6 1.209e+04 1.078e-09
 93.43927     -9.6 1.153e+04 8.083e-10
 93.45389    -10.8 1.078e+04 5.359e-10
 93.47356    -11.7 1.025e+04 4.032e-10
 93.49322    -11.8 9.868e+03 3.332e-10
 93.51289    -11.9 9.736e+03 2.898e-10
 93.53255    -12.2 9.789e+03 2.906e-10
 93.55222    -12.8 1.007e+04 3.146e-10
 93.57188    -14.2 1.068e+04 4.058e-10
 93.59155    -15.9 1.116e+04 6.065e-10
 93.60227    -17.5 1.178e+04 1.029e-09
 93.61211    -17.4 1.170e+04 1.016e-09
 93.63087    -19.4 1.315e+04 1.971e-09
 93.65054    -22.2 1.500e+04 3.793e-09
 93.67020    -23.5 1.558e+04 5.251e-09
 93.68987    -25.3 1.594e+04 5.999e-09
 93.70953    -26.4 1.561e+04 5.152e-09
 93.72920    -28.2 1.493e+04 3.547e-09
 93.74886    -30.8 1.392e+04 2.219e-09
 93.76527    -32.9 1.244e+04 1.521e-09
 93.77510    -32.8 1.189e+04 1.175e-09
 93.78819    -33.1 1.143e+04 1.011e-09
 93.80691    -32.6 1.132e+04 8.755e-10
 93.81674    -33.1 1.119e+04 7.365e-10
 93.82752    -32.8 1.131e+04 6.057e-10
 93.84718    -32.9 1.116e+04 5.334e-10
 93.86685    -33.0 1.107e+04 4.725e-10
 93.88651    -32.4 1.085e+04 4.665e-10
 93.90618    -32.3 1.080e+04 4.555e-10
 93.93577    -30.3 1.078e+04 4.670e-10
 93.97520    -28.5 1.075e+04 4.344e-10
 94.01453    -26.9 1.072e+04 4.122e-10
 94.05385    -25.3 1.057e+04 4.017e-10
 94.09147    -24.0 1.045e+04 3.782e-10
 94.11113    -23.3 1.045e+04 3.732e-10
 94.13251    -22.3 1.042e+04 4.037e-10
 94.17184    -21.0 1.038e+04 4.362e-10
 94.21117    -19.6 1.034e+04 4.058e-10
 94.25050    -18.6 1.025e+04 3.287e-10
 94.28983    -18.1 1.009e+04 2.861e-10
 94.32916    -17.4 1.011e+04 3.049e-10
 94.35855    -17.1 1.010e+04 3.296e-10
 94.37812    -17.4 1.019e+04 3.514e-10
 94.39779    -18.1 1.051e+04 4.587e-10
 94.41745    -18.6 1.087e+04 6.281e-10
 94.43693    -18.8 1.104e+04 8.322e-10
 94.44677    -18.1 1.092e+04 7.290e-10
 94.45678    -17.7 1.095e+04 8.915e-10
 94.47644    -17.5 1.089e+04 9.113e-10
 94.49611    -17.3 1.071e+04 8.234e-10
 94.52570    -17.1 1.099e+04 6.885e-10
 94.56513    -17.5 1.038e+04 3.872e-10
 94.60446    -17.4 9.439e+03 2.125e-10
 94.64379    -17.1 8.705e+03 1.442e-10
 94.68312    -16.2 8.524e+03 1.275e-10
 94.72244    -14.8 8.577e+03 1.289e-10
 94.76177    -13.5 8.726e+03 1.429e-10
 94.78279    -12.3 8.943e+03 1.804e-10
 94.80246    -11.9 9.019e+03 1.878e-10
 94.84043    -10.7 9.492e+03 2.877e-10
 94.87976    -10.0 1.001e+04 4.173e-10
 94.90916     -9.6 1.022e+04 4.912e-10
 94.92873     -9.3 1.048e+04 5.837e-10
 94.94559     -9.3 1.071e+04 7.000e-10
 94.95543     -9.4 1.087e+04 7.869e-10
 94.96805     -9.7 1.104e+04 9.228e-10
 94.98772    -10.1 1.142e+04 1.094e-09
 95.00738    -10.8 1.201e+04 1.338e-09
 95.02705    -11.9 1.260e+04 1.562e-09
 95.04671    -13.0 1.297e+04 1.722e-09
 95.06638    -14.4 1.323e+04 1.873e-09
 95.08604    -16.0 1.320e+04 1.923e-09
 95.10570    -16.9 1.275e+04 1.765e-09
 95.11843    -17.5 1.192e+04 1.419e-09
 95.12826    -17.9 1.147e+04 1.117e-09
 95.14503    -18.9 1.080e+04 8.478e-10
 95.16470    -20.7 1.047e+04 6.528e-10
 95.18436    -23.0 1.048e+04 5.740e-10
 95.20403    -25.2 1.043e+04 5.566e-10
 95.22369    -26.5 1.012e+04 5.916e-10
 95.24336    -27.1 1.016e+04 6.345e-10
 95.26302    -28.1 1.067e+04 6.811e-10
 95.28143    -30.3 1.137e+04 8.421e-10
 95.29126    -29.3 1.096e+04 7.060e-10
 95.30235    -32.2 1.177e+04 9.961e-10
 95.32201    -34.3 1.228e+04 1.422e-09
 95.34168    -35.2 1.251e+04 1.864e-09
 95.36134    -35.3 1.256e+04 2.112e-09
 95.38101    -35.5 1.238e+04 1.968e-09
 95.40067    -35.6 1.214e+04 1.539e-09
 95.42034    -36.6 1.173e+04 1.128e-09
 95.44000    -37.4 1.127e+04 8.743e-10
 95.45435    -38.2 1.078e+04 6.895e-10
 95.47412    -37.6 1.064e+04 5.964e-10
 95.50902    -38.1 1.024e+04 4.640e-10
 95.54835    -38.2 1.015e+04 4.395e-10
 95.58768    -37.4 1.015e+04 4.772e-10
 95.62701    -36.2 1.012e+04 4.791e-10
 95.66634    -34.7 9.948e+03 3.613e-10
 95.70566    -33.9 9.711e+03 2.411e-10
 95.74499    -33.3 9.496e+03 1.949e-10
 95.78045    -31.9 9.474e+03 1.877e-10
 95.80011    -32.1 9.426e+03 1.739e-10
 95.82365    -30.8 9.550e+03 1.994e-10
 95.85540    -29.3 9.690e+03 2.455e-10
 95.87507    -29.4 9.524e+03 1.963e-10
 95.90231    -27.6 9.581e+03 2.381e-10
 95.94164    -26.0 9.663e+03 2.407e-10
 95.98097    -24.2 9.710e+03 2.145e-10
 96.02030    -23.0 9.786e+03 1.800e-10
 96.05962    -22.0 9.736e+03 1.686e-10
 96.09895    -20.7 9.776e+03 1.784e-10
 96.12611    -19.0 9.836e+03 1.940e-10
 96.14578    -19.6 9.848e+03 1.937e-10
 96.17761    -18.0 1.006e+04 2.143e-10
 96.21694    -16.6 1.036e+04 2.541e-10
 96.25627    -15.5 1.060e+04 3.200e-10
 96.29560    -14.6 1.084e+04 4.021e-10
 96.33493    -13.9 1.102e+04 4.882e-10
 96.37425    -13.1 1.114e+04 5.638e-10
 96.40365    -12.4 1.121e+04 6.214e-10
 96.42322    -12.4 1.129e+04 6.621e-10
 96.44288    -12.4 1.128e+04 6.732e-10
 96.46175    -12.4 1.130e+04 6.837e-10
 96.47168    -13.2 1.112e+04 6.324e-10
 96.49224    -13.0 1.111e+04 6.669e-10
 96.53157    -12.2 1.107e+04 7.013e-10
 96.57090    -10.8 1.081e+04 6.458e-10
 96.61023     -9.6 1.037e+04 4.656e-10
 96.64956     -8.8 1.007e+04 3.259e-10
 96.68888     -8.4 9.858e+03 2.723e-10
 96.72821     -8.1 9.895e+03 2.872e-10
 96.76754     -7.9 1.001e+04 3.270e-10
 96.79777     -7.8 1.023e+04 3.885e-10
 96.81744     -9.0 1.027e+04 4.218e-10
 96.84620     -8.4 1.010e+04 4.191e-10
 96.88553     -7.5 9.884e+03 3.709e-10
 96.92486     -6.7 9.448e+03 2.607e-10
 96.96419     -6.2 9.020e+03 1.744e-10
 97.00352     -5.8 8.671e+03 1.299e-10
 97.04284     -4.8 8.589e+03 1.261e-10
 97.08217     -3.7 8.709e+03 1.424e-10
 97.12150     -2.8 9.246e+03 2.100e-10
 97.14334     -3.1 9.752e+03 3.073e-10
 97.15307     -3.6 9.787e+03 3.190e-10
 97.17047     -4.0 1.017e+04 4.829e-10
 97.19013     -5.6 1.170e+04 8.902e-10
 97.20980     -9.3 1.495e+04 2.392e-09
 97.22946    -12.6 1.725e+04 5.227e-09
 97.24416    -15.3 1.869e+04 8.460e-09
 97.25394    -15.5 1.903e+04 1.112e-08
 97.26378    -16.7 1.983e+04 1.717e-08
 97.27361    -17.7 2.074e+04 2.442e-08
 97.28344    -19.8 2.212e+04 3.323e-08
 97.29327    -22.6 2.330e+04 4.136e-08
 97.30310    -25.6 2.357e+04 4.613e-08
 97.31106    -28.5 2.320e+04 4.528e-08
 97.31597    -29.0 2.262e+04 4.490e-08
 97.32277    -31.3 2.148e+04 3.981e-08
 97.33260    -33.0 2.061e+04 3.450e-08
 97.34243    -34.1 2.004e+04 2.841e-08
 97.35227    -34.8 1.956e+04 2.200e-08
 97.36706    -36.3 1.858e+04 1.209e-08
 97.38678    -38.2 1.721e+04 6.036e-09
 97.40644    -41.9 1.465e+04 2.832e-09
 97.42610    -44.3 1.264e+04 1.635e-09
 97.44577    -44.9 1.190e+04 1.257e-09
 97.46543    -45.2 1.146e+04 1.088e-09
 97.47907    -45.5 1.106e+04 9.372e-10
 97.48890    -45.6 1.072e+04 8.179e-10
 97.51469    -44.1 1.039e+04 6.951e-10
 97.55412    -42.3 1.023e+04 6.506e-10
 97.59345    -40.6 9.998e+03 5.520e-10
 97.63278    -39.1 9.627e+03 4.174e-10
 97.66218    -38.5 9.596e+03 3.965e-10
 97.68174    -38.4 9.539e+03 3.885e-10
 97.70141    -37.7 9.545e+03 3.907e-10
 97.72107    -37.5 9.614e+03 4.129e-10
 97.74074    -36.9 9.663e+03 4.651e-10
 97.76040    -36.6 9.875e+03 5.100e-10
 97.78006    -36.3 1.004e+04 5.977e-10
 97.79973    -36.0 1.038e+04 6.925e-10
 97.81490    -35.8 1.071e+04 8.428e-10
 97.82473    -35.7 1.078e+04 8.779e-10
 97.83906    -35.6 1.101e+04 9.982e-10
 97.85872    -35.1 1.124e+04 1.157e-09
 97.87839    -34.5 1.139e+04 1.263e-09
 97.89805    -33.9 1.167e+04 1.357e-09
 97.91333    -33.5 1.178e+04 1.397e-09
 97.92317    -32.5 1.144e+04 1.186e-09
 97.93738    -32.2 1.148e+04 1.234e-09
 97.95704    -31.8 1.146e+04 1.229e-09
 97.97671    -31.4 1.151e+04 1.172e-09
 97.98773    -30.7 1.125e+04 1.082e-09
 97.99756    -30.8 1.117e+04 1.039e-09
 98.01604    -29.6 1.094e+04 8.328e-10
 98.03570    -29.4 1.085e+04 8.005e-10
 98.05537    -28.4 1.076e+04 6.993e-10
 98.07503    -27.8 1.077e+04 6.428e-10
 98.09469    -27.5 1.064e+04 5.171e-10
 98.11436    -27.5 1.042e+04 4.645e-10
 98.14100    -26.6 1.008e+04 3.687e-10
 98.16076    -26.4 9.881e+03 3.380e-10
 98.18338    -24.8 9.677e+03 2.804e-10
 98.22271    -23.4 9.460e+03 2.193e-10
 98.26204    -22.3 9.227e+03 1.857e-10
 98.30137    -21.5 9.137e+03 1.880e-10
 98.34070    -20.7 9.273e+03 2.209e-10
 98.38002    -20.5 9.621e+03 2.856e-10
 98.41935    -20.9 1.004e+04 3.677e-10
 98.45868    -21.9 1.041e+04 4.371e-10
 98.48676    -23.1 1.030e+04 4.095e-10
 98.50642    -23.1 1.030e+04 4.221e-10
 98.53734    -24.1 1.004e+04 3.493e-10
 98.57667    -25.4 9.864e+03 2.779e-10
 98.61600    -26.7 9.758e+03 2.590e-10
 98.65533    -28.4 1.012e+04 3.108e-10
 98.68472    -30.3 1.058e+04 4.270e-10
 98.70429    -32.0 1.097e+04 5.551e-10
 98.72396    -32.7 1.088e+04 7.403e-10
 98.74362    -32.5 1.100e+04 8.234e-10
 98.76328    -32.4 1.076e+04 7.821e-10
 98.78295    -32.9 1.069e+04 6.361e-10
 98.80261    -36.4 1.244e+04 5.993e-10
 98.82228    -42.3 1.357e+04 7.232e-10
 98.83222    -46.7 1.225e+04 1.192e-09
 98.84206    -46.4 1.229e+04 1.046e-09
 98.86161    -47.8 1.222e+04 1.795e-09
 98.88127    -48.1 1.411e+04 2.816e-09
 98.90094    -49.3 1.600e+04 3.510e-09
 98.92060    -53.5 1.580e+04 3.182e-09
 98.94026    -56.2 1.343e+04 2.365e-09
 98.95993    -56.6 1.287e+04 2.017e-09
 98.97959    -57.1 1.292e+04 1.641e-09
 98.99522    -58.9 1.296e+04 1.340e-09
 99.00505    -57.1 1.246e+04 1.147e-09
 99.01892    -58.4 1.226e+04 1.023e-09
 99.03859    -59.5 1.233e+04 1.025e-09
 99.05825    -62.4 1.467e+04 1.485e-09
 99.07792    -65.5 1.946e+04 2.982e-09
 99.09261    -63.8 2.005e+04 3.532e-09
 99.10240    -70.1 2.857e+04 5.821e-09
 99.11223    -78.2 3.223e+04 2.229e-08
 99.12206    -84.2 2.914e+04 8.505e-08
 99.13189    -88.6 2.633e+04 1.924e-07
 99.14173    -93.5 2.555e+04 2.398e-07
 99.15156    -99.8 2.761e+04 1.414e-07
 99.16139   -108.4 3.397e+04 3.078e-08
 99.16796   -118.9 3.808e+04 5.795e-09
 99.17287   -113.2 3.667e+04 2.965e-08
 99.18106   -122.2 3.886e+04 8.763e-09
 99.19089   -130.7 2.723e+04 4.768e-09
 99.20072   -134.7 2.003e+04 4.176e-09
 99.21552   -137.7 1.918e+04 3.562e-09
 99.23523   -141.5 1.494e+04 2.379e-09
 99.25489   -141.8 1.386e+04 1.973e-09
 99.27456   -140.9 1.350e+04 1.817e-09
 99.29422   -140.0 1.348e+04 1.717e-09
 99.31389   -139.3 1.343e+04 1.605e-09
 99.33105   -138.8 1.318e+04 1.482e-09
 99.34088   -138.7 1.492e+04 2.564e-09
 99.35322   -138.2 1.434e+04 2.117e-09
 99.37288   -137.8 1.372e+04 1.760e-09
 99.39255   -137.6 1.315e+04 1.524e-09
 99.41221   -137.3 1.273e+04 1.404e-09
 99.43187   -136.9 1.254e+04 1.373e-09
 99.45154   -136.6 1.244e+04 1.339e-09
 99.47120   -136.5 1.232e+04 1.285e-09
 99.49087   -136.3 1.223e+04 1.239e-09
 99.50388   -136.3 1.220e+04 1.200e-09
 99.51372   -135.9 1.219e+04 1.196e-09
 99.53020   -135.8 1.218e+04 1.148e-09
 99.54986   -136.1 1.218e+04 1.078e-09
 99.56953   -136.6 1.210e+04 9.841e-10
 99.58919   -137.4 1.197e+04 8.878e-10
 99.60885   -138.2 1.187e+04 8.117e-10
 99.62852   -139.1 1.180e+04 7.550e-10
 99.64818   -140.1 1.173e+04 7.107e-10
 99.66688   -141.3 1.163e+04 6.780e-10
 99.67672   -140.8 1.178e+04 7.266e-10
 99.68751   -142.2 1.169e+04 7.067e-10
 99.70718   -143.6 1.167e+04 7.034e-10
 99.72684   -145.2 1.176e+04 7.177e-10
 99.74651   -147.3 1.209e+04 8.118e-10
 99.76617   -149.5 1.267e+04 1.024e-09
 99.78583   -151.5 1.333e+04 1.354e-09
 99.80550   -153.0 1.385e+04 1.714e-09
 99.82516   -154.3 1.410e+04 1.912e-09
 99.83971   -155.8 1.413e+04 1.926e-09
 99.84955   -156.3 1.434e+04 2.197e-09
 99.86449   -157.4 1.381e+04 1.679e-09
 99.88416   -158.6 1.311e+04 1.105e-09
 99.91375   -159.8 1.232e+04 6.901e-10
 99.95199   -160.0 1.130e+04 3.912e-10
 99.97166   -158.2 1.184e+04 6.154e-10
 99.99251   -158.2 1.123e+04 4.287e-10
