# Columns:
#   distance along LOS (in CHIMPs)
#   peculiar velocity  (in km/s)
#   temperature (K)
#   HI number density
# pos=(74.6019,146.692,126.919), angles=(1.81187,3.08452)
  0.00841     17.2 9.822e+03 3.830e-10
  0.03696     19.7 9.836e+03 3.921e-10
  0.07725     22.3 9.891e+03 4.252e-10
  0.10409     25.1 1.034e+04 5.223e-10
  0.11406     23.9 1.125e+04 8.017e-10
  0.12742     24.5 1.145e+04 8.648e-10
  0.14757     24.6 1.206e+04 1.031e-09
  0.16100     23.8 1.321e+04 1.515e-09
  0.17107     23.5 1.306e+04 1.489e-09
  0.18509     23.1 1.408e+04 2.478e-09
  0.19516     21.5 1.484e+04 4.242e-09
  0.20800     22.5 1.533e+04 5.603e-09
  0.22815     23.6 1.558e+04 6.489e-09
  0.24830     24.8 1.575e+04 6.864e-09
  0.26629     25.8 1.589e+04 7.134e-09
  0.27636     25.6 1.536e+04 5.747e-09
  0.28859     26.4 1.527e+04 4.689e-09
  0.30873     26.6 1.500e+04 3.457e-09
  0.32888     25.9 1.465e+04 2.503e-09
  0.34748     25.0 1.426e+04 1.949e-09
  0.35756     20.2 1.222e+04 1.011e-09
  0.36917     19.1 1.217e+04 1.123e-09
  0.38931     17.7 1.254e+04 1.438e-09
  0.40946     15.9 1.353e+04 2.132e-09
  0.42868     13.8 1.487e+04 3.642e-09
  0.43875     11.7 1.513e+04 4.290e-09
  0.44975     10.3 1.650e+04 7.228e-09
  0.46990      8.9 1.763e+04 1.043e-08
  0.49004      6.4 1.885e+04 1.292e-08
  0.50854      2.4 1.929e+04 1.325e-08
  0.51830      2.5 1.914e+04 1.428e-08
  0.51995      0.9 1.824e+04 1.223e-08
  0.53033     -2.1 1.783e+04 1.096e-08
  0.55048     -4.3 1.663e+04 8.196e-09
  0.57063     -5.4 1.516e+04 5.419e-09
  0.59077     -6.0 1.391e+04 3.262e-09
  0.60114     -7.3 1.286e+04 1.825e-09
  0.61122     -8.0 1.232e+04 1.454e-09
  0.63106     -9.3 1.126e+04 8.307e-10
  0.65121    -10.8 1.037e+04 5.129e-10
  0.67135    -11.4 9.697e+03 3.332e-10
  0.68234    -12.0 9.579e+03 2.745e-10
  0.69241    -11.7 9.584e+03 2.770e-10
  0.72182    -11.6 9.394e+03 2.652e-10
  0.75366    -10.6 8.991e+03 2.194e-10
  0.77380    -10.2 8.931e+03 2.090e-10
  0.80250     -9.4 8.919e+03 2.142e-10
  0.84279     -8.5 8.962e+03 2.374e-10
  0.86635     -7.3 9.033e+03 2.663e-10
  0.88649     -6.3 9.028e+03 2.615e-10
  0.91605     -4.9 9.060e+03 2.669e-10
  0.93620     -4.8 9.040e+03 2.596e-10
  0.96366     -3.4 9.045e+03 2.564e-10
  1.00395     -2.0 9.043e+03 2.459e-10
  1.04424     -0.7 9.027e+03 2.311e-10
  1.07844      0.3 9.024e+03 2.156e-10
  1.09859     -0.3 9.430e+03 2.754e-10
  1.12483      0.2 9.678e+03 2.954e-10
  1.16512      0.6 9.893e+03 3.420e-10
  1.20541      0.9 1.011e+04 4.394e-10
  1.24083      1.2 1.038e+04 5.880e-10
  1.26098      0.2 1.052e+04 6.728e-10
  1.28599      0.7 1.076e+04 7.974e-10
  1.31611      1.4 1.086e+04 8.462e-10
  1.33191      1.4 1.100e+04 9.006e-10
  1.34198      1.0 1.090e+04 8.584e-10
  1.35631      0.9 1.088e+04 8.519e-10
  1.37645      0.8 1.084e+04 8.189e-10
  1.39660      0.5 1.079e+04 7.681e-10
  1.41310     -0.0 1.077e+04 7.397e-10
  1.42318     -0.2 1.064e+04 6.884e-10
  1.43689     -0.8 1.067e+04 6.940e-10
  1.45703     -1.5 1.080e+04 7.357e-10
  1.47718     -2.6 1.110e+04 8.557e-10
  1.49430     -3.7 1.145e+04 1.062e-09
  1.50437     -3.6 1.139e+04 1.018e-09
  1.51747     -4.4 1.175e+04 1.306e-09
  1.53762     -4.8 1.204e+04 1.544e-09
  1.55776     -5.2 1.206e+04 1.553e-09
  1.57131     -5.3 1.191e+04 1.437e-09
  1.57897     -5.0 1.189e+04 1.438e-09
  1.58557     -4.8 1.193e+04 1.443e-09
  1.59805     -5.0 1.164e+04 1.186e-09
  1.61820     -5.5 1.130e+04 9.100e-10
  1.63834     -6.0 1.087e+04 6.783e-10
  1.65669     -6.5 1.054e+04 5.315e-10
  1.66676     -6.2 1.065e+04 5.980e-10
  1.67864     -6.1 1.040e+04 4.779e-10
  1.69878     -6.1 1.034e+04 4.340e-10
  1.71893     -5.7 1.024e+04 3.792e-10
  1.73789     -5.5 1.031e+04 3.715e-10
  1.74796     -5.2 1.047e+04 4.426e-10
  1.75922     -4.8 1.048e+04 4.365e-10
  1.77936     -4.5 1.053e+04 4.506e-10
  1.79951     -4.2 1.059e+04 4.854e-10
  1.81908     -4.0 1.072e+04 5.474e-10
  1.82916     -3.7 1.090e+04 6.502e-10
  1.83980     -3.4 1.115e+04 7.821e-10
  1.85995     -3.2 1.143e+04 9.571e-10
  1.88009     -3.1 1.180e+04 1.184e-09
  1.90024     -2.9 1.219e+04 1.455e-09
  1.91885     -2.5 1.276e+04 1.988e-09
  1.92892     -1.0 1.188e+04 1.142e-09
  1.94053     -0.7 1.211e+04 1.335e-09
  1.96068     -0.2 1.221e+04 1.480e-09
  1.98082      0.1 1.239e+04 1.632e-09
  1.99155     -1.5 1.423e+04 2.266e-09
  2.00162     -1.7 1.460e+04 2.582e-09
  2.02111     -5.3 1.786e+04 5.275e-09
  2.04126     -7.9 1.844e+04 1.030e-08
  2.06140     -8.2 1.824e+04 1.482e-08
  2.07274     -7.7 1.838e+04 1.870e-08
  2.08282     -8.1 1.808e+04 1.645e-08
  2.10169     -7.4 1.809e+04 1.776e-08
  2.12184     -6.8 1.785e+04 1.435e-08
  2.14199     -7.3 1.729e+04 8.136e-09
  2.15394    -10.6 1.659e+04 3.794e-09
  2.16401    -12.1 1.576e+04 3.387e-09
  2.18228    -17.6 1.447e+04 1.915e-09
  2.20242    -22.1 1.283e+04 1.634e-09
  2.22257    -23.3 1.220e+04 1.813e-09
  2.23514    -22.8 1.206e+04 2.003e-09
  2.24521    -22.9 1.194e+04 1.874e-09
  2.26286    -22.8 1.200e+04 1.725e-09
  2.27646    -23.9 1.211e+04 1.386e-09
  2.28653    -22.9 1.209e+04 1.425e-09
  2.30315    -25.2 1.170e+04 1.024e-09
  2.31633    -30.1 1.103e+04 7.811e-10
  2.32641    -31.8 1.061e+04 6.723e-10
  2.34344    -38.9 1.202e+04 9.028e-10
  2.36359    -46.5 1.356e+04 1.860e-09
  2.38373    -51.1 1.437e+04 3.449e-09
  2.39753    -53.0 1.525e+04 5.075e-09
  2.40760    -52.9 1.474e+04 4.439e-09
  2.42402    -54.5 1.522e+04 4.937e-09
  2.44417    -57.1 1.446e+04 3.803e-09
  2.46432    -59.9 1.259e+04 2.176e-09
  2.47873    -61.3 1.123e+04 1.349e-09
  2.48880    -61.2 1.086e+04 1.138e-09
  2.50461    -61.7 1.016e+04 7.635e-10
  2.52475    -62.0 9.621e+03 4.783e-10
  2.54490    -62.7 9.246e+03 3.256e-10
  2.56002    -63.5 8.743e+03 2.085e-10
  2.58026    -62.8 8.714e+03 2.131e-10
  2.61560    -62.6 8.036e+03 1.132e-10
  2.65590    -61.8 7.787e+03 8.091e-11
  2.69619    -60.6 7.749e+03 7.581e-11
  2.72251    -59.5 7.807e+03 7.679e-11
  2.74265    -59.7 7.935e+03 9.231e-11
  2.77677    -58.8 8.154e+03 1.153e-10
  2.81706    -57.8 8.367e+03 1.460e-10
  2.85735    -56.8 8.594e+03 1.819e-10
  2.88490    -56.0 8.860e+03 2.249e-10
  2.90505    -56.3 8.815e+03 2.229e-10
  2.93793    -55.4 9.099e+03 2.696e-10
  2.97173    -54.6 9.466e+03 3.258e-10
  2.99188    -54.5 9.066e+03 2.407e-10
  3.01852    -53.6 9.538e+03 2.935e-10
  3.04719    -52.8 9.758e+03 3.360e-10
  3.06734    -52.9 9.683e+03 3.146e-10
  3.08893    -52.4 9.862e+03 3.598e-10
  3.10898    -52.9 9.958e+03 3.923e-10
  3.12829    -53.3 1.013e+04 4.869e-10
  3.13837    -52.9 1.003e+04 4.339e-10
  3.14927    -53.4 1.014e+04 5.412e-10
  3.16941    -54.1 1.092e+04 7.395e-10
  3.18956    -56.5 1.267e+04 1.213e-09
  3.20949    -59.7 1.409e+04 2.274e-09
  3.21956    -58.4 1.375e+04 1.704e-09
  3.22985    -61.6 1.472e+04 3.222e-09
  3.25000    -63.0 1.529e+04 5.050e-09
  3.27014    -63.5 1.616e+04 5.978e-09
  3.29029    -64.5 1.682e+04 5.833e-09
  3.30076    -68.3 1.704e+04 3.422e-09
  3.31083    -65.7 1.747e+04 4.833e-09
  3.32915    -70.9 1.588e+04 2.423e-09
  3.33922    -74.8 1.520e+04 2.097e-09
  3.35072    -78.3 1.386e+04 1.792e-09
  3.37087    -79.0 1.338e+04 1.950e-09
  3.38195    -78.9 1.308e+04 2.241e-09
  3.39203    -78.1 1.296e+04 1.883e-09
  3.41116    -77.8 1.276e+04 2.012e-09
  3.43131    -77.1 1.246e+04 2.045e-09
  3.45145    -76.2 1.214e+04 1.854e-09
  3.46315    -75.5 1.178e+04 1.495e-09
  3.47322    -75.0 1.174e+04 1.495e-09
  3.49174    -74.3 1.140e+04 1.193e-09
  3.51189    -73.8 1.102e+04 9.547e-10
  3.53204    -73.2 1.067e+04 7.617e-10
  3.54435    -72.5 1.033e+04 5.826e-10
  3.55442    -72.0 1.039e+04 6.243e-10
  3.57233    -71.3 1.009e+04 4.867e-10
  3.59247    -70.7 9.896e+03 4.178e-10
  3.62279    -69.5 9.714e+03 3.550e-10
  3.66318    -67.9 9.185e+03 2.354e-10
  3.68696    -66.5 8.721e+03 1.518e-10
  3.70050    -67.1 8.413e+03 9.831e-11
  3.71701    -66.2 8.583e+03 1.171e-10
  3.74376    -65.4 8.311e+03 8.078e-11
  3.78405    -64.3 8.244e+03 7.317e-11
  3.82434    -63.2 8.232e+03 7.208e-11
  3.85925    -62.1 8.274e+03 7.398e-11
  3.87940    -62.3 8.482e+03 8.613e-11
  3.90493    -61.3 8.434e+03 8.118e-11
  3.94522    -60.4 8.382e+03 7.361e-11
  3.98551    -59.5 8.373e+03 7.286e-11
  4.02164    -58.8 8.540e+03 8.324e-11
  4.04179    -59.7 8.857e+03 9.509e-11
  4.06609    -58.5 9.205e+03 1.532e-10
  4.10638    -56.5 9.544e+03 2.560e-10
  4.14667    -54.7 1.019e+04 3.856e-10
  4.17679    -53.8 1.156e+04 5.952e-10
  4.19391    -53.8 1.204e+04 6.764e-10
  4.20408    -53.8 1.212e+04 6.573e-10
  4.21709    -54.2 1.341e+04 1.219e-09
  4.23713    -54.9 1.452e+04 1.935e-09
  4.25728    -56.0 1.591e+04 3.346e-09
  4.27511    -57.7 1.706e+04 5.778e-09
  4.28518    -57.3 1.688e+04 6.148e-09
  4.29757    -57.5 1.793e+04 9.496e-09
  4.31772    -56.7 1.816e+04 1.259e-08
  4.33278    -55.9 1.829e+04 8.873e-09
  4.34280    -56.0 1.904e+04 7.701e-09
  4.35287    -58.4 2.013e+04 5.366e-09
  4.36125    -61.5 2.015e+04 3.799e-09
  4.36628    -62.6 1.867e+04 3.056e-09
  4.37302    -67.3 1.582e+04 1.990e-09
  4.38309    -69.3 1.407e+04 1.714e-09
  4.39182    -71.8 1.274e+04 1.429e-09
  4.40194    -72.1 1.210e+04 1.286e-09
  4.41844    -73.1 1.175e+04 1.111e-09
  4.43750    -73.3 1.144e+04 9.624e-10
  4.44758    -72.8 1.126e+04 8.294e-10
  4.45874    -72.9 1.095e+04 7.273e-10
  4.47888    -72.8 1.067e+04 6.404e-10
  4.49903    -72.2 1.042e+04 5.565e-10
  4.51870    -71.5 1.024e+04 4.743e-10
  4.52877    -71.0 1.015e+04 4.391e-10
  4.53932    -70.3 1.006e+04 3.883e-10
  4.55946    -69.7 1.002e+04 3.549e-10
  4.57961    -69.1 9.997e+03 3.219e-10
  4.59975    -68.6 9.966e+03 3.010e-10
  4.60997    -68.1 1.002e+04 2.811e-10
  4.62004    -67.3 1.002e+04 2.901e-10
  4.64005    -66.8 1.005e+04 2.851e-10
  4.66019    -66.4 1.022e+04 2.904e-10
  4.68034    -67.8 1.110e+04 3.556e-10
  4.69116    -71.2 1.246e+04 6.966e-10
  4.70124    -71.6 1.315e+04 9.270e-10
  4.72063    -73.6 1.436e+04 2.361e-09
  4.73946    -73.5 1.573e+04 5.155e-09
  4.74953    -72.9 1.417e+04 2.842e-09
  4.76092    -72.2 1.515e+04 4.499e-09
  4.77236    -71.8 1.572e+04 5.158e-09
  4.78243    -71.2 1.625e+04 6.715e-09
  4.80121    -71.2 1.645e+04 6.464e-09
  4.82136    -72.0 1.615e+04 4.589e-09
  4.84150    -73.6 1.518e+04 3.040e-09
  4.85356    -75.0 1.416e+04 2.286e-09
  4.86363    -74.9 1.423e+04 2.265e-09
  4.88179    -75.5 1.346e+04 1.919e-09
  4.90194    -75.1 1.296e+04 1.718e-09
  4.92209    -74.7 1.262e+04 1.559e-09
  4.93475    -74.3 1.242e+04 1.448e-09
  4.94482    -73.7 1.243e+04 1.414e-09
  4.96238    -73.2 1.227e+04 1.315e-09
  4.98252    -72.7 1.213e+04 1.256e-09
  5.00267    -72.0 1.199e+04 1.207e-09
  5.01595    -71.2 1.189e+04 1.133e-09
  5.02602    -70.8 1.185e+04 1.089e-09
  5.04296    -70.0 1.174e+04 1.016e-09
  5.06310    -69.2 1.161e+04 9.289e-10
  5.08325    -68.3 1.149e+04 8.447e-10
  5.09707    -67.4 1.143e+04 7.754e-10
  5.10714    -66.5 1.114e+04 6.774e-10
  5.12354    -65.7 1.112e+04 6.485e-10
  5.14369    -64.7 1.111e+04 6.170e-10
  5.16383    -63.8 1.114e+04 5.898e-10
  5.17844    -62.7 1.106e+04 5.298e-10
  5.18851    -62.7 1.133e+04 6.659e-10
  5.20412    -61.9 1.130e+04 6.633e-10
  5.23444    -60.3 1.136e+04 6.974e-10
  5.27483    -58.4 1.145e+04 7.405e-10
  5.31512    -56.6 1.129e+04 7.534e-10
  5.34093    -54.5 1.107e+04 6.416e-10
  5.36107    -54.2 1.145e+04 8.490e-10
  5.39570    -52.3 1.117e+04 6.856e-10
  5.43599    -50.4 1.095e+04 5.313e-10
  5.47629    -48.8 1.079e+04 4.068e-10
  5.50332    -47.3 1.071e+04 3.253e-10
  5.52346    -47.4 1.095e+04 3.936e-10
  5.55687    -45.9 1.075e+04 3.142e-10
  5.59716    -44.4 1.041e+04 2.722e-10
  5.63745    -42.7 1.010e+04 2.707e-10
  5.66571    -40.6 9.943e+03 2.744e-10
  5.68586    -40.4 9.869e+03 2.650e-10
  5.71803    -38.1 9.705e+03 2.458e-10
  5.75832    -35.8 9.633e+03 2.266e-10
  5.79234    -34.0 9.679e+03 2.219e-10
  5.81249    -33.3 9.563e+03 1.964e-10
  5.82810    -32.1 9.839e+03 2.233e-10
  5.84825    -31.7 9.821e+03 2.254e-10
  5.87920    -31.0 9.938e+03 3.850e-10
  5.91949    -28.3 1.021e+04 6.484e-10
  5.95978    -25.7 1.043e+04 7.841e-10
  5.99050    -23.4 1.023e+04 6.431e-10
  6.01064    -22.8 1.032e+04 7.465e-10
  6.04036    -20.9 9.900e+03 4.958e-10
  6.08066    -19.4 9.426e+03 3.285e-10
  6.12095    -18.1 9.100e+03 2.527e-10
  6.15289    -16.3 9.123e+03 2.679e-10
  6.17303    -15.4 8.805e+03 2.150e-10
  6.20153    -13.9 8.960e+03 2.530e-10
  6.24182    -11.9 9.451e+03 3.894e-10
  6.28211     -9.9 1.010e+04 6.326e-10
  6.31528     -8.5 1.100e+04 1.016e-09
  6.33543     -7.4 9.975e+03 5.874e-10
  6.36269     -5.7 1.081e+04 9.710e-10
  6.40299     -3.6 1.105e+04 1.167e-09
  6.44328     -1.4 1.078e+04 1.029e-09
  6.47767      0.6 1.015e+04 7.194e-10
  6.49782      1.7 1.010e+04 7.373e-10
  6.50757      3.6 9.575e+03 5.251e-10
  6.52772      3.9 9.823e+03 6.360e-10
  6.56415      5.5 9.017e+03 3.538e-10
  6.60444      7.0 8.306e+03 2.048e-10
  6.64006      8.8 7.847e+03 1.353e-10
  6.66021     10.4 7.874e+03 1.345e-10
  6.68502     12.1 7.505e+03 9.239e-11
  6.72532     14.1 7.258e+03 7.752e-11
  6.76561     16.5 7.199e+03 7.589e-11
  6.80246     19.0 7.206e+03 7.791e-11
  6.82260     20.2 7.122e+03 7.144e-11
  6.84619     22.6 7.162e+03 7.814e-11
  6.88648     25.0 7.244e+03 8.981e-11
  6.92677     27.3 7.365e+03 1.061e-10
  6.96485     29.7 7.513e+03 1.263e-10
  6.98499     30.9 7.430e+03 1.196e-10
  7.00735     33.2 7.586e+03 1.445e-10
  7.04765     35.5 7.763e+03 1.754e-10
  7.08794     37.7 7.925e+03 1.998e-10
  7.12724     39.9 8.066e+03 2.130e-10
  7.14739     41.1 7.917e+03 2.015e-10
  7.16852     43.3 8.049e+03 2.062e-10
  7.20265     45.5 8.257e+03 2.182e-10
  7.22280     44.8 8.272e+03 2.073e-10
  7.23893     46.4 8.271e+03 2.097e-10
  7.25898     46.8 8.594e+03 2.249e-10
  7.27913     45.8 1.008e+04 3.492e-10
  7.29927     43.5 1.235e+04 8.425e-10
  7.30958     42.4 1.363e+04 2.036e-09
  7.31965     44.6 1.277e+04 1.039e-09
  7.33956     43.9 1.377e+04 2.244e-09
  7.35971     44.4 1.432e+04 3.867e-09
  7.37985     45.2 1.446e+04 4.990e-09
  7.39078     45.9 1.438e+04 4.963e-09
  7.40085     46.4 1.415e+04 4.301e-09
  7.42015     46.9 1.402e+04 4.202e-09
  7.44029     47.2 1.368e+04 3.611e-09
  7.46044     47.2 1.332e+04 2.716e-09
  7.47197     46.7 1.292e+04 1.824e-09
  7.48205     48.0 1.313e+04 2.463e-09
  7.50073     47.5 1.278e+04 1.723e-09
  7.52087     46.4 1.205e+04 1.092e-09
  7.54102     45.2 1.084e+04 6.789e-10
  7.55317     44.3 9.649e+03 4.672e-10
  7.56215     46.4 1.083e+04 6.539e-10
  7.57014     45.3 9.690e+03 4.860e-10
  7.58131     44.7 9.036e+03 3.817e-10
  7.60146     44.7 8.783e+03 3.320e-10
  7.62160     44.8 8.794e+03 3.258e-10
  7.63446     45.5 8.660e+03 2.963e-10
  7.64454     46.5 9.014e+03 3.803e-10
  7.66189     46.7 9.017e+03 3.804e-10
  7.69221     47.9 8.884e+03 3.630e-10
  7.73260     49.8 8.754e+03 3.399e-10
  7.77289     51.8 8.630e+03 3.086e-10
  7.79695     53.8 8.516e+03 2.718e-10
  7.81710     54.5 9.063e+03 3.838e-10
  7.85347     56.3 9.020e+03 3.588e-10
  7.87805     57.3 8.839e+03 3.209e-10
  7.88803     57.5 8.913e+03 3.354e-10
  7.90364     58.0 8.893e+03 3.324e-10
  7.91768     59.1 8.886e+03 3.280e-10
  7.93792     58.7 8.618e+03 2.914e-10
  7.95935     60.4 8.535e+03 2.740e-10
  7.96932     61.4 9.047e+03 4.166e-10
  7.98422     62.4 8.930e+03 3.867e-10
  8.00437     63.6 8.849e+03 3.545e-10
  8.02451     64.6 8.783e+03 3.248e-10
  8.04035     65.4 8.781e+03 3.056e-10
  8.05042     66.1 8.955e+03 3.318e-10
  8.06481     67.0 8.908e+03 3.157e-10
  8.08495     68.1 8.927e+03 3.174e-10
  8.10510     68.4 9.075e+03 3.377e-10
  8.12154     67.9 9.798e+03 4.434e-10
  8.13162     70.1 9.805e+03 4.500e-10
  8.14539     67.0 1.214e+04 9.687e-10
  8.16553     61.6 1.555e+04 2.722e-09
  8.18059     57.8 1.701e+04 4.389e-09
  8.19062     55.1 1.774e+04 6.755e-09
  8.20069     50.7 1.985e+04 1.102e-08
  8.20768     47.5 2.070e+04 1.331e-08
  8.21271     48.1 2.115e+04 1.424e-08
  8.22084     41.1 2.314e+04 1.673e-08
  8.23091     37.2 2.255e+04 1.559e-08
  8.24607     30.6 2.228e+04 1.346e-08
  8.26522     18.7 1.930e+04 7.409e-09
  8.27529     16.5 1.911e+04 6.730e-09
  8.28393      4.9 1.785e+04 4.580e-09
  8.29401      2.9 1.973e+04 5.966e-09
  8.30655     -6.1 1.628e+04 3.486e-09
  8.32670    -13.0 1.444e+04 2.593e-09
  8.34684    -16.8 1.451e+04 2.512e-09
  8.36513    -20.4 1.437e+04 2.548e-09
  8.37520    -26.2 1.601e+04 3.774e-09
  8.38714    -27.2 1.427e+04 3.363e-09
  8.40728    -26.7 1.373e+04 3.119e-09
  8.42743    -25.7 1.353e+04 2.822e-09
  8.44633    -25.1 1.339e+04 2.294e-09
  8.45640    -27.1 1.428e+04 2.624e-09
  8.46772    -28.7 1.321e+04 1.712e-09
  8.48786    -30.8 1.202e+04 1.133e-09
  8.50801    -32.4 1.142e+04 9.271e-10
  8.52752    -34.1 1.115e+04 8.600e-10
  8.53760    -36.5 1.203e+04 1.134e-09
  8.54830    -37.9 1.200e+04 1.151e-09
  8.56845    -39.2 1.197e+04 1.241e-09
  8.58859    -40.1 1.186e+04 1.314e-09
  8.60872    -40.6 1.174e+04 1.347e-09
  8.62281    -42.4 1.166e+04 1.287e-09
  8.63291    -41.0 1.169e+04 1.321e-09
  8.64903    -41.2 1.169e+04 1.232e-09
  8.66918    -42.2 1.194e+04 1.224e-09
  8.68932    -45.6 1.306e+04 1.502e-09
  8.69999    -50.0 1.434e+04 2.469e-09
  8.71006    -51.1 1.378e+04 2.172e-09
  8.72961    -53.2 1.473e+04 3.856e-09
  8.74976    -53.7 1.589e+04 6.597e-09
  8.76990    -53.7 1.709e+04 1.011e-08
  8.78118    -53.5 1.798e+04 1.269e-08
  8.79126    -53.8 1.731e+04 9.868e-09
  8.81019    -54.1 1.775e+04 1.092e-08
  8.83034    -55.3 1.787e+04 1.073e-08
  8.85049    -56.6 1.723e+04 8.247e-09
  8.86238    -57.9 1.632e+04 5.837e-09
  8.87245    -58.1 1.667e+04 7.314e-09
  8.89078    -59.1 1.593e+04 5.504e-09
  8.91092    -59.7 1.501e+04 3.874e-09
  8.93107    -60.1 1.401e+04 2.597e-09
  8.94358    -60.3 1.302e+04 1.761e-09
  8.95365    -60.3 1.385e+04 2.756e-09
  8.97037    -60.5 1.304e+04 2.014e-09
  8.98045    -59.8 1.326e+04 2.296e-09
  8.99151    -59.8 1.280e+04 1.900e-09
  9.01165    -59.6 1.254e+04 1.692e-09
  9.02477    -59.3 1.249e+04 1.630e-09
  9.03484    -59.9 1.278e+04 1.904e-09
  9.05194    -59.7 1.280e+04 1.897e-09
  9.07209    -59.7 1.301e+04 1.974e-09
  9.09223    -59.8 1.322e+04 2.081e-09
  9.10597    -60.1 1.332e+04 2.163e-09
  9.11604    -60.5 1.329e+04 2.093e-09
  9.13253    -60.6 1.310e+04 1.925e-09
  9.15267    -60.7 1.279e+04 1.700e-09
  9.17282    -60.9 1.250e+04 1.379e-09
  9.18716    -61.6 1.209e+04 1.050e-09
  9.19724    -62.4 1.174e+04 9.997e-10
  9.21311    -63.3 1.136e+04 7.520e-10
  9.23325    -64.2 1.089e+04 5.796e-10
  9.25340    -64.8 1.045e+04 4.580e-10
  9.26836    -65.2 1.019e+04 3.719e-10
  9.27843    -64.9 1.021e+04 3.660e-10
  9.29369    -65.8 1.008e+04 3.080e-10
  9.31384    -66.7 1.010e+04 2.894e-10
  9.32808    -67.7 1.022e+04 2.902e-10
  9.34833    -70.0 1.054e+04 3.296e-10
  9.38454    -72.4 1.101e+04 5.604e-10
  9.41466    -72.4 1.125e+04 7.519e-10
  9.43075    -72.5 1.146e+04 8.284e-10
  9.44082    -72.7 1.148e+04 8.313e-10
  9.45486    -72.9 1.150e+04 8.295e-10
  9.47500    -73.3 1.137e+04 7.740e-10
  9.50532    -73.8 1.108e+04 6.550e-10
  9.54571    -73.3 1.051e+04 4.618e-10
  9.58327    -72.4 9.908e+03 3.087e-10
  9.60341    -72.4 9.663e+03 2.743e-10
  9.62629    -70.8 9.311e+03 1.949e-10
  9.66658    -69.0 9.060e+03 1.436e-10
  9.70687    -66.9 8.865e+03 1.079e-10
  9.74566    -64.8 8.734e+03 8.505e-11
  9.76580    -64.6 8.684e+03 8.262e-11
  9.78745    -62.4 8.613e+03 7.014e-11
  9.82775    -60.2 8.599e+03 6.618e-11
  9.86804    -57.9 8.615e+03 6.583e-11
  9.90805    -55.9 8.768e+03 7.450e-11
  9.92820    -55.6 8.768e+03 7.302e-11
  9.94862    -53.9 8.904e+03 1.039e-10
  9.98891    -52.0 9.109e+03 1.601e-10
 10.02326    -49.9 9.418e+03 2.426e-10
 10.04341    -50.3 9.302e+03 2.012e-10
 10.06949    -48.3 9.659e+03 2.992e-10
 10.09059    -46.5 1.002e+04 4.024e-10
 10.11073    -46.2 1.013e+04 4.452e-10
 10.15008    -44.8 1.038e+04 5.052e-10
 10.19037    -43.7 1.062e+04 5.633e-10
 10.22049    -43.2 1.072e+04 5.789e-10
 10.24054    -43.2 1.092e+04 6.847e-10
 10.25278    -43.1 1.128e+04 8.655e-10
 10.26286    -43.1 1.107e+04 7.343e-10
 10.28083    -42.8 1.133e+04 9.372e-10
 10.30097    -42.2 1.180e+04 1.223e-09
 10.32112    -42.3 1.221e+04 1.514e-09
 10.33398    -42.1 1.285e+04 2.007e-09
 10.34405    -41.6 1.239e+04 1.503e-09
 10.36141    -42.0 1.280e+04 1.879e-09
 10.38068    -42.1 1.317e+04 2.429e-09
 10.39075    -42.8 1.323e+04 2.540e-09
 10.40170    -42.7 1.333e+04 3.065e-09
 10.41518    -41.8 1.339e+04 3.367e-09
 10.42525    -41.8 1.301e+04 2.750e-09
 10.44199    -41.1 1.300e+04 2.818e-09
 10.46214    -40.2 1.290e+04 2.559e-09
 10.48228    -40.1 1.225e+04 1.745e-09
 10.51260    -40.0 1.147e+04 1.174e-09
 10.54282    -40.0 1.022e+04 6.075e-10
 10.56287    -39.4 9.999e+03 5.264e-10
 10.57767    -38.2 9.496e+03 3.572e-10
 10.59791    -37.9 9.650e+03 4.032e-10
 10.63357    -36.7 9.380e+03 3.325e-10
 10.67386    -35.3 9.299e+03 3.112e-10
 10.71415    -34.3 9.405e+03 3.435e-10
 10.73849    -33.3 9.732e+03 4.356e-10
 10.74434    -34.6 9.293e+03 2.997e-10
 10.75013    -34.3 9.786e+03 4.523e-10
 10.76432    -34.3 9.701e+03 4.515e-10
 10.78447    -33.2 9.856e+03 4.959e-10
 10.80461    -33.1 9.767e+03 4.832e-10
 10.82116    -32.3 9.724e+03 4.726e-10
 10.83123    -32.7 9.779e+03 4.892e-10
 10.84491    -32.4 9.660e+03 4.523e-10
 10.87522    -31.7 9.435e+03 3.799e-10
 10.90255    -30.7 9.194e+03 3.117e-10
 10.92269    -32.1 9.140e+03 3.036e-10
 10.95590    -30.9 8.841e+03 2.464e-10
 10.99619    -29.5 8.761e+03 2.359e-10
 11.03648    -28.0 8.766e+03 2.413e-10
 11.06494    -26.5 8.916e+03 2.700e-10
 11.08509    -27.2 8.885e+03 2.484e-10
 11.11707    -26.3 9.216e+03 3.109e-10
 11.15736    -25.3 9.593e+03 4.388e-10
 11.19765    -24.0 1.025e+04 6.716e-10
 11.22733    -22.9 1.079e+04 8.738e-10
 11.24748    -25.2 1.090e+04 9.743e-10
 11.27823    -24.5 1.108e+04 1.071e-09
 11.30835    -23.2 1.106e+04 1.255e-09
 11.32840    -22.9 1.088e+04 6.848e-10
 11.34855    -23.5 1.111e+04 4.829e-10
 11.36869    -25.4 1.066e+04 3.523e-10
 11.38884    -27.2 9.809e+03 3.024e-10
 11.39960    -28.3 9.374e+03 2.814e-10
 11.40977    -28.8 9.270e+03 2.660e-10
 11.43357    -28.3 9.233e+03 2.890e-10
 11.45371    -28.7 9.175e+03 2.596e-10
 11.47969    -28.0 9.091e+03 2.333e-10
 11.51998    -26.8 8.900e+03 1.784e-10
 11.55212    -25.7 8.776e+03 1.205e-10
 11.57226    -25.2 8.720e+03 1.113e-10
 11.60056    -24.5 8.706e+03 9.216e-11
 11.64085    -23.3 8.605e+03 9.123e-11
 11.68114    -22.0 8.648e+03 9.430e-11
 11.71451    -20.3 8.721e+03 9.713e-11
 11.73465    -19.5 8.776e+03 9.435e-11
 11.76173    -18.0 8.829e+03 9.595e-11
 11.80202    -16.5 8.827e+03 9.074e-11
 11.84231    -14.7 8.709e+03 7.637e-11
 11.87690    -12.9 8.623e+03 5.897e-11
 11.89705    -12.0 8.843e+03 7.752e-11
 11.92289    -11.0 8.974e+03 5.957e-11
 11.96318     -9.9 8.966e+03 5.926e-11
 12.00348     -8.6 8.917e+03 6.682e-11
 12.03929     -6.9 8.857e+03 8.418e-11
 12.05944     -6.1 9.077e+03 1.310e-10
 12.08406     -4.1 9.138e+03 1.494e-10
 12.12435     -2.0 9.232e+03 1.601e-10
 12.14879      0.0 9.323e+03 1.591e-10
 12.16894     -0.4 9.298e+03 1.357e-10
 12.20168      1.4 9.297e+03 1.313e-10
 12.22183      2.3 9.528e+03 1.747e-10
 12.24522      4.0 9.506e+03 1.749e-10
 12.28551      5.7 9.507e+03 1.816e-10
 12.32581      7.5 9.514e+03 1.949e-10
 12.36408      9.2 9.546e+03 2.124e-10
 12.38422     10.0 9.965e+03 3.018e-10
 12.40639     11.7 9.944e+03 3.084e-10
 12.44668     13.4 9.880e+03 3.039e-10
 12.48697     15.2 9.761e+03 2.917e-10
 12.52647     16.9 9.655e+03 2.770e-10
 12.54661     17.5 9.845e+03 3.084e-10
 12.56755     19.3 9.709e+03 2.858e-10
 12.60784     21.2 9.615e+03 2.696e-10
 12.64814     23.1 9.538e+03 2.550e-10
 12.68843     25.0 9.450e+03 2.402e-10
 12.70901     26.9 9.368e+03 2.225e-10
 12.72915     28.0 9.542e+03 2.427e-10
 12.76901     30.0 9.644e+03 2.574e-10
 12.80930     31.6 9.894e+03 2.906e-10
 12.83942     31.5 9.995e+03 3.125e-10
 12.85375     31.1 1.023e+04 3.624e-10
 12.86382     29.9 1.026e+04 3.564e-10
 12.87120     29.1 1.054e+04 4.514e-10
 12.88128     29.4 1.099e+04 6.477e-10
 12.89976     29.0 1.122e+04 8.290e-10
 12.91991     28.8 1.143e+04 1.035e-09
 12.94005     28.6 1.164e+04 1.164e-09
 12.95240     28.0 1.166e+04 1.160e-09
 12.96247     28.3 1.228e+04 1.570e-09
 12.98034     27.5 1.211e+04 1.394e-09
 13.00049     26.4 1.175e+04 1.147e-09
 13.02063     25.1 1.122e+04 9.253e-10
 13.03360     24.1 1.066e+04 7.742e-10
 13.04367     24.3 1.093e+04 8.621e-10
 13.06093     23.6 1.037e+04 7.062e-10
 13.08107     23.5 1.013e+04 6.257e-10
 13.10122     23.6 9.982e+03 5.690e-10
 13.11479     23.9 9.882e+03 5.297e-10
 13.12486     23.6 9.858e+03 5.215e-10
 13.14151     24.0 9.773e+03 4.955e-10
 13.16165     24.5 9.702e+03 4.784e-10
 13.18180     25.1 9.655e+03 4.683e-10
 13.19599     25.7 9.662e+03 4.664e-10
 13.20540     25.9 9.684e+03 4.694e-10
 13.21136     25.9 9.618e+03 4.422e-10
 13.22209     26.5 9.644e+03 4.453e-10
 13.24224     27.0 9.701e+03 4.568e-10
 13.26238     27.5 9.764e+03 4.765e-10
 13.27718     28.0 9.840e+03 5.067e-10
 13.28726     28.1 9.892e+03 5.093e-10
 13.30267     28.4 1.009e+04 5.679e-10
 13.32282     28.7 1.035e+04 6.561e-10
 13.34297     28.9 1.064e+04 7.746e-10
 13.35838     29.1 1.091e+04 9.141e-10
 13.36845     29.1 1.116e+04 1.034e-09
 13.38326     29.5 1.140e+04 1.209e-09
 13.40340     30.0 1.158e+04 1.369e-09
 13.42355     30.5 1.172e+04 1.493e-09
 13.43958     31.0 1.185e+04 1.598e-09
 13.44965     31.0 1.204e+04 1.756e-09
 13.46384     31.3 1.222e+04 1.885e-09
 13.48398     31.1 1.254e+04 2.118e-09
 13.50413     30.6 1.298e+04 2.538e-09
 13.52077     30.3 1.354e+04 3.225e-09
 13.53084     30.6 1.360e+04 3.370e-09
 13.54442     30.6 1.431e+04 4.441e-09
 13.55890     30.7 1.496e+04 5.650e-09
 13.56897     30.2 1.440e+04 4.582e-09
 13.58471     30.4 1.479e+04 5.114e-09
 13.60197     30.3 1.482e+04 5.079e-09
 13.61204     30.3 1.521e+04 5.799e-09
 13.62500     30.2 1.511e+04 5.498e-09
 13.64515     30.0 1.479e+04 4.716e-09
 13.66530     29.5 1.422e+04 3.727e-09
 13.68316     28.7 1.347e+04 2.825e-09
 13.69324     29.1 1.410e+04 3.482e-09
 13.70559     28.4 1.328e+04 2.601e-09
 13.72573     27.9 1.246e+04 1.968e-09
 13.74588     27.9 1.176e+04 1.528e-09
 13.76436     28.1 1.122e+04 1.229e-09
 13.77443     28.2 1.156e+04 1.435e-09
 13.78617     28.5 1.112e+04 1.192e-09
 13.80632     29.0 1.085e+04 1.043e-09
 13.82646     29.6 1.072e+04 9.635e-10
 13.84556     30.2 1.069e+04 9.319e-10
 13.85563     30.1 1.117e+04 1.191e-09
 13.86675     30.6 1.131e+04 1.250e-09
 13.88690     31.2 1.160e+04 1.365e-09
 13.90644     31.7 1.202e+04 1.492e-09
 13.91651     32.5 1.161e+04 1.376e-09
 13.92675     32.8 1.225e+04 1.695e-09
 13.93682     32.1 1.326e+04 2.685e-09
 13.94733     32.0 1.417e+04 3.571e-09
 13.96748     31.9 1.516e+04 4.861e-09
 13.98763     31.9 1.618e+04 6.681e-09
 14.00777     32.2 1.718e+04 9.093e-09
 14.01802     32.4 1.812e+04 1.162e-08
 14.02809     31.1 1.938e+04 1.627e-08
 14.04806     30.2 1.978e+04 1.696e-08
 14.06821     29.1 1.992e+04 1.633e-08
 14.08835     27.8 1.996e+04 1.512e-08
 14.09922     26.4 1.982e+04 1.373e-08
 14.10929     23.8 1.928e+04 1.234e-08
 14.12865     22.7 1.841e+04 1.091e-08
 14.14879     22.4 1.784e+04 9.689e-09
 14.16894     22.2 1.769e+04 8.697e-09
 14.18041     22.4 1.799e+04 7.920e-09
 14.19049     19.9 1.779e+04 5.127e-09
 14.20923     19.8 1.761e+04 4.200e-09
 14.22937     20.0 1.712e+04 3.238e-09
 14.24952     20.1 1.623e+04 2.257e-09
 14.26161     19.7 1.494e+04 1.484e-09
 14.26607     17.2 1.225e+04 7.652e-10
 14.27413     16.1 9.162e+03 2.822e-10
 14.28981     16.4 8.912e+03 2.821e-10
 14.30996     17.0 8.915e+03 3.018e-10
 14.33010     17.7 9.018e+03 3.458e-10
 14.34280     18.9 9.182e+03 4.080e-10
 14.35288     19.0 9.135e+03 4.520e-10
 14.37039     20.1 9.648e+03 5.401e-10
 14.39054     21.3 1.010e+04 6.424e-10
 14.41068     22.6 1.050e+04 7.743e-10
 14.42400     24.0 1.093e+04 9.562e-10
 14.43407     24.1 1.124e+04 1.148e-09
 14.45098     25.3 1.170e+04 1.428e-09
 14.47112     26.4 1.219e+04 1.792e-09
 14.49127     27.7 1.274e+04 2.284e-09
 14.50520     28.9 1.336e+04 2.943e-09
 14.51527     29.0 1.347e+04 3.264e-09
 14.53156     30.2 1.399e+04 3.995e-09
 14.55170     31.8 1.448e+04 4.775e-09
 14.57185     33.3 1.495e+04 5.468e-09
 14.58634     34.3 1.510e+04 5.644e-09
 14.59642     34.2 1.497e+04 5.384e-09
 14.61159     35.2 1.502e+04 5.353e-09
 14.62167     35.2 1.507e+04 5.639e-09
 14.63229     35.9 1.515e+04 5.626e-09
 14.64735     36.0 1.520e+04 5.368e-09
 14.65737     36.1 1.527e+04 5.306e-09
 14.66744     35.9 1.551e+04 5.437e-09
 14.67757     35.1 1.564e+04 5.417e-09
 14.69272     33.2 1.683e+04 6.622e-09
 14.70778     31.1 1.788e+04 8.034e-09
 14.71313     29.8 1.833e+04 9.725e-09
 14.71816     29.1 1.799e+04 9.089e-09
 14.72788     28.2 1.834e+04 1.070e-08
 14.73795     27.3 1.870e+04 1.290e-08
 14.74803     26.5 1.897e+04 1.536e-08
 14.75372     25.9 1.922e+04 1.753e-08
 14.75876     25.6 1.868e+04 1.523e-08
 14.76817     25.0 1.883e+04 1.533e-08
 14.77824     24.3 1.876e+04 1.488e-08
 14.78832     23.4 1.851e+04 1.318e-08
 14.79432     22.5 1.820e+04 1.143e-08
 14.79631     22.4 1.755e+04 9.321e-09
 14.80038     22.6 1.742e+04 9.015e-09
 14.80846     21.0 1.705e+04 7.236e-09
 14.81854     20.1 1.678e+04 6.451e-09
 14.82993     15.8 1.652e+04 5.557e-09
 14.84000     15.4 1.491e+04 3.811e-09
 14.85384     12.4 1.520e+04 4.363e-09
 14.87403      9.9 1.562e+04 4.891e-09
 14.89418      7.9 1.600e+04 5.661e-09
 14.91118      7.0 1.597e+04 6.398e-09
 14.92125      8.2 1.611e+04 6.567e-09
 14.93447      8.3 1.594e+04 7.273e-09
 14.95462      8.9 1.570e+04 7.113e-09
 14.96921      9.9 1.509e+04 6.128e-09
 14.97928      9.8 1.448e+04 5.093e-09
 14.99237     11.0 1.379e+04 3.960e-09
 15.00245     11.6 1.410e+04 4.600e-09
 15.01505     12.7 1.349e+04 3.581e-09
 15.03520     13.6 1.277e+04 2.391e-09
 15.05535     13.8 1.215e+04 1.544e-09
 15.07357     14.1 1.147e+04 9.647e-10
 15.08364     15.0 1.213e+04 1.574e-09
 15.10581     14.9 1.125e+04 8.116e-10
 15.14489     16.0 1.048e+04 5.437e-10
 15.16494     17.4 1.192e+04 1.212e-09
 15.17622     18.3 1.177e+04 1.117e-09
 15.19636     19.4 1.155e+04 1.015e-09
 15.22668     21.2 1.199e+04 1.370e-09
 15.26707     23.5 1.175e+04 1.289e-09
 15.29719     25.4 1.176e+04 1.311e-09
 15.31675     26.5 1.196e+04 1.437e-09
 15.32674     26.1 1.238e+04 1.793e-09
 15.33730     27.2 1.316e+04 2.489e-09
 15.35753     28.1 1.377e+04 3.055e-09
 15.37768     28.7 1.444e+04 3.928e-09
 15.39782     29.5 1.498e+04 5.026e-09
 15.40843     30.9 1.555e+04 6.416e-09
 15.41850     31.0 1.558e+04 6.578e-09
 15.43811     32.5 1.621e+04 8.230e-09
 15.45826     33.7 1.655e+04 9.107e-09
 15.47840     34.6 1.650e+04 8.918e-09
 15.48962     35.7 1.613e+04 7.966e-09
 15.49969     35.8 1.601e+04 7.883e-09
 15.51870     37.2 1.557e+04 6.683e-09
 15.53884     38.4 1.500e+04 5.350e-09
 15.55899     39.3 1.440e+04 4.197e-09
 15.57082     40.0 1.374e+04 3.201e-09
 15.58089     40.3 1.374e+04 3.239e-09
 15.59928     41.0 1.309e+04 2.477e-09
 15.62959     42.5 1.223e+04 1.702e-09
 15.65221     44.8 1.135e+04 1.141e-09
 15.66686     45.0 1.140e+04 1.205e-09
 15.68463     44.2 1.122e+04 1.130e-09
 15.71027     46.9 1.055e+04 8.000e-10
 15.75057     49.7 1.006e+04 5.907e-10
 15.79086     52.4 9.754e+03 4.715e-10
 15.81460     55.1 9.579e+03 4.058e-10
 15.83475     55.4 9.243e+03 2.932e-10
 15.87144     58.0 9.138e+03 2.692e-10
 15.91173     60.7 9.083e+03 2.549e-10
 15.95202     63.3 9.057e+03 2.424e-10
 15.97699     65.9 9.040e+03 2.296e-10
 15.99714     66.0 8.986e+03 2.196e-10
 16.03260     68.3 8.994e+03 2.093e-10
 16.07290     70.6 8.962e+03 1.907e-10
 16.11319     72.8 8.910e+03 1.707e-10
 16.13939     74.9 8.856e+03 1.536e-10
 16.15953     75.1 8.939e+03 1.577e-10
 16.19377     77.1 8.875e+03 1.410e-10
 16.23406     78.9 8.825e+03 1.304e-10
 16.27435     80.7 8.823e+03 1.228e-10
 16.30178     82.4 8.845e+03 1.160e-10
 16.32192     82.5 8.868e+03 1.159e-10
 16.35493     84.1 8.867e+03 1.082e-10
 16.37971     85.8 8.868e+03 9.954e-11
 16.39985     85.1 8.873e+03 9.792e-11
 16.43552     86.9 8.845e+03 8.906e-11
 16.46417     88.8 8.818e+03 8.222e-11
 16.48432     89.1 8.782e+03 6.991e-11
 16.51610     91.1 8.765e+03 6.255e-11
 16.55639     93.1 8.783e+03 5.769e-11
 16.59668     95.0 8.783e+03 5.493e-11
 16.62656     97.0 8.783e+03 5.369e-11
 16.64671     97.2 8.759e+03 5.041e-11
 16.67726     99.1 8.782e+03 5.218e-11
 16.71756    101.0 8.811e+03 5.746e-11
 16.75785    102.7 8.866e+03 6.723e-11
 16.78895    104.4 8.980e+03 8.184e-11
 16.80910    104.3 8.991e+03 8.391e-11
 16.83843    105.6 9.207e+03 1.064e-10
 16.87872    106.9 9.479e+03 1.336e-10
 16.91901    108.1 9.705e+03 1.630e-10
 16.95135    109.4 9.885e+03 1.967e-10
 16.97149    107.5 1.055e+04 2.283e-10
 16.99960    108.9 1.089e+04 3.024e-10
 17.03989    110.5 1.130e+04 4.240e-10
 17.07479    112.3 1.195e+04 6.445e-10
 17.09493    110.0 1.235e+04 9.689e-10
 17.11030    110.9 1.256e+04 1.097e-09
 17.12362    111.2 1.275e+04 1.285e-09
 17.13369    109.9 1.296e+04 1.606e-09
 17.15049    110.5 1.299e+04 1.744e-09
 17.17064    111.3 1.303e+04 1.839e-09
 17.19078    112.1 1.305e+04 1.897e-09
 17.20481    113.0 1.303e+04 1.861e-09
 17.21488    112.2 1.265e+04 1.378e-09
 17.23107    112.8 1.248e+04 1.193e-09
 17.25122    113.1 1.227e+04 1.041e-09
 17.27137    113.4 1.209e+04 9.599e-10
 17.28601    113.7 1.206e+04 9.553e-10
 17.29608    112.1 1.146e+04 6.125e-10
 17.31166    112.3 1.155e+04 6.542e-10
 17.33180    112.3 1.183e+04 7.911e-10
 17.35195    112.4 1.220e+04 1.024e-09
 17.36720    112.7 1.258e+04 1.341e-09
 17.37728    111.5 1.202e+04 1.040e-09
 17.39224    111.9 1.230e+04 1.313e-09
 17.41239    112.3 1.257e+04 1.583e-09
 17.43221    112.6 1.281e+04 1.820e-09
 17.44228    111.5 1.285e+04 1.856e-09
 17.44840    111.2 1.298e+04 1.922e-09
 17.45847    110.3 1.258e+04 1.623e-09
 17.47282    110.0 1.273e+04 1.709e-09
 17.49297    109.4 1.290e+04 1.808e-09
 17.51311    108.7 1.303e+04 1.897e-09
 17.52960    108.1 1.305e+04 1.915e-09
 17.53967    107.7 1.307e+04 2.094e-09
 17.55341    107.2 1.307e+04 2.097e-09
 17.57355    106.8 1.301e+04 2.049e-09
 17.59370    106.4 1.280e+04 1.851e-09
 17.61079    106.1 1.247e+04 1.523e-09
 17.62086    106.0 1.259e+04 1.708e-09
 17.63399    105.6 1.219e+04 1.339e-09
 17.65413    104.9 1.180e+04 1.027e-09
 17.67428    103.9 1.147e+04 8.402e-10
 17.69199    103.0 1.131e+04 8.020e-10
 17.70206    103.1 1.141e+04 9.043e-10
 17.71457    102.6 1.130e+04 8.743e-10
 17.73472    102.4 1.130e+04 8.791e-10
 17.75486    102.2 1.134e+04 8.978e-10
 17.77318    102.2 1.140e+04 9.239e-10
 17.78335    102.7 1.123e+04 8.720e-10
 17.79001    102.5 1.118e+04 8.440e-10
 17.81016    103.6 1.101e+04 7.681e-10
 17.84571    104.2 1.076e+04 6.868e-10
 17.88600    105.3 1.038e+04 5.528e-10
 17.92570    106.6 9.955e+03 4.019e-10
 17.94584    107.9 9.654e+03 3.309e-10
 17.96659    109.4 9.339e+03 2.439e-10
 18.00688    110.9 9.101e+03 1.943e-10
 18.04717    112.7 9.050e+03 1.862e-10
 18.08746    114.8 9.058e+03 1.881e-10
 18.10824    117.0 9.108e+03 1.993e-10
 18.12838    118.1 9.008e+03 1.843e-10
 18.16804    120.3 9.144e+03 2.090e-10
 18.20833    122.5 9.366e+03 2.524e-10
 18.24863    124.5 9.657e+03 3.189e-10
 18.27063    126.5 1.002e+04 4.143e-10
 18.29077    127.3 9.972e+03 3.931e-10
 18.32921    128.9 1.039e+04 5.188e-10
 18.36950    130.3 1.081e+04 6.672e-10
 18.40979    131.6 1.118e+04 8.159e-10
 18.43302    133.0 1.151e+04 9.689e-10
 18.45317    133.8 1.161e+04 1.035e-09
 18.48509    135.2 1.197e+04 1.221e-09
 18.50524    136.9 1.181e+04 1.140e-09
 18.53066    138.5 1.219e+04 1.341e-09
 18.57096    140.2 1.263e+04 1.565e-09
 18.59531    140.5 1.301e+04 1.797e-09
 18.60529    140.8 1.370e+04 2.246e-09
 18.62112    141.4 1.411e+04 2.589e-09
 18.64127    142.0 1.461e+04 3.053e-09
 18.66142    142.5 1.515e+04 3.557e-09
 18.67641    143.1 1.563e+04 3.788e-09
 18.68649    143.2 1.726e+04 7.458e-09
 18.70171    143.6 1.802e+04 8.582e-09
 18.72185    143.7 1.844e+04 8.571e-09
 18.74200    143.5 1.876e+04 7.391e-09
 18.75761    142.8 1.862e+04 4.673e-09
 18.76763    143.2 2.114e+04 1.806e-08
 18.78224    142.3 2.047e+04 6.917e-09
 18.80244    140.6 1.803e+04 2.851e-09
 18.82258    139.1 1.417e+04 2.271e-09
 18.83880    138.6 1.352e+04 2.264e-09
 18.84866    137.8 1.417e+04 2.491e-09
 18.85258    138.5 1.700e+04 3.778e-09
 18.86287    137.8 1.547e+04 3.465e-09
 18.88302    138.0 1.485e+04 3.304e-09
 18.90316    138.4 1.450e+04 3.041e-09
 18.92000    139.0 1.416e+04 2.704e-09
 18.93007    138.0 1.472e+04 2.765e-09
 18.94345    138.3 1.413e+04 2.256e-09
 18.96360    138.4 1.350e+04 1.824e-09
 18.98375    138.2 1.289e+04 1.467e-09
 19.00120    137.9 1.236e+04 1.181e-09
 19.01127    136.4 1.230e+04 1.158e-09
 19.02404    136.2 1.187e+04 9.444e-10
 19.04418    136.0 1.159e+04 7.934e-10
 19.06433    135.8 1.133e+04 7.265e-10
 19.08239    136.0 1.126e+04 7.241e-10
 19.09247    135.3 1.130e+04 7.517e-10
 19.10462    135.6 1.131e+04 7.550e-10
 19.12477    135.8 1.138e+04 7.791e-10
 19.14491    135.6 1.160e+04 8.609e-10
 19.16359    135.4 1.193e+04 1.026e-09
 19.17366    135.1 1.176e+04 9.692e-10
 19.18520    134.9 1.211e+04 1.145e-09
 19.20012    134.4 1.254e+04 1.383e-09
 19.21020    134.8 1.250e+04 1.371e-09
 19.22549    134.2 1.301e+04 1.711e-09
 19.24479    133.5 1.350e+04 2.115e-09
 19.25486    133.3 1.303e+04 1.713e-09
 19.26579    132.4 1.341e+04 2.028e-09
 19.28593    131.3 1.366e+04 2.166e-09
 19.30608    129.9 1.367e+04 2.159e-09
 19.32598    128.3 1.362e+04 2.087e-09
 19.33605    128.6 1.316e+04 1.775e-09
 19.34637    127.1 1.299e+04 1.647e-09
 19.36651    125.8 1.272e+04 1.467e-09
 19.38666    124.5 1.243e+04 1.291e-09
 19.40680    123.2 1.220e+04 1.147e-09
 19.41725    122.0 1.203e+04 1.038e-09
 19.42732    122.8 1.189e+04 1.006e-09
 19.44710    121.7 1.186e+04 9.733e-10
 19.46724    120.5 1.183e+04 9.554e-10
 19.48739    119.4 1.180e+04 9.421e-10
 19.49845    118.1 1.175e+04 9.091e-10
 19.50852    118.9 1.176e+04 9.354e-10
 19.52768    117.6 1.162e+04 8.688e-10
 19.54766    116.4 1.132e+04 7.412e-10
 19.55774    116.6 1.131e+04 7.492e-10
 19.56797    115.4 1.142e+04 7.524e-10
 19.57964    110.8 1.314e+04 9.275e-10
 19.58971    114.1 1.176e+04 7.558e-10
 19.60826    105.6 1.588e+04 1.381e-09
 19.62019    100.7 1.760e+04 2.181e-09
 19.62518    100.7 1.775e+04 2.190e-09
 19.63335     97.7 1.899e+04 3.348e-09
 19.64342     94.0 1.993e+04 6.428e-09
 19.65349     91.4 2.026e+04 1.107e-08
 19.66074     89.9 2.061e+04 1.637e-08
 19.66578     90.6 2.069e+04 1.487e-08
 19.67364     89.1 2.113e+04 2.203e-08
 19.68371     87.3 2.153e+04 2.931e-08
 19.69378     84.3 2.260e+04 3.424e-08
 19.70134     78.7 2.699e+04 3.475e-08
 19.70637     81.8 2.396e+04 3.718e-08
 19.71393     74.7 3.027e+04 3.272e-08
 19.72400     64.7 3.471e+04 2.810e-08
 19.73141     54.1 3.415e+04 2.467e-08
 19.73645     50.5 3.424e+04 2.606e-08
 19.74194     42.5 2.729e+04 2.321e-08
 19.74697     47.2 3.049e+04 2.118e-08
 19.75422     40.3 2.412e+04 1.951e-08
 19.76938     35.8 2.127e+04 1.620e-08
 19.78957     32.2 1.817e+04 1.237e-08
 19.80972     31.7 1.725e+04 7.591e-09
 19.82323     31.0 1.626e+04 3.937e-09
 19.83330     32.5 1.691e+04 5.946e-09
 19.85001     31.1 1.575e+04 3.267e-09
 19.87015     28.8 1.476e+04 2.114e-09
 19.89030     27.2 1.485e+04 1.812e-09
 19.90443     26.4 1.498e+04 1.706e-09
 19.90933     28.4 1.542e+04 2.289e-09
 19.91535     28.7 1.267e+04 9.325e-10
 19.93059     28.4 1.368e+04 1.027e-09
 19.95074     28.1 1.447e+04 1.187e-09
 19.97088     28.2 1.464e+04 1.305e-09
 19.98557     27.4 1.608e+04 1.914e-09
 19.99056     28.6 1.660e+04 2.196e-09
 19.99597     27.5 1.834e+04 3.061e-09
 20.00604     25.2 2.083e+04 5.699e-09
 20.01611     22.7 2.285e+04 1.186e-08
 20.02612     20.2 2.380e+04 2.606e-08
 20.03116     21.4 2.347e+04 2.341e-08
 20.03626     19.3 2.344e+04 4.587e-08
 20.04633     18.7 2.254e+04 7.803e-08
 20.05640     18.8 2.227e+04 1.024e-07
 20.06648     19.1 2.236e+04 1.071e-07
 20.07176     19.7 2.219e+04 1.008e-07
 20.07679     20.0 2.228e+04 1.093e-07
 20.08399     20.5 2.212e+04 9.298e-08
 20.08902     20.7 2.264e+04 1.118e-07
 20.09670     21.2 2.240e+04 9.388e-08
 20.10677     21.9 2.236e+04 7.113e-08
 20.11235     22.2 2.256e+04 5.131e-08
 20.11739     22.4 2.231e+04 5.248e-08
 20.12691     22.5 2.335e+04 2.937e-08
 20.13699     22.4 2.415e+04 1.706e-08
 20.14797     19.2 2.803e+04 2.807e-09
 20.15809     20.0 2.510e+04 2.623e-09
 20.17234     14.4 2.083e+04 6.683e-10
 20.19248      7.6 1.329e+04 6.021e-10
 20.21263      5.3 1.018e+04 9.236e-10
 20.22921      4.4 9.607e+03 1.055e-09
 20.23928      6.5 9.317e+03 9.648e-10
 20.25282      6.3 8.484e+03 8.706e-10
 20.26289      8.7 1.298e+04 1.644e-09
 20.27307      8.5 1.225e+04 1.341e-09
 20.30338      7.0 9.295e+03 5.223e-10
 20.34377      5.9 8.644e+03 2.295e-10
 20.38172      4.2 8.379e+03 1.476e-10
 20.40187      7.8 8.343e+03 1.497e-10
 20.42436      7.8 7.733e+03 1.095e-10
 20.46465      9.2 7.726e+03 1.058e-10
 20.50494     10.1 8.112e+03 1.411e-10
 20.54412     11.2 9.107e+03 3.207e-10
 20.56426     13.9 8.386e+03 1.759e-10
 20.58552     14.8 9.446e+03 3.357e-10
 20.61062     15.5 1.037e+04 6.543e-10
 20.63077     16.5 1.119e+04 1.044e-09
 20.66610     17.7 1.178e+04 1.479e-09
 20.69622     19.0 1.174e+04 1.501e-09
 20.71627     19.4 1.184e+04 1.569e-09
 20.72646     19.9 1.182e+04 1.555e-09
 20.74670     22.4 1.156e+04 1.319e-09
 20.77681     21.9 1.145e+04 1.274e-09
 20.79685     22.2 1.135e+04 1.210e-09
 20.80766     22.3 1.133e+04 1.170e-09
 20.81773     23.9 1.077e+04 8.677e-10
 20.83715     23.6 1.076e+04 8.339e-10
 20.85729     23.2 1.068e+04 8.435e-10
 20.87744     23.3 1.058e+04 8.678e-10
 20.88885     23.5 1.053e+04 9.023e-10
 20.89892     24.1 1.008e+04 6.463e-10
 20.91773     24.4 1.003e+04 6.927e-10
 20.93787     24.9 1.006e+04 7.521e-10
 20.95797     25.4 1.025e+04 8.321e-10
 20.97000     25.7 1.083e+04 1.042e-09
 20.98012     26.4 1.052e+04 9.049e-10
 20.99831     27.1 1.091e+04 1.072e-09
 21.01846     27.4 1.166e+04 1.361e-09
 21.03860     27.3 1.285e+04 1.844e-09
 21.05124     26.9 1.428e+04 2.711e-09
 21.06132     27.1 1.413e+04 2.761e-09
 21.07889     26.8 1.585e+04 4.206e-09
 21.09179     25.7 1.758e+04 6.097e-09
 21.09678     25.7 1.722e+04 6.081e-09
 21.10398     25.7 1.826e+04 7.946e-09
 21.11405     24.9 1.989e+04 1.146e-08
 21.12412     24.8 2.082e+04 1.572e-08
 21.13234     24.4 2.215e+04 2.339e-08
 21.13738     23.8 2.241e+04 2.410e-08
 21.14171     22.7 2.430e+04 4.299e-08
 21.14675     24.1 2.400e+04 3.326e-08
 21.15434     23.2 2.545e+04 6.740e-08
 21.16441     22.3 2.465e+04 1.799e-07
 21.17294     22.1 2.162e+04 7.524e-07
 21.17798     20.1 2.195e+04 5.097e-07
 21.18456     17.6 2.183e+04 7.022e-07
 21.19463     13.7 2.353e+04 3.953e-07
 21.20471     11.2 2.359e+04 1.974e-07
 21.21354     11.5 2.482e+04 6.063e-08
 21.21857     10.9 2.386e+04 3.435e-08
 21.22485      9.9 2.383e+04 1.690e-08
 21.24001      7.3 2.137e+04 5.944e-09
 21.26020      3.9 1.633e+04 1.841e-09
 21.28035      1.8 1.254e+04 9.212e-10
 21.29483      3.6 1.198e+04 7.038e-10
 21.30490      2.9 1.072e+04 6.286e-10
 21.31558      4.4 1.048e+04 5.542e-10
 21.32566      4.8 1.058e+04 5.891e-10
 21.35096      7.1 1.077e+04 4.443e-10
 21.37622      9.0 9.822e+03 3.494e-10
 21.39637      9.3 9.616e+03 3.756e-10
 21.43164     11.8 9.213e+03 3.022e-10
 21.47193     14.0 9.061e+03 2.634e-10
 21.51222     15.5 9.169e+03 2.866e-10
 21.53861     16.0 9.755e+03 3.970e-10
 21.55876     17.4 9.357e+03 3.620e-10
 21.58263     18.0 1.010e+04 5.176e-10
 21.60268     18.5 1.020e+04 5.503e-10
 21.61962     20.1 1.054e+04 7.121e-10
 21.62969     20.5 1.022e+04 6.190e-10
 21.64297     21.8 1.043e+04 6.892e-10
 21.67329     23.3 1.060e+04 7.674e-10
 21.70101     25.9 1.042e+04 7.135e-10
 21.72115     25.3 1.043e+04 7.245e-10
 21.75397     27.3 1.040e+04 7.075e-10
 21.79426     29.3 1.038e+04 6.858e-10
 21.83455     30.6 1.053e+04 6.923e-10
 21.86330     31.0 1.066e+04 7.623e-10
 21.87328     31.2 1.126e+04 9.641e-10
 21.88472     31.6 1.125e+04 9.935e-10
 21.90486     31.9 1.135e+04 1.065e-09
 21.92501     32.4 1.157e+04 1.173e-09
 21.94440     32.9 1.180e+04 1.287e-09
 21.95447     32.0 1.257e+04 1.709e-09
 21.96530     32.5 1.259e+04 1.797e-09
 21.98545     33.0 1.257e+04 1.810e-09
 22.00559     33.4 1.251e+04 1.787e-09
 22.02074     33.7 1.244e+04 1.714e-09
 22.03066     34.8 1.251e+04 1.775e-09
 22.03567     34.6 1.284e+04 2.009e-09
 22.04588     34.8 1.258e+04 1.743e-09
 22.06603     34.7 1.226e+04 1.490e-09
 22.08618     34.3 1.209e+04 1.334e-09
 22.10632     33.6 1.201e+04 1.228e-09
 22.11686     32.7 1.201e+04 1.181e-09
 22.12694     32.0 1.174e+04 1.006e-09
 22.14661     31.1 1.164e+04 9.875e-10
 22.16676     30.1 1.183e+04 1.058e-09
 22.18690     26.4 1.324e+04 1.609e-09
 22.19806     21.8 1.567e+04 3.438e-09
 22.20813     20.3 1.556e+04 3.611e-09
 22.22720     18.6 1.687e+04 7.289e-09
 22.24734     18.9 1.831e+04 1.310e-08
 22.26749     19.1 1.935e+04 1.621e-08
 22.27926     18.7 1.951e+04 1.459e-08
 22.28933     17.9 1.939e+04 1.439e-08
 22.30778     17.2 1.898e+04 9.482e-09
 22.32792     13.9 1.758e+04 5.289e-09
 22.34807      8.9 1.505e+04 3.116e-09
 22.36045      6.1 1.449e+04 2.900e-09
 22.37053      5.4 1.434e+04 2.645e-09
 22.38836      4.6 1.504e+04 2.906e-09
 22.40851      2.8 1.596e+04 3.800e-09
 22.42865      1.4 1.686e+04 5.351e-09
 22.44165      0.6 1.746e+04 7.144e-09
 22.45172      0.7 1.733e+04 5.238e-09
 22.46386     -0.4 1.782e+04 6.279e-09
 22.47388     -0.6 1.815e+04 6.598e-09
 22.48215     -1.6 1.804e+04 6.626e-09
 22.48719     -1.6 1.813e+04 6.083e-09
 22.49403     -2.4 1.825e+04 6.151e-09
 22.50410     -4.4 1.782e+04 5.596e-09
 22.51417     -5.8 1.773e+04 5.402e-09
 22.52280     -9.3 1.654e+04 4.461e-09
 22.53292     -9.8 1.781e+04 4.885e-09
 22.54953    -14.7 1.664e+04 4.659e-09
 22.56967    -17.4 1.622e+04 4.593e-09
 22.58982    -19.4 1.624e+04 4.541e-09
 22.60404    -22.1 1.669e+04 3.980e-09
 22.61411    -24.4 1.760e+04 6.390e-09
 22.63011    -28.6 1.893e+04 5.341e-09
 22.65025    -34.1 1.670e+04 3.473e-09
 22.67040    -38.0 1.451e+04 2.638e-09
 22.68524    -39.2 1.396e+04 2.430e-09
 22.69531    -40.6 1.419e+04 2.576e-09
 22.71069    -41.5 1.411e+04 2.088e-09
 22.72589    -43.0 1.373e+04 1.596e-09
 22.73596    -43.1 1.373e+04 1.649e-09
 22.75098    -45.0 1.305e+04 1.267e-09
 22.76643    -46.9 1.252e+04 1.019e-09
 22.77651    -49.9 1.170e+04 7.549e-10
 22.79127    -52.1 1.190e+04 7.434e-10
 22.81142    -55.4 1.269e+04 8.681e-10
 22.83156    -59.1 1.358e+04 1.188e-09
 22.84763    -62.4 1.424e+04 1.704e-09
 22.85770    -65.4 1.434e+04 2.084e-09
 22.87186    -68.2 1.498e+04 2.835e-09
 22.89200    -71.9 1.597e+04 3.766e-09
 22.91215    -76.5 1.718e+04 4.975e-09
 22.92882    -82.0 1.833e+04 6.288e-09
 22.93890    -84.5 1.840e+04 6.158e-09
 22.95244    -91.1 1.856e+04 6.314e-09
 22.97258    -98.1 1.843e+04 5.820e-09
 22.99273   -105.6 1.747e+04 4.312e-09
 23.01002   -112.9 1.577e+04 2.864e-09
 23.02009   -113.7 1.502e+04 2.345e-09
 23.03302   -119.1 1.376e+04 1.529e-09
 23.05317   -123.7 1.282e+04 9.392e-10
 23.07331   -128.2 1.189e+04 5.457e-10
 23.08350   -132.4 1.105e+04 3.352e-10
 23.09133   -133.6 1.104e+04 3.291e-10
 23.10129   -133.6 1.105e+04 3.307e-10
 23.12377   -137.0 1.061e+04 2.442e-10
 23.16254   -140.8 1.045e+04 2.269e-10
 23.18268   -140.6 1.071e+04 2.729e-10
 23.20445   -144.6 1.064e+04 3.161e-10
 23.24475   -147.1 1.099e+04 4.370e-10
 23.28504   -148.6 1.130e+04 5.382e-10
 23.32493   -149.9 1.138e+04 5.626e-10
 23.34507   -148.4 1.134e+04 5.622e-10
 23.36562   -149.1 1.106e+04 4.691e-10
 23.40591   -149.4 1.074e+04 3.624e-10
 23.43124   -149.8 1.055e+04 3.140e-10
 23.45138   -152.1 1.016e+04 2.323e-10
 23.48649   -152.1 9.808e+03 1.876e-10
 23.50747   -151.9 9.478e+03 1.567e-10
 23.52761   -150.4 9.306e+03 1.258e-10
 23.56708   -149.3 9.026e+03 1.064e-10
 23.60737   -147.8 8.870e+03 9.861e-11
 23.64766   -146.2 8.795e+03 9.527e-11
 23.66986   -144.4 8.729e+03 9.230e-11
 23.69000   -143.0 8.603e+03 7.363e-11
 23.72824   -141.1 8.520e+03 7.161e-11
 23.76853   -138.9 8.441e+03 6.882e-11
 23.80882   -136.6 8.409e+03 6.655e-11
 23.83225   -134.2 8.414e+03 6.610e-11
 23.85240   -133.1 8.361e+03 6.193e-11
 23.88941   -131.1 8.412e+03 6.469e-11
 23.92970   -129.8 8.499e+03 7.456e-11
 23.96999   -129.1 9.293e+03 1.542e-10
 23.99464   -128.3 1.090e+04 3.991e-10
 24.01479   -127.6 1.062e+04 3.604e-10
 24.05057   -126.9 1.162e+04 6.972e-10
 24.09086   -126.7 1.247e+04 1.147e-09
 24.12098   -126.9 1.296e+04 1.518e-09
 24.13619   -126.6 1.330e+04 1.758e-09
 24.14627   -128.1 1.386e+04 2.047e-09
 24.15684   -128.1 1.421e+04 2.409e-09
 24.16691   -127.7 1.367e+04 1.790e-09
 24.18132   -127.8 1.411e+04 2.156e-09
 24.20147   -127.9 1.448e+04 2.668e-09
 24.22161   -127.9 1.485e+04 3.326e-09
 24.23803   -127.9 1.520e+04 4.056e-09
 24.24811   -128.3 1.510e+04 3.807e-09
 24.26191   -128.1 1.558e+04 4.987e-09
 24.28205   -127.7 1.604e+04 6.282e-09
 24.30220   -127.3 1.637e+04 7.432e-09
 24.31923   -126.9 1.650e+04 7.918e-09
 24.32930   -126.3 1.678e+04 8.618e-09
 24.34249   -125.8 1.678e+04 8.629e-09
 24.36263   -125.1 1.651e+04 7.441e-09
 24.38278   -124.4 1.590e+04 5.361e-09
 24.40043   -124.1 1.510e+04 3.584e-09
 24.41050   -123.8 1.505e+04 3.062e-09
 24.42307   -123.9 1.411e+04 1.993e-09
 24.44322   -124.2 1.333e+04 1.394e-09
 24.46336   -124.3 1.277e+04 1.073e-09
 24.48162   -124.2 1.246e+04 9.125e-10
 24.49170   -123.9 1.214e+04 7.765e-10
 24.49381   -123.5 1.196e+04 7.033e-10
 24.50388   -124.4 1.195e+04 6.516e-10
 24.52380   -123.9 1.194e+04 6.472e-10
 24.54394   -123.3 1.193e+04 6.489e-10
 24.56282   -122.9 1.194e+04 6.604e-10
 24.57289   -122.3 1.157e+04 5.267e-10
 24.58424   -121.9 1.160e+04 5.439e-10
 24.60438   -121.5 1.170e+04 5.976e-10
 24.62453   -121.2 1.192e+04 6.949e-10
 24.64401   -120.8 1.225e+04 8.455e-10
 24.65409   -119.9 1.158e+04 6.374e-10
 24.66482   -119.4 1.184e+04 7.802e-10
 24.68496   -118.9 1.217e+04 9.631e-10
 24.70511   -118.1 1.252e+04 1.176e-09
 24.72521   -117.2 1.284e+04 1.400e-09
 24.74536   -116.0 1.255e+04 1.318e-09
 24.76555   -115.1 1.284e+04 1.521e-09
 24.78569   -114.3 1.310e+04 1.687e-09
 24.80584   -113.6 1.332e+04 1.786e-09
 24.81648   -113.3 1.347e+04 1.822e-09
 24.82655   -112.1 1.329e+04 1.906e-09
 24.84135   -111.7 1.348e+04 1.966e-09
 24.85142   -112.4 1.338e+04 1.846e-09
 24.86627   -112.2 1.356e+04 1.887e-09
 24.88642   -112.1 1.377e+04 1.951e-09
 24.89768   -112.0 1.403e+04 2.041e-09
 24.90775   -111.0 1.373e+04 2.019e-09
 24.92671   -110.9 1.379e+04 2.004e-09
 24.94686   -110.7 1.388e+04 2.004e-09
 24.96700   -110.5 1.392e+04 2.010e-09
 24.97887   -110.2 1.380e+04 1.971e-09
 24.98894   -108.9 1.347e+04 1.847e-09
 25.01746   -108.7 1.324e+04 1.609e-09
 25.05785   -107.3 1.264e+04 1.126e-09
 25.09815   -106.0 1.207e+04 7.389e-10
 25.12827   -104.4 1.187e+04 6.154e-10
 25.14126   -103.9 1.160e+04 5.114e-10
 25.15143   -103.0 1.185e+04 6.271e-10
 25.16856   -102.1 1.167e+04 5.109e-10
 25.18861   -101.9 1.143e+04 4.479e-10
 25.19896   -101.3 1.118e+04 3.977e-10
 25.20903   -101.4 1.108e+04 3.631e-10
 25.22246   -100.5 1.102e+04 3.565e-10
 25.23253   -100.0 1.117e+04 3.806e-10
 25.24904    -99.4 1.110e+04 3.754e-10
 25.26919    -99.0 1.109e+04 3.756e-10
 25.28933    -98.4 1.104e+04 3.910e-10
 25.30366    -98.2 1.103e+04 4.111e-10
 25.31373    -97.5 1.104e+04 4.189e-10
 25.32962    -97.1 1.096e+04 4.417e-10
 25.34977    -96.8 1.098e+04 4.738e-10
 25.36992    -96.6 1.104e+04 5.165e-10
 25.38485    -96.4 1.114e+04 5.602e-10
 25.39492    -96.2 1.124e+04 5.443e-10
 25.41021    -96.3 1.140e+04 6.156e-10
 25.43035    -96.3 1.157e+04 6.833e-10
 25.45050    -96.3 1.171e+04 7.346e-10
 25.46605    -96.4 1.174e+04 7.543e-10
 25.47612    -96.1 1.188e+04 9.394e-10
 25.49079    -96.0 1.187e+04 9.452e-10
 25.51094    -95.8 1.175e+04 9.226e-10
 25.53108    -95.5 1.158e+04 8.755e-10
 25.54650    -95.3 1.145e+04 8.410e-10
 25.55259    -94.9 1.124e+04 7.239e-10
 25.55732    -94.1 1.126e+04 7.624e-10
 25.57137    -93.9 1.115e+04 7.237e-10
 25.59152    -93.7 1.109e+04 7.175e-10
 25.61166    -93.3 1.106e+04 7.198e-10
 25.62844    -92.9 1.104e+04 7.294e-10
 25.63851    -92.4 1.092e+04 6.713e-10
 25.65196    -91.9 1.090e+04 6.803e-10
 25.67210    -91.4 1.086e+04 6.824e-10
 25.69225    -91.0 1.078e+04 6.715e-10
 25.70964    -90.5 1.067e+04 6.429e-10
 25.71971    -90.1 1.067e+04 6.158e-10
 25.73254    -89.6 1.059e+04 5.979e-10
 25.75268    -89.2 1.048e+04 5.677e-10
 25.77283    -88.8 1.035e+04 5.244e-10
 25.79083    -88.5 1.022e+04 4.786e-10
 25.80090    -88.3 1.051e+04 5.606e-10
 25.81312    -88.1 1.046e+04 5.593e-10
 25.83327    -87.9 1.045e+04 5.704e-10
 25.85341    -87.7 1.048e+04 5.941e-10
 25.87203    -87.4 1.054e+04 6.255e-10
 25.88210    -87.3 1.099e+04 8.836e-10
 25.89370    -86.9 1.102e+04 9.498e-10
 25.90411    -86.3 1.102e+04 9.907e-10
 25.91418    -85.6 1.070e+04 7.926e-10
 25.93399    -85.0 1.070e+04 8.139e-10
 25.95322    -84.3 1.070e+04 8.224e-10
 25.96330    -83.9 1.109e+04 1.069e-09
 25.97429    -83.1 1.103e+04 1.034e-09
 25.99443    -82.4 1.103e+04 9.729e-10
 26.01458    -81.7 1.104e+04 9.013e-10
 26.03442    -81.0 1.104e+04 8.287e-10
 26.04449    -80.7 1.117e+04 8.836e-10
 26.05487    -80.1 1.110e+04 8.210e-10
 26.07501    -79.5 1.104e+04 7.690e-10
 26.09516    -78.8 1.100e+04 7.207e-10
 26.11530    -78.1 1.096e+04 6.732e-10
 26.12569    -77.5 1.093e+04 6.288e-10
 26.13576    -77.3 1.092e+04 6.289e-10
 26.15560    -76.6 1.088e+04 5.845e-10
 26.17574    -75.9 1.089e+04 5.555e-10
 26.19589    -75.1 1.091e+04 5.463e-10
 26.20688    -74.4 1.102e+04 5.736e-10
 26.21696    -74.1 1.096e+04 5.288e-10
 26.23618    -73.4 1.109e+04 5.648e-10
 26.25165    -72.4 1.119e+04 6.367e-10
 26.26172    -71.8 1.111e+04 6.366e-10
 26.27647    -70.9 1.121e+04 6.908e-10
 26.28808    -69.9 1.130e+04 7.564e-10
 26.29815    -70.0 1.119e+04 6.735e-10
 26.31676    -69.1 1.133e+04 7.628e-10
 26.33691    -68.5 1.167e+04 9.316e-10
 26.35705    -68.3 1.241e+04 1.272e-09
 26.36928    -68.4 1.362e+04 1.930e-09
 26.37935    -69.4 1.377e+04 2.036e-09
 26.39734    -69.5 1.495e+04 3.229e-09
 26.41749    -68.9 1.600e+04 4.893e-09
 26.43764    -68.2 1.698e+04 6.890e-09
 26.45047    -68.3 1.796e+04 8.797e-09
 26.46055    -70.3 1.747e+04 7.473e-09
 26.47793    -72.2 1.841e+04 8.648e-09
 26.49807    -75.6 1.966e+04 1.131e-08
 26.51822    -79.1 2.087e+04 1.567e-08
 26.53162    -81.0 2.126e+04 1.979e-08
 26.54169    -83.0 1.998e+04 1.245e-08
 26.55851    -86.3 2.000e+04 1.277e-08
 26.57865    -89.2 1.922e+04 1.146e-08
 26.59880    -91.3 1.785e+04 9.020e-09
 26.60926    -92.6 1.651e+04 6.855e-09
 26.61326    -91.4 1.677e+04 6.352e-09
 26.62294    -90.7 1.512e+04 3.565e-09
 26.63909    -91.5 1.408e+04 2.489e-09
 26.65924    -91.6 1.336e+04 1.817e-09
 26.67938    -91.4 1.286e+04 1.366e-09
 26.69406    -91.0 1.242e+04 1.035e-09
 26.70413    -90.1 1.211e+04 7.866e-10
 26.71967    -89.6 1.175e+04 6.344e-10
 26.73982    -89.0 1.148e+04 5.280e-10
 26.75997    -88.2 1.139e+04 4.671e-10
 26.77526    -87.4 1.142e+04 4.462e-10
 26.78533    -86.2 1.111e+04 3.598e-10
 26.80026    -85.4 1.113e+04 3.564e-10
 26.82040    -84.5 1.121e+04 3.553e-10
 26.84055    -83.9 1.145e+04 3.788e-10
 26.85645    -83.3 1.161e+04 4.396e-10
 26.86653    -82.5 1.140e+04 3.637e-10
 26.88084    -81.8 1.155e+04 4.321e-10
 26.90099    -81.0 1.161e+04 5.155e-10
 26.92113    -80.1 1.161e+04 6.025e-10
 26.93765    -79.0 1.158e+04 6.751e-10
 26.94772    -78.5 1.162e+04 6.253e-10
 26.95680    -77.6 1.161e+04 7.028e-10
 26.96688    -76.9 1.131e+04 4.848e-10
 26.98157    -75.9 1.134e+04 5.583e-10
 27.00171    -74.9 1.137e+04 6.168e-10
 27.01884    -74.0 1.141e+04 6.792e-10
 27.02892    -73.6 1.150e+04 7.024e-10
 27.04200    -72.8 1.165e+04 8.144e-10
 27.06215    -72.2 1.191e+04 9.649e-10
 27.08230    -71.9 1.226e+04 1.175e-09
 27.10004    -71.5 1.263e+04 1.466e-09
 27.11011    -71.0 1.288e+04 1.741e-09
 27.12259    -70.6 1.326e+04 2.194e-09
 27.14273    -70.1 1.354e+04 2.603e-09
 27.16288    -69.6 1.364e+04 2.786e-09
 27.18124    -69.3 1.363e+04 2.770e-09
 27.19131    -68.8 1.382e+04 2.986e-09
 27.20317    -68.6 1.358e+04 2.624e-09
 27.22332    -68.5 1.323e+04 2.107e-09
 27.24346    -68.8 1.280e+04 1.588e-09
 27.26243    -69.4 1.228e+04 1.182e-09
 27.27251    -69.5 1.266e+04 1.303e-09
 27.28375    -70.4 1.212e+04 1.009e-09
 27.30390    -71.4 1.176e+04 9.180e-10
 27.31442    -72.5 1.160e+04 9.084e-10
 27.32449    -71.4 1.387e+04 1.213e-09
 27.34363    -73.3 1.352e+04 1.113e-09
 27.35370    -73.9 1.432e+04 1.664e-09
 27.36434    -75.6 1.329e+04 1.658e-09
 27.38448    -76.2 1.288e+04 2.151e-09
 27.40463    -76.2 1.322e+04 2.625e-09
 27.42477    -75.8 1.346e+04 2.940e-09
 27.44492    -74.8 1.291e+04 2.544e-09
 27.46506    -74.1 1.264e+04 2.148e-09
 27.48521    -73.5 1.227e+04 1.665e-09
 27.50535    -73.1 1.189e+04 1.263e-09
 27.51609    -72.7 1.155e+04 9.803e-10
 27.52617    -72.5 1.101e+04 7.207e-10
 27.54565    -72.2 1.075e+04 5.915e-10
 27.56579    -71.7 1.059e+04 5.185e-10
 27.58594    -71.1 1.047e+04 4.810e-10
 27.59729    -70.3 1.038e+04 4.626e-10
 27.60736    -69.9 1.008e+04 3.923e-10
 27.62623    -68.9 1.008e+04 3.940e-10
 27.64637    -68.1 1.006e+04 4.002e-10
 27.66196    -66.9 1.004e+04 4.097e-10
 27.68220    -66.5 9.795e+03 3.563e-10
 27.71708    -64.3 9.810e+03 3.802e-10
 27.74980    -62.2 9.781e+03 3.959e-10
 27.76995    -61.2 9.682e+03 3.600e-10
 27.79766    -59.1 9.738e+03 3.820e-10
 27.83795    -57.3 9.856e+03 4.151e-10
 27.86807    -55.6 9.898e+03 4.370e-10
 27.88812    -54.9 9.914e+03 4.589e-10
 27.90827    -54.0 9.975e+03 4.889e-10
 27.92207    -53.2 1.006e+04 5.205e-10
 27.93215    -52.8 9.959e+03 5.043e-10
 27.94856    -51.9 1.007e+04 5.436e-10
 27.96870    -51.1 1.017e+04 5.813e-10
 27.98885    -50.2 1.027e+04 6.216e-10
 28.00327    -49.4 1.038e+04 6.716e-10
 28.01334    -49.0 1.032e+04 6.501e-10
 28.01957    -48.3 1.044e+04 7.040e-10
 28.02964    -48.3 1.036e+04 6.641e-10
 28.04929    -47.5 1.045e+04 7.076e-10
 28.06943    -46.8 1.057e+04 7.602e-10
 28.08447    -46.0 1.069e+04 8.165e-10
 28.09454    -46.0 1.065e+04 7.887e-10
 28.10972    -45.4 1.085e+04 8.699e-10
 28.12987    -44.9 1.105e+04 9.663e-10
 28.15002    -44.4 1.123e+04 1.077e-09
 28.16566    -43.7 1.137e+04 1.184e-09
 28.17573    -43.8 1.156e+04 1.309e-09
 28.19031    -42.9 1.164e+04 1.402e-09
 28.21045    -42.0 1.165e+04 1.428e-09
 28.23060    -41.1 1.159e+04 1.429e-09
 28.24686    -40.1 1.143e+04 1.350e-09
 28.25693    -40.0 1.160e+04 1.503e-09
 28.27089    -39.1 1.142e+04 1.351e-09
 28.29103    -38.3 1.120e+04 1.188e-09
 28.31118    -37.5 1.093e+04 1.037e-09
 28.32805    -36.7 1.066e+04 9.091e-10
 28.33813    -36.6 1.076e+04 9.550e-10
 28.35147    -35.6 1.051e+04 8.440e-10
 28.36711    -34.3 1.033e+04 7.605e-10
 28.37718    -34.0 1.027e+04 7.266e-10
 28.39176    -32.9 1.013e+04 6.542e-10
 28.40925    -31.9 9.962e+03 5.872e-10
 28.41932    -31.8 1.006e+04 6.272e-10
 28.43205    -30.8 9.937e+03 5.934e-10
 28.45220    -29.6 9.896e+03 5.840e-10
 28.47235    -28.6 1.003e+04 6.206e-10
 28.49045    -27.8 1.027e+04 7.005e-10
 28.50052    -27.5 1.038e+04 7.749e-10
 28.51264    -26.5 1.064e+04 8.847e-10
 28.53278    -25.2 1.103e+04 1.023e-09
 28.55293    -24.4 1.146e+04 1.205e-09
 28.57164    -23.7 1.182e+04 1.447e-09
 28.58181    -23.3 1.108e+04 1.008e-09
 28.59332    -21.8 1.208e+04 1.615e-09
 28.61337    -20.9 1.237e+04 1.835e-09
 28.63351    -20.0 1.259e+04 2.080e-09
 28.65284    -19.1 1.271e+04 2.319e-09
 28.66291    -18.7 1.242e+04 1.860e-09
 28.67380    -17.5 1.279e+04 2.266e-09
 28.69395    -16.8 1.307e+04 2.514e-09
 28.71409    -16.1 1.331e+04 2.781e-09
 28.72472    -15.4 1.359e+04 3.043e-09
 28.73459    -14.7 1.232e+04 1.891e-09
 28.74411    -14.6 1.222e+04 1.539e-09
 28.75438    -13.8 1.264e+04 1.950e-09
 28.77453    -13.3 1.294e+04 2.189e-09
 28.79468    -12.3 1.317e+04 2.538e-09
 28.81482    -11.3 1.321e+04 2.697e-09
 28.82530    -10.0 1.326e+04 2.743e-09
 28.83538     -9.9 1.371e+04 3.383e-09
 28.85511     -8.6 1.376e+04 3.470e-09
 28.87526     -7.4 1.379e+04 3.379e-09
 28.89540     -6.5 1.379e+04 3.148e-09
 28.90650     -5.8 1.376e+04 2.863e-09
 28.91657     -5.4 1.451e+04 3.980e-09
 28.93570     -4.9 1.449e+04 3.605e-09
 28.95584     -4.7 1.416e+04 3.127e-09
 28.97599     -4.6 1.368e+04 2.725e-09
 28.98770     -4.4 1.330e+04 2.505e-09
 28.99777     -3.6 1.420e+04 3.325e-09
 29.01628     -4.0 1.357e+04 2.830e-09
 29.03642     -4.3 1.321e+04 2.637e-09
 29.05657     -4.2 1.313e+04 2.697e-09
 29.06889     -3.7 1.314e+04 2.810e-09
 29.07451     -3.5 1.342e+04 3.135e-09
 29.08234     -3.3 1.345e+04 3.204e-09
 29.09686     -2.4 1.357e+04 3.318e-09
 29.11701     -1.7 1.365e+04 3.359e-09
 29.13715     -1.0 1.362e+04 3.259e-09
 29.15009     -0.4 1.349e+04 3.066e-09
 29.16016     -0.3 1.360e+04 3.141e-09
 29.17744      0.3 1.333e+04 2.852e-09
 29.19759      1.0 1.300e+04 2.526e-09
 29.21773      1.8 1.265e+04 2.188e-09
 29.23128      2.7 1.217e+04 1.812e-09
 29.24136      2.9 1.225e+04 1.884e-09
 29.25803      4.1 1.177e+04 1.536e-09
 29.27817      4.8 1.131e+04 1.256e-09
 29.29832      5.2 1.109e+04 1.169e-09
 29.31248      6.9 1.057e+04 8.888e-10
 29.32255      7.3 1.072e+04 9.671e-10
 29.33861      8.5 1.050e+04 8.433e-10
 29.35875      9.6 1.025e+04 7.064e-10
 29.37890     10.4 1.006e+04 6.260e-10
 29.39368     11.1 1.009e+04 6.239e-10
 29.40375     11.5 1.052e+04 7.341e-10
 29.41919     10.9 1.083e+04 8.534e-10
 29.42988     10.0 1.142e+04 1.134e-09
 29.43995      9.7 1.187e+04 1.326e-09
 29.45948      8.2 1.307e+04 2.149e-09
 29.47487      7.6 1.409e+04 3.820e-09
 29.48494      7.9 1.483e+04 4.722e-09
 29.49469      7.9 1.535e+04 5.914e-09
 29.50471      7.6 1.563e+04 6.199e-09
 29.51987      8.0 1.665e+04 8.011e-09
 29.54006      7.4 1.732e+04 7.535e-09
 29.55607      5.4 1.664e+04 4.999e-09
 29.56614      4.4 1.655e+04 4.505e-09
 29.58036     -0.8 1.420e+04 2.593e-09
 29.60050     -4.0 1.261e+04 1.933e-09
 29.62065     -4.5 1.219e+04 1.753e-09
 29.63726     -4.2 1.195e+04 1.586e-09
 29.64734     -4.7 1.210e+04 1.743e-09
 29.66094     -4.1 1.193e+04 1.535e-09
 29.68108     -4.0 1.175e+04 1.301e-09
 29.70123     -4.1 1.152e+04 1.103e-09
 29.71846     -4.2 1.130e+04 9.626e-10
 29.72853     -4.5 1.173e+04 1.189e-09
 29.74152     -4.6 1.162e+04 1.083e-09
 29.76167     -4.7 1.157e+04 1.038e-09
 29.77742     -5.0 1.163e+04 1.045e-09
 29.78749     -5.5 1.163e+04 1.023e-09
 29.79966     -6.3 1.214e+04 1.187e-09
 29.80973     -7.4 1.269e+04 1.569e-09
 29.82210     -8.7 1.330e+04 2.003e-09
 29.84225     -9.9 1.374e+04 2.638e-09
 29.86240    -10.2 1.401e+04 3.413e-09
 29.88085    -10.1 1.421e+04 3.943e-09
 29.89092    -10.1 1.414e+04 3.796e-09
 29.90269     -9.6 1.411e+04 3.816e-09
 29.92283     -8.9 1.391e+04 3.393e-09
 29.94298     -8.6 1.351e+04 2.633e-09
 29.96205     -8.8 1.294e+04 1.932e-09
 29.97212    -10.2 1.237e+04 1.520e-09
 29.98327    -10.8 1.196e+04 1.293e-09
 30.01359    -10.4 1.200e+04 1.325e-09
 30.04334    -10.8 1.154e+04 1.086e-09
 30.06349    -11.5 1.193e+04 1.208e-09
 30.08409    -13.4 1.290e+04 1.308e-09
 30.10414    -17.3 1.458e+04 2.327e-09
 30.12429    -19.7 1.541e+04 4.206e-09
 30.13451    -20.5 1.568e+04 6.567e-09
 30.13518    -20.9 1.537e+04 5.966e-09
 30.14510    -20.6 1.613e+04 8.456e-09
 30.16458    -20.2 1.661e+04 1.057e-08
 30.18473    -19.8 1.658e+04 1.050e-08
 30.20487    -19.1 1.583e+04 6.664e-09
 30.21571    -19.4 1.448e+04 2.907e-09
 30.22578    -19.1 1.478e+04 3.510e-09
 30.24516    -24.0 1.266e+04 1.405e-09
 30.26531    -27.3 1.034e+04 6.792e-10
 30.28545    -27.9 9.516e+03 5.079e-10
 30.29690    -28.0 9.246e+03 4.224e-10
 30.30698    -27.9 9.475e+03 4.910e-10
 30.32575    -27.5 9.210e+03 4.153e-10
 30.34589    -27.1 9.077e+03 3.726e-10
 30.36604    -26.9 9.017e+03 3.525e-10
 30.37810    -26.6 8.978e+03 3.449e-10
 30.38817    -26.4 9.236e+03 4.095e-10
 30.40633    -25.9 9.233e+03 4.085e-10
 30.42647    -25.5 9.272e+03 4.220e-10
 30.44662    -25.0 9.315e+03 4.432e-10
 30.45930    -24.6 9.321e+03 4.540e-10
 30.46937    -23.9 9.648e+03 5.586e-10
 30.48257    -23.5 9.636e+03 5.592e-10
 30.49264    -24.0 9.695e+03 5.822e-10
 30.50706    -23.7 9.601e+03 5.734e-10
 30.52720    -23.6 9.435e+03 5.419e-10
 30.54049    -24.2 9.727e+03 5.465e-10
 30.55057    -22.7 9.718e+03 6.166e-10
 30.56749    -25.2 1.144e+04 6.917e-10
 30.58764    -33.5 1.653e+04 1.618e-09
 30.60778    -40.7 1.801e+04 5.154e-09
 30.62169    -45.1 1.959e+04 1.034e-08
 30.62668    -44.2 1.964e+04 9.469e-09
 30.63287    -46.0 2.062e+04 1.202e-08
 30.64294    -49.7 2.333e+04 2.203e-08
 30.65301    -52.6 2.597e+04 3.597e-08
 30.66128    -55.1 2.719e+04 4.983e-08
 30.66542    -50.8 2.454e+04 2.762e-08
 30.66723    -50.5 2.424e+04 3.338e-08
 30.67316    -52.7 2.600e+04 4.238e-08
 30.68323    -55.3 2.663e+04 4.492e-08
 30.69331    -58.1 2.629e+04 4.187e-08
 30.70279    -60.8 2.372e+04 3.208e-08
 30.70782    -59.5 2.472e+04 3.406e-08
 30.71345    -61.9 2.188e+04 2.574e-08
 30.72352    -62.6 2.066e+04 2.253e-08
 30.73360    -62.5 2.044e+04 2.134e-08
 30.74339    -62.2 2.045e+04 2.013e-08
 30.74842    -62.8 1.982e+04 1.513e-08
 30.75374    -62.8 1.973e+04 1.468e-08
 30.76890    -62.4 1.993e+04 1.557e-08
 30.78408    -61.6 2.022e+04 1.548e-08
 30.79415    -62.4 1.937e+04 7.221e-09
 30.80924    -62.0 1.992e+04 6.951e-09
 30.82939    -61.7 2.082e+04 7.271e-09
 30.84018    -61.5 2.151e+04 8.058e-09
 30.84517    -60.7 2.170e+04 9.231e-09
 30.85447    -61.0 2.191e+04 9.361e-09
 30.86454    -61.3 2.197e+04 9.285e-09
 30.87022    -61.5 2.153e+04 1.037e-08
 30.87530    -61.9 2.069e+04 3.996e-09
 30.88982    -61.6 2.045e+04 4.649e-09
 30.90997    -60.7 2.000e+04 5.228e-09
 30.93011    -59.5 1.962e+04 5.105e-09
 30.94647    -58.8 1.895e+04 4.465e-09
 30.95655    -59.2 1.562e+04 1.276e-09
 30.97041    -58.6 1.458e+04 1.223e-09
 30.99055    -57.7 1.374e+04 1.198e-09
 31.01070    -56.7 1.306e+04 1.134e-09
 31.02767    -55.8 1.256e+04 1.073e-09
 31.03784    -56.3 1.045e+04 5.375e-10
 31.05109    -54.9 1.091e+04 6.423e-10
 31.07113    -54.0 1.082e+04 6.102e-10
 31.10145    -53.0 1.054e+04 5.404e-10
 31.14184    -50.7 1.036e+04 4.584e-10
 31.17784    -48.4 1.017e+04 3.892e-10
 31.19604    -48.7 1.123e+04 4.746e-10
 31.20033    -47.1 1.016e+04 3.738e-10
 31.22242    -44.8 1.009e+04 3.438e-10
 31.26271    -42.4 1.011e+04 3.266e-10
 31.30300    -40.1 1.026e+04 3.336e-10
 31.34258    -37.8 1.049e+04 3.874e-10
 31.36272    -36.2 1.014e+04 3.367e-10
 31.38359    -34.0 1.035e+04 3.891e-10
 31.42388    -31.7 1.052e+04 4.617e-10
 31.46417    -29.4 1.068e+04 5.204e-10
 31.50446    -27.3 1.086e+04 5.634e-10
 31.52511    -25.6 1.103e+04 6.097e-10
 31.54526    -24.3 1.100e+04 5.963e-10
 31.58504    -22.8 1.125e+04 7.021e-10
 31.62533    -21.3 1.138e+04 8.331e-10
 31.66563    -19.5 1.134e+04 8.759e-10
 31.68751    -17.4 1.122e+04 7.983e-10
 31.69748    -17.1 1.148e+04 9.054e-10
 31.71579    -16.7 1.134e+04 8.580e-10
 31.73594    -15.4 1.107e+04 6.852e-10
 31.75609    -14.5 1.084e+04 5.344e-10
 31.76851    -13.7 1.055e+04 3.964e-10
 31.77858    -13.2 1.070e+04 4.322e-10
 31.79638    -12.7 1.047e+04 3.382e-10
 31.82669    -12.0 1.033e+04 2.724e-10
 31.84990    -11.0 1.013e+04 2.230e-10
 31.87004     -9.9 1.033e+04 2.570e-10
 31.89307     -8.6 1.030e+04 2.489e-10
 31.91321    -10.4 1.063e+04 2.824e-10
 31.93100     -9.5 1.044e+04 3.398e-10
 31.94097     -9.6 1.073e+04 3.598e-10
 31.95754     -9.6 1.054e+04 4.369e-10
 31.97769     -8.6 1.044e+04 5.716e-10
 31.99783     -7.6 1.048e+04 6.704e-10
 32.01209     -6.3 1.066e+04 7.653e-10
 32.02217     -6.3 1.113e+04 1.070e-09
 32.03812     -5.2 1.156e+04 1.128e-09
 32.05827     -4.8 1.186e+04 1.126e-09
 32.07842     -4.8 1.219e+04 1.052e-09
 32.09329     -5.4 1.224e+04 9.782e-10
 32.10336     -5.5 1.278e+04 1.387e-09
 32.11871     -6.6 1.233e+04 1.263e-09
 32.13885     -7.2 1.196e+04 1.254e-09
 32.15900     -7.3 1.176e+04 1.325e-09
 32.17449     -7.0 1.172e+04 1.374e-09
 32.18456     -6.8 1.186e+04 1.500e-09
 32.19929     -6.6 1.181e+04 1.421e-09
 32.21944     -6.4 1.165e+04 1.301e-09
 32.23958     -6.3 1.141e+04 1.157e-09
 32.25049     -5.9 1.113e+04 9.926e-10
 32.25651     -6.0 1.106e+04 9.747e-10
 32.26575     -5.9 1.092e+04 8.952e-10
 32.27987     -5.3 1.059e+04 6.735e-10
 32.30002     -5.3 1.016e+04 4.650e-10
 32.32016     -5.3 9.855e+03 3.589e-10
 32.33698     -5.2 9.578e+03 2.831e-10
 32.35722     -4.7 9.424e+03 2.622e-10
 32.39087     -3.9 8.925e+03 1.757e-10
 32.43116     -3.2 8.780e+03 1.471e-10
 32.47145     -2.7 8.762e+03 1.433e-10
 32.49947     -2.6 8.850e+03 1.738e-10
 32.51961     -1.7 8.842e+03 1.781e-10
 32.55203     -1.4 8.981e+03 2.372e-10
 32.58815     -0.9 9.128e+03 2.965e-10
 32.60829     -0.9 8.920e+03 2.425e-10
 32.63262     -0.5 9.099e+03 2.847e-10
 32.66186     -0.6 9.232e+03 3.168e-10
 32.68200      0.1 9.233e+03 3.185e-10
 32.71320     -0.2 9.404e+03 3.662e-10
 32.75349     -0.4 9.600e+03 4.522e-10
 32.79378      0.0 9.830e+03 5.684e-10
 32.82425      1.1 1.000e+04 6.347e-10
 32.84440      1.6 9.726e+03 5.608e-10
 32.87436      2.7 9.649e+03 5.309e-10
 32.91466      3.7 9.365e+03 4.470e-10
 32.95495      4.9 9.033e+03 3.488e-10
 32.98664      5.9 8.802e+03 2.846e-10
 33.00679      6.3 8.586e+03 2.393e-10
 33.03553      7.3 8.522e+03 2.188e-10
 33.07582      8.1 8.624e+03 2.304e-10
 33.11611      8.8 8.875e+03 2.932e-10
 33.14903      9.8 9.203e+03 3.754e-10
 33.16918     10.2 8.839e+03 2.991e-10
 33.19669     11.2 9.082e+03 3.486e-10
 33.23699     11.7 9.337e+03 3.941e-10
 33.27728     11.7 9.852e+03 5.124e-10
 33.30337     11.9 1.036e+04 6.903e-10
 33.31738     10.1 1.134e+04 1.181e-09
 33.33157     10.2 1.135e+04 1.148e-09
 33.35786     11.3 1.181e+04 1.490e-09
 33.39815     12.4 1.175e+04 1.479e-09
 33.43844     12.9 1.122e+04 1.042e-09
 33.47382     12.3 1.042e+04 6.482e-10
 33.49396     12.2 1.080e+04 8.306e-10
 33.50885     12.5 1.016e+04 5.820e-10
 33.52890     13.1 1.002e+04 5.158e-10
 33.55922     13.2 9.762e+03 4.011e-10
 33.59961     14.2 9.239e+03 2.566e-10
 33.63621     14.8 8.999e+03 1.962e-10
 33.65636     14.9 8.968e+03 2.027e-10
 33.68019     15.9 9.061e+03 2.109e-10
 33.72048     16.7 9.341e+03 3.048e-10
 33.76077     18.8 9.774e+03 4.495e-10
 33.79860     21.0 1.002e+04 5.319e-10
 33.81875     21.6 9.987e+03 5.261e-10
 33.84136     23.3 9.950e+03 4.529e-10
 33.88165     24.4 9.743e+03 3.529e-10
 33.92194     24.8 9.625e+03 2.981e-10
 33.96099     25.6 9.601e+03 3.000e-10
 33.98114     26.1 9.341e+03 2.604e-10
 33.99845     27.1 9.546e+03 3.043e-10
 34.01860     26.6 9.415e+03 2.629e-10
 34.04281     27.8 9.717e+03 2.954e-10
 34.08310     28.4 1.001e+04 3.344e-10
 34.11322     28.2 1.033e+04 3.918e-10
 34.13326     27.1 1.089e+04 4.747e-10
 34.15341     26.5 1.114e+04 6.879e-10
 34.17356     26.1 1.136e+04 8.021e-10
 34.19371     26.2 1.130e+04 9.505e-10
 34.21385     26.4 1.136e+04 9.723e-10
 34.22453     26.2 1.154e+04 8.503e-10
 34.23461     26.5 1.162e+04 8.812e-10
 34.25415     25.8 1.115e+04 7.155e-10
 34.28446     24.8 1.080e+04 5.150e-10
 34.30592     22.6 1.032e+04 2.962e-10
 34.32607     22.4 1.026e+04 3.040e-10
 34.36514     20.6 9.973e+03 2.602e-10
 34.40543     18.8 1.025e+04 3.609e-10
 34.44572     17.1 1.113e+04 6.122e-10
 34.46832     15.7 1.199e+04 9.742e-10
 34.48846     17.0 1.154e+04 7.274e-10
 34.52631     14.6 1.242e+04 1.157e-09
 34.54941     12.0 1.322e+04 2.135e-09
 34.55939     12.3 1.308e+04 1.997e-09
 34.57648     11.7 1.336e+04 2.530e-09
 34.59662     11.5 1.370e+04 3.122e-09
 34.61677     10.9 1.414e+04 3.454e-09
 34.63051      8.9 1.504e+04 3.796e-09
 34.64059      8.3 1.553e+04 4.127e-09
 34.65706      4.8 1.627e+04 4.737e-09
 34.67720      1.6 1.610e+04 5.177e-09
 34.69735      0.1 1.493e+04 5.211e-09
 34.71171     -0.1 1.423e+04 4.678e-09
 34.71777      0.6 1.406e+04 4.394e-09
 34.72356      0.1 1.367e+04 3.609e-09
 34.73764      0.9 1.317e+04 2.362e-09
 34.75779     -0.0 1.236e+04 1.238e-09
 34.77793     -3.4 1.090e+04 5.803e-10
 34.79290     -6.1 9.543e+03 3.361e-10
 34.80298     -7.2 9.142e+03 2.777e-10
 34.81822     -7.7 8.929e+03 2.516e-10
 34.84854     -7.3 8.845e+03 2.429e-10
 34.88893     -6.6 8.948e+03 2.691e-10
 34.92922     -6.0 9.262e+03 3.455e-10
 34.95549     -5.1 9.576e+03 4.333e-10
 34.97564     -5.6 9.637e+03 4.778e-10
 35.00980     -4.7 9.694e+03 4.748e-10
 35.05009     -4.1 9.512e+03 3.840e-10
 35.09039     -3.6 9.227e+03 2.975e-10
 35.11788     -3.0 9.008e+03 2.404e-10
 35.13803     -4.0 9.059e+03 2.474e-10
 35.17097     -3.4 8.949e+03 2.218e-10
 35.21126     -2.6 8.910e+03 2.149e-10
 35.25155     -1.9 8.993e+03 2.250e-10
 35.28028     -1.1 9.122e+03 2.427e-10
 35.30042     -2.1 9.238e+03 2.614e-10
 35.33213     -1.5 9.262e+03 2.434e-10
 35.37242     -1.0 9.313e+03 2.205e-10
 35.40876     -1.2 9.435e+03 2.025e-10
 35.42891     -1.5 9.412e+03 1.988e-10
 35.44267     -2.1 9.515e+03 1.940e-10
 35.46281     -4.1 9.348e+03 1.718e-10
 35.49330     -5.2 9.557e+03 2.252e-10
 35.53359     -5.7 9.767e+03 3.025e-10
 35.57388     -5.8 9.941e+03 3.522e-10
 35.60506     -6.1 9.953e+03 3.507e-10
 35.62521     -7.4 9.974e+03 3.278e-10
 35.65446     -8.9 9.671e+03 2.663e-10
 35.69476    -11.5 9.572e+03 2.277e-10
 35.73505    -13.7 9.787e+03 2.625e-10
 35.76745    -14.7 1.002e+04 3.662e-10
 35.78760    -15.2 1.008e+04 3.835e-10
 35.81563    -15.9 1.012e+04 3.961e-10
 35.85592    -17.0 1.008e+04 3.861e-10
 35.89621    -18.1 1.003e+04 3.842e-10
 35.92984    -18.8 1.007e+04 4.293e-10
 35.94999    -19.2 1.014e+04 4.459e-10
 35.97679    -19.2 1.026e+04 5.066e-10
 36.01709    -19.1 1.029e+04 5.293e-10
 36.05738    -19.0 1.019e+04 4.905e-10
 36.09224    -19.1 9.967e+03 4.122e-10
 36.11238    -19.3 9.934e+03 3.997e-10
 36.12399    -19.6 9.810e+03 3.665e-10
 36.14413    -20.9 9.815e+03 3.718e-10
 36.17825    -21.8 9.945e+03 3.879e-10
 36.20837    -22.6 1.035e+04 4.955e-10
 36.22842    -24.8 1.116e+04 7.358e-10
 36.24857    -27.7 1.231e+04 1.320e-09
 36.26451    -30.2 1.335e+04 2.242e-09
 36.27458    -30.1 1.348e+04 2.309e-09
 36.28886    -32.3 1.413e+04 3.362e-09
 36.30900    -34.2 1.425e+04 3.810e-09
 36.32915    -35.9 1.399e+04 3.545e-09
 36.34570    -38.0 1.323e+04 2.324e-09
 36.35577    -38.0 1.350e+04 2.459e-09
 36.36944    -41.6 1.228e+04 1.338e-09
 36.38958    -45.3 1.085e+04 7.997e-10
 36.40973    -47.4 1.003e+04 6.034e-10
 36.42690    -48.3 9.762e+03 5.184e-10
 36.43697    -48.8 9.917e+03 5.823e-10
 36.45002    -49.2 9.828e+03 5.092e-10
 36.47017    -49.7 9.817e+03 4.433e-10
 36.50048    -50.5 9.866e+03 4.073e-10
 36.54087    -51.3 9.646e+03 3.423e-10
 36.57941    -51.7 9.363e+03 2.921e-10
 36.59956    -52.3 9.502e+03 3.155e-10
 36.62145    -52.2 9.353e+03 2.902e-10
 36.66175    -51.9 9.283e+03 2.747e-10
 36.70204    -51.7 9.270e+03 2.682e-10
 36.74180    -51.5 9.347e+03 2.741e-10
 36.76195    -51.4 9.594e+03 3.265e-10
 36.78262    -51.4 9.732e+03 3.555e-10
 36.81907    -51.3 9.846e+03 3.917e-10
 36.83921    -51.1 9.770e+03 3.446e-10
 36.86320    -50.8 9.852e+03 3.852e-10
 36.90349    -50.1 9.839e+03 4.053e-10
 36.92434    -49.2 9.738e+03 3.920e-10
 36.94449    -49.4 9.920e+03 4.433e-10
 36.98408    -48.6 9.686e+03 3.284e-10
 37.02437    -47.4 9.284e+03 2.371e-10
 37.06466    -46.1 9.000e+03 1.861e-10
 37.08673    -44.7 8.933e+03 1.692e-10
 37.10688    -45.3 9.098e+03 1.978e-10
 37.14524    -43.9 9.191e+03 2.086e-10
 37.18553    -42.6 9.409e+03 2.446e-10
 37.22582    -41.4 9.652e+03 2.951e-10
 37.24913    -40.3 9.871e+03 3.477e-10
 37.26927    -41.0 1.010e+04 4.248e-10
 37.29624    -39.7 1.011e+04 4.347e-10
 37.31628    -39.5 1.012e+04 4.498e-10
 37.33013    -38.9 1.016e+04 4.788e-10
 37.34020    -39.0 1.017e+04 4.921e-10
 37.35658    -38.6 1.012e+04 4.707e-10
 37.38689    -38.3 1.002e+04 4.524e-10
 37.41152    -37.6 9.896e+03 4.240e-10
 37.43166    -37.9 9.590e+03 3.281e-10
 37.46757    -36.7 9.378e+03 2.778e-10
 37.50786    -35.4 9.232e+03 2.427e-10
 37.53429    -34.1 9.175e+03 2.290e-10
 37.55444    -33.0 9.383e+03 2.582e-10
 37.57391    -31.5 9.345e+03 2.582e-10
 37.59406    -31.5 9.207e+03 2.371e-10
 37.62874    -29.7 9.310e+03 2.622e-10
 37.66903    -27.9 9.431e+03 2.917e-10
 37.70932    -26.2 9.548e+03 3.289e-10
 37.73630    -24.5 9.685e+03 3.735e-10
 37.75645    -24.4 9.834e+03 4.238e-10
 37.78990    -22.8 1.002e+04 4.926e-10
 37.83019    -21.3 1.015e+04 5.353e-10
 37.87048    -19.9 1.024e+04 5.370e-10
 37.89869    -18.8 1.028e+04 5.226e-10
 37.91884    -19.5 1.097e+04 7.783e-10
 37.95107    -18.8 1.107e+04 8.252e-10
 37.99136    -18.0 1.134e+04 9.652e-10
 38.03165    -17.1 1.176e+04 1.217e-09
 38.06109    -16.8 1.236e+04 1.601e-09
 38.08123    -17.5 1.241e+04 1.637e-09
 38.10206    -17.6 1.302e+04 2.286e-09
 38.12211    -17.6 1.344e+04 2.754e-09
 38.14209    -17.5 1.391e+04 3.401e-09
 38.15216    -17.4 1.331e+04 2.417e-09
 38.16240    -17.2 1.356e+04 2.663e-09
 38.18255    -16.7 1.366e+04 2.795e-09
 38.20269    -16.3 1.360e+04 2.599e-09
 38.22284    -15.9 1.329e+04 2.063e-09
 38.23336    -15.7 1.291e+04 1.572e-09
 38.23969    -16.0 1.260e+04 1.386e-09
 38.24942    -16.9 1.179e+04 9.025e-10
 38.27340    -16.5 1.138e+04 7.181e-10
 38.31369    -16.2 1.123e+04 6.651e-10
 38.35398    -15.3 1.129e+04 7.169e-10
 38.38587    -14.3 1.139e+04 7.974e-10
 38.40602    -13.6 1.103e+04 5.852e-10
 38.43456    -12.5 1.099e+04 5.825e-10
 38.47485    -11.0 1.072e+04 4.372e-10
 38.51515     -9.7 1.036e+04 2.785e-10
 38.54826     -8.5 9.965e+03 1.828e-10
 38.56841     -7.7 1.014e+04 2.223e-10
 38.59573     -6.0 9.953e+03 1.632e-10
 38.63602     -4.3 9.830e+03 1.249e-10
 38.67631     -2.5 9.735e+03 1.051e-10
 38.71066     -0.6 9.654e+03 9.644e-11
 38.73080      0.1 9.813e+03 1.093e-10
 38.75689      2.1 9.674e+03 9.622e-11
 38.79718      4.3 9.597e+03 8.599e-11
 38.83748      6.5 9.659e+03 7.438e-11
 38.87305      8.2 9.737e+03 6.668e-11
 38.89319      8.6 9.779e+03 6.346e-11
 38.91806     10.2 9.869e+03 6.614e-11
 38.94460     11.7 9.722e+03 9.125e-11
 38.96474     11.9 9.732e+03 9.137e-11
 38.99864     13.7 9.915e+03 1.162e-10
 39.03544     15.2 1.014e+04 1.448e-10
 39.05558     15.8 1.016e+04 1.472e-10
 39.07922     17.2 1.024e+04 1.820e-10
 39.11951     18.8 1.029e+04 2.038e-10
 39.15981     20.3 1.026e+04 1.953e-10
 39.19783     22.0 1.033e+04 1.572e-10
 39.21798     22.1 1.036e+04 1.867e-10
 39.24039     23.4 1.062e+04 1.317e-10
 39.28068     23.7 1.080e+04 1.012e-10
 39.32097     23.5 1.087e+04 1.103e-10
 39.36022     22.0 1.134e+04 1.728e-10
 39.38037     21.7 1.168e+04 2.166e-10
 39.40155     21.2 1.176e+04 5.841e-10
 39.44185     22.2 1.214e+04 1.074e-09
 39.48214     21.7 1.259e+04 1.095e-09
 39.52243     21.2 1.251e+04 9.107e-10
 39.56272     21.2 1.214e+04 7.083e-10
 39.60301     22.3 1.184e+04 5.038e-10
 39.63968     23.4 1.173e+04 3.639e-10
 39.65982     22.9 1.165e+04 2.958e-10
 39.68359     24.4 1.147e+04 2.598e-10
 39.70515     26.3 1.142e+04 2.397e-10
 39.72530     26.6 1.146e+04 2.889e-10
 39.76418     28.7 1.145e+04 2.679e-10
 39.80447     30.7 1.148e+04 2.413e-10
 39.84476     32.4 1.151e+04 2.165e-10
 39.86755     34.2 1.149e+04 1.979e-10
 39.88769     34.6 1.165e+04 2.768e-10
 39.92534     36.2 1.160e+04 2.523e-10
 39.96563     37.8 1.156e+04 2.376e-10
 40.00592     39.4 1.155e+04 2.315e-10
 40.02994     41.0 1.155e+04 2.314e-10
 40.05008     41.2 1.166e+04 3.444e-10
 40.08651     42.9 1.156e+04 3.252e-10
 40.12680     44.7 1.141e+04 3.025e-10
 40.16709     46.4 1.127e+04 2.774e-10
 40.19233     48.2 1.113e+04 2.576e-10
 40.21247     48.2 1.119e+04 3.079e-10
 40.24767     49.9 1.106e+04 3.059e-10
 40.28796     51.7 1.090e+04 3.111e-10
 40.32825     53.3 1.080e+04 3.318e-10
 40.35472     55.0 1.069e+04 3.566e-10
 40.37487     55.1 1.071e+04 3.959e-10
 40.40884     56.6 1.066e+04 3.927e-10
 40.44913     58.2 1.051e+04 3.800e-10
 40.48942     59.6 1.038e+04 3.706e-10
 40.51711     60.8 1.032e+04 3.813e-10
 40.53726     60.7 1.048e+04 4.358e-10
 40.57000     61.8 1.056e+04 5.282e-10
 40.61029     62.7 1.071e+04 6.425e-10
 40.65058     63.0 1.080e+04 7.251e-10
 40.67951     62.8 1.085e+04 7.754e-10
 40.69965     62.7 1.161e+04 1.246e-09
 40.73117     61.9 1.180e+04 1.378e-09
 40.77146     60.0 1.191e+04 1.499e-09
 40.81175     57.6 1.175e+04 1.439e-09
 40.84190     56.0 1.106e+04 1.102e-09
 40.86204     56.8 1.125e+04 1.186e-09
 40.89233     56.0 1.012e+04 6.224e-10
 40.93262     55.1 9.085e+03 2.893e-10
 40.97291     54.4 8.367e+03 1.783e-10
 41.00429     54.8 8.139e+03 1.682e-10
 41.02444     55.9 8.256e+03 1.777e-10
 41.04998     56.9 8.234e+03 1.786e-10
 41.07013     57.0 8.184e+03 1.782e-10
 41.09379     58.3 8.167e+03 1.855e-10
 41.13408     59.6 8.162e+03 1.936e-10
 41.16668     60.8 8.151e+03 1.977e-10
 41.18683     61.6 8.349e+03 2.347e-10
 41.21466     62.8 8.424e+03 2.503e-10
 41.25495     63.6 8.549e+03 2.755e-10
 41.29524     64.1 8.733e+03 3.214e-10
 41.32907     64.5 8.868e+03 3.700e-10
 41.34922     65.3 9.166e+03 4.277e-10
 41.37583     65.6 9.180e+03 4.377e-10
 41.41612     66.0 9.075e+03 4.132e-10
 41.45641     66.7 8.765e+03 3.282e-10
 41.49147     67.4 8.357e+03 2.275e-10
 41.51161     68.0 8.571e+03 2.749e-10
 41.53699     68.4 8.175e+03 1.833e-10
 41.57728     68.7 8.023e+03 1.505e-10
 41.61758     69.2 8.046e+03 1.523e-10
 41.65386     69.6 8.200e+03 1.735e-10
 41.67400     70.0 8.429e+03 2.137e-10
 41.69816     70.4 8.702e+03 2.764e-10
 41.73845     71.0 8.978e+03 3.580e-10
 41.76521     71.6 9.146e+03 4.232e-10
 41.78535     71.1 9.213e+03 4.548e-10
 41.81625     71.6 9.196e+03 4.486e-10
 41.83640     72.0 9.310e+03 4.556e-10
 41.85932     72.5 9.259e+03 4.415e-10
 41.89961     73.0 9.199e+03 4.356e-10
 41.93991     73.7 9.101e+03 4.082e-10
 41.97864     74.4 9.021e+03 3.694e-10
 41.99879     74.8 9.361e+03 4.519e-10
 42.02049     75.6 9.354e+03 4.275e-10
 42.06078     76.2 9.342e+03 3.902e-10
 42.10107     76.2 9.322e+03 3.589e-10
 42.12272     76.4 9.352e+03 3.619e-10
 42.13270     76.0 9.410e+03 3.667e-10
 42.15091     75.8 9.435e+03 3.671e-10
 42.16098     76.2 9.760e+03 4.591e-10
 42.17139     75.9 9.997e+03 5.032e-10
 42.19153     75.7 1.013e+04 5.312e-10
 42.21168     75.2 1.015e+04 5.254e-10
 42.23182     74.3 1.021e+04 5.516e-10
 42.24218     73.4 1.033e+04 6.329e-10
 42.25225     73.9 1.078e+04 7.688e-10
 42.27211     73.0 1.096e+04 9.049e-10
 42.29226     72.2 1.122e+04 1.065e-09
 42.31240     71.4 1.153e+04 1.213e-09
 42.32338     70.3 1.179e+04 1.242e-09
 42.33345     70.4 1.243e+04 1.741e-09
 42.35270     69.4 1.241e+04 1.692e-09
 42.37284     68.0 1.220e+04 1.406e-09
 42.39299     67.3 1.197e+04 1.264e-09
 42.42330     66.5 1.172e+04 1.049e-09
 42.46029     65.0 1.092e+04 6.534e-10
 42.48043     65.1 1.072e+04 5.792e-10
 42.48596     64.7 9.980e+03 3.432e-10
 42.50611     64.4 1.019e+04 3.995e-10
 42.54427     64.5 9.913e+03 3.050e-10
 42.58457     64.7 9.767e+03 2.466e-10
 42.62486     65.1 9.731e+03 2.171e-10
 42.64836     65.6 9.737e+03 2.011e-10
 42.66850     66.1 1.013e+04 3.021e-10
 42.70544     66.7 1.005e+04 2.598e-10
 42.74573     67.2 9.933e+03 2.222e-10
 42.78602     67.6 9.991e+03 2.304e-10
 42.81075     67.6 1.027e+04 2.736e-10
 42.83089     67.8 1.028e+04 2.618e-10
 42.86661     67.0 1.072e+04 3.729e-10
 42.89185     66.2 1.113e+04 6.290e-10
 42.90182     66.4 1.108e+04 5.477e-10
 42.91677     66.4 1.135e+04 7.976e-10
 42.93692     66.8 1.158e+04 1.026e-09
 42.95707     67.0 1.173e+04 1.098e-09
 42.97294     66.9 1.173e+04 1.062e-09
 42.98302     66.9 1.159e+04 8.572e-10
 42.99736     66.6 1.160e+04 8.125e-10
 43.01750     65.9 1.155e+04 7.464e-10
 43.03765     65.1 1.142e+04 6.930e-10
 43.05414     64.5 1.126e+04 6.685e-10
 43.06421     64.5 1.111e+04 6.183e-10
 43.07794     64.3 1.102e+04 6.215e-10
 43.09808     64.1 1.098e+04 6.310e-10
 43.11823     64.0 1.090e+04 6.344e-10
 43.13534     63.9 1.080e+04 6.274e-10
 43.14541     64.0 1.070e+04 5.903e-10
 43.15852     63.9 1.061e+04 5.859e-10
 43.17532     63.9 1.052e+04 5.809e-10
 43.18539     64.1 1.038e+04 5.052e-10
 43.19881     64.2 1.033e+04 5.077e-10
 43.21653     64.3 1.033e+04 5.232e-10
 43.22661     64.3 1.026e+04 5.018e-10
 43.23910     64.4 1.031e+04 5.381e-10
 43.25925     64.4 1.043e+04 5.918e-10
 43.27940     64.4 1.058e+04 6.659e-10
 43.29773     64.5 1.074e+04 7.630e-10
 43.30780     64.7 1.054e+04 6.686e-10
 43.31969     64.8 1.071e+04 7.501e-10
 43.33983     64.5 1.103e+04 8.661e-10
 43.35998     63.1 1.192e+04 1.221e-09
 43.37892     60.2 1.347e+04 2.253e-09
 43.38900     60.1 1.336e+04 1.952e-09
 43.40027     57.4 1.474e+04 4.173e-09
 43.42042     57.6 1.514e+04 5.937e-09
 43.44056     58.1 1.503e+04 5.768e-09
 43.46012     58.3 1.452e+04 4.430e-09
 43.47019     57.7 1.512e+04 5.521e-09
 43.48085     56.8 1.466e+04 3.343e-09
 43.50100     53.4 1.367e+04 1.735e-09
 43.52114     48.6 1.171e+04 1.063e-09
 43.53293     47.2 1.071e+04 8.990e-10
 43.54300     47.6 1.056e+04 7.935e-10
 43.56143     47.1 1.062e+04 8.260e-10
 43.59175     47.4 1.036e+04 7.817e-10
 43.62271     48.1 1.002e+04 6.728e-10
 43.64285     47.0 9.821e+03 6.323e-10
 43.67243     47.9 9.523e+03 5.215e-10
 43.71272     48.7 9.284e+03 4.264e-10
 43.75301     49.4 9.142e+03 3.641e-10
 43.78510     50.2 9.165e+03 3.653e-10
 43.80525     49.3 9.013e+03 3.293e-10
 43.83360     49.6 9.175e+03 3.566e-10
 43.87059     49.4 9.671e+03 4.804e-10
 43.89074     50.4 1.020e+04 6.773e-10
 43.91418     50.0 1.107e+04 1.077e-09
 43.94749     49.6 1.176e+04 1.492e-09
 43.96764     47.1 1.127e+04 1.203e-09
 43.99476     46.2 1.117e+04 1.148e-09
 44.03505     45.1 1.076e+04 9.127e-10
 44.07534     43.0 1.026e+04 6.825e-10
 44.10988     40.8 9.690e+03 5.351e-10
 44.13003     38.6 8.928e+03 3.850e-10
 44.15593     37.6 8.379e+03 2.806e-10
 44.19622     36.9 8.076e+03 1.928e-10
 44.23651     36.5 7.795e+03 1.351e-10
 44.27228     36.5 7.512e+03 9.587e-11
 44.29242     37.0 7.500e+03 9.632e-11
 44.31709     37.5 7.350e+03 7.017e-11
 44.35738     37.9 7.305e+03 5.448e-11
 44.39767     38.5 7.311e+03 5.328e-11
 44.43467     39.3 7.350e+03 5.700e-11
 44.45481     40.1 7.368e+03 5.897e-11
 44.47826     41.2 7.415e+03 6.286e-11
 44.51855     42.5 7.476e+03 6.442e-11
 44.55884     43.8 7.571e+03 6.449e-11
 44.58582     44.8 7.702e+03 6.740e-11
 44.60389     45.0 7.601e+03 5.854e-11
 44.61721     45.7 7.551e+03 5.123e-11
 44.63942     46.3 7.756e+03 5.978e-11
 44.67971     47.2 7.912e+03 8.215e-11
 44.72000     48.5 7.983e+03 1.109e-10
 44.75945     49.8 8.016e+03 1.204e-10
 44.77960     50.3 7.857e+03 9.898e-11
 44.80059     51.2 7.833e+03 9.763e-11
 44.84088     51.9 7.771e+03 9.781e-11
 44.88117     52.5 7.739e+03 1.017e-10
 44.92146     53.3 7.708e+03 1.112e-10
 44.94199     54.2 7.666e+03 1.212e-10
 44.96214     55.0 7.557e+03 1.066e-10
 45.00204     56.1 7.521e+03 1.140e-10
 45.04233     57.5 7.470e+03 1.165e-10
 45.08263     59.0 7.406e+03 1.131e-10
 45.10438     60.6 7.307e+03 1.057e-10
 45.12453     61.3 7.339e+03 1.102e-10
 45.16321     63.0 7.218e+03 9.896e-11
 45.20350     64.8 7.080e+03 8.364e-11
 45.24379     66.6 6.944e+03 7.041e-11
 45.26677     68.4 6.812e+03 6.378e-11
 45.28374     69.2 6.822e+03 6.435e-11
 45.30104     69.5 6.776e+03 6.180e-11
 45.32437     71.4 6.714e+03 5.987e-11
 45.36467     73.6 6.719e+03 6.026e-11
 45.40496     75.9 6.749e+03 6.275e-11
 45.42917     78.2 6.813e+03 6.952e-11
 45.44931     79.0 6.818e+03 6.924e-11
 45.48554     81.5 6.917e+03 7.989e-11
 45.52583     84.1 7.050e+03 9.402e-11
 45.56612     86.8 7.224e+03 1.119e-10
 45.59156     89.6 7.443e+03 1.362e-10
 45.61170     90.5 7.543e+03 1.451e-10
 45.64670     93.5 7.823e+03 1.801e-10
 45.68700     96.6 8.171e+03 2.256e-10
 45.72729     99.8 8.606e+03 2.840e-10
 45.75395    102.9 9.079e+03 3.520e-10
 45.77410    103.7 9.253e+03 3.831e-10
 45.79770    105.2 9.380e+03 4.082e-10
 45.81775    106.2 9.426e+03 4.210e-10
 45.83495    108.3 9.641e+03 4.828e-10
 45.84502    109.2 9.825e+03 5.185e-10
 45.85804    111.4 1.022e+04 6.329e-10
 45.87818    113.6 1.059e+04 7.565e-10
 45.89833    115.9 1.090e+04 8.757e-10
 45.91615    118.1 1.116e+04 9.783e-10
 45.92622    118.7 1.153e+04 1.081e-09
 45.93862    120.8 1.186e+04 1.213e-09
 45.95877    122.8 1.219e+04 1.342e-09
 45.97891    123.5 1.305e+04 1.404e-09
 45.99397    121.1 1.750e+04 1.498e-09
 46.00087     91.3 5.812e+04 2.333e-09
 46.00419     70.1 6.077e+04 6.388e-09
 46.00732     67.5 5.767e+04 1.026e-08
 46.01153     47.6 3.649e+04 1.807e-07
 46.01654     38.4 2.271e+04 1.380e-06
 46.02158     31.4 1.886e+04 4.195e-06
 46.02505     30.1 1.788e+04 9.932e-06
 46.02757     35.7 1.802e+04 9.758e-06
 46.03165     37.0 1.659e+04 3.214e-05
 46.03668     39.2 1.626e+04 4.063e-05
 46.04172     43.7 1.692e+04 2.166e-05
 46.04535     49.3 1.787e+04 7.455e-06
 46.04787     48.6 2.161e+04 1.194e-06
 46.05434     45.2 3.318e+04 8.451e-08
 46.06443     32.9 6.192e+04 5.938e-09
 46.07451     33.7 7.033e+04 2.784e-09
 46.08348     11.5 9.188e+04 4.180e-10
 46.08856    -19.5 7.698e+04 3.520e-10
 46.09979    -54.6 1.362e+04 5.449e-10
 46.11993    -56.1 1.044e+04 6.054e-10
 46.14008    -54.0 1.064e+04 6.772e-10
 46.15974    -52.3 1.077e+04 7.359e-10
 46.16981    -51.9 1.124e+04 9.093e-10
 46.18037    -50.7 1.138e+04 9.725e-10
 46.20051    -49.5 1.147e+04 1.017e-09
 46.22066    -48.5 1.150e+04 1.043e-09
 46.24081    -47.6 1.151e+04 1.051e-09
 46.25100    -46.7 1.147e+04 1.052e-09
 46.26108    -47.2 1.181e+04 1.239e-09
 46.28110    -46.3 1.160e+04 1.146e-09
 46.30124    -45.4 1.134e+04 1.019e-09
 46.32139    -44.5 1.107e+04 8.840e-10
 46.33220    -43.8 1.079e+04 7.493e-10
 46.34227    -44.3 1.081e+04 7.613e-10
 46.35354    -43.7 1.051e+04 6.157e-10
 46.36361    -43.6 1.056e+04 6.711e-10
 46.38183    -43.1 1.029e+04 5.513e-10
 46.40197    -42.7 1.003e+04 4.541e-10
 46.41340    -42.3 9.824e+03 3.868e-10
 46.42357    -43.5 9.838e+03 3.774e-10
 46.45253    -43.1 9.713e+03 3.435e-10
 46.48265    -42.4 9.826e+03 3.670e-10
 46.49459    -42.6 1.012e+04 4.463e-10
 46.50467    -43.5 1.020e+04 4.786e-10
 46.52284    -43.5 1.051e+04 6.142e-10
 46.54299    -43.3 1.086e+04 7.843e-10
 46.56314    -43.0 1.120e+04 9.681e-10
 46.57579    -42.8 1.148e+04 1.117e-09
 46.58586    -43.3 1.139e+04 1.063e-09
 46.60343    -43.4 1.144e+04 1.079e-09
 46.62357    -43.5 1.135e+04 1.003e-09
 46.64372    -43.8 1.114e+04 8.483e-10
 46.65698    -44.4 1.093e+04 6.987e-10
 46.66706    -45.3 1.058e+04 5.559e-10
 46.68401    -46.0 1.044e+04 4.927e-10
 46.70108    -46.9 1.044e+04 4.620e-10
 46.71125    -45.1 1.050e+04 4.973e-10
 46.72830    -48.0 1.019e+04 3.950e-10
 46.74845    -48.2 9.174e+03 2.222e-10
 46.77486    -49.3 9.217e+03 2.774e-10
 46.81515    -49.8 9.591e+03 4.187e-10
 46.85544    -50.7 1.037e+04 6.341e-10
 46.88556    -54.0 1.127e+04 9.606e-10
 46.90057    -57.5 1.272e+04 1.513e-09
 46.91074    -54.2 1.161e+04 9.433e-10
 46.92586    -60.5 1.436e+04 2.559e-09
 46.94590    -63.0 1.649e+04 6.392e-09
 46.96605    -63.4 1.790e+04 1.265e-08
 46.98177    -63.8 1.885e+04 1.778e-08
 46.99184    -62.9 1.915e+04 1.936e-08
 47.00634    -65.0 1.935e+04 2.051e-08
 47.02649    -66.9 1.866e+04 1.596e-08
 47.04663    -69.2 1.714e+04 8.088e-09
 47.05869    -73.1 1.488e+04 3.678e-09
 47.06496    -73.0 1.458e+04 2.889e-09
 47.07304    -72.8 1.458e+04 2.898e-09
 47.08692    -77.2 1.223e+04 1.591e-09
 47.10707    -79.1 1.123e+04 1.119e-09
 47.12721    -79.8 1.071e+04 8.435e-10
 47.14416    -80.3 1.019e+04 6.295e-10
 47.15423    -80.1 1.020e+04 6.412e-10
 47.16751    -80.5 9.731e+03 4.854e-10
 47.18765    -80.8 9.408e+03 3.954e-10
 47.21538    -80.9 9.198e+03 3.449e-10
 47.23562    -80.6 9.196e+03 3.587e-10
 47.25836    -80.3 8.999e+03 3.100e-10
 47.29865    -79.4 8.892e+03 2.860e-10
 47.33894    -78.9 8.887e+03 2.832e-10
 47.37787    -79.0 8.914e+03 2.955e-10
 47.39802    -79.1 9.081e+03 3.167e-10
 47.40643    -79.7 9.700e+03 4.622e-10
 47.42658    -79.8 9.997e+03 5.341e-10
 47.45981    -80.5 1.072e+04 8.273e-10
 47.50010    -81.4 1.131e+04 1.148e-09
 47.54026    -82.7 1.154e+04 1.267e-09
 47.57038    -84.2 1.120e+04 1.089e-09
 47.59056    -84.6 1.102e+04 9.687e-10
 47.61071    -84.9 1.083e+04 8.410e-10
 47.63086    -85.2 1.064e+04 7.079e-10
 47.64141    -85.9 1.023e+04 5.226e-10
 47.65148    -86.1 1.014e+04 4.865e-10
 47.67115    -86.5 9.954e+03 4.077e-10
 47.70146    -86.9 9.689e+03 3.349e-10
 47.72280    -87.1 9.374e+03 2.570e-10
 47.74295    -87.1 9.438e+03 2.742e-10
 47.78214    -87.1 9.153e+03 2.144e-10
 47.82243    -87.2 8.962e+03 1.718e-10
 47.86273    -87.6 8.884e+03 1.426e-10
 47.88519    -88.4 8.915e+03 1.276e-10
 47.90534    -88.5 8.962e+03 1.387e-10
 47.94331    -89.4 8.988e+03 1.347e-10
 47.98360    -90.2 8.996e+03 1.333e-10
 48.02389    -90.6 9.013e+03 1.300e-10
 48.04759    -90.8 9.017e+03 1.215e-10
 48.06773    -91.0 9.096e+03 1.412e-10
 48.10151    -91.0 9.107e+03 1.205e-10
 48.12166    -91.2 9.226e+03 1.324e-10
 48.14476    -91.3 9.280e+03 1.269e-10
 48.18506    -91.5 9.379e+03 1.290e-10
 48.20998    -92.6 9.847e+03 1.931e-10
 48.23012    -92.6 9.742e+03 1.855e-10
 48.26564    -94.5 1.077e+04 4.083e-10
 48.30593    -96.6 1.195e+04 8.600e-10
 48.33605    -98.8 1.313e+04 1.604e-09
 48.35610    -99.9 1.345e+04 1.936e-09
 48.37217   -101.4 1.381e+04 2.463e-09
 48.38225   -101.4 1.373e+04 2.488e-09
 48.39639   -102.7 1.373e+04 2.527e-09
 48.41654   -103.8 1.352e+04 2.268e-09
 48.43668   -104.9 1.317e+04 1.800e-09
 48.45337   -106.1 1.281e+04 1.368e-09
 48.46344   -106.4 1.248e+04 1.081e-09
 48.46900   -107.7 1.214e+04 9.045e-10
 48.47907   -107.5 1.232e+04 1.079e-09
 48.49712   -108.5 1.216e+04 1.010e-09
 48.51726   -109.3 1.209e+04 9.927e-10
 48.53457   -109.9 1.208e+04 9.917e-10
 48.54464   -109.4 1.187e+04 8.780e-10
 48.55755   -109.9 1.191e+04 8.978e-10
 48.57770   -110.4 1.195e+04 9.367e-10
 48.59785   -110.7 1.197e+04 9.733e-10
 48.61576   -110.9 1.196e+04 9.957e-10
 48.62583   -110.2 1.186e+04 9.201e-10
 48.63814   -110.3 1.190e+04 9.611e-10
 48.65828   -110.3 1.190e+04 9.721e-10
 48.67843   -110.3 1.187e+04 9.681e-10
 48.69696   -110.3 1.179e+04 9.438e-10
 48.70703   -109.6 1.192e+04 9.633e-10
 48.71872   -109.6 1.181e+04 9.301e-10
 48.73887   -109.5 1.166e+04 8.761e-10
 48.75901   -109.5 1.149e+04 8.166e-10
 48.77815   -109.6 1.133e+04 7.588e-10
 48.78823   -108.9 1.148e+04 7.957e-10
 48.79930   -109.0 1.139e+04 7.603e-10
 48.81654   -109.0 1.138e+04 7.483e-10
 48.82661   -108.6 1.099e+04 6.374e-10
 48.83959   -108.5 1.092e+04 6.062e-10
 48.85935   -108.4 1.090e+04 5.906e-10
 48.86942   -107.6 1.106e+04 6.257e-10
 48.87989   -107.5 1.104e+04 6.123e-10
 48.90003   -107.5 1.105e+04 6.088e-10
 48.92018   -107.9 1.118e+04 6.357e-10
 48.94032   -108.8 1.155e+04 7.565e-10
 48.95062   -110.1 1.210e+04 1.008e-09
 48.96069   -110.4 1.261e+04 1.312e-09
 48.98061   -111.8 1.321e+04 1.922e-09
 49.00076   -113.0 1.367e+04 2.602e-09
 49.02090   -114.0 1.386e+04 3.030e-09
 49.03182   -114.9 1.388e+04 3.126e-09
 49.04189   -114.9 1.423e+04 3.691e-09
 49.06120   -115.3 1.387e+04 3.416e-09
 49.08134   -115.6 1.326e+04 2.486e-09
 49.10149   -115.9 1.253e+04 1.588e-09
 49.11301   -116.4 1.178e+04 9.714e-10
 49.12308   -116.3 1.169e+04 9.123e-10
 49.14178   -116.9 1.103e+04 5.753e-10
 49.16192   -117.2 1.057e+04 4.010e-10
 49.18423   -117.5 1.024e+04 3.091e-10
 49.20448   -116.9 1.028e+04 3.142e-10
 49.23263   -116.5 1.001e+04 2.554e-10
 49.27292   -115.5 9.687e+03 1.966e-10
 49.31321   -114.4 9.465e+03 1.588e-10
 49.34672   -113.4 9.341e+03 1.354e-10
 49.36687   -112.7 9.401e+03 1.493e-10
 49.39379   -111.7 9.304e+03 1.293e-10
 49.43409   -110.6 9.261e+03 1.178e-10
 49.47438   -109.7 9.262e+03 1.149e-10
 49.50911   -109.3 9.301e+03 1.151e-10
 49.52641   -109.1 9.435e+03 1.306e-10
 49.53196   -108.9 9.557e+03 1.316e-10
 49.55496   -109.0 9.863e+03 1.739e-10
 49.59525   -109.1 1.011e+04 2.521e-10
 49.63554   -109.2 1.031e+04 3.316e-10
 49.67151   -109.5 1.041e+04 3.704e-10
 49.69165   -109.3 1.046e+04 3.869e-10
 49.71612   -109.7 1.038e+04 3.771e-10
 49.75642   -109.8 1.022e+04 3.334e-10
 49.79671   -109.8 1.001e+04 2.820e-10
 49.83390   -109.8 9.824e+03 2.433e-10
 49.85404   -109.4 9.693e+03 2.152e-10
 49.87729   -108.9 9.547e+03 1.901e-10
 49.91758   -108.2 9.411e+03 1.632e-10
 49.95787   -107.5 9.282e+03 1.335e-10
 49.99629   -106.7 9.145e+03 1.059e-10
 50.01644   -106.0 9.043e+03 9.792e-11
 50.03846   -105.2 8.890e+03 8.549e-11
 50.07875   -104.3 8.791e+03 7.992e-11
 50.11904   -103.3 8.749e+03 7.808e-11
 50.15868   -102.2 8.763e+03 7.788e-11
 50.17883   -101.4 8.691e+03 7.789e-11
 50.19962   -100.2 8.711e+03 7.831e-11
 50.22704    -99.1 8.751e+03 8.317e-11
 50.24719    -98.9 8.826e+03 8.371e-11
 50.28020    -97.9 8.870e+03 9.776e-11
 50.32049    -96.7 8.888e+03 1.135e-10
 50.34122    -95.5 8.901e+03 1.290e-10
 50.36137    -94.8 8.860e+03 1.296e-10
 50.40108    -93.6 8.894e+03 1.499e-10
 50.44137    -92.4 8.950e+03 1.680e-10
 50.48166    -91.3 9.017e+03 1.867e-10
 50.50361    -90.3 9.139e+03 2.086e-10
 50.52376    -89.4 8.943e+03 1.714e-10
 50.56224    -88.5 9.011e+03 1.670e-10
 50.60253    -87.8 9.083e+03 1.650e-10
 50.64282    -87.3 9.111e+03 1.655e-10
 50.66600    -86.6 9.097e+03 1.649e-10
 50.68615    -85.7 8.772e+03 1.377e-10
 50.72341    -84.7 8.781e+03 1.390e-10
 50.76370    -83.5 8.785e+03 1.373e-10
 50.80399    -82.0 8.808e+03 1.337e-10
 50.82840    -80.5 8.893e+03 1.377e-10
 50.84854    -79.5 8.931e+03 1.531e-10
 50.88457    -78.0 9.085e+03 1.767e-10
 50.92212    -76.6 9.266e+03 2.114e-10
 50.94227    -76.1 8.966e+03 1.315e-10
 50.96515    -74.7 9.056e+03 1.461e-10
 50.99079    -73.4 9.207e+03 1.767e-10
 51.01093    -72.4 9.281e+03 2.099e-10
 51.04574    -71.1 9.454e+03 2.619e-10
 51.08603    -70.0 9.639e+03 3.108e-10
 51.12632    -69.2 9.766e+03 3.402e-10
 51.15318    -68.6 9.804e+03 3.487e-10
 51.17333    -67.7 9.878e+03 3.749e-10
 51.20690    -67.4 9.865e+03 3.594e-10
 51.24719    -67.2 9.747e+03 3.244e-10
 51.28749    -66.9 9.588e+03 2.849e-10
 51.31557    -66.4 9.407e+03 2.443e-10
 51.33572    -65.8 9.613e+03 2.850e-10
 51.36807    -65.1 9.490e+03 2.362e-10
 51.40836    -64.7 9.336e+03 1.980e-10
 51.44865    -64.3 9.275e+03 1.836e-10
 51.47796    -63.8 9.274e+03 1.824e-10
 51.49811    -63.9 9.376e+03 1.965e-10
 51.52923    -63.5 9.400e+03 2.038e-10
 51.56952    -63.2 9.458e+03 2.134e-10
 51.60982    -62.9 9.469e+03 2.138e-10
 51.63735    -62.6 9.448e+03 1.955e-10
 51.64774    -62.6 9.861e+03 3.088e-10
 51.66050    -62.8 9.827e+03 2.742e-10
 51.69040    -62.7 9.727e+03 2.299e-10
 51.73069    -62.5 9.645e+03 2.133e-10
 51.77098    -62.1 9.612e+03 2.114e-10
 51.80275    -61.5 9.560e+03 2.247e-10
 51.82289    -61.4 9.523e+03 2.040e-10
 51.85156    -60.5 9.557e+03 2.213e-10
 51.89185    -59.6 9.622e+03 2.407e-10
 51.93215    -59.0 9.834e+03 2.735e-10
 51.96514    -58.9 1.025e+04 3.506e-10
 51.98529    -59.6 1.051e+04 4.168e-10
 52.01273    -60.0 1.111e+04 6.330e-10
 52.05302    -60.3 1.164e+04 9.113e-10
 52.08314    -60.8 1.193e+04 1.081e-09
 52.10319    -61.3 1.197e+04 1.106e-09
 52.12333    -61.7 1.191e+04 1.075e-09
 52.13741    -61.9 1.171e+04 9.240e-10
 52.14748    -62.3 1.154e+04 7.923e-10
 52.16363    -62.6 1.128e+04 6.370e-10
 52.18377    -63.0 1.103e+04 5.068e-10
 52.21409    -63.5 1.072e+04 4.022e-10
 52.25448    -63.0 1.043e+04 3.416e-10
 52.28992    -62.2 1.025e+04 3.011e-10
 52.31007    -62.4 1.017e+04 2.678e-10
 52.33243    -61.6 1.012e+04 2.189e-10
 52.35257    -61.9 1.016e+04 1.792e-10
 52.37535    -61.4 1.016e+04 1.424e-10
 52.41564    -61.0 1.015e+04 1.151e-10
 52.45232    -60.8 1.023e+04 9.936e-11
 52.47246    -61.2 1.023e+04 9.346e-11
 52.49622    -61.1 1.034e+04 9.809e-11
 52.53652    -61.3 1.050e+04 1.125e-10
 52.57681    -61.5 1.059e+04 1.427e-10
 52.61471    -62.0 1.069e+04 1.916e-10
 52.63485    -62.1 1.069e+04 1.929e-10
 52.65739    -62.6 1.090e+04 2.613e-10
 52.69768    -63.3 1.124e+04 3.589e-10
 52.73797    -64.2 1.171e+04 4.947e-10
 52.76809    -66.0 1.216e+04 6.769e-10
 52.78698    -67.4 1.242e+04 8.428e-10
 52.79705    -68.0 1.265e+04 1.007e-09
 52.80829    -69.0 1.295e+04 1.205e-09
 52.82843    -70.0 1.317e+04 1.336e-09
 52.84858    -71.1 1.325e+04 1.374e-09
 52.86817    -72.1 1.330e+04 1.286e-09
 52.87825    -72.8 1.328e+04 1.228e-09
 52.88887    -73.9 1.298e+04 9.842e-10
 52.90901    -75.1 1.265e+04 7.799e-10
 52.92916    -76.1 1.230e+04 6.351e-10
 52.94931    -77.0 1.197e+04 5.397e-10
 52.96945    -78.1 1.160e+04 4.183e-10
 52.98960    -78.5 1.151e+04 3.934e-10
 53.01991    -78.8 1.137e+04 3.563e-10
 53.04765    -78.2 1.097e+04 2.759e-10
 53.06780    -77.5 1.076e+04 2.095e-10
 53.10059    -76.8 1.044e+04 1.599e-10
 53.12203    -75.9 1.029e+04 1.346e-10
 53.14218    -75.9 1.028e+04 1.350e-10
 53.18118    -74.8 1.026e+04 1.282e-10
 53.22147    -73.7 1.027e+04 1.275e-10
 53.26176    -72.9 1.030e+04 1.509e-10
 53.28442    -72.0 1.034e+04 2.112e-10
 53.30457    -72.3 1.044e+04 2.504e-10
 53.34234    -71.2 1.056e+04 3.229e-10
 53.38263    -70.1 1.068e+04 3.631e-10
 53.42292    -69.2 1.071e+04 3.661e-10
 53.44681    -68.3 1.065e+04 3.058e-10
 53.46696    -69.2 1.070e+04 2.653e-10
 53.50351    -68.5 1.050e+04 2.261e-10
 53.54380    -67.5 1.038e+04 2.194e-10
 53.58409    -66.1 1.030e+04 2.210e-10
 53.60921    -64.5 1.024e+04 2.503e-10
 53.62935    -65.2 1.034e+04 2.805e-10
 53.66467    -63.4 1.044e+04 3.266e-10
 53.70496    -61.9 1.072e+04 3.959e-10
 53.74273    -60.8 1.114e+04 5.175e-10
 53.76288    -61.3 1.114e+04 4.998e-10
 53.77160    -60.8 1.144e+04 6.111e-10
 53.79174    -62.2 1.164e+04 7.145e-10
 53.82584    -61.9 1.176e+04 8.720e-10
 53.86613    -61.8 1.175e+04 9.389e-10
 53.90642    -61.8 1.163e+04 9.287e-10
 53.93399    -61.8 1.130e+04 7.984e-10
 53.95414    -62.4 1.131e+04 8.313e-10
 53.98700    -62.3 1.109e+04 7.214e-10
 54.02729    -62.4 1.103e+04 6.770e-10
 54.06758    -62.7 1.118e+04 7.058e-10
 54.09638    -63.4 1.178e+04 8.657e-10
 54.10636    -62.9 1.200e+04 9.855e-10
 54.11022    -63.9 1.241e+04 1.138e-09
 54.12030    -64.2 1.239e+04 1.210e-09
 54.13790    -65.6 1.295e+04 1.540e-09
 54.15804    -67.2 1.332e+04 1.793e-09
 54.17738    -68.7 1.342e+04 1.853e-09
 54.18746    -70.0 1.403e+04 2.475e-09
 54.19834    -71.0 1.354e+04 2.055e-09
 54.21848    -72.1 1.277e+04 1.248e-09
 54.23863    -73.6 1.187e+04 6.815e-10
 54.25858    -75.2 1.106e+04 3.990e-10
 54.26865    -76.3 1.087e+04 3.843e-10
 54.27892    -77.1 1.050e+04 2.818e-10
 54.30923    -77.4 1.033e+04 2.368e-10
 54.34962    -76.1 1.002e+04 1.820e-10
 54.38991    -74.0 9.856e+03 1.460e-10
 54.42117    -72.0 9.854e+03 1.368e-10
 54.44131    -73.4 9.963e+03 1.485e-10
 54.45796    -73.0 9.901e+03 1.755e-10
 54.47810    -74.8 9.829e+03 1.771e-10
 54.51079    -77.9 1.187e+04 4.443e-10
 54.54091    -80.8 1.345e+04 1.026e-09
 54.56096    -83.5 1.559e+04 2.301e-09
 54.58110    -85.7 1.697e+04 4.744e-09
 54.59344    -87.5 1.751e+04 7.013e-09
 54.60351    -90.3 1.739e+04 7.875e-09
 54.62139    -92.0 1.699e+04 7.327e-09
 54.64154    -94.1 1.596e+04 4.731e-09
 54.66169    -97.9 1.487e+04 2.330e-09
 54.67463   -103.0 1.377e+04 1.278e-09
 54.68471   -106.6 1.317e+04 9.749e-10
 54.70198   -110.1 1.264e+04 8.782e-10
 54.72212   -112.2 1.246e+04 8.729e-10
 54.74227   -113.6 1.233e+04 9.019e-10
 54.75583   -114.6 1.227e+04 9.084e-10
 54.76590   -115.3 1.205e+04 8.364e-10
 54.78256   -115.6 1.177e+04 7.584e-10
 54.80271   -115.7 1.151e+04 6.205e-10
 54.81538   -116.0 1.130e+04 4.717e-10
 54.82545   -116.7 1.119e+04 4.425e-10
 54.83702   -116.9 1.100e+04 3.447e-10
 54.84710   -117.1 1.095e+04 3.157e-10
 54.87331   -116.8 1.086e+04 2.816e-10
 54.90834   -116.5 1.054e+04 2.212e-10
 54.92849   -117.3 1.021e+04 1.998e-10
 54.95399   -116.3 1.005e+04 1.912e-10
 54.99428   -115.1 1.001e+04 1.896e-10
 55.03458   -113.9 9.956e+03 1.917e-10
 55.07074   -112.7 9.941e+03 1.940e-10
 55.09088   -113.2 1.000e+04 2.235e-10
 55.11516   -112.0 9.986e+03 2.242e-10
 55.15304   -110.6 9.830e+03 2.185e-10
 55.17318   -110.4 9.666e+03 1.884e-10
 55.19574   -108.8 9.560e+03 1.732e-10
 55.23313   -107.0 9.442e+03 1.516e-10
 55.25327   -107.7 9.506e+03 1.764e-10
 55.27632   -105.7 9.356e+03 1.469e-10
 55.31661   -103.4 9.218e+03 1.198e-10
 55.35691   -101.1 9.118e+03 9.816e-11
 55.39552    -98.8 9.056e+03 8.293e-11
 55.41566    -99.2 9.130e+03 9.340e-11
 55.43749    -96.9 9.091e+03 8.197e-11
 55.47778    -94.6 9.054e+03 7.750e-11
 55.51807    -92.3 9.038e+03 7.661e-11
 55.55791    -89.9 9.018e+03 7.716e-11
 55.57806    -90.3 9.045e+03 8.350e-11
 55.59865    -87.8 9.008e+03 8.276e-11
 55.63894    -85.3 8.966e+03 8.040e-11
 55.67924    -82.7 8.921e+03 7.506e-11
 55.71953    -80.2 8.879e+03 6.716e-11
 55.74045    -77.8 8.835e+03 5.925e-11
 55.76059    -78.5 8.897e+03 6.529e-11
 55.80011    -76.2 8.816e+03 6.215e-11
 55.84040    -73.8 8.754e+03 6.148e-11
 55.86826    -71.4 8.736e+03 6.146e-11
 55.88841    -70.7 8.792e+03 6.304e-11
 55.90284    -68.3 8.691e+03 6.761e-11
 55.92299    -68.7 8.661e+03 8.881e-11
 55.96128    -66.2 8.610e+03 9.231e-11
 56.00157    -63.6 8.582e+03 9.610e-11
 56.04186    -61.1 8.578e+03 9.895e-11
 56.06523    -58.7 8.582e+03 9.986e-11
 56.08538    -59.1 8.599e+03 1.006e-10
 56.12244    -56.8 8.589e+03 1.001e-10
 56.16273    -54.6 8.593e+03 1.003e-10
 56.20302    -52.4 8.599e+03 1.043e-10
 56.22763    -50.2 8.626e+03 1.110e-10
 56.24777    -50.8 8.775e+03 1.451e-10
 56.28361    -48.5 8.793e+03 1.609e-10
 56.32390    -46.1 8.790e+03 1.743e-10
 56.36419    -43.7 8.788e+03 1.844e-10
 56.39002    -41.1 8.780e+03 1.938e-10
 56.41016    -41.2 8.883e+03 2.292e-10
 56.44477    -38.6 8.909e+03 2.131e-10
 56.48506    -36.2 8.987e+03 2.065e-10
 56.52535    -34.2 9.134e+03 2.312e-10
 56.55241    -32.1 9.284e+03 2.874e-10
 56.57025    -32.7 9.275e+03 3.131e-10
 56.58349    -31.1 8.991e+03 1.767e-10
 56.60594    -29.0 9.155e+03 2.439e-10
 56.64623    -26.7 9.394e+03 3.661e-10
 56.68652    -24.5 9.864e+03 5.689e-10
 56.71480    -23.5 1.101e+04 9.663e-10
 56.73495    -25.4 1.134e+04 9.455e-10
 56.75693    -26.3 1.270e+04 1.680e-09
 56.77698    -27.0 1.334e+04 2.525e-09
 56.79580    -26.1 1.371e+04 3.713e-09
 56.80587    -25.9 1.321e+04 2.777e-09
 56.81727    -24.7 1.317e+04 2.888e-09
 56.83742    -23.5 1.318e+04 2.470e-09
 56.85756    -23.4 1.338e+04 1.582e-09
 56.87700    -26.1 1.254e+04 8.887e-10
 56.89724    -31.1 1.143e+04 7.607e-10
 56.92827    -32.7 1.069e+04 6.806e-10
 56.96856    -32.6 1.021e+04 6.552e-10
 57.00885    -32.0 9.935e+03 6.066e-10
 57.03959    -31.2 9.719e+03 5.330e-10
 57.05973    -32.7 9.684e+03 4.712e-10
 57.08943    -32.1 9.178e+03 3.627e-10
 57.12972    -31.1 8.944e+03 3.249e-10
 57.17001    -29.9 8.809e+03 3.033e-10
 57.20198    -28.7 8.686e+03 2.846e-10
 57.22212    -29.9 9.022e+03 3.953e-10
 57.25060    -28.4 9.024e+03 4.050e-10
 57.27857    -26.8 8.813e+03 3.622e-10
 57.29871    -27.4 9.221e+03 5.193e-10
 57.33118    -25.6 8.830e+03 4.049e-10
 57.36437    -23.9 8.418e+03 3.025e-10
 57.38452    -23.7 8.529e+03 3.411e-10
 57.41176    -21.8 8.119e+03 2.463e-10
 57.45205    -19.8 7.800e+03 1.791e-10
 57.49234    -17.9 7.510e+03 1.265e-10
 57.52676    -16.2 7.288e+03 9.597e-11
 57.54691    -16.2 7.272e+03 9.049e-11
 57.57293    -14.5 7.132e+03 7.963e-11
 57.61322    -12.7 7.100e+03 7.615e-11
 57.65351    -11.1 7.212e+03 8.242e-11
 57.68915     -9.8 7.439e+03 1.011e-10
 57.70930     -9.7 7.719e+03 1.337e-10
 57.73409     -8.5 8.157e+03 1.839e-10
 57.77438     -7.3 8.449e+03 2.573e-10
 57.81467     -5.9 8.655e+03 3.362e-10
 57.85155     -4.4 8.784e+03 3.650e-10
 57.87169     -4.7 9.662e+03 6.764e-10
 57.89526     -2.9 9.496e+03 5.542e-10
 57.93555     -1.7 9.113e+03 3.967e-10
 57.97365     -0.4 8.507e+03 2.779e-10
 57.99379      0.5 8.704e+03 2.887e-10
 58.01394      1.7 8.205e+03 2.131e-10
 58.03408      1.3 8.738e+03 2.421e-10
 58.05642      2.1 8.463e+03 2.000e-10
 58.09671      3.5 8.446e+03 2.153e-10
 58.13701      5.1 8.545e+03 2.592e-10
 58.17633      6.9 8.700e+03 3.308e-10
 58.19648      6.7 9.093e+03 4.862e-10
 58.21759      9.3 9.166e+03 5.146e-10
 58.25788     11.9 9.171e+03 5.113e-10
 58.29817     14.1 9.197e+03 4.717e-10
 58.33846     16.0 9.262e+03 4.240e-10
 58.35887     17.5 9.415e+03 4.450e-10
 58.37901     16.9 9.201e+03 3.398e-10
 58.41904     18.6 9.808e+03 4.918e-10
 58.43997     17.9 1.091e+04 7.693e-10
 58.44994     18.2 1.061e+04 6.995e-10
 58.46921     16.9 1.183e+04 1.162e-09
 58.48936     15.9 1.260e+04 2.122e-09
 58.50950     16.3 1.308e+04 3.579e-09
 58.52106     17.7 1.345e+04 4.871e-09
 58.53114     16.9 1.355e+04 4.553e-09
 58.54980     18.2 1.424e+04 6.145e-09
 58.56994     19.3 1.460e+04 6.455e-09
 58.59009     20.2 1.463e+04 5.924e-09
 58.60226     20.6 1.445e+04 4.465e-09
 58.61233     20.2 1.500e+04 6.620e-09
 58.63038     20.2 1.442e+04 4.430e-09
 58.65052     19.8 1.337e+04 2.657e-09
 58.67067     19.3 1.233e+04 1.782e-09
 58.68355     19.7 1.106e+04 9.704e-10
 58.69159     20.0 1.166e+04 1.286e-09
 58.70902     19.6 1.165e+04 1.310e-09
 58.74137     21.3 1.055e+04 6.939e-10
 58.78167     23.3 9.963e+03 3.918e-10
 58.82196     25.5 9.662e+03 2.543e-10
 58.84604     27.7 9.436e+03 1.925e-10
 58.86619     28.0 9.526e+03 1.924e-10
 58.90254     30.5 9.372e+03 1.596e-10
 58.94283     33.1 9.262e+03 1.410e-10
 58.98312     35.8 9.153e+03 1.324e-10
 59.00844     38.6 9.104e+03 1.294e-10
 59.02858     38.9 9.161e+03 1.203e-10
 59.06370     41.6 9.151e+03 1.229e-10
 59.10400     44.4 9.158e+03 1.303e-10
 59.14429     47.2 9.198e+03 1.387e-10
 59.17083     50.0 9.236e+03 1.450e-10
 59.19097     50.4 9.259e+03 1.238e-10
 59.22487     53.2 9.350e+03 1.277e-10
 59.26516     56.0 9.423e+03 1.294e-10
 59.30545     58.8 9.476e+03 1.281e-10
 59.33322     61.6 9.525e+03 1.233e-10
 59.35337     62.0 9.731e+03 1.068e-10
 59.38395     64.7 9.789e+03 1.072e-10
 59.40410     64.7 9.932e+03 1.896e-10
 59.42633     67.5 9.984e+03 1.823e-10
 59.46662     70.4 1.005e+04 1.660e-10
 59.49561     73.2 1.011e+04 1.471e-10
 59.51576     73.7 1.025e+04 1.794e-10
 59.54720     76.6 1.031e+04 1.773e-10
 59.58749     79.4 1.035e+04 1.830e-10
 59.62778     82.1 1.048e+04 2.087e-10
 59.65800     84.7 1.070e+04 2.646e-10
 59.67815     85.4 1.082e+04 3.936e-10
 59.70837     88.1 1.116e+04 5.770e-10
 59.74866     90.6 1.162e+04 8.150e-10
 59.78895     93.0 1.204e+04 1.036e-09
 59.82040     95.1 1.227e+04 1.173e-09
 59.84054     96.1 1.289e+04 1.846e-09
 59.85936     97.2 1.293e+04 1.824e-09
 59.87941     98.0 1.296e+04 1.769e-09
 59.89955     98.8 1.295e+04 1.693e-09
 59.91147     99.4 1.289e+04 1.612e-09
 59.92154     99.4 1.318e+04 1.785e-09
 59.93985    100.0 1.324e+04 1.788e-09
 59.95999    100.5 1.335e+04 1.818e-09
 59.98014    101.0 1.345e+04 1.890e-09
 59.99267    101.4 1.357e+04 2.003e-09
 60.00274    101.4 1.409e+04 2.516e-09
 60.02043    101.8 1.417e+04 2.720e-09
 60.04057    102.2 1.416e+04 2.828e-09
 60.06072    102.7 1.411e+04 2.813e-09
 60.07386    103.1 1.392e+04 2.655e-09
 60.08393    103.7 1.412e+04 3.209e-09
 60.09898    104.2 1.377e+04 2.679e-09
 60.10906    103.7 1.397e+04 3.500e-09
 60.12116    104.1 1.369e+04 3.108e-09
 60.14130    104.4 1.335e+04 2.661e-09
 60.15506    104.7 1.296e+04 2.169e-09
 60.16513    105.3 1.290e+04 2.042e-09
 60.18159    105.5 1.262e+04 1.697e-09
 60.20174    105.8 1.238e+04 1.422e-09
 60.23205    106.5 1.233e+04 1.342e-09
 60.27244    107.5 1.178e+04 9.479e-10
 60.30757    108.8 1.126e+04 6.671e-10
 60.32772    108.9 1.138e+04 6.495e-10
 60.35303    110.7 1.090e+04 4.854e-10
 60.39332    112.6 1.051e+04 3.783e-10
 60.43361    114.9 1.021e+04 3.168e-10
 60.46996    117.3 1.001e+04 2.860e-10
 60.49011    118.0 1.006e+04 3.696e-10
 60.51419    120.6 9.952e+03 3.441e-10
 60.55448    123.3 9.891e+03 3.293e-10
 60.59477    125.8 9.843e+03 3.163e-10
 60.63236    128.4 9.779e+03 3.017e-10
 60.65250    129.5 9.924e+03 3.602e-10
 60.67536    132.0 9.831e+03 3.383e-10
 60.71565    134.5 9.715e+03 3.115e-10
 60.75594    137.0 9.577e+03 2.838e-10
 60.79426    139.4 9.479e+03 2.733e-10
 60.81292    138.8 9.602e+03 2.968e-10
 60.81489    140.0 9.507e+03 2.536e-10
 60.83652    142.3 9.500e+03 2.494e-10
 60.87681    144.5 9.532e+03 2.537e-10
 60.91710    146.6 9.662e+03 2.743e-10
 60.95714    148.5 9.976e+03 3.240e-10
 60.97729    149.9 9.585e+03 2.490e-10
 60.99769    151.7 9.829e+03 2.824e-10
 61.03798    153.0 1.010e+04 3.259e-10
 61.05838    153.6 1.031e+04 3.754e-10
 61.06836    154.0 1.017e+04 3.486e-10
 61.08815    155.0 1.027e+04 3.776e-10
 61.10829    155.9 1.040e+04 4.215e-10
 61.12844    156.6 1.051e+04 4.683e-10
 61.13948    157.0 1.062e+04 5.119e-10
 61.14956    158.2 1.040e+04 4.703e-10
 61.16175    158.6 1.047e+04 5.022e-10
 61.17182    157.4 1.036e+04 4.879e-10
 61.18888    157.6 1.051e+04 5.349e-10
 61.20902    157.7 1.076e+04 6.175e-10
 61.22068    157.5 1.123e+04 7.723e-10
 61.23075    158.9 1.088e+04 6.979e-10
 61.24931    158.7 1.150e+04 9.107e-10
 61.26946    158.3 1.223e+04 1.273e-09
 61.28960    157.7 1.288e+04 1.811e-09
 61.30187    157.4 1.333e+04 2.491e-09
 61.31195    159.1 1.320e+04 2.131e-09
 61.32989    158.9 1.360e+04 2.833e-09
 61.35004    159.2 1.394e+04 3.454e-09
 61.37019    159.6 1.388e+04 3.705e-09
 61.38307    160.0 1.381e+04 3.593e-09
 61.39314    161.1 1.397e+04 3.641e-09
 61.41048    161.4 1.384e+04 3.475e-09
 61.43062    161.7 1.353e+04 2.908e-09
 61.45077    161.8 1.313e+04 2.110e-09
 61.46427    161.6 1.276e+04 1.348e-09
 61.47434    162.8 1.300e+04 1.847e-09
 61.49106    162.3 1.261e+04 1.212e-09
 61.50929    161.1 1.211e+04 7.728e-10
 61.51936    158.2 1.121e+04 5.770e-10
 61.53135    156.9 1.074e+04 4.973e-10
 61.54546    156.2 1.044e+04 5.010e-10
 61.55554    157.6 1.094e+04 6.621e-10
 61.57164    157.0 1.078e+04 6.703e-10
 61.59179    156.9 1.069e+04 7.050e-10
 61.61193    157.0 1.066e+04 7.742e-10
 61.62666    157.2 1.071e+04 8.287e-10
 61.63673    158.1 1.088e+04 9.399e-10
 61.65222    158.4 1.086e+04 9.353e-10
 61.67237    158.6 1.082e+04 9.040e-10
 61.69252    158.9 1.073e+04 8.477e-10
 61.70786    159.1 1.064e+04 7.874e-10
 61.71793    159.7 1.060e+04 7.629e-10
 61.73281    159.9 1.048e+04 7.015e-10
 61.75295    160.0 1.040e+04 6.593e-10
 61.77310    160.1 1.036e+04 6.381e-10
 61.78905    160.1 1.036e+04 6.278e-10
 61.79912    160.6 1.015e+04 5.705e-10
 61.81339    160.7 1.017e+04 5.741e-10
 61.83354    160.8 1.023e+04 5.856e-10
 61.85368    160.8 1.032e+04 6.088e-10
 61.86690    160.8 1.045e+04 6.513e-10
 61.87340    159.9 1.043e+04 6.478e-10
 61.88032    160.5 1.036e+04 6.452e-10
 61.89397    160.4 1.061e+04 7.399e-10
 61.91412    160.4 1.086e+04 8.638e-10
 61.93426    160.4 1.110e+04 1.015e-09
 61.95144    160.6 1.136e+04 1.176e-09
 61.96152    161.1 1.160e+04 1.339e-09
 61.97456    161.4 1.185e+04 1.555e-09
 61.99470    161.8 1.193e+04 1.572e-09
 62.01485    162.2 1.192e+04 1.540e-09
 62.03264    162.5 1.183e+04 1.404e-09
 62.04271    163.0 1.221e+04 1.731e-09
 62.05514    163.3 1.199e+04 1.439e-09
 62.07528    163.4 1.164e+04 1.070e-09
 62.09543    163.2 1.121e+04 7.274e-10
 62.11384    162.6 1.069e+04 4.809e-10
 62.12391    163.4 1.097e+04 5.514e-10
 62.13572    162.5 1.034e+04 3.549e-10
 62.15587    161.7 9.761e+03 2.713e-10
 62.17601    161.3 9.441e+03 2.432e-10
 62.19503    161.6 9.294e+03 2.455e-10
 62.20510    161.8 9.295e+03 2.462e-10
 62.21444    161.9 9.294e+03 2.462e-10
 62.22461    161.8 9.147e+03 2.236e-10
 62.24672    163.4 9.113e+03 2.234e-10
 62.27642    165.1 9.138e+03 2.296e-10
 62.29657    165.2 9.228e+03 2.488e-10
 62.32730    166.9 9.245e+03 2.501e-10
 62.36759    168.4 9.302e+03 2.547e-10
 62.40788    169.8 9.452e+03 2.692e-10
 62.43881    171.0 9.697e+03 3.027e-10
 62.45896    171.5 9.600e+03 2.817e-10
 62.48846    172.6 9.835e+03 3.180e-10
 62.52876    173.2 9.987e+03 3.620e-10
 62.55888    174.6 1.016e+04 4.305e-10
 62.57206    175.3 1.043e+04 5.530e-10
 62.58213    174.8 1.047e+04 6.019e-10
 62.59907    175.5 1.073e+04 7.692e-10
 62.61108    176.2 1.099e+04 9.387e-10
 62.62116    176.6 1.099e+04 8.964e-10
 62.63936    177.2 1.129e+04 1.077e-09
 62.65951    177.7 1.151e+04 1.221e-09
 62.67965    177.8 1.161e+04 1.235e-09
 62.69228    177.8 1.159e+04 1.212e-09
 62.70235    178.0 1.176e+04 1.276e-09
 62.71994    177.9 1.173e+04 1.211e-09
 62.74009    177.6 1.157e+04 1.069e-09
 62.76024    177.3 1.130e+04 8.879e-10
 62.77348    176.8 1.097e+04 7.136e-10
 62.78355    176.8 1.122e+04 7.878e-10
 62.80053    176.1 1.085e+04 6.244e-10
 62.82067    175.4 1.050e+04 5.202e-10
 62.84082    174.8 1.028e+04 4.957e-10
 62.85467    174.6 1.027e+04 4.958e-10
 62.86475    174.0 1.040e+04 5.340e-10
 62.88111    173.8 1.040e+04 5.387e-10
 62.90126    173.6 1.041e+04 5.576e-10
 62.91960    173.4 1.052e+04 5.867e-10
 62.92967    173.0 1.077e+04 6.352e-10
 62.93587    172.8 1.094e+04 7.050e-10
 62.94594    172.2 1.094e+04 6.604e-10
 62.96169    172.0 1.108e+04 7.032e-10
 62.98184    171.9 1.121e+04 7.477e-10
 63.00198    171.8 1.134e+04 8.015e-10
 63.01706    171.6 1.147e+04 8.736e-10
 63.02714    170.6 1.156e+04 8.924e-10
 63.04227    170.4 1.177e+04 1.040e-09
 63.06242    170.4 1.198e+04 1.221e-09
 63.08257    170.5 1.219e+04 1.426e-09
 63.09826    170.7 1.241e+04 1.656e-09
 63.10833    170.4 1.258e+04 1.790e-09
 63.12286    170.7 1.283e+04 1.989e-09
 63.14300    170.6 1.312e+04 2.245e-09
 63.16315    170.4 1.352e+04 2.639e-09
 63.17946    170.2 1.407e+04 3.244e-09
 63.18953    170.1 1.399e+04 2.942e-09
 63.20344    169.8 1.461e+04 3.674e-09
 63.22359    169.6 1.531e+04 4.670e-09
 63.24373    169.4 1.599e+04 5.803e-09
 63.26065    169.1 1.658e+04 6.896e-09
 63.27073    169.5 1.565e+04 4.755e-09
 63.27721    169.2 1.610e+04 5.320e-09
 63.28728    168.0 1.615e+04 5.162e-09
 63.30417    167.0 1.662e+04 5.816e-09
 63.32431    166.2 1.718e+04 6.956e-09
 63.33937    166.1 1.734e+04 7.410e-09
 63.34679    165.9 1.761e+04 7.971e-09
 63.35187    165.6 1.697e+04 6.443e-09
 63.35952    165.5 1.735e+04 7.455e-09
 63.36954    165.0 1.800e+04 9.097e-09
 63.37962    164.2 1.865e+04 1.191e-08
 63.38739    163.7 1.916e+04 1.583e-08
 63.39242    164.3 1.864e+04 1.236e-08
 63.39976    163.9 1.902e+04 1.606e-08
 63.40983    164.0 1.942e+04 2.097e-08
 63.41991    164.1 1.958e+04 2.591e-08
 63.42798    164.2 1.974e+04 2.860e-08
 63.43302    164.5 1.897e+04 2.134e-08
 63.44005    164.7 1.896e+04 2.090e-08
 63.45013    164.9 1.894e+04 1.930e-08
 63.45592    165.2 1.899e+04 1.656e-08
 63.46095    165.2 1.868e+04 9.926e-09
 63.46858    165.1 1.876e+04 7.513e-09
 63.47362    165.1 1.797e+04 6.732e-09
 63.48034    164.3 1.790e+04 4.886e-09
 63.49042    163.6 1.773e+04 3.926e-09
 63.50049    162.3 1.746e+04 2.964e-09
 63.50918    161.4 1.707e+04 2.508e-09
 63.51422    162.5 1.629e+04 2.706e-09
 63.52572    162.3 1.657e+04 2.525e-09
 63.54592    161.1 1.600e+04 1.937e-09
 63.56606    160.2 1.539e+04 1.536e-09
 63.58544    159.7 1.455e+04 1.195e-09
 63.59551    161.3 1.458e+04 1.354e-09
 63.60635    160.8 1.392e+04 1.017e-09
 63.62475    160.4 1.338e+04 7.567e-10
 63.63482    161.1 1.167e+04 4.337e-10
 63.64664    160.8 1.156e+04 3.624e-10
 63.66663    160.5 1.165e+04 3.405e-10
 63.67671    161.2 1.151e+04 3.473e-10
 63.68694    160.8 1.154e+04 3.427e-10
 63.70708    160.4 1.168e+04 3.549e-10
 63.72723    160.1 1.196e+04 3.997e-10
 63.74737    159.7 1.229e+04 4.998e-10
 63.75790    159.4 1.264e+04 7.001e-10
 63.76797    159.4 1.259e+04 7.258e-10
 63.78766    159.1 1.336e+04 1.043e-09
 63.80781    158.8 1.422e+04 1.505e-09
 63.82795    158.5 1.514e+04 2.179e-09
 63.83910    158.1 1.609e+04 3.126e-09
 63.84917    157.7 1.644e+04 3.583e-09
 63.86825    157.2 1.736e+04 5.196e-09
 63.88839    156.7 1.811e+04 7.111e-09
 63.90854    156.3 1.863e+04 8.789e-09
 63.92029    155.9 1.890e+04 9.455e-09
 63.93037    155.6 1.917e+04 9.982e-09
 63.94883    155.2 1.905e+04 9.058e-09
 63.96897    154.6 1.866e+04 7.813e-09
 63.98236    153.9 1.825e+04 6.327e-09
 63.99243    156.1 1.827e+04 6.968e-09
 64.00149    155.5 1.787e+04 5.807e-09
 64.01156    155.0 1.759e+04 4.895e-09
 64.02941    153.9 1.703e+04 3.770e-09
 64.04956    152.6 1.625e+04 2.919e-09
 64.06970    151.5 1.531e+04 2.332e-09
 64.08269    150.8 1.447e+04 1.908e-09
 64.09276    150.3 1.432e+04 1.866e-09
 64.10999    150.2 1.390e+04 1.591e-09
 64.14031    149.2 1.329e+04 1.093e-09
 64.18070    148.8 1.222e+04 6.359e-10
 64.22099    148.4 1.102e+04 3.506e-10
 64.24527    147.9 1.008e+04 2.234e-10
 64.26542    147.1 1.078e+04 3.375e-10
 64.30157    146.5 1.049e+04 2.937e-10
 64.33010    145.9 1.053e+04 3.044e-10
 64.35024    148.9 1.121e+04 4.370e-10
 64.38216    148.4 1.103e+04 4.018e-10
 64.40767    147.8 1.101e+04 4.057e-10
 64.42781    145.6 1.165e+04 5.064e-10
 64.46274    144.3 1.132e+04 4.576e-10
 64.50303    143.0 1.110e+04 4.238e-10
 64.54332    141.7 1.094e+04 3.995e-10
 64.57006    140.5 1.084e+04 3.932e-10
 64.59020    136.7 1.106e+04 4.476e-10
 64.62390    135.9 1.112e+04 5.012e-10
 64.66419    135.7 1.111e+04 5.439e-10
 64.70449    136.0 1.103e+04 5.387e-10
 64.73245    136.5 1.078e+04 4.854e-10
 64.75259    134.0 1.059e+04 4.216e-10
 64.78507    134.9 1.007e+04 2.982e-10
 64.82536    135.8 9.469e+03 1.918e-10
 64.86565    136.5 8.818e+03 1.233e-10
 64.89484    137.2 8.326e+03 9.867e-11
 64.91499    135.2 8.284e+03 9.360e-11
 64.94623    136.9 8.266e+03 9.556e-11
 64.98652    138.9 8.259e+03 1.038e-10
 65.02518    140.9 8.341e+03 1.191e-10
 65.04532    140.5 8.330e+03 1.173e-10
 65.05723    142.4 8.444e+03 1.337e-10
 65.07738    140.7 8.525e+03 1.400e-10
 65.10740    142.4 8.654e+03 1.587e-10
 65.14769    144.1 8.791e+03 1.791e-10
 65.18798    145.8 8.919e+03 2.000e-10
 65.21963    147.5 9.008e+03 2.190e-10
 65.23977    145.4 9.000e+03 2.177e-10
 65.26856    146.9 8.983e+03 2.202e-10
 65.30886    148.3 9.041e+03 2.158e-10
 65.34915    149.6 9.202e+03 2.054e-10
 65.38202    150.6 9.276e+03 2.009e-10
 65.39542    148.2 9.281e+03 2.140e-10
 65.40274    146.4 9.440e+03 2.211e-10
 65.41946    145.3 9.616e+03 2.563e-10
 65.43961    142.9 1.073e+04 3.923e-10
 65.45975    138.1 1.358e+04 9.459e-10
 65.47309    131.6 1.721e+04 2.552e-09
 65.48316    125.0 1.868e+04 4.712e-09
 65.50004    119.8 1.961e+04 6.138e-09
 65.52019    115.4 1.982e+04 5.741e-09
 65.54033    109.4 2.012e+04 4.388e-09
 65.55429     95.9 2.114e+04 2.814e-09
 65.56436     83.1 1.827e+04 2.078e-09
 65.58063     67.2 1.717e+04 2.723e-09
 65.60077     57.2 1.696e+04 5.200e-09
 65.62092     51.6 1.730e+04 7.052e-09
 65.63548     47.2 1.710e+04 6.896e-09
 65.64556     45.3 1.665e+04 6.360e-09
 65.66121     41.4 1.600e+04 4.957e-09
 65.68135     36.3 1.588e+04 3.735e-09
 65.70150     30.5 1.597e+04 3.356e-09
 65.71668     25.7 1.574e+04 3.423e-09
 65.72675     25.3 1.494e+04 2.687e-09
 65.74021     22.5 1.480e+04 2.969e-09
 65.75028     26.8 1.450e+04 2.552e-09
 65.76194     24.6 1.482e+04 3.032e-09
 65.78208     23.1 1.540e+04 3.691e-09
 65.79788     21.7 1.604e+04 4.308e-09
 65.80795     22.3 1.534e+04 3.619e-09
 65.82237     21.1 1.588e+04 4.171e-09
 65.84252     19.8 1.635e+04 4.614e-09
 65.86267     18.8 1.653e+04 4.693e-09
 65.87907     18.2 1.648e+04 4.434e-09
 65.88914     19.8 1.585e+04 3.659e-09
 65.90296     19.5 1.560e+04 2.979e-09
 65.92310     19.1 1.514e+04 2.176e-09
 65.94325     18.5 1.427e+04 1.505e-09
 65.96027     17.5 1.288e+04 1.001e-09
 65.97034     19.0 1.242e+04 7.886e-10
 65.98354     18.0 1.076e+04 5.794e-10
 66.00368     17.4 9.646e+03 4.992e-10
 66.02383     17.5 9.389e+03 4.819e-10
 66.04146     18.2 9.449e+03 4.873e-10
 66.05154     19.3 9.222e+03 4.116e-10
 66.06412     20.0 9.395e+03 4.421e-10
 66.08427     20.8 9.559e+03 4.716e-10
 66.11458     22.7 9.708e+03 5.234e-10
 66.15497     24.6 9.601e+03 5.180e-10
 66.19398     26.1 9.663e+03 5.289e-10
 66.21412     28.3 9.555e+03 5.245e-10
 66.23555     29.7 9.783e+03 5.895e-10
 66.27585     31.2 9.770e+03 5.857e-10
 66.31614     32.7 9.599e+03 5.314e-10
 66.35637     34.3 9.239e+03 4.189e-10
 66.39666     37.7 9.144e+03 3.907e-10
 66.43548     39.1 8.718e+03 2.996e-10
 66.45563     39.4 9.309e+03 4.189e-10
 66.47730     41.2 8.902e+03 3.450e-10
 66.51759     43.4 8.853e+03 3.382e-10
 66.53891     45.8 8.885e+03 3.491e-10
 66.55905     46.9 9.130e+03 4.172e-10
 66.59818     49.2 9.275e+03 4.562e-10
 66.63847     51.7 9.487e+03 5.160e-10
 66.67876     53.9 9.731e+03 5.857e-10
 66.70130     56.4 1.005e+04 6.699e-10
 66.72145     56.9 1.017e+04 7.391e-10
 66.75934     58.9 1.031e+04 7.780e-10
 66.79963     61.2 1.053e+04 8.306e-10
 66.82975     62.6 1.056e+04 8.448e-10
 66.84980     63.4 1.060e+04 8.530e-10
 66.86350     64.5 1.070e+04 8.951e-10
 66.88374     65.6 1.110e+04 1.049e-09
 66.91034     66.6 1.134e+04 1.204e-09
 66.93038     67.4 1.146e+04 1.279e-09
 66.94469     68.5 1.168e+04 1.439e-09
 66.95477     68.6 1.143e+04 1.289e-09
 66.97068     69.4 1.166e+04 1.435e-09
 66.99082     70.1 1.188e+04 1.590e-09
 67.01097     70.8 1.205e+04 1.712e-09
 67.02589     71.3 1.207e+04 1.723e-09
 67.03596     71.7 1.177e+04 1.565e-09
 67.05126     72.2 1.173e+04 1.530e-09
 67.07140     72.9 1.155e+04 1.383e-09
 67.09155     73.6 1.127e+04 1.134e-09
 67.10708     74.3 1.096e+04 8.748e-10
 67.11716     74.6 1.072e+04 7.554e-10
 67.13184     75.2 1.052e+04 5.698e-10
 67.15051     75.4 1.033e+04 4.293e-10
 67.16058     75.4 1.016e+04 5.162e-10
 67.17213     75.7 1.004e+04 4.176e-10
 67.18828     75.9 9.979e+03 3.472e-10
 67.19835     76.2 9.881e+03 3.781e-10
 67.21242     76.4 9.955e+03 3.435e-10
 67.23257     76.7 1.001e+04 3.384e-10
 67.25271     77.0 1.006e+04 3.397e-10
 67.26948     77.1 1.016e+04 3.482e-10
 67.27955     77.5 1.020e+04 4.054e-10
 67.29301     77.5 1.032e+04 4.260e-10
 67.31315     77.2 1.049e+04 4.753e-10
 67.33330     76.9 1.071e+04 5.670e-10
 67.35067     76.4 1.100e+04 7.110e-10
 67.36075     76.7 1.116e+04 7.788e-10
 67.37359     76.4 1.146e+04 9.817e-10
 67.40390     76.1 1.198e+04 1.234e-09
 67.44429     75.1 1.207e+04 1.289e-09
 67.48458     74.0 1.193e+04 1.204e-09
 67.51326     72.5 1.165e+04 1.040e-09
 67.53341     72.0 1.110e+04 7.510e-10
 67.56517     69.8 1.104e+04 7.590e-10
 67.60546     67.6 1.099e+04 7.511e-10
 67.64575     65.8 1.075e+04 6.576e-10
 67.67565     64.7 1.027e+04 4.004e-10
 67.69580     65.7 1.005e+04 3.665e-10
 67.72633     64.6 9.489e+03 1.485e-10
 67.76662     62.6 8.624e+03 7.176e-11
 67.80692     62.0 8.382e+03 7.002e-11
 67.83804     62.2 8.325e+03 7.827e-11
 67.85677     63.2 8.257e+03 6.524e-11
 67.86593     63.9 8.242e+03 6.160e-11
 67.88750     64.2 8.262e+03 8.134e-11
 67.92779     64.8 8.511e+03 1.218e-10
 67.96808     65.1 8.819e+03 1.720e-10
 68.00044     65.2 9.175e+03 2.262e-10
 68.02058     66.6 9.064e+03 2.061e-10
 68.04866     66.5 9.321e+03 2.409e-10
 68.08895     65.6 9.444e+03 2.487e-10
 68.12925     64.8 9.372e+03 2.426e-10
 68.16283     64.8 9.176e+03 2.243e-10
 68.18297     66.6 9.236e+03 2.337e-10
 68.20983     67.0 9.078e+03 2.251e-10
 68.25012     67.7 8.962e+03 2.114e-10
 68.29041     68.7 8.971e+03 2.101e-10
 68.32522     69.8 9.055e+03 2.214e-10
 68.34537     72.1 9.088e+03 2.570e-10
 68.37099     73.4 9.296e+03 2.794e-10
 68.41128     74.5 9.595e+03 3.491e-10
 68.45158     75.1 9.786e+03 4.479e-10
 68.48170     76.2 1.002e+04 6.099e-10
 68.49749     77.2 1.026e+04 7.887e-10
 68.50756     78.1 1.029e+04 6.825e-10
 68.52189     78.8 1.048e+04 8.901e-10
 68.54204     79.7 1.073e+04 1.085e-09
 68.56082     80.6 1.105e+04 1.272e-09
 68.57089     80.7 1.087e+04 1.186e-09
 68.57869     81.4 1.102e+04 1.192e-09
 68.58876     81.9 1.112e+04 1.376e-09
 68.60247     82.8 1.139e+04 1.445e-09
 68.62262     83.2 1.145e+04 1.433e-09
 68.64276     83.4 1.146e+04 1.372e-09
 68.65988     83.4 1.136e+04 1.275e-09
 68.66995     84.4 1.199e+04 1.744e-09
 68.68306     84.3 1.200e+04 1.707e-09
 68.70320     84.1 1.198e+04 1.687e-09
 68.72335     83.8 1.197e+04 1.693e-09
 68.74108     83.7 1.201e+04 1.733e-09
 68.75115     84.4 1.275e+04 2.256e-09
 68.76364     84.3 1.266e+04 2.168e-09
 68.78378     84.2 1.239e+04 2.006e-09
 68.80393     83.9 1.287e+04 1.827e-09
 68.82227     82.6 1.354e+04 1.924e-09
 68.83235     83.0 1.301e+04 1.732e-09
 68.84422     80.4 1.429e+04 1.898e-09
 68.86437     77.2 1.597e+04 2.605e-09
 68.88451     75.0 1.650e+04 3.797e-09
 68.90347     75.0 1.614e+04 5.263e-09
 68.91354     75.2 1.566e+04 3.735e-09
 68.91843     75.3 1.525e+04 4.043e-09
 68.92850     76.6 1.448e+04 1.981e-09
 68.94495     76.4 1.404e+04 2.292e-09
 68.96509     76.5 1.375e+04 2.279e-09
 68.98467     76.6 1.324e+04 2.140e-09
 68.99474     76.4 1.278e+04 1.753e-09
 69.00539     76.6 1.253e+04 1.675e-09
 69.02553     76.9 1.235e+04 1.593e-09
 69.05585     76.9 1.218e+04 1.508e-09
 69.08607     77.4 1.195e+04 1.404e-09
 69.10611     78.0 1.189e+04 1.346e-09
 69.12626     78.5 1.198e+04 1.368e-09
 69.14641     78.8 1.224e+04 1.464e-09
 69.15713     79.2 1.264e+04 1.678e-09
 69.16720     79.4 1.248e+04 1.550e-09
 69.18670     79.7 1.297e+04 1.842e-09
 69.20684     80.2 1.348e+04 2.261e-09
 69.22699     80.7 1.404e+04 2.819e-09
 69.23833     81.1 1.467e+04 3.514e-09
 69.24840     81.7 1.402e+04 2.675e-09
 69.26597     82.0 1.454e+04 3.120e-09
 69.27604     82.4 1.337e+04 1.987e-09
 69.28742     82.6 1.384e+04 2.285e-09
 69.30757     82.7 1.422e+04 2.591e-09
 69.31952     82.7 1.445e+04 2.895e-09
 69.32960     83.1 1.311e+04 1.737e-09
 69.34786     83.0 1.327e+04 1.942e-09
 69.36801     82.8 1.329e+04 2.148e-09
 69.38815     83.0 1.335e+04 2.374e-09
 69.40072     83.3 1.356e+04 2.642e-09
 69.41079     84.0 1.284e+04 1.951e-09
 69.42844     84.3 1.318e+04 2.299e-09
 69.44859     84.9 1.366e+04 2.632e-09
 69.46874     85.7 1.416e+04 2.850e-09
 69.48191     86.4 1.427e+04 2.757e-09
 69.49199     87.6 1.393e+04 2.852e-09
 69.50903     88.1 1.440e+04 2.873e-09
 69.52917     86.8 1.752e+04 2.902e-09
 69.54932     80.3 2.507e+04 3.902e-09
 69.56311     72.3 2.577e+04 8.237e-09
 69.57318     77.0 2.651e+04 7.733e-09
 69.58452     72.4 2.565e+04 1.148e-08
 69.59455     70.5 2.341e+04 1.329e-08
 69.60361     68.9 2.127e+04 1.580e-08
 69.60865     70.8 2.233e+04 1.596e-08
 69.61469     69.5 2.072e+04 1.774e-08
 69.62349     69.0 1.988e+04 1.761e-08
 69.62852     70.7 2.089e+04 1.684e-08
 69.63484     70.1 1.976e+04 1.661e-08
 69.64421     69.9 1.980e+04 1.419e-08
 69.64925     71.1 1.965e+04 1.560e-08
 69.65499     70.6 2.025e+04 1.162e-08
 69.66506     68.3 2.088e+04 6.190e-09
 69.67513     66.0 1.993e+04 3.661e-09
 69.68481     59.9 1.952e+04 2.405e-09
 69.68984     60.7 2.006e+04 2.528e-09
 69.69528     58.2 1.829e+04 2.052e-09
 69.71043     49.0 1.867e+04 2.711e-09
 69.72550     42.0 1.534e+04 3.442e-09
 69.73558     42.3 1.731e+04 4.638e-09
 69.75077     42.8 1.587e+04 5.990e-09
 69.77092     43.7 1.588e+04 6.422e-09
 69.79107     43.7 1.587e+04 5.761e-09
 69.80670     42.8 1.610e+04 4.259e-09
 69.81677     44.1 1.761e+04 7.126e-09
 69.83136     40.8 1.758e+04 4.243e-09
 69.85150     34.7 1.536e+04 2.531e-09
 69.87165     31.3 1.356e+04 2.155e-09
 69.88790     31.5 1.345e+04 2.224e-09
 69.89797     31.0 1.478e+04 3.697e-09
 69.91194     32.2 1.494e+04 4.028e-09
 69.93209     33.9 1.562e+04 4.285e-09
 69.95223     34.9 1.712e+04 4.706e-09
 69.96909     33.7 1.955e+04 5.724e-09
 69.97791     35.7 2.026e+04 9.746e-09
 69.98120     33.0 2.040e+04 1.003e-08
 69.98744     31.0 2.228e+04 1.031e-08
 69.99746     30.3 2.256e+04 1.071e-08
 70.00753     27.9 2.234e+04 1.314e-08
 70.01463     27.5 2.210e+04 1.316e-08
 70.01966     29.3 2.385e+04 1.620e-08
 70.02768     28.0 2.241e+04 2.029e-08
 70.03775     26.6 2.184e+04 2.018e-08
 70.04783     25.2 2.125e+04 2.437e-08
 70.05523     24.0 2.119e+04 2.507e-08
 70.06026     26.1 2.368e+04 3.344e-08
 70.06797     23.3 2.325e+04 3.236e-08
 70.07804     19.7 2.352e+04 2.690e-08
 70.08812     15.3 2.371e+04 1.983e-08
 70.09582     12.9 2.606e+04 1.600e-08
 70.10086      6.4 3.492e+04 3.298e-08
 70.10826      4.1 3.862e+04 2.469e-08
 70.11834      2.6 4.135e+04 2.322e-08
 70.12841      0.4 4.066e+04 2.438e-08
 70.13642      0.4 3.943e+04 2.803e-08
 70.14146     -0.1 3.123e+04 1.219e-07
 70.14855      0.2 2.967e+04 1.271e-07
 70.15487      0.7 2.872e+04 1.295e-07
 70.15990      5.4 3.632e+04 5.373e-08
 70.16870      5.9 3.421e+04 6.627e-08
 70.17702      6.1 3.282e+04 7.448e-08
 70.18206      7.0 2.630e+04 3.059e-07
 70.18884      5.1 2.742e+04 2.168e-07
 70.19892      2.5 3.050e+04 1.393e-07
 70.20899     -0.6 3.415e+04 8.010e-08
 70.21762     -4.4 3.842e+04 3.884e-08
 70.22265     -7.7 3.127e+04 1.314e-07
 70.22914    -13.6 3.430e+04 5.975e-08
 70.23921    -19.8 3.575e+04 2.841e-08
 70.24928    -28.0 3.418e+04 1.592e-08
 70.25822    -36.7 3.046e+04 1.143e-08
 70.26325    -43.7 3.401e+04 1.912e-08
 70.26943    -52.5 2.956e+04 1.611e-08
 70.27950    -59.7 2.658e+04 1.458e-08
 70.28957    -64.6 2.461e+04 1.400e-08
 70.29881    -67.3 2.278e+04 1.421e-08
 70.30385    -71.3 2.215e+04 1.449e-08
 70.30972    -71.8 2.088e+04 1.395e-08
 70.31979    -71.8 2.018e+04 1.334e-08
 70.32864    -71.6 1.967e+04 1.252e-08
 70.33367    -74.5 1.927e+04 1.068e-08
 70.33941    -74.0 1.877e+04 9.368e-09
 70.34445    -75.2 1.825e+04 7.420e-09
 70.35001    -74.5 1.781e+04 6.464e-09
 70.36008    -74.0 1.746e+04 5.638e-09
 70.37016    -73.4 1.724e+04 4.853e-09
 70.38001    -73.0 1.695e+04 4.155e-09
 70.38505    -74.5 1.710e+04 3.237e-09
 70.39030    -74.1 1.674e+04 2.851e-09
 70.40037    -74.0 1.648e+04 2.563e-09
 70.41553    -74.6 1.479e+04 1.963e-09
 70.43573    -72.8 1.361e+04 1.698e-09
 70.45587    -70.6 1.299e+04 1.556e-09
 70.46634    -68.3 1.263e+04 1.481e-09
 70.47641    -69.2 1.268e+04 1.502e-09
 70.49616    -67.0 1.261e+04 1.497e-09
 70.51631    -64.8 1.255e+04 1.505e-09
 70.53645    -62.6 1.257e+04 1.546e-09
 70.54754    -60.8 1.263e+04 1.616e-09
 70.55761    -61.2 1.332e+04 1.888e-09
 70.57675    -59.4 1.358e+04 2.081e-09
 70.59689    -57.4 1.376e+04 2.278e-09
 70.61704    -55.3 1.392e+04 2.504e-09
 70.62873    -53.2 1.404e+04 2.727e-09
 70.63880    -53.3 1.514e+04 3.664e-09
 70.65733    -51.1 1.534e+04 3.979e-09
 70.67628    -49.0 1.534e+04 4.128e-09
 70.68635    -49.9 1.562e+04 4.482e-09
 70.69762    -48.0 1.561e+04 4.511e-09
 70.70993    -46.2 1.556e+04 4.517e-09
 70.72000    -45.6 1.572e+04 5.215e-09
 70.73791    -43.7 1.569e+04 5.102e-09
 70.75806    -41.9 1.573e+04 5.086e-09
 70.77820    -40.7 1.622e+04 5.323e-09
 70.79112    -39.9 1.710e+04 6.009e-09
 70.80120    -37.8 1.573e+04 5.245e-09
 70.81849    -37.0 1.669e+04 5.846e-09
 70.83864    -36.8 1.801e+04 7.283e-09
 70.85879    -37.1 1.910e+04 9.866e-09
 70.87232    -37.3 1.978e+04 1.358e-08
 70.88239    -35.2 1.911e+04 9.431e-09
 70.89908    -35.6 1.995e+04 1.442e-08
 70.91922    -35.5 2.040e+04 2.036e-08
 70.93937    -35.2 2.061e+04 2.523e-08
 70.95347    -35.0 2.073e+04 2.633e-08
 70.95846    -34.3 2.058e+04 2.433e-08
 70.96445    -34.1 2.055e+04 2.519e-08
 70.97961    -33.5 2.054e+04 2.468e-08
 70.99980    -33.5 1.955e+04 1.899e-08
 71.01995    -33.2 1.840e+04 1.317e-08
 71.03389    -32.6 1.727e+04 8.081e-09
 71.03858    -33.1 1.698e+04 7.590e-09
 71.04479    -32.9 1.697e+04 7.752e-09
 71.06024    -32.3 1.636e+04 6.182e-09
 71.08039    -31.7 1.579e+04 4.744e-09
 71.10053    -31.0 1.501e+04 3.199e-09
 71.11591    -30.2 1.388e+04 2.003e-09
 71.12598    -29.4 1.450e+04 3.239e-09
 71.14082    -28.4 1.387e+04 2.299e-09
 71.16097    -27.8 1.299e+04 1.550e-09
 71.18112    -27.2 1.210e+04 1.038e-09
 71.19710    -26.7 1.121e+04 7.345e-10
 71.20718    -25.6 1.235e+04 1.356e-09
 71.22141    -24.8 1.175e+04 1.036e-09
 71.24155    -23.8 1.121e+04 8.246e-10
 71.26170    -22.5 1.079e+04 6.817e-10
 71.27830    -21.3 1.045e+04 5.812e-10
 71.28837    -20.7 1.146e+04 9.118e-10
 71.30199    -19.7 1.109e+04 7.775e-10
 71.32214    -18.7 1.090e+04 7.053e-10
 71.34228    -17.7 1.073e+04 6.721e-10
 71.35950    -16.6 1.058e+04 6.646e-10
 71.36957    -16.1 1.165e+04 1.007e-09
 71.38143    -15.0 1.155e+04 9.932e-10
 71.39150    -14.7 1.162e+04 1.009e-09
 71.40272    -13.6 1.156e+04 1.015e-09
 71.42286    -12.5 1.148e+04 1.019e-09
 71.44069    -11.4 1.133e+04 1.011e-09
 71.45077    -11.0 1.255e+04 1.545e-09
 71.46315    -10.1 1.243e+04 1.528e-09
 71.48330     -9.1 1.238e+04 1.525e-09
 71.50345     -8.1 1.238e+04 1.532e-09
 71.52189     -7.1 1.242e+04 1.546e-09
 71.53196     -7.2 1.378e+04 2.547e-09
 71.54374     -6.3 1.390e+04 2.684e-09
 71.56388     -5.3 1.406e+04 2.834e-09
 71.58403     -4.2 1.419e+04 2.923e-09
 71.60308     -3.0 1.421e+04 2.908e-09
 71.61316     -3.0 1.559e+04 5.123e-09
 71.62432     -1.7 1.581e+04 5.250e-09
 71.64447     -0.4 1.592e+04 5.086e-09
 71.66461      0.8 1.575e+04 4.526e-09
 71.68428      1.8 1.535e+04 3.844e-09
 71.69435      2.2 1.688e+04 7.206e-09
 71.70490      3.1 1.663e+04 6.066e-09
 71.72505      3.7 1.593e+04 4.814e-09
 71.73904      4.4 1.507e+04 3.892e-09
 71.74911      4.7 1.539e+04 4.394e-09
 71.76534      5.4 1.457e+04 3.540e-09
 71.77555      6.4 1.373e+04 2.842e-09
 71.78562      7.0 1.457e+04 3.889e-09
 71.80563      8.3 1.392e+04 3.147e-09
 71.82578      9.5 1.343e+04 2.522e-09
 71.84592     10.7 1.307e+04 2.064e-09
 71.85675     11.3 1.268e+04 1.646e-09
 71.86682     11.5 1.302e+04 1.930e-09
 71.88621     12.4 1.263e+04 1.632e-09
 71.91653     13.6 1.219e+04 1.322e-09
 71.93814     15.8 1.159e+04 1.035e-09
 71.95828     16.0 1.220e+04 1.233e-09
 71.99721     18.4 1.181e+04 1.108e-09
 72.03750     21.1 1.174e+04 1.106e-09
 72.07670     23.9 1.152e+04 1.037e-09
 72.09685     24.7 1.127e+04 8.491e-10
 72.10053     27.3 1.122e+04 8.215e-10
 72.12067     27.9 1.148e+04 8.676e-10
 72.14820     29.4 1.162e+04 9.232e-10
 72.16825     29.9 1.163e+04 9.341e-10
 72.18153     30.8 1.162e+04 1.028e-09
 72.19160     31.4 1.166e+04 1.024e-09
 72.20854     32.4 1.170e+04 1.101e-09
 72.22869     32.9 1.238e+04 1.313e-09
 72.24883     33.0 1.344e+04 1.686e-09
 72.26273     32.7 1.457e+04 2.344e-09
 72.27280     33.2 1.501e+04 2.585e-09
 72.28913     33.0 1.601e+04 3.834e-09
 72.30927     32.4 1.682e+04 5.709e-09
 72.32942     31.6 1.733e+04 7.649e-09
 72.34392     32.4 1.722e+04 1.049e-08
 72.35399     33.3 1.780e+04 1.172e-08
 72.36462     33.9 1.771e+04 1.290e-08
 72.37465     34.7 1.755e+04 1.367e-08
 72.38442     35.4 1.766e+04 1.349e-08
 72.38946     36.2 1.779e+04 1.424e-08
 72.39479     36.7 1.812e+04 1.352e-08
 72.40487     37.4 1.874e+04 1.200e-08
 72.41494     37.3 1.948e+04 1.033e-08
 72.42501     36.6 1.974e+04 7.994e-09
 72.43508     36.5 1.955e+04 6.375e-09
 72.44410     34.2 1.709e+04 4.565e-09
 72.44913     37.0 2.038e+04 8.189e-09
 72.45523     34.5 1.750e+04 5.438e-09
 72.46530     32.3 1.507e+04 3.945e-09
 72.47065     31.7 1.452e+04 3.609e-09
 72.47569     31.7 1.445e+04 3.651e-09
 72.49053     32.4 1.460e+04 3.691e-09
 72.50631     32.9 1.396e+04 3.204e-09
 72.51639     33.4 1.514e+04 4.279e-09
 72.53087     33.8 1.473e+04 4.242e-09
 72.55102     34.6 1.505e+04 4.365e-09
 72.57117     35.3 1.525e+04 4.184e-09
 72.58751     35.9 1.518e+04 3.686e-09
 72.59758     36.5 1.598e+04 5.690e-09
 72.61146     37.3 1.572e+04 4.778e-09
 72.63160     37.7 1.538e+04 3.929e-09
 72.65175     38.0 1.474e+04 3.109e-09
 72.66871     38.6 1.409e+04 2.681e-09
 72.67878     38.7 1.497e+04 3.577e-09
 72.69204     39.4 1.464e+04 3.310e-09
 72.71218     40.1 1.433e+04 3.089e-09
 72.73233     41.2 1.429e+04 3.120e-09
 72.74990     42.0 1.448e+04 3.404e-09
 72.75997     42.2 1.519e+04 3.934e-09
 72.77262     43.0 1.527e+04 4.107e-09
 72.79173     43.7 1.546e+04 4.370e-09
 72.80181     43.8 1.451e+04 3.299e-09
 72.81291     44.4 1.479e+04 3.303e-09
 72.83110     44.9 1.511e+04 3.351e-09
 72.84117     44.2 1.607e+04 4.434e-09
 72.85320     44.1 1.649e+04 5.082e-09
 72.87335     43.9 1.707e+04 6.203e-09
 72.89350     43.6 1.766e+04 7.582e-09
 72.91229     43.6 1.794e+04 9.408e-09
 72.92237     44.2 1.860e+04 1.318e-08
 72.93379     44.5 1.844e+04 1.362e-08
 72.95393     45.5 1.786e+04 1.183e-08
 72.97408     46.5 1.691e+04 8.679e-09
 72.99349     47.4 1.559e+04 5.767e-09
 73.00356     47.4 1.620e+04 6.431e-09
 73.01437     48.0 1.486e+04 3.979e-09
 73.03452     48.2 1.369e+04 2.444e-09
 73.05466     48.1 1.281e+04 1.549e-09
 73.07469     48.1 1.217e+04 1.040e-09
 73.08476     48.5 1.253e+04 1.137e-09
 73.09495     48.6 1.193e+04 8.528e-10
 73.11510     48.8 1.143e+04 7.356e-10
 73.13524     49.1 1.130e+04 7.071e-10
 73.14935     49.3 1.145e+04 7.660e-10
 73.15942     48.5 1.248e+04 1.323e-09
 73.16595     48.9 1.286e+04 1.703e-09
 73.17603     49.3 1.261e+04 1.349e-09
 73.19568     49.8 1.281e+04 1.614e-09
 73.21583     50.1 1.304e+04 1.912e-09
 73.23597     49.9 1.333e+04 2.283e-09
 73.24715     49.4 1.374e+04 2.835e-09
 73.25722     49.3 1.396e+04 3.006e-09
 73.27626     48.7 1.455e+04 4.108e-09
 73.29641     49.0 1.463e+04 4.528e-09
 73.31655     49.6 1.450e+04 4.509e-09
 73.32835     50.3 1.440e+04 4.293e-09
 73.33842     50.9 1.481e+04 5.174e-09
 73.35685     51.7 1.461e+04 4.262e-09
 73.37699     51.8 1.443e+04 2.965e-09
 73.39714     51.1 1.411e+04 1.786e-09
 73.40954     49.2 1.315e+04 1.002e-09
 73.41962     49.9 1.401e+04 1.116e-09
 73.43743     47.0 1.196e+04 6.197e-10
 73.45757     45.0 1.016e+04 4.371e-10
 73.47772     44.7 9.517e+03 3.752e-10
 73.49074     45.1 9.378e+03 3.525e-10
 73.49983     44.7 9.372e+03 3.473e-10
 73.50696     44.6 9.395e+03 3.376e-10
 73.52818     45.1 9.474e+03 3.180e-10
 73.56206     46.3 9.269e+03 2.772e-10
 73.58220     45.4 9.376e+03 2.911e-10
 73.60886     46.4 9.246e+03 2.748e-10
 73.64915     47.1 9.363e+03 3.032e-10
 73.68944     47.6 9.806e+03 4.237e-10
 73.71956     47.3 1.013e+04 5.380e-10
 73.73433     47.6 1.029e+04 6.293e-10
 73.74440     47.5 1.030e+04 6.334e-10
 73.75976     47.6 1.054e+04 7.219e-10
 73.77990     47.6 1.072e+04 7.855e-10
 73.80005     47.3 1.105e+04 8.795e-10
 73.81552     47.0 1.129e+04 9.663e-10
 73.82560     46.8 1.137e+04 9.749e-10
 73.84034     45.6 1.179e+04 1.144e-09
 73.85450     45.6 1.193e+04 1.263e-09
 73.86457     46.3 1.149e+04 1.003e-09
 73.88674     45.8 1.182e+04 1.240e-09
 73.90699     46.1 1.229e+04 1.537e-09
 73.93119     47.1 1.195e+04 1.394e-09
 73.97148     48.8 1.137e+04 1.049e-09
 74.01177     50.8 1.081e+04 7.177e-10
 74.04923     52.8 1.039e+04 4.873e-10
 74.06938     53.0 1.071e+04 6.037e-10
 74.09236     55.3 1.039e+04 4.750e-10
 74.13265     58.0 1.022e+04 4.323e-10
 74.17294     61.2 1.033e+04 4.466e-10
 74.20214     63.5 1.040e+04 4.861e-10
 74.22068     64.3 1.041e+04 4.925e-10
 74.23167     64.7 1.059e+04 5.540e-10
 74.24325     66.6 1.071e+04 6.208e-10
 74.26340     67.5 1.080e+04 6.571e-10
 74.28355     69.5 1.098e+04 7.453e-10
 74.30270     70.3 1.110e+04 7.963e-10
 74.31277     70.7 1.124e+04 8.735e-10
 74.33401     72.8 1.133e+04 8.959e-10
 74.37402     75.3 1.144e+04 9.248e-10
 74.39407     75.8 1.146e+04 9.318e-10
 74.41459     78.0 1.132e+04 8.385e-10
 74.45498     80.4 1.111e+04 7.042e-10
 74.49527     82.9 1.091e+04 5.816e-10
 74.53556     85.1 1.075e+04 4.925e-10
 74.55656     87.3 1.063e+04 4.651e-10
 74.57670     87.9 1.036e+04 3.501e-10
 74.61614     90.2 1.035e+04 3.523e-10
 74.65643     92.4 1.037e+04 3.660e-10
 74.69673     94.5 1.048e+04 4.070e-10
 74.71895     96.5 1.065e+04 4.785e-10
 74.73909     97.0 1.044e+04 3.925e-10
 74.77731     98.7 1.069e+04 5.042e-10
 74.81760    100.2 1.095e+04 6.363e-10
 74.85789    101.5 1.117e+04 7.519e-10
 74.88134    102.6 1.129e+04 8.235e-10
 74.90062    102.7 1.131e+04 8.534e-10
 74.91746    101.0 1.135e+04 8.818e-10
 74.93847    101.8 1.121e+04 7.903e-10
 74.97877    102.6 1.098e+04 6.180e-10
 75.01906    103.1 1.072e+04 4.431e-10
 75.04373    103.1 1.037e+04 3.513e-10
 75.06388    103.4 9.735e+03 1.834e-10
 75.09964    103.4 9.663e+03 1.833e-10
 75.13993    104.0 9.618e+03 2.206e-10
 75.18022    105.1 9.681e+03 2.916e-10
 75.20612    106.8 9.826e+03 3.811e-10
 75.22627    107.4 9.623e+03 2.966e-10
 75.26080    109.2 9.887e+03 3.979e-10
 75.30110    111.0 1.023e+04 5.053e-10
 75.34139    112.7 1.052e+04 5.795e-10
 75.36842    113.5 1.062e+04 6.186e-10
 75.37839    113.7 1.043e+04 5.187e-10
 75.39156    114.3 1.053e+04 5.591e-10
 75.41170    114.9 1.058e+04 5.877e-10
 75.43185    115.5 1.070e+04 6.303e-10
 75.44952    115.9 1.088e+04 7.009e-10
 75.45959    116.0 1.071e+04 5.942e-10
 75.47214    116.3 1.092e+04 6.935e-10
 75.49228    116.6 1.116e+04 8.378e-10
 75.51243    116.9 1.142e+04 1.033e-09
 75.53071    117.3 1.168e+04 1.255e-09
 75.54079    117.5 1.150e+04 1.089e-09
 75.55272    117.8 1.179e+04 1.295e-09
 75.57287    118.0 1.206e+04 1.423e-09
 75.59301    118.0 1.229e+04 1.481e-09
 75.61191    117.7 1.276e+04 1.568e-09
 75.62117    118.0 1.245e+04 1.393e-09
 75.62242    118.8 1.295e+04 2.079e-09
 75.63330    118.3 1.366e+04 2.401e-09
 75.65345    117.0 1.465e+04 2.946e-09
 75.67359    115.6 1.546e+04 3.748e-09
 75.69310    114.6 1.548e+04 4.391e-09
 75.70318    115.9 1.479e+04 3.267e-09
 75.71389    115.2 1.466e+04 3.348e-09
 75.73403    114.9 1.440e+04 3.267e-09
 75.75418    115.0 1.397e+04 2.925e-09
 75.77430    115.1 1.346e+04 2.402e-09
 75.79445    115.9 1.276e+04 1.753e-09
 75.81461    116.3 1.234e+04 1.407e-09
 75.83476    116.8 1.192e+04 1.130e-09
 75.85491    117.5 1.156e+04 9.079e-10
 75.86557    118.2 1.125e+04 7.366e-10
 75.87564    119.1 1.125e+04 7.461e-10
 75.89520    119.8 1.099e+04 6.182e-10
 75.91534    120.6 1.076e+04 5.250e-10
 75.93549    121.7 1.052e+04 4.521e-10
 75.94677    122.2 1.039e+04 4.201e-10
 75.95684    122.8 1.039e+04 4.169e-10
 75.98595    124.3 1.030e+04 4.065e-10
 76.01808    126.6 1.012e+04 3.826e-10
 76.03823    128.2 1.009e+04 3.748e-10
 76.06663    130.6 1.006e+04 3.749e-10
 76.10692    132.9 1.006e+04 3.860e-10
 76.14721    135.1 1.010e+04 4.085e-10
 76.18048    136.9 1.016e+04 4.249e-10
 76.20052    138.4 1.016e+04 4.864e-10
 76.21753    139.8 1.024e+04 5.374e-10
 76.23767    141.1 1.037e+04 5.646e-10
 76.25782    142.2 1.045e+04 5.777e-10
 76.27155    143.1 1.052e+04 5.785e-10
 76.28162    144.0 1.066e+04 6.763e-10
 76.29811    144.9 1.070e+04 6.715e-10
 76.31750    145.7 1.073e+04 6.581e-10
 76.32757    145.8 1.065e+04 6.001e-10
 76.33840    146.5 1.065e+04 5.721e-10
 76.35275    147.2 1.066e+04 5.508e-10
 76.36282    148.1 1.080e+04 6.490e-10
 76.37869    148.9 1.081e+04 6.358e-10
 76.39884    149.6 1.087e+04 6.413e-10
 76.41898    150.0 1.106e+04 6.745e-10
 76.43394    150.1 1.139e+04 7.848e-10
 76.44401    151.2 1.137e+04 8.235e-10
 76.45927    151.0 1.176e+04 1.021e-09
 76.47942    150.4 1.247e+04 1.468e-09
 76.49957    149.8 1.341e+04 2.407e-09
 76.51514    149.6 1.452e+04 4.039e-09
 76.52521    150.2 1.426e+04 3.651e-09
 76.53986    150.1 1.529e+04 5.689e-09
 76.56000    149.4 1.630e+04 7.165e-09
 76.58015    147.6 1.799e+04 7.689e-09
 76.59633    144.8 1.989e+04 6.850e-09
 76.60641    148.0 1.729e+04 5.462e-09
 76.62044    144.4 1.932e+04 4.538e-09
 76.64059    138.6 1.999e+04 4.704e-09
 76.66073    133.2 1.848e+04 5.777e-09
 76.67511    131.6 1.694e+04 7.505e-09
 76.68184    131.7 1.655e+04 8.278e-09
 76.68760    132.5 1.684e+04 7.314e-09
 76.70102    132.8 1.619e+04 7.918e-09
 76.72117    133.3 1.595e+04 7.516e-09
 76.74131    134.0 1.568e+04 6.021e-09
 76.75873    134.5 1.537e+04 3.984e-09
 76.76880    135.6 1.539e+04 5.042e-09
 76.78161    135.8 1.499e+04 3.080e-09
 76.80175    135.4 1.444e+04 1.672e-09
 76.82190    134.0 1.340e+04 9.715e-10
 76.83992    132.8 1.211e+04 7.309e-10
 76.84999    134.4 1.280e+04 7.789e-10
 76.86219    133.6 1.177e+04 6.461e-10
 76.88233    133.8 1.136e+04 6.149e-10
 76.90248    134.1 1.126e+04 6.024e-10
 76.92112    134.5 1.127e+04 5.936e-10
 76.93119    135.2 1.126e+04 5.829e-10
 76.95294    136.1 1.122e+04 5.369e-10
 76.99244    136.7 1.117e+04 5.450e-10
 77.01258    138.3 1.119e+04 5.426e-10
 77.02285    138.7 1.120e+04 5.727e-10
 77.04299    137.3 1.141e+04 6.185e-10
 77.07391    137.4 1.138e+04 5.236e-10
 77.11420    137.5 1.120e+04 4.811e-10
 77.15450    137.8 1.100e+04 4.628e-10
 77.17497    138.6 1.078e+04 4.407e-10
 77.19512    139.8 1.059e+04 3.870e-10
 77.23508    140.9 1.044e+04 3.680e-10
 77.27537    142.3 1.026e+04 3.358e-10
 77.31566    144.1 1.005e+04 2.947e-10
 77.33737    146.0 9.893e+03 2.528e-10
 77.35751    146.8 9.857e+03 2.567e-10
 77.39624    148.8 9.732e+03 2.279e-10
 77.43653    150.8 9.663e+03 1.986e-10
 77.47683    152.8 9.593e+03 1.765e-10
 77.49976    154.7 9.552e+03 1.630e-10
 77.51990    155.6 9.533e+03 1.709e-10
 77.55741    157.7 9.520e+03 1.601e-10
 77.59770    159.7 9.546e+03 1.589e-10
 77.63799    161.6 9.600e+03 1.651e-10
 77.66215    163.5 9.693e+03 1.882e-10
 77.68230    164.2 9.602e+03 1.638e-10
 77.71793    166.0 9.665e+03 1.933e-10
 77.73807    165.0 9.546e+03 1.904e-10
 77.75886    166.7 9.749e+03 2.385e-10
 77.79916    168.3 9.986e+03 2.951e-10
 77.82454    169.7 1.027e+04 3.605e-10
 77.84469    170.4 9.980e+03 2.938e-10
 77.87974    171.7 1.029e+04 3.672e-10
 77.92003    172.6 1.071e+04 4.733e-10
 77.96032    173.5 1.119e+04 6.251e-10
 77.98693    174.4 1.158e+04 8.116e-10
 78.00708    175.5 1.151e+04 7.897e-10
 78.04090    176.4 1.182e+04 9.483e-10
 78.08119    177.2 1.185e+04 9.541e-10
 78.12149    178.2 1.170e+04 8.403e-10
 78.14933    179.3 1.125e+04 5.586e-10
 78.16947    180.2 1.135e+04 6.269e-10
 78.20207    181.0 1.075e+04 3.768e-10
 78.24236    181.5 1.015e+04 2.601e-10
 78.28265    182.0 1.002e+04 2.532e-10
 78.31172    182.9 1.008e+04 2.673e-10
 78.33186    183.6 1.023e+04 3.255e-10
 78.36323    184.0 1.041e+04 3.800e-10
 78.40353    183.8 1.056e+04 4.070e-10
 78.43315    183.5 1.055e+04 4.012e-10
 78.45330    184.5 1.020e+04 3.452e-10
 78.47411    184.4 1.018e+04 3.312e-10
 78.49426    185.0 1.026e+04 3.784e-10
 78.52440    184.6 1.025e+04 3.552e-10
 78.56469    184.1 1.026e+04 3.465e-10
 78.60498    183.8 1.028e+04 3.498e-10
 78.63650    184.0 1.030e+04 3.517e-10
 78.65655    184.3 1.029e+04 4.010e-10
 78.67530    184.7 1.030e+04 4.188e-10
 78.69544    184.8 1.034e+04 4.323e-10
 78.71559    184.8 1.047e+04 4.549e-10
 78.72758    184.2 1.080e+04 5.196e-10
 78.73765    184.9 1.078e+04 5.336e-10
 78.75588    184.0 1.129e+04 6.672e-10
 78.77602    182.9 1.188e+04 9.327e-10
 78.79057    182.0 1.239e+04 1.361e-09
 78.80064    183.3 1.204e+04 1.047e-09
 78.80877    182.6 1.251e+04 1.490e-09
 78.81884    183.1 1.255e+04 1.457e-09
 78.83646    182.5 1.286e+04 1.926e-09
 78.85661    182.0 1.303e+04 2.188e-09
 78.87675    181.4 1.303e+04 2.177e-09
 78.88997    180.6 1.299e+04 2.090e-09
 78.90004    180.8 1.327e+04 2.374e-09
 78.91704    179.8 1.322e+04 2.278e-09
 78.93719    178.8 1.311e+04 2.202e-09
 78.95734    177.8 1.305e+04 2.200e-09
 78.97116    177.0 1.304e+04 2.249e-09
 78.98124    177.2 1.356e+04 2.789e-09
 78.99763    176.6 1.358e+04 2.858e-09
 79.01777    176.0 1.358e+04 2.842e-09
 79.03792    175.4 1.351e+04 2.709e-09
 79.05236    174.8 1.331e+04 2.400e-09
 79.06243    174.7 1.351e+04 2.518e-09
 79.07821    173.8 1.303e+04 1.984e-09
 79.09835    172.7 1.252e+04 1.614e-09
 79.11850    171.7 1.216e+04 1.451e-09
 79.13356    171.1 1.209e+04 1.444e-09
 79.14309    170.7 1.194e+04 1.359e-09
 79.14818    170.8 1.192e+04 1.340e-09
 79.15879    170.6 1.196e+04 1.371e-09
 79.17894    170.5 1.210e+04 1.458e-09
 79.19908    170.5 1.235e+04 1.598e-09
 79.21475    170.6 1.256e+04 1.667e-09
 79.22483    170.4 1.268e+04 1.818e-09
 79.24954    170.9 1.248e+04 1.568e-09
 79.28607    171.1 1.230e+04 1.392e-09
 79.30622    170.6 1.222e+04 1.351e-09
 79.33022    170.9 1.164e+04 9.536e-10
 79.37052    171.1 1.096e+04 6.229e-10
 79.41081    171.3 1.039e+04 4.513e-10
 79.44846    171.8 1.010e+04 3.889e-10
 79.46861    170.8 9.787e+03 3.120e-10
 79.49139    171.5 9.731e+03 3.039e-10
 79.53168    172.3 9.680e+03 2.938e-10
 79.57197    173.0 9.667e+03 2.880e-10
 79.61085    173.6 9.736e+03 2.956e-10
 79.63100    172.9 9.699e+03 2.816e-10
 79.65256    173.3 9.856e+03 3.080e-10
 79.68268    173.3 9.893e+03 3.270e-10
 79.70193    173.4 9.939e+03 3.520e-10
 79.71200    172.9 9.931e+03 3.408e-10
 79.72287    173.0 1.012e+04 4.111e-10
 79.74302    172.8 1.057e+04 5.514e-10
 79.76316    172.3 1.130e+04 8.175e-10
 79.78312    171.6 1.225e+04 1.283e-09
 79.79320    170.1 1.263e+04 1.508e-09
 79.80345    169.1 1.378e+04 2.443e-09
 79.82360    168.0 1.496e+04 3.642e-09
 79.84326    166.4 1.616e+04 4.739e-09
 79.85333    163.0 1.642e+04 4.822e-09
 79.86389    159.9 1.737e+04 5.283e-09
 79.87439    156.3 1.753e+04 5.145e-09
 79.88447    150.9 1.745e+04 4.987e-09
 79.90418    147.2 1.674e+04 4.081e-09
 79.92433    143.8 1.581e+04 3.107e-09
 79.94447    140.4 1.509e+04 2.392e-09
 79.95559    136.5 1.497e+04 2.117e-09
 79.96566    128.3 1.487e+04 2.027e-09
 79.98476    122.2 1.533e+04 2.544e-09
 80.00491    115.3 1.620e+04 3.867e-09
 80.02505    108.1 1.759e+04 6.147e-09
 80.03679    100.6 1.907e+04 7.542e-09
 80.04686     97.3 1.843e+04 6.006e-09
 80.06535     89.4 1.869e+04 4.156e-09
 80.08549     79.7 1.665e+04 2.033e-09
 80.10564     70.3 1.237e+04 1.071e-09
 80.11798     65.5 1.132e+04 7.686e-10
 80.12805     66.6 1.127e+04 7.145e-10
 80.14593     64.8 1.127e+04 7.213e-10
 80.16607     62.6 1.148e+04 7.659e-10
 80.18622     60.3 1.195e+04 9.364e-10
 80.19918     58.3 1.256e+04 1.285e-09
 80.20376     57.9 1.295e+04 1.379e-09
 80.21095     59.8 1.212e+04 1.034e-09
 80.22651     58.3 1.273e+04 1.411e-09
 80.24666     57.0 1.396e+04 2.033e-09
 80.26680     55.4 1.578e+04 2.934e-09
 80.28037     53.8 1.727e+04 4.058e-09
 80.29045     51.5 1.804e+04 5.280e-09
 80.30709     50.4 1.777e+04 6.221e-09
 80.32724     50.2 1.759e+04 6.151e-09
 80.34738     50.6 1.699e+04 5.783e-09
 80.36157     51.1 1.657e+04 5.129e-09
 80.37164     49.9 1.545e+04 3.876e-09
 80.38768     50.2 1.492e+04 2.905e-09
 80.40782     49.8 1.451e+04 2.221e-09
 80.42797     49.4 1.397e+04 1.675e-09
 80.44277     48.7 1.373e+04 1.441e-09
 80.46301     47.2 1.238e+04 8.941e-10
 80.49867     48.2 1.198e+04 9.044e-10
 80.53854     49.8 1.187e+04 9.190e-10
 80.55868     52.2 1.243e+04 1.112e-09
 80.57925     53.7 1.213e+04 1.030e-09
 80.60535     55.4 1.186e+04 8.345e-10
 80.62550     56.3 1.122e+04 6.879e-10
 80.65984     57.9 1.093e+04 4.768e-10
 80.70013     58.9 1.067e+04 3.321e-10
 80.74042     59.0 1.056e+04 2.959e-10
 80.76774     58.4 1.131e+04 3.718e-10
 80.78789     60.6 1.012e+04 2.531e-10
 80.82100     60.0 1.052e+04 3.025e-10
 80.84884     57.6 1.181e+04 4.527e-10
 80.85882     59.4 1.089e+04 3.507e-10
 80.87117     57.5 1.188e+04 5.252e-10
 80.89132     56.2 1.211e+04 8.891e-10
 80.90603     56.8 1.192e+04 1.266e-09
 80.91610     57.1 1.189e+04 1.219e-09
 80.92994     57.6 1.197e+04 1.396e-09
 80.94001     58.1 1.192e+04 1.330e-09
 80.95175     58.6 1.189e+04 1.317e-09
 80.97190     58.3 1.200e+04 1.169e-09
 80.99205     57.6 1.178e+04 9.353e-10
 81.02236     55.6 1.133e+04 6.914e-10
 81.06275     52.1 1.091e+04 6.091e-10
 81.09253     50.4 1.045e+04 5.660e-10
 81.11267     50.9 1.032e+04 5.115e-10
 81.14333     51.1 9.745e+03 4.045e-10
 81.18362     51.3 9.275e+03 2.432e-10
 81.22392     50.2 8.963e+03 1.547e-10
 81.25376     49.5 8.725e+03 1.473e-10
 81.26462     49.3 8.648e+03 1.286e-10
 81.27507     49.6 8.640e+03 1.325e-10
 81.30450     49.6 8.633e+03 1.415e-10
 81.34479     49.6 8.755e+03 1.616e-10
 81.38508     48.4 9.376e+03 2.094e-10
 81.41731     44.7 1.036e+04 3.942e-10
 81.43746     43.5 1.101e+04 7.316e-10
 81.46566     44.2 1.137e+04 1.311e-09
 81.50595     43.9 1.141e+04 9.702e-10
 81.54625     41.2 1.067e+04 5.659e-10
 81.57971     38.9 9.492e+03 3.225e-10
 81.59985     37.0 9.201e+03 2.711e-10
 81.62683     36.8 8.709e+03 1.842e-10
 81.66712     36.9 8.519e+03 1.329e-10
 81.70741     36.8 8.407e+03 1.098e-10
 81.74210     37.3 8.335e+03 1.137e-10
 81.76224     36.4 8.393e+03 1.225e-10
 81.78799     37.0 8.507e+03 1.256e-10
 81.82829     37.3 8.647e+03 1.423e-10
 81.86858     37.3 8.869e+03 1.767e-10
 81.90449     37.4 9.102e+03 2.368e-10
 81.92464     36.0 9.081e+03 2.359e-10
 81.94884     36.1 9.367e+03 3.037e-10
 81.96899     36.4 9.286e+03 2.702e-10
 81.98945     36.1 9.573e+03 3.338e-10
 82.02974     35.6 9.713e+03 3.739e-10
 82.06688     35.5 9.557e+03 3.708e-10
 82.08703     34.3 9.376e+03 3.170e-10
 82.11032     34.7 9.148e+03 2.042e-10
 82.15062     33.8 9.051e+03 1.232e-10
 82.19091     32.6 9.004e+03 1.053e-10
 82.22927     31.7 8.972e+03 1.303e-10
 82.24942     30.1 9.008e+03 1.561e-10
 82.27149     31.1 8.866e+03 2.030e-10
 82.31178     32.3 8.862e+03 1.949e-10
 82.35207     32.8 8.901e+03 1.593e-10
 82.39167     32.8 8.865e+03 1.492e-10
 82.41181     31.3 8.748e+03 1.421e-10
 82.43265     31.8 8.694e+03 1.617e-10
 82.47295     32.7 8.815e+03 1.885e-10
 82.51324     33.3 8.941e+03 2.257e-10
 82.55353     34.3 8.971e+03 2.818e-10
 82.57420     35.3 8.940e+03 2.926e-10
 82.59435     34.1 8.852e+03 2.690e-10
 82.63411     35.3 8.796e+03 2.664e-10
 82.66407     36.6 8.619e+03 2.358e-10
 82.68421     37.2 8.435e+03 1.954e-10
 82.71469     38.3 8.209e+03 1.407e-10
 82.73660     38.6 8.029e+03 1.048e-10
 82.75674     36.7 8.234e+03 1.205e-10
 82.79528     36.4 8.379e+03 1.429e-10
 82.83557     36.7 8.640e+03 1.954e-10
 82.87586     36.9 9.159e+03 2.897e-10
 82.89899     37.8 9.245e+03 3.609e-10
 82.91913     34.8 1.027e+04 6.141e-10
 82.95644     35.3 1.043e+04 6.985e-10
 82.99673     35.6 1.042e+04 6.735e-10
 83.03702     35.8 1.029e+04 6.240e-10
 83.06138     36.2 1.013e+04 5.757e-10
 83.08153     32.9 1.025e+04 5.803e-10
 83.11761     33.9 1.038e+04 5.990e-10
 83.14248     33.6 1.070e+04 6.598e-10
 83.15245     31.9 1.073e+04 6.643e-10
 83.16778     33.4 1.019e+04 5.653e-10
 83.18792     32.8 1.048e+04 6.106e-10
 83.20807     32.7 1.062e+04 6.544e-10
 83.22358     31.9 1.107e+04 8.215e-10
 83.24382     30.0 1.161e+04 1.190e-09
 83.27877     31.0 1.181e+04 1.364e-09
 83.31906     32.0 1.177e+04 1.312e-09
 83.35915     33.1 1.124e+04 1.027e-09
 83.37929     33.0 1.162e+04 1.294e-09
 83.38616     34.3 1.060e+04 7.567e-10
 83.40631     31.7 9.640e+03 4.200e-10
 83.43994     32.9 8.854e+03 2.352e-10
 83.48023     34.1 8.420e+03 1.540e-10
 83.52052     35.7 8.237e+03 1.279e-10
 83.54856     37.9 8.237e+03 1.292e-10
 83.56870     36.1 8.027e+03 1.075e-10
 83.60110     38.5 8.066e+03 1.130e-10
 83.64139     40.9 8.145e+03 1.134e-10
 83.68168     43.0 8.313e+03 1.116e-10
 83.71095     44.8 8.460e+03 1.134e-10
 83.73109     42.8 8.499e+03 1.219e-10
 83.76227     44.6 8.608e+03 1.316e-10
 83.80256     46.3 8.641e+03 1.370e-10
 83.84285     48.0 8.674e+03 1.431e-10
 83.87334     49.4 8.855e+03 1.617e-10
 83.89349     48.0 9.316e+03 2.343e-10
 83.92343     48.2 9.805e+03 3.138e-10
 83.95355     47.9 9.980e+03 3.759e-10
 83.96441     48.5 1.021e+04 4.584e-10
 83.97449     47.7 1.034e+04 5.496e-10
 83.99375     48.7 1.066e+04 7.243e-10
 84.01389     49.9 1.089e+04 8.478e-10
 84.03404     50.9 1.109e+04 9.050e-10
 84.04561     49.0 1.267e+04 1.128e-09
 84.05568     42.8 1.676e+04 2.048e-09
 84.07418     31.9 2.011e+04 6.068e-09
 84.08425     29.7 1.942e+04 7.803e-09
 84.09447     29.5 1.875e+04 1.413e-08
 84.11462     29.1 1.933e+04 1.774e-08
 84.12681     27.4 2.106e+04 1.689e-08
 84.13688     23.1 2.165e+04 1.305e-08
 84.15491     15.9 2.118e+04 7.831e-09
 84.17506      8.6 1.860e+04 5.609e-09
 84.19520      5.6 1.877e+04 5.984e-09
 84.20795      3.5 1.978e+04 5.096e-09
 84.21803      0.1 1.449e+04 2.237e-09
 84.23041     -2.9 1.540e+04 2.298e-09
 84.24043     -4.1 1.597e+04 2.413e-09
 84.24850     -7.9 1.841e+04 3.503e-09
 84.25354     -7.5 1.506e+04 2.256e-09
 84.25792    -10.0 1.683e+04 2.889e-09
 84.26296    -10.5 1.665e+04 2.792e-09
 84.27065    -15.6 1.902e+04 4.605e-09
 84.28072    -17.6 2.094e+04 6.694e-09
 84.28910    -20.7 2.167e+04 1.166e-08
 84.29922    -21.7 1.965e+04 8.205e-09
 84.31608    -23.7 2.047e+04 1.519e-08
 84.32975    -24.1 2.093e+04 2.244e-08
 84.33473    -24.8 1.967e+04 1.426e-08
 84.34116    -24.9 1.975e+04 1.484e-08
 84.35123    -26.1 1.866e+04 1.373e-08
 84.36131    -26.1 1.849e+04 1.241e-08
 84.37030    -27.3 1.919e+04 1.057e-08
 84.37533    -28.3 1.786e+04 7.717e-09
 84.38145    -30.4 1.905e+04 6.935e-09
 84.39153    -34.8 1.908e+04 5.672e-09
 84.40160    -39.9 1.853e+04 4.819e-09
 84.41089    -45.1 1.777e+04 4.451e-09
 84.41593    -44.7 1.761e+04 4.285e-09
 84.42174    -47.3 1.789e+04 4.642e-09
 84.43174    -52.3 1.729e+04 5.155e-09
 84.44186    -48.9 1.684e+04 4.482e-09
 84.45159    -52.1 1.770e+04 6.657e-09
 84.46166    -51.5 1.866e+04 7.552e-09
 84.47724    -53.5 1.922e+04 9.571e-09
 84.49739    -55.4 1.925e+04 1.018e-08
 84.51753    -57.1 1.825e+04 8.933e-09
 84.53279    -58.2 1.662e+04 5.934e-09
 84.54286    -58.2 1.724e+04 7.474e-09
 84.55782    -59.0 1.587e+04 4.472e-09
 84.57797    -60.6 1.497e+04 2.903e-09
 84.59812    -62.8 1.408e+04 2.064e-09
 84.61398    -64.6 1.317e+04 1.638e-09
 84.62405    -66.0 1.323e+04 1.800e-09
 84.63841    -66.6 1.272e+04 1.602e-09
 84.65855    -66.9 1.240e+04 1.465e-09
 84.67870    -66.8 1.207e+04 1.310e-09
 84.69518    -66.5 1.178e+04 1.134e-09
 84.70525    -67.8 1.180e+04 1.095e-09
 84.71899    -68.1 1.142e+04 8.625e-10
 84.73914    -68.5 1.100e+04 6.504e-10
 84.75928    -69.1 1.057e+04 4.801e-10
 84.77637    -69.8 1.026e+04 3.698e-10
 84.78635    -71.4 1.011e+04 3.551e-10
 84.79948    -71.6 1.003e+04 3.254e-10
 84.81972    -71.5 1.002e+04 3.148e-10
 84.84759    -71.9 9.906e+03 2.883e-10
 84.86784    -74.6 9.807e+03 2.877e-10
 84.89042    -74.9 9.244e+03 1.958e-10
 84.93071    -74.3 8.732e+03 1.256e-10
 84.97101    -73.8 8.484e+03 8.765e-11
 85.01008    -73.3 8.404e+03 7.054e-11
 85.03023    -75.2 8.516e+03 7.413e-11
 85.05159    -74.5 8.571e+03 7.412e-11
 85.09188    -73.8 8.717e+03 8.322e-11
 85.13217    -73.0 8.862e+03 1.015e-10
 85.17246    -72.0 9.010e+03 1.256e-10
 85.21275    -71.7 9.243e+03 1.765e-10
 85.25304    -70.8 9.358e+03 1.901e-10
 85.29334    -70.1 9.496e+03 2.068e-10
 85.33363    -69.6 9.654e+03 2.286e-10
 85.35501    -69.5 9.855e+03 2.537e-10
 85.37516    -71.3 9.580e+03 2.843e-10
 85.41421    -73.0 1.037e+04 4.326e-10
 85.43611    -75.4 1.126e+04 5.126e-10
 85.44609    -78.8 1.246e+04 7.620e-10
 85.46438    -80.7 1.356e+04 1.065e-09
 85.48448    -82.9 1.549e+04 1.757e-09
 85.50463    -89.6 1.857e+04 5.250e-09
 85.51721    -93.6 1.920e+04 7.995e-09
 85.52728    -95.7 1.893e+04 8.263e-09
 85.54496    -99.4 1.887e+04 7.543e-09
 85.55776   -101.4 1.833e+04 6.250e-09
 85.56275   -102.7 1.800e+04 5.159e-09
 85.57005   -103.6 1.786e+04 4.783e-09
 85.58520   -107.2 1.720e+04 3.794e-09
 85.59841   -110.9 1.612e+04 2.830e-09
 85.60848   -114.3 1.373e+04 1.514e-09
 85.62554   -116.9 1.248e+04 1.048e-09
 85.64569   -118.8 1.138e+04 7.495e-10
 85.66584   -119.9 1.046e+04 5.558e-10
 85.67960   -120.5 9.928e+03 4.326e-10
 85.68968   -120.4 9.772e+03 3.628e-10
 85.70613   -120.8 9.683e+03 3.262e-10
 85.73644   -121.9 9.631e+03 3.032e-10
 85.77683   -123.7 9.568e+03 2.926e-10
 85.81712   -125.7 9.577e+03 3.031e-10
 85.84219   -127.5 9.761e+03 3.607e-10
 85.86234   -128.2 9.924e+03 4.182e-10
 85.89771   -129.5 9.977e+03 4.462e-10
 85.93800   -130.4 9.854e+03 4.306e-10
 85.97829   -131.1 9.600e+03 3.672e-10
 86.00458   -131.7 9.362e+03 3.030e-10
 86.02473   -132.4 9.310e+03 2.781e-10
 86.05887   -133.1 9.271e+03 2.581e-10
 86.09916   -133.6 9.290e+03 2.568e-10
 86.13945   -133.8 9.497e+03 2.938e-10
 86.16697   -133.7 9.755e+03 3.528e-10
 86.18712   -133.5 9.679e+03 3.607e-10
 86.22004   -134.9 1.005e+04 3.866e-10
 86.26033   -134.5 1.003e+04 3.654e-10
 86.30062   -134.5 1.001e+04 3.391e-10
 86.32937   -134.9 9.976e+03 3.277e-10
 86.34951   -135.3 9.723e+03 3.005e-10
 86.38120   -135.7 9.810e+03 3.230e-10
 86.41046   -135.3 9.859e+03 3.477e-10
 86.42044   -135.4 9.808e+03 3.541e-10
 86.43137   -135.3 9.844e+03 3.755e-10
 86.45152   -135.3 9.813e+03 4.262e-10
 86.47166   -135.3 9.827e+03 4.761e-10
 86.49156   -135.7 9.889e+03 5.331e-10
 86.50164   -134.9 9.689e+03 4.510e-10
 86.51195   -136.1 9.964e+03 5.190e-10
 86.53210   -140.1 1.207e+04 8.730e-10
 86.54725   -144.6 1.444e+04 1.984e-09
 86.55732   -147.6 1.504e+04 2.494e-09
 86.57239   -150.4 1.663e+04 4.881e-09
 86.58283   -153.1 1.813e+04 7.098e-09
 86.59290   -151.8 1.749e+04 6.149e-09
 86.61268   -155.7 1.883e+04 7.311e-09
 86.63283   -161.4 1.910e+04 7.275e-09
 86.65297   -168.2 1.785e+04 5.005e-09
 86.66403   -174.6 1.462e+04 2.914e-09
 86.67410   -172.9 1.564e+04 3.433e-09
 86.69326   -177.5 1.296e+04 2.204e-09
 86.71341   -179.7 1.226e+04 1.666e-09
 86.73355   -181.2 1.205e+04 1.326e-09
 86.74522   -183.0 1.161e+04 1.051e-09
 86.75530   -182.2 1.166e+04 1.105e-09
 86.77385   -183.8 1.116e+04 8.779e-10
 86.79399   -185.1 1.077e+04 7.320e-10
 86.81414   -186.1 1.052e+04 6.491e-10
 86.82642   -186.8 1.040e+04 6.142e-10
 86.83649   -185.8 1.028e+04 5.866e-10
 86.85443   -186.3 1.024e+04 5.704e-10
 86.87457   -186.9 1.025e+04 5.686e-10
 86.89472   -187.7 1.046e+04 5.851e-10
 86.90762   -191.2 1.194e+04 1.019e-09
 86.91769   -190.0 1.145e+04 8.614e-10
 86.93501   -190.9 1.198e+04 1.137e-09
 86.95516   -191.4 1.236e+04 1.466e-09
 86.97530   -191.5 1.262e+04 1.795e-09
 86.98881   -191.6 1.282e+04 2.072e-09
 86.99888   -190.7 1.251e+04 1.801e-09
 87.01559   -190.8 1.275e+04 2.023e-09
 87.03574   -191.1 1.303e+04 2.189e-09
 87.05588   -191.7 1.344e+04 2.332e-09
 87.07001   -192.5 1.392e+04 2.486e-09
 87.08008   -191.5 1.338e+04 2.196e-09
 87.09618   -192.5 1.370e+04 2.298e-09
 87.11632   -193.5 1.388e+04 2.378e-09
 87.13647   -194.4 1.391e+04 2.402e-09
 87.15120   -195.0 1.377e+04 2.360e-09
 87.16128   -194.2 1.324e+04 1.965e-09
 87.17676   -194.7 1.295e+04 1.760e-09
 87.19690   -195.1 1.257e+04 1.495e-09
 87.21705   -195.4 1.215e+04 1.230e-09
 87.23240   -195.6 1.176e+04 9.980e-10
 87.24247   -194.8 1.156e+04 9.183e-10
 87.25240   -195.0 1.126e+04 7.663e-10
 87.26247   -196.4 1.112e+04 7.301e-10
 87.27749   -196.4 1.091e+04 6.312e-10
 87.29763   -196.3 1.078e+04 5.650e-10
 87.31360   -196.2 1.073e+04 5.255e-10
 87.32367   -195.1 1.060e+04 4.877e-10
 87.33792   -194.9 1.058e+04 4.660e-10
 87.35807   -194.6 1.059e+04 4.606e-10
 87.37822   -194.3 1.059e+04 4.602e-10
 87.39479   -194.2 1.071e+04 4.717e-10
 87.40487   -193.0 1.052e+04 4.272e-10
 87.41851   -192.9 1.067e+04 4.464e-10
 87.43865   -192.8 1.078e+04 5.021e-10
 87.45880   -192.8 1.094e+04 5.940e-10
 87.47599   -192.7 1.118e+04 7.286e-10
 87.48606   -191.5 1.096e+04 6.146e-10
 87.49909   -191.4 1.121e+04 7.523e-10
 87.51923   -191.0 1.151e+04 9.224e-10
 87.53938   -190.7 1.179e+04 1.098e-09
 87.55718   -190.3 1.201e+04 1.250e-09
 87.56726   -189.3 1.172e+04 1.030e-09
 87.57967   -189.1 1.180e+04 1.097e-09
 87.59982   -188.8 1.181e+04 1.113e-09
 87.61001   -188.4 1.180e+04 1.113e-09
 87.62009   -188.9 1.159e+04 1.070e-09
 87.63838   -188.4 1.150e+04 1.017e-09
 87.64845   -187.6 1.123e+04 8.692e-10
 87.66025   -187.2 1.114e+04 8.200e-10
 87.68040   -186.7 1.110e+04 7.867e-10
 87.70055   -186.3 1.110e+04 7.741e-10
 87.71958   -185.8 1.110e+04 7.720e-10
 87.72965   -185.1 1.089e+04 6.852e-10
 87.74084   -184.7 1.097e+04 7.001e-10
 87.76098   -184.3 1.108e+04 7.503e-10
 87.78113   -183.9 1.121e+04 8.216e-10
 87.80077   -183.6 1.135e+04 9.074e-10
 87.81085   -183.1 1.127e+04 8.374e-10
 87.82142   -183.0 1.143e+04 9.294e-10
 87.84157   -182.9 1.161e+04 1.037e-09
 87.86171   -182.8 1.181e+04 1.160e-09
 87.88186   -182.8 1.203e+04 1.291e-09
 87.89204   -182.9 1.224e+04 1.415e-09
 87.90211   -182.9 1.222e+04 1.356e-09
 87.92215   -183.2 1.239e+04 1.463e-09
 87.94229   -183.4 1.249e+04 1.533e-09
 87.95755   -183.8 1.252e+04 1.554e-09
 87.96763   -184.6 1.230e+04 1.369e-09
 87.97324   -184.8 1.235e+04 1.394e-09
 87.98331   -185.0 1.230e+04 1.357e-09
 88.00273   -185.2 1.230e+04 1.360e-09
 88.02288   -185.4 1.230e+04 1.344e-09
 88.04302   -185.5 1.224e+04 1.287e-09
 88.07334   -186.3 1.220e+04 1.216e-09
 88.11373   -187.3 1.216e+04 1.177e-09
 88.13582   -188.1 1.241e+04 1.291e-09
 88.15597   -189.5 1.236e+04 1.278e-09
 88.18414   -189.8 1.288e+04 1.726e-09
 88.20419   -189.9 1.314e+04 1.993e-09
 88.21683   -189.7 1.347e+04 2.348e-09
 88.22690   -190.2 1.312e+04 1.984e-09
 88.24448   -189.9 1.318e+04 2.026e-09
 88.26462   -189.7 1.319e+04 2.015e-09
 88.28477   -189.6 1.306e+04 1.900e-09
 88.29802   -189.2 1.275e+04 1.657e-09
 88.30837   -189.8 1.125e+04 8.915e-10
 88.32534   -189.7 1.180e+04 1.162e-09
 88.34521   -189.2 1.143e+04 9.710e-10
 88.36535   -188.6 1.111e+04 8.302e-10
 88.37922   -187.9 1.085e+04 7.348e-10
 88.38929   -188.1 1.030e+04 5.485e-10
 88.40564   -187.3 1.024e+04 5.338e-10
 88.42579   -186.4 1.027e+04 5.389e-10
 88.44593   -185.5 1.036e+04 5.659e-10
 88.46051   -184.2 1.044e+04 5.848e-10
 88.48075   -184.1 9.605e+03 3.604e-10
 88.51664   -181.9 9.685e+03 3.712e-10
 88.54171   -180.3 9.803e+03 4.088e-10
 88.55168   -180.0 9.470e+03 3.198e-10
 88.56681   -179.1 9.530e+03 3.326e-10
 88.58695   -178.1 9.567e+03 3.447e-10
 88.60710   -177.2 9.579e+03 3.545e-10
 88.62281   -176.2 9.715e+03 3.913e-10
 88.64305   -175.6 9.430e+03 3.239e-10
 88.67780   -173.6 9.646e+03 3.817e-10
 88.71810   -171.7 9.906e+03 4.590e-10
 88.75839   -169.6 1.018e+04 5.522e-10
 88.78539   -167.8 1.044e+04 6.536e-10
 88.80554   -166.7 9.886e+03 4.432e-10
 88.83897   -165.0 1.018e+04 5.413e-10
 88.87926   -163.4 1.042e+04 6.382e-10
 88.91955   -161.9 1.061e+04 7.233e-10
 88.94778   -160.5 1.075e+04 7.888e-10
 88.96793   -160.1 1.087e+04 8.109e-10
 89.00014   -158.9 1.107e+04 8.920e-10
 89.02052   -157.8 1.113e+04 9.193e-10
 89.04066   -157.4 1.104e+04 9.036e-10
 89.08072   -156.0 1.104e+04 9.037e-10
 89.11018   -154.4 1.087e+04 8.224e-10
 89.13032   -154.6 1.097e+04 8.386e-10
 89.16130   -152.8 1.060e+04 6.708e-10
 89.20159   -150.9 1.025e+04 5.347e-10
 89.24188   -148.9 9.987e+03 4.456e-10
 89.27257   -146.8 9.820e+03 3.934e-10
 89.29271   -146.9 9.748e+03 3.595e-10
 89.32247   -144.7 9.671e+03 3.377e-10
 89.36276   -142.4 9.638e+03 3.292e-10
 89.40305   -140.0 9.623e+03 3.270e-10
 89.43496   -137.6 9.621e+03 3.264e-10
 89.45511   -137.7 9.625e+03 3.190e-10
 89.48363   -135.3 9.632e+03 3.209e-10
 89.52392   -132.9 9.657e+03 3.240e-10
 89.56421   -130.4 9.704e+03 3.289e-10
 89.59735   -127.8 9.781e+03 3.368e-10
 89.61750   -128.2 9.997e+03 3.637e-10
 89.64480   -125.4 9.971e+03 3.614e-10
 89.68509   -122.4 9.943e+03 3.676e-10
 89.71560   -120.7 1.029e+04 4.137e-10
 89.73574   -121.0 9.557e+03 2.635e-10
 89.75975   -120.9 9.958e+03 3.480e-10
 89.77979   -123.6 1.101e+04 5.757e-10
 89.79569   -125.1 1.223e+04 8.515e-10
 89.81584   -128.4 1.544e+04 2.425e-09
 89.83598   -129.3 1.785e+04 6.838e-09
 89.85082   -129.3 1.942e+04 1.513e-08
 89.86089   -128.6 1.926e+04 1.492e-08
 89.87119   -129.1 2.028e+04 2.278e-08
 89.88121   -129.6 2.075e+04 2.924e-08
 89.89129   -130.1 2.103e+04 3.533e-08
 89.89915   -130.7 2.087e+04 3.017e-08
 89.90418   -131.0 2.024e+04 2.267e-08
 89.91143   -131.7 2.023e+04 2.324e-08
 89.92151   -132.4 1.982e+04 2.283e-08
 89.93158   -132.9 1.926e+04 1.783e-08
 89.93695   -133.4 1.863e+04 1.334e-08
 89.94199   -133.9 1.819e+04 1.167e-08
 89.95172   -134.6 1.754e+04 8.930e-09
 89.96180   -135.4 1.670e+04 6.958e-09
 89.97187   -136.1 1.597e+04 5.590e-09
 89.97755   -136.6 1.542e+04 4.735e-09
 89.98259   -136.4 1.547e+04 4.842e-09
 89.99710   -137.0 1.488e+04 3.926e-09
 90.01321   -137.5 1.380e+04 2.692e-09
 90.02328   -136.9 1.355e+04 2.412e-09
 90.03744   -137.2 1.252e+04 1.721e-09
 90.05759   -137.1 1.185e+04 1.357e-09
 90.07301   -136.7 1.136e+04 1.110e-09
 90.08309   -136.5 1.163e+04 1.232e-09
 90.09441   -135.8 1.117e+04 1.006e-09
 90.10448   -135.2 1.107e+04 9.162e-10
 90.11802   -134.2 1.070e+04 7.650e-10
 90.13817   -133.3 1.038e+04 6.383e-10
 90.15831   -132.1 1.007e+04 5.264e-10
 90.17560   -130.6 9.810e+03 4.403e-10
 90.18568   -130.2 9.819e+03 4.364e-10
 90.20878   -129.0 9.668e+03 3.825e-10
 90.24692   -127.6 9.573e+03 3.544e-10
 90.26707   -126.2 9.686e+03 3.513e-10
 90.28946   -124.4 9.638e+03 3.421e-10
 90.32975   -122.8 9.725e+03 3.807e-10
 90.35987   -121.8 1.009e+04 4.783e-10
 90.37992   -121.0 1.038e+04 5.814e-10
 90.40006   -119.7 1.092e+04 7.917e-10
 90.41919   -118.6 1.136e+04 9.577e-10
 90.42926   -118.2 1.155e+04 1.033e-09
 90.43072   -117.2 1.211e+04 1.267e-09
 90.44080   -118.2 1.185e+04 1.200e-09
 90.46050   -117.4 1.225e+04 1.375e-09
 90.48064   -116.8 1.247e+04 1.484e-09
 90.50039   -116.3 1.261e+04 1.544e-09
 90.51046   -116.1 1.272e+04 1.604e-09
 90.53111   -116.2 1.269e+04 1.571e-09
 90.57150   -114.9 1.258e+04 1.492e-09
 90.59185   -112.9 1.221e+04 1.282e-09
 90.61200   -112.6 1.243e+04 1.406e-09
 90.65208   -109.9 1.185e+04 1.064e-09
 90.67295   -107.6 1.152e+04 8.855e-10
 90.68292   -107.0 1.160e+04 8.972e-10
 90.70225   -105.6 1.140e+04 8.070e-10
 90.72239   -103.3 1.107e+04 6.775e-10
 90.74254   -101.3 1.084e+04 5.869e-10
 90.75405    -98.6 1.058e+04 5.001e-10
 90.76412    -98.7 1.079e+04 5.405e-10
 90.77817    -96.1 1.064e+04 4.837e-10
 90.78824    -97.7 1.046e+04 4.379e-10
 90.80298    -95.0 1.040e+04 3.925e-10
 90.82312    -92.8 1.040e+04 3.670e-10
 90.83524    -89.0 1.047e+04 3.551e-10
 90.84532    -89.3 1.068e+04 3.942e-10
 90.86341    -86.5 1.075e+04 3.855e-10
 90.88356    -82.2 1.088e+04 4.006e-10
 90.90370    -78.5 1.114e+04 4.064e-10
 90.91644    -73.8 1.139e+04 4.468e-10
 90.92651    -76.0 1.153e+04 4.933e-10
 90.94399    -71.7 1.194e+04 5.220e-10
 90.96414    -75.1 3.474e+04 3.307e-10
 90.97920   -124.0 1.513e+05 1.412e-10
 90.98922   -141.4 1.105e+05 1.109e-09
 90.99754   -158.6 5.512e+04 2.728e-08
 91.00257   -161.4 3.778e+04 9.412e-08
 91.00937   -177.2 3.366e+04 2.055e-07
 91.01944   -204.1 3.593e+04 1.586e-07
 91.02952   -242.2 4.360e+04 2.453e-08
 91.03814   -285.6 4.681e+04 1.741e-09
 91.04317   -310.1 2.235e+04 7.286e-10
 91.04966   -318.2 1.815e+04 6.760e-10
 91.05973   -322.4 1.860e+04 8.069e-10
 91.06981   -326.5 1.994e+04 9.840e-10
 91.07878   -331.2 1.879e+04 1.354e-09
 91.08890   -323.5 1.462e+04 1.449e-09
 91.10516   -324.2 1.575e+04 1.916e-09
 91.12531   -322.9 1.639e+04 2.256e-09
 91.13578   -320.2 1.645e+04 2.533e-09
 91.14585   -315.4 1.414e+04 1.460e-09
 91.16003   -312.3 1.416e+04 1.575e-09
 91.17010   -308.7 1.372e+04 1.548e-09
 91.18574   -305.8 1.369e+04 1.629e-09
 91.20589   -302.9 1.367e+04 1.678e-09
 91.22603   -299.8 1.365e+04 1.710e-09
 91.24122   -296.7 1.364e+04 1.740e-09
 91.25130   -294.9 1.324e+04 1.634e-09
 91.26632   -292.2 1.321e+04 1.661e-09
 91.28647   -289.7 1.319e+04 1.683e-09
 91.30662   -287.2 1.317e+04 1.696e-09
 91.32242   -284.9 1.315e+04 1.700e-09
 91.33249   -284.2 1.286e+04 1.567e-09
 91.34691   -282.4 1.280e+04 1.571e-09
 91.36705   -280.7 1.263e+04 1.547e-09
 91.38720   -279.2 1.243e+04 1.486e-09
 91.40362   -277.9 1.221e+04 1.407e-09
 91.41369   -277.9 1.212e+04 1.327e-09
 91.42749   -276.9 1.193e+04 1.265e-09
 91.44764   -276.1 1.179e+04 1.232e-09
 91.46778   -275.6 1.172e+04 1.225e-09
 91.48332   -275.6 1.168e+04 1.221e-09
 91.49028   -274.9 1.133e+04 1.049e-09
 91.49489   -275.0 1.138e+04 1.041e-09
 91.50807   -275.0 1.138e+04 1.046e-09
 91.52822   -276.6 1.180e+04 1.150e-09
 91.54836   -280.3 1.486e+04 2.198e-09
 91.56601   -283.8 1.772e+04 4.930e-09
 91.57608   -283.7 1.836e+04 4.756e-09
 91.58357   -287.7 2.115e+04 9.932e-09
 91.59359   -288.6 2.208e+04 1.248e-08
 91.60367   -288.7 2.296e+04 1.552e-08
 91.61155   -291.4 2.535e+04 2.393e-08
 91.61658   -293.0 2.668e+04 3.381e-08
 91.62381   -296.1 2.732e+04 5.379e-08
 91.63389   -299.1 2.711e+04 7.200e-08
 91.64396   -301.8 2.671e+04 7.994e-08
 91.65214   -303.7 2.605e+04 8.185e-08
 91.65718   -305.0 2.454e+04 1.102e-07
 91.66203   -305.9 2.372e+04 7.708e-08
 91.66706   -302.3 2.567e+04 6.173e-08
 91.67418   -303.5 2.444e+04 4.821e-08
 91.68425   -304.7 2.373e+04 3.183e-08
 91.69274   -306.1 2.254e+04 2.091e-08
 91.69778   -306.4 2.196e+04 2.288e-08
 91.70440   -307.5 2.056e+04 1.495e-08
 91.71447   -308.6 1.907e+04 1.038e-08
 91.72454   -309.4 1.780e+04 7.693e-09
 91.73334   -310.0 1.698e+04 6.128e-09
 91.73838   -309.7 1.715e+04 6.548e-09
 91.74469   -309.9 1.659e+04 5.496e-09
 91.75476   -309.9 1.620e+04 4.912e-09
 91.76992   -309.9 1.588e+04 4.539e-09
 91.79011   -309.2 1.541e+04 4.069e-09
 91.80960   -308.2 1.471e+04 3.487e-09
 91.81967   -307.4 1.473e+04 3.517e-09
 91.83040   -306.2 1.415e+04 3.111e-09
 91.84093   -304.9 1.383e+04 2.906e-09
 91.85100   -303.9 1.402e+04 3.077e-09
 91.87069   -302.5 1.391e+04 3.021e-09
 91.89079   -301.1 1.380e+04 2.979e-09
 91.91094   -299.2 1.342e+04 2.688e-09
 91.93113   -297.8 1.322e+04 2.510e-09
 91.95128   -296.3 1.297e+04 2.260e-09
 91.97142   -294.7 1.270e+04 1.977e-09
 91.98206   -293.2 1.246e+04 1.707e-09
 91.99213   -292.7 1.235e+04 1.653e-09
 92.01171   -291.4 1.215e+04 1.435e-09
 92.03186   -290.1 1.195e+04 1.245e-09
 92.05201   -288.9 1.178e+04 1.091e-09
 92.06326   -287.7 1.162e+04 9.729e-10
 92.07333   -287.2 1.155e+04 9.547e-10
 92.09230   -286.1 1.139e+04 8.521e-10
 92.11244   -285.1 1.123e+04 7.728e-10
 92.13259   -284.1 1.106e+04 7.102e-10
 92.14445   -283.1 1.085e+04 6.531e-10
 92.15453   -282.5 1.067e+04 5.903e-10
 92.17288   -281.2 1.038e+04 5.106e-10
 92.18847   -279.5 1.009e+04 4.358e-10
 92.19854   -279.8 1.028e+04 5.089e-10
 92.21317   -277.9 1.002e+04 4.263e-10
 92.22565   -275.9 9.854e+03 3.714e-10
 92.23572   -275.2 9.852e+03 3.554e-10
 92.26363   -274.2 9.799e+03 3.305e-10
 92.30402   -272.2 9.598e+03 2.931e-10
 92.34431   -269.7 9.330e+03 2.566e-10
 92.37816   -266.9 9.074e+03 2.260e-10
 92.39831   -265.6 8.940e+03 2.025e-10
 92.42489   -262.8 8.777e+03 1.846e-10
 92.46519   -260.1 8.644e+03 1.690e-10
 92.50548   -257.4 8.552e+03 1.557e-10
 92.53621   -254.8 8.496e+03 1.463e-10
 92.55114   -255.1 8.381e+03 1.374e-10
 92.56070   -253.8 8.372e+03 1.296e-10
 92.58606   -251.3 8.274e+03 1.172e-10
 92.62635   -248.7 8.196e+03 1.067e-10
 92.66664   -246.2 8.169e+03 1.004e-10
 92.70295   -243.8 8.168e+03 9.870e-11
 92.72309   -242.5 8.141e+03 9.133e-11
 92.74723   -240.1 8.143e+03 9.068e-11
 92.78752   -237.8 8.204e+03 9.273e-11
 92.82781   -235.5 8.295e+03 1.015e-10
 92.86534   -233.3 8.437e+03 1.180e-10
 92.88549   -232.0 8.342e+03 1.063e-10
 92.90839   -229.8 8.467e+03 1.234e-10
 92.94868   -227.5 8.623e+03 1.474e-10
 92.98897   -225.3 8.813e+03 1.796e-10
 93.02773   -223.1 9.036e+03 2.213e-10
 93.04788   -222.0 8.796e+03 1.769e-10
 93.06956   -219.9 8.942e+03 2.033e-10
 93.10985   -217.9 9.114e+03 2.364e-10
 93.15014   -216.0 9.326e+03 2.774e-10
 93.19012   -214.2 9.568e+03 3.276e-10
 93.21027   -213.4 9.357e+03 2.732e-10
 93.23072   -211.8 9.652e+03 3.345e-10
 93.25143   -210.3 1.001e+04 4.226e-10
 93.27158   -210.8 1.020e+04 5.145e-10
 93.31130   -209.4 1.072e+04 7.127e-10
 93.34142   -208.1 1.110e+04 8.781e-10
 93.36147   -207.8 1.129e+04 9.660e-10
 93.37247   -207.5 1.153e+04 1.083e-09
 93.39271   -207.6 1.169e+04 1.180e-09
 93.42201   -207.4 1.177e+04 1.219e-09
 93.44205   -207.4 1.178e+04 1.224e-09
 93.45366   -207.3 1.170e+04 1.198e-09
 93.46374   -207.5 1.172e+04 1.220e-09
 93.48235   -207.1 1.153e+04 1.121e-09
 93.50249   -206.6 1.131e+04 1.006e-09
 93.52264   -206.0 1.110e+04 8.892e-10
 93.53486   -205.4 1.091e+04 7.845e-10
 93.54493   -205.3 1.070e+04 6.860e-10
 93.56293   -204.7 1.044e+04 5.703e-10
 93.59324   -204.1 1.014e+04 4.536e-10
 93.63363   -202.7 9.716e+03 3.297e-10
 93.67393   -201.4 9.602e+03 2.798e-10
 93.69745   -199.9 9.489e+03 2.529e-10
 93.71759   -199.5 9.177e+03 1.780e-10
 93.75451   -197.6 9.133e+03 1.723e-10
 93.79480   -195.6 9.132e+03 1.718e-10
 93.83509   -193.6 9.146e+03 1.731e-10
 93.85984   -191.5 9.177e+03 1.760e-10
 93.87998   -190.8 9.031e+03 1.433e-10
 93.91567   -188.6 9.084e+03 1.500e-10
 93.94651   -186.5 9.145e+03 1.559e-10
 93.96666   -186.5 9.149e+03 1.567e-10
 93.99626   -184.5 9.256e+03 1.681e-10
 94.02223   -182.6 9.368e+03 1.830e-10
 94.04238   -181.8 9.346e+03 1.698e-10
 94.07684   -180.0 9.475e+03 1.871e-10
 94.11713   -178.4 9.618e+03 2.102e-10
 94.15742   -177.0 9.791e+03 2.425e-10
 94.18462   -175.9 9.976e+03 2.852e-10
 94.20477   -175.7 1.015e+04 3.046e-10
 94.23800   -174.9 1.051e+04 3.931e-10
 94.27829   -174.2 1.086e+04 5.016e-10
 94.31859   -173.7 1.120e+04 6.381e-10
 94.34701   -173.3 1.150e+04 8.079e-10
 94.36716   -173.7 1.177e+04 1.021e-09
 94.39917   -173.6 1.186e+04 1.136e-09
 94.43946   -173.7 1.188e+04 1.216e-09
 94.47975   -174.0 1.184e+04 1.244e-09
 94.50941   -174.5 1.166e+04 1.225e-09
 94.52955   -174.7 1.152e+04 1.148e-09
 94.56033   -175.2 1.128e+04 1.057e-09
 94.60062   -175.5 1.099e+04 9.288e-10
 94.64092   -175.7 1.069e+04 8.042e-10
 94.66174   -175.7 1.042e+04 7.118e-10
 94.67247   -176.5 1.024e+04 6.389e-10
 94.69194   -176.6 1.030e+04 6.597e-10
 94.72150   -176.5 1.011e+04 6.081e-10
 94.76179   -176.4 9.958e+03 5.674e-10
 94.80208   -176.2 9.782e+03 5.166e-10
 94.83419   -175.9 9.545e+03 4.502e-10
 94.85434   -176.4 9.676e+03 5.056e-10
 94.88266   -175.9 9.341e+03 3.970e-10
 94.92296   -175.4 9.115e+03 3.353e-10
 94.96325   -174.7 9.044e+03 3.182e-10
 94.99658   -173.7 9.036e+03 3.161e-10
 95.01673   -173.8 9.101e+03 3.264e-10
 95.04383   -172.8 9.234e+03 3.566e-10
 95.08412   -171.9 9.461e+03 4.246e-10
 95.12441   -170.9 9.691e+03 5.056e-10
 95.15897   -169.9 9.905e+03 5.874e-10
 95.17912   -169.8 9.984e+03 6.198e-10
 95.20499   -168.6 1.012e+04 6.777e-10
 95.24529   -167.3 1.024e+04 7.280e-10
 95.28558   -166.0 1.033e+04 7.638e-10
 95.32137   -164.7 1.039e+04 7.900e-10
 95.34151   -164.0 1.040e+04 7.998e-10
 95.35682   -162.6 1.048e+04 8.315e-10
 95.37696   -164.1 1.034e+04 7.670e-10
 95.40645   -162.6 1.015e+04 6.534e-10
 95.44674   -161.1 9.867e+03 5.110e-10
 95.48376   -159.8 9.517e+03 3.859e-10
 95.50390   -158.8 9.939e+03 5.298e-10
 95.52732   -157.6 9.609e+03 4.212e-10
 95.56762   -156.6 9.350e+03 3.520e-10
 95.60791   -155.8 9.287e+03 3.251e-10
 95.64615   -155.0 9.307e+03 3.217e-10
 95.66630   -153.7 9.607e+03 3.999e-10
 95.68849   -153.0 9.797e+03 4.335e-10
 95.72878   -152.6 1.001e+04 4.960e-10
 95.76907   -152.2 1.034e+04 6.052e-10
 95.79919   -151.5 1.067e+04 7.447e-10
 95.81842   -151.4 1.082e+04 7.935e-10
 95.82849   -150.9 1.116e+04 9.577e-10
 95.83939   -150.8 1.141e+04 1.071e-09
 95.85953   -150.7 1.156e+04 1.138e-09
 95.87968   -150.6 1.161e+04 1.159e-09
 95.89962   -150.4 1.162e+04 1.160e-09
 95.90969   -150.2 1.194e+04 1.387e-09
 95.91997   -149.8 1.178e+04 1.302e-09
 95.94011   -149.1 1.147e+04 1.071e-09
 95.96026   -148.4 1.107e+04 8.268e-10
 95.98041   -147.6 1.067e+04 6.218e-10
 95.99089   -146.7 1.033e+04 4.713e-10
 96.00096   -146.3 1.046e+04 5.065e-10
 96.02070   -145.5 1.021e+04 3.966e-10
 96.05101   -144.4 1.014e+04 3.520e-10
 96.07204   -143.5 1.008e+04 3.199e-10
 96.09219   -143.9 9.885e+03 2.641e-10
 96.13169   -142.3 9.745e+03 2.229e-10
 96.15347   -140.6 9.685e+03 2.049e-10
 96.17362   -139.7 9.661e+03 1.907e-10
 96.21228   -138.0 9.602e+03 1.761e-10
 96.25257   -136.2 9.557e+03 1.688e-10
 96.29286   -134.4 9.529e+03 1.657e-10
 96.31586   -132.6 9.534e+03 1.671e-10
 96.33601   -131.4 9.477e+03 1.463e-10
 96.37344   -129.5 9.511e+03 1.489e-10
 96.41373   -127.5 9.586e+03 1.549e-10
 96.45402   -125.6 9.697e+03 1.626e-10
 96.47826   -123.9 9.874e+03 1.772e-10
 96.49840   -122.4 9.761e+03 1.568e-10
 96.53461   -120.8 9.980e+03 1.793e-10
 96.57490   -119.3 1.025e+04 2.327e-10
 96.61519   -117.7 1.056e+04 3.299e-10
 96.64065   -116.1 1.087e+04 4.569e-10
 96.66079   -114.5 1.073e+04 3.989e-10
 96.69577   -112.7 1.102e+04 5.320e-10
 96.73606   -111.0 1.118e+04 6.113e-10
 96.76712   -109.3 1.120e+04 6.280e-10
 96.78727   -109.0 1.094e+04 5.159e-10
 96.80304   -107.1 1.081e+04 4.387e-10
 96.82319   -105.4 1.105e+04 5.827e-10
 96.85694   -103.5 1.089e+04 5.061e-10
 96.89723   -101.6 1.072e+04 4.127e-10
 96.93752    -99.7 1.059e+04 3.440e-10
 96.96543    -97.9 1.047e+04 2.965e-10
 96.98558    -96.2 1.078e+04 4.337e-10
 97.01810    -94.4 1.067e+04 3.850e-10
 97.05839    -92.7 1.059e+04 3.498e-10
 97.09868    -91.0 1.056e+04 3.272e-10
 97.12782    -89.6 1.057e+04 3.196e-10
 97.14797    -88.4 1.099e+04 5.292e-10
 97.17927    -87.1 1.111e+04 5.805e-10
 97.21956    -86.0 1.116e+04 5.943e-10
 97.25985    -84.9 1.115e+04 5.646e-10
 97.29022    -83.6 1.101e+04 4.721e-10
 97.31036    -82.6 1.136e+04 7.050e-10
 97.34043    -81.3 1.108e+04 4.901e-10
 97.38072    -80.2 1.101e+04 3.661e-10
 97.42102    -79.3 1.110e+04 3.442e-10
 97.45261    -78.6 1.135e+04 4.302e-10
 97.47275    -77.8 1.165e+04 6.114e-10
 97.48235    -77.0 1.209e+04 9.037e-10
 97.50249    -77.9 1.226e+04 1.136e-09
 97.54189    -77.1 1.254e+04 1.397e-09
 97.58218    -76.6 1.256e+04 1.445e-09
 97.61500    -75.8 1.227e+04 1.168e-09
 97.63515    -75.1 1.260e+04 1.349e-09
 97.66276    -74.2 1.204e+04 7.947e-10
 97.70305    -73.5 1.155e+04 4.135e-10
 97.74335    -73.2 1.148e+04 2.748e-10
 97.77739    -73.1 1.149e+04 2.548e-10
 97.79754    -72.1 1.176e+04 2.618e-10
 97.82393    -72.5 1.221e+04 3.011e-10
 97.85405    -73.3 1.270e+04 5.730e-10
 97.86847    -73.4 1.263e+04 7.042e-10
 97.87854    -73.3 1.267e+04 7.152e-10
 97.89424    -73.2 1.309e+04 1.199e-09
 97.91439    -72.7 1.359e+04 1.669e-09
 97.93453    -72.5 1.405e+04 2.140e-09
 97.94966    -72.5 1.437e+04 2.549e-09
 97.95974    -72.2 1.446e+04 2.798e-09
 97.97483    -72.5 1.468e+04 3.147e-09
 97.99497    -72.9 1.485e+04 3.490e-09
 98.01512    -73.2 1.500e+04 3.845e-09
 98.03086    -73.4 1.507e+04 4.127e-09
 98.04093    -72.9 1.503e+04 4.095e-09
 98.05541    -73.0 1.500e+04 4.175e-09
 98.07555    -73.0 1.493e+04 4.171e-09
 98.09570    -72.7 1.467e+04 3.806e-09
 98.11205    -72.6 1.440e+04 3.124e-09
 98.12213    -72.3 1.422e+04 2.920e-09
 98.13599    -72.2 1.388e+04 2.352e-09
 98.15614    -72.4 1.343e+04 1.836e-09
 98.17628    -72.5 1.293e+04 1.423e-09
 98.18731    -72.4 1.244e+04 1.117e-09
 98.19420    -72.1 1.251e+04 1.156e-09
 98.20332    -71.8 1.249e+04 1.155e-09
 98.21657    -71.2 1.203e+04 9.078e-10
 98.23672    -70.5 1.166e+04 7.109e-10
 98.25686    -69.8 1.138e+04 5.537e-10
 98.27445    -69.1 1.120e+04 4.503e-10
 98.28452    -68.5 1.132e+04 3.975e-10
 98.30733    -67.8 1.118e+04 3.366e-10
 98.34771    -66.9 1.088e+04 2.659e-10
 98.38801    -65.3 1.062e+04 2.003e-10
 98.42696    -63.9 1.047e+04 1.599e-10
 98.44711    -63.6 1.054e+04 2.363e-10
 98.46859    -62.2 1.041e+04 2.075e-10
 98.50888    -60.6 1.027e+04 1.766e-10
 98.54917    -59.0 1.013e+04 1.425e-10
 98.58935    -57.4 9.963e+03 1.132e-10
 98.62964    -54.6 9.841e+03 1.033e-10
 98.67005    -52.9 9.645e+03 8.716e-11
 98.71034    -51.0 9.487e+03 8.103e-11
 98.75063    -48.8 9.375e+03 7.849e-11
 98.77189    -46.5 9.312e+03 7.622e-11
 98.79204    -45.5 9.254e+03 6.898e-11
 98.83121    -43.1 9.215e+03 6.683e-11
 98.87150    -40.8 9.226e+03 6.542e-11
 98.89265    -38.5 9.249e+03 6.526e-11
 98.91280    -38.2 9.265e+03 6.393e-11
 98.93428    -35.8 9.296e+03 6.325e-11
 98.95443    -34.8 9.297e+03 5.664e-11
 98.99238    -32.4 9.303e+03 5.602e-11
 99.03267    -30.0 9.297e+03 5.399e-11
 99.07296    -27.5 9.293e+03 5.150e-11
 99.09668    -25.1 9.292e+03 5.004e-11
 99.11682    -24.3 9.274e+03 5.076e-11
 99.15354    -22.0 9.313e+03 5.146e-11
 99.19383    -20.0 9.315e+03 6.022e-11
 99.23412    -17.9 9.283e+03 7.968e-11
 99.25907    -15.7 9.392e+03 1.128e-10
 99.27921    -14.5 9.306e+03 1.020e-10
 99.31471    -12.4 9.483e+03 1.275e-10
 99.35500    -10.4 9.646e+03 1.682e-10
 99.39529     -8.5 9.757e+03 2.127e-10
 99.42146     -6.8 9.751e+03 2.483e-10
 99.44161     -5.6 9.798e+03 2.368e-10
 99.47587     -3.8 9.778e+03 2.792e-10
 99.51616     -1.7 9.730e+03 3.053e-10
 99.55645      0.2 9.814e+03 2.616e-10
 99.58385      2.1 9.717e+03 2.237e-10
 99.59499      3.3 9.844e+03 3.124e-10
 99.60788      3.5 1.018e+04 4.004e-10
 99.63704      5.5 9.992e+03 3.201e-10
 99.67733      7.4 9.804e+03 2.380e-10
 99.71762      9.1 9.572e+03 1.851e-10
 99.74624     10.8 9.373e+03 1.690e-10
 99.76639     11.7 9.513e+03 1.595e-10
 99.79820     13.4 9.373e+03 1.599e-10
 99.83849     15.2 9.371e+03 1.788e-10
 99.87878     17.2 9.476e+03 2.090e-10
 99.90864     19.2 9.653e+03 2.361e-10
 99.92878     19.3 9.695e+03 2.461e-10
 99.95937     21.1 9.842e+03 2.702e-10
 99.99966     22.6 9.971e+03 2.630e-10
