# Columns:
#   distance along LOS (in CHIMPs)
#   peculiar velocity  (in km/s)
#   temperature (K)
#   HI number density
# pos=(80.171,17.9632,164.474), angles=(1.81995,1.53638)
  0.00307     -2.4 1.034e+04 3.219e-10
  0.01621     -2.0 1.030e+04 3.170e-10
  0.03638     -1.4 1.028e+04 3.182e-10
  0.05484     -0.7 1.030e+04 3.284e-10
  0.06492      0.6 1.030e+04 3.316e-10
  0.07671      1.3 1.046e+04 3.622e-10
  0.09688     -0.6 1.373e+04 5.616e-10
  0.11704     -1.3 1.548e+04 1.008e-09
  0.13212      0.2 1.548e+04 1.256e-09
  0.13972      0.1 1.585e+04 1.597e-09
  0.14476      1.4 1.570e+04 1.459e-09
  0.15223      0.9 1.672e+04 2.280e-09
  0.16232      0.2 1.919e+04 3.992e-09
  0.17240     -3.2 2.494e+04 1.064e-08
  0.17969    -10.0 2.950e+04 6.368e-08
  0.18473     -9.1 2.977e+04 5.953e-08
  0.19256    -16.1 2.760e+04 3.315e-07
  0.20265    -21.4 2.523e+04 6.496e-07
  0.21273    -24.9 2.491e+04 6.236e-07
  0.21965    -27.7 2.555e+04 4.068e-07
  0.22470    -26.9 2.541e+04 4.000e-07
  0.23290    -29.4 2.843e+04 1.349e-07
  0.24298    -34.5 4.010e+04 1.922e-08
  0.25306    -35.4 4.111e+04 5.744e-09
  0.25962    -41.7 4.139e+04 3.550e-09
  0.26466    -42.1 4.137e+04 3.139e-09
  0.27832    -72.3 3.365e+04 1.435e-09
  0.29465    -81.5 1.960e+04 1.285e-09
  0.30473    -83.8 1.930e+04 9.073e-10
  0.31870    -88.1 1.419e+04 7.097e-10
  0.33886    -92.1 1.129e+04 4.506e-10
  0.35903    -94.2 1.052e+04 3.905e-10
  0.36973    -94.7 1.033e+04 3.776e-10
  0.37520    -95.4 1.110e+04 4.890e-10
  0.38466    -98.3 1.079e+04 4.478e-10
  0.39936    -96.1 1.074e+04 4.763e-10
  0.41952    -94.0 1.076e+04 5.319e-10
  0.43969    -92.1 1.088e+04 5.494e-10
  0.45452    -90.5 1.073e+04 5.493e-10
  0.46460    -91.4 1.077e+04 6.009e-10
  0.48002    -89.7 1.075e+04 5.880e-10
  0.50019    -88.4 1.091e+04 6.457e-10
  0.52035    -87.8 1.081e+04 6.067e-10
  0.53445    -86.0 1.058e+04 5.143e-10
  0.54453    -86.3 1.070e+04 5.313e-10
  0.56068    -86.1 1.073e+04 5.207e-10
  0.59103    -83.8 1.193e+04 5.157e-10
  0.61458    -83.5 1.184e+04 4.738e-10
  0.63475    -85.0 1.173e+04 3.807e-10
  0.67179    -85.9 1.038e+04 4.154e-10
  0.69442    -86.7 9.794e+03 4.373e-10
  0.70440    -86.8 9.814e+03 4.376e-10
  0.72201    -86.7 9.807e+03 4.416e-10
  0.74217    -87.0 9.712e+03 4.631e-10
  0.76234    -86.4 9.707e+03 4.592e-10
  0.77426    -86.2 9.675e+03 4.413e-10
  0.78434    -86.4 9.649e+03 4.227e-10
  0.80267    -86.3 9.570e+03 3.937e-10
  0.83301    -87.0 9.543e+03 3.655e-10
  0.87344    -88.9 9.320e+03 3.257e-10
  0.91377    -89.9 9.307e+03 3.527e-10
  0.93432    -89.4 9.436e+03 4.390e-10
  0.95449    -88.9 9.154e+03 3.612e-10
  0.99444    -87.4 9.175e+03 3.747e-10
  1.03477    -86.4 9.212e+03 3.612e-10
  1.07403    -86.5 9.774e+03 3.783e-10
  1.09419    -85.5 9.271e+03 3.059e-10
  1.11543    -85.6 9.867e+03 3.943e-10
  1.14558    -85.9 1.077e+04 6.771e-10
  1.16385    -85.8 1.108e+04 8.379e-10
  1.17393    -85.0 1.057e+04 6.058e-10
  1.18581    -84.5 1.103e+04 1.015e-09
  1.20598    -83.7 1.131e+04 1.266e-09
  1.22614    -82.7 1.159e+04 1.553e-09
  1.24378    -81.9 1.181e+04 1.686e-09
  1.25387    -81.4 1.153e+04 1.467e-09
  1.26647    -80.7 1.166e+04 1.551e-09
  1.28664    -80.1 1.167e+04 1.554e-09
  1.30681    -79.5 1.152e+04 1.467e-09
  1.32372    -78.8 1.131e+04 1.335e-09
  1.33380    -78.2 1.116e+04 1.221e-09
  1.34714    -77.5 1.096e+04 1.106e-09
  1.36730    -76.8 1.074e+04 9.742e-10
  1.38747    -76.1 1.054e+04 8.389e-10
  1.40365    -75.2 1.037e+04 7.008e-10
  1.41374    -75.0 1.029e+04 6.977e-10
  1.42780    -74.2 1.016e+04 5.991e-10
  1.44796    -73.3 1.013e+04 5.385e-10
  1.46813    -72.6 9.999e+03 4.676e-10
  1.48359    -72.2 9.934e+03 4.518e-10
  1.49367    -71.9 1.007e+04 4.838e-10
  1.51864    -71.0 1.005e+04 4.727e-10
  1.54044    -69.1 1.003e+04 4.738e-10
  1.55518    -68.7 9.554e+03 3.667e-10
  1.57380    -68.2 9.917e+03 4.472e-10
  1.59940    -66.1 9.853e+03 4.434e-10
  1.63973    -63.9 9.895e+03 4.384e-10
  1.68006    -61.7 1.008e+04 4.284e-10
  1.71351    -59.7 1.040e+04 4.350e-10
  1.73367    -59.4 1.069e+04 4.776e-10
  1.76072    -57.6 1.095e+04 4.892e-10
  1.80106    -55.8 1.145e+04 5.728e-10
  1.83121    -55.0 1.156e+04 6.491e-10
  1.85127    -54.0 1.200e+04 7.808e-10
  1.87144    -53.2 1.251e+04 1.010e-09
  1.88326    -52.7 1.287e+04 1.253e-09
  1.89335    -53.1 1.322e+04 1.464e-09
  1.91177    -52.9 1.389e+04 2.072e-09
  1.93194    -54.4 1.596e+04 3.445e-09
  1.95210    -57.2 1.853e+04 6.747e-09
  1.96320    -58.9 1.965e+04 1.276e-08
  1.97328    -59.4 1.937e+04 1.396e-08
  1.98734    -58.2 1.936e+04 1.957e-08
  1.99738    -57.8 1.950e+04 2.034e-08
  2.00307    -57.0 1.961e+04 2.019e-08
  2.00811    -57.0 1.934e+04 2.066e-08
  2.01754    -56.3 1.910e+04 2.012e-08
  2.03271    -54.9 1.929e+04 1.594e-08
  2.04313    -55.4 1.922e+04 1.015e-08
  2.05322    -55.3 1.809e+04 7.211e-09
  2.07309    -57.2 1.743e+04 4.584e-09
  2.09326    -59.1 1.644e+04 3.086e-09
  2.11299    -59.8 1.595e+04 2.483e-09
  2.12307    -60.2 1.463e+04 1.406e-09
  2.12551    -60.0 1.412e+04 1.397e-09
  2.13559    -58.7 1.510e+04 2.209e-09
  2.15376    -57.9 1.503e+04 2.224e-09
  2.17392    -57.0 1.542e+04 2.079e-09
  2.19292    -56.2 1.512e+04 2.117e-09
  2.20300    -56.6 1.419e+04 1.263e-09
  2.21425    -55.6 1.379e+04 1.389e-09
  2.23442    -54.6 1.392e+04 1.381e-09
  2.25458    -53.5 1.388e+04 1.525e-09
  2.27286    -52.5 1.412e+04 1.650e-09
  2.28294    -53.2 1.375e+04 1.050e-09
  2.29491    -52.9 1.432e+04 1.195e-09
  2.31508    -52.5 1.457e+04 1.484e-09
  2.33525    -51.8 1.461e+04 1.865e-09
  2.35279    -50.7 1.460e+04 2.268e-09
  2.36288    -51.3 1.390e+04 1.427e-09
  2.37558    -50.2 1.400e+04 1.663e-09
  2.39574    -49.2 1.416e+04 1.876e-09
  2.41591    -48.1 1.426e+04 2.051e-09
  2.43273    -47.1 1.436e+04 2.169e-09
  2.44281    -47.7 1.299e+04 1.251e-09
  2.45624    -46.7 1.320e+04 1.266e-09
  2.47640    -46.1 1.358e+04 1.290e-09
  2.49657    -45.4 1.404e+04 1.333e-09
  2.51266    -45.0 1.463e+04 1.455e-09
  2.52275    -45.9 1.316e+04 8.992e-10
  2.53690    -45.9 1.387e+04 1.130e-09
  2.55707    -46.2 1.483e+04 1.520e-09
  2.57723    -46.9 1.574e+04 2.129e-09
  2.59260    -47.1 1.604e+04 2.932e-09
  2.60268    -48.2 1.624e+04 3.336e-09
  2.61756    -47.8 1.654e+04 5.122e-09
  2.63773    -47.1 1.794e+04 7.886e-09
  2.65789    -47.6 1.977e+04 1.005e-08
  2.67248    -49.2 2.166e+04 1.077e-08
  2.67748    -50.3 2.161e+04 1.560e-08
  2.68300    -51.0 2.223e+04 1.818e-08
  2.69309    -51.8 2.246e+04 2.238e-08
  2.70317    -51.8 2.277e+04 2.439e-08
  2.71067    -52.0 2.328e+04 2.289e-08
  2.72080    -52.5 2.340e+04 8.658e-09
  2.73856    -54.0 2.242e+04 7.224e-09
  2.75247    -55.9 2.083e+04 5.972e-09
  2.76255    -56.7 2.133e+04 1.121e-08
  2.77380    -57.4 2.128e+04 1.081e-08
  2.78383    -58.7 2.140e+04 1.149e-08
  2.79234    -59.8 2.148e+04 1.177e-08
  2.79738    -60.8 2.234e+04 1.628e-08
  2.80400    -62.0 2.274e+04 1.907e-08
  2.81408    -63.6 2.305e+04 2.305e-08
  2.82416    -65.4 2.343e+04 2.787e-08
  2.83231    -67.9 2.378e+04 3.325e-08
  2.83735    -69.3 2.389e+04 3.705e-08
  2.84433    -72.3 2.378e+04 3.885e-08
  2.85441    -75.2 2.321e+04 4.130e-08
  2.86449    -77.7 2.226e+04 3.770e-08
  2.87227    -79.8 2.107e+04 2.881e-08
  2.87731    -81.2 2.016e+04 1.777e-08
  2.88466    -83.1 1.924e+04 1.212e-08
  2.89474    -85.3 1.797e+04 7.452e-09
  2.90482    -86.4 1.715e+04 5.311e-09
  2.91224    -88.1 1.573e+04 3.601e-09
  2.92237    -89.0 1.489e+04 2.874e-09
  2.94021    -90.9 1.320e+04 1.628e-09
  2.96038    -91.9 1.247e+04 1.083e-09
  2.98054    -92.2 1.202e+04 8.377e-10
  2.99227    -92.3 1.152e+04 6.994e-10
  3.00236    -92.4 1.123e+04 6.121e-10
  3.02087    -92.0 1.086e+04 5.293e-10
  3.04104    -91.3 1.063e+04 4.751e-10
  3.06120    -90.4 1.042e+04 4.224e-10
  3.07221    -89.4 1.026e+04 3.683e-10
  3.08229    -89.4 1.016e+04 3.202e-10
  3.10153    -89.2 1.014e+04 3.128e-10
  3.13188    -87.9 1.012e+04 2.976e-10
  3.17231    -87.2 1.013e+04 2.748e-10
  3.20246    -86.2 1.013e+04 2.738e-10
  3.22200    -85.7 1.008e+04 2.732e-10
  3.23208    -86.2 1.009e+04 2.717e-10
  3.24269    -85.8 1.004e+04 2.656e-10
  3.26286    -86.0 1.063e+04 3.519e-10
  3.28302    -86.6 1.143e+04 5.139e-10
  3.29603    -87.4 1.222e+04 8.498e-10
  3.30485    -89.2 1.257e+04 1.245e-09
  3.31201    -89.7 1.250e+04 1.258e-09
  3.32335    -89.7 1.303e+04 1.977e-09
  3.34352    -89.4 1.361e+04 2.892e-09
  3.36369    -89.1 1.445e+04 3.937e-09
  3.38187    -89.8 1.597e+04 5.274e-09
  3.39195    -90.5 1.554e+04 4.504e-09
  3.40402    -94.2 1.795e+04 6.663e-09
  3.42418   -100.3 1.955e+04 1.080e-08
  3.43926   -104.5 2.028e+04 1.636e-08
  3.44929   -107.3 2.121e+04 2.125e-08
  3.45937   -110.4 2.252e+04 2.993e-08
  3.46674   -113.4 2.353e+04 3.764e-08
  3.47179   -113.4 2.377e+04 4.065e-08
  3.47954   -116.0 2.405e+04 4.412e-08
  3.48962   -118.3 2.368e+04 4.248e-08
  3.49971   -120.0 2.261e+04 3.118e-08
  3.50671   -121.7 2.111e+04 2.053e-08
  3.51175   -121.5 2.113e+04 2.063e-08
  3.52496   -123.0 1.981e+04 1.360e-08
  3.54174   -125.4 1.860e+04 6.086e-09
  3.55182   -124.8 1.859e+04 5.708e-09
  3.56534   -129.1 1.646e+04 1.742e-09
  3.58551   -133.7 1.265e+04 7.511e-10
  3.60567   -134.7 1.132e+04 5.797e-10
  3.62167   -134.3 1.113e+04 5.354e-10
  3.63175   -133.8 1.094e+04 4.684e-10
  3.64600   -133.0 1.087e+04 4.311e-10
  3.66617   -132.4 1.073e+04 3.933e-10
  3.68633   -131.6 1.060e+04 3.638e-10
  3.70161   -130.8 1.054e+04 3.477e-10
  3.71169   -130.5 1.048e+04 3.254e-10
  3.73684   -129.8 1.050e+04 3.270e-10
  3.77165   -128.4 1.045e+04 3.225e-10
  3.79182   -128.3 1.043e+04 3.164e-10
  3.81760   -126.8 1.044e+04 3.181e-10
  3.84776   -125.9 1.067e+04 3.375e-10
  3.86148   -125.2 1.090e+04 3.684e-10
  3.87156   -125.0 1.090e+04 3.682e-10
  3.88129   -124.3 1.127e+04 4.214e-10
  3.90155   -124.7 1.192e+04 6.790e-10
  3.93152   -123.9 1.220e+04 8.754e-10
  3.95169   -123.8 1.252e+04 1.009e-09
  3.97893   -123.3 1.289e+04 1.400e-09
  4.00908   -122.6 1.309e+04 1.564e-09
  4.02135   -122.2 1.350e+04 1.967e-09
  4.03143   -121.8 1.362e+04 1.995e-09
  4.04931   -121.6 1.406e+04 2.473e-09
  4.06948   -121.2 1.446e+04 3.079e-09
  4.08964   -120.6 1.476e+04 3.652e-09
  4.10128   -119.9 1.493e+04 4.044e-09
  4.11136   -120.1 1.496e+04 4.025e-09
  4.12997   -119.6 1.498e+04 4.169e-09
  4.15014   -119.2 1.486e+04 4.077e-09
  4.17031   -118.9 1.458e+04 3.723e-09
  4.18122   -118.8 1.441e+04 3.309e-09
  4.19130   -119.2 1.485e+04 4.189e-09
  4.21064   -118.9 1.476e+04 3.876e-09
  4.23080   -118.5 1.473e+04 3.468e-09
  4.25097   -118.2 1.471e+04 2.955e-09
  4.26115   -118.1 1.464e+04 2.431e-09
  4.27123   -118.2 1.518e+04 3.592e-09
  4.29130   -118.2 1.493e+04 2.906e-09
  4.31146   -118.4 1.456e+04 2.404e-09
  4.33100   -118.7 1.407e+04 2.083e-09
  4.34109   -118.5 1.471e+04 2.889e-09
  4.35179   -118.6 1.424e+04 2.539e-09
  4.37196   -118.6 1.388e+04 2.348e-09
  4.39213   -118.1 1.353e+04 2.183e-09
  4.41094   -117.5 1.322e+04 2.007e-09
  4.42102   -117.6 1.368e+04 2.502e-09
  4.43246   -117.0 1.329e+04 2.295e-09
  4.45262   -116.2 1.286e+04 2.079e-09
  4.46655   -115.5 1.253e+04 1.865e-09
  4.47663   -115.7 1.221e+04 1.442e-09
  4.49087   -114.8 1.226e+04 1.555e-09
  4.50096   -114.7 1.251e+04 1.721e-09
  4.51312   -114.0 1.239e+04 1.687e-09
  4.53328   -113.2 1.234e+04 1.731e-09
  4.55345   -112.3 1.227e+04 1.616e-09
  4.57081   -111.6 1.227e+04 1.556e-09
  4.58089   -111.6 1.251e+04 1.753e-09
  4.59378   -111.0 1.245e+04 1.666e-09
  4.61395   -110.1 1.238e+04 1.567e-09
  4.63411   -109.2 1.230e+04 1.471e-09
  4.65074   -108.2 1.223e+04 1.382e-09
  4.66083   -108.2 1.244e+04 1.540e-09
  4.67444   -107.5 1.235e+04 1.417e-09
  4.69461   -106.8 1.230e+04 1.333e-09
  4.71477   -106.1 1.224e+04 1.280e-09
  4.73068   -105.4 1.214e+04 1.238e-09
  4.74076   -105.5 1.239e+04 1.384e-09
  4.75510   -104.9 1.225e+04 1.332e-09
  4.77527   -104.2 1.216e+04 1.286e-09
  4.79544   -103.4 1.215e+04 1.238e-09
  4.82578   -103.0 1.239e+04 1.286e-09
  4.86621   -102.0 1.255e+04 1.332e-09
  4.89075   -100.4 1.243e+04 1.221e-09
  4.91091   -100.8 1.316e+04 1.628e-09
  4.94687    -99.3 1.266e+04 1.181e-09
  4.98720    -97.8 1.188e+04 8.439e-10
  5.02753    -96.0 1.087e+04 5.706e-10
  5.05062    -94.1 1.022e+04 4.274e-10
  5.05492    -94.2 1.027e+04 4.246e-10
  5.07217    -94.3 9.874e+03 4.021e-10
  5.10820    -91.9 9.554e+03 3.121e-10
  5.14853    -89.6 9.342e+03 2.554e-10
  5.18886    -87.1 9.157e+03 2.145e-10
  5.21049    -84.7 8.997e+03 1.798e-10
  5.23065    -84.3 8.983e+03 1.812e-10
  5.26952    -81.8 8.838e+03 1.513e-10
  5.30985    -79.4 8.730e+03 1.264e-10
  5.35018    -77.3 8.686e+03 1.117e-10
  5.39051    -74.7 8.812e+03 1.264e-10
  5.43084    -72.8 8.858e+03 1.512e-10
  5.47117    -70.2 8.855e+03 1.729e-10
  5.51006    -67.6 8.639e+03 1.786e-10
  5.53023    -66.7 8.785e+03 1.928e-10
  5.55184    -63.9 8.674e+03 1.719e-10
  5.59217    -61.3 8.646e+03 1.465e-10
  5.63250    -59.1 8.751e+03 1.252e-10
  5.66993    -57.2 8.960e+03 1.286e-10
  5.69010    -56.7 9.311e+03 1.602e-10
  5.71316    -55.3 9.853e+03 2.065e-10
  5.75349    -53.8 1.028e+04 3.271e-10
  5.79382    -52.1 1.073e+04 5.451e-10
  5.82980    -50.3 1.129e+04 8.393e-10
  5.84997    -50.1 1.199e+04 1.144e-09
  5.87448    -48.3 1.269e+04 1.547e-09
  5.91482    -46.8 1.292e+04 1.573e-09
  5.95515    -45.7 1.275e+04 1.416e-09
  5.98967    -45.3 1.214e+04 1.196e-09
  6.00984    -45.0 1.249e+04 1.488e-09
  6.03581    -44.4 1.195e+04 1.300e-09
  6.07614    -43.9 1.149e+04 1.101e-09
  6.11647    -43.6 1.098e+04 8.588e-10
  6.14954    -43.7 1.072e+04 7.482e-10
  6.16971    -43.9 1.111e+04 8.877e-10
  6.18695    -46.2 1.176e+04 1.060e-09
  6.20702    -48.1 1.222e+04 1.367e-09
  6.22232    -48.3 1.248e+04 1.738e-09
  6.23241    -49.3 1.250e+04 2.020e-09
  6.23936    -49.1 1.274e+04 2.321e-09
  6.24945    -49.9 1.328e+04 2.722e-09
  6.26752    -50.4 1.386e+04 2.923e-09
  6.28768    -51.3 1.425e+04 3.006e-09
  6.30785    -52.3 1.431e+04 2.904e-09
  6.31930    -53.4 1.429e+04 2.883e-09
  6.32938    -55.9 1.455e+04 3.044e-09
  6.34818    -62.3 1.799e+04 3.528e-09
  6.36834    -71.8 2.272e+04 7.263e-09
  6.38342    -77.6 2.284e+04 1.897e-08
  6.39345    -79.0 2.254e+04 2.926e-08
  6.39914    -80.1 2.215e+04 3.624e-08
  6.40418    -81.3 2.227e+04 3.910e-08
  6.41362    -82.5 2.168e+04 3.821e-08
  6.42370    -83.8 2.191e+04 3.149e-08
  6.43378    -87.9 2.342e+04 2.065e-08
  6.43910    -99.1 2.376e+04 9.558e-09
  6.44415   -108.0 2.137e+04 5.155e-09
  6.45395   -122.2 1.782e+04 3.593e-09
  6.46403   -129.0 1.730e+04 4.206e-09
  6.47403   -132.8 1.738e+04 5.855e-09
  6.47907   -134.3 1.710e+04 5.903e-09
  6.48420   -136.9 1.714e+04 7.957e-09
  6.49428   -138.7 1.744e+04 1.012e-08
  6.50436   -140.1 1.785e+04 1.160e-08
  6.51400   -141.3 1.822e+04 1.191e-08
  6.51904   -141.5 1.801e+04 1.125e-08
  6.51990   -143.0 1.831e+04 1.094e-08
  6.52494   -142.7 1.814e+04 1.130e-08
  6.53461   -144.7 1.911e+04 8.568e-09
  6.54469   -148.6 1.841e+04 5.646e-09
  6.55396   -153.2 1.681e+04 4.017e-09
  6.55901   -152.8 1.674e+04 3.853e-09
  6.56995   -157.5 1.536e+04 2.878e-09
  6.59016   -163.6 1.364e+04 2.013e-09
  6.61033   -165.8 1.335e+04 1.774e-09
  6.62896   -167.4 1.338e+04 1.693e-09
  6.63904   -166.9 1.242e+04 1.326e-09
  6.65066   -168.2 1.239e+04 1.259e-09
  6.67083   -169.4 1.238e+04 1.200e-09
  6.69099   -170.5 1.242e+04 1.164e-09
  6.70889   -171.6 1.249e+04 1.175e-09
  6.71897   -170.9 1.171e+04 9.106e-10
  6.73132   -171.8 1.176e+04 9.275e-10
  6.75149   -172.5 1.172e+04 9.964e-10
  6.77165   -173.0 1.174e+04 1.135e-09
  6.78883   -173.6 1.223e+04 1.395e-09
  6.79891   -173.3 1.158e+04 1.084e-09
  6.80758   -174.2 1.268e+04 1.457e-09
  6.81767   -177.3 1.499e+04 2.714e-09
  6.83215   -178.8 1.600e+04 3.934e-09
  6.85232   -179.7 1.640e+04 4.942e-09
  6.86739   -180.1 1.643e+04 5.296e-09
  6.87371   -180.2 1.654e+04 5.382e-09
  6.87880   -180.4 1.636e+04 5.116e-09
  6.88756   -180.7 1.665e+04 5.279e-09
  6.89759   -181.1 1.694e+04 5.259e-09
  6.90767   -182.0 1.739e+04 5.152e-09
  6.91367   -182.8 1.794e+04 4.960e-09
  6.91871   -182.5 1.771e+04 4.784e-09
  6.92784   -184.5 1.881e+04 4.206e-09
  6.93792   -185.4 1.934e+04 4.046e-09
  6.94800   -188.5 2.001e+04 3.551e-09
  6.95364   -189.8 2.024e+04 3.524e-09
  6.95873   -188.9 1.990e+04 3.172e-09
  6.97331   -192.9 1.906e+04 3.023e-09
  6.98838   -195.3 1.824e+04 3.199e-09
  6.99361   -196.0 1.757e+04 3.838e-09
  6.99865   -195.1 1.761e+04 3.136e-09
  7.00850   -196.1 1.641e+04 4.195e-09
  7.01858   -196.4 1.659e+04 4.816e-09
  7.02858   -196.7 1.668e+04 7.091e-09
  7.03871   -195.5 1.595e+04 4.972e-09
  7.05397   -195.0 1.629e+04 6.955e-09
  7.07414   -193.9 1.665e+04 8.167e-09
  7.09430   -193.0 1.665e+04 7.522e-09
  7.10857   -192.5 1.642e+04 6.262e-09
  7.11865   -191.1 1.631e+04 6.758e-09
  7.13463   -190.6 1.600e+04 5.343e-09
  7.15480   -190.3 1.530e+04 3.484e-09
  7.17496   -190.6 1.413e+04 1.987e-09
  7.18850   -191.1 1.262e+04 1.137e-09
  7.19858   -189.0 1.328e+04 1.515e-09
  7.21529   -189.5 1.189e+04 9.137e-10
  7.23546   -189.6 1.079e+04 6.498e-10
  7.25562   -188.9 1.023e+04 5.445e-10
  7.26844   -187.5 1.013e+04 4.981e-10
  7.27852   -186.7 1.012e+04 4.987e-10
  7.29596   -185.2 1.008e+04 4.670e-10
  7.32630   -183.1 1.006e+04 4.478e-10
  7.36673   -180.5 9.913e+03 4.103e-10
  7.39304   -177.7 9.675e+03 3.605e-10
  7.41320   -177.8 9.597e+03 3.382e-10
  7.42850   -175.1 9.375e+03 2.978e-10
  7.44867   -173.6 9.568e+03 3.358e-10
  7.48772   -170.8 9.356e+03 2.987e-10
  7.52805   -168.1 9.161e+03 2.648e-10
  7.56821   -165.4 9.029e+03 2.425e-10
  7.60854   -161.4 9.132e+03 2.622e-10
  7.64905   -158.6 9.121e+03 2.607e-10
  7.68938   -155.9 9.172e+03 2.668e-10
  7.72808   -153.3 9.281e+03 2.883e-10
  7.74824   -152.3 9.326e+03 3.004e-10
  7.77004   -149.8 9.426e+03 3.297e-10
  7.81037   -147.3 9.526e+03 3.598e-10
  7.85070   -144.8 9.651e+03 3.877e-10
  7.88795   -142.3 9.768e+03 4.127e-10
  7.90811   -141.3 9.625e+03 3.788e-10
  7.93136   -138.6 9.701e+03 3.789e-10
  7.97170   -135.8 9.830e+03 3.856e-10
  8.01203   -133.1 9.903e+03 3.854e-10
  8.04218   -130.5 1.001e+04 3.897e-10
  8.05771   -130.3 1.010e+04 4.175e-10
  8.06789   -129.7 9.907e+03 3.517e-10
  8.09269   -127.5 1.013e+04 4.098e-10
  8.13302   -125.6 1.044e+04 5.397e-10
  8.17335   -123.7 1.072e+04 7.017e-10
  8.20769   -121.9 1.089e+04 8.100e-10
  8.22785   -120.3 1.075e+04 7.067e-10
  8.25401   -118.7 1.087e+04 7.779e-10
  8.29434   -117.3 1.078e+04 7.183e-10
  8.33467   -115.9 1.045e+04 5.523e-10
  8.36756   -114.7 9.980e+03 3.978e-10
  8.38772   -113.0 1.037e+04 5.032e-10
  8.41534   -111.9 9.980e+03 3.893e-10
  8.45567   -110.6 9.655e+03 3.247e-10
  8.49600   -109.1 9.441e+03 2.896e-10
  8.52743   -107.3 9.293e+03 2.619e-10
  8.54759   -106.2 9.720e+03 3.315e-10
  8.56356   -104.4 9.580e+03 3.016e-10
  8.58372   -104.0 9.999e+03 4.352e-10
  8.61699   -102.0 9.941e+03 4.144e-10
  8.65732   -100.1 9.941e+03 4.032e-10
  8.68730    -98.1 9.960e+03 3.863e-10
  8.70746    -97.5 1.019e+04 4.952e-10
  8.73798    -95.4 1.015e+04 4.561e-10
  8.77831    -93.5 1.006e+04 3.856e-10
  8.81865    -91.5 9.880e+03 3.072e-10
  8.84717    -89.5 9.610e+03 2.433e-10
  8.86733    -88.4 9.688e+03 2.794e-10
  8.89931    -86.1 9.439e+03 2.172e-10
  8.93964    -83.7 9.268e+03 1.768e-10
  8.97997    -81.3 9.213e+03 1.539e-10
  9.00704    -79.1 9.163e+03 1.483e-10
  9.02720    -77.8 9.239e+03 1.500e-10
  9.06063    -75.6 9.233e+03 1.606e-10
  9.10096    -73.5 9.262e+03 1.864e-10
  9.14129    -71.1 9.332e+03 2.164e-10
  9.16691    -68.6 9.468e+03 2.442e-10
  9.18707    -67.7 9.564e+03 2.655e-10
  9.22196    -64.9 9.737e+03 2.870e-10
  9.26229    -62.6 9.902e+03 2.730e-10
  9.30262    -60.5 9.936e+03 2.559e-10
  9.32678    -58.2 9.959e+03 2.550e-10
  9.34694    -57.2 1.002e+04 2.614e-10
  9.38328    -55.0 1.009e+04 2.960e-10
  9.42361    -52.7 1.033e+04 3.662e-10
  9.46394    -50.6 1.070e+04 4.820e-10
  9.48665    -48.6 1.118e+04 6.826e-10
  9.50681    -47.6 1.134e+04 7.711e-10
  9.54460    -45.5 1.210e+04 1.208e-09
  9.58493    -43.9 1.265e+04 1.568e-09
  9.62527    -42.5 1.288e+04 1.664e-09
  9.64652    -41.3 1.269e+04 1.473e-09
  9.65650    -40.8 1.329e+04 2.070e-09
  9.67548    -40.2 1.317e+04 1.942e-09
  9.69565    -39.7 1.293e+04 1.738e-09
  9.71581    -39.2 1.273e+04 1.582e-09
  9.72626    -38.9 1.258e+04 1.507e-09
  9.73424    -38.6 1.295e+04 1.803e-09
  9.75415    -38.0 1.242e+04 1.319e-09
  9.77641    -37.4 1.247e+04 1.443e-09
  9.79611    -37.1 1.247e+04 1.471e-09
  9.80619    -36.9 1.278e+04 1.744e-09
  9.81664    -36.8 1.287e+04 1.836e-09
  9.83681    -37.5 1.336e+04 2.165e-09
  9.85697    -39.8 1.491e+04 3.458e-09
  9.87605    -41.4 1.593e+04 6.037e-09
  9.88613    -40.9 1.590e+04 6.258e-09
  9.89221    -40.7 1.590e+04 7.847e-09
  9.90225    -39.8 1.584e+04 8.667e-09
  9.91233    -38.9 1.599e+04 9.632e-09
  9.92096    -38.6 1.599e+04 9.788e-09
  9.92600    -38.4 1.585e+04 9.406e-09
  9.93250    -36.2 1.519e+04 8.446e-09
  9.94258    -36.1 1.538e+04 7.797e-09
  9.95266    -35.4 1.539e+04 6.385e-09
  9.96093    -35.8 1.621e+04 5.681e-09
  9.96597    -35.3 1.594e+04 5.542e-09
  9.97792    -36.4 1.742e+04 5.495e-09
  9.99813    -39.7 2.167e+04 6.452e-09
 10.01830    -42.7 2.077e+04 8.675e-09
 10.03592    -45.6 1.883e+04 1.190e-08
 10.04595    -47.2 2.193e+04 1.430e-08
 10.05349    -49.0 2.191e+04 2.183e-08
 10.06357    -52.3 2.385e+04 2.638e-08
 10.07365    -55.1 2.443e+04 3.725e-08
 10.08083    -57.6 2.462e+04 4.760e-08
 10.08587    -58.2 2.150e+04 2.449e-07
 10.09382    -58.8 2.123e+04 2.538e-07
 10.10390    -57.7 2.249e+04 1.422e-07
 10.11399    -57.4 2.571e+04 5.897e-08
 10.12080    -58.6 2.837e+04 2.426e-08
 10.12584    -58.6 2.927e+04 3.048e-08
 10.13415    -61.1 2.723e+04 1.153e-08
 10.14423    -64.6 2.569e+04 5.680e-09
 10.15941    -80.0 1.607e+04 2.637e-09
 10.17962    -81.3 1.436e+04 1.964e-09
 10.19579    -81.6 1.408e+04 1.653e-09
 10.20587    -82.8 1.565e+04 3.308e-09
 10.21995    -82.9 1.554e+04 3.226e-09
 10.24012    -82.9 1.527e+04 3.032e-09
 10.26028    -82.4 1.488e+04 2.665e-09
 10.27572    -82.1 1.428e+04 2.199e-09
 10.28580    -82.1 1.550e+04 3.857e-09
 10.30061    -82.2 1.477e+04 2.973e-09
 10.31914    -82.5 1.420e+04 2.526e-09
 10.32922    -82.9 1.448e+04 3.145e-09
 10.34094    -82.7 1.416e+04 2.836e-09
 10.35566    -82.1 1.398e+04 2.675e-09
 10.36574    -82.7 1.422e+04 3.210e-09
 10.38128    -82.3 1.414e+04 3.034e-09
 10.40144    -81.7 1.418e+04 2.960e-09
 10.42161    -81.4 1.419e+04 2.858e-09
 10.43559    -81.0 1.407e+04 2.702e-09
 10.44568    -81.7 1.432e+04 3.105e-09
 10.46194    -81.3 1.415e+04 2.898e-09
 10.48210    -80.7 1.379e+04 2.605e-09
 10.50227    -80.1 1.329e+04 2.246e-09
 10.51553    -79.5 1.288e+04 1.874e-09
 10.52561    -80.0 1.287e+04 1.928e-09
 10.55278    -79.6 1.239e+04 1.490e-09
 10.58558    -78.5 1.186e+04 1.132e-09
 10.60574    -79.5 1.140e+04 1.001e-09
 10.63354    -78.0 1.083e+04 6.637e-10
 10.67387    -76.8 1.056e+04 5.476e-10
 10.71420    -75.2 1.044e+04 5.135e-10
 10.74545    -73.2 1.054e+04 5.193e-10
 10.76561    -73.8 1.049e+04 5.004e-10
 10.79486    -72.1 1.062e+04 4.779e-10
 10.83519    -71.3 1.134e+04 4.783e-10
 10.86535    -72.4 1.229e+04 7.300e-10
 10.88541    -73.2 1.272e+04 9.864e-10
 10.90440    -74.0 1.313e+04 1.521e-09
 10.91403    -73.9 1.409e+04 2.346e-09
 10.91520    -74.9 1.460e+04 3.480e-09
 10.92574    -75.2 1.460e+04 4.241e-09
 10.94591    -75.2 1.461e+04 4.678e-09
 10.96607    -75.1 1.471e+04 4.756e-09
 10.98506    -75.1 1.478e+04 4.503e-09
 10.99514    -75.5 1.440e+04 3.660e-09
 11.00641    -77.6 1.419e+04 2.568e-09
 11.02657    -80.7 1.306e+04 1.646e-09
 11.04674    -83.3 1.209e+04 1.168e-09
 11.06499    -85.3 1.161e+04 9.499e-10
 11.07507    -85.7 1.151e+04 9.158e-10
 11.08707    -86.8 1.119e+04 8.265e-10
 11.10723    -87.4 1.080e+04 7.526e-10
 11.12740    -87.5 1.059e+04 6.966e-10
 11.14493    -87.3 1.052e+04 6.207e-10
 11.15501    -86.7 1.067e+04 6.157e-10
 11.16773    -86.7 1.064e+04 5.241e-10
 11.18790    -87.4 1.060e+04 4.511e-10
 11.20806    -88.1 1.044e+04 4.115e-10
 11.22486    -88.5 1.043e+04 4.065e-10
 11.23494    -87.9 1.088e+04 4.397e-10
 11.24839    -88.3 1.123e+04 4.819e-10
 11.26856    -89.2 1.207e+04 6.300e-10
 11.28872    -90.9 1.262e+04 9.374e-10
 11.30480    -92.6 1.301e+04 1.477e-09
 11.31488    -90.1 1.273e+04 1.321e-09
 11.32905    -91.1 1.293e+04 1.938e-09
 11.34922    -91.2 1.338e+04 2.788e-09
 11.36938    -90.8 1.408e+04 3.650e-09
 11.38473    -90.5 1.460e+04 4.061e-09
 11.39481    -88.9 1.423e+04 3.496e-09
 11.40972    -89.7 1.473e+04 3.677e-09
 11.42988    -91.3 1.439e+04 3.095e-09
 11.45005    -92.8 1.358e+04 2.501e-09
 11.46467    -93.3 1.284e+04 1.881e-09
 11.47475    -91.9 1.334e+04 2.408e-09
 11.48966    -91.9 1.281e+04 1.794e-09
 11.49974    -91.6 1.310e+04 1.954e-09
 11.51054    -92.2 1.275e+04 1.223e-09
 11.53071    -94.2 1.210e+04 6.914e-10
 11.54470    -97.5 1.063e+04 4.098e-10
 11.55478    -94.5 1.146e+04 5.604e-10
 11.57104    -96.7 1.041e+04 4.178e-10
 11.60139    -96.5 1.029e+04 4.031e-10
 11.64181    -96.5 9.992e+03 3.898e-10
 11.68215    -95.6 9.799e+03 3.364e-10
 11.70467    -94.9 9.616e+03 2.447e-10
 11.72483    -94.5 9.698e+03 2.542e-10
 11.76281    -94.5 9.531e+03 1.834e-10
 11.80314    -94.6 9.536e+03 1.644e-10
 11.84347    -94.3 9.617e+03 1.656e-10
 11.86454    -93.9 9.935e+03 2.230e-10
 11.88470    -94.1 1.037e+04 3.131e-10
 11.92413    -92.8 1.051e+04 4.154e-10
 11.96446    -91.2 1.048e+04 4.788e-10
 12.00424    -89.4 1.036e+04 4.803e-10
 12.02441    -88.7 1.025e+04 4.464e-10
 12.04512    -86.9 9.833e+03 3.591e-10
 12.07512    -85.1 9.608e+03 2.988e-10
 12.09528    -85.5 9.426e+03 2.916e-10
 12.12579    -83.7 9.337e+03 2.608e-10
 12.16411    -81.6 9.137e+03 2.440e-10
 12.18428    -80.1 8.843e+03 2.047e-10
 12.20645    -77.8 8.788e+03 2.088e-10
 12.24678    -75.6 8.748e+03 2.313e-10
 12.28711    -73.3 8.763e+03 2.486e-10
 12.32398    -71.3 8.791e+03 2.573e-10
 12.34415    -69.7 8.736e+03 2.560e-10
 12.36777    -68.6 8.833e+03 2.698e-10
 12.40810    -68.5 9.163e+03 3.216e-10
 12.43825    -68.2 9.373e+03 4.129e-10
 12.45832    -68.9 1.001e+04 5.668e-10
 12.47849    -70.2 1.087e+04 8.437e-10
 12.49374    -71.7 1.162e+04 1.261e-09
 12.50382    -71.0 1.149e+04 1.157e-09
 12.51882    -72.3 1.208e+04 1.669e-09
 12.53898    -72.7 1.245e+04 2.104e-09
 12.55915    -72.8 1.274e+04 2.296e-09
 12.57367    -73.3 1.291e+04 2.223e-09
 12.58376    -73.3 1.297e+04 2.373e-09
 12.59948    -74.6 1.321e+04 1.783e-09
 12.61964    -77.8 1.280e+04 1.121e-09
 12.63981    -81.9 1.188e+04 8.384e-10
 12.65361    -84.8 1.147e+04 7.780e-10
 12.66369    -84.8 1.123e+04 7.150e-10
 12.67026    -86.7 1.116e+04 7.182e-10
 12.68035    -87.0 1.160e+04 9.490e-10
 12.70031    -89.2 1.161e+04 9.805e-10
 12.72047    -91.8 1.222e+04 1.173e-09
 12.73354    -94.6 1.285e+04 1.512e-09
 12.74363    -94.3 1.244e+04 1.295e-09
 12.76080    -96.4 1.293e+04 1.644e-09
 12.78097    -98.0 1.328e+04 1.885e-09
 12.80113    -99.4 1.337e+04 1.935e-09
 12.81348   -100.6 1.316e+04 1.749e-09
 12.82356    -99.9 1.298e+04 1.648e-09
 12.84147   -101.0 1.252e+04 1.332e-09
 12.86163   -102.2 1.205e+04 1.090e-09
 12.88180   -103.2 1.188e+04 1.000e-09
 12.89341   -104.1 1.191e+04 9.926e-10
 12.90350   -103.3 1.165e+04 9.158e-10
 12.92213   -104.8 1.208e+04 9.832e-10
 12.94229   -107.1 1.292e+04 1.444e-09
 12.96246   -108.9 1.368e+04 2.463e-09
 12.97335   -109.7 1.450e+04 4.122e-09
 12.98343   -109.5 1.400e+04 3.144e-09
 13.00279   -110.0 1.474e+04 4.805e-09
 13.02295   -110.6 1.539e+04 5.991e-09
 13.04312   -111.7 1.561e+04 6.274e-09
 13.06329   -112.5 1.499e+04 4.736e-09
 13.08345   -114.2 1.442e+04 3.565e-09
 13.10362   -116.1 1.338e+04 2.393e-09
 13.12314   -117.5 1.233e+04 1.562e-09
 13.13322   -116.7 1.223e+04 1.502e-09
 13.14395   -117.4 1.149e+04 9.965e-10
 13.16411   -117.9 1.093e+04 6.374e-10
 13.18428   -118.5 1.042e+04 4.200e-10
 13.21462   -118.9 9.993e+03 3.083e-10
 13.24564   -119.3 9.592e+03 2.427e-10
 13.26580   -119.2 9.432e+03 2.114e-10
 13.28320   -118.5 9.204e+03 1.702e-10
 13.30337   -117.7 9.199e+03 1.648e-10
 13.33572   -116.8 9.150e+03 1.556e-10
 13.37605   -115.8 9.149e+03 1.542e-10
 13.41638   -114.8 9.157e+03 1.548e-10
 13.44307   -113.7 9.128e+03 1.502e-10
 13.46324   -113.1 9.108e+03 1.475e-10
 13.49704   -111.9 9.006e+03 1.303e-10
 13.53737   -110.6 8.895e+03 1.103e-10
 13.57770   -109.3 8.808e+03 9.427e-11
 13.60294   -107.9 8.754e+03 8.480e-11
 13.62311   -107.3 8.701e+03 7.340e-11
 13.65836   -105.7 8.684e+03 6.968e-11
 13.69869   -104.0 8.687e+03 6.877e-11
 13.73902   -102.4 8.737e+03 6.876e-11
 13.76281   -100.8 8.922e+03 7.381e-11
 13.78298   -100.5 8.932e+03 7.300e-11
 13.81969    -99.0 9.068e+03 9.154e-11
 13.86002    -97.5 9.240e+03 1.210e-10
 13.90035    -96.0 9.449e+03 1.642e-10
 13.92268    -94.6 9.716e+03 2.271e-10
 13.94285    -94.5 9.719e+03 2.342e-10
 13.98101    -93.4 1.007e+04 3.320e-10
 14.02134    -92.3 1.053e+04 4.906e-10
 14.06167    -91.3 1.106e+04 7.315e-10
 14.08255    -90.5 1.154e+04 1.030e-09
 14.10272    -90.7 1.148e+04 1.018e-09
 14.14233    -90.2 1.181e+04 1.254e-09
 14.18267    -89.9 1.194e+04 1.344e-09
 14.22226    -89.5 1.182e+04 1.317e-09
 14.24242    -89.7 1.166e+04 1.237e-09
 14.26333    -89.0 1.142e+04 1.097e-09
 14.30366    -88.3 1.106e+04 8.835e-10
 14.34399    -87.4 1.059e+04 6.853e-10
 14.38213    -86.3 1.006e+04 5.111e-10
 14.40229    -86.1 1.005e+04 5.137e-10
 14.41615    -84.7 9.502e+03 3.844e-10
 14.43632    -84.2 8.699e+03 2.259e-10
 14.46498    -82.4 8.494e+03 1.996e-10
 14.50531    -80.5 8.354e+03 1.859e-10
 14.54200    -78.5 8.270e+03 1.817e-10
 14.56216    -78.0 8.271e+03 1.869e-10
 14.58598    -75.9 8.256e+03 1.883e-10
 14.62631    -73.9 8.287e+03 1.953e-10
 14.66664    -72.0 8.407e+03 2.097e-10
 14.70187    -70.4 8.618e+03 2.368e-10
 14.72203    -69.9 8.726e+03 2.610e-10
 14.74730    -68.5 9.010e+03 3.110e-10
 14.78763    -67.3 9.335e+03 3.729e-10
 14.82796    -66.9 9.788e+03 4.574e-10
 14.86174    -66.9 1.045e+04 5.672e-10
 14.88190    -66.8 1.062e+04 5.908e-10
 14.90862    -69.0 1.151e+04 7.158e-10
 14.93877    -72.6 1.120e+04 6.783e-10
 14.95156    -75.5 1.124e+04 7.077e-10
 14.96164    -75.8 1.139e+04 7.577e-10
 14.97901    -82.5 1.146e+04 8.190e-10
 14.99917    -96.9 1.818e+04 1.773e-09
 15.01130   -112.5 2.241e+04 6.020e-09
 15.02138   -115.7 2.447e+04 8.484e-09
 15.03150   -128.5 2.376e+04 1.739e-08
 15.03649   -127.3 2.408e+04 1.877e-08
 15.04445   -133.0 2.366e+04 2.065e-08
 15.05962   -141.0 2.237e+04 1.925e-08
 15.07983   -150.4 1.955e+04 8.701e-09
 15.10000   -159.0 1.499e+04 2.716e-09
 15.11143   -163.0 1.180e+04 1.329e-09
 15.12151   -163.4 1.114e+04 1.056e-09
 15.14033   -163.7 1.043e+04 8.773e-10
 15.16050   -162.9 1.016e+04 7.731e-10
 15.18066   -161.7 9.919e+03 6.832e-10
 15.19137   -160.8 9.906e+03 6.312e-10
 15.20145   -160.1 9.608e+03 5.197e-10
 15.22099   -159.1 9.668e+03 5.115e-10
 15.24116   -158.1 9.921e+03 5.197e-10
 15.26122   -157.3 1.021e+04 5.556e-10
 15.27130   -156.2 9.972e+03 4.596e-10
 15.28149   -155.3 1.024e+04 5.041e-10
 15.30165   -154.5 1.046e+04 5.740e-10
 15.32182   -153.6 1.062e+04 6.716e-10
 15.34115   -152.6 1.071e+04 7.831e-10
 15.35124   -151.7 1.056e+04 6.466e-10
 15.36215   -150.5 1.066e+04 7.438e-10
 15.38232   -149.3 1.074e+04 8.593e-10
 15.40248   -148.0 1.081e+04 9.684e-10
 15.42109   -146.6 1.087e+04 1.042e-09
 15.43117   -146.0 1.070e+04 9.161e-10
 15.44281   -144.6 1.075e+04 9.635e-10
 15.46298   -143.2 1.078e+04 9.937e-10
 15.48314   -141.8 1.082e+04 1.006e-09
 15.50102   -140.5 1.086e+04 1.004e-09
 15.51111   -140.1 1.057e+04 8.796e-10
 15.52348   -138.8 1.059e+04 8.677e-10
 15.54364   -137.5 1.063e+04 8.608e-10
 15.56381   -136.4 1.081e+04 8.784e-10
 15.58096   -135.6 1.108e+04 9.392e-10
 15.59104   -134.9 1.057e+04 7.619e-10
 15.59656   -134.3 1.088e+04 8.202e-10
 15.60664   -135.0 1.082e+04 7.774e-10
 15.62430   -134.5 1.106e+04 8.619e-10
 15.64447   -134.1 1.136e+04 1.030e-09
 15.66089   -133.8 1.172e+04 1.291e-09
 15.67098   -132.9 1.139e+04 1.057e-09
 15.68480   -132.4 1.183e+04 1.380e-09
 15.70496   -131.8 1.228e+04 1.796e-09
 15.72513   -131.1 1.270e+04 2.239e-09
 15.74083   -130.3 1.303e+04 2.619e-09
 15.75091   -129.6 1.274e+04 2.318e-09
 15.76546   -128.7 1.299e+04 2.606e-09
 15.78563   -127.9 1.307e+04 2.694e-09
 15.80579   -127.1 1.296e+04 2.563e-09
 15.82076   -126.4 1.266e+04 2.222e-09
 15.83085   -125.7 1.267e+04 2.233e-09
 15.84612   -125.1 1.231e+04 1.829e-09
 15.86629   -124.7 1.190e+04 1.445e-09
 15.88645   -124.6 1.147e+04 1.148e-09
 15.90070   -124.6 1.111e+04 9.536e-10
 15.91078   -124.0 1.116e+04 9.231e-10
 15.92679   -124.0 1.094e+04 8.575e-10
 15.95713   -123.8 1.094e+04 8.806e-10
 15.98083   -122.7 1.104e+04 8.984e-10
 16.00100   -121.9 1.086e+04 7.955e-10
 16.03789   -121.0 1.121e+04 8.586e-10
 16.06067   -120.1 1.117e+04 7.862e-10
 16.07065   -119.6 1.115e+04 7.684e-10
 16.08811   -119.4 1.122e+04 7.679e-10
 16.10827   -118.8 1.135e+04 7.472e-10
 16.12844   -118.5 1.178e+04 8.368e-10
 16.14051   -117.9 1.215e+04 9.438e-10
 16.15059   -117.2 1.169e+04 7.213e-10
 16.16877   -116.7 1.213e+04 8.035e-10
 16.18182   -116.4 1.251e+04 9.286e-10
 16.19190   -116.9 1.302e+04 1.850e-09
 16.20910   -116.3 1.304e+04 2.035e-09
 16.22044   -115.7 1.313e+04 2.262e-09
 16.23052   -115.2 1.303e+04 1.938e-09
 16.24943   -114.5 1.319e+04 2.242e-09
 16.26960   -113.7 1.340e+04 2.572e-09
 16.28976   -112.7 1.363e+04 2.886e-09
 16.30038   -111.5 1.389e+04 3.149e-09
 16.31046   -111.3 1.373e+04 2.937e-09
 16.33009   -110.1 1.385e+04 3.082e-09
 16.35026   -108.8 1.391e+04 3.116e-09
 16.37023   -107.4 1.392e+04 3.117e-09
 16.38031   -107.2 1.373e+04 2.893e-09
 16.39059   -105.8 1.375e+04 2.854e-09
 16.41076   -104.6 1.369e+04 2.738e-09
 16.43092   -103.3 1.353e+04 2.568e-09
 16.45016   -101.7 1.345e+04 2.472e-09
 16.46025   -101.5 1.313e+04 2.188e-09
 16.47125    -99.8 1.314e+04 2.142e-09
 16.49142    -98.5 1.324e+04 2.099e-09
 16.51158    -97.2 1.329e+04 2.012e-09
 16.53010    -95.5 1.335e+04 1.976e-09
 16.54018    -95.5 1.264e+04 1.548e-09
 16.55192    -93.8 1.295e+04 1.571e-09
 16.57208    -92.5 1.366e+04 1.703e-09
 16.59225    -91.5 1.450e+04 1.894e-09
 16.61003    -90.5 1.549e+04 2.216e-09
 16.62012    -90.6 1.426e+04 1.593e-09
 16.63258    -89.4 1.554e+04 1.968e-09
 16.65274    -88.6 1.698e+04 2.674e-09
 16.67291    -87.6 1.821e+04 3.850e-09
 16.68997    -86.2 1.922e+04 5.776e-09
 16.70005    -86.3 1.790e+04 2.999e-09
 16.71324    -84.9 1.909e+04 4.463e-09
 16.73340    -83.8 2.011e+04 6.269e-09
 16.75357    -82.9 2.110e+04 8.263e-09
 16.76703    -82.0 2.152e+04 8.878e-09
 16.77202    -82.2 2.093e+04 1.732e-08
 16.77485    -81.8 2.082e+04 2.116e-08
 16.77989    -81.6 2.074e+04 1.374e-08
 16.78876    -80.8 2.082e+04 1.699e-08
 16.79884    -80.2 2.042e+04 1.970e-08
 16.80893    -79.1 2.013e+04 2.278e-08
 16.81481    -78.1 1.989e+04 2.602e-08
 16.81986    -77.9 2.025e+04 1.797e-08
 16.82909    -76.7 2.001e+04 2.180e-08
 16.83918    -75.4 1.968e+04 2.561e-08
 16.84926    -73.7 1.958e+04 3.054e-08
 16.85478    -71.8 1.955e+04 3.579e-08
 16.85982    -71.6 1.975e+04 2.554e-08
 16.86942    -69.5 1.948e+04 2.972e-08
 16.87951    -67.4 1.929e+04 3.181e-08
 16.88959    -65.7 2.076e+04 3.615e-08
 16.89475    -67.4 2.406e+04 4.971e-08
 16.89979    -72.9 2.446e+04 6.063e-08
 16.90975    -77.5 2.309e+04 1.912e-07
 16.91984    -81.9 2.151e+04 5.000e-07
 16.92738    -85.5 2.114e+04 6.687e-07
 16.93215    -86.8 2.121e+04 7.258e-07
 16.93467    -88.6 2.050e+04 8.331e-07
 16.93743    -91.4 2.035e+04 8.806e-07
 16.94248    -93.5 2.086e+04 8.125e-07
 16.94752    -96.2 2.268e+04 4.578e-07
 16.95213    -99.2 2.464e+04 2.413e-07
 16.95465   -100.2 2.367e+04 2.763e-07
 16.96014   -102.9 2.431e+04 1.666e-07
 16.96964   -103.7 2.549e+04 8.245e-08
 16.97468   -105.3 2.335e+04 1.500e-07
 16.98033   -105.1 2.478e+04 7.163e-08
 16.99042   -105.4 2.543e+04 3.392e-08
 17.00050   -106.1 2.478e+04 1.707e-08
 17.00961   -106.7 2.298e+04 9.544e-09
 17.01465   -106.6 2.311e+04 1.885e-08
 17.02067   -106.8 2.160e+04 1.188e-08
 17.03075   -106.8 1.973e+04 8.089e-09
 17.04083   -106.5 1.780e+04 5.891e-09
 17.04958   -106.1 1.636e+04 4.596e-09
 17.05462   -105.5 1.751e+04 6.652e-09
 17.05961   -104.9 1.633e+04 5.308e-09
 17.06465   -105.7 1.552e+04 4.204e-09
 17.07108   -104.5 1.525e+04 4.032e-09
 17.08116   -103.9 1.508e+04 3.859e-09
 17.08959   -102.0 1.485e+04 3.524e-09
 17.09973   -102.2 1.546e+04 4.112e-09
 17.11655   -100.3 1.469e+04 3.109e-09
 17.13671    -98.5 1.366e+04 2.181e-09
 17.15688    -97.0 1.307e+04 1.628e-09
 17.16958    -95.4 1.280e+04 1.291e-09
 17.17966    -95.7 1.262e+04 1.025e-09
 17.19721    -94.4 1.230e+04 7.837e-10
 17.21738    -93.2 1.196e+04 5.918e-10
 17.23754    -91.9 1.164e+04 4.581e-10
 17.24951    -90.6 1.135e+04 3.726e-10
 17.25960    -90.9 1.104e+04 3.362e-10
 17.27787    -89.5 1.086e+04 2.895e-10
 17.29804    -88.2 1.070e+04 2.698e-10
 17.32838    -86.8 1.068e+04 2.708e-10
 17.36881    -84.8 1.054e+04 2.484e-10
 17.39950    -82.8 1.039e+04 2.401e-10
 17.41966    -82.8 1.034e+04 2.505e-10
 17.44947    -81.0 1.035e+04 2.504e-10
 17.48981    -79.7 1.041e+04 2.679e-10
 17.53014    -78.4 1.050e+04 3.170e-10
 17.55927    -76.9 1.050e+04 3.423e-10
 17.56925    -76.6 1.052e+04 3.519e-10
 17.58036    -76.2 1.050e+04 3.607e-10
 17.60052    -74.8 1.057e+04 3.876e-10
 17.62069    -74.5 1.055e+04 3.800e-10
 17.65103    -73.1 1.066e+04 3.769e-10
 17.69146    -72.4 1.068e+04 3.438e-10
 17.71924    -71.9 1.057e+04 3.332e-10
 17.73940    -70.9 1.024e+04 2.831e-10
 17.77212    -69.6 1.013e+04 2.826e-10
 17.81245    -68.3 1.019e+04 3.324e-10
 17.85278    -66.7 1.037e+04 4.100e-10
 17.87911    -65.0 1.058e+04 5.068e-10
 17.89927    -64.2 1.009e+04 3.376e-10
 17.92771    -62.8 1.031e+04 4.177e-10
 17.94788    -62.9 1.031e+04 4.072e-10
 17.97378    -61.7 1.061e+04 5.332e-10
 18.01411    -60.7 1.101e+04 7.534e-10
 18.03898    -59.5 1.152e+04 1.111e-09
 18.05914    -58.9 1.121e+04 9.926e-10
 18.09477    -57.5 1.156e+04 1.279e-09
 18.13510    -56.1 1.167e+04 1.385e-09
 18.17543    -54.6 1.132e+04 1.199e-09
 18.19885    -52.8 1.060e+04 7.968e-10
 18.21901    -52.4 1.008e+04 5.787e-10
 18.25609    -50.7 9.445e+03 3.593e-10
 18.29643    -49.0 8.982e+03 2.360e-10
 18.33676    -47.3 8.724e+03 1.888e-10
 18.35872    -45.7 8.520e+03 1.619e-10
 18.37888    -45.2 8.428e+03 1.433e-10
 18.41742    -43.5 8.385e+03 1.499e-10
 18.45775    -41.9 8.460e+03 1.562e-10
 18.49808    -40.2 8.555e+03 1.590e-10
 18.51859    -39.1 9.295e+03 1.798e-10
 18.53875    -38.1 8.429e+03 1.574e-10
 18.57874    -38.2 9.743e+03 1.918e-10
 18.60889    -39.3 1.044e+04 3.040e-10
 18.62896    -40.0 1.050e+04 4.285e-10
 18.64913    -40.2 1.024e+04 8.394e-10
 18.66818    -39.2 1.061e+04 1.103e-09
 18.67826    -39.1 1.036e+04 9.356e-10
 18.68946    -38.4 1.096e+04 1.178e-09
 18.70962    -38.2 1.133e+04 1.327e-09
 18.72979    -38.4 1.129e+04 1.361e-09
 18.74811    -38.3 1.106e+04 1.268e-09
 18.75820    -38.3 1.101e+04 1.284e-09
 18.77012    -37.8 1.075e+04 1.087e-09
 18.79028    -37.4 1.046e+04 8.235e-10
 18.81045    -37.6 1.023e+04 5.543e-10
 18.82805    -38.6 9.727e+03 3.943e-10
 18.83813    -38.3 9.857e+03 4.239e-10
 18.85078    -39.6 9.270e+03 2.916e-10
 18.87095    -39.8 9.105e+03 2.826e-10
 18.90129    -38.1 8.799e+03 2.672e-10
 18.94172    -36.9 8.523e+03 2.381e-10
 18.97803    -35.9 8.616e+03 2.385e-10
 18.99820    -35.3 8.636e+03 2.358e-10
 19.02238    -35.6 9.203e+03 2.743e-10
 19.05253    -37.7 9.953e+03 5.036e-10
 19.06786    -38.7 1.061e+04 8.119e-10
 19.07794    -38.7 1.062e+04 7.935e-10
 19.09277    -38.6 1.109e+04 1.270e-09
 19.10812    -38.0 1.158e+04 1.635e-09
 19.11820    -38.3 1.127e+04 1.605e-09
 19.13310    -37.1 1.122e+04 1.643e-09
 19.14779    -36.3 1.115e+04 1.434e-09
 19.15787    -36.1 1.121e+04 1.559e-09
 19.17343    -35.6 1.105e+04 1.248e-09
 19.19359    -35.9 1.076e+04 9.449e-10
 19.21376    -37.6 1.091e+04 7.524e-10
 19.22773    -41.3 1.172e+04 7.230e-10
 19.23781    -41.1 1.212e+04 9.767e-10
 19.25409    -44.4 1.223e+04 1.187e-09
 19.27426    -46.3 1.135e+04 1.339e-09
 19.29442    -46.5 1.120e+04 1.471e-09
 19.30766    -45.9 1.131e+04 1.423e-09
 19.31774    -45.0 1.171e+04 1.554e-09
 19.33475    -46.7 1.126e+04 1.013e-09
 19.35492    -49.6 9.950e+03 5.809e-10
 19.37508    -50.8 9.551e+03 4.319e-10
 19.38760    -51.6 9.430e+03 3.458e-10
 19.39768    -51.3 9.424e+03 3.445e-10
 19.42559    -52.1 9.305e+03 2.897e-10
 19.45764    -53.0 9.256e+03 2.726e-10
 19.47771    -53.3 9.701e+03 3.334e-10
 19.49608    -54.0 1.004e+04 4.127e-10
 19.51624    -54.5 1.028e+04 4.940e-10
 19.53641    -54.8 1.044e+04 6.187e-10
 19.54747    -54.7 1.044e+04 6.563e-10
 19.55755    -54.5 1.059e+04 7.770e-10
 19.57674    -53.8 1.040e+04 7.261e-10
 19.59690    -53.3 1.025e+04 6.039e-10
 19.61707    -53.3 1.013e+04 4.844e-10
 19.62740    -54.0 1.017e+04 4.216e-10
 19.63748    -54.1 1.027e+04 4.197e-10
 19.65740    -54.9 1.028e+04 4.061e-10
 19.67757    -56.0 1.050e+04 4.330e-10
 19.69338    -56.9 1.060e+04 5.851e-10
 19.70298    -56.6 1.065e+04 6.066e-10
 19.70734    -56.4 1.057e+04 5.651e-10
 19.71790    -56.5 1.074e+04 7.703e-10
 19.73806    -56.3 1.107e+04 1.001e-09
 19.75823    -56.0 1.143e+04 1.181e-09
 19.77719    -55.9 1.174e+04 1.250e-09
 19.78727    -56.0 1.169e+04 1.205e-09
 19.79856    -56.4 1.189e+04 1.246e-09
 19.81872    -57.3 1.198e+04 1.205e-09
 19.83889    -58.5 1.201e+04 1.153e-09
 19.85712    -59.9 1.230e+04 1.134e-09
 19.86721    -59.8 1.266e+04 1.327e-09
 19.87922    -62.0 1.325e+04 1.427e-09
 19.89939    -64.2 1.347e+04 1.620e-09
 19.91955    -65.4 1.333e+04 1.925e-09
 19.93706    -65.7 1.330e+04 2.222e-09
 19.94714    -65.4 1.373e+04 2.820e-09
 19.95988    -65.3 1.369e+04 2.761e-09
 19.98005    -65.8 1.346e+04 2.203e-09
 20.00021    -66.8 1.301e+04 1.791e-09
 20.01699    -67.6 1.262e+04 1.539e-09
 20.02708    -67.6 1.251e+04 1.385e-09
 20.04054    -67.9 1.221e+04 1.232e-09
 20.06071    -68.0 1.201e+04 1.130e-09
 20.08088    -67.8 1.178e+04 1.024e-09
 20.09693    -67.5 1.161e+04 9.145e-10
 20.10701    -67.4 1.159e+04 8.968e-10
 20.12121    -67.1 1.154e+04 8.204e-10
 20.14137    -66.9 1.156e+04 7.643e-10
 20.16154    -66.8 1.155e+04 7.378e-10
 20.17686    -66.6 1.152e+04 7.393e-10
 20.18695    -66.6 1.170e+04 8.384e-10
 20.20187    -66.6 1.186e+04 9.559e-10
 20.22203    -66.8 1.231e+04 1.186e-09
 20.24220    -67.6 1.318e+04 1.614e-09
 20.25680    -68.7 1.425e+04 2.374e-09
 20.26688    -69.2 1.468e+04 3.133e-09
 20.27864    -70.0 1.535e+04 4.520e-09
 20.28872    -68.0 1.493e+04 3.258e-09
 20.30270    -69.0 1.564e+04 4.705e-09
 20.32286    -69.5 1.599e+04 6.163e-09
 20.33673    -69.9 1.608e+04 7.236e-09
 20.34682    -69.7 1.600e+04 6.960e-09
 20.36319    -70.1 1.591e+04 6.867e-09
 20.38336    -70.7 1.582e+04 6.228e-09
 20.40352    -71.8 1.575e+04 5.600e-09
 20.41667    -73.0 1.562e+04 5.132e-09
 20.42675    -73.6 1.448e+04 2.769e-09
 20.44385    -74.9 1.418e+04 2.579e-09
 20.46402    -75.8 1.378e+04 2.559e-09
 20.48419    -76.2 1.346e+04 2.600e-09
 20.49660    -76.2 1.317e+04 2.587e-09
 20.50669    -76.4 1.259e+04 1.891e-09
 20.52452    -75.9 1.255e+04 1.970e-09
 20.54468    -75.4 1.248e+04 1.911e-09
 20.56485    -74.9 1.239e+04 1.756e-09
 20.57654    -74.7 1.233e+04 1.611e-09
 20.58662    -74.2 1.203e+04 1.430e-09
 20.60518    -73.9 1.206e+04 1.415e-09
 20.62534    -73.6 1.209e+04 1.430e-09
 20.64551    -73.1 1.217e+04 1.437e-09
 20.65647    -72.7 1.222e+04 1.436e-09
 20.66656    -72.2 1.215e+04 1.440e-09
 20.68584    -71.9 1.225e+04 1.458e-09
 20.70601    -71.9 1.236e+04 1.482e-09
 20.72617    -72.4 1.266e+04 1.549e-09
 20.73641    -73.3 1.306e+04 1.663e-09
 20.74649    -73.4 1.359e+04 1.896e-09
 20.76650    -74.9 1.409e+04 2.277e-09
 20.78667    -76.0 1.428e+04 2.790e-09
 20.80626    -76.4 1.433e+04 3.202e-09
 20.81634    -76.9 1.467e+04 3.917e-09
 20.82700    -77.2 1.427e+04 3.844e-09
 20.84716    -77.7 1.389e+04 3.274e-09
 20.86390    -78.2 1.342e+04 2.834e-09
 20.87398    -77.0 1.373e+04 3.056e-09
 20.88620    -77.5 1.346e+04 2.817e-09
 20.89628    -77.7 1.340e+04 2.882e-09
 20.90766    -77.8 1.289e+04 2.363e-09
 20.92783    -77.8 1.240e+04 1.762e-09
 20.94799    -77.8 1.191e+04 1.189e-09
 20.96613    -78.2 1.132e+04 7.312e-10
 20.97621    -78.6 1.117e+04 6.746e-10
 20.98832    -79.3 1.040e+04 4.179e-10
 21.00849    -79.9 9.653e+03 2.824e-10
 21.03608    -80.2 9.163e+03 2.177e-10
 21.05635    -80.5 9.331e+03 2.675e-10
 21.07926    -79.3 9.115e+03 2.198e-10
 21.11959    -78.4 9.116e+03 2.055e-10
 21.15992    -78.4 9.220e+03 2.106e-10
 21.19605    -79.0 9.802e+03 3.517e-10
 21.21622    -79.0 9.768e+03 3.750e-10
 21.24059    -79.2 1.032e+04 5.907e-10
 21.28092    -79.1 1.058e+04 7.460e-10
 21.32125    -79.3 1.058e+04 7.623e-10
 21.35592    -79.5 1.025e+04 5.586e-10
 21.37609    -79.6 1.013e+04 5.286e-10
 21.40191    -80.0 9.841e+03 3.291e-10
 21.43927    -81.3 9.777e+03 2.211e-10
 21.45944    -79.5 1.014e+04 3.625e-10
 21.48257    -80.6 1.031e+04 3.278e-10
 21.51579    -82.8 1.046e+04 3.256e-10
 21.53596    -84.0 1.105e+04 4.913e-10
 21.56323    -86.2 1.161e+04 7.907e-10
 21.60357    -88.0 1.187e+04 9.433e-10
 21.64390    -90.0 1.165e+04 8.052e-10
 21.67566    -91.7 1.092e+04 4.307e-10
 21.69583    -92.4 1.094e+04 4.277e-10
 21.72456    -93.5 1.042e+04 2.444e-10
 21.76489    -94.0 1.025e+04 2.048e-10
 21.80522    -93.8 1.022e+04 2.004e-10
 21.83553    -93.7 1.032e+04 2.492e-10
 21.85570    -94.0 1.019e+04 2.378e-10
 21.88588    -93.8 1.033e+04 3.150e-10
 21.91537    -93.4 1.054e+04 3.982e-10
 21.92535    -93.3 1.048e+04 3.833e-10
 21.93610    -93.4 1.052e+04 4.056e-10
 21.95627    -93.2 1.067e+04 4.739e-10
 21.97643    -93.0 1.077e+04 5.090e-10
 21.99521    -92.7 1.089e+04 5.424e-10
 22.00529    -92.6 1.074e+04 4.953e-10
 22.01676    -92.4 1.077e+04 5.031e-10
 22.03442    -92.1 1.083e+04 5.149e-10
 22.04450    -91.9 1.076e+04 4.937e-10
 22.05709    -91.6 1.075e+04 4.818e-10
 22.07514    -91.3 1.076e+04 4.655e-10
 22.08522    -91.0 1.064e+04 4.405e-10
 22.09742    -90.8 1.061e+04 4.270e-10
 22.11759    -90.4 1.055e+04 4.108e-10
 22.13776    -90.0 1.050e+04 4.024e-10
 22.15517    -89.5 1.046e+04 4.010e-10
 22.17544    -88.9 1.032e+04 3.854e-10
 22.20853    -88.0 1.026e+04 3.709e-10
 22.24886    -86.8 1.012e+04 3.365e-10
 22.28919    -85.3 9.861e+03 2.880e-10
 22.31514    -83.5 9.604e+03 2.403e-10
 22.33531    -83.0 9.614e+03 2.430e-10
 22.36985    -81.0 9.432e+03 2.058e-10
 22.41018    -79.0 9.305e+03 1.772e-10
 22.45052    -77.0 9.270e+03 1.595e-10
 22.47501    -75.2 9.240e+03 1.509e-10
 22.49518    -74.7 9.330e+03 1.668e-10
 22.53118    -72.9 9.376e+03 1.736e-10
 22.57151    -71.4 9.427e+03 1.912e-10
 22.60979    -70.0 9.453e+03 2.207e-10
 22.62995    -69.0 9.155e+03 1.675e-10
 22.63488    -67.6 9.198e+03 1.898e-10
 22.65505    -66.8 9.326e+03 2.216e-10
 22.69250    -65.3 9.350e+03 2.554e-10
 22.73283    -63.8 9.358e+03 2.941e-10
 22.77316    -62.1 9.345e+03 3.152e-10
 22.79475    -60.3 9.276e+03 3.155e-10
 22.81492    -59.7 9.482e+03 3.747e-10
 22.85383    -57.8 9.263e+03 3.287e-10
 22.89416    -55.9 8.982e+03 2.261e-10
 22.93446    -54.5 8.678e+03 1.441e-10
 22.97479    -53.0 8.614e+03 1.220e-10
 23.01515    -52.0 8.424e+03 1.071e-10
 23.05548    -50.6 8.385e+03 1.061e-10
 23.09433    -49.2 8.425e+03 1.252e-10
 23.11449    -49.6 8.468e+03 1.471e-10
 23.13614    -48.0 8.514e+03 1.707e-10
 23.17647    -46.2 8.568e+03 1.895e-10
 23.21680    -44.5 8.591e+03 1.942e-10
 23.25420    -43.2 8.618e+03 1.897e-10
 23.27436    -43.6 8.391e+03 1.463e-10
 23.29747    -42.4 8.381e+03 1.451e-10
 23.33780    -41.2 8.425e+03 1.586e-10
 23.37813    -40.0 8.546e+03 1.882e-10
 23.41407    -38.3 9.032e+03 2.515e-10
 23.43423    -38.5 8.589e+03 1.888e-10
 23.45879    -37.3 9.011e+03 2.402e-10
 23.48894    -37.8 9.776e+03 3.058e-10
 23.50389    -39.3 1.063e+04 4.717e-10
 23.51397    -38.8 1.050e+04 4.072e-10
 23.52917    -39.8 1.082e+04 6.583e-10
 23.54934    -39.7 1.092e+04 9.660e-10
 23.56951    -39.3 1.118e+04 1.299e-09
 23.58382    -39.0 1.141e+04 1.518e-09
 23.59391    -38.8 1.139e+04 1.502e-09
 23.60984    -38.4 1.156e+04 1.580e-09
 23.63000    -38.2 1.168e+04 1.571e-09
 23.65017    -40.5 1.327e+04 1.696e-09
 23.66376    -46.0 1.602e+04 2.289e-09
 23.67384    -49.0 1.702e+04 3.999e-09
 23.69050    -51.7 1.638e+04 6.017e-09
 23.71066    -52.0 1.599e+04 7.412e-09
 23.73083    -51.6 1.573e+04 7.098e-09
 23.74369    -51.7 1.540e+04 5.213e-09
 23.75378    -52.1 1.581e+04 5.300e-09
 23.77116    -56.4 1.496e+04 3.428e-09
 23.79020    -61.1 1.405e+04 2.690e-09
 23.80028    -61.0 1.404e+04 2.514e-09
 23.81149    -64.7 1.415e+04 2.668e-09
 23.82363    -67.2 1.440e+04 3.801e-09
 23.83371    -68.5 1.431e+04 3.846e-09
 23.85182    -68.8 1.455e+04 5.092e-09
 23.87199    -68.6 1.460e+04 5.464e-09
 23.89215    -68.3 1.429e+04 4.894e-09
 23.90356    -67.9 1.346e+04 3.222e-09
 23.91365    -68.6 1.269e+04 2.328e-09
 23.93248    -69.2 1.157e+04 1.353e-09
 23.95265    -69.9 1.051e+04 8.058e-10
 23.97282    -70.1 9.826e+03 5.302e-10
 23.98350    -70.0 9.459e+03 3.973e-10
 23.99358    -70.3 9.334e+03 3.559e-10
 24.02333    -69.7 9.221e+03 3.166e-10
 24.05355    -68.2 8.883e+03 2.466e-10
 24.07371    -67.9 8.590e+03 2.031e-10
 24.10409    -66.3 8.451e+03 1.801e-10
 24.14442    -64.9 8.452e+03 1.776e-10
 24.18475    -63.7 8.575e+03 2.018e-10
 24.21342    -62.5 8.733e+03 2.509e-10
 24.23358    -62.5 8.726e+03 2.567e-10
 24.26541    -61.2 8.870e+03 3.091e-10
 24.30574    -59.7 8.956e+03 3.292e-10
 24.34607    -58.5 8.936e+03 3.104e-10
 24.37329    -57.5 8.763e+03 2.661e-10
 24.39345    -57.6 8.726e+03 2.605e-10
 24.42673    -56.9 8.576e+03 2.334e-10
 24.46706    -55.9 8.505e+03 2.237e-10
 24.50740    -54.8 8.492e+03 2.181e-10
 24.53316    -53.8 8.517e+03 2.160e-10
 24.55332    -53.9 8.527e+03 2.179e-10
 24.58806    -53.7 8.842e+03 2.323e-10
 24.62839    -54.2 9.130e+03 3.019e-10
 24.66872    -54.4 9.516e+03 4.372e-10
 24.69303    -54.1 9.995e+03 5.561e-10
 24.71319    -54.1 1.006e+04 5.980e-10
 24.74938    -54.2 1.022e+04 6.248e-10
 24.78971    -54.8 1.016e+04 5.609e-10
 24.83004    -55.3 1.003e+04 5.299e-10
 24.85290    -55.0 9.968e+03 5.143e-10
 24.87306    -54.5 1.002e+04 5.297e-10
 24.91071    -53.6 9.857e+03 4.614e-10
 24.95083    -52.5 9.672e+03 3.541e-10
 24.97099    -53.5 9.602e+03 2.846e-10
 24.99137    -52.8 9.386e+03 1.757e-10
 25.01277    -52.3 9.284e+03 1.377e-10
 25.03293    -51.7 9.348e+03 1.531e-10
 25.07203    -51.0 9.339e+03 1.384e-10
 25.11236    -50.8 9.488e+03 1.480e-10
 25.15247    -50.9 9.670e+03 2.108e-10
 25.17264    -50.0 9.555e+03 1.805e-10
 25.19302    -49.8 9.731e+03 2.712e-10
 25.23335    -48.6 1.011e+04 3.716e-10
 25.27368    -47.6 1.026e+04 3.994e-10
 25.31234    -47.1 1.001e+04 3.111e-10
 25.33251    -46.2 9.936e+03 2.997e-10
 25.35435    -45.8 9.577e+03 2.169e-10
 25.39468    -45.2 9.274e+03 1.529e-10
 25.43501    -44.2 9.143e+03 1.109e-10
 25.47221    -43.1 9.027e+03 8.588e-11
 25.49238    -42.4 9.079e+03 1.037e-10
 25.51567    -41.1 8.920e+03 8.585e-11
 25.55600    -39.5 8.796e+03 7.793e-11
 25.59633    -37.6 8.741e+03 7.601e-11
 25.63208    -35.6 8.739e+03 7.653e-11
 25.65225    -35.0 8.716e+03 7.953e-11
 25.67699    -32.9 8.729e+03 8.021e-11
 25.71733    -30.8 8.712e+03 8.612e-11
 25.75766    -28.4 8.651e+03 9.165e-11
 25.79195    -26.0 8.690e+03 8.792e-11
 25.81212    -25.5 8.700e+03 8.751e-11
 25.83832    -23.5 8.798e+03 8.968e-11
 25.87865    -22.0 8.955e+03 1.051e-10
 25.91898    -20.2 8.947e+03 1.406e-10
 25.95182    -17.8 8.993e+03 1.781e-10
 25.97199    -17.4 9.044e+03 1.997e-10
 25.99964    -15.1 9.135e+03 2.094e-10
 26.03997    -13.2 9.180e+03 2.073e-10
 26.08030    -11.6 9.224e+03 2.098e-10
 26.11169    -10.4 9.323e+03 2.278e-10
 26.13186    -10.3 9.335e+03 2.319e-10
 26.14151     -9.0 9.378e+03 2.674e-10
 26.16168     -9.1 9.650e+03 3.343e-10
 26.20130     -7.4 9.465e+03 3.211e-10
 26.24163     -5.3 9.131e+03 2.487e-10
 26.27156     -3.4 8.844e+03 1.550e-10
 26.29173     -3.1 8.666e+03 1.197e-10
 26.32229     -2.1 8.515e+03 7.234e-11
 26.36262     -1.1 8.243e+03 5.910e-11
 26.40295      0.4 8.193e+03 5.984e-11
 26.43143      2.1 8.164e+03 6.663e-11
 26.45160      2.7 8.114e+03 6.039e-11
 26.48361      4.5 8.186e+03 7.415e-11
 26.52394      6.3 8.320e+03 9.359e-11
 26.56428      8.0 8.502e+03 1.170e-10
 26.59131      9.3 8.708e+03 1.499e-10
 26.61147      9.9 8.705e+03 1.480e-10
 26.64494     11.1 8.981e+03 2.025e-10
 26.68527     12.3 9.330e+03 2.777e-10
 26.72560     13.4 9.671e+03 3.634e-10
 26.75118     14.3 9.659e+03 3.697e-10
 26.77134     14.9 1.003e+04 4.709e-10
 26.80626     16.0 9.832e+03 4.365e-10
 26.84659     17.3 9.514e+03 3.639e-10
 26.88692     18.8 9.127e+03 2.889e-10
 26.91105     20.4 9.342e+03 2.432e-10
 26.92103     20.5 9.989e+03 3.816e-10
 26.93714     21.1 9.738e+03 3.279e-10
 26.95731     20.5 1.060e+04 3.474e-10
 26.97747      9.9 1.962e+04 1.030e-09
 26.99079     -1.4 2.157e+04 6.759e-09
 26.99578     -1.9 2.403e+04 9.763e-09
 27.00258     -4.3 2.176e+04 2.676e-08
 27.01266     -4.2 2.038e+04 6.269e-08
 27.01911     -2.5 1.999e+04 1.006e-07
 27.02415     -2.3 1.965e+04 6.382e-08
 27.03066     -0.0 1.961e+04 8.074e-08
 27.03570      1.4 2.003e+04 1.080e-07
 27.04291      3.5 2.041e+04 1.090e-07
 27.05300      5.1 2.072e+04 9.564e-08
 27.06308      5.9 2.112e+04 6.494e-08
 27.07062      5.4 2.166e+04 3.539e-08
 27.07566      6.3 2.282e+04 3.108e-08
 27.08324      4.4 2.335e+04 1.505e-08
 27.09842     -2.5 2.088e+04 4.116e-09
 27.11863     -9.6 1.384e+04 1.700e-09
 27.13880    -10.4 1.197e+04 1.219e-09
 27.15066     -9.4 1.143e+04 1.061e-09
 27.16074     -9.6 1.210e+04 1.452e-09
 27.17913     -8.6 1.208e+04 1.422e-09
 27.19929     -7.9 1.204e+04 1.415e-09
 27.21946     -7.5 1.216e+04 1.463e-09
 27.23059     -7.5 1.239e+04 1.589e-09
 27.24067     -8.5 1.306e+04 2.225e-09
 27.25979     -8.8 1.343e+04 2.534e-09
 27.27996     -8.8 1.378e+04 2.956e-09
 27.30012     -8.6 1.403e+04 3.332e-09
 27.31053     -8.2 1.421e+04 3.468e-09
 27.31216     -9.6 1.496e+04 3.975e-09
 27.32192     -7.7 1.424e+04 3.306e-09
 27.34045     -7.9 1.441e+04 3.260e-09
 27.36062     -8.3 1.440e+04 3.037e-09
 27.38038     -8.9 1.425e+04 2.717e-09
 27.39046    -11.2 1.439e+04 2.616e-09
 27.40095    -12.7 1.439e+04 2.301e-09
 27.42111    -15.3 1.483e+04 2.407e-09
 27.44128    -19.0 1.549e+04 2.788e-09
 27.46031    -21.4 1.471e+04 3.340e-09
 27.47040    -22.2 1.375e+04 2.976e-09
 27.48161    -22.0 1.316e+04 3.197e-09
 27.50178    -20.7 1.294e+04 3.016e-09
 27.52194    -19.6 1.305e+04 2.503e-09
 27.54025    -20.3 1.338e+04 1.862e-09
 27.55033    -21.4 1.310e+04 1.558e-09
 27.56227    -23.5 1.301e+04 1.261e-09
 27.58244    -25.7 1.258e+04 1.174e-09
 27.60260    -27.2 1.232e+04 1.200e-09
 27.62018    -27.5 1.219e+04 1.342e-09
 27.63027    -27.5 1.198e+04 1.232e-09
 27.64293    -27.4 1.183e+04 1.247e-09
 27.66310    -27.0 1.160e+04 1.180e-09
 27.68326    -26.6 1.135e+04 1.020e-09
 27.70012    -26.5 1.110e+04 8.701e-10
 27.71020    -26.5 1.094e+04 8.067e-10
 27.72360    -26.2 1.072e+04 6.619e-10
 27.74376    -25.9 1.045e+04 5.491e-10
 27.77411    -25.9 1.024e+04 3.084e-10
 27.81454    -25.0 9.771e+03 1.885e-10
 27.85010    -24.1 9.468e+03 1.287e-10
 27.87027    -24.0 9.403e+03 1.148e-10
 27.89520    -22.6 9.040e+03 8.954e-11
 27.93553    -20.8 8.761e+03 7.235e-11
 27.97586    -18.8 8.629e+03 5.918e-11
 28.00997    -16.8 8.563e+03 5.382e-11
 28.03014    -16.6 8.631e+03 5.867e-11
 28.05652    -14.7 8.614e+03 6.209e-11
 28.09685    -12.6 8.597e+03 7.377e-11
 28.13718    -10.4 8.622e+03 9.197e-11
 28.16984     -7.8 8.684e+03 1.111e-10
 28.19001     -7.6 8.745e+03 1.174e-10
 28.21785     -5.1 8.808e+03 1.239e-10
 28.25818     -2.8 8.848e+03 1.218e-10
 28.29851     -0.6 8.878e+03 1.133e-10
 28.32971      1.5 8.870e+03 1.030e-10
 28.34988      1.3 8.866e+03 9.504e-11
 28.37917      3.3 8.867e+03 9.530e-11
 28.41950      5.2 8.887e+03 1.007e-10
 28.45983      7.2 8.953e+03 1.163e-10
 28.48255      9.3 9.035e+03 1.444e-10
 28.49214      9.5 9.090e+03 1.449e-10
 28.50975      9.1 9.099e+03 1.515e-10
 28.54049     11.3 9.231e+03 1.922e-10
 28.58082     13.5 9.344e+03 2.225e-10
 28.62116     15.6 9.463e+03 2.406e-10
 28.64945     17.5 9.677e+03 2.646e-10
 28.66962     16.6 9.642e+03 2.451e-10
 28.70182     18.1 9.962e+03 3.014e-10
 28.74215     19.4 1.030e+04 3.824e-10
 28.78248     20.2 1.040e+04 4.424e-10
 28.80922     21.0 1.038e+04 4.523e-10
 28.82939     21.0 1.045e+04 3.976e-10
 28.85296     21.8 1.049e+04 4.268e-10
 28.87303     22.2 1.054e+04 4.492e-10
 28.88906     22.7 1.060e+04 4.839e-10
 28.89914     22.3 1.052e+04 4.400e-10
 28.91336     22.6 1.056e+04 4.590e-10
 28.93353     23.5 1.064e+04 4.865e-10
 28.95369     23.7 1.070e+04 4.909e-10
 28.96909     24.4 1.067e+04 4.731e-10
 28.98936     24.8 1.058e+04 4.675e-10
 29.02447     26.0 1.059e+04 4.365e-10
 29.06480     27.1 1.059e+04 3.674e-10
 29.10513     28.3 1.058e+04 2.935e-10
 29.12906     29.4 1.055e+04 2.416e-10
 29.14923     30.0 1.053e+04 2.537e-10
 29.18579     31.3 1.048e+04 2.137e-10
 29.22612     32.6 1.043e+04 1.937e-10
 29.26645     34.0 1.041e+04 1.843e-10
 29.28893     35.6 1.044e+04 1.793e-10
 29.30910     36.1 1.039e+04 1.743e-10
 29.34711     37.6 1.044e+04 1.711e-10
 29.38744     39.2 1.050e+04 1.697e-10
 29.42777     40.7 1.053e+04 1.705e-10
 29.44880     42.1 1.061e+04 1.754e-10
 29.46897     42.6 1.060e+04 1.746e-10
 29.50844     43.9 1.067e+04 1.933e-10
 29.54877     45.2 1.073e+04 2.296e-10
 29.58851     46.5 1.081e+04 2.847e-10
 29.60867     46.9 1.074e+04 2.539e-10
 29.62943     48.3 1.080e+04 3.040e-10
 29.65307     49.6 1.086e+04 3.538e-10
 29.67324     50.1 1.087e+04 1.994e-10
 29.71009     51.2 1.091e+04 2.264e-10
 29.74838     52.2 1.093e+04 2.709e-10
 29.76854     52.7 1.087e+04 2.549e-10
 29.79075     53.8 1.093e+04 3.374e-10
 29.83108     55.1 1.110e+04 4.767e-10
 29.87142     56.7 1.136e+04 6.589e-10
 29.90825     57.8 1.173e+04 8.468e-10
 29.92832     58.2 1.174e+04 8.652e-10
 29.94180     58.2 1.192e+04 9.693e-10
 29.96197     58.1 1.212e+04 1.099e-09
 29.98213     58.2 1.228e+04 1.216e-09
 29.99807     58.1 1.234e+04 1.248e-09
 30.00815     58.4 1.241e+04 1.253e-09
 30.02246     58.3 1.238e+04 1.235e-09
 30.04263     58.1 1.229e+04 1.159e-09
 30.06279     57.9 1.220e+04 1.026e-09
 30.07801     57.4 1.215e+04 9.004e-10
 30.08809     57.6 1.221e+04 8.958e-10
 30.10312     57.0 1.208e+04 8.595e-10
 30.12329     56.7 1.205e+04 8.662e-10
 30.14345     56.6 1.196e+04 9.223e-10
 30.15794     56.6 1.187e+04 1.033e-09
 30.16802     57.0 1.184e+04 1.051e-09
 30.19397     57.2 1.203e+04 1.238e-09
 30.22799     58.2 1.218e+04 1.460e-09
 30.24815     59.0 1.198e+04 1.364e-09
 30.27473     59.6 1.222e+04 1.682e-09
 30.31506     60.2 1.244e+04 1.867e-09
 30.35539     60.8 1.243e+04 1.778e-09
 30.38786     61.5 1.222e+04 1.456e-09
 30.40802     62.2 1.191e+04 1.280e-09
 30.42587     62.1 1.187e+04 1.183e-09
 30.44594     62.1 1.170e+04 1.021e-09
 30.46610     61.9 1.147e+04 8.812e-10
 30.47768     61.5 1.120e+04 7.905e-10
 30.48776     61.6 1.108e+04 7.633e-10
 30.50643     61.4 1.077e+04 7.604e-10
 30.52660     61.4 1.065e+04 7.635e-10
 30.54676     61.6 1.059e+04 7.637e-10
 30.55762     61.9 1.055e+04 7.617e-10
 30.56770     62.1 1.049e+04 7.440e-10
 30.58710     62.4 1.044e+04 7.370e-10
 30.60726     62.6 1.042e+04 7.278e-10
 30.62743     62.9 1.040e+04 7.194e-10
 30.64759     63.2 1.041e+04 6.868e-10
 30.66776     63.4 1.047e+04 6.844e-10
 30.68792     63.6 1.056e+04 6.869e-10
 30.70740     63.6 1.069e+04 7.021e-10
 30.71749     63.7 1.059e+04 6.687e-10
 30.72825     63.5 1.078e+04 7.042e-10
 30.74842     63.2 1.113e+04 7.913e-10
 30.76858     62.5 1.163e+04 9.522e-10
 30.78734     61.8 1.225e+04 1.228e-09
 30.79742     61.4 1.250e+04 1.299e-09
 30.80892     61.2 1.294e+04 1.690e-09
 30.82339     61.2 1.297e+04 1.904e-09
 30.83348     61.0 1.379e+04 3.652e-09
 30.84925     61.3 1.371e+04 3.572e-09
 30.86727     61.7 1.337e+04 3.180e-09
 30.87736     61.7 1.305e+04 2.701e-09
 30.88958     62.2 1.239e+04 2.003e-09
 30.90974     62.5 1.164e+04 1.399e-09
 30.92991     62.5 1.092e+04 9.631e-10
 30.94721     62.4 1.034e+04 6.881e-10
 30.95729     61.7 1.001e+04 5.570e-10
 30.97024     61.6 9.737e+03 4.534e-10
 30.99041     61.7 9.636e+03 4.266e-10
 31.01057     62.2 9.622e+03 4.248e-10
 31.02714     63.0 9.628e+03 4.260e-10
 31.03723     62.9 9.600e+03 3.992e-10
 31.05090     63.6 9.658e+03 4.141e-10
 31.07107     64.4 9.741e+03 4.438e-10
 31.09123     65.1 9.854e+03 4.872e-10
 31.10708     66.0 9.998e+03 5.422e-10
 31.11716     65.7 9.987e+03 5.346e-10
 31.13156     66.5 1.014e+04 6.000e-10
 31.15173     67.4 1.026e+04 6.659e-10
 31.17189     68.2 1.042e+04 7.432e-10
 31.18701     68.9 1.061e+04 8.412e-10
 31.19710     68.4 1.071e+04 8.931e-10
 31.21223     68.8 1.102e+04 1.066e-09
 31.23239     69.1 1.144e+04 1.330e-09
 31.25256     69.0 1.198e+04 1.736e-09
 31.26695     69.1 1.265e+04 2.356e-09
 31.27703     68.6 1.287e+04 2.702e-09
 31.29289     69.1 1.355e+04 3.577e-09
 31.31305     69.5 1.412e+04 4.475e-09
 31.33322     69.6 1.469e+04 5.114e-09
 31.34688     69.4 1.501e+04 5.229e-09
 31.35697     69.0 1.445e+04 4.449e-09
 31.37355     68.8 1.446e+04 4.065e-09
 31.39371     68.2 1.429e+04 3.351e-09
 31.40865     66.7 1.386e+04 2.531e-09
 31.41874     65.9 1.530e+04 4.726e-09
 31.42682     64.0 1.479e+04 3.759e-09
 31.43690     63.6 1.365e+04 2.729e-09
 31.45421     61.8 1.327e+04 2.189e-09
 31.47438     60.1 1.295e+04 1.792e-09
 31.49454     58.7 1.261e+04 1.496e-09
 31.50675     57.7 1.222e+04 1.247e-09
 31.51684     58.2 1.187e+04 1.066e-09
 31.53487     57.7 1.153e+04 9.185e-10
 31.55504     57.3 1.117e+04 7.779e-10
 31.57520     57.0 1.084e+04 6.557e-10
 31.58669     56.9 1.051e+04 5.470e-10
 31.59677     57.8 1.056e+04 5.527e-10
 31.61554     57.7 1.031e+04 4.878e-10
 31.63570     57.6 1.004e+04 4.227e-10
 31.65587     57.6 9.811e+03 3.822e-10
 31.66662     57.6 9.687e+03 3.565e-10
 31.67671     58.7 9.775e+03 3.691e-10
 31.69620     58.6 9.684e+03 3.628e-10
 31.71636     58.5 9.706e+03 3.656e-10
 31.73648     58.4 9.733e+03 3.764e-10
 31.75664     58.9 9.887e+03 4.209e-10
 31.77686     58.5 1.002e+04 4.774e-10
 31.79702     58.1 1.020e+04 5.642e-10
 31.81641     57.8 1.038e+04 6.477e-10
 31.82649     58.7 1.039e+04 6.585e-10
 31.83736     58.3 1.048e+04 6.767e-10
 31.85752     57.9 1.048e+04 6.679e-10
 31.87769     57.5 1.043e+04 6.251e-10
 31.89635     57.1 1.031e+04 5.467e-10
 31.90643     58.0 1.029e+04 5.356e-10
 31.91802     57.4 1.017e+04 4.546e-10
 31.93818     56.7 1.003e+04 3.909e-10
 31.95835     56.0 9.852e+03 3.674e-10
 31.97628     55.5 9.833e+03 3.685e-10
 31.98636     56.5 9.833e+03 3.676e-10
 31.99391     56.2 9.866e+03 3.777e-10
 32.00400     56.2 1.001e+04 3.875e-10
 32.01884     55.6 1.034e+04 4.627e-10
 32.03901     54.8 1.093e+04 6.397e-10
 32.05622     54.0 1.169e+04 9.802e-10
 32.06630     54.8 1.165e+04 9.220e-10
 32.07934     53.9 1.264e+04 1.521e-09
 32.09951     53.1 1.367e+04 2.486e-09
 32.11967     52.4 1.468e+04 3.837e-09
 32.13615     51.5 1.554e+04 5.487e-09
 32.14624     51.8 1.595e+04 6.230e-09
 32.16000     50.8 1.669e+04 8.551e-09
 32.18017     49.7 1.734e+04 1.098e-08
 32.19524     49.2 1.761e+04 1.215e-08
 32.20528     48.7 1.776e+04 1.278e-08
 32.21536     48.1 1.778e+04 1.280e-08
 32.22103     47.5 1.774e+04 1.258e-08
 32.22607     47.3 1.783e+04 1.291e-08
 32.23553     47.1 1.763e+04 1.210e-08
 32.24561     47.1 1.746e+04 1.108e-08
 32.25569     47.1 1.732e+04 9.974e-09
 32.26100     47.0 1.723e+04 8.936e-09
 32.26604     46.9 1.684e+04 8.608e-09
 32.27586     46.8 1.656e+04 7.031e-09
 32.28594     46.7 1.644e+04 6.325e-09
 32.29597     46.9 1.652e+04 5.092e-09
 32.30611     46.7 1.581e+04 4.826e-09
 32.32133     46.6 1.565e+04 3.758e-09
 32.34149     46.6 1.559e+04 3.043e-09
 32.36166     46.9 1.548e+04 2.623e-09
 32.37596     47.5 1.531e+04 2.386e-09
 32.38604     46.9 1.373e+04 2.232e-09
 32.40199     47.8 1.359e+04 2.098e-09
 32.42215     48.9 1.355e+04 2.057e-09
 32.44232     49.9 1.358e+04 2.071e-09
 32.45589     50.8 1.373e+04 2.154e-09
 32.46598     49.8 1.254e+04 1.946e-09
 32.48265     50.2 1.326e+04 2.244e-09
 32.50282     50.0 1.438e+04 2.794e-09
 32.51789     49.5 1.494e+04 3.063e-09
 32.52793     48.5 1.602e+04 3.752e-09
 32.53573     44.4 1.999e+04 6.628e-09
 32.54077     43.4 1.928e+04 6.618e-09
 32.54809     38.5 2.260e+04 1.429e-08
 32.55817     34.9 2.299e+04 2.999e-08
 32.56826     33.5 2.223e+04 5.556e-08
 32.57570     33.6 2.206e+04 7.841e-08
 32.58074     34.5 2.198e+04 4.877e-08
 32.58412     34.4 2.215e+04 4.951e-08
 32.58916     35.9 2.146e+04 6.235e-08
 32.59851     35.9 2.166e+04 6.297e-08
 32.60859     36.0 2.185e+04 5.727e-08
 32.61567     36.0 2.266e+04 4.327e-08
 32.62071     36.6 2.206e+04 3.346e-08
 32.62875     35.9 2.309e+04 2.185e-08
 32.63884     33.9 2.415e+04 1.341e-08
 32.64892     31.3 2.398e+04 8.362e-09
 32.65563     28.3 2.190e+04 5.508e-09
 32.66067     29.2 2.020e+04 4.457e-09
 32.66908     25.8 1.741e+04 3.051e-09
 32.67917     22.9 1.458e+04 2.361e-09
 32.68925     21.9 1.360e+04 2.159e-09
 32.69560     22.3 1.368e+04 2.237e-09
 32.70573     23.0 1.306e+04 1.922e-09
 32.72464     23.4 1.265e+04 1.927e-09
 32.74480     24.0 1.248e+04 1.947e-09
 32.76497     24.7 1.254e+04 2.012e-09
 32.77563     25.4 1.284e+04 2.189e-09
 32.78572     27.0 1.126e+04 1.335e-09
 32.80530     27.3 1.121e+04 1.280e-09
 32.82546     27.5 1.128e+04 1.266e-09
 32.84549     27.7 1.140e+04 1.261e-09
 32.85557     28.8 1.039e+04 8.453e-10
 32.86580     28.9 1.036e+04 8.078e-10
 32.88596     29.0 1.039e+04 8.065e-10
 32.90613     28.9 1.052e+04 8.235e-10
 32.92542     28.3 1.101e+04 9.176e-10
 32.93550     29.7 9.963e+03 6.246e-10
 32.94646     28.5 1.091e+04 7.847e-10
 32.96662     25.7 1.289e+04 1.376e-09
 32.98679     23.0 1.418e+04 2.622e-09
 33.00536     21.5 1.445e+04 3.931e-09
 33.01544     22.2 1.434e+04 2.931e-09
 33.02712     21.5 1.436e+04 4.002e-09
 33.04728     21.6 1.413e+04 3.901e-09
 33.06745     21.7 1.378e+04 2.954e-09
 33.08529     20.9 1.363e+04 1.666e-09
 33.09537     22.0 1.399e+04 2.872e-09
 33.10778     21.1 1.374e+04 1.323e-09
 33.12795     18.0 1.282e+04 8.156e-10
 33.14811     14.5 1.178e+04 5.103e-10
 33.16453     10.4 1.013e+04 4.904e-10
 33.18479      9.9 1.012e+04 4.790e-10
 33.21889      8.9 9.674e+03 4.707e-10
 33.24536      9.4 9.684e+03 4.252e-10
 33.26552     10.3 1.032e+04 6.728e-10
 33.29955     10.4 1.045e+04 6.082e-10
 33.33988      8.4 1.083e+04 6.194e-10
 33.38021      4.1 1.139e+04 8.736e-10
 33.40523      1.5 1.213e+04 1.483e-09
 33.41521      2.1 1.249e+04 1.569e-09
 33.43043      0.6 1.247e+04 1.622e-09
 33.46078     -1.4 1.233e+04 1.554e-09
 33.50120     -2.9 1.148e+04 9.818e-10
 33.54153     -3.5 1.027e+04 4.838e-10
 33.56510     -3.6 9.301e+03 2.343e-10
 33.58526     -4.9 9.235e+03 2.287e-10
 33.62220     -4.1 8.997e+03 1.331e-10
 33.66253     -3.2 8.983e+03 1.049e-10
 33.70286     -2.0 9.027e+03 1.097e-10
 33.72497     -1.0 9.175e+03 1.397e-10
 33.74513     -1.4 9.501e+03 2.532e-10
 33.78352      0.0 9.689e+03 3.464e-10
 33.82385      1.8 9.791e+03 4.366e-10
 33.86418      3.9 9.828e+03 4.885e-10
 33.88484      6.0 9.761e+03 4.530e-10
 33.90500      5.7 9.528e+03 3.393e-10
 33.94484      7.1 9.370e+03 2.633e-10
 33.98518      8.2 9.416e+03 2.585e-10
 34.02454      9.4 9.583e+03 3.081e-10
 34.04471      8.4 9.482e+03 2.852e-10
 34.06584      9.6 1.015e+04 4.609e-10
 34.09599     10.0 1.076e+04 6.767e-10
 34.11436      9.8 1.119e+04 9.519e-10
 34.12445      9.5 1.092e+04 8.774e-10
 34.13622      9.3 1.138e+04 1.173e-09
 34.15639      8.8 1.222e+04 1.659e-09
 34.17655      8.5 1.301e+04 2.279e-09
 34.19430      8.5 1.322e+04 2.427e-09
 34.20438      7.9 1.241e+04 1.653e-09
 34.21688      7.0 1.242e+04 1.608e-09
 34.23705      5.4 1.257e+04 1.476e-09
 34.25721      2.6 1.279e+04 1.486e-09
 34.27423      0.0 1.288e+04 1.629e-09
 34.28432      0.0 1.264e+04 1.565e-09
 34.29755     -1.1 1.262e+04 1.840e-09
 34.31771     -1.7 1.272e+04 2.102e-09
 34.33495     -2.0 1.294e+04 2.344e-09
 34.34503     -1.4 1.276e+04 2.180e-09
 34.35417     -1.9 1.284e+04 2.222e-09
 34.36425     -1.2 1.233e+04 1.690e-09
 34.37821     -2.0 1.226e+04 1.637e-09
 34.39837     -2.8 1.231e+04 1.626e-09
 34.41854     -4.7 1.264e+04 1.750e-09
 34.43410     -6.3 1.286e+04 1.978e-09
 34.44419     -5.5 1.228e+04 1.471e-09
 34.45887     -6.5 1.212e+04 1.699e-09
 34.47903     -6.3 1.194e+04 1.685e-09
 34.49920     -5.8 1.175e+04 1.327e-09
 34.51404     -6.3 1.165e+04 1.045e-09
 34.52412     -5.8 1.149e+04 1.046e-09
 34.54971     -6.2 1.121e+04 7.412e-10
 34.59014     -9.0 1.093e+04 4.133e-10
 34.63047    -11.8 1.064e+04 3.923e-10
 34.66402    -12.3 1.033e+04 4.045e-10
 34.68419    -11.6 1.053e+04 4.751e-10
 34.71113    -11.5 1.041e+04 3.437e-10
 34.75146    -11.9 1.040e+04 2.078e-10
 34.79179    -12.3 1.009e+04 1.429e-10
 34.82389    -12.0 9.759e+03 1.096e-10
 34.84406    -11.7 9.722e+03 1.414e-10
 34.87246    -11.1 9.684e+03 1.082e-10
 34.91279    -10.3 9.639e+03 1.005e-10
 34.95312     -9.1 9.588e+03 1.010e-10
 34.98376     -7.7 9.671e+03 9.850e-11
 35.00393     -7.6 9.647e+03 1.266e-10
 35.03378     -7.1 9.858e+03 1.412e-10
 35.07411     -6.6 1.001e+04 1.912e-10
 35.11444     -5.5 1.012e+04 2.538e-10
 35.14363     -4.5 1.044e+04 2.633e-10
 35.16380     -4.6 1.046e+04 3.002e-10
 35.19510     -4.7 1.065e+04 3.094e-10
 35.23544     -4.8 1.070e+04 3.435e-10
 35.27577     -4.2 1.049e+04 3.316e-10
 35.30350     -3.0 1.020e+04 2.732e-10
 35.32367     -2.8 1.021e+04 2.742e-10
 35.35643     -1.5 1.003e+04 1.905e-10
 35.39676     -0.9 1.003e+04 1.312e-10
 35.43709     -0.3 9.927e+03 1.244e-10
 35.46337      0.6 9.856e+03 1.464e-10
 35.48354      0.8 9.828e+03 1.516e-10
 35.50567      2.5 9.757e+03 2.025e-10
 35.52583      3.0 9.674e+03 1.337e-10
 35.55808      5.0 9.679e+03 1.716e-10
 35.59841      7.2 9.743e+03 1.934e-10
 35.62324      9.3 9.815e+03 1.988e-10
 35.64341     10.0 9.821e+03 2.107e-10
 35.67908     12.1 9.923e+03 2.182e-10
 35.71941     13.9 1.010e+04 2.354e-10
 35.75974     14.9 1.046e+04 3.064e-10
 35.78311     16.2 1.126e+04 5.786e-10
 35.80328     17.5 1.151e+04 6.962e-10
 35.84040     17.7 1.265e+04 1.284e-09
 35.86295     16.5 1.362e+04 2.032e-09
 35.87294     16.4 1.374e+04 2.178e-09
 35.89062     16.3 1.441e+04 3.249e-09
 35.91078     16.7 1.487e+04 4.292e-09
 35.93095     17.2 1.513e+04 4.815e-09
 35.94279     17.6 1.507e+04 4.506e-09
 35.95287     17.9 1.503e+04 4.493e-09
 35.97128     18.3 1.477e+04 3.650e-09
 35.99145     18.4 1.433e+04 2.613e-09
 36.01161     18.1 1.381e+04 1.701e-09
 36.02272     17.0 1.319e+04 1.056e-09
 36.03281     17.1 1.299e+04 8.967e-10
 36.05194     15.9 1.209e+04 6.188e-10
 36.08229     16.6 1.223e+04 6.711e-10
 36.10285     15.4 1.093e+04 4.458e-10
 36.12302     15.2 1.069e+04 3.986e-10
 36.16305     15.4 1.026e+04 3.610e-10
 36.20338     15.8 1.010e+04 3.201e-10
 36.24256     16.0 9.990e+03 2.898e-10
 36.26272     15.7 1.021e+04 3.582e-10
 36.28404     15.8 1.018e+04 3.663e-10
 36.32437     15.9 1.006e+04 3.688e-10
 36.36470     16.1 9.983e+03 3.652e-10
 36.40243     16.0 9.896e+03 3.622e-10
 36.42259     15.2 9.994e+03 4.141e-10
 36.44537     14.8 9.901e+03 3.917e-10
 36.48570     14.5 9.751e+03 3.747e-10
 36.52603     14.2 9.546e+03 3.296e-10
 36.56230     13.7 9.313e+03 2.706e-10
 36.58246     12.9 9.203e+03 2.549e-10
 36.60669     12.0 9.126e+03 2.300e-10
 36.64702     10.5 9.362e+03 2.699e-10
 36.67619      9.7 9.525e+03 3.441e-10
 36.68617      8.8 9.892e+03 4.600e-10
 36.69724      8.8 9.985e+03 5.119e-10
 36.71740      9.1 9.836e+03 5.271e-10
 36.73206      9.4 9.744e+03 5.223e-10
 36.74214      9.5 9.761e+03 5.354e-10
 36.76792     10.1 9.564e+03 4.544e-10
 36.80834     10.9 8.901e+03 2.449e-10
 36.84867     10.5 8.311e+03 1.366e-10
 36.88204     10.5 7.851e+03 1.045e-10
 36.90220     10.6 7.812e+03 1.028e-10
 36.92934     11.9 7.691e+03 9.986e-11
 36.96967     13.8 7.704e+03 1.020e-10
 37.01000     15.4 7.763e+03 1.081e-10
 37.04191     16.9 7.887e+03 1.221e-10
 37.06208     17.0 7.842e+03 1.164e-10
 37.09066     18.4 8.008e+03 1.411e-10
 37.13099     19.8 8.183e+03 1.730e-10
 37.17132     21.2 8.352e+03 2.048e-10
 37.20178     22.4 8.507e+03 2.368e-10
 37.22195     22.5 8.382e+03 2.096e-10
 37.25198     23.7 8.552e+03 2.372e-10
 37.29232     24.8 8.716e+03 2.497e-10
 37.33265     25.9 8.722e+03 2.459e-10
 37.36165     27.2 8.684e+03 2.248e-10
 37.38182     27.4 8.554e+03 2.050e-10
 37.41331     28.9 8.486e+03 1.763e-10
 37.45364     30.4 8.372e+03 1.410e-10
 37.49397     31.8 8.239e+03 1.069e-10
 37.52152     33.0 8.131e+03 8.552e-11
 37.54169     33.2 8.160e+03 8.701e-11
 37.57463     34.4 8.183e+03 8.699e-11
 37.61496     35.2 8.322e+03 9.914e-11
 37.65529     35.9 8.665e+03 1.503e-10
 37.68139     37.1 9.140e+03 2.621e-10
 37.70156     37.0 9.436e+03 3.721e-10
 37.73596     38.7 9.822e+03 5.101e-10
 37.77629     40.2 9.864e+03 5.140e-10
 37.81662     41.6 9.767e+03 4.706e-10
 37.84126     43.1 9.534e+03 3.724e-10
 37.85118     43.0 9.348e+03 3.244e-10
 37.86687     42.1 9.312e+03 2.821e-10
 37.89728     43.3 9.167e+03 2.349e-10
 37.93761     44.7 9.198e+03 2.277e-10
 37.97794     46.1 9.269e+03 2.299e-10
 38.00113     47.4 9.334e+03 2.285e-10
 38.02130     47.1 9.348e+03 2.232e-10
 38.05860     47.9 9.416e+03 2.194e-10
 38.09894     48.6 9.463e+03 2.197e-10
 38.13927     49.0 9.551e+03 2.266e-10
 38.16100     49.4 9.756e+03 2.590e-10
 38.18117     48.6 9.923e+03 2.931e-10
 38.21993     49.1 1.023e+04 3.789e-10
 38.24084     49.4 1.044e+04 4.464e-10
 38.25082     49.2 1.054e+04 4.685e-10
 38.27015     49.3 1.067e+04 5.184e-10
 38.29031     49.6 1.081e+04 5.333e-10
 38.31048     49.7 1.082e+04 5.329e-10
 38.32077     49.9 1.080e+04 5.150e-10
 38.33086     49.5 1.085e+04 5.213e-10
 38.35081     49.3 1.085e+04 5.262e-10
 38.38115     49.0 1.073e+04 4.294e-10
 38.42158     48.2 1.055e+04 3.536e-10
 38.44195     47.1 1.076e+04 3.689e-10
 38.45193     46.7 1.067e+04 3.511e-10
 38.47046     45.2 1.080e+04 3.831e-10
 38.48055     44.0 1.093e+04 4.730e-10
 38.49197     43.1 1.104e+04 6.025e-10
 38.51213     42.5 1.123e+04 7.693e-10
 38.53230     42.1 1.147e+04 9.632e-10
 38.55040     41.7 1.174e+04 1.130e-09
 38.56048     41.1 1.183e+04 1.161e-09
 38.57263     40.6 1.187e+04 1.150e-09
 38.59279     40.2 1.185e+04 1.090e-09
 38.61296     39.6 1.169e+04 9.812e-10
 38.63033     39.0 1.145e+04 8.591e-10
 38.64042     38.1 1.116e+04 7.699e-10
 38.65329     37.7 1.093e+04 7.008e-10
 38.67346     37.5 1.075e+04 6.537e-10
 38.69362     37.3 1.060e+04 6.186e-10
 38.71027     37.2 1.047e+04 5.918e-10
 38.72035     36.7 1.051e+04 6.140e-10
 38.73395     36.7 1.042e+04 6.046e-10
 38.75412     36.7 1.037e+04 5.989e-10
 38.77428     36.9 1.028e+04 5.862e-10
 38.79020     37.0 1.024e+04 5.786e-10
 38.80038     36.7 1.050e+04 6.693e-10
 38.82489     35.8 1.057e+04 6.108e-10
 38.86522     33.1 1.127e+04 6.140e-10
 38.89537     29.4 1.210e+04 7.926e-10
 38.91544     26.8 1.263e+04 1.066e-09
 38.93561     24.5 1.304e+04 1.461e-09
 38.95007     22.9 1.323e+04 1.845e-09
 38.96016     21.1 1.343e+04 2.233e-09
 38.97594     20.1 1.332e+04 2.143e-09
 38.99610     19.1 1.311e+04 2.006e-09
 39.01627     17.8 1.283e+04 1.680e-09
 39.02711     16.0 1.243e+04 1.359e-09
 39.03077     16.7 1.293e+04 1.838e-09
 39.04009     14.2 1.203e+04 1.201e-09
 39.05660     12.3 1.188e+04 1.090e-09
 39.07677      7.7 1.322e+04 1.409e-09
 39.09693      0.3 1.673e+04 3.245e-09
 39.10994     -3.7 1.719e+04 7.258e-09
 39.12003     -5.0 1.671e+04 8.302e-09
 39.13726     -4.5 1.588e+04 8.756e-09
 39.15743     -3.3 1.499e+04 7.092e-09
 39.17759     -3.6 1.448e+04 4.333e-09
 39.18988     -6.8 1.462e+04 2.137e-09
 39.19996    -11.1 1.457e+04 1.366e-09
 39.21792    -18.2 1.249e+04 8.024e-10
 39.23809    -22.1 1.121e+04 7.315e-10
 39.25826    -23.9 1.152e+04 9.648e-10
 39.26981    -25.3 1.233e+04 1.457e-09
 39.27990    -27.5 1.267e+04 1.855e-09
 39.29859    -28.4 1.298e+04 2.404e-09
 39.31875    -29.0 1.320e+04 2.761e-09
 39.33892    -29.2 1.326e+04 3.058e-09
 39.34975    -29.2 1.312e+04 2.893e-09
 39.35983    -30.5 1.260e+04 2.216e-09
 39.37925    -31.5 1.242e+04 1.728e-09
 39.39941    -32.8 1.187e+04 1.287e-09
 39.41958    -34.0 1.093e+04 9.028e-10
 39.43974    -36.1 9.558e+03 5.051e-10
 39.47009    -36.0 9.231e+03 3.239e-10
 39.51052    -34.7 8.766e+03 1.957e-10
 39.55085    -34.4 8.228e+03 1.188e-10
 39.57967    -34.0 8.102e+03 9.457e-11
 39.59983    -34.8 8.077e+03 8.507e-11
 39.63151    -34.3 8.203e+03 9.599e-11
 39.67184    -33.2 8.280e+03 1.252e-10
 39.71217    -31.5 8.387e+03 1.614e-10
 39.73954    -29.9 8.506e+03 1.843e-10
 39.75970    -30.5 8.447e+03 1.831e-10
 39.79284    -29.4 8.474e+03 1.900e-10
 39.83317    -28.5 8.432e+03 1.967e-10
 39.87350    -27.3 8.362e+03 1.959e-10
 39.89941    -26.0 8.279e+03 1.888e-10
 39.91957    -26.1 8.094e+03 1.537e-10
 39.95416    -24.8 8.027e+03 1.451e-10
 39.99449    -23.9 8.081e+03 1.529e-10
 40.03482    -23.1 8.359e+03 1.990e-10
 40.05928    -22.5 8.991e+03 3.205e-10
 40.07944    -22.8 9.005e+03 3.185e-10
 40.11548    -23.1 1.010e+04 6.045e-10
 40.15581    -23.3 1.102e+04 9.866e-10
 40.18774    -24.8 1.181e+04 1.292e-09
 40.20791    -22.4 1.143e+04 1.158e-09
 40.21915    -25.1 1.203e+04 1.424e-09
 40.22913    -26.6 1.286e+04 2.084e-09
 40.24636    -27.7 1.278e+04 2.209e-09
 40.26653    -27.8 1.236e+04 2.059e-09
 40.28670    -28.5 1.204e+04 1.692e-09
 40.29889    -40.4 1.951e+04 2.641e-09
 40.30897    -45.2 2.066e+04 3.568e-09
 40.32703    -56.1 1.810e+04 6.298e-09
 40.34719    -60.4 1.559e+04 7.147e-09
 40.36736    -61.7 1.599e+04 5.488e-09
 40.37882    -68.3 1.555e+04 1.777e-09
 40.38891    -74.7 1.343e+04 8.404e-10
 40.40769    -83.4 9.481e+03 3.156e-10
 40.42785    -84.7 8.995e+03 2.578e-10
 40.44802    -85.1 8.890e+03 2.292e-10
 40.47837    -85.2 8.789e+03 1.999e-10
 40.51872    -84.3 8.332e+03 1.444e-10
 40.55905    -83.7 8.347e+03 1.258e-10
 40.59946    -82.3 8.362e+03 1.243e-10
 40.63979    -81.0 8.457e+03 1.395e-10
 40.67859    -79.6 8.625e+03 1.747e-10
 40.69876    -80.0 8.903e+03 2.497e-10
 40.72045    -78.4 9.137e+03 3.136e-10
 40.76078    -76.9 9.392e+03 3.884e-10
 40.80111    -75.4 9.606e+03 4.550e-10
 40.83846    -73.8 9.702e+03 4.843e-10
 40.85863    -74.0 9.788e+03 5.113e-10
 40.88177    -72.3 9.676e+03 4.592e-10
 40.92210    -70.7 9.474e+03 3.712e-10
 40.96243    -69.1 9.221e+03 2.923e-10
 40.99833    -67.4 8.952e+03 2.280e-10
 41.01850    -67.2 8.823e+03 1.914e-10
 41.04310    -65.6 8.661e+03 1.567e-10
 41.08343    -64.1 8.623e+03 1.481e-10
 41.12376    -62.5 8.645e+03 1.578e-10
 41.15820    -60.6 8.744e+03 1.769e-10
 41.17837    -60.5 8.774e+03 1.816e-10
 41.20442    -58.6 8.939e+03 2.123e-10
 41.24475    -56.7 9.072e+03 2.280e-10
 41.28508    -55.2 9.121e+03 2.314e-10
 41.31807    -53.7 9.147e+03 2.448e-10
 41.33824    -53.3 9.203e+03 2.621e-10
 41.35826    -51.9 9.336e+03 2.596e-10
 41.37843    -52.2 9.357e+03 2.704e-10
 41.40608    -50.6 9.594e+03 2.988e-10
 41.44641    -49.3 9.697e+03 2.983e-10
 41.47794    -47.5 9.500e+03 2.551e-10
 41.49811    -47.0 9.413e+03 2.280e-10
 41.52707    -45.0 9.193e+03 1.655e-10
 41.56740    -43.7 9.164e+03 1.234e-10
 41.60773    -42.4 9.206e+03 1.082e-10
 41.63781    -40.7 9.224e+03 1.085e-10
 41.65798    -40.2 9.245e+03 1.084e-10
 41.68839    -38.6 9.511e+03 1.156e-10
 41.72872    -37.2 9.698e+03 1.390e-10
 41.76905    -35.8 9.702e+03 1.961e-10
 41.79768    -34.4 9.981e+03 3.094e-10
 41.81785    -34.0 1.021e+04 3.746e-10
 41.84972    -33.0 1.060e+04 5.322e-10
 41.87752    -32.6 1.087e+04 6.149e-10
 41.88751    -32.6 1.104e+04 6.695e-10
 41.89993    -32.5 1.126e+04 7.476e-10
 41.92010    -32.6 1.146e+04 8.176e-10
 41.94027    -32.7 1.150e+04 8.559e-10
 41.95341    -32.7 1.144e+04 8.467e-10
 41.96042    -32.4 1.148e+04 8.511e-10
 41.96744    -32.4 1.160e+04 9.219e-10
 41.98060    -32.6 1.150e+04 8.875e-10
 42.00076    -32.4 1.117e+04 7.775e-10
 42.02093    -32.6 1.098e+04 6.915e-10
 42.03729    -32.2 1.051e+04 5.556e-10
 42.04738    -32.3 1.057e+04 5.958e-10
 42.06126    -32.9 1.044e+04 5.125e-10
 42.09160    -32.7 9.934e+03 3.587e-10
 42.11742    -31.9 9.602e+03 3.152e-10
 42.13759    -32.0 9.650e+03 3.316e-10
 42.17236    -30.8 9.632e+03 3.369e-10
 42.21269    -29.3 9.707e+03 3.695e-10
 42.25303    -27.3 9.836e+03 4.142e-10
 42.27729    -25.3 1.002e+04 4.659e-10
 42.29746    -25.0 9.980e+03 4.367e-10
 42.33369    -23.2 1.007e+04 4.642e-10
 42.35713    -21.7 1.018e+04 4.886e-10
 42.36712    -21.5 1.011e+04 4.619e-10
 42.38391    -20.7 1.033e+04 5.104e-10
 42.40407    -19.7 1.047e+04 5.808e-10
 42.42424    -18.4 1.065e+04 6.819e-10
 42.43697    -17.0 1.089e+04 8.329e-10
 42.44705    -17.0 1.078e+04 7.776e-10
 42.46457    -14.9 1.103e+04 9.054e-10
 42.48473    -14.6 1.230e+04 1.302e-09
 42.49981    -22.3 2.237e+04 2.812e-09
 42.50984    -36.7 3.338e+04 1.213e-08
 42.51681    -42.2 2.388e+04 7.540e-08
 42.52185    -41.0 2.485e+04 4.080e-08
 42.53001    -40.8 2.085e+04 1.138e-07
 42.53857    -40.1 2.055e+04 1.610e-07
 42.54361    -39.6 2.118e+04 2.393e-07
 42.55017    -40.5 2.179e+04 2.620e-07
 42.55677    -42.0 2.297e+04 1.999e-07
 42.56182    -44.0 2.328e+04 9.451e-08
 42.57034    -46.6 2.927e+04 3.802e-08
 42.58551    -55.4 3.832e+04 5.703e-09
 42.59684    -80.4 1.586e+04 1.818e-09
 42.60692    -78.8 1.497e+04 2.067e-09
 42.62589    -80.6 1.356e+04 2.037e-09
 42.64606    -82.6 1.361e+04 1.636e-09
 42.66622    -85.9 1.251e+04 1.264e-09
 42.67677    -88.4 1.206e+04 1.186e-09
 42.68686    -88.2 1.221e+04 1.266e-09
 42.70655    -89.9 1.213e+04 1.264e-09
 42.72672    -91.3 1.215e+04 1.325e-09
 42.74663    -92.6 1.212e+04 1.305e-09
 42.75671    -92.1 1.232e+04 1.462e-09
 42.76705    -93.4 1.208e+04 1.263e-09
 42.78722    -94.9 1.169e+04 1.045e-09
 42.80738    -96.3 1.125e+04 8.959e-10
 42.82656    -97.4 1.089e+04 8.152e-10
 42.83664    -97.1 1.088e+04 7.983e-10
 42.84771    -97.8 1.064e+04 7.483e-10
 42.86788    -98.4 1.050e+04 7.092e-10
 42.88804    -99.0 1.043e+04 6.731e-10
 42.90650    -99.6 1.044e+04 6.462e-10
 42.91658    -99.2 1.042e+04 6.276e-10
 42.92837    -99.8 1.048e+04 6.102e-10
 42.94854   -100.5 1.050e+04 5.942e-10
 42.97889   -101.4 1.052e+04 5.774e-10
 43.01931   -103.3 1.053e+04 5.819e-10
 43.05648   -104.4 1.055e+04 5.969e-10
 43.07665   -103.7 1.054e+04 5.945e-10
 43.09998   -104.1 1.041e+04 5.702e-10
 43.14031   -104.2 1.007e+04 4.222e-10
 43.18064   -104.3 9.620e+03 2.609e-10
 43.21635   -104.6 9.180e+03 1.784e-10
 43.23652   -103.8 9.090e+03 1.583e-10
 43.26130   -103.9 8.857e+03 1.391e-10
 43.30163   -103.0 8.787e+03 1.377e-10
 43.34196   -102.2 8.743e+03 1.447e-10
 43.37622   -101.2 8.732e+03 1.484e-10
 43.39639   -100.2 8.634e+03 1.224e-10
 43.42262    -99.1 8.599e+03 1.193e-10
 43.46296    -98.1 8.595e+03 1.181e-10
 43.50329    -97.3 8.713e+03 1.225e-10
 43.53609    -96.8 8.912e+03 1.481e-10
 43.55626    -95.7 8.765e+03 1.136e-10
 43.58395    -95.2 8.945e+03 1.517e-10
 43.62428    -94.5 9.123e+03 1.987e-10
 43.66461    -93.8 9.298e+03 2.365e-10
 43.69596    -93.2 9.419e+03 2.519e-10
 43.71049    -92.0 9.292e+03 2.169e-10
 43.71947    -92.3 9.314e+03 2.225e-10
 43.74527    -91.7 9.381e+03 2.181e-10
 43.78560    -91.0 9.395e+03 2.040e-10
 43.82593    -90.1 9.325e+03 1.907e-10
 43.85583    -89.0 9.226e+03 1.832e-10
 43.87600    -87.5 9.209e+03 1.635e-10
 43.90660    -86.2 9.047e+03 1.553e-10
 43.94693    -84.7 8.990e+03 1.542e-10
 43.98726    -83.3 9.030e+03 1.702e-10
 44.01570    -81.9 9.145e+03 2.147e-10
 44.03587    -80.2 9.061e+03 1.756e-10
 44.06792    -78.7 9.245e+03 2.395e-10
 44.10825    -77.1 9.515e+03 3.375e-10
 44.14858    -75.4 9.892e+03 4.656e-10
 44.17557    -73.8 1.035e+04 6.129e-10
 44.19574    -71.9 1.010e+04 5.364e-10
 44.22924    -70.3 1.060e+04 7.038e-10
 44.26957    -68.6 1.105e+04 9.052e-10
 44.30991    -66.7 1.142e+04 1.096e-09
 44.33544    -64.6 1.177e+04 1.278e-09
 44.35561    -62.9 1.176e+04 1.278e-09
 44.39057    -60.5 1.209e+04 1.458e-09
 44.41528    -59.0 1.233e+04 1.625e-09
 44.42526    -58.3 1.234e+04 1.628e-09
 44.44079    -57.3 1.267e+04 1.837e-09
 44.46095    -56.9 1.360e+04 2.397e-09
 44.48112    -58.2 1.581e+04 3.956e-09
 44.49512    -60.1 1.856e+04 8.340e-09
 44.50520    -58.6 1.732e+04 6.686e-09
 44.52145    -60.1 1.953e+04 1.342e-08
 44.53504    -60.3 2.151e+04 2.274e-08
 44.54003    -59.1 2.069e+04 1.780e-08
 44.54656    -60.8 2.131e+04 2.733e-08
 44.55664    -60.9 2.162e+04 4.363e-08
 44.56672    -61.4 2.121e+04 6.266e-08
 44.57495    -60.8 2.112e+04 8.333e-08
 44.58000    -59.8 2.078e+04 4.959e-08
 44.58689    -59.2 2.068e+04 5.333e-08
 44.59202    -58.1 2.098e+04 5.464e-08
 44.59706    -58.9 2.145e+04 3.272e-08
 44.60705    -58.9 2.201e+04 2.639e-08
 44.61492    -59.6 2.227e+04 1.927e-08
 44.61996    -58.9 2.182e+04 1.478e-08
 44.62722    -60.5 2.099e+04 1.037e-08
 44.63730    -63.1 1.854e+04 6.877e-09
 44.64738    -65.1 1.633e+04 5.357e-09
 44.65494    -64.4 1.644e+04 6.124e-09
 44.65998    -65.2 1.464e+04 3.420e-09
 44.66755    -65.0 1.456e+04 3.405e-09
 44.68272    -63.6 1.441e+04 3.344e-09
 44.70294    -63.6 1.340e+04 2.706e-09
 44.72310    -62.6 1.329e+04 2.557e-09
 44.73492    -61.4 1.338e+04 2.532e-09
 44.74500    -61.4 1.288e+04 2.041e-09
 44.76343    -60.4 1.316e+04 2.203e-09
 44.78360    -59.4 1.360e+04 2.471e-09
 44.80376    -58.3 1.419e+04 2.906e-09
 44.81486    -57.2 1.482e+04 3.507e-09
 44.82494    -58.5 1.494e+04 3.526e-09
 44.84410    -57.6 1.576e+04 4.464e-09
 44.86426    -56.2 1.646e+04 5.754e-09
 44.87971    -54.0 1.685e+04 7.213e-09
 44.88979    -57.9 1.591e+04 5.224e-09
 44.89479    -56.0 1.624e+04 5.669e-09
 44.90487    -58.6 1.617e+04 5.564e-09
 44.92476    -58.3 1.670e+04 5.221e-09
 44.93983    -70.6 3.163e+04 3.389e-09
 44.94987    -93.3 3.874e+04 7.307e-09
 44.95995   -112.9 4.733e+04 2.172e-08
 44.96959   -123.9 2.578e+04 4.393e-07
 44.97460   -131.8 2.060e+04 2.328e-06
 44.97755   -133.2 1.873e+04 5.927e-06
 44.98259   -134.4 1.797e+04 1.058e-05
 44.98763   -135.2 1.779e+04 1.235e-05
 44.99204   -135.8 1.792e+04 1.060e-05
 44.99456   -139.8 1.765e+04 1.419e-05
 44.99771   -140.8 1.920e+04 4.931e-06
 45.00275   -143.8 2.260e+04 1.269e-06
 45.00779   -149.1 2.992e+04 1.927e-07
 45.01203   -153.7 3.361e+04 5.269e-08
 45.01455   -158.5 3.279e+04 3.765e-08
 45.02042   -160.8 3.004e+04 2.396e-08
 45.03053   -166.9 2.181e+04 8.193e-09
 45.04061   -169.7 1.614e+04 3.864e-09
 45.04952   -169.5 1.493e+04 3.068e-09
 45.05456   -167.8 1.533e+04 3.580e-09
 45.06587   -165.2 1.486e+04 3.054e-09
 45.08608   -162.7 1.392e+04 2.262e-09
 45.10625   -158.9 1.216e+04 1.297e-09
 45.12451   -156.8 1.103e+04 8.279e-10
 45.13460   -155.5 1.135e+04 9.576e-10
 45.14658   -154.0 1.071e+04 6.671e-10
 45.16674   -152.4 1.021e+04 5.002e-10
 45.18691   -150.5 9.787e+03 3.998e-10
 45.20445   -148.5 9.549e+03 3.597e-10
 45.21453   -147.9 9.697e+03 3.750e-10
 45.23742   -146.0 9.505e+03 3.539e-10
 45.27450   -143.2 9.364e+03 3.338e-10
 45.29466   -141.6 9.432e+03 3.387e-10
 45.31818   -138.9 9.212e+03 3.214e-10
 45.35851   -136.4 9.150e+03 3.174e-10
 45.39884   -134.2 9.187e+03 3.253e-10
 45.43437   -132.2 9.198e+03 3.313e-10
 45.45453   -130.6 9.154e+03 3.268e-10
 45.47950   -128.7 9.071e+03 3.056e-10
 45.51983   -126.8 8.923e+03 2.662e-10
 45.56017   -124.8 8.800e+03 2.335e-10
 45.59424   -122.8 8.768e+03 2.217e-10
 45.61440   -121.1 8.610e+03 1.987e-10
 45.64083   -119.0 8.598e+03 1.930e-10
 45.68116   -116.8 8.808e+03 2.064e-10
 45.72149   -114.6 9.170e+03 2.607e-10
 45.75411   -112.3 9.497e+03 3.317e-10
 45.77427   -110.8 9.239e+03 2.767e-10
 45.80215   -108.6 9.574e+03 3.547e-10
 45.83230   -106.6 9.612e+03 3.822e-10
 45.84393   -106.0 9.821e+03 4.510e-10
 45.85401   -105.3 9.726e+03 4.158e-10
 45.87254   -104.2 9.980e+03 5.155e-10
 45.89270   -103.6 1.037e+04 6.529e-10
 45.91287   -103.0 1.099e+04 8.745e-10
 45.92387   -102.8 1.179e+04 1.240e-09
 45.93395   -101.7 1.139e+04 1.052e-09
 45.95320   -101.5 1.216e+04 1.499e-09
 45.97336   -101.4 1.286e+04 2.154e-09
 45.99353   -101.1 1.339e+04 2.985e-09
 46.00380   -100.6 1.372e+04 3.750e-09
 46.01388    -99.9 1.335e+04 3.026e-09
 46.03386    -99.3 1.353e+04 3.520e-09
 46.05023    -98.7 1.357e+04 3.743e-09
 46.06031    -98.2 1.353e+04 3.468e-09
 46.07365    -97.6 1.349e+04 3.553e-09
 46.08374    -96.8 1.336e+04 3.367e-09
 46.09436    -96.1 1.334e+04 3.420e-09
 46.11452    -95.4 1.314e+04 3.124e-09
 46.13469    -94.7 1.285e+04 2.675e-09
 46.15359    -94.2 1.259e+04 2.150e-09
 46.16367    -93.5 1.272e+04 2.391e-09
 46.17502    -93.2 1.242e+04 1.851e-09
 46.19518    -93.0 1.198e+04 1.321e-09
 46.21535    -93.1 1.148e+04 9.306e-10
 46.23362    -93.0 1.098e+04 6.591e-10
 46.24370    -92.3 1.128e+04 8.161e-10
 46.25568    -91.9 1.095e+04 6.605e-10
 46.28603    -91.0 1.081e+04 5.853e-10
 46.32645    -89.4 1.035e+04 3.926e-10
 46.36679    -88.3 1.029e+04 3.256e-10
 46.39359    -87.1 1.030e+04 2.964e-10
 46.41375    -86.2 1.063e+04 4.474e-10
 46.44745    -85.0 1.066e+04 4.187e-10
 46.48778    -83.9 1.072e+04 4.038e-10
 46.52811    -82.7 1.075e+04 3.997e-10
 46.55346    -81.4 1.078e+04 3.943e-10
 46.57362    -80.9 1.128e+04 6.197e-10
 46.60877    -79.7 1.132e+04 6.382e-10
 46.64910    -78.4 1.134e+04 6.423e-10
 46.68943    -77.1 1.133e+04 6.270e-10
 46.71333    -75.8 1.129e+04 6.008e-10
 46.73349    -75.7 1.202e+04 1.087e-09
 46.77010    -74.4 1.196e+04 1.064e-09
 46.81043    -72.9 1.182e+04 1.008e-09
 46.85076    -71.4 1.171e+04 9.426e-10
 46.87320    -69.7 1.159e+04 8.566e-10
 46.89336    -69.6 1.175e+04 1.006e-09
 46.93142    -68.0 1.154e+04 8.456e-10
 46.97175    -66.3 1.132e+04 7.223e-10
 47.01208    -64.6 1.112e+04 6.202e-10
 47.03307    -62.8 1.098e+04 5.317e-10
 47.05323    -62.3 1.066e+04 3.537e-10
 47.09274    -60.8 1.066e+04 3.005e-10
 47.13307    -59.5 1.079e+04 2.734e-10
 47.17277    -58.5 1.085e+04 2.668e-10
 47.19294    -58.2 1.068e+04 1.693e-10
 47.21086    -57.5 1.080e+04 1.826e-10
 47.23102    -56.8 1.130e+04 5.247e-10
 47.25407    -55.7 1.131e+04 5.005e-10
 47.29440    -54.6 1.128e+04 4.754e-10
 47.33264    -53.3 1.120e+04 4.424e-10
 47.35281    -52.8 1.095e+04 2.778e-10
 47.37506    -51.5 1.084e+04 2.357e-10
 47.41539    -50.1 1.076e+04 1.946e-10
 47.45572    -48.7 1.065e+04 1.614e-10
 47.49251    -47.3 1.051e+04 1.433e-10
 47.51268    -47.0 1.040e+04 1.101e-10
 47.53638    -45.4 1.037e+04 1.112e-10
 47.57671    -43.9 1.040e+04 1.238e-10
 47.61705    -42.8 1.057e+04 1.550e-10
 47.65238    -42.0 1.090e+04 2.321e-10
 47.67255    -41.8 1.081e+04 2.041e-10
 47.68753    -41.4 1.091e+04 3.041e-10
 47.70760    -41.6 1.096e+04 3.619e-10
 47.72776    -41.5 1.134e+04 5.698e-10
 47.74221    -41.8 1.155e+04 8.435e-10
 47.75229    -41.3 1.142e+04 7.582e-10
 47.76809    -40.6 1.169e+04 1.150e-09
 47.78826    -40.0 1.184e+04 1.407e-09
 47.80601    -39.0 1.219e+04 1.586e-09
 47.81609    -39.2 1.262e+04 1.634e-09
 47.82214    -39.0 1.287e+04 1.610e-09
 47.83222    -38.2 1.221e+04 1.142e-09
 47.84875    -38.0 1.252e+04 1.014e-09
 47.86892    -38.1 1.269e+04 9.371e-10
 47.88908    -38.2 1.251e+04 8.868e-10
 47.90208    -38.1 1.213e+04 8.457e-10
 47.91216    -37.2 1.180e+04 5.479e-10
 47.92942    -37.0 1.153e+04 5.427e-10
 47.94958    -36.3 1.131e+04 5.681e-10
 47.96975    -35.7 1.126e+04 5.917e-10
 47.98201    -34.9 1.121e+04 6.180e-10
 47.99209    -34.3 1.105e+04 4.697e-10
 48.01008    -33.5 1.106e+04 5.323e-10
 48.03024    -32.5 1.100e+04 6.037e-10
 48.06059    -30.5 1.131e+04 7.196e-10
 48.10102    -29.0 1.146e+04 7.669e-10
 48.13199    -28.1 1.172e+04 8.706e-10
 48.15216    -26.4 1.202e+04 1.061e-09
 48.17150    -27.4 1.212e+04 1.161e-09
 48.19157    -27.6 1.224e+04 1.179e-09
 48.21173    -27.5 1.274e+04 1.406e-09
 48.23190    -27.2 1.374e+04 2.310e-09
 48.25206    -27.6 1.399e+04 2.529e-09
 48.27223    -28.1 1.380e+04 2.504e-09
 48.29167    -28.4 1.348e+04 2.244e-09
 48.30175    -28.4 1.491e+04 4.378e-09
 48.31256    -28.7 1.459e+04 3.563e-09
 48.33273    -29.2 1.421e+04 2.704e-09
 48.35289    -30.1 1.352e+04 2.115e-09
 48.37160    -30.4 1.292e+04 1.837e-09
 48.38169    -30.0 1.363e+04 2.688e-09
 48.39127    -29.8 1.316e+04 2.228e-09
 48.40135    -30.3 1.313e+04 2.355e-09
 48.42357    -30.1 1.261e+04 1.886e-09
 48.45174    -28.4 1.204e+04 1.418e-09
 48.47190    -28.2 1.217e+04 1.432e-09
 48.50433    -25.9 1.133e+04 8.185e-10
 48.54466    -23.7 1.059e+04 3.983e-10
 48.58499    -22.3 1.027e+04 2.422e-10
 48.61161    -20.7 1.008e+04 1.876e-10
 48.63177    -20.2 1.014e+04 1.909e-10
 48.66565    -18.5 1.008e+04 1.780e-10
 48.70598    -16.7 1.016e+04 1.846e-10
 48.74631    -15.0 1.017e+04 2.189e-10
 48.77148    -12.9 1.013e+04 2.566e-10
 48.79164    -12.3 1.019e+04 2.676e-10
 48.82698    -10.0 1.009e+04 2.787e-10
 48.86731     -7.7 1.014e+04 2.353e-10
 48.90764     -5.5 1.003e+04 1.969e-10
 48.93135     -3.5 1.011e+04 1.555e-10
 48.95151     -2.7 1.007e+04 1.452e-10
 48.98830     -1.0 1.016e+04 1.207e-10
 49.02863      0.8 1.011e+04 1.102e-10
 49.06896      2.8 1.000e+04 1.049e-10
 49.09122      4.9 9.863e+03 1.044e-10
 49.11138      6.0 9.937e+03 9.630e-11
 49.14962      8.1 9.807e+03 9.642e-11
 49.18995     10.1 9.723e+03 9.956e-11
 49.23028     12.2 9.697e+03 1.027e-10
 49.25109     14.1 9.724e+03 1.025e-10
 49.27125     15.1 9.750e+03 9.616e-11
 49.31095     17.0 9.743e+03 9.627e-11
 49.35128     18.9 9.721e+03 9.249e-11
 49.39079     21.0 9.670e+03 8.169e-11
 49.41096     21.9 9.689e+03 8.087e-11
 49.43194     23.8 9.668e+03 6.764e-11
 49.47227     25.6 9.675e+03 5.529e-11
 49.51260     27.2 9.622e+03 4.869e-11
 49.55066     29.0 9.525e+03 4.850e-11
 49.56979     29.7 9.587e+03 5.174e-11
 49.57206     29.2 9.509e+03 4.790e-11
 49.59326     31.2 9.501e+03 4.894e-11
 49.63359     33.2 9.527e+03 5.079e-11
 49.67393     35.2 9.584e+03 5.357e-11
 49.71053     37.1 9.643e+03 5.964e-11
 49.73070     37.5 9.709e+03 6.399e-11
 49.75459     39.5 9.691e+03 8.026e-11
 49.79492     41.7 9.702e+03 1.027e-10
 49.83525     44.1 9.733e+03 1.293e-10
 49.87040     46.6 9.791e+03 1.496e-10
 49.89057     47.3 9.846e+03 1.144e-10
 49.91591     49.5 9.890e+03 1.057e-10
 49.95624     51.7 9.925e+03 9.390e-11
 49.99657     53.7 9.916e+03 8.301e-11
 50.03027     55.7 9.838e+03 7.720e-11
 50.05044     55.9 9.893e+03 6.211e-11
 50.07724     58.1 9.869e+03 6.309e-11
 50.11757     60.2 9.821e+03 6.683e-11
 50.15790     62.4 9.800e+03 7.277e-11
 50.19014     64.5 9.812e+03 7.957e-11
 50.21031     64.9 9.854e+03 7.825e-11
 50.23856     67.0 9.880e+03 8.525e-11
 50.27889     69.0 9.906e+03 9.181e-11
 50.31922     70.9 9.921e+03 9.773e-11
 50.35001     72.7 9.929e+03 1.015e-10
 50.37018     73.5 9.959e+03 1.078e-10
 50.39988     75.3 1.000e+04 1.059e-10
 50.44021     77.1 1.006e+04 1.026e-10
 50.48055     78.7 1.009e+04 1.027e-10
 50.50988     80.1 1.014e+04 1.060e-10
 50.53005     80.4 1.032e+04 1.073e-10
 50.56121     81.3 1.043e+04 1.349e-10
 50.60154     82.2 1.043e+04 1.941e-10
 50.64187     83.2 1.045e+04 2.760e-10
 50.66975     84.2 1.043e+04 3.343e-10
 50.68992     85.0 1.073e+04 5.330e-10
 50.72242     85.7 1.072e+04 5.252e-10
 50.76275     86.1 1.058e+04 4.363e-10
 50.80319     87.1 1.042e+04 3.785e-10
 50.82962     88.1 1.022e+04 3.147e-10
 50.84979     88.3 1.015e+04 2.926e-10
 50.88385     89.4 9.976e+03 2.191e-10
 50.92419     90.5 9.807e+03 1.642e-10
 50.96452     91.5 9.573e+03 1.386e-10
 50.98949     92.8 9.504e+03 1.380e-10
 51.00966     92.7 9.435e+03 1.112e-10
 51.04518     94.0 9.418e+03 1.155e-10
 51.08551     95.3 9.430e+03 1.366e-10
 51.12584     96.5 9.626e+03 1.851e-10
 51.14936     97.6 9.947e+03 2.632e-10
 51.16953     97.4 9.518e+03 2.107e-10
 51.20650     98.7 9.658e+03 2.603e-10
 51.24683     99.8 9.774e+03 2.711e-10
 51.28716    100.9 9.766e+03 2.664e-10
 51.30923    102.1 9.702e+03 2.453e-10
 51.32940    102.6 9.186e+03 1.582e-10
 51.36783    103.7 9.092e+03 1.397e-10
 51.40816    105.0 9.091e+03 1.375e-10
 51.44849    106.2 9.145e+03 1.417e-10
 51.46910    106.8 9.351e+03 1.666e-10
 51.48927    107.8 9.007e+03 1.341e-10
 51.52915    108.8 9.219e+03 1.784e-10
 51.56948    109.6 9.628e+03 2.740e-10
 51.60881    110.2 1.029e+04 4.769e-10
 51.62897    111.8 9.870e+03 3.515e-10
 51.65014    112.2 1.044e+04 5.508e-10
 51.69047    112.5 1.078e+04 7.517e-10
 51.73081    112.8 1.076e+04 7.912e-10
 51.76868    113.2 1.054e+04 7.301e-10
 51.78884    114.7 1.040e+04 5.705e-10
 51.81147    115.1 1.002e+04 4.412e-10
 51.85180    115.4 9.430e+03 3.156e-10
 51.89213    115.7 8.989e+03 2.752e-10
 51.91310    116.2 8.968e+03 2.800e-10
 51.92936    117.7 9.218e+03 3.164e-10
 51.94871    118.7 9.467e+03 2.831e-10
 51.97279    118.8 9.450e+03 3.153e-10
 52.01312    119.0 9.568e+03 4.034e-10
 52.05345    119.2 9.674e+03 4.653e-10
 52.08842    119.3 9.665e+03 4.608e-10
 52.10858    119.1 1.010e+04 5.645e-10
 52.13412    119.2 9.978e+03 5.187e-10
 52.17445    119.6 9.655e+03 3.937e-10
 52.21478    120.1 9.239e+03 2.573e-10
 52.24829    120.6 8.828e+03 1.618e-10
 52.26845    120.0 9.271e+03 3.020e-10
 52.29544    120.6 8.996e+03 2.316e-10
 52.33577    121.6 8.904e+03 2.095e-10
 52.37610    122.9 8.862e+03 2.045e-10
 52.40816    124.5 8.857e+03 2.044e-10
 52.42832    124.3 9.047e+03 3.247e-10
 52.45676    126.0 9.068e+03 3.242e-10
 52.49709    127.6 9.174e+03 3.338e-10
 52.53742    129.1 9.400e+03 3.612e-10
 52.56803    130.4 9.661e+03 3.961e-10
 52.58819    129.9 9.686e+03 4.995e-10
 52.60791    130.6 9.880e+03 5.436e-10
 52.62797    131.4 1.011e+04 5.916e-10
 52.64777    132.0 1.032e+04 6.328e-10
 52.65785    131.8 1.042e+04 7.266e-10
 52.66831    132.3 1.056e+04 7.644e-10
 52.68847    132.8 1.067e+04 7.928e-10
 52.70864    133.3 1.078e+04 8.276e-10
 52.72770    133.8 1.093e+04 8.851e-10
 52.73779    134.0 1.045e+04 1.049e-09
 52.74897    134.5 1.060e+04 1.211e-09
 52.76913    134.9 1.085e+04 1.452e-09
 52.78930    135.5 1.121e+04 1.792e-09
 52.80764    136.3 1.173e+04 2.269e-09
 52.81772    136.6 1.183e+04 2.570e-09
 52.82963    137.5 1.245e+04 3.425e-09
 52.84979    138.2 1.308e+04 4.417e-09
 52.86996    138.8 1.372e+04 5.384e-09
 52.88757    139.2 1.430e+04 5.995e-09
 52.89766    138.9 1.442e+04 5.818e-09
 52.91029    138.9 1.465e+04 6.204e-09
 52.93046    138.7 1.484e+04 6.481e-09
 52.95062    138.6 1.486e+04 6.433e-09
 52.96751    138.4 1.488e+04 6.195e-09
 52.97759    138.4 1.484e+04 5.597e-09
 52.99095    138.4 1.487e+04 5.269e-09
 53.01112    138.5 1.477e+04 4.497e-09
 53.03128    138.4 1.456e+04 3.443e-09
 53.04744    138.0 1.432e+04 2.483e-09
 53.05753    137.4 1.455e+04 2.362e-09
 53.07162    136.2 1.399e+04 1.848e-09
 53.08343    134.5 1.308e+04 1.678e-09
 53.09351    133.5 1.233e+04 1.351e-09
 53.11195    132.7 1.220e+04 1.461e-09
 53.12738    132.7 1.228e+04 1.726e-09
 53.13746    132.7 1.223e+04 1.687e-09
 53.15228    132.4 1.235e+04 1.718e-09
 53.17244    132.1 1.235e+04 1.674e-09
 53.19261    131.6 1.223e+04 1.453e-09
 53.20731    130.8 1.187e+04 1.087e-09
 53.21740    130.0 1.129e+04 9.455e-10
 53.23294    128.8 1.060e+04 6.787e-10
 53.25310    127.5 1.020e+04 5.735e-10
 53.27327    126.6 1.021e+04 5.755e-10
 53.28725    125.9 1.034e+04 6.090e-10
 53.29733    126.4 1.039e+04 5.789e-10
 53.31360    125.8 1.075e+04 6.820e-10
 53.33377    125.5 1.120e+04 8.646e-10
 53.35393    125.6 1.163e+04 1.107e-09
 53.36718    125.9 1.196e+04 1.327e-09
 53.37727    126.0 1.175e+04 1.470e-09
 53.39426    126.5 1.197e+04 1.613e-09
 53.41443    127.0 1.197e+04 1.593e-09
 53.43459    127.7 1.184e+04 1.465e-09
 53.44712    128.4 1.155e+04 1.213e-09
 53.45720    128.6 1.164e+04 1.419e-09
 53.47492    129.3 1.121e+04 1.084e-09
 53.49509    129.7 1.072e+04 7.912e-10
 53.51526    129.9 1.021e+04 5.945e-10
 53.52705    130.2 9.802e+03 5.121e-10
 53.53714    130.6 1.022e+04 5.344e-10
 53.55559    131.0 9.954e+03 5.199e-10
 53.57575    131.9 9.930e+03 5.245e-10
 53.59592    133.0 9.937e+03 5.534e-10
 53.60699    134.3 1.006e+04 6.189e-10
 53.61707    134.6 1.009e+04 6.784e-10
 53.63625    135.9 1.027e+04 7.668e-10
 53.65641    137.3 1.046e+04 8.660e-10
 53.66869    138.8 1.066e+04 9.768e-10
 53.67877    139.3 1.061e+04 9.579e-10
 53.68692    140.9 1.078e+04 1.060e-09
 53.69701    141.3 1.083e+04 9.833e-10
 53.71691    142.6 1.121e+04 1.137e-09
 53.73708    143.4 1.209e+04 1.513e-09
 53.75678    143.5 1.325e+04 2.222e-09
 53.76686    143.0 1.332e+04 2.243e-09
 53.77741    142.5 1.429e+04 2.997e-09
 53.79248    140.5 1.616e+04 4.329e-09
 53.80169    137.0 1.878e+04 7.456e-09
 53.80673    137.2 1.858e+04 7.482e-09
 53.81260    133.8 2.039e+04 1.444e-08
 53.82268    131.7 2.140e+04 2.748e-08
 53.83276    130.8 2.197e+04 4.643e-08
 53.84166    130.5 2.236e+04 6.233e-08
 53.84670    131.2 2.241e+04 6.761e-08
 53.85293    130.6 2.255e+04 6.947e-08
 53.86301    130.1 2.255e+04 6.674e-08
 53.87310    129.6 2.263e+04 5.466e-08
 53.88162    128.8 2.272e+04 3.696e-08
 53.88667    129.3 2.289e+04 3.800e-08
 53.89326    127.2 2.276e+04 2.218e-08
 53.90334    125.2 2.222e+04 1.293e-08
 53.91660    120.5 1.981e+04 4.456e-09
 53.92673    119.5 1.957e+04 5.637e-09
 53.93873    113.8 1.462e+04 2.572e-09
 53.95890    110.8 1.251e+04 1.520e-09
 53.97906    110.8 1.233e+04 1.187e-09
 53.99658    111.1 1.205e+04 1.034e-09
 54.00667    111.3 1.362e+04 1.954e-09
 54.01939    111.2 1.366e+04 1.655e-09
 54.03956    110.8 1.353e+04 1.484e-09
 54.05972    110.4 1.349e+04 1.505e-09
 54.07652    110.4 1.361e+04 1.680e-09
 54.08660    109.6 1.546e+04 2.707e-09
 54.10006    109.8 1.594e+04 3.219e-09
 54.12022    110.3 1.624e+04 3.835e-09
 54.14039    111.3 1.645e+04 4.337e-09
 54.15645    112.4 1.670e+04 4.544e-09
 54.16654    111.1 1.636e+04 6.159e-09
 54.18072    112.0 1.661e+04 6.469e-09
 54.20088    112.9 1.671e+04 6.450e-09
 54.22105    113.9 1.683e+04 6.126e-09
 54.23639    114.8 1.682e+04 5.399e-09
 54.24647    114.7 1.617e+04 8.927e-09
 54.25394    115.3 1.595e+04 7.744e-09
 54.26403    116.3 1.547e+04 6.781e-09
 54.28154    116.7 1.549e+04 6.442e-09
 54.30171    116.9 1.531e+04 5.674e-09
 54.31632    117.0 1.494e+04 4.868e-09
 54.32641    118.3 1.511e+04 7.358e-09
 54.34204    118.4 1.468e+04 6.183e-09
 54.36221    118.3 1.400e+04 4.890e-09
 54.38237    118.5 1.324e+04 3.764e-09
 54.39626    118.7 1.261e+04 2.930e-09
 54.40634    119.4 1.326e+04 2.968e-09
 54.42270    119.3 1.250e+04 2.167e-09
 54.44287    119.3 1.200e+04 1.655e-09
 54.46303    119.3 1.169e+04 1.320e-09
 54.47619    119.2 1.149e+04 1.088e-09
 54.48628    118.1 1.108e+04 6.945e-10
 54.50336    117.6 1.069e+04 5.751e-10
 54.52353    117.2 1.030e+04 4.885e-10
 54.54370    116.8 9.915e+03 4.256e-10
 54.55613    116.4 9.558e+03 3.836e-10
 54.56621    115.5 9.147e+03 3.180e-10
 54.58403    115.5 9.128e+03 3.189e-10
 54.60419    115.7 9.109e+03 3.236e-10
 54.62436    115.9 9.103e+03 3.399e-10
 54.63606    116.2 9.157e+03 3.714e-10
 54.64624    115.5 9.143e+03 3.281e-10
 54.66479    115.9 9.228e+03 3.860e-10
 54.68485    116.4 9.459e+03 4.883e-10
 54.70502    116.4 9.846e+03 6.641e-10
 54.71600    116.3 1.037e+04 9.429e-10
 54.72608    116.9 1.028e+04 8.474e-10
 54.74535    116.8 1.105e+04 1.261e-09
 54.76552    116.6 1.199e+04 1.959e-09
 54.78568    116.4 1.304e+04 3.065e-09
 54.79593    116.4 1.406e+04 4.530e-09
 54.80602    116.5 1.394e+04 3.745e-09
 54.82601    116.6 1.473e+04 5.128e-09
 54.83920    116.6 1.534e+04 5.752e-09
 54.84929    116.1 1.580e+04 6.556e-09
 54.86579    115.7 1.581e+04 6.337e-09
 54.87587    116.0 1.547e+04 5.915e-09
 54.88651    115.5 1.543e+04 5.343e-09
 54.90667    114.4 1.506e+04 4.224e-09
 54.92684    112.8 1.425e+04 3.107e-09
 54.94572    110.9 1.314e+04 2.334e-09
 54.95580    112.6 1.364e+04 2.294e-09
 54.96717    111.1 1.250e+04 1.690e-09
 54.98734    110.5 1.163e+04 1.411e-09
 55.00750    110.6 1.125e+04 1.267e-09
 55.02566    111.0 1.103e+04 1.121e-09
 55.03574    111.4 1.081e+04 9.620e-10
 55.04783    112.0 1.060e+04 8.165e-10
 55.06800    112.7 1.037e+04 6.675e-10
 55.08816    113.2 1.011e+04 5.373e-10
 55.10559    113.6 9.893e+03 4.529e-10
 55.11567    114.3 9.853e+03 4.024e-10
 55.12849    114.7 9.754e+03 3.792e-10
 55.14866    115.4 9.752e+03 3.800e-10
 55.16883    116.1 9.774e+03 3.884e-10
 55.18553    117.1 9.907e+03 4.215e-10
 55.19561    117.5 9.915e+03 3.785e-10
 55.20916    118.4 1.016e+04 4.290e-10
 55.22932    118.6 1.054e+04 5.188e-10
 55.24949    118.6 1.117e+04 6.953e-10
 55.26546    118.1 1.234e+04 1.094e-09
 55.27554    119.1 1.162e+04 8.492e-10
 55.28982    118.4 1.295e+04 1.404e-09
 55.30998    117.3 1.437e+04 2.562e-09
 55.33015    116.3 1.550e+04 4.674e-09
 55.34540    116.2 1.639e+04 7.831e-09
 55.35548    116.5 1.583e+04 5.659e-09
 55.37048    116.5 1.657e+04 8.805e-09
 55.39065    116.6 1.711e+04 1.078e-08
 55.41081    116.4 1.716e+04 1.068e-08
 55.42446    116.4 1.699e+04 9.519e-09
 55.42890    116.4 1.739e+04 1.194e-08
 55.43541    116.5 1.726e+04 1.152e-08
 55.45114    116.6 1.715e+04 1.056e-08
 55.47131    117.2 1.679e+04 7.943e-09
 55.49147    117.5 1.631e+04 5.068e-09
 55.50527    117.4 1.558e+04 2.956e-09
 55.51535    117.6 1.629e+04 5.002e-09
 55.53180    117.5 1.555e+04 2.956e-09
 55.55197    117.2 1.427e+04 1.735e-09
 55.57214    117.2 1.278e+04 1.144e-09
 55.58530    118.0 1.190e+04 9.466e-10
 55.59538    119.5 1.288e+04 1.218e-09
 55.61247    119.7 1.148e+04 5.914e-10
 55.64281    121.4 1.050e+04 4.621e-10
 55.68324    122.6 9.902e+03 3.161e-10
 55.72357    124.8 9.712e+03 2.813e-10
 55.74527    127.3 9.598e+03 2.588e-10
 55.76543    128.0 9.395e+03 2.329e-10
 55.80423    130.6 9.335e+03 2.220e-10
 55.84457    133.2 9.343e+03 2.053e-10
 55.88490    135.6 9.339e+03 1.858e-10
 55.92523    139.2 9.331e+03 1.981e-10
 55.96556    141.6 9.366e+03 1.899e-10
 56.00589    143.8 9.382e+03 1.901e-10
 56.04484    145.9 9.447e+03 1.960e-10
 56.06501    147.2 9.441e+03 2.354e-10
 56.08655    149.1 9.561e+03 2.498e-10
 56.12688    150.9 9.791e+03 2.925e-10
 56.16721    152.5 1.009e+04 3.648e-10
 56.20471    154.0 1.044e+04 4.636e-10
 56.22488    155.1 1.052e+04 5.382e-10
 56.24787    156.3 1.095e+04 6.842e-10
 56.28821    157.0 1.130e+04 8.172e-10
 56.32854    157.2 1.140e+04 8.469e-10
 56.36458    157.1 1.137e+04 8.328e-10
 56.38475    157.8 1.136e+04 8.464e-10
 56.40920    157.9 1.110e+04 7.175e-10
 56.44953    158.1 1.073e+04 5.595e-10
 56.48986    158.4 1.035e+04 4.216e-10
 56.52445    159.0 1.004e+04 3.240e-10
 56.54462    159.4 9.901e+03 2.981e-10
 56.57052    160.3 9.756e+03 2.658e-10
 56.59518    161.6 9.700e+03 2.509e-10
 56.61534    161.8 9.610e+03 2.311e-10
 56.65118    163.3 9.621e+03 2.321e-10
 56.68432    164.8 9.655e+03 2.349e-10
 56.70449    164.9 9.774e+03 2.683e-10
 56.73185    166.1 9.817e+03 2.705e-10
 56.77218    167.4 9.881e+03 2.761e-10
 56.81251    168.6 9.979e+03 2.909e-10
 56.84419    169.8 1.013e+04 3.218e-10
 56.86436    169.2 1.020e+04 3.709e-10
 56.88299    169.8 1.025e+04 3.948e-10
 56.90306    170.5 1.038e+04 4.352e-10
 56.92322    171.2 1.060e+04 5.132e-10
 56.93402    171.9 1.083e+04 6.072e-10
 56.94410    171.7 1.097e+04 6.406e-10
 56.96355    172.2 1.113e+04 7.064e-10
 56.98372    172.6 1.120e+04 7.342e-10
 57.00387    172.9 1.120e+04 7.335e-10
 57.02403    172.9 1.109e+04 6.946e-10
 57.04422    173.3 1.101e+04 6.695e-10
 57.06438    173.8 1.091e+04 6.347e-10
 57.08380    174.2 1.083e+04 5.989e-10
 57.09389    174.0 1.073e+04 5.623e-10
 57.10471    174.5 1.069e+04 5.410e-10
 57.12488    174.9 1.068e+04 5.235e-10
 57.14504    175.3 1.067e+04 5.088e-10
 57.16374    175.8 1.065e+04 4.961e-10
 57.17382    175.5 1.058e+04 4.832e-10
 57.18024    175.9 1.058e+04 4.771e-10
 57.19033    175.1 1.018e+04 3.441e-10
 57.20554    175.5 1.017e+04 3.378e-10
 57.22571    175.7 1.015e+04 3.310e-10
 57.24367    176.0 1.015e+04 3.250e-10
 57.25376    175.8 1.009e+04 3.160e-10
 57.26604    176.1 1.006e+04 3.081e-10
 57.28620    176.4 1.006e+04 3.033e-10
 57.30637    176.7 1.006e+04 3.028e-10
 57.32361    177.0 1.007e+04 3.042e-10
 57.34387    177.2 1.018e+04 3.333e-10
 57.37714    178.1 1.025e+04 3.457e-10
 57.40364    178.4 1.027e+04 3.514e-10
 57.41363    178.3 1.023e+04 3.426e-10
 57.42736    178.7 1.026e+04 3.486e-10
 57.44753    179.1 1.039e+04 3.780e-10
 57.46769    179.6 1.056e+04 4.234e-10
 57.48348    180.2 1.079e+04 4.905e-10
 57.49356    179.9 1.071e+04 4.606e-10
 57.50802    180.6 1.105e+04 5.545e-10
 57.52819    180.8 1.141e+04 6.738e-10
 57.54835    180.5 1.186e+04 8.477e-10
 57.56341    179.5 1.295e+04 1.244e-09
 57.57350    178.6 1.289e+04 1.216e-09
 57.58868    176.4 1.485e+04 2.272e-09
 57.60885    174.1 1.686e+04 4.581e-09
 57.62902    171.9 1.838e+04 7.848e-09
 57.64335    169.4 1.929e+04 9.048e-09
 57.65343    168.5 1.848e+04 7.475e-09
 57.66935    165.4 1.844e+04 7.191e-09
 57.68951    162.8 1.795e+04 5.667e-09
 57.70968    160.4 1.669e+04 3.467e-09
 57.72328    157.6 1.475e+04 1.858e-09
 57.73337    157.6 1.419e+04 1.752e-09
 57.75001    155.3 1.214e+04 9.828e-10
 57.76550    152.6 1.302e+04 7.846e-10
 57.77559    150.9 1.973e+04 8.047e-10
 57.78525    131.8 5.562e+04 5.505e-10
 57.79528     79.9 8.719e+04 1.916e-09
 57.80312     39.0 3.542e+04 8.700e-08
 57.80816     43.7 4.117e+04 6.695e-08
 57.81545     28.6 2.099e+04 4.610e-07
 57.82299     25.3 1.981e+04 5.254e-07
 57.82558     21.8 2.046e+04 5.992e-07
 57.82810     23.2 1.998e+04 8.722e-07
 57.83304     20.4 2.060e+04 1.221e-06
 57.83809     18.5 2.068e+04 1.440e-06
 57.84304     18.4 2.161e+04 1.752e-06
 57.84556     19.2 2.144e+04 1.776e-06
 57.84817     18.7 2.226e+04 1.692e-06
 57.85321     19.5 2.619e+04 7.168e-07
 57.85825     18.8 2.893e+04 4.451e-07
 57.86584     16.5 4.307e+04 9.294e-08
 57.87595      0.0 8.331e+04 2.669e-09
 57.88306     -5.2 7.054e+04 8.284e-10
 57.88810     -8.7 9.532e+04 9.773e-10
 57.89611    -50.6 3.535e+04 5.565e-10
 57.91128    -60.7 1.511e+04 6.592e-10
 57.93150    -62.2 1.137e+04 7.106e-10
 57.95166    -61.9 1.140e+04 7.117e-10
 57.96309    -61.1 1.142e+04 7.330e-10
 57.97317    -60.3 1.100e+04 6.280e-10
 57.99199    -59.3 1.110e+04 6.756e-10
 58.01216    -58.2 1.134e+04 7.751e-10
 58.03233    -56.9 1.164e+04 9.096e-10
 58.06267    -55.7 1.205e+04 1.107e-09
 58.10299    -54.5 1.301e+04 1.658e-09
 58.13314    -53.1 1.343e+04 1.985e-09
 58.15332    -52.6 1.389e+04 2.177e-09
 58.17348    -52.2 1.410e+04 2.225e-09
 58.19281    -52.0 1.415e+04 1.986e-09
 58.20289    -51.0 1.439e+04 2.497e-09
 58.21381    -51.0 1.403e+04 1.857e-09
 58.23398    -51.7 1.320e+04 1.283e-09
 58.25415    -55.1 1.296e+04 1.115e-09
 58.27275    -63.5 1.535e+04 1.138e-09
 58.28283    -60.5 1.440e+04 1.158e-09
 58.29448    -70.9 1.867e+04 2.470e-09
 58.31464    -77.0 1.971e+04 8.092e-09
 58.33481    -80.0 2.028e+04 1.635e-08
 58.35076    -82.6 2.056e+04 2.004e-08
 58.35855    -83.6 2.094e+04 2.156e-08
 58.36276    -81.8 2.114e+04 2.266e-08
 58.37514    -85.8 2.071e+04 1.904e-08
 58.39530    -90.8 1.905e+04 9.468e-09
 58.41547    -96.2 1.584e+04 4.165e-09
 58.43262    -99.9 1.335e+04 2.359e-09
 58.44270    -99.2 1.384e+04 2.849e-09
 58.45580   -100.8 1.287e+04 2.129e-09
 58.47597   -101.4 1.260e+04 1.795e-09
 58.49613   -102.0 1.227e+04 1.506e-09
 58.51255   -102.7 1.184e+04 1.262e-09
 58.52263   -102.4 1.208e+04 1.423e-09
 58.53646   -103.0 1.168e+04 1.215e-09
 58.55663   -103.3 1.138e+04 1.056e-09
 58.57679   -103.6 1.115e+04 9.334e-10
 58.59249   -103.7 1.099e+04 8.470e-10
 58.60257   -103.5 1.120e+04 9.488e-10
 58.61712   -103.6 1.114e+04 8.915e-10
 58.63729   -103.7 1.115e+04 8.790e-10
 58.65746   -103.9 1.122e+04 8.816e-10
 58.67242   -104.1 1.150e+04 9.424e-10
 58.68250   -104.0 1.161e+04 9.767e-10
 58.69779   -104.2 1.183e+04 1.055e-09
 58.71795   -104.3 1.201e+04 1.156e-09
 58.73812   -104.3 1.212e+04 1.256e-09
 58.75236   -104.3 1.217e+04 1.335e-09
 58.76244   -104.0 1.190e+04 1.200e-09
 58.77845   -103.8 1.190e+04 1.216e-09
 58.79861   -103.7 1.186e+04 1.213e-09
 58.81878   -103.7 1.185e+04 1.195e-09
 58.83229   -104.0 1.187e+04 1.179e-09
 58.84237   -104.0 1.174e+04 1.099e-09
 58.85911   -104.7 1.185e+04 1.134e-09
 58.87928   -105.5 1.199e+04 1.176e-09
 58.89944   -106.5 1.209e+04 1.234e-09
 58.91223   -107.5 1.223e+04 1.314e-09
 58.92231   -107.5 1.226e+04 1.359e-09
 58.93602   -108.5 1.234e+04 1.434e-09
 58.94610   -107.9 1.268e+04 1.731e-09
 58.95994   -108.9 1.261e+04 1.694e-09
 58.98010   -110.0 1.246e+04 1.609e-09
 58.99216   -111.0 1.221e+04 1.464e-09
 59.00225   -110.9 1.198e+04 1.374e-09
 59.02043   -111.6 1.171e+04 1.243e-09
 59.04060   -112.1 1.140e+04 1.101e-09
 59.06077   -112.4 1.110e+04 9.623e-10
 59.07210   -112.4 1.084e+04 8.405e-10
 59.08218   -112.2 1.093e+04 9.064e-10
 59.10110   -112.2 1.072e+04 8.036e-10
 59.12126   -112.1 1.049e+04 7.044e-10
 59.14143   -111.8 1.024e+04 6.117e-10
 59.15203   -111.3 9.998e+03 5.296e-10
 59.16212   -111.1 1.013e+04 5.877e-10
 59.18176   -110.6 9.915e+03 5.157e-10
 59.20192   -109.9 9.737e+03 4.604e-10
 59.22198   -109.0 9.614e+03 4.142e-10
 59.23207   -109.2 9.718e+03 4.652e-10
 59.24225   -108.5 9.637e+03 4.394e-10
 59.27260   -107.6 9.618e+03 4.443e-10
 59.31303   -106.6 9.603e+03 4.374e-10
 59.35336   -105.4 9.480e+03 4.069e-10
 59.38195   -103.8 9.278e+03 3.523e-10
 59.40212   -103.4 9.210e+03 3.670e-10
 59.43402   -101.7 8.954e+03 3.011e-10
 59.47435    -99.7 8.618e+03 2.368e-10
 59.51468    -97.5 8.287e+03 1.837e-10
 59.54182    -95.3 8.058e+03 1.458e-10
 59.56199    -95.1 8.124e+03 1.617e-10
 59.59535    -92.8 7.995e+03 1.355e-10
 59.63568    -90.6 7.924e+03 1.180e-10
 59.67601    -88.3 7.878e+03 1.059e-10
 59.70169    -86.0 7.855e+03 9.787e-11
 59.72186    -85.9 7.970e+03 1.171e-10
 59.75667    -83.6 7.983e+03 1.150e-10
 59.79700    -81.4 8.022e+03 1.145e-10
 59.83733    -79.4 8.174e+03 1.239e-10
 59.86156    -77.6 8.420e+03 1.484e-10
 59.88173    -77.8 8.840e+03 2.230e-10
 59.91799    -76.0 9.201e+03 2.924e-10
 59.95832    -74.4 9.534e+03 3.767e-10
 59.98848    -73.8 9.817e+03 4.878e-10
 60.00854    -73.3 1.002e+04 5.699e-10
 60.02124    -72.7 1.025e+04 6.621e-10
 60.03132    -73.2 1.058e+04 7.699e-10
 60.04887    -72.6 1.073e+04 8.166e-10
 60.06904    -72.1 1.083e+04 8.356e-10
 60.08921    -71.6 1.087e+04 8.372e-10
 60.10117    -71.1 1.090e+04 8.152e-10
 60.10842    -71.6 1.108e+04 8.337e-10
 60.11662    -71.5 1.125e+04 9.071e-10
 60.12954    -71.2 1.126e+04 8.726e-10
 60.14970    -70.8 1.127e+04 8.644e-10
 60.16987    -70.5 1.142e+04 8.687e-10
 60.18111    -70.4 1.168e+04 9.385e-10
 60.19119    -71.2 1.181e+04 9.799e-10
 60.21020    -71.0 1.210e+04 1.167e-09
 60.23036    -70.8 1.248e+04 1.432e-09
 60.25053    -70.7 1.290e+04 1.786e-09
 60.26104    -70.7 1.330e+04 2.224e-09
 60.27112    -71.3 1.326e+04 2.179e-09
 60.29086    -71.1 1.359e+04 2.648e-09
 60.31103    -70.8 1.385e+04 3.108e-09
 60.33089    -70.1 1.402e+04 3.478e-09
 60.34098    -70.2 1.375e+04 2.805e-09
 60.35136    -69.6 1.379e+04 2.858e-09
 60.37152    -68.9 1.376e+04 2.819e-09
 60.39169    -68.1 1.354e+04 2.515e-09
 60.41083    -67.2 1.321e+04 2.060e-09
 60.42091    -68.1 1.271e+04 1.364e-09
 60.43202    -67.6 1.216e+04 1.081e-09
 60.45218    -67.1 1.153e+04 8.612e-10
 60.48078    -66.1 1.119e+04 7.290e-10
 60.50104    -67.5 1.113e+04 7.510e-10
 60.52296    -65.5 1.070e+04 6.026e-10
 60.56329    -63.5 1.054e+04 5.260e-10
 60.60362    -61.2 1.054e+04 4.996e-10
 60.63377    -60.4 1.124e+04 7.178e-10
 60.65063    -59.3 1.142e+04 7.879e-10
 60.66072    -60.7 1.247e+04 1.520e-09
 60.67400    -59.5 1.259e+04 1.661e-09
 60.69180    -58.4 1.271e+04 1.804e-09
 60.70188    -58.1 1.237e+04 1.455e-09
 60.71434    -56.8 1.254e+04 1.603e-09
 60.73057    -55.8 1.276e+04 1.765e-09
 60.74065    -56.8 1.299e+04 1.903e-09
 60.75467    -55.6 1.322e+04 2.078e-09
 60.77483    -54.8 1.355e+04 2.360e-09
 60.79500    -54.0 1.409e+04 2.849e-09
 60.81050    -53.5 1.473e+04 3.432e-09
 60.82059    -55.3 1.452e+04 2.511e-09
 60.83533    -55.3 1.530e+04 2.957e-09
 60.85549    -55.7 1.632e+04 3.568e-09
 60.87566    -56.4 1.751e+04 4.434e-09
 60.89044    -57.4 1.862e+04 5.460e-09
 60.90052    -62.1 1.616e+04 2.643e-09
 60.91599    -63.7 1.606e+04 2.784e-09
 60.93616    -65.4 1.521e+04 2.827e-09
 60.95632    -67.3 1.436e+04 2.708e-09
 60.97037    -69.4 1.382e+04 2.453e-09
 60.98046    -71.5 1.264e+04 1.554e-09
 60.99665    -73.5 1.245e+04 1.453e-09
 61.01682    -75.9 1.236e+04 1.412e-09
 61.03698    -78.9 1.237e+04 1.471e-09
 61.05031    -81.6 1.324e+04 2.137e-09
 61.06039    -79.2 1.250e+04 1.521e-09
 61.07731    -80.6 1.358e+04 2.253e-09
 61.09748    -81.4 1.458e+04 3.359e-09
 61.11765    -81.8 1.529e+04 4.371e-09
 61.13024    -82.0 1.560e+04 4.807e-09
 61.14033    -80.3 1.516e+04 3.854e-09
 61.15798    -80.6 1.542e+04 4.264e-09
 61.17814    -81.0 1.539e+04 4.219e-09
 61.19831    -81.5 1.498e+04 3.735e-09
 61.21018    -81.8 1.441e+04 2.777e-09
 61.22026    -81.0 1.517e+04 4.255e-09
 61.23864    -81.3 1.498e+04 3.754e-09
 61.25880    -81.6 1.474e+04 3.005e-09
 61.27706    -82.1 1.438e+04 2.284e-09
 61.28714    -80.8 1.507e+04 2.920e-09
 61.29011    -81.3 1.447e+04 2.143e-09
 61.30020    -79.8 1.596e+04 5.457e-09
 61.31930    -79.9 1.527e+04 4.206e-09
 61.33947    -80.0 1.431e+04 3.111e-09
 61.35963    -79.9 1.337e+04 2.434e-09
 61.37005    -79.6 1.275e+04 2.098e-09
 61.38013    -77.6 1.322e+04 2.706e-09
 61.39996    -77.4 1.278e+04 2.111e-09
 61.42013    -76.9 1.249e+04 1.885e-09
 61.43990    -76.0 1.244e+04 1.807e-09
 61.44998    -75.0 1.219e+04 1.464e-09
 61.46046    -74.0 1.209e+04 1.348e-09
 61.48062    -73.1 1.195e+04 1.251e-09
 61.50079    -72.5 1.180e+04 1.195e-09
 61.51984    -72.4 1.193e+04 1.189e-09
 61.52992    -71.1 1.140e+04 7.330e-10
 61.54112    -76.9 1.936e+04 6.618e-10
 61.55620    -91.0 3.283e+04 3.428e-09
 61.56475    -95.2 3.065e+04 1.181e-08
 61.56979    -94.9 3.207e+04 7.169e-09
 61.57463    -99.6 2.704e+04 3.284e-08
 61.57968    -98.2 2.774e+04 2.086e-08
 61.58640   -100.8 2.514e+04 6.118e-08
 61.59648   -104.0 2.540e+04 8.768e-08
 61.60472   -110.4 2.611e+04 8.848e-08
 61.60976   -107.9 2.604e+04 8.808e-08
 61.61664   -118.6 2.827e+04 6.043e-08
 61.62673   -136.6 2.787e+04 1.574e-08
 61.63681   -156.0 1.998e+04 4.355e-09
 61.64468   -164.6 1.678e+04 3.052e-09
 61.64972   -165.9 1.757e+04 3.558e-09
 61.65697   -169.7 1.679e+04 3.198e-09
 61.66706   -172.2 1.662e+04 3.142e-09
 61.67966   -175.0 1.615e+04 3.060e-09
 61.68974   -179.4 1.657e+04 3.637e-09
 61.70240   -182.8 1.537e+04 3.598e-09
 61.72261   -185.6 1.422e+04 3.175e-09
 61.74278   -186.6 1.378e+04 2.719e-09
 61.75964   -187.0 1.338e+04 2.313e-09
 61.76973   -188.9 1.335e+04 2.304e-09
 61.78311   -188.6 1.291e+04 1.950e-09
 61.80327   -188.1 1.251e+04 1.676e-09
 61.82344   -187.4 1.217e+04 1.455e-09
 61.83958   -186.5 1.188e+04 1.271e-09
 61.84966   -186.9 1.178e+04 1.211e-09
 61.86232   -185.9 1.158e+04 1.084e-09
 61.87240   -186.7 1.192e+04 1.275e-09
 61.88393   -185.8 1.183e+04 1.221e-09
 61.90410   -185.0 1.177e+04 1.184e-09
 61.91951   -184.2 1.174e+04 1.168e-09
 61.92960   -184.7 1.200e+04 1.296e-09
 61.94443   -183.9 1.203e+04 1.342e-09
 61.96460   -183.0 1.203e+04 1.375e-09
 61.98476   -182.1 1.202e+04 1.384e-09
 61.99945   -181.1 1.187e+04 1.366e-09
 62.00953   -181.2 1.219e+04 1.610e-09
 62.02509   -180.1 1.196e+04 1.465e-09
 62.04526   -178.9 1.171e+04 1.296e-09
 62.06542   -177.7 1.140e+04 1.091e-09
 62.07938   -176.5 1.107e+04 8.733e-10
 62.08947   -176.5 1.125e+04 9.531e-10
 62.10575   -175.3 1.086e+04 7.136e-10
 62.12592   -174.2 1.048e+04 5.233e-10
 62.14608   -173.2 1.016e+04 3.944e-10
 62.15932   -172.4 9.939e+03 3.259e-10
 62.16940   -172.4 9.955e+03 3.298e-10
 62.18642   -171.8 9.806e+03 2.972e-10
 62.21676   -170.9 9.649e+03 2.646e-10
 62.23945   -168.7 9.219e+03 1.999e-10
 62.25961   -168.5 9.222e+03 2.044e-10
 62.29752   -166.0 8.869e+03 1.613e-10
 62.33785   -163.6 8.692e+03 1.394e-10
 62.37818   -161.4 8.620e+03 1.295e-10
 62.39932   -159.4 8.583e+03 1.249e-10
 62.41948   -159.0 8.578e+03 1.264e-10
 62.44777   -157.0 8.539e+03 1.210e-10
 62.46794   -157.3 8.508e+03 1.216e-10
 62.49918   -155.4 8.483e+03 1.153e-10
 62.53902   -153.5 8.433e+03 1.066e-10
 62.55919   -153.2 8.426e+03 1.098e-10
 62.57984   -151.3 8.365e+03 9.912e-11
 62.62017   -149.4 8.315e+03 8.966e-11
 62.66050   -147.4 8.297e+03 8.300e-11
 62.69889   -145.4 8.308e+03 8.003e-11
 62.71906   -145.2 8.356e+03 8.911e-11
 62.74116   -143.2 8.359e+03 8.876e-11
 62.78149   -141.2 8.406e+03 8.884e-11
 62.82182   -139.2 8.478e+03 9.025e-11
 62.85876   -137.3 8.547e+03 9.250e-11
 62.87893   -137.1 8.615e+03 1.065e-10
 62.90249   -135.2 8.694e+03 1.096e-10
 62.94282   -133.4 8.796e+03 1.164e-10
 62.98315   -131.7 8.919e+03 1.303e-10
 63.01863   -130.0 9.056e+03 1.542e-10
 63.03880   -130.0 9.194e+03 1.761e-10
 63.06381   -128.3 9.341e+03 2.088e-10
 63.10414   -126.7 9.477e+03 2.433e-10
 63.14447   -125.2 9.580e+03 2.739e-10
 63.17850   -123.6 9.639e+03 2.933e-10
 63.19867   -123.8 9.583e+03 2.703e-10
 63.22513   -122.3 9.587e+03 2.728e-10
 63.26546   -120.8 9.591e+03 2.687e-10
 63.30580   -119.2 9.571e+03 2.538e-10
 63.33837   -117.8 9.567e+03 2.362e-10
 63.35854   -118.2 9.536e+03 1.953e-10
 63.38646   -116.9 9.560e+03 1.984e-10
 63.42679   -115.7 9.589e+03 2.054e-10
 63.46712   -114.5 9.609e+03 2.086e-10
 63.49824   -113.3 9.612e+03 2.095e-10
 63.51841   -113.7 9.661e+03 2.178e-10
 63.54778   -112.4 9.665e+03 2.178e-10
 63.58811   -111.0 9.686e+03 2.112e-10
 63.61829   -109.7 9.711e+03 2.032e-10
 63.63846   -109.8 9.753e+03 2.159e-10
 63.65811   -108.7 9.779e+03 2.134e-10
 63.67828   -109.8 1.026e+04 3.124e-10
 63.70911   -109.3 1.062e+04 4.171e-10
 63.74944   -108.8 1.098e+04 5.871e-10
 63.78977   -108.5 1.127e+04 7.724e-10
 63.81798   -108.3 1.138e+04 8.666e-10
 63.83815   -110.2 1.169e+04 1.039e-09
 63.87043   -109.6 1.127e+04 7.613e-10
 63.91076   -108.8 1.079e+04 4.583e-10
 63.95109   -107.9 1.035e+04 2.509e-10
 63.97785   -107.1 1.003e+04 1.476e-10
 63.99802   -108.4 9.888e+03 1.218e-10
 64.03175   -107.0 9.847e+03 1.157e-10
 64.07208   -105.4 9.836e+03 1.148e-10
 64.11242   -103.8 9.893e+03 1.166e-10
 64.13772   -102.4 1.005e+04 1.347e-10
 64.15789   -102.8 1.012e+04 1.459e-10
 64.19308   -101.2 1.022e+04 1.733e-10
 64.23341    -99.7 1.033e+04 2.030e-10
 64.27374    -98.2 1.042e+04 2.239e-10
 64.29760    -96.8 1.045e+04 2.295e-10
 64.31776    -96.8 1.045e+04 1.746e-10
 64.35440    -95.3 1.045e+04 1.589e-10
 64.39473    -93.7 1.036e+04 1.400e-10
 64.43506    -92.0 1.024e+04 1.269e-10
 64.45747    -90.3 1.018e+04 1.232e-10
 64.47763    -90.4 1.018e+04 1.318e-10
 64.51573    -88.7 1.016e+04 1.389e-10
 64.55606    -86.9 1.016e+04 1.508e-10
 64.59639    -85.0 1.019e+04 1.669e-10
 64.61734    -83.2 1.021e+04 1.849e-10
 64.63750    -83.1 1.039e+04 2.571e-10
 64.67705    -81.1 1.038e+04 2.608e-10
 64.71738    -79.2 1.041e+04 2.439e-10
 64.75704    -77.4 1.044e+04 2.370e-10
 64.77721    -77.2 1.047e+04 2.341e-10
 64.78881    -75.5 1.049e+04 2.324e-10
 64.80898    -75.7 1.034e+04 2.085e-10
 64.83837    -74.4 1.071e+04 2.340e-10
 64.87870    -73.3 1.112e+04 3.575e-10
 64.91691    -72.0 1.152e+04 5.644e-10
 64.93708    -71.7 1.138e+04 4.822e-10
 64.95937    -70.4 1.163e+04 6.567e-10
 64.99970    -69.3 1.180e+04 7.969e-10
 65.04003    -68.1 1.182e+04 8.624e-10
 65.07678    -66.9 1.182e+04 8.762e-10
 65.09695    -66.1 1.142e+04 6.620e-10
 65.12069    -64.7 1.137e+04 6.527e-10
 65.16102    -63.2 1.131e+04 6.337e-10
 65.20135    -61.4 1.126e+04 6.114e-10
 65.23665    -59.6 1.122e+04 5.918e-10
 65.25682    -58.9 1.104e+04 4.707e-10
 65.28201    -57.2 1.107e+04 5.016e-10
 65.31216    -55.8 1.113e+04 5.489e-10
 65.32647    -54.9 1.112e+04 5.631e-10
 65.33656    -54.5 1.111e+04 5.539e-10
 65.35240    -53.4 1.113e+04 5.924e-10
 65.37256    -52.3 1.117e+04 6.442e-10
 65.38396    -51.1 1.124e+04 7.119e-10
 65.39404    -51.2 1.121e+04 6.969e-10
 65.40641    -50.0 1.133e+04 7.800e-10
 65.41649    -49.5 1.133e+04 7.748e-10
 65.43306    -48.4 1.147e+04 8.666e-10
 65.45323    -47.2 1.162e+04 9.541e-10
 65.47339    -46.0 1.176e+04 1.020e-09
 65.48634    -45.0 1.182e+04 1.044e-09
 65.49643    -44.6 1.179e+04 1.022e-09
 65.51372    -43.6 1.180e+04 1.026e-09
 65.53389    -42.5 1.174e+04 9.825e-10
 65.55405    -41.3 1.165e+04 8.926e-10
 65.56628    -40.2 1.154e+04 7.958e-10
 65.57636    -40.0 1.153e+04 7.822e-10
 65.59438    -38.8 1.141e+04 7.002e-10
 65.61455    -37.5 1.128e+04 6.293e-10
 65.63471    -36.3 1.115e+04 5.649e-10
 65.64621    -35.0 1.109e+04 4.960e-10
 65.65630    -35.0 1.116e+04 5.410e-10
 65.67505    -33.8 1.111e+04 5.012e-10
 65.69521    -32.7 1.107e+04 4.669e-10
 65.71538    -31.5 1.106e+04 4.403e-10
 65.72615    -30.3 1.105e+04 4.312e-10
 65.73623    -30.0 1.119e+04 5.030e-10
 65.75571    -28.7 1.133e+04 5.152e-10
 65.77587    -27.6 1.147e+04 5.411e-10
 65.80622    -26.4 1.161e+04 5.891e-10
 65.84665    -23.9 1.171e+04 6.458e-10
 65.87613    -21.6 1.186e+04 7.202e-10
 65.89630    -21.8 1.223e+04 9.059e-10
 65.92731    -19.5 1.226e+04 8.820e-10
 65.95933    -17.1 1.218e+04 7.772e-10
 65.97950    -17.5 1.194e+04 6.772e-10
 66.00797    -15.2 1.171e+04 5.665e-10
 66.03600    -12.8 1.160e+04 4.772e-10
 66.05617    -13.4 1.135e+04 4.559e-10
 66.08863    -11.1 1.122e+04 3.970e-10
 66.12896     -8.5 1.118e+04 3.815e-10
 66.16930     -5.9 1.124e+04 3.848e-10
 66.19587     -3.5 1.147e+04 4.483e-10
 66.21604     -4.6 1.141e+04 5.812e-10
 66.24996     -2.2 1.183e+04 8.094e-10
 66.29029      0.2 1.236e+04 1.065e-09
 66.32044      0.6 1.251e+04 1.208e-09
 66.34051      1.8 1.249e+04 1.389e-09
 66.35555      3.1 1.254e+04 1.508e-09
 66.36563      2.8 1.301e+04 2.022e-09
 66.38084      3.9 1.296e+04 1.867e-09
 66.40100      4.7 1.281e+04 1.617e-09
 66.42117      5.3 1.268e+04 1.346e-09
 66.43548      5.3 1.267e+04 1.108e-09
 66.44556      4.0 1.296e+04 1.299e-09
 66.46150      4.0 1.312e+04 1.247e-09
 66.49185      3.4 1.299e+04 1.180e-09
 66.51551      3.2 1.290e+04 1.257e-09
 66.52550      3.0 1.287e+04 1.524e-09
 66.54216      3.2 1.308e+04 1.834e-09
 66.55448      3.6 1.343e+04 2.188e-09
 66.56456      2.6 1.384e+04 2.470e-09
 66.58249      2.8 1.417e+04 2.707e-09
 66.59535      2.9 1.442e+04 2.785e-09
 66.60543      2.5 1.434e+04 2.661e-09
 66.62282      2.2 1.424e+04 2.587e-09
 66.64299      1.9 1.398e+04 2.480e-09
 66.66315      1.4 1.386e+04 2.380e-09
 66.67529      0.6 1.398e+04 2.364e-09
 66.68537      1.2 1.349e+04 2.058e-09
 66.70349      0.5 1.363e+04 1.993e-09
 66.72365     -0.5 1.355e+04 1.968e-09
 66.74382     -0.9 1.340e+04 1.972e-09
 66.75522     -0.9 1.325e+04 1.926e-09
 66.76530     -0.6 1.277e+04 1.242e-09
 66.78415     -1.0 1.254e+04 1.165e-09
 66.80431     -1.5 1.241e+04 1.123e-09
 66.82448     -2.2 1.229e+04 1.092e-09
 66.83525     -3.1 1.240e+04 1.205e-09
 66.85552     -1.7 1.216e+04 1.079e-09
 66.89525     -2.1 1.225e+04 1.298e-09
 66.93558     -1.1 1.239e+04 1.469e-09
 66.97506      0.1 1.196e+04 1.138e-09
 66.99522      1.5 1.225e+04 1.477e-09
 67.01625      2.8 1.106e+04 6.460e-10
 67.05658      3.4 1.004e+04 2.566e-10
 67.09691      4.1 9.500e+03 1.279e-10
 67.12985      5.4 9.387e+03 9.416e-11
 67.14771      4.9 9.265e+03 8.517e-11
 67.15509      6.6 9.124e+03 8.073e-11
 67.17757      7.8 9.002e+03 6.389e-11
 67.21790      9.2 9.109e+03 6.219e-11
 67.25823     10.0 9.602e+03 8.523e-11
 67.29480     11.3 9.772e+03 1.563e-10
 67.31496     13.2 9.580e+03 1.103e-10
 67.33889     14.6 9.853e+03 1.951e-10
 67.37922     16.2 1.005e+04 2.916e-10
 67.41956     18.0 1.021e+04 3.581e-10
 67.45467     19.8 1.028e+04 3.706e-10
 67.47483     21.4 1.035e+04 3.791e-10
 67.50022     22.9 1.042e+04 3.390e-10
 67.54055     24.1 1.046e+04 2.703e-10
 67.58088     25.4 1.047e+04 2.397e-10
 67.61454     27.2 1.055e+04 2.445e-10
 67.63470     28.6 1.049e+04 2.619e-10
 67.66154     30.3 1.061e+04 2.569e-10
 67.70187     31.8 1.082e+04 2.788e-10
 67.74220     32.7 1.107e+04 3.637e-10
 67.77441     34.0 1.119e+04 5.146e-10
 67.79457     35.4 1.113e+04 4.317e-10
 67.82287     37.1 1.124e+04 5.842e-10
 67.86320     38.8 1.125e+04 5.841e-10
 67.90353     40.8 1.108e+04 5.071e-10
 67.93428     42.7 1.082e+04 3.249e-10
 67.95444     43.5 1.101e+04 4.432e-10
 67.98419     45.0 1.096e+04 2.944e-10
 68.02452     45.9 1.100e+04 2.007e-10
 68.06485     47.0 1.094e+04 2.044e-10
 68.09415     48.0 1.094e+04 2.633e-10
 68.11431     49.3 1.108e+04 3.344e-10
 68.14551     50.5 1.119e+04 4.716e-10
 68.18584     52.2 1.142e+04 6.791e-10
 68.22618     54.3 1.179e+04 9.066e-10
 68.25402     56.1 1.207e+04 1.084e-09
 68.27418     56.9 1.221e+04 1.139e-09
 68.30037     58.4 1.242e+04 1.348e-09
 68.32054     57.8 1.208e+04 9.922e-10
 68.34717     59.3 1.198e+04 8.384e-10
 68.38750     60.7 1.187e+04 6.817e-10
 68.41389     62.0 1.179e+04 5.215e-10
 68.43405     63.1 1.190e+04 6.383e-10
 68.46816     64.0 1.181e+04 5.324e-10
 68.50849     65.1 1.166e+04 5.183e-10
 68.54882     66.2 1.164e+04 5.572e-10
 68.57376     67.4 1.159e+04 6.393e-10
 68.59392     68.2 1.194e+04 8.064e-10
 68.62948     68.9 1.195e+04 9.888e-10
 68.66982     69.5 1.219e+04 1.322e-09
 68.71015     70.1 1.238e+04 1.565e-09
 68.73353     70.1 1.246e+04 1.666e-09
 68.74352     70.3 1.239e+04 1.605e-09
 68.76037     70.5 1.229e+04 1.561e-09
 68.78053     71.3 1.192e+04 1.287e-09
 68.80070     71.3 1.173e+04 1.120e-09
 68.83104     72.2 1.125e+04 6.450e-10
 68.87147     72.0 1.093e+04 4.550e-10
 68.89350     72.4 1.060e+04 4.013e-10
 68.91366     73.8 1.026e+04 2.691e-10
 68.95213     74.9 1.016e+04 2.928e-10
 68.99246     76.3 1.022e+04 3.355e-10
 69.03279     77.8 1.037e+04 3.830e-10
 69.05337     79.3 1.048e+04 4.194e-10
 69.07353     81.4 1.047e+04 4.291e-10
 69.11346     82.9 1.055e+04 4.636e-10
 69.15379     84.8 1.046e+04 4.166e-10
 69.19307     86.6 1.026e+04 3.282e-10
 69.21324     88.4 1.054e+04 4.399e-10
 69.23445     90.2 1.030e+04 3.279e-10
 69.27478     91.5 9.984e+03 2.371e-10
 69.31511     92.9 9.686e+03 1.844e-10
 69.35294     94.6 9.498e+03 1.610e-10
 69.37311     96.2 9.727e+03 1.849e-10
 69.39577     98.0 9.640e+03 1.689e-10
 69.43610    100.1 9.665e+03 1.690e-10
 69.47089    102.2 9.740e+03 1.741e-10
 69.49106    102.4 1.007e+04 2.636e-10
 69.51281    104.5 1.027e+04 3.150e-10
 69.53298    105.5 1.050e+04 3.815e-10
 69.55710    107.3 1.069e+04 4.384e-10
 69.58725    108.5 1.064e+04 4.343e-10
 69.60264    108.9 1.063e+04 4.359e-10
 69.61272    109.4 1.064e+04 4.444e-10
 69.62748    110.5 1.061e+04 4.573e-10
 69.64765    111.6 1.060e+04 4.732e-10
 69.66781    112.8 1.058e+04 4.868e-10
 69.68257    113.9 1.057e+04 4.978e-10
 69.69265    114.5 1.073e+04 5.631e-10
 69.70814    115.5 1.076e+04 5.808e-10
 69.72831    116.6 1.084e+04 6.040e-10
 69.74847    117.5 1.096e+04 6.320e-10
 69.76251    118.3 1.109e+04 6.618e-10
 69.77259    118.4 1.134e+04 7.690e-10
 69.78881    119.1 1.147e+04 8.200e-10
 69.80897    119.8 1.162e+04 8.778e-10
 69.82914    120.4 1.177e+04 9.429e-10
 69.84244    120.9 1.195e+04 1.020e-09
 69.85253    120.9 1.233e+04 1.326e-09
 69.86947    121.2 1.252e+04 1.450e-09
 69.88963    121.4 1.270e+04 1.604e-09
 69.90980    121.4 1.287e+04 1.822e-09
 69.92238    121.4 1.306e+04 2.143e-09
 69.93246    121.2 1.360e+04 2.826e-09
 69.95013    121.2 1.389e+04 3.435e-09
 69.97029    121.2 1.426e+04 4.183e-09
 69.99046    121.3 1.467e+04 4.979e-09
 70.00231    121.3 1.512e+04 5.460e-09
 70.01240    120.9 1.600e+04 8.009e-09
 70.03079    120.8 1.615e+04 7.935e-09
 70.05096    120.4 1.624e+04 7.370e-09
 70.06604    119.6 1.623e+04 6.074e-09
 70.07612    119.0 1.575e+04 4.296e-09
 70.08225    117.9 1.546e+04 3.561e-09
 70.09233    117.8 1.572e+04 4.119e-09
 70.11145    116.7 1.529e+04 3.308e-09
 70.13162    115.8 1.483e+04 2.683e-09
 70.15178    115.2 1.434e+04 2.099e-09
 70.16218    114.7 1.389e+04 1.661e-09
 70.17227    114.8 1.400e+04 1.742e-09
 70.20230    114.7 1.351e+04 1.426e-09
 70.24272    115.0 1.279e+04 1.173e-09
 70.28305    116.0 1.266e+04 1.138e-09
 70.31217    117.7 1.281e+04 1.200e-09
 70.33233    117.9 1.309e+04 1.611e-09
 70.36372    119.1 1.335e+04 1.768e-09
 70.39200    119.7 1.371e+04 1.862e-09
 70.40199    119.5 1.365e+04 2.028e-09
 70.41394    119.9 1.386e+04 2.139e-09
 70.43410    120.5 1.393e+04 2.182e-09
 70.45427    120.8 1.389e+04 2.109e-09
 70.47194    121.2 1.327e+04 1.379e-09
 70.49220    120.8 1.324e+04 1.433e-09
 70.51486    121.2 1.296e+04 1.224e-09
 70.53493    121.7 1.270e+04 1.019e-09
 70.55178    122.4 1.241e+04 7.900e-10
 70.56186    122.2 1.238e+04 8.205e-10
 70.57526    122.9 1.212e+04 6.490e-10
 70.59542    123.6 1.193e+04 5.410e-10
 70.61559    124.0 1.180e+04 4.828e-10
 70.63171    124.8 1.174e+04 4.539e-10
 70.64179    124.8 1.172e+04 4.550e-10
 70.65130    125.3 1.169e+04 4.298e-10
 70.66138    125.2 1.174e+04 4.684e-10
 70.67609    126.0 1.178e+04 4.412e-10
 70.69625    126.2 1.178e+04 4.377e-10
 70.72660    127.6 1.164e+04 3.735e-10
 70.76703    128.8 1.153e+04 2.915e-10
 70.79178    129.8 1.145e+04 2.241e-10
 70.81194    130.5 1.139e+04 2.244e-10
 70.84769    131.6 1.139e+04 1.983e-10
 70.88802    133.0 1.142e+04 1.997e-10
 70.92835    134.4 1.158e+04 2.196e-10
 70.95165    135.7 1.175e+04 2.573e-10
 70.97181    136.3 1.163e+04 2.725e-10
 70.99883    136.9 1.171e+04 2.932e-10
 71.01890    137.0 1.194e+04 3.353e-10
 71.03139    136.5 1.274e+04 5.069e-10
 71.04147    137.1 1.267e+04 5.069e-10
 71.05923    135.4 1.462e+04 1.249e-09
 71.07940    132.7 1.660e+04 2.879e-09
 71.09447    129.6 1.819e+04 4.736e-09
 71.10451    127.7 1.871e+04 8.934e-09
 71.11122    127.8 1.892e+04 1.721e-08
 71.11626    127.5 1.949e+04 1.798e-08
 71.12467    128.7 1.967e+04 2.941e-08
 71.13475    129.8 2.008e+04 3.537e-08
 71.14484    129.5 2.015e+04 3.473e-08
 71.16001    128.9 1.976e+04 2.695e-08
 71.18022    127.7 1.858e+04 1.293e-08
 71.19126    124.8 1.693e+04 4.584e-09
 71.20134    123.9 1.645e+04 4.651e-09
 71.22055    119.3 1.420e+04 1.802e-09
 71.23656    116.4 1.324e+04 1.447e-09
 71.24664    116.7 1.382e+04 1.551e-09
 71.26089    115.8 1.371e+04 1.530e-09
 71.27119    115.5 1.375e+04 1.568e-09
 71.28127    115.5 1.380e+04 1.541e-09
 71.30122    115.2 1.412e+04 1.687e-09
 71.32138    114.8 1.450e+04 2.022e-09
 71.34104    114.7 1.481e+04 2.497e-09
 71.35113    114.4 1.501e+04 2.414e-09
 71.36171    114.1 1.514e+04 2.787e-09
 71.38188    113.7 1.510e+04 2.811e-09
 71.40204    113.3 1.491e+04 2.682e-09
 71.42098    112.9 1.450e+04 2.320e-09
 71.43106    112.0 1.453e+04 2.324e-09
 71.44238    111.5 1.399e+04 1.937e-09
 71.46254    111.1 1.355e+04 1.675e-09
 71.49289    110.1 1.311e+04 1.356e-09
 71.53332    109.7 1.277e+04 1.231e-09
 71.57096    109.7 1.244e+04 1.085e-09
 71.59113    109.0 1.202e+04 8.154e-10
 71.61398    109.7 1.163e+04 5.926e-10
 71.65431    110.4 1.126e+04 3.918e-10
 71.69464    110.8 1.096e+04 3.232e-10
 71.73083    111.2 1.092e+04 3.303e-10
 71.75100    111.1 1.051e+04 1.867e-10
 71.77530    111.7 1.051e+04 2.081e-10
 71.81193    112.6 1.045e+04 2.348e-10
 71.83209    113.1 1.026e+04 1.624e-10
 71.85596    114.3 1.025e+04 2.063e-10
 71.89070    115.9 1.023e+04 2.338e-10
 71.91087    116.0 9.952e+03 1.813e-10
 71.93663    117.7 9.999e+03 2.186e-10
 71.97696    119.4 1.007e+04 2.361e-10
 72.01729    121.2 1.011e+04 2.285e-10
 72.05057    122.9 1.014e+04 2.152e-10
 72.07074    123.5 1.013e+04 2.687e-10
 72.09795    125.2 1.016e+04 2.584e-10
 72.13828    126.9 1.021e+04 2.471e-10
 72.17861    128.6 1.026e+04 2.341e-10
 72.21044    130.2 1.030e+04 2.160e-10
 72.23061    130.7 1.035e+04 2.641e-10
 72.25927    132.3 1.035e+04 2.294e-10
 72.29960    133.8 1.039e+04 2.055e-10
 72.33993    135.4 1.041e+04 2.055e-10
 72.37031    137.0 1.049e+04 2.159e-10
 72.39048    137.5 1.062e+04 2.470e-10
 72.42060    138.8 1.082e+04 2.862e-10
 72.46093    139.6 1.091e+04 3.403e-10
 72.49108    140.3 1.106e+04 4.242e-10
 72.51115    141.2 1.133e+04 5.541e-10
 72.52999    142.0 1.171e+04 7.333e-10
 72.54007    142.1 1.201e+04 8.782e-10
 72.55148    142.4 1.248e+04 1.153e-09
 72.57164    142.4 1.296e+04 1.496e-09
 72.59181    142.1 1.347e+04 1.920e-09
 72.60992    141.6 1.399e+04 2.417e-09
 72.62001    141.1 1.456e+04 3.224e-09
 72.63214    140.5 1.504e+04 3.665e-09
 72.65230    139.8 1.528e+04 3.710e-09
 72.67247    139.1 1.531e+04 3.494e-09
 72.68986    138.3 1.517e+04 3.069e-09
 72.69994    137.2 1.507e+04 2.822e-09
 72.71280    136.2 1.456e+04 2.157e-09
 72.73297    135.4 1.388e+04 1.608e-09
 72.75313    134.9 1.331e+04 1.274e-09
 72.78348    134.0 1.296e+04 9.536e-10
 72.82391    133.0 1.218e+04 6.018e-10
 72.84992    132.6 1.201e+04 5.247e-10
 72.87009    131.1 1.196e+04 5.232e-10
 72.90457    130.5 1.214e+04 5.528e-10
 72.94490    129.5 1.290e+04 7.317e-10
 72.97505    128.1 1.341e+04 9.322e-10
 72.99234    127.3 1.391e+04 1.241e-09
 73.00252    128.2 1.353e+04 7.922e-10
 73.00970    127.0 1.418e+04 1.222e-09
 73.02986    127.1 1.299e+04 4.880e-10
 73.05571    125.8 1.358e+04 7.806e-10
 73.07578    124.8 1.375e+04 1.060e-09
 73.08953    123.6 1.373e+04 1.375e-09
 73.09962    123.4 1.317e+04 6.766e-10
 73.11611    122.4 1.316e+04 1.010e-09
 73.13628    121.8 1.318e+04 1.386e-09
 73.15644    121.6 1.320e+04 1.621e-09
 73.16947    121.5 1.314e+04 1.589e-09
 73.17955    121.7 1.285e+04 1.322e-09
 73.19677    121.6 1.274e+04 1.244e-09
 73.21694    121.6 1.245e+04 9.637e-10
 73.23710    121.3 1.218e+04 6.232e-10
 73.24940    120.2 1.184e+04 3.577e-10
 73.25949    121.0 1.190e+04 3.965e-10
 73.27743    120.1 1.165e+04 2.949e-10
 73.30778    119.3 1.101e+04 2.313e-10
 73.32953    118.5 1.086e+04 2.305e-10
 73.34970    119.5 1.087e+04 2.331e-10
 73.38854    118.6 1.092e+04 2.588e-10
 73.42887    117.9 1.104e+04 3.532e-10
 73.45902    117.5 1.111e+04 5.259e-10
 73.47909    117.6 1.113e+04 6.720e-10
 73.49926    117.8 1.112e+04 6.606e-10
 73.51942    117.6 1.113e+04 6.481e-10
 73.54977    117.8 1.097e+04 5.413e-10
 73.59020    117.5 1.052e+04 3.439e-10
 73.62911    116.8 1.000e+04 2.028e-10
 73.64927    116.9 1.003e+04 2.049e-10
 73.67086    116.4 9.740e+03 1.861e-10
 73.71119    116.3 9.719e+03 1.922e-10
 73.75152    116.3 9.747e+03 2.228e-10
 73.78898    116.2 9.877e+03 2.735e-10
 73.80914    116.3 1.002e+04 3.339e-10
 73.83218    116.0 1.013e+04 3.897e-10
 73.87251    115.4 1.020e+04 4.381e-10
 73.91284    114.7 1.031e+04 5.041e-10
 73.94885    114.0 1.047e+04 5.830e-10
 73.96901    114.1 1.057e+04 6.316e-10
 73.99350    113.4 1.062e+04 6.524e-10
 74.03384    112.9 1.057e+04 6.269e-10
 74.07417    112.6 1.051e+04 6.128e-10
 74.10872    112.1 1.055e+04 6.402e-10
 74.12888    112.1 1.076e+04 7.823e-10
 74.15297    111.8 1.103e+04 9.352e-10
 74.17313    113.9 1.092e+04 8.418e-10
 74.19516    113.7 1.131e+04 1.029e-09
 74.22531    112.9 1.178e+04 1.331e-09
 74.24538    112.2 1.214e+04 1.617e-09
 74.26554    111.6 1.244e+04 1.874e-09
 74.27848    111.1 1.271e+04 2.084e-09
 74.28856    111.4 1.248e+04 1.909e-09
 74.30587    110.8 1.268e+04 1.997e-09
 74.32604    110.0 1.276e+04 2.005e-09
 74.34621    109.1 1.273e+04 1.973e-09
 74.35841    108.3 1.258e+04 1.839e-09
 74.36849    108.7 1.241e+04 1.737e-09
 74.38654    108.0 1.221e+04 1.574e-09
 74.40670    107.0 1.209e+04 1.372e-09
 74.42687    105.6 1.222e+04 1.370e-09
 74.43835    103.5 1.265e+04 1.467e-09
 74.44843    104.6 1.240e+04 1.350e-09
 74.46720    102.0 1.305e+04 1.627e-09
 74.48736     99.6 1.345e+04 2.147e-09
 74.50753     98.2 1.340e+04 2.555e-09
 74.51828     98.1 1.320e+04 2.531e-09
 74.52836     98.1 1.329e+04 2.698e-09
 74.54786     98.4 1.301e+04 2.500e-09
 74.56803     98.8 1.253e+04 1.923e-09
 74.58813     98.8 1.202e+04 1.252e-09
 74.60830     98.8 1.180e+04 9.285e-10
 74.62852     97.1 1.113e+04 5.188e-10
 74.64869     94.9 1.016e+04 3.441e-10
 74.66807     94.3 9.677e+03 3.051e-10
 74.67815     94.7 9.790e+03 3.376e-10
 74.68902     94.7 9.699e+03 3.280e-10
 74.71936     95.0 9.740e+03 3.252e-10
 74.74820     95.0 9.838e+03 3.553e-10
 74.75818     96.0 9.941e+03 3.997e-10
 74.76968     96.1 1.001e+04 4.234e-10
 74.78985     96.3 1.020e+04 4.791e-10
 74.81001     96.3 1.028e+04 5.061e-10
 74.82794     96.2 1.063e+04 6.149e-10
 74.83802     96.8 1.067e+04 6.432e-10
 74.85034     96.8 1.076e+04 6.805e-10
 74.88069     96.1 1.132e+04 8.733e-10
 74.90797     95.6 1.207e+04 1.176e-09
 74.91796     96.4 1.205e+04 1.171e-09
 74.93100     95.1 1.292e+04 1.664e-09
 74.95117     94.1 1.363e+04 2.380e-09
 74.97134     93.6 1.389e+04 3.072e-09
 74.98781     93.1 1.394e+04 3.172e-09
 74.99789     93.6 1.439e+04 3.747e-09
 75.01167     93.1 1.436e+04 3.613e-09
 75.03183     92.4 1.423e+04 3.185e-09
 75.05200     91.4 1.383e+04 2.439e-09
 75.06774     90.2 1.319e+04 1.652e-09
 75.07783     91.6 1.383e+04 2.225e-09
 75.09233     89.9 1.308e+04 1.368e-09
 75.11249     87.2 1.221e+04 8.287e-10
 75.13266     84.3 1.128e+04 6.230e-10
 75.14768     82.2 1.082e+04 6.057e-10
 75.15776     83.5 1.101e+04 6.209e-10
 75.17299     81.9 1.089e+04 6.460e-10
 75.19316     80.7 1.107e+04 7.730e-10
 75.21332     74.9 1.475e+04 1.559e-09
 75.22757     65.5 1.900e+04 5.444e-09
 75.23256     66.6 1.859e+04 5.194e-09
 75.23843     63.9 1.974e+04 7.841e-09
 75.24851     61.8 1.934e+04 1.539e-08
 75.25860     61.5 1.945e+04 1.652e-08
 75.26748     58.1 2.084e+04 2.146e-08
 75.27253     58.8 2.061e+04 1.947e-08
 75.27876     54.6 2.231e+04 2.134e-08
 75.28884     50.4 2.504e+04 2.074e-08
 75.29893     44.4 2.554e+04 2.085e-08
 75.30745     39.8 2.298e+04 1.904e-08
 75.31249     40.5 2.339e+04 1.759e-08
 75.31909     35.3 2.175e+04 1.620e-08
 75.33333     29.5 1.875e+04 1.469e-08
 75.34346     28.9 1.934e+04 1.532e-08
 75.35448     26.2 1.802e+04 1.239e-08
 75.37465     24.1 1.737e+04 7.295e-09
 75.38748     19.1 1.595e+04 3.040e-09
 75.39757     20.5 1.646e+04 4.028e-09
 75.41498     13.0 1.326e+04 1.475e-09
 75.43514      7.8 1.123e+04 9.571e-10
 75.45531      6.1 1.102e+04 9.016e-10
 75.46742      4.5 1.114e+04 9.278e-10
 75.47750      4.7 1.112e+04 9.080e-10
 75.49564      3.0 1.125e+04 9.393e-10
 75.51580      1.5 1.127e+04 9.469e-10
 75.53597      0.1 1.112e+04 8.757e-10
 75.54736     -1.2 1.080e+04 7.150e-10
 75.55744     -1.2 1.078e+04 6.926e-10
 75.57630     -2.7 1.033e+04 5.151e-10
 75.59647     -4.6 9.786e+03 3.755e-10
 75.61663     -6.2 9.334e+03 2.994e-10
 75.64698     -7.2 9.128e+03 2.676e-10
 75.68726     -8.5 8.874e+03 2.417e-10
 75.72759     -8.8 8.719e+03 2.266e-10
 75.76807     -9.3 8.534e+03 2.024e-10
 75.80840     -9.6 8.308e+03 1.669e-10
 75.84713     -9.9 8.057e+03 1.339e-10
 75.86729     -9.5 8.053e+03 1.339e-10
 75.88906     -9.7 7.910e+03 1.205e-10
 75.92939     -9.7 7.875e+03 1.181e-10
 75.96972     -9.3 7.879e+03 1.260e-10
 76.00700     -8.8 7.995e+03 1.493e-10
 76.02716     -8.7 8.124e+03 1.707e-10
 76.05038     -8.0 8.235e+03 1.944e-10
 76.09072     -7.3 8.308e+03 2.082e-10
 76.13105     -6.7 8.411e+03 2.185e-10
 76.16687     -6.6 8.637e+03 2.344e-10
 76.18703     -6.5 8.561e+03 2.231e-10
 76.21171     -7.2 9.063e+03 2.432e-10
 76.25204     -9.4 1.085e+04 4.440e-10
 76.29237    -11.9 1.219e+04 1.082e-09
 76.32252    -12.1 1.237e+04 1.352e-09
 76.33662    -12.5 1.272e+04 1.889e-09
 76.34680    -12.4 1.200e+04 1.314e-09
 76.37303    -12.9 1.256e+04 1.869e-09
 76.41336    -13.8 1.262e+04 1.843e-09
 76.45369    -15.8 1.199e+04 1.207e-09
 76.48385    -16.9 1.111e+04 8.153e-10
 76.49649    -18.8 1.050e+04 6.550e-10
 76.50656    -17.8 1.041e+04 6.096e-10
 76.52406    -18.6 1.015e+04 5.472e-10
 76.54424    -19.5 1.004e+04 5.198e-10
 76.56441    -20.3 1.001e+04 5.094e-10
 76.57643    -21.0 9.982e+03 5.081e-10
 76.58651    -20.2 9.993e+03 5.134e-10
 76.60474    -20.8 1.001e+04 5.357e-10
 76.62491    -21.1 9.988e+03 5.466e-10
 76.64507    -21.2 9.950e+03 5.477e-10
 76.65636    -21.2 9.843e+03 5.304e-10
 76.66645    -20.6 1.002e+04 5.928e-10
 76.68540    -20.5 9.864e+03 5.377e-10
 76.70557    -20.4 9.680e+03 4.435e-10
 76.72573    -20.4 9.539e+03 3.605e-10
 76.73630    -20.6 9.491e+03 3.216e-10
 76.74638    -20.5 9.510e+03 3.525e-10
 76.76606    -20.6 9.520e+03 3.209e-10
 76.78623    -20.7 9.549e+03 3.114e-10
 76.80625    -20.7 9.584e+03 3.052e-10
 76.81633    -20.8 9.635e+03 3.373e-10
 76.82656    -20.8 9.669e+03 3.396e-10
 76.84673    -20.7 9.733e+03 3.548e-10
 76.86689    -20.6 9.770e+03 3.634e-10
 76.88609    -20.4 9.823e+03 3.909e-10
 76.89617    -20.9 9.834e+03 4.241e-10
 76.90722    -20.9 9.867e+03 4.404e-10
 76.92739    -20.9 9.860e+03 4.670e-10
 76.94755    -20.8 1.001e+04 4.707e-10
 76.96602    -20.9 1.026e+04 4.805e-10
 76.97610    -21.2 1.034e+04 4.787e-10
 76.98788    -21.8 1.088e+04 5.181e-10
 77.00805    -23.0 1.138e+04 6.287e-10
 77.02822    -24.0 1.167e+04 8.447e-10
 77.04596    -24.5 1.186e+04 1.158e-09
 77.05604    -25.2 1.221e+04 1.480e-09
 77.06855    -24.9 1.247e+04 1.866e-09
 77.08871    -24.4 1.271e+04 2.156e-09
 77.09924    -23.8 1.275e+04 2.247e-09
 77.10932    -22.9 1.297e+04 2.322e-09
 77.12589    -22.4 1.300e+04 2.372e-09
 77.13597    -22.5 1.340e+04 2.810e-09
 77.14921    -22.1 1.295e+04 2.248e-09
 77.16937    -22.2 1.228e+04 1.501e-09
 77.18954    -23.2 1.152e+04 1.025e-09
 77.20583    -24.2 1.079e+04 7.452e-10
 77.21591    -24.8 1.068e+04 7.169e-10
 77.22987    -25.2 1.022e+04 5.664e-10
 77.25004    -25.4 9.973e+03 4.698e-10
 77.27020    -25.4 9.788e+03 4.035e-10
 77.28586    -25.2 9.589e+03 3.415e-10
 77.30612    -25.1 9.564e+03 3.411e-10
 77.34098    -24.2 9.258e+03 2.676e-10
 77.38131    -23.3 8.821e+03 1.934e-10
 77.42164    -22.7 8.511e+03 1.498e-10
 77.44583    -22.2 8.437e+03 1.370e-10
 77.46599    -21.3 8.437e+03 1.370e-10
 77.50230    -20.9 8.451e+03 1.358e-10
 77.54263    -20.9 8.711e+03 1.572e-10
 77.58296    -21.2 9.137e+03 2.204e-10
 77.60570    -21.4 9.595e+03 3.059e-10
 77.62586    -19.7 9.633e+03 3.126e-10
 77.66362    -19.4 1.011e+04 4.045e-10
 77.68459    -21.0 1.024e+04 4.387e-10
 77.68634    -21.2 1.034e+04 4.788e-10
 77.69552    -20.5 1.037e+04 5.067e-10
 77.71384    -21.2 1.048e+04 5.419e-10
 77.73401    -21.8 1.054e+04 5.554e-10
 77.75417    -22.4 1.053e+04 5.515e-10
 77.76537    -23.0 1.040e+04 5.031e-10
 77.77545    -22.3 1.056e+04 5.616e-10
 77.79450    -22.7 1.035e+04 4.783e-10
 77.81467    -23.1 1.018e+04 3.972e-10
 77.83484    -23.3 1.011e+04 3.520e-10
 77.84531    -23.4 1.015e+04 3.239e-10
 77.85539    -23.0 1.015e+04 3.300e-10
 77.87517    -23.3 1.019e+04 3.214e-10
 77.89533    -23.7 1.022e+04 3.100e-10
 77.91516    -24.2 1.047e+04 3.206e-10
 77.92524    -24.0 1.046e+04 3.252e-10
 77.93566    -25.0 1.083e+04 3.834e-10
 77.95583    -25.9 1.109e+04 4.956e-10
 77.97599    -26.2 1.127e+04 6.410e-10
 77.99509    -26.4 1.150e+04 8.090e-10
 78.00518    -26.5 1.166e+04 8.397e-10
 78.01632    -27.4 1.246e+04 1.118e-09
 78.03649    -29.6 1.387e+04 1.671e-09
 78.05666    -32.8 1.555e+04 2.865e-09
 78.07503    -36.0 1.708e+04 5.059e-09
 78.08506    -37.7 1.758e+04 5.722e-09
 78.09694    -40.2 1.881e+04 8.077e-09
 78.11715    -44.0 2.040e+04 1.112e-08
 78.13732    -49.3 2.142e+04 1.291e-08
 78.15496    -56.0 2.166e+04 1.253e-08
 78.16505    -59.9 2.007e+04 8.551e-09
 78.17765    -66.2 1.828e+04 6.133e-09
 78.19781    -71.0 1.630e+04 4.156e-09
 78.21798    -74.0 1.481e+04 2.654e-09
 78.23490    -76.3 1.342e+04 1.578e-09
 78.24498    -78.6 1.175e+04 1.000e-09
 78.25831    -80.6 1.098e+04 7.058e-10
 78.26976    -81.8 1.089e+04 6.355e-10
 78.27984    -83.2 1.118e+04 7.166e-10
 78.29864    -83.9 1.123e+04 7.169e-10
 78.31484    -84.5 1.150e+04 7.841e-10
 78.32492    -85.4 1.199e+04 9.562e-10
 78.33897    -85.8 1.241e+04 1.215e-09
 78.35914    -85.9 1.287e+04 1.591e-09
 78.37930    -85.5 1.337e+04 2.078e-09
 78.39477    -84.9 1.384e+04 2.615e-09
 78.40485    -84.7 1.419e+04 3.035e-09
 78.41963    -84.0 1.450e+04 3.339e-09
 78.43980    -83.5 1.465e+04 3.457e-09
 78.45997    -83.2 1.466e+04 3.461e-09
 78.47471    -82.9 1.450e+04 3.212e-09
 78.48479    -82.6 1.434e+04 2.875e-09
 78.50030    -82.3 1.392e+04 2.400e-09
 78.52046    -82.2 1.339e+04 1.942e-09
 78.54063    -82.0 1.281e+04 1.566e-09
 78.55464    -81.7 1.226e+04 1.294e-09
 78.56472    -81.0 1.195e+04 1.120e-09
 78.58096    -80.3 1.151e+04 9.577e-10
 78.60112    -79.4 1.119e+04 8.403e-10
 78.62129    -78.4 1.097e+04 7.580e-10
 78.63458    -77.4 1.084e+04 7.020e-10
 78.64466    -76.4 1.041e+04 5.707e-10
 78.66162    -75.5 1.024e+04 5.203e-10
 78.68179    -74.6 1.010e+04 4.843e-10
 78.70195    -73.7 1.003e+04 4.635e-10
 78.71451    -72.9 1.002e+04 4.573e-10
 78.72459    -71.3 9.682e+03 3.841e-10
 78.74228    -70.4 9.699e+03 3.790e-10
 78.76245    -69.8 9.757e+03 3.798e-10
 78.78261    -69.4 9.825e+03 3.900e-10
 78.79445    -69.2 9.850e+03 4.086e-10
 78.80453    -67.3 9.789e+03 3.536e-10
 78.82294    -67.8 1.015e+04 3.449e-10
 78.84311    -71.9 1.707e+04 2.905e-10
 78.85501    -80.0 4.563e+04 3.665e-10
 78.86001    -92.8 6.900e+04 5.910e-10
 78.86822    -96.5 5.739e+04 2.264e-09
 78.87428    -98.1 4.037e+04 1.183e-08
 78.87932   -100.4 3.097e+04 3.316e-08
 78.88838   -100.7 2.432e+04 9.874e-08
 78.89847   -100.9 2.184e+04 1.911e-07
 78.90600   -100.8 2.169e+04 2.204e-07
 78.91102   -101.0 2.157e+04 2.506e-07
 78.91420   -101.3 2.149e+04 2.973e-07
 78.91672   -102.0 2.124e+04 3.450e-07
 78.92110   -102.3 2.112e+04 4.172e-07
 78.92615   -102.5 2.102e+04 4.989e-07
 78.93119   -102.8 2.099e+04 5.832e-07
 78.93419   -103.0 2.112e+04 6.586e-07
 78.93671   -104.2 2.128e+04 7.759e-07
 78.94127   -104.5 2.200e+04 7.827e-07
 78.94631   -104.9 2.295e+04 7.468e-07
 78.95135   -105.4 2.365e+04 7.130e-07
 78.95417   -105.9 2.497e+04 6.208e-07
 78.95669   -108.4 2.720e+04 5.070e-07
 78.96144   -109.9 3.118e+04 2.867e-07
 78.96902   -113.2 3.731e+04 1.143e-07
 78.97913   -115.2 4.117e+04 5.810e-08
 78.98914   -119.5 4.279e+04 2.617e-08
 78.99419   -127.5 3.597e+04 1.688e-08
 78.99929   -132.0 2.516e+04 1.234e-08
 79.00938   -133.2 2.010e+04 1.129e-08
 79.01946   -132.7 1.921e+04 1.068e-08
 79.02911   -132.1 1.921e+04 1.007e-08
 79.03415   -134.4 1.912e+04 8.692e-09
 79.04472   -134.6 1.929e+04 7.666e-09
 79.06493   -133.9 1.974e+04 6.530e-09
 79.08510   -134.7 1.842e+04 5.687e-09
 79.10410   -134.4 1.733e+04 4.805e-09
 79.11419   -136.7 1.554e+04 2.767e-09
 79.12543   -135.1 1.458e+04 2.452e-09
 79.14559   -133.4 1.398e+04 2.161e-09
 79.16576   -131.5 1.361e+04 1.928e-09
 79.18404   -129.7 1.338e+04 1.781e-09
 79.19412   -131.2 1.250e+04 1.383e-09
 79.20609   -129.7 1.254e+04 1.427e-09
 79.22625   -128.4 1.261e+04 1.489e-09
 79.24642   -126.9 1.276e+04 1.546e-09
 79.26397   -125.3 1.292e+04 1.618e-09
 79.27406   -126.5 1.293e+04 1.665e-09
 79.28675   -125.3 1.313e+04 1.776e-09
 79.30692   -124.3 1.332e+04 1.896e-09
 79.32708   -123.2 1.347e+04 2.031e-09
 79.34391   -122.0 1.364e+04 2.222e-09
 79.35399   -123.0 1.362e+04 2.330e-09
 79.36741   -121.8 1.369e+04 2.485e-09
 79.38758   -120.9 1.392e+04 2.728e-09
 79.40774   -120.3 1.447e+04 3.119e-09
 79.42384   -120.2 1.572e+04 3.675e-09
 79.43393   -120.7 1.434e+04 2.774e-09
 79.44027   -120.9 1.553e+04 3.025e-09
 79.45036   -118.9 1.414e+04 2.780e-09
 79.46824   -119.0 1.511e+04 2.897e-09
 79.48841   -120.0 1.647e+04 3.021e-09
 79.50378   -121.9 1.748e+04 3.107e-09
 79.51386   -123.4 1.463e+04 2.309e-09
 79.52874   -125.0 1.520e+04 3.192e-09
 79.54890   -125.8 1.552e+04 4.197e-09
 79.56907   -126.1 1.574e+04 4.942e-09
 79.58371   -126.0 1.591e+04 5.415e-09
 79.59380   -125.1 1.501e+04 4.761e-09
 79.60940   -124.5 1.502e+04 4.809e-09
 79.62956   -123.6 1.495e+04 4.487e-09
 79.64973   -122.5 1.478e+04 3.978e-09
 79.66365   -121.6 1.457e+04 3.158e-09
 79.67373   -120.5 1.418e+04 3.066e-09
 79.69006   -119.5 1.389e+04 2.379e-09
 79.71023   -118.6 1.339e+04 1.796e-09
 79.73039   -117.7 1.277e+04 1.327e-09
 79.74358   -116.5 1.211e+04 1.046e-09
 79.75367   -115.5 1.240e+04 1.186e-09
 79.77072   -114.2 1.218e+04 1.015e-09
 79.79089   -112.9 1.194e+04 8.573e-10
 79.81105   -111.7 1.157e+04 7.222e-10
 79.82362   -110.0 1.069e+04 5.748e-10
 79.84388   -107.5 1.081e+04 5.985e-10
 79.88183   -103.7 1.057e+04 5.273e-10
 79.92216   -100.2 1.051e+04 5.086e-10
 79.95231    -97.1 1.077e+04 5.298e-10
 79.97238    -95.6 1.083e+04 5.673e-10
 79.98339    -94.0 1.097e+04 6.015e-10
 80.00365    -92.8 1.100e+04 6.727e-10
 80.02573    -89.2 1.128e+04 8.589e-10
 80.04589    -87.9 1.066e+04 4.043e-10
 80.08348    -84.5 1.072e+04 4.506e-10
 80.12329    -80.9 1.083e+04 5.432e-10
 80.14345    -79.6 1.037e+04 4.053e-10
 80.16414    -76.3 1.059e+04 4.736e-10
 80.20448    -72.9 1.089e+04 5.995e-10
 80.23463    -70.2 1.093e+04 7.191e-10
 80.25469    -68.3 1.105e+04 7.897e-10
 80.27486    -66.5 1.125e+04 8.665e-10
 80.29305    -64.8 1.154e+04 9.868e-10
 80.30313    -63.7 1.125e+04 7.886e-10
 80.32537    -61.3 1.154e+04 8.434e-10
 80.36580    -57.5 1.222e+04 1.261e-09
 80.40613    -54.6 1.284e+04 1.778e-09
 80.43628    -52.4 1.311e+04 2.312e-09
 80.45292    -51.3 1.352e+04 2.619e-09
 80.46300    -50.2 1.342e+04 2.621e-09
 80.47651    -49.3 1.394e+04 3.071e-09
 80.49668    -48.7 1.466e+04 3.597e-09
 80.51685    -48.2 1.564e+04 4.012e-09
 80.53285    -48.4 1.632e+04 4.381e-09
 80.54293    -46.3 1.610e+04 4.809e-09
 80.55718    -46.7 1.658e+04 4.988e-09
 80.57734    -47.6 1.668e+04 4.970e-09
 80.59751    -48.8 1.643e+04 4.527e-09
 80.61079    -49.9 1.587e+04 4.015e-09
 80.61599    -47.8 1.816e+04 6.093e-09
 80.62287    -44.5 1.823e+04 5.961e-09
 80.63784    -46.4 1.718e+04 4.470e-09
 80.65800    -48.3 1.598e+04 3.624e-09
 80.67817    -49.5 1.536e+04 3.384e-09
 80.69272    -50.2 1.515e+04 3.352e-09
 80.70281    -48.7 1.429e+04 2.318e-09
 80.71850    -49.4 1.425e+04 2.353e-09
 80.73867    -50.1 1.445e+04 2.706e-09
 80.75883    -50.6 1.482e+04 3.290e-09
 80.77266    -50.9 1.517e+04 4.016e-09
 80.78274    -49.8 1.402e+04 2.399e-09
 80.79916    -50.4 1.424e+04 2.748e-09
 80.81933    -51.0 1.438e+04 3.049e-09
 80.83949    -51.7 1.440e+04 3.220e-09
 80.85259    -52.4 1.431e+04 3.264e-09
 80.86268    -52.0 1.331e+04 2.166e-09
 80.87982    -53.0 1.324e+04 2.226e-09
 80.89999    -53.8 1.311e+04 2.235e-09
 80.92015    -54.4 1.295e+04 2.199e-09
 80.93253    -54.7 1.278e+04 2.119e-09
 80.94261    -54.7 1.244e+04 1.896e-09
 80.96049    -54.7 1.235e+04 1.855e-09
 80.98065    -54.6 1.220e+04 1.755e-09
 81.00082    -54.1 1.198e+04 1.610e-09
 81.01246    -53.4 1.175e+04 1.453e-09
 81.02255    -53.5 1.163e+04 1.452e-09
 81.04115    -52.7 1.146e+04 1.315e-09
 81.06131    -51.7 1.131e+04 1.189e-09
 81.08148    -50.7 1.116e+04 1.088e-09
 81.09240    -49.5 1.106e+04 1.019e-09
 81.10248    -49.7 1.105e+04 1.083e-09
 81.12181    -48.4 1.102e+04 1.052e-09
 81.14198    -47.1 1.103e+04 1.045e-09
 81.16214    -45.7 1.104e+04 1.043e-09
 81.17233    -44.3 1.112e+04 1.053e-09
 81.18242    -44.3 1.122e+04 1.246e-09
 81.19605    -42.8 1.127e+04 1.263e-09
 81.20614    -42.8 1.161e+04 1.352e-09
 81.22264    -41.3 1.173e+04 1.400e-09
 81.24219    -39.8 1.183e+04 1.448e-09
 81.25227    -39.6 1.178e+04 1.529e-09
 81.26297    -38.2 1.186e+04 1.506e-09
 81.28313    -36.8 1.192e+04 1.484e-09
 81.30330    -35.7 1.202e+04 1.443e-09
 81.32212    -34.6 1.223e+04 1.444e-09
 81.33220    -34.5 1.190e+04 1.353e-09
 81.34363    -33.3 1.200e+04 1.322e-09
 81.36380    -32.1 1.220e+04 1.346e-09
 81.38396    -31.0 1.243e+04 1.438e-09
 81.40206    -29.8 1.264e+04 1.599e-09
 81.41214    -29.8 1.227e+04 1.300e-09
 81.42429    -28.4 1.246e+04 1.434e-09
 81.44446    -26.9 1.263e+04 1.599e-09
 81.46462    -25.5 1.284e+04 1.749e-09
 81.48199    -24.0 1.299e+04 1.855e-09
 81.49207    -24.2 1.262e+04 1.336e-09
 81.50495    -22.7 1.281e+04 1.400e-09
 81.52512    -21.2 1.308e+04 1.491e-09
 81.54529    -20.0 1.342e+04 1.610e-09
 81.56193    -18.8 1.384e+04 1.777e-09
 81.57201    -18.9 1.306e+04 1.170e-09
 81.58562    -17.7 1.363e+04 1.336e-09
 81.60578    -16.7 1.434e+04 1.634e-09
 81.62595    -15.8 1.498e+04 2.080e-09
 81.64186    -14.9 1.546e+04 2.673e-09
 81.65194    -14.5 1.457e+04 1.639e-09
 81.66628    -13.4 1.508e+04 2.137e-09
 81.68644    -12.2 1.538e+04 2.732e-09
 81.70661    -11.0 1.545e+04 3.299e-09
 81.72180     -9.9 1.539e+04 3.724e-09
 81.73188     -9.4 1.502e+04 2.685e-09
 81.74694     -8.2 1.507e+04 3.140e-09
 81.76711     -6.9 1.503e+04 3.490e-09
 81.78131     -5.7 1.487e+04 3.654e-09
 81.79140     -5.9 1.474e+04 4.604e-09
 81.80173     -4.5 1.439e+04 4.501e-09
 81.81181     -4.1 1.498e+04 4.775e-09
 81.82760     -2.6 1.477e+04 4.863e-09
 81.84777     -1.1 1.450e+04 4.639e-09
 81.86793      0.5 1.416e+04 4.190e-09
 81.88167      2.1 1.381e+04 3.648e-09
 81.89175      2.5 1.489e+04 5.204e-09
 81.90826      4.0 1.458e+04 4.652e-09
 81.92843      5.5 1.422e+04 3.968e-09
 81.94859      6.9 1.384e+04 3.295e-09
 81.96160      8.3 1.353e+04 2.719e-09
 81.97168      8.6 1.488e+04 4.667e-09
 81.98893      9.9 1.469e+04 4.043e-09
 82.00909     10.9 1.454e+04 3.462e-09
 82.02926     11.8 1.435e+04 2.942e-09
 82.04154     12.6 1.419e+04 2.587e-09
 82.05162     12.8 1.565e+04 4.906e-09
 82.06959     13.7 1.540e+04 4.402e-09
 82.08975     14.4 1.527e+04 4.146e-09
 82.10992     15.1 1.536e+04 4.168e-09
 82.12147     15.9 1.500e+04 3.944e-09
 82.12646     15.9 1.552e+04 4.764e-09
 82.13503     16.0 1.545e+04 4.693e-09
 82.14511     16.6 1.527e+04 4.563e-09
 82.15519     16.6 1.524e+04 4.535e-09
 82.16134     17.1 1.527e+04 4.604e-09
 82.16638     16.9 1.554e+04 5.060e-09
 82.17536     17.0 1.559e+04 5.116e-09
 82.18544     17.0 1.598e+04 5.525e-09
 82.19552     16.5 1.655e+04 6.130e-09
 82.20131     15.8 1.729e+04 7.098e-09
 82.20635     15.0 1.788e+04 7.841e-09
 82.21569     14.1 1.864e+04 9.139e-09
 82.22577     13.4 1.938e+04 1.107e-08
 82.23586     12.9 1.994e+04 1.370e-08
 82.24128     12.5 2.023e+04 1.680e-08
 82.24632     11.7 2.083e+04 1.905e-08
 82.25602     11.7 2.079e+04 2.226e-08
 82.26610     11.8 2.061e+04 2.498e-08
 82.27619     12.3 2.052e+04 2.797e-08
 82.28627     12.8 2.065e+04 3.292e-08
 82.29635     13.5 2.135e+04 3.685e-08
 82.30643     13.9 2.272e+04 3.984e-08
 82.31617     13.5 2.396e+04 4.573e-08
 82.32121     13.3 2.531e+04 3.861e-08
 82.32660     12.0 2.679e+04 4.233e-08
 82.33668     10.7 2.710e+04 4.589e-08
 82.34677      9.5 2.701e+04 4.614e-08
 82.35614      8.8 2.699e+04 3.995e-08
 82.36118      7.4 2.971e+04 2.590e-08
 82.36647      6.0 2.856e+04 2.104e-08
 82.37661      0.5 2.179e+04 8.748e-09
 82.39224     -1.3 1.951e+04 9.213e-09
 82.41240     -1.7 1.820e+04 9.296e-09
 82.43113     -0.9 1.775e+04 9.682e-09
 82.44121     -1.0 1.753e+04 8.777e-09
 82.45273      0.2 1.766e+04 8.930e-09
 82.47290      1.3 1.771e+04 8.650e-09
 82.49306      2.4 1.751e+04 7.748e-09
 82.51106      3.4 1.727e+04 6.652e-09
 82.52115      2.9 1.682e+04 4.266e-09
 82.53339      3.6 1.658e+04 3.676e-09
 82.55356      4.2 1.630e+04 3.259e-09
 82.57372      5.0 1.597e+04 2.994e-09
 82.59100      5.8 1.568e+04 2.845e-09
 82.60108      5.0 1.456e+04 2.099e-09
 82.61406      6.0 1.436e+04 2.168e-09
 82.63422      7.1 1.420e+04 2.239e-09
 82.65439      8.2 1.411e+04 2.303e-09
 82.67093      9.4 1.404e+04 2.365e-09
 82.68102      9.5 1.375e+04 2.160e-09
 82.69472     10.8 1.376e+04 2.207e-09
 82.71488     12.0 1.362e+04 2.131e-09
 82.73505     13.4 1.339e+04 1.926e-09
 82.75087     14.8 1.306e+04 1.584e-09
 82.76095     14.9 1.293e+04 1.461e-09
 82.77538     16.2 1.259e+04 1.102e-09
 82.79555     17.3 1.217e+04 7.883e-10
 82.81571     18.2 1.171e+04 5.601e-10
 82.83080     19.0 1.128e+04 4.006e-10
 82.84089     18.8 1.117e+04 4.118e-10
 82.85604     19.7 1.084e+04 3.098e-10
 82.87621     20.5 1.055e+04 2.505e-10
 82.89637     21.4 1.038e+04 2.190e-10
 82.91074     22.3 1.030e+04 2.024e-10
 82.92082     22.4 1.023e+04 2.347e-10
 82.93670     23.4 1.020e+04 2.281e-10
 82.95183     24.4 1.024e+04 2.331e-10
 82.96191     23.5 1.040e+04 2.853e-10
 82.97703     24.4 1.054e+04 3.411e-10
 82.99067     25.3 1.066e+04 4.112e-10
 83.00076     25.3 1.116e+04 6.019e-10
 83.01737     26.5 1.132e+04 7.039e-10
 83.03753     27.8 1.150e+04 8.120e-10
 83.05770     29.0 1.164e+04 9.083e-10
 83.07061     30.4 1.181e+04 9.637e-10
 83.08069     30.4 1.212e+04 1.256e-09
 83.09803     31.5 1.223e+04 1.263e-09
 83.11819     32.4 1.229e+04 1.184e-09
 83.13836     33.2 1.229e+04 1.118e-09
 83.15054     33.8 1.227e+04 1.096e-09
 83.16063     33.8 1.236e+04 1.289e-09
 83.17869     34.6 1.228e+04 1.283e-09
 83.19886     35.5 1.252e+04 1.321e-09
 83.21902     36.0 1.286e+04 1.516e-09
 83.23048     36.1 1.337e+04 1.841e-09
 83.24056     36.6 1.327e+04 1.775e-09
 83.25935     36.6 1.379e+04 2.205e-09
 83.27952     36.9 1.423e+04 2.843e-09
 83.29968     37.8 1.451e+04 3.526e-09
 83.31041     39.1 1.465e+04 3.921e-09
 83.32050     39.1 1.428e+04 2.996e-09
 83.34001     40.5 1.435e+04 2.974e-09
 83.36018     41.9 1.445e+04 2.740e-09
 83.38027     43.4 1.440e+04 2.190e-09
 83.40043     44.2 1.343e+04 1.193e-09
 83.42068     44.6 1.257e+04 7.800e-10
 83.44084     44.1 1.178e+04 5.308e-10
 83.46020     44.0 1.095e+04 4.442e-10
 83.47029     44.1 1.090e+04 4.561e-10
 83.48117     44.6 1.053e+04 4.251e-10
 83.50134     45.8 1.004e+04 4.668e-10
 83.52150     47.0 1.050e+04 4.107e-10
 83.53709     48.0 1.050e+04 4.412e-10
 83.54564     47.9 1.039e+04 4.261e-10
 83.55022     48.4 1.058e+04 4.713e-10
 83.56183     49.9 1.022e+04 5.520e-10
 83.58200     51.4 1.042e+04 4.941e-10
 83.60216     52.6 1.046e+04 5.007e-10
 83.62007     53.8 1.049e+04 4.951e-10
 83.63016     54.1 1.057e+04 5.301e-10
 83.64250     55.0 1.062e+04 5.294e-10
 83.66266     55.9 1.065e+04 5.307e-10
 83.68283     56.7 1.077e+04 5.528e-10
 83.70001     57.5 1.085e+04 5.858e-10
 83.71009     57.5 1.106e+04 6.754e-10
 83.72316     58.2 1.119e+04 7.408e-10
 83.74332     58.8 1.137e+04 8.497e-10
 83.76349     59.4 1.151e+04 1.003e-09
 83.77994     60.2 1.156e+04 1.160e-09
 83.79003     60.4 1.177e+04 1.318e-09
 83.80382     61.5 1.185e+04 1.464e-09
 83.82399     62.6 1.183e+04 1.470e-09
 83.84415     63.8 1.167e+04 1.384e-09
 83.85988     64.9 1.148e+04 1.153e-09
 83.86996     65.0 1.155e+04 1.153e-09
 83.88448     65.6 1.131e+04 9.390e-10
 83.90465     66.0 1.100e+04 7.482e-10
 83.92481     66.2 1.073e+04 6.060e-10
 83.93981     66.3 1.047e+04 5.167e-10
 83.94990     66.5 1.057e+04 5.453e-10
 83.96514     66.7 1.035e+04 5.088e-10
 83.98531     67.2 1.016e+04 4.981e-10
 84.00547     68.0 1.008e+04 4.996e-10
 84.01975     69.0 9.989e+03 5.048e-10
 84.02983     69.3 1.016e+04 5.556e-10
 84.04581     70.5 1.013e+04 5.513e-10
 84.06597     71.7 1.011e+04 5.327e-10
 84.08614     72.9 1.007e+04 5.036e-10
 84.09968     74.0 1.004e+04 4.670e-10
 84.10977     74.2 1.016e+04 5.094e-10
 84.12235     75.2 1.013e+04 4.739e-10
 84.13243     73.8 9.913e+03 4.048e-10
 84.14663     75.2 9.927e+03 3.827e-10
 84.16680     75.6 9.931e+03 3.753e-10
 84.17962     77.2 9.962e+03 3.765e-10
 84.18970     77.4 1.000e+04 3.883e-10
 84.20713     78.0 1.002e+04 3.896e-10
 84.22730     79.5 9.962e+03 3.959e-10
 84.24746     80.9 9.968e+03 4.194e-10
 84.25955     82.1 1.007e+04 4.495e-10
 84.26964     82.4 1.013e+04 4.608e-10
 84.28779     83.4 1.024e+04 4.907e-10
 84.30796     84.5 1.040e+04 5.340e-10
 84.32812     85.3 1.067e+04 6.127e-10
 84.33949     86.0 1.100e+04 7.376e-10
 84.34957     86.4 1.093e+04 7.115e-10
 84.36845     87.1 1.126e+04 8.656e-10
 84.38862     87.6 1.170e+04 1.105e-09
 84.40878     88.1 1.219e+04 1.433e-09
 84.41942     88.8 1.263e+04 1.807e-09
 84.42951     89.7 1.233e+04 1.560e-09
 84.44912     90.6 1.271e+04 1.870e-09
 84.46928     91.5 1.305e+04 2.127e-09
 84.48928     92.3 1.307e+04 2.069e-09
 84.49936     93.3 1.281e+04 1.816e-09
 84.50961     94.1 1.279e+04 1.733e-09
 84.52978     94.3 1.265e+04 1.528e-09
 84.54994     94.2 1.266e+04 1.396e-09
 84.56921     93.4 1.288e+04 1.447e-09
 84.57929     95.5 1.266e+04 1.396e-09
 84.59027     93.8 1.358e+04 1.671e-09
 84.61044     90.5 1.496e+04 2.675e-09
 84.63060     88.9 1.574e+04 4.220e-09
 84.64915     89.7 1.523e+04 5.354e-09
 84.65923     91.3 1.612e+04 6.424e-09
 84.67094     92.2 1.581e+04 6.301e-09
 84.69110     93.3 1.531e+04 5.363e-09
 84.70761     93.7 1.494e+04 3.830e-09
 84.71769     93.7 1.498e+04 3.872e-09
 84.72908     92.4 1.441e+04 2.183e-09
 84.73916     95.6 1.546e+04 3.577e-09
 84.75160     92.5 1.474e+04 1.758e-09
 84.77176     86.3 1.285e+04 8.566e-10
 84.79193     81.6 1.109e+04 6.771e-10
 84.80902     79.7 1.106e+04 7.124e-10
 84.81910     80.9 1.113e+04 7.203e-10
 84.83226     79.8 1.129e+04 8.159e-10
 84.85243     79.5 1.139e+04 9.058e-10
 84.87259     79.5 1.134e+04 8.917e-10
 84.88895     79.5 1.122e+04 8.181e-10
 84.89903     80.7 1.128e+04 8.378e-10
 84.91292     80.5 1.118e+04 7.032e-10
 84.93309     79.6 1.104e+04 5.647e-10
 84.95325     76.9 1.149e+04 6.046e-10
 84.96889     73.2 1.238e+04 8.030e-10
 84.97897     75.2 1.197e+04 6.607e-10
 84.99358     72.8 1.242e+04 9.333e-10
 85.01375     71.5 1.287e+04 1.293e-09
 85.03391     70.1 1.357e+04 1.679e-09
 85.04882     68.4 1.388e+04 1.871e-09
 85.05890     69.7 1.381e+04 1.673e-09
 85.07425     67.9 1.361e+04 1.720e-09
 85.09441     66.7 1.320e+04 1.593e-09
 85.11458     66.1 1.258e+04 1.400e-09
 85.12876     65.7 1.234e+04 1.117e-09
 85.13884     67.0 1.256e+04 1.273e-09
 85.15491     66.2 1.248e+04 1.027e-09
 85.17507     64.5 1.195e+04 7.575e-10
 85.19524     62.5 1.117e+04 5.458e-10
 85.20869     61.0 1.070e+04 4.540e-10
 85.21877     62.4 1.111e+04 5.282e-10
 85.23557     61.1 1.086e+04 4.654e-10
 85.25573     60.2 1.083e+04 4.532e-10
 85.27590     59.4 1.083e+04 4.771e-10
 85.28863     58.8 1.092e+04 5.265e-10
 85.29551     59.0 1.109e+04 5.663e-10
 85.30295     60.2 1.076e+04 4.468e-10
 85.31623     60.1 1.103e+04 5.411e-10
 85.33640     60.0 1.133e+04 6.151e-10
 85.35656     56.7 1.357e+04 1.025e-09
 85.36856     49.9 1.767e+04 2.597e-09
 85.37355     47.7 1.847e+04 3.972e-09
 85.38167     46.5 1.896e+04 4.429e-09
 85.39175     43.3 2.022e+04 9.468e-09
 85.40184     40.4 2.079e+04 1.335e-08
 85.40843     38.2 2.155e+04 2.178e-08
 85.41347     37.4 2.226e+04 2.872e-08
 85.42200     33.8 2.359e+04 3.745e-08
 85.43209     30.4 2.598e+04 4.437e-08
 85.44217     25.4 2.825e+04 4.272e-08
 85.44840     19.2 2.947e+04 3.716e-08
 85.45344     14.6 2.975e+04 2.880e-08
 85.46233      6.2 2.675e+04 2.078e-08
 85.47242     -1.8 2.389e+04 1.639e-08
 85.48250     -7.8 2.350e+04 1.374e-08
 85.48837    -11.3 2.378e+04 1.271e-08
 85.49341    -14.5 2.403e+04 1.267e-08
 85.50266    -19.3 2.390e+04 1.185e-08
 85.51784    -22.7 2.374e+04 1.123e-08
 85.52843    -30.0 2.104e+04 1.001e-08
 85.53851    -33.9 1.993e+04 1.155e-08
 85.55822    -35.1 1.816e+04 1.040e-08
 85.57838    -35.0 1.709e+04 8.205e-09
 85.59828    -33.5 1.608e+04 5.321e-09
 85.60837    -34.9 1.598e+04 4.124e-09
 85.61871    -34.8 1.433e+04 1.698e-09
 85.63888    -37.7 1.185e+04 5.713e-10
 85.65904    -42.9 9.901e+03 2.806e-10
 85.67822    -44.4 9.286e+03 2.328e-10
 85.68830    -44.7 9.307e+03 2.341e-10
 85.69938    -43.2 9.264e+03 2.352e-10
 85.71954    -41.8 9.449e+03 2.692e-10
 85.73971    -40.8 9.668e+03 3.040e-10
 85.75815    -40.0 9.836e+03 3.382e-10
 85.76824    -39.8 9.837e+03 3.583e-10
 85.78004    -38.8 1.003e+04 4.225e-10
 85.80020    -37.7 1.027e+04 4.997e-10
 85.82037    -37.2 1.043e+04 5.543e-10
 85.83809    -36.1 1.075e+04 6.936e-10
 85.84817    -35.7 1.096e+04 7.612e-10
 85.86070    -35.4 1.105e+04 8.007e-10
 85.87823    -34.5 1.129e+04 8.897e-10
 85.88831    -34.5 1.115e+04 8.287e-10
 85.90103    -34.5 1.115e+04 8.310e-10
 85.91802    -34.1 1.114e+04 8.334e-10
 85.92811    -33.9 1.124e+04 8.939e-10
 85.94136    -33.7 1.107e+04 8.230e-10
 85.96153    -33.4 1.084e+04 7.213e-10
 85.98169    -33.2 1.066e+04 6.399e-10
 85.99806    -33.0 1.025e+04 4.888e-10
 86.01832    -32.2 1.047e+04 5.574e-10
 86.05247    -30.7 9.978e+03 4.040e-10
 86.09280    -29.1 9.839e+03 3.350e-10
 86.13313    -27.5 9.673e+03 2.832e-10
 86.15803    -25.3 9.535e+03 2.454e-10
 86.17819    -25.1 9.706e+03 2.709e-10
 86.21379    -23.0 9.593e+03 2.367e-10
 86.25412    -21.0 9.508e+03 2.188e-10
 86.29445    -18.9 9.482e+03 2.154e-10
 86.31790    -16.9 9.483e+03 2.200e-10
 86.33806    -17.2 9.682e+03 2.567e-10
 86.37511    -15.3 9.776e+03 2.634e-10
 86.41545    -13.2 9.847e+03 2.689e-10
 86.45578    -11.4 9.939e+03 2.723e-10
 86.47777     -9.7 1.017e+04 2.918e-10
 86.49793    -10.4 1.019e+04 2.758e-10
 86.52626     -8.9 1.066e+04 3.329e-10
 86.54633     -9.1 1.077e+04 3.459e-10
 86.55751     -9.5 1.107e+04 4.381e-10
 86.56759    -10.3 1.102e+04 4.515e-10
 86.58666    -10.9 1.141e+04 6.093e-10
 86.60682    -11.1 1.194e+04 8.480e-10
 86.62699    -11.0 1.242e+04 1.145e-09
 86.63744    -10.7 1.280e+04 1.389e-09
 86.64752    -11.3 1.303e+04 1.565e-09
 86.66732    -11.3 1.333e+04 1.703e-09
 86.68748    -11.5 1.353e+04 1.726e-09
 86.70729    -12.3 1.368e+04 1.708e-09
 86.71738    -13.0 1.414e+04 2.334e-09
 86.72782    -13.6 1.427e+04 2.517e-09
 86.74798    -13.9 1.442e+04 2.849e-09
 86.76815    -14.0 1.457e+04 3.260e-09
 86.78723    -13.8 1.466e+04 3.547e-09
 86.79731    -13.8 1.493e+04 4.163e-09
 86.80848    -13.8 1.482e+04 3.997e-09
 86.82864    -13.7 1.458e+04 3.561e-09
 86.84881    -13.5 1.426e+04 3.052e-09
 86.86716    -13.3 1.391e+04 2.577e-09
 86.87725    -13.5 1.385e+04 2.561e-09
 86.88914    -13.3 1.348e+04 2.158e-09
 86.90931    -12.9 1.315e+04 1.848e-09
 86.92947    -12.5 1.289e+04 1.633e-09
 86.94710    -12.1 1.266e+04 1.482e-09
 86.95718    -12.0 1.257e+04 1.446e-09
 86.96980    -11.4 1.245e+04 1.334e-09
 86.98997    -10.9 1.235e+04 1.221e-09
 87.01013    -10.6 1.222e+04 1.094e-09
 87.02703    -10.6 1.198e+04 9.722e-10
 87.03712    -10.6 1.189e+04 9.316e-10
 87.04875    -10.2 1.167e+04 8.301e-10
 87.06901    -10.3 1.169e+04 8.063e-10
 87.09708     -9.5 1.127e+04 6.791e-10
 87.11725     -8.8 1.126e+04 6.854e-10
 87.13122     -8.2 1.109e+04 5.953e-10
 87.15129     -8.1 1.106e+04 5.833e-10
 87.17146     -7.5 1.086e+04 4.919e-10
 87.18690     -7.3 1.075e+04 4.519e-10
 87.19699     -7.0 1.073e+04 4.762e-10
 87.22197     -6.3 1.049e+04 3.868e-10
 87.25695     -5.1 1.024e+04 2.922e-10
 87.27712     -4.6 1.051e+04 4.287e-10
 87.30273     -3.6 1.046e+04 3.797e-10
 87.34306     -2.5 1.056e+04 3.680e-10
 87.38339     -1.6 1.062e+04 3.538e-10
 87.41682     -1.0 1.066e+04 3.447e-10
 87.43689     -1.2 1.083e+04 4.181e-10
 87.46395     -1.4 1.080e+04 4.360e-10
 87.50438     -1.5 1.077e+04 4.422e-10
 87.54471     -1.9 1.090e+04 4.975e-10
 87.57669     -2.2 1.096e+04 5.174e-10
 87.59686     -3.2 1.126e+04 6.866e-10
 87.62538     -3.6 1.120e+04 6.097e-10
 87.66571     -4.1 1.104e+04 4.824e-10
 87.70604     -4.7 1.097e+04 4.272e-10
 87.73656     -5.1 1.097e+04 4.218e-10
 87.75673     -6.2 1.095e+04 4.073e-10
 87.78670     -6.5 1.094e+04 3.884e-10
 87.82703     -6.9 1.089e+04 3.532e-10
 87.86736     -7.1 1.068e+04 2.874e-10
 87.89643     -7.0 1.038e+04 2.075e-10
 87.91660     -7.4 1.017e+04 1.595e-10
 87.94802     -6.6 1.010e+04 1.002e-10
 87.98835     -6.0 1.014e+04 6.065e-11
 88.02868     -5.5 1.003e+04 4.605e-11
 88.05630     -4.7 9.902e+03 4.471e-11
 88.07647     -4.5 9.841e+03 4.432e-11
 88.10935     -3.1 9.876e+03 4.444e-11
 88.14968     -1.8 9.979e+03 4.731e-11
 88.19001     -0.6 1.003e+04 5.210e-11
 88.21617      0.6 1.008e+04 5.883e-11
 88.22536      1.0 1.008e+04 5.852e-11
 88.23953      1.0 1.003e+04 5.528e-11
 88.27067      2.1 1.009e+04 6.794e-11
 88.31100      3.1 1.014e+04 8.877e-11
 88.35133      4.3 1.019e+04 1.171e-10
 88.37604      5.6 1.023e+04 1.418e-10
 88.39621      5.9 1.031e+04 1.642e-10
 88.43199      7.1 1.030e+04 1.692e-10
 88.47233      8.4 1.007e+04 1.477e-10
 88.51266      9.7 9.971e+03 9.862e-11
 88.53591     10.7 9.937e+03 6.712e-11
 88.55608     10.5 9.935e+03 6.703e-11
 88.59332     11.2 9.854e+03 5.982e-11
 88.63365     12.2 9.859e+03 5.988e-11
 88.67398     12.9 9.845e+03 7.532e-11
 88.69578     14.0 9.761e+03 1.043e-10
 88.71595     13.7 9.728e+03 1.136e-10
 88.75464     15.2 9.719e+03 1.318e-10
 88.79497     16.6 9.707e+03 1.380e-10
 88.83530     18.0 9.647e+03 1.222e-10
 88.87564     18.7 9.553e+03 7.474e-11
 88.91597     19.5 9.399e+03 6.651e-11
 88.95630     20.5 9.357e+03 6.491e-11
 88.99536     21.8 9.343e+03 6.616e-11
 89.01552     21.8 9.354e+03 6.762e-11
 89.03696     23.1 9.364e+03 7.385e-11
 89.07729     24.5 9.365e+03 8.344e-11
 89.11762     26.0 9.402e+03 9.170e-11
 89.15523     27.4 9.455e+03 9.587e-11
 89.17539     27.3 9.477e+03 8.125e-11
 89.19828     28.3 9.535e+03 8.802e-11
 89.23861     29.2 9.578e+03 1.068e-10
 89.27895     30.2 9.630e+03 1.450e-10
 89.31510     31.4 9.819e+03 2.051e-10
 89.33526     31.5 9.768e+03 1.835e-10
 89.35961     32.6 1.005e+04 2.279e-10
 89.38988     32.9 1.040e+04 2.746e-10
 89.41005     32.4 1.051e+04 3.075e-10
 89.44027     32.0 1.072e+04 4.690e-10
 89.47497     32.3 1.094e+04 6.816e-10
 89.49513     31.9 1.087e+04 6.357e-10
 89.52093     32.4 1.107e+04 7.366e-10
 89.56126     32.4 1.092e+04 6.667e-10
 89.60159     32.9 1.074e+04 5.692e-10
 89.63174     33.3 1.056e+04 5.148e-10
 89.64473     33.3 1.054e+04 5.064e-10
 89.65481     32.9 1.052e+04 4.969e-10
 89.68216     32.5 1.023e+04 4.520e-10
 89.72259     33.3 1.014e+04 4.252e-10
 89.76292     33.8 1.009e+04 4.218e-10
 89.79307     33.9 1.004e+04 4.453e-10
 89.80460     33.8 1.003e+04 4.461e-10
 89.81478     33.2 9.877e+03 3.994e-10
 89.84358     33.6 9.876e+03 4.135e-10
 89.88391     33.9 9.916e+03 4.250e-10
 89.92424     34.2 9.882e+03 4.254e-10
 89.95458     34.8 9.861e+03 4.278e-10
 89.97474     34.0 9.775e+03 3.699e-10
 90.00490     34.5 9.860e+03 3.815e-10
 90.04523     35.1 9.906e+03 4.253e-10
 90.08556     36.4 9.928e+03 4.718e-10
 90.11445     37.9 9.930e+03 4.822e-10
 90.13461     37.2 9.938e+03 4.516e-10
 90.16623     38.8 9.897e+03 4.169e-10
 90.20656     40.3 9.941e+03 3.791e-10
 90.24689     41.5 1.008e+04 3.560e-10
 90.27432     42.1 1.041e+04 3.904e-10
 90.29448     40.8 1.025e+04 2.871e-10
 90.32755     40.9 1.050e+04 4.063e-10
 90.36788     41.3 1.088e+04 6.112e-10
 90.40821     41.5 1.150e+04 8.948e-10
 90.43419     40.7 1.244e+04 1.193e-09
 90.45435     39.9 1.193e+04 9.900e-10
 90.48887     38.3 1.237e+04 1.296e-09
 90.52921     36.9 1.261e+04 1.431e-09
 90.56040     35.9 1.214e+04 1.384e-09
 90.58047     38.4 1.279e+04 1.773e-09
 90.59386     37.8 1.240e+04 1.827e-09
 90.60395     37.6 1.240e+04 1.833e-09
 90.61975     37.2 1.220e+04 1.606e-09
 90.65010     37.7 1.248e+04 1.286e-09
 90.69053     35.2 1.100e+04 3.807e-10
 90.73086     31.7 8.981e+03 1.607e-10
 90.75393     30.8 8.665e+03 1.506e-10
 90.77409     31.4 8.544e+03 1.716e-10
 90.81152     32.3 8.689e+03 1.780e-10
 90.85185     33.0 8.715e+03 1.803e-10
 90.89218     33.6 8.712e+03 1.802e-10
 90.91380     34.0 8.793e+03 1.890e-10
 90.93397     34.5 8.742e+03 1.891e-10
 90.97285     35.1 8.821e+03 2.082e-10
 91.01318     35.8 9.190e+03 2.577e-10
 91.05350     36.0 9.741e+03 3.308e-10
 91.09384     35.3 1.027e+04 4.093e-10
 91.13417     34.4 1.088e+04 8.056e-10
 91.17450     34.8 1.162e+04 1.322e-09
 91.21337     34.4 1.193e+04 1.393e-09
 91.23354     34.5 1.239e+04 1.738e-09
 91.25516     32.5 1.194e+04 9.255e-10
 91.29549     28.6 1.097e+04 6.002e-10
 91.33583     27.1 1.078e+04 5.871e-10
 91.37324     26.2 1.095e+04 6.863e-10
 91.39341     26.3 1.069e+04 5.650e-10
 91.41649     25.2 1.068e+04 5.465e-10
 91.45682     23.6 1.056e+04 5.349e-10
 91.49715     22.5 1.036e+04 5.522e-10
 91.53311     22.3 1.024e+04 5.767e-10
 91.55328     22.8 1.027e+04 5.855e-10
 91.57781     23.1 1.011e+04 5.470e-10
 91.61814     23.3 9.828e+03 4.450e-10
 91.65847     23.7 9.485e+03 3.493e-10
 91.69299     24.7 9.184e+03 2.639e-10
 91.71315     25.2 9.196e+03 2.455e-10
 91.73092     26.2 9.066e+03 1.681e-10
 91.75109     27.0 9.132e+03 2.006e-10
 91.77947     27.6 9.185e+03 1.410e-10
 91.81980     27.5 9.284e+03 1.313e-10
 91.85286     26.2 9.843e+03 2.357e-10
 91.87302     26.8 9.530e+03 1.764e-10
 91.90046     26.9 9.986e+03 3.589e-10
 91.94079     28.3 1.066e+04 5.749e-10
 91.98112     28.8 1.098e+04 6.431e-10
 92.01273     28.9 1.109e+04 5.667e-10
 92.03289     29.3 1.061e+04 3.887e-10
 92.06178     28.7 1.093e+04 4.239e-10
 92.10211     28.1 1.145e+04 5.475e-10
 92.14244     27.8 1.180e+04 7.202e-10
 92.17260     27.9 1.183e+04 8.459e-10
 92.19276     28.5 1.171e+04 7.869e-10
 92.22311     28.9 1.139e+04 7.577e-10
 92.26344     29.8 1.086e+04 4.952e-10
 92.30377     30.7 1.039e+04 2.523e-10
 92.33247     31.2 1.002e+04 1.434e-10
 92.35263     31.3 1.003e+04 1.417e-10
 92.38443     32.4 9.798e+03 1.257e-10
 92.42476     34.1 9.712e+03 1.392e-10
 92.46509     35.9 9.781e+03 1.742e-10
 92.49234     38.0 9.871e+03 2.267e-10
 92.51250     38.7 9.979e+03 2.632e-10
 92.54575     40.8 1.006e+04 3.142e-10
 92.58609     42.9 1.016e+04 3.565e-10
 92.62642     45.0 1.021e+04 3.690e-10
 92.65221     47.3 1.015e+04 3.346e-10
 92.67237     47.5 1.033e+04 4.057e-10
 92.70708     49.2 1.032e+04 3.482e-10
 92.74741     51.0 1.026e+04 3.471e-10
 92.78774     53.0 1.021e+04 3.630e-10
 92.81208     55.2 1.030e+04 3.579e-10
 92.83224     55.2 1.036e+04 4.114e-10
 92.85822     56.9 1.030e+04 3.598e-10
 92.87829     57.1 1.035e+04 3.666e-10
 92.89182     57.8 1.048e+04 4.048e-10
 92.90190     57.9 1.056e+04 4.744e-10
 92.91133     58.4 1.075e+04 5.606e-10
 92.92141     58.7 1.060e+04 4.715e-10
 92.93879     59.2 1.096e+04 6.056e-10
 92.95895     59.3 1.139e+04 8.241e-10
 92.97175     59.5 1.174e+04 1.137e-09
 92.98183     59.5 1.204e+04 1.397e-09
 92.99928     60.0 1.249e+04 1.838e-09
 93.01945     60.3 1.312e+04 2.275e-09
 93.03961     60.0 1.395e+04 2.601e-09
 93.05169     58.6 1.547e+04 3.093e-09
 93.06177     58.2 1.651e+04 3.707e-09
 93.07994     55.0 1.893e+04 4.816e-09
 93.10011     52.8 1.966e+04 5.791e-09
 93.12028     51.9 1.847e+04 6.385e-09
 93.13162     51.7 1.706e+04 6.102e-09
 93.14170     51.8 1.777e+04 7.496e-09
 93.16061     50.3 1.909e+04 5.686e-09
 93.18077     48.0 2.136e+04 4.292e-09
 93.20094     46.5 2.211e+04 2.999e-09
 93.21156     45.2 1.940e+04 2.009e-09
 93.22164     44.8 1.889e+04 1.757e-09
 93.24127     42.6 1.398e+04 1.234e-09
 93.26143     41.9 1.291e+04 1.144e-09
 93.28141     41.9 1.270e+04 1.220e-09
 93.29149     42.0 1.228e+04 1.040e-09
 93.30176     42.4 1.253e+04 1.335e-09
 93.32193     42.8 1.297e+04 1.715e-09
 93.34210     43.4 1.335e+04 2.255e-09
 93.36134     44.4 1.354e+04 2.823e-09
 93.37143     44.6 1.333e+04 2.429e-09
 93.38243     45.5 1.336e+04 2.837e-09
 93.40259     46.2 1.344e+04 3.104e-09
 93.42276     46.5 1.347e+04 3.216e-09
 93.44128     46.3 1.345e+04 3.487e-09
 93.45136     46.4 1.344e+04 3.464e-09
 93.46309     46.6 1.363e+04 4.145e-09
 93.48325     47.7 1.380e+04 4.575e-09
 93.49659     49.3 1.379e+04 4.247e-09
 93.50667     49.1 1.385e+04 4.200e-09
 93.52121     50.8 1.360e+04 3.702e-09
 93.53130     51.1 1.357e+04 3.673e-09
 93.54375     52.3 1.343e+04 2.688e-09
 93.56392     52.9 1.315e+04 1.738e-09
 93.58408     52.7 1.301e+04 9.865e-10
 93.60115     51.7 1.285e+04 5.755e-10
 93.61123     51.5 1.292e+04 5.320e-10
 93.62441     50.0 1.193e+04 3.940e-10
 93.64458     48.9 1.095e+04 3.496e-10
 93.66474     48.7 1.091e+04 3.343e-10
 93.68108     48.9 1.070e+04 3.634e-10
 93.69117     48.6 1.070e+04 4.037e-10
 93.70507     49.2 1.042e+04 4.525e-10
 93.72524     49.9 1.052e+04 4.660e-10
 93.75103     50.2 1.083e+04 4.152e-10
 93.77120     50.1 1.091e+04 4.562e-10
 93.79592     49.5 1.084e+04 3.866e-10
 93.83635     49.3 1.055e+04 3.202e-10
 93.87668     49.5 1.034e+04 2.779e-10
 93.91100     49.8 1.025e+04 2.592e-10
 93.93117     48.4 1.024e+04 2.757e-10
 93.95734     49.2 1.025e+04 2.935e-10
 93.99767     50.1 1.036e+04 3.211e-10
 94.03800     51.4 1.047e+04 3.446e-10
 94.07087     52.7 1.056e+04 3.452e-10
 94.08467     51.5 1.059e+04 3.262e-10
 94.09203     51.0 1.099e+04 5.107e-10
 94.10838     51.5 1.094e+04 4.934e-10
 94.12855     51.8 1.100e+04 4.958e-10
 94.14872     52.3 1.096e+04 4.839e-10
 94.16069     52.6 1.103e+04 4.915e-10
 94.17078     51.9 1.098e+04 4.432e-10
 94.18905     52.6 1.095e+04 4.473e-10
 94.20921     52.6 1.113e+04 4.718e-10
 94.22938     53.1 1.118e+04 5.048e-10
 94.24063     53.0 1.154e+04 6.172e-10
 94.25071     51.9 1.160e+04 6.262e-10
 94.26971     51.7 1.209e+04 8.454e-10
 94.28987     51.3 1.279e+04 1.249e-09
 94.31004     51.4 1.352e+04 1.803e-09
 94.32057     51.7 1.412e+04 2.411e-09
 94.33065     51.1 1.414e+04 2.659e-09
 94.35037     51.6 1.452e+04 3.031e-09
 94.37054     51.6 1.474e+04 3.143e-09
 94.39042     51.4 1.461e+04 3.072e-09
 94.40050     50.7 1.431e+04 2.740e-09
 94.41087     50.4 1.406e+04 2.506e-09
 94.43103     50.1 1.377e+04 2.272e-09
 94.45120     50.0 1.347e+04 2.029e-09
 94.47035     50.4 1.325e+04 1.732e-09
 94.48044     49.6 1.292e+04 1.396e-09
 94.49153     50.1 1.276e+04 1.211e-09
 94.51169     50.5 1.272e+04 1.065e-09
 94.53186     50.6 1.275e+04 9.981e-10
 94.55029     50.8 1.275e+04 1.001e-09
 94.56037     50.3 1.266e+04 9.419e-10
 94.57219     50.2 1.299e+04 1.085e-09
 94.59236     50.2 1.334e+04 1.306e-09
 94.61252     50.3 1.356e+04 1.622e-09
 94.63022     50.8 1.370e+04 2.054e-09
 94.64031     50.5 1.369e+04 2.074e-09
 94.65285     51.5 1.378e+04 2.427e-09
 94.66711     52.6 1.396e+04 2.475e-09
 94.67719     51.5 1.319e+04 1.838e-09
 94.69318     51.9 1.348e+04 1.705e-09
 94.71016     52.0 1.364e+04 1.558e-09
 94.72024     51.4 1.369e+04 1.627e-09
 94.73351     51.5 1.375e+04 1.608e-09
 94.75368     51.6 1.380e+04 1.638e-09
 94.77385     51.9 1.385e+04 1.727e-09
 94.79009     52.5 1.385e+04 1.833e-09
 94.80018     52.4 1.379e+04 1.894e-09
 94.81418     53.3 1.369e+04 1.846e-09
 94.83434     54.3 1.357e+04 1.728e-09
 94.85451     55.3 1.345e+04 1.511e-09
 94.87003     56.2 1.343e+04 1.242e-09
 94.88011     56.1 1.348e+04 1.067e-09
 94.89484     56.5 1.356e+04 8.443e-10
 94.91500     56.9 1.351e+04 6.849e-10
 94.93517     57.2 1.335e+04 5.868e-10
 94.94996     57.7 1.312e+04 5.098e-10
 94.96005     57.5 1.304e+04 4.468e-10
 94.97550     58.0 1.285e+04 4.158e-10
 94.99567     58.8 1.269e+04 4.224e-10
 95.01583     59.2 1.245e+04 4.279e-10
 95.02990     60.5 1.217e+04 4.646e-10
 95.03998     60.5 1.209e+04 4.035e-10
 95.05616     61.1 1.197e+04 4.155e-10
 95.07633     62.8 1.184e+04 4.373e-10
 95.09649     63.4 1.186e+04 4.398e-10
 95.10983     65.0 1.174e+04 4.242e-10
 95.11992     64.8 1.161e+04 3.794e-10
 95.13682     65.2 1.158e+04 3.709e-10
 95.16717     67.4 1.165e+04 4.309e-10
 95.18996     69.2 1.147e+04 3.768e-10
 95.21013     69.1 1.129e+04 3.287e-10
 95.24248     70.7 1.119e+04 2.735e-10
 95.26265     69.2 1.081e+04 1.365e-10
 95.28826     70.8 1.062e+04 1.193e-10
 95.32859     72.4 1.049e+04 1.105e-10
 95.34983     74.2 1.042e+04 1.073e-10
 95.37000     74.2 1.033e+04 1.064e-10
 95.40925     75.9 1.025e+04 1.067e-10
 95.44958     77.6 1.022e+04 1.098e-10
 95.48954     79.3 1.016e+04 1.155e-10
 95.50970     79.5 1.015e+04 1.152e-10
 95.53025     81.3 1.018e+04 1.213e-10
 95.57058     83.0 1.019e+04 1.364e-10
 95.61091     84.8 1.017e+04 1.624e-10
 95.64941     86.6 1.018e+04 2.003e-10
 95.66957     86.8 1.023e+04 2.365e-10
 95.69157     88.7 1.032e+04 2.988e-10
 95.73190     90.6 1.044e+04 3.527e-10
 95.77223     92.4 1.058e+04 4.057e-10
 95.80928     94.1 1.059e+04 3.963e-10
 95.82944     93.9 1.067e+04 4.320e-10
 95.85289     95.2 1.056e+04 3.720e-10
 95.89323     96.4 1.041e+04 3.240e-10
 95.93356     97.6 1.030e+04 2.935e-10
 95.96915     98.9 1.024e+04 2.814e-10
 95.98931     98.6 1.005e+04 2.251e-10
 96.01422     99.8 1.002e+04 2.158e-10
 96.05455    101.0 1.013e+04 2.303e-10
 96.09488    102.1 1.032e+04 2.811e-10
 96.12902    103.3 1.057e+04 3.815e-10
 96.14918    103.6 1.018e+04 2.817e-10
 96.17554    105.2 1.047e+04 3.764e-10
 96.20569    105.4 1.068e+04 4.547e-10
 96.21884    105.7 1.074e+04 5.102e-10
 96.22892    105.9 1.066e+04 4.566e-10
 96.24593    106.5 1.065e+04 5.093e-10
 96.26609    107.4 1.070e+04 5.690e-10
 96.28626    108.2 1.078e+04 6.164e-10
 96.29878    108.9 1.087e+04 6.555e-10
 96.30886    109.2 1.071e+04 5.904e-10
 96.32659    109.9 1.080e+04 6.316e-10
 96.34675    110.5 1.089e+04 6.723e-10
 96.36692    111.2 1.102e+04 7.082e-10
 96.37871    111.8 1.117e+04 7.401e-10
 96.38879    112.2 1.100e+04 7.027e-10
 96.41290    113.5 1.121e+04 7.115e-10
 96.43307    112.7 1.114e+04 7.105e-10
 96.44866    113.3 1.117e+04 7.064e-10
 96.46883    114.0 1.110e+04 6.774e-10
 96.49809    115.3 1.104e+04 6.476e-10
 96.53852    116.8 1.105e+04 6.657e-10
 96.57885    118.3 1.114e+04 7.191e-10
 96.60853    119.6 1.116e+04 7.476e-10
 96.61852    120.0 1.102e+04 6.915e-10
 96.62907    120.8 1.113e+04 7.448e-10
 96.64924    121.4 1.125e+04 8.137e-10
 96.66940    122.0 1.132e+04 8.772e-10
 96.68837    122.7 1.135e+04 9.189e-10
 96.69845    123.1 1.118e+04 8.377e-10
 96.70973    123.8 1.115e+04 8.390e-10
 96.72990    124.5 1.113e+04 8.082e-10
 96.75006    125.1 1.107e+04 7.425e-10
 96.76830    125.6 1.100e+04 6.667e-10
 96.77839    125.9 1.084e+04 6.190e-10
 96.79039    126.3 1.078e+04 5.584e-10
 96.81056    126.5 1.072e+04 5.181e-10
 96.83073    126.8 1.066e+04 4.965e-10
 96.84824    127.1 1.060e+04 4.886e-10
 96.85832    127.5 1.049e+04 4.649e-10
 96.87106    127.9 1.048e+04 4.673e-10
 96.89122    128.4 1.046e+04 4.834e-10
 96.91139    129.0 1.050e+04 5.229e-10
 96.92817    129.6 1.061e+04 5.788e-10
 96.93826    129.9 1.056e+04 5.656e-10
 96.95172    130.4 1.073e+04 6.440e-10
 96.97188    130.9 1.093e+04 7.426e-10
 96.99205    131.3 1.116e+04 8.596e-10
 97.00811    131.7 1.139e+04 9.947e-10
 97.01819    130.3 1.127e+04 9.981e-10
 97.03238    130.7 1.131e+04 1.080e-09
 97.05255    131.2 1.133e+04 1.096e-09
 97.07271    131.7 1.132e+04 1.060e-09
 97.08804    132.0 1.129e+04 9.982e-10
 97.09813    132.0 1.127e+04 9.808e-10
 97.11304    132.0 1.126e+04 9.182e-10
 97.13321    131.8 1.128e+04 8.649e-10
 97.15337    131.3 1.131e+04 8.257e-10
 97.16798    130.5 1.145e+04 8.140e-10
 97.17806    130.2 1.144e+04 8.176e-10
 97.19370    128.8 1.158e+04 8.553e-10
 97.21387    126.9 1.183e+04 9.841e-10
 97.23404    124.7 1.209e+04 1.242e-09
 97.24792    122.7 1.239e+04 1.611e-09
 97.25800    122.5 1.216e+04 1.448e-09
 97.27437    120.9 1.244e+04 1.764e-09
 97.29453    119.4 1.281e+04 2.071e-09
 97.31470    117.8 1.326e+04 2.223e-09
 97.32785    115.7 1.335e+04 2.192e-09
 97.33793    115.6 1.295e+04 1.812e-09
 97.35503    113.5 1.292e+04 1.702e-09
 97.37519    111.6 1.258e+04 1.453e-09
 97.39536    110.1 1.213e+04 1.237e-09
 97.40779    108.9 1.167e+04 1.023e-09
 97.41787    109.1 1.154e+04 9.641e-10
 97.43569    108.8 1.145e+04 9.252e-10
 97.46604    108.3 1.108e+04 7.162e-10
 97.50646    108.4 1.064e+04 5.250e-10
 97.54680    109.0 1.027e+04 4.016e-10
 97.56785    110.2 1.000e+04 3.273e-10
 97.58441    110.6 1.009e+04 3.510e-10
 97.60368    110.5 1.030e+04 3.909e-10
 97.62746    111.7 1.006e+04 3.285e-10
 97.66779    113.2 9.877e+03 2.813e-10
 97.70756    114.7 9.725e+03 2.426e-10
 97.72772    114.9 9.813e+03 2.564e-10
 97.74845    116.4 9.684e+03 2.238e-10
 97.78878    118.0 9.616e+03 2.099e-10
 97.82911    119.7 9.621e+03 2.104e-10
 97.86743    121.3 9.675e+03 2.164e-10
 97.88759    121.5 9.790e+03 2.375e-10
 97.90977    122.9 9.966e+03 2.578e-10
 97.95011    124.3 1.039e+04 2.999e-10
 97.98026    125.2 1.066e+04 3.312e-10
 98.00032    125.5 1.094e+04 3.657e-10
 98.02049    125.4 1.123e+04 4.395e-10
 98.03718    125.4 1.145e+04 5.426e-10
 98.04727    125.4 1.145e+04 5.607e-10
 98.06082    125.6 1.159e+04 6.532e-10
 98.08099    125.7 1.175e+04 7.157e-10
 98.10115    125.6 1.192e+04 7.452e-10
 98.11712    125.3 1.211e+04 7.608e-10
 98.12720    125.4 1.208e+04 7.842e-10
 98.14148    124.8 1.227e+04 8.087e-10
 98.16165    123.8 1.248e+04 8.695e-10
 98.17867    122.6 1.267e+04 9.927e-10
 98.18875    120.9 1.278e+04 1.164e-09
 98.19705    119.9 1.290e+04 1.340e-09
 98.20714    120.1 1.295e+04 1.347e-09
 98.22214    119.4 1.309e+04 1.530e-09
 98.24231    118.7 1.323e+04 1.695e-09
 98.26248    117.8 1.343e+04 1.788e-09
 98.27699    116.3 1.380e+04 1.890e-09
 98.28707    116.4 1.392e+04 2.032e-09
 98.30281    114.1 1.451e+04 2.356e-09
 98.32297    111.1 1.538e+04 3.108e-09
 98.34314    108.2 1.616e+04 4.413e-09
 98.35692    105.8 1.680e+04 6.075e-09
 98.36701    106.6 1.678e+04 5.945e-09
 98.38347    104.3 1.675e+04 6.531e-09
 98.40363    102.2 1.661e+04 6.307e-09
 98.42380    100.5 1.612e+04 5.406e-09
 98.43686     99.0 1.531e+04 4.002e-09
 98.44694     99.3 1.531e+04 4.122e-09
 98.46413     98.2 1.433e+04 2.785e-09
 98.48430     97.2 1.332e+04 1.770e-09
 98.50446     96.1 1.254e+04 1.106e-09
 98.51679     94.8 1.193e+04 7.076e-10
 98.52688     95.1 1.210e+04 7.675e-10
 98.54479     93.5 1.156e+04 5.281e-10
 98.56496     92.3 1.101e+04 4.780e-10
 98.58512     92.0 1.100e+04 4.790e-10
 98.59673     91.8 1.102e+04 4.974e-10
 98.60681     91.3 1.132e+04 5.827e-10
 98.62545     91.0 1.150e+04 6.760e-10
 98.64562     90.8 1.182e+04 8.373e-10
 98.66578     90.6 1.222e+04 1.071e-09
 98.67666     90.1 1.283e+04 1.452e-09
 98.68675     88.7 1.368e+04 1.989e-09
 98.70612     86.6 1.552e+04 3.270e-09
 98.72628     83.9 1.760e+04 6.074e-09
 98.74645     81.8 1.872e+04 1.001e-08
 98.76392     79.2 1.864e+04 1.109e-08
 98.77401     78.7 1.902e+04 1.332e-08
 98.78678     77.9 1.838e+04 1.041e-08
 98.80694     76.1 1.754e+04 7.163e-09
 98.82645     73.4 1.630e+04 4.297e-09
 98.83653     71.0 1.506e+04 2.875e-09
 98.84727     68.2 1.371e+04 1.985e-09
 98.86744     66.7 1.290e+04 1.568e-09
 98.88761     66.2 1.248e+04 1.336e-09
 98.90639     66.1 1.213e+04 1.144e-09
 98.91647     66.0 1.198e+04 1.107e-09
 98.92794     66.0 1.158e+04 9.135e-10
 98.94810     66.1 1.116e+04 6.959e-10
 98.96827     65.8 1.086e+04 5.523e-10
 98.98632     65.7 1.050e+04 4.087e-10
 99.00658     65.5 1.021e+04 3.269e-10
 99.03904     65.5 9.777e+03 2.379e-10
 99.07937     65.6 9.740e+03 2.359e-10
 99.11970     65.7 9.989e+03 2.791e-10
 99.14639     66.2 1.015e+04 3.261e-10
 99.16655     66.8 9.681e+03 2.203e-10
 99.20037     67.1 9.853e+03 2.565e-10
 99.24070     67.4 9.898e+03 2.794e-10
 99.28103     67.8 9.980e+03 3.102e-10
 99.30626     68.4 1.011e+04 3.524e-10
 99.32642     69.9 9.783e+03 2.897e-10
 99.34928     70.2 1.008e+04 3.504e-10
 99.35927     70.4 9.930e+03 3.368e-10
 99.37158     70.7 1.014e+04 3.971e-10
 99.38600     70.9 1.049e+04 4.885e-10
 99.39608     72.0 1.032e+04 4.446e-10
 99.41191     72.0 1.087e+04 5.741e-10
 99.43207     71.4 1.165e+04 8.247e-10
 99.45224     69.3 1.313e+04 1.515e-09
 99.46593     65.2 1.596e+04 4.132e-09
 99.47601     66.3 1.642e+04 4.054e-09
 99.49257     62.2 1.892e+04 1.153e-08
 99.50585     61.9 1.928e+04 1.829e-08
 99.51084     61.8 1.953e+04 2.008e-08
 99.51768     62.5 1.974e+04 2.679e-08
 99.52776     63.2 1.993e+04 2.746e-08
 99.53784     62.9 2.010e+04 2.684e-08
 99.54577     62.8 2.012e+04 2.034e-08
 99.55081     63.5 2.062e+04 2.592e-08
 99.55801     62.5 2.085e+04 1.960e-08
 99.57318     59.6 2.173e+04 1.230e-08
 99.59340     48.4 2.099e+04 7.744e-09
 99.61356     41.7 1.739e+04 7.547e-09
 99.62580     41.0 1.637e+04 9.321e-09
 99.63589     41.1 1.668e+04 9.306e-09
 99.65389     41.3 1.722e+04 9.023e-09
 99.67406     39.8 1.833e+04 7.549e-09
 99.69422     37.1 1.769e+04 5.625e-09
 99.70574     34.0 1.562e+04 3.864e-09
 99.71073     34.4 1.604e+04 4.369e-09
 99.71933     34.1 1.572e+04 4.222e-09
 99.73451     32.3 1.429e+04 2.938e-09
 99.75472     31.2 1.304e+04 1.958e-09
 99.77489     30.1 1.225e+04 1.370e-09
 99.78567     29.3 1.154e+04 9.571e-10
 99.79576     28.6 1.131e+04 8.306e-10
 99.81522     28.1 1.062e+04 6.003e-10
 99.83538     27.9 1.018e+04 4.615e-10
 99.85552     28.2 9.944e+03 3.730e-10
 99.87569     28.2 9.917e+03 3.544e-10
 99.89588     27.8 1.029e+04 3.802e-10
 99.91605     23.9 1.267e+04 6.130e-10
 99.93444     17.7 1.556e+04 1.742e-09
 99.94378     22.2 1.258e+04 8.131e-10
 99.94554     21.5 1.298e+04 1.035e-09
 99.95638     18.9 1.456e+04 2.636e-09
 99.97654     17.7 1.630e+04 5.887e-09
 99.99671     15.9 1.860e+04 1.101e-08
