# Columns:
#   distance along LOS (in CHIMPs)
#   peculiar velocity  (in km/s)
#   temperature (K)
#   HI number density
# pos=(170.433,225.254,75.0021), angles=(1.49038,4.63776)
  0.00051    145.5 1.160e+04 5.628e-10
  0.02067    146.0 1.160e+04 5.214e-10
  0.05996    146.5 1.157e+04 4.855e-10
  0.09926    147.2 1.151e+04 4.418e-10
  0.13856    148.1 1.143e+04 3.823e-10
  0.17786    149.2 1.135e+04 3.192e-10
  0.21716    150.4 1.129e+04 2.742e-10
  0.25646    151.8 1.128e+04 2.642e-10
  0.29576    153.2 1.130e+04 2.649e-10
  0.33505    154.4 1.135e+04 2.777e-10
  0.36967    155.6 1.141e+04 3.005e-10
  0.38932    154.8 1.127e+04 2.444e-10
  0.41365    155.8 1.130e+04 2.629e-10
  0.45295    156.7 1.137e+04 2.895e-10
  0.47762    157.2 1.148e+04 3.295e-10
  0.49727    157.5 1.160e+04 3.068e-10
  0.53155    157.5 1.165e+04 3.982e-10
  0.57085    157.5 1.170e+04 5.113e-10
  0.61014    157.3 1.173e+04 5.753e-10
  0.64944    156.7 1.172e+04 5.685e-10
  0.68874    156.3 1.159e+04 5.295e-10
  0.72804    156.2 1.136e+04 4.542e-10
  0.76734    156.4 1.110e+04 3.773e-10
  0.80664    157.0 1.086e+04 3.222e-10
  0.84593    157.9 1.070e+04 2.912e-10
  0.88523    159.1 1.059e+04 2.769e-10
  0.90757    160.3 1.052e+04 2.684e-10
  0.92721    159.9 1.042e+04 2.588e-10
  0.95656    160.9 1.034e+04 2.429e-10
  0.97621    160.4 1.029e+04 1.837e-10
  1.00313    161.2 1.023e+04 1.549e-10
  1.04243    162.0 1.012e+04 1.388e-10
  1.08173    162.9 1.009e+04 1.378e-10
  1.12102    163.8 1.009e+04 1.406e-10
  1.16032    164.8 1.012e+04 1.573e-10
  1.19962    165.7 1.023e+04 1.966e-10
  1.23892    166.5 1.038e+04 2.604e-10
  1.27822    167.3 1.054e+04 3.503e-10
  1.31752    168.1 1.068e+04 4.593e-10
  1.35682    168.8 1.080e+04 5.597e-10
  1.39611    169.4 1.089e+04 5.975e-10
  1.42581    169.8 1.089e+04 5.930e-10
  1.44546    169.1 1.086e+04 5.832e-10
  1.47471    169.3 1.070e+04 4.550e-10
  1.51401    170.1 1.058e+04 3.731e-10
  1.55331    170.9 1.046e+04 3.030e-10
  1.59261    171.9 1.029e+04 2.655e-10
  1.63191    173.0 1.014e+04 2.612e-10
  1.67120    174.3 1.013e+04 2.615e-10
  1.71050    175.7 1.010e+04 2.701e-10
  1.74980    177.1 1.009e+04 2.989e-10
  1.78910    178.6 1.015e+04 3.557e-10
  1.82840    180.0 1.031e+04 4.481e-10
  1.86770    181.3 1.056e+04 5.663e-10
  1.90700    182.3 1.085e+04 6.519e-10
  1.93408    182.8 1.094e+04 6.560e-10
  1.95148    183.2 1.084e+04 5.894e-10
  1.96370    183.2 1.102e+04 7.405e-10
  1.98559    183.5 1.111e+04 7.463e-10
  2.02489    183.9 1.111e+04 7.162e-10
  2.06419    184.4 1.102e+04 6.006e-10
  2.10349    185.1 1.088e+04 4.467e-10
  2.14279    186.0 1.070e+04 3.233e-10
  2.18208    187.1 1.055e+04 2.786e-10
  2.22138    188.6 1.054e+04 2.792e-10
  2.26068    190.2 1.056e+04 2.868e-10
  2.29998    191.9 1.063e+04 3.121e-10
  2.33928    193.5 1.073e+04 3.485e-10
  2.37858    195.1 1.083e+04 3.937e-10
  2.41301    196.5 1.092e+04 4.373e-10
  2.43257    196.2 1.124e+04 6.264e-10
  2.44715    196.8 1.129e+04 6.385e-10
  2.46680    197.4 1.135e+04 6.388e-10
  2.48174    197.8 1.138e+04 6.320e-10
  2.49157    197.5 1.140e+04 6.826e-10
  2.50610    198.0 1.142e+04 6.572e-10
  2.52575    198.4 1.142e+04 6.282e-10
  2.54540    198.5 1.142e+04 6.048e-10
  2.57497    199.0 1.145e+04 5.870e-10
  2.61437    200.1 1.123e+04 5.134e-10
  2.65367    201.4 1.101e+04 4.393e-10
  2.69297    202.7 1.082e+04 3.693e-10
  2.73226    203.9 1.070e+04 3.113e-10
  2.77156    205.1 1.064e+04 2.792e-10
  2.81086    206.3 1.063e+04 2.780e-10
  2.85016    207.1 1.067e+04 2.856e-10
  2.88946    207.4 1.090e+04 3.131e-10
  2.91160    207.3 1.115e+04 3.500e-10
  2.92133    206.9 1.178e+04 5.727e-10
  2.93839    206.8 1.192e+04 6.707e-10
  2.95804    206.6 1.204e+04 8.119e-10
  2.97768    206.2 1.216e+04 9.815e-10
  3.00008    205.7 1.239e+04 1.353e-09
  3.01973    205.0 1.261e+04 1.735e-09
  3.04655    204.2 1.315e+04 2.304e-09
  3.08595    202.6 1.339e+04 2.357e-09
  3.12525    200.1 1.339e+04 2.177e-09
  3.16455    197.1 1.309e+04 1.541e-09
  3.20385    194.3 1.228e+04 8.452e-10
  3.24315    191.9 1.120e+04 4.015e-10
  3.28244    190.2 1.017e+04 2.046e-10
  3.32174    189.6 1.001e+04 1.604e-10
  3.36104    189.5 9.998e+03 1.594e-10
  3.39054    189.7 9.991e+03 1.592e-10
  3.41019    188.8 9.922e+03 1.644e-10
  3.43964    189.0 9.905e+03 1.689e-10
  3.47894    189.2 9.914e+03 1.811e-10
  3.51823    189.1 9.963e+03 2.031e-10
  3.55753    189.0 1.016e+04 2.520e-10
  3.59683    188.5 1.037e+04 3.200e-10
  3.62621    188.1 1.050e+04 3.670e-10
  3.63963    188.0 1.060e+04 4.071e-10
  3.64946    187.5 1.060e+04 4.262e-10
  3.66541    187.0 1.080e+04 5.561e-10
  3.68506    186.7 1.101e+04 7.165e-10
  3.70471    186.3 1.125e+04 8.234e-10
  3.72436    185.8 1.155e+04 8.255e-10
  3.74401    185.0 1.163e+04 8.119e-10
  3.76366    183.9 1.171e+04 8.015e-10
  3.78330    182.5 1.176e+04 8.081e-10
  3.79699    180.9 1.180e+04 8.618e-10
  3.80682    180.9 1.180e+04 7.862e-10
  3.82260    179.4 1.184e+04 8.897e-10
  3.84225    178.3 1.197e+04 1.111e-09
  3.86190    177.6 1.218e+04 1.394e-09
  3.87910    177.1 1.239e+04 1.600e-09
  3.88893    176.5 1.229e+04 1.533e-09
  3.90120    175.8 1.253e+04 1.563e-09
  3.92085    174.8 1.267e+04 1.493e-09
  3.94050    173.4 1.281e+04 1.372e-09
  3.96015    171.5 1.294e+04 1.364e-09
  3.97980    168.6 1.364e+04 1.525e-09
  3.99945    164.8 1.522e+04 2.345e-09
  4.01910    161.7 1.654e+04 4.459e-09
  4.03875    160.0 1.729e+04 7.900e-09
  4.05611    159.2 1.776e+04 1.123e-08
  4.06594    157.8 1.816e+04 1.285e-08
  4.07804    157.0 1.792e+04 1.162e-08
  4.09769    156.0 1.744e+04 8.877e-09
  4.11734    154.9 1.666e+04 5.526e-09
  4.12839    153.1 1.565e+04 3.006e-09
  4.13822    152.7 1.549e+04 2.794e-09
  4.15664    150.2 1.433e+04 1.733e-09
  4.17629    148.0 1.349e+04 1.293e-09
  4.19594    146.4 1.299e+04 1.134e-09
  4.22551    143.0 1.230e+04 9.061e-10
  4.26491    140.1 1.182e+04 8.607e-10
  4.30421    137.1 1.154e+04 7.805e-10
  4.34350    133.9 1.147e+04 6.293e-10
  4.36806    130.4 1.128e+04 4.761e-10
  4.38771    127.7 1.105e+04 3.544e-10
  4.42210    124.7 1.070e+04 3.021e-10
  4.46140    122.6 1.053e+04 2.864e-10
  4.50070    121.1 1.044e+04 2.703e-10
  4.54000    119.9 1.031e+04 2.384e-10
  4.57455    119.2 1.014e+04 1.927e-10
  4.59420    118.4 9.958e+03 1.380e-10
  4.61859    118.1 9.850e+03 9.745e-11
  4.65789    117.9 9.746e+03 6.574e-11
  4.69719    117.6 9.584e+03 4.847e-11
  4.73649    117.5 9.406e+03 4.613e-11
  4.77579    117.7 9.379e+03 4.683e-11
  4.81509    118.4 9.318e+03 5.232e-11
  4.84699    119.2 9.327e+03 6.933e-11
  4.86664    119.2 9.347e+03 8.476e-11
  4.89368    120.2 9.507e+03 1.212e-10
  4.93298    121.3 9.761e+03 1.756e-10
  4.97228    122.4 1.007e+04 2.447e-10
  5.01158    123.4 1.034e+04 3.111e-10
  5.04096    123.8 1.045e+04 3.401e-10
  5.06051    123.8 1.054e+04 3.640e-10
  5.08016    123.6 1.071e+04 4.130e-10
  5.09609    122.7 1.112e+04 5.780e-10
  5.10592    122.4 1.113e+04 5.962e-10
  5.11224    120.4 1.246e+04 1.131e-09
  5.12207    118.4 1.420e+04 1.832e-09
  5.13910    116.4 1.617e+04 4.647e-09
  5.15875    115.6 1.719e+04 8.340e-09
  5.17840    114.8 1.734e+04 8.943e-09
  5.19805    114.2 1.710e+04 7.984e-09
  5.21770    114.0 1.625e+04 4.755e-09
  5.23735    113.2 1.514e+04 1.930e-09
  5.25700    111.5 1.365e+04 7.189e-10
  5.28657    107.0 1.178e+04 2.123e-10
  5.32593    104.5 1.042e+04 1.456e-10
  5.36523    105.0 1.011e+04 1.496e-10
  5.40456    106.3 9.958e+03 1.292e-10
  5.44386    107.9 9.801e+03 1.155e-10
  5.48316    109.4 9.646e+03 1.126e-10
  5.52246    110.9 9.621e+03 1.151e-10
  5.56176    112.3 9.599e+03 1.275e-10
  5.60106    113.8 9.670e+03 1.530e-10
  5.63068    115.2 9.817e+03 1.898e-10
  5.65033    114.5 1.007e+04 2.813e-10
  5.67965    115.8 1.031e+04 3.590e-10
  5.71895    117.1 1.052e+04 4.284e-10
  5.75825    118.4 1.064e+04 4.513e-10
  5.79755    119.6 1.066e+04 4.434e-10
  5.82451    120.9 1.064e+04 4.030e-10
  5.84416    120.8 1.054e+04 3.745e-10
  5.87615    122.1 1.044e+04 3.166e-10
  5.91545    123.3 1.039e+04 2.901e-10
  5.95474    124.6 1.039e+04 2.914e-10
  5.99404    125.8 1.042e+04 3.006e-10
  6.03334    127.1 1.052e+04 3.098e-10
  6.07264    128.3 1.056e+04 3.092e-10
  6.11194    129.4 1.056e+04 2.920e-10
  6.14892    130.5 1.043e+04 2.580e-10
  6.16857    128.7 1.011e+04 1.881e-10
  6.19053    129.5 1.010e+04 1.703e-10
  6.22983    130.2 1.017e+04 1.612e-10
  6.26913    130.9 1.019e+04 1.616e-10
  6.30345    131.7 1.022e+04 1.640e-10
  6.32310    132.9 1.011e+04 1.510e-10
  6.34773    133.8 1.018e+04 1.581e-10
  6.38703    134.6 1.038e+04 1.840e-10
  6.42633    134.6 1.065e+04 2.237e-10
  6.45570    134.3 1.084e+04 2.615e-10
  6.47525    133.9 1.123e+04 3.472e-10
  6.49490    133.2 1.198e+04 5.745e-10
  6.51455    132.5 1.289e+04 1.052e-09
  6.53420    132.0 1.382e+04 1.883e-09
  6.55255    131.7 1.472e+04 2.961e-09
  6.56237    133.5 1.414e+04 2.446e-09
  6.57350    133.5 1.510e+04 3.436e-09
  6.59315    133.3 1.624e+04 3.641e-09
  6.61280    132.8 1.653e+04 3.512e-09
  6.63245    131.8 1.712e+04 2.826e-09
  6.65210    129.7 1.716e+04 1.808e-09
  6.67175    125.6 1.588e+04 1.130e-09
  6.68662    120.4 1.402e+04 1.046e-09
  6.69644    124.3 2.126e+04 1.607e-09
  6.71104    115.6 2.120e+04 1.689e-09
  6.73069    107.1 1.936e+04 2.387e-09
  6.75034    100.7 1.856e+04 3.891e-09
  6.76999     96.2 1.888e+04 5.008e-09
  6.78964     92.6 1.876e+04 4.997e-09
  6.80184     89.5 1.788e+04 4.571e-09
  6.81167     88.7 2.024e+04 7.210e-09
  6.82894     85.5 1.820e+04 6.185e-09
  6.84859     83.3 1.608e+04 5.227e-09
  6.86824     82.9 1.554e+04 5.106e-09
  6.88789     83.3 1.549e+04 5.396e-09
  6.90754     84.0 1.593e+04 6.016e-09
  6.92153     84.4 1.660e+04 5.749e-09
  6.92639     83.8 1.740e+04 6.304e-09
  6.93200     83.7 1.836e+04 6.581e-09
  6.94183     83.6 1.923e+04 7.090e-09
  6.95055     83.4 1.995e+04 7.627e-09
  6.95551     82.7 1.787e+04 3.810e-09
  6.96649     81.4 1.761e+04 4.015e-09
  6.98613     78.7 1.742e+04 4.989e-09
  7.00578     75.7 1.776e+04 7.390e-09
  7.02543     73.9 1.824e+04 1.054e-08
  7.04131     72.8 1.837e+04 1.328e-08
  7.05113     71.8 1.781e+04 1.179e-08
  7.06473     71.4 1.773e+04 1.172e-08
  7.08438     71.7 1.720e+04 1.034e-08
  7.10403     72.4 1.628e+04 7.275e-09
  7.12368     72.6 1.531e+04 4.438e-09
  7.14333     72.3 1.448e+04 2.623e-09
  7.16298     71.7 1.378e+04 1.799e-09
  7.18263     71.6 1.340e+04 1.675e-09
  7.20228     72.0 1.331e+04 1.671e-09
  7.21468     73.0 1.329e+04 1.692e-09
  7.22451     72.3 1.290e+04 1.433e-09
  7.24157     73.5 1.290e+04 1.466e-09
  7.26122     74.5 1.303e+04 1.523e-09
  7.28078     75.5 1.317e+04 1.509e-09
  7.30043     76.5 1.340e+04 1.685e-09
  7.32017     77.2 1.343e+04 1.627e-09
  7.33982     77.8 1.344e+04 1.460e-09
  7.35947     78.1 1.332e+04 1.243e-09
  7.37912     78.0 1.311e+04 1.013e-09
  7.40869     77.7 1.302e+04 1.014e-09
  7.44809     77.8 1.310e+04 1.080e-09
  7.48739     78.1 1.321e+04 1.281e-09
  7.52668     78.4 1.323e+04 1.404e-09
  7.56598     78.8 1.308e+04 1.322e-09
  7.60528     79.3 1.260e+04 1.032e-09
  7.64458     80.1 1.205e+04 6.856e-10
  7.68388     80.7 1.152e+04 4.408e-10
  7.72318     81.1 1.110e+04 3.335e-10
  7.75991     81.9 1.074e+04 2.548e-10
  7.77956     81.4 1.059e+04 2.603e-10
  7.80177     83.0 1.050e+04 2.367e-10
  7.84107     84.6 1.047e+04 2.106e-10
  7.88037     86.1 1.049e+04 1.853e-10
  7.91967     87.4 1.050e+04 1.690e-10
  7.95897     88.8 1.050e+04 1.670e-10
  7.99827     90.2 1.051e+04 1.691e-10
  8.03757     91.6 1.055e+04 1.828e-10
  8.07686     92.9 1.064e+04 2.270e-10
  8.11616     94.1 1.080e+04 3.226e-10
  8.15546     95.1 1.115e+04 5.145e-10
  8.19476     96.2 1.157e+04 8.035e-10
  8.23406     96.8 1.194e+04 1.102e-09
  8.25849     96.9 1.204e+04 1.162e-09
  8.26597     96.5 1.220e+04 1.280e-09
  8.28083     96.5 1.211e+04 1.203e-09
  8.31266     96.5 1.207e+04 1.186e-09
  8.35195     96.6 1.186e+04 1.062e-09
  8.39125     97.0 1.163e+04 9.352e-10
  8.43055     97.5 1.141e+04 8.343e-10
  8.46985     98.3 1.118e+04 7.373e-10
  8.50915     99.4 1.094e+04 6.368e-10
  8.54845    100.9 1.069e+04 5.272e-10
  8.58774    102.5 1.042e+04 4.160e-10
  8.62704    104.2 1.015e+04 3.170e-10
  8.66634    105.9 9.908e+03 2.420e-10
  8.70564    107.7 9.721e+03 1.933e-10
  8.73743    109.5 9.576e+03 1.641e-10
  8.75708    109.1 9.374e+03 1.289e-10
  8.77943    111.0 9.248e+03 1.119e-10
  8.79907    110.7 9.166e+03 1.008e-10
  8.82354    112.8 9.049e+03 8.978e-11
  8.86283    115.0 8.935e+03 7.849e-11
  8.90213    117.1 8.832e+03 6.733e-11
  8.94143    119.1 8.755e+03 5.715e-11
  8.98073    121.1 8.692e+03 4.892e-11
  9.02003    123.1 8.611e+03 4.339e-11
  9.05933    125.0 8.487e+03 4.115e-11
  9.09863    127.0 8.433e+03 4.132e-11
  9.13792    129.1 8.415e+03 4.193e-11
  9.17722    131.1 8.373e+03 4.451e-11
  9.21637    133.1 8.335e+03 5.069e-11
  9.25566    134.7 8.302e+03 6.181e-11
  9.29512    136.8 8.342e+03 8.296e-11
  9.31732    138.8 8.483e+03 1.169e-10
  9.33696    138.5 8.532e+03 1.227e-10
  9.37372    140.4 8.734e+03 1.692e-10
  9.41301    142.0 8.984e+03 2.303e-10
  9.45231    143.5 9.209e+03 2.967e-10
  9.49161    144.7 9.342e+03 3.427e-10
  9.53091    145.7 9.354e+03 3.451e-10
  9.57021    146.7 9.309e+03 3.357e-10
  9.60951    147.8 9.169e+03 3.139e-10
  9.64881    149.0 9.076e+03 3.054e-10
  9.68810    150.4 9.090e+03 3.099e-10
  9.71495    151.8 9.198e+03 3.383e-10
  9.73460    150.8 9.118e+03 3.186e-10
  9.76670    152.0 9.284e+03 3.605e-10
  9.80600    152.6 9.397e+03 4.032e-10
  9.83538    153.3 9.472e+03 4.522e-10
  9.85493    153.2 9.500e+03 4.846e-10
  9.87458    153.8 9.658e+03 5.644e-10
  9.89423    154.3 9.819e+03 6.467e-10
  9.91387    154.6 9.940e+03 7.104e-10
  9.93352    154.8 1.003e+04 7.539e-10
  9.95317    155.1 1.012e+04 7.814e-10
  9.96405    155.2 1.022e+04 7.992e-10
  9.97387    154.7 1.025e+04 7.923e-10
  9.99247    154.5 1.036e+04 7.982e-10
 10.01212    154.1 1.050e+04 8.146e-10
 10.03177    153.3 1.074e+04 8.618e-10
 10.05142    152.2 1.101e+04 9.519e-10
 10.07107    150.8 1.137e+04 1.102e-09
 10.09072    149.1 1.189e+04 1.377e-09
 10.10431    147.2 1.251e+04 1.789e-09
 10.11413    145.1 1.257e+04 1.924e-09
 10.13002    143.3 1.299e+04 2.192e-09
 10.14967    141.2 1.303e+04 2.174e-09
 10.16932    138.8 1.299e+04 2.005e-09
 10.18896    136.0 1.271e+04 1.594e-09
 10.20352    132.4 1.230e+04 1.145e-09
 10.21334    131.6 1.265e+04 1.240e-09
 10.22826    127.0 1.207e+04 9.602e-10
 10.24791    122.2 1.181e+04 9.618e-10
 10.26756    118.2 1.177e+04 1.029e-09
 10.28721    115.1 1.191e+04 1.227e-09
 10.30686    112.6 1.223e+04 1.479e-09
 10.32651    110.1 1.261e+04 1.710e-09
 10.34616    107.4 1.297e+04 1.818e-09
 10.36343    104.3 1.303e+04 1.806e-09
 10.37325    104.9 1.335e+04 2.021e-09
 10.38546    101.6 1.333e+04 1.954e-09
 10.40511     98.5 1.310e+04 1.659e-09
 10.42476     95.3 1.270e+04 1.198e-09
 10.44298     91.6 1.224e+04 8.204e-10
 10.45281     92.8 1.198e+04 7.528e-10
 10.46405     89.0 1.174e+04 6.659e-10
 10.48370     85.2 1.176e+04 6.792e-10
 10.50335     81.2 1.197e+04 7.790e-10
 10.52300     77.3 1.260e+04 1.138e-09
 10.54265     74.1 1.336e+04 1.823e-09
 10.56230     71.8 1.395e+04 2.653e-09
 10.58195     70.1 1.427e+04 3.035e-09
 10.60160     68.3 1.425e+04 2.988e-09
 10.62125     66.5 1.400e+04 2.705e-09
 10.63237     64.6 1.348e+04 2.299e-09
 10.64220     64.3 1.361e+04 2.405e-09
 10.66055     62.6 1.311e+04 2.154e-09
 10.68020     61.3 1.279e+04 2.038e-09
 10.69228     60.6 1.269e+04 2.019e-09
 10.70210     62.1 1.250e+04 1.985e-09
 10.71949     61.6 1.244e+04 1.985e-09
 10.73914     61.3 1.243e+04 1.980e-09
 10.75879     61.1 1.242e+04 1.943e-09
 10.77844     60.9 1.241e+04 1.854e-09
 10.79809     60.6 1.240e+04 1.733e-09
 10.81774     60.2 1.229e+04 1.574e-09
 10.83739     59.8 1.217e+04 1.416e-09
 10.85704     59.8 1.191e+04 1.230e-09
 10.87669     59.7 1.179e+04 1.148e-09
 10.89159     60.5 1.153e+04 1.001e-09
 10.91134     60.1 1.143e+04 8.174e-10
 10.94566     60.4 1.085e+04 4.954e-10
 10.98496     60.9 1.029e+04 2.855e-10
 11.02425     61.5 9.855e+03 1.768e-10
 11.06355     62.5 9.596e+03 1.386e-10
 11.10285     63.9 9.540e+03 1.372e-10
 11.14215     65.7 9.561e+03 1.402e-10
 11.17141     67.5 9.678e+03 1.538e-10
 11.19106     67.5 9.588e+03 1.298e-10
 11.22075     69.2 9.734e+03 1.501e-10
 11.26004     70.9 9.944e+03 1.810e-10
 11.29934     72.6 1.020e+04 2.168e-10
 11.33864     74.1 1.043e+04 2.462e-10
 11.37794     75.4 1.059e+04 2.641e-10
 11.40993     76.4 1.066e+04 2.723e-10
 11.42958     76.8 1.054e+04 2.405e-10
 11.45654     77.2 1.068e+04 2.559e-10
 11.48591     76.9 1.072e+04 2.641e-10
 11.50547     76.2 1.085e+04 2.955e-10
 11.52511     75.0 1.107e+04 4.078e-10
 11.54476     72.9 1.171e+04 6.918e-10
 11.56441     69.3 1.333e+04 1.392e-09
 11.58406     64.9 1.520e+04 2.746e-09
 11.60371     60.7 1.604e+04 4.353e-09
 11.62336     57.2 1.585e+04 4.725e-09
 11.64301     54.6 1.537e+04 4.444e-09
 11.65997     52.8 1.450e+04 3.505e-09
 11.66980     53.8 1.403e+04 2.891e-09
 11.67868     52.4 1.339e+04 2.399e-09
 11.68850     52.1 1.313e+04 2.023e-09
 11.70196     51.0 1.266e+04 1.678e-09
 11.72161     50.3 1.238e+04 1.526e-09
 11.74126     50.0 1.220e+04 1.438e-09
 11.76091     49.8 1.223e+04 1.458e-09
 11.78055     49.1 1.265e+04 1.618e-09
 11.80020     47.4 1.378e+04 2.195e-09
 11.81985     45.1 1.496e+04 3.581e-09
 11.83950     43.8 1.566e+04 5.853e-09
 11.85915     44.0 1.606e+04 8.476e-09
 11.87880     44.3 1.627e+04 9.353e-09
 11.89845     44.9 1.620e+04 8.863e-09
 11.90927     45.7 1.603e+04 6.775e-09
 11.91909     45.1 1.547e+04 4.033e-09
 11.93775     43.2 1.501e+04 2.206e-09
 11.95740     34.4 1.125e+04 5.496e-10
 11.97705     31.7 9.684e+03 4.125e-10
 11.99670     31.3 9.425e+03 3.826e-10
 12.01635     31.3 9.363e+03 3.713e-10
 12.03600     31.2 9.352e+03 3.576e-10
 12.05564     31.0 9.332e+03 3.484e-10
 12.08522     30.9 9.241e+03 3.192e-10
 12.12461     31.1 8.924e+03 2.525e-10
 12.14893     30.7 8.609e+03 1.881e-10
 12.16858     30.9 8.712e+03 2.000e-10
 12.20321     29.9 8.713e+03 1.851e-10
 12.24251     28.4 8.816e+03 1.975e-10
 12.28181     26.8 9.139e+03 2.568e-10
 12.32110     25.5 9.536e+03 3.592e-10
 12.35048     24.6 9.738e+03 4.402e-10
 12.37003     23.9 9.966e+03 5.421e-10
 12.38820     23.4 1.018e+04 6.494e-10
 12.39803     23.7 1.009e+04 6.369e-10
 12.40933     23.7 1.019e+04 6.975e-10
 12.42898     23.8 1.024e+04 7.243e-10
 12.44863     23.8 1.032e+04 7.154e-10
 12.46586     23.8 1.041e+04 6.975e-10
 12.47569     23.6 1.043e+04 6.883e-10
 12.48793     23.3 1.057e+04 6.912e-10
 12.50758     22.7 1.072e+04 7.184e-10
 12.52723     22.3 1.086e+04 7.692e-10
 12.54688     22.2 1.096e+04 8.275e-10
 12.56653     22.2 1.102e+04 8.661e-10
 12.59610     21.8 1.124e+04 9.254e-10
 12.62787     21.7 1.133e+04 8.790e-10
 12.64751     24.3 1.109e+04 8.368e-10
 12.66487     24.3 1.134e+04 9.337e-10
 12.68442     24.4 1.155e+04 9.853e-10
 12.70407     24.4 1.172e+04 1.035e-09
 12.72372     24.2 1.186e+04 1.079e-09
 12.73481     23.9 1.186e+04 1.076e-09
 12.74463     23.3 1.177e+04 1.050e-09
 12.76302     23.2 1.144e+04 9.695e-10
 12.78267     23.1 1.104e+04 8.544e-10
 12.80232     22.8 1.074e+04 7.204e-10
 12.82197     21.9 1.062e+04 5.995e-10
 12.84162     20.1 1.056e+04 5.448e-10
 12.86126     18.0 1.031e+04 5.489e-10
 12.87696     16.7 1.005e+04 5.825e-10
 12.88679     19.1 1.050e+04 6.070e-10
 12.90056     17.6 1.006e+04 6.230e-10
 12.92021     16.7 9.946e+03 6.557e-10
 12.93986     16.0 9.993e+03 6.953e-10
 12.95951     15.1 1.017e+04 7.406e-10
 12.97916     13.8 1.049e+04 8.086e-10
 12.99393      8.7 1.256e+04 1.196e-09
 13.00375      9.6 1.214e+04 1.161e-09
 13.01846      1.2 1.468e+04 2.516e-09
 13.03811     -0.6 1.409e+04 4.035e-09
 13.05776     -1.4 1.376e+04 4.115e-09
 13.07741     -1.8 1.340e+04 3.495e-09
 13.09706     -5.5 1.476e+04 2.581e-09
 13.11643    -15.3 1.418e+04 1.001e-09
 13.12626    -11.5 1.543e+04 1.461e-09
 13.13635    -27.1 1.068e+04 5.834e-10
 13.15600    -32.2 9.343e+03 4.883e-10
 13.17565    -34.0 9.240e+03 5.035e-10
 13.19530    -34.9 9.291e+03 5.109e-10
 13.21495    -35.3 9.343e+03 4.838e-10
 13.23460    -35.6 9.195e+03 4.205e-10
 13.25305    -35.8 9.022e+03 3.782e-10
 13.26287    -36.1 8.990e+03 3.839e-10
 13.27390    -35.8 8.914e+03 3.682e-10
 13.29355    -35.3 8.889e+03 3.710e-10
 13.31320    -34.9 9.147e+03 4.230e-10
 13.33285    -34.5 9.633e+03 5.581e-10
 13.35250    -34.2 1.029e+04 8.016e-10
 13.36572    -33.8 1.110e+04 1.214e-09
 13.37555    -34.1 1.122e+04 1.268e-09
 13.39179    -33.5 1.225e+04 2.003e-09
 13.41144    -32.7 1.335e+04 3.096e-09
 13.43109    -31.7 1.431e+04 4.424e-09
 13.45074    -30.3 1.516e+04 5.851e-09
 13.47039    -29.1 1.582e+04 7.069e-09
 13.49004    -27.9 1.634e+04 7.908e-09
 13.50969    -27.0 1.674e+04 8.194e-09
 13.52199    -26.6 1.707e+04 7.816e-09
 13.53182    -25.8 1.773e+04 1.011e-08
 13.54899    -25.6 1.830e+04 1.053e-08
 13.56864    -25.6 1.864e+04 1.010e-08
 13.58829    -25.6 1.856e+04 8.708e-09
 13.60519    -25.6 1.777e+04 6.687e-09
 13.61502    -25.3 1.829e+04 1.012e-08
 13.62759    -25.3 1.752e+04 6.682e-09
 13.64723    -26.9 1.765e+04 4.614e-09
 13.66688    -31.1 1.969e+04 3.875e-09
 13.68653    -36.9 2.006e+04 4.935e-09
 13.70618    -40.2 1.783e+04 7.376e-09
 13.72583    -40.9 1.712e+04 9.189e-09
 13.74548    -39.9 1.690e+04 9.141e-09
 13.76513    -38.5 1.610e+04 5.818e-09
 13.78112    -39.0 1.410e+04 2.120e-09
 13.79094    -39.2 1.447e+04 2.199e-09
 13.80443    -44.7 1.193e+04 7.920e-10
 13.82408    -46.9 1.044e+04 4.955e-10
 13.84373    -47.0 1.005e+04 4.192e-10
 13.85448    -46.5 9.829e+03 3.752e-10
 13.86431    -45.9 9.919e+03 3.831e-10
 13.89295    -45.2 9.740e+03 3.550e-10
 13.93234    -44.1 9.657e+03 3.274e-10
 13.97164    -42.5 9.416e+03 2.779e-10
 14.01094    -41.2 9.215e+03 2.348e-10
 14.04043    -40.3 9.033e+03 2.070e-10
 14.06008    -39.4 9.148e+03 2.108e-10
 14.08432    -38.8 9.107e+03 2.050e-10
 14.10397    -38.5 9.172e+03 1.798e-10
 14.12884    -37.6 9.227e+03 2.211e-10
 14.16814    -36.1 9.213e+03 2.506e-10
 14.20743    -34.4 9.156e+03 2.537e-10
 14.24673    -32.7 9.013e+03 2.379e-10
 14.28603    -31.0 8.885e+03 2.135e-10
 14.32533    -29.3 8.795e+03 1.895e-10
 14.36463    -27.5 8.663e+03 1.672e-10
 14.40393    -25.6 8.510e+03 1.464e-10
 14.44323    -23.6 8.352e+03 1.284e-10
 14.48252    -21.8 8.220e+03 1.149e-10
 14.52182    -20.1 8.162e+03 1.093e-10
 14.55867    -18.2 8.172e+03 1.113e-10
 14.57832    -17.4 8.148e+03 1.057e-10
 14.58291    -15.5 8.241e+03 1.214e-10
 14.60256    -15.1 8.245e+03 1.203e-10
 14.63972    -12.9 8.373e+03 1.462e-10
 14.67902    -10.7 8.464e+03 1.578e-10
 14.71832     -8.5 8.440e+03 1.535e-10
 14.75761     -6.2 8.351e+03 1.306e-10
 14.79691     -4.2 8.284e+03 9.813e-11
 14.83621     -2.7 8.236e+03 7.387e-11
 14.87551     -1.1 8.057e+03 6.983e-11
 14.91481      0.8 8.011e+03 7.441e-11
 14.95411      2.8 8.071e+03 8.494e-11
 14.99340      4.6 8.192e+03 9.912e-11
 15.03270      6.3 8.339e+03 1.230e-10
 15.06184      7.8 8.522e+03 1.578e-10
 15.08149      9.1 8.311e+03 1.376e-10
 15.09656     10.6 8.517e+03 1.663e-10
 15.11621     11.4 8.579e+03 1.660e-10
 15.15060     12.4 8.807e+03 1.939e-10
 15.18990     13.2 9.113e+03 2.373e-10
 15.22920     13.9 9.362e+03 3.095e-10
 15.26849     15.2 9.494e+03 3.745e-10
 15.30779     16.7 9.615e+03 4.064e-10
 15.34709     18.4 9.598e+03 3.737e-10
 15.38639     20.3 9.525e+03 3.043e-10
 15.42569     22.1 9.385e+03 2.415e-10
 15.46499     23.7 9.263e+03 1.905e-10
 15.50429     25.1 9.152e+03 1.639e-10
 15.54078     26.4 9.292e+03 1.820e-10
 15.56043     28.3 8.872e+03 1.525e-10
 15.58288     29.6 8.974e+03 1.610e-10
 15.61480     31.0 9.284e+03 2.111e-10
 15.63445     31.1 9.054e+03 1.878e-10
 15.66148     32.8 9.367e+03 2.640e-10
 15.70078     34.8 9.686e+03 3.555e-10
 15.74008     36.8 9.958e+03 4.344e-10
 15.77938     38.6 1.021e+04 5.074e-10
 15.81867     40.2 1.051e+04 6.163e-10
 15.85797     41.7 1.085e+04 7.981e-10
 15.89727     43.7 1.112e+04 9.561e-10
 15.93657     45.6 1.121e+04 1.026e-09
 15.97587     47.3 1.114e+04 9.936e-10
 16.01517     49.3 1.074e+04 8.399e-10
 16.03937     51.2 1.027e+04 6.564e-10
 16.05901     52.6 1.049e+04 7.400e-10
 16.09376     54.5 9.969e+03 5.541e-10
 16.13304     56.2 9.675e+03 4.765e-10
 16.17234     57.7 9.309e+03 3.650e-10
 16.21166     59.8 9.206e+03 3.539e-10
 16.25096     62.0 9.141e+03 3.462e-10
 16.29026     64.3 9.074e+03 3.324e-10
 16.32955     66.6 9.004e+03 3.127e-10
 16.36885     68.9 8.955e+03 2.955e-10
 16.40815     71.0 8.905e+03 2.786e-10
 16.44745     73.1 8.932e+03 2.699e-10
 16.48675     75.2 8.966e+03 2.746e-10
 16.51830     77.3 9.057e+03 2.909e-10
 16.53795     78.1 9.145e+03 3.193e-10
 16.56535     80.1 9.292e+03 3.486e-10
 16.60464     82.2 9.497e+03 3.917e-10
 16.64394     83.9 9.662e+03 4.322e-10
 16.67084     84.6 9.874e+03 4.927e-10
 16.68056     83.4 1.007e+04 5.576e-10
 16.69287     83.6 1.041e+04 6.515e-10
 16.71252     83.4 1.078e+04 7.808e-10
 16.73217     83.0 1.110e+04 9.561e-10
 16.75182     82.8 1.133e+04 1.168e-09
 16.76740     82.9 1.149e+04 1.383e-09
 16.77722     82.8 1.177e+04 1.480e-09
 16.79112     83.3 1.179e+04 1.673e-09
 16.81077     83.7 1.175e+04 1.605e-09
 16.83042     84.0 1.162e+04 1.390e-09
 16.85006     83.7 1.135e+04 1.064e-09
 16.86971     82.8 1.089e+04 7.343e-10
 16.88936     80.7 1.022e+04 4.944e-10
 16.90901     78.3 9.539e+03 3.902e-10
 16.92866     76.6 9.286e+03 3.898e-10
 16.93968     75.6 9.347e+03 4.080e-10
 16.94951     74.9 9.320e+03 4.018e-10
 16.96796     74.4 9.508e+03 4.591e-10
 16.98761     73.9 9.671e+03 5.115e-10
 17.00687     73.5 9.783e+03 5.343e-10
 17.01669     73.6 9.735e+03 5.297e-10
 17.02691     73.1 9.741e+03 5.029e-10
 17.04656     72.4 9.709e+03 4.545e-10
 17.06621     71.0 9.587e+03 3.954e-10
 17.08586     70.1 9.473e+03 3.698e-10
 17.10551     68.9 9.397e+03 3.659e-10
 17.12515     68.1 9.391e+03 3.681e-10
 17.14480     67.3 9.406e+03 3.848e-10
 17.16445     66.8 9.452e+03 4.086e-10
 17.18410     66.3 9.536e+03 4.522e-10
 17.19880     66.1 9.631e+03 4.970e-10
 17.20863     67.1 9.484e+03 4.358e-10
 17.22340     67.0 9.578e+03 4.746e-10
 17.24305     67.0 9.697e+03 5.147e-10
 17.25616     66.9 9.864e+03 5.634e-10
 17.26598     67.4 9.930e+03 5.946e-10
 17.28235     67.4 1.012e+04 6.529e-10
 17.30200     67.6 1.030e+04 6.993e-10
 17.32165     67.7 1.048e+04 7.428e-10
 17.34130     67.6 1.087e+04 8.233e-10
 17.36095     65.7 1.273e+04 1.156e-09
 17.38060     59.1 1.886e+04 2.857e-09
 17.39528     61.1 1.939e+04 3.027e-09
 17.40506     59.5 2.223e+04 4.392e-09
 17.41488     55.4 2.525e+04 8.681e-09
 17.42471     52.2 2.526e+04 1.653e-08
 17.43453     50.3 2.377e+04 2.720e-08
 17.44436     49.0 2.265e+04 3.893e-08
 17.45418     46.9 2.252e+04 5.397e-08
 17.46274     44.0 2.455e+04 7.240e-08
 17.46765     47.7 2.232e+04 5.398e-08
 17.47383     44.9 2.385e+04 7.522e-08
 17.48366     41.3 2.782e+04 9.193e-08
 17.49348     37.6 3.148e+04 8.375e-08
 17.50044     34.2 3.267e+04 6.389e-08
 17.50535     35.3 3.184e+04 8.281e-08
 17.51313     31.1 3.233e+04 4.364e-08
 17.52295     23.1 2.693e+04 2.214e-08
 17.53278     16.8 2.256e+04 1.349e-08
 17.54260     13.0 2.203e+04 1.031e-08
 17.55739     10.9 2.375e+04 8.074e-09
 17.57709      6.1 2.397e+04 4.827e-09
 17.59674      1.1 2.021e+04 2.721e-09
 17.61639     -3.7 1.428e+04 1.552e-09
 17.63604     -5.6 1.233e+04 1.253e-09
 17.65568     -6.3 1.195e+04 1.122e-09
 17.67533     -6.7 1.168e+04 1.019e-09
 17.69498     -6.9 1.147e+04 9.291e-10
 17.71463     -7.2 1.136e+04 8.641e-10
 17.72687     -7.6 1.134e+04 8.483e-10
 17.73669     -6.9 1.166e+04 9.504e-10
 17.74492     -8.7 1.248e+04 1.072e-09
 17.75474     -7.1 1.163e+04 8.870e-10
 17.77358     -9.7 1.282e+04 1.163e-09
 17.79323    -12.7 1.415e+04 1.882e-09
 17.81288    -14.6 1.506e+04 3.213e-09
 17.83253    -14.9 1.581e+04 5.091e-09
 17.85218    -14.2 1.632e+04 6.480e-09
 17.87183    -13.6 1.642e+04 6.804e-09
 17.89148    -13.4 1.581e+04 5.309e-09
 17.91113    -14.4 1.494e+04 3.472e-09
 17.93077    -16.1 1.362e+04 2.095e-09
 17.95042    -17.4 1.241e+04 1.365e-09
 17.97007    -17.8 1.156e+04 1.004e-09
 17.98439    -17.8 1.101e+04 7.974e-10
 17.99048    -16.9 1.143e+04 9.882e-10
 17.99582    -16.4 1.137e+04 8.835e-10
 18.00937    -16.4 1.098e+04 7.396e-10
 18.02902    -16.3 1.074e+04 6.563e-10
 18.04867    -16.3 1.064e+04 6.197e-10
 18.06832    -16.2 1.063e+04 6.132e-10
 18.08797    -16.3 1.077e+04 6.623e-10
 18.10762    -16.4 1.100e+04 7.941e-10
 18.12727    -16.3 1.127e+04 9.710e-10
 18.14692    -15.7 1.164e+04 1.196e-09
 18.16657    -15.2 1.207e+04 1.463e-09
 18.18621    -14.9 1.241e+04 1.711e-09
 18.20586    -14.7 1.263e+04 1.927e-09
 18.22386    -14.5 1.282e+04 2.124e-09
 18.23368    -13.6 1.310e+04 2.321e-09
 18.24511    -13.5 1.338e+04 2.614e-09
 18.26476    -13.5 1.349e+04 2.742e-09
 18.28446    -13.7 1.385e+04 3.118e-09
 18.30411    -14.2 1.420e+04 3.522e-09
 18.32376    -14.6 1.457e+04 3.971e-09
 18.34341    -15.2 1.491e+04 4.365e-09
 18.36306    -16.2 1.528e+04 4.663e-09
 18.38271    -18.4 1.579e+04 4.942e-09
 18.40236    -22.0 1.649e+04 5.427e-09
 18.42201    -26.4 1.707e+04 6.058e-09
 18.44166    -30.4 1.707e+04 6.644e-09
 18.46130    -33.3 1.680e+04 7.112e-09
 18.47315    -38.7 1.815e+04 8.727e-09
 18.48297    -37.2 1.853e+04 8.633e-09
 18.49564    -44.9 2.021e+04 1.007e-08
 18.50542    -52.0 2.347e+04 1.312e-08
 18.51396    -59.9 2.682e+04 2.236e-08
 18.51887    -58.5 2.636e+04 1.360e-08
 18.52507    -68.2 2.724e+04 3.205e-08
 18.53489    -75.2 2.597e+04 7.878e-08
 18.54472    -80.2 2.535e+04 1.407e-07
 18.55454    -85.1 2.557e+04 1.652e-07
 18.56437    -91.0 2.609e+04 1.535e-07
 18.57419    -97.8 2.751e+04 9.185e-08
 18.58401   -104.9 2.830e+04 4.437e-08
 18.59278   -111.4 2.703e+04 2.207e-08
 18.59770   -113.1 2.619e+04 1.891e-08
 18.60366   -117.8 2.279e+04 1.260e-08
 18.61349   -120.5 2.054e+04 1.065e-08
 18.62331   -121.7 1.975e+04 9.968e-09
 18.63314   -122.3 1.945e+04 9.723e-09
 18.64296   -122.5 1.900e+04 9.644e-09
 18.64843   -122.7 1.851e+04 9.518e-09
 18.65334   -124.1 1.811e+04 9.687e-09
 18.66261   -124.3 1.775e+04 9.168e-09
 18.67244   -124.5 1.755e+04 8.757e-09
 18.68226   -124.8 1.756e+04 8.607e-09
 18.69209   -125.8 1.824e+04 8.732e-09
 18.70191   -127.9 1.969e+04 9.312e-09
 18.71173   -131.0 2.223e+04 1.083e-08
 18.71743   -134.6 2.495e+04 1.443e-08
 18.72234   -139.3 2.748e+04 2.721e-08
 18.73138   -142.2 2.635e+04 3.687e-08
 18.74121   -144.2 2.530e+04 4.308e-08
 18.75103   -145.5 2.493e+04 4.634e-08
 18.76086   -146.0 2.419e+04 5.177e-08
 18.77068   -146.3 2.334e+04 5.768e-08
 18.77799   -146.5 2.241e+04 6.565e-08
 18.78290   -146.0 2.271e+04 5.087e-08
 18.79033   -146.1 2.178e+04 6.206e-08
 18.80016   -145.9 2.151e+04 7.799e-08
 18.80998   -145.4 2.159e+04 9.827e-08
 18.81981   -145.1 2.190e+04 1.158e-07
 18.82963   -145.3 2.207e+04 1.199e-07
 18.83717   -146.3 2.213e+04 1.137e-07
 18.84208   -146.9 2.169e+04 5.632e-08
 18.84928   -148.1 2.186e+04 4.608e-08
 18.85910   -149.9 2.181e+04 3.534e-08
 18.86893   -152.0 2.153e+04 2.806e-08
 18.87875   -154.5 2.103e+04 2.354e-08
 18.88858   -156.4 2.057e+04 2.127e-08
 18.89840   -157.8 2.024e+04 2.027e-08
 18.90755   -158.5 2.014e+04 1.986e-08
 18.91246   -158.8 2.075e+04 2.373e-08
 18.91805   -159.4 2.053e+04 2.261e-08
 18.92788   -159.7 2.036e+04 2.154e-08
 18.93770   -159.9 2.023e+04 2.067e-08
 18.94753   -159.7 1.994e+04 1.879e-08
 18.95690   -159.2 1.934e+04 1.609e-08
 18.96186   -159.6 1.882e+04 1.076e-08
 18.97219   -158.5 1.826e+04 9.923e-09
 18.99183   -157.2 1.752e+04 8.215e-09
 19.01148   -155.9 1.676e+04 6.497e-09
 19.03113   -155.0 1.604e+04 5.114e-09
 19.04212   -154.8 1.551e+04 4.258e-09
 19.05195   -154.8 1.637e+04 5.703e-09
 19.07043   -154.8 1.609e+04 5.060e-09
 19.09008   -155.1 1.607e+04 4.922e-09
 19.10973   -156.0 1.649e+04 5.362e-09
 19.12938   -157.1 1.685e+04 6.208e-09
 19.14903   -157.9 1.699e+04 7.165e-09
 19.16868   -158.3 1.696e+04 7.518e-09
 19.18833   -158.3 1.660e+04 7.512e-09
 19.20138   -157.8 1.586e+04 6.305e-09
 19.20624   -157.9 1.602e+04 6.730e-09
 19.21279   -157.8 1.567e+04 5.940e-09
 19.22758   -157.7 1.503e+04 4.854e-09
 19.24728   -157.4 1.433e+04 3.680e-09
 19.26692   -156.8 1.346e+04 2.579e-09
 19.28657   -156.6 1.282e+04 1.917e-09
 19.30124   -156.4 1.244e+04 1.539e-09
 19.31107   -156.5 1.360e+04 2.556e-09
 19.32587   -156.4 1.362e+04 2.417e-09
 19.34552   -156.4 1.368e+04 2.342e-09
 19.36517   -156.5 1.374e+04 2.305e-09
 19.38482   -156.9 1.375e+04 2.289e-09
 19.40447   -157.5 1.366e+04 2.203e-09
 19.42412   -158.1 1.328e+04 1.942e-09
 19.44085   -158.5 1.274e+04 1.586e-09
 19.45067   -159.4 1.224e+04 1.246e-09
 19.46342   -159.8 1.161e+04 9.481e-10
 19.48307   -160.2 1.107e+04 7.265e-10
 19.50272   -160.6 1.090e+04 6.069e-10
 19.52236   -161.0 1.090e+04 5.786e-10
 19.54201   -161.6 1.115e+04 5.731e-10
 19.56036   -162.6 1.222e+04 6.838e-10
 19.57019   -166.0 1.387e+04 1.802e-09
 19.58131   -166.4 1.408e+04 2.437e-09
 19.60096   -166.5 1.426e+04 3.168e-09
 19.62061   -166.0 1.432e+04 3.835e-09
 19.64026   -165.3 1.429e+04 4.187e-09
 19.65991   -164.6 1.428e+04 4.285e-09
 19.67956   -163.8 1.429e+04 4.311e-09
 19.69014   -163.0 1.417e+04 4.226e-09
 19.69996   -162.9 1.368e+04 3.460e-09
 19.71886   -162.2 1.358e+04 3.232e-09
 19.73851   -161.7 1.349e+04 2.982e-09
 19.75816   -161.1 1.339e+04 2.756e-09
 19.77781   -160.5 1.326e+04 2.574e-09
 19.79745   -160.0 1.313e+04 2.453e-09
 19.81710   -159.4 1.302e+04 2.391e-09
 19.82931   -158.7 1.296e+04 2.380e-09
 19.83913   -159.7 1.246e+04 1.595e-09
 19.85640   -158.9 1.253e+04 1.752e-09
 19.87605   -158.0 1.263e+04 1.942e-09
 19.89570   -157.2 1.272e+04 2.164e-09
 19.91535   -156.3 1.282e+04 2.415e-09
 19.92961   -155.4 1.293e+04 2.684e-09
 19.93943   -155.5 1.281e+04 2.363e-09
 19.95465   -154.5 1.290e+04 2.596e-09
 19.97430   -153.5 1.301e+04 2.825e-09
 19.99395   -152.5 1.313e+04 3.030e-09
 20.01360   -151.4 1.323e+04 3.183e-09
 20.03325   -150.4 1.329e+04 3.244e-09
 20.05289   -149.4 1.330e+04 3.251e-09
 20.07254   -148.3 1.328e+04 3.178e-09
 20.08843   -147.2 1.312e+04 2.905e-09
 20.09825   -147.2 1.315e+04 2.702e-09
 20.11184   -146.1 1.297e+04 2.482e-09
 20.13149   -145.1 1.274e+04 2.227e-09
 20.15114   -144.2 1.249e+04 1.984e-09
 20.18071   -143.1 1.219e+04 1.705e-09
 20.22011   -140.3 1.170e+04 1.350e-09
 20.25941   -137.8 1.134e+04 1.072e-09
 20.29871   -135.1 1.097e+04 8.510e-10
 20.33792   -132.1 1.057e+04 6.566e-10
 20.37722   -128.2 1.239e+04 1.682e-09
 20.40668   -126.1 1.230e+04 1.204e-09
 20.41837   -125.2 1.205e+04 1.034e-09
 20.42819   -125.6 1.258e+04 1.308e-09
 20.44588   -124.7 1.208e+04 1.073e-09
 20.46553   -124.0 1.151e+04 8.826e-10
 20.48518   -123.5 1.101e+04 7.654e-10
 20.50483   -122.8 1.070e+04 7.102e-10
 20.52448   -122.1 1.060e+04 6.986e-10
 20.54413   -121.4 1.058e+04 7.003e-10
 20.56378   -120.6 1.061e+04 7.236e-10
 20.58343   -119.7 1.071e+04 7.618e-10
 20.60307   -118.8 1.084e+04 8.069e-10
 20.61649   -117.9 1.096e+04 8.525e-10
 20.62632   -117.7 1.127e+04 9.211e-10
 20.64237   -116.9 1.137e+04 9.737e-10
 20.65783   -116.0 1.153e+04 1.034e-09
 20.66766   -116.2 1.177e+04 1.123e-09
 20.68167   -115.3 1.191e+04 1.182e-09
 20.70132   -114.5 1.204e+04 1.234e-09
 20.72097   -113.7 1.215e+04 1.276e-09
 20.74062   -112.8 1.221e+04 1.298e-09
 20.76027   -112.0 1.223e+04 1.303e-09
 20.77992   -111.2 1.221e+04 1.299e-09
 20.79957   -110.4 1.217e+04 1.285e-09
 20.81922   -109.6 1.211e+04 1.269e-09
 20.83887   -108.8 1.204e+04 1.251e-09
 20.85851   -107.9 1.197e+04 1.228e-09
 20.87561   -107.1 1.188e+04 1.199e-09
 20.88544   -106.4 1.293e+04 1.772e-09
 20.89730   -105.5 1.268e+04 1.643e-09
 20.90713   -105.2 1.290e+04 1.821e-09
 20.91746   -104.3 1.263e+04 1.661e-09
 20.93711   -103.4 1.236e+04 1.509e-09
 20.95676   -102.4 1.209e+04 1.370e-09
 20.97641   -101.4 1.187e+04 1.251e-09
 20.99606   -100.4 1.167e+04 1.150e-09
 21.01571    -99.4 1.152e+04 1.068e-09
 21.03536    -98.4 1.141e+04 1.003e-09
 21.05501    -97.5 1.133e+04 9.539e-10
 21.07466    -96.6 1.127e+04 9.146e-10
 21.09431    -95.9 1.120e+04 8.839e-10
 21.11396    -95.4 1.110e+04 8.594e-10
 21.13360    -94.9 1.098e+04 8.447e-10
 21.14456    -94.4 1.089e+04 8.393e-10
 21.14773    -93.0 1.172e+04 1.143e-09
 21.15642    -93.7 1.154e+04 9.935e-10
 21.17290    -93.5 1.124e+04 8.939e-10
 21.19255    -93.2 1.098e+04 8.265e-10
 21.21220    -92.7 1.076e+04 7.815e-10
 21.23185    -92.1 1.056e+04 7.503e-10
 21.25150    -91.4 1.043e+04 7.292e-10
 21.27115    -90.8 1.039e+04 7.215e-10
 21.29080    -90.6 1.042e+04 7.239e-10
 21.31045    -91.2 1.104e+04 8.267e-10
 21.33010    -93.3 1.244e+04 1.280e-09
 21.34975    -95.1 1.363e+04 2.222e-09
 21.36940    -95.7 1.450e+04 3.672e-09
 21.38606    -95.8 1.514e+04 5.277e-09
 21.39589    -95.7 1.559e+04 6.125e-09
 21.40368    -95.1 1.591e+04 7.047e-09
 21.41350    -95.6 1.701e+04 9.689e-09
 21.42834    -95.0 1.674e+04 7.802e-09
 21.44799    -94.8 1.601e+04 4.933e-09
 21.46764    -96.2 1.507e+04 2.846e-09
 21.48729    -98.9 1.347e+04 1.713e-09
 21.50694   -101.1 1.211e+04 1.298e-09
 21.52659   -102.0 1.171e+04 1.213e-09
 21.54624   -102.5 1.164e+04 1.217e-09
 21.56589   -103.2 1.189e+04 1.372e-09
 21.58554   -104.0 1.218e+04 1.588e-09
 21.60519   -104.9 1.240e+04 1.789e-09
 21.62484   -105.7 1.252e+04 1.914e-09
 21.63536   -106.4 1.254e+04 1.943e-09
 21.64518   -106.3 1.253e+04 1.953e-09
 21.66280   -106.8 1.233e+04 1.778e-09
 21.67262   -107.5 1.263e+04 1.965e-09
 21.68378   -107.9 1.218e+04 1.611e-09
 21.70343   -108.2 1.172e+04 1.312e-09
 21.72308   -108.3 1.133e+04 1.088e-09
 21.74273   -108.4 1.102e+04 9.244e-10
 21.76238   -108.0 1.072e+04 7.910e-10
 21.78203   -107.3 1.045e+04 6.779e-10
 21.80168   -106.6 1.021e+04 5.772e-10
 21.83125   -105.7 9.885e+03 4.508e-10
 21.86519   -104.7 9.729e+03 3.969e-10
 21.88484   -104.4 9.702e+03 4.009e-10
 21.90995   -102.2 9.347e+03 3.197e-10
 21.93194   -100.0 9.123e+03 2.694e-10
 21.95159    -99.7 9.467e+03 3.295e-10
 21.98854    -97.6 9.312e+03 2.930e-10
 22.02784    -95.7 9.222e+03 2.664e-10
 22.06714    -93.8 9.156e+03 2.430e-10
 22.10644    -92.0 9.076e+03 2.190e-10
 22.14574    -90.3 8.977e+03 1.941e-10
 22.18504    -88.4 8.883e+03 1.709e-10
 22.22433    -86.5 8.836e+03 1.550e-10
 22.26363    -84.5 8.842e+03 1.492e-10
 22.30293    -82.5 8.862e+03 1.486e-10
 22.34223    -80.7 9.072e+03 1.578e-10
 22.36378    -78.9 9.275e+03 1.866e-10
 22.38343    -78.0 9.400e+03 2.143e-10
 22.42083    -76.2 9.597e+03 2.523e-10
 22.45018    -74.3 9.757e+03 2.910e-10
 22.46983    -74.8 9.952e+03 3.332e-10
 22.49942    -73.0 9.979e+03 3.381e-10
 22.53872    -71.4 1.003e+04 3.348e-10
 22.57802    -70.5 1.008e+04 3.324e-10
 22.61732    -70.4 1.055e+04 3.586e-10
 22.65662    -72.1 1.129e+04 5.367e-10
 22.68599    -74.3 1.243e+04 7.050e-10
 22.70555    -76.4 1.244e+04 9.568e-10
 22.71893    -79.8 1.455e+04 1.317e-09
 22.72876    -77.9 1.200e+04 1.256e-09
 22.74484    -79.8 1.236e+04 1.574e-09
 22.76449    -82.0 1.332e+04 1.813e-09
 22.78414    -84.2 1.469e+04 1.995e-09
 22.80379    -86.2 1.543e+04 2.098e-09
 22.82344    -87.9 1.533e+04 2.128e-09
 22.84252    -89.1 1.460e+04 2.025e-09
 22.85235    -89.7 1.451e+04 2.277e-09
 22.86274    -90.1 1.355e+04 2.202e-09
 22.88239    -90.0 1.291e+04 2.125e-09
 22.90204    -89.6 1.249e+04 2.009e-09
 22.92169    -88.7 1.220e+04 1.842e-09
 22.94134    -87.8 1.194e+04 1.643e-09
 22.96099    -87.0 1.171e+04 1.439e-09
 22.97805    -86.1 1.149e+04 1.258e-09
 22.98788    -86.1 1.174e+04 1.573e-09
 23.00028    -85.3 1.156e+04 1.467e-09
 23.01993    -84.6 1.141e+04 1.377e-09
 23.03958    -83.9 1.129e+04 1.308e-09
 23.05923    -83.2 1.123e+04 1.272e-09
 23.07888    -82.5 1.126e+04 1.266e-09
 23.09181    -82.0 1.137e+04 1.312e-09
 23.10164    -82.0 1.155e+04 1.454e-09
 23.11818    -81.6 1.176e+04 1.577e-09
 23.13783    -81.4 1.197e+04 1.705e-09
 23.15748    -81.7 1.230e+04 1.821e-09
 23.17713    -82.6 1.292e+04 2.071e-09
 23.19678    -83.8 1.349e+04 2.467e-09
 23.21643    -85.0 1.395e+04 3.008e-09
 23.23608    -86.0 1.444e+04 3.805e-09
 23.24700    -86.8 1.502e+04 4.889e-09
 23.25682    -87.0 1.509e+04 4.628e-09
 23.27537    -87.3 1.579e+04 6.288e-09
 23.29502    -87.7 1.626e+04 7.552e-09
 23.31467    -88.3 1.636e+04 7.848e-09
 23.33128    -88.8 1.614e+04 7.491e-09
 23.34111    -88.5 1.608e+04 7.428e-09
 23.35397    -88.5 1.537e+04 5.765e-09
 23.37362    -88.9 1.455e+04 4.187e-09
 23.39327    -89.8 1.371e+04 3.038e-09
 23.41292    -90.8 1.292e+04 2.297e-09
 23.43257    -91.6 1.232e+04 1.867e-09
 23.45222    -92.2 1.191e+04 1.634e-09
 23.47187    -92.3 1.166e+04 1.513e-09
 23.49152    -92.4 1.152e+04 1.444e-09
 23.50612    -92.3 1.139e+04 1.367e-09
 23.51594    -92.4 1.127e+04 1.281e-09
 23.53081    -92.3 1.117e+04 1.211e-09
 23.55046    -92.3 1.100e+04 1.093e-09
 23.57011    -92.4 1.079e+04 9.718e-10
 23.59968    -92.9 1.064e+04 8.707e-10
 23.63908    -93.6 1.050e+04 7.930e-10
 23.67838    -95.3 1.058e+04 7.997e-10
 23.71768    -97.1 1.138e+04 1.086e-09
 23.74705    -97.0 1.179e+04 1.325e-09
 23.76524    -97.9 1.235e+04 1.654e-09
 23.77506    -99.7 1.272e+04 2.009e-09
 23.78625   -100.7 1.315e+04 2.385e-09
 23.80590   -101.7 1.330e+04 2.492e-09
 23.82004   -102.5 1.333e+04 2.496e-09
 23.82987   -102.1 1.363e+04 2.914e-09
 23.84520   -102.6 1.344e+04 2.500e-09
 23.86485   -103.3 1.294e+04 1.842e-09
 23.88450   -104.3 1.220e+04 1.284e-09
 23.90415   -105.3 1.143e+04 9.226e-10
 23.92380   -105.8 1.087e+04 7.244e-10
 23.94345   -106.0 1.057e+04 6.108e-10
 23.96310   -105.9 1.038e+04 5.431e-10
 23.98275   -105.5 1.030e+04 5.087e-10
 24.00240   -105.1 1.028e+04 4.973e-10
 24.02205   -104.6 1.028e+04 4.960e-10
 24.03418   -104.4 1.032e+04 4.979e-10
 24.04401   -105.3 1.063e+04 6.057e-10
 24.05951   -105.2 1.078e+04 6.452e-10
 24.06933   -104.8 1.094e+04 7.409e-10
 24.08099   -104.8 1.110e+04 8.217e-10
 24.10064   -104.6 1.128e+04 9.146e-10
 24.12029   -104.4 1.145e+04 9.987e-10
 24.13994   -104.4 1.154e+04 1.043e-09
 24.15959   -104.4 1.155e+04 1.052e-09
 24.17924   -104.5 1.146e+04 9.958e-10
 24.19889   -104.6 1.131e+04 8.481e-10
 24.21854   -104.9 1.118e+04 7.053e-10
 24.23819   -105.4 1.115e+04 6.048e-10
 24.25784   -106.0 1.122e+04 5.594e-10
 24.27749   -106.8 1.125e+04 5.516e-10
 24.29330   -107.9 1.141e+04 5.535e-10
 24.30313   -109.0 1.169e+04 5.544e-10
 24.30880   -110.4 1.217e+04 6.908e-10
 24.31863   -111.0 1.230e+04 8.026e-10
 24.33643   -111.6 1.245e+04 1.000e-09
 24.35608   -111.8 1.242e+04 1.176e-09
 24.37573   -111.8 1.228e+04 1.267e-09
 24.39538   -111.6 1.214e+04 1.292e-09
 24.41503   -111.2 1.182e+04 1.226e-09
 24.43468   -110.8 1.146e+04 1.096e-09
 24.45433   -110.5 1.118e+04 9.339e-10
 24.47398   -110.2 1.100e+04 7.776e-10
 24.49363   -110.0 1.087e+04 6.418e-10
 24.51328   -109.9 1.077e+04 5.300e-10
 24.53293   -109.8 1.066e+04 4.513e-10
 24.54827   -109.7 1.055e+04 4.093e-10
 24.55794   -109.8 1.046e+04 3.783e-10
 24.56235   -111.0 1.059e+04 3.483e-10
 24.58225   -109.8 1.035e+04 3.320e-10
 24.62154   -108.4 1.028e+04 3.330e-10
 24.66084   -107.1 1.025e+04 3.615e-10
 24.70014   -105.8 1.029e+04 3.935e-10
 24.73944   -104.6 1.034e+04 4.239e-10
 24.77811   -103.5 1.037e+04 4.341e-10
 24.79776   -103.3 1.039e+04 4.554e-10
 24.81804   -102.3 1.041e+04 4.620e-10
 24.85734   -101.3 1.034e+04 4.387e-10
 24.89663   -100.3 1.018e+04 3.702e-10
 24.93593    -99.5 1.007e+04 3.123e-10
 24.97523    -99.0 1.007e+04 2.915e-10
 25.01453    -99.0 1.012e+04 2.919e-10
 25.05383    -99.2 1.047e+04 3.759e-10
 25.08068    -99.3 1.082e+04 5.719e-10
 25.10033    -99.1 1.029e+04 3.206e-10
 25.13242    -99.2 1.048e+04 3.925e-10
 25.17172    -99.5 1.052e+04 4.294e-10
 25.21102    -99.8 1.051e+04 4.339e-10
 25.25032   -100.1 1.038e+04 4.149e-10
 25.27669   -100.5 1.029e+04 3.940e-10
 25.29634   -100.5 1.009e+04 3.081e-10
 25.32892   -100.8 1.007e+04 3.039e-10
 25.36822   -101.2 1.013e+04 3.129e-10
 25.40751   -101.8 1.027e+04 3.342e-10
 25.44681   -102.4 1.034e+04 3.477e-10
 25.48611   -102.9 1.035e+04 3.491e-10
 25.52541   -103.2 1.028e+04 3.260e-10
 25.56471   -103.2 1.015e+04 2.816e-10
 25.59893   -103.2 9.989e+03 2.313e-10
 25.61857   -103.4 1.011e+04 2.461e-10
 25.64331   -103.6 1.007e+04 2.154e-10
 25.68260   -103.8 1.004e+04 2.044e-10
 25.72190   -103.9 1.004e+04 2.059e-10
 25.75563   -104.0 1.011e+04 2.447e-10
 25.77528   -104.3 1.012e+04 2.835e-10
 25.80050   -104.3 1.019e+04 3.460e-10
 25.83980   -104.4 1.032e+04 3.935e-10
 25.87910   -104.8 1.059e+04 4.464e-10
 25.91840   -106.6 1.128e+04 5.666e-10
 25.95769   -109.5 1.225e+04 8.965e-10
 25.99699   -112.6 1.301e+04 1.499e-09
 26.03629   -116.0 1.325e+04 1.932e-09
 26.07559   -119.5 1.314e+04 1.921e-09
 26.11489   -122.3 1.225e+04 1.210e-09
 26.13682   -125.0 1.103e+04 6.306e-10
 26.15646   -124.3 1.124e+04 5.785e-10
 26.19349   -126.7 1.056e+04 4.245e-10
 26.23278   -128.3 1.046e+04 4.091e-10
 26.25422   -130.7 1.050e+04 4.808e-10
 26.27386   -130.7 1.042e+04 4.675e-10
 26.31138   -133.0 1.082e+04 6.760e-10
 26.35068   -135.8 1.138e+04 9.624e-10
 26.38998   -138.7 1.194e+04 1.260e-09
 26.42928   -141.4 1.230e+04 1.453e-09
 26.45865   -143.5 1.211e+04 1.395e-09
 26.47820   -144.4 1.206e+04 1.338e-09
 26.49349   -145.6 1.177e+04 1.152e-09
 26.50331   -145.4 1.195e+04 1.234e-09
 26.51750   -146.4 1.171e+04 1.066e-09
 26.53715   -147.6 1.148e+04 9.467e-10
 26.55680   -148.5 1.138e+04 9.141e-10
 26.57645   -149.3 1.136e+04 9.098e-10
 26.59610   -150.2 1.137e+04 9.586e-10
 26.61575   -151.0 1.154e+04 1.096e-09
 26.63540   -151.8 1.173e+04 1.239e-09
 26.65486   -152.6 1.187e+04 1.322e-09
 26.66469   -152.8 1.175e+04 1.109e-09
 26.67470   -153.5 1.177e+04 1.141e-09
 26.69435   -154.1 1.175e+04 1.139e-09
 26.71400   -154.4 1.156e+04 1.032e-09
 26.73296   -154.7 1.133e+04 8.532e-10
 26.74278   -154.6 1.164e+04 1.027e-09
 26.75329   -155.0 1.141e+04 7.908e-10
 26.77294   -155.5 1.126e+04 6.464e-10
 26.79259   -156.0 1.117e+04 5.910e-10
 26.81224   -156.4 1.113e+04 5.815e-10
 26.83189   -156.7 1.112e+04 5.842e-10
 26.85154   -156.9 1.110e+04 6.054e-10
 26.87119   -157.0 1.107e+04 6.221e-10
 26.89084   -157.0 1.105e+04 6.254e-10
 26.91049   -156.9 1.098e+04 6.240e-10
 26.92381   -156.8 1.083e+04 5.909e-10
 26.93363   -156.4 1.073e+04 5.503e-10
 26.94979   -156.3 1.063e+04 5.237e-10
 26.96944   -156.2 1.056e+04 4.868e-10
 26.98225   -156.2 1.049e+04 4.466e-10
 26.99207   -156.0 1.067e+04 5.110e-10
 27.00873   -156.0 1.067e+04 4.714e-10
 27.02838   -156.1 1.074e+04 4.433e-10
 27.04803   -156.3 1.081e+04 4.309e-10
 27.06768   -156.8 1.083e+04 4.286e-10
 27.08733   -157.4 1.091e+04 4.294e-10
 27.10698   -158.1 1.100e+04 4.476e-10
 27.12663   -159.0 1.108e+04 4.894e-10
 27.14628   -159.9 1.118e+04 5.454e-10
 27.16593   -160.9 1.128e+04 6.079e-10
 27.18293   -161.8 1.141e+04 6.742e-10
 27.19275   -161.3 1.161e+04 7.413e-10
 27.20523   -162.2 1.170e+04 8.115e-10
 27.22172   -162.9 1.176e+04 8.643e-10
 27.23154   -163.1 1.215e+04 1.076e-09
 27.24453   -163.7 1.216e+04 1.099e-09
 27.26417   -164.0 1.215e+04 1.102e-09
 27.28382   -164.1 1.205e+04 1.081e-09
 27.30347   -164.0 1.186e+04 9.607e-10
 27.32312   -163.6 1.166e+04 7.997e-10
 27.34277   -163.1 1.146e+04 6.556e-10
 27.36242   -162.6 1.129e+04 5.460e-10
 27.38207   -162.0 1.115e+04 4.718e-10
 27.40172   -161.4 1.107e+04 4.315e-10
 27.42137   -160.6 1.104e+04 4.192e-10
 27.44102   -159.7 1.103e+04 4.175e-10
 27.45187   -158.8 1.104e+04 4.197e-10
 27.46170   -158.5 1.107e+04 4.344e-10
 27.47101   -157.6 1.112e+04 4.395e-10
 27.48083   -157.7 1.135e+04 5.426e-10
 27.49997   -156.8 1.140e+04 5.609e-10
 27.51962   -155.8 1.146e+04 5.809e-10
 27.53926   -154.8 1.151e+04 5.972e-10
 27.55891   -153.9 1.155e+04 6.077e-10
 27.57856   -153.0 1.158e+04 6.129e-10
 27.59821   -152.1 1.162e+04 6.163e-10
 27.61786   -151.3 1.166e+04 6.205e-10
 27.63751   -150.4 1.171e+04 6.280e-10
 27.65716   -149.6 1.178e+04 6.442e-10
 27.67681   -148.9 1.186e+04 6.756e-10
 27.69646   -148.1 1.195e+04 7.245e-10
 27.71048   -147.4 1.206e+04 7.949e-10
 27.71519   -147.0 1.206e+04 8.469e-10
 27.72082   -147.3 1.224e+04 9.397e-10
 27.73576   -146.7 1.235e+04 1.044e-09
 27.75541   -146.0 1.246e+04 1.169e-09
 27.77506   -145.3 1.256e+04 1.307e-09
 27.79470   -144.6 1.264e+04 1.448e-09
 27.81435   -143.9 1.272e+04 1.581e-09
 27.83400   -143.2 1.283e+04 1.707e-09
 27.85365   -142.6 1.302e+04 1.835e-09
 27.87330   -142.2 1.327e+04 1.988e-09
 27.89295   -141.9 1.352e+04 2.199e-09
 27.91260   -141.8 1.378e+04 2.502e-09
 27.93225   -141.8 1.416e+04 2.910e-09
 27.94995   -141.9 1.470e+04 3.453e-09
 27.95977   -140.8 1.506e+04 3.659e-09
 27.97011   -141.0 1.597e+04 4.705e-09
 27.97994   -141.1 1.493e+04 3.912e-09
 27.99120   -141.1 1.559e+04 5.091e-09
 28.01085   -141.1 1.634e+04 6.595e-09
 28.03050   -140.8 1.708e+04 8.345e-09
 28.05015   -140.4 1.775e+04 1.020e-08
 28.06979   -140.0 1.829e+04 1.202e-08
 28.08944   -139.7 1.868e+04 1.369e-08
 28.10909   -139.4 1.907e+04 1.528e-08
 28.12874   -139.2 1.953e+04 1.686e-08
 28.14839   -139.6 2.004e+04 1.812e-08
 28.16804   -140.8 2.066e+04 1.945e-08
 28.18273   -141.1 2.085e+04 2.130e-08
 28.19250   -141.8 2.128e+04 2.272e-08
 28.19914   -142.6 2.169e+04 2.445e-08
 28.20405   -141.9 2.222e+04 2.860e-08
 28.21215   -142.9 2.294e+04 3.019e-08
 28.22198   -144.2 2.327e+04 3.055e-08
 28.23180   -145.5 2.334e+04 3.016e-08
 28.23896   -146.7 2.310e+04 2.675e-08
 28.24387   -145.9 2.378e+04 4.727e-08
 28.25145   -147.0 2.392e+04 4.340e-08
 28.26128   -147.7 2.393e+04 3.571e-08
 28.27110   -148.2 2.386e+04 2.716e-08
 28.28093   -148.7 2.353e+04 1.919e-08
 28.29075   -149.4 2.287e+04 1.245e-08
 28.30058   -150.4 2.156e+04 7.469e-09
 28.31040   -151.9 1.934e+04 4.520e-09
 28.31887   -153.1 1.741e+04 3.123e-09
 28.32379   -153.5 1.829e+04 2.760e-09
 28.33005   -153.7 1.757e+04 2.400e-09
 28.34484   -153.4 1.700e+04 2.083e-09
 28.36453   -153.9 1.499e+04 1.401e-09
 28.38418   -154.1 1.337e+04 9.777e-10
 28.40383   -153.8 1.260e+04 8.282e-10
 28.42348   -152.7 1.232e+04 7.929e-10
 28.43871   -151.6 1.223e+04 7.947e-10
 28.44853   -152.0 1.190e+04 7.882e-10
 28.46278   -150.8 1.185e+04 8.762e-10
 28.48243   -149.5 1.196e+04 1.020e-09
 28.49818   -148.3 1.206e+04 1.163e-09
 28.50800   -148.1 1.199e+04 1.091e-09
 28.52173   -146.9 1.214e+04 1.226e-09
 28.54138   -145.9 1.222e+04 1.306e-09
 28.56103   -145.0 1.224e+04 1.326e-09
 28.58068   -144.1 1.223e+04 1.324e-09
 28.60032   -143.1 1.209e+04 1.188e-09
 28.61997   -142.1 1.189e+04 9.348e-10
 28.63962   -141.2 1.168e+04 6.945e-10
 28.65927   -140.6 1.150e+04 5.123e-10
 28.67817   -140.2 1.130e+04 3.958e-10
 28.68800   -140.5 1.109e+04 3.671e-10
 28.70849   -140.1 1.096e+04 3.313e-10
 28.74767   -138.6 1.072e+04 2.884e-10
 28.76732   -138.5 1.066e+04 2.916e-10
 28.78719   -136.3 1.050e+04 2.563e-10
 28.82649   -134.0 1.042e+04 2.264e-10
 28.86578   -131.8 1.038e+04 1.979e-10
 28.90508   -129.6 1.037e+04 1.730e-10
 28.94438   -127.4 1.034e+04 1.543e-10
 28.98368   -125.1 1.031e+04 1.429e-10
 29.02298   -122.8 1.028e+04 1.376e-10
 29.06228   -120.3 1.026e+04 1.360e-10
 29.10158   -117.8 1.025e+04 1.360e-10
 29.14087   -115.3 1.025e+04 1.385e-10
 29.16713   -112.9 1.025e+04 1.445e-10
 29.18678   -112.9 1.013e+04 1.093e-10
 29.21947   -110.7 1.017e+04 1.365e-10
 29.25877   -108.8 1.043e+04 2.067e-10
 29.28556   -107.7 1.111e+04 3.770e-10
 29.30521   -106.1 1.045e+04 1.851e-10
 29.33737   -105.5 1.114e+04 3.229e-10
 29.37667   -105.5 1.221e+04 6.805e-10
 29.40604   -106.6 1.336e+04 1.648e-09
 29.41623   -107.1 1.422e+04 2.484e-09
 29.42605   -107.3 1.394e+04 2.133e-09
 29.44524   -107.8 1.472e+04 3.197e-09
 29.46489   -108.1 1.539e+04 4.462e-09
 29.48454   -108.4 1.579e+04 5.521e-09
 29.50419   -108.5 1.591e+04 5.932e-09
 29.52384   -108.7 1.589e+04 5.810e-09
 29.54349   -108.9 1.571e+04 4.986e-09
 29.55431   -109.2 1.544e+04 4.202e-09
 29.56413   -107.3 1.526e+04 4.080e-09
 29.58279   -107.6 1.514e+04 3.613e-09
 29.60244   -108.0 1.496e+04 3.215e-09
 29.62209   -108.4 1.481e+04 2.874e-09
 29.64174   -108.7 1.464e+04 2.593e-09
 29.65570   -109.0 1.444e+04 2.367e-09
 29.66562   -109.7 1.383e+04 1.560e-09
 29.69105   -109.9 1.363e+04 1.557e-09
 29.73035   -109.7 1.347e+04 1.531e-09
 29.76965   -109.6 1.308e+04 1.321e-09
 29.80380   -109.3 1.268e+04 9.998e-10
 29.82345   -106.4 1.314e+04 1.322e-09
 29.84825   -106.4 1.262e+04 9.144e-10
 29.88755   -106.6 1.216e+04 6.124e-10
 29.92685   -106.7 1.202e+04 5.072e-10
 29.96614   -106.7 1.203e+04 4.985e-10
 29.99552   -107.5 1.214e+04 5.305e-10
 30.01507   -107.9 1.221e+04 5.638e-10
 30.03472   -108.5 1.229e+04 6.214e-10
 30.05437   -108.9 1.229e+04 6.445e-10
 30.07255   -109.5 1.227e+04 6.651e-10
 30.08237   -109.0 1.247e+04 7.485e-10
 30.09367   -109.4 1.233e+04 7.395e-10
 30.11332   -109.5 1.210e+04 6.596e-10
 30.13297   -109.5 1.195e+04 5.584e-10
 30.14455   -109.6 1.189e+04 4.613e-10
 30.15438   -109.2 1.191e+04 5.428e-10
 30.17227   -109.1 1.183e+04 4.763e-10
 30.20184   -109.0 1.181e+04 4.216e-10
 30.24123   -108.9 1.171e+04 3.567e-10
 30.28053   -108.3 1.158e+04 3.221e-10
 30.31983   -107.3 1.155e+04 3.167e-10
 30.34169   -106.3 1.155e+04 3.189e-10
 30.36134   -106.0 1.173e+04 3.831e-10
 30.39843   -105.0 1.175e+04 3.908e-10
 30.43773   -104.0 1.181e+04 4.060e-10
 30.47702   -103.0 1.187e+04 4.194e-10
 30.51632   -101.9 1.195e+04 4.330e-10
 30.55562   -101.0 1.198e+04 4.447e-10
 30.59492   -100.4 1.194e+04 4.511e-10
 30.62359   -100.0 1.185e+04 4.506e-10
 30.64324    -99.5 1.192e+04 5.526e-10
 30.67352    -99.0 1.188e+04 5.446e-10
 30.71282    -98.5 1.171e+04 4.904e-10
 30.75211    -97.9 1.144e+04 4.164e-10
 30.79141    -97.2 1.135e+04 3.879e-10
 30.83071    -96.9 1.139e+04 3.936e-10
 30.85993    -96.8 1.172e+04 5.217e-10
 30.87958    -95.6 1.162e+04 4.736e-10
 30.90931    -95.4 1.205e+04 7.150e-10
 30.94861    -95.2 1.236e+04 9.722e-10
 30.98791    -95.7 1.246e+04 1.093e-09
 31.02720    -96.4 1.235e+04 1.091e-09
 31.06650    -96.9 1.199e+04 9.102e-10
 31.10252    -97.1 1.177e+04 7.354e-10
 31.12217    -96.6 1.212e+04 8.817e-10
 31.12878    -96.9 1.183e+04 6.499e-10
 31.13851    -96.5 1.193e+04 7.392e-10
 31.15473    -96.6 1.188e+04 6.902e-10
 31.18430    -96.8 1.176e+04 5.722e-10
 31.22370    -96.8 1.161e+04 4.928e-10
 31.26300    -96.9 1.140e+04 4.051e-10
 31.30229    -96.8 1.114e+04 3.246e-10
 31.34159    -96.6 1.092e+04 2.743e-10
 31.37817    -96.1 1.082e+04 2.550e-10
 31.39782    -95.0 1.086e+04 2.679e-10
 31.42019    -94.4 1.082e+04 2.548e-10
 31.45949    -93.6 1.082e+04 2.549e-10
 31.49879    -93.0 1.090e+04 2.801e-10
 31.53808    -92.5 1.104e+04 3.413e-10
 31.57738    -91.9 1.121e+04 4.285e-10
 31.60111    -91.4 1.140e+04 5.118e-10
 31.62076    -91.7 1.146e+04 5.372e-10
 31.65598    -91.6 1.158e+04 5.589e-10
 31.69528    -91.5 1.162e+04 5.628e-10
 31.73458    -91.5 1.164e+04 5.470e-10
 31.77388    -91.5 1.161e+04 5.186e-10
 31.81317    -91.4 1.151e+04 4.930e-10
 31.85247    -91.0 1.138e+04 4.668e-10
 31.89177    -90.3 1.125e+04 4.409e-10
 31.91606    -89.3 1.117e+04 4.110e-10
 31.93571    -88.2 1.129e+04 4.425e-10
 31.97037    -87.2 1.122e+04 4.213e-10
 32.00967    -86.1 1.114e+04 3.710e-10
 32.04897    -85.1 1.104e+04 3.057e-10
 32.08004    -84.0 1.093e+04 2.383e-10
 32.09969    -84.3 1.094e+04 2.377e-10
 32.12756    -83.2 1.084e+04 1.863e-10
 32.16686    -82.1 1.075e+04 1.520e-10
 32.20616    -80.9 1.069e+04 1.326e-10
 32.24546    -79.6 1.066e+04 1.243e-10
 32.28476    -78.1 1.066e+04 1.215e-10
 32.32406    -76.6 1.065e+04 1.201e-10
 32.36335    -74.9 1.064e+04 1.184e-10
 32.40265    -73.2 1.061e+04 1.154e-10
 32.43430    -71.4 1.054e+04 1.109e-10
 32.45395    -70.8 1.065e+04 1.135e-10
 32.48125    -69.1 1.063e+04 1.132e-10
 32.52055    -67.4 1.058e+04 1.206e-10
 32.55898    -65.8 1.055e+04 1.400e-10
 32.57863    -66.1 1.056e+04 1.377e-10
 32.59915    -64.6 1.056e+04 1.771e-10
 32.63844    -63.0 1.059e+04 2.263e-10
 32.67774    -61.4 1.065e+04 2.693e-10
 32.71704    -59.9 1.071e+04 2.885e-10
 32.75634    -58.5 1.072e+04 2.897e-10
 32.79564    -57.0 1.070e+04 2.743e-10
 32.83494    -55.4 1.067e+04 2.458e-10
 32.87423    -53.8 1.065e+04 2.223e-10
 32.91353    -52.1 1.063e+04 2.064e-10
 32.95254    -50.3 1.062e+04 1.933e-10
 32.97219    -50.4 1.062e+04 1.920e-10
 32.99213    -48.6 1.061e+04 1.777e-10
 33.03143    -46.7 1.059e+04 1.599e-10
 33.05757    -44.7 1.056e+04 1.375e-10
 33.07722    -44.9 1.061e+04 1.508e-10
 33.11003    -43.0 1.056e+04 1.216e-10
 33.14932    -41.0 1.051e+04 9.401e-11
 33.18862    -39.0 1.047e+04 7.228e-11
 33.22792    -37.1 1.043e+04 5.823e-11
 33.26722    -35.2 1.039e+04 5.216e-11
 33.30652    -33.1 1.037e+04 5.095e-11
 33.34582    -31.0 1.037e+04 5.190e-11
 33.38512    -29.0 1.036e+04 5.800e-11
 33.42441    -26.8 1.034e+04 6.644e-11
 33.46371    -24.5 1.035e+04 7.587e-11
 33.49043    -22.3 1.038e+04 8.515e-11
 33.51008    -22.4 1.045e+04 9.084e-11
 33.53650    -20.4 1.054e+04 1.025e-10
 33.55615    -20.8 1.061e+04 1.225e-10
 33.58161    -18.9 1.070e+04 1.373e-10
 33.62091    -17.1 1.079e+04 1.586e-10
 33.66021    -15.7 1.089e+04 1.936e-10
 33.69950    -14.5 1.099e+04 2.502e-10
 33.73880    -13.3 1.114e+04 3.333e-10
 33.77810    -12.1 1.132e+04 4.210e-10
 33.81740    -11.1 1.145e+04 4.591e-10
 33.85670    -10.4 1.148e+04 4.512e-10
 33.89600     -9.8 1.147e+04 3.990e-10
 33.93529     -9.4 1.147e+04 3.782e-10
 33.97459     -8.9 1.151e+04 3.914e-10
 34.00868     -8.4 1.157e+04 4.205e-10
 34.02832     -9.0 1.143e+04 3.558e-10
 34.03509     -8.3 1.140e+04 3.598e-10
 34.05474     -9.1 1.154e+04 4.215e-10
 34.09249     -8.4 1.145e+04 3.838e-10
 34.13179     -7.4 1.131e+04 3.510e-10
 34.17109     -6.0 1.117e+04 3.017e-10
 34.21038     -4.4 1.103e+04 2.365e-10
 34.24968     -2.6 1.093e+04 1.730e-10
 34.28898     -0.7 1.081e+04 1.257e-10
 34.32828      1.4 1.067e+04 9.445e-11
 34.36758      3.8 1.053e+04 7.163e-11
 34.40688      6.2 1.047e+04 5.308e-11
 34.44618      8.4 1.052e+04 4.022e-11
 34.48547     10.2 1.053e+04 3.523e-11
 34.51402     12.1 1.051e+04 3.613e-11
 34.53367     11.6 1.042e+04 4.144e-11
 34.54657     13.8 1.011e+04 5.614e-11
 34.56621     13.9 1.014e+04 5.721e-11
 34.60337     16.9 1.005e+04 7.323e-11
 34.64267     19.9 9.987e+03 8.075e-11
 34.68197     22.6 1.007e+04 7.430e-11
 34.72127     24.8 1.016e+04 6.628e-11
 34.76056     26.9 1.013e+04 6.469e-11
 34.79986     29.0 1.015e+04 6.652e-11
 34.83916     31.1 1.018e+04 7.155e-11
 34.87846     33.2 1.022e+04 8.069e-11
 34.91776     35.2 1.030e+04 9.451e-11
 34.95706     37.1 1.038e+04 1.132e-10
 34.99296     39.1 1.043e+04 1.355e-10
 35.01261     38.8 1.032e+04 1.301e-10
 35.03565     40.8 1.035e+04 1.430e-10
 35.06481     42.6 1.035e+04 1.427e-10
 35.08446     42.7 1.035e+04 1.276e-10
 35.11425     44.4 1.031e+04 1.211e-10
 35.15355     46.0 1.028e+04 1.190e-10
 35.19285     47.6 1.029e+04 1.237e-10
 35.23215     49.1 1.031e+04 1.414e-10
 35.27144     50.8 1.034e+04 1.703e-10
 35.31074     52.7 1.045e+04 1.981e-10
 35.35004     54.5 1.054e+04 2.024e-10
 35.38934     56.1 1.054e+04 1.970e-10
 35.42864     57.7 1.055e+04 1.791e-10
 35.46794     59.3 1.057e+04 1.573e-10
 35.49154     60.9 1.059e+04 1.373e-10
 35.51119     60.8 1.054e+04 1.387e-10
 35.54653     62.4 1.054e+04 1.217e-10
 35.58305     63.9 1.056e+04 1.084e-10
 35.60270     64.0 1.058e+04 1.237e-10
 35.62513     65.4 1.061e+04 1.173e-10
 35.66443     67.0 1.062e+04 1.174e-10
 35.70373     68.4 1.065e+04 1.203e-10
 35.74303     69.8 1.070e+04 1.302e-10
 35.78233     71.1 1.076e+04 1.461e-10
 35.82162     72.5 1.083e+04 1.591e-10
 35.86092     73.8 1.085e+04 1.612e-10
 35.90022     75.1 1.084e+04 1.591e-10
 35.93952     76.4 1.079e+04 1.539e-10
 35.97048     77.6 1.071e+04 1.507e-10
 35.99013     77.4 1.071e+04 1.716e-10
 36.01812     78.6 1.063e+04 1.647e-10
 36.05742     79.7 1.057e+04 1.573e-10
 36.09671     80.9 1.052e+04 1.502e-10
 36.12094     81.9 1.054e+04 1.478e-10
 36.14059     82.0 1.064e+04 1.939e-10
 36.17531     83.0 1.067e+04 2.010e-10
 36.21461     83.8 1.072e+04 2.185e-10
 36.25391     84.8 1.077e+04 2.395e-10
 36.29321     85.7 1.081e+04 2.457e-10
 36.33251     86.8 1.082e+04 2.331e-10
 36.37180     87.8 1.080e+04 2.054e-10
 36.41110     88.8 1.082e+04 1.820e-10
 36.44942     90.0 1.084e+04 1.812e-10
 36.46907     89.9 1.067e+04 1.729e-10
 36.48970     91.1 1.071e+04 1.796e-10
 36.52900     92.4 1.080e+04 2.104e-10
 36.56830     93.8 1.089e+04 2.773e-10
 36.60759     95.2 1.100e+04 3.697e-10
 36.63918     96.7 1.116e+04 4.601e-10
 36.65883     96.7 1.111e+04 4.164e-10
 36.68619     98.0 1.133e+04 4.661e-10
 36.72549     99.0 1.141e+04 4.696e-10
 36.76479     99.7 1.143e+04 4.619e-10
 36.80409    100.4 1.145e+04 4.435e-10
 36.84339    101.1 1.148e+04 4.513e-10
 36.88268    101.1 1.157e+04 4.945e-10
 36.92198    100.9 1.174e+04 6.514e-10
 36.94800    100.5 1.204e+04 9.783e-10
 36.96765    100.1 1.232e+04 1.262e-09
 37.00058     99.0 1.281e+04 1.813e-09
 37.03988     97.4 1.300e+04 1.900e-09
 37.07918     94.8 1.298e+04 1.715e-09
 37.11848     92.0 1.273e+04 1.357e-09
 37.14785     90.4 1.252e+04 1.137e-09
 37.16705     88.9 1.250e+04 1.124e-09
 37.17687     88.8 1.239e+04 1.006e-09
 37.19698     86.5 1.242e+04 1.041e-09
 37.23637     84.4 1.241e+04 1.092e-09
 37.27567     82.9 1.233e+04 1.018e-09
 37.31497     81.9 1.207e+04 7.533e-10
 37.35427     81.1 1.179e+04 4.581e-10
 37.39357     80.3 1.153e+04 2.701e-10
 37.42694     79.9 1.122e+04 2.305e-10
 37.44659     79.5 1.120e+04 2.385e-10
 37.47216     79.7 1.118e+04 2.450e-10
 37.51146     79.8 1.121e+04 2.764e-10
 37.55076     79.6 1.136e+04 3.409e-10
 37.59006     78.6 1.178e+04 4.583e-10
 37.61943     77.6 1.204e+04 5.718e-10
 37.63899     76.4 1.224e+04 8.011e-10
 37.65864     75.2 1.242e+04 1.144e-09
 37.67604     74.8 1.246e+04 1.290e-09
 37.68586     74.5 1.256e+04 1.426e-09
 37.69511     73.7 1.258e+04 1.400e-09
 37.70494     73.8 1.267e+04 1.496e-09
 37.71758     73.0 1.262e+04 1.396e-09
 37.74715     71.7 1.247e+04 1.125e-09
 37.78655     69.7 1.226e+04 8.591e-10
 37.81593     67.7 1.233e+04 8.632e-10
 37.83548     65.9 1.260e+04 9.486e-10
 37.85513     63.6 1.309e+04 1.379e-09
 37.87478     62.6 1.334e+04 2.081e-09
 37.90435     62.5 1.350e+04 2.602e-09
 37.92552     62.3 1.337e+04 2.317e-09
 37.94517     61.0 1.347e+04 2.094e-09
 37.98304     60.0 1.276e+04 8.544e-10
 38.02234     58.8 1.205e+04 4.025e-10
 38.06164     58.6 1.142e+04 3.233e-10
 38.10094     59.4 1.124e+04 3.030e-10
 38.14024     60.7 1.116e+04 2.915e-10
 38.17954     62.1 1.112e+04 2.674e-10
 38.21355     63.3 1.109e+04 2.294e-10
 38.23320     62.9 1.102e+04 2.229e-10
 38.25813     63.9 1.102e+04 2.003e-10
 38.29743     65.0 1.099e+04 2.004e-10
 38.33673     66.0 1.101e+04 2.162e-10
 38.37603     67.0 1.107e+04 2.531e-10
 38.40446     67.9 1.115e+04 3.039e-10
 38.42411     67.4 1.112e+04 2.343e-10
 38.45463     68.2 1.114e+04 2.675e-10
 38.49392     69.2 1.116e+04 2.986e-10
 38.53322     70.2 1.115e+04 2.976e-10
 38.57252     71.4 1.108e+04 2.667e-10
 38.61182     72.7 1.101e+04 1.983e-10
 38.65112     74.0 1.104e+04 1.270e-10
 38.69042     75.0 1.116e+04 7.954e-11
 38.72972     75.8 1.104e+04 6.459e-11
 38.75144     77.1 1.092e+04 6.516e-11
 38.77109     77.0 1.087e+04 5.200e-11
 38.80831     78.7 1.076e+04 5.588e-11
 38.84761     80.5 1.068e+04 6.414e-11
 38.88340     82.3 1.062e+04 7.514e-11
 38.90304     82.1 1.054e+04 6.884e-11
 38.92621     83.9 1.055e+04 8.578e-11
 38.96551     85.6 1.059e+04 1.117e-10
 39.00480     87.2 1.066e+04 1.540e-10
 39.04410     88.7 1.080e+04 2.191e-10
 39.08340     90.1 1.101e+04 3.095e-10
 39.12270     91.3 1.121e+04 4.099e-10
 39.16200     92.2 1.139e+04 5.041e-10
 39.20130     92.9 1.159e+04 5.901e-10
 39.24060     93.4 1.180e+04 6.572e-10
 39.26958     93.5 1.190e+04 6.802e-10
 39.27931     93.7 1.189e+04 6.782e-10
 39.28952     93.6 1.202e+04 7.016e-10
 39.30917     93.4 1.215e+04 7.593e-10
 39.32882     93.2 1.228e+04 8.566e-10
 39.34847     93.0 1.232e+04 9.975e-10
 39.36812     93.0 1.239e+04 1.142e-09
 39.38179     93.1 1.247e+04 1.246e-09
 39.39161     92.7 1.252e+04 1.346e-09
 39.40742     92.7 1.264e+04 1.451e-09
 39.42707     92.6 1.280e+04 1.497e-09
 39.44672     92.3 1.285e+04 1.494e-09
 39.46637     92.1 1.281e+04 1.465e-09
 39.48602     92.1 1.267e+04 1.356e-09
 39.50567     92.2 1.245e+04 1.159e-09
 39.52532     92.4 1.228e+04 9.184e-10
 39.53843     92.4 1.219e+04 6.786e-10
 39.54826     92.0 1.233e+04 8.135e-10
 39.56461     91.7 1.219e+04 6.388e-10
 39.58426     91.3 1.211e+04 6.091e-10
 39.60391     90.9 1.212e+04 6.213e-10
 39.62125     90.4 1.217e+04 7.048e-10
 39.63108     90.3 1.221e+04 5.774e-10
 39.64321     90.0 1.231e+04 7.832e-10
 39.66286     90.0 1.250e+04 1.141e-09
 39.68251     90.3 1.275e+04 1.589e-09
 39.70216     90.7 1.299e+04 1.852e-09
 39.72181     90.8 1.303e+04 1.826e-09
 39.74146     90.8 1.296e+04 1.647e-09
 39.76111     90.7 1.284e+04 1.293e-09
 39.78076     90.0 1.274e+04 9.308e-10
 39.79755     88.5 1.253e+04 6.991e-10
 39.80738     88.1 1.259e+04 6.358e-10
 39.82005     87.2 1.207e+04 5.571e-10
 39.83970     87.1 1.201e+04 5.556e-10
 39.86082     87.2 1.171e+04 4.987e-10
 39.88057     86.8 1.179e+04 5.750e-10
 39.90867     87.3 1.152e+04 4.990e-10
 39.94797     88.1 1.134e+04 4.351e-10
 39.98727     89.0 1.130e+04 4.017e-10
 40.02657     89.9 1.134e+04 4.019e-10
 40.05594     90.4 1.136e+04 4.096e-10
 40.06650     90.6 1.140e+04 4.297e-10
 40.07632     90.4 1.140e+04 4.517e-10
 40.09514     90.2 1.161e+04 5.432e-10
 40.11001     90.0 1.187e+04 6.574e-10
 40.11984     89.9 1.213e+04 7.261e-10
 40.13444     89.0 1.266e+04 1.002e-09
 40.15409     87.6 1.324e+04 1.477e-09
 40.17374     86.0 1.373e+04 2.168e-09
 40.19339     84.5 1.413e+04 2.966e-09
 40.21304     82.9 1.450e+04 3.488e-09
 40.23269     81.0 1.462e+04 3.497e-09
 40.25234     79.0 1.455e+04 3.337e-09
 40.27199     77.1 1.421e+04 2.981e-09
 40.29164     76.0 1.372e+04 2.493e-09
 40.31129     74.8 1.322e+04 2.017e-09
 40.32571     73.9 1.258e+04 1.455e-09
 40.34436     74.1 1.237e+04 1.251e-09
 40.35950     73.1 1.184e+04 9.888e-10
 40.38025     73.1 1.092e+04 5.629e-10
 40.41955     73.8 1.027e+04 3.197e-10
 40.45885     75.2 9.898e+03 1.867e-10
 40.49815     76.8 9.741e+03 1.146e-10
 40.53745     78.3 9.712e+03 7.623e-11
 40.57675     79.8 9.582e+03 5.996e-11
 40.61604     81.4 9.383e+03 5.772e-11
 40.65534     83.4 9.379e+03 5.771e-11
 40.69464     85.3 9.373e+03 6.050e-11
 40.73394     87.2 9.344e+03 6.932e-11
 40.77324     89.2 9.327e+03 8.299e-11
 40.81254     91.3 9.338e+03 1.000e-10
 40.83844     93.4 9.360e+03 1.174e-10
 40.85031     93.2 9.393e+03 1.183e-10
 40.86370     93.1 9.438e+03 1.228e-10
 40.89113     95.0 9.484e+03 1.383e-10
 40.93043     96.7 9.555e+03 1.439e-10
 40.96973     98.3 9.569e+03 1.426e-10
 41.00903     99.8 9.556e+03 1.379e-10
 41.04833    101.3 9.509e+03 1.306e-10
 41.08763    102.9 9.439e+03 1.256e-10
 41.12693    104.5 9.423e+03 1.253e-10
 41.16622    106.1 9.402e+03 1.284e-10
 41.20552    107.6 9.383e+03 1.381e-10
 41.24482    109.2 9.364e+03 1.525e-10
 41.28412    110.8 9.340e+03 1.678e-10
 41.31737    112.4 9.283e+03 1.736e-10
 41.33702    112.0 9.509e+03 1.925e-10
 41.36229    113.5 9.514e+03 1.907e-10
 41.38194    112.8 9.491e+03 1.861e-10
 41.40202    114.3 9.492e+03 1.807e-10
 41.44131    115.6 9.504e+03 1.799e-10
 41.48061    116.9 9.543e+03 1.816e-10
 41.51991    118.3 9.579e+03 1.869e-10
 41.55921    119.7 9.589e+03 1.884e-10
 41.59851    121.2 9.585e+03 1.862e-10
 41.63781    122.7 9.582e+03 1.756e-10
 41.67710    124.1 9.593e+03 1.572e-10
 41.71640    125.3 9.599e+03 1.453e-10
 41.75570    126.4 9.606e+03 1.457e-10
 41.79500    127.0 9.653e+03 1.552e-10
 41.81596    126.8 9.679e+03 1.830e-10
 41.83561    125.2 9.655e+03 1.797e-10
 41.87360    124.9 9.768e+03 2.226e-10
 41.90018    124.4 9.954e+03 2.670e-10
 41.91983    122.8 9.957e+03 2.701e-10
 41.95219    122.1 1.020e+04 2.816e-10
 41.99149    120.9 1.024e+04 2.745e-10
 42.03079    119.5 1.026e+04 2.418e-10
 42.07009    118.1 1.015e+04 1.985e-10
 42.10939    116.9 9.944e+03 1.637e-10
 42.14869    116.4 9.749e+03 1.403e-10
 42.18799    116.3 9.637e+03 1.209e-10
 42.22728    116.4 9.589e+03 1.003e-10
 42.26658    116.7 9.573e+03 8.115e-11
 42.29490    117.0 9.537e+03 6.932e-11
 42.31454    116.8 9.533e+03 7.157e-11
 42.34518    117.4 9.501e+03 7.111e-11
 42.38448    118.3 9.495e+03 7.272e-11
 42.41843    119.3 9.518e+03 7.821e-11
 42.43807    118.7 9.456e+03 7.337e-11
 42.46308    119.7 9.535e+03 8.469e-11
 42.50237    120.7 9.636e+03 1.008e-10
 42.54167    121.7 9.758e+03 1.263e-10
 42.58097    122.6 9.962e+03 1.695e-10
 42.62027    123.2 1.027e+04 2.374e-10
 42.65957    123.2 1.058e+04 3.248e-10
 42.69887    122.9 1.092e+04 4.217e-10
 42.73817    122.1 1.121e+04 5.138e-10
 42.77383    120.0 1.167e+04 5.892e-10
 42.79338    119.7 1.176e+04 5.373e-10
 42.80674    118.4 1.190e+04 5.582e-10
 42.82639    117.0 1.205e+04 5.820e-10
 42.84604    115.3 1.224e+04 6.079e-10
 42.86569    113.6 1.244e+04 6.385e-10
 42.88534    111.8 1.254e+04 6.740e-10
 42.90499    109.9 1.257e+04 7.072e-10
 42.92464    107.7 1.259e+04 7.338e-10
 42.94429    105.3 1.257e+04 7.540e-10
 42.95612    102.9 1.253e+04 7.746e-10
 42.96594    102.1 1.255e+04 7.878e-10
 42.98359     99.5 1.255e+04 8.525e-10
 43.00323     96.8 1.263e+04 9.684e-10
 43.02288     94.4 1.278e+04 1.138e-09
 43.04253     91.1 1.305e+04 1.436e-09
 43.06218     89.0 1.302e+04 1.474e-09
 43.08183     87.0 1.292e+04 1.441e-09
 43.10148     85.9 1.275e+04 1.375e-09
 43.13105     83.8 1.240e+04 1.208e-09
 43.17045     82.0 1.151e+04 7.372e-10
 43.20975     80.8 1.056e+04 3.643e-10
 43.24905     79.7 9.761e+03 1.878e-10
 43.27242     79.3 9.502e+03 1.671e-10
 43.29207     79.7 9.608e+03 1.893e-10
 43.32764     80.3 9.590e+03 1.923e-10
 43.36694     81.2 9.596e+03 2.113e-10
 43.40624     82.2 9.655e+03 2.337e-10
 43.44554     83.1 9.671e+03 2.353e-10
 43.47456     83.9 9.637e+03 2.255e-10
 43.49421     83.6 9.909e+03 2.733e-10
 43.52414     84.3 9.859e+03 2.692e-10
 43.56343     85.2 9.848e+03 2.752e-10
 43.60273     86.2 9.883e+03 3.064e-10
 43.64203     87.6 9.987e+03 3.678e-10
 43.68133     89.4 1.021e+04 4.537e-10
 43.71071     90.6 1.028e+04 4.828e-10
 43.73026     91.2 1.034e+04 5.033e-10
 43.74331     92.0 1.043e+04 5.309e-10
 43.75313     91.7 1.048e+04 5.463e-10
 43.76098     92.5 1.056e+04 5.559e-10
 43.77081     92.7 1.092e+04 6.834e-10
 43.78921     93.5 1.091e+04 6.582e-10
 43.80885     94.3 1.087e+04 6.208e-10
 43.82850     95.1 1.083e+04 5.776e-10
 43.84815     96.0 1.079e+04 5.344e-10
 43.86780     96.9 1.076e+04 4.966e-10
 43.88745     97.7 1.073e+04 4.652e-10
 43.90710     98.6 1.070e+04 4.409e-10
 43.92675     99.5 1.067e+04 4.279e-10
 43.94640    100.4 1.066e+04 4.253e-10
 43.96605    101.3 1.066e+04 4.268e-10
 43.98570    102.4 1.069e+04 4.338e-10
 44.00045    103.4 1.073e+04 4.489e-10
 44.00735    103.7 1.074e+04 4.415e-10
 44.01225    103.5 1.076e+04 4.858e-10
 44.02500    104.5 1.078e+04 5.003e-10
 44.04465    105.8 1.081e+04 5.204e-10
 44.06430    107.1 1.089e+04 5.524e-10
 44.08394    108.4 1.100e+04 5.960e-10
 44.10359    109.5 1.112e+04 6.472e-10
 44.12324    110.9 1.126e+04 7.126e-10
 44.14289    112.2 1.148e+04 8.050e-10
 44.16254    113.4 1.174e+04 9.240e-10
 44.18219    114.6 1.199e+04 1.057e-09
 44.20184    115.9 1.227e+04 1.204e-09
 44.22149    117.2 1.261e+04 1.380e-09
 44.23992    118.3 1.307e+04 1.636e-09
 44.24974    118.4 1.303e+04 1.869e-09
 44.26079    119.3 1.368e+04 2.331e-09
 44.27137    120.0 1.470e+04 3.174e-09
 44.28120    120.8 1.483e+04 3.641e-09
 44.29513    120.8 1.533e+04 4.156e-09
 44.30490    120.6 1.569e+04 4.524e-09
 44.31473    120.0 1.645e+04 5.437e-09
 44.32455    118.8 1.748e+04 7.254e-09
 44.33437    117.2 1.849e+04 1.041e-08
 44.34420    115.6 1.934e+04 1.553e-08
 44.35402    114.4 2.004e+04 2.348e-08
 44.36385    113.6 2.068e+04 3.481e-08
 44.36938    113.0 2.141e+04 4.679e-08
 44.37429    113.1 2.139e+04 6.349e-08
 44.38350    112.3 2.197e+04 7.528e-08
 44.39332    110.9 2.207e+04 7.357e-08
 44.40083    109.8 2.211e+04 6.092e-08
 44.40575    110.3 2.236e+04 4.798e-08
 44.41297    108.4 2.255e+04 2.937e-08
 44.42280    105.7 2.258e+04 1.565e-08
 44.43758    100.6 2.094e+04 5.727e-09
 44.45728     91.9 1.560e+04 1.596e-09
 44.47693     87.4 1.219e+04 1.078e-09
 44.48921     87.3 1.186e+04 9.609e-10
 44.49904     87.1 1.150e+04 7.782e-10
 44.51623     87.6 1.142e+04 7.249e-10
 44.53049     88.2 1.134e+04 7.035e-10
 44.54032     86.9 1.137e+04 7.389e-10
 44.55553     87.5 1.133e+04 7.432e-10
 44.57518     88.1 1.128e+04 7.569e-10
 44.59483     88.9 1.123e+04 7.866e-10
 44.61447     89.7 1.118e+04 8.227e-10
 44.63412     90.5 1.111e+04 8.461e-10
 44.65377     91.2 1.106e+04 8.468e-10
 44.67342     91.9 1.087e+04 8.383e-10
 44.69307     92.4 1.076e+04 8.230e-10
 44.71272     92.8 1.078e+04 8.282e-10
 44.72868     92.8 1.089e+04 8.647e-10
 44.73850     93.2 1.052e+04 6.979e-10
 44.75202     93.1 1.084e+04 7.997e-10
 44.77167     92.8 1.138e+04 1.015e-09
 44.78961     92.3 1.208e+04 1.391e-09
 44.79944     92.8 1.185e+04 1.327e-09
 44.81097     92.4 1.271e+04 1.879e-09
 44.83062     92.1 1.345e+04 2.625e-09
 44.85027     92.1 1.409e+04 3.481e-09
 44.86991     91.9 1.479e+04 4.460e-09
 44.88460     91.5 1.519e+04 5.080e-09
 44.89438     91.3 1.534e+04 5.343e-09
 44.90420     90.9 1.558e+04 5.666e-09
 44.91403     90.3 1.587e+04 6.052e-09
 44.92385     89.5 1.623e+04 6.643e-09
 44.92890     88.5 1.662e+04 7.468e-09
 44.93381     88.2 1.703e+04 8.532e-09
 44.94350     87.2 1.738e+04 9.803e-09
 44.95333     86.1 1.775e+04 1.154e-08
 44.96315     84.9 1.814e+04 1.392e-08
 44.97296     83.9 1.850e+04 1.695e-08
 44.98279     83.2 1.954e+04 2.658e-08
 44.99263     82.5 2.000e+04 3.212e-08
 45.00245     81.8 2.037e+04 3.513e-08
 45.01227     81.2 2.036e+04 3.418e-08
 45.02210     80.7 2.020e+04 3.037e-08
 45.03192     80.2 2.007e+04 2.500e-08
 45.04175     79.2 1.988e+04 1.967e-08
 45.05157     78.1 1.956e+04 1.500e-08
 45.05851     76.2 1.823e+04 8.928e-09
 45.06838     73.8 1.753e+04 7.856e-09
 45.08606     70.2 1.605e+04 5.276e-09
 45.10571     67.8 1.479e+04 4.062e-09
 45.12536     67.0 1.511e+04 3.466e-09
 45.14500     66.5 1.674e+04 3.610e-09
 45.16465     65.9 1.953e+04 4.123e-09
 45.18430     64.8 2.050e+04 4.815e-09
 45.20395     63.0 1.985e+04 5.665e-09
 45.21744     61.6 1.880e+04 6.645e-09
 45.22726     63.0 1.370e+04 2.313e-09
 45.24325     62.3 1.426e+04 3.078e-09
 45.26290     62.5 1.459e+04 3.898e-09
 45.28255     63.0 1.480e+04 4.436e-09
 45.30220     63.6 1.507e+04 4.676e-09
 45.31768     63.6 1.558e+04 4.881e-09
 45.32750     62.2 1.739e+04 6.266e-09
 45.34150     61.1 1.826e+04 6.866e-09
 45.36115     59.8 1.844e+04 7.887e-09
 45.38080     58.8 1.797e+04 9.510e-09
 45.40044     58.1 1.748e+04 1.203e-08
 45.42009     57.5 1.759e+04 1.486e-08
 45.43974     56.8 1.831e+04 1.884e-08
 45.45691     56.2 1.906e+04 2.100e-08
 45.46668     54.6 1.863e+04 2.947e-08
 45.47403     54.9 1.862e+04 2.884e-08
 45.48386     55.6 1.864e+04 2.506e-08
 45.49368     56.5 1.849e+04 1.948e-08
 45.50351     57.3 1.846e+04 1.370e-08
 45.51829     57.0 1.816e+04 1.054e-08
 45.53799     55.8 1.983e+04 3.642e-09
 45.55764     50.8 2.425e+04 1.223e-09
 45.57680     43.8 2.593e+04 5.817e-10
 45.58662     36.1 1.471e+04 3.236e-10
 45.60686     31.8 1.054e+04 3.290e-10
 45.64626     31.6 1.003e+04 3.253e-10
 45.68555     31.1 1.001e+04 2.536e-10
 45.70640     29.3 9.823e+03 2.119e-10
 45.72604     30.0 1.020e+04 3.115e-10
 45.76415     28.8 9.737e+03 2.920e-10
 45.80345     29.0 9.421e+03 2.806e-10
 45.84275     30.2 9.165e+03 2.454e-10
 45.88205     31.6 9.054e+03 1.910e-10
 45.92135     32.7 8.975e+03 1.471e-10
 45.96064     33.8 8.736e+03 1.337e-10
 45.99994     35.4 8.661e+03 1.362e-10
 46.03924     37.2 8.592e+03 1.539e-10
 46.07854     39.1 8.654e+03 1.931e-10
 46.10506     41.0 8.866e+03 2.552e-10
 46.12471     40.3 8.878e+03 2.510e-10
 46.15714     41.5 9.389e+03 3.801e-10
 46.18533     42.9 1.004e+04 6.311e-10
 46.20498     43.2 1.060e+04 8.654e-10
 46.23573     44.6 1.075e+04 9.246e-10
 46.27503     46.2 1.065e+04 8.696e-10
 46.31433     47.9 1.041e+04 6.227e-10
 46.34371     48.9 1.023e+04 5.182e-10
 46.36326     49.7 1.003e+04 4.258e-10
 46.37381     50.0 1.019e+04 3.490e-10
 46.38363     48.6 1.052e+04 2.973e-10
 46.40256     47.5 1.081e+04 3.225e-10
 46.42221     44.9 1.166e+04 4.327e-10
 46.43443     42.5 1.187e+04 7.651e-10
 46.44425     42.0 1.182e+04 6.071e-10
 46.46151     41.8 1.180e+04 1.156e-09
 46.48115     42.3 1.198e+04 1.793e-09
 46.50080     43.1 1.251e+04 2.047e-09
 46.52045     43.2 1.273e+04 1.933e-09
 46.54010     42.8 1.305e+04 1.472e-09
 46.55975     41.3 1.299e+04 8.660e-10
 46.57940     38.6 1.232e+04 4.347e-10
 46.59905     36.1 1.117e+04 2.575e-10
 46.62320     35.9 1.115e+04 2.337e-10
 46.64295     34.2 1.034e+04 1.073e-10
 46.66427     33.3 1.029e+04 8.394e-11
 46.68392     32.2 1.027e+04 8.732e-11
 46.70732     32.4 9.977e+03 8.879e-11
 46.74661     33.1 9.911e+03 8.954e-11
 46.78591     33.8 9.827e+03 9.343e-11
 46.82521     34.5 9.706e+03 1.009e-10
 46.86451     35.2 9.579e+03 1.087e-10
 46.90381     35.8 9.493e+03 1.137e-10
 46.94311     36.5 9.425e+03 1.132e-10
 46.98241     37.4 9.245e+03 1.059e-10
 47.02170     38.3 9.063e+03 9.069e-11
 47.06100     39.1 8.960e+03 7.500e-11
 47.10030     39.6 8.843e+03 6.886e-11
 47.13960     40.4 8.815e+03 6.955e-11
 47.16119     41.3 8.767e+03 7.069e-11
 47.16479     41.6 8.766e+03 6.963e-11
 47.18250     40.7 8.834e+03 7.773e-11
 47.21820     42.0 8.775e+03 7.548e-11
 47.25750     42.9 8.857e+03 6.454e-11
 47.29679     43.3 8.995e+03 6.466e-11
 47.33609     43.0 9.198e+03 7.853e-11
 47.37539     43.0 9.160e+03 1.346e-10
 47.41469     44.0 9.094e+03 2.191e-10
 47.45399     45.6 9.034e+03 2.374e-10
 47.49329     47.2 8.938e+03 2.173e-10
 47.53259     48.7 8.766e+03 1.589e-10
 47.57188     49.7 8.634e+03 1.013e-10
 47.61118     50.2 8.469e+03 6.898e-11
 47.64179     51.0 8.259e+03 6.040e-11
 47.66144     49.9 8.256e+03 6.346e-11
 47.67943     51.0 8.356e+03 7.145e-11
 47.69908     51.3 8.496e+03 7.988e-11
 47.72908     50.9 9.005e+03 1.427e-10
 47.76838     50.2 9.870e+03 3.453e-10
 47.79775     50.1 1.050e+04 6.060e-10
 47.81730     50.3 1.100e+04 9.254e-10
 47.83695     50.3 1.151e+04 1.259e-09
 47.85660     50.2 1.193e+04 1.508e-09
 47.87625     49.8 1.207e+04 1.523e-09
 47.89089     49.0 1.201e+04 1.458e-09
 47.90071     48.4 1.178e+04 1.321e-09
 47.92547     47.7 1.147e+04 1.051e-09
 47.96487     46.1 1.064e+04 6.303e-10
 48.00417     44.7 9.771e+03 3.758e-10
 48.04347     44.3 9.290e+03 2.577e-10
 48.08276     44.2 9.117e+03 2.117e-10
 48.12072     44.4 9.115e+03 2.111e-10
 48.14037     44.3 8.965e+03 1.663e-10
 48.16136     44.7 8.999e+03 1.811e-10
 48.19767     45.2 9.018e+03 1.946e-10
 48.21732     45.3 8.988e+03 1.883e-10
 48.23996     45.8 8.970e+03 1.846e-10
 48.27926     46.3 8.882e+03 1.625e-10
 48.31856     46.6 8.788e+03 1.260e-10
 48.35785     46.6 8.711e+03 9.638e-11
 48.39715     46.5 8.633e+03 8.233e-11
 48.43645     46.6 8.556e+03 7.695e-11
 48.47575     47.1 8.523e+03 7.325e-11
 48.51505     47.7 8.543e+03 7.045e-11
 48.55435     48.2 8.575e+03 7.127e-11
 48.59365     48.6 8.652e+03 7.598e-11
 48.61931     49.0 8.705e+03 9.206e-11
 48.63896     49.7 8.650e+03 8.545e-11
 48.67224     50.5 8.711e+03 9.900e-11
 48.71154     51.5 8.755e+03 1.061e-10
 48.73556     52.5 8.771e+03 1.037e-10
 48.75521     52.4 8.779e+03 1.053e-10
 48.79014     53.3 8.810e+03 9.861e-11
 48.82944     54.1 8.843e+03 9.915e-11
 48.86874     54.7 8.995e+03 1.081e-10
 48.90803     54.9 9.278e+03 1.402e-10
 48.94733     54.9 9.558e+03 2.010e-10
 48.98663     55.0 9.821e+03 2.821e-10
 49.02593     55.1 1.007e+04 3.318e-10
 49.06523     55.0 1.012e+04 3.275e-10
 49.09825     54.7 1.015e+04 2.967e-10
 49.11790     55.1 1.021e+04 2.979e-10
 49.14383     54.6 1.020e+04 2.604e-10
 49.18312     54.4 1.008e+04 2.336e-10
 49.22242     54.4 9.972e+03 2.229e-10
 49.25380     54.5 9.889e+03 2.164e-10
 49.27345     54.6 9.600e+03 1.648e-10
 49.30102     55.0 9.577e+03 1.741e-10
 49.34032     55.7 9.543e+03 1.847e-10
 49.37962     56.6 9.503e+03 1.916e-10
 49.41891     57.6 9.473e+03 1.959e-10
 49.45821     58.6 9.494e+03 2.040e-10
 49.49751     59.3 9.603e+03 2.309e-10
 49.53681     59.6 9.919e+03 3.198e-10
 49.57611     60.0 1.034e+04 4.730e-10
 49.59683     60.1 1.062e+04 5.542e-10
 49.61648     59.9 1.076e+04 5.867e-10
 49.65471     59.7 1.069e+04 5.473e-10
 49.69400     59.4 1.049e+04 4.117e-10
 49.73330     58.6 1.026e+04 2.970e-10
 49.77204     57.6 1.024e+04 2.899e-10
 49.79169     57.3 1.023e+04 2.803e-10
 49.81190     56.4 1.020e+04 3.107e-10
 49.85120     56.4 1.018e+04 3.387e-10
 49.89050     56.5 1.010e+04 3.179e-10
 49.92980     56.5 9.837e+03 2.714e-10
 49.96909     56.5 9.606e+03 2.616e-10
 50.00839     56.8 9.614e+03 2.884e-10
 50.04769     57.3 9.821e+03 3.768e-10
 50.07577     57.8 1.007e+04 4.741e-10
 50.09542     57.2 1.004e+04 3.683e-10
 50.12629     57.2 1.016e+04 3.644e-10
 50.15566     57.3 1.018e+04 3.711e-10
 50.17522     56.8 1.034e+04 3.985e-10
 50.19487     55.6 1.059e+04 4.838e-10
 50.21451     54.4 1.071e+04 6.599e-10
 50.23416     54.0 1.090e+04 9.353e-10
 50.25381     54.1 1.127e+04 1.248e-09
 50.27346     54.2 1.177e+04 1.354e-09
 50.29311     53.9 1.190e+04 1.327e-09
 50.30974     52.8 1.205e+04 1.200e-09
 50.31956     52.7 1.231e+04 1.378e-09
 50.32486     50.4 1.222e+04 1.168e-09
 50.33469     49.1 1.171e+04 9.767e-10
 50.35206     46.1 1.139e+04 8.941e-10
 50.37171     43.5 1.096e+04 8.285e-10
 50.39136     41.5 1.064e+04 7.610e-10
 50.41101     39.8 1.035e+04 6.643e-10
 50.43066     37.2 1.049e+04 6.294e-10
 50.45031     34.6 1.039e+04 6.185e-10
 50.47988     31.8 1.038e+04 7.213e-10
 50.51927     29.4 1.017e+04 7.712e-10
 50.54865     28.4 1.007e+04 7.493e-10
 50.56433     28.0 9.944e+03 7.163e-10
 50.57425     27.9 9.967e+03 7.072e-10
 50.59787     27.0 9.497e+03 5.667e-10
 50.63717     26.2 9.026e+03 4.305e-10
 50.67647     26.1 8.656e+03 3.428e-10
 50.71577     26.3 8.373e+03 2.790e-10
 50.75506     26.7 8.159e+03 2.300e-10
 50.79436     27.2 7.991e+03 1.934e-10
 50.82818     27.7 7.910e+03 1.788e-10
 50.84782     27.4 8.152e+03 2.157e-10
 50.87296     27.6 8.259e+03 2.308e-10
 50.91226     27.5 8.526e+03 2.805e-10
 50.95156     27.4 8.940e+03 3.843e-10
 50.99086     27.6 9.348e+03 5.217e-10
 51.03015     27.9 9.705e+03 6.456e-10
 51.05329     27.7 1.002e+04 7.474e-10
 51.07294     27.7 1.005e+04 7.547e-10
 51.10875     27.0 1.059e+04 9.563e-10
 51.13813     25.2 1.119e+04 1.177e-09
 51.15768     23.5 1.169e+04 1.509e-09
 51.17733     23.1 1.190e+04 1.839e-09
 51.19698     23.1 1.191e+04 1.889e-09
 51.21663     23.2 1.184e+04 1.777e-09
 51.23628     22.9 1.172e+04 1.524e-09
 51.26585     22.3 1.125e+04 1.080e-09
 51.30524     20.6 1.048e+04 7.116e-10
 51.34454     20.1 1.025e+04 6.780e-10
 51.36607     20.2 1.023e+04 6.963e-10
 51.38572     20.0 9.825e+03 5.446e-10
 51.42314     20.8 9.748e+03 5.559e-10
 51.46244     22.0 9.463e+03 4.767e-10
 51.50174     23.1 9.094e+03 3.251e-10
 51.53222     23.2 8.700e+03 1.879e-10
 51.55187     24.2 9.057e+03 2.841e-10
 51.58033     24.1 8.731e+03 1.803e-10
 51.61963     23.5 8.834e+03 1.841e-10
 51.65893     21.1 9.531e+03 3.012e-10
 51.68831     19.1 9.990e+03 5.192e-10
 51.70786     19.4 1.036e+04 7.779e-10
 51.72751     19.4 1.067e+04 8.285e-10
 51.74716     19.3 1.067e+04 8.203e-10
 51.77673     19.7 1.035e+04 6.363e-10
 51.81612     19.2 9.668e+03 2.904e-10
 51.85542     17.1 9.096e+03 1.132e-10
 51.88431     15.8 8.443e+03 7.716e-11
 51.90396     15.9 8.470e+03 7.969e-11
 51.93402     16.3 8.135e+03 7.088e-11
 51.97332     17.5 8.011e+03 6.622e-11
 52.01116     19.1 7.943e+03 6.021e-11
 52.03081     19.6 7.992e+03 6.787e-11
 52.05192     21.3 7.929e+03 5.273e-11
 52.09121     22.8 7.928e+03 3.885e-11
 52.13051     24.0 7.904e+03 2.924e-11
 52.16981     25.1 7.837e+03 2.737e-11
 52.20911     26.3 7.857e+03 2.842e-11
 52.24841     27.3 7.921e+03 3.432e-11
 52.28771     28.5 7.986e+03 4.743e-11
 52.32701     29.9 8.069e+03 6.577e-11
 52.36630     31.3 8.187e+03 8.290e-11
 52.40255     32.6 8.341e+03 9.003e-11
 52.42220     32.5 8.326e+03 8.890e-11
 52.44490     33.4 8.433e+03 9.589e-11
 52.48420     34.0 8.526e+03 1.005e-10
 52.50975     34.3 8.632e+03 1.069e-10
 52.52940     34.2 8.715e+03 1.186e-10
 52.56280     34.6 8.803e+03 1.344e-10
 52.60210     35.1 8.864e+03 1.457e-10
 52.64139     35.7 8.900e+03 1.494e-10
 52.68069     36.2 8.956e+03 1.527e-10
 52.71999     36.5 9.088e+03 1.677e-10
 52.75929     36.8 9.299e+03 2.116e-10
 52.79859     37.2 9.550e+03 2.732e-10
 52.83789     37.6 9.728e+03 3.051e-10
 52.87719     37.8 9.723e+03 3.011e-10
 52.91648     38.0 9.620e+03 2.766e-10
 52.94044     38.2 9.446e+03 2.308e-10
 52.96009     38.8 9.450e+03 2.295e-10
 52.98868     39.1 9.300e+03 1.935e-10
 53.00833     39.5 9.299e+03 1.687e-10
 53.03438     39.6 9.156e+03 1.381e-10
 53.07368     40.0 8.974e+03 1.316e-10
 53.11298     40.7 8.900e+03 1.295e-10
 53.15227     41.7 8.819e+03 1.244e-10
 53.19157     42.9 8.733e+03 1.105e-10
 53.23087     44.1 8.666e+03 9.071e-11
 53.27017     45.2 8.591e+03 7.383e-11
 53.30947     46.3 8.453e+03 6.676e-11
 53.34877     47.6 8.387e+03 6.695e-11
 53.38807     49.2 8.363e+03 7.031e-11
 53.42736     50.8 8.412e+03 7.545e-11
 53.45868     52.5 8.491e+03 8.170e-11
 53.47833     52.9 8.493e+03 7.888e-11
 53.48727     54.6 8.566e+03 8.533e-11
 53.50692     55.5 8.482e+03 7.611e-11
 53.54526     57.1 8.584e+03 8.503e-11
 53.58456     58.7 8.691e+03 9.707e-11
 53.62386     60.3 8.795e+03 1.131e-10
 53.66316     61.8 8.895e+03 1.349e-10
 53.70245     63.2 9.027e+03 1.661e-10
 53.74175     64.5 9.216e+03 2.082e-10
 53.78105     65.7 9.454e+03 2.571e-10
 53.82035     66.7 9.723e+03 3.025e-10
 53.85965     67.4 9.916e+03 3.339e-10
 53.89895     67.9 1.009e+04 3.570e-10
 53.93825     67.9 1.029e+04 4.043e-10
 53.96620     67.9 1.058e+04 5.245e-10
 53.98523     68.0 1.063e+04 5.740e-10
 53.99657     68.3 1.068e+04 6.054e-10
 54.01684     68.5 1.095e+04 7.689e-10
 54.05614     68.8 1.110e+04 8.310e-10
 54.09544     69.1 1.107e+04 8.029e-10
 54.13474     69.4 1.094e+04 6.899e-10
 54.17404     69.9 1.076e+04 5.339e-10
 54.21334     70.3 1.056e+04 4.033e-10
 54.25263     70.8 1.037e+04 3.105e-10
 54.29193     71.5 1.014e+04 2.429e-10
 54.33123     72.4 9.885e+03 1.898e-10
 54.37053     73.4 9.592e+03 1.515e-10
 54.40983     74.7 9.313e+03 1.303e-10
 54.44514     76.2 9.083e+03 1.203e-10
 54.46479     76.8 9.084e+03 1.359e-10
 54.48842     78.4 8.927e+03 1.319e-10
 54.51481     80.0 8.840e+03 1.280e-10
 54.53446     80.5 8.799e+03 1.209e-10
 54.56702     82.2 8.747e+03 1.200e-10
 54.60632     83.7 8.686e+03 1.154e-10
 54.64562     85.2 8.639e+03 1.081e-10
 54.68492     86.6 8.606e+03 1.017e-10
 54.72422     87.8 8.541e+03 9.836e-11
 54.76351     88.9 8.529e+03 9.852e-11
 54.80281     90.1 8.532e+03 1.001e-10
 54.84211     91.2 8.554e+03 1.060e-10
 54.88141     92.1 8.637e+03 1.255e-10
 54.92071     93.0 8.835e+03 1.709e-10
 54.94372     93.8 9.170e+03 2.573e-10
 54.96337     93.5 9.183e+03 3.208e-10
 54.99931     94.4 9.548e+03 4.485e-10
 55.03305     95.1 9.912e+03 5.685e-10
 55.05270     96.1 9.606e+03 4.632e-10
 55.07790     96.2 9.717e+03 4.623e-10
 55.11720     96.1 9.779e+03 4.531e-10
 55.15650     95.7 9.939e+03 4.168e-10
 55.19580     94.9 1.005e+04 3.651e-10
 55.23510     94.1 1.008e+04 3.525e-10
 55.27440     93.6 1.010e+04 3.598e-10
 55.31369     93.7 1.011e+04 3.894e-10
 55.35299     94.0 1.003e+04 4.237e-10
 55.39229     94.4 9.970e+03 4.246e-10
 55.42266     94.9 9.854e+03 4.137e-10
 55.44231     95.4 9.892e+03 4.857e-10
 55.47089     95.9 9.650e+03 3.954e-10
 55.51019     96.6 9.656e+03 3.724e-10
 55.54948     96.8 9.765e+03 3.915e-10
 55.57094     96.9 1.010e+04 4.700e-10
 55.59059     97.7 9.808e+03 3.511e-10
 55.62808     97.5 1.019e+04 4.333e-10
 55.66738     97.0 1.068e+04 6.008e-10
 55.70668     96.5 1.114e+04 7.995e-10
 55.74598     96.1 1.144e+04 9.471e-10
 55.78528     95.5 1.141e+04 9.499e-10
 55.82457     95.4 1.124e+04 9.227e-10
 55.85395     95.3 1.110e+04 8.943e-10
 55.87350     95.4 1.103e+04 8.654e-10
 55.89315     95.6 1.105e+04 8.643e-10
 55.91123     95.6 1.122e+04 8.911e-10
 55.92105     93.5 1.321e+04 1.072e-09
 55.93245     92.6 1.423e+04 1.578e-09
 55.95210     91.4 1.526e+04 2.705e-09
 55.97175     90.1 1.675e+04 5.760e-09
 55.98644     89.8 1.734e+04 7.958e-09
 55.99621     89.6 1.793e+04 1.039e-08
 56.00604     89.5 1.848e+04 1.362e-08
 56.01586     89.4 1.893e+04 1.748e-08
 56.02569     89.3 1.936e+04 2.141e-08
 56.03551     89.2 1.966e+04 2.366e-08
 56.04069     88.9 1.967e+04 2.352e-08
 56.04560     89.0 2.024e+04 3.755e-08
 56.05516     89.0 2.009e+04 3.124e-08
 56.06995     88.8 1.894e+04 1.629e-08
 56.08899     88.0 1.781e+04 9.118e-09
 56.09881     88.4 1.902e+04 1.192e-08
 56.10929     86.9 1.752e+04 5.531e-09
 56.12894     84.5 1.524e+04 2.545e-09
 56.14859     82.4 1.275e+04 1.366e-09
 56.17816     80.5 1.091e+04 6.276e-10
 56.21756     80.4 9.514e+03 3.141e-10
 56.25686     80.6 8.884e+03 1.730e-10
 56.29616     81.4 8.668e+03 1.449e-10
 56.33546     82.6 8.625e+03 1.448e-10
 56.37475     84.0 8.601e+03 1.485e-10
 56.40018     85.5 8.588e+03 1.630e-10
 56.41983     86.0 8.560e+03 1.595e-10
 56.45335     87.6 8.568e+03 1.730e-10
 56.49265     89.4 8.601e+03 1.889e-10
 56.53195     91.3 8.696e+03 2.134e-10
 56.57125     93.3 8.898e+03 2.561e-10
 56.60742     95.3 9.232e+03 3.172e-10
 56.62707     95.3 9.473e+03 3.531e-10
 56.63955     96.0 9.603e+03 4.116e-10
 56.64928     96.3 9.521e+03 3.541e-10
 56.65947     97.1 9.627e+03 3.634e-10
 56.67912     97.8 9.926e+03 4.208e-10
 56.69877     97.7 1.044e+04 5.415e-10
 56.71842     97.2 1.125e+04 7.603e-10
 56.73807     96.5 1.215e+04 1.150e-09
 56.75772     95.9 1.285e+04 1.732e-09
 56.77737     95.8 1.319e+04 2.406e-09
 56.79702     95.9 1.332e+04 2.996e-09
 56.81667     96.1 1.320e+04 3.165e-09
 56.83632     96.3 1.308e+04 3.093e-09
 56.85597     96.6 1.286e+04 2.874e-09
 56.87561     96.7 1.268e+04 2.621e-09
 56.88600     96.8 1.260e+04 2.410e-09
 56.88930     96.8 1.279e+04 2.502e-09
 56.89857     97.0 1.299e+04 2.619e-09
 56.91491     96.6 1.287e+04 2.328e-09
 56.93456     96.1 1.278e+04 2.179e-09
 56.95421     95.7 1.274e+04 2.107e-09
 56.97386     95.4 1.268e+04 2.061e-09
 56.99351     95.0 1.261e+04 2.028e-09
 57.01316     94.5 1.261e+04 2.035e-09
 57.03281     93.7 1.268e+04 2.046e-09
 57.05246     92.4 1.280e+04 2.076e-09
 57.07211     90.4 1.312e+04 2.200e-09
 57.09176     86.7 1.408e+04 2.672e-09
 57.11141     81.2 1.584e+04 4.338e-09
 57.12822     76.5 1.718e+04 8.653e-09
 57.13804     77.6 1.669e+04 5.974e-09
 57.14512     75.0 1.790e+04 1.274e-08
 57.15494     74.8 1.748e+04 1.103e-08
 57.17035     73.5 1.778e+04 1.423e-08
 57.19000     72.4 1.768e+04 1.372e-08
 57.20965     71.8 1.707e+04 1.051e-08
 57.22930     70.8 1.602e+04 5.867e-09
 57.24895     67.3 1.463e+04 2.519e-09
 57.26860     61.8 1.269e+04 1.422e-09
 57.28825     57.0 1.128e+04 1.134e-09
 57.31782     53.6 1.135e+04 1.182e-09
 57.35722     50.7 1.164e+04 1.266e-09
 57.37761     48.9 1.208e+04 1.355e-09
 57.38733     45.7 1.163e+04 1.079e-09
 57.40424     44.1 1.150e+04 1.057e-09
 57.41406     43.2 1.162e+04 1.135e-09
 57.42579     40.2 1.179e+04 1.202e-09
 57.44544     38.9 1.163e+04 1.190e-09
 57.47502     37.1 1.136e+04 1.076e-09
 57.51441     35.0 1.094e+04 9.959e-10
 57.55371     33.7 1.025e+04 7.489e-10
 57.58309     33.1 9.974e+03 6.582e-10
 57.60264     32.8 9.777e+03 5.852e-10
 57.61698     32.4 9.599e+03 5.160e-10
 57.62680     32.2 9.373e+03 4.365e-10
 57.64194     32.0 9.282e+03 4.129e-10
 57.66159     32.0 9.238e+03 4.018e-10
 57.67318     32.0 9.200e+03 3.964e-10
 57.68311     31.6 9.177e+03 3.841e-10
 57.71090     32.2 9.012e+03 3.408e-10
 57.75020     32.8 8.832e+03 2.922e-10
 57.78950     33.3 8.833e+03 2.883e-10
 57.82880     33.0 8.999e+03 3.223e-10
 57.85664     33.0 9.662e+03 5.101e-10
 57.87629     32.8 9.142e+03 3.444e-10
 57.89747     32.8 9.493e+03 4.407e-10
 57.91703     32.9 9.682e+03 5.064e-10
 57.93230     33.0 9.848e+03 5.506e-10
 57.94213     33.0 9.836e+03 5.527e-10
 57.95632     33.0 9.965e+03 5.655e-10
 57.97597     32.9 9.986e+03 5.568e-10
 57.99562     32.6 9.974e+03 5.182e-10
 58.01527     32.1 9.969e+03 4.683e-10
 58.03492     31.3 9.916e+03 4.250e-10
 58.05457     30.6 9.889e+03 4.239e-10
 58.07422     29.6 1.011e+04 4.561e-10
 58.09387     26.0 1.142e+04 6.610e-10
 58.10574     20.4 1.340e+04 1.485e-09
 58.11556     18.9 1.345e+04 1.980e-09
 58.13317     18.2 1.370e+04 3.273e-09
 58.15282     17.9 1.373e+04 3.637e-09
 58.17247     16.2 1.457e+04 3.619e-09
 58.19142     12.9 1.501e+04 3.072e-09
 58.20125     13.0 1.482e+04 2.887e-09
 58.21176      8.2 1.444e+04 2.362e-09
 58.23141      4.8 1.306e+04 1.901e-09
 58.26099      2.1 1.256e+04 1.318e-09
 58.29046     -1.9 1.211e+04 8.535e-10
 58.31001     -3.1 1.160e+04 7.326e-10
 58.32966     -4.6 1.109e+04 4.709e-10
 58.34520     -6.3 1.045e+04 3.480e-10
 58.35503     -6.3 1.030e+04 2.922e-10
 58.37888     -8.5 1.027e+04 1.522e-10
 58.41828    -12.1 9.945e+03 1.126e-10
 58.45758    -14.4 9.547e+03 1.442e-10
 58.49687    -15.0 9.459e+03 2.183e-10
 58.53617    -16.5 1.009e+04 2.574e-10
 58.57547    -20.7 1.090e+04 3.537e-10
 58.60485    -23.0 1.082e+04 5.370e-10
 58.62440    -23.8 1.070e+04 7.018e-10
 58.64405    -23.6 1.076e+04 7.879e-10
 58.66370    -23.7 1.081e+04 6.860e-10
 58.69327    -26.8 1.049e+04 3.539e-10
 58.71968    -32.8 9.427e+03 1.789e-10
 58.73933    -30.0 9.666e+03 2.104e-10
 58.77196    -34.4 8.864e+03 1.725e-10
 58.81126    -35.6 8.890e+03 1.935e-10
 58.83416    -37.1 8.992e+03 1.996e-10
 58.85381    -35.8 8.791e+03 1.601e-10
 58.88986    -38.1 8.796e+03 1.410e-10
 58.92916    -40.8 8.798e+03 1.415e-10
 58.96846    -43.5 9.030e+03 2.105e-10
 59.00776    -46.1 9.610e+03 3.685e-10
 59.04705    -48.7 1.039e+04 6.278e-10
 59.08635    -51.4 1.103e+04 9.175e-10
 59.12565    -54.3 1.126e+04 1.045e-09
 59.16495    -57.2 1.110e+04 9.612e-10
 59.20425    -59.9 1.030e+04 5.612e-10
 59.23793    -62.6 9.315e+03 2.887e-10
 59.25757    -62.4 9.411e+03 2.970e-10
 59.28285    -65.7 8.818e+03 1.751e-10
 59.31310    -69.3 8.881e+03 1.641e-10
 59.33275    -66.1 8.761e+03 1.602e-10
 59.36144    -69.5 9.034e+03 1.743e-10
 59.40074    -74.1 1.120e+04 4.686e-10
 59.44004    -78.3 1.295e+04 1.220e-09
 59.46942    -82.8 1.376e+04 1.911e-09
 59.48897    -85.1 1.386e+04 2.052e-09
 59.50668    -88.1 1.364e+04 1.981e-09
 59.51650    -88.6 1.361e+04 1.894e-09
 59.52827    -90.5 1.317e+04 1.592e-09
 59.54791    -92.7 1.274e+04 1.313e-09
 59.56219    -94.1 1.223e+04 1.113e-09
 59.57202    -92.3 1.341e+04 1.610e-09
 59.58721    -93.8 1.296e+04 1.365e-09
 59.60686    -94.9 1.251e+04 1.196e-09
 59.62651    -95.8 1.215e+04 1.095e-09
 59.64616    -96.3 1.193e+04 1.036e-09
 59.66581    -96.5 1.176e+04 9.876e-10
 59.68546    -96.6 1.158e+04 9.227e-10
 59.70511    -96.5 1.139e+04 8.407e-10
 59.72476    -96.5 1.118e+04 7.454e-10
 59.74441    -96.4 1.100e+04 6.505e-10
 59.76406    -96.4 1.081e+04 5.619e-10
 59.77562    -96.4 1.064e+04 4.914e-10
 59.78545    -96.6 1.085e+04 5.790e-10
 59.80166    -96.7 1.068e+04 5.130e-10
 59.81149    -95.9 1.099e+04 6.372e-10
 59.82300    -96.0 1.083e+04 5.828e-10
 59.84265    -96.3 1.070e+04 5.504e-10
 59.86230    -96.6 1.063e+04 5.386e-10
 59.88195    -96.9 1.062e+04 5.369e-10
 59.90160    -97.3 1.060e+04 5.491e-10
 59.92125    -97.8 1.061e+04 5.767e-10
 59.94090    -98.3 1.059e+04 5.961e-10
 59.96055    -98.8 1.058e+04 6.006e-10
 59.98020    -99.2 1.043e+04 6.018e-10
 59.99985    -99.6 1.023e+04 5.727e-10
 60.01950    -99.9 1.003e+04 5.134e-10
 60.03474   -100.2 9.842e+03 4.585e-10
 60.04457   -100.2 9.901e+03 4.783e-10
 60.06872   -100.5 9.680e+03 4.085e-10
 60.10811   -101.0 9.250e+03 2.985e-10
 60.14741   -101.0 8.818e+03 2.072e-10
 60.18671   -101.1 8.496e+03 1.527e-10
 60.22601   -100.6 8.264e+03 1.230e-10
 60.26531    -99.7 8.114e+03 1.078e-10
 60.29062    -98.5 7.985e+03 9.756e-11
 60.29972    -98.2 8.135e+03 1.174e-10
 60.31371    -98.6 8.184e+03 1.308e-10
 60.34391    -97.0 7.983e+03 1.036e-10
 60.38320    -95.4 7.827e+03 8.303e-11
 60.42250    -93.7 7.713e+03 6.837e-11
 60.46180    -92.1 7.633e+03 5.838e-11
 60.50110    -90.3 7.576e+03 5.207e-11
 60.54040    -88.5 7.534e+03 4.847e-11
 60.57970    -86.7 7.508e+03 4.670e-11
 60.61899    -84.8 7.510e+03 4.608e-11
 60.65829    -83.1 7.528e+03 4.611e-11
 60.69759    -81.3 7.571e+03 4.738e-11
 60.73689    -79.7 7.630e+03 5.014e-11
 60.76955    -78.1 7.693e+03 5.501e-11
 60.78920    -78.1 7.596e+03 4.286e-11
 60.81230    -76.8 7.721e+03 5.120e-11
 60.83195    -77.3 7.903e+03 6.571e-11
 60.85479    -76.2 8.088e+03 9.627e-11
 60.89408    -75.2 8.375e+03 1.487e-10
 60.93338    -74.0 8.724e+03 2.320e-10
 60.97268    -72.7 9.079e+03 3.384e-10
 61.01198    -71.2 9.363e+03 4.343e-10
 61.05128    -69.9 9.497e+03 4.724e-10
 61.09058    -68.6 9.487e+03 4.610e-10
 61.12988    -67.3 9.421e+03 4.245e-10
 61.16917    -66.1 9.312e+03 3.728e-10
 61.20847    -65.1 9.241e+03 3.422e-10
 61.24777    -64.2 9.220e+03 3.343e-10
 61.26814    -63.1 9.225e+03 3.320e-10
 61.28779    -63.4 9.559e+03 4.311e-10
 61.32637    -62.2 9.649e+03 4.641e-10
 61.35019    -61.0 9.649e+03 4.691e-10
 61.36984    -61.7 9.725e+03 5.123e-10
 61.40497    -60.1 9.488e+03 4.266e-10
 61.44426    -58.5 9.201e+03 3.303e-10
 61.48356    -57.0 8.969e+03 2.595e-10
 61.52286    -55.6 8.830e+03 2.164e-10
 61.56216    -54.2 8.768e+03 1.971e-10
 61.60146    -52.8 8.738e+03 1.835e-10
 61.64076    -51.4 8.721e+03 1.706e-10
 61.68006    -50.4 8.713e+03 1.620e-10
 61.71935    -49.9 8.935e+03 1.760e-10
 61.74708    -49.9 9.241e+03 2.314e-10
 61.76672    -49.3 9.346e+03 2.824e-10
 61.79795    -48.6 9.890e+03 4.482e-10
 61.83725    -48.0 1.033e+04 6.148e-10
 61.86663    -47.7 1.040e+04 6.455e-10
 61.87806    -47.6 1.040e+04 6.494e-10
 61.88788    -47.7 1.018e+04 5.612e-10
 61.90583    -47.3 1.014e+04 5.284e-10
 61.92548    -47.0 1.007e+04 4.678e-10
 61.95505    -46.7 1.006e+04 3.990e-10
 61.99444    -46.6 1.007e+04 3.659e-10
 62.03374    -46.4 1.004e+04 3.467e-10
 62.07304    -46.0 1.002e+04 3.256e-10
 62.11234    -45.7 1.002e+04 2.985e-10
 62.15164    -45.7 1.005e+04 2.849e-10
 62.19094    -45.8 1.019e+04 2.906e-10
 62.22031    -46.6 1.033e+04 3.250e-10
 62.23564    -47.2 1.044e+04 3.896e-10
 62.24547    -47.4 1.068e+04 5.103e-10
 62.25951    -47.9 1.088e+04 6.602e-10
 62.27916    -48.2 1.109e+04 8.208e-10
 62.29881    -48.4 1.124e+04 9.481e-10
 62.31846    -48.6 1.128e+04 9.929e-10
 62.33811    -48.7 1.118e+04 9.910e-10
 62.35776    -48.6 1.092e+04 8.666e-10
 62.37741    -48.6 1.067e+04 6.921e-10
 62.39630    -48.9 1.045e+04 5.371e-10
 62.40612    -48.7 1.036e+04 4.998e-10
 62.41671    -49.2 1.016e+04 4.090e-10
 62.43636    -49.7 9.995e+03 3.662e-10
 62.46593    -50.0 9.943e+03 3.531e-10
 62.50532    -50.2 9.945e+03 3.581e-10
 62.53470    -50.8 1.011e+04 3.930e-10
 62.55425    -51.5 1.034e+04 4.493e-10
 62.58382    -52.3 1.065e+04 5.482e-10
 62.62322    -53.5 1.115e+04 7.961e-10
 62.66252    -54.9 1.140e+04 1.014e-09
 62.70182    -55.9 1.130e+04 9.955e-10
 62.72460    -56.6 1.073e+04 6.394e-10
 62.73432    -55.1 1.097e+04 7.968e-10
 62.75074    -55.0 1.082e+04 7.159e-10
 62.77039    -55.7 1.053e+04 5.307e-10
 62.79004    -57.2 1.019e+04 4.052e-10
 62.80969    -58.3 9.795e+03 3.441e-10
 62.82934    -58.6 9.680e+03 3.343e-10
 62.85891    -59.2 9.638e+03 3.382e-10
 62.89831    -60.2 9.586e+03 3.361e-10
 62.92456    -61.6 9.580e+03 3.352e-10
 62.93429    -61.0 9.786e+03 3.908e-10
 62.94724    -61.5 9.789e+03 3.842e-10
 62.97681    -62.8 9.838e+03 3.924e-10
 63.01621    -64.2 9.803e+03 3.777e-10
 63.05550    -65.6 9.673e+03 3.474e-10
 63.09480    -66.7 9.506e+03 3.084e-10
 63.13410    -67.4 9.360e+03 2.762e-10
 63.17340    -67.7 9.226e+03 2.471e-10
 63.20353    -67.8 9.100e+03 2.246e-10
 63.22318    -68.0 8.942e+03 1.912e-10
 63.25200    -68.0 8.901e+03 1.872e-10
 63.29129    -67.7 8.913e+03 1.953e-10
 63.33059    -67.2 8.997e+03 2.107e-10
 63.36989    -66.6 9.138e+03 2.266e-10
 63.40919    -66.0 9.311e+03 2.463e-10
 63.44280    -65.3 9.453e+03 2.667e-10
 63.46245    -64.9 8.856e+03 1.637e-10
 63.48779    -64.1 9.042e+03 1.817e-10
 63.52709    -63.2 9.286e+03 2.237e-10
 63.56638    -62.1 9.623e+03 3.052e-10
 63.59576    -61.2 1.006e+04 4.622e-10
 63.61531    -60.5 1.029e+04 5.565e-10
 63.64488    -59.8 1.059e+04 6.757e-10
 63.68247    -58.5 1.140e+04 1.062e-09
 63.70212    -58.2 1.163e+04 1.190e-09
 63.72358    -57.3 1.225e+04 1.556e-09
 63.75295    -56.7 1.261e+04 1.802e-09
 63.77251    -56.5 1.288e+04 2.001e-09
 63.79216    -56.2 1.313e+04 2.230e-09
 63.81181    -56.0 1.336e+04 2.505e-09
 63.83145    -55.4 1.357e+04 2.865e-09
 63.85110    -54.8 1.366e+04 3.022e-09
 63.87075    -54.1 1.369e+04 3.053e-09
 63.89040    -53.3 1.367e+04 3.047e-09
 63.91005    -52.7 1.359e+04 2.935e-09
 63.92970    -51.9 1.346e+04 2.771e-09
 63.94139    -51.0 1.336e+04 2.652e-09
 63.95122    -51.4 1.334e+04 2.544e-09
 63.96900    -50.4 1.335e+04 2.608e-09
 63.98050    -50.1 1.364e+04 2.819e-09
 63.99032    -50.0 1.397e+04 3.079e-09
 64.00830    -51.5 1.535e+04 3.684e-09
 64.02795    -58.5 2.013e+04 8.527e-09
 64.04264    -62.9 2.137e+04 2.530e-08
 64.05241    -63.4 2.126e+04 7.396e-08
 64.06103    -62.6 2.150e+04 1.902e-07
 64.06594    -63.1 2.116e+04 1.194e-07
 64.07206    -62.6 2.145e+04 1.954e-07
 64.08188    -63.2 2.148e+04 2.169e-07
 64.09171    -63.3 2.105e+04 1.678e-07
 64.10153    -62.2 2.062e+04 6.809e-08
 64.10996    -61.9 2.031e+04 2.303e-08
 64.11487    -62.7 2.055e+04 2.120e-08
 64.12118    -66.4 1.910e+04 9.297e-09
 64.13101    -69.1 1.743e+04 6.050e-09
 64.14579    -73.0 1.462e+04 3.112e-09
 64.16549    -76.0 1.178e+04 1.467e-09
 64.18086    -76.9 1.076e+04 9.826e-10
 64.19068    -77.1 1.047e+04 7.649e-10
 64.20479    -77.1 1.016e+04 6.610e-10
 64.22444    -76.7 9.861e+03 5.660e-10
 64.23962    -76.4 9.605e+03 5.057e-10
 64.24944    -76.3 9.680e+03 5.361e-10
 64.27366    -76.3 9.402e+03 4.746e-10
 64.31306    -75.5 9.264e+03 4.521e-10
 64.35236    -75.4 9.352e+03 4.785e-10
 64.39165    -75.7 9.729e+03 5.836e-10
 64.43095    -76.4 9.930e+03 6.643e-10
 64.47025    -77.6 9.871e+03 6.729e-10
 64.49893    -78.7 9.204e+03 5.416e-10
 64.51858    -80.3 9.806e+03 6.950e-10
 64.54885    -81.2 8.762e+03 4.076e-10
 64.58815    -81.6 8.168e+03 2.603e-10
 64.62744    -81.8 7.898e+03 1.885e-10
 64.65999    -82.1 7.919e+03 1.624e-10
 64.67964    -79.9 7.491e+03 1.360e-10
 64.70604    -79.1 7.481e+03 1.286e-10
 64.74534    -78.4 7.520e+03 1.288e-10
 64.78464    -78.3 7.792e+03 1.345e-10
 64.82394    -79.2 9.031e+03 2.532e-10
 64.86324    -80.0 1.128e+04 7.727e-10
 64.89261    -81.2 1.292e+04 1.870e-09
 64.90909    -81.3 1.327e+04 2.249e-09
 64.91891    -79.4 1.212e+04 1.446e-09
 64.93181    -79.7 1.254e+04 1.769e-09
 64.95146    -80.2 1.283e+04 2.018e-09
 64.97111    -80.7 1.303e+04 2.151e-09
 64.99076    -81.4 1.314e+04 2.216e-09
 65.01041    -82.2 1.319e+04 2.231e-09
 65.02680    -82.9 1.321e+04 2.251e-09
 65.03663    -82.2 1.248e+04 1.811e-09
 65.04971    -82.5 1.251e+04 1.816e-09
 65.06936    -82.7 1.247e+04 1.831e-09
 65.08901    -82.7 1.243e+04 1.832e-09
 65.10866    -82.6 1.236e+04 1.823e-09
 65.12831    -82.3 1.228e+04 1.800e-09
 65.14795    -81.7 1.221e+04 1.769e-09
 65.15838    -81.0 1.211e+04 1.695e-09
 65.16820    -80.7 1.215e+04 1.727e-09
 65.18725    -80.2 1.193e+04 1.554e-09
 65.20690    -79.6 1.163e+04 1.354e-09
 65.22655    -79.0 1.130e+04 1.157e-09
 65.24620    -78.4 1.093e+04 9.791e-10
 65.26585    -77.7 1.059e+04 8.332e-10
 65.28550    -77.1 1.029e+04 7.221e-10
 65.29575    -76.5 1.008e+04 6.483e-10
 65.30557    -75.6 1.026e+04 6.730e-10
 65.32480    -74.9 1.001e+04 5.941e-10
 65.34445    -74.2 9.940e+03 5.658e-10
 65.36410    -73.3 9.841e+03 5.393e-10
 65.38375    -72.6 9.805e+03 5.344e-10
 65.41332    -71.5 9.765e+03 5.352e-10
 65.45271    -69.7 9.905e+03 5.846e-10
 65.49201    -67.9 1.027e+04 7.076e-10
 65.53131    -66.1 1.073e+04 9.077e-10
 65.55506    -64.2 1.111e+04 1.118e-09
 65.57471    -64.9 1.139e+04 1.241e-09
 65.60991    -63.3 1.144e+04 1.299e-09
 65.63751    -61.7 1.130e+04 1.212e-09
 65.65716    -60.8 1.146e+04 1.290e-09
 65.68851    -59.5 1.151e+04 1.240e-09
 65.71788    -58.5 1.117e+04 9.616e-10
 65.73743    -58.2 1.106e+04 9.210e-10
 65.75708    -57.7 1.068e+04 7.738e-10
 65.77673    -57.7 1.057e+04 7.165e-10
 65.79638    -58.0 1.054e+04 6.986e-10
 65.81399    -58.9 1.070e+04 7.253e-10
 65.82381    -59.5 1.079e+04 7.251e-10
 65.83568    -60.7 1.120e+04 8.561e-10
 65.85533    -61.6 1.181e+04 1.099e-09
 65.87498    -62.1 1.235e+04 1.444e-09
 65.88661    -62.4 1.262e+04 1.722e-09
 65.89643    -61.7 1.221e+04 1.511e-09
 65.91428    -62.0 1.229e+04 1.651e-09
 65.93393    -62.1 1.222e+04 1.669e-09
 65.95357    -62.0 1.180e+04 1.489e-09
 65.97322    -61.7 1.123e+04 1.166e-09
 65.99287    -61.4 1.070e+04 8.945e-10
 66.01252    -61.2 1.025e+04 6.909e-10
 66.03217    -61.1 9.824e+03 5.408e-10
 66.05182    -61.0 9.561e+03 4.470e-10
 66.07147    -60.9 9.495e+03 4.189e-10
 66.08293    -60.5 9.491e+03 4.170e-10
 66.09276    -59.9 9.660e+03 4.298e-10
 66.11077    -59.5 9.828e+03 4.627e-10
 66.12608    -58.9 1.024e+04 5.690e-10
 66.13600    -57.9 9.582e+03 3.663e-10
 66.16009    -56.7 9.616e+03 3.974e-10
 66.19939    -55.2 9.962e+03 4.781e-10
 66.23868    -53.5 1.026e+04 5.786e-10
 66.27798    -51.7 1.050e+04 6.784e-10
 66.30736    -50.4 1.085e+04 8.223e-10
 66.32691    -50.2 1.085e+04 8.301e-10
 66.34205    -49.1 1.094e+04 8.827e-10
 66.35188    -48.6 1.095e+04 8.105e-10
 66.36554    -47.8 1.104e+04 8.221e-10
 66.37537    -47.3 1.082e+04 7.584e-10
 66.38586    -46.5 1.097e+04 7.977e-10
 66.40551    -45.8 1.120e+04 8.679e-10
 66.42516    -45.0 1.151e+04 9.788e-10
 66.44481    -44.4 1.173e+04 1.070e-09
 66.46446    -44.0 1.186e+04 1.134e-09
 66.48410    -43.7 1.197e+04 1.228e-09
 66.50375    -43.2 1.212e+04 1.384e-09
 66.52340    -42.6 1.218e+04 1.486e-09
 66.54305    -41.6 1.222e+04 1.540e-09
 66.56270    -40.6 1.224e+04 1.550e-09
 66.58235    -39.6 1.224e+04 1.500e-09
 66.60117    -38.7 1.216e+04 1.398e-09
 66.61100    -38.3 1.192e+04 1.314e-09
 66.61484    -37.5 1.178e+04 1.208e-09
 66.62466    -37.1 1.178e+04 1.176e-09
 66.64130    -36.2 1.161e+04 1.058e-09
 66.66095    -35.4 1.152e+04 9.670e-10
 66.68060    -34.8 1.147e+04 9.008e-10
 66.70025    -34.1 1.145e+04 8.610e-10
 66.71990    -33.4 1.147e+04 8.533e-10
 66.73955    -32.9 1.161e+04 8.754e-10
 66.75919    -32.6 1.174e+04 9.486e-10
 66.77884    -32.4 1.194e+04 1.066e-09
 66.79849    -32.4 1.219e+04 1.203e-09
 66.81814    -32.6 1.241e+04 1.453e-09
 66.83779    -32.8 1.261e+04 1.669e-09
 66.85431    -33.2 1.287e+04 1.897e-09
 66.86413    -33.7 1.433e+04 2.525e-09
 66.87012    -34.0 1.445e+04 2.980e-09
 66.87994    -33.1 1.307e+04 2.411e-09
 66.89674    -33.1 1.315e+04 2.484e-09
 66.91639    -33.0 1.317e+04 2.415e-09
 66.93604    -32.7 1.308e+04 2.185e-09
 66.95569    -32.4 1.283e+04 1.896e-09
 66.97534    -32.1 1.247e+04 1.592e-09
 66.99499    -31.7 1.202e+04 1.299e-09
 67.01463    -31.3 1.159e+04 1.048e-09
 67.03428    -30.9 1.124e+04 8.603e-10
 67.05393    -30.4 1.100e+04 7.370e-10
 67.07358    -29.9 1.084e+04 6.632e-10
 67.09323    -29.2 1.071e+04 6.209e-10
 67.10360    -28.3 1.061e+04 5.930e-10
 67.11342    -28.1 1.071e+04 7.568e-10
 67.12924    -27.1 1.067e+04 7.293e-10
 67.13906    -27.2 1.086e+04 4.801e-10
 67.15218    -26.4 1.076e+04 4.692e-10
 67.17183    -25.3 1.065e+04 4.526e-10
 67.19148    -24.6 1.057e+04 4.468e-10
 67.22105    -23.1 1.049e+04 4.473e-10
 67.26045    -21.4 1.041e+04 4.278e-10
 67.29974    -20.1 1.042e+04 4.455e-10
 67.33904    -19.0 1.060e+04 5.547e-10
 67.37834    -17.5 1.071e+04 6.839e-10
 67.41764    -15.7 1.070e+04 7.381e-10
 67.45694    -14.1 1.064e+04 7.073e-10
 67.48631    -12.9 1.052e+04 6.481e-10
 67.50587    -12.4 1.043e+04 6.016e-10
 67.52552    -12.0 1.036e+04 5.636e-10
 67.54517    -11.5 1.032e+04 5.341e-10
 67.56481    -11.0 1.029e+04 5.111e-10
 67.58253    -10.6 1.027e+04 4.968e-10
 67.59236     -9.7 1.053e+04 6.015e-10
 67.60411     -9.2 1.048e+04 5.901e-10
 67.62376     -9.0 1.048e+04 5.965e-10
 67.64341     -9.0 1.057e+04 6.330e-10
 67.65731     -9.8 1.100e+04 7.713e-10
 67.66713    -10.6 1.110e+04 7.655e-10
 67.68271    -11.3 1.155e+04 1.076e-09
 67.70236    -11.6 1.199e+04 1.556e-09
 67.72201    -11.4 1.253e+04 2.166e-09
 67.74166    -10.6 1.310e+04 2.705e-09
 67.76131    -10.0 1.370e+04 3.030e-09
 67.78096    -10.1 1.421e+04 3.121e-09
 67.80061    -12.9 1.539e+04 3.259e-09
 67.82025    -17.6 1.663e+04 4.055e-09
 67.83183    -21.4 1.671e+04 5.972e-09
 67.84165    -21.2 1.759e+04 8.058e-09
 67.85955    -21.7 1.761e+04 1.178e-08
 67.87424    -21.1 1.745e+04 1.270e-08
 67.88402    -21.2 1.740e+04 1.296e-08
 67.89384    -20.6 1.737e+04 1.297e-08
 67.90367    -20.1 1.708e+04 1.113e-08
 67.91638    -19.2 1.727e+04 9.390e-09
 67.92625    -20.1 1.594e+04 7.317e-09
 67.93815    -20.2 1.496e+04 4.155e-09
 67.95780    -23.1 1.359e+04 2.106e-09
 67.97745    -24.5 1.256e+04 1.378e-09
 67.99710    -24.9 1.175e+04 9.391e-10
 68.01675    -25.0 1.120e+04 6.794e-10
 68.03640    -25.0 1.081e+04 5.201e-10
 68.05605    -25.0 1.054e+04 4.321e-10
 68.07129    -25.1 1.043e+04 4.028e-10
 68.08112    -24.9 1.032e+04 3.938e-10
 68.09534    -24.8 1.032e+04 3.878e-10
 68.11499    -24.9 1.048e+04 4.124e-10
 68.13464    -25.0 1.072e+04 4.690e-10
 68.15429    -25.0 1.090e+04 5.527e-10
 68.17394    -24.9 1.102e+04 6.545e-10
 68.18537    -24.5 1.116e+04 7.523e-10
 68.19520    -24.1 1.100e+04 6.478e-10
 68.21324    -23.8 1.115e+04 7.338e-10
 68.23289    -23.5 1.128e+04 8.005e-10
 68.25254    -23.4 1.132e+04 8.325e-10
 68.27219    -23.4 1.129e+04 8.439e-10
 68.29184    -23.4 1.122e+04 8.406e-10
 68.31076    -23.3 1.107e+04 8.307e-10
 68.32059    -23.0 1.107e+04 8.320e-10
 68.33114    -22.7 1.088e+04 7.921e-10
 68.35078    -22.2 1.073e+04 7.378e-10
 68.37043    -21.7 1.061e+04 6.762e-10
 68.39008    -21.3 1.049e+04 6.225e-10
 68.40973    -21.1 1.046e+04 5.941e-10
 68.42938    -21.0 1.049e+04 5.883e-10
 68.44449    -21.1 1.065e+04 6.046e-10
 68.45432    -20.9 1.064e+04 5.851e-10
 68.47860    -22.1 1.139e+04 7.954e-10
 68.50808    -22.8 1.239e+04 1.129e-09
 68.52763    -25.9 1.384e+04 2.078e-09
 68.54728    -27.4 1.460e+04 3.458e-09
 68.56006    -27.4 1.465e+04 4.754e-09
 68.56988    -27.1 1.520e+04 5.374e-09
 68.58658    -26.6 1.518e+04 6.204e-09
 68.60623    -25.6 1.463e+04 5.790e-09
 68.62587    -24.1 1.356e+04 3.584e-09
 68.64552    -23.6 1.221e+04 1.643e-09
 68.66517    -25.4 1.087e+04 6.741e-10
 68.68482    -27.9 9.807e+03 3.252e-10
 68.70361    -28.7 9.314e+03 2.335e-10
 68.71344    -27.5 9.329e+03 2.485e-10
 68.72412    -27.5 9.181e+03 2.268e-10
 68.75369    -26.3 9.047e+03 2.135e-10
 68.79309    -24.2 8.881e+03 1.920e-10
 68.83239    -22.4 8.881e+03 1.903e-10
 68.87169    -21.6 9.329e+03 2.365e-10
 68.90106    -21.2 9.946e+03 3.343e-10
 68.92061    -22.9 1.056e+04 4.836e-10
 68.94026    -24.0 1.124e+04 8.179e-10
 68.95991    -24.3 1.177e+04 1.203e-09
 68.97256    -24.2 1.212e+04 1.521e-09
 68.98238    -23.0 1.193e+04 1.347e-09
 68.99921    -23.0 1.214e+04 1.530e-09
 69.01886    -23.0 1.212e+04 1.544e-09
 69.03851    -23.1 1.174e+04 1.269e-09
 69.04882    -23.5 1.119e+04 8.579e-10
 69.05864    -23.3 1.119e+04 8.590e-10
 69.07781    -24.3 1.065e+04 5.457e-10
 69.09746    -25.5 1.021e+04 3.499e-10
 69.11711    -26.6 9.937e+03 2.664e-10
 69.14668    -27.1 9.914e+03 2.493e-10
 69.18607    -28.4 1.006e+04 2.850e-10
 69.21545    -28.4 1.005e+04 3.800e-10
 69.23168    -28.6 1.008e+04 4.519e-10
 69.24150    -27.6 1.001e+04 3.895e-10
 69.25465    -27.4 1.006e+04 4.845e-10
 69.27430    -26.9 1.006e+04 5.023e-10
 69.28828    -26.4 1.002e+04 4.845e-10
 69.29811    -26.4 1.009e+04 5.106e-10
 69.31360    -26.0 9.947e+03 4.542e-10
 69.34317    -25.6 9.863e+03 3.716e-10
 69.38257    -25.2 9.775e+03 3.349e-10
 69.42187    -24.6 9.775e+03 3.315e-10
 69.46116    -24.0 9.961e+03 3.833e-10
 69.49054    -23.7 1.011e+04 4.579e-10
 69.50062    -23.6 1.018e+04 5.044e-10
 69.51045    -23.4 1.012e+04 4.569e-10
 69.52775    -23.0 1.016e+04 5.089e-10
 69.53758    -22.9 1.016e+04 5.168e-10
 69.54939    -22.4 1.021e+04 5.489e-10
 69.56904    -21.8 1.023e+04 5.628e-10
 69.58869    -21.1 1.024e+04 5.647e-10
 69.60834    -20.6 1.024e+04 5.394e-10
 69.62799    -20.5 1.019e+04 4.947e-10
 69.64764    -20.4 1.008e+04 4.565e-10
 69.66729    -20.4 1.001e+04 4.423e-10
 69.69686    -19.4 1.008e+04 4.469e-10
 69.73625    -17.9 1.025e+04 4.857e-10
 69.75984    -17.1 1.044e+04 5.520e-10
 69.76957    -16.5 1.044e+04 5.488e-10
 69.77704    -16.3 1.051e+04 5.970e-10
 69.78687    -15.8 1.048e+04 6.093e-10
 69.80483    -15.1 1.066e+04 6.803e-10
 69.82448    -14.7 1.085e+04 7.529e-10
 69.84413    -14.3 1.112e+04 8.426e-10
 69.86378    -14.0 1.124e+04 9.291e-10
 69.88343    -13.4 1.126e+04 9.959e-10
 69.90308    -12.6 1.123e+04 1.015e-09
 69.92273    -11.7 1.115e+04 9.870e-10
 69.94238    -10.8 1.110e+04 8.788e-10
 69.96202    -10.0 1.112e+04 7.425e-10
 69.98167     -9.7 1.117e+04 6.310e-10
 70.00132     -9.7 1.113e+04 5.627e-10
 70.01651     -9.7 1.106e+04 5.445e-10
 70.02423     -9.4 1.121e+04 6.324e-10
 70.02869     -8.3 1.131e+04 6.501e-10
 70.04062     -8.1 1.124e+04 6.301e-10
 70.06027     -7.8 1.131e+04 6.317e-10
 70.07992     -8.2 1.184e+04 7.069e-10
 70.09957     -9.3 1.253e+04 1.002e-09
 70.11922    -10.5 1.309e+04 1.597e-09
 70.13887    -10.8 1.358e+04 2.576e-09
 70.15852    -10.2 1.411e+04 3.731e-09
 70.17817     -9.2 1.446e+04 4.323e-09
 70.19782     -8.6 1.454e+04 4.282e-09
 70.21746     -8.3 1.424e+04 3.179e-09
 70.23711     -9.7 1.392e+04 2.279e-09
 70.25598    -11.5 1.351e+04 1.807e-09
 70.26581    -12.1 1.323e+04 1.599e-09
 70.27641    -13.1 1.278e+04 1.445e-09
 70.28781    -13.6 1.247e+04 1.355e-09
 70.29763    -12.8 1.270e+04 1.411e-09
 70.31571    -13.0 1.260e+04 1.465e-09
 70.33536    -12.9 1.260e+04 1.501e-09
 70.35501    -12.7 1.260e+04 1.508e-09
 70.37466    -12.6 1.260e+04 1.504e-09
 70.39431    -12.4 1.260e+04 1.454e-09
 70.41396    -12.4 1.257e+04 1.437e-09
 70.43361    -12.3 1.256e+04 1.400e-09
 70.45326    -12.2 1.257e+04 1.422e-09
 70.47291    -11.9 1.286e+04 1.588e-09
 70.49255    -12.2 1.311e+04 1.694e-09
 70.50527    -12.7 1.336e+04 1.866e-09
 70.51510    -13.0 1.325e+04 1.760e-09
 70.53185    -13.5 1.329e+04 1.857e-09
 70.54693    -13.6 1.324e+04 1.907e-09
 70.55675    -13.0 1.374e+04 2.381e-09
 70.57115    -13.0 1.360e+04 2.343e-09
 70.59080    -12.7 1.328e+04 2.107e-09
 70.61045    -12.4 1.285e+04 1.642e-09
 70.63010    -12.3 1.238e+04 1.120e-09
 70.64975    -12.8 1.193e+04 7.113e-10
 70.66940    -14.5 1.172e+04 5.022e-10
 70.68905    -17.2 1.214e+04 4.649e-10
 70.70870    -21.0 1.289e+04 6.174e-10
 70.72835    -24.3 1.304e+04 9.850e-10
 70.74474    -26.2 1.291e+04 1.594e-09
 70.75457    -26.7 1.282e+04 1.941e-09
 70.76764    -27.1 1.330e+04 2.532e-09
 70.78729    -28.2 1.367e+04 2.738e-09
 70.80605    -30.6 1.379e+04 2.382e-09
 70.81587    -29.4 1.413e+04 2.921e-09
 70.82659    -32.3 1.376e+04 2.288e-09
 70.84624    -35.4 1.297e+04 1.691e-09
 70.86589    -37.6 1.233e+04 1.317e-09
 70.88554    -38.9 1.197e+04 1.105e-09
 70.90519    -39.8 1.176e+04 9.829e-10
 70.92484    -40.4 1.170e+04 9.366e-10
 70.94449    -40.8 1.171e+04 9.304e-10
 70.96414    -41.1 1.185e+04 9.531e-10
 70.98379    -41.5 1.199e+04 1.038e-09
 70.99403    -41.7 1.211e+04 1.177e-09
 71.00386    -42.0 1.211e+04 1.231e-09
 71.02308    -41.9 1.220e+04 1.382e-09
 71.04273    -41.5 1.229e+04 1.457e-09
 71.06238    -41.1 1.231e+04 1.477e-09
 71.07499    -40.7 1.229e+04 1.434e-09
 71.08482    -40.5 1.242e+04 1.555e-09
 71.10168    -40.2 1.226e+04 1.334e-09
 71.12133    -40.1 1.204e+04 1.107e-09
 71.14098    -40.3 1.177e+04 9.204e-10
 71.16063    -40.4 1.147e+04 7.931e-10
 71.19020    -40.3 1.118e+04 6.811e-10
 71.22960    -39.1 1.096e+04 5.913e-10
 71.26890    -37.7 1.076e+04 4.886e-10
 71.30819    -36.4 1.061e+04 4.089e-10
 71.33431    -35.2 1.063e+04 3.732e-10
 71.35396    -34.9 1.042e+04 3.047e-10
 71.38679    -33.9 1.045e+04 2.983e-10
 71.42609    -33.2 1.076e+04 3.243e-10
 71.45547    -33.2 1.109e+04 4.066e-10
 71.47297    -33.5 1.118e+04 4.900e-10
 71.48279    -34.6 1.122e+04 5.781e-10
 71.49467    -34.5 1.129e+04 6.789e-10
 71.51432    -34.2 1.138e+04 7.220e-10
 71.53397    -34.2 1.144e+04 6.886e-10
 71.55361    -34.1 1.136e+04 6.276e-10
 71.58319    -33.5 1.113e+04 5.158e-10
 71.62258    -32.8 1.076e+04 3.855e-10
 71.66188    -32.2 1.052e+04 2.971e-10
 71.70118    -31.5 1.044e+04 2.601e-10
 71.74048    -30.7 1.042e+04 2.522e-10
 71.77978    -29.8 1.046e+04 2.658e-10
 71.81908    -29.0 1.052e+04 2.902e-10
 71.85255    -28.2 1.059e+04 3.224e-10
 71.87220    -27.8 1.054e+04 3.093e-10
 71.89767    -26.9 1.070e+04 3.817e-10
 71.93697    -25.9 1.088e+04 4.429e-10
 71.96193    -25.0 1.098e+04 4.638e-10
 71.98157    -25.1 1.100e+04 4.811e-10
 72.01557    -24.5 1.102e+04 4.747e-10
 72.05487    -23.9 1.106e+04 4.478e-10
 72.09416    -23.6 1.121e+04 4.638e-10
 72.13346    -23.3 1.149e+04 5.433e-10
 72.17276    -22.8 1.167e+04 6.026e-10
 72.21206    -22.3 1.172e+04 5.922e-10
 72.25136    -21.6 1.164e+04 4.415e-10
 72.29066    -21.1 1.152e+04 3.295e-10
 72.32996    -20.4 1.153e+04 3.099e-10
 72.36925    -19.6 1.161e+04 3.440e-10
 72.39044    -18.7 1.183e+04 4.737e-10
 72.41009    -17.2 1.168e+04 3.505e-10
 72.44086    -16.1 1.198e+04 5.056e-10
 72.46051    -16.6 1.207e+04 5.807e-10
 72.47723    -15.6 1.236e+04 6.921e-10
 72.49678    -15.6 1.237e+04 7.067e-10
 72.51643    -15.1 1.248e+04 8.104e-10
 72.53608    -14.9 1.248e+04 8.292e-10
 72.55573    -14.6 1.253e+04 8.232e-10
 72.57538    -14.4 1.253e+04 8.313e-10
 72.59503    -14.0 1.253e+04 8.294e-10
 72.61468    -13.8 1.247e+04 8.238e-10
 72.63432    -13.5 1.240e+04 8.023e-10
 72.64937    -13.3 1.234e+04 7.822e-10
 72.65919    -12.3 1.266e+04 1.010e-09
 72.68355    -12.3 1.238e+04 8.661e-10
 72.72294    -11.5 1.238e+04 8.847e-10
 72.76224    -11.5 1.233e+04 8.252e-10
 72.79162    -11.6 1.229e+04 7.576e-10
 72.81117    -11.9 1.241e+04 7.779e-10
 72.83082    -12.7 1.276e+04 8.843e-10
 72.85047    -13.4 1.302e+04 1.020e-09
 72.87012    -13.8 1.333e+04 1.218e-09
 72.88976    -14.3 1.349e+04 1.342e-09
 72.90849    -14.8 1.356e+04 1.504e-09
 72.91831    -14.4 1.404e+04 2.097e-09
 72.92906    -15.1 1.387e+04 2.193e-09
 72.93925    -15.3 1.375e+04 2.332e-09
 72.94908    -14.9 1.335e+04 1.737e-09
 72.96836    -14.9 1.339e+04 1.889e-09
 72.98801    -14.6 1.344e+04 1.985e-09
 73.00766    -14.3 1.344e+04 2.008e-09
 73.02731    -14.1 1.347e+04 2.022e-09
 73.04696    -14.2 1.363e+04 2.065e-09
 73.06661    -16.7 1.507e+04 2.640e-09
 73.08626    -20.6 1.633e+04 5.288e-09
 73.10591    -21.8 1.709e+04 1.094e-08
 73.12556    -21.5 1.787e+04 1.728e-08
 73.14521    -21.4 1.813e+04 1.912e-08
 73.16485    -21.7 1.775e+04 1.461e-08
 73.17743    -22.8 1.615e+04 5.800e-09
 73.18147    -23.1 1.571e+04 5.223e-09
 73.18854    -22.9 1.555e+04 5.070e-09
 73.20415    -26.3 1.358e+04 2.285e-09
 73.23372    -29.2 1.201e+04 1.325e-09
 73.27312    -28.8 1.141e+04 9.730e-10
 73.31242    -27.6 1.081e+04 6.615e-10
 73.35172    -26.8 1.051e+04 5.244e-10
 73.39102    -26.0 1.023e+04 4.563e-10
 73.41838    -24.8 9.982e+03 3.903e-10
 73.43464    -24.3 1.020e+04 4.356e-10
 73.44657    -23.7 1.021e+04 4.079e-10
 73.46961    -22.5 1.004e+04 3.737e-10
 73.50891    -21.3 9.863e+03 3.185e-10
 73.54821    -20.0 9.685e+03 2.560e-10
 73.58751    -18.5 9.555e+03 1.996e-10
 73.62681    -17.1 9.480e+03 1.586e-10
 73.66611    -15.7 9.417e+03 1.362e-10
 73.70540    -14.1 9.388e+03 1.299e-10
 73.74470    -12.5 9.443e+03 1.289e-10
 73.78400    -11.3 9.680e+03 1.354e-10
 73.82330    -11.1 1.013e+04 1.593e-10
 73.86260    -13.7 1.141e+04 3.185e-10
 73.89732    -17.7 1.256e+04 1.204e-09
 73.91697    -17.7 1.252e+04 8.903e-10
 73.93127    -19.2 1.304e+04 2.388e-09
 73.95083    -19.7 1.366e+04 3.539e-09
 73.96462    -20.3 1.399e+04 4.010e-09
 73.97444    -19.7 1.390e+04 3.904e-09
 73.99012    -21.0 1.393e+04 3.856e-09
 74.00977    -22.6 1.343e+04 2.611e-09
 74.02942    -25.0 1.228e+04 1.505e-09
 74.05899    -26.2 1.147e+04 1.079e-09
 74.09839    -26.8 1.053e+04 6.460e-10
 74.13769    -26.5 1.004e+04 4.241e-10
 74.17699    -25.1 9.667e+03 3.001e-10
 74.21629    -23.4 9.409e+03 2.329e-10
 74.25558    -21.5 9.294e+03 2.044e-10
 74.29488    -19.4 9.240e+03 1.953e-10
 74.33418    -17.3 9.204e+03 1.930e-10
 74.37348    -15.1 9.193e+03 1.985e-10
 74.39590    -13.0 9.204e+03 2.045e-10
 74.41555    -12.9 9.554e+03 2.985e-10
 74.45208    -10.9 9.545e+03 2.982e-10
 74.48305     -8.7 9.469e+03 2.738e-10
 74.50270     -8.1 9.411e+03 2.430e-10
 74.53067     -6.0 9.327e+03 2.082e-10
 74.56997     -4.1 9.264e+03 1.770e-10
 74.60927     -2.3 9.221e+03 1.554e-10
 74.64857     -0.5 9.211e+03 1.454e-10
 74.68787      1.2 9.210e+03 1.428e-10
 74.72717      2.9 9.249e+03 1.448e-10
 74.76646      4.4 9.275e+03 1.498e-10
 74.80576      5.9 9.300e+03 1.519e-10
 74.84506      7.2 9.317e+03 1.520e-10
 74.87484      8.5 9.331e+03 1.519e-10
 74.89449      8.5 9.582e+03 2.139e-10
 74.92366      9.7 9.581e+03 2.122e-10
 74.96296     11.0 9.563e+03 2.028e-10
 75.00129     12.3 9.554e+03 1.813e-10
 75.02094     12.8 9.624e+03 2.012e-10
 75.04155     13.9 9.639e+03 1.750e-10
 75.08085     14.8 9.646e+03 1.581e-10
 75.12015     15.7 9.728e+03 1.607e-10
 75.15945     16.5 9.774e+03 1.922e-10
 75.19875     17.8 9.859e+03 2.291e-10
 75.23805     19.2 9.977e+03 2.401e-10
 75.27735     20.5 1.003e+04 2.400e-10
 75.31664     21.8 1.008e+04 2.191e-10
 75.35378     22.9 1.016e+04 2.137e-10
 75.37343     22.7 1.026e+04 2.141e-10
 75.39524     23.6 1.032e+04 2.267e-10
 75.43454     24.3 1.052e+04 2.616e-10
 75.47384     25.3 1.056e+04 3.087e-10
 75.51314     26.7 1.059e+04 3.340e-10
 75.53919     28.1 1.065e+04 3.027e-10
 75.55883     28.1 1.062e+04 2.936e-10
 75.59173     29.5 1.067e+04 2.221e-10
 75.63103     30.7 1.063e+04 1.604e-10
 75.67033     31.9 1.064e+04 1.158e-10
 75.70963     33.0 1.055e+04 1.019e-10
 75.74893     34.3 1.046e+04 1.085e-10
 75.78823     35.6 1.043e+04 1.308e-10
 75.82753     36.8 1.047e+04 1.746e-10
 75.85236     38.3 1.050e+04 2.365e-10
 75.87201     38.5 1.052e+04 2.064e-10
 75.90612     40.0 1.057e+04 2.640e-10
 75.94542     41.4 1.061e+04 2.840e-10
 75.98472     42.4 1.060e+04 2.736e-10
 76.02402     43.0 1.054e+04 2.523e-10
 76.05743     43.4 1.044e+04 2.369e-10
 76.07708     42.8 1.030e+04 1.973e-10
 76.10261     43.3 1.013e+04 1.867e-10
 76.14191     43.9 1.004e+04 1.779e-10
 76.18121     44.4 1.000e+04 1.722e-10
 76.22051     45.1 9.953e+03 1.698e-10
 76.25981     46.0 9.867e+03 1.631e-10
 76.29911     47.0 9.840e+03 1.481e-10
 76.33130     47.6 9.865e+03 1.371e-10
 76.35095     48.2 9.856e+03 1.330e-10
 76.37770     48.8 9.877e+03 1.333e-10
 76.41700     49.4 9.861e+03 1.385e-10
 76.45630     50.4 9.763e+03 1.381e-10
 76.49560     51.6 9.646e+03 1.260e-10
 76.53490     53.1 9.574e+03 1.124e-10
 76.57420     54.7 9.378e+03 9.968e-11
 76.59532     56.4 9.287e+03 8.495e-11
 76.61497     56.9 9.243e+03 9.304e-11
 76.65279     58.7 9.193e+03 7.685e-11
 76.69209     60.4 9.172e+03 6.327e-11
 76.73139     62.0 9.173e+03 5.363e-11
 76.77069     63.6 9.119e+03 4.971e-11
 76.80999     65.4 9.094e+03 4.956e-11
 76.82988     67.1 9.094e+03 5.035e-11
 76.84953     67.3 9.139e+03 5.613e-11
 76.88859     68.9 9.162e+03 5.988e-11
 76.92788     70.5 9.219e+03 6.647e-11
 76.96718     71.9 9.398e+03 7.827e-11
 77.00648     73.3 9.543e+03 1.021e-10
 77.04578     74.6 9.700e+03 1.339e-10
 77.08508     75.9 9.853e+03 1.652e-10
 77.11356     76.9 9.968e+03 1.869e-10
 77.13321     77.1 9.895e+03 1.748e-10
 77.16367     78.0 9.953e+03 1.888e-10
 77.20297     78.7 9.975e+03 1.979e-10
 77.24227     79.2 9.993e+03 2.091e-10
 77.28157     79.7 1.002e+04 2.255e-10
 77.30882     80.2 1.009e+04 2.476e-10
 77.32847     80.7 1.028e+04 2.929e-10
 77.36017     80.7 1.045e+04 3.291e-10
 77.39947     80.5 1.060e+04 3.693e-10
 77.43876     79.8 1.070e+04 4.029e-10
 77.47806     79.2 1.068e+04 3.980e-10
 77.51736     79.3 1.042e+04 3.199e-10
 77.55666     78.8 1.010e+04 2.377e-10
 77.59596     78.2 1.004e+04 2.278e-10
 77.63180     77.8 1.007e+04 2.427e-10
 77.65145     77.8 9.987e+03 2.266e-10
 77.67456     77.6 1.004e+04 2.618e-10
 77.71385     77.5 1.013e+04 3.010e-10
 77.75315     77.3 1.029e+04 3.394e-10
 77.78775     76.9 1.043e+04 3.535e-10
 77.80740     76.1 1.059e+04 3.663e-10
 77.83175     75.5 1.063e+04 3.659e-10
 77.87105     75.0 1.061e+04 3.709e-10
 77.91035     74.6 1.058e+04 3.986e-10
 77.93972     74.8 1.058e+04 4.463e-10
 77.95927     74.5 1.062e+04 4.872e-10
 77.97892     74.4 1.072e+04 5.390e-10
 77.99857     74.3 1.075e+04 5.520e-10
 78.02814     74.1 1.085e+04 5.698e-10
 78.06754     73.3 1.099e+04 6.019e-10
 78.10684     73.0 1.099e+04 6.173e-10
 78.13622     72.1 1.118e+04 6.842e-10
 78.15577     71.3 1.131e+04 7.010e-10
 78.16949     70.9 1.130e+04 6.887e-10
 78.17932     70.7 1.138e+04 7.370e-10
 78.19507     69.9 1.143e+04 6.944e-10
 78.21472     69.2 1.135e+04 5.853e-10
 78.23436     68.9 1.131e+04 5.581e-10
 78.26394     68.9 1.099e+04 4.680e-10
 78.28634     68.5 1.070e+04 4.517e-10
 78.30599     67.1 1.096e+04 5.990e-10
 78.34263     67.1 1.090e+04 5.696e-10
 78.38193     66.9 1.087e+04 5.163e-10
 78.42123     66.7 1.087e+04 5.165e-10
 78.46053     66.8 1.103e+04 5.480e-10
 78.48990     66.3 1.128e+04 6.150e-10
 78.50945     65.2 1.157e+04 7.306e-10
 78.52561     63.2 1.210e+04 9.944e-10
 78.53544     62.0 1.205e+04 9.965e-10
 78.54875     59.8 1.271e+04 1.552e-09
 78.56840     58.6 1.303e+04 2.174e-09
 78.58805     58.0 1.300e+04 2.196e-09
 78.60770     57.3 1.284e+04 1.920e-09
 78.62735     55.5 1.259e+04 1.327e-09
 78.64700     52.4 1.205e+04 8.279e-10
 78.66665     48.9 1.113e+04 5.799e-10
 78.68630     46.7 1.043e+04 4.942e-10
 78.69756     45.4 1.012e+04 4.564e-10
 78.70738     45.8 1.006e+04 4.463e-10
 78.73552     45.6 1.004e+04 4.202e-10
 78.76528     45.2 9.861e+03 3.607e-10
 78.78493     45.4 9.797e+03 3.289e-10
 78.81421     44.4 9.603e+03 2.849e-10
 78.85351     43.7 9.629e+03 2.961e-10
 78.89281     42.7 9.857e+03 3.542e-10
 78.92219     42.1 9.880e+03 4.210e-10
 78.94174     41.6 9.881e+03 4.767e-10
 78.95668     41.3 9.873e+03 5.304e-10
 78.96650     41.0 9.991e+03 5.927e-10
 78.98104     40.9 1.001e+04 5.843e-10
 79.00069     40.2 1.028e+04 6.065e-10
 79.01437     38.2 1.095e+04 7.103e-10
 79.02420     37.4 1.099e+04 7.171e-10
 79.03998     34.7 1.155e+04 9.565e-10
 79.05963     33.0 1.162e+04 1.338e-09
 79.07928     32.8 1.199e+04 1.784e-09
 79.09893     32.3 1.243e+04 1.987e-09
 79.11858     31.9 1.289e+04 2.131e-09
 79.13823     31.2 1.288e+04 1.877e-09
 79.15788     30.8 1.238e+04 1.401e-09
 79.17753     29.8 1.186e+04 1.043e-09
 79.20607     29.1 1.154e+04 9.401e-10
 79.22582     26.6 1.028e+04 6.196e-10
 79.24421     25.2 9.536e+03 3.918e-10
 79.26386     23.6 9.122e+03 3.039e-10
 79.28580     23.1 9.209e+03 3.105e-10
 79.32509     23.1 9.384e+03 3.936e-10
 79.36439     24.1 9.567e+03 4.722e-10
 79.40369     25.2 9.626e+03 4.642e-10
 79.44299     26.7 9.401e+03 3.647e-10
 79.48229     27.9 9.158e+03 2.691e-10
 79.52159     28.8 9.101e+03 2.105e-10
 79.56089     29.7 8.999e+03 1.892e-10
 79.60018     30.7 9.012e+03 1.925e-10
 79.63948     31.7 9.085e+03 2.158e-10
 79.67878     33.1 9.178e+03 2.370e-10
 79.71808     34.3 9.209e+03 2.367e-10
 79.74280     36.0 9.084e+03 2.094e-10
 79.74913     34.9 8.925e+03 1.999e-10
 79.76371     34.4 8.928e+03 2.009e-10
 79.79668     35.7 8.896e+03 1.696e-10
 79.83597     36.7 8.924e+03 1.459e-10
 79.87527     37.7 8.987e+03 1.494e-10
 79.91457     38.6 9.203e+03 1.715e-10
 79.95387     39.8 9.463e+03 2.266e-10
 79.99317     41.4 9.822e+03 2.973e-10
 80.03247     43.0 1.010e+04 3.410e-10
 80.07177     44.6 1.030e+04 3.663e-10
 80.11106     45.8 1.052e+04 4.063e-10
 80.15036     46.8 1.085e+04 5.272e-10
 80.18966     47.8 1.147e+04 7.783e-10
 80.22173     48.2 1.214e+04 1.084e-09
 80.24138     48.0 1.123e+04 6.458e-10
 80.26230     48.0 1.179e+04 8.835e-10
 80.28195     47.4 1.221e+04 1.140e-09
 80.29763     47.3 1.279e+04 1.512e-09
 80.31719     47.0 1.312e+04 1.752e-09
 80.33684     46.2 1.375e+04 2.499e-09
 80.35648     45.9 1.404e+04 3.052e-09
 80.37613     45.8 1.420e+04 3.276e-09
 80.39578     45.4 1.420e+04 3.230e-09
 80.41543     45.7 1.395e+04 2.911e-09
 80.43508     45.6 1.377e+04 2.526e-09
 80.45473     45.8 1.332e+04 1.980e-09
 80.47083     45.9 1.288e+04 1.536e-09
 80.48066     45.7 1.287e+04 1.540e-09
 80.49403     45.8 1.209e+04 1.181e-09
 80.51368     44.9 1.279e+04 9.718e-10
 80.53105     31.2 2.157e+04 2.411e-09
 80.54088     34.4 1.986e+04 1.736e-09
 80.55298     25.2 2.052e+04 7.737e-09
 80.57263     26.7 1.830e+04 2.673e-08
 80.58732     28.8 1.796e+04 3.385e-08
 80.59538     31.7 1.774e+04 3.019e-08
 80.60029     31.2 1.777e+04 2.935e-08
 80.60692     33.4 1.849e+04 1.792e-08
 80.61674     33.3 1.857e+04 1.696e-08
 80.63153     32.3 1.966e+04 7.632e-09
 80.65122     24.0 1.798e+04 2.131e-09
 80.67087     16.3 1.272e+04 1.123e-09
 80.69052     15.4 1.270e+04 1.096e-09
 80.71017     10.9 1.476e+04 1.571e-09
 80.72012      4.8 1.607e+04 3.153e-09
 80.72995      4.3 1.667e+04 3.374e-09
 80.74451      1.9 1.625e+04 5.714e-09
 80.75428      0.8 1.620e+04 7.347e-09
 80.76411      1.8 1.679e+04 1.034e-08
 80.77393      1.5 1.679e+04 1.055e-08
 80.78872      2.6 1.771e+04 1.180e-08
 80.80000      0.1 1.741e+04 5.798e-09
 80.80982      0.5 1.722e+04 5.589e-09
 80.82807     -6.3 1.424e+04 1.312e-09
 80.84772    -12.5 1.183e+04 5.264e-10
 80.86737    -14.2 1.098e+04 3.563e-10
 80.88702    -15.4 1.084e+04 2.799e-10
 80.90666    -16.5 1.068e+04 2.498e-10
 80.93624    -17.3 1.066e+04 2.534e-10
 80.97563    -17.7 1.052e+04 2.606e-10
 81.01493    -17.6 1.042e+04 2.790e-10
 81.05423    -17.6 1.043e+04 2.787e-10
 81.09353    -17.8 1.034e+04 2.544e-10
 81.13283    -18.8 1.026e+04 2.350e-10
 81.17212    -20.1 1.037e+04 2.444e-10
 81.19925    -21.3 1.062e+04 2.925e-10
 81.20898    -21.2 1.065e+04 3.117e-10
 81.22105    -21.6 1.075e+04 3.417e-10
 81.24070    -22.3 1.086e+04 4.038e-10
 81.26035    -22.8 1.094e+04 4.249e-10
 81.28000    -24.0 1.109e+04 4.892e-10
 81.29965    -25.6 1.119e+04 5.220e-10
 81.31824    -27.1 1.122e+04 5.569e-10
 81.32806    -27.0 1.142e+04 6.700e-10
 81.33895    -28.0 1.146e+04 7.666e-10
 81.35860    -28.5 1.148e+04 8.041e-10
 81.37825    -29.0 1.148e+04 7.815e-10
 81.39790    -29.7 1.143e+04 6.606e-10
 81.41755    -30.8 1.124e+04 5.208e-10
 81.43719    -32.1 1.092e+04 4.149e-10
 81.44835    -32.7 1.070e+04 3.772e-10
 81.45818    -32.9 1.060e+04 3.416e-10
 81.47649    -33.2 1.048e+04 3.303e-10
 81.49614    -33.3 1.047e+04 3.304e-10
 81.52571    -33.4 1.042e+04 3.408e-10
 81.56511    -33.3 1.020e+04 2.971e-10
 81.60441    -33.3 1.003e+04 2.708e-10
 81.64371    -33.2 9.999e+03 2.641e-10
 81.67819    -33.2 1.006e+04 2.641e-10
 81.69784    -33.7 9.842e+03 2.165e-10
 81.72230    -33.9 9.885e+03 2.089e-10
 81.76160    -34.6 9.991e+03 2.154e-10
 81.80090    -35.0 1.009e+04 2.648e-10
 81.83667    -35.0 1.018e+04 3.151e-10
 81.85632    -35.9 1.024e+04 3.247e-10
 81.87950    -35.7 1.022e+04 3.246e-10
 81.91880    -35.8 1.016e+04 2.991e-10
 81.95810    -36.0 1.013e+04 2.836e-10
 81.99739    -36.4 1.028e+04 3.115e-10
 82.03669    -36.6 1.051e+04 3.539e-10
 82.07599    -36.8 1.060e+04 3.651e-10
 82.11529    -36.9 1.048e+04 3.308e-10
 82.15459    -36.5 1.016e+04 2.679e-10
 82.17678    -35.6 9.819e+03 2.028e-10
 82.19643    -36.0 9.648e+03 1.686e-10
 82.23318    -34.8 9.528e+03 1.507e-10
 82.27248    -33.5 9.468e+03 1.344e-10
 82.31178    -32.1 9.470e+03 1.297e-10
 82.35108    -30.6 9.487e+03 1.297e-10
 82.37456    -28.9 9.530e+03 1.279e-10
 82.39421    -29.7 9.428e+03 1.022e-10
 82.42968    -28.0 9.480e+03 9.873e-11
 82.46898    -26.4 9.336e+03 1.133e-10
 82.50827    -24.5 9.513e+03 1.399e-10
 82.54757    -22.5 9.686e+03 1.722e-10
 82.58687    -20.4 9.911e+03 2.093e-10
 82.62617    -18.7 1.019e+04 2.474e-10
 82.65571    -17.3 1.046e+04 2.940e-10
 82.67536    -18.7 1.034e+04 2.680e-10
 82.70477    -17.5 1.045e+04 2.982e-10
 82.74407    -16.2 1.054e+04 3.133e-10
 82.78336    -14.9 1.056e+04 3.133e-10
 82.82266    -13.5 1.061e+04 2.734e-10
 82.86196    -12.3 1.055e+04 2.094e-10
 82.89280    -11.3 1.045e+04 1.787e-10
 82.91245    -13.1 1.043e+04 1.933e-10
 82.94056    -11.4 1.037e+04 1.920e-10
 82.97986     -9.3 1.027e+04 2.020e-10
 83.01916     -6.9 1.027e+04 2.088e-10
 83.05845     -4.3 1.029e+04 2.100e-10
 83.09775     -1.7 1.033e+04 2.099e-10
 83.13465      0.7 1.043e+04 2.172e-10
 83.15430      0.9 1.025e+04 1.764e-10
 83.17635      3.0 1.047e+04 2.061e-10
 83.21565      4.9 1.066e+04 2.958e-10
 83.25495      7.1 1.102e+04 4.752e-10
 83.29425      9.5 1.157e+04 7.401e-10
 83.33354     11.7 1.208e+04 1.001e-09
 83.36292     13.0 1.255e+04 1.314e-09
 83.38247     13.2 1.262e+04 1.351e-09
 83.39357     14.0 1.262e+04 1.379e-09
 83.40339     14.2 1.253e+04 1.340e-09
 83.42067     15.1 1.255e+04 1.341e-09
 83.43050     14.9 1.255e+04 1.325e-09
 83.44142     16.1 1.245e+04 1.242e-09
 83.46107     17.2 1.222e+04 1.153e-09
 83.48072     18.3 1.218e+04 9.458e-10
 83.50037     19.1 1.197e+04 8.742e-10
 83.52002     19.7 1.199e+04 8.037e-10
 83.53967     20.2 1.178e+04 7.958e-10
 83.56924     21.9 1.181e+04 8.415e-10
 83.59871     23.8 1.166e+04 7.972e-10
 83.61826     24.7 1.168e+04 7.886e-10
 83.63304     25.8 1.160e+04 7.670e-10
 83.64286     26.3 1.147e+04 7.075e-10
 83.65756     27.2 1.143e+04 7.024e-10
 83.67721     28.2 1.134e+04 6.847e-10
 83.68962     29.1 1.129e+04 6.757e-10
 83.69944     29.1 1.180e+04 8.629e-10
 83.71651     30.1 1.174e+04 7.841e-10
 83.73616     30.9 1.168e+04 7.448e-10
 83.75581     32.0 1.142e+04 6.814e-10
 83.77546     32.7 1.144e+04 6.761e-10
 83.79511     34.1 1.119e+04 6.230e-10
 83.81476     34.9 1.123e+04 6.245e-10
 83.83440     36.6 1.100e+04 5.773e-10
 83.85405     37.4 1.094e+04 5.604e-10
 83.87251     39.2 1.072e+04 4.939e-10
 83.88233     39.5 1.073e+04 5.499e-10
 83.89335     40.3 1.072e+04 5.309e-10
 83.91300     41.9 1.059e+04 4.916e-10
 83.93265     42.6 1.065e+04 4.799e-10
 83.94874     44.2 1.057e+04 4.500e-10
 83.95856     43.7 1.087e+04 5.381e-10
 83.97195     44.7 1.095e+04 5.293e-10
 83.99160     45.8 1.100e+04 5.304e-10
 84.01125     46.8 1.107e+04 5.374e-10
 84.03090     47.6 1.121e+04 5.598e-10
 84.05055     48.3 1.143e+04 6.125e-10
 84.07020     48.6 1.174e+04 7.243e-10
 84.08985     48.6 1.214e+04 9.270e-10
 84.10949     48.4 1.267e+04 1.287e-09
 84.12180     48.3 1.320e+04 1.821e-09
 84.13162     49.1 1.321e+04 1.836e-09
 84.14879     49.1 1.369e+04 2.482e-09
 84.16844     49.0 1.397e+04 2.958e-09
 84.18809     48.9 1.423e+04 3.318e-09
 84.20774     48.8 1.426e+04 3.396e-09
 84.21768     48.7 1.406e+04 3.052e-09
 84.22751     47.3 1.301e+04 1.813e-09
 84.24704     46.5 1.243e+04 1.303e-09
 84.26669     45.0 1.184e+04 9.589e-10
 84.28634     43.1 1.145e+04 8.204e-10
 84.30599     41.0 1.147e+04 8.921e-10
 84.32564     39.7 1.173e+04 1.164e-09
 84.34529     39.4 1.199e+04 1.471e-09
 84.36127     39.7 1.219e+04 1.751e-09
 84.37109     39.7 1.204e+04 1.572e-09
 84.38458     40.2 1.222e+04 1.813e-09
 84.40423     40.6 1.228e+04 1.880e-09
 84.42388     41.0 1.225e+04 1.844e-09
 84.44353     40.9 1.227e+04 1.755e-09
 84.46318     40.7 1.237e+04 1.759e-09
 84.47681     39.9 1.270e+04 1.913e-09
 84.48663     38.6 1.288e+04 1.965e-09
 84.50248     35.4 1.499e+04 3.086e-09
 84.52213     30.7 1.807e+04 7.212e-09
 84.54178     28.9 1.901e+04 1.306e-08
 84.55647     30.0 1.907e+04 1.679e-08
 84.56624     30.3 1.914e+04 1.763e-08
 84.57607     30.7 1.895e+04 1.736e-08
 84.58589     30.7 1.897e+04 1.726e-08
 84.59572     31.6 1.858e+04 1.524e-08
 84.60554     31.5 1.795e+04 1.365e-08
 84.61118     32.0 1.771e+04 1.094e-08
 84.61609     31.3 1.764e+04 1.269e-08
 84.62519     30.9 1.728e+04 9.850e-09
 84.63501     30.5 1.640e+04 6.595e-09
 84.64484     29.4 1.581e+04 5.461e-09
 84.65962     29.4 1.510e+04 4.427e-09
 84.67932     29.0 1.401e+04 3.283e-09
 84.69897     29.2 1.339e+04 2.794e-09
 84.71862     29.8 1.311e+04 2.581e-09
 84.73593     30.9 1.305e+04 2.610e-09
 84.74575     30.0 1.303e+04 2.269e-09
 84.75792     31.1 1.325e+04 2.370e-09
 84.77757     31.8 1.382e+04 2.720e-09
 84.79722     32.0 1.439e+04 3.300e-09
 84.81687     32.2 1.485e+04 4.098e-09
 84.83652     32.7 1.557e+04 5.526e-09
 84.85003     32.8 1.720e+04 8.913e-09
 84.85985     31.5 1.825e+04 9.263e-09
 84.87035     31.7 1.944e+04 1.325e-08
 84.87521     29.7 2.000e+04 1.485e-08
 84.88063     29.2 2.137e+04 1.999e-08
 84.89045     28.3 2.278e+04 2.772e-08
 84.90028     27.4 2.341e+04 3.801e-08
 84.91010     26.7 2.362e+04 5.025e-08
 84.91993     26.2 2.370e+04 6.480e-08
 84.92975     26.1 2.390e+04 8.690e-08
 84.93958     25.5 2.435e+04 1.237e-07
 84.94940     24.0 2.473e+04 1.650e-07
 84.95923     22.2 2.459e+04 1.587e-07
 84.96905     21.4 2.447e+04 1.225e-07
 84.97458     20.5 2.477e+04 8.434e-08
 84.97949     20.6 2.414e+04 5.404e-08
 84.98870     19.3 2.380e+04 3.382e-08
 84.99853     17.5 2.271e+04 2.089e-08
 85.00477     15.8 2.107e+04 1.366e-08
 85.00969     14.6 2.082e+04 9.278e-09
 85.01818     13.2 2.005e+04 6.361e-09
 85.03296     10.1 1.916e+04 4.076e-09
 85.05266      6.5 1.609e+04 2.215e-09
 85.07231      4.0 1.268e+04 1.685e-09
 85.08950      2.8 1.127e+04 1.450e-09
 85.09932      2.8 1.096e+04 1.153e-09
 85.11161      3.3 1.110e+04 1.258e-09
 85.14118      4.8 1.143e+04 1.382e-09
 85.17065      6.2 1.212e+04 1.926e-09
 85.19020      7.5 1.240e+04 2.183e-09
 85.20985      8.8 1.271e+04 2.498e-09
 85.22950     10.1 1.286e+04 2.689e-09
 85.24915     11.5 1.291e+04 2.780e-09
 85.26399     12.8 1.309e+04 3.041e-09
 85.27382     13.2 1.276e+04 2.662e-09
 85.28845     14.2 1.280e+04 2.730e-09
 85.30810     15.3 1.289e+04 2.841e-09
 85.32775     16.2 1.312e+04 3.194e-09
 85.33879     16.8 1.338e+04 3.685e-09
 85.34861     16.8 1.331e+04 3.315e-09
 85.36705     17.5 1.340e+04 3.697e-09
 85.38670     19.0 1.344e+04 4.089e-09
 85.40635     20.6 1.326e+04 4.252e-09
 85.42600     22.3 1.303e+04 4.004e-09
 85.44564     24.3 1.267e+04 3.486e-09
 85.46529     26.1 1.243e+04 2.956e-09
 85.48494     27.8 1.237e+04 2.412e-09
 85.50459     28.8 1.241e+04 1.859e-09
 85.52311     29.1 1.233e+04 1.420e-09
 85.53294     29.8 1.138e+04 1.127e-09
 85.54389     30.1 1.134e+04 9.258e-10
 85.56354     30.3 1.134e+04 8.216e-10
 85.57826     30.7 1.123e+04 7.989e-10
 85.58808     30.0 1.126e+04 8.115e-10
 85.60284     30.6 1.124e+04 8.394e-10
 85.62249     31.2 1.129e+04 9.452e-10
 85.64214     32.1 1.139e+04 1.085e-09
 85.66179     33.1 1.158e+04 1.248e-09
 85.68144     34.1 1.180e+04 1.440e-09
 85.70108     35.2 1.189e+04 1.625e-09
 85.72073     36.3 1.200e+04 1.820e-09
 85.74038     37.2 1.216e+04 2.018e-09
 85.76003     38.0 1.231e+04 2.226e-09
 85.77968     38.8 1.244e+04 2.386e-09
 85.79206     39.6 1.254e+04 2.491e-09
 85.80188     40.1 1.304e+04 2.922e-09
 85.81772     40.6 1.326e+04 3.219e-09
 85.82755     40.0 1.324e+04 3.205e-09
 85.83863     40.3 1.362e+04 3.688e-09
 85.85828     40.9 1.409e+04 4.384e-09
 85.87297     41.8 1.427e+04 4.629e-09
 85.88274     42.1 1.448e+04 4.868e-09
 85.89257     42.3 1.479e+04 5.254e-09
 85.90239     42.5 1.499e+04 5.588e-09
 85.91222     42.9 1.537e+04 6.247e-09
 85.92152     42.9 1.597e+04 7.322e-09
 85.92643     41.2 1.777e+04 1.086e-08
 85.93187     38.4 2.130e+04 1.809e-08
 85.94169     34.7 2.391e+04 3.196e-08
 85.94719     32.4 2.394e+04 5.554e-08
 85.95210     32.6 2.463e+04 6.845e-08
 85.96134     30.6 2.387e+04 1.231e-07
 85.97116     28.6 2.318e+04 2.174e-07
 85.98099     27.0 2.270e+04 2.936e-07
 85.99081     25.8 2.296e+04 2.806e-07
 86.00064     24.1 2.390e+04 2.393e-07
 86.01046     22.2 2.580e+04 1.532e-07
 86.02029     19.6 2.832e+04 7.590e-08
 86.03011     15.5 2.894e+04 3.634e-08
 86.03994     10.7 2.514e+04 2.002e-08
 86.04976      7.5 2.114e+04 1.303e-08
 86.05599      5.6 1.927e+04 1.036e-08
 86.06095      4.9 1.786e+04 9.612e-09
 86.06702      4.4 1.611e+04 6.942e-09
 86.07684      4.8 1.608e+04 6.835e-09
 86.09407      5.1 1.485e+04 4.844e-09
 86.11372      5.3 1.441e+04 3.771e-09
 86.13337      5.1 1.478e+04 3.400e-09
 86.15302      4.9 1.526e+04 3.439e-09
 86.17267      5.2 1.580e+04 3.613e-09
 86.19232      5.7 1.613e+04 3.966e-09
 86.21197      6.2 1.614e+04 4.277e-09
 86.23161      6.8 1.613e+04 4.754e-09
 86.25126      7.6 1.618e+04 5.419e-09
 86.27091      8.4 1.648e+04 6.368e-09
 86.29056      8.9 1.718e+04 7.917e-09
 86.30648      8.7 1.806e+04 1.002e-08
 86.31631     10.2 1.727e+04 7.210e-09
 86.32986      9.2 1.756e+04 5.443e-09
 86.34951      8.3 1.790e+04 6.643e-09
 86.36916      8.2 1.758e+04 8.022e-09
 86.38881      9.0 1.649e+04 8.300e-09
 86.40846     10.6 1.576e+04 6.811e-09
 86.42811     12.0 1.549e+04 4.837e-09
 86.44776     12.0 1.484e+04 2.818e-09
 86.46741     10.5 1.346e+04 1.572e-09
 86.48706      8.9 1.184e+04 9.814e-10
 86.50670      8.5 1.113e+04 7.824e-10
 86.52635      8.7 1.098e+04 7.199e-10
 86.54595      9.1 1.110e+04 7.063e-10
 86.56560      9.3 1.172e+04 9.028e-10
 86.57924      9.2 1.225e+04 1.052e-09
 86.58907     11.0 1.123e+04 8.013e-10
 86.60495     10.8 1.192e+04 9.634e-10
 86.62460     10.6 1.243e+04 1.206e-09
 86.64425     10.7 1.263e+04 1.462e-09
 86.66390     11.2 1.236e+04 1.697e-09
 86.68355     11.8 1.228e+04 1.866e-09
 86.70320     12.4 1.231e+04 1.902e-09
 86.72285     13.1 1.237e+04 1.807e-09
 86.74250     13.1 1.235e+04 1.604e-09
 86.76214     12.7 1.206e+04 1.419e-09
 86.78179     12.2 1.197e+04 1.281e-09
 86.79525     12.0 1.170e+04 1.179e-09
 86.80507     12.6 1.155e+04 1.047e-09
 86.82109     12.3 1.186e+04 9.943e-10
 86.83836     11.4 1.206e+04 1.038e-09
 86.84819     12.4 1.159e+04 8.245e-10
 86.86039     11.4 1.154e+04 8.924e-10
 86.88004     10.9 1.136e+04 9.265e-10
 86.89969     11.3 1.104e+04 1.016e-09
 86.91934     12.2 1.090e+04 9.721e-10
 86.93899     13.1 1.075e+04 8.712e-10
 86.95864     13.9 1.057e+04 7.587e-10
 86.97829     14.2 1.040e+04 6.386e-10
 86.99794     14.5 1.008e+04 5.527e-10
 87.01759     14.9 9.965e+03 4.769e-10
 87.03471     15.3 9.835e+03 4.696e-10
 87.04454     15.9 9.941e+03 4.944e-10
 87.05688     16.4 9.821e+03 4.474e-10
 87.07653     17.1 9.723e+03 4.392e-10
 87.09618     17.9 9.686e+03 4.313e-10
 87.10731     18.7 9.600e+03 4.333e-10
 87.11713     18.1 9.499e+03 3.779e-10
 87.13548     18.9 9.507e+03 3.890e-10
 87.15513     19.6 9.566e+03 4.184e-10
 87.17478     20.3 9.587e+03 4.537e-10
 87.19443     21.0 9.712e+03 5.227e-10
 87.21408     21.5 9.952e+03 6.373e-10
 87.23373     21.5 1.040e+04 8.300e-10
 87.25338     21.3 1.113e+04 1.200e-09
 87.27303     21.5 1.183e+04 1.709e-09
 87.28401     22.5 1.226e+04 2.211e-09
 87.29383     23.2 1.204e+04 2.034e-09
 87.31232     24.3 1.221e+04 2.110e-09
 87.33197     25.6 1.211e+04 1.984e-09
 87.35162     26.6 1.192e+04 1.655e-09
 87.36643     26.8 1.144e+04 1.206e-09
 87.37625     27.0 1.269e+04 1.684e-09
 87.39092     27.0 1.256e+04 1.280e-09
 87.41057     26.5 1.228e+04 9.379e-10
 87.43022     25.7 1.181e+04 7.225e-10
 87.44987     25.4 1.140e+04 6.015e-10
 87.46952     25.6 1.115e+04 5.575e-10
 87.48917     26.3 1.115e+04 5.704e-10
 87.50882     26.6 1.131e+04 6.248e-10
 87.52347     26.4 1.137e+04 7.169e-10
 87.53330     27.1 1.259e+04 8.500e-10
 87.54812     26.6 1.260e+04 9.791e-10
 87.56776     26.6 1.219e+04 1.091e-09
 87.58741     27.1 1.165e+04 1.140e-09
 87.60706     28.1 1.127e+04 1.101e-09
 87.62555     29.4 1.100e+04 1.010e-09
 87.63537     28.7 1.477e+04 2.946e-09
 87.64636     29.8 1.434e+04 2.600e-09
 87.66601     30.5 1.419e+04 2.212e-09
 87.68566     30.4 1.411e+04 1.824e-09
 87.70531     29.7 1.448e+04 1.661e-09
 87.72496     28.1 1.513e+04 1.779e-09
 87.74461     26.3 1.690e+04 2.479e-09
 87.75930     26.1 1.769e+04 3.093e-09
 87.76484     23.5 2.024e+04 4.156e-09
 87.76843     18.8 2.227e+04 8.058e-09
 87.77267     18.9 2.196e+04 9.220e-09
 87.77890     17.7 2.256e+04 1.500e-08
 87.78872     17.9 2.252e+04 2.320e-08
 87.79855     18.8 2.252e+04 3.138e-08
 87.80837     19.7 2.334e+04 3.235e-08
 87.81820     20.2 2.360e+04 2.957e-08
 87.82802     20.2 2.325e+04 2.445e-08
 87.83784     19.2 2.186e+04 1.911e-08
 87.84767     18.3 2.010e+04 1.470e-08
 87.85749     17.5 1.852e+04 1.044e-08
 87.86732     16.9 1.739e+04 8.727e-09
 87.88210     17.0 1.667e+04 6.867e-09
 87.89449     16.4 1.561e+04 4.888e-09
 87.90432     14.8 1.962e+04 7.982e-09
 87.92145     13.4 1.742e+04 4.987e-09
 87.94110     12.1 1.544e+04 3.575e-09
 87.96075     11.7 1.456e+04 3.346e-09
 87.98040     10.4 1.518e+04 3.913e-09
 88.00005      8.8 1.637e+04 5.502e-09
 88.01223      7.6 1.685e+04 7.494e-09
 88.02206      8.7 1.712e+04 7.040e-09
 88.03935      8.7 1.778e+04 1.014e-08
 88.05900      9.8 1.883e+04 1.146e-08
 88.07865     10.4 1.952e+04 1.011e-08
 88.09829     10.6 1.895e+04 6.635e-09
 88.11794      8.1 1.683e+04 3.356e-09
 88.13759      3.3 1.320e+04 1.739e-09
 88.15361      0.6 1.172e+04 1.316e-09
 88.16344      0.9 1.184e+04 1.342e-09
 88.17689      0.1 1.172e+04 1.264e-09
 88.19654     -0.2 1.173e+04 1.263e-09
 88.21619     -1.1 1.190e+04 1.325e-09
 88.23584     -2.6 1.235e+04 1.526e-09
 88.25170     -4.5 1.295e+04 1.923e-09
 88.26153     -4.4 1.333e+04 2.254e-09
 88.27514     -5.9 1.381e+04 2.893e-09
 88.29479     -6.5 1.392e+04 3.442e-09
 88.31444     -6.5 1.393e+04 3.772e-09
 88.33409     -6.2 1.381e+04 3.792e-09
 88.35374     -5.8 1.355e+04 3.275e-09
 88.37338     -5.9 1.344e+04 2.515e-09
 88.39303     -7.7 1.336e+04 1.876e-09
 88.41268    -10.1 1.245e+04 1.291e-09
 88.43233    -12.0 1.196e+04 1.558e-09
 88.45198    -12.5 1.168e+04 1.394e-09
 88.47163    -13.4 1.159e+04 1.322e-09
 88.49117    -14.8 1.171e+04 1.370e-09
 88.50100    -15.7 1.236e+04 1.840e-09
 88.51093    -18.4 1.298e+04 2.271e-09
 88.53058    -20.8 1.389e+04 3.387e-09
 88.55023    -22.2 1.481e+04 5.081e-09
 88.56988    -22.6 1.559e+04 6.978e-09
 88.58953    -22.4 1.600e+04 8.252e-09
 88.60918    -22.4 1.597e+04 8.420e-09
 88.62882    -21.9 1.526e+04 6.393e-09
 88.64847    -21.9 1.465e+04 4.175e-09
 88.66812    -23.5 1.419e+04 2.724e-09
 88.68168    -25.6 1.337e+04 1.871e-09
 88.69151    -26.1 1.233e+04 1.171e-09
 88.70742    -27.9 1.175e+04 9.791e-10
 88.72707    -29.0 1.156e+04 9.305e-10
 88.74046    -29.4 1.144e+04 9.875e-10
 88.75029    -31.2 1.166e+04 1.158e-09
 88.76637    -30.4 1.156e+04 1.264e-09
 88.78602    -29.2 1.144e+04 1.306e-09
 88.80567    -28.0 1.130e+04 1.238e-09
 88.82532    -26.8 1.114e+04 1.112e-09
 88.84497    -25.9 1.098e+04 9.771e-10
 88.86462    -25.1 1.082e+04 8.536e-10
 88.88427    -24.2 1.065e+04 7.534e-10
 88.90391    -23.3 1.047e+04 6.729e-10
 88.92356    -22.3 1.029e+04 6.125e-10
 88.94080    -21.1 1.023e+04 5.741e-10
 88.95063    -21.1 1.023e+04 5.712e-10
 88.96286    -20.0 1.023e+04 5.438e-10
 88.98003    -18.2 1.024e+04 5.170e-10
 88.99978    -19.2 1.049e+04 5.826e-10
 89.03183    -16.7 1.060e+04 6.502e-10
 89.06121    -14.4 1.063e+04 6.660e-10
 89.08076    -14.2 1.057e+04 6.665e-10
 89.10041    -12.4 1.075e+04 7.497e-10
 89.12006    -11.9 1.062e+04 7.519e-10
 89.13971    -10.0 1.110e+04 9.022e-10
 89.15936     -9.7 1.099e+04 8.962e-10
 89.17900     -7.9 1.112e+04 9.638e-10
 89.19865     -7.0 1.088e+04 8.994e-10
 89.20975     -5.5 1.074e+04 8.365e-10
 89.21957     -5.6 1.065e+04 8.146e-10
 89.22922     -4.1 1.049e+04 7.051e-10
 89.23905     -4.0 1.088e+04 8.927e-10
 89.25760     -2.7 1.074e+04 7.559e-10
 89.27725     -1.7 1.064e+04 6.185e-10
 89.29690     -1.0 1.064e+04 5.233e-10
 89.31655     -0.5 1.069e+04 4.952e-10
 89.33620     -0.4 1.099e+04 4.751e-10
 89.35585     -1.1 1.143e+04 5.624e-10
 89.37550     -1.5 1.152e+04 7.888e-10
 89.39515     -1.2 1.158e+04 1.173e-09
 89.41480      0.5 1.168e+04 1.573e-09
 89.43444      2.6 1.206e+04 1.873e-09
 89.45409      4.4 1.215e+04 1.986e-09
 89.46869      6.2 1.231e+04 1.707e-09
 89.47364      6.1 1.274e+04 1.899e-09
 89.47869      6.5 1.253e+04 1.880e-09
 89.49339      7.2 1.270e+04 1.413e-09
 89.51304      6.5 1.264e+04 1.170e-09
 89.53269      5.3 1.253e+04 9.952e-10
 89.55234      4.5 1.249e+04 9.995e-10
 89.57199      4.1 1.235e+04 1.261e-09
 89.59164      4.2 1.281e+04 1.449e-09
 89.61129      4.7 1.306e+04 1.767e-09
 89.63094      5.1 1.319e+04 2.060e-09
 89.65059      5.3 1.317e+04 2.322e-09
 89.67024      5.4 1.326e+04 2.523e-09
 89.68989      5.1 1.356e+04 2.610e-09
 89.70816      4.5 1.361e+04 2.621e-09
 89.71798      4.0 1.368e+04 2.674e-09
 89.72799      3.8 1.343e+04 2.622e-09
 89.73781      3.9 1.345e+04 2.543e-09
 89.74883      4.3 1.314e+04 2.369e-09
 89.77840      5.4 1.265e+04 1.886e-09
 89.80788      5.5 1.261e+04 1.510e-09
 89.82743      5.8 1.238e+04 1.427e-09
 89.84708      5.9 1.226e+04 1.240e-09
 89.86673      6.0 1.219e+04 1.176e-09
 89.88638      6.2 1.207e+04 1.263e-09
 89.90603      6.6 1.216e+04 1.339e-09
 89.92568      7.2 1.231e+04 1.441e-09
 89.94533      7.7 1.250e+04 1.704e-09
 89.95745      7.6 1.303e+04 1.883e-09
 89.96728      6.1 1.367e+04 2.326e-09
 89.98462      5.5 1.425e+04 3.256e-09
 89.99693      5.6 1.451e+04 4.276e-09
 90.00676      5.4 1.490e+04 4.798e-09
 90.02392      6.3 1.496e+04 5.767e-09
 90.04357      7.3 1.514e+04 5.672e-09
 90.06322      7.9 1.498e+04 5.066e-09
 90.08287      8.3 1.452e+04 4.486e-09
 90.10252      8.7 1.388e+04 3.694e-09
 90.12217      9.3 1.339e+04 2.810e-09
 90.14182     10.1 1.301e+04 2.134e-09
 90.16147     10.5 1.298e+04 1.389e-09
 90.18112     10.5 1.268e+04 1.006e-09
 90.19692      9.8 1.262e+04 7.271e-10
 90.20675      7.8 1.179e+04 4.383e-10
 90.22042      7.3 1.095e+04 3.643e-10
 90.24006      7.0 1.029e+04 3.796e-10
 90.25605      7.5 1.006e+04 3.767e-10
 90.26588      6.5 9.868e+03 3.185e-10
 90.27936      7.1 9.963e+03 3.479e-10
 90.29901      7.5 1.030e+04 4.020e-10
 90.31866      7.2 1.075e+04 5.084e-10
 90.33831      6.2 1.147e+04 7.337e-10
 90.35796      4.8 1.242e+04 1.211e-09
 90.37761      3.8 1.320e+04 1.881e-09
 90.39726      4.4 1.333e+04 2.759e-09
 90.41691      5.6 1.303e+04 3.285e-09
 90.43639      7.2 1.289e+04 2.965e-09
 90.44621      7.2 1.298e+04 2.965e-09
 90.45621      8.0 1.281e+04 2.187e-09
 90.48578      6.1 1.199e+04 1.146e-09
 90.52517      5.6 1.093e+04 6.528e-10
 90.56447      6.0 1.030e+04 4.599e-10
 90.60377      7.2 1.010e+04 3.676e-10
 90.64307      8.7 9.951e+03 3.128e-10
 90.68237     10.3 9.865e+03 2.540e-10
 90.72167     11.2 1.001e+04 2.027e-10
 90.76097     11.1 1.011e+04 2.163e-10
 90.78431     11.5 9.965e+03 3.145e-10
 90.80396     11.5 1.057e+04 5.249e-10
 90.83956     13.3 1.025e+04 5.758e-10
 90.87886     15.7 9.992e+03 4.629e-10
 90.91552     16.2 9.719e+03 3.271e-10
 90.93517     16.5 9.957e+03 3.843e-10
 90.95746     16.8 1.002e+04 3.864e-10
 90.99676     17.0 1.023e+04 4.854e-10
 91.03606     18.5 1.036e+04 6.323e-10
 91.07535     20.4 1.038e+04 6.719e-10
 91.11465     22.6 1.021e+04 6.073e-10
 91.15395     24.3 9.993e+03 4.688e-10
 91.19325     25.5 9.945e+03 3.944e-10
 91.23255     26.6 1.005e+04 4.098e-10
 91.27185     27.5 1.037e+04 4.970e-10
 91.30255     28.8 1.080e+04 6.652e-10
 91.32220     28.7 1.099e+04 7.701e-10
 91.35044     30.4 1.102e+04 7.933e-10
 91.38974     32.0 1.085e+04 7.237e-10
 91.41411     33.3 1.055e+04 5.929e-10
 91.43375     32.9 1.091e+04 7.053e-10
 91.46834     34.2 1.070e+04 6.118e-10
 91.50764     35.4 1.054e+04 5.416e-10
 91.54694     36.6 1.063e+04 5.435e-10
 91.57140     36.9 1.073e+04 5.738e-10
 91.58113     36.8 1.079e+04 6.076e-10
 91.59586     37.1 1.096e+04 6.880e-10
 91.61551     37.2 1.115e+04 7.797e-10
 91.63516     36.8 1.156e+04 9.232e-10
 91.65338     34.9 1.256e+04 1.293e-09
 91.66320     35.2 1.239e+04 1.075e-09
 91.67446     32.6 1.332e+04 1.713e-09
 91.69411     31.1 1.380e+04 2.679e-09
 91.71376     30.7 1.395e+04 3.289e-09
 91.73341     30.5 1.384e+04 3.227e-09
 91.75306     30.2 1.346e+04 2.668e-09
 91.77271     29.1 1.276e+04 1.808e-09
 91.79236     27.5 1.168e+04 1.124e-09
 91.81201     25.1 1.091e+04 7.301e-10
 91.83042     23.1 1.192e+04 5.550e-10
 91.84025     23.7 9.968e+03 4.018e-10
 91.85130     22.6 9.862e+03 3.620e-10
 91.87095     21.8 9.958e+03 3.705e-10
 91.89060     21.1 1.019e+04 4.296e-10
 91.90267     20.9 1.037e+04 5.335e-10
 91.91250     21.3 1.061e+04 5.430e-10
 91.92990     21.2 1.098e+04 7.430e-10
 91.94955     21.3 1.189e+04 1.067e-09
 91.96920     21.6 1.327e+04 1.531e-09
 91.98885     21.9 1.463e+04 2.098e-09
 92.00850     22.4 1.539e+04 2.629e-09
 92.02815     22.8 1.534e+04 2.998e-09
 92.04780     23.3 1.486e+04 3.120e-09
 92.06745     23.9 1.429e+04 3.124e-09
 92.08710     24.7 1.371e+04 2.968e-09
 92.09937     25.6 1.340e+04 2.829e-09
 92.10919     26.4 1.367e+04 1.674e-09
 92.12639     27.0 1.331e+04 1.550e-09
 92.14214     27.3 1.304e+04 1.442e-09
 92.15196     26.9 1.276e+04 1.310e-09
 92.16569     27.2 1.238e+04 1.172e-09
 92.18534     27.5 1.217e+04 1.083e-09
 92.20499     28.0 1.205e+04 1.029e-09
 92.22464     28.4 1.196e+04 9.853e-10
 92.24429     28.8 1.197e+04 9.847e-10
 92.26394     28.8 1.214e+04 1.024e-09
 92.28359     28.8 1.237e+04 1.101e-09
 92.30324     28.9 1.254e+04 1.178e-09
 92.32289     28.8 1.246e+04 1.229e-09
 92.34254     28.8 1.229e+04 1.228e-09
 92.35849     28.6 1.215e+04 1.251e-09
 92.36831     29.2 1.182e+04 7.933e-10
 92.38161     29.3 1.182e+04 8.678e-10
 92.39143     29.1 1.163e+04 7.495e-10
 92.40148     29.3 1.163e+04 9.280e-10
 92.42113     29.6 1.169e+04 1.002e-09
 92.45070     29.4 1.180e+04 1.199e-09
 92.48018     27.5 1.304e+04 2.179e-09
 92.49973     26.0 1.392e+04 3.385e-09
 92.51938     25.7 1.474e+04 5.140e-09
 92.53903     26.5 1.524e+04 6.480e-09
 92.55868     27.6 1.527e+04 6.396e-09
 92.57833     28.9 1.511e+04 5.522e-09
 92.59798     29.8 1.469e+04 3.838e-09
 92.61761     29.4 1.406e+04 2.348e-09
 92.63088     30.5 1.343e+04 1.756e-09
 92.64072     30.1 1.317e+04 1.622e-09
 92.65692     28.7 1.205e+04 1.017e-09
 92.67657     27.6 1.102e+04 7.404e-10
 92.69622     27.6 1.071e+04 6.963e-10
 92.71587     27.9 1.072e+04 7.130e-10
 92.73552     28.3 1.075e+04 7.724e-10
 92.75517     29.1 1.080e+04 8.424e-10
 92.77482     30.0 1.096e+04 9.231e-10
 92.79447     31.1 1.092e+04 9.136e-10
 92.81412     32.1 1.081e+04 8.630e-10
 92.83377     32.9 1.067e+04 7.900e-10
 92.85342     33.8 1.047e+04 6.945e-10
 92.87037     34.6 1.020e+04 5.874e-10
 92.88019     34.5 1.027e+04 6.084e-10
 92.88656     35.5 1.005e+04 5.221e-10
 92.89638     35.9 1.052e+04 6.262e-10
 92.91236     36.6 1.027e+04 5.143e-10
 92.93201     37.1 1.006e+04 4.350e-10
 92.95166     37.6 9.851e+03 3.835e-10
 92.97131     38.2 9.604e+03 3.743e-10
 92.99096     38.8 9.754e+03 3.852e-10
 93.01061     38.5 1.041e+04 4.689e-10
 93.03026     37.3 1.175e+04 7.495e-10
 93.04991     36.1 1.281e+04 1.335e-09
 93.06956     36.2 1.310e+04 2.156e-09
 93.08921     37.2 1.308e+04 2.953e-09
 93.10886     38.5 1.301e+04 3.302e-09
 93.11966     39.8 1.291e+04 3.202e-09
 93.12948     40.2 1.292e+04 3.222e-09
 93.14568     41.1 1.268e+04 2.546e-09
 93.15550     40.6 1.223e+04 2.224e-09
 93.16780     40.7 1.193e+04 1.734e-09
 93.18745     40.3 1.167e+04 1.267e-09
 93.20710     39.3 1.124e+04 9.289e-10
 93.22675     38.1 1.081e+04 7.213e-10
 93.24640     37.0 1.042e+04 6.142e-10
 93.26605     36.2 1.019e+04 5.882e-10
 93.28570     35.7 1.023e+04 6.057e-10
 93.30535     35.2 1.034e+04 6.679e-10
 93.32500     34.7 1.054e+04 7.534e-10
 93.34465     34.2 1.082e+04 8.672e-10
 93.35913     33.5 1.113e+04 1.006e-09
 93.36895     33.6 1.126e+04 1.072e-09
 93.38395     32.2 1.187e+04 1.313e-09
 93.40360     29.9 1.259e+04 1.683e-09
 93.41462     27.3 1.300e+04 2.151e-09
 93.42445     26.3 1.283e+04 2.156e-09
 93.44289     24.6 1.279e+04 2.329e-09
 93.46254     23.2 1.269e+04 2.267e-09
 93.48219     22.0 1.245e+04 2.030e-09
 93.50184     20.0 1.223e+04 1.698e-09
 93.52149     16.5 1.257e+04 1.632e-09
 93.54114     11.1 1.350e+04 1.984e-09
 93.56079      7.6 1.358e+04 2.537e-09
 93.58044      6.7 1.322e+04 3.175e-09
 93.59860      7.3 1.314e+04 3.581e-09
 93.60842      6.1 1.342e+04 4.110e-09
 93.61974      5.1 1.451e+04 4.415e-09
 93.63939      2.9 1.571e+04 4.904e-09
 93.65904      0.1 1.566e+04 5.258e-09
 93.67374     -1.3 1.513e+04 4.961e-09
 93.68357     -2.4 1.599e+04 7.935e-09
 93.69834     -1.0 1.543e+04 6.482e-09
 93.71798      0.1 1.497e+04 4.927e-09
 93.73763      0.2 1.408e+04 3.205e-09
 93.75728     -0.9 1.280e+04 1.885e-09
 93.77693     -1.5 1.196e+04 1.309e-09
 93.79658     -2.5 1.156e+04 1.005e-09
 93.82615     -2.4 1.175e+04 1.038e-09
 93.84808     -2.1 1.108e+04 8.120e-10
 93.86773     -4.3 1.001e+04 6.925e-10
 93.90485     -2.1 9.632e+03 5.766e-10
 93.93306     -0.3 9.308e+03 3.720e-10
 93.95271     -1.6 9.263e+03 2.060e-10
 93.98344     -0.7 9.188e+03 1.998e-10
 94.02274     -0.2 9.129e+03 2.592e-10
 94.06204      0.9 9.509e+03 3.958e-10
 94.10134      2.3 1.006e+04 6.126e-10
 94.14064      3.6 1.048e+04 7.838e-10
 94.17994      4.2 1.045e+04 7.645e-10
 94.21924      5.7 1.023e+04 5.787e-10
 94.25853      6.9 9.954e+03 3.511e-10
 94.29783      6.2 9.993e+03 1.982e-10
 94.32702      6.0 9.773e+03 2.092e-10
 94.34667      6.6 9.384e+03 1.877e-10
 94.37643      7.7 9.325e+03 1.776e-10
 94.41573      9.1 9.285e+03 1.686e-10
 94.45130     10.6 9.099e+03 1.587e-10
 94.47095     10.9 9.078e+03 1.435e-10
 94.49433     12.1 9.129e+03 1.246e-10
 94.53362     13.0 9.256e+03 1.291e-10
 94.57292     13.9 9.468e+03 1.542e-10
 94.61222     14.6 9.884e+03 2.043e-10
 94.65152     14.9 1.028e+04 2.899e-10
 94.69082     16.0 1.034e+04 3.592e-10
 94.73012     17.8 1.015e+04 3.333e-10
 94.76942     19.7 1.007e+04 2.577e-10
 94.80596     21.5 1.012e+04 1.734e-10
 94.82561     21.7 1.021e+04 1.775e-10
 94.84801     23.3 1.020e+04 1.121e-10
 94.88731     24.6 1.010e+04 7.519e-11
 94.92661     25.9 9.747e+03 6.351e-11
 94.96591     27.6 9.682e+03 6.608e-11
 94.98919     28.8 9.555e+03 8.356e-11
 95.00884     29.0 9.576e+03 9.026e-11
 95.04450     30.1 9.571e+03 1.436e-10
 95.08380     31.7 9.756e+03 2.540e-10
 95.12310     33.6 1.003e+04 3.896e-10
 95.16240     35.1 1.009e+04 4.072e-10
 95.20170     36.8 9.898e+03 3.581e-10
 95.24100     38.8 9.559e+03 2.296e-10
 95.28030     40.3 9.345e+03 1.165e-10
 95.30454     41.1 9.144e+03 6.171e-11
 95.32419     41.3 9.122e+03 9.710e-11
 95.35889     42.3 8.821e+03 7.286e-11
 95.39819     44.1 8.709e+03 7.328e-11
 95.43749     46.1 8.627e+03 7.860e-11
 95.47679     48.2 8.568e+03 9.070e-11
 95.50743     50.4 8.554e+03 1.062e-10
 95.52708     50.0 8.702e+03 1.077e-10
 95.55539     52.0 8.825e+03 1.354e-10
 95.59468     53.9 9.012e+03 1.785e-10
 95.63398     55.6 9.262e+03 2.637e-10
 95.67328     57.5 9.658e+03 4.227e-10
 95.71258     59.6 1.022e+04 6.807e-10
 95.75188     61.7 1.089e+04 9.394e-10
 95.78348     63.4 1.140e+04 9.561e-10
 95.80313     60.9 1.101e+04 5.639e-10
 95.82055     61.0 1.094e+04 5.322e-10
 95.84010     61.0 1.088e+04 5.183e-10
 95.85975     61.0 1.075e+04 5.070e-10
 95.87940     61.0 1.052e+04 4.879e-10
 95.89905     61.0 1.030e+04 4.778e-10
 95.91870     61.0 1.025e+04 4.836e-10
 95.93835     61.1 1.020e+04 5.040e-10
 95.95800     61.3 1.026e+04 5.051e-10
 95.97765     61.5 1.027e+04 5.000e-10
 95.99730     61.7 1.030e+04 4.821e-10
 96.01695     61.6 1.030e+04 4.539e-10
 96.03257     61.4 1.053e+04 4.235e-10
 96.04110     61.8 1.037e+04 3.782e-10
 96.04512     60.5 1.044e+04 3.249e-10
 96.05625     59.8 1.053e+04 3.295e-10
 96.07590     58.7 1.076e+04 3.472e-10
 96.09555     57.2 1.102e+04 4.062e-10
 96.11519     55.5 1.114e+04 5.414e-10
 96.13484     54.2 1.123e+04 7.607e-10
 96.15449     53.8 1.148e+04 1.004e-09
 96.17414     53.7 1.183e+04 1.090e-09
 96.19379     53.8 1.187e+04 1.037e-09
 96.21344     53.8 1.178e+04 8.391e-10
 96.23309     53.5 1.169e+04 5.889e-10
 96.25274     52.3 1.153e+04 4.020e-10
 96.27204     51.1 1.115e+04 3.349e-10
 96.28187     52.1 1.124e+04 3.601e-10
 96.29204     51.5 1.107e+04 3.506e-10
 96.30424     51.4 1.110e+04 3.669e-10
 96.31407     50.6 1.108e+04 3.638e-10
 96.33134     50.7 1.119e+04 4.241e-10
 96.35099     51.3 1.135e+04 5.406e-10
 96.37063     51.4 1.164e+04 7.344e-10
 96.39028     50.8 1.270e+04 1.242e-09
 96.40993     49.4 1.439e+04 2.614e-09
 96.42958     48.4 1.665e+04 6.617e-09
 96.44427     48.2 1.734e+04 9.422e-09
 96.45405     48.1 1.810e+04 1.335e-08
 96.46387     48.4 1.874e+04 1.946e-08
 96.47370     49.2 1.942e+04 2.771e-08
 96.48352     49.7 2.005e+04 3.450e-08
 96.49335     49.5 2.013e+04 3.473e-08
 96.50317     49.9 1.975e+04 3.009e-08
 96.51299     50.2 1.927e+04 2.495e-08
 96.52129     50.6 1.893e+04 2.039e-08
 96.53116     50.7 1.923e+04 2.004e-08
 96.54748     50.7 1.850e+04 1.280e-08
 96.56336     49.9 1.766e+04 7.679e-09
 96.57319     49.7 1.620e+04 5.313e-09
 96.58678     47.9 1.512e+04 3.734e-09
 96.60643     46.8 1.419e+04 3.184e-09
 96.62608     46.9 1.399e+04 3.191e-09
 96.64572     47.3 1.397e+04 3.261e-09
 96.66537     47.9 1.396e+04 3.310e-09
 96.68502     48.6 1.394e+04 3.195e-09
 96.70467     49.3 1.381e+04 2.811e-09
 96.72432     49.7 1.359e+04 2.227e-09
 96.74397     49.7 1.334e+04 1.617e-09
 96.76080     49.5 1.289e+04 1.084e-09
 96.77063     50.0 1.290e+04 1.133e-09
 96.78327     49.7 1.237e+04 7.904e-10
 96.80292     49.0 1.192e+04 5.517e-10
 96.82249     48.2 1.159e+04 4.417e-10
 96.84213     49.1 1.104e+04 2.922e-10
 96.86187     48.9 1.090e+04 2.530e-10
 96.88152     48.7 1.072e+04 2.222e-10
 96.90116     48.6 1.066e+04 2.203e-10
 96.92081     48.4 1.066e+04 2.327e-10
 96.94046     48.4 1.067e+04 2.430e-10
 96.96011     48.1 1.071e+04 2.972e-10
 96.97976     48.1 1.074e+04 3.318e-10
 97.00933     47.8 1.097e+04 5.171e-10
 97.04873     47.6 1.124e+04 8.013e-10
 97.08180     47.0 1.136e+04 9.236e-10
 97.10145     49.0 1.118e+04 8.274e-10
 97.12733     48.1 1.123e+04 8.404e-10
 97.16663     46.7 1.105e+04 7.411e-10
 97.20592     44.7 1.067e+04 6.221e-10
 97.23993     42.9 1.034e+04 5.635e-10
 97.25958     43.1 1.035e+04 5.662e-10
 97.28452     41.9 1.001e+04 5.017e-10
 97.32382     41.7 9.566e+03 3.776e-10
 97.36312     41.7 9.080e+03 2.410e-10
 97.40242     41.5 8.680e+03 1.491e-10
 97.44172     41.3 8.435e+03 1.076e-10
 97.48101     41.6 8.216e+03 9.545e-11
 97.52031     42.6 8.073e+03 9.143e-11
 97.55961     43.8 7.986e+03 8.897e-11
 97.59891     45.0 7.897e+03 8.575e-11
 97.61969     46.3 7.793e+03 8.062e-11
 97.63934     47.1 7.750e+03 8.333e-11
 97.67751     48.3 7.664e+03 7.630e-11
 97.71680     49.6 7.619e+03 6.893e-11
 97.73852     50.9 7.623e+03 6.102e-11
 97.75817     51.5 7.677e+03 7.051e-11
 97.79540     52.6 7.641e+03 5.714e-11
 97.83470     53.8 7.607e+03 5.292e-11
 97.87400     55.2 7.619e+03 5.398e-11
 97.91330     56.4 7.661e+03 6.106e-11
 97.95260     57.7 7.924e+03 9.367e-11
 97.99189     58.4 8.495e+03 1.721e-10
 98.02127     58.4 8.854e+03 2.357e-10
 98.04082     57.8 9.458e+03 3.535e-10
 98.06047     56.7 1.031e+04 6.190e-10
 98.08012     56.4 1.127e+04 1.152e-09
 98.10969     55.8 1.219e+04 1.612e-09
 98.13793     54.6 1.217e+04 1.429e-09
 98.14766     56.1 1.252e+04 1.954e-09
 98.15872     55.3 1.241e+04 1.667e-09
 98.18829     52.9 1.208e+04 1.176e-09
 98.21746     49.8 1.093e+04 7.190e-10
 98.23711     52.8 1.147e+04 8.732e-10
 98.26698     50.1 1.070e+04 7.436e-10
 98.29636     48.8 1.059e+04 7.448e-10
 98.31591     48.1 1.050e+04 7.579e-10
 98.33556     47.6 1.051e+04 8.134e-10
 98.35521     47.3 1.060e+04 8.677e-10
 98.37486     46.9 1.076e+04 9.393e-10
 98.39451     46.4 1.090e+04 9.947e-10
 98.40668     45.8 1.099e+04 1.009e-09
 98.41651     45.5 1.067e+04 8.898e-10
 98.43381     44.9 1.067e+04 8.744e-10
 98.45346     44.2 1.072e+04 8.384e-10
 98.46655     43.8 1.069e+04 8.139e-10
 98.47638     44.2 1.106e+04 9.794e-10
 98.49276     43.6 1.099e+04 9.318e-10
 98.51240     43.0 1.104e+04 8.475e-10
 98.53205     42.0 1.126e+04 8.268e-10
 98.55170     40.9 1.150e+04 8.552e-10
 98.57135     40.1 1.159e+04 9.008e-10
 98.59100     39.6 1.147e+04 9.404e-10
 98.61065     39.6 1.131e+04 9.847e-10
 98.63030     39.6 1.125e+04 1.033e-09
 98.64995     39.5 1.128e+04 1.078e-09
 98.66580     39.4 1.144e+04 1.151e-09
 98.67563     38.6 1.156e+04 1.286e-09
 98.68925     38.2 1.162e+04 1.321e-09
 98.70602     37.6 1.179e+04 1.445e-09
 98.71585     38.6 1.150e+04 1.295e-09
 98.72855     37.5 1.200e+04 1.457e-09
 98.74820     34.6 1.357e+04 2.153e-09
 98.76785     32.4 1.508e+04 4.010e-09
 98.78749     33.1 1.523e+04 5.530e-09
 98.80714     34.1 1.515e+04 5.333e-09
 98.82679     34.4 1.479e+04 4.198e-09
 98.84644     33.4 1.410e+04 2.751e-09
 98.86609     31.1 1.278e+04 1.735e-09
 98.88574     28.5 1.170e+04 1.259e-09
 98.90539     27.5 1.150e+04 1.121e-09
 98.92492     27.4 1.156e+04 1.101e-09
 98.93475     28.3 1.138e+04 1.404e-09
 98.94469     28.6 1.150e+04 1.306e-09
 98.95531     28.5 1.181e+04 1.236e-09
 98.96514     29.4 1.188e+04 1.415e-09
 98.98399     28.8 1.231e+04 1.476e-09
 99.00364     23.5 1.482e+04 2.225e-09
 99.02329     15.2 1.775e+04 5.792e-09
 99.04293     13.7 1.710e+04 1.086e-08
 99.06258     15.2 1.612e+04 8.824e-09
 99.08223     17.1 1.492e+04 3.440e-09
 99.10188     12.1 1.596e+04 7.309e-10
 99.12153      1.2 1.159e+04 1.633e-10
 99.14118     -2.2 9.620e+03 1.118e-10
 99.17075     -1.2 9.624e+03 1.061e-10
 99.19406      0.1 9.322e+03 8.958e-11
 99.19854      0.0 9.268e+03 9.342e-11
 99.21463      0.0 9.463e+03 1.316e-10
 99.24945      2.0 9.210e+03 1.248e-10
 99.28875      4.1 9.113e+03 1.166e-10
 99.32804      6.0 9.108e+03 1.065e-10
 99.36734      7.5 9.164e+03 9.996e-11
 99.40664      8.9 9.238e+03 1.068e-10
 99.44594     10.1 9.476e+03 1.180e-10
 99.48524     10.8 9.683e+03 1.414e-10
 99.52454     11.1 9.915e+03 1.978e-10
 99.56384     11.2 1.010e+04 3.288e-10
 99.60313     12.0 1.030e+04 5.277e-10
 99.64243     13.4 1.052e+04 6.593e-10
 99.67391     14.3 1.060e+04 6.041e-10
 99.69356     14.1 1.049e+04 5.578e-10
 99.71230     14.7 1.030e+04 4.939e-10
 99.73195     14.4 9.979e+03 3.407e-10
 99.76033     15.9 9.306e+03 2.559e-10
 99.79963     18.5 8.926e+03 1.474e-10
 99.83893     20.1 9.109e+03 7.125e-11
 99.87822     20.4 9.153e+03 4.263e-11
 99.91752     21.4 8.628e+03 3.838e-11
 99.95682     23.4 8.496e+03 3.949e-11
 99.99612     25.6 8.437e+03 4.244e-11
