# Columns:
#   distance along LOS (in CHIMPs)
#   peculiar velocity  (in km/s)
#   temperature (K)
#   HI number density
# pos=(184.966,104.965,46.9915), angles=(0.12512,0.700472)
  0.00086    -12.8 1.002e+04 1.963e-10
  0.02141    -10.7 1.003e+04 1.943e-10
  0.04851     -8.8 1.006e+04 2.265e-10
  0.06255     -8.4 9.884e+03 2.008e-10
  0.07483     -9.5 1.015e+04 2.363e-10
  0.10015     -6.8 1.025e+04 2.837e-10
  0.13952     -4.0 1.037e+04 3.206e-10
  0.17889     -1.3 1.042e+04 3.052e-10
  0.21826      1.0 1.051e+04 2.860e-10
  0.25764      3.2 1.048e+04 2.856e-10
  0.28707      5.5 1.039e+04 2.641e-10
  0.30430      5.7 1.046e+04 2.690e-10
  0.31415      5.4 1.075e+04 3.291e-10
  0.32634      6.5 1.088e+04 3.757e-10
  0.34602      7.2 1.111e+04 4.303e-10
  0.36571      7.7 1.129e+04 5.286e-10
  0.38539      8.5 1.145e+04 6.507e-10
  0.40508      9.2 1.172e+04 8.102e-10
  0.42476      9.9 1.201e+04 1.011e-09
  0.44445     10.6 1.237e+04 1.255e-09
  0.45972     11.1 1.279e+04 1.542e-09
  0.46956     11.6 1.244e+04 1.345e-09
  0.48382     12.5 1.276e+04 1.551e-09
  0.50350     13.1 1.293e+04 1.614e-09
  0.52319     13.9 1.284e+04 1.544e-09
  0.54287     14.4 1.280e+04 1.411e-09
  0.55366     14.7 1.268e+04 1.227e-09
  0.56350     14.5 1.289e+04 1.326e-09
  0.58224     14.6 1.281e+04 1.220e-09
  0.60193     14.9 1.260e+04 1.126e-09
  0.62161     15.2 1.251e+04 1.085e-09
  0.64130     15.8 1.245e+04 1.046e-09
  0.66050     16.4 1.244e+04 1.012e-09
  0.67034     16.9 1.245e+04 1.031e-09
  0.68067     17.6 1.236e+04 9.814e-10
  0.70036     18.3 1.226e+04 9.248e-10
  0.72004     18.9 1.218e+04 8.743e-10
  0.73973     19.4 1.205e+04 8.182e-10
  0.75941     20.0 1.194e+04 7.875e-10
  0.77910     20.6 1.182e+04 7.754e-10
  0.79317     21.4 1.168e+04 7.547e-10
  0.80302     21.5 1.188e+04 7.898e-10
  0.81847     22.3 1.177e+04 7.943e-10
  0.83815     23.3 1.162e+04 7.917e-10
  0.85784     24.4 1.147e+04 7.605e-10
  0.87112     25.8 1.127e+04 6.670e-10
  0.88096     26.3 1.127e+04 6.588e-10
  0.89721     27.4 1.115e+04 5.558e-10
  0.91689     28.7 1.095e+04 4.099e-10
  0.93658     28.9 1.090e+04 3.431e-10
  0.96620     30.0 1.061e+04 2.399e-10
  1.00567     31.3 1.042e+04 2.124e-10
  1.03288     32.9 1.049e+04 2.238e-10
  1.04263     32.5 1.064e+04 2.732e-10
  1.05469     33.0 1.068e+04 2.815e-10
  1.07190     34.0 1.078e+04 3.122e-10
  1.08174     34.6 1.074e+04 2.895e-10
  1.09406     35.2 1.083e+04 3.084e-10
  1.11374     36.1 1.097e+04 3.554e-10
  1.13343     36.8 1.111e+04 4.124e-10
  1.15311     37.6 1.126e+04 4.877e-10
  1.17280     38.5 1.138e+04 5.584e-10
  1.19248     39.6 1.152e+04 6.225e-10
  1.21217     40.4 1.165e+04 6.787e-10
  1.23185     41.2 1.175e+04 7.334e-10
  1.25154     41.8 1.189e+04 8.037e-10
  1.27122     42.4 1.208e+04 9.000e-10
  1.28205     42.9 1.233e+04 1.037e-09
  1.28350     42.9 1.229e+04 1.035e-09
  1.29237     43.9 1.213e+04 9.652e-10
  1.31059     44.5 1.233e+04 1.098e-09
  1.33028     45.2 1.260e+04 1.265e-09
  1.34996     45.5 1.294e+04 1.491e-09
  1.36965     45.7 1.325e+04 1.754e-09
  1.38934     46.1 1.348e+04 2.025e-09
  1.40902     46.7 1.373e+04 2.304e-09
  1.42871     47.1 1.405e+04 2.631e-09
  1.44839     47.3 1.448e+04 3.091e-09
  1.46808     47.3 1.498e+04 3.822e-09
  1.48330     47.5 1.547e+04 4.885e-09
  1.49315     48.6 1.515e+04 4.146e-09
  1.50745     48.9 1.560e+04 5.334e-09
  1.52156     49.7 1.596e+04 6.479e-09
  1.53140     50.1 1.592e+04 6.306e-09
  1.54682     51.0 1.610e+04 6.599e-09
  1.56650     51.9 1.605e+04 6.223e-09
  1.58619     52.6 1.587e+04 5.166e-09
  1.60587     52.7 1.568e+04 4.022e-09
  1.62556     52.1 1.540e+04 3.229e-09
  1.64524     51.3 1.483e+04 2.872e-09
  1.66493     51.3 1.443e+04 2.863e-09
  1.68408     51.7 1.425e+04 2.914e-09
  1.69393     52.6 1.445e+04 3.083e-09
  1.70430     53.2 1.427e+04 3.144e-09
  1.72398     54.2 1.417e+04 3.216e-09
  1.74367     55.5 1.414e+04 3.216e-09
  1.76108     56.6 1.412e+04 3.170e-09
  1.77092     57.0 1.396e+04 3.057e-09
  1.78304     58.2 1.398e+04 3.021e-09
  1.80272     59.2 1.406e+04 3.020e-09
  1.82241     60.1 1.419e+04 3.076e-09
  1.84209     60.9 1.439e+04 3.230e-09
  1.86178     61.6 1.482e+04 3.623e-09
  1.88146     61.7 1.552e+04 4.449e-09
  1.89471     61.8 1.632e+04 5.903e-09
  1.90455     63.0 1.611e+04 5.238e-09
  1.92083     63.1 1.694e+04 6.967e-09
  1.94052     63.5 1.769e+04 9.199e-09
  1.96020     64.1 1.823e+04 1.136e-08
  1.97989     64.5 1.848e+04 1.136e-08
  1.99957     64.7 1.838e+04 1.051e-08
  2.01043     64.7 1.803e+04 8.406e-09
  2.02028     65.7 1.924e+04 1.517e-08
  2.03894     65.7 1.895e+04 1.217e-08
  2.05863     65.4 1.834e+04 8.720e-09
  2.07831     65.0 1.741e+04 5.764e-09
  2.09549     64.7 1.633e+04 3.751e-09
  2.10533     65.5 1.619e+04 3.687e-09
  2.11769     65.3 1.500e+04 2.282e-09
  2.13737     65.0 1.404e+04 1.437e-09
  2.15706     64.2 1.331e+04 9.524e-10
  2.17674     63.5 1.339e+04 9.184e-10
  2.19643     62.9 1.383e+04 1.012e-09
  2.21611     62.2 1.422e+04 1.257e-09
  2.23580     61.6 1.405e+04 1.573e-09
  2.24995     61.3 1.312e+04 1.446e-09
  2.25979     61.2 1.645e+04 3.822e-09
  2.27517     61.2 1.561e+04 3.575e-09
  2.29485     61.1 1.466e+04 3.136e-09
  2.30611     60.9 1.387e+04 2.680e-09
  2.31595     61.4 1.379e+04 2.601e-09
  2.33422     60.9 1.325e+04 2.297e-09
  2.35391     60.5 1.296e+04 2.145e-09
  2.37359     60.5 1.288e+04 2.095e-09
  2.39328     60.7 1.283e+04 2.076e-09
  2.41296     61.2 1.289e+04 2.133e-09
  2.43265     61.9 1.297e+04 2.194e-09
  2.45233     62.5 1.302e+04 2.213e-09
  2.47202     63.0 1.303e+04 2.186e-09
  2.48946     63.3 1.303e+04 2.145e-09
  2.49930     63.3 1.235e+04 1.616e-09
  2.50689     63.3 1.240e+04 1.588e-09
  2.51674     62.8 1.257e+04 1.718e-09
  2.53107     62.1 1.279e+04 1.837e-09
  2.55076     61.3 1.299e+04 2.009e-09
  2.57044     60.7 1.309e+04 2.153e-09
  2.59013     60.4 1.297e+04 2.193e-09
  2.60981     60.4 1.276e+04 2.097e-09
  2.62950     60.5 1.246e+04 1.887e-09
  2.64918     60.6 1.209e+04 1.603e-09
  2.66887     60.8 1.168e+04 1.298e-09
  2.68855     60.9 1.126e+04 1.023e-09
  2.70767     61.1 1.088e+04 8.117e-10
  2.71752     60.6 1.089e+04 8.137e-10
  2.72792     60.7 1.056e+04 6.691e-10
  2.73882     60.8 1.033e+04 5.778e-10
  2.74866     60.8 1.031e+04 5.692e-10
  2.76729     61.2 1.014e+04 5.105e-10
  2.78698     61.7 1.004e+04 4.754e-10
  2.80666     62.4 9.960e+03 4.451e-10
  2.82635     63.0 9.883e+03 4.201e-10
  2.84604     63.5 9.837e+03 4.021e-10
  2.86572     62.9 9.995e+03 4.133e-10
  2.88541     61.7 1.092e+04 5.216e-10
  2.90509     60.6 1.231e+04 8.558e-10
  2.91830     59.4 1.364e+04 1.536e-09
  2.92814     59.3 1.358e+04 1.485e-09
  2.94446     57.5 1.494e+04 2.704e-09
  2.96415     55.0 1.634e+04 4.904e-09
  2.97833     52.9 1.723e+04 7.639e-09
  2.98818     53.8 1.731e+04 6.697e-09
  3.00352     52.2 1.786e+04 9.993e-09
  3.02320     51.7 1.735e+04 9.716e-09
  3.04289     51.7 1.650e+04 7.131e-09
  3.06257     50.7 1.588e+04 3.527e-09
  3.08226     45.5 1.522e+04 1.370e-09
  3.10194     37.2 1.300e+04 7.095e-10
  3.11908     32.0 1.118e+04 5.959e-10
  3.12892     32.8 1.097e+04 5.090e-10
  3.14131     31.2 1.058e+04 4.974e-10
  3.16100     30.8 1.045e+04 5.506e-10
  3.18068     30.8 1.053e+04 5.992e-10
  3.20037     30.8 1.066e+04 6.211e-10
  3.21785     30.6 1.084e+04 6.519e-10
  3.22769     31.1 1.079e+04 5.939e-10
  3.23974     30.6 1.103e+04 6.476e-10
  3.25942     29.9 1.116e+04 7.378e-10
  3.27911     29.4 1.132e+04 8.985e-10
  3.29879     29.1 1.152e+04 1.153e-09
  3.31848     29.2 1.177e+04 1.472e-09
  3.32970     29.6 1.205e+04 1.767e-09
  3.33954     30.5 1.190e+04 1.421e-09
  3.35785     31.1 1.224e+04 1.871e-09
  3.37753     31.9 1.260e+04 2.233e-09
  3.39722     32.6 1.296e+04 2.470e-09
  3.41690     33.2 1.326e+04 2.630e-09
  3.43659     33.3 1.351e+04 2.676e-09
  3.45627     33.2 1.365e+04 2.579e-09
  3.46720     32.8 1.376e+04 2.373e-09
  3.47705     31.7 1.422e+04 2.726e-09
  3.49564     30.7 1.406e+04 2.409e-09
  3.51533     29.8 1.390e+04 2.274e-09
  3.53048     28.8 1.409e+04 2.368e-09
  3.54032     30.9 1.386e+04 2.445e-09
  3.55470     29.5 1.414e+04 2.619e-09
  3.57438     27.8 1.494e+04 3.255e-09
  3.59407     26.2 1.582e+04 4.450e-09
  3.61376     25.4 1.640e+04 5.982e-09
  3.63344     24.9 1.694e+04 7.365e-09
  3.65313     23.4 1.817e+04 9.028e-09
  3.67281     21.2 1.938e+04 9.742e-09
  3.69250     19.3 1.910e+04 7.885e-09
  3.70672     17.5 1.747e+04 4.596e-09
  3.71656     13.9 1.520e+04 2.778e-09
  3.73126     10.9 1.235e+04 1.415e-09
  3.74110     13.7 1.444e+04 1.636e-09
  3.75155     10.4 1.151e+04 7.436e-10
  3.77124      8.4 1.031e+04 4.540e-10
  3.79092      8.0 1.049e+04 3.161e-10
  3.81061      8.0 1.014e+04 2.834e-10
  3.84023      9.2 1.022e+04 2.669e-10
  3.87970      9.3 1.000e+04 2.746e-10
  3.91907      9.5 1.012e+04 3.003e-10
  3.94643     10.0 1.033e+04 3.855e-10
  3.96611      7.4 1.094e+04 6.599e-10
  3.99781      9.7 1.109e+04 8.770e-10
  4.03718     12.1 1.129e+04 9.513e-10
  4.07655     14.0 1.137e+04 9.488e-10
  4.11592     15.8 1.149e+04 1.017e-09
  4.14286     17.6 1.152e+04 1.091e-09
  4.16255     19.7 1.096e+04 7.164e-10
  4.19466     21.8 1.109e+04 8.483e-10
  4.23403     23.9 1.129e+04 9.907e-10
  4.27340     25.9 1.165e+04 1.160e-09
  4.31277     27.6 1.190e+04 1.251e-09
  4.35214     29.6 1.176e+04 1.154e-09
  4.39151     31.7 1.145e+04 9.335e-10
  4.42546     33.3 1.103e+04 6.720e-10
  4.44514     32.4 1.162e+04 1.069e-09
  4.46031     34.0 1.118e+04 8.736e-10
  4.47990     34.8 1.108e+04 8.070e-10
  4.49959     35.4 1.100e+04 7.597e-10
  4.51927     36.2 1.103e+04 7.512e-10
  4.53896     37.0 1.105e+04 7.487e-10
  4.55407     37.6 1.105e+04 7.410e-10
  4.56391     38.1 1.116e+04 8.180e-10
  4.57833     38.9 1.110e+04 7.983e-10
  4.59801     39.8 1.105e+04 7.595e-10
  4.61770     40.6 1.095e+04 6.867e-10
  4.63738     41.3 1.083e+04 5.940e-10
  4.65707     41.4 1.070e+04 5.001e-10
  4.67462     41.3 1.054e+04 4.383e-10
  4.68446     40.9 1.054e+04 4.643e-10
  4.69644     41.1 1.034e+04 4.030e-10
  4.71612     41.1 1.023e+04 3.790e-10
  4.74575     42.0 1.032e+04 4.266e-10
  4.78522     42.8 1.024e+04 4.236e-10
  4.82459     43.7 1.022e+04 4.285e-10
  4.86396     44.8 1.029e+04 4.473e-10
  4.90333     46.0 1.037e+04 4.666e-10
  4.92417     47.6 1.048e+04 4.935e-10
  4.94386     47.3 1.002e+04 3.563e-10
  4.96567     48.9 1.020e+04 3.986e-10
  4.98535     48.9 1.049e+04 4.618e-10
  5.01150     49.9 1.058e+04 5.072e-10
  5.03108     50.6 1.069e+04 5.527e-10
  5.05077     51.7 1.088e+04 6.394e-10
  5.07046     52.5 1.098e+04 7.018e-10
  5.09014     53.5 1.110e+04 7.910e-10
  5.10983     54.6 1.120e+04 8.799e-10
  5.12951     55.7 1.128e+04 9.479e-10
  5.14920     56.9 1.137e+04 1.006e-09
  5.16349     58.0 1.144e+04 1.046e-09
  5.17071     57.9 1.136e+04 9.730e-10
  5.17610     57.9 1.131e+04 9.445e-10
  5.18857     58.9 1.137e+04 9.697e-10
  5.20825     59.9 1.145e+04 1.005e-09
  5.22794     60.7 1.153e+04 1.044e-09
  5.24762     61.5 1.160e+04 1.073e-09
  5.26731     62.5 1.172e+04 1.091e-09
  5.28699     63.4 1.195e+04 1.134e-09
  5.30668     63.5 1.230e+04 1.177e-09
  5.32636     63.1 1.278e+04 1.294e-09
  5.34605     62.1 1.321e+04 1.566e-09
  5.36573     61.1 1.353e+04 2.036e-09
  5.37688     61.2 1.371e+04 2.601e-09
  5.38672     61.0 1.467e+04 4.278e-09
  5.40301     61.6 1.452e+04 4.248e-09
  5.41285     61.1 1.457e+04 3.997e-09
  5.42479     61.7 1.415e+04 3.234e-09
  5.44447     61.6 1.362e+04 2.192e-09
  5.46416     60.9 1.303e+04 1.527e-09
  5.49378     58.7 1.216e+04 1.087e-09
  5.53325     58.2 1.125e+04 8.096e-10
  5.57262     58.5 1.068e+04 6.319e-10
  5.61199     59.1 1.032e+04 5.205e-10
  5.65136     59.8 1.020e+04 5.106e-10
  5.69073     60.4 1.024e+04 5.322e-10
  5.73010     61.1 1.040e+04 6.302e-10
  5.76879     62.1 1.067e+04 7.769e-10
  5.78848     61.6 1.035e+04 6.465e-10
  5.80884     62.7 1.038e+04 6.686e-10
  5.84821     64.0 1.031e+04 6.364e-10
  5.88223     65.5 1.004e+04 5.155e-10
  5.90192     64.8 9.618e+03 3.690e-10
  5.92695     66.5 9.321e+03 2.776e-10
  5.96632     68.2 9.040e+03 2.023e-10
  6.00569     70.0 8.846e+03 1.557e-10
  6.04506     72.0 8.759e+03 1.311e-10
  6.08443     74.2 8.764e+03 1.212e-10
  6.12381     76.6 8.814e+03 1.185e-10
  6.16318     79.0 8.863e+03 1.176e-10
  6.19004     81.4 8.932e+03 1.158e-10
  6.20972     81.3 9.088e+03 1.558e-10
  6.24192     83.6 9.153e+03 1.488e-10
  6.28129     85.8 9.220e+03 1.421e-10
  6.32066     87.9 9.245e+03 1.417e-10
  6.36003     90.0 9.311e+03 1.431e-10
  6.38094     92.0 9.381e+03 1.504e-10
  6.40063     92.6 9.253e+03 1.460e-10
  6.43877     94.6 9.345e+03 1.619e-10
  6.47814     96.5 9.465e+03 1.876e-10
  6.51751     98.3 9.582e+03 2.182e-10
  6.55688    100.0 9.679e+03 2.452e-10
  6.59160    101.5 9.794e+03 2.722e-10
  6.61128    100.7 1.057e+04 5.386e-10
  6.63562    101.9 1.067e+04 5.700e-10
  6.67499    102.9 1.064e+04 5.525e-10
  6.71436    103.9 1.051e+04 4.774e-10
  6.75373    104.9 1.024e+04 3.575e-10
  6.79310    105.7 9.898e+03 2.505e-10
  6.83247    106.5 9.582e+03 1.983e-10
  6.85997    107.6 9.531e+03 1.976e-10
  6.87966    107.8 9.689e+03 2.199e-10
  6.91121    108.7 9.677e+03 2.214e-10
  6.95058    109.8 9.684e+03 2.338e-10
  6.98995    110.9 9.766e+03 2.637e-10
  7.01285    112.0 9.903e+03 3.054e-10
  7.03253    111.0 1.008e+04 3.446e-10
  7.06869    111.9 1.013e+04 3.508e-10
  7.10806    112.7 1.016e+04 3.533e-10
  7.14743    113.5 1.021e+04 3.584e-10
  7.18680    114.1 1.038e+04 3.849e-10
  7.22617    114.2 1.076e+04 4.770e-10
  7.26554    114.1 1.130e+04 6.661e-10
  7.30491    113.9 1.189e+04 9.591e-10
  7.33900    113.6 1.227e+04 1.149e-09
  7.35869    112.6 1.223e+04 1.094e-09
  7.38365    112.2 1.227e+04 1.101e-09
  7.41441    112.0 1.215e+04 1.015e-09
  7.43409    110.9 1.198e+04 9.524e-10
  7.46239    111.1 1.160e+04 7.422e-10
  7.50176    111.6 1.108e+04 5.179e-10
  7.54113    112.4 1.053e+04 3.529e-10
  7.58051    113.6 1.008e+04 2.512e-10
  7.61988    115.2 9.776e+03 1.919e-10
  7.65925    116.9 9.542e+03 1.600e-10
  7.69862    118.9 9.385e+03 1.545e-10
  7.73799    121.0 9.375e+03 1.562e-10
  7.77736    123.0 9.365e+03 1.696e-10
  7.81597    124.8 9.488e+03 2.119e-10
  7.83565    124.3 9.599e+03 2.101e-10
  7.83772    125.9 9.868e+03 3.048e-10
  7.85740    124.8 1.007e+04 3.405e-10
  7.89547    126.1 1.044e+04 4.720e-10
  7.93484    126.1 1.080e+04 5.825e-10
  7.97421    125.3 1.142e+04 6.889e-10
  8.01358    123.1 1.252e+04 9.035e-10
  8.05295    121.3 1.318e+04 1.346e-09
  8.09232    120.7 1.278e+04 1.687e-09
  8.13169    120.7 1.253e+04 1.642e-09
  8.17106    121.2 1.209e+04 1.360e-09
  8.21043    122.1 1.170e+04 9.801e-10
  8.23721    122.6 1.139e+04 6.656e-10
  8.24696    120.6 1.113e+04 4.394e-10
  8.25945    120.5 1.075e+04 3.747e-10
  8.27913    120.5 1.049e+04 3.620e-10
  8.29882    120.6 1.046e+04 3.617e-10
  8.31655    120.7 1.048e+04 3.708e-10
  8.33633    119.3 1.036e+04 3.821e-10
  8.35797    119.4 1.059e+04 4.647e-10
  8.37756    119.5 1.081e+04 5.398e-10
  8.39724    119.5 1.102e+04 6.174e-10
  8.41693    119.5 1.121e+04 6.889e-10
  8.43661    119.3 1.140e+04 7.504e-10
  8.44764    119.1 1.163e+04 7.919e-10
  8.45748    118.8 1.161e+04 8.635e-10
  8.47598    118.4 1.183e+04 8.748e-10
  8.49567    117.8 1.186e+04 8.717e-10
  8.51535    117.0 1.188e+04 8.535e-10
  8.53504    116.1 1.187e+04 8.019e-10
  8.55472    115.0 1.186e+04 7.494e-10
  8.56591    113.8 1.189e+04 7.438e-10
  8.57575    112.8 1.208e+04 7.622e-10
  8.59409    111.2 1.220e+04 7.920e-10
  8.61378    109.0 1.257e+04 9.319e-10
  8.63346    106.4 1.315e+04 1.304e-09
  8.64842    103.8 1.378e+04 2.006e-09
  8.65827    103.6 1.398e+04 2.256e-09
  8.67283    101.6 1.445e+04 3.223e-09
  8.69252    100.2 1.482e+04 4.090e-09
  8.71220     98.7 1.496e+04 4.221e-09
  8.73189     97.1 1.493e+04 4.094e-09
  8.75158     95.6 1.479e+04 3.619e-09
  8.77126     93.8 1.451e+04 2.989e-09
  8.79095     92.0 1.411e+04 2.457e-09
  8.80542     90.4 1.370e+04 2.122e-09
  8.81526     89.9 1.324e+04 1.698e-09
  8.83032     89.0 1.284e+04 1.584e-09
  8.84920     88.7 1.274e+04 1.573e-09
  8.85905     88.2 1.254e+04 1.506e-09
  8.86969     88.0 1.252e+04 1.526e-09
  8.88937     87.9 1.252e+04 1.577e-09
  8.90906     87.7 1.253e+04 1.633e-09
  8.92874     87.5 1.256e+04 1.681e-09
  8.94843     87.2 1.259e+04 1.729e-09
  8.96811     86.9 1.260e+04 1.792e-09
  8.98780     86.6 1.260e+04 1.838e-09
  9.00748     86.4 1.262e+04 1.865e-09
  9.02717     86.1 1.268e+04 1.898e-09
  9.04494     86.0 1.272e+04 1.905e-09
  9.05478     85.9 1.256e+04 1.803e-09
  9.05992     85.4 1.278e+04 1.951e-09
  9.07971     85.9 1.220e+04 1.445e-09
  9.11595     85.3 1.182e+04 1.164e-09
  9.15532     84.6 1.127e+04 7.698e-10
  9.19469     83.7 1.065e+04 3.991e-10
  9.23406     82.2 1.007e+04 1.735e-10
  9.27343     80.2 9.334e+03 8.818e-11
  9.29449     79.6 8.806e+03 7.759e-11
  9.31417     79.0 8.929e+03 8.412e-11
  9.35217     79.2 8.732e+03 8.216e-11
  9.39154     79.7 8.711e+03 8.265e-11
  9.43091     80.4 8.697e+03 8.671e-11
  9.46158     81.1 8.744e+03 9.421e-11
  9.48127     81.5 8.882e+03 1.068e-10
  9.50965     81.9 8.885e+03 1.243e-10
  9.54902     82.4 8.906e+03 1.421e-10
  9.58839     82.9 8.924e+03 1.555e-10
  9.62776     83.5 8.934e+03 1.643e-10
  9.66713     84.1 8.941e+03 1.701e-10
  9.70650     84.9 8.957e+03 1.746e-10
  9.74587     85.6 8.994e+03 1.804e-10
  9.77352     86.3 9.060e+03 1.893e-10
  9.79320     85.7 8.885e+03 1.984e-10
  9.82461     86.4 8.964e+03 2.126e-10
  9.86314     86.9 9.003e+03 2.120e-10
  9.88283     86.5 9.173e+03 1.855e-10
  9.90335     86.7 9.122e+03 1.894e-10
  9.94272     87.0 9.086e+03 1.936e-10
  9.98209     86.9 9.098e+03 2.055e-10
 10.02146     86.7 9.247e+03 2.376e-10
 10.06083     86.4 9.547e+03 3.101e-10
 10.10020     86.0 9.971e+03 4.263e-10
 10.13957     85.4 1.037e+04 5.244e-10
 10.17894     84.3 1.043e+04 5.236e-10
 10.21831     82.7 1.028e+04 4.721e-10
 10.25255     81.3 9.832e+03 3.434e-10
 10.27223     81.7 1.039e+04 4.877e-10
 10.28439     80.3 9.743e+03 3.055e-10
 10.30408     80.0 8.831e+03 1.625e-10
 10.33642     79.2 8.521e+03 1.174e-10
 10.37579     78.8 8.373e+03 1.071e-10
 10.41516     78.9 8.376e+03 1.101e-10
 10.45453     79.1 8.406e+03 1.294e-10
 10.49390     79.5 8.628e+03 1.819e-10
 10.53328     79.9 9.012e+03 2.699e-10
 10.57265     80.2 9.430e+03 3.849e-10
 10.61202     80.3 9.777e+03 5.035e-10
 10.65139     80.3 9.957e+03 5.707e-10
 10.68595     80.1 9.958e+03 5.705e-10
 10.70564     80.8 1.080e+04 9.105e-10
 10.73013     80.3 1.073e+04 8.803e-10
 10.75126     80.0 1.042e+04 7.601e-10
 10.77095     80.7 9.934e+03 5.556e-10
 10.80887     80.6 9.522e+03 4.238e-10
 10.84824     80.5 9.152e+03 3.199e-10
 10.88761     80.5 8.850e+03 2.477e-10
 10.92698     80.6 8.604e+03 1.996e-10
 10.96635     80.9 8.500e+03 1.817e-10
 11.00572     81.5 8.510e+03 1.841e-10
 11.04509     82.0 8.597e+03 2.026e-10
 11.08446     82.6 8.802e+03 2.517e-10
 11.10720     83.2 9.067e+03 3.178e-10
 11.12688     83.4 8.959e+03 2.472e-10
 11.16320     83.7 9.265e+03 3.315e-10
 11.20257     83.6 9.544e+03 4.179e-10
 11.23029     82.8 1.015e+04 5.670e-10
 11.24998     84.4 9.629e+03 4.749e-10
 11.28131     83.0 1.044e+04 6.777e-10
 11.32068     80.9 1.142e+04 1.035e-09
 11.36005     78.5 1.195e+04 1.246e-09
 11.39942     76.3 1.193e+04 1.196e-09
 11.43879     74.5 1.163e+04 9.428e-10
 11.47816     72.7 1.101e+04 6.374e-10
 11.50759     71.9 1.053e+04 5.309e-10
 11.51841     71.8 1.022e+04 4.911e-10
 11.52835     71.5 1.019e+04 5.132e-10
 11.55690     71.6 9.701e+03 4.203e-10
 11.59627     72.0 9.429e+03 3.570e-10
 11.63564     72.6 9.396e+03 3.074e-10
 11.67501     73.4 9.493e+03 3.003e-10
 11.70932     73.8 9.665e+03 3.065e-10
 11.72900     75.0 9.741e+03 3.996e-10
 11.75375     74.8 1.000e+04 4.384e-10
 11.79312     73.4 1.081e+04 6.224e-10
 11.83249     71.0 1.234e+04 1.308e-09
 11.87186     69.0 1.278e+04 1.948e-09
 11.91032     67.9 1.241e+04 1.733e-09
 11.93001     68.4 1.180e+04 1.389e-09
 11.95060     68.4 1.086e+04 8.149e-10
 11.98998     68.5 9.647e+03 3.581e-10
 12.02935     68.7 8.605e+03 1.430e-10
 12.06872     69.1 8.154e+03 6.729e-11
 12.10809     70.4 8.056e+03 4.938e-11
 12.14746     72.3 7.888e+03 4.618e-11
 12.18683     74.6 7.860e+03 4.574e-11
 12.20803     76.9 7.875e+03 4.630e-11
 12.22772     77.8 7.826e+03 4.601e-11
 12.26557     80.1 7.829e+03 4.724e-11
 12.30494     82.4 7.859e+03 5.328e-11
 12.33157     84.6 7.913e+03 6.784e-11
 12.35125     85.1 7.935e+03 5.800e-11
 12.38368     87.3 8.108e+03 7.937e-11
 12.42305     89.5 8.373e+03 1.166e-10
 12.46242     91.6 8.767e+03 1.758e-10
 12.50179     93.5 9.255e+03 2.599e-10
 12.54116     94.2 9.621e+03 3.367e-10
 12.57059     94.5 9.791e+03 3.896e-10
 12.59018     94.6 1.001e+04 4.723e-10
 12.60986     94.6 1.038e+04 6.171e-10
 12.62955     94.3 1.099e+04 8.523e-10
 12.64923     93.3 1.197e+04 1.257e-09
 12.66892     91.6 1.332e+04 1.959e-09
 12.68687     88.9 1.471e+04 3.048e-09
 12.69671     90.7 1.410e+04 2.557e-09
 12.70829     87.4 1.535e+04 3.927e-09
 12.72797     84.0 1.608e+04 5.591e-09
 12.74278     81.5 1.600e+04 6.537e-09
 12.75262     80.0 1.556e+04 5.624e-09
 12.76734     78.8 1.546e+04 5.658e-09
 12.78703     78.3 1.510e+04 5.095e-09
 12.80671     78.0 1.453e+04 3.694e-09
 12.82640     77.2 1.377e+04 2.274e-09
 12.84608     75.5 1.285e+04 1.379e-09
 12.86577     73.6 1.189e+04 9.145e-10
 12.88545     72.2 1.116e+04 6.932e-10
 12.90514     71.8 1.075e+04 5.747e-10
 12.92482     71.6 1.053e+04 4.794e-10
 12.93622     71.4 1.043e+04 4.008e-10
 12.94511     71.8 1.053e+04 4.864e-10
 12.95340     71.2 1.060e+04 4.677e-10
 12.96419     70.8 1.064e+04 4.613e-10
 12.98388     70.0 1.072e+04 4.787e-10
 13.00356     68.9 1.089e+04 5.609e-10
 13.02325     67.7 1.109e+04 7.657e-10
 13.04293     67.0 1.145e+04 1.098e-09
 13.06262     66.7 1.198e+04 1.514e-09
 13.08230     66.3 1.252e+04 1.589e-09
 13.10199     65.8 1.250e+04 1.551e-09
 13.13162     64.9 1.240e+04 1.289e-09
 13.15437     63.0 1.177e+04 6.324e-10
 13.16907     61.3 1.077e+04 3.716e-10
 13.18578     62.4 1.142e+04 4.960e-10
 13.21045     58.8 9.895e+03 2.096e-10
 13.24982     56.7 9.428e+03 1.753e-10
 13.28919     56.4 9.424e+03 1.770e-10
 13.32856     56.3 9.482e+03 1.921e-10
 13.36793     56.4 9.631e+03 2.296e-10
 13.40730     56.6 9.898e+03 3.071e-10
 13.44667     56.9 1.026e+04 4.447e-10
 13.48605     57.2 1.064e+04 6.288e-10
 13.52542     57.3 1.088e+04 7.649e-10
 13.55594     57.1 1.089e+04 7.560e-10
 13.57562     57.6 1.126e+04 9.250e-10
 13.60416     57.3 1.113e+04 8.258e-10
 13.64353     56.8 1.070e+04 5.758e-10
 13.66481     55.8 1.017e+04 3.552e-10
 13.68449     55.3 1.002e+04 2.951e-10
 13.72227     53.8 9.527e+03 1.932e-10
 13.76164     53.1 9.288e+03 1.779e-10
 13.80101     52.9 9.291e+03 1.813e-10
 13.84038     52.6 9.363e+03 2.062e-10
 13.87975     52.4 9.560e+03 2.582e-10
 13.91912     52.1 9.713e+03 2.866e-10
 13.95750     51.6 9.702e+03 2.784e-10
 13.97718     51.3 9.870e+03 2.861e-10
 13.99786     50.8 9.780e+03 2.527e-10
 14.03723     50.7 9.532e+03 1.942e-10
 14.07660     50.6 9.246e+03 1.338e-10
 14.11597     50.7 8.955e+03 8.866e-11
 14.14383     51.0 8.681e+03 7.500e-11
 14.16352     50.9 8.588e+03 7.250e-11
 14.19471     51.9 8.592e+03 7.463e-11
 14.23408     52.6 8.688e+03 9.174e-11
 14.27345     53.2 8.987e+03 1.612e-10
 14.31282     54.0 9.685e+03 3.348e-10
 14.35219     55.1 1.054e+04 6.540e-10
 14.37874     56.0 1.118e+04 9.634e-10
 14.39843     56.0 1.093e+04 7.568e-10
 14.43093     56.4 1.098e+04 7.657e-10
 14.47030     56.7 1.085e+04 7.074e-10
 14.50967     57.0 1.062e+04 6.077e-10
 14.54904     57.5 1.035e+04 5.136e-10
 14.58841     58.2 1.012e+04 4.433e-10
 14.62286     59.4 9.931e+03 3.864e-10
 14.64255     59.7 9.666e+03 3.291e-10
 14.66715     61.4 9.553e+03 2.919e-10
 14.70652     63.2 9.467e+03 2.538e-10
 14.74589     64.9 9.435e+03 2.265e-10
 14.78031     66.8 9.458e+03 2.137e-10
 14.79999     66.3 9.148e+03 1.463e-10
 14.82463     68.0 9.149e+03 1.487e-10
 14.86400     70.0 9.250e+03 1.643e-10
 14.90337     71.6 9.459e+03 1.930e-10
 14.93280     72.4 9.488e+03 2.063e-10
 14.95239     73.2 9.484e+03 2.268e-10
 14.97208     74.3 9.675e+03 2.707e-10
 14.99073     74.6 1.032e+04 3.748e-10
 15.00058     74.9 9.968e+03 3.383e-10
 15.01145     75.4 1.055e+04 4.739e-10
 15.03113     75.4 1.207e+04 8.592e-10
 15.05082     75.6 1.354e+04 1.614e-09
 15.06553     75.1 1.453e+04 2.204e-09
 15.07533     73.9 1.621e+04 3.329e-09
 15.08517     72.2 1.844e+04 5.902e-09
 15.09501     70.8 2.042e+04 1.089e-08
 15.10087     69.7 2.194e+04 2.007e-08
 15.10579     71.7 2.037e+04 1.109e-08
 15.11470     70.7 2.155e+04 1.953e-08
 15.12128     70.0 2.256e+04 3.468e-08
 15.12621     69.4 2.235e+04 3.566e-08
 15.13438     68.9 2.308e+04 6.746e-08
 15.14422     68.6 2.316e+04 1.320e-07
 15.15407     68.0 2.288e+04 2.377e-07
 15.16391     66.8 2.294e+04 2.779e-07
 15.17375     65.7 2.294e+04 2.407e-07
 15.18360     65.0 2.323e+04 1.415e-07
 15.19344     63.9 2.360e+04 6.341e-08
 15.20126     61.8 2.252e+04 2.723e-08
 15.20618     65.1 2.383e+04 5.241e-08
 15.21312     62.9 2.309e+04 2.521e-08
 15.22297     60.8 2.095e+04 1.510e-08
 15.23281     58.8 1.870e+04 1.009e-08
 15.24762     57.9 1.657e+04 6.445e-09
 15.26735     57.5 1.435e+04 3.844e-09
 15.28704     58.2 1.477e+04 2.602e-09
 15.30672     58.2 1.562e+04 1.827e-09
 15.32641     58.1 1.531e+04 1.273e-09
 15.34610     57.5 1.365e+04 9.315e-10
 15.36090     57.3 1.216e+04 9.519e-10
 15.37074     57.6 1.235e+04 9.614e-10
 15.38547     57.7 1.173e+04 9.383e-10
 15.40214     58.5 1.182e+04 1.010e-09
 15.41198     60.4 1.316e+04 1.200e-09
 15.42484     60.6 1.220e+04 1.197e-09
 15.44452     61.2 1.207e+04 1.211e-09
 15.46421     62.1 1.204e+04 1.255e-09
 15.48389     63.1 1.204e+04 1.304e-09
 15.50358     64.0 1.203e+04 1.306e-09
 15.52326     65.0 1.199e+04 1.282e-09
 15.54295     65.8 1.189e+04 1.220e-09
 15.56263     66.7 1.176e+04 1.134e-09
 15.58232     67.6 1.159e+04 1.035e-09
 15.60041     68.6 1.141e+04 9.302e-10
 15.61025     68.6 1.162e+04 1.159e-09
 15.61276     69.7 1.149e+04 1.070e-09
 15.62260     70.9 1.158e+04 1.140e-09
 15.64137     71.9 1.148e+04 1.066e-09
 15.66106     73.0 1.136e+04 9.689e-10
 15.68074     74.2 1.122e+04 8.578e-10
 15.70043     75.2 1.105e+04 7.432e-10
 15.72011     76.2 1.085e+04 6.230e-10
 15.73980     77.2 1.061e+04 5.088e-10
 15.75948     78.0 1.042e+04 4.014e-10
 15.77917     78.5 1.026e+04 3.334e-10
 15.79885     79.2 1.020e+04 2.801e-10
 15.81354     79.6 1.015e+04 2.553e-10
 15.82338     81.3 1.014e+04 2.896e-10
 15.83822     82.0 9.997e+03 2.493e-10
 15.84977     82.7 9.959e+03 2.222e-10
 15.85961     83.4 9.996e+03 2.288e-10
 15.87759     84.2 1.005e+04 2.298e-10
 15.89728     84.4 1.026e+04 2.418e-10
 15.91696     84.5 1.053e+04 2.771e-10
 15.93665     84.4 1.093e+04 3.571e-10
 15.95633     84.6 1.124e+04 5.143e-10
 15.97602     85.1 1.149e+04 7.551e-10
 15.99570     85.8 1.175e+04 1.055e-09
 16.01432     86.6 1.206e+04 1.365e-09
 16.02416     87.9 1.194e+04 1.155e-09
 16.03507     88.4 1.226e+04 1.470e-09
 16.05476     88.7 1.262e+04 1.781e-09
 16.07445     88.8 1.305e+04 2.131e-09
 16.08928     88.8 1.358e+04 2.580e-09
 16.09913     89.7 1.375e+04 2.699e-09
 16.11382     89.6 1.401e+04 2.971e-09
 16.13350     89.7 1.420e+04 3.209e-09
 16.15319     89.9 1.425e+04 3.357e-09
 16.17287     90.2 1.419e+04 3.317e-09
 16.19256     90.7 1.414e+04 3.161e-09
 16.21224     90.9 1.411e+04 2.952e-09
 16.22494     90.9 1.413e+04 2.787e-09
 16.23479     91.7 1.480e+04 3.661e-09
 16.25161     91.8 1.474e+04 3.507e-09
 16.27130     92.0 1.462e+04 3.314e-09
 16.29098     92.2 1.444e+04 3.036e-09
 16.31067     92.2 1.428e+04 2.588e-09
 16.32880     91.5 1.476e+04 2.409e-09
 16.33864     95.1 1.445e+04 2.626e-09
 16.35004     92.9 1.743e+04 2.847e-09
 16.36475     87.6 2.019e+04 3.203e-09
 16.37455     83.7 2.161e+04 3.753e-09
 16.38439     78.0 2.281e+04 5.105e-09
 16.39423     71.1 2.265e+04 7.634e-09
 16.40407     65.4 2.113e+04 1.048e-08
 16.41392     61.4 1.992e+04 1.300e-08
 16.42376     58.2 1.974e+04 1.579e-08
 16.43055     55.0 2.130e+04 1.997e-08
 16.43547     56.0 2.075e+04 1.269e-08
 16.44344     54.2 2.172e+04 1.026e-08
 16.45329     50.3 2.514e+04 8.619e-09
 16.45830     43.3 3.309e+04 7.230e-09
 16.46322     39.7 3.012e+04 4.108e-08
 16.47297     34.5 3.228e+04 2.392e-08
 16.48281     27.9 2.979e+04 1.467e-08
 16.49266     22.0 2.479e+04 1.069e-08
 16.50250     19.9 2.178e+04 9.056e-09
 16.51234     20.4 2.101e+04 8.332e-09
 16.52218     21.5 2.055e+04 8.256e-09
 16.53094     22.9 2.052e+04 8.109e-09
 16.53586     22.3 2.040e+04 5.893e-09
 16.54684     24.4 1.933e+04 5.820e-09
 16.56657     27.0 1.873e+04 5.717e-09
 16.57815     29.5 1.812e+04 5.082e-09
 16.58800     29.3 2.032e+04 1.682e-08
 16.60594     31.4 2.004e+04 1.390e-08
 16.62563     33.4 1.969e+04 1.112e-08
 16.63635     35.1 1.935e+04 8.898e-09
 16.64619     34.9 1.875e+04 6.579e-09
 16.66500     36.2 1.811e+04 5.139e-09
 16.68468     37.1 1.710e+04 3.894e-09
 16.70437     37.7 1.569e+04 3.060e-09
 16.72405     37.9 1.446e+04 2.606e-09
 16.74374     38.0 1.371e+04 2.475e-09
 16.76342     38.2 1.346e+04 2.582e-09
 16.78311     38.3 1.351e+04 2.751e-09
 16.80280     38.2 1.392e+04 2.980e-09
 16.81767     35.8 1.540e+04 4.053e-09
 16.82751     36.9 1.528e+04 3.571e-09
 16.83713     32.1 1.697e+04 5.546e-09
 16.84697     35.7 1.702e+04 5.419e-09
 16.86185     31.5 1.846e+04 8.284e-09
 16.88154     28.6 1.740e+04 9.267e-09
 16.89625     27.6 1.698e+04 8.631e-09
 16.90604     26.8 1.696e+04 8.071e-09
 16.91589     24.9 1.770e+04 6.947e-09
 16.92573     21.7 1.843e+04 6.686e-09
 16.93557     16.1 1.868e+04 4.942e-09
 16.94225     14.6 1.834e+04 4.738e-09
 16.94410     14.6 1.865e+04 5.050e-09
 16.94726     15.4 1.886e+04 5.453e-09
 16.96023      8.2 1.649e+04 3.983e-09
 16.97996      2.6 1.412e+04 3.133e-09
 16.99965      1.4 1.415e+04 3.074e-09
 17.01933     -0.1 1.429e+04 2.292e-09
 17.03791     -4.3 1.271e+04 1.278e-09
 17.04775     -3.6 1.347e+04 1.685e-09
 17.05718     -7.6 1.152e+04 9.849e-10
 17.06703     -8.1 1.157e+04 9.916e-10
 17.07839     -9.5 1.093e+04 7.543e-10
 17.09807    -11.0 1.064e+04 5.790e-10
 17.11776    -13.3 1.028e+04 4.540e-10
 17.13744    -15.5 9.983e+03 4.032e-10
 17.15713    -16.9 9.937e+03 4.004e-10
 17.17681    -18.4 9.964e+03 4.425e-10
 17.19650    -19.6 1.027e+04 5.255e-10
 17.21618    -20.8 1.064e+04 6.571e-10
 17.23587    -21.8 1.099e+04 7.841e-10
 17.24853    -22.6 1.117e+04 8.802e-10
 17.25838    -23.2 1.137e+04 9.684e-10
 17.27524    -23.9 1.132e+04 9.706e-10
 17.29492    -24.3 1.104e+04 8.760e-10
 17.30654    -24.7 1.071e+04 7.249e-10
 17.31638    -26.2 1.070e+04 6.879e-10
 17.33429    -27.2 1.035e+04 5.242e-10
 17.35398    -28.4 9.973e+03 4.009e-10
 17.38360    -29.4 9.580e+03 3.305e-10
 17.42307    -30.3 9.317e+03 3.079e-10
 17.46244    -30.7 9.228e+03 3.043e-10
 17.50181    -30.5 9.403e+03 3.408e-10
 17.53124    -31.5 9.653e+03 3.868e-10
 17.54606    -31.7 9.848e+03 4.246e-10
 17.55590    -33.5 9.887e+03 4.256e-10
 17.57052    -34.3 1.013e+04 5.038e-10
 17.59020    -34.8 1.042e+04 5.957e-10
 17.60989    -35.2 1.068e+04 6.960e-10
 17.62957    -35.4 1.092e+04 7.889e-10
 17.64926    -35.6 1.108e+04 8.475e-10
 17.65994    -35.8 1.114e+04 8.658e-10
 17.66978    -37.1 1.104e+04 8.391e-10
 17.68863    -37.5 1.106e+04 7.905e-10
 17.70831    -38.1 1.101e+04 7.310e-10
 17.72800    -38.9 1.098e+04 6.904e-10
 17.74768    -39.6 1.097e+04 6.796e-10
 17.76737    -40.3 1.108e+04 7.244e-10
 17.78557    -41.0 1.120e+04 7.959e-10
 17.79541    -42.4 1.134e+04 9.049e-10
 17.80674    -43.4 1.160e+04 1.038e-09
 17.82642    -44.7 1.218e+04 1.269e-09
 17.84611    -46.3 1.304e+04 1.672e-09
 17.86072    -47.9 1.378e+04 2.255e-09
 17.87056    -49.4 1.426e+04 2.754e-09
 17.88548    -50.1 1.421e+04 3.233e-09
 17.90516    -50.3 1.409e+04 3.313e-09
 17.92485    -49.9 1.357e+04 2.991e-09
 17.94453    -49.3 1.296e+04 2.378e-09
 17.96422    -49.0 1.237e+04 1.693e-09
 17.98390    -49.1 1.176e+04 1.101e-09
 18.00359    -50.0 1.106e+04 6.941e-10
 18.02327    -51.0 1.035e+04 4.681e-10
 18.03493    -51.5 9.886e+03 3.626e-10
 18.04477    -52.9 9.496e+03 2.860e-10
 18.06150    -52.5 9.412e+03 2.743e-10
 18.07134    -53.3 9.319e+03 2.604e-10
 18.08233    -53.0 9.506e+03 2.818e-10
 18.10201    -52.9 9.653e+03 3.191e-10
 18.12170    -52.5 9.819e+03 3.794e-10
 18.14138    -51.8 1.000e+04 4.603e-10
 18.16107    -50.9 1.017e+04 5.506e-10
 18.18075    -49.9 1.028e+04 6.353e-10
 18.20044    -48.8 1.035e+04 6.973e-10
 18.22012    -47.7 1.037e+04 7.166e-10
 18.23981    -46.7 1.030e+04 7.178e-10
 18.25949    -45.5 1.011e+04 6.764e-10
 18.27212    -44.4 9.920e+03 6.078e-10
 18.27723    -44.5 9.865e+03 5.808e-10
 18.28428    -44.6 9.753e+03 5.254e-10
 18.29887    -43.6 9.604e+03 4.683e-10
 18.31855    -42.7 9.484e+03 4.239e-10
 18.33824    -41.8 9.404e+03 3.942e-10
 18.36786    -40.6 9.336e+03 3.654e-10
 18.40733    -38.4 9.148e+03 3.240e-10
 18.44670    -36.3 9.151e+03 3.221e-10
 18.47310    -34.0 9.273e+03 3.463e-10
 18.49278    -34.9 9.854e+03 5.240e-10
 18.51415    -32.8 9.920e+03 5.459e-10
 18.53384    -32.2 9.705e+03 5.164e-10
 18.56481    -30.5 9.700e+03 4.878e-10
 18.60418    -29.1 9.705e+03 4.858e-10
 18.64355    -27.6 9.905e+03 5.134e-10
 18.68292    -25.7 1.003e+04 5.244e-10
 18.72229    -23.3 9.909e+03 4.597e-10
 18.76166    -20.8 9.681e+03 3.786e-10
 18.80103    -18.2 9.410e+03 2.963e-10
 18.84040    -16.1 9.372e+03 2.661e-10
 18.87466    -14.1 9.793e+03 2.939e-10
 18.89434    -17.2 1.097e+04 6.654e-10
 18.91914    -15.0 1.143e+04 1.015e-09
 18.95851    -11.9 1.203e+04 1.545e-09
 18.98794     -9.5 1.202e+04 1.769e-09
 19.00283     -7.7 1.241e+04 2.153e-09
 19.01267     -7.4 1.261e+04 2.114e-09
 19.02722     -6.0 1.290e+04 2.522e-09
 19.04690     -4.7 1.303e+04 2.850e-09
 19.06659     -3.2 1.338e+04 3.363e-09
 19.08509     -1.6 1.366e+04 3.671e-09
 19.09493     -3.4 1.506e+04 4.176e-09
 19.10596     -4.7 1.859e+04 6.439e-09
 19.12564     -6.3 2.182e+04 1.045e-08
 19.14533     -6.7 2.285e+04 1.644e-08
 19.16004     -4.8 2.305e+04 2.240e-08
 19.16983     -4.1 2.293e+04 2.596e-08
 19.17968     -3.8 2.256e+04 2.982e-08
 19.18952     -2.9 2.252e+04 3.270e-08
 19.19522     -2.4 2.279e+04 3.258e-08
 19.20014     -4.2 2.180e+04 1.941e-08
 19.20920     -4.2 2.135e+04 1.681e-08
 19.21905     -5.0 2.214e+04 1.258e-08
 19.22889     -5.4 2.154e+04 1.055e-08
 19.23873     -7.7 2.151e+04 6.791e-09
 19.24717     -8.9 1.962e+04 5.328e-09
 19.25209     -8.9 2.008e+04 5.672e-09
 19.26339     -8.2 2.146e+04 5.629e-09
 19.28312    -13.2 1.671e+04 3.078e-09
 19.29571    -16.6 1.415e+04 2.141e-09
 19.30555    -21.7 1.277e+04 1.172e-09
 19.32249    -26.9 1.473e+04 1.364e-09
 19.34218    -34.4 1.681e+04 2.150e-09
 19.36186    -39.0 1.644e+04 3.784e-09
 19.38155    -40.1 1.600e+04 5.454e-09
 19.39605    -39.9 1.593e+04 6.692e-09
 19.40092    -40.4 1.560e+04 6.251e-09
 19.40606    -40.4 1.557e+04 6.240e-09
 19.41590    -40.5 1.560e+04 5.981e-09
 19.42574    -40.6 1.570e+04 5.650e-09
 19.43558    -41.3 1.610e+04 4.957e-09
 19.44543    -42.0 1.627e+04 4.804e-09
 19.46024    -43.8 1.699e+04 4.206e-09
 19.47997    -48.4 1.630e+04 2.797e-09
 19.49170    -53.8 1.357e+04 1.831e-09
 19.49837    -57.4 1.357e+04 2.158e-09
 19.50633    -57.7 1.231e+04 1.436e-09
 19.51934    -58.1 1.270e+04 1.653e-09
 19.53903    -58.5 1.305e+04 1.801e-09
 19.55871    -58.9 1.327e+04 1.890e-09
 19.57840    -59.4 1.349e+04 1.969e-09
 19.59808    -60.0 1.385e+04 2.110e-09
 19.61777    -60.8 1.433e+04 2.366e-09
 19.63745    -61.6 1.471e+04 2.746e-09
 19.65714    -61.9 1.483e+04 3.188e-09
 19.67682    -62.0 1.478e+04 3.647e-09
 19.69651    -61.7 1.473e+04 4.086e-09
 19.70711    -61.1 1.492e+04 4.468e-09
 19.71696    -60.9 1.463e+04 4.146e-09
 19.73121    -60.3 1.507e+04 4.799e-09
 19.74106    -61.7 1.504e+04 3.556e-09
 19.75557    -61.8 1.575e+04 3.420e-09
 19.77525    -63.2 1.629e+04 3.146e-09
 19.79494    -66.0 1.600e+04 2.903e-09
 19.81462    -69.0 1.539e+04 2.856e-09
 19.83431    -70.9 1.450e+04 3.344e-09
 19.85399    -71.7 1.487e+04 4.333e-09
 19.87368    -71.7 1.550e+04 5.420e-09
 19.89336    -71.7 1.592e+04 6.094e-09
 19.90789    -72.0 1.605e+04 6.242e-09
 19.91774    -72.9 1.667e+04 7.813e-09
 19.93273    -73.5 1.672e+04 7.119e-09
 19.95242    -74.8 1.658e+04 5.896e-09
 19.97073    -77.2 1.632e+04 5.126e-09
 19.98057    -76.7 1.590e+04 4.221e-09
 19.99179    -79.4 1.554e+04 3.929e-09
 20.01147    -81.4 1.528e+04 3.829e-09
 20.03116    -82.9 1.493e+04 3.667e-09
 20.05084    -84.2 1.449e+04 3.217e-09
 20.07053    -85.7 1.409e+04 2.588e-09
 20.09021    -87.4 1.360e+04 2.061e-09
 20.10867    -89.2 1.303e+04 1.654e-09
 20.11852    -88.7 1.319e+04 1.784e-09
 20.12958    -89.9 1.300e+04 1.594e-09
 20.14927    -90.7 1.294e+04 1.535e-09
 20.16895    -91.3 1.300e+04 1.527e-09
 20.18864    -92.2 1.343e+04 1.666e-09
 20.20832    -93.0 1.383e+04 2.040e-09
 20.22009    -93.4 1.415e+04 2.621e-09
 20.22993    -93.0 1.276e+04 1.555e-09
 20.24769    -93.2 1.338e+04 2.020e-09
 20.26738    -93.1 1.381e+04 2.555e-09
 20.28706    -92.7 1.400e+04 2.987e-09
 20.30675    -92.3 1.401e+04 3.142e-09
 20.31930    -92.0 1.390e+04 3.148e-09
 20.32914    -91.5 1.403e+04 3.668e-09
 20.34612    -91.0 1.355e+04 3.157e-09
 20.36580    -90.6 1.300e+04 2.574e-09
 20.38549    -90.4 1.252e+04 2.107e-09
 20.40517    -90.2 1.212e+04 1.762e-09
 20.42486    -90.0 1.179e+04 1.510e-09
 20.44454    -89.8 1.150e+04 1.323e-09
 20.45960    -89.3 1.125e+04 1.176e-09
 20.46944    -89.1 1.134e+04 1.221e-09
 20.48392    -88.6 1.113e+04 1.100e-09
 20.50360    -87.9 1.091e+04 9.914e-10
 20.52008    -87.2 1.073e+04 8.998e-10
 20.52992    -86.5 1.074e+04 9.097e-10
 20.54297    -85.8 1.060e+04 8.340e-10
 20.56266    -84.9 1.047e+04 7.703e-10
 20.58234    -83.9 1.038e+04 7.210e-10
 20.60203    -83.0 1.032e+04 6.832e-10
 20.62171    -82.2 1.025e+04 6.485e-10
 20.64140    -81.3 1.017e+04 6.173e-10
 20.66108    -80.4 1.012e+04 5.968e-10
 20.68077    -79.4 1.011e+04 5.881e-10
 20.69911    -78.5 1.011e+04 5.870e-10
 20.70896    -78.4 1.018e+04 6.136e-10
 20.72014    -77.6 1.022e+04 6.239e-10
 20.73070    -77.0 1.027e+04 6.453e-10
 20.74054    -76.3 1.035e+04 6.460e-10
 20.75951    -75.6 1.040e+04 6.745e-10
 20.77919    -75.0 1.048e+04 7.298e-10
 20.79888    -74.5 1.060e+04 7.944e-10
 20.81856    -74.0 1.070e+04 8.659e-10
 20.83825    -73.2 1.080e+04 9.657e-10
 20.85793    -72.8 1.089e+04 1.033e-09
 20.87762    -72.0 1.099e+04 1.122e-09
 20.89730    -71.5 1.105e+04 1.176e-09
 20.91699    -70.6 1.109e+04 1.228e-09
 20.93148    -70.2 1.109e+04 1.243e-09
 20.94142    -70.0 1.124e+04 1.255e-09
 20.94857    -68.9 1.107e+04 1.255e-09
 20.95831    -68.3 1.152e+04 1.458e-09
 20.97604    -67.7 1.149e+04 1.455e-09
 20.99573    -66.9 1.138e+04 1.397e-09
 21.01541    -66.3 1.121e+04 1.276e-09
 21.03510    -65.7 1.101e+04 1.158e-09
 21.05478    -65.2 1.085e+04 1.058e-09
 21.07447    -64.6 1.070e+04 9.818e-10
 21.09415    -64.2 1.065e+04 9.593e-10
 21.12378    -63.7 1.067e+04 9.415e-10
 21.15331    -64.0 1.126e+04 1.119e-09
 21.17289    -63.9 1.170e+04 1.344e-09
 21.18799    -63.9 1.234e+04 1.763e-09
 21.19783    -62.6 1.141e+04 1.280e-09
 21.21227    -62.6 1.206e+04 1.647e-09
 21.23195    -62.4 1.256e+04 2.080e-09
 21.25164    -61.9 1.288e+04 2.495e-09
 21.27132    -61.2 1.296e+04 2.718e-09
 21.29101    -60.3 1.294e+04 2.744e-09
 21.31069    -59.2 1.264e+04 2.599e-09
 21.33038    -58.1 1.230e+04 2.184e-09
 21.34289    -57.5 1.221e+04 1.802e-09
 21.35273    -57.7 1.168e+04 1.534e-09
 21.36975    -57.5 1.170e+04 1.299e-09
 21.38943    -57.6 1.184e+04 1.222e-09
 21.40912    -57.7 1.226e+04 1.230e-09
 21.42750    -57.8 1.296e+04 1.473e-09
 21.43734    -55.4 1.132e+04 7.930e-10
 21.44849    -55.5 1.211e+04 9.047e-10
 21.46817    -55.6 1.284e+04 1.197e-09
 21.48786    -55.4 1.341e+04 1.694e-09
 21.50754    -55.1 1.386e+04 2.425e-09
 21.52723    -54.8 1.424e+04 3.370e-09
 21.54367    -54.3 1.469e+04 4.527e-09
 21.55351    -54.1 1.453e+04 3.697e-09
 21.56660    -53.8 1.516e+04 5.174e-09
 21.58628    -53.5 1.573e+04 6.803e-09
 21.60597    -53.2 1.596e+04 7.934e-09
 21.62565    -53.0 1.594e+04 8.179e-09
 21.64534    -52.8 1.563e+04 8.026e-09
 21.66502    -52.4 1.517e+04 7.127e-09
 21.67686    -52.0 1.467e+04 5.656e-09
 21.68670    -51.7 1.475e+04 6.343e-09
 21.70439    -51.1 1.423e+04 5.289e-09
 21.72408    -50.4 1.381e+04 4.078e-09
 21.74376    -50.2 1.352e+04 2.906e-09
 21.75429    -51.6 1.372e+04 2.149e-09
 21.76413    -52.1 1.338e+04 2.032e-09
 21.78313    -55.1 1.354e+04 1.842e-09
 21.80282    -59.2 1.418e+04 1.853e-09
 21.82250    -63.7 1.480e+04 2.332e-09
 21.84219    -67.3 1.478e+04 2.821e-09
 21.86187    -70.3 1.463e+04 2.909e-09
 21.88156    -72.7 1.393e+04 2.484e-09
 21.90124    -74.8 1.285e+04 1.595e-09
 21.91637    -76.5 1.189e+04 9.663e-10
 21.92621    -77.4 1.168e+04 8.575e-10
 21.94061    -78.5 1.101e+04 5.085e-10
 21.95507    -78.9 1.071e+04 3.396e-10
 21.96491    -78.2 1.086e+04 4.374e-10
 21.98993    -79.0 1.045e+04 2.488e-10
 22.02939    -78.6 1.013e+04 1.796e-10
 22.06876    -77.1 9.801e+03 1.091e-10
 22.10813    -75.7 9.696e+03 7.173e-11
 22.14620    -74.4 9.627e+03 5.702e-11
 22.16589    -74.4 9.835e+03 9.524e-11
 22.18687    -73.1 9.829e+03 7.684e-11
 22.22624    -71.7 9.876e+03 6.940e-11
 22.26562    -70.9 9.936e+03 6.766e-11
 22.30499    -70.9 1.019e+04 8.934e-11
 22.34436    -71.1 1.044e+04 2.046e-10
 22.38373    -70.6 1.087e+04 4.621e-10
 22.40544    -69.8 1.141e+04 7.960e-10
 22.42512    -70.5 1.130e+04 6.907e-10
 22.46247    -70.5 1.144e+04 7.460e-10
 22.50184    -70.9 1.132e+04 6.179e-10
 22.54121    -71.7 1.089e+04 3.928e-10
 22.56745    -72.6 1.071e+04 3.124e-10
 22.58714    -73.7 1.111e+04 4.804e-10
 22.61995    -74.7 1.117e+04 4.685e-10
 22.65932    -76.3 1.200e+04 6.040e-10
 22.69869    -78.0 1.292e+04 1.063e-09
 22.72812    -78.1 1.270e+04 1.176e-09
 22.74771    -78.7 1.298e+04 1.442e-09
 22.76739    -79.1 1.327e+04 1.725e-09
 22.77788    -79.5 1.336e+04 1.823e-09
 22.78772    -80.0 1.328e+04 1.757e-09
 22.81670    -79.9 1.332e+04 1.758e-09
 22.85617    -79.9 1.267e+04 1.140e-09
 22.88447    -79.3 1.194e+04 6.277e-10
 22.90415    -78.4 1.185e+04 6.768e-10
 22.93491    -78.2 1.150e+04 3.993e-10
 22.96901    -78.1 1.146e+04 3.106e-10
 22.98870    -78.3 1.142e+04 2.977e-10
 23.01365    -78.1 1.146e+04 2.872e-10
 23.05302    -78.3 1.180e+04 3.218e-10
 23.09239    -78.4 1.201e+04 4.458e-10
 23.13176    -78.5 1.208e+04 5.794e-10
 23.17113    -78.4 1.199e+04 6.544e-10
 23.21050    -78.5 1.190e+04 6.700e-10
 23.24987    -78.0 1.128e+04 6.039e-10
 23.28924    -77.4 1.074e+04 4.335e-10
 23.32861    -76.7 1.039e+04 3.256e-10
 23.36350    -75.7 1.013e+04 2.639e-10
 23.38318    -75.8 1.057e+04 4.180e-10
 23.39026    -74.6 1.035e+04 3.837e-10
 23.40994    -74.5 1.044e+04 4.051e-10
 23.44672    -73.2 1.028e+04 3.790e-10
 23.48609    -71.9 1.014e+04 3.429e-10
 23.52546    -70.7 1.007e+04 3.246e-10
 23.56483    -70.4 1.014e+04 3.240e-10
 23.60420    -72.0 1.176e+04 4.334e-10
 23.63363    -73.5 1.271e+04 9.802e-10
 23.65322    -73.9 1.302e+04 1.388e-09
 23.67291    -73.7 1.321e+04 2.357e-09
 23.69259    -72.4 1.316e+04 2.695e-09
 23.71228    -71.3 1.310e+04 2.782e-09
 23.73196    -70.3 1.280e+04 2.542e-09
 23.75165    -69.8 1.265e+04 2.053e-09
 23.77133    -69.7 1.256e+04 1.557e-09
 23.79102    -70.2 1.256e+04 1.164e-09
 23.80147    -71.3 1.217e+04 8.516e-10
 23.81131    -71.8 1.212e+04 8.561e-10
 23.83039    -72.9 1.145e+04 6.888e-10
 23.85007    -73.7 1.096e+04 6.406e-10
 23.86202    -74.0 1.080e+04 6.413e-10
 23.87186    -74.6 1.024e+04 5.786e-10
 23.88944    -74.1 1.048e+04 7.131e-10
 23.91907    -73.6 1.078e+04 8.797e-10
 23.95854    -72.5 1.103e+04 1.052e-09
 23.99791    -71.6 1.108e+04 1.086e-09
 24.03728    -70.8 1.080e+04 9.843e-10
 24.07665    -70.0 1.044e+04 8.306e-10
 24.11602    -69.5 1.040e+04 7.918e-10
 24.15539    -69.4 1.081e+04 8.638e-10
 24.18482    -70.7 1.196e+04 1.292e-09
 24.20303    -70.4 1.246e+04 1.543e-09
 24.21287    -70.4 1.258e+04 1.663e-09
 24.22409    -70.2 1.354e+04 2.109e-09
 24.24378    -69.9 1.451e+04 2.699e-09
 24.26346    -69.7 1.524e+04 3.446e-09
 24.28315    -69.6 1.561e+04 4.298e-09
 24.30283    -69.6 1.571e+04 5.265e-09
 24.32252    -69.7 1.582e+04 6.375e-09
 24.34104    -69.4 1.608e+04 7.789e-09
 24.35089    -69.8 1.543e+04 7.192e-09
 24.36189    -68.3 1.558e+04 7.328e-09
 24.38157    -66.8 1.579e+04 7.294e-09
 24.40126    -65.9 1.627e+04 7.181e-09
 24.41365    -66.4 1.799e+04 7.004e-09
 24.42349    -69.4 2.007e+04 8.615e-09
 24.44063    -74.0 2.231e+04 1.364e-08
 24.45534    -74.5 2.310e+04 2.209e-08
 24.46514    -75.5 2.201e+04 3.266e-08
 24.47055    -76.4 2.187e+04 5.186e-08
 24.47547    -77.9 2.091e+04 3.470e-08
 24.48482    -80.8 2.274e+04 7.107e-08
 24.49466    -86.9 2.411e+04 2.605e-07
 24.50451    -97.6 2.487e+04 6.301e-07
 24.51186   -110.9 2.677e+04 4.788e-07
 24.51636   -118.7 2.760e+04 4.454e-07
 24.51884   -115.9 2.901e+04 2.110e-07
 24.52419   -130.3 2.722e+04 1.338e-07
 24.53403   -136.0 2.475e+04 1.063e-07
 24.54388   -137.9 2.446e+04 7.565e-08
 24.55372   -138.5 2.474e+04 4.844e-08
 24.56356   -139.6 2.425e+04 2.736e-08
 24.57340   -141.3 2.217e+04 1.491e-08
 24.58325   -143.3 1.883e+04 8.530e-09
 24.59030   -144.7 1.588e+04 5.406e-09
 24.59523   -143.4 1.808e+04 6.750e-09
 24.60293   -144.8 1.520e+04 4.325e-09
 24.61277   -145.1 1.400e+04 3.274e-09
 24.61926   -145.1 1.370e+04 2.791e-09
 24.62418   -144.5 1.387e+04 2.949e-09
 24.63743   -144.1 1.357e+04 2.486e-09
 24.65716   -143.6 1.226e+04 1.518e-09
 24.67685   -143.3 1.077e+04 8.948e-10
 24.69653   -143.1 9.811e+03 6.048e-10
 24.71622   -142.5 9.314e+03 4.624e-10
 24.73590   -141.5 9.035e+03 3.890e-10
 24.75559   -140.6 8.925e+03 3.595e-10
 24.78521   -140.0 8.869e+03 3.402e-10
 24.82027   -138.6 8.693e+03 3.049e-10
 24.83995   -137.5 8.914e+03 3.404e-10
 24.86405   -136.1 8.852e+03 3.336e-10
 24.90342   -135.0 8.831e+03 3.303e-10
 24.94279   -134.4 8.809e+03 3.278e-10
 24.98216   -134.2 8.738e+03 3.175e-10
 25.01619   -134.0 8.632e+03 2.991e-10
 25.03587   -134.1 8.415e+03 2.548e-10
 25.06090   -133.7 8.287e+03 2.267e-10
 25.10027   -133.3 8.160e+03 1.984e-10
 25.13964   -132.5 8.091e+03 1.783e-10
 25.17901   -131.5 8.091e+03 1.717e-10
 25.21839   -130.4 8.117e+03 1.714e-10
 25.25776   -129.1 8.295e+03 1.831e-10
 25.29713   -127.7 8.494e+03 2.114e-10
 25.31898   -126.1 8.672e+03 2.443e-10
 25.33867   -126.2 8.908e+03 2.952e-10
 25.37587   -124.6 8.940e+03 2.863e-10
 25.41524   -123.1 8.910e+03 2.662e-10
 25.43743   -121.8 8.880e+03 2.423e-10
 25.45712   -121.2 8.832e+03 2.440e-10
 25.49398   -119.8 8.824e+03 2.226e-10
 25.53335   -118.5 8.810e+03 2.044e-10
 25.57272   -117.2 8.850e+03 1.896e-10
 25.61209   -115.7 8.875e+03 1.770e-10
 25.65146   -114.2 8.925e+03 1.682e-10
 25.69083   -112.6 8.967e+03 1.644e-10
 25.73020   -110.9 9.040e+03 1.630e-10
 25.76957   -109.3 9.255e+03 1.692e-10
 25.79801   -107.6 9.421e+03 1.846e-10
 25.81770   -107.7 9.538e+03 1.925e-10
 25.83900   -106.1 9.733e+03 2.051e-10
 25.85868   -106.0 9.721e+03 1.859e-10
 25.88768   -104.5 9.926e+03 1.881e-10
 25.92705   -103.0 1.010e+04 1.910e-10
 25.96642   -101.5 1.022e+04 1.933e-10
 26.00579    -99.9 1.026e+04 1.933e-10
 26.04516    -98.3 1.038e+04 1.815e-10
 26.08453    -96.6 1.042e+04 1.611e-10
 26.12390    -95.0 1.044e+04 1.437e-10
 26.16327    -93.3 1.047e+04 1.338e-10
 26.20264    -91.7 1.049e+04 1.317e-10
 26.24056    -90.4 1.068e+04 1.406e-10
 26.26024    -89.6 1.058e+04 9.696e-11
 26.27704    -88.8 1.092e+04 1.337e-10
 26.29673    -88.7 1.101e+04 1.858e-10
 26.32075    -87.8 1.132e+04 3.048e-10
 26.36012    -87.1 1.171e+04 5.114e-10
 26.39949    -86.8 1.213e+04 8.040e-10
 26.43886    -86.6 1.247e+04 1.105e-09
 26.47823    -86.8 1.265e+04 1.275e-09
 26.51760    -87.7 1.266e+04 1.299e-09
 26.55697    -88.4 1.235e+04 1.097e-09
 26.59634    -88.8 1.194e+04 7.183e-10
 26.63571    -89.2 1.154e+04 4.495e-10
 26.66180    -89.5 1.126e+04 3.132e-10
 26.68149    -90.2 1.114e+04 2.506e-10
 26.71446    -89.8 1.096e+04 2.229e-10
 26.75383    -88.7 1.092e+04 2.183e-10
 26.77576    -87.7 1.096e+04 2.302e-10
 26.79544    -88.3 1.104e+04 2.786e-10
 26.83257    -87.1 1.109e+04 2.791e-10
 26.87194    -86.0 1.125e+04 3.107e-10
 26.91131    -84.9 1.134e+04 3.506e-10
 26.95068    -83.8 1.136e+04 3.729e-10
 26.99005    -82.8 1.135e+04 3.805e-10
 27.02942    -81.9 1.141e+04 3.827e-10
 27.06336    -81.1 1.140e+04 4.060e-10
 27.08305    -81.8 1.149e+04 3.769e-10
 27.10816    -81.2 1.152e+04 4.054e-10
 27.14753    -80.6 1.147e+04 4.443e-10
 27.18690    -79.9 1.143e+04 4.557e-10
 27.22627    -79.0 1.121e+04 4.352e-10
 27.25478    -78.1 1.103e+04 3.655e-10
 27.27447    -77.1 1.140e+04 3.959e-10
 27.30501    -76.3 1.118e+04 3.156e-10
 27.34438    -75.4 1.099e+04 2.705e-10
 27.38375    -74.6 1.089e+04 2.600e-10
 27.42312    -73.7 1.081e+04 2.699e-10
 27.46249    -72.7 1.075e+04 3.198e-10
 27.48461    -71.4 1.067e+04 3.647e-10
 27.50430    -72.3 1.048e+04 2.796e-10
 27.54123    -70.8 1.037e+04 2.812e-10
 27.58060    -69.3 1.022e+04 2.628e-10
 27.61997    -67.7 1.014e+04 2.366e-10
 27.65934    -66.3 1.013e+04 2.248e-10
 27.69871    -65.0 1.015e+04 2.270e-10
 27.73381    -63.8 1.024e+04 2.667e-10
 27.75350    -63.3 1.022e+04 2.120e-10
 27.77745    -62.1 1.030e+04 2.813e-10
 27.81682    -60.8 1.041e+04 3.583e-10
 27.85619    -59.5 1.056e+04 3.912e-10
 27.88617    -58.6 1.059e+04 3.916e-10
 27.90586    -59.0 1.063e+04 4.310e-10
 27.93493    -58.3 1.056e+04 3.642e-10
 27.97430    -57.6 1.028e+04 2.785e-10
 28.01367    -56.9 9.993e+03 2.256e-10
 28.05304    -56.1 9.763e+03 1.863e-10
 28.09241    -55.3 9.640e+03 1.651e-10
 28.13178    -54.4 9.608e+03 1.612e-10
 28.17116    -53.7 9.649e+03 1.694e-10
 28.21053    -53.1 9.695e+03 2.027e-10
 28.23253    -52.4 9.757e+03 2.443e-10
 28.25221    -52.0 9.681e+03 2.163e-10
 28.28773    -51.1 9.775e+03 2.674e-10
 28.30742    -52.4 9.813e+03 2.583e-10
 28.32864    -51.9 9.945e+03 3.023e-10
 28.36801    -51.6 1.000e+04 3.294e-10
 28.40738    -51.1 9.809e+03 3.191e-10
 28.44675    -50.3 9.378e+03 2.161e-10
 28.48612    -49.7 9.032e+03 1.314e-10
 28.52549    -49.3 8.777e+03 8.057e-11
 28.56486    -49.1 8.649e+03 5.953e-11
 28.60423    -48.9 8.626e+03 5.548e-11
 28.64360    -48.8 8.631e+03 6.032e-11
 28.68297    -48.7 8.612e+03 8.490e-11
 28.70898    -47.9 8.602e+03 1.151e-10
 28.71788    -48.8 8.599e+03 1.167e-10
 28.73124    -48.6 8.593e+03 1.182e-10
 28.76171    -47.9 8.695e+03 1.297e-10
 28.80108    -47.7 8.821e+03 1.399e-10
 28.84045    -47.8 8.972e+03 1.590e-10
 28.87982    -47.8 9.144e+03 1.939e-10
 28.91919    -47.7 9.340e+03 2.389e-10
 28.95856    -47.4 9.548e+03 2.848e-10
 28.99793    -47.0 9.703e+03 3.228e-10
 29.03730    -46.7 9.796e+03 3.478e-10
 29.07667    -46.5 9.862e+03 3.912e-10
 29.11054    -46.0 9.869e+03 4.573e-10
 29.13023    -46.8 9.561e+03 3.519e-10
 29.15541    -46.0 9.580e+03 3.895e-10
 29.19059    -44.8 9.695e+03 4.105e-10
 29.21027    -44.4 9.740e+03 4.542e-10
 29.23415    -43.3 9.778e+03 4.782e-10
 29.27352    -42.3 9.807e+03 4.386e-10
 29.31289    -41.6 9.582e+03 3.396e-10
 29.35226    -41.2 9.229e+03 2.577e-10
 29.39163    -40.4 8.906e+03 2.126e-10
 29.43100    -39.4 8.760e+03 1.894e-10
 29.47037    -38.6 8.750e+03 1.830e-10
 29.50974    -38.2 9.055e+03 2.078e-10
 29.53179    -38.0 9.509e+03 3.267e-10
 29.55147    -38.4 9.380e+03 2.862e-10
 29.57854    -37.2 9.832e+03 4.644e-10
 29.59813    -37.1 1.010e+04 5.922e-10
 29.61782    -36.0 1.057e+04 7.849e-10
 29.63750    -35.8 1.082e+04 8.683e-10
 29.65719    -35.0 1.127e+04 1.005e-09
 29.67687    -35.2 1.139e+04 1.026e-09
 29.68910    -35.3 1.160e+04 1.076e-09
 29.70889    -33.0 1.187e+04 1.315e-09
 29.74597    -33.2 1.181e+04 1.109e-09
 29.78534    -33.5 1.162e+04 9.603e-10
 29.81477    -33.3 1.172e+04 9.665e-10
 29.83435    -33.6 1.191e+04 1.056e-09
 29.85404    -33.7 1.234e+04 1.396e-09
 29.87372    -34.3 1.257e+04 1.616e-09
 29.89341    -34.6 1.280e+04 1.963e-09
 29.91309    -34.8 1.314e+04 2.269e-09
 29.92862    -34.8 1.346e+04 2.643e-09
 29.93846    -33.5 1.330e+04 2.522e-09
 29.94300    -33.3 1.367e+04 2.892e-09
 29.95284    -33.1 1.340e+04 2.690e-09
 29.97215    -32.7 1.368e+04 2.882e-09
 29.99183    -32.6 1.391e+04 2.911e-09
 30.01152    -33.0 1.409e+04 2.542e-09
 30.03121    -34.3 1.369e+04 1.990e-09
 30.05089    -36.0 1.317e+04 1.664e-09
 30.07058    -37.9 1.296e+04 1.566e-09
 30.09026    -39.8 1.302e+04 1.577e-09
 30.10995    -41.4 1.288e+04 1.771e-09
 30.12963    -42.1 1.264e+04 1.956e-09
 30.14378    -42.2 1.253e+04 2.034e-09
 30.15362    -42.3 1.249e+04 1.898e-09
 30.16813    -42.2 1.241e+04 1.944e-09
 30.17798    -42.0 1.261e+04 2.078e-09
 30.18869    -41.7 1.247e+04 1.954e-09
 30.20837    -41.6 1.217e+04 1.537e-09
 30.22806    -41.9 1.181e+04 1.116e-09
 30.24774    -42.7 1.140e+04 7.992e-10
 30.26743    -43.4 1.102e+04 6.115e-10
 30.28711    -43.9 1.078e+04 5.222e-10
 30.30680    -44.0 1.065e+04 4.844e-10
 30.32648    -44.0 1.055e+04 4.692e-10
 30.34456    -43.6 1.049e+04 4.702e-10
 30.35440    -43.1 1.062e+04 5.461e-10
 30.36585    -42.5 1.062e+04 5.552e-10
 30.38554    -42.1 1.054e+04 5.547e-10
 30.40522    -41.0 1.048e+04 5.625e-10
 30.41749    -40.5 1.038e+04 5.303e-10
 30.42733    -40.3 1.043e+04 5.399e-10
 30.45453    -39.0 1.036e+04 4.902e-10
 30.49400    -37.4 9.970e+03 3.706e-10
 30.53337    -36.1 9.705e+03 2.755e-10
 30.57274    -35.2 9.627e+03 2.362e-10
 30.61211    -34.8 9.701e+03 2.338e-10
 30.64736    -35.5 1.001e+04 2.962e-10
 30.66704    -34.6 1.018e+04 3.979e-10
 30.69085    -35.3 1.064e+04 6.169e-10
 30.72028    -36.1 1.105e+04 8.593e-10
 30.73987    -36.6 1.115e+04 9.112e-10
 30.75596    -37.7 1.143e+04 1.070e-09
 30.76580    -38.1 1.152e+04 1.122e-09
 30.77924    -39.7 1.149e+04 1.102e-09
 30.79893    -41.4 1.117e+04 9.273e-10
 30.81861    -43.3 1.098e+04 7.547e-10
 30.83830    -46.1 1.055e+04 6.002e-10
 30.85798    -48.1 1.044e+04 5.564e-10
 30.87767    -50.4 1.032e+04 5.362e-10
 30.89652    -52.3 1.069e+04 6.189e-10
 30.90636    -52.3 1.069e+04 6.287e-10
 30.91704    -54.5 1.107e+04 8.336e-10
 30.93672    -55.6 1.148e+04 1.159e-09
 30.95641    -56.1 1.175e+04 1.455e-09
 30.96658    -56.3 1.192e+04 1.573e-09
 30.97643    -56.2 1.150e+04 1.274e-09
 30.99578    -56.6 1.151e+04 1.282e-09
 31.01546    -56.9 1.140e+04 1.176e-09
 31.03515    -57.5 1.119e+04 1.002e-09
 31.05483    -58.5 1.096e+04 8.642e-10
 31.07452    -59.5 1.073e+04 7.973e-10
 31.09420    -60.1 1.066e+04 7.882e-10
 31.12383    -60.3 1.081e+04 8.618e-10
 31.14597    -60.7 1.101e+04 9.331e-10
 31.15572    -61.0 1.087e+04 8.616e-10
 31.16737    -61.4 1.094e+04 8.859e-10
 31.17721    -61.4 1.069e+04 7.596e-10
 31.19263    -61.6 1.069e+04 7.562e-10
 31.21231    -61.8 1.052e+04 6.826e-10
 31.23200    -62.0 1.027e+04 5.713e-10
 31.25168    -62.3 1.001e+04 4.787e-10
 31.27137    -62.6 9.768e+03 3.908e-10
 31.29105    -62.9 9.588e+03 3.320e-10
 31.31074    -63.0 9.526e+03 3.136e-10
 31.33042    -63.1 9.533e+03 3.120e-10
 31.35011    -63.3 9.601e+03 3.173e-10
 31.36815    -63.8 9.844e+03 3.772e-10
 31.37799    -63.3 9.855e+03 3.762e-10
 31.38539    -63.9 1.019e+04 5.145e-10
 31.39523    -64.3 1.033e+04 5.907e-10
 31.40916    -64.6 1.073e+04 7.612e-10
 31.42885    -64.8 1.123e+04 1.003e-09
 31.44853    -65.0 1.173e+04 1.321e-09
 31.46822    -65.1 1.218e+04 1.653e-09
 31.48790    -65.1 1.248e+04 1.900e-09
 31.50759    -65.2 1.260e+04 1.989e-09
 31.52728    -65.3 1.266e+04 1.998e-09
 31.54696    -65.9 1.279e+04 1.986e-09
 31.56665    -68.8 1.432e+04 2.344e-09
 31.57877    -73.7 1.725e+04 3.414e-09
 31.58861    -70.9 1.569e+04 3.195e-09
 31.60602    -75.0 1.769e+04 5.020e-09
 31.62491    -79.0 1.928e+04 7.454e-09
 31.63475    -78.1 1.868e+04 8.361e-09
 31.64539    -81.4 1.923e+04 1.139e-08
 31.66507    -83.8 1.901e+04 1.246e-08
 31.67911    -85.1 1.850e+04 1.293e-08
 31.68398    -84.9 1.849e+04 1.171e-08
 31.68958    -85.4 1.834e+04 1.182e-08
 31.69942    -86.2 1.784e+04 1.161e-08
 31.70927    -86.5 1.779e+04 1.183e-08
 31.71911    -86.8 1.726e+04 1.231e-08
 31.72895    -86.9 1.712e+04 1.102e-08
 31.73879    -87.2 1.666e+04 9.507e-09
 31.74864    -87.5 1.619e+04 8.166e-09
 31.76345    -87.5 1.565e+04 6.860e-09
 31.77955    -87.3 1.494e+04 5.162e-09
 31.78939    -87.5 1.512e+04 5.484e-09
 31.80287    -87.6 1.436e+04 4.088e-09
 31.82255    -87.9 1.371e+04 3.203e-09
 31.84224    -88.1 1.328e+04 2.705e-09
 31.86192    -88.1 1.305e+04 2.439e-09
 31.87426    -87.7 1.297e+04 2.328e-09
 31.88411    -88.6 1.334e+04 2.885e-09
 31.90129    -88.2 1.342e+04 2.990e-09
 31.92098    -87.8 1.356e+04 3.133e-09
 31.94066    -87.3 1.365e+04 3.326e-09
 31.96035    -87.0 1.372e+04 3.483e-09
 31.98003    -86.8 1.377e+04 3.569e-09
 31.99017    -86.6 1.378e+04 3.636e-09
 32.00002    -86.6 1.365e+04 3.579e-09
 32.01940    -86.3 1.380e+04 3.750e-09
 32.03909    -86.0 1.393e+04 3.924e-09
 32.05877    -85.8 1.399e+04 4.002e-09
 32.07846    -85.7 1.394e+04 3.878e-09
 32.09814    -85.7 1.383e+04 3.549e-09
 32.11378    -86.4 1.358e+04 3.078e-09
 32.12362    -87.4 1.279e+04 2.321e-09
 32.13751    -89.0 1.265e+04 2.202e-09
 32.15720    -90.8 1.262e+04 2.198e-09
 32.17688    -92.5 1.277e+04 2.372e-09
 32.19095    -93.8 1.286e+04 2.459e-09
 32.20080    -93.5 1.332e+04 2.853e-09
 32.21625    -94.9 1.326e+04 2.844e-09
 32.23594    -95.8 1.282e+04 2.374e-09
 32.25563    -96.7 1.208e+04 1.652e-09
 32.27531    -97.8 1.123e+04 1.096e-09
 32.29500    -99.0 1.059e+04 8.023e-10
 32.31468   -100.0 1.035e+04 6.991e-10
 32.33437   -100.6 1.031e+04 6.834e-10
 32.35329   -101.0 1.041e+04 7.197e-10
 32.36313   -101.6 1.082e+04 9.061e-10
 32.37374   -101.7 1.114e+04 1.108e-09
 32.39173   -101.4 1.136e+04 1.300e-09
 32.40158   -102.0 1.163e+04 1.486e-09
 32.41311   -101.6 1.164e+04 1.520e-09
 32.43279   -101.1 1.153e+04 1.473e-09
 32.45248   -100.5 1.130e+04 1.338e-09
 32.47216    -99.8 1.100e+04 1.154e-09
 32.49185    -99.1 1.067e+04 9.548e-10
 32.51153    -98.4 1.031e+04 7.619e-10
 32.53122    -97.6 9.972e+03 5.942e-10
 32.55090    -96.9 9.685e+03 4.642e-10
 32.58053    -96.0 9.436e+03 3.520e-10
 32.60284    -95.0 9.286e+03 3.098e-10
 32.62253    -95.3 9.440e+03 3.808e-10
 32.65937    -93.9 9.382e+03 3.567e-10
 32.69874    -92.4 9.238e+03 3.228e-10
 32.73811    -90.7 9.124e+03 2.943e-10
 32.77748    -89.0 9.073e+03 2.778e-10
 32.80333    -87.4 9.067e+03 2.738e-10
 32.82302    -87.2 8.805e+03 2.258e-10
 32.85622    -85.7 8.884e+03 2.272e-10
 32.89559    -84.3 9.094e+03 2.512e-10
 32.93496    -83.1 9.330e+03 2.918e-10
 32.97433    -82.1 9.616e+03 3.370e-10
 33.01370    -81.4 9.810e+03 3.733e-10
 33.04313    -81.2 1.009e+04 4.531e-10
 33.06272    -81.3 1.025e+04 5.206e-10
 33.08168    -81.2 1.030e+04 5.865e-10
 33.09152    -81.9 1.067e+04 8.388e-10
 33.10209    -81.6 1.064e+04 8.682e-10
 33.12177    -80.9 1.044e+04 8.602e-10
 33.14146    -79.9 1.006e+04 7.205e-10
 33.16114    -79.2 9.765e+03 5.413e-10
 33.18083    -79.1 9.588e+03 4.305e-10
 33.20480    -79.3 9.397e+03 3.438e-10
 33.22458    -78.0 9.338e+03 3.351e-10
 33.24992    -77.2 8.801e+03 2.259e-10
 33.28929    -75.9 8.417e+03 1.715e-10
 33.32866    -74.4 8.328e+03 1.599e-10
 33.36803    -72.9 8.353e+03 1.613e-10
 33.40740    -71.5 8.533e+03 1.850e-10
 33.44677    -69.9 8.676e+03 2.142e-10
 33.48614    -68.2 8.704e+03 2.262e-10
 33.52551    -66.5 8.696e+03 2.278e-10
 33.56090    -64.8 8.628e+03 2.144e-10
 33.58059    -65.4 9.012e+03 2.921e-10
 33.60425    -63.7 8.900e+03 2.713e-10
 33.62614    -61.8 8.782e+03 2.483e-10
 33.64583    -60.7 9.057e+03 3.115e-10
 33.68299    -58.8 8.914e+03 2.802e-10
 33.72236    -56.8 8.768e+03 2.494e-10
 33.76173    -54.7 8.646e+03 2.180e-10
 33.80110    -52.4 8.608e+03 1.989e-10
 33.84047    -50.2 8.613e+03 1.826e-10
 33.87984    -48.1 8.637e+03 1.764e-10
 33.91921    -46.1 8.719e+03 1.818e-10
 33.95858    -44.3 8.979e+03 2.213e-10
 33.99795    -42.3 9.292e+03 2.847e-10
 34.02770    -40.1 9.714e+03 3.735e-10
 34.04739    -39.8 9.582e+03 3.667e-10
 34.05962    -37.6 9.971e+03 4.597e-10
 34.07930    -38.1 9.693e+03 4.178e-10
 34.11607    -36.0 9.882e+03 4.525e-10
 34.14550    -34.4 1.013e+04 5.224e-10
 34.16508    -33.6 1.015e+04 5.258e-10
 34.18477    -32.4 1.022e+04 5.342e-10
 34.20445    -31.6 1.025e+04 5.284e-10
 34.22414    -30.5 1.029e+04 5.365e-10
 34.23813    -29.3 1.036e+04 5.301e-10
 34.24797    -29.5 1.032e+04 5.110e-10
 34.26351    -28.4 1.048e+04 5.284e-10
 34.28319    -27.9 1.041e+04 5.192e-10
 34.29894    -27.0 1.053e+04 5.320e-10
 34.30878    -27.9 1.044e+04 5.704e-10
 34.32256    -27.4 1.047e+04 5.847e-10
 34.34225    -26.5 1.063e+04 6.114e-10
 34.36193    -25.9 1.065e+04 6.116e-10
 34.38162    -24.8 1.081e+04 6.774e-10
 34.40130    -24.5 1.074e+04 6.637e-10
 34.42099    -23.0 1.110e+04 7.426e-10
 34.43891    -22.9 1.109e+04 7.496e-10
 34.44885    -22.6 1.115e+04 7.593e-10
 34.46046    -22.0 1.113e+04 7.242e-10
 34.48005    -22.8 1.187e+04 7.964e-10
 34.49973    -25.6 1.392e+04 1.160e-09
 34.51942    -28.3 1.473e+04 2.284e-09
 34.53845    -28.9 1.504e+04 4.117e-09
 34.54829    -27.4 1.280e+04 1.853e-09
 34.55879    -27.3 1.303e+04 2.773e-09
 34.57847    -25.7 1.386e+04 3.571e-09
 34.59816    -24.6 1.519e+04 3.972e-09
 34.61784    -24.5 1.680e+04 3.926e-09
 34.63753    -27.0 1.892e+04 4.377e-09
 34.64953    -32.3 2.041e+04 7.096e-09
 34.65938    -31.5 2.043e+04 4.534e-09
 34.67690    -36.7 2.064e+04 1.156e-08
 34.69161    -38.4 2.043e+04 2.355e-08
 34.70141    -38.8 2.010e+04 3.505e-08
 34.71125    -37.9 1.987e+04 4.744e-08
 34.72109    -36.4 1.984e+04 5.252e-08
 34.73093    -34.5 1.998e+04 5.377e-08
 34.74078    -32.8 2.007e+04 4.653e-08
 34.74983    -31.0 2.112e+04 2.815e-08
 34.75475    -31.1 2.021e+04 2.960e-08
 34.76046    -30.0 2.177e+04 1.602e-08
 34.77030    -30.1 2.350e+04 6.766e-09
 34.78015    -38.5 2.044e+04 2.347e-09
 34.78776    -46.9 1.262e+04 9.519e-10
 34.79765    -45.1 1.509e+04 1.316e-09
 34.81469    -48.2 1.114e+04 7.220e-10
 34.83438    -48.3 1.059e+04 5.821e-10
 34.85031    -47.6 1.049e+04 5.423e-10
 34.86016    -47.6 1.058e+04 5.957e-10
 34.87375    -47.2 1.054e+04 5.834e-10
 34.89343    -47.0 1.051e+04 5.816e-10
 34.91312    -47.0 1.050e+04 5.914e-10
 34.93280    -47.0 1.053e+04 6.111e-10
 34.95249    -47.0 1.057e+04 6.358e-10
 34.97217    -46.9 1.061e+04 6.655e-10
 34.99186    -46.8 1.063e+04 6.863e-10
 35.01154    -46.6 1.063e+04 6.893e-10
 35.02732    -46.3 1.053e+04 6.705e-10
 35.03716    -46.5 1.065e+04 7.199e-10
 35.05091    -46.0 1.046e+04 6.600e-10
 35.06094    -45.5 1.020e+04 5.822e-10
 35.07078    -45.1 1.005e+04 5.201e-10
 35.09028    -44.8 9.824e+03 4.346e-10
 35.10997    -44.6 9.728e+03 4.061e-10
 35.13959    -43.9 9.611e+03 3.594e-10
 35.17906    -42.5 9.226e+03 2.628e-10
 35.21843    -41.0 8.994e+03 2.069e-10
 35.25207    -39.7 8.826e+03 1.749e-10
 35.27176    -39.8 8.541e+03 1.216e-10
 35.29717    -38.5 8.495e+03 1.163e-10
 35.33654    -37.4 8.529e+03 1.218e-10
 35.37591    -36.4 8.688e+03 1.629e-10
 35.41528    -35.0 8.949e+03 2.326e-10
 35.45465    -33.5 9.340e+03 3.208e-10
 35.49403    -32.8 9.825e+03 4.248e-10
 35.51639    -32.9 1.030e+04 5.663e-10
 35.53607    -33.3 1.043e+04 6.133e-10
 35.57277    -33.4 1.084e+04 8.130e-10
 35.61214    -33.7 1.113e+04 9.551e-10
 35.65151    -34.5 1.138e+04 1.058e-09
 35.67322    -35.6 1.143e+04 1.010e-09
 35.68297    -36.2 1.107e+04 7.795e-10
 35.70052    -36.8 1.110e+04 7.719e-10
 35.72021    -37.7 1.105e+04 7.553e-10
 35.73989    -38.3 1.102e+04 7.503e-10
 35.75571    -38.9 1.098e+04 7.711e-10
 35.76555    -38.7 1.111e+04 8.594e-10
 35.77926    -39.0 1.124e+04 9.527e-10
 35.79895    -39.4 1.144e+04 1.046e-09
 35.81863    -40.0 1.163e+04 1.131e-09
 35.83832    -40.5 1.183e+04 1.197e-09
 35.85800    -41.1 1.194e+04 1.257e-09
 35.87390    -41.5 1.197e+04 1.323e-09
 35.88375    -41.7 1.214e+04 1.452e-09
 35.89737    -41.8 1.213e+04 1.491e-09
 35.91706    -41.7 1.209e+04 1.499e-09
 35.93675    -41.5 1.205e+04 1.472e-09
 35.95643    -41.3 1.204e+04 1.427e-09
 35.97612    -41.3 1.206e+04 1.377e-09
 35.99522    -41.2 1.208e+04 1.357e-09
 36.00506    -41.6 1.286e+04 2.038e-09
 36.01549    -41.8 1.308e+04 2.102e-09
 36.03517    -43.1 1.374e+04 2.468e-09
 36.05486    -44.8 1.475e+04 3.404e-09
 36.07454    -46.2 1.564e+04 4.979e-09
 36.08453    -46.7 1.627e+04 6.923e-09
 36.09437    -46.8 1.516e+04 4.315e-09
 36.11391    -46.5 1.528e+04 4.466e-09
 36.13360    -46.3 1.503e+04 3.855e-09
 36.15328    -46.0 1.421e+04 2.794e-09
 36.17297    -46.0 1.325e+04 1.877e-09
 36.19265    -46.7 1.211e+04 1.089e-09
 36.21234    -48.5 1.071e+04 5.927e-10
 36.23202    -50.3 9.819e+03 4.037e-10
 36.24458    -50.9 9.512e+03 3.656e-10
 36.25442    -52.0 9.485e+03 4.098e-10
 36.27139    -51.5 9.425e+03 4.125e-10
 36.28531    -50.9 9.466e+03 4.500e-10
 36.29515    -51.2 9.220e+03 3.404e-10
 36.31076    -50.3 9.322e+03 3.931e-10
 36.33045    -50.0 9.334e+03 3.995e-10
 36.35013    -49.3 9.416e+03 4.230e-10
 36.36982    -49.1 9.408e+03 4.181e-10
 36.38950    -48.8 9.479e+03 4.116e-10
 36.40919    -48.8 9.461e+03 3.932e-10
 36.42887    -49.1 9.489e+03 3.657e-10
 36.44856    -49.5 9.500e+03 3.616e-10
 36.46824    -50.5 9.433e+03 3.560e-10
 36.48409    -50.8 9.404e+03 3.576e-10
 36.49210    -52.4 9.224e+03 3.456e-10
 36.49603    -52.4 9.119e+03 3.055e-10
 36.51765    -52.7 9.024e+03 3.217e-10
 36.55702    -52.3 8.858e+03 3.184e-10
 36.59639    -51.6 8.597e+03 2.796e-10
 36.63576    -50.8 8.375e+03 2.383e-10
 36.67513    -49.9 8.272e+03 2.178e-10
 36.71450    -48.9 8.249e+03 2.131e-10
 36.75387    -47.9 8.329e+03 2.287e-10
 36.79324    -46.7 8.535e+03 2.859e-10
 36.83261    -45.2 8.753e+03 3.483e-10
 36.87198    -43.7 8.952e+03 3.892e-10
 36.89769    -42.6 9.114e+03 4.082e-10
 36.91737    -42.7 9.191e+03 4.087e-10
 36.95072    -42.2 9.658e+03 5.050e-10
 36.97316    -42.3 1.019e+04 6.713e-10
 36.99285    -42.1 1.018e+04 6.644e-10
 37.02947    -42.7 1.073e+04 8.991e-10
 37.05890    -43.0 1.107e+04 1.148e-09
 37.07848    -43.3 1.119e+04 1.240e-09
 37.09817    -43.5 1.138e+04 1.345e-09
 37.10811    -43.8 1.143e+04 1.368e-09
 37.11796    -43.7 1.140e+04 1.336e-09
 37.13754    -44.4 1.137e+04 1.291e-09
 37.15722    -45.0 1.135e+04 1.257e-09
 37.17691    -46.2 1.132e+04 1.226e-09
 37.19659    -47.5 1.146e+04 1.259e-09
 37.21248    -49.2 1.162e+04 1.344e-09
 37.22232    -49.0 1.148e+04 1.286e-09
 37.23596    -50.2 1.164e+04 1.417e-09
 37.25565    -51.2 1.172e+04 1.486e-09
 37.27533    -51.8 1.168e+04 1.490e-09
 37.29502    -51.8 1.139e+04 1.356e-09
 37.30890    -51.7 1.100e+04 1.066e-09
 37.31874    -51.6 1.100e+04 1.060e-09
 37.33439    -51.4 1.053e+04 7.358e-10
 37.35407    -51.7 1.012e+04 4.836e-10
 37.38370    -52.3 9.701e+03 3.117e-10
 37.42317    -52.1 9.142e+03 1.821e-10
 37.45219    -50.9 8.699e+03 1.217e-10
 37.47187    -49.7 8.516e+03 1.173e-10
 37.50191    -48.0 8.436e+03 1.099e-10
 37.54128    -45.9 8.412e+03 1.108e-10
 37.58065    -43.8 8.434e+03 1.151e-10
 37.62002    -41.5 8.454e+03 1.160e-10
 37.65939    -39.2 8.491e+03 1.149e-10
 37.69876    -37.0 8.571e+03 1.153e-10
 37.72049    -35.1 8.756e+03 1.261e-10
 37.74018    -34.5 8.756e+03 1.260e-10
 37.77750    -32.6 8.918e+03 1.589e-10
 37.81687    -30.5 9.110e+03 2.174e-10
 37.85624    -28.3 9.370e+03 2.948e-10
 37.89561    -26.1 9.631e+03 3.720e-10
 37.93122    -24.1 9.845e+03 4.274e-10
 37.95090    -22.1 9.527e+03 2.976e-10
 37.97435    -20.2 9.695e+03 3.598e-10
 38.01372    -18.3 9.880e+03 4.270e-10
 38.05309    -16.4 1.013e+04 4.966e-10
 38.09246    -14.8 1.046e+04 6.148e-10
 38.12206    -13.2 1.077e+04 7.697e-10
 38.14174    -12.7 1.098e+04 9.064e-10
 38.17120    -10.7 1.126e+04 1.019e-09
 38.20063     -9.4 1.155e+04 1.030e-09
 38.22022     -9.5 1.154e+04 1.015e-09
 38.23991     -9.2 1.156e+04 1.031e-09
 38.25959     -9.1 1.144e+04 1.006e-09
 38.27928     -8.6 1.149e+04 1.057e-09
 38.29896     -8.5 1.148e+04 1.043e-09
 38.31865     -8.0 1.147e+04 1.065e-09
 38.33248     -7.6 1.146e+04 1.043e-09
 38.34233     -7.5 1.144e+04 1.023e-09
 38.35802     -7.0 1.150e+04 9.683e-10
 38.37770     -6.6 1.149e+04 9.381e-10
 38.39739     -6.3 1.161e+04 8.885e-10
 38.41707     -6.5 1.188e+04 9.410e-10
 38.42974     -7.7 1.261e+04 1.201e-09
 38.43958     -5.8 1.190e+04 9.690e-10
 38.45644     -7.4 1.276e+04 1.303e-09
 38.47613     -9.0 1.344e+04 2.073e-09
 38.49581     -9.8 1.399e+04 3.107e-09
 38.51550     -9.7 1.445e+04 4.241e-09
 38.53326     -9.3 1.474e+04 4.685e-09
 38.54311     -9.2 1.469e+04 4.866e-09
 38.55487     -8.9 1.454e+04 4.240e-09
 38.57455     -9.0 1.401e+04 2.694e-09
 38.59424    -11.2 1.301e+04 1.525e-09
 38.61392    -13.5 1.131e+04 8.943e-10
 38.63361    -14.1 1.045e+04 6.648e-10
 38.65329    -13.4 9.968e+03 5.362e-10
 38.66925    -12.3 9.742e+03 4.430e-10
 38.67909    -12.1 9.931e+03 5.035e-10
 38.69266    -11.0 9.793e+03 3.998e-10
 38.72229    -10.4 9.380e+03 2.810e-10
 38.76176     -8.3 8.996e+03 2.065e-10
 38.80113     -6.2 8.832e+03 1.713e-10
 38.84050     -4.0 8.811e+03 1.662e-10
 38.87987     -1.6 8.887e+03 1.896e-10
 38.90896      0.9 9.102e+03 2.227e-10
 38.91871      0.3 9.504e+03 2.938e-10
 38.92889      0.6 9.640e+03 3.075e-10
 38.94467      2.2 9.805e+03 3.663e-10
 38.95451      1.3 1.012e+04 4.809e-10
 38.96826      2.4 1.032e+04 5.358e-10
 38.98794      3.3 1.035e+04 6.401e-10
 39.00763      4.4 1.045e+04 7.171e-10
 39.02731      5.5 1.053e+04 7.927e-10
 39.04700      6.9 1.065e+04 8.643e-10
 39.06668      8.0 1.085e+04 9.024e-10
 39.08637      8.8 1.110e+04 9.649e-10
 39.10605      9.7 1.125e+04 1.014e-09
 39.12574     10.4 1.148e+04 1.094e-09
 39.14542     11.0 1.160e+04 1.163e-09
 39.15812     10.7 1.210e+04 1.515e-09
 39.16797      9.7 1.204e+04 1.519e-09
 39.18479     10.3 1.192e+04 1.470e-09
 39.20448     10.8 1.186e+04 1.387e-09
 39.22416     11.3 1.185e+04 1.263e-09
 39.24385     11.4 1.187e+04 1.141e-09
 39.26353     11.5 1.174e+04 1.018e-09
 39.28322     11.5 1.149e+04 9.166e-10
 39.30290     11.6 1.115e+04 8.221e-10
 39.32259     11.8 1.086e+04 7.551e-10
 39.34227     12.2 1.064e+04 7.041e-10
 39.35607     12.8 1.060e+04 6.921e-10
 39.36591     11.8 1.067e+04 7.067e-10
 39.38164     12.3 1.072e+04 7.134e-10
 39.39764     12.5 1.101e+04 7.756e-10
 39.40748     11.8 1.063e+04 6.345e-10
 39.42101     11.8 1.099e+04 7.769e-10
 39.44070     11.7 1.155e+04 1.032e-09
 39.46038     11.8 1.208e+04 1.485e-09
 39.48007     12.3 1.270e+04 2.114e-09
 39.49975     12.8 1.340e+04 2.956e-09
 39.51944     13.7 1.400e+04 3.817e-09
 39.53912     14.7 1.443e+04 4.471e-09
 39.55685     15.5 1.470e+04 4.698e-09
 39.56670     14.8 1.397e+04 3.523e-09
 39.57850     15.5 1.385e+04 3.404e-09
 39.59818     16.0 1.370e+04 3.203e-09
 39.61787     16.8 1.351e+04 2.855e-09
 39.63715     17.4 1.350e+04 2.488e-09
 39.64700     16.6 1.228e+04 1.032e-09
 39.65724     16.8 1.237e+04 7.139e-10
 39.67692     16.4 1.216e+04 5.011e-10
 39.69661     15.7 1.168e+04 4.339e-10
 39.71629     15.4 1.163e+04 4.446e-10
 39.73598     15.1 1.200e+04 5.213e-10
 39.75566     14.9 1.299e+04 7.350e-10
 39.76748     15.0 1.389e+04 1.058e-09
 39.77732     14.9 1.328e+04 7.934e-10
 39.79503     14.9 1.355e+04 1.050e-09
 39.81472     14.5 1.367e+04 1.409e-09
 39.83440     13.0 1.477e+04 2.092e-09
 39.84912     10.9 1.544e+04 2.478e-09
 39.85891     10.1 1.606e+04 2.673e-09
 39.87372      9.4 1.802e+04 4.412e-09
 39.88651      9.5 1.772e+04 4.351e-09
 39.89635      8.1 1.440e+04 1.490e-09
 39.91314      6.9 1.333e+04 1.346e-09
 39.93283      6.6 1.213e+04 1.121e-09
 39.95251      5.7 1.153e+04 9.007e-10
 39.98214      6.1 1.112e+04 6.490e-10
 40.02161      6.3 1.059e+04 4.455e-10
 40.06098      6.3 1.013e+04 3.800e-10
 40.10035      7.1 1.007e+04 4.146e-10
 40.13972      8.3 1.016e+04 4.270e-10
 40.16923      9.4 1.024e+04 4.150e-10
 40.18892     10.3 9.981e+03 3.595e-10
 40.21846     11.7 9.914e+03 3.388e-10
 40.25783     13.3 9.758e+03 2.666e-10
 40.29720     14.2 9.869e+03 2.016e-10
 40.33657     14.7 1.003e+04 2.056e-10
 40.36573     15.6 1.006e+04 2.622e-10
 40.38542     16.3 9.782e+03 2.103e-10
 40.41531     18.0 9.841e+03 2.607e-10
 40.45468     20.0 9.855e+03 2.746e-10
 40.49405     22.2 9.837e+03 2.505e-10
 40.53342     24.2 9.819e+03 2.049e-10
 40.57079     26.0 9.831e+03 1.694e-10
 40.59048     26.7 9.862e+03 1.739e-10
 40.61216     28.3 9.900e+03 1.611e-10
 40.65153     30.0 9.915e+03 1.656e-10
 40.69090     31.9 9.939e+03 1.821e-10
 40.73027     34.0 9.978e+03 1.968e-10
 40.76964     36.1 9.974e+03 1.947e-10
 40.80901     38.3 9.940e+03 1.800e-10
 40.84476     40.6 9.881e+03 1.544e-10
 40.86445     40.5 9.876e+03 1.347e-10
 40.88775     42.7 9.821e+03 1.174e-10
 40.92712     45.0 9.771e+03 1.040e-10
 40.96649     47.3 9.734e+03 9.421e-11
 40.99204     49.6 9.731e+03 8.662e-11
 41.01173     50.2 9.735e+03 7.760e-11
 41.04523     52.5 9.736e+03 7.792e-11
 41.08460     54.8 9.750e+03 7.862e-11
 41.12397     57.0 9.783e+03 8.011e-11
 41.16334     59.2 9.803e+03 8.365e-11
 41.20271     61.4 9.823e+03 8.946e-11
 41.24208     63.4 9.853e+03 9.880e-11
 41.28145     65.5 9.900e+03 1.115e-10
 41.32082     67.5 9.959e+03 1.261e-10
 41.34348     69.4 1.004e+04 1.394e-10
 41.36316     69.2 1.020e+04 1.642e-10
 41.39360     71.0 1.029e+04 1.648e-10
 41.41329     71.5 1.030e+04 1.566e-10
 41.43894     73.1 1.034e+04 1.557e-10
 41.47831     74.7 1.039e+04 1.582e-10
 41.51768     75.9 1.052e+04 1.744e-10
 41.55705     76.9 1.076e+04 2.404e-10
 41.59642     77.9 1.109e+04 3.859e-10
 41.63579     78.9 1.134e+04 5.187e-10
 41.67516     79.5 1.135e+04 5.252e-10
 41.71453     80.0 1.125e+04 4.794e-10
 41.75390     80.7 1.097e+04 3.584e-10
 41.79327     81.7 1.066e+04 2.304e-10
 41.81485     82.7 1.038e+04 1.427e-10
 41.82440     83.8 1.041e+04 1.438e-10
 41.84219     83.3 1.030e+04 1.275e-10
 41.87201     84.5 9.981e+03 9.357e-11
 41.91138     86.2 9.729e+03 8.958e-11
 41.95075     88.2 9.715e+03 8.978e-11
 41.99012     90.3 9.699e+03 9.336e-11
 42.02949     92.2 9.688e+03 1.083e-10
 42.06886     94.0 9.714e+03 1.422e-10
 42.10823     95.7 9.816e+03 2.019e-10
 42.14760     97.5 9.988e+03 2.836e-10
 42.18697     98.9 1.012e+04 3.413e-10
 42.21641     99.9 1.013e+04 3.427e-10
 42.23609    100.8 1.005e+04 3.068e-10
 42.26571    101.7 9.960e+03 2.887e-10
 42.30154    102.7 9.767e+03 2.471e-10
 42.32122    102.7 9.623e+03 1.867e-10
 42.34445    104.0 9.450e+03 1.563e-10
 42.38382    105.4 9.308e+03 1.383e-10
 42.42319    107.1 9.223e+03 1.289e-10
 42.46256    109.0 9.178e+03 1.207e-10
 42.50193    111.0 9.099e+03 1.138e-10
 42.54130    113.2 9.039e+03 1.110e-10
 42.58067    115.4 9.037e+03 1.113e-10
 42.61797    117.7 9.043e+03 1.144e-10
 42.63766    118.6 8.989e+03 1.185e-10
 42.65941    120.9 9.018e+03 1.302e-10
 42.69878    123.2 9.104e+03 1.515e-10
 42.73815    125.5 9.247e+03 1.848e-10
 42.77752    127.8 9.486e+03 2.326e-10
 42.80025    129.9 9.804e+03 2.954e-10
 42.81993    130.0 9.684e+03 2.805e-10
 42.85627    131.7 9.969e+03 3.486e-10
 42.88570    132.8 1.004e+04 3.809e-10
 42.90528    133.8 1.014e+04 4.135e-10
 42.92497    134.8 1.036e+04 4.815e-10
 42.94465    135.5 1.061e+04 5.591e-10
 42.96434    136.1 1.086e+04 6.451e-10
 42.98402    136.6 1.114e+04 7.507e-10
 43.00371    137.0 1.148e+04 8.858e-10
 43.02339    137.1 1.189e+04 1.057e-09
 43.03902    137.1 1.238e+04 1.288e-09
 43.04535    138.0 1.194e+04 1.012e-09
 43.04941    138.0 1.146e+04 8.137e-10
 43.06276    138.0 1.185e+04 9.223e-10
 43.08245    137.6 1.241e+04 1.140e-09
 43.10213    136.8 1.298e+04 1.554e-09
 43.12182    136.4 1.347e+04 2.262e-09
 43.14150    136.5 1.394e+04 3.339e-09
 43.16119    137.0 1.448e+04 4.779e-09
 43.18087    137.7 1.504e+04 6.251e-09
 43.20056    138.4 1.542e+04 6.650e-09
 43.22024    139.0 1.546e+04 6.377e-09
 43.23980    139.3 1.546e+04 5.258e-09
 43.24964    139.4 1.632e+04 1.097e-08
 43.25962    139.7 1.609e+04 9.224e-09
 43.27908    139.9 1.556e+04 6.519e-09
 43.28893    139.9 1.523e+04 3.930e-09
 43.29899    139.8 1.477e+04 2.545e-09
 43.31867    139.5 1.419e+04 1.656e-09
 43.33836    139.2 1.355e+04 1.160e-09
 43.35804    139.3 1.289e+04 8.971e-10
 43.37773    139.6 1.231e+04 7.590e-10
 43.39741    140.0 1.185e+04 6.897e-10
 43.41710    140.6 1.147e+04 6.745e-10
 43.43678    141.1 1.138e+04 6.801e-10
 43.45043    141.7 1.130e+04 7.141e-10
 43.46027    141.9 1.280e+04 1.455e-09
 43.47615    142.3 1.269e+04 1.474e-09
 43.49584    142.7 1.253e+04 1.554e-09
 43.51552    143.4 1.245e+04 1.688e-09
 43.52844    144.1 1.247e+04 1.829e-09
 43.53828    143.4 1.280e+04 1.947e-09
 43.55489    144.2 1.290e+04 2.303e-09
 43.57458    145.2 1.309e+04 2.703e-09
 43.59426    146.3 1.333e+04 3.078e-09
 43.61395    147.4 1.357e+04 3.376e-09
 43.63363    148.4 1.384e+04 3.592e-09
 43.65121    149.2 1.414e+04 3.796e-09
 43.66105    149.6 1.376e+04 3.771e-09
 43.67300    150.3 1.392e+04 3.821e-09
 43.69269    150.7 1.407e+04 3.899e-09
 43.71237    151.2 1.422e+04 4.105e-09
 43.73206    151.6 1.443e+04 4.424e-09
 43.75174    151.9 1.467e+04 4.823e-09
 43.76795    152.3 1.491e+04 5.194e-09
 43.77780    152.0 1.479e+04 3.612e-09
 43.79111    152.1 1.492e+04 3.650e-09
 43.81080    152.1 1.497e+04 3.643e-09
 43.83048    152.1 1.498e+04 3.608e-09
 43.85017    151.9 1.503e+04 3.569e-09
 43.86183    151.2 1.513e+04 3.631e-09
 43.87167    151.0 1.441e+04 2.633e-09
 43.88954    149.9 1.441e+04 2.907e-09
 43.90922    148.7 1.468e+04 3.563e-09
 43.92891    147.7 1.520e+04 4.700e-09
 43.94859    147.0 1.583e+04 6.299e-09
 43.96828    146.6 1.627e+04 7.649e-09
 43.98797    146.1 1.631e+04 7.742e-09
 44.00747    146.1 1.622e+04 7.435e-09
 44.01731    145.1 1.571e+04 5.637e-09
 44.02734    144.9 1.526e+04 4.606e-09
 44.04702    144.6 1.456e+04 3.450e-09
 44.06261    144.2 1.372e+04 2.521e-09
 44.07245    143.6 1.370e+04 2.453e-09
 44.08639    143.4 1.302e+04 2.080e-09
 44.10608    143.4 1.252e+04 1.827e-09
 44.12576    143.6 1.213e+04 1.643e-09
 44.14545    144.1 1.181e+04 1.464e-09
 44.16513    144.9 1.151e+04 1.270e-09
 44.18482    145.8 1.118e+04 1.060e-09
 44.20450    146.8 1.090e+04 9.096e-10
 44.23413    148.3 1.051e+04 5.671e-10
 44.25702    150.5 1.019e+04 4.574e-10
 44.26660    150.4 1.062e+04 6.786e-10
 44.27323    150.3 1.109e+04 7.251e-10
 44.28324    151.3 1.066e+04 6.041e-10
 44.31287    153.2 1.112e+04 5.498e-10
 44.35234    155.6 1.085e+04 4.335e-10
 44.39171    158.2 1.055e+04 3.548e-10
 44.43108    161.0 1.028e+04 2.983e-10
 44.47045    164.1 1.013e+04 2.697e-10
 44.50982    167.5 1.014e+04 2.682e-10
 44.54919    170.9 1.021e+04 2.721e-10
 44.58856    173.5 1.026e+04 2.791e-10
 44.61799    175.1 1.032e+04 2.978e-10
 44.63757    177.2 1.044e+04 3.320e-10
 44.65726    179.4 1.059e+04 3.804e-10
 44.67479    181.5 1.074e+04 4.309e-10
 44.68464    181.3 1.088e+04 5.014e-10
 44.69663    183.2 1.101e+04 5.439e-10
 44.71631    184.9 1.119e+04 6.051e-10
 44.73586    186.0 1.146e+04 7.448e-10
 44.74570    186.5 1.141e+04 8.633e-10
 44.75569    187.8 1.198e+04 1.133e-09
 44.77537    189.2 1.347e+04 1.769e-09
 44.79506    190.4 1.488e+04 2.658e-09
 44.80977    190.1 1.594e+04 3.258e-09
 44.81956    189.1 1.775e+04 4.271e-09
 44.82941    187.1 2.015e+04 6.597e-09
 44.83925    185.1 2.173e+04 1.099e-08
 44.84909    184.6 2.224e+04 1.828e-08
 44.85893    184.9 2.210e+04 2.976e-08
 44.86536    185.5 2.168e+04 4.688e-08
 44.87028    185.5 2.377e+04 4.433e-08
 44.87862    186.2 2.335e+04 7.395e-08
 44.88532    186.8 2.301e+04 1.098e-07
 44.89024    185.1 2.488e+04 9.253e-08
 44.89830    185.2 2.505e+04 1.115e-07
 44.90815    184.9 2.582e+04 1.112e-07
 44.91799    183.9 2.608e+04 1.072e-07
 44.92783    182.4 2.681e+04 8.892e-08
 44.93768    180.7 2.731e+04 6.090e-08
 44.94752    178.8 2.720e+04 3.660e-08
 44.95736    176.3 2.631e+04 2.186e-08
 44.97217    172.8 2.343e+04 1.089e-08
 44.98521    169.9 2.030e+04 6.837e-09
 44.99506    170.4 2.082e+04 1.096e-08
 45.01159    168.8 1.844e+04 7.646e-09
 45.03128    168.6 1.687e+04 6.205e-09
 45.05096    168.9 1.624e+04 5.475e-09
 45.07065    169.9 1.592e+04 5.018e-09
 45.08620    171.4 1.570e+04 4.691e-09
 45.09604    171.7 1.504e+04 3.948e-09
 45.11002    173.3 1.505e+04 3.722e-09
 45.12970    174.8 1.498e+04 3.403e-09
 45.14939    176.2 1.482e+04 2.980e-09
 45.16907    177.3 1.456e+04 2.451e-09
 45.18876    178.4 1.427e+04 1.981e-09
 45.21498    180.1 1.345e+04 1.322e-09
 45.23467    181.1 1.376e+04 1.544e-09
 45.25775    183.9 1.367e+04 1.257e-09
 45.29722    186.6 1.290e+04 8.435e-10
 45.33659    189.3 1.190e+04 5.167e-10
 45.37596    192.0 1.085e+04 3.060e-10
 45.41533    194.5 9.913e+03 1.995e-10
 45.45470    197.4 9.648e+03 1.797e-10
 45.48795    200.7 9.636e+03 1.804e-10
 45.50764    202.6 9.712e+03 1.836e-10
 45.53344    205.9 9.718e+03 1.885e-10
 45.57281    209.3 9.816e+03 2.139e-10
 45.61218    212.7 1.018e+04 2.668e-10
 45.65155    215.9 1.063e+04 3.374e-10
 45.69092    218.0 1.089e+04 3.931e-10
 45.71370    220.1 1.093e+04 4.409e-10
 45.72344    221.4 1.080e+04 4.172e-10
 45.73994    223.4 1.091e+04 4.932e-10
 45.75963    225.7 1.108e+04 5.861e-10
 45.77931    227.8 1.132e+04 6.747e-10
 45.79900    229.5 1.156e+04 7.405e-10
 45.81868    231.0 1.176e+04 7.824e-10
 45.83837    232.3 1.194e+04 8.105e-10
 45.85805    233.6 1.205e+04 8.332e-10
 45.87774    234.9 1.213e+04 8.483e-10
 45.89742    236.2 1.213e+04 8.445e-10
 45.90901    237.4 1.211e+04 8.259e-10
 45.91885    238.8 1.225e+04 8.952e-10
 45.93679    240.0 1.225e+04 8.651e-10
 45.95311    241.2 1.219e+04 8.146e-10
 45.96296    242.5 1.286e+04 1.127e-09
 45.97616    243.6 1.277e+04 1.056e-09
 45.99585    244.6 1.260e+04 9.629e-10
 46.01553    245.7 1.234e+04 8.694e-10
 46.03522    246.9 1.203e+04 7.894e-10
 46.05490    248.1 1.172e+04 7.342e-10
 46.07459    249.5 1.143e+04 7.158e-10
 46.09427    251.1 1.139e+04 7.189e-10
 46.10979    252.8 1.139e+04 7.392e-10
 46.11963    253.8 1.162e+04 7.376e-10
 46.13364    255.4 1.170e+04 7.840e-10
 46.15333    256.9 1.177e+04 8.646e-10
 46.17301    258.3 1.246e+04 1.018e-09
 46.19263    259.5 1.379e+04 1.369e-09
 46.21231    261.0 1.369e+04 1.708e-09
 46.23207    261.4 1.533e+04 2.709e-09
 46.25176    261.8 1.714e+04 4.631e-09
 46.27144    262.3 1.917e+04 7.932e-09
 46.28616    262.1 2.019e+04 1.022e-08
 46.29595    262.0 2.120e+04 1.225e-08
 46.30579    261.7 2.239e+04 1.502e-08
 46.31539    261.3 2.341e+04 1.877e-08
 46.32031    261.1 2.306e+04 1.553e-08
 46.32213    260.6 2.377e+04 1.907e-08
 46.32705    260.1 2.314e+04 1.505e-08
 46.33532    259.3 2.388e+04 1.667e-08
 46.34516    258.4 2.438e+04 1.783e-08
 46.35500    257.4 2.484e+04 1.799e-08
 46.36485    256.3 2.494e+04 1.793e-08
 46.37469    255.0 2.510e+04 1.745e-08
 46.38453    253.8 2.531e+04 1.660e-08
 46.39438    252.5 2.552e+04 1.559e-08
 46.40422    251.3 2.571e+04 1.468e-08
 46.41406    250.1 2.585e+04 1.380e-08
 46.42070    249.2 2.591e+04 1.303e-08
 46.42562    249.1 2.550e+04 1.148e-08
 46.43375    248.3 2.539e+04 1.079e-08
 46.44189    247.7 2.524e+04 1.031e-08
 46.45178    247.2 2.213e+04 6.695e-09
 46.46829    247.0 2.137e+04 6.444e-09
 46.48798    247.2 2.058e+04 6.171e-09
 46.50766    247.8 1.985e+04 5.723e-09
 46.52119    248.8 1.918e+04 5.139e-09
 46.53103    248.7 1.893e+04 4.796e-09
 46.54703    249.9 1.855e+04 4.365e-09
 46.56672    251.2 1.819e+04 4.058e-09
 46.58640    252.5 1.785e+04 3.933e-09
 46.60609    253.9 1.771e+04 3.935e-09
 46.62577    255.5 1.768e+04 3.988e-09
 46.64546    257.1 1.770e+04 4.188e-09
 46.66514    258.6 1.784e+04 4.443e-09
 46.68150    260.1 1.805e+04 4.662e-09
 46.69134    261.3 1.794e+04 4.635e-09
 46.70451    262.9 1.809e+04 4.827e-09
 46.72197    264.4 1.829e+04 4.957e-09
 46.73181    264.8 1.864e+04 5.519e-09
 46.74388    266.3 1.910e+04 5.868e-09
 46.76357    267.5 1.972e+04 6.236e-09
 46.78325    268.5 2.043e+04 6.693e-09
 46.80294    269.1 2.113e+04 7.251e-09
 46.82262    269.6 2.178e+04 7.883e-09
 46.84231    269.9 2.234e+04 8.548e-09
 46.86199    270.3 2.279e+04 9.168e-09
 46.88168    270.6 2.315e+04 9.609e-09
 46.90136    270.8 2.332e+04 9.814e-09
 46.92101    270.8 2.329e+04 9.801e-09
 46.93256    272.6 2.226e+04 6.999e-09
 46.94244    273.5 2.414e+04 8.770e-09
 46.96042    273.8 2.347e+04 7.189e-09
 46.98011    274.2 2.275e+04 5.891e-09
 46.99979    274.7 2.213e+04 4.911e-09
 47.01948    275.3 2.170e+04 4.191e-09
 47.03916    276.1 2.145e+04 3.647e-09
 47.05885    276.9 2.137e+04 3.225e-09
 47.07853    277.8 2.139e+04 2.892e-09
 47.09822    278.7 2.149e+04 2.647e-09
 47.11790    279.6 2.163e+04 2.544e-09
 47.13337    280.2 2.168e+04 2.550e-09
 47.14322    281.8 2.263e+04 2.884e-09
 47.15727    281.9 2.314e+04 2.950e-09
 47.17037    280.9 2.403e+04 3.256e-09
 47.18021    283.6 2.237e+04 1.565e-09
 47.19664    282.4 2.455e+04 2.086e-09
 47.21633    280.8 2.531e+04 2.856e-09
 47.23104    279.1 2.553e+04 3.337e-09
 47.23859    277.7 2.563e+04 3.939e-09
 47.24351    278.1 2.571e+04 4.019e-09
 47.25068    276.0 2.601e+04 4.990e-09
 47.26052    273.8 2.592e+04 6.293e-09
 47.27036    270.3 2.784e+04 7.964e-09
 47.28021    264.0 3.490e+04 9.435e-09
 47.28756    261.4 3.697e+04 1.064e-08
 47.29120    260.6 3.499e+04 1.233e-08
 47.29364    254.4 5.458e+04 9.857e-09
 47.29736    214.4 7.154e+04 3.313e-08
 47.30230    227.3 6.794e+04 2.966e-08
 47.30722    231.5 7.378e+04 1.753e-08
 47.31215    201.5 9.583e+04 1.588e-08
 47.31707    116.1 3.863e+04 2.265e-06
 47.32199     49.0 2.051e+04 4.052e-05
 47.32691      7.9 4.122e+04 1.681e-06
 47.33183    -21.6 4.891e+04 2.890e-07
 47.33675    -31.6 4.016e+04 3.494e-07
 47.34139    -40.2 3.220e+04 3.756e-07
 47.34385    -42.1 2.239e+04 5.257e-07
 47.34908    -44.2 2.189e+04 4.661e-07
 47.35895    -44.7 2.192e+04 3.424e-07
 47.36879    -44.6 2.260e+04 2.699e-07
 47.37863    -43.7 2.294e+04 2.555e-07
 47.38847    -42.2 2.331e+04 2.614e-07
 47.39832    -40.7 2.349e+04 2.857e-07
 47.40816    -39.4 2.360e+04 3.250e-07
 47.41471    -38.6 2.347e+04 3.950e-07
 47.41963    -36.8 2.944e+04 1.743e-07
 47.42784    -37.2 2.547e+04 3.226e-07
 47.43769    -37.6 2.346e+04 5.082e-07
 47.44429    -38.3 2.256e+04 6.674e-07
 47.44921    -36.6 2.459e+04 4.487e-07
 47.45737    -37.7 2.569e+04 5.534e-07
 47.46721    -44.0 3.974e+04 3.924e-07
 47.47456    -47.0 3.585e+04 7.076e-07
 47.47946    -56.7 3.251e+04 2.462e-06
 47.48439    -69.5 2.173e+04 1.231e-05
 47.48931    -82.7 1.870e+04 2.101e-05
 47.49423    -91.1 1.815e+04 1.935e-05
 47.49690    -96.2 1.856e+04 1.501e-05
 47.49936   -100.5 2.339e+04 1.466e-06
 47.50408   -108.8 3.082e+04 3.985e-07
 47.50900   -114.0 3.547e+04 2.367e-07
 47.51392   -113.0 3.682e+04 2.749e-07
 47.51884   -111.4 3.819e+04 2.670e-07
 47.52376   -110.6 5.039e+04 8.160e-08
 47.52868   -115.3 6.362e+04 1.486e-08
 47.53360   -128.9 4.851e+04 5.369e-09
 47.53688   -135.8 3.469e+04 4.095e-09
 47.53934   -135.7 3.170e+04 3.599e-09
 47.54466   -135.3 3.240e+04 3.200e-09
 47.54960   -139.3 1.802e+04 2.297e-09
 47.55580   -138.9 1.739e+04 1.964e-09
 47.56564   -137.5 1.682e+04 1.681e-09
 47.57548   -135.9 1.630e+04 1.407e-09
 47.59030   -134.1 1.557e+04 1.117e-09
 47.61003   -132.2 1.465e+04 8.777e-10
 47.62971   -129.4 1.355e+04 6.740e-10
 47.64940   -126.7 1.271e+04 5.429e-10
 47.66909   -124.1 1.199e+04 4.284e-10
 47.68877   -121.5 1.183e+04 3.898e-10
 47.70846   -119.0 1.182e+04 3.806e-10
 47.72814   -117.0 1.185e+04 3.807e-10
 47.74556   -115.5 1.182e+04 3.829e-10
 47.75540   -115.6 1.190e+04 3.655e-10
 47.76751   -114.1 1.174e+04 3.657e-10
 47.78720   -113.1 1.169e+04 3.715e-10
 47.80688   -111.5 1.162e+04 3.840e-10
 47.82657   -111.0 1.162e+04 3.939e-10
 47.84625   -110.0 1.164e+04 4.153e-10
 47.86594   -109.8 1.162e+04 4.315e-10
 47.88562   -109.3 1.167e+04 4.749e-10
 47.89876   -108.7 1.178e+04 5.129e-10
 47.90860   -108.7 1.145e+04 4.431e-10
 47.92499   -108.6 1.162e+04 4.885e-10
 47.94468   -108.6 1.180e+04 5.431e-10
 47.95618   -108.6 1.196e+04 6.038e-10
 47.96602   -108.6 1.198e+04 6.093e-10
 47.98405   -108.5 1.213e+04 6.727e-10
 48.00373   -108.3 1.223e+04 7.226e-10
 48.02342   -108.1 1.226e+04 7.504e-10
 48.04310   -107.9 1.226e+04 7.570e-10
 48.06279   -107.6 1.220e+04 7.563e-10
 48.08247   -107.1 1.206e+04 7.275e-10
 48.10216   -106.6 1.192e+04 6.774e-10
 48.12184   -106.0 1.173e+04 6.255e-10
 48.13827   -105.5 1.155e+04 5.780e-10
 48.14811   -104.9 1.111e+04 4.746e-10
 48.15696   -104.4 1.097e+04 4.409e-10
 48.16681   -103.0 1.085e+04 4.024e-10
 48.18090   -102.7 1.083e+04 3.957e-10
 48.20058   -102.1 1.082e+04 3.908e-10
 48.22027   -101.7 1.089e+04 4.078e-10
 48.23995   -100.8 1.096e+04 4.336e-10
 48.25964   -100.2 1.105e+04 4.626e-10
 48.27932    -98.9 1.106e+04 4.956e-10
 48.29901    -97.9 1.104e+04 5.042e-10
 48.31869    -96.1 1.097e+04 5.092e-10
 48.33838    -94.6 1.089e+04 4.817e-10
 48.35784    -93.0 1.087e+04 4.395e-10
 48.37762    -92.2 1.075e+04 4.307e-10
 48.40747    -89.8 1.059e+04 4.009e-10
 48.44684    -87.2 1.029e+04 3.398e-10
 48.48621    -84.2 9.892e+03 2.611e-10
 48.52558    -81.1 9.519e+03 1.963e-10
 48.56495    -78.0 9.272e+03 1.600e-10
 48.60432    -74.8 9.121e+03 1.432e-10
 48.62734    -71.6 8.994e+03 1.316e-10
 48.64702    -71.1 9.135e+03 1.604e-10
 48.68306    -67.9 9.084e+03 1.562e-10
 48.72244    -64.7 9.045e+03 1.601e-10
 48.75950    -61.5 9.033e+03 1.696e-10
 48.77919    -60.8 8.815e+03 1.412e-10
 48.80118    -57.5 8.775e+03 1.445e-10
 48.84055    -54.3 8.801e+03 1.465e-10
 48.87992    -51.7 9.007e+03 1.481e-10
 48.91929    -50.0 9.346e+03 1.684e-10
 48.95866    -48.8 9.751e+03 2.304e-10
 48.97987    -47.8 1.007e+04 3.330e-10
 48.98961    -47.0 9.657e+03 2.474e-10
 49.00767    -46.6 9.838e+03 2.823e-10
 49.02736    -45.6 1.017e+04 3.894e-10
 49.04704    -45.4 1.035e+04 4.545e-10
 49.06673    -44.0 1.066e+04 6.212e-10
 49.08641    -42.5 1.103e+04 7.307e-10
 49.10610    -41.5 1.123e+04 7.797e-10
 49.12579    -41.1 1.198e+04 1.119e-09
 49.14547    -40.3 1.197e+04 1.106e-09
 49.16516    -39.8 1.186e+04 1.024e-09
 49.18055    -39.5 1.157e+04 9.006e-10
 49.19039    -38.4 1.137e+04 8.348e-10
 49.20453    -37.4 1.128e+04 8.020e-10
 49.23415    -36.3 1.106e+04 7.340e-10
 49.27362    -34.9 1.096e+04 6.634e-10
 49.31299    -33.4 1.114e+04 6.890e-10
 49.35236    -32.1 1.156e+04 8.085e-10
 49.39173    -31.6 1.184e+04 9.880e-10
 49.43110    -31.6 1.215e+04 1.232e-09
 49.46053    -31.3 1.261e+04 1.609e-09
 49.48012    -31.0 1.282e+04 1.863e-09
 49.49980    -31.3 1.307e+04 2.103e-09
 49.51949    -31.8 1.356e+04 2.430e-09
 49.53917    -32.5 1.396e+04 2.874e-09
 49.55886    -32.7 1.417e+04 3.485e-09
 49.57854    -32.7 1.420e+04 4.091e-09
 49.59196    -31.7 1.432e+04 4.554e-09
 49.59861    -30.8 1.398e+04 3.704e-09
 49.60489    -31.4 1.357e+04 3.087e-09
 49.61791    -30.3 1.354e+04 3.322e-09
 49.63760    -28.9 1.388e+04 3.446e-09
 49.65728    -27.9 1.421e+04 3.372e-09
 49.67697    -27.4 1.416e+04 3.066e-09
 49.69665    -27.0 1.401e+04 2.663e-09
 49.71634    -26.6 1.392e+04 2.286e-09
 49.73602    -26.7 1.356e+04 1.920e-09
 49.75571    -27.0 1.291e+04 1.667e-09
 49.77539    -27.0 1.260e+04 1.598e-09
 49.79274    -26.2 1.275e+04 1.758e-09
 49.80258    -26.1 1.248e+04 1.504e-09
 49.81476    -25.9 1.248e+04 1.578e-09
 49.83445    -25.4 1.250e+04 1.642e-09
 49.86408    -24.4 1.284e+04 1.905e-09
 49.90354    -23.2 1.268e+04 1.888e-09
 49.94291    -21.7 1.221e+04 1.620e-09
 49.98228    -20.0 1.159e+04 1.226e-09
 50.00355    -18.4 1.092e+04 8.053e-10
 50.02324    -17.5 1.094e+04 8.243e-10
 50.06102    -16.3 1.033e+04 5.254e-10
 50.08411    -15.2 9.699e+03 3.717e-10
 50.10380    -16.3 9.922e+03 4.654e-10
 50.13976    -14.6 9.555e+03 3.327e-10
 50.17913    -13.2 9.407e+03 2.501e-10
 50.21851    -12.0 9.191e+03 2.129e-10
 50.25788    -10.3 8.992e+03 1.949e-10
 50.29725     -8.1 8.713e+03 1.794e-10
 50.33662     -5.5 8.556e+03 1.469e-10
 50.37599     -3.9 8.659e+03 1.050e-10
 50.40512     -2.6 8.576e+03 9.910e-11
 50.42480     -2.6 8.619e+03 1.633e-10
 50.45473     -0.7 8.645e+03 1.699e-10
 50.49410      1.4 8.798e+03 1.777e-10
 50.53347      3.3 8.948e+03 1.787e-10
 50.56314      5.0 8.980e+03 1.781e-10
 50.58282      3.5 8.760e+03 1.416e-10
 50.61221      5.2 8.707e+03 1.268e-10
 50.65158      6.9 8.636e+03 1.056e-10
 50.69095      8.1 8.608e+03 8.798e-11
 50.73032      9.1 8.604e+03 8.047e-11
 50.76969      9.7 8.659e+03 8.551e-11
 50.80668     10.2 8.791e+03 1.076e-10
 50.82636      9.4 8.869e+03 1.057e-10
 50.84843      9.5 9.234e+03 1.673e-10
 50.88780     10.1 9.516e+03 2.549e-10
 50.92717     11.1 9.706e+03 2.888e-10
 50.96654     11.4 9.774e+03 2.683e-10
 51.00591     11.0 9.803e+03 2.493e-10
 51.04217     10.6 9.693e+03 2.567e-10
 51.06185      9.6 9.699e+03 2.584e-10
 51.08465     10.3 9.378e+03 2.467e-10
 51.12402     11.7 9.073e+03 2.057e-10
 51.16339     12.7 8.903e+03 1.604e-10
 51.20276     13.6 8.691e+03 1.437e-10
 51.22792     14.7 8.624e+03 1.480e-10
 51.24761     14.3 8.584e+03 1.645e-10
 51.28150     15.9 8.537e+03 1.680e-10
 51.32087     17.5 8.578e+03 1.745e-10
 51.36024     18.9 8.696e+03 1.872e-10
 51.39961     19.8 8.897e+03 2.161e-10
 51.43898     20.5 9.247e+03 2.975e-10
 51.47835     21.2 9.752e+03 4.535e-10
 51.51772     22.2 1.030e+04 6.815e-10
 51.54088     23.3 1.087e+04 9.614e-10
 51.56057     23.4 1.089e+04 9.580e-10
 51.59646     23.1 1.169e+04 1.348e-09
 51.62589     22.4 1.251e+04 1.905e-09
 51.63913     21.8 1.331e+04 2.683e-09
 51.64897     22.2 1.343e+04 3.056e-09
 51.66517     21.9 1.420e+04 4.156e-09
 51.68485     21.4 1.506e+04 5.454e-09
 51.70454     20.9 1.574e+04 6.551e-09
 51.72422     20.3 1.573e+04 6.346e-09
 51.74391     20.0 1.530e+04 5.527e-09
 51.76359     19.7 1.474e+04 4.241e-09
 51.78020     19.5 1.381e+04 2.636e-09
 51.79004     18.3 1.329e+04 1.887e-09
 51.80296     17.2 1.195e+04 1.022e-09
 51.82265     16.2 1.082e+04 5.624e-10
 51.83991     15.3 1.014e+04 3.431e-10
 51.84976     15.5 1.025e+04 3.642e-10
 51.86202     14.5 9.849e+03 2.443e-10
 51.88170     14.1 9.695e+03 2.179e-10
 51.91133     13.9 9.733e+03 2.183e-10
 51.95080     13.9 9.707e+03 2.255e-10
 51.99017     14.1 9.601e+03 2.208e-10
 52.01991     15.0 9.323e+03 1.984e-10
 52.03960     15.1 9.168e+03 1.684e-10
 52.05073     16.7 8.855e+03 1.289e-10
 52.07042     16.9 8.835e+03 1.433e-10
 52.10828     17.9 8.691e+03 8.267e-11
 52.14765     18.4 8.559e+03 5.339e-11
 52.18702     19.5 8.398e+03 4.920e-11
 52.22639     20.9 8.431e+03 5.089e-11
 52.26576     22.2 8.567e+03 6.004e-11
 52.30513     23.4 8.755e+03 8.582e-11
 52.34450     24.8 9.014e+03 1.363e-10
 52.38387     26.3 9.326e+03 2.077e-10
 52.42324     27.8 9.681e+03 2.688e-10
 52.45229     28.8 1.002e+04 2.970e-10
 52.47198     28.2 1.016e+04 3.204e-10
 52.49894     28.1 1.047e+04 3.551e-10
 52.51863     28.9 1.041e+04 3.786e-10
 52.54135     28.8 1.066e+04 4.293e-10
 52.58072     28.8 1.079e+04 4.814e-10
 52.62009     28.9 1.092e+04 5.384e-10
 52.65946     28.8 1.124e+04 6.373e-10
 52.69883     28.4 1.181e+04 8.891e-10
 52.73820     28.2 1.237e+04 1.288e-09
 52.77757     28.3 1.250e+04 1.395e-09
 52.81694     28.8 1.224e+04 1.241e-09
 52.85385     29.8 1.166e+04 8.925e-10
 52.87354     29.9 1.168e+04 8.910e-10
 52.89568     31.2 1.105e+04 5.698e-10
 52.93505     32.5 1.053e+04 3.525e-10
 52.97442     33.7 1.015e+04 2.537e-10
 52.99766     35.3 1.007e+04 2.459e-10
 53.01734     35.9 9.871e+03 2.008e-10
 53.05316     37.7 9.894e+03 2.133e-10
 53.09253     39.4 1.005e+04 2.703e-10
 53.13191     41.1 1.034e+04 3.748e-10
 53.17128     42.8 1.059e+04 4.747e-10
 53.21065     44.1 1.063e+04 4.890e-10
 53.25002     45.3 1.055e+04 4.619e-10
 53.27510     46.3 1.031e+04 4.016e-10
 53.29479     46.2 1.026e+04 3.460e-10
 53.32876     46.9 1.027e+04 3.542e-10
 53.36813     47.6 1.040e+04 4.069e-10
 53.40750     48.3 1.071e+04 5.450e-10
 53.44687     49.3 1.117e+04 7.671e-10
 53.47578     50.2 1.126e+04 8.685e-10
 53.48553     50.0 1.142e+04 9.223e-10
 53.48633     50.4 1.155e+04 1.005e-09
 53.49627     51.4 1.133e+04 9.054e-10
 53.52561     52.3 1.152e+04 1.005e-09
 53.56498     53.3 1.145e+04 9.684e-10
 53.60435     54.5 1.114e+04 8.400e-10
 53.64372     55.7 1.073e+04 6.831e-10
 53.67666     57.1 1.031e+04 5.203e-10
 53.69635     56.4 1.022e+04 4.028e-10
 53.72246     57.7 1.004e+04 3.425e-10
 53.76183     59.5 1.009e+04 3.566e-10
 53.80120     61.1 1.026e+04 4.240e-10
 53.84057     62.7 1.095e+04 6.576e-10
 53.87994     64.0 1.168e+04 1.044e-09
 53.91931     65.2 1.260e+04 1.747e-09
 53.94874     65.8 1.309e+04 2.320e-09
 53.96536     66.6 1.341e+04 2.760e-09
 53.97520     67.4 1.341e+04 2.609e-09
 53.98801     68.1 1.342e+04 2.645e-09
 54.00770     68.7 1.336e+04 2.566e-09
 54.02738     69.3 1.312e+04 2.219e-09
 54.04707     69.6 1.289e+04 1.917e-09
 54.06675     69.8 1.265e+04 1.592e-09
 54.08644     69.6 1.248e+04 1.463e-09
 54.09771     69.3 1.248e+04 1.475e-09
 54.10755     68.3 1.256e+04 1.585e-09
 54.12581     67.8 1.272e+04 1.690e-09
 54.14549     67.3 1.306e+04 2.016e-09
 54.16518     67.0 1.348e+04 2.553e-09
 54.18486     67.2 1.384e+04 3.200e-09
 54.20455     67.5 1.419e+04 3.697e-09
 54.21472     67.6 1.425e+04 3.655e-09
 54.22456     67.9 1.390e+04 3.114e-09
 54.24392     67.9 1.382e+04 2.874e-09
 54.26360     67.5 1.345e+04 2.219e-09
 54.28329     66.4 1.272e+04 1.462e-09
 54.29849     63.9 1.161e+04 8.741e-10
 54.30834     61.5 1.056e+04 6.394e-10
 54.32266     59.0 9.587e+03 4.183e-10
 54.34235     56.1 9.200e+03 3.140e-10
 54.36203     54.8 9.013e+03 2.809e-10
 54.38172     53.2 8.948e+03 2.637e-10
 54.40140     51.4 8.917e+03 2.629e-10
 54.42109     49.6 8.919e+03 2.689e-10
 54.44077     47.5 9.098e+03 3.005e-10
 54.45423     43.2 1.012e+04 4.634e-10
 54.46407     42.2 1.062e+04 5.361e-10
 54.48014     37.0 1.218e+04 1.169e-09
 54.49927     34.1 1.283e+04 2.139e-09
 54.50912     32.7 1.270e+04 2.320e-09
 54.51951     27.5 1.635e+04 3.847e-09
 54.53920     13.3 2.352e+04 9.718e-09
 54.55888      3.6 2.058e+04 1.614e-08
 54.57857     -0.2 1.834e+04 1.484e-08
 54.59825     -2.3 1.781e+04 1.128e-08
 54.61794     -5.5 1.767e+04 6.162e-09
 54.63762    -11.7 1.485e+04 2.519e-09
 54.65731    -17.7 1.194e+04 1.251e-09
 54.67699    -19.6 1.135e+04 9.808e-10
 54.69375    -20.8 1.105e+04 8.707e-10
 54.70359    -22.6 1.119e+04 1.005e-09
 54.70990    -22.9 1.100e+04 9.919e-10
 54.71974    -22.4 1.054e+04 7.595e-10
 54.73605    -22.2 1.038e+04 7.454e-10
 54.75573    -21.5 1.028e+04 7.290e-10
 54.77542    -20.8 1.023e+04 7.021e-10
 54.79510    -20.0 1.026e+04 6.803e-10
 54.81479    -19.3 1.021e+04 6.517e-10
 54.83447    -18.7 1.010e+04 6.232e-10
 54.85416    -18.0 1.014e+04 6.270e-10
 54.87384    -17.3 1.016e+04 6.385e-10
 54.89353    -16.5 1.019e+04 6.611e-10
 54.91068    -15.7 1.034e+04 6.837e-10
 54.92052    -15.6 1.029e+04 6.785e-10
 54.93290    -14.9 1.057e+04 7.894e-10
 54.94310    -14.4 1.087e+04 8.991e-10
 54.95295    -15.2 1.088e+04 9.075e-10
 54.97227    -14.4 1.119e+04 1.103e-09
 54.99195    -14.1 1.139e+04 1.161e-09
 55.01164    -13.0 1.163e+04 1.411e-09
 55.03133    -12.7 1.170e+04 1.436e-09
 55.05101    -11.8 1.170e+04 1.480e-09
 55.07070    -11.2 1.161e+04 1.441e-09
 55.09038     -9.9 1.137e+04 1.188e-09
 55.11007     -9.7 1.122e+04 1.132e-09
 55.12130     -8.6 1.084e+04 9.108e-10
 55.13114     -8.3 1.082e+04 8.733e-10
 55.14944     -8.2 1.047e+04 7.681e-10
 55.16912     -7.2 9.960e+03 5.540e-10
 55.18262     -6.9 9.799e+03 5.113e-10
 55.19246     -7.4 9.769e+03 5.055e-10
 55.20849     -6.0 9.478e+03 4.054e-10
 55.22818     -6.0 9.491e+03 4.035e-10
 55.25780     -4.5 9.461e+03 4.099e-10
 55.29727     -2.3 9.296e+03 3.818e-10
 55.32228     -0.1 9.277e+03 3.755e-10
 55.34196      0.1 8.756e+03 2.304e-10
 55.37601      2.3 8.762e+03 2.291e-10
 55.41249      4.5 8.806e+03 2.300e-10
 55.43217      4.5 8.852e+03 2.587e-10
 55.45475      6.7 8.970e+03 2.792e-10
 55.49412      8.9 9.074e+03 2.962e-10
 55.53349     11.0 9.149e+03 3.055e-10
 55.57286     13.2 9.184e+03 3.076e-10
 55.61223     15.2 9.190e+03 2.948e-10
 55.65160     17.1 9.177e+03 2.761e-10
 55.69097     18.9 9.185e+03 2.705e-10
 55.72384     20.6 9.263e+03 2.826e-10
 55.74352     20.5 9.418e+03 3.088e-10
 55.76971     22.0 9.604e+03 3.630e-10
 55.80908     23.8 9.819e+03 4.425e-10
 55.84845     25.7 1.000e+04 5.091e-10
 55.88782     27.6 1.017e+04 5.459e-10
 55.91120     29.1 1.041e+04 5.960e-10
 55.93088     29.4 1.044e+04 6.110e-10
 55.96656     30.4 1.101e+04 8.181e-10
 56.00593     31.0 1.188e+04 1.244e-09
 56.04530     31.4 1.254e+04 1.700e-09
 56.08468     31.8 1.265e+04 1.773e-09
 56.12405     32.1 1.244e+04 1.606e-09
 56.14508     32.6 1.181e+04 1.202e-09
 56.16477     32.2 1.156e+04 1.083e-09
 56.20279     33.0 1.090e+04 7.598e-10
 56.24216     34.0 1.017e+04 4.982e-10
 56.28153     35.1 9.554e+03 3.323e-10
 56.32090     36.5 9.121e+03 2.307e-10
 56.36027     38.0 8.830e+03 1.679e-10
 56.39023     39.4 8.568e+03 1.368e-10
 56.40991     39.7 8.579e+03 1.306e-10
 56.43901     41.1 8.516e+03 1.280e-10
 56.47838     42.6 8.530e+03 1.328e-10
 56.51775     43.8 8.625e+03 1.573e-10
 56.54665     44.9 8.845e+03 2.075e-10
 56.56633     45.2 8.756e+03 1.816e-10
 56.59649     46.5 8.846e+03 1.878e-10
 56.63586     47.6 8.828e+03 1.775e-10
 56.67523     48.5 8.767e+03 1.560e-10
 56.71460     49.2 8.647e+03 1.323e-10
 56.75397     49.9 8.500e+03 1.117e-10
 56.79334     50.6 8.365e+03 9.598e-11
 56.83271     51.5 8.265e+03 8.464e-11
 56.86926     52.5 8.189e+03 7.707e-11
 56.88894     52.8 8.074e+03 6.910e-11
 56.91145     53.9 8.070e+03 6.927e-11
 56.94821     54.9 8.081e+03 7.114e-11
 56.96789     55.6 8.051e+03 6.507e-11
 56.99019     56.6 8.096e+03 7.022e-11
 57.02956     57.6 8.162e+03 7.948e-11
 57.06893     58.5 8.249e+03 9.220e-11
 57.10830     59.4 8.343e+03 1.056e-10
 57.14767     60.2 8.413e+03 1.156e-10
 57.18704     60.9 8.454e+03 1.216e-10
 57.22641     61.6 8.484e+03 1.259e-10
 57.26578     62.2 8.506e+03 1.287e-10
 57.30515     62.8 8.497e+03 1.293e-10
 57.34452     63.4 8.450e+03 1.284e-10
 57.36797     64.0 8.464e+03 1.286e-10
 57.37322     64.1 8.573e+03 1.395e-10
 57.38914     64.8 8.868e+03 1.553e-10
 57.42326     65.3 8.965e+03 1.838e-10
 57.46263     66.0 9.055e+03 2.249e-10
 57.50200     67.0 9.463e+03 3.128e-10
 57.54138     68.2 1.038e+04 4.986e-10
 57.57014     68.4 1.066e+04 5.813e-10
 57.57988     68.1 1.134e+04 7.254e-10
 57.59039     67.8 1.223e+04 1.008e-09
 57.60729     67.5 1.329e+04 1.409e-09
 57.61713     66.5 1.400e+04 2.098e-09
 57.62976     66.5 1.536e+04 4.058e-09
 57.64945     66.9 1.670e+04 7.261e-09
 57.66913     67.3 1.768e+04 1.073e-08
 57.68882     67.6 1.816e+04 1.275e-08
 57.70850     67.9 1.811e+04 1.273e-08
 57.72819     68.6 1.785e+04 1.146e-08
 57.74787     69.3 1.730e+04 9.064e-09
 57.76756     70.0 1.649e+04 6.507e-09
 57.78066     70.8 1.541e+04 4.743e-09
 57.79050     70.2 1.582e+04 3.816e-09
 57.80693     70.2 1.458e+04 2.243e-09
 57.82661     70.0 1.345e+04 1.452e-09
 57.84630     70.1 1.261e+04 1.109e-09
 57.85665     71.2 1.224e+04 1.066e-09
 57.86649     70.8 1.182e+04 9.436e-10
 57.88567     72.7 1.192e+04 9.902e-10
 57.90535     74.7 1.230e+04 1.154e-09
 57.92504     76.3 1.273e+04 1.470e-09
 57.94473     78.5 1.380e+04 2.140e-09
 57.96441     82.0 1.527e+04 3.336e-09
 57.97636     83.3 1.590e+04 4.088e-09
 57.98123     82.6 1.597e+04 4.068e-09
 57.98627     83.4 1.636e+04 4.688e-09
 57.99119     81.7 1.623e+04 4.905e-09
 57.99876     82.6 1.676e+04 5.817e-09
 58.00860     83.6 1.747e+04 7.245e-09
 58.01845     84.1 1.842e+04 9.434e-09
 58.02829     83.6 1.978e+04 1.292e-08
 58.03813     82.4 2.140e+04 1.872e-08
 58.04797     82.1 2.302e+04 2.780e-08
 58.05782     82.2 2.416e+04 4.510e-08
 58.06766     84.0 2.403e+04 6.726e-08
 58.07750     84.5 2.777e+04 1.145e-07
 58.08486     81.6 3.182e+04 1.589e-07
 58.08907     68.1 4.034e+04 3.316e-07
 58.09153     51.1 3.517e+04 8.447e-07
 58.09468     12.9 1.845e+04 3.039e-05
 58.09836     26.6 1.789e+04 2.704e-05
 58.09968     30.6 1.736e+04 2.771e-05
 58.10093     37.4 1.846e+04 2.264e-05
 58.10452     39.9 1.803e+04 3.312e-05
 58.10820     41.7 1.688e+04 3.616e-05
 58.11065     41.0 1.731e+04 2.748e-05
 58.11435     37.2 1.682e+04 3.418e-05
 58.11928     35.3 1.413e+04 2.498e-04
 58.12296     35.9 1.071e+04 8.436e-03
 58.12541     35.5 9.913e+03 1.908e-02
 58.12787     34.1 1.000e+04 1.922e-02
 58.12962     32.7 1.012e+04 1.371e-02
 58.13085     34.6 1.008e+04 1.813e-02
 58.13279     34.4 1.051e+04 9.645e-03
 58.13525     33.4 1.268e+04 1.953e-03
 58.13896     29.8 1.699e+04 1.846e-05
 58.14638     25.0 2.995e+04 6.784e-07
 58.15624      1.8 7.994e+04 4.740e-09
 58.16609    -62.7 7.396e+04 5.808e-10
 58.18090    -87.1 1.678e+04 9.807e-10
 58.19207    -85.9 1.221e+04 1.019e-09
 58.20191    -83.7 1.269e+04 1.362e-09
 58.22032    -82.2 1.235e+04 1.147e-09
 58.24000    -81.6 1.199e+04 9.211e-10
 58.25969    -82.0 1.162e+04 7.814e-10
 58.27937    -82.9 1.130e+04 7.363e-10
 58.29906    -83.1 1.117e+04 7.247e-10
 58.31874    -82.9 1.090e+04 7.952e-10
 58.33568    -83.2 1.154e+04 1.027e-09
 58.34552    -81.4 1.093e+04 8.180e-10
 58.35811    -84.9 1.353e+04 1.457e-09
 58.37780    -89.8 1.663e+04 3.367e-09
 58.39285    -92.8 1.810e+04 7.268e-09
 58.40269    -92.4 1.836e+04 8.632e-09
 58.41717    -93.0 1.889e+04 1.301e-08
 58.43685    -93.2 1.896e+04 1.418e-08
 58.45654    -93.1 1.829e+04 1.280e-08
 58.47622    -91.8 1.687e+04 7.469e-09
 58.49591    -91.3 1.505e+04 3.499e-09
 58.51559    -92.7 1.307e+04 1.622e-09
 58.53528    -94.6 1.129e+04 9.050e-10
 58.55496    -94.9 1.043e+04 6.626e-10
 58.57465    -93.5 1.015e+04 5.784e-10
 58.58503    -91.6 1.010e+04 5.475e-10
 58.59417    -91.4 1.012e+04 5.758e-10
 58.60347    -91.3 9.895e+03 4.511e-10
 58.61402    -90.1 9.909e+03 4.358e-10
 58.64364    -88.3 9.748e+03 3.742e-10
 58.68311    -85.5 9.746e+03 3.722e-10
 58.71254    -83.7 1.002e+04 4.465e-10
 58.73213    -82.7 1.010e+04 4.742e-10
 58.75182    -81.6 1.025e+04 5.197e-10
 58.77150    -80.9 1.044e+04 5.779e-10
 58.79119    -79.9 1.073e+04 6.715e-10
 58.80425    -79.0 1.108e+04 7.819e-10
 58.81409    -78.6 1.025e+04 5.027e-10
 58.82455    -77.7 1.050e+04 5.722e-10
 58.83439    -77.8 1.065e+04 6.079e-10
 58.85024    -77.0 1.093e+04 6.830e-10
 58.86993    -76.1 1.118e+04 7.637e-10
 58.88961    -75.4 1.137e+04 8.349e-10
 58.90930    -74.7 1.148e+04 8.985e-10
 58.92898    -74.0 1.156e+04 9.559e-10
 58.94867    -73.3 1.164e+04 1.012e-09
 58.96835    -72.7 1.167e+04 1.066e-09
 58.98804    -72.3 1.168e+04 1.129e-09
 59.00503    -71.7 1.175e+04 1.222e-09
 59.01487    -71.2 1.119e+04 9.169e-10
 59.02741    -70.7 1.142e+04 1.054e-09
 59.04709    -70.5 1.177e+04 1.252e-09
 59.06406    -70.4 1.223e+04 1.535e-09
 59.07391    -70.8 1.234e+04 1.596e-09
 59.08646    -70.9 1.284e+04 2.025e-09
 59.10615    -70.8 1.324e+04 2.489e-09
 59.12583    -70.7 1.342e+04 2.775e-09
 59.14552    -70.5 1.342e+04 2.827e-09
 59.16520    -70.0 1.308e+04 2.573e-09
 59.18489    -69.2 1.253e+04 2.055e-09
 59.20457    -68.6 1.195e+04 1.567e-09
 59.21565    -68.2 1.145e+04 1.197e-09
 59.22550    -67.2 1.130e+04 1.163e-09
 59.24394    -66.8 1.086e+04 9.059e-10
 59.26363    -66.5 1.053e+04 7.362e-10
 59.28331    -66.2 1.032e+04 6.370e-10
 59.30300    -65.7 1.026e+04 6.068e-10
 59.31342    -65.3 1.037e+04 6.090e-10
 59.32326    -64.9 9.900e+03 4.672e-10
 59.34237    -64.6 1.024e+04 5.012e-10
 59.36205    -64.9 1.086e+04 6.361e-10
 59.38174    -65.6 1.153e+04 9.134e-10
 59.40142    -66.1 1.205e+04 1.366e-09
 59.41643    -66.2 1.243e+04 1.958e-09
 59.42628    -65.0 1.222e+04 1.416e-09
 59.44080    -65.0 1.251e+04 2.076e-09
 59.46048    -64.0 1.267e+04 2.614e-09
 59.48017    -62.8 1.273e+04 2.768e-09
 59.49985    -61.5 1.264e+04 2.639e-09
 59.51954    -60.2 1.244e+04 2.032e-09
 59.53922    -59.4 1.225e+04 1.289e-09
 59.55293    -59.9 1.189e+04 6.869e-10
 59.56278    -58.7 1.172e+04 8.884e-10
 59.57859    -59.5 1.120e+04 4.645e-10
 59.59828    -60.7 1.022e+04 2.506e-10
 59.61722    -61.3 9.317e+03 1.791e-10
 59.62706    -59.1 1.027e+04 2.627e-10
 59.63765    -59.9 9.471e+03 1.904e-10
 59.66727    -60.3 9.066e+03 1.709e-10
 59.69680    -58.3 8.940e+03 1.596e-10
 59.71639    -57.9 8.920e+03 1.593e-10
 59.73607    -57.2 9.056e+03 1.751e-10
 59.75576    -59.5 1.009e+04 2.359e-10
 59.77544    -65.6 1.327e+04 6.898e-10
 59.79245    -69.8 1.544e+04 2.776e-09
 59.80229    -67.4 1.422e+04 1.483e-09
 59.81481    -69.6 1.600e+04 4.976e-09
 59.82784    -70.4 1.764e+04 9.586e-09
 59.83768    -69.2 1.766e+04 9.571e-09
 59.85418    -70.6 1.912e+04 1.271e-08
 59.86890    -73.1 1.957e+04 1.290e-08
 59.87869    -75.8 2.041e+04 1.168e-08
 59.88853    -80.7 2.033e+04 7.937e-09
 59.89838    -86.2 1.846e+04 5.251e-09
 59.90822    -90.8 1.584e+04 3.833e-09
 59.91703    -92.8 1.486e+04 3.318e-09
 59.92195    -91.5 1.534e+04 3.536e-09
 59.93287    -93.7 1.437e+04 2.931e-09
 59.95261    -95.7 1.276e+04 1.951e-09
 59.97229    -96.2 1.156e+04 1.204e-09
 59.99198    -96.5 1.057e+04 7.145e-10
 60.01166    -96.7 9.804e+03 4.379e-10
 60.02862    -96.8 9.319e+03 3.079e-10
 60.03846    -97.0 9.264e+03 3.145e-10
 60.06097    -96.6 8.951e+03 2.364e-10
 60.10044    -94.9 8.521e+03 1.766e-10
 60.13981    -92.1 8.001e+03 1.201e-10
 60.17918    -89.6 7.747e+03 8.791e-11
 60.21855    -87.4 7.668e+03 7.045e-11
 60.23944    -85.3 7.669e+03 6.312e-11
 60.25912    -85.1 7.742e+03 7.108e-11
 60.28152    -83.0 7.747e+03 6.826e-11
 60.30120    -81.7 7.697e+03 6.646e-11
 60.33666    -79.7 7.706e+03 6.618e-11
 60.37603    -78.4 7.876e+03 7.265e-11
 60.41540    -77.5 8.217e+03 1.040e-10
 60.45477    -76.9 8.654e+03 1.606e-10
 60.49415    -76.6 9.139e+03 2.437e-10
 60.53352    -76.6 9.517e+03 3.392e-10
 60.57289    -76.7 9.708e+03 4.175e-10
 60.61226    -77.1 9.841e+03 4.813e-10
 60.64100    -79.3 1.036e+04 5.945e-10
 60.66068    -78.4 1.086e+04 8.941e-10
 60.68106    -81.9 1.109e+04 8.550e-10
 60.70064    -86.8 1.285e+04 1.230e-09
 60.72033    -92.0 1.445e+04 2.177e-09
 60.74001    -96.5 1.535e+04 3.767e-09
 60.75970   -100.3 1.559e+04 4.665e-09
 60.77019   -103.8 1.552e+04 4.752e-09
 60.78003   -105.2 1.603e+04 5.097e-09
 60.79907   -108.3 1.528e+04 4.099e-09
 60.81875   -111.7 1.406e+04 2.260e-09
 60.83844   -115.5 1.265e+04 1.188e-09
 60.85143   -118.5 1.153e+04 7.708e-10
 60.86127   -119.1 1.155e+04 8.096e-10
 60.87781   -120.9 1.097e+04 6.449e-10
 60.89750   -121.6 1.072e+04 5.886e-10
 60.91718   -121.9 1.056e+04 5.563e-10
 60.93687   -122.3 1.043e+04 5.261e-10
 60.95655   -122.5 1.030e+04 4.930e-10
 60.97624   -122.6 1.019e+04 4.563e-10
 60.99592   -122.8 1.010e+04 4.210e-10
 61.00971   -122.9 1.005e+04 3.960e-10
 61.01955   -123.2 1.001e+04 3.903e-10
 61.04246   -123.2 1.001e+04 3.715e-10
 61.06225   -124.4 1.009e+04 3.862e-10
 61.08470   -124.7 1.004e+04 3.626e-10
 61.12407   -124.5 9.870e+03 3.264e-10
 61.16344   -124.3 9.608e+03 2.740e-10
 61.20281   -124.0 9.331e+03 2.190e-10
 61.23957   -123.7 9.117e+03 1.752e-10
 61.25926   -124.1 9.351e+03 2.231e-10
 61.28155   -123.6 9.196e+03 1.850e-10
 61.32092   -123.1 9.079e+03 1.657e-10
 61.36029   -122.5 9.017e+03 1.604e-10
 61.39966   -121.7 8.989e+03 1.595e-10
 61.43903   -120.8 8.958e+03 1.615e-10
 61.46381   -120.0 8.895e+03 1.642e-10
 61.48349   -121.3 9.183e+03 2.253e-10
 61.51777   -121.3 9.702e+03 2.634e-10
 61.55714   -121.4 1.041e+04 3.851e-10
 61.59651   -121.3 1.100e+04 5.956e-10
 61.63588   -121.0 1.142e+04 8.331e-10
 61.67525   -120.7 1.164e+04 9.776e-10
 61.71462   -120.4 1.166e+04 1.003e-09
 61.73829   -120.1 1.151e+04 9.221e-10
 61.75797   -121.9 1.167e+04 1.004e-09
 61.79336   -121.4 1.140e+04 8.373e-10
 61.83273   -121.1 1.130e+04 7.466e-10
 61.86537   -120.9 1.129e+04 7.286e-10
 61.88505   -121.2 1.084e+04 5.346e-10
 61.91147   -120.9 1.088e+04 5.286e-10
 61.94090   -120.4 1.122e+04 6.261e-10
 61.96049   -120.5 1.136e+04 6.851e-10
 61.97761   -120.5 1.146e+04 7.482e-10
 61.98745   -121.4 1.133e+04 7.010e-10
 61.99986   -121.4 1.137e+04 7.431e-10
 62.01955   -121.4 1.138e+04 7.748e-10
 62.03923   -121.3 1.137e+04 7.908e-10
 62.05892   -121.2 1.135e+04 7.944e-10
 62.07580   -121.0 1.126e+04 7.751e-10
 62.08564   -120.9 1.111e+04 6.940e-10
 62.09829   -120.6 1.101e+04 6.682e-10
 62.11797   -120.1 1.087e+04 6.203e-10
 62.13766   -119.5 1.071e+04 5.601e-10
 62.15734   -118.9 1.049e+04 4.741e-10
 62.17703   -118.2 1.020e+04 3.839e-10
 62.19671   -117.7 1.012e+04 3.597e-10
 62.21722   -116.6 1.007e+04 3.348e-10
 62.23700   -117.7 9.726e+03 2.507e-10
 62.26581   -116.2 9.439e+03 2.033e-10
 62.28661   -114.4 9.289e+03 1.854e-10
 62.30630   -113.7 9.229e+03 1.687e-10
 62.34455   -111.9 9.212e+03 1.661e-10
 62.38392   -110.6 9.277e+03 1.733e-10
 62.42329   -109.9 9.664e+03 2.567e-10
 62.46266   -109.4 1.025e+04 4.443e-10
 62.50203   -109.1 1.097e+04 7.562e-10
 62.54140   -109.2 1.171e+04 1.169e-09
 62.58077   -109.8 1.231e+04 1.538e-09
 62.62014   -111.3 1.248e+04 1.635e-09
 62.65951   -112.4 1.227e+04 1.511e-09
 62.68818   -112.6 1.163e+04 1.019e-09
 62.70533   -111.9 1.196e+04 1.177e-09
 62.71603   -113.2 1.120e+04 7.602e-10
 62.73825   -113.3 1.041e+04 4.341e-10
 62.77762   -112.8 9.944e+03 2.930e-10
 62.81699   -111.9 9.634e+03 2.341e-10
 62.85636   -110.8 9.542e+03 2.206e-10
 62.89573   -109.5 9.564e+03 2.219e-10
 62.93510   -108.7 9.895e+03 2.666e-10
 62.97447   -108.0 1.031e+04 3.612e-10
 63.01384   -107.5 1.074e+04 4.831e-10
 63.04327   -107.4 1.108e+04 6.192e-10
 63.06286   -107.3 1.111e+04 6.348e-10
 63.08254   -107.2 1.131e+04 7.265e-10
 63.09938   -107.1 1.150e+04 8.355e-10
 63.10923   -106.5 1.134e+04 7.013e-10
 63.12192   -106.4 1.152e+04 7.855e-10
 63.14160   -106.2 1.158e+04 8.684e-10
 63.16129   -105.9 1.162e+04 9.343e-10
 63.18097   -105.5 1.162e+04 9.716e-10
 63.19487   -105.0 1.161e+04 9.809e-10
 63.20471   -105.6 1.133e+04 8.637e-10
 63.22034   -105.1 1.122e+04 8.411e-10
 63.24003   -104.4 1.108e+04 7.767e-10
 63.25971   -103.5 1.091e+04 6.907e-10
 63.27940   -102.6 1.074e+04 5.898e-10
 63.29908   -101.6 1.055e+04 4.922e-10
 63.32871   -100.6 1.030e+04 4.038e-10
 63.36817    -99.4 1.011e+04 3.386e-10
 63.40755    -97.7 9.747e+03 2.642e-10
 63.44692    -95.6 9.474e+03 2.172e-10
 63.48629    -93.7 9.418e+03 2.028e-10
 63.51098    -92.1 9.433e+03 2.021e-10
 63.53067    -90.9 9.274e+03 1.785e-10
 63.56503    -89.5 9.335e+03 1.809e-10
 63.60440    -88.8 9.687e+03 2.485e-10
 63.64377    -88.5 1.007e+04 3.971e-10
 63.67320    -88.8 1.033e+04 5.801e-10
 63.68374    -88.8 1.040e+04 7.020e-10
 63.69358    -89.3 1.028e+04 6.382e-10
 63.71157    -89.2 1.034e+04 7.086e-10
 63.72141    -88.9 1.037e+04 7.095e-10
 63.73215    -88.9 1.039e+04 7.229e-10
 63.75184    -89.3 1.043e+04 7.247e-10
 63.77152    -91.3 1.068e+04 7.293e-10
 63.79121    -94.8 1.153e+04 8.000e-10
 63.81089    -98.6 1.212e+04 1.130e-09
 63.83058   -101.2 1.234e+04 1.673e-09
 63.85027   -102.7 1.236e+04 2.095e-09
 63.86995   -103.6 1.234e+04 2.191e-09
 63.88964   -104.3 1.211e+04 2.140e-09
 63.90932   -105.0 1.171e+04 1.784e-09
 63.92219   -106.0 1.128e+04 1.414e-09
 63.92628   -105.7 1.109e+04 1.382e-09
 63.93309   -105.1 1.091e+04 1.262e-09
 63.94869   -106.2 1.063e+04 1.088e-09
 63.96838   -107.1 1.050e+04 1.009e-09
 63.98806   -107.6 1.047e+04 9.847e-10
 64.00775   -107.8 1.047e+04 9.788e-10
 64.02743   -108.0 1.049e+04 9.784e-10
 64.04712   -108.2 1.051e+04 9.801e-10
 64.06680   -108.4 1.058e+04 9.993e-10
 64.08649   -108.5 1.069e+04 1.068e-09
 64.10617   -108.4 1.082e+04 1.168e-09
 64.12297   -108.2 1.094e+04 1.262e-09
 64.13281   -108.1 1.096e+04 1.255e-09
 64.14554   -107.7 1.097e+04 1.270e-09
 64.16277   -107.2 1.096e+04 1.268e-09
 64.17261   -107.1 1.100e+04 1.272e-09
 64.18491   -106.5 1.097e+04 1.236e-09
 64.20460   -105.8 1.092e+04 1.150e-09
 64.22428   -105.2 1.084e+04 1.049e-09
 64.24397   -104.7 1.076e+04 9.475e-10
 64.26365   -104.2 1.066e+04 8.529e-10
 64.28334   -103.7 1.057e+04 7.754e-10
 64.30302   -103.3 1.052e+04 7.222e-10
 64.32271   -102.8 1.050e+04 6.950e-10
 64.33360   -102.4 1.050e+04 6.895e-10
 64.34344   -102.4 1.019e+04 6.378e-10
 64.36208   -102.0 1.024e+04 6.411e-10
 64.38176   -101.6 1.029e+04 6.645e-10
 64.40145   -101.1 1.035e+04 7.009e-10
 64.41212   -100.7 1.040e+04 7.442e-10
 64.42197   -100.5 1.036e+04 7.164e-10
 64.44082   -100.0 1.041e+04 7.569e-10
 64.46050    -99.5 1.044e+04 7.933e-10
 64.48019    -98.9 1.047e+04 8.281e-10
 64.49987    -98.4 1.052e+04 8.626e-10
 64.51956    -97.8 1.060e+04 9.012e-10
 64.53438    -97.4 1.071e+04 9.465e-10
 64.54422    -97.5 1.061e+04 9.088e-10
 64.55893    -97.2 1.078e+04 9.763e-10
 64.57862    -97.0 1.097e+04 1.053e-09
 64.59830    -96.9 1.116e+04 1.134e-09
 64.61799    -96.7 1.132e+04 1.212e-09
 64.63767    -96.5 1.145e+04 1.266e-09
 64.65164    -96.3 1.149e+04 1.285e-09
 64.66148    -96.2 1.150e+04 1.258e-09
 64.67704    -96.0 1.151e+04 1.260e-09
 64.69673    -95.8 1.142e+04 1.240e-09
 64.71641    -95.4 1.131e+04 1.151e-09
 64.73516    -95.1 1.121e+04 1.063e-09
 64.74500    -95.1 1.128e+04 1.130e-09
 64.75578    -94.8 1.121e+04 1.044e-09
 64.77547    -94.6 1.113e+04 9.634e-10
 64.79515    -94.4 1.105e+04 8.839e-10
 64.81484    -94.0 1.096e+04 8.053e-10
 64.83452    -93.7 1.087e+04 7.307e-10
 64.85421    -93.3 1.079e+04 6.657e-10
 64.87389    -93.0 1.074e+04 6.188e-10
 64.89115    -92.6 1.071e+04 5.962e-10
 64.90099    -92.2 1.065e+04 5.730e-10
 64.91326    -91.8 1.062e+04 5.485e-10
 64.93295    -91.4 1.061e+04 5.403e-10
 64.94578    -90.9 1.065e+04 5.448e-10
 64.95562    -91.1 1.078e+04 5.639e-10
 64.97232    -90.5 1.083e+04 5.701e-10
 64.99200    -89.9 1.084e+04 5.770e-10
 65.01169    -89.2 1.083e+04 5.618e-10
 65.03137    -88.6 1.079e+04 5.229e-10
 65.06100    -88.0 1.069e+04 4.764e-10
 65.10047    -86.4 1.048e+04 4.065e-10
 65.13086    -84.8 1.024e+04 3.230e-10
 65.14762    -84.2 1.034e+04 3.646e-10
 65.15660    -84.6 1.021e+04 3.134e-10
 65.17921    -83.0 1.009e+04 2.617e-10
 65.21858    -81.3 1.008e+04 2.390e-10
 65.25795    -79.7 1.009e+04 2.356e-10
 65.29732    -78.4 1.026e+04 2.631e-10
 65.33669    -77.1 1.059e+04 3.768e-10
 65.37606    -75.6 1.094e+04 5.229e-10
 65.41543    -74.3 1.121e+04 6.140e-10
 65.45480    -73.2 1.127e+04 6.284e-10
 65.49417    -72.0 1.118e+04 5.625e-10
 65.53354    -70.7 1.101e+04 4.681e-10
 65.55816    -69.3 1.104e+04 4.414e-10
 65.57784    -69.5 1.093e+04 4.447e-10
 65.60989    -68.1 1.127e+04 5.618e-10
 65.62958    -67.2 1.083e+04 3.863e-10
 65.64171    -66.0 1.117e+04 4.722e-10
 65.66130    -65.5 1.129e+04 5.159e-10
 65.68098    -64.4 1.155e+04 6.028e-10
 65.70067    -63.9 1.173e+04 6.633e-10
 65.72035    -63.0 1.211e+04 7.945e-10
 65.74004    -62.9 1.236e+04 8.737e-10
 65.75875    -62.6 1.288e+04 1.128e-09
 65.76859    -62.8 1.294e+04 1.262e-09
 65.77941    -62.6 1.315e+04 1.465e-09
 65.79909    -62.3 1.335e+04 1.667e-09
 65.81878    -62.2 1.352e+04 1.772e-09
 65.83846    -62.1 1.357e+04 1.829e-09
 65.85815    -62.0 1.346e+04 1.789e-09
 65.86890    -62.0 1.332e+04 1.726e-09
 65.87874    -60.6 1.404e+04 2.444e-09
 65.89752    -60.6 1.396e+04 2.389e-09
 65.91720    -60.5 1.377e+04 2.242e-09
 65.93689    -60.4 1.348e+04 2.033e-09
 65.95657    -60.0 1.325e+04 1.901e-09
 65.96937    -59.7 1.303e+04 1.729e-09
 65.97921    -59.8 1.293e+04 1.674e-09
 66.00589    -59.9 1.256e+04 1.309e-09
 66.04535    -59.1 1.258e+04 1.100e-09
 66.08472    -58.6 1.257e+04 8.097e-10
 66.10860    -58.5 1.255e+04 5.899e-10
 66.11835    -58.1 1.382e+04 1.980e-09
 66.13374    -58.5 1.399e+04 1.880e-09
 66.15343    -58.9 1.407e+04 1.816e-09
 66.17015    -59.5 1.403e+04 1.722e-09
 66.17999    -59.3 1.349e+04 1.298e-09
 66.19280    -60.1 1.338e+04 1.285e-09
 66.21248    -60.8 1.296e+04 1.418e-09
 66.23217    -61.4 1.263e+04 1.613e-09
 66.25185    -62.6 1.314e+04 2.153e-09
 66.27154    -65.6 1.574e+04 3.737e-09
 66.29122    -69.3 1.811e+04 7.986e-09
 66.31091    -72.0 1.924e+04 1.526e-08
 66.33059    -73.7 1.944e+04 1.994e-08
 66.34792    -75.5 1.929e+04 2.015e-08
 66.35777    -75.5 1.824e+04 1.495e-08
 66.36996    -76.9 1.780e+04 1.176e-08
 66.38077    -79.1 1.679e+04 6.474e-09
 66.39061    -78.0 1.704e+04 7.745e-09
 66.40933    -80.9 1.559e+04 3.816e-09
 66.42902    -84.0 1.374e+04 2.019e-09
 66.44870    -85.6 1.246e+04 1.338e-09
 66.46839    -86.0 1.194e+04 1.013e-09
 66.48807    -86.0 1.157e+04 7.764e-10
 66.50776    -86.1 1.123e+04 5.905e-10
 66.52744    -86.2 1.096e+04 4.552e-10
 66.55707    -86.4 1.072e+04 3.526e-10
 66.58763    -85.8 1.049e+04 2.907e-10
 66.60732    -86.0 1.102e+04 5.125e-10
 66.63591    -85.3 1.084e+04 4.685e-10
 66.67528    -84.4 1.069e+04 4.446e-10
 66.71465    -83.3 1.057e+04 4.322e-10
 66.75402    -82.2 1.045e+04 4.186e-10
 66.78253    -81.1 1.029e+04 3.925e-10
 66.80221    -80.1 1.039e+04 4.291e-10
 66.83276    -78.9 1.026e+04 4.108e-10
 66.87213    -77.8 1.011e+04 3.756e-10
 66.91150    -76.7 9.937e+03 3.354e-10
 66.95087    -75.8 9.738e+03 2.959e-10
 66.99024    -74.7 9.587e+03 2.652e-10
 67.02961    -73.3 9.537e+03 2.463e-10
 67.06666    -71.9 9.553e+03 2.390e-10
 67.08635    -71.5 9.207e+03 1.786e-10
 67.10835    -70.0 9.242e+03 1.709e-10
 67.14772    -68.6 9.310e+03 1.694e-10
 67.18409    -67.4 9.623e+03 1.961e-10
 67.20378    -66.4 9.382e+03 1.716e-10
 67.22646    -65.1 9.741e+03 2.297e-10
 67.26583    -63.7 1.010e+04 3.545e-10
 67.29526    -62.6 1.046e+04 5.298e-10
 67.31485    -62.2 1.059e+04 5.953e-10
 67.34447    -61.1 1.093e+04 7.282e-10
 67.38394    -60.0 1.150e+04 9.591e-10
 67.40446    -59.2 1.170e+04 9.889e-10
 67.41420    -58.7 1.132e+04 8.582e-10
 67.43296    -58.6 1.153e+04 9.010e-10
 67.45264    -58.1 1.179e+04 9.793e-10
 67.47233    -57.9 1.192e+04 1.148e-09
 67.49202    -57.4 1.184e+04 1.294e-09
 67.51170    -56.8 1.173e+04 1.336e-09
 67.53139    -56.2 1.163e+04 1.270e-09
 67.55107    -55.6 1.155e+04 1.186e-09
 67.56518    -55.2 1.159e+04 1.075e-09
 67.57502    -54.7 1.118e+04 9.118e-10
 67.59044    -54.3 1.136e+04 8.643e-10
 67.60514    -54.1 1.155e+04 8.139e-10
 67.61498    -53.2 1.155e+04 9.560e-10
 67.62981    -53.0 1.174e+04 9.391e-10
 67.64950    -53.1 1.191e+04 9.394e-10
 67.66918    -53.5 1.199e+04 9.555e-10
 67.68887    -53.9 1.202e+04 1.077e-09
 67.70855    -54.0 1.207e+04 1.251e-09
 67.72824    -53.8 1.226e+04 1.455e-09
 67.74792    -53.6 1.251e+04 1.655e-09
 67.76761    -53.5 1.269e+04 1.801e-09
 67.78729    -53.3 1.283e+04 1.913e-09
 67.80470    -53.2 1.296e+04 1.974e-09
 67.81348    -52.9 1.304e+04 2.210e-09
 67.81576    -52.5 1.335e+04 2.644e-09
 67.82666    -52.4 1.343e+04 2.675e-09
 67.84635    -52.4 1.355e+04 2.759e-09
 67.86603    -52.4 1.371e+04 2.966e-09
 67.88572    -52.2 1.389e+04 3.259e-09
 67.90540    -51.9 1.404e+04 3.490e-09
 67.92509    -51.4 1.412e+04 3.589e-09
 67.94477    -50.9 1.416e+04 3.401e-09
 67.96446    -50.4 1.409e+04 2.875e-09
 67.98414    -50.2 1.388e+04 2.161e-09
 68.00383    -50.4 1.342e+04 1.461e-09
 68.01654    -50.9 1.257e+04 9.232e-10
 68.02639    -50.2 1.339e+04 1.175e-09
 68.04320    -50.9 1.229e+04 7.372e-10
 68.05405    -51.4 1.108e+04 5.100e-10
 68.06390    -50.3 1.251e+04 7.674e-10
 68.08257    -50.9 1.122e+04 5.164e-10
 68.10225    -50.6 1.062e+04 4.179e-10
 68.12194    -50.0 1.046e+04 3.749e-10
 68.14162    -49.3 1.036e+04 3.503e-10
 68.17125    -48.0 1.030e+04 3.146e-10
 68.21072    -45.9 1.021e+04 2.926e-10
 68.25009    -44.7 1.042e+04 3.314e-10
 68.28946    -43.5 1.084e+04 5.184e-10
 68.31889    -42.3 1.120e+04 7.797e-10
 68.33848    -42.1 1.122e+04 7.899e-10
 68.36810    -41.0 1.142e+04 8.600e-10
 68.40757    -40.1 1.144e+04 8.655e-10
 68.42814    -39.1 1.132e+04 7.393e-10
 68.44783    -37.9 1.132e+04 7.245e-10
 68.48631    -37.2 1.101e+04 5.011e-10
 68.52344    -36.7 1.078e+04 4.008e-10
 68.54312    -36.7 1.072e+04 3.811e-10
 68.56505    -35.9 1.051e+04 3.201e-10
 68.60442    -34.9 1.041e+04 3.085e-10
 68.64379    -33.6 1.039e+04 3.332e-10
 68.68316    -32.3 1.044e+04 3.601e-10
 68.71259    -31.4 1.057e+04 4.103e-10
 68.73218    -31.4 1.058e+04 4.150e-10
 68.75186    -31.6 1.103e+04 4.809e-10
 68.77155    -33.3 1.163e+04 6.557e-10
 68.78244    -34.8 1.199e+04 1.099e-09
 68.79228    -34.7 1.212e+04 1.031e-09
 68.81092    -35.4 1.236e+04 1.748e-09
 68.82951    -35.2 1.289e+04 2.625e-09
 68.83935    -35.5 1.318e+04 2.979e-09
 68.85029    -34.9 1.373e+04 3.873e-09
 68.86997    -34.7 1.393e+04 4.056e-09
 68.88966    -34.7 1.369e+04 3.282e-09
 68.90934    -35.5 1.284e+04 2.066e-09
 68.92903    -36.8 1.190e+04 1.262e-09
 68.94871    -37.5 1.123e+04 8.349e-10
 68.96840    -37.6 1.074e+04 6.229e-10
 68.98809    -37.5 1.046e+04 4.980e-10
 69.00777    -37.4 1.026e+04 4.257e-10
 69.02205    -37.3 1.017e+04 3.951e-10
 69.04183    -36.7 1.002e+04 3.540e-10
 69.07686    -35.0 9.847e+03 3.465e-10
 69.11623    -33.0 9.787e+03 3.511e-10
 69.15560    -31.0 9.783e+03 3.474e-10
 69.19497    -29.0 9.740e+03 3.323e-10
 69.23127    -27.0 9.704e+03 3.068e-10
 69.25095    -27.4 9.451e+03 2.020e-10
 69.27371    -25.6 9.538e+03 2.290e-10
 69.31309    -24.0 9.822e+03 3.104e-10
 69.35246    -22.9 1.055e+04 5.150e-10
 69.39183    -22.1 1.152e+04 9.732e-10
 69.43120    -21.3 1.227e+04 1.651e-09
 69.47057    -20.2 1.267e+04 2.169e-09
 69.50118    -18.9 1.268e+04 1.978e-09
 69.52086    -17.3 1.271e+04 1.955e-09
 69.54931    -17.3 1.220e+04 1.463e-09
 69.58868    -18.8 1.119e+04 8.092e-10
 69.62805    -20.8 1.009e+04 4.582e-10
 69.65251    -21.6 9.592e+03 3.858e-10
 69.67220    -21.6 9.521e+03 3.657e-10
 69.70679    -20.5 9.485e+03 4.124e-10
 69.74616    -19.2 9.654e+03 4.860e-10
 69.78553    -18.3 9.944e+03 5.753e-10
 69.82490    -18.3 1.048e+04 7.359e-10
 69.86427    -19.1 1.127e+04 1.091e-09
 69.89370    -19.6 1.212e+04 1.759e-09
 69.91329    -20.1 1.227e+04 1.992e-09
 69.93297    -19.4 1.255e+04 2.362e-09
 69.95266    -19.2 1.251e+04 2.254e-09
 69.97234    -18.6 1.237e+04 1.772e-09
 69.98985    -19.1 1.198e+04 1.185e-09
 69.99970    -21.1 1.147e+04 1.066e-09
 70.01171    -23.0 1.052e+04 6.608e-10
 70.03140    -24.7 9.878e+03 4.611e-10
 70.05108    -26.0 9.653e+03 4.143e-10
 70.06372    -27.0 9.816e+03 4.270e-10
 70.07356    -27.1 9.857e+03 4.333e-10
 70.09045    -28.6 1.028e+04 5.596e-10
 70.11014    -29.4 1.060e+04 7.776e-10
 70.12982    -29.6 1.090e+04 1.053e-09
 70.14951    -29.1 1.116e+04 1.307e-09
 70.16919    -28.5 1.131e+04 1.431e-09
 70.18888    -28.0 1.133e+04 1.446e-09
 70.20856    -27.7 1.120e+04 1.319e-09
 70.22825    -27.7 1.106e+04 1.126e-09
 70.23921    -28.4 1.099e+04 9.864e-10
 70.24905    -28.5 1.047e+04 7.503e-10
 70.26450    -29.1 1.031e+04 6.561e-10
 70.27434    -28.8 1.002e+04 5.527e-10
 70.28730    -29.1 9.992e+03 5.236e-10
 70.30699    -29.2 1.011e+04 5.253e-10
 70.32667    -29.1 1.040e+04 5.772e-10
 70.34636    -29.1 1.066e+04 6.779e-10
 70.36604    -29.2 1.117e+04 8.672e-10
 70.38573    -30.1 1.228e+04 1.301e-09
 70.40541    -31.8 1.360e+04 2.190e-09
 70.42510    -32.9 1.468e+04 3.811e-09
 70.44479    -33.0 1.563e+04 6.357e-09
 70.46447    -32.1 1.654e+04 9.768e-09
 70.47513    -30.7 1.723e+04 1.300e-08
 70.47954    -30.3 1.746e+04 1.349e-08
 70.48857    -29.8 1.672e+04 8.671e-09
 70.50384    -28.4 1.733e+04 8.850e-09
 70.51856    -27.9 1.795e+04 8.886e-09
 70.52835    -27.6 1.800e+04 8.201e-09
 70.53819    -28.4 1.850e+04 6.862e-09
 70.54803    -31.3 1.975e+04 6.904e-09
 70.55788    -37.5 2.244e+04 7.744e-09
 70.56772    -44.5 2.574e+04 1.104e-08
 70.57542    -50.0 2.603e+04 1.687e-08
 70.58034    -49.8 2.679e+04 1.596e-08
 70.58740    -53.5 2.466e+04 2.460e-08
 70.59725    -55.5 2.267e+04 3.195e-08
 70.60331    -56.1 2.114e+04 3.632e-08
 70.60823    -57.7 2.075e+04 3.202e-08
 70.61693    -57.5 2.007e+04 3.851e-08
 70.62677    -56.3 1.925e+04 4.155e-08
 70.63662    -55.0 1.921e+04 3.758e-08
 70.64646    -54.0 1.945e+04 2.774e-08
 70.65630    -53.3 2.033e+04 1.457e-08
 70.66615    -53.9 2.215e+04 5.005e-09
 70.67586    -60.6 2.280e+04 8.828e-10
 70.68078    -56.5 2.403e+04 1.720e-09
 70.68583    -60.0 2.353e+04 7.899e-10
 70.70064    -66.7 1.813e+04 2.571e-10
 70.71824    -70.6 1.027e+04 1.418e-10
 70.72808    -67.2 1.519e+04 2.814e-10
 70.74006    -68.9 1.095e+04 1.406e-10
 70.75975    -69.1 9.247e+03 1.197e-10
 70.77943    -68.3 9.073e+03 1.093e-10
 70.80906    -67.1 8.989e+03 1.001e-10
 70.84853    -65.0 8.932e+03 9.467e-11
 70.87688    -63.4 8.937e+03 9.402e-11
 70.89657    -63.6 9.034e+03 1.038e-10
 70.92727    -62.7 9.065e+03 1.045e-10
 70.95795    -62.4 9.307e+03 1.202e-10
 70.97764    -62.6 9.561e+03 1.749e-10
 71.00601    -62.1 9.922e+03 2.714e-10
 71.04538    -61.8 1.044e+04 4.221e-10
 71.08475    -61.8 1.110e+04 6.458e-10
 71.11418    -62.4 1.150e+04 8.916e-10
 71.13376    -63.2 1.176e+04 1.063e-09
 71.15345    -63.9 1.190e+04 1.181e-09
 71.17314    -64.5 1.192e+04 1.199e-09
 71.19282    -65.0 1.187e+04 1.177e-09
 71.20711    -65.4 1.165e+04 1.033e-09
 71.21695    -65.2 1.178e+04 1.137e-09
 71.23219    -65.6 1.148e+04 9.382e-10
 71.25188    -66.1 1.112e+04 7.367e-10
 71.27156    -66.5 1.074e+04 5.719e-10
 71.28809    -66.7 1.045e+04 4.636e-10
 71.29793    -67.3 1.045e+04 4.615e-10
 71.32087    -67.6 1.030e+04 3.972e-10
 71.36034    -67.7 1.024e+04 3.592e-10
 71.39971    -68.9 1.054e+04 3.794e-10
 71.42914    -70.0 1.115e+04 5.388e-10
 71.44663    -71.1 1.161e+04 7.183e-10
 71.45647    -71.1 1.173e+04 7.649e-10
 71.46841    -72.7 1.232e+04 1.202e-09
 71.48810    -74.1 1.277e+04 1.569e-09
 71.49871    -75.5 1.293e+04 1.729e-09
 71.50856    -76.5 1.278e+04 1.595e-09
 71.52747    -77.9 1.249e+04 1.518e-09
 71.54715    -78.6 1.194e+04 1.218e-09
 71.56684    -78.8 1.140e+04 9.116e-10
 71.58652    -79.0 1.099e+04 6.566e-10
 71.60621    -79.2 1.063e+04 4.506e-10
 71.63583    -79.6 1.031e+04 3.056e-10
 71.67530    -79.8 9.677e+03 1.748e-10
 71.69969    -78.6 9.447e+03 1.376e-10
 71.71937    -79.1 9.442e+03 1.410e-10
 71.75404    -77.5 9.432e+03 1.411e-10
 71.79341    -75.8 9.441e+03 1.463e-10
 71.83278    -74.0 9.466e+03 1.517e-10
 71.87215    -72.3 9.509e+03 1.574e-10
 71.91152    -70.6 9.589e+03 1.675e-10
 71.93569    -69.0 9.681e+03 1.802e-10
 71.95538    -70.2 9.797e+03 2.393e-10
 71.99026    -68.6 9.863e+03 2.543e-10
 72.02963    -67.0 9.893e+03 2.598e-10
 72.06900    -65.5 9.914e+03 2.587e-10
 72.10125    -64.0 9.934e+03 2.494e-10
 72.12094    -63.9 9.661e+03 1.961e-10
 72.14774    -62.3 9.692e+03 1.863e-10
 72.18711    -60.7 9.733e+03 1.817e-10
 72.22649    -59.0 9.790e+03 1.832e-10
 72.26586    -57.4 9.816e+03 1.956e-10
 72.30523    -55.7 9.767e+03 2.152e-10
 72.34460    -53.8 9.677e+03 2.286e-10
 72.38397    -51.9 9.506e+03 2.268e-10
 72.41472    -50.0 9.329e+03 2.043e-10
 72.43441    -50.7 9.213e+03 1.931e-10
 72.46271    -48.7 8.979e+03 1.534e-10
 72.50208    -46.7 8.788e+03 1.231e-10
 72.52250    -44.7 8.643e+03 1.049e-10
 72.54218    -44.1 8.660e+03 1.020e-10
 72.58082    -42.2 8.557e+03 9.043e-11
 72.62019    -40.1 8.458e+03 8.500e-11
 72.65956    -38.1 8.402e+03 8.364e-11
 72.69893    -36.1 8.397e+03 8.355e-11
 72.73830    -34.3 8.421e+03 8.739e-11
 72.77767    -32.8 8.490e+03 1.037e-10
 72.81704    -31.2 8.567e+03 1.312e-10
 72.85641    -29.5 8.697e+03 1.640e-10
 72.89375    -28.0 8.860e+03 1.951e-10
 72.91344    -28.6 8.875e+03 1.943e-10
 72.92406    -27.5 9.004e+03 2.089e-10
 72.94374    -27.2 9.306e+03 2.695e-10
 72.97452    -26.8 9.601e+03 3.210e-10
 73.01389    -26.4 1.009e+04 4.681e-10
 73.04332    -25.9 1.028e+04 5.798e-10
 73.06291    -26.2 1.044e+04 6.442e-10
 73.08259    -26.9 1.113e+04 9.042e-10
 73.10228    -29.0 1.197e+04 1.270e-09
 73.12196    -31.2 1.277e+04 1.893e-09
 73.13449    -33.2 1.339e+04 2.659e-09
 73.14433    -33.1 1.359e+04 3.001e-09
 73.15276    -34.7 1.415e+04 3.561e-09
 73.16260    -34.5 1.414e+04 3.605e-09
 73.18102    -36.3 1.428e+04 3.383e-09
 73.20070    -38.8 1.350e+04 2.121e-09
 73.22039    -42.1 1.192e+04 1.226e-09
 73.24007    -44.3 1.069e+04 7.672e-10
 73.25976    -45.3 1.006e+04 5.209e-10
 73.27944    -46.2 9.676e+03 3.791e-10
 73.29913    -46.9 9.408e+03 3.082e-10
 73.32552    -47.0 9.202e+03 2.671e-10
 73.34531    -47.7 9.341e+03 3.088e-10
 73.36822    -47.4 9.022e+03 2.593e-10
 73.39247    -46.0 8.724e+03 2.242e-10
 73.41215    -45.6 8.763e+03 2.263e-10
 73.44696    -44.3 8.612e+03 2.112e-10
 73.48633    -42.8 8.504e+03 1.971e-10
 73.52570    -41.4 8.453e+03 1.813e-10
 73.56507    -40.1 8.473e+03 1.725e-10
 73.60444    -39.6 8.643e+03 1.772e-10
 73.64381    -39.6 9.201e+03 2.651e-10
 73.68318    -39.4 9.934e+03 4.630e-10
 73.71261    -39.3 1.058e+04 6.761e-10
 73.73220    -39.8 1.116e+04 8.568e-10
 73.74667    -40.1 1.201e+04 1.145e-09
 73.75651    -40.2 1.210e+04 1.127e-09
 73.77157    -40.7 1.275e+04 1.402e-09
 73.79126    -41.2 1.319e+04 1.590e-09
 73.81094    -41.8 1.344e+04 1.667e-09
 73.83063    -42.6 1.359e+04 1.700e-09
 73.85031    -43.6 1.382e+04 1.748e-09
 73.87000    -45.2 1.424e+04 1.949e-09
 73.88114    -47.0 1.461e+04 2.412e-09
 73.89098    -47.7 1.549e+04 4.076e-09
 73.90937    -48.6 1.575e+04 5.274e-09
 73.92905    -48.7 1.595e+04 6.233e-09
 73.94745    -48.7 1.599e+04 6.435e-09
 73.95729    -48.2 1.580e+04 6.332e-09
 73.96842    -47.9 1.543e+04 4.941e-09
 73.98811    -48.5 1.484e+04 3.250e-09
 74.00779    -50.4 1.415e+04 2.226e-09
 74.02748    -52.2 1.371e+04 1.853e-09
 74.04716    -53.4 1.361e+04 1.745e-09
 74.06685    -54.3 1.389e+04 1.841e-09
 74.08653    -55.0 1.412e+04 2.116e-09
 74.10622    -55.2 1.415e+04 2.461e-09
 74.12066    -55.1 1.406e+04 2.703e-09
 74.13050    -55.5 1.324e+04 1.645e-09
 74.14559    -55.4 1.311e+04 1.656e-09
 74.15807    -54.9 1.272e+04 1.605e-09
 74.16802    -53.9 1.294e+04 1.557e-09
 74.19500    -53.5 1.218e+04 1.218e-09
 74.23437    -52.7 1.146e+04 8.664e-10
 74.27374    -51.9 1.076e+04 5.824e-10
 74.31311    -51.1 1.037e+04 4.442e-10
 74.35052    -50.3 1.020e+04 3.945e-10
 74.37021    -50.3 1.005e+04 3.656e-10
 74.39185    -49.6 9.929e+03 3.286e-10
 74.43122    -48.9 9.827e+03 3.040e-10
 74.47059    -48.2 9.751e+03 2.843e-10
 74.50996    -47.7 9.677e+03 2.640e-10
 74.54933    -47.3 9.627e+03 2.453e-10
 74.56967    -46.8 9.653e+03 2.340e-10
 74.58936    -45.9 9.771e+03 2.614e-10
 74.62807    -45.3 9.868e+03 2.578e-10
 74.66744    -44.4 9.833e+03 2.182e-10
 74.70681    -43.2 9.710e+03 1.845e-10
 74.74618    -41.8 9.618e+03 1.648e-10
 74.78555    -40.4 9.599e+03 1.565e-10
 74.82492    -38.8 9.632e+03 1.564e-10
 74.84924    -37.3 9.663e+03 1.551e-10
 74.86892    -36.9 9.618e+03 1.360e-10
 74.90366    -35.3 9.744e+03 1.538e-10
 74.94303    -33.8 9.859e+03 1.735e-10
 74.97124    -32.2 9.944e+03 1.961e-10
 74.99092    -31.8 9.998e+03 1.993e-10
 75.02177    -30.2 1.001e+04 2.151e-10
 75.06114    -28.5 9.982e+03 2.187e-10
 75.10051    -26.6 9.819e+03 2.025e-10
 75.13988    -24.5 9.672e+03 1.592e-10
 75.17926    -22.6 9.560e+03 1.142e-10
 75.21863    -20.9 9.484e+03 8.132e-11
 75.25800    -19.4 9.427e+03 6.536e-11
 75.29737    -17.8 9.393e+03 6.121e-11
 75.32827    -16.2 9.493e+03 6.277e-11
 75.34795    -15.8 9.503e+03 7.783e-11
 75.37280    -14.5 9.604e+03 8.907e-11
 75.39248    -14.3 9.606e+03 8.856e-11
 75.41548    -12.9 9.735e+03 9.992e-11
 75.45485    -11.7 9.871e+03 1.121e-10
 75.49422    -10.3 9.889e+03 1.210e-10
 75.53359     -8.9 9.784e+03 1.171e-10
 75.57296     -7.6 9.874e+03 8.513e-11
 75.61233     -7.2 9.823e+03 6.571e-11
 75.65170     -7.1 9.723e+03 6.039e-11
 75.69107     -6.8 9.732e+03 7.068e-11
 75.73044     -6.1 9.839e+03 1.004e-10
 75.76981     -5.2 9.786e+03 1.399e-10
 75.79404     -3.8 9.610e+03 1.634e-10
 75.81184     -3.1 9.557e+03 1.513e-10
 75.82698     -3.5 9.748e+03 1.903e-10
 75.84855     -2.0 9.705e+03 1.690e-10
 75.88792     -1.0 9.979e+03 1.167e-10
 75.92729     -0.7 9.767e+03 9.267e-11
 75.96666     -0.2 9.604e+03 8.729e-11
 76.00603      0.1 9.677e+03 1.090e-10
 76.04540      0.0 1.007e+04 1.791e-10
 76.08477     -0.6 1.068e+04 3.721e-10
 76.12414     -0.2 1.113e+04 7.568e-10
 76.15357      0.4 1.100e+04 8.003e-10
 76.17316     -0.4 1.172e+04 7.096e-10
 76.19284     -2.6 1.207e+04 5.911e-10
 76.20525     -5.0 1.081e+04 5.463e-10
 76.21509     -4.5 1.097e+04 5.460e-10
 76.23221     -5.5 1.019e+04 5.348e-10
 76.25190     -5.4 1.022e+04 5.071e-10
 76.27158     -6.1 1.027e+04 3.947e-10
 76.29127     -6.4 1.024e+04 3.627e-10
 76.30582     -7.6 1.012e+04 3.126e-10
 76.32560     -8.3 1.016e+04 3.005e-10
 76.36036     -9.7 1.004e+04 3.277e-10
 76.38979    -10.0 1.006e+04 3.575e-10
 76.40603    -10.1 1.004e+04 3.738e-10
 76.41587    -10.2 1.019e+04 4.713e-10
 76.42907     -9.9 1.016e+04 5.482e-10
 76.44875     -9.6 1.019e+04 5.577e-10
 76.46844     -9.2 1.040e+04 5.639e-10
 76.48812     -9.4 1.047e+04 5.382e-10
 76.50781     -9.7 1.044e+04 5.341e-10
 76.52749     -9.8 1.049e+04 5.537e-10
 76.54533    -10.2 1.070e+04 6.479e-10
 76.55517    -11.2 1.065e+04 6.251e-10
 76.56686    -13.3 1.171e+04 9.230e-10
 76.58655    -15.7 1.309e+04 1.702e-09
 76.60623    -17.2 1.376e+04 3.032e-09
 76.61666    -17.2 1.434e+04 4.897e-09
 76.62650    -17.0 1.424e+04 4.464e-09
 76.64560    -16.7 1.479e+04 6.116e-09
 76.66529    -15.8 1.526e+04 6.846e-09
 76.68497    -15.8 1.523e+04 6.250e-09
 76.70466    -16.5 1.477e+04 4.354e-09
 76.72434    -18.5 1.364e+04 2.731e-09
 76.74403    -19.6 1.252e+04 1.868e-09
 76.76371    -19.9 1.189e+04 1.370e-09
 76.78340    -20.0 1.139e+04 1.000e-09
 76.79469    -20.3 1.100e+04 7.431e-10
 76.80453    -20.4 1.082e+04 6.400e-10
 76.81744    -20.8 1.057e+04 5.204e-10
 76.82728    -21.0 1.051e+04 5.044e-10
 76.84245    -21.4 1.034e+04 4.652e-10
 76.86214    -21.4 1.032e+04 4.629e-10
 76.88182    -21.3 1.047e+04 5.228e-10
 76.90151    -21.2 1.062e+04 6.330e-10
 76.92119    -20.9 1.083e+04 7.802e-10
 76.94088    -20.4 1.119e+04 9.900e-10
 76.96056    -19.9 1.162e+04 1.245e-09
 76.98025    -19.3 1.196e+04 1.467e-09
 76.99993    -18.7 1.216e+04 1.582e-09
 77.01822    -18.0 1.228e+04 1.621e-09
 77.02806    -18.1 1.195e+04 1.327e-09
 77.03420    -17.6 1.185e+04 1.214e-09
 77.04404    -18.0 1.129e+04 7.105e-10
 77.05899    -17.7 1.100e+04 5.348e-10
 77.07868    -17.2 1.081e+04 4.662e-10
 77.09836    -16.4 1.058e+04 3.783e-10
 77.11805    -16.1 1.044e+04 3.422e-10
 77.14767    -15.1 1.034e+04 3.267e-10
 77.18714    -14.2 1.024e+04 3.077e-10
 77.21657    -13.7 1.017e+04 3.319e-10
 77.22884    -13.7 1.015e+04 3.365e-10
 77.23868    -13.7 1.010e+04 3.282e-10
 77.25584    -12.6 1.027e+04 4.199e-10
 77.27372    -12.5 1.027e+04 4.353e-10
 77.28366    -12.6 1.004e+04 3.507e-10
 77.30525    -10.7 1.018e+04 3.793e-10
 77.34462     -9.6 1.007e+04 3.344e-10
 77.38399     -8.3 1.019e+04 3.498e-10
 77.41997     -6.9 1.010e+04 3.079e-10
 77.43966     -7.5 1.012e+04 3.021e-10
 77.46273     -6.4 1.004e+04 2.590e-10
 77.50210     -6.1 1.005e+04 2.360e-10
 77.54147     -5.9 1.019e+04 2.708e-10
 77.58084     -4.9 1.021e+04 3.399e-10
 77.62021     -3.6 1.021e+04 3.540e-10
 77.65958     -2.3 1.029e+04 2.781e-10
 77.69895     -2.5 1.015e+04 2.014e-10
 77.73832     -2.9 1.014e+04 2.093e-10
 77.76278     -4.0 1.039e+04 2.838e-10
 77.78247     -3.5 1.043e+04 2.727e-10
 77.81706     -3.3 1.061e+04 4.518e-10
 77.84122     -2.7 1.099e+04 6.713e-10
 77.86090     -3.6 1.134e+04 8.080e-10
 77.89580     -4.2 1.165e+04 7.640e-10
 77.93517     -5.4 1.169e+04 7.778e-10
 77.97454     -6.1 1.125e+04 7.324e-10
 78.00220     -5.8 1.106e+04 6.327e-10
 78.01194     -5.5 1.133e+04 7.970e-10
 78.02356     -6.7 1.146e+04 7.475e-10
 78.04180     -8.8 1.160e+04 6.705e-10
 78.05165     -9.8 1.180e+04 5.841e-10
 78.06293    -12.5 1.175e+04 7.661e-10
 78.08262    -13.6 1.152e+04 9.946e-10
 78.10230    -13.2 1.150e+04 1.228e-09
 78.12199    -12.1 1.149e+04 1.271e-09
 78.14167    -11.7 1.171e+04 1.084e-09
 78.16136    -12.4 1.171e+04 8.981e-10
 78.18104    -14.2 1.108e+04 7.324e-10
 78.20073    -14.4 1.088e+04 7.779e-10
 78.22041    -14.2 1.092e+04 8.142e-10
 78.24171    -13.2 1.079e+04 7.642e-10
 78.25404    -12.0 1.060e+04 7.272e-10
 78.26227    -12.2 1.093e+04 8.218e-10
 78.28941    -11.1 1.062e+04 6.549e-10
 78.32888     -9.1 1.016e+04 4.620e-10
 78.36825     -7.2 9.880e+03 3.276e-10
 78.40762     -5.4 9.710e+03 2.321e-10
 78.44699     -3.9 9.513e+03 1.851e-10
 78.48636     -2.9 9.820e+03 1.954e-10
 78.51579      0.2 9.834e+03 2.244e-10
 78.53538     -0.4 1.057e+04 3.099e-10
 78.55506     -1.1 1.118e+04 5.239e-10
 78.57475     -1.5 1.196e+04 9.194e-10
 78.59443     -1.1 1.266e+04 1.648e-09
 78.61412     -0.3 1.344e+04 2.593e-09
 78.63380      0.0 1.443e+04 3.446e-09
 78.65349     -0.5 1.567e+04 4.497e-09
 78.66383     -1.8 1.689e+04 5.267e-09
 78.67367     -3.0 1.737e+04 6.116e-09
 78.69286     -4.9 1.711e+04 4.843e-09
 78.71254     -7.0 1.584e+04 3.205e-09
 78.73049     -9.2 1.408e+04 1.788e-09
 78.74033     -4.8 1.656e+04 4.404e-09
 78.75191     -7.3 1.532e+04 1.928e-09
 78.77160    -12.5 1.318e+04 7.722e-10
 78.79128    -18.5 1.053e+04 6.057e-10
 78.81097    -20.5 1.073e+04 6.696e-10
 78.83065    -22.3 1.144e+04 9.447e-10
 78.85034    -24.6 1.207e+04 1.341e-09
 78.86461    -26.1 1.243e+04 1.813e-09
 78.87446    -27.4 1.281e+04 2.190e-09
 78.88971    -27.8 1.324e+04 2.699e-09
 78.90939    -28.3 1.351e+04 2.867e-09
 78.92908    -29.8 1.348e+04 2.723e-09
 78.94876    -31.2 1.300e+04 2.369e-09
 78.96845    -32.0 1.254e+04 2.146e-09
 78.97984    -32.2 1.212e+04 1.876e-09
 78.98969    -32.2 1.188e+04 1.587e-09
 79.00782    -32.0 1.145e+04 1.300e-09
 79.02750    -31.6 1.106e+04 1.031e-09
 79.04719    -31.4 1.073e+04 8.199e-10
 79.06539    -31.3 1.050e+04 6.660e-10
 79.07524    -31.8 1.049e+04 6.318e-10
 79.08656    -31.8 1.036e+04 5.479e-10
 79.10624    -31.7 1.027e+04 5.142e-10
 79.12593    -31.5 1.024e+04 5.043e-10
 79.14561    -31.2 1.025e+04 5.154e-10
 79.16530    -30.6 1.031e+04 5.468e-10
 79.18498    -30.1 1.040e+04 5.862e-10
 79.20467    -29.6 1.055e+04 6.347e-10
 79.21936    -29.2 1.079e+04 6.951e-10
 79.22920    -28.9 1.070e+04 6.753e-10
 79.24404    -28.7 1.093e+04 7.278e-10
 79.26373    -28.5 1.117e+04 8.034e-10
 79.27602    -28.5 1.135e+04 9.169e-10
 79.28586    -29.3 1.152e+04 9.700e-10
 79.30310    -29.2 1.174e+04 1.185e-09
 79.32278    -28.7 1.200e+04 1.468e-09
 79.34247    -28.2 1.227e+04 1.776e-09
 79.36215    -27.7 1.255e+04 2.071e-09
 79.38184    -27.3 1.281e+04 2.345e-09
 79.40152    -27.1 1.307e+04 2.593e-09
 79.42121    -26.9 1.339e+04 2.896e-09
 79.44089    -26.7 1.378e+04 3.258e-09
 79.45887    -26.2 1.426e+04 3.614e-09
 79.46872    -27.0 1.420e+04 3.279e-09
 79.47680    -26.8 1.430e+04 3.316e-09
 79.48664    -27.9 1.405e+04 2.934e-09
 79.49995    -27.7 1.401e+04 2.836e-09
 79.51963    -27.8 1.404e+04 2.802e-09
 79.53932    -28.0 1.406e+04 2.803e-09
 79.55900    -28.2 1.417e+04 3.084e-09
 79.57869    -28.0 1.432e+04 3.555e-09
 79.59837    -27.3 1.454e+04 4.061e-09
 79.61806    -26.3 1.495e+04 4.614e-09
 79.63774    -25.5 1.507e+04 4.784e-09
 79.65743    -24.5 1.522e+04 4.870e-09
 79.67711    -23.3 1.512e+04 4.525e-09
 79.68742    -22.2 1.481e+04 3.925e-09
 79.69726    -23.7 1.323e+04 2.696e-09
 79.70823    -22.7 1.269e+04 2.261e-09
 79.71807    -22.7 1.267e+04 2.119e-09
 79.73617    -21.7 1.219e+04 1.783e-09
 79.75585    -20.7 1.196e+04 1.534e-09
 79.77554    -20.0 1.187e+04 1.332e-09
 79.79522    -19.2 1.185e+04 1.190e-09
 79.81491    -18.3 1.182e+04 1.128e-09
 79.83459    -17.4 1.175e+04 1.078e-09
 79.85428    -16.2 1.170e+04 1.042e-09
 79.87396    -14.9 1.173e+04 1.035e-09
 79.88820    -13.9 1.177e+04 1.048e-09
 79.89804    -14.1 1.160e+04 9.637e-10
 79.91333    -13.1 1.162e+04 9.359e-10
 79.93302    -12.2 1.175e+04 9.813e-10
 79.94775    -11.7 1.193e+04 1.130e-09
 79.95759    -11.5 1.160e+04 1.071e-09
 79.97239    -10.7 1.182e+04 1.229e-09
 79.99208    -10.3 1.229e+04 1.343e-09
 80.01176    -10.0 1.235e+04 1.723e-09
 80.03145     -9.6 1.280e+04 1.976e-09
 80.05113     -9.0 1.313e+04 2.290e-09
 80.07082     -8.2 1.351e+04 2.660e-09
 80.08898     -7.3 1.392e+04 2.817e-09
 80.09882     -8.3 1.420e+04 3.177e-09
 80.11019     -7.5 1.394e+04 3.053e-09
 80.12987     -6.9 1.342e+04 2.916e-09
 80.14956     -6.4 1.327e+04 2.597e-09
 80.16924     -5.8 1.348e+04 2.425e-09
 80.18726     -5.4 1.373e+04 2.323e-09
 80.19710     -5.0 1.251e+04 1.454e-09
 80.20861     -4.6 1.324e+04 1.283e-09
 80.22830     -3.9 1.279e+04 1.346e-09
 80.24798     -3.3 1.275e+04 1.375e-09
 80.26767     -3.0 1.309e+04 1.524e-09
 80.28735     -3.5 1.407e+04 1.879e-09
 80.29960     -4.2 1.475e+04 2.420e-09
 80.30945     -6.3 1.394e+04 3.221e-09
 80.32672     -5.7 1.355e+04 4.079e-09
 80.34641     -4.8 1.379e+04 4.902e-09
 80.36609     -4.0 1.441e+04 5.902e-09
 80.38578     -2.8 1.493e+04 6.991e-09
 80.40546     -1.4 1.546e+04 7.339e-09
 80.42515     -1.0 1.583e+04 7.390e-09
 80.43662     -1.1 1.550e+04 6.586e-09
 80.44646     -0.7 1.506e+04 5.267e-09
 80.46452     -0.9 1.425e+04 4.396e-09
 80.48420     -0.6 1.349e+04 3.697e-09
 80.50039      0.2 1.309e+04 3.216e-09
 80.51023      0.0 1.255e+04 2.258e-09
 80.52357      1.3 1.239e+04 1.949e-09
 80.54326      2.0 1.226e+04 1.685e-09
 80.56294      2.4 1.206e+04 1.443e-09
 80.58263      2.7 1.185e+04 1.304e-09
 80.60231      3.0 1.183e+04 1.305e-09
 80.62200      3.0 1.196e+04 1.405e-09
 80.64168      3.5 1.204e+04 1.584e-09
 80.66137      4.2 1.241e+04 1.955e-09
 80.67613      4.7 1.305e+04 2.550e-09
 80.68597      4.9 1.287e+04 2.279e-09
 80.70074      4.9 1.372e+04 3.112e-09
 80.71101      4.7 1.478e+04 4.493e-09
 80.72085      4.6 1.478e+04 4.621e-09
 80.74011      4.4 1.583e+04 6.608e-09
 80.75980      4.5 1.659e+04 9.109e-09
 80.77948      5.0 1.708e+04 1.170e-08
 80.79917      5.3 1.746e+04 1.390e-08
 80.81885      5.5 1.763e+04 1.535e-08
 80.83854      5.3 1.761e+04 1.620e-08
 80.85822      5.7 1.699e+04 1.443e-08
 80.87791      6.7 1.596e+04 1.083e-08
 80.89759      7.9 1.487e+04 7.390e-09
 80.91179      9.2 1.408e+04 4.987e-09
 80.92000      9.2 1.438e+04 5.669e-09
 80.92549      9.1 1.442e+04 5.805e-09
 80.93696      9.3 1.390e+04 4.172e-09
 80.95665      9.7 1.317e+04 2.849e-09
 80.97633      9.5 1.262e+04 2.101e-09
 81.00596     10.4 1.146e+04 1.195e-09
 81.04543     12.5 1.063e+04 7.841e-10
 81.08480     15.2 1.018e+04 6.333e-10
 81.11277     18.4 1.017e+04 6.044e-10
 81.13245     18.2 1.100e+04 7.764e-10
 81.15360     20.4 1.061e+04 6.350e-10
 81.16500     21.1 1.116e+04 6.168e-10
 81.17485     20.9 1.108e+04 5.952e-10
 81.19287     20.4 1.261e+04 6.944e-10
 81.21255     19.2 1.484e+04 1.127e-09
 81.23224     17.8 1.644e+04 2.307e-09
 81.25192     17.3 1.716e+04 4.993e-09
 81.27161     17.8 1.846e+04 1.132e-08
 81.28471     17.6 1.937e+04 1.868e-08
 81.28958     16.9 1.972e+04 2.101e-08
 81.29612     17.3 2.044e+04 3.447e-08
 81.30596     18.0 2.091e+04 5.341e-08
 81.31580     18.7 2.114e+04 7.427e-08
 81.32310     19.4 2.143e+04 9.705e-08
 81.32802     18.9 2.149e+04 1.017e-07
 81.33549     19.3 2.147e+04 1.153e-07
 81.34533     19.7 2.153e+04 1.083e-07
 81.35517     19.6 2.153e+04 9.627e-08
 81.36502     19.2 2.178e+04 8.352e-08
 81.37486     17.9 2.209e+04 7.251e-08
 81.38470     16.9 2.182e+04 5.826e-08
 81.39454     16.0 2.112e+04 4.552e-08
 81.40439     16.0 2.038e+04 3.568e-08
 81.41423     15.6 1.942e+04 2.669e-08
 81.42349     15.9 1.912e+04 2.206e-08
 81.42841     15.6 1.847e+04 1.674e-08
 81.43391     15.5 1.834e+04 1.571e-08
 81.44873     16.4 1.811e+04 1.505e-08
 81.46846     17.1 1.751e+04 1.195e-08
 81.48815     17.2 1.717e+04 9.947e-09
 81.50783     17.2 1.692e+04 8.409e-09
 81.52397     17.4 1.675e+04 7.061e-09
 81.53382     17.1 1.547e+04 2.867e-09
 81.54720     16.8 1.520e+04 2.279e-09
 81.56689     16.8 1.460e+04 1.802e-09
 81.58657     16.7 1.360e+04 1.439e-09
 81.60626     16.7 1.242e+04 1.186e-09
 81.62594     16.9 1.153e+04 1.027e-09
 81.64403     17.6 1.121e+04 9.152e-10
 81.65387     18.0 1.166e+04 1.040e-09
 81.66531     18.6 1.113e+04 8.660e-10
 81.68500     19.3 1.106e+04 7.448e-10
 81.70468     19.9 1.102e+04 6.605e-10
 81.72437     20.3 1.093e+04 6.267e-10
 81.73460     20.8 1.081e+04 6.190e-10
 81.74444     21.0 1.063e+04 4.926e-10
 81.76374     21.5 1.058e+04 4.977e-10
 81.78342     22.3 1.050e+04 5.181e-10
 81.80311     22.8 1.054e+04 5.660e-10
 81.83273     24.1 1.064e+04 6.418e-10
 81.87220     25.9 1.034e+04 5.867e-10
 81.91157     28.0 9.962e+03 4.646e-10
 81.93557     29.9 9.597e+03 3.263e-10
 81.95526     30.3 9.568e+03 3.075e-10
 81.99031     32.0 9.311e+03 2.279e-10
 82.02968     33.6 9.121e+03 1.843e-10
 82.06905     35.6 9.105e+03 1.815e-10
 82.10842     37.6 9.110e+03 1.962e-10
 82.13310     39.9 9.369e+03 2.546e-10
 82.15278     39.8 9.540e+03 2.945e-10
 82.18716     41.9 9.925e+03 3.939e-10
 82.21659     42.7 1.015e+04 4.611e-10
 82.23618     43.2 1.035e+04 5.468e-10
 82.25587     43.9 1.050e+04 6.320e-10
 82.27555     44.8 1.067e+04 6.714e-10
 82.29524     45.7 1.070e+04 6.650e-10
 82.31492     46.4 1.077e+04 6.320e-10
 82.33461     46.9 1.084e+04 5.560e-10
 82.34678     47.0 1.086e+04 4.645e-10
 82.35662     45.9 1.076e+04 3.698e-10
 82.38392     45.6 1.052e+04 2.897e-10
 82.42338     46.1 1.027e+04 2.295e-10
 82.46275     46.7 1.010e+04 2.108e-10
 82.50212     47.6 1.011e+04 2.156e-10
 82.54150     48.6 1.021e+04 2.392e-10
 82.58087     49.8 1.041e+04 2.706e-10
 82.61213     51.0 1.058e+04 2.732e-10
 82.63181     51.2 1.048e+04 2.530e-10
 82.64967     52.1 1.049e+04 2.355e-10
 82.66925     52.5 1.048e+04 2.216e-10
 82.68894     53.4 1.050e+04 2.219e-10
 82.70862     53.7 1.070e+04 2.376e-10
 82.72831     53.2 1.144e+04 3.009e-10
 82.74799     50.3 1.327e+04 6.399e-10
 82.75819     46.9 1.501e+04 2.080e-09
 82.76803     47.6 1.452e+04 1.675e-09
 82.78736     47.8 1.662e+04 5.917e-09
 82.80705     48.5 1.855e+04 1.442e-08
 82.82176     48.2 1.948e+04 2.075e-08
 82.83156     47.8 2.016e+04 2.602e-08
 82.84140     47.2 2.092e+04 2.751e-08
 82.85124     46.0 2.111e+04 2.672e-08
 82.85848     44.0 2.163e+04 2.401e-08
 82.86340     45.0 2.208e+04 3.310e-08
 82.86611     42.3 2.273e+04 2.740e-08
 82.87103     41.1 2.199e+04 2.011e-08
 82.88574     35.1 2.100e+04 1.182e-08
 82.90547     28.5 1.852e+04 6.568e-09
 82.92516     23.8 1.509e+04 3.284e-09
 82.94485     20.9 1.285e+04 1.651e-09
 82.95897     19.4 1.150e+04 8.493e-10
 82.96881     17.9 1.096e+04 6.512e-10
 82.98422     16.2 1.029e+04 3.672e-10
 83.00390     16.6 9.884e+03 2.357e-10
 83.02359     16.6 9.821e+03 2.200e-10
 83.05321     17.7 9.453e+03 1.564e-10
 83.09116     18.8 9.132e+03 1.030e-10
 83.11084     18.9 9.129e+03 1.054e-10
 83.13205     19.7 9.020e+03 8.605e-11
 83.15994     20.8 8.902e+03 8.264e-11
 83.17963     21.1 8.882e+03 7.820e-11
 83.21079     22.4 8.827e+03 7.942e-11
 83.25016     23.7 8.812e+03 8.418e-11
 83.28953     25.0 8.850e+03 9.204e-11
 83.32890     26.5 8.876e+03 1.049e-10
 83.36827     28.2 8.874e+03 1.138e-10
 83.40764     29.7 8.866e+03 1.141e-10
 83.44701     31.3 8.841e+03 1.121e-10
 83.48638     32.9 8.781e+03 1.072e-10
 83.52575     34.6 8.699e+03 1.005e-10
 83.56150     36.2 8.604e+03 9.407e-11
 83.58119     37.0 8.704e+03 1.091e-10
 83.58987     38.6 8.630e+03 9.934e-11
 83.60956     38.4 8.505e+03 7.406e-11
 83.64386     40.0 8.525e+03 7.438e-11
 83.68323     41.2 8.651e+03 8.213e-11
 83.72260     41.7 8.946e+03 1.200e-10
 83.76197     42.1 9.356e+03 2.219e-10
 83.80134     42.7 9.900e+03 4.136e-10
 83.84071     43.2 1.035e+04 5.885e-10
 83.88008     43.4 1.042e+04 5.936e-10
 83.91945     43.7 1.035e+04 5.268e-10
 83.95882     43.9 1.020e+04 3.881e-10
 83.98275     43.8 1.007e+04 2.795e-10
 84.00243     43.9 1.022e+04 3.498e-10
 84.03757     44.0 1.022e+04 3.506e-10
 84.06890     44.4 1.027e+04 3.767e-10
 84.08859     43.2 1.066e+04 5.317e-10
 84.11631     43.9 1.072e+04 5.933e-10
 84.15568     44.8 1.071e+04 6.221e-10
 84.18343     45.5 1.064e+04 6.121e-10
 84.19318     45.7 1.057e+04 6.027e-10
 84.20469     46.0 1.056e+04 6.130e-10
 84.22438     46.3 1.056e+04 6.338e-10
 84.24406     46.6 1.061e+04 6.629e-10
 84.26375     46.8 1.064e+04 6.933e-10
 84.28343     47.0 1.064e+04 7.074e-10
 84.30312     47.0 1.059e+04 6.810e-10
 84.31806     47.1 1.051e+04 6.492e-10
 84.32790     46.3 1.024e+04 5.178e-10
 84.34249     46.3 1.018e+04 5.022e-10
 84.36217     46.3 1.015e+04 4.938e-10
 84.38186     46.3 1.016e+04 4.927e-10
 84.39396     46.3 1.021e+04 4.986e-10
 84.40380     46.5 1.006e+04 4.611e-10
 84.42123     46.6 1.011e+04 4.675e-10
 84.44092     46.6 1.016e+04 4.753e-10
 84.46060     46.7 1.018e+04 4.801e-10
 84.48029     46.9 1.020e+04 4.913e-10
 84.49997     47.0 1.024e+04 5.134e-10
 84.51966     46.8 1.043e+04 5.670e-10
 84.53934     46.2 1.089e+04 6.986e-10
 84.55758     45.1 1.144e+04 9.576e-10
 84.56742     44.3 1.140e+04 9.667e-10
 84.57871     44.3 1.146e+04 1.330e-09
 84.59474     44.7 1.155e+04 1.400e-09
 84.60458     45.7 1.198e+04 1.690e-09
 84.61808     46.4 1.189e+04 1.638e-09
 84.63777     47.2 1.161e+04 1.407e-09
 84.65745     47.3 1.123e+04 9.672e-10
 84.67714     46.5 1.095e+04 5.440e-10
 84.69682     43.3 1.043e+04 3.282e-10
 84.71651     39.1 1.005e+04 3.175e-10
 84.73619     34.8 1.010e+04 3.802e-10
 84.75588     31.4 1.061e+04 6.383e-10
 84.77556     29.4 1.109e+04 9.772e-10
 84.79525     27.8 1.134e+04 1.095e-09
 84.80536     26.0 1.131e+04 1.032e-09
 84.80721     26.1 1.179e+04 1.182e-09
 84.81678     27.4 1.148e+04 1.009e-09
 84.83462     25.0 1.133e+04 8.542e-10
 84.85430     22.1 1.101e+04 6.405e-10
 84.87399     18.6 1.071e+04 4.780e-10
 84.89367     14.8 1.083e+04 4.842e-10
 84.91336     10.7 1.140e+04 5.806e-10
 84.93304      7.3 1.200e+04 8.632e-10
 84.95273      5.7 1.208e+04 1.226e-09
 84.97241      5.5 1.207e+04 1.532e-09
 84.99210      5.6 1.194e+04 1.498e-09
 85.00614      5.9 1.166e+04 1.304e-09
 85.01599      5.2 1.226e+04 1.535e-09
 85.03147      4.3 1.259e+04 1.154e-09
 85.04645      2.2 1.290e+04 9.015e-10
 85.05629      2.7 1.195e+04 7.892e-10
 85.07084      0.8 1.146e+04 6.433e-10
 85.09052     -0.1 1.084e+04 5.762e-10
 85.11021     -0.0 1.054e+04 5.697e-10
 85.12990      0.6 1.045e+04 5.644e-10
 85.14958      1.2 1.045e+04 5.597e-10
 85.16927      2.9 1.020e+04 5.112e-10
 85.18895      2.9 1.028e+04 5.028e-10
 85.20702      4.9 9.737e+03 3.978e-10
 85.22680      5.4 9.615e+03 3.818e-10
 85.25804      7.6 9.574e+03 3.506e-10
 85.29741     10.3 9.555e+03 3.492e-10
 85.33678     13.2 9.662e+03 3.661e-10
 85.37615     15.9 9.883e+03 4.156e-10
 85.41552     18.5 1.023e+04 5.222e-10
 85.45490     21.0 1.112e+04 7.718e-10
 85.49427     23.0 1.245e+04 1.292e-09
 85.52370     23.2 1.325e+04 1.758e-09
 85.53532     23.2 1.373e+04 2.225e-09
 85.54516     22.7 1.337e+04 2.076e-09
 85.56297     22.6 1.364e+04 2.357e-09
 85.58265     21.7 1.411e+04 2.615e-09
 85.60234     19.6 1.456e+04 2.816e-09
 85.61833     17.1 1.435e+04 2.719e-09
 85.62817     18.7 1.607e+04 4.127e-09
 85.64171     16.7 1.535e+04 3.562e-09
 85.66139     15.2 1.402e+04 2.531e-09
 85.68108     13.8 1.264e+04 1.448e-09
 85.70076     10.7 1.207e+04 7.733e-10
 85.72045      6.5 1.165e+04 4.943e-10
 85.74013      3.7 1.072e+04 4.462e-10
 85.76976      4.1 1.036e+04 4.868e-10
 85.80923      6.3 9.909e+03 4.365e-10
 85.84860      9.2 9.660e+03 3.390e-10
 85.88797     11.7 9.445e+03 2.349e-10
 85.92734     13.9 9.309e+03 1.588e-10
 85.96671     15.8 9.159e+03 1.231e-10
 86.00470     17.9 9.013e+03 1.118e-10
 86.02439     19.1 9.077e+03 1.203e-10
 86.02993     21.2 8.995e+03 1.107e-10
 86.04961     20.8 9.068e+03 1.279e-10
 86.08482     22.9 9.116e+03 1.261e-10
 86.12419     24.9 9.155e+03 1.259e-10
 86.16356     26.8 9.184e+03 1.265e-10
 86.20293     28.7 9.163e+03 1.300e-10
 86.24230     30.7 9.114e+03 1.350e-10
 86.28167     32.8 9.092e+03 1.415e-10
 86.32104     34.8 9.097e+03 1.494e-10
 86.36041     36.8 9.129e+03 1.637e-10
 86.39978     38.6 9.202e+03 1.942e-10
 86.43149     40.6 9.336e+03 2.478e-10
 86.45117     40.5 9.506e+03 3.109e-10
 86.47852     42.6 9.720e+03 3.723e-10
 86.50342     44.6 9.855e+03 3.979e-10
 86.52310     44.8 9.785e+03 3.935e-10
 86.55726     46.6 9.871e+03 3.982e-10
 86.59663     48.3 9.868e+03 3.826e-10
 86.63600     49.8 9.878e+03 3.497e-10
 86.67537     51.1 9.921e+03 3.329e-10
 86.71474     52.2 1.002e+04 3.431e-10
 86.75411     52.8 1.024e+04 3.802e-10
 86.79348     53.2 1.049e+04 4.689e-10
 86.83285     53.6 1.073e+04 5.905e-10
 86.87222     53.3 1.103e+04 7.531e-10
 86.91159     53.6 1.100e+04 7.315e-10
 86.95097     54.0 1.086e+04 6.372e-10
 86.98244     54.3 1.066e+04 4.979e-10
 87.00213     53.8 1.061e+04 4.545e-10
 87.02971     54.0 1.041e+04 3.400e-10
 87.06908     54.2 1.022e+04 2.722e-10
 87.10845     54.9 1.019e+04 2.651e-10
 87.14782     55.7 1.021e+04 2.729e-10
 87.18719     56.6 1.031e+04 3.017e-10
 87.22656     57.7 1.046e+04 3.596e-10
 87.25430     58.8 1.066e+04 4.355e-10
 87.27398     58.0 1.089e+04 5.514e-10
 87.30530     59.1 1.111e+04 6.140e-10
 87.34467     60.0 1.127e+04 6.455e-10
 87.38404     60.9 1.141e+04 6.776e-10
 87.42341     61.8 1.152e+04 7.093e-10
 87.46147     62.9 1.162e+04 7.338e-10
 87.48116     62.8 1.176e+04 7.459e-10
 87.49221     63.3 1.177e+04 7.367e-10
 87.51180     63.4 1.188e+04 7.527e-10
 87.53148     63.5 1.204e+04 7.979e-10
 87.55117     63.7 1.210e+04 8.408e-10
 87.57085     64.0 1.209e+04 8.754e-10
 87.59054     64.4 1.206e+04 9.014e-10
 87.61022     65.0 1.203e+04 9.016e-10
 87.62991     65.7 1.197e+04 8.748e-10
 87.64959     66.6 1.194e+04 7.916e-10
 87.66550     67.4 1.194e+04 6.622e-10
 87.67535     67.5 1.188e+04 7.967e-10
 87.68896     68.3 1.196e+04 6.609e-10
 87.70865     68.9 1.207e+04 5.136e-10
 87.72048     69.1 1.209e+04 3.864e-10
 87.73032     67.9 1.173e+04 2.828e-10
 87.74802     67.8 1.156e+04 2.583e-10
 87.76770     68.4 1.126e+04 2.510e-10
 87.78739     68.6 1.114e+04 2.531e-10
 87.80707     69.4 1.109e+04 2.626e-10
 87.82676     69.7 1.109e+04 2.717e-10
 87.84644     70.6 1.112e+04 3.036e-10
 87.86613     71.0 1.117e+04 3.239e-10
 87.87613     71.7 1.124e+04 3.609e-10
 87.88597     71.7 1.124e+04 3.612e-10
 87.90550     72.1 1.130e+04 3.906e-10
 87.92518     72.7 1.139e+04 4.425e-10
 87.94487     73.2 1.152e+04 5.124e-10
 87.95999     73.7 1.165e+04 5.938e-10
 87.96984     73.8 1.142e+04 4.520e-10
 87.98424     74.2 1.153e+04 5.088e-10
 88.00392     74.6 1.167e+04 5.786e-10
 88.02361     75.0 1.181e+04 6.459e-10
 88.04329     75.3 1.195e+04 7.007e-10
 88.06298     75.4 1.206e+04 7.346e-10
 88.07691     75.5 1.212e+04 7.481e-10
 88.08675     75.2 1.220e+04 7.550e-10
 88.10235     75.0 1.222e+04 7.511e-10
 88.12204     74.8 1.221e+04 7.510e-10
 88.14172     74.6 1.222e+04 7.605e-10
 88.16141     74.3 1.228e+04 7.963e-10
 88.18109     73.9 1.239e+04 8.668e-10
 88.19951     73.5 1.254e+04 9.485e-10
 88.20935     74.7 1.264e+04 1.008e-09
 88.22046     74.2 1.282e+04 1.098e-09
 88.24015     73.5 1.284e+04 1.089e-09
 88.25983     72.6 1.276e+04 1.011e-09
 88.27769     71.6 1.251e+04 8.275e-10
 88.28753     70.8 1.239e+04 7.307e-10
 88.29920     69.4 1.213e+04 5.765e-10
 88.31889     67.7 1.175e+04 4.634e-10
 88.33857     66.0 1.146e+04 4.512e-10
 88.35826     63.7 1.174e+04 4.840e-10
 88.37794     58.2 1.375e+04 7.645e-10
 88.39763     52.7 1.562e+04 1.914e-09
 88.41731     49.4 1.611e+04 4.009e-09
 88.43700     48.0 1.630e+04 5.654e-09
 88.44886     47.3 1.645e+04 5.623e-09
 88.45871     45.9 1.748e+04 7.428e-09
 88.47637     45.1 1.730e+04 5.393e-09
 88.48831     43.6 1.654e+04 3.749e-09
 88.49815     43.3 1.637e+04 3.567e-09
 88.51574     42.1 1.549e+04 2.627e-09
 88.53542     41.5 1.464e+04 2.130e-09
 88.55511     41.7 1.398e+04 1.958e-09
 88.57479     42.6 1.372e+04 1.947e-09
 88.59448     43.8 1.359e+04 1.983e-09
 88.61416     45.1 1.352e+04 1.992e-09
 88.63385     46.3 1.354e+04 2.011e-09
 88.65353     47.5 1.366e+04 2.089e-09
 88.67322     48.4 1.385e+04 2.246e-09
 88.68838     49.2 1.409e+04 2.495e-09
 88.69441     49.3 1.351e+04 1.604e-09
 88.69893     48.6 1.356e+04 2.004e-09
 88.71259     49.6 1.394e+04 2.348e-09
 88.73227     49.6 1.444e+04 2.970e-09
 88.75196     49.3 1.504e+04 4.147e-09
 88.77164     49.3 1.583e+04 6.392e-09
 88.79133     50.0 1.676e+04 1.022e-08
 88.81102     50.7 1.748e+04 1.339e-08
 88.83070     51.1 1.760e+04 1.383e-08
 88.85039     52.0 1.731e+04 1.256e-08
 88.87007     53.2 1.671e+04 8.970e-09
 88.88976     53.7 1.602e+04 5.171e-09
 88.89972     53.2 1.528e+04 2.691e-09
 88.90956     52.5 1.461e+04 1.566e-09
 88.92789     50.2 1.297e+04 8.597e-10
 88.93774     51.8 1.412e+04 1.564e-09
 88.94881     49.9 1.267e+04 1.019e-09
 88.96850     49.5 1.163e+04 8.278e-10
 88.98818     50.0 1.113e+04 7.220e-10
 89.00787     50.7 1.095e+04 6.625e-10
 89.03749     52.5 1.091e+04 6.328e-10
 89.07696     54.1 1.052e+04 4.849e-10
 89.11633     55.4 1.022e+04 3.880e-10
 89.15570     56.9 9.995e+03 3.314e-10
 89.19507     58.5 9.844e+03 3.066e-10
 89.23444     60.5 9.841e+03 3.059e-10
 89.27381     62.5 9.871e+03 3.114e-10
 89.30137     63.8 9.908e+03 3.219e-10
 89.32106     64.2 9.848e+03 3.261e-10
 89.34261     65.4 9.986e+03 3.488e-10
 89.36220     66.1 1.031e+04 3.878e-10
 89.38188     66.4 1.097e+04 4.748e-10
 89.40157     66.2 1.186e+04 6.534e-10
 89.41676     65.8 1.282e+04 9.860e-10
 89.42661     65.6 1.399e+04 2.017e-09
 89.44094     65.6 1.485e+04 3.237e-09
 89.46062     66.1 1.555e+04 4.846e-09
 89.48031     67.1 1.611e+04 6.562e-09
 89.49999     67.9 1.636e+04 7.663e-09
 89.51190     68.3 1.630e+04 7.604e-09
 89.52174     67.6 1.601e+04 7.175e-09
 89.53937     68.1 1.565e+04 6.453e-09
 89.55905     68.6 1.514e+04 5.426e-09
 89.57874     68.6 1.464e+04 4.533e-09
 89.59842     68.3 1.428e+04 3.996e-09
 89.61811     68.2 1.423e+04 3.919e-09
 89.63779     68.0 1.426e+04 3.954e-09
 89.65628     67.8 1.445e+04 4.155e-09
 89.66612     68.3 1.402e+04 3.661e-09
 89.67716     67.5 1.472e+04 4.396e-09
 89.69685     65.5 1.631e+04 6.447e-09
 89.71268     63.6 1.798e+04 1.049e-08
 89.72252     63.8 1.751e+04 8.914e-09
 89.73622     62.0 1.896e+04 1.415e-08
 89.75093     60.6 1.977e+04 1.855e-08
 89.76073     59.2 2.049e+04 2.327e-08
 89.77057     57.9 2.100e+04 2.765e-08
 89.78041     56.5 2.131e+04 2.874e-08
 89.78578     55.2 2.133e+04 2.818e-08
 89.79070     55.6 2.193e+04 3.599e-08
 89.80010     54.2 2.203e+04 3.410e-08
 89.80994     52.5 2.207e+04 2.894e-08
 89.81789     50.3 2.191e+04 2.301e-08
 89.82282     51.1 2.179e+04 2.133e-08
 89.83459     46.9 2.053e+04 1.309e-08
 89.85433     41.2 1.837e+04 6.977e-09
 89.87401     35.0 1.552e+04 3.953e-09
 89.89370     29.7 1.324e+04 2.534e-09
 89.90564     26.4 1.226e+04 1.833e-09
 89.91548     25.6 1.104e+04 1.190e-09
 89.93307     24.8 1.133e+04 1.074e-09
 89.95275     22.7 1.086e+04 7.900e-10
 89.97244     21.5 1.020e+04 6.207e-10
 89.99212     20.9 9.690e+03 5.280e-10
 90.01181     20.8 9.398e+03 4.690e-10
 90.03149     20.8 9.309e+03 4.458e-10
 90.05118     21.1 9.267e+03 4.411e-10
 90.07086     21.2 9.253e+03 4.366e-10
 90.10049     21.9 9.138e+03 4.173e-10
 90.12428     23.4 8.987e+03 3.940e-10
 90.14396     23.3 9.005e+03 3.863e-10
 90.17933     25.2 8.629e+03 3.109e-10
 90.21870     26.8 8.296e+03 2.406e-10
 90.25807     28.2 8.001e+03 1.846e-10
 90.29744     29.5 7.831e+03 1.575e-10
 90.33681     31.0 7.835e+03 1.582e-10
 90.37502     32.4 7.916e+03 1.708e-10
 90.39470     32.3 7.643e+03 1.318e-10
 90.41555     33.6 7.875e+03 1.659e-10
 90.45492     35.0 8.133e+03 2.103e-10
 90.49429     36.2 8.392e+03 2.493e-10
 90.52584     37.0 8.541e+03 2.619e-10
 90.54553     37.5 8.859e+03 3.334e-10
 90.57303     38.1 8.859e+03 3.323e-10
 90.61240     38.5 8.827e+03 3.271e-10
 90.65177     39.1 8.728e+03 3.082e-10
 90.69114     39.9 8.566e+03 2.690e-10
 90.73051     40.9 8.361e+03 2.147e-10
 90.76988     41.8 8.158e+03 1.595e-10
 90.80925     42.5 8.023e+03 1.237e-10
 90.84862     43.3 8.009e+03 1.195e-10
 90.87373     44.2 8.063e+03 1.255e-10
 90.89342     43.6 8.055e+03 1.228e-10
 90.92736     44.1 8.257e+03 1.458e-10
 90.96673     45.0 9.092e+03 3.048e-10
 91.00610     45.5 9.342e+03 3.548e-10
 91.04547     45.9 9.499e+03 3.874e-10
 91.07490     46.1 9.583e+03 3.884e-10
 91.09449     46.0 9.591e+03 3.932e-10
 91.11305     45.9 9.599e+03 3.975e-10
 91.12289     45.3 9.587e+03 3.991e-10
 91.13386     45.1 9.653e+03 4.088e-10
 91.14767     44.6 9.761e+03 4.377e-10
 91.15751     44.1 1.009e+04 5.388e-10
 91.17323     43.2 1.038e+04 6.488e-10
 91.19292     42.5 1.064e+04 7.884e-10
 91.21260     41.8 1.090e+04 9.343e-10
 91.23229     41.0 1.118e+04 1.079e-09
 91.25197     39.9 1.154e+04 1.254e-09
 91.27166     38.4 1.189e+04 1.470e-09
 91.29134     37.1 1.204e+04 1.610e-09
 91.31103     36.1 1.197e+04 1.595e-09
 91.33071     35.6 1.176e+04 1.427e-09
 91.34845     35.2 1.150e+04 1.050e-09
 91.35830     34.1 1.138e+04 8.251e-10
 91.36241     32.2 1.102e+04 5.021e-10
 91.37225     32.2 1.099e+04 4.966e-10
 91.39971     29.3 1.031e+04 2.935e-10
 91.43918     26.9 9.763e+03 2.047e-10
 91.47855     25.5 9.618e+03 2.011e-10
 91.51792     25.0 9.553e+03 1.987e-10
 91.55729     25.1 9.423e+03 1.869e-10
 91.59666     25.5 9.264e+03 1.538e-10
 91.63603     25.9 9.120e+03 1.150e-10
 91.67540     26.2 8.971e+03 9.347e-11
 91.71477     26.8 8.941e+03 9.308e-11
 91.75021     27.6 8.940e+03 1.008e-10
 91.76989     27.4 8.963e+03 1.076e-10
 91.79351     28.5 9.041e+03 1.261e-10
 91.83179     29.7 9.120e+03 1.325e-10
 91.85148     30.2 9.145e+03 1.347e-10
 91.87225     31.4 9.155e+03 1.327e-10
 91.91162     32.6 9.143e+03 1.199e-10
 91.95099     33.6 9.106e+03 9.713e-11
 91.99036     34.3 9.045e+03 7.687e-11
 92.02973     34.9 8.903e+03 7.005e-11
 92.06910     35.6 8.894e+03 7.097e-11
 92.10847     36.3 8.955e+03 7.708e-11
 92.14784     37.0 9.051e+03 9.794e-11
 92.17146     37.7 9.269e+03 1.455e-10
 92.19114     37.7 9.221e+03 1.349e-10
 92.22658     38.1 9.543e+03 2.077e-10
 92.26595     38.5 9.941e+03 3.068e-10
 92.30532     38.6 1.020e+04 3.827e-10
 92.33050     38.6 1.029e+04 4.096e-10
 92.35019     39.4 1.011e+04 3.517e-10
 92.38406     39.2 1.022e+04 3.664e-10
 92.42343     38.9 1.026e+04 3.798e-10
 92.46280     38.4 1.026e+04 4.021e-10
 92.50217     38.0 1.034e+04 4.612e-10
 92.54154     37.7 1.039e+04 5.089e-10
 92.57302     37.4 1.044e+04 5.217e-10
 92.59270     37.2 1.022e+04 4.531e-10
 92.62028     37.1 1.029e+04 4.653e-10
 92.65965     37.2 1.025e+04 4.307e-10
 92.69902     37.3 1.012e+04 3.542e-10
 92.73839     37.3 9.888e+03 2.726e-10
 92.77776     37.1 9.566e+03 2.195e-10
 92.80953     36.7 9.385e+03 1.941e-10
 92.82922     38.0 9.501e+03 1.964e-10
 92.85651     36.9 9.286e+03 1.739e-10
 92.89588     36.1 9.267e+03 1.732e-10
 92.93525     35.5 9.334e+03 1.849e-10
 92.97458     35.5 9.478e+03 2.283e-10
 93.01395     35.7 9.449e+03 2.263e-10
 93.05336     36.3 9.466e+03 2.260e-10
 93.09273     37.1 9.441e+03 2.145e-10
 93.13210     38.1 9.370e+03 1.796e-10
 93.17147     39.2 9.276e+03 1.352e-10
 93.21084     40.4 9.168e+03 9.894e-11
 93.25021     41.5 9.030e+03 8.092e-11
 93.28856     43.1 8.968e+03 7.924e-11
 93.30825     43.3 9.000e+03 7.823e-11
 93.32895     45.1 8.992e+03 7.919e-11
 93.36832     47.0 9.011e+03 8.553e-11
 93.39582     48.9 9.125e+03 1.030e-10
 93.41551     49.2 9.129e+03 1.025e-10
 93.44706     50.8 9.363e+03 1.374e-10
 93.48643     52.2 9.668e+03 1.973e-10
 93.52580     53.7 1.003e+04 2.796e-10
 93.56517     54.9 1.032e+04 3.469e-10
 93.60454     55.7 1.058e+04 3.870e-10
 93.64391     56.3 1.073e+04 4.023e-10
 93.67334     56.7 1.082e+04 4.280e-10
 93.69293     56.9 1.085e+04 4.326e-10
 93.71261     57.2 1.086e+04 4.237e-10
 93.73230     57.5 1.088e+04 4.119e-10
 93.75198     57.7 1.090e+04 4.102e-10
 93.77167     57.8 1.094e+04 4.138e-10
 93.78708     57.7 1.102e+04 4.331e-10
 93.79692     57.5 1.118e+04 5.436e-10
 93.80703     57.4 1.124e+04 5.913e-10
 93.81688     57.6 1.125e+04 6.824e-10
 93.83072     57.7 1.135e+04 7.857e-10
 93.85041     58.0 1.148e+04 8.919e-10
 93.87009     58.4 1.161e+04 9.436e-10
 93.88978     58.8 1.164e+04 9.359e-10
 93.90946     59.1 1.165e+04 8.931e-10
 93.92915     59.2 1.159e+04 8.138e-10
 93.94884     59.1 1.151e+04 7.296e-10
 93.96852     58.8 1.141e+04 6.566e-10
 93.98821     58.5 1.130e+04 5.997e-10
 94.00781     58.3 1.117e+04 5.602e-10
 94.02652     58.6 1.100e+04 5.253e-10
 94.03644     59.0 1.098e+04 5.196e-10
 94.04726     59.0 1.098e+04 5.137e-10
 94.06695     58.9 1.100e+04 5.160e-10
 94.08663     58.8 1.105e+04 5.276e-10
 94.10632     58.4 1.114e+04 5.552e-10
 94.12600     57.9 1.127e+04 6.048e-10
 94.14569     57.2 1.154e+04 6.979e-10
 94.16537     56.0 1.197e+04 8.706e-10
 94.18506     54.5 1.252e+04 1.165e-09
 94.20474     52.2 1.328e+04 1.669e-09
 94.21844     49.3 1.425e+04 2.472e-09
 94.22828     50.3 1.400e+04 2.117e-09
 94.24411     47.1 1.487e+04 3.283e-09
 94.26380     44.3 1.479e+04 3.661e-09
 94.27595     42.4 1.442e+04 3.436e-09
 94.28580     42.3 1.508e+04 4.576e-09
 94.30317     41.6 1.406e+04 3.319e-09
 94.32285     41.1 1.287e+04 1.952e-09
 94.35248     40.4 1.177e+04 8.906e-10
 94.39195     38.4 9.802e+03 2.346e-10
 94.43132     37.8 9.325e+03 1.234e-10
 94.47069     38.6 9.060e+03 1.113e-10
 94.51006     40.5 9.034e+03 1.114e-10
 94.54943     42.4 9.056e+03 1.184e-10
 94.58880     44.0 9.146e+03 1.444e-10
 94.62019     45.5 9.321e+03 1.865e-10
 94.63988     46.0 9.341e+03 1.828e-10
 94.66754     47.4 9.639e+03 2.361e-10
 94.70691     48.5 9.869e+03 2.470e-10
 94.74533     49.0 9.903e+03 2.322e-10
 94.76502     49.3 1.010e+04 2.535e-10
 94.78565     49.4 1.002e+04 2.164e-10
 94.82502     49.1 9.769e+03 2.014e-10
 94.86439     48.6 9.722e+03 2.079e-10
 94.90376     48.0 9.836e+03 2.429e-10
 94.94313     47.7 1.002e+04 3.146e-10
 94.98250     47.8 1.013e+04 3.791e-10
 95.02176     47.9 1.013e+04 3.770e-10
 95.06113     48.3 9.868e+03 2.892e-10
 95.10061     48.8 9.684e+03 2.332e-10
 95.13998     49.2 9.500e+03 1.984e-10
 95.17935     49.9 9.481e+03 1.997e-10
 95.21872     50.8 9.529e+03 2.224e-10
 95.24405     51.9 9.740e+03 2.809e-10
 95.26373     52.1 9.702e+03 2.772e-10
 95.29746     53.2 9.942e+03 3.364e-10
 95.33683     54.2 1.002e+04 3.401e-10
 95.37620     55.2 9.973e+03 3.134e-10
 95.41557     56.3 9.832e+03 2.450e-10
 95.44300     57.2 9.644e+03 1.760e-10
 95.46269     57.9 9.531e+03 1.781e-10
 95.49431     58.7 9.428e+03 1.334e-10
 95.53368     59.3 9.484e+03 1.031e-10
 95.57305     59.9 9.516e+03 1.034e-10
 95.61242     60.5 9.559e+03 1.132e-10
 95.65179     61.3 9.624e+03 1.432e-10
 95.69116     62.2 9.711e+03 1.881e-10
 95.72308     63.2 9.766e+03 2.310e-10
 95.74276     63.2 9.714e+03 2.029e-10
 95.76991     64.4 9.692e+03 1.891e-10
 95.80928     65.4 9.668e+03 1.704e-10
 95.84456     66.5 9.669e+03 1.676e-10
 95.86425     67.0 9.724e+03 1.989e-10
 95.88802     68.0 9.745e+03 2.010e-10
 95.92739     69.1 9.833e+03 2.180e-10
 95.96676     70.2 9.961e+03 2.506e-10
 96.00613     71.3 1.010e+04 2.746e-10
 96.04550     72.3 1.013e+04 2.744e-10
 96.08487     73.4 1.015e+04 2.595e-10
 96.12424     74.5 1.015e+04 2.257e-10
 96.16361     75.7 1.013e+04 1.886e-10
 96.20211     77.0 1.012e+04 1.564e-10
 96.22179     77.5 1.008e+04 1.414e-10
 96.24235     78.7 1.009e+04 1.223e-10
 96.26581     80.0 1.015e+04 1.072e-10
 96.28549     80.7 1.011e+04 1.110e-10
 96.32109     82.1 1.021e+04 1.003e-10
 96.36046     83.5 1.028e+04 9.404e-11
 96.39983     84.9 1.033e+04 9.334e-11
 96.43920     86.3 1.039e+04 9.484e-11
 96.47857     87.7 1.047e+04 1.019e-10
 96.51794     89.2 1.050e+04 1.194e-10
 96.55731     90.6 1.051e+04 1.493e-10
 96.59668     92.0 1.060e+04 1.926e-10
 96.63605     93.2 1.077e+04 2.448e-10
 96.66737     94.2 1.100e+04 3.004e-10
 96.68706     95.1 1.121e+04 3.378e-10
 96.70072     95.3 1.135e+04 3.889e-10
 96.71047     95.2 1.151e+04 4.764e-10
 96.72444     95.4 1.148e+04 4.899e-10
 96.74412     95.6 1.146e+04 4.840e-10
 96.76381     95.9 1.138e+04 4.585e-10
 96.78349     96.3 1.132e+04 4.089e-10
 96.80318     96.5 1.128e+04 3.617e-10
 96.83280     96.9 1.132e+04 3.019e-10
 96.87227     97.3 1.106e+04 2.410e-10
 96.91164     97.8 1.083e+04 2.310e-10
 96.95101     98.5 1.082e+04 2.314e-10
 96.99038     99.3 1.080e+04 2.315e-10
 97.02975    100.0 1.076e+04 2.290e-10
 97.06893    100.8 1.073e+04 2.198e-10
 97.10830    102.2 1.081e+04 2.455e-10
 97.14786    102.4 1.108e+04 2.650e-10
 97.17985    102.3 1.127e+04 3.074e-10
 97.19954    102.8 1.115e+04 2.976e-10
 97.21666    102.4 1.136e+04 3.665e-10
 97.23625    102.0 1.171e+04 4.767e-10
 97.25594    100.9 1.237e+04 7.195e-10
 97.27562     99.3 1.324e+04 1.303e-09
 97.28920     97.9 1.410e+04 2.526e-09
 97.29904     98.8 1.369e+04 2.137e-09
 97.31499     97.7 1.427e+04 3.650e-09
 97.33468     96.9 1.475e+04 4.836e-09
 97.35436     96.1 1.485e+04 4.865e-09
 97.37405     95.5 1.479e+04 4.464e-09
 97.39373     94.9 1.449e+04 3.289e-09
 97.41342     93.7 1.406e+04 2.080e-09
 97.42901     92.3 1.351e+04 1.243e-09
 97.43885     92.1 1.349e+04 1.016e-09
 97.46273     89.5 1.251e+04 5.714e-10
 97.49018     87.3 1.119e+04 2.712e-10
 97.50986     90.4 1.191e+04 3.280e-10
 97.54157     88.4 1.081e+04 1.796e-10
 97.58094     88.0 1.047e+04 1.645e-10
 97.62031     88.2 1.044e+04 1.718e-10
 97.65888     88.6 1.048e+04 1.997e-10
 97.67856     88.9 1.043e+04 2.300e-10
 97.69905     89.4 1.059e+04 2.768e-10
 97.73842     89.9 1.078e+04 3.029e-10
 97.77779     90.2 1.102e+04 3.108e-10
 97.81716     90.5 1.123e+04 3.148e-10
 97.85653     90.6 1.146e+04 3.260e-10
 97.88596     90.7 1.162e+04 3.260e-10
 97.90139     90.3 1.181e+04 3.514e-10
 97.91123     91.6 1.180e+04 3.479e-10
 97.91788     90.8 1.195e+04 4.139e-10
 97.92773     90.7 1.190e+04 5.142e-10
 97.94492     90.1 1.191e+04 6.645e-10
 97.96460     89.9 1.192e+04 8.641e-10
 97.98429     90.0 1.199e+04 9.987e-10
 98.00397     90.1 1.198e+04 9.954e-10
 98.02366     90.1 1.195e+04 9.353e-10
 98.04334     89.8 1.189e+04 7.649e-10
 98.06303     88.9 1.177e+04 5.506e-10
 98.08271     87.5 1.150e+04 3.753e-10
 98.10217     86.1 1.110e+04 2.781e-10
 98.11201     87.8 1.148e+04 3.337e-10
 98.12208     86.3 1.094e+04 2.560e-10
 98.14177     85.8 1.072e+04 2.513e-10
 98.15740     85.9 1.071e+04 2.546e-10
 98.17718     86.5 1.063e+04 2.363e-10
 98.21086     86.7 1.072e+04 2.684e-10
 98.24029     86.7 1.096e+04 3.347e-10
 98.25988     86.5 1.134e+04 4.959e-10
 98.27956     86.3 1.186e+04 8.343e-10
 98.29925     86.3 1.250e+04 1.379e-09
 98.31279     86.3 1.321e+04 2.133e-09
 98.32263     86.9 1.277e+04 1.538e-09
 98.33862     86.8 1.353e+04 2.340e-09
 98.35831     86.3 1.433e+04 3.344e-09
 98.37799     85.6 1.507e+04 4.479e-09
 98.39691     84.6 1.568e+04 5.452e-09
 98.40676     85.5 1.557e+04 5.319e-09
 98.41736     84.5 1.579e+04 5.776e-09
 98.43705     83.2 1.564e+04 5.672e-09
 98.45673     82.0 1.521e+04 4.972e-09
 98.47642     80.8 1.465e+04 3.867e-09
 98.49610     79.4 1.410e+04 2.907e-09
 98.51357     78.0 1.369e+04 2.231e-09
 98.52341     77.9 1.424e+04 3.162e-09
 98.53547     76.6 1.381e+04 2.559e-09
 98.55516     75.7 1.336e+04 2.107e-09
 98.57484     75.0 1.293e+04 1.803e-09
 98.60447     74.8 1.229e+04 1.382e-09
 98.63662     74.8 1.150e+04 9.322e-10
 98.65631     75.0 1.138e+04 8.638e-10
 98.68331     75.1 1.069e+04 5.591e-10
 98.71455     75.2 1.011e+04 3.602e-10
 98.73423     74.9 1.016e+04 3.749e-10
 98.76205     75.1 9.758e+03 2.621e-10
 98.80142     75.6 9.515e+03 2.019e-10
 98.84079     76.2 9.377e+03 1.665e-10
 98.88016     77.0 9.280e+03 1.440e-10
 98.91953     77.6 9.206e+03 1.306e-10
 98.95890     78.2 9.134e+03 1.221e-10
 98.99827     78.8 9.080e+03 1.184e-10
 99.03764     79.3 9.002e+03 1.095e-10
 99.07701     79.6 8.885e+03 9.444e-11
 99.11565     79.8 8.730e+03 8.548e-11
 99.13507     79.3 8.743e+03 8.433e-11
 99.13579     79.4 8.845e+03 9.203e-11
 99.15575     79.8 8.852e+03 9.616e-11
 99.19512     79.7 8.989e+03 1.157e-10
 99.23449     78.7 9.838e+03 1.940e-10
 99.26392     78.0 1.016e+04 2.406e-10
 99.28351     76.2 1.081e+04 3.846e-10
 99.30319     74.5 1.137e+04 6.836e-10
 99.32288     73.6 1.167e+04 1.054e-09
 99.33638     73.0 1.188e+04 1.340e-09
 99.34622     73.1 1.207e+04 1.421e-09
 99.36225     72.5 1.207e+04 1.460e-09
 99.37466     71.7 1.201e+04 1.408e-09
 99.38450     70.7 1.186e+04 1.270e-09
 99.40162     70.0 1.163e+04 1.156e-09
 99.42130     68.8 1.121e+04 8.707e-10
 99.44099     68.0 1.084e+04 7.240e-10
 99.46067     66.8 1.033e+04 5.119e-10
 99.48036     65.8 9.933e+03 4.095e-10
 99.50998     65.0 9.477e+03 3.192e-10
 99.53735     63.5 8.890e+03 2.434e-10
 99.55704     63.7 9.013e+03 2.698e-10
 99.58882     62.9 8.970e+03 2.672e-10
 99.61437     62.3 8.959e+03 2.642e-10
 99.63405     60.7 8.936e+03 2.430e-10
 99.66756     60.0 8.884e+03 2.365e-10
 99.69699     60.4 8.796e+03 2.243e-10
 99.71658     60.2 8.809e+03 2.257e-10
 99.73626     59.5 8.986e+03 2.348e-10
 99.74778     56.5 1.046e+04 3.253e-10
 99.75763     57.3 1.001e+04 3.175e-10
 99.77563     49.7 1.341e+04 7.852e-10
 99.79532     42.0 1.494e+04 2.513e-09
 99.81500     40.9 1.525e+04 4.765e-09
 99.83469     41.0 1.507e+04 5.612e-09
 99.85368     41.1 1.496e+04 5.120e-09
 99.86353     39.7 1.425e+04 3.764e-09
 99.87406     36.9 1.444e+04 2.003e-09
 99.89375     28.7 1.350e+04 7.053e-10
 99.91343     15.9 1.219e+04 6.344e-10
 99.93312      2.9 1.380e+04 1.505e-09
 99.94856     -0.4 1.294e+04 2.948e-09
 99.95841     -0.3 1.312e+04 2.641e-09
 99.97249     -1.2 1.343e+04 4.154e-09
 99.99217     -2.4 1.411e+04 4.317e-09
