# Columns:
#   distance along LOS (in CHIMPs)
#   peculiar velocity  (in km/s)
#   temperature (K)
#   HI number density
# pos=(108.478,120.749,112.639), angles=(1.67336,4.82963)
  0.00987     -5.3 1.463e+04 5.461e-09
  0.02062     -4.2 1.480e+04 5.762e-09
  0.02534     -4.6 1.426e+04 3.930e-09
  0.03433     -4.4 1.459e+04 4.117e-09
  0.04939     -4.4 1.421e+04 3.412e-09
  0.06916     -5.6 1.341e+04 2.430e-09
  0.08893     -6.3 1.268e+04 1.732e-09
  0.10870     -7.3 1.200e+04 1.176e-09
  0.13845     -8.2 1.145e+04 8.822e-10
  0.17809     -8.2 1.072e+04 5.017e-10
  0.20517     -7.8 1.033e+04 3.856e-10
  0.22494     -7.4 1.030e+04 3.860e-10
  0.25717     -6.5 1.015e+04 3.087e-10
  0.29671     -5.8 1.016e+04 2.687e-10
  0.33625     -5.4 1.033e+04 2.665e-10
  0.36054     -5.5 1.037e+04 3.388e-10
  0.38031     -4.8 1.013e+04 2.845e-10
  0.41533     -3.9 1.015e+04 3.365e-10
  0.45487     -2.7 1.013e+04 3.541e-10
  0.49441     -1.5 1.007e+04 3.003e-10
  0.53395     -0.8 1.012e+04 2.179e-10
  0.57349     -1.0 1.006e+04 1.663e-10
  0.59364     -0.9 9.878e+03 1.521e-10
  0.61341     -1.6 9.853e+03 1.252e-10
  0.65257     -1.1 9.564e+03 1.268e-10
  0.68655      0.1 9.293e+03 1.203e-10
  0.70632      0.3 9.325e+03 1.294e-10
  0.73165      1.3 9.486e+03 9.095e-11
  0.77119      1.2 9.348e+03 7.497e-11
  0.81074      1.8 9.058e+03 7.253e-11
  0.85028      2.7 9.095e+03 6.814e-11
  0.88982      3.6 9.104e+03 6.848e-11
  0.92936      4.0 9.065e+03 7.671e-11
  0.96235      4.7 8.975e+03 9.992e-11
  0.98212      4.0 9.095e+03 9.914e-11
  1.00844      4.8 9.211e+03 1.491e-10
  1.03233      5.3 9.687e+03 2.337e-10
  1.05210      4.9 9.604e+03 1.854e-10
  1.08752      4.2 1.038e+04 3.309e-10
  1.11707      3.7 1.063e+04 5.514e-10
  1.13675      4.0 1.091e+04 6.699e-10
  1.16650      3.7 1.093e+04 7.763e-10
  1.20614      4.7 1.041e+04 5.259e-10
  1.24568      4.1 1.029e+04 2.158e-10
  1.28522      0.9 9.860e+03 1.037e-10
  1.32476     -0.1 9.249e+03 1.047e-10
  1.35082     -0.8 9.482e+03 1.281e-10
  1.36463     -3.7 9.943e+03 1.627e-10
  1.37811     -2.0 9.855e+03 1.752e-10
  1.40384     -3.0 9.998e+03 3.069e-10
  1.44338     -2.1 9.907e+03 4.959e-10
  1.48292     -1.8 1.006e+04 5.050e-10
  1.52246     -2.5 1.015e+04 4.150e-10
  1.56200     -3.5 9.772e+03 4.193e-10
  1.60154     -3.2 9.497e+03 4.570e-10
  1.64108     -1.8 9.247e+03 3.972e-10
  1.68062     -1.2 9.359e+03 2.683e-10
  1.70412     -1.9 9.137e+03 2.271e-10
  1.72325     -1.0 9.142e+03 1.925e-10
  1.73929     -2.8 8.755e+03 1.985e-10
  1.75970     -2.2 8.572e+03 1.983e-10
  1.79924     -0.9 8.425e+03 2.199e-10
  1.83878      0.7 8.382e+03 2.164e-10
  1.87832      2.4 8.253e+03 1.830e-10
  1.91786      4.0 8.077e+03 1.373e-10
  1.95740      4.9 7.927e+03 1.013e-10
  1.99694      6.2 7.949e+03 9.956e-11
  2.03013      5.6 8.284e+03 1.293e-10
  2.04990      6.1 8.251e+03 1.261e-10
  2.07602      6.0 8.657e+03 2.313e-10
  2.10799      6.6 9.189e+03 4.166e-10
  2.12776      6.2 9.230e+03 3.687e-10
  2.15511      6.0 9.496e+03 4.489e-10
  2.19465      5.4 9.291e+03 4.367e-10
  2.23419      5.6 8.933e+03 3.476e-10
  2.27373      4.8 8.949e+03 2.413e-10
  2.31327      2.9 9.323e+03 2.479e-10
  2.35281      0.7 9.474e+03 3.227e-10
  2.37592      0.8 9.491e+03 4.982e-10
  2.39569      1.8 9.547e+03 4.577e-10
  2.43189      2.3 9.694e+03 5.145e-10
  2.47143      2.3 9.843e+03 4.851e-10
  2.49647      1.5 1.024e+04 5.122e-10
  2.51624      0.3 1.131e+04 1.030e-09
  2.55051     -1.0 1.228e+04 1.450e-09
  2.58007     -1.8 1.225e+04 1.452e-09
  2.59974     -2.8 1.236e+04 1.547e-09
  2.61951     -3.2 1.243e+04 1.679e-09
  2.63928     -4.4 1.247e+04 1.748e-09
  2.65905     -5.2 1.240e+04 1.782e-09
  2.67882     -6.2 1.246e+04 1.886e-09
  2.69051     -7.6 1.268e+04 1.969e-09
  2.70039     -8.2 1.302e+04 2.333e-09
  2.71162    -10.0 1.311e+04 2.368e-09
  2.72150     -9.5 1.321e+04 2.272e-09
  2.73813    -11.9 1.317e+04 2.386e-09
  2.75790    -13.4 1.272e+04 2.293e-09
  2.77767    -14.0 1.224e+04 1.937e-09
  2.79744    -14.8 1.159e+04 1.326e-09
  2.81721    -17.1 1.078e+04 7.835e-10
  2.83698    -20.0 1.032e+04 5.003e-10
  2.85675    -23.1 9.713e+03 3.744e-10
  2.87462    -24.9 9.443e+03 3.425e-10
  2.88284    -24.9 9.335e+03 3.178e-10
  2.88474    -24.9 9.247e+03 3.024e-10
  2.90627    -26.1 9.109e+03 3.036e-10
  2.94591    -27.4 9.057e+03 3.128e-10
  2.98545    -28.8 8.985e+03 2.755e-10
  3.02499    -31.2 8.769e+03 1.941e-10
  3.04771    -34.2 8.677e+03 1.737e-10
  3.06748    -32.9 8.746e+03 1.802e-10
  3.10407    -35.9 8.788e+03 1.895e-10
  3.14361    -38.0 8.837e+03 2.538e-10
  3.18315    -40.0 9.227e+03 3.360e-10
  3.22269    -44.8 1.074e+04 5.194e-10
  3.25364    -51.8 1.253e+04 1.168e-09
  3.27331    -55.1 1.359e+04 2.461e-09
  3.29169    -56.5 1.379e+04 3.606e-09
  3.31146    -57.0 1.385e+04 3.862e-09
  3.33123    -57.5 1.376e+04 2.952e-09
  3.35100    -59.5 1.323e+04 1.190e-09
  3.37077    -65.8 1.162e+04 3.828e-10
  3.38341    -70.4 1.002e+04 2.252e-10
  3.39330    -70.6 1.007e+04 2.539e-10
  3.41031    -72.1 9.682e+03 2.281e-10
  3.43008    -72.4 9.677e+03 2.292e-10
  3.45984    -73.0 9.723e+03 2.347e-10
  3.49948    -73.7 9.757e+03 2.454e-10
  3.53902    -74.0 9.796e+03 2.651e-10
  3.57856    -74.2 9.741e+03 2.867e-10
  3.61810    -73.8 9.631e+03 2.935e-10
  3.64211    -73.2 9.411e+03 2.617e-10
  3.66188    -73.9 9.545e+03 3.089e-10
  3.69718    -72.7 9.134e+03 2.514e-10
  3.71950    -71.2 8.754e+03 1.641e-10
  3.73927    -71.4 8.823e+03 1.751e-10
  3.77626    -70.2 8.547e+03 1.184e-10
  3.81580    -69.2 8.480e+03 9.714e-11
  3.85534    -68.2 8.471e+03 9.393e-11
  3.89488    -67.2 8.513e+03 1.034e-10
  3.93442    -66.3 8.602e+03 1.422e-10
  3.97396    -64.9 8.695e+03 1.831e-10
  4.01081    -63.5 8.767e+03 2.008e-10
  4.03058    -63.7 8.724e+03 1.868e-10
  4.04551    -62.4 8.846e+03 2.065e-10
  4.06528    -62.6 8.961e+03 2.477e-10
  4.09258    -61.5 9.046e+03 2.646e-10
  4.13212    -60.6 9.122e+03 2.814e-10
  4.17166    -59.7 9.194e+03 3.106e-10
  4.21120    -58.7 9.266e+03 3.496e-10
  4.25074    -57.6 9.349e+03 3.930e-10
  4.29028    -56.5 9.446e+03 4.339e-10
  4.32982    -55.4 9.517e+03 4.616e-10
  4.36936    -54.3 9.551e+03 4.746e-10
  4.39130    -53.3 9.579e+03 4.865e-10
  4.40145    -53.4 1.009e+04 7.343e-10
  4.41906    -53.6 9.816e+03 6.436e-10
  4.44844    -52.6 9.966e+03 7.100e-10
  4.48798    -51.5 1.015e+04 7.675e-10
  4.52752    -50.4 1.020e+04 7.804e-10
  4.56706    -49.2 1.018e+04 7.495e-10
  4.60660    -47.9 1.002e+04 6.969e-10
  4.64614    -46.6 9.900e+03 6.543e-10
  4.68568    -45.1 9.765e+03 6.091e-10
  4.71731    -43.5 9.607e+03 5.471e-10
  4.73708    -43.7 9.420e+03 4.396e-10
  4.76477    -42.2 9.258e+03 3.819e-10
  4.78776    -40.8 9.162e+03 3.445e-10
  4.80753    -39.9 8.783e+03 2.496e-10
  4.84385    -38.6 8.788e+03 2.326e-10
  4.88339    -37.6 8.804e+03 2.302e-10
  4.92293    -36.8 8.963e+03 2.630e-10
  4.96247    -35.9 9.247e+03 3.428e-10
  5.00201    -35.1 9.714e+03 4.596e-10
  5.04155    -34.6 1.031e+04 6.227e-10
  5.06309    -34.5 1.087e+04 8.267e-10
  5.08286    -35.7 1.122e+04 1.118e-09
  5.12063    -35.1 1.158e+04 1.469e-09
  5.15646    -34.1 1.179e+04 1.628e-09
  5.17623    -34.6 1.236e+04 2.013e-09
  5.19971    -34.3 1.212e+04 1.729e-09
  5.23925    -33.9 1.199e+04 1.547e-09
  5.27879    -33.2 1.194e+04 1.397e-09
  5.30835    -32.5 1.188e+04 1.376e-09
  5.32802    -31.9 1.198e+04 1.392e-09
  5.34779    -31.2 1.207e+04 1.383e-09
  5.36039    -30.8 1.215e+04 1.327e-09
  5.37027    -31.5 1.174e+04 8.620e-10
  5.38733    -31.6 1.195e+04 9.080e-10
  5.39879    -32.1 1.220e+04 1.072e-09
  5.40867    -31.9 1.155e+04 8.492e-10
  5.42687    -32.4 1.196e+04 1.153e-09
  5.44664    -32.6 1.216e+04 1.592e-09
  5.46641    -32.5 1.241e+04 2.158e-09
  5.48618    -31.8 1.266e+04 2.739e-09
  5.50595    -30.9 1.289e+04 3.137e-09
  5.52572    -30.3 1.295e+04 3.225e-09
  5.54474    -29.7 1.280e+04 3.102e-09
  5.55462    -28.9 1.351e+04 3.824e-09
  5.56179    -28.6 1.309e+04 3.186e-09
  5.57168    -28.6 1.257e+04 2.047e-09
  5.58503    -28.6 1.228e+04 1.823e-09
  5.60480    -28.5 1.208e+04 1.708e-09
  5.62457    -28.2 1.204e+04 1.683e-09
  5.64434    -27.9 1.207e+04 1.712e-09
  5.66411    -27.6 1.235e+04 1.924e-09
  5.68388    -27.6 1.273e+04 2.299e-09
  5.70365    -27.9 1.330e+04 2.910e-09
  5.72342    -28.8 1.445e+04 4.216e-09
  5.73469    -30.5 1.596e+04 6.796e-09
  5.74035    -30.8 1.669e+04 4.349e-09
  5.74886    -31.0 1.769e+04 7.038e-09
  5.76296    -32.6 1.953e+04 1.087e-08
  5.78273    -33.8 2.093e+04 1.437e-08
  5.80250    -34.7 2.134e+04 1.523e-08
  5.82227    -35.3 2.064e+04 1.210e-08
  5.84204    -35.8 1.935e+04 7.091e-09
  5.86181    -37.0 1.753e+04 3.470e-09
  5.88158    -39.5 1.485e+04 1.643e-09
  5.89769    -41.5 1.248e+04 9.532e-10
  5.90758    -42.1 1.081e+04 7.780e-10
  5.92112    -42.3 1.037e+04 6.129e-10
  5.93321    -41.6 1.020e+04 5.232e-10
  5.94310    -42.0 1.026e+04 4.955e-10
  5.96066    -40.8 1.059e+04 4.704e-10
  5.98043    -39.9 1.200e+04 4.795e-10
  6.00020    -39.2 1.413e+04 5.064e-10
  6.01997    -38.8 1.675e+04 5.565e-10
  6.03974    -38.6 1.880e+04 6.558e-10
  6.05951    -38.3 1.948e+04 7.952e-10
  6.07058    -37.7 1.921e+04 9.592e-10
  6.08056    -38.0 1.298e+04 3.635e-10
  6.09915    -36.3 1.346e+04 5.415e-10
  6.11756    -35.9 1.324e+04 6.295e-10
  6.12745    -36.2 1.414e+04 8.058e-10
  6.13860    -36.2 1.409e+04 9.581e-10
  6.15837    -35.7 1.448e+04 1.162e-09
  6.17814    -35.4 1.573e+04 1.488e-09
  6.19791    -35.2 1.782e+04 2.028e-09
  6.21768    -35.0 2.002e+04 2.793e-09
  6.23359    -34.5 2.165e+04 3.717e-09
  6.24347    -33.4 1.522e+04 3.188e-09
  6.25722    -32.5 1.623e+04 3.824e-09
  6.27699    -31.5 1.672e+04 4.134e-09
  6.29676    -30.7 1.674e+04 4.182e-09
  6.31180    -29.9 1.632e+04 3.853e-09
  6.32168    -29.4 1.860e+04 5.506e-09
  6.33630    -28.5 1.791e+04 4.783e-09
  6.35607    -27.9 1.714e+04 3.921e-09
  6.37584    -27.1 1.631e+04 2.962e-09
  6.39561    -26.0 1.509e+04 2.098e-09
  6.40648    -24.9 1.360e+04 1.401e-09
  6.41636    -23.7 1.471e+04 2.231e-09
  6.43515    -22.8 1.460e+04 1.594e-09
  6.45492    -22.0 1.382e+04 1.101e-09
  6.47469    -21.2 1.288e+04 7.700e-10
  6.49446    -19.7 1.281e+04 6.264e-10
  6.50604    -19.2 1.220e+04 5.041e-10
  6.51592    -18.4 1.237e+04 6.284e-10
  6.54398    -16.2 1.295e+04 5.042e-10
  6.58362    -14.1 1.176e+04 3.665e-10
  6.62316    -12.2 1.084e+04 3.655e-10
  6.66270    -10.2 1.057e+04 5.068e-10
  6.69058     -7.8 1.081e+04 6.783e-10
  6.70037     -6.6 1.132e+04 8.090e-10
  6.71193     -5.4 1.141e+04 9.403e-10
  6.73170     -5.3 1.205e+04 1.112e-09
  6.74238     -5.9 1.452e+04 1.303e-09
  6.75226    -10.8 2.243e+04 3.932e-09
  6.77124     -9.9 2.302e+04 5.021e-09
  6.79101     -9.3 2.226e+04 4.721e-09
  6.81078     -9.8 2.036e+04 3.604e-09
  6.83055    -12.4 1.843e+04 2.931e-09
  6.85032    -15.3 1.722e+04 2.814e-09
  6.87009    -17.2 1.605e+04 3.323e-09
  6.88462    -17.8 1.534e+04 4.310e-09
  6.89451    -17.6 1.649e+04 6.985e-09
  6.90538    -16.5 1.593e+04 7.699e-09
  6.91527    -14.9 1.561e+04 6.929e-09
  6.92940    -13.6 1.577e+04 7.428e-09
  6.94917    -12.3 1.599e+04 7.689e-09
  6.96894    -11.5 1.597e+04 7.745e-09
  6.98871    -11.2 1.592e+04 6.887e-09
  7.00848    -11.2 1.584e+04 6.600e-09
  7.02825    -11.3 1.570e+04 6.526e-09
  7.04802    -10.9 1.566e+04 6.196e-09
  7.06779    -10.1 1.564e+04 5.692e-09
  7.07827     -9.4 1.540e+04 4.830e-09
  7.07945     -9.4 1.589e+04 7.367e-09
  7.08874    -10.6 1.672e+04 7.656e-09
  7.10733    -10.3 1.625e+04 6.751e-09
  7.12710    -10.3 1.567e+04 5.420e-09
  7.14687    -10.6 1.495e+04 4.286e-09
  7.16664    -11.0 1.406e+04 3.486e-09
  7.18641    -11.0 1.341e+04 3.061e-09
  7.20618    -10.0 1.303e+04 2.766e-09
  7.22595     -8.6 1.272e+04 2.496e-09
  7.24128     -7.4 1.252e+04 2.181e-09
  7.25116     -8.7 1.282e+04 1.918e-09
  7.26321     -7.8 1.248e+04 1.636e-09
  7.27309     -7.6 1.283e+04 2.065e-09
  7.28526     -7.4 1.256e+04 1.791e-09
  7.30503     -6.7 1.223e+04 1.513e-09
  7.33479     -4.9 1.163e+04 1.098e-09
  7.37442     -3.5 1.154e+04 9.289e-10
  7.40448     -1.4 1.152e+04 8.476e-10
  7.42425     -3.5 1.151e+04 1.654e-09
  7.44352     -1.6 1.135e+04 1.384e-09
  7.45745     -0.4 1.122e+04 1.526e-09
  7.46733     -0.4 1.163e+04 1.663e-09
  7.48297     -0.1 1.209e+04 2.002e-09
  7.50274     -0.1 1.254e+04 2.349e-09
  7.52251      0.3 1.288e+04 3.115e-09
  7.54228      1.0 1.330e+04 4.358e-09
  7.56205      1.4 1.437e+04 6.514e-09
  7.57717      0.9 1.595e+04 1.008e-08
  7.58706     -0.9 1.641e+04 1.127e-08
  7.60159     -0.3 1.721e+04 1.530e-08
  7.62136     -0.0 1.703e+04 1.591e-08
  7.64113      0.9 1.699e+04 1.306e-08
  7.65168      0.8 1.699e+04 8.390e-09
  7.66157      1.8 1.715e+04 8.757e-09
  7.68067      0.1 1.664e+04 5.299e-09
  7.70044     -3.1 1.475e+04 2.900e-09
  7.72021     -5.9 1.291e+04 1.789e-09
  7.73998     -7.2 1.193e+04 1.338e-09
  7.75006     -7.7 1.142e+04 1.092e-09
  7.75995     -9.9 1.094e+04 7.905e-10
  7.77952    -10.6 1.073e+04 6.623e-10
  7.79929    -12.1 1.059e+04 5.545e-10
  7.81906    -14.1 1.047e+04 4.860e-10
  7.83603    -16.5 1.017e+04 4.257e-10
  7.84592    -17.0 1.040e+04 4.863e-10
  7.85860    -19.1 1.019e+04 4.452e-10
  7.87837    -21.5 1.004e+04 4.214e-10
  7.89814    -24.1 1.019e+04 4.383e-10
  7.91307    -27.8 1.037e+04 4.750e-10
  7.92296    -29.2 1.024e+04 4.436e-10
  7.93768    -32.2 1.048e+04 5.586e-10
  7.95745    -34.6 1.048e+04 6.804e-10
  7.97722    -36.6 1.070e+04 8.569e-10
  7.99699    -40.3 1.208e+04 1.211e-09
  8.01676    -47.0 1.558e+04 2.147e-09
  8.03027    -54.6 1.852e+04 4.601e-09
  8.04015    -61.5 1.935e+04 7.987e-09
  8.05630    -67.1 2.054e+04 1.337e-08
  8.07607    -71.8 2.158e+04 1.787e-08
  8.09584    -78.1 2.169e+04 1.496e-08
  8.11561    -83.5 2.126e+04 1.262e-08
  8.13538    -88.5 1.953e+04 1.038e-08
  8.15515    -92.6 1.796e+04 9.336e-09
  8.17492    -95.4 1.769e+04 9.045e-09
  8.19469    -97.5 1.816e+04 9.608e-09
  8.21446   -100.9 1.878e+04 9.972e-09
  8.22451   -104.8 2.004e+04 9.839e-09
  8.23439   -112.5 2.314e+04 9.766e-09
  8.24897   -116.7 2.359e+04 1.057e-08
  8.25880   -115.2 2.157e+04 6.500e-09
  8.27372   -118.4 2.082e+04 7.252e-09
  8.28855   -120.6 2.010e+04 8.139e-09
  8.29839   -121.4 1.955e+04 8.520e-09
  8.30827   -122.2 1.885e+04 9.371e-09
  8.31658   -122.5 1.869e+04 1.034e-08
  8.32153   -123.3 1.856e+04 1.171e-08
  8.32804   -123.3 1.851e+04 1.239e-08
  8.33531   -123.2 1.870e+04 1.341e-08
  8.34026   -122.4 1.798e+04 1.017e-08
  8.34781   -122.4 1.810e+04 1.130e-08
  8.35770   -122.3 1.832e+04 1.279e-08
  8.37257   -122.0 1.857e+04 1.525e-08
  8.39239   -121.2 1.844e+04 1.583e-08
  8.40886   -120.4 1.806e+04 1.466e-08
  8.41850   -120.5 1.667e+04 8.152e-09
  8.42181   -120.4 1.647e+04 7.815e-09
  8.43193   -119.7 1.592e+04 6.388e-09
  8.45170   -119.0 1.529e+04 5.109e-09
  8.47147   -118.1 1.467e+04 4.035e-09
  8.49124   -117.2 1.396e+04 3.000e-09
  8.51101   -116.4 1.318e+04 2.122e-09
  8.53078   -115.8 1.238e+04 1.472e-09
  8.55055   -115.2 1.155e+04 1.021e-09
  8.57032   -114.7 1.076e+04 7.363e-10
  8.58486   -114.1 1.014e+04 5.732e-10
  8.59475   -113.2 1.118e+04 8.627e-10
  8.60309   -112.7 1.053e+04 6.908e-10
  8.61298   -112.7 9.729e+03 4.853e-10
  8.62963   -111.9 9.615e+03 4.569e-10
  8.64940   -110.8 9.582e+03 4.499e-10
  8.66917   -109.7 9.575e+03 4.489e-10
  8.68894   -108.8 9.625e+03 4.670e-10
  8.70871   -108.0 9.740e+03 5.212e-10
  8.72848   -107.3 9.886e+03 6.020e-10
  8.74787   -106.5 1.008e+04 7.099e-10
  8.75775   -105.7 1.037e+04 8.350e-10
  8.76803   -104.9 1.061e+04 9.847e-10
  8.78744   -104.1 1.084e+04 1.149e-09
  8.79733   -104.0 1.051e+04 9.351e-10
  8.80757   -103.1 1.073e+04 1.094e-09
  8.82734   -102.2 1.087e+04 1.213e-09
  8.84711   -101.4 1.091e+04 1.251e-09
  8.86688   -100.5 1.085e+04 1.244e-09
  8.88665    -99.5 1.062e+04 1.106e-09
  8.90642    -98.6 1.032e+04 9.094e-10
  8.92076    -97.7 9.999e+03 7.159e-10
  8.93064    -97.1 1.021e+04 8.476e-10
  8.94596    -96.3 9.879e+03 6.517e-10
  8.96573    -95.9 9.557e+03 4.935e-10
  8.98178    -95.9 9.155e+03 3.649e-10
  8.99166    -95.4 9.461e+03 4.639e-10
  9.00527    -95.1 9.326e+03 4.184e-10
  9.03502    -94.6 9.392e+03 4.293e-10
  9.07408    -93.3 9.462e+03 4.610e-10
  9.09385    -92.8 9.787e+03 5.484e-10
  9.11420    -92.3 1.043e+04 7.677e-10
  9.15374    -92.3 1.155e+04 1.326e-09
  9.17601    -91.8 1.195e+04 1.663e-09
  9.18580    -92.4 1.224e+04 1.951e-09
  9.20297    -92.1 1.254e+04 2.309e-09
  9.22274    -91.8 1.268e+04 2.525e-09
  9.24251    -91.3 1.266e+04 2.523e-09
  9.25666    -90.7 1.237e+04 2.195e-09
  9.26654    -90.5 1.265e+04 2.559e-09
  9.28205    -90.1 1.212e+04 1.915e-09
  9.31180    -89.8 1.142e+04 1.341e-09
  9.35058    -88.6 1.041e+04 8.014e-10
  9.37035    -89.5 1.072e+04 9.479e-10
  9.39098    -87.8 9.734e+03 5.664e-10
  9.41986    -86.0 9.134e+03 3.806e-10
  9.43963    -86.4 9.266e+03 4.443e-10
  9.47006    -84.4 8.935e+03 3.303e-10
  9.50960    -82.3 8.722e+03 2.647e-10
  9.54914    -80.1 8.625e+03 2.328e-10
  9.58868    -78.0 8.592e+03 2.228e-10
  9.62822    -76.0 8.604e+03 2.209e-10
  9.66776    -74.2 8.769e+03 2.372e-10
  9.70730    -72.5 9.010e+03 2.805e-10
  9.73905    -70.9 9.307e+03 3.467e-10
  9.75785    -72.2 9.427e+03 3.886e-10
  9.76564    -73.5 9.663e+03 4.483e-10
  9.78638    -72.3 9.963e+03 5.562e-10
  9.82592    -71.1 1.022e+04 6.463e-10
  9.86546    -70.1 1.032e+04 6.963e-10
  9.90500    -68.9 1.024e+04 6.819e-10
  9.94454    -67.6 1.009e+04 5.999e-10
  9.98408    -66.2 9.883e+03 5.045e-10
 10.02362    -64.7 9.620e+03 4.031e-10
 10.06317    -63.1 9.327e+03 3.038e-10
 10.09165    -61.4 9.086e+03 2.222e-10
 10.11142    -62.7 8.983e+03 1.863e-10
 10.12752    -60.8 8.847e+03 1.471e-10
 10.14729    -60.5 8.785e+03 1.328e-10
 10.18179    -58.4 8.705e+03 1.106e-10
 10.22133    -56.2 8.663e+03 9.898e-11
 10.26087    -53.9 8.644e+03 9.342e-11
 10.30041    -51.6 8.649e+03 9.084e-11
 10.33995    -49.1 8.658e+03 8.880e-11
 10.37949    -46.7 8.667e+03 8.580e-11
 10.41766    -44.2 8.660e+03 7.951e-11
 10.43743    -44.7 8.644e+03 6.682e-11
 10.45857    -42.2 8.631e+03 5.862e-11
 10.49623    -39.8 8.615e+03 5.119e-11
 10.51600    -39.6 8.621e+03 4.813e-11
 10.53765    -37.3 8.625e+03 4.201e-11
 10.57719    -35.0 8.630e+03 3.833e-11
 10.61673    -32.7 8.660e+03 3.740e-11
 10.65627    -30.6 8.767e+03 3.908e-11
 10.69581    -28.6 8.837e+03 4.432e-11
 10.73535    -26.4 8.816e+03 5.391e-11
 10.76344    -23.9 8.826e+03 6.328e-11
 10.78321    -24.4 8.894e+03 6.711e-11
 10.81443    -22.1 8.914e+03 6.635e-11
 10.85397    -19.6 8.918e+03 5.911e-11
 10.88470    -17.4 9.024e+03 4.993e-11
 10.90447    -17.6 9.024e+03 4.796e-11
 10.93305    -15.7 9.035e+03 4.414e-11
 10.97259    -13.7 9.040e+03 4.508e-11
 11.01213    -11.9 9.085e+03 4.952e-11
 11.05167     -9.9 9.125e+03 5.937e-11
 11.08945     -7.9 9.179e+03 7.344e-11
 11.10922     -8.4 9.243e+03 7.385e-11
 11.13075     -6.6 9.505e+03 9.248e-11
 11.17029     -5.0 9.694e+03 1.219e-10
 11.20983     -3.6 9.858e+03 1.628e-10
 11.24937     -2.5 1.004e+04 2.173e-10
 11.27317     -1.5 1.026e+04 2.857e-10
 11.29294     -1.6 1.033e+04 3.163e-10
 11.32845     -0.9 1.060e+04 3.742e-10
 11.36800     -0.7 1.082e+04 3.902e-10
 11.40754     -1.5 1.131e+04 4.493e-10
 11.43514     -2.6 1.160e+04 5.395e-10
 11.44493     -4.2 1.188e+04 7.716e-10
 11.45677     -4.8 1.193e+04 9.514e-10
 11.46721     -4.7 1.197e+04 1.074e-09
 11.47710     -5.0 1.199e+04 1.083e-09
 11.49631     -4.8 1.202e+04 1.044e-09
 11.51608     -4.8 1.213e+04 9.351e-10
 11.53585     -5.1 1.220e+04 7.977e-10
 11.55562     -5.7 1.217e+04 6.764e-10
 11.57539     -6.5 1.204e+04 6.143e-10
 11.59516     -6.3 1.170e+04 5.161e-10
 11.60793     -6.5 1.162e+04 5.025e-10
 11.61782     -7.1 1.160e+04 5.038e-10
 11.64177     -5.7 1.140e+04 4.428e-10
 11.66164     -5.6 1.117e+04 3.477e-10
 11.68432     -4.4 1.105e+04 2.312e-10
 11.72386     -3.5 1.104e+04 1.554e-10
 11.76125     -2.6 1.086e+04 1.257e-10
 11.78102     -4.1 1.061e+04 1.153e-10
 11.80294     -2.5 1.046e+04 1.154e-10
 11.84248     -0.8 1.043e+04 1.184e-10
 11.88202      0.8 1.041e+04 1.257e-10
 11.92156      2.5 1.039e+04 1.354e-10
 11.96110      4.1 1.038e+04 1.406e-10
 12.00064      5.7 1.037e+04 1.391e-10
 12.03034      7.2 1.030e+04 1.318e-10
 12.05012      7.6 1.039e+04 1.539e-10
 12.07972      9.0 1.030e+04 1.437e-10
 12.10703     10.1 1.038e+04 1.498e-10
 12.12680      8.7 1.041e+04 1.476e-10
 12.15880      8.3 1.078e+04 2.271e-10
 12.19834      8.4 1.106e+04 4.844e-10
 12.23788      9.1 1.125e+04 7.765e-10
 12.27742      9.7 1.127e+04 8.392e-10
 12.31696     10.1 1.113e+04 7.622e-10
 12.35650     10.3 1.085e+04 6.079e-10
 12.39604     10.6 1.050e+04 4.564e-10
 12.41882     11.1 1.017e+04 3.376e-10
 12.43604     10.2 1.005e+04 3.108e-10
 12.45281      9.4 9.993e+03 2.948e-10
 12.47512     10.4 9.769e+03 2.111e-10
 12.51466     11.4 9.598e+03 1.647e-10
 12.55420     12.7 9.385e+03 1.498e-10
 12.59374     14.2 9.260e+03 1.497e-10
 12.63328     15.9 9.228e+03 1.550e-10
 12.67283     17.7 9.227e+03 1.650e-10
 12.71237     19.5 9.248e+03 1.725e-10
 12.75191     21.3 9.245e+03 1.719e-10
 12.77882     23.2 9.230e+03 1.639e-10
 12.79467     23.0 9.250e+03 1.618e-10
 12.80729     23.0 9.170e+03 1.439e-10
 12.83099     25.0 9.133e+03 1.398e-10
 12.87053     27.1 9.110e+03 1.383e-10
 12.91007     29.2 9.113e+03 1.394e-10
 12.94961     31.4 9.135e+03 1.446e-10
 12.98915     33.6 9.176e+03 1.557e-10
 13.02869     35.7 9.244e+03 1.817e-10
 13.06823     38.1 9.455e+03 2.428e-10
 13.10483     40.6 9.787e+03 3.426e-10
 13.12460     40.6 9.770e+03 3.481e-10
 13.13733     41.7 9.938e+03 4.197e-10
 13.15700     42.5 1.014e+04 5.134e-10
 13.17580     43.5 1.056e+04 6.712e-10
 13.18568     43.2 1.056e+04 6.674e-10
 13.19654     43.4 1.092e+04 8.189e-10
 13.21631     43.2 1.145e+04 1.069e-09
 13.23608     42.8 1.199e+04 1.489e-09
 13.25585     42.7 1.243e+04 2.010e-09
 13.27562     42.8 1.276e+04 2.400e-09
 13.28741     42.8 1.284e+04 2.423e-09
 13.29730     42.8 1.265e+04 2.235e-09
 13.31516     42.5 1.260e+04 2.124e-09
 13.33493     42.2 1.225e+04 1.761e-09
 13.35470     41.7 1.193e+04 1.549e-09
 13.38445     41.9 1.156e+04 1.297e-09
 13.42409     42.0 1.174e+04 1.266e-09
 13.45052     40.6 1.259e+04 1.609e-09
 13.46030     39.7 1.341e+04 2.215e-09
 13.47332     36.4 1.555e+04 4.675e-09
 13.49309     34.4 1.726e+04 1.014e-08
 13.51286     33.3 1.826e+04 1.605e-08
 13.53263     31.9 1.833e+04 1.616e-08
 13.55240     31.0 1.792e+04 1.336e-08
 13.56427     29.8 1.707e+04 7.868e-09
 13.57415     29.4 1.692e+04 7.366e-09
 13.59194     26.8 1.524e+04 2.963e-09
 13.61171     22.6 1.249e+04 1.085e-09
 13.62331     18.7 1.043e+04 5.095e-10
 13.63320     17.7 1.029e+04 4.368e-10
 13.65125     17.4 1.021e+04 3.096e-10
 13.67102     17.4 1.012e+04 2.884e-10
 13.70078     18.5 9.885e+03 2.557e-10
 13.74041     20.2 9.637e+03 2.116e-10
 13.77663     21.9 9.567e+03 1.947e-10
 13.79640     21.4 9.620e+03 2.168e-10
 13.81949     23.1 9.747e+03 2.509e-10
 13.85903     25.0 9.974e+03 3.068e-10
 13.89857     26.8 1.026e+04 3.692e-10
 13.93317     28.3 1.057e+04 4.141e-10
 13.95294     27.3 1.064e+04 4.454e-10
 13.97765     28.4 1.097e+04 4.751e-10
 14.00721     28.8 1.131e+04 5.607e-10
 14.02689     28.5 1.169e+04 6.777e-10
 14.04666     28.1 1.219e+04 8.805e-10
 14.06643     27.3 1.279e+04 1.285e-09
 14.08620     26.6 1.347e+04 2.077e-09
 14.10597     26.4 1.423e+04 3.486e-09
 14.12221     26.7 1.479e+04 5.366e-09
 14.13210     26.2 1.513e+04 6.125e-09
 14.13709     26.7 1.553e+04 7.034e-09
 14.14698     26.3 1.506e+04 5.770e-09
 14.16528     26.5 1.524e+04 5.816e-09
 14.18505     26.5 1.517e+04 5.418e-09
 14.20482     26.3 1.478e+04 4.289e-09
 14.22459     25.7 1.418e+04 3.098e-09
 14.24436     24.9 1.352e+04 2.185e-09
 14.26413     24.2 1.292e+04 1.606e-09
 14.28390     23.6 1.247e+04 1.247e-09
 14.29510     23.1 1.217e+04 1.038e-09
 14.30499     22.3 1.208e+04 1.023e-09
 14.32144     21.9 1.191e+04 8.995e-10
 14.33133     22.2 1.185e+04 8.130e-10
 14.34321     21.8 1.169e+04 7.538e-10
 14.36298     21.8 1.147e+04 6.771e-10
 14.38275     21.6 1.120e+04 6.040e-10
 14.41250     22.3 1.093e+04 4.530e-10
 14.44842     22.6 1.032e+04 2.922e-10
 14.46819     21.4 1.026e+04 2.859e-10
 14.49168     21.8 1.005e+04 2.327e-10
 14.51578     23.0 9.984e+03 2.274e-10
 14.52557     22.8 1.006e+04 2.334e-10
 14.54091     22.6 1.019e+04 2.441e-10
 14.56068     21.3 1.048e+04 2.806e-10
 14.58045     18.8 1.176e+04 3.953e-10
 14.60022     16.1 1.329e+04 8.793e-10
 14.61999     14.1 1.442e+04 1.984e-09
 14.63100     12.1 1.580e+04 3.949e-09
 14.63589     10.7 1.611e+04 5.336e-09
 14.64460     10.5 1.636e+04 5.826e-09
 14.65449      9.1 1.716e+04 7.820e-09
 14.66437      7.9 1.758e+04 1.036e-08
 14.67426      7.6 1.782e+04 1.232e-08
 14.68414      7.4 1.807e+04 1.448e-08
 14.69403      7.2 1.805e+04 1.424e-08
 14.70391      6.7 1.792e+04 1.275e-08
 14.70987      5.7 1.737e+04 9.115e-09
 14.71980      6.2 1.736e+04 9.745e-09
 14.73861      5.5 1.681e+04 6.592e-09
 14.75838      4.1 1.561e+04 3.293e-09
 14.77815      1.2 1.371e+04 1.414e-09
 14.79401     -1.5 1.137e+04 6.054e-10
 14.80389     -4.4 1.023e+04 3.957e-10
 14.81769     -4.9 1.000e+04 3.479e-10
 14.84744     -3.3 9.929e+03 3.192e-10
 14.88708     -2.4 9.834e+03 2.927e-10
 14.92662     -1.8 9.936e+03 3.424e-10
 14.95618     -0.9 1.033e+04 4.408e-10
 14.96690     -1.5 1.055e+04 5.566e-10
 14.97678     -2.9 1.051e+04 5.767e-10
 14.99562     -2.9 1.076e+04 7.536e-10
 15.01539     -2.5 1.091e+04 1.013e-09
 15.03516     -1.8 1.105e+04 1.140e-09
 15.05493     -1.3 1.110e+04 1.115e-09
 15.07470     -1.2 1.100e+04 1.024e-09
 15.08850     -1.3 1.074e+04 8.845e-10
 15.09839     -1.0 1.066e+04 8.499e-10
 15.11424     -1.2 1.033e+04 6.877e-10
 15.12990     -1.5 1.002e+04 5.647e-10
 15.13979     -2.7 9.632e+03 4.188e-10
 15.16377     -2.4 9.386e+03 3.353e-10
 15.20340     -1.5 9.214e+03 3.027e-10
 15.24294     -0.2 8.947e+03 2.716e-10
 15.28248      1.0 8.922e+03 2.791e-10
 15.32203      2.2 9.120e+03 3.263e-10
 15.36157      3.3 9.487e+03 4.237e-10
 15.40111      4.4 9.935e+03 5.684e-10
 15.44065      5.3 1.041e+04 7.451e-10
 15.46599      6.0 1.083e+04 8.932e-10
 15.47286      5.0 1.084e+04 8.924e-10
 15.48706      6.2 1.055e+04 8.245e-10
 15.51973      6.5 1.110e+04 1.057e-09
 15.55927      6.5 1.155e+04 1.267e-09
 15.59881      6.3 1.191e+04 1.453e-09
 15.63835      6.0 1.230e+04 1.651e-09
 15.67789      5.7 1.250e+04 1.759e-09
 15.71743      5.9 1.247e+04 1.733e-09
 15.74699      6.2 1.241e+04 1.685e-09
 15.76666      6.2 1.248e+04 1.656e-09
 15.78643      6.0 1.272e+04 1.699e-09
 15.80169      4.2 1.374e+04 2.061e-09
 15.81158      2.1 1.424e+04 2.442e-09
 15.82597     -2.7 1.656e+04 4.968e-09
 15.84568     -6.1 1.830e+04 1.104e-08
 15.86545     -7.6 1.920e+04 1.973e-08
 15.88528     -7.4 1.876e+04 1.754e-08
 15.90505     -7.2 1.786e+04 1.152e-08
 15.92482     -8.2 1.704e+04 4.825e-09
 15.94459    -13.4 1.553e+04 1.563e-09
 15.96436    -19.6 1.234e+04 6.556e-10
 15.97459    -20.7 1.098e+04 4.245e-10
 15.98447    -20.8 1.078e+04 3.797e-10
 16.00390    -21.0 1.088e+04 3.187e-10
 16.02367    -20.2 1.065e+04 2.256e-10
 16.03991    -20.3 1.066e+04 2.191e-10
 16.04980    -20.6 1.070e+04 2.156e-10
 16.07319    -20.1 1.042e+04 1.842e-10
 16.11283    -19.1 1.024e+04 1.877e-10
 16.13779    -18.0 1.029e+04 2.203e-10
 16.15756    -17.6 1.022e+04 1.988e-10
 16.19191    -17.0 1.071e+04 3.247e-10
 16.22147    -16.0 1.081e+04 4.222e-10
 16.23415    -15.9 1.087e+04 4.578e-10
 16.24413    -15.6 1.082e+04 4.046e-10
 16.26101    -14.9 1.084e+04 4.733e-10
 16.28068    -14.7 1.087e+04 4.918e-10
 16.30045    -14.1 1.088e+04 4.825e-10
 16.31048    -14.2 1.093e+04 4.577e-10
 16.32037    -14.0 1.096e+04 4.704e-10
 16.34998    -13.8 1.101e+04 4.203e-10
 16.38961    -13.9 1.114e+04 4.352e-10
 16.42915    -13.6 1.127e+04 5.013e-10
 16.46380    -13.1 1.120e+04 4.781e-10
 16.48357    -13.6 1.128e+04 4.926e-10
 16.50823    -12.9 1.091e+04 3.827e-10
 16.54777    -12.4 1.051e+04 2.794e-10
 16.58731    -11.8 1.047e+04 2.622e-10
 16.61293    -11.3 1.061e+04 2.779e-10
 16.63270    -10.4 1.069e+04 2.847e-10
 16.66640    -10.2 1.089e+04 3.262e-10
 16.70594     -9.9 1.106e+04 3.797e-10
 16.74548     -9.4 1.119e+04 3.978e-10
 16.78502     -9.1 1.121e+04 3.886e-10
 16.80707     -9.1 1.126e+04 3.552e-10
 16.81177     -9.1 1.126e+04 3.657e-10
 16.82925     -9.3 1.126e+04 3.295e-10
 16.86410     -9.7 1.138e+04 3.468e-10
 16.89365    -10.1 1.139e+04 4.289e-10
 16.91333    -10.2 1.132e+04 4.673e-10
 16.93310    -10.0 1.125e+04 5.003e-10
 16.95287     -9.8 1.129e+04 4.920e-10
 16.97239     -9.8 1.138e+04 4.565e-10
 16.98228    -10.0 1.131e+04 4.180e-10
 16.99133    -10.2 1.137e+04 3.827e-10
 17.00121    -10.1 1.139e+04 3.801e-10
 17.01218    -10.5 1.138e+04 3.455e-10
 17.03195    -10.8 1.130e+04 3.337e-10
 17.05172    -11.2 1.134e+04 3.399e-10
 17.07149    -11.4 1.135e+04 3.417e-10
 17.10124    -11.1 1.128e+04 3.913e-10
 17.13559    -10.1 1.122e+04 4.042e-10
 17.15536     -9.8 1.121e+04 3.979e-10
 17.18042     -8.7 1.131e+04 4.008e-10
 17.21996     -7.4 1.131e+04 3.803e-10
 17.25950     -6.0 1.124e+04 3.535e-10
 17.29904     -4.4 1.119e+04 3.396e-10
 17.33858     -2.6 1.117e+04 3.378e-10
 17.37011     -0.7 1.118e+04 3.570e-10
 17.38988     -0.5 1.119e+04 3.672e-10
 17.41766      1.2 1.141e+04 4.783e-10
 17.45720      3.0 1.182e+04 6.725e-10
 17.48137      4.6 1.225e+04 9.103e-10
 17.50114      4.2 1.223e+04 9.150e-10
 17.52630      5.3 1.237e+04 1.047e-09
 17.54597      5.8 1.240e+04 1.129e-09
 17.56415      6.3 1.229e+04 1.109e-09
 17.57403      6.3 1.202e+04 9.954e-10
 17.58551      7.0 1.189e+04 9.173e-10
 17.60528      7.4 1.179e+04 8.259e-10
 17.62505      7.8 1.185e+04 7.917e-10
 17.64418      7.7 1.192e+04 8.010e-10
 17.65407      7.4 1.190e+04 7.839e-10
 17.66459      7.3 1.205e+04 8.511e-10
 17.68436      7.2 1.218e+04 9.764e-10
 17.70413      7.3 1.233e+04 1.150e-09
 17.72390      7.5 1.252e+04 1.358e-09
 17.74367      7.6 1.276e+04 1.597e-09
 17.75839      7.4 1.315e+04 1.858e-09
 17.76827      7.1 1.304e+04 1.866e-09
 17.78321      6.5 1.365e+04 2.356e-09
 17.80298      5.9 1.411e+04 2.853e-09
 17.81707      5.3 1.439e+04 3.113e-09
 17.82696      4.2 1.500e+04 3.905e-09
 17.84252      3.4 1.503e+04 3.843e-09
 17.86229      2.6 1.487e+04 3.535e-09
 17.88206      1.6 1.445e+04 3.065e-09
 17.90183      0.9 1.389e+04 2.641e-09
 17.92160      0.8 1.343e+04 2.353e-09
 17.94137      1.0 1.306e+04 2.162e-09
 17.95262      1.7 1.269e+04 1.882e-09
 17.96251      2.3 1.236e+04 1.634e-09
 17.98008      3.2 1.215e+04 1.495e-09
 17.98996      3.0 1.205e+04 1.315e-09
 18.00069      3.8 1.188e+04 1.158e-09
 18.02046      4.7 1.165e+04 1.010e-09
 18.04023      5.9 1.138e+04 8.909e-10
 18.06000      7.2 1.120e+04 8.233e-10
 18.07977      8.6 1.112e+04 7.968e-10
 18.09954     10.1 1.103e+04 7.770e-10
 18.11931     11.7 1.092e+04 7.569e-10
 18.13697     13.4 1.087e+04 7.451e-10
 18.14686     13.5 1.072e+04 6.772e-10
 18.15297     15.1 1.068e+04 6.593e-10
 18.16286     15.6 1.076e+04 6.620e-10
 18.17862     16.6 1.120e+04 7.214e-10
 18.19839     17.1 1.263e+04 9.397e-10
 18.21816     17.2 1.493e+04 1.533e-09
 18.23793     17.2 1.701e+04 2.831e-09
 18.25770     16.6 1.851e+04 4.084e-09
 18.27747     15.1 1.972e+04 5.015e-09
 18.29724     13.1 2.020e+04 6.707e-09
 18.31598     11.5 1.997e+04 9.793e-09
 18.32581     11.0 2.126e+04 1.111e-08
 18.33111     10.3 2.070e+04 1.455e-08
 18.33605     10.7 2.050e+04 1.014e-08
 18.34162     10.2 2.029e+04 1.087e-08
 18.35650      9.9 2.048e+04 1.327e-08
 18.37632      9.1 2.051e+04 1.317e-08
 18.39609      8.0 2.032e+04 1.300e-08
 18.41586      6.2 2.040e+04 1.358e-08
 18.43563      4.1 2.025e+04 1.494e-08
 18.45540      2.2 1.981e+04 1.561e-08
 18.47517      1.4 1.918e+04 1.508e-08
 18.48887      1.6 1.840e+04 1.347e-08
 18.49875      0.4 1.757e+04 1.052e-08
 18.51471      0.6 1.630e+04 6.039e-09
 18.52545     -0.3 1.481e+04 2.859e-09
 18.53533      1.3 1.606e+04 4.735e-09
 18.55425     -0.6 1.439e+04 2.062e-09
 18.57402     -4.1 1.203e+04 9.680e-10
 18.59379     -6.6 1.057e+04 6.753e-10
 18.61356     -6.9 1.031e+04 6.235e-10
 18.63333     -6.6 1.033e+04 6.273e-10
 18.65187     -6.4 1.046e+04 6.520e-10
 18.66176     -7.3 1.041e+04 6.507e-10
 18.67287     -7.3 1.045e+04 6.746e-10
 18.69264     -7.4 1.045e+04 7.052e-10
 18.70980     -7.5 1.047e+04 7.450e-10
 18.71968     -7.4 1.063e+04 7.694e-10
 18.73218     -7.8 1.081e+04 8.418e-10
 18.75195     -8.7 1.120e+04 9.720e-10
 18.77172    -10.4 1.181e+04 1.229e-09
 18.79149    -12.7 1.252e+04 1.706e-09
 18.81126    -15.0 1.341e+04 2.520e-09
 18.82476    -17.5 1.464e+04 3.796e-09
 18.83465    -17.6 1.381e+04 2.839e-09
 18.85080    -20.7 1.523e+04 4.322e-09
 18.87057    -22.8 1.572e+04 5.214e-09
 18.89034    -25.0 1.580e+04 5.531e-09
 18.90403    -26.0 1.527e+04 4.927e-09
 18.91392    -27.4 1.482e+04 4.392e-09
 18.92988    -28.5 1.450e+04 3.349e-09
 18.94965    -30.2 1.394e+04 2.319e-09
 18.96942    -32.2 1.317e+04 1.577e-09
 18.98777    -33.8 1.221e+04 1.115e-09
 18.99765    -31.7 1.248e+04 1.239e-09
 19.00896    -32.6 1.186e+04 9.807e-10
 19.02873    -32.8 1.159e+04 8.285e-10
 19.04850    -32.9 1.144e+04 7.377e-10
 19.06827    -33.0 1.146e+04 6.762e-10
 19.08804    -33.0 1.133e+04 6.493e-10
 19.11780    -33.2 1.121e+04 6.030e-10
 19.15097    -32.1 1.123e+04 6.125e-10
 19.17074    -29.8 1.174e+04 8.111e-10
 19.19697    -28.8 1.177e+04 8.895e-10
 19.23651    -27.2 1.177e+04 9.028e-10
 19.27293    -26.5 1.185e+04 8.050e-10
 19.29270    -27.1 1.148e+04 5.921e-10
 19.31560    -27.9 1.118e+04 4.669e-10
 19.35514    -28.9 1.070e+04 4.840e-10
 19.39468    -27.9 9.927e+03 4.092e-10
 19.43422    -27.2 9.680e+03 3.580e-10
 19.47376    -26.3 9.716e+03 3.521e-10
 19.49675    -25.4 9.879e+03 3.912e-10
 19.51652    -24.0 9.821e+03 3.691e-10
 19.54285    -23.8 1.008e+04 4.374e-10
 19.56253    -23.8 1.022e+04 4.938e-10
 19.58230    -23.6 1.039e+04 5.703e-10
 19.60207    -23.1 1.051e+04 6.348e-10
 19.62184    -22.6 1.072e+04 7.078e-10
 19.64161    -22.3 1.087e+04 7.745e-10
 19.65956    -21.6 1.082e+04 7.567e-10
 19.66928    -21.0 1.094e+04 8.043e-10
 19.67109    -20.8 1.091e+04 7.922e-10
 19.68115    -20.8 1.098e+04 7.817e-10
 19.70092    -20.0 1.079e+04 6.977e-10
 19.72069    -20.0 1.080e+04 6.549e-10
 19.74046    -19.4 1.060e+04 5.764e-10
 19.76023    -19.3 1.065e+04 5.656e-10
 19.78000    -18.4 1.045e+04 5.126e-10
 19.79977    -18.4 1.053e+04 5.147e-10
 19.81954    -18.3 1.061e+04 5.329e-10
 19.83245    -18.3 1.078e+04 5.957e-10
 19.84234    -17.5 1.077e+04 6.014e-10
 19.85544    -17.7 1.107e+04 7.046e-10
 19.86533    -17.8 1.111e+04 7.140e-10
 19.87885    -18.0 1.142e+04 8.866e-10
 19.89862    -18.1 1.174e+04 1.109e-09
 19.91839    -18.3 1.220e+04 1.442e-09
 19.93816    -18.4 1.269e+04 1.863e-09
 19.95793    -18.5 1.317e+04 2.294e-09
 19.97770    -18.5 1.325e+04 2.321e-09
 19.99546    -18.8 1.314e+04 2.150e-09
 20.00534    -18.7 1.326e+04 2.247e-09
 20.01724    -18.2 1.284e+04 1.688e-09
 20.03701    -18.4 1.268e+04 1.375e-09
 20.04968    -18.8 1.233e+04 8.894e-10
 20.06955    -18.3 1.221e+04 8.279e-10
 20.09642    -18.7 1.192e+04 6.119e-10
 20.11609    -19.6 1.184e+04 5.806e-10
 20.14584    -18.8 1.178e+04 5.804e-10
 20.16854    -17.6 1.187e+04 7.067e-10
 20.18831    -17.9 1.230e+04 9.302e-10
 20.21504    -16.9 1.240e+04 1.040e-09
 20.23403    -17.3 1.275e+04 1.294e-09
 20.24392    -15.9 1.256e+04 1.091e-09
 20.25448    -15.7 1.268e+04 1.287e-09
 20.27425    -15.1 1.253e+04 1.404e-09
 20.29402    -14.3 1.231e+04 1.371e-09
 20.31379    -13.4 1.213e+04 1.256e-09
 20.33135    -12.6 1.200e+04 1.053e-09
 20.34124    -12.7 1.185e+04 8.308e-10
 20.35333    -12.5 1.178e+04 6.471e-10
 20.37310    -12.4 1.153e+04 4.708e-10
 20.39287    -12.7 1.134e+04 4.019e-10
 20.41848    -11.9 1.079e+04 3.318e-10
 20.43825    -10.7 1.109e+04 3.951e-10
 20.45218     -9.2 1.063e+04 3.394e-10
 20.47195     -9.2 1.062e+04 3.375e-10
 20.49446     -7.4 1.034e+04 3.092e-10
 20.51433     -7.2 1.012e+04 2.876e-10
 20.54134     -5.3 9.843e+03 2.553e-10
 20.58089     -3.4 9.740e+03 2.318e-10
 20.62043     -1.8 9.722e+03 2.200e-10
 20.65997     -0.3 9.705e+03 2.182e-10
 20.69951      1.2 9.643e+03 2.166e-10
 20.73905      2.7 9.503e+03 2.085e-10
 20.77859      4.3 9.377e+03 1.988e-10
 20.80705      5.7 9.266e+03 1.912e-10
 20.82682      6.5 9.248e+03 1.898e-10
 20.84034      7.8 9.236e+03 1.902e-10
 20.86011      8.4 9.197e+03 1.682e-10
 20.89721      9.8 9.213e+03 1.723e-10
 20.93675     11.2 9.279e+03 1.853e-10
 20.97629     12.4 9.408e+03 2.127e-10
 21.01583     12.8 9.811e+03 2.850e-10
 21.04539     12.8 1.042e+04 4.204e-10
 21.06506     12.3 1.078e+04 5.640e-10
 21.08483     11.5 1.130e+04 8.184e-10
 21.10460     10.3 1.205e+04 1.282e-09
 21.12437      9.4 1.285e+04 2.077e-09
 21.14414      8.9 1.335e+04 2.797e-09
 21.16391      8.2 1.343e+04 2.850e-09
 21.17604      7.6 1.326e+04 2.585e-09
 21.18592      7.6 1.312e+04 2.356e-09
 21.19533      6.3 1.272e+04 1.640e-09
 21.20521      6.6 1.334e+04 2.013e-09
 21.22322      3.2 1.277e+04 1.293e-09
 21.24299     -0.8 1.193e+04 1.057e-09
 21.26276     -3.3 1.156e+04 1.055e-09
 21.28253     -4.6 1.134e+04 1.062e-09
 21.30230     -4.7 1.114e+04 1.017e-09
 21.32207     -4.8 1.085e+04 8.646e-10
 21.33904     -5.5 1.086e+04 6.711e-10
 21.34893     -5.3 1.085e+04 6.711e-10
 21.36161     -6.6 1.062e+04 4.216e-10
 21.37968     -8.5 1.015e+04 3.188e-10
 21.38956     -8.9 1.009e+04 3.103e-10
 21.41113     -8.9 9.507e+03 2.176e-10
 21.45077     -9.1 9.012e+03 1.624e-10
 21.49031     -8.8 8.655e+03 1.465e-10
 21.51213     -8.2 8.623e+03 1.476e-10
 21.53190     -7.7 8.572e+03 1.338e-10
 21.56422     -7.1 8.554e+03 1.445e-10
 21.58399     -7.4 8.564e+03 1.443e-10
 21.60893     -7.3 8.780e+03 1.784e-10
 21.64847     -7.3 9.100e+03 2.584e-10
 21.68801     -7.4 9.461e+03 3.595e-10
 21.72755     -7.7 9.763e+03 4.575e-10
 21.76709     -8.7 9.797e+03 4.757e-10
 21.80663     -9.6 9.561e+03 4.282e-10
 21.83814    -10.3 9.132e+03 3.474e-10
 21.85791     -8.6 9.080e+03 3.245e-10
 21.88571     -8.7 8.670e+03 2.635e-10
 21.92526     -8.4 8.282e+03 2.076e-10
 21.95270     -8.1 7.981e+03 1.651e-10
 21.97247     -8.7 7.941e+03 1.530e-10
 22.00434     -8.2 7.722e+03 1.339e-10
 22.04388     -7.4 7.614e+03 1.322e-10
 22.08342     -6.5 7.625e+03 1.353e-10
 22.12296     -5.6 7.691e+03 1.483e-10
 22.16250     -4.8 7.854e+03 1.749e-10
 22.18392     -3.9 8.070e+03 2.118e-10
 22.20369     -1.9 8.056e+03 2.091e-10
 22.24158     -0.8 8.283e+03 2.463e-10
 22.28112      0.2 8.619e+03 2.840e-10
 22.31068      0.3 8.873e+03 3.124e-10
 22.33035     -0.0 9.167e+03 3.560e-10
 22.34097     -1.2 1.009e+04 5.113e-10
 22.36084     -1.0 1.036e+04 6.350e-10
 22.38976     -2.2 1.125e+04 9.027e-10
 22.40943     -5.8 1.287e+04 1.780e-09
 22.42920     -7.2 1.354e+04 3.242e-09
 22.44897     -6.4 1.392e+04 4.725e-09
 22.46874     -5.5 1.429e+04 5.180e-09
 22.48851     -5.2 1.440e+04 4.980e-09
 22.50828     -5.6 1.463e+04 4.388e-09
 22.51962     -6.9 1.461e+04 3.194e-09
 22.52679     -6.3 1.464e+04 4.200e-09
 22.53521     -5.9 1.412e+04 3.205e-09
 22.54782     -7.3 1.367e+04 2.295e-09
 22.56759     -9.1 1.291e+04 1.530e-09
 22.58736     -9.3 1.190e+04 9.978e-10
 22.60713     -9.9 1.139e+04 8.251e-10
 22.62690    -10.1 1.088e+04 7.240e-10
 22.64667    -10.9 1.104e+04 7.656e-10
 22.66644    -11.2 1.130e+04 8.521e-10
 22.68263    -13.3 1.243e+04 1.172e-09
 22.69252    -11.1 1.173e+04 9.930e-10
 22.70598    -14.0 1.330e+04 1.646e-09
 22.71956    -16.4 1.428e+04 3.054e-09
 22.72945    -16.3 1.391e+04 2.637e-09
 22.74552    -15.8 1.404e+04 4.396e-09
 22.76529    -14.0 1.407e+04 5.107e-09
 22.78506    -12.2 1.425e+04 4.773e-09
 22.80483    -12.6 1.504e+04 3.552e-09
 22.82460    -15.1 1.508e+04 2.040e-09
 22.84437    -19.2 1.302e+04 1.167e-09
 22.85552    -21.9 1.142e+04 8.246e-10
 22.86541    -19.1 1.177e+04 8.372e-10
 22.88391    -20.9 1.112e+04 6.840e-10
 22.90368    -22.2 1.142e+04 6.441e-10
 22.91380    -23.8 1.145e+04 7.610e-10
 22.92368    -23.6 1.150e+04 8.095e-10
 22.94322    -24.5 1.157e+04 9.294e-10
 22.96299    -24.6 1.135e+04 1.008e-09
 22.98276    -24.1 1.105e+04 1.015e-09
 23.00253    -23.5 1.109e+04 8.914e-10
 23.01853    -23.9 1.128e+04 6.391e-10
 23.02841    -22.7 1.119e+04 7.062e-10
 23.04207    -23.4 1.109e+04 5.949e-10
 23.06184    -25.1 1.085e+04 4.617e-10
 23.08161    -26.4 1.047e+04 4.142e-10
 23.09825    -27.5 1.023e+04 4.105e-10
 23.11811    -27.0 1.018e+04 3.919e-10
 23.15100    -27.5 1.007e+04 4.112e-10
 23.18173    -28.4 1.018e+04 4.189e-10
 23.20150    -26.2 1.012e+04 4.454e-10
 23.23009    -27.3 1.014e+04 4.206e-10
 23.26963    -28.6 1.001e+04 3.751e-10
 23.30917    -30.2 9.912e+03 3.466e-10
 23.34871    -31.9 1.002e+04 3.805e-10
 23.38825    -33.5 1.018e+04 5.047e-10
 23.42779    -33.8 1.024e+04 5.897e-10
 23.46705    -34.1 1.006e+04 5.068e-10
 23.48682    -33.7 9.925e+03 4.810e-10
 23.50687    -34.3 9.554e+03 3.468e-10
 23.52751    -34.9 9.163e+03 2.594e-10
 23.54728    -33.7 9.408e+03 3.373e-10
 23.58595    -34.0 9.130e+03 2.822e-10
 23.62549    -33.8 8.898e+03 2.356e-10
 23.66503    -33.3 8.661e+03 1.848e-10
 23.70457    -32.9 8.389e+03 1.321e-10
 23.74411    -32.5 8.207e+03 1.029e-10
 23.78365    -32.5 8.076e+03 8.866e-11
 23.82319    -32.5 8.116e+03 9.066e-11
 23.85352    -32.6 8.237e+03 1.271e-10
 23.86608    -32.1 8.043e+03 9.404e-11
 23.87529    -31.1 8.004e+03 8.900e-11
 23.90227    -31.0 8.224e+03 1.207e-10
 23.94181    -31.0 8.622e+03 1.703e-10
 23.98135    -31.6 9.042e+03 2.260e-10
 24.02089    -32.4 9.254e+03 2.544e-10
 24.06043    -33.0 9.275e+03 2.614e-10
 24.09997    -33.3 9.122e+03 2.102e-10
 24.13951    -33.5 8.913e+03 1.492e-10
 24.17905    -33.5 8.707e+03 1.215e-10
 24.19930    -32.5 8.507e+03 1.084e-10
 24.21907    -32.6 8.361e+03 1.003e-10
 24.24399    -31.0 8.252e+03 9.359e-11
 24.26376    -30.3 8.238e+03 8.105e-11
 24.29767    -28.7 8.165e+03 7.154e-11
 24.33721    -27.2 8.174e+03 6.145e-11
 24.37675    -25.8 8.207e+03 5.813e-11
 24.41629    -24.6 8.281e+03 6.599e-11
 24.45583    -23.2 8.324e+03 9.459e-11
 24.49537    -21.7 8.820e+03 1.452e-10
 24.52531    -21.6 9.619e+03 2.477e-10
 24.54508    -21.6 9.383e+03 1.966e-10
 24.57446    -22.3 1.026e+04 4.631e-10
 24.61269    -21.6 1.094e+04 9.418e-10
 24.63246    -21.7 1.099e+04 8.725e-10
 24.65354    -20.0 1.154e+04 1.409e-09
 24.69308    -19.8 1.149e+04 1.083e-09
 24.73262    -21.1 1.085e+04 6.182e-10
 24.77216    -22.4 1.004e+04 5.010e-10
 24.81170    -21.5 9.738e+03 4.807e-10
 24.85124    -20.2 9.673e+03 4.414e-10
 24.89078    -18.0 9.131e+03 2.769e-10
 24.93032    -16.7 8.959e+03 2.527e-10
 24.96986    -15.2 8.876e+03 2.158e-10
 25.00117    -14.1 8.876e+03 2.009e-10
 25.02094    -13.6 8.929e+03 2.193e-10
 25.04894    -12.5 8.948e+03 2.234e-10
 25.08848    -11.6 9.129e+03 2.345e-10
 25.12802    -10.7 9.233e+03 2.906e-10
 25.16756     -9.2 9.332e+03 3.553e-10
 25.19711     -7.7 9.335e+03 3.402e-10
 25.21688     -6.5 9.473e+03 3.908e-10
 25.24664     -4.9 9.365e+03 3.420e-10
 25.28618     -3.4 9.165e+03 2.429e-10
 25.32572     -2.6 8.986e+03 1.566e-10
 25.36526     -1.9 8.771e+03 1.237e-10
 25.38964     -1.0 8.768e+03 1.302e-10
 25.40941     -0.2 8.691e+03 1.087e-10
 25.44434      0.9 8.756e+03 1.389e-10
 25.48388      2.6 8.950e+03 1.841e-10
 25.52312      3.7 9.367e+03 2.524e-10
 25.54289      4.0 9.525e+03 2.895e-10
 25.56296      4.8 1.002e+04 4.286e-10
 25.60250      3.4 1.180e+04 1.003e-09
 25.63206     -0.5 1.360e+04 2.756e-09
 25.65173      0.2 1.408e+04 5.108e-09
 25.67150      2.1 1.450e+04 6.604e-09
 25.69127      4.2 1.429e+04 6.086e-09
 25.70570      6.3 1.366e+04 4.140e-09
 25.71558      6.5 1.361e+04 4.185e-09
 25.73081      6.0 1.323e+04 2.394e-09
 25.75058      2.5 1.212e+04 9.596e-10
 25.76803      0.7 1.121e+04 7.197e-10
 25.77792      1.5 1.141e+04 7.548e-10
 25.79012     -0.0 1.051e+04 4.956e-10
 25.80989     -1.3 1.006e+04 3.954e-10
 25.82966     -1.7 9.678e+03 3.566e-10
 25.84943     -1.6 9.485e+03 3.632e-10
 25.86870     -1.1 9.396e+03 3.557e-10
 25.88857      0.0 9.488e+03 3.553e-10
 25.91883     -0.2 9.382e+03 2.970e-10
 25.94838     -1.0 9.460e+03 3.331e-10
 25.96227     -1.4 9.581e+03 3.792e-10
 25.97215     -1.5 9.556e+03 3.941e-10
 25.98783     -2.2 9.739e+03 5.217e-10
 26.00760     -2.7 1.025e+04 7.050e-10
 26.02737     -3.5 1.115e+04 1.031e-09
 26.04159     -4.3 1.261e+04 1.474e-09
 26.05148     -2.0 1.061e+04 8.275e-10
 26.06691     -2.4 1.124e+04 9.213e-10
 26.08668     -3.3 1.178e+04 9.671e-10
 26.10645     -4.9 1.229e+04 1.022e-09
 26.12622     -6.5 1.236e+04 1.158e-09
 26.14672     -7.8 1.210e+04 1.380e-09
 26.16658     -7.9 1.210e+04 1.470e-09
 26.19491     -8.5 1.221e+04 1.416e-09
 26.21468     -4.9 1.202e+04 1.331e-09
 26.22517     -6.5 1.309e+04 2.169e-09
 26.24484     -7.4 1.380e+04 2.897e-09
 26.26461     -7.7 1.417e+04 3.664e-09
 26.28438     -7.6 1.415e+04 4.124e-09
 26.30415     -6.9 1.389e+04 4.045e-09
 26.32392     -5.6 1.364e+04 3.311e-09
 26.34085     -4.4 1.354e+04 2.168e-09
 26.35074     -4.3 1.350e+04 1.255e-09
 26.36346     -5.1 1.267e+04 7.477e-10
 26.39321     -4.8 1.173e+04 5.250e-10
 26.43285     -6.3 9.220e+03 1.708e-10
 26.47239     -5.8 8.866e+03 1.032e-10
 26.51193     -4.3 8.825e+03 9.534e-11
 26.53529     -2.7 8.847e+03 1.130e-10
 26.54428     -2.2 8.772e+03 1.053e-10
 26.56046     -1.9 8.903e+03 1.243e-10
 26.59101      0.8 8.799e+03 1.630e-10
 26.63055      3.5 8.994e+03 1.627e-10
 26.67009      5.6 9.280e+03 1.567e-10
 26.70963      7.1 9.700e+03 1.982e-10
 26.73919      8.3 9.946e+03 2.309e-10
 26.75886      8.5 1.028e+04 2.812e-10
 26.77863      8.7 1.055e+04 3.537e-10
 26.79840      8.3 1.118e+04 5.190e-10
 26.81817      7.0 1.272e+04 9.168e-10
 26.83794      6.1 1.422e+04 1.711e-09
 26.85771      6.5 1.511e+04 2.854e-09
 26.87639      7.6 1.520e+04 3.950e-09
 26.88628      8.6 1.353e+04 2.741e-09
 26.89725      9.6 1.437e+04 3.149e-09
 26.91368      9.8 1.531e+04 3.035e-09
 26.92356     10.1 1.451e+04 2.603e-09
 26.93679     10.0 1.518e+04 2.410e-09
 26.95656      8.9 1.495e+04 2.420e-09
 26.97633      6.6 1.485e+04 2.755e-09
 26.99610      4.5 1.480e+04 3.787e-09
 27.01587      3.7 1.492e+04 4.983e-09
 27.03564      4.5 1.527e+04 5.929e-09
 27.04928      5.2 1.519e+04 6.273e-09
 27.05917      5.9 1.478e+04 6.095e-09
 27.07518      7.0 1.505e+04 5.999e-09
 27.09495      8.2 1.490e+04 5.029e-09
 27.10791      8.6 1.437e+04 3.844e-09
 27.11780      8.2 1.417e+04 3.364e-09
 27.13449      7.9 1.347e+04 2.473e-09
 27.15426      6.7 1.296e+04 1.873e-09
 27.17403      6.1 1.225e+04 1.585e-09
 27.19380      5.8 1.181e+04 1.378e-09
 27.21239      6.0 1.120e+04 1.038e-09
 27.22227      5.3 1.164e+04 1.580e-09
 27.23335      5.3 1.143e+04 1.524e-09
 27.25312      6.0 1.137e+04 1.515e-09
 27.27289      6.1 1.137e+04 1.439e-09
 27.29227      6.7 1.129e+04 1.434e-09
 27.30215      6.9 1.146e+04 1.516e-09
 27.31243      5.5 1.220e+04 1.832e-09
 27.33220      1.9 1.392e+04 2.865e-09
 27.35197     -1.1 1.528e+04 4.373e-09
 27.37174     -1.8 1.531e+04 6.828e-09
 27.38518     -1.4 1.594e+04 8.337e-09
 27.39507     -3.7 1.574e+04 5.268e-09
 27.41128     -5.6 1.600e+04 5.164e-09
 27.43105     -7.1 1.471e+04 3.992e-09
 27.45082     -8.4 1.382e+04 2.416e-09
 27.47059     -9.5 1.279e+04 1.482e-09
 27.48650    -11.0 1.154e+04 8.739e-10
 27.49639     -9.6 1.203e+04 9.586e-10
 27.51013    -11.4 1.055e+04 5.876e-10
 27.53840    -10.9 1.012e+04 4.870e-10
 27.55827    -10.0 1.056e+04 5.602e-10
 27.57952     -8.0 1.009e+04 3.718e-10
 27.61906     -5.6 9.788e+03 3.257e-10
 27.65860     -2.8 9.639e+03 2.879e-10
 27.68093     -0.4 9.746e+03 2.554e-10
 27.70070      1.2 9.338e+03 2.884e-10
 27.73768      3.4 9.660e+03 2.862e-10
 27.77722      3.4 1.079e+04 3.705e-10
 27.80678     -1.6 1.364e+04 1.034e-09
 27.82645     -1.8 1.419e+04 1.642e-09
 27.84622     -2.0 1.394e+04 3.570e-09
 27.86509      0.1 1.354e+04 4.754e-09
 27.87497     -0.2 1.381e+04 3.820e-09
 27.88408      1.8 1.332e+04 4.695e-09
 27.89397      2.1 1.340e+04 5.083e-09
 27.90553      4.5 1.330e+04 4.906e-09
 27.92530      7.1 1.331e+04 4.079e-09
 27.94507      8.6 1.368e+04 2.714e-09
 27.96484      7.2 1.340e+04 1.395e-09
 27.98461      3.8 1.130e+04 6.577e-10
 28.00438      1.7 9.894e+03 4.759e-10
 28.02415      1.5 9.972e+03 4.893e-10
 28.04392      1.1 1.016e+04 5.776e-10
 28.05697      0.6 1.048e+04 7.001e-10
 28.06249      0.5 1.048e+04 7.026e-10
 28.06921      1.4 1.055e+04 6.820e-10
 28.08346      1.1 1.090e+04 1.050e-09
 28.10323      0.9 1.142e+04 1.378e-09
 28.12300      1.3 1.167e+04 1.892e-09
 28.14277      2.3 1.194e+04 2.254e-09
 28.16254      3.2 1.208e+04 2.369e-09
 28.18231      3.8 1.218e+04 2.318e-09
 28.20208      3.6 1.210e+04 2.017e-09
 28.21998      2.8 1.201e+04 1.728e-09
 28.22986      1.6 1.170e+04 1.332e-09
 28.24162      0.8 1.146e+04 1.235e-09
 28.25356      0.3 1.126e+04 1.171e-09
 28.26345      0.7 1.145e+04 1.344e-09
 28.28116      0.5 1.139e+04 1.299e-09
 28.30093      0.3 1.141e+04 1.251e-09
 28.32070     -0.3 1.154e+04 1.302e-09
 28.34047     -1.2 1.174e+04 1.436e-09
 28.36024     -2.0 1.194e+04 1.684e-09
 28.38001     -2.3 1.213e+04 1.941e-09
 28.39287     -1.8 1.216e+04 2.181e-09
 28.40276     -2.2 1.175e+04 1.757e-09
 28.41955     -1.3 1.173e+04 1.790e-09
 28.43791     -0.2 1.173e+04 1.670e-09
 28.44780      0.1 1.189e+04 1.770e-09
 28.45909      0.5 1.185e+04 1.460e-09
 28.47886      0.1 1.147e+04 1.152e-09
 28.49863     -0.4 1.112e+04 9.398e-10
 28.51840     -1.0 1.088e+04 8.489e-10
 28.53818     -1.3 1.076e+04 8.110e-10
 28.55588     -1.5 1.069e+04 8.838e-10
 28.56576     -1.2 1.042e+04 7.057e-10
 28.57772     -0.9 1.048e+04 7.332e-10
 28.59749     -0.4 1.046e+04 7.839e-10
 28.61726      0.2 1.062e+04 8.166e-10
 28.63215      0.8 1.065e+04 8.088e-10
 28.64203      0.9 1.066e+04 6.642e-10
 28.65680      1.4 1.045e+04 5.927e-10
 28.67657      1.9 1.006e+04 4.848e-10
 28.69634      2.3 9.672e+03 4.073e-10
 28.72609      3.3 9.352e+03 2.917e-10
 28.76573      4.2 8.924e+03 1.904e-10
 28.80527      5.1 8.700e+03 1.664e-10
 28.82658      6.6 8.785e+03 1.743e-10
 28.84635      6.3 9.312e+03 2.668e-10
 28.87437      7.3 9.640e+03 3.223e-10
 28.89177      7.2 9.858e+03 3.477e-10
 28.90166      7.5 9.781e+03 3.504e-10
 28.91381      7.4 1.036e+04 5.990e-10
 28.93358      7.6 1.065e+04 6.921e-10
 28.96333      8.8 1.159e+04 1.418e-09
 29.00297      9.8 1.238e+04 1.877e-09
 29.03253      9.6 1.260e+04 2.026e-09
 29.05220      9.4 1.267e+04 2.002e-09
 29.06466      9.3 1.275e+04 1.944e-09
 29.07455      9.6 1.287e+04 2.135e-09
 29.09174      9.6 1.291e+04 1.944e-09
 29.11151      9.3 1.302e+04 1.641e-09
 29.13128      8.1 1.307e+04 1.430e-09
 29.15105      6.6 1.271e+04 1.384e-09
 29.17082      5.4 1.228e+04 1.376e-09
 29.19059      4.7 1.195e+04 1.427e-09
 29.20497      4.6 1.181e+04 1.450e-09
 29.21495      3.9 1.135e+04 9.820e-10
 29.22777      3.5 1.156e+04 1.075e-09
 29.23755      4.0 1.170e+04 1.176e-09
 29.24990      2.1 1.235e+04 1.357e-09
 29.26967     -1.4 1.405e+04 1.916e-09
 29.28944     -3.7 1.451e+04 3.141e-09
 29.30921     -3.4 1.446e+04 5.101e-09
 29.32898     -1.1 1.423e+04 5.952e-09
 29.34875      0.4 1.425e+04 5.717e-09
 29.36852      1.4 1.402e+04 4.167e-09
 29.38829      0.2 1.326e+04 2.802e-09
 29.39921     -1.3 1.208e+04 1.894e-09
 29.40159     -2.0 1.155e+04 1.394e-09
 29.41044     -1.4 1.155e+04 1.353e-09
 29.43781     -1.7 1.137e+04 1.399e-09
 29.47745     -0.6 1.095e+04 1.253e-09
 29.51699      1.5 1.071e+04 1.219e-09
 29.55388      4.3 1.027e+04 9.656e-10
 29.57365      4.9 1.052e+04 1.115e-09
 29.58375      6.8 1.015e+04 7.882e-10
 29.60353      7.2 1.009e+04 8.117e-10
 29.63561      8.0 9.674e+03 5.917e-10
 29.67515      9.0 9.210e+03 4.929e-10
 29.71469     10.4 8.914e+03 4.652e-10
 29.75423     12.3 8.675e+03 4.434e-10
 29.79377     14.6 8.361e+03 3.828e-10
 29.83332     17.0 8.017e+03 2.972e-10
 29.87286     19.1 7.680e+03 2.133e-10
 29.89966     20.6 7.399e+03 1.576e-10
 29.91943     19.9 7.423e+03 1.662e-10
 29.95194     21.4 7.172e+03 1.450e-10
 29.97223     23.3 7.025e+03 1.364e-10
 29.99200     23.8 6.776e+03 1.023e-10
 30.03102     26.0 6.698e+03 9.705e-11
 30.07056     28.1 6.629e+03 9.153e-11
 30.11010     29.9 6.579e+03 8.574e-11
 30.14964     31.4 6.616e+03 8.733e-11
 30.18918     32.4 6.759e+03 1.007e-10
 30.22567     33.2 7.013e+03 1.369e-10
 30.24544     33.0 6.896e+03 1.226e-10
 30.26826     34.1 7.080e+03 1.562e-10
 30.30780     34.8 7.129e+03 1.619e-10
 30.34093     35.3 7.096e+03 1.570e-10
 30.36070     36.7 7.151e+03 1.649e-10
 30.38688     37.0 7.072e+03 1.557e-10
 30.42642     37.2 6.968e+03 1.445e-10
 30.46596     37.3 6.986e+03 1.427e-10
 30.50550     37.0 7.118e+03 1.563e-10
 30.54504     35.8 7.772e+03 2.239e-10
 30.57145     34.5 8.684e+03 3.779e-10
 30.59122     36.1 8.321e+03 3.395e-10
 30.61414     35.9 8.721e+03 4.162e-10
 30.63381     35.3 9.205e+03 5.470e-10
 30.65358     34.7 9.587e+03 7.134e-10
 30.67335     34.3 9.827e+03 8.572e-10
 30.69312     34.0 9.875e+03 9.164e-10
 30.71289     33.9 9.752e+03 8.857e-10
 30.72921     33.9 9.559e+03 8.153e-10
 30.73909     34.4 9.554e+03 8.100e-10
 30.74415     34.2 9.389e+03 7.408e-10
 30.75403     34.4 9.391e+03 7.381e-10
 30.77220     34.3 9.267e+03 6.817e-10
 30.79197     33.8 9.224e+03 6.167e-10
 30.81174     32.9 9.282e+03 6.068e-10
 30.83151     31.9 9.326e+03 6.151e-10
 30.85128     31.2 9.445e+03 6.593e-10
 30.87105     30.8 9.497e+03 6.810e-10
 30.89082     30.7 9.396e+03 6.322e-10
 30.90715     30.6 9.298e+03 5.977e-10
 30.91704     31.8 9.317e+03 5.955e-10
 30.94035     32.7 9.189e+03 5.164e-10
 30.97998     32.8 8.569e+03 3.343e-10
 31.01952     32.2 8.155e+03 2.289e-10
 31.05906     31.6 8.200e+03 2.275e-10
 31.09810     30.8 8.555e+03 2.677e-10
 31.11787     30.6 9.085e+03 3.316e-10
 31.13815     29.9 9.511e+03 4.919e-10
 31.17769     30.0 9.836e+03 6.299e-10
 31.21723     30.1 9.855e+03 6.106e-10
 31.24324     30.2 9.778e+03 5.095e-10
 31.26301     31.6 1.046e+04 8.502e-10
 31.29631     31.7 1.005e+04 5.859e-10
 31.33585     31.5 9.659e+03 3.953e-10
 31.37539     31.3 9.378e+03 3.049e-10
 31.41493     31.6 9.229e+03 2.910e-10
 31.45447     32.4 9.295e+03 2.941e-10
 31.48658     33.1 9.407e+03 3.041e-10
 31.50635     32.7 9.675e+03 3.325e-10
 31.53355     32.8 9.687e+03 3.361e-10
 31.56925     33.0 9.712e+03 3.569e-10
 31.58902     33.2 9.216e+03 2.459e-10
 31.61263     33.8 9.401e+03 3.622e-10
 31.65217     34.7 9.513e+03 3.960e-10
 31.69171     35.8 9.397e+03 3.566e-10
 31.73125     37.2 9.130e+03 2.409e-10
 31.77079     38.0 8.876e+03 1.323e-10
 31.81033     38.0 8.726e+03 8.127e-11
 31.84987     38.5 8.678e+03 8.034e-11
 31.87505     39.2 8.783e+03 9.315e-11
 31.89482     39.3 8.809e+03 9.363e-11
 31.91504     40.1 9.136e+03 1.448e-10
 31.93481     41.8 8.728e+03 9.392e-11
 31.96849     42.8 9.253e+03 1.604e-10
 32.00803     42.9 9.936e+03 3.086e-10
 32.04757     42.8 1.087e+04 6.499e-10
 32.08711     43.1 1.164e+04 1.102e-09
 32.12665     43.1 1.203e+04 1.423e-09
 32.15621     43.1 1.198e+04 1.381e-09
 32.17588     42.9 1.193e+04 1.361e-09
 32.19565     43.2 1.176e+04 1.292e-09
 32.21542     43.4 1.155e+04 1.190e-09
 32.23519     43.6 1.122e+04 1.063e-09
 32.25074     44.0 1.081e+04 8.774e-10
 32.25910     44.4 1.099e+04 9.481e-10
 32.26333     44.5 1.114e+04 1.030e-09
 32.27473     45.2 1.074e+04 8.351e-10
 32.29450     46.1 1.042e+04 6.314e-10
 32.31427     46.1 1.028e+04 4.314e-10
 32.33404     45.9 1.011e+04 3.354e-10
 32.36380     46.6 1.001e+04 2.855e-10
 32.40343     46.7 9.859e+03 2.871e-10
 32.44297     47.2 9.787e+03 3.325e-10
 32.48252     48.2 9.793e+03 3.717e-10
 32.52206     49.4 9.786e+03 3.427e-10
 32.56160     50.1 9.727e+03 2.799e-10
 32.58683     50.1 9.656e+03 2.357e-10
 32.59662     50.9 9.967e+03 2.972e-10
 32.61083     50.7 9.869e+03 2.686e-10
 32.63060     50.3 9.877e+03 2.650e-10
 32.64191     50.2 9.844e+03 2.644e-10
 32.65180     49.8 9.854e+03 2.695e-10
 32.67014     49.5 9.913e+03 2.932e-10
 32.68991     48.9 1.018e+04 3.665e-10
 32.70968     48.1 1.057e+04 5.038e-10
 32.72945     47.3 1.104e+04 7.274e-10
 32.74922     46.2 1.159e+04 1.063e-09
 32.75952     45.2 1.213e+04 1.483e-09
 32.76941     45.8 1.232e+04 1.669e-09
 32.78876     44.8 1.280e+04 1.978e-09
 32.80853     43.2 1.311e+04 2.011e-09
 32.82626     41.3 1.308e+04 1.913e-09
 32.83615     40.6 1.339e+04 2.213e-09
 32.84807     38.7 1.310e+04 1.990e-09
 32.86784     37.6 1.263e+04 1.607e-09
 32.88761     36.2 1.223e+04 1.317e-09
 32.90738     36.0 1.174e+04 9.597e-10
 32.92253     35.5 1.157e+04 8.215e-10
 32.93242     35.7 1.155e+04 7.905e-10
 32.94692     35.4 1.141e+04 6.309e-10
 32.96669     35.2 1.127e+04 5.947e-10
 32.98646     34.9 1.132e+04 5.957e-10
 33.00623     34.9 1.130e+04 5.984e-10
 33.02050     34.4 1.153e+04 6.500e-10
 33.04037     33.9 1.181e+04 7.569e-10
 33.06564     33.3 1.175e+04 9.925e-10
 33.08531     33.9 1.161e+04 1.171e-09
 33.09542     34.8 1.159e+04 1.211e-09
 33.10531     34.3 1.216e+04 1.905e-09
 33.12485     35.6 1.213e+04 1.861e-09
 33.14462     37.0 1.198e+04 1.586e-09
 33.16439     37.3 1.183e+04 1.152e-09
 33.18416     37.1 1.162e+04 7.377e-10
 33.20393     35.8 1.142e+04 5.196e-10
 33.21474     35.0 1.088e+04 4.125e-10
 33.22462     34.3 1.078e+04 4.260e-10
 33.24347     34.3 1.074e+04 4.302e-10
 33.25852     34.2 1.079e+04 4.523e-10
 33.26841     33.5 1.111e+04 6.043e-10
 33.28301     33.6 1.112e+04 6.286e-10
 33.30278     33.3 1.137e+04 8.723e-10
 33.32255     33.4 1.145e+04 9.376e-10
 33.34232     33.8 1.139e+04 9.988e-10
 33.36209     33.8 1.141e+04 1.006e-09
 33.38186     34.7 1.108e+04 8.358e-10
 33.39909     34.7 1.107e+04 7.984e-10
 33.40897     34.3 1.121e+04 8.522e-10
 33.42140     34.3 1.093e+04 6.148e-10
 33.44117     33.7 1.077e+04 5.162e-10
 33.47093     33.4 1.036e+04 3.996e-10
 33.51056     33.2 9.868e+03 3.196e-10
 33.55010     34.0 9.481e+03 2.473e-10
 33.58463     35.2 9.274e+03 1.819e-10
 33.60440     35.3 9.187e+03 1.655e-10
 33.62918     36.0 9.139e+03 1.107e-10
 33.66872     36.6 8.998e+03 9.124e-11
 33.70826     37.6 8.923e+03 9.141e-11
 33.74780     39.0 8.902e+03 9.748e-11
 33.77787     40.5 8.903e+03 1.084e-10
 33.79764     40.4 8.998e+03 1.318e-10
 33.82689     42.0 9.021e+03 1.264e-10
 33.86643     43.4 9.043e+03 1.176e-10
 33.90597     44.7 9.072e+03 1.161e-10
 33.93041     45.9 9.101e+03 1.191e-10
 33.95019     45.6 9.091e+03 1.142e-10
 33.98505     46.7 9.173e+03 1.363e-10
 34.02459     48.1 9.298e+03 1.691e-10
 34.06413     49.7 9.464e+03 1.994e-10
 34.10367     51.3 9.640e+03 2.147e-10
 34.14321     52.7 9.748e+03 2.197e-10
 34.16634     53.9 9.851e+03 2.293e-10
 34.18611     54.2 9.840e+03 2.320e-10
 34.22229     55.5 1.024e+04 3.199e-10
 34.25185     55.7 1.052e+04 4.006e-10
 34.26612     56.0 1.064e+04 4.461e-10
 34.27610     55.6 1.081e+04 5.492e-10
 34.30137     56.5 1.156e+04 8.856e-10
 34.33093     56.7 1.179e+04 9.691e-10
 34.35050     56.8 1.191e+04 1.013e-09
 34.36038     57.2 1.221e+04 1.207e-09
 34.37037     57.4 1.223e+04 1.194e-09
 34.39014     57.7 1.216e+04 1.109e-09
 34.40991     57.9 1.205e+04 9.380e-10
 34.42912     57.8 1.191e+04 7.638e-10
 34.43901     57.2 1.192e+04 7.949e-10
 34.44945     56.9 1.191e+04 7.556e-10
 34.46922     56.3 1.199e+04 7.793e-10
 34.48899     55.4 1.227e+04 9.036e-10
 34.50876     54.7 1.265e+04 1.226e-09
 34.52853     54.7 1.296e+04 1.730e-09
 34.54474     55.3 1.318e+04 2.241e-09
 34.55462     55.5 1.356e+04 2.993e-09
 34.56807     56.3 1.358e+04 3.004e-09
 34.58784     57.1 1.341e+04 2.732e-09
 34.60201     57.5 1.302e+04 2.152e-09
 34.61190     57.2 1.296e+04 2.102e-09
 34.62738     57.3 1.253e+04 1.598e-09
 34.64715     57.2 1.213e+04 1.225e-09
 34.66692     57.1 1.183e+04 9.819e-10
 34.68669     57.1 1.162e+04 8.248e-10
 34.70646     57.1 1.145e+04 7.269e-10
 34.72623     57.3 1.135e+04 6.945e-10
 34.73897     57.7 1.138e+04 7.010e-10
 34.74886     57.5 1.126e+04 6.349e-10
 34.76502     57.5 1.145e+04 6.964e-10
 34.77490     57.2 1.168e+04 8.397e-10
 34.78554     56.5 1.225e+04 1.075e-09
 34.80531     55.3 1.301e+04 1.554e-09
 34.82508     54.3 1.366e+04 2.324e-09
 34.84485     54.3 1.414e+04 3.267e-09
 34.86462     54.4 1.418e+04 3.670e-09
 34.88439     54.6 1.403e+04 3.512e-09
 34.90416     54.6 1.364e+04 2.958e-09
 34.92332     54.2 1.313e+04 2.285e-09
 34.93321     54.4 1.279e+04 1.748e-09
 34.93791     53.7 1.226e+04 1.301e-09
 34.94789     52.8 1.191e+04 1.047e-09
 34.97355     51.4 1.084e+04 6.477e-10
 35.01309     51.5 1.041e+04 5.251e-10
 35.05263     52.3 1.025e+04 4.670e-10
 35.09218     53.5 1.013e+04 4.144e-10
 35.13172     54.8 1.003e+04 3.656e-10
 35.17126     56.0 9.957e+03 3.295e-10
 35.21080     57.3 9.911e+03 3.038e-10
 35.25034     58.6 9.866e+03 2.806e-10
 35.27400     60.2 9.820e+03 2.569e-10
 35.29377     59.6 9.775e+03 2.449e-10
 35.31199     60.9 9.843e+03 2.507e-10
 35.33176     60.9 9.929e+03 2.828e-10
 35.36896     62.0 1.012e+04 3.346e-10
 35.40850     63.0 1.043e+04 4.444e-10
 35.44804     63.9 1.084e+04 6.311e-10
 35.48758     64.8 1.131e+04 8.643e-10
 35.52712     65.5 1.183e+04 1.095e-09
 35.56666     65.7 1.234e+04 1.276e-09
 35.60001     65.4 1.269e+04 1.333e-09
 35.61978     62.5 1.210e+04 9.840e-10
 35.64574     61.4 1.212e+04 1.061e-09
 35.68069     60.1 1.222e+04 1.207e-09
 35.70046     58.8 1.132e+04 8.427e-10
 35.72482     57.7 1.140e+04 8.257e-10
 35.76436     56.3 1.143e+04 7.497e-10
 35.80390     54.9 1.115e+04 6.038e-10
 35.84344     54.2 1.058e+04 3.970e-10
 35.88298     53.5 1.021e+04 2.229e-10
 35.92252     52.8 1.027e+04 1.390e-10
 35.94570     52.4 1.028e+04 1.327e-10
 35.95548     50.6 1.016e+04 1.260e-10
 35.97175     50.6 1.024e+04 1.307e-10
 35.99152     50.1 1.057e+04 1.502e-10
 36.01129     48.6 1.121e+04 2.317e-10
 36.03106     46.6 1.170e+04 5.040e-10
 36.05083     43.8 1.317e+04 1.577e-09
 36.06897     40.4 1.692e+04 5.887e-09
 36.07886     42.0 1.528e+04 3.978e-09
 36.09037     39.5 1.814e+04 1.012e-08
 36.10860     37.1 1.922e+04 1.649e-08
 36.11849     37.2 1.855e+04 1.404e-08
 36.12991     36.0 1.790e+04 1.160e-08
 36.14968     34.2 1.684e+04 7.147e-09
 36.16945     31.5 1.571e+04 3.603e-09
 36.18922     28.3 1.437e+04 1.767e-09
 36.20899     26.0 1.297e+04 1.026e-09
 36.22876     25.2 1.172e+04 7.227e-10
 36.24853     25.2 1.087e+04 5.877e-10
 36.26321     25.7 1.036e+04 5.147e-10
 36.27309     26.9 1.148e+04 8.178e-10
 36.28149     27.0 1.088e+04 7.010e-10
 36.29138     26.9 1.031e+04 5.594e-10
 36.30784     27.7 1.036e+04 5.557e-10
 36.32761     28.2 1.049e+04 5.570e-10
 36.35737     29.6 1.031e+04 4.716e-10
 36.39700     31.3 1.030e+04 3.715e-10
 36.43655     32.3 1.044e+04 2.555e-10
 36.45764     32.6 1.042e+04 2.067e-10
 36.47741     32.1 1.028e+04 1.342e-10
 36.51563     32.3 9.937e+03 1.109e-10
 36.55517     33.4 9.837e+03 1.154e-10
 36.59471     34.7 9.814e+03 1.342e-10
 36.61759     36.3 1.000e+04 1.636e-10
 36.63736     36.5 1.015e+04 1.234e-10
 36.67379     37.7 1.019e+04 1.276e-10
 36.71333     38.9 1.019e+04 1.393e-10
 36.75287     40.0 1.028e+04 1.554e-10
 36.79241     40.9 1.049e+04 1.860e-10
 36.82634     41.8 1.073e+04 2.383e-10
 36.84611     42.0 1.075e+04 2.511e-10
 36.87149     43.0 1.094e+04 2.985e-10
 36.91103     43.9 1.092e+04 3.061e-10
 36.94360     44.8 1.085e+04 2.960e-10
 36.96337     44.0 1.044e+04 2.310e-10
 36.99011     44.7 1.041e+04 2.473e-10
 37.02965     45.1 1.038e+04 2.710e-10
 37.06919     45.4 1.032e+04 3.070e-10
 37.10873     46.1 1.018e+04 3.305e-10
 37.14827     47.0 1.011e+04 3.150e-10
 37.18781     48.2 9.966e+03 2.599e-10
 37.21481     49.2 9.777e+03 1.904e-10
 37.23458     49.3 9.893e+03 2.323e-10
 37.26689     50.3 9.762e+03 1.966e-10
 37.28938     51.7 9.794e+03 2.003e-10
 37.30915     50.6 1.020e+04 2.658e-10
 37.33599     51.9 1.007e+04 2.623e-10
 37.35566     52.4 1.013e+04 2.763e-10
 37.37543     52.8 1.035e+04 3.300e-10
 37.39520     53.1 1.064e+04 4.242e-10
 37.40885     53.5 1.103e+04 6.275e-10
 37.41874     52.5 1.177e+04 1.062e-09
 37.43474     53.4 1.199e+04 1.416e-09
 37.45219     54.6 1.232e+04 1.724e-09
 37.46208     54.7 1.245e+04 1.817e-09
 37.47428     55.4 1.266e+04 1.904e-09
 37.50404     56.8 1.246e+04 1.663e-09
 37.54367     58.3 1.225e+04 1.455e-09
 37.58321     59.4 1.167e+04 9.782e-10
 37.60329     59.9 1.101e+04 6.201e-10
 37.61569     58.5 1.068e+04 5.230e-10
 37.63516     57.5 1.034e+04 4.975e-10
 37.66229     58.5 1.014e+04 4.879e-10
 37.70183     59.6 1.012e+04 5.016e-10
 37.74138     60.6 1.016e+04 5.594e-10
 37.78092     61.7 1.030e+04 6.533e-10
 37.82046     62.4 1.033e+04 6.589e-10
 37.86000     62.7 1.023e+04 6.146e-10
 37.89954     62.6 9.881e+03 4.959e-10
 37.93908     62.3 9.378e+03 3.786e-10
 37.96117     62.1 8.847e+03 2.744e-10
 37.97431     61.0 8.599e+03 2.361e-10
 37.99176     60.7 8.861e+03 3.097e-10
 38.01816     61.4 8.435e+03 2.147e-10
 38.05770     62.2 8.033e+03 1.218e-10
 38.09724     62.3 7.640e+03 6.422e-11
 38.13678     62.3 7.473e+03 5.412e-11
 38.17632     62.7 7.469e+03 5.566e-11
 38.21586     63.0 7.554e+03 7.033e-11
 38.25540     63.5 7.889e+03 1.221e-10
 38.28718     64.3 8.373e+03 2.214e-10
 38.30695     63.8 8.454e+03 2.597e-10
 38.33448     64.6 8.719e+03 3.242e-10
 38.36046     64.9 8.731e+03 3.229e-10
 38.38023     64.8 8.625e+03 2.783e-10
 38.41356     65.0 8.537e+03 2.573e-10
 38.45310     65.1 8.348e+03 2.247e-10
 38.49264     65.3 8.238e+03 2.059e-10
 38.53218     65.8 8.254e+03 2.096e-10
 38.57172     66.3 8.361e+03 2.318e-10
 38.61126     67.0 8.614e+03 2.851e-10
 38.63297     67.9 8.942e+03 3.631e-10
 38.65274     67.6 9.025e+03 3.918e-10
 38.69034     68.6 9.100e+03 3.990e-10
 38.72916     69.6 9.052e+03 3.740e-10
 38.74893     69.3 9.103e+03 3.661e-10
 38.76942     70.3 8.967e+03 3.049e-10
 38.80896     71.3 8.746e+03 2.243e-10
 38.84850     72.3 8.495e+03 1.528e-10
 38.88804     73.3 8.268e+03 1.029e-10
 38.92758     74.3 8.094e+03 7.430e-11
 38.95898     75.4 7.985e+03 6.164e-11
 38.97875     75.1 7.901e+03 5.656e-11
 39.00666     76.6 7.919e+03 5.738e-11
 39.04621     78.1 7.990e+03 6.047e-11
 39.08575     79.7 8.109e+03 6.774e-11
 39.11763     81.3 8.236e+03 7.919e-11
 39.13740     80.9 8.128e+03 6.247e-11
 39.16483     82.6 8.218e+03 7.110e-11
 39.20437     84.4 8.323e+03 8.068e-11
 39.24391     86.1 8.442e+03 9.010e-11
 39.28345     87.8 8.559e+03 9.929e-11
 39.30476     89.3 8.673e+03 1.113e-10
 39.32453     88.8 8.734e+03 1.120e-10
 39.36253     90.1 8.887e+03 1.315e-10
 39.40207     91.2 9.122e+03 1.675e-10
 39.44161     92.2 9.430e+03 2.233e-10
 39.48115     92.9 9.827e+03 2.880e-10
 39.50611     93.2 1.025e+04 3.217e-10
 39.52588     92.6 9.578e+03 2.100e-10
 39.56023     92.6 9.844e+03 2.240e-10
 39.59977     92.4 1.009e+04 2.295e-10
 39.63077     92.0 1.031e+04 2.479e-10
 39.65054     90.8 9.999e+03 1.860e-10
 39.67885     90.6 1.015e+04 2.394e-10
 39.71839     90.7 1.030e+04 3.143e-10
 39.75793     91.1 1.050e+04 3.764e-10
 39.79747     91.5 1.064e+04 3.765e-10
 39.83701     91.9 1.073e+04 3.433e-10
 39.87481     92.2 1.070e+04 2.770e-10
 39.89458     90.7 9.827e+03 2.018e-10
 39.91609     91.1 9.702e+03 1.966e-10
 39.95563     91.6 9.770e+03 2.082e-10
 39.97645     91.4 9.805e+03 2.193e-10
 39.98624     90.0 9.726e+03 2.099e-10
 40.00486     89.8 9.873e+03 2.391e-10
 40.02463     88.8 1.027e+04 3.281e-10
 40.04440     86.8 1.101e+04 5.580e-10
 40.06417     84.1 1.200e+04 1.060e-09
 40.07874     81.0 1.293e+04 1.869e-09
 40.08862     79.2 1.320e+04 2.156e-09
 40.10371     76.0 1.375e+04 2.743e-09
 40.12348     71.7 1.404e+04 2.855e-09
 40.13936     65.6 1.445e+04 3.022e-09
 40.14925     66.5 1.360e+04 2.516e-09
 40.16302     60.3 1.400e+04 2.683e-09
 40.18279     53.9 1.520e+04 3.691e-09
 40.20256     49.7 1.615e+04 5.895e-09
 40.22233     48.0 1.660e+04 7.954e-09
 40.24210     47.1 1.665e+04 8.149e-09
 40.26187     46.6 1.644e+04 7.131e-09
 40.27297     45.5 1.592e+04 5.093e-09
 40.28286     46.7 1.519e+04 4.139e-09
 40.30141     44.3 1.449e+04 2.731e-09
 40.31225     40.8 1.478e+04 2.367e-09
 40.32214     43.5 1.449e+04 2.773e-09
 40.34095     39.8 1.524e+04 2.978e-09
 40.36072     35.6 1.666e+04 3.904e-09
 40.38049     33.2 1.640e+04 4.842e-09
 40.40027     32.3 1.577e+04 4.676e-09
 40.42004     31.2 1.490e+04 3.884e-09
 40.43981     28.3 1.417e+04 2.546e-09
 40.45732     22.5 1.302e+04 1.565e-09
 40.46721     25.6 1.636e+04 2.721e-09
 40.47526     17.8 1.321e+04 1.455e-09
 40.48514     23.0 1.897e+04 2.147e-09
 40.49912     14.9 1.262e+04 1.210e-09
 40.51889     11.3 1.096e+04 1.146e-09
 40.53866     10.6 1.099e+04 1.172e-09
 40.55843      7.5 1.200e+04 1.511e-09
 40.57820      3.4 1.362e+04 2.387e-09
 40.59797      0.9 1.375e+04 3.417e-09
 40.61774      1.4 1.361e+04 4.298e-09
 40.63751      2.1 1.356e+04 4.232e-09
 40.64815      3.3 1.340e+04 3.465e-09
 40.65232      4.1 1.349e+04 3.672e-09
 40.66144      3.1 1.363e+04 3.722e-09
 40.67705      2.8 1.325e+04 2.045e-09
 40.70680     -3.2 1.182e+04 4.651e-10
 40.74644    -10.6 8.736e+03 1.373e-10
 40.78598    -10.6 8.590e+03 1.257e-10
 40.82552    -10.6 8.802e+03 1.448e-10
 40.86506    -10.9 9.117e+03 1.875e-10
 40.90460    -12.1 9.675e+03 3.008e-10
 40.94414    -14.2 1.075e+04 5.550e-10
 40.97436    -16.6 1.164e+04 9.017e-10
 40.99413    -16.7 1.175e+04 1.200e-09
 41.02046    -17.0 1.164e+04 1.232e-09
 41.04023    -17.8 1.192e+04 1.430e-09
 41.06276    -19.3 1.142e+04 6.851e-10
 41.10230    -23.5 1.053e+04 4.157e-10
 41.14184    -25.2 1.031e+04 4.334e-10
 41.18138    -26.5 1.067e+04 6.828e-10
 41.22092    -27.3 1.148e+04 1.073e-09
 41.26046    -28.5 1.235e+04 1.366e-09
 41.29002    -30.2 1.239e+04 1.197e-09
 41.30969    -31.9 1.291e+04 1.229e-09
 41.31994    -34.9 1.244e+04 1.065e-09
 41.32983    -33.2 1.202e+04 7.989e-10
 41.34923    -34.7 1.200e+04 7.806e-10
 41.36900    -36.1 1.143e+04 7.514e-10
 41.38877    -36.2 1.117e+04 7.924e-10
 41.40854    -36.0 1.094e+04 7.949e-10
 41.41862    -35.3 1.085e+04 7.584e-10
 41.42850    -35.5 1.087e+04 7.651e-10
 41.44808    -35.2 1.078e+04 6.619e-10
 41.46785    -35.0 1.063e+04 5.375e-10
 41.48295    -35.0 1.050e+04 4.308e-10
 41.49283    -34.4 1.059e+04 5.278e-10
 41.50739    -34.6 1.046e+04 4.524e-10
 41.52716    -34.9 1.032e+04 3.996e-10
 41.54693    -35.1 1.029e+04 3.799e-10
 41.56670    -35.3 1.031e+04 3.762e-10
 41.58647    -35.6 1.037e+04 3.768e-10
 41.60297    -35.9 1.046e+04 3.875e-10
 41.61285    -37.1 1.058e+04 4.317e-10
 41.62601    -37.6 1.082e+04 4.844e-10
 41.64578    -38.2 1.107e+04 5.256e-10
 41.65584    -38.9 1.127e+04 5.667e-10
 41.66572    -37.5 1.144e+04 8.895e-10
 41.68532    -38.9 1.158e+04 9.011e-10
 41.70509    -39.7 1.157e+04 9.593e-10
 41.72487    -40.4 1.158e+04 9.830e-10
 41.74464    -41.4 1.161e+04 9.917e-10
 41.76441    -42.8 1.170e+04 1.002e-09
 41.78418    -45.2 1.216e+04 1.064e-09
 41.79721    -48.5 1.263e+04 1.325e-09
 41.80709    -49.5 1.293e+04 1.409e-09
 41.81884    -52.0 1.343e+04 2.261e-09
 41.82873    -52.1 1.393e+04 2.361e-09
 41.84349    -53.0 1.445e+04 3.602e-09
 41.86326    -53.3 1.485e+04 4.255e-09
 41.88303    -54.1 1.493e+04 4.272e-09
 41.90280    -55.5 1.451e+04 3.198e-09
 41.92257    -58.1 1.351e+04 2.134e-09
 41.94234    -60.8 1.260e+04 1.704e-09
 41.96211    -62.2 1.218e+04 1.578e-09
 41.98156    -62.7 1.186e+04 1.473e-09
 41.99142    -62.9 1.189e+04 1.479e-09
 42.00162    -62.3 1.156e+04 1.071e-09
 42.02142    -62.3 1.116e+04 8.772e-10
 42.04119    -62.5 1.070e+04 6.363e-10
 42.06096    -62.8 1.024e+04 4.400e-10
 42.09071    -63.4 9.806e+03 3.093e-10
 42.13035    -63.6 9.335e+03 2.088e-10
 42.16610    -63.6 8.949e+03 1.510e-10
 42.18587    -63.6 8.892e+03 1.382e-10
 42.20943    -63.2 8.666e+03 1.176e-10
 42.24897    -62.4 8.598e+03 1.142e-10
 42.28851    -61.5 8.582e+03 1.145e-10
 42.31794    -60.6 8.582e+03 1.194e-10
 42.33771    -60.2 8.514e+03 1.117e-10
 42.36759    -59.2 8.539e+03 1.128e-10
 42.40713    -58.3 8.600e+03 1.151e-10
 42.44667    -57.6 8.725e+03 1.241e-10
 42.48621    -57.1 8.908e+03 1.447e-10
 42.52575    -56.5 9.039e+03 1.817e-10
 42.55458    -55.7 9.169e+03 2.099e-10
 42.57435    -55.9 9.221e+03 2.445e-10
 42.60483    -55.1 9.331e+03 2.677e-10
 42.64395    -54.4 9.368e+03 2.624e-10
 42.66372    -53.8 9.213e+03 1.972e-10
 42.68391    -53.3 9.239e+03 1.661e-10
 42.72345    -53.1 9.201e+03 1.229e-10
 42.76299    -53.1 9.157e+03 1.030e-10
 42.80253    -53.1 9.154e+03 1.000e-10
 42.84207    -53.8 9.245e+03 1.307e-10
 42.88161    -54.8 9.930e+03 2.717e-10
 42.92115    -56.1 1.086e+04 5.568e-10
 42.94305    -57.9 1.183e+04 9.664e-10
 42.96282    -57.8 1.187e+04 1.034e-09
 42.98973    -60.1 1.249e+04 1.351e-09
 43.00950    -60.6 1.255e+04 1.421e-09
 43.02979    -62.2 1.261e+04 1.475e-09
 43.04947    -62.9 1.244e+04 1.357e-09
 43.06924    -63.8 1.207e+04 1.056e-09
 43.08901    -64.6 1.176e+04 8.084e-10
 43.10878    -65.7 1.150e+04 6.559e-10
 43.12720    -66.6 1.133e+04 5.803e-10
 43.13709    -66.4 1.141e+04 6.570e-10
 43.14832    -67.1 1.139e+04 6.450e-10
 43.16243    -67.9 1.147e+04 6.537e-10
 43.17232    -67.9 1.150e+04 6.486e-10
 43.18786    -69.0 1.179e+04 7.657e-10
 43.20763    -70.1 1.212e+04 9.825e-10
 43.22740    -71.3 1.251e+04 1.326e-09
 43.24717    -72.3 1.292e+04 1.815e-09
 43.26694    -73.2 1.325e+04 2.367e-09
 43.28671    -73.9 1.332e+04 2.709e-09
 43.30648    -74.4 1.329e+04 2.763e-09
 43.32144    -74.6 1.293e+04 2.462e-09
 43.33051    -74.1 1.256e+04 2.080e-09
 43.33532    -74.3 1.239e+04 1.892e-09
 43.34602    -74.8 1.196e+04 1.263e-09
 43.36579    -76.1 1.156e+04 8.257e-10
 43.38556    -77.6 1.117e+04 5.992e-10
 43.40533    -79.0 1.091e+04 5.200e-10
 43.42510    -79.9 1.084e+04 5.051e-10
 43.44487    -80.7 1.084e+04 5.087e-10
 43.46464    -81.5 1.087e+04 5.591e-10
 43.48441    -82.0 1.089e+04 6.256e-10
 43.49833    -82.5 1.090e+04 6.666e-10
 43.50821    -82.6 1.064e+04 6.155e-10
 43.51568    -83.0 1.064e+04 6.277e-10
 43.52556    -82.8 1.075e+04 7.246e-10
 43.54372    -83.3 1.074e+04 7.283e-10
 43.56349    -83.8 1.059e+04 6.855e-10
 43.58326    -84.4 1.038e+04 6.028e-10
 43.60303    -85.0 1.020e+04 5.350e-10
 43.62280    -85.6 1.013e+04 5.025e-10
 43.64257    -86.2 1.012e+04 4.955e-10
 43.66133    -86.7 1.014e+04 5.019e-10
 43.68120    -86.8 9.966e+03 4.499e-10
 43.70022    -87.3 1.007e+04 5.117e-10
 43.71001    -86.8 1.007e+04 5.017e-10
 43.72165    -87.2 1.006e+04 5.128e-10
 43.75140    -87.1 9.988e+03 4.957e-10
 43.79104    -87.2 9.894e+03 4.785e-10
 43.83058    -87.1 9.689e+03 4.109e-10
 43.87012    -86.7 9.454e+03 3.292e-10
 43.90966    -86.4 9.378e+03 2.994e-10
 43.94920    -85.9 9.403e+03 2.994e-10
 43.98754    -85.6 9.662e+03 3.434e-10
 44.00731    -84.3 9.342e+03 2.842e-10
 44.02828    -84.0 9.681e+03 3.642e-10
 44.06782    -83.7 9.922e+03 4.180e-10
 44.08870    -83.5 9.984e+03 4.275e-10
 44.10847    -82.8 9.946e+03 4.192e-10
 44.14690    -83.0 9.948e+03 3.885e-10
 44.18644    -83.3 9.727e+03 3.069e-10
 44.22598    -83.6 9.568e+03 2.628e-10
 44.26552    -83.7 9.518e+03 2.547e-10
 44.30506    -83.5 9.542e+03 2.642e-10
 44.33332    -83.1 9.583e+03 2.822e-10
 44.35309    -82.3 9.601e+03 2.862e-10
 44.38415    -81.9 9.622e+03 2.962e-10
 44.42369    -81.4 9.598e+03 2.938e-10
 44.45740    -80.9 9.472e+03 2.598e-10
 44.47717    -80.7 9.351e+03 2.120e-10
 44.50277    -80.4 9.284e+03 1.921e-10
 44.54231    -80.1 9.276e+03 1.886e-10
 44.58185    -80.0 9.318e+03 1.965e-10
 44.62139    -80.1 9.460e+03 2.207e-10
 44.65933    -80.9 9.811e+03 2.583e-10
 44.67910    -82.4 1.008e+04 2.837e-10
 44.70047    -85.2 1.083e+04 4.429e-10
 44.74001    -87.9 1.148e+04 7.578e-10
 44.77955    -90.1 1.188e+04 1.109e-09
 44.81909    -92.0 1.197e+04 1.234e-09
 44.84587    -93.5 1.182e+04 1.213e-09
 44.86564    -92.9 1.243e+04 1.704e-09
 44.89817    -94.2 1.190e+04 1.364e-09
 44.93771    -95.3 1.135e+04 1.042e-09
 44.97725    -96.4 1.074e+04 7.565e-10
 45.00502    -98.3 9.734e+03 5.255e-10
 45.01480    -99.6 9.468e+03 4.762e-10
 45.02648   -100.1 9.395e+03 4.676e-10
 45.03991   -100.4 9.373e+03 4.672e-10
 45.04980   -100.3 9.214e+03 4.319e-10
 45.06602   -100.6 9.203e+03 4.354e-10
 45.08579   -100.9 9.226e+03 4.569e-10
 45.10556   -101.1 9.299e+03 4.857e-10
 45.12533   -101.4 9.378e+03 5.185e-10
 45.14510   -101.6 9.458e+03 5.546e-10
 45.16487   -101.9 9.544e+03 5.935e-10
 45.17781   -102.2 9.630e+03 6.327e-10
 45.18769   -102.1 9.588e+03 6.241e-10
 45.20441   -102.4 9.658e+03 6.574e-10
 45.22418   -102.8 9.696e+03 6.789e-10
 45.24395   -102.5 9.604e+03 6.476e-10
 45.26372   -102.9 9.608e+03 6.502e-10
 45.28349   -103.2 9.543e+03 6.449e-10
 45.30326   -103.2 9.364e+03 5.951e-10
 45.33103   -103.2 9.084e+03 4.970e-10
 45.35090   -102.4 8.994e+03 5.229e-10
 45.37265   -102.5 8.587e+03 4.030e-10
 45.41219   -103.0 8.039e+03 2.701e-10
 45.45173   -103.9 7.694e+03 1.934e-10
 45.49127   -105.2 7.534e+03 1.564e-10
 45.53081   -106.8 7.492e+03 1.464e-10
 45.57035   -108.2 7.474e+03 1.446e-10
 45.60305   -109.4 7.421e+03 1.489e-10
 45.62282   -109.2 7.641e+03 1.722e-10
 45.64944   -111.8 7.661e+03 2.026e-10
 45.67691   -115.7 9.209e+03 3.520e-10
 45.69668   -114.5 9.263e+03 4.321e-10
 45.72852   -119.3 1.094e+04 8.131e-10
 45.76806   -124.9 1.207e+04 1.379e-09
 45.80760   -130.8 1.241e+04 1.632e-09
 45.83715   -136.1 1.176e+04 1.350e-09
 45.84960   -138.3 1.137e+04 1.125e-09
 45.85949   -138.0 1.149e+04 1.153e-09
 45.87660   -140.7 1.085e+04 8.717e-10
 45.89637   -142.6 1.040e+04 6.912e-10
 45.91614   -144.5 1.006e+04 5.621e-10
 45.93591   -145.8 9.926e+03 4.955e-10
 45.96566   -147.6 9.724e+03 4.215e-10
 45.99152   -148.4 9.609e+03 3.809e-10
 46.00891   -148.1 9.586e+03 3.902e-10
 46.02269   -147.2 9.464e+03 3.702e-10
 46.04484   -147.8 9.230e+03 2.937e-10
 46.08438   -147.8 9.026e+03 2.298e-10
 46.12392   -147.7 8.854e+03 1.802e-10
 46.16346   -147.1 8.672e+03 1.401e-10
 46.20300   -146.1 8.522e+03 1.095e-10
 46.24254   -144.9 8.439e+03 8.757e-11
 46.28208   -143.6 8.407e+03 7.171e-11
 46.32162   -142.2 8.409e+03 6.000e-11
 46.34870   -140.8 8.435e+03 5.187e-11
 46.36753   -140.0 8.385e+03 5.511e-11
 46.37999   -139.9 8.417e+03 5.481e-11
 46.40070   -138.4 8.471e+03 5.136e-11
 46.44024   -136.8 8.522e+03 4.971e-11
 46.47978   -135.3 8.542e+03 4.921e-11
 46.51932   -133.8 8.576e+03 4.898e-11
 46.55886   -132.4 8.684e+03 4.878e-11
 46.59840   -131.1 8.717e+03 5.052e-11
 46.63794   -129.9 8.724e+03 5.316e-11
 46.67471   -128.6 8.761e+03 5.606e-11
 46.69448   -127.7 8.728e+03 5.627e-11
 46.71702   -126.5 8.745e+03 5.877e-11
 46.74869   -125.3 8.772e+03 6.191e-11
 46.76846   -124.9 8.768e+03 5.769e-11
 46.79610   -123.6 8.785e+03 6.004e-11
 46.83564   -122.3 8.792e+03 6.242e-11
 46.87518   -121.0 8.791e+03 6.433e-11
 46.91472   -119.6 8.784e+03 6.576e-11
 46.95427   -118.2 8.773e+03 6.753e-11
 46.99381   -116.8 8.777e+03 7.178e-11
 47.02049   -115.5 8.832e+03 8.153e-11
 47.04026   -115.0 8.821e+03 8.530e-11
 47.07289   -113.7 8.899e+03 1.003e-10
 47.11243   -112.3 9.011e+03 1.186e-10
 47.13716   -110.9 9.107e+03 1.375e-10
 47.15693   -110.9 9.059e+03 1.205e-10
 47.19151   -109.6 9.088e+03 1.290e-10
 47.23105   -108.2 9.087e+03 1.339e-10
 47.27059   -106.8 9.077e+03 1.363e-10
 47.31013   -105.3 9.077e+03 1.383e-10
 47.34650   -103.8 9.118e+03 1.399e-10
 47.36627   -103.7 9.121e+03 1.417e-10
 47.38921   -102.4 9.254e+03 1.540e-10
 47.42875   -101.5 9.490e+03 1.770e-10
 47.46829   -100.8 9.799e+03 2.289e-10
 47.50587   -100.1 1.017e+04 3.311e-10
 47.52564   -100.7 1.080e+04 6.679e-10
 47.54737    -99.9 1.120e+04 8.929e-10
 47.58691    -99.1 1.143e+04 1.016e-09
 47.62645    -98.3 1.148e+04 1.030e-09
 47.66599    -97.4 1.145e+04 9.671e-10
 47.69229    -96.6 1.148e+04 9.130e-10
 47.71206    -97.3 1.139e+04 8.430e-10
 47.74507    -97.2 1.144e+04 8.194e-10
 47.78461    -97.5 1.163e+04 8.368e-10
 47.82415    -98.7 1.245e+04 1.182e-09
 47.85371    -99.9 1.318e+04 1.829e-09
 47.86498   -100.3 1.356e+04 2.256e-09
 47.87487   -100.5 1.305e+04 1.811e-09
 47.89315   -101.0 1.311e+04 1.860e-09
 47.90403   -101.7 1.314e+04 1.817e-09
 47.91391   -102.3 1.260e+04 1.467e-09
 47.93269   -103.3 1.237e+04 1.231e-09
 47.95246   -104.3 1.211e+04 9.838e-10
 47.98222   -105.4 1.179e+04 7.553e-10
 48.01830   -107.5 1.049e+04 4.051e-10
 48.03807   -106.8 9.866e+03 2.629e-10
 48.06139   -106.9 9.706e+03 2.128e-10
 48.10093   -106.7 9.563e+03 1.791e-10
 48.14047   -106.1 9.405e+03 1.461e-10
 48.18001   -105.0 9.288e+03 1.175e-10
 48.21955   -103.8 9.254e+03 9.786e-11
 48.25909   -102.6 9.251e+03 8.441e-11
 48.28281   -101.3 9.254e+03 7.852e-11
 48.30258   -100.5 9.214e+03 7.853e-11
 48.33818    -99.2 9.222e+03 7.666e-11
 48.36408    -97.9 9.235e+03 7.683e-11
 48.38385    -97.7 9.369e+03 1.137e-10
 48.41726    -96.6 9.443e+03 1.293e-10
 48.45680    -95.4 9.544e+03 1.561e-10
 48.49634    -94.1 9.676e+03 1.925e-10
 48.53588    -92.8 9.812e+03 2.282e-10
 48.57542    -91.6 9.908e+03 2.495e-10
 48.61496    -90.4 9.938e+03 2.556e-10
 48.65151    -89.2 9.970e+03 2.377e-10
 48.67128    -88.5 9.871e+03 1.954e-10
 48.69009    -87.4 9.872e+03 1.776e-10
 48.70986    -87.9 9.786e+03 1.249e-10
 48.73358    -86.9 9.786e+03 1.090e-10
 48.77312    -85.7 9.753e+03 9.786e-11
 48.81266    -84.4 9.695e+03 9.207e-11
 48.85220    -82.8 9.642e+03 8.934e-11
 48.89174    -81.0 9.619e+03 8.824e-11
 48.93128    -79.3 9.616e+03 8.806e-11
 48.97082    -77.6 9.618e+03 8.879e-11
 49.01036    -76.3 9.826e+03 9.310e-11
 49.03587    -75.2 1.006e+04 1.123e-10
 49.04573    -76.0 9.912e+03 1.036e-10
 49.05976    -75.9 9.745e+03 9.749e-11
 49.08944    -74.7 9.808e+03 1.086e-10
 49.12898    -73.9 9.920e+03 1.208e-10
 49.16852    -73.2 9.948e+03 1.398e-10
 49.20806    -72.7 9.898e+03 1.644e-10
 49.24760    -72.2 9.802e+03 1.885e-10
 49.28714    -71.7 9.715e+03 1.999e-10
 49.32668    -71.0 9.560e+03 2.012e-10
 49.36188    -70.0 9.222e+03 1.716e-10
 49.38165    -69.9 9.244e+03 1.640e-10
 49.40576    -68.7 9.020e+03 1.330e-10
 49.42846    -67.4 8.838e+03 1.022e-10
 49.44823    -67.2 8.826e+03 1.004e-10
 49.48484    -65.9 8.720e+03 6.931e-11
 49.52438    -64.5 8.658e+03 5.029e-11
 49.56392    -63.2 8.609e+03 4.056e-11
 49.60347    -61.7 8.570e+03 3.654e-11
 49.64301    -60.2 8.560e+03 3.563e-11
 49.68255    -58.6 8.601e+03 3.611e-11
 49.70766    -57.3 8.675e+03 4.203e-11
 49.72743    -57.4 8.704e+03 4.362e-11
 49.76163    -56.2 8.749e+03 5.648e-11
 49.79716    -54.9 8.806e+03 7.485e-11
 49.81693    -55.2 8.791e+03 7.894e-11
 49.84071    -53.6 8.874e+03 1.107e-10
 49.88025    -51.9 8.955e+03 1.378e-10
 49.91979    -50.3 8.982e+03 1.471e-10
 49.95933    -48.7 8.976e+03 1.460e-10
 49.99887    -47.2 8.880e+03 1.189e-10
 50.03368    -45.8 8.772e+03 8.893e-11
 50.05345    -46.5 8.704e+03 7.357e-11
 50.07795    -45.2 8.578e+03 6.611e-11
 50.11749    -43.6 8.494e+03 6.210e-11
 50.15703    -41.8 8.476e+03 5.907e-11
 50.18563    -40.0 8.472e+03 5.735e-11
 50.20540    -39.7 8.417e+03 5.611e-11
 50.23611    -37.8 8.422e+03 5.441e-11
 50.27565    -35.8 8.430e+03 5.371e-11
 50.31519    -34.2 8.506e+03 5.450e-11
 50.35473    -33.9 8.877e+03 6.494e-11
 50.37946    -35.1 9.584e+03 1.561e-10
 50.39923    -37.0 9.934e+03 2.716e-10
 50.43381    -36.6 1.083e+04 7.213e-10
 50.47335    -36.0 1.161e+04 1.160e-09
 50.51289    -36.4 1.179e+04 1.213e-09
 50.54237    -36.6 1.147e+04 9.129e-10
 50.56204    -38.7 1.119e+04 5.301e-10
 50.57391    -41.5 1.064e+04 4.092e-10
 50.59378    -41.2 1.078e+04 4.239e-10
 50.63151    -45.0 1.096e+04 4.993e-10
 50.66107    -47.9 1.196e+04 1.026e-09
 50.68074    -49.5 1.277e+04 1.756e-09
 50.70051    -50.8 1.341e+04 2.808e-09
 50.71516    -51.6 1.418e+04 4.253e-09
 50.72504    -51.3 1.337e+04 2.948e-09
 50.74005    -52.2 1.421e+04 4.051e-09
 50.75826    -54.0 1.567e+04 5.386e-09
 50.76815    -53.4 1.547e+04 5.555e-09
 50.77959    -56.4 1.716e+04 7.225e-09
 50.79936    -60.1 1.855e+04 9.531e-09
 50.81913    -63.2 1.903e+04 1.203e-08
 50.83890    -64.9 1.894e+04 1.321e-08
 50.85867    -65.2 1.851e+04 1.298e-08
 50.87816    -65.0 1.777e+04 1.010e-08
 50.88805    -65.5 1.877e+04 1.801e-08
 50.89821    -64.7 1.822e+04 1.465e-08
 50.91798    -64.0 1.780e+04 9.312e-09
 50.93276    -64.3 1.678e+04 4.533e-09
 50.94260    -65.1 1.627e+04 3.560e-09
 50.95240    -66.7 1.514e+04 2.445e-09
 50.96233    -65.4 1.603e+04 3.133e-09
 50.96950    -68.5 1.292e+04 1.670e-09
 50.97440    -67.1 1.627e+04 3.111e-09
 50.98214    -68.1 1.477e+04 2.372e-09
 50.99203    -69.3 1.439e+04 2.246e-09
 51.00191    -70.3 1.437e+04 2.250e-09
 51.01180    -71.6 1.471e+04 2.543e-09
 51.02168    -72.7 1.504e+04 3.036e-09
 51.03157    -73.6 1.524e+04 3.664e-09
 51.04145    -74.1 1.532e+04 4.262e-09
 51.04952    -74.4 1.525e+04 4.767e-09
 51.05408    -73.9 1.492e+04 4.313e-09
 51.05590    -73.4 1.609e+04 5.394e-09
 51.06122    -73.7 1.576e+04 5.777e-09
 51.07111    -73.9 1.554e+04 6.072e-09
 51.08099    -74.1 1.551e+04 6.181e-09
 51.09088    -74.5 1.547e+04 6.199e-09
 51.10076    -75.0 1.513e+04 5.878e-09
 51.11065    -75.6 1.481e+04 5.142e-09
 51.12053    -76.2 1.466e+04 4.483e-09
 51.13042    -77.0 1.460e+04 4.053e-09
 51.13740    -77.8 1.459e+04 3.777e-09
 51.14235    -78.9 1.560e+04 4.321e-09
 51.14664    -80.3 1.585e+04 3.945e-09
 51.15158    -80.6 1.685e+04 4.875e-09
 51.16007    -82.6 1.711e+04 4.811e-09
 51.16996    -86.5 1.958e+04 5.266e-09
 51.17984    -92.9 2.625e+04 6.405e-09
 51.18973   -100.3 3.233e+04 9.099e-09
 51.19961   -106.8 3.280e+04 1.629e-08
 51.20950   -111.3 2.905e+04 3.290e-08
 51.21891   -114.1 2.492e+04 5.761e-08
 51.22385   -114.1 2.370e+04 7.058e-08
 51.22927   -115.8 2.176e+04 7.414e-08
 51.23881   -116.6 2.082e+04 6.543e-08
 51.24376   -116.6 2.114e+04 7.032e-08
 51.24904   -116.7 2.146e+04 5.516e-08
 51.25892   -116.6 2.273e+04 3.612e-08
 51.26881   -117.6 2.539e+04 1.853e-08
 51.27869   -122.8 2.935e+04 7.220e-09
 51.28858   -131.8 3.086e+04 2.098e-09
 51.29846   -142.3 2.159e+04 6.890e-10
 51.31334   -150.7 1.172e+04 5.113e-10
 51.33109   -155.1 9.438e+03 5.099e-10
 51.34097   -154.6 9.486e+03 5.369e-10
 51.35293   -156.7 9.505e+03 6.473e-10
 51.37270   -157.7 1.021e+04 9.251e-10
 51.38695   -158.7 1.065e+04 1.180e-09
 51.39684   -159.0 1.048e+04 1.103e-09
 51.41224   -160.0 1.063e+04 1.198e-09
 51.43201   -161.1 1.065e+04 1.214e-09
 51.45178   -161.9 1.056e+04 1.182e-09
 51.47155   -162.5 1.026e+04 1.020e-09
 51.49132   -162.9 9.885e+03 8.310e-10
 51.51109   -163.3 9.520e+03 6.730e-10
 51.52532   -163.4 9.193e+03 5.498e-10
 51.53521   -163.2 9.399e+03 6.497e-10
 51.54996   -163.2 9.115e+03 5.379e-10
 51.55984   -162.8 8.938e+03 4.687e-10
 51.57040   -162.5 8.757e+03 4.087e-10
 51.59017   -162.2 8.691e+03 3.868e-10
 51.61992   -161.7 8.691e+03 3.750e-10
 51.65956   -160.2 8.687e+03 3.695e-10
 51.69910   -158.4 8.809e+03 3.820e-10
 51.71966   -156.8 9.001e+03 4.229e-10
 51.72373   -157.1 9.270e+03 5.386e-10
 51.73273   -157.2 9.319e+03 5.542e-10
 51.74833   -156.3 9.458e+03 5.975e-10
 51.76810   -155.4 9.598e+03 6.437e-10
 51.78787   -154.5 9.730e+03 6.904e-10
 51.80764   -153.4 9.854e+03 7.379e-10
 51.82741   -152.4 9.964e+03 7.844e-10
 51.84718   -151.3 1.008e+04 8.332e-10
 51.86695   -150.2 1.020e+04 8.875e-10
 51.88585   -149.2 1.035e+04 9.491e-10
 51.89574   -149.7 1.034e+04 9.515e-10
 51.90391   -148.7 1.050e+04 1.017e-09
 51.91379   -148.6 1.074e+04 1.118e-09
 51.92626   -147.8 1.092e+04 1.182e-09
 51.94603   -147.3 1.118e+04 1.282e-09
 51.96580   -147.0 1.154e+04 1.450e-09
 51.98557   -146.8 1.201e+04 1.716e-09
 52.00534   -146.7 1.250e+04 2.094e-09
 52.02511   -146.6 1.297e+04 2.563e-09
 52.04488   -146.4 1.334e+04 3.031e-09
 52.05874   -146.3 1.356e+04 3.354e-09
 52.06863   -146.5 1.256e+04 2.106e-09
 52.08442   -146.5 1.258e+04 2.123e-09
 52.09815   -146.5 1.257e+04 2.099e-09
 52.10803   -146.8 1.248e+04 1.654e-09
 52.12396   -146.8 1.230e+04 1.522e-09
 52.14373   -146.7 1.191e+04 1.325e-09
 52.16350   -146.4 1.144e+04 1.119e-09
 52.18327   -146.0 1.098e+04 9.346e-10
 52.20304   -145.4 1.062e+04 7.767e-10
 52.22175   -144.6 1.034e+04 6.405e-10
 52.23164   -145.0 1.002e+04 5.167e-10
 52.24258   -144.2 9.862e+03 4.379e-10
 52.26235   -143.3 9.731e+03 3.693e-10
 52.28213   -142.5 9.636e+03 3.158e-10
 52.29238   -141.6 9.591e+03 2.757e-10
 52.30227   -141.2 9.743e+03 2.772e-10
 52.32167   -140.4 9.772e+03 2.473e-10
 52.34144   -139.7 9.821e+03 2.297e-10
 52.36121   -138.9 9.848e+03 2.252e-10
 52.38098   -138.5 1.004e+04 2.240e-10
 52.39464   -138.4 1.067e+04 2.310e-10
 52.40453   -140.2 1.111e+04 3.183e-10
 52.42052   -140.2 1.133e+04 4.260e-10
 52.44029   -139.9 1.149e+04 5.875e-10
 52.46006   -139.4 1.166e+04 7.883e-10
 52.47673   -138.7 1.189e+04 9.867e-10
 52.49660   -137.5 1.185e+04 7.709e-10
 52.52945   -136.5 1.209e+04 8.681e-10
 52.56899   -136.2 1.214e+04 8.556e-10
 52.59855   -136.8 1.198e+04 6.979e-10
 52.61822   -136.7 1.192e+04 6.623e-10
 52.63799   -136.6 1.176e+04 6.207e-10
 52.65776   -136.6 1.167e+04 6.107e-10
 52.67097   -136.2 1.146e+04 5.902e-10
 52.68085   -135.1 1.148e+04 5.713e-10
 52.69730   -134.7 1.137e+04 5.591e-10
 52.71707   -134.0 1.122e+04 5.370e-10
 52.73054   -133.4 1.107e+04 5.053e-10
 52.74042   -133.6 1.100e+04 4.637e-10
 52.75661   -133.0 1.085e+04 4.360e-10
 52.77638   -132.3 1.071e+04 4.086e-10
 52.79615   -131.6 1.063e+04 3.889e-10
 52.81592   -130.8 1.062e+04 3.832e-10
 52.83569   -130.0 1.066e+04 3.825e-10
 52.85532   -129.6 1.094e+04 3.941e-10
 52.86521   -128.9 1.092e+04 4.507e-10
 52.87523   -128.7 1.131e+04 4.717e-10
 52.89354   -128.9 1.181e+04 5.875e-10
 52.90343   -128.8 1.154e+04 5.381e-10
 52.91477   -129.3 1.211e+04 7.686e-10
 52.93454   -129.6 1.271e+04 1.248e-09
 52.95431   -129.6 1.340e+04 2.076e-09
 52.97408   -129.0 1.406e+04 3.254e-09
 52.99385   -128.3 1.455e+04 4.513e-09
 53.01362   -128.0 1.476e+04 5.175e-09
 53.03339   -127.9 1.476e+04 5.286e-09
 53.04956   -127.4 1.431e+04 4.995e-09
 53.05944   -127.0 1.468e+04 5.256e-09
 53.06643   -126.0 1.390e+04 3.992e-09
 53.07632   -126.0 1.284e+04 2.502e-09
 53.09270   -125.1 1.233e+04 1.897e-09
 53.11247   -124.5 1.187e+04 1.424e-09
 53.13224   -123.8 1.147e+04 1.079e-09
 53.15201   -123.1 1.109e+04 8.301e-10
 53.17178   -122.2 1.075e+04 6.519e-10
 53.19155   -121.3 1.040e+04 5.190e-10
 53.21132   -120.2 1.006e+04 4.189e-10
 53.22944   -119.1 9.770e+03 3.458e-10
 53.23932   -119.6 9.420e+03 2.542e-10
 53.24379   -118.5 9.308e+03 2.338e-10
 53.25368   -119.4 9.196e+03 2.407e-10
 53.27063   -118.2 9.166e+03 2.324e-10
 53.29040   -117.1 9.161e+03 2.305e-10
 53.31017   -115.9 9.184e+03 2.310e-10
 53.32994   -114.8 9.208e+03 2.328e-10
 53.34971   -113.5 9.248e+03 2.369e-10
 53.36948   -112.3 9.295e+03 2.439e-10
 53.38925   -111.0 9.348e+03 2.533e-10
 53.40233   -109.8 9.450e+03 2.679e-10
 53.41222   -111.1 9.481e+03 2.894e-10
 53.42814   -109.9 9.641e+03 3.281e-10
 53.43803   -111.2 1.037e+04 5.393e-10
 53.44856   -110.4 1.072e+04 6.578e-10
 53.46833   -109.6 1.113e+04 8.254e-10
 53.48810   -108.8 1.152e+04 1.055e-09
 53.50787   -108.0 1.186e+04 1.351e-09
 53.52764   -107.2 1.214e+04 1.719e-09
 53.54741   -106.2 1.238e+04 2.146e-09
 53.56534   -105.1 1.256e+04 2.573e-09
 53.57522   -105.8 1.252e+04 2.623e-09
 53.58696   -104.6 1.258e+04 2.961e-09
 53.60673   -103.5 1.260e+04 3.085e-09
 53.62238   -102.3 1.261e+04 3.094e-09
 53.63227   -102.3 1.241e+04 2.293e-09
 53.64627   -101.3 1.240e+04 2.001e-09
 53.66604   -100.6 1.237e+04 1.695e-09
 53.68581   -100.2 1.222e+04 1.384e-09
 53.70558    -99.8 1.175e+04 1.073e-09
 53.72535    -99.7 1.096e+04 8.010e-10
 53.73823    -99.6 1.007e+04 5.996e-10
 53.74811   -100.6 9.826e+03 5.524e-10
 53.76489   -100.0 9.346e+03 4.498e-10
 53.78466    -99.1 9.025e+03 3.808e-10
 53.80443    -98.0 8.843e+03 3.335e-10
 53.81662    -96.7 8.763e+03 3.036e-10
 53.82650    -97.2 8.693e+03 2.903e-10
 53.84397    -96.1 8.725e+03 2.837e-10
 53.87372    -95.4 8.792e+03 2.800e-10
 53.91336    -93.3 8.623e+03 2.617e-10
 53.95290    -90.8 8.479e+03 2.429e-10
 53.99128    -88.3 8.400e+03 2.268e-10
 54.01105    -88.7 8.392e+03 2.388e-10
 54.03198    -85.9 8.365e+03 2.291e-10
 54.06443    -83.1 8.338e+03 2.193e-10
 54.08420    -84.8 8.560e+03 2.534e-10
 54.11106    -82.2 8.570e+03 2.456e-10
 54.15060    -80.1 8.732e+03 2.498e-10
 54.19014    -78.9 9.745e+03 3.605e-10
 54.22968    -78.5 1.088e+04 6.484e-10
 54.25924    -79.4 1.188e+04 1.300e-09
 54.27891    -80.1 1.250e+04 1.831e-09
 54.29868    -81.2 1.331e+04 2.621e-09
 54.31845    -82.7 1.423e+04 3.647e-09
 54.33822    -84.4 1.497e+04 4.466e-09
 54.35799    -86.9 1.536e+04 4.754e-09
 54.37776    -90.2 1.535e+04 4.687e-09
 54.38944    -93.3 1.512e+04 4.375e-09
 54.39433    -93.6 1.495e+04 3.734e-09
 54.40238    -94.7 1.473e+04 3.671e-09
 54.40992    -97.2 1.436e+04 3.615e-09
 54.41986    -97.9 1.387e+04 3.033e-09
 54.43707   -100.3 1.347e+04 2.823e-09
 54.45684   -102.5 1.310e+04 2.357e-09
 54.47661   -104.5 1.263e+04 1.884e-09
 54.49638   -106.2 1.212e+04 1.519e-09
 54.51615   -107.2 1.167e+04 1.247e-09
 54.53592   -107.8 1.137e+04 1.040e-09
 54.55569   -108.1 1.120e+04 8.906e-10
 54.57303   -108.3 1.113e+04 7.989e-10
 54.58124   -107.9 1.098e+04 7.290e-10
 54.58368   -108.6 1.095e+04 6.870e-10
 54.59523   -108.9 1.096e+04 6.798e-10
 54.61500   -109.2 1.110e+04 7.029e-10
 54.63477   -109.7 1.148e+04 8.328e-10
 54.65454   -109.9 1.190e+04 1.035e-09
 54.67431   -109.9 1.225e+04 1.240e-09
 54.69408   -110.0 1.243e+04 1.358e-09
 54.71385   -110.2 1.247e+04 1.386e-09
 54.73362   -110.4 1.237e+04 1.336e-09
 54.74592   -110.6 1.213e+04 1.139e-09
 54.75580   -110.7 1.213e+04 1.130e-09
 54.76803   -111.5 1.190e+04 9.499e-10
 54.77791   -111.6 1.183e+04 9.718e-10
 54.79293   -112.3 1.165e+04 8.165e-10
 54.81270   -112.8 1.157e+04 7.527e-10
 54.83247   -112.9 1.156e+04 7.327e-10
 54.85224   -112.9 1.159e+04 7.228e-10
 54.87201   -112.7 1.168e+04 7.092e-10
 54.89178   -112.4 1.177e+04 6.870e-10
 54.90892   -112.2 1.177e+04 6.484e-10
 54.91881   -112.6 1.177e+04 6.330e-10
 54.93133   -112.3 1.164e+04 5.788e-10
 54.95110   -112.0 1.143e+04 5.446e-10
 54.96226   -111.6 1.121e+04 5.343e-10
 54.97215   -111.3 1.146e+04 4.508e-10
 54.99064   -110.8 1.140e+04 4.559e-10
 55.01041   -110.2 1.121e+04 4.885e-10
 55.03018   -109.6 1.108e+04 5.254e-10
 55.04995   -108.7 1.095e+04 5.543e-10
 55.06972   -107.9 1.093e+04 5.625e-10
 55.08181   -107.0 1.087e+04 5.691e-10
 55.09170   -107.4 1.115e+04 6.038e-10
 55.10926   -106.5 1.110e+04 6.117e-10
 55.12903   -105.6 1.106e+04 6.149e-10
 55.14661   -104.7 1.107e+04 6.147e-10
 55.15650   -104.4 1.142e+04 6.669e-10
 55.16857   -103.7 1.149e+04 6.664e-10
 55.18834   -103.0 1.161e+04 6.803e-10
 55.20811   -102.8 1.188e+04 7.462e-10
 55.22788   -102.9 1.230e+04 9.057e-10
 55.24482   -103.0 1.276e+04 1.202e-09
 55.25470   -104.0 1.332e+04 1.934e-09
 55.26742   -103.8 1.386e+04 2.691e-09
 55.28719   -103.5 1.430e+04 3.572e-09
 55.30696   -103.2 1.463e+04 4.376e-09
 55.32673   -102.8 1.487e+04 4.860e-09
 55.34085   -102.4 1.497e+04 4.996e-09
 55.35074   -102.4 1.525e+04 6.987e-09
 55.36627   -102.1 1.535e+04 7.450e-09
 55.38604   -101.9 1.541e+04 7.540e-09
 55.40581   -101.8 1.556e+04 6.720e-09
 55.41771   -101.8 1.536e+04 5.461e-09
 55.42759   -102.8 1.467e+04 4.965e-09
 55.44535   -102.7 1.421e+04 3.687e-09
 55.46512   -102.8 1.372e+04 2.865e-09
 55.48489   -102.7 1.323e+04 2.392e-09
 55.50466   -102.2 1.285e+04 2.118e-09
 55.52443   -101.5 1.263e+04 1.942e-09
 55.53509   -100.6 1.251e+04 1.809e-09
 55.54497   -100.3 1.230e+04 1.874e-09
 55.56397    -99.6 1.221e+04 1.669e-09
 55.58071    -98.9 1.218e+04 1.491e-09
 55.59060    -99.4 1.187e+04 1.142e-09
 55.60351    -98.6 1.186e+04 1.060e-09
 55.62328    -97.8 1.189e+04 1.035e-09
 55.64305    -97.1 1.194e+04 1.038e-09
 55.66282    -96.3 1.206e+04 1.075e-09
 55.68259    -95.4 1.223e+04 1.130e-09
 55.70236    -94.5 1.247e+04 1.200e-09
 55.71944    -93.8 1.273e+04 1.271e-09
 55.72932    -94.0 1.233e+04 8.810e-10
 55.74190    -93.3 1.249e+04 9.216e-10
 55.75361    -92.7 1.262e+04 9.571e-10
 55.76349    -93.0 1.256e+04 9.842e-10
 55.78144    -92.6 1.267e+04 1.019e-09
 55.80121    -92.3 1.269e+04 1.034e-09
 55.82098    -92.0 1.262e+04 1.023e-09
 55.84075    -91.7 1.252e+04 1.001e-09
 55.86052    -91.4 1.244e+04 9.768e-10
 55.88029    -91.1 1.242e+04 9.698e-10
 55.90006    -90.8 1.241e+04 9.638e-10
 55.91367    -90.5 1.242e+04 9.617e-10
 55.93354    -90.9 1.224e+04 6.874e-10
 55.96945    -90.2 1.216e+04 6.734e-10
 56.00899    -89.5 1.201e+04 6.371e-10
 56.04853    -88.6 1.191e+04 6.057e-10
 56.07981    -87.4 1.185e+04 5.731e-10
 56.09958    -88.4 1.187e+04 6.209e-10
 56.12761    -87.1 1.182e+04 5.367e-10
 56.16715    -85.8 1.173e+04 4.327e-10
 56.20670    -84.6 1.171e+04 3.674e-10
 56.24624    -83.6 1.172e+04 3.548e-10
 56.28257    -82.9 1.192e+04 3.936e-10
 56.30234    -82.4 1.171e+04 3.271e-10
 56.32532    -82.1 1.191e+04 4.794e-10
 56.36486    -81.4 1.205e+04 7.475e-10
 56.40440    -80.5 1.216e+04 9.214e-10
 56.42550    -80.6 1.206e+04 9.117e-10
 56.43528    -81.2 1.194e+04 8.272e-10
 56.45363    -80.9 1.179e+04 7.649e-10
 56.48338    -80.6 1.164e+04 6.400e-10
 56.52302    -79.7 1.129e+04 4.309e-10
 56.56256    -78.4 1.116e+04 2.975e-10
 56.60210    -77.3 1.111e+04 2.367e-10
 56.64164    -76.0 1.110e+04 2.205e-10
 56.67104    -74.5 1.111e+04 2.187e-10
 56.69081    -74.0 1.106e+04 1.935e-10
 56.72072    -72.5 1.107e+04 2.051e-10
 56.75161    -70.9 1.109e+04 2.275e-10
 56.77138    -71.0 1.101e+04 1.845e-10
 56.79980    -69.4 1.104e+04 1.993e-10
 56.83934    -67.8 1.111e+04 2.111e-10
 56.87888    -66.3 1.121e+04 2.195e-10
 56.91842    -65.0 1.127e+04 2.294e-10
 56.95796    -63.7 1.129e+04 2.475e-10
 56.99750    -62.4 1.127e+04 2.844e-10
 57.03704    -61.0 1.123e+04 3.415e-10
 57.05952    -59.3 1.124e+04 3.927e-10
 57.07929    -58.6 1.125e+04 2.863e-10
 57.09739    -56.8 1.124e+04 3.426e-10
 57.11716    -56.5 1.122e+04 2.761e-10
 57.15566    -54.7 1.121e+04 3.025e-10
 57.19520    -52.9 1.121e+04 3.031e-10
 57.23474    -51.1 1.121e+04 2.834e-10
 57.27428    -49.5 1.126e+04 2.634e-10
 57.31382    -47.9 1.129e+04 2.497e-10
 57.35336    -46.4 1.130e+04 2.346e-10
 57.39290    -44.9 1.131e+04 2.155e-10
 57.42340    -43.3 1.130e+04 2.035e-10
 57.43894    -43.3 1.131e+04 2.254e-10
 57.44799    -42.0 1.114e+04 2.212e-10
 57.47198    -40.4 1.114e+04 2.056e-10
 57.51153    -38.9 1.118e+04 2.069e-10
 57.55107    -37.6 1.117e+04 2.535e-10
 57.59061    -35.9 1.112e+04 3.385e-10
 57.63015    -33.9 1.116e+04 4.190e-10
 57.66969    -32.0 1.119e+04 4.373e-10
 57.70923    -30.1 1.110e+04 3.835e-10
 57.74877    -28.4 1.107e+04 2.808e-10
 57.76918    -27.2 1.105e+04 2.036e-10
 57.78895    -26.9 1.108e+04 2.278e-10
 57.81669    -25.9 1.108e+04 1.894e-10
 57.83646    -24.9 1.117e+04 2.759e-10
 57.86739    -24.0 1.119e+04 2.435e-10
 57.90693    -23.1 1.123e+04 2.854e-10
 57.94647    -22.0 1.122e+04 3.968e-10
 57.98601    -20.2 1.121e+04 5.061e-10
 58.02555    -18.5 1.119e+04 5.072e-10
 58.06509    -16.7 1.133e+04 3.910e-10
 58.09519    -15.9 1.127e+04 3.226e-10
 58.11496    -16.1 1.136e+04 3.734e-10
 58.14417    -15.1 1.102e+04 3.353e-10
 58.18371    -13.5 1.078e+04 3.376e-10
 58.20516    -11.5 1.070e+04 3.201e-10
 58.22493    -10.5 1.072e+04 3.238e-10
 58.26279     -8.7 1.069e+04 3.042e-10
 58.30233     -6.9 1.072e+04 2.985e-10
 58.34187     -5.1 1.076e+04 3.002e-10
 58.38141     -3.4 1.081e+04 3.076e-10
 58.42095     -2.0 1.092e+04 3.299e-10
 58.44097     -0.9 1.104e+04 4.158e-10
 58.46074     -1.1 1.101e+04 4.236e-10
 58.50003      0.5 1.107e+04 5.589e-10
 58.53957      2.0 1.107e+04 5.573e-10
 58.57387      4.1 1.093e+04 4.652e-10
 58.59364      5.2 1.108e+04 6.146e-10
 58.61865      6.9 1.089e+04 4.378e-10
 58.65819      8.1 1.075e+04 3.028e-10
 58.69773      9.3 1.061e+04 2.370e-10
 58.73727     10.9 1.045e+04 2.117e-10
 58.76698     12.7 1.034e+04 2.006e-10
 58.78675     12.8 1.038e+04 2.282e-10
 58.81636     14.9 1.031e+04 2.137e-10
 58.85590     17.0 1.024e+04 1.910e-10
 58.89544     19.1 1.017e+04 1.664e-10
 58.93498     21.2 1.011e+04 1.460e-10
 58.96234     23.2 1.008e+04 1.322e-10
 58.98211     23.7 1.008e+04 1.367e-10
 59.01406     25.7 1.007e+04 1.331e-10
 59.05360     27.7 1.008e+04 1.341e-10
 59.09300     29.7 1.011e+04 1.380e-10
 59.13254     31.5 1.014e+04 1.442e-10
 59.17222     33.5 1.009e+04 1.459e-10
 59.21176     35.6 1.004e+04 1.424e-10
 59.25130     37.7 9.951e+03 1.338e-10
 59.29084     39.9 9.869e+03 1.215e-10
 59.33038     41.9 9.804e+03 1.078e-10
 59.35081     43.9 9.769e+03 9.583e-11
 59.37058     44.5 9.762e+03 1.285e-10
 59.40946     46.5 9.743e+03 1.107e-10
 59.43878     48.3 9.735e+03 1.002e-10
 59.45855     48.5 9.715e+03 9.682e-11
 59.48854     50.3 9.750e+03 9.491e-11
 59.52808     52.1 9.771e+03 9.556e-11
 59.56762     53.8 9.794e+03 9.552e-11
 59.60716     55.4 9.814e+03 9.427e-11
 59.64670     57.0 9.839e+03 9.053e-11
 59.68624     58.7 9.848e+03 8.526e-11
 59.71951     60.3 9.841e+03 7.956e-11
 59.73928     60.7 9.839e+03 8.777e-11
 59.76479     62.4 9.809e+03 8.318e-11
 59.78456     62.4 9.845e+03 8.355e-11
 59.80486     64.1 9.736e+03 8.048e-11
 59.84440     65.7 9.597e+03 8.028e-11
 59.88394     67.1 9.814e+03 7.987e-11
 59.92348     68.4 9.966e+03 9.000e-11
 59.96302     69.6 9.942e+03 1.143e-10
 60.00256     70.7 9.880e+03 1.420e-10
 60.04210     71.7 9.797e+03 1.521e-10
 60.08164     72.8 9.762e+03 1.501e-10
 60.10799     73.9 9.657e+03 1.379e-10
 60.11714     74.7 9.762e+03 1.628e-10
 60.13034     74.2 1.005e+04 2.123e-10
 60.16073     75.2 9.935e+03 1.831e-10
 60.20027     76.1 9.829e+03 1.571e-10
 60.23981     77.0 9.778e+03 1.506e-10
 60.27935     77.8 9.786e+03 1.533e-10
 60.31889     78.5 9.831e+03 1.698e-10
 60.35843     79.3 9.923e+03 2.195e-10
 60.39797     80.2 1.008e+04 2.986e-10
 60.43658     81.1 1.033e+04 3.765e-10
 60.45635     80.2 1.064e+04 4.095e-10
 60.47669     81.1 1.082e+04 4.093e-10
 60.49646     81.2 1.117e+04 5.250e-10
 60.51659     82.0 1.115e+04 5.100e-10
 60.55613     82.9 1.110e+04 4.481e-10
 60.59567     83.7 1.106e+04 3.680e-10
 60.63521     84.5 1.106e+04 2.927e-10
 60.67475     85.2 1.106e+04 2.373e-10
 60.71429     86.0 1.105e+04 2.030e-10
 60.75383     86.9 1.101e+04 1.879e-10
 60.78236     88.0 1.097e+04 1.809e-10
 60.80213     87.9 1.094e+04 1.577e-10
 60.83291     89.1 1.091e+04 1.465e-10
 60.86516     90.3 1.090e+04 1.372e-10
 60.88493     90.3 1.090e+04 1.247e-10
 60.91199     91.6 1.093e+04 1.205e-10
 60.95153     92.9 1.095e+04 1.227e-10
 60.99107     94.1 1.103e+04 1.369e-10
 61.03061     95.2 1.112e+04 1.800e-10
 61.07015     96.3 1.122e+04 2.562e-10
 61.10837     97.5 1.136e+04 3.626e-10
 61.12814     97.6 1.134e+04 3.598e-10
 61.14923     98.6 1.148e+04 4.767e-10
 61.18877     99.6 1.166e+04 6.006e-10
 61.22831    100.5 1.186e+04 7.612e-10
 61.25363    101.3 1.210e+04 9.483e-10
 61.27340    101.6 1.231e+04 1.005e-09
 61.30739    102.0 1.263e+04 1.268e-09
 61.34693    102.4 1.287e+04 1.504e-09
 61.38647    102.6 1.307e+04 1.698e-09
 61.42601    102.8 1.326e+04 1.856e-09
 61.45416    103.0 1.341e+04 1.960e-09
 61.47393    102.9 1.331e+04 1.961e-09
 61.50510    102.8 1.343e+04 1.969e-09
 61.54464    102.7 1.344e+04 1.905e-09
 61.58418    102.5 1.334e+04 1.733e-09
 61.62234    102.3 1.317e+04 1.540e-09
 61.64211    102.2 1.285e+04 1.231e-09
 61.66326    102.2 1.277e+04 1.168e-09
 61.70280    102.3 1.265e+04 1.076e-09
 61.74234    102.9 1.261e+04 1.004e-09
 61.77189    103.2 1.262e+04 1.013e-09
 61.78986    103.4 1.271e+04 1.037e-09
 61.79974    102.6 1.265e+04 1.035e-09
 61.81134    102.5 1.270e+04 1.063e-09
 61.82626    102.4 1.280e+04 1.136e-09
 61.83615    102.4 1.265e+04 1.017e-09
 61.85088    102.2 1.278e+04 1.102e-09
 61.87065    101.8 1.298e+04 1.246e-09
 61.89042    101.3 1.321e+04 1.420e-09
 61.91019    100.7 1.343e+04 1.567e-09
 61.92996     99.7 1.359e+04 1.635e-09
 61.94973     98.4 1.365e+04 1.639e-09
 61.96275     96.7 1.369e+04 1.630e-09
 61.97263     96.2 1.334e+04 1.432e-09
 61.98927     94.4 1.358e+04 1.646e-09
 62.00904     92.3 1.393e+04 2.070e-09
 62.02050     90.3 1.436e+04 2.808e-09
 62.03038     90.8 1.419e+04 2.491e-09
 62.04858     89.1 1.462e+04 3.464e-09
 62.06835     87.7 1.499e+04 4.384e-09
 62.08812     86.3 1.518e+04 4.579e-09
 62.10789     84.8 1.517e+04 4.470e-09
 62.12575     83.1 1.503e+04 3.960e-09
 62.13564     82.9 1.491e+04 3.786e-09
 62.14743     81.0 1.457e+04 2.912e-09
 62.16720     79.0 1.409e+04 2.148e-09
 62.18697     77.2 1.355e+04 1.657e-09
 62.20485     75.8 1.312e+04 1.386e-09
 62.21473     76.2 1.305e+04 1.352e-09
 62.22651     75.3 1.288e+04 1.230e-09
 62.24628     74.5 1.285e+04 1.144e-09
 62.26605     73.5 1.286e+04 1.068e-09
 62.28582     72.4 1.282e+04 1.011e-09
 62.29864     71.4 1.271e+04 9.711e-10
 62.30853     71.2 1.256e+04 8.538e-10
 62.32536     70.3 1.245e+04 8.295e-10
 62.34513     69.6 1.236e+04 7.961e-10
 62.36490     69.1 1.226e+04 7.419e-10
 62.38467     68.6 1.217e+04 6.595e-10
 62.39909     68.1 1.211e+04 5.646e-10
 62.40897     68.3 1.209e+04 5.390e-10
 62.42421     67.6 1.202e+04 4.551e-10
 62.44398     66.9 1.189e+04 4.125e-10
 62.46165     66.4 1.183e+04 4.112e-10
 62.47154     66.4 1.172e+04 3.796e-10
 62.48352     66.0 1.172e+04 3.813e-10
 62.50329     65.8 1.175e+04 3.934e-10
 62.52306     65.6 1.188e+04 4.171e-10
 62.54283     65.4 1.199e+04 4.587e-10
 62.56260     65.3 1.209e+04 5.163e-10
 62.58237     65.2 1.217e+04 5.911e-10
 62.59332     65.0 1.227e+04 6.889e-10
 62.60321     65.0 1.210e+04 5.475e-10
 62.62191     64.8 1.225e+04 6.044e-10
 62.63454     64.5 1.239e+04 6.814e-10
 62.64443     64.7 1.223e+04 5.757e-10
 62.66145     64.1 1.228e+04 6.552e-10
 62.69121     63.9 1.267e+04 9.482e-10
 62.72086     64.4 1.239e+04 8.633e-10
 62.74053     64.6 1.236e+04 8.882e-10
 62.76030     64.8 1.231e+04 8.955e-10
 62.77767     65.1 1.225e+04 8.860e-10
 62.78756     65.2 1.202e+04 7.141e-10
 62.79755     65.6 1.193e+04 6.672e-10
 62.80743     66.5 1.188e+04 5.954e-10
 62.81962     66.8 1.185e+04 5.529e-10
 62.84937     67.7 1.172e+04 4.759e-10
 62.88901     68.7 1.156e+04 4.295e-10
 62.92855     69.4 1.139e+04 3.865e-10
 62.96809     70.2 1.139e+04 3.593e-10
 63.00763     71.0 1.123e+04 3.596e-10
 63.04717     71.9 1.113e+04 3.571e-10
 63.08671     73.0 1.122e+04 3.740e-10
 63.12375     73.7 1.141e+04 4.095e-10
 63.14343     73.3 1.189e+04 5.336e-10
 63.15571     73.1 1.210e+04 6.250e-10
 63.16614     73.0 1.221e+04 7.292e-10
 63.17603     71.8 1.261e+04 9.444e-10
 63.19525     71.8 1.259e+04 9.909e-10
 63.21502     72.0 1.253e+04 1.013e-09
 63.23479     72.1 1.248e+04 1.026e-09
 63.25456     72.0 1.251e+04 1.064e-09
 63.27433     71.8 1.258e+04 1.147e-09
 63.29410     71.6 1.269e+04 1.286e-09
 63.30633     71.3 1.283e+04 1.482e-09
 63.31622     70.9 1.268e+04 1.494e-09
 63.33364     70.7 1.274e+04 1.603e-09
 63.35050     70.6 1.271e+04 1.640e-09
 63.36038     69.4 1.197e+04 1.066e-09
 63.37318     69.3 1.187e+04 1.019e-09
 63.39295     69.2 1.165e+04 9.120e-10
 63.41272     68.9 1.138e+04 7.627e-10
 63.43249     68.6 1.110e+04 6.129e-10
 63.45226     68.0 1.081e+04 4.975e-10
 63.46934     67.5 1.056e+04 4.243e-10
 63.47922     67.2 1.039e+04 3.708e-10
 63.49180     67.2 1.033e+04 3.658e-10
 63.51157     67.4 1.031e+04 3.650e-10
 63.53134     67.6 1.031e+04 3.663e-10
 63.54473     68.0 1.033e+04 3.783e-10
 63.56460     68.3 1.015e+04 3.539e-10
 63.60073     69.3 1.014e+04 3.778e-10
 63.64027     70.3 1.021e+04 4.140e-10
 63.67981     71.3 1.034e+04 4.414e-10
 63.71935     72.4 1.042e+04 4.469e-10
 63.75889     73.6 1.044e+04 4.193e-10
 63.79555     74.8 1.042e+04 3.541e-10
 63.81532     76.1 1.024e+04 3.289e-10
 63.83797     77.2 1.029e+04 3.247e-10
 63.87751     78.4 1.033e+04 3.414e-10
 63.91363     79.7 1.042e+04 3.772e-10
 63.93340     79.8 1.038e+04 4.049e-10
 63.95659     81.1 1.054e+04 4.750e-10
 63.99613     82.3 1.066e+04 5.200e-10
 64.03567     83.4 1.065e+04 5.193e-10
 64.07521     84.6 1.060e+04 4.940e-10
 64.11476     85.9 1.040e+04 4.231e-10
 64.14133     87.4 1.018e+04 3.313e-10
 64.16110     88.3 1.007e+04 2.817e-10
 64.19384     89.6 9.862e+03 2.004e-10
 64.23338     90.9 9.743e+03 1.627e-10
 64.27292     92.5 9.738e+03 1.613e-10
 64.30210     94.2 9.784e+03 1.666e-10
 64.32187     94.5 9.640e+03 1.369e-10
 64.35200     96.2 9.790e+03 1.561e-10
 64.39154     97.7 1.004e+04 1.989e-10
 64.43108     99.2 1.032e+04 2.638e-10
 64.46734    100.6 1.059e+04 3.366e-10
 64.48711    101.5 1.021e+04 2.536e-10
 64.51016    103.1 1.039e+04 3.075e-10
 64.54970    104.8 1.047e+04 3.381e-10
 64.58924    106.6 1.051e+04 3.438e-10
 64.62878    108.5 1.055e+04 3.400e-10
 64.66832    110.5 1.065e+04 3.342e-10
 64.69057    112.6 1.073e+04 3.368e-10
 64.71034    112.7 1.099e+04 4.499e-10
 64.74740    114.9 1.113e+04 4.829e-10
 64.78694    117.0 1.140e+04 5.586e-10
 64.81312    118.9 1.171e+04 6.706e-10
 64.82291    118.4 1.147e+04 5.877e-10
 64.83617    119.1 1.154e+04 6.484e-10
 64.85594    119.8 1.164e+04 7.499e-10
 64.87473    120.6 1.178e+04 8.855e-10
 64.88462    120.5 1.215e+04 9.328e-10
 64.89548    121.3 1.231e+04 1.065e-09
 64.91525    122.1 1.241e+04 1.147e-09
 64.93502    122.8 1.242e+04 1.151e-09
 64.95479    123.6 1.240e+04 1.133e-09
 64.97456    124.4 1.233e+04 1.071e-09
 64.98582    125.2 1.223e+04 9.764e-10
 64.99570    125.5 1.217e+04 9.375e-10
 65.01410    126.2 1.214e+04 9.000e-10
 65.03387    126.7 1.216e+04 9.134e-10
 65.05364    127.1 1.223e+04 9.613e-10
 65.06897    127.4 1.236e+04 1.059e-09
 65.07885    127.2 1.229e+04 8.652e-10
 65.09318    127.6 1.240e+04 9.829e-10
 65.11295    127.9 1.252e+04 1.112e-09
 65.13272    128.2 1.264e+04 1.248e-09
 65.14882    128.4 1.273e+04 1.373e-09
 65.15871    128.5 1.313e+04 1.728e-09
 65.17226    128.7 1.315e+04 1.768e-09
 65.19203    128.9 1.312e+04 1.735e-09
 65.21180    129.1 1.302e+04 1.650e-09
 65.23157    129.4 1.292e+04 1.536e-09
 65.25134    129.6 1.271e+04 1.395e-09
 65.26320    129.8 1.247e+04 1.256e-09
 65.27309    129.6 1.235e+04 1.145e-09
 65.29088    129.8 1.213e+04 1.061e-09
 65.31065    129.9 1.196e+04 1.012e-09
 65.34041    130.8 1.184e+04 9.866e-10
 65.38004    132.4 1.185e+04 9.955e-10
 65.40960    133.0 1.184e+04 9.739e-10
 65.42927    133.2 1.188e+04 9.814e-10
 65.44755    133.4 1.190e+04 1.001e-09
 65.45744    133.2 1.186e+04 9.492e-10
 65.46882    133.5 1.184e+04 9.431e-10
 65.48472    133.8 1.179e+04 9.170e-10
 65.49460    134.3 1.162e+04 8.177e-10
 65.50836    134.6 1.154e+04 7.768e-10
 65.52813    135.0 1.148e+04 7.449e-10
 65.54790    135.3 1.148e+04 7.420e-10
 65.56767    135.8 1.150e+04 7.485e-10
 65.58744    136.3 1.158e+04 7.834e-10
 65.60721    136.7 1.184e+04 8.797e-10
 65.62698    136.8 1.227e+04 1.092e-09
 65.64179    136.7 1.294e+04 1.524e-09
 65.65168    136.9 1.260e+04 1.225e-09
 65.65761    136.6 1.348e+04 1.871e-09
 65.66749    137.6 1.308e+04 1.628e-09
 65.68629    137.2 1.436e+04 2.830e-09
 65.70606    137.0 1.580e+04 5.097e-09
 65.72583    137.1 1.715e+04 8.573e-09
 65.74560    137.2 1.826e+04 1.196e-08
 65.76537    136.5 1.860e+04 1.224e-08
 65.78514    135.4 1.844e+04 1.089e-08
 65.80491    134.6 1.760e+04 7.167e-09
 65.82061    133.8 1.594e+04 3.564e-09
 65.83050    135.0 1.702e+04 5.513e-09
 65.83603    134.0 1.489e+04 2.399e-09
 65.84591    134.8 1.512e+04 2.600e-09
 65.86422    133.0 1.229e+04 1.176e-09
 65.88399    132.2 1.168e+04 1.038e-09
 65.90376    132.2 1.144e+04 9.859e-10
 65.93351    133.5 1.154e+04 1.024e-09
 65.97315    135.0 1.167e+04 1.116e-09
 66.01269    136.8 1.201e+04 1.341e-09
 66.04225    137.7 1.251e+04 1.710e-09
 66.06192    138.4 1.284e+04 2.012e-09
 66.08169    139.1 1.308e+04 2.260e-09
 66.10146    139.8 1.329e+04 2.482e-09
 66.12123    140.6 1.335e+04 2.535e-09
 66.14100    141.3 1.335e+04 2.519e-09
 66.15651    142.1 1.327e+04 2.374e-09
 66.16640    142.3 1.333e+04 2.490e-09
 66.18054    143.1 1.323e+04 2.315e-09
 66.20483    144.1 1.284e+04 1.924e-09
 66.22469    144.2 1.286e+04 1.841e-09
 66.24993    145.5 1.233e+04 1.395e-09
 66.28947    147.0 1.188e+04 1.096e-09
 66.32901    148.6 1.152e+04 8.755e-10
 66.36855    150.1 1.123e+04 7.243e-10
 66.40809    151.6 1.103e+04 6.396e-10
 66.44763    153.0 1.091e+04 6.030e-10
 66.48272    154.3 1.084e+04 5.938e-10
 66.50249    155.3 1.100e+04 7.067e-10
 66.52671    156.6 1.092e+04 6.975e-10
 66.56625    158.0 1.081e+04 6.872e-10
 66.59340    159.6 1.072e+04 6.816e-10
 66.61317    160.5 1.076e+04 6.522e-10
 66.64533    162.3 1.073e+04 6.729e-10
 66.68487    164.2 1.075e+04 7.102e-10
 66.72441    166.0 1.086e+04 7.703e-10
 66.76396    167.7 1.103e+04 8.457e-10
 66.80350    169.2 1.118e+04 9.057e-10
 66.82850    170.4 1.125e+04 9.155e-10
 66.84827    172.0 1.133e+04 9.736e-10
 66.88258    173.3 1.136e+04 9.723e-10
 66.92212    174.6 1.135e+04 9.576e-10
 66.96166    175.9 1.128e+04 9.034e-10
 66.98187    177.3 1.107e+04 7.780e-10
 67.00164    178.2 1.104e+04 7.676e-10
 67.04074    179.5 1.066e+04 5.871e-10
 67.08028    180.7 1.008e+04 4.044e-10
 67.11982    181.6 9.334e+03 2.645e-10
 67.15451    182.1 9.167e+03 2.088e-10
 67.17428    184.0 9.559e+03 3.390e-10
 67.19890    184.2 9.261e+03 2.165e-10
 67.23844    184.5 9.234e+03 1.879e-10
 67.27798    184.9 9.123e+03 1.736e-10
 67.31752    185.5 8.973e+03 1.565e-10
 67.35057    186.2 8.842e+03 1.411e-10
 67.37034    187.9 9.092e+03 1.653e-10
 67.39660    188.7 8.974e+03 1.578e-10
 67.43614    189.7 8.949e+03 1.574e-10
 67.47568    190.9 8.943e+03 1.598e-10
 67.50029    192.1 8.992e+03 1.671e-10
 67.52006    192.6 9.342e+03 1.774e-10
 67.55476    193.8 9.327e+03 1.841e-10
 67.59430    195.2 9.393e+03 1.997e-10
 67.62386    195.9 9.389e+03 2.137e-10
 67.64353    196.5 9.368e+03 2.201e-10
 67.66310    196.9 9.348e+03 2.240e-10
 67.67299    196.4 9.370e+03 2.228e-10
 67.68307    196.6 9.353e+03 2.353e-10
 67.70284    196.6 9.423e+03 2.778e-10
 67.72261    196.6 9.652e+03 3.503e-10
 67.73885    196.6 9.912e+03 4.561e-10
 67.74873    196.1 1.042e+04 6.324e-10
 67.76215    196.2 1.067e+04 7.891e-10
 67.78192    196.4 1.097e+04 9.817e-10
 67.80169    196.6 1.131e+04 1.206e-09
 67.82146    196.8 1.165e+04 1.434e-09
 67.83599    197.0 1.194e+04 1.606e-09
 67.84588    196.0 1.212e+04 1.673e-09
 67.86100    195.8 1.214e+04 1.638e-09
 67.88077    195.5 1.210e+04 1.522e-09
 67.90054    195.1 1.196e+04 1.360e-09
 67.92031    194.6 1.174e+04 1.237e-09
 67.93308    194.1 1.163e+04 1.193e-09
 67.94297    194.1 1.110e+04 9.423e-10
 67.95985    193.9 1.111e+04 9.439e-10
 67.97962    193.7 1.127e+04 9.757e-10
 67.99900    193.6 1.157e+04 1.109e-09
 68.00888    192.3 1.210e+04 1.417e-09
 68.01916    192.4 1.232e+04 1.691e-09
 68.03893    192.6 1.248e+04 1.944e-09
 68.05870    192.8 1.256e+04 2.117e-09
 68.07847    192.9 1.257e+04 2.178e-09
 68.09825    192.9 1.250e+04 2.104e-09
 68.11744    192.8 1.239e+04 1.979e-09
 68.12732    193.3 1.238e+04 2.021e-09
 68.13779    193.2 1.235e+04 1.974e-09
 68.15756    192.9 1.231e+04 1.877e-09
 68.17189    192.4 1.226e+04 1.777e-09
 68.18178    191.8 1.209e+04 1.628e-09
 68.19710    191.2 1.199e+04 1.548e-09
 68.21687    190.6 1.196e+04 1.540e-09
 68.23664    190.0 1.197e+04 1.555e-09
 68.25641    189.5 1.204e+04 1.624e-09
 68.27618    188.9 1.222e+04 1.761e-09
 68.29595    188.4 1.248e+04 1.961e-09
 68.31167    187.9 1.281e+04 2.243e-09
 68.32156    188.5 1.289e+04 2.282e-09
 68.33490    188.0 1.325e+04 2.629e-09
 68.34478    188.1 1.306e+04 2.502e-09
 68.35526    187.8 1.346e+04 2.950e-09
 68.37503    187.5 1.389e+04 3.521e-09
 68.39480    187.3 1.429e+04 4.139e-09
 68.40874    186.9 1.459e+04 4.562e-09
 68.41364    187.2 1.441e+04 4.345e-09
 68.41941    187.2 1.454e+04 4.520e-09
 68.42619    186.8 1.510e+04 5.033e-09
 68.43113    187.3 1.465e+04 4.681e-09
 68.43918    186.9 1.562e+04 5.490e-09
 68.44907    185.8 1.740e+04 7.169e-09
 68.45895    184.4 1.931e+04 9.924e-09
 68.46884    183.0 2.084e+04 1.369e-08
 68.47872    181.9 2.198e+04 1.818e-08
 68.48861    181.0 2.284e+04 2.273e-08
 68.49849    180.1 2.350e+04 2.699e-08
 68.50581    179.0 2.410e+04 2.981e-08
 68.51006    180.8 2.411e+04 3.062e-08
 68.51263    182.7 2.369e+04 2.877e-08
 68.51826    181.5 2.424e+04 3.470e-08
 68.52815    180.2 2.456e+04 3.794e-08
 68.53803    179.0 2.490e+04 3.816e-08
 68.54792    177.4 2.566e+04 3.565e-08
 68.55780    174.8 2.757e+04 2.910e-08
 68.56769    171.0 3.040e+04 2.138e-08
 68.57757    165.7 3.288e+04 1.495e-08
 68.58746    160.1 3.174e+04 1.174e-08
 68.59413    154.6 2.592e+04 1.259e-08
 68.59908    159.1 4.091e+04 1.272e-08
 68.60293    153.0 3.391e+04 1.435e-08
 68.60787    158.4 4.231e+04 1.443e-08
 68.61711    151.8 3.419e+04 1.815e-08
 68.62700    146.3 2.607e+04 2.780e-08
 68.63688    142.9 2.257e+04 4.216e-08
 68.64677    140.7 2.222e+04 5.261e-08
 68.65665    138.5 2.296e+04 5.247e-08
 68.66654    136.4 2.304e+04 4.973e-08
 68.67564    134.4 2.301e+04 4.130e-08
 68.68058    134.5 2.322e+04 4.924e-08
 68.68631    132.6 2.294e+04 3.637e-08
 68.69510    130.5 2.231e+04 2.453e-08
 68.70005    130.4 2.315e+04 3.508e-08
 68.70608    128.5 2.243e+04 2.355e-08
 68.71596    126.8 2.163e+04 1.679e-08
 68.73084    125.0 2.083e+04 1.203e-08
 68.75066    122.7 1.893e+04 5.717e-09
 68.77043    119.1 1.603e+04 2.527e-09
 68.79020    114.7 1.321e+04 1.409e-09
 68.80997    112.8 1.269e+04 1.321e-09
 68.82974    112.4 1.244e+04 1.276e-09
 68.84378    111.8 1.236e+04 1.126e-09
 68.85367    114.6 1.243e+04 1.360e-09
 68.86928    114.4 1.239e+04 1.306e-09
 68.88450    114.1 1.227e+04 1.096e-09
 68.90436    113.0 1.217e+04 9.259e-10
 68.93867    111.0 1.144e+04 3.752e-10
 68.97821    107.5 9.834e+03 1.783e-10
 69.01775    105.6 9.167e+03 1.759e-10
 69.05729    105.8 9.186e+03 1.938e-10
 69.09683    106.3 9.319e+03 2.332e-10
 69.13637    107.2 9.570e+03 2.889e-10
 69.16989    107.8 9.897e+03 3.566e-10
 69.18966    109.4 9.833e+03 3.532e-10
 69.20547    109.7 9.961e+03 3.902e-10
 69.22514    109.6 1.012e+04 4.426e-10
 69.24491    109.6 1.025e+04 5.079e-10
 69.26308    109.7 1.035e+04 5.367e-10
 69.27297    110.4 1.036e+04 5.656e-10
 69.28445    110.5 1.045e+04 5.845e-10
 69.30422    110.3 1.066e+04 6.036e-10
 69.32399    108.0 1.212e+04 7.653e-10
 69.34259     99.8 1.642e+04 1.947e-09
 69.35247    106.0 1.380e+04 1.002e-09
 69.36353     97.6 1.779e+04 3.376e-09
 69.38330     92.3 1.897e+04 9.086e-09
 69.40307     90.0 1.908e+04 1.267e-08
 69.42285     88.8 1.909e+04 1.193e-08
 69.44262     86.9 1.910e+04 8.267e-09
 69.45732     82.5 1.857e+04 4.567e-09
 69.46720     81.6 1.780e+04 3.321e-09
 69.48216     74.9 1.536e+04 2.813e-09
 69.50193     69.8 1.501e+04 3.282e-09
 69.51548     67.9 1.551e+04 5.185e-09
 69.52536     69.0 1.628e+04 6.617e-09
 69.54147     68.6 1.701e+04 1.000e-08
 69.56124     67.8 1.771e+04 1.154e-08
 69.58101     66.0 1.787e+04 1.110e-08
 69.60078     64.2 1.770e+04 8.561e-09
 69.62055     61.2 1.810e+04 3.982e-09
 69.64032     53.7 1.809e+04 1.516e-09
 69.65156     45.0 1.548e+04 1.766e-09
 69.66144     44.2 1.115e+04 7.623e-10
 69.67848     40.9 1.115e+04 1.336e-09
 69.68837     41.1 1.244e+04 1.715e-09
 69.69963     41.0 1.251e+04 2.353e-09
 69.71940     41.4 1.307e+04 2.923e-09
 69.73917     42.1 1.334e+04 3.136e-09
 69.75894     42.9 1.330e+04 3.061e-09
 69.77871     43.8 1.314e+04 2.744e-09
 69.79848     44.3 1.292e+04 2.258e-09
 69.81825     44.0 1.270e+04 1.777e-09
 69.83591     43.4 1.264e+04 1.531e-09
 69.84579     43.3 1.269e+04 1.548e-09
 69.85137     42.1 1.281e+04 1.610e-09
 69.86126     41.4 1.306e+04 1.964e-09
 69.87756     39.6 1.393e+04 2.562e-09
 69.89733     37.4 1.540e+04 4.157e-09
 69.91211     35.8 1.635e+04 5.593e-09
 69.92194     35.1 1.675e+04 6.715e-09
 69.93183     33.1 1.743e+04 9.280e-09
 69.93772     33.3 1.718e+04 1.137e-08
 69.93882     33.8 1.738e+04 1.118e-08
 69.94281     33.1 1.798e+04 1.341e-08
 69.95160     33.7 1.814e+04 1.421e-08
 69.96148     33.6 1.822e+04 1.426e-08
 69.97636     33.7 1.797e+04 1.340e-08
 69.99618     32.4 1.837e+04 9.482e-09
 70.01438     29.3 1.767e+04 6.360e-09
 70.02426     28.7 1.591e+04 3.679e-09
 70.03014     26.5 1.511e+04 2.787e-09
 70.04003     23.8 1.479e+04 2.293e-09
 70.05549     22.8 1.416e+04 1.890e-09
 70.07526     22.4 1.358e+04 1.525e-09
 70.09503     21.7 1.301e+04 1.348e-09
 70.12478     21.5 1.239e+04 1.195e-09
 70.16442     22.7 1.138e+04 7.261e-10
 70.18746     24.0 1.084e+04 3.987e-10
 70.20723     24.8 1.090e+04 5.464e-10
 70.24350     25.7 1.085e+04 3.672e-10
 70.28304     26.6 1.072e+04 3.520e-10
 70.32258     28.2 1.056e+04 4.007e-10
 70.36212     30.5 1.044e+04 4.087e-10
 70.39904     33.1 1.031e+04 3.766e-10
 70.41881     32.7 1.007e+04 2.553e-10
 70.44120     35.4 1.006e+04 2.268e-10
 70.48074     38.0 1.010e+04 1.807e-10
 70.51348     40.2 1.023e+04 1.376e-10
 70.53325     40.2 1.006e+04 1.502e-10
 70.55982     42.3 1.008e+04 1.243e-10
 70.59936     44.6 1.009e+04 1.075e-10
 70.63890     46.9 1.003e+04 1.021e-10
 70.67844     49.3 1.004e+04 1.018e-10
 70.71799     51.7 1.008e+04 1.049e-10
 70.75753     54.1 1.016e+04 1.104e-10
 70.78751     56.4 1.029e+04 1.187e-10
 70.80728     56.5 1.033e+04 1.547e-10
 70.83661     58.6 1.065e+04 1.868e-10
 70.85926     60.4 1.106e+04 2.328e-10
 70.87903     60.7 1.093e+04 2.366e-10
 70.91569     62.4 1.131e+04 3.152e-10
 70.95523     64.1 1.156e+04 3.907e-10
 70.99477     65.7 1.167e+04 4.331e-10
 71.03431     67.3 1.185e+04 4.883e-10
 71.07385     69.0 1.185e+04 4.800e-10
 71.11339     70.5 1.194e+04 4.851e-10
 71.15293     71.6 1.214e+04 5.245e-10
 71.17599     72.8 1.248e+04 6.891e-10
 71.18856     72.3 1.255e+04 7.902e-10
 71.20504     71.4 1.298e+04 9.948e-10
 71.23201     72.7 1.303e+04 1.110e-09
 71.27155     74.1 1.313e+04 1.075e-09
 71.31109     75.4 1.332e+04 9.629e-10
 71.35063     76.3 1.352e+04 8.456e-10
 71.39017     76.3 1.334e+04 7.694e-10
 71.42971     75.4 1.272e+04 7.341e-10
 71.46925     73.9 1.226e+04 6.934e-10
 71.50879     72.4 1.192e+04 6.021e-10
 71.53105     70.8 1.167e+04 5.262e-10
 71.54718     72.6 1.122e+04 3.218e-10
 71.56446     71.4 1.087e+04 2.649e-10
 71.58787     70.3 1.087e+04 2.704e-10
 71.62741     69.0 1.117e+04 3.780e-10
 71.66695     68.4 1.149e+04 6.539e-10
 71.70649     68.7 1.141e+04 7.838e-10
 71.74603     69.4 1.115e+04 7.115e-10
 71.78557     71.2 1.056e+04 4.505e-10
 71.82511     73.1 1.013e+04 1.977e-10
 71.85706     74.4 1.012e+04 7.165e-11
 71.87683     75.4 9.710e+03 1.163e-10
 71.90419     76.8 9.758e+03 6.145e-11
 71.93316     78.4 9.480e+03 4.813e-11
 71.95293     78.4 9.193e+03 4.085e-11
 71.98327     80.6 9.057e+03 4.030e-11
 72.02282     83.1 9.031e+03 4.046e-11
 72.06236     85.6 8.984e+03 4.185e-11
 72.10190     88.0 8.914e+03 4.548e-11
 72.14144     90.3 8.864e+03 5.165e-11
 72.18098     92.5 8.844e+03 6.113e-11
 72.20284     94.8 8.850e+03 7.487e-11
 72.22261     95.1 8.768e+03 7.685e-11
 72.26006     97.4 8.788e+03 9.222e-11
 72.29960     99.6 8.858e+03 1.076e-10
 72.32163    101.7 8.987e+03 1.161e-10
 72.34140    101.3 8.922e+03 1.154e-10
 72.37868    103.2 8.977e+03 1.155e-10
 72.41822    105.0 8.989e+03 1.127e-10
 72.45776    106.7 8.959e+03 1.047e-10
 72.49730    108.4 8.865e+03 9.520e-11
 72.52885    110.0 8.793e+03 9.104e-11
 72.54862    109.8 8.717e+03 9.071e-11
 72.57638    111.7 8.679e+03 9.383e-11
 72.61592    113.7 8.631e+03 1.014e-10
 72.65546    115.9 8.633e+03 1.095e-10
 72.69033    118.1 8.698e+03 1.127e-10
 72.71011    117.4 8.649e+03 7.102e-11
 72.73454    119.5 8.681e+03 6.582e-11
 72.77408    121.5 8.681e+03 6.273e-11
 72.81362    123.5 8.661e+03 6.249e-11
 72.85316    125.5 8.637e+03 6.383e-11
 72.87464    127.5 8.578e+03 6.922e-11
 72.89441    127.9 8.245e+03 6.426e-11
 72.93224    130.2 8.258e+03 7.625e-11
 72.97178    132.5 8.322e+03 9.716e-11
 73.01132    135.0 8.469e+03 1.342e-10
 73.05086    137.5 9.138e+03 2.280e-10
 73.07881    139.0 1.008e+04 4.253e-10
 73.09858    137.7 9.918e+03 4.035e-10
 73.12994    137.9 1.085e+04 7.341e-10
 73.15950    137.9 1.175e+04 1.154e-09
 73.17917    137.9 1.247e+04 1.641e-09
 73.19894    137.5 1.300e+04 2.046e-09
 73.21034    136.9 1.329e+04 2.186e-09
 73.22022    137.8 1.323e+04 2.196e-09
 73.23848    137.0 1.329e+04 2.188e-09
 73.25825    136.1 1.324e+04 2.001e-09
 73.28801    134.5 1.244e+04 1.188e-09
 73.32765    132.2 1.170e+04 6.217e-10
 73.36719    130.6 1.067e+04 3.425e-10
 73.40673    130.5 9.714e+03 2.729e-10
 73.44627    131.0 9.597e+03 2.719e-10
 73.46728    132.1 9.668e+03 2.881e-10
 73.48705    131.8 9.122e+03 2.007e-10
 73.52535    133.3 9.381e+03 2.402e-10
 73.54643    134.8 9.662e+03 2.980e-10
 73.56620    136.7 9.319e+03 2.584e-10
 73.60443    138.3 9.636e+03 3.244e-10
 73.63398    138.3 9.910e+03 3.921e-10
 73.65144    138.5 1.016e+04 4.765e-10
 73.66132    138.7 1.002e+04 4.218e-10
 73.67343    139.0 1.026e+04 5.211e-10
 73.69320    139.5 1.045e+04 6.436e-10
 73.70924    140.1 1.062e+04 7.599e-10
 73.71912    141.1 1.049e+04 6.807e-10
 73.73274    141.7 1.071e+04 8.184e-10
 73.75251    142.3 1.091e+04 9.488e-10
 73.77228    143.0 1.110e+04 1.018e-09
 73.79205    143.5 1.114e+04 1.004e-09
 73.81182    143.8 1.119e+04 9.448e-10
 73.83159    143.9 1.123e+04 8.466e-10
 73.84567    143.8 1.125e+04 7.485e-10
 73.85556    144.2 1.139e+04 8.648e-10
 73.87113    143.8 1.145e+04 8.032e-10
 73.88213    143.1 1.145e+04 8.048e-10
 73.89202    145.2 1.183e+04 1.031e-09
 73.91067    144.3 1.189e+04 1.042e-09
 73.93044    143.2 1.201e+04 1.109e-09
 73.95021    142.1 1.215e+04 1.258e-09
 73.96998    141.2 1.231e+04 1.423e-09
 73.98975    140.2 1.250e+04 1.465e-09
 74.00952    139.0 1.252e+04 1.441e-09
 74.02929    137.5 1.247e+04 1.337e-09
 74.03991    135.8 1.220e+04 1.164e-09
 74.04587    136.5 1.267e+04 1.314e-09
 74.05502    138.7 1.470e+04 2.547e-09
 74.06883    136.3 1.357e+04 1.711e-09
 74.08860    133.8 1.223e+04 1.186e-09
 74.10837    132.0 1.135e+04 9.805e-10
 74.12814    131.3 1.124e+04 9.627e-10
 74.14791    131.3 1.128e+04 9.708e-10
 74.16768    131.3 1.134e+04 9.806e-10
 74.18745    131.4 1.136e+04 9.777e-10
 74.20722    131.4 1.138e+04 9.613e-10
 74.21803    131.4 1.136e+04 9.259e-10
 74.22518    131.6 1.136e+04 9.492e-10
 74.23414    131.8 1.151e+04 1.037e-09
 74.24676    131.8 1.147e+04 9.885e-10
 74.26653    131.7 1.142e+04 9.307e-10
 74.28630    131.6 1.139e+04 8.791e-10
 74.30607    131.4 1.140e+04 8.630e-10
 74.32584    131.3 1.142e+04 8.665e-10
 74.34561    131.0 1.154e+04 8.886e-10
 74.36538    130.6 1.180e+04 9.594e-10
 74.38103    130.1 1.214e+04 1.087e-09
 74.39092    130.9 1.182e+04 9.647e-10
 74.40492    130.5 1.211e+04 1.081e-09
 74.41850    130.1 1.233e+04 1.214e-09
 74.42838    130.0 1.250e+04 1.230e-09
 74.44446    129.5 1.267e+04 1.349e-09
 74.46423    129.3 1.263e+04 1.382e-09
 74.48400    129.2 1.254e+04 1.358e-09
 74.50377    129.2 1.232e+04 1.264e-09
 74.52354    129.2 1.206e+04 1.106e-09
 74.54331    129.0 1.179e+04 9.362e-10
 74.55392    128.8 1.156e+04 8.064e-10
 74.56381    129.6 1.203e+04 1.041e-09
 74.58285    129.4 1.192e+04 1.015e-09
 74.60262    129.3 1.192e+04 1.019e-09
 74.61273    129.4 1.195e+04 1.050e-09
 74.62262    129.4 1.227e+04 1.259e-09
 74.64216    129.5 1.238e+04 1.290e-09
 74.66193    129.5 1.254e+04 1.330e-09
 74.68171    129.2 1.287e+04 1.469e-09
 74.70148    128.0 1.376e+04 1.915e-09
 74.71693    126.1 1.482e+04 2.609e-09
 74.72681    128.2 1.506e+04 2.855e-09
 74.73602    125.6 1.633e+04 3.672e-09
 74.74586    121.3 1.931e+04 5.837e-09
 74.75575    116.3 2.144e+04 1.033e-08
 74.76563    112.8 2.165e+04 1.694e-08
 74.77552    112.1 2.128e+04 2.557e-08
 74.78540    112.1 2.121e+04 3.372e-08
 74.79529    111.7 2.139e+04 3.493e-08
 74.80193    110.8 2.131e+04 3.317e-08
 74.80498    110.7 2.153e+04 4.313e-08
 74.80822    110.7 2.147e+04 4.549e-08
 74.81506    109.1 2.203e+04 3.508e-08
 74.82494    106.8 2.352e+04 2.299e-08
 74.83982    100.6 2.483e+04 1.257e-08
 74.85964     93.1 2.232e+04 7.869e-09
 74.87941     88.9 1.892e+04 8.241e-09
 74.88982     88.6 1.829e+04 9.540e-09
 74.89970     87.4 1.903e+04 1.445e-08
 74.91895     89.3 1.897e+04 1.585e-08
 74.93872     91.2 1.927e+04 1.723e-08
 74.95849     92.3 1.951e+04 1.754e-08
 74.97826     93.1 1.943e+04 1.653e-08
 74.99132     93.8 1.910e+04 1.378e-08
 75.00120     93.3 1.818e+04 1.025e-08
 75.01780     93.4 1.737e+04 7.253e-09
 75.03757     92.8 1.654e+04 5.282e-09
 75.05283     91.9 1.580e+04 4.228e-09
 75.06271     89.8 1.452e+04 2.762e-09
 75.07711     89.5 1.429e+04 2.675e-09
 75.09688     89.4 1.427e+04 2.702e-09
 75.11665     89.4 1.432e+04 2.819e-09
 75.13642     89.5 1.434e+04 2.941e-09
 75.15619     89.8 1.426e+04 2.937e-09
 75.17567     90.1 1.416e+04 2.900e-09
 75.18556     90.7 1.384e+04 2.463e-09
 75.19573     91.1 1.373e+04 2.383e-09
 75.21550     91.4 1.373e+04 2.247e-09
 75.22572     91.2 1.411e+04 2.201e-09
 75.23560     90.2 1.403e+04 2.238e-09
 75.25504     89.3 1.474e+04 2.336e-09
 75.27481     87.2 1.621e+04 2.743e-09
 75.29458     85.0 1.726e+04 3.627e-09
 75.31435     83.4 1.749e+04 4.885e-09
 75.33412     82.5 1.729e+04 5.712e-09
 75.35389     81.8 1.708e+04 5.633e-09
 75.36991     81.3 1.650e+04 4.947e-09
 75.37979     81.6 1.603e+04 4.197e-09
 75.38872     80.8 1.508e+04 3.323e-09
 75.39861     80.0 1.461e+04 3.025e-09
 75.41320     78.5 1.410e+04 1.988e-09
 75.43297     72.6 1.511e+04 1.942e-09
 75.45274     60.3 1.819e+04 2.865e-09
 75.47251     50.8 1.859e+04 6.012e-09
 75.49228     44.9 1.931e+04 9.602e-09
 75.50706     40.4 2.159e+04 1.238e-08
 75.51690     36.3 2.258e+04 1.315e-08
 75.52678     30.3 2.422e+04 1.476e-08
 75.53667     20.0 2.927e+04 1.826e-08
 75.54655      6.6 3.230e+04 3.898e-08
 75.55644     -3.2 2.912e+04 1.081e-07
 75.56151     -9.0 2.615e+04 2.141e-07
 75.56418     -4.4 2.886e+04 1.010e-07
 75.56899     -4.3 2.839e+04 1.048e-07
 75.57621     -9.3 2.648e+04 1.686e-07
 75.58609    -13.7 2.549e+04 1.846e-07
 75.59598    -17.5 2.511e+04 1.481e-07
 75.60586    -20.6 2.375e+04 1.004e-07
 75.61575    -22.6 2.251e+04 6.073e-08
 75.62563    -23.8 2.141e+04 3.821e-08
 75.63552    -24.5 2.054e+04 2.589e-08
 75.64302    -25.1 1.990e+04 1.882e-08
 75.64796    -24.2 2.036e+04 2.335e-08
 75.65529    -24.8 1.998e+04 1.845e-08
 75.66116    -25.6 1.961e+04 1.469e-08
 75.66611    -25.6 1.972e+04 1.671e-08
 75.67506    -26.5 1.927e+04 1.311e-08
 75.68494    -27.3 1.886e+04 1.100e-08
 75.69483    -28.1 1.835e+04 9.028e-09
 75.70970    -29.9 1.722e+04 6.530e-09
 75.72462    -31.8 1.612e+04 4.998e-09
 75.73450    -30.7 1.670e+04 5.368e-09
 75.74849    -32.7 1.542e+04 4.021e-09
 75.75838    -32.2 1.634e+04 5.158e-09
 75.76906    -33.4 1.527e+04 3.811e-09
 75.78883    -34.5 1.434e+04 2.664e-09
 75.80860    -35.9 1.314e+04 1.722e-09
 75.82837    -37.4 1.187e+04 1.094e-09
 75.84814    -38.5 1.081e+04 7.291e-10
 75.86791    -39.2 1.016e+04 5.211e-10
 75.88762    -39.7 9.753e+03 3.999e-10
 75.90739    -40.1 9.579e+03 3.495e-10
 75.93721    -40.8 9.415e+03 3.177e-10
 75.97685    -41.3 9.317e+03 3.060e-10
 76.01639    -41.8 9.395e+03 3.323e-10
 76.05593    -42.4 9.686e+03 4.034e-10
 76.08548    -43.5 1.008e+04 5.165e-10
 76.10516    -44.0 1.029e+04 5.940e-10
 76.12493    -44.6 1.053e+04 6.927e-10
 76.13697    -45.2 1.073e+04 7.724e-10
 76.14685    -45.9 1.071e+04 7.671e-10
 76.16447    -46.6 1.089e+04 8.450e-10
 76.18424    -47.4 1.094e+04 8.773e-10
 76.20401    -48.2 1.091e+04 8.792e-10
 76.22352    -48.8 1.075e+04 8.197e-10
 76.23341    -49.1 1.100e+04 8.871e-10
 76.25353    -50.4 1.058e+04 7.051e-10
 76.29317    -52.1 9.619e+03 4.257e-10
 76.33271    -53.1 8.947e+03 2.995e-10
 76.37225    -53.5 8.571e+03 2.424e-10
 76.41179    -53.6 8.387e+03 2.116e-10
 76.45133    -53.4 8.221e+03 1.869e-10
 76.49087    -53.2 8.098e+03 1.672e-10
 76.51575    -53.1 8.002e+03 1.531e-10
 76.53552    -54.3 8.179e+03 1.798e-10
 76.55961    -53.9 8.122e+03 1.742e-10
 76.57938    -53.6 8.135e+03 1.754e-10
 76.60949    -53.0 8.072e+03 1.651e-10
 76.64903    -52.2 8.013e+03 1.496e-10
 76.68857    -51.7 8.030e+03 1.364e-10
 76.72811    -52.0 8.164e+03 1.342e-10
 76.76765    -55.9 1.090e+04 2.421e-10
 76.80719    -59.6 1.330e+04 8.223e-10
 76.83675    -61.2 1.428e+04 2.401e-09
 76.85642    -61.3 1.438e+04 3.565e-09
 76.87619    -60.9 1.433e+04 3.934e-09
 76.89414    -60.3 1.387e+04 3.730e-09
 76.90338    -60.6 1.446e+04 4.809e-09
 76.90520    -60.5 1.454e+04 4.893e-09
 76.91573    -59.9 1.366e+04 3.064e-09
 76.93550    -59.9 1.251e+04 1.580e-09
 76.95527    -61.6 1.137e+04 7.735e-10
 76.97504    -63.8 1.009e+04 3.906e-10
 76.99481    -65.0 9.387e+03 2.599e-10
 77.01458    -65.2 9.251e+03 2.363e-10
 77.04434    -65.4 9.023e+03 2.021e-10
 77.08397    -64.1 8.641e+03 1.582e-10
 77.12351    -62.6 8.501e+03 1.451e-10
 77.16305    -61.1 8.480e+03 1.435e-10
 77.20259    -59.7 8.513e+03 1.483e-10
 77.23141    -58.4 8.691e+03 1.739e-10
 77.25118    -58.7 9.111e+03 2.356e-10
 77.27292    -57.4 9.299e+03 2.789e-10
 77.29269    -58.1 9.328e+03 2.739e-10
 77.32122    -56.8 9.508e+03 3.299e-10
 77.36076    -55.5 9.590e+03 3.675e-10
 77.40030    -54.3 9.602e+03 3.771e-10
 77.43984    -53.1 9.472e+03 3.527e-10
 77.47938    -51.6 9.124e+03 2.769e-10
 77.51892    -50.0 8.839e+03 2.193e-10
 77.55742    -48.6 8.750e+03 1.979e-10
 77.57719    -49.0 8.861e+03 2.089e-10
 77.59800    -47.3 8.843e+03 2.051e-10
 77.63754    -45.8 8.904e+03 2.148e-10
 77.66140    -44.3 9.165e+03 2.625e-10
 77.68117    -44.8 9.047e+03 2.567e-10
 77.71662    -43.2 9.257e+03 3.062e-10
 77.75616    -41.4 9.444e+03 3.567e-10
 77.79570    -39.6 9.490e+03 3.737e-10
 77.83524    -38.2 9.487e+03 3.706e-10
 77.85553    -37.3 9.726e+03 4.127e-10
 77.86532    -37.6 9.684e+03 3.998e-10
 77.88447    -37.5 9.785e+03 4.220e-10
 77.90300    -37.2 9.903e+03 4.565e-10
 77.91289    -38.0 1.038e+04 6.489e-10
 77.92401    -37.6 1.045e+04 7.223e-10
 77.94378    -36.9 1.048e+04 7.855e-10
 77.96355    -35.9 1.049e+04 8.171e-10
 77.98332    -35.0 1.049e+04 8.198e-10
 78.00309    -34.2 1.049e+04 7.809e-10
 78.02286    -33.4 1.047e+04 7.182e-10
 78.03979    -32.8 1.042e+04 6.528e-10
 78.04967    -33.2 1.052e+04 6.869e-10
 78.06240    -32.6 1.048e+04 6.460e-10
 78.07589    -32.0 1.052e+04 6.245e-10
 78.08578    -32.4 1.074e+04 6.999e-10
 78.10194    -32.0 1.091e+04 7.073e-10
 78.12171    -31.6 1.123e+04 7.698e-10
 78.14148    -31.5 1.163e+04 9.230e-10
 78.16125    -31.6 1.198e+04 1.194e-09
 78.18102    -31.4 1.228e+04 1.616e-09
 78.20079    -30.6 1.265e+04 2.207e-09
 78.22056    -29.4 1.310e+04 2.897e-09
 78.23402    -28.2 1.353e+04 3.482e-09
 78.24248    -28.7 1.403e+04 4.432e-09
 78.24878    -29.3 1.525e+04 6.503e-09
 78.26010    -28.4 1.544e+04 6.723e-09
 78.27987    -27.5 1.554e+04 6.565e-09
 78.29964    -26.7 1.536e+04 5.487e-09
 78.31941    -26.2 1.491e+04 4.404e-09
 78.33918    -25.9 1.427e+04 3.475e-09
 78.35895    -25.3 1.361e+04 2.754e-09
 78.37872    -24.5 1.313e+04 2.243e-09
 78.39849    -23.6 1.281e+04 1.881e-09
 78.41179    -22.6 1.259e+04 1.613e-09
 78.42168    -23.7 1.287e+04 1.586e-09
 78.42826    -23.2 1.297e+04 1.411e-09
 78.43815    -25.3 1.297e+04 1.200e-09
 78.45780    -25.0 1.285e+04 1.155e-09
 78.47757    -24.7 1.274e+04 1.174e-09
 78.49734    -24.3 1.257e+04 1.231e-09
 78.51711    -23.7 1.242e+04 1.297e-09
 78.53688    -22.9 1.239e+04 1.379e-09
 78.55665    -22.1 1.236e+04 1.443e-09
 78.57480    -21.3 1.245e+04 1.451e-09
 78.58468    -22.3 1.263e+04 1.471e-09
 78.59619    -21.8 1.251e+04 1.340e-09
 78.61261    -21.4 1.236e+04 1.227e-09
 78.62250    -22.8 1.207e+04 1.078e-09
 78.63574    -22.4 1.186e+04 1.011e-09
 78.65551    -21.7 1.170e+04 9.570e-10
 78.67528    -21.1 1.144e+04 8.757e-10
 78.69505    -20.2 1.122e+04 7.932e-10
 78.71482    -19.4 1.095e+04 6.851e-10
 78.73459    -18.8 1.076e+04 5.755e-10
 78.74769    -18.6 1.062e+04 4.652e-10
 78.75757    -20.7 1.015e+04 3.171e-10
 78.77413    -21.0 9.854e+03 2.823e-10
 78.79390    -21.2 9.627e+03 2.946e-10
 78.80685    -20.9 9.587e+03 3.225e-10
 78.82672    -20.6 9.504e+03 2.814e-10
 78.86329    -19.7 9.520e+03 2.975e-10
 78.90100    -18.6 9.410e+03 2.911e-10
 78.92077    -19.7 9.372e+03 2.943e-10
 78.94237    -19.1 9.320e+03 2.692e-10
 78.98191    -18.6 9.276e+03 2.544e-10
 79.02145    -17.6 9.182e+03 2.454e-10
 79.05101    -15.8 9.127e+03 2.372e-10
 79.07068    -15.5 9.104e+03 2.363e-10
 79.10043    -14.1 9.215e+03 2.654e-10
 79.14007    -12.1 9.413e+03 3.093e-10
 79.17575     -9.6 9.557e+03 3.599e-10
 79.19552     -9.5 1.022e+04 6.043e-10
 79.21915     -7.0 1.023e+04 6.646e-10
 79.24678     -4.5 1.026e+04 7.116e-10
 79.26655     -4.9 1.081e+04 8.829e-10
 79.29823     -2.2 1.113e+04 1.016e-09
 79.32779     -0.6 1.102e+04 9.737e-10
 79.34746      0.1 1.138e+04 1.118e-09
 79.36723      0.5 1.184e+04 1.358e-09
 79.37967      0.7 1.232e+04 1.660e-09
 79.38956      0.4 1.216e+04 1.659e-09
 79.40677      1.0 1.255e+04 2.134e-09
 79.41948      1.7 1.294e+04 2.495e-09
 79.42936      2.1 1.321e+04 2.617e-09
 79.44631      3.1 1.349e+04 2.934e-09
 79.46608      3.9 1.351e+04 3.042e-09
 79.48585      4.6 1.342e+04 2.946e-09
 79.50562      5.5 1.326e+04 2.653e-09
 79.52539      6.0 1.302e+04 2.317e-09
 79.54516      6.1 1.256e+04 1.866e-09
 79.56402      6.1 1.206e+04 1.550e-09
 79.57391      5.9 1.121e+04 1.078e-09
 79.58249      6.2 1.088e+04 9.438e-10
 79.59237      6.3 1.136e+04 1.201e-09
 79.60447      6.7 1.123e+04 1.055e-09
 79.62424      7.0 1.105e+04 9.847e-10
 79.64401      7.2 1.092e+04 9.169e-10
 79.66378      7.4 1.079e+04 8.836e-10
 79.68355      7.6 1.077e+04 8.776e-10
 79.70332      7.8 1.073e+04 8.756e-10
 79.72309      8.0 1.075e+04 8.829e-10
 79.74286      7.5 1.111e+04 9.705e-10
 79.75538      2.9 1.392e+04 1.641e-09
 79.76089      3.0 1.394e+04 1.633e-09
 79.76814      6.9 1.180e+04 9.476e-10
 79.78240      1.4 1.506e+04 1.983e-09
 79.80217     -1.7 1.534e+04 3.954e-09
 79.82194     -1.7 1.513e+04 6.239e-09
 79.83672     -0.9 1.520e+04 7.422e-09
 79.84172     -0.2 1.535e+04 7.394e-09
 79.84667     -0.5 1.540e+04 7.109e-09
 79.86144      0.0 1.618e+04 6.942e-09
 79.88125     -2.4 1.946e+04 5.334e-09
 79.90102     -8.8 1.885e+04 2.921e-09
 79.91838    -15.6 1.320e+04 1.818e-09
 79.92827    -17.2 1.316e+04 1.849e-09
 79.94056    -17.5 1.241e+04 1.834e-09
 79.95250    -16.7 1.261e+04 1.841e-09
 79.96238    -15.4 1.249e+04 1.992e-09
 79.98011    -14.7 1.255e+04 1.959e-09
 79.99988    -14.4 1.279e+04 1.725e-09
 80.01965    -14.6 1.277e+04 1.361e-09
 80.03942    -15.4 1.253e+04 1.064e-09
 80.05919    -16.2 1.206e+04 8.436e-10
 80.07896    -16.9 1.159e+04 7.083e-10
 80.09127    -17.6 1.135e+04 6.482e-10
 80.10116    -18.7 1.064e+04 4.820e-10
 80.11850    -19.1 1.055e+04 4.696e-10
 80.13685    -19.4 1.055e+04 4.857e-10
 80.14673    -19.0 1.170e+04 7.548e-10
 80.15804    -19.5 1.186e+04 8.437e-10
 80.17781    -19.7 1.195e+04 9.155e-10
 80.19758    -19.7 1.196e+04 9.378e-10
 80.21735    -19.6 1.173e+04 9.067e-10
 80.23712    -19.5 1.130e+04 7.797e-10
 80.25428    -19.6 1.083e+04 6.388e-10
 80.26416    -20.1 1.046e+04 5.404e-10
 80.27666    -20.3 1.029e+04 4.796e-10
 80.29643    -20.6 1.027e+04 4.594e-10
 80.31620    -21.5 1.072e+04 4.833e-10
 80.33108    -24.1 1.201e+04 6.697e-10
 80.34097    -25.4 1.256e+04 9.306e-10
 80.35574    -27.2 1.293e+04 1.483e-09
 80.37551    -27.8 1.323e+04 2.368e-09
 80.39528    -27.8 1.357e+04 3.352e-09
 80.41505    -26.4 1.386e+04 4.157e-09
 80.42717    -25.4 1.417e+04 4.642e-09
 80.43705    -25.2 1.477e+04 6.237e-09
 80.45459    -24.8 1.467e+04 5.509e-09
 80.47436    -24.8 1.426e+04 4.271e-09
 80.49413    -25.1 1.362e+04 3.146e-09
 80.51390    -25.3 1.305e+04 2.324e-09
 80.52532    -25.3 1.254e+04 1.787e-09
 80.53520    -26.2 1.251e+04 1.747e-09
 80.55344    -25.8 1.207e+04 1.412e-09
 80.57321    -25.4 1.168e+04 1.174e-09
 80.59027    -24.8 1.122e+04 9.302e-10
 80.61014    -24.0 1.095e+04 7.542e-10
 80.64260    -22.5 1.020e+04 4.527e-10
 80.68214    -21.4 9.719e+03 2.960e-10
 80.70987    -20.2 9.339e+03 2.406e-10
 80.72964    -21.1 9.333e+03 2.294e-10
 80.76122    -19.4 9.157e+03 2.117e-10
 80.80076    -17.6 9.107e+03 2.089e-10
 80.84030    -15.8 9.095e+03 2.294e-10
 80.87984    -14.2 9.304e+03 2.786e-10
 80.91638    -12.7 9.805e+03 3.635e-10
 80.93615    -13.2 1.028e+04 4.487e-10
 80.94894    -12.9 1.124e+04 6.233e-10
 80.96861    -14.4 1.189e+04 8.739e-10
 80.98838    -14.4 1.272e+04 1.419e-09
 81.00815    -14.4 1.276e+04 1.818e-09
 81.02792    -12.3 1.258e+04 2.070e-09
 81.04769    -10.6 1.248e+04 2.139e-09
 81.06746     -8.8 1.221e+04 1.998e-09
 81.08723     -7.0 1.224e+04 1.777e-09
 81.09824     -6.4 1.160e+04 1.247e-09
 81.10008     -6.9 1.222e+04 1.855e-09
 81.10885     -7.5 1.217e+04 1.815e-09
 81.12677     -6.8 1.173e+04 1.428e-09
 81.15653     -6.4 1.108e+04 1.049e-09
 81.19616     -4.1 1.011e+04 6.017e-10
 81.23571     -3.1 9.791e+03 4.718e-10
 81.26216     -1.3 9.584e+03 4.352e-10
 81.28193     -1.1 9.916e+03 5.100e-10
 81.31479      1.2 9.979e+03 5.978e-10
 81.35433      4.4 9.971e+03 6.470e-10
 81.39387      7.2 1.023e+04 6.536e-10
 81.42342      8.1 1.053e+04 6.646e-10
 81.43486      8.5 1.057e+04 6.665e-10
 81.44474      8.6 1.064e+04 7.097e-10
 81.46287      8.9 1.091e+04 8.031e-10
 81.47673      9.5 1.090e+04 8.198e-10
 81.48671      7.8 1.108e+04 9.813e-10
 81.50250      8.9 1.132e+04 1.149e-09
 81.52218      9.7 1.169e+04 1.317e-09
 81.54195     10.0 1.216e+04 1.573e-09
 81.56172     10.0 1.277e+04 1.940e-09
 81.58149     10.0 1.319e+04 2.351e-09
 81.59786     10.5 1.329e+04 2.650e-09
 81.60775     10.7 1.302e+04 2.149e-09
 81.62103     11.1 1.284e+04 2.221e-09
 81.64080     11.9 1.260e+04 2.160e-09
 81.66057     12.6 1.234e+04 2.011e-09
 81.67097     13.0 1.210e+04 1.836e-09
 81.68085     13.1 1.235e+04 2.004e-09
 81.70011     13.3 1.197e+04 1.579e-09
 81.71988     13.4 1.167e+04 1.408e-09
 81.73965     14.1 1.136e+04 1.187e-09
 81.75942     14.2 1.127e+04 1.137e-09
 81.77075     15.4 1.085e+04 9.667e-10
 81.78064     15.1 1.041e+04 7.519e-10
 81.79896     15.5 1.036e+04 6.889e-10
 81.81873     16.3 1.019e+04 6.228e-10
 81.83850     17.1 1.006e+04 5.711e-10
 81.85532     17.7 9.996e+03 5.291e-10
 81.86520     17.7 9.909e+03 4.975e-10
 81.87804     18.2 9.927e+03 4.801e-10
 81.89781     18.5 9.975e+03 4.878e-10
 81.91758     18.9 1.002e+04 5.071e-10
 81.93376     19.2 1.009e+04 5.468e-10
 81.94365     18.7 1.101e+04 6.679e-10
 81.95712     17.9 1.195e+04 9.073e-10
 81.97190     16.7 1.321e+04 1.202e-09
 81.98174     17.0 1.331e+04 1.294e-09
 81.99162     15.0 1.549e+04 1.853e-09
 82.00151     11.3 2.068e+04 3.183e-09
 82.01139      7.5 2.481e+04 6.127e-09
 82.02011      5.7 2.585e+04 9.739e-09
 82.02505      5.3 2.380e+04 2.184e-08
 82.03116      5.1 2.317e+04 2.988e-08
 82.04105      4.2 2.277e+04 4.140e-08
 82.04946      3.2 2.265e+04 6.347e-08
 82.05440      1.8 2.264e+04 6.838e-08
 82.06082      1.3 2.182e+04 1.127e-07
 82.07070      1.4 2.098e+04 1.830e-07
 82.08059      2.6 2.058e+04 2.702e-07
 82.09047      3.5 2.060e+04 2.314e-07
 82.10036      5.4 2.062e+04 1.476e-07
 82.10655      6.4 2.123e+04 9.231e-08
 82.11150      6.2 2.097e+04 7.277e-08
 82.12013      6.0 2.165e+04 4.495e-08
 82.13001      5.2 2.136e+04 3.068e-08
 82.13990      4.1 2.067e+04 2.239e-08
 82.15477      2.2 1.941e+04 1.321e-08
 82.17459      2.3 1.764e+04 9.043e-09
 82.19436      3.0 1.682e+04 7.251e-09
 82.21413      4.5 1.633e+04 5.769e-09
 82.23390      6.1 1.594e+04 4.840e-09
 82.25367      7.0 1.645e+04 5.884e-09
 82.26966      9.1 1.611e+04 5.045e-09
 82.27954      8.5 1.471e+04 2.423e-09
 82.29321     10.1 1.442e+04 1.952e-09
 82.31298     11.2 1.419e+04 1.539e-09
 82.33275     12.0 1.380e+04 1.262e-09
 82.35252     12.7 1.322e+04 1.117e-09
 82.37229     13.0 1.265e+04 1.054e-09
 82.39206     13.1 1.194e+04 1.017e-09
 82.41183     13.5 1.174e+04 1.109e-09
 82.42814     14.3 1.187e+04 1.349e-09
 82.43803     13.9 1.199e+04 1.394e-09
 82.44255     14.9 1.227e+04 1.662e-09
 82.45243     13.9 1.217e+04 1.600e-09
 82.47114     15.1 1.233e+04 1.863e-09
 82.49091     16.0 1.229e+04 1.894e-09
 82.51068     16.7 1.218e+04 1.841e-09
 82.53045     16.8 1.193e+04 1.663e-09
 82.55022     16.3 1.181e+04 1.479e-09
 82.56999     14.4 1.236e+04 1.469e-09
 82.58976     11.5 1.328e+04 1.577e-09
 82.60555      8.9 1.319e+04 1.680e-09
 82.61544      6.6 1.354e+04 2.038e-09
 82.62238      5.2 1.295e+04 2.019e-09
 82.63226      6.4 1.336e+04 2.152e-09
 82.64908      5.7 1.283e+04 2.116e-09
 82.66885      5.3 1.263e+04 2.035e-09
 82.68862      5.1 1.243e+04 1.819e-09
 82.70839      4.9 1.211e+04 1.516e-09
 82.73814      4.0 1.167e+04 9.900e-10
 82.77778      1.7 1.043e+04 4.891e-10
 82.81732     -2.4 9.339e+03 2.688e-10
 82.85686     -6.5 9.147e+03 2.583e-10
 82.89640     -9.4 9.341e+03 3.614e-10
 82.92596    -11.1 9.557e+03 4.397e-10
 82.94145    -11.2 9.642e+03 4.504e-10
 82.95143    -12.0 9.564e+03 4.241e-10
 82.97548    -13.9 9.641e+03 4.160e-10
 83.00116    -16.8 9.571e+03 3.645e-10
 83.02093    -16.7 9.636e+03 3.813e-10
 83.05456    -19.5 9.660e+03 4.117e-10
 83.09410    -21.1 9.682e+03 4.489e-10
 83.11444    -22.2 9.685e+03 4.976e-10
 83.12423    -21.2 9.588e+03 4.554e-10
 83.14333    -21.3 9.631e+03 4.719e-10
 83.16310    -21.4 9.665e+03 4.962e-10
 83.18287    -21.4 9.756e+03 5.111e-10
 83.19520    -21.5 9.851e+03 5.352e-10
 83.20509    -21.4 9.940e+03 5.445e-10
 83.22241    -21.5 1.029e+04 5.974e-10
 83.24218    -22.9 1.105e+04 7.378e-10
 83.26195    -24.3 1.196e+04 1.050e-09
 83.27735    -25.2 1.254e+04 1.469e-09
 83.28723    -22.7 1.203e+04 1.140e-09
 83.30149    -23.1 1.248e+04 1.554e-09
 83.32126    -21.5 1.281e+04 2.075e-09
 83.34103    -19.8 1.270e+04 2.252e-09
 83.36080    -18.0 1.307e+04 2.500e-09
 83.37955    -20.9 1.876e+04 3.403e-09
 83.38944    -20.1 1.583e+04 2.721e-09
 83.39535    -26.5 2.318e+04 4.452e-09
 83.40519    -32.4 2.516e+04 8.035e-09
 83.41507    -36.1 2.740e+04 1.470e-08
 83.42496    -44.0 2.869e+04 3.696e-08
 83.43484    -50.3 2.905e+04 7.660e-08
 83.44473    -55.7 2.961e+04 9.772e-08
 83.45014    -62.9 3.100e+04 7.815e-08
 83.45508    -59.0 2.988e+04 1.157e-07
 83.46450    -68.2 3.173e+04 4.573e-08
 83.47438    -80.0 2.681e+04 1.039e-08
 83.48151    -88.4 1.754e+04 4.636e-09
 83.48646    -82.8 2.304e+04 7.405e-09
 83.49415    -88.9 1.663e+04 3.897e-09
 83.50404    -90.9 1.472e+04 2.884e-09
 83.51891    -92.5 1.417e+04 2.258e-09
 83.53873    -94.3 1.277e+04 1.435e-09
 83.55850    -95.6 1.132e+04 9.104e-10
 83.57379    -95.9 1.079e+04 7.055e-10
 83.58367    -94.3 1.186e+04 9.966e-10
 83.59804    -94.8 1.092e+04 7.350e-10
 83.61324    -95.0 1.034e+04 5.942e-10
 83.62313    -95.0 1.050e+04 6.079e-10
 83.63758    -94.9 1.012e+04 5.316e-10
 83.65735    -94.8 9.917e+03 4.911e-10
 83.67712    -94.8 9.783e+03 4.702e-10
 83.69689    -95.0 9.711e+03 4.634e-10
 83.71666    -95.2 9.680e+03 4.614e-10
 83.73643    -95.4 9.653e+03 4.606e-10
 83.75620    -95.7 9.646e+03 4.653e-10
 83.76802    -96.6 9.800e+03 5.193e-10
 83.77791    -94.5 9.581e+03 4.639e-10
 83.78613    -95.6 9.849e+03 5.237e-10
 83.79602    -97.2 1.078e+04 6.589e-10
 83.81551   -100.4 1.253e+04 1.013e-09
 83.83528   -103.7 1.384e+04 1.747e-09
 83.85505   -106.2 1.458e+04 2.842e-09
 83.87482   -107.8 1.506e+04 3.911e-09
 83.89459   -109.2 1.528e+04 4.375e-09
 83.91437   -110.8 1.532e+04 4.406e-09
 83.93414   -112.7 1.499e+04 3.605e-09
 83.94914   -115.5 1.392e+04 2.354e-09
 83.95749   -118.1 1.295e+04 1.740e-09
 83.96226   -115.5 1.364e+04 2.105e-09
 83.97368   -119.1 1.217e+04 1.374e-09
 83.99345   -122.0 1.134e+04 1.117e-09
 84.01322   -123.8 1.116e+04 1.068e-09
 84.03299   -125.3 1.119e+04 1.099e-09
 84.05276   -126.8 1.169e+04 1.325e-09
 84.07253   -128.3 1.239e+04 1.667e-09
 84.09230   -129.8 1.311e+04 2.084e-09
 84.11207   -131.3 1.376e+04 2.514e-09
 84.13184   -134.8 1.375e+04 2.381e-09
 84.14661   -136.3 1.342e+04 2.175e-09
 84.15650   -135.2 1.293e+04 1.861e-09
 84.17138   -137.0 1.254e+04 1.602e-09
 84.19115   -138.9 1.214e+04 1.334e-09
 84.21092   -141.0 1.169e+04 1.110e-09
 84.23069   -142.9 1.124e+04 9.497e-10
 84.25046   -144.5 1.087e+04 8.548e-10
 84.27023   -145.8 1.066e+04 8.151e-10
 84.28504   -146.6 1.057e+04 8.054e-10
 84.29492   -148.5 1.061e+04 8.152e-10
 84.30977   -149.1 1.067e+04 8.706e-10
 84.32954   -149.5 1.081e+04 9.456e-10
 84.34085   -149.8 1.094e+04 1.008e-09
 84.35073   -149.3 1.100e+04 1.029e-09
 84.36908   -149.7 1.113e+04 1.091e-09
 84.38885   -149.9 1.118e+04 1.118e-09
 84.40862   -150.1 1.119e+04 1.122e-09
 84.42839   -150.2 1.113e+04 1.107e-09
 84.44804   -150.0 1.100e+04 1.063e-09
 84.45793   -151.4 1.116e+04 1.148e-09
 84.46793   -151.0 1.104e+04 1.108e-09
 84.48770   -150.4 1.094e+04 1.078e-09
 84.50747   -149.7 1.087e+04 1.056e-09
 84.52520   -149.0 1.080e+04 1.036e-09
 84.53508   -149.1 1.090e+04 1.093e-09
 84.54701   -148.3 1.080e+04 1.052e-09
 84.56678   -147.4 1.070e+04 1.002e-09
 84.58655   -146.5 1.057e+04 9.420e-10
 84.60632   -145.5 1.044e+04 8.773e-10
 84.62093   -144.5 1.031e+04 8.145e-10
 84.63082   -144.8 1.036e+04 8.409e-10
 84.64586   -143.8 1.025e+04 7.864e-10
 84.66563   -142.6 1.016e+04 7.470e-10
 84.68540   -141.5 1.013e+04 7.265e-10
 84.70517   -140.5 1.012e+04 7.202e-10
 84.71943   -139.5 1.012e+04 7.191e-10
 84.72932   -139.6 1.016e+04 7.221e-10
 84.74471   -138.6 1.022e+04 7.342e-10
 84.76448   -137.6 1.030e+04 7.704e-10
 84.78394   -136.7 1.037e+04 8.148e-10
 84.79382   -136.8 1.058e+04 8.654e-10
 84.80402   -135.9 1.074e+04 9.490e-10
 84.82379   -134.9 1.095e+04 1.047e-09
 84.84356   -134.0 1.119e+04 1.145e-09
 84.86333   -133.2 1.140e+04 1.225e-09
 84.88310   -132.6 1.154e+04 1.264e-09
 84.90287   -132.0 1.158e+04 1.269e-09
 84.91367   -131.4 1.156e+04 1.208e-09
 84.92356   -131.9 1.214e+04 1.526e-09
 84.94241   -131.4 1.202e+04 1.417e-09
 84.95683   -130.8 1.175e+04 1.254e-09
 84.96671   -131.2 1.276e+04 2.059e-09
 84.98195   -130.5 1.231e+04 1.750e-09
 85.00172   -129.8 1.174e+04 1.403e-09
 85.02149   -129.0 1.109e+04 1.072e-09
 85.04126   -128.2 1.043e+04 7.968e-10
 85.06103   -127.3 9.810e+03 5.873e-10
 85.08080   -126.3 9.306e+03 4.435e-10
 85.09802   -125.2 8.948e+03 3.565e-10
 85.10791   -125.6 9.073e+03 4.058e-10
 85.11983   -124.5 8.800e+03 3.371e-10
 85.12972   -124.6 9.185e+03 4.465e-10
 85.14011   -123.4 8.885e+03 3.641e-10
 85.15988   -122.3 8.669e+03 3.127e-10
 85.18964   -121.1 8.511e+03 2.767e-10
 85.22928   -118.7 8.310e+03 2.525e-10
 85.26882   -116.1 8.239e+03 2.455e-10
 85.29245   -113.7 8.251e+03 2.492e-10
 85.29669   -114.1 8.522e+03 2.822e-10
 85.30261   -114.4 8.956e+03 3.533e-10
 85.31805   -113.4 9.065e+03 3.778e-10
 85.33782   -112.5 9.247e+03 4.177e-10
 85.35759   -111.5 9.448e+03 4.682e-10
 85.37736   -110.6 9.619e+03 5.219e-10
 85.39713   -109.5 9.746e+03 5.750e-10
 85.41690   -108.4 9.831e+03 6.193e-10
 85.43667   -107.9 9.960e+03 6.584e-10
 85.45573   -108.6 1.045e+04 7.240e-10
 85.46562   -107.5 1.070e+04 9.516e-10
 85.47621   -109.7 1.264e+04 1.102e-09
 85.48649   -117.1 1.914e+04 2.782e-09
 85.49638   -115.0 1.700e+04 4.124e-09
 85.51575   -119.6 2.064e+04 9.088e-09
 85.53053   -123.9 2.281e+04 1.515e-08
 85.54036   -125.3 2.364e+04 1.859e-08
 85.54702   -127.5 2.435e+04 2.035e-08
 85.55196   -124.8 2.356e+04 1.992e-08
 85.56013   -127.1 2.426e+04 2.081e-08
 85.57002   -129.6 2.449e+04 2.039e-08
 85.57857   -132.3 2.416e+04 1.559e-08
 85.58352   -131.5 2.572e+04 1.812e-08
 85.58979   -135.2 2.427e+04 1.119e-08
 85.59967   -140.0 2.087e+04 6.580e-09
 85.60956   -144.8 1.719e+04 4.285e-09
 85.61944   -148.2 1.561e+04 3.257e-09
 85.62857   -150.2 1.493e+04 2.669e-09
 85.63352   -149.2 1.587e+04 3.284e-09
 85.63921   -150.3 1.561e+04 3.124e-09
 85.65409   -150.8 1.550e+04 3.014e-09
 85.67085   -152.6 1.526e+04 3.090e-09
 85.68068   -154.4 1.588e+04 4.368e-09
 85.68864   -155.3 1.583e+04 4.563e-09
 85.69852   -155.9 1.596e+04 4.807e-09
 85.70841   -156.9 1.609e+04 5.109e-09
 85.71497   -157.7 1.632e+04 5.415e-09
 85.71991   -157.6 1.632e+04 5.448e-09
 85.73317   -159.4 1.646e+04 5.602e-09
 85.75299   -162.5 1.649e+04 5.129e-09
 85.77276   -165.6 1.618e+04 4.580e-09
 85.79163   -168.7 1.541e+04 3.912e-09
 85.80151   -168.8 1.601e+04 4.859e-09
 85.81230   -171.3 1.467e+04 3.614e-09
 85.83207   -173.0 1.315e+04 2.591e-09
 85.85184   -173.6 1.198e+04 1.896e-09
 85.86508   -173.8 1.127e+04 1.444e-09
 85.87497   -175.0 1.061e+04 1.073e-09
 85.89138   -175.0 1.006e+04 8.054e-10
 85.91115   -174.6 9.621e+03 6.177e-10
 85.93092   -174.0 9.269e+03 4.897e-10
 85.95069   -173.4 9.035e+03 4.093e-10
 85.96452   -172.7 8.953e+03 3.730e-10
 85.97440   -172.9 8.874e+03 3.593e-10
 85.99023   -172.2 8.820e+03 3.447e-10
 86.01998   -171.3 8.751e+03 3.243e-10
 86.04963   -169.2 8.575e+03 2.921e-10
 86.06940   -170.3 8.195e+03 2.374e-10
 86.09916   -168.4 8.200e+03 2.371e-10
 86.13870   -166.8 8.337e+03 2.547e-10
 86.17824   -165.3 8.788e+03 3.243e-10
 86.21778   -163.6 9.275e+03 4.360e-10
 86.25732   -161.9 9.667e+03 5.607e-10
 86.29073   -160.4 9.959e+03 6.600e-10
 86.31050   -161.6 9.863e+03 6.449e-10
 86.33640   -160.4 9.901e+03 6.583e-10
 86.37594   -159.3 9.867e+03 6.376e-10
 86.41548   -158.1 9.641e+03 5.337e-10
 86.43810   -157.0 9.361e+03 4.279e-10
 86.45787   -157.5 9.266e+03 4.142e-10
 86.49456   -156.0 9.209e+03 3.840e-10
 86.53411   -154.3 9.204e+03 3.765e-10
 86.57365   -152.4 9.233e+03 3.764e-10
 86.61319   -150.5 9.349e+03 3.898e-10
 86.63651   -148.6 9.475e+03 4.125e-10
 86.65628   -148.8 9.434e+03 4.024e-10
 86.69227   -146.9 9.596e+03 4.323e-10
 86.73181   -145.0 9.872e+03 4.978e-10
 86.76136   -143.4 1.011e+04 5.971e-10
 86.78104   -142.5 1.034e+04 6.774e-10
 86.79932   -141.5 1.058e+04 7.754e-10
 86.80920   -141.7 1.060e+04 7.799e-10
 86.81649   -140.7 1.085e+04 8.866e-10
 86.82638   -141.0 1.069e+04 7.964e-10
 86.84035   -140.2 1.088e+04 8.808e-10
 86.86012   -139.4 1.102e+04 9.519e-10
 86.87989   -138.7 1.110e+04 1.013e-09
 86.89966   -138.1 1.114e+04 1.049e-09
 86.92941   -137.3 1.119e+04 1.080e-09
 86.96252   -135.7 1.110e+04 1.051e-09
 86.98229   -136.6 1.091e+04 8.194e-10
 87.00859   -135.0 1.059e+04 6.652e-10
 87.04813   -133.3 1.020e+04 4.991e-10
 87.08767   -131.6 9.829e+03 3.653e-10
 87.12721   -130.0 9.530e+03 2.674e-10
 87.16675   -128.3 9.307e+03 1.984e-10
 87.19528   -126.6 9.145e+03 1.510e-10
 87.21505   -126.7 9.039e+03 1.470e-10
 87.24583   -124.8 8.942e+03 1.207e-10
 87.28537   -122.9 8.872e+03 1.013e-10
 87.30830   -121.0 8.817e+03 8.850e-11
 87.32807   -121.2 8.700e+03 7.894e-11
 87.36445   -119.2 8.693e+03 7.481e-11
 87.40399   -117.2 8.697e+03 7.416e-11
 87.44353   -115.6 8.763e+03 7.509e-11
 87.48307   -114.9 9.027e+03 8.494e-11
 87.52261   -114.9 9.686e+03 1.555e-10
 87.56215   -115.1 1.072e+04 3.700e-10
 87.58375   -115.3 1.194e+04 8.215e-10
 87.60352   -115.0 1.187e+04 7.366e-10
 87.63125   -116.3 1.332e+04 1.949e-09
 87.64400   -116.7 1.413e+04 2.915e-09
 87.65389   -117.4 1.473e+04 4.353e-09
 87.67069   -117.6 1.528e+04 5.267e-09
 87.69046   -118.4 1.542e+04 5.454e-09
 87.71023   -119.2 1.538e+04 4.723e-09
 87.73000   -120.5 1.468e+04 2.738e-09
 87.74977   -123.2 1.344e+04 1.363e-09
 87.76790   -126.6 1.232e+04 7.620e-10
 87.77779   -124.9 1.291e+04 8.491e-10
 87.78931   -128.8 1.216e+04 5.850e-10
 87.80701   -131.5 1.201e+04 5.445e-10
 87.81689   -132.8 1.240e+04 6.681e-10
 87.82885   -135.1 1.248e+04 7.697e-10
 87.84862   -137.0 1.280e+04 1.137e-09
 87.86840   -138.4 1.305e+04 1.559e-09
 87.88817   -139.7 1.325e+04 1.848e-09
 87.90794   -141.3 1.332e+04 1.932e-09
 87.92771   -143.2 1.333e+04 1.932e-09
 87.94748   -145.3 1.324e+04 1.751e-09
 87.96214   -147.7 1.312e+04 1.497e-09
 87.97203   -145.9 1.289e+04 1.468e-09
 87.97990   -148.3 1.273e+04 1.238e-09
 87.98978   -149.9 1.305e+04 1.459e-09
 88.00679   -152.2 1.282e+04 1.316e-09
 88.02656   -154.2 1.252e+04 1.187e-09
 88.04633   -155.7 1.216e+04 1.048e-09
 88.06610   -156.9 1.178e+04 8.950e-10
 88.08587   -157.9 1.143e+04 7.379e-10
 88.10564   -158.9 1.107e+04 5.926e-10
 88.12541   -159.9 1.073e+04 4.689e-10
 88.14290   -160.8 1.044e+04 3.840e-10
 88.15279   -161.3 1.027e+04 3.359e-10
 88.15638   -161.8 1.021e+04 3.171e-10
 88.16626   -161.2 1.033e+04 3.263e-10
 88.18472   -162.0 1.035e+04 3.203e-10
 88.20449   -162.9 1.036e+04 3.192e-10
 88.22426   -164.5 1.049e+04 3.306e-10
 88.24403   -165.7 1.065e+04 3.735e-10
 88.26380   -167.2 1.095e+04 4.886e-10
 88.28357   -168.2 1.124e+04 6.275e-10
 88.30334   -169.6 1.154e+04 8.421e-10
 88.31579   -171.0 1.164e+04 9.247e-10
 88.32568   -171.9 1.124e+04 7.468e-10
 88.34073   -173.3 1.124e+04 7.652e-10
 88.35061   -173.4 1.129e+04 7.871e-10
 88.36265   -174.3 1.094e+04 7.243e-10
 88.38242   -175.1 1.051e+04 5.696e-10
 88.40219   -175.7 1.012e+04 4.358e-10
 88.43194   -176.4 9.855e+03 3.523e-10
 88.47158   -177.1 9.523e+03 2.665e-10
 88.51112   -177.4 9.135e+03 1.915e-10
 88.55066   -177.5 8.820e+03 1.455e-10
 88.59020   -176.9 8.595e+03 1.266e-10
 88.62974   -175.8 8.484e+03 1.225e-10
 88.65189   -174.7 8.431e+03 1.219e-10
 88.67166   -175.2 8.392e+03 1.124e-10
 88.70882   -174.1 8.354e+03 1.123e-10
 88.72940   -173.0 8.334e+03 1.128e-10
 88.74917   -172.8 8.354e+03 1.181e-10
 88.78790   -171.7 8.308e+03 1.210e-10
 88.82744   -170.5 8.263e+03 1.239e-10
 88.86698   -169.3 8.224e+03 1.273e-10
 88.90652   -167.9 8.202e+03 1.319e-10
 88.94606   -166.6 8.215e+03 1.392e-10
 88.97790   -165.2 8.273e+03 1.522e-10
 88.99767   -166.5 8.490e+03 1.616e-10
 89.02514   -165.4 8.713e+03 1.947e-10
 89.06468   -164.5 9.094e+03 2.606e-10
 89.09810   -163.7 9.601e+03 3.784e-10
 89.11787   -163.5 1.019e+04 5.777e-10
 89.14377   -162.8 1.069e+04 7.848e-10
 89.18331   -162.6 1.130e+04 1.092e-09
 89.22285   -162.7 1.191e+04 1.465e-09
 89.25240   -163.5 1.221e+04 1.690e-09
 89.27208   -163.9 1.233e+04 1.803e-09
 89.29185   -164.6 1.237e+04 1.860e-09
 89.30202   -165.4 1.237e+04 1.869e-09
 89.31191   -165.3 1.259e+04 2.132e-09
 89.32348   -166.0 1.238e+04 2.093e-09
 89.33337   -166.2 1.238e+04 2.085e-09
 89.35116   -166.9 1.204e+04 1.851e-09
 89.37093   -167.7 1.169e+04 1.585e-09
 89.39070   -168.6 1.139e+04 1.388e-09
 89.41047   -169.5 1.121e+04 1.265e-09
 89.43024   -170.4 1.114e+04 1.208e-09
 89.45001   -171.3 1.113e+04 1.198e-09
 89.46978   -172.0 1.113e+04 1.200e-09
 89.48637   -172.6 1.117e+04 1.235e-09
 89.49320   -173.4 1.145e+04 1.353e-09
 89.49637   -174.5 1.213e+04 1.585e-09
 89.50932   -176.0 1.219e+04 1.627e-09
 89.52909   -178.8 1.318e+04 1.900e-09
 89.54886   -182.3 1.461e+04 2.573e-09
 89.56863   -185.7 1.565e+04 3.700e-09
 89.58840   -188.4 1.615e+04 5.007e-09
 89.60817   -190.3 1.625e+04 5.867e-09
 89.62794   -191.6 1.619e+04 6.036e-09
 89.64771   -192.3 1.567e+04 5.325e-09
 89.65938   -192.8 1.505e+04 3.988e-09
 89.66926   -193.8 1.456e+04 3.202e-09
 89.68061   -194.7 1.360e+04 2.168e-09
 89.69050   -196.4 1.275e+04 1.940e-09
 89.70702   -196.9 1.189e+04 1.490e-09
 89.72679   -197.1 1.138e+04 1.258e-09
 89.74656   -196.5 1.112e+04 1.134e-09
 89.76633   -195.6 1.100e+04 1.073e-09
 89.78610   -194.6 1.095e+04 1.039e-09
 89.80587   -193.7 1.095e+04 1.016e-09
 89.82239   -192.7 1.098e+04 1.005e-09
 89.83227   -192.9 1.085e+04 8.921e-10
 89.84541   -192.2 1.087e+04 8.848e-10
 89.86496   -191.9 1.092e+04 8.844e-10
 89.87485   -191.9 1.090e+04 9.186e-10
 89.88495   -191.9 1.118e+04 9.361e-10
 89.90472   -192.1 1.145e+04 1.023e-09
 89.92449   -192.4 1.174e+04 1.169e-09
 89.94426   -192.8 1.201e+04 1.351e-09
 89.96403   -193.3 1.221e+04 1.525e-09
 89.98380   -193.9 1.228e+04 1.642e-09
 89.99528   -194.4 1.228e+04 1.676e-09
 90.00516   -195.2 1.206e+04 1.620e-09
 90.02334   -195.5 1.192e+04 1.598e-09
 90.04311   -195.6 1.169e+04 1.460e-09
 90.05920   -195.7 1.148e+04 1.266e-09
 90.06908   -195.8 1.147e+04 1.275e-09
 90.08265   -195.8 1.128e+04 1.064e-09
 90.10242   -195.9 1.113e+04 8.896e-10
 90.12219   -195.9 1.104e+04 7.593e-10
 90.14196   -195.8 1.099e+04 6.675e-10
 90.15828   -195.8 1.095e+04 6.043e-10
 90.16817   -196.0 1.091e+04 6.233e-10
 90.18150   -195.9 1.092e+04 6.012e-10
 90.20127   -195.8 1.093e+04 5.848e-10
 90.22104   -195.6 1.094e+04 5.653e-10
 90.24081   -195.5 1.094e+04 5.396e-10
 90.25343   -195.4 1.092e+04 5.098e-10
 90.26332   -196.1 1.106e+04 5.598e-10
 90.28035   -196.0 1.109e+04 5.401e-10
 90.30012   -196.0 1.115e+04 5.234e-10
 90.31989   -195.9 1.119e+04 5.183e-10
 90.33117   -195.9 1.122e+04 5.303e-10
 90.34106   -196.1 1.101e+04 4.842e-10
 90.35943   -196.1 1.108e+04 4.853e-10
 90.37920   -196.2 1.112e+04 5.170e-10
 90.39897   -196.3 1.119e+04 5.844e-10
 90.41874   -196.3 1.126e+04 6.891e-10
 90.43779   -196.4 1.138e+04 8.253e-10
 90.44767   -196.8 1.146e+04 9.706e-10
 90.45828   -196.8 1.163e+04 1.104e-09
 90.47805   -196.9 1.183e+04 1.226e-09
 90.49418   -197.0 1.203e+04 1.331e-09
 90.50406   -197.3 1.185e+04 1.138e-09
 90.51760   -197.5 1.205e+04 1.227e-09
 90.53737   -197.7 1.220e+04 1.298e-09
 90.55714   -197.8 1.228e+04 1.341e-09
 90.57691   -197.9 1.232e+04 1.358e-09
 90.59668   -197.9 1.234e+04 1.358e-09
 90.61645   -197.7 1.239e+04 1.312e-09
 90.63202   -197.4 1.241e+04 1.238e-09
 90.64191   -197.8 1.251e+04 1.243e-09
 90.65599   -197.4 1.253e+04 1.211e-09
 90.66707   -196.9 1.254e+04 1.182e-09
 90.67695   -197.1 1.220e+04 9.912e-10
 90.69553   -196.5 1.220e+04 9.857e-10
 90.71530   -195.9 1.220e+04 9.859e-10
 90.73507   -195.3 1.221e+04 9.921e-10
 90.75484   -194.7 1.223e+04 1.006e-09
 90.77461   -194.0 1.228e+04 1.035e-09
 90.79438   -193.4 1.236e+04 1.099e-09
 90.81415   -192.9 1.249e+04 1.219e-09
 90.82626   -192.3 1.270e+04 1.404e-09
 90.83230   -192.4 1.268e+04 1.273e-09
 90.83996   -192.5 1.256e+04 1.115e-09
 90.85369   -192.0 1.277e+04 1.247e-09
 90.87346   -191.7 1.299e+04 1.384e-09
 90.89323   -191.4 1.317e+04 1.496e-09
 90.91300   -191.3 1.326e+04 1.559e-09
 90.93277   -191.3 1.327e+04 1.578e-09
 90.95254   -191.2 1.326e+04 1.578e-09
 90.97231   -191.1 1.306e+04 1.455e-09
 90.99208   -190.9 1.279e+04 1.223e-09
 91.00297   -190.6 1.247e+04 9.808e-10
 91.01161   -190.8 1.241e+04 9.643e-10
 91.02049   -190.9 1.206e+04 8.663e-10
 91.03162   -190.2 1.179e+04 6.868e-10
 91.05139   -189.3 1.156e+04 5.356e-10
 91.08114   -188.7 1.140e+04 4.335e-10
 91.12078   -188.0 1.124e+04 3.687e-10
 91.16032   -186.5 1.111e+04 3.296e-10
 91.19986   -185.1 1.110e+04 3.251e-10
 91.23940   -184.3 1.133e+04 3.474e-10
 91.27894   -184.1 1.191e+04 5.289e-10
 91.30850   -183.8 1.223e+04 7.425e-10
 91.32817   -184.1 1.255e+04 9.555e-10
 91.33886   -184.5 1.314e+04 1.519e-09
 91.34875   -183.9 1.288e+04 1.227e-09
 91.36771   -184.4 1.339e+04 1.749e-09
 91.38748   -184.6 1.382e+04 2.368e-09
 91.39908   -184.9 1.405e+04 2.786e-09
 91.40897   -184.2 1.429e+04 3.066e-09
 91.42702   -184.5 1.438e+04 3.449e-09
 91.44679   -184.8 1.438e+04 3.530e-09
 91.46656   -184.9 1.417e+04 3.494e-09
 91.48633   -184.8 1.374e+04 3.001e-09
 91.50187   -184.7 1.338e+04 2.323e-09
 91.51175   -184.3 1.318e+04 2.049e-09
 91.52587   -184.4 1.296e+04 1.648e-09
 91.54564   -184.5 1.283e+04 1.348e-09
 91.56541   -184.7 1.274e+04 1.155e-09
 91.58343   -184.8 1.264e+04 1.040e-09
 91.59332   -184.0 1.267e+04 1.164e-09
 91.60495   -184.0 1.262e+04 1.062e-09
 91.62472   -183.8 1.253e+04 9.896e-10
 91.64449   -183.6 1.240e+04 9.268e-10
 91.66426   -183.2 1.223e+04 8.596e-10
 91.67476   -182.6 1.206e+04 7.814e-10
 91.68464   -182.1 1.200e+04 7.125e-10
 91.70380   -181.2 1.183e+04 6.160e-10
 91.72357   -180.1 1.177e+04 5.276e-10
 91.75333   -179.2 1.185e+04 4.684e-10
 91.77786   -178.2 1.193e+04 4.390e-10
 91.78765   -178.2 1.182e+04 4.796e-10
 91.80265   -177.6 1.184e+04 4.706e-10
 91.82243   -176.9 1.188e+04 4.694e-10
 91.83776   -176.3 1.191e+04 4.693e-10
 91.84765   -175.9 1.197e+04 4.797e-10
 91.86197   -175.1 1.207e+04 4.836e-10
 91.88174   -174.9 1.211e+04 4.871e-10
 91.90151   -174.3 1.218e+04 4.944e-10
 91.92128   -174.1 1.220e+04 5.036e-10
 91.94105   -173.7 1.221e+04 5.217e-10
 91.96082   -173.6 1.215e+04 5.538e-10
 91.99057   -173.5 1.207e+04 5.778e-10
 92.01085   -172.3 1.190e+04 5.575e-10
 92.03062   -171.6 1.209e+04 5.135e-10
 92.06975   -170.8 1.199e+04 5.237e-10
 92.10929   -169.8 1.188e+04 5.467e-10
 92.14657   -169.0 1.196e+04 5.814e-10
 92.16634   -169.1 1.220e+04 8.038e-10
 92.18837   -168.7 1.229e+04 8.576e-10
 92.22791   -168.7 1.242e+04 9.568e-10
 92.26745   -168.8 1.255e+04 1.066e-09
 92.30699   -169.5 1.263e+04 1.137e-09
 92.33686   -170.5 1.261e+04 1.150e-09
 92.35663   -170.4 1.231e+04 9.328e-10
 92.38607   -171.0 1.208e+04 8.113e-10
 92.42561   -171.1 1.192e+04 6.257e-10
 92.46515   -171.4 1.171e+04 4.507e-10
 92.50469   -171.4 1.153e+04 3.116e-10
 92.53504   -171.0 1.131e+04 1.986e-10
 92.55481   -170.9 1.134e+04 2.041e-10
 92.58377   -170.1 1.110e+04 1.391e-10
 92.62331   -168.9 1.096e+04 1.169e-10
 92.66285   -167.6 1.093e+04 1.135e-10
 92.70239   -165.3 1.095e+04 9.488e-11
 92.74193   -163.9 1.097e+04 1.027e-10
 92.78147   -162.5 1.098e+04 1.310e-10
 92.82101   -161.0 1.099e+04 1.708e-10
 92.86055   -159.4 1.102e+04 2.116e-10
 92.90009   -157.8 1.106e+04 2.438e-10
 92.92351   -156.3 1.109e+04 2.605e-10
 92.94328   -155.9 1.102e+04 2.247e-10
 92.97917   -154.4 1.106e+04 2.373e-10
 93.00865   -152.9 1.108e+04 2.414e-10
 93.02842   -151.6 1.101e+04 1.918e-10
 93.05825   -150.1 1.102e+04 1.953e-10
 93.09779   -148.6 1.106e+04 1.913e-10
 93.13734   -147.1 1.103e+04 1.794e-10
 93.17688   -145.5 1.102e+04 1.631e-10
 93.21642   -143.9 1.100e+04 1.466e-10
 93.25596   -142.3 1.099e+04 1.320e-10
 93.29221   -140.7 1.098e+04 1.208e-10
 93.31198   -140.4 1.099e+04 1.267e-10
 93.33467   -138.7 1.099e+04 1.203e-10
 93.35444   -137.6 1.096e+04 1.138e-10
 93.37458   -135.9 1.095e+04 1.094e-10
 93.41412   -134.2 1.095e+04 1.063e-10
 93.45366   -132.5 1.095e+04 1.042e-10
 93.49320   -130.7 1.094e+04 1.029e-10
 93.53274   -128.8 1.093e+04 1.019e-10
 93.57228   -127.0 1.095e+04 1.007e-10
 93.61182   -125.2 1.097e+04 1.003e-10
 93.65136   -123.5 1.114e+04 1.018e-10
 93.68045   -122.1 1.117e+04 1.124e-10
 93.69000   -120.8 1.110e+04 1.076e-10
 93.70046   -120.5 1.117e+04 1.126e-10
 93.73044   -119.0 1.116e+04 1.257e-10
 93.76998   -117.6 1.119e+04 1.526e-10
 93.80952   -116.1 1.123e+04 2.029e-10
 93.84906   -114.7 1.130e+04 2.739e-10
 93.88860   -113.5 1.144e+04 3.468e-10
 93.92814   -112.8 1.160e+04 4.036e-10
 93.96768   -112.7 1.177e+04 4.620e-10
 94.00646   -113.8 1.207e+04 5.936e-10
 94.02623   -111.6 1.205e+04 5.418e-10
 94.04676   -113.8 1.237e+04 7.433e-10
 94.06916   -116.1 1.266e+04 1.176e-09
 94.08893   -117.1 1.269e+04 1.457e-09
 94.12584   -119.0 1.284e+04 1.797e-09
 94.16538   -120.9 1.283e+04 1.866e-09
 94.20492   -122.2 1.245e+04 1.552e-09
 94.24446   -122.6 1.193e+04 9.937e-10
 94.28400   -122.7 1.152e+04 5.976e-10
 94.32354   -122.6 1.115e+04 3.707e-10
 94.35224   -121.9 1.088e+04 2.594e-10
 94.37201   -121.0 1.096e+04 2.802e-10
 94.40262   -120.0 1.080e+04 2.116e-10
 94.43786   -118.8 1.071e+04 1.911e-10
 94.45763   -119.5 1.042e+04 1.817e-10
 94.48171   -118.2 1.043e+04 1.801e-10
 94.52125   -117.1 1.064e+04 1.921e-10
 94.56079   -116.2 1.087e+04 2.379e-10
 94.60033   -115.4 1.109e+04 2.979e-10
 94.63987   -114.7 1.125e+04 3.460e-10
 94.67825   -114.1 1.132e+04 3.601e-10
 94.69802   -113.6 1.144e+04 3.803e-10
 94.71895   -113.3 1.147e+04 3.848e-10
 94.75849   -112.7 1.143e+04 3.655e-10
 94.79803   -111.8 1.136e+04 3.042e-10
 94.82633   -110.7 1.130e+04 2.374e-10
 94.84610   -111.3 1.115e+04 2.215e-10
 94.87711   -110.0 1.111e+04 1.857e-10
 94.91665   -108.6 1.107e+04 1.680e-10
 94.95619   -107.1 1.106e+04 1.641e-10
 94.99573   -105.6 1.104e+04 1.681e-10
 95.02403   -104.1 1.103e+04 1.924e-10
 95.04380   -103.9 1.106e+04 2.079e-10
 95.07481   -102.4 1.107e+04 2.365e-10
 95.11435   -100.9 1.106e+04 2.544e-10
 95.15389    -99.3 1.105e+04 2.572e-10
 95.19343    -97.6 1.095e+04 2.455e-10
 95.21481    -95.7 1.085e+04 1.967e-10
 95.23458    -95.6 1.104e+04 1.374e-10
 95.27251    -93.8 1.099e+04 1.070e-10
 95.31205    -92.1 1.092e+04 8.341e-11
 95.35004    -90.3 1.086e+04 6.782e-11
 95.36982    -90.2 1.083e+04 9.596e-11
 95.39113    -88.4 1.080e+04 8.430e-11
 95.43067    -86.6 1.080e+04 7.582e-11
 95.47021    -84.7 1.078e+04 6.856e-11
 95.50975    -82.6 1.076e+04 6.194e-11
 95.54929    -80.5 1.075e+04 5.814e-11
 95.58351    -79.3 1.100e+04 6.184e-11
 95.60328    -79.7 1.108e+04 6.509e-11
 95.62837    -79.8 1.163e+04 8.697e-11
 95.66791    -83.3 1.213e+04 4.477e-10
 95.69573    -84.7 1.378e+04 2.028e-09
 95.70552    -84.2 1.356e+04 1.699e-09
 95.71714    -84.4 1.500e+04 4.019e-09
 95.73691    -84.3 1.625e+04 8.198e-09
 95.75668    -84.2 1.708e+04 1.197e-08
 95.77645    -84.9 1.725e+04 1.279e-08
 95.78743    -85.4 1.670e+04 1.014e-08
 95.79732    -85.9 1.644e+04 9.420e-09
 95.81600    -86.5 1.502e+04 4.795e-09
 95.83577    -87.8 1.371e+04 2.442e-09
 95.85554    -88.7 1.271e+04 1.450e-09
 95.86852    -88.9 1.214e+04 1.005e-09
 95.87841    -88.4 1.235e+04 1.260e-09
 95.89508    -88.3 1.198e+04 9.648e-10
 95.91485    -87.6 1.175e+04 7.400e-10
 95.93462    -87.1 1.163e+04 5.779e-10
 95.95439    -86.7 1.151e+04 4.663e-10
 95.97188    -86.7 1.127e+04 3.797e-10
 95.99175    -86.2 1.128e+04 4.368e-10
 96.02184    -85.2 1.091e+04 3.252e-10
 96.04161    -84.9 1.115e+04 5.037e-10
 96.06332    -83.8 1.076e+04 3.508e-10
 96.10286    -82.6 1.048e+04 2.688e-10
 96.14240    -81.0 1.018e+04 1.986e-10
 96.18194    -79.4 9.967e+03 1.590e-10
 96.22148    -77.7 9.810e+03 1.370e-10
 96.26102    -75.8 9.707e+03 1.231e-10
 96.30056    -73.9 9.648e+03 1.131e-10
 96.34010    -72.0 9.632e+03 1.089e-10
 96.36045    -70.1 9.556e+03 1.119e-10
 96.36820    -69.9 9.611e+03 1.168e-10
 96.38739    -70.2 9.688e+03 1.428e-10
 96.41918    -68.3 9.746e+03 1.544e-10
 96.45872    -66.5 9.813e+03 1.777e-10
 96.49826    -64.7 9.846e+03 2.081e-10
 96.53780    -62.8 9.879e+03 2.306e-10
 96.57734    -61.0 9.905e+03 2.379e-10
 96.61688    -59.2 9.919e+03 2.376e-10
 96.65642    -57.4 9.960e+03 2.354e-10
 96.69363    -55.8 1.015e+04 2.368e-10
 96.71340    -55.6 1.012e+04 3.086e-10
 96.72916    -54.1 1.035e+04 3.327e-10
 96.74893    -53.2 1.016e+04 3.004e-10
 96.77504    -51.6 1.037e+04 3.483e-10
 96.81458    -50.0 1.063e+04 4.147e-10
 96.85412    -48.4 1.090e+04 5.018e-10
 96.89366    -46.9 1.118e+04 6.072e-10
 96.93320    -45.6 1.149e+04 7.234e-10
 96.97274    -44.4 1.174e+04 8.674e-10
 97.01228    -43.1 1.193e+04 1.031e-09
 97.03941    -41.7 1.213e+04 1.266e-09
 97.05918    -42.1 1.165e+04 8.232e-10
 97.09137    -40.9 1.191e+04 1.008e-09
 97.11763    -39.7 1.238e+04 1.372e-09
 97.13740    -38.8 1.228e+04 1.048e-09
 97.17045    -37.6 1.282e+04 1.452e-09
 97.20000    -36.6 1.337e+04 2.155e-09
 97.21211    -36.0 1.355e+04 2.481e-09
 97.22199    -36.6 1.336e+04 2.225e-09
 97.23945    -36.0 1.348e+04 2.547e-09
 97.25922    -34.9 1.392e+04 2.892e-09
 97.27899    -34.4 1.422e+04 3.326e-09
 97.29876    -33.8 1.457e+04 3.799e-09
 97.31167    -33.4 1.488e+04 4.383e-09
 97.32155    -32.4 1.449e+04 4.090e-09
 97.33830    -31.9 1.491e+04 4.721e-09
 97.35807    -31.8 1.551e+04 5.809e-09
 97.37511    -32.2 1.636e+04 7.819e-09
 97.38500    -33.2 1.596e+04 7.333e-09
 97.39761    -34.1 1.682e+04 1.080e-08
 97.41738    -34.5 1.755e+04 1.597e-08
 97.43715    -34.4 1.816e+04 2.121e-08
 97.45692    -34.1 1.842e+04 2.351e-08
 97.47669    -34.1 1.822e+04 2.218e-08
 97.49602    -33.9 1.734e+04 1.587e-08
 97.50591    -33.5 1.733e+04 1.522e-08
 97.51623    -33.4 1.626e+04 9.573e-09
 97.53600    -34.1 1.510e+04 5.747e-09
 97.54800    -34.9 1.395e+04 3.590e-09
 97.55789    -35.2 1.386e+04 3.523e-09
 97.57554    -35.2 1.323e+04 2.590e-09
 97.59531    -34.7 1.274e+04 2.006e-09
 97.61508    -34.1 1.250e+04 1.639e-09
 97.63485    -33.4 1.231e+04 1.342e-09
 97.65462    -32.7 1.221e+04 1.100e-09
 97.67439    -32.1 1.227e+04 9.250e-10
 97.69026    -31.8 1.225e+04 7.990e-10
 97.70014    -31.6 1.288e+04 9.907e-10
 97.71101    -31.1 1.258e+04 8.331e-10
 97.72090    -31.7 1.330e+04 1.429e-09
 97.73370    -31.1 1.300e+04 1.228e-09
 97.75347    -30.5 1.278e+04 1.130e-09
 97.77324    -29.7 1.260e+04 1.082e-09
 97.79301    -29.0 1.253e+04 1.073e-09
 97.81278    -28.2 1.253e+04 1.120e-09
 97.83255    -27.4 1.256e+04 1.192e-09
 97.85232    -26.5 1.262e+04 1.260e-09
 97.87209    -25.7 1.259e+04 1.306e-09
 97.88390    -24.7 1.246e+04 1.315e-09
 97.88642    -25.4 1.267e+04 1.858e-09
 97.89438    -25.3 1.321e+04 2.889e-09
 97.91163    -24.2 1.315e+04 2.806e-09
 97.93140    -23.0 1.288e+04 2.499e-09
 97.95117    -21.8 1.257e+04 2.171e-09
 97.97094    -20.8 1.223e+04 1.863e-09
 97.99071    -19.5 1.195e+04 1.543e-09
 98.01048    -18.1 1.187e+04 1.254e-09
 98.03025    -17.0 1.181e+04 1.028e-09
 98.04691    -16.0 1.161e+04 8.860e-10
 98.05679    -15.9 1.142e+04 7.860e-10
 98.06884    -14.9 1.122e+04 6.164e-10
 98.07873    -14.9 1.137e+04 6.309e-10
 98.08956    -14.1 1.113e+04 5.406e-10
 98.10933    -13.0 1.116e+04 4.882e-10
 98.12910    -12.5 1.114e+04 4.683e-10
 98.14887    -11.3 1.110e+04 4.822e-10
 98.16864    -10.8 1.122e+04 4.930e-10
 98.18841     -9.7 1.092e+04 6.105e-10
 98.20818     -8.6 1.103e+04 6.607e-10
 98.21980     -7.0 1.098e+04 7.417e-10
 98.22968     -7.0 1.077e+04 5.648e-10
 98.24772     -6.0 1.098e+04 5.822e-10
 98.26318     -4.4 1.147e+04 7.835e-10
 98.27306     -4.0 1.112e+04 5.033e-10
 98.28726     -3.7 1.116e+04 5.066e-10
 98.31702     -2.7 1.118e+04 4.830e-10
 98.35665     -1.3 1.105e+04 4.428e-10
 98.38300     -0.2 1.110e+04 4.371e-10
 98.40277     -0.2 1.078e+04 3.578e-10
 98.43574      1.1 1.100e+04 4.742e-10
 98.47528      2.1 1.153e+04 6.692e-10
 98.51482      2.3 1.227e+04 1.152e-09
 98.55436      2.8 1.293e+04 2.007e-09
 98.59390      3.2 1.331e+04 2.436e-09
 98.63198      4.0 1.312e+04 1.866e-09
 98.65175      4.4 1.346e+04 2.560e-09
 98.67298      5.8 1.285e+04 1.517e-09
 98.70901      7.4 1.218e+04 5.960e-10
 98.72878      7.9 1.228e+04 8.891e-10
 98.75206      7.6 1.217e+04 2.494e-10
 98.79160      7.0 1.133e+04 1.515e-10
 98.83114      8.5 1.084e+04 1.417e-10
 98.87068     10.4 1.094e+04 1.564e-10
 98.91022     12.2 1.101e+04 1.961e-10
 98.94976     14.0 1.103e+04 2.610e-10
 98.98930     15.8 1.109e+04 3.289e-10
 99.02045     17.4 1.137e+04 4.382e-10
 99.04022     17.5 1.145e+04 4.704e-10
 99.05479     19.0 1.174e+04 6.907e-10
 99.07456     18.3 1.216e+04 1.040e-09
 99.10792     19.8 1.241e+04 1.360e-09
 99.14746     21.1 1.259e+04 1.608e-09
 99.18700     22.2 1.278e+04 1.803e-09
 99.22654     23.3 1.298e+04 1.960e-09
 99.26608     24.4 1.304e+04 2.082e-09
 99.29564     24.9 1.293e+04 2.009e-09
 99.31531     25.0 1.292e+04 1.998e-09
 99.33508     25.9 1.286e+04 1.878e-09
 99.35485     26.0 1.286e+04 1.852e-09
 99.37462     26.7 1.273e+04 1.752e-09
 99.39049     26.9 1.273e+04 1.719e-09
 99.40048     25.9 1.300e+04 2.022e-09
 99.40882     26.4 1.277e+04 1.894e-09
 99.42859     27.3 1.229e+04 1.745e-09
 99.45380     27.9 1.221e+04 1.734e-09
 99.47347     28.6 1.215e+04 1.717e-09
 99.49324     29.5 1.202e+04 1.639e-09
 99.51301     30.4 1.185e+04 1.485e-09
 99.53278     31.2 1.162e+04 1.288e-09
 99.55255     32.0 1.135e+04 1.077e-09
 99.56338     33.0 1.103e+04 8.634e-10
 99.57327     32.8 1.089e+04 7.802e-10
 99.59209     33.6 1.057e+04 6.141e-10
 99.60296     34.7 1.031e+04 4.835e-10
 99.61285     34.9 1.027e+04 4.869e-10
 99.63163     35.2 1.019e+04 4.516e-10
 99.66139     36.8 1.003e+04 3.833e-10
 99.70103     38.9 9.587e+03 3.181e-10
 99.72658     41.3 9.501e+03 3.168e-10
 99.74635     41.3 9.271e+03 2.823e-10
 99.77762     43.8 9.276e+03 3.070e-10
 99.79739     44.1 9.344e+03 3.264e-10
 99.81965     46.4 9.406e+03 3.648e-10
 99.85919     48.8 9.450e+03 4.208e-10
 99.89873     51.2 9.564e+03 4.984e-10
 99.93827     53.5 9.754e+03 5.963e-10
 99.97781     55.7 1.001e+04 6.978e-10
100.01735     57.9 1.030e+04 7.784e-10
