# Columns:
#   distance along LOS (in CHIMPs)
#   peculiar velocity  (in km/s)
#   temperature (K)
#   HI number density
# pos=(57.5879,189.032,68.5528), angles=(1.64389,1.7868)
  0.00756    -26.8 2.180e+04 9.100e-09
  0.02514    -25.9 1.938e+04 7.304e-09
  0.04519    -25.5 1.860e+04 6.933e-09
  0.05983    -25.3 1.826e+04 7.277e-09
  0.06985    -27.5 1.874e+04 1.258e-08
  0.08529    -27.6 1.854e+04 1.512e-08
  0.10429    -27.3 1.849e+04 1.830e-08
  0.11431    -26.2 1.744e+04 1.171e-08
  0.12539    -25.2 1.744e+04 1.356e-08
  0.14544    -23.7 1.752e+04 1.472e-08
  0.15564    -22.2 1.740e+04 1.449e-08
  0.16566    -22.4 1.663e+04 8.723e-09
  0.18554    -20.7 1.596e+04 6.184e-09
  0.20559    -19.7 1.517e+04 4.064e-09
  0.22564    -19.5 1.394e+04 2.665e-09
  0.24142    -19.7 1.257e+04 1.899e-09
  0.25145    -21.1 1.153e+04 1.226e-09
  0.26574    -19.8 1.124e+04 1.148e-09
  0.28579    -18.2 1.111e+04 1.108e-09
  0.30584    -16.9 1.096e+04 1.062e-09
  0.32589    -15.5 1.082e+04 1.023e-09
  0.33723    -14.4 1.056e+04 9.232e-10
  0.34726    -14.4 1.042e+04 8.801e-10
  0.37611    -12.1 1.022e+04 7.808e-10
  0.41319     -9.6 9.910e+03 6.650e-10
  0.43314     -9.7 9.942e+03 5.297e-10
  0.45631     -7.6 9.748e+03 5.435e-10
  0.49650     -5.2 9.558e+03 5.203e-10
  0.53660     -3.1 9.411e+03 4.481e-10
  0.57670     -1.4 9.275e+03 3.880e-10
  0.60481     -0.3 9.117e+03 3.498e-10
  0.62486      0.3 9.692e+03 5.416e-10
  0.64261      1.7 9.398e+03 4.733e-10
  0.66265      2.0 9.607e+03 5.696e-10
  0.69700      3.9 9.448e+03 5.306e-10
  0.73710      5.7 9.190e+03 4.069e-10
  0.77638      6.8 8.977e+03 3.242e-10
  0.79633      7.6 8.846e+03 3.028e-10
  0.81720      9.0 8.719e+03 2.603e-10
  0.85739     10.2 8.471e+03 1.997e-10
  0.89749     11.4 8.387e+03 1.955e-10
  0.93759     12.7 8.533e+03 2.425e-10
  0.96800     14.6 8.936e+03 2.932e-10
  0.98795     15.2 8.722e+03 2.356e-10
  1.00757     16.3 8.847e+03 2.581e-10
  1.02762     16.7 9.064e+03 2.838e-10
  1.04767     17.4 9.300e+03 3.219e-10
  1.06361     18.0 9.575e+03 3.741e-10
  1.07364     18.1 9.562e+03 3.854e-10
  1.08777     18.8 9.800e+03 4.445e-10
  1.10781     19.7 1.007e+04 5.242e-10
  1.12786     20.2 1.057e+04 6.610e-10
  1.14791     19.6 1.163e+04 9.334e-10
  1.15942     15.3 1.525e+04 2.177e-09
  1.16945     12.1 1.670e+04 3.293e-09
  1.18048      8.5 1.806e+04 7.435e-09
  1.18545      8.5 1.796e+04 7.809e-09
  1.19293      7.1 1.978e+04 1.096e-08
  1.20222      5.8 1.972e+04 2.053e-08
  1.20723      6.8 1.860e+04 1.820e-08
  1.21298      7.3 1.960e+04 2.546e-08
  1.22300      8.3 1.938e+04 3.482e-08
  1.23303      9.6 1.928e+04 3.810e-08
  1.24305     11.3 1.884e+04 3.525e-08
  1.25012     12.7 1.899e+04 3.006e-08
  1.25518     12.6 1.950e+04 1.983e-08
  1.26821     14.0 2.010e+04 9.968e-09
  1.28826     10.6 1.952e+04 3.779e-09
  1.30831      1.8 1.379e+04 1.335e-09
  1.32836     -0.9 1.135e+04 9.152e-10
  1.34102     -0.4 1.109e+04 8.226e-10
  1.35104     -0.1 1.100e+04 6.818e-10
  1.36846      0.6 1.085e+04 6.813e-10
  1.38851      1.5 1.054e+04 6.459e-10
  1.40856      2.7 1.021e+04 5.746e-10
  1.42680      3.8 1.008e+04 4.645e-10
  1.43682      4.0 1.012e+04 4.682e-10
  1.45878      4.7 1.002e+04 2.855e-10
  1.49897      5.5 9.669e+03 1.647e-10
  1.52281      6.4 9.425e+03 1.524e-10
  1.54285      6.6 9.460e+03 1.522e-10
  1.57917      7.9 9.187e+03 1.643e-10
  1.61927      9.6 9.054e+03 1.731e-10
  1.65937     11.3 9.153e+03 1.707e-10
  1.69437     12.3 9.313e+03 1.889e-10
  1.71376     12.2 9.166e+03 1.382e-10
  1.71885     12.7 8.965e+03 1.022e-10
  1.73957     13.2 9.280e+03 1.218e-10
  1.77967     13.6 9.551e+03 1.840e-10
  1.81977     14.9 9.488e+03 2.726e-10
  1.85986     16.9 9.289e+03 2.819e-10
  1.88599     18.8 9.073e+03 2.343e-10
  1.90604     19.8 8.862e+03 1.892e-10
  1.94006     21.1 8.758e+03 1.228e-10
  1.98016     21.5 8.576e+03 9.289e-11
  2.02026     22.4 8.563e+03 9.502e-11
  2.05756     22.3 8.687e+03 1.273e-10
  2.07761     22.6 8.604e+03 7.372e-11
  2.10046     22.8 8.823e+03 1.561e-10
  2.14056     23.7 9.206e+03 3.302e-10
  2.18066     24.7 9.383e+03 4.173e-10
  2.22075     26.2 9.150e+03 3.485e-10
  2.24695     26.9 8.799e+03 2.098e-10
  2.25533     26.3 8.661e+03 1.651e-10
  2.26923     27.5 8.785e+03 1.858e-10
  2.30095     26.6 8.429e+03 1.102e-10
  2.34105     26.2 8.093e+03 1.034e-10
  2.38115     26.4 8.059e+03 1.119e-10
  2.42075     27.1 8.072e+03 1.368e-10
  2.44080     28.3 8.179e+03 1.376e-10
  2.46135     29.3 8.231e+03 1.653e-10
  2.50145     30.3 8.281e+03 1.777e-10
  2.54155     31.1 8.266e+03 1.717e-10
  2.58164     31.7 8.269e+03 1.650e-10
  2.61237     31.4 8.382e+03 1.781e-10
  2.63242     32.4 8.434e+03 1.750e-10
  2.66184     31.6 8.766e+03 2.377e-10
  2.70194     31.0 9.211e+03 3.547e-10
  2.74204     29.9 9.728e+03 5.089e-10
  2.77505     26.6 1.118e+04 8.855e-10
  2.79510     23.1 1.149e+04 9.363e-10
  2.80399     19.2 1.242e+04 1.703e-09
  2.82404     18.1 1.301e+04 1.960e-09
  2.86234     14.7 1.275e+04 1.767e-09
  2.90244      9.9 1.263e+04 1.397e-09
  2.93241      5.1 1.329e+04 1.421e-09
  2.95236      0.9 1.367e+04 1.656e-09
  2.97241     -2.5 1.392e+04 2.208e-09
  2.98539     -4.5 1.396e+04 2.410e-09
  2.99541     -5.1 1.342e+04 1.997e-09
  3.02264     -9.2 1.236e+04 1.265e-09
  3.06283    -13.9 1.099e+04 5.168e-10
  3.10293    -18.5 9.908e+03 2.737e-10
  3.14303    -20.3 9.572e+03 2.362e-10
  3.16718    -21.1 9.507e+03 2.382e-10
  3.18723    -20.5 9.875e+03 3.696e-10
  3.22323    -21.1 9.861e+03 3.769e-10
  3.26333    -21.6 9.625e+03 3.153e-10
  3.30315    -22.6 9.319e+03 2.288e-10
  3.32320    -22.1 9.363e+03 2.335e-10
  3.33875    -23.5 9.122e+03 1.933e-10
  3.35880    -23.8 9.478e+03 2.567e-10
  3.38362    -25.1 9.379e+03 2.543e-10
  3.42372    -25.8 9.325e+03 2.665e-10
  3.46382    -26.2 9.239e+03 2.594e-10
  3.50392    -26.9 9.156e+03 2.222e-10
  3.53037    -27.9 9.132e+03 2.092e-10
  3.55042    -29.0 9.332e+03 2.668e-10
  3.58412    -29.4 9.328e+03 2.768e-10
  3.62422    -29.6 9.326e+03 3.036e-10
  3.66432    -29.3 9.278e+03 3.096e-10
  3.70194    -28.8 9.007e+03 2.904e-10
  3.72199    -29.3 8.747e+03 2.117e-10
  3.74451    -28.7 8.542e+03 1.809e-10
  3.78461    -28.1 8.413e+03 1.562e-10
  3.82471    -27.5 8.352e+03 1.370e-10
  3.85129    -27.0 8.354e+03 1.286e-10
  3.87134    -27.6 8.229e+03 1.083e-10
  3.89356    -27.4 8.227e+03 1.037e-10
  3.91361    -27.5 8.080e+03 7.959e-11
  3.94501    -27.6 8.294e+03 8.189e-11
  3.98511    -28.3 8.541e+03 1.239e-10
  4.02521    -29.2 8.968e+03 2.216e-10
  4.06513    -30.3 9.673e+03 4.070e-10
  4.10523    -32.2 1.090e+04 8.438e-10
  4.14550    -33.6 1.100e+04 8.666e-10
  4.18560    -34.8 1.069e+04 6.289e-10
  4.22570    -36.4 1.029e+04 3.937e-10
  4.25675    -38.2 9.902e+03 3.097e-10
  4.27680    -40.0 9.492e+03 2.337e-10
  4.30590    -40.4 9.492e+03 2.775e-10
  4.34600    -40.1 9.572e+03 3.133e-10
  4.37939    -39.7 9.592e+03 3.197e-10
  4.39944    -40.7 9.783e+03 3.579e-10
  4.42619    -40.4 9.739e+03 3.113e-10
  4.44836    -40.2 9.684e+03 2.740e-10
  4.46841    -41.0 9.532e+03 2.227e-10
  4.50639    -40.4 9.545e+03 2.299e-10
  4.54649    -39.4 9.648e+03 2.611e-10
  4.58659    -38.0 9.694e+03 2.817e-10
  4.61993    -36.8 9.831e+03 2.968e-10
  4.63998    -37.4 9.892e+03 2.758e-10
  4.66679    -37.2 1.047e+04 3.497e-10
  4.70689    -37.6 1.123e+04 5.464e-10
  4.74699    -37.9 1.202e+04 8.780e-10
  4.77696    -39.1 1.304e+04 1.514e-09
  4.79691    -39.7 1.348e+04 1.761e-09
  4.81136    -40.4 1.391e+04 2.114e-09
  4.82138    -41.4 1.424e+04 3.162e-09
  4.83701    -42.2 1.428e+04 3.685e-09
  4.85706    -42.6 1.430e+04 4.219e-09
  4.87711    -42.8 1.437e+04 4.599e-09
  4.89714    -43.1 1.437e+04 4.648e-09
  4.91719    -43.6 1.456e+04 4.872e-09
  4.92735    -44.0 1.429e+04 4.285e-09
  4.93737    -44.1 1.414e+04 4.097e-09
  4.95731    -44.6 1.376e+04 3.591e-09
  4.97736    -44.8 1.337e+04 3.114e-09
  4.99295    -44.8 1.299e+04 2.595e-09
  5.00298    -44.5 1.299e+04 2.641e-09
  5.01746    -44.5 1.256e+04 2.079e-09
  5.03751    -44.6 1.205e+04 1.597e-09
  5.06768    -44.7 1.144e+04 1.163e-09
  5.10788    -44.2 1.063e+04 7.701e-10
  5.14797    -43.3 1.022e+04 5.975e-10
  5.17474    -42.1 9.804e+03 4.505e-10
  5.19479    -41.5 9.656e+03 3.778e-10
  5.22817    -40.4 9.404e+03 3.218e-10
  5.26827    -39.1 9.168e+03 2.832e-10
  5.30837    -37.5 8.979e+03 2.581e-10
  5.34631    -35.8 8.857e+03 2.436e-10
  5.36636    -35.5 8.838e+03 2.407e-10
  5.38857    -33.7 8.728e+03 2.298e-10
  5.42867    -32.1 8.701e+03 2.287e-10
  5.45564    -30.7 8.771e+03 2.421e-10
  5.47569    -30.3 8.687e+03 2.183e-10
  5.50886    -29.2 8.760e+03 2.310e-10
  5.53793    -28.2 8.854e+03 2.710e-10
  5.55798    -27.9 8.625e+03 2.374e-10
  5.58906    -26.8 8.745e+03 2.628e-10
  5.62916    -25.8 8.807e+03 2.613e-10
  5.66926    -25.3 8.797e+03 2.088e-10
  5.70936    -25.7 8.814e+03 1.568e-10
  5.74946    -25.6 8.814e+03 1.494e-10
  5.78956    -25.6 8.888e+03 1.739e-10
  5.82966    -25.0 8.979e+03 2.335e-10
  5.86975    -23.7 9.138e+03 2.727e-10
  5.90112    -22.4 9.219e+03 2.775e-10
  5.92117    -22.0 9.378e+03 3.617e-10
  5.94995    -20.9 9.383e+03 3.208e-10
  5.98374    -20.3 9.383e+03 2.666e-10
  6.00379    -20.5 9.384e+03 2.618e-10
  6.03015    -20.9 9.313e+03 2.467e-10
  6.07025    -21.0 9.531e+03 3.580e-10
  6.09274    -19.6 9.740e+03 5.323e-10
  6.11279    -19.3 9.567e+03 4.021e-10
  6.15045    -17.9 9.717e+03 4.343e-10
  6.19055    -17.4 9.652e+03 3.343e-10
  6.23065    -18.2 9.409e+03 2.235e-10
  6.26431    -20.1 9.375e+03 2.088e-10
  6.28436    -21.2 9.519e+03 2.115e-10
  6.31084    -23.9 9.991e+03 3.309e-10
  6.34082    -25.1 1.043e+04 5.341e-10
  6.35992    -26.3 1.084e+04 7.193e-10
  6.36995    -26.5 1.078e+04 6.937e-10
  6.38082    -27.3 1.133e+04 9.711e-10
  6.40087    -28.2 1.170e+04 1.106e-09
  6.42092    -29.5 1.207e+04 1.285e-09
  6.44097    -30.5 1.217e+04 1.320e-09
  6.45573    -31.9 1.219e+04 1.331e-09
  6.46576    -31.9 1.198e+04 1.213e-09
  6.48107    -32.6 1.197e+04 1.116e-09
  6.50112    -33.8 1.138e+04 8.820e-10
  6.52117    -34.1 1.114e+04 7.355e-10
  6.53169    -34.5 1.086e+04 5.846e-10
  6.54171    -35.2 1.062e+04 4.656e-10
  6.55154    -35.5 1.045e+04 3.775e-10
  6.56157    -35.4 1.035e+04 3.766e-10
  6.59144    -36.0 1.016e+04 2.970e-10
  6.62750    -36.2 1.009e+04 2.658e-10
  6.64755    -36.1 1.023e+04 3.310e-10
  6.67173    -36.8 1.066e+04 4.852e-10
  6.71183    -36.9 1.131e+04 8.646e-10
  6.75193    -36.1 1.176e+04 1.150e-09
  6.79203    -35.6 1.180e+04 1.164e-09
  6.81912    -34.5 1.120e+04 6.741e-10
  6.83917    -34.2 1.138e+04 7.782e-10
  6.87223    -33.2 1.061e+04 3.292e-10
  6.91233    -32.3 1.031e+04 1.496e-10
  6.95243    -31.2 1.010e+04 9.809e-11
  6.99069    -29.5 9.957e+03 8.476e-11
  7.01074    -29.1 9.943e+03 8.931e-11
  7.03262    -27.0 9.854e+03 7.914e-11
  7.05998    -24.9 9.846e+03 7.709e-11
  7.08003    -24.1 9.614e+03 7.393e-11
  7.11282    -21.7 9.660e+03 7.426e-11
  7.15292    -20.1 1.016e+04 8.268e-11
  7.18231    -19.6 1.060e+04 1.484e-10
  7.20235    -19.1 1.044e+04 1.270e-10
  7.23312    -17.9 1.069e+04 2.468e-10
  7.27322    -16.9 1.116e+04 4.901e-10
  7.31332    -15.8 1.186e+04 9.136e-10
  7.35341    -14.9 1.206e+04 1.361e-09
  7.37383    -14.3 1.206e+04 1.621e-09
  7.38375    -14.9 1.200e+04 1.572e-09
  7.40334    -14.8 1.207e+04 1.740e-09
  7.42339    -14.6 1.200e+04 1.755e-09
  7.44344    -15.7 1.274e+04 1.883e-09
  7.45951    -19.3 1.453e+04 2.493e-09
  7.46954    -18.8 1.431e+04 2.595e-09
  7.48354    -22.2 1.525e+04 3.685e-09
  7.50359    -23.7 1.504e+04 5.122e-09
  7.52364    -23.4 1.502e+04 6.387e-09
  7.54369    -22.5 1.509e+04 6.721e-09
  7.55532    -22.0 1.492e+04 5.793e-09
  7.56535    -21.7 1.473e+04 5.835e-09
  7.58379    -21.2 1.488e+04 4.484e-09
  7.59791    -22.1 1.415e+04 2.986e-09
  7.60794    -20.5 1.439e+04 3.736e-09
  7.62389    -21.7 1.358e+04 2.518e-09
  7.64111    -22.5 1.231e+04 1.784e-09
  7.65113    -21.9 1.265e+04 1.785e-09
  7.66399    -22.4 1.177e+04 1.387e-09
  7.68403    -22.3 1.132e+04 1.193e-09
  7.70408    -21.9 1.105e+04 1.074e-09
  7.72413    -21.4 1.086e+04 1.001e-09
  7.73702    -19.7 1.099e+04 9.653e-10
  7.74704    -21.1 1.083e+04 8.795e-10
  7.76423    -21.0 1.080e+04 8.620e-10
  7.78428    -21.1 1.108e+04 9.044e-10
  7.80433    -22.2 1.166e+04 9.993e-10
  7.82270    -24.0 1.235e+04 1.306e-09
  7.83273    -25.9 1.381e+04 2.031e-09
  7.84443    -26.8 1.343e+04 2.537e-09
  7.86196    -26.9 1.309e+04 2.903e-09
  7.87198    -26.4 1.409e+04 3.952e-09
  7.88453    -26.2 1.386e+04 4.002e-09
  7.90458    -25.5 1.388e+04 3.742e-09
  7.91851    -26.0 1.349e+04 2.747e-09
  7.92854    -26.0 1.384e+04 3.000e-09
  7.94468    -29.4 1.291e+04 1.991e-09
  7.96473    -32.1 1.157e+04 1.382e-09
  7.98478    -33.2 1.101e+04 1.142e-09
  8.00430    -33.5 1.076e+04 1.025e-09
  8.01432    -33.6 1.057e+04 8.635e-10
  8.02488    -34.3 1.035e+04 7.514e-10
  8.04493    -35.0 1.013e+04 6.795e-10
  8.06497    -35.8 9.970e+03 6.585e-10
  8.08502    -36.4 9.917e+03 6.592e-10
  8.10011    -36.8 9.982e+03 7.230e-10
  8.11013    -36.7 9.912e+03 7.094e-10
  8.12512    -36.7 1.013e+04 8.268e-10
  8.13603    -36.7 1.040e+04 9.709e-10
  8.14606    -37.1 1.044e+04 1.001e-09
  8.16522    -37.1 1.073e+04 1.167e-09
  8.18527    -37.0 1.101e+04 1.346e-09
  8.19592    -36.9 1.130e+04 1.536e-09
  8.20594    -36.5 1.115e+04 1.445e-09
  8.22537    -36.6 1.155e+04 1.683e-09
  8.24542    -37.0 1.217e+04 2.052e-09
  8.26547    -37.9 1.296e+04 2.623e-09
  8.28170    -38.7 1.372e+04 3.393e-09
  8.29173    -38.0 1.330e+04 2.692e-09
  8.30557    -38.3 1.375e+04 3.284e-09
  8.32562    -38.4 1.386e+04 3.547e-09
  8.34567    -38.4 1.374e+04 3.562e-09
  8.36572    -38.1 1.321e+04 3.141e-09
  8.37751    -37.9 1.252e+04 2.411e-09
  8.38754    -37.6 1.206e+04 1.992e-09
  8.40008    -37.5 1.157e+04 1.573e-09
  8.41011    -38.4 1.127e+04 1.342e-09
  8.42586    -38.6 1.076e+04 1.025e-09
  8.44591    -38.7 1.029e+04 7.904e-10
  8.46330    -38.8 9.878e+03 6.301e-10
  8.47332    -38.5 1.006e+04 7.076e-10
  8.48601    -38.2 9.769e+03 6.293e-10
  8.50606    -37.6 9.530e+03 5.602e-10
  8.52611    -36.9 9.335e+03 4.842e-10
  8.54616    -36.3 9.138e+03 4.024e-10
  8.55911    -35.7 8.978e+03 3.442e-10
  8.56913    -35.3 9.269e+03 4.061e-10
  8.59638    -34.8 8.959e+03 3.139e-10
  8.63506    -33.2 8.327e+03 1.845e-10
  8.65511    -32.7 9.274e+03 3.377e-10
  8.66433    -31.8 8.637e+03 2.201e-10
  8.68438    -32.6 8.642e+03 2.300e-10
  8.71678    -31.0 8.399e+03 1.997e-10
  8.75688    -29.2 8.249e+03 1.814e-10
  8.79697    -27.0 8.186e+03 1.654e-10
  8.82668    -24.7 8.193e+03 1.467e-10
  8.84673    -24.4 8.583e+03 1.539e-10
  8.87717    -23.0 8.508e+03 1.196e-10
  8.91727    -21.8 8.539e+03 1.144e-10
  8.95737    -21.1 8.903e+03 1.389e-10
  8.99747    -20.4 9.087e+03 2.515e-10
  9.01830    -18.7 9.538e+03 4.813e-10
  9.03835    -18.6 1.060e+04 9.767e-10
  9.06754    -17.0 1.155e+04 1.508e-09
  9.08750    -17.6 1.170e+04 1.757e-09
  9.10389    -16.5 1.225e+04 2.487e-09
  9.11391    -16.2 1.222e+04 2.595e-09
  9.12760    -15.4 1.233e+04 2.985e-09
  9.14764    -14.0 1.257e+04 3.379e-09
  9.16769    -12.6 1.277e+04 3.509e-09
  9.18774    -11.4 1.290e+04 3.399e-09
  9.19970    -10.1 1.306e+04 2.995e-09
  9.20418    -10.3 1.212e+04 1.621e-09
  9.21228    -10.1 1.231e+04 1.561e-09
  9.22784     -9.7 1.191e+04 1.060e-09
  9.24789     -9.8 1.106e+04 6.428e-10
  9.26794    -10.4 1.022e+04 4.005e-10
  9.28548    -11.0 9.600e+03 2.844e-10
  9.29551    -10.8 8.836e+03 2.063e-10
  9.30804    -10.8 8.573e+03 1.643e-10
  9.32809    -10.0 8.560e+03 1.620e-10
  9.34814     -9.4 8.501e+03 1.595e-10
  9.36819     -9.3 8.687e+03 1.978e-10
  9.38129     -8.7 9.460e+03 2.890e-10
  9.40144     -8.0 8.460e+03 1.751e-10
  9.42843     -6.7 9.149e+03 2.947e-10
  9.44839     -6.5 9.576e+03 3.521e-10
  9.47856     -4.0 1.012e+04 5.855e-10
  9.50863     -2.1 1.000e+04 6.915e-10
  9.52858     -1.6 1.004e+04 6.937e-10
  9.54863     -0.6 1.007e+04 7.633e-10
  9.56289     -0.2 1.012e+04 7.743e-10
  9.57291      0.3 9.612e+03 5.513e-10
  9.58873      1.7 9.693e+03 6.660e-10
  9.60878      2.3 9.892e+03 7.098e-10
  9.62883      3.0 1.032e+04 8.256e-10
  9.64867      2.9 1.064e+04 9.124e-10
  9.65870      3.0 1.050e+04 8.757e-10
  9.67905      2.5 1.141e+04 1.303e-09
  9.70913      1.4 1.237e+04 1.996e-09
  9.72908      1.1 1.277e+04 2.814e-09
  9.74038      2.0 1.299e+04 3.678e-09
  9.74576      2.2 1.286e+04 3.326e-09
  9.75451      1.9 1.320e+04 3.654e-09
  9.76918      3.1 1.360e+04 4.414e-09
  9.78923      4.0 1.402e+04 4.789e-09
  9.80928      4.4 1.411e+04 4.583e-09
  9.82933      4.1 1.400e+04 4.261e-09
  9.84029      3.1 1.399e+04 4.074e-09
  9.85032      2.7 1.421e+04 3.111e-09
  9.86943     -0.5 1.520e+04 3.217e-09
  9.88947     -3.6 1.589e+04 3.724e-09
  9.90952     -6.6 1.506e+04 4.091e-09
  9.92608     -8.1 1.373e+04 4.218e-09
  9.93610     -8.3 1.247e+04 2.799e-09
  9.94962     -7.3 1.262e+04 3.179e-09
  9.96967     -6.0 1.284e+04 3.435e-09
  9.98972     -4.7 1.299e+04 3.350e-09
 10.00443     -3.3 1.321e+04 2.766e-09
 10.01445     -4.2 1.262e+04 1.804e-09
 10.02189     -5.4 1.186e+04 1.226e-09
 10.03191     -5.6 1.131e+04 1.052e-09
 10.04987     -6.6 1.066e+04 7.805e-10
 10.08004     -7.0 1.042e+04 7.344e-10
 10.10787     -6.5 1.019e+04 7.626e-10
 10.12791     -6.2 9.801e+03 6.370e-10
 10.16034     -6.4 1.097e+04 1.189e-09
 10.19031     -5.9 1.159e+04 1.907e-09
 10.20348     -4.8 1.224e+04 2.629e-09
 10.21350     -4.2 1.209e+04 2.181e-09
 10.23032     -2.9 1.265e+04 2.742e-09
 10.25036     -1.2 1.311e+04 3.206e-09
 10.26848      0.1 1.338e+04 3.362e-09
 10.27850     -1.2 1.281e+04 2.385e-09
 10.28926     -0.7 1.287e+04 2.200e-09
 10.29939     -3.1 1.117e+04 8.433e-10
 10.32073     -4.5 1.057e+04 7.352e-10
 10.36083     -5.9 1.028e+04 8.300e-10
 10.38517     -5.0 1.079e+04 1.158e-09
 10.39510     -6.2 1.004e+04 9.013e-10
 10.41076     -5.9 1.018e+04 1.002e-09
 10.43081     -5.2 1.063e+04 1.217e-09
 10.45086     -4.4 1.093e+04 1.313e-09
 10.47086     -4.6 1.177e+04 1.456e-09
 10.49091    -22.7 2.548e+04 3.600e-09
 10.50595    -34.0 2.683e+04 1.846e-08
 10.51592    -36.4 2.309e+04 6.153e-08
 10.52368    -37.1 2.125e+04 1.445e-07
 10.52869    -37.5 2.067e+04 1.121e-07
 10.53597    -36.4 2.066e+04 1.721e-07
 10.54245    -35.7 2.069e+04 1.874e-07
 10.54747    -35.2 2.073e+04 2.085e-07
 10.55602    -34.1 2.057e+04 1.933e-07
 10.56605    -32.3 2.019e+04 8.646e-08
 10.57158    -31.4 2.016e+04 3.548e-08
 10.57660    -32.2 1.982e+04 2.711e-08
 10.58610    -32.7 2.039e+04 1.210e-08
 10.59612    -38.1 1.974e+04 5.103e-09
 10.61121    -46.4 1.361e+04 1.794e-09
 10.63130    -47.6 1.129e+04 1.013e-09
 10.65135    -47.0 1.028e+04 6.229e-10
 10.66248    -45.9 1.002e+04 4.811e-10
 10.67250    -45.7 1.027e+04 6.164e-10
 10.69145    -44.8 1.005e+04 4.860e-10
 10.71150    -44.1 9.811e+03 3.814e-10
 10.73155    -43.4 9.633e+03 3.066e-10
 10.74826    -42.7 9.539e+03 2.570e-10
 10.75829    -42.7 9.786e+03 3.354e-10
 10.77165    -42.0 9.633e+03 2.711e-10
 10.79667    -41.2 9.436e+03 2.089e-10
 10.81682    -40.7 9.553e+03 2.377e-10
 10.83424    -38.6 9.067e+03 1.438e-10
 10.85429    -39.2 9.898e+03 3.008e-10
 10.88212    -36.6 9.252e+03 1.347e-10
 10.92222    -34.7 8.960e+03 9.060e-11
 10.96232    -32.6 8.707e+03 6.876e-11
 11.00241    -30.4 8.676e+03 6.075e-11
 11.02586    -28.2 8.716e+03 5.971e-11
 11.04591    -28.7 9.051e+03 1.294e-10
 11.08261    -26.1 8.943e+03 1.417e-10
 11.12271    -23.2 8.828e+03 1.529e-10
 11.16281    -20.0 8.800e+03 1.547e-10
 11.19743    -17.1 8.839e+03 1.500e-10
 11.21748    -16.7 9.021e+03 2.021e-10
 11.24301    -14.2 9.017e+03 1.852e-10
 11.28311    -11.7 9.091e+03 1.851e-10
 11.32321     -9.5 9.200e+03 2.106e-10
 11.34492     -7.3 9.449e+03 2.542e-10
 11.36497     -9.2 9.546e+03 2.577e-10
 11.38905     -7.3 1.001e+04 3.657e-10
 11.40910     -7.3 1.036e+04 5.516e-10
 11.44350     -6.0 1.099e+04 7.768e-10
 11.48360     -4.8 1.139e+04 9.802e-10
 11.52370     -3.4 1.139e+04 1.101e-09
 11.56062     -1.8 1.115e+04 1.001e-09
 11.58067     -2.6 1.162e+04 1.148e-09
 11.60390     -1.9 1.137e+04 8.569e-10
 11.64400     -1.6 1.128e+04 7.746e-10
 11.68410     -0.5 1.139e+04 8.238e-10
 11.72419      2.2 1.180e+04 9.772e-10
 11.75214      3.8 1.207e+04 9.967e-10
 11.76207      3.1 1.199e+04 8.942e-10
 11.77412      4.3 1.215e+04 9.146e-10
 11.79417      6.6 1.213e+04 8.293e-10
 11.81422      7.8 1.238e+04 8.439e-10
 11.84439      9.4 1.242e+04 8.161e-10
 11.87292     11.6 1.202e+04 8.130e-10
 11.89297     14.3 1.227e+04 1.048e-09
 11.92381     17.2 1.254e+04 1.139e-09
 11.94376     16.3 1.290e+04 1.161e-09
 11.95457     17.5 1.344e+04 1.391e-09
 11.97462     18.4 1.415e+04 1.779e-09
 11.99467     19.1 1.527e+04 2.561e-09
 12.01472     19.6 1.651e+04 3.984e-09
 12.02945     20.2 1.747e+04 6.141e-09
 12.03947     19.7 1.757e+04 7.265e-09
 12.05482     20.7 1.876e+04 1.099e-08
 12.07486     22.5 2.026e+04 1.674e-08
 12.09491     23.8 2.156e+04 2.308e-08
 12.10990     24.4 2.239e+04 2.408e-08
 12.11988     24.6 2.264e+04 2.483e-08
 12.12516     25.1 2.332e+04 2.425e-08
 12.13523     24.7 2.400e+04 2.236e-08
 12.14689     24.6 2.430e+04 2.055e-08
 12.15692     27.7 2.236e+04 1.540e-08
 12.17511     27.0 2.429e+04 1.569e-08
 12.19516     25.1 2.528e+04 1.808e-08
 12.21015     23.3 2.430e+04 2.066e-08
 12.21596     22.4 2.232e+04 2.362e-08
 12.22097     21.9 2.090e+04 2.086e-08
 12.23015     20.9 2.025e+04 2.457e-08
 12.24018     20.0 2.054e+04 3.023e-08
 12.25020     18.9 2.192e+04 3.919e-08
 12.25885     18.1 2.325e+04 4.977e-08
 12.26386     17.8 2.396e+04 4.242e-08
 12.27025     16.9 2.606e+04 3.853e-08
 12.27882     16.4 2.557e+04 3.000e-08
 12.28383     18.3 2.441e+04 6.313e-08
 12.29030     18.0 2.463e+04 5.194e-08
 12.30032     17.3 2.440e+04 3.523e-08
 12.30675     16.1 2.311e+04 2.014e-08
 12.31177     14.8 2.174e+04 1.382e-08
 12.32037     12.5 1.944e+04 8.444e-09
 12.33040     10.9 1.750e+04 5.342e-09
 12.34042      9.5 1.644e+04 4.075e-09
 12.34965      8.9 1.562e+04 2.807e-09
 12.35466      8.9 1.548e+04 2.612e-09
 12.36047      8.2 1.509e+04 2.243e-09
 12.37556      6.6 1.410e+04 1.516e-09
 12.39264      5.5 1.306e+04 1.070e-09
 12.40266      5.4 1.274e+04 1.004e-09
 12.41094      3.7 1.127e+04 7.396e-10
 12.42097      7.9 1.483e+04 1.392e-09
 12.43575      6.8 1.360e+04 1.007e-09
 12.45580      5.5 1.188e+04 7.820e-10
 12.47585      4.6 1.109e+04 7.200e-10
 12.48845      3.9 1.112e+04 7.568e-10
 12.49847      4.0 1.104e+04 6.933e-10
 12.51595      3.5 1.109e+04 7.564e-10
 12.53600      3.7 1.102e+04 8.400e-10
 12.55605      4.0 1.105e+04 8.586e-10
 12.57423      4.4 1.109e+04 8.451e-10
 12.58426      3.7 1.091e+04 7.469e-10
 12.59615      3.4 1.095e+04 7.104e-10
 12.61620      2.8 1.098e+04 6.858e-10
 12.63625      2.1 1.093e+04 6.556e-10
 12.65630      1.5 1.079e+04 6.476e-10
 12.67004      1.3 1.073e+04 6.549e-10
 12.67871      1.1 1.074e+04 6.930e-10
 12.68502      1.1 1.073e+04 6.929e-10
 12.69640      1.3 1.061e+04 6.715e-10
 12.71645      1.5 1.056e+04 6.351e-10
 12.73650      1.3 1.058e+04 6.089e-10
 12.75583      0.9 1.065e+04 5.957e-10
 12.76585      0.8 1.052e+04 5.305e-10
 12.77660     -0.1 1.064e+04 5.452e-10
 12.79665     -1.1 1.081e+04 6.169e-10
 12.81669     -1.8 1.092e+04 7.148e-10
 12.83674     -2.3 1.102e+04 8.337e-10
 12.85164     -2.3 1.119e+04 9.455e-10
 12.86166     -2.2 1.106e+04 8.605e-10
 12.87684     -1.8 1.116e+04 9.488e-10
 12.89689     -1.4 1.113e+04 9.481e-10
 12.91694     -1.1 1.106e+04 8.599e-10
 12.93699     -1.2 1.089e+04 7.340e-10
 12.94744     -1.4 1.072e+04 6.197e-10
 12.94950     -1.2 1.087e+04 6.840e-10
 12.95909     -0.8 1.098e+04 7.282e-10
 12.97709     -1.1 1.074e+04 6.387e-10
 12.99714     -1.2 1.052e+04 5.698e-10
 13.01719     -1.2 1.039e+04 5.319e-10
 13.03323     -1.0 1.022e+04 5.023e-10
 13.04325     -1.0 1.047e+04 5.904e-10
 13.05729     -0.6 1.033e+04 5.788e-10
 13.08746      0.6 1.065e+04 6.607e-10
 13.12766      1.3 1.080e+04 7.364e-10
 13.16776      2.0 1.140e+04 9.689e-10
 13.19773      2.5 1.156e+04 1.065e-09
 13.21312      2.5 1.177e+04 1.143e-09
 13.22028      2.2 1.245e+04 1.578e-09
 13.22485      1.6 1.279e+04 1.769e-09
 13.23773      1.9 1.293e+04 2.020e-09
 13.25778      2.7 1.285e+04 2.149e-09
 13.27783      3.7 1.280e+04 2.120e-09
 13.29788      4.6 1.268e+04 1.973e-09
 13.32805      4.7 1.212e+04 1.347e-09
 13.35813      5.4 1.145e+04 1.015e-09
 13.37808      5.0 1.114e+04 8.077e-10
 13.39642      5.4 1.068e+04 6.405e-10
 13.40644      4.4 1.081e+04 6.664e-10
 13.41818      4.6 1.062e+04 5.802e-10
 13.43823      5.1 1.028e+04 4.746e-10
 13.45828      5.1 1.012e+04 4.285e-10
 13.47726      5.5 9.810e+03 3.576e-10
 13.48729      6.1 1.005e+04 4.167e-10
 13.49223      6.1 9.969e+03 3.983e-10
 13.50225      5.7 9.964e+03 4.090e-10
 13.51843      6.7 9.678e+03 3.486e-10
 13.53847      6.7 9.690e+03 3.449e-10
 13.56809      8.1 9.612e+03 3.332e-10
 13.58823      6.9 9.388e+03 2.992e-10
 13.60884      7.7 9.294e+03 2.674e-10
 13.64894      8.3 9.322e+03 2.677e-10
 13.68904      8.7 9.404e+03 2.840e-10
 13.72914      9.1 9.458e+03 2.899e-10
 13.75980      9.6 9.363e+03 2.671e-10
 13.77985      9.5 9.085e+03 2.307e-10
 13.80934     10.3 8.935e+03 1.736e-10
 13.84944     10.5 8.894e+03 1.384e-10
 13.88954     10.6 8.928e+03 1.395e-10
 13.92963     10.5 9.126e+03 1.601e-10
 13.95142     10.3 9.722e+03 2.702e-10
 13.97147     10.4 1.019e+04 3.787e-10
 14.00546     10.7 1.074e+04 6.411e-10
 14.02541     10.2 1.063e+04 6.213e-10
 14.04983     10.7 1.099e+04 8.312e-10
 14.09003     11.4 1.100e+04 8.290e-10
 14.12299     12.7 1.075e+04 6.997e-10
 14.14304     12.3 1.159e+04 1.139e-09
 14.17023     13.5 1.119e+04 8.947e-10
 14.21033     14.7 1.080e+04 6.969e-10
 14.25043     16.2 1.046e+04 5.798e-10
 14.29052     18.2 1.022e+04 5.237e-10
 14.31461     20.5 1.007e+04 4.911e-10
 14.33466     20.3 1.045e+04 6.393e-10
 14.37072     22.8 1.032e+04 5.887e-10
 14.41082     25.3 1.025e+04 5.577e-10
 14.45092     27.8 1.023e+04 5.480e-10
 14.48618     30.4 1.023e+04 5.489e-10
 14.50623     30.1 1.025e+04 5.215e-10
 14.53112     32.7 1.025e+04 5.324e-10
 14.55361     35.3 1.023e+04 5.366e-10
 14.57366     35.7 1.048e+04 6.157e-10
 14.61132     38.3 1.029e+04 5.313e-10
 14.65141     40.8 1.017e+04 4.835e-10
 14.67780     43.3 1.009e+04 4.560e-10
 14.69785     42.9 1.018e+04 4.885e-10
 14.73161     45.5 1.013e+04 4.707e-10
 14.77171     48.1 1.008e+04 4.533e-10
 14.81181     50.8 1.009e+04 4.455e-10
 14.84937     53.3 1.023e+04 4.639e-10
 14.86942     51.0 1.072e+04 5.232e-10
 14.88189     53.0 1.050e+04 5.216e-10
 14.90184     53.6 1.075e+04 5.691e-10
 14.92189     53.1 1.157e+04 7.241e-10
 14.94194     52.3 1.284e+04 1.043e-09
 14.95501     51.5 1.397e+04 1.586e-09
 14.96503     47.9 1.492e+04 2.776e-09
 14.98204     47.6 1.557e+04 3.739e-09
 15.00208     46.9 1.634e+04 4.710e-09
 15.02213     45.3 1.758e+04 5.684e-09
 15.04079     42.8 1.858e+04 7.067e-09
 15.05077     37.5 1.960e+04 5.762e-09
 15.05712     35.2 1.976e+04 5.679e-09
 15.06715     32.7 1.956e+04 5.363e-09
 15.07717     30.3 1.886e+04 5.107e-09
 15.08642     27.9 1.789e+04 5.055e-09
 15.09144     27.8 1.796e+04 5.581e-09
 15.09361     25.5 1.733e+04 5.759e-09
 15.09862     22.3 1.684e+04 5.552e-09
 15.10725     20.6 1.702e+04 6.152e-09
 15.11727     19.0 1.730e+04 6.936e-09
 15.12730     17.8 1.746e+04 7.699e-09
 15.13650     16.7 1.760e+04 8.227e-09
 15.14152     15.1 1.717e+04 7.500e-09
 15.14735     14.2 1.694e+04 7.277e-09
 15.16243     13.0 1.646e+04 6.385e-09
 15.18253     11.8 1.572e+04 5.113e-09
 15.20258     10.1 1.459e+04 3.408e-09
 15.22239      7.9 1.337e+04 2.095e-09
 15.23241      4.9 1.210e+04 1.265e-09
 15.24268      1.9 1.112e+04 8.206e-10
 15.26273     -1.1 1.113e+04 7.982e-10
 15.28278     -6.2 1.204e+04 1.051e-09
 15.30283    -10.2 1.265e+04 1.739e-09
 15.31820    -10.4 1.294e+04 2.538e-09
 15.32822    -10.5 1.272e+04 2.247e-09
 15.34293    -11.1 1.328e+04 2.831e-09
 15.35558    -12.9 1.406e+04 3.244e-09
 15.36561    -13.0 1.367e+04 2.728e-09
 15.38302    -15.6 1.379e+04 2.844e-09
 15.40307    -18.8 1.365e+04 2.643e-09
 15.41401    -24.1 1.444e+04 2.706e-09
 15.42403    -22.6 1.406e+04 2.630e-09
 15.44317    -28.6 1.514e+04 2.921e-09
 15.46322    -33.8 1.463e+04 3.425e-09
 15.48327    -36.5 1.416e+04 3.712e-09
 15.49979    -39.1 1.496e+04 3.799e-09
 15.50982    -38.5 1.505e+04 4.049e-09
 15.52337    -43.2 1.657e+04 3.917e-09
 15.54342    -50.4 1.551e+04 2.785e-09
 15.56347    -55.5 1.271e+04 1.908e-09
 15.58352    -56.4 1.198e+04 1.601e-09
 15.59560    -56.4 1.191e+04 1.203e-09
 15.60563    -55.6 1.187e+04 1.143e-09
 15.61963    -57.2 1.153e+04 6.495e-10
 15.62966    -58.7 1.130e+04 5.194e-10
 15.64367    -61.5 1.045e+04 3.241e-10
 15.66372    -62.8 9.936e+03 2.751e-10
 15.69389    -63.1 9.714e+03 2.422e-10
 15.73408    -63.1 9.613e+03 2.268e-10
 15.76737    -63.0 9.756e+03 2.430e-10
 15.78741    -62.0 9.751e+03 2.385e-10
 15.81428    -62.0 1.016e+04 3.001e-10
 15.85438    -62.4 1.055e+04 3.701e-10
 15.88378    -62.8 1.082e+04 4.566e-10
 15.89371    -63.7 1.096e+04 5.519e-10
 15.90431    -64.8 1.122e+04 6.995e-10
 15.92436    -65.4 1.149e+04 8.915e-10
 15.94441    -65.7 1.173e+04 1.022e-09
 15.95879    -65.8 1.181e+04 1.055e-09
 15.96881    -65.5 1.186e+04 1.091e-09
 15.98451    -65.7 1.176e+04 1.020e-09
 16.00456    -66.2 1.165e+04 8.470e-10
 16.02461    -67.2 1.162e+04 7.252e-10
 16.04457    -68.7 1.170e+04 6.907e-10
 16.06462    -70.2 1.186e+04 7.340e-10
 16.08476    -71.5 1.190e+04 9.351e-10
 16.10480    -71.9 1.203e+04 1.272e-09
 16.12485    -71.8 1.239e+04 1.658e-09
 16.14038    -71.4 1.287e+04 1.963e-09
 16.15041    -71.4 1.271e+04 1.756e-09
 16.15776    -71.4 1.323e+04 1.904e-09
 16.16778    -73.4 1.340e+04 2.027e-09
 16.18500    -74.1 1.336e+04 1.990e-09
 16.20505    -74.6 1.301e+04 1.654e-09
 16.22510    -74.7 1.246e+04 1.353e-09
 16.23619    -74.6 1.208e+04 1.055e-09
 16.24622    -74.3 1.208e+04 1.058e-09
 16.26520    -74.1 1.183e+04 7.656e-10
 16.28525    -74.4 1.167e+04 5.439e-10
 16.30530    -75.0 1.162e+04 4.295e-10
 16.32198    -75.6 1.135e+04 3.754e-10
 16.33200    -75.4 1.129e+04 3.875e-10
 16.34540    -75.6 1.097e+04 3.668e-10
 16.36545    -75.0 1.081e+04 3.650e-10
 16.38550    -74.4 1.082e+04 3.747e-10
 16.41567    -74.2 1.090e+04 4.166e-10
 16.45587    -73.8 1.092e+04 4.028e-10
 16.49374    -73.2 1.070e+04 3.819e-10
 16.51379    -72.4 1.060e+04 3.643e-10
 16.53606    -71.7 1.026e+04 3.296e-10
 16.57616    -70.9 9.956e+03 2.643e-10
 16.61626    -70.9 9.913e+03 2.150e-10
 16.65636    -71.3 9.886e+03 2.120e-10
 16.68526    -71.7 1.020e+04 3.062e-10
 16.69490    -71.0 1.007e+04 2.897e-10
 16.69598    -73.4 1.052e+04 4.502e-10
 16.70629    -73.0 1.076e+04 6.348e-10
 16.72634    -72.2 1.106e+04 8.957e-10
 16.74639    -71.2 1.134e+04 1.092e-09
 16.76644    -70.3 1.157e+04 1.194e-09
 16.78098    -69.7 1.168e+04 1.216e-09
 16.79100    -69.8 1.154e+04 1.195e-09
 16.80654    -69.4 1.157e+04 1.134e-09
 16.82658    -69.1 1.141e+04 1.044e-09
 16.84663    -68.8 1.125e+04 9.592e-10
 16.86668    -68.4 1.107e+04 8.787e-10
 16.89686    -68.1 1.084e+04 7.933e-10
 16.93705    -66.5 1.054e+04 6.965e-10
 16.97715    -64.6 1.030e+04 5.914e-10
 17.01725    -62.6 1.008e+04 4.648e-10
 17.04855    -60.4 9.756e+03 3.322e-10
 17.06860    -60.1 9.611e+03 3.268e-10
 17.09745    -57.9 9.248e+03 2.136e-10
 17.13755    -56.0 8.918e+03 1.449e-10
 17.17765    -54.2 8.658e+03 1.141e-10
 17.21415    -52.4 8.551e+03 1.069e-10
 17.23420    -53.3 8.439e+03 8.498e-11
 17.24017    -51.4 8.552e+03 9.800e-11
 17.26022    -51.3 8.448e+03 9.570e-11
 17.29794    -49.2 8.496e+03 1.210e-10
 17.33804    -47.0 8.646e+03 1.526e-10
 17.37814    -45.0 8.846e+03 1.880e-10
 17.41174    -43.4 9.003e+03 2.306e-10
 17.43179    -43.1 8.823e+03 1.988e-10
 17.45834    -41.4 8.922e+03 2.538e-10
 17.49844    -39.3 9.065e+03 3.010e-10
 17.53854    -37.5 9.249e+03 3.060e-10
 17.57863    -36.4 9.381e+03 2.759e-10
 17.60336    -35.9 9.421e+03 2.768e-10
 17.62341    -35.6 9.437e+03 2.829e-10
 17.65883    -35.3 9.434e+03 3.222e-10
 17.69893    -34.2 9.393e+03 3.954e-10
 17.73903    -32.5 9.392e+03 4.294e-10
 17.76230    -31.1 9.674e+03 4.199e-10
 17.77814    -31.5 9.610e+03 3.457e-10
 17.79498    -31.7 9.638e+03 3.412e-10
 17.81923    -33.1 1.041e+04 4.321e-10
 17.85933    -33.8 1.102e+04 8.641e-10
 17.88067    -33.5 1.121e+04 1.304e-09
 17.89059    -33.1 1.135e+04 1.410e-09
 17.90926    -32.4 1.158e+04 1.506e-09
 17.92930    -31.8 1.149e+04 1.386e-09
 17.94935    -31.0 1.101e+04 1.179e-09
 17.96635    -30.2 1.101e+04 6.998e-10
 17.97638    -30.0 1.090e+04 6.245e-10
 17.98945    -30.6 1.027e+04 4.944e-10
 18.01962    -31.0 9.821e+03 2.648e-10
 18.05982    -31.8 9.572e+03 2.079e-10
 18.09992    -32.8 9.997e+03 2.762e-10
 18.12990    -32.6 9.982e+03 4.050e-10
 18.14795    -32.5 1.022e+04 4.614e-10
 18.15797    -32.4 1.026e+04 4.631e-10
 18.16990    -31.9 9.930e+03 6.248e-10
 18.18995    -31.1 1.009e+04 6.502e-10
 18.21000    -31.0 1.039e+04 5.962e-10
 18.23005    -31.3 1.033e+04 5.672e-10
 18.24376    -31.8 1.048e+04 4.656e-10
 18.25378    -32.1 1.109e+04 6.136e-10
 18.27015    -33.0 1.093e+04 5.776e-10
 18.29019    -33.4 1.080e+04 5.444e-10
 18.31024    -32.2 1.090e+04 5.690e-10
 18.32954    -32.4 1.085e+04 5.902e-10
 18.33957    -33.2 1.177e+04 9.067e-10
 18.35034    -33.5 1.192e+04 1.021e-09
 18.37039    -33.8 1.229e+04 1.343e-09
 18.39044    -35.6 1.364e+04 1.954e-09
 18.41049    -38.8 1.559e+04 3.377e-09
 18.42535    -40.9 1.644e+04 5.956e-09
 18.43538    -42.3 1.698e+04 8.276e-09
 18.45059    -42.4 1.709e+04 1.147e-08
 18.47064    -41.9 1.708e+04 1.205e-08
 18.49069    -41.5 1.699e+04 8.435e-09
 18.51074    -44.8 1.726e+04 4.804e-09
 18.52116    -51.6 1.399e+04 2.302e-09
 18.53118    -51.5 1.361e+04 2.105e-09
 18.55084    -54.0 1.193e+04 1.394e-09
 18.56427    -54.7 1.128e+04 1.150e-09
 18.57430    -54.1 1.171e+04 1.356e-09
 18.59094    -54.6 1.122e+04 1.118e-09
 18.60695    -54.9 1.096e+04 9.780e-10
 18.61697    -54.6 1.063e+04 8.300e-10
 18.63104    -54.6 1.051e+04 7.801e-10
 18.65108    -54.5 1.046e+04 7.660e-10
 18.67113    -54.2 1.042e+04 7.568e-10
 18.69118    -53.6 1.033e+04 7.456e-10
 18.70275    -53.0 1.026e+04 7.108e-10
 18.71278    -52.3 1.003e+04 5.986e-10
 18.73128    -51.6 9.990e+03 5.701e-10
 18.75133    -51.0 9.965e+03 5.488e-10
 18.77138    -50.4 9.930e+03 5.205e-10
 18.78854    -49.9 9.940e+03 5.015e-10
 18.79856    -49.6 9.803e+03 4.584e-10
 18.81839    -48.9 9.935e+03 4.711e-10
 18.83854    -48.4 1.002e+04 4.897e-10
 18.86180    -47.0 9.957e+03 4.367e-10
 18.88454    -45.5 9.827e+03 3.822e-10
 18.90459    -44.3 9.785e+03 3.890e-10
 18.94200    -42.5 9.671e+03 3.367e-10
 18.98210    -40.7 9.567e+03 2.730e-10
 19.02219    -38.6 9.318e+03 1.826e-10
 19.05611    -36.4 9.043e+03 9.923e-11
 19.07616    -34.9 9.202e+03 1.500e-10
 19.10239    -33.9 9.266e+03 6.766e-11
 19.14249    -34.4 9.395e+03 5.619e-11
 19.18259    -35.6 1.004e+04 6.384e-11
 19.22269    -37.3 1.033e+04 1.833e-10
 19.24773    -36.4 1.122e+04 7.167e-10
 19.26778    -36.6 1.254e+04 1.571e-09
 19.30289    -35.2 1.251e+04 1.614e-09
 19.34299    -34.8 1.203e+04 1.111e-09
 19.36664    -33.9 1.136e+04 5.841e-10
 19.38669    -34.2 1.140e+04 5.733e-10
 19.41930    -33.1 1.071e+04 2.617e-10
 19.43935    -33.3 1.058e+04 2.166e-10
 19.46328    -32.5 1.039e+04 1.121e-10
 19.50338    -31.7 1.018e+04 9.209e-11
 19.54348    -30.4 1.006e+04 1.116e-10
 19.58358    -28.2 9.968e+03 1.640e-10
 19.61092    -25.4 9.924e+03 2.118e-10
 19.63097    -25.1 9.699e+03 1.151e-10
 19.66378    -22.7 9.900e+03 1.111e-10
 19.70388    -21.3 1.013e+04 1.173e-10
 19.74398    -20.6 1.038e+04 1.505e-10
 19.78249    -19.9 1.055e+04 2.387e-10
 19.80254    -18.8 1.032e+04 1.647e-10
 19.82417    -17.7 1.070e+04 2.793e-10
 19.86427    -16.9 1.110e+04 4.507e-10
 19.89474    -16.2 1.126e+04 5.663e-10
 19.91479    -16.7 1.125e+04 6.355e-10
 19.94447    -15.4 1.105e+04 5.294e-10
 19.97411    -14.0 1.071e+04 3.101e-10
 19.99416    -12.5 1.104e+04 4.626e-10
 20.02467    -11.8 1.085e+04 2.460e-10
 20.06477    -11.6 1.049e+04 1.601e-10
 20.10487    -10.7 1.005e+04 1.355e-10
 20.14496     -9.0 9.873e+03 1.289e-10
 20.16573     -7.1 9.852e+03 1.303e-10
 20.18578     -6.2 9.944e+03 1.410e-10
 20.22516     -4.2 9.892e+03 1.396e-10
 20.26526     -2.3 9.874e+03 1.504e-10
 20.30536     -0.4 9.863e+03 1.721e-10
 20.33730      1.7 9.868e+03 2.070e-10
 20.35735      2.8 9.874e+03 1.955e-10
 20.38556      4.9 9.903e+03 2.347e-10
 20.42284      7.0 9.971e+03 2.797e-10
 20.44289      7.2 9.820e+03 1.918e-10
 20.46576      9.2 9.857e+03 2.234e-10
 20.50585     11.2 9.913e+03 2.567e-10
 20.52892     13.2 9.992e+03 2.889e-10
 20.54897     14.2 9.901e+03 2.611e-10
 20.58605     16.1 9.921e+03 2.773e-10
 20.62615     17.9 9.980e+03 3.054e-10
 20.66625     19.9 1.008e+04 3.513e-10
 20.70049     21.8 1.020e+04 4.151e-10
 20.72054     22.8 9.912e+03 3.040e-10
 20.74645     24.8 1.005e+04 3.755e-10
 20.78655     26.9 1.019e+04 4.471e-10
 20.82665     28.9 1.024e+04 4.758e-10
 20.86674     30.9 1.021e+04 4.682e-10
 20.89211     32.9 1.009e+04 4.336e-10
 20.91216     33.9 9.897e+03 3.731e-10
 20.94694     36.1 9.763e+03 3.298e-10
 20.97098     38.2 9.641e+03 2.845e-10
 20.99103     38.2 9.411e+03 1.803e-10
 21.02714     40.4 9.337e+03 1.659e-10
 21.06368     42.7 9.284e+03 1.574e-10
 21.08373     43.6 9.230e+03 1.506e-10
 21.10734     46.0 9.177e+03 1.460e-10
 21.14744     48.5 9.129e+03 1.429e-10
 21.18754     51.0 9.104e+03 1.383e-10
 21.22763     53.5 9.070e+03 1.349e-10
 21.25530     55.9 9.039e+03 1.335e-10
 21.27535     56.7 9.062e+03 1.373e-10
 21.30783     59.2 9.049e+03 1.367e-10
 21.34793     61.8 9.048e+03 1.377e-10
 21.38803     64.2 9.050e+03 1.442e-10
 21.42687     66.9 9.127e+03 1.689e-10
 21.44692     67.5 9.572e+03 2.163e-10
 21.46823     70.0 9.754e+03 2.414e-10
 21.49908     71.8 9.878e+03 2.676e-10
 21.51903     72.1 1.018e+04 3.786e-10
 21.53250     72.8 1.023e+04 4.032e-10
 21.54253     72.8 1.045e+04 4.679e-10
 21.55826     73.5 1.072e+04 5.759e-10
 21.57830     73.9 1.116e+04 7.666e-10
 21.59835     74.0 1.167e+04 1.060e-09
 21.61829     74.0 1.221e+04 1.484e-09
 21.62831     74.1 1.262e+04 1.744e-09
 21.63845     74.1 1.308e+04 2.272e-09
 21.65850     74.2 1.349e+04 2.848e-09
 21.67855     74.1 1.374e+04 3.276e-09
 21.69860     73.9 1.390e+04 3.348e-09
 21.71410     73.4 1.382e+04 3.202e-09
 21.72412     74.1 1.331e+04 2.569e-09
 21.73870     73.5 1.285e+04 1.977e-09
 21.75875     72.4 1.233e+04 1.402e-09
 21.77296     70.5 1.180e+04 1.012e-09
 21.78299     70.7 1.152e+04 9.026e-10
 21.79885     68.7 1.125e+04 8.740e-10
 21.80991     67.4 1.123e+04 8.866e-10
 21.81993     68.7 1.054e+04 6.229e-10
 21.83895     67.8 1.061e+04 6.861e-10
 21.85900     66.7 1.106e+04 8.525e-10
 21.87905     64.9 1.192e+04 1.167e-09
 21.89569     62.3 1.288e+04 1.702e-09
 21.90572     63.0 1.273e+04 1.528e-09
 21.91915     59.7 1.371e+04 2.456e-09
 21.93919     57.1 1.421e+04 3.457e-09
 21.95924     55.2 1.419e+04 3.595e-09
 21.97929     53.8 1.398e+04 3.398e-09
 21.99150     52.8 1.347e+04 2.710e-09
 22.00153     52.4 1.360e+04 2.768e-09
 22.01939     51.3 1.296e+04 1.841e-09
 22.03701     49.6 1.234e+04 1.130e-09
 22.04704     48.7 1.202e+04 8.265e-10
 22.05949     47.1 1.135e+04 5.740e-10
 22.07729     46.9 1.121e+04 5.455e-10
 22.08731     45.7 1.111e+04 5.227e-10
 22.10971     46.3 1.074e+04 4.455e-10
 22.14991     47.4 1.059e+04 4.181e-10
 22.17329     48.8 1.050e+04 4.127e-10
 22.19334     47.8 1.053e+04 4.635e-10
 22.23011     49.8 1.049e+04 4.437e-10
 22.27021     51.8 1.040e+04 3.960e-10
 22.31030     53.8 1.027e+04 3.359e-10
 22.34486     55.7 1.014e+04 2.722e-10
 22.36491     55.5 1.000e+04 2.484e-10
 22.39050     57.2 9.898e+03 1.991e-10
 22.43060     59.0 9.857e+03 1.900e-10
 22.47070     60.7 9.883e+03 1.951e-10
 22.51080     62.2 9.971e+03 2.237e-10
 22.53648     63.7 1.025e+04 3.136e-10
 22.55653     63.7 1.035e+04 3.404e-10
 22.57533     65.3 1.106e+04 5.555e-10
 22.59538     64.7 1.134e+04 6.709e-10
 22.63110     65.4 1.227e+04 1.178e-09
 22.66107     65.1 1.280e+04 1.633e-09
 22.68102     65.0 1.323e+04 2.221e-09
 22.70107     65.3 1.355e+04 2.862e-09
 22.71788     65.8 1.365e+04 3.137e-09
 22.72791     65.9 1.405e+04 3.592e-09
 22.74117     66.3 1.402e+04 3.554e-09
 22.76122     66.8 1.382e+04 3.303e-09
 22.78127     67.2 1.342e+04 2.742e-09
 22.80132     67.7 1.289e+04 2.094e-09
 22.83149     68.8 1.227e+04 1.267e-09
 22.87169     70.1 1.129e+04 6.334e-10
 22.89967     71.4 1.041e+04 3.477e-10
 22.91972     72.2 1.154e+04 7.018e-10
 22.95189     73.8 1.127e+04 5.485e-10
 22.99199     75.6 1.099e+04 4.881e-10
 23.03209     77.4 1.074e+04 4.738e-10
 23.07124     79.3 1.055e+04 4.699e-10
 23.09129     79.7 1.178e+04 9.261e-10
 23.10343     81.6 1.114e+04 6.828e-10
 23.12348     81.9 1.104e+04 6.528e-10
 23.15238     83.7 1.047e+04 4.840e-10
 23.19248     85.5 1.012e+04 4.196e-10
 23.23258     87.5 1.011e+04 4.263e-10
 23.26286     89.3 1.018e+04 4.800e-10
 23.28291     89.5 1.024e+04 4.482e-10
 23.31278     91.3 1.052e+04 5.963e-10
 23.35288     93.1 1.120e+04 9.214e-10
 23.39298     94.5 1.200e+04 1.380e-09
 23.43307     95.0 1.224e+04 1.499e-09
 23.45448     95.2 1.220e+04 1.443e-09
 23.47453     95.3 1.188e+04 1.165e-09
 23.51327     95.3 1.185e+04 1.119e-09
 23.55337     95.4 1.180e+04 1.051e-09
 23.58335     95.1 1.182e+04 1.010e-09
 23.60330     94.5 1.194e+04 1.034e-09
 23.62335     93.6 1.225e+04 1.163e-09
 23.63588     92.6 1.254e+04 1.511e-09
 23.64386     92.6 1.247e+04 1.673e-09
 23.65138     92.7 1.198e+04 1.314e-09
 23.66345     92.2 1.232e+04 1.640e-09
 23.68350     92.1 1.269e+04 2.084e-09
 23.70355     92.2 1.295e+04 2.428e-09
 23.72166     92.1 1.308e+04 2.504e-09
 23.73169     92.0 1.272e+04 2.104e-09
 23.74365     91.7 1.272e+04 2.069e-09
 23.76369     91.5 1.267e+04 1.993e-09
 23.79387     91.1 1.256e+04 1.857e-09
 23.81767     90.8 1.214e+04 1.525e-09
 23.83772     90.8 1.219e+04 1.627e-09
 23.87416     90.9 1.188e+04 1.414e-09
 23.91426     91.3 1.148e+04 1.160e-09
 23.95436     92.1 1.110e+04 9.544e-10
 23.98924     93.0 1.081e+04 7.947e-10
 24.00929     93.1 1.086e+04 8.637e-10
 24.03456     93.8 1.069e+04 7.605e-10
 24.07466     94.5 1.074e+04 7.476e-10
 24.11476     95.3 1.082e+04 7.682e-10
 24.15485     95.7 1.116e+04 8.729e-10
 24.17967     95.4 1.187e+04 1.142e-09
 24.18563     95.6 1.099e+04 7.746e-10
 24.20091     95.4 1.148e+04 1.032e-09
 24.22493     94.9 1.200e+04 1.252e-09
 24.24488     93.7 1.274e+04 1.721e-09
 24.26493     92.4 1.343e+04 2.567e-09
 24.27647     91.7 1.394e+04 3.689e-09
 24.28649     91.8 1.395e+04 3.992e-09
 24.30503     91.8 1.442e+04 4.975e-09
 24.32508     91.7 1.463e+04 5.215e-09
 24.34513     91.4 1.458e+04 5.010e-09
 24.36226     91.0 1.422e+04 3.987e-09
 24.37228     90.7 1.389e+04 3.067e-09
 24.39535     90.1 1.279e+04 1.614e-09
 24.43555     89.7 1.148e+04 7.577e-10
 24.47565     89.4 1.040e+04 3.683e-10
 24.51574     89.4 9.854e+03 2.183e-10
 24.54404     90.0 9.693e+03 1.632e-10
 24.56409     90.3 9.660e+03 1.670e-10
 24.59594     91.7 9.605e+03 1.513e-10
 24.63604     93.4 9.586e+03 1.418e-10
 24.67614     95.0 9.588e+03 1.310e-10
 24.70777     96.5 9.591e+03 1.169e-10
 24.72720     96.4 9.522e+03 1.188e-10
 24.73566     96.8 9.544e+03 1.389e-10
 24.75634     98.2 9.571e+03 1.265e-10
 24.79644     99.5 9.593e+03 1.107e-10
 24.83654    100.8 9.613e+03 9.409e-11
 24.87663    101.9 9.609e+03 7.950e-11
 24.90723    102.8 9.536e+03 6.956e-11
 24.92728    102.9 9.715e+03 8.537e-11
 24.95683    103.6 9.581e+03 8.061e-11
 24.99693    104.3 9.563e+03 8.107e-11
 25.03703    104.9 9.530e+03 8.438e-11
 25.07713    105.5 9.498e+03 9.549e-11
 25.09885    106.1 9.525e+03 1.139e-10
 25.11890    106.0 9.623e+03 1.291e-10
 25.15733    106.7 9.626e+03 1.438e-10
 25.19743    107.3 9.668e+03 1.504e-10
 25.23587    107.9 9.651e+03 1.474e-10
 25.25592    107.3 9.663e+03 1.412e-10
 25.27042    107.8 9.627e+03 1.348e-10
 25.29047    107.7 9.567e+03 1.139e-10
 25.31772    108.1 9.571e+03 1.171e-10
 25.35782    108.3 9.607e+03 1.309e-10
 25.39792    108.1 9.654e+03 1.514e-10
 25.43802    107.9 9.715e+03 1.757e-10
 25.46204    107.6 9.815e+03 2.057e-10
 25.48209    107.7 9.770e+03 1.895e-10
 25.51822    107.0 9.899e+03 2.130e-10
 25.55832    105.9 1.008e+04 2.463e-10
 25.59841    104.7 1.023e+04 2.819e-10
 25.63361    103.2 1.025e+04 2.910e-10
 25.65366    103.4 1.024e+04 2.843e-10
 25.67861    102.2 1.019e+04 2.813e-10
 25.71871    101.2 1.000e+04 2.684e-10
 25.75881    100.5 9.775e+03 2.593e-10
 25.78402    100.0 9.735e+03 2.616e-10
 25.80407     99.7 9.722e+03 2.599e-10
 25.82523     99.1 9.665e+03 2.798e-10
 25.84528     99.6 9.669e+03 2.720e-10
 25.87911     99.0 9.684e+03 3.190e-10
 25.91921     98.4 9.768e+03 3.742e-10
 25.95931     97.8 9.789e+03 3.844e-10
 25.99680     97.0 9.732e+03 3.721e-10
 26.01685     97.2 9.946e+03 4.342e-10
 26.03950     96.5 9.766e+03 3.834e-10
 26.07960     95.7 9.456e+03 2.930e-10
 26.11970     94.8 9.098e+03 2.038e-10
 26.15980     93.6 8.727e+03 1.473e-10
 26.18842     92.5 8.523e+03 1.394e-10
 26.20847     91.7 8.951e+03 2.026e-10
 26.24000     90.5 8.946e+03 2.085e-10
 26.28010     89.6 9.003e+03 2.399e-10
 26.31212     88.8 9.190e+03 3.186e-10
 26.33217     87.5 9.303e+03 3.529e-10
 26.35999     87.0 9.442e+03 4.352e-10
 26.38004     86.0 9.456e+03 4.493e-10
 26.40039     85.6 9.397e+03 4.324e-10
 26.44049     85.4 9.155e+03 3.582e-10
 26.48059     85.1 8.796e+03 2.689e-10
 26.52069     84.6 8.430e+03 2.155e-10
 26.55161     84.4 8.252e+03 2.068e-10
 26.57166     84.0 8.233e+03 1.994e-10
 26.60089     84.4 8.214e+03 2.087e-10
 26.64099     85.0 8.208e+03 2.150e-10
 26.68109     85.5 8.203e+03 2.142e-10
 26.72118     86.0 8.168e+03 2.087e-10
 26.74323     86.5 8.098e+03 1.983e-10
 26.76328     86.2 8.090e+03 1.944e-10
 26.80138     86.6 8.020e+03 1.874e-10
 26.84021     87.1 7.983e+03 1.841e-10
 26.86026     86.9 8.523e+03 2.402e-10
 26.88158     87.6 8.394e+03 2.211e-10
 26.91480     88.4 8.394e+03 2.210e-10
 26.93485     87.9 8.368e+03 2.191e-10
 26.96178     88.5 8.454e+03 2.295e-10
 27.00188     88.7 8.740e+03 2.719e-10
 27.04198     88.5 9.129e+03 3.513e-10
 27.07195     88.2 9.312e+03 4.060e-10
 27.09190     87.8 9.477e+03 4.569e-10
 27.10622     87.5 9.665e+03 5.121e-10
 27.11625     87.2 9.688e+03 5.191e-10
 27.12412     86.9 9.786e+03 5.319e-10
 27.13414     87.3 9.906e+03 6.170e-10
 27.15205     87.1 9.909e+03 6.058e-10
 27.17210     86.6 9.883e+03 5.602e-10
 27.20227     85.1 9.667e+03 4.411e-10
 27.24247     83.7 9.416e+03 3.762e-10
 27.27799     82.2 9.240e+03 3.699e-10
 27.29803     82.9 9.199e+03 3.439e-10
 27.32267     81.2 9.270e+03 3.572e-10
 27.36277     78.8 9.574e+03 4.352e-10
 27.38836     76.3 9.911e+03 6.355e-10
 27.39829     78.1 1.004e+04 5.639e-10
 27.41270     76.5 1.042e+04 7.566e-10
 27.43274     74.7 1.081e+04 9.840e-10
 27.45279     73.3 1.100e+04 1.136e-09
 27.46941     71.6 1.114e+04 1.154e-09
 27.47943     72.9 1.116e+04 1.153e-09
 27.49289     71.2 1.117e+04 1.146e-09
 27.51294     69.4 1.107e+04 1.094e-09
 27.53299     67.8 1.079e+04 9.561e-10
 27.55304     66.4 1.037e+04 7.701e-10
 27.56522     64.9 9.906e+03 5.927e-10
 27.57524     66.4 1.012e+04 6.747e-10
 27.59314     65.0 9.696e+03 5.286e-10
 27.61319     63.6 9.393e+03 4.601e-10
 27.63324     62.6 9.359e+03 4.589e-10
 27.65100     61.8 9.396e+03 4.743e-10
 27.65996     63.3 9.473e+03 4.795e-10
 27.66224     63.3 9.531e+03 5.024e-10
 27.67334     62.6 9.656e+03 5.456e-10
 27.69339     61.9 9.979e+03 6.459e-10
 27.71344     60.8 1.060e+04 8.546e-10
 27.73349     59.3 1.158e+04 1.279e-09
 27.74681     57.7 1.266e+04 2.052e-09
 27.75684     58.9 1.238e+04 1.743e-09
 27.77359     57.6 1.331e+04 2.764e-09
 27.79363     57.1 1.398e+04 3.959e-09
 27.81368     56.9 1.436e+04 4.482e-09
 27.83260     56.7 1.438e+04 4.394e-09
 27.84262     57.5 1.421e+04 4.120e-09
 27.85378     57.2 1.418e+04 3.861e-09
 27.87383     56.6 1.403e+04 3.224e-09
 27.89388     55.4 1.376e+04 2.619e-09
 27.91393     53.8 1.339e+04 2.231e-09
 27.92629     52.5 1.300e+04 2.035e-09
 27.93074     52.0 1.195e+04 1.332e-09
 27.93843     53.2 1.159e+04 1.082e-09
 27.96415     51.4 1.121e+04 9.612e-10
 28.00435     50.7 1.112e+04 8.754e-10
 28.04445     51.4 1.053e+04 6.591e-10
 28.08455     49.2 1.184e+04 1.011e-09
 28.11010     47.7 1.275e+04 1.643e-09
 28.12003     48.6 1.251e+04 1.471e-09
 28.13448     48.4 1.266e+04 1.710e-09
 28.16465     46.7 1.208e+04 1.471e-09
 28.19598     44.3 1.152e+04 1.183e-09
 28.21603     46.1 1.165e+04 1.284e-09
 28.24494     41.7 1.185e+04 1.334e-09
 28.28504     36.1 1.223e+04 1.565e-09
 28.32514     31.4 1.186e+04 1.449e-09
 28.36524     28.2 1.068e+04 8.460e-10
 28.38760     23.7 9.355e+03 3.807e-10
 28.40765     24.6 9.599e+03 4.122e-10
 28.44456     18.0 9.421e+03 4.061e-10
 28.46461     16.6 9.782e+03 5.550e-10
 28.48554     11.5 1.010e+04 7.378e-10
 28.52563      8.8 1.016e+04 7.362e-10
 28.55917      4.1 1.060e+04 4.655e-10
 28.57922      1.3 1.200e+04 7.775e-10
 28.60583     -7.1 1.113e+04 7.642e-10
 28.64593    -11.9 1.052e+04 7.386e-10
 28.68603    -15.7 1.077e+04 7.633e-10
 28.71601    -18.8 1.075e+04 8.055e-10
 28.72846    -19.2 1.071e+04 8.009e-10
 28.73849    -19.3 1.067e+04 7.938e-10
 28.75059    -20.4 1.048e+04 7.719e-10
 28.76062    -20.5 1.069e+04 8.602e-10
 28.77606    -20.7 1.071e+04 8.058e-10
 28.79611    -22.1 1.045e+04 6.104e-10
 28.81616    -22.5 1.031e+04 5.473e-10
 28.84633    -25.5 9.817e+03 4.117e-10
 28.88652    -31.0 1.011e+04 3.880e-10
 28.91650    -38.3 1.233e+04 7.093e-10
 28.93219    -42.9 1.390e+04 1.374e-09
 28.94221    -45.4 1.505e+04 2.477e-09
 28.95650    -47.7 1.523e+04 4.237e-09
 28.97655    -48.5 1.531e+04 5.674e-09
 28.99251    -49.1 1.536e+04 5.986e-09
 29.00254    -49.1 1.517e+04 5.844e-09
 29.01665    -49.7 1.516e+04 5.810e-09
 29.02800    -50.7 1.496e+04 4.456e-09
 29.03802    -52.1 1.468e+04 3.910e-09
 29.05675    -56.0 1.426e+04 2.710e-09
 29.07680    -60.5 1.382e+04 2.244e-09
 29.09685    -63.6 1.370e+04 2.176e-09
 29.11378    -65.6 1.353e+04 2.133e-09
 29.12381    -65.6 1.395e+04 2.911e-09
 29.13695    -66.6 1.336e+04 2.331e-09
 29.15700    -67.8 1.244e+04 1.494e-09
 29.17705    -69.5 1.132e+04 9.264e-10
 29.19710    -70.9 1.055e+04 6.432e-10
 29.20959    -72.3 1.010e+04 4.750e-10
 29.21962    -71.7 1.014e+04 4.609e-10
 29.23720    -73.9 9.464e+03 3.261e-10
 29.25656    -74.4 9.437e+03 3.113e-10
 29.26659    -74.3 9.523e+03 3.229e-10
 29.27729    -75.4 9.474e+03 3.034e-10
 29.29538    -75.9 9.731e+03 3.237e-10
 29.30550    -75.0 9.308e+03 2.700e-10
 29.32761    -75.6 9.685e+03 3.256e-10
 29.36771    -75.4 9.793e+03 4.416e-10
 29.40781    -74.7 9.760e+03 4.804e-10
 29.44791    -74.0 9.424e+03 3.859e-10
 29.47717    -73.5 8.928e+03 2.518e-10
 29.49722    -71.2 9.181e+03 3.179e-10
 29.52080    -70.7 8.712e+03 2.110e-10
 29.54085    -70.8 8.663e+03 1.774e-10
 29.56821    -70.5 8.473e+03 1.466e-10
 29.60831    -70.0 8.446e+03 1.415e-10
 29.64840    -69.4 8.582e+03 1.517e-10
 29.66879    -68.7 8.700e+03 1.735e-10
 29.68884    -66.8 8.781e+03 1.775e-10
 29.72860    -66.2 8.935e+03 2.012e-10
 29.76870    -65.6 9.096e+03 2.284e-10
 29.80880    -65.0 9.239e+03 2.543e-10
 29.84036    -64.7 9.305e+03 2.663e-10
 29.86041    -64.0 1.041e+04 4.626e-10
 29.88900    -64.8 1.082e+04 5.419e-10
 29.92910    -65.9 1.107e+04 5.764e-10
 29.96920    -67.4 1.150e+04 6.122e-10
 30.00929    -69.1 1.163e+04 9.263e-10
 30.03188    -69.7 1.208e+04 1.521e-09
 30.04180    -69.3 1.251e+04 1.900e-09
 30.05873    -69.8 1.276e+04 2.279e-09
 30.06876    -69.3 1.228e+04 1.795e-09
 30.07927    -69.6 1.259e+04 2.151e-09
 30.09932    -69.9 1.281e+04 2.413e-09
 30.11756    -70.1 1.288e+04 2.520e-09
 30.12759    -70.1 1.303e+04 2.468e-09
 30.13942    -70.4 1.289e+04 2.417e-09
 30.15947    -70.6 1.253e+04 2.086e-09
 30.17952    -70.9 1.211e+04 1.666e-09
 30.19957    -71.3 1.167e+04 1.302e-09
 30.21337    -71.6 1.128e+04 1.019e-09
 30.22340    -71.6 1.126e+04 8.703e-10
 30.23967    -71.9 1.098e+04 6.888e-10
 30.25972    -72.0 1.078e+04 5.627e-10
 30.27977    -72.1 1.064e+04 4.768e-10
 30.29916    -72.2 1.056e+04 4.205e-10
 30.30918    -72.6 1.059e+04 3.986e-10
 30.31987    -72.6 1.049e+04 3.799e-10
 30.33281    -72.4 1.039e+04 3.728e-10
 30.34283    -72.3 1.041e+04 3.729e-10
 30.37009    -72.1 1.032e+04 3.677e-10
 30.39516    -71.2 1.016e+04 3.828e-10
 30.41521    -71.8 1.012e+04 3.531e-10
 30.45038    -70.7 1.009e+04 3.559e-10
 30.49048    -69.4 1.005e+04 3.360e-10
 30.53058    -68.0 9.977e+03 2.865e-10
 30.56673    -66.5 9.866e+03 2.256e-10
 30.58678    -67.2 9.846e+03 1.732e-10
 30.59705    -65.7 9.724e+03 1.436e-10
 30.61710    -64.8 9.736e+03 1.627e-10
 30.65088    -63.2 9.597e+03 1.241e-10
 30.69098    -61.6 9.478e+03 1.011e-10
 30.73107    -59.8 9.419e+03 8.723e-11
 30.75835    -58.0 9.407e+03 8.079e-11
 30.77840    -58.2 9.271e+03 6.667e-11
 30.81127    -56.2 9.257e+03 6.425e-11
 30.85137    -54.2 9.248e+03 6.158e-11
 30.89147    -52.2 9.282e+03 5.839e-11
 30.92992    -50.4 9.324e+03 5.691e-11
 30.94997    -50.6 9.301e+03 5.337e-11
 30.97167    -49.4 9.548e+03 6.155e-11
 31.01177    -48.3 9.644e+03 8.909e-11
 31.05187    -47.1 9.684e+03 1.535e-10
 31.09196    -45.5 9.788e+03 2.466e-10
 31.12154    -43.9 9.884e+03 3.259e-10
 31.13468    -43.9 1.013e+04 3.990e-10
 31.14520    -43.3 1.031e+04 4.878e-10
 31.17216    -42.1 1.032e+04 4.967e-10
 31.21226    -41.0 1.014e+04 4.483e-10
 31.25236    -40.3 1.005e+04 4.132e-10
 31.29246    -39.7 1.006e+04 4.231e-10
 31.31316    -38.8 1.014e+04 4.735e-10
 31.33321    -38.7 1.054e+04 6.626e-10
 31.37266    -37.6 1.058e+04 6.772e-10
 31.41276    -36.5 1.052e+04 6.300e-10
 31.45285    -35.7 1.043e+04 5.971e-10
 31.48473    -35.1 1.049e+04 6.267e-10
 31.50478    -35.5 1.041e+04 5.540e-10
 31.53305    -34.7 1.041e+04 6.212e-10
 31.57315    -33.6 1.039e+04 6.666e-10
 31.61325    -32.3 1.017e+04 6.295e-10
 31.65325    -30.9 9.819e+03 5.014e-10
 31.67625    -28.9 9.526e+03 4.493e-10
 31.69640    -29.1 9.474e+03 4.102e-10
 31.73355    -27.5 9.175e+03 3.404e-10
 31.77365    -25.8 8.877e+03 2.668e-10
 31.81374    -24.0 8.661e+03 2.032e-10
 31.84792    -22.5 8.540e+03 1.553e-10
 31.86797    -22.5 8.538e+03 1.390e-10
 31.89394    -21.3 8.431e+03 1.242e-10
 31.93404    -19.9 8.358e+03 1.206e-10
 31.97414    -18.2 8.262e+03 1.173e-10
 32.01424    -16.4 8.198e+03 1.044e-10
 32.03954    -14.9 8.179e+03 8.892e-11
 32.05959    -15.0 8.224e+03 8.483e-11
 32.09444    -14.2 8.250e+03 8.051e-11
 32.13454    -13.8 8.490e+03 9.323e-11
 32.17464    -13.1 8.598e+03 1.407e-10
 32.20140    -11.5 8.789e+03 2.043e-10
 32.21782    -10.7 8.762e+03 2.052e-10
 32.23116    -11.0 9.072e+03 2.522e-10
 32.25483     -9.7 9.240e+03 2.572e-10
 32.29493     -9.0 9.295e+03 2.509e-10
 32.33503     -8.6 9.434e+03 2.665e-10
 32.37513     -8.9 9.816e+03 3.721e-10
 32.40273     -9.6 1.121e+04 8.506e-10
 32.42278    -10.1 1.127e+04 7.871e-10
 32.44520    -11.0 1.222e+04 1.257e-09
 32.46516    -11.4 1.281e+04 1.915e-09
 32.48521    -10.0 1.319e+04 2.972e-09
 32.49834     -8.5 1.334e+04 2.975e-09
 32.50837     -8.9 1.310e+04 2.416e-09
 32.52531     -8.7 1.331e+04 1.907e-09
 32.54535    -10.3 1.301e+04 1.574e-09
 32.57420    -11.7 1.214e+04 1.287e-09
 32.59435    -12.1 1.238e+04 1.485e-09
 32.61572    -12.0 1.188e+04 1.540e-09
 32.65582    -10.3 1.142e+04 9.527e-10
 32.69592    -11.2 1.092e+04 5.113e-10
 32.72949    -13.8 1.014e+04 3.638e-10
 32.74954    -15.7 9.697e+03 3.577e-10
 32.76592    -16.3 9.273e+03 2.994e-10
 32.78597    -16.5 9.268e+03 3.154e-10
 32.81622    -16.3 8.839e+03 2.532e-10
 32.85632    -15.4 8.573e+03 1.921e-10
 32.89642    -15.6 8.871e+03 1.309e-10
 32.93651    -20.3 1.074e+04 1.328e-10
 32.95754    -24.8 1.107e+04 4.727e-10
 32.96746    -25.4 1.255e+04 9.127e-10
 32.98644    -25.4 1.248e+04 1.307e-09
 33.00337    -24.9 1.309e+04 1.862e-09
 33.01340    -24.1 1.148e+04 1.058e-09
 33.02654    -23.9 1.173e+04 1.309e-09
 33.04312    -23.2 1.220e+04 1.484e-09
 33.05315    -23.7 1.243e+04 1.517e-09
 33.06664    -23.9 1.221e+04 1.315e-09
 33.09681    -25.7 1.146e+04 8.697e-10
 33.12910    -26.9 1.048e+04 5.320e-10
 33.14915    -27.9 1.129e+04 8.499e-10
 33.17711    -27.8 1.102e+04 8.261e-10
 33.21721    -27.5 1.100e+04 8.880e-10
 33.25731    -27.4 1.120e+04 1.034e-09
 33.27764    -27.0 1.148e+04 1.227e-09
 33.29769    -26.3 1.164e+04 1.222e-09
 33.32072    -26.4 1.202e+04 1.433e-09
 33.34077    -27.7 1.232e+04 1.634e-09
 33.37760    -28.4 1.228e+04 1.544e-09
 33.40641    -29.3 1.190e+04 1.297e-09
 33.41634    -30.0 1.198e+04 1.293e-09
 33.42753    -30.3 1.210e+04 1.325e-09
 33.44758    -31.6 1.219e+04 1.425e-09
 33.46763    -32.1 1.234e+04 1.516e-09
 33.48768    -32.6 1.252e+04 1.685e-09
 33.50212    -32.8 1.254e+04 1.702e-09
 33.51215    -33.4 1.256e+04 1.678e-09
 33.52778    -33.5 1.235e+04 1.535e-09
 33.54150    -33.6 1.211e+04 1.328e-09
 33.55152    -34.0 1.176e+04 1.037e-09
 33.56788    -34.3 1.143e+04 8.679e-10
 33.58791    -34.4 1.119e+04 7.446e-10
 33.60796    -34.7 1.086e+04 6.422e-10
 33.62802    -34.5 1.067e+04 5.518e-10
 33.64807    -34.3 1.045e+04 4.720e-10
 33.66812    -34.0 1.028e+04 4.227e-10
 33.68382    -33.3 1.061e+04 4.505e-10
 33.70396    -33.4 1.073e+04 4.872e-10
 33.73849    -32.8 1.126e+04 4.641e-10
 33.77859    -32.4 1.114e+04 3.934e-10
 33.80574    -32.2 1.074e+04 3.961e-10
 33.82579    -31.7 9.322e+03 1.507e-10
 33.85548    -31.2 9.388e+03 1.708e-10
 33.87553    -30.7 9.639e+03 2.156e-10
 33.89889    -29.7 9.740e+03 2.554e-10
 33.93899    -28.9 9.755e+03 3.110e-10
 33.97909    -28.2 9.954e+03 3.776e-10
 34.01918    -27.9 1.016e+04 4.382e-10
 34.04710    -28.2 1.029e+04 4.876e-10
 34.06715    -27.7 1.028e+04 4.792e-10
 34.09938    -29.8 1.071e+04 5.664e-10
 34.13948    -33.6 1.155e+04 8.266e-10
 34.16946    -36.1 1.221e+04 1.413e-09
 34.18941    -37.0 1.230e+04 1.761e-09
 34.20946    -37.2 1.241e+04 1.922e-09
 34.22850    -38.0 1.230e+04 1.767e-09
 34.23853    -37.6 1.213e+04 1.621e-09
 34.24956    -38.8 1.170e+04 1.170e-09
 34.26961    -40.4 1.118e+04 8.753e-10
 34.28966    -41.3 1.079e+04 7.345e-10
 34.30971    -41.8 1.060e+04 6.742e-10
 34.32431    -42.1 1.052e+04 6.486e-10
 34.33433    -42.0 1.024e+04 5.267e-10
 34.34367    -42.1 1.029e+04 5.507e-10
 34.35379    -42.4 1.028e+04 5.450e-10
 34.38007    -42.2 1.033e+04 5.621e-10
 34.41029    -43.3 1.118e+04 7.845e-10
 34.43034    -44.1 1.152e+04 9.141e-10
 34.45015    -45.2 1.250e+04 1.639e-09
 34.47010    -46.2 1.340e+04 2.371e-09
 34.49015    -47.2 1.427e+04 3.249e-09
 34.50590    -48.4 1.471e+04 3.920e-09
 34.51593    -47.5 1.505e+04 4.418e-09
 34.53025    -48.7 1.511e+04 4.478e-09
 34.55030    -49.9 1.462e+04 3.889e-09
 34.57035    -50.6 1.407e+04 3.082e-09
 34.59040    -51.5 1.346e+04 2.097e-09
 34.60181    -53.7 1.218e+04 1.023e-09
 34.60910    -52.6 1.285e+04 1.653e-09
 34.61774    -52.7 1.237e+04 1.263e-09
 34.63050    -54.0 1.166e+04 9.022e-10
 34.66067    -54.4 1.151e+04 8.765e-10
 34.70087    -55.3 1.066e+04 5.000e-10
 34.74096    -56.8 9.905e+03 2.984e-10
 34.77348    -59.0 9.441e+03 2.183e-10
 34.79353    -58.1 1.017e+04 3.315e-10
 34.82116    -62.7 1.014e+04 2.909e-10
 34.86126    -67.8 1.071e+04 3.926e-10
 34.88199    -70.8 1.084e+04 6.603e-10
 34.90204    -71.2 1.029e+04 5.335e-10
 34.94146    -72.2 1.040e+04 6.687e-10
 34.96510    -72.8 1.037e+04 6.844e-10
 34.98515    -74.7 1.041e+04 7.180e-10
 35.02166    -74.9 1.013e+04 6.196e-10
 35.06176    -75.0 9.852e+03 5.341e-10
 35.10185    -74.7 9.728e+03 5.040e-10
 35.13667    -74.2 9.702e+03 5.017e-10
 35.15672    -74.9 9.566e+03 4.780e-10
 35.18205    -74.1 9.630e+03 4.982e-10
 35.22215    -73.2 9.700e+03 5.200e-10
 35.26225    -72.5 9.770e+03 5.401e-10
 35.30235    -71.9 9.894e+03 5.669e-10
 35.32829    -71.5 1.009e+04 6.106e-10
 35.34834    -71.7 9.834e+03 5.252e-10
 35.38255    -71.4 9.996e+03 5.761e-10
 35.41008    -70.9 1.004e+04 5.897e-10
 35.43013    -69.7 1.013e+04 6.354e-10
 35.46275    -69.1 1.014e+04 6.330e-10
 35.49986    -68.6 1.002e+04 5.300e-10
 35.51991    -68.4 9.841e+03 5.036e-10
 35.54294    -68.0 9.581e+03 3.595e-10
 35.58304    -68.1 9.465e+03 2.879e-10
 35.62314    -68.6 9.503e+03 2.824e-10
 35.66324    -69.5 1.000e+04 3.940e-10
 35.69148    -70.1 1.052e+04 5.915e-10
 35.71153    -69.1 1.013e+04 4.600e-10
 35.74344    -69.6 1.042e+04 5.525e-10
 35.78354    -70.4 1.047e+04 5.390e-10
 35.82364    -70.9 1.028e+04 3.908e-10
 35.86305    -71.7 9.866e+03 2.665e-10
 35.88309    -71.1 1.008e+04 3.038e-10
 35.90383    -71.7 9.764e+03 2.502e-10
 35.93818    -71.9 9.542e+03 2.315e-10
 35.95823    -71.5 9.825e+03 2.954e-10
 35.98403    -71.5 9.797e+03 3.363e-10
 36.02413    -71.3 9.724e+03 3.596e-10
 36.05466    -71.0 9.723e+03 3.712e-10
 36.07471    -70.6 9.825e+03 4.176e-10
 36.10433    -70.1 9.633e+03 3.720e-10
 36.14443    -69.6 9.356e+03 2.717e-10
 36.18453    -69.4 9.106e+03 1.990e-10
 36.22462    -69.3 8.906e+03 1.650e-10
 36.24628    -68.8 8.744e+03 1.504e-10
 36.26633    -68.0 8.750e+03 1.492e-10
 36.30482    -67.3 8.651e+03 1.419e-10
 36.34492    -66.4 8.577e+03 1.350e-10
 36.38502    -65.6 8.530e+03 1.250e-10
 36.41785    -64.9 8.535e+03 1.173e-10
 36.43790    -64.4 8.622e+03 1.426e-10
 36.46522    -63.8 8.630e+03 1.371e-10
 36.48633    -63.5 8.690e+03 1.390e-10
 36.50638    -63.4 8.737e+03 1.423e-10
 36.54542    -63.0 8.820e+03 1.521e-10
 36.58551    -62.4 8.896e+03 1.698e-10
 36.60947    -61.7 8.918e+03 1.757e-10
 36.62952    -61.4 8.959e+03 1.794e-10
 36.66571    -60.7 8.911e+03 1.684e-10
 36.70581    -59.8 8.843e+03 1.499e-10
 36.74591    -59.0 8.757e+03 1.331e-10
 36.78104    -58.0 8.690e+03 1.246e-10
 36.80109    -57.7 8.753e+03 1.275e-10
 36.82611    -56.5 8.757e+03 1.295e-10
 36.86621    -55.4 8.820e+03 1.414e-10
 36.90631    -54.5 8.959e+03 1.699e-10
 36.94640    -53.8 9.195e+03 2.294e-10
 36.97266    -53.1 9.564e+03 3.395e-10
 36.99271    -52.7 9.798e+03 4.100e-10
 37.01443    -51.8 1.024e+04 5.849e-10
 37.03448    -51.1 1.014e+04 5.286e-10
 37.06670    -50.4 1.048e+04 6.695e-10
 37.10680    -50.0 1.062e+04 7.147e-10
 37.14423    -49.9 1.064e+04 6.840e-10
 37.16428    -49.3 1.054e+04 6.165e-10
 37.18700    -50.7 1.090e+04 6.308e-10
 37.22710    -55.6 1.222e+04 9.892e-10
 37.24997    -59.6 1.275e+04 1.468e-09
 37.25989    -60.2 1.326e+04 1.874e-09
 37.27703    -62.5 1.381e+04 2.428e-09
 37.28831    -64.7 1.404e+04 2.682e-09
 37.29833    -64.2 1.441e+04 3.172e-09
 37.31712    -66.3 1.436e+04 3.144e-09
 37.33565    -68.1 1.384e+04 2.277e-09
 37.34568    -68.6 1.380e+04 2.080e-09
 37.35722    -71.5 1.255e+04 1.089e-09
 37.37727    -73.9 1.149e+04 6.671e-10
 37.39732    -75.0 1.098e+04 4.991e-10
 37.41737    -75.5 1.079e+04 4.153e-10
 37.43146    -75.8 1.071e+04 3.662e-10
 37.44149    -76.0 1.072e+04 2.992e-10
 37.45747    -76.1 1.075e+04 2.834e-10
 37.47752    -76.1 1.076e+04 2.798e-10
 37.49757    -76.7 1.097e+04 2.887e-10
 37.51725    -80.1 1.229e+04 4.260e-10
 37.52727    -79.5 1.180e+04 3.502e-10
 37.53767    -82.1 1.277e+04 7.990e-10
 37.55236    -83.1 1.360e+04 1.665e-09
 37.56238    -82.3 1.307e+04 1.314e-09
 37.57777    -82.8 1.385e+04 1.998e-09
 37.59782    -83.6 1.429e+04 2.282e-09
 37.61306    -85.0 1.434e+04 2.249e-09
 37.62308    -84.9 1.381e+04 1.629e-09
 37.63792    -87.1 1.386e+04 1.315e-09
 37.65796    -90.8 1.407e+04 1.112e-09
 37.67801    -96.4 1.534e+04 1.110e-09
 37.69806   -101.8 1.634e+04 1.894e-09
 37.70887   -104.9 1.640e+04 3.518e-09
 37.71889   -106.5 1.711e+04 6.642e-09
 37.73816   -107.9 1.715e+04 7.618e-09
 37.75821   -109.5 1.691e+04 7.024e-09
 37.77826   -111.6 1.615e+04 4.760e-09
 37.79465   -114.2 1.509e+04 2.895e-09
 37.80468   -116.2 1.465e+04 2.142e-09
 37.81641   -118.9 1.329e+04 1.293e-09
 37.82643   -118.1 1.372e+04 1.426e-09
 37.83841   -120.2 1.261e+04 9.520e-10
 37.85846   -121.2 1.220e+04 7.629e-10
 37.87851   -121.7 1.199e+04 6.599e-10
 37.89046   -122.1 1.183e+04 6.054e-10
 37.90049   -122.7 1.179e+04 5.540e-10
 37.91861   -122.8 1.177e+04 5.481e-10
 37.93866   -123.0 1.180e+04 5.524e-10
 37.95871   -123.2 1.189e+04 5.984e-10
 37.97625   -123.4 1.196e+04 6.741e-10
 37.98627   -123.7 1.209e+04 6.635e-10
 37.99881   -123.8 1.214e+04 7.750e-10
 38.01885   -123.8 1.219e+04 8.835e-10
 38.03890   -123.7 1.222e+04 9.735e-10
 38.05895   -123.4 1.222e+04 1.030e-09
 38.07206   -123.0 1.220e+04 1.046e-09
 38.08208   -123.2 1.226e+04 1.006e-09
 38.09048   -122.8 1.212e+04 9.964e-10
 38.10050   -122.4 1.214e+04 9.194e-10
 38.11910   -121.8 1.206e+04 9.235e-10
 38.13915   -121.3 1.197e+04 8.972e-10
 38.15784   -121.0 1.192e+04 8.508e-10
 38.16787   -121.2 1.191e+04 8.065e-10
 38.17925   -120.8 1.190e+04 8.302e-10
 38.19930   -120.5 1.194e+04 8.663e-10
 38.21935   -120.4 1.213e+04 9.744e-10
 38.23940   -120.3 1.239e+04 1.157e-09
 38.25365   -120.2 1.268e+04 1.392e-09
 38.26368   -120.2 1.273e+04 1.455e-09
 38.27950   -120.1 1.305e+04 1.752e-09
 38.29955   -120.0 1.326e+04 1.986e-09
 38.31960   -120.0 1.330e+04 2.074e-09
 38.33944   -120.0 1.328e+04 2.080e-09
 38.34946   -119.9 1.332e+04 2.136e-09
 38.35453   -119.7 1.311e+04 2.033e-09
 38.36455   -119.6 1.348e+04 2.451e-09
 38.37974   -119.3 1.316e+04 2.005e-09
 38.39979   -119.1 1.279e+04 1.540e-09
 38.41984   -119.0 1.243e+04 1.139e-09
 38.43525   -118.9 1.211e+04 8.406e-10
 38.44527   -118.6 1.223e+04 1.014e-09
 38.45994   -118.5 1.197e+04 7.964e-10
 38.47999   -118.3 1.174e+04 6.481e-10
 38.50004   -118.0 1.154e+04 5.575e-10
 38.52009   -117.7 1.138e+04 5.083e-10
 38.53106   -117.3 1.127e+04 4.882e-10
 38.54108   -116.8 1.146e+04 5.648e-10
 38.56019   -116.4 1.134e+04 5.296e-10
 38.59036   -115.7 1.123e+04 4.932e-10
 38.61704   -114.1 1.121e+04 5.083e-10
 38.62520   -114.1 1.134e+04 5.583e-10
 38.62860   -114.5 1.146e+04 6.048e-10
 38.64039   -113.9 1.145e+04 6.012e-10
 38.66044   -113.4 1.148e+04 5.981e-10
 38.68049   -112.9 1.155e+04 5.885e-10
 38.70054   -112.4 1.152e+04 5.752e-10
 38.71265   -111.7 1.152e+04 5.513e-10
 38.72267   -111.6 1.156e+04 5.511e-10
 38.74063   -111.0 1.159e+04 5.287e-10
 38.76068   -110.8 1.162e+04 4.968e-10
 38.78851   -110.8 1.161e+04 4.501e-10
 38.80856   -110.0 1.170e+04 4.981e-10
 38.83096   -109.7 1.170e+04 4.957e-10
 38.87115   -108.8 1.168e+04 4.962e-10
 38.91125   -108.2 1.164e+04 4.950e-10
 38.95135   -107.5 1.150e+04 4.785e-10
 38.98022   -106.6 1.135e+04 4.285e-10
 39.00027   -106.6 1.141e+04 4.391e-10
 39.03155   -105.6 1.126e+04 3.659e-10
 39.07165   -104.5 1.112e+04 2.930e-10
 39.11175   -103.3 1.099e+04 2.301e-10
 39.14687   -101.9 1.090e+04 1.866e-10
 39.16687   -102.3 1.081e+04 1.706e-10
 39.19189   -100.8 1.090e+04 2.051e-10
 39.23204    -99.2 1.096e+04 2.057e-10
 39.27214    -97.6 1.102e+04 2.107e-10
 39.31224    -96.0 1.107e+04 2.176e-10
 39.34341    -94.3 1.110e+04 2.243e-10
 39.36346    -94.4 1.130e+04 3.129e-10
 39.39244    -92.6 1.132e+04 3.203e-10
 39.43254    -90.7 1.131e+04 3.240e-10
 39.47264    -88.9 1.130e+04 3.280e-10
 39.51273    -87.0 1.132e+04 3.348e-10
 39.53503    -85.4 1.142e+04 3.570e-10
 39.55508    -85.6 1.165e+04 4.714e-10
 39.59293    -84.1 1.196e+04 6.235e-10
 39.63303    -82.7 1.244e+04 8.925e-10
 39.67313    -81.6 1.302e+04 1.298e-09
 39.69502    -80.7 1.353e+04 1.771e-09
 39.70844    -81.4 1.339e+04 1.519e-09
 39.72665    -82.6 1.377e+04 2.058e-09
 39.74321    -81.7 1.414e+04 2.609e-09
 39.76316    -81.6 1.427e+04 2.761e-09
 39.78321    -81.7 1.442e+04 2.885e-09
 39.80222    -82.1 1.462e+04 3.061e-09
 39.81224    -83.0 1.478e+04 3.312e-09
 39.82331    -83.9 1.511e+04 3.699e-09
 39.84335    -85.2 1.557e+04 4.338e-09
 39.86340    -86.8 1.609e+04 5.221e-09
 39.88345    -88.6 1.644e+04 5.992e-09
 39.89803    -90.7 1.649e+04 6.205e-09
 39.90805    -91.9 1.600e+04 5.040e-09
 39.92355    -93.6 1.531e+04 4.370e-09
 39.94360    -95.1 1.439e+04 3.003e-09
 39.95887    -96.5 1.350e+04 1.819e-09
 39.96890    -96.9 1.345e+04 1.752e-09
 39.98370    -98.4 1.289e+04 1.144e-09
 39.99384   -100.0 1.244e+04 8.678e-10
 40.00386    -99.9 1.230e+04 7.698e-10
 40.02380   -101.0 1.208e+04 7.038e-10
 40.04385   -101.8 1.202e+04 6.933e-10
 40.06390   -102.3 1.197e+04 7.463e-10
 40.07962   -102.7 1.196e+04 8.525e-10
 40.08964   -102.3 1.178e+04 7.151e-10
 40.10400   -102.4 1.178e+04 8.040e-10
 40.12405   -102.4 1.181e+04 8.786e-10
 40.14410   -102.2 1.182e+04 9.081e-10
 40.16415   -102.2 1.180e+04 8.942e-10
 40.17543   -102.2 1.177e+04 8.159e-10
 40.18545   -101.9 1.157e+04 7.033e-10
 40.20424   -102.5 1.154e+04 6.569e-10
 40.22292   -103.2 1.151e+04 6.334e-10
 40.23295   -104.0 1.159e+04 6.524e-10
 40.24434   -104.8 1.159e+04 6.629e-10
 40.26121   -105.6 1.155e+04 6.927e-10
 40.27124   -105.3 1.151e+04 6.942e-10
 40.28444   -105.8 1.149e+04 7.114e-10
 40.30449   -106.1 1.133e+04 6.845e-10
 40.32454   -106.4 1.106e+04 5.479e-10
 40.35471   -106.9 1.075e+04 3.998e-10
 40.39491   -107.2 1.019e+04 2.218e-10
 40.43298   -107.4 9.696e+03 1.167e-10
 40.45303   -106.5 9.671e+03 1.157e-10
 40.47511   -106.2 9.387e+03 7.564e-11
 40.51521   -105.3 9.331e+03 6.710e-11
 40.55531   -104.2 9.303e+03 6.958e-11
 40.59540   -103.1 9.389e+03 9.295e-11
 40.62460   -101.6 9.468e+03 1.288e-10
 40.64465   -101.0 9.488e+03 1.235e-10
 40.67560    -99.3 9.572e+03 1.610e-10
 40.71570    -97.4 9.656e+03 1.848e-10
 40.75122    -95.5 9.680e+03 1.899e-10
 40.77127    -97.1 9.885e+03 2.210e-10
 40.79590    -95.3 9.893e+03 1.919e-10
 40.81622    -93.7 9.928e+03 1.810e-10
 40.83627    -93.3 1.010e+04 2.354e-10
 40.87610    -92.0 1.035e+04 2.470e-10
 40.91620    -91.2 1.070e+04 3.454e-10
 40.95629    -90.3 1.105e+04 5.391e-10
 40.98779    -89.3 1.140e+04 7.662e-10
 41.00784    -89.3 1.158e+04 8.764e-10
 41.03649    -88.6 1.181e+04 9.911e-10
 41.07659    -88.1 1.189e+04 9.800e-10
 41.11669    -87.9 1.159e+04 7.572e-10
 41.15679    -88.0 1.098e+04 5.548e-10
 41.17941    -87.9 1.039e+04 4.542e-10
 41.19946    -88.4 9.889e+03 3.212e-10
 41.23699    -87.4 9.847e+03 3.198e-10
 41.27709    -86.4 9.900e+03 3.596e-10
 41.29936    -85.3 1.002e+04 4.313e-10
 41.31941    -85.9 9.748e+03 2.971e-10
 41.35098    -84.7 9.948e+03 4.171e-10
 41.37103    -84.8 9.821e+03 3.811e-10
 41.39738    -83.4 9.980e+03 4.707e-10
 41.43748    -82.2 1.001e+04 4.887e-10
 41.47758    -81.1 9.931e+03 4.764e-10
 41.51768    -79.7 9.676e+03 4.012e-10
 41.54260    -78.3 9.451e+03 3.214e-10
 41.56264    -78.1 9.347e+03 2.814e-10
 41.59788    -76.8 9.273e+03 2.497e-10
 41.63798    -75.6 9.242e+03 2.351e-10
 41.67807    -74.4 9.218e+03 2.295e-10
 41.71416    -73.2 9.197e+03 2.258e-10
 41.73421    -72.8 9.257e+03 2.290e-10
 41.75827    -72.4 9.300e+03 2.292e-10
 41.79837    -74.4 1.129e+04 2.403e-10
 41.81990    -80.0 1.386e+04 3.585e-10
 41.82884    -81.9 1.496e+04 5.718e-10
 41.83729    -84.5 1.521e+04 1.883e-09
 41.84830    -85.4 1.545e+04 4.355e-09
 41.86835    -85.3 1.575e+04 7.653e-09
 41.88840    -84.7 1.610e+04 9.672e-09
 41.90559    -84.1 1.623e+04 1.006e-08
 41.91561    -84.1 1.694e+04 1.184e-08
 41.92850    -83.9 1.669e+04 8.144e-09
 41.94855    -85.1 1.618e+04 4.636e-09
 41.96860    -88.5 1.510e+04 2.408e-09
 41.98865    -92.2 1.320e+04 1.526e-09
 42.00140    -93.9 1.258e+04 1.351e-09
 42.01142    -94.7 1.263e+04 1.502e-09
 42.02875    -95.1 1.274e+04 1.655e-09
 42.04879    -95.6 1.287e+04 1.799e-09
 42.06884    -96.1 1.288e+04 1.858e-09
 42.08718    -96.7 1.286e+04 1.877e-09
 42.09721    -97.0 1.320e+04 2.194e-09
 42.10134    -97.6 1.324e+04 2.143e-09
 42.11137    -98.3 1.303e+04 1.862e-09
 42.12899    -98.9 1.291e+04 1.702e-09
 42.14904    -99.4 1.283e+04 1.615e-09
 42.16909    -99.8 1.275e+04 1.538e-09
 42.18299   -100.2 1.260e+04 1.436e-09
 42.19302   -101.1 1.273e+04 1.461e-09
 42.20919   -101.4 1.262e+04 1.399e-09
 42.22924   -101.8 1.244e+04 1.326e-09
 42.24929   -102.1 1.221e+04 1.238e-09
 42.26878   -102.3 1.197e+04 1.149e-09
 42.27880   -103.0 1.248e+04 1.447e-09
 42.28939   -103.0 1.229e+04 1.385e-09
 42.30944   -102.8 1.217e+04 1.334e-09
 42.32949   -102.7 1.216e+04 1.305e-09
 42.34954   -102.6 1.220e+04 1.299e-09
 42.36459   -102.7 1.234e+04 1.325e-09
 42.37042   -103.2 1.256e+04 1.497e-09
 42.37541   -104.1 1.243e+04 1.398e-09
 42.39976   -104.5 1.252e+04 1.436e-09
 42.43995   -104.7 1.282e+04 1.710e-09
 42.46049   -104.6 1.319e+04 2.060e-09
 42.47042   -104.9 1.335e+04 2.223e-09
 42.48988   -104.7 1.345e+04 2.296e-09
 42.50993   -104.5 1.348e+04 2.302e-09
 42.52998   -104.1 1.345e+04 2.185e-09
 42.54618   -103.6 1.332e+04 1.979e-09
 42.55621   -103.8 1.359e+04 2.222e-09
 42.57008   -103.2 1.357e+04 2.110e-09
 42.59013   -103.1 1.364e+04 2.093e-09
 42.61018   -107.1 1.814e+04 2.050e-09
 42.62944   -119.5 2.753e+04 5.733e-09
 42.63946   -120.9 2.368e+04 5.104e-09
 42.64194   -128.7 2.446e+04 1.571e-08
 42.64691   -130.4 2.498e+04 1.975e-08
 42.65519   -133.9 2.331e+04 3.036e-08
 42.66522   -136.8 2.265e+04 3.427e-08
 42.67524   -139.0 2.136e+04 3.476e-08
 42.68479   -141.0 2.043e+04 2.507e-08
 42.68980   -141.3 2.040e+04 2.687e-08
 42.69529   -143.7 1.997e+04 1.285e-08
 42.70532   -147.6 1.900e+04 5.163e-09
 42.71534   -151.9 1.705e+04 2.324e-09
 42.72773   -155.3 1.501e+04 1.348e-09
 42.73780   -155.9 1.447e+04 1.162e-09
 42.75053   -159.3 1.243e+04 6.678e-10
 42.77057   -160.4 1.168e+04 5.100e-10
 42.79062   -160.4 1.155e+04 4.829e-10
 42.81067   -160.3 1.151e+04 4.746e-10
 42.82359   -160.1 1.150e+04 4.634e-10
 42.83361   -160.0 1.146e+04 4.924e-10
 42.85077   -159.9 1.148e+04 4.789e-10
 42.87082   -160.0 1.147e+04 4.562e-10
 42.89087   -160.1 1.143e+04 4.384e-10
 42.90361   -160.3 1.135e+04 4.242e-10
 42.92376   -159.6 1.143e+04 4.946e-10
 42.96124   -159.4 1.134e+04 4.552e-10
 42.99535   -159.1 1.115e+04 3.863e-10
 43.01540   -159.1 1.100e+04 3.785e-10
 43.04144   -158.2 1.076e+04 2.956e-10
 43.08154   -157.0 1.053e+04 2.182e-10
 43.12164   -155.6 1.038e+04 1.617e-10
 43.16173   -154.3 1.040e+04 1.297e-10
 43.18697   -152.9 1.050e+04 1.177e-10
 43.20702   -152.8 1.052e+04 1.437e-10
 43.24193   -151.5 1.061e+04 1.434e-10
 43.28203   -150.3 1.071e+04 1.472e-10
 43.32213   -149.1 1.074e+04 1.519e-10
 43.35854   -147.8 1.073e+04 1.536e-10
 43.37859   -147.8 1.088e+04 2.239e-10
 43.40233   -146.4 1.074e+04 2.151e-10
 43.43181   -144.8 1.062e+04 1.991e-10
 43.45186   -144.5 1.083e+04 2.022e-10
 43.48253   -143.1 1.086e+04 2.009e-10
 43.52262   -141.6 1.086e+04 2.130e-10
 43.55016   -140.1 1.078e+04 2.345e-10
 43.57021   -140.1 1.096e+04 3.560e-10
 43.60282   -138.5 1.087e+04 3.750e-10
 43.64292   -136.9 1.076e+04 3.870e-10
 43.68302   -135.2 1.066e+04 3.886e-10
 43.72173   -133.4 1.057e+04 3.830e-10
 43.74178   -133.3 1.073e+04 4.913e-10
 43.76322   -131.5 1.062e+04 4.522e-10
 43.80332   -129.5 1.052e+04 4.143e-10
 43.84342   -127.6 1.041e+04 3.820e-10
 43.88351   -125.6 1.030e+04 3.582e-10
 43.91335   -123.6 1.024e+04 3.453e-10
 43.93340   -123.5 1.022e+04 3.447e-10
 43.95990   -121.4 1.021e+04 3.419e-10
 43.97995   -122.0 1.026e+04 3.550e-10
 44.00381   -120.1 1.028e+04 3.861e-10
 44.04391   -118.2 1.036e+04 4.296e-10
 44.08401   -116.4 1.042e+04 4.540e-10
 44.10497   -114.8 1.045e+04 4.568e-10
 44.12502   -114.6 1.012e+04 3.324e-10
 44.16421   -113.0 1.012e+04 3.228e-10
 44.20431   -111.5 1.012e+04 3.198e-10
 44.24440   -110.2 1.026e+04 3.387e-10
 44.27654   -109.1 1.047e+04 4.173e-10
 44.29659   -108.7 1.027e+04 3.082e-10
 44.32460   -107.6 1.048e+04 4.112e-10
 44.36470   -106.5 1.064e+04 5.175e-10
 44.40480   -105.5 1.069e+04 5.784e-10
 44.44490   -104.6 1.067e+04 5.888e-10
 44.46815   -103.6 1.048e+04 5.133e-10
 44.48820   -103.3 1.053e+04 5.215e-10
 44.50805   -102.4 1.042e+04 4.607e-10
 44.52810   -103.6 1.072e+04 5.688e-10
 44.56520   -102.7 1.060e+04 5.289e-10
 44.60529   -101.8 1.048e+04 4.833e-10
 44.63972   -100.9 1.040e+04 4.578e-10
 44.65977   -101.0 1.053e+04 4.989e-10
 44.68549   -100.3 1.052e+04 4.955e-10
 44.72559    -99.7 1.061e+04 5.365e-10
 44.76569    -99.1 1.069e+04 5.570e-10
 44.80579    -98.7 1.073e+04 5.530e-10
 44.83134    -98.3 1.065e+04 4.746e-10
 44.85139    -98.6 1.055e+04 4.570e-10
 44.88599    -98.2 1.038e+04 3.613e-10
 44.92609    -98.0 1.023e+04 2.845e-10
 44.96618    -97.7 1.007e+04 2.409e-10
 45.00291    -97.1 9.925e+03 2.206e-10
 45.02296    -97.2 9.793e+03 2.117e-10
 45.03615    -96.5 9.704e+03 1.937e-10
 45.05620    -96.7 9.508e+03 1.514e-10
 45.08648    -95.6 9.389e+03 1.254e-10
 45.12658    -94.6 9.379e+03 1.124e-10
 45.16668    -93.6 9.400e+03 1.098e-10
 45.19453    -92.8 9.594e+03 1.240e-10
 45.21458    -93.1 9.612e+03 1.326e-10
 45.24688    -92.4 9.832e+03 1.803e-10
 45.28698    -91.4 1.005e+04 2.401e-10
 45.32708    -90.6 1.022e+04 2.893e-10
 45.36610    -90.0 1.033e+04 3.206e-10
 45.38615    -90.5 1.026e+04 2.980e-10
 45.40727    -90.4 1.035e+04 3.026e-10
 45.44737    -90.8 1.061e+04 3.256e-10
 45.47184    -90.7 1.091e+04 3.770e-10
 45.48177    -91.4 1.108e+04 3.991e-10
 45.49730    -91.5 1.115e+04 3.947e-10
 45.51735    -92.6 1.162e+04 4.718e-10
 45.53740    -94.0 1.187e+04 7.470e-10
 45.55745    -94.5 1.197e+04 1.082e-09
 45.57408    -94.8 1.197e+04 1.265e-09
 45.58410    -94.0 1.168e+04 9.435e-10
 45.59755    -94.1 1.178e+04 1.103e-09
 45.61760    -94.4 1.182e+04 1.141e-09
 45.63765    -94.9 1.179e+04 1.122e-09
 45.65334    -95.5 1.167e+04 1.015e-09
 45.66336    -95.6 1.165e+04 1.005e-09
 45.67775    -96.2 1.157e+04 9.242e-10
 45.69779    -96.7 1.154e+04 8.851e-10
 45.71784    -97.0 1.154e+04 8.749e-10
 45.73789    -97.4 1.157e+04 8.783e-10
 45.74915    -98.5 1.156e+04 8.898e-10
 45.75917    -98.5 1.156e+04 8.969e-10
 45.77799    -99.0 1.156e+04 9.290e-10
 45.79804    -99.8 1.148e+04 9.735e-10
 45.81809   -100.0 1.144e+04 1.008e-09
 45.83493   -100.1 1.141e+04 1.025e-09
 45.84494   -100.3 1.123e+04 9.006e-10
 45.85818    -99.8 1.102e+04 7.800e-10
 45.87824    -99.8 1.092e+04 7.469e-10
 45.89829    -99.8 1.083e+04 7.095e-10
 45.91834    -99.7 1.072e+04 6.638e-10
 45.93074    -99.5 1.059e+04 6.155e-10
 45.94076    -99.6 1.044e+04 5.339e-10
 45.96856    -99.3 1.029e+04 4.776e-10
 46.00876    -98.7 1.003e+04 3.958e-10
 46.04886    -97.5 9.782e+03 2.933e-10
 46.08895    -96.5 9.546e+03 2.108e-10
 46.11240    -95.3 9.394e+03 1.506e-10
 46.13245    -94.5 9.501e+03 1.765e-10
 46.16915    -93.4 9.438e+03 1.480e-10
 46.20925    -92.2 9.410e+03 1.206e-10
 46.24935    -91.0 9.406e+03 9.848e-11
 46.28410    -89.8 9.422e+03 8.454e-11
 46.30415    -89.8 9.433e+03 9.576e-11
 46.32955    -88.7 9.464e+03 8.760e-11
 46.36965    -87.7 9.491e+03 8.643e-11
 46.40975    -87.0 9.719e+03 9.727e-11
 46.44984    -86.5 9.827e+03 1.372e-10
 46.47572    -85.8 9.934e+03 1.913e-10
 46.49577    -86.0 9.970e+03 2.112e-10
 46.53004    -85.2 1.011e+04 2.585e-10
 46.57014    -84.6 1.016e+04 2.681e-10
 46.61024    -83.9 1.011e+04 2.290e-10
 46.64049    -83.0 1.001e+04 1.454e-10
 46.65749    -83.3 9.980e+03 1.238e-10
 46.66734    -83.4 1.009e+04 1.226e-10
 46.69044    -83.1 9.908e+03 8.007e-11
 46.73054    -82.7 9.776e+03 6.936e-11
 46.77064    -82.2 9.757e+03 6.801e-11
 46.81073    -82.2 9.791e+03 7.945e-11
 46.83891    -82.6 9.878e+03 1.406e-10
 46.85896    -82.5 9.910e+03 1.308e-10
 46.89093    -83.0 1.027e+04 2.701e-10
 46.93103    -83.7 1.075e+04 5.350e-10
 46.97113    -84.3 1.111e+04 8.288e-10
 47.01048    -84.6 1.117e+04 9.145e-10
 47.03053    -84.7 1.140e+04 1.052e-09
 47.05133    -84.8 1.099e+04 9.073e-10
 47.09143    -84.7 1.031e+04 4.746e-10
 47.13153    -84.8 9.665e+03 2.223e-10
 47.16859    -84.6 9.106e+03 1.398e-10
 47.18864    -83.5 9.603e+03 2.730e-10
 47.20210    -82.6 9.028e+03 1.834e-10
 47.22214    -82.8 9.251e+03 2.497e-10
 47.25182    -81.4 8.983e+03 2.097e-10
 47.29192    -79.8 8.927e+03 2.019e-10
 47.33202    -78.6 9.059e+03 2.105e-10
 47.37212    -77.9 9.445e+03 2.825e-10
 47.39371    -77.1 9.797e+03 4.052e-10
 47.41376    -77.5 1.013e+04 5.283e-10
 47.45232    -76.9 1.024e+04 5.917e-10
 47.49242    -76.6 1.012e+04 5.784e-10
 47.53251    -76.0 9.709e+03 4.449e-10
 47.56528    -75.5 9.239e+03 2.976e-10
 47.58533    -75.7 9.172e+03 2.599e-10
 47.61271    -75.3 8.842e+03 1.859e-10
 47.65281    -74.7 8.672e+03 1.631e-10
 47.69291    -73.8 8.631e+03 1.595e-10
 47.71674    -72.9 8.684e+03 1.722e-10
 47.73679    -72.5 8.690e+03 1.701e-10
 47.75690    -71.6 8.833e+03 1.938e-10
 47.77695    -72.3 8.933e+03 2.017e-10
 47.81321    -71.2 9.020e+03 2.195e-10
 47.85331    -70.2 9.040e+03 2.236e-10
 47.89340    -69.1 8.997e+03 2.180e-10
 47.92847    -67.9 8.932e+03 1.981e-10
 47.94852    -68.5 8.982e+03 1.854e-10
 47.97360    -67.6 8.975e+03 1.789e-10
 48.01370    -66.9 9.005e+03 1.880e-10
 48.05380    -66.7 9.162e+03 2.340e-10
 48.09390    -67.1 9.678e+03 3.485e-10
 48.12009    -68.5 1.069e+04 6.041e-10
 48.14014    -71.3 1.154e+04 9.419e-10
 48.16397    -71.7 1.170e+04 1.054e-09
 48.18393    -72.7 1.202e+04 1.368e-09
 48.20398    -73.4 1.217e+04 1.605e-09
 48.21571    -74.8 1.291e+04 2.068e-09
 48.22573    -76.7 1.364e+04 2.546e-09
 48.24407    -79.7 1.497e+04 3.470e-09
 48.25467    -83.1 1.600e+04 4.937e-09
 48.26469    -81.8 1.593e+04 4.967e-09
 48.28417    -84.7 1.655e+04 6.847e-09
 48.30149    -87.4 1.663e+04 7.531e-09
 48.31152    -89.7 1.652e+04 7.559e-09
 48.32427    -91.7 1.566e+04 6.334e-09
 48.34432    -93.9 1.450e+04 3.715e-09
 48.36437    -97.3 1.307e+04 1.950e-09
 48.38442   -100.8 1.178e+04 1.182e-09
 48.39730   -103.0 1.120e+04 9.482e-10
 48.40733   -104.1 1.102e+04 8.929e-10
 48.42452   -104.8 1.095e+04 8.734e-10
 48.44457   -105.1 1.094e+04 8.740e-10
 48.46462   -105.3 1.092e+04 8.815e-10
 48.48309   -105.2 1.087e+04 8.832e-10
 48.49311   -105.4 1.074e+04 8.441e-10
 48.50472   -104.9 1.064e+04 8.132e-10
 48.51872   -104.3 1.055e+04 7.729e-10
 48.52874   -104.4 1.065e+04 8.174e-10
 48.54482   -103.7 1.056e+04 7.675e-10
 48.56487   -102.8 1.052e+04 7.294e-10
 48.57890   -102.0 1.052e+04 7.100e-10
 48.58892   -102.0 1.041e+04 6.423e-10
 48.60497   -101.3 1.043e+04 6.409e-10
 48.62501   -100.6 1.053e+04 6.564e-10
 48.64506   -100.0 1.064e+04 7.234e-10
 48.66468    -99.4 1.078e+04 8.262e-10
 48.67470    -99.4 1.068e+04 7.765e-10
 48.68516    -98.8 1.086e+04 9.082e-10
 48.70521    -98.2 1.112e+04 1.054e-09
 48.72526    -97.8 1.136e+04 1.181e-09
 48.74531    -97.6 1.151e+04 1.258e-09
 48.76049    -97.5 1.154e+04 1.276e-09
 48.77051    -97.3 1.137e+04 1.174e-09
 48.78277    -97.1 1.130e+04 1.168e-09
 48.79279    -96.9 1.178e+04 1.484e-09
 48.80546    -96.4 1.147e+04 1.365e-09
 48.82551    -95.6 1.105e+04 1.122e-09
 48.84556    -94.8 1.066e+04 8.978e-10
 48.85630    -93.9 1.035e+04 7.049e-10
 48.86632    -93.8 1.035e+04 7.269e-10
 48.88566    -92.9 1.013e+04 5.811e-10
 48.90571    -92.2 9.952e+03 4.687e-10
 48.92576    -91.5 9.804e+03 4.022e-10
 48.94208    -90.7 9.662e+03 3.569e-10
 48.95211    -90.6 9.718e+03 3.721e-10
 48.96586    -89.7 9.596e+03 3.320e-10
 48.98590    -88.8 9.544e+03 3.135e-10
 49.00595    -87.8 9.564e+03 3.090e-10
 49.02600    -87.3 9.686e+03 3.140e-10
 49.03789    -87.1 1.000e+04 3.557e-10
 49.04792    -87.3 1.003e+04 3.773e-10
 49.05684    -87.5 1.028e+04 4.501e-10
 49.06687    -87.2 1.055e+04 5.368e-10
 49.08615    -87.7 1.100e+04 7.180e-10
 49.10620    -88.6 1.153e+04 1.079e-09
 49.12368    -89.2 1.227e+04 1.603e-09
 49.13370    -89.6 1.256e+04 1.778e-09
 49.14630    -89.9 1.322e+04 2.486e-09
 49.16635    -90.1 1.383e+04 3.105e-09
 49.18640    -90.2 1.434e+04 3.395e-09
 49.20645    -90.2 1.469e+04 3.437e-09
 49.21949    -90.2 1.508e+04 3.285e-09
 49.22951    -90.6 1.551e+04 3.539e-09
 49.24655    -90.7 1.583e+04 3.482e-09
 49.26660    -90.5 1.610e+04 3.572e-09
 49.28665    -89.9 1.623e+04 3.713e-09
 49.30527    -89.0 1.637e+04 3.898e-09
 49.31530    -89.0 1.706e+04 4.260e-09
 49.32089    -88.1 1.752e+04 4.577e-09
 49.33091    -89.8 1.778e+04 9.344e-09
 49.34679    -89.3 1.774e+04 1.002e-08
 49.36684    -89.2 1.781e+04 1.127e-08
 49.38689    -89.2 1.789e+04 1.336e-08
 49.40108    -89.3 1.796e+04 1.665e-08
 49.41111    -89.1 1.768e+04 1.697e-08
 49.42699    -88.4 1.767e+04 1.948e-08
 49.44704    -87.2 1.804e+04 2.073e-08
 49.45788    -86.2 1.831e+04 2.263e-08
 49.46284    -86.1 1.882e+04 1.477e-08
 49.47201    -86.0 1.960e+04 1.303e-08
 49.48203    -86.0 2.050e+04 1.082e-08
 49.49178    -86.1 2.104e+04 8.693e-09
 49.49679    -86.5 2.057e+04 6.824e-09
 49.50208    -88.2 1.967e+04 4.488e-09
 49.51211    -90.8 1.683e+04 2.786e-09
 49.52213    -93.0 1.448e+04 1.947e-09
 49.53215    -93.5 1.383e+04 1.718e-09
 49.54724    -94.7 1.238e+04 1.279e-09
 49.56734    -95.8 1.128e+04 9.629e-10
 49.58268    -96.0 1.113e+04 9.076e-10
 49.59025    -96.1 1.085e+04 7.807e-10
 49.59496    -96.3 1.079e+04 7.791e-10
 49.60744    -96.4 1.097e+04 8.178e-10
 49.62749    -96.5 1.109e+04 9.258e-10
 49.64754    -96.3 1.118e+04 1.069e-09
 49.66759    -95.9 1.128e+04 1.217e-09
 49.67849    -95.3 1.135e+04 1.331e-09
 49.68851    -95.3 1.114e+04 1.167e-09
 49.70768    -94.7 1.116e+04 1.193e-09
 49.72773    -94.2 1.112e+04 1.149e-09
 49.74778    -93.7 1.097e+04 9.962e-10
 49.76427    -93.5 1.074e+04 8.002e-10
 49.77430    -93.6 1.057e+04 7.434e-10
 49.78788    -93.6 1.031e+04 5.869e-10
 49.80793    -93.8 1.003e+04 4.550e-10
 49.82798    -94.0 9.811e+03 3.637e-10
 49.84803    -94.1 9.661e+03 3.087e-10
 49.85901    -94.2 9.529e+03 2.765e-10
 49.86914    -95.4 9.417e+03 2.379e-10
 49.89835    -95.3 9.305e+03 2.152e-10
 49.93604    -95.1 9.255e+03 2.058e-10
 49.95609    -95.1 9.110e+03 1.772e-10
 49.97855    -95.1 9.098e+03 1.740e-10
 50.01865    -95.8 9.453e+03 2.081e-10
 50.04177    -96.4 9.931e+03 2.927e-10
 50.05170    -97.6 1.013e+04 3.237e-10
 50.06857    -98.1 1.018e+04 3.397e-10
 50.08862   -101.0 1.083e+04 6.067e-10
 50.10867   -103.1 1.175e+04 1.109e-09
 50.12306   -105.0 1.267e+04 1.863e-09
 50.13182   -106.4 1.267e+04 1.795e-09
 50.13748   -106.3 1.245e+04 1.696e-09
 50.14877   -108.3 1.307e+04 2.234e-09
 50.16882   -111.2 1.352e+04 2.562e-09
 50.18887   -115.5 1.407e+04 2.770e-09
 50.20892   -121.2 1.498e+04 3.173e-09
 50.22327   -127.1 1.587e+04 4.130e-09
 50.23329   -127.3 1.520e+04 3.286e-09
 50.24902   -131.5 1.556e+04 4.647e-09
 50.26005   -133.7 1.576e+04 5.905e-09
 50.26501   -133.4 1.557e+04 5.535e-09
 50.27108   -134.1 1.561e+04 5.781e-09
 50.27609   -133.9 1.535e+04 5.293e-09
 50.28401   -135.3 1.527e+04 5.468e-09
 50.29403   -135.7 1.528e+04 5.492e-09
 50.30901   -137.2 1.500e+04 5.354e-09
 50.31908   -136.6 1.437e+04 4.276e-09
 50.32922   -137.8 1.364e+04 3.156e-09
 50.34927   -139.4 1.307e+04 2.361e-09
 50.36932   -141.1 1.273e+04 1.989e-09
 50.38711   -142.2 1.266e+04 1.925e-09
 50.39714   -140.3 1.226e+04 1.729e-09
 50.40486   -140.9 1.228e+04 1.719e-09
 50.41489   -140.0 1.214e+04 1.584e-09
 50.42947   -140.3 1.246e+04 1.762e-09
 50.44951   -140.3 1.275e+04 2.040e-09
 50.46956   -140.1 1.291e+04 2.299e-09
 50.48961   -139.7 1.296e+04 2.435e-09
 50.50067   -139.1 1.293e+04 2.473e-09
 50.51070   -138.3 1.290e+04 2.512e-09
 50.52971   -137.7 1.269e+04 2.429e-09
 50.54976   -137.2 1.247e+04 2.201e-09
 50.56981   -136.7 1.220e+04 1.973e-09
 50.58646   -136.1 1.195e+04 1.759e-09
 50.59648   -135.4 1.194e+04 1.805e-09
 50.60991   -134.8 1.171e+04 1.608e-09
 50.62996   -134.1 1.150e+04 1.443e-09
 50.65001   -133.3 1.129e+04 1.290e-09
 50.66119   -132.5 1.111e+04 1.147e-09
 50.67121   -132.3 1.130e+04 1.315e-09
 50.68227   -131.5 1.109e+04 1.151e-09
 50.69229   -130.9 1.103e+04 1.110e-09
 50.71016   -130.1 1.080e+04 9.470e-10
 50.73021   -129.3 1.059e+04 8.133e-10
 50.75026   -128.4 1.041e+04 7.126e-10
 50.76805   -127.5 1.023e+04 6.279e-10
 50.77808   -126.8 1.011e+04 5.769e-10
 50.79036   -125.7 9.977e+03 5.082e-10
 50.81040   -124.6 9.935e+03 4.658e-10
 50.83045   -123.7 9.936e+03 4.431e-10
 50.85050   -122.8 9.950e+03 4.255e-10
 50.86386   -121.9 9.942e+03 4.096e-10
 50.87389   -121.6 9.919e+03 3.917e-10
 50.89060   -120.6 9.898e+03 3.709e-10
 50.91065   -119.8 9.873e+03 3.548e-10
 50.92523   -118.9 9.860e+03 3.371e-10
 50.94538   -118.6 9.487e+03 2.475e-10
 50.98102   -116.9 9.483e+03 2.368e-10
 51.02112   -115.2 9.496e+03 2.368e-10
 51.04565   -113.6 9.645e+03 2.535e-10
 51.06570   -113.0 9.572e+03 2.342e-10
 51.10132   -111.3 9.704e+03 2.792e-10
 51.14142   -109.4 9.831e+03 3.361e-10
 51.18151   -107.4 9.950e+03 3.882e-10
 51.21722   -105.4 1.003e+04 4.166e-10
 51.23727   -104.8 9.996e+03 4.050e-10
 51.26171   -102.9 1.003e+04 4.085e-10
 51.30181   -101.0 9.935e+03 3.495e-10
 51.34191    -99.0 9.766e+03 2.873e-10
 51.38201    -96.9 9.644e+03 2.281e-10
 51.40884    -94.8 9.588e+03 1.838e-10
 51.42889    -94.3 9.560e+03 1.687e-10
 51.45353    -92.3 9.537e+03 1.403e-10
 51.47358    -92.0 9.465e+03 1.252e-10
 51.50231    -90.2 9.485e+03 1.104e-10
 51.54240    -88.3 9.508e+03 1.087e-10
 51.58041    -86.9 9.695e+03 1.177e-10
 51.60046    -86.3 9.611e+03 1.018e-10
 51.62260    -85.3 9.876e+03 1.486e-10
 51.66270    -84.1 1.006e+04 2.611e-10
 51.70280    -82.6 1.037e+04 4.253e-10
 51.74290    -81.2 1.071e+04 5.821e-10
 51.77203    -80.1 1.095e+04 6.523e-10
 51.79208    -79.8 1.091e+04 6.110e-10
 51.82310    -79.1 1.106e+04 6.359e-10
 51.86320    -78.8 1.122e+04 5.870e-10
 51.90330    -78.5 1.123e+04 5.456e-10
 51.94339    -77.9 1.119e+04 5.229e-10
 51.96365    -76.9 1.120e+04 5.198e-10
 51.98183    -76.5 1.101e+04 4.356e-10
 52.00168    -75.7 1.098e+04 4.560e-10
 52.02359    -74.4 1.105e+04 4.657e-10
 52.06369    -73.0 1.107e+04 4.562e-10
 52.10379    -71.6 1.113e+04 4.112e-10
 52.13522    -70.3 1.121e+04 3.864e-10
 52.15527    -69.4 1.108e+04 3.202e-10
 52.18399    -68.4 1.126e+04 3.238e-10
 52.22409    -67.6 1.146e+04 4.227e-10
 52.26419    -66.4 1.154e+04 5.840e-10
 52.30428    -64.7 1.158e+04 6.548e-10
 52.32684    -63.3 1.158e+04 6.348e-10
 52.34689    -62.4 1.142e+04 5.948e-10
 52.38448    -60.5 1.124e+04 4.328e-10
 52.42458    -58.8 1.113e+04 2.326e-10
 52.46468    -57.5 1.099e+04 1.251e-10
 52.49841    -56.3 1.069e+04 8.739e-11
 52.51846    -55.3 1.080e+04 1.016e-10
 52.52977    -53.8 1.065e+04 9.022e-11
 52.54982    -53.1 1.086e+04 1.060e-10
 52.58498    -51.3 1.076e+04 1.014e-10
 52.62508    -49.4 1.071e+04 9.985e-11
 52.66517    -47.5 1.074e+04 9.410e-11
 52.69003    -45.8 1.078e+04 8.722e-11
 52.71008    -45.0 1.082e+04 1.365e-10
 52.74537    -43.4 1.094e+04 1.261e-10
 52.78547    -42.3 1.107e+04 1.313e-10
 52.82557    -41.4 1.093e+04 1.757e-10
 52.86160    -39.9 1.075e+04 2.745e-10
 52.88165    -39.4 1.075e+04 2.768e-10
 52.90577    -37.5 1.080e+04 3.811e-10
 52.94587    -35.7 1.109e+04 4.441e-10
 52.98597    -34.5 1.133e+04 4.741e-10
 53.02606    -33.4 1.121e+04 5.373e-10
 53.05321    -31.7 1.104e+04 6.073e-10
 53.06497    -31.3 1.076e+04 4.895e-10
 53.07792    -30.1 1.114e+04 4.935e-10
 53.10626    -28.4 1.099e+04 5.068e-10
 53.14636    -26.6 1.096e+04 4.668e-10
 53.18646    -25.3 1.117e+04 3.916e-10
 53.22478    -24.1 1.123e+04 3.714e-10
 53.24483    -23.6 1.128e+04 3.700e-10
 53.26666    -22.2 1.113e+04 4.370e-10
 53.30676    -20.4 1.107e+04 4.095e-10
 53.34686    -18.7 1.149e+04 2.949e-10
 53.38695    -18.6 1.175e+04 2.545e-10
 53.41640    -19.8 1.177e+04 3.943e-10
 53.43645    -19.6 1.197e+04 4.337e-10
 53.46715    -18.4 1.163e+04 9.424e-10
 53.50725    -16.8 1.173e+04 1.137e-09
 53.54735    -14.9 1.172e+04 8.667e-10
 53.58597    -15.3 1.201e+04 4.900e-10
 53.60602    -15.7 1.173e+04 4.021e-10
 53.60802    -16.1 1.186e+04 4.444e-10
 53.62807    -15.4 1.169e+04 4.119e-10
 53.66765    -17.4 1.234e+04 6.453e-10
 53.70775    -18.1 1.287e+04 1.802e-09
 53.74784    -16.6 1.308e+04 2.882e-09
 53.77959    -15.4 1.292e+04 2.330e-09
 53.79964    -15.2 1.293e+04 2.434e-09
 53.82804    -14.0 1.236e+04 1.278e-09
 53.86814    -14.5 1.188e+04 5.439e-10
 53.90824    -15.7 1.127e+04 3.251e-10
 53.94834    -15.6 1.137e+04 3.526e-10
 53.97121    -17.6 1.227e+04 6.698e-10
 53.99126    -17.0 1.216e+04 6.802e-10
 54.02854    -16.5 1.224e+04 1.582e-09
 54.06864    -15.8 1.266e+04 2.129e-09
 54.10873    -16.0 1.321e+04 2.552e-09
 54.13412    -16.6 1.335e+04 2.246e-09
 54.14812    -16.5 1.313e+04 1.958e-09
 54.16283    -16.3 1.275e+04 1.595e-09
 54.18893    -16.7 1.279e+04 2.089e-09
 54.22903    -16.2 1.261e+04 1.786e-09
 54.26913    -16.1 1.234e+04 1.232e-09
 54.30923    -16.6 1.213e+04 9.762e-10
 54.33440    -16.4 1.219e+04 9.943e-10
 54.35445    -15.3 1.204e+04 8.142e-10
 54.38943    -15.6 1.231e+04 1.059e-09
 54.42953    -14.8 1.216e+04 1.417e-09
 54.46962    -12.9 1.203e+04 1.175e-09
 54.50597    -11.5 1.197e+04 6.784e-10
 54.52602    -10.7 1.202e+04 8.098e-10
 54.54982    -10.3 1.179e+04 4.979e-10
 54.58992     -9.6 1.130e+04 3.403e-10
 54.63002     -8.2 1.091e+04 2.589e-10
 54.66222     -6.4 1.068e+04 2.094e-10
 54.68227     -6.3 1.093e+04 2.328e-10
 54.69759     -4.6 1.074e+04 2.299e-10
 54.71764     -3.9 1.082e+04 2.385e-10
 54.75032     -2.2 1.073e+04 2.476e-10
 54.79042     -0.5 1.072e+04 2.779e-10
 54.83051      1.3 1.077e+04 3.258e-10
 54.86916      3.1 1.088e+04 3.788e-10
 54.88921      3.8 1.083e+04 3.188e-10
 54.91071      5.6 1.094e+04 3.631e-10
 54.95081      7.3 1.108e+04 3.835e-10
 54.99091      8.9 1.117e+04 3.801e-10
 55.03101     10.3 1.123e+04 3.480e-10
 55.06078     11.5 1.127e+04 3.466e-10
 55.08083     11.8 1.128e+04 3.443e-10
 55.11121     12.6 1.152e+04 3.836e-10
 55.15131     13.0 1.189e+04 5.484e-10
 55.19032     13.1 1.224e+04 9.883e-10
 55.21036     13.9 1.198e+04 6.557e-10
 55.23150     13.9 1.236e+04 1.133e-09
 55.25240     14.2 1.274e+04 1.890e-09
 55.27245     14.6 1.242e+04 1.499e-09
 55.31170     14.9 1.271e+04 1.772e-09
 55.35180     15.4 1.258e+04 1.656e-09
 55.39190     16.3 1.220e+04 1.191e-09
 55.42397     16.7 1.190e+04 7.236e-10
 55.44402     17.5 1.179e+04 5.646e-10
 55.47210     17.5 1.162e+04 3.890e-10
 55.51220     17.9 1.129e+04 3.526e-10
 55.55230     18.9 1.123e+04 3.588e-10
 55.59239     19.9 1.123e+04 3.711e-10
 55.61559     20.5 1.128e+04 3.896e-10
 55.63564     21.2 1.125e+04 2.808e-10
 55.67259     21.7 1.122e+04 3.105e-10
 55.71269     22.3 1.112e+04 3.311e-10
 55.73846     23.0 1.105e+04 3.197e-10
 55.75851     22.9 1.106e+04 3.340e-10
 55.78716     23.7 1.099e+04 2.928e-10
 55.80721     24.4 1.098e+04 2.217e-10
 55.83299     24.8 1.104e+04 2.028e-10
 55.87309     25.1 1.111e+04 2.105e-10
 55.91319     25.3 1.126e+04 2.503e-10
 55.95328     25.2 1.153e+04 3.150e-10
 55.97877     24.9 1.176e+04 3.807e-10
 55.98870     25.3 1.170e+04 3.536e-10
 56.00232     25.5 1.177e+04 3.632e-10
 56.01234     24.2 1.192e+04 5.029e-10
 56.02326     23.4 1.227e+04 6.652e-10
 56.04331     23.5 1.234e+04 9.114e-10
 56.07348     23.0 1.272e+04 1.098e-09
 56.11368     22.3 1.285e+04 1.483e-09
 56.15034     22.2 1.266e+04 1.380e-09
 56.17039     23.1 1.257e+04 1.322e-09
 56.19388     23.0 1.220e+04 7.754e-10
 56.23398     22.1 1.220e+04 4.543e-10
 56.26656     21.4 1.197e+04 4.022e-10
 56.28661     19.1 1.163e+04 3.906e-10
 56.31417     20.0 1.143e+04 4.852e-10
 56.34196     21.2 1.141e+04 5.659e-10
 56.36201     22.0 1.138e+04 5.754e-10
 56.39437     22.9 1.146e+04 5.883e-10
 56.43447     23.6 1.153e+04 5.569e-10
 56.47457     23.7 1.160e+04 4.804e-10
 56.51353     23.4 1.155e+04 4.461e-10
 56.53358     23.9 1.154e+04 4.398e-10
 56.55477     23.2 1.155e+04 4.574e-10
 56.59487     22.4 1.153e+04 5.483e-10
 56.63497     22.0 1.156e+04 6.799e-10
 56.67506     21.6 1.153e+04 6.855e-10
 56.70515     21.8 1.133e+04 5.869e-10
 56.72520     22.4 1.131e+04 4.739e-10
 56.75526     22.8 1.103e+04 3.184e-10
 56.79466     23.1 1.088e+04 1.741e-10
 56.81471     23.3 1.089e+04 1.303e-10
 56.83546     22.9 1.108e+04 7.148e-11
 56.87556     22.6 1.081e+04 6.046e-11
 56.89677     23.1 1.063e+04 6.029e-11
 56.91682     23.6 1.064e+04 7.237e-11
 56.95576     24.7 1.057e+04 6.974e-11
 56.99586     26.2 1.056e+04 6.255e-11
 57.03595     27.6 1.065e+04 5.116e-11
 57.06834     28.7 1.076e+04 4.111e-11
 57.08839     28.7 1.082e+04 4.311e-11
 57.11615     29.7 1.085e+04 4.307e-11
 57.15625     30.7 1.094e+04 4.701e-11
 57.19635     31.8 1.098e+04 6.034e-11
 57.23645     33.3 1.097e+04 8.144e-11
 57.25996     35.0 1.094e+04 1.051e-10
 57.28001     34.9 1.089e+04 1.301e-10
 57.31665     36.3 1.094e+04 1.482e-10
 57.34281     37.4 1.102e+04 1.643e-10
 57.36286     37.4 1.087e+04 1.697e-10
 57.39684     38.3 1.098e+04 1.994e-10
 57.43153     39.1 1.113e+04 2.335e-10
 57.45158     38.6 1.116e+04 2.643e-10
 57.47704     39.2 1.127e+04 2.798e-10
 57.51714     39.6 1.138e+04 2.784e-10
 57.55724     39.8 1.138e+04 2.615e-10
 57.59734     39.7 1.130e+04 2.358e-10
 57.62315     39.6 1.114e+04 2.130e-10
 57.64320     39.1 1.098e+04 1.962e-10
 57.67754     39.3 1.089e+04 1.964e-10
 57.71764     39.5 1.086e+04 2.056e-10
 57.75773     39.7 1.074e+04 2.609e-10
 57.79472     40.2 1.068e+04 3.805e-10
 57.81477     40.5 1.065e+04 3.872e-10
 57.83793     41.1 1.078e+04 4.725e-10
 57.87091     40.9 1.099e+04 5.457e-10
 57.89096     40.7 1.097e+04 3.250e-10
 57.91813     39.3 1.137e+04 4.225e-10
 57.95823     36.8 1.187e+04 7.645e-10
 57.98634     34.5 1.216e+04 1.228e-09
 58.00639     33.6 1.262e+04 1.932e-09
 58.03843     32.0 1.254e+04 1.959e-09
 58.07853     31.3 1.211e+04 1.410e-09
 58.11862     30.1 1.156e+04 6.507e-10
 58.15791     28.4 1.077e+04 4.275e-10
 58.17796     27.4 1.089e+04 7.419e-10
 58.19882     27.3 1.074e+04 7.225e-10
 58.23892     27.9 1.080e+04 8.131e-10
 58.27902     29.1 1.099e+04 9.378e-10
 58.31912     30.2 1.099e+04 9.662e-10
 58.34953     31.2 1.092e+04 9.276e-10
 58.36958     30.2 1.090e+04 8.107e-10
 58.39900     31.1 1.065e+04 7.321e-10
 58.41905     31.2 1.036e+04 4.298e-10
 58.43942     32.3 1.031e+04 4.419e-10
 58.47952     33.4 1.027e+04 4.474e-10
 58.51961     34.7 1.025e+04 4.416e-10
 58.54115     35.9 1.024e+04 4.159e-10
 58.56120     35.5 1.017e+04 3.996e-10
 58.59981     36.6 1.008e+04 3.412e-10
 58.63991     37.6 1.000e+04 3.090e-10
 58.68001     38.5 9.990e+03 3.133e-10
 58.71272     39.4 1.003e+04 3.328e-10
 58.73276     39.2 9.974e+03 3.519e-10
 58.76021     40.1 1.002e+04 3.699e-10
 58.80031     41.0 9.981e+03 3.554e-10
 58.84041     42.4 9.856e+03 2.866e-10
 58.88050     43.9 9.739e+03 1.906e-10
 58.90433     45.4 9.727e+03 1.146e-10
 58.92438     45.2 9.746e+03 1.088e-10
 58.94715     46.2 9.855e+03 6.674e-11
 58.96720     46.4 9.755e+03 6.677e-11
 59.00080     47.4 9.583e+03 5.385e-11
 59.04090     48.9 9.481e+03 5.320e-11
 59.07590     50.7 9.482e+03 5.359e-11
 59.09595     50.5 9.452e+03 5.618e-11
 59.12110     52.3 9.500e+03 6.097e-11
 59.16120     54.0 9.592e+03 7.119e-11
 59.20130     55.5 9.696e+03 8.889e-11
 59.24139     57.0 9.785e+03 1.185e-10
 59.26752     58.5 9.857e+03 1.658e-10
 59.28757     58.3 9.860e+03 2.004e-10
 59.32159     60.0 9.938e+03 2.635e-10
 59.36169     61.7 1.011e+04 3.026e-10
 59.40179     63.0 1.015e+04 3.046e-10
 59.43909     64.3 1.013e+04 2.867e-10
 59.45914     64.2 1.003e+04 2.493e-10
 59.47525     65.4 1.009e+04 2.081e-10
 59.49530     66.0 1.014e+04 2.088e-10
 59.52209     66.9 1.020e+04 1.676e-10
 59.56219     67.6 1.023e+04 1.525e-10
 59.60228     68.4 1.025e+04 1.568e-10
 59.63071     69.3 1.029e+04 1.723e-10
 59.65076     69.3 1.025e+04 1.911e-10
 59.68248     70.4 1.030e+04 2.081e-10
 59.72258     71.6 1.031e+04 2.258e-10
 59.76268     72.7 1.035e+04 2.378e-10
 59.80228     73.8 1.041e+04 2.445e-10
 59.82233     74.1 1.034e+04 1.995e-10
 59.84288     75.0 1.040e+04 2.008e-10
 59.88298     75.8 1.050e+04 2.067e-10
 59.92308     76.5 1.059e+04 2.210e-10
 59.96317     77.2 1.073e+04 2.286e-10
 59.99390     77.9 1.077e+04 2.274e-10
 60.01395     78.3 1.069e+04 2.009e-10
 60.04337     79.4 1.073e+04 1.836e-10
 60.08347     80.2 1.078e+04 1.656e-10
 60.12357     81.1 1.081e+04 1.431e-10
 60.16367     82.0 1.079e+04 1.288e-10
 60.18552     82.9 1.076e+04 1.256e-10
 60.20557     83.1 1.077e+04 1.116e-10
 60.24387     84.1 1.077e+04 1.190e-10
 60.28397     85.0 1.078e+04 1.430e-10
 60.32406     86.1 1.081e+04 1.890e-10
 60.35709     87.3 1.086e+04 2.551e-10
 60.37714     87.9 1.087e+04 2.588e-10
 60.40426     89.2 1.093e+04 3.231e-10
 60.44436     90.2 1.099e+04 3.416e-10
 60.48446     91.0 1.099e+04 3.400e-10
 60.52456     91.8 1.097e+04 3.251e-10
 60.54871     92.6 1.093e+04 3.032e-10
 60.55560     93.0 1.096e+04 3.022e-10
 60.57155     93.3 1.094e+04 2.625e-10
 60.60476     94.1 1.095e+04 2.803e-10
 60.64486     94.8 1.094e+04 2.968e-10
 60.68495     95.5 1.093e+04 2.962e-10
 60.72028     96.1 1.088e+04 2.856e-10
 60.74033     96.4 1.099e+04 3.353e-10
 60.76515     97.0 1.095e+04 3.314e-10
 60.80525     97.5 1.094e+04 3.388e-10
 60.84535     98.0 1.096e+04 3.774e-10
 60.88545     98.5 1.102e+04 4.592e-10
 60.91190     99.1 1.108e+04 5.632e-10
 60.93195     99.1 1.124e+04 6.670e-10
 60.96565     99.6 1.132e+04 7.730e-10
 61.00575    100.0 1.142e+04 8.596e-10
 61.04584    100.1 1.153e+04 9.169e-10
 61.07959    100.0 1.157e+04 9.290e-10
 61.09717     99.1 1.174e+04 1.087e-09
 61.10352     99.1 1.181e+04 1.134e-09
 61.12604     99.1 1.164e+04 9.888e-10
 61.16614     99.3 1.136e+04 7.322e-10
 61.20624     99.5 1.106e+04 4.684e-10
 61.24634     99.7 1.081e+04 2.872e-10
 61.27509     99.9 1.050e+04 2.115e-10
 61.29514    100.3 1.038e+04 1.634e-10
 61.32654    101.0 1.018e+04 1.592e-10
 61.36664    102.1 1.017e+04 1.597e-10
 61.40674    103.4 1.017e+04 1.644e-10
 61.44666    104.6 1.022e+04 1.733e-10
 61.48675    106.7 1.022e+04 1.669e-10
 61.52703    107.9 1.028e+04 1.802e-10
 61.56713    109.0 1.033e+04 1.922e-10
 61.60723    110.1 1.038e+04 2.096e-10
 61.62774    111.2 1.046e+04 2.436e-10
 61.63874    111.0 1.043e+04 2.174e-10
 61.65832    112.1 1.046e+04 2.315e-10
 61.68743    113.1 1.054e+04 2.773e-10
 61.72753    114.1 1.067e+04 3.229e-10
 61.76763    114.9 1.077e+04 3.492e-10
 61.80772    115.5 1.085e+04 3.538e-10
 61.82989    116.0 1.086e+04 3.548e-10
 61.84994    116.6 1.077e+04 2.770e-10
 61.88792    117.2 1.076e+04 2.778e-10
 61.92802    117.7 1.077e+04 3.021e-10
 61.96812    118.0 1.089e+04 4.168e-10
 62.00146    118.4 1.123e+04 6.604e-10
 62.02151    119.4 1.113e+04 5.728e-10
 62.04832    119.9 1.150e+04 8.636e-10
 62.08842    120.2 1.167e+04 9.318e-10
 62.12852    120.5 1.165e+04 8.918e-10
 62.15584    121.0 1.150e+04 7.314e-10
 62.17589    121.8 1.178e+04 1.054e-09
 62.19308    122.5 1.155e+04 8.129e-10
 62.21313    123.5 1.159e+04 8.524e-10
 62.24881    124.3 1.127e+04 5.892e-10
 62.28891    125.3 1.098e+04 3.987e-10
 62.32901    126.4 1.077e+04 2.941e-10
 62.36465    127.8 1.066e+04 2.444e-10
 62.38470    128.7 1.063e+04 2.319e-10
 62.40921    130.2 1.057e+04 2.173e-10
 62.44931    131.8 1.055e+04 2.077e-10
 62.48941    133.5 1.053e+04 1.960e-10
 62.52950    135.0 1.053e+04 1.806e-10
 62.55627    136.5 1.054e+04 1.629e-10
 62.57632    137.4 1.054e+04 1.779e-10
 62.60970    138.9 1.055e+04 1.695e-10
 62.64980    140.5 1.056e+04 1.671e-10
 62.68394    142.0 1.057e+04 1.681e-10
 62.70399    142.5 1.063e+04 1.885e-10
 62.72784    143.9 1.064e+04 1.988e-10
 62.74789    144.8 1.067e+04 2.159e-10
 62.77010    146.2 1.067e+04 2.409e-10
 62.81020    147.5 1.069e+04 2.776e-10
 62.85030    148.7 1.076e+04 3.307e-10
 62.89039    149.9 1.086e+04 3.947e-10
 62.91946    150.7 1.097e+04 4.439e-10
 62.93951    151.4 1.090e+04 4.117e-10
 62.97059    151.9 1.096e+04 4.250e-10
 63.01069    152.3 1.096e+04 4.209e-10
 63.05079    152.7 1.093e+04 3.968e-10
 63.09089    153.2 1.086e+04 3.428e-10
 63.13099    154.5 1.079e+04 3.081e-10
 63.17109    155.2 1.072e+04 2.694e-10
 63.21119    155.9 1.063e+04 2.445e-10
 63.23209    156.8 1.059e+04 2.422e-10
 63.25214    157.0 1.067e+04 2.683e-10
 63.28265    157.9 1.067e+04 2.715e-10
 63.30270    158.7 1.069e+04 2.823e-10
 63.33148    159.6 1.068e+04 2.947e-10
 63.37158    160.6 1.068e+04 3.369e-10
 63.41168    161.5 1.079e+04 4.190e-10
 63.45178    162.5 1.098e+04 5.507e-10
 63.47427    163.3 1.122e+04 7.248e-10
 63.49432    164.2 1.108e+04 6.306e-10
 63.53198    164.7 1.136e+04 8.228e-10
 63.57208    164.8 1.155e+04 9.112e-10
 63.61217    164.7 1.157e+04 9.036e-10
 63.64584    164.4 1.152e+04 8.277e-10
 63.66589    165.5 1.160e+04 8.499e-10
 63.69237    165.4 1.151e+04 7.218e-10
 63.73247    165.4 1.135e+04 5.446e-10
 63.76019    165.5 1.118e+04 4.026e-10
 63.78023    164.9 1.130e+04 3.620e-10
 63.81267    165.1 1.102e+04 3.143e-10
 63.83746    166.0 1.094e+04 3.134e-10
 63.85751    166.3 1.104e+04 4.213e-10
 63.89287    167.6 1.100e+04 4.201e-10
 63.93297    169.2 1.099e+04 4.253e-10
 63.97306    170.8 1.101e+04 4.397e-10
 64.00903    172.2 1.107e+04 4.594e-10
 64.02908    172.5 1.116e+04 5.300e-10
 64.05326    173.7 1.118e+04 5.288e-10
 64.09336    174.8 1.119e+04 5.190e-10
 64.13346    175.6 1.116e+04 5.002e-10
 64.17356    176.5 1.109e+04 4.711e-10
 64.20065    177.3 1.101e+04 4.371e-10
 64.22070    177.5 1.127e+04 4.497e-10
 64.25376    178.4 1.117e+04 4.149e-10
 64.28828    179.4 1.114e+04 4.153e-10
 64.30833    179.4 1.126e+04 4.797e-10
 64.33395    180.4 1.127e+04 4.806e-10
 64.37222    181.1 1.134e+04 4.973e-10
 64.39227    180.9 1.144e+04 5.226e-10
 64.41415    181.3 1.143e+04 5.467e-10
 64.45425    181.3 1.145e+04 6.017e-10
 64.47795    181.2 1.146e+04 6.292e-10
 64.48788    181.2 1.148e+04 7.028e-10
 64.50418    181.2 1.155e+04 8.401e-10
 64.52423    181.2 1.168e+04 1.057e-09
 64.54428    181.2 1.182e+04 1.283e-09
 64.56216    181.1 1.207e+04 1.590e-09
 64.57150    181.1 1.214e+04 1.680e-09
 64.58379    181.6 1.241e+04 1.934e-09
 64.61465    181.0 1.289e+04 2.530e-09
 64.65475    179.9 1.323e+04 2.800e-09
 64.69485    178.2 1.323e+04 2.713e-09
 64.73494    176.7 1.302e+04 2.269e-09
 64.75545    176.0 1.250e+04 1.492e-09
 64.77550    176.5 1.198e+04 8.961e-10
 64.81514    175.8 1.153e+04 5.215e-10
 64.83643    175.5 1.111e+04 3.127e-10
 64.85648    174.9 1.077e+04 2.733e-10
 64.89534    175.1 1.057e+04 2.656e-10
 64.92702    175.9 1.053e+04 2.649e-10
 64.94707    176.5 1.064e+04 3.028e-10
 64.97554    177.6 1.062e+04 3.079e-10
 65.01564    178.6 1.064e+04 3.159e-10
 65.05574    179.6 1.067e+04 3.162e-10
 65.09583    180.5 1.068e+04 3.122e-10
 65.11864    181.4 1.068e+04 3.020e-10
 65.13869    181.7 1.071e+04 2.940e-10
 65.17603    182.5 1.069e+04 2.736e-10
 65.21613    183.2 1.068e+04 2.666e-10
 65.25623    183.8 1.070e+04 2.673e-10
 65.29021    184.0 1.076e+04 2.772e-10
 65.31026    184.2 1.078e+04 2.479e-10
 65.33643    184.1 1.088e+04 2.825e-10
 65.36453    183.9 1.102e+04 3.340e-10
 65.38458    183.7 1.107e+04 3.557e-10
 65.41663    183.2 1.122e+04 4.311e-10
 65.45672    182.3 1.137e+04 4.993e-10
 65.48183    181.1 1.156e+04 5.228e-10
 65.50188    181.2 1.146e+04 4.947e-10
 65.53692    179.6 1.148e+04 4.807e-10
 65.57702    177.9 1.149e+04 4.419e-10
 65.61712    176.2 1.147e+04 3.878e-10
 65.65340    174.6 1.144e+04 3.306e-10
 65.67345    175.0 1.136e+04 2.745e-10
 65.69732    173.6 1.128e+04 2.529e-10
 65.73742    172.4 1.121e+04 2.368e-10
 65.77752    171.4 1.114e+04 2.181e-10
 65.81761    170.7 1.110e+04 1.945e-10
 65.84502    170.0 1.107e+04 1.685e-10
 65.86507    171.0 1.100e+04 2.483e-10
 65.89263    170.6 1.099e+04 2.252e-10
 65.91268    170.5 1.102e+04 2.279e-10
 65.93791    170.1 1.104e+04 1.991e-10
 65.97801    169.6 1.111e+04 1.803e-10
 66.01659    169.1 1.114e+04 1.772e-10
 66.03664    170.0 1.123e+04 2.261e-10
 66.05821    169.5 1.125e+04 2.214e-10
 66.09831    169.0 1.124e+04 2.215e-10
 66.13841    168.5 1.122e+04 2.301e-10
 66.17850    168.1 1.121e+04 2.416e-10
 66.20821    167.5 1.122e+04 2.417e-10
 66.22826    168.4 1.133e+04 3.095e-10
 66.25870    167.5 1.134e+04 3.033e-10
 66.29880    166.4 1.132e+04 2.759e-10
 66.33890    165.3 1.118e+04 2.202e-10
 66.37900    164.2 1.094e+04 1.740e-10
 66.39983    163.0 1.080e+04 1.647e-10
 66.41988    163.7 1.100e+04 1.650e-10
 66.44078    162.3 1.095e+04 1.608e-10
 66.46083    162.1 1.086e+04 1.841e-10
 66.49930    160.5 1.088e+04 1.840e-10
 66.53939    158.6 1.094e+04 1.870e-10
 66.57140    156.4 1.102e+04 1.899e-10
 66.59145    156.5 1.115e+04 2.021e-10
 66.61959    153.9 1.124e+04 2.162e-10
 66.65969    151.4 1.117e+04 2.317e-10
 66.69979    149.2 1.107e+04 2.335e-10
 66.73989    147.6 1.087e+04 2.301e-10
 66.76302    146.6 1.063e+04 2.254e-10
 66.78307    147.3 1.048e+04 2.039e-10
 66.82009    146.9 1.041e+04 1.934e-10
 66.86019    146.7 1.042e+04 1.965e-10
 66.90028    146.4 1.048e+04 2.193e-10
 66.93459    145.9 1.069e+04 2.689e-10
 66.95464    146.5 1.069e+04 2.147e-10
 66.96887    145.5 1.100e+04 2.862e-10
 66.98892    146.5 1.133e+04 3.942e-10
 67.02058    145.2 1.169e+04 4.627e-10
 67.06068    143.8 1.186e+04 4.858e-10
 67.09066    142.2 1.199e+04 5.065e-10
 67.11061    140.8 1.207e+04 5.259e-10
 67.12611    138.8 1.221e+04 5.584e-10
 67.13613    140.0 1.227e+04 5.581e-10
 67.15071    138.5 1.227e+04 5.839e-10
 67.18088    136.8 1.233e+04 6.453e-10
 67.22108    133.4 1.231e+04 8.354e-10
 67.26117    130.0 1.225e+04 1.038e-09
 67.29778    126.8 1.219e+04 1.039e-09
 67.31782    127.5 1.273e+04 1.438e-09
 67.34137    124.6 1.261e+04 1.335e-09
 67.38147    122.2 1.209e+04 9.132e-10
 67.42157    120.2 1.133e+04 4.280e-10
 67.46167    118.1 1.041e+04 1.934e-10
 67.48939    117.2 1.014e+04 1.673e-10
 67.50465    116.8 1.022e+04 1.685e-10
 67.51702    117.2 1.023e+04 1.778e-10
 67.54187    117.2 1.021e+04 1.853e-10
 67.58197    117.5 1.031e+04 2.293e-10
 67.62206    117.6 1.062e+04 3.061e-10
 67.66096    117.5 1.096e+04 3.712e-10
 67.68101    117.2 1.101e+04 3.663e-10
 67.69214    116.9 1.102e+04 3.882e-10
 67.71209    116.5 1.119e+04 4.229e-10
 67.73214    115.2 1.168e+04 4.938e-10
 67.75219    112.4 1.264e+04 7.087e-10
 67.76660    109.3 1.345e+04 1.273e-09
 67.77524    108.2 1.400e+04 2.253e-09
 67.78088    107.8 1.408e+04 2.438e-09
 67.79229    106.6 1.404e+04 3.607e-09
 67.81234    106.0 1.393e+04 3.609e-09
 67.83239    105.6 1.360e+04 3.107e-09
 67.85249    104.8 1.286e+04 1.879e-09
 67.87263    106.5 1.299e+04 9.294e-10
 67.90276    102.9 1.186e+04 1.517e-10
 67.94286     98.8 1.087e+04 8.577e-11
 67.98296     98.1 1.062e+04 8.544e-11
 68.02305     98.2 1.042e+04 9.200e-11
 68.04420     98.6 1.016e+04 1.183e-10
 68.04622     98.5 1.001e+04 8.002e-11
 68.06517     97.4 9.930e+03 8.814e-11
 68.10325     97.7 9.935e+03 1.180e-10
 68.14335     97.6 1.007e+04 1.800e-10
 68.18345     97.3 1.038e+04 2.864e-10
 68.21343     97.2 1.053e+04 3.441e-10
 68.22560     97.0 1.071e+04 4.136e-10
 68.23563     97.1 1.072e+04 3.742e-10
 68.25343     96.5 1.098e+04 5.223e-10
 68.27348     95.8 1.134e+04 7.884e-10
 68.29353     94.9 1.185e+04 1.222e-09
 68.30897     94.0 1.257e+04 1.895e-09
 68.31681     93.1 1.303e+04 2.251e-09
 68.32141     93.3 1.284e+04 2.116e-09
 68.33363     92.3 1.353e+04 2.860e-09
 68.35367     91.1 1.411e+04 3.184e-09
 68.37372     89.5 1.420e+04 3.044e-09
 68.39377     87.7 1.411e+04 2.373e-09
 68.40720     85.3 1.354e+04 1.525e-09
 68.41722     84.7 1.348e+04 1.563e-09
 68.43387     81.8 1.257e+04 9.397e-10
 68.46404     79.2 1.211e+04 7.217e-10
 68.50424     76.0 1.059e+04 3.200e-10
 68.54434     74.6 9.945e+03 1.819e-10
 68.57322     74.5 9.919e+03 1.288e-10
 68.58779     74.8 9.781e+03 1.307e-10
 68.59901     75.3 9.769e+03 1.282e-10
 68.62454     75.3 9.828e+03 9.862e-11
 68.66464     75.6 9.755e+03 8.708e-11
 68.70474     76.2 9.729e+03 8.710e-11
 68.74483     77.0 9.742e+03 8.940e-11
 68.77058     77.8 9.803e+03 9.863e-11
 68.79063     78.5 9.767e+03 8.945e-11
 68.82503     79.2 9.863e+03 1.113e-10
 68.86513     79.9 9.966e+03 1.614e-10
 68.90523     80.4 1.015e+04 2.716e-10
 68.94215     81.1 1.044e+04 4.767e-10
 68.96220     81.9 1.051e+04 4.460e-10
 68.98543     82.6 1.092e+04 7.146e-10
 69.02553     83.1 1.113e+04 8.510e-10
 69.06563     83.4 1.109e+04 8.269e-10
 69.10132     83.9 1.089e+04 6.903e-10
 69.12137     83.3 1.063e+04 5.438e-10
 69.13377     83.7 1.035e+04 3.865e-10
 69.15382     84.4 1.061e+04 4.327e-10
 69.18592     84.4 1.038e+04 3.337e-10
 69.22602     84.6 1.033e+04 3.127e-10
 69.26612     84.8 1.038e+04 3.197e-10
 69.30534     84.9 1.055e+04 3.430e-10
 69.32539     85.5 1.098e+04 5.324e-10
 69.34632     85.7 1.125e+04 6.592e-10
 69.38642     85.8 1.125e+04 6.809e-10
 69.42652     85.7 1.121e+04 6.731e-10
 69.46661     85.7 1.107e+04 6.443e-10
 69.49696     85.8 1.088e+04 5.889e-10
 69.51701     86.4 1.175e+04 1.121e-09
 69.54681     86.6 1.138e+04 9.541e-10
 69.58691     87.1 1.093e+04 7.365e-10
 69.62701     87.9 1.047e+04 5.077e-10
 69.64946     88.7 1.009e+04 3.229e-10
 69.66951     88.1 9.989e+03 1.706e-10
 69.68858     88.6 9.548e+03 1.425e-10
 69.70863     89.1 9.716e+03 1.541e-10
 69.74731     89.9 9.477e+03 1.456e-10
 69.78741     91.1 9.429e+03 1.494e-10
 69.82750     92.4 9.397e+03 1.657e-10
 69.86015     93.6 9.447e+03 1.848e-10
 69.88020     93.9 9.503e+03 1.583e-10
 69.90770     94.7 9.611e+03 1.794e-10
 69.94780     95.3 9.760e+03 2.167e-10
 69.98790     95.6 9.925e+03 2.737e-10
 70.02800     95.7 1.004e+04 3.094e-10
 70.05177     95.5 1.003e+04 3.029e-10
 70.07181     95.2 9.958e+03 2.639e-10
 70.10820     95.0 9.833e+03 2.090e-10
 70.14830     94.7 9.641e+03 1.264e-10
 70.17756     94.1 9.366e+03 7.221e-11
 70.19761     94.0 9.426e+03 8.094e-11
 70.22334     93.5 8.964e+03 6.670e-11
 70.24338     93.2 8.962e+03 6.819e-11
 70.26859     93.6 8.912e+03 6.789e-11
 70.30869     94.5 8.898e+03 6.869e-11
 70.34879     95.6 8.901e+03 7.089e-11
 70.38889     96.6 8.921e+03 7.329e-11
 70.41495     97.5 8.936e+03 7.586e-11
 70.43500     97.5 9.006e+03 8.113e-11
 70.46909     98.4 9.011e+03 8.527e-11
 70.50919     99.3 9.065e+03 9.584e-11
 70.54928    100.2 9.286e+03 1.244e-10
 70.58652    100.4 9.652e+03 1.799e-10
 70.60657    101.1 9.667e+03 1.727e-10
 70.62948    100.9 9.995e+03 2.257e-10
 70.65946     99.5 1.056e+04 3.692e-10
 70.67941     98.4 1.101e+04 5.963e-10
 70.69216     97.4 1.137e+04 9.211e-10
 70.70219     98.2 1.138e+04 8.681e-10
 70.71549     97.3 1.170e+04 1.149e-09
 70.72552     97.3 1.181e+04 1.260e-09
 70.73956     96.2 1.219e+04 1.313e-09
 70.75961     94.4 1.244e+04 1.319e-09
 70.77795     90.7 1.346e+04 1.420e-09
 70.78797     89.9 1.544e+04 2.104e-09
 70.79971     83.4 1.838e+04 3.547e-09
 70.81976     78.1 1.856e+04 5.967e-09
 70.83981     74.5 1.793e+04 8.615e-09
 70.85986     71.8 1.705e+04 1.111e-08
 70.87376     69.9 1.658e+04 1.087e-08
 70.88378     69.8 1.694e+04 1.217e-08
 70.89995     68.6 1.588e+04 9.595e-09
 70.92000     68.4 1.470e+04 6.830e-09
 70.94005     68.4 1.362e+04 4.127e-09
 70.95954     68.0 1.268e+04 2.217e-09
 70.96957     67.5 1.281e+04 1.952e-09
 70.99028     66.6 1.175e+04 1.189e-09
 71.03047     65.5 9.840e+03 5.051e-10
 71.07057     65.5 9.458e+03 4.368e-10
 71.11067     66.2 9.476e+03 4.639e-10
 71.14133     67.0 9.722e+03 5.694e-10
 71.16138     67.0 1.031e+04 7.971e-10
 71.19087     67.2 1.057e+04 9.522e-10
 71.23097     67.1 1.058e+04 9.602e-10
 71.25381     67.2 1.041e+04 8.835e-10
 71.27386     67.2 1.010e+04 7.415e-10
 71.31116     67.4 9.792e+03 6.196e-10
 71.33295     67.4 9.419e+03 4.707e-10
 71.35300     67.4 9.336e+03 4.167e-10
 71.39136     67.1 8.987e+03 3.137e-10
 71.43146     67.0 8.915e+03 3.019e-10
 71.47156     66.9 8.906e+03 3.080e-10
 71.50452     66.8 8.903e+03 3.176e-10
 71.52457     67.1 8.942e+03 3.087e-10
 71.55176     67.1 8.941e+03 3.078e-10
 71.59186     66.9 8.932e+03 3.028e-10
 71.63196     66.3 8.982e+03 2.991e-10
 71.67205     65.5 9.037e+03 3.035e-10
 71.69614     64.5 9.179e+03 3.225e-10
 71.71619     65.3 9.221e+03 3.292e-10
 71.74213     64.5 9.347e+03 3.504e-10
 71.76208     63.5 9.617e+03 4.078e-10
 71.78171     62.2 9.950e+03 5.205e-10
 71.79174     62.3 1.007e+04 5.338e-10
 71.80218     60.5 1.057e+04 7.554e-10
 71.82223     56.9 1.222e+04 1.315e-09
 71.84228     52.3 1.436e+04 2.824e-09
 71.86233     49.1 1.510e+04 4.609e-09
 71.87754     47.0 1.495e+04 4.592e-09
 71.88756     47.5 1.499e+04 4.551e-09
 71.90243     46.2 1.442e+04 3.946e-09
 71.92248     44.9 1.348e+04 2.475e-09
 71.94253     43.0 1.264e+04 1.309e-09
 71.96258     41.1 1.174e+04 7.496e-10
 71.99275     37.4 1.002e+04 3.422e-10
 72.03294     36.1 9.216e+03 2.045e-10
 72.05933     36.5 9.077e+03 1.735e-10
 72.07938     37.5 9.362e+03 1.981e-10
 72.11314     38.1 9.287e+03 1.668e-10
 72.15324     38.7 9.332e+03 1.592e-10
 72.19334     39.1 9.416e+03 1.677e-10
 72.23090     39.2 9.582e+03 2.114e-10
 72.25095     39.7 9.796e+03 2.358e-10
 72.27354     40.3 9.975e+03 3.625e-10
 72.31001     41.4 1.015e+04 4.719e-10
 72.33005     40.8 1.035e+04 4.720e-10
 72.35374     41.7 1.033e+04 4.391e-10
 72.39383     42.5 1.015e+04 3.370e-10
 72.42252     42.7 9.947e+03 2.442e-10
 72.44257     43.5 1.028e+04 2.706e-10
 72.47403     43.1 1.013e+04 2.476e-10
 72.50401     42.5 1.014e+04 2.729e-10
 72.51813     41.7 1.026e+04 3.312e-10
 72.52816     41.8 1.029e+04 3.428e-10
 72.54401     40.9 1.059e+04 4.589e-10
 72.56406     39.7 1.109e+04 6.636e-10
 72.58388     38.5 1.168e+04 9.871e-10
 72.59391     37.2 1.264e+04 1.344e-09
 72.60392     36.8 1.347e+04 2.092e-09
 72.61394     37.1 1.362e+04 2.217e-09
 72.62421     36.4 1.382e+04 2.307e-09
 72.64426     35.1 1.366e+04 2.134e-09
 72.66431     33.4 1.290e+04 1.575e-09
 72.68436     30.9 1.196e+04 1.149e-09
 72.69973     30.3 1.070e+04 6.834e-10
 72.70975     30.4 1.068e+04 7.469e-10
 72.72445     29.3 1.039e+04 5.967e-10
 72.75463     29.2 9.744e+03 3.100e-10
 72.78571     26.1 9.424e+03 1.606e-10
 72.80576     25.7 9.140e+03 1.198e-10
 72.83492     22.4 8.975e+03 1.365e-10
 72.85815     18.8 9.663e+03 2.580e-10
 72.86808     18.7 9.684e+03 2.051e-10
 72.88132     17.3 1.032e+04 2.382e-10
 72.89135     15.9 1.051e+04 2.926e-10
 72.91502     12.2 1.148e+04 9.951e-10
 72.94510      9.9 1.227e+04 2.313e-09
 72.96505      8.3 1.291e+04 2.690e-09
 72.97713      5.1 1.422e+04 1.963e-09
 72.99728      1.8 1.315e+04 1.197e-09
 73.03542     -7.6 1.181e+04 1.171e-09
 73.07552    -12.6 1.174e+04 1.243e-09
 73.11561    -16.3 1.152e+04 1.369e-09
 73.14889    -17.6 1.156e+04 1.500e-09
 73.16894    -16.1 1.140e+04 1.383e-09
 73.19581    -17.0 1.120e+04 1.239e-09
 73.23591    -18.2 1.043e+04 7.881e-10
 73.27601    -19.3 9.845e+03 5.962e-10
 73.31611    -19.5 9.572e+03 5.488e-10
 73.34051    -19.2 9.298e+03 5.094e-10
 73.36056    -18.2 9.301e+03 5.104e-10
 73.38625    -17.2 8.896e+03 4.081e-10
 73.40630    -17.3 8.748e+03 3.545e-10
 73.43641    -16.5 8.407e+03 2.546e-10
 73.47650    -15.9 8.108e+03 1.832e-10
 73.51208    -15.3 7.928e+03 1.481e-10
 73.53213    -14.4 7.749e+03 1.146e-10
 73.55670    -13.7 7.670e+03 1.033e-10
 73.59680    -13.2 7.692e+03 1.024e-10
 73.63690    -13.3 7.955e+03 1.285e-10
 73.67700    -13.3 8.313e+03 2.019e-10
 73.70370    -12.7 8.728e+03 2.934e-10
 73.72375    -12.1 8.437e+03 2.390e-10
 73.75720    -11.8 8.771e+03 2.966e-10
 73.79730    -12.1 8.935e+03 3.157e-10
 73.83739    -13.3 9.032e+03 3.245e-10
 73.87527    -14.5 9.203e+03 3.690e-10
 73.89532    -13.2 8.913e+03 2.954e-10
 73.91435    -13.9 9.090e+03 3.411e-10
 73.93440    -14.5 9.437e+03 4.103e-10
 73.95769    -15.0 9.676e+03 4.851e-10
 73.99779    -16.0 9.778e+03 5.236e-10
 74.03789    -17.2 9.802e+03 5.482e-10
 74.06689    -18.2 9.807e+03 5.705e-10
 74.08694    -16.6 9.644e+03 5.176e-10
 74.11809    -17.0 9.742e+03 5.776e-10
 74.15819    -17.1 9.706e+03 5.812e-10
 74.19828    -17.1 9.336e+03 4.021e-10
 74.23838    -17.8 8.786e+03 2.081e-10
 74.27848    -17.7 8.906e+03 2.124e-10
 74.31858    -19.2 8.827e+03 2.008e-10
 74.35868    -19.6 8.927e+03 2.679e-10
 74.39878    -19.2 9.088e+03 3.646e-10
 74.43008    -18.4 9.218e+03 4.003e-10
 74.45013    -16.6 9.196e+03 3.908e-10
 74.46250    -16.3 9.171e+03 3.010e-10
 74.48255    -17.5 9.022e+03 2.335e-10
 74.51908    -18.5 8.992e+03 2.056e-10
 74.55918    -18.9 9.037e+03 2.298e-10
 74.59927    -18.9 9.205e+03 2.963e-10
 74.62170    -19.0 9.304e+03 3.245e-10
 74.64175    -17.3 9.252e+03 3.235e-10
 74.67947    -17.5 9.443e+03 3.663e-10
 74.71957    -18.2 9.582e+03 3.901e-10
 74.74955    -18.0 9.663e+03 4.069e-10
 74.76950    -18.5 9.654e+03 4.221e-10
 74.78955    -18.8 9.617e+03 4.428e-10
 74.80310    -18.8 9.593e+03 4.482e-10
 74.81312    -17.8 9.702e+03 4.637e-10
 74.82965    -17.7 9.680e+03 4.678e-10
 74.84970    -17.6 9.636e+03 4.648e-10
 74.86975    -17.4 9.590e+03 4.596e-10
 74.88888    -17.2 9.565e+03 4.578e-10
 74.89891    -16.1 9.733e+03 5.034e-10
 74.90985    -16.0 9.803e+03 5.295e-10
 74.92989    -15.8 9.968e+03 5.736e-10
 74.94994    -15.6 1.021e+04 6.356e-10
 74.96999    -15.7 1.054e+04 7.157e-10
 74.98469    -16.6 1.092e+04 8.653e-10
 74.99472    -15.9 1.149e+04 1.102e-09
 75.00043    -17.2 1.172e+04 1.412e-09
 75.01045    -16.9 1.200e+04 1.464e-09
 75.03014    -17.9 1.233e+04 1.979e-09
 75.05019    -18.7 1.280e+04 2.458e-09
 75.07024    -20.0 1.352e+04 2.885e-09
 75.08050    -22.2 1.418e+04 3.149e-09
 75.09053    -21.3 1.430e+04 3.223e-09
 75.11034    -24.4 1.419e+04 2.778e-09
 75.13039    -27.2 1.385e+04 2.434e-09
 75.15044    -28.9 1.315e+04 2.031e-09
 75.16629    -29.8 1.234e+04 1.571e-09
 75.17631    -29.9 1.180e+04 1.320e-09
 75.19054    -30.3 1.128e+04 1.019e-09
 75.21059    -30.7 1.084e+04 7.817e-10
 75.23064    -31.0 1.047e+04 6.295e-10
 75.25069    -31.0 1.020e+04 5.525e-10
 75.26210    -30.9 1.009e+04 5.264e-10
 75.26586    -29.9 1.020e+04 5.567e-10
 75.27450    -30.0 1.022e+04 5.296e-10
 75.29078    -29.7 1.023e+04 5.284e-10
 75.31083    -29.9 1.036e+04 5.533e-10
 75.33088    -32.5 1.136e+04 8.271e-10
 75.34788    -35.7 1.301e+04 1.551e-09
 75.35791    -36.6 1.498e+04 2.545e-09
 75.36592    -38.0 1.559e+04 3.565e-09
 75.37590    -39.1 1.626e+04 4.135e-09
 75.38592    -41.3 1.730e+04 6.025e-09
 75.39569    -43.1 1.794e+04 8.430e-09
 75.40070    -43.6 1.859e+04 1.263e-08
 75.40141    -44.2 1.860e+04 1.554e-08
 75.40643    -43.5 1.821e+04 1.286e-08
 75.41600    -44.1 1.828e+04 1.371e-08
 75.42602    -44.5 1.836e+04 1.373e-08
 75.43605    -45.2 1.823e+04 1.198e-08
 75.44359    -46.3 1.771e+04 9.273e-09
 75.44861    -46.4 1.778e+04 8.408e-09
 75.45610    -47.5 1.686e+04 6.300e-09
 75.47118    -48.6 1.604e+04 4.287e-09
 75.49128    -51.3 1.373e+04 1.670e-09
 75.51133    -54.5 1.173e+04 6.861e-10
 75.52852    -56.2 1.061e+04 4.508e-10
 75.53665    -55.9 1.043e+04 4.796e-10
 75.53960    -56.2 1.049e+04 4.898e-10
 75.56165    -55.1 9.917e+03 3.768e-10
 75.60175    -53.6 9.582e+03 2.917e-10
 75.64185    -52.3 9.505e+03 2.466e-10
 75.68194    -51.1 9.500e+03 2.209e-10
 75.71127    -49.9 9.518e+03 2.144e-10
 75.73132    -49.4 9.405e+03 1.856e-10
 75.76214    -48.4 9.440e+03 1.835e-10
 75.80224    -47.4 9.524e+03 1.852e-10
 75.84234    -46.6 9.590e+03 1.867e-10
 75.88244    -45.8 9.654e+03 1.838e-10
 75.90288    -45.0 9.698e+03 1.795e-10
 75.92293    -44.2 9.560e+03 1.394e-10
 75.96264    -43.5 9.605e+03 1.377e-10
 76.00274    -43.0 9.827e+03 1.415e-10
 76.04283    -42.6 9.986e+03 1.676e-10
 76.06684    -42.2 1.012e+04 2.085e-10
 76.07841    -41.8 1.003e+04 1.873e-10
 76.09450    -40.7 9.943e+03 1.546e-10
 76.12303    -40.2 1.005e+04 1.704e-10
 76.16313    -39.7 1.007e+04 1.758e-10
 76.20323    -39.0 1.004e+04 1.676e-10
 76.24333    -37.9 9.939e+03 1.294e-10
 76.26607    -36.6 9.834e+03 8.940e-11
 76.28612    -35.5 9.841e+03 9.317e-11
 76.32353    -34.2 9.748e+03 6.591e-11
 76.36363    -32.8 9.645e+03 4.944e-11
 76.40372    -31.4 9.544e+03 4.239e-11
 76.43764    -29.8 9.509e+03 4.086e-11
 76.45769    -28.7 9.492e+03 4.380e-11
 76.48392    -27.0 9.492e+03 4.382e-11
 76.52402    -25.6 9.534e+03 5.076e-11
 76.56412    -24.1 9.593e+03 6.556e-11
 76.59494    -22.6 9.688e+03 8.447e-11
 76.61499    -21.9 9.548e+03 8.315e-11
 76.62926    -20.4 9.676e+03 9.850e-11
 76.64931    -19.4 9.715e+03 9.981e-11
 76.68442    -18.1 9.833e+03 1.156e-10
 76.72452    -16.9 9.953e+03 1.300e-10
 76.76461    -16.0 1.008e+04 1.462e-10
 76.80083    -15.4 1.019e+04 1.742e-10
 76.82088    -14.3 1.013e+04 1.749e-10
 76.84481    -13.9 1.025e+04 2.188e-10
 76.88491    -13.7 1.040e+04 2.982e-10
 76.92501    -13.4 1.050e+04 3.995e-10
 76.96511    -13.1 1.056e+04 4.455e-10
 76.99245    -13.0 1.018e+04 3.974e-10
 77.01250    -12.2 1.022e+04 4.069e-10
 77.04531    -12.0 9.876e+03 2.847e-10
 77.08541    -11.9 9.451e+03 1.643e-10
 77.12304    -12.0 9.203e+03 1.079e-10
 77.14309    -11.3 9.201e+03 9.855e-11
 77.16402    -11.3 9.103e+03 8.602e-11
 77.18407    -10.8 9.120e+03 9.002e-11
 77.20570    -10.0 9.104e+03 8.916e-11
 77.24580     -9.2 9.216e+03 1.143e-10
 77.28590     -8.5 9.316e+03 1.624e-10
 77.32600     -8.2 9.538e+03 2.261e-10
 77.35564     -8.5 1.027e+04 3.514e-10
 77.37569     -6.6 9.799e+03 3.078e-10
 77.40620     -6.8 1.051e+04 5.028e-10
 77.44630     -6.9 1.127e+04 8.687e-10
 77.48639     -6.8 1.180e+04 1.247e-09
 77.52649     -7.0 1.190e+04 1.348e-09
 77.54726     -6.9 1.143e+04 1.144e-09
 77.56731     -5.2 1.171e+04 1.304e-09
 77.60669     -5.0 1.089e+04 8.414e-10
 77.64679     -4.9 1.000e+04 4.711e-10
 77.67119     -4.7 9.458e+03 3.107e-10
 77.69124     -5.3 9.074e+03 2.417e-10
 77.71883     -3.9 8.785e+03 1.964e-10
 77.73888     -2.4 9.078e+03 2.475e-10
 77.76709     -1.3 8.968e+03 2.333e-10
 77.80719     -0.0 8.933e+03 2.392e-10
 77.84729      1.3 8.994e+03 2.709e-10
 77.88738      2.5 9.064e+03 2.873e-10
 77.91045      3.4 9.047e+03 2.866e-10
 77.93050      5.0 9.216e+03 3.148e-10
 77.96758      5.8 9.234e+03 3.134e-10
 78.00768      6.2 9.467e+03 3.556e-10
 78.03766      6.4 9.679e+03 4.279e-10
 78.05761      6.2 9.761e+03 4.842e-10
 78.07766      6.4 9.989e+03 6.269e-10
 78.09185      6.6 1.019e+04 7.426e-10
 78.10187      7.5 1.044e+04 8.522e-10
 78.11776      7.7 1.057e+04 9.629e-10
 78.13781      7.8 1.066e+04 1.040e-09
 78.15786      7.7 1.091e+04 1.124e-09
 78.17763      6.7 1.150e+04 1.292e-09
 78.18766      7.1 1.183e+04 1.441e-09
 78.19796      5.2 1.253e+04 1.763e-09
 78.20911      3.4 1.292e+04 2.207e-09
 78.21914      4.9 1.234e+04 1.696e-09
 78.23805      3.4 1.261e+04 2.101e-09
 78.25810      2.9 1.266e+04 2.417e-09
 78.27344      2.9 1.268e+04 2.519e-09
 78.28347      3.6 1.289e+04 2.751e-09
 78.29820      3.9 1.285e+04 2.358e-09
 78.31825      3.7 1.241e+04 1.541e-09
 78.33830      1.8 1.184e+04 8.076e-10
 78.35835     -1.5 1.066e+04 3.878e-10
 78.36925     -4.6 9.568e+03 2.568e-10
 78.37928     -5.4 9.379e+03 2.504e-10
 78.39845     -6.3 9.198e+03 2.362e-10
 78.41850     -6.8 9.159e+03 2.391e-10
 78.43855     -7.2 9.258e+03 2.666e-10
 78.45504     -7.4 9.389e+03 3.054e-10
 78.46506     -7.7 9.379e+03 3.149e-10
 78.47316     -7.9 9.598e+03 3.685e-10
 78.48319     -8.3 9.807e+03 4.225e-10
 78.49870     -9.0 1.023e+04 5.399e-10
 78.51875     -9.9 1.079e+04 7.233e-10
 78.53880    -10.9 1.137e+04 9.903e-10
 78.55085    -11.9 1.189e+04 1.351e-09
 78.56087    -12.3 1.187e+04 1.364e-09
 78.57889    -13.0 1.235e+04 1.810e-09
 78.59894    -13.3 1.281e+04 2.313e-09
 78.61899    -13.4 1.329e+04 2.809e-09
 78.63663    -13.6 1.370e+04 3.155e-09
 78.64665    -14.3 1.398e+04 3.387e-09
 78.65909    -14.9 1.410e+04 3.433e-09
 78.67914    -15.5 1.386e+04 3.092e-09
 78.69919    -16.1 1.341e+04 2.633e-09
 78.71924    -16.6 1.286e+04 2.157e-09
 78.73244    -16.9 1.238e+04 1.728e-09
 78.74039    -17.9 1.203e+04 1.355e-09
 78.74724    -16.9 1.213e+04 1.506e-09
 78.75934    -17.1 1.172e+04 1.144e-09
 78.77939    -17.6 1.128e+04 8.523e-10
 78.79944    -18.1 1.083e+04 6.346e-10
 78.81822    -18.6 1.042e+04 4.842e-10
 78.82825    -20.4 9.930e+03 3.437e-10
 78.83954    -21.0 9.673e+03 2.914e-10
 78.85959    -21.7 9.520e+03 2.717e-10
 78.87964    -22.5 9.508e+03 2.805e-10
 78.89969    -23.3 9.569e+03 3.030e-10
 78.91403    -24.1 9.643e+03 3.417e-10
 78.92406    -26.3 9.859e+03 4.190e-10
 78.93978    -27.1 1.034e+04 5.647e-10
 78.95983    -27.9 1.092e+04 7.670e-10
 78.97988    -28.6 1.149e+04 1.020e-09
 78.99982    -29.2 1.197e+04 1.297e-09
 79.00984    -31.2 1.256e+04 1.738e-09
 79.01129    -31.7 1.268e+04 1.838e-09
 79.02131    -30.4 1.227e+04 1.440e-09
 79.04003    -31.2 1.220e+04 1.407e-09
 79.06008    -32.1 1.199e+04 1.291e-09
 79.08013    -32.9 1.175e+04 1.152e-09
 79.09563    -34.1 1.148e+04 9.337e-10
 79.10565    -36.2 1.116e+04 7.695e-10
 79.13035    -36.6 1.090e+04 6.352e-10
 79.17055    -38.5 1.053e+04 5.088e-10
 79.19163    -40.4 1.088e+04 5.405e-10
 79.21168    -44.3 1.053e+04 4.805e-10
 79.25075    -46.5 1.086e+04 6.434e-10
 79.27543    -46.7 1.123e+04 8.194e-10
 79.28196    -46.8 1.131e+04 8.586e-10
 79.28725    -48.5 1.096e+04 6.913e-10
 79.30067    -50.6 1.063e+04 5.593e-10
 79.33085    -52.1 1.025e+04 4.458e-10
 79.36320    -54.8 9.443e+03 3.004e-10
 79.38325    -56.7 9.025e+03 2.403e-10
 79.41114    -59.3 9.006e+03 2.317e-10
 79.45124    -62.0 9.167e+03 2.450e-10
 79.49134    -64.4 9.727e+03 3.551e-10
 79.52132    -65.0 1.009e+04 4.791e-10
 79.53938    -65.6 1.034e+04 5.601e-10
 79.54941    -66.3 1.050e+04 6.263e-10
 79.55463    -67.1 1.088e+04 8.034e-10
 79.56465    -67.1 1.094e+04 8.409e-10
 79.58137    -67.9 1.138e+04 1.035e-09
 79.60142    -68.7 1.175e+04 1.231e-09
 79.62147    -69.7 1.195e+04 1.358e-09
 79.64041    -70.8 1.197e+04 1.390e-09
 79.65044    -70.9 1.205e+04 1.460e-09
 79.66157    -71.8 1.191e+04 1.390e-09
 79.68161    -72.9 1.185e+04 1.227e-09
 79.70166    -74.6 1.188e+04 1.169e-09
 79.72171    -77.2 1.257e+04 1.169e-09
 79.73622    -80.0 1.335e+04 1.421e-09
 79.74625    -79.1 1.289e+04 1.316e-09
 79.76181    -81.1 1.341e+04 1.668e-09
 79.78186    -82.4 1.356e+04 2.001e-09
 79.80191    -83.1 1.356e+04 2.108e-09
 79.81346    -83.3 1.325e+04 2.101e-09
 79.82348    -84.9 1.314e+04 1.966e-09
 79.84201    -84.5 1.287e+04 1.611e-09
 79.86206    -84.9 1.228e+04 1.176e-09
 79.88211    -85.4 1.169e+04 8.760e-10
 79.90216    -85.7 1.117e+04 6.870e-10
 79.91782    -85.9 1.075e+04 5.752e-10
 79.92784    -85.3 1.102e+04 6.854e-10
 79.94226    -85.4 1.071e+04 6.009e-10
 79.96231    -85.2 1.052e+04 5.530e-10
 79.98236    -84.9 1.043e+04 5.314e-10
 80.01253    -84.4 1.040e+04 5.182e-10
 80.05272    -82.8 1.035e+04 5.027e-10
 80.07761    -81.3 1.052e+04 5.875e-10
 80.08753    -82.2 1.052e+04 5.477e-10
 80.09941    -82.2 1.074e+04 6.156e-10
 80.10953    -81.6 1.120e+04 8.683e-10
 80.12280    -82.1 1.123e+04 8.462e-10
 80.14275    -82.3 1.166e+04 1.068e-09
 80.16280    -82.4 1.212e+04 1.366e-09
 80.18285    -82.5 1.263e+04 1.799e-09
 80.19522    -82.4 1.310e+04 2.341e-09
 80.20524    -82.3 1.311e+04 2.312e-09
 80.22295    -82.3 1.335e+04 2.668e-09
 80.24300    -82.2 1.337e+04 2.807e-09
 80.26305    -82.1 1.332e+04 2.822e-09
 80.28100    -81.9 1.294e+04 2.609e-09
 80.29103    -81.8 1.239e+04 2.040e-09
 80.30315    -81.7 1.193e+04 1.730e-09
 80.32320    -81.8 1.146e+04 1.436e-09
 80.34156    -81.8 1.102e+04 1.197e-09
 80.35158    -82.8 1.074e+04 9.304e-10
 80.36330    -82.4 1.041e+04 7.978e-10
 80.37681    -81.7 1.012e+04 6.842e-10
 80.38684    -81.4 9.799e+03 5.863e-10
 80.40339    -80.8 9.465e+03 4.832e-10
 80.42344    -80.2 9.190e+03 4.102e-10
 80.45267    -79.3 9.056e+03 3.673e-10
 80.47282    -78.9 8.602e+03 2.731e-10
 80.49381    -77.1 8.149e+03 1.904e-10
 80.53391    -75.5 7.879e+03 1.475e-10
 80.57401    -73.6 7.691e+03 1.219e-10
 80.61411    -71.5 7.604e+03 1.076e-10
 80.64439    -69.0 7.601e+03 1.016e-10
 80.66444    -68.6 7.587e+03 1.043e-10
 80.69431    -66.4 7.598e+03 1.039e-10
 80.73441    -65.7 7.815e+03 1.095e-10
 80.77450    -68.2 9.690e+03 1.540e-10
 80.80448    -72.0 9.060e+03 3.074e-10
 80.82443    -76.7 1.570e+04 1.871e-09
 80.83581    -78.8 2.119e+04 8.144e-09
 80.84584    -79.0 2.148e+04 1.085e-08
 80.85947    -79.1 2.337e+04 2.141e-08
 80.86945    -79.5 2.412e+04 3.538e-08
 80.87861    -79.7 2.436e+04 5.421e-08
 80.88362    -79.9 2.410e+04 5.604e-08
 80.88459    -80.5 2.404e+04 7.353e-08
 80.88961    -79.3 2.559e+04 7.640e-08
 80.89952    -80.5 2.556e+04 8.684e-08
 80.90955    -82.2 2.551e+04 8.986e-08
 80.91957    -84.6 2.557e+04 9.153e-08
 80.92651    -88.3 2.635e+04 9.471e-08
 80.93152    -88.2 2.516e+04 8.685e-08
 80.93962    -92.5 2.590e+04 1.007e-07
 80.94964    -96.5 2.515e+04 1.591e-07
 80.95967    -99.5 2.422e+04 2.586e-07
 80.96940   -102.2 2.380e+04 3.568e-07
 80.97442   -101.2 2.361e+04 3.237e-07
 80.97972   -103.9 2.341e+04 3.664e-07
 80.98974   -106.0 2.320e+04 3.511e-07
 80.99977   -107.0 2.363e+04 2.325e-07
 81.00979   -107.7 2.470e+04 1.238e-07
 81.01662   -109.0 2.555e+04 6.388e-08
 81.01912   -106.2 2.570e+04 1.603e-07
 81.02232   -105.7 2.491e+04 1.783e-07
 81.02984   -106.7 2.741e+04 1.058e-07
 81.03987   -108.3 2.940e+04 5.882e-08
 81.04989   -110.4 2.966e+04 3.254e-08
 81.05992   -112.7 2.702e+04 2.004e-08
 81.06521   -115.0 2.289e+04 1.466e-08
 81.07023   -114.1 2.318e+04 1.457e-08
 81.07997   -115.8 2.019e+04 1.175e-08
 81.08999   -116.9 1.845e+04 1.029e-08
 81.10002   -117.6 1.775e+04 9.456e-09
 81.10811   -118.2 1.750e+04 8.933e-09
 81.11312   -117.4 1.747e+04 8.826e-09
 81.12007   -117.8 1.736e+04 8.493e-09
 81.13009   -118.2 1.736e+04 8.230e-09
 81.14011   -118.6 1.741e+04 8.113e-09
 81.14864   -119.1 1.762e+04 8.065e-09
 81.15366   -120.1 1.815e+04 1.075e-08
 81.15601   -120.8 1.875e+04 1.185e-08
 81.16102   -120.0 1.868e+04 1.173e-08
 81.17019   -120.8 1.940e+04 1.344e-08
 81.18021   -121.7 2.006e+04 1.571e-08
 81.19024   -122.5 2.056e+04 1.829e-08
 81.19890   -123.5 2.077e+04 2.073e-08
 81.20392   -122.9 2.101e+04 2.266e-08
 81.21029   -123.9 2.083e+04 2.534e-08
 81.22031   -124.9 2.063e+04 2.632e-08
 81.23034   -125.4 2.020e+04 2.680e-08
 81.24036   -125.5 1.946e+04 2.625e-08
 81.24681   -125.5 1.888e+04 2.424e-08
 81.25182   -125.1 1.919e+04 3.006e-08
 81.26041   -125.1 1.868e+04 2.659e-08
 81.27044   -125.1 1.831e+04 2.310e-08
 81.28046   -125.2 1.801e+04 2.018e-08
 81.28568   -125.2 1.778e+04 1.785e-08
 81.28991   -125.2 1.837e+04 1.914e-08
 81.29471   -125.0 1.869e+04 2.267e-08
 81.30051   -125.2 1.859e+04 2.005e-08
 81.31053   -125.6 1.855e+04 1.839e-08
 81.32056   -126.2 1.842e+04 1.727e-08
 81.33058   -126.7 1.821e+04 1.654e-08
 81.33761   -126.9 1.808e+04 1.626e-08
 81.34262   -127.1 1.829e+04 1.862e-08
 81.35063   -127.2 1.827e+04 1.861e-08
 81.36066   -127.1 1.824e+04 1.924e-08
 81.37068   -127.0 1.832e+04 2.054e-08
 81.38050   -126.8 1.844e+04 2.188e-08
 81.38551   -127.1 1.867e+04 2.558e-08
 81.39073   -126.9 1.881e+04 2.708e-08
 81.40076   -126.7 1.889e+04 2.789e-08
 81.41078   -126.5 1.890e+04 2.804e-08
 81.41771   -126.3 1.882e+04 2.682e-08
 81.42778   -126.6 1.864e+04 1.994e-08
 81.44597   -126.0 1.822e+04 1.508e-08
 81.46602   -125.5 1.757e+04 1.064e-08
 81.47641   -124.9 1.709e+04 7.355e-09
 81.48643   -125.4 1.719e+04 7.325e-09
 81.50611   -124.9 1.655e+04 5.183e-09
 81.52616   -124.7 1.591e+04 3.757e-09
 81.54621   -124.6 1.549e+04 2.897e-09
 81.56219   -124.6 1.537e+04 2.519e-09
 81.57221   -124.9 1.569e+04 3.135e-09
 81.58631   -125.0 1.581e+04 3.125e-09
 81.60636   -125.0 1.616e+04 3.529e-09
 81.62641   -124.8 1.633e+04 4.192e-09
 81.64646   -124.6 1.638e+04 5.041e-09
 81.65800   -124.2 1.634e+04 5.995e-09
 81.66802   -124.4 1.699e+04 8.781e-09
 81.68185   -123.8 1.691e+04 9.509e-09
 81.69188   -123.5 1.694e+04 9.317e-09
 81.70661   -123.0 1.677e+04 8.624e-09
 81.72666   -122.6 1.654e+04 7.508e-09
 81.74378   -122.4 1.624e+04 6.093e-09
 81.75381   -122.9 1.633e+04 6.042e-09
 81.76676   -122.8 1.584e+04 4.548e-09
 81.78681   -122.6 1.529e+04 3.383e-09
 81.80686   -122.3 1.461e+04 2.526e-09
 81.82691   -121.9 1.397e+04 1.953e-09
 81.83959   -121.3 1.343e+04 1.576e-09
 81.84962   -121.9 1.310e+04 1.404e-09
 81.86700   -121.1 1.274e+04 1.190e-09
 81.88705   -120.0 1.247e+04 1.025e-09
 81.90710   -118.9 1.225e+04 8.894e-10
 81.92538   -117.8 1.208e+04 7.723e-10
 81.93540   -118.1 1.190e+04 7.044e-10
 81.94590   -116.9 1.180e+04 6.187e-10
 81.95593   -117.3 1.159e+04 4.104e-10
 81.97737   -116.5 1.147e+04 3.453e-10
 82.01757   -113.9 1.132e+04 2.930e-10
 82.05767   -111.3 1.120e+04 2.541e-10
 82.09714   -109.0 1.108e+04 2.360e-10
 82.11719   -109.4 1.133e+04 3.147e-10
 82.13787   -107.1 1.125e+04 3.345e-10
 82.17797   -104.6 1.113e+04 3.600e-10
 82.21807   -102.1 1.099e+04 3.801e-10
 82.25816    -99.7 1.092e+04 3.846e-10
 82.28876    -97.3 1.082e+04 3.753e-10
 82.30881    -97.5 1.100e+04 4.646e-10
 82.33836    -95.3 1.094e+04 4.355e-10
 82.37846    -93.0 1.081e+04 3.996e-10
 82.41856    -90.6 1.059e+04 3.537e-10
 82.45866    -88.0 1.034e+04 2.929e-10
 82.48038    -85.2 1.007e+04 2.352e-10
 82.48589    -85.7 1.010e+04 2.291e-10
 82.50427    -85.5 1.027e+04 3.012e-10
 82.53886    -82.7 1.011e+04 2.518e-10
 82.57896    -79.9 1.004e+04 2.130e-10
 82.61905    -77.2 9.994e+03 1.859e-10
 82.65195    -74.6 9.949e+03 1.686e-10
 82.67200    -75.1 9.991e+03 1.705e-10
 82.69925    -72.5 9.956e+03 1.638e-10
 82.73935    -70.0 9.921e+03 1.606e-10
 82.77945    -67.4 9.870e+03 1.587e-10
 82.81955    -64.9 9.819e+03 1.558e-10
 82.84357    -62.3 9.768e+03 1.503e-10
 82.86362    -62.6 9.658e+03 1.421e-10
 82.89975    -59.9 9.599e+03 1.292e-10
 82.93985    -57.3 9.520e+03 1.166e-10
 82.97994    -54.7 9.445e+03 1.054e-10
 83.01232    -52.2 9.429e+03 9.717e-11
 83.02746    -52.1 9.569e+03 1.025e-10
 83.03519    -52.3 9.503e+03 9.172e-11
 83.06014    -49.9 9.504e+03 9.275e-11
 83.10024    -47.6 9.525e+03 9.894e-11
 83.14034    -45.4 9.576e+03 1.072e-10
 83.18044    -43.3 9.629e+03 1.160e-10
 83.20676    -41.2 9.673e+03 1.238e-10
 83.22681    -41.3 9.670e+03 1.244e-10
 83.26064    -39.3 9.697e+03 1.300e-10
 83.30074    -37.6 9.697e+03 1.358e-10
 83.34083    -35.9 9.679e+03 1.448e-10
 83.37833    -34.5 9.664e+03 1.584e-10
 83.39838    -34.6 9.686e+03 1.580e-10
 83.42103    -33.3 9.679e+03 1.721e-10
 83.46113    -32.1 9.656e+03 1.794e-10
 83.50123    -30.9 9.611e+03 1.798e-10
 83.54042    -29.5 9.436e+03 1.641e-10
 83.56047    -29.4 9.427e+03 1.832e-10
 83.56995    -27.7 9.291e+03 1.537e-10
 83.59000    -27.5 9.383e+03 1.743e-10
 83.62153    -25.8 9.301e+03 1.458e-10
 83.66163    -24.0 9.272e+03 1.313e-10
 83.70172    -22.1 9.274e+03 1.277e-10
 83.74152    -20.2 9.359e+03 1.291e-10
 83.76157    -20.1 9.556e+03 1.630e-10
 83.78192    -18.4 9.717e+03 1.979e-10
 83.82202    -16.6 9.905e+03 2.577e-10
 83.86212    -14.5 1.009e+04 3.321e-10
 83.90222    -12.3 1.025e+04 3.947e-10
 83.93314     -9.9 1.033e+04 4.215e-10
 83.95319    -10.0 1.039e+04 4.362e-10
 83.98242     -7.8 1.029e+04 3.921e-10
 84.02252     -5.7 1.022e+04 3.538e-10
 84.06261     -3.9 1.024e+04 3.429e-10
 84.08856     -2.5 1.042e+04 3.770e-10
 84.10861     -2.5 1.071e+04 4.406e-10
 84.12476     -1.5 1.121e+04 7.493e-10
 84.14481     -1.8 1.130e+04 7.679e-10
 84.18291     -0.1 1.193e+04 1.240e-09
 84.22301      1.6 1.241e+04 1.602e-09
 84.26311      2.6 1.248e+04 1.656e-09
 84.29633      3.2 1.210e+04 1.308e-09
 84.31638      2.9 1.182e+04 1.138e-09
 84.34331      3.1 1.129e+04 8.020e-10
 84.38341      2.8 1.107e+04 7.109e-10
 84.42351      2.9 1.106e+04 7.352e-10
 84.45348      2.7 1.114e+04 8.419e-10
 84.47343      2.3 1.172e+04 1.007e-09
 84.48775      1.2 1.308e+04 1.290e-09
 84.49777      1.4 1.302e+04 1.318e-09
 84.51353     -4.6 1.679e+04 3.300e-09
 84.53358     -8.2 1.841e+04 8.141e-09
 84.55363     -9.4 1.892e+04 1.416e-08
 84.57353     -9.8 1.907e+04 1.632e-08
 84.58356     -9.3 1.890e+04 1.501e-08
 84.59373     -9.9 1.830e+04 1.144e-08
 84.61378    -11.8 1.691e+04 4.944e-09
 84.62649    -16.1 1.400e+04 1.786e-09
 84.63652    -12.1 1.573e+04 3.131e-09
 84.65388    -15.6 1.308e+04 1.440e-09
 84.66934    -17.3 1.260e+04 1.193e-09
 84.67937    -16.0 1.235e+04 1.061e-09
 84.69398    -22.2 2.006e+04 8.695e-10
 84.71403    -38.0 3.590e+04 2.269e-09
 84.72902    -44.6 2.755e+04 1.510e-08
 84.73899    -45.1 2.440e+04 4.245e-08
 84.74902    -45.1 2.335e+04 8.047e-08
 84.75842    -45.3 2.393e+04 1.043e-07
 84.76343    -44.4 2.338e+04 1.095e-07
 84.76506    -44.9 2.428e+04 1.359e-07
 84.77007    -45.0 2.466e+04 8.599e-08
 84.77909    -48.2 2.598e+04 8.280e-08
 84.78911    -56.1 2.876e+04 4.899e-08
 84.79914    -69.0 2.828e+04 2.325e-08
 84.80795    -82.3 2.462e+04 1.816e-08
 84.81296    -81.9 2.462e+04 1.562e-08
 84.81919    -90.9 2.358e+04 1.602e-08
 84.82921    -95.9 2.352e+04 2.298e-08
 84.83924    -99.7 2.369e+04 2.891e-08
 84.84926   -103.4 2.363e+04 3.028e-08
 84.85585   -106.4 2.288e+04 2.974e-08
 84.86087   -106.5 2.251e+04 2.672e-08
 84.86931   -108.9 2.157e+04 2.177e-08
 84.87934   -111.7 2.078e+04 1.518e-08
 84.88936   -115.2 1.999e+04 9.741e-09
 84.89546   -119.7 1.896e+04 5.966e-09
 84.89983   -121.5 1.856e+04 5.362e-09
 84.90376   -121.8 1.891e+04 5.518e-09
 84.90941   -126.9 1.753e+04 3.798e-09
 84.91944   -130.4 1.675e+04 3.212e-09
 84.93452   -133.1 1.642e+04 3.015e-09
 84.94675   -138.3 1.615e+04 2.940e-09
 84.95171   -139.1 1.685e+04 3.335e-09
 84.95953   -141.1 1.702e+04 3.669e-09
 84.96956   -144.2 1.710e+04 4.401e-09
 84.97958   -145.9 1.813e+04 6.012e-09
 84.98954   -147.5 1.896e+04 8.752e-09
 84.99456   -149.0 1.955e+04 1.337e-08
 84.99963   -149.5 2.011e+04 1.685e-08
 85.00966   -150.0 2.052e+04 1.921e-08
 85.01968   -150.7 2.076e+04 2.012e-08
 85.02748   -151.4 2.085e+04 2.040e-08
 85.03249   -152.8 2.121e+04 2.284e-08
 85.03745   -153.3 2.117e+04 2.237e-08
 85.04251   -154.3 2.059e+04 1.858e-08
 85.05487   -154.9 2.022e+04 1.623e-08
 85.07492   -155.4 1.992e+04 1.404e-08
 85.09497   -156.2 1.960e+04 1.179e-08
 85.11502   -157.3 1.915e+04 9.679e-09
 85.12834   -158.7 1.831e+04 7.675e-09
 85.13837   -162.7 1.588e+04 4.444e-09
 85.15459   -164.0 1.501e+04 3.848e-09
 85.16461   -165.5 1.428e+04 3.363e-09
 85.17516   -166.0 1.370e+04 2.971e-09
 85.19521   -166.0 1.336e+04 2.584e-09
 85.21413   -166.0 1.311e+04 2.210e-09
 85.22415   -166.7 1.355e+04 2.820e-09
 85.23531   -166.4 1.327e+04 2.415e-09
 85.25536   -166.3 1.288e+04 1.946e-09
 85.27541   -166.3 1.244e+04 1.540e-09
 85.29546   -166.5 1.200e+04 1.236e-09
 85.30994   -166.8 1.158e+04 1.036e-09
 85.31996   -167.2 1.204e+04 1.354e-09
 85.33556   -167.4 1.166e+04 1.183e-09
 85.35561   -167.4 1.131e+04 1.066e-09
 85.37566   -167.0 1.099e+04 9.759e-10
 85.39571   -166.3 1.072e+04 8.919e-10
 85.41576   -165.5 1.059e+04 8.379e-10
 85.42866   -164.5 1.032e+04 6.897e-10
 85.43869   -164.7 1.024e+04 6.525e-10
 85.45586   -163.8 1.003e+04 5.191e-10
 85.47591   -163.1 9.884e+03 4.268e-10
 85.50608   -162.7 9.779e+03 3.685e-10
 85.54627   -161.7 9.601e+03 3.048e-10
 85.57751   -160.2 9.428e+03 2.530e-10
 85.59756   -161.0 9.451e+03 2.694e-10
 85.62647   -159.4 9.407e+03 2.544e-10
 85.66657   -158.1 9.407e+03 2.542e-10
 85.69291   -157.6 9.619e+03 2.646e-10
 85.71296   -157.0 9.929e+03 2.818e-10
 85.73665   -157.0 1.013e+04 3.010e-10
 85.75660   -158.2 1.046e+04 3.156e-10
 85.76894   -163.2 1.127e+04 6.229e-10
 85.77896   -164.9 1.194e+04 1.002e-09
 85.79670   -168.9 1.764e+04 5.703e-09
 85.81169   -170.0 2.034e+04 1.638e-08
 85.81674   -170.3 2.160e+04 3.000e-08
 85.82175   -170.8 2.184e+04 3.756e-08
 85.82965   -171.4 2.275e+04 6.656e-08
 85.83466   -171.0 2.247e+04 4.922e-08
 85.84171   -172.3 2.309e+04 7.431e-08
 85.85174   -174.3 2.322e+04 8.929e-08
 85.85963   -176.3 2.318e+04 9.251e-08
 85.86465   -177.0 2.332e+04 9.795e-08
 85.87178   -178.6 2.270e+04 8.820e-08
 85.88181   -179.1 2.205e+04 6.272e-08
 85.89183   -179.4 2.146e+04 4.141e-08
 85.90186   -180.1 2.089e+04 2.789e-08
 85.90754   -181.2 2.018e+04 1.970e-08
 85.91255   -181.9 2.008e+04 1.995e-08
 85.92191   -182.7 1.930e+04 1.512e-08
 85.93193   -183.3 1.855e+04 1.205e-08
 85.94196   -183.6 1.794e+04 1.002e-08
 85.95043   -183.8 1.746e+04 8.675e-09
 85.95544   -184.6 1.787e+04 1.041e-08
 85.96168   -184.7 1.757e+04 9.621e-09
 85.96674   -184.0 1.779e+04 1.037e-08
 85.97714   -184.0 1.754e+04 9.648e-09
 85.99719   -183.8 1.748e+04 9.555e-09
 86.01724   -183.5 1.760e+04 1.004e-08
 86.03631   -183.2 1.787e+04 1.108e-08
 86.04634   -183.9 1.844e+04 1.575e-08
 86.05734   -183.8 1.832e+04 1.545e-08
 86.07739   -183.8 1.818e+04 1.492e-08
 86.09744   -183.8 1.805e+04 1.455e-08
 86.11749   -183.8 1.787e+04 1.440e-08
 86.13212   -183.8 1.765e+04 1.385e-08
 86.14215   -183.8 1.672e+04 8.038e-09
 86.15759   -183.8 1.635e+04 6.308e-09
 86.17764   -184.0 1.592e+04 4.633e-09
 86.19769   -184.5 1.539e+04 3.233e-09
 86.21774   -185.2 1.479e+04 2.209e-09
 86.22793   -185.8 1.417e+04 1.551e-09
 86.23101   -187.7 1.323e+04 6.604e-10
 86.24086   -187.1 1.399e+04 9.534e-10
 86.25783   -187.5 1.350e+04 7.541e-10
 86.27788   -187.7 1.302e+04 6.686e-10
 86.29793   -187.3 1.259e+04 6.383e-10
 86.31372   -186.7 1.235e+04 6.255e-10
 86.32374   -186.9 1.201e+04 5.401e-10
 86.33803   -186.2 1.196e+04 5.353e-10
 86.35808   -185.4 1.193e+04 5.262e-10
 86.37813   -184.7 1.192e+04 5.125e-10
 86.39818   -184.0 1.193e+04 4.983e-10
 86.40953   -183.4 1.197e+04 4.916e-10
 86.41955   -183.8 1.179e+04 4.322e-10
 86.43828   -183.3 1.180e+04 4.330e-10
 86.45833   -183.2 1.189e+04 4.358e-10
 86.47838   -183.3 1.222e+04 4.506e-10
 86.49489   -183.6 1.251e+04 5.273e-10
 86.50179   -182.9 1.239e+04 5.830e-10
 86.50534   -183.2 1.208e+04 5.373e-10
 86.51848   -183.2 1.226e+04 6.477e-10
 86.53853   -183.3 1.246e+04 7.806e-10
 86.55858   -183.4 1.264e+04 9.111e-10
 86.58875   -183.8 1.284e+04 1.046e-09
 86.62894   -183.8 1.293e+04 1.157e-09
 86.66708   -184.4 1.284e+04 1.154e-09
 86.68713   -184.6 1.250e+04 8.907e-10
 86.70914   -184.6 1.227e+04 8.187e-10
 86.74911   -184.0 1.184e+04 6.450e-10
 86.78920   -182.8 1.163e+04 6.112e-10
 86.82944   -181.5 1.125e+04 4.917e-10
 86.85870   -180.4 1.104e+04 4.310e-10
 86.87875   -180.5 1.105e+04 4.160e-10
 86.90964   -179.3 1.082e+04 3.738e-10
 86.94974   -178.1 1.062e+04 3.457e-10
 86.98983   -176.9 1.049e+04 3.294e-10
 87.02993   -175.8 1.040e+04 3.231e-10
 87.05032   -174.8 1.036e+04 3.201e-10
 87.07037   -175.0 1.039e+04 3.259e-10
 87.11013   -174.0 1.035e+04 3.265e-10
 87.15023   -173.0 1.020e+04 3.264e-10
 87.19033   -171.8 1.005e+04 3.186e-10
 87.22189   -170.5 9.902e+03 3.043e-10
 87.24194   -170.4 9.830e+03 2.808e-10
 87.27053   -168.9 9.716e+03 2.565e-10
 87.29725   -167.4 9.618e+03 2.307e-10
 87.31730   -167.6 9.553e+03 2.208e-10
 87.35072   -166.2 9.441e+03 1.924e-10
 87.39082   -164.7 9.344e+03 1.681e-10
 87.41350   -163.2 9.253e+03 1.490e-10
 87.43355   -163.2 9.231e+03 1.439e-10
 87.47102   -161.7 9.155e+03 1.334e-10
 87.51112   -160.1 9.082e+03 1.248e-10
 87.55122   -158.5 9.016e+03 1.197e-10
 87.58507   -156.8 8.987e+03 1.177e-10
 87.60512   -156.7 8.971e+03 1.176e-10
 87.63142   -155.1 8.941e+03 1.161e-10
 87.67152   -153.4 8.917e+03 1.161e-10
 87.71162   -151.8 8.899e+03 1.164e-10
 87.75171   -150.3 8.865e+03 1.151e-10
 87.77669   -148.7 8.806e+03 1.109e-10
 87.79674   -148.2 8.758e+03 9.481e-11
 87.82535   -146.6 8.693e+03 8.595e-11
 87.84540   -147.0 8.616e+03 7.305e-11
 87.87201   -145.4 8.575e+03 6.892e-11
 87.91211   -143.7 8.550e+03 6.680e-11
 87.94826   -142.0 8.542e+03 6.599e-11
 87.96831   -141.4 8.575e+03 5.466e-11
 87.99231   -139.8 8.606e+03 5.587e-11
 88.03241   -138.3 8.643e+03 6.582e-11
 88.07251   -136.9 8.694e+03 8.373e-11
 88.11260   -135.4 8.757e+03 1.064e-10
 88.13988   -133.9 8.836e+03 1.298e-10
 88.15993   -133.3 8.946e+03 1.421e-10
 88.19280   -131.8 9.035e+03 1.663e-10
 88.23290   -130.3 9.087e+03 1.802e-10
 88.27300   -128.9 9.099e+03 1.834e-10
 88.31145   -127.4 9.097e+03 1.832e-10
 88.33150   -127.0 9.294e+03 2.237e-10
 88.35320   -125.4 9.281e+03 2.222e-10
 88.37350   -123.8 9.253e+03 2.185e-10
 88.39355   -124.3 9.376e+03 2.431e-10
 88.43340   -122.6 9.356e+03 2.414e-10
 88.47349   -121.0 9.354e+03 2.413e-10
 88.50307   -119.4 9.406e+03 2.534e-10
 88.52312   -119.0 9.584e+03 3.068e-10
 88.55369   -117.3 9.671e+03 3.240e-10
 88.59379   -115.7 9.794e+03 3.485e-10
 88.63389   -114.3 9.948e+03 3.794e-10
 88.67399   -113.1 1.014e+04 4.191e-10
 88.69469   -112.3 1.041e+04 4.857e-10
 88.71474   -111.9 1.063e+04 5.519e-10
 88.75419   -111.6 1.104e+04 7.080e-10
 88.79429   -111.5 1.155e+04 9.662e-10
 88.83438   -111.7 1.206e+04 1.288e-09
 88.86626   -112.5 1.237e+04 1.505e-09
 88.88631   -112.5 1.281e+04 1.788e-09
 88.90160   -113.6 1.283e+04 1.811e-09
 88.92165   -113.4 1.264e+04 1.602e-09
 88.95468   -114.1 1.253e+04 1.476e-09
 88.99478   -114.3 1.221e+04 1.121e-09
 89.03488   -114.4 1.181e+04 7.975e-10
 89.05788   -113.8 1.145e+04 5.647e-10
 89.07793   -113.4 1.154e+04 5.555e-10
 89.10495   -112.1 1.118e+04 4.024e-10
 89.12491   -111.6 1.113e+04 3.767e-10
 89.15508   -110.5 1.110e+04 3.444e-10
 89.19527   -109.2 1.103e+04 3.185e-10
 89.22945   -107.6 1.086e+04 2.870e-10
 89.24950   -107.1 1.079e+04 2.933e-10
 89.27547   -105.1 1.058e+04 2.593e-10
 89.31557   -103.1 1.039e+04 2.273e-10
 89.35567   -101.0 1.023e+04 1.974e-10
 89.39577    -99.0 1.011e+04 1.710e-10
 89.42107    -96.9 1.003e+04 1.514e-10
 89.43494    -96.3 1.000e+04 1.663e-10
 89.44975    -96.4 9.892e+03 1.426e-10
 89.47597    -94.3 9.814e+03 1.273e-10
 89.51607    -92.2 9.735e+03 1.180e-10
 89.55616    -90.0 9.689e+03 1.136e-10
 89.59264    -87.9 9.674e+03 1.130e-10
 89.61269    -87.4 9.561e+03 1.034e-10
 89.63636    -85.2 9.541e+03 1.021e-10
 89.67646    -83.1 9.529e+03 1.049e-10
 89.71656    -81.0 9.526e+03 1.142e-10
 89.75666    -79.0 9.526e+03 1.292e-10
 89.78426    -77.0 9.519e+03 1.466e-10
 89.80431    -76.5 9.436e+03 1.132e-10
 89.83686    -74.5 9.411e+03 1.313e-10
 89.87696    -72.6 9.368e+03 1.453e-10
 89.91705    -70.6 9.329e+03 1.507e-10
 89.95583    -68.6 9.272e+03 1.508e-10
 89.97588    -68.1 9.219e+03 1.420e-10
 89.97784    -66.1 9.166e+03 1.419e-10
 89.99789    -66.4 9.115e+03 1.412e-10
 90.03735    -64.4 9.012e+03 1.307e-10
 90.07745    -62.3 8.913e+03 1.165e-10
 90.11755    -60.2 8.815e+03 1.019e-10
 90.14745    -58.0 8.720e+03 8.912e-11
 90.16749    -57.4 8.737e+03 1.009e-10
 90.19775    -55.2 8.642e+03 8.561e-11
 90.23785    -52.9 8.584e+03 7.604e-11
 90.27794    -50.6 8.574e+03 7.220e-11
 90.31804    -48.3 8.573e+03 7.135e-11
 90.33906    -45.9 8.577e+03 7.142e-11
 90.35911    -45.4 8.579e+03 7.151e-11
 90.39824    -43.2 8.619e+03 7.220e-11
 90.43834    -41.1 8.688e+03 7.750e-11
 90.47844    -38.9 8.753e+03 8.780e-11
 90.50594    -36.8 8.825e+03 1.038e-10
 90.51809    -36.9 8.772e+03 1.036e-10
 90.53068    -36.6 8.817e+03 1.163e-10
 90.55864    -34.3 8.873e+03 1.380e-10
 90.59874    -32.1 8.949e+03 1.560e-10
 90.63883    -29.9 9.055e+03 1.709e-10
 90.67893    -28.1 9.229e+03 1.915e-10
 90.70225    -26.6 9.483e+03 2.370e-10
 90.72230    -26.9 9.546e+03 2.460e-10
 90.75913    -25.9 9.920e+03 3.713e-10
 90.79923    -24.7 1.040e+04 6.102e-10
 90.83933    -23.4 1.093e+04 9.042e-10
 90.87382    -22.5 1.140e+04 1.126e-09
 90.89387    -23.3 1.139e+04 1.115e-09
 90.91953    -23.1 1.162e+04 1.193e-09
 90.95963    -23.3 1.183e+04 1.248e-09
 90.99973    -23.7 1.216e+04 1.407e-09
 91.02970    -24.7 1.245e+04 1.639e-09
 91.04387    -25.4 1.267e+04 1.821e-09
 91.05389    -25.2 1.269e+04 1.837e-09
 91.06525    -26.2 1.301e+04 2.177e-09
 91.07527    -26.6 1.291e+04 2.108e-09
 91.08975    -27.5 1.332e+04 2.575e-09
 91.10980    -28.6 1.372e+04 3.109e-09
 91.12985    -29.7 1.403e+04 3.513e-09
 91.14990    -31.3 1.423e+04 3.750e-09
 91.16106    -33.5 1.444e+04 4.000e-09
 91.17108    -33.2 1.408e+04 3.593e-09
 91.19000    -35.7 1.448e+04 4.085e-09
 91.21005    -38.5 1.522e+04 5.327e-09
 91.23010    -41.1 1.599e+04 7.324e-09
 91.24684    -43.1 1.649e+04 9.266e-09
 91.25687    -42.2 1.569e+04 6.751e-09
 91.27020    -44.0 1.584e+04 7.438e-09
 91.29025    -45.7 1.578e+04 7.519e-09
 91.30792    -47.0 1.516e+04 6.242e-09
 91.31794    -47.3 1.501e+04 5.603e-09
 91.33035    -49.1 1.398e+04 3.687e-09
 91.34265    -51.2 1.285e+04 2.451e-09
 91.35268    -50.2 1.261e+04 2.217e-09
 91.37044    -51.8 1.178e+04 1.665e-09
 91.39049    -52.8 1.120e+04 1.380e-09
 91.41054    -53.1 1.086e+04 1.218e-09
 91.42844    -53.1 1.062e+04 1.111e-09
 91.43846    -52.4 1.064e+04 1.091e-09
 91.45064    -52.5 1.044e+04 1.004e-09
 91.47069    -52.6 1.029e+04 9.396e-10
 91.49074    -52.6 1.024e+04 9.087e-10
 91.51079    -52.5 1.023e+04 9.038e-10
 91.52425    -52.6 1.031e+04 9.224e-10
 91.53427    -52.1 1.044e+04 1.006e-09
 91.55089    -52.4 1.064e+04 1.110e-09
 91.57094    -52.7 1.089e+04 1.280e-09
 91.58199    -52.7 1.116e+04 1.502e-09
 91.59202    -53.0 1.073e+04 1.210e-09
 91.61003    -52.9 1.088e+04 1.308e-09
 91.62005    -52.6 1.115e+04 1.535e-09
 91.63109    -52.5 1.128e+04 1.617e-09
 91.65114    -52.6 1.140e+04 1.661e-09
 91.67119    -53.1 1.171e+04 1.727e-09
 91.69124    -55.2 1.265e+04 2.091e-09
 91.70584    -57.5 1.388e+04 3.314e-09
 91.71586    -57.1 1.402e+04 3.655e-09
 91.73133    -58.1 1.526e+04 6.219e-09
 91.75138    -58.3 1.644e+04 9.996e-09
 91.77143    -58.5 1.737e+04 1.350e-08
 91.79148    -59.6 1.772e+04 1.474e-08
 91.80165    -60.8 1.764e+04 1.445e-08
 91.81167    -60.1 1.748e+04 1.397e-08
 91.83158    -61.1 1.690e+04 1.096e-08
 91.84604    -62.3 1.589e+04 7.355e-09
 91.85607    -62.7 1.564e+04 7.108e-09
 91.87168    -63.9 1.450e+04 4.620e-09
 91.88743    -64.9 1.345e+04 2.998e-09
 91.89746    -64.2 1.331e+04 2.779e-09
 91.91178    -65.2 1.247e+04 1.876e-09
 91.93183    -65.9 1.188e+04 1.377e-09
 91.95188    -66.0 1.159e+04 1.099e-09
 91.97193    -65.7 1.141e+04 9.319e-10
 91.98324    -65.1 1.128e+04 8.104e-10
 91.99327    -64.3 1.111e+04 7.576e-10
 92.01203    -63.6 1.094e+04 6.417e-10
 92.04220    -63.0 1.061e+04 4.841e-10
 92.08240    -61.0 1.023e+04 3.250e-10
 92.11029    -59.7 1.026e+04 3.062e-10
 92.13034    -58.7 1.050e+04 4.012e-10
 92.15501    -57.6 1.057e+04 4.185e-10
 92.17506    -55.8 1.021e+04 2.793e-10
 92.20269    -54.6 1.025e+04 2.801e-10
 92.24279    -53.6 1.042e+04 3.689e-10
 92.28289    -52.3 1.094e+04 5.482e-10
 92.32299    -51.0 1.122e+04 6.725e-10
 92.34663    -49.8 1.130e+04 7.175e-10
 92.36668    -48.0 1.109e+04 6.183e-10
 92.40319    -47.1 1.122e+04 6.863e-10
 92.44329    -46.2 1.125e+04 7.026e-10
 92.48338    -45.1 1.112e+04 6.556e-10
 92.51820    -43.8 1.081e+04 5.481e-10
 92.53825    -42.3 1.103e+04 6.879e-10
 92.56358    -40.9 1.064e+04 5.510e-10
 92.60368    -39.5 1.021e+04 4.129e-10
 92.63838    -38.0 9.875e+03 2.981e-10
 92.65843    -38.7 9.542e+03 1.768e-10
 92.68388    -37.1 9.296e+03 1.190e-10
 92.70982    -35.4 9.082e+03 8.694e-11
 92.72987    -34.3 9.072e+03 9.024e-11
 92.76408    -32.7 8.880e+03 7.395e-11
 92.80418    -31.2 8.824e+03 7.068e-11
 92.84427    -29.9 8.732e+03 8.085e-11
 92.88139    -28.6 8.744e+03 1.193e-10
 92.90144    -27.8 8.745e+03 1.220e-10
 92.92447    -26.3 8.820e+03 1.812e-10
 92.96457    -24.7 8.868e+03 2.406e-10
 93.00467    -23.0 8.862e+03 2.638e-10
 93.04477    -21.4 8.797e+03 2.647e-10
 93.07301    -19.6 8.554e+03 2.242e-10
 93.09305    -19.0 8.573e+03 2.361e-10
 93.12497    -17.5 8.394e+03 1.866e-10
 93.16507    -16.2 8.301e+03 1.640e-10
 93.18653    -14.7 8.273e+03 1.590e-10
 93.20658    -15.3 7.916e+03 9.152e-11
 93.24457    -13.9 7.903e+03 9.064e-11
 93.26462    -13.4 7.865e+03 9.128e-11
 93.28536    -12.1 7.732e+03 9.467e-11
 93.32546    -10.7 7.791e+03 1.001e-10
 93.36556     -9.3 7.788e+03 1.102e-10
 93.40566     -7.8 7.790e+03 1.229e-10
 93.43619     -6.8 7.807e+03 1.393e-10
 93.45624     -6.0 7.761e+03 1.360e-10
 93.48586     -5.5 7.997e+03 1.803e-10
 93.52596     -5.5 8.591e+03 3.011e-10
 93.56605     -5.6 9.454e+03 5.780e-10
 93.60615     -5.5 1.022e+04 9.774e-10
 93.62781     -5.6 1.059e+04 1.207e-09
 93.64786     -4.6 1.023e+04 1.012e-09
 93.68635     -4.8 1.026e+04 1.039e-09
 93.71463     -4.5 9.778e+03 7.747e-10
 93.73468     -4.0 9.579e+03 6.896e-10
 93.76655     -3.1 8.907e+03 4.359e-10
 93.79938     -2.2 8.533e+03 3.205e-10
 93.81943     -1.4 8.408e+03 3.017e-10
 93.84675     -0.1 8.318e+03 2.750e-10
 93.88685      1.4 8.384e+03 2.742e-10
 93.92695      2.6 8.811e+03 3.253e-10
 93.96704      3.8 9.262e+03 4.358e-10
 93.99100      5.2 9.644e+03 5.753e-10
 94.01105      5.8 9.388e+03 4.895e-10
 94.04724      7.1 9.707e+03 5.899e-10
 94.08734      8.6 9.918e+03 6.339e-10
 94.12744     10.0 1.000e+04 6.330e-10
 94.16257     11.2 1.009e+04 6.136e-10
 94.18262     11.7 9.841e+03 5.064e-10
 94.20764     12.5 1.025e+04 5.496e-10
 94.24273     13.4 1.082e+04 7.241e-10
 94.26278     15.2 9.864e+03 4.303e-10
 94.28784     16.1 1.048e+04 5.233e-10
 94.32793     17.0 1.121e+04 7.534e-10
 94.35419     17.6 1.193e+04 1.182e-09
 94.37424     17.3 1.221e+04 1.238e-09
 94.39801     17.3 1.297e+04 2.224e-09
 94.41796     17.2 1.351e+04 3.028e-09
 94.43801     17.7 1.419e+04 4.193e-09
 94.44980     18.0 1.477e+04 5.169e-09
 94.45983     17.5 1.532e+04 6.198e-09
 94.47811     18.0 1.573e+04 7.011e-09
 94.49816     18.1 1.579e+04 7.198e-09
 94.51661     18.3 1.544e+04 6.384e-09
 94.52663     19.0 1.561e+04 6.377e-09
 94.53559     18.9 1.516e+04 5.344e-09
 94.54561     18.4 1.498e+04 5.112e-09
 94.55831     18.5 1.428e+04 3.961e-09
 94.57836     19.0 1.358e+04 2.982e-09
 94.59841     19.6 1.296e+04 2.110e-09
 94.61846     20.0 1.246e+04 1.458e-09
 94.63140     20.3 1.200e+04 1.031e-09
 94.64142     19.8 1.174e+04 8.601e-10
 94.65855     20.4 1.127e+04 6.503e-10
 94.67860     21.2 1.095e+04 5.309e-10
 94.69865     22.2 1.082e+04 4.557e-10
 94.71718     22.8 1.072e+04 4.128e-10
 94.73733     23.0 1.038e+04 3.577e-10
 94.76902     24.9 1.022e+04 3.266e-10
 94.79088     27.1 1.011e+04 3.094e-10
 94.80080     27.1 1.046e+04 3.891e-10
 94.81299     27.5 1.034e+04 3.711e-10
 94.82302     27.5 1.028e+04 3.552e-10
 94.84912     29.6 1.039e+04 3.797e-10
 94.88895     31.5 1.024e+04 3.442e-10
 94.90900     31.7 1.012e+04 3.185e-10
 94.92942     33.7 1.002e+04 3.209e-10
 94.96952     35.7 9.950e+03 3.197e-10
 95.00962     37.9 9.902e+03 3.343e-10
 95.04971     39.9 9.929e+03 3.555e-10
 95.08057     42.1 1.005e+04 4.182e-10
 95.10062     42.4 1.016e+04 4.682e-10
 95.12991     44.7 1.019e+04 4.831e-10
 95.17001     47.3 1.018e+04 4.158e-10
 95.21011     49.4 1.022e+04 3.649e-10
 95.25021     51.4 1.014e+04 3.653e-10
 95.27219     53.2 1.017e+04 3.931e-10
 95.29224     53.4 1.031e+04 4.511e-10
 95.31897     55.0 1.048e+04 5.174e-10
 95.33902     55.3 1.070e+04 5.371e-10
 95.37051     57.0 1.088e+04 5.783e-10
 95.40048     57.4 1.101e+04 6.509e-10
 95.42043     58.5 1.102e+04 6.776e-10
 95.44048     59.3 1.120e+04 7.274e-10
 95.45359     60.1 1.140e+04 7.897e-10
 95.46361     59.9 1.141e+04 7.865e-10
 95.48058     60.7 1.157e+04 8.585e-10
 95.50063     61.5 1.161e+04 9.460e-10
 95.52068     62.5 1.158e+04 9.957e-10
 95.53937     63.2 1.167e+04 9.956e-10
 95.54940     63.1 1.152e+04 9.189e-10
 95.56078     64.2 1.150e+04 8.573e-10
 95.58083     64.6 1.153e+04 8.246e-10
 95.59285     65.5 1.134e+04 7.253e-10
 95.60288     65.7 1.162e+04 8.523e-10
 95.62093     65.9 1.157e+04 8.189e-10
 95.63518     66.8 1.136e+04 7.281e-10
 95.65533     67.1 1.117e+04 6.077e-10
 95.69130     68.4 1.109e+04 5.341e-10
 95.73140     69.3 1.101e+04 4.793e-10
 95.76137     70.0 1.101e+04 4.810e-10
 95.78132     70.3 1.103e+04 4.848e-10
 95.80137     70.8 1.102e+04 4.912e-10
 95.81678     71.2 1.109e+04 5.063e-10
 95.82680     71.0 1.104e+04 4.758e-10
 95.84147     70.8 1.129e+04 5.563e-10
 95.85690     71.1 1.144e+04 6.380e-10
 95.86693     70.5 1.185e+04 8.365e-10
 95.88157     70.1 1.225e+04 1.206e-09
 95.90162     70.4 1.234e+04 1.338e-09
 95.93179     70.2 1.270e+04 1.748e-09
 95.97199     71.4 1.240e+04 1.427e-09
 95.99856     72.8 1.209e+04 8.545e-10
 96.01861     73.1 1.192e+04 7.398e-10
 96.05219     73.6 1.167e+04 4.218e-10
 96.09229     74.5 1.145e+04 3.597e-10
 96.13238     75.9 1.148e+04 3.745e-10
 96.17013     77.5 1.169e+04 4.549e-10
 96.19018     78.1 1.142e+04 3.820e-10
 96.21258     79.7 1.169e+04 4.916e-10
 96.25268     81.4 1.194e+04 6.723e-10
 96.29278     83.1 1.219e+04 8.134e-10
 96.33288     84.4 1.225e+04 7.915e-10
 96.36175     85.5 1.218e+04 6.991e-10
 96.38180     86.4 1.198e+04 5.318e-10
 96.39522     87.5 1.185e+04 4.656e-10
 96.41527     87.1 1.171e+04 4.184e-10
 96.45318     88.6 1.160e+04 4.363e-10
 96.49327     90.3 1.150e+04 4.628e-10
 96.53332     92.3 1.145e+04 4.861e-10
 96.57342     95.0 1.133e+04 4.391e-10
 96.61357     96.8 1.141e+04 4.494e-10
 96.65367     98.4 1.157e+04 4.573e-10
 96.69377     99.7 1.180e+04 4.766e-10
 96.72494    100.8 1.193e+04 5.188e-10
 96.74499    101.0 1.192e+04 5.118e-10
 96.76384    101.5 1.194e+04 5.715e-10
 96.78380    102.1 1.203e+04 6.649e-10
 96.80385    102.7 1.223e+04 7.971e-10
 96.82056    103.2 1.251e+04 9.526e-10
 96.83058    103.3 1.233e+04 9.152e-10
 96.84394    103.5 1.258e+04 1.074e-09
 96.86399    103.5 1.284e+04 1.289e-09
 96.88404    103.5 1.311e+04 1.583e-09
 96.90409    103.5 1.339e+04 1.954e-09
 96.91637    103.6 1.364e+04 2.324e-09
 96.92537    103.9 1.344e+04 2.069e-09
 96.93315    104.3 1.319e+04 1.677e-09
 96.94419    104.5 1.339e+04 1.979e-09
 96.96424    104.5 1.353e+04 2.148e-09
 96.98429    104.5 1.353e+04 2.127e-09
 97.00215    104.4 1.342e+04 2.000e-09
 97.01218    104.8 1.339e+04 1.951e-09
 97.02439    104.9 1.317e+04 1.781e-09
 97.04444    105.2 1.285e+04 1.441e-09
 97.06449    105.3 1.262e+04 1.142e-09
 97.08803    105.9 1.246e+04 8.908e-10
 97.10818    106.4 1.247e+04 8.746e-10
 97.13486    106.7 1.210e+04 5.416e-10
 97.17496    106.9 1.178e+04 3.618e-10
 97.21506    107.4 1.152e+04 3.219e-10
 97.25515    108.4 1.151e+04 3.239e-10
 97.27975    109.5 1.150e+04 3.380e-10
 97.29980    109.8 1.154e+04 2.973e-10
 97.33535    110.9 1.157e+04 3.427e-10
 97.37545    112.1 1.160e+04 3.873e-10
 97.41555    113.4 1.162e+04 4.199e-10
 97.45132    114.6 1.162e+04 4.349e-10
 97.47137    115.0 1.166e+04 3.952e-10
 97.49575    116.2 1.168e+04 4.057e-10
 97.53585    117.4 1.166e+04 3.986e-10
 97.57595    118.6 1.162e+04 3.814e-10
 97.61604    119.9 1.158e+04 3.671e-10
 97.64294    121.3 1.155e+04 3.645e-10
 97.66299    121.2 1.173e+04 4.511e-10
 97.68612    122.2 1.165e+04 4.515e-10
 97.70607    122.6 1.165e+04 4.634e-10
 97.73624    123.8 1.167e+04 5.396e-10
 97.77644    125.0 1.168e+04 6.405e-10
 97.81451    126.1 1.174e+04 7.697e-10
 97.83456    125.7 1.198e+04 9.961e-10
 97.85664    126.2 1.198e+04 1.021e-09
 97.89674    126.6 1.187e+04 9.486e-10
 97.93684    127.0 1.160e+04 7.521e-10
 97.97693    127.3 1.127e+04 5.293e-10
 97.99957    127.7 1.097e+04 4.588e-10
 98.00871    126.8 1.103e+04 4.909e-10
 98.02618    125.8 1.081e+04 4.020e-10
 98.05713    126.2 1.085e+04 4.093e-10
 98.09723    126.7 1.095e+04 4.485e-10
 98.13733    127.2 1.104e+04 5.056e-10
 98.17743    127.7 1.113e+04 5.659e-10
 98.19775    128.3 1.128e+04 6.479e-10
 98.21780    126.7 1.100e+04 5.064e-10
 98.25763    126.9 1.123e+04 6.142e-10
 98.29773    127.2 1.145e+04 7.229e-10
 98.33782    127.6 1.162e+04 7.600e-10
 98.36932    128.0 1.163e+04 7.225e-10
 98.38937    125.4 1.075e+04 5.677e-10
 98.41802    126.0 1.057e+04 5.076e-10
 98.45812    126.9 1.039e+04 4.188e-10
 98.49822    127.9 1.020e+04 3.427e-10
 98.52766    129.2 1.014e+04 3.240e-10
 98.54771    128.4 1.033e+04 3.982e-10
 98.56094    130.2 1.036e+04 4.166e-10
 98.58099    128.5 1.027e+04 3.805e-10
 98.61852    130.5 1.045e+04 4.363e-10
 98.65862    132.5 1.082e+04 5.611e-10
 98.69871    134.2 1.116e+04 7.286e-10
 98.72869    135.1 1.138e+04 8.546e-10
 98.74233    135.8 1.156e+04 9.577e-10
 98.75246    134.8 1.119e+04 7.281e-10
 98.77891    136.1 1.175e+04 9.878e-10
 98.80164    137.4 1.222e+04 1.255e-09
 98.81157    136.8 1.222e+04 1.294e-09
 98.82812    137.6 1.248e+04 1.465e-09
 98.83814    137.1 1.183e+04 1.018e-09
 98.85901    138.5 1.234e+04 1.296e-09
 98.89921    139.3 1.226e+04 1.250e-09
 98.92412    140.3 1.193e+04 1.076e-09
 98.94417    139.8 1.113e+04 6.738e-10
 98.97941    141.4 1.084e+04 5.900e-10
 99.01951    143.2 1.053e+04 4.971e-10
 99.05576    145.3 1.028e+04 4.199e-10
 99.07581    144.5 1.033e+04 4.394e-10
 99.09569    146.7 1.015e+04 3.837e-10
 99.11574    146.4 9.798e+03 2.807e-10
 99.13980    148.7 9.699e+03 2.492e-10
 99.17990    150.9 9.605e+03 2.222e-10
 99.22000    153.3 9.475e+03 1.974e-10
 99.26010    155.7 9.312e+03 1.787e-10
 99.28731    158.3 9.229e+03 1.748e-10
 99.30736    157.9 9.021e+03 1.253e-10
 99.34030    160.7 9.013e+03 1.318e-10
 99.38040    163.5 9.058e+03 1.475e-10
 99.42049    166.4 9.168e+03 1.718e-10
 99.45888    169.3 9.338e+03 2.044e-10
 99.47893    168.4 8.990e+03 1.644e-10
 99.50069    171.1 9.119e+03 1.894e-10
 99.54079    173.5 9.289e+03 2.172e-10
 99.58089    175.5 9.399e+03 2.436e-10
 99.60391    177.1 9.519e+03 2.755e-10
 99.61384    176.6 9.636e+03 2.887e-10
 99.63082    177.1 9.571e+03 2.906e-10
 99.65031    177.9 9.530e+03 2.981e-10
 99.66033    176.9 9.524e+03 3.030e-10
 99.67092    177.9 9.476e+03 3.298e-10
 99.69097    178.6 9.655e+03 4.197e-10
 99.71102    178.6 1.014e+04 5.840e-10
 99.73107    178.4 1.080e+04 8.612e-10
 99.74612    178.2 1.164e+04 1.343e-09
 99.75614    178.1 1.151e+04 1.299e-09
 99.77116    178.0 1.237e+04 2.010e-09
 99.79121    178.2 1.319e+04 2.963e-09
 99.81126    178.4 1.382e+04 3.689e-09
 99.83131    178.2 1.395e+04 3.721e-09
 99.84193    177.8 1.386e+04 3.514e-09
 99.85195    177.0 1.374e+04 3.324e-09
 99.86776    176.7 1.339e+04 2.716e-09
 99.87779    177.1 1.358e+04 2.833e-09
 99.89146    176.7 1.277e+04 1.818e-09
 99.91151    175.6 1.178e+04 1.077e-09
 99.92771    173.7 1.076e+04 6.689e-10
 99.93774    172.3 1.079e+04 6.954e-10
 99.95161    170.6 1.008e+04 5.203e-10
 99.97166    169.8 9.856e+03 4.902e-10
 99.99171    169.6 9.824e+03 4.892e-10
