# Columns:
#   distance along LOS (in CHIMPs)
#   peculiar velocity  (in km/s)
#   temperature (K)
#   HI number density
# pos=(136.31,154.747,3.84219), angles=(0.168983,0.838636)
  0.00178   -101.0 1.042e+04 7.905e-10
  0.01448   -101.4 1.049e+04 7.776e-10
  0.04522   -102.5 1.050e+04 7.805e-10
  0.08485   -103.3 1.030e+04 6.997e-10
  0.12447   -103.7 9.858e+03 5.163e-10
  0.16410   -103.9 9.433e+03 3.633e-10
  0.20373   -104.0 9.136e+03 2.798e-10
  0.24335   -104.1 9.038e+03 2.557e-10
  0.26354   -103.8 9.025e+03 2.533e-10
  0.28335   -103.8 9.590e+03 4.350e-10
  0.30932   -103.6 9.628e+03 4.582e-10
  0.32914   -103.1 1.042e+04 7.558e-10
  0.36223   -102.8 1.044e+04 7.675e-10
  0.40186   -102.2 1.027e+04 6.811e-10
  0.44149   -101.7 9.963e+03 5.098e-10
  0.48112   -101.6 9.817e+03 4.009e-10
  0.52074   -101.7 9.824e+03 3.786e-10
  0.56037   -102.6 1.024e+04 4.029e-10
  0.59577   -104.0 1.109e+04 5.943e-10
  0.61559   -105.9 1.190e+04 1.019e-09
  0.62398   -107.0 1.217e+04 1.349e-09
  0.64379   -105.0 1.234e+04 1.370e-09
  0.67925   -105.8 1.237e+04 1.451e-09
  0.71888   -106.1 1.190e+04 1.191e-09
  0.74850   -106.3 1.123e+04 8.070e-10
  0.76822   -106.0 1.091e+04 6.381e-10
  0.78111   -105.8 1.043e+04 4.544e-10
  0.78450   -105.5 1.060e+04 4.978e-10
  0.79142   -105.8 1.046e+04 4.686e-10
  0.80784   -105.3 1.016e+04 3.701e-10
  0.83766   -104.8 9.964e+03 3.064e-10
  0.87738   -103.8 9.757e+03 2.564e-10
  0.91701   -102.0 9.554e+03 2.221e-10
  0.93864   -100.1 9.467e+03 2.090e-10
  0.94963    -99.9 9.738e+03 2.671e-10
  0.96764    -99.8 9.773e+03 2.777e-10
  0.99627    -97.9 9.753e+03 2.721e-10
  1.03589    -96.4 9.810e+03 2.758e-10
  1.07552    -95.1 1.011e+04 3.376e-10
  1.11515    -94.0 1.048e+04 4.705e-10
  1.15477    -92.9 1.081e+04 6.456e-10
  1.19440    -92.0 1.103e+04 7.929e-10
  1.23348    -91.2 1.106e+04 8.490e-10
  1.25329    -90.9 1.085e+04 7.294e-10
  1.27365    -90.0 1.084e+04 7.410e-10
  1.29987    -88.9 1.060e+04 7.021e-10
  1.31968    -88.3 1.034e+04 5.158e-10
  1.35291    -87.0 1.011e+04 4.523e-10
  1.39253    -85.7 9.905e+03 3.724e-10
  1.43216    -84.5 9.742e+03 3.099e-10
  1.47179    -83.1 9.682e+03 2.833e-10
  1.51142    -81.7 9.677e+03 2.796e-10
  1.54814    -80.4 9.801e+03 3.046e-10
  1.56795    -80.1 9.626e+03 2.384e-10
  1.59067    -78.8 9.794e+03 2.907e-10
  1.63030    -77.3 9.910e+03 3.478e-10
  1.65192    -75.8 9.922e+03 3.729e-10
  1.67173    -75.1 1.003e+04 3.988e-10
  1.70955    -73.5 1.002e+04 4.033e-10
  1.74918    -71.6 9.802e+03 3.594e-10
  1.78880    -69.5 9.519e+03 2.643e-10
  1.82843    -67.5 9.295e+03 1.830e-10
  1.86279    -65.6 9.163e+03 1.341e-10
  1.88261    -65.4 9.136e+03 1.195e-10
  1.90768    -63.5 9.096e+03 1.105e-10
  1.94731    -61.5 9.084e+03 1.087e-10
  1.98415    -59.5 9.093e+03 1.105e-10
  2.00397    -58.6 9.016e+03 1.021e-10
  2.02657    -56.6 9.018e+03 9.858e-11
  2.06619    -54.5 9.064e+03 9.509e-11
  2.10582    -52.5 9.115e+03 9.366e-11
  2.14545    -50.6 9.195e+03 9.512e-11
  2.17745    -48.8 9.309e+03 1.039e-10
  2.19726    -48.2 9.106e+03 7.425e-11
  2.22470    -46.4 9.328e+03 7.594e-11
  2.26433    -44.7 9.522e+03 8.778e-11
  2.30395    -43.0 9.681e+03 1.172e-10
  2.33620    -41.6 9.871e+03 1.777e-10
  2.35602    -40.5 9.704e+03 1.636e-10
  2.38321    -39.1 9.933e+03 2.396e-10
  2.42284    -37.7 1.023e+04 3.655e-10
  2.46246    -36.3 1.058e+04 5.369e-10
  2.49211    -34.8 1.088e+04 6.755e-10
  2.51192    -34.8 1.061e+04 4.924e-10
  2.54172    -33.4 1.080e+04 5.609e-10
  2.58134    -32.6 1.081e+04 5.468e-10
  2.62097    -32.3 1.067e+04 4.592e-10
  2.66060    -32.4 1.065e+04 4.320e-10
  2.68825    -32.6 1.081e+04 5.238e-10
  2.70806    -31.6 1.075e+04 4.595e-10
  2.73985    -31.5 1.110e+04 6.968e-10
  2.76947    -31.1 1.129e+04 9.387e-10
  2.78919    -30.2 1.143e+04 1.041e-09
  2.80657    -29.5 1.152e+04 1.080e-09
  2.81647    -29.9 1.132e+04 9.363e-10
  2.82882    -29.4 1.130e+04 8.802e-10
  2.84863    -29.0 1.122e+04 7.976e-10
  2.86408    -28.8 1.111e+04 7.119e-10
  2.87399    -28.5 1.119e+04 7.280e-10
  2.89826    -29.1 1.080e+04 5.906e-10
  2.93799    -28.4 1.048e+04 5.110e-10
  2.97761    -27.4 1.050e+04 5.330e-10
  3.01724    -26.2 1.063e+04 6.150e-10
  3.04020    -25.0 1.060e+04 6.150e-10
  3.06002    -24.1 1.095e+04 7.644e-10
  3.09649    -22.2 1.087e+04 6.460e-10
  3.12142    -21.1 1.044e+04 3.531e-10
  3.14123    -24.1 8.858e+03 1.509e-10
  3.17575    -24.3 8.427e+03 1.025e-10
  3.21537    -23.8 8.310e+03 9.475e-11
  3.25500    -22.6 8.558e+03 1.019e-10
  3.29463    -21.6 8.871e+03 1.353e-10
  3.33425    -20.4 9.088e+03 1.821e-10
  3.37254    -18.8 9.242e+03 2.287e-10
  3.39235    -18.5 9.564e+03 3.122e-10
  3.41351    -16.9 9.863e+03 3.937e-10
  3.43608    -15.4 1.006e+04 4.462e-10
  3.45589    -16.3 1.052e+04 6.532e-10
  3.49276    -14.9 1.068e+04 6.492e-10
  3.53239    -13.9 1.080e+04 6.433e-10
  3.57202    -13.4 1.111e+04 7.130e-10
  3.61164    -13.9 1.187e+04 1.115e-09
  3.64127    -16.1 1.289e+04 1.793e-09
  3.66098    -17.4 1.410e+04 2.822e-09
  3.68079    -18.5 1.516e+04 4.542e-09
  3.70061    -19.2 1.571e+04 6.719e-09
  3.72042    -19.3 1.589e+04 7.970e-09
  3.73430    -19.5 1.582e+04 7.951e-09
  3.74420    -20.5 1.534e+04 4.798e-09
  3.75054    -20.7 1.468e+04 3.147e-09
  3.76044    -22.1 1.369e+04 1.808e-09
  3.77986    -24.6 1.242e+04 1.147e-09
  3.80968    -29.7 1.080e+04 6.810e-10
  3.84940    -32.3 1.124e+04 9.277e-10
  3.88903    -33.7 1.208e+04 1.525e-09
  3.91042    -34.6 1.254e+04 2.266e-09
  3.92023    -34.2 1.244e+04 2.157e-09
  3.93837    -33.6 1.252e+04 2.330e-09
  3.95818    -33.3 1.250e+04 2.338e-09
  3.97800    -33.0 1.232e+04 2.007e-09
  3.99781    -33.7 1.194e+04 1.550e-09
  4.01762    -35.2 1.144e+04 1.169e-09
  4.03744    -36.8 1.091e+04 9.067e-10
  4.05529    -38.3 1.062e+04 7.870e-10
  4.06519    -39.8 1.045e+04 6.354e-10
  4.07644    -41.3 1.048e+04 6.347e-10
  4.09635    -40.1 9.981e+03 4.126e-10
  4.12679    -42.6 1.045e+04 6.266e-10
  4.16642    -44.7 1.125e+04 1.147e-09
  4.20605    -46.5 1.204e+04 1.607e-09
  4.24567    -49.6 1.245e+04 1.753e-09
  4.27530    -52.6 1.256e+04 1.827e-09
  4.29501    -54.7 1.251e+04 1.776e-09
  4.31483    -56.8 1.245e+04 1.746e-09
  4.33464    -59.7 1.285e+04 1.878e-09
  4.35445    -64.3 1.546e+04 2.733e-09
  4.36994    -69.2 1.782e+04 4.469e-09
  4.37985    -66.4 1.664e+04 3.689e-09
  4.39408    -70.7 1.822e+04 5.663e-09
  4.41389    -74.0 1.819e+04 7.526e-09
  4.42849    -76.4 1.795e+04 8.068e-09
  4.43839    -74.4 1.654e+04 5.454e-09
  4.45352    -76.1 1.625e+04 5.606e-09
  4.47333    -77.3 1.571e+04 5.008e-09
  4.49315    -79.0 1.511e+04 3.689e-09
  4.51296    -81.2 1.394e+04 2.509e-09
  4.52727    -83.0 1.263e+04 1.786e-09
  4.53718    -82.2 1.368e+04 2.576e-09
  4.55259    -83.3 1.253e+04 1.954e-09
  4.57240    -83.5 1.196e+04 1.591e-09
  4.59221    -83.5 1.154e+04 1.311e-09
  4.60451    -83.5 1.111e+04 1.076e-09
  4.61442    -82.8 1.117e+04 1.090e-09
  4.63184    -82.8 1.080e+04 9.141e-10
  4.65165    -82.8 1.045e+04 7.568e-10
  4.67147    -82.8 1.014e+04 6.272e-10
  4.68460    -83.0 9.874e+03 5.224e-10
  4.69451    -82.9 9.968e+03 5.494e-10
  4.71110    -83.2 9.717e+03 4.469e-10
  4.73091    -83.6 9.567e+03 3.884e-10
  4.76073    -84.3 9.483e+03 3.517e-10
  4.80045    -84.0 9.424e+03 3.244e-10
  4.84008    -84.7 9.485e+03 3.102e-10
  4.87970    -85.4 9.535e+03 3.070e-10
  4.91933    -86.2 9.704e+03 3.144e-10
  4.95896    -87.0 1.010e+04 3.889e-10
  4.98954    -87.6 1.052e+04 5.549e-10
  5.00936    -87.0 9.865e+03 3.296e-10
  5.03821    -87.1 1.014e+04 4.194e-10
  5.07784    -87.0 1.037e+04 4.791e-10
  5.11297    -86.8 1.046e+04 4.920e-10
  5.13278    -85.9 1.078e+04 6.638e-10
  5.15709    -85.5 1.081e+04 6.685e-10
  5.19672    -84.6 1.069e+04 5.866e-10
  5.22634    -84.0 1.035e+04 4.389e-10
  5.24606    -83.3 1.029e+04 4.282e-10
  5.27588    -82.4 1.021e+04 4.137e-10
  5.30420    -81.1 1.004e+04 3.698e-10
  5.32401    -80.8 9.882e+03 2.905e-10
  5.35523    -79.3 9.740e+03 2.599e-10
  5.39486    -77.7 9.609e+03 2.284e-10
  5.43448    -76.2 9.487e+03 1.938e-10
  5.46501    -74.5 9.380e+03 1.581e-10
  5.48483    -73.4 9.422e+03 1.959e-10
  5.51374    -71.7 9.292e+03 1.544e-10
  5.55336    -69.9 9.169e+03 1.226e-10
  5.59299    -68.0 9.053e+03 1.006e-10
  5.61886    -66.0 8.952e+03 8.623e-11
  5.63867    -66.2 8.970e+03 6.383e-11
  5.67224    -64.1 8.925e+03 5.525e-11
  5.71187    -62.0 8.916e+03 4.962e-11
  5.75150    -60.0 8.939e+03 4.669e-11
  5.79112    -58.0 8.953e+03 4.596e-11
  5.81706    -56.3 8.985e+03 4.704e-11
  5.83688    -55.6 9.035e+03 6.063e-11
  5.87038    -54.0 9.046e+03 7.530e-11
  5.91001    -52.4 9.092e+03 9.432e-11
  5.93351    -50.8 9.195e+03 1.122e-10
  5.95333    -51.0 9.180e+03 1.089e-10
  5.98926    -49.4 9.263e+03 1.137e-10
  6.02889    -48.0 9.285e+03 1.130e-10
  6.06851    -46.5 9.281e+03 9.667e-11
  6.10814    -44.9 9.203e+03 7.481e-11
  6.14777    -43.5 9.091e+03 5.642e-11
  6.16911    -42.2 8.979e+03 4.390e-11
  6.18892    -41.8 9.033e+03 4.620e-11
  6.22702    -40.4 8.935e+03 3.884e-11
  6.24817    -38.9 8.887e+03 3.638e-11
  6.26798    -38.9 8.930e+03 3.747e-11
  6.30627    -37.4 8.973e+03 3.744e-11
  6.34590    -36.3 9.090e+03 4.266e-11
  6.38553    -35.1 9.114e+03 5.570e-11
  6.42516    -33.8 9.084e+03 7.678e-11
  6.46478    -32.2 9.158e+03 1.030e-10
  6.50135    -30.7 9.314e+03 1.312e-10
  6.52116    -30.8 9.478e+03 1.659e-10
  6.54301    -29.5 9.694e+03 2.179e-10
  6.56283    -30.9 1.012e+04 3.365e-10
  6.58366    -29.6 1.017e+04 3.797e-10
  6.62329    -28.2 1.017e+04 3.973e-10
  6.66292    -26.8 1.017e+04 4.133e-10
  6.70254    -25.5 1.027e+04 4.510e-10
  6.74217    -24.4 1.052e+04 5.117e-10
  6.78180    -23.5 1.085e+04 5.959e-10
  6.82142    -22.6 1.116e+04 6.816e-10
  6.85340    -21.7 1.134e+04 7.755e-10
  6.86983    -22.1 1.123e+04 6.679e-10
  6.87748    -22.3 1.132e+04 7.733e-10
  6.90068    -21.5 1.143e+04 7.970e-10
  6.94031    -20.7 1.144e+04 8.115e-10
  6.97993    -19.5 1.136e+04 8.453e-10
  7.01956    -18.0 1.126e+04 8.542e-10
  7.04918    -16.9 1.095e+04 7.869e-10
  7.06890    -16.1 1.091e+04 7.599e-10
  7.09872    -15.5 1.095e+04 7.792e-10
  7.13844    -14.5 1.105e+04 8.807e-10
  7.16806    -13.8 1.120e+04 1.048e-09
  7.18204    -13.2 1.113e+04 1.106e-09
  7.19204    -13.3 1.086e+04 7.675e-10
  7.20535    -12.4 1.100e+04 8.237e-10
  7.21516    -12.2 1.112e+04 8.697e-10
  7.22741    -11.6 1.106e+04 8.064e-10
  7.24722    -10.9 1.094e+04 7.038e-10
  7.26703    -10.6 1.063e+04 5.657e-10
  7.28685    -10.5 1.032e+04 4.448e-10
  7.30666    -10.6 1.018e+04 3.687e-10
  7.32647    -10.6 1.009e+04 3.256e-10
  7.33937    -10.3 1.004e+04 3.154e-10
  7.34927    -10.0 9.594e+03 2.513e-10
  7.36610     -9.6 9.667e+03 2.516e-10
  7.38127    -10.1 1.020e+04 2.819e-10
  7.39118    -12.3 1.234e+04 4.209e-10
  7.40573    -20.0 1.601e+04 1.406e-09
  7.42554    -24.0 1.739e+04 4.924e-09
  7.44035    -25.0 1.805e+04 7.834e-09
  7.45021    -25.6 1.815e+04 1.222e-08
  7.46012    -24.1 1.800e+04 1.750e-08
  7.46919    -22.3 1.786e+04 1.967e-08
  7.47414    -21.8 1.820e+04 2.565e-08
  7.47993    -19.6 1.814e+04 2.566e-08
  7.48984    -17.3 1.790e+04 1.956e-08
  7.49660    -15.5 1.859e+04 1.312e-08
  7.50155    -17.2 1.779e+04 1.412e-08
  7.50965    -18.4 1.689e+04 8.252e-09
  7.52456    -20.7 1.527e+04 4.704e-09
  7.54442    -24.0 1.302e+04 1.312e-09
  7.55730    -26.6 1.164e+04 6.821e-10
  7.56720    -28.4 1.141e+04 6.925e-10
  7.58405    -27.8 1.114e+04 6.140e-10
  7.60386    -26.7 1.108e+04 5.951e-10
  7.62367    -25.8 1.106e+04 5.851e-10
  7.64349    -25.0 1.101e+04 5.784e-10
  7.65402    -24.4 1.101e+04 5.887e-10
  7.66393    -24.7 1.101e+04 5.866e-10
  7.68312    -24.0 1.101e+04 6.177e-10
  7.70293    -23.3 1.097e+04 6.374e-10
  7.72274    -22.6 1.095e+04 6.450e-10
  7.73332    -22.0 1.103e+04 6.541e-10
  7.74323    -22.6 1.088e+04 5.772e-10
  7.76237    -22.3 1.092e+04 5.669e-10
  7.78218    -22.1 1.095e+04 5.665e-10
  7.80144    -21.9 1.098e+04 5.726e-10
  7.81135    -22.7 1.094e+04 6.646e-10
  7.82181    -22.4 1.094e+04 7.140e-10
  7.85163    -21.9 1.101e+04 7.685e-10
  7.88973    -20.5 1.054e+04 6.581e-10
  7.90954    -21.1 1.003e+04 4.161e-10
  7.93098    -19.4 9.670e+03 2.596e-10
  7.97061    -18.1 9.375e+03 1.444e-10
  8.01023    -17.0 9.064e+03 1.023e-10
  8.04986    -15.6 8.887e+03 9.381e-11
  8.08949    -13.7 8.850e+03 9.791e-11
  8.11630    -11.7 8.826e+03 1.077e-10
  8.13611    -12.1 8.692e+03 1.231e-10
  8.16874     -9.9 8.810e+03 1.338e-10
  8.20837     -8.0 9.007e+03 1.316e-10
  8.24178     -7.2 9.476e+03 1.218e-10
  8.26159     -6.8 9.555e+03 1.686e-10
  8.28762     -7.4 1.012e+04 2.234e-10
  8.32725     -7.2 1.060e+04 4.479e-10
  8.35687     -6.2 1.117e+04 6.953e-10
  8.37659     -6.3 1.120e+04 7.302e-10
  8.39640     -5.8 1.118e+04 1.034e-09
  8.41621     -5.4 1.118e+04 1.120e-09
  8.42751     -4.5 1.132e+04 1.289e-09
  8.43215     -4.2 1.132e+04 1.269e-09
  8.44066     -4.6 1.139e+04 1.339e-09
  8.45584     -4.0 1.145e+04 1.360e-09
  8.47565     -3.2 1.145e+04 1.376e-09
  8.49547     -2.2 1.144e+04 1.333e-09
  8.52529     -1.6 1.149e+04 1.206e-09
  8.56501      0.3 1.130e+04 1.061e-09
  8.59382      1.9 1.100e+04 9.318e-10
  8.61364      1.6 1.131e+04 1.054e-09
  8.63426      3.1 1.158e+04 1.072e-09
  8.65398      3.0 1.187e+04 1.158e-09
  8.67379      2.7 1.252e+04 1.549e-09
  8.69360      2.9 1.319e+04 2.069e-09
  8.71342      3.4 1.357e+04 2.711e-09
  8.73323      4.7 1.383e+04 3.170e-09
  8.74541      6.1 1.400e+04 3.622e-09
  8.75532      5.8 1.447e+04 4.643e-09
  8.76965      7.1 1.488e+04 4.978e-09
  8.77956      6.9 1.478e+04 3.987e-09
  8.79267      7.5 1.498e+04 3.433e-09
  8.81248      7.3 1.506e+04 2.786e-09
  8.83230      6.5 1.499e+04 2.342e-09
  8.85211      5.1 1.469e+04 2.092e-09
  8.87192      3.7 1.444e+04 2.083e-09
  8.89174      2.9 1.446e+04 2.232e-09
  8.90274      2.8 1.473e+04 2.463e-09
  8.91265      1.7 1.573e+04 3.870e-09
  8.93136      2.0 1.574e+04 3.832e-09
  8.94568      2.4 1.551e+04 3.446e-09
  8.95558      1.2 1.414e+04 2.267e-09
  8.97099      1.1 1.317e+04 1.902e-09
  8.99080      1.5 1.234e+04 1.656e-09
  9.01062      2.0 1.183e+04 1.381e-09
  9.04036      2.9 1.153e+04 1.033e-09
  9.08008      1.0 1.127e+04 6.194e-10
  9.11979      0.7 1.158e+04 7.301e-10
  9.15941      0.7 1.206e+04 1.141e-09
  9.18904      1.5 1.199e+04 1.313e-09
  9.20749      2.0 1.219e+04 1.680e-09
  9.21740      2.2 1.218e+04 1.841e-09
  9.22857      2.9 1.202e+04 1.814e-09
  9.24838      3.6 1.182e+04 1.693e-09
  9.26819      4.0 1.190e+04 1.489e-09
  9.28782      3.4 1.193e+04 1.282e-09
  9.29773      3.8 1.181e+04 1.278e-09
  9.30782      2.6 1.190e+04 1.203e-09
  9.32763      0.5 1.204e+04 1.251e-09
  9.34745     -2.0 1.237e+04 1.570e-09
  9.36482     -3.4 1.263e+04 2.038e-09
  9.37473     -4.0 1.265e+04 2.049e-09
  9.38707     -4.4 1.277e+04 2.628e-09
  9.40689     -4.2 1.303e+04 3.003e-09
  9.42670     -4.6 1.364e+04 2.798e-09
  9.44651     -6.0 1.352e+04 2.272e-09
  9.46384     -9.0 1.246e+04 1.541e-09
  9.47375     -9.1 1.252e+04 1.734e-09
  9.48614    -11.5 1.185e+04 1.298e-09
  9.50595    -13.8 1.164e+04 1.051e-09
  9.52215    -16.4 1.103e+04 8.852e-10
  9.53206    -16.6 1.073e+04 7.414e-10
  9.54558    -18.2 1.013e+04 6.512e-10
  9.56539    -18.5 9.928e+03 6.174e-10
  9.58521    -18.8 9.818e+03 5.588e-10
  9.60502    -19.5 9.742e+03 4.907e-10
  9.62484    -20.7 9.613e+03 4.494e-10
  9.63987    -21.9 9.516e+03 4.416e-10
  9.64978    -22.8 9.790e+03 5.017e-10
  9.66446    -23.4 9.940e+03 5.845e-10
  9.67948    -23.4 1.015e+04 6.741e-10
  9.68938    -23.9 1.077e+04 1.013e-09
  9.70409    -23.2 1.108e+04 1.118e-09
  9.72390    -22.8 1.138e+04 1.196e-09
  9.75372    -23.6 1.167e+04 1.331e-09
  9.78344    -24.7 1.147e+04 1.246e-09
  9.80316    -25.2 1.173e+04 1.436e-09
  9.81589    -25.6 1.191e+04 1.632e-09
  9.82580    -25.8 1.179e+04 1.539e-09
  9.83681    -25.8 1.191e+04 1.639e-09
  9.84671    -25.8 1.185e+04 1.574e-09
  9.86260    -25.9 1.189e+04 1.620e-09
  9.88241    -25.8 1.176e+04 1.569e-09
  9.90222    -25.8 1.135e+04 1.264e-09
  9.92204    -26.1 1.102e+04 9.995e-10
  9.94185    -27.7 1.074e+04 8.214e-10
  9.96166    -28.9 1.077e+04 7.906e-10
  9.98148    -30.8 1.089e+04 8.016e-10
  9.99192    -32.6 1.152e+04 1.075e-09
  9.99467    -31.5 1.126e+04 9.977e-10
 10.00414    -30.5 1.109e+04 8.887e-10
 10.03121    -32.9 1.202e+04 1.499e-09
 10.06083    -33.7 1.264e+04 2.461e-09
 10.08054    -33.4 1.276e+04 2.664e-09
 10.10036    -33.1 1.279e+04 2.648e-09
 10.12017    -33.1 1.240e+04 2.054e-09
 10.13999    -34.2 1.180e+04 1.543e-09
 10.15146    -34.8 1.141e+04 1.279e-09
 10.15961    -34.9 1.135e+04 1.261e-09
 10.16794    -34.7 1.119e+04 1.200e-09
 10.17961    -35.5 1.069e+04 9.898e-10
 10.19943    -35.9 1.050e+04 9.184e-10
 10.21924    -36.0 1.037e+04 8.836e-10
 10.23905    -36.0 1.035e+04 8.784e-10
 10.25887    -35.9 1.034e+04 8.791e-10
 10.27868    -35.7 1.030e+04 8.747e-10
 10.29849    -35.3 1.020e+04 8.223e-10
 10.30879    -35.0 1.004e+04 7.327e-10
 10.31870    -34.7 1.017e+04 7.782e-10
 10.33406    -34.6 9.975e+03 6.700e-10
 10.35397    -33.9 9.622e+03 5.361e-10
 10.38785    -33.7 9.306e+03 4.071e-10
 10.42748    -34.1 9.175e+03 3.521e-10
 10.46710    -34.8 9.465e+03 4.032e-10
 10.50673    -35.5 1.026e+04 6.690e-10
 10.54636    -36.0 1.100e+04 9.907e-10
 10.57598    -36.3 1.151e+04 1.162e-09
 10.59570    -37.5 1.201e+04 1.302e-09
 10.61354    -39.3 1.274e+04 1.464e-09
 10.62345    -39.5 1.389e+04 1.963e-09
 10.63532    -42.3 1.437e+04 2.533e-09
 10.65514    -44.2 1.435e+04 3.302e-09
 10.67495    -45.0 1.427e+04 3.953e-09
 10.68611    -45.3 1.425e+04 4.143e-09
 10.69601    -45.1 1.429e+04 4.274e-09
 10.71458    -45.2 1.425e+04 4.323e-09
 10.73439    -45.4 1.388e+04 3.678e-09
 10.75420    -46.1 1.328e+04 2.635e-09
 10.77087    -47.5 1.247e+04 1.724e-09
 10.78078    -47.1 1.226e+04 1.701e-09
 10.79383    -48.7 1.130e+04 1.079e-09
 10.81364    -50.5 1.054e+04 7.533e-10
 10.83346    -52.0 1.019e+04 6.282e-10
 10.85223    -53.1 1.009e+04 5.998e-10
 10.86213    -52.2 1.012e+04 6.303e-10
 10.87308    -53.1 1.007e+04 6.177e-10
 10.89290    -54.2 1.008e+04 6.452e-10
 10.91271    -56.2 1.063e+04 8.004e-10
 10.92820    -59.3 1.180e+04 1.146e-09
 10.93810    -58.9 1.147e+04 9.807e-10
 10.95234    -62.7 1.283e+04 1.579e-09
 10.97215    -66.0 1.379e+04 2.436e-09
 10.99196    -68.5 1.407e+04 3.094e-09
 11.01178    -70.3 1.403e+04 3.230e-09
 11.02825    -71.0 1.347e+04 3.060e-09
 11.03816    -70.6 1.406e+04 3.873e-09
 11.05140    -70.8 1.315e+04 2.674e-09
 11.07122    -71.4 1.215e+04 1.664e-09
 11.08553    -72.5 1.130e+04 1.026e-09
 11.09543    -73.3 1.113e+04 1.101e-09
 11.11085    -74.5 1.042e+04 7.635e-10
 11.13066    -75.2 9.902e+03 5.831e-10
 11.15047    -75.4 9.571e+03 4.857e-10
 11.17029    -75.3 9.367e+03 4.257e-10
 11.19010    -74.9 9.325e+03 4.020e-10
 11.20427    -74.5 9.331e+03 3.972e-10
 11.21418    -74.8 9.388e+03 4.163e-10
 11.22973    -74.5 9.402e+03 4.133e-10
 11.24285    -74.3 9.532e+03 4.182e-10
 11.26276    -74.6 9.268e+03 3.325e-10
 11.29927    -74.7 9.409e+03 3.262e-10
 11.32889    -75.0 9.614e+03 3.655e-10
 11.34861    -75.4 9.596e+03 3.688e-10
 11.36842    -75.8 9.564e+03 3.706e-10
 11.38030    -76.2 9.494e+03 3.723e-10
 11.39021    -76.4 9.508e+03 3.775e-10
 11.40018    -76.7 9.484e+03 3.725e-10
 11.41009    -77.1 9.226e+03 3.135e-10
 11.42786    -77.2 9.254e+03 3.186e-10
 11.44767    -77.4 9.356e+03 3.394e-10
 11.46749    -77.5 9.471e+03 3.649e-10
 11.48730    -77.5 9.662e+03 4.222e-10
 11.50711    -77.4 9.820e+03 4.823e-10
 11.52693    -76.9 1.005e+04 5.800e-10
 11.54642    -76.4 1.023e+04 6.529e-10
 11.55632    -76.5 1.017e+04 6.161e-10
 11.55751    -75.8 1.034e+04 6.915e-10
 11.57742    -75.0 9.901e+03 5.037e-10
 11.61628    -73.5 9.890e+03 5.027e-10
 11.65591    -72.0 9.827e+03 4.771e-10
 11.69554    -70.5 9.734e+03 4.375e-10
 11.72264    -68.7 9.610e+03 3.926e-10
 11.74245    -68.4 9.851e+03 4.319e-10
 11.77479    -66.6 9.818e+03 4.171e-10
 11.81442    -64.6 9.843e+03 4.163e-10
 11.85255    -62.8 9.954e+03 4.368e-10
 11.87226    -61.6 1.018e+04 5.558e-10
 11.88357    -60.7 1.031e+04 6.183e-10
 11.89846    -59.9 1.053e+04 7.069e-10
 11.90837    -59.4 1.064e+04 7.497e-10
 11.92320    -58.6 1.082e+04 8.349e-10
 11.94301    -58.0 1.103e+04 9.458e-10
 11.96282    -57.6 1.130e+04 1.088e-09
 11.98264    -57.3 1.178e+04 1.298e-09
 12.00245    -58.0 1.266e+04 1.697e-09
 12.01959    -60.1 1.388e+04 2.687e-09
 12.02949    -58.0 1.504e+04 3.400e-09
 12.04208    -62.6 1.788e+04 6.435e-09
 12.05689    -67.7 1.855e+04 1.114e-08
 12.06675    -72.0 2.183e+04 1.946e-08
 12.07439    -77.1 2.432e+04 4.645e-08
 12.07934    -80.1 2.540e+04 6.014e-08
 12.08656    -83.3 2.574e+04 1.021e-07
 12.09647    -85.9 2.555e+04 1.246e-07
 12.10311    -88.2 2.545e+04 1.223e-07
 12.10806    -90.2 2.450e+04 1.634e-07
 12.11628    -92.1 2.533e+04 8.079e-08
 12.12619    -94.1 2.566e+04 3.973e-08
 12.13609    -95.9 2.499e+04 2.342e-08
 12.14600    -97.2 2.384e+04 1.555e-08
 12.15591    -98.3 2.247e+04 1.065e-08
 12.16240    -99.3 2.081e+04 7.451e-09
 12.16736   -100.8 1.942e+04 5.884e-09
 12.17572   -101.1 1.808e+04 4.552e-09
 12.18177   -100.9 1.731e+04 3.769e-09
 12.18673   -103.9 1.533e+04 3.250e-09
 12.19553   -103.4 1.502e+04 2.784e-09
 12.20544   -103.1 1.495e+04 2.472e-09
 12.22035   -102.7 1.519e+04 2.295e-09
 12.24021   -101.3 1.549e+04 2.014e-09
 12.25051   -100.5 1.709e+04 1.920e-09
 12.26042   -104.5 2.300e+04 6.848e-09
 12.27984   -102.8 2.184e+04 7.036e-09
 12.29965   -101.4 2.076e+04 7.278e-09
 12.31947   -100.1 1.968e+04 8.199e-09
 12.33424    -98.7 1.847e+04 9.845e-09
 12.34415    -98.7 1.835e+04 1.242e-08
 12.35909    -97.1 1.800e+04 1.390e-08
 12.37891    -95.1 1.784e+04 1.561e-08
 12.39872    -93.0 1.777e+04 1.761e-08
 12.41663    -91.2 1.781e+04 1.974e-08
 12.42654    -90.5 1.757e+04 1.540e-08
 12.43835    -88.8 1.787e+04 1.515e-08
 12.45816    -87.2 1.832e+04 1.474e-08
 12.47797    -85.7 1.903e+04 1.406e-08
 12.49157    -84.8 1.983e+04 1.281e-08
 12.50148    -86.0 2.271e+04 7.488e-09
 12.51760    -85.7 2.377e+04 6.194e-09
 12.53741    -85.7 2.447e+04 5.251e-09
 12.55723    -85.8 2.509e+04 4.689e-09
 12.57704    -86.2 2.552e+04 4.162e-09
 12.59266    -87.0 2.447e+04 3.437e-09
 12.60256    -88.8 1.295e+04 7.738e-10
 12.61667    -88.6 1.275e+04 6.809e-10
 12.63648    -88.6 1.283e+04 6.392e-10
 12.64890    -88.4 1.339e+04 6.142e-10
 12.65881    -88.3 1.133e+04 4.510e-10
 12.67611    -88.1 1.162e+04 4.290e-10
 12.69592    -87.9 1.184e+04 4.230e-10
 12.71574    -87.6 1.197e+04 4.473e-10
 12.73555    -87.2 1.201e+04 5.090e-10
 12.75536    -86.7 1.201e+04 6.064e-10
 12.76868    -86.0 1.196e+04 7.337e-10
 12.77859    -85.4 1.028e+04 3.802e-10
 12.79499    -85.0 1.044e+04 4.498e-10
 12.80623    -84.4 1.056e+04 5.280e-10
 12.81614    -84.0 1.001e+04 3.951e-10
 12.83462    -83.3 1.010e+04 4.502e-10
 12.85443    -82.6 1.016e+04 4.930e-10
 12.87424    -81.9 1.017e+04 5.127e-10
 12.89406    -81.1 1.017e+04 5.152e-10
 12.91387    -80.3 1.014e+04 5.113e-10
 12.93368    -79.6 1.008e+04 5.035e-10
 12.94470    -79.0 1.002e+04 4.967e-10
 12.95461    -78.7 9.819e+03 4.140e-10
 12.96356    -78.2 9.796e+03 4.117e-10
 12.97346    -78.0 9.621e+03 3.609e-10
 13.00313    -77.2 9.706e+03 4.254e-10
 13.04285    -75.8 9.590e+03 4.602e-10
 13.08248    -74.2 9.482e+03 4.744e-10
 13.11102    -72.5 9.302e+03 4.481e-10
 13.13083    -72.4 8.578e+03 1.858e-10
 13.16173    -70.8 8.414e+03 1.893e-10
 13.20136    -69.1 8.215e+03 1.782e-10
 13.24099    -67.3 8.042e+03 1.507e-10
 13.28062    -65.6 7.931e+03 1.225e-10
 13.32024    -63.9 7.858e+03 1.035e-10
 13.35987    -62.2 7.829e+03 9.482e-11
 13.39950    -60.4 7.836e+03 9.356e-11
 13.42583    -59.0 7.967e+03 9.858e-11
 13.44564    -58.9 7.899e+03 9.401e-11
 13.46307    -58.1 8.263e+03 1.458e-10
 13.48288    -56.2 7.920e+03 1.300e-10
 13.51838    -55.3 8.450e+03 2.226e-10
 13.55800    -54.1 9.164e+03 4.214e-10
 13.59763    -52.4 9.892e+03 7.108e-10
 13.62725    -51.1 1.025e+04 8.835e-10
 13.63889    -50.8 1.026e+04 9.011e-10
 13.64880    -50.7 1.032e+04 9.204e-10
 13.66678    -49.9 1.039e+04 9.539e-10
 13.68660    -49.6 1.029e+04 9.003e-10
 13.71641    -48.7 9.950e+03 6.640e-10
 13.74049    -47.8 8.911e+03 2.914e-10
 13.76030    -48.0 8.752e+03 2.602e-10
 13.79530    -47.8 8.048e+03 1.281e-10
 13.81511    -45.8 8.537e+03 2.048e-10
 13.83539    -45.9 8.068e+03 1.161e-10
 13.87502    -45.4 7.933e+03 9.984e-11
 13.91465    -44.9 7.998e+03 1.013e-10
 13.95427    -45.0 8.374e+03 1.507e-10
 13.99390    -44.7 8.766e+03 2.504e-10
 14.03353    -43.8 9.136e+03 3.590e-10
 14.05514    -43.1 9.353e+03 4.032e-10
 14.07496    -42.6 9.014e+03 2.988e-10
 14.11278    -42.2 9.059e+03 2.968e-10
 14.14735    -42.0 9.084e+03 2.769e-10
 14.16716    -41.2 9.130e+03 2.850e-10
 14.19203    -41.0 9.188e+03 2.877e-10
 14.23166    -40.6 9.246e+03 3.041e-10
 14.27129    -39.7 9.305e+03 3.268e-10
 14.31092    -38.7 9.302e+03 3.277e-10
 14.34999    -37.5 9.230e+03 2.732e-10
 14.36980    -36.9 9.215e+03 2.767e-10
 14.39017    -36.5 9.254e+03 2.250e-10
 14.42980    -36.7 9.355e+03 2.049e-10
 14.46942    -38.3 9.955e+03 2.773e-10
 14.49940    -39.5 1.056e+04 5.415e-10
 14.51921    -38.3 1.027e+04 4.115e-10
 14.54868    -38.8 1.069e+04 6.164e-10
 14.58830    -39.1 1.092e+04 7.047e-10
 14.62793    -39.6 1.093e+04 6.034e-10
 14.66464    -40.3 1.077e+04 4.390e-10
 14.68446    -40.9 1.065e+04 3.595e-10
 14.70718    -41.2 1.050e+04 2.964e-10
 14.74681    -41.0 1.046e+04 2.858e-10
 14.78644    -40.2 1.049e+04 3.086e-10
 14.82607    -39.3 1.045e+04 3.412e-10
 14.85145    -38.2 1.040e+04 3.459e-10
 14.87126    -36.8 1.052e+04 3.682e-10
 14.90532    -35.6 1.029e+04 3.139e-10
 14.94495    -34.1 1.007e+04 2.542e-10
 14.97930    -32.6 9.905e+03 2.068e-10
 14.99911    -32.4 9.725e+03 1.550e-10
 15.02420    -31.0 9.696e+03 1.413e-10
 15.06383    -29.8 9.808e+03 1.437e-10
 15.10345    -29.2 9.977e+03 2.050e-10
 15.14308    -28.0 1.012e+04 3.236e-10
 15.18271    -26.4 1.033e+04 4.367e-10
 15.20350    -24.9 1.036e+04 4.666e-10
 15.22331    -24.1 1.054e+04 5.131e-10
 15.26196    -22.7 1.026e+04 4.568e-10
 15.29396    -21.0 1.001e+04 3.240e-10
 15.31377    -20.8 1.000e+04 2.914e-10
 15.34122    -19.9 9.650e+03 2.072e-10
 15.38084    -18.5 9.459e+03 1.721e-10
 15.42047    -16.9 9.379e+03 1.594e-10
 15.46010    -14.9 9.366e+03 1.508e-10
 15.49972    -12.9 9.386e+03 1.348e-10
 15.53573    -11.1 9.449e+03 1.143e-10
 15.55554    -11.2 9.466e+03 1.110e-10
 15.57898     -9.8 9.485e+03 1.115e-10
 15.60861     -8.3 9.443e+03 1.307e-10
 15.62843     -7.4 9.379e+03 8.224e-11
 15.65823     -5.9 9.251e+03 1.042e-10
 15.69786     -3.5 9.253e+03 1.357e-10
 15.73749     -0.9 9.324e+03 1.550e-10
 15.77711      1.4 9.384e+03 1.467e-10
 15.81674      3.4 9.531e+03 1.290e-10
 15.85637      4.8 9.606e+03 1.239e-10
 15.88778      6.5 9.589e+03 1.296e-10
 15.90759      6.5 9.699e+03 1.173e-10
 15.92327      8.2 9.674e+03 1.211e-10
 15.94308      9.4 9.676e+03 1.391e-10
 15.97525     11.1 9.723e+03 1.494e-10
 16.01487     12.9 9.775e+03 1.556e-10
 16.05450     14.7 9.796e+03 1.519e-10
 16.09413     16.2 9.803e+03 1.465e-10
 16.13375     17.3 9.839e+03 1.548e-10
 16.17338     18.1 1.001e+04 1.855e-10
 16.21301     18.9 1.030e+04 2.824e-10
 16.23793     19.4 1.059e+04 4.179e-10
 16.24493     19.7 1.053e+04 3.685e-10
 16.25964     19.9 1.052e+04 3.831e-10
 16.29226     21.0 1.077e+04 5.091e-10
 16.32188     21.7 1.084e+04 5.598e-10
 16.34160     22.1 1.089e+04 5.666e-10
 16.36141     22.5 1.085e+04 5.572e-10
 16.38123     22.8 1.086e+04 5.599e-10
 16.39506     23.0 1.086e+04 5.738e-10
 16.40497     23.4 1.082e+04 5.437e-10
 16.41566     23.6 1.086e+04 5.627e-10
 16.42556     23.8 1.088e+04 5.613e-10
 16.44067     24.2 1.096e+04 6.077e-10
 16.46048     24.7 1.109e+04 6.772e-10
 16.48029     25.1 1.125e+04 7.848e-10
 16.50011     25.7 1.137e+04 9.139e-10
 16.51992     26.4 1.137e+04 1.028e-09
 16.53974     27.3 1.132e+04 1.050e-09
 16.55239     28.5 1.122e+04 1.020e-09
 16.56229     28.7 1.117e+04 9.628e-10
 16.57936     29.9 1.109e+04 9.351e-10
 16.59168     31.0 1.097e+04 8.427e-10
 16.60159     31.1 1.101e+04 8.761e-10
 16.61899     32.2 1.097e+04 8.074e-10
 16.63880     33.1 1.096e+04 7.322e-10
 16.65862     33.8 1.095e+04 6.577e-10
 16.67843     34.4 1.093e+04 6.064e-10
 16.69824     35.0 1.092e+04 5.998e-10
 16.70972     35.6 1.096e+04 6.116e-10
 16.71962     36.9 1.105e+04 6.486e-10
 16.73787     37.6 1.115e+04 6.733e-10
 16.75768     38.3 1.127e+04 7.380e-10
 16.76771     38.9 1.155e+04 8.556e-10
 16.77761     38.5 1.227e+04 1.243e-09
 16.79731     38.5 1.284e+04 1.634e-09
 16.81712     38.2 1.345e+04 2.299e-09
 16.83694     38.1 1.388e+04 3.211e-09
 16.85675     38.7 1.397e+04 4.264e-09
 16.86704     39.8 1.399e+04 4.841e-09
 16.87695     40.3 1.512e+04 5.920e-09
 16.89638     41.6 1.494e+04 6.585e-09
 16.91619     43.3 1.482e+04 6.297e-09
 16.93382     44.5 1.468e+04 5.126e-09
 16.94373     44.5 1.483e+04 5.025e-09
 16.95582     44.4 1.501e+04 3.383e-09
 16.97563     42.8 1.505e+04 2.075e-09
 16.99545     40.3 1.362e+04 1.380e-09
 17.01447     38.2 1.164e+04 1.032e-09
 17.02437     41.9 1.408e+04 1.670e-09
 17.03507     40.2 1.211e+04 1.229e-09
 17.05489     39.8 1.137e+04 9.913e-10
 17.08470     38.8 1.016e+04 5.329e-10
 17.12443     38.7 9.623e+03 2.915e-10
 17.16208     38.0 9.012e+03 1.734e-10
 17.18190     41.2 9.806e+03 2.970e-10
 17.20368     40.4 9.037e+03 2.215e-10
 17.24331     40.6 8.983e+03 2.330e-10
 17.27616     41.2 9.041e+03 2.838e-10
 17.29597     40.9 9.130e+03 3.043e-10
 17.32256     41.6 9.186e+03 3.139e-10
 17.36219     42.5 9.228e+03 3.064e-10
 17.40182     43.3 9.159e+03 2.765e-10
 17.44144     44.1 9.120e+03 2.615e-10
 17.47674     44.8 9.163e+03 2.695e-10
 17.49655     45.1 9.597e+03 3.724e-10
 17.51069     45.5 9.575e+03 3.629e-10
 17.53041     45.7 9.665e+03 3.800e-10
 17.55022     45.9 9.959e+03 4.635e-10
 17.57004     46.2 1.028e+04 5.826e-10
 17.58985     46.7 1.067e+04 7.720e-10
 17.60966     47.3 1.107e+04 9.834e-10
 17.62801     48.1 1.149e+04 1.208e-09
 17.63792     48.0 1.160e+04 1.153e-09
 17.64378     48.8 1.201e+04 1.356e-09
 17.65369     48.5 1.276e+04 2.479e-09
 17.66910     49.8 1.303e+04 2.643e-09
 17.68892     50.9 1.306e+04 2.598e-09
 17.71873     51.5 1.251e+04 1.634e-09
 17.75846     52.6 1.184e+04 1.272e-09
 17.79140     53.8 1.115e+04 9.696e-10
 17.81121     54.3 1.217e+04 1.642e-09
 17.83771     55.9 1.138e+04 1.119e-09
 17.87734     58.2 1.065e+04 7.020e-10
 17.91697     60.4 1.010e+04 4.296e-10
 17.95659     62.3 9.686e+03 2.721e-10
 17.98026     64.0 9.399e+03 2.041e-10
 18.00007     64.7 9.453e+03 2.139e-10
 18.03585     66.7 9.265e+03 1.854e-10
 18.07547     69.0 9.161e+03 1.769e-10
 18.10605     71.5 9.159e+03 1.796e-10
 18.12587     72.7 9.606e+03 2.395e-10
 18.15473     75.1 9.707e+03 2.494e-10
 18.18435     76.6 9.680e+03 2.491e-10
 18.20407     77.5 9.645e+03 2.466e-10
 18.22388     78.8 9.691e+03 2.520e-10
 18.24369     79.9 9.767e+03 2.626e-10
 18.26319     81.2 9.893e+03 2.803e-10
 18.27309     81.6 1.008e+04 3.577e-10
 18.28332     82.8 1.018e+04 3.892e-10
 18.30313     84.2 1.031e+04 4.259e-10
 18.32220     85.6 1.045e+04 4.643e-10
 18.33211     86.5 1.037e+04 4.232e-10
 18.34276     88.0 1.048e+04 4.505e-10
 18.36257     89.6 1.059e+04 4.765e-10
 18.38239     91.2 1.074e+04 5.022e-10
 18.40220     92.9 1.095e+04 5.273e-10
 18.42051     94.0 1.133e+04 5.677e-10
 18.43042     94.1 1.333e+04 1.307e-09
 18.44183     95.4 1.420e+04 1.822e-09
 18.45664     95.8 1.455e+04 1.905e-09
 18.46650     95.9 1.458e+04 1.895e-09
 18.47640     95.8 1.462e+04 1.921e-09
 18.48631     95.0 1.494e+04 2.139e-09
 18.49622     91.9 1.628e+04 2.962e-09
 18.50308     86.0 2.027e+04 5.894e-09
 18.50595     88.4 1.818e+04 4.062e-09
 18.50899     85.7 2.375e+04 8.233e-09
 18.51603     79.4 2.552e+04 1.990e-08
 18.52594     75.7 2.484e+04 4.088e-08
 18.53584     74.0 2.410e+04 6.184e-08
 18.54575     72.7 2.401e+04 7.333e-08
 18.55566     69.9 2.596e+04 7.236e-08
 18.56556     65.2 3.075e+04 5.913e-08
 18.57547     59.1 3.674e+04 3.735e-08
 18.58270     52.6 4.005e+04 2.232e-08
 18.58765     47.9 3.592e+04 1.844e-08
 18.59110     40.2 2.474e+04 1.582e-08
 18.59605     38.5 2.559e+04 2.343e-08
 18.60519     36.5 2.260e+04 2.215e-08
 18.61510     36.9 2.193e+04 2.216e-08
 18.62501     37.5 2.191e+04 2.338e-08
 18.63491     38.3 2.185e+04 2.336e-08
 18.64482     38.9 2.177e+04 2.300e-08
 18.65473     40.3 2.131e+04 2.088e-08
 18.66136     40.9 2.126e+04 1.944e-08
 18.66632     40.8 2.223e+04 1.420e-08
 18.67420     42.3 2.109e+04 1.346e-08
 18.68416     40.6 2.416e+04 1.147e-08
 18.69940     40.2 2.322e+04 6.699e-09
 18.71922     38.7 2.121e+04 3.870e-09
 18.73517     36.5 1.783e+04 2.446e-09
 18.74508     32.8 1.429e+04 1.808e-09
 18.75884     33.3 1.313e+04 1.586e-09
 18.77866     34.7 1.277e+04 1.424e-09
 18.79847     36.3 1.251e+04 1.264e-09
 18.82829     37.7 1.181e+04 8.831e-10
 18.86801     39.6 1.089e+04 4.948e-10
 18.90764     41.3 1.014e+04 3.001e-10
 18.94727     43.1 9.772e+03 2.165e-10
 18.98689     45.2 9.637e+03 1.808e-10
 19.01659     47.5 9.575e+03 1.676e-10
 19.03640     47.3 9.542e+03 1.642e-10
 19.05002     49.7 9.551e+03 1.619e-10
 19.06984     49.9 9.487e+03 1.862e-10
 19.10577     52.1 9.503e+03 1.857e-10
 19.14540     54.3 9.545e+03 1.880e-10
 19.18503     56.3 9.622e+03 1.971e-10
 19.22466     58.0 9.766e+03 2.184e-10
 19.26428     59.6 9.986e+03 2.636e-10
 19.30391     61.0 1.027e+04 3.209e-10
 19.34354     62.0 1.054e+04 3.393e-10
 19.36468     62.6 1.055e+04 3.328e-10
 19.36997     62.2 1.070e+04 4.194e-10
 19.38845     62.2 1.057e+04 3.407e-10
 19.42279     62.9 1.051e+04 2.790e-10
 19.46242     63.4 1.030e+04 2.103e-10
 19.50204     64.0 1.010e+04 1.920e-10
 19.54167     64.7 1.011e+04 1.997e-10
 19.58130     65.3 1.022e+04 2.486e-10
 19.62092     66.1 1.044e+04 3.604e-10
 19.65952     66.9 1.055e+04 4.451e-10
 19.67934     67.1 1.049e+04 4.568e-10
 19.70018     67.5 1.047e+04 4.544e-10
 19.72069     67.9 1.036e+04 4.066e-10
 19.74050     68.9 1.030e+04 4.047e-10
 19.77943     69.1 1.012e+04 3.359e-10
 19.81906     69.2 9.916e+03 3.066e-10
 19.85869     69.3 9.895e+03 3.158e-10
 19.89831     69.3 9.967e+03 3.545e-10
 19.92794     69.6 1.001e+04 3.923e-10
 19.94765     69.7 1.011e+04 4.387e-10
 19.96747     69.8 1.035e+04 5.085e-10
 19.98389     69.5 1.080e+04 6.158e-10
 19.99380     69.8 1.027e+04 4.635e-10
 20.00709     68.6 1.078e+04 5.871e-10
 20.02691     66.2 1.187e+04 8.918e-10
 20.04672     63.3 1.312e+04 1.568e-09
 20.06263     61.0 1.386e+04 2.643e-09
 20.07254     61.9 1.361e+04 2.260e-09
 20.08635     60.2 1.386e+04 3.186e-09
 20.10616     59.0 1.377e+04 3.362e-09
 20.12597     58.0 1.360e+04 3.200e-09
 20.14122     57.3 1.308e+04 2.604e-09
 20.15112     58.0 1.296e+04 2.335e-09
 20.16560     57.2 1.237e+04 1.720e-09
 20.18541     56.1 1.161e+04 1.152e-09
 20.21523     55.0 1.094e+04 7.220e-10
 20.25496     53.2 9.850e+03 3.393e-10
 20.28884     51.9 9.737e+03 2.926e-10
 20.30865     52.8 9.895e+03 3.647e-10
 20.32421     51.9 9.938e+03 3.613e-10
 20.34392     51.2 9.995e+03 3.722e-10
 20.37374     49.8 1.031e+04 5.010e-10
 20.40497     48.2 1.089e+04 8.413e-10
 20.42479     48.0 1.093e+04 8.869e-10
 20.45309     47.2 1.128e+04 1.267e-09
 20.49272     47.3 1.108e+04 1.123e-09
 20.52234     47.9 1.060e+04 8.446e-10
 20.54206     48.2 1.015e+04 5.927e-10
 20.56187     48.0 9.610e+03 3.609e-10
 20.58080     47.5 9.312e+03 2.782e-10
 20.59071     47.2 9.318e+03 2.911e-10
 20.60339     47.2 8.862e+03 2.070e-10
 20.62331     46.3 8.682e+03 2.035e-10
 20.64122     47.0 8.613e+03 1.991e-10
 20.66094     47.9 8.676e+03 2.031e-10
 20.68075     47.6 9.120e+03 2.389e-10
 20.70056     46.0 1.046e+04 4.106e-10
 20.72038     43.8 1.172e+04 8.795e-10
 20.74019     43.1 1.267e+04 1.931e-09
 20.75683     44.0 1.344e+04 3.580e-09
 20.76668     43.8 1.421e+04 5.098e-09
 20.77043     44.3 1.459e+04 6.358e-09
 20.77539     44.5 1.499e+04 7.269e-09
 20.78467     45.5 1.554e+04 8.962e-09
 20.79458     45.7 1.611e+04 1.053e-08
 20.80449     45.7 1.670e+04 1.140e-08
 20.81439     45.3 1.743e+04 1.160e-08
 20.82430     44.7 1.794e+04 1.154e-08
 20.83921     42.3 1.846e+04 1.198e-08
 20.85907     41.5 1.736e+04 9.105e-09
 20.87888     40.6 1.590e+04 6.480e-09
 20.89870     39.4 1.495e+04 4.727e-09
 20.91795     38.5 1.450e+04 3.498e-09
 20.92786     36.7 1.348e+04 2.464e-09
 20.93285     36.1 1.313e+04 2.014e-09
 20.94276     33.6 1.240e+04 1.648e-09
 20.95814     33.3 1.169e+04 1.378e-09
 20.97795     33.3 1.120e+04 1.219e-09
 21.00777     34.4 1.114e+04 1.246e-09
 21.04749     35.4 1.075e+04 1.120e-09
 21.08712     36.8 1.046e+04 9.834e-10
 21.10907     38.6 1.026e+04 8.564e-10
 21.12888     37.8 9.573e+03 6.001e-10
 21.15637     38.8 9.561e+03 6.089e-10
 21.17609     39.6 9.553e+03 6.168e-10
 21.19590     40.5 9.582e+03 6.150e-10
 21.21571     41.3 9.593e+03 6.115e-10
 21.23261     42.1 9.595e+03 6.031e-10
 21.24252     42.2 9.587e+03 5.574e-10
 21.25534     42.9 9.632e+03 5.602e-10
 21.27499     43.5 9.789e+03 5.706e-10
 21.28490     43.6 9.587e+03 5.056e-10
 21.29497     44.0 9.823e+03 5.283e-10
 21.31478     44.0 1.010e+04 5.793e-10
 21.33459     43.8 1.041e+04 6.775e-10
 21.35441     43.5 1.069e+04 8.380e-10
 21.37422     43.2 1.095e+04 1.077e-09
 21.38994     43.3 1.122e+04 1.355e-09
 21.39984     43.6 1.134e+04 1.491e-09
 21.41385     43.9 1.173e+04 1.711e-09
 21.43366     44.0 1.184e+04 1.692e-09
 21.45102     44.0 1.192e+04 1.656e-09
 21.46092     44.0 1.214e+04 1.910e-09
 21.48329     43.7 1.234e+04 1.955e-09
 21.52302     43.9 1.168e+04 1.304e-09
 21.54746     43.7 1.067e+04 7.243e-10
 21.56727     42.9 1.041e+04 5.293e-10
 21.60227     42.3 9.863e+03 3.880e-10
 21.64190     42.4 9.526e+03 3.163e-10
 21.68153     43.5 9.152e+03 2.456e-10
 21.72115     45.0 8.818e+03 1.729e-10
 21.76078     46.3 8.490e+03 1.195e-10
 21.79335     47.7 8.223e+03 1.085e-10
 21.81317     48.0 8.295e+03 1.147e-10
 21.84003     49.9 8.268e+03 1.163e-10
 21.86212     52.1 8.225e+03 1.254e-10
 21.88193     51.8 7.881e+03 8.489e-11
 21.91929     54.3 7.942e+03 9.576e-11
 21.95891     56.7 8.016e+03 1.065e-10
 21.99854     58.8 8.123e+03 1.262e-10
 22.03817     61.1 8.454e+03 1.821e-10
 22.07779     63.6 8.986e+03 2.974e-10
 22.11742     65.5 9.415e+03 4.366e-10
 22.14530     67.0 9.635e+03 5.144e-10
 22.15511     67.2 9.617e+03 5.104e-10
 22.16667     68.1 9.865e+03 6.061e-10
 22.18649     69.2 9.596e+03 4.826e-10
 22.20639     70.3 9.803e+03 5.436e-10
 22.22620     71.4 9.895e+03 5.622e-10
 22.24601     72.3 9.886e+03 5.543e-10
 22.26583     73.4 9.798e+03 5.077e-10
 22.28564     74.1 9.691e+03 4.575e-10
 22.31546     75.4 9.471e+03 3.763e-10
 22.35518     77.1 9.366e+03 3.480e-10
 22.39481     79.0 9.407e+03 3.551e-10
 22.43444     80.5 9.510e+03 3.805e-10
 22.46406     81.2 9.678e+03 4.187e-10
 22.48133     81.7 9.951e+03 4.860e-10
 22.49124     81.0 9.979e+03 4.485e-10
 22.49725     81.1 1.036e+04 5.713e-10
 22.50716     80.2 1.089e+04 8.105e-10
 22.52340     80.1 1.134e+04 1.038e-09
 22.54322     80.0 1.176e+04 1.308e-09
 22.56303     80.0 1.217e+04 1.605e-09
 22.58284     80.0 1.256e+04 1.883e-09
 22.60266     80.0 1.290e+04 2.084e-09
 22.62247     79.8 1.310e+04 2.103e-09
 22.63866     79.4 1.309e+04 2.055e-09
 22.64856     78.4 1.274e+04 1.834e-09
 22.66210     78.0 1.260e+04 1.668e-09
 22.67328     77.6 1.242e+04 1.500e-09
 22.68319     77.1 1.204e+04 1.199e-09
 22.70172     77.0 1.191e+04 1.092e-09
 22.72154     76.9 1.180e+04 1.008e-09
 22.74135     76.8 1.172e+04 9.492e-10
 22.76116     76.8 1.165e+04 9.083e-10
 22.78098     76.8 1.160e+04 9.095e-10
 22.79599     76.9 1.158e+04 9.217e-10
 22.80589     76.2 1.153e+04 1.045e-09
 22.82060     76.3 1.152e+04 1.080e-09
 22.83940     76.4 1.155e+04 1.125e-09
 22.84930     76.9 1.146e+04 1.064e-09
 22.86023     76.9 1.162e+04 1.183e-09
 22.88004     76.9 1.181e+04 1.360e-09
 22.89986     76.8 1.204e+04 1.594e-09
 22.91967     76.9 1.236e+04 1.973e-09
 22.93949     76.8 1.285e+04 2.357e-09
 22.95331     76.1 1.460e+04 3.110e-09
 22.96322     77.1 1.280e+04 2.233e-09
 22.97911     76.7 1.351e+04 2.427e-09
 22.99893     75.6 1.488e+04 2.761e-09
 23.01542     74.2 1.585e+04 3.303e-09
 23.02533     77.4 1.414e+04 2.569e-09
 23.03855     76.0 1.477e+04 2.654e-09
 23.05837     74.8 1.489e+04 2.933e-09
 23.07818     74.5 1.472e+04 3.363e-09
 23.09799     74.9 1.460e+04 3.879e-09
 23.11064     75.8 1.454e+04 4.318e-09
 23.12055     76.1 1.403e+04 3.037e-09
 23.13762     77.2 1.403e+04 3.206e-09
 23.15743     78.4 1.399e+04 3.138e-09
 23.17725     79.6 1.385e+04 2.859e-09
 23.19145     80.7 1.369e+04 2.438e-09
 23.20135     81.3 1.344e+04 2.250e-09
 23.21687     82.3 1.322e+04 1.912e-09
 23.23669     83.2 1.293e+04 1.583e-09
 23.25650     84.0 1.264e+04 1.326e-09
 23.26797     84.7 1.240e+04 1.152e-09
 23.27788     84.3 1.199e+04 1.009e-09
 23.29613     85.1 1.188e+04 9.294e-10
 23.31594     86.1 1.179e+04 9.080e-10
 23.33575     87.3 1.180e+04 9.124e-10
 23.35557     88.5 1.185e+04 9.379e-10
 23.36747     89.6 1.193e+04 9.927e-10
 23.37738     90.1 1.192e+04 9.061e-10
 23.39520     91.3 1.201e+04 9.689e-10
 23.41501     92.5 1.216e+04 1.062e-09
 23.42530     93.6 1.236e+04 1.201e-09
 23.43521     92.7 1.202e+04 1.070e-09
 23.45464     93.9 1.203e+04 1.138e-09
 23.47445     95.0 1.219e+04 1.274e-09
 23.49426     96.0 1.265e+04 1.506e-09
 23.51408     97.0 1.355e+04 1.906e-09
 23.53359     98.1 1.427e+04 2.368e-09
 23.54349     98.6 1.268e+04 1.530e-09
 23.55370     99.6 1.319e+04 1.729e-09
 23.57272    100.5 1.402e+04 2.017e-09
 23.58263     98.8 1.157e+04 9.567e-10
 23.59333     99.4 1.168e+04 9.033e-10
 23.61314    100.1 1.170e+04 8.415e-10
 23.63296    100.8 1.217e+04 7.830e-10
 23.65277    101.9 1.300e+04 7.474e-10
 23.67258    102.9 1.328e+04 6.850e-10
 23.69240    103.7 1.475e+04 5.837e-10
 23.70961    104.3 1.755e+04 5.236e-10
 23.71952    104.2 1.055e+04 3.848e-10
 23.73005    104.9 1.144e+04 3.402e-10
 23.73996    103.7 9.680e+03 2.295e-10
 23.75184    104.7 9.549e+03 2.039e-10
 23.77165    105.8 9.442e+03 1.875e-10
 23.79146    106.8 9.355e+03 1.777e-10
 23.81128    107.8 9.350e+03 1.739e-10
 23.83109    109.0 9.474e+03 1.740e-10
 23.85090    110.2 1.063e+04 1.734e-10
 23.87072    110.4 1.701e+04 1.757e-10
 23.88564    111.9 2.811e+04 2.395e-10
 23.89239    111.1 1.115e+04 1.942e-10
 23.89728    110.1 9.318e+03 1.833e-10
 23.91035    110.0 9.389e+03 1.983e-10
 23.93016    109.6 9.503e+03 2.262e-10
 23.94997    108.8 9.665e+03 2.743e-10
 23.96979    108.0 9.912e+03 3.550e-10
 23.98960    107.2 1.024e+04 4.789e-10
 24.00941    106.6 1.059e+04 6.345e-10
 24.02923    106.4 1.091e+04 7.871e-10
 24.04470    106.2 1.118e+04 8.953e-10
 24.05461    107.1 1.102e+04 8.541e-10
 24.06166    107.2 1.124e+04 9.184e-10
 24.07157    107.8 1.115e+04 9.175e-10
 24.08867    108.0 1.128e+04 9.326e-10
 24.10848    108.3 1.131e+04 9.369e-10
 24.12829    108.7 1.133e+04 9.445e-10
 24.14811    109.3 1.144e+04 9.640e-10
 24.16792    109.9 1.171e+04 1.009e-09
 24.18773    110.6 1.213e+04 1.121e-09
 24.20203    111.3 1.259e+04 1.327e-09
 24.21194    111.3 1.218e+04 1.256e-09
 24.22736    112.0 1.248e+04 1.515e-09
 24.23768    112.7 1.300e+04 1.978e-09
 24.24759    113.2 1.248e+04 1.615e-09
 24.26699    113.6 1.375e+04 2.385e-09
 24.28680    113.7 1.481e+04 3.277e-09
 24.30161    113.0 1.583e+04 4.180e-09
 24.31147    111.1 1.778e+04 5.755e-09
 24.32065    108.4 2.010e+04 9.008e-09
 24.32560    106.6 2.038e+04 9.659e-09
 24.33128    104.5 2.123e+04 1.532e-08
 24.34119    102.9 2.146e+04 2.345e-08
 24.35110    102.4 2.143e+04 3.316e-08
 24.35926    102.6 2.156e+04 4.067e-08
 24.36422    102.2 2.150e+04 3.685e-08
 24.37091    102.2 2.150e+04 3.590e-08
 24.38082    102.1 2.151e+04 3.124e-08
 24.39072    101.5 2.139e+04 2.259e-08
 24.40063    100.3 2.114e+04 1.507e-08
 24.40866     98.5 2.076e+04 9.785e-09
 24.41366     99.5 1.978e+04 8.032e-09
 24.42550     94.5 1.821e+04 2.636e-09
 24.44531     86.6 1.342e+04 9.273e-10
 24.46512     82.6 1.156e+04 7.259e-10
 24.48494     82.8 1.152e+04 7.131e-10
 24.50475     83.4 1.147e+04 7.019e-10
 24.51669     84.0 1.140e+04 6.787e-10
 24.52660     84.7 1.079e+04 4.630e-10
 24.54438     85.3 1.075e+04 4.464e-10
 24.56419     85.9 1.069e+04 4.449e-10
 24.57983     86.6 1.069e+04 4.522e-10
 24.58973     87.3 1.028e+04 3.570e-10
 24.60382     88.1 1.027e+04 3.608e-10
 24.62363     88.9 1.031e+04 3.755e-10
 24.64344     89.5 1.055e+04 4.192e-10
 24.66326     89.7 1.116e+04 5.222e-10
 24.67402     89.7 1.213e+04 7.536e-10
 24.68392     90.4 1.192e+04 6.227e-10
 24.70288     90.3 1.308e+04 1.048e-09
 24.72270     90.5 1.393e+04 1.811e-09
 24.74251     91.1 1.446e+04 2.870e-09
 24.75585     92.0 1.478e+04 3.989e-09
 24.76576     92.8 1.385e+04 1.930e-09
 24.78214     93.5 1.406e+04 2.569e-09
 24.80195     94.2 1.416e+04 2.929e-09
 24.82144     95.0 1.391e+04 3.054e-09
 24.83135     94.9 1.392e+04 2.926e-09
 24.84158     95.6 1.377e+04 2.833e-09
 24.86139     96.2 1.350e+04 2.574e-09
 24.88121     96.9 1.323e+04 2.209e-09
 24.90102     97.7 1.300e+04 1.961e-09
 24.92083     98.6 1.283e+04 1.638e-09
 24.93188     99.6 1.261e+04 1.302e-09
 24.94178     99.7 1.285e+04 1.813e-09
 24.96046    100.9 1.276e+04 1.591e-09
 24.97877    102.1 1.261e+04 1.323e-09
 24.98867    101.7 1.272e+04 1.504e-09
 25.00009    102.8 1.244e+04 1.150e-09
 25.01990    103.8 1.210e+04 8.679e-10
 25.03971    104.7 1.177e+04 6.725e-10
 25.05953    105.6 1.145e+04 5.424e-10
 25.07934    106.6 1.116e+04 4.569e-10
 25.09799    107.8 1.094e+04 4.060e-10
 25.10790    108.3 1.164e+04 6.542e-10
 25.11897    109.5 1.141e+04 5.759e-10
 25.13610    110.7 1.124e+04 5.312e-10
 25.14600    110.0 1.110e+04 4.878e-10
 25.15859    111.1 1.100e+04 4.735e-10
 25.17841    112.5 1.094e+04 4.713e-10
 25.19822    113.8 1.094e+04 4.773e-10
 25.21803    115.1 1.098e+04 4.874e-10
 25.23785    116.4 1.100e+04 4.981e-10
 25.25766    117.6 1.104e+04 5.140e-10
 25.27402    118.8 1.115e+04 5.352e-10
 25.28392    119.1 1.156e+04 8.015e-10
 25.29342    120.3 1.180e+04 8.773e-10
 25.30333    119.7 1.203e+04 1.067e-09
 25.31710    120.7 1.269e+04 1.317e-09
 25.33691    121.3 1.379e+04 1.746e-09
 25.35673    121.0 1.509e+04 2.247e-09
 25.36693    119.8 1.583e+04 2.298e-09
 25.37184    120.2 1.639e+04 2.617e-09
 25.37694    118.2 1.802e+04 3.219e-09
 25.38190    117.1 1.890e+04 4.357e-09
 25.39130    114.9 2.002e+04 5.918e-09
 25.40121    113.4 2.009e+04 7.667e-09
 25.41612    111.3 1.912e+04 7.575e-09
 25.43598    108.6 1.867e+04 9.211e-09
 25.45004    106.9 1.798e+04 8.412e-09
 25.45491    107.7 2.061e+04 1.347e-08
 25.46066    108.7 2.084e+04 1.573e-08
 25.47561    105.8 1.902e+04 6.280e-09
 25.49542    101.3 1.605e+04 2.801e-09
 25.51524     96.8 1.384e+04 1.944e-09
 25.53505     94.1 1.324e+04 1.791e-09
 25.55486     92.9 1.322e+04 1.895e-09
 25.57468     92.6 1.342e+04 2.247e-09
 25.59449     92.6 1.376e+04 2.744e-09
 25.60808     92.7 1.406e+04 3.176e-09
 25.61799     93.1 1.440e+04 3.656e-09
 25.62607     93.1 1.454e+04 3.846e-09
 25.63597     92.5 1.444e+04 3.780e-09
 25.65393     92.3 1.426e+04 3.460e-09
 25.67374     91.6 1.410e+04 3.131e-09
 25.69356     91.0 1.391e+04 2.885e-09
 25.71337     90.6 1.373e+04 2.759e-09
 25.73318     90.4 1.361e+04 2.704e-09
 25.75300     90.5 1.347e+04 2.648e-09
 25.76541     90.9 1.332e+04 2.552e-09
 25.77532     91.2 1.348e+04 2.662e-09
 25.79218     91.9 1.328e+04 2.404e-09
 25.80209     90.9 1.346e+04 2.796e-09
 25.81244     91.9 1.355e+04 2.849e-09
 25.83225     92.7 1.379e+04 2.799e-09
 25.85207     93.5 1.400e+04 2.773e-09
 25.87188     94.2 1.406e+04 2.701e-09
 25.89169     94.6 1.409e+04 2.504e-09
 25.91151     94.7 1.387e+04 2.259e-09
 25.92274     94.6 1.352e+04 2.018e-09
 25.93264     93.8 1.310e+04 1.883e-09
 25.95113     93.6 1.275e+04 1.761e-09
 25.96821     93.4 1.251e+04 1.696e-09
 25.97807     93.4 1.273e+04 1.755e-09
 25.98571     93.2 1.260e+04 1.705e-09
 25.99562     93.0 1.254e+04 1.683e-09
 26.00130     92.9 1.257e+04 1.678e-09
 26.00626     92.4 1.328e+04 1.762e-09
 26.01543     92.2 1.388e+04 1.807e-09
 26.02534     92.0 1.471e+04 1.882e-09
 26.03524     91.5 1.619e+04 2.027e-09
 26.04515     90.3 1.879e+04 2.339e-09
 26.05506     88.1 2.332e+04 2.941e-09
 26.06108     84.8 2.970e+04 4.215e-09
 26.06603     80.8 3.106e+04 2.819e-08
 26.07487     79.7 2.882e+04 5.138e-08
 26.07997     78.7 2.659e+04 9.297e-08
 26.08492     79.0 2.561e+04 7.409e-08
 26.09468     78.3 2.418e+04 1.104e-07
 26.10459     77.3 2.291e+04 1.745e-07
 26.11450     76.5 2.191e+04 2.774e-07
 26.12440     75.4 2.139e+04 4.260e-07
 26.13431     73.0 2.128e+04 4.936e-07
 26.14413     71.2 2.106e+04 4.448e-07
 26.14909     72.7 2.112e+04 4.245e-07
 26.15368     72.9 2.096e+04 2.874e-07
 26.15863     73.1 2.117e+04 1.888e-07
 26.16403     73.6 2.090e+04 1.101e-07
 26.17394     73.6 2.111e+04 5.375e-08
 26.18384     72.5 2.237e+04 2.532e-08
 26.19375     70.5 2.316e+04 1.366e-08
 26.20866     67.0 2.262e+04 7.994e-09
 26.22749     63.7 1.852e+04 5.406e-09
 26.23739     63.6 1.592e+04 3.660e-09
 26.24833     62.7 1.367e+04 3.037e-09
 26.26815     63.3 1.319e+04 2.757e-09
 26.28796     64.7 1.308e+04 2.579e-09
 26.30777     66.2 1.301e+04 2.311e-09
 26.32026     67.6 1.282e+04 1.908e-09
 26.33016     67.5 1.296e+04 2.355e-09
 26.34740     68.7 1.266e+04 1.932e-09
 26.36722     69.8 1.230e+04 1.499e-09
 26.38482     70.5 1.188e+04 1.144e-09
 26.39472     70.0 1.138e+04 8.948e-10
 26.40684     70.7 1.095e+04 7.320e-10
 26.42666     71.4 1.062e+04 6.343e-10
 26.44647     72.4 1.046e+04 5.941e-10
 26.46628     73.5 1.049e+04 5.965e-10
 26.48610     74.5 1.057e+04 6.109e-10
 26.49628     75.5 1.069e+04 6.380e-10
 26.50619     75.0 1.133e+04 9.882e-10
 26.52572     76.0 1.155e+04 1.102e-09
 26.54214     76.9 1.177e+04 1.239e-09
 26.55205     76.8 1.164e+04 1.245e-09
 26.56535     77.9 1.186e+04 1.393e-09
 26.58516     79.2 1.190e+04 1.516e-09
 26.60498     80.4 1.186e+04 1.523e-09
 26.62479     81.5 1.180e+04 1.516e-09
 26.64460     82.5 1.175e+04 1.491e-09
 26.66240     83.3 1.168e+04 1.454e-09
 26.67231     83.3 1.225e+04 1.835e-09
 26.68423     84.2 1.214e+04 1.697e-09
 26.69947     85.0 1.200e+04 1.567e-09
 26.70938     84.8 1.183e+04 1.448e-09
 26.72386     85.8 1.170e+04 1.361e-09
 26.74367     87.0 1.157e+04 1.265e-09
 26.76348     87.9 1.146e+04 1.177e-09
 26.78330     88.8 1.135e+04 1.093e-09
 26.80311     89.7 1.125e+04 1.019e-09
 26.82292     90.6 1.118e+04 9.540e-10
 26.83842     91.3 1.113e+04 8.925e-10
 26.84833     91.1 1.115e+04 8.935e-10
 26.85680     91.7 1.108e+04 8.363e-10
 26.86671     91.6 1.104e+04 8.199e-10
 26.88237     92.2 1.098e+04 7.758e-10
 26.90218     92.8 1.088e+04 7.223e-10
 26.92199     93.3 1.076e+04 6.615e-10
 26.94181     93.7 1.063e+04 5.996e-10
 26.96162     93.8 1.051e+04 5.539e-10
 26.99144     94.2 1.037e+04 5.145e-10
 27.01464     94.7 1.049e+04 5.449e-10
 27.02445     93.3 1.147e+04 9.818e-10
 27.04087     93.1 1.148e+04 9.877e-10
 27.06069     92.8 1.156e+04 1.058e-09
 27.08050     92.3 1.175e+04 1.207e-09
 27.10031     91.9 1.203e+04 1.397e-09
 27.12013     91.4 1.241e+04 1.557e-09
 27.13994     90.6 1.259e+04 1.569e-09
 27.15975     89.7 1.256e+04 1.503e-09
 27.17146     89.0 1.236e+04 1.245e-09
 27.18136     89.3 1.275e+04 1.432e-09
 27.19047     88.2 1.231e+04 1.007e-09
 27.20038     87.2 1.202e+04 8.973e-10
 27.22920     86.5 1.146e+04 5.861e-10
 27.26892     84.6 1.010e+04 3.099e-10
 27.30855     83.8 9.402e+03 2.329e-10
 27.34688     83.6 9.148e+03 2.071e-10
 27.36669     81.9 9.018e+03 1.999e-10
 27.38780     82.7 8.868e+03 1.702e-10
 27.42743     83.6 8.724e+03 1.444e-10
 27.46650     84.5 8.686e+03 1.398e-10
 27.48631     84.7 8.628e+03 1.288e-10
 27.50668     85.5 8.636e+03 1.319e-10
 27.54631     86.3 8.698e+03 1.508e-10
 27.58594     87.2 8.830e+03 1.886e-10
 27.62557     88.0 8.967e+03 2.266e-10
 27.66519     88.6 9.016e+03 2.336e-10
 27.69893     89.2 8.996e+03 2.244e-10
 27.71874     88.8 9.043e+03 2.114e-10
 27.74445     89.4 8.902e+03 1.724e-10
 27.78115     89.9 8.784e+03 1.462e-10
 27.80097     90.9 8.597e+03 1.126e-10
 27.82370     91.7 8.605e+03 1.123e-10
 27.86333     92.7 8.672e+03 1.204e-10
 27.90295     93.9 8.854e+03 1.508e-10
 27.94258     95.2 9.068e+03 1.962e-10
 27.98221     96.6 9.187e+03 2.242e-10
 28.02184     98.0 9.175e+03 2.214e-10
 28.05098     99.4 9.055e+03 2.011e-10
 28.07079     98.9 8.924e+03 1.789e-10
 28.09581    100.6 8.701e+03 1.357e-10
 28.11562    101.2 8.925e+03 1.746e-10
 28.14072    102.8 8.689e+03 1.330e-10
 28.18034    104.4 8.457e+03 1.015e-10
 28.21997    106.0 8.334e+03 8.917e-11
 28.25960    107.8 8.329e+03 8.895e-11
 28.29922    109.7 8.335e+03 8.990e-11
 28.33885    111.7 8.361e+03 9.461e-11
 28.37848    113.7 8.411e+03 1.056e-10
 28.40302    115.7 8.501e+03 1.234e-10
 28.41520    115.2 8.474e+03 1.220e-10
 28.43028    114.8 9.051e+03 1.866e-10
 28.45773    117.3 9.566e+03 2.486e-10
 28.49736    118.1 9.957e+03 3.083e-10
 28.52698    119.6 1.016e+04 3.322e-10
 28.54670    119.7 1.070e+04 4.648e-10
 28.56651    119.7 1.129e+04 6.906e-10
 28.57750    119.8 1.191e+04 1.045e-09
 28.57994    118.8 1.209e+04 1.277e-09
 28.58876    118.2 1.247e+04 1.683e-09
 28.60614    119.0 1.305e+04 2.246e-09
 28.62595    120.0 1.368e+04 2.939e-09
 28.64576    121.0 1.438e+04 3.749e-09
 28.66558    121.9 1.502e+04 4.347e-09
 28.68539    122.4 1.513e+04 4.302e-09
 28.70520    122.7 1.521e+04 4.013e-09
 28.72493    122.7 1.505e+04 3.365e-09
 28.74474    120.2 1.328e+04 1.615e-09
 28.75488    119.6 1.271e+04 1.349e-09
 28.76478    118.5 1.255e+04 1.307e-09
 28.78446    118.1 1.237e+04 1.260e-09
 28.80427    117.8 1.244e+04 1.287e-09
 28.82409    117.6 1.263e+04 1.380e-09
 28.84390    117.3 1.297e+04 1.569e-09
 28.86371    117.0 1.336e+04 1.817e-09
 28.88225    116.8 1.368e+04 2.028e-09
 28.89216    115.7 1.394e+04 2.238e-09
 28.90334    115.4 1.409e+04 2.298e-09
 28.92099    114.8 1.406e+04 2.257e-09
 28.93090    112.6 1.412e+04 2.277e-09
 28.94297    111.3 1.433e+04 2.193e-09
 28.96278    109.7 1.449e+04 2.201e-09
 28.98259    108.2 1.483e+04 2.296e-09
 29.00241    106.4 1.588e+04 2.789e-09
 29.02222    103.5 1.871e+04 4.853e-09
 29.03703    101.7 2.015e+04 6.591e-09
 29.04444    100.7 2.031e+04 8.121e-09
 29.04939    100.2 2.168e+04 1.076e-08
 29.05680     98.2 2.361e+04 1.210e-08
 29.06670     76.6 5.719e+04 1.071e-08
 29.07411     17.3 6.784e+04 6.020e-08
 29.07904    -24.2 2.030e+04 1.103e-05
 29.08372    -37.0 1.760e+04 1.016e-05
 29.08620    -33.1 1.755e+04 1.083e-05
 29.08894    -36.9 2.428e+04 4.793e-07
 29.09390    -42.1 1.920e+04 1.135e-06
 29.09885    -32.1 1.748e+04 9.775e-06
 29.10183    -27.8 1.745e+04 1.198e-05
 29.10430    -26.7 1.719e+04 1.506e-05
 29.10876    -25.0 1.802e+04 6.804e-06
 29.11621    -38.2 4.291e+04 1.375e-07
 29.12310    -88.9 1.009e+05 1.715e-09
 29.12806    -75.2 9.760e+04 2.830e-09
 29.13605   -148.8 4.604e+04 5.818e-10
 29.14596   -162.0 1.441e+04 8.684e-10
 29.16087   -161.9 1.363e+04 8.339e-10
 29.18073   -161.4 1.271e+04 7.794e-10
 29.19691   -159.5 1.245e+04 7.744e-10
 29.20682   -157.9 1.271e+04 8.041e-10
 29.22035   -156.2 1.244e+04 7.985e-10
 29.24017   -154.4 1.222e+04 8.062e-10
 29.25998   -152.7 1.198e+04 8.136e-10
 29.27304   -150.9 1.167e+04 8.017e-10
 29.28295   -149.4 1.181e+04 8.289e-10
 29.29961   -147.9 1.155e+04 7.819e-10
 29.31942   -146.6 1.130e+04 7.048e-10
 29.33924   -145.5 1.107e+04 6.272e-10
 29.35424   -144.6 1.088e+04 5.680e-10
 29.36415   -142.9 1.114e+04 6.143e-10
 29.37886   -142.3 1.094e+04 5.593e-10
 29.39868   -141.9 1.087e+04 5.407e-10
 29.41849   -141.6 1.085e+04 5.419e-10
 29.43830   -141.4 1.088e+04 5.922e-10
 29.44907   -141.0 1.095e+04 6.693e-10
 29.45897   -141.0 1.137e+04 8.081e-10
 29.47793   -140.2 1.134e+04 8.684e-10
 29.49774   -139.3 1.133e+04 8.895e-10
 29.51157   -138.4 1.124e+04 8.703e-10
 29.52147   -137.3 1.165e+04 9.741e-10
 29.53737   -136.6 1.136e+04 8.501e-10
 29.56719   -136.2 1.070e+04 6.650e-10
 29.60691   -134.2 1.003e+04 4.991e-10
 29.64654   -131.9 9.540e+03 3.903e-10
 29.66909   -129.3 9.312e+03 3.463e-10
 29.68890   -128.3 9.314e+03 3.370e-10
 29.72579   -125.8 9.228e+03 3.240e-10
 29.76542   -123.3 9.226e+03 3.220e-10
 29.79140   -121.1 9.283e+03 3.353e-10
 29.81122   -120.8 9.129e+03 2.919e-10
 29.84467   -118.6 9.267e+03 3.287e-10
 29.88430   -116.4 9.446e+03 3.806e-10
 29.92393   -114.2 9.628e+03 4.372e-10
 29.96355   -111.9 9.801e+03 4.891e-10
 29.98375   -109.4 9.958e+03 5.334e-10
 30.00356   -109.5 9.747e+03 4.606e-10
 30.04281   -107.0 9.801e+03 4.739e-10
 30.08244   -104.3 9.864e+03 4.870e-10
 30.12206   -101.5 9.949e+03 5.022e-10
 30.14345    -98.9 1.019e+04 5.539e-10
 30.16327    -98.9 1.008e+04 5.034e-10
 30.20132    -96.2 1.063e+04 6.816e-10
 30.24094    -93.4 1.138e+04 1.023e-09
 30.27859    -90.9 1.213e+04 1.430e-09
 30.29840    -90.8 1.179e+04 1.141e-09
 30.30947    -89.1 1.274e+04 1.772e-09
 30.31928    -88.8 1.257e+04 1.597e-09
 30.32991    -88.5 1.290e+04 1.861e-09
 30.34972    -87.5 1.358e+04 2.572e-09
 30.36954    -86.7 1.424e+04 3.383e-09
 30.38935    -85.7 1.502e+04 4.426e-09
 30.40916    -85.0 1.580e+04 5.399e-09
 30.42898    -84.4 1.654e+04 6.363e-09
 30.44563    -84.3 1.708e+04 7.072e-09
 30.45554    -84.2 1.750e+04 9.055e-09
 30.46860    -84.0 1.785e+04 9.943e-09
 30.48540    -83.9 1.804e+04 1.057e-08
 30.49531    -83.4 1.774e+04 9.226e-09
 30.50823    -83.4 1.782e+04 9.564e-09
 30.52804    -83.1 1.783e+04 9.716e-09
 30.54786    -82.5 1.768e+04 9.771e-09
 30.56767    -81.8 1.729e+04 8.705e-09
 30.58748    -80.8 1.675e+04 7.135e-09
 30.60296    -79.7 1.625e+04 5.667e-09
 30.61287    -79.5 1.662e+04 7.566e-09
 30.62711    -78.4 1.622e+04 6.465e-09
 30.64692    -77.1 1.579e+04 5.366e-09
 30.66142    -75.8 1.538e+04 4.389e-09
 30.67133    -75.5 1.569e+04 4.881e-09
 30.68655    -74.2 1.533e+04 4.023e-09
 30.70636    -73.0 1.486e+04 3.170e-09
 30.72618    -71.8 1.422e+04 2.365e-09
 30.74599    -70.6 1.365e+04 1.868e-09
 30.76029    -69.3 1.319e+04 1.531e-09
 30.77019    -68.9 1.362e+04 1.963e-09
 30.79562    -68.1 1.274e+04 1.297e-09
 30.82774    -65.4 1.209e+04 1.051e-09
 30.84755    -65.0 1.280e+04 1.484e-09
 30.87497    -62.2 1.249e+04 1.375e-09
 30.90790    -59.3 1.235e+04 1.339e-09
 30.92772    -59.6 1.238e+04 1.404e-09
 30.95423    -56.8 1.227e+04 1.354e-09
 30.99386    -54.2 1.216e+04 1.276e-09
 31.03348    -51.9 1.203e+04 1.194e-09
 31.06310    -49.6 1.215e+04 1.259e-09
 31.07494    -48.9 1.215e+04 1.205e-09
 31.08485    -49.1 1.183e+04 1.161e-09
 31.10263    -48.0 1.215e+04 1.228e-09
 31.12245    -47.6 1.213e+04 1.228e-09
 31.14226    -46.9 1.277e+04 1.560e-09
 31.16207    -46.9 1.298e+04 1.967e-09
 31.17959    -45.9 1.336e+04 2.604e-09
 31.18950    -45.9 1.315e+04 2.207e-09
 31.20170    -45.0 1.336e+04 2.657e-09
 31.22151    -43.5 1.373e+04 3.107e-09
 31.23227    -42.4 1.386e+04 3.254e-09
 31.24218    -42.0 1.370e+04 3.257e-09
 31.26114    -41.0 1.375e+04 3.155e-09
 31.28096    -40.2 1.355e+04 2.738e-09
 31.30077    -39.9 1.316e+04 2.280e-09
 31.32058    -39.9 1.273e+04 1.825e-09
 31.34040    -40.0 1.226e+04 1.433e-09
 31.35562    -39.9 1.181e+04 1.135e-09
 31.36552    -40.0 1.175e+04 1.103e-09
 31.37969    -39.7 1.141e+04 9.227e-10
 31.38960    -38.6 1.137e+04 9.753e-10
 31.39984    -38.3 1.112e+04 8.360e-10
 31.41965    -37.8 1.083e+04 7.367e-10
 31.43946    -37.5 1.054e+04 6.736e-10
 31.45928    -36.4 1.064e+04 6.974e-10
 31.47909    -35.6 1.074e+04 7.318e-10
 31.49890    -34.5 1.095e+04 8.115e-10
 31.51872    -34.0 1.143e+04 9.477e-10
 31.53164    -33.8 1.194e+04 1.199e-09
 31.54004    -34.0 1.214e+04 1.294e-09
 31.54693    -32.5 1.137e+04 1.016e-09
 31.55834    -32.6 1.186e+04 1.254e-09
 31.57816    -33.0 1.269e+04 1.793e-09
 31.59797    -34.3 1.458e+04 2.963e-09
 31.61778    -36.2 1.714e+04 5.586e-09
 31.63760    -37.8 1.909e+04 1.026e-08
 31.65741    -38.5 1.944e+04 1.365e-08
 31.67722    -39.0 1.892e+04 1.327e-08
 31.69435    -39.1 1.782e+04 1.031e-08
 31.70426    -37.6 1.875e+04 1.182e-08
 31.70766    -38.4 1.774e+04 9.331e-09
 31.71757    -38.6 1.784e+04 8.096e-09
 31.73666    -42.2 1.809e+04 4.481e-09
 31.75648    -49.1 1.872e+04 2.235e-09
 31.77629    -57.7 1.632e+04 1.460e-09
 31.79611    -63.8 1.259e+04 1.479e-09
 31.81592    -66.2 1.210e+04 1.445e-09
 31.83573    -67.1 1.178e+04 1.389e-09
 31.85168    -68.4 1.141e+04 1.088e-09
 31.86159    -67.5 1.122e+04 1.048e-09
 31.87378    -69.5 1.064e+04 7.142e-10
 31.88369    -70.9 1.045e+04 6.078e-10
 31.89517    -74.1 9.608e+03 3.935e-10
 31.91499    -76.5 9.132e+03 3.186e-10
 31.94480    -78.0 8.965e+03 2.956e-10
 31.98453    -79.4 9.036e+03 3.234e-10
 32.02416    -80.8 9.322e+03 3.976e-10
 32.06378    -81.6 9.662e+03 4.772e-10
 32.09340    -82.0 9.791e+03 5.269e-10
 32.11312    -82.3 9.815e+03 5.343e-10
 32.14294    -82.6 9.899e+03 5.535e-10
 32.16653    -82.9 9.914e+03 5.593e-10
 32.17634    -82.5 9.889e+03 5.613e-10
 32.19237    -82.6 9.906e+03 5.648e-10
 32.21602    -82.7 9.977e+03 5.719e-10
 32.23593    -82.4 9.881e+03 5.553e-10
 32.26192    -82.0 9.916e+03 5.558e-10
 32.30154    -81.4 9.953e+03 5.376e-10
 32.34117    -80.6 9.943e+03 4.948e-10
 32.38080    -79.6 9.929e+03 4.389e-10
 32.42042    -78.5 9.897e+03 3.864e-10
 32.46005    -77.7 9.859e+03 3.471e-10
 32.48119    -77.3 9.801e+03 3.356e-10
 32.50100    -77.6 1.207e+04 7.249e-10
 32.52930    -76.3 1.094e+04 5.533e-10
 32.54902    -76.6 1.116e+04 6.367e-10
 32.56797    -77.2 1.125e+04 8.055e-10
 32.57788    -76.7 1.092e+04 6.777e-10
 32.58864    -77.8 1.124e+04 8.653e-10
 32.60846    -79.3 1.211e+04 1.222e-09
 32.62827    -81.6 1.386e+04 2.129e-09
 32.63832    -83.3 1.523e+04 3.615e-09
 32.64823    -83.0 1.691e+04 5.728e-09
 32.66790    -84.0 1.743e+04 7.743e-09
 32.68771    -84.6 1.749e+04 8.615e-09
 32.70752    -84.8 1.693e+04 8.039e-09
 32.72734    -84.7 1.582e+04 5.063e-09
 32.74400    -85.2 1.451e+04 2.726e-09
 32.75390    -85.6 1.448e+04 2.303e-09
 32.76697    -87.6 1.266e+04 1.073e-09
 32.78574    -88.9 1.135e+04 6.040e-10
 32.79565    -88.9 1.175e+04 6.857e-10
 32.80659    -89.2 1.107e+04 4.733e-10
 32.82641    -89.0 1.059e+04 3.637e-10
 32.84622    -88.1 1.028e+04 3.029e-10
 32.86603    -87.2 1.018e+04 2.708e-10
 32.88585    -86.4 1.016e+04 2.552e-10
 32.90566    -86.0 1.013e+04 2.461e-10
 32.92002    -85.1 1.015e+04 2.398e-10
 32.93993    -86.2 1.020e+04 2.389e-10
 32.97520    -86.8 1.074e+04 2.727e-10
 33.01483    -88.4 1.151e+04 5.056e-10
 33.05446    -89.7 1.198e+04 8.963e-10
 33.09069    -90.7 1.218e+04 1.107e-09
 33.11050    -90.0 1.223e+04 1.167e-09
 33.12371    -91.7 1.188e+04 9.258e-10
 33.14342    -92.0 1.180e+04 8.643e-10
 33.16323    -93.6 1.163e+04 6.186e-10
 33.18305    -95.7 1.169e+04 5.098e-10
 33.20286    -98.4 1.158e+04 4.688e-10
 33.22267   -100.5 1.183e+04 4.796e-10
 33.24249   -101.9 1.172e+04 6.447e-10
 33.25773   -102.4 1.180e+04 8.392e-10
 33.26749   -101.5 1.234e+04 1.045e-09
 33.27207   -101.9 1.080e+04 4.744e-10
 33.28212   -102.5 1.087e+04 5.800e-10
 33.30193   -102.9 1.104e+04 6.558e-10
 33.32174   -103.4 1.114e+04 6.836e-10
 33.34156   -104.1 1.114e+04 6.593e-10
 33.36137   -105.1 1.106e+04 6.113e-10
 33.38118   -106.1 1.100e+04 5.569e-10
 33.40100   -107.1 1.094e+04 4.986e-10
 33.41505   -108.0 1.086e+04 4.487e-10
 33.42496   -107.9 1.137e+04 5.965e-10
 33.43819   -108.8 1.126e+04 5.544e-10
 33.44809   -109.3 1.090e+04 4.920e-10
 33.46044   -109.7 1.082e+04 4.708e-10
 33.48025   -109.9 1.073e+04 4.578e-10
 33.50006   -109.9 1.067e+04 4.501e-10
 33.51988   -109.8 1.061e+04 4.434e-10
 33.53969   -109.6 1.058e+04 4.429e-10
 33.55950   -109.4 1.059e+04 4.521e-10
 33.57238   -109.1 1.065e+04 4.804e-10
 33.58229   -109.1 1.068e+04 5.029e-10
 33.60440   -108.6 1.083e+04 5.471e-10
 33.62431   -109.9 1.046e+04 4.580e-10
 33.64886   -109.0 1.056e+04 5.141e-10
 33.68849   -108.2 1.069e+04 5.747e-10
 33.72000   -107.3 1.072e+04 5.914e-10
 33.73981   -107.4 1.076e+04 5.994e-10
 33.76774   -106.5 1.070e+04 5.506e-10
 33.80737   -105.8 1.040e+04 4.493e-10
 33.83699   -104.9 1.001e+04 3.529e-10
 33.85671   -104.8 1.006e+04 3.589e-10
 33.87652   -104.3 1.018e+04 3.940e-10
 33.88704   -104.1 1.025e+04 4.280e-10
 33.89695   -103.9 1.016e+04 3.941e-10
 33.91615   -103.2 1.027e+04 4.519e-10
 33.93596   -102.8 1.033e+04 4.894e-10
 33.95577   -102.0 1.042e+04 5.447e-10
 33.96626   -101.3 1.043e+04 5.597e-10
 33.97626   -101.0 1.019e+04 4.474e-10
 34.00550    -99.3 1.022e+04 4.698e-10
 34.03466    -97.9 1.027e+04 4.487e-10
 34.05447    -97.9 1.036e+04 4.515e-10
 34.08476    -96.5 1.030e+04 4.159e-10
 34.12438    -95.0 1.018e+04 3.844e-10
 34.16401    -93.4 1.002e+04 3.435e-10
 34.20364    -91.6 9.815e+03 2.879e-10
 34.24326    -89.6 9.596e+03 2.239e-10
 34.28289    -87.6 9.401e+03 1.655e-10
 34.30860    -85.7 9.260e+03 1.242e-10
 34.32841    -85.3 9.328e+03 1.454e-10
 34.34931    -83.4 9.222e+03 1.110e-10
 34.36913    -83.4 9.241e+03 1.114e-10
 34.40177    -81.5 9.170e+03 9.127e-11
 34.44140    -79.4 9.139e+03 8.463e-11
 34.48103    -77.2 9.132e+03 8.367e-11
 34.52065    -75.0 9.194e+03 8.591e-11
 34.56028    -72.9 9.317e+03 9.347e-11
 34.59991    -70.7 9.415e+03 1.062e-10
 34.63953    -68.5 9.489e+03 1.213e-10
 34.66065    -66.2 9.564e+03 1.327e-10
 34.66527    -66.0 9.648e+03 1.654e-10
 34.68378    -66.4 9.764e+03 1.888e-10
 34.71879    -64.0 9.813e+03 1.976e-10
 34.75841    -61.7 9.842e+03 1.932e-10
 34.79804    -59.4 9.847e+03 1.810e-10
 34.83767    -57.0 9.841e+03 1.666e-10
 34.87729    -54.4 9.800e+03 1.506e-10
 34.91692    -51.7 9.701e+03 1.322e-10
 34.95655    -48.9 9.579e+03 1.116e-10
 34.97863    -45.9 9.484e+03 8.943e-11
 34.99514    -46.2 9.466e+03 8.610e-11
 35.01269    -45.9 9.557e+03 1.035e-10
 35.03580    -43.0 9.474e+03 8.022e-11
 35.07543    -40.1 9.439e+03 6.344e-11
 35.11506    -37.3 9.472e+03 5.284e-11
 35.15468    -34.7 9.475e+03 4.626e-11
 35.19431    -32.0 9.507e+03 4.464e-11
 35.23394    -29.6 9.445e+03 4.848e-11
 35.27347    -26.5 9.262e+03 5.960e-11
 35.31310    -23.4 9.401e+03 7.384e-11
 35.34493    -20.5 9.557e+03 6.894e-11
 35.36474    -20.6 9.718e+03 8.211e-11
 35.39244    -18.0 9.787e+03 8.165e-11
 35.43207    -15.8 9.799e+03 9.052e-11
 35.47170    -13.5 9.766e+03 1.105e-10
 35.51133    -11.0 9.800e+03 1.422e-10
 35.55095     -8.8 9.915e+03 1.942e-10
 35.58813     -6.5 1.011e+04 2.755e-10
 35.60794     -7.0 9.986e+03 2.685e-10
 35.63021     -4.7 1.010e+04 3.162e-10
 35.66983     -2.7 1.017e+04 3.153e-10
 35.69698     -1.1 1.029e+04 3.107e-10
 35.71679     -1.4 1.050e+04 3.806e-10
 35.74909     -0.1 1.058e+04 3.661e-10
 35.78871      1.0 1.057e+04 3.723e-10
 35.82834      2.3 1.049e+04 3.864e-10
 35.86797      4.0 1.044e+04 3.835e-10
 35.90278      5.7 1.041e+04 3.680e-10
 35.92260      5.3 1.043e+04 4.038e-10
 35.94722      7.0 1.045e+04 3.766e-10
 35.98685      8.7 1.048e+04 3.760e-10
 36.02648     10.2 1.051e+04 3.971e-10
 36.04893     11.1 1.055e+04 4.269e-10
 36.05874     10.9 1.056e+04 4.244e-10
 36.06982     11.7 1.062e+04 4.685e-10
 36.07973     11.4 1.055e+04 4.573e-10
 36.09563     12.4 1.062e+04 5.115e-10
 36.11544     13.5 1.073e+04 5.615e-10
 36.13525     14.4 1.075e+04 5.788e-10
 36.15507     15.3 1.073e+04 5.758e-10
 36.17488     16.3 1.067e+04 5.461e-10
 36.19470     16.9 1.063e+04 5.236e-10
 36.21734     18.4 1.047e+04 4.260e-10
 36.23725     18.2 1.039e+04 4.266e-10
 36.26424     20.2 1.030e+04 3.785e-10
 36.30386     22.1 1.021e+04 3.358e-10
 36.34349     24.0 1.021e+04 3.314e-10
 36.38126     25.8 1.039e+04 3.657e-10
 36.40108     25.6 1.031e+04 3.110e-10
 36.42275     27.1 1.068e+04 4.230e-10
 36.46237     28.5 1.103e+04 6.010e-10
 36.50200     30.3 1.140e+04 8.138e-10
 36.53210     31.8 1.162e+04 9.118e-10
 36.55191     31.6 1.171e+04 9.822e-10
 36.58125     33.0 1.169e+04 9.532e-10
 36.62088     34.6 1.150e+04 8.231e-10
 36.66051     36.2 1.122e+04 6.449e-10
 36.70013     37.7 1.094e+04 5.056e-10
 36.73331     39.4 1.073e+04 4.528e-10
 36.75312     39.0 1.087e+04 5.082e-10
 36.77939     40.9 1.084e+04 5.052e-10
 36.81901     42.8 1.087e+04 5.207e-10
 36.84675     44.7 1.097e+04 5.692e-10
 36.86657     44.0 1.138e+04 7.888e-10
 36.89827     45.6 1.139e+04 8.097e-10
 36.93790     47.4 1.128e+04 7.631e-10
 36.97752     49.2 1.105e+04 6.482e-10
 37.01715     51.1 1.076e+04 5.218e-10
 37.05678     52.9 1.037e+04 3.798e-10
 37.08536     54.8 9.963e+03 2.640e-10
 37.10517     54.6 1.005e+04 2.943e-10
 37.13603     56.4 9.720e+03 2.204e-10
 37.16141     58.4 9.480e+03 1.758e-10
 37.18122     57.7 9.244e+03 1.228e-10
 37.21528     59.8 9.163e+03 1.097e-10
 37.25491     62.0 9.120e+03 1.025e-10
 37.29454     64.1 9.089e+03 9.785e-11
 37.33416     66.2 9.069e+03 9.443e-11
 37.37379     68.2 9.069e+03 9.357e-11
 37.41342     70.1 9.083e+03 9.560e-11
 37.43741     71.9 9.118e+03 1.034e-10
 37.45722     71.9 9.223e+03 1.199e-10
 37.47606     73.7 9.255e+03 1.330e-10
 37.49588     73.0 9.234e+03 1.271e-10
 37.53230     74.7 9.294e+03 1.529e-10
 37.57193     76.6 9.428e+03 1.904e-10
 37.61155     78.5 9.672e+03 2.452e-10
 37.65118     80.0 9.975e+03 3.190e-10
 37.69081     81.2 1.030e+04 4.095e-10
 37.73043     81.5 1.077e+04 5.537e-10
 37.76964     81.2 1.120e+04 7.079e-10
 37.78936     81.2 1.179e+04 8.293e-10
 37.79053     80.3 1.223e+04 1.031e-09
 37.80043     80.5 1.202e+04 9.178e-10
 37.81940     79.3 1.232e+04 1.149e-09
 37.83921     78.1 1.267e+04 1.450e-09
 37.85903     77.0 1.288e+04 1.702e-09
 37.87884     76.4 1.288e+04 1.723e-09
 37.89865     75.9 1.278e+04 1.608e-09
 37.91847     75.6 1.258e+04 1.334e-09
 37.93795     75.0 1.224e+04 1.060e-09
 37.94785     75.3 1.275e+04 1.449e-09
 37.96810     73.7 1.222e+04 9.311e-10
 38.00782     72.3 1.217e+04 7.879e-10
 38.03745     69.4 1.303e+04 1.123e-09
 38.05716     66.9 1.387e+04 1.863e-09
 38.07697     65.1 1.463e+04 3.167e-09
 38.09528     63.9 1.534e+04 4.803e-09
 38.10518     63.6 1.586e+04 5.947e-09
 38.11660     62.2 1.646e+04 7.129e-09
 38.13135     60.5 1.663e+04 6.513e-09
 38.14126     58.4 1.620e+04 5.314e-09
 38.15623     55.5 1.628e+04 4.437e-09
 38.17604     51.7 1.596e+04 3.613e-09
 38.19586     47.1 1.525e+04 2.891e-09
 38.21567     42.7 1.434e+04 2.236e-09
 38.23548     39.2 1.339e+04 1.651e-09
 38.25260     36.7 1.251e+04 1.173e-09
 38.26251     36.8 1.235e+04 1.086e-09
 38.27511     35.1 1.172e+04 7.709e-10
 38.29492     33.8 1.130e+04 5.389e-10
 38.30743     32.3 1.104e+04 3.631e-10
 38.31733     31.7 1.088e+04 2.885e-10
 38.33455     31.1 1.075e+04 2.555e-10
 38.36437     30.4 1.060e+04 2.381e-10
 38.40022     30.7 1.031e+04 2.240e-10
 38.42003     31.9 1.030e+04 2.232e-10
 38.44372     32.7 1.026e+04 2.262e-10
 38.47374     33.7 1.032e+04 2.534e-10
 38.49355     33.9 1.015e+04 2.304e-10
 38.52297     34.7 1.036e+04 2.974e-10
 38.56260     35.4 1.048e+04 3.589e-10
 38.60223     36.0 1.047e+04 3.631e-10
 38.64185     36.7 1.032e+04 3.341e-10
 38.68148     37.7 9.966e+03 2.582e-10
 38.71488     38.7 9.608e+03 1.823e-10
 38.73469     39.3 9.642e+03 1.914e-10
 38.76073     40.2 9.320e+03 1.356e-10
 38.80036     41.3 9.243e+03 1.268e-10
 38.82579     42.7 9.257e+03 1.288e-10
 38.84560     42.8 9.216e+03 1.203e-10
 38.87962     44.2 9.296e+03 1.360e-10
 38.91924     45.8 9.530e+03 1.690e-10
 38.95887     47.4 9.902e+03 2.275e-10
 38.99850     48.4 1.039e+04 3.287e-10
 39.02812     48.2 1.077e+04 4.633e-10
 39.03925     48.2 1.118e+04 6.552e-10
 39.04915     48.6 1.121e+04 7.028e-10
 39.06765     48.5 1.182e+04 1.044e-09
 39.08746     48.3 1.252e+04 1.549e-09
 39.10727     48.3 1.315e+04 2.178e-09
 39.12709     48.3 1.345e+04 2.493e-09
 39.14690     48.3 1.341e+04 2.452e-09
 39.16672     48.4 1.315e+04 2.172e-09
 39.17764     48.8 1.263e+04 1.660e-09
 39.18755     48.8 1.226e+04 1.369e-09
 39.19657     49.1 1.159e+04 9.254e-10
 39.20648     49.7 1.176e+04 9.835e-10
 39.22616     49.6 1.106e+04 5.877e-10
 39.24597     48.9 1.056e+04 3.808e-10
 39.26578     48.5 1.017e+04 2.918e-10
 39.28560     48.5 1.002e+04 2.749e-10
 39.31541     49.4 9.873e+03 2.639e-10
 39.34419     51.2 9.897e+03 2.782e-10
 39.36400     51.5 9.998e+03 3.050e-10
 39.38476     53.1 9.961e+03 3.089e-10
 39.40448     53.6 1.003e+04 3.309e-10
 39.42429     54.6 1.012e+04 3.766e-10
 39.44410     55.3 1.023e+04 4.278e-10
 39.46392     56.2 1.038e+04 4.978e-10
 39.48373     57.2 1.052e+04 5.597e-10
 39.50132     58.2 1.063e+04 5.972e-10
 39.51123     58.3 1.076e+04 6.513e-10
 39.51978     59.0 1.083e+04 6.676e-10
 39.52969     59.0 1.065e+04 5.825e-10
 39.54317     59.6 1.077e+04 6.208e-10
 39.56298     60.0 1.090e+04 6.646e-10
 39.58280     60.3 1.106e+04 7.327e-10
 39.60261     60.6 1.128e+04 8.424e-10
 39.62242     60.8 1.154e+04 1.001e-09
 39.64224     61.2 1.180e+04 1.191e-09
 39.65865     61.7 1.200e+04 1.375e-09
 39.66856     61.4 1.215e+04 1.508e-09
 39.68187     61.9 1.222e+04 1.571e-09
 39.69581     62.5 1.220e+04 1.558e-09
 39.70572     62.4 1.238e+04 1.666e-09
 39.72149     62.9 1.226e+04 1.576e-09
 39.74131     63.4 1.200e+04 1.432e-09
 39.76112     64.1 1.168e+04 1.245e-09
 39.78093     64.8 1.135e+04 1.063e-09
 39.80075     65.6 1.106e+04 9.090e-10
 39.81598     66.4 1.082e+04 7.880e-10
 39.82589     66.6 1.054e+04 6.661e-10
 39.84037     67.3 1.036e+04 5.770e-10
 39.86019     68.2 1.019e+04 5.050e-10
 39.87183     69.1 1.008e+04 4.615e-10
 39.88174     68.6 9.784e+03 3.615e-10
 39.89981     69.8 9.680e+03 3.388e-10
 39.91963     70.6 9.639e+03 3.297e-10
 39.93944     72.0 9.576e+03 3.199e-10
 39.95925     72.9 9.565e+03 3.172e-10
 39.97331     74.2 9.558e+03 3.180e-10
 39.98322     73.7 9.415e+03 2.769e-10
 39.99888     74.8 9.427e+03 2.790e-10
 40.01869     75.3 9.501e+03 2.951e-10
 40.03795     75.0 9.722e+03 3.527e-10
 40.04786     74.2 9.686e+03 3.672e-10
 40.05832     73.2 1.033e+04 5.597e-10
 40.07813     71.9 1.149e+04 1.014e-09
 40.09795     70.1 1.285e+04 1.776e-09
 40.11276     69.1 1.318e+04 2.112e-09
 40.12262     68.6 1.330e+04 2.232e-09
 40.13054     67.5 1.404e+04 2.630e-09
 40.13379     68.3 1.334e+04 2.247e-09
 40.13577     68.3 1.319e+04 2.181e-09
 40.14243     67.4 1.375e+04 2.423e-09
 40.15234     63.3 1.729e+04 3.599e-09
 40.16224     55.3 2.406e+04 9.084e-09
 40.17215     48.5 2.605e+04 2.275e-08
 40.18206     44.7 2.410e+04 3.862e-08
 40.19196     42.9 2.277e+04 4.206e-08
 40.20187     42.0 2.184e+04 3.943e-08
 40.20920     40.6 2.252e+04 3.166e-08
 40.21416     41.9 2.216e+04 3.649e-08
 40.21883     40.2 2.329e+04 2.882e-08
 40.22378     40.3 2.270e+04 3.228e-08
 40.23159     37.5 2.560e+04 2.475e-08
 40.24150     34.4 2.880e+04 1.547e-08
 40.25641     25.3 3.147e+04 6.300e-09
 40.27627      9.5 2.139e+04 2.305e-09
 40.28797      1.2 1.284e+04 1.791e-09
 40.29787      5.0 1.518e+04 1.922e-09
 40.31590     -0.4 1.256e+04 1.282e-09
 40.33571     -3.6 1.208e+04 8.877e-10
 40.35552     -7.6 1.125e+04 6.227e-10
 40.37534    -10.8 1.057e+04 5.168e-10
 40.39000    -12.6 1.047e+04 5.101e-10
 40.39991    -13.2 1.046e+04 5.032e-10
 40.41496    -15.2 1.063e+04 5.318e-10
 40.43478    -17.0 1.074e+04 5.878e-10
 40.44529    -18.2 1.068e+04 6.721e-10
 40.45520    -17.1 1.066e+04 6.232e-10
 40.47440    -18.6 1.090e+04 7.164e-10
 40.49422    -21.9 1.206e+04 9.409e-10
 40.51403    -25.5 1.303e+04 1.252e-09
 40.53384    -28.1 1.241e+04 1.489e-09
 40.55366    -28.8 1.170e+04 1.492e-09
 40.56602    -28.8 1.174e+04 1.140e-09
 40.57593    -28.8 1.169e+04 1.045e-09
 40.59271    -31.0 1.233e+04 6.060e-10
 40.60262    -29.7 1.267e+04 8.283e-10
 40.61310    -35.2 1.144e+04 4.170e-10
 40.63291    -39.4 9.648e+03 2.532e-10
 40.66273    -40.3 9.483e+03 2.225e-10
 40.70245    -41.4 9.115e+03 1.421e-10
 40.74208    -42.7 8.902e+03 9.530e-11
 40.78171    -44.1 8.776e+03 8.697e-11
 40.82134    -45.2 9.018e+03 1.012e-10
 40.86096    -46.2 9.232e+03 1.534e-10
 40.89766    -46.5 9.533e+03 2.237e-10
 40.91534    -46.2 9.427e+03 1.840e-10
 40.91827    -47.1 9.581e+03 2.132e-10
 40.94022    -47.4 9.710e+03 2.465e-10
 40.97984    -47.7 9.735e+03 2.572e-10
 41.01947    -47.6 9.658e+03 2.324e-10
 41.05910    -47.4 9.527e+03 1.681e-10
 41.09872    -47.4 9.375e+03 1.098e-10
 41.13835    -47.5 9.227e+03 8.251e-11
 41.17798    -47.2 9.138e+03 7.519e-11
 41.21232    -46.2 9.121e+03 7.319e-11
 41.23213    -46.0 9.173e+03 7.622e-11
 41.25050    -45.0 9.213e+03 8.102e-11
 41.27032    -45.4 9.493e+03 8.832e-11
 41.29686    -44.3 9.583e+03 8.877e-11
 41.33649    -43.3 9.765e+03 8.159e-11
 41.37611    -42.7 9.949e+03 7.414e-11
 41.41574    -42.2 9.984e+03 7.296e-11
 41.45537    -41.8 9.972e+03 8.063e-11
 41.49499    -41.4 9.838e+03 9.915e-11
 41.52697    -40.5 9.758e+03 1.275e-10
 41.54679    -40.4 1.001e+04 1.805e-10
 41.57425    -39.1 9.986e+03 1.928e-10
 41.60255    -37.3 9.896e+03 1.845e-10
 41.62237    -37.7 9.862e+03 1.476e-10
 41.65350    -35.8 9.843e+03 1.085e-10
 41.69313    -34.7 9.815e+03 7.972e-11
 41.73275    -33.8 9.770e+03 7.228e-11
 41.77238    -32.9 9.966e+03 8.180e-11
 41.81201    -31.9 9.893e+03 1.318e-10
 41.84163    -29.8 1.011e+04 2.107e-10
 41.86144    -30.1 1.041e+04 2.619e-10
 41.89126    -27.9 1.077e+04 3.558e-10
 41.93089    -25.9 1.079e+04 4.076e-10
 41.95460    -24.0 1.091e+04 3.807e-10
 41.97441    -24.7 1.142e+04 5.474e-10
 42.01014    -23.5 1.217e+04 6.358e-10
 42.03977    -23.1 1.233e+04 7.156e-10
 42.05948    -23.5 1.317e+04 9.254e-10
 42.07929    -22.8 1.318e+04 1.016e-09
 42.09911    -25.2 1.590e+04 1.829e-09
 42.11892    -29.1 2.025e+04 4.307e-09
 42.13043    -31.3 2.135e+04 1.081e-08
 42.13533    -33.5 2.098e+04 3.492e-08
 42.14359    -32.5 2.074e+04 6.609e-08
 42.15350    -30.7 2.088e+04 1.097e-07
 42.16095    -30.1 2.118e+04 1.176e-07
 42.16590    -30.0 2.132e+04 1.660e-07
 42.17331    -30.0 2.220e+04 1.127e-07
 42.18322    -31.1 2.283e+04 7.743e-08
 42.19312    -32.2 2.298e+04 4.962e-08
 42.20303    -33.4 2.258e+04 3.455e-08
 42.21294    -34.8 2.222e+04 2.432e-08
 42.21834    -36.7 2.125e+04 1.726e-08
 42.22330    -37.9 2.133e+04 1.773e-08
 42.23775    -40.6 1.923e+04 1.086e-08
 42.25762    -43.2 1.788e+04 6.351e-09
 42.27743    -45.8 1.725e+04 4.506e-09
 42.29655    -48.8 1.645e+04 3.604e-09
 42.30645    -50.8 1.603e+04 3.265e-09
 42.31342    -53.1 1.468e+04 2.702e-09
 42.32333    -55.1 1.374e+04 2.079e-09
 42.33687    -55.6 1.366e+04 2.052e-09
 42.35668    -56.3 1.369e+04 1.903e-09
 42.37650    -57.6 1.351e+04 1.670e-09
 42.39631    -59.1 1.308e+04 1.462e-09
 42.41612    -60.3 1.258e+04 1.322e-09
 42.43594    -61.0 1.221e+04 1.249e-09
 42.45575    -61.3 1.202e+04 1.202e-09
 42.47075    -61.3 1.192e+04 1.117e-09
 42.47766    -62.0 1.165e+04 9.153e-10
 42.48248    -62.0 1.105e+04 6.605e-10
 42.49538    -61.9 1.095e+04 6.033e-10
 42.51519    -61.8 1.082e+04 5.485e-10
 42.53500    -61.6 1.066e+04 5.021e-10
 42.55482    -61.2 1.050e+04 4.509e-10
 42.57463    -60.8 1.044e+04 4.219e-10
 42.60445    -60.5 1.049e+04 3.949e-10
 42.63888    -59.9 1.041e+04 3.459e-10
 42.65870    -59.3 1.015e+04 3.018e-10
 42.68380    -58.1 9.827e+03 2.529e-10
 42.72343    -56.8 9.560e+03 2.044e-10
 42.76305    -55.5 9.438e+03 1.688e-10
 42.78560    -54.2 9.364e+03 1.477e-10
 42.80541    -55.1 9.331e+03 1.589e-10
 42.84231    -53.6 9.231e+03 1.530e-10
 42.88194    -52.0 9.198e+03 1.494e-10
 42.92156    -50.5 9.248e+03 1.521e-10
 42.96119    -49.6 9.407e+03 1.677e-10
 42.99093    -49.4 9.734e+03 2.285e-10
 43.01075    -49.6 1.008e+04 2.864e-10
 43.04044    -49.2 1.056e+04 5.065e-10
 43.08007    -48.2 1.099e+04 7.260e-10
 43.10026    -47.5 1.115e+04 7.995e-10
 43.12007    -48.7 1.091e+04 7.236e-10
 43.15932    -48.0 1.035e+04 4.536e-10
 43.19895    -47.6 9.768e+03 2.951e-10
 43.23858    -46.6 9.470e+03 2.329e-10
 43.27821    -45.5 9.249e+03 2.034e-10
 43.31783    -44.7 9.100e+03 1.902e-10
 43.34298    -43.7 9.047e+03 1.987e-10
 43.36280    -44.1 9.049e+03 1.986e-10
 43.39510    -43.3 9.003e+03 1.974e-10
 43.41491    -44.5 9.110e+03 2.138e-10
 43.43671    -44.1 9.276e+03 2.264e-10
 43.47634    -44.2 9.544e+03 2.497e-10
 43.51597    -44.2 9.864e+03 3.214e-10
 43.55559    -43.9 1.017e+04 4.311e-10
 43.59522    -43.5 1.035e+04 5.390e-10
 43.63485    -43.1 1.048e+04 6.186e-10
 43.67447    -43.1 1.051e+04 6.528e-10
 43.69503    -42.9 1.045e+04 6.619e-10
 43.71050    -43.7 1.064e+04 7.716e-10
 43.72957    -45.5 1.057e+04 7.338e-10
 43.75373    -45.5 1.063e+04 7.045e-10
 43.78335    -45.0 1.057e+04 6.610e-10
 43.80307    -45.9 1.077e+04 7.105e-10
 43.82288    -46.7 1.092e+04 8.032e-10
 43.84269    -47.2 1.109e+04 9.037e-10
 43.86095    -47.6 1.124e+04 9.899e-10
 43.87086    -48.4 1.183e+04 1.309e-09
 43.87680    -48.5 1.188e+04 1.414e-09
 43.88670    -49.0 1.154e+04 1.205e-09
 43.90213    -49.1 1.118e+04 1.027e-09
 43.92195    -48.8 1.089e+04 8.609e-10
 43.94176    -49.1 1.032e+04 6.485e-10
 43.96157    -48.7 1.000e+04 5.211e-10
 43.98139    -48.8 9.521e+03 3.836e-10
 44.00120    -48.8 9.362e+03 3.495e-10
 44.02431    -47.9 9.171e+03 2.935e-10
 44.04037    -48.9 8.871e+03 2.567e-10
 44.04708    -49.8 9.098e+03 2.798e-10
 44.07074    -49.0 8.885e+03 2.544e-10
 44.11037    -47.7 8.707e+03 2.327e-10
 44.15000    -46.0 8.527e+03 1.951e-10
 44.18962    -44.3 8.333e+03 1.517e-10
 44.22925    -42.9 8.181e+03 1.188e-10
 44.26888    -41.6 8.121e+03 1.037e-10
 44.30851    -40.2 8.159e+03 1.126e-10
 44.33907    -39.2 8.376e+03 1.520e-10
 44.35888    -39.4 8.362e+03 1.507e-10
 44.37931    -38.1 8.863e+03 2.335e-10
 44.39913    -38.5 9.020e+03 2.621e-10
 44.42739    -37.4 9.681e+03 4.304e-10
 44.46701    -36.7 1.033e+04 6.387e-10
 44.50664    -36.0 1.073e+04 8.251e-10
 44.54627    -35.8 1.095e+04 8.175e-10
 44.57589    -36.2 1.093e+04 7.648e-10
 44.59561    -36.5 1.065e+04 6.663e-10
 44.61542    -36.6 1.042e+04 6.092e-10
 44.63523    -36.6 1.039e+04 5.502e-10
 44.65353    -36.9 1.049e+04 5.210e-10
 44.66344    -37.3 1.049e+04 4.883e-10
 44.67486    -38.1 1.062e+04 4.901e-10
 44.69467    -38.8 1.056e+04 5.682e-10
 44.71449    -39.3 1.079e+04 6.104e-10
 44.73117    -39.2 1.074e+04 7.246e-10
 44.74107    -39.0 1.084e+04 7.535e-10
 44.75411    -38.6 1.087e+04 8.010e-10
 44.77393    -38.3 1.090e+04 7.841e-10
 44.79374    -37.9 1.078e+04 7.244e-10
 44.81086    -37.8 1.081e+04 5.629e-10
 44.82076    -37.8 1.079e+04 5.292e-10
 44.83337    -38.2 1.060e+04 4.523e-10
 44.85318    -38.7 1.043e+04 3.782e-10
 44.87299    -39.1 1.027e+04 3.595e-10
 44.89281    -39.0 1.023e+04 3.564e-10
 44.90719    -38.9 1.036e+04 3.737e-10
 44.91710    -38.6 1.036e+04 3.629e-10
 44.93243    -38.6 1.047e+04 4.201e-10
 44.95225    -38.9 1.083e+04 4.767e-10
 44.96819    -39.0 1.107e+04 6.285e-10
 44.97809    -39.1 1.129e+04 7.217e-10
 44.99187    -39.3 1.182e+04 8.868e-10
 45.01169    -39.7 1.226e+04 1.169e-09
 45.03150    -40.6 1.283e+04 1.429e-09
 45.05132    -41.6 1.326e+04 1.806e-09
 45.07113    -42.4 1.345e+04 2.129e-09
 45.08322    -42.7 1.338e+04 2.290e-09
 45.09312    -42.9 1.398e+04 3.136e-09
 45.11076    -42.8 1.400e+04 3.116e-09
 45.12551    -42.7 1.385e+04 2.203e-09
 45.13542    -42.7 1.418e+04 2.839e-09
 45.15038    -43.8 1.376e+04 1.753e-09
 45.18020    -46.2 1.267e+04 1.071e-09
 45.21992    -48.5 1.122e+04 6.651e-10
 45.25955    -48.9 1.076e+04 5.205e-10
 45.28304    -47.9 1.040e+04 4.650e-10
 45.30285    -47.9 1.039e+04 4.532e-10
 45.33881    -46.2 1.022e+04 4.238e-10
 45.37843    -44.3 1.012e+04 4.030e-10
 45.41565    -42.2 1.007e+04 3.941e-10
 45.43546    -42.8 1.022e+04 4.241e-10
 45.45769    -40.4 1.025e+04 4.423e-10
 45.49731    -38.0 1.022e+04 4.696e-10
 45.53694    -35.5 1.045e+04 5.520e-10
 45.56656    -33.3 1.094e+04 7.840e-10
 45.58628    -33.1 1.111e+04 8.253e-10
 45.59750    -33.2 1.169e+04 1.080e-09
 45.60270    -32.8 1.159e+04 1.058e-09
 45.61129    -32.5 1.171e+04 1.087e-09
 45.62591    -32.6 1.249e+04 1.642e-09
 45.64572    -32.9 1.365e+04 2.609e-09
 45.66553    -33.4 1.466e+04 4.022e-09
 45.68535    -33.7 1.559e+04 5.989e-09
 45.70516    -34.2 1.676e+04 7.904e-09
 45.72497    -35.2 1.746e+04 9.138e-09
 45.74479    -36.3 1.716e+04 8.777e-09
 45.75483    -37.0 1.612e+04 7.101e-09
 45.76473    -36.5 1.667e+04 8.020e-09
 45.77741    -37.0 1.556e+04 6.081e-09
 45.78731    -37.6 1.576e+04 6.302e-09
 45.80423    -37.8 1.453e+04 4.347e-09
 45.82404    -38.0 1.350e+04 2.875e-09
 45.84385    -38.3 1.261e+04 1.850e-09
 45.86367    -39.3 1.175e+04 1.174e-09
 45.89244    -41.5 1.088e+04 7.668e-10
 45.91225    -40.7 1.144e+04 1.039e-09
 45.92311    -42.0 1.130e+04 1.022e-09
 45.94292    -43.5 1.142e+04 1.147e-09
 45.95343    -44.8 1.181e+04 1.444e-09
 45.96334    -46.2 1.191e+04 1.508e-09
 45.98255    -47.3 1.230e+04 1.877e-09
 46.00236    -47.1 1.286e+04 2.334e-09
 46.02217    -46.4 1.315e+04 2.617e-09
 46.04199    -46.2 1.313e+04 2.301e-09
 46.05958    -47.2 1.278e+04 1.837e-09
 46.06948    -47.7 1.283e+04 1.781e-09
 46.09162    -48.4 1.198e+04 1.343e-09
 46.11974    -47.8 1.156e+04 1.191e-09
 46.13956    -50.2 1.139e+04 1.091e-09
 46.17097    -49.6 1.119e+04 9.567e-10
 46.20059    -49.4 1.111e+04 8.657e-10
 46.21691    -49.7 1.097e+04 7.571e-10
 46.22681    -51.0 1.109e+04 8.613e-10
 46.24012    -50.5 1.084e+04 7.703e-10
 46.25994    -50.2 1.060e+04 6.530e-10
 46.27975    -50.4 1.042e+04 5.460e-10
 46.29557    -51.6 1.058e+04 4.871e-10
 46.30548    -52.8 1.046e+04 4.665e-10
 46.31938    -58.8 1.600e+04 4.012e-10
 46.33919    -68.1 2.447e+04 7.126e-10
 46.35900    -74.3 2.217e+04 2.854e-09
 46.37423    -77.6 2.027e+04 6.815e-09
 46.38414    -81.7 1.978e+04 1.206e-08
 46.39863    -83.0 1.945e+04 1.173e-08
 46.41844    -84.1 1.887e+04 1.022e-08
 46.43826    -85.7 1.798e+04 6.716e-09
 46.45807    -88.4 1.623e+04 3.377e-09
 46.47160    -91.4 1.353e+04 1.682e-09
 46.48150    -92.4 1.276e+04 1.285e-09
 46.49770    -93.7 1.134e+04 9.428e-10
 46.51751    -93.3 1.092e+04 8.529e-10
 46.53156    -92.2 1.079e+04 8.212e-10
 46.54147    -92.7 1.071e+04 8.025e-10
 46.55714    -91.5 1.068e+04 7.976e-10
 46.57695    -90.4 1.079e+04 8.167e-10
 46.59677    -89.5 1.100e+04 8.768e-10
 46.61658    -88.7 1.119e+04 9.471e-10
 46.63639    -87.7 1.135e+04 1.018e-09
 46.64762    -86.6 1.156e+04 1.115e-09
 46.65753    -87.0 1.147e+04 1.072e-09
 46.67602    -86.0 1.175e+04 1.216e-09
 46.68889    -85.0 1.200e+04 1.349e-09
 46.69880    -85.6 1.184e+04 1.253e-09
 46.71565    -84.5 1.206e+04 1.351e-09
 46.73546    -83.7 1.230e+04 1.460e-09
 46.75527    -83.0 1.261e+04 1.600e-09
 46.77509    -82.7 1.307e+04 1.823e-09
 46.79490    -82.8 1.365e+04 2.153e-09
 46.81374    -83.2 1.437e+04 2.698e-09
 46.82365    -83.1 1.486e+04 3.108e-09
 46.83453    -84.0 1.583e+04 4.358e-09
 46.84622    -84.7 1.658e+04 6.124e-09
 46.85613    -86.0 1.588e+04 5.374e-09
 46.87415    -85.9 1.638e+04 6.785e-09
 46.89397    -85.6 1.668e+04 7.446e-09
 46.91378    -85.6 1.666e+04 7.226e-09
 46.93359    -85.3 1.598e+04 5.339e-09
 46.95341    -85.9 1.479e+04 3.321e-09
 46.97322    -87.6 1.337e+04 2.049e-09
 46.98976    -89.1 1.223e+04 1.424e-09
 46.99967    -88.6 1.266e+04 1.567e-09
 47.00355    -90.1 1.194e+04 1.216e-09
 47.01345    -91.3 1.169e+04 1.151e-09
 47.03266    -92.2 1.150e+04 1.048e-09
 47.05248    -93.0 1.145e+04 1.021e-09
 47.07229    -93.7 1.142e+04 1.035e-09
 47.09210    -94.1 1.143e+04 1.227e-09
 47.11192    -94.0 1.177e+04 1.436e-09
 47.13173    -93.8 1.203e+04 1.576e-09
 47.15097    -93.8 1.224e+04 1.642e-09
 47.16088    -94.0 1.178e+04 1.324e-09
 47.16579    -94.1 1.182e+04 1.333e-09
 47.17569    -94.8 1.213e+04 1.541e-09
 47.19117    -95.0 1.204e+04 1.468e-09
 47.21098    -95.2 1.186e+04 1.363e-09
 47.23080    -95.4 1.160e+04 1.223e-09
 47.25061    -95.5 1.128e+04 1.053e-09
 47.27042    -95.5 1.093e+04 8.843e-10
 47.29024    -95.6 1.060e+04 7.190e-10
 47.30830    -95.8 1.032e+04 5.857e-10
 47.31820    -95.5 1.029e+04 5.739e-10
 47.32986    -96.0 1.014e+04 5.022e-10
 47.34181    -96.7 1.006e+04 4.656e-10
 47.35172    -97.1 9.807e+03 4.150e-10
 47.36949    -97.7 9.788e+03 4.012e-10
 47.38930    -98.2 9.954e+03 4.112e-10
 47.40912    -98.7 1.014e+04 4.541e-10
 47.42893    -99.1 1.031e+04 5.110e-10
 47.44874    -99.2 1.046e+04 5.687e-10
 47.46563    -99.2 1.063e+04 6.119e-10
 47.47553    -99.0 1.166e+04 1.074e-09
 47.48837    -99.8 1.249e+04 1.244e-09
 47.50793   -105.8 1.679e+04 2.286e-09
 47.51784   -104.7 1.495e+04 1.228e-09
 47.52800   -112.1 1.814e+04 3.861e-09
 47.54781   -116.6 1.900e+04 9.140e-09
 47.56763   -119.4 2.011e+04 1.346e-08
 47.58744   -123.0 2.086e+04 1.393e-08
 47.60725   -127.8 2.068e+04 1.001e-08
 47.62295   -134.7 1.809e+04 4.975e-09
 47.63286   -133.6 2.053e+04 7.032e-09
 47.64688   -141.0 1.581e+04 3.428e-09
 47.66669   -144.6 1.314e+04 2.014e-09
 47.68395   -145.4 1.257e+04 1.707e-09
 47.69386   -143.8 1.236e+04 1.545e-09
 47.70632   -144.1 1.218e+04 1.455e-09
 47.72613   -144.4 1.211e+04 1.433e-09
 47.74595   -144.6 1.208e+04 1.444e-09
 47.76576   -144.7 1.216e+04 1.595e-09
 47.78028   -144.6 1.239e+04 1.841e-09
 47.79019   -144.1 1.249e+04 1.948e-09
 47.80539   -143.7 1.274e+04 2.169e-09
 47.82520   -143.2 1.298e+04 2.342e-09
 47.84501   -143.0 1.312e+04 2.408e-09
 47.85998   -142.9 1.314e+04 2.418e-09
 47.86989   -142.5 1.296e+04 2.376e-09
 47.88464   -142.4 1.289e+04 2.274e-09
 47.90445   -142.2 1.255e+04 1.949e-09
 47.92427   -142.2 1.211e+04 1.607e-09
 47.93761   -142.3 1.165e+04 1.316e-09
 47.94752   -141.5 1.190e+04 1.457e-09
 47.96389   -141.4 1.143e+04 1.206e-09
 47.98371   -141.1 1.102e+04 1.019e-09
 48.00352   -140.7 1.072e+04 8.984e-10
 48.02334   -140.2 1.061e+04 8.456e-10
 48.03600   -139.8 1.060e+04 8.348e-10
 48.04591   -139.5 1.044e+04 7.683e-10
 48.06296   -139.3 1.046e+04 7.677e-10
 48.08278   -139.4 1.058e+04 7.840e-10
 48.09504   -139.6 1.080e+04 8.302e-10
 48.10494   -138.4 1.101e+04 9.271e-10
 48.12240   -138.3 1.118e+04 9.840e-10
 48.14222   -137.8 1.158e+04 1.162e-09
 48.16203   -137.6 1.173e+04 1.246e-09
 48.18184   -137.1 1.216e+04 1.548e-09
 48.20166   -136.5 1.256e+04 1.873e-09
 48.21203   -135.9 1.303e+04 2.258e-09
 48.22193   -135.6 1.295e+04 2.163e-09
 48.24128   -135.6 1.372e+04 2.775e-09
 48.25227   -135.7 1.455e+04 3.557e-09
 48.26217   -135.1 1.450e+04 3.614e-09
 48.28091   -135.4 1.520e+04 4.313e-09
 48.30072   -135.9 1.583e+04 5.063e-09
 48.32054   -136.4 1.631e+04 5.857e-09
 48.34035   -136.8 1.662e+04 6.592e-09
 48.36016   -137.2 1.675e+04 7.201e-09
 48.37814   -137.7 1.711e+04 7.709e-09
 48.38805   -136.6 1.712e+04 7.929e-09
 48.39969   -137.5 1.753e+04 8.229e-09
 48.40960   -137.6 1.793e+04 8.952e-09
 48.41960   -139.3 1.918e+04 1.121e-08
 48.43442   -140.4 2.017e+04 1.345e-08
 48.44427   -142.0 2.123e+04 1.678e-08
 48.45418   -144.2 2.222e+04 2.565e-08
 48.46409   -146.0 2.259e+04 3.900e-08
 48.47101   -147.1 2.270e+04 5.560e-08
 48.47597   -146.3 2.218e+04 3.025e-08
 48.48321   -147.3 2.230e+04 3.976e-08
 48.48816   -147.3 2.259e+04 6.438e-08
 48.49381   -147.7 2.257e+04 7.510e-08
 48.50371   -147.8 2.262e+04 7.873e-08
 48.51362   -147.9 2.272e+04 6.754e-08
 48.52353   -148.5 2.270e+04 4.560e-08
 48.53343   -149.7 2.229e+04 3.045e-08
 48.54334   -151.1 2.136e+04 2.002e-08
 48.55412   -152.7 1.985e+04 1.217e-08
 48.56274   -151.4 1.991e+04 1.351e-08
 48.56683   -151.7 2.001e+04 1.362e-08
 48.57806   -151.9 1.959e+04 1.124e-08
 48.59793   -152.8 1.860e+04 7.091e-09
 48.61774   -155.3 1.719e+04 4.258e-09
 48.63755   -157.8 1.658e+04 3.600e-09
 48.65737   -159.8 1.643e+04 3.456e-09
 48.67718   -161.6 1.715e+04 4.133e-09
 48.69699   -163.1 1.820e+04 5.575e-09
 48.71434   -164.4 1.901e+04 7.391e-09
 48.72425   -165.5 1.980e+04 1.025e-08
 48.73019   -166.2 1.964e+04 1.029e-08
 48.74010   -163.7 1.906e+04 7.800e-09
 48.75643   -164.9 1.894e+04 8.121e-09
 48.77625   -165.6 1.877e+04 7.887e-09
 48.79106   -166.4 1.887e+04 8.427e-09
 48.79786   -167.1 1.919e+04 9.105e-09
 48.80282   -167.1 1.874e+04 8.301e-09
 48.81082   -167.8 1.882e+04 8.738e-09
 48.81811   -168.4 1.904e+04 9.483e-09
 48.82306   -167.0 1.852e+04 8.013e-09
 48.83064   -167.6 1.862e+04 8.662e-09
 48.84054   -168.0 1.888e+04 9.787e-09
 48.85045   -168.4 1.904e+04 1.115e-08
 48.86036   -168.6 1.919e+04 1.288e-08
 48.87026   -168.6 1.927e+04 1.493e-08
 48.87653   -168.4 1.933e+04 1.686e-08
 48.88148   -168.6 1.864e+04 1.168e-08
 48.89008   -168.5 1.862e+04 1.274e-08
 48.89998   -168.4 1.855e+04 1.330e-08
 48.90612   -168.2 1.856e+04 1.360e-08
 48.91107   -167.7 1.863e+04 1.332e-08
 48.91980   -167.4 1.844e+04 1.313e-08
 48.93471   -167.2 1.803e+04 1.129e-08
 48.95457   -166.6 1.789e+04 1.094e-08
 48.97438   -166.0 1.763e+04 9.917e-09
 48.99420   -165.4 1.724e+04 7.877e-09
 49.01401   -164.8 1.661e+04 6.389e-09
 49.02900   -164.3 1.621e+04 5.070e-09
 49.03891   -163.9 1.624e+04 5.865e-09
 49.05364   -163.4 1.600e+04 5.101e-09
 49.07234   -163.0 1.575e+04 4.360e-09
 49.08224   -162.1 1.637e+04 5.545e-09
 49.09326   -161.9 1.607e+04 4.683e-09
 49.11308   -161.7 1.584e+04 4.105e-09
 49.13289   -161.7 1.579e+04 3.924e-09
 49.15270   -161.6 1.582e+04 4.170e-09
 49.17252   -161.4 1.613e+04 4.856e-09
 49.18633   -161.0 1.646e+04 5.602e-09
 49.19624   -160.5 1.673e+04 6.425e-09
 49.21214   -160.2 1.698e+04 7.060e-09
 49.23196   -160.1 1.700e+04 7.158e-09
 49.24836   -160.3 1.668e+04 6.558e-09
 49.25827   -160.4 1.718e+04 6.974e-09
 49.27158   -160.9 1.663e+04 5.987e-09
 49.29140   -161.8 1.588e+04 5.155e-09
 49.31121   -162.7 1.548e+04 4.901e-09
 49.33102   -163.3 1.527e+04 4.733e-09
 49.34366   -163.6 1.506e+04 4.438e-09
 49.35356   -163.1 1.636e+04 4.566e-09
 49.37065   -163.4 1.615e+04 4.224e-09
 49.39046   -163.6 1.585e+04 3.892e-09
 49.41028   -164.1 1.567e+04 3.616e-09
 49.42438   -164.8 1.562e+04 3.509e-09
 49.43429   -165.5 1.803e+04 6.075e-09
 49.44990   -166.3 1.817e+04 6.663e-09
 49.46972   -167.0 1.846e+04 7.845e-09
 49.48953   -167.4 1.881e+04 9.313e-09
 49.50099   -168.0 1.897e+04 1.031e-08
 49.51089   -167.7 2.081e+04 1.501e-08
 49.52916   -168.8 2.060e+04 1.502e-08
 49.54897   -169.2 1.989e+04 1.346e-08
 49.56879   -169.3 1.913e+04 1.107e-08
 49.58860   -169.4 1.830e+04 8.742e-09
 49.60041   -169.5 1.736e+04 6.902e-09
 49.61032   -170.1 1.854e+04 8.924e-09
 49.62823   -170.2 1.775e+04 7.570e-09
 49.64804   -170.0 1.713e+04 6.847e-09
 49.65831   -169.6 1.685e+04 6.614e-09
 49.66822   -170.5 1.779e+04 7.651e-09
 49.68767   -170.5 1.749e+04 7.357e-09
 49.70748   -171.3 1.754e+04 7.430e-09
 49.72729   -172.8 1.824e+04 8.983e-09
 49.74711   -174.2 1.921e+04 1.270e-08
 49.76653   -175.0 1.995e+04 1.776e-08
 49.77643   -175.6 1.944e+04 1.502e-08
 49.78673   -176.2 1.981e+04 1.690e-08
 49.80155   -177.2 1.975e+04 1.638e-08
 49.81059   -177.8 1.983e+04 1.697e-08
 49.81555   -178.5 1.913e+04 1.388e-08
 49.82131   -179.0 1.911e+04 1.412e-08
 49.83122   -179.3 1.874e+04 1.286e-08
 49.84112   -179.6 1.835e+04 1.128e-08
 49.85103   -179.9 1.777e+04 9.600e-09
 49.85939   -180.1 1.727e+04 8.374e-09
 49.86435   -180.0 1.719e+04 8.551e-09
 49.87084   -180.1 1.676e+04 7.448e-09
 49.88575   -180.3 1.619e+04 6.083e-09
 49.90561   -179.9 1.568e+04 4.340e-09
 49.92543   -179.7 1.494e+04 2.686e-09
 49.94255   -179.7 1.390e+04 1.662e-09
 49.95246   -178.0 1.472e+04 2.405e-09
 49.96306   -178.1 1.369e+04 1.449e-09
 49.97297   -178.1 1.372e+04 1.582e-09
 49.98487   -178.2 1.260e+04 1.024e-09
 50.00468   -178.3 1.155e+04 8.063e-10
 50.02450   -177.6 1.121e+04 7.074e-10
 50.04431   -176.5 1.102e+04 6.346e-10
 50.06412   -175.1 1.088e+04 5.783e-10
 50.08394   -173.7 1.076e+04 5.209e-10
 50.10375   -172.1 1.066e+04 4.621e-10
 50.11857   -170.5 1.059e+04 4.133e-10
 50.12531   -170.5 1.061e+04 4.238e-10
 50.13030   -170.4 1.058e+04 3.998e-10
 50.14338   -169.3 1.058e+04 3.832e-10
 50.17319   -167.2 1.062e+04 3.705e-10
 50.21292   -165.0 1.060e+04 3.533e-10
 50.25255   -162.6 1.043e+04 3.272e-10
 50.27792   -159.8 1.025e+04 3.072e-10
 50.29044   -159.9 1.008e+04 2.595e-10
 50.30470   -159.6 1.009e+04 2.632e-10
 50.33180   -156.9 9.933e+03 2.369e-10
 50.37143   -154.2 9.848e+03 2.196e-10
 50.41105   -151.3 9.852e+03 2.125e-10
 50.45068   -148.1 9.990e+03 2.169e-10
 50.49031   -145.1 1.011e+04 2.230e-10
 50.52993   -142.3 1.023e+04 2.273e-10
 50.56956   -139.9 1.034e+04 2.319e-10
 50.59257   -137.9 1.047e+04 2.454e-10
 50.61239   -138.2 1.023e+04 2.059e-10
 50.63694   -136.0 1.047e+04 2.458e-10
 50.65675   -136.3 1.049e+04 2.661e-10
 50.68844   -134.1 1.070e+04 3.145e-10
 50.71806   -132.5 1.094e+04 3.920e-10
 50.73778   -132.3 1.102e+04 4.468e-10
 50.74971   -131.5 1.117e+04 5.522e-10
 50.75961   -130.4 1.097e+04 4.300e-10
 50.77741   -130.2 1.103e+04 4.735e-10
 50.79722   -129.4 1.115e+04 5.910e-10
 50.81277   -128.8 1.117e+04 6.625e-10
 50.82267   -128.6 1.112e+04 5.987e-10
 50.83685   -127.9 1.112e+04 6.622e-10
 50.85666   -127.0 1.110e+04 6.738e-10
 50.87647   -125.9 1.095e+04 6.421e-10
 50.89629   -124.6 1.072e+04 5.511e-10
 50.90703   -123.4 1.051e+04 4.608e-10
 50.91694   -123.1 1.043e+04 4.292e-10
 50.93591   -122.5 1.037e+04 4.041e-10
 50.96573   -121.1 1.019e+04 3.606e-10
 50.98898   -119.1 1.000e+04 3.226e-10
 51.00880   -119.2 9.921e+03 2.802e-10
 51.04508   -117.0 9.823e+03 2.679e-10
 51.08471   -114.8 9.842e+03 2.719e-10
 51.11433   -113.7 9.976e+03 3.014e-10
 51.13405   -113.8 1.001e+04 3.112e-10
 51.15386   -113.9 1.018e+04 3.788e-10
 51.16481   -114.3 1.031e+04 4.733e-10
 51.17472   -113.6 1.027e+04 4.353e-10
 51.19349   -113.7 1.049e+04 5.891e-10
 51.21178   -113.7 1.075e+04 7.679e-10
 51.22169   -113.5 1.069e+04 7.231e-10
 51.23312   -113.3 1.095e+04 9.106e-10
 51.25293   -113.0 1.120e+04 1.100e-09
 51.27274   -112.8 1.139e+04 1.237e-09
 51.29256   -112.8 1.150e+04 1.283e-09
 51.31237   -112.8 1.153e+04 1.289e-09
 51.33093   -112.8 1.152e+04 1.224e-09
 51.34084   -112.5 1.178e+04 1.417e-09
 51.35200   -112.4 1.161e+04 1.331e-09
 51.36911   -112.2 1.134e+04 1.199e-09
 51.37902   -111.2 1.123e+04 1.068e-09
 51.39162   -110.9 1.094e+04 9.505e-10
 51.41144   -110.2 1.061e+04 8.162e-10
 51.43125   -109.3 1.034e+04 6.728e-10
 51.45107   -108.4 1.018e+04 5.359e-10
 51.48088   -107.6 1.009e+04 3.777e-10
 51.51673   -106.2 9.917e+03 3.104e-10
 51.53654   -104.5 9.998e+03 3.529e-10
 51.56023   -102.2 9.690e+03 2.779e-10
 51.59986    -99.7 9.526e+03 2.499e-10
 51.63949    -97.1 9.470e+03 2.429e-10
 51.67327    -94.4 9.472e+03 2.431e-10
 51.69308    -93.3 9.211e+03 1.694e-10
 51.71874    -90.8 9.332e+03 1.837e-10
 51.75837    -88.6 9.770e+03 2.515e-10
 51.79800    -86.4 1.027e+04 3.725e-10
 51.82762    -84.9 1.062e+04 5.054e-10
 51.84110    -84.9 1.084e+04 6.455e-10
 51.85110    -83.5 1.041e+04 4.248e-10
 51.85910    -83.5 1.097e+04 7.420e-10
 51.86891    -81.9 1.074e+04 5.591e-10
 51.88696    -81.8 1.092e+04 6.640e-10
 51.90677    -81.1 1.115e+04 8.040e-10
 51.92659    -80.5 1.131e+04 8.059e-10
 51.94640    -79.9 1.130e+04 7.438e-10
 51.96622    -79.5 1.124e+04 6.661e-10
 51.98603    -79.2 1.110e+04 5.838e-10
 51.99843    -78.7 1.095e+04 5.051e-10
 52.00833    -78.1 1.095e+04 5.009e-10
 52.02512    -77.6 1.081e+04 4.305e-10
 52.03503    -76.6 1.099e+04 5.156e-10
 52.04547    -76.2 1.084e+04 4.581e-10
 52.06528    -75.9 1.073e+04 4.253e-10
 52.08510    -75.5 1.070e+04 4.160e-10
 52.10491    -75.2 1.080e+04 4.301e-10
 52.12472    -75.0 1.092e+04 4.957e-10
 52.14454    -74.8 1.103e+04 6.109e-10
 52.15575    -74.5 1.136e+04 8.081e-10
 52.16566    -73.8 1.118e+04 7.313e-10
 52.18416    -73.5 1.169e+04 1.011e-09
 52.20115    -73.4 1.265e+04 1.459e-09
 52.21105    -71.5 1.168e+04 1.004e-09
 52.22379    -71.4 1.260e+04 1.347e-09
 52.24360    -71.7 1.362e+04 1.885e-09
 52.26342    -72.1 1.417e+04 2.559e-09
 52.28323    -72.2 1.402e+04 3.163e-09
 52.30304    -71.5 1.370e+04 3.491e-09
 52.31308    -70.1 1.306e+04 2.942e-09
 52.32299    -69.2 1.309e+04 2.989e-09
 52.34267    -67.7 1.265e+04 2.393e-09
 52.36248    -66.4 1.234e+04 1.732e-09
 52.37717    -65.7 1.199e+04 1.025e-09
 52.38708    -64.6 1.206e+04 1.417e-09
 52.40211    -64.0 1.169e+04 8.377e-10
 52.42192    -64.1 1.111e+04 4.818e-10
 52.44174    -63.9 1.065e+04 3.484e-10
 52.46060    -63.0 9.982e+03 2.254e-10
 52.48051    -61.1 1.007e+04 2.847e-10
 52.51128    -58.4 9.253e+03 1.520e-10
 52.55091    -55.6 8.649e+03 9.528e-11
 52.59053    -53.0 8.425e+03 7.949e-11
 52.63016    -50.1 8.279e+03 7.027e-11
 52.66979    -47.3 8.201e+03 6.618e-11
 52.70942    -44.5 8.184e+03 6.538e-11
 52.74904    -40.9 8.212e+03 7.281e-11
 52.77536    -38.3 8.217e+03 9.241e-11
 52.79517    -37.3 8.210e+03 9.028e-11
 52.82830    -34.5 8.238e+03 1.163e-10
 52.86792    -31.4 8.347e+03 1.350e-10
 52.90755    -28.7 8.367e+03 1.369e-10
 52.94718    -25.9 8.324e+03 1.278e-10
 52.98680    -23.5 8.276e+03 1.165e-10
 53.02643    -21.0 8.171e+03 1.116e-10
 53.06165    -18.4 8.210e+03 1.063e-10
 53.08146    -18.0 8.217e+03 1.069e-10
 53.09001    -15.8 8.307e+03 1.158e-10
 53.10983    -14.9 8.226e+03 1.192e-10
 53.14531    -12.6 8.328e+03 1.372e-10
 53.18494    -10.3 8.486e+03 1.677e-10
 53.22457     -8.0 8.710e+03 2.114e-10
 53.26419     -5.8 8.953e+03 2.674e-10
 53.30382     -3.4 9.180e+03 3.215e-10
 53.34345     -1.0 9.433e+03 3.406e-10
 53.38307      1.2 9.431e+03 3.312e-10
 53.40467      3.6 9.354e+03 2.950e-10
 53.41548      4.4 9.212e+03 2.952e-10
 53.43351      4.6 9.027e+03 2.754e-10
 53.46233      6.9 8.961e+03 2.283e-10
 53.50195      9.0 8.875e+03 1.817e-10
 53.54158     11.1 8.829e+03 1.613e-10
 53.58121     13.3 8.847e+03 1.639e-10
 53.62084     15.4 9.010e+03 1.828e-10
 53.66046     17.4 9.271e+03 2.343e-10
 53.69951     20.0 9.688e+03 3.285e-10
 53.71932     20.4 9.707e+03 3.420e-10
 53.73972     22.3 1.009e+04 4.421e-10
 53.76565     23.5 1.033e+04 5.148e-10
 53.77546     23.8 1.020e+04 4.833e-10
 53.78905     24.5 1.043e+04 5.492e-10
 53.80887     25.2 1.070e+04 6.379e-10
 53.82868     26.1 1.095e+04 7.328e-10
 53.84849     27.1 1.120e+04 8.336e-10
 53.86655     28.0 1.144e+04 9.448e-10
 53.87646     27.8 1.137e+04 9.500e-10
 53.88812     28.6 1.151e+04 1.067e-09
 53.90794     29.4 1.160e+04 1.185e-09
 53.92775     30.1 1.169e+04 1.304e-09
 53.94158     30.8 1.186e+04 1.441e-09
 53.95148     31.2 1.154e+04 1.164e-09
 53.96738     31.9 1.174e+04 1.308e-09
 53.98719     32.5 1.202e+04 1.495e-09
 54.00700     33.0 1.232e+04 1.703e-09
 54.02388     33.7 1.264e+04 1.919e-09
 54.03379     33.9 1.168e+04 1.189e-09
 54.04663     34.3 1.190e+04 1.252e-09
 54.06644     34.4 1.218e+04 1.338e-09
 54.08626     34.2 1.255e+04 1.496e-09
 54.10607     33.7 1.299e+04 1.799e-09
 54.11760     33.3 1.336e+04 2.266e-09
 54.12751     34.3 1.331e+04 2.136e-09
 54.14570     34.4 1.369e+04 2.727e-09
 54.16551     34.7 1.387e+04 3.128e-09
 54.18121     35.2 1.386e+04 3.099e-09
 54.19111     35.4 1.262e+04 1.835e-09
 54.20514     35.7 1.257e+04 1.733e-09
 54.22495     35.8 1.243e+04 1.464e-09
 54.24476     35.3 1.224e+04 1.187e-09
 54.26458     34.3 1.188e+04 1.008e-09
 54.28372     33.3 1.142e+04 9.404e-10
 54.29362     34.7 1.186e+04 9.946e-10
 54.30420     33.7 1.134e+04 9.384e-10
 54.32402     33.7 1.120e+04 9.377e-10
 54.33854     34.1 1.112e+04 9.088e-10
 54.34844     35.0 1.102e+04 8.633e-10
 54.36364     35.5 1.101e+04 8.519e-10
 54.38346     36.1 1.090e+04 7.875e-10
 54.40327     36.6 1.076e+04 6.989e-10
 54.42309     37.1 1.060e+04 5.779e-10
 54.44290     37.3 1.038e+04 4.561e-10
 54.45974     37.2 1.020e+04 3.820e-10
 54.46965     37.2 1.034e+04 4.059e-10
 54.48253     37.0 1.033e+04 4.046e-10
 54.49586     36.8 1.034e+04 4.208e-10
 54.50577     37.8 1.051e+04 4.989e-10
 54.52215     37.4 1.064e+04 5.720e-10
 54.54197     37.4 1.083e+04 7.169e-10
 54.56178     37.6 1.104e+04 8.992e-10
 54.58159     38.0 1.123e+04 1.034e-09
 54.60141     38.2 1.135e+04 1.060e-09
 54.62122     38.1 1.134e+04 1.025e-09
 54.63577     37.7 1.121e+04 9.162e-10
 54.64567     37.3 1.114e+04 8.873e-10
 54.65319     37.3 1.110e+04 8.809e-10
 54.66320     38.3 1.122e+04 9.039e-10
 54.68076     37.7 1.099e+04 8.376e-10
 54.70047     37.4 1.085e+04 8.079e-10
 54.72029     37.2 1.089e+04 8.271e-10
 54.74010     37.2 1.090e+04 8.458e-10
 54.75991     37.2 1.102e+04 9.004e-10
 54.77973     37.0 1.128e+04 1.008e-09
 54.79954     36.6 1.154e+04 1.152e-09
 54.81052     36.4 1.160e+04 1.231e-09
 54.81286     36.3 1.155e+04 1.218e-09
 54.82170     35.7 1.170e+04 1.325e-09
 54.83917     35.6 1.164e+04 1.302e-09
 54.85898     35.9 1.142e+04 1.188e-09
 54.87879     36.2 1.112e+04 9.861e-10
 54.89861     36.1 1.081e+04 7.762e-10
 54.91842     35.9 1.047e+04 6.090e-10
 54.93824     35.3 1.013e+04 4.956e-10
 54.95794     34.8 9.795e+03 4.220e-10
 54.97785     34.7 9.614e+03 3.794e-10
 55.00778     35.0 9.432e+03 3.461e-10
 55.04740     35.8 9.388e+03 3.206e-10
 55.08703     36.0 9.479e+03 3.135e-10
 55.12666     35.9 9.620e+03 3.333e-10
 55.15413     35.7 9.775e+03 3.845e-10
 55.17394     35.2 9.724e+03 3.783e-10
 55.19591     35.5 9.722e+03 4.085e-10
 55.21562     35.7 9.747e+03 4.235e-10
 55.23544     36.0 9.691e+03 4.101e-10
 55.25525     36.1 9.686e+03 4.057e-10
 55.27260     36.4 9.569e+03 3.715e-10
 55.29251     36.8 9.360e+03 3.185e-10
 55.32479     37.3 9.205e+03 2.720e-10
 55.36442     38.1 9.125e+03 2.401e-10
 55.40405     39.3 9.101e+03 2.204e-10
 55.44367     41.0 9.124e+03 2.088e-10
 55.47330     42.5 9.049e+03 1.898e-10
 55.49301     43.0 9.129e+03 1.975e-10
 55.50598     43.6 9.431e+03 2.309e-10
 55.51589     42.2 9.621e+03 2.490e-10
 55.53264     41.9 1.045e+04 3.970e-10
 55.55245     41.3 1.165e+04 8.033e-10
 55.57227     41.2 1.334e+04 1.816e-09
 55.58726     41.4 1.527e+04 4.320e-09
 55.59716     41.4 1.411e+04 2.191e-09
 55.60689     40.9 1.563e+04 3.805e-09
 55.61675     38.3 1.834e+04 6.390e-09
 55.62666     33.9 2.134e+04 1.267e-08
 55.63656     30.2 2.229e+04 2.618e-08
 55.64647     29.2 2.223e+04 5.077e-08
 55.65638     29.0 2.211e+04 7.824e-08
 55.66582     28.5 2.203e+04 8.175e-08
 55.67078     27.6 2.190e+04 9.377e-08
 55.67619     27.7 2.169e+04 8.414e-08
 55.68191     28.0 2.152e+04 5.672e-08
 55.68686     27.5 2.133e+04 5.362e-08
 55.69600     27.0 2.154e+04 2.991e-08
 55.71091     23.4 2.093e+04 1.137e-08
 55.72577     18.2 1.880e+04 4.243e-09
 55.73563     15.9 1.730e+04 3.514e-09
 55.74453     13.2 1.397e+04 2.027e-09
 55.75449     11.5 1.291e+04 1.773e-09
 55.77040     11.5 1.207e+04 1.314e-09
 55.79021     12.6 1.183e+04 1.120e-09
 55.81003     13.6 1.169e+04 9.690e-10
 55.82984     14.6 1.153e+04 8.463e-10
 55.84812     15.8 1.153e+04 8.129e-10
 55.85803     16.0 1.100e+04 6.433e-10
 55.86947     17.2 1.104e+04 6.463e-10
 55.88928     18.3 1.117e+04 6.624e-10
 55.90191     19.4 1.143e+04 7.057e-10
 55.91182     18.2 1.217e+04 9.403e-10
 55.92891     18.9 1.279e+04 1.198e-09
 55.94872     19.2 1.355e+04 1.673e-09
 55.96854     19.1 1.427e+04 2.448e-09
 55.98835     19.2 1.496e+04 3.659e-09
 56.00816     19.6 1.561e+04 5.378e-09
 56.02415     20.3 1.632e+04 7.423e-09
 56.03405     20.8 1.572e+04 5.986e-09
 56.04779     21.6 1.655e+04 8.299e-09
 56.05924     22.8 1.678e+04 1.015e-08
 56.06915     23.6 1.580e+04 6.643e-09
 56.08742     25.2 1.550e+04 5.187e-09
 56.10723     26.1 1.512e+04 3.504e-09
 56.12704     25.9 1.462e+04 2.206e-09
 56.14686     24.5 1.387e+04 1.486e-09
 56.16667     23.5 1.293e+04 1.188e-09
 56.18648     23.6 1.238e+04 1.092e-09
 56.20017     24.1 1.214e+04 1.109e-09
 56.21008     24.8 1.206e+04 9.758e-10
 56.21657     25.8 1.194e+04 1.010e-09
 56.22648     25.9 1.181e+04 9.747e-10
 56.24592     27.1 1.194e+04 1.066e-09
 56.27574     29.4 1.197e+04 1.108e-09
 56.31547     32.5 1.189e+04 1.107e-09
 56.35509     35.6 1.178e+04 1.072e-09
 56.39472     39.0 1.168e+04 1.005e-09
 56.43435     42.5 1.157e+04 9.096e-10
 56.46397     44.6 1.136e+04 8.805e-10
 56.48369     46.0 1.132e+04 8.713e-10
 56.50350     46.2 1.263e+04 9.508e-10
 56.52132     44.8 1.542e+04 1.413e-09
 56.53123     41.8 1.683e+04 2.596e-09
 56.54231     41.0 1.784e+04 5.315e-09
 56.55222     39.6 1.841e+04 1.079e-08
 56.56294     40.6 1.881e+04 1.639e-08
 56.58275     41.8 1.908e+04 1.971e-08
 56.60257     43.1 1.904e+04 1.942e-08
 56.62238     44.8 1.872e+04 1.780e-08
 56.64219     46.4 1.840e+04 1.272e-08
 56.66201     47.1 1.800e+04 7.552e-09
 56.67865     46.3 1.719e+04 3.814e-09
 56.68855     42.8 1.513e+04 1.631e-09
 56.70163     40.0 1.218e+04 7.823e-10
 56.71834     38.4 1.026e+04 5.266e-10
 56.72825     36.6 9.689e+03 4.612e-10
 56.74126     37.9 9.707e+03 4.607e-10
 56.76107     39.3 9.759e+03 4.670e-10
 56.78089     40.3 9.839e+03 4.766e-10
 56.80070     41.0 9.933e+03 4.825e-10
 56.82051     41.3 1.011e+04 5.008e-10
 56.83597     41.2 1.035e+04 5.566e-10
 56.84588     39.6 1.032e+04 5.462e-10
 56.86014     39.5 1.057e+04 6.520e-10
 56.87996     39.4 1.080e+04 7.891e-10
 56.89436     39.3 1.106e+04 9.476e-10
 56.90427     37.7 1.149e+04 1.220e-09
 56.91958     37.4 1.175e+04 1.354e-09
 56.93940     36.8 1.200e+04 1.461e-09
 56.95921     35.7 1.227e+04 1.570e-09
 56.97902     34.2 1.258e+04 1.725e-09
 56.99330     32.3 1.296e+04 1.990e-09
 57.00321     31.0 1.295e+04 2.004e-09
 57.01865     29.0 1.349e+04 2.462e-09
 57.03846     26.3 1.437e+04 3.305e-09
 57.05828     23.5 1.531e+04 4.768e-09
 57.07034     22.2 1.576e+04 5.548e-09
 57.08025     19.8 1.548e+04 5.251e-09
 57.09290     18.8 1.569e+04 5.829e-09
 57.10276     17.7 1.607e+04 6.443e-09
 57.11267     16.3 1.657e+04 7.106e-09
 57.12257     14.7 1.707e+04 7.610e-09
 57.13248     12.9 1.755e+04 7.764e-09
 57.14239     10.8 1.766e+04 7.712e-09
 57.15053      8.6 1.761e+04 7.353e-09
 57.15549      8.6 1.713e+04 6.621e-09
 57.15830      6.7 1.670e+04 6.015e-09
 57.16326      6.1 1.624e+04 5.512e-09
 57.17711      4.7 1.570e+04 4.895e-09
 57.19697      3.2 1.438e+04 3.421e-09
 57.21678      1.4 1.324e+04 2.194e-09
 57.23650     -1.1 1.249e+04 1.416e-09
 57.25632     -4.1 1.155e+04 8.346e-10
 57.27622     -5.5 1.144e+04 8.401e-10
 57.29604     -6.4 1.151e+04 9.357e-10
 57.30796     -6.9 1.188e+04 1.179e-09
 57.31787     -5.3 1.136e+04 9.354e-10
 57.33566     -5.6 1.176e+04 1.144e-09
 57.35548     -6.1 1.237e+04 1.461e-09
 57.37529     -6.5 1.298e+04 1.890e-09
 57.39511     -6.7 1.343e+04 2.373e-09
 57.41253     -6.5 1.371e+04 2.801e-09
 57.42244     -5.5 1.306e+04 2.104e-09
 57.43473     -5.2 1.320e+04 2.215e-09
 57.45455     -5.0 1.326e+04 2.127e-09
 57.46529     -5.1 1.309e+04 1.991e-09
 57.47519     -3.8 1.308e+04 2.032e-09
 57.49417     -3.8 1.293e+04 1.939e-09
 57.51399     -3.7 1.263e+04 1.730e-09
 57.53380     -3.5 1.220e+04 1.444e-09
 57.55361     -3.1 1.168e+04 1.142e-09
 57.57343     -2.2 1.110e+04 8.787e-10
 57.58855     -1.5 1.074e+04 7.001e-10
 57.59846     -0.6 1.074e+04 7.008e-10
 57.62306      1.7 1.032e+04 5.081e-10
 57.66278      4.0 9.723e+03 3.272e-10
 57.70241      6.5 9.274e+03 2.286e-10
 57.74204      9.1 8.975e+03 1.781e-10
 57.77023     11.8 8.826e+03 1.526e-10
 57.79005     12.3 8.837e+03 1.523e-10
 57.82129     15.0 8.782e+03 1.409e-10
 57.86092     17.7 8.784e+03 1.394e-10
 57.90054     20.3 8.803e+03 1.414e-10
 57.93089     23.0 8.857e+03 1.466e-10
 57.95070     23.7 8.905e+03 1.463e-10
 57.97980     26.2 9.025e+03 1.568e-10
 58.01942     28.8 9.204e+03 1.714e-10
 58.05905     31.2 9.504e+03 1.917e-10
 58.08479     31.8 9.920e+03 2.464e-10
 58.09460     30.9 1.048e+04 3.877e-10
 58.10672     31.5 1.072e+04 5.125e-10
 58.11663     32.4 1.056e+04 4.089e-10
 58.12820     33.1 1.083e+04 5.388e-10
 58.14802     33.7 1.126e+04 7.315e-10
 58.16783     33.8 1.189e+04 1.032e-09
 58.18764     33.8 1.273e+04 1.510e-09
 58.20746     33.7 1.359e+04 2.217e-09
 58.22727     33.7 1.426e+04 3.058e-09
 58.24202     33.8 1.470e+04 3.781e-09
 58.25193     33.6 1.541e+04 4.852e-09
 58.26690     33.4 1.575e+04 5.051e-09
 58.28274     32.4 1.603e+04 5.019e-09
 58.29265     34.5 1.585e+04 5.329e-09
 58.30652     33.4 1.608e+04 5.130e-09
 58.32634     31.6 1.626e+04 4.986e-09
 58.34615     29.6 1.623e+04 5.016e-09
 58.36597     28.1 1.610e+04 5.180e-09
 58.38578     27.3 1.590e+04 5.178e-09
 58.39935     27.1 1.569e+04 5.077e-09
 58.40926     27.2 1.458e+04 3.782e-09
 58.42541     27.3 1.440e+04 3.519e-09
 58.44522     27.5 1.420e+04 3.148e-09
 58.45877     27.6 1.396e+04 2.757e-09
 58.46868     29.1 1.346e+04 2.585e-09
 58.48485     29.3 1.311e+04 2.202e-09
 58.50466     29.5 1.280e+04 1.908e-09
 58.52447     29.9 1.256e+04 1.712e-09
 58.54429     30.6 1.234e+04 1.598e-09
 58.55668     31.6 1.217e+04 1.541e-09
 58.56659     32.4 1.186e+04 1.320e-09
 58.58391     33.7 1.173e+04 1.309e-09
 58.60373     35.1 1.169e+04 1.315e-09
 58.62354     36.6 1.169e+04 1.334e-09
 58.63479     38.1 1.175e+04 1.367e-09
 58.64470     38.7 1.127e+04 1.082e-09
 58.66317     40.2 1.137e+04 1.135e-09
 58.68298     41.8 1.149e+04 1.211e-09
 58.70279     43.4 1.167e+04 1.317e-09
 58.71401     45.1 1.191e+04 1.460e-09
 58.72391     45.6 1.154e+04 1.226e-09
 58.74242     47.1 1.178e+04 1.366e-09
 58.76223     48.6 1.200e+04 1.508e-09
 58.78205     50.0 1.224e+04 1.658e-09
 58.80091     51.3 1.259e+04 1.848e-09
 58.81082     51.5 1.234e+04 1.806e-09
 58.82168     52.5 1.286e+04 2.125e-09
 58.84149     53.0 1.348e+04 2.613e-09
 58.86130     53.3 1.441e+04 3.421e-09
 58.87134     53.3 1.559e+04 4.691e-09
 58.88124     54.7 1.442e+04 3.793e-09
 58.90093     54.7 1.567e+04 5.342e-09
 58.92074     55.0 1.681e+04 7.431e-09
 58.94056     55.5 1.758e+04 9.459e-09
 58.96037     56.2 1.800e+04 1.039e-08
 58.97693     56.7 1.799e+04 1.023e-08
 58.98684     57.1 1.829e+04 1.119e-08
 59.00000     57.4 1.818e+04 1.072e-08
 59.01876     57.5 1.800e+04 9.239e-09
 59.02866     58.7 1.805e+04 1.084e-08
 59.03962     58.8 1.799e+04 9.836e-09
 59.05944     58.9 1.782e+04 7.969e-09
 59.07925     58.7 1.737e+04 5.983e-09
 59.09906     58.7 1.652e+04 4.393e-09
 59.11888     59.0 1.535e+04 3.346e-09
 59.13869     59.6 1.426e+04 2.843e-09
 59.15296     60.4 1.414e+04 2.844e-09
 59.16287     60.1 1.544e+04 3.086e-09
 59.17609     60.0 1.560e+04 3.168e-09
 59.18599     63.2 1.723e+04 5.177e-09
 59.19813     63.1 1.780e+04 5.601e-09
 59.21794     62.6 1.894e+04 7.270e-09
 59.23776     62.2 1.978e+04 1.034e-08
 59.25757     62.3 1.994e+04 1.317e-08
 59.27738     61.9 2.037e+04 1.359e-08
 59.29720     61.2 2.066e+04 1.217e-08
 59.31701     59.7 2.170e+04 8.298e-09
 59.32898     55.9 2.208e+04 4.316e-09
 59.33548     46.4 1.449e+04 2.115e-09
 59.34332     53.4 1.792e+04 3.070e-09
 59.35664     45.4 1.421e+04 1.806e-09
 59.37645     38.7 1.376e+04 1.860e-09
 59.39627     32.4 1.518e+04 2.537e-09
 59.41608     26.2 1.728e+04 5.044e-09
 59.43589     19.8 1.916e+04 9.721e-09
 59.45571     11.3 2.226e+04 1.587e-08
 59.47552      1.3 2.546e+04 1.280e-08
 59.49074    -10.1 2.740e+04 4.332e-09
 59.50037    -13.5 4.098e+04 4.943e-09
 59.50491     -9.8 3.665e+04 9.454e-09
 59.51010    -13.7 3.318e+04 9.480e-09
 59.52000    -18.0 3.207e+04 7.476e-09
 59.52991    -20.4 3.020e+04 6.343e-09
 59.53982    -25.5 2.803e+04 4.928e-09
 59.55472    -29.3 2.454e+04 5.201e-09
 59.57459    -35.3 1.524e+04 4.176e-09
 59.59440    -33.8 1.361e+04 3.735e-09
 59.61421    -31.2 1.336e+04 3.495e-09
 59.63403    -29.1 1.361e+04 2.570e-09
 59.64807    -29.8 1.308e+04 1.311e-09
 59.65798    -34.2 1.114e+04 7.886e-10
 59.67113    -37.2 9.827e+03 4.831e-10
 59.68103    -35.9 1.011e+04 5.991e-10
 59.69347    -37.0 9.538e+03 4.999e-10
 59.71328    -37.0 9.508e+03 4.923e-10
 59.73309    -36.9 9.552e+03 4.959e-10
 59.75291    -36.7 9.712e+03 5.208e-10
 59.77272    -36.8 9.762e+03 5.310e-10
 59.79253    -36.6 9.896e+03 5.617e-10
 59.80540    -36.7 9.869e+03 5.431e-10
 59.81531    -37.6 1.004e+04 6.189e-10
 59.84217    -37.1 9.871e+03 5.492e-10
 59.88189    -36.6 9.570e+03 4.415e-10
 59.92152    -35.7 9.281e+03 3.364e-10
 59.95302    -34.7 9.081e+03 2.733e-10
 59.97283    -35.8 9.192e+03 2.745e-10
 60.00077    -34.3 9.104e+03 2.421e-10
 60.02337    -32.3 9.020e+03 2.290e-10
 60.04318    -32.2 9.266e+03 3.282e-10
 60.08003    -29.7 9.089e+03 2.445e-10
 60.11965    -27.9 9.051e+03 1.800e-10
 60.15928    -26.6 9.013e+03 1.594e-10
 60.19891    -24.8 8.923e+03 1.633e-10
 60.23853    -22.7 8.789e+03 1.792e-10
 60.26767    -20.2 8.608e+03 1.785e-10
 60.28749    -20.0 8.816e+03 2.446e-10
 60.31779    -17.1 8.648e+03 1.849e-10
 60.35560    -15.2 8.646e+03 1.251e-10
 60.37542    -15.5 8.347e+03 1.310e-10
 60.39704    -13.9 8.466e+03 1.242e-10
 60.43667    -12.6 8.550e+03 1.392e-10
 60.47629    -10.5 8.503e+03 1.540e-10
 60.51592     -8.4 8.471e+03 1.508e-10
 60.55555     -6.4 8.449e+03 1.301e-10
 60.58233     -5.0 8.642e+03 1.182e-10
 60.60214     -4.6 8.511e+03 9.702e-11
 60.63480     -4.0 8.737e+03 1.071e-10
 60.67443     -4.2 9.114e+03 1.670e-10
 60.70765     -3.0 9.197e+03 2.857e-10
 60.72747     -3.0 9.526e+03 4.106e-10
 60.75368     -0.9 9.472e+03 3.828e-10
 60.79331      1.6 9.261e+03 2.603e-10
 60.83294      3.4 9.275e+03 1.274e-10
 60.87256      3.4 9.373e+03 6.134e-11
 60.89699      3.7 8.971e+03 4.626e-11
 60.91680      5.0 9.036e+03 4.510e-11
 60.95182      5.9 8.918e+03 4.508e-11
 60.99145      6.4 9.066e+03 5.862e-11
 61.03107      7.5 9.137e+03 1.069e-10
 61.05970      9.2 9.270e+03 1.670e-10
 61.07952      8.7 9.274e+03 1.795e-10
 61.11033     10.4 9.253e+03 1.680e-10
 61.14995     11.7 9.238e+03 1.294e-10
 61.18958     12.3 9.281e+03 9.206e-11
 61.21164     12.6 9.068e+03 8.480e-11
 61.23146     13.4 9.084e+03 7.435e-11
 61.26883     14.0 9.029e+03 7.943e-11
 61.30846     14.8 8.996e+03 1.036e-10
 61.34809     15.9 9.150e+03 1.382e-10
 61.38771     16.9 9.370e+03 1.572e-10
 61.41175     17.6 9.390e+03 1.541e-10
 61.43156     16.7 9.255e+03 9.099e-11
 61.46697     17.3 9.191e+03 9.229e-11
 61.50648     18.1 9.102e+03 9.476e-11
 61.54611     19.4 9.164e+03 1.181e-10
 61.58585     20.6 9.078e+03 1.266e-10
 61.62548     22.0 9.058e+03 1.380e-10
 61.66510     23.6 9.134e+03 1.508e-10
 61.70473     24.8 9.362e+03 1.790e-10
 61.74399     25.5 9.806e+03 2.554e-10
 61.76380     24.7 9.927e+03 2.983e-10
 61.78398     24.7 1.048e+04 5.010e-10
 61.82114     24.5 1.108e+04 7.689e-10
 61.84095     24.8 1.167e+04 1.060e-09
 61.86324     24.2 1.235e+04 1.473e-09
 61.90286     23.4 1.232e+04 1.435e-09
 61.94249     22.9 1.177e+04 1.065e-09
 61.98212     22.8 1.097e+04 6.375e-10
 62.02175     22.9 1.025e+04 3.667e-10
 62.06137     23.5 9.813e+03 2.265e-10
 62.09603     24.3 9.609e+03 1.517e-10
 62.11585     24.3 9.646e+03 1.806e-10
 62.13580     25.2 9.577e+03 1.593e-10
 62.15561     25.1 9.740e+03 1.925e-10
 62.18025     26.1 9.755e+03 1.973e-10
 62.21988     27.1 9.825e+03 2.186e-10
 62.25951     28.2 9.909e+03 2.597e-10
 62.29913     29.5 1.001e+04 3.197e-10
 62.33876     31.1 1.010e+04 3.704e-10
 62.37839     32.6 1.014e+04 3.711e-10
 62.41801     34.3 1.009e+04 3.366e-10
 62.44808     35.8 9.969e+03 2.606e-10
 62.46071     35.6 9.836e+03 2.159e-10
 62.47027     35.2 9.676e+03 1.590e-10
 62.49727     36.6 9.622e+03 1.217e-10
 62.53690     37.9 9.602e+03 9.621e-11
 62.57652     39.1 9.608e+03 8.801e-11
 62.61615     40.4 9.631e+03 9.058e-11
 62.65578     41.4 9.739e+03 9.897e-11
 62.69540     42.4 9.901e+03 1.342e-10
 62.73503     43.4 1.006e+04 2.063e-10
 62.76511     44.5 1.030e+04 3.049e-10
 62.78492     44.0 1.043e+04 3.750e-10
 62.80013     44.9 1.061e+04 4.093e-10
 62.81995     45.7 1.041e+04 3.377e-10
 62.85391     46.7 1.058e+04 3.820e-10
 62.89354     47.5 1.062e+04 3.487e-10
 62.93316     47.6 1.079e+04 2.909e-10
 62.97279     47.0 1.114e+04 2.840e-10
 63.01242     44.9 1.147e+04 3.158e-10
 63.05205     42.2 1.204e+04 4.385e-10
 63.07967     40.4 1.241e+04 5.960e-10
 63.08948     39.0 1.270e+04 7.939e-10
 63.10138     38.1 1.289e+04 9.005e-10
 63.12120     37.2 1.293e+04 9.292e-10
 63.14101     36.4 1.287e+04 8.702e-10
 63.15199     35.5 1.272e+04 7.663e-10
 63.16189     36.0 1.312e+04 1.086e-09
 63.18064     35.5 1.271e+04 8.735e-10
 63.20045     35.0 1.223e+04 6.626e-10
 63.22026     34.6 1.178e+04 5.011e-10
 63.23690     34.4 1.145e+04 3.937e-10
 63.24681     33.8 1.129e+04 3.478e-10
 63.25989     33.8 1.108e+04 2.989e-10
 63.27971     34.0 1.090e+04 2.872e-10
 63.29952     34.5 1.087e+04 2.894e-10
 63.31810     35.1 1.081e+04 3.041e-10
 63.32801     35.1 1.119e+04 3.182e-10
 63.33915     35.7 1.117e+04 3.580e-10
 63.35896     36.6 1.117e+04 4.167e-10
 63.37877     37.4 1.124e+04 4.959e-10
 63.39423     38.2 1.144e+04 6.069e-10
 63.40414     38.0 1.151e+04 6.074e-10
 63.41840     37.3 1.240e+04 8.194e-10
 63.43821     35.9 1.380e+04 1.445e-09
 63.45803     34.7 1.498e+04 2.900e-09
 63.47784     34.5 1.580e+04 5.361e-09
 63.49413     34.7 1.628e+04 7.861e-09
 63.50403     34.6 1.737e+04 7.220e-09
 63.51747     33.8 1.769e+04 1.001e-08
 63.53728     32.7 1.795e+04 1.166e-08
 63.55156     31.5 1.774e+04 1.174e-08
 63.56146     32.4 1.626e+04 6.807e-09
 63.57691     31.1 1.606e+04 6.029e-09
 63.59672     30.0 1.596e+04 5.512e-09
 63.61653     28.5 1.636e+04 5.397e-09
 63.63635     26.9 1.680e+04 5.723e-09
 63.65616     25.1 1.740e+04 6.475e-09
 63.67015     23.6 1.788e+04 7.573e-09
 63.67506     23.3 1.823e+04 9.696e-09
 63.68083     22.9 1.826e+04 9.813e-09
 63.69074     22.6 1.818e+04 9.803e-09
 63.70064     22.3 1.808e+04 9.703e-09
 63.70884     22.2 1.759e+04 9.467e-09
 63.71879     22.8 1.804e+04 9.088e-09
 63.73541     22.1 1.768e+04 7.512e-09
 63.75523     20.5 1.729e+04 6.238e-09
 63.77504     18.3 1.707e+04 5.817e-09
 63.79486     16.4 1.666e+04 6.704e-09
 63.81467     15.8 1.643e+04 8.015e-09
 63.83448     16.0 1.627e+04 9.114e-09
 63.84618     16.4 1.600e+04 9.050e-09
 63.85608     16.5 1.656e+04 9.508e-09
 63.86621     17.3 1.611e+04 8.596e-09
 63.87612     17.2 1.614e+04 8.881e-09
 63.89392     17.9 1.526e+04 6.726e-09
 63.91374     18.6 1.443e+04 4.609e-09
 63.93355     19.1 1.378e+04 3.137e-09
 63.95336     19.5 1.337e+04 2.172e-09
 63.97318     19.3 1.313e+04 1.591e-09
 63.99299     19.1 1.312e+04 1.559e-09
 64.01229     19.2 1.319e+04 1.673e-09
 64.02220     18.6 1.400e+04 2.528e-09
 64.02354     18.9 1.415e+04 2.865e-09
 64.03345     18.8 1.334e+04 1.687e-09
 64.05243     19.1 1.358e+04 2.002e-09
 64.07224     19.5 1.386e+04 2.419e-09
 64.09206     20.2 1.408e+04 2.812e-09
 64.11187     21.0 1.410e+04 2.972e-09
 64.13168     21.6 1.404e+04 2.826e-09
 64.15150     22.2 1.379e+04 2.379e-09
 64.17096     22.4 1.342e+04 1.736e-09
 64.18087     22.6 1.383e+04 2.476e-09
 64.18832     22.7 1.348e+04 1.729e-09
 64.19822     21.7 1.352e+04 1.379e-09
 64.21094     21.5 1.328e+04 9.558e-10
 64.24076     19.4 1.243e+04 4.561e-10
 64.28048     18.0 1.160e+04 3.594e-10
 64.31858     17.3 1.153e+04 4.200e-10
 64.33839     17.7 1.232e+04 5.528e-10
 64.35973     16.9 1.192e+04 6.392e-10
 64.39936     16.9 1.202e+04 6.521e-10
 64.42898     16.8 1.204e+04 6.049e-10
 64.44870     16.6 1.203e+04 5.620e-10
 64.46851     16.2 1.214e+04 5.269e-10
 64.48562     16.0 1.220e+04 5.116e-10
 64.49553     15.5 1.231e+04 5.289e-10
 64.50814     14.3 1.260e+04 5.795e-10
 64.52795     13.7 1.266e+04 6.326e-10
 64.54046     13.5 1.274e+04 6.593e-10
 64.56038     13.6 1.258e+04 5.683e-10
 64.59750     12.9 1.268e+04 4.629e-10
 64.63324     11.6 1.242e+04 3.723e-10
 64.65305     11.0 1.272e+04 5.715e-10
 64.67675     10.2 1.211e+04 3.999e-10
 64.71638     10.5 1.152e+04 3.028e-10
 64.75600     11.5 1.113e+04 2.625e-10
 64.79563     12.8 1.107e+04 2.459e-10
 64.83526     14.2 1.110e+04 2.516e-10
 64.87280     15.5 1.117e+04 2.825e-10
 64.89261     15.3 1.102e+04 2.591e-10
 64.91451     16.7 1.107e+04 3.193e-10
 64.94789     18.3 1.115e+04 4.001e-10
 64.96771     18.7 1.123e+04 4.130e-10
 64.99377     20.4 1.140e+04 5.220e-10
 65.03339     21.9 1.161e+04 6.453e-10
 65.07302     23.3 1.182e+04 7.698e-10
 65.11265     24.6 1.201e+04 8.475e-10
 65.15227     25.9 1.198e+04 8.183e-10
 65.19190     27.7 1.180e+04 6.874e-10
 65.22485     29.9 1.156e+04 4.730e-10
 65.24466     30.2 1.115e+04 3.412e-10
 65.26255     32.3 1.106e+04 2.435e-10
 65.28236     33.0 1.131e+04 2.922e-10
 65.31078     34.9 1.129e+04 2.073e-10
 65.35041     36.6 1.126e+04 1.601e-10
 65.39003     38.5 1.131e+04 1.489e-10
 65.42966     40.4 1.137e+04 1.506e-10
 65.46929     42.1 1.150e+04 1.583e-10
 65.50892     43.8 1.167e+04 1.678e-10
 65.54854     45.1 1.180e+04 1.762e-10
 65.57689     46.1 1.169e+04 2.177e-10
 65.58574     47.1 1.184e+04 3.132e-10
 65.59702     48.2 1.223e+04 6.005e-10
 65.62780     49.4 1.228e+04 6.528e-10
 65.66742     51.1 1.254e+04 7.960e-10
 65.69705     51.7 1.249e+04 7.813e-10
 65.71676     52.1 1.261e+04 8.761e-10
 65.73434     52.4 1.276e+04 1.050e-09
 65.74425     52.7 1.274e+04 1.108e-09
 65.75272     53.2 1.271e+04 1.304e-09
 65.76263     53.5 1.301e+04 1.371e-09
 65.77620     53.8 1.317e+04 1.745e-09
 65.79602     53.7 1.366e+04 2.361e-09
 65.81583     53.0 1.469e+04 3.646e-09
 65.83564     52.0 1.596e+04 6.166e-09
 65.85546     51.2 1.703e+04 9.452e-09
 65.87527     50.7 1.775e+04 1.040e-08
 65.89167     50.3 1.795e+04 9.174e-09
 65.90157     50.1 1.831e+04 1.275e-08
 65.91490     49.7 1.856e+04 1.017e-08
 65.92875     48.6 1.864e+04 6.161e-09
 65.93865     47.3 1.804e+04 2.924e-09
 65.95452     42.6 1.592e+04 1.518e-09
 65.97434     38.8 1.323e+04 1.306e-09
 65.99415     37.5 1.301e+04 1.379e-09
 66.01396     37.6 1.306e+04 1.624e-09
 66.03378     37.5 1.321e+04 1.876e-09
 66.04900     37.4 1.325e+04 1.882e-09
 66.05890     37.5 1.341e+04 2.103e-09
 66.07340     37.3 1.343e+04 2.131e-09
 66.10322     36.8 1.327e+04 1.916e-09
 66.14295     36.1 1.283e+04 1.571e-09
 66.18257     35.6 1.223e+04 1.182e-09
 66.20652     35.6 1.164e+04 8.463e-10
 66.22633     35.8 1.162e+04 8.499e-10
 66.26118     36.1 1.103e+04 5.717e-10
 66.28099     36.2 1.115e+04 6.019e-10
 66.30145     37.1 1.067e+04 3.911e-10
 66.34108     38.0 1.034e+04 2.619e-10
 66.38071     38.8 1.010e+04 1.906e-10
 66.42034     39.7 9.835e+03 1.771e-10
 66.45996     40.8 9.824e+03 1.789e-10
 66.49959     41.5 9.825e+03 1.992e-10
 66.52118     42.0 9.929e+03 2.673e-10
 66.54099     42.3 9.881e+03 2.647e-10
 66.57884     42.9 9.950e+03 3.203e-10
 66.61323     43.2 9.963e+03 3.244e-10
 66.63304     43.3 9.996e+03 3.346e-10
 66.65810     43.8 9.834e+03 2.723e-10
 66.69772     44.2 9.652e+03 1.924e-10
 66.73735     44.4 9.507e+03 1.294e-10
 66.77698     44.5 9.421e+03 9.091e-11
 66.81602     44.8 9.266e+03 8.446e-11
 66.83583     44.9 9.310e+03 1.058e-10
 66.85623     45.8 9.310e+03 1.102e-10
 66.89586     46.8 9.324e+03 1.180e-10
 66.93549     48.0 9.309e+03 1.256e-10
 66.96528     49.3 9.282e+03 1.333e-10
 66.98509     49.5 9.120e+03 1.022e-10
 67.01474     50.9 9.092e+03 1.038e-10
 67.05437     52.3 9.084e+03 1.120e-10
 67.09399     53.8 9.119e+03 1.297e-10
 67.13068     55.4 9.239e+03 1.657e-10
 67.15049     55.3 9.186e+03 1.562e-10
 67.17325     56.9 9.350e+03 2.080e-10
 67.21287     58.6 9.582e+03 2.806e-10
 67.25250     60.4 9.819e+03 3.548e-10
 67.29213     62.1 9.965e+03 3.866e-10
 67.31732     63.8 9.962e+03 3.849e-10
 67.33714     64.2 9.597e+03 2.418e-10
 67.37138     66.0 9.630e+03 2.623e-10
 67.41101     67.9 9.656e+03 2.738e-10
 67.44533     69.9 9.659e+03 2.727e-10
 67.46515     70.3 9.654e+03 2.827e-10
 67.49026     72.5 9.640e+03 2.707e-10
 67.52989     74.7 9.610e+03 2.533e-10
 67.56952     76.9 9.600e+03 2.253e-10
 67.60914     79.0 9.635e+03 1.851e-10
 67.64877     80.9 9.718e+03 1.442e-10
 67.66937     82.5 9.783e+03 1.136e-10
 67.68919     83.4 9.947e+03 3.140e-10
 67.72802     85.1 9.963e+03 2.727e-10
 67.75999     86.5 9.866e+03 2.304e-10
 67.77980     86.8 1.015e+04 2.869e-10
 67.80728     87.9 9.977e+03 3.012e-10
 67.84690     88.9 9.755e+03 3.045e-10
 67.88653     89.9 9.504e+03 3.020e-10
 67.92616     91.1 9.376e+03 3.038e-10
 67.96579     92.5 9.351e+03 3.052e-10
 68.00161     93.8 9.492e+03 3.232e-10
 68.02142     95.0 9.519e+03 3.571e-10
 68.03504     95.5 9.517e+03 3.617e-10
 68.05475     95.9 9.560e+03 3.804e-10
 68.07445     96.3 9.765e+03 4.353e-10
 68.08436     96.3 9.906e+03 4.511e-10
 68.09438     96.6 1.026e+04 5.513e-10
 68.11419     96.9 1.066e+04 6.969e-10
 68.13400     96.9 1.106e+04 8.856e-10
 68.15382     96.9 1.142e+04 1.109e-09
 68.17363     96.8 1.176e+04 1.343e-09
 68.18734     96.5 1.206e+04 1.566e-09
 68.19725     96.8 1.206e+04 1.589e-09
 68.21326     96.1 1.234e+04 1.820e-09
 68.23178     95.3 1.259e+04 2.027e-09
 68.24169     96.1 1.255e+04 1.922e-09
 68.25289     95.1 1.284e+04 2.177e-09
 68.27270     94.0 1.314e+04 2.469e-09
 68.29251     92.8 1.348e+04 2.680e-09
 68.31233     91.5 1.353e+04 2.663e-09
 68.33214     90.3 1.354e+04 2.399e-09
 68.35195     88.1 1.394e+04 2.225e-09
 68.36337     82.0 1.491e+04 2.384e-09
 68.37327     77.3 1.485e+04 2.047e-09
 68.38911     66.6 1.665e+04 3.933e-09
 68.39901     69.3 1.715e+04 3.889e-09
 68.41139     60.5 1.750e+04 6.300e-09
 68.43121     54.3 1.737e+04 6.285e-09
 68.45102     49.0 1.691e+04 4.639e-09
 68.47083     43.5 1.540e+04 2.269e-09
 68.49065     36.5 1.282e+04 1.032e-09
 68.52047     25.6 1.052e+04 5.564e-10
 68.56019     19.1 9.504e+03 4.643e-10
 68.59982     15.7 9.684e+03 5.072e-10
 68.63944     12.7 1.021e+04 6.615e-10
 68.67907     10.5 1.073e+04 8.730e-10
 68.70396      9.0 1.069e+04 8.661e-10
 68.71078      8.3 1.073e+04 8.777e-10
 68.72552      5.8 1.023e+04 6.979e-10
 68.75832      5.6 9.844e+03 5.674e-10
 68.79795      5.3 9.395e+03 4.269e-10
 68.83758      4.7 9.054e+03 3.510e-10
 68.87721      5.1 8.905e+03 3.327e-10
 68.91683      6.3 8.963e+03 3.443e-10
 68.95646      7.4 9.180e+03 3.853e-10
 68.99609      8.1 9.747e+03 5.177e-10
 69.01862      8.8 1.056e+04 7.931e-10
 69.03843      9.4 1.043e+04 7.037e-10
 69.05775     10.4 1.141e+04 1.089e-09
 69.07757      6.2 1.226e+04 1.407e-09
 69.10496      7.1 1.231e+04 1.465e-09
 69.12468      6.6 1.261e+04 1.528e-09
 69.14449      6.3 1.299e+04 1.533e-09
 69.16431      5.0 1.363e+04 1.595e-09
 69.17575      3.5 1.418e+04 1.740e-09
 69.18566      3.3 1.463e+04 2.000e-09
 69.20393      0.7 1.550e+04 2.495e-09
 69.22368     -2.6 1.634e+04 3.602e-09
 69.24349     -9.8 1.753e+04 7.308e-09
 69.26337    -12.9 1.869e+04 9.442e-09
 69.28319    -17.3 1.982e+04 1.164e-08
 69.30300    -21.3 1.975e+04 1.268e-08
 69.31659    -24.7 1.933e+04 1.236e-08
 69.32150    -26.0 1.844e+04 1.017e-08
 69.32767    -28.6 1.797e+04 9.495e-09
 69.33298    -30.9 1.799e+04 9.188e-09
 69.33793    -31.8 1.741e+04 7.862e-09
 69.34748    -33.6 1.757e+04 7.978e-09
 69.35739    -35.8 1.762e+04 7.974e-09
 69.36730    -37.7 1.758e+04 8.094e-09
 69.37720    -39.9 1.735e+04 8.062e-09
 69.38711    -41.6 1.735e+04 8.678e-09
 69.39702    -43.2 1.734e+04 9.367e-09
 69.40456    -43.9 1.761e+04 1.022e-08
 69.40928    -43.3 1.706e+04 8.542e-09
 69.41164    -43.3 1.657e+04 7.290e-09
 69.41683    -44.3 1.694e+04 8.477e-09
 69.42674    -45.1 1.741e+04 9.345e-09
 69.43664    -46.0 1.760e+04 1.007e-08
 69.44655    -46.4 1.790e+04 1.055e-08
 69.45646    -47.9 1.832e+04 1.174e-08
 69.46636    -49.1 1.906e+04 1.294e-08
 69.47627    -51.8 1.996e+04 1.507e-08
 69.48535    -54.1 2.121e+04 1.865e-08
 69.49031    -54.6 2.108e+04 1.862e-08
 69.49257    -57.1 2.167e+04 2.260e-08
 69.49752    -55.2 2.112e+04 2.059e-08
 69.50599    -57.0 2.182e+04 2.503e-08
 69.51590    -58.7 2.197e+04 2.763e-08
 69.52580    -60.1 2.180e+04 2.797e-08
 69.53571    -60.7 2.120e+04 2.550e-08
 69.54562    -61.2 2.064e+04 2.109e-08
 69.56053    -62.4 1.941e+04 1.366e-08
 69.57572    -64.0 1.693e+04 5.427e-09
 69.58563    -62.0 1.885e+04 9.347e-09
 69.60020    -64.7 1.588e+04 3.389e-09
 69.62001    -68.5 1.268e+04 1.194e-09
 69.63783    -71.1 1.097e+04 6.826e-10
 69.64773    -71.9 1.078e+04 6.137e-10
 69.65964    -72.2 1.032e+04 5.351e-10
 69.67946    -71.6 1.027e+04 5.237e-10
 69.69927    -70.8 1.043e+04 5.466e-10
 69.71908    -70.4 1.066e+04 6.008e-10
 69.73890    -70.2 1.086e+04 6.680e-10
 69.75175    -70.2 1.110e+04 7.630e-10
 69.76166    -69.4 1.120e+04 7.784e-10
 69.77852    -69.6 1.147e+04 8.862e-10
 69.79515    -69.9 1.181e+04 1.019e-09
 69.80506    -71.3 1.205e+04 1.146e-09
 69.81815    -71.9 1.246e+04 1.355e-09
 69.83796    -72.6 1.286e+04 1.604e-09
 69.85778    -73.2 1.323e+04 1.886e-09
 69.87759    -73.9 1.357e+04 2.215e-09
 69.89740    -74.8 1.395e+04 2.597e-09
 69.91722    -75.7 1.431e+04 2.947e-09
 69.92777    -76.3 1.452e+04 3.251e-09
 69.93768    -77.3 1.562e+04 5.415e-09
 69.95248    -77.4 1.579e+04 5.738e-09
 69.96239    -78.7 1.491e+04 4.076e-09
 69.97666    -78.8 1.472e+04 3.635e-09
 69.99647    -79.3 1.448e+04 3.122e-09
 70.01628    -80.3 1.442e+04 2.916e-09
 70.03610    -81.4 1.448e+04 2.909e-09
 70.05591    -82.8 1.494e+04 3.422e-09
 70.07572    -84.0 1.548e+04 4.611e-09
 70.09389    -84.5 1.600e+04 6.125e-09
 70.10380    -85.0 1.603e+04 6.322e-09
 70.10981    -85.1 1.638e+04 7.522e-09
 70.11972    -85.1 1.615e+04 6.773e-09
 70.13516    -85.1 1.634e+04 7.509e-09
 70.15498    -85.3 1.628e+04 7.474e-09
 70.17479    -85.3 1.575e+04 6.026e-09
 70.19461    -85.6 1.496e+04 4.031e-09
 70.21442    -86.6 1.405e+04 2.431e-09
 70.23423    -87.9 1.313e+04 1.449e-09
 70.25405    -89.2 1.237e+04 9.535e-10
 70.26714    -90.2 1.181e+04 7.341e-10
 70.27310    -89.9 1.212e+04 8.240e-10
 70.27982    -89.8 1.230e+04 9.647e-10
 70.29367    -90.6 1.187e+04 7.454e-10
 70.31349    -91.2 1.148e+04 6.306e-10
 70.33330    -91.6 1.121e+04 5.886e-10
 70.35311    -92.0 1.109e+04 5.689e-10
 70.37293    -92.3 1.099e+04 5.452e-10
 70.39274    -92.5 1.087e+04 5.147e-10
 70.41255    -92.5 1.074e+04 4.770e-10
 70.42447    -92.5 1.061e+04 4.318e-10
 70.43437    -92.3 1.053e+04 4.113e-10
 70.44604    -92.1 1.042e+04 3.610e-10
 70.45594    -92.6 1.048e+04 3.756e-10
 70.47199    -92.7 1.036e+04 3.411e-10
 70.50181    -92.6 1.026e+04 3.129e-10
 70.54154    -91.5 9.929e+03 2.436e-10
 70.57208    -89.9 9.648e+03 1.909e-10
 70.59190    -89.5 9.690e+03 2.045e-10
 70.62079    -87.9 9.654e+03 1.810e-10
 70.66042    -86.5 9.680e+03 1.764e-10
 70.70004    -86.0 9.824e+03 1.756e-10
 70.73967    -89.9 1.156e+04 2.677e-10
 70.76929    -95.5 1.359e+04 1.175e-09
 70.78808    -96.5 1.511e+04 3.553e-09
 70.79799    -96.5 1.516e+04 4.084e-09
 70.80882    -96.4 1.635e+04 7.806e-09
 70.82864    -96.3 1.704e+04 1.024e-08
 70.84845    -97.4 1.710e+04 1.044e-08
 70.86826    -98.4 1.636e+04 7.221e-09
 70.88655   -100.7 1.477e+04 3.670e-09
 70.89645   -100.7 1.454e+04 3.348e-09
 70.90789   -103.7 1.290e+04 1.954e-09
 70.92770   -105.1 1.210e+04 1.502e-09
 70.94752   -105.2 1.184e+04 1.333e-09
 70.96411   -105.1 1.164e+04 1.180e-09
 70.97401   -104.8 1.155e+04 1.119e-09
 70.98714   -104.8 1.135e+04 9.805e-10
 71.00696   -104.7 1.111e+04 8.484e-10
 71.02677   -104.7 1.086e+04 7.339e-10
 71.04387   -104.4 1.063e+04 6.415e-10
 71.05378   -104.3 1.057e+04 6.034e-10
 71.06640   -103.9 1.039e+04 5.352e-10
 71.08621   -103.5 1.026e+04 4.763e-10
 71.10602   -103.2 1.012e+04 4.219e-10
 71.13032   -102.9 9.962e+03 3.726e-10
 71.15023   -102.6 1.012e+04 3.953e-10
 71.17557   -101.6 9.930e+03 3.411e-10
 71.20140   -100.4 9.740e+03 2.784e-10
 71.22121   -100.3 9.875e+03 3.288e-10
 71.25482    -99.3 9.839e+03 2.996e-10
 71.29445    -98.5 9.809e+03 2.596e-10
 71.33408    -98.3 9.721e+03 2.127e-10
 71.37370    -98.5 9.646e+03 1.851e-10
 71.41333   -100.2 1.000e+04 2.123e-10
 71.45296   -101.8 1.035e+04 3.799e-10
 71.48247   -102.8 1.063e+04 5.680e-10
 71.50228   -103.8 1.068e+04 5.589e-10
 71.51605   -105.0 1.067e+04 5.791e-10
 71.53587   -103.4 1.052e+04 5.132e-10
 71.57184   -104.2 1.040e+04 4.785e-10
 71.61146   -104.8 1.019e+04 3.672e-10
 71.65109   -105.3 9.945e+03 2.687e-10
 71.69072   -105.7 9.748e+03 2.006e-10
 71.73034   -105.9 9.724e+03 1.585e-10
 71.76997   -105.9 9.717e+03 1.380e-10
 71.80960   -105.3 9.631e+03 1.227e-10
 71.83071   -104.4 9.552e+03 1.073e-10
 71.83582   -103.4 9.598e+03 1.012e-10
 71.85433   -104.1 9.733e+03 1.540e-10
 71.88885   -103.0 9.631e+03 1.288e-10
 71.92848   -101.7 9.555e+03 1.069e-10
 71.96811   -100.4 9.525e+03 8.884e-11
 72.00773    -99.2 9.559e+03 7.761e-11
 72.04736    -98.3 9.581e+03 7.565e-11
 72.08699    -98.0 9.716e+03 7.548e-11
 72.12555    -98.2 1.011e+04 8.725e-11
 72.14537    -96.5 1.004e+04 1.059e-10
 72.16624    -96.9 1.032e+04 1.657e-10
 72.18656    -97.3 1.068e+04 3.153e-10
 72.20638    -97.7 1.065e+04 2.825e-10
 72.24549    -98.6 1.127e+04 5.106e-10
 72.27512    -99.4 1.174e+04 7.371e-10
 72.29259   -100.4 1.199e+04 8.957e-10
 72.30250    -99.8 1.199e+04 8.887e-10
 72.31465   -100.9 1.231e+04 1.163e-09
 72.33446   -101.9 1.259e+04 1.387e-09
 72.35249   -103.0 1.282e+04 1.570e-09
 72.36239   -103.3 1.304e+04 1.767e-09
 72.37409   -104.7 1.314e+04 1.856e-09
 72.39390   -106.2 1.310e+04 1.856e-09
 72.41371   -107.4 1.270e+04 1.611e-09
 72.44011   -108.7 1.211e+04 1.170e-09
 72.45993   -108.5 1.214e+04 1.211e-09
 72.48316   -109.3 1.175e+04 9.446e-10
 72.51880   -110.5 1.144e+04 7.922e-10
 72.53861   -111.9 1.156e+04 8.891e-10
 72.56251   -113.6 1.132e+04 7.874e-10
 72.60214   -115.0 1.123e+04 7.640e-10
 72.64176   -116.0 1.106e+04 7.544e-10
 72.68139   -116.3 1.079e+04 6.602e-10
 72.72102   -116.4 1.053e+04 4.938e-10
 72.75487   -116.3 1.019e+04 3.253e-10
 72.77468   -115.0 1.012e+04 3.355e-10
 72.80027   -114.5 9.899e+03 2.272e-10
 72.83990   -113.8 9.689e+03 1.502e-10
 72.87085   -113.0 9.529e+03 1.049e-10
 72.89066   -113.6 9.443e+03 9.227e-11
 72.91915   -112.6 9.308e+03 7.587e-11
 72.95878   -111.5 9.264e+03 6.853e-11
 72.99841   -110.3 9.246e+03 6.345e-11
 73.03803   -109.2 9.264e+03 5.979e-11
 73.06952   -108.0 9.277e+03 5.766e-11
 73.08934   -107.5 9.298e+03 6.101e-11
 73.11729   -106.4 9.286e+03 6.014e-11
 73.15691   -105.2 9.264e+03 5.882e-11
 73.19654   -104.0 9.262e+03 5.553e-11
 73.22290   -102.7 9.295e+03 5.038e-11
 73.24271   -102.9 9.296e+03 4.400e-11
 73.27579   -101.5 9.320e+03 4.076e-11
 73.31542   -100.2 9.347e+03 3.756e-11
 73.35505    -99.0 9.378e+03 3.603e-11
 73.38418    -98.0 9.408e+03 3.569e-11
 73.40399    -97.9 9.457e+03 3.542e-11
 73.43430    -97.1 9.523e+03 3.897e-11
 73.47393    -96.3 9.470e+03 5.002e-11
 73.51356    -95.3 9.417e+03 6.649e-11
 73.55318    -94.2 9.409e+03 8.421e-11
 73.57495    -93.2 9.428e+03 9.956e-11
 73.59476    -93.2 9.429e+03 9.945e-11
 73.63244    -92.3 9.446e+03 1.089e-10
 73.67206    -91.6 9.448e+03 1.113e-10
 73.69884    -90.9 9.442e+03 1.109e-10
 73.71865    -91.0 9.445e+03 1.218e-10
 73.75132    -90.4 9.386e+03 1.154e-10
 73.79095    -89.8 9.375e+03 1.120e-10
 73.83057    -89.2 9.374e+03 1.134e-10
 73.87020    -88.7 9.442e+03 1.337e-10
 73.90718    -88.4 9.599e+03 1.685e-10
 73.92699    -88.5 9.609e+03 1.699e-10
 73.94945    -88.4 9.854e+03 2.255e-10
 73.98908    -88.5 1.024e+04 3.021e-10
 74.01340    -88.2 1.044e+04 3.589e-10
 74.03321    -88.1 1.023e+04 3.166e-10
 74.05833    -88.5 1.054e+04 3.994e-10
 74.07804    -89.1 1.068e+04 5.097e-10
 74.09292    -89.2 1.082e+04 6.638e-10
 74.10282    -88.9 1.070e+04 5.841e-10
 74.11767    -88.8 1.085e+04 7.241e-10
 74.13749    -88.3 1.093e+04 8.210e-10
 74.15730    -87.6 1.093e+04 8.409e-10
 74.17063    -86.8 1.076e+04 7.760e-10
 74.18053    -86.8 1.080e+04 8.165e-10
 74.19693    -86.0 1.059e+04 6.805e-10
 74.22674    -85.5 1.032e+04 4.399e-10
 74.25923    -84.8 9.923e+03 2.712e-10
 74.27904    -84.2 1.009e+04 3.359e-10
 74.30610    -82.8 9.646e+03 1.916e-10
 74.32815    -81.2 9.305e+03 1.083e-10
 74.34796    -80.6 9.657e+03 2.220e-10
 74.38535    -79.0 9.363e+03 1.349e-10
 74.42498    -77.3 9.218e+03 8.620e-11
 74.46460    -75.8 9.083e+03 6.471e-11
 74.50423    -74.1 8.854e+03 5.915e-11
 74.54386    -72.2 8.815e+03 5.808e-11
 74.58348    -70.2 8.797e+03 5.789e-11
 74.61128    -68.1 8.766e+03 6.069e-11
 74.63097    -67.8 8.803e+03 5.661e-11
 74.66262    -65.5 8.859e+03 6.994e-11
 74.70236    -63.4 8.873e+03 7.899e-11
 74.74199    -61.2 8.894e+03 8.871e-11
 74.78162    -59.0 8.919e+03 9.362e-11
 74.82125    -57.0 8.923e+03 9.362e-11
 74.86087    -55.0 8.916e+03 9.169e-11
 74.90050    -53.1 8.911e+03 9.108e-11
 74.93765    -51.2 8.921e+03 9.371e-11
 74.95746    -50.9 9.040e+03 1.166e-10
 74.96333    -48.9 9.021e+03 1.107e-10
 74.98314    -48.7 9.078e+03 1.159e-10
 75.01938    -46.7 9.091e+03 1.133e-10
 75.05901    -44.8 9.114e+03 1.088e-10
 75.09863    -43.0 9.179e+03 1.042e-10
 75.13826    -41.3 9.241e+03 1.030e-10
 75.17789    -39.7 9.295e+03 1.069e-10
 75.21751    -38.0 9.326e+03 1.154e-10
 75.25231    -36.2 9.384e+03 1.242e-10
 75.27212    -36.5 9.309e+03 1.241e-10
 75.29556    -34.6 9.383e+03 1.240e-10
 75.31538    -34.3 9.441e+03 1.470e-10
 75.33640    -32.7 9.507e+03 1.309e-10
 75.37602    -31.3 9.519e+03 1.277e-10
 75.41565    -29.6 9.420e+03 1.444e-10
 75.45528    -27.2 9.368e+03 1.585e-10
 75.49490    -24.7 9.438e+03 1.423e-10
 75.53453    -22.9 9.626e+03 1.092e-10
 75.56696    -21.5 9.731e+03 1.049e-10
 75.58678    -21.8 9.684e+03 9.929e-11
 75.61378    -21.2 9.804e+03 1.332e-10
 75.64761    -19.6 9.752e+03 2.202e-10
 75.66742    -19.4 9.744e+03 2.143e-10
 75.69304    -16.7 9.815e+03 3.165e-10
 75.73266    -14.7 9.885e+03 3.199e-10
 75.77229    -12.2 9.729e+03 2.529e-10
 75.81192    -10.2 9.664e+03 1.650e-10
 75.85155     -9.1 9.660e+03 1.127e-10
 75.88162     -7.8 9.481e+03 1.004e-10
 75.90143     -8.3 9.729e+03 1.102e-10
 75.93080     -7.2 9.786e+03 1.387e-10
 75.97043     -5.5 9.810e+03 1.998e-10
 75.99966     -3.4 9.947e+03 2.567e-10
 76.01947     -3.2 9.825e+03 2.070e-10
 76.04968     -1.2 1.001e+04 2.366e-10
 76.08931      0.4 1.010e+04 2.307e-10
 76.12893      1.6 1.017e+04 2.033e-10
 76.16856      2.5 1.011e+04 1.857e-10
 76.19628      3.6 9.980e+03 1.849e-10
 76.21609      3.1 1.015e+04 2.627e-10
 76.24782      4.6 1.005e+04 2.495e-10
 76.28744      6.0 1.006e+04 2.486e-10
 76.32707      7.2 1.011e+04 2.659e-10
 76.35171      8.3 1.026e+04 3.262e-10
 76.37152      8.4 1.024e+04 3.236e-10
 76.40632      9.8 1.042e+04 4.117e-10
 76.44595     11.1 1.055e+04 4.672e-10
 76.48558     12.3 1.056e+04 4.619e-10
 76.51093     13.4 1.048e+04 4.208e-10
 76.53075     12.5 1.040e+04 3.887e-10
 76.56483     13.7 1.021e+04 3.102e-10
 76.60446     14.8 1.002e+04 2.418e-10
 76.64408     16.1 9.857e+03 2.076e-10
 76.68371     17.6 9.813e+03 2.086e-10
 76.70376     19.3 9.853e+03 2.280e-10
 76.72357     19.5 9.817e+03 2.019e-10
 76.76297     21.1 9.878e+03 2.349e-10
 76.80259     22.9 1.015e+04 3.323e-10
 76.82559     24.7 1.073e+04 5.133e-10
 76.84540     23.8 1.060e+04 4.942e-10
 76.88185     25.0 1.115e+04 6.912e-10
 76.91147     25.6 1.142e+04 9.040e-10
 76.93118     26.1 1.165e+04 1.083e-09
 76.95100     26.6 1.185e+04 1.269e-09
 76.97081     27.1 1.200e+04 1.468e-09
 76.98272     27.7 1.213e+04 1.563e-09
 76.99263     27.3 1.201e+04 1.377e-09
 77.01044     27.5 1.203e+04 1.401e-09
 77.03589     27.9 1.214e+04 1.514e-09
 77.05581     28.6 1.175e+04 1.223e-09
 77.07998     29.4 1.155e+04 1.113e-09
 77.11961     30.4 1.113e+04 8.474e-10
 77.14025     31.6 1.054e+04 5.299e-10
 77.16006     31.6 1.060e+04 5.605e-10
 77.19886     33.0 1.008e+04 3.177e-10
 77.23849     34.2 9.684e+03 1.925e-10
 77.27812     35.6 9.382e+03 1.498e-10
 77.31774     37.5 9.246e+03 1.391e-10
 77.35737     39.6 9.185e+03 1.313e-10
 77.38804     41.7 9.149e+03 1.224e-10
 77.40785     42.4 9.147e+03 1.216e-10
 77.43509     44.3 9.115e+03 1.136e-10
 77.45490     44.4 9.103e+03 9.624e-11
 77.47625     46.2 9.121e+03 9.813e-11
 77.51588     47.8 9.155e+03 1.061e-10
 77.55550     49.3 9.449e+03 1.439e-10
 77.59513     50.5 9.950e+03 2.186e-10
 77.62475     49.9 1.055e+04 3.456e-10
 77.64447     49.5 1.100e+04 5.600e-10
 77.66428     49.6 1.141e+04 8.958e-10
 77.68410     50.2 1.175e+04 1.278e-09
 77.70391     50.8 1.199e+04 1.542e-09
 77.72372     51.5 1.208e+04 1.641e-09
 77.73989     52.2 1.205e+04 1.571e-09
 77.74980     52.3 1.205e+04 1.550e-09
 77.75946     52.8 1.196e+04 1.371e-09
 77.76936     52.6 1.217e+04 1.454e-09
 77.78316     52.6 1.197e+04 1.198e-09
 77.80298     52.4 1.184e+04 1.005e-09
 77.82279     52.2 1.169e+04 8.945e-10
 77.84260     52.3 1.159e+04 8.873e-10
 77.86242     52.5 1.162e+04 9.181e-10
 77.88223     52.9 1.166e+04 9.719e-10
 77.91205     53.5 1.208e+04 1.221e-09
 77.94177     53.3 1.255e+04 1.530e-09
 77.96148     53.1 1.279e+04 1.732e-09
 77.98130     52.9 1.320e+04 2.157e-09
 78.00111     52.9 1.359e+04 2.689e-09
 78.02093     53.1 1.388e+04 3.162e-09
 78.04074     53.2 1.397e+04 3.272e-09
 78.06055     53.1 1.393e+04 3.213e-09
 78.07411     53.1 1.374e+04 2.958e-09
 78.08402     52.5 1.370e+04 2.906e-09
 78.09194     52.4 1.331e+04 2.394e-09
 78.10185     52.4 1.385e+04 3.137e-09
 78.11999     52.2 1.331e+04 2.435e-09
 78.13981     52.0 1.280e+04 1.873e-09
 78.15962     51.8 1.228e+04 1.424e-09
 78.17943     51.4 1.191e+04 1.198e-09
 78.19925     51.4 1.153e+04 9.921e-10
 78.21906     51.6 1.113e+04 8.207e-10
 78.23144     52.1 1.081e+04 6.794e-10
 78.24135     51.8 1.060e+04 5.626e-10
 78.25806     52.2 1.040e+04 4.595e-10
 78.26797     51.9 1.030e+04 3.882e-10
 78.27850     51.8 1.020e+04 3.482e-10
 78.30832     52.8 1.019e+04 3.489e-10
 78.34804     53.7 1.001e+04 3.028e-10
 78.37906     54.8 9.814e+03 2.577e-10
 78.39887     54.2 9.754e+03 2.537e-10
 78.42437     55.0 9.582e+03 2.121e-10
 78.44419     54.2 9.656e+03 2.408e-10
 78.46692     54.9 9.573e+03 2.133e-10
 78.50655     55.5 9.521e+03 1.986e-10
 78.54618     56.2 9.535e+03 2.004e-10
 78.58580     56.8 9.632e+03 2.192e-10
 78.62543     57.5 9.901e+03 2.739e-10
 78.66506     57.9 1.023e+04 3.632e-10
 78.69362     57.2 1.059e+04 5.149e-10
 78.70343     56.6 1.072e+04 6.018e-10
 78.71440     56.8 1.094e+04 7.447e-10
 78.73421     57.1 1.118e+04 8.761e-10
 78.75402     57.4 1.135e+04 9.354e-10
 78.77384     57.6 1.135e+04 9.272e-10
 78.78613     57.8 1.129e+04 8.754e-10
 78.79604     56.6 1.134e+04 8.799e-10
 78.81346     56.8 1.117e+04 7.695e-10
 78.83328     56.7 1.098e+04 6.434e-10
 78.85085     56.5 1.079e+04 5.286e-10
 78.86075     56.4 1.065e+04 4.539e-10
 78.87290     56.0 1.047e+04 3.902e-10
 78.89272     55.5 1.037e+04 3.656e-10
 78.91253     55.5 1.035e+04 3.636e-10
 78.93234     55.8 1.036e+04 3.684e-10
 78.95216     55.9 1.038e+04 3.760e-10
 78.97197     55.1 1.043e+04 4.040e-10
 78.99178     55.1 1.049e+04 4.579e-10
 79.00818     55.2 1.064e+04 5.598e-10
 79.01808     55.6 1.051e+04 4.770e-10
 79.03141     55.8 1.068e+04 5.952e-10
 79.05123     56.3 1.094e+04 7.031e-10
 79.07104     56.7 1.121e+04 7.355e-10
 79.09085     56.9 1.124e+04 7.250e-10
 79.11067     57.1 1.127e+04 6.757e-10
 79.12828     57.3 1.123e+04 5.846e-10
 79.13818     56.1 1.103e+04 4.844e-10
 79.15029     56.0 1.091e+04 4.110e-10
 79.16550     56.0 1.072e+04 3.494e-10
 79.17541     56.4 1.078e+04 3.511e-10
 79.18992     56.3 1.051e+04 3.079e-10
 79.20973     56.0 1.054e+04 3.083e-10
 79.22955     53.8 1.196e+04 3.733e-10
 79.24936     43.9 1.681e+04 1.348e-09
 79.26917     36.8 1.856e+04 5.013e-09
 79.28398     33.6 1.926e+04 1.403e-08
 79.29384     34.0 1.967e+04 2.790e-08
 79.30375     35.0 2.040e+04 3.712e-08
 79.30916     34.9 2.062e+04 3.652e-08
 79.31411     34.8 2.072e+04 4.245e-08
 79.32278     33.1 2.097e+04 2.495e-08
 79.33274     33.4 2.126e+04 2.297e-08
 79.34843     28.0 2.273e+04 5.482e-09
 79.36824     14.0 1.904e+04 9.344e-10
 79.38805      3.9 1.056e+04 6.169e-10
 79.40787      3.2 1.018e+04 5.284e-10
 79.42768      2.9 1.008e+04 4.744e-10
 79.44749      2.7 9.895e+03 4.016e-10
 79.46731      2.3 9.796e+03 3.736e-10
 79.48042      2.7 9.584e+03 3.255e-10
 79.50033      1.8 9.589e+03 3.242e-10
 79.53685      2.0 9.521e+03 2.996e-10
 79.57648      2.3 9.561e+03 3.010e-10
 79.61610      2.3 9.668e+03 3.166e-10
 79.63759      2.3 9.713e+03 3.266e-10
 79.64740      2.7 9.662e+03 3.146e-10
 79.65635      2.1 9.818e+03 3.599e-10
 79.66626      2.2 9.741e+03 3.459e-10
 79.68526      1.6 9.959e+03 4.383e-10
 79.70507      1.0 1.041e+04 6.025e-10
 79.72488      0.4 1.108e+04 8.714e-10
 79.74470     -0.2 1.181e+04 1.278e-09
 79.76451     -0.8 1.246e+04 1.776e-09
 79.78432     -1.5 1.305e+04 2.251e-09
 79.79482     -2.4 1.345e+04 2.500e-09
 79.80472     -2.4 1.351e+04 2.511e-09
 79.82247     -3.6 1.386e+04 2.833e-09
 79.83237     -2.2 1.297e+04 1.970e-09
 79.84376     -3.8 1.330e+04 2.083e-09
 79.86358     -7.4 1.408e+04 2.377e-09
 79.88339    -13.2 1.539e+04 3.383e-09
 79.90320    -17.1 1.548e+04 4.593e-09
 79.92302    -20.3 1.592e+04 5.834e-09
 79.94224    -23.6 1.640e+04 6.568e-09
 79.95215    -23.2 1.683e+04 7.403e-09
 79.96264    -26.1 1.604e+04 6.575e-09
 79.98246    -28.6 1.475e+04 4.975e-09
 79.99849    -30.7 1.400e+04 3.654e-09
 80.00840    -30.0 1.399e+04 3.702e-09
 80.02209    -32.4 1.352e+04 2.648e-09
 80.04190    -35.8 1.255e+04 1.880e-09
 80.06171    -38.7 1.170e+04 1.513e-09
 80.08153    -39.8 1.138e+04 1.421e-09
 80.09957    -40.2 1.135e+04 1.453e-09
 80.10947    -40.4 1.133e+04 1.451e-09
 80.12115    -41.0 1.159e+04 1.526e-09
 80.14097    -42.2 1.194e+04 1.634e-09
 80.16078    -44.0 1.225e+04 1.784e-09
 80.17451    -45.7 1.236e+04 1.969e-09
 80.18442    -45.9 1.205e+04 1.759e-09
 80.20041    -46.9 1.216e+04 1.960e-09
 80.22022    -47.3 1.232e+04 2.047e-09
 80.24003    -47.8 1.222e+04 1.908e-09
 80.25690    -48.5 1.191e+04 1.581e-09
 80.26680    -49.5 1.165e+04 1.353e-09
 80.27966    -50.9 1.097e+04 9.246e-10
 80.29947    -52.4 1.015e+04 5.889e-10
 80.31929    -54.1 9.550e+03 3.868e-10
 80.33910    -56.5 9.628e+03 3.026e-10
 80.36892    -62.4 1.011e+04 2.799e-10
 80.40864    -72.4 1.211e+04 6.077e-10
 80.43827    -79.0 1.317e+04 1.978e-09
 80.45798    -82.4 1.418e+04 2.526e-09
 80.47780    -86.9 1.436e+04 2.601e-09
 80.49761    -91.8 1.368e+04 2.115e-09
 80.51666    -95.6 1.253e+04 1.638e-09
 80.52656    -95.5 1.231e+04 1.553e-09
 80.53724    -97.3 1.172e+04 1.286e-09
 80.55705    -98.4 1.135e+04 1.089e-09
 80.57155    -99.4 1.108e+04 9.228e-10
 80.58146   -101.6 1.114e+04 8.991e-10
 80.59668   -103.1 1.110e+04 8.524e-10
 80.61649   -105.1 1.155e+04 8.943e-10
 80.63630   -107.4 1.246e+04 1.240e-09
 80.65612   -109.5 1.352e+04 2.020e-09
 80.67593   -111.3 1.456e+04 3.285e-09
 80.69268   -112.7 1.547e+04 4.827e-09
 80.70259   -112.1 1.565e+04 5.022e-09
 80.71556   -113.5 1.633e+04 6.718e-09
 80.72888   -115.1 1.654e+04 7.418e-09
 80.73879   -116.4 1.649e+04 7.154e-09
 80.75518   -117.9 1.602e+04 5.907e-09
 80.77500   -119.4 1.495e+04 3.822e-09
 80.79481   -121.0 1.356e+04 2.297e-09
 80.81462   -122.5 1.222e+04 1.456e-09
 80.83444   -123.2 1.127e+04 1.024e-09
 80.85425   -123.4 1.070e+04 7.933e-10
 80.86871   -123.2 1.038e+04 6.494e-10
 80.87861   -123.2 1.042e+04 6.479e-10
 80.88621   -122.5 1.014e+04 5.409e-10
 80.89612   -122.5 1.002e+04 5.056e-10
 80.91369   -121.6 9.885e+03 4.384e-10
 80.93350   -120.7 9.828e+03 3.933e-10
 80.96332   -119.9 9.872e+03 3.675e-10
 81.00305   -118.2 9.851e+03 3.378e-10
 81.04267   -116.0 9.782e+03 3.129e-10
 81.08230   -113.8 9.778e+03 3.066e-10
 81.12193   -111.9 9.924e+03 3.141e-10
 81.16155   -110.4 1.047e+04 4.208e-10
 81.19106   -109.5 1.084e+04 5.796e-10
 81.20087   -109.7 1.085e+04 5.994e-10
 81.21085   -109.7 1.113e+04 7.725e-10
 81.23066   -108.4 1.149e+04 1.036e-09
 81.25052   -107.7 1.180e+04 1.296e-09
 81.27033   -107.0 1.205e+04 1.510e-09
 81.29015   -106.3 1.217e+04 1.617e-09
 81.30996   -105.8 1.219e+04 1.638e-09
 81.32977   -105.3 1.211e+04 1.577e-09
 81.34829   -104.9 1.198e+04 1.440e-09
 81.35819   -105.1 1.148e+04 1.098e-09
 81.36940   -105.0 1.136e+04 1.015e-09
 81.38687   -105.1 1.127e+04 9.651e-10
 81.39678   -104.2 1.147e+04 1.063e-09
 81.40903   -104.2 1.143e+04 1.041e-09
 81.42884   -104.3 1.138e+04 1.031e-09
 81.44865   -104.3 1.131e+04 1.013e-09
 81.46847   -104.4 1.121e+04 9.813e-10
 81.48828   -104.3 1.104e+04 9.121e-10
 81.50561   -104.3 1.083e+04 8.332e-10
 81.51552   -103.9 1.101e+04 9.078e-10
 81.52791   -103.8 1.086e+04 8.399e-10
 81.54772   -103.8 1.069e+04 7.721e-10
 81.56290   -103.8 1.052e+04 7.116e-10
 81.57280   -103.1 1.063e+04 7.386e-10
 81.58735   -103.1 1.047e+04 6.903e-10
 81.60716   -103.1 1.034e+04 6.550e-10
 81.62698   -103.0 1.028e+04 6.327e-10
 81.64679   -103.0 1.023e+04 6.157e-10
 81.66294   -103.1 1.021e+04 6.122e-10
 81.67285   -102.9 1.019e+04 5.941e-10
 81.68642   -103.1 1.017e+04 5.908e-10
 81.70623   -103.3 1.020e+04 5.976e-10
 81.72604   -103.5 1.024e+04 6.058e-10
 81.73892   -103.8 1.029e+04 6.094e-10
 81.74883   -103.3 1.043e+04 6.782e-10
 81.76567   -103.7 1.049e+04 6.834e-10
 81.78548   -104.4 1.055e+04 6.861e-10
 81.80530   -105.5 1.071e+04 6.928e-10
 81.82027   -106.9 1.100e+04 7.349e-10
 81.83018   -106.4 1.069e+04 6.309e-10
 81.84492   -108.0 1.099e+04 6.999e-10
 81.86474   -109.5 1.126e+04 8.272e-10
 81.88455   -110.6 1.140e+04 9.783e-10
 81.90436   -111.4 1.141e+04 1.074e-09
 81.91494   -111.9 1.139e+04 1.090e-09
 81.92485   -111.4 1.145e+04 1.147e-09
 81.94399   -111.4 1.114e+04 1.080e-09
 81.96381   -111.2 1.092e+04 7.983e-10
 81.97760   -111.5 1.066e+04 5.225e-10
 81.98751   -111.2 1.052e+04 5.231e-10
 82.00343   -112.0 1.027e+04 3.658e-10
 82.03325   -112.6 9.935e+03 2.777e-10
 82.07297   -113.3 9.339e+03 1.830e-10
 82.11260   -113.6 9.032e+03 1.507e-10
 82.13512   -113.6 8.976e+03 1.461e-10
 82.15494   -113.1 8.984e+03 1.469e-10
 82.19186   -113.1 8.973e+03 1.575e-10
 82.23148   -113.0 9.009e+03 1.818e-10
 82.25728   -113.0 9.015e+03 1.926e-10
 82.27710   -111.8 9.031e+03 1.934e-10
 82.31074   -111.8 9.004e+03 1.945e-10
 82.35036   -111.6 8.809e+03 1.653e-10
 82.38999   -111.5 8.589e+03 1.273e-10
 82.42962   -111.3 8.433e+03 1.066e-10
 82.44978   -110.6 8.383e+03 1.018e-10
 82.46959   -110.4 8.340e+03 1.075e-10
 82.50887   -109.5 8.352e+03 1.122e-10
 82.54850   -108.5 8.447e+03 1.289e-10
 82.58812   -107.2 8.517e+03 1.458e-10
 82.60933   -105.8 8.584e+03 1.594e-10
 82.62914   -104.6 8.606e+03 1.521e-10
 82.66738   -103.1 8.738e+03 1.721e-10
 82.70701   -102.5 9.144e+03 2.149e-10
 82.74462   -103.9 1.089e+04 4.419e-10
 82.76444   -105.1 1.070e+04 3.656e-10
 82.77535   -108.2 1.260e+04 1.072e-09
 82.78516   -106.9 1.270e+04 1.053e-09
 82.79597   -108.5 1.357e+04 1.801e-09
 82.81578   -109.9 1.428e+04 4.015e-09
 82.83560   -110.2 1.499e+04 5.116e-09
 82.85541   -112.0 1.557e+04 5.256e-09
 82.87522   -116.8 1.652e+04 4.715e-09
 82.89504   -124.7 1.746e+04 4.183e-09
 82.91166   -132.4 1.768e+04 5.149e-09
 82.92157   -133.5 1.756e+04 6.557e-09
 82.93466   -136.6 1.723e+04 8.719e-09
 82.95128   -137.7 1.713e+04 9.676e-09
 82.96118   -136.8 1.705e+04 8.930e-09
 82.97429   -137.7 1.698e+04 9.376e-09
 82.99411   -138.7 1.663e+04 7.737e-09
 83.01392   -140.2 1.589e+04 4.744e-09
 83.03373   -142.5 1.461e+04 2.369e-09
 83.05355   -145.2 1.275e+04 1.103e-09
 83.06899   -147.5 1.097e+04 5.877e-10
 83.07890   -148.3 1.053e+04 4.540e-10
 83.09317   -148.8 1.031e+04 3.531e-10
 83.11299   -148.9 1.026e+04 3.097e-10
 83.14280   -148.8 1.021e+04 2.843e-10
 83.18253   -149.1 1.024e+04 2.784e-10
 83.22216   -149.3 1.036e+04 2.876e-10
 83.26178   -149.7 1.059e+04 3.179e-10
 83.29141   -150.3 1.074e+04 3.376e-10
 83.30333   -150.9 1.085e+04 3.739e-10
 83.31323   -150.2 1.080e+04 3.788e-10
 83.33093   -151.5 1.111e+04 4.941e-10
 83.35075   -152.7 1.143e+04 6.808e-10
 83.37056   -153.8 1.182e+04 9.489e-10
 83.38365   -154.6 1.221e+04 1.247e-09
 83.39355   -154.8 1.191e+04 1.084e-09
 83.41019   -155.5 1.217e+04 1.327e-09
 83.43000   -156.1 1.230e+04 1.464e-09
 83.44982   -156.8 1.231e+04 1.496e-09
 83.46944   -157.2 1.219e+04 1.479e-09
 83.47935   -156.6 1.214e+04 1.324e-09
 83.48944   -156.8 1.190e+04 1.212e-09
 83.50926   -156.8 1.160e+04 1.004e-09
 83.52907   -156.7 1.127e+04 7.890e-10
 83.54098   -156.4 1.090e+04 5.992e-10
 83.55088   -156.0 1.071e+04 5.152e-10
 83.56870   -155.6 1.052e+04 4.246e-10
 83.58851   -155.5 1.048e+04 4.014e-10
 83.61833   -155.4 1.044e+04 3.667e-10
 83.64566   -154.7 1.025e+04 3.118e-10
 83.66548   -153.9 1.030e+04 3.433e-10
 83.68859   -152.6 1.017e+04 3.228e-10
 83.70841   -152.6 9.945e+03 2.842e-10
 83.73731   -151.3 9.915e+03 2.829e-10
 83.77693   -149.9 9.912e+03 2.856e-10
 83.81656   -148.6 9.928e+03 3.017e-10
 83.85619   -147.2 9.978e+03 3.290e-10
 83.89581   -145.7 1.005e+04 3.622e-10
 83.93544   -144.3 1.014e+04 3.981e-10
 83.97507   -143.1 1.023e+04 4.364e-10
 83.99771   -142.1 1.033e+04 4.820e-10
 84.00608   -141.4 1.040e+04 4.676e-10
 84.02306   -141.8 1.008e+04 3.891e-10
 84.05432   -141.3 1.023e+04 4.480e-10
 84.08394   -141.3 1.038e+04 5.208e-10
 84.10366   -141.4 1.046e+04 5.663e-10
 84.13348   -141.6 1.047e+04 5.826e-10
 84.17320   -141.8 1.058e+04 6.250e-10
 84.20282   -141.6 1.055e+04 5.982e-10
 84.22254   -141.6 1.053e+04 5.924e-10
 84.24235   -141.4 1.037e+04 5.209e-10
 84.26217   -141.3 1.027e+04 4.718e-10
 84.29199   -141.5 1.018e+04 4.117e-10
 84.31791   -141.5 1.006e+04 3.528e-10
 84.33596   -141.2 9.808e+03 2.936e-10
 84.34976   -140.5 9.868e+03 3.068e-10
 84.37134   -140.3 9.827e+03 2.865e-10
 84.41096   -140.3 9.888e+03 2.924e-10
 84.45059   -140.4 1.018e+04 3.916e-10
 84.47514   -140.3 1.043e+04 5.429e-10
 84.48495   -140.0 1.039e+04 5.271e-10
 84.49993   -140.2 1.049e+04 5.937e-10
 84.51568   -140.4 1.068e+04 7.636e-10
 84.52559   -140.1 1.062e+04 7.343e-10
 84.53956   -140.1 1.075e+04 7.949e-10
 84.55937   -140.1 1.077e+04 8.110e-10
 84.57918   -140.1 1.077e+04 8.097e-10
 84.59900   -140.1 1.071e+04 7.566e-10
 84.61881   -140.0 1.062e+04 6.755e-10
 84.63237   -140.0 1.052e+04 5.935e-10
 84.64227   -139.9 1.048e+04 6.206e-10
 84.65844   -139.9 1.040e+04 5.577e-10
 84.68190   -139.9 1.031e+04 5.097e-10
 84.70171   -139.6 1.040e+04 4.889e-10
 84.72788   -139.5 1.031e+04 4.680e-10
 84.76761   -139.2 1.014e+04 3.952e-10
 84.80723   -138.9 9.995e+03 3.455e-10
 84.84686   -138.7 9.857e+03 3.129e-10
 84.88649   -138.3 9.728e+03 2.948e-10
 84.92611   -137.8 9.623e+03 2.798e-10
 84.94722   -137.1 9.507e+03 2.591e-10
 84.96703   -136.9 9.478e+03 2.686e-10
 85.00537   -136.2 9.347e+03 2.237e-10
 85.03404   -135.4 9.183e+03 1.884e-10
 85.05386   -135.5 9.440e+03 2.256e-10
 85.08462   -134.9 9.401e+03 2.053e-10
 85.12425   -134.3 9.411e+03 2.016e-10
 85.16388   -134.0 9.576e+03 2.207e-10
 85.20350   -133.8 9.833e+03 3.017e-10
 85.24206   -133.6 1.008e+04 4.277e-10
 85.26188   -133.4 1.014e+04 4.839e-10
 85.28276   -133.0 1.032e+04 5.785e-10
 85.32238   -132.6 1.046e+04 6.382e-10
 85.36201   -132.2 1.051e+04 6.502e-10
 85.38600   -131.9 1.059e+04 6.782e-10
 85.39580   -132.7 1.065e+04 6.851e-10
 85.40910   -132.5 1.062e+04 6.705e-10
 85.41901   -131.8 1.041e+04 5.742e-10
 85.43116   -131.6 1.041e+04 5.699e-10
 85.45098   -131.5 1.045e+04 5.711e-10
 85.47079   -131.6 1.083e+04 5.889e-10
 85.49060   -132.1 1.132e+04 6.738e-10
 85.51042   -132.7 1.173e+04 8.569e-10
 85.53023   -133.0 1.200e+04 1.160e-09
 85.55004   -133.1 1.218e+04 1.552e-09
 85.56192   -132.7 1.234e+04 1.924e-09
 85.56840   -132.7 1.261e+04 2.690e-09
 85.57634   -132.2 1.242e+04 2.256e-09
 85.58967   -131.6 1.255e+04 2.492e-09
 85.60948   -131.2 1.258e+04 2.540e-09
 85.62930   -131.0 1.258e+04 2.162e-09
 85.64911   -130.8 1.231e+04 1.758e-09
 85.67893   -130.3 1.195e+04 1.408e-09
 85.70865   -129.6 1.151e+04 1.032e-09
 85.72376   -129.3 1.130e+04 8.498e-10
 85.73334   -128.8 1.133e+04 9.259e-10
 85.73795   -129.3 1.133e+04 7.845e-10
 85.75818   -129.1 1.101e+04 5.555e-10
 85.79791   -127.8 1.078e+04 3.846e-10
 85.83753   -126.8 1.078e+04 3.596e-10
 85.87138   -125.9 1.076e+04 3.637e-10
 85.89119   -125.1 1.070e+04 3.779e-10
 85.91679   -124.2 1.066e+04 3.609e-10
 85.95641   -123.3 1.059e+04 3.275e-10
 85.99604   -122.5 1.055e+04 2.772e-10
 86.03567   -121.8 1.055e+04 2.295e-10
 86.07038   -121.1 1.067e+04 2.017e-10
 86.09019   -122.2 1.098e+04 2.947e-10
 86.11492   -121.6 1.112e+04 3.243e-10
 86.15455   -120.9 1.129e+04 4.049e-10
 86.18603   -119.9 1.146e+04 5.235e-10
 86.20585   -119.0 1.126e+04 3.869e-10
 86.23380   -117.9 1.146e+04 5.233e-10
 86.27343   -116.6 1.171e+04 6.681e-10
 86.31306   -115.5 1.199e+04 7.845e-10
 86.35268   -114.6 1.216e+04 8.356e-10
 86.39231   -114.1 1.229e+04 8.656e-10
 86.42243   -113.9 1.232e+04 8.942e-10
 86.44224   -114.2 1.228e+04 8.132e-10
 86.47156   -113.8 1.232e+04 9.496e-10
 86.50069   -113.3 1.238e+04 1.114e-09
 86.52050   -112.5 1.225e+04 9.593e-10
 86.55082   -112.1 1.231e+04 1.086e-09
 86.59045   -111.8 1.231e+04 1.178e-09
 86.63007   -111.7 1.227e+04 1.188e-09
 86.66970   -111.1 1.184e+04 9.724e-10
 86.70933   -110.1 1.139e+04 7.098e-10
 86.74895   -108.8 1.098e+04 5.101e-10
 86.77447   -107.5 1.074e+04 4.078e-10
 86.79429   -107.9 1.097e+04 4.801e-10
 86.81534   -106.4 1.086e+04 4.388e-10
 86.83516   -105.6 1.103e+04 5.010e-10
 86.86783   -104.1 1.100e+04 4.889e-10
 86.90746   -102.6 1.101e+04 4.951e-10
 86.94709   -101.4 1.106e+04 5.632e-10
 86.98671   -100.3 1.114e+04 6.636e-10
 87.02634    -99.2 1.123e+04 7.682e-10
 87.06597    -98.3 1.130e+04 8.459e-10
 87.10560    -97.4 1.133e+04 8.717e-10
 87.12652    -96.5 1.126e+04 8.526e-10
 87.13112    -97.2 1.125e+04 8.467e-10
 87.14981    -96.6 1.140e+04 9.237e-10
 87.18485    -95.5 1.112e+04 7.266e-10
 87.22448    -94.4 1.082e+04 5.386e-10
 87.26410    -93.2 1.052e+04 3.875e-10
 87.30373    -92.0 1.025e+04 2.682e-10
 87.34336    -90.8 1.001e+04 1.805e-10
 87.38298    -89.6 9.773e+03 1.294e-10
 87.42261    -88.4 9.625e+03 1.177e-10
 87.44466    -87.2 9.599e+03 1.168e-10
 87.46099    -86.3 9.933e+03 1.325e-10
 87.47857    -86.7 9.962e+03 1.562e-10
 87.50186    -85.5 9.936e+03 1.639e-10
 87.54149    -84.2 9.868e+03 1.859e-10
 87.58112    -82.8 9.806e+03 2.005e-10
 87.62075    -81.3 9.781e+03 2.033e-10
 87.66037    -79.9 9.751e+03 2.010e-10
 87.70000    -78.8 9.761e+03 1.980e-10
 87.73950    -78.2 9.870e+03 2.073e-10
 87.77913    -76.6 1.012e+04 3.125e-10
 87.81081    -76.1 1.014e+04 3.672e-10
 87.83062    -76.5 1.028e+04 4.267e-10
 87.85851    -75.9 1.035e+04 4.788e-10
 87.89813    -75.3 1.036e+04 4.853e-10
 87.93776    -74.9 1.035e+04 4.806e-10
 87.97739    -74.7 1.050e+04 4.929e-10
 88.01701    -74.8 1.089e+04 5.937e-10
 88.05416    -75.1 1.132e+04 7.071e-10
 88.07397    -74.9 1.204e+04 1.199e-09
 88.09627    -75.5 1.231e+04 1.357e-09
 88.13590    -76.5 1.218e+04 1.221e-09
 88.16286    -77.2 1.136e+04 7.460e-10
 88.18267    -78.2 1.135e+04 8.582e-10
 88.21515    -78.7 1.063e+04 5.006e-10
 88.25478    -79.2 1.037e+04 3.969e-10
 88.29440    -79.8 1.038e+04 4.088e-10
 88.33403    -80.5 1.077e+04 6.363e-10
 88.36881    -80.8 1.109e+04 9.738e-10
 88.38863    -79.7 1.079e+04 6.878e-10
 88.41328    -79.6 1.108e+04 9.980e-10
 88.45291    -79.6 1.112e+04 1.054e-09
 88.49254    -79.3 1.073e+04 7.181e-10
 88.51490    -79.1 9.976e+03 2.967e-10
 88.53472    -78.8 9.903e+03 3.713e-10
 88.57179    -78.6 9.369e+03 1.602e-10
 88.61142    -78.5 8.940e+03 8.263e-11
 88.65105    -77.9 8.554e+03 6.342e-11
 88.68347    -76.5 8.370e+03 5.956e-11
 88.70328    -75.6 8.468e+03 7.053e-11
 88.73030    -74.0 8.343e+03 6.417e-11
 88.76993    -72.3 8.274e+03 6.073e-11
 88.80955    -71.2 8.308e+03 6.082e-11
 88.84714    -72.2 8.941e+03 6.729e-11
 88.86695    -72.0 8.979e+03 6.369e-11
 88.88881    -80.9 1.216e+04 2.606e-10
 88.91843    -84.5 1.321e+04 1.649e-09
 88.93815    -84.8 1.404e+04 3.768e-09
 88.95796    -84.4 1.470e+04 5.812e-09
 88.97777    -84.2 1.490e+04 6.137e-09
 88.99759    -84.6 1.495e+04 4.099e-09
 89.00784    -89.1 1.377e+04 1.321e-09
 89.01775    -89.9 1.357e+04 1.097e-09
 89.03287    -96.7 1.094e+04 3.567e-10
 89.04278    -96.0 1.085e+04 3.190e-10
 89.05703    -98.9 9.926e+03 2.326e-10
 89.08684    -99.9 9.841e+03 2.275e-10
 89.12657   -100.8 9.791e+03 2.337e-10
 89.16620   -101.4 9.818e+03 2.632e-10
 89.19919   -101.4 9.868e+03 2.862e-10
 89.21900   -100.3 9.822e+03 2.671e-10
 89.24545   -100.2 9.863e+03 2.825e-10
 89.28508    -99.8 9.826e+03 2.594e-10
 89.31278    -99.1 9.733e+03 2.111e-10
 89.33260    -99.5 9.738e+03 2.088e-10
 89.36433    -98.8 9.734e+03 1.978e-10
 89.40396    -98.2 9.846e+03 2.059e-10
 89.44358    -97.8 1.011e+04 2.716e-10
 89.48321    -97.3 1.032e+04 3.576e-10
 89.52284    -96.8 1.045e+04 4.004e-10
 89.55124    -96.5 1.047e+04 4.062e-10
 89.57105    -94.9 1.066e+04 4.679e-10
 89.60209    -94.6 1.066e+04 4.515e-10
 89.62744    -94.1 1.046e+04 3.470e-10
 89.64725    -94.9 1.045e+04 3.991e-10
 89.68135    -94.2 1.011e+04 2.606e-10
 89.72097    -93.2 9.816e+03 1.958e-10
 89.76060    -91.9 9.650e+03 1.694e-10
 89.80023    -90.2 9.601e+03 1.578e-10
 89.83985    -88.5 9.610e+03 1.491e-10
 89.87948    -86.8 9.645e+03 1.439e-10
 89.90329    -85.3 9.691e+03 1.442e-10
 89.92310    -84.4 9.747e+03 1.499e-10
 89.94210    -83.0 9.800e+03 1.556e-10
 89.96191    -83.3 9.763e+03 1.577e-10
 89.99836    -81.9 9.830e+03 1.825e-10
 90.03799    -80.6 9.922e+03 2.044e-10
 90.07762    -79.4 1.003e+04 2.190e-10
 90.11724    -78.5 1.016e+04 2.283e-10
 90.15687    -77.8 1.033e+04 2.396e-10
 90.19650    -77.4 1.051e+04 2.649e-10
 90.23552    -77.2 1.068e+04 3.170e-10
 90.25533    -76.0 1.064e+04 3.141e-10
 90.25675    -75.7 1.083e+04 3.902e-10
 90.27657    -76.5 1.109e+04 5.463e-10
 90.31538    -76.0 1.131e+04 6.721e-10
 90.35500    -75.4 1.147e+04 7.559e-10
 90.39463    -74.7 1.150e+04 7.793e-10
 90.43426    -73.7 1.142e+04 7.205e-10
 90.47388    -72.3 1.130e+04 5.597e-10
 90.51351    -70.8 1.123e+04 4.099e-10
 90.55160    -69.6 1.123e+04 3.151e-10
 90.57141    -69.8 1.141e+04 4.640e-10
 90.58757    -68.8 1.144e+04 4.264e-10
 90.60738    -68.3 1.165e+04 5.927e-10
 90.63239    -67.6 1.169e+04 6.104e-10
 90.67202    -67.1 1.173e+04 6.616e-10
 90.71165    -66.6 1.176e+04 7.095e-10
 90.75127    -66.0 1.177e+04 7.277e-10
 90.79090    -65.3 1.173e+04 6.875e-10
 90.83053    -64.5 1.168e+04 5.895e-10
 90.86625    -63.6 1.163e+04 5.108e-10
 90.88607    -64.6 1.177e+04 6.159e-10
 90.90978    -63.4 1.164e+04 5.363e-10
 90.93962    -61.9 1.146e+04 4.797e-10
 90.95943    -61.2 1.133e+04 4.204e-10
 90.98903    -59.7 1.122e+04 3.884e-10
 91.02866    -57.9 1.108e+04 3.503e-10
 91.06829    -56.0 1.092e+04 3.055e-10
 91.10792    -53.9 1.079e+04 2.635e-10
 91.14754    -51.7 1.071e+04 2.307e-10
 91.18091    -49.4 1.066e+04 2.089e-10
 91.20072    -49.7 1.063e+04 1.776e-10
 91.22680    -47.5 1.059e+04 1.815e-10
 91.26642    -45.4 1.056e+04 1.879e-10
 91.29167    -43.3 1.055e+04 1.903e-10
 91.31148    -42.9 1.049e+04 1.851e-10
 91.34568    -40.8 1.049e+04 1.838e-10
 91.38530    -38.7 1.051e+04 1.841e-10
 91.42493    -36.6 1.055e+04 1.882e-10
 91.46456    -34.3 1.059e+04 1.933e-10
 91.49557    -31.9 1.063e+04 1.970e-10
 91.51538    -32.0 1.055e+04 1.593e-10
 91.54381    -29.7 1.051e+04 1.573e-10
 91.58344    -27.4 1.052e+04 1.569e-10
 91.62307    -25.3 1.059e+04 1.657e-10
 91.64372    -23.5 1.064e+04 1.901e-10
 91.66353    -22.8 1.065e+04 1.952e-10
 91.70232    -20.9 1.069e+04 2.366e-10
 91.74195    -19.2 1.085e+04 2.837e-10
 91.78157    -17.4 1.087e+04 3.404e-10
 91.81022    -15.4 1.071e+04 3.752e-10
 91.83004    -15.2 1.061e+04 3.385e-10
 91.86083    -12.8 1.077e+04 2.830e-10
 91.90045    -10.9 1.088e+04 2.297e-10
 91.94008     -9.1 1.084e+04 1.856e-10
 91.97595     -7.2 1.075e+04 1.487e-10
 91.99576     -7.1 1.048e+04 1.494e-10
 92.01934     -4.9 1.043e+04 1.188e-10
 92.05896     -2.9 1.059e+04 9.508e-11
 92.09859     -0.9 1.067e+04 8.360e-11
 92.12488      1.4 1.056e+04 8.043e-11
 92.14469      1.5 1.044e+04 1.060e-10
 92.17784      4.1 1.043e+04 9.710e-11
 92.21747      6.6 1.050e+04 8.609e-11
 92.25710      9.0 1.056e+04 7.807e-11
 92.29672     11.2 1.047e+04 7.717e-11
 92.32800     13.6 1.044e+04 7.840e-11
 92.34781     13.6 1.047e+04 6.758e-11
 92.37598     16.1 1.037e+04 7.876e-11
 92.41560     18.6 1.030e+04 9.068e-11
 92.43954     21.1 1.027e+04 1.013e-10
 92.45935     21.0 1.034e+04 1.100e-10
 92.49486     23.5 1.036e+04 1.194e-10
 92.53449     25.8 1.042e+04 1.297e-10
 92.57411     28.1 1.050e+04 1.412e-10
 92.61374     30.4 1.057e+04 1.495e-10
 92.65337     32.6 1.060e+04 1.496e-10
 92.68005     34.9 1.059e+04 1.452e-10
 92.69986     35.0 1.048e+04 1.477e-10
 92.73262     37.3 1.043e+04 1.427e-10
 92.75419     39.7 1.038e+04 1.305e-10
 92.77401     39.4 1.046e+04 1.220e-10
 92.81187     41.7 1.045e+04 1.069e-10
 92.85150     43.9 1.046e+04 9.830e-11
 92.89113     46.0 1.047e+04 9.657e-11
 92.93075     48.2 1.046e+04 1.010e-10
 92.97038     50.4 1.042e+04 1.122e-10
 93.01001     52.8 1.039e+04 1.286e-10
 93.03210     55.2 1.039e+04 1.470e-10
 93.05131     55.7 1.038e+04 1.395e-10
 93.06885     55.7 1.039e+04 1.437e-10
 93.08926     58.1 1.041e+04 1.562e-10
 93.12889     60.6 1.046e+04 1.631e-10
 93.16852     63.0 1.050e+04 1.626e-10
 93.20814     65.3 1.052e+04 1.607e-10
 93.24777     67.6 1.056e+04 1.558e-10
 93.28740     69.9 1.060e+04 1.494e-10
 93.32702     72.1 1.066e+04 1.461e-10
 93.36369     74.4 1.070e+04 1.460e-10
 93.38119     74.4 1.087e+04 1.540e-10
 93.38414     74.8 1.093e+04 1.195e-10
 93.40628     76.9 1.102e+04 1.315e-10
 93.44590     79.1 1.108e+04 1.519e-10
 93.48553     81.2 1.112e+04 1.810e-10
 93.52516     83.3 1.114e+04 2.149e-10
 93.56479     85.4 1.112e+04 2.450e-10
 93.60441     87.6 1.106e+04 2.616e-10
 93.64404     89.8 1.096e+04 2.658e-10
 93.67835     92.1 1.090e+04 2.615e-10
 93.69816     92.4 1.103e+04 2.906e-10
 93.71638     94.8 1.094e+04 2.671e-10
 93.73619     95.4 1.085e+04 2.149e-10
 93.76292     97.8 1.078e+04 2.056e-10
 93.80255    100.3 1.077e+04 2.016e-10
 93.84217    102.8 1.078e+04 2.011e-10
 93.88180    105.2 1.084e+04 2.050e-10
 93.92143    107.6 1.093e+04 2.139e-10
 93.96105    109.9 1.099e+04 2.249e-10
 93.99301    112.1 1.105e+04 2.394e-10
 94.01282    112.2 1.114e+04 2.575e-10
 94.04031    114.3 1.124e+04 2.870e-10
 94.06843    116.3 1.139e+04 3.443e-10
 94.08824    117.0 1.153e+04 4.572e-10
 94.11956    118.8 1.164e+04 4.941e-10
 94.15919    120.1 1.168e+04 5.313e-10
 94.18881    120.9 1.165e+04 5.736e-10
 94.20853    121.8 1.170e+04 6.128e-10
 94.22834    122.7 1.170e+04 6.440e-10
 94.24426    123.4 1.168e+04 6.373e-10
 94.25416    123.5 1.178e+04 6.456e-10
 94.26797    124.2 1.167e+04 6.125e-10
 94.28778    124.7 1.160e+04 5.891e-10
 94.30747    125.5 1.147e+04 5.376e-10
 94.32738    125.6 1.135e+04 4.725e-10
 94.35732    127.1 1.116e+04 3.983e-10
 94.39695    128.7 1.096e+04 3.347e-10
 94.42048    130.2 1.079e+04 2.929e-10
 94.44029    131.0 1.078e+04 2.918e-10
 94.47621    132.5 1.063e+04 2.572e-10
 94.51583    133.9 1.056e+04 2.409e-10
 94.55546    135.5 1.052e+04 2.436e-10
 94.59509    137.1 1.043e+04 2.544e-10
 94.62232    138.7 1.039e+04 2.710e-10
 94.64213    139.1 1.043e+04 2.764e-10
 94.67434    140.7 1.044e+04 3.134e-10
 94.71397    142.4 1.046e+04 3.530e-10
 94.75271    144.0 1.048e+04 3.882e-10
 94.77253    144.6 1.049e+04 3.749e-10
 94.79322    146.2 1.053e+04 4.210e-10
 94.83285    147.7 1.053e+04 4.620e-10
 94.87247    149.7 1.055e+04 5.074e-10
 94.91210    151.1 1.063e+04 5.328e-10
 94.93688    151.9 1.059e+04 5.257e-10
 94.95669    152.2 1.053e+04 4.870e-10
 94.99136    153.4 1.049e+04 4.786e-10
 95.03098    154.8 1.040e+04 4.595e-10
 95.07061    156.2 1.033e+04 4.372e-10
 95.10476    157.8 1.026e+04 4.178e-10
 95.12457    158.4 1.031e+04 4.417e-10
 95.14986    159.8 1.029e+04 4.524e-10
 95.18949    161.2 1.028e+04 4.609e-10
 95.22912    162.5 1.028e+04 4.714e-10
 95.25163    163.5 1.030e+04 4.915e-10
 95.27144    164.1 1.005e+04 3.764e-10
 95.30837    165.0 1.020e+04 4.362e-10
 95.34800    165.8 1.034e+04 5.054e-10
 95.38762    166.5 1.068e+04 6.531e-10
 95.40886    166.4 1.090e+04 7.736e-10
 95.41867    166.7 1.086e+04 7.662e-10
 95.43696    166.8 1.099e+04 8.529e-10
 95.45661    167.0 1.114e+04 9.451e-10
 95.46652    167.3 1.121e+04 9.760e-10
 95.47659    167.3 1.139e+04 1.082e-09
 95.49640    167.2 1.159e+04 1.213e-09
 95.51622    167.0 1.181e+04 1.370e-09
 95.53603    166.8 1.203e+04 1.559e-09
 95.55584    166.6 1.228e+04 1.790e-09
 95.56609    166.4 1.256e+04 2.068e-09
 95.57600    167.0 1.234e+04 1.848e-09
 95.59547    166.7 1.272e+04 2.253e-09
 95.61528    166.2 1.322e+04 2.834e-09
 95.63264    165.5 1.386e+04 3.668e-09
 95.64255    165.6 1.383e+04 3.491e-09
 95.65491    164.3 1.464e+04 4.653e-09
 95.67472    162.6 1.557e+04 6.323e-09
 95.69454    160.4 1.656e+04 8.557e-09
 95.71351    157.7 1.747e+04 1.102e-08
 95.72342    158.3 1.806e+04 1.365e-08
 95.73417    154.9 1.877e+04 1.526e-08
 95.75398    150.8 1.881e+04 1.505e-08
 95.77379    146.7 1.859e+04 1.384e-08
 95.79361    142.8 1.794e+04 1.149e-08
 95.80866    139.3 1.701e+04 8.865e-09
 95.81857    138.8 1.638e+04 6.557e-09
 95.83323    135.6 1.543e+04 5.175e-09
 95.85305    133.3 1.454e+04 3.906e-09
 95.87084    131.8 1.374e+04 2.790e-09
 95.88075    131.9 1.375e+04 2.885e-09
 95.89267    130.8 1.312e+04 2.005e-09
 95.91249    129.8 1.253e+04 1.362e-09
 95.93230    129.0 1.197e+04 9.294e-10
 95.95211    128.3 1.157e+04 7.071e-10
 95.97193    127.7 1.127e+04 5.495e-10
 95.98469    127.3 1.109e+04 4.631e-10
 95.99459    127.3 1.103e+04 4.373e-10
 96.02156    127.6 1.080e+04 3.991e-10
 96.06128    127.7 1.047e+04 3.841e-10
 96.10091    128.0 1.045e+04 3.869e-10
 96.14054    128.2 1.041e+04 4.268e-10
 96.16091    128.3 1.049e+04 5.317e-10
 96.17634    128.3 1.049e+04 5.966e-10
 96.19560    129.2 1.076e+04 7.130e-10
 96.21979    129.1 1.086e+04 7.649e-10
 96.25942    128.8 1.081e+04 7.451e-10
 96.29904    128.7 1.055e+04 6.442e-10
 96.33867    128.9 1.013e+04 4.685e-10
 96.37830    129.2 9.650e+03 3.038e-10
 96.41792    129.5 9.222e+03 1.954e-10
 96.45755    129.9 8.973e+03 1.428e-10
 96.49044    130.8 8.946e+03 1.329e-10
 96.50622    132.4 8.866e+03 1.075e-10
 96.51296    132.7 8.735e+03 1.003e-10
 96.53681    134.0 8.710e+03 1.005e-10
 96.57643    135.6 8.707e+03 1.038e-10
 96.61606    137.3 8.751e+03 1.089e-10
 96.65569    139.1 8.840e+03 1.149e-10
 96.69531    141.0 8.963e+03 1.211e-10
 96.73494    142.9 9.105e+03 1.270e-10
 96.77457    144.9 9.232e+03 1.353e-10
 96.80510    146.7 9.371e+03 1.504e-10
 96.82491    148.0 9.319e+03 1.554e-10
 96.84519    149.8 9.553e+03 1.860e-10
 96.86500    150.0 9.558e+03 1.995e-10
 96.89345    151.7 9.893e+03 2.446e-10
 96.93308    153.2 1.028e+04 3.026e-10
 96.97270    154.3 1.063e+04 3.539e-10
 97.01233    154.8 1.077e+04 3.676e-10
 97.04195    155.8 1.101e+04 4.231e-10
 97.06167    156.4 1.115e+04 4.443e-10
 97.08148    156.7 1.122e+04 4.725e-10
 97.10129    156.7 1.120e+04 5.228e-10
 97.11956    156.4 1.133e+04 6.292e-10
 97.12947    156.3 1.182e+04 6.467e-10
 97.14092    155.0 1.221e+04 9.057e-10
 97.16073    153.1 1.299e+04 1.560e-09
 97.18055    150.9 1.407e+04 2.949e-09
 97.19704    148.3 1.548e+04 5.512e-09
 97.20695    147.7 1.535e+04 5.191e-09
 97.22018    143.9 1.690e+04 6.979e-09
 97.23999    137.9 1.809e+04 6.868e-09
 97.25980    129.6 1.837e+04 6.146e-09
 97.27689    120.6 1.765e+04 4.310e-09
 97.28680    119.8 1.576e+04 2.925e-09
 97.29943    112.9 1.363e+04 2.108e-09
 97.31924    108.6 1.188e+04 1.637e-09
 97.33906    106.6 1.111e+04 1.326e-09
 97.35887    105.8 1.076e+04 1.072e-09
 97.37307    105.2 1.040e+04 8.486e-10
 97.38298    104.8 1.055e+04 8.735e-10
 97.39850    104.2 9.991e+03 6.458e-10
 97.41831    104.1 9.660e+03 5.443e-10
 97.43432    103.8 9.410e+03 4.883e-10
 97.45423    105.2 9.035e+03 3.905e-10
 97.48785    105.4 8.699e+03 3.326e-10
 97.52748    106.3 8.536e+03 3.088e-10
 97.54929    107.7 8.519e+03 3.083e-10
 97.56910    107.3 8.514e+03 3.123e-10
 97.60673    108.9 8.600e+03 3.396e-10
 97.64636    110.4 8.802e+03 3.907e-10
 97.68599    111.9 9.052e+03 4.512e-10
 97.72561    113.2 9.273e+03 4.930e-10
 97.74907    114.2 9.336e+03 4.941e-10
 97.76888    114.6 9.413e+03 5.182e-10
 97.80487    115.5 9.372e+03 4.837e-10
 97.84449    116.4 9.238e+03 4.060e-10
 97.88152    117.1 9.062e+03 3.272e-10
 97.90134    116.9 9.079e+03 3.148e-10
 97.92375    117.4 8.934e+03 2.561e-10
 97.96338    118.1 8.935e+03 2.517e-10
 98.00300    118.9 8.960e+03 2.527e-10
 98.04263    119.7 9.075e+03 2.531e-10
 98.06373    120.5 9.221e+03 2.499e-10
 98.08354    121.7 8.973e+03 1.869e-10
 98.12188    122.6 9.130e+03 1.835e-10
 98.16151    123.7 9.261e+03 1.802e-10
 98.20114    125.0 9.372e+03 1.792e-10
 98.23357    126.3 9.512e+03 1.809e-10
 98.25339    126.1 9.534e+03 1.959e-10
 98.28039    127.5 9.649e+03 2.116e-10
 98.32002    128.9 9.736e+03 2.329e-10
 98.35857    130.2 9.778e+03 2.444e-10
 98.37838    131.3 9.663e+03 2.278e-10
 98.39927    132.6 9.717e+03 2.343e-10
 98.43890    133.9 9.712e+03 2.306e-10
 98.47853    135.2 9.667e+03 2.102e-10
 98.51815    136.5 9.564e+03 1.696e-10
 98.55778    137.9 9.433e+03 1.253e-10
 98.58562    139.2 9.288e+03 9.175e-11
 98.60543    139.1 9.295e+03 8.110e-11
 98.63703    140.5 9.125e+03 7.161e-11
 98.67323    142.1 9.095e+03 7.151e-11
 98.69304    143.2 9.172e+03 7.395e-11
 98.71629    144.8 9.164e+03 7.420e-11
 98.75591    146.5 9.147e+03 7.659e-11
 98.79554    148.1 9.158e+03 8.424e-11
 98.83517    149.5 9.213e+03 9.770e-11
 98.87479    150.9 9.304e+03 1.190e-10
 98.91442    152.1 9.470e+03 1.533e-10
 98.93767    153.3 9.743e+03 2.130e-10
 98.95748    152.5 9.806e+03 1.844e-10
 98.98788    152.8 1.014e+04 2.895e-10
 99.00770    154.2 1.011e+04 2.799e-10
 99.03330    154.3 1.052e+04 4.424e-10
 99.07293    154.2 1.110e+04 6.925e-10
 99.11256    153.6 1.183e+04 9.949e-10
 99.15218    151.9 1.245e+04 1.132e-09
 99.19181    149.5 1.251e+04 1.111e-09
 99.23144    147.1 1.237e+04 9.644e-10
 99.26990    145.2 1.184e+04 6.568e-10
 99.28972    145.2 1.190e+04 8.178e-10
 99.30254    144.0 1.126e+04 5.270e-10
 99.32235    145.7 1.167e+04 6.138e-10
 99.35032    144.6 1.102e+04 3.827e-10
 99.38995    143.9 1.048e+04 2.454e-10
 99.42957    143.6 1.015e+04 1.829e-10
 99.46920    143.6 9.995e+03 1.566e-10
 99.50883    143.8 9.911e+03 1.379e-10
 99.54845    144.4 9.840e+03 1.175e-10
 99.58808    145.0 9.746e+03 1.013e-10
 99.61720    145.8 9.669e+03 9.791e-11
 99.63126    146.1 9.700e+03 1.070e-10
 99.64177    146.2 9.696e+03 1.178e-10
 99.66733    147.2 9.687e+03 1.186e-10
 99.70696    148.3 9.666e+03 1.233e-10
 99.74659    149.3 9.668e+03 1.334e-10
 99.78621    150.2 9.693e+03 1.454e-10
 99.82584    151.1 9.725e+03 1.569e-10
 99.86547    151.9 9.755e+03 1.668e-10
 99.90510    152.6 9.783e+03 1.754e-10
 99.93185    153.2 9.810e+03 1.846e-10
 99.95167    153.5 9.609e+03 1.525e-10
 99.97400    154.1 9.640e+03 1.660e-10
 99.99382    154.3 9.558e+03 1.640e-10
