# Columns:
#   distance along LOS (in CHIMPs)
#   peculiar velocity  (in km/s)
#   temperature (K)
#   HI number density
# pos=(18.2096,22.7221,57.098), angles=(1.61022,4.4293)
  0.00801      7.8 1.056e+04 3.818e-10
  0.02619      7.7 1.088e+04 4.509e-10
  0.04196      7.4 1.124e+04 5.828e-10
  0.05213      6.4 1.125e+04 6.120e-10
  0.06691      6.2 1.152e+04 8.013e-10
  0.08726      6.3 1.173e+04 1.022e-09
  0.10748      6.5 1.191e+04 1.211e-09
  0.11766      5.6 1.172e+04 1.156e-09
  0.12798      5.8 1.180e+04 1.206e-09
  0.14833      5.6 1.180e+04 1.193e-09
  0.16869      5.3 1.177e+04 1.153e-09
  0.18318      4.7 1.171e+04 1.101e-09
  0.19336      3.7 1.155e+04 1.034e-09
  0.20940      3.0 1.144e+04 9.870e-10
  0.22976      2.4 1.142e+04 9.634e-10
  0.24871      1.8 1.146e+04 9.688e-10
  0.25888      0.6 1.146e+04 9.638e-10
  0.27048     -0.2 1.161e+04 9.935e-10
  0.29083     -1.2 1.175e+04 1.045e-09
  0.31119     -2.0 1.168e+04 1.072e-09
  0.32441     -2.5 1.150e+04 1.046e-09
  0.33459     -3.2 1.132e+04 9.760e-10
  0.35190     -3.3 1.094e+04 8.595e-10
  0.37226     -3.3 1.056e+04 7.173e-10
  0.38562     -3.4 1.024e+04 5.770e-10
  0.39312     -2.6 1.034e+04 6.279e-10
  0.40011     -3.4 1.014e+04 5.459e-10
  0.41297     -3.9 9.888e+03 4.160e-10
  0.43333     -4.6 9.725e+03 3.521e-10
  0.46396     -4.0 9.621e+03 3.147e-10
  0.50477     -3.5 9.390e+03 2.697e-10
  0.53135     -2.9 9.173e+03 2.488e-10
  0.55171     -5.8 9.308e+03 2.958e-10
  0.58620     -9.9 1.108e+04 3.117e-10
  0.60696    -13.0 1.195e+04 2.669e-10
  0.61704    -16.4 1.447e+04 6.609e-10
  0.63690    -20.7 1.727e+04 1.912e-09
  0.65725    -23.8 1.889e+04 6.304e-09
  0.67238    -25.9 1.998e+04 1.470e-08
  0.68256    -28.0 1.994e+04 1.725e-08
  0.69283    -28.7 2.066e+04 2.231e-08
  0.70296    -29.3 2.090e+04 2.577e-08
  0.71014    -29.9 2.086e+04 2.492e-08
  0.71523    -31.1 2.067e+04 1.885e-08
  0.72331    -32.9 2.062e+04 1.355e-08
  0.73349    -36.0 2.007e+04 7.849e-09
  0.74290    -39.1 1.884e+04 4.969e-09
  0.74799    -42.1 1.720e+04 3.276e-09
  0.75899    -45.1 1.588e+04 2.337e-09
  0.77939    -49.8 1.362e+04 1.423e-09
  0.79975    -53.4 1.163e+04 9.193e-10
  0.81361    -54.8 1.101e+04 7.312e-10
  0.82379    -55.7 1.055e+04 5.111e-10
  0.84046    -56.0 1.059e+04 5.080e-10
  0.86082    -56.6 1.059e+04 5.114e-10
  0.87769    -57.8 1.078e+04 5.569e-10
  0.88583    -57.9 1.090e+04 5.908e-10
  0.88931    -58.0 1.031e+04 4.183e-10
  0.90153    -59.2 1.070e+04 5.387e-10
  0.92189    -60.9 1.157e+04 8.117e-10
  0.94225    -63.4 1.282e+04 1.467e-09
  0.95484    -66.6 1.394e+04 2.681e-09
  0.96501    -66.8 1.336e+04 1.943e-09
  0.98296    -69.7 1.428e+04 3.213e-09
  0.99818    -72.3 1.487e+04 3.609e-09
  1.00831    -72.5 1.487e+04 3.607e-09
  1.01849    -76.2 1.571e+04 3.662e-09
  1.02535    -77.4 1.619e+04 3.809e-09
  1.03049    -76.0 1.543e+04 3.200e-09
  1.04403    -82.0 1.745e+04 3.093e-09
  1.06439    -87.4 1.795e+04 4.675e-09
  1.08474    -93.8 1.822e+04 6.564e-09
  1.09606    -96.5 1.759e+04 6.932e-09
  1.10624    -92.9 1.624e+04 4.403e-09
  1.12546    -94.4 1.633e+04 5.336e-09
  1.14581    -94.9 1.643e+04 4.999e-09
  1.16159    -95.0 1.632e+04 4.313e-09
  1.17176    -92.6 1.560e+04 4.236e-09
  1.18653    -92.8 1.595e+04 3.891e-09
  1.20688    -92.9 1.594e+04 3.507e-09
  1.22711    -92.9 1.606e+04 3.180e-09
  1.23729    -90.4 1.585e+04 3.505e-09
  1.24760    -90.7 1.665e+04 3.497e-09
  1.26795    -91.1 1.760e+04 3.305e-09
  1.28831    -92.1 1.973e+04 3.447e-09
  1.30281    -95.2 2.357e+04 4.355e-09
  1.30785    -97.7 2.407e+04 7.621e-09
  1.31366    -99.1 2.575e+04 9.640e-09
  1.32384   -100.0 2.812e+04 1.284e-08
  1.33401   -102.2 2.949e+04 1.904e-08
  1.34056   -104.1 2.921e+04 3.442e-08
  1.34565   -106.0 3.003e+04 6.606e-08
  1.35437   -107.4 2.622e+04 1.743e-07
  1.36455   -107.8 2.356e+04 4.368e-07
  1.37333   -107.7 2.231e+04 8.711e-07
  1.37842   -110.3 2.255e+04 1.181e-06
  1.38491   -121.0 2.377e+04 1.204e-06
  1.39509   -125.3 2.761e+04 5.168e-07
  1.40526   -129.7 3.194e+04 1.694e-07
  1.41118   -133.6 3.048e+04 7.676e-08
  1.41627   -136.7 2.677e+04 4.713e-08
  1.42562   -138.0 2.280e+04 3.124e-08
  1.43580   -137.9 2.144e+04 2.422e-08
  1.44394   -137.1 2.095e+04 2.041e-08
  1.44903   -137.9 1.915e+04 1.464e-08
  1.45616   -137.2 1.889e+04 1.330e-08
  1.46633   -136.7 1.852e+04 1.219e-08
  1.47651   -136.0 1.812e+04 1.130e-08
  1.48179   -135.2 1.781e+04 1.041e-08
  1.48688   -135.2 1.678e+04 7.944e-09
  1.49687   -134.4 1.660e+04 7.478e-09
  1.50705   -133.6 1.647e+04 7.023e-09
  1.51455   -133.0 1.629e+04 6.682e-09
  1.51964   -133.0 1.578e+04 5.648e-09
  1.52740   -132.3 1.571e+04 5.548e-09
  1.53758   -131.9 1.567e+04 5.471e-09
  1.55290   -130.9 1.555e+04 5.244e-09
  1.57330   -129.7 1.555e+04 5.136e-09
  1.58526   -128.2 1.521e+04 4.547e-09
  1.59544   -127.6 1.439e+04 3.762e-09
  1.61402   -126.1 1.390e+04 3.312e-09
  1.63437   -124.5 1.355e+04 2.859e-09
  1.65079   -122.9 1.330e+04 2.363e-09
  1.66097   -122.2 1.308e+04 2.345e-09
  1.67509   -120.5 1.288e+04 1.911e-09
  1.69544   -118.9 1.251e+04 1.536e-09
  1.71580   -117.5 1.218e+04 1.197e-09
  1.72649   -116.3 1.180e+04 9.219e-10
  1.73667   -115.3 1.184e+04 9.452e-10
  1.75651   -114.2 1.146e+04 7.394e-10
  1.77687   -113.1 1.110e+04 6.039e-10
  1.79201   -112.0 1.089e+04 5.133e-10
  1.80219   -111.2 1.082e+04 4.816e-10
  1.81758   -110.2 1.068e+04 4.249e-10
  1.83794   -109.2 1.062e+04 4.025e-10
  1.85754   -108.4 1.062e+04 4.030e-10
  1.86772   -107.7 1.049e+04 3.592e-10
  1.87202   -107.0 1.054e+04 3.947e-10
  1.88220   -107.1 1.054e+04 3.924e-10
  1.89901   -106.0 1.058e+04 4.751e-10
  1.91937   -104.6 1.063e+04 5.603e-10
  1.93324   -103.0 1.073e+04 6.246e-10
  1.94342   -102.8 1.050e+04 5.125e-10
  1.96008   -101.3 1.066e+04 5.594e-10
  1.98044   -100.1 1.084e+04 5.932e-10
  1.99876    -99.3 1.091e+04 6.030e-10
  2.00894    -99.0 1.069e+04 5.318e-10
  2.02115    -98.7 1.039e+04 5.202e-10
  2.04151    -97.2 1.055e+04 5.983e-10
  2.06186    -96.3 1.060e+04 6.186e-10
  2.07446    -95.0 1.069e+04 6.389e-10
  2.08464    -94.7 1.060e+04 6.094e-10
  2.10258    -93.8 1.065e+04 5.940e-10
  2.12293    -92.9 1.067e+04 5.649e-10
  2.13999    -92.1 1.066e+04 5.319e-10
  2.15017    -91.9 1.066e+04 5.324e-10
  2.16365    -91.1 1.067e+04 4.915e-10
  2.18400    -90.4 1.055e+04 4.637e-10
  2.20436    -89.4 1.040e+04 4.212e-10
  2.21569    -88.7 1.024e+04 3.899e-10
  2.22587    -88.8 1.046e+04 4.167e-10
  2.25535    -88.3 1.055e+04 4.484e-10
  2.29616    -86.2 1.029e+04 4.919e-10
  2.33676    -85.8 1.090e+04 4.859e-10
  2.36407    -88.5 1.430e+04 1.633e-09
  2.37427    -87.4 1.387e+04 1.495e-09
  2.38757    -88.0 1.483e+04 2.204e-09
  2.40793    -87.9 1.589e+04 3.637e-09
  2.42244    -88.2 1.672e+04 5.168e-09
  2.43262    -89.0 1.774e+04 8.749e-09
  2.44864    -89.6 1.775e+04 9.728e-09
  2.46900    -90.2 1.732e+04 9.642e-09
  2.48796    -90.4 1.658e+04 8.225e-09
  2.49814    -91.9 1.651e+04 8.212e-09
  2.50971    -91.6 1.572e+04 5.933e-09
  2.53007    -92.0 1.465e+04 4.017e-09
  2.55043    -92.5 1.313e+04 2.445e-09
  2.56367    -93.0 1.182e+04 1.565e-09
  2.57384    -93.4 1.130e+04 1.233e-09
  2.59114    -93.2 1.065e+04 8.567e-10
  2.61150    -92.8 1.021e+04 6.083e-10
  2.62919    -92.4 9.810e+03 4.267e-10
  2.63937    -93.1 9.461e+03 3.260e-10
  2.65221    -92.3 9.152e+03 2.647e-10
  2.67257    -92.4 9.041e+03 2.548e-10
  2.70320    -91.1 9.014e+03 2.522e-10
  2.74401    -89.2 8.731e+03 2.878e-10
  2.77061    -86.9 8.850e+03 2.584e-10
  2.79097    -86.2 8.496e+03 1.928e-10
  2.82544    -84.7 8.504e+03 2.104e-10
  2.86615    -83.1 8.572e+03 2.275e-10
  2.90166    -81.7 8.812e+03 2.636e-10
  2.92202    -81.2 8.705e+03 2.308e-10
  2.94758    -79.8 9.165e+03 3.149e-10
  2.98829    -78.3 9.619e+03 4.076e-10
  3.02900    -77.0 1.004e+04 4.613e-10
  3.05297    -77.4 1.059e+04 5.585e-10
  3.06305    -77.3 1.072e+04 6.043e-10
  3.07970    -77.7 1.073e+04 6.655e-10
  3.10006    -77.6 1.060e+04 7.209e-10
  3.11839    -77.1 1.060e+04 7.778e-10
  3.12857    -76.8 1.060e+04 7.823e-10
  3.14077    -76.1 1.070e+04 8.089e-10
  3.16113    -75.4 1.082e+04 8.083e-10
  3.18148    -74.9 1.088e+04 7.827e-10
  3.19409    -74.3 1.083e+04 7.415e-10
  3.20427    -73.9 1.071e+04 6.694e-10
  3.22220    -73.3 1.062e+04 6.278e-10
  3.24255    -72.8 1.055e+04 5.930e-10
  3.25962    -72.3 1.047e+04 5.607e-10
  3.26980    -72.0 1.036e+04 5.125e-10
  3.28327    -71.6 1.033e+04 4.982e-10
  3.30362    -71.2 1.030e+04 4.978e-10
  3.32398    -70.8 1.034e+04 5.143e-10
  3.33532    -70.5 1.039e+04 5.453e-10
  3.34550    -70.0 1.028e+04 5.067e-10
  3.35841    -69.6 1.030e+04 5.355e-10
  3.36859    -69.4 1.049e+04 6.272e-10
  3.38505    -68.9 1.052e+04 6.578e-10
  3.40084    -68.4 1.050e+04 6.746e-10
  3.41102    -67.9 1.042e+04 6.322e-10
  3.42576    -67.3 1.037e+04 6.302e-10
  3.44612    -66.7 1.026e+04 6.137e-10
  3.46637    -65.7 1.013e+04 5.737e-10
  3.47655    -65.2 1.013e+04 5.694e-10
  3.48683    -65.1 1.011e+04 5.277e-10
  3.50719    -63.8 9.773e+03 4.188e-10
  3.52755    -63.8 9.772e+03 4.142e-10
  3.55818    -62.2 9.462e+03 3.184e-10
  3.59761    -60.7 9.079e+03 2.489e-10
  3.61797    -60.1 9.190e+03 2.526e-10
  3.63970    -58.6 9.096e+03 2.457e-10
  3.68042    -56.8 9.113e+03 2.597e-10
  3.72113    -54.8 9.153e+03 2.855e-10
  3.74901    -52.7 9.145e+03 3.055e-10
  3.76937    -52.2 9.139e+03 2.963e-10
  3.80256    -50.0 9.066e+03 2.810e-10
  3.84327    -47.8 8.903e+03 2.432e-10
  3.88006    -45.6 8.689e+03 1.982e-10
  3.90042    -45.0 8.610e+03 1.697e-10
  3.92470    -42.9 8.398e+03 1.387e-10
  3.96541    -40.9 8.267e+03 1.279e-10
  4.00612    -38.8 8.240e+03 1.282e-10
  4.03147    -36.6 8.242e+03 1.327e-10
  4.05182    -35.9 8.232e+03 1.189e-10
  4.08755    -33.8 8.298e+03 1.301e-10
  4.12826    -31.7 8.407e+03 1.411e-10
  4.16251    -29.6 8.485e+03 1.504e-10
  4.18287    -29.0 8.489e+03 1.488e-10
  4.20969    -27.0 8.572e+03 1.572e-10
  4.25040    -25.2 8.723e+03 1.685e-10
  4.29112    -23.4 9.018e+03 1.907e-10
  4.31392    -21.9 9.439e+03 2.334e-10
  4.33428    -20.8 9.416e+03 2.256e-10
  4.35283    -20.0 9.613e+03 2.550e-10
  4.37319    -19.3 9.593e+03 2.563e-10
  4.40298    -18.8 9.856e+03 3.114e-10
  4.42324    -19.0 1.020e+04 4.053e-10
  4.44360    -19.0 1.059e+04 5.598e-10
  4.45495    -18.9 1.099e+04 7.478e-10
  4.46513    -18.5 1.102e+04 7.434e-10
  4.48431    -18.3 1.143e+04 9.294e-10
  4.50467    -18.2 1.184e+04 1.090e-09
  4.52047    -18.4 1.222e+04 1.210e-09
  4.53065    -18.0 1.233e+04 1.233e-09
  4.54538    -18.6 1.272e+04 1.367e-09
  4.56574    -19.6 1.303e+04 1.557e-09
  4.58600    -20.6 1.315e+04 1.861e-09
  4.59618    -20.1 1.311e+04 1.875e-09
  4.60645    -20.9 1.316e+04 2.216e-09
  4.62681    -21.3 1.331e+04 2.636e-09
  4.64717    -21.4 1.367e+04 2.843e-09
  4.66170    -21.7 1.389e+04 2.776e-09
  4.67188    -21.3 1.393e+04 2.455e-09
  4.68788    -22.0 1.429e+04 2.188e-09
  4.70824    -23.2 1.427e+04 1.805e-09
  4.72722    -24.6 1.363e+04 1.439e-09
  4.73740    -24.8 1.343e+04 1.407e-09
  4.74895    -26.0 1.249e+04 1.166e-09
  4.76931    -26.5 1.169e+04 1.007e-09
  4.78966    -26.4 1.132e+04 8.998e-10
  4.80292    -26.2 1.105e+04 7.823e-10
  4.81310    -25.8 1.110e+04 7.992e-10
  4.83038    -25.4 1.081e+04 6.532e-10
  4.84481    -24.8 1.054e+04 5.251e-10
  4.85499    -25.2 1.042e+04 4.990e-10
  4.86845    -24.9 1.024e+04 4.027e-10
  4.87863    -24.5 1.024e+04 4.000e-10
  4.90172    -23.7 1.009e+04 3.226e-10
  4.94253    -22.0 9.846e+03 2.751e-10
  4.98325    -19.9 9.865e+03 2.791e-10
  5.00987    -18.0 9.984e+03 3.037e-10
  5.03023    -17.4 9.891e+03 2.836e-10
  5.06467    -15.7 1.007e+04 3.343e-10
  5.08547    -14.6 1.012e+04 3.794e-10
  5.09556    -14.2 1.011e+04 3.788e-10
  5.11537    -13.9 1.015e+04 3.965e-10
  5.13573    -12.8 1.024e+04 4.599e-10
  5.15090    -12.7 1.026e+04 4.697e-10
  5.16118    -12.3 1.018e+04 4.399e-10
  5.18681    -10.4 1.025e+04 5.103e-10
  5.22753     -8.6 1.044e+04 5.845e-10
  5.25796     -7.4 1.039e+04 5.677e-10
  5.27822     -6.9 1.033e+04 5.447e-10
  5.29213     -6.1 1.027e+04 5.192e-10
  5.30230     -5.8 1.018e+04 5.056e-10
  5.31894     -5.1 1.019e+04 5.064e-10
  5.33688     -4.2 1.023e+04 5.157e-10
  5.35733     -3.5 9.949e+03 3.939e-10
  5.38010     -1.8 1.002e+04 4.237e-10
  5.40036     -1.5 1.008e+04 4.423e-10
  5.42072     -0.9 1.030e+04 5.206e-10
  5.43335     -0.3 1.051e+04 6.181e-10
  5.44353      0.1 1.032e+04 5.437e-10
  5.46143      0.6 1.052e+04 6.277e-10
  5.48179      1.3 1.067e+04 7.179e-10
  5.49888      1.9 1.076e+04 8.089e-10
  5.50905      2.2 1.059e+04 7.362e-10
  5.52250      3.0 1.065e+04 8.053e-10
  5.54286      3.7 1.070e+04 8.557e-10
  5.56322      4.5 1.075e+04 8.842e-10
  5.57458      5.3 1.079e+04 8.833e-10
  5.58476      5.6 1.072e+04 8.189e-10
  5.60393      6.4 1.073e+04 8.159e-10
  5.62429      7.1 1.075e+04 8.036e-10
  5.64010      7.8 1.076e+04 7.805e-10
  5.65028      8.1 1.071e+04 7.492e-10
  5.66500      8.7 1.076e+04 7.418e-10
  5.68536      9.3 1.081e+04 7.451e-10
  5.70563     10.0 1.095e+04 7.649e-10
  5.72598     10.7 1.117e+04 8.170e-10
  5.74643     10.6 1.151e+04 9.144e-10
  5.76678     10.4 1.219e+04 1.120e-09
  5.78133      9.5 1.315e+04 1.615e-09
  5.79151     10.3 1.281e+04 1.420e-09
  5.80750      9.1 1.371e+04 2.169e-09
  5.82785      8.1 1.454e+04 3.486e-09
  5.83913      8.1 1.528e+04 5.597e-09
  5.84795      8.2 1.484e+04 5.261e-09
  5.85703      8.4 1.428e+04 4.076e-09
  5.86857      8.7 1.500e+04 5.791e-09
  5.88892      9.1 1.556e+04 6.868e-09
  5.90928      9.4 1.563e+04 6.744e-09
  5.92255      9.8 1.539e+04 5.682e-09
  5.93273     10.1 1.529e+04 5.774e-09
  5.94999     10.7 1.476e+04 4.316e-09
  5.97035     11.3 1.414e+04 2.723e-09
  5.98808     11.4 1.353e+04 1.593e-09
  5.99826     12.0 1.341e+04 1.789e-09
  6.01106     11.9 1.291e+04 1.091e-09
  6.03142     11.5 1.228e+04 8.030e-10
  6.05178     11.7 1.185e+04 7.658e-10
  6.06378     12.5 1.184e+04 7.655e-10
  6.07396     12.8 1.177e+04 7.600e-10
  6.09249     13.7 1.182e+04 7.774e-10
  6.11285     14.6 1.202e+04 8.600e-10
  6.12930     15.3 1.234e+04 1.030e-09
  6.13948     15.4 1.213e+04 9.632e-10
  6.15356     15.7 1.249e+04 1.183e-09
  6.17392     15.4 1.303e+04 1.583e-09
  6.19427     14.5 1.409e+04 2.400e-09
  6.20501     12.7 1.566e+04 4.157e-09
  6.21518     12.1 1.513e+04 3.700e-09
  6.23499     10.6 1.603e+04 5.505e-09
  6.25021      9.9 1.629e+04 6.194e-09
  6.26034      9.0 1.662e+04 6.836e-09
  6.27043      7.8 1.699e+04 7.359e-09
  6.27552      7.3 1.668e+04 6.372e-09
  6.28069      5.7 1.677e+04 6.376e-09
  6.29087      4.0 1.675e+04 6.266e-09
  6.30105      2.3 1.657e+04 5.940e-09
  6.30828      0.6 1.617e+04 5.363e-09
  6.31337      0.2 1.574e+04 4.739e-09
  6.32141     -0.4 1.553e+04 4.549e-09
  6.33115     -2.2 1.523e+04 4.198e-09
  6.33624     -1.7 1.515e+04 4.028e-09
  6.34105     -2.1 1.505e+04 3.910e-09
  6.34618     -1.4 1.490e+04 3.635e-09
  6.35713     -2.5 1.449e+04 2.901e-09
  6.37748     -3.4 1.427e+04 2.260e-09
  6.39784     -4.2 1.396e+04 1.737e-09
  6.41176     -5.3 1.368e+04 1.433e-09
  6.42193     -5.0 1.295e+04 1.132e-09
  6.43855     -6.0 1.262e+04 1.048e-09
  6.45891     -6.3 1.231e+04 1.007e-09
  6.47728     -6.1 1.203e+04 9.725e-10
  6.48746     -5.4 1.163e+04 9.048e-10
  6.49962     -4.8 1.134e+04 8.208e-10
  6.51998     -4.0 1.105e+04 6.872e-10
  6.54034     -2.9 1.089e+04 5.404e-10
  6.55298     -2.1 1.086e+04 4.143e-10
  6.56316     -1.4 1.071e+04 3.383e-10
  6.58105     -1.1 1.074e+04 2.673e-10
  6.60141     -0.5 1.053e+04 2.466e-10
  6.61851      0.1 1.049e+04 2.482e-10
  6.62868      0.4 1.043e+04 2.301e-10
  6.64212      2.2 1.039e+04 2.350e-10
  6.66248      2.7 1.042e+04 2.403e-10
  6.68284      4.3 1.046e+04 2.580e-10
  6.69421      4.9 1.051e+04 2.795e-10
  6.70448      5.7 1.045e+04 2.446e-10
  6.72365      6.9 1.046e+04 2.778e-10
  6.74391      7.7 1.064e+04 3.555e-10
  6.75973      8.6 1.097e+04 5.124e-10
  6.76991      9.9 1.069e+04 3.856e-10
  6.78462     11.0 1.107e+04 5.685e-10
  6.80498     12.2 1.172e+04 8.584e-10
  6.82327     13.4 1.267e+04 1.296e-09
  6.83338     12.2 1.338e+04 1.535e-09
  6.84561     14.9 1.370e+04 1.775e-09
  6.86605     15.6 1.464e+04 2.580e-09
  6.88640     16.2 1.526e+04 3.434e-09
  6.90096     16.7 1.585e+04 4.053e-09
  6.91114     18.6 1.618e+04 4.177e-09
  6.92712     18.9 1.697e+04 5.051e-09
  6.94747     18.8 1.804e+04 5.852e-09
  6.96648     17.3 1.914e+04 6.561e-09
  6.97666     21.2 1.945e+04 7.472e-09
  6.98819     18.6 2.035e+04 7.532e-09
  7.00854     13.9 2.044e+04 7.859e-09
  7.02890      6.5 2.003e+04 9.289e-09
  7.04213     -4.2 2.407e+04 1.273e-08
  7.04717     -4.2 2.601e+04 1.709e-08
  7.05425    -16.7 2.772e+04 7.332e-08
  7.06443    -23.7 2.377e+04 2.903e-07
  7.07430    -27.3 2.217e+04 5.120e-07
  7.07939    -25.6 2.203e+04 5.904e-07
  7.07994    -28.6 2.168e+04 7.203e-07
  7.08503    -29.2 2.100e+04 1.470e-06
  7.09496    -33.0 2.222e+04 8.903e-07
  7.10514    -38.5 2.534e+04 3.069e-07
  7.11270    -45.3 2.731e+04 1.107e-07
  7.11779    -48.3 2.845e+04 7.181e-08
  7.12550    -54.9 2.397e+04 3.297e-08
  7.13567    -57.1 2.091e+04 2.409e-08
  7.14546    -56.7 2.009e+04 1.988e-08
  7.15055    -58.0 1.902e+04 1.523e-08
  7.15603    -57.3 1.868e+04 1.342e-08
  7.16621    -55.8 1.795e+04 1.043e-08
  7.17639    -55.9 1.762e+04 9.323e-09
  7.18336    -54.3 1.719e+04 8.023e-09
  7.19359    -55.6 1.567e+04 5.455e-09
  7.21211    -54.5 1.467e+04 3.341e-09
  7.23247    -54.4 1.369e+04 2.078e-09
  7.24893    -54.1 1.292e+04 1.502e-09
  7.25911    -54.3 1.267e+04 1.338e-09
  7.27318    -53.3 1.223e+04 1.145e-09
  7.29354    -51.9 1.192e+04 1.050e-09
  7.31389    -50.2 1.181e+04 1.023e-09
  7.32464    -48.3 1.187e+04 1.042e-09
  7.32609    -48.4 1.186e+04 1.035e-09
  7.33570    -48.0 1.181e+04 1.027e-09
  7.35461    -46.7 1.196e+04 1.087e-09
  7.37496    -46.0 1.228e+04 1.238e-09
  7.39016    -46.3 1.284e+04 1.519e-09
  7.40034    -46.9 1.331e+04 1.656e-09
  7.41568    -48.2 1.451e+04 2.642e-09
  7.43603    -50.0 1.538e+04 4.850e-09
  7.45125    -49.6 1.602e+04 8.147e-09
  7.46067    -49.4 1.605e+04 8.387e-09
  7.46581    -49.2 1.619e+04 8.500e-09
  7.47161    -48.4 1.594e+04 8.783e-09
  7.48174    -48.6 1.606e+04 9.241e-09
  7.49192    -47.6 1.562e+04 8.284e-09
  7.49853    -47.9 1.553e+04 7.341e-09
  7.50361    -47.9 1.576e+04 7.524e-09
  7.51741    -48.1 1.512e+04 5.079e-09
  7.53138    -49.9 1.497e+04 2.890e-09
  7.54156    -49.7 1.489e+04 2.973e-09
  7.55817    -53.1 1.385e+04 1.668e-09
  7.57853    -56.2 1.207e+04 1.107e-09
  7.59691    -57.0 1.110e+04 9.362e-10
  7.60709    -56.1 1.132e+04 9.668e-10
  7.61924    -55.6 1.075e+04 8.194e-10
  7.63960    -55.2 1.052e+04 7.151e-10
  7.65996    -54.0 1.016e+04 5.320e-10
  7.67261    -54.5 1.018e+04 4.389e-10
  7.68279    -53.7 1.027e+04 4.738e-10
  7.71095    -51.7 9.720e+03 3.037e-10
  7.75176    -50.8 9.345e+03 1.879e-10
  7.79247    -49.9 9.134e+03 1.387e-10
  7.81403    -48.4 8.946e+03 1.272e-10
  7.83439    -46.6 9.044e+03 1.132e-10
  7.87390    -44.8 8.874e+03 1.073e-10
  7.91461    -42.7 8.809e+03 1.063e-10
  7.94508    -40.8 8.870e+03 1.101e-10
  7.96544    -39.3 8.847e+03 9.888e-11
  7.99604    -37.7 8.972e+03 1.146e-10
  8.03675    -36.8 9.276e+03 1.681e-10
  8.07613    -35.8 9.646e+03 3.078e-10
  8.09648    -34.3 9.522e+03 2.774e-10
  8.11818    -33.0 9.972e+03 4.826e-10
  8.15889    -32.0 1.024e+04 5.525e-10
  8.19960    -31.1 1.013e+04 4.960e-10
  8.22753    -30.0 9.862e+03 3.462e-10
  8.24789    -28.3 9.875e+03 3.610e-10
  8.28103    -27.3 9.641e+03 2.237e-10
  8.30987    -26.5 9.446e+03 1.306e-10
  8.33022    -26.3 9.479e+03 1.094e-10
  8.35858    -26.0 9.362e+03 6.801e-11
  8.37894    -24.2 9.412e+03 7.457e-11
  8.40317    -23.8 9.201e+03 5.971e-11
  8.44388    -22.7 9.089e+03 5.961e-11
  8.48460    -21.5 9.106e+03 6.103e-11
  8.50998    -20.3 9.179e+03 6.517e-11
  8.53034    -19.0 9.240e+03 6.578e-11
  8.56603    -17.9 9.273e+03 7.066e-11
  8.60674    -16.8 9.303e+03 7.551e-11
  8.64103    -15.8 9.381e+03 8.062e-11
  8.66139    -14.8 9.432e+03 8.047e-11
  8.68817    -14.0 9.527e+03 8.970e-11
  8.72888    -13.1 9.634e+03 1.061e-10
  8.76959    -12.3 9.716e+03 1.348e-10
  8.79244    -11.3 9.753e+03 1.765e-10
  8.81279    -10.4 9.763e+03 1.768e-10
  8.85102     -9.4 9.814e+03 2.236e-10
  8.89173     -8.3 9.868e+03 2.708e-10
  8.92348     -7.3 9.968e+03 3.196e-10
  8.94384     -6.4 9.911e+03 2.844e-10
  8.97316     -5.5 1.003e+04 3.255e-10
  9.01387     -4.7 1.014e+04 3.687e-10
  9.05453     -4.1 1.022e+04 4.071e-10
  9.09524     -2.7 1.036e+04 4.698e-10
  9.13601     -2.3 1.049e+04 5.180e-10
  9.17673     -2.1 1.046e+04 5.247e-10
  9.20593     -1.7 1.034e+04 5.071e-10
  9.22629     -1.1 1.045e+04 5.624e-10
  9.25815     -0.8 1.026e+04 4.904e-10
  9.29401     -0.6 1.010e+04 4.350e-10
  9.31437     -1.3 9.669e+03 2.805e-10
  9.33698     -0.9 9.509e+03 2.521e-10
  9.35734     -0.3 9.470e+03 2.371e-10
  9.38029      0.2 9.321e+03 2.080e-10
  9.42101      0.7 9.216e+03 1.896e-10
  9.46172      1.4 9.215e+03 1.900e-10
  9.48839      2.0 9.253e+03 1.996e-10
  9.50874      2.9 9.222e+03 1.845e-10
  9.54315      3.4 9.371e+03 2.306e-10
  9.58386      4.0 9.596e+03 3.024e-10
  9.61943      4.5 9.826e+03 3.453e-10
  9.63979      5.7 9.787e+03 3.379e-10
  9.66529      6.0 9.862e+03 3.352e-10
  9.70600      6.0 9.966e+03 3.147e-10
  9.74671      5.9 1.007e+04 3.121e-10
  9.77084      5.2 1.028e+04 3.342e-10
  9.79120      6.2 1.033e+04 3.625e-10
  9.82814      5.1 1.060e+04 4.658e-10
  9.86885      3.9 1.099e+04 6.982e-10
  9.90189      2.8 1.118e+04 8.554e-10
  9.92224      4.6 1.076e+04 6.673e-10
  9.95028      3.6 1.072e+04 6.425e-10
  9.99099      3.2 1.046e+04 4.986e-10
 10.03171      3.2 1.010e+04 2.871e-10
 10.05329      2.9 9.879e+03 1.425e-10
 10.07365      4.7 9.874e+03 1.659e-10
 10.11313      4.1 9.785e+03 9.974e-11
 10.15385      4.0 9.436e+03 8.541e-11
 10.18434      4.5 9.311e+03 8.474e-11
 10.20469      5.9 9.347e+03 1.028e-10
 10.23527      6.5 9.255e+03 1.009e-10
 10.27599      7.3 9.263e+03 1.032e-10
 10.29851      7.9 9.315e+03 1.194e-10
 10.31755      9.1 9.214e+03 9.513e-11
 10.33574     10.3 9.197e+03 1.013e-10
 10.35741     11.0 9.261e+03 1.200e-10
 10.39813     11.6 9.358e+03 1.578e-10
 10.43884     12.1 9.465e+03 2.077e-10
 10.46679     12.7 9.554e+03 2.600e-10
 10.48715     13.6 9.523e+03 2.523e-10
 10.52027     14.0 9.582e+03 2.955e-10
 10.56098     14.0 9.729e+03 3.674e-10
 10.59784     13.8 1.012e+04 5.454e-10
 10.61819     14.6 9.963e+03 4.771e-10
 10.64241     14.4 1.049e+04 7.495e-10
 10.68312     14.5 1.107e+04 1.153e-09
 10.72384     14.7 1.131e+04 1.329e-09
 10.74924     15.2 1.124e+04 1.238e-09
 10.76960     15.9 1.082e+04 9.684e-10
 10.80526     16.4 1.047e+04 6.851e-10
 10.84598     16.5 1.008e+04 4.681e-10
 10.88029     16.4 9.935e+03 4.417e-10
 10.90065     17.3 9.646e+03 3.684e-10
 10.92740     17.6 9.751e+03 4.384e-10
 10.96812     18.4 1.000e+04 5.697e-10
 11.00883     19.2 1.003e+04 5.879e-10
 11.03169     20.3 9.914e+03 5.466e-10
 11.05205     21.5 9.593e+03 4.331e-10
 11.09026     22.7 9.373e+03 3.258e-10
 11.13097     23.7 9.133e+03 2.081e-10
 11.16274     24.4 8.940e+03 1.505e-10
 11.18310     25.4 8.808e+03 1.367e-10
 11.21240     26.4 8.795e+03 1.375e-10
 11.25311     27.5 8.862e+03 1.556e-10
 11.28266     28.7 9.139e+03 2.305e-10
 11.30298     29.7 8.976e+03 1.973e-10
 11.33450     31.9 9.113e+03 2.453e-10
 11.37525     33.3 9.465e+03 3.334e-10
 11.41596     34.5 9.709e+03 3.648e-10
 11.44519     35.4 9.713e+03 3.561e-10
 11.46555     36.0 9.539e+03 3.102e-10
 11.49739     37.0 9.511e+03 2.752e-10
 11.53810     38.2 9.436e+03 2.188e-10
 11.57624     39.3 9.362e+03 1.672e-10
 11.59660     39.6 9.271e+03 1.504e-10
 11.61953     40.6 9.240e+03 1.179e-10
 11.66024     41.8 9.202e+03 1.113e-10
 11.70096     43.3 9.226e+03 1.129e-10
 11.72765     44.6 9.334e+03 1.203e-10
 11.74800     44.8 9.514e+03 1.349e-10
 11.78238     46.2 9.955e+03 1.866e-10
 11.82310     47.8 1.027e+04 2.611e-10
 11.85869     49.7 1.040e+04 3.437e-10
 11.87905     50.3 1.063e+04 4.146e-10
 11.90452     52.3 1.046e+04 4.656e-10
 11.94524     54.4 1.040e+04 4.650e-10
 11.98595     56.5 1.026e+04 4.501e-10
 12.01010     58.6 1.014e+04 4.143e-10
 12.03045     59.0 1.018e+04 4.139e-10
 12.06738     61.2 1.011e+04 3.658e-10
 12.10809     63.4 1.013e+04 3.135e-10
 12.14114     65.5 1.006e+04 2.758e-10
 12.16150     66.1 1.001e+04 2.450e-10
 12.18952     68.2 9.826e+03 2.354e-10
 12.23023     70.2 9.699e+03 2.358e-10
 12.26680     72.2 9.681e+03 2.368e-10
 12.28716     73.1 9.973e+03 2.691e-10
 12.29255     74.8 9.968e+03 2.957e-10
 12.31291     75.6 9.943e+03 2.707e-10
 12.35237     77.2 9.962e+03 3.025e-10
 12.39308     78.8 9.968e+03 3.258e-10
 12.42360     80.3 9.957e+03 3.262e-10
 12.44395     81.1 9.908e+03 2.899e-10
 12.47451     82.3 9.826e+03 2.860e-10
 12.51522     83.4 9.636e+03 2.742e-10
 12.55464     84.3 9.416e+03 2.563e-10
 12.57500     84.8 9.466e+03 2.606e-10
 12.59665     85.6 9.326e+03 2.479e-10
 12.63736     86.6 9.175e+03 2.335e-10
 12.67808     87.8 9.005e+03 2.224e-10
 12.70605     89.1 8.944e+03 2.212e-10
 12.72641     89.5 8.991e+03 2.326e-10
 12.75950     91.0 8.982e+03 2.344e-10
 12.80022     92.6 9.035e+03 2.536e-10
 12.83710     94.1 9.209e+03 2.991e-10
 12.85745     94.7 9.192e+03 2.982e-10
 12.88165     96.2 9.403e+03 3.554e-10
 12.91208     96.7 9.466e+03 3.814e-10
 12.92278     97.2 9.550e+03 4.089e-10
 12.93296     97.5 9.565e+03 4.111e-10
 12.95270     98.2 9.730e+03 4.617e-10
 12.97305     98.9 9.905e+03 5.279e-10
 12.98831     99.6 1.007e+04 6.007e-10
 12.99848     99.8 1.006e+04 6.413e-10
 13.01377    100.4 1.019e+04 7.297e-10
 13.03413    101.0 1.032e+04 8.317e-10
 13.05383    101.6 1.047e+04 9.511e-10
 13.06401    101.9 1.056e+04 1.035e-09
 13.07484    102.7 1.076e+04 1.187e-09
 13.09520    103.5 1.100e+04 1.365e-09
 13.11555    104.3 1.128e+04 1.578e-09
 13.12953    105.1 1.165e+04 1.831e-09
 13.13971    105.6 1.166e+04 1.833e-09
 13.15627    106.5 1.204e+04 2.066e-09
 13.17662    107.2 1.244e+04 2.292e-09
 13.19505    107.8 1.280e+04 2.451e-09
 13.20523    108.2 1.239e+04 2.002e-09
 13.21734    108.5 1.256e+04 2.009e-09
 13.23769    108.6 1.259e+04 1.999e-09
 13.25805    108.7 1.259e+04 1.947e-09
 13.27076    108.7 1.249e+04 1.877e-09
 13.27364    108.7 1.216e+04 1.641e-09
 13.28128    108.1 1.232e+04 1.672e-09
 13.29876    107.9 1.240e+04 1.771e-09
 13.31912    107.6 1.272e+04 2.023e-09
 13.33628    107.2 1.378e+04 2.640e-09
 13.34646    107.6 1.318e+04 2.360e-09
 13.35983    107.3 1.478e+04 3.370e-09
 13.38019    106.9 1.598e+04 4.461e-09
 13.39541    106.6 1.660e+04 5.149e-09
 13.40554    105.9 1.764e+04 6.396e-09
 13.41189    104.4 1.904e+04 8.881e-09
 13.41697    104.8 1.882e+04 8.011e-09
 13.42589    103.0 2.032e+04 1.185e-08
 13.43607    101.0 2.160e+04 1.830e-08
 13.44465     99.0 2.255e+04 2.859e-08
 13.44974     99.3 2.273e+04 2.539e-08
 13.45643     96.8 2.355e+04 4.007e-08
 13.46661     93.6 2.445e+04 6.699e-08
 13.47679     89.2 2.576e+04 1.092e-07
 13.48250     83.1 2.908e+04 1.241e-07
 13.48759     83.5 2.907e+04 1.209e-07
 13.49714     76.0 3.102e+04 1.061e-07
 13.50732     66.8 3.370e+04 6.183e-08
 13.51526     56.1 3.108e+04 3.219e-08
 13.51990     57.6 3.093e+04 3.360e-08
 13.52213     51.6 2.214e+04 1.404e-08
 13.52768     45.5 1.914e+04 1.295e-08
 13.53786     42.5 1.801e+04 1.218e-08
 13.54802     40.0 1.727e+04 1.056e-08
 13.56334     36.2 1.868e+04 8.566e-09
 13.58376     30.7 1.671e+04 4.392e-09
 13.60411     26.0 1.452e+04 2.742e-09
 13.61873     24.3 1.417e+04 2.508e-09
 13.62891     23.4 1.620e+04 3.030e-09
 13.64483     23.5 1.521e+04 2.742e-09
 13.66518     24.0 1.420e+04 2.468e-09
 13.68426     24.6 1.316e+04 2.166e-09
 13.69443     24.7 1.322e+04 2.222e-09
 13.70590     25.3 1.209e+04 1.739e-09
 13.72625     25.9 1.138e+04 1.385e-09
 13.74661     26.8 1.107e+04 1.150e-09
 13.75996     27.7 1.099e+04 9.946e-10
 13.76635     27.6 1.080e+04 8.731e-10
 13.77336     28.6 1.053e+04 8.100e-10
 13.78732     29.3 1.049e+04 7.259e-10
 13.80768     30.2 1.047e+04 6.829e-10
 13.82548     31.3 1.047e+04 6.824e-10
 13.83566     31.6 1.036e+04 6.599e-10
 13.84839     32.8 1.041e+04 6.739e-10
 13.86875     33.9 1.051e+04 7.066e-10
 13.88911     35.2 1.059e+04 7.507e-10
 13.90118     36.5 1.074e+04 8.107e-10
 13.91136     37.0 1.068e+04 8.234e-10
 13.92982     38.4 1.089e+04 9.272e-10
 13.95018     39.6 1.111e+04 1.046e-09
 13.96671     40.9 1.132e+04 1.171e-09
 13.97689     41.3 1.147e+04 1.257e-09
 13.99089     42.5 1.173e+04 1.418e-09
 14.01125     43.5 1.194e+04 1.571e-09
 14.03160     44.7 1.216e+04 1.729e-09
 14.04241     45.7 1.241e+04 1.905e-09
 14.05259     45.9 1.254e+04 2.027e-09
 14.07232     46.8 1.277e+04 2.191e-09
 14.09267     47.8 1.295e+04 2.339e-09
 14.10793     48.7 1.309e+04 2.471e-09
 14.11811     49.0 1.313e+04 2.453e-09
 14.13339     49.8 1.316e+04 2.456e-09
 14.15374     50.8 1.313e+04 2.379e-09
 14.17346     51.7 1.301e+04 2.187e-09
 14.18364     51.9 1.297e+04 2.072e-09
 14.19446     52.9 1.282e+04 1.827e-09
 14.21481     53.8 1.267e+04 1.576e-09
 14.23517     54.6 1.258e+04 1.374e-09
 14.24916     55.3 1.261e+04 1.224e-09
 14.25906     55.4 1.252e+04 1.160e-09
 14.26543     55.0 1.151e+04 4.795e-10
 14.27588     55.6 1.144e+04 4.097e-10
 14.29624     56.4 1.147e+04 3.750e-10
 14.31468     57.4 1.155e+04 3.748e-10
 14.32486     57.6 1.135e+04 3.740e-10
 14.33695     58.6 1.152e+04 3.799e-10
 14.35731     59.5 1.182e+04 4.096e-10
 14.37767     60.5 1.226e+04 4.757e-10
 14.39039     61.5 1.304e+04 5.739e-10
 14.40056     61.7 1.224e+04 5.732e-10
 14.41838     62.8 1.265e+04 7.574e-10
 14.43874     63.2 1.346e+04 1.033e-09
 14.45591     63.2 1.460e+04 1.508e-09
 14.46609     63.3 1.381e+04 1.495e-09
 14.47945     62.8 1.497e+04 2.369e-09
 14.49981     61.8 1.609e+04 3.849e-09
 14.52016     60.9 1.697e+04 6.160e-09
 14.53161     60.9 1.737e+04 8.906e-09
 14.54179     61.2 1.657e+04 7.895e-09
 14.56088     61.2 1.645e+04 8.266e-09
 14.58123     61.3 1.612e+04 7.750e-09
 14.59714     61.7 1.532e+04 6.082e-09
 14.60731     62.0 1.472e+04 5.058e-09
 14.62195     62.3 1.389e+04 3.376e-09
 14.64230     62.2 1.306e+04 2.068e-09
 14.66266     61.3 1.227e+04 1.271e-09
 14.68302     60.3 1.128e+04 7.870e-10
 14.70337     59.7 1.070e+04 6.584e-10
 14.72373     59.7 1.043e+04 6.055e-10
 14.73836     59.7 1.037e+04 6.134e-10
 14.74854     59.8 1.023e+04 5.772e-10
 14.75750     59.2 1.048e+04 6.195e-10
 14.76768     60.5 1.023e+04 5.255e-10
 14.78480     59.7 1.061e+04 5.540e-10
 14.80389     55.5 1.566e+04 8.645e-10
 14.81406     57.7 1.241e+04 6.423e-10
 14.82551     51.7 1.763e+04 1.543e-09
 14.84073     47.4 1.950e+04 3.451e-09
 14.84673     45.7 1.898e+04 5.973e-09
 14.85182     47.2 1.866e+04 4.416e-09
 14.86104     46.0 1.807e+04 6.956e-09
 14.87122     45.4 1.715e+04 1.010e-08
 14.87949     45.6 1.679e+04 1.257e-08
 14.88458     45.9 1.678e+04 1.064e-08
 14.89158     46.0 1.649e+04 1.232e-08
 14.90175     46.7 1.643e+04 1.292e-08
 14.91193     47.2 1.663e+04 1.288e-08
 14.92725     48.1 1.701e+04 1.242e-08
 14.94511     49.0 1.760e+04 1.009e-08
 14.95529     49.3 1.713e+04 1.043e-08
 14.96801     49.2 1.811e+04 6.903e-09
 14.98837     47.6 1.902e+04 3.179e-09
 15.00872     43.7 1.734e+04 1.120e-09
 15.02081     39.1 1.260e+04 5.987e-10
 15.03099     41.8 1.517e+04 7.781e-10
 15.04944     38.5 1.090e+04 5.878e-10
 15.06979     37.9 1.062e+04 6.137e-10
 15.08634     38.1 1.064e+04 6.413e-10
 15.09652     38.5 1.094e+04 7.528e-10
 15.11051     38.6 1.105e+04 8.056e-10
 15.13087     38.9 1.113e+04 8.219e-10
 15.15122     39.1 1.117e+04 8.139e-10
 15.16204     39.3 1.122e+04 7.755e-10
 15.17222     39.1 1.198e+04 1.260e-09
 15.19194     39.3 1.202e+04 1.230e-09
 15.21229     39.4 1.206e+04 1.159e-09
 15.22756     39.5 1.204e+04 1.067e-09
 15.23774     39.8 1.276e+04 1.923e-09
 15.24957     39.9 1.263e+04 1.692e-09
 15.25975     40.3 1.255e+04 1.732e-09
 15.27336     40.3 1.244e+04 1.523e-09
 15.29309     39.8 1.229e+04 1.457e-09
 15.30327     40.6 1.279e+04 1.991e-09
 15.31408     40.2 1.262e+04 1.910e-09
 15.33443     40.0 1.256e+04 1.958e-09
 15.35479     40.1 1.259e+04 2.017e-09
 15.36879     40.1 1.258e+04 1.990e-09
 15.37897     40.3 1.266e+04 2.052e-09
 15.39550     40.5 1.247e+04 1.860e-09
 15.41586     40.6 1.213e+04 1.547e-09
 15.43431     41.0 1.155e+04 1.057e-09
 15.44449     41.1 1.170e+04 1.189e-09
 15.45657     41.2 1.136e+04 9.611e-10
 15.48720     42.0 1.063e+04 5.403e-10
 15.51021     42.3 9.926e+03 3.046e-10
 15.53057     43.5 1.014e+04 3.658e-10
 15.56873     44.0 9.585e+03 2.275e-10
 15.60944     44.9 9.427e+03 2.184e-10
 15.64126     46.4 9.411e+03 2.317e-10
 15.66162     46.9 9.413e+03 2.264e-10
 15.69087     48.5 9.481e+03 2.801e-10
 15.73158     50.4 9.680e+03 3.620e-10
 15.77230     52.1 9.861e+03 4.017e-10
 15.81301     54.1 9.885e+03 4.060e-10
 15.85372     55.5 9.844e+03 3.684e-10
 15.89444     56.9 9.740e+03 3.089e-10
 15.92371     58.2 9.624e+03 2.552e-10
 15.94407     58.4 9.719e+03 3.014e-10
 15.97586     59.8 9.654e+03 2.698e-10
 16.01658     61.3 9.596e+03 2.412e-10
 16.05476     63.1 9.558e+03 2.116e-10
 16.07511     63.2 9.795e+03 2.684e-10
 16.09800     64.9 9.794e+03 2.330e-10
 16.13872     66.6 9.797e+03 2.077e-10
 16.17943     68.4 9.799e+03 1.920e-10
 16.20616     70.2 9.792e+03 1.876e-10
 16.22652     70.0 1.013e+04 3.157e-10
 16.24409     72.0 1.014e+04 3.238e-10
 16.26445     71.8 9.981e+03 2.272e-10
 16.30157     73.8 9.999e+03 2.310e-10
 16.33721     75.7 1.006e+04 2.454e-10
 16.35757     75.5 1.031e+04 3.718e-10
 16.38300     77.4 1.041e+04 4.081e-10
 16.42371     79.3 1.057e+04 4.818e-10
 16.46442     81.1 1.081e+04 6.060e-10
 16.48861     83.1 1.107e+04 7.472e-10
 16.49869     82.4 1.112e+04 7.825e-10
 16.51512     83.3 1.126e+04 8.575e-10
 16.53548     84.1 1.140e+04 9.379e-10
 16.55394     84.8 1.153e+04 1.015e-09
 16.56412     84.6 1.148e+04 9.757e-10
 16.57619     85.3 1.158e+04 1.031e-09
 16.59655     85.9 1.168e+04 1.088e-09
 16.61690     86.5 1.181e+04 1.156e-09
 16.62964     87.0 1.199e+04 1.244e-09
 16.63982     86.1 1.231e+04 1.284e-09
 16.65762     85.4 1.299e+04 1.568e-09
 16.67797     84.7 1.359e+04 2.009e-09
 16.69517     84.4 1.394e+04 2.555e-09
 16.70535     83.2 1.427e+04 3.610e-09
 16.71869     83.5 1.415e+04 3.717e-09
 16.73597     83.9 1.394e+04 3.596e-09
 16.74615     83.8 1.376e+04 3.474e-09
 16.75940     84.2 1.335e+04 3.042e-09
 16.77087     84.5 1.285e+04 2.315e-09
 16.79132     84.3 1.247e+04 1.685e-09
 16.83084     84.3 1.119e+04 7.978e-10
 16.87156     84.3 1.012e+04 4.049e-10
 16.90211     84.5 9.536e+03 2.627e-10
 16.92247     84.1 9.349e+03 2.643e-10
 16.95298     85.7 9.338e+03 2.679e-10
 16.99370     87.3 9.319e+03 2.848e-10
 17.03316     88.9 9.331e+03 3.119e-10
 17.05352     89.6 9.569e+03 3.666e-10
 17.07513     90.7 9.586e+03 3.737e-10
 17.11584     91.4 9.578e+03 3.682e-10
 17.15655     92.0 9.506e+03 3.431e-10
 17.18457     92.2 9.336e+03 2.980e-10
 17.20492     91.6 9.489e+03 3.046e-10
 17.22824     91.6 9.174e+03 2.553e-10
 17.24859     90.7 9.273e+03 2.659e-10
 17.27869     91.0 9.168e+03 2.542e-10
 17.31561     91.6 9.215e+03 2.605e-10
 17.33597     90.6 9.443e+03 2.661e-10
 17.36012     90.9 9.636e+03 3.012e-10
 17.39056     91.5 9.643e+03 3.244e-10
 17.40130     91.7 9.796e+03 3.806e-10
 17.41148     90.9 9.957e+03 4.273e-10
 17.43117     90.8 1.023e+04 5.906e-10
 17.45153     90.9 1.059e+04 8.212e-10
 17.46682     91.1 1.103e+04 1.137e-09
 17.47700     90.8 1.119e+04 1.096e-09
 17.49224     91.2 1.162e+04 1.369e-09
 17.51260     91.3 1.210e+04 1.642e-09
 17.53235     91.3 1.251e+04 1.819e-09
 17.54252     90.3 1.196e+04 1.223e-09
 17.55331     89.9 1.207e+04 1.223e-09
 17.57367     89.5 1.205e+04 1.200e-09
 17.59797     88.7 1.213e+04 1.158e-09
 17.61842     87.8 1.113e+04 7.564e-10
 17.64511     86.6 1.079e+04 6.274e-10
 17.68583     85.5 1.047e+04 5.567e-10
 17.72654     84.7 1.036e+04 5.601e-10
 17.74947     84.8 1.039e+04 6.083e-10
 17.75955     85.0 1.040e+04 5.767e-10
 17.77724     85.0 1.042e+04 6.011e-10
 17.79759     85.0 1.045e+04 6.307e-10
 17.81480     85.1 1.049e+04 6.614e-10
 17.82498     85.4 1.053e+04 6.631e-10
 17.83831     85.5 1.055e+04 6.823e-10
 17.85866     85.6 1.057e+04 6.925e-10
 17.87902     85.7 1.057e+04 6.926e-10
 17.89050     85.8 1.056e+04 6.863e-10
 17.90068     86.0 1.048e+04 6.320e-10
 17.91973     86.1 1.044e+04 6.065e-10
 17.94009     86.0 1.040e+04 5.734e-10
 17.95602     85.9 1.035e+04 5.405e-10
 17.96620     85.9 1.030e+04 4.874e-10
 17.98080     85.5 1.023e+04 4.567e-10
 18.00116     85.0 1.016e+04 4.283e-10
 18.02152     84.5 1.005e+04 4.030e-10
 18.04187     84.2 9.914e+03 3.727e-10
 18.06223     83.9 9.887e+03 3.734e-10
 18.08259     83.8 9.876e+03 3.853e-10
 18.09725     83.7 9.906e+03 4.097e-10
 18.10743     84.0 9.873e+03 4.078e-10
 18.12330     84.0 9.924e+03 4.374e-10
 18.14366     84.1 9.978e+03 4.693e-10
 18.16277     84.2 1.007e+04 5.073e-10
 18.17295     84.5 1.007e+04 4.976e-10
 18.18437     84.5 1.015e+04 5.322e-10
 18.20473     84.7 1.023e+04 5.676e-10
 18.22236     84.9 1.027e+04 5.913e-10
 18.23264     83.5 1.028e+04 6.089e-10
 18.25581     83.8 1.025e+04 6.063e-10
 18.29402     83.9 1.005e+04 5.502e-10
 18.31437     84.4 1.021e+04 6.050e-10
 18.33724     84.9 9.821e+03 4.640e-10
 18.37795     85.3 9.480e+03 3.412e-10
 18.41867     85.2 9.536e+03 3.357e-10
 18.44542     84.9 9.739e+03 3.681e-10
 18.46578     85.9 9.769e+03 3.816e-10
 18.48982     85.6 9.861e+03 4.149e-10
 18.51008     85.4 9.988e+03 4.732e-10
 18.52093     85.1 1.018e+04 5.747e-10
 18.53111     85.7 1.009e+04 5.454e-10
 18.55079     85.4 1.030e+04 6.610e-10
 18.57115     85.2 1.053e+04 7.989e-10
 18.58645     85.1 1.079e+04 9.458e-10
 18.59663     85.7 1.070e+04 8.747e-10
 18.61186     85.6 1.094e+04 9.617e-10
 18.63222     85.5 1.107e+04 9.686e-10
 18.65198     85.4 1.110e+04 9.425e-10
 18.66215     86.0 1.099e+04 8.590e-10
 18.67293     85.9 1.101e+04 7.712e-10
 18.69329     85.8 1.099e+04 6.591e-10
 18.71364     85.5 1.097e+04 5.626e-10
 18.72461     85.2 1.086e+04 4.971e-10
 18.72847     84.6 1.026e+04 2.998e-10
 18.73786     85.3 1.029e+04 2.700e-10
 18.75436     85.2 1.028e+04 2.737e-10
 18.77471     85.2 1.028e+04 2.951e-10
 18.79320     85.2 1.035e+04 3.503e-10
 18.80338     85.7 1.042e+04 3.352e-10
 18.81543     85.6 1.062e+04 4.459e-10
 18.83578     85.4 1.097e+04 6.365e-10
 18.85614     85.2 1.148e+04 9.644e-10
 18.86890     85.0 1.214e+04 1.512e-09
 18.87908     85.4 1.216e+04 1.587e-09
 18.89685     85.5 1.282e+04 2.391e-09
 18.91721     85.6 1.351e+04 3.294e-09
 18.93443     85.4 1.419e+04 4.048e-09
 18.94461     85.6 1.423e+04 4.100e-09
 18.95792     84.6 1.474e+04 4.319e-09
 18.97828     83.1 1.508e+04 4.381e-09
 18.99864     80.8 1.541e+04 4.555e-09
 19.01013     77.9 1.579e+04 5.127e-09
 19.02031     79.3 1.496e+04 4.280e-09
 19.03935     76.8 1.524e+04 5.118e-09
 19.05971     75.1 1.551e+04 7.007e-09
 19.07565     74.4 1.586e+04 9.439e-09
 19.08583     75.8 1.533e+04 7.313e-09
 19.10042     75.7 1.589e+04 9.603e-09
 19.12078     75.7 1.615e+04 9.997e-09
 19.14113     75.7 1.611e+04 9.349e-09
 19.16149     77.0 1.606e+04 7.621e-09
 19.18185     76.8 1.551e+04 5.342e-09
 19.20220     75.9 1.458e+04 3.225e-09
 19.21669     74.4 1.329e+04 1.864e-09
 19.22118     73.7 1.317e+04 1.803e-09
 19.22706     74.7 1.345e+04 2.066e-09
 19.24292     73.9 1.261e+04 1.431e-09
 19.26327     73.1 1.177e+04 1.050e-09
 19.28240     72.4 1.104e+04 8.873e-10
 19.29258     73.4 1.244e+04 1.139e-09
 19.30399     72.7 1.169e+04 9.960e-10
 19.32434     72.3 1.122e+04 9.622e-10
 19.34470     72.0 1.115e+04 9.769e-10
 19.35810     72.0 1.121e+04 1.038e-09
 19.36828     72.1 1.149e+04 1.135e-09
 19.38542     72.2 1.146e+04 1.143e-09
 19.40577     72.4 1.145e+04 1.136e-09
 19.42363     72.7 1.141e+04 1.095e-09
 19.43381     72.6 1.167e+04 1.168e-09
 19.44649     72.8 1.166e+04 1.076e-09
 19.46684     72.9 1.164e+04 9.510e-10
 19.48720     72.9 1.165e+04 8.319e-10
 19.49933     72.9 1.157e+04 7.719e-10
 19.50951     72.0 1.177e+04 9.758e-10
 19.52791     72.2 1.165e+04 9.755e-10
 19.54827     72.5 1.163e+04 9.886e-10
 19.56485     72.7 1.165e+04 1.059e-09
 19.57503     72.1 1.205e+04 1.467e-09
 19.58898     72.1 1.223e+04 1.657e-09
 19.60934     71.9 1.255e+04 2.012e-09
 19.62970     71.6 1.300e+04 2.586e-09
 19.64056     71.2 1.354e+04 3.447e-09
 19.65073     71.4 1.354e+04 3.560e-09
 19.67041     71.0 1.399e+04 4.551e-09
 19.69077     70.6 1.438e+04 5.577e-09
 19.70608     70.2 1.476e+04 6.624e-09
 19.71390     70.9 1.443e+04 4.646e-09
 19.71894     70.4 1.492e+04 4.298e-09
 19.73148     69.7 1.529e+04 4.773e-09
 19.75184     68.0 1.640e+04 5.637e-09
 19.77160     65.6 1.787e+04 7.313e-09
 19.78178     67.0 1.565e+04 3.306e-09
 19.78741     65.9 1.680e+04 4.403e-09
 19.79754     64.7 1.781e+04 5.935e-09
 19.80772     63.2 1.852e+04 8.064e-09
 19.81445     61.7 1.879e+04 1.094e-08
 19.81954     62.9 1.892e+04 7.242e-09
 19.82808     61.1 1.923e+04 1.059e-08
 19.83825     59.9 1.866e+04 1.505e-08
 19.84721     59.9 1.794e+04 2.087e-08
 19.85230     60.0 1.884e+04 1.460e-08
 19.85861     60.4 1.814e+04 1.963e-08
 19.86879     60.5 1.793e+04 2.274e-08
 19.87897     60.1 1.794e+04 2.293e-08
 19.89428     60.2 1.755e+04 1.813e-08
 19.91283     60.0 1.667e+04 1.481e-08
 19.92301     61.5 1.750e+04 6.562e-09
 19.93505     60.2 1.635e+04 6.320e-09
 19.95540     59.1 1.544e+04 5.874e-09
 19.97576     58.6 1.483e+04 5.500e-09
 19.98853     58.6 1.455e+04 5.313e-09
 19.99871     59.1 1.487e+04 3.791e-09
 20.01647     59.1 1.489e+04 4.704e-09
 20.03683     59.5 1.495e+04 5.685e-09
 20.05406     60.2 1.493e+04 6.402e-09
 20.06423     60.5 1.549e+04 6.055e-09
 20.07754     61.5 1.573e+04 7.353e-09
 20.09790     62.4 1.585e+04 7.762e-09
 20.11826     63.3 1.563e+04 7.252e-09
 20.12976     64.1 1.509e+04 5.734e-09
 20.13994     64.2 1.630e+04 7.756e-09
 20.15897     64.5 1.581e+04 6.050e-09
 20.17933     64.5 1.493e+04 3.946e-09
 20.19528     64.0 1.383e+04 2.251e-09
 20.20546     64.4 1.499e+04 4.215e-09
 20.21101     63.8 1.367e+04 2.484e-09
 20.22119     65.0 1.462e+04 4.434e-09
 20.24040     64.5 1.325e+04 2.321e-09
 20.26075     63.7 1.193e+04 1.287e-09
 20.28111     64.6 1.206e+04 1.459e-09
 20.30147     64.4 1.145e+04 1.140e-09
 20.33210     65.5 1.133e+04 9.699e-10
 20.37291     66.3 1.085e+04 7.814e-10
 20.40223     67.5 1.069e+04 6.914e-10
 20.42258     68.1 1.099e+04 7.355e-10
 20.45434     69.4 1.063e+04 5.686e-10
 20.49505     70.7 1.036e+04 4.345e-10
 20.53327     72.0 1.011e+04 3.313e-10
 20.55363     72.6 1.008e+04 2.894e-10
 20.57648     74.0 9.843e+03 2.273e-10
 20.61719     75.5 9.612e+03 2.140e-10
 20.65790     77.1 9.560e+03 2.156e-10
 20.68468     78.8 9.496e+03 2.245e-10
 20.70504     79.9 9.582e+03 2.249e-10
 20.73933     81.6 9.537e+03 2.380e-10
 20.78004     83.3 9.536e+03 2.538e-10
 20.81573     84.9 9.611e+03 2.664e-10
 20.83608     86.2 9.938e+03 3.299e-10
 20.86147     87.6 1.010e+04 3.727e-10
 20.89133     88.2 1.016e+04 3.885e-10
 20.90141     88.2 1.017e+04 4.235e-10
 20.91217     89.0 1.039e+04 5.063e-10
 20.94280     89.5 1.060e+04 4.462e-10
 20.96703     90.0 1.076e+04 4.954e-10
 20.97711     90.6 1.114e+04 7.316e-10
 20.99359     90.8 1.128e+04 7.555e-10
 21.01395     91.0 1.135e+04 7.807e-10
 21.03246     91.2 1.138e+04 8.102e-10
 21.04264     91.9 1.157e+04 9.993e-10
 21.05466     92.2 1.156e+04 9.938e-10
 21.07502     92.5 1.152e+04 9.688e-10
 21.09538     92.9 1.139e+04 8.857e-10
 21.10816     93.1 1.131e+04 8.201e-10
 21.11834     94.0 1.141e+04 8.841e-10
 21.13609     94.4 1.129e+04 7.509e-10
 21.15645     94.5 1.120e+04 6.610e-10
 21.18507     95.6 1.097e+04 5.186e-10
 21.20553     96.0 1.100e+04 4.845e-10
 21.22789     96.7 1.054e+04 2.589e-10
 21.24958     97.0 1.006e+04 1.177e-10
 21.26994     98.5 1.040e+04 2.112e-10
 21.30932     98.7 9.896e+03 1.128e-10
 21.35003     98.5 9.533e+03 8.693e-11
 21.38063     98.7 9.512e+03 8.778e-11
 21.40099    100.2 9.857e+03 1.485e-10
 21.43146    100.0 9.951e+03 1.593e-10
 21.47217     99.6 1.015e+04 1.936e-10
 21.51168     99.3 1.019e+04 2.336e-10
 21.53203     98.4 1.079e+04 3.736e-10
 21.54332     97.6 1.074e+04 3.945e-10
 21.56358     97.1 1.070e+04 3.990e-10
 21.58394     96.5 1.068e+04 4.117e-10
 21.59736     95.8 1.069e+04 4.369e-10
 21.60754     94.9 1.077e+04 4.921e-10
 21.62465     93.9 1.071e+04 5.094e-10
 21.64501     92.9 1.071e+04 5.404e-10
 21.66289     91.7 1.078e+04 5.871e-10
 21.67307     90.6 1.084e+04 6.352e-10
 21.68572     89.4 1.087e+04 6.709e-10
 21.69741     88.4 1.086e+04 6.741e-10
 21.70758     87.5 1.072e+04 6.163e-10
 21.72644     86.8 1.055e+04 5.805e-10
 21.73859     86.1 1.033e+04 4.960e-10
 21.74877     85.6 1.017e+04 4.627e-10
 21.76715     85.0 9.873e+03 3.632e-10
 21.79403     84.9 9.903e+03 3.345e-10
 21.81449     83.8 9.568e+03 2.519e-10
 21.83859     83.2 9.241e+03 2.009e-10
 21.87931     83.2 9.230e+03 2.033e-10
 21.92002     83.6 9.285e+03 2.142e-10
 21.94544     83.2 9.415e+03 2.253e-10
 21.95552     82.3 9.586e+03 2.426e-10
 21.97072     79.8 1.061e+04 4.288e-10
 21.99107     76.2 1.183e+04 9.976e-10
 22.01086     75.6 1.294e+04 2.278e-09
 22.02104     75.8 1.354e+04 3.376e-09
 22.03179     76.9 1.446e+04 5.479e-09
 22.05214     77.1 1.466e+04 5.731e-09
 22.07250     77.2 1.446e+04 4.992e-09
 22.08656     77.2 1.401e+04 2.961e-09
 22.09674     77.6 1.420e+04 2.478e-09
 22.11321     74.1 1.396e+04 9.932e-10
 22.13357     65.3 1.332e+04 8.642e-10
 22.15209     56.6 1.309e+04 1.094e-09
 22.16227     53.5 1.337e+04 1.595e-09
 22.17428     53.0 1.353e+04 3.138e-09
 22.18948     53.5 1.355e+04 3.818e-09
 22.19966     53.5 1.340e+04 3.641e-09
 22.21500     54.0 1.335e+04 3.545e-09
 22.22779     54.2 1.310e+04 2.898e-09
 22.23797     54.5 1.300e+04 2.757e-09
 22.25571     53.8 1.260e+04 1.718e-09
 22.27607     51.9 1.176e+04 9.132e-10
 22.29331     49.7 1.132e+04 6.802e-10
 22.30349     46.1 1.195e+04 8.256e-10
 22.32706     44.1 1.223e+04 8.938e-10
 22.35903     42.3 1.263e+04 1.267e-09
 22.37929     40.6 1.330e+04 3.075e-09
 22.39821     41.8 1.308e+04 2.968e-09
 22.41856     42.9 1.276e+04 2.515e-09
 22.43454     43.2 1.235e+04 1.979e-09
 22.44472     43.1 1.248e+04 2.077e-09
 22.45928     42.8 1.215e+04 1.564e-09
 22.47963     42.3 1.177e+04 1.224e-09
 22.49999     42.1 1.132e+04 9.908e-10
 22.52035     41.0 1.090e+04 7.973e-10
 22.54070     41.5 1.064e+04 7.345e-10
 22.56106     42.3 1.043e+04 6.585e-10
 22.57577     43.0 1.034e+04 6.031e-10
 22.58594     42.8 1.009e+04 5.089e-10
 22.61205     44.0 1.017e+04 4.370e-10
 22.64149     45.4 1.013e+04 3.274e-10
 22.66184     42.8 9.961e+03 1.968e-10
 22.69357     43.1 9.822e+03 1.951e-10
 22.73429     43.0 9.847e+03 2.143e-10
 22.76472     42.1 9.903e+03 2.720e-10
 22.78252     41.3 1.008e+04 3.427e-10
 22.79269     40.2 1.023e+04 4.228e-10
 22.80534     34.5 1.317e+04 9.181e-10
 22.82570     26.4 1.599e+04 3.386e-09
 22.84605     26.0 1.535e+04 5.325e-09
 22.85822     26.4 1.483e+04 4.793e-09
 22.86840     26.0 1.432e+04 3.997e-09
 22.88677     25.2 1.409e+04 2.058e-09
 22.90712     21.5 1.392e+04 8.011e-10
 22.92384     14.8 1.276e+04 3.454e-10
 22.94429     13.2 1.164e+04 2.202e-10
 22.97857      9.8 1.005e+04 1.718e-10
 23.01928      9.7 9.964e+03 1.887e-10
 23.05499     10.1 9.753e+03 1.905e-10
 23.07534     11.1 9.717e+03 1.752e-10
 23.10071     12.1 9.595e+03 1.597e-10
 23.14142     12.7 9.566e+03 1.270e-10
 23.17382     12.9 9.464e+03 1.129e-10
 23.19417     12.5 9.579e+03 1.444e-10
 23.20639     12.3 9.701e+03 1.581e-10
 23.22675     13.3 9.840e+03 1.933e-10
 23.26356     11.9 1.035e+04 3.011e-10
 23.30427     10.7 1.101e+04 6.888e-10
 23.33744      9.8 1.171e+04 1.177e-09
 23.35779      9.7 1.280e+04 1.661e-09
 23.38570      8.7 1.255e+04 1.702e-09
 23.42641      8.1 1.156e+04 1.204e-09
 23.46713      7.2 1.055e+04 6.222e-10
 23.48884      4.6 1.072e+04 4.792e-10
 23.50920      2.9 1.100e+04 5.094e-10
 23.54856     -1.0 1.149e+04 1.044e-09
 23.58927      0.4 1.165e+04 1.970e-09
 23.61989      2.0 1.139e+04 1.437e-09
 23.64025      1.4 1.084e+04 9.112e-10
 23.67070     -2.0 1.022e+04 5.269e-10
 23.71141     -4.8 9.062e+03 3.467e-10
 23.75094     -6.0 8.682e+03 2.338e-10
 23.77129     -5.6 8.703e+03 2.322e-10
 23.79284     -7.2 8.505e+03 1.863e-10
 23.83355     -9.0 8.430e+03 1.588e-10
 23.87426    -11.3 8.539e+03 1.629e-10
 23.90234    -13.7 8.609e+03 2.450e-10
 23.92270    -13.8 8.781e+03 3.133e-10
 23.95569    -15.0 9.181e+03 4.433e-10
 23.99640    -15.9 9.487e+03 5.796e-10
 24.03339    -16.7 9.520e+03 6.110e-10
 24.05375    -17.3 9.239e+03 4.889e-10
 24.07783    -18.1 9.059e+03 3.911e-10
 24.11854    -19.8 8.921e+03 3.221e-10
 24.15796    -21.7 8.857e+03 3.063e-10
 24.17832    -21.1 8.854e+03 3.078e-10
 24.18479    -22.3 8.824e+03 3.137e-10
 24.20515    -22.7 9.190e+03 4.765e-10
 24.24068    -22.9 8.804e+03 3.274e-10
 24.28140    -23.7 8.198e+03 1.616e-10
 24.31584    -25.2 7.863e+03 9.687e-11
 24.33620    -25.8 7.794e+03 8.666e-11
 24.36282    -27.0 7.693e+03 7.019e-11
 24.40354    -28.3 7.758e+03 7.051e-11
 24.44425    -29.9 8.032e+03 1.078e-10
 24.46724    -30.6 8.341e+03 1.805e-10
 24.48760    -31.4 8.337e+03 1.764e-10
 24.52568    -31.7 8.725e+03 2.718e-10
 24.56639    -31.7 8.958e+03 3.326e-10
 24.59829    -31.6 8.981e+03 3.413e-10
 24.61865    -31.5 8.829e+03 3.026e-10
 24.64782    -30.8 8.620e+03 1.929e-10
 24.68853    -30.7 8.518e+03 1.144e-10
 24.72924    -31.1 8.526e+03 9.465e-11
 24.76996    -33.0 8.872e+03 1.048e-10
 24.81067    -34.2 9.401e+03 2.651e-10
 24.85138    -33.7 1.022e+04 6.401e-10
 24.88074    -33.1 1.110e+04 1.071e-09
 24.90110    -33.3 1.106e+04 1.071e-09
 24.93281    -33.2 1.130e+04 1.153e-09
 24.97352    -33.6 1.104e+04 8.467e-10
 25.01179    -34.3 1.037e+04 4.953e-10
 25.03215    -34.5 9.929e+03 3.495e-10
 25.05495    -35.0 9.445e+03 2.360e-10
 25.09566    -35.0 9.170e+03 1.951e-10
 25.13638    -34.3 9.037e+03 1.752e-10
 25.16246    -33.5 8.984e+03 1.622e-10
 25.16892    -33.7 9.055e+03 1.827e-10
 25.18355    -32.9 8.842e+03 1.367e-10
 25.21780    -32.0 8.860e+03 1.273e-10
 25.25852    -31.2 8.833e+03 1.122e-10
 25.29424    -30.5 8.697e+03 1.002e-10
 25.31460    -30.0 8.615e+03 8.017e-11
 25.33994    -29.4 8.606e+03 7.888e-11
 25.38066    -29.1 8.640e+03 9.390e-11
 25.42137    -28.8 8.581e+03 1.311e-10
 25.44565    -27.7 8.586e+03 1.789e-10
 25.46600    -27.4 8.821e+03 2.396e-10
 25.50280    -25.7 8.941e+03 2.786e-10
 25.54351    -24.5 8.847e+03 2.539e-10
 25.57670    -23.7 8.712e+03 1.689e-10
 25.59705    -23.7 8.827e+03 1.911e-10
 25.62494    -23.9 8.506e+03 1.425e-10
 25.66565    -23.4 8.390e+03 1.350e-10
 25.70637    -22.6 8.424e+03 1.456e-10
 25.72810    -21.9 8.521e+03 1.590e-10
 25.74846    -22.4 8.556e+03 1.613e-10
 25.78779    -22.0 8.629e+03 1.854e-10
 25.82851    -21.9 8.869e+03 2.247e-10
 25.85915    -22.3 9.148e+03 2.831e-10
 25.87950    -23.1 8.965e+03 2.580e-10
 25.90993    -23.2 9.011e+03 3.135e-10
 25.95065    -22.8 9.198e+03 3.388e-10
 25.99019    -23.7 9.450e+03 3.253e-10
 26.01055    -24.2 8.991e+03 2.095e-10
 26.03207    -27.7 9.662e+03 2.631e-10
 26.07279    -29.9 1.007e+04 5.835e-10
 26.11350    -29.8 1.085e+04 1.039e-09
 26.14160    -30.1 1.120e+04 1.197e-09
 26.15435    -30.0 1.079e+04 9.488e-10
 26.16696    -30.6 1.073e+04 8.935e-10
 26.19493    -32.2 1.002e+04 5.388e-10
 26.23564    -33.4 9.479e+03 3.748e-10
 26.27265    -34.5 9.328e+03 3.124e-10
 26.29300    -35.2 9.302e+03 2.751e-10
 26.31707    -37.0 9.341e+03 2.849e-10
 26.35778    -39.8 1.004e+04 4.660e-10
 26.39849    -42.7 1.105e+04 8.742e-10
 26.42405    -45.5 1.186e+04 1.400e-09
 26.44441    -46.7 1.195e+04 1.433e-09
 26.47992    -49.2 1.214e+04 1.649e-09
 26.52063    -50.9 1.175e+04 1.452e-09
 26.55510    -52.2 1.093e+04 9.503e-10
 26.57546    -53.3 1.109e+04 9.882e-10
 26.59178    -55.3 1.047e+04 9.634e-10
 26.61204    -61.4 1.403e+04 1.050e-09
 26.63061    -76.2 2.639e+04 1.887e-09
 26.64078    -78.5 2.581e+04 2.944e-09
 26.64762    -84.6 2.342e+04 2.848e-08
 26.65365    -84.1 2.130e+04 1.568e-07
 26.65874    -84.2 2.108e+04 8.056e-08
 26.66793    -82.7 2.067e+04 1.940e-07
 26.67345    -81.3 2.089e+04 2.915e-07
 26.67854    -80.7 2.084e+04 3.369e-07
 26.68828    -80.4 2.092e+04 3.600e-07
 26.69846    -79.9 2.117e+04 2.281e-07
 26.70621    -78.9 2.218e+04 6.721e-08
 26.71130    -78.0 2.245e+04 4.973e-08
 26.71882    -83.9 2.391e+04 8.795e-09
 26.72900    -95.7 1.757e+04 2.444e-09
 26.73897   -100.1 1.371e+04 1.533e-09
 26.74406   -100.2 1.342e+04 1.494e-09
 26.75449   -100.8 1.274e+04 1.285e-09
 26.77183   -101.7 1.176e+04 8.822e-10
 26.78201   -100.9 1.175e+04 8.372e-10
 26.79525   -101.4 1.127e+04 6.818e-10
 26.81561   -101.4 1.106e+04 5.980e-10
 26.83597   -101.3 1.085e+04 4.840e-10
 26.84753   -101.5 1.062e+04 3.748e-10
 26.85771   -100.8 1.080e+04 4.125e-10
 26.88696   -100.9 1.057e+04 3.269e-10
 26.92777   -100.8 1.020e+04 2.211e-10
 26.96848   -100.9 9.878e+03 1.615e-10
 27.00919   -100.2 1.015e+04 2.047e-10
 27.04991   -100.3 1.015e+04 2.014e-10
 27.09062   -100.9 1.044e+04 2.523e-10
 27.12000   -101.4 1.107e+04 5.055e-10
 27.13978   -100.4 1.120e+04 5.612e-10
 27.15111   -100.8 1.120e+04 5.815e-10
 27.17205   -100.9 1.155e+04 8.198e-10
 27.21276   -101.1 1.182e+04 1.001e-09
 27.25105   -101.6 1.192e+04 1.053e-09
 27.27141   -100.9 1.183e+04 1.023e-09
 27.29419   -101.2 1.183e+04 1.030e-09
 27.33490   -101.7 1.187e+04 1.037e-09
 27.37561   -102.4 1.226e+04 1.131e-09
 27.40245   -103.6 1.274e+04 1.360e-09
 27.42281   -102.6 1.268e+04 1.255e-09
 27.45704   -103.8 1.309e+04 1.539e-09
 27.49775   -105.2 1.323e+04 1.635e-09
 27.53350   -106.2 1.302e+04 1.598e-09
 27.55386   -105.5 1.318e+04 1.587e-09
 27.57918   -105.8 1.278e+04 1.414e-09
 27.61989   -105.7 1.262e+04 1.285e-09
 27.66061   -105.4 1.264e+04 1.290e-09
 27.68481   -105.3 1.321e+04 1.770e-09
 27.70517   -104.1 1.276e+04 1.242e-09
 27.73176   -104.6 1.377e+04 2.389e-09
 27.75023   -104.5 1.416e+04 3.133e-09
 27.76041   -103.8 1.392e+04 2.420e-09
 27.77237   -103.8 1.428e+04 3.123e-09
 27.79273   -103.8 1.459e+04 3.718e-09
 27.81309   -103.9 1.481e+04 4.131e-09
 27.82594   -104.1 1.499e+04 4.347e-09
 27.83612   -103.7 1.455e+04 3.056e-09
 27.85380   -104.3 1.482e+04 3.372e-09
 27.87416   -105.3 1.517e+04 3.852e-09
 27.89146   -106.4 1.556e+04 4.674e-09
 27.90164   -106.3 1.532e+04 3.837e-09
 27.91487   -107.3 1.592e+04 5.426e-09
 27.93523   -108.0 1.654e+04 7.626e-09
 27.95559   -108.7 1.707e+04 9.984e-09
 27.96716   -109.6 1.737e+04 1.179e-08
 27.97734   -109.1 1.683e+04 7.863e-09
 27.99630   -110.2 1.694e+04 8.873e-09
 28.01666   -111.1 1.686e+04 9.437e-09
 28.03269   -111.9 1.673e+04 9.572e-09
 28.04286   -111.8 1.613e+04 6.383e-09
 28.05737   -112.2 1.604e+04 6.467e-09
 28.07773   -112.3 1.547e+04 6.304e-09
 28.09808   -112.2 1.487e+04 5.122e-09
 28.10839   -112.0 1.422e+04 3.591e-09
 28.11857   -111.6 1.399e+04 3.141e-09
 28.13506   -111.5 1.341e+04 2.229e-09
 28.14524   -111.8 1.286e+04 1.766e-09
 28.15915   -111.8 1.241e+04 1.264e-09
 28.17391   -111.8 1.215e+04 9.309e-10
 28.18409   -111.3 1.215e+04 8.683e-10
 28.19987   -111.4 1.204e+04 7.261e-10
 28.22022   -111.6 1.203e+04 6.686e-10
 28.23944   -111.6 1.204e+04 6.607e-10
 28.24961   -111.1 1.210e+04 6.563e-10
 28.26094   -111.3 1.228e+04 7.072e-10
 28.28129   -111.5 1.242e+04 7.952e-10
 28.30165   -111.8 1.252e+04 8.779e-10
 28.31514   -112.2 1.255e+04 9.008e-10
 28.32532   -112.0 1.252e+04 8.899e-10
 28.35264   -112.7 1.250e+04 8.769e-10
 28.38086   -113.8 1.248e+04 9.110e-10
 28.40121   -112.7 1.228e+04 8.095e-10
 28.43416   -113.6 1.177e+04 6.024e-10
 28.47488   -114.1 1.115e+04 3.652e-10
 28.51191   -114.5 1.066e+04 2.302e-10
 28.53226   -113.5 1.077e+04 2.130e-10
 28.55630   -113.5 1.039e+04 1.739e-10
 28.59702   -113.2 1.023e+04 1.656e-10
 28.63773   -112.8 1.019e+04 1.662e-10
 28.66331   -112.7 1.016e+04 1.960e-10
 28.68367   -111.6 1.027e+04 2.258e-10
 28.71916   -111.5 1.038e+04 2.920e-10
 28.75987   -111.5 1.057e+04 3.645e-10
 28.79436   -111.7 1.075e+04 4.172e-10
 28.81471   -110.7 1.098e+04 3.816e-10
 28.84130   -111.3 1.104e+04 3.929e-10
 28.88201   -111.9 1.104e+04 3.790e-10
 28.92272   -112.4 1.094e+04 2.976e-10
 28.94576   -112.9 1.082e+04 2.154e-10
 28.96612   -112.4 1.111e+04 2.061e-10
 29.00415   -112.8 1.099e+04 1.699e-10
 29.04486   -112.8 1.093e+04 1.618e-10
 29.07681   -112.6 1.092e+04 1.625e-10
 29.09717   -111.6 1.091e+04 1.581e-10
 29.11940   -110.8 1.091e+04 1.572e-10
 29.13975   -110.1 1.089e+04 1.173e-10
 29.16700   -109.5 1.099e+04 1.386e-10
 29.20772   -108.9 1.110e+04 1.619e-10
 29.24843   -107.4 1.108e+04 1.427e-10
 29.28914   -107.1 1.116e+04 1.588e-10
 29.32986   -107.0 1.122e+04 1.736e-10
 29.35926   -106.9 1.130e+04 1.848e-10
 29.37962   -105.7 1.122e+04 1.449e-10
 29.41128   -106.0 1.135e+04 1.657e-10
 29.45200   -106.7 1.152e+04 1.941e-10
 29.49031   -107.9 1.170e+04 2.337e-10
 29.51067   -107.1 1.182e+04 2.136e-10
 29.53342   -109.0 1.200e+04 2.752e-10
 29.57414   -111.3 1.206e+04 3.286e-10
 29.61485   -113.9 1.205e+04 3.508e-10
 29.64171   -116.4 1.196e+04 3.476e-10
 29.66207   -116.5 1.201e+04 3.917e-10
 29.69628   -118.5 1.172e+04 3.091e-10
 29.73699   -120.1 1.147e+04 2.195e-10
 29.77276   -121.5 1.136e+04 1.708e-10
 29.79312   -120.8 1.126e+04 1.635e-10
 29.81842   -121.7 1.122e+04 1.476e-10
 29.85913   -122.2 1.121e+04 1.467e-10
 29.89985   -122.5 1.125e+04 1.530e-10
 29.92416   -122.6 1.126e+04 1.834e-10
 29.94452   -121.4 1.121e+04 1.518e-10
 29.98127   -121.5 1.125e+04 1.758e-10
 30.02199   -121.6 1.132e+04 2.245e-10
 30.05521   -121.9 1.153e+04 3.292e-10
 30.07557   -120.7 1.143e+04 2.339e-10
 30.10341   -121.2 1.175e+04 4.112e-10
 30.14413   -122.3 1.246e+04 9.782e-10
 30.18484   -123.6 1.311e+04 1.605e-09
 30.20652   -124.8 1.379e+04 2.398e-09
 30.21660   -124.8 1.404e+04 2.799e-09
 30.23554   -126.0 1.466e+04 3.849e-09
 30.25589   -127.6 1.524e+04 5.152e-09
 30.27195   -129.5 1.564e+04 6.419e-09
 30.28212   -129.2 1.602e+04 8.375e-09
 30.29661   -130.9 1.607e+04 8.793e-09
 30.31696   -132.5 1.595e+04 8.737e-09
 30.33732   -133.8 1.546e+04 7.186e-09
 30.34765   -135.2 1.480e+04 5.095e-09
 30.35783   -134.8 1.471e+04 4.424e-09
 30.37803   -136.7 1.395e+04 2.791e-09
 30.39839   -138.4 1.331e+04 1.834e-09
 30.41317   -139.9 1.282e+04 1.303e-09
 30.42335   -140.0 1.273e+04 1.149e-09
 30.43910   -141.0 1.241e+04 9.223e-10
 30.45946   -141.7 1.217e+04 7.779e-10
 30.47869   -142.2 1.192e+04 6.714e-10
 30.48897   -141.5 1.205e+04 7.562e-10
 30.51055   -142.2 1.165e+04 5.909e-10
 30.55126   -142.8 1.151e+04 5.394e-10
 30.59197   -143.4 1.144e+04 5.197e-10
 30.62012   -144.0 1.145e+04 5.242e-10
 30.64047   -143.7 1.143e+04 5.102e-10
 30.67340   -144.6 1.152e+04 5.772e-10
 30.71411   -145.6 1.167e+04 7.019e-10
 30.75116   -146.7 1.186e+04 8.523e-10
 30.77152   -146.4 1.199e+04 8.840e-10
 30.79554   -147.5 1.221e+04 1.055e-09
 30.83625   -148.8 1.231e+04 1.140e-09
 30.87697   -150.5 1.232e+04 1.152e-09
 30.90247   -151.3 1.222e+04 1.158e-09
 30.91255   -150.7 1.219e+04 1.148e-09
 30.92766   -151.2 1.207e+04 1.000e-09
 30.94802   -151.7 1.197e+04 8.789e-10
 30.96790   -152.0 1.191e+04 7.883e-10
 30.97807   -151.7 1.192e+04 7.690e-10
 30.99901   -152.3 1.186e+04 7.210e-10
 31.03362   -152.2 1.177e+04 6.693e-10
 31.05397   -150.4 1.177e+04 6.372e-10
 31.08053   -150.4 1.177e+04 6.350e-10
 31.10804   -150.4 1.186e+04 6.890e-10
 31.12840   -151.2 1.241e+04 1.043e-09
 31.16196   -151.7 1.278e+04 1.338e-09
 31.18502   -151.8 1.313e+04 1.633e-09
 31.19510   -152.1 1.358e+04 2.155e-09
 31.21266   -152.2 1.392e+04 2.581e-09
 31.23301   -152.4 1.429e+04 3.086e-09
 31.25035   -152.7 1.472e+04 3.810e-09
 31.26053   -153.4 1.559e+04 6.945e-09
 31.27373   -153.4 1.598e+04 8.484e-09
 31.29408   -153.5 1.620e+04 9.501e-09
 31.31444   -154.0 1.624e+04 9.771e-09
 31.32605   -154.5 1.615e+04 9.673e-09
 31.33623   -155.0 1.615e+04 9.736e-09
 31.35515   -155.6 1.605e+04 9.215e-09
 31.37551   -156.9 1.606e+04 9.078e-09
 31.39157   -159.6 1.654e+04 9.274e-09
 31.40175   -160.2 1.603e+04 7.428e-09
 31.41622   -164.6 1.791e+04 1.019e-08
 31.43658   -169.1 1.933e+04 1.690e-08
 31.45694   -173.5 1.985e+04 2.341e-08
 31.46728   -177.8 1.987e+04 2.499e-08
 31.47745   -178.5 2.007e+04 2.599e-08
 31.49765   -182.0 1.937e+04 2.345e-08
 31.51801   -184.9 1.779e+04 1.218e-08
 31.53280   -187.9 1.542e+04 4.280e-09
 31.54298   -187.5 1.555e+04 4.397e-09
 31.55872   -190.3 1.350e+04 1.702e-09
 31.57908   -192.0 1.206e+04 7.668e-10
 31.59832   -192.3 1.154e+04 5.440e-10
 31.60850   -192.1 1.161e+04 5.623e-10
 31.61010   -192.1 1.136e+04 4.753e-10
 31.62028   -191.5 1.142e+04 4.865e-10
 31.65042   -191.2 1.131e+04 4.353e-10
 31.69123   -190.3 1.123e+04 3.911e-10
 31.72957   -188.7 1.109e+04 3.330e-10
 31.74992   -188.7 1.116e+04 3.559e-10
 31.77266   -187.0 1.104e+04 2.977e-10
 31.81337   -185.4 1.097e+04 2.551e-10
 31.85409   -183.8 1.093e+04 2.237e-10
 31.88097   -182.2 1.090e+04 1.998e-10
 31.90133   -182.0 1.082e+04 1.774e-10
 31.93551   -180.3 1.079e+04 1.594e-10
 31.97623   -178.8 1.075e+04 1.498e-10
 32.01202   -177.3 1.070e+04 1.448e-10
 32.03238   -177.1 1.066e+04 1.218e-10
 32.05766   -175.8 1.063e+04 1.187e-10
 32.09219   -174.5 1.058e+04 1.138e-10
 32.11254   -174.5 1.061e+04 1.236e-10
 32.13908   -173.4 1.057e+04 1.190e-10
 32.16342   -172.3 1.054e+04 1.140e-10
 32.18378   -172.4 1.053e+04 9.624e-11
 32.22051   -171.2 1.052e+04 9.358e-11
 32.26122   -170.1 1.052e+04 9.264e-11
 32.29447   -169.1 1.055e+04 9.211e-11
 32.31483   -169.1 1.055e+04 8.827e-11
 32.34265   -168.3 1.063e+04 9.423e-11
 32.38336   -168.1 1.066e+04 1.037e-10
 32.42408   -168.1 1.064e+04 1.268e-10
 32.44587   -168.5 1.090e+04 2.021e-10
 32.46623   -168.0 1.080e+04 1.655e-10
 32.50550   -168.6 1.132e+04 3.021e-10
 32.54622   -169.6 1.199e+04 5.751e-10
 32.57692   -171.3 1.253e+04 9.189e-10
 32.59728   -170.4 1.233e+04 7.625e-10
 32.62764   -172.6 1.258e+04 9.685e-10
 32.66836   -175.1 1.256e+04 1.003e-09
 32.70797   -176.8 1.213e+04 8.708e-10
 32.72833   -175.7 1.223e+04 8.903e-10
 32.74978   -176.4 1.172e+04 6.264e-10
 32.79050   -176.5 1.135e+04 3.887e-10
 32.83121   -176.3 1.117e+04 2.497e-10
 32.85937   -175.9 1.106e+04 1.758e-10
 32.87973   -174.8 1.107e+04 1.962e-10
 32.91264   -173.6 1.099e+04 1.474e-10
 32.95335   -172.2 1.102e+04 1.251e-10
 32.99042   -170.9 1.104e+04 1.183e-10
 33.01078   -169.7 1.103e+04 1.294e-10
 33.03478   -168.4 1.104e+04 1.285e-10
 33.07549   -167.3 1.109e+04 1.295e-10
 33.09669   -166.3 1.109e+04 1.402e-10
 33.11705   -166.5 1.116e+04 1.689e-10
 33.14183   -165.5 1.111e+04 1.835e-10
 33.16218   -164.8 1.129e+04 2.542e-10
 33.19763   -163.8 1.127e+04 2.946e-10
 33.23834   -162.7 1.125e+04 3.277e-10
 33.27287   -161.5 1.124e+04 3.529e-10
 33.29323   -160.9 1.149e+04 5.362e-10
 33.31977   -159.7 1.147e+04 5.452e-10
 33.36048   -158.5 1.145e+04 5.488e-10
 33.40120   -157.3 1.145e+04 5.481e-10
 33.42428   -156.3 1.148e+04 5.496e-10
 33.44463   -156.1 1.169e+04 6.791e-10
 33.48262   -155.7 1.186e+04 7.058e-10
 33.52334   -155.6 1.198e+04 7.746e-10
 33.55533   -155.8 1.203e+04 8.424e-10
 33.57568   -156.3 1.215e+04 9.421e-10
 33.60476   -156.8 1.212e+04 9.513e-10
 33.64548   -157.1 1.179e+04 8.475e-10
 33.68619   -157.1 1.138e+04 6.127e-10
 33.72690   -157.0 1.079e+04 2.817e-10
 33.76762   -156.6 1.054e+04 1.743e-10
 33.80833   -156.2 1.045e+04 1.420e-10
 33.83778   -155.8 1.043e+04 1.377e-10
 33.85813   -156.0 1.032e+04 1.348e-10
 33.88976   -155.6 1.039e+04 1.493e-10
 33.93047   -155.4 1.043e+04 1.882e-10
 33.96883   -155.1 1.045e+04 2.255e-10
 33.98918   -155.0 1.040e+04 2.230e-10
 34.01190   -154.6 1.038e+04 2.343e-10
 34.05261   -154.2 1.036e+04 2.366e-10
 34.08083   -153.4 1.022e+04 2.182e-10
 34.10119   -153.2 1.017e+04 2.052e-10
 34.12023   -152.2 1.006e+04 1.712e-10
 34.14059   -151.7 1.001e+04 1.460e-10
 34.17475   -150.5 9.938e+03 1.137e-10
 34.21547   -149.3 9.895e+03 8.732e-11
 34.25128   -148.2 9.884e+03 6.830e-11
 34.27163   -147.8 9.862e+03 5.887e-11
 34.29689   -146.7 9.867e+03 4.978e-11
 34.33761   -145.5 9.884e+03 4.481e-11
 34.37832   -144.3 9.908e+03 4.312e-11
 34.40268   -143.0 9.917e+03 4.305e-11
 34.42304   -142.4 9.837e+03 4.148e-11
 34.45975   -141.1 9.840e+03 4.178e-11
 34.50046   -139.9 9.949e+03 4.230e-11
 34.53373   -138.7 1.006e+04 4.560e-11
 34.55409   -138.0 1.007e+04 4.459e-11
 34.58189   -136.8 1.013e+04 5.131e-11
 34.62260   -135.7 1.024e+04 6.278e-11
 34.66331   -134.7 1.038e+04 8.206e-11
 34.68513   -133.8 1.052e+04 1.129e-10
 34.70549   -133.2 1.054e+04 1.278e-10
 34.74474   -132.2 1.071e+04 1.820e-10
 34.78545   -131.3 1.088e+04 2.437e-10
 34.81618   -130.6 1.105e+04 2.931e-10
 34.83654   -130.1 1.112e+04 2.980e-10
 34.86688   -129.5 1.115e+04 3.093e-10
 34.90759   -128.8 1.114e+04 3.077e-10
 34.94723   -127.8 1.107e+04 2.637e-10
 34.96759   -127.4 1.103e+04 2.494e-10
 34.98902   -126.2 1.094e+04 2.009e-10
 35.02973   -125.0 1.091e+04 1.699e-10
 35.06498   -123.8 1.095e+04 1.588e-10
 35.08534   -123.4 1.100e+04 1.898e-10
 35.09863   -122.2 1.102e+04 1.844e-10
 35.11899   -121.5 1.097e+04 1.771e-10
 35.15187   -120.2 1.098e+04 1.773e-10
 35.19259   -118.9 1.108e+04 1.921e-10
 35.22968   -117.7 1.113e+04 2.305e-10
 35.25004   -116.7 1.111e+04 2.111e-10
 35.27401   -115.3 1.120e+04 2.594e-10
 35.31473   -113.9 1.132e+04 3.152e-10
 35.35544   -112.6 1.147e+04 3.734e-10
 35.38108   -111.7 1.165e+04 4.564e-10
 35.40144   -110.3 1.163e+04 4.438e-10
 35.43687   -109.7 1.192e+04 6.329e-10
 35.47758   -109.2 1.245e+04 1.047e-09
 35.51213   -108.9 1.316e+04 1.837e-09
 35.53249   -107.3 1.314e+04 1.744e-09
 35.55901   -107.8 1.385e+04 2.872e-09
 35.58774   -109.0 1.412e+04 3.545e-09
 35.59782   -108.3 1.422e+04 3.594e-09
 35.60970   -108.7 1.431e+04 3.840e-09
 35.63006   -109.3 1.434e+04 3.925e-09
 35.65042   -109.9 1.428e+04 3.901e-09
 35.66334   -110.5 1.406e+04 3.561e-09
 35.67352   -109.6 1.453e+04 4.206e-09
 35.69113   -110.2 1.427e+04 3.783e-09
 35.71149   -110.8 1.401e+04 3.439e-09
 35.72887   -111.3 1.390e+04 3.323e-09
 35.73904   -110.5 1.499e+04 5.022e-09
 35.75220   -111.0 1.518e+04 5.286e-09
 35.77256   -112.8 1.549e+04 5.690e-09
 35.78778   -114.7 1.602e+04 7.081e-09
 35.79791   -117.2 1.709e+04 9.208e-09
 35.80447   -120.1 1.837e+04 1.324e-08
 35.80956   -121.4 1.997e+04 1.926e-08
 35.81806   -124.4 2.092e+04 3.029e-08
 35.82315   -125.2 2.117e+04 3.084e-08
 35.82844   -127.4 2.163e+04 5.204e-08
 35.83723   -129.3 2.169e+04 7.585e-08
 35.84232   -130.5 2.194e+04 1.452e-07
 35.84880   -132.3 2.181e+04 1.586e-07
 35.85898   -133.9 2.155e+04 1.594e-07
 35.86915   -135.0 2.127e+04 1.197e-07
 35.87508   -135.9 2.101e+04 7.841e-08
 35.88017   -137.6 2.177e+04 7.515e-08
 35.88951   -139.0 2.102e+04 4.451e-08
 35.89969   -140.2 2.001e+04 2.809e-08
 35.90784   -141.1 1.879e+04 1.919e-08
 35.91293   -142.8 1.845e+04 1.795e-08
 35.92005   -143.2 1.737e+04 1.344e-08
 35.93022   -143.3 1.661e+04 1.096e-08
 35.94040   -143.0 1.621e+04 9.577e-09
 35.94574   -142.3 1.584e+04 8.125e-09
 35.95597   -143.1 1.573e+04 8.089e-09
 35.97612   -141.5 1.462e+04 5.297e-09
 35.99648   -140.4 1.366e+04 3.508e-09
 36.01132   -139.7 1.316e+04 2.573e-09
 36.02150   -140.0 1.323e+04 2.645e-09
 36.03719   -139.2 1.291e+04 2.114e-09
 36.05755   -138.2 1.262e+04 1.724e-09
 36.06928   -137.3 1.235e+04 1.419e-09
 36.07840   -137.2 1.228e+04 1.361e-09
 36.08702   -137.5 1.248e+04 1.583e-09
 36.09826   -136.8 1.226e+04 1.353e-09
 36.11862   -136.1 1.209e+04 1.194e-09
 36.13898   -135.4 1.198e+04 1.090e-09
 36.15254   -134.7 1.194e+04 1.042e-09
 36.16272   -135.2 1.229e+04 1.438e-09
 36.17969   -134.6 1.228e+04 1.430e-09
 36.20005   -134.0 1.229e+04 1.438e-09
 36.21807   -133.4 1.233e+04 1.478e-09
 36.22825   -133.8 1.267e+04 1.976e-09
 36.24076   -133.3 1.268e+04 1.997e-09
 36.26112   -132.9 1.269e+04 2.002e-09
 36.28147   -132.6 1.272e+04 1.974e-09
 36.29377   -132.4 1.273e+04 1.919e-09
 36.30395   -132.9 1.290e+04 2.078e-09
 36.32219   -132.9 1.282e+04 1.896e-09
 36.34254   -132.8 1.268e+04 1.709e-09
 36.35939   -132.7 1.252e+04 1.495e-09
 36.37984   -133.0 1.256e+04 1.539e-09
 36.41399   -132.5 1.230e+04 1.246e-09
 36.43509   -132.0 1.215e+04 1.083e-09
 36.44517   -132.2 1.210e+04 1.065e-09
 36.46469   -131.6 1.199e+04 9.147e-10
 36.49044   -131.5 1.189e+04 7.934e-10
 36.51089   -131.6 1.173e+04 7.182e-10
 36.53613   -131.2 1.153e+04 5.720e-10
 36.57684   -130.2 1.123e+04 4.321e-10
 36.61756   -129.1 1.097e+04 3.272e-10
 36.64194   -127.8 1.075e+04 2.471e-10
 36.66230   -127.5 1.079e+04 2.540e-10
 36.69898   -126.2 1.062e+04 2.081e-10
 36.73970   -124.8 1.046e+04 1.760e-10
 36.77299   -123.4 1.030e+04 1.552e-10
 36.79334   -123.0 1.043e+04 2.190e-10
 36.82112   -121.4 1.027e+04 2.068e-10
 36.86184   -119.8 1.015e+04 1.922e-10
 36.90255   -118.1 1.007e+04 1.790e-10
 36.92439   -116.5 1.003e+04 1.692e-10
 36.94475   -116.1 1.007e+04 1.992e-10
 36.98398   -114.7 1.006e+04 1.867e-10
 37.02469   -113.4 1.007e+04 1.827e-10
 37.05362   -112.4 1.013e+04 1.896e-10
 37.06402   -112.1 1.018e+04 2.579e-10
 37.07580   -112.0 1.023e+04 2.699e-10
 37.10612   -111.4 1.023e+04 3.052e-10
 37.14683   -110.7 1.019e+04 3.423e-10
 37.18649   -110.1 1.013e+04 3.643e-10
 37.20684   -110.1 1.014e+04 3.711e-10
 37.22826   -109.3 1.011e+04 3.684e-10
 37.26897   -108.3 9.856e+03 3.520e-10
 37.30968   -107.2 9.635e+03 2.931e-10
 37.33789   -105.9 9.447e+03 2.255e-10
 37.35825   -105.9 9.337e+03 1.972e-10
 37.39111   -104.6 9.159e+03 1.477e-10
 37.43182   -103.2 8.996e+03 1.172e-10
 37.46894   -101.8 8.870e+03 1.014e-10
 37.48930   -101.5 8.854e+03 1.019e-10
 37.51325    -99.9 8.816e+03 9.747e-11
 37.55396    -98.4 8.814e+03 9.596e-11
 37.59468    -97.2 8.851e+03 9.893e-11
 37.62034    -96.2 8.935e+03 1.212e-10
 37.64070    -96.1 8.974e+03 1.330e-10
 37.67610    -95.2 9.076e+03 1.693e-10
 37.71682    -94.5 9.184e+03 2.112e-10
 37.75139    -93.8 9.279e+03 2.493e-10
 37.77175    -93.7 9.218e+03 2.436e-10
 37.79824    -93.1 9.239e+03 2.623e-10
 37.83896    -92.5 9.264e+03 2.747e-10
 37.87967    -92.0 9.297e+03 2.843e-10
 37.90280    -91.6 9.361e+03 2.908e-10
 37.92315    -91.4 9.438e+03 3.171e-10
 37.96110    -91.2 9.586e+03 3.603e-10
 38.00181    -91.0 9.703e+03 4.087e-10
 38.03384    -90.9 9.749e+03 4.557e-10
 38.04935    -91.0 9.778e+03 5.275e-10
 38.05803    -90.9 9.748e+03 4.883e-10
 38.07296    -90.6 9.692e+03 4.913e-10
 38.09322    -90.5 9.670e+03 4.897e-10
 38.10935    -90.3 9.647e+03 4.821e-10
 38.11953    -90.9 9.726e+03 5.124e-10
 38.13393    -90.9 9.736e+03 5.018e-10
 38.15429    -91.0 9.740e+03 4.982e-10
 38.17465    -91.0 9.743e+03 4.977e-10
 38.18505    -90.9 9.738e+03 5.115e-10
 38.19523    -91.4 9.759e+03 5.482e-10
 38.21536    -91.1 9.769e+03 5.690e-10
 38.23572    -90.7 9.790e+03 5.870e-10
 38.25058    -90.2 9.842e+03 5.982e-10
 38.26075    -90.6 9.860e+03 5.983e-10
 38.27643    -90.2 9.914e+03 5.820e-10
 38.29679    -89.8 9.957e+03 5.686e-10
 38.31610    -89.4 9.987e+03 5.585e-10
 38.32628    -89.9 9.947e+03 5.509e-10
 38.33750    -89.5 9.947e+03 5.428e-10
 38.35786    -89.1 9.925e+03 5.323e-10
 38.37821    -88.6 9.912e+03 5.217e-10
 38.39180    -88.1 9.901e+03 5.150e-10
 38.40198    -88.6 9.916e+03 5.347e-10
 38.41893    -88.1 9.926e+03 5.375e-10
 38.43928    -87.5 9.934e+03 5.420e-10
 38.45733    -86.9 9.934e+03 5.465e-10
 38.46750    -87.3 9.977e+03 5.850e-10
 38.48000    -86.7 9.978e+03 5.939e-10
 38.50035    -85.9 9.968e+03 5.953e-10
 38.52071    -84.9 9.921e+03 5.709e-10
 38.53303    -83.9 9.915e+03 5.455e-10
 38.54196    -84.0 9.911e+03 5.470e-10
 38.55000    -83.8 9.895e+03 5.321e-10
 38.57170    -83.0 9.943e+03 5.189e-10
 38.59875    -81.8 9.924e+03 4.797e-10
 38.61910    -82.3 9.935e+03 4.718e-10
 38.65323    -81.0 9.887e+03 4.146e-10
 38.69394    -79.6 9.822e+03 3.675e-10
 38.72979    -78.4 9.813e+03 3.537e-10
 38.75015    -79.1 9.799e+03 3.411e-10
 38.77537    -77.9 1.008e+04 3.962e-10
 38.81608    -76.8 1.030e+04 5.052e-10
 38.85679    -75.7 1.060e+04 6.255e-10
 38.88120    -74.8 1.087e+04 7.180e-10
 38.90156    -75.5 1.093e+04 7.322e-10
 38.93822    -75.0 1.107e+04 7.657e-10
 38.97893    -74.5 1.111e+04 7.667e-10
 39.01225    -73.7 1.114e+04 6.846e-10
 39.03260    -74.8 1.160e+04 9.678e-10
 39.04227    -73.8 1.162e+04 9.396e-10
 39.06263    -72.7 1.104e+04 6.122e-10
 39.10107    -71.5 1.105e+04 5.962e-10
 39.14179    -70.1 1.121e+04 6.149e-10
 39.16365    -68.9 1.144e+04 7.424e-10
 39.18401    -69.6 1.158e+04 9.914e-10
 39.22321    -68.8 1.187e+04 1.176e-09
 39.26393    -68.3 1.231e+04 1.551e-09
 39.29470    -68.1 1.290e+04 2.209e-09
 39.31505    -68.0 1.230e+04 1.648e-09
 39.34535    -67.7 1.262e+04 2.019e-09
 39.38607    -67.3 1.278e+04 2.191e-09
 39.42575    -67.1 1.270e+04 2.065e-09
 39.44610    -67.0 1.171e+04 1.180e-09
 39.46749    -66.4 1.152e+04 1.128e-09
 39.50821    -65.5 1.122e+04 9.782e-10
 39.54892    -64.4 1.095e+04 7.832e-10
 39.57715    -63.6 1.075e+04 5.873e-10
 39.59751    -62.7 1.038e+04 4.156e-10
 39.63035    -62.5 1.040e+04 3.393e-10
 39.67106    -62.7 1.045e+04 3.229e-10
 39.70820    -63.7 1.066e+04 3.776e-10
 39.72855    -62.7 1.047e+04 3.475e-10
 39.75249    -63.5 1.067e+04 5.587e-10
 39.79320    -64.0 1.067e+04 6.776e-10
 39.83391    -64.4 1.047e+04 6.700e-10
 39.85960    -64.3 9.898e+03 4.725e-10
 39.87996    -63.3 1.002e+04 5.138e-10
 39.91534    -63.2 9.440e+03 2.977e-10
 39.95605    -63.3 9.023e+03 1.808e-10
 39.99065    -62.9 8.721e+03 1.281e-10
 40.01101    -62.2 8.815e+03 1.470e-10
 40.02641    -61.1 8.558e+03 1.130e-10
 40.04677    -60.9 8.539e+03 9.729e-11
 40.07819    -59.5 8.403e+03 8.003e-11
 40.11891    -58.2 8.347e+03 6.857e-11
 40.14205    -56.8 8.336e+03 6.382e-11
 40.16241    -56.4 8.381e+03 7.382e-11
 40.20033    -55.0 8.378e+03 7.313e-11
 40.24105    -53.6 8.408e+03 7.619e-11
 40.27310    -52.1 8.458e+03 8.365e-11
 40.29346    -51.6 8.501e+03 9.683e-11
 40.32247    -50.1 8.506e+03 9.896e-11
 40.36319    -48.5 8.513e+03 9.642e-11
 40.40390    -46.9 8.536e+03 9.102e-11
 40.42451    -45.4 8.550e+03 8.591e-11
 40.44486    -44.9 8.541e+03 8.556e-11
 40.48533    -43.6 8.553e+03 8.467e-11
 40.52604    -42.7 8.760e+03 8.919e-11
 40.55555    -41.9 8.997e+03 1.245e-10
 40.57591    -41.5 8.996e+03 1.268e-10
 40.60747    -40.6 9.193e+03 1.894e-10
 40.64818    -39.6 9.411e+03 2.607e-10
 40.68660    -38.8 9.593e+03 3.145e-10
 40.70696    -38.3 9.629e+03 3.193e-10
 40.72961    -37.6 9.739e+03 3.381e-10
 40.77032    -37.1 9.780e+03 3.429e-10
 40.81104    -36.6 9.825e+03 3.401e-10
 40.83800    -36.4 9.967e+03 3.697e-10
 40.85836    -36.4 1.017e+04 4.822e-10
 40.89246    -36.0 1.046e+04 6.383e-10
 40.93318    -35.3 1.071e+04 7.996e-10
 40.96905    -34.5 1.082e+04 8.615e-10
 40.98941    -34.3 1.084e+04 8.738e-10
 41.01056    -33.3 1.065e+04 7.124e-10
 41.03092    -33.3 1.087e+04 8.024e-10
 41.05532    -32.5 1.058e+04 5.928e-10
 41.09603    -31.6 1.034e+04 4.462e-10
 41.12046    -30.7 1.019e+04 3.625e-10
 41.14081    -30.1 1.013e+04 3.430e-10
 41.17746    -29.0 1.010e+04 3.166e-10
 41.21817    -27.8 1.007e+04 3.020e-10
 41.25150    -26.6 1.004e+04 2.915e-10
 41.27186    -25.7 1.008e+04 2.891e-10
 41.29960    -24.6 1.009e+04 2.987e-10
 41.34031    -23.5 1.001e+04 3.106e-10
 41.38102    -22.2 9.949e+03 3.087e-10
 41.40291    -21.0 9.917e+03 2.994e-10
 41.42327    -20.2 1.019e+04 4.186e-10
 41.46245    -18.8 1.013e+04 4.045e-10
 41.50316    -17.4 1.006e+04 3.462e-10
 41.53396    -16.0 1.002e+04 2.664e-10
 41.55431    -15.2 1.018e+04 3.155e-10
 41.58459    -14.1 1.009e+04 2.181e-10
 41.62530    -13.0 9.994e+03 1.679e-10
 41.66500    -11.8 9.928e+03 1.472e-10
 41.68536    -11.2 9.887e+03 1.389e-10
 41.70673     -9.7 9.809e+03 1.188e-10
 41.74744     -8.1 9.740e+03 9.637e-11
 41.78816     -6.6 9.665e+03 7.654e-11
 41.81641     -5.2 9.575e+03 6.583e-11
 41.83676     -4.7 9.505e+03 6.631e-11
 41.86958     -3.2 9.516e+03 6.469e-11
 41.91030     -1.9 9.607e+03 7.107e-11
 41.94746     -0.7 9.571e+03 9.213e-11
 41.96781     -0.1 9.567e+03 9.692e-11
 41.99172      1.4 9.589e+03 1.273e-10
 42.01506      2.8 9.653e+03 1.579e-10
 42.03542      2.9 9.744e+03 1.662e-10
 42.07315      4.2 9.778e+03 1.798e-10
 42.09886      5.2 9.764e+03 1.820e-10
 42.11922      5.8 9.925e+03 2.365e-10
 42.15458      6.6 9.867e+03 2.361e-10
 42.19529      7.5 9.907e+03 2.407e-10
 42.22991      8.0 1.004e+04 2.482e-10
 42.25026      8.3 1.014e+04 3.014e-10
 42.27672      8.7 1.008e+04 3.230e-10
 42.31743      9.8 1.002e+04 3.451e-10
 42.35814     11.4 9.893e+03 2.900e-10
 42.38131     12.6 9.827e+03 1.821e-10
 42.40167     12.8 9.787e+03 1.562e-10
 42.43957     13.1 9.472e+03 1.222e-10
 42.48028     14.4 9.392e+03 1.189e-10
 42.51236     16.0 9.383e+03 1.316e-10
 42.53272     16.5 9.338e+03 1.407e-10
 42.56171     18.6 9.484e+03 1.544e-10
 42.60243     20.5 9.649e+03 1.536e-10
 42.64314     22.0 9.705e+03 1.472e-10
 42.66376     23.4 9.721e+03 1.545e-10
 42.68412     23.8 9.833e+03 1.568e-10
 42.72457     24.7 1.013e+04 2.011e-10
 42.76528     25.1 1.045e+04 3.116e-10
 42.79471     24.7 1.034e+04 4.955e-10
 42.80479     24.7 1.064e+04 6.556e-10
 42.81598     25.7 1.078e+04 8.623e-10
 42.83633     27.2 1.076e+04 1.258e-09
 42.85669     28.0 1.160e+04 1.219e-09
 42.87032     28.3 1.112e+04 1.311e-09
 42.88050     28.5 1.139e+04 1.515e-09
 42.89740     29.9 1.074e+04 1.190e-09
 42.91776     30.7 1.062e+04 7.377e-10
 42.93584     31.2 1.033e+04 5.995e-10
 42.94602     30.5 1.060e+04 6.993e-10
 42.96875     29.0 1.044e+04 3.869e-10
 42.99921     29.1 9.944e+03 3.754e-10
 43.01956     28.9 1.014e+04 4.383e-10
 43.05027     30.0 9.816e+03 4.063e-10
 43.07726     31.5 9.634e+03 3.833e-10
 43.09762     30.9 9.802e+03 4.194e-10
 43.13170     32.8 9.556e+03 3.808e-10
 43.17241     34.8 9.308e+03 3.060e-10
 43.20831     36.2 9.163e+03 2.308e-10
 43.22867     35.7 9.359e+03 2.917e-10
 43.25384     37.1 9.353e+03 2.919e-10
 43.29455     38.0 9.484e+03 3.492e-10
 43.33527     39.2 9.778e+03 5.005e-10
 43.35972     40.4 1.021e+04 7.396e-10
 43.38007     40.3 1.062e+04 9.720e-10
 43.41669     41.7 1.066e+04 1.007e-09
 43.45741     42.9 1.055e+04 9.532e-10
 43.49076     44.1 1.021e+04 7.998e-10
 43.51112     43.9 1.080e+04 1.177e-09
 43.53883     45.6 1.019e+04 8.836e-10
 43.57955     47.4 9.579e+03 6.009e-10
 43.62026     49.2 9.055e+03 3.981e-10
 43.64217     51.1 8.569e+03 2.598e-10
 43.66252     51.1 8.568e+03 2.598e-10
 43.70169     52.9 8.223e+03 1.885e-10
 43.74240     54.9 7.989e+03 1.551e-10
 43.77321     57.2 7.832e+03 1.384e-10
 43.79357     57.2 7.837e+03 1.398e-10
 43.82383     59.6 7.748e+03 1.309e-10
 43.86454     62.0 7.704e+03 1.263e-10
 43.90426     64.4 7.694e+03 1.241e-10
 43.92462     64.2 7.767e+03 1.340e-10
 43.94597     66.3 7.772e+03 1.334e-10
 43.98335     68.1 7.797e+03 1.354e-10
 44.00371     67.2 7.773e+03 1.317e-10
 44.02739     68.6 7.935e+03 1.455e-10
 44.05567     68.4 8.408e+03 1.986e-10
 44.07602     66.6 8.704e+03 2.540e-10
 44.09854     66.2 9.005e+03 3.094e-10
 44.11880     65.8 9.210e+03 3.583e-10
 44.13117     65.0 9.672e+03 5.375e-10
 44.14135     64.3 9.894e+03 6.592e-10
 44.15952     64.1 1.032e+04 8.744e-10
 44.17987     63.8 1.064e+04 9.820e-10
 44.19670     63.3 1.070e+04 9.528e-10
 44.20688     62.1 1.053e+04 8.082e-10
 44.22059     60.9 1.036e+04 6.169e-10
 44.24094     59.8 1.009e+04 4.503e-10
 44.27158     56.2 9.777e+03 3.335e-10
 44.31239     54.1 9.409e+03 2.806e-10
 44.33812     53.3 9.132e+03 2.645e-10
 44.35848     52.5 9.595e+03 3.819e-10
 44.38354     52.6 9.510e+03 3.711e-10
 44.40345     52.7 9.545e+03 3.815e-10
 44.41363     52.6 9.893e+03 5.388e-10
 44.42415     52.7 1.004e+04 6.161e-10
 44.44451     53.0 1.024e+04 7.214e-10
 44.46487     52.9 1.064e+04 9.064e-10
 44.47915     52.9 1.100e+04 1.145e-09
 44.48933     52.6 1.152e+04 1.446e-09
 44.49558     52.7 1.183e+04 1.729e-09
 44.50576     53.2 1.173e+04 1.623e-09
 44.52594     53.4 1.203e+04 1.898e-09
 44.54467     53.5 1.236e+04 2.232e-09
 44.55485     52.8 1.273e+04 2.370e-09
 44.56665     52.8 1.290e+04 2.631e-09
 44.58701     52.6 1.303e+04 2.754e-09
 44.60736     53.0 1.292e+04 2.682e-09
 44.62047     52.7 1.277e+04 2.364e-09
 44.64093     51.4 1.252e+04 1.967e-09
 44.67881     52.3 1.162e+04 1.042e-09
 44.71952     53.0 1.072e+04 4.102e-10
 44.75162     52.9 1.014e+04 1.474e-10
 44.77197     51.7 9.779e+03 9.917e-11
 44.80095     52.4 9.413e+03 8.327e-11
 44.84166     54.2 9.297e+03 8.189e-11
 44.88238     56.2 9.312e+03 8.250e-11
 44.90302     58.1 9.405e+03 8.506e-11
 44.92338     58.9 9.408e+03 8.761e-11
 44.96380     60.8 9.575e+03 9.666e-11
 44.98785     62.5 9.802e+03 1.176e-10
 45.00821     63.3 9.613e+03 8.608e-11
 45.03407     65.1 9.838e+03 1.011e-10
 45.05443     65.8 9.829e+03 1.157e-10
 45.08594     67.4 1.009e+04 1.438e-10
 45.12666     68.7 1.038e+04 2.042e-10
 45.16512     69.9 1.082e+04 3.445e-10
 45.18547     70.2 1.083e+04 3.432e-10
 45.20808     71.2 1.129e+04 5.604e-10
 45.24880     71.8 1.183e+04 8.607e-10
 45.28951     71.9 1.237e+04 1.139e-09
 45.31642     71.1 1.273e+04 1.278e-09
 45.33678     71.8 1.213e+04 8.426e-10
 45.37094     71.9 1.235e+04 1.093e-09
 45.41165     72.4 1.222e+04 1.181e-09
 45.44757     73.6 1.190e+04 1.080e-09
 45.46793     74.4 1.128e+04 6.207e-10
 45.49308     76.3 1.086e+04 4.447e-10
 45.53379     78.1 1.060e+04 2.672e-10
 45.57450     79.9 1.054e+04 2.096e-10
 45.59897     82.1 1.054e+04 2.178e-10
 45.61933     82.9 1.027e+04 1.162e-10
 45.65593     85.4 1.029e+04 1.344e-10
 45.69664     88.2 1.036e+04 1.797e-10
 45.73002     91.1 1.045e+04 2.458e-10
 45.75038     91.4 1.004e+04 1.323e-10
 45.77807     93.8 1.012e+04 1.610e-10
 45.81878     95.7 1.043e+04 1.973e-10
 45.85950     96.3 1.163e+04 2.821e-10
 45.88143     96.4 1.357e+04 5.076e-10
 45.90178     97.6 1.061e+04 3.185e-10
 45.94092     97.5 1.212e+04 5.436e-10
 45.97136     98.4 1.207e+04 6.145e-10
 45.98198     98.4 1.243e+04 8.519e-10
 45.99225     99.9 1.139e+04 3.704e-10
 46.01247     99.8 1.234e+04 7.575e-10
 46.03283    101.6 1.130e+04 5.098e-10
 46.05279    100.8 1.212e+04 8.144e-10
 46.07305    100.6 1.253e+04 1.207e-09
 46.08798    100.8 1.285e+04 1.638e-09
 46.09816    101.7 1.242e+04 1.204e-09
 46.11376    101.7 1.279e+04 1.520e-09
 46.13412    101.7 1.325e+04 1.916e-09
 46.15350    101.7 1.369e+04 2.347e-09
 46.16368    102.6 1.317e+04 1.819e-09
 46.17483    102.7 1.354e+04 2.137e-09
 46.19519    102.6 1.387e+04 2.252e-09
 46.21554    102.5 1.395e+04 2.223e-09
 46.22921    102.4 1.408e+04 2.059e-09
 46.23938    103.6 1.358e+04 1.806e-09
 46.25626    103.7 1.369e+04 1.605e-09
 46.27661    103.8 1.361e+04 1.342e-09
 46.29473    103.9 1.333e+04 1.109e-09
 46.30491    105.2 1.313e+04 1.061e-09
 46.31733    105.3 1.282e+04 8.985e-10
 46.33768    105.6 1.248e+04 7.796e-10
 46.35804    106.1 1.189e+04 7.726e-10
 46.37043    106.7 1.156e+04 7.725e-10
 46.38061    107.9 1.176e+04 7.447e-10
 46.39875    108.6 1.150e+04 7.515e-10
 46.41911    109.6 1.132e+04 7.633e-10
 46.43596    110.8 1.125e+04 7.818e-10
 46.44613    111.8 1.131e+04 8.165e-10
 46.45982    112.7 1.132e+04 8.515e-10
 46.47405    113.7 1.130e+04 8.874e-10
 46.48423    113.8 1.142e+04 8.529e-10
 46.50054    114.8 1.140e+04 9.179e-10
 46.51166    115.9 1.145e+04 1.004e-09
 46.52184    116.9 1.147e+04 1.036e-09
 46.54125    117.8 1.158e+04 1.139e-09
 46.56161    118.7 1.181e+04 1.239e-09
 46.57718    119.1 1.212e+04 1.304e-09
 46.58736    120.2 1.202e+04 1.406e-09
 46.60232    120.3 1.249e+04 1.488e-09
 46.62268    119.5 1.345e+04 1.760e-09
 46.64271    117.2 1.478e+04 2.633e-09
 46.65288    118.6 1.465e+04 2.658e-09
 46.66339    115.8 1.600e+04 4.790e-09
 46.68375    113.7 1.699e+04 9.229e-09
 46.70410    112.6 1.767e+04 1.454e-08
 46.71841    111.2 1.804e+04 1.545e-08
 46.72859    111.4 1.816e+04 1.594e-08
 46.74482    109.4 1.812e+04 1.471e-08
 46.76517    107.2 1.782e+04 1.160e-08
 46.78393    104.2 1.711e+04 8.938e-09
 46.79411    104.3 1.685e+04 7.854e-09
 46.80589    101.2 1.567e+04 6.004e-09
 46.82624     99.4 1.474e+04 5.156e-09
 46.84660     98.7 1.436e+04 4.770e-09
 46.85963     98.2 1.446e+04 4.683e-09
 46.86981     97.5 1.422e+04 4.403e-09
 46.88731     96.8 1.458e+04 4.733e-09
 46.90767     94.4 1.597e+04 6.176e-09
 46.92516     91.3 1.778e+04 1.046e-08
 46.93534     91.1 1.759e+04 1.103e-08
 46.94838     89.7 1.878e+04 1.770e-08
 46.96612     88.8 1.965e+04 1.928e-08
 46.97630     88.9 1.871e+04 1.416e-08
 46.98910     87.9 1.867e+04 1.084e-08
 47.00086     84.6 1.808e+04 5.369e-09
 47.01104     84.1 1.794e+04 5.517e-09
 47.02981     77.9 1.557e+04 2.151e-09
 47.05017     72.2 1.173e+04 1.153e-09
 47.06638     72.2 1.143e+04 1.084e-09
 47.07656     73.0 1.157e+04 1.051e-09
 47.09088     73.0 1.124e+04 9.288e-10
 47.12151     73.4 1.085e+04 6.991e-10
 47.14228     74.3 1.032e+04 4.293e-10
 47.16264     75.3 1.014e+04 3.445e-10
 47.20304     76.0 9.630e+03 1.957e-10
 47.24375     76.8 9.179e+03 1.286e-10
 47.27333     78.3 8.872e+03 1.025e-10
 47.29369     78.8 8.766e+03 9.242e-11
 47.32518     80.8 8.695e+03 8.841e-11
 47.36589     82.8 8.659e+03 8.753e-11
 47.40438     84.8 8.645e+03 8.532e-11
 47.42473     85.3 8.633e+03 8.554e-11
 47.44732     87.1 8.612e+03 8.113e-11
 47.48803     88.9 8.580e+03 7.614e-11
 47.52875     90.7 8.575e+03 7.345e-11
 47.55578     92.6 8.592e+03 7.404e-11
 47.57614     92.7 8.570e+03 7.356e-11
 47.61017     94.6 8.616e+03 7.513e-11
 47.65089     96.5 8.707e+03 7.834e-11
 47.68683     98.4 8.800e+03 8.028e-11
 47.70718     98.6 8.715e+03 7.113e-11
 47.73231    100.5 8.779e+03 6.779e-11
 47.77303    102.4 8.832e+03 6.320e-11
 47.81374    104.3 8.833e+03 5.896e-11
 47.83823    106.3 8.756e+03 5.751e-11
 47.85859    106.5 8.717e+03 5.374e-11
 47.89517    108.5 8.705e+03 5.357e-11
 47.93588    110.6 8.708e+03 5.462e-11
 47.96064    112.6 8.721e+03 5.928e-11
 47.97368    112.8 8.697e+03 5.963e-11
 47.98964    113.2 8.706e+03 5.637e-11
 48.01731    115.2 8.725e+03 6.133e-11
 48.05802    117.1 8.755e+03 7.307e-11
 48.09873    119.0 8.808e+03 9.259e-11
 48.12068    120.9 8.890e+03 1.194e-10
 48.14104    121.1 8.934e+03 1.020e-10
 48.18016    122.9 9.032e+03 1.322e-10
 48.22087    124.6 9.160e+03 1.697e-10
 48.25173    126.3 9.304e+03 2.150e-10
 48.27209    126.5 9.391e+03 2.000e-10
 48.30230    128.1 9.596e+03 2.591e-10
 48.34301    129.4 9.847e+03 3.234e-10
 48.38278    130.4 1.005e+04 3.924e-10
 48.40314    130.6 1.008e+04 3.923e-10
 48.42444    131.4 1.033e+04 4.664e-10
 48.46515    132.1 1.051e+04 5.235e-10
 48.49559    132.6 1.060e+04 5.622e-10
 48.51585    133.0 1.064e+04 5.885e-10
 48.53399    133.4 1.071e+04 6.355e-10
 48.54417    133.6 1.096e+04 7.450e-10
 48.55656    133.9 1.112e+04 8.488e-10
 48.57692    134.2 1.131e+04 9.728e-10
 48.59728    134.6 1.153e+04 1.108e-09
 48.60969    134.9 1.177e+04 1.244e-09
 48.61987    135.0 1.207e+04 1.455e-09
 48.63799    135.3 1.234e+04 1.631e-09
 48.65835    135.6 1.260e+04 1.762e-09
 48.67521    135.6 1.283e+04 1.766e-09
 48.68539    135.7 1.299e+04 1.912e-09
 48.69906    135.6 1.309e+04 1.920e-09
 48.71942    135.4 1.312e+04 1.864e-09
 48.73977    134.9 1.316e+04 1.792e-09
 48.75092    134.3 1.316e+04 1.742e-09
 48.76109    134.3 1.333e+04 2.094e-09
 48.78049    133.7 1.326e+04 2.179e-09
 48.80084    133.2 1.317e+04 2.155e-09
 48.81644    132.7 1.292e+04 2.012e-09
 48.82662    133.3 1.334e+04 2.674e-09
 48.84156    133.1 1.302e+04 2.284e-09
 48.87219    133.3 1.272e+04 1.777e-09
 48.91300    133.2 1.160e+04 8.961e-10
 48.94479    133.2 1.061e+04 4.052e-10
 48.95911    134.4 1.077e+04 5.983e-10
 48.96804    134.9 1.096e+04 6.142e-10
 48.99443    134.8 1.013e+04 3.017e-10
 49.03514    134.9 9.558e+03 1.714e-10
 49.07586    135.6 9.157e+03 1.360e-10
 49.09909    136.9 9.109e+03 1.376e-10
 49.11944    137.4 9.112e+03 1.383e-10
 49.15728    139.0 9.076e+03 1.482e-10
 49.19800    140.6 9.103e+03 1.715e-10
 49.23013    142.1 9.179e+03 1.911e-10
 49.25049    142.6 9.180e+03 1.956e-10
 49.27942    143.9 9.194e+03 1.957e-10
 49.32014    145.1 9.166e+03 1.842e-10
 49.36085    146.3 9.064e+03 1.576e-10
 49.38154    147.4 8.907e+03 1.297e-10
 49.40190    148.3 8.921e+03 1.342e-10
 49.44228    149.5 8.790e+03 1.127e-10
 49.48299    150.8 8.679e+03 1.058e-10
 49.51259    152.3 8.665e+03 1.094e-10
 49.53294    153.1 8.619e+03 1.031e-10
 49.56442    154.7 8.610e+03 1.077e-10
 49.60513    156.5 8.624e+03 1.212e-10
 49.64363    158.2 8.671e+03 1.419e-10
 49.66399    159.0 8.621e+03 1.257e-10
 49.68656    160.8 8.693e+03 1.521e-10
 49.72727    162.6 8.800e+03 1.889e-10
 49.76798    164.5 8.954e+03 2.348e-10
 49.79504    166.4 9.193e+03 2.874e-10
 49.81540    167.3 9.199e+03 2.837e-10
 49.84941    169.0 9.429e+03 3.481e-10
 49.89012    170.7 9.621e+03 4.098e-10
 49.92609    171.9 9.712e+03 4.638e-10
 49.94454    172.5 9.756e+03 4.603e-10
 49.94929    173.3 9.800e+03 4.454e-10
 49.96127    173.9 9.826e+03 4.899e-10
 49.98153    174.7 9.889e+03 5.363e-10
 50.00159    175.9 1.002e+04 6.081e-10
 50.01177    176.3 1.014e+04 6.238e-10
 50.02225    177.2 1.028e+04 6.748e-10
 50.04260    178.0 1.032e+04 7.068e-10
 50.06296    178.7 1.031e+04 7.220e-10
 50.07730    179.5 1.028e+04 7.282e-10
 50.08747    179.8 1.040e+04 7.402e-10
 50.10367    180.6 1.041e+04 7.578e-10
 50.12403    181.5 1.040e+04 7.752e-10
 50.14282    182.4 1.042e+04 7.927e-10
 50.15300    182.7 1.052e+04 8.089e-10
 50.16474    183.7 1.059e+04 8.482e-10
 50.18510    184.7 1.067e+04 8.936e-10
 50.20546    185.6 1.076e+04 9.414e-10
 50.21852    186.5 1.086e+04 9.904e-10
 50.22870    186.8 1.100e+04 1.042e-09
 50.24617    187.7 1.111e+04 1.104e-09
 50.26653    188.4 1.119e+04 1.144e-09
 50.28405    189.2 1.121e+04 1.145e-09
 50.29422    189.5 1.142e+04 1.255e-09
 50.30724    190.3 1.141e+04 1.245e-09
 50.32760    191.0 1.137e+04 1.207e-09
 50.34795    191.7 1.129e+04 1.142e-09
 50.35975    192.4 1.119e+04 1.061e-09
 50.36993    192.8 1.155e+04 1.248e-09
 50.38867    193.3 1.149e+04 1.171e-09
 50.40902    193.7 1.142e+04 1.093e-09
 50.42527    193.9 1.133e+04 1.021e-09
 50.43545    194.2 1.184e+04 1.289e-09
 50.44116    194.4 1.172e+04 1.212e-09
 50.45134    194.7 1.091e+04 8.313e-10
 50.47009    194.9 1.081e+04 7.828e-10
 50.49045    195.2 1.071e+04 7.482e-10
 50.50097    195.7 1.063e+04 7.229e-10
 50.51115    195.9 1.100e+04 8.764e-10
 50.53116    196.5 1.087e+04 8.326e-10
 50.55152    197.3 1.075e+04 7.880e-10
 50.56650    198.1 1.064e+04 7.408e-10
 50.57668    198.4 1.089e+04 8.389e-10
 50.59223    199.2 1.074e+04 7.667e-10
 50.61259    200.0 1.061e+04 7.054e-10
 50.63202    200.8 1.052e+04 6.600e-10
 50.64220    201.1 1.066e+04 6.918e-10
 50.65330    201.9 1.058e+04 6.516e-10
 50.67366    202.7 1.054e+04 6.293e-10
 50.69402    203.6 1.050e+04 6.199e-10
 50.70772    204.5 1.048e+04 6.193e-10
 50.71790    204.8 1.049e+04 5.968e-10
 50.73473    205.8 1.046e+04 5.911e-10
 50.75509    206.8 1.042e+04 5.877e-10
 50.77325    207.8 1.039e+04 5.836e-10
 50.78343    208.1 1.033e+04 5.405e-10
 50.79580    209.2 1.029e+04 5.355e-10
 50.81616    210.3 1.025e+04 5.283e-10
 50.83651    211.4 1.021e+04 5.203e-10
 50.84895    212.5 1.018e+04 5.127e-10
 50.85913    213.0 1.015e+04 4.833e-10
 50.87723    214.1 1.013e+04 4.846e-10
 50.89758    215.2 1.012e+04 4.879e-10
 50.91447    216.4 1.014e+04 4.933e-10
 50.92465    216.9 1.017e+04 4.806e-10
 50.93324    218.0 1.027e+04 4.973e-10
 50.94341    218.2 1.015e+04 4.957e-10
 50.95865    219.3 1.021e+04 5.116e-10
 50.97901    220.2 1.029e+04 5.289e-10
 50.99017    221.2 1.039e+04 5.484e-10
 51.00035    221.8 1.050e+04 5.652e-10
 51.01972    222.7 1.060e+04 5.954e-10
 51.04008    223.6 1.068e+04 6.257e-10
 51.05570    224.5 1.074e+04 6.568e-10
 51.06588    225.2 1.088e+04 7.019e-10
 51.08079    226.0 1.094e+04 7.324e-10
 51.10115    226.8 1.097e+04 7.576e-10
 51.12122    227.6 1.100e+04 7.732e-10
 51.13140    228.2 1.112e+04 7.987e-10
 51.14186    228.9 1.110e+04 7.883e-10
 51.16222    229.7 1.106e+04 7.696e-10
 51.18258    230.4 1.100e+04 7.364e-10
 51.19692    230.9 1.094e+04 7.018e-10
 51.20710    231.7 1.098e+04 6.899e-10
 51.22329    232.3 1.086e+04 6.360e-10
 51.24365    232.7 1.079e+04 6.137e-10
 51.27428    234.3 1.068e+04 5.484e-10
 51.31509    235.9 1.056e+04 4.897e-10
 51.33835    237.6 1.041e+04 4.376e-10
 51.35870    238.0 1.044e+04 4.018e-10
 51.39652    239.7 1.031e+04 3.710e-10
 51.43723    241.5 1.030e+04 3.728e-10
 51.46939    243.4 1.035e+04 3.942e-10
 51.48965    243.8 1.034e+04 3.903e-10
 51.50829    244.6 1.034e+04 3.949e-10
 51.52864    245.5 1.036e+04 4.033e-10
 51.54490    246.5 1.039e+04 4.248e-10
 51.55508    246.9 1.042e+04 4.391e-10
 51.56936    247.9 1.050e+04 4.831e-10
 51.58971    248.8 1.060e+04 5.403e-10
 51.61007    249.6 1.072e+04 6.060e-10
 51.62060    250.3 1.088e+04 6.825e-10
 51.63078    250.6 1.096e+04 7.146e-10
 51.65078    251.3 1.116e+04 8.115e-10
 51.67114    251.7 1.138e+04 9.190e-10
 51.68613    252.2 1.162e+04 1.028e-09
 51.69630    252.2 1.185e+04 1.117e-09
 51.71185    252.5 1.213e+04 1.230e-09
 51.73221    252.8 1.240e+04 1.319e-09
 51.75165    253.1 1.267e+04 1.382e-09
 51.76183    253.0 1.289e+04 1.537e-09
 51.77292    253.2 1.313e+04 1.584e-09
 51.79328    253.3 1.338e+04 1.623e-09
 51.81364    253.2 1.368e+04 1.670e-09
 51.82735    253.1 1.400e+04 1.752e-09
 51.83753    252.9 1.402e+04 1.975e-09
 51.85435    252.7 1.421e+04 2.119e-09
 51.87471    252.4 1.433e+04 2.368e-09
 51.89288    252.2 1.442e+04 2.742e-09
 51.90305    252.3 1.419e+04 2.818e-09
 51.91542    252.3 1.436e+04 3.206e-09
 51.92756    252.4 1.465e+04 3.651e-09
 51.93774    253.8 1.450e+04 2.875e-09
 51.95613    253.7 1.473e+04 3.581e-09
 51.96858    253.7 1.508e+04 4.298e-09
 51.97876    253.9 1.503e+04 4.231e-09
 51.99685    253.9 1.539e+04 4.809e-09
 52.01720    253.9 1.563e+04 5.353e-09
 52.03410    253.9 1.584e+04 5.802e-09
 52.04428    254.0 1.589e+04 5.447e-09
 52.05792    253.9 1.653e+04 5.273e-09
 52.07827    253.7 1.725e+04 5.094e-09
 52.09349    252.3 1.843e+04 4.873e-09
 52.10362    251.3 1.889e+04 4.721e-09
 52.10971    250.9 1.904e+04 4.718e-09
 52.11480    250.3 1.947e+04 4.694e-09
 52.12398    250.3 1.939e+04 4.858e-09
 52.13416    250.3 1.930e+04 5.117e-09
 52.14247    250.2 1.929e+04 5.378e-09
 52.14756    249.5 1.953e+04 5.477e-09
 52.15451    249.1 1.962e+04 5.935e-09
 52.16469    248.3 2.004e+04 6.808e-09
 52.17350    247.0 2.067e+04 8.522e-09
 52.17859    249.7 2.102e+04 7.254e-09
 52.18032    248.1 2.224e+04 9.342e-09
 52.18541    247.2 2.184e+04 1.071e-08
 52.19523    245.4 2.247e+04 1.500e-08
 52.20540    243.7 2.257e+04 2.199e-08
 52.21308    242.7 2.246e+04 3.297e-08
 52.21817    242.5 2.190e+04 3.265e-08
 52.22576    242.5 2.168e+04 5.028e-08
 52.23594    242.6 2.161e+04 7.616e-08
 52.24584    242.7 2.177e+04 1.020e-07
 52.25093    242.9 2.145e+04 8.359e-08
 52.25630    242.6 2.184e+04 8.574e-08
 52.26647    241.8 2.194e+04 8.197e-08
 52.27665    241.2 2.206e+04 6.367e-08
 52.28369    240.9 2.190e+04 3.991e-08
 52.28878    240.9 2.168e+04 2.864e-08
 52.29701    240.6 2.142e+04 1.816e-08
 52.30719    240.1 2.099e+04 1.157e-08
 52.31650    237.9 1.974e+04 4.178e-09
 52.32673    236.6 1.875e+04 3.651e-09
 52.34291    232.4 1.434e+04 1.203e-09
 52.36327    228.2 1.087e+04 5.783e-10
 52.38208    226.8 1.033e+04 5.178e-10
 52.39226    227.6 1.075e+04 6.703e-10
 52.40398    227.7 1.067e+04 6.486e-10
 52.41963    227.8 1.064e+04 6.450e-10
 52.42981    227.7 1.056e+04 6.151e-10
 52.44469    227.8 1.058e+04 6.221e-10
 52.45778    227.6 1.069e+04 6.478e-10
 52.46796    227.8 1.100e+04 7.734e-10
 52.48541    227.4 1.114e+04 7.992e-10
 52.50576    226.9 1.128e+04 8.440e-10
 52.52330    226.5 1.140e+04 8.824e-10
 52.53348    226.6 1.156e+04 9.449e-10
 52.54648    226.2 1.157e+04 9.367e-10
 52.56683    225.9 1.157e+04 9.257e-10
 52.58719    225.6 1.156e+04 9.091e-10
 52.59901    225.3 1.155e+04 8.793e-10
 52.60918    225.6 1.167e+04 9.190e-10
 52.62790    225.3 1.162e+04 8.747e-10
 52.64826    225.2 1.153e+04 8.238e-10
 52.66453    225.2 1.142e+04 7.667e-10
 52.67471    225.7 1.147e+04 7.985e-10
 52.68897    225.8 1.131e+04 7.312e-10
 52.70933    226.1 1.115e+04 6.676e-10
 52.72969    226.6 1.102e+04 6.101e-10
 52.74023    227.1 1.093e+04 5.608e-10
 52.75041    227.6 1.095e+04 5.749e-10
 52.77040    228.0 1.090e+04 5.398e-10
 52.79076    228.6 1.088e+04 5.116e-10
 52.80576    229.1 1.086e+04 4.857e-10
 52.81593    229.6 1.090e+04 5.174e-10
 52.83147    230.1 1.090e+04 4.971e-10
 52.85183    230.7 1.090e+04 4.743e-10
 52.87128    231.2 1.090e+04 4.511e-10
 52.88146    231.7 1.096e+04 5.010e-10
 52.89254    232.2 1.095e+04 4.820e-10
 52.91170    232.6 1.090e+04 4.712e-10
 52.92188    232.2 1.079e+04 4.682e-10
 52.93325    232.6 1.086e+04 4.782e-10
 52.94698    233.0 1.092e+04 4.982e-10
 52.95716    233.6 1.099e+04 5.487e-10
 52.97397    234.0 1.105e+04 5.787e-10
 52.99432    234.3 1.113e+04 6.317e-10
 53.01251    234.6 1.128e+04 7.163e-10
 53.02268    235.4 1.130e+04 7.388e-10
 53.03504    235.6 1.148e+04 8.343e-10
 53.05539    235.6 1.173e+04 9.736e-10
 53.07575    235.6 1.207e+04 1.181e-09
 53.08821    235.3 1.252e+04 1.494e-09
 53.09839    236.0 1.242e+04 1.335e-09
 53.11646    235.5 1.300e+04 1.766e-09
 53.13682    234.7 1.367e+04 2.478e-09
 53.15373    234.1 1.438e+04 3.546e-09
 53.16391    234.3 1.453e+04 3.464e-09
 53.17753    233.9 1.531e+04 5.116e-09
 53.19789    233.6 1.586e+04 6.517e-09
 53.21825    233.0 1.598e+04 6.645e-09
 53.22943    232.4 1.586e+04 6.236e-09
 53.23961    232.5 1.636e+04 7.377e-09
 53.25896    232.1 1.587e+04 5.937e-09
 53.27932    231.9 1.507e+04 4.090e-09
 53.29496    231.3 1.418e+04 2.572e-09
 53.30514    231.5 1.460e+04 3.017e-09
 53.32003    230.3 1.371e+04 1.849e-09
 53.34039    228.7 1.287e+04 1.273e-09
 53.36048    227.7 1.229e+04 1.110e-09
 53.37066    227.4 1.256e+04 1.254e-09
 53.38110    227.3 1.228e+04 1.188e-09
 53.40146    227.4 1.220e+04 1.146e-09
 53.41395    227.8 1.213e+04 1.074e-09
 53.42413    227.5 1.213e+04 1.143e-09
 53.43618    228.0 1.206e+04 1.031e-09
 53.44636    227.6 1.210e+04 1.027e-09
 53.46253    228.1 1.194e+04 8.735e-10
 53.48289    228.6 1.174e+04 7.754e-10
 53.50171    229.2 1.164e+04 7.661e-10
 53.51189    228.9 1.162e+04 7.673e-10
 53.52360    229.6 1.162e+04 7.738e-10
 53.54396    230.4 1.162e+04 8.125e-10
 53.56431    231.3 1.168e+04 9.047e-10
 53.57741    232.4 1.181e+04 1.043e-09
 53.58759    232.5 1.183e+04 1.107e-09
 53.60503    233.7 1.202e+04 1.282e-09
 53.62538    234.9 1.222e+04 1.435e-09
 53.64293    236.1 1.235e+04 1.528e-09
 53.65311    236.3 1.247e+04 1.664e-09
 53.66610    237.4 1.262e+04 1.729e-09
 53.68645    238.4 1.279e+04 1.766e-09
 53.70681    238.7 1.312e+04 1.858e-09
 53.71863    238.5 1.383e+04 2.116e-09
 53.72881    237.0 1.536e+04 3.423e-09
 53.74238    236.7 1.578e+04 3.492e-09
 53.75130    236.7 1.591e+04 3.495e-09
 53.75639    235.7 1.677e+04 4.841e-09
 53.76269    235.4 1.742e+04 5.678e-09
 53.77287    235.1 1.817e+04 6.882e-09
 53.78305    234.7 1.897e+04 8.721e-09
 53.78915    234.4 1.984e+04 1.140e-08
 53.79424    232.5 2.077e+04 1.865e-08
 53.80341    232.0 2.157e+04 2.481e-08
 53.81358    231.4 2.230e+04 3.332e-08
 53.82191    230.8 2.292e+04 4.497e-08
 53.82700    228.8 2.294e+04 4.539e-08
 53.83394    228.1 2.329e+04 6.238e-08
 53.84412    227.0 2.358e+04 9.476e-08
 53.85430    225.0 2.440e+04 1.556e-07
 53.85976    220.3 2.615e+04 2.278e-07
 53.86485    214.8 3.234e+04 4.807e-08
 53.87465    206.6 3.661e+04 3.789e-08
 53.88483    197.5 4.054e+04 2.505e-08
 53.89253    189.4 4.174e+04 1.500e-08
 53.89761    181.5 3.782e+04 3.845e-09
 53.90519    176.7 2.599e+04 6.284e-09
 53.91102    173.5 1.863e+04 9.373e-09
 53.91611    172.4 2.044e+04 6.087e-09
 53.92534    172.9 1.819e+04 8.501e-09
 53.93556    175.6 1.741e+04 9.077e-09
 53.95109    174.2 1.731e+04 8.979e-09
 53.97145    172.8 1.691e+04 7.806e-09
 53.99091    171.4 1.635e+04 5.574e-09
 54.00109    172.1 1.650e+04 5.653e-09
 54.01216    170.3 1.567e+04 3.746e-09
 54.03252    168.2 1.479e+04 2.599e-09
 54.05287    166.6 1.407e+04 2.087e-09
 54.06661    166.5 1.390e+04 1.960e-09
 54.07679    167.1 1.344e+04 1.620e-09
 54.09359    167.4 1.343e+04 1.599e-09
 54.11394    168.0 1.344e+04 1.602e-09
 54.13213    168.7 1.351e+04 1.635e-09
 54.14231    169.3 1.292e+04 1.310e-09
 54.15466    169.9 1.312e+04 1.405e-09
 54.17501    170.5 1.339e+04 1.582e-09
 54.19537    170.9 1.367e+04 1.845e-09
 54.20784    171.3 1.396e+04 2.191e-09
 54.21801    171.7 1.368e+04 2.009e-09
 54.23608    172.1 1.408e+04 2.497e-09
 54.25644    172.5 1.448e+04 2.998e-09
 54.27336    172.9 1.480e+04 3.305e-09
 54.28354    173.3 1.471e+04 3.406e-09
 54.29715    173.5 1.486e+04 3.453e-09
 54.31751    173.4 1.481e+04 3.331e-09
 54.33787    173.5 1.450e+04 2.824e-09
 54.34906    174.0 1.389e+04 2.027e-09
 54.35924    174.5 1.395e+04 2.173e-09
 54.37858    174.8 1.343e+04 1.680e-09
 54.40451    175.2 1.271e+04 1.070e-09
 54.42496    176.5 1.280e+04 1.168e-09
 54.45002    177.5 1.160e+04 5.751e-10
 54.49074    179.0 1.064e+04 2.838e-10
 54.53145    180.9 1.005e+04 1.589e-10
 54.55601    183.2 9.738e+03 1.083e-10
 54.57636    184.5 9.786e+03 1.236e-10
 54.61288    186.7 9.570e+03 9.302e-11
 54.65359    189.1 9.406e+03 7.923e-11
 54.68706    191.5 9.208e+03 7.234e-11
 54.70741    192.7 9.227e+03 7.318e-11
 54.73502    195.0 8.955e+03 7.134e-11
 54.77573    197.5 8.924e+03 7.139e-11
 54.81644    199.9 8.921e+03 7.179e-11
 54.83846    202.1 8.936e+03 7.454e-11
 54.85882    203.5 8.909e+03 7.373e-11
 54.89037    205.6 8.923e+03 8.160e-11
 54.91072    205.0 8.949e+03 8.714e-11
 54.93858    206.9 9.018e+03 1.025e-10
 54.96951    208.7 9.154e+03 1.273e-10
 54.98986    210.3 9.092e+03 1.220e-10
 55.02001    212.0 9.258e+03 1.531e-10
 55.06072    213.4 9.500e+03 1.930e-10
 55.10055    214.4 9.724e+03 2.336e-10
 55.12091    216.5 9.688e+03 2.306e-10
 55.14215    217.3 9.886e+03 2.647e-10
 55.18286    217.8 9.946e+03 2.814e-10
 55.22358    218.2 9.930e+03 2.805e-10
 55.25196    218.5 9.846e+03 2.732e-10
 55.27232    221.0 1.003e+04 2.987e-10
 55.30500    221.3 9.867e+03 2.843e-10
 55.34572    221.8 9.683e+03 2.650e-10
 55.38301    222.3 9.524e+03 2.398e-10
 55.40336    224.7 9.657e+03 2.738e-10
 55.42715    225.2 9.497e+03 2.482e-10
 55.46786    225.9 9.349e+03 2.184e-10
 55.50857    226.8 9.236e+03 1.945e-10
 55.53441    227.9 9.231e+03 1.906e-10
 55.55477    230.0 9.320e+03 2.157e-10
 55.59000    231.2 9.351e+03 2.188e-10
 55.63071    232.2 9.516e+03 2.410e-10
 55.66546    232.9 9.824e+03 2.990e-10
 55.68582    234.8 9.817e+03 3.099e-10
 55.70186    234.6 9.971e+03 3.627e-10
 55.72212    235.0 1.018e+04 4.556e-10
 55.74097    235.6 1.051e+04 6.283e-10
 55.75114    236.5 1.050e+04 6.299e-10
 55.76284    237.1 1.088e+04 8.618e-10
 55.78319    237.5 1.130e+04 1.079e-09
 55.80355    237.6 1.170e+04 1.202e-09
 55.81667    237.5 1.193e+04 1.210e-09
 55.82685    238.5 1.191e+04 1.249e-09
 55.84426    238.0 1.194e+04 1.223e-09
 55.86462    237.3 1.197e+04 1.167e-09
 55.88219    236.3 1.203e+04 1.166e-09
 55.89189    237.5 1.198e+04 1.159e-09
 55.89467    236.5 1.201e+04 1.182e-09
 55.90533    234.6 1.226e+04 1.264e-09
 55.92569    231.6 1.322e+04 1.783e-09
 55.94605    228.3 1.518e+04 3.619e-09
 55.95789    225.7 1.700e+04 7.273e-09
 55.96807    226.4 1.674e+04 6.382e-09
 55.98676    223.5 1.818e+04 9.945e-09
 56.00712    220.1 1.857e+04 1.017e-08
 56.02342    216.4 1.846e+04 8.746e-09
 56.03360    216.5 1.824e+04 8.280e-09
 56.04783    212.8 1.760e+04 5.065e-09
 56.06819    207.9 1.607e+04 2.262e-09
 56.08854    201.2 1.341e+04 1.304e-09
 56.09912    196.1 1.254e+04 1.297e-09
 56.10930    196.3 1.255e+04 1.226e-09
 56.12926    193.0 1.236e+04 1.280e-09
 56.15989    191.3 1.227e+04 1.373e-09
 56.20070    189.2 1.210e+04 1.306e-09
 56.23036    187.2 1.154e+04 1.013e-09
 56.25072    187.4 1.149e+04 9.770e-10
 56.28213    185.8 1.074e+04 6.438e-10
 56.32284    184.4 1.004e+04 4.308e-10
 56.36141    183.7 9.635e+03 3.303e-10
 56.38177    183.7 9.628e+03 3.144e-10
 56.40427    183.5 9.480e+03 2.748e-10
 56.44498    183.5 9.392e+03 2.573e-10
 56.48569    183.9 9.312e+03 2.485e-10
 56.51281    184.4 9.258e+03 2.429e-10
 56.53317    184.6 9.220e+03 2.259e-10
 56.56712    185.2 9.202e+03 2.262e-10
 56.60783    185.8 9.175e+03 2.222e-10
 56.64386    186.4 9.123e+03 2.117e-10
 56.66422    186.5 9.131e+03 2.107e-10
 56.68926    187.2 9.082e+03 2.001e-10
 56.72997    187.8 9.020e+03 1.870e-10
 56.77069    188.4 8.968e+03 1.750e-10
 56.79527    189.0 8.928e+03 1.686e-10
 56.81562    189.0 8.925e+03 1.684e-10
 56.85211    189.6 8.920e+03 1.683e-10
 56.87901    190.2 8.918e+03 1.702e-10
 56.89937    190.3 9.109e+03 2.197e-10
 56.92631    190.9 9.169e+03 2.330e-10
 56.94667    190.8 9.176e+03 2.336e-10
 56.97425    191.4 9.290e+03 2.601e-10
 57.01497    192.0 9.433e+03 2.947e-10
 57.05568    192.5 9.585e+03 3.351e-10
 57.07772    192.9 9.715e+03 3.779e-10
 57.09807    192.6 9.702e+03 3.781e-10
 57.13711    192.7 9.797e+03 4.112e-10
 57.16755    192.5 9.835e+03 4.305e-10
 57.18780    192.4 9.988e+03 4.754e-10
 57.20816    192.2 1.025e+04 5.525e-10
 57.21875    191.9 1.055e+04 6.424e-10
 57.22893    191.3 1.050e+04 6.213e-10
 57.24887    190.6 1.078e+04 7.197e-10
 57.26923    189.4 1.109e+04 8.386e-10
 57.28427    187.1 1.186e+04 1.104e-09
 57.29445    186.0 1.191e+04 1.168e-09
 57.30994    182.4 1.338e+04 1.879e-09
 57.33030    178.3 1.474e+04 3.039e-09
 57.34980    174.3 1.520e+04 3.537e-09
 57.35997    173.4 1.520e+04 3.545e-09
 57.37089    169.2 1.502e+04 3.302e-09
 57.38107    169.8 1.488e+04 3.234e-09
 57.39137    165.9 1.428e+04 2.617e-09
 57.41173    162.2 1.301e+04 1.633e-09
 57.42550    158.6 1.141e+04 8.878e-10
 57.43568    157.8 1.136e+04 9.320e-10
 57.45244    154.8 1.003e+04 5.890e-10
 57.47280    152.8 9.471e+03 4.437e-10
 57.49102    151.7 9.419e+03 3.870e-10
 57.50120    151.7 9.694e+03 4.705e-10
 57.51351    151.1 9.675e+03 4.526e-10
 57.53387    150.6 9.689e+03 4.543e-10
 57.55422    150.2 9.751e+03 4.665e-10
 57.56672    149.7 9.839e+03 4.934e-10
 57.57690    149.4 1.006e+04 5.854e-10
 57.59494    149.1 1.014e+04 6.172e-10
 57.61529    148.9 1.021e+04 6.355e-10
 57.63225    148.6 1.021e+04 6.298e-10
 57.64243    148.2 1.032e+04 6.727e-10
 57.65601    147.8 1.028e+04 6.410e-10
 57.67636    147.4 1.025e+04 6.090e-10
 57.69672    146.8 1.023e+04 5.856e-10
 57.70795    146.1 1.025e+04 5.719e-10
 57.71813    145.2 1.045e+04 6.534e-10
 57.73744    144.4 1.049e+04 6.689e-10
 57.75779    143.7 1.050e+04 6.885e-10
 57.77347    143.1 1.047e+04 7.054e-10
 57.78365    142.2 1.068e+04 8.300e-10
 57.79851    141.5 1.079e+04 8.825e-10
 57.81886    139.9 1.158e+04 1.077e-09
 57.83900    137.2 1.344e+04 1.590e-09
 57.84918    134.4 1.475e+04 2.265e-09
 57.85958    131.7 1.572e+04 3.431e-09
 57.87314    130.0 1.585e+04 4.423e-09
 57.88332    132.4 1.488e+04 2.613e-09
 57.90029    130.9 1.517e+04 3.399e-09
 57.91470    129.9 1.504e+04 3.468e-09
 57.92488    127.9 1.493e+04 3.369e-09
 57.94100    126.8 1.457e+04 2.811e-09
 57.96136    125.1 1.413e+04 2.023e-09
 57.98022    122.7 1.354e+04 1.370e-09
 57.99040    119.0 1.317e+04 1.101e-09
 58.00207    116.2 1.225e+04 9.876e-10
 58.02243    114.3 1.188e+04 9.789e-10
 58.04279    113.2 1.175e+04 1.052e-09
 58.05593    112.4 1.178e+04 1.153e-09
 58.06610    110.3 1.202e+04 1.321e-09
 58.08350    109.8 1.208e+04 1.327e-09
 58.10386    108.9 1.213e+04 1.286e-09
 58.12145    107.7 1.212e+04 1.205e-09
 58.13163    105.2 1.225e+04 1.204e-09
 58.14457    103.7 1.206e+04 1.123e-09
 58.16493    102.4 1.188e+04 1.067e-09
 58.18528    101.3 1.179e+04 1.034e-09
 58.19715    100.5 1.178e+04 1.034e-09
 58.20733     98.6 1.191e+04 1.092e-09
 58.22600     98.2 1.189e+04 1.092e-09
 58.24635     97.8 1.183e+04 1.061e-09
 58.26268     97.5 1.174e+04 9.960e-10
 58.27285     96.2 1.184e+04 1.021e-09
 58.28707     95.9 1.171e+04 9.334e-10
 58.30742     95.7 1.157e+04 8.588e-10
 58.32778     95.4 1.149e+04 8.223e-10
 58.33838     95.2 1.148e+04 8.273e-10
 58.34856     93.8 1.160e+04 9.132e-10
 58.36521     93.7 1.170e+04 9.899e-10
 58.37539     94.1 1.153e+04 8.725e-10
 58.38885     94.1 1.178e+04 1.015e-09
 58.40390     94.2 1.206e+04 1.209e-09
 58.41408     93.1 1.232e+04 1.412e-09
 58.42956     93.3 1.263e+04 1.643e-09
 58.44992     93.4 1.291e+04 1.844e-09
 58.46943     93.4 1.315e+04 2.060e-09
 58.47960     92.3 1.303e+04 1.936e-09
 58.49063     92.3 1.317e+04 2.062e-09
 58.51099     92.1 1.326e+04 2.175e-09
 58.53135     92.1 1.325e+04 2.174e-09
 58.54513     92.1 1.317e+04 2.087e-09
 58.55531     90.7 1.271e+04 1.569e-09
 58.57206     90.5 1.251e+04 1.380e-09
 58.59242     90.0 1.228e+04 1.173e-09
 58.61065     89.0 1.209e+04 1.021e-09
 58.62083     86.4 1.161e+04 7.953e-10
 58.63313     84.8 1.147e+04 8.224e-10
 58.65349     83.5 1.145e+04 9.057e-10
 58.67384     82.5 1.148e+04 1.030e-09
 58.68635     81.8 1.162e+04 1.122e-09
 58.69653     79.8 1.159e+04 1.079e-09
 58.71456     78.8 1.157e+04 1.026e-09
 58.73491     77.3 1.144e+04 9.024e-10
 58.75188     75.2 1.106e+04 7.316e-10
 58.76206     71.9 1.106e+04 7.360e-10
 58.77563     69.5 1.051e+04 5.755e-10
 58.79598     67.3 1.005e+04 4.637e-10
 58.81634     65.2 9.767e+03 4.091e-10
 58.82758     63.4 9.710e+03 4.097e-10
 58.83776     61.0 1.016e+04 5.318e-10
 58.85705     59.4 1.031e+04 5.946e-10
 58.86746     57.9 1.058e+04 7.122e-10
 58.87764     57.4 1.050e+04 6.881e-10
 58.89310     55.9 1.100e+04 8.938e-10
 58.90328     53.3 1.165e+04 1.213e-09
 58.91812     51.8 1.229e+04 1.604e-09
 58.93848     50.6 1.285e+04 2.070e-09
 58.95863     49.7 1.329e+04 2.497e-09
 58.96881     47.4 1.367e+04 2.654e-09
 58.97919     46.1 1.378e+04 2.620e-09
 58.99955     44.8 1.366e+04 2.418e-09
 59.01991     43.3 1.334e+04 2.010e-09
 59.03433     41.5 1.278e+04 1.570e-09
 59.04451     37.5 1.250e+04 1.306e-09
 59.06062     34.8 1.254e+04 1.184e-09
 59.08098     31.1 1.303e+04 1.211e-09
 59.09985     26.7 1.408e+04 1.512e-09
 59.11003     20.5 1.441e+04 2.127e-09
 59.12169     17.4 1.461e+04 2.837e-09
 59.14205     15.2 1.501e+04 3.391e-09
 59.16240     13.6 1.514e+04 3.761e-09
 59.17555     12.4 1.506e+04 3.477e-09
 59.18573      9.7 1.431e+04 2.223e-09
 59.21339      4.7 1.235e+04 9.063e-10
 59.25420      1.6 1.017e+04 3.532e-10
 59.29492     -1.8 8.606e+03 1.517e-10
 59.31698     -3.5 8.316e+03 1.200e-10
 59.33733     -5.5 8.133e+03 8.584e-11
 59.37634     -5.4 8.252e+03 1.164e-10
 59.41706     -4.7 8.509e+03 1.758e-10
 59.44802     -3.5 8.967e+03 2.600e-10
 59.46838     -4.9 8.897e+03 2.185e-10
 59.49848     -3.8 8.951e+03 2.575e-10
 59.53920     -2.6 8.851e+03 2.639e-10
 59.57907     -1.2 8.830e+03 2.461e-10
 59.59943     -2.2 8.505e+03 1.410e-10
 59.62062     -2.1 8.802e+03 1.123e-10
 59.66134     -3.6 9.183e+03 9.996e-11
 59.70205     -6.0 9.332e+03 1.884e-10
 59.73048     -6.3 9.823e+03 3.922e-10
 59.75083     -6.8 9.412e+03 2.718e-10
 59.78348     -6.3 9.834e+03 4.450e-10
 59.82419     -6.1 1.005e+04 5.717e-10
 59.85180     -6.0 1.017e+04 6.725e-10
 59.86878     -6.8 1.007e+04 6.200e-10
 59.88188     -6.5 9.931e+03 5.056e-10
 59.90562     -6.9 1.032e+04 6.057e-10
 59.94633     -7.0 1.061e+04 7.992e-10
 59.98705     -5.6 1.083e+04 9.888e-10
 60.01293     -4.2 1.106e+04 1.092e-09
 60.03328     -3.7 1.047e+04 8.143e-10
 60.06847     -2.9 1.055e+04 8.253e-10
 60.10919     -2.2 1.066e+04 8.599e-10
 60.14398     -1.5 1.093e+04 9.050e-10
 60.16433     -3.1 1.072e+04 7.936e-10
 60.19061     -3.2 1.167e+04 1.178e-09
 60.21958     -3.0 1.153e+04 1.182e-09
 60.22966     -4.7 1.196e+04 1.375e-09
 60.24131     -5.5 1.243e+04 1.695e-09
 60.26167     -7.4 1.338e+04 2.209e-09
 60.28202    -11.1 1.497e+04 3.122e-09
 60.29518    -16.2 1.577e+04 4.193e-09
 60.30536    -17.4 1.486e+04 3.257e-09
 60.32274    -22.8 1.490e+04 3.476e-09
 60.34309    -27.9 1.477e+04 3.502e-09
 60.35386    -33.4 1.496e+04 3.290e-09
 60.36130    -33.9 1.543e+04 3.616e-09
 60.37089    -34.3 1.455e+04 3.070e-09
 60.38381    -39.6 1.488e+04 3.166e-09
 60.40416    -44.7 1.463e+04 3.034e-09
 60.42452    -48.2 1.377e+04 2.790e-09
 60.43641    -49.9 1.324e+04 2.629e-09
 60.44659    -50.1 1.266e+04 2.267e-09
 60.46523    -51.3 1.231e+04 2.009e-09
 60.48559    -52.5 1.205e+04 1.761e-09
 60.50193    -54.3 1.182e+04 1.590e-09
 60.51211    -54.5 1.162e+04 1.474e-09
 60.52630    -56.1 1.155e+04 1.441e-09
 60.54666    -57.4 1.158e+04 1.469e-09
 60.56702    -58.4 1.188e+04 1.673e-09
 60.57764    -58.9 1.220e+04 1.890e-09
 60.58781    -60.0 1.248e+04 2.042e-09
 60.60773    -60.3 1.270e+04 2.308e-09
 60.62809    -60.7 1.274e+04 2.405e-09
 60.64316    -61.2 1.268e+04 2.404e-09
 60.65334    -61.6 1.293e+04 2.757e-09
 60.66880    -61.9 1.287e+04 2.761e-09
 60.68916    -62.3 1.291e+04 2.764e-09
 60.70868    -63.0 1.319e+04 2.858e-09
 60.71886    -64.2 1.422e+04 3.535e-09
 60.72987    -65.5 1.478e+04 3.948e-09
 60.75023    -66.9 1.507e+04 4.223e-09
 60.77058    -68.2 1.509e+04 4.276e-09
 60.78439    -69.3 1.480e+04 4.108e-09
 60.79456    -70.1 1.464e+04 4.712e-09
 60.81130    -70.5 1.425e+04 4.305e-09
 60.83165    -71.1 1.382e+04 3.712e-09
 60.84593    -71.9 1.342e+04 3.225e-09
 60.85401    -72.3 1.328e+04 2.893e-09
 60.86009    -72.6 1.377e+04 3.067e-09
 60.87237    -74.2 1.354e+04 2.583e-09
 60.89272    -75.8 1.330e+04 2.218e-09
 60.91308    -77.5 1.300e+04 1.918e-09
 60.92561    -79.0 1.263e+04 1.652e-09
 60.93579    -80.7 1.257e+04 1.859e-09
 60.95379    -81.8 1.219e+04 1.670e-09
 60.97415    -82.6 1.182e+04 1.491e-09
 60.99114    -83.2 1.152e+04 1.348e-09
 61.00131    -83.8 1.167e+04 1.483e-09
 61.01486    -84.3 1.137e+04 1.289e-09
 61.03522    -84.7 1.116e+04 1.157e-09
 61.05558    -85.2 1.106e+04 1.070e-09
 61.06684    -85.8 1.104e+04 1.028e-09
 61.07702    -86.6 1.086e+04 8.732e-10
 61.09629    -87.4 1.087e+04 8.654e-10
 61.11665    -88.3 1.099e+04 8.881e-10
 61.13236    -89.2 1.116e+04 9.831e-10
 61.14254    -90.3 1.080e+04 8.383e-10
 61.15736    -90.9 1.093e+04 9.365e-10
 61.17772    -91.6 1.103e+04 1.004e-09
 61.19789    -92.2 1.106e+04 1.024e-09
 61.20806    -92.8 1.078e+04 9.056e-10
 61.21843    -93.2 1.079e+04 9.117e-10
 61.24906    -93.9 1.077e+04 8.988e-10
 61.27378    -95.1 1.025e+04 6.715e-10
 61.29414    -95.6 1.014e+04 6.344e-10
 61.33059    -96.0 9.865e+03 5.322e-10
 61.37130    -96.2 9.507e+03 4.373e-10
 61.40483    -96.0 9.167e+03 3.560e-10
 61.42519    -95.6 9.326e+03 4.205e-10
 61.45273    -94.5 8.887e+03 2.966e-10
 61.49344    -93.3 8.482e+03 2.003e-10
 61.53415    -92.3 8.217e+03 1.428e-10
 61.55623    -91.3 8.168e+03 1.203e-10
 61.57659    -90.8 8.363e+03 1.400e-10
 61.61558    -89.9 8.412e+03 1.416e-10
 61.65629    -89.4 8.808e+03 1.932e-10
 61.68728    -88.8 9.223e+03 2.974e-10
 61.70764    -88.7 9.944e+03 5.486e-10
 61.73772    -87.9 1.046e+04 8.155e-10
 61.77844    -87.5 1.081e+04 9.924e-10
 61.81833    -87.4 1.093e+04 1.042e-09
 61.83869    -87.5 1.149e+04 1.396e-09
 61.84045    -87.4 1.126e+04 1.220e-09
 61.86081    -86.9 1.085e+04 9.489e-10
 61.90058    -86.8 1.052e+04 7.191e-10
 61.94129    -86.8 1.038e+04 6.091e-10
 61.96973    -86.6 1.024e+04 5.434e-10
 61.99009    -86.8 9.526e+03 2.964e-10
 62.02272    -86.3 9.307e+03 2.408e-10
 62.06343    -85.6 9.149e+03 2.071e-10
 62.10078    -84.7 9.039e+03 1.886e-10
 62.12114    -84.8 8.603e+03 1.133e-10
 62.14486    -83.8 8.635e+03 1.131e-10
 62.18557    -82.8 8.763e+03 1.279e-10
 62.22628    -81.7 8.846e+03 1.582e-10
 62.25219    -80.4 8.920e+03 1.914e-10
 62.27254    -80.7 8.971e+03 1.998e-10
 62.30771    -79.8 9.266e+03 2.701e-10
 62.34842    -79.5 9.724e+03 3.715e-10
 62.38323    -79.7 1.032e+04 5.422e-10
 62.40359    -80.4 1.061e+04 6.533e-10
 62.42985    -80.6 1.115e+04 9.000e-10
 62.47056    -81.2 1.146e+04 1.088e-09
 62.51128    -82.0 1.148e+04 1.113e-09
 62.53464    -82.4 1.109e+04 9.175e-10
 62.55499    -83.6 1.049e+04 6.893e-10
 62.59270    -83.9 9.840e+03 4.389e-10
 62.63342    -84.0 9.293e+03 2.737e-10
 62.66569    -84.0 8.959e+03 2.044e-10
 62.68604    -84.2 8.542e+03 1.515e-10
 62.71484    -83.8 8.402e+03 1.346e-10
 62.75556    -83.0 8.381e+03 1.332e-10
 62.79627    -82.2 8.464e+03 1.516e-10
 62.81709    -81.4 8.630e+03 1.861e-10
 62.82506    -81.4 8.530e+03 1.710e-10
 62.84495    -81.2 8.461e+03 1.579e-10
 62.87770    -80.5 8.660e+03 1.927e-10
 62.91841    -79.8 8.864e+03 2.388e-10
 62.94814    -79.0 9.009e+03 2.833e-10
 62.96849    -78.8 9.036e+03 2.900e-10
 62.99984    -78.0 9.072e+03 3.108e-10
 63.04055    -77.0 9.051e+03 3.129e-10
 63.07919    -75.7 8.837e+03 2.828e-10
 63.09954    -75.6 8.850e+03 2.729e-10
 63.12198    -74.2 8.656e+03 2.390e-10
 63.16269    -72.9 8.527e+03 2.109e-10
 63.20340    -71.6 8.486e+03 2.041e-10
 63.23059    -70.2 8.497e+03 2.084e-10
 63.25095    -70.1 8.635e+03 2.322e-10
 63.28483    -68.7 8.816e+03 2.748e-10
 63.32554    -67.1 8.926e+03 3.051e-10
 63.36164    -65.5 8.936e+03 3.110e-10
 63.38199    -65.3 9.098e+03 3.342e-10
 63.40697    -63.6 9.031e+03 3.083e-10
 63.44768    -61.7 8.798e+03 2.211e-10
 63.48840    -60.3 8.739e+03 1.588e-10
 63.51304    -59.4 8.802e+03 1.439e-10
 63.53340    -59.5 8.983e+03 1.599e-10
 63.56982    -59.2 9.258e+03 1.699e-10
 63.61054    -58.8 9.602e+03 2.705e-10
 63.64409    -58.0 9.944e+03 4.295e-10
 63.66445    -57.6 1.021e+04 5.196e-10
 63.69196    -57.3 1.066e+04 6.694e-10
 63.73268    -58.2 1.135e+04 8.334e-10
 63.77339    -60.8 1.211e+04 1.107e-09
 63.79549    -63.4 1.234e+04 1.329e-09
 63.80557    -63.7 1.274e+04 1.649e-09
 63.81872    -64.7 1.255e+04 1.599e-09
 63.82890    -65.2 1.263e+04 1.947e-09
 63.84444    -66.3 1.214e+04 1.477e-09
 63.86082    -67.8 1.173e+04 1.063e-09
 63.87100    -68.5 1.182e+04 1.056e-09
 63.88516    -70.4 1.135e+04 7.926e-10
 63.90551    -71.6 1.103e+04 6.479e-10
 63.92587    -72.2 1.087e+04 5.739e-10
 63.93652    -72.4 1.080e+04 5.264e-10
 63.94670    -73.7 1.100e+04 5.822e-10
 63.97686    -74.3 1.134e+04 5.775e-10
 64.01767    -73.5 1.157e+04 5.435e-10
 64.05759    -72.9 1.237e+04 6.701e-10
 64.07785    -75.1 1.331e+04 1.358e-09
 64.08873    -74.7 1.345e+04 1.662e-09
 64.10908    -73.9 1.359e+04 2.060e-09
 64.12944    -72.8 1.372e+04 2.447e-09
 64.14327    -71.6 1.388e+04 2.804e-09
 64.15345    -72.4 1.401e+04 3.394e-09
 64.17015    -71.1 1.411e+04 3.488e-09
 64.19051    -69.8 1.415e+04 3.481e-09
 64.20880    -68.2 1.421e+04 3.446e-09
 64.21898    -68.9 1.412e+04 3.305e-09
 64.23122    -67.6 1.423e+04 3.212e-09
 64.25158    -66.5 1.425e+04 3.041e-09
 64.27194    -65.1 1.421e+04 2.862e-09
 64.28450    -63.5 1.429e+04 2.829e-09
 64.29468    -65.1 1.323e+04 1.665e-09
 64.31079    -63.8 1.335e+04 1.661e-09
 64.32097    -64.6 1.267e+04 1.450e-09
 64.33301    -63.2 1.265e+04 1.443e-09
 64.35002    -61.9 1.296e+04 1.529e-09
 64.36020    -63.5 1.134e+04 9.200e-10
 64.37372    -61.6 1.151e+04 9.562e-10
 64.39408    -60.5 1.240e+04 1.143e-09
 64.41443    -60.4 1.488e+04 1.636e-09
 64.42573    -63.4 2.118e+04 3.298e-09
 64.43590    -68.5 1.905e+04 2.148e-09
 64.45515    -73.7 2.190e+04 8.489e-09
 64.47036    -76.8 2.078e+04 2.334e-08
 64.48049    -77.5 2.043e+04 4.116e-08
 64.49067    -77.9 2.062e+04 5.939e-08
 64.49624    -78.7 2.102e+04 6.568e-08
 64.50133    -78.4 2.091e+04 4.127e-08
 64.51103    -79.6 2.102e+04 4.209e-08
 64.52121    -80.8 2.128e+04 3.788e-08
 64.52900    -81.9 2.138e+04 2.750e-08
 64.53409    -82.0 2.039e+04 2.154e-08
 64.54156    -82.7 2.041e+04 1.535e-08
 64.55174    -83.4 2.053e+04 1.041e-08
 64.56176    -85.0 2.007e+04 6.731e-09
 64.56675    -84.3 1.944e+04 6.612e-09
 64.56691    -83.7 1.923e+04 7.306e-09
 64.57210    -85.2 1.891e+04 5.132e-09
 64.58228    -86.9 1.787e+04 3.693e-09
 64.59759    -88.4 1.649e+04 2.712e-09
 64.61800    -91.1 1.334e+04 1.462e-09
 64.63248    -92.4 1.191e+04 1.158e-09
 64.64265    -91.4 1.221e+04 1.322e-09
 64.65871    -91.6 1.183e+04 1.250e-09
 64.67907    -91.5 1.178e+04 1.248e-09
 64.69800    -91.0 1.182e+04 1.256e-09
 64.70818    -90.5 1.176e+04 1.258e-09
 64.71978    -90.0 1.171e+04 1.146e-09
 64.74014    -89.4 1.154e+04 9.614e-10
 64.76050    -89.0 1.127e+04 7.649e-10
 64.77370    -88.7 1.094e+04 5.946e-10
 64.78388    -88.2 1.067e+04 4.983e-10
 64.80121    -87.7 1.038e+04 3.801e-10
 64.81314    -87.1 1.017e+04 2.938e-10
 64.82332    -87.7 1.036e+04 4.057e-10
 64.83922    -87.2 1.026e+04 3.487e-10
 64.84940    -86.9 1.012e+04 3.029e-10
 64.86228    -86.2 1.019e+04 2.873e-10
 64.88264    -85.7 1.021e+04 2.850e-10
 64.90485    -84.6 1.032e+04 2.970e-10
 64.92530    -84.3 1.007e+04 2.327e-10
 64.95408    -82.2 1.006e+04 2.278e-10
 64.99479    -80.1 1.022e+04 2.540e-10
 65.03551    -78.1 1.041e+04 3.240e-10
 65.05625    -76.2 1.046e+04 3.718e-10
 65.07661    -75.7 1.051e+04 3.722e-10
 65.11693    -73.7 1.072e+04 5.354e-10
 65.15765    -71.6 1.092e+04 6.825e-10
 65.18740    -69.8 1.104e+04 7.329e-10
 65.20775    -69.3 1.128e+04 8.809e-10
 65.23907    -67.8 1.124e+04 8.662e-10
 65.27979    -66.3 1.089e+04 6.578e-10
 65.31844    -64.7 1.045e+04 4.277e-10
 65.33880    -64.3 1.097e+04 6.752e-10
 65.36121    -62.7 1.046e+04 4.060e-10
 65.40193    -60.9 1.015e+04 2.547e-10
 65.44264    -59.0 9.972e+03 1.932e-10
 65.46985    -56.8 9.911e+03 1.668e-10
 65.49020    -56.7 1.015e+04 2.184e-10
 65.52407    -54.5 1.001e+04 2.008e-10
 65.56478    -52.3 9.898e+03 1.931e-10
 65.60090    -50.0 9.764e+03 1.857e-10
 65.62125    -49.9 9.983e+03 2.836e-10
 65.64621    -47.6 9.803e+03 2.606e-10
 65.68692    -45.1 9.707e+03 2.184e-10
 65.72763    -42.9 9.718e+03 1.773e-10
 65.75230    -40.9 9.733e+03 1.580e-10
 65.77266    -40.8 9.909e+03 2.443e-10
 65.79738    -38.9 9.866e+03 2.195e-10
 65.81774    -38.5 9.720e+03 1.547e-10
 65.84977    -36.5 9.604e+03 1.876e-10
 65.88335    -34.2 9.574e+03 2.273e-10
 65.90370    -33.8 9.742e+03 2.659e-10
 65.93120    -31.5 9.731e+03 2.636e-10
 65.97191    -29.3 9.722e+03 2.443e-10
 66.01263    -27.3 9.704e+03 2.021e-10
 66.03475    -25.6 9.631e+03 1.610e-10
 66.05511    -25.5 9.473e+03 1.488e-10
 66.09406    -23.9 9.366e+03 1.268e-10
 66.13477    -22.1 9.144e+03 1.137e-10
 66.16580    -20.0 8.983e+03 1.006e-10
 66.18616    -19.0 8.992e+03 9.829e-11
 66.21620    -17.2 8.863e+03 8.292e-11
 66.25691    -15.8 8.993e+03 8.686e-11
 66.29685    -17.3 9.641e+03 1.808e-10
 66.31720    -16.3 9.748e+03 1.702e-10
 66.32806    -17.5 1.044e+04 5.045e-10
 66.34832    -18.0 1.125e+04 6.607e-10
 66.36868    -19.6 1.166e+04 1.576e-09
 66.38253    -20.0 1.264e+04 2.461e-09
 66.39271    -19.8 1.289e+04 2.838e-09
 66.40939    -19.9 1.365e+04 3.451e-09
 66.42975    -21.3 1.366e+04 2.911e-09
 66.44806    -23.8 1.279e+04 1.716e-09
 66.45823    -24.4 1.298e+04 1.753e-09
 66.47046    -28.3 1.185e+04 8.595e-10
 66.49082    -31.8 1.092e+04 5.024e-10
 66.51117    -33.9 1.005e+04 3.908e-10
 66.52376    -34.5 9.749e+03 3.666e-10
 66.53394    -34.6 9.825e+03 4.172e-10
 66.55189    -34.0 9.670e+03 3.879e-10
 66.57920    -33.7 9.468e+03 3.384e-10
 66.59966    -33.8 9.510e+03 3.371e-10
 66.62333    -32.5 9.045e+03 2.344e-10
 66.66404    -30.5 8.798e+03 1.786e-10
 66.70476    -29.0 8.785e+03 1.660e-10
 66.73070    -27.4 8.974e+03 1.827e-10
 66.75106    -28.2 8.913e+03 1.836e-10
 66.78153    -26.3 9.135e+03 2.503e-10
 66.80188    -25.6 9.377e+03 3.312e-10
 66.82690    -23.1 9.667e+03 4.617e-10
 66.86175    -21.0 9.965e+03 5.388e-10
 66.88211    -21.3 9.645e+03 4.369e-10
 66.90832    -19.7 9.750e+03 4.450e-10
 66.94904    -18.6 9.789e+03 4.316e-10
 66.98975    -17.8 9.801e+03 4.469e-10
 67.01315    -17.3 9.936e+03 4.925e-10
 67.03351    -17.5 9.419e+03 3.404e-10
 67.06090    -16.8 9.633e+03 4.054e-10
 67.07848    -16.4 9.756e+03 4.196e-10
 67.08866    -16.5 9.602e+03 3.650e-10
 67.11179    -16.1 1.003e+04 4.565e-10
 67.14420    -16.0 1.049e+04 5.749e-10
 67.16456    -15.4 9.815e+03 3.723e-10
 67.19332    -14.1 9.835e+03 4.346e-10
 67.23403    -12.6 9.797e+03 4.528e-10
 67.27474    -11.3 9.833e+03 4.254e-10
 67.29561    -10.7 9.914e+03 4.262e-10
 67.31596    -10.1 9.553e+03 3.098e-10
 67.35617     -8.7 9.561e+03 3.650e-10
 67.39688     -6.9 9.525e+03 3.608e-10
 67.42665     -5.3 9.446e+03 3.212e-10
 67.44701     -4.4 9.356e+03 2.727e-10
 67.47831     -3.5 9.400e+03 2.607e-10
 67.51902     -2.5 9.383e+03 2.697e-10
 67.55770     -1.4 9.405e+03 2.750e-10
 67.57806     -0.2 9.438e+03 2.853e-10
 67.60045      0.7 9.572e+03 2.801e-10
 67.64116      0.9 9.731e+03 2.956e-10
 67.68188      1.2 9.603e+03 3.066e-10
 67.70911      2.2 9.376e+03 2.726e-10
 67.72946      3.2 9.301e+03 2.335e-10
 67.76330      3.8 9.170e+03 1.787e-10
 67.78603      3.6 9.126e+03 1.326e-10
 67.80639      2.2 8.959e+03 1.130e-10
 67.84015      2.3 8.850e+03 1.134e-10
 67.86051      3.3 8.909e+03 1.036e-10
 67.88544      3.3 9.044e+03 1.106e-10
 67.92616      3.1 9.308e+03 1.312e-10
 67.96687      2.8 9.408e+03 1.636e-10
 67.99156      2.9 9.386e+03 1.786e-10
 68.01191      3.4 9.285e+03 1.560e-10
 68.04830      4.0 9.212e+03 1.385e-10
 68.08901      4.6 9.186e+03 1.064e-10
 68.12261      4.8 9.167e+03 8.248e-11
 68.14296      4.9 9.146e+03 8.248e-11
 68.17044      5.3 9.085e+03 8.472e-11
 68.21115      6.2 9.024e+03 9.545e-11
 68.25187      7.5 9.010e+03 1.121e-10
 68.27401      9.1 9.000e+03 1.194e-10
 68.29437      9.7 8.962e+03 1.102e-10
 68.33329     11.4 8.942e+03 1.019e-10
 68.37401     13.0 8.988e+03 8.393e-11
 68.40506     14.3 9.191e+03 6.261e-11
 68.42541     14.4 9.228e+03 7.039e-11
 68.45543     15.5 9.375e+03 5.920e-11
 68.49615     16.5 9.361e+03 5.485e-11
 68.53611     17.4 9.342e+03 5.525e-11
 68.55646     17.6 9.350e+03 7.221e-11
 68.57757     18.3 9.378e+03 7.594e-11
 68.61829     19.0 9.366e+03 8.088e-11
 68.65900     19.9 9.325e+03 7.832e-11
 68.68751     21.0 9.288e+03 6.883e-11
 68.70787     21.4 9.324e+03 6.693e-11
 68.74043     21.9 9.378e+03 4.876e-11
 68.77017     22.2 9.331e+03 4.297e-11
 68.79053     22.5 9.327e+03 4.009e-11
 68.81856     23.0 9.311e+03 4.074e-11
 68.83891     23.2 9.272e+03 4.149e-11
 68.86257     24.1 9.233e+03 5.024e-11
 68.90328     25.4 9.245e+03 6.686e-11
 68.94399     27.0 9.326e+03 8.496e-11
 68.96996     28.7 9.475e+03 9.524e-11
 68.99032     29.2 9.477e+03 1.010e-10
 69.02542     30.6 9.580e+03 1.044e-10
 69.06613     31.9 9.639e+03 1.047e-10
 69.10101     33.0 9.686e+03 1.067e-10
 69.12137     33.5 9.628e+03 1.295e-10
 69.14756     34.5 9.736e+03 1.442e-10
 69.18827     35.4 1.008e+04 2.113e-10
 69.22899     36.3 1.058e+04 3.493e-10
 69.25232     36.6 1.084e+04 4.832e-10
 69.26240     36.8 1.098e+04 5.857e-10
 69.27223     37.3 1.131e+04 7.796e-10
 69.28241     36.9 1.136e+04 7.944e-10
 69.30004     37.3 1.170e+04 1.011e-09
 69.31774     37.6 1.198e+04 1.220e-09
 69.32792     37.4 1.217e+04 1.349e-09
 69.34075     37.8 1.209e+04 1.448e-09
 69.36111     38.2 1.203e+04 1.419e-09
 69.38147     38.9 1.193e+04 1.335e-09
 69.39344     39.5 1.182e+04 1.209e-09
 69.40362     39.3 1.170e+04 1.142e-09
 69.42218     39.5 1.172e+04 9.874e-10
 69.44254     39.6 1.182e+04 8.845e-10
 69.45897     39.7 1.189e+04 8.580e-10
 69.46915     39.3 1.171e+04 7.407e-10
 69.48325     39.6 1.160e+04 7.088e-10
 69.50361     40.2 1.162e+04 6.918e-10
 69.52396     40.8 1.174e+04 6.995e-10
 69.53467     40.8 1.203e+04 7.255e-10
 69.54485     39.9 1.155e+04 5.693e-10
 69.56468     39.3 1.184e+04 6.433e-10
 69.58503     38.3 1.208e+04 8.235e-10
 69.60019     37.3 1.239e+04 1.156e-09
 69.61037     37.0 1.208e+04 1.126e-09
 69.62575     36.8 1.259e+04 1.632e-09
 69.64610     37.0 1.323e+04 2.244e-09
 69.66572     37.2 1.383e+04 2.750e-09
 69.67590     38.0 1.350e+04 2.531e-09
 69.68682     37.9 1.378e+04 2.569e-09
 69.70717     37.7 1.380e+04 2.470e-09
 69.72753     37.3 1.369e+04 2.137e-09
 69.74142     36.9 1.336e+04 1.725e-09
 69.75160     37.6 1.311e+04 1.681e-09
 69.76430     37.3 1.273e+04 1.405e-09
 69.77448     36.9 1.188e+04 7.917e-10
 69.78860     36.7 1.158e+04 7.540e-10
 69.80694     36.6 1.131e+04 7.354e-10
 69.81712     37.7 1.141e+04 7.662e-10
 69.82931     37.6 1.142e+04 7.832e-10
 69.84967     36.6 1.168e+04 8.743e-10
 69.87003     34.5 1.244e+04 1.205e-09
 69.88265     32.5 1.315e+04 1.921e-09
 69.89282     33.5 1.326e+04 2.093e-09
 69.91074     32.6 1.357e+04 2.987e-09
 69.93110     32.5 1.349e+04 3.031e-09
 69.94817     33.0 1.314e+04 2.693e-09
 69.95835     33.8 1.338e+04 2.970e-09
 69.97181     34.1 1.290e+04 1.965e-09
 69.99217     33.5 1.269e+04 9.994e-10
 70.01252     31.0 1.252e+04 4.399e-10
 70.02387     27.2 1.194e+04 2.735e-10
 70.03405     28.5 1.236e+04 3.094e-10
 70.05324     26.8 1.143e+04 2.689e-10
 70.07931     24.3 1.133e+04 3.296e-10
 70.09977     25.7 1.171e+04 3.782e-10
 70.12468     24.3 1.130e+04 5.117e-10
 70.16539     24.5 1.130e+04 6.554e-10
 70.20611     24.7 1.130e+04 5.842e-10
 70.23072     24.0 1.142e+04 5.359e-10
 70.24080     24.0 1.196e+04 7.456e-10
 70.25637     23.5 1.192e+04 6.830e-10
 70.26655     24.1 1.188e+04 6.938e-10
 70.27716     23.5 1.187e+04 7.009e-10
 70.29615     22.4 1.181e+04 7.548e-10
 70.30632     22.3 1.196e+04 1.011e-09
 70.31787     21.7 1.168e+04 1.162e-09
 70.33823     21.8 1.151e+04 1.231e-09
 70.35859     22.4 1.143e+04 1.180e-09
 70.37185     22.7 1.145e+04 1.025e-09
 70.38203     23.3 1.165e+04 1.142e-09
 70.39930     22.8 1.197e+04 8.616e-10
 70.41966     21.0 1.204e+04 6.932e-10
 70.43737     18.8 1.197e+04 7.003e-10
 70.44755     18.7 1.152e+04 5.997e-10
 70.46037     16.9 1.164e+04 6.647e-10
 70.48073     15.4 1.234e+04 9.112e-10
 70.50109     14.3 1.325e+04 1.350e-09
 70.51307     13.2 1.422e+04 1.915e-09
 70.52325     10.4 1.545e+04 2.367e-09
 70.54180      9.0 1.660e+04 3.627e-09
 70.56216      7.1 1.769e+04 5.370e-09
 70.57860      5.3 1.805e+04 7.712e-09
 70.58878      4.3 1.865e+04 9.884e-09
 70.60287      3.7 1.839e+04 1.182e-08
 70.62323      3.4 1.766e+04 1.318e-08
 70.64358      4.2 1.664e+04 1.087e-08
 70.65430      4.8 1.569e+04 7.709e-09
 70.66448      4.5 1.542e+04 6.794e-09
 70.68430      4.3 1.421e+04 4.195e-09
 70.70465      3.8 1.280e+04 2.389e-09
 70.73528      2.6 1.125e+04 1.176e-09
 70.75882      3.7 9.547e+03 4.686e-10
 70.77844      2.7 9.913e+03 5.369e-10
 70.79572      3.4 9.482e+03 4.495e-10
 70.81681      5.4 8.778e+03 2.707e-10
 70.85752      6.8 8.372e+03 1.762e-10
 70.89824      8.5 8.067e+03 1.344e-10
 70.92677     10.4 7.823e+03 1.170e-10
 70.94712     11.5 7.951e+03 1.339e-10
 70.97966     13.7 7.856e+03 1.289e-10
 71.02038     15.8 7.794e+03 1.265e-10
 71.05782     17.9 7.732e+03 1.253e-10
 71.07817     18.8 7.882e+03 1.330e-10
 71.10180     20.6 7.878e+03 1.378e-10
 71.14252     22.5 7.895e+03 1.523e-10
 71.18323     24.5 7.924e+03 1.611e-10
 71.20922     26.5 7.914e+03 1.567e-10
 71.22958     27.0 8.008e+03 1.661e-10
 71.26466     29.0 7.969e+03 1.519e-10
 71.30537     30.6 7.901e+03 1.248e-10
 71.34027     31.9 7.829e+03 1.029e-10
 71.36062     32.7 7.792e+03 1.041e-10
 71.38680     33.9 7.726e+03 8.831e-11
 71.42751     35.2 7.731e+03 8.870e-11
 71.46822     36.4 7.804e+03 9.898e-11
 71.49167     37.6 7.979e+03 1.257e-10
 71.51203     38.6 7.753e+03 7.678e-11
 71.54965     39.9 7.973e+03 9.014e-11
 71.59036     40.1 8.272e+03 1.189e-10
 71.62272     39.9 8.737e+03 1.960e-10
 71.64308     40.8 8.392e+03 1.305e-10
 71.67179     40.3 9.276e+03 2.931e-10
 71.71250     39.8 1.016e+04 6.032e-10
 71.74296     38.7 1.042e+04 6.827e-10
 71.76332     39.1 1.071e+04 8.291e-10
 71.77412     37.3 1.058e+04 7.228e-10
 71.79448     38.9 1.167e+04 1.007e-09
 71.83464     36.8 1.103e+04 5.852e-10
 71.87536     32.2 9.475e+03 2.690e-10
 71.90517     28.3 8.396e+03 2.126e-10
 71.92553     29.9 8.840e+03 2.339e-10
 71.95678     27.8 8.653e+03 2.416e-10
 71.99750     26.6 8.867e+03 3.029e-10
 72.03622     26.2 9.127e+03 3.879e-10
 72.05658     27.4 9.115e+03 3.479e-10
 72.07892     27.3 9.019e+03 3.455e-10
 72.11964     27.5 8.792e+03 3.164e-10
 72.16035     27.6 8.607e+03 2.615e-10
 72.18762     27.5 8.702e+03 2.586e-10
 72.20798     29.1 8.356e+03 1.710e-10
 72.24178     28.9 8.666e+03 2.029e-10
 72.28249     27.9 9.499e+03 3.053e-10
 72.31293     27.1 1.022e+04 5.046e-10
 72.32865     26.7 1.068e+04 7.689e-10
 72.33883     27.6 1.057e+04 6.949e-10
 72.35354     27.9 1.105e+04 1.072e-09
 72.37390     28.3 1.158e+04 1.356e-09
 72.39418     27.4 1.281e+04 1.691e-09
 72.41453     27.2 1.433e+04 2.387e-09
 72.43497     23.0 1.616e+04 3.377e-09
 72.45533     20.3 1.561e+04 4.199e-09
 72.46988     19.0 1.492e+04 4.807e-09
 72.48006     21.3 1.537e+04 4.690e-09
 72.49604     20.4 1.499e+04 5.218e-09
 72.51640     20.0 1.508e+04 5.563e-09
 72.53540     14.5 1.995e+04 7.622e-09
 72.54558     19.7 1.651e+04 5.945e-09
 72.55711      9.2 2.448e+04 1.157e-08
 72.57233      1.1 2.498e+04 2.340e-08
 72.57825     -1.7 2.448e+04 2.717e-08
 72.58334     -0.1 2.455e+04 2.723e-08
 72.59264     -2.7 2.299e+04 3.080e-08
 72.60282     -3.3 2.146e+04 2.543e-08
 72.61101     -4.8 2.045e+04 1.315e-08
 72.61610     -2.8 2.075e+04 2.020e-08
 72.62317     -3.2 2.241e+04 9.284e-09
 72.63335    -11.6 2.433e+04 2.116e-09
 72.64353    -19.2 2.080e+04 7.257e-10
 72.65885    -30.5 1.285e+04 2.523e-10
 72.67663    -36.8 8.247e+03 1.658e-10
 72.68681    -35.5 8.934e+03 1.729e-10
 72.69961    -37.2 8.130e+03 1.572e-10
 72.72701    -38.2 8.089e+03 1.495e-10
 72.74737    -38.4 8.245e+03 1.640e-10
 72.75243    -39.5 8.233e+03 1.648e-10
 72.76261    -39.0 8.228e+03 1.670e-10
 72.78104    -39.4 8.254e+03 1.690e-10
 72.80139    -40.5 8.249e+03 1.752e-10
 72.81786    -41.5 8.458e+03 1.944e-10
 72.82803    -43.4 9.089e+03 2.478e-10
 72.84211    -48.2 1.074e+04 5.605e-10
 72.86246    -51.3 1.229e+04 1.314e-09
 72.88282    -52.1 1.346e+04 2.598e-09
 72.89356    -51.6 1.432e+04 4.126e-09
 72.90374    -51.4 1.501e+04 5.292e-09
 72.92353    -50.9 1.516e+04 5.724e-09
 72.94389    -50.5 1.516e+04 5.730e-09
 72.95908    -50.0 1.458e+04 4.343e-09
 72.96926    -50.1 1.440e+04 3.576e-09
 72.98460    -51.0 1.340e+04 2.105e-09
 73.00496    -52.9 1.201e+04 1.191e-09
 73.02461    -54.4 1.062e+04 7.187e-10
 73.03478    -55.3 1.033e+04 6.947e-10
 73.05595    -55.4 9.972e+03 5.563e-10
 73.09676    -53.7 9.350e+03 3.962e-10
 73.13747    -52.2 9.142e+03 3.358e-10
 73.16603    -51.0 9.113e+03 3.257e-10
 73.18638    -50.5 9.329e+03 3.849e-10
 73.21890    -49.8 9.764e+03 4.685e-10
 73.25961    -49.1 1.034e+04 6.299e-10
 73.29707    -48.6 1.072e+04 7.357e-10
 73.31743    -48.8 1.217e+04 1.487e-09
 73.33076    -48.7 1.228e+04 1.501e-09
 73.35102    -49.0 1.241e+04 1.604e-09
 73.37138    -49.0 1.238e+04 1.608e-09
 73.38276    -49.1 1.196e+04 1.458e-09
 73.39294    -48.3 1.286e+04 2.111e-09
 73.41209    -48.4 1.218e+04 1.661e-09
 73.43245    -48.6 1.153e+04 1.320e-09
 73.44828    -48.6 1.104e+04 1.086e-09
 73.45846    -48.3 1.127e+04 1.143e-09
 73.47316    -48.3 1.083e+04 9.332e-10
 73.49352    -48.0 1.052e+04 7.916e-10
 73.51381    -47.5 1.024e+04 6.767e-10
 73.53416    -47.2 1.008e+04 5.855e-10
 73.55459    -46.8 9.846e+03 5.094e-10
 73.57943    -46.2 9.594e+03 4.343e-10
 73.59988    -45.7 9.558e+03 4.287e-10
 73.62603    -44.3 9.180e+03 3.331e-10
 73.66675    -42.8 8.929e+03 2.721e-10
 73.70746    -41.2 8.747e+03 2.319e-10
 73.73093    -39.6 8.599e+03 2.040e-10
 73.73472    -39.1 8.919e+03 2.576e-10
 73.75197    -39.8 8.899e+03 2.363e-10
 73.78889    -37.9 8.702e+03 1.950e-10
 73.82960    -36.1 8.523e+03 1.545e-10
 73.86198    -34.4 8.378e+03 1.206e-10
 73.88233    -34.5 8.739e+03 1.717e-10
 73.91103    -32.9 8.645e+03 1.491e-10
 73.95174    -31.5 8.621e+03 1.416e-10
 73.99245    -30.3 8.674e+03 1.464e-10
 74.01338    -29.3 8.891e+03 1.828e-10
 74.03374    -29.1 9.656e+03 3.685e-10
 74.07388    -27.9 9.893e+03 4.493e-10
 74.11459    -26.9 1.007e+04 5.037e-10
 74.14443    -26.5 1.012e+04 5.138e-10
 74.16479    -26.2 1.089e+04 8.117e-10
 74.19602    -26.2 1.082e+04 7.188e-10
 74.22003    -26.9 1.061e+04 5.789e-10
 74.22724    -26.5 1.096e+04 7.028e-10
 74.23367    -26.8 1.108e+04 7.366e-10
 74.24672    -27.9 1.114e+04 7.228e-10
 74.26707    -29.5 1.106e+04 7.153e-10
 74.28546    -30.8 1.099e+04 7.199e-10
 74.29564    -30.8 1.156e+04 9.941e-10
 74.30779    -31.7 1.127e+04 9.561e-10
 74.32814    -32.4 1.101e+04 8.664e-10
 74.34850    -33.1 1.076e+04 7.324e-10
 74.36116    -34.1 1.059e+04 5.967e-10
 74.37134    -34.5 1.090e+04 6.937e-10
 74.38921    -36.4 1.080e+04 5.894e-10
 74.40957    -38.7 1.080e+04 5.684e-10
 74.42669    -41.0 1.093e+04 5.823e-10
 74.43686    -41.8 1.101e+04 6.478e-10
 74.45028    -43.8 1.112e+04 7.520e-10
 74.47064    -45.0 1.118e+04 8.877e-10
 74.49100    -45.8 1.116e+04 9.511e-10
 74.50239    -46.3 1.113e+04 9.551e-10
 74.51257    -46.9 1.090e+04 7.903e-10
 74.53171    -47.4 1.062e+04 6.380e-10
 74.55207    -48.2 1.025e+04 4.669e-10
 74.56791    -49.0 9.864e+03 3.481e-10
 74.57809    -50.2 9.820e+03 3.298e-10
 74.60306    -50.8 9.581e+03 2.875e-10
 74.64387    -50.4 9.403e+03 2.657e-10
 74.68458    -49.1 9.314e+03 2.598e-10
 74.70933    -47.4 9.339e+03 2.768e-10
 74.71941    -48.9 9.907e+03 3.944e-10
 74.72574    -48.4 1.002e+04 4.309e-10
 74.73592    -48.6 1.012e+04 4.914e-10
 74.75564    -47.6 1.025e+04 5.513e-10
 74.77466    -46.6 1.038e+04 6.091e-10
 74.78484    -47.6 1.105e+04 9.426e-10
 74.79635    -46.4 1.109e+04 1.003e-09
 74.81671    -45.1 1.108e+04 1.035e-09
 74.83706    -43.6 1.106e+04 1.059e-09
 74.85036    -42.2 1.112e+04 1.074e-09
 74.86054    -43.8 1.209e+04 1.372e-09
 74.87778    -42.9 1.240e+04 1.366e-09
 74.89813    -42.2 1.269e+04 1.375e-09
 74.92876    -41.4 1.276e+04 1.424e-09
 74.96958    -38.7 1.285e+04 1.437e-09
 74.99179    -36.0 1.284e+04 1.394e-09
 75.01214    -40.6 1.259e+04 1.337e-09
 75.05100    -38.0 1.250e+04 1.268e-09
 75.09172    -35.3 1.251e+04 1.256e-09
 75.12283    -32.9 1.299e+04 1.380e-09
 75.14319    -39.1 1.135e+04 8.007e-10
 75.17314    -38.2 1.171e+04 9.279e-10
 75.21386    -37.5 1.223e+04 1.041e-09
 75.24429    -37.0 9.979e+03 8.179e-10
 75.26386    -37.5 9.991e+03 7.961e-10
 75.27414    -39.2 1.036e+04 8.176e-10
 75.29528    -38.4 1.013e+04 6.567e-10
 75.33600    -37.6 9.824e+03 4.265e-10
 75.37671    -36.9 9.484e+03 3.106e-10
 75.40528    -36.2 9.338e+03 2.970e-10
 75.42564    -34.6 9.321e+03 2.657e-10
 75.45814    -33.4 9.331e+03 2.583e-10
 75.49885    -32.1 9.462e+03 2.917e-10
 75.53633    -30.6 9.655e+03 3.601e-10
 75.55669    -30.1 9.905e+03 4.318e-10
 75.58028    -28.4 9.913e+03 4.646e-10
 75.62099    -26.6 9.825e+03 4.573e-10
 75.65143    -25.4 9.540e+03 3.920e-10
 75.67169    -24.6 9.368e+03 3.552e-10
 75.68754    -23.8 9.199e+03 3.241e-10
 75.69772    -23.4 9.175e+03 3.230e-10
 75.70988    -22.6 9.019e+03 2.990e-10
 75.72006    -22.6 9.175e+03 3.465e-10
 75.73276    -21.6 9.241e+03 3.521e-10
 75.75307    -20.6 9.197e+03 3.465e-10
 75.77342    -18.8 9.015e+03 3.292e-10
 75.79383    -17.6 9.075e+03 3.301e-10
 75.81869    -16.4 9.424e+03 3.601e-10
 75.83914    -15.8 9.261e+03 3.601e-10
 75.86527    -13.1 9.006e+03 3.046e-10
 75.90598    -10.6 9.099e+03 2.878e-10
 75.94670     -8.4 9.323e+03 2.895e-10
 75.97019     -6.5 9.747e+03 3.740e-10
 75.99055     -5.8 8.689e+03 2.361e-10
 76.02812     -4.6 8.699e+03 2.507e-10
 76.05856     -5.6 8.022e+03 3.082e-10
 76.07882     -5.9 9.250e+03 4.969e-10
 76.09918     -5.4 9.360e+03 6.774e-10
 76.11122     -7.6 1.295e+04 1.398e-09
 76.12140     -6.0 1.065e+04 7.180e-10
 76.13989     -7.3 1.347e+04 1.404e-09
 76.16025     -8.7 1.664e+04 3.167e-09
 76.17674     -9.4 1.773e+04 5.739e-09
 76.18692     -7.4 1.669e+04 2.952e-09
 76.20096     -8.3 1.717e+04 4.765e-09
 76.21213     -9.1 1.656e+04 5.646e-09
 76.22231     -6.3 1.765e+04 5.337e-09
 76.24167     -7.3 1.687e+04 6.074e-09
 76.25245     -7.9 1.569e+04 5.829e-09
 76.26262     -6.9 1.559e+04 4.656e-09
 76.28239     -7.1 1.496e+04 4.803e-09
 76.30274     -6.7 1.492e+04 4.518e-09
 76.31797     -6.3 1.503e+04 3.748e-09
 76.32815     -5.4 1.472e+04 4.284e-09
 76.34346     -4.7 1.527e+04 3.933e-09
 76.36381     -5.0 1.580e+04 3.138e-09
 76.38349     -6.7 1.591e+04 2.338e-09
 76.39367     -5.5 1.800e+04 4.783e-09
 76.40453     -8.3 1.833e+04 4.342e-09
 76.42488    -10.6 1.749e+04 4.041e-09
 76.44010    -13.3 1.510e+04 3.165e-09
 76.45023    -13.7 1.474e+04 3.150e-09
 76.45807    -14.8 1.437e+04 3.348e-09
 76.46185    -14.1 1.521e+04 4.062e-09
 76.46419    -13.0 1.573e+04 4.538e-09
 76.47059    -14.1 1.527e+04 4.455e-09
 76.48077    -14.8 1.516e+04 4.609e-09
 76.49095    -15.2 1.516e+04 4.688e-09
 76.49695    -15.5 1.515e+04 4.902e-09
 76.50204    -15.3 1.525e+04 4.453e-09
 76.51130    -15.5 1.505e+04 4.285e-09
 76.52148    -15.9 1.479e+04 4.170e-09
 76.52971    -16.1 1.465e+04 4.066e-09
 76.53480    -16.3 1.479e+04 3.620e-09
 76.54184    -17.0 1.454e+04 3.458e-09
 76.55202    -17.3 1.446e+04 3.432e-09
 76.56733    -17.9 1.433e+04 3.222e-09
 76.58774    -18.6 1.441e+04 3.335e-09
 76.60042    -19.1 1.465e+04 3.503e-09
 76.61060    -19.1 1.494e+04 4.014e-09
 76.62845    -19.4 1.534e+04 4.491e-09
 76.64367    -19.7 1.605e+04 5.312e-09
 76.65380    -20.0 1.623e+04 5.485e-09
 76.66398    -20.4 1.632e+04 5.628e-09
 76.67094    -20.6 1.634e+04 5.672e-09
 76.67603    -20.8 1.671e+04 6.426e-09
 76.68433    -21.0 1.660e+04 6.365e-09
 76.69451    -21.1 1.644e+04 6.279e-09
 76.70416    -21.2 1.612e+04 5.992e-09
 76.71438    -21.9 1.671e+04 7.239e-09
 76.73023    -21.4 1.552e+04 5.418e-09
 76.74165    -20.7 1.442e+04 3.869e-09
 76.75183    -21.3 1.449e+04 3.830e-09
 76.77095    -20.1 1.346e+04 2.661e-09
 76.79130    -19.3 1.270e+04 1.882e-09
 76.80717    -18.5 1.197e+04 1.313e-09
 76.81735    -19.3 1.158e+04 1.022e-09
 76.83202    -18.5 1.082e+04 7.103e-10
 76.85237    -17.5 1.016e+04 5.197e-10
 76.87269    -16.2 9.720e+03 4.191e-10
 76.89305    -15.2 9.240e+03 3.230e-10
 76.92372    -13.4 9.230e+03 3.125e-10
 76.94859    -10.6 9.133e+03 3.041e-10
 76.96895    -10.6 9.144e+03 3.022e-10
 77.00525     -7.5 9.169e+03 3.251e-10
 77.03568     -4.4 9.289e+03 3.570e-10
 77.05594     -4.0 9.343e+03 3.744e-10
 77.07630     -2.6 9.506e+03 4.353e-10
 77.08962     -1.5 9.621e+03 4.775e-10
 77.09980     -1.0 9.743e+03 5.149e-10
 77.11701      0.3 9.927e+03 5.703e-10
 77.13737      1.1 1.012e+04 6.161e-10
 77.15515      1.5 1.042e+04 6.798e-10
 77.16532      2.1 1.055e+04 7.145e-10
 77.17808      2.2 1.092e+04 7.896e-10
 77.19628      2.1 1.136e+04 8.925e-10
 77.20646     -0.6 1.240e+04 1.285e-09
 77.21880     -0.8 1.263e+04 1.438e-09
 77.23085     -0.9 1.277e+04 1.578e-09
 77.24103     -0.5 1.279e+04 1.556e-09
 77.25951     -0.7 1.295e+04 1.699e-09
 77.27987     -0.7 1.311e+04 1.751e-09
 77.29637     -0.7 1.335e+04 1.895e-09
 77.30655     -0.7 1.361e+04 1.977e-09
 77.32058     -0.5 1.387e+04 2.073e-09
 77.34094     -0.1 1.399e+04 2.083e-09
 77.36129      0.5 1.398e+04 2.016e-09
 77.37207      1.2 1.383e+04 1.876e-09
 77.38225      1.0 1.371e+04 1.826e-09
 77.40201      1.7 1.327e+04 1.577e-09
 77.42236      2.4 1.277e+04 1.340e-09
 77.43760      3.2 1.234e+04 1.161e-09
 77.44778      2.9 1.201e+04 9.799e-10
 77.46308      3.7 1.168e+04 8.347e-10
 77.48343      4.6 1.145e+04 7.374e-10
 77.50312      5.7 1.146e+04 7.175e-10
 77.51330      4.7 1.107e+04 4.886e-10
 77.52415      5.5 1.118e+04 4.696e-10
 77.54450      6.3 1.135e+04 4.890e-10
 77.56486      6.9 1.185e+04 5.479e-10
 77.57882      7.5 1.235e+04 6.055e-10
 77.58900      4.5 1.104e+04 3.697e-10
 77.60557      2.2 1.313e+04 5.405e-10
 77.62593     -7.4 1.841e+04 1.330e-09
 77.64435    -15.6 1.978e+04 4.551e-09
 77.65453    -18.2 1.782e+04 4.915e-09
 77.66664    -20.5 1.877e+04 9.736e-09
 77.68700    -21.7 2.062e+04 1.419e-08
 77.69853    -24.2 2.246e+04 1.504e-08
 77.70871    -26.7 2.233e+04 9.870e-09
 77.72005    -35.2 2.289e+04 4.520e-09
 77.73023    -48.0 1.634e+04 1.734e-09
 77.74807    -55.7 1.260e+04 1.304e-09
 77.76843    -58.7 1.222e+04 1.200e-09
 77.78557    -61.7 1.201e+04 1.102e-09
 77.79575    -63.3 1.189e+04 9.358e-10
 77.80914    -67.2 1.178e+04 8.857e-10
 77.82950    -74.2 1.244e+04 9.216e-10
 77.84985    -93.7 2.692e+04 1.746e-09
 77.86123   -109.9 3.491e+04 9.859e-09
 77.86627   -103.0 3.028e+04 5.100e-09
 77.87520   -114.9 3.435e+04 2.100e-08
 77.88538   -125.8 3.322e+04 6.715e-08
 77.89394   -135.3 3.108e+04 1.003e-07
 77.89903   -131.1 3.248e+04 7.529e-08
 77.90574   -140.3 3.036e+04 8.985e-08
 77.91591   -147.8 2.463e+04 7.913e-08
 77.92609   -152.9 2.065e+04 4.558e-08
 77.93179   -155.1 1.996e+04 2.817e-08
 77.93688   -154.0 1.968e+04 3.848e-08
 77.94447   -155.0 1.977e+04 2.825e-08
 77.94956   -153.8 1.968e+04 3.173e-08
 77.95663   -154.3 2.020e+04 2.553e-08
 77.96455   -154.9 2.087e+04 1.774e-08
 77.96964   -154.1 2.031e+04 2.701e-08
 77.97698   -154.9 2.078e+04 1.759e-08
 77.98716   -156.3 2.083e+04 9.282e-09
 77.99732   -158.4 1.958e+04 4.262e-09
 78.00749   -158.6 1.892e+04 4.202e-09
 78.01770   -159.9 1.714e+04 2.819e-09
 78.03301   -161.1 1.576e+04 2.102e-09
 78.05342   -162.7 1.353e+04 1.207e-09
 78.06803   -163.2 1.129e+04 7.307e-10
 78.07820   -162.1 1.218e+04 9.675e-10
 78.09413   -162.5 1.086e+04 6.922e-10
 78.11449   -162.4 1.043e+04 6.247e-10
 78.13355   -161.2 1.029e+04 6.052e-10
 78.14373   -161.2 1.058e+04 7.063e-10
 78.15520   -159.8 1.048e+04 6.886e-10
 78.17556   -158.3 1.044e+04 6.778e-10
 78.19060   -156.8 1.037e+04 6.536e-10
 78.20078   -155.5 1.012e+04 5.913e-10
 78.20925   -154.1 9.989e+03 5.432e-10
 78.21943   -154.0 1.028e+04 6.429e-10
 78.23663   -152.7 1.017e+04 5.970e-10
 78.25699   -151.4 1.005e+04 5.558e-10
 78.27478   -150.0 9.967e+03 5.252e-10
 78.28495   -150.0 1.027e+04 6.236e-10
 78.29770   -148.6 1.020e+04 6.037e-10
 78.31806   -147.2 1.015e+04 5.940e-10
 78.33841   -145.8 1.012e+04 5.913e-10
 78.35048   -144.2 1.011e+04 5.907e-10
 78.36066   -144.2 1.034e+04 6.839e-10
 78.37913   -142.6 1.033e+04 6.863e-10
 78.39948   -141.2 1.033e+04 6.972e-10
 78.41600   -139.7 1.036e+04 7.135e-10
 78.42618   -139.3 1.047e+04 7.520e-10
 78.44020   -137.8 1.049e+04 7.589e-10
 78.46055   -136.5 1.069e+04 7.950e-10
 78.48091   -135.8 1.114e+04 9.117e-10
 78.49170   -135.3 1.187e+04 1.154e-09
 78.50188   -134.9 1.181e+04 1.054e-09
 78.52162   -134.7 1.278e+04 1.489e-09
 78.54198   -134.3 1.380e+04 2.236e-09
 78.55723   -133.8 1.477e+04 3.311e-09
 78.56741   -133.7 1.490e+04 3.307e-09
 78.58269   -133.1 1.584e+04 4.726e-09
 78.60305   -132.6 1.672e+04 6.201e-09
 78.62275   -132.5 1.746e+04 7.400e-09
 78.63293   -132.4 1.761e+04 7.856e-09
 78.64376   -132.6 1.821e+04 8.748e-09
 78.66412   -133.2 1.850e+04 9.229e-09
 78.68267   -134.2 1.848e+04 9.421e-09
 78.69285   -130.6 1.810e+04 7.717e-09
 78.69845   -131.8 1.836e+04 8.073e-09
 78.70863   -131.7 1.825e+04 8.620e-09
 78.72519   -132.9 1.815e+04 8.970e-09
 78.74555   -133.9 1.817e+04 9.940e-09
 78.76398   -134.7 1.850e+04 1.185e-08
 78.77416   -133.9 1.789e+04 1.004e-08
 78.78626   -134.4 1.811e+04 1.178e-08
 78.80662   -134.8 1.831e+04 1.361e-08
 78.82697   -135.0 1.843e+04 1.492e-08
 78.83968   -135.3 1.846e+04 1.526e-08
 78.84986   -134.0 1.735e+04 9.427e-09
 78.86769   -134.2 1.737e+04 9.421e-09
 78.88804   -134.0 1.715e+04 8.716e-09
 78.90520   -133.7 1.655e+04 7.038e-09
 78.91538   -132.7 1.562e+04 4.077e-09
 78.92876   -132.3 1.501e+04 3.237e-09
 78.94911   -131.9 1.426e+04 2.443e-09
 78.96947   -131.3 1.346e+04 1.806e-09
 78.98091   -130.6 1.272e+04 1.357e-09
 78.99108   -130.0 1.219e+04 9.504e-10
 79.01019   -129.0 1.173e+04 7.823e-10
 79.03054   -127.9 1.141e+04 6.721e-10
 79.04643   -126.7 1.122e+04 6.049e-10
 79.05661   -125.8 1.094e+04 4.574e-10
 79.07126   -124.5 1.085e+04 4.291e-10
 79.09161   -123.2 1.080e+04 4.150e-10
 79.11195   -121.9 1.078e+04 4.107e-10
 79.13231   -119.7 1.068e+04 3.335e-10
 79.15268   -118.5 1.079e+04 3.413e-10
 79.17304   -117.5 1.096e+04 3.767e-10
 79.18492   -116.4 1.117e+04 4.417e-10
 79.18936   -115.9 1.107e+04 4.997e-10
 79.19783   -114.9 1.088e+04 3.738e-10
 79.21375   -113.7 1.105e+04 4.334e-10
 79.23411   -112.6 1.126e+04 5.158e-10
 79.25318   -111.5 1.152e+04 6.309e-10
 79.26336   -110.8 1.129e+04 4.828e-10
 79.27482   -109.7 1.150e+04 5.934e-10
 79.29518   -108.5 1.172e+04 7.278e-10
 79.31554   -107.3 1.194e+04 8.804e-10
 79.32888   -106.0 1.214e+04 1.034e-09
 79.33906   -105.3 1.184e+04 8.461e-10
 79.35625   -104.0 1.201e+04 9.775e-10
 79.37661   -102.9 1.210e+04 1.054e-09
 79.39440   -101.8 1.212e+04 1.084e-09
 79.40458   -101.2 1.194e+04 9.808e-10
 79.41732   -100.1 1.194e+04 9.851e-10
 79.43768    -99.0 1.182e+04 9.561e-10
 79.45803    -97.7 1.163e+04 8.845e-10
 79.47011    -96.5 1.145e+04 8.088e-10
 79.48029    -95.9 1.127e+04 7.212e-10
 79.49875    -94.5 1.108e+04 6.371e-10
 79.51910    -93.2 1.094e+04 5.671e-10
 79.53563    -91.8 1.087e+04 5.118e-10
 79.54581    -91.2 1.072e+04 4.121e-10
 79.55982    -90.1 1.070e+04 3.641e-10
 79.58017    -88.9 1.071e+04 3.359e-10
 79.60053    -87.8 1.071e+04 3.271e-10
 79.61133    -86.6 1.074e+04 3.274e-10
 79.62161    -86.8 1.047e+04 2.527e-10
 79.65162    -84.0 1.035e+04 2.169e-10
 79.67719    -81.2 1.029e+04 1.997e-10
 79.69755    -81.2 1.048e+04 2.495e-10
 79.73240    -78.5 1.044e+04 2.359e-10
 79.75275    -77.3 1.018e+04 1.795e-10
 79.77376    -74.5 1.017e+04 1.773e-10
 79.81447    -71.8 1.016e+04 1.785e-10
 79.85518    -69.1 1.018e+04 1.954e-10
 79.88380    -66.4 1.021e+04 2.222e-10
 79.90416    -65.3 1.003e+04 1.864e-10
 79.93661    -62.6 1.007e+04 2.209e-10
 79.97732    -59.8 1.014e+04 2.528e-10
 80.01485    -57.0 1.021e+04 2.741e-10
 80.03521    -55.8 1.008e+04 2.267e-10
 80.05875    -53.0 1.014e+04 2.368e-10
 80.09946    -50.2 1.019e+04 2.431e-10
 80.14018    -47.4 1.027e+04 2.539e-10
 80.16625    -44.6 1.041e+04 2.749e-10
 80.18661    -43.4 1.030e+04 2.136e-10
 80.22160    -40.6 1.047e+04 2.409e-10
 80.26232    -38.0 1.069e+04 2.920e-10
 80.29730    -35.3 1.093e+04 3.803e-10
 80.31766    -34.1 1.089e+04 3.461e-10
 80.34374    -31.2 1.124e+04 4.900e-10
 80.38446    -28.4 1.162e+04 6.896e-10
 80.42517    -25.5 1.206e+04 9.256e-10
 80.44871    -22.6 1.248e+04 1.172e-09
 80.46906    -22.1 1.245e+04 1.107e-09
 80.50660    -19.4 1.281e+04 1.313e-09
 80.54731    -16.9 1.313e+04 1.508e-09
 80.57975    -14.4 1.342e+04 1.759e-09
 80.60011    -13.8 1.303e+04 1.216e-09
 80.62874    -11.3 1.328e+04 1.386e-09
 80.66134     -8.8 1.347e+04 1.628e-09
 80.68169     -9.6 1.307e+04 1.154e-09
 80.71016     -7.0 1.301e+04 1.171e-09
 80.73116     -4.3 1.285e+04 1.044e-09
 80.75151     -4.3 1.195e+04 4.024e-10
 80.79159     -1.5 1.160e+04 3.521e-10
 80.83230      1.0 1.125e+04 3.000e-10
 80.86220      3.4 1.132e+04 2.936e-10
 80.88256      4.1 1.071e+04 2.085e-10
 80.91373      6.8 1.096e+04 2.738e-10
 80.95445      9.4 1.141e+04 3.814e-10
 80.99325     11.9 1.205e+04 5.748e-10
 81.01361     13.0 1.148e+04 4.803e-10
 81.03587     15.7 1.226e+04 7.959e-10
 81.06631     18.3 1.312e+04 1.093e-09
 81.07894     18.7 1.315e+04 1.108e-09
 81.08912     18.5 1.313e+04 1.212e-09
 81.10692     19.7 1.390e+04 1.520e-09
 81.12728     19.8 1.478e+04 1.850e-09
 81.14446     19.8 1.601e+04 2.535e-09
 81.15464     20.4 1.550e+04 3.871e-09
 81.16339     21.4 1.652e+04 4.806e-09
 81.17357     20.3 1.750e+04 6.428e-09
 81.18835     20.7 1.834e+04 8.929e-09
 81.20871     21.2 1.887e+04 1.202e-08
 81.22016     21.8 1.932e+04 1.505e-08
 81.23034     21.3 1.908e+04 9.105e-09
 81.24942     20.9 1.940e+04 1.145e-08
 81.26978     20.6 1.963e+04 1.500e-08
 81.28569     20.6 1.981e+04 1.883e-08
 81.29587     19.8 1.839e+04 1.078e-08
 81.31049     20.6 1.883e+04 1.325e-08
 81.33085     21.6 1.913e+04 1.510e-08
 81.35121     22.5 1.915e+04 1.531e-08
 81.37156     23.1 1.696e+04 6.285e-09
 81.39192     23.8 1.640e+04 4.733e-09
 81.41228     24.4 1.560e+04 3.290e-09
 81.42691     24.7 1.457e+04 2.171e-09
 81.43709     24.7 1.362e+04 1.345e-09
 81.45299     25.3 1.340e+04 1.167e-09
 81.48362     26.6 1.256e+04 8.015e-10
 81.52443     28.7 1.217e+04 5.905e-10
 81.55816     31.1 1.178e+04 4.412e-10
 81.57851     31.3 1.129e+04 3.804e-10
 81.60586     33.2 1.121e+04 3.733e-10
 81.64548     35.3 1.124e+04 4.025e-10
 81.66584     35.2 1.082e+04 2.451e-10
 81.68729     37.4 1.098e+04 2.736e-10
 81.70956     39.7 1.090e+04 3.014e-10
 81.72992     39.7 1.067e+04 2.649e-10
 81.76871     42.0 1.058e+04 2.705e-10
 81.80943     44.3 1.055e+04 2.446e-10
 81.84061     46.3 1.051e+04 2.171e-10
 81.86096     46.3 1.058e+04 2.667e-10
 81.89085     48.4 1.062e+04 2.898e-10
 81.93157     50.7 1.056e+04 2.915e-10
 81.97166     53.0 1.056e+04 3.088e-10
 81.99201     52.8 1.085e+04 4.189e-10
 82.01299     54.9 1.096e+04 4.541e-10
 82.05371     56.5 1.116e+04 5.397e-10
 82.09442     57.2 1.183e+04 7.795e-10
 82.12296     55.9 1.331e+04 1.463e-09
 82.14332     56.9 1.268e+04 1.211e-09
 82.15781     57.0 1.357e+04 1.698e-09
 82.16789     58.0 1.285e+04 1.301e-09
 82.18583     58.3 1.310e+04 1.347e-09
 82.19857     58.8 1.309e+04 1.233e-09
 82.20875     58.5 1.274e+04 9.500e-10
 82.22654     57.8 1.322e+04 9.008e-10
 82.24690     56.6 1.410e+04 8.584e-10
 82.26409     55.2 1.407e+04 1.054e-09
 82.27427     54.3 1.358e+04 1.088e-09
 82.28761     53.8 1.354e+04 1.516e-09
 82.30797     54.0 1.351e+04 1.970e-09
 82.32833     54.4 1.349e+04 2.289e-09
 82.33979     54.8 1.350e+04 2.350e-09
 82.34997     54.5 1.354e+04 2.414e-09
 82.36904     54.4 1.359e+04 2.384e-09
 82.38940     53.8 1.383e+04 2.308e-09
 82.40532     52.7 1.393e+04 2.059e-09
 82.41550     51.8 1.402e+04 2.106e-09
 82.43011     50.2 1.371e+04 1.799e-09
 82.45047     48.6 1.320e+04 1.564e-09
 82.47082     47.2 1.266e+04 1.366e-09
 82.49118     45.0 1.217e+04 1.104e-09
 82.51154     42.7 1.247e+04 1.027e-09
 82.53189     37.8 1.388e+04 1.283e-09
 82.54654     32.8 1.459e+04 2.216e-09
 82.55672     32.7 1.431e+04 1.805e-09
 82.57261     30.1 1.400e+04 3.206e-09
 82.59296     29.7 1.430e+04 4.392e-09
 82.61207     29.4 1.476e+04 4.527e-09
 82.62224     30.1 1.444e+04 4.377e-09
 82.63368     29.2 1.485e+04 3.510e-09
 82.64979     27.1 1.418e+04 2.520e-09
 82.65996     29.7 1.488e+04 2.904e-09
 82.67439     26.8 1.355e+04 1.764e-09
 82.68777     25.0 1.251e+04 1.167e-09
 82.69795     25.7 1.273e+04 1.391e-09
 82.71510     25.3 1.217e+04 1.071e-09
 82.73546     25.5 1.180e+04 7.994e-10
 82.75329     25.9 1.144e+04 5.692e-10
 82.76347     26.6 1.162e+04 7.023e-10
 82.77617     26.8 1.134e+04 4.756e-10
 82.79653     26.8 1.122e+04 3.527e-10
 82.81891     27.0 1.087e+04 2.697e-10
 82.83937     27.9 1.117e+04 3.243e-10
 82.86797     29.2 1.090e+04 2.843e-10
 82.90869     30.8 1.079e+04 2.850e-10
 82.94940     32.6 1.088e+04 3.457e-10
 82.97042     34.8 1.092e+04 4.055e-10
 82.99077     35.4 1.138e+04 5.231e-10
 83.03083     37.6 1.132e+04 5.080e-10
 83.07154     39.5 1.134e+04 4.683e-10
 83.10146     41.8 1.118e+04 4.166e-10
 83.11154     41.8 1.145e+04 4.667e-10
 83.12224     42.0 1.135e+04 4.581e-10
 83.15287     44.9 1.135e+04 3.891e-10
 83.19368     47.2 1.127e+04 2.984e-10
 83.23251     49.1 1.121e+04 2.521e-10
 83.25287     49.4 1.153e+04 3.328e-10
 83.27511     51.6 1.148e+04 3.848e-10
 83.31582     54.2 1.159e+04 4.929e-10
 83.35654     56.7 1.166e+04 5.159e-10
 83.38392     59.4 1.154e+04 4.731e-10
 83.40427     60.0 1.213e+04 7.131e-10
 83.43796     62.6 1.194e+04 5.197e-10
 83.47868     65.0 1.188e+04 3.663e-10
 83.51496     67.2 1.188e+04 2.705e-10
 83.53522     67.4 1.207e+04 3.302e-10
 83.56000     69.4 1.201e+04 3.327e-10
 83.60082     72.1 1.200e+04 3.488e-10
 83.63413     74.9 1.197e+04 3.736e-10
 83.65438     75.4 1.196e+04 4.191e-10
 83.66617     77.1 1.195e+04 4.605e-10
 83.67635     76.9 1.220e+04 6.016e-10
 83.69223     78.2 1.227e+04 6.771e-10
 83.71258     79.7 1.230e+04 7.323e-10
 83.73170     81.2 1.240e+04 7.662e-10
 83.74187     81.2 1.259e+04 1.012e-09
 83.75330     82.8 1.269e+04 1.004e-09
 83.77365     83.9 1.280e+04 9.986e-10
 83.79401     85.3 1.280e+04 9.632e-10
 83.80740     86.5 1.282e+04 9.326e-10
 83.81758     86.4 1.305e+04 1.263e-09
 83.83472     88.1 1.305e+04 1.164e-09
 83.85508     88.8 1.314e+04 1.140e-09
 83.87292     90.4 1.308e+04 1.106e-09
 83.88310     90.1 1.354e+04 1.622e-09
 83.89579     91.4 1.360e+04 1.628e-09
 83.91615     92.8 1.365e+04 1.622e-09
 83.93651     94.0 1.372e+04 1.623e-09
 83.94862     95.2 1.372e+04 1.600e-09
 83.95880     94.9 1.439e+04 2.538e-09
 83.97722     96.1 1.445e+04 2.546e-09
 83.99758     97.2 1.455e+04 2.578e-09
 84.01415     98.2 1.465e+04 2.626e-09
 84.02433     97.8 1.541e+04 4.186e-09
 84.03829     98.9 1.555e+04 4.238e-09
 84.05865     99.8 1.579e+04 4.338e-09
 84.07900    100.6 1.601e+04 4.429e-09
 84.08985    101.6 1.622e+04 4.572e-09
 84.10003    101.1 1.648e+04 5.979e-09
 84.11972    101.8 1.653e+04 6.034e-09
 84.13618    102.6 1.659e+04 6.090e-09
 84.14636    102.8 1.530e+04 3.498e-09
 84.15537    103.8 1.541e+04 3.620e-09
 84.16555    103.4 1.549e+04 4.400e-09
 84.18079    104.3 1.566e+04 4.548e-09
 84.20114    105.3 1.581e+04 4.705e-09
 84.22090    106.4 1.597e+04 4.866e-09
 84.23108    105.9 1.584e+04 4.630e-09
 84.24186    106.8 1.596e+04 4.654e-09
 84.26221    107.8 1.610e+04 4.623e-09
 84.28257    108.9 1.632e+04 4.610e-09
 84.29660    109.6 1.652e+04 4.549e-09
 84.30678    109.1 1.571e+04 3.527e-09
 84.32328    110.0 1.581e+04 3.490e-09
 84.34364    111.0 1.599e+04 3.575e-09
 84.36212    112.0 1.620e+04 3.665e-09
 84.37230    111.7 1.499e+04 2.548e-09
 84.38435    112.8 1.505e+04 2.533e-09
 84.40471    113.7 1.509e+04 2.407e-09
 84.42507    114.3 1.499e+04 2.240e-09
 84.43783    114.7 1.476e+04 2.073e-09
 84.44800    114.6 1.365e+04 1.586e-09
 84.46578    115.2 1.349e+04 1.575e-09
 84.48614    115.6 1.339e+04 1.602e-09
 84.50335    116.2 1.343e+04 1.733e-09
 84.51353    116.2 1.292e+04 1.292e-09
 84.52685    117.0 1.306e+04 1.422e-09
 84.54721    117.7 1.318e+04 1.557e-09
 84.56756    118.3 1.328e+04 1.700e-09
 84.57905    119.0 1.336e+04 1.824e-09
 84.58923    119.5 1.290e+04 1.307e-09
 84.60828    120.0 1.301e+04 1.435e-09
 84.62825    120.7 1.305e+04 1.506e-09
 84.63853    120.9 1.294e+04 1.301e-09
 84.64477    122.4 1.287e+04 1.268e-09
 84.66513    123.0 1.207e+04 7.966e-10
 84.70008    124.4 1.195e+04 7.848e-10
 84.74079    126.1 1.183e+04 6.929e-10
 84.77582    127.9 1.170e+04 5.825e-10
 84.79617    128.4 1.161e+04 5.109e-10
 84.82222    130.3 1.153e+04 4.611e-10
 84.86293    132.3 1.134e+04 3.809e-10
 84.90364    134.5 1.120e+04 3.082e-10
 84.92722    136.8 1.116e+04 2.517e-10
 84.94758    137.5 1.141e+04 3.110e-10
 84.98507    139.9 1.146e+04 2.782e-10
 85.02578    142.7 1.140e+04 2.518e-10
 85.05827    145.5 1.131e+04 2.328e-10
 85.07863    146.3 1.192e+04 3.399e-10
 85.10721    149.2 1.165e+04 2.984e-10
 85.14792    152.0 1.138e+04 2.509e-10
 85.18864    154.9 1.112e+04 2.143e-10
 85.20967    157.9 1.091e+04 1.953e-10
 85.23003    158.3 1.130e+04 2.488e-10
 85.27007    161.3 1.107e+04 2.313e-10
 85.31078    164.3 1.098e+04 2.321e-10
 85.34072    167.5 1.092e+04 2.379e-10
 85.36108    167.6 1.120e+04 2.792e-10
 85.39221    170.7 1.114e+04 2.779e-10
 85.43292    173.8 1.114e+04 2.803e-10
 85.47177    176.8 1.114e+04 2.860e-10
 85.49213    176.6 1.130e+04 3.107e-10
 85.51435    179.5 1.127e+04 3.135e-10
 85.55506    182.2 1.121e+04 3.291e-10
 85.59577    184.7 1.112e+04 3.606e-10
 85.62277    187.1 1.106e+04 4.019e-10
 85.62982    187.0 1.075e+04 3.277e-10
 85.64353    186.8 1.076e+04 3.388e-10
 85.67720    189.2 1.066e+04 3.495e-10
 85.71791    191.3 1.059e+04 3.482e-10
 85.75422    193.5 1.043e+04 3.351e-10
 85.77458    193.7 1.054e+04 3.596e-10
 85.79934    196.2 1.032e+04 3.180e-10
 85.84005    198.7 1.010e+04 2.709e-10
 85.88077    201.2 9.895e+03 2.292e-10
 85.90563    204.0 9.691e+03 1.995e-10
 85.92598    203.9 9.913e+03 2.487e-10
 85.96219    206.7 9.731e+03 2.460e-10
 86.00291    209.4 9.716e+03 2.466e-10
 86.03667    212.3 9.703e+03 2.505e-10
 86.05703    212.2 1.024e+04 3.855e-10
 86.08433    215.0 1.023e+04 4.064e-10
 86.12505    217.4 1.023e+04 4.242e-10
 86.15548    218.4 1.014e+04 4.210e-10
 86.17574    219.6 1.010e+04 4.265e-10
 86.18798    221.8 1.016e+04 4.520e-10
 86.19816    221.3 1.024e+04 5.231e-10
 86.21646    222.1 1.021e+04 5.046e-10
 86.24709    223.8 1.023e+04 5.079e-10
 86.28790    225.8 9.971e+03 4.282e-10
 86.31913    228.0 9.706e+03 3.640e-10
 86.33948    228.2 9.667e+03 3.588e-10
 86.36933    230.6 9.429e+03 3.204e-10
 86.41004    232.9 9.373e+03 3.164e-10
 86.45017    235.3 9.379e+03 3.178e-10
 86.47053    236.1 9.269e+03 3.007e-10
 86.49147    238.6 9.303e+03 3.093e-10
 86.53218    240.9 9.367e+03 3.247e-10
 86.57289    243.1 9.469e+03 3.428e-10
 86.60158    245.3 9.569e+03 3.573e-10
 86.61524    246.1 9.645e+03 3.735e-10
 86.62727    246.1 9.742e+03 4.026e-10
 86.65432    247.8 9.818e+03 4.155e-10
 86.67718    248.8 9.794e+03 4.077e-10
 86.68726    249.3 9.824e+03 4.190e-10
 86.70502    250.4 9.881e+03 4.272e-10
 86.72537    251.8 9.941e+03 4.420e-10
 86.74261    253.0 1.001e+04 4.568e-10
 86.75279    254.2 1.025e+04 5.277e-10
 86.76609    254.9 1.032e+04 5.360e-10
 86.78644    255.4 1.040e+04 5.474e-10
 86.80680    255.7 1.050e+04 5.692e-10
 86.81831    255.8 1.063e+04 6.083e-10
 86.82849    256.6 1.091e+04 6.968e-10
 86.84751    256.7 1.108e+04 7.637e-10
 86.86787    256.6 1.130e+04 8.637e-10
 86.88383    256.6 1.154e+04 9.941e-10
 86.89401    257.4 1.186e+04 1.134e-09
 86.90858    257.3 1.209e+04 1.275e-09
 86.92894    257.1 1.224e+04 1.343e-09
 86.94930    256.6 1.225e+04 1.340e-09
 86.96965    256.7 1.241e+04 1.405e-09
 86.99001    256.1 1.223e+04 1.269e-09
 87.01037    254.8 1.238e+04 1.244e-09
 87.02506    250.2 1.388e+04 1.295e-09
 87.03524    250.1 1.422e+04 1.422e-09
 87.04594    246.1 1.548e+04 1.609e-09
 87.05607    239.9 1.870e+04 2.410e-09
 87.06281    225.9 2.529e+04 7.769e-09
 87.06790    222.1 2.699e+04 1.197e-08
 87.07643    206.9 3.000e+04 3.549e-08
 87.08661    195.4 3.067e+04 4.612e-08
 87.09557    186.0 3.094e+04 4.063e-08
 87.10066    183.2 3.126e+04 3.875e-08
 87.10696    175.1 3.201e+04 1.750e-08
 87.11396    166.2 3.187e+04 6.668e-09
 87.11910    162.2 3.005e+04 7.343e-09
 87.13251    140.4 1.655e+04 1.317e-09
 87.15286    131.3 1.198e+04 9.580e-10
 87.16629    129.4 1.175e+04 8.360e-10
 87.17646    128.2 1.170e+04 7.851e-10
 87.19358    126.7 1.148e+04 6.802e-10
 87.21393    125.0 1.110e+04 5.796e-10
 87.23181    123.8 1.068e+04 5.074e-10
 87.24199    122.8 1.055e+04 4.947e-10
 87.25465    122.5 1.035e+04 4.743e-10
 87.27500    122.6 1.025e+04 4.713e-10
 87.29536    123.0 1.023e+04 4.713e-10
 87.30751    123.5 1.023e+04 4.759e-10
 87.31769    123.0 1.024e+04 4.854e-10
 87.33607    123.6 1.026e+04 4.997e-10
 87.35643    124.4 1.030e+04 5.203e-10
 87.37304    125.2 1.050e+04 5.481e-10
 87.38321    124.5 1.083e+04 5.944e-10
 87.39714    125.2 1.107e+04 6.251e-10
 87.41750    126.0 1.134e+04 6.391e-10
 87.43786    126.9 1.166e+04 6.641e-10
 87.44874    127.8 1.182e+04 6.743e-10
 87.45892    127.3 1.406e+04 8.137e-10
 87.47857    128.0 1.401e+04 8.315e-10
 87.49893    128.4 1.421e+04 8.832e-10
 87.51426    128.8 1.502e+04 1.000e-09
 87.52444    127.7 1.875e+04 1.836e-09
 87.53964    128.0 1.903e+04 2.302e-09
 87.56000    128.6 1.843e+04 2.931e-09
 87.57978    129.5 1.757e+04 3.460e-09
 87.58996    128.0 2.004e+04 7.269e-09
 87.60071    128.9 1.932e+04 7.263e-09
 87.61122    130.0 1.860e+04 6.953e-09
 87.62140    130.6 1.566e+04 2.752e-09
 87.64143    132.0 1.524e+04 2.997e-09
 87.65549    133.5 1.501e+04 3.163e-09
 87.66567    131.9 1.640e+04 3.328e-09
 87.68214    133.5 1.609e+04 3.343e-09
 87.70250    134.9 1.568e+04 3.338e-09
 87.72101    136.1 1.552e+04 3.291e-09
 87.73119    134.4 1.661e+04 3.034e-09
 87.74321    135.6 1.619e+04 2.902e-09
 87.76357    136.5 1.559e+04 2.760e-09
 87.78392    137.4 1.522e+04 2.679e-09
 87.79671    138.4 1.522e+04 2.624e-09
 87.80689    136.2 1.576e+04 2.767e-09
 87.82464    137.2 1.552e+04 2.827e-09
 87.84499    138.1 1.525e+04 2.968e-09
 87.86224    139.2 1.508e+04 3.173e-09
 87.87242    138.0 1.482e+04 2.985e-09
 87.88571    139.3 1.480e+04 3.208e-09
 87.90606    140.6 1.497e+04 3.546e-09
 87.92642    141.8 1.524e+04 4.025e-09
 87.93794    143.1 1.560e+04 4.676e-09
 87.94812    142.6 1.514e+04 2.873e-09
 87.96713    143.9 1.557e+04 3.147e-09
 87.98749    145.0 1.598e+04 3.423e-09
 88.00346    145.9 1.615e+04 3.559e-09
 88.01364    144.7 1.473e+04 1.642e-09
 88.02820    145.6 1.464e+04 1.659e-09
 88.04856    146.4 1.449e+04 1.664e-09
 88.06892    147.4 1.423e+04 1.623e-09
 88.08927    147.5 1.292e+04 1.028e-09
 88.10329    148.7 1.305e+04 1.045e-09
 88.11347    148.9 1.318e+04 1.154e-09
 88.12999    150.0 1.303e+04 1.101e-09
 88.14479    151.6 1.316e+04 1.203e-09
 88.16524    150.5 1.179e+04 6.366e-10
 88.20143    153.1 1.165e+04 5.975e-10
 88.24214    155.8 1.151e+04 5.529e-10
 88.27593    158.5 1.144e+04 5.143e-10
 88.29629    158.4 1.087e+04 3.304e-10
 88.32357    161.2 1.090e+04 3.105e-10
 88.36428    164.1 1.089e+04 2.876e-10
 88.40500    166.9 1.085e+04 2.723e-10
 88.42734    170.0 1.083e+04 2.699e-10
 88.44769    169.5 1.021e+04 1.970e-10
 88.48642    172.4 1.024e+04 1.994e-10
 88.52714    175.2 1.033e+04 2.097e-10
 88.55838    177.8 1.050e+04 2.286e-10
 88.57874    177.4 9.999e+03 2.059e-10
 88.59556    179.8 1.019e+04 2.283e-10
 88.61592    180.5 1.035e+04 2.435e-10
 88.64928    182.7 1.059e+04 2.731e-10
 88.68943    184.5 1.088e+04 3.097e-10
 88.70979    183.9 1.054e+04 3.096e-10
 88.73070    185.4 1.069e+04 3.389e-10
 88.77142    186.6 1.072e+04 3.699e-10
 88.80185    187.0 1.063e+04 3.981e-10
 88.82211    187.6 1.058e+04 4.168e-10
 88.84064    188.5 1.055e+04 4.374e-10
 88.86109    189.2 1.054e+04 4.216e-10
 88.89356    190.3 1.057e+04 4.442e-10
 88.91644    191.1 1.057e+04 4.637e-10
 88.92652    190.8 1.051e+04 4.408e-10
 88.94425    191.3 1.052e+04 4.492e-10
 88.96461    192.0 1.053e+04 4.627e-10
 88.98187    192.7 1.055e+04 4.816e-10
 88.99214    192.5 1.044e+04 4.180e-10
 89.00542    193.2 1.042e+04 4.269e-10
 89.02568    193.7 1.046e+04 4.430e-10
 89.04604    194.3 1.049e+04 4.688e-10
 89.05757    194.9 1.054e+04 4.959e-10
 89.06775    194.7 1.046e+04 4.615e-10
 89.08675    195.5 1.053e+04 4.941e-10
 89.09762    196.0 1.063e+04 5.260e-10
 89.10780    196.4 1.092e+04 6.484e-10
 89.12309    196.7 1.105e+04 6.887e-10
 89.13327    196.7 1.104e+04 6.906e-10
 89.14782    197.0 1.120e+04 7.475e-10
 89.16818    197.2 1.134e+04 7.892e-10
 89.18853    197.2 1.142e+04 8.055e-10
 89.20889    197.4 1.143e+04 8.068e-10
 89.22925    197.5 1.142e+04 8.030e-10
 89.24960    197.6 1.141e+04 8.034e-10
 89.26432    197.7 1.143e+04 8.106e-10
 89.27450    198.0 1.143e+04 8.058e-10
 89.29032    198.1 1.152e+04 8.388e-10
 89.31067    198.1 1.163e+04 8.892e-10
 89.32984    198.1 1.174e+04 9.477e-10
 89.34002    198.4 1.179e+04 9.558e-10
 89.35139    198.4 1.190e+04 1.020e-09
 89.37174    198.4 1.202e+04 1.084e-09
 89.39210    198.4 1.218e+04 1.162e-09
 89.40554    198.3 1.240e+04 1.263e-09
 89.41572    198.7 1.235e+04 1.200e-09
 89.43281    198.7 1.263e+04 1.324e-09
 89.46345    199.7 1.269e+04 1.324e-09
 89.49398    199.6 1.298e+04 1.523e-09
 89.51424    199.8 1.305e+04 1.579e-09
 89.53460    200.0 1.304e+04 1.559e-09
 89.54677    200.2 1.291e+04 1.450e-09
 89.55705    201.7 1.261e+04 1.278e-09
 89.57541    201.3 1.252e+04 1.207e-09
 89.58969    201.3 1.234e+04 1.111e-09
 89.59987    200.6 1.228e+04 9.992e-10
 89.61229    200.7 1.203e+04 8.871e-10
 89.62247    201.1 1.203e+04 8.525e-10
 89.63638    201.4 1.172e+04 7.285e-10
 89.65674    201.5 1.139e+04 6.324e-10
 89.67710    201.6 1.120e+04 5.972e-10
 89.68800    201.9 1.120e+04 5.949e-10
 89.69817    202.4 1.095e+04 5.108e-10
 89.71781    202.6 1.095e+04 5.108e-10
 89.73817    202.6 1.096e+04 5.162e-10
 89.75352    202.6 1.097e+04 5.358e-10
 89.76370    203.2 1.085e+04 4.908e-10
 89.77888    203.2 1.086e+04 5.173e-10
 89.79924    203.0 1.089e+04 5.589e-10
 89.81904    202.8 1.095e+04 6.265e-10
 89.82922    203.4 1.093e+04 5.789e-10
 89.83995    203.0 1.103e+04 6.511e-10
 89.86031    202.6 1.115e+04 7.464e-10
 89.88066    202.1 1.133e+04 8.475e-10
 89.89475    201.5 1.154e+04 9.608e-10
 89.90492    201.9 1.184e+04 1.020e-09
 89.92138    201.4 1.216e+04 1.229e-09
 89.94173    200.8 1.238e+04 1.360e-09
 89.96027    200.1 1.240e+04 1.362e-09
 89.97045    200.7 1.299e+04 1.762e-09
 89.98245    199.9 1.296e+04 1.729e-09
 90.00280    199.1 1.274e+04 1.553e-09
 90.02316    198.1 1.224e+04 1.152e-09
 90.03597    197.4 1.162e+04 8.280e-10
 90.04615    198.2 1.217e+04 1.084e-09
 90.07415    197.2 1.094e+04 5.609e-10
 90.10169    196.7 9.831e+03 3.237e-10
 90.11177    196.3 1.001e+04 3.893e-10
 90.12494    196.1 9.823e+03 3.189e-10
 90.15558    195.9 9.931e+03 3.300e-10
 90.19639    196.8 9.804e+03 3.019e-10
 90.23274    198.4 9.598e+03 2.651e-10
 90.25309    197.8 9.828e+03 2.974e-10
 90.27781    199.3 9.582e+03 2.454e-10
 90.31853    201.2 9.572e+03 2.320e-10
 90.35924    203.4 9.656e+03 2.363e-10
 90.38414    205.7 9.856e+03 2.513e-10
 90.39422    204.2 9.808e+03 2.599e-10
 90.40994    205.1 9.904e+03 2.709e-10
 90.43029    206.3 1.004e+04 2.903e-10
 90.44947    207.4 1.026e+04 3.266e-10
 90.45965    205.4 1.116e+04 5.142e-10
 90.47101    206.2 1.173e+04 6.796e-10
 90.49136    207.1 1.233e+04 9.107e-10
 90.51172    208.0 1.292e+04 1.224e-09
 90.52517    209.1 1.348e+04 1.628e-09
 90.53535    207.4 1.447e+04 2.787e-09
 90.55243    208.7 1.486e+04 3.270e-09
 90.57279    210.0 1.526e+04 3.666e-09
 90.58401    211.2 1.569e+04 3.905e-09
 90.59174    212.1 1.538e+04 3.641e-09
 90.60088    209.5 1.599e+04 3.608e-09
 90.61350    210.2 1.621e+04 3.529e-09
 90.63386    210.5 1.651e+04 3.388e-09
 90.65422    210.5 1.673e+04 3.241e-09
 90.66640    210.2 1.671e+04 3.135e-09
 90.67658    205.2 1.572e+04 2.813e-09
 90.69493    205.2 1.535e+04 2.755e-09
 90.71529    205.5 1.513e+04 2.729e-09
 90.73192    205.9 1.509e+04 2.711e-09
 90.74210    202.9 1.469e+04 2.289e-09
 90.75600    203.0 1.476e+04 2.161e-09
 90.77636    202.4 1.483e+04 2.023e-09
 90.79671    201.3 1.488e+04 1.940e-09
 90.80762    199.7 1.492e+04 1.945e-09
 90.81780    195.6 1.433e+04 1.659e-09
 90.83743    193.6 1.452e+04 1.821e-09
 90.85778    191.6 1.479e+04 2.156e-09
 90.87315    189.6 1.509e+04 2.542e-09
 90.88333    187.8 1.481e+04 2.133e-09
 90.89850    185.8 1.491e+04 2.117e-09
 90.91885    182.9 1.506e+04 2.022e-09
 90.93867    179.3 1.514e+04 1.812e-09
 90.94885    178.6 1.453e+04 1.370e-09
 90.95957    174.9 1.439e+04 1.275e-09
 90.97992    169.3 1.478e+04 1.341e-09
 90.99514    165.4 1.558e+04 1.585e-09
 91.00527    162.6 1.585e+04 1.736e-09
 91.01428    160.3 1.593e+04 1.842e-09
 91.01937    161.6 1.576e+04 1.509e-09
 91.02563    159.2 1.598e+04 1.778e-09
 91.03581    149.9 3.022e+04 1.824e-09
 91.04342    119.0 6.531e+04 5.129e-09
 91.04848     89.1 3.822e+04 2.270e-07
 91.05208     60.3 1.918e+04 1.140e-05
 91.05462     68.9 2.128e+04 5.485e-06
 91.05866     48.2 1.819e+04 1.516e-05
 91.06375     43.6 1.949e+04 5.192e-06
 91.06846     38.6 3.324e+04 3.835e-07
 91.07100     46.0 2.289e+04 1.687e-06
 91.07596     29.0 7.716e+04 1.216e-08
 91.08108     19.6 1.086e+05 3.283e-09
 91.08489    -47.9 1.453e+05 4.051e-10
 91.08998    -19.9 1.741e+05 4.536e-10
 91.10202    -83.5 6.063e+04 4.078e-10
 91.12242    -97.1 1.317e+04 7.964e-10
 91.14278    -98.0 1.280e+04 6.499e-10
 91.15560    -98.4 1.216e+04 5.281e-10
 91.16578    -99.6 1.136e+04 4.195e-10
 91.18349    -99.2 1.097e+04 3.863e-10
 91.20385    -98.7 1.086e+04 3.761e-10
 91.22112    -97.8 1.082e+04 3.727e-10
 91.23130    -98.3 1.092e+04 3.936e-10
 91.24456    -97.1 1.092e+04 4.067e-10
 91.26492    -95.7 1.097e+04 4.256e-10
 91.28527    -94.3 1.100e+04 4.467e-10
 91.29683    -92.8 1.098e+04 4.635e-10
 91.30700    -93.1 1.105e+04 4.766e-10
 91.32599    -90.9 1.095e+04 4.801e-10
 91.34634    -88.8 1.088e+04 4.606e-10
 91.36245    -86.5 1.086e+04 4.463e-10
 91.38290    -87.9 1.087e+04 4.290e-10
 91.41779    -84.1 1.083e+04 4.239e-10
 91.45850    -80.9 1.097e+04 4.545e-10
 91.49359    -77.9 1.125e+04 5.256e-10
 91.51395    -80.6 1.110e+04 4.824e-10
 91.53993    -77.7 1.136e+04 5.795e-10
 91.56835    -74.9 1.160e+04 6.704e-10
 91.58871    -73.7 1.140e+04 5.858e-10
 91.62136    -71.2 1.170e+04 6.895e-10
 91.64500    -69.0 1.192e+04 7.720e-10
 91.65508    -72.1 1.155e+04 6.858e-10
 91.67205    -71.2 1.154e+04 6.936e-10
 91.69241    -70.4 1.139e+04 6.902e-10
 91.71033    -69.7 1.136e+04 6.905e-10
 91.72050    -70.7 1.109e+04 6.142e-10
 91.73312    -70.2 1.110e+04 6.175e-10
 91.75348    -69.8 1.122e+04 6.485e-10
 91.77384    -69.7 1.138e+04 6.925e-10
 91.78603    -69.8 1.150e+04 7.291e-10
 91.79621    -70.6 1.110e+04 6.105e-10
 91.81455    -70.7 1.108e+04 6.151e-10
 91.83491    -70.9 1.103e+04 6.189e-10
 91.85155    -71.1 1.095e+04 6.304e-10
 91.86173    -71.4 1.056e+04 5.153e-10
 91.87562    -71.4 1.068e+04 5.415e-10
 91.89598    -71.5 1.092e+04 5.885e-10
 91.91633    -72.1 1.128e+04 6.798e-10
 91.92725    -73.3 1.171e+04 8.375e-10
 91.93743    -73.7 1.142e+04 6.688e-10
 91.95705    -75.1 1.194e+04 9.372e-10
 91.97740    -76.0 1.254e+04 1.360e-09
 91.99278    -76.6 1.314e+04 1.906e-09
 92.00296    -76.9 1.322e+04 1.992e-09
 92.01812    -77.2 1.398e+04 2.784e-09
 92.03847    -77.7 1.454e+04 3.410e-09
 92.05830    -78.4 1.472e+04 3.604e-09
 92.06848    -79.2 1.577e+04 4.985e-09
 92.07041    -79.9 1.578e+04 5.049e-09
 92.08059    -79.4 1.583e+04 5.040e-09
 92.09954    -79.9 1.532e+04 4.379e-09
 92.11990    -80.3 1.444e+04 3.028e-09
 92.13400    -80.8 1.328e+04 1.895e-09
 92.14418    -80.7 1.403e+04 2.742e-09
 92.16061    -81.2 1.263e+04 1.584e-09
 92.18097    -81.7 1.129e+04 9.295e-10
 92.19953    -81.8 1.020e+04 5.846e-10
 92.20971    -81.6 1.051e+04 7.190e-10
 92.22168    -81.5 9.648e+03 4.773e-10
 92.24204    -80.7 9.233e+03 3.729e-10
 92.27267    -80.1 9.073e+03 3.202e-10
 92.31348    -79.0 8.809e+03 2.671e-10
 92.34095    -77.3 8.612e+03 2.377e-10
 92.36131    -76.9 8.366e+03 1.960e-10
 92.39491    -75.4 8.303e+03 1.896e-10
 92.43562    -74.1 8.444e+03 2.096e-10
 92.47200    -72.8 8.760e+03 2.658e-10
 92.49235    -72.5 8.439e+03 2.059e-10
 92.51705    -71.0 8.655e+03 2.450e-10
 92.55250    -69.6 8.748e+03 2.604e-10
 92.57285    -69.9 9.016e+03 3.125e-10
 92.59848    -68.5 8.932e+03 2.659e-10
 92.62340    -67.4 8.758e+03 2.039e-10
 92.64376    -67.8 8.561e+03 1.937e-10
 92.67990    -66.7 8.467e+03 1.637e-10
 92.72062    -65.4 8.378e+03 1.487e-10
 92.75445    -63.7 8.342e+03 1.452e-10
 92.77481    -64.2 8.478e+03 1.760e-10
 92.80204    -62.2 8.474e+03 1.710e-10
 92.84276    -60.4 8.523e+03 1.729e-10
 92.88347    -60.3 9.700e+03 2.448e-10
 92.90576    -61.1 1.167e+04 4.869e-10
 92.91584    -66.6 1.219e+04 8.405e-10
 92.93417    -67.8 1.303e+04 1.733e-09
 92.95452    -68.0 1.396e+04 3.087e-09
 92.97118    -67.7 1.490e+04 4.642e-09
 92.98136    -68.6 1.544e+04 5.331e-09
 92.99524    -68.8 1.567e+04 5.609e-09
 93.01559    -69.1 1.568e+04 5.051e-09
 93.03595    -69.6 1.501e+04 3.315e-09
 93.04688    -71.3 1.370e+04 1.880e-09
 93.05531    -74.0 1.230e+04 1.156e-09
 93.06473    -74.3 1.171e+04 9.096e-10
 93.07666    -75.0 1.088e+04 6.090e-10
 93.09702    -75.2 1.047e+04 4.535e-10
 93.11241    -75.0 1.024e+04 3.626e-10
 93.12259    -75.5 1.006e+04 3.133e-10
 93.13773    -75.1 1.002e+04 2.929e-10
 93.16785    -74.4 1.006e+04 2.883e-10
 93.18830    -74.6 9.690e+03 2.108e-10
 93.20918    -73.1 9.497e+03 1.630e-10
 93.24989    -71.8 9.459e+03 1.438e-10
 93.29060    -70.4 9.448e+03 1.404e-10
 93.31935    -69.2 9.554e+03 1.480e-10
 93.33971    -69.5 9.398e+03 1.167e-10
 93.37203    -68.0 9.527e+03 1.384e-10
 93.41274    -66.3 9.645e+03 1.617e-10
 93.45040    -64.4 9.747e+03 1.752e-10
 93.47076    -64.4 9.667e+03 1.440e-10
 93.49417    -62.4 9.688e+03 1.435e-10
 93.53488    -60.2 9.715e+03 1.220e-10
 93.55700    -58.2 9.734e+03 9.924e-11
 93.57735    -58.3 9.786e+03 1.011e-10
 93.60180    -56.5 9.792e+03 8.539e-11
 93.62216    -56.5 9.750e+03 8.986e-11
 93.65702    -54.6 9.775e+03 8.396e-11
 93.69774    -52.7 9.843e+03 8.337e-11
 93.73285    -50.9 1.004e+04 9.406e-11
 93.75321    -50.8 1.001e+04 9.314e-11
 93.77917    -49.0 1.022e+04 1.076e-10
 93.81988    -47.3 1.044e+04 1.246e-10
 93.86059    -45.7 1.066e+04 1.408e-10
 93.88426    -44.2 1.075e+04 1.652e-10
 93.90461    -44.9 1.078e+04 1.684e-10
 93.94202    -43.0 1.107e+04 2.273e-10
 93.98273    -41.1 1.163e+04 3.147e-10
 94.01530    -39.2 1.272e+04 5.172e-10
 94.03556    -38.0 1.339e+04 4.535e-10
 94.04887    -35.1 1.348e+04 5.850e-10
 94.05905    -34.5 1.340e+04 5.715e-10
 94.07414    -39.7 2.233e+04 7.781e-10
 94.08936    -56.2 4.311e+04 1.997e-09
 94.09580    -60.6 3.415e+04 2.577e-08
 94.10089    -58.8 3.677e+04 2.735e-08
 94.10967    -58.8 2.570e+04 8.271e-07
 94.11728    -53.7 1.625e+04 5.354e-05
 94.12106    -52.2 1.093e+04 8.495e-03
 94.12284    -53.6 9.732e+03 3.737e-02
 94.12412    -53.4 9.370e+03 7.324e-02
 94.12549    -57.7 9.080e+03 1.926e-01
 94.12676    -60.1 9.067e+03 2.029e-01
 94.12867    -72.7 9.156e+03 1.154e-01
 94.13104    -80.8 9.467e+03 4.480e-02
 94.13231    -79.8 9.345e+03 4.046e-02
 94.13377    -81.7 1.133e+04 6.264e-03
 94.13760    -81.6 1.596e+04 6.046e-05
 94.14270    -84.7 2.273e+04 2.147e-06
 94.14744    -89.0 2.931e+04 1.529e-07
 94.14999    -86.5 3.420e+04 8.596e-08
 94.15288    -91.3 3.401e+04 2.976e-08
 94.16054    -94.2 2.919e+04 1.920e-08
 94.16641    -98.4 2.067e+04 6.121e-09
 94.17150   -100.6 1.728e+04 4.066e-09
 94.18092   -100.8 1.533e+04 3.193e-09
 94.19110    -99.5 1.494e+04 2.853e-09
 94.19918    -99.0 1.478e+04 2.665e-09
 94.20427    -98.6 1.496e+04 2.694e-09
 94.21659    -98.1 1.415e+04 2.101e-09
 94.23204    -96.5 1.277e+04 1.344e-09
 94.24221    -95.6 1.266e+04 1.078e-09
 94.25735    -94.9 1.207e+04 8.298e-10
 94.27771    -93.9 1.163e+04 6.679e-10
 94.29756    -92.8 1.135e+04 5.500e-10
 94.30774    -92.7 1.131e+04 5.420e-10
 94.31842    -91.8 1.113e+04 4.791e-10
 94.33878    -91.0 1.105e+04 4.320e-10
 94.35914    -90.4 1.103e+04 4.000e-10
 94.37326    -90.0 1.105e+04 3.875e-10
 94.38344    -90.1 1.123e+04 5.068e-10
 94.39985    -89.9 1.132e+04 5.338e-10
 94.42021    -89.8 1.142e+04 5.967e-10
 94.43879    -89.5 1.155e+04 6.928e-10
 94.44896    -89.4 1.181e+04 9.231e-10
 94.46092    -88.9 1.195e+04 1.024e-09
 94.48128    -88.2 1.209e+04 1.100e-09
 94.50163    -87.5 1.217e+04 1.126e-09
 94.51449    -86.9 1.219e+04 1.121e-09
 94.52467    -86.8 1.215e+04 1.081e-09
 94.54095    -86.3 1.201e+04 9.569e-10
 94.55113    -86.0 1.222e+04 1.053e-09
 94.56270    -85.7 1.203e+04 9.464e-10
 94.58001    -85.2 1.181e+04 8.470e-10
 94.60047    -84.9 1.157e+04 7.203e-10
 94.63415    -83.4 1.126e+04 6.016e-10
 94.67486    -81.8 1.122e+04 5.708e-10
 94.70530    -81.0 1.100e+04 4.973e-10
 94.72124    -80.5 1.108e+04 5.335e-10
 94.73142    -81.0 1.094e+04 5.106e-10
 94.75619    -80.8 1.125e+04 6.459e-10
 94.79700    -80.3 1.190e+04 1.007e-09
 94.82744    -79.7 1.231e+04 1.303e-09
 94.84770    -79.9 1.243e+04 1.399e-09
 94.86246    -80.1 1.269e+04 1.713e-09
 94.87264    -80.2 1.237e+04 1.451e-09
 94.88841    -80.1 1.241e+04 1.481e-09
 94.90877    -80.3 1.246e+04 1.494e-09
 94.92799    -80.6 1.250e+04 1.492e-09
 94.93817    -81.6 1.219e+04 1.215e-09
 94.94948    -82.2 1.225e+04 1.195e-09
 94.96984    -82.7 1.221e+04 1.185e-09
 94.99361    -83.3 1.211e+04 1.098e-09
 95.01406    -83.8 1.205e+04 1.087e-09
 95.04128    -84.2 1.181e+04 8.792e-10
 95.08199    -84.7 1.135e+04 5.853e-10
 95.12271    -85.5 1.080e+04 3.951e-10
 95.14511    -85.7 1.027e+04 2.825e-10
 95.16547    -85.6 1.041e+04 3.067e-10
 95.20413    -85.5 1.008e+04 2.534e-10
 95.24485    -84.9 9.957e+03 2.360e-10
 95.27616    -84.2 9.914e+03 2.357e-10
 95.29652    -84.4 1.060e+04 3.373e-10
 95.32627    -84.0 1.078e+04 4.050e-10
 95.36699    -83.6 1.092e+04 4.674e-10
 95.40721    -83.2 1.099e+04 5.081e-10
 95.42756    -83.5 1.213e+04 1.147e-09
 95.44841    -82.9 1.216e+04 1.199e-09
 95.48913    -82.4 1.211e+04 1.191e-09
 95.52529    -82.1 1.190e+04 1.077e-09
 95.54564    -81.6 1.184e+04 1.048e-09
 95.55861    -81.4 1.176e+04 9.612e-10
 95.57897    -82.1 1.222e+04 1.190e-09
 95.60099    -82.5 1.207e+04 1.070e-09
 95.62125    -84.4 1.252e+04 1.080e-09
 95.63412    -88.9 1.402e+04 1.503e-09
 95.64430    -88.7 1.392e+04 1.529e-09
 95.66196    -92.0 1.461e+04 2.578e-09
 95.68232    -94.0 1.502e+04 3.781e-09
 95.69964    -95.7 1.516e+04 4.273e-09
 95.70982    -95.4 1.460e+04 3.358e-09
 95.72303    -97.0 1.442e+04 3.257e-09
 95.74339    -98.5 1.386e+04 2.314e-09
 95.76375   -100.5 1.313e+04 1.369e-09
 95.77534   -102.6 1.240e+04 8.581e-10
 95.78552   -101.3 1.208e+04 7.614e-10
 95.80446   -102.5 1.163e+04 5.674e-10
 95.82482   -103.1 1.143e+04 4.932e-10
 95.84087   -103.3 1.139e+04 4.764e-10
 95.85105   -101.8 1.116e+04 3.754e-10
 95.86553   -101.7 1.116e+04 3.726e-10
 95.88589   -101.5 1.124e+04 3.794e-10
 95.90624   -101.3 1.134e+04 4.063e-10
 95.91657   -101.2 1.147e+04 4.446e-10
 95.92675    -99.7 1.123e+04 3.379e-10
 95.94696    -99.5 1.137e+04 3.615e-10
 95.96731    -99.4 1.155e+04 3.997e-10
 95.98209    -99.7 1.178e+04 4.630e-10
 95.99237    -97.7 1.131e+04 3.048e-10
 96.00813    -98.5 1.168e+04 3.813e-10
 96.02734    -99.1 1.191e+04 5.008e-10
 96.03752    -99.0 1.208e+04 6.157e-10
 96.04762    -99.3 1.214e+04 8.511e-10
 96.05780    -98.2 1.212e+04 5.968e-10
 96.06910    -98.4 1.223e+04 9.141e-10
 96.08946    -98.2 1.238e+04 1.294e-09
 96.10981    -97.8 1.258e+04 1.576e-09
 96.12332    -97.5 1.267e+04 1.662e-09
 96.13350    -96.8 1.277e+04 1.846e-09
 96.15053    -96.5 1.281e+04 1.911e-09
 96.17088    -96.1 1.274e+04 1.786e-09
 96.18884    -95.8 1.253e+04 1.289e-09
 96.19902    -95.1 1.264e+04 1.821e-09
 96.21160    -94.8 1.237e+04 1.282e-09
 96.23195    -94.6 1.214e+04 8.457e-10
 96.25231    -94.8 1.186e+04 5.781e-10
 96.26455    -94.8 1.140e+04 4.405e-10
 96.27472    -93.7 1.169e+04 5.777e-10
 96.29302    -93.6 1.131e+04 4.446e-10
 96.31338    -93.3 1.094e+04 3.793e-10
 96.33007    -92.6 1.074e+04 3.565e-10
 96.34025    -92.1 1.092e+04 3.743e-10
 96.35409    -91.7 1.077e+04 3.581e-10
 96.38472    -91.4 1.071e+04 3.457e-10
 96.40597    -90.5 1.054e+04 3.296e-10
 96.42632    -89.3 1.053e+04 3.078e-10
 96.46625    -88.4 1.028e+04 2.722e-10
 96.50696    -87.5 1.021e+04 2.589e-10
 96.52979    -86.8 1.022e+04 2.564e-10
 96.53948    -86.5 1.011e+04 2.539e-10
 96.55737    -85.8 1.038e+04 3.142e-10
 96.58839    -85.1 1.043e+04 3.658e-10
 96.62910    -84.4 1.054e+04 4.287e-10
 96.66806    -83.5 1.059e+04 4.635e-10
 96.68842    -83.1 1.087e+04 6.057e-10
 96.71053    -82.2 1.072e+04 5.640e-10
 96.75124    -81.1 1.045e+04 4.350e-10
 96.79196    -80.0 1.019e+04 3.207e-10
 96.81947    -79.0 9.985e+03 2.464e-10
 96.83982    -78.6 9.827e+03 2.341e-10
 96.87338    -77.5 9.700e+03 2.034e-10
 96.91410    -76.3 9.608e+03 1.891e-10
 96.95051    -75.0 9.545e+03 1.804e-10
 96.97087    -74.1 9.440e+03 1.654e-10
 96.99552    -72.9 9.417e+03 1.558e-10
 97.03624    -71.6 9.401e+03 1.458e-10
 97.07695    -70.4 9.381e+03 1.343e-10
 97.10192    -69.3 9.349e+03 1.211e-10
 97.12227    -68.5 9.337e+03 1.114e-10
 97.15838    -67.4 9.294e+03 1.022e-10
 97.19909    -66.3 9.258e+03 9.524e-11
 97.23297    -65.3 9.253e+03 9.290e-11
 97.25332    -64.6 9.305e+03 1.038e-10
 97.28052    -63.7 9.339e+03 1.068e-10
 97.32123    -62.9 9.416e+03 1.194e-10
 97.36194    -62.1 9.535e+03 1.401e-10
 97.38437    -61.2 9.605e+03 1.599e-10
 97.40473    -60.7 9.703e+03 1.679e-10
 97.44337    -59.6 9.686e+03 1.590e-10
 97.48408    -58.4 9.557e+03 1.351e-10
 97.51393    -57.2 9.384e+03 1.178e-10
 97.52491    -57.5 9.366e+03 1.181e-10
 97.53577    -56.8 9.273e+03 1.087e-10
 97.56551    -55.6 9.151e+03 1.003e-10
 97.60622    -54.2 9.105e+03 9.852e-11
 97.64646    -52.7 9.062e+03 1.005e-10
 97.66682    -51.7 8.985e+03 9.311e-11
 97.68765    -50.3 9.045e+03 1.056e-10
 97.72836    -48.9 9.175e+03 1.260e-10
 97.76908    -47.5 9.342e+03 1.545e-10
 97.79787    -46.3 9.522e+03 1.876e-10
 97.81823    -45.1 9.417e+03 1.653e-10
 97.85050    -43.7 9.575e+03 1.867e-10
 97.89122    -42.4 9.673e+03 1.940e-10
 97.92892    -41.2 9.742e+03 1.826e-10
 97.94927    -39.8 9.655e+03 1.441e-10
 97.97265    -38.9 9.618e+03 1.295e-10
 98.01336    -38.2 9.519e+03 1.271e-10
 98.05407    -37.8 9.595e+03 1.333e-10
 98.08032    -37.6 9.912e+03 1.671e-10
 98.10068    -35.8 9.773e+03 1.471e-10
 98.13550    -35.2 1.003e+04 1.897e-10
 98.17621    -34.7 1.030e+04 2.453e-10
 98.21137    -34.2 1.045e+04 3.049e-10
 98.23173    -31.9 1.028e+04 2.446e-10
 98.25764    -31.5 1.032e+04 2.863e-10
 98.29835    -30.9 1.021e+04 3.169e-10
 98.33907    -29.9 1.010e+04 3.244e-10
 98.36277    -28.7 9.965e+03 2.981e-10
 98.38313    -26.7 1.010e+04 2.920e-10
 98.42049    -25.4 1.003e+04 2.758e-10
 98.46121    -24.1 9.929e+03 2.332e-10
 98.49382    -22.8 9.777e+03 1.834e-10
 98.51034    -20.7 1.024e+04 2.425e-10
 98.51843    -21.4 9.594e+03 1.432e-10
 98.54263    -20.3 9.413e+03 1.130e-10
 98.58335    -19.5 9.272e+03 1.049e-10
 98.62406    -18.7 9.702e+03 1.727e-10
 98.64522    -17.2 1.010e+04 2.937e-10
 98.66558    -15.8 1.029e+04 2.939e-10
 98.70549    -14.1 1.074e+04 4.894e-10
 98.74620    -12.5 1.114e+04 6.503e-10
 98.77617    -11.3 1.159e+04 8.648e-10
 98.79653    -10.5 1.189e+04 1.040e-09
 98.81735    -10.3 1.204e+04 1.143e-09
 98.83761    -10.5 1.247e+04 1.269e-09
 98.85178    -10.8 1.303e+04 1.481e-09
 98.86196    -10.8 1.334e+04 2.132e-09
 98.87832    -11.1 1.382e+04 2.576e-09
 98.89868    -11.0 1.417e+04 3.025e-09
 98.91730    -10.9 1.442e+04 3.292e-09
 98.92748    -10.2 1.538e+04 4.804e-09
 98.93939    -10.2 1.552e+04 4.788e-09
 98.95975    -10.1 1.560e+04 4.031e-09
 98.98011    -11.0 1.551e+04 3.388e-09
 98.99301    -12.1 1.529e+04 3.159e-09
 99.00285    -11.6 1.616e+04 3.857e-09
 99.01031    -10.9 1.550e+04 3.298e-09
 99.02082    -11.8 1.515e+04 3.106e-09
 99.04118    -12.5 1.504e+04 3.147e-09
 99.05853    -12.8 1.513e+04 3.577e-09
 99.06871    -12.7 1.559e+04 4.138e-09
 99.08189    -12.7 1.579e+04 4.891e-09
 99.10225    -12.1 1.606e+04 5.424e-09
 99.12260    -11.5 1.620e+04 5.522e-09
 99.13423    -10.9 1.624e+04 4.818e-09
 99.14441    -10.3 1.603e+04 5.421e-09
 99.16332     -9.9 1.579e+04 4.296e-09
 99.18367     -9.9 1.538e+04 3.186e-09
 99.19975     -9.9 1.494e+04 2.390e-09
 99.20993     -9.1 1.472e+04 2.670e-09
 99.22439     -8.9 1.440e+04 2.193e-09
 99.24474     -8.5 1.416e+04 1.910e-09
 99.26510     -8.0 1.394e+04 1.750e-09
 99.27546     -7.3 1.377e+04 1.679e-09
 99.28564     -6.1 1.377e+04 1.770e-09
 99.30581     -5.3 1.370e+04 1.738e-09
 99.32617     -4.4 1.361e+04 1.725e-09
 99.34098     -3.3 1.353e+04 1.699e-09
 99.35116     -2.5 1.354e+04 1.700e-09
 99.36688     -1.5 1.347e+04 1.696e-09
 99.38724     -0.5 1.336e+04 1.668e-09
 99.40650      0.6 1.319e+04 1.606e-09
 99.41668      1.1 1.321e+04 1.649e-09
 99.42795      2.2 1.312e+04 1.634e-09
 99.44831      3.4 1.292e+04 1.504e-09
 99.46867      4.4 1.273e+04 1.329e-09
 99.48221      5.5 1.242e+04 1.150e-09
 99.49239      6.4 1.262e+04 1.396e-09
 99.50238      7.7 1.228e+04 1.210e-09
 99.51256      8.0 1.236e+04 1.205e-09
 99.52974      9.4 1.205e+04 9.812e-10
 99.54773     11.1 1.190e+04 7.821e-10
 99.55791     11.8 1.199e+04 9.541e-10
 99.57045     13.2 1.172e+04 7.214e-10
 99.59081     14.6 1.158e+04 5.421e-10
 99.61116     15.6 1.150e+04 3.984e-10
 99.62343     16.2 1.134e+04 3.022e-10
 99.63361     17.1 1.145e+04 3.696e-10
 99.65188     17.8 1.130e+04 2.910e-10
 99.67223     18.6 1.116e+04 2.692e-10
 99.68896     18.8 1.101e+04 2.616e-10
 99.69913     19.7 1.107e+04 2.778e-10
 99.71295     21.1 1.086e+04 2.884e-10
 99.73330     21.7 1.074e+04 2.861e-10
 99.75458     23.5 1.075e+04 2.953e-10
 99.77493     24.7 1.076e+04 3.287e-10
 99.79437     25.9 1.065e+04 3.414e-10
 99.81473     26.8 1.083e+04 3.071e-10
 99.83018     27.8 1.047e+04 3.371e-10
 99.84036     28.2 1.068e+04 3.907e-10
 99.85544     28.8 1.088e+04 3.869e-10
 99.87580     28.9 1.114e+04 3.929e-10
 99.89571     28.4 1.112e+04 4.668e-10
 99.90588     28.5 1.152e+04 5.298e-10
 99.92679     29.3 1.189e+04 8.264e-10
 99.96760     30.1 1.174e+04 1.113e-09
100.00831     31.1 1.157e+04 9.143e-10
