# Columns:
#   distance along LOS (in CHIMPs)
#   peculiar velocity  (in km/s)
#   temperature (K)
#   HI number density
# pos=(32.156,168.579,49.908), angles=(1.80221,4.44091)
  0.00666     19.1 1.073e+04 5.380e-10
  0.01603     18.9 1.065e+04 4.855e-10
  0.02071     18.5 1.055e+04 4.510e-10
  0.02841     18.1 1.039e+04 3.917e-10
  0.04456     18.2 1.030e+04 3.939e-10
  0.06539     18.3 1.034e+04 3.962e-10
  0.08469     18.3 1.036e+04 3.980e-10
  0.09520     18.2 1.039e+04 4.115e-10
  0.10233     18.4 1.035e+04 4.102e-10
  0.12316     18.7 9.972e+03 3.190e-10
  0.15932     19.4 1.014e+04 4.191e-10
  0.20098     20.5 1.022e+04 4.796e-10
  0.23262     21.8 1.025e+04 4.943e-10
  0.25345     22.3 9.754e+03 3.399e-10
  0.27091     23.9 9.609e+03 2.877e-10
  0.29174     24.7 9.509e+03 2.607e-10
  0.32595     26.3 9.392e+03 2.143e-10
  0.36761     27.9 9.289e+03 1.718e-10
  0.39076     29.6 9.223e+03 1.469e-10
  0.41159     29.8 8.982e+03 1.035e-10
  0.43938     31.6 9.006e+03 1.062e-10
  0.46021     32.3 9.007e+03 1.164e-10
  0.49258     34.2 9.089e+03 1.266e-10
  0.52808     36.0 9.230e+03 1.513e-10
  0.54891     35.9 9.061e+03 1.332e-10
  0.57590     37.7 9.256e+03 1.726e-10
  0.60786     39.5 9.489e+03 2.256e-10
  0.62869     40.1 9.338e+03 1.837e-10
  0.65921     41.7 9.529e+03 2.185e-10
  0.68622     43.1 9.719e+03 2.518e-10
  0.70705     43.1 9.570e+03 2.343e-10
  0.74253     44.5 9.680e+03 2.449e-10
  0.77633     45.8 9.741e+03 2.511e-10
  0.79716     46.2 9.574e+03 2.078e-10
  0.82354     47.5 9.657e+03 2.243e-10
  0.84437     47.6 9.526e+03 2.009e-10
  0.86750     49.0 9.788e+03 2.334e-10
  0.90916     49.8 1.016e+04 2.833e-10
  0.94031     49.6 1.052e+04 3.383e-10
  0.95503     48.6 1.105e+04 4.652e-10
  0.96544     48.9 1.094e+04 4.489e-10
  0.98149     47.9 1.145e+04 6.629e-10
  0.99190     47.6 1.173e+04 8.723e-10
  1.00270     47.2 1.220e+04 1.232e-09
  1.02353     46.9 1.241e+04 1.394e-09
  1.03926     46.5 1.237e+04 1.344e-09
  1.04968     46.8 1.202e+04 1.086e-09
  1.06056     46.3 1.191e+04 9.391e-10
  1.07098     46.4 1.201e+04 8.537e-10
  1.08601     45.0 1.186e+04 6.029e-10
  1.10684     42.9 1.169e+04 4.931e-10
  1.12350     40.8 1.165e+04 4.981e-10
  1.13392     41.2 1.152e+04 4.938e-10
  1.13963     39.6 1.158e+04 5.619e-10
  1.15005     39.1 1.142e+04 5.372e-10
  1.16933     38.5 1.154e+04 6.572e-10
  1.19016     38.1 1.173e+04 7.032e-10
  1.20774     37.7 1.176e+04 6.915e-10
  1.21546     38.2 1.166e+04 6.615e-10
  1.21871     38.1 1.164e+04 6.471e-10
  1.23182     37.3 1.169e+04 5.645e-10
  1.25265     36.1 1.156e+04 4.705e-10
  1.27705     35.4 1.110e+04 3.820e-10
  1.29565     35.7 1.114e+04 3.955e-10
  1.30259     36.1 1.108e+04 3.486e-10
  1.32574     35.9 1.070e+04 2.705e-10
  1.36740     36.0 1.040e+04 2.468e-10
  1.40906     36.7 1.036e+04 2.512e-10
  1.43529     37.5 1.037e+04 2.806e-10
  1.45564     38.0 1.043e+04 2.798e-10
  1.47106     38.0 1.056e+04 2.714e-10
  1.49237     38.9 1.074e+04 3.625e-10
  1.53403     39.9 1.093e+04 4.703e-10
  1.57261     40.8 1.108e+04 5.553e-10
  1.59344     41.5 1.126e+04 5.767e-10
  1.61735     42.5 1.142e+04 6.579e-10
  1.63954     43.4 1.167e+04 7.474e-10
  1.64985     42.4 1.178e+04 7.935e-10
  1.66190     42.6 1.183e+04 8.212e-10
  1.67231     42.6 1.192e+04 8.504e-10
  1.69005     42.7 1.212e+04 9.436e-10
  1.71088     42.6 1.228e+04 1.035e-09
  1.73066     42.0 1.252e+04 1.131e-09
  1.74107     42.3 1.263e+04 1.224e-09
  1.75254     42.0 1.285e+04 1.353e-09
  1.77337     41.7 1.310e+04 1.503e-09
  1.79420     41.0 1.344e+04 1.712e-09
  1.80782     40.2 1.373e+04 1.926e-09
  1.81283     38.7 1.412e+04 2.466e-09
  1.82004     38.7 1.420e+04 2.840e-09
  1.83586     38.2 1.429e+04 3.139e-09
  1.85669     37.7 1.422e+04 3.108e-09
  1.87752     37.4 1.396e+04 2.875e-09
  1.88870     37.1 1.356e+04 2.360e-09
  1.89283     37.5 1.361e+04 2.513e-09
  1.90247     36.7 1.349e+04 2.332e-09
  1.91917     36.2 1.296e+04 1.766e-09
  1.95052     36.1 1.243e+04 1.290e-09
  1.97649     35.8 1.160e+04 7.908e-10
  1.99732     34.5 1.096e+04 4.872e-10
  2.02621     34.5 1.042e+04 3.545e-10
  2.04704     35.1 1.017e+04 2.878e-10
  2.07559     35.8 1.016e+04 2.920e-10
  2.11724     36.5 1.031e+04 3.383e-10
  2.14496     37.1 1.064e+04 4.734e-10
  2.16579     36.4 1.049e+04 4.470e-10
  2.18436     37.2 1.086e+04 6.237e-10
  2.20519     37.9 1.112e+04 7.473e-10
  2.24222     38.4 1.123e+04 7.857e-10
  2.28388     39.0 1.101e+04 6.983e-10
  2.31344     39.7 1.050e+04 4.722e-10
  2.33041     39.0 1.038e+04 4.239e-10
  2.34250     39.5 1.078e+04 4.903e-10
  2.36719     38.6 1.013e+04 3.155e-10
  2.40885     37.2 1.035e+04 3.672e-10
  2.45051     36.5 1.090e+04 5.125e-10
  2.47972     34.8 1.170e+04 8.877e-10
  2.49004     33.9 1.225e+04 1.281e-09
  2.49213     33.8 1.257e+04 1.663e-09
  2.50255     33.1 1.269e+04 1.798e-09
  2.52322     32.9 1.280e+04 1.890e-09
  2.54404     32.5 1.278e+04 1.822e-09
  2.55870     31.5 1.274e+04 1.649e-09
  2.56911     30.5 1.290e+04 1.687e-09
  2.57637     28.7 1.267e+04 1.461e-09
  2.58678     27.6 1.255e+04 1.401e-09
  2.60653     25.7 1.235e+04 1.365e-09
  2.62736     24.1 1.235e+04 1.388e-09
  2.64819     22.0 1.244e+04 1.508e-09
  2.66061     20.3 1.280e+04 1.774e-09
  2.67102     19.9 1.273e+04 1.663e-09
  2.68985     17.9 1.321e+04 2.130e-09
  2.70643     16.3 1.339e+04 2.486e-09
  2.71684     15.8 1.348e+04 2.626e-09
  2.73151     14.8 1.338e+04 2.600e-09
  2.74484     14.2 1.307e+04 2.299e-09
  2.75526     14.2 1.313e+04 2.522e-09
  2.77316     13.4 1.263e+04 1.683e-09
  2.78550     12.4 1.216e+04 1.248e-09
  2.79592     12.8 1.235e+04 1.339e-09
  2.81482     11.7 1.191e+04 9.757e-10
  2.82908      9.9 1.165e+04 8.438e-10
  2.83950     10.4 1.160e+04 7.650e-10
  2.85416      8.1 1.172e+04 7.954e-10
  2.86457      8.3 1.171e+04 7.931e-10
  2.87731      5.9 1.205e+04 9.854e-10
  2.89814      4.8 1.237e+04 1.511e-09
  2.91332      4.7 1.253e+04 2.243e-09
  2.92373      4.8 1.237e+04 2.051e-09
  2.93323      3.0 1.447e+04 3.629e-09
  2.94365      4.6 1.401e+04 2.871e-09
  2.95537     -2.1 1.768e+04 8.004e-09
  2.96573     -2.2 1.805e+04 9.371e-09
  2.98140     -3.6 1.776e+04 1.348e-08
  2.99756     -4.3 1.735e+04 1.186e-08
  3.00758     -5.9 1.770e+04 1.437e-08
  3.01231     -6.5 1.795e+04 1.705e-08
  3.02311     -7.8 1.892e+04 1.302e-08
  3.04394    -12.1 2.079e+04 5.438e-09
  3.06477    -21.2 1.595e+04 1.851e-09
  3.08096    -26.9 1.148e+04 1.067e-09
  3.08757    -26.4 1.185e+04 1.102e-09
  3.09221    -25.9 1.264e+04 1.134e-09
  3.10643    -27.8 1.121e+04 8.698e-10
  3.12726    -28.3 1.123e+04 7.916e-10
  3.14809    -31.1 1.252e+04 8.782e-10
  3.16004    -36.1 1.425e+04 1.489e-09
  3.16757    -36.2 1.475e+04 1.561e-09
  3.17645    -37.7 1.547e+04 2.090e-09
  3.18974    -39.9 1.521e+04 4.622e-09
  3.21057    -39.5 1.523e+04 7.618e-09
  3.22869    -37.3 1.527e+04 8.302e-09
  3.23911    -37.4 1.581e+04 9.992e-09
  3.25027    -34.9 1.576e+04 8.587e-09
  3.26068    -34.3 1.590e+04 8.411e-09
  3.27306    -33.1 1.538e+04 3.083e-09
  3.29389    -40.9 1.278e+04 6.211e-10
  3.30777    -45.2 9.970e+03 2.844e-10
  3.31818    -45.1 1.044e+04 3.537e-10
  3.33451    -45.7 9.763e+03 2.700e-10
  3.34492    -45.6 9.889e+03 2.965e-10
  3.36611    -45.1 9.707e+03 2.478e-10
  3.38703    -45.3 1.021e+04 3.744e-10
  3.40864    -44.7 9.905e+03 3.243e-10
  3.45030    -44.1 9.847e+03 3.147e-10
  3.49196    -43.7 9.903e+03 3.218e-10
  3.51359    -43.6 9.994e+03 3.292e-10
  3.52515    -43.7 9.974e+03 3.197e-10
  3.54518    -43.4 1.064e+04 5.675e-10
  3.57528    -43.5 1.049e+04 4.968e-10
  3.61693    -43.6 1.033e+04 4.297e-10
  3.65859    -43.7 1.033e+04 3.811e-10
  3.68207    -46.0 1.129e+04 4.011e-10
  3.68514    -48.1 1.176e+04 3.560e-10
  3.70332    -46.1 1.150e+04 3.258e-10
  3.74191    -52.9 1.372e+04 8.875e-10
  3.76621    -56.6 1.408e+04 2.344e-09
  3.77652    -57.1 1.396e+04 2.416e-09
  3.79378    -58.2 1.416e+04 3.093e-09
  3.81461    -59.5 1.419e+04 3.083e-09
  3.83003    -61.8 1.364e+04 1.591e-09
  3.84045    -60.4 1.508e+04 2.569e-09
  3.85035    -64.0 1.382e+04 8.006e-10
  3.86076    -63.5 1.309e+04 7.685e-10
  3.87710    -67.2 1.212e+04 3.690e-10
  3.90844    -70.4 1.101e+04 2.163e-10
  3.95020    -71.3 1.033e+04 1.481e-10
  3.97796    -71.1 1.030e+04 1.450e-10
  3.99879    -70.9 1.094e+04 2.905e-10
  4.01902    -70.0 1.099e+04 3.632e-10
  4.03985    -69.1 1.113e+04 3.797e-10
  4.07517    -68.5 1.149e+04 5.315e-10
  4.11527    -68.3 1.190e+04 6.931e-10
  4.13610    -69.3 1.315e+04 1.531e-09
  4.14798    -69.2 1.331e+04 1.746e-09
  4.16871    -69.2 1.353e+04 2.008e-09
  4.18730    -69.1 1.364e+04 2.110e-09
  4.19771    -68.8 1.344e+04 1.854e-09
  4.20457    -68.7 1.333e+04 1.745e-09
  4.21498    -68.7 1.400e+04 2.498e-09
  4.24171    -68.7 1.307e+04 1.453e-09
  4.27342    -68.7 1.239e+04 9.889e-10
  4.29425    -69.5 1.285e+04 1.091e-09
  4.32512    -69.0 1.199e+04 7.279e-10
  4.35597    -67.4 1.141e+04 5.221e-10
  4.37680    -66.8 1.129e+04 4.208e-10
  4.40844    -65.2 1.101e+04 3.442e-10
  4.43156    -63.4 1.072e+04 2.838e-10
  4.45239    -63.3 1.062e+04 2.643e-10
  4.49175    -61.3 1.028e+04 1.977e-10
  4.52444    -59.2 9.979e+03 1.439e-10
  4.54527    -58.4 1.001e+04 1.424e-10
  4.56888    -56.4 9.776e+03 1.083e-10
  4.58971    -56.2 9.730e+03 1.062e-10
  4.61673    -54.2 9.583e+03 8.352e-11
  4.65838    -52.2 9.453e+03 6.810e-11
  4.69292    -50.2 9.338e+03 5.910e-11
  4.71375    -49.4 9.408e+03 7.018e-11
  4.72703    -47.4 9.297e+03 6.528e-11
  4.74785    -47.0 9.235e+03 7.001e-11
  4.78336    -45.0 9.123e+03 6.534e-11
  4.82502    -43.0 9.029e+03 6.118e-11
  4.86139    -41.0 8.967e+03 5.795e-11
  4.87989    -40.2 9.049e+03 7.012e-11
  4.88517    -39.8 8.980e+03 7.051e-11
  4.90833    -37.9 8.921e+03 6.574e-11
  4.94999    -36.3 8.905e+03 6.421e-11
  4.99165    -34.7 8.912e+03 6.918e-11
  5.02249    -33.4 8.952e+03 8.496e-11
  5.03988    -32.6 8.790e+03 6.956e-11
  5.05070    -31.6 8.853e+03 7.606e-11
  5.07496    -30.2 8.891e+03 8.605e-11
  5.11662    -29.2 8.981e+03 1.115e-10
  5.15828    -28.6 9.125e+03 1.661e-10
  5.18063    -27.9 9.344e+03 2.608e-10
  5.19987    -27.5 9.403e+03 2.422e-10
  5.21917    -26.6 9.511e+03 2.444e-10
  5.24160    -25.6 9.901e+03 4.016e-10
  5.28325    -24.7 1.013e+04 5.109e-10
  5.31795    -24.2 1.016e+04 5.184e-10
  5.33878    -23.5 1.039e+04 6.515e-10
  5.36657    -23.2 1.001e+04 5.296e-10
  5.38765    -22.9 9.499e+03 3.744e-10
  5.40848    -22.6 9.711e+03 3.862e-10
  5.44989    -22.0 9.210e+03 2.734e-10
  5.47609    -21.0 8.790e+03 1.882e-10
  5.49692    -20.3 9.014e+03 2.407e-10
  5.53320    -19.5 8.681e+03 1.717e-10
  5.55612    -18.9 8.533e+03 1.429e-10
  5.57695    -19.0 8.629e+03 1.430e-10
  5.61341    -18.1 8.565e+03 1.372e-10
  5.63424    -17.4 8.882e+03 2.028e-10
  5.65818    -16.2 8.884e+03 2.054e-10
  5.69983    -14.8 8.923e+03 1.885e-10
  5.72460    -13.9 8.958e+03 1.581e-10
  5.74543    -14.0 8.932e+03 1.437e-10
  5.77155    -13.7 8.926e+03 1.526e-10
  5.79238    -12.5 9.028e+03 1.535e-10
  5.82481    -12.1 8.919e+03 1.851e-10
  5.86647    -10.9 9.009e+03 2.271e-10
  5.89307     -9.3 9.052e+03 2.307e-10
  5.91390     -8.9 9.079e+03 2.244e-10
  5.92970     -7.3 9.132e+03 1.496e-10
  5.95053     -6.0 9.286e+03 1.982e-10
  5.99144     -5.2 9.159e+03 1.122e-10
  6.03310     -4.6 8.730e+03 8.384e-11
  6.06155     -2.9 8.578e+03 6.868e-11
  6.07464     -2.2 8.599e+03 6.536e-11
  6.08785     -1.0 8.620e+03 6.386e-11
  6.11641      1.0 8.748e+03 4.317e-11
  6.15807      2.3 8.957e+03 3.290e-11
  6.19973      3.8 8.935e+03 3.316e-11
  6.22516      5.5 8.919e+03 3.752e-11
  6.23462      6.5 8.846e+03 4.034e-11
  6.25085      7.3 8.931e+03 3.301e-11
  6.28305      9.2 8.967e+03 4.125e-11
  6.32470     11.1 9.087e+03 5.292e-11
  6.36248     12.7 9.248e+03 7.260e-11
  6.38331     13.8 9.191e+03 7.226e-11
  6.39850     15.6 9.368e+03 9.778e-11
  6.41933     16.3 9.427e+03 1.021e-10
  6.44968     17.9 9.720e+03 1.412e-10
  6.49134     19.2 1.007e+04 1.966e-10
  6.52062     19.8 1.047e+04 2.861e-10
  6.54145     21.1 1.024e+04 1.778e-10
  6.56697     21.1 1.061e+04 2.797e-10
  6.58780     21.1 1.081e+04 3.190e-10
  6.61631     21.5 1.102e+04 5.291e-10
  6.65794     21.9 1.105e+04 5.488e-10
  6.69960     23.0 1.081e+04 4.398e-10
  6.73545     22.4 1.073e+04 3.564e-10
  6.75628     23.1 1.076e+04 3.729e-10
  6.78294     22.5 1.052e+04 3.324e-10
  6.81608     22.7 1.031e+04 3.171e-10
  6.83691     23.6 1.029e+04 3.136e-10
  6.86626     24.2 1.015e+04 3.026e-10
  6.90392     25.0 1.011e+04 2.948e-10
  6.92475     25.3 1.016e+04 2.961e-10
  6.94957     25.6 1.021e+04 3.036e-10
  6.97423     25.7 1.027e+04 3.291e-10
  6.99506     27.0 1.057e+04 4.957e-10
  7.03289     27.6 1.073e+04 5.859e-10
  7.07240     28.7 1.073e+04 5.640e-10
  7.09323     28.2 1.064e+04 4.487e-10
  7.11155     28.2 1.058e+04 2.841e-10
  7.13237     29.8 1.111e+04 6.252e-10
  7.15786     28.9 1.122e+04 4.481e-10
  7.19952     27.0 1.114e+04 4.285e-10
  7.24087     25.4 1.065e+04 4.277e-10
  7.26170     24.2 9.742e+03 2.514e-10
  7.26969     23.1 9.591e+03 1.908e-10
  7.29052     20.7 1.039e+04 2.786e-10
  7.32450     18.2 1.034e+04 3.476e-10
  7.36615     17.4 1.023e+04 3.788e-10
  7.40701     17.5 1.004e+04 3.815e-10
  7.42784     16.7 1.056e+04 5.376e-10
  7.43018     17.0 1.007e+04 4.575e-10
  7.45101     17.5 1.026e+04 5.287e-10
  7.49113     18.4 9.694e+03 3.708e-10
  7.53279     19.4 9.226e+03 2.051e-10
  7.56515     19.1 9.036e+03 1.009e-10
  7.58598     18.2 9.390e+03 1.499e-10
  7.59865     17.6 9.051e+03 1.343e-10
  7.61948     17.7 9.169e+03 1.689e-10
  7.65776     17.7 9.089e+03 1.988e-10
  7.69942     18.5 9.048e+03 2.339e-10
  7.72330     19.7 8.997e+03 2.244e-10
  7.74413     19.1 9.587e+03 3.955e-10
  7.76713     20.0 9.448e+03 3.316e-10
  7.78796     19.5 9.643e+03 3.945e-10
  7.82439     20.1 9.325e+03 2.752e-10
  7.86061     20.5 8.938e+03 1.878e-10
  7.88144     20.4 9.229e+03 2.877e-10
  7.90771     20.8 8.859e+03 1.785e-10
  7.93560     21.2 8.533e+03 1.324e-10
  7.95643     20.6 8.489e+03 1.427e-10
  7.99102     21.5 8.453e+03 1.427e-10
  8.01876     22.4 8.518e+03 1.534e-10
  8.03959     21.2 8.431e+03 1.194e-10
  8.07434     21.5 8.595e+03 1.399e-10
  8.10408     21.6 8.773e+03 1.726e-10
  8.12491     21.2 8.785e+03 1.933e-10
  8.15608     21.3 8.911e+03 2.177e-10
  8.17690     19.3 8.924e+03 2.178e-10
  8.19931     19.2 9.012e+03 2.250e-10
  8.24097     18.9 9.077e+03 2.291e-10
  8.27255     17.9 9.336e+03 2.678e-10
  8.29338     17.4 9.642e+03 3.675e-10
  8.31378     16.8 9.787e+03 4.109e-10
  8.32444     16.0 1.008e+04 4.911e-10
  8.33485     14.3 1.035e+04 5.547e-10
  8.35534     12.3 1.120e+04 8.002e-10
  8.36701     10.2 1.195e+04 1.201e-09
  8.37742      9.6 1.221e+04 1.422e-09
  8.39310      8.9 1.245e+04 1.800e-09
  8.40351      7.9 1.232e+04 1.727e-09
  8.41782      8.0 1.211e+04 1.555e-09
  8.43865      7.5 1.180e+04 1.126e-09
  8.45125      6.1 1.163e+04 7.005e-10
  8.46166      4.8 1.157e+04 6.897e-10
  8.47217      2.1 1.094e+04 4.163e-10
  8.48259      0.8 1.059e+04 3.869e-10
  8.50114     -0.4 9.984e+03 3.276e-10
  8.53248     -0.7 9.722e+03 2.613e-10
  8.57424     -1.2 9.567e+03 2.099e-10
  8.60950     -1.9 9.585e+03 1.932e-10
  8.63033     -3.2 9.920e+03 1.899e-10
  8.65755     -4.8 1.000e+04 2.461e-10
  8.69921     -6.6 1.049e+04 3.424e-10
  8.74087     -8.9 1.089e+04 5.396e-10
  8.76773     -9.9 1.089e+04 8.012e-10
  8.78401    -10.0 1.079e+04 7.854e-10
  8.79881    -10.3 1.062e+04 7.336e-10
  8.82418    -10.0 1.046e+04 5.524e-10
  8.86584    -11.3 1.031e+04 2.734e-10
  8.90514    -14.4 9.773e+03 2.009e-10
  8.92597    -14.1 9.338e+03 1.471e-10
  8.94645    -15.8 9.669e+03 1.846e-10
  8.96728    -16.5 1.023e+04 2.889e-10
  8.99082    -17.6 1.017e+04 4.553e-10
  9.02196    -17.1 1.024e+04 5.999e-10
  9.04091    -17.1 1.035e+04 6.124e-10
  9.05132    -17.0 1.054e+04 6.929e-10
  9.06309    -17.4 1.065e+04 5.855e-10
  9.08402    -16.9 1.052e+04 5.798e-10
  9.11493    -17.8 1.029e+04 3.551e-10
  9.13576    -18.7 9.927e+03 2.381e-10
  9.15745    -20.3 9.436e+03 1.372e-10
  9.19911    -22.2 9.168e+03 9.968e-11
  9.22143    -24.4 9.460e+03 1.086e-10
  9.24226    -23.0 9.190e+03 9.196e-11
  9.28242    -25.6 9.535e+03 1.519e-10
  9.30423    -27.8 9.895e+03 3.159e-10
  9.32506    -27.7 9.850e+03 3.360e-10
  9.35875    -28.9 1.044e+04 4.871e-10
  9.37958    -27.7 1.016e+04 3.763e-10
  9.40740    -30.2 1.053e+04 4.116e-10
  9.44905    -34.5 1.067e+04 3.892e-10
  9.47271    -38.6 1.055e+04 4.329e-10
  9.49354    -38.5 1.051e+04 4.327e-10
  9.51690    -40.8 1.099e+04 5.549e-10
  9.53772    -39.2 1.084e+04 5.199e-10
  9.57403    -42.1 1.113e+04 5.456e-10
  9.61569    -46.6 1.118e+04 3.915e-10
  9.64118    -51.2 1.057e+04 2.890e-10
  9.65888    -50.4 1.061e+04 3.098e-10
  9.67504    -48.1 1.085e+04 3.446e-10
  9.69900    -52.1 1.015e+04 2.219e-10
  9.74066    -55.2 9.849e+03 1.522e-10
  9.78232    -58.0 9.525e+03 1.132e-10
  9.80966    -59.9 9.157e+03 9.493e-11
  9.81887    -59.4 9.100e+03 8.317e-11
  9.83319    -58.3 9.136e+03 8.125e-11
  9.86563    -59.3 8.858e+03 7.066e-11
  9.90729    -59.4 8.625e+03 5.864e-11
  9.94895    -59.4 8.464e+03 4.635e-11
  9.97050    -59.4 8.382e+03 3.699e-11
  9.97885    -59.3 8.449e+03 3.779e-11
  9.99896    -58.4 8.455e+03 3.871e-11
 10.03227    -58.2 8.432e+03 3.563e-11
 10.07392    -57.9 8.421e+03 3.543e-11
 10.10782    -57.6 8.387e+03 3.830e-11
 10.12865    -57.5 8.389e+03 4.088e-11
 10.14661    -57.0 8.355e+03 4.452e-11
 10.16744    -55.7 8.360e+03 4.498e-11
 10.19890    -55.0 8.353e+03 4.877e-11
 10.24056    -54.4 8.380e+03 5.237e-11
 10.26596    -54.0 8.420e+03 5.810e-11
 10.28679    -54.3 8.480e+03 6.294e-11
 10.31508    -53.9 8.551e+03 8.299e-11
 10.33591    -52.4 8.600e+03 8.573e-11
 10.36553    -51.8 8.727e+03 1.138e-10
 10.40328    -51.1 8.865e+03 1.464e-10
 10.42411    -50.9 8.882e+03 1.480e-10
 10.44885    -50.1 8.946e+03 1.600e-10
 10.48356    -49.4 8.943e+03 1.598e-10
 10.50439    -48.1 8.961e+03 1.428e-10
 10.53216    -47.3 8.859e+03 1.322e-10
 10.56142    -46.7 8.736e+03 1.175e-10
 10.58225    -46.4 8.699e+03 9.085e-11
 10.61548    -46.0 8.691e+03 9.133e-11
 10.65203    -45.9 8.746e+03 1.041e-10
 10.67286    -44.4 8.799e+03 9.907e-11
 10.69874    -44.6 8.948e+03 1.339e-10
 10.74040    -44.8 9.229e+03 2.092e-10
 10.78211    -45.3 9.540e+03 2.978e-10
 10.82051    -46.1 9.928e+03 3.790e-10
 10.84134    -44.7 1.026e+04 4.535e-10
 10.85491    -46.6 1.058e+04 4.875e-10
 10.86711    -47.2 1.063e+04 4.961e-10
 10.87752    -51.8 1.146e+04 6.062e-10
 10.89647    -52.6 1.199e+04 6.456e-10
 10.91496    -56.8 1.300e+04 9.539e-10
 10.92538    -57.3 1.357e+04 1.266e-09
 10.93576    -60.4 1.393e+04 1.845e-09
 10.94618    -62.9 1.448e+04 2.933e-09
 10.95896    -64.1 1.458e+04 3.406e-09
 10.97979    -64.6 1.468e+04 3.648e-09
 10.99920    -65.1 1.475e+04 3.764e-09
 11.00962    -65.4 1.499e+04 3.887e-09
 11.01484    -66.1 1.515e+04 3.311e-09
 11.02525    -69.7 1.461e+04 2.088e-09
 11.04228    -71.4 1.387e+04 1.631e-09
 11.06311    -73.0 1.309e+04 1.426e-09
 11.08344    -73.8 1.266e+04 1.395e-09
 11.09385    -75.7 1.210e+04 1.234e-09
 11.10476    -75.6 1.210e+04 1.325e-09
 11.12559    -75.4 1.216e+04 1.411e-09
 11.14642    -75.2 1.218e+04 1.439e-09
 11.16257    -75.2 1.216e+04 1.436e-09
 11.17298    -76.1 1.149e+04 9.604e-10
 11.17809    -76.0 1.135e+04 9.202e-10
 11.18851    -76.1 1.172e+04 9.651e-10
 11.20891    -76.0 1.159e+04 9.377e-10
 11.22974    -75.9 1.140e+04 8.972e-10
 11.24164    -75.7 1.115e+04 8.426e-10
 11.25205    -76.7 1.081e+04 5.895e-10
 11.26233    -76.5 1.068e+04 5.673e-10
 11.27274    -76.9 1.098e+04 5.874e-10
 11.29223    -76.8 1.085e+04 5.732e-10
 11.31030    -76.6 1.071e+04 5.563e-10
 11.32071    -77.6 1.054e+04 4.709e-10
 11.33388    -77.4 1.053e+04 4.733e-10
 11.34657    -77.3 1.057e+04 4.831e-10
 11.35698    -78.0 1.079e+04 5.169e-10
 11.37554    -78.2 1.090e+04 5.464e-10
 11.38937    -78.5 1.101e+04 5.820e-10
 11.39978    -80.5 1.129e+04 5.997e-10
 11.41720    -81.1 1.150e+04 6.954e-10
 11.43080    -81.5 1.166e+04 8.219e-10
 11.44122    -82.8 1.187e+04 9.630e-10
 11.45803    -83.0 1.195e+04 1.086e-09
 11.46844    -84.5 1.192e+04 1.106e-09
 11.47969    -84.4 1.187e+04 1.110e-09
 11.50052    -84.3 1.172e+04 1.038e-09
 11.51504    -84.1 1.153e+04 8.886e-10
 11.52546    -84.9 1.132e+04 6.377e-10
 11.53710    -85.0 1.105e+04 4.566e-10
 11.54752    -86.4 1.067e+04 3.236e-10
 11.57351    -86.0 1.052e+04 2.581e-10
 11.60595    -85.8 1.015e+04 1.912e-10
 11.62678    -87.1 9.591e+03 1.257e-10
 11.65693    -86.8 9.340e+03 1.065e-10
 11.68371    -86.2 9.244e+03 1.024e-10
 11.70454    -86.3 9.245e+03 1.030e-10
 11.74024    -85.5 9.195e+03 1.024e-10
 11.76410    -84.6 9.141e+03 1.015e-10
 11.78493    -85.1 9.147e+03 1.015e-10
 11.82356    -84.1 9.121e+03 1.009e-10
 11.85219    -83.3 9.123e+03 1.010e-10
 11.87302    -83.3 9.194e+03 1.048e-10
 11.90142    -82.8 9.237e+03 1.117e-10
 11.92224    -83.4 9.438e+03 1.346e-10
 11.94853    -83.2 9.535e+03 1.626e-10
 11.99019    -83.4 9.684e+03 2.024e-10
 12.02066    -83.8 9.933e+03 2.607e-10
 12.04149    -84.0 1.017e+04 3.066e-10
 12.05956    -84.8 1.052e+04 3.937e-10
 12.08039    -86.1 1.097e+04 5.334e-10
 12.10465    -86.6 1.109e+04 5.996e-10
 12.11512    -87.4 1.121e+04 6.586e-10
 12.12553    -88.0 1.118e+04 6.573e-10
 12.13844    -89.0 1.127e+04 7.548e-10
 12.14885    -89.8 1.127e+04 7.473e-10
 12.16704    -90.7 1.128e+04 7.797e-10
 12.18787    -91.5 1.126e+04 7.850e-10
 12.19936    -92.3 1.112e+04 7.606e-10
 12.20817    -92.4 1.112e+04 7.662e-10
 12.21751    -93.4 1.109e+04 7.319e-10
 12.22953    -94.3 1.095e+04 6.750e-10
 12.25036    -95.2 1.081e+04 6.185e-10
 12.27119    -96.0 1.069e+04 5.751e-10
 12.28359    -96.9 1.062e+04 5.500e-10
 12.28816    -96.7 1.061e+04 5.484e-10
 12.29658    -98.2 1.088e+04 5.862e-10
 12.31285    -98.9 1.092e+04 5.933e-10
 12.33368    -99.6 1.094e+04 5.971e-10
 12.35450   -100.3 1.094e+04 5.944e-10
 12.36524   -101.0 1.091e+04 5.809e-10
 12.36815   -102.4 1.108e+04 6.182e-10
 12.37825   -101.9 1.115e+04 6.478e-10
 12.39616   -102.5 1.101e+04 6.019e-10
 12.41699   -103.0 1.088e+04 5.652e-10
 12.43390   -103.4 1.076e+04 5.448e-10
 12.44431   -104.7 1.079e+04 5.422e-10
 12.45207   -105.0 1.076e+04 5.275e-10
 12.46248   -104.2 1.088e+04 5.707e-10
 12.47948   -104.3 1.087e+04 5.668e-10
 12.50031   -104.8 1.094e+04 5.707e-10
 12.51297   -105.9 1.131e+04 6.669e-10
 12.52339   -106.5 1.110e+04 5.675e-10
 12.53631   -108.3 1.169e+04 7.581e-10
 12.54672   -107.4 1.173e+04 7.876e-10
 12.56279   -109.6 1.254e+04 1.208e-09
 12.58163   -111.7 1.344e+04 1.976e-09
 12.59205   -112.6 1.326e+04 1.598e-09
 12.60445   -114.6 1.409e+04 2.648e-09
 12.62054   -116.2 1.461e+04 3.598e-09
 12.63096   -116.0 1.504e+04 4.226e-09
 12.64611   -117.8 1.520e+04 4.596e-09
 12.66070   -119.4 1.503e+04 4.349e-09
 12.67112   -120.0 1.517e+04 4.772e-09
 12.68777   -121.2 1.457e+04 3.368e-09
 12.70478   -123.0 1.346e+04 1.585e-09
 12.71520   -123.1 1.388e+04 1.723e-09
 12.72936   -126.5 1.217e+04 6.977e-10
 12.75019   -128.4 1.127e+04 4.477e-10
 12.77108   -130.5 1.053e+04 3.543e-10
 12.78902   -131.1 1.037e+04 3.302e-10
 12.79943   -131.6 1.049e+04 3.662e-10
 12.80843   -131.8 1.043e+04 3.640e-10
 12.81885   -131.2 1.045e+04 3.576e-10
 12.83357   -131.3 1.042e+04 3.587e-10
 12.85440   -131.3 1.040e+04 3.676e-10
 12.87326   -131.3 1.045e+04 3.749e-10
 12.88367   -131.5 1.061e+04 4.139e-10
 12.88751   -132.0 1.104e+04 4.223e-10
 12.89792   -130.9 1.069e+04 4.090e-10
 12.91689   -132.1 1.139e+04 4.242e-10
 12.93772   -135.5 1.351e+04 6.981e-10
 12.95616   -138.4 1.478e+04 1.783e-09
 12.96553   -135.6 1.387e+04 8.918e-10
 12.96791   -135.9 1.418e+04 1.151e-09
 12.97937   -137.8 1.505e+04 2.758e-09
 13.00020   -138.4 1.551e+04 4.870e-09
 13.02103   -138.6 1.568e+04 5.951e-09
 13.03524   -139.0 1.568e+04 6.055e-09
 13.04552   -138.0 1.524e+04 5.072e-09
 13.05215   -137.5 1.545e+04 5.226e-09
 13.06269   -138.3 1.527e+04 4.778e-09
 13.08352   -139.7 1.477e+04 3.014e-09
 13.10390   -142.3 1.390e+04 1.690e-09
 13.11431   -140.5 1.422e+04 2.136e-09
 13.12518   -143.3 1.350e+04 1.363e-09
 13.13638   -146.1 1.279e+04 1.050e-09
 13.14680   -146.1 1.257e+04 1.017e-09
 13.16684   -147.9 1.226e+04 9.783e-10
 13.18297   -149.1 1.216e+04 9.741e-10
 13.19338   -148.4 1.241e+04 9.914e-10
 13.20849   -149.8 1.226e+04 9.657e-10
 13.22062   -151.1 1.227e+04 9.187e-10
 13.23104   -150.4 1.232e+04 9.458e-10
 13.25015   -151.5 1.236e+04 8.730e-10
 13.26204   -152.7 1.235e+04 8.499e-10
 13.27246   -152.8 1.236e+04 8.164e-10
 13.29181   -154.1 1.232e+04 8.145e-10
 13.30486   -155.2 1.232e+04 8.516e-10
 13.31527   -154.5 1.240e+04 8.298e-10
 13.33070   -155.5 1.242e+04 9.198e-10
 13.34111   -155.6 1.223e+04 8.085e-10
 13.35430   -156.3 1.218e+04 8.356e-10
 13.37513   -156.9 1.213e+04 8.350e-10
 13.38910   -157.6 1.209e+04 8.147e-10
 13.39951   -157.4 1.243e+04 9.855e-10
 13.40977   -158.1 1.247e+04 1.040e-09
 13.42019   -157.9 1.224e+04 8.332e-10
 13.43761   -158.6 1.232e+04 9.194e-10
 13.45844   -159.1 1.242e+04 1.079e-09
 13.47333   -159.2 1.252e+04 1.294e-09
 13.48291   -158.8 1.308e+04 1.959e-09
 13.48884   -158.7 1.288e+04 1.646e-09
 13.50010   -158.6 1.297e+04 1.904e-09
 13.52093   -158.4 1.298e+04 2.078e-09
 13.54176   -158.0 1.297e+04 2.135e-09
 13.55750   -157.6 1.281e+04 2.108e-09
 13.56792   -156.8 1.305e+04 2.299e-09
 13.58342   -156.4 1.279e+04 1.986e-09
 13.60424   -155.9 1.251e+04 1.651e-09
 13.62507   -155.6 1.225e+04 1.362e-09
 13.63657   -155.3 1.199e+04 1.138e-09
 13.64289   -155.1 1.195e+04 1.140e-09
 13.65222   -154.5 1.217e+04 1.239e-09
 13.66673   -154.1 1.197e+04 1.081e-09
 13.68756   -153.8 1.176e+04 9.628e-10
 13.70523   -153.4 1.158e+04 8.689e-10
 13.71565   -153.2 1.157e+04 8.758e-10
 13.72605   -152.8 1.139e+04 8.011e-10
 13.73646   -152.2 1.167e+04 9.249e-10
 13.75005   -151.8 1.154e+04 8.709e-10
 13.77088   -151.4 1.145e+04 8.343e-10
 13.78431   -151.0 1.143e+04 8.191e-10
 13.79472   -150.8 1.135e+04 8.123e-10
 13.81028   -150.5 1.134e+04 8.090e-10
 13.82070   -149.9 1.163e+04 9.447e-10
 13.83336   -149.7 1.165e+04 9.529e-10
 13.85296   -149.5 1.167e+04 9.841e-10
 13.86338   -149.2 1.148e+04 8.830e-10
 13.87502   -149.0 1.148e+04 9.156e-10
 13.89452   -148.7 1.147e+04 9.401e-10
 13.90494   -148.3 1.170e+04 1.077e-09
 13.91668   -147.9 1.169e+04 1.084e-09
 13.93204   -147.5 1.161e+04 1.083e-09
 13.94245   -147.2 1.141e+04 9.257e-10
 13.95834   -146.5 1.127e+04 9.203e-10
 13.97876   -145.8 1.119e+04 8.731e-10
 13.98917   -145.4 1.133e+04 9.409e-10
 14.00000   -144.7 1.127e+04 8.719e-10
 14.01111   -144.0 1.123e+04 7.908e-10
 14.02152   -143.4 1.106e+04 6.989e-10
 14.04165   -142.7 1.102e+04 6.458e-10
 14.06309   -141.8 1.097e+04 5.779e-10
 14.08038   -140.8 1.111e+04 5.987e-10
 14.09018   -140.6 1.108e+04 5.691e-10
 14.11465   -139.8 1.115e+04 5.804e-10
 14.14862   -138.6 1.117e+04 5.877e-10
 14.16945   -138.2 1.098e+04 4.833e-10
 14.19807   -136.7 1.102e+04 4.878e-10
 14.23167   -135.2 1.113e+04 5.249e-10
 14.25250   -133.9 1.126e+04 5.357e-10
 14.28138   -132.3 1.143e+04 5.961e-10
 14.30667   -131.1 1.138e+04 6.108e-10
 14.32750   -130.2 1.114e+04 4.799e-10
 14.36470   -128.4 1.127e+04 5.456e-10
 14.40014   -126.8 1.138e+04 6.179e-10
 14.42087   -125.4 1.146e+04 6.297e-10
 14.43740   -124.5 1.158e+04 6.986e-10
 14.45430   -124.0 1.167e+04 7.389e-10
 14.46481   -123.2 1.148e+04 6.019e-10
 14.47916   -122.5 1.168e+04 7.327e-10
 14.49460   -121.9 1.177e+04 7.810e-10
 14.50501   -121.4 1.189e+04 8.097e-10
 14.52072   -120.7 1.192e+04 8.222e-10
 14.53337   -120.0 1.193e+04 8.212e-10
 14.54379   -119.8 1.186e+04 7.858e-10
 14.56852   -119.3 1.185e+04 7.995e-10
 14.58945   -118.1 1.190e+04 8.056e-10
 14.60223   -116.4 1.180e+04 7.485e-10
 14.62306   -115.8 1.183e+04 7.803e-10
 14.65630   -114.0 1.161e+04 6.859e-10
 14.69796   -112.4 1.132e+04 5.697e-10
 14.73709   -110.7 1.098e+04 4.338e-10
 14.75784   -109.7 1.111e+04 4.477e-10
 14.78120   -107.5 1.099e+04 4.404e-10
 14.82294   -105.8 1.082e+04 3.714e-10
 14.86459   -104.1 1.070e+04 3.309e-10
 14.89769   -102.3 1.064e+04 3.137e-10
 14.91783   -102.2 1.078e+04 3.869e-10
 14.92640   -101.2 1.081e+04 3.844e-10
 14.94791    -99.6 1.076e+04 3.731e-10
 14.98957    -97.9 1.074e+04 3.685e-10
 15.03123    -96.3 1.076e+04 3.809e-10
 15.05583    -94.7 1.072e+04 4.026e-10
 15.07666    -94.9 1.057e+04 3.513e-10
 15.09487    -93.2 1.048e+04 3.367e-10
 15.11570    -92.5 1.051e+04 3.387e-10
 15.15620    -90.7 1.042e+04 3.260e-10
 15.19315    -88.9 1.032e+04 3.114e-10
 15.21398    -89.3 1.014e+04 2.449e-10
 15.23952    -87.5 1.007e+04 2.347e-10
 15.26335    -85.6 1.000e+04 2.202e-10
 15.28418    -84.9 1.003e+04 2.246e-10
 15.32283    -82.9 9.947e+03 2.023e-10
 15.35129    -80.8 9.861e+03 1.782e-10
 15.37212    -81.5 9.851e+03 1.745e-10
 15.40615    -79.4 9.769e+03 1.566e-10
 15.43182    -77.2 9.700e+03 1.435e-10
 15.45265    -76.3 9.732e+03 1.497e-10
 15.48861    -74.2 9.701e+03 1.443e-10
 15.50944    -75.1 9.769e+03 1.581e-10
 15.53112    -73.1 9.770e+03 1.572e-10
 15.57278    -71.3 9.787e+03 1.725e-10
 15.60030    -69.4 9.890e+03 2.126e-10
 15.62113    -68.8 1.023e+04 3.190e-10
 15.64676    -66.5 1.062e+04 4.071e-10
 15.66759    -68.7 1.083e+04 5.257e-10
 15.68444    -66.6 1.074e+04 4.689e-10
 15.69475    -66.8 1.100e+04 5.698e-10
 15.70797    -66.8 1.115e+04 6.380e-10
 15.72563    -66.5 1.139e+04 7.609e-10
 15.73605    -67.8 1.159e+04 9.012e-10
 15.74963    -67.8 1.172e+04 1.076e-09
 15.76858    -67.5 1.185e+04 1.309e-09
 15.77899    -67.8 1.208e+04 1.628e-09
 15.79129    -67.3 1.216e+04 1.753e-09
 15.80471    -66.8 1.224e+04 1.855e-09
 15.81512    -67.8 1.208e+04 1.449e-09
 15.83295    -67.4 1.217e+04 1.435e-09
 15.85281    -67.3 1.235e+04 1.370e-09
 15.86323    -68.4 1.222e+04 9.660e-10
 15.87336    -68.8 1.227e+04 8.651e-10
 15.88378    -70.7 1.187e+04 5.343e-10
 15.89544    -71.4 1.182e+04 5.025e-10
 15.91626    -72.1 1.160e+04 5.253e-10
 15.93705    -72.7 1.144e+04 5.670e-10
 15.95239    -73.8 1.126e+04 5.948e-10
 15.96295    -74.4 1.122e+04 5.066e-10
 15.97885    -74.3 1.129e+04 6.397e-10
 15.99958    -74.4 1.135e+04 6.823e-10
 16.02041    -74.5 1.139e+04 7.106e-10
 16.03151    -74.7 1.139e+04 7.010e-10
 16.03239    -74.6 1.138e+04 6.455e-10
 16.04212    -74.7 1.140e+04 6.529e-10
 16.07258    -74.9 1.136e+04 5.925e-10
 16.10036    -75.4 1.126e+04 4.772e-10
 16.11258    -75.0 1.117e+04 4.678e-10
 16.12655    -74.8 1.122e+04 4.945e-10
 16.15599    -74.6 1.107e+04 4.289e-10
 16.19765    -74.2 1.103e+04 4.149e-10
 16.23768    -73.6 1.116e+04 4.459e-10
 16.25851    -72.7 1.109e+04 4.462e-10
 16.27420    -71.9 1.129e+04 5.614e-10
 16.29493    -71.9 1.142e+04 6.811e-10
 16.31202    -71.4 1.142e+04 8.111e-10
 16.32697    -70.9 1.147e+04 8.513e-10
 16.33739    -70.5 1.142e+04 8.116e-10
 16.35367    -70.0 1.144e+04 8.381e-10
 16.36865    -69.4 1.141e+04 8.093e-10
 16.37907    -69.1 1.177e+04 1.074e-09
 16.39533    -68.8 1.176e+04 9.998e-10
 16.40604    -68.6 1.173e+04 9.145e-10
 16.41646    -68.5 1.181e+04 9.990e-10
 16.43699    -68.4 1.184e+04 9.934e-10
 16.45289    -68.4 1.192e+04 1.023e-09
 16.46331    -68.2 1.242e+04 1.557e-09
 16.47470    -68.2 1.254e+04 1.705e-09
 16.48512    -67.8 1.270e+04 2.066e-09
 16.49948    -67.6 1.290e+04 2.320e-09
 16.52031    -67.4 1.308e+04 2.538e-09
 16.53713    -67.2 1.320e+04 2.675e-09
 16.54754    -67.0 1.383e+04 3.625e-09
 16.55377    -67.1 1.383e+04 3.637e-09
 16.56419    -66.7 1.395e+04 3.914e-09
 16.58279    -66.8 1.382e+04 3.762e-09
 16.60362    -67.0 1.379e+04 3.512e-09
 16.62137    -67.2 1.369e+04 3.366e-09
 16.62976    -67.3 1.383e+04 3.570e-09
 16.63285    -67.2 1.387e+04 3.469e-09
 16.64528    -67.3 1.382e+04 3.466e-09
 16.66611    -67.2 1.376e+04 3.447e-09
 16.68694    -67.1 1.367e+04 3.368e-09
 16.70151    -67.0 1.358e+04 3.163e-09
 16.70976    -67.2 1.372e+04 3.301e-09
 16.71602    -67.2 1.365e+04 3.133e-09
 16.72860    -67.2 1.351e+04 2.936e-09
 16.74942    -67.1 1.331e+04 2.623e-09
 16.77016    -67.1 1.307e+04 2.281e-09
 16.78975    -67.6 1.302e+04 2.202e-09
 16.80026    -67.5 1.301e+04 2.175e-09
 16.81191    -67.5 1.282e+04 1.992e-09
 16.83274    -67.5 1.270e+04 1.843e-09
 16.84924    -67.7 1.273e+04 1.767e-09
 16.85965    -69.2 1.319e+04 2.077e-09
 16.87408    -71.0 1.379e+04 2.327e-09
 16.88449    -71.2 1.380e+04 2.369e-09
 16.89523    -72.9 1.426e+04 2.972e-09
 16.91606    -74.2 1.453e+04 3.671e-09
 16.92831    -75.2 1.460e+04 4.061e-09
 16.93872    -76.8 1.479e+04 4.699e-09
 16.95771    -78.0 1.444e+04 3.913e-09
 16.96873    -79.5 1.388e+04 2.859e-09
 16.97915    -79.6 1.349e+04 2.279e-09
 16.99697    -80.8 1.302e+04 1.852e-09
 17.00748    -82.5 1.285e+04 1.646e-09
 17.03081    -84.8 1.183e+04 1.063e-09
 17.07247    -86.3 1.123e+04 7.819e-10
 17.11413    -87.0 1.101e+04 6.656e-10
 17.13730    -87.1 1.096e+04 6.282e-10
 17.14724    -86.0 1.105e+04 6.436e-10
 17.16572    -86.9 1.102e+04 6.065e-10
 17.19744    -87.2 1.105e+04 6.188e-10
 17.23910    -87.6 1.126e+04 7.110e-10
 17.28076    -87.7 1.161e+04 8.948e-10
 17.30304    -87.7 1.193e+04 1.075e-09
 17.30733    -88.5 1.261e+04 1.458e-09
 17.32671    -87.3 1.264e+04 1.454e-09
 17.35356    -87.2 1.256e+04 1.460e-09
 17.37150    -87.2 1.255e+04 1.458e-09
 17.38192    -87.7 1.307e+04 1.888e-09
 17.38992    -87.3 1.304e+04 1.841e-09
 17.40033    -86.8 1.319e+04 1.993e-09
 17.41595    -86.5 1.308e+04 1.757e-09
 17.43678    -86.3 1.293e+04 1.484e-09
 17.45057    -86.2 1.279e+04 1.284e-09
 17.46099    -86.8 1.335e+04 1.815e-09
 17.47416    -86.8 1.332e+04 1.753e-09
 17.48457    -86.1 1.331e+04 1.768e-09
 17.49927    -86.4 1.335e+04 1.752e-09
 17.51923    -87.3 1.377e+04 2.013e-09
 17.52965    -88.3 1.435e+04 2.763e-09
 17.54093    -89.2 1.483e+04 3.719e-09
 17.55839    -89.8 1.529e+04 4.849e-09
 17.56881    -89.8 1.552e+04 5.269e-09
 17.58258    -90.4 1.581e+04 6.339e-09
 17.59830    -90.9 1.587e+04 6.677e-09
 17.60872    -91.9 1.593e+04 6.808e-09
 17.62424    -92.1 1.573e+04 6.666e-09
 17.64263    -92.1 1.533e+04 5.580e-09
 17.65305    -92.0 1.534e+04 5.465e-09
 17.66590    -92.2 1.479e+04 3.949e-09
 17.67738    -92.5 1.426e+04 2.836e-09
 17.68779    -93.5 1.381e+04 2.166e-09
 17.70756    -93.7 1.337e+04 1.664e-09
 17.72687    -93.5 1.300e+04 1.368e-09
 17.73728    -94.1 1.279e+04 1.158e-09
 17.74603    -93.8 1.251e+04 1.015e-09
 17.75645    -94.2 1.243e+04 9.487e-10
 17.77005    -93.8 1.232e+04 9.073e-10
 17.79087    -93.3 1.230e+04 8.964e-10
 17.81111    -93.0 1.232e+04 9.135e-10
 17.82152    -93.9 1.223e+04 8.549e-10
 17.82511    -93.8 1.236e+04 1.002e-09
 17.83552    -94.3 1.260e+04 1.110e-09
 17.85336    -94.1 1.288e+04 1.397e-09
 17.87419    -94.0 1.323e+04 1.778e-09
 17.89377    -93.9 1.360e+04 2.212e-09
 17.90418    -94.5 1.394e+04 2.549e-09
 17.90576    -94.6 1.427e+04 3.054e-09
 17.91617    -95.5 1.416e+04 2.922e-09
 17.93668    -95.6 1.429e+04 3.199e-09
 17.95751    -95.8 1.432e+04 3.278e-09
 17.97284    -96.0 1.422e+04 3.177e-09
 17.98325    -96.9 1.437e+04 3.404e-09
 17.99000    -96.7 1.412e+04 3.083e-09
 18.00051    -97.6 1.353e+04 2.214e-09
 18.03060    -97.2 1.309e+04 1.876e-09
 18.05211    -96.5 1.256e+04 1.412e-09
 18.07293    -97.6 1.254e+04 1.424e-09
 18.11392    -96.3 1.192e+04 9.937e-10
 18.14825    -95.1 1.127e+04 6.692e-10
 18.16908    -95.2 1.095e+04 5.283e-10
 18.18942    -93.9 1.068e+04 4.326e-10
 18.21025    -94.1 1.065e+04 4.221e-10
 18.23889    -92.9 1.061e+04 4.033e-10
 18.28055    -92.0 1.063e+04 4.033e-10
 18.31673    -91.6 1.063e+04 4.137e-10
 18.33756    -90.9 1.061e+04 4.047e-10
 18.34757    -90.6 1.059e+04 4.168e-10
 18.36840    -90.3 1.057e+04 4.139e-10
 18.40553    -90.1 1.054e+04 4.157e-10
 18.44718    -90.2 1.039e+04 3.852e-10
 18.48488    -90.5 1.024e+04 3.232e-10
 18.50207    -90.0 1.026e+04 3.223e-10
 18.50603    -88.8 1.033e+04 3.599e-10
 18.53050    -89.1 1.016e+04 2.952e-10
 18.57216    -89.5 1.005e+04 2.623e-10
 18.61382    -89.9 1.002e+04 2.565e-10
 18.64303    -90.3 1.001e+04 2.609e-10
 18.66206    -90.0 1.005e+04 2.582e-10
 18.67451    -88.9 1.020e+04 2.977e-10
 18.69713    -89.5 1.024e+04 3.301e-10
 18.73879    -90.1 1.023e+04 3.390e-10
 18.78034    -90.4 1.015e+04 3.324e-10
 18.82200    -90.9 1.007e+04 3.163e-10
 18.86376    -90.7 1.006e+04 3.283e-10
 18.90542    -91.0 9.940e+03 3.058e-10
 18.93849    -91.1 9.798e+03 2.819e-10
 18.95932    -91.6 9.687e+03 2.669e-10
 18.98874    -91.4 9.488e+03 2.255e-10
 19.01146    -91.0 9.301e+03 1.844e-10
 19.03228    -91.2 9.301e+03 1.863e-10
 19.07205    -90.8 9.167e+03 1.600e-10
 19.09664    -90.2 9.109e+03 1.511e-10
 19.11746    -90.7 9.096e+03 1.491e-10
 19.15537    -90.0 9.090e+03 1.483e-10
 19.17993    -89.5 9.144e+03 1.570e-10
 19.20076    -89.6 9.155e+03 1.730e-10
 19.23395    -89.3 9.404e+03 2.305e-10
 19.25478    -89.8 9.449e+03 2.507e-10
 19.28034    -89.4 9.841e+03 3.782e-10
 19.32200    -89.0 1.026e+04 5.527e-10
 19.34841    -88.7 1.064e+04 7.379e-10
 19.36924    -89.0 1.078e+04 7.891e-10
 19.39210    -89.2 1.100e+04 9.037e-10
 19.41293    -89.6 1.087e+04 8.775e-10
 19.44698    -89.9 1.093e+04 9.259e-10
 19.48863    -90.2 1.100e+04 9.747e-10
 19.51688    -90.8 1.114e+04 1.067e-09
 19.53683    -91.0 1.067e+04 8.103e-10
 19.55024    -90.7 1.035e+04 6.659e-10
 19.57195    -91.0 1.050e+04 7.421e-10
 19.61361    -91.5 1.087e+04 9.148e-10
 19.65527    -93.4 1.145e+04 1.112e-09
 19.68526    -97.9 1.219e+04 1.370e-09
 19.69558    -98.5 1.204e+04 1.245e-09
 19.69778   -101.9 1.326e+04 1.824e-09
 19.70819   -103.0 1.370e+04 2.143e-09
 19.72797   -107.1 1.523e+04 3.684e-09
 19.74880   -111.6 1.625e+04 5.984e-09
 19.76644   -116.3 1.653e+04 7.273e-09
 19.77662   -118.0 1.668e+04 7.675e-09
 19.77981   -117.5 1.697e+04 8.470e-09
 19.79046   -122.6 1.687e+04 8.568e-09
 19.81129   -127.3 1.601e+04 6.532e-09
 19.83212   -131.9 1.462e+04 3.973e-09
 19.84551   -135.7 1.322e+04 2.535e-09
 19.85592   -135.9 1.331e+04 2.806e-09
 19.86405   -137.6 1.253e+04 2.065e-09
 19.87447   -137.6 1.273e+04 2.298e-09
 19.89460   -138.3 1.216e+04 1.723e-09
 19.91417   -138.5 1.179e+04 1.316e-09
 19.92458   -138.5 1.175e+04 1.240e-09
 19.93626   -138.7 1.138e+04 9.172e-10
 19.94829   -138.8 1.110e+04 6.704e-10
 19.95870   -139.1 1.110e+04 6.687e-10
 19.97792   -138.9 1.088e+04 4.931e-10
 19.99324   -138.7 1.081e+04 3.915e-10
 20.00365   -138.7 1.079e+04 3.949e-10
 20.02221   -138.5 1.078e+04 3.463e-10
 20.04314   -138.4 1.082e+04 3.606e-10
 20.07185   -137.9 1.082e+04 3.255e-10
 20.11350   -137.0 1.073e+04 3.054e-10
 20.14116   -136.0 1.073e+04 3.172e-10
 20.16199   -136.1 1.123e+04 4.962e-10
 20.19078   -135.3 1.152e+04 6.202e-10
 20.21151   -135.0 1.150e+04 6.551e-10
 20.22004   -134.7 1.166e+04 7.573e-10
 20.23046   -135.0 1.182e+04 8.672e-10
 20.24870   -134.9 1.182e+04 8.730e-10
 20.27838   -134.7 1.186e+04 8.971e-10
 20.29931   -135.5 1.213e+04 1.091e-09
 20.32179   -135.4 1.200e+04 9.664e-10
 20.35926   -135.4 1.174e+04 7.643e-10
 20.38009   -135.4 1.151e+04 7.016e-10
 20.40511   -134.9 1.113e+04 4.962e-10
 20.43663   -134.1 1.082e+04 3.626e-10
 20.45746   -134.6 1.076e+04 3.068e-10
 20.48843   -133.4 1.056e+04 2.417e-10
 20.52773   -132.0 1.043e+04 2.057e-10
 20.54856   -131.7 1.043e+04 2.055e-10
 20.57174   -130.1 1.035e+04 1.838e-10
 20.59477   -128.5 1.031e+04 1.700e-10
 20.61560   -128.6 1.034e+04 1.519e-10
 20.65506   -127.0 1.031e+04 1.431e-10
 20.69621   -125.4 1.030e+04 1.382e-10
 20.71704   -125.1 1.028e+04 1.448e-10
 20.73209   -123.5 1.026e+04 1.401e-10
 20.75292   -123.5 1.023e+04 1.345e-10
 20.78003   -121.8 1.020e+04 1.309e-10
 20.82169   -120.1 1.018e+04 1.297e-10
 20.86335   -118.4 1.017e+04 1.300e-10
 20.88551   -116.6 1.017e+04 1.307e-10
 20.89157   -116.2 1.018e+04 1.393e-10
 20.91106   -116.1 1.018e+04 1.396e-10
 20.94666   -114.3 1.021e+04 1.410e-10
 20.98832   -112.6 1.027e+04 1.460e-10
 21.02755   -111.0 1.033e+04 1.572e-10
 21.04838   -111.0 1.038e+04 1.685e-10
 21.05399   -109.5 1.045e+04 1.892e-10
 21.07481   -109.2 1.042e+04 1.841e-10
 21.11330   -107.8 1.050e+04 2.088e-10
 21.15495   -106.4 1.059e+04 2.389e-10
 21.18569   -105.2 1.067e+04 2.692e-10
 21.20652   -105.3 1.070e+04 2.817e-10
 21.22246   -104.2 1.078e+04 3.148e-10
 21.24329   -104.0 1.067e+04 2.738e-10
 21.27993   -103.0 1.073e+04 3.121e-10
 21.32159   -102.0 1.079e+04 3.463e-10
 21.34384   -101.1 1.087e+04 3.688e-10
 21.36467   -101.3 1.092e+04 4.104e-10
 21.39094   -100.6 1.096e+04 4.276e-10
 21.41177   -100.0 1.100e+04 4.518e-10
 21.44656    -99.3 1.102e+04 4.593e-10
 21.48116    -98.7 1.105e+04 4.646e-10
 21.50198    -98.8 1.111e+04 5.281e-10
 21.52988    -98.2 1.113e+04 5.078e-10
 21.55941    -97.4 1.111e+04 4.711e-10
 21.58024    -96.8 1.105e+04 4.355e-10
 21.61319    -95.9 1.095e+04 3.807e-10
 21.63930    -94.8 1.083e+04 3.258e-10
 21.66013    -94.8 1.073e+04 2.873e-10
 21.69651    -93.6 1.061e+04 2.392e-10
 21.72789    -92.2 1.056e+04 2.114e-10
 21.74872    -91.6 1.056e+04 2.160e-10
 21.77662    -90.1 1.055e+04 2.051e-10
 21.79745    -90.0 1.053e+04 2.006e-10
 21.82148    -88.2 1.053e+04 1.997e-10
 21.86314    -86.4 1.054e+04 2.008e-10
 21.89636    -84.9 1.064e+04 2.044e-10
 21.91719    -84.4 1.066e+04 2.243e-10
 21.93476    -83.4 1.108e+04 2.740e-10
 21.95559    -83.7 1.123e+04 3.496e-10
 21.98811    -82.8 1.165e+04 5.743e-10
 22.02977    -82.1 1.216e+04 9.424e-10
 22.06484    -81.7 1.266e+04 1.352e-09
 22.08567    -80.6 1.249e+04 1.236e-09
 22.09291    -80.5 1.280e+04 1.446e-09
 22.11374    -81.4 1.268e+04 1.405e-09
 22.15475    -81.2 1.267e+04 1.408e-09
 22.19640    -80.5 1.253e+04 1.220e-09
 22.23022    -79.7 1.230e+04 9.666e-10
 22.24630    -79.8 1.193e+04 6.832e-10
 22.25414    -78.3 1.194e+04 6.685e-10
 22.27972    -77.3 1.184e+04 5.702e-10
 22.32138    -76.2 1.174e+04 5.214e-10
 22.36304    -75.0 1.164e+04 4.966e-10
 22.38837    -73.6 1.154e+04 4.767e-10
 22.40629    -73.5 1.132e+04 3.572e-10
 22.42262    -72.4 1.145e+04 4.105e-10
 22.44635    -71.0 1.136e+04 4.048e-10
 22.48801    -69.4 1.123e+04 3.893e-10
 22.52569    -67.7 1.108e+04 3.643e-10
 22.54651    -67.4 1.096e+04 2.872e-10
 22.57026    -65.8 1.086e+04 2.625e-10
 22.59109    -65.1 1.096e+04 3.092e-10
 22.61298    -63.6 1.091e+04 2.846e-10
 22.65464    -62.1 1.091e+04 2.810e-10
 22.68383    -60.6 1.095e+04 2.958e-10
 22.70466    -60.3 1.085e+04 2.356e-10
 22.73796    -58.9 1.085e+04 2.759e-10
 22.75957    -57.4 1.089e+04 3.482e-10
 22.78039    -57.1 1.090e+04 3.435e-10
 22.82115    -55.7 1.102e+04 4.115e-10
 22.86280    -53.8 1.106e+04 3.865e-10
 22.90459    -52.4 1.115e+04 4.266e-10
 22.92804    -51.2 1.122e+04 4.330e-10
 22.94887    -50.9 1.129e+04 4.392e-10
 22.97929    -49.8 1.128e+04 4.215e-10
 23.00012    -49.3 1.132e+04 4.398e-10
 23.02956    -48.3 1.134e+04 4.405e-10
 23.07122    -47.3 1.139e+04 4.607e-10
 23.09652    -46.2 1.144e+04 5.035e-10
 23.11734    -45.9 1.148e+04 5.250e-10
 23.13744    -44.8 1.155e+04 5.609e-10
 23.15827    -44.7 1.154e+04 6.016e-10
 23.19620    -43.8 1.167e+04 6.380e-10
 23.22734    -43.0 1.187e+04 6.960e-10
 23.24807    -43.0 1.188e+04 7.063e-10
 23.26480    -43.2 1.201e+04 8.635e-10
 23.27521    -43.0 1.197e+04 7.824e-10
 23.28497    -43.2 1.213e+04 1.057e-09
 23.29539    -42.7 1.199e+04 9.009e-10
 23.31056    -42.8 1.211e+04 1.262e-09
 23.33139    -42.4 1.225e+04 1.685e-09
 23.34903    -41.7 1.240e+04 1.938e-09
 23.35945    -41.6 1.232e+04 1.808e-09
 23.36405    -40.9 1.235e+04 1.857e-09
 23.37446    -40.5 1.218e+04 1.783e-09
 23.39388    -39.8 1.216e+04 1.708e-09
 23.41471    -39.1 1.196e+04 1.385e-09
 23.43270    -38.6 1.186e+04 1.028e-09
 23.44085    -37.9 1.180e+04 1.103e-09
 23.44369    -37.8 1.185e+04 1.172e-09
 23.45636    -37.4 1.182e+04 9.061e-10
 23.47719    -37.2 1.174e+04 7.083e-10
 23.49802    -37.1 1.171e+04 6.760e-10
 23.52936    -36.7 1.168e+04 6.015e-10
 23.57021    -36.5 1.151e+04 5.298e-10
 23.59104    -35.2 1.195e+04 7.860e-10
 23.60194    -35.0 1.193e+04 7.860e-10
 23.61226    -35.6 1.191e+04 7.454e-10
 23.62300    -35.7 1.190e+04 7.567e-10
 23.64382    -35.3 1.192e+04 8.364e-10
 23.65951    -35.2 1.193e+04 8.627e-10
 23.66992    -35.2 1.212e+04 1.012e-09
 23.68548    -34.4 1.225e+04 1.153e-09
 23.69640    -34.2 1.231e+04 1.188e-09
 23.70681    -34.9 1.247e+04 1.320e-09
 23.72714    -34.3 1.253e+04 1.393e-09
 23.73858    -34.0 1.249e+04 1.435e-09
 23.74899    -34.2 1.274e+04 1.802e-09
 23.76880    -33.6 1.269e+04 1.850e-09
 23.78064    -33.0 1.267e+04 1.880e-09
 23.79105    -33.8 1.269e+04 1.911e-09
 23.80724    -32.9 1.281e+04 2.018e-09
 23.81765    -33.1 1.302e+04 2.272e-09
 23.83129    -32.6 1.328e+04 2.456e-09
 23.85211    -32.2 1.348e+04 2.720e-09
 23.86487    -31.7 1.368e+04 3.089e-09
 23.87529    -32.7 1.359e+04 2.768e-09
 23.88631    -31.9 1.394e+04 3.390e-09
 23.90724    -31.6 1.400e+04 3.509e-09
 23.93553    -30.9 1.426e+04 4.292e-09
 23.94911    -30.6 1.453e+04 5.005e-09
 23.95823    -31.2 1.409e+04 3.779e-09
 23.96538    -31.3 1.383e+04 3.074e-09
 23.97709    -31.0 1.410e+04 3.699e-09
 23.99792    -30.9 1.427e+04 4.295e-09
 24.01875    -30.3 1.466e+04 5.538e-09
 24.03335    -30.0 1.475e+04 5.845e-09
 24.03823    -30.5 1.410e+04 3.913e-09
 24.04446    -30.6 1.377e+04 3.319e-09
 24.06040    -30.4 1.382e+04 3.562e-09
 24.08123    -30.3 1.380e+04 3.573e-09
 24.10206    -30.5 1.367e+04 3.335e-09
 24.11311    -30.6 1.359e+04 3.254e-09
 24.11822    -31.1 1.354e+04 3.234e-09
 24.12810    -31.0 1.320e+04 2.346e-09
 24.15433    -30.9 1.324e+04 2.518e-09
 24.18197    -30.4 1.321e+04 2.753e-09
 24.20280    -30.7 1.329e+04 2.843e-09
 24.22713    -29.9 1.310e+04 2.784e-09
 24.24787    -29.5 1.313e+04 2.833e-09
 24.26084    -29.2 1.316e+04 2.894e-09
 24.27126    -29.4 1.314e+04 2.879e-09
 24.28606    -29.0 1.310e+04 2.918e-09
 24.29648    -28.6 1.280e+04 2.516e-09
 24.31035    -28.0 1.295e+04 2.651e-09
 24.32950    -27.5 1.297e+04 2.676e-09
 24.33992    -27.8 1.296e+04 2.622e-09
 24.35201    -27.0 1.312e+04 2.751e-09
 24.37030    -26.8 1.309e+04 2.720e-09
 24.38071    -26.4 1.264e+04 2.150e-09
 24.39367    -25.8 1.259e+04 2.050e-09
 24.40857    -25.4 1.257e+04 2.000e-09
 24.41899    -25.5 1.248e+04 1.949e-09
 24.43533    -25.0 1.239e+04 1.854e-09
 24.45454    -24.5 1.235e+04 1.809e-09
 24.46495    -24.1 1.221e+04 1.611e-09
 24.47698    -23.7 1.226e+04 1.637e-09
 24.48765    -23.5 1.219e+04 1.643e-09
 24.49806    -23.4 1.215e+04 1.616e-09
 24.51864    -22.8 1.217e+04 1.639e-09
 24.53877    -22.7 1.214e+04 1.654e-09
 24.54919    -22.2 1.216e+04 1.627e-09
 24.57081    -21.8 1.207e+04 1.655e-09
 24.61257    -21.0 1.188e+04 1.504e-09
 24.63352    -20.0 1.169e+04 1.300e-09
 24.63560    -19.6 1.175e+04 1.329e-09
 24.64579    -19.4 1.151e+04 1.095e-09
 24.66445    -18.8 1.154e+04 1.001e-09
 24.68527    -18.7 1.160e+04 9.399e-10
 24.70404    -18.7 1.154e+04 9.572e-10
 24.71445    -18.5 1.136e+04 8.283e-10
 24.71766    -18.4 1.143e+04 9.924e-10
 24.72808    -18.4 1.154e+04 1.111e-09
 24.74776    -17.9 1.173e+04 1.269e-09
 24.76859    -17.7 1.194e+04 1.419e-09
 24.78311    -17.5 1.213e+04 1.522e-09
 24.79352    -17.3 1.210e+04 1.506e-09
 24.80190    -17.3 1.214e+04 1.571e-09
 24.81231    -17.3 1.225e+04 1.675e-09
 24.83108    -17.4 1.226e+04 1.660e-09
 24.85177    -17.6 1.221e+04 1.555e-09
 24.86218    -17.2 1.213e+04 1.496e-09
 24.87274    -17.3 1.195e+04 1.380e-09
 24.88614    -17.4 1.183e+04 1.214e-09
 24.89655    -17.4 1.184e+04 1.243e-09
 24.91439    -17.3 1.168e+04 1.135e-09
 24.93084    -17.1 1.164e+04 1.020e-09
 24.94125    -16.7 1.142e+04 8.531e-10
 24.95605    -16.4 1.138e+04 7.743e-10
 24.97038    -16.2 1.136e+04 7.338e-10
 24.98079    -16.2 1.146e+04 8.007e-10
 24.99771    -15.9 1.154e+04 8.154e-10
 25.00991    -15.4 1.159e+04 8.681e-10
 25.02033    -15.2 1.141e+04 7.798e-10
 25.03937    -14.6 1.150e+04 8.928e-10
 25.05461    -13.8 1.169e+04 1.070e-09
 25.06503    -13.8 1.194e+04 1.345e-09
 25.07857    -13.3 1.244e+04 1.647e-09
 25.08898    -12.8 1.220e+04 1.550e-09
 25.10185    -12.6 1.275e+04 1.968e-09
 25.12268    -12.4 1.302e+04 2.717e-09
 25.13885    -11.6 1.339e+04 3.662e-09
 25.14927    -11.2 1.348e+04 4.491e-09
 25.15764    -10.7 1.449e+04 5.294e-09
 25.16806    -10.9 1.429e+04 4.792e-09
 25.18517    -11.7 1.522e+04 6.454e-09
 25.20600    -12.3 1.596e+04 8.267e-09
 25.22157    -13.2 1.650e+04 1.023e-08
 25.22820    -13.3 1.684e+04 1.065e-08
 25.23288    -14.1 1.720e+04 1.219e-08
 25.23662    -14.5 1.714e+04 1.278e-08
 25.24235    -15.2 1.767e+04 1.289e-08
 25.25277    -15.9 1.797e+04 1.304e-08
 25.26318    -17.2 1.825e+04 1.285e-08
 25.27032    -18.8 1.816e+04 1.318e-08
 25.27287    -19.3 1.815e+04 1.380e-08
 25.27615    -19.5 1.766e+04 1.241e-08
 25.28401    -21.0 1.713e+04 1.109e-08
 25.29443    -21.9 1.695e+04 1.027e-08
 25.30484    -22.9 1.667e+04 9.057e-09
 25.31048    -23.2 1.661e+04 8.465e-09
 25.31287    -23.5 1.582e+04 7.263e-09
 25.31769    -24.6 1.556e+04 6.375e-09
 25.33097    -25.9 1.534e+04 5.236e-09
 25.35180    -27.6 1.523e+04 4.524e-09
 25.37263    -29.4 1.544e+04 4.432e-09
 25.38445    -31.1 1.581e+04 5.033e-09
 25.39296    -29.5 1.485e+04 3.596e-09
 25.40198    -30.9 1.456e+04 3.213e-09
 25.41429    -31.9 1.489e+04 4.162e-09
 25.43512    -32.2 1.513e+04 5.330e-09
 25.45310    -32.0 1.525e+04 6.102e-09
 25.46352    -30.9 1.494e+04 5.352e-09
 25.47580    -30.2 1.515e+04 5.853e-09
 25.48622    -30.7 1.496e+04 5.451e-09
 25.49761    -30.0 1.486e+04 4.617e-09
 25.51843    -29.6 1.445e+04 3.086e-09
 25.53218    -29.9 1.395e+04 2.031e-09
 25.54259    -28.5 1.409e+04 2.231e-09
 25.57060    -28.7 1.339e+04 1.506e-09
 25.61236    -28.0 1.251e+04 8.859e-10
 25.64447    -26.1 1.208e+04 6.516e-10
 25.66530    -26.5 1.185e+04 5.211e-10
 25.68010    -24.5 1.182e+04 4.501e-10
 25.70093    -23.0 1.181e+04 4.898e-10
 25.73733    -21.0 1.175e+04 4.252e-10
 25.77899    -18.9 1.164e+04 3.620e-10
 25.81295    -16.7 1.149e+04 3.048e-10
 25.83054    -16.8 1.134e+04 2.829e-10
 25.83825    -15.3 1.142e+04 2.700e-10
 25.86231    -13.2 1.135e+04 2.127e-10
 25.90397    -11.2 1.131e+04 1.781e-10
 25.94562     -9.4 1.143e+04 1.500e-10
 25.97556     -7.8 1.131e+04 1.676e-10
 25.99053     -6.3 1.151e+04 1.702e-10
 26.00225     -6.5 1.118e+04 1.653e-10
 26.02894     -5.2 1.148e+04 2.116e-10
 26.07060     -4.5 1.193e+04 3.423e-10
 26.11226     -3.9 1.232e+04 6.648e-10
 26.13371     -2.5 1.221e+04 1.094e-09
 26.15052     -0.5 1.312e+04 1.561e-09
 26.17073     -0.9 1.275e+04 1.345e-09
 26.19557      0.4 1.260e+04 1.329e-09
 26.23723      2.0 1.191e+04 5.771e-10
 26.27103      0.3 1.220e+04 1.644e-10
 26.29176     -0.3 1.094e+04 8.073e-11
 26.31827     -5.2 1.499e+04 1.738e-10
 26.33920     -6.5 1.287e+04 1.776e-10
 26.36220    -10.9 1.196e+04 5.651e-10
 26.40386    -10.1 1.306e+04 1.000e-09
 26.42917     -9.4 1.340e+04 9.649e-10
 26.45000    -12.6 1.416e+04 1.453e-09
 26.48685    -11.5 1.337e+04 1.008e-09
 26.50768    -10.7 1.297e+04 8.614e-10
 26.52884     -9.8 1.250e+04 8.346e-10
 26.56649     -7.9 1.237e+04 8.568e-10
 26.58732     -9.3 1.245e+04 8.835e-10
 26.61215     -7.3 1.237e+04 8.598e-10
 26.65381     -5.6 1.240e+04 8.243e-10
 26.67615     -4.3 1.257e+04 8.177e-10
 26.69698     -3.0 1.247e+04 7.631e-10
 26.72463     -1.5 1.249e+04 8.008e-10
 26.74546     -2.9 1.250e+04 9.914e-10
 26.77878     -1.6 1.262e+04 1.060e-09
 26.82044     -0.5 1.296e+04 1.263e-09
 26.84463      0.6 1.347e+04 1.938e-09
 26.86530      2.2 1.343e+04 1.768e-09
 26.89309      1.0 1.340e+04 1.837e-09
 26.91398      1.1 1.345e+04 1.876e-09
 26.94532      0.4 1.367e+04 1.888e-09
 26.97656     -0.1 1.358e+04 1.786e-09
 26.99729     -0.4 1.345e+04 1.873e-09
 27.01291     -0.3 1.314e+04 1.917e-09
 27.02332      0.5 1.328e+04 1.824e-09
 27.03031      0.9 1.293e+04 1.730e-09
 27.04073      0.9 1.270e+04 1.532e-09
 27.05978      1.5 1.250e+04 1.251e-09
 27.08061      1.7 1.239e+04 9.910e-10
 27.09714      1.4 1.247e+04 7.810e-10
 27.10509      2.3 1.245e+04 8.235e-10
 27.10939      1.9 1.237e+04 7.080e-10
 27.12227      1.3 1.226e+04 6.332e-10
 27.14310      0.8 1.220e+04 6.693e-10
 27.16393      0.6 1.219e+04 8.004e-10
 27.17804      0.8 1.229e+04 1.016e-09
 27.18508      0.9 1.229e+04 9.311e-10
 27.19180      0.9 1.220e+04 9.129e-10
 27.20558      1.1 1.251e+04 1.211e-09
 27.22641      1.2 1.292e+04 1.613e-09
 27.24670      1.3 1.332e+04 2.082e-09
 27.25712      1.4 1.332e+04 2.093e-09
 27.26562      1.4 1.371e+04 2.638e-09
 27.27603      0.6 1.362e+04 2.587e-09
 27.28890      0.5 1.399e+04 3.190e-09
 27.30973      0.2 1.436e+04 3.710e-09
 27.32577     -0.3 1.467e+04 4.005e-09
 27.33619      0.1 1.457e+04 3.823e-09
 27.34986     -0.5 1.464e+04 3.872e-09
 27.36027     -1.2 1.422e+04 3.066e-09
 27.37222     -1.7 1.405e+04 2.738e-09
 27.39305     -2.3 1.387e+04 2.340e-09
 27.40485     -3.3 1.377e+04 1.970e-09
 27.41526     -2.7 1.373e+04 1.695e-09
 27.43409     -4.2 1.358e+04 1.537e-09
 27.44451     -5.9 1.299e+04 1.401e-09
 27.45553     -7.0 1.304e+04 1.551e-09
 27.47351     -6.5 1.329e+04 1.987e-09
 27.49443     -5.7 1.334e+04 1.993e-09
 27.51853     -5.1 1.353e+04 2.468e-09
 27.53935     -6.4 1.336e+04 2.239e-09
 27.57029     -5.5 1.344e+04 2.108e-09
 27.61102     -4.9 1.326e+04 1.853e-09
 27.63185     -4.0 1.315e+04 1.817e-09
 27.65360     -2.9 1.280e+04 1.490e-09
 27.68700     -1.5 1.242e+04 1.164e-09
 27.70783     -2.5 1.196e+04 7.646e-10
 27.73692     -0.9 1.178e+04 6.484e-10
 27.76916      0.7 1.170e+04 6.246e-10
 27.78999      1.8 1.161e+04 5.515e-10
 27.82023      3.5 1.169e+04 6.411e-10
 27.85548      5.4 1.184e+04 7.486e-10
 27.87631      4.9 1.180e+04 7.338e-10
 27.90355      6.7 1.193e+04 8.233e-10
 27.92731      8.5 1.191e+04 7.844e-10
 27.94814      9.5 1.208e+04 9.357e-10
 27.98687     11.2 1.207e+04 8.870e-10
 28.02395     12.7 1.200e+04 7.511e-10
 28.04478     12.0 1.181e+04 6.336e-10
 28.06462     13.2 1.169e+04 5.282e-10
 28.08545     14.0 1.205e+04 7.904e-10
 28.11184     15.1 1.194e+04 7.083e-10
 28.15350     16.3 1.184e+04 6.438e-10
 28.19243     17.6 1.178e+04 5.944e-10
 28.21326     16.7 1.157e+04 4.955e-10
 28.22277     18.0 1.151e+04 4.373e-10
 28.24360     18.3 1.170e+04 5.111e-10
 28.27847     19.3 1.162e+04 4.427e-10
 28.32013     20.4 1.154e+04 4.022e-10
 28.36008     21.6 1.151e+04 3.932e-10
 28.38003     21.5 1.155e+04 3.985e-10
 28.38173     20.7 1.125e+04 2.525e-10
 28.40345     22.2 1.120e+04 2.664e-10
 28.44511     23.9 1.118e+04 2.857e-10
 28.48676     25.7 1.120e+04 2.937e-10
 28.51823     27.4 1.123e+04 2.911e-10
 28.53906     27.8 1.120e+04 2.806e-10
 28.55021     29.5 1.122e+04 2.772e-10
 28.57103     28.6 1.124e+04 2.769e-10
 28.61174     30.2 1.127e+04 2.763e-10
 28.65340     31.8 1.131e+04 2.848e-10
 28.67638     33.2 1.141e+04 3.194e-10
 28.69720     34.2 1.142e+04 3.212e-10
 28.71868     35.5 1.156e+04 3.924e-10
 28.73951     33.9 1.149e+04 3.517e-10
 28.77837     35.1 1.161e+04 4.261e-10
 28.81369     36.1 1.175e+04 5.166e-10
 28.83452     37.2 1.174e+04 4.959e-10
 28.86169     37.9 1.199e+04 6.045e-10
 28.88716     37.9 1.224e+04 7.275e-10
 28.90798     35.3 1.196e+04 5.151e-10
 28.94500     34.8 1.209e+04 6.474e-10
 28.97184     34.3 1.211e+04 7.628e-10
 28.99267     34.7 1.236e+04 9.743e-10
 29.02832     34.1 1.228e+04 9.352e-10
 29.05563     33.7 1.199e+04 7.827e-10
 29.07646     32.2 1.169e+04 6.045e-10
 29.10915     31.9 1.147e+04 4.573e-10
 29.12998     31.8 1.142e+04 4.086e-10
 29.15329     31.4 1.114e+04 3.362e-10
 29.19495     31.6 1.106e+04 3.312e-10
 29.22411     32.2 1.104e+04 3.378e-10
 29.24493     31.3 1.115e+04 3.398e-10
 29.26730     31.9 1.113e+04 3.619e-10
 29.28813     32.5 1.119e+04 3.898e-10
 29.31992     33.1 1.124e+04 4.277e-10
 29.36158     33.6 1.136e+04 4.887e-10
 29.39258     33.6 1.168e+04 6.404e-10
 29.41341     32.4 1.173e+04 6.169e-10
 29.42544     31.6 1.236e+04 9.588e-10
 29.44627     31.3 1.275e+04 1.316e-09
 29.48656     29.9 1.361e+04 2.102e-09
 29.51770     27.9 1.418e+04 3.121e-09
 29.53843     27.1 1.422e+04 3.661e-09
 29.55926     26.6 1.409e+04 3.536e-09
 29.57128     26.1 1.369e+04 2.993e-09
 29.57468     25.2 1.344e+04 2.349e-09
 29.58359     24.3 1.337e+04 2.297e-09
 29.61153     23.3 1.236e+04 1.242e-09
 29.64173     22.7 1.156e+04 6.207e-10
 29.65205     22.4 1.145e+04 5.749e-10
 29.65551     22.1 1.140e+04 5.278e-10
 29.66593     21.6 1.123e+04 4.952e-10
 29.69475     20.9 1.073e+04 3.025e-10
 29.72090     20.7 1.031e+04 2.574e-10
 29.73476     20.8 1.028e+04 2.615e-10
 29.75036     20.7 1.031e+04 2.946e-10
 29.77816     21.6 1.042e+04 3.264e-10
 29.81982     22.5 1.071e+04 4.111e-10
 29.85097     22.6 1.074e+04 4.872e-10
 29.86844     22.7 1.078e+04 5.408e-10
 29.87895     22.9 1.072e+04 4.804e-10
 29.89262     22.9 1.090e+04 6.243e-10
 29.90823     22.9 1.117e+04 7.684e-10
 29.91864     22.7 1.132e+04 8.471e-10
 29.93418     22.6 1.161e+04 1.011e-09
 29.94751     22.3 1.183e+04 1.171e-09
 29.95793     22.4 1.173e+04 1.138e-09
 29.97584     22.2 1.191e+04 1.279e-09
 29.99246     21.8 1.204e+04 1.311e-09
 30.00288     21.4 1.236e+04 1.576e-09
 30.01617     20.7 1.238e+04 1.559e-09
 30.02659     21.3 1.229e+04 1.541e-09
 30.03833     20.7 1.222e+04 1.453e-09
 30.05916     20.1 1.211e+04 1.330e-09
 30.07670     19.4 1.203e+04 1.205e-09
 30.08711     19.0 1.226e+04 1.252e-09
 30.09524     18.1 1.215e+04 1.070e-09
 30.10566     18.9 1.192e+04 9.125e-10
 30.12164     18.2 1.177e+04 8.204e-10
 30.15299     17.0 1.171e+04 8.177e-10
 30.17451     16.6 1.155e+04 7.168e-10
 30.19534     18.3 1.107e+04 4.539e-10
 30.23496     18.0 1.102e+04 4.020e-10
 30.25579     17.5 1.085e+04 3.170e-10
 30.27806     17.7 1.079e+04 2.814e-10
 30.31183     18.0 1.065e+04 2.548e-10
 30.33266     19.4 1.055e+04 2.316e-10
 30.36137     19.6 1.057e+04 2.416e-10
 30.40303     19.3 1.082e+04 2.884e-10
 30.42416     18.0 1.117e+04 3.978e-10
 30.43448     17.9 1.131e+04 4.328e-10
 30.45491     16.6 1.138e+04 6.705e-10
 30.46978     16.7 1.144e+04 9.630e-10
 30.48019     17.2 1.156e+04 1.145e-09
 30.49657     17.4 1.153e+04 1.162e-09
 30.50830     17.7 1.132e+04 9.163e-10
 30.51872     17.7 1.144e+04 1.035e-09
 30.53822     17.5 1.127e+04 8.346e-10
 30.56957     16.9 1.083e+04 5.516e-10
 30.59274     16.4 1.026e+04 3.611e-10
 30.60953     15.8 1.024e+04 3.583e-10
 30.62812     16.3 9.992e+03 2.947e-10
 30.65298     16.6 9.763e+03 2.632e-10
 30.69464     17.6 9.772e+03 2.650e-10
 30.73630     18.8 9.791e+03 2.840e-10
 30.76121     19.8 9.961e+03 3.244e-10
 30.76952     19.4 9.960e+03 3.276e-10
 30.78626     20.5 9.763e+03 2.762e-10
 30.81961     21.5 9.995e+03 3.403e-10
 30.86127     22.5 1.022e+04 4.198e-10
 30.90275     23.3 1.033e+04 4.511e-10
 30.92951     25.7 1.021e+04 4.175e-10
 30.95051     25.6 1.012e+04 3.930e-10
 30.98624     26.8 1.003e+04 3.566e-10
 31.02790     28.2 9.829e+03 2.779e-10
 31.06090     29.8 9.652e+03 2.026e-10
 31.08172     31.2 9.637e+03 2.054e-10
 31.09816     32.7 9.503e+03 1.556e-10
 31.11899     32.9 9.456e+03 1.473e-10
 31.15288     34.5 9.352e+03 1.260e-10
 31.19453     36.4 9.316e+03 1.230e-10
 31.21904     38.5 9.333e+03 1.244e-10
 31.23987     39.7 9.227e+03 1.207e-10
 31.26664     41.7 9.266e+03 1.257e-10
 31.28746     42.1 9.186e+03 1.005e-10
 31.31951     44.1 9.253e+03 1.067e-10
 31.35636     46.0 9.350e+03 1.204e-10
 31.37719     47.2 9.212e+03 1.025e-10
 31.40282     49.0 9.318e+03 1.199e-10
 31.43511     50.9 9.434e+03 1.529e-10
 31.45594     51.4 9.312e+03 1.000e-10
 31.48614     53.2 9.408e+03 1.204e-10
 31.51450     55.1 9.480e+03 1.446e-10
 31.53533     56.2 9.369e+03 1.077e-10
 31.56946     58.1 9.390e+03 1.221e-10
 31.60359     60.0 9.369e+03 1.300e-10
 31.62441     60.4 9.323e+03 8.212e-11
 31.65182     62.4 9.306e+03 8.745e-11
 31.67265     63.7 9.239e+03 7.169e-11
 31.69443     65.7 9.230e+03 7.667e-11
 31.73609     67.9 9.212e+03 7.670e-11
 31.77206     70.0 9.198e+03 7.391e-11
 31.79289     70.4 9.186e+03 6.424e-11
 31.80996     72.6 9.188e+03 6.493e-11
 31.83079     74.0 9.193e+03 6.460e-11
 31.86106     76.2 9.206e+03 6.510e-11
 31.90272     78.4 9.229e+03 6.622e-11
 31.94054     80.6 9.267e+03 6.849e-11
 31.96137     81.1 9.276e+03 6.880e-11
 31.96811     83.3 9.325e+03 7.228e-11
 31.98894     84.6 9.327e+03 7.210e-11
 32.02769     86.8 9.362e+03 7.608e-11
 32.06935     89.0 9.369e+03 8.057e-11
 32.10543     91.2 9.326e+03 8.562e-11
 32.12426     92.5 9.312e+03 8.525e-11
 32.12984     92.9 9.378e+03 9.891e-11
 32.15267     95.0 9.233e+03 1.034e-10
 32.19433     97.0 9.148e+03 1.039e-10
 32.23598     99.0 8.975e+03 1.035e-10
 32.26357    101.1 8.831e+03 1.028e-10
 32.28424    102.4 8.809e+03 1.033e-10
 32.31914    104.6 8.754e+03 1.194e-10
 32.36096    106.8 8.734e+03 1.196e-10
 32.40089    109.1 8.718e+03 1.247e-10
 32.42172    110.4 8.711e+03 1.244e-10
 32.44427    112.8 8.717e+03 1.389e-10
 32.46679    115.2 8.843e+03 1.679e-10
 32.48762    115.0 9.224e+03 2.115e-10
 32.52759    117.4 9.483e+03 2.725e-10
 32.55903    119.5 9.679e+03 3.360e-10
 32.57986    121.1 9.649e+03 3.309e-10
 32.60039    121.9 9.822e+03 3.987e-10
 32.62112    123.0 1.002e+04 4.817e-10
 32.63507    124.3 1.029e+04 6.066e-10
 32.64144    124.1 1.062e+04 7.506e-10
 32.64832    125.0 1.064e+04 7.708e-10
 32.66278    126.4 1.100e+04 9.613e-10
 32.68361    127.9 1.140e+04 1.180e-09
 32.70444    129.4 1.180e+04 1.419e-09
 32.71698    130.8 1.224e+04 1.667e-09
 32.72143    131.7 1.239e+04 1.781e-09
 32.72972    130.8 1.292e+04 1.950e-09
 32.74610    132.2 1.318e+04 2.102e-09
 32.76693    133.7 1.346e+04 2.273e-09
 32.78564    135.1 1.374e+04 2.532e-09
 32.79605    136.1 1.428e+04 2.867e-09
 32.80355    137.6 1.454e+04 3.086e-09
 32.81396    135.9 1.473e+04 3.154e-09
 32.82941    137.3 1.519e+04 3.485e-09
 32.85024    138.4 1.582e+04 3.999e-09
 32.86471    138.5 1.733e+04 4.973e-09
 32.87513    140.0 1.779e+04 5.828e-09
 32.88778    139.2 2.080e+04 7.773e-09
 32.89815    133.5 2.348e+04 1.027e-08
 32.90415    132.2 2.467e+04 1.201e-08
 32.90936    132.1 2.551e+04 1.350e-08
 32.91784    130.1 2.719e+04 1.746e-08
 32.92825    128.3 2.844e+04 2.215e-08
 32.93501    126.2 2.926e+04 2.639e-08
 32.94003    118.8 2.872e+04 2.965e-08
 32.94369    118.9 2.897e+04 4.248e-08
 32.94908    115.8 2.937e+04 3.614e-08
 32.95950    111.9 2.931e+04 2.881e-08
 32.96991    107.6 2.835e+04 2.226e-08
 32.97713    103.0 2.657e+04 1.710e-08
 32.98003     97.2 2.221e+04 1.285e-08
 32.98322     96.7 2.226e+04 1.293e-08
 32.99600     89.0 1.862e+04 9.556e-09
 33.01244     84.8 1.741e+04 9.220e-09
 33.02286     83.1 1.723e+04 8.867e-09
 33.03770     78.5 1.795e+04 9.766e-09
 33.05626     70.7 2.039e+04 1.402e-08
 33.06667     68.3 1.955e+04 1.106e-08
 33.07936     60.1 2.136e+04 1.652e-08
 33.09152     51.6 2.191e+04 1.749e-08
 33.10193     51.0 2.096e+04 1.455e-08
 33.12102     43.7 2.043e+04 1.171e-08
 33.14050     37.1 1.856e+04 6.086e-09
 33.15091     38.2 1.795e+04 6.317e-09
 33.16017     32.3 1.526e+04 2.551e-09
 33.17059     32.4 1.429e+04 2.021e-09
 33.19402     26.7 1.137e+04 7.138e-10
 33.23578     20.8 8.174e+03 1.759e-10
 33.27743     20.1 8.031e+03 1.231e-10
 33.30810     21.2 7.951e+03 1.220e-10
 33.31900     21.7 7.905e+03 1.035e-10
 33.32999     24.6 7.863e+03 9.737e-11
 33.36075     25.8 7.843e+03 1.047e-10
 33.40241     27.5 7.933e+03 1.230e-10
 33.44407     29.7 8.125e+03 1.496e-10
 33.46625     32.0 8.343e+03 1.660e-10
 33.47899     32.6 8.558e+03 1.991e-10
 33.49847     34.0 8.507e+03 1.901e-10
 33.52738     36.2 8.612e+03 1.935e-10
 33.56904     38.4 8.618e+03 1.883e-10
 33.60356     40.5 8.601e+03 1.719e-10
 33.62439     41.2 8.648e+03 1.678e-10
 33.64612     43.3 8.584e+03 1.388e-10
 33.66694     44.0 8.552e+03 1.326e-10
 33.69401     46.0 8.581e+03 1.251e-10
 33.73567     48.0 8.629e+03 1.282e-10
 33.76171     49.9 8.787e+03 1.423e-10
 33.78254     50.7 8.645e+03 1.226e-10
 33.81459     52.6 8.819e+03 1.404e-10
 33.83542     53.1 8.915e+03 1.535e-10
 33.86065     54.8 9.328e+03 2.024e-10
 33.89179     55.5 9.389e+03 2.204e-10
 33.90905     56.1 9.434e+03 2.384e-10
 33.91618     56.1 9.527e+03 2.484e-10
 33.91966     56.9 9.507e+03 2.398e-10
 33.93335     57.0 9.668e+03 2.677e-10
 33.95418     56.3 1.028e+04 3.545e-10
 33.97501     52.4 1.186e+04 7.540e-10
 33.98831     47.7 1.417e+04 2.398e-09
 33.99618     47.2 1.437e+04 2.551e-09
 34.00370     47.1 1.463e+04 3.002e-09
 34.01667     45.8 1.593e+04 7.162e-09
 34.03750     45.4 1.669e+04 1.010e-08
 34.05697     44.6 1.675e+04 9.755e-09
 34.06739     45.1 1.551e+04 5.347e-09
 34.07752     43.7 1.494e+04 3.239e-09
 34.08794     43.6 1.452e+04 2.441e-09
 34.09998     39.0 1.330e+04 1.084e-09
 34.12081     33.7 1.089e+04 5.410e-10
 34.13605     31.4 9.572e+03 4.424e-10
 34.14646     30.6 8.942e+03 3.019e-10
 34.16176     30.6 9.039e+03 3.245e-10
 34.17217     31.1 8.938e+03 2.983e-10
 34.18330     30.5 9.539e+03 3.876e-10
 34.20413     27.8 1.108e+04 7.671e-10
 34.21512     23.5 1.342e+04 2.163e-09
 34.22553     24.0 1.264e+04 1.686e-09
 34.24579     22.0 1.493e+04 4.886e-09
 34.25641     22.8 1.650e+04 1.053e-08
 34.26683     24.0 1.637e+04 1.109e-08
 34.28378     24.2 1.741e+04 1.388e-08
 34.29419     24.2 1.733e+04 1.497e-08
 34.30827     22.9 1.840e+04 1.517e-08
 34.32910     19.4 1.858e+04 1.343e-08
 34.34065     15.3 1.741e+04 9.411e-09
 34.35106     15.3 1.697e+04 7.385e-09
 34.36285     12.3 1.473e+04 5.037e-09
 34.37326     13.5 1.535e+04 5.984e-09
 34.39159     12.3 1.376e+04 4.120e-09
 34.41242     12.0 1.294e+04 2.778e-09
 34.42489     11.3 1.242e+04 1.866e-09
 34.43356     11.4 1.212e+04 1.719e-09
 34.44192     11.7 1.210e+04 1.676e-09
 34.45408     10.9 1.150e+04 1.160e-09
 34.48542      8.8 1.098e+04 7.559e-10
 34.50932      7.9 1.059e+04 6.458e-10
 34.51375      8.5 1.040e+04 6.051e-10
 34.53160      8.0 1.072e+04 7.465e-10
 34.56883      7.3 1.102e+04 9.000e-10
 34.61049      7.7 1.136e+04 1.110e-09
 34.64809      8.8 1.149e+04 1.216e-09
 34.66892      9.0 1.108e+04 9.205e-10
 34.67780     10.3 1.073e+04 6.610e-10
 34.69862     10.6 1.048e+04 5.001e-10
 34.73546     11.0 1.030e+04 3.115e-10
 34.77712     11.7 1.004e+04 2.617e-10
 34.80624     13.3 9.917e+03 2.560e-10
 34.82707     13.3 9.720e+03 2.134e-10
 34.84627     15.3 9.747e+03 2.345e-10
 34.86710     15.1 9.545e+03 1.621e-10
 34.90210     17.3 9.499e+03 1.566e-10
 34.94355     19.6 9.413e+03 1.350e-10
 34.96438     20.1 9.452e+03 1.661e-10
 34.98541     22.5 9.376e+03 1.231e-10
 35.01475     24.8 9.279e+03 7.964e-11
 35.03557     23.9 9.023e+03 7.348e-11
 35.06873     25.9 9.039e+03 5.343e-11
 35.10170     27.7 9.002e+03 4.097e-11
 35.12253     28.4 9.139e+03 5.112e-11
 35.15204     30.4 9.170e+03 4.330e-11
 35.18322     32.3 9.176e+03 4.403e-11
 35.20405     31.9 9.324e+03 6.511e-11
 35.23536     33.3 9.453e+03 7.089e-11
 35.25984     34.3 9.639e+03 9.944e-11
 35.28067     35.4 9.886e+03 1.321e-10
 35.31868     36.4 1.001e+04 1.814e-10
 35.35170     37.2 1.021e+04 2.742e-10
 35.37252     36.9 1.065e+04 4.297e-10
 35.39716     37.6 1.095e+04 5.819e-10
 35.41799     39.0 1.115e+04 6.158e-10
 35.43314     39.1 1.131e+04 7.182e-10
 35.44615     39.2 1.144e+04 8.061e-10
 35.45657     38.8 1.160e+04 8.797e-10
 35.47470     38.3 1.209e+04 1.141e-09
 35.48645     36.7 1.281e+04 1.749e-09
 35.49687     37.3 1.309e+04 1.790e-09
 35.51636     35.9 1.404e+04 3.288e-09
 35.53039     35.9 1.511e+04 6.011e-09
 35.54080     35.1 1.578e+04 6.579e-09
 35.55511     34.8 1.637e+04 8.503e-09
 35.56552     34.4 1.746e+04 9.493e-09
 35.57884     34.2 1.735e+04 9.007e-09
 35.59967     34.4 1.649e+04 6.820e-09
 35.61463     34.3 1.521e+04 4.165e-09
 35.62504     33.4 1.487e+04 3.762e-09
 35.63418     32.3 1.364e+04 1.946e-09
 35.64460     31.6 1.356e+04 1.723e-09
 35.66216     29.2 1.263e+04 9.700e-10
 35.68299     27.8 1.191e+04 7.063e-10
 35.69887     27.7 1.161e+04 6.015e-10
 35.70830     26.9 1.139e+04 5.945e-10
 35.71325     26.3 1.139e+04 6.997e-10
 35.72465     27.0 1.138e+04 6.930e-10
 35.74548     27.5 1.146e+04 7.120e-10
 35.76630     27.7 1.166e+04 7.705e-10
 35.78191     27.9 1.190e+04 8.664e-10
 35.78830     27.5 1.196e+04 1.097e-09
 35.79352     27.0 1.237e+04 1.449e-09
 35.80796     27.3 1.255e+04 1.672e-09
 35.82879     27.8 1.276e+04 1.949e-09
 35.84962     28.4 1.306e+04 2.246e-09
 35.86099     29.0 1.337e+04 2.503e-09
 35.86829     29.1 1.324e+04 2.521e-09
 35.87775     28.2 1.479e+04 4.298e-09
 35.89128     28.8 1.493e+04 4.485e-09
 35.91211     29.1 1.491e+04 4.416e-09
 35.92964     29.0 1.494e+04 4.163e-09
 35.94006     28.8 1.460e+04 3.296e-09
 35.95158     28.2 1.460e+04 3.403e-09
 35.96199     27.4 1.541e+04 5.548e-09
 35.97459     26.8 1.564e+04 5.800e-09
 35.99542     25.7 1.631e+04 6.280e-09
 36.00872     23.9 1.733e+04 7.275e-09
 36.01913     25.2 1.652e+04 6.601e-09
 36.03582     23.8 1.750e+04 8.055e-09
 36.04623     23.7 1.864e+04 8.597e-09
 36.05791     21.8 1.861e+04 9.763e-09
 36.07737     20.3 1.796e+04 9.964e-09
 36.08779     21.8 1.772e+04 8.675e-09
 36.09957     20.8 1.690e+04 8.439e-09
 36.12005     20.8 1.623e+04 7.829e-09
 36.13047     20.8 1.628e+04 9.150e-09
 36.14123     21.4 1.574e+04 8.101e-09
 36.15645     22.0 1.515e+04 6.542e-09
 36.16686     22.4 1.478e+04 6.439e-09
 36.18288     22.9 1.434e+04 5.110e-09
 36.20371     23.0 1.404e+04 4.023e-09
 36.21470     22.7 1.372e+04 3.352e-09
 36.22512     23.3 1.358e+04 3.700e-09
 36.23552     23.4 1.334e+04 3.542e-09
 36.24593     24.3 1.299e+04 2.844e-09
 36.26620     24.6 1.300e+04 2.672e-09
 36.28703     25.0 1.299e+04 2.551e-09
 36.29894     25.7 1.302e+04 2.380e-09
 36.30568     25.4 1.268e+04 2.929e-09
 36.31459     25.3 1.231e+04 2.313e-09
 36.32869     25.8 1.254e+04 2.381e-09
 36.34952     26.7 1.258e+04 2.337e-09
 36.37035     28.4 1.262e+04 2.100e-09
 36.38328     28.4 1.233e+04 1.080e-09
 36.39369     29.1 1.258e+04 2.670e-09
 36.41200     30.2 1.278e+04 2.283e-09
 36.43283     30.6 1.291e+04 1.755e-09
 36.45191     30.8 1.286e+04 1.325e-09
 36.46232     31.0 1.232e+04 1.162e-09
 36.46742     31.0 1.200e+04 9.080e-10
 36.47783     32.0 1.270e+04 1.767e-09
 36.49532     32.0 1.253e+04 1.450e-09
 36.51615     32.3 1.209e+04 1.190e-09
 36.53098     32.7 1.149e+04 9.787e-10
 36.54140     33.0 1.129e+04 8.799e-10
 36.55165     33.3 1.094e+04 7.419e-10
 36.56207     33.7 1.277e+04 1.633e-09
 36.57864     33.6 1.282e+04 1.370e-09
 36.59946     33.2 1.297e+04 1.319e-09
 36.61005     31.8 1.341e+04 1.401e-09
 36.62047     32.6 1.305e+04 1.185e-09
 36.63589     30.9 1.360e+04 1.431e-09
 36.64631     31.3 1.524e+04 2.594e-09
 36.66195     29.7 1.542e+04 3.036e-09
 36.67871     29.3 1.540e+04 3.917e-09
 36.68913     30.1 1.459e+04 2.430e-09
 36.70361     29.6 1.428e+04 2.939e-09
 36.72013     29.6 1.384e+04 3.252e-09
 36.73054     30.2 1.366e+04 2.996e-09
 36.74527     29.8 1.332e+04 2.997e-09
 36.75778     29.5 1.307e+04 2.855e-09
 36.76820     30.0 1.266e+04 2.444e-09
 36.78693     30.2 1.279e+04 2.558e-09
 36.80437     30.5 1.282e+04 2.492e-09
 36.81478     30.2 1.271e+04 2.106e-09
 36.82644     30.5 1.275e+04 2.066e-09
 36.83686     31.8 1.279e+04 2.065e-09
 36.85992     31.5 1.275e+04 1.890e-09
 36.88880     31.9 1.257e+04 1.428e-09
 36.90324     31.2 1.219e+04 1.336e-09
 36.91603     33.3 1.218e+04 1.383e-09
 36.93273     33.8 1.205e+04 1.322e-09
 36.95356     34.4 1.202e+04 1.231e-09
 36.97284     34.8 1.218e+04 1.221e-09
 36.98304     34.5 1.209e+04 1.202e-09
 36.98459     35.9 1.174e+04 1.205e-09
 36.99522     36.2 1.202e+04 1.269e-09
 37.01604     36.1 1.267e+04 1.494e-09
 37.03687     34.6 1.400e+04 2.232e-09
 37.05325     32.6 1.534e+04 3.761e-09
 37.06304     32.4 1.632e+04 5.820e-09
 37.06749     32.9 1.527e+04 4.747e-09
 37.07853     32.1 1.631e+04 9.912e-09
 37.09936     32.8 1.669e+04 1.477e-08
 37.12019     33.9 1.639e+04 1.405e-08
 37.13232     35.6 1.548e+04 1.028e-08
 37.14273     37.0 1.660e+04 1.598e-08
 37.15173     38.7 1.519e+04 7.423e-09
 37.16215     38.4 1.448e+04 5.649e-09
 37.18268     37.9 1.349e+04 2.509e-09
 37.20098     37.3 1.235e+04 1.091e-09
 37.21139     37.3 1.262e+04 1.053e-09
 37.22433     35.7 1.189e+04 6.009e-10
 37.23597     35.5 1.147e+04 4.562e-10
 37.24638     35.3 1.161e+04 6.212e-10
 37.26599     35.9 1.111e+04 5.356e-10
 37.28005     37.0 1.073e+04 4.821e-10
 37.29046     37.2 1.112e+04 5.075e-10
 37.30765     38.4 1.110e+04 4.826e-10
 37.32021     39.5 1.111e+04 4.727e-10
 37.33062     38.7 1.192e+04 8.430e-10
 37.34871     39.9 1.197e+04 8.820e-10
 37.35912     39.7 1.271e+04 1.020e-09
 37.37014     41.1 1.286e+04 1.036e-09
 37.39097     42.5 1.307e+04 1.047e-09
 37.40444     43.9 1.317e+04 1.043e-09
 37.41486     43.3 1.294e+04 2.452e-09
 37.42778     45.0 1.288e+04 2.265e-09
 37.43819     45.3 1.315e+04 2.363e-09
 37.45345     46.9 1.324e+04 2.052e-09
 37.47428     48.1 1.347e+04 1.773e-09
 37.48868     49.1 1.358e+04 1.529e-09
 37.49910     48.9 1.280e+04 2.844e-09
 37.50685     50.0 1.257e+04 2.501e-09
 37.51727     49.9 1.237e+04 2.243e-09
 37.53677     51.3 1.234e+04 2.227e-09
 37.55760     52.7 1.242e+04 2.262e-09
 37.57292     53.8 1.242e+04 2.264e-09
 37.58042     53.9 1.261e+04 2.431e-09
 37.58592     54.1 1.261e+04 2.308e-09
 37.59926     55.5 1.248e+04 2.228e-09
 37.62009     57.2 1.257e+04 2.176e-09
 37.64091     58.5 1.266e+04 2.153e-09
 37.65458     59.6 1.269e+04 2.059e-09
 37.66041     60.0 1.243e+04 1.808e-09
 37.66757     59.9 1.280e+04 1.724e-09
 37.68257     61.2 1.276e+04 1.626e-09
 37.70340     62.5 1.280e+04 1.542e-09
 37.72324     63.6 1.289e+04 1.473e-09
 37.73366     63.8 1.288e+04 1.401e-09
 37.74140     64.8 1.298e+04 1.330e-09
 37.75181     64.5 1.268e+04 1.372e-09
 37.76589     65.4 1.263e+04 1.399e-09
 37.78672     66.4 1.258e+04 1.491e-09
 37.80231     67.2 1.277e+04 1.689e-09
 37.81273     67.9 1.325e+04 1.660e-09
 37.82563     68.6 1.363e+04 1.866e-09
 37.83605     68.3 1.257e+04 2.195e-09
 37.84920     68.9 1.293e+04 2.861e-09
 37.87003     69.7 1.347e+04 3.745e-09
 37.88139     70.7 1.420e+04 4.672e-09
 37.89180     71.2 1.490e+04 4.280e-09
 37.90987     71.5 1.571e+04 4.463e-09
 37.92028     71.8 1.467e+04 6.818e-09
 37.93252     72.0 1.477e+04 6.778e-09
 37.95004     72.5 1.482e+04 6.082e-09
 37.96046     73.7 1.535e+04 5.810e-09
 37.97418     73.7 1.542e+04 4.081e-09
 37.99411     73.2 1.550e+04 2.566e-09
 38.00452     72.9 1.404e+04 4.016e-09
 38.01584     72.0 1.378e+04 2.559e-09
 38.02912     70.4 1.358e+04 1.671e-09
 38.03953     69.7 1.437e+04 1.481e-09
 38.05749     68.1 1.339e+04 1.089e-09
 38.07832     67.2 1.268e+04 8.761e-10
 38.09777     66.4 1.296e+04 1.048e-09
 38.10819     66.1 1.226e+04 1.120e-09
 38.11998     66.5 1.131e+04 7.622e-10
 38.15132     67.2 1.012e+04 4.649e-10
 38.19308     67.6 8.922e+03 2.470e-10
 38.23474     68.6 8.809e+03 2.192e-10
 38.25612     70.0 8.798e+03 2.206e-10
 38.25798     69.3 8.876e+03 1.988e-10
 38.27826     68.2 8.612e+03 2.097e-10
 38.31805     69.9 8.440e+03 1.874e-10
 38.35971     71.5 8.497e+03 1.827e-10
 38.39343     72.7 8.574e+03 1.838e-10
 38.41426     71.9 8.522e+03 1.651e-10
 38.42591     72.7 8.519e+03 1.657e-10
 38.44673     70.9 8.349e+03 1.587e-10
 38.48468     71.8 8.355e+03 1.648e-10
 38.52634     72.6 8.429e+03 1.785e-10
 38.55158     73.2 8.596e+03 1.985e-10
 38.57241     73.0 8.445e+03 1.870e-10
 38.59438     73.1 8.717e+03 2.146e-10
 38.61521     72.6 8.744e+03 2.333e-10
 38.65132     72.2 9.122e+03 2.802e-10
 38.68889     71.8 9.388e+03 3.220e-10
 38.70962     71.4 9.541e+03 3.392e-10
 38.72402     70.5 9.884e+03 4.098e-10
 38.74485     69.0 1.048e+04 5.617e-10
 38.76266     67.0 1.127e+04 8.566e-10
 38.77307     66.6 1.142e+04 9.451e-10
 38.77818     64.6 1.215e+04 1.436e-09
 38.78860     63.7 1.230e+04 1.606e-09
 38.80734     62.3 1.277e+04 2.342e-09
 38.82817     61.5 1.315e+04 3.172e-09
 38.84684     60.9 1.353e+04 3.828e-09
 38.85726     61.1 1.315e+04 2.930e-09
 38.86983     60.0 1.320e+04 2.910e-09
 38.89065     58.5 1.327e+04 2.775e-09
 38.91148     56.5 1.330e+04 2.528e-09
 38.92592     54.1 1.321e+04 2.334e-09
 38.93515     52.6 1.263e+04 1.967e-09
 38.94155     52.5 1.163e+04 1.290e-09
 38.95314     50.7 1.150e+04 1.291e-09
 38.98426     49.3 1.149e+04 1.319e-09
 39.00518     48.8 1.075e+04 9.896e-10
 39.02624     47.5 1.019e+04 7.670e-10
 39.06790     46.1 9.510e+03 4.561e-10
 39.09981     44.3 8.783e+03 2.458e-10
 39.12063     45.0 9.335e+03 3.292e-10
 39.14250     43.6 8.753e+03 2.238e-10
 39.16333     43.1 8.901e+03 2.944e-10
 39.19287     43.2 8.895e+03 3.071e-10
 39.23453     43.9 9.040e+03 3.657e-10
 39.26828     44.8 9.253e+03 4.162e-10
 39.28911     45.1 9.027e+03 2.784e-10
 39.30064     46.3 9.101e+03 2.727e-10
 39.32147     46.0 9.102e+03 2.495e-10
 39.34899     46.3 9.081e+03 2.409e-10
 39.36274     46.6 9.101e+03 2.332e-10
 39.37254     46.7 8.869e+03 2.106e-10
 39.37952     46.5 8.801e+03 1.938e-10
 39.39055     46.6 8.795e+03 1.857e-10
 39.41138     46.7 8.841e+03 1.894e-10
 39.43221     46.8 8.947e+03 2.050e-10
 39.44697     47.0 9.234e+03 2.437e-10
 39.45263     47.8 8.983e+03 2.238e-10
 39.45879     47.2 8.758e+03 1.862e-10
 39.48448     48.2 9.095e+03 2.469e-10
 39.52613     49.1 1.017e+04 3.867e-10
 39.55728     49.5 1.014e+04 4.338e-10
 39.57801     49.5 1.054e+04 5.032e-10
 39.59591     48.9 1.151e+04 6.835e-10
 39.60633     47.8 1.240e+04 9.364e-10
 39.61545     47.3 1.323e+04 1.485e-09
 39.62586     48.1 1.166e+04 6.021e-10
 39.64050     47.5 1.228e+04 8.791e-10
 39.66133     47.0 1.255e+04 1.212e-09
 39.67498     46.7 1.258e+04 1.512e-09
 39.68540     46.2 1.282e+04 1.853e-09
 39.69969     46.2 1.264e+04 1.803e-09
 39.71010     46.5 1.208e+04 1.534e-09
 39.72381     46.6 1.207e+04 1.522e-09
 39.74364     46.8 1.198e+04 1.420e-09
 39.75406     46.7 1.199e+04 1.393e-09
 39.76547     46.9 1.182e+04 1.117e-09
 39.78393     46.9 1.166e+04 8.467e-10
 39.79434     47.9 1.178e+04 1.042e-09
 39.80713     48.0 1.161e+04 8.029e-10
 39.82271     48.0 1.142e+04 5.845e-10
 39.83313     47.8 1.136e+04 5.558e-10
 39.85930     48.3 1.123e+04 4.208e-10
 39.89157     48.1 1.084e+04 2.667e-10
 39.91240     48.1 1.052e+04 2.520e-10
 39.94218     48.4 1.048e+04 2.534e-10
 39.96301     49.7 1.073e+04 2.441e-10
 39.98437     49.9 1.073e+04 2.542e-10
 40.02603     50.3 1.073e+04 3.106e-10
 40.04971     50.8 1.071e+04 3.691e-10
 40.07054     51.3 1.068e+04 3.741e-10
 40.10935     51.9 1.062e+04 3.600e-10
 40.13148     52.6 1.044e+04 3.154e-10
 40.15231     53.0 1.059e+04 3.900e-10
 40.18703     54.0 1.028e+04 2.843e-10
 40.20786     54.5 1.019e+04 2.461e-10
 40.23432     55.6 9.939e+03 1.625e-10
 40.27598     56.7 9.780e+03 1.005e-10
 40.29996     57.6 9.715e+03 6.398e-11
 40.32079     57.4 9.763e+03 6.922e-11
 40.34517     58.4 9.528e+03 5.835e-11
 40.36600     59.2 9.545e+03 8.184e-11
 40.40095     60.8 9.489e+03 7.980e-11
 40.44261     62.6 9.480e+03 7.906e-11
 40.46844     64.5 9.477e+03 7.831e-11
 40.48749     64.8 9.490e+03 1.197e-10
 40.50332     65.7 9.507e+03 1.529e-10
 40.52593     67.8 9.472e+03 1.446e-10
 40.56758     69.9 9.405e+03 1.241e-10
 40.60924     72.0 9.322e+03 9.846e-11
 40.63691     74.1 9.240e+03 7.809e-11
 40.64747     74.7 9.083e+03 6.773e-11
 40.66146     75.6 9.063e+03 8.738e-11
 40.69256     77.7 8.969e+03 6.567e-11
 40.73422     79.8 8.860e+03 5.621e-11
 40.77587     82.1 8.808e+03 5.551e-11
 40.79878     84.6 8.801e+03 5.582e-11
 40.80746     85.4 8.823e+03 5.811e-11
 40.82621     85.8 8.848e+03 3.857e-11
 40.85919     88.3 8.798e+03 4.173e-11
 40.90085     90.9 8.772e+03 4.674e-11
 40.93610     93.5 8.761e+03 5.183e-11
 40.95693     94.3 8.704e+03 5.064e-11
 40.97386     97.0 8.706e+03 5.469e-11
 40.99469     97.5 8.721e+03 5.152e-11
 41.02582    100.3 8.730e+03 5.789e-11
 41.06748    103.0 8.748e+03 6.279e-11
 41.09424    105.7 8.766e+03 6.631e-11
 41.11507    106.5 8.673e+03 6.143e-11
 41.14234    109.3 8.687e+03 6.567e-11
 41.16316    109.9 8.745e+03 7.410e-11
 41.19246    112.6 8.761e+03 8.038e-11
 41.23156    115.4 8.787e+03 8.556e-11
 41.25239    116.2 8.805e+03 7.083e-11
 41.27577    118.9 8.842e+03 7.550e-11
 41.31081    121.7 8.893e+03 7.897e-11
 41.33164    122.1 8.995e+03 7.917e-11
 41.35909    124.9 9.009e+03 8.045e-11
 41.38970    127.6 9.023e+03 8.140e-11
 41.41053    128.3 9.021e+03 7.193e-11
 41.44240    131.1 9.045e+03 7.592e-11
 41.47929    134.0 9.076e+03 8.001e-11
 41.50011    134.4 9.130e+03 7.312e-11
 41.52572    137.2 9.164e+03 7.621e-11
 41.54785    140.2 9.205e+03 7.957e-11
 41.56868    140.8 9.239e+03 8.317e-11
 41.60904    143.7 9.287e+03 8.995e-11
 41.64776    146.7 9.354e+03 9.772e-11
 41.66859    147.0 9.304e+03 9.443e-11
 41.68517    150.0 9.391e+03 1.033e-10
 41.70599    150.7 9.461e+03 1.261e-10
 41.73401    153.7 9.561e+03 1.452e-10
 41.77567    156.8 9.694e+03 1.701e-10
 41.81624    159.9 9.857e+03 2.002e-10
 41.83706    160.2 9.841e+03 2.004e-10
 41.84331    163.3 1.003e+04 2.340e-10
 41.86414    164.0 1.027e+04 2.792e-10
 41.90064    167.1 1.057e+04 3.296e-10
 41.94230    169.9 1.077e+04 3.749e-10
 41.97344    171.2 1.077e+04 3.965e-10
 41.99085    172.7 1.073e+04 4.287e-10
 42.00126    173.6 1.078e+04 5.308e-10
 42.00534    175.5 1.094e+04 6.008e-10
 42.01576    175.4 1.078e+04 5.823e-10
 42.03583    177.2 1.094e+04 6.549e-10
 42.05666    179.0 1.114e+04 7.222e-10
 42.06992    180.6 1.135e+04 8.020e-10
 42.08033    180.5 1.161e+04 9.527e-10
 42.08958    181.9 1.184e+04 1.088e-09
 42.10000    181.9 1.183e+04 1.078e-09
 42.11915    183.2 1.209e+04 1.271e-09
 42.13858    184.6 1.240e+04 1.531e-09
 42.14899    184.3 1.275e+04 1.904e-09
 42.16081    185.6 1.316e+04 2.411e-09
 42.17382    187.0 1.370e+04 3.138e-09
 42.18423    186.7 1.368e+04 3.124e-09
 42.20247    187.8 1.428e+04 4.204e-09
 42.21765    189.0 1.494e+04 5.644e-09
 42.22806    189.2 1.518e+04 6.369e-09
 42.24412    190.3 1.594e+04 7.023e-09
 42.25806    191.0 1.612e+04 6.969e-09
 42.26847    191.6 1.640e+04 9.432e-09
 42.28578    192.1 1.659e+04 9.415e-09
 42.29672    192.5 1.664e+04 8.708e-09
 42.30714    192.2 1.653e+04 5.818e-09
 42.32744    192.4 1.621e+04 4.162e-09
 42.34229    192.3 1.560e+04 2.742e-09
 42.35271    192.5 1.631e+04 4.027e-09
 42.36538    192.3 1.549e+04 2.518e-09
 42.37579    189.5 1.380e+04 1.559e-09
 42.38993    189.1 1.287e+04 1.208e-09
 42.41076    189.1 1.270e+04 1.157e-09
 42.42653    189.9 1.273e+04 1.169e-09
 42.43695    188.6 1.279e+04 1.530e-09
 42.44445    188.7 1.343e+04 1.824e-09
 42.45487    187.5 1.389e+04 2.264e-09
 42.47324    187.0 1.478e+04 2.776e-09
 42.48394    184.6 1.733e+04 4.249e-09
 42.48910    183.8 1.779e+04 4.727e-09
 42.49918    181.8 1.975e+04 7.320e-09
 42.50960    180.7 2.100e+04 1.136e-08
 42.51588    180.0 2.153e+04 1.681e-08
 42.51930    179.1 2.075e+04 2.625e-08
 42.52343    179.1 2.075e+04 2.727e-08
 42.53043    179.8 2.075e+04 3.385e-08
 42.54084    180.4 2.086e+04 3.938e-08
 42.55125    181.1 2.103e+04 4.304e-08
 42.55776    181.9 2.113e+04 4.481e-08
 42.55929    181.4 2.139e+04 4.308e-08
 42.56321    181.0 2.111e+04 3.154e-08
 42.57208    181.3 2.119e+04 2.623e-08
 42.58250    181.4 2.128e+04 1.992e-08
 42.59209    181.2 2.152e+04 1.501e-08
 42.59729    180.3 2.160e+04 1.457e-08
 42.60012    180.0 2.198e+04 1.008e-08
 42.60537    177.0 2.290e+04 2.268e-09
 42.61905    174.1 2.402e+04 7.840e-10
 42.63988    170.1 2.144e+04 3.573e-10
 42.66070    166.9 1.493e+04 2.575e-10
 42.67126    165.7 1.072e+04 2.637e-10
 42.67938    166.8 1.285e+04 2.896e-10
 42.70017    165.2 9.576e+03 2.018e-10
 42.72329    167.1 9.566e+03 2.220e-10
 42.73991    168.7 9.754e+03 2.465e-10
 42.75033    168.1 1.006e+04 3.003e-10
 42.76348    169.5 1.024e+04 3.265e-10
 42.77390    167.9 9.908e+03 2.819e-10
 42.78568    169.2 1.007e+04 3.090e-10
 42.80651    170.6 1.036e+04 3.454e-10
 42.81899    172.0 1.057e+04 3.776e-10
 42.82940    171.1 1.066e+04 3.939e-10
 42.84772    172.5 1.096e+04 4.322e-10
 42.86865    171.8 1.075e+04 3.646e-10
 42.88784    173.2 1.129e+04 3.783e-10
 42.89816    169.9 1.101e+04 3.980e-10
 42.91065    171.1 1.115e+04 4.262e-10
 42.93148    171.9 1.126e+04 4.622e-10
 42.94237    171.9 1.141e+04 4.851e-10
 42.95279    168.7 1.105e+04 3.532e-10
 42.96672    168.0 1.122e+04 3.487e-10
 42.97713    166.6 1.128e+04 3.631e-10
 42.99397    165.5 1.135e+04 3.602e-10
 43.01480    163.9 1.142e+04 3.644e-10
 43.02661    161.5 1.155e+04 3.925e-10
 43.03677    160.8 1.115e+04 3.076e-10
 43.04579    158.7 1.094e+04 3.138e-10
 43.05646    155.6 1.142e+04 3.951e-10
 43.07728    152.1 1.234e+04 5.312e-10
 43.09286    149.2 1.565e+04 6.288e-10
 43.10322    133.4 3.888e+04 1.073e-09
 43.11073    119.8 5.312e+04 2.013e-09
 43.11593    113.2 4.749e+04 3.844e-09
 43.11953     93.8 4.162e+04 4.712e-08
 43.12211     97.2 4.673e+04 2.604e-08
 43.12661     78.4 2.672e+04 9.305e-07
 43.13176     64.2 1.921e+04 8.873e-06
 43.13436     64.8 2.151e+04 3.247e-06
 43.13667     54.9 1.878e+04 9.111e-06
 43.13928     59.4 1.818e+04 1.418e-05
 43.14223     54.4 1.707e+04 2.372e-05
 43.14744     53.9 1.693e+04 2.368e-05
 43.15264     54.9 1.694e+04 1.961e-05
 43.15542     56.9 1.725e+04 1.259e-05
 43.15662     54.4 1.854e+04 4.253e-06
 43.15905     58.0 1.786e+04 7.504e-06
 43.16306     60.3 1.819e+04 4.395e-06
 43.16826     62.1 1.887e+04 2.105e-06
 43.17610     63.2 2.048e+04 5.920e-07
 43.18654     62.4 3.280e+04 3.319e-08
 43.19347     43.3 8.378e+04 4.062e-10
 43.19676     55.1 6.411e+04 1.961e-09
 43.20024     63.4 4.437e+04 8.061e-09
 43.20737     53.9 7.786e+04 1.318e-10
 43.22304     36.0 5.254e+04 5.453e-10
 43.24392     12.3 1.597e+04 9.525e-11
 43.27526     16.5 9.135e+03 2.498e-10
 43.31701     21.1 8.766e+03 2.533e-10
 43.34145     25.4 8.998e+03 2.736e-10
 43.35695     29.4 8.677e+03 2.450e-10
 43.37417     32.2 8.553e+03 2.458e-10
 43.40033     35.5 8.586e+03 2.554e-10
 43.44199     38.4 8.858e+03 3.033e-10
 43.47876     41.3 9.476e+03 4.074e-10
 43.49959     44.3 8.977e+03 3.293e-10
 43.52182     45.8 9.567e+03 4.450e-10
 43.54255     47.5 9.769e+03 5.159e-10
 43.55635     47.8 1.030e+04 6.292e-10
 43.56805     47.8 1.083e+04 7.949e-10
 43.57847     48.8 1.066e+04 7.310e-10
 43.59801     48.6 1.122e+04 9.320e-10
 43.61627     47.8 1.207e+04 1.334e-09
 43.62669     48.6 1.209e+04 1.279e-09
 43.63671     47.9 1.287e+04 1.943e-09
 43.64713     50.0 1.183e+04 1.265e-09
 43.66050     49.9 1.265e+04 1.991e-09
 43.69019     51.1 1.261e+04 1.932e-09
 43.71102     51.0 1.318e+04 2.431e-09
 43.71579     51.4 1.305e+04 2.240e-09
 43.72620     52.2 1.284e+04 2.056e-09
 43.74381     52.7 1.258e+04 1.798e-09
 43.76464     53.1 1.207e+04 1.362e-09
 43.78444     53.3 1.150e+04 9.437e-10
 43.79414     54.6 1.169e+04 1.108e-09
 43.79516     55.1 1.200e+04 1.201e-09
 43.80630     54.9 1.138e+04 8.156e-10
 43.82713     54.2 1.072e+04 5.579e-10
 43.84796     53.3 1.030e+04 4.232e-10
 43.86352     52.5 1.009e+04 3.488e-10
 43.87393     54.6 1.018e+04 4.359e-10
 43.87940     53.7 1.030e+04 3.947e-10
 43.88981     53.2 1.032e+04 3.877e-10
 43.91044     52.4 1.019e+04 3.863e-10
 43.93127     51.9 1.006e+04 4.029e-10
 43.94259     51.8 9.909e+03 4.074e-10
 43.95300     53.3 1.027e+04 4.706e-10
 43.96364     53.3 1.005e+04 4.608e-10
 43.97405     53.2 9.948e+03 4.456e-10
 43.99376     53.2 9.776e+03 4.211e-10
 44.02510     54.8 9.742e+03 4.158e-10
 44.04807     55.4 9.101e+03 2.850e-10
 44.06890     54.8 8.951e+03 2.015e-10
 44.09051     54.8 8.539e+03 1.449e-10
 44.11134     55.9 8.910e+03 1.812e-10
 44.15017     56.0 8.657e+03 1.536e-10
 44.19183     56.7 8.625e+03 1.517e-10
 44.21654     57.5 8.679e+03 1.623e-10
 44.23172     57.0 8.951e+03 2.307e-10
 44.24866     56.9 9.349e+03 3.194e-10
 44.27515     57.9 9.641e+03 4.451e-10
 44.31681     59.2 1.003e+04 6.197e-10
 44.35846     60.9 1.036e+04 7.687e-10
 44.38502     62.4 1.045e+04 7.842e-10
 44.39170     62.5 9.948e+03 5.564e-10
 44.40681     62.7 1.005e+04 5.698e-10
 44.44178     64.1 9.838e+03 4.374e-10
 44.48344     65.4 9.594e+03 3.006e-10
 44.52329     66.5 9.368e+03 2.006e-10
 44.54412     66.5 9.291e+03 1.893e-10
 44.55350     67.7 9.097e+03 1.546e-10
 44.57432     68.1 8.565e+03 9.095e-11
 44.60841     69.8 8.579e+03 8.241e-11
 44.65007     71.6 8.585e+03 8.369e-11
 44.68144     73.3 8.609e+03 8.950e-11
 44.70227     73.9 8.674e+03 1.017e-10
 44.72197     75.7 8.757e+03 1.191e-10
 44.74280     76.3 8.573e+03 5.783e-11
 44.77504     78.2 8.661e+03 7.110e-11
 44.81670     80.0 8.737e+03 9.872e-11
 44.83958     82.1 8.839e+03 1.443e-10
 44.86041     82.7 8.952e+03 1.627e-10
 44.89045     84.8 9.107e+03 2.249e-10
 44.91127     85.5 8.908e+03 1.248e-10
 44.94168     87.7 9.042e+03 1.770e-10
 44.97690     89.9 9.209e+03 2.315e-10
 44.99773     90.6 9.287e+03 2.585e-10
 45.02499     92.7 9.551e+03 3.247e-10
 45.05892     94.7 9.820e+03 3.695e-10
 45.07975     95.6 9.658e+03 3.021e-10
 45.10831     97.4 9.946e+03 3.647e-10
 45.13504     98.7 1.013e+04 4.057e-10
 45.14536     98.6 1.014e+04 4.395e-10
 45.15338     99.0 1.014e+04 4.491e-10
 45.16379     99.2 1.015e+04 4.605e-10
 45.18101    100.2 1.023e+04 5.025e-10
 45.20184    101.2 1.037e+04 5.573e-10
 45.21392    102.0 1.054e+04 6.065e-10
 45.22434    102.3 1.069e+04 6.600e-10
 45.23761    102.7 1.084e+04 6.775e-10
 45.24803    103.1 1.112e+04 7.813e-10
 45.26433    103.2 1.113e+04 7.790e-10
 45.28258    103.2 1.112e+04 7.615e-10
 45.29299    103.3 1.125e+04 8.378e-10
 45.30599    103.3 1.122e+04 7.643e-10
 45.32185    103.1 1.120e+04 6.610e-10
 45.33227    102.8 1.174e+04 8.101e-10
 45.34765    102.3 1.154e+04 6.448e-10
 45.36165    101.7 1.130e+04 5.136e-10
 45.37207    102.0 1.161e+04 5.641e-10
 45.38930    101.5 1.130e+04 4.551e-10
 45.40609    101.1 1.095e+04 4.174e-10
 45.41650    100.5 1.138e+04 5.904e-10
 45.43041    100.6 1.106e+04 5.576e-10
 45.44082    100.5 1.121e+04 5.947e-10
 45.45179    100.5 1.119e+04 5.970e-10
 45.48313    100.9 1.131e+04 6.751e-10
 45.52489    101.5 1.119e+04 6.749e-10
 45.56435    102.2 1.120e+04 6.938e-10
 45.58517    101.5 1.103e+04 5.680e-10
 45.58865    102.1 1.109e+04 5.310e-10
 45.60948    101.7 1.163e+04 7.842e-10
 45.64986    102.3 1.156e+04 6.627e-10
 45.69152    102.9 1.150e+04 5.056e-10
 45.72597    103.5 1.140e+04 3.622e-10
 45.74644    103.0 1.150e+04 4.000e-10
 45.75365    101.5 1.123e+04 3.396e-10
 45.77484    102.2 1.084e+04 3.096e-10
 45.81649    103.1 1.082e+04 3.180e-10
 45.85815    104.1 1.079e+04 3.729e-10
 45.88411    105.1 1.088e+04 4.974e-10
 45.90494    105.2 1.114e+04 5.616e-10
 45.92212    106.3 1.131e+04 7.016e-10
 45.94295    105.6 1.132e+04 7.282e-10
 45.98313    106.5 1.134e+04 7.385e-10
 46.02143    107.4 1.125e+04 7.042e-10
 46.04226    107.4 1.129e+04 7.115e-10
 46.06644    108.7 1.100e+04 5.857e-10
 46.09060    110.2 1.067e+04 4.253e-10
 46.11143    110.0 1.075e+04 4.435e-10
 46.14976    111.6 1.051e+04 3.344e-10
 46.17957    113.3 1.032e+04 2.600e-10
 46.20040    113.4 1.023e+04 2.244e-10
 46.23307    115.2 1.008e+04 1.858e-10
 46.25907    117.3 1.006e+04 1.825e-10
 46.27990    117.5 1.027e+04 2.946e-10
 46.31639    119.6 1.039e+04 3.278e-10
 46.33772    121.6 1.058e+04 3.952e-10
 46.35855    121.8 1.029e+04 3.101e-10
 46.39971    123.3 1.054e+04 4.084e-10
 46.42755    125.0 1.096e+04 5.974e-10
 46.44838    125.0 1.088e+04 5.856e-10
 46.47504    126.4 1.153e+04 8.697e-10
 46.49586    126.2 1.127e+04 8.405e-10
 46.52468    126.9 1.178e+04 1.138e-09
 46.56634    127.2 1.203e+04 1.268e-09
 46.59603    126.9 1.201e+04 1.237e-09
 46.61685    125.7 1.156e+04 8.449e-10
 46.63318    125.0 1.111e+04 5.770e-10
 46.65401    124.1 1.071e+04 4.531e-10
 46.69131    122.7 1.014e+04 3.380e-10
 46.73297    120.2 1.015e+04 3.476e-10
 46.76412    118.9 1.022e+04 3.754e-10
 46.77472    117.8 1.036e+04 4.249e-10
 46.78100    117.0 1.058e+04 5.263e-10
 46.79123    118.4 1.044e+04 4.694e-10
 46.81629    116.4 1.109e+04 7.829e-10
 46.85794    114.4 1.187e+04 1.364e-09
 46.88909    113.8 1.209e+04 1.564e-09
 46.90982    113.1 1.213e+04 1.609e-09
 46.92845    112.5 1.206e+04 1.575e-09
 46.94109    112.8 1.180e+04 1.300e-09
 46.95380    111.4 1.148e+04 9.765e-10
 46.98292    110.1 1.110e+04 7.700e-10
 47.02458    108.6 1.060e+04 5.708e-10
 47.05572    108.0 1.036e+04 4.931e-10
 47.07618    107.3 1.020e+04 4.537e-10
 47.08669    108.3 1.016e+04 4.154e-10
 47.10145    107.4 1.010e+04 4.060e-10
 47.12228    106.4 9.814e+03 3.472e-10
 47.14955    106.1 9.894e+03 3.736e-10
 47.19121    105.8 9.975e+03 3.963e-10
 47.22410    105.4 1.007e+04 4.137e-10
 47.24493    106.9 9.784e+03 2.912e-10
 47.26993    106.6 9.898e+03 2.997e-10
 47.29075    106.7 9.364e+03 2.326e-10
 47.31618    106.7 9.429e+03 2.430e-10
 47.35784    106.6 9.614e+03 2.817e-10
 47.38225    106.5 9.893e+03 3.567e-10
 47.40308    107.9 9.717e+03 2.714e-10
 47.43064    107.6 9.908e+03 3.460e-10
 47.44862    107.6 1.015e+04 4.578e-10
 47.45913    109.4 9.607e+03 2.924e-10
 47.47230    109.3 1.006e+04 3.788e-10
 47.49303    109.0 1.048e+04 5.378e-10
 47.51386    108.8 1.076e+04 7.552e-10
 47.52978    108.8 1.090e+04 9.461e-10
 47.53836    109.1 1.089e+04 9.638e-10
 47.54327    110.0 1.069e+04 7.293e-10
 47.55552    109.7 1.083e+04 8.966e-10
 47.57635    108.9 1.165e+04 1.155e-09
 47.59718    104.6 1.449e+04 2.221e-09
 47.60886     98.6 1.779e+04 5.662e-09
 47.61836     97.6 1.843e+04 7.467e-09
 47.62751     99.9 1.793e+04 5.678e-09
 47.63884     95.7 1.918e+04 1.279e-08
 47.65967     93.2 1.893e+04 1.410e-08
 47.67751     91.6 1.815e+04 1.204e-08
 47.68793     91.5 1.815e+04 1.182e-08
 47.70132     89.6 1.672e+04 6.144e-09
 47.72215     86.2 1.623e+04 4.006e-09
 47.74298     79.9 1.284e+04 1.558e-09
 47.77432     75.3 1.035e+04 8.620e-10
 47.79618     74.8 9.447e+03 5.833e-10
 47.81596     74.8 1.008e+04 8.301e-10
 47.83586     75.0 1.023e+04 8.982e-10
 47.85774     75.4 9.458e+03 5.410e-10
 47.89939     75.7 8.622e+03 2.867e-10
 47.94105     75.5 7.834e+03 1.618e-10
 47.96465     75.7 7.711e+03 1.446e-10
 47.97595     75.5 8.206e+03 2.316e-10
 47.99400     76.0 7.877e+03 1.798e-10
 48.02437     76.7 7.880e+03 1.735e-10
 48.06603     77.7 7.893e+03 1.805e-10
 48.10768     78.6 7.986e+03 2.047e-10
 48.13132     79.4 8.194e+03 2.443e-10
 48.13593     79.9 8.046e+03 1.951e-10
 48.15396     80.1 7.960e+03 1.860e-10
 48.19100     80.6 8.041e+03 1.884e-10
 48.23266     81.0 8.114e+03 1.957e-10
 48.26863     81.1 8.214e+03 2.053e-10
 48.28946     82.0 8.196e+03 1.985e-10
 48.30160     82.1 8.262e+03 2.067e-10
 48.32243     82.3 8.309e+03 2.094e-10
 48.35763     81.9 8.425e+03 2.212e-10
 48.39929     80.7 8.705e+03 2.573e-10
 48.42678     78.8 9.417e+03 4.034e-10
 48.44761     79.8 9.270e+03 3.629e-10
 48.47008     77.9 9.864e+03 5.300e-10
 48.49091     77.9 9.697e+03 4.451e-10
 48.52426     75.9 9.722e+03 4.474e-10
 48.56409     73.9 9.613e+03 4.009e-10
 48.58492     74.7 9.577e+03 3.686e-10
 48.60758     72.1 9.604e+03 3.584e-10
 48.63856     69.4 9.749e+03 3.818e-10
 48.65938     69.4 9.709e+03 4.183e-10
 48.69090     67.1 9.834e+03 4.454e-10
 48.72224     65.4 9.755e+03 3.960e-10
 48.73321     65.6 9.719e+03 4.038e-10
 48.74343     65.6 9.784e+03 4.190e-10
 48.77411     63.6 9.882e+03 3.460e-10
 48.80703     59.4 1.000e+04 3.711e-10
 48.82776     58.4 9.958e+03 4.215e-10
 48.84692     56.5 1.002e+04 4.630e-10
 48.86775     55.6 9.968e+03 4.561e-10
 48.88029     54.3 9.949e+03 4.020e-10
 48.90121     54.4 1.010e+04 4.338e-10
 48.94084     51.1 9.856e+03 3.023e-10
 48.97551     46.0 1.003e+04 3.437e-10
 48.99633     45.3 1.026e+04 4.939e-10
 49.01770     43.3 9.979e+03 5.348e-10
 49.03853     43.9 9.856e+03 4.532e-10
 49.06582     43.3 9.578e+03 3.955e-10
 49.10748     42.4 9.330e+03 2.840e-10
 49.14398     41.2 8.886e+03 1.918e-10
 49.16481     40.6 8.636e+03 1.635e-10
 49.17585     40.9 8.296e+03 1.350e-10
 49.19668     41.7 8.430e+03 1.626e-10
 49.23245     42.7 8.250e+03 1.258e-10
 49.27411     43.5 8.193e+03 9.047e-11
 49.31246     43.8 8.067e+03 7.450e-11
 49.33068     44.2 8.123e+03 7.917e-11
 49.33399     45.2 8.265e+03 8.187e-11
 49.35742     45.6 8.199e+03 7.970e-11
 49.39908     45.6 8.348e+03 9.857e-11
 49.44074     45.7 8.612e+03 1.682e-10
 49.47131     46.7 9.007e+03 2.930e-10
 49.49067     47.2 8.962e+03 2.684e-10
 49.50176     47.9 8.841e+03 2.481e-10
 49.52406     49.3 9.112e+03 2.863e-10
 49.56571     49.4 9.285e+03 2.908e-10
 49.60737     47.8 1.021e+04 3.998e-10
 49.62945     43.1 1.220e+04 9.808e-10
 49.65028     43.3 1.129e+04 6.029e-10
 49.67014     39.8 1.292e+04 1.521e-09
 49.68045     39.9 1.305e+04 1.575e-09
 49.69792     38.8 1.347e+04 2.885e-09
 49.70833     39.4 1.287e+04 2.208e-09
 49.72174     39.5 1.337e+04 3.386e-09
 49.74257     39.9 1.359e+04 3.842e-09
 49.75428     40.4 1.334e+04 3.354e-09
 49.76469     41.3 1.332e+04 3.277e-09
 49.77699     41.0 1.305e+04 2.470e-09
 49.78740     40.3 1.226e+04 1.636e-09
 49.80505     37.7 1.155e+04 1.186e-09
 49.82588     35.2 1.059e+04 8.805e-10
 49.83851     33.8 9.860e+03 6.969e-10
 49.84786     33.6 9.779e+03 6.929e-10
 49.85606     33.6 9.546e+03 6.320e-10
 49.86754     33.6 9.412e+03 6.195e-10
 49.88837     33.6 9.383e+03 5.622e-10
 49.90920     33.6 9.510e+03 5.166e-10
 49.92275     32.5 1.008e+04 4.166e-10
 49.92786     33.9 9.989e+03 5.349e-10
 49.93513     34.1 1.007e+04 5.793e-10
 49.95086     32.7 1.026e+04 5.251e-10
 49.97168     31.2 9.696e+03 4.835e-10
 49.99251     30.4 9.311e+03 4.673e-10
 50.00379     30.8 9.339e+03 5.253e-10
 50.00785     31.0 9.378e+03 5.471e-10
 50.01740     31.5 9.347e+03 5.373e-10
 50.03417     31.6 9.263e+03 5.120e-10
 50.06213     32.0 9.135e+03 4.229e-10
 50.08306     32.2 9.155e+03 4.220e-10
 50.10727     31.6 8.751e+03 2.850e-10
 50.14893     30.5 8.394e+03 2.237e-10
 50.17566     30.6 8.331e+03 2.229e-10
 50.19649     31.7 8.490e+03 2.598e-10
 50.22038     31.2 8.775e+03 2.984e-10
 50.24120     30.6 9.059e+03 3.511e-10
 50.25980     29.3 9.554e+03 4.862e-10
 50.27012     29.6 9.645e+03 5.060e-10
 50.28412     29.3 9.704e+03 5.231e-10
 50.29925     29.0 1.021e+04 7.984e-10
 50.30967     28.8 1.029e+04 8.333e-10
 50.32578     28.3 1.049e+04 8.902e-10
 50.34394     27.8 1.055e+04 9.398e-10
 50.35435     28.5 1.064e+04 9.972e-10
 50.36744     28.5 1.076e+04 9.300e-10
 50.37833     26.9 1.026e+04 6.118e-10
 50.38874     26.2 1.014e+04 5.546e-10
 50.40909     25.9 9.946e+03 4.648e-10
 50.44043     23.4 8.982e+03 2.432e-10
 50.48219     22.1 8.537e+03 1.523e-10
 50.51261     21.5 8.385e+03 1.307e-10
 50.52543     22.0 8.379e+03 1.259e-10
 50.53667     21.4 8.508e+03 1.447e-10
 50.56551     21.4 8.559e+03 1.407e-10
 50.60716     21.4 8.669e+03 1.685e-10
 50.64882     21.9 8.740e+03 2.220e-10
 50.67398     22.9 8.907e+03 2.574e-10
 50.68542     22.3 9.125e+03 2.846e-10
 50.70191     22.5 8.920e+03 2.723e-10
 50.73214     24.0 9.188e+03 3.139e-10
 50.77380     24.8 9.402e+03 2.958e-10
 50.81130     24.9 9.283e+03 2.480e-10
 50.83213     24.2 9.475e+03 2.953e-10
 50.84956     24.6 9.276e+03 2.984e-10
 50.87039     25.7 9.715e+03 3.876e-10
 50.89877     26.9 9.546e+03 3.998e-10
 50.94043     28.3 9.325e+03 3.310e-10
 50.96944     29.3 9.090e+03 2.353e-10
 50.99027     28.8 9.402e+03 3.058e-10
 51.01804     29.5 9.245e+03 2.413e-10
 51.03886     31.2 9.605e+03 3.634e-10
 51.06540     32.1 9.461e+03 2.804e-10
 51.10676     32.9 9.525e+03 2.745e-10
 51.12759     32.5 9.929e+03 3.296e-10
 51.13821     33.5 9.998e+03 2.994e-10
 51.15894     33.0 1.020e+04 3.304e-10
 51.17977     32.3 1.034e+04 4.723e-10
 51.19605     31.9 1.045e+04 6.794e-10
 51.20260     31.6 1.062e+04 8.182e-10
 51.20714     32.3 1.061e+04 6.307e-10
 51.22142     32.8 1.067e+04 8.813e-10
 51.24225     33.9 1.085e+04 1.027e-09
 51.26308     34.9 1.100e+04 1.065e-09
 51.27512     35.5 1.114e+04 9.155e-10
 51.28259     35.1 1.117e+04 8.255e-10
 51.29138     35.9 1.111e+04 1.040e-09
 51.30474     36.0 1.121e+04 7.736e-10
 51.32557     35.3 1.109e+04 5.305e-10
 51.34378     33.6 1.058e+04 3.497e-10
 51.35420     32.4 1.023e+04 2.762e-10
 51.36520     31.2 9.658e+03 2.439e-10
 51.37562     32.9 1.020e+04 3.000e-10
 51.38806     31.8 9.662e+03 2.830e-10
 51.40889     31.3 9.378e+03 2.785e-10
 51.42295     32.4 9.744e+03 4.006e-10
 51.44388     31.1 9.751e+03 4.287e-10
 51.48198     30.9 9.931e+03 5.266e-10
 51.52346     30.5 1.010e+04 5.942e-10
 51.56019     31.1 1.094e+04 9.563e-10
 51.58120     29.4 1.097e+04 9.639e-10
 51.59644     28.3 1.047e+04 7.923e-10
 51.61718     28.1 1.040e+04 7.802e-10
 51.62833     27.8 1.003e+04 6.904e-10
 51.63875     28.3 1.039e+04 8.493e-10
 51.64966     28.4 1.017e+04 7.517e-10
 51.66007     27.7 1.014e+04 7.385e-10
 51.67966     27.1 9.599e+03 5.398e-10
 51.70049     27.0 9.390e+03 4.498e-10
 51.71267     26.5 8.861e+03 3.173e-10
 51.72008     26.5 9.014e+03 3.578e-10
 51.73924     25.6 9.034e+03 3.649e-10
 51.77359     25.5 8.643e+03 2.805e-10
 51.81525     25.5 8.363e+03 2.329e-10
 51.85583     25.6 8.287e+03 2.263e-10
 51.87666     25.1 8.212e+03 2.157e-10
 51.88124     25.4 8.299e+03 2.423e-10
 51.90207     25.9 8.481e+03 2.585e-10
 51.94022     26.2 8.740e+03 3.290e-10
 51.98188     26.4 9.157e+03 4.188e-10
 52.01302     26.1 9.507e+03 5.062e-10
 52.02419     25.4 9.546e+03 5.475e-10
 52.03470     25.1 9.357e+03 4.848e-10
 52.04962     24.8 9.660e+03 6.330e-10
 52.05993     24.8 9.904e+03 7.102e-10
 52.07541     24.5 9.942e+03 7.690e-10
 52.09285     24.6 9.980e+03 7.906e-10
 52.10327     24.3 9.830e+03 7.295e-10
 52.11707     24.3 9.791e+03 6.836e-10
 52.13376     24.1 9.479e+03 5.603e-10
 52.14417     24.4 9.857e+03 7.047e-10
 52.15873     24.2 9.596e+03 5.766e-10
 52.17192     23.6 9.188e+03 4.570e-10
 52.19285     23.2 8.860e+03 3.632e-10
 52.21819     23.3 8.483e+03 2.831e-10
 52.23902     23.3 8.784e+03 3.451e-10
 52.27348     24.1 8.557e+03 3.051e-10
 52.30944     25.1 8.532e+03 3.064e-10
 52.33026     24.6 8.485e+03 3.009e-10
 52.35680     25.8 8.823e+03 3.721e-10
 52.38657     26.9 9.127e+03 4.452e-10
 52.39688     27.2 9.344e+03 5.158e-10
 52.39873     27.2 9.330e+03 5.388e-10
 52.40914     27.1 9.414e+03 5.867e-10
 52.44002     29.1 9.771e+03 7.061e-10
 52.46758     30.7 1.006e+04 7.906e-10
 52.48841     30.4 1.037e+04 8.997e-10
 52.52343     30.6 1.079e+04 9.845e-10
 52.54656     31.9 1.088e+04 1.009e-09
 52.55687     32.0 1.108e+04 1.099e-09
 52.56536     31.0 1.158e+04 1.373e-09
 52.57577     33.4 1.145e+04 1.217e-09
 52.59614     31.9 1.279e+04 1.820e-09
 52.61512     27.1 1.715e+04 3.520e-09
 52.62553     23.7 1.980e+04 5.934e-09
 52.63780     17.9 2.153e+04 1.060e-08
 52.64955     15.3 2.188e+04 1.344e-08
 52.65471     16.8 2.361e+04 1.699e-08
 52.65976     15.1 2.323e+04 2.044e-08
 52.66497     14.5 2.236e+04 2.047e-08
 52.67415     12.0 1.977e+04 1.641e-08
 52.68456      9.9 1.812e+04 1.096e-08
 52.69162      7.5 1.654e+04 6.796e-09
 52.69594      9.5 1.888e+04 1.007e-08
 52.69930      7.6 1.804e+04 6.537e-09
 52.70539      4.0 1.665e+04 3.580e-09
 52.71581      0.6 1.508e+04 2.202e-09
 52.72622     -1.3 1.430e+04 1.655e-09
 52.73379     -4.8 1.238e+04 9.043e-10
 52.74425     -4.8 1.556e+04 1.085e-09
 52.76277     -8.8 1.119e+04 5.880e-10
 52.78360     -8.8 1.014e+04 4.264e-10
 52.80443     -7.5 1.012e+04 3.964e-10
 52.81807     -6.5 1.006e+04 3.664e-10
 52.82849     -6.7 1.020e+04 4.095e-10
 52.85660     -5.5 1.005e+04 3.453e-10
 52.89209     -3.8 9.821e+03 2.931e-10
 52.91292     -3.8 1.004e+04 3.209e-10
 52.92119     -2.1 9.702e+03 2.573e-10
 52.94202     -1.8 9.442e+03 2.373e-10
 52.98167     -0.1 9.252e+03 2.092e-10
 53.02333      1.7 9.167e+03 1.827e-10
 53.05850      3.4 9.113e+03 1.550e-10
 53.07491      3.7 9.102e+03 1.556e-10
 53.08139      4.3 9.094e+03 1.618e-10
 53.10664      5.9 9.043e+03 1.360e-10
 53.14830      7.4 9.010e+03 1.191e-10
 53.18996      8.9 9.000e+03 1.115e-10
 53.21665     10.5 9.012e+03 1.089e-10
 53.23490     10.7 9.013e+03 1.098e-10
 53.24987     11.6 9.003e+03 1.086e-10
 53.27328     13.3 9.015e+03 1.067e-10
 53.31493     15.1 9.106e+03 1.068e-10
 53.35396     16.9 9.127e+03 1.125e-10
 53.37479     16.9 9.130e+03 1.125e-10
 53.39752     18.8 9.105e+03 1.168e-10
 53.41834     19.4 9.236e+03 1.297e-10
 53.43991     21.4 9.289e+03 1.463e-10
 53.48157     23.5 9.355e+03 1.579e-10
 53.51211     25.5 9.428e+03 1.641e-10
 53.53294     25.4 9.492e+03 1.731e-10
 53.56488     27.1 9.602e+03 1.821e-10
 53.58682     28.7 9.713e+03 2.149e-10
 53.60765     29.1 9.951e+03 2.972e-10
 53.64820     31.0 1.003e+04 3.409e-10
 53.67026     33.1 1.017e+04 3.728e-10
 53.69108     32.9 1.005e+04 2.358e-10
 53.73151     34.5 1.008e+04 2.292e-10
 53.75529     36.0 9.947e+03 2.322e-10
 53.77612     35.8 9.913e+03 2.390e-10
 53.80757     37.8 9.843e+03 2.536e-10
 53.82840     37.8 9.578e+03 1.931e-10
 53.85649     40.0 9.654e+03 1.918e-10
 53.89815     41.8 9.747e+03 1.677e-10
 53.92377     43.5 9.691e+03 1.638e-10
 53.94460     43.8 9.710e+03 1.636e-10
 53.96572     45.2 9.644e+03 1.879e-10
 53.98655     45.5 9.439e+03 1.372e-10
 54.02312     47.7 9.375e+03 1.634e-10
 54.06478     49.9 9.458e+03 1.885e-10
 54.09224     52.0 9.621e+03 2.238e-10
 54.10967     52.3 9.754e+03 2.545e-10
 54.12386     53.0 9.507e+03 1.962e-10
 54.14810     55.1 9.686e+03 2.213e-10
 54.18975     56.9 9.838e+03 2.543e-10
 54.23141     58.5 1.002e+04 3.189e-10
 54.26072     60.1 1.010e+04 3.996e-10
 54.26966     60.3 1.013e+04 4.050e-10
 54.28201     61.2 1.011e+04 3.855e-10
 54.30421     62.1 1.010e+04 4.432e-10
 54.32495     62.8 1.019e+04 4.981e-10
 54.34006     64.1 1.039e+04 5.709e-10
 54.34946     64.3 1.053e+04 6.146e-10
 54.35518     64.6 1.056e+04 6.269e-10
 54.36660     64.7 1.064e+04 6.465e-10
 54.39795     65.2 1.062e+04 6.196e-10
 54.41932     65.6 1.071e+04 6.306e-10
 54.42955     65.6 1.120e+04 8.464e-10
 54.44993     66.0 1.162e+04 1.015e-09
 54.47085     65.6 1.137e+04 9.704e-10
 54.48779     65.6 1.120e+04 9.711e-10
 54.49820     65.4 1.155e+04 1.229e-09
 54.51241     65.6 1.122e+04 1.120e-09
 54.52365     66.0 1.090e+04 9.425e-10
 54.53407     66.3 1.113e+04 1.102e-09
 54.55407     66.8 1.087e+04 8.989e-10
 54.56686     67.2 1.060e+04 6.907e-10
 54.57727     66.8 1.062e+04 6.872e-10
 54.59572     66.7 1.031e+04 4.687e-10
 54.60789     66.2 1.013e+04 3.696e-10
 54.61830     67.2 1.027e+04 4.468e-10
 54.63552     66.8 9.996e+03 3.311e-10
 54.64593     66.5 1.003e+04 3.368e-10
 54.65821     66.4 9.964e+03 3.153e-10
 54.67904     66.6 9.835e+03 3.050e-10
 54.69213     66.8 9.830e+03 3.063e-10
 54.70254     67.1 9.957e+03 3.522e-10
 54.71459     67.3 9.999e+03 3.802e-10
 54.72500     67.0 1.001e+04 3.936e-10
 54.74153     67.2 1.017e+04 4.400e-10
 54.76236     67.4 1.042e+04 5.003e-10
 54.77636     67.4 1.068e+04 5.758e-10
 54.78678     67.3 1.086e+04 6.548e-10
 54.80401     66.5 1.111e+04 7.370e-10
 54.82484     65.9 1.143e+04 8.459e-10
 54.84567     64.8 1.181e+04 9.810e-10
 54.86060     63.3 1.198e+04 1.134e-09
 54.86684     63.1 1.212e+04 1.091e-09
 54.87273     61.9 1.220e+04 1.189e-09
 54.88733     60.7 1.218e+04 1.321e-09
 54.90816     59.6 1.218e+04 1.425e-09
 54.92899     59.3 1.204e+04 1.356e-09
 54.94139     58.1 1.317e+04 1.394e-09
 54.94683     57.2 1.375e+04 1.504e-09
 54.95525     57.7 1.211e+04 1.380e-09
 54.97065     56.2 1.301e+04 1.239e-09
 54.99147     54.0 1.500e+04 1.451e-09
 55.01005     52.2 1.575e+04 2.289e-09
 55.02047     51.0 1.582e+04 2.459e-09
 55.02908     49.3 1.577e+04 3.785e-09
 55.03949     50.5 1.454e+04 1.746e-09
 55.05396     49.5 1.467e+04 2.927e-09
 55.07479     49.7 1.471e+04 4.032e-09
 55.08912     50.0 1.473e+04 4.584e-09
 55.09954     49.5 1.480e+04 4.727e-09
 55.11331     50.0 1.474e+04 4.366e-09
 55.12373     50.9 1.418e+04 3.632e-09
 55.13728     51.2 1.435e+04 3.685e-09
 55.15778     51.4 1.427e+04 3.502e-09
 55.16820     50.5 1.432e+04 3.571e-09
 55.17894     50.3 1.422e+04 3.422e-09
 55.19755     50.3 1.418e+04 3.442e-09
 55.20797     51.9 1.416e+04 3.367e-09
 55.22059     52.1 1.431e+04 3.627e-09
 55.23685     52.7 1.433e+04 3.862e-09
 55.24727     52.0 1.428e+04 3.861e-09
 55.26225     53.2 1.407e+04 3.867e-09
 55.28179     54.5 1.375e+04 3.698e-09
 55.29220     55.4 1.405e+04 3.767e-09
 55.30391     56.9 1.374e+04 3.511e-09
 55.31593     58.7 1.330e+04 3.097e-09
 55.32634     58.2 1.277e+04 2.560e-09
 55.34557     59.8 1.240e+04 1.963e-09
 55.36603     54.6 1.930e+04 2.042e-09
 55.37644     60.7 1.418e+04 1.849e-09
 55.38458     46.7 3.149e+04 3.234e-09
 55.39500     40.9 3.134e+04 4.783e-09
 55.40280     33.4 2.580e+04 1.866e-08
 55.41316     32.5 2.267e+04 3.817e-08
 55.41846     32.4 2.063e+04 5.631e-08
 55.42367     32.8 2.147e+04 4.357e-08
 55.42923     32.8 2.058e+04 5.741e-08
 55.43444     32.5 2.031e+04 5.188e-08
 55.44441     33.0 2.031e+04 5.516e-08
 55.45482     33.3 2.068e+04 5.226e-08
 55.46058     33.6 2.251e+04 3.419e-08
 55.46411     33.3 2.112e+04 4.277e-08
 55.46877     33.2 2.177e+04 3.381e-08
 55.47565     30.7 2.453e+04 1.738e-08
 55.48607     22.5 2.271e+04 5.487e-09
 55.49648     12.3 1.383e+04 1.851e-09
 55.50270     10.2 1.180e+04 1.416e-09
 55.50411     10.8 1.245e+04 1.566e-09
 55.50830     10.7 1.215e+04 1.524e-09
 55.51731     10.3 1.199e+04 1.459e-09
 55.53227      7.9 1.137e+04 1.125e-09
 55.54273      7.3 1.101e+04 9.583e-10
 55.54492      4.9 1.094e+04 8.956e-10
 55.55533      4.7 1.127e+04 1.063e-09
 55.57469      1.8 1.145e+04 1.068e-09
 55.59552     -1.0 1.168e+04 1.210e-09
 55.61139     -3.1 1.193e+04 1.397e-09
 55.62180     -3.0 1.197e+04 1.415e-09
 55.62915     -4.6 1.238e+04 1.656e-09
 55.63957     -6.9 1.296e+04 2.045e-09
 55.65800     -8.5 1.309e+04 2.164e-09
 55.67883    -10.1 1.313e+04 2.025e-09
 55.69046    -11.5 1.291e+04 1.890e-09
 55.70088    -11.0 1.350e+04 2.356e-09
 55.71339    -11.9 1.333e+04 2.143e-09
 55.72381    -14.8 1.292e+04 1.691e-09
 55.74132    -15.5 1.243e+04 1.345e-09
 55.75912    -16.0 1.184e+04 1.051e-09
 55.76953    -15.3 1.247e+04 1.201e-09
 55.78298    -16.0 1.176e+04 9.019e-10
 55.79773    -15.0 1.152e+04 8.618e-10
 55.81865    -18.6 1.015e+04 4.420e-10
 55.85607    -16.3 1.011e+04 4.384e-10
 55.89663    -14.3 1.022e+04 4.655e-10
 55.91746    -13.8 1.054e+04 4.434e-10
 55.93939    -12.0 1.109e+04 5.848e-10
 55.96630    -10.6 1.157e+04 8.110e-10
 55.98713    -10.9 9.885e+03 3.651e-10
 56.02271     -9.3 1.046e+04 5.553e-10
 56.05478     -7.8 1.124e+04 8.959e-10
 56.07560     -7.7 1.141e+04 9.718e-10
 56.09551     -6.7 1.146e+04 1.187e-09
 56.11624     -6.1 1.184e+04 1.415e-09
 56.13365     -5.3 1.207e+04 1.555e-09
 56.14158     -5.2 1.230e+04 1.643e-09
 56.14499     -5.2 1.180e+04 1.350e-09
 56.15790     -4.4 1.186e+04 1.378e-09
 56.17873     -3.6 1.183e+04 1.359e-09
 56.19956     -2.7 1.173e+04 1.263e-09
 56.21273     -1.9 1.156e+04 1.137e-09
 56.22157     -1.8 1.154e+04 1.159e-09
 56.22923     -1.8 1.138e+04 1.088e-09
 56.24121     -1.1 1.122e+04 9.812e-10
 56.26204     -0.4 1.108e+04 8.898e-10
 56.28138      0.1 1.093e+04 8.213e-10
 56.29180      0.2 1.094e+04 8.245e-10
 56.30315      1.3 1.078e+04 7.633e-10
 56.32408      1.1 1.071e+04 7.396e-10
 56.35024      3.3 1.035e+04 6.538e-10
 56.37107      3.8 1.035e+04 6.693e-10
 56.39763      6.1 1.027e+04 6.388e-10
 56.43929      7.7 1.056e+04 7.104e-10
 56.47172      8.3 1.162e+04 1.194e-09
 56.49255      8.2 1.111e+04 9.109e-10
 56.50828      8.8 1.214e+04 1.565e-09
 56.52911      9.2 1.210e+04 1.276e-09
 56.55375      9.0 1.350e+04 2.852e-09
 56.56618      8.9 1.415e+04 3.936e-09
 56.57660      9.4 1.347e+04 2.969e-09
 56.58726      9.8 1.405e+04 3.764e-09
 56.59767      9.6 1.403e+04 3.921e-09
 56.61614     10.3 1.440e+04 4.662e-09
 56.63697     11.1 1.449e+04 4.819e-09
 56.65042     11.5 1.434e+04 4.235e-09
 56.65896     11.8 1.402e+04 3.599e-09
 56.66633     12.5 1.430e+04 4.329e-09
 56.67862     12.7 1.433e+04 3.611e-09
 56.69945     10.8 1.450e+04 2.996e-09
 56.72028      7.5 1.428e+04 2.795e-09
 56.73466      5.1 1.397e+04 3.104e-09
 56.73895      5.5 1.430e+04 3.146e-09
 56.74540      5.9 1.490e+04 3.715e-09
 56.76194      4.5 1.504e+04 5.130e-09
 56.78277      4.1 1.542e+04 6.196e-09
 56.80360      3.3 1.589e+04 6.359e-09
 56.81889      1.8 1.665e+04 6.556e-09
 56.82931      0.5 1.789e+04 9.822e-09
 56.84526     -2.9 1.781e+04 8.524e-09
 56.86608     -6.3 1.671e+04 7.272e-09
 56.88272     -8.1 1.554e+04 6.320e-09
 56.89314     -7.9 1.556e+04 5.893e-09
 56.90313     -8.5 1.459e+04 4.644e-09
 56.91355     -9.0 1.542e+04 6.057e-09
 56.92857     -9.4 1.436e+04 3.996e-09
 56.94940    -10.2 1.334e+04 2.522e-09
 56.96179    -11.4 1.234e+04 1.630e-09
 56.97221    -11.5 1.224e+04 1.507e-09
 56.98737    -11.9 1.143e+04 1.076e-09
 56.99778    -12.4 1.168e+04 1.240e-09
 57.01189    -12.1 1.108e+04 9.296e-10
 57.03045    -11.3 1.068e+04 7.272e-10
 57.04087    -11.3 1.079e+04 7.570e-10
 57.06406    -10.4 1.049e+04 5.789e-10
 57.09931     -8.6 1.008e+04 4.448e-10
 57.12013     -8.4 1.033e+04 5.226e-10
 57.14563     -6.2 1.010e+04 4.679e-10
 57.16645     -5.8 1.020e+04 4.793e-10
 57.17828     -4.0 1.022e+04 4.897e-10
 57.18860     -4.0 1.030e+04 5.134e-10
 57.19935     -3.9 1.029e+04 5.319e-10
 57.22018     -2.7 1.047e+04 6.795e-10
 57.24008     -1.9 1.064e+04 7.597e-10
 57.25050     -1.7 1.088e+04 8.680e-10
 57.25725     -1.0 1.123e+04 1.044e-09
 57.26767     -0.3 1.097e+04 9.437e-10
 57.28266      0.4 1.121e+04 1.023e-09
 57.30349      0.8 1.153e+04 1.123e-09
 57.32432      0.8 1.195e+04 1.288e-09
 57.33632     -0.6 1.343e+04 2.764e-09
 57.34674     -0.4 1.353e+04 1.960e-09
 57.36598     -1.1 1.401e+04 2.669e-09
 57.38681     -1.2 1.453e+04 3.601e-09
 57.40499     -1.5 1.444e+04 3.956e-09
 57.41540     -2.1 1.428e+04 3.586e-09
 57.41897     -2.1 1.420e+04 3.966e-09
 57.42413     -2.2 1.506e+04 5.349e-09
 57.43358     -2.2 1.491e+04 5.218e-09
 57.44399     -2.3 1.477e+04 5.113e-09
 57.44963     -2.6 1.478e+04 5.089e-09
 57.45484     -2.6 1.483e+04 5.172e-09
 57.47008     -2.7 1.479e+04 5.090e-09
 57.48406     -2.7 1.412e+04 3.777e-09
 57.49447     -2.7 1.431e+04 4.398e-09
 57.50321     -2.6 1.352e+04 3.084e-09
 57.51362     -3.8 1.393e+04 3.166e-09
 57.53261     -4.1 1.312e+04 2.069e-09
 57.55272     -4.1 1.261e+04 1.441e-09
 57.56313     -3.6 1.267e+04 1.586e-09
 57.57427     -4.0 1.214e+04 1.118e-09
 57.60561     -4.7 1.145e+04 8.143e-10
 57.64737     -3.3 1.078e+04 5.884e-10
 57.67188     -1.9 1.037e+04 4.568e-10
 57.69271     -2.2 1.045e+04 4.951e-10
 57.71106     -1.0 1.036e+04 4.670e-10
 57.73189     -0.6 1.045e+04 4.824e-10
 57.77234      0.7 1.039e+04 4.656e-10
 57.81400      2.1 1.038e+04 4.658e-10
 57.84035      3.6 1.039e+04 4.726e-10
 57.85390      3.6 1.060e+04 5.705e-10
 57.86920      3.5 1.067e+04 5.785e-10
 57.89732      5.0 1.064e+04 5.675e-10
 57.93897      6.6 1.060e+04 5.317e-10
 57.98063      8.0 1.057e+04 5.025e-10
 58.00652      9.4 1.057e+04 4.995e-10
 58.01389      9.1 1.070e+04 5.505e-10
 58.02966      9.2 1.081e+04 5.881e-10
 58.06395     10.7 1.072e+04 5.533e-10
 58.10561     12.5 1.074e+04 5.571e-10
 58.14383     14.1 1.081e+04 5.745e-10
 58.16466     13.9 1.070e+04 5.525e-10
 58.17730     15.4 1.074e+04 5.639e-10
 58.19813     15.1 1.065e+04 5.208e-10
 58.23058     16.0 1.090e+04 6.013e-10
 58.27224     16.7 1.134e+04 7.599e-10
 58.30198     17.4 1.187e+04 1.007e-09
 58.32281     17.8 1.123e+04 7.214e-10
 58.34578     18.5 1.156e+04 8.413e-10
 58.36661     18.7 1.097e+04 5.673e-10
 58.39721     19.3 1.103e+04 5.158e-10
 58.43887     19.4 1.099e+04 4.613e-10
 58.46013     19.4 1.100e+04 4.501e-10
 58.48095     20.1 1.085e+04 3.772e-10
 58.51425     20.3 1.098e+04 4.518e-10
 58.53508     20.1 1.035e+04 2.600e-10
 58.56384     20.1 1.070e+04 3.947e-10
 58.59499     17.1 1.162e+04 5.431e-10
 58.60766     15.3 1.262e+04 8.827e-10
 58.61817     19.6 1.140e+04 6.227e-10
 58.63665     18.8 1.234e+04 9.729e-10
 58.65738     15.6 1.344e+04 1.459e-09
 58.67632     13.4 1.499e+04 2.361e-09
 58.68673     14.1 1.416e+04 1.825e-09
 58.69295     11.7 1.548e+04 2.696e-09
 58.70336     13.4 1.415e+04 2.072e-09
 58.71987     11.3 1.523e+04 2.472e-09
 58.74069      8.9 1.580e+04 2.690e-09
 58.75539      6.3 1.572e+04 2.805e-09
 58.76581      7.1 1.580e+04 2.854e-09
 58.77719      5.1 1.542e+04 3.076e-09
 58.78760      6.5 1.520e+04 2.302e-09
 58.80318      5.2 1.474e+04 2.587e-09
 58.82401      5.0 1.457e+04 2.716e-09
 58.84484      5.2 1.426e+04 2.391e-09
 58.86142      4.9 1.388e+04 1.801e-09
 58.87184      5.4 1.368e+04 1.711e-09
 58.88650      5.1 1.336e+04 1.313e-09
 58.90312      4.8 1.301e+04 9.917e-10
 58.91354      4.7 1.289e+04 9.284e-10
 58.92816      4.3 1.253e+04 7.253e-10
 58.94566      3.8 1.243e+04 6.442e-10
 58.95608      4.1 1.235e+04 6.458e-10
 58.96981      1.8 1.272e+04 6.426e-10
 58.98219     -5.8 1.629e+04 1.071e-09
 58.99261    -12.6 1.951e+04 2.368e-09
 59.01147    -18.3 2.020e+04 6.637e-09
 59.02704    -21.6 2.004e+04 1.162e-08
 59.03501    -22.9 1.989e+04 1.259e-08
 59.04022    -22.8 1.953e+04 1.251e-08
 59.04783    -23.8 1.895e+04 1.240e-08
 59.05596    -24.6 1.831e+04 1.024e-08
 59.06122    -25.1 1.857e+04 1.225e-08
 59.07396    -27.8 1.724e+04 5.431e-09
 59.09479    -33.4 1.433e+04 1.340e-09
 59.11414    -38.2 1.165e+04 4.603e-10
 59.12455    -36.7 1.172e+04 5.427e-10
 59.12993    -38.1 1.058e+04 3.394e-10
 59.14034    -39.0 1.027e+04 3.279e-10
 59.15728    -38.8 1.028e+04 2.643e-10
 59.17810    -38.4 1.038e+04 2.295e-10
 59.19837    -38.3 1.045e+04 2.210e-10
 59.20844    -37.6 1.038e+04 2.346e-10
 59.20900    -39.5 1.032e+04 2.751e-10
 59.21976    -39.7 1.049e+04 2.883e-10
 59.24059    -39.9 1.056e+04 2.953e-10
 59.26142    -40.5 1.070e+04 4.006e-10
 59.27766    -41.1 1.109e+04 5.883e-10
 59.28807    -41.2 1.116e+04 6.318e-10
 59.29303    -41.2 1.164e+04 8.484e-10
 59.30344    -40.7 1.148e+04 8.028e-10
 59.32391    -41.0 1.190e+04 9.798e-10
 59.34474    -41.6 1.216e+04 1.114e-09
 59.35673    -42.4 1.221e+04 1.168e-09
 59.36714    -43.5 1.186e+04 9.805e-10
 59.37726    -44.3 1.182e+04 9.995e-10
 59.38768    -43.8 1.172e+04 9.550e-10
 59.40722    -44.5 1.172e+04 1.005e-09
 59.42539    -45.1 1.175e+04 1.070e-09
 59.43580    -45.5 1.171e+04 1.001e-09
 59.44888    -46.0 1.179e+04 1.064e-09
 59.46150    -46.4 1.183e+04 1.094e-09
 59.47192    -46.2 1.175e+04 1.072e-09
 59.49054    -46.6 1.175e+04 1.079e-09
 59.50446    -47.1 1.167e+04 1.046e-09
 59.51487    -47.7 1.155e+04 9.771e-10
 59.53220    -48.2 1.141e+04 9.152e-10
 59.54574    -48.6 1.126e+04 8.283e-10
 59.55615    -48.3 1.108e+04 7.283e-10
 59.57312    -48.8 1.096e+04 6.408e-10
 59.58353    -49.5 1.082e+04 5.750e-10
 59.60520    -49.8 1.074e+04 5.306e-10
 59.64197    -50.5 1.059e+04 4.698e-10
 59.66280    -51.2 1.038e+04 3.886e-10
 59.68861    -51.7 1.019e+04 3.442e-10
 59.71441    -52.4 9.982e+03 3.127e-10
 59.73524    -52.5 9.787e+03 3.165e-10
 59.77193    -52.9 9.746e+03 3.067e-10
 59.80012    -53.1 9.678e+03 2.935e-10
 59.82094    -53.3 9.539e+03 2.872e-10
 59.85524    -52.9 9.352e+03 2.475e-10
 59.88288    -52.1 9.150e+03 1.897e-10
 59.90371    -52.1 9.136e+03 2.016e-10
 59.93743    -51.2 8.980e+03 1.477e-10
 59.95826    -50.8 8.865e+03 1.167e-10
 59.98022    -50.0 8.795e+03 8.773e-11
 60.02187    -49.1 8.783e+03 7.302e-11
 60.05136    -48.0 8.799e+03 6.846e-11
 60.07219    -48.3 8.781e+03 7.350e-11
 60.09558    -47.4 8.787e+03 7.309e-11
 60.11641    -47.3 8.802e+03 6.710e-11
 60.14685    -47.0 9.050e+03 8.381e-11
 60.18851    -46.8 9.287e+03 1.323e-10
 60.21983    -46.7 9.661e+03 2.247e-10
 60.24066    -47.3 9.882e+03 3.243e-10
 60.25372    -47.1 1.037e+04 4.886e-10
 60.27455    -46.8 1.085e+04 6.015e-10
 60.30297    -46.5 1.120e+04 7.004e-10
 60.31429    -46.9 1.129e+04 7.496e-10
 60.32319    -47.5 1.128e+04 7.670e-10
 60.33260    -48.3 1.105e+04 6.781e-10
 60.34453    -48.6 1.092e+04 6.162e-10
 60.36536    -49.0 1.070e+04 5.169e-10
 60.38619    -49.6 1.053e+04 4.296e-10
 60.39853    -50.0 1.045e+04 3.816e-10
 60.40328    -50.5 1.061e+04 4.156e-10
 60.41187    -50.6 1.044e+04 3.586e-10
 60.43845    -52.1 1.013e+04 2.855e-10
 60.48011    -53.4 9.865e+03 2.499e-10
 60.52177    -54.3 9.650e+03 2.380e-10
 60.54918    -54.8 9.462e+03 2.238e-10
 60.56337    -55.2 9.435e+03 2.294e-10
 60.57761    -55.7 9.460e+03 2.239e-10
 60.60509    -55.7 9.243e+03 1.606e-10
 60.64674    -55.7 9.021e+03 1.003e-10
 60.68650    -55.8 8.810e+03 6.203e-11
 60.70733    -56.2 8.817e+03 5.902e-11
 60.72526    -56.3 8.674e+03 4.577e-11
 60.74609    -56.3 8.715e+03 4.498e-11
 60.77172    -55.7 8.662e+03 4.347e-11
 60.81338    -55.0 8.650e+03 4.360e-11
 60.84465    -54.3 8.619e+03 4.922e-11
 60.86547    -54.6 8.599e+03 6.316e-11
 60.89373    -53.7 8.593e+03 7.190e-11
 60.91456    -53.3 8.668e+03 8.059e-11
 60.93835    -52.4 8.694e+03 9.116e-11
 60.98001    -51.6 8.729e+03 1.020e-10
 61.00279    -50.8 8.766e+03 1.125e-10
 61.02362    -51.1 8.780e+03 1.026e-10
 61.06221    -50.6 8.775e+03 1.041e-10
 61.08304    -50.5 8.916e+03 1.292e-10
 61.10498    -50.1 8.901e+03 1.308e-10
 61.14011    -49.8 8.895e+03 1.311e-10
 61.16094    -50.5 8.915e+03 1.300e-10
 61.18830    -50.8 9.048e+03 1.369e-10
 61.22996    -51.5 9.291e+03 1.625e-10
 61.25151    -52.2 9.512e+03 2.186e-10
 61.27234    -52.2 9.672e+03 2.519e-10
 61.29825    -53.0 9.837e+03 3.252e-10
 61.31908    -54.6 1.014e+04 4.538e-10
 61.35493    -55.3 1.015e+04 4.707e-10
 61.39659    -56.0 1.008e+04 4.507e-10
 61.41999    -56.3 9.967e+03 4.020e-10
 61.43814    -56.3 1.025e+04 4.628e-10
 61.45640    -58.2 9.908e+03 3.779e-10
 61.47990    -58.3 9.644e+03 2.960e-10
 61.52156    -58.3 9.447e+03 2.474e-10
 61.56322    -58.4 9.335e+03 2.241e-10
 61.58846    -58.4 9.310e+03 2.175e-10
 61.59813    -59.1 9.563e+03 2.663e-10
 61.61454    -60.2 9.511e+03 2.576e-10
 61.64654    -60.1 9.568e+03 2.829e-10
 61.68819    -59.9 9.669e+03 3.211e-10
 61.72985    -59.7 9.824e+03 3.718e-10
 61.75186    -59.5 1.007e+04 4.312e-10
 61.75812    -60.2 1.010e+04 4.441e-10
 61.77777    -61.1 1.030e+04 4.682e-10
 61.81317    -60.7 1.037e+04 4.804e-10
 61.85483    -60.3 1.043e+04 4.892e-10
 61.88918    -59.7 1.040e+04 4.771e-10
 61.91000    -59.6 1.021e+04 4.295e-10
 61.92541    -58.8 1.011e+04 3.705e-10
 61.94624    -59.5 9.864e+03 2.572e-10
 61.97980    -58.3 9.713e+03 2.004e-10
 62.02146    -57.1 9.566e+03 1.578e-10
 62.04732    -55.8 9.444e+03 1.317e-10
 62.06815    -55.5 9.377e+03 1.085e-10
 62.09389    -54.1 9.301e+03 9.736e-11
 62.11472    -54.7 9.087e+03 6.321e-11
 62.14643    -53.2 9.021e+03 6.125e-11
 62.18464    -51.8 8.959e+03 6.136e-11
 62.20547    -51.8 8.921e+03 5.562e-11
 62.22975    -50.8 8.882e+03 6.449e-11
 62.26236    -50.3 9.036e+03 8.955e-11
 62.28319    -51.1 9.022e+03 9.072e-11
 62.31306    -50.7 9.304e+03 1.545e-10
 62.34278    -50.2 9.684e+03 2.809e-10
 62.36361    -50.3 9.761e+03 3.103e-10
 62.39638    -49.8 1.014e+04 4.840e-10
 62.43084    -49.8 1.036e+04 6.036e-10
 62.45167    -50.2 1.009e+04 4.916e-10
 62.47970    -50.5 1.007e+04 4.921e-10
 62.50093    -50.6 9.793e+03 4.244e-10
 62.52176    -50.4 9.772e+03 4.092e-10
 62.56301    -50.4 9.522e+03 3.493e-10
 62.59931    -50.3 9.370e+03 3.231e-10
 62.62014    -50.3 9.335e+03 3.163e-10
 62.63824    -49.8 9.355e+03 3.393e-10
 62.65907    -49.4 9.722e+03 4.427e-10
 62.68799    -48.9 9.881e+03 5.205e-10
 62.72964    -48.4 9.957e+03 5.578e-10
 62.76779    -48.0 9.963e+03 5.635e-10
 62.78862    -48.0 9.952e+03 5.600e-10
 62.79639    -47.6 9.848e+03 5.459e-10
 62.81722    -47.0 1.015e+04 6.547e-10
 62.85462    -46.4 9.845e+03 5.403e-10
 62.89628    -45.8 9.555e+03 4.413e-10
 62.93370    -45.2 9.331e+03 3.759e-10
 62.95286    -45.0 9.426e+03 3.961e-10
 62.95709    -44.9 9.204e+03 3.340e-10
 62.97959    -44.4 9.063e+03 2.916e-10
 63.02125    -43.8 8.995e+03 2.719e-10
 63.06291    -43.4 8.966e+03 2.631e-10
 63.09185    -43.2 8.922e+03 2.531e-10
 63.11268    -43.4 8.957e+03 2.549e-10
 63.14622    -43.1 8.834e+03 2.414e-10
 63.18788    -42.8 8.834e+03 2.415e-10
 63.22917    -42.3 8.732e+03 2.211e-10
 63.25000    -42.6 8.765e+03 2.337e-10
 63.27120    -41.9 8.581e+03 1.803e-10
 63.29404    -41.3 8.410e+03 1.298e-10
 63.31487    -40.7 8.470e+03 1.526e-10
 63.35451    -40.2 8.392e+03 1.144e-10
 63.38731    -40.0 8.420e+03 1.059e-10
 63.40814    -39.8 8.418e+03 1.040e-10
 63.43783    -40.1 8.506e+03 1.111e-10
 63.46252    -41.5 9.476e+03 2.581e-10
 63.48335    -40.1 9.389e+03 2.567e-10
 63.52115    -40.6 1.081e+04 7.263e-10
 63.54546    -40.5 1.205e+04 1.557e-09
 63.55014    -40.4 1.191e+04 1.494e-09
 63.55698    -40.3 1.214e+04 1.630e-09
 63.57302    -40.4 1.271e+04 2.178e-09
 63.59385    -40.3 1.325e+04 2.717e-09
 63.61392    -40.8 1.352e+04 2.891e-09
 63.62433    -41.1 1.354e+04 2.896e-09
 63.63080    -41.8 1.360e+04 2.859e-09
 63.64121    -42.0 1.414e+04 3.579e-09
 63.65634    -43.0 1.405e+04 3.303e-09
 63.67717    -44.1 1.393e+04 3.163e-09
 63.69299    -44.8 1.393e+04 3.182e-09
 63.70341    -44.8 1.358e+04 2.591e-09
 63.71504    -45.4 1.371e+04 2.656e-09
 63.72545    -45.6 1.398e+04 2.752e-09
 63.73966    -46.4 1.416e+04 2.844e-09
 63.76048    -47.4 1.430e+04 2.922e-09
 63.77206    -48.6 1.440e+04 2.941e-09
 63.78248    -48.9 1.377e+04 2.178e-09
 63.79927    -49.9 1.370e+04 2.140e-09
 63.80969    -50.6 1.338e+04 1.835e-09
 63.82297    -51.4 1.308e+04 1.581e-09
 63.84072    -51.4 1.280e+04 1.334e-09
 63.85114    -51.1 1.263e+04 1.356e-09
 63.86463    -51.3 1.223e+04 1.088e-09
 63.88351    -51.5 1.183e+04 8.506e-10
 63.89393    -51.6 1.160e+04 7.601e-10
 63.90629    -51.6 1.130e+04 6.238e-10
 63.91980    -51.4 1.105e+04 5.209e-10
 63.93021    -50.2 1.103e+04 5.170e-10
 63.94795    -49.7 1.077e+04 4.212e-10
 63.96775    -49.0 1.058e+04 3.484e-10
 63.97816    -48.9 1.050e+04 3.349e-10
 63.98845    -48.5 1.051e+04 3.091e-10
 63.99897    -47.7 1.049e+04 3.101e-10
 64.02104    -47.1 1.052e+04 2.931e-10
 64.06270    -45.9 1.052e+04 2.904e-10
 64.10436    -44.3 1.053e+04 3.160e-10
 64.13638    -42.7 1.056e+04 3.606e-10
 64.15721    -42.2 1.044e+04 3.520e-10
 64.17716    -41.3 1.064e+04 3.879e-10
 64.19789    -41.6 1.072e+04 4.240e-10
 64.22923    -41.7 1.089e+04 5.638e-10
 64.27099    -41.4 1.117e+04 7.368e-10
 64.29452    -41.5 1.146e+04 9.309e-10
 64.30484    -41.0 1.128e+04 8.347e-10
 64.31511    -41.3 1.139e+04 8.967e-10
 64.32553    -41.7 1.126e+04 8.481e-10
 64.34370    -41.9 1.134e+04 8.776e-10
 64.36299    -43.0 1.154e+04 8.909e-10
 64.37340    -43.6 1.162e+04 8.696e-10
 64.38535    -46.3 1.212e+04 9.674e-10
 64.39935    -49.6 1.256e+04 1.144e-09
 64.40977    -51.0 1.265e+04 1.252e-09
 64.42701    -53.7 1.276e+04 1.640e-09
 64.44206    -55.4 1.271e+04 1.949e-09
 64.45247    -55.8 1.276e+04 2.172e-09
 64.46867    -56.7 1.271e+04 2.201e-09
 64.48359    -57.3 1.238e+04 1.858e-09
 64.49400    -57.6 1.248e+04 1.882e-09
 64.51033    -59.3 1.204e+04 1.273e-09
 64.52113    -62.4 1.180e+04 9.181e-10
 64.53155    -63.6 1.183e+04 8.931e-10
 64.55199    -67.8 1.208e+04 8.689e-10
 64.56783    -71.4 1.313e+04 1.294e-09
 64.57824    -73.9 1.435e+04 2.640e-09
 64.58979    -74.5 1.473e+04 3.997e-09
 64.60021    -74.5 1.478e+04 4.390e-09
 64.61447    -74.2 1.504e+04 5.443e-09
 64.62928    -74.0 1.553e+04 7.014e-09
 64.63444    -73.9 1.547e+04 6.943e-09
 64.64041    -73.7 1.553e+04 7.190e-09
 64.65083    -73.4 1.557e+04 7.300e-09
 64.65717    -73.3 1.550e+04 6.993e-09
 64.66238    -73.8 1.569e+04 7.135e-09
 64.66881    -73.9 1.549e+04 6.463e-09
 64.67928    -73.9 1.516e+04 5.533e-09
 64.69779    -74.0 1.473e+04 4.248e-09
 64.71862    -74.6 1.399e+04 2.944e-09
 64.73630    -75.1 1.319e+04 2.064e-09
 64.74479    -77.2 1.253e+04 1.402e-09
 64.74794    -77.4 1.218e+04 1.218e-09
 64.76028    -77.1 1.160e+04 9.107e-10
 64.78111    -76.6 1.119e+04 6.989e-10
 64.80193    -76.0 1.088e+04 5.504e-10
 64.81659    -75.5 1.062e+04 4.502e-10
 64.82478    -75.4 1.058e+04 4.156e-10
 64.83095    -76.9 1.034e+04 3.667e-10
 64.84359    -76.2 1.025e+04 3.442e-10
 64.86442    -75.4 1.024e+04 3.343e-10
 64.88525    -74.6 1.025e+04 3.314e-10
 64.90478    -73.7 1.026e+04 3.149e-10
 64.91519    -75.2 1.040e+04 3.431e-10
 64.92691    -74.5 1.050e+04 3.643e-10
 64.94774    -73.9 1.060e+04 3.936e-10
 64.96432    -73.9 1.084e+04 4.415e-10
 64.97474    -74.1 1.103e+04 4.615e-10
 64.98901    -75.2 1.191e+04 6.197e-10
 64.99943    -79.3 1.291e+04 1.031e-09
 65.01022    -81.7 1.410e+04 1.880e-09
 65.03105    -83.5 1.524e+04 3.575e-09
 65.04340    -84.6 1.630e+04 6.192e-09
 65.05381    -85.0 1.648e+04 6.974e-09
 65.07271    -85.9 1.758e+04 1.028e-08
 65.08367    -87.4 1.846e+04 1.275e-08
 65.09408    -90.4 1.854e+04 1.365e-08
 65.11206    -92.9 1.875e+04 1.430e-08
 65.12247    -93.9 1.902e+04 1.512e-08
 65.13520    -97.4 1.908e+04 1.537e-08
 65.15603   -101.3 1.900e+04 1.528e-08
 65.16790   -105.3 1.903e+04 1.530e-08
 65.17832   -107.2 1.885e+04 1.408e-08
 65.19113   -111.6 1.902e+04 1.432e-08
 65.20154   -112.6 1.891e+04 1.409e-08
 65.21851   -116.8 1.833e+04 1.241e-08
 65.23934   -120.5 1.717e+04 8.562e-09
 65.25214   -123.9 1.573e+04 5.127e-09
 65.26217   -123.4 1.535e+04 4.798e-09
 65.27020   -123.4 1.472e+04 3.730e-09
 65.28100   -126.1 1.351e+04 2.183e-09
 65.30183   -128.4 1.256e+04 1.350e-09
 65.32266   -130.2 1.203e+04 9.495e-10
 65.33638   -131.3 1.179e+04 7.790e-10
 65.34216   -130.7 1.144e+04 5.685e-10
 65.34927   -129.8 1.141e+04 5.653e-10
 65.36432   -130.3 1.128e+04 4.934e-10
 65.38515   -130.5 1.114e+04 4.737e-10
 65.40598   -130.2 1.104e+04 4.668e-10
 65.41793   -129.9 1.096e+04 4.626e-10
 65.42216   -129.3 1.091e+04 4.465e-10
 65.43103   -128.9 1.066e+04 3.673e-10
 65.44763   -128.6 1.060e+04 3.639e-10
 65.46846   -128.2 1.055e+04 3.670e-10
 65.48659   -127.6 1.052e+04 3.867e-10
 65.49710   -127.1 1.059e+04 3.977e-10
 65.50505   -125.7 1.050e+04 3.886e-10
 65.52588   -124.7 1.018e+04 2.858e-10
 65.56239   -122.6 1.008e+04 2.796e-10
 65.60405   -120.5 1.002e+04 2.726e-10
 65.63452   -118.3 9.943e+03 2.576e-10
 65.65534   -117.1 9.869e+03 2.375e-10
 65.67352   -114.9 9.769e+03 2.205e-10
 65.69435   -114.4 9.643e+03 1.845e-10
 65.72902   -112.2 9.581e+03 1.868e-10
 65.77068   -109.8 9.558e+03 1.901e-10
 65.79266   -107.4 9.560e+03 1.951e-10
 65.81349   -106.2 9.475e+03 1.796e-10
 65.84200   -103.8 9.490e+03 1.852e-10
 65.86283   -103.9 9.474e+03 1.912e-10
 65.89565   -101.8 9.476e+03 2.127e-10
 65.92998   -100.0 9.587e+03 2.697e-10
 65.95081    -98.6 9.416e+03 2.046e-10
 65.97897    -97.2 9.752e+03 2.893e-10
 66.01047    -96.3 1.060e+04 5.129e-10
 66.03130    -96.8 1.076e+04 6.126e-10
 66.05177    -95.6 1.130e+04 8.499e-10
 66.07250    -95.5 1.181e+04 1.085e-09
 66.08793    -95.0 1.231e+04 1.451e-09
 66.09834    -94.2 1.202e+04 1.217e-09
 66.10493    -94.1 1.256e+04 1.628e-09
 66.11535    -94.6 1.266e+04 1.785e-09
 66.13499    -94.6 1.340e+04 2.433e-09
 66.15582    -94.8 1.409e+04 3.066e-09
 66.16700    -95.1 1.462e+04 3.484e-09
 66.17741    -93.5 1.385e+04 2.832e-09
 66.18917    -93.7 1.412e+04 2.922e-09
 66.19958    -94.2 1.448e+04 3.449e-09
 66.21831    -94.3 1.457e+04 3.458e-09
 66.23566    -94.3 1.443e+04 3.032e-09
 66.24607    -92.6 1.430e+04 2.976e-09
 66.25997    -92.6 1.401e+04 2.400e-09
 66.27341    -92.5 1.322e+04 1.885e-09
 66.28382    -92.4 1.402e+04 2.668e-09
 66.30162    -92.0 1.312e+04 1.998e-09
 66.31473    -91.6 1.205e+04 1.461e-09
 66.32514    -90.5 1.313e+04 1.838e-09
 66.34328    -90.1 1.207e+04 1.380e-09
 66.35764    -89.8 1.140e+04 1.159e-09
 66.36806    -89.2 1.244e+04 1.558e-09
 66.38339    -89.8 1.216e+04 1.414e-09
 66.39380    -88.4 1.326e+04 1.994e-09
 66.40577    -90.4 1.325e+04 1.923e-09
 66.42660    -94.6 1.550e+04 2.743e-09
 66.44188    -98.5 1.917e+04 7.505e-09
 66.45230    -98.5 1.951e+04 8.328e-09
 66.46246   -101.1 2.072e+04 1.687e-08
 66.47288    -97.6 2.042e+04 1.466e-08
 66.48908   -100.6 2.105e+04 2.057e-08
 66.50195   -103.5 2.118e+04 2.317e-08
 66.50711   -102.6 2.115e+04 2.250e-08
 66.51502   -104.2 2.105e+04 2.271e-08
 66.52544   -105.5 2.015e+04 2.116e-08
 66.53123   -106.3 1.912e+04 1.689e-08
 66.53644   -105.7 1.910e+04 1.754e-08
 66.54144   -106.3 1.794e+04 1.226e-08
 66.54664   -105.5 1.881e+04 1.475e-08
 66.55668   -106.5 1.759e+04 1.013e-08
 66.56710   -107.5 1.627e+04 6.690e-09
 66.57335   -108.2 1.519e+04 4.710e-09
 66.57681   -108.0 1.537e+04 4.747e-09
 66.58097   -107.2 1.572e+04 5.526e-09
 66.59318   -108.5 1.456e+04 3.616e-09
 66.61019   -109.3 1.356e+04 2.256e-09
 66.61690   -107.5 1.419e+04 3.345e-09
 66.62077   -107.0 1.461e+04 3.322e-09
 66.63489   -107.9 1.369e+04 2.118e-09
 66.65572   -108.9 1.204e+04 1.094e-09
 66.67655   -109.3 1.071e+04 6.674e-10
 66.68926   -109.3 1.021e+04 5.267e-10
 66.69690   -107.9 1.086e+04 7.475e-10
 66.70501   -108.5 1.103e+04 7.867e-10
 66.71820   -108.6 1.052e+04 6.574e-10
 66.73903   -108.4 1.033e+04 6.021e-10
 66.75792   -107.9 1.021e+04 5.536e-10
 66.76834   -107.2 1.055e+04 6.980e-10
 66.77883   -106.8 1.037e+04 6.353e-10
 66.78925   -107.4 1.049e+04 7.287e-10
 66.80152   -106.8 1.031e+04 6.573e-10
 66.82235   -106.3 1.015e+04 5.809e-10
 66.83699   -105.7 1.001e+04 5.083e-10
 66.84741   -105.2 1.024e+04 6.062e-10
 66.86307   -104.7 1.011e+04 5.283e-10
 66.87348   -105.7 1.017e+04 5.385e-10
 66.88484   -105.3 1.006e+04 4.738e-10
 66.90565   -104.9 9.992e+03 4.286e-10
 66.92648   -104.2 1.017e+04 4.538e-10
 66.94731   -104.0 1.019e+04 4.336e-10
 66.96814   -105.2 1.047e+04 4.976e-10
 66.98473   -104.8 1.054e+04 5.104e-10
 66.99514   -105.2 1.110e+04 6.596e-10
 67.00981   -104.8 1.113e+04 6.919e-10
 67.03064   -104.4 1.114e+04 7.243e-10
 67.04196   -103.9 1.112e+04 7.480e-10
 67.05237   -104.7 1.127e+04 9.236e-10
 67.06380   -104.1 1.117e+04 9.009e-10
 67.07421   -103.9 1.158e+04 1.291e-09
 67.09313   -103.3 1.149e+04 1.227e-09
 67.11395   -102.6 1.143e+04 1.163e-09
 67.12620   -101.9 1.137e+04 1.107e-09
 67.13428   -102.4 1.139e+04 1.047e-09
 67.14287   -102.2 1.182e+04 1.182e-09
 67.15561   -101.6 1.176e+04 1.117e-09
 67.18695   -100.8 1.169e+04 1.078e-09
 67.21063    -99.5 1.143e+04 8.889e-10
 67.23146   -101.3 1.141e+04 8.398e-10
 67.26997   -100.3 1.141e+04 8.375e-10
 67.29080   -100.5 1.135e+04 7.825e-10
 67.31203    -99.4 1.138e+04 7.917e-10
 67.35368    -98.4 1.177e+04 9.290e-10
 67.37910    -97.5 1.232e+04 1.235e-09
 67.39993    -98.7 1.217e+04 1.166e-09
 67.42811    -97.7 1.271e+04 1.608e-09
 67.44894    -97.5 1.177e+04 8.451e-10
 67.47866    -96.7 1.217e+04 1.033e-09
 67.52032    -95.9 1.249e+04 1.211e-09
 67.54758    -95.3 1.263e+04 1.282e-09
 67.56841    -96.4 1.163e+04 6.693e-10
 67.58626    -95.8 1.152e+04 6.688e-10
 67.60709    -95.8 1.086e+04 3.813e-10
 67.64529    -95.0 1.071e+04 3.413e-10
 67.68695    -94.0 1.058e+04 2.954e-10
 67.71605    -92.9 1.057e+04 2.634e-10
 67.73185    -92.8 1.040e+04 2.181e-10
 67.74440    -92.5 1.023e+04 1.540e-10
 67.77026    -91.4 1.024e+04 1.542e-10
 67.81192    -90.9 1.031e+04 1.571e-10
 67.85358    -91.0 1.071e+04 1.950e-10
 67.88172    -91.1 1.136e+04 4.116e-10
 67.89184    -89.9 1.100e+04 3.275e-10
 67.90536    -89.1 1.082e+04 2.835e-10
 67.93690    -88.8 1.134e+04 5.052e-10
 67.97855    -88.6 1.193e+04 8.265e-10
 68.01904    -88.6 1.241e+04 1.115e-09
 68.03987    -87.1 1.205e+04 8.244e-10
 68.05300    -87.4 1.240e+04 1.002e-09
 68.07383    -87.1 1.245e+04 1.077e-09
 68.10353    -87.4 1.267e+04 1.219e-09
 68.14519    -87.7 1.268e+04 1.218e-09
 68.17718    -87.7 1.255e+04 1.015e-09
 68.19801    -86.6 1.293e+04 1.413e-09
 68.21799    -86.8 1.266e+04 1.135e-09
 68.23170    -86.7 1.253e+04 1.034e-09
 68.24211    -86.6 1.259e+04 1.112e-09
 68.25606    -86.6 1.248e+04 9.441e-10
 68.26647    -86.0 1.266e+04 1.154e-09
 68.28038    -85.9 1.254e+04 9.771e-10
 68.30121    -85.8 1.242e+04 8.299e-10
 68.31594    -85.6 1.230e+04 7.111e-10
 68.32635    -85.5 1.235e+04 7.349e-10
 68.33513    -85.3 1.223e+04 6.459e-10
 68.34555    -84.8 1.236e+04 7.619e-10
 68.36369    -84.6 1.224e+04 6.848e-10
 68.38986    -84.1 1.213e+04 6.132e-10
 68.41078    -84.2 1.236e+04 7.478e-10
 68.43679    -83.3 1.228e+04 7.045e-10
 68.47264    -82.7 1.235e+04 7.263e-10
 68.49347    -82.1 1.241e+04 8.371e-10
 68.52011    -81.4 1.263e+04 9.840e-10
 68.55843    -80.7 1.284e+04 1.211e-09
 68.57926    -80.9 1.361e+04 2.255e-09
 68.60342    -80.3 1.373e+04 2.429e-09
 68.63079    -79.7 1.371e+04 2.432e-09
 68.65162    -78.8 1.342e+04 2.154e-09
 68.68674    -77.7 1.305e+04 1.746e-09
 68.72690    -76.3 1.259e+04 1.306e-09
 68.74773    -76.9 1.237e+04 1.087e-09
 68.76810    -75.3 1.196e+04 7.499e-10
 68.78893    -74.5 1.180e+04 6.397e-10
 68.81171    -72.8 1.158e+04 4.814e-10
 68.85337    -71.1 1.144e+04 3.602e-10
 68.89503    -69.3 1.137e+04 2.678e-10
 68.91621    -67.6 1.137e+04 2.029e-10
 68.92660    -68.7 1.111e+04 1.654e-10
 68.94708    -67.7 1.111e+04 1.353e-10
 68.97835    -66.1 1.111e+04 1.283e-10
 69.02000    -64.9 1.113e+04 1.277e-10
 69.06166    -64.3 1.121e+04 1.503e-10
 69.08439    -63.9 1.135e+04 2.543e-10
 69.08659    -62.8 1.134e+04 2.536e-10
 69.10551    -63.3 1.112e+04 2.504e-10
 69.14498    -62.1 1.128e+04 3.506e-10
 69.18664    -61.1 1.143e+04 4.223e-10
 69.22171    -60.3 1.146e+04 4.397e-10
 69.24254    -59.0 1.130e+04 3.678e-10
 69.25316    -58.0 1.122e+04 3.119e-10
 69.27399    -57.9 1.094e+04 1.644e-10
 69.31161    -56.8 1.090e+04 1.204e-10
 69.35327    -55.6 1.087e+04 9.177e-11
 69.37986    -54.3 1.082e+04 7.950e-11
 69.40069    -53.2 1.075e+04 7.252e-11
 69.42163    -51.5 1.073e+04 7.211e-11
 69.44246    -51.1 1.064e+04 6.175e-11
 69.47824    -49.4 1.072e+04 6.509e-11
 69.51717    -47.7 1.074e+04 7.708e-11
 69.53800    -46.3 1.074e+04 7.794e-11
 69.56156    -44.6 1.074e+04 9.636e-11
 69.59011    -42.8 1.076e+04 1.166e-10
 69.61094    -42.6 1.075e+04 1.254e-10
 69.64487    -40.8 1.081e+04 1.455e-10
 69.67532    -39.2 1.086e+04 1.552e-10
 69.69615    -38.1 1.091e+04 1.847e-10
 69.72819    -36.8 1.097e+04 1.979e-10
 69.75858    -35.6 1.104e+04 2.121e-10
 69.77941    -35.6 1.109e+04 2.289e-10
 69.81151    -34.5 1.116e+04 2.514e-10
 69.83346    -33.3 1.120e+04 2.671e-10
 69.85429    -32.4 1.128e+04 3.181e-10
 69.89482    -31.1 1.125e+04 2.855e-10
 69.92706    -29.6 1.118e+04 2.133e-10
 69.94789    -29.5 1.119e+04 2.087e-10
 69.97078    -28.0 1.114e+04 1.428e-10
 69.99161    -27.3 1.122e+04 1.397e-10
 70.01980    -26.1 1.114e+04 1.035e-10
 70.06145    -24.7 1.110e+04 8.946e-11
 70.09553    -23.2 1.109e+04 8.677e-11
 70.11636    -23.3 1.126e+04 1.136e-10
 70.12892    -21.7 1.131e+04 1.204e-10
 70.14975    -21.1 1.140e+04 1.327e-10
 70.18643    -19.5 1.143e+04 1.450e-10
 70.22809    -17.7 1.141e+04 1.572e-10
 70.26401    -15.9 1.135e+04 1.647e-10
 70.28134    -15.7 1.134e+04 2.544e-10
 70.28707    -15.0 1.145e+04 2.956e-10
 70.31140    -13.0 1.138e+04 2.630e-10
 70.35306    -11.0 1.131e+04 2.255e-10
 70.39472     -9.0 1.126e+04 1.867e-10
 70.42439     -7.0 1.121e+04 1.555e-10
 70.44132     -6.4 1.126e+04 1.818e-10
 70.45331     -6.0 1.129e+04 1.890e-10
 70.47803     -3.9 1.121e+04 1.636e-10
 70.51969     -1.8 1.115e+04 1.538e-10
 70.56135      0.4 1.114e+04 1.510e-10
 70.58253      2.7 1.115e+04 1.540e-10
 70.60131      3.0 1.109e+04 1.690e-10
 70.62179      3.3 1.118e+04 2.317e-10
 70.64467      5.6 1.123e+04 2.625e-10
 70.68632      7.9 1.131e+04 3.097e-10
 70.71985      9.9 1.166e+04 4.315e-10
 70.74068     10.3 1.128e+04 3.598e-10
 70.76943     12.4 1.178e+04 4.777e-10
 70.79026     12.7 1.203e+04 6.964e-10
 70.79882     12.3 1.276e+04 9.482e-10
 70.80914     12.7 1.211e+04 6.517e-10
 70.82152     10.9 1.409e+04 1.104e-09
 70.84235     10.5 1.562e+04 1.334e-09
 70.86317      6.8 1.747e+04 5.273e-09
 70.87431      6.0 1.846e+04 1.628e-08
 70.87846      5.8 1.866e+04 1.806e-08
 70.88816      6.0 1.865e+04 2.213e-08
 70.89958      6.7 1.917e+04 5.599e-08
 70.90994      8.8 1.949e+04 8.806e-08
 70.91633     11.2 2.013e+04 1.199e-07
 70.91841     11.6 2.043e+04 1.521e-07
 70.92244     11.3 2.025e+04 1.244e-07
 70.93077     12.6 2.037e+04 1.254e-07
 70.94119     14.5 2.012e+04 7.603e-08
 70.95156     15.6 2.022e+04 3.527e-08
 70.95846     14.0 1.903e+04 1.469e-08
 70.96896     13.3 1.838e+04 1.049e-08
 70.98815     10.4 1.583e+04 2.820e-09
 71.00898      7.5 1.361e+04 1.279e-09
 71.02553      7.2 1.272e+04 9.266e-10
 71.03604      8.7 1.309e+04 1.149e-09
 71.06125      9.5 1.217e+04 7.057e-10
 71.10290     11.9 1.162e+04 5.020e-10
 71.12721     13.7 1.159e+04 4.794e-10
 71.14804     13.8 1.163e+04 5.571e-10
 71.17345     15.6 1.171e+04 6.538e-10
 71.19428     16.4 1.175e+04 8.323e-10
 71.22788     18.5 1.197e+04 1.070e-09
 71.26954     20.4 1.214e+04 1.190e-09
 71.29569     21.9 1.212e+04 1.159e-09
 71.31609     21.8 1.179e+04 8.092e-10
 71.33160     22.2 1.172e+04 7.622e-10
 71.35285     23.4 1.160e+04 7.337e-10
 71.39451     25.0 1.150e+04 7.525e-10
 71.43617     26.6 1.145e+04 7.495e-10
 71.46416     28.4 1.145e+04 7.431e-10
 71.47608     28.8 1.183e+04 1.006e-09
 71.48974     29.3 1.151e+04 8.263e-10
 71.51948     31.4 1.165e+04 9.223e-10
 71.56114     33.3 1.178e+04 9.984e-10
 71.60280     35.1 1.198e+04 1.072e-09
 71.62706     36.3 1.234e+04 1.228e-09
 71.63607     37.1 1.197e+04 1.026e-09
 71.65347     37.0 1.200e+04 9.980e-10
 71.68612     38.4 1.284e+04 1.577e-09
 71.71678     39.3 1.382e+04 2.163e-09
 71.72710     39.5 1.354e+04 1.826e-09
 71.73799     38.9 1.475e+04 2.720e-09
 71.75882     38.4 1.553e+04 4.185e-09
 71.77460     38.7 1.577e+04 6.412e-09
 71.78501     39.4 1.568e+04 4.870e-09
 71.80048     40.1 1.567e+04 6.348e-09
 71.81133     40.7 1.557e+04 6.820e-09
 71.82175     40.0 1.500e+04 4.931e-09
 71.84214     40.3 1.508e+04 4.709e-09
 71.85367     40.4 1.503e+04 3.948e-09
 71.86408     40.4 1.449e+04 3.332e-09
 71.88380     40.0 1.448e+04 2.938e-09
 71.89557     39.5 1.423e+04 2.673e-09
 71.90599     39.6 1.413e+04 2.663e-09
 71.92233     39.3 1.404e+04 2.526e-09
 71.93274     39.6 1.383e+04 2.197e-09
 71.94628     39.6 1.372e+04 2.333e-09
 71.96711     40.1 1.355e+04 2.422e-09
 71.97981     41.0 1.337e+04 2.334e-09
 71.99022     41.0 1.351e+04 2.428e-09
 72.00140     42.0 1.322e+04 2.204e-09
 72.01181     42.0 1.321e+04 2.179e-09
 72.02960     42.7 1.303e+04 2.033e-09
 72.05974     44.0 1.274e+04 1.514e-09
 72.08067     44.2 1.265e+04 1.542e-09
 72.09218     45.3 1.236e+04 9.975e-10
 72.11292     45.3 1.223e+04 9.790e-10
 72.13374     45.6 1.191e+04 7.770e-10
 72.14828     45.6 1.187e+04 7.680e-10
 72.15325     45.4 1.187e+04 7.694e-10
 72.15954     45.5 1.176e+04 7.342e-10
 72.17540     46.3 1.158e+04 7.676e-10
 72.19623     46.5 1.163e+04 7.814e-10
 72.21706     47.5 1.165e+04 8.810e-10
 72.22820     47.8 1.171e+04 9.159e-10
 72.23325     47.8 1.149e+04 7.888e-10
 72.24294     47.5 1.151e+04 7.799e-10
 72.25872     48.0 1.149e+04 8.002e-10
 72.27955     48.5 1.149e+04 8.011e-10
 72.29686     48.9 1.144e+04 7.667e-10
 72.30727     48.6 1.134e+04 7.293e-10
 72.31676     48.8 1.126e+04 7.263e-10
 72.32717     48.4 1.140e+04 8.735e-10
 72.34203     48.7 1.129e+04 8.658e-10
 72.36286     49.1 1.118e+04 8.514e-10
 72.37593     49.3 1.111e+04 8.133e-10
 72.38635     49.3 1.110e+04 8.102e-10
 72.40100     49.3 1.107e+04 7.904e-10
 72.41141     48.8 1.103e+04 7.430e-10
 72.42535     48.3 1.117e+04 7.494e-10
 72.44459     48.2 1.119e+04 7.522e-10
 72.45501     48.0 1.109e+04 7.126e-10
 72.47492     47.3 1.122e+04 8.780e-10
 72.49584     45.4 1.022e+04 4.591e-10
 72.51344     44.1 1.013e+04 4.002e-10
 72.53427     44.6 9.728e+03 3.559e-10
 72.56093     42.4 1.002e+04 3.160e-10
 72.60259     39.2 1.006e+04 3.300e-10
 72.64349     38.0 9.827e+03 4.300e-10
 72.66432     35.3 1.048e+04 7.111e-10
 72.67159     36.1 1.023e+04 4.979e-10
 72.69242     37.4 1.023e+04 5.730e-10
 72.72757     38.2 9.850e+03 3.204e-10
 72.76922     37.8 9.377e+03 1.842e-10
 72.80891     38.1 8.801e+03 1.348e-10
 72.82974     39.5 9.062e+03 1.762e-10
 72.83279     40.4 8.719e+03 1.405e-10
 72.85362     38.5 9.003e+03 1.961e-10
 72.89420     39.9 8.959e+03 1.878e-10
 72.93586     41.3 9.020e+03 1.789e-10
 72.96705     42.1 9.438e+03 1.868e-10
 72.98788     42.7 9.642e+03 2.209e-10
 73.00127     42.7 9.946e+03 2.753e-10
 73.01159     40.2 1.029e+04 4.165e-10
 73.02939     40.9 9.909e+03 5.145e-10
 73.04593     41.8 9.854e+03 5.880e-10
 73.05634     42.3 9.908e+03 5.736e-10
 73.07105     43.2 1.004e+04 6.229e-10
 73.10239     43.9 1.017e+04 6.441e-10
 73.12520     44.8 1.006e+04 6.108e-10
 73.14603     45.1 9.680e+03 4.397e-10
 73.16974     46.5 9.255e+03 3.326e-10
 73.19057     44.8 8.832e+03 2.036e-10
 73.22746     45.8 8.522e+03 1.505e-10
 73.26251     46.4 8.227e+03 1.274e-10
 73.28334     46.8 8.168e+03 1.269e-10
 73.31078     47.7 8.153e+03 1.361e-10
 73.33822     49.0 8.137e+03 1.666e-10
 73.35905     48.6 8.250e+03 2.292e-10
 73.39409     50.3 8.282e+03 2.594e-10
 73.42066     52.1 8.221e+03 2.522e-10
 73.44149     52.3 8.423e+03 3.076e-10
 73.47741     54.2 8.237e+03 2.731e-10
 73.50669     55.9 7.977e+03 2.044e-10
 73.52752     55.3 8.225e+03 2.782e-10
 73.55797     56.5 7.878e+03 2.034e-10
 73.57880     56.5 7.966e+03 2.257e-10
 73.60238     57.7 7.575e+03 1.642e-10
 73.64404     59.2 7.318e+03 1.354e-10
 73.67517     60.9 7.195e+03 1.225e-10
 73.69600     60.7 7.235e+03 1.138e-10
 73.71612     62.2 7.107e+03 9.910e-11
 73.73695     61.8 6.876e+03 7.170e-11
 73.76902     63.2 6.830e+03 7.023e-11
 73.81067     64.5 6.843e+03 7.307e-11
 73.84364     65.6 6.897e+03 8.574e-11
 73.86447     64.6 6.735e+03 7.800e-11
 73.87426     66.3 6.836e+03 9.841e-11
 73.89509     65.5 6.791e+03 9.571e-11
 73.93565     67.3 6.925e+03 1.143e-10
 73.97731     68.7 7.047e+03 1.273e-10
 74.01158     69.8 7.157e+03 1.392e-10
 74.02556     68.7 7.195e+03 1.470e-10
 74.03295     68.0 7.115e+03 1.416e-10
 74.06062     68.6 7.374e+03 1.938e-10
 74.10228     66.2 9.647e+03 3.687e-10
 74.13343     58.7 1.704e+04 6.782e-10
 74.15416     51.0 2.110e+04 1.993e-09
 74.16953     44.3 2.127e+04 7.647e-09
 74.17995     44.7 2.120e+04 7.240e-09
 74.19081     40.3 2.042e+04 1.714e-08
 74.20123     37.9 2.001e+04 2.150e-08
 74.21664     35.8 1.959e+04 1.673e-08
 74.23747     31.8 1.908e+04 6.720e-09
 74.24860     24.0 1.576e+04 1.765e-09
 74.25902     24.6 1.583e+04 1.990e-09
 74.27505     17.6 1.068e+04 8.465e-10
 74.28547     15.3 9.318e+03 6.631e-10
 74.29996     15.6 9.189e+03 6.179e-10
 74.31726     16.2 9.007e+03 5.626e-10
 74.32768     16.6 9.081e+03 5.755e-10
 74.34162     17.0 8.843e+03 4.894e-10
 74.35929     17.2 8.687e+03 4.527e-10
 74.36980     16.5 8.554e+03 4.045e-10
 74.39389     18.5 8.127e+03 3.010e-10
 74.43554     20.3 7.689e+03 1.988e-10
 74.46519     21.4 7.414e+03 1.403e-10
 74.48602     21.9 7.362e+03 1.270e-10
 74.51754     22.9 7.235e+03 1.065e-10
 74.53837     21.7 7.118e+03 9.376e-11
 74.56052     22.8 7.249e+03 1.053e-10
 74.60218     24.1 7.455e+03 1.372e-10
 74.62333     25.7 7.688e+03 1.865e-10
 74.64416     26.2 7.508e+03 1.510e-10
 74.68549     28.2 7.698e+03 1.770e-10
 74.70685     29.8 7.730e+03 1.744e-10
 74.72768     28.9 7.654e+03 1.590e-10
 74.76065     30.8 7.574e+03 1.333e-10
 74.78148     31.1 7.472e+03 1.169e-10
 74.81047     33.0 7.364e+03 8.736e-11
 74.85212     34.5 7.294e+03 6.302e-11
 74.87532     35.8 7.242e+03 4.911e-11
 74.89615     35.2 7.242e+03 4.853e-11
 74.91879     36.8 7.143e+03 4.430e-11
 74.93962     37.3 7.146e+03 4.471e-11
 74.97710     39.1 7.140e+03 4.511e-11
 75.01876     41.0 7.164e+03 4.811e-11
 75.04380     42.7 7.227e+03 5.529e-11
 75.06032     42.0 7.393e+03 6.029e-11
 75.07694     42.3 7.431e+03 6.444e-11
 75.10207     44.0 7.587e+03 8.123e-11
 75.14373     45.5 7.819e+03 1.078e-10
 75.18539     46.8 8.135e+03 1.553e-10
 75.21227     47.8 8.668e+03 2.481e-10
 75.22031     46.6 9.097e+03 3.404e-10
 75.23508     46.8 9.097e+03 3.360e-10
 75.26870     47.6 9.554e+03 4.629e-10
 75.29323     48.2 9.759e+03 5.418e-10
 75.30011     48.3 9.739e+03 5.327e-10
 75.30673     47.7 9.838e+03 5.628e-10
 75.32058     47.8 1.006e+04 6.348e-10
 75.34141     47.7 1.028e+04 7.123e-10
 75.36179     47.7 1.042e+04 7.918e-10
 75.37221     47.7 1.042e+04 7.907e-10
 75.38055     48.0 1.032e+04 7.442e-10
 75.39097     47.5 1.012e+04 6.112e-10
 75.40390     47.5 9.963e+03 5.299e-10
 75.43524     47.4 9.600e+03 3.737e-10
 75.47699     47.8 9.194e+03 2.669e-10
 75.50972     48.0 8.799e+03 1.861e-10
 75.53055     47.7 9.102e+03 2.363e-10
 75.54922     47.9 9.114e+03 2.321e-10
 75.57005     47.2 9.192e+03 2.375e-10
 75.60197     47.0 9.605e+03 3.108e-10
 75.63311     46.4 9.880e+03 4.179e-10
 75.64368     46.0 1.015e+04 5.637e-10
 75.65410     45.8 1.036e+04 6.915e-10
 75.66767     45.9 1.085e+04 8.823e-10
 75.68859     45.3 1.120e+04 9.840e-10
 75.71770     44.9 1.113e+04 8.689e-10
 75.73853     45.1 1.105e+04 8.027e-10
 75.76860     44.0 1.084e+04 6.158e-10
 75.80518     42.6 1.061e+04 5.042e-10
 75.82601     40.5 1.061e+04 5.036e-10
 75.85192     40.1 1.048e+04 4.814e-10
 75.88617     40.2 1.026e+04 4.292e-10
 75.90700     40.6 1.053e+04 5.186e-10
 75.93523     41.1 1.028e+04 4.214e-10
 75.96332     41.5 1.004e+04 3.229e-10
 75.98415     40.5 9.831e+03 2.501e-10
 76.01855     40.8 9.589e+03 1.971e-10
 76.05465     41.4 9.388e+03 1.728e-10
 76.07548     41.8 9.446e+03 1.660e-10
 76.10064     42.7 9.316e+03 1.563e-10
 76.12147     42.1 9.305e+03 1.568e-10
 76.14352     43.4 9.264e+03 1.460e-10
 76.18518     44.6 9.272e+03 1.453e-10
 76.22312     45.5 9.378e+03 1.542e-10
 76.24395     45.9 9.456e+03 1.451e-10
 76.25879     46.3 9.690e+03 1.903e-10
 76.27961     45.7 9.720e+03 1.635e-10
 76.31015     46.0 1.001e+04 2.181e-10
 76.35181     46.5 1.031e+04 2.765e-10
 76.39160     47.0 1.044e+04 2.876e-10
 76.41243     47.3 1.043e+04 2.801e-10
 76.41693     47.8 1.041e+04 2.646e-10
 76.43776     47.4 1.025e+04 2.095e-10
 76.47679     48.1 1.015e+04 1.941e-10
 76.51844     48.8 1.002e+04 1.794e-10
 76.55425     49.8 9.969e+03 1.775e-10
 76.57505     49.6 9.865e+03 1.504e-10
 76.60173     50.9 9.836e+03 1.365e-10
 76.64342     51.8 9.845e+03 1.393e-10
 76.68508     52.4 9.905e+03 1.505e-10
 76.71239     52.6 1.008e+04 1.826e-10
 76.73322     52.1 9.871e+03 1.663e-10
 76.74938     51.7 1.011e+04 2.201e-10
 76.77021     52.5 1.004e+04 2.041e-10
 76.81005     51.9 1.034e+04 2.670e-10
 76.83352     51.2 1.050e+04 3.009e-10
 76.84384     51.6 1.049e+04 2.967e-10
 76.85993     51.2 1.066e+04 3.164e-10
 76.87034     50.9 1.073e+04 3.240e-10
 76.88276     48.3 1.165e+04 4.499e-10
 76.90359     44.9 1.240e+04 8.179e-10
 76.91766     43.3 1.249e+04 1.395e-09
 76.93858     44.6 1.239e+04 1.265e-09
 76.97668     43.4 1.236e+04 1.353e-09
 77.00785     42.2 1.218e+04 1.015e-09
 77.02868     41.7 1.227e+04 1.009e-09
 77.06000     39.7 1.178e+04 5.480e-10
 77.08633     38.1 1.116e+04 3.273e-10
 77.10716     41.0 1.155e+04 4.554e-10
 77.14331     39.8 1.136e+04 3.607e-10
 77.16600     37.9 1.146e+04 4.548e-10
 77.18683     37.2 1.150e+04 4.749e-10
 77.22663     36.1 1.174e+04 7.448e-10
 77.25480     35.7 1.177e+04 8.114e-10
 77.27563     36.7 1.208e+04 9.431e-10
 77.30331     36.5 1.188e+04 8.074e-10
 77.32414     36.1 1.156e+04 5.921e-10
 77.35160     35.9 1.125e+04 3.194e-10
 77.39326     34.7 1.101e+04 1.698e-10
 77.42328     33.9 1.065e+04 1.266e-10
 77.44411     34.0 1.076e+04 1.197e-10
 77.46146     33.9 1.044e+04 1.112e-10
 77.48229     34.0 1.045e+04 1.099e-10
 77.51824     34.8 1.043e+04 1.190e-10
 77.55989     35.5 1.052e+04 1.306e-10
 77.59175     36.4 1.060e+04 1.456e-10
 77.60981     36.3 1.062e+04 1.369e-10
 77.61961     36.3 1.064e+04 1.415e-10
 77.64321     37.1 1.061e+04 1.388e-10
 77.68487     38.2 1.045e+04 1.267e-10
 77.72653     39.3 1.033e+04 1.049e-10
 77.75692     40.2 1.023e+04 8.728e-11
 77.76979     40.2 1.026e+04 9.099e-11
 77.78106     39.9 1.028e+04 8.462e-11
 77.80984     41.2 1.014e+04 7.983e-11
 77.85150     42.9 1.006e+04 7.714e-11
 77.89316     44.8 1.002e+04 7.418e-11
 77.91507     46.7 1.002e+04 7.089e-11
 77.92978     46.8 9.996e+03 7.079e-11
 77.94953     46.6 9.942e+03 5.849e-11
 77.97647     48.5 9.957e+03 5.942e-11
 78.01813     50.5 9.968e+03 6.185e-11
 78.05238     52.5 9.980e+03 6.433e-11
 78.07321     52.7 9.967e+03 6.734e-11
 78.09718     54.7 1.001e+04 7.047e-11
 78.11801     54.5 1.017e+04 7.610e-11
 78.14311     56.5 1.027e+04 8.805e-11
 78.18476     58.6 1.032e+04 1.132e-10
 78.21053     60.5 1.049e+04 1.625e-10
 78.23136     60.7 1.084e+04 2.643e-10
 78.25757     61.9 1.109e+04 3.168e-10
 78.27587     62.0 1.127e+04 3.586e-10
 78.28629     61.2 1.164e+04 5.833e-10
 78.28941     61.8 1.184e+04 7.975e-10
 78.29982     61.7 1.205e+04 1.084e-09
 78.31996     62.4 1.244e+04 1.452e-09
 78.34079     62.5 1.292e+04 1.902e-09
 78.35806     62.2 1.358e+04 2.569e-09
 78.36697     62.1 1.403e+04 3.418e-09
 78.37053     62.1 1.408e+04 3.669e-09
 78.38245     61.7 1.491e+04 5.091e-09
 78.40327     61.7 1.549e+04 6.445e-09
 78.42410     61.6 1.552e+04 6.471e-09
 78.43714     61.6 1.523e+04 5.794e-09
 78.44697     61.6 1.518e+04 5.664e-09
 78.45476     61.1 1.507e+04 5.499e-09
 78.46576     61.1 1.453e+04 4.248e-09
 78.48659     61.0 1.381e+04 2.856e-09
 78.50579     60.2 1.305e+04 1.895e-09
 78.51621     60.0 1.293e+04 1.815e-09
 78.52825     59.3 1.228e+04 1.366e-09
 78.53900     59.3 1.182e+04 1.139e-09
 78.54941     59.7 1.184e+04 1.164e-09
 78.56991     59.9 1.154e+04 1.025e-09
 78.58487     60.6 1.115e+04 8.371e-10
 78.59528     60.7 1.119e+04 8.675e-10
 78.61156     60.9 1.107e+04 8.049e-10
 78.62334     62.0 1.064e+04 6.142e-10
 78.64426     62.6 1.050e+04 6.207e-10
 78.66413     64.4 1.006e+04 4.580e-10
 78.68496     64.7 1.016e+04 5.095e-10
 78.72632     66.5 9.890e+03 4.061e-10
 78.76798     68.4 9.637e+03 3.052e-10
 78.79191     70.2 9.453e+03 2.267e-10
 78.80455     71.1 9.398e+03 2.469e-10
 78.82228     71.3 9.588e+03 3.360e-10
 78.85129     73.1 9.489e+03 2.968e-10
 78.89295     74.9 9.415e+03 2.613e-10
 78.93461     76.6 9.391e+03 2.382e-10
 78.95960     78.4 9.380e+03 2.218e-10
 78.96454     78.4 9.637e+03 3.128e-10
 78.98121     79.5 9.828e+03 4.386e-10
 79.01792     81.1 9.818e+03 4.137e-10
 79.05958     82.8 9.729e+03 3.572e-10
 79.09691     84.4 9.553e+03 2.796e-10
 79.11774     84.3 9.622e+03 3.166e-10
 79.12886     85.9 9.335e+03 2.120e-10
 79.14969     86.9 9.657e+03 3.633e-10
 79.18456     88.6 9.354e+03 2.547e-10
 79.22621     90.3 9.075e+03 1.817e-10
 79.25506     92.1 8.847e+03 1.406e-10
 79.27589     92.1 8.770e+03 1.279e-10
 79.29733     94.2 8.633e+03 1.159e-10
 79.31816     95.3 8.762e+03 1.419e-10
 79.35119     97.5 8.660e+03 1.319e-10
 79.39237     99.7 8.609e+03 1.279e-10
 79.41320    100.0 8.573e+03 1.258e-10
 79.43450    102.3 8.565e+03 1.278e-10
 79.46581    104.6 8.578e+03 1.269e-10
 79.48664    105.7 8.646e+03 1.573e-10
 79.51782    107.9 8.679e+03 1.623e-10
 79.55052    110.1 8.731e+03 1.667e-10
 79.57135    110.3 8.820e+03 1.924e-10
 79.60114    112.4 8.929e+03 2.038e-10
 79.63428    114.3 9.049e+03 2.130e-10
 79.65511    115.3 9.369e+03 3.126e-10
 79.68445    117.2 9.539e+03 3.372e-10
 79.70866    118.7 9.778e+03 3.705e-10
 79.71898    118.1 9.883e+03 4.003e-10
 79.72874    118.6 9.922e+03 3.964e-10
 79.73916    118.7 9.969e+03 4.246e-10
 79.75716    119.5 1.007e+04 4.454e-10
 79.77713    120.0 1.014e+04 4.650e-10
 79.78754    120.0 1.031e+04 5.476e-10
 79.79882    120.6 1.039e+04 5.790e-10
 79.81298    121.2 1.044e+04 5.992e-10
 79.82339    121.7 1.074e+04 7.351e-10
 79.84048    122.2 1.070e+04 7.005e-10
 79.85620    122.9 1.062e+04 6.502e-10
 79.86661    122.7 1.057e+04 6.297e-10
 79.88213    123.3 1.045e+04 5.653e-10
 79.89722    123.8 1.040e+04 5.336e-10
 79.90763    123.8 1.031e+04 5.161e-10
 79.92379    124.3 1.030e+04 5.135e-10
 79.93527    124.8 1.036e+04 5.259e-10
 79.94569    124.5 1.036e+04 5.308e-10
 79.96545    124.7 1.059e+04 6.012e-10
 79.98145    124.7 1.100e+04 7.761e-10
 79.99187    124.7 1.078e+04 7.507e-10
 80.00393    124.5 1.140e+04 1.109e-09
 80.01434    123.8 1.177e+04 1.436e-09
 80.02794    123.9 1.269e+04 2.393e-09
 80.04877    124.6 1.373e+04 3.922e-09
 80.06569    125.6 1.467e+04 5.649e-09
 80.07611    125.9 1.490e+04 6.489e-09
 80.08300    126.6 1.575e+04 8.341e-09
 80.09342    126.0 1.597e+04 8.678e-09
 80.11125    125.9 1.590e+04 8.412e-09
 80.13208    126.1 1.563e+04 7.349e-09
 80.14993    126.2 1.523e+04 5.756e-09
 80.15909    125.6 1.530e+04 6.580e-09
 80.16208    124.7 1.483e+04 5.410e-09
 80.17374    123.9 1.451e+04 4.857e-09
 80.19457    123.1 1.436e+04 4.825e-09
 80.21540    122.7 1.436e+04 5.016e-09
 80.23073    122.7 1.446e+04 5.376e-09
 80.23909    122.6 1.429e+04 5.496e-09
 80.24458    123.1 1.406e+04 4.932e-09
 80.25706    123.6 1.422e+04 4.999e-09
 80.27788    123.9 1.422e+04 4.893e-09
 80.29871    124.1 1.406e+04 4.408e-09
 80.30981    124.1 1.374e+04 3.640e-09
 80.31908    124.0 1.353e+04 2.825e-09
 80.32882    123.0 1.281e+04 1.357e-09
 80.34037    122.4 1.240e+04 1.285e-09
 80.36120    121.8 1.235e+04 1.327e-09
 80.37846    121.1 1.249e+04 1.556e-09
 80.38888    120.4 1.199e+04 1.129e-09
 80.40264    120.2 1.257e+04 1.566e-09
 80.41306    120.1 1.123e+04 8.124e-10
 80.42369    120.1 1.182e+04 1.118e-09
 80.44452    119.8 1.251e+04 1.571e-09
 80.45754    119.7 1.308e+04 2.118e-09
 80.46795    119.1 1.278e+04 1.719e-09
 80.48617    119.1 1.312e+04 2.179e-09
 80.49729    119.2 1.310e+04 2.348e-09
 80.50771    119.5 1.221e+04 1.498e-09
 80.52620    119.6 1.219e+04 1.591e-09
 80.53661    119.0 1.191e+04 1.390e-09
 80.54866    119.2 1.187e+04 1.403e-09
 80.56949    119.5 1.175e+04 1.377e-09
 80.58153    119.9 1.150e+04 1.272e-09
 80.59194    120.7 1.135e+04 1.134e-09
 80.60527    121.2 1.128e+04 1.097e-09
 80.61568    120.9 1.109e+04 9.936e-10
 80.63198    121.5 1.101e+04 9.691e-10
 80.65281    122.1 1.091e+04 9.250e-10
 80.66577    122.6 1.074e+04 8.625e-10
 80.67618    123.6 1.090e+04 9.130e-10
 80.68434    124.3 1.076e+04 8.680e-10
 80.69475    124.2 1.070e+04 8.362e-10
 80.71529    125.0 1.060e+04 8.060e-10
 80.73612    125.7 1.053e+04 7.767e-10
 80.75001    126.5 1.049e+04 7.638e-10
 80.75647    127.5 1.059e+04 8.051e-10
 80.76341    127.6 1.056e+04 7.836e-10
 80.77778    128.3 1.057e+04 7.780e-10
 80.79861    129.0 1.059e+04 7.767e-10
 80.81944    129.6 1.062e+04 7.749e-10
 80.83207    130.2 1.065e+04 7.725e-10
 80.83646    130.4 1.066e+04 7.722e-10
 80.84466    131.3 1.060e+04 7.624e-10
 80.86110    132.1 1.054e+04 7.326e-10
 80.88193    132.8 1.048e+04 7.100e-10
 80.90073    133.6 1.044e+04 7.067e-10
 80.91114    133.8 1.040e+04 6.891e-10
 80.91848    134.6 1.037e+04 6.890e-10
 80.92890    135.5 1.041e+04 6.954e-10
 80.94441    136.5 1.038e+04 6.946e-10
 80.96524    137.5 1.039e+04 7.112e-10
 80.97980    138.5 1.045e+04 7.551e-10
 80.99022    138.6 1.038e+04 7.236e-10
 81.00272    139.7 1.043e+04 7.723e-10
 81.01313    140.4 1.044e+04 7.967e-10
 81.02773    141.4 1.051e+04 8.570e-10
 81.04846    142.6 1.061e+04 9.349e-10
 81.06929    143.8 1.068e+04 9.987e-10
 81.08696    145.0 1.076e+04 1.047e-09
 81.09737    145.6 1.095e+04 1.142e-09
 81.11104    146.7 1.101e+04 1.183e-09
 81.12753    147.7 1.100e+04 1.180e-09
 81.13795    147.7 1.107e+04 1.209e-09
 81.15270    148.7 1.105e+04 1.191e-09
 81.17119    149.8 1.095e+04 1.131e-09
 81.18161    150.4 1.116e+04 1.221e-09
 81.19436    151.5 1.105e+04 1.146e-09
 81.20661    152.6 1.090e+04 1.038e-09
 81.21702    152.3 1.125e+04 1.235e-09
 81.23602    153.4 1.109e+04 1.111e-09
 81.25543    154.5 1.091e+04 9.691e-10
 81.26585    155.0 1.107e+04 1.073e-09
 81.27526    156.1 1.093e+04 9.561e-10
 81.28568    155.7 1.133e+04 1.280e-09
 81.29851    156.8 1.115e+04 1.116e-09
 81.31933    158.0 1.098e+04 9.470e-10
 81.33967    159.1 1.081e+04 7.881e-10
 81.35008    159.6 1.094e+04 1.014e-09
 81.35434    160.8 1.078e+04 8.735e-10
 81.36475    160.4 1.122e+04 1.205e-09
 81.38182    161.5 1.110e+04 1.023e-09
 81.40265    162.5 1.101e+04 8.717e-10
 81.42299    163.3 1.092e+04 7.661e-10
 81.43341    162.4 1.163e+04 1.161e-09
 81.43432    163.1 1.163e+04 1.145e-09
 81.44473    163.5 1.252e+04 1.858e-09
 81.46514    164.2 1.255e+04 1.869e-09
 81.48597    164.8 1.266e+04 1.938e-09
 81.50207    165.3 1.287e+04 2.108e-09
 81.51248    164.5 1.376e+04 3.543e-09
 81.51856    165.3 1.409e+04 4.036e-09
 81.52897    165.7 1.487e+04 5.456e-09
 81.54845    166.4 1.512e+04 6.081e-09
 81.56928    167.1 1.546e+04 6.840e-09
 81.58114    167.9 1.578e+04 7.546e-09
 81.59155    167.3 1.618e+04 8.100e-09
 81.60280    167.8 1.628e+04 8.304e-09
 81.61321    167.5 1.609e+04 7.028e-09
 81.63177    168.0 1.595e+04 6.758e-09
 81.64980    168.5 1.572e+04 6.217e-09
 81.66021    167.9 1.533e+04 4.910e-09
 81.67343    168.6 1.508e+04 4.410e-09
 81.68703    169.3 1.483e+04 3.900e-09
 81.69745    168.5 1.394e+04 2.085e-09
 81.71509    168.9 1.357e+04 1.801e-09
 81.72887    169.4 1.323e+04 1.604e-09
 81.73928    168.6 1.262e+04 1.167e-09
 81.75674    169.0 1.247e+04 1.106e-09
 81.77127    169.1 1.220e+04 1.044e-09
 81.78169    168.6 1.131e+04 7.769e-10
 81.79753    169.3 1.124e+04 7.886e-10
 81.81845    168.7 1.116e+04 7.771e-10
 81.84529    170.4 1.158e+04 9.895e-10
 81.86612    170.4 1.050e+04 6.765e-10
 81.89233    172.4 1.083e+04 8.038e-10
 81.93399    174.4 1.117e+04 9.542e-10
 81.95587    176.3 1.132e+04 1.041e-09
 81.97670    175.0 1.074e+04 8.148e-10
 82.01376    177.1 1.058e+04 7.522e-10
 82.03459    178.3 1.020e+04 6.285e-10
 82.05896    180.4 1.013e+04 6.120e-10
 82.09318    182.6 9.921e+03 5.544e-10
 82.11401    181.8 9.752e+03 5.101e-10
 82.14228    184.0 9.497e+03 4.375e-10
 82.18224    186.3 9.225e+03 3.644e-10
 82.20307    187.5 9.729e+03 5.064e-10
 82.22559    189.9 9.548e+03 4.505e-10
 82.25133    192.2 9.292e+03 3.792e-10
 82.27216    191.3 9.284e+03 3.810e-10
 82.30891    193.4 8.996e+03 3.178e-10
 82.35057    195.6 8.768e+03 2.778e-10
 82.38865    199.0 9.089e+03 3.518e-10
 82.40948    198.2 9.154e+03 3.692e-10
 82.43388    200.1 9.224e+03 3.776e-10
 82.47554    201.5 9.316e+03 3.962e-10
 82.50669    202.5 9.469e+03 4.442e-10
 82.52742    203.7 9.726e+03 5.222e-10
 82.53982    204.6 1.002e+04 6.172e-10
 82.54859    205.3 1.020e+04 6.746e-10
 82.55701    204.6 1.040e+04 7.423e-10
 82.56907    205.2 1.066e+04 8.388e-10
 82.58990    205.8 1.090e+04 9.386e-10
 82.61073    206.3 1.113e+04 1.038e-09
 82.62406    206.8 1.134e+04 1.128e-09
 82.62858    207.6 1.136e+04 1.138e-09
 82.63608    206.4 1.139e+04 1.142e-09
 82.65239    206.6 1.148e+04 1.151e-09
 82.67322    206.7 1.150e+04 1.143e-09
 82.69405    206.8 1.150e+04 1.109e-09
 82.70474    206.8 1.147e+04 1.055e-09
 82.70858    204.9 1.124e+04 9.107e-10
 82.71871    205.4 1.131e+04 9.594e-10
 82.73571    205.2 1.126e+04 9.031e-10
 82.75654    205.0 1.123e+04 8.589e-10
 82.77340    204.9 1.126e+04 8.331e-10
 82.78381    202.0 1.114e+04 7.885e-10
 82.79254    201.7 1.123e+04 8.162e-10
 82.80295    201.2 1.156e+04 9.141e-10
 82.81902    199.6 1.227e+04 1.073e-09
 82.83985    192.8 1.642e+04 2.048e-09
 82.85242    187.9 1.853e+04 3.382e-09
 82.86284    179.8 1.872e+04 7.274e-09
 82.87625    176.3 1.933e+04 1.028e-08
 82.88188    172.1 2.201e+04 1.334e-08
 82.88709    163.6 2.983e+04 1.829e-08
 82.89191    153.7 4.214e+04 1.891e-08
 82.89712    153.4 4.115e+04 1.519e-08
 82.90745    143.6 4.991e+04 1.322e-08
 82.91786    132.8 5.408e+04 1.264e-08
 82.92400    121.5 5.300e+04 1.293e-08
 82.92717    110.6 4.577e+04 1.296e-08
 82.93145    115.4 4.856e+04 8.826e-09
 82.93869    106.1 3.894e+04 9.475e-09
 82.94911     99.2 2.871e+04 9.320e-09
 82.96096     98.8 2.588e+04 9.384e-09
 82.97143     91.1 1.939e+04 6.181e-09
 82.98565     89.1 1.682e+04 4.514e-09
 83.00020     88.1 1.454e+04 3.165e-09
 83.01062     92.3 1.631e+04 3.884e-09
 83.02731     92.0 1.483e+04 2.904e-09
 83.04525     91.8 1.350e+04 2.040e-09
 83.05566     90.1 1.227e+04 1.251e-09
 83.06886     90.8 1.205e+04 1.048e-09
 83.07928     92.8 1.189e+04 1.041e-09
 83.08980     93.3 1.163e+04 8.636e-10
 83.11063     93.8 1.138e+04 7.172e-10
 83.12949     94.4 1.112e+04 5.979e-10
 83.13990     93.7 1.084e+04 5.237e-10
 83.14793     94.4 1.063e+04 4.530e-10
 83.15835     95.5 1.070e+04 4.694e-10
 83.17312     96.0 1.056e+04 4.253e-10
 83.19394     96.5 1.046e+04 4.026e-10
 83.21372     97.0 1.044e+04 3.989e-10
 83.22414     96.3 1.035e+04 3.815e-10
 83.22701     96.8 1.035e+04 3.858e-10
 83.23742     97.5 1.046e+04 4.448e-10
 83.25643     98.1 1.051e+04 4.725e-10
 83.27726     98.7 1.060e+04 5.062e-10
 83.29566     99.4 1.070e+04 5.343e-10
 83.30595     99.6 1.082e+04 6.180e-10
 83.30838     99.1 1.077e+04 5.760e-10
 83.31892     99.7 1.078e+04 5.729e-10
 83.33975    100.3 1.078e+04 5.527e-10
 83.36058    100.9 1.073e+04 5.089e-10
 83.37474    101.5 1.061e+04 4.252e-10
 83.38515    101.4 1.061e+04 4.218e-10
 83.39261    101.5 1.053e+04 3.816e-10
 83.40312    100.9 1.051e+04 3.737e-10
 83.43318    101.6 1.041e+04 3.246e-10
 83.45400    100.8 1.034e+04 3.090e-10
 83.46482    101.2 1.029e+04 3.097e-10
 83.47685    101.2 1.028e+04 3.163e-10
 83.48726     99.8 1.037e+04 3.544e-10
 83.50638     99.5 1.053e+04 4.514e-10
 83.52247     99.4 1.079e+04 5.982e-10
 83.53288     99.0 1.072e+04 5.936e-10
 83.54804     99.1 1.103e+04 7.729e-10
 83.56109     99.3 1.142e+04 9.827e-10
 83.57150     97.9 1.192e+04 1.225e-09
 83.58970     97.8 1.231e+04 1.451e-09
 83.60154     97.5 1.264e+04 1.649e-09
 83.61195     96.9 1.241e+04 1.464e-09
 83.63135     96.4 1.251e+04 1.542e-09
 83.64533     95.7 1.252e+04 1.569e-09
 83.65574     93.1 1.259e+04 1.612e-09
 83.67020     92.4 1.249e+04 1.549e-09
 83.68061     92.5 1.219e+04 1.375e-09
 83.69384     92.0 1.208e+04 1.297e-09
 83.71467     91.5 1.194e+04 1.212e-09
 83.72956     91.0 1.175e+04 1.132e-09
 83.73998     88.6 1.157e+04 1.085e-09
 83.74927     88.5 1.136e+04 1.051e-09
 83.75969     89.1 1.106e+04 9.202e-10
 83.77716     89.3 1.103e+04 9.136e-10
 83.79799     89.7 1.103e+04 9.430e-10
 83.81380     90.3 1.109e+04 1.005e-09
 83.82333     88.9 1.116e+04 1.089e-09
 83.82834     89.6 1.095e+04 9.902e-10
 83.83964     90.4 1.110e+04 1.077e-09
 83.86047     91.3 1.124e+04 1.162e-09
 83.88130     92.4 1.138e+04 1.243e-09
 83.89700     93.5 1.151e+04 1.318e-09
 83.90332     94.1 1.134e+04 1.224e-09
 83.90845     93.1 1.112e+04 1.162e-09
 83.92296     94.3 1.116e+04 1.167e-09
 83.94379     95.5 1.116e+04 1.150e-09
 83.96462     96.7 1.118e+04 1.121e-09
 83.97607     97.7 1.118e+04 1.083e-09
 83.98332     97.7 1.101e+04 9.618e-10
 83.99269     95.8 1.080e+04 8.590e-10
 84.00628     96.3 1.082e+04 8.663e-10
 84.02710     96.8 1.086e+04 8.739e-10
 84.04473     97.2 1.088e+04 8.775e-10
 84.05515     96.6 1.105e+04 9.280e-10
 84.06651     97.0 1.113e+04 9.674e-10
 84.07693     95.0 1.134e+04 1.110e-09
 84.08959     95.4 1.150e+04 1.179e-09
 84.11042     95.6 1.166e+04 1.240e-09
 84.12380     95.7 1.179e+04 1.282e-09
 84.13422     95.7 1.236e+04 1.647e-09
 84.15075     95.6 1.237e+04 1.634e-09
 84.16117     93.8 1.238e+04 1.670e-09
 84.17291     93.4 1.234e+04 1.578e-09
 84.19246     92.8 1.217e+04 1.460e-09
 84.20288     93.1 1.257e+04 1.695e-09
 84.21457     91.8 1.240e+04 1.497e-09
 84.23499     90.1 1.241e+04 1.459e-09
 84.24540     87.5 1.218e+04 1.351e-09
 84.25622     85.5 1.221e+04 1.359e-09
 84.27154     83.6 1.227e+04 1.402e-09
 84.28195     83.3 1.213e+04 1.374e-09
 84.29788     81.5 1.212e+04 1.382e-09
 84.31871     79.6 1.214e+04 1.363e-09
 84.32964     77.1 1.221e+04 1.299e-09
 84.34005     75.2 1.174e+04 1.064e-09
 84.35061     71.9 1.174e+04 9.417e-10
 84.36102     71.2 1.168e+04 8.843e-10
 84.38120     67.2 1.156e+04 7.891e-10
 84.40203     63.1 1.129e+04 7.119e-10
 84.41388     59.3 1.107e+04 6.533e-10
 84.42070     58.6 1.077e+04 5.894e-10
 84.42968     58.2 1.091e+04 6.436e-10
 84.44368     55.1 1.094e+04 6.323e-10
 84.46451     52.2 1.099e+04 6.432e-10
 84.48534     47.0 1.169e+04 7.400e-10
 84.49807     44.1 1.298e+04 8.819e-10
 84.50060     44.6 1.266e+04 8.710e-10
 84.50345     43.5 1.347e+04 1.136e-09
 84.51128     34.4 2.082e+04 1.760e-09
 84.52170     17.1 3.111e+04 7.667e-09
 84.53211      7.8 2.843e+04 2.600e-08
 84.53778      4.4 2.301e+04 4.961e-08
 84.54060      2.9 2.425e+04 6.077e-08
 84.54534      2.6 2.503e+04 7.269e-08
 84.55294      2.2 2.349e+04 7.052e-08
 84.56335      2.6 2.261e+04 5.815e-08
 84.57211      2.5 2.268e+04 3.967e-08
 84.57731      1.1 2.384e+04 3.759e-08
 84.58226     -0.6 2.495e+04 1.822e-08
 84.58746      0.3 2.492e+04 2.046e-08
 84.59460     -2.4 2.543e+04 9.101e-09
 84.61027    -13.3 2.151e+04 3.153e-09
 84.63115    -21.6 1.417e+04 2.339e-09
 84.64607    -22.6 1.435e+04 2.572e-09
 84.65648    -22.6 1.366e+04 2.298e-09
 84.66659    -22.6 1.452e+04 2.899e-09
 84.67700    -20.3 1.376e+04 2.445e-09
 84.69363    -20.6 1.468e+04 3.249e-09
 84.71446    -20.7 1.535e+04 4.420e-09
 84.72514    -20.1 1.575e+04 5.705e-09
 84.73556    -19.7 1.542e+04 4.714e-09
 84.75083    -18.7 1.573e+04 5.864e-09
 84.76124    -17.0 1.548e+04 5.122e-09
 84.77695    -16.1 1.559e+04 5.921e-09
 84.79380    -14.9 1.548e+04 5.889e-09
 84.80421    -14.7 1.500e+04 4.456e-09
 84.81861    -13.7 1.472e+04 4.229e-09
 84.83507    -12.6 1.433e+04 3.682e-09
 84.84548    -11.1 1.425e+04 3.598e-09
 84.86027    -10.4 1.397e+04 3.124e-09
 84.87287     -9.7 1.367e+04 2.628e-09
 84.88329     -9.9 1.303e+04 1.980e-09
 84.90192     -9.4 1.285e+04 1.820e-09
 84.91930     -8.5 1.257e+04 1.647e-09
 84.92972     -7.0 1.245e+04 1.605e-09
 84.94153     -6.2 1.235e+04 1.537e-09
 84.95195     -5.9 1.181e+04 1.112e-09
 84.96441     -5.2 1.180e+04 1.153e-09
 84.98524     -4.5 1.179e+04 1.226e-09
 85.00354     -3.6 1.181e+04 1.321e-09
 85.01396     -2.3 1.174e+04 1.245e-09
 85.02060     -1.5 1.183e+04 1.342e-09
 85.03102     -1.2 1.145e+04 1.084e-09
 85.04773     -0.5 1.162e+04 1.190e-09
 85.06856     -0.1 1.204e+04 1.408e-09
 85.08778     -0.4 1.351e+04 2.039e-09
 85.09807      1.3 1.251e+04 1.650e-09
 85.09968      1.9 1.199e+04 1.280e-09
 85.11021      0.7 1.331e+04 1.956e-09
 85.13104     -1.4 1.614e+04 4.211e-09
 85.14662     -2.7 1.720e+04 5.902e-09
 85.15698     -2.8 1.779e+04 7.582e-09
 85.16740     -3.2 1.845e+04 9.800e-09
 85.17344     -3.2 1.860e+04 1.150e-08
 85.17797     -3.5 1.942e+04 1.247e-08
 85.18233     -3.0 1.956e+04 1.216e-08
 85.18822     -3.1 2.000e+04 1.446e-08
 85.19864     -3.1 1.990e+04 1.530e-08
 85.21431     -3.4 1.991e+04 1.565e-08
 85.23519     -3.9 1.971e+04 1.462e-08
 85.24741     -4.4 1.939e+04 1.115e-08
 85.25782     -4.4 1.899e+04 1.290e-08
 85.26667     -5.4 1.823e+04 8.403e-09
 85.27708     -4.3 1.848e+04 1.186e-08
 85.29767     -5.0 1.782e+04 8.002e-09
 85.31607     -5.7 1.741e+04 5.048e-09
 85.32648     -6.5 1.746e+04 6.597e-09
 85.33933     -7.1 1.731e+04 4.766e-09
 85.35091     -7.6 1.677e+04 3.407e-09
 85.36132     -6.4 1.803e+04 5.880e-09
 85.38099     -7.3 1.763e+04 4.887e-09
 85.39514     -8.0 1.653e+04 4.069e-09
 85.40555     -8.0 1.776e+04 6.305e-09
 85.42265     -9.5 1.675e+04 5.964e-09
 85.43514    -10.3 1.680e+04 6.105e-09
 85.44556    -10.4 1.796e+04 1.177e-08
 85.46380     -9.7 1.780e+04 1.088e-08
 85.47421    -10.3 1.784e+04 1.352e-08
 85.48514     -8.7 1.732e+04 1.151e-08
 85.50596     -6.9 1.682e+04 7.523e-09
 85.51938     -6.1 1.658e+04 4.218e-09
 85.52979     -5.9 1.606e+04 5.118e-09
 85.54287     -5.9 1.553e+04 2.841e-09
 85.55328     -5.5 1.528e+04 3.924e-09
 85.56845     -6.0 1.454e+04 2.446e-09
 85.58928     -6.2 1.360e+04 1.649e-09
 85.60362     -6.1 1.281e+04 1.311e-09
 85.61403     -5.9 1.282e+04 1.434e-09
 85.62194     -4.6 1.230e+04 1.245e-09
 85.63236     -4.4 1.269e+04 1.615e-09
 85.65177     -3.5 1.254e+04 1.459e-09
 85.67260     -2.4 1.215e+04 1.291e-09
 85.68786     -1.2 1.175e+04 1.143e-09
 85.69544     -0.2 1.189e+04 1.221e-09
 85.70101      0.5 1.220e+04 1.464e-09
 85.71425      1.6 1.192e+04 1.240e-09
 85.73508      2.2 1.166e+04 1.029e-09
 85.75591      2.4 1.142e+04 8.503e-10
 85.76967      2.4 1.102e+04 7.450e-10
 85.77544      3.5 1.107e+04 7.309e-10
 85.78251      5.0 1.126e+04 8.316e-10
 85.79757      4.9 1.078e+04 6.799e-10
 85.81840      5.4 1.037e+04 5.920e-10
 85.83833      6.2 1.010e+04 5.399e-10
 85.84874      7.0 1.003e+04 4.966e-10
 85.85633      8.0 9.838e+03 4.675e-10
 85.86674      9.2 9.956e+03 4.906e-10
 85.88089     10.4 9.792e+03 4.558e-10
 85.90172     11.6 9.733e+03 4.336e-10
 85.91740     12.8 9.720e+03 4.175e-10
 85.92782     13.6 9.608e+03 3.973e-10
 85.94057     15.0 9.655e+03 3.960e-10
 85.95098     16.2 9.659e+03 3.937e-10
 85.96420     17.3 9.661e+03 3.872e-10
 85.98503     19.0 9.745e+03 3.938e-10
 85.99657     21.2 1.026e+04 4.710e-10
 86.00699     20.4 1.012e+04 4.186e-10
 86.02481     21.2 1.018e+04 4.545e-10
 86.03522     22.7 1.007e+04 4.078e-10
 86.05803     24.2 1.052e+04 5.208e-10
 86.08927     25.3 1.085e+04 5.921e-10
 86.10904     24.1 1.184e+04 7.613e-10
 86.11946     26.3 1.256e+04 6.118e-10
 86.13083     23.6 1.415e+04 7.251e-10
 86.14421     19.7 1.514e+04 1.010e-09
 86.15462     -2.8 5.800e+04 6.380e-10
 86.16724     -3.6 3.409e+04 1.796e-09
 86.17760    -17.2 3.468e+04 3.926e-09
 86.18364    -28.5 3.139e+04 2.126e-08
 86.18885    -35.6 2.947e+04 4.328e-08
 86.19839    -44.4 2.746e+04 1.335e-07
 86.20880    -61.2 3.596e+04 1.349e-07
 86.21797    -78.9 4.537e+04 2.258e-08
 86.22318    -92.0 4.036e+04 1.445e-08
 86.22967   -104.8 2.271e+04 8.981e-09
 86.24009   -106.2 1.980e+04 7.649e-09
 86.24572   -105.8 1.916e+04 6.894e-09
 86.25092   -107.8 1.992e+04 7.383e-09
 86.25751   -107.2 1.921e+04 6.775e-09
 86.26272   -107.6 1.973e+04 6.897e-09
 86.27133   -106.8 1.906e+04 6.396e-09
 86.28175   -105.9 1.836e+04 5.950e-09
 86.28788   -104.7 1.756e+04 5.440e-09
 86.29282   -107.8 1.793e+04 5.648e-09
 86.30235   -107.9 1.774e+04 5.086e-09
 86.31830   -105.3 1.701e+04 4.618e-09
 86.33912   -103.1 1.638e+04 4.220e-09
 86.35995   -100.7 1.579e+04 3.822e-09
 86.37101    -98.3 1.529e+04 3.457e-09
 86.37281    -98.3 1.519e+04 3.195e-09
 86.38258    -99.4 1.467e+04 2.672e-09
 86.40161    -97.0 1.442e+04 2.608e-09
 86.42244    -94.6 1.415e+04 2.530e-09
 86.43967    -92.3 1.387e+04 2.395e-09
 86.45008    -91.8 1.363e+04 2.271e-09
 86.45641    -89.5 1.346e+04 2.158e-09
 86.46682    -89.8 1.313e+04 2.051e-09
 86.48493    -87.5 1.311e+04 2.013e-09
 86.50576    -85.4 1.289e+04 1.889e-09
 86.51874    -83.2 1.263e+04 1.761e-09
 86.52915    -82.8 1.280e+04 1.893e-09
 86.54065    -80.8 1.259e+04 1.772e-09
 86.55106    -80.7 1.263e+04 1.813e-09
 86.56824    -78.7 1.245e+04 1.706e-09
 86.58740    -76.8 1.227e+04 1.571e-09
 86.59781    -76.3 1.251e+04 1.800e-09
 86.60990    -74.6 1.234e+04 1.675e-09
 86.62488    -73.1 1.213e+04 1.524e-09
 86.63530    -72.5 1.231e+04 1.658e-09
 86.65156    -71.1 1.209e+04 1.500e-09
 86.66647    -69.6 1.186e+04 1.345e-09
 86.67689    -69.3 1.209e+04 1.482e-09
 86.69322    -67.8 1.165e+04 1.244e-09
 86.70912    -66.6 1.087e+04 9.691e-10
 86.71953    -66.1 1.156e+04 1.203e-09
 86.73488    -65.1 1.098e+04 9.868e-10
 86.74554    -64.7 1.043e+04 8.160e-10
 86.75596    -64.0 1.089e+04 9.377e-10
 86.77653    -64.1 1.067e+04 8.735e-10
 86.79336    -64.4 1.081e+04 8.822e-10
 86.80377    -64.3 1.178e+04 1.261e-09
 86.81420    -65.0 1.224e+04 1.449e-09
 86.82462    -64.7 1.290e+04 1.827e-09
 86.83902    -64.7 1.312e+04 2.004e-09
 86.85985    -64.6 1.318e+04 2.053e-09
 86.87760    -64.1 1.288e+04 1.932e-09
 86.88801    -63.7 1.401e+04 2.815e-09
 86.89327    -63.1 1.332e+04 2.269e-09
 86.90369    -62.4 1.385e+04 2.691e-09
 86.92234    -62.3 1.298e+04 1.996e-09
 86.94317    -62.2 1.201e+04 1.471e-09
 86.96183    -61.8 1.118e+04 1.105e-09
 86.97019    -61.5 1.171e+04 1.362e-09
 86.97235    -61.1 1.206e+04 1.566e-09
 86.98482    -60.3 1.124e+04 1.173e-09
 87.00565    -58.9 1.060e+04 8.908e-10
 87.02648    -57.5 1.014e+04 6.639e-10
 87.04110    -56.0 9.708e+03 4.524e-10
 87.05028    -55.9 9.980e+03 5.876e-10
 87.05649    -55.5 1.034e+04 7.150e-10
 87.06814    -54.6 9.991e+03 5.578e-10
 87.09948    -53.3 9.724e+03 4.388e-10
 87.13050    -50.5 9.076e+03 2.888e-10
 87.15133    -49.7 9.671e+03 4.241e-10
 87.17852    -47.0 9.315e+03 2.998e-10
 87.19935    -46.4 9.610e+03 3.716e-10
 87.22455    -43.8 9.282e+03 2.604e-10
 87.26621    -41.6 8.955e+03 1.847e-10
 87.29898    -39.8 8.806e+03 1.647e-10
 87.31981    -39.0 9.561e+03 2.361e-10
 87.33666    -37.8 9.721e+03 2.372e-10
 87.35749    -37.0 9.716e+03 2.248e-10
 87.39118    -36.3 9.889e+03 3.551e-10
 87.43284    -34.3 1.023e+04 5.525e-10
 87.46745    -32.2 1.053e+04 6.345e-10
 87.48776    -31.7 1.089e+04 7.815e-10
 87.49481    -31.2 1.052e+04 5.785e-10
 87.51616    -29.5 1.044e+04 4.701e-10
 87.55782    -27.9 1.025e+04 2.916e-10
 87.59947    -26.9 1.020e+04 1.791e-10
 87.63212    -25.9 1.011e+04 1.352e-10
 87.64775    -26.0 1.002e+04 1.110e-10
 87.65676    -25.4 1.027e+04 1.548e-10
 87.68279    -23.8 1.009e+04 1.588e-10
 87.72445    -21.9 1.009e+04 1.529e-10
 87.76611    -20.2 1.020e+04 1.331e-10
 87.79027    -19.1 1.025e+04 1.318e-10
 87.80774    -18.9 1.034e+04 1.509e-10
 87.82523    -18.6 1.058e+04 2.338e-10
 87.84942    -17.4 1.053e+04 2.300e-10
 87.89108    -15.9 1.037e+04 2.248e-10
 87.92758    -14.2 1.035e+04 2.066e-10
 87.94841    -14.0 1.036e+04 1.744e-10
 87.97288    -12.5 1.039e+04 1.465e-10
 87.99371    -12.2 1.042e+04 1.432e-10
 88.01605    -10.9 1.037e+04 1.262e-10
 88.05771     -9.4 1.037e+04 1.254e-10
 88.08573     -8.2 1.050e+04 1.341e-10
 88.10656     -7.8 1.049e+04 1.362e-10
 88.14103     -6.8 1.060e+04 1.803e-10
 88.16218     -5.3 1.066e+04 2.539e-10
 88.18301     -5.2 1.067e+04 3.061e-10
 88.22305     -3.8 1.080e+04 3.584e-10
 88.24387     -3.3 1.077e+04 3.498e-10
 88.26600     -2.1 1.073e+04 3.323e-10
 88.30766     -1.2 1.068e+04 2.810e-10
 88.33066     -0.8 1.057e+04 2.358e-10
 88.35149     -0.8 1.061e+04 2.791e-10
 88.38119     -0.5 1.046e+04 2.601e-10
 88.40202     -0.5 1.054e+04 2.905e-10
 88.43263     -0.3 1.052e+04 2.970e-10
 88.47429     -0.3 1.057e+04 3.466e-10
 88.49913     -0.1 1.078e+04 4.529e-10
 88.51996     -0.1 1.058e+04 4.163e-10
 88.53934      0.3 1.057e+04 4.276e-10
 88.56017      0.4 1.050e+04 4.345e-10
 88.59927      1.2 1.034e+04 3.843e-10
 88.64092      2.0 1.004e+04 2.849e-10
 88.66761      2.7 9.746e+03 2.055e-10
 88.68251      3.6 9.405e+03 1.533e-10
 88.69748      3.6 9.367e+03 1.492e-10
 88.72424      4.5 9.249e+03 1.379e-10
 88.76590      5.5 9.254e+03 1.404e-10
 88.80756      6.8 9.294e+03 1.513e-10
 88.83480      8.2 9.374e+03 1.679e-10
 88.84250      8.1 9.557e+03 2.048e-10
 88.85691      9.3 9.341e+03 1.683e-10
 88.89087     10.6 9.522e+03 2.090e-10
 88.93253     12.0 9.729e+03 2.485e-10
 88.97211     13.4 9.843e+03 2.784e-10
 88.99294     13.3 1.004e+04 3.238e-10
 89.00456     14.4 1.012e+04 3.198e-10
 89.02539     15.9 1.010e+04 3.344e-10
 89.05750     16.9 1.018e+04 3.410e-10
 89.09916     17.8 1.026e+04 3.453e-10
 89.13026     18.7 1.026e+04 3.372e-10
 89.15109     18.0 1.014e+04 2.840e-10
 89.17303     19.0 1.005e+04 2.563e-10
 89.19386     20.5 1.018e+04 2.891e-10
 89.22414     21.4 1.011e+04 2.515e-10
 89.26579     22.2 1.002e+04 2.145e-10
 89.28840     23.1 9.951e+03 1.865e-10
 89.30923     22.2 9.846e+03 1.692e-10
 89.34151     23.5 9.722e+03 1.452e-10
 89.36234     24.5 9.930e+03 1.950e-10
 89.39077     26.0 9.814e+03 1.603e-10
 89.42572     27.4 9.724e+03 1.253e-10
 89.44655     26.6 9.598e+03 1.243e-10
 89.47408     27.8 9.543e+03 1.112e-10
 89.50998     29.1 9.530e+03 1.118e-10
 89.53081     29.6 9.657e+03 1.336e-10
 89.55740     30.7 9.668e+03 1.414e-10
 89.58387     31.7 9.734e+03 1.689e-10
 89.60469     31.2 9.826e+03 2.573e-10
 89.64072     32.2 1.006e+04 3.350e-10
 89.67846     32.9 1.046e+04 4.926e-10
 89.69929     32.9 1.032e+04 4.463e-10
 89.72118     33.3 1.069e+04 5.863e-10
 89.74201     32.8 1.061e+04 5.941e-10
 89.76569     32.8 1.079e+04 6.405e-10
 89.80735     32.6 1.077e+04 6.251e-10
 89.84693     32.6 1.063e+04 5.444e-10
 89.86776     31.4 1.064e+04 5.061e-10
 89.87933     31.5 1.042e+04 3.930e-10
 89.90016     32.0 1.003e+04 3.275e-10
 89.93232     32.3 9.883e+03 2.428e-10
 89.97398     32.8 9.807e+03 1.957e-10
 90.01541     33.7 9.786e+03 1.862e-10
 90.03624     32.7 9.826e+03 1.731e-10
 90.03747     34.3 9.764e+03 1.611e-10
 90.05830     35.7 9.607e+03 1.620e-10
 90.09895     37.6 9.607e+03 1.529e-10
 90.14061     39.6 9.604e+03 1.426e-10
 90.17479     41.6 9.598e+03 1.341e-10
 90.19562     43.0 9.583e+03 1.431e-10
 90.20471     44.9 9.599e+03 1.368e-10
 90.22554     44.6 9.479e+03 1.054e-10
 90.26559     46.5 9.502e+03 1.082e-10
 90.30724     48.4 9.542e+03 1.155e-10
 90.33293     50.2 9.585e+03 1.261e-10
 90.35376     51.4 9.611e+03 1.361e-10
 90.37319     53.2 9.679e+03 1.536e-10
 90.39402     53.1 9.634e+03 1.469e-10
 90.43222     54.9 9.703e+03 1.585e-10
 90.47025     56.8 9.767e+03 1.631e-10
 90.49108     57.9 9.851e+03 1.772e-10
 90.51553     59.6 9.887e+03 1.738e-10
 90.54166     61.2 9.965e+03 1.675e-10
 90.56249     60.9 9.989e+03 1.516e-10
 90.59885     62.6 1.002e+04 1.515e-10
 90.62840     64.1 1.010e+04 1.536e-10
 90.64922     64.9 1.010e+04 1.536e-10
 90.68217     66.3 1.018e+04 1.590e-10
 90.71014     67.5 1.029e+04 1.686e-10
 90.73097     67.5 1.031e+04 1.684e-10
 90.76548     68.6 1.055e+04 1.856e-10
 90.78654     69.0 1.101e+04 2.270e-10
 90.80737     69.8 1.097e+04 2.309e-10
 90.83829     69.2 1.129e+04 2.796e-10
 90.85500     68.4 1.154e+04 3.567e-10
 90.86542     68.7 1.154e+04 3.565e-10
 90.87842     68.0 1.165e+04 4.951e-10
 90.88883     67.6 1.167e+04 6.256e-10
 90.90068     67.5 1.172e+04 7.850e-10
 90.92150     67.5 1.180e+04 9.078e-10
 90.93408     67.5 1.193e+04 9.210e-10
 90.94449     67.8 1.193e+04 9.268e-10
 90.96266     67.5 1.195e+04 8.771e-10
 90.97307     67.3 1.172e+04 7.015e-10
 90.98399     66.4 1.155e+04 5.862e-10
 91.00273     65.4 1.133e+04 5.333e-10
 91.01315     65.6 1.133e+04 5.144e-10
 91.02565     65.2 1.119e+04 5.075e-10
 91.04699     64.7 1.130e+04 5.730e-10
 91.06792     65.6 1.087e+04 4.270e-10
 91.08200     65.3 1.093e+04 4.718e-10
 91.10283     65.4 1.083e+04 4.555e-10
 91.14040     65.1 1.106e+04 5.877e-10
 91.18206     64.9 1.128e+04 7.440e-10
 91.21556     64.9 1.133e+04 7.931e-10
 91.23199     65.9 1.127e+04 7.548e-10
 91.24015     66.1 1.099e+04 6.356e-10
 91.26538     66.1 1.100e+04 6.450e-10
 91.30704     66.2 1.092e+04 6.083e-10
 91.34869     66.7 1.066e+04 5.072e-10
 91.37746     67.6 1.031e+04 3.788e-10
 91.39198     67.9 1.019e+04 3.380e-10
 91.40487     68.5 1.030e+04 3.872e-10
 91.43201     69.7 9.979e+03 2.818e-10
 91.47367     70.9 9.712e+03 2.226e-10
 91.51478     72.3 9.672e+03 2.178e-10
 91.53561     72.5 9.731e+03 2.415e-10
 91.55251     73.9 9.764e+03 2.546e-10
 91.57334     74.6 9.773e+03 2.693e-10
 91.59864     75.9 9.885e+03 3.135e-10
 91.64030     77.3 1.009e+04 4.097e-10
 91.67292     78.7 1.036e+04 5.455e-10
 91.69375     78.6 1.052e+04 6.484e-10
 91.72099     79.8 1.069e+04 7.304e-10
 91.74182     80.8 1.040e+04 5.755e-10
 91.76527     81.9 1.051e+04 6.216e-10
 91.80693     82.8 1.052e+04 6.278e-10
 91.83107     83.7 1.044e+04 5.831e-10
 91.85190     83.4 1.042e+04 5.939e-10
 91.88946     84.3 1.023e+04 5.115e-10
 91.91029     85.7 1.042e+04 5.966e-10
 91.93191     86.6 1.030e+04 5.457e-10
 91.96839     87.5 1.015e+04 4.892e-10
 91.98922     87.2 9.998e+03 4.545e-10
 92.01522     88.0 9.889e+03 4.182e-10
 92.05688     88.7 9.840e+03 3.918e-10
 92.07877     89.2 9.789e+03 3.591e-10
 92.09960     89.9 1.025e+04 5.212e-10
 92.12653     89.8 1.018e+04 4.937e-10
 92.14736     89.3 9.995e+03 4.602e-10
 92.18185     89.0 1.006e+04 4.895e-10
 92.22351     88.5 1.012e+04 5.211e-10
 92.24724     88.0 1.014e+04 5.380e-10
 92.26675     87.5 1.049e+04 6.450e-10
 92.28468     87.3 1.044e+04 6.388e-10
 92.30683     86.6 1.023e+04 5.403e-10
 92.34849     85.9 9.931e+03 4.063e-10
 92.39015     85.0 9.830e+03 3.239e-10
 92.41572     83.6 9.911e+03 3.283e-10
 92.42674     80.8 1.013e+04 3.454e-10
 92.44282     81.0 1.002e+04 3.435e-10
 92.47346     79.3 1.047e+04 4.505e-10
 92.51512     78.2 1.086e+04 5.651e-10
 92.54626     77.1 1.110e+04 6.320e-10
 92.56700     76.5 1.101e+04 6.430e-10
 92.58004     76.9 1.101e+04 6.756e-10
 92.58672     77.3 1.098e+04 6.627e-10
 92.59451     75.6 1.083e+04 5.640e-10
 92.60865     75.3 1.078e+04 5.118e-10
 92.64000     73.9 1.042e+04 3.681e-10
 92.68175     73.5 1.027e+04 3.249e-10
 92.71745     73.2 1.017e+04 3.204e-10
 92.73828     73.5 1.021e+04 3.643e-10
 92.75267     73.6 1.027e+04 4.016e-10
 92.77350     72.7 1.033e+04 4.424e-10
 92.80673     72.9 1.051e+04 5.113e-10
 92.84838     73.0 1.064e+04 5.468e-10
 92.87560     72.7 1.072e+04 5.636e-10
 92.89643     73.1 1.071e+04 5.821e-10
 92.92114     72.8 1.074e+04 5.854e-10
 92.94197     72.1 1.067e+04 5.475e-10
 92.97336     71.6 1.085e+04 6.032e-10
 93.01292     71.2 1.115e+04 7.552e-10
 93.03374     71.6 1.094e+04 6.844e-10
 93.05667     71.2 1.117e+04 8.478e-10
 93.08962     71.3 1.114e+04 8.629e-10
 93.10401     70.8 1.091e+04 7.553e-10
 93.11262     71.2 1.089e+04 7.294e-10
 93.13989     71.3 1.062e+04 6.084e-10
 93.17106     72.0 1.025e+04 4.557e-10
 93.18400     72.4 1.015e+04 4.307e-10
 93.19449     72.3 1.006e+04 3.883e-10
 93.22321     73.0 9.867e+03 3.297e-10
 93.25809     73.6 9.595e+03 2.829e-10
 93.27892     73.8 9.415e+03 2.522e-10
 93.30662     74.8 9.397e+03 2.535e-10
 93.32921     76.0 9.379e+03 2.638e-10
 93.35004     76.8 9.496e+03 2.857e-10
 93.38994     77.9 9.458e+03 2.964e-10
 93.42657     79.1 9.423e+03 2.967e-10
 93.44740     79.8 9.386e+03 2.908e-10
 93.46652     80.9 9.275e+03 2.809e-10
 93.48735     81.7 9.366e+03 2.977e-10
 93.51491     82.9 9.331e+03 2.949e-10
 93.55657     84.0 9.355e+03 2.995e-10
 93.59504     85.0 9.418e+03 3.143e-10
 93.61587     85.7 9.449e+03 3.182e-10
 93.62467     86.6 9.571e+03 3.522e-10
 93.64550     87.3 9.778e+03 4.182e-10
 93.67103     87.7 9.863e+03 4.507e-10
 93.68950     87.9 9.917e+03 4.713e-10
 93.69991     88.2 9.879e+03 4.671e-10
 93.70354     88.7 1.010e+04 5.513e-10
 93.71396     89.2 1.021e+04 6.089e-10
 93.73342     89.6 1.046e+04 7.175e-10
 93.75425     89.9 1.071e+04 8.437e-10
 93.77220     90.2 1.094e+04 9.832e-10
 93.78128     90.7 1.106e+04 1.043e-09
 93.78415     91.2 1.109e+04 1.050e-09
 93.79591     91.5 1.133e+04 1.183e-09
 93.81674     91.5 1.136e+04 1.205e-09
 93.84808     92.2 1.133e+04 1.155e-09
 93.88983     92.0 1.097e+04 9.464e-10
 93.92013     91.7 1.039e+04 6.744e-10
 93.94096     92.7 1.024e+04 5.962e-10
 93.95282     92.5 9.858e+03 4.965e-10
 93.96314     92.4 1.031e+04 6.623e-10
 93.98337     92.3 1.015e+04 6.162e-10
 93.99901     92.3 9.950e+03 5.477e-10
 94.00942     92.7 1.003e+04 6.044e-10
 94.02503     92.8 9.920e+03 5.758e-10
 94.03686     93.0 9.832e+03 5.511e-10
 94.04728     93.3 1.007e+04 6.664e-10
 94.06668     93.5 9.919e+03 6.086e-10
 94.07808     93.9 9.753e+03 5.474e-10
 94.08849     94.5 9.896e+03 6.329e-10
 94.10834     94.9 9.726e+03 5.660e-10
 94.12110     95.2 9.584e+03 5.097e-10
 94.13152     95.4 9.596e+03 5.179e-10
 94.14674     95.8 9.565e+03 4.910e-10
 94.15715     96.3 9.629e+03 5.266e-10
 94.17083     96.7 9.641e+03 5.212e-10
 94.19166     96.9 9.686e+03 5.285e-10
 94.20534     96.9 9.885e+03 5.731e-10
 94.21575     97.4 9.696e+03 5.230e-10
 94.22581     97.0 1.019e+04 6.535e-10
 94.23622     97.7 1.011e+04 6.312e-10
 94.25415     96.9 1.100e+04 9.181e-10
 94.27497     96.4 1.165e+04 1.437e-09
 94.28958     96.0 1.225e+04 2.084e-09
 94.29866     96.4 1.211e+04 2.015e-09
 94.30488     96.9 1.198e+04 1.844e-09
 94.31663     93.1 1.531e+04 4.161e-09
 94.33165     90.2 1.709e+04 6.254e-09
 94.33681     90.5 1.699e+04 6.128e-09
 94.33911     87.1 1.913e+04 9.394e-09
 94.34432     87.4 1.907e+04 9.043e-09
 94.35299     82.7 2.162e+04 1.674e-08
 94.36340     78.5 2.289e+04 2.987e-08
 94.37344     75.2 2.261e+04 3.688e-08
 94.37855     75.3 2.245e+04 3.789e-08
 94.37892     75.9 2.237e+04 3.808e-08
 94.38423     73.6 2.207e+04 3.696e-08
 94.39464     72.0 2.118e+04 2.957e-08
 94.40506     70.5 2.040e+04 2.114e-08
 94.42073     68.1 1.978e+04 9.214e-09
 94.44161     60.1 1.882e+04 1.491e-09
 94.45261     43.8 1.151e+04 2.965e-10
 94.45864     43.8 1.175e+04 2.939e-10
 94.47898     43.5 1.135e+04 3.025e-10
 94.51105     37.9 8.428e+03 2.385e-10
 94.53188     37.4 8.600e+03 2.660e-10
 94.55636     35.8 8.427e+03 2.338e-10
 94.59802     34.1 8.392e+03 2.162e-10
 94.62672     32.1 8.438e+03 2.205e-10
 94.64755     32.0 8.380e+03 2.013e-10
 94.66920     29.3 8.551e+03 2.167e-10
 94.69003     28.4 8.612e+03 2.182e-10
 94.71086     27.3 8.816e+03 2.548e-10
 94.72118     27.3 8.769e+03 2.400e-10
 94.73321     24.9 9.314e+03 3.099e-10
 94.74807     18.8 1.122e+04 6.110e-10
 94.75849     14.9 1.250e+04 9.632e-10
 94.77487     12.0 1.281e+04 1.765e-09
 94.79500     11.5 1.279e+04 2.334e-09
 94.80542     10.9 1.282e+04 2.594e-09
 94.81653     10.3 1.284e+04 2.528e-09
 94.82715      9.1 1.284e+04 2.259e-09
 94.83756      7.6 1.300e+04 2.147e-09
 94.85819      4.3 1.248e+04 1.535e-09
 94.87902      0.9 1.159e+04 1.172e-09
 94.88965     -1.2 1.095e+04 1.004e-09
 94.89603     -2.3 1.059e+04 8.634e-10
 94.90622     -4.3 1.053e+04 9.148e-10
 94.92067     -4.5 1.050e+04 9.121e-10
 94.94150     -4.8 1.057e+04 8.923e-10
 94.96233     -5.7 1.077e+04 9.225e-10
 94.97389     -6.7 1.099e+04 9.786e-10
 94.97602     -7.3 1.087e+04 9.077e-10
 94.98529     -8.7 1.087e+04 9.003e-10
 95.01450    -11.0 1.107e+04 1.019e-09
 95.05626    -12.7 1.186e+04 1.392e-09
 95.08740    -15.7 1.238e+04 1.674e-09
 95.10813    -17.2 1.283e+04 1.975e-09
 95.12261    -18.3 1.296e+04 2.413e-09
 95.13302    -18.9 1.253e+04 2.320e-09
 95.14237    -18.6 1.252e+04 2.475e-09
 95.15278    -18.6 1.223e+04 2.057e-09
 95.17062    -18.8 1.247e+04 1.994e-09
 95.19127    -19.6 1.273e+04 1.874e-09
 95.20168    -20.8 1.258e+04 1.680e-09
 95.21228    -22.3 1.217e+04 1.417e-09
 95.22660    -23.2 1.152e+04 1.212e-09
 95.23702    -23.2 1.145e+04 1.239e-09
 95.26002    -23.5 1.128e+04 9.895e-10
 95.28095    -25.1 1.127e+04 9.735e-10
 95.30062    -26.3 1.123e+04 8.232e-10
 95.32145    -26.3 1.124e+04 8.162e-10
 95.34786    -27.9 1.152e+04 9.728e-10
 95.38952    -28.3 1.176e+04 1.505e-09
 95.41827    -27.7 1.203e+04 1.731e-09
 95.43909    -28.0 1.153e+04 1.347e-09
 95.46910    -27.3 1.122e+04 9.274e-10
 95.48993    -27.4 1.087e+04 7.335e-10
 95.51450    -28.3 1.029e+04 4.465e-10
 95.55558    -28.9 9.795e+03 2.975e-10
 95.57641    -28.8 9.508e+03 2.352e-10
 95.59781    -28.5 9.534e+03 1.754e-10
 95.63757    -29.0 9.573e+03 1.596e-10
 95.65840    -28.9 9.879e+03 2.019e-10
 95.68113    -29.4 9.820e+03 2.330e-10
 95.71373    -29.1 9.826e+03 3.099e-10
 95.73456    -28.2 1.009e+04 3.906e-10
 95.76444    -27.9 1.032e+04 4.054e-10
 95.80605    -28.5 1.056e+04 4.267e-10
 95.84771    -28.8 1.066e+04 5.801e-10
 95.87187    -28.1 1.042e+04 4.387e-10
 95.89270    -27.5 1.038e+04 3.756e-10
 95.93108    -27.6 1.012e+04 2.229e-10
 95.97273    -27.9 9.829e+03 1.639e-10
 95.99535    -27.4 9.671e+03 1.490e-10
 96.01098    -27.2 9.710e+03 1.446e-10
 96.03002    -26.7 9.688e+03 1.234e-10
 96.05605    -25.8 9.771e+03 1.230e-10
 96.09771    -25.2 9.965e+03 1.336e-10
 96.13937    -24.4 9.909e+03 1.711e-10
 96.16383    -23.0 9.828e+03 2.055e-10
 96.17097    -22.6 9.843e+03 2.001e-10
 96.18816    -21.9 9.825e+03 1.502e-10
 96.22268    -20.6 9.904e+03 1.468e-10
 96.26434    -19.5 1.001e+04 1.282e-10
 96.30465    -18.9 1.013e+04 1.129e-10
 96.32548    -18.0 1.005e+04 1.157e-10
 96.33230    -17.3 1.012e+04 1.179e-10
 96.35313    -17.3 1.016e+04 1.176e-10
 96.38931    -17.1 1.036e+04 1.314e-10
 96.43097    -16.8 1.040e+04 1.601e-10
 96.46279    -16.3 1.046e+04 1.930e-10
 96.48362    -15.4 1.060e+04 2.021e-10
 96.50078    -15.1 1.079e+04 2.223e-10
 96.52161    -14.9 1.081e+04 2.169e-10
 96.55595    -14.9 1.110e+04 2.297e-10
 96.58492    -16.1 1.144e+04 2.881e-10
 96.59523    -16.9 1.166e+04 2.940e-10
 96.60782    -20.4 1.284e+04 4.097e-10
 96.62074    -25.4 1.538e+04 9.908e-10
 96.63116    -23.4 1.397e+04 9.375e-10
 96.64948    -26.5 1.568e+04 2.727e-09
 96.66906    -26.4 1.636e+04 6.164e-09
 96.67947    -26.4 1.749e+04 1.128e-08
 96.68940    -25.6 1.734e+04 1.208e-08
 96.69982    -26.0 1.718e+04 9.586e-09
 96.71197    -25.7 1.667e+04 7.082e-09
 96.73280    -26.7 1.624e+04 4.364e-09
 96.75330    -28.9 1.507e+04 2.520e-09
 96.76371    -30.4 1.488e+04 2.156e-09
 96.76848    -32.1 1.317e+04 1.335e-09
 96.77889    -31.5 1.337e+04 1.707e-09
 96.79528    -31.3 1.276e+04 1.406e-09
 96.81611    -30.3 1.242e+04 1.209e-09
 96.83694    -28.6 1.182e+04 8.035e-10
 96.84755    -27.6 1.169e+04 5.646e-10
 96.84814    -27.6 1.184e+04 9.654e-10
 96.85836    -27.9 1.183e+04 9.642e-10
 96.87860    -26.5 1.166e+04 6.178e-10
 96.89943    -25.4 1.157e+04 4.288e-10
 96.91630    -25.0 1.150e+04 2.244e-10
 96.92672    -23.8 1.175e+04 4.465e-10
 96.93218    -23.5 1.156e+04 3.362e-10
 96.94260    -23.5 1.148e+04 3.643e-10
 96.97243    -21.8 1.183e+04 3.289e-10
 97.00620    -20.7 1.160e+04 2.277e-10
 97.02703    -20.9 1.176e+04 3.153e-10
 97.05372    -19.7 1.140e+04 3.049e-10
 97.07445    -19.2 1.182e+04 3.959e-10
 97.08689    -18.0 1.155e+04 4.228e-10
 97.10066    -17.8 1.147e+04 4.185e-10
 97.11107    -17.7 1.181e+04 5.368e-10
 97.12855    -16.6 1.178e+04 5.953e-10
 97.14301    -16.4 1.180e+04 6.009e-10
 97.15342    -16.1 1.213e+04 7.489e-10
 97.17458    -15.3 1.193e+04 6.488e-10
 97.19551    -15.6 1.230e+04 9.418e-10
 97.21177    -15.1 1.213e+04 8.449e-10
 97.22208    -14.9 1.214e+04 9.403e-10
 97.23269    -14.2 1.191e+04 8.215e-10
 97.25352    -13.5 1.188e+04 6.698e-10
 97.26913    -12.9 1.179e+04 5.436e-10
 97.27955    -13.0 1.178e+04 5.445e-10
 97.29074    -12.4 1.166e+04 4.302e-10
 97.30115    -12.5 1.160e+04 4.322e-10
 97.31601    -12.2 1.158e+04 3.476e-10
 97.33684    -12.1 1.166e+04 2.917e-10
 97.35337    -12.1 1.172e+04 2.862e-10
 97.36379    -12.9 1.194e+04 2.940e-10
 97.36981    -13.3 1.205e+04 3.468e-10
 97.38023    -13.0 1.199e+04 4.038e-10
 97.39933    -12.5 1.196e+04 4.843e-10
 97.43067    -11.5 1.223e+04 8.094e-10
 97.47242    -10.2 1.280e+04 1.213e-09
 97.50357    -10.1 1.310e+04 1.461e-09
 97.51754     -9.4 1.313e+04 1.589e-09
 97.52551     -8.6 1.317e+04 1.664e-09
 97.53226     -9.1 1.296e+04 1.543e-09
 97.54513     -9.3 1.329e+04 1.606e-09
 97.56596    -10.2 1.368e+04 1.765e-09
 97.58620    -11.1 1.379e+04 2.066e-09
 97.59662    -10.1 1.398e+04 2.008e-09
 97.60609    -10.6 1.397e+04 2.389e-09
 97.61650    -11.3 1.355e+04 2.147e-09
 97.62844    -10.8 1.323e+04 2.378e-09
 97.64927     -9.6 1.297e+04 2.210e-09
 97.66527     -8.8 1.281e+04 1.818e-09
 97.67569     -8.3 1.323e+04 2.379e-09
 97.69032     -8.1 1.309e+04 1.887e-09
 97.70074     -9.0 1.275e+04 1.562e-09
 97.71176     -9.5 1.256e+04 1.218e-09
 97.73259    -10.2 1.217e+04 9.789e-10
 97.74435    -10.4 1.163e+04 8.241e-10
 97.75476     -9.7 1.227e+04 1.231e-09
 97.77425     -9.7 1.190e+04 1.099e-09
 97.78497     -9.3 1.142e+04 9.407e-10
 97.79539     -9.4 1.114e+04 7.808e-10
 97.81300     -8.7 1.070e+04 6.390e-10
 97.82342     -8.1 1.125e+04 9.181e-10
 97.83673     -7.9 1.100e+04 6.937e-10
 97.85756     -8.2 1.087e+04 5.554e-10
 97.86921     -8.3 1.059e+04 4.656e-10
 97.87963     -8.4 1.030e+04 3.867e-10
 97.89208     -8.4 1.020e+04 3.784e-10
 97.90249     -8.4 1.035e+04 4.843e-10
 97.92005     -7.8 1.022e+04 4.627e-10
 97.94088     -7.4 1.023e+04 4.618e-10
 97.95345     -6.1 1.013e+04 4.373e-10
 97.96289     -5.9 1.007e+04 3.875e-10
 97.97115     -6.0 1.011e+04 4.225e-10
 97.98254     -5.6 1.013e+04 4.093e-10
 98.00337     -4.2 1.009e+04 3.562e-10
 98.02420     -4.2 1.012e+04 3.504e-10
 98.03778     -3.1 1.015e+04 3.038e-10
 98.05871     -2.6 9.962e+03 2.620e-10
 98.09729     -0.6 9.710e+03 2.003e-10
 98.11908      1.3 9.537e+03 1.570e-10
 98.13991      0.5 9.939e+03 2.315e-10
 98.18061      2.3 9.793e+03 2.020e-10
 98.20636      4.1 9.798e+03 2.049e-10
 98.22719      4.3 9.743e+03 2.185e-10
 98.25639      6.1 9.822e+03 2.457e-10
 98.27722      5.6 1.084e+04 6.087e-10
 98.30558      7.7 1.085e+04 6.667e-10
 98.34724      9.9 1.080e+04 6.992e-10
 98.37483     12.4 1.070e+04 6.805e-10
 98.39566     12.9 1.033e+04 5.471e-10
 98.41454     15.3 1.024e+04 4.705e-10
 98.43537     14.8 1.028e+04 4.458e-10
 98.47221     17.1 1.009e+04 3.563e-10
 98.51387     19.3 9.932e+03 2.947e-10
 98.54331     21.7 9.804e+03 2.556e-10
 98.56046     22.3 9.648e+03 2.176e-10
 98.57268     21.7 9.547e+03 1.735e-10
 98.59719     24.4 9.476e+03 1.619e-10
 98.63885     27.0 9.461e+03 1.567e-10
 98.68050     29.8 9.478e+03 1.538e-10
 98.71000     32.5 9.555e+03 1.527e-10
 98.72045     31.7 9.367e+03 1.199e-10
 98.73261     32.3 9.357e+03 1.188e-10
 98.76382     34.8 9.329e+03 1.208e-10
 98.80548     37.2 9.315e+03 1.259e-10
 98.84714     39.7 9.351e+03 1.321e-10
 98.88026     41.5 9.249e+03 1.304e-10
 98.90109     41.9 9.262e+03 1.304e-10
 98.93045     44.2 9.306e+03 1.457e-10
 98.97211     46.8 9.654e+03 1.827e-10
 99.00546     49.2 1.019e+04 2.547e-10
 99.02629     48.4 9.901e+03 2.017e-10
 99.04873     50.1 1.031e+04 2.542e-10
 99.06946     48.9 1.085e+04 3.550e-10
 99.08434     49.1 1.115e+04 4.919e-10
 99.09475     47.8 1.154e+04 4.391e-10
 99.10730     46.2 1.246e+04 8.449e-10
 99.12813     44.1 1.399e+04 2.016e-09
 99.14319     42.9 1.570e+04 4.879e-09
 99.15360     41.7 1.596e+04 6.047e-09
 99.16341     40.8 1.735e+04 9.982e-09
 99.17382     39.5 1.842e+04 1.603e-08
 99.18526     38.7 1.928e+04 2.277e-08
 99.19042     38.4 1.880e+04 2.251e-08
 99.19573     38.2 1.873e+04 2.474e-08
 99.20285     37.9 1.870e+04 2.330e-08
 99.20806     37.3 1.882e+04 2.301e-08
 99.21656     37.2 1.848e+04 1.883e-08
 99.22697     36.5 1.802e+04 1.306e-08
 99.23254     35.0 1.730e+04 9.409e-09
 99.23754     34.2 1.668e+04 7.363e-09
 99.24243     34.9 1.656e+04 6.903e-09
 99.25311     32.7 1.544e+04 3.035e-09
 99.27394     27.0 1.400e+04 1.168e-09
 99.29476     19.1 1.185e+04 7.636e-10
 99.31114     14.4 1.082e+04 8.026e-10
 99.31763     14.8 1.063e+04 6.096e-10
 99.32208     14.8 1.049e+04 6.681e-10
 99.33642     14.7 1.071e+04 9.385e-10
 99.35725     15.0 1.077e+04 1.063e-09
 99.37808     15.4 1.070e+04 1.032e-09
 99.39021     15.9 1.044e+04 8.867e-10
 99.39762     16.4 1.046e+04 9.243e-10
 99.40632     16.6 1.065e+04 1.001e-09
 99.41974     16.7 1.035e+04 7.507e-10
 99.44057     16.3 1.008e+04 5.207e-10
 99.45897     15.1 9.647e+03 3.453e-10
 99.46938     16.3 9.859e+03 4.155e-10
 99.48014     15.5 9.599e+03 3.328e-10
 99.49055     15.2 9.607e+03 3.458e-10
 99.51357     15.5 9.352e+03 2.910e-10
 99.55416     15.7 9.037e+03 2.393e-10
 99.57499     15.2 9.055e+03 2.417e-10
 99.59638     15.6 9.066e+03 2.423e-10
 99.61721     15.6 9.448e+03 2.994e-10
 99.63864     14.9 9.650e+03 3.325e-10
 99.66978     14.3 9.751e+03 3.950e-10
 99.68568     14.0 9.869e+03 4.728e-10
 99.69609     13.6 9.984e+03 5.446e-10
 99.71134     13.9 1.019e+04 6.741e-10
 99.73217     14.3 1.036e+04 6.959e-10
 99.74327     14.3 1.035e+04 6.525e-10
 99.75368     13.8 1.020e+04 5.510e-10
 99.76475     13.5 1.012e+04 4.884e-10
 99.77526     12.9 1.004e+04 4.549e-10
 99.80527     12.8 9.721e+03 3.155e-10
 99.84693     12.2 9.417e+03 2.358e-10
 99.88859     11.6 9.463e+03 2.443e-10
 99.91194     11.0 9.756e+03 3.202e-10
 99.91520     11.0 9.773e+03 3.138e-10
 99.93350     10.7 9.769e+03 2.755e-10
 99.97190     10.4 1.019e+04 4.185e-10
 99.99608     10.4 1.033e+04 4.664e-10
100.00639     10.2 1.046e+04 5.153e-10
