# Columns:
#   distance along LOS (in CHIMPs)
#   peculiar velocity  (in km/s)
#   temperature (K)
#   HI number density
# pos=(201.003,155.791,50.6534), angles=(2.97066,1.72768)
  0.00836    -75.0 9.738e+03 4.442e-10
  0.02071    -74.4 9.738e+03 4.469e-10
  0.04453    -73.0 9.401e+03 3.540e-10
  0.08417    -71.5 9.136e+03 2.862e-10
  0.12381    -69.9 9.072e+03 2.678e-10
  0.16345    -68.8 9.126e+03 2.709e-10
  0.18904    -69.8 1.096e+04 4.619e-10
  0.20886    -66.6 9.376e+03 2.844e-10
  0.23272    -68.4 1.132e+04 5.282e-10
  0.25244    -71.4 1.299e+04 1.265e-09
  0.27226    -72.2 1.396e+04 2.695e-09
  0.29209    -72.1 1.463e+04 4.601e-09
  0.30643    -71.2 1.514e+04 5.992e-09
  0.31634    -70.8 1.512e+04 5.708e-09
  0.33173    -69.9 1.551e+04 6.673e-09
  0.35155    -69.5 1.562e+04 6.792e-09
  0.37137    -69.2 1.544e+04 5.506e-09
  0.39119    -70.6 1.491e+04 3.631e-09
  0.41101    -72.7 1.402e+04 2.334e-09
  0.42401    -74.5 1.325e+04 1.709e-09
  0.43392    -73.1 1.406e+04 2.709e-09
  0.45065    -74.3 1.375e+04 2.413e-09
  0.47047    -74.9 1.368e+04 2.283e-09
  0.49029    -75.3 1.361e+04 2.164e-09
  0.51011    -75.6 1.340e+04 1.921e-09
  0.52993    -76.0 1.287e+04 1.552e-09
  0.54159    -76.7 1.204e+04 1.181e-09
  0.55150    -74.9 1.386e+04 2.275e-09
  0.56957    -75.6 1.277e+04 1.471e-09
  0.58939    -76.5 1.149e+04 1.041e-09
  0.60921    -77.2 1.082e+04 9.236e-10
  0.62903    -77.4 1.071e+04 9.526e-10
  0.64885    -77.1 1.083e+04 1.028e-09
  0.65918    -76.7 1.117e+04 1.214e-09
  0.66909    -76.3 1.081e+04 9.940e-10
  0.68849    -75.8 1.111e+04 1.175e-09
  0.70831    -75.2 1.155e+04 1.436e-09
  0.72813    -74.4 1.193e+04 1.680e-09
  0.74473    -73.6 1.203e+04 1.759e-09
  0.75464    -73.8 1.195e+04 1.716e-09
  0.76685    -73.0 1.189e+04 1.670e-09
  0.77676    -72.8 1.167e+04 1.572e-09
  0.78759    -71.9 1.169e+04 1.543e-09
  0.80741    -71.0 1.143e+04 1.353e-09
  0.83724    -69.9 1.094e+04 1.000e-09
  0.87472    -67.9 9.950e+03 5.475e-10
  0.89445    -66.4 1.028e+04 6.845e-10
  0.90651    -65.6 1.002e+04 5.717e-10
  0.92633    -64.8 9.805e+03 4.925e-10
  0.95616    -62.8 9.395e+03 3.670e-10
  0.99589    -60.7 8.975e+03 2.692e-10
  1.03553    -58.4 8.781e+03 2.306e-10
  1.07517    -56.0 8.731e+03 2.212e-10
  1.10989    -54.1 8.837e+03 2.269e-10
  1.12971    -53.0 9.392e+03 3.583e-10
  1.15445    -51.5 9.802e+03 4.487e-10
  1.18409    -50.3 9.987e+03 4.842e-10
  1.20381    -50.2 1.005e+04 4.945e-10
  1.22363    -49.4 1.014e+04 5.062e-10
  1.23719    -49.1 1.012e+04 5.038e-10
  1.24710    -48.6 1.049e+04 6.926e-10
  1.26327    -47.9 1.037e+04 6.478e-10
  1.28309    -47.3 1.017e+04 5.152e-10
  1.31292    -46.9 9.820e+03 3.690e-10
  1.34506    -46.2 9.341e+03 2.722e-10
  1.36488    -44.9 9.677e+03 3.255e-10
  1.39230    -44.0 9.230e+03 2.510e-10
  1.43194    -42.7 9.140e+03 2.422e-10
  1.46913    -41.9 9.462e+03 3.034e-10
  1.48886    -42.1 9.594e+03 3.476e-10
  1.50111    -42.1 1.009e+04 4.941e-10
  1.52093    -42.8 1.059e+04 6.895e-10
  1.54075    -42.9 1.104e+04 9.530e-10
  1.56057    -42.8 1.138e+04 1.232e-09
  1.58004    -42.3 1.159e+04 1.440e-09
  1.58995    -41.8 1.164e+04 1.462e-09
  1.60021    -41.4 1.171e+04 1.544e-09
  1.62003    -41.0 1.165e+04 1.538e-09
  1.63985    -40.6 1.139e+04 1.309e-09
  1.65967    -40.6 1.109e+04 1.080e-09
  1.67949    -40.9 1.083e+04 9.248e-10
  1.70932    -41.1 1.058e+04 8.229e-10
  1.74906    -39.9 1.025e+04 7.190e-10
  1.78870    -38.3 9.990e+03 6.103e-10
  1.81540    -36.9 9.600e+03 4.701e-10
  1.83522    -36.6 9.406e+03 4.101e-10
  1.86798    -35.2 8.924e+03 2.904e-10
  1.90762    -33.7 8.660e+03 2.359e-10
  1.94726    -31.9 8.578e+03 2.219e-10
  1.98690    -29.9 8.593e+03 2.223e-10
  2.02654    -28.2 8.802e+03 2.482e-10
  2.05057    -26.7 9.071e+03 3.202e-10
  2.07039    -26.1 8.883e+03 2.607e-10
  2.10582    -24.3 9.195e+03 3.731e-10
  2.14546    -21.9 9.543e+03 5.076e-10
  2.18510    -19.4 9.758e+03 5.798e-10
  2.22474    -17.2 9.758e+03 5.456e-10
  2.26438    -14.9 9.485e+03 4.285e-10
  2.28574    -12.8 9.214e+03 3.258e-10
  2.30556    -12.0 9.298e+03 3.598e-10
  2.34366     -9.9 9.099e+03 2.916e-10
  2.38330     -7.8 9.016e+03 2.450e-10
  2.42294     -5.9 9.013e+03 2.278e-10
  2.46258     -4.0 9.087e+03 2.349e-10
  2.50109     -2.1 9.202e+03 2.846e-10
  2.52091     -1.2 9.408e+03 3.244e-10
  2.54186      0.7 9.576e+03 3.868e-10
  2.58150      2.5 9.764e+03 4.692e-10
  2.62114      4.5 9.889e+03 5.780e-10
  2.66078      6.9 9.865e+03 6.201e-10
  2.70042     10.0 9.644e+03 5.585e-10
  2.73626     13.1 9.272e+03 4.092e-10
  2.75608     13.8 9.051e+03 3.160e-10
  2.77970     16.2 8.760e+03 2.259e-10
  2.81934     18.6 8.499e+03 1.779e-10
  2.85898     21.3 8.307e+03 1.544e-10
  2.89862     24.2 8.206e+03 1.421e-10
  2.93737     27.2 8.151e+03 1.337e-10
  2.95719     27.4 8.157e+03 1.434e-10
  2.97143     30.5 8.111e+03 1.365e-10
  2.99125     31.2 8.081e+03 1.342e-10
  3.01754     34.2 8.055e+03 1.307e-10
  3.05718     37.3 8.066e+03 1.322e-10
  3.09682     40.4 8.117e+03 1.397e-10
  3.13646     43.4 8.187e+03 1.524e-10
  3.17610     46.5 8.250e+03 1.678e-10
  3.20660     49.7 8.328e+03 1.857e-10
  3.22642     50.3 8.231e+03 1.600e-10
  3.25538     53.3 8.257e+03 1.666e-10
  3.29502     56.3 8.330e+03 1.779e-10
  3.33467     59.4 8.562e+03 2.032e-10
  3.37431     62.2 8.900e+03 2.439e-10
  3.40394     63.7 8.980e+03 2.582e-10
  3.42366     64.6 9.183e+03 2.829e-10
  3.44157     65.0 9.558e+03 3.663e-10
  3.45148     66.0 9.247e+03 2.919e-10
  3.46330     66.1 9.722e+03 4.029e-10
  3.48312     66.2 1.036e+04 6.297e-10
  3.50294     66.0 1.145e+04 1.068e-09
  3.52276     65.4 1.278e+04 1.860e-09
  3.54258     64.5 1.390e+04 3.045e-09
  3.55916     63.6 1.465e+04 4.361e-09
  3.56907     64.4 1.406e+04 2.776e-09
  3.58222     62.6 1.471e+04 3.845e-09
  3.60204     60.8 1.461e+04 4.023e-09
  3.62186     59.4 1.432e+04 3.818e-09
  3.64168     57.9 1.384e+04 3.357e-09
  3.66150     55.0 1.484e+04 3.314e-09
  3.67674     48.8 1.861e+04 4.693e-09
  3.68649     41.0 2.128e+04 7.137e-09
  3.69107     47.1 2.009e+04 5.910e-09
  3.69614     44.2 2.244e+04 7.606e-09
  3.70600     36.2 2.956e+04 1.534e-08
  3.71591     28.3 2.927e+04 6.103e-08
  3.72582     24.1 2.425e+04 2.804e-07
  3.73544     21.3 2.163e+04 8.963e-07
  3.74039     18.2 2.170e+04 8.332e-07
  3.74564     15.2 2.358e+04 4.775e-07
  3.75555      8.3 3.035e+04 1.148e-07
  3.76546     -5.2 3.863e+04 1.462e-08
  3.77537    -24.7 2.279e+04 4.725e-09
  3.78528    -31.9 1.522e+04 3.744e-09
  3.79423    -33.7 1.485e+04 3.735e-09
  3.79919    -33.2 1.427e+04 3.079e-09
  3.80510    -33.8 1.455e+04 3.238e-09
  3.82001    -34.5 1.420e+04 2.630e-09
  3.83988    -35.9 1.422e+04 2.170e-09
  3.85970    -38.4 1.334e+04 1.446e-09
  3.87952    -42.0 1.222e+04 1.101e-09
  3.89934    -45.3 1.135e+04 9.726e-10
  3.91191    -47.1 1.136e+04 1.101e-09
  3.92182    -46.0 1.072e+04 8.169e-10
  3.93898    -47.2 1.138e+04 1.160e-09
  3.95880    -48.2 1.217e+04 1.685e-09
  3.97862    -48.6 1.294e+04 2.416e-09
  3.99844    -48.5 1.355e+04 3.206e-09
  4.01826    -48.2 1.384e+04 3.599e-09
  4.02950    -48.1 1.371e+04 3.460e-09
  4.03941    -47.4 1.356e+04 3.302e-09
  4.05790    -47.5 1.332e+04 2.928e-09
  4.07772    -47.6 1.289e+04 2.193e-09
  4.09754    -48.9 1.240e+04 1.438e-09
  4.11736    -51.4 1.164e+04 8.861e-10
  4.13717    -54.6 1.068e+04 6.350e-10
  4.15699    -55.7 1.033e+04 6.193e-10
  4.17682    -56.9 1.012e+04 6.073e-10
  4.19664    -57.2 1.016e+04 6.756e-10
  4.21646    -57.3 1.019e+04 6.950e-10
  4.23628    -57.4 1.007e+04 6.799e-10
  4.25476    -57.5 9.777e+03 5.611e-10
  4.26467    -56.9 9.757e+03 5.335e-10
  4.28593    -57.9 9.352e+03 3.933e-10
  4.32567    -58.4 8.957e+03 3.050e-10
  4.36263    -58.4 8.634e+03 2.478e-10
  4.38245    -57.6 8.711e+03 2.497e-10
  4.40495    -57.6 8.664e+03 2.390e-10
  4.42544    -57.5 8.761e+03 2.520e-10
  4.44526    -58.5 8.965e+03 2.867e-10
  4.48423    -58.2 9.284e+03 3.590e-10
  4.52387    -57.5 9.514e+03 4.178e-10
  4.56351    -56.6 9.587e+03 4.316e-10
  4.59780    -55.7 9.541e+03 4.003e-10
  4.61762    -55.9 9.228e+03 3.213e-10
  4.64279    -54.7 8.946e+03 2.688e-10
  4.68243    -53.2 8.702e+03 2.310e-10
  4.72207    -51.6 8.573e+03 2.121e-10
  4.76171    -49.9 8.544e+03 2.088e-10
  4.80135    -47.9 8.557e+03 2.178e-10
  4.83297    -45.9 8.581e+03 2.377e-10
  4.85279    -45.8 8.507e+03 2.217e-10
  4.88063    -43.5 8.501e+03 2.270e-10
  4.92027    -41.1 8.405e+03 2.243e-10
  4.95991    -38.4 8.202e+03 1.989e-10
  4.99955    -35.6 7.970e+03 1.609e-10
  5.03919    -32.8 7.742e+03 1.240e-10
  5.06814    -30.1 7.528e+03 9.526e-11
  5.08796    -30.1 7.558e+03 9.737e-11
  5.11847    -27.3 7.419e+03 8.150e-11
  5.15811    -24.4 7.328e+03 7.195e-11
  5.19775    -21.6 7.252e+03 6.618e-11
  5.23739    -18.6 7.208e+03 6.423e-11
  5.27703    -15.7 7.210e+03 6.463e-11
  5.30331    -12.8 7.203e+03 6.824e-11
  5.32313    -12.9 7.321e+03 7.827e-11
  5.35631     -9.7 7.392e+03 8.674e-11
  5.39596     -6.7 7.447e+03 9.006e-11
  5.43560     -3.8 7.464e+03 8.809e-11
  5.47524     -1.2 7.535e+03 8.619e-11
  5.51488      1.0 7.659e+03 9.346e-11
  5.53848      3.4 7.796e+03 1.090e-10
  5.55830      2.7 8.157e+03 1.644e-10
  5.59416      5.2 8.366e+03 1.987e-10
  5.63380      7.6 8.613e+03 2.367e-10
  5.67344      9.9 8.922e+03 2.889e-10
  5.71308     12.1 9.362e+03 3.662e-10
  5.75272     14.1 9.765e+03 4.697e-10
  5.77355     15.1 1.008e+04 5.602e-10
  5.78336     14.5 1.010e+04 5.668e-10
  5.80207     15.3 1.028e+04 6.217e-10
  5.82189     16.2 1.041e+04 6.538e-10
  5.84171     17.0 1.053e+04 6.693e-10
  5.86153     17.8 1.062e+04 6.783e-10
  5.88113     18.6 1.066e+04 6.694e-10
  5.89104     17.7 1.084e+04 7.190e-10
  5.89348     18.2 1.095e+04 7.492e-10
  5.90339     18.8 1.089e+04 7.225e-10
  5.92099     19.4 1.103e+04 7.665e-10
  5.94081     19.7 1.126e+04 8.441e-10
  5.96063     20.0 1.149e+04 9.399e-10
  5.98045     20.4 1.173e+04 1.035e-09
  5.99871     20.8 1.196e+04 1.109e-09
  6.00862     20.4 1.264e+04 1.592e-09
  6.02009     20.5 1.318e+04 1.745e-09
  6.03991     20.1 1.393e+04 1.874e-09
  6.05973     19.5 1.456e+04 1.905e-09
  6.07955     18.9 1.459e+04 1.795e-09
  6.09937     18.2 1.418e+04 1.572e-09
  6.11630     17.6 1.332e+04 1.336e-09
  6.12621     17.2 1.395e+04 2.150e-09
  6.13901     17.0 1.304e+04 1.632e-09
  6.15883     17.0 1.228e+04 1.254e-09
  6.17865     17.4 1.171e+04 9.822e-10
  6.19847     18.0 1.129e+04 7.883e-10
  6.21829     18.5 1.098e+04 6.295e-10
  6.23388     18.8 1.073e+04 5.212e-10
  6.24379     17.8 1.067e+04 5.100e-10
  6.25793     18.2 1.046e+04 3.981e-10
  6.27775     18.2 1.043e+04 3.852e-10
  6.30758     20.0 1.034e+04 3.734e-10
  6.34732     21.9 1.029e+04 3.647e-10
  6.38696     23.8 1.031e+04 3.650e-10
  6.42660     25.4 1.034e+04 3.694e-10
  6.45623     26.1 1.018e+04 3.481e-10
  6.46905     26.4 1.019e+04 3.534e-10
  6.47906     25.7 9.727e+03 2.798e-10
  6.49587     26.6 9.933e+03 3.096e-10
  6.51560     27.0 1.011e+04 3.379e-10
  6.53542     27.0 1.034e+04 3.927e-10
  6.55524     26.3 1.111e+04 5.413e-10
  6.57506     23.9 1.252e+04 9.371e-10
  6.58663     21.1 1.374e+04 1.788e-09
  6.59654     20.7 1.289e+04 1.303e-09
  6.61470     19.3 1.384e+04 2.404e-09
  6.62760     19.7 1.455e+04 3.699e-09
  6.63751     19.5 1.487e+04 4.110e-09
  6.65434     20.2 1.522e+04 4.756e-09
  6.67416     20.9 1.516e+04 4.438e-09
  6.69398     21.1 1.492e+04 3.258e-09
  6.70422     20.1 1.452e+04 1.922e-09
  6.71413     20.6 1.405e+04 1.848e-09
  6.73362     18.6 1.333e+04 1.045e-09
  6.75344     15.9 1.182e+04 6.082e-10
  6.77326     14.7 1.043e+04 4.120e-10
  6.79308     14.2 1.003e+04 3.336e-10
  6.81189     14.7 9.972e+03 2.658e-10
  6.82180     15.0 1.026e+04 2.987e-10
  6.83272     14.9 1.017e+04 2.751e-10
  6.85254     15.1 1.013e+04 2.628e-10
  6.87236     15.0 1.014e+04 2.682e-10
  6.89218     14.8 1.020e+04 3.024e-10
  6.91200     13.8 1.071e+04 3.987e-10
  6.92948     12.1 1.163e+04 6.390e-10
  6.93939     10.8 1.255e+04 1.072e-09
  6.95164     10.1 1.305e+04 1.666e-09
  6.97146     10.5 1.331e+04 2.284e-09
  6.99128     11.2 1.352e+04 2.666e-09
  7.01110     11.6 1.382e+04 2.672e-09
  7.03092     11.4 1.399e+04 2.499e-09
  7.04706     10.3 1.418e+04 2.315e-09
  7.05697      8.4 1.428e+04 2.179e-09
  7.07056      6.5 1.416e+04 2.165e-09
  7.09038      5.1 1.408e+04 2.314e-09
  7.11020      4.3 1.409e+04 2.616e-09
  7.13002      3.5 1.450e+04 3.020e-09
  7.14984      1.0 1.629e+04 3.959e-09
  7.16460     -3.9 1.742e+04 4.671e-09
  7.17451     -4.2 1.683e+04 3.905e-09
  7.18948     -8.0 1.669e+04 5.216e-09
  7.20930    -11.3 1.655e+04 5.256e-09
  7.22912    -14.0 1.613e+04 4.168e-09
  7.24894    -17.6 1.491e+04 2.870e-09
  7.26876    -21.0 1.367e+04 1.886e-09
  7.28223    -22.7 1.244e+04 1.287e-09
  7.29214    -21.4 1.269e+04 1.344e-09
  7.30840    -21.8 1.201e+04 1.073e-09
  7.32822    -21.6 1.194e+04 9.134e-10
  7.34804    -21.5 1.191e+04 8.078e-10
  7.36172    -21.4 1.183e+04 7.755e-10
  7.37163    -22.3 1.182e+04 7.892e-10
  7.38768    -21.9 1.181e+04 8.067e-10
  7.39982    -21.5 1.189e+04 8.800e-10
  7.40973    -21.2 1.177e+04 7.747e-10
  7.42732    -20.9 1.184e+04 8.830e-10
  7.44714    -20.3 1.208e+04 1.052e-09
  7.46696    -20.0 1.232e+04 1.245e-09
  7.48678    -19.6 1.260e+04 1.545e-09
  7.50660    -19.4 1.298e+04 1.812e-09
  7.51740    -19.0 1.321e+04 2.139e-09
  7.52731    -18.9 1.281e+04 1.796e-09
  7.54624    -18.4 1.293e+04 1.876e-09
  7.56606    -17.9 1.299e+04 1.748e-09
  7.58588    -17.3 1.292e+04 1.436e-09
  7.60570    -17.3 1.257e+04 1.081e-09
  7.62508    -17.5 1.188e+04 8.185e-10
  7.63499    -17.8 1.152e+04 7.330e-10
  7.64534    -17.8 1.110e+04 6.026e-10
  7.66516    -17.6 1.088e+04 5.221e-10
  7.68498    -17.3 1.085e+04 4.526e-10
  7.70480    -17.2 1.071e+04 4.128e-10
  7.73463    -16.1 1.050e+04 3.356e-10
  7.77437    -13.6 1.002e+04 2.670e-10
  7.81401    -10.9 9.728e+03 1.826e-10
  7.85053     -9.1 9.632e+03 1.312e-10
  7.87035     -8.9 9.706e+03 1.305e-10
  7.89329     -7.0 9.722e+03 1.297e-10
  7.93293     -4.6 9.797e+03 1.557e-10
  7.97257     -1.8 9.937e+03 1.920e-10
  8.01221      1.1 1.011e+04 2.262e-10
  8.05185      3.8 1.027e+04 2.572e-10
  8.08570      6.4 1.040e+04 2.854e-10
  8.10552      6.0 1.085e+04 4.540e-10
  8.13113      8.5 1.095e+04 4.852e-10
  8.16076     10.8 1.089e+04 4.846e-10
  8.18048     11.3 1.098e+04 5.109e-10
  8.20030     12.6 1.087e+04 5.234e-10
  8.21300     13.8 1.086e+04 5.553e-10
  8.22291     13.6 1.090e+04 5.981e-10
  8.23994     15.1 1.082e+04 5.714e-10
  8.25976     16.2 1.079e+04 5.523e-10
  8.27958     17.8 1.065e+04 4.901e-10
  8.29940     18.6 1.062e+04 4.602e-10
  8.32077     20.3 1.044e+04 3.760e-10
  8.34059     20.2 1.050e+04 3.635e-10
  8.35886     21.4 1.037e+04 3.459e-10
  8.37868     22.0 1.039e+04 3.491e-10
  8.39850     22.9 1.039e+04 3.639e-10
  8.41832     23.5 1.048e+04 4.052e-10
  8.43814     23.9 1.081e+04 4.796e-10
  8.44817     23.7 1.126e+04 6.183e-10
  8.45808     22.7 1.140e+04 6.204e-10
  8.47778     22.6 1.172e+04 8.604e-10
  8.49760     22.8 1.203e+04 1.167e-09
  8.51742     23.0 1.238e+04 1.503e-09
  8.53725     22.9 1.275e+04 1.813e-09
  8.55585     22.1 1.303e+04 1.966e-09
  8.56576     19.8 1.371e+04 2.284e-09
  8.57689     18.9 1.394e+04 2.887e-09
  8.59671     18.9 1.377e+04 2.939e-09
  8.61653     19.3 1.338e+04 2.714e-09
  8.63635     19.7 1.296e+04 2.122e-09
  8.65617     19.4 1.270e+04 1.507e-09
  8.67343     18.1 1.257e+04 1.112e-09
  8.68334     17.7 1.323e+04 1.642e-09
  8.69581     15.6 1.282e+04 1.375e-09
  8.71563     14.5 1.255e+04 1.361e-09
  8.73545     14.1 1.255e+04 1.405e-09
  8.75527     13.8 1.267e+04 1.471e-09
  8.77509     13.4 1.278e+04 1.531e-09
  8.79102     12.8 1.272e+04 1.581e-09
  8.80093     12.4 1.316e+04 2.168e-09
  8.81473     12.0 1.298e+04 2.228e-09
  8.82996     11.6 1.290e+04 2.187e-09
  8.83987     11.3 1.277e+04 2.079e-09
  8.85437     10.9 1.269e+04 1.870e-09
  8.87419     10.3 1.262e+04 1.668e-09
  8.89401      9.5 1.249e+04 1.501e-09
  8.90860      8.8 1.225e+04 1.361e-09
  8.91851      8.7 1.205e+04 1.116e-09
  8.93365      8.0 1.165e+04 1.018e-09
  8.95347      7.9 1.141e+04 9.792e-10
  8.97329      7.9 1.129e+04 9.651e-10
  8.99311      8.0 1.126e+04 9.734e-10
  9.01293      8.2 1.133e+04 1.006e-09
  9.02619      8.2 1.146e+04 1.069e-09
  9.03610      8.5 1.141e+04 1.046e-09
  9.05257      8.7 1.157e+04 1.137e-09
  9.07239      8.9 1.176e+04 1.264e-09
  9.09221      9.1 1.204e+04 1.442e-09
  9.11203      8.9 1.259e+04 1.744e-09
  9.13185      8.3 1.334e+04 2.302e-09
  9.14377      7.7 1.406e+04 3.225e-09
  9.15368      8.9 1.375e+04 2.676e-09
  9.17149      8.3 1.459e+04 3.944e-09
  9.19131      8.0 1.541e+04 5.668e-09
  9.21113      7.5 1.668e+04 8.082e-09
  9.23095      6.8 1.783e+04 1.147e-08
  9.25077      5.6 1.865e+04 1.343e-08
  9.26135      3.2 1.884e+04 1.282e-08
  9.27126      3.6 1.983e+04 1.804e-08
  9.29041      1.0 1.942e+04 1.585e-08
  9.31023     -1.5 1.827e+04 1.242e-08
  9.33005     -3.2 1.689e+04 9.350e-09
  9.34987     -4.1 1.579e+04 6.825e-09
  9.36903     -4.7 1.502e+04 5.309e-09
  9.37894     -4.2 1.473e+04 4.428e-09
  9.38951     -5.3 1.404e+04 3.059e-09
  9.40933     -6.8 1.346e+04 2.242e-09
  9.42915     -8.0 1.290e+04 1.708e-09
  9.44897     -8.9 1.231e+04 1.418e-09
  9.46879     -9.4 1.184e+04 1.206e-09
  9.48661     -9.8 1.150e+04 1.122e-09
  9.49652    -10.1 1.152e+04 1.072e-09
  9.50843    -10.9 1.175e+04 9.806e-10
  9.52825    -12.0 1.208e+04 1.063e-09
  9.54807    -12.7 1.239e+04 1.175e-09
  9.56408    -13.0 1.262e+04 1.398e-09
  9.57399    -11.7 1.196e+04 8.677e-10
  9.58771    -12.0 1.231e+04 9.892e-10
  9.60420    -12.3 1.250e+04 1.140e-09
  9.61411    -13.2 1.209e+04 8.991e-10
  9.62735    -13.6 1.200e+04 1.073e-09
  9.64717    -14.0 1.221e+04 1.285e-09
  9.66699    -14.4 1.269e+04 1.580e-09
  9.68681    -14.6 1.291e+04 2.040e-09
  9.70663    -14.2 1.328e+04 2.565e-09
  9.72178    -13.6 1.341e+04 2.847e-09
  9.73169    -13.1 1.299e+04 2.268e-09
  9.74627    -12.6 1.290e+04 2.206e-09
  9.76609    -12.3 1.284e+04 1.903e-09
  9.78591    -12.1 1.258e+04 1.706e-09
  9.80573    -12.0 1.250e+04 1.397e-09
  9.82555    -12.0 1.224e+04 1.283e-09
  9.83937    -11.8 1.220e+04 1.169e-09
  9.84928    -11.1 1.186e+04 1.051e-09
  9.86519    -10.7 1.212e+04 9.385e-10
  9.88501    -10.3 1.185e+04 1.037e-09
  9.90483     -9.7 1.233e+04 9.914e-10
  9.92465     -9.5 1.253e+04 1.066e-09
  9.94447     -9.0 1.229e+04 1.181e-09
  9.95695     -8.2 1.225e+04 1.297e-09
  9.96686     -7.7 1.218e+04 1.037e-09
  9.98411     -7.2 1.232e+04 1.173e-09
 10.00393     -6.9 1.259e+04 1.389e-09
 10.02375     -6.7 1.285e+04 1.671e-09
 10.04357     -6.4 1.310e+04 2.028e-09
 10.06339     -5.7 1.328e+04 2.400e-09
 10.07454     -4.8 1.347e+04 2.658e-09
 10.08445     -4.8 1.355e+04 2.791e-09
 10.10303     -3.8 1.366e+04 2.950e-09
 10.12285     -2.9 1.379e+04 2.929e-09
 10.14267     -2.8 1.392e+04 2.713e-09
 10.16249     -3.1 1.410e+04 2.724e-09
 10.18221     -3.7 1.433e+04 2.937e-09
 10.19212     -3.7 1.445e+04 3.347e-09
 10.20213     -4.0 1.468e+04 3.927e-09
 10.22195     -3.9 1.497e+04 4.693e-09
 10.24177     -3.2 1.523e+04 5.367e-09
 10.26159     -2.6 1.532e+04 5.418e-09
 10.28141     -1.6 1.516e+04 4.983e-09
 10.29820     -0.8 1.484e+04 3.971e-09
 10.30668     -1.1 1.549e+04 5.762e-09
 10.30971     -1.2 1.561e+04 6.693e-09
 10.32105     -0.3 1.511e+04 5.024e-09
 10.34087      0.6 1.436e+04 3.318e-09
 10.36069      0.9 1.362e+04 2.131e-09
 10.38051      1.2 1.299e+04 1.444e-09
 10.40033      1.4 1.261e+04 1.131e-09
 10.41738      2.2 1.214e+04 9.192e-10
 10.42729      1.9 1.270e+04 1.146e-09
 10.43997      2.7 1.241e+04 1.009e-09
 10.45979      4.0 1.231e+04 9.843e-10
 10.47961      5.3 1.239e+04 1.007e-09
 10.49943      6.4 1.246e+04 1.030e-09
 10.51925      7.4 1.255e+04 1.070e-09
 10.53497      8.4 1.280e+04 1.197e-09
 10.54488      7.5 1.341e+04 1.680e-09
 10.55889      8.2 1.376e+04 2.073e-09
 10.57871      8.9 1.405e+04 2.543e-09
 10.59854     10.0 1.425e+04 2.994e-09
 10.61836     11.2 1.430e+04 3.270e-09
 10.63818     12.5 1.416e+04 3.234e-09
 10.65255     13.8 1.388e+04 2.939e-09
 10.66246     13.9 1.400e+04 3.119e-09
 10.67782     15.1 1.364e+04 2.417e-09
 10.69764     15.8 1.334e+04 1.787e-09
 10.71746     16.1 1.293e+04 1.305e-09
 10.73728     16.3 1.248e+04 1.013e-09
 10.75710     16.6 1.206e+04 8.591e-10
 10.77014     17.1 1.171e+04 7.684e-10
 10.78005     16.8 1.133e+04 6.420e-10
 10.79674     17.8 1.114e+04 5.953e-10
 10.81656     19.0 1.114e+04 5.897e-10
 10.83638     20.1 1.118e+04 5.935e-10
 10.85620     21.1 1.123e+04 5.987e-10
 10.87602     22.1 1.132e+04 6.126e-10
 10.88772     22.9 1.156e+04 6.583e-10
 10.89763     23.4 1.121e+04 5.197e-10
 10.91566     24.0 1.149e+04 5.824e-10
 10.93548     24.4 1.185e+04 6.921e-10
 10.95530     24.4 1.233e+04 8.925e-10
 10.97512     24.2 1.291e+04 1.246e-09
 10.99494     23.7 1.347e+04 1.817e-09
 11.00531     23.7 1.389e+04 2.596e-09
 11.01522     24.2 1.373e+04 2.204e-09
 11.03232     24.5 1.411e+04 3.165e-09
 11.04223     24.0 1.395e+04 2.935e-09
 11.05440     24.7 1.409e+04 3.343e-09
 11.07422     25.1 1.404e+04 3.254e-09
 11.09404     25.5 1.369e+04 2.704e-09
 11.11298     25.5 1.321e+04 2.002e-09
 11.12289     25.9 1.326e+04 2.073e-09
 11.14369     25.8 1.260e+04 1.173e-09
 11.18342     25.1 1.165e+04 7.331e-10
 11.22306     25.9 1.167e+04 7.493e-10
 11.26270     27.0 1.218e+04 9.554e-10
 11.29234     26.7 1.280e+04 1.455e-09
 11.31206     27.0 1.324e+04 2.036e-09
 11.33188     28.0 1.349e+04 2.777e-09
 11.34815     29.4 1.374e+04 3.228e-09
 11.35806     29.3 1.334e+04 2.349e-09
 11.37152     30.6 1.325e+04 2.160e-09
 11.39134     31.7 1.306e+04 1.780e-09
 11.41116     32.2 1.276e+04 1.389e-09
 11.43098     31.7 1.237e+04 1.070e-09
 11.46081     31.6 1.181e+04 8.779e-10
 11.50054     32.8 1.170e+04 8.917e-10
 11.54018     34.1 1.186e+04 1.040e-09
 11.57361     35.4 1.213e+04 1.362e-09
 11.59343     35.4 1.219e+04 1.486e-09
 11.60946     36.4 1.235e+04 1.645e-09
 11.62918     36.8 1.247e+04 1.755e-09
 11.64900     37.2 1.244e+04 1.747e-09
 11.66882     38.0 1.221e+04 1.638e-09
 11.68864     38.9 1.189e+04 1.393e-09
 11.70091     39.6 1.155e+04 1.125e-09
 11.71082     40.0 1.154e+04 1.134e-09
 11.72828     40.6 1.120e+04 8.830e-10
 11.74810     41.0 1.093e+04 7.128e-10
 11.76644     41.3 1.068e+04 6.099e-10
 11.77635     42.1 1.081e+04 6.539e-10
 11.78774     42.5 1.054e+04 5.812e-10
 11.80756     43.2 1.030e+04 5.525e-10
 11.81849     44.1 1.015e+04 5.415e-10
 11.82840     44.5 1.003e+04 5.003e-10
 11.84720     45.5 9.928e+03 4.885e-10
 11.86702     46.4 9.885e+03 4.792e-10
 11.88684     47.7 9.798e+03 4.593e-10
 11.90666     48.1 9.780e+03 4.537e-10
 11.93649     50.5 9.677e+03 4.381e-10
 11.97623     52.8 9.520e+03 4.088e-10
 12.01587     55.2 9.299e+03 3.583e-10
 12.04395     57.4 9.092e+03 3.036e-10
 12.06377     58.2 8.987e+03 2.777e-10
 12.09515     60.3 8.855e+03 2.437e-10
 12.13479     62.5 8.762e+03 2.216e-10
 12.17443     64.7 8.663e+03 2.007e-10
 12.21407     66.9 8.550e+03 1.769e-10
 12.25371     69.1 8.448e+03 1.542e-10
 12.27912     71.3 8.389e+03 1.404e-10
 12.29894     72.1 8.510e+03 1.563e-10
 12.33299     74.2 8.483e+03 1.534e-10
 12.37263     76.3 8.542e+03 1.617e-10
 12.41227     78.2 8.663e+03 1.873e-10
 12.45191     80.0 8.804e+03 2.195e-10
 12.49155     81.8 8.937e+03 2.458e-10
 12.51428     83.4 8.977e+03 2.735e-10
 12.53410     82.4 1.002e+04 4.881e-10
 12.57083     83.9 1.036e+04 5.966e-10
 12.61047     85.6 1.051e+04 6.538e-10
 12.65011     87.7 1.060e+04 6.807e-10
 12.67974     88.5 1.073e+04 7.473e-10
 12.69947     89.2 1.074e+04 7.901e-10
 12.71929     90.1 1.067e+04 8.190e-10
 12.73911     91.1 1.057e+04 8.224e-10
 12.74926     92.2 1.051e+04 7.968e-10
 12.75917     91.4 1.067e+04 8.520e-10
 12.77875     92.3 1.056e+04 7.956e-10
 12.79857     93.1 1.050e+04 7.656e-10
 12.81839     93.9 1.047e+04 7.584e-10
 12.83821     94.7 1.048e+04 7.606e-10
 12.85693     95.5 1.049e+04 7.714e-10
 12.86684     94.4 1.042e+04 7.526e-10
 12.87785     95.2 1.047e+04 7.732e-10
 12.89767     96.0 1.055e+04 8.019e-10
 12.91749     96.8 1.064e+04 8.314e-10
 12.93731     97.5 1.074e+04 8.561e-10
 12.95713     98.2 1.081e+04 8.747e-10
 12.97452     98.9 1.088e+04 8.883e-10
 12.98443     97.4 1.054e+04 6.734e-10
 12.99677     98.1 1.058e+04 6.737e-10
 13.01659     98.6 1.074e+04 6.927e-10
 13.03641     98.6 1.116e+04 7.679e-10
 13.05623     97.4 1.204e+04 9.363e-10
 13.07605     94.9 1.491e+04 1.224e-09
 13.09210     91.9 1.714e+04 2.305e-09
 13.10201     87.1 1.725e+04 4.479e-09
 13.11569     86.2 1.775e+04 7.941e-09
 13.13551     86.2 1.825e+04 1.221e-08
 13.15533     86.4 1.912e+04 1.667e-08
 13.17515     86.2 1.972e+04 1.932e-08
 13.19497     85.7 1.975e+04 1.855e-08
 13.20964     85.4 1.972e+04 1.436e-08
 13.21455     84.5 1.896e+04 7.731e-09
 13.21965     83.7 1.879e+04 5.236e-09
 13.23456     81.6 1.801e+04 2.777e-09
 13.25443     76.5 1.592e+04 1.419e-09
 13.27425     73.2 1.393e+04 1.023e-09
 13.29407     70.2 1.232e+04 8.605e-10
 13.31389     67.5 1.160e+04 8.659e-10
 13.32727     64.8 1.165e+04 9.443e-10
 13.33718     64.5 1.007e+04 5.634e-10
 13.35353     62.9 1.075e+04 7.082e-10
 13.37335     61.7 1.171e+04 8.485e-10
 13.39317     61.0 1.147e+04 9.206e-10
 13.41299     59.3 1.180e+04 1.140e-09
 13.43281     57.0 1.314e+04 1.610e-09
 13.44486     55.1 1.420e+04 2.316e-09
 13.45477     58.5 1.230e+04 1.176e-09
 13.47245     57.1 1.332e+04 1.680e-09
 13.49227     56.2 1.403e+04 2.319e-09
 13.51209     55.8 1.450e+04 2.949e-09
 13.53191     55.9 1.482e+04 3.298e-09
 13.55173     56.1 1.487e+04 3.279e-09
 13.56244     56.5 1.482e+04 3.173e-09
 13.57235     58.6 1.482e+04 3.217e-09
 13.59137     59.1 1.490e+04 3.226e-09
 13.61119     59.6 1.495e+04 3.191e-09
 13.63101     60.3 1.486e+04 2.917e-09
 13.65083     61.1 1.460e+04 2.442e-09
 13.67012     61.9 1.420e+04 1.925e-09
 13.68003     63.3 1.545e+04 3.049e-09
 13.69047     64.0 1.522e+04 2.542e-09
 13.71029     64.9 1.481e+04 2.049e-09
 13.73011     65.7 1.431e+04 1.663e-09
 13.74993     66.6 1.380e+04 1.408e-09
 13.76975     67.7 1.334e+04 1.271e-09
 13.78770     69.0 1.302e+04 1.256e-09
 13.79761     69.3 1.446e+04 2.026e-09
 13.80939     70.5 1.406e+04 1.833e-09
 13.82921     71.8 1.377e+04 1.706e-09
 13.84903     73.2 1.355e+04 1.649e-09
 13.86885     74.7 1.355e+04 1.663e-09
 13.88867     76.2 1.368e+04 1.746e-09
 13.90529     77.6 1.366e+04 1.847e-09
 13.91520     77.6 1.341e+04 1.865e-09
 13.92831     79.0 1.327e+04 1.841e-09
 13.94813     80.7 1.319e+04 1.834e-09
 13.96795     82.3 1.339e+04 1.910e-09
 13.97872     83.7 1.381e+04 2.105e-09
 13.98863     83.8 1.370e+04 2.211e-09
 14.00759     85.2 1.400e+04 2.430e-09
 14.02287     86.9 1.451e+04 2.754e-09
 14.03278     86.6 1.294e+04 2.004e-09
 14.04723     88.1 1.328e+04 2.194e-09
 14.06705     89.6 1.419e+04 2.514e-09
 14.08687     91.6 1.532e+04 2.910e-09
 14.10669     93.6 1.597e+04 3.165e-09
 14.12651     95.4 1.602e+04 3.174e-09
 14.14046     97.1 1.597e+04 3.080e-09
 14.15037     95.6 1.417e+04 2.213e-09
 14.16615     97.2 1.426e+04 2.230e-09
 14.18597     98.4 1.411e+04 2.193e-09
 14.20579     99.2 1.378e+04 2.135e-09
 14.22561     99.1 1.354e+04 2.086e-09
 14.24043     98.4 1.339e+04 2.108e-09
 14.25029     98.2 1.336e+04 2.107e-09
 14.25794     97.7 1.356e+04 2.162e-09
 14.26790     96.4 1.338e+04 2.072e-09
 14.28007     94.6 1.444e+04 2.387e-09
 14.28993     93.3 1.554e+04 2.684e-09
 14.29984     91.5 1.617e+04 3.022e-09
 14.30975     89.7 1.638e+04 3.366e-09
 14.31674     87.4 1.668e+04 3.746e-09
 14.32169     88.0 1.486e+04 3.201e-09
 14.32957     86.1 1.533e+04 3.611e-09
 14.33948     83.0 1.729e+04 4.710e-09
 14.34568     80.1 1.944e+04 6.270e-09
 14.35063     81.7 1.789e+04 5.541e-09
 14.35930     79.4 2.059e+04 7.603e-09
 14.36921     78.2 2.210e+04 9.884e-09
 14.37558     75.8 2.354e+04 1.472e-08
 14.38053     80.3 1.969e+04 9.000e-09
 14.38903     79.4 2.043e+04 1.046e-08
 14.39894     78.3 2.104e+04 1.152e-08
 14.40885     77.4 2.097e+04 1.166e-08
 14.41876     76.7 2.109e+04 1.156e-08
 14.42867     76.1 2.106e+04 1.116e-08
 14.43432     75.7 2.119e+04 1.060e-08
 14.43928     77.0 2.038e+04 9.006e-09
 14.44849     76.7 2.039e+04 8.309e-09
 14.46340     75.6 2.097e+04 8.477e-09
 14.48327     75.2 2.096e+04 7.567e-09
 14.49809     76.4 1.825e+04 4.347e-09
 14.50795     76.2 1.838e+04 4.334e-09
 14.51786     76.0 1.855e+04 4.390e-09
 14.52777     76.2 1.874e+04 4.498e-09
 14.53768     76.4 1.876e+04 4.575e-09
 14.54695     76.8 1.889e+04 4.713e-09
 14.55191     76.9 1.729e+04 3.256e-09
 14.55750     77.3 1.751e+04 3.349e-09
 14.56741     77.6 1.758e+04 3.401e-09
 14.57732     78.1 1.769e+04 3.506e-09
 14.58723     78.5 1.777e+04 3.580e-09
 14.59714     79.1 1.788e+04 3.754e-09
 14.60574     79.5 1.801e+04 3.894e-09
 14.61075     79.3 1.721e+04 2.904e-09
 14.62201     80.3 1.741e+04 3.076e-09
 14.64183     81.2 1.755e+04 3.278e-09
 14.66165     82.1 1.782e+04 3.631e-09
 14.68147     82.8 1.787e+04 3.891e-09
 14.69629     83.5 1.723e+04 2.788e-09
 14.70615     83.9 1.731e+04 2.923e-09
 14.71274     84.3 1.741e+04 3.270e-09
 14.72005     84.9 1.795e+04 3.359e-09
 14.72838     84.7 1.624e+04 1.578e-09
 14.74094     85.3 1.648e+04 1.809e-09
 14.76076     86.0 1.663e+04 2.074e-09
 14.78058     86.7 1.679e+04 2.329e-09
 14.80040     87.6 1.701e+04 2.670e-09
 14.81521     88.2 1.666e+04 2.505e-09
 14.82507     88.4 1.664e+04 2.548e-09
 14.83498     88.9 1.671e+04 2.776e-09
 14.84091     89.3 1.688e+04 2.938e-09
 14.84592     89.1 1.571e+04 1.963e-09
 14.85986     89.8 1.586e+04 2.233e-09
 14.87968     90.4 1.616e+04 2.540e-09
 14.89449     90.5 1.675e+04 3.229e-09
 14.89971     90.8 1.711e+04 3.776e-09
 14.90466     91.1 1.665e+04 2.895e-09
 14.91426     91.3 1.708e+04 3.265e-09
 14.92417     91.4 1.758e+04 3.683e-09
 14.93408     91.4 1.820e+04 4.394e-09
 14.94399     91.4 1.881e+04 5.336e-09
 14.95354     91.4 1.929e+04 6.524e-09
 14.95850     92.1 1.879e+04 4.644e-09
 14.96381     92.0 1.942e+04 5.684e-09
 14.97372     91.9 1.980e+04 7.092e-09
 14.98363     91.9 1.990e+04 8.686e-09
 14.99354     91.9 1.980e+04 1.028e-08
 15.00345     92.1 1.962e+04 1.168e-08
 15.01233     92.4 1.943e+04 1.283e-08
 15.01729     92.9 1.993e+04 1.128e-08
 15.02327     93.2 1.951e+04 1.293e-08
 15.03318     93.7 1.939e+04 1.442e-08
 15.04309     93.9 1.952e+04 1.607e-08
 15.05300     93.9 1.983e+04 1.805e-08
 15.06291     93.9 2.025e+04 2.058e-08
 15.07113     93.8 2.117e+04 2.373e-08
 15.07608     94.3 2.010e+04 2.262e-08
 15.07980     94.5 2.030e+04 2.504e-08
 15.08475     94.9 2.055e+04 2.576e-08
 15.09264     94.9 2.104e+04 2.920e-08
 15.10255     94.6 2.312e+04 3.394e-08
 15.11246     93.7 2.780e+04 4.513e-08
 15.12237     92.5 3.275e+04 7.120e-08
 15.12992     90.6 3.285e+04 1.276e-07
 15.13487     94.5 2.939e+04 5.249e-08
 15.14219     92.2 3.354e+04 8.934e-08
 15.15210     89.0 3.234e+04 1.570e-07
 15.16201     85.6 2.956e+04 2.113e-07
 15.17192     82.5 2.756e+04 2.276e-07
 15.18183     79.9 2.479e+04 2.339e-07
 15.18871     78.0 2.300e+04 2.144e-07
 15.19367     79.2 2.595e+04 2.665e-07
 15.20165     77.3 2.383e+04 2.306e-07
 15.21156     77.1 2.257e+04 1.697e-07
 15.22147     77.4 2.187e+04 1.100e-07
 15.23138     78.0 2.174e+04 6.449e-08
 15.24129     78.2 2.216e+04 3.535e-08
 15.24750     78.1 2.276e+04 1.928e-08
 15.25246     78.8 2.151e+04 3.007e-08
 15.26111     78.8 2.191e+04 1.645e-08
 15.27603     78.0 2.211e+04 5.912e-09
 15.29590     75.1 1.858e+04 1.606e-09
 15.30639     71.8 1.200e+04 8.000e-10
 15.31630     77.2 1.897e+04 1.197e-09
 15.33554     73.3 1.205e+04 5.811e-10
 15.35536     72.5 1.026e+04 4.942e-10
 15.37518     73.2 9.961e+03 4.459e-10
 15.39500     74.3 9.933e+03 4.361e-10
 15.41407     75.3 9.952e+03 4.388e-10
 15.42398     75.9 9.958e+03 4.355e-10
 15.43464     76.8 1.008e+04 4.495e-10
 15.44696     77.3 1.020e+04 4.793e-10
 15.45687     76.3 1.036e+04 5.251e-10
 15.47428     76.4 1.044e+04 5.807e-10
 15.49410     76.3 1.064e+04 6.635e-10
 15.51392     75.9 1.100e+04 7.858e-10
 15.53165     74.8 1.177e+04 1.001e-09
 15.54156     73.7 1.308e+04 1.403e-09
 15.55356     71.0 1.444e+04 2.280e-09
 15.57338     68.6 1.534e+04 3.584e-09
 15.59320     67.1 1.575e+04 4.959e-09
 15.61302     66.2 1.571e+04 5.470e-09
 15.63284     65.2 1.560e+04 5.308e-09
 15.64924     64.4 1.520e+04 4.645e-09
 15.65915     63.8 1.577e+04 5.348e-09
 15.67248     62.4 1.519e+04 3.910e-09
 15.69230     60.3 1.455e+04 2.891e-09
 15.71212     58.0 1.396e+04 2.328e-09
 15.73194     56.6 1.355e+04 2.144e-09
 15.75176     56.2 1.345e+04 2.121e-09
 15.76682     56.0 1.344e+04 2.126e-09
 15.77673     53.8 1.359e+04 2.463e-09
 15.79140     54.3 1.349e+04 2.522e-09
 15.81122     55.0 1.333e+04 2.479e-09
 15.83104     55.9 1.310e+04 2.330e-09
 15.85086     57.0 1.279e+04 2.140e-09
 15.87068     58.1 1.248e+04 1.891e-09
 15.88441     59.1 1.222e+04 1.657e-09
 15.89432     58.1 1.183e+04 1.346e-09
 15.91032     58.9 1.145e+04 1.116e-09
 15.93014     59.9 1.109e+04 9.523e-10
 15.94996     61.3 1.083e+04 8.575e-10
 15.96978     62.6 1.069e+04 8.090e-10
 15.98960     64.0 1.060e+04 7.774e-10
 16.00199     65.6 1.051e+04 7.541e-10
 16.01190     64.9 9.981e+03 5.400e-10
 16.02924     66.7 9.990e+03 5.431e-10
 16.04906     68.4 1.004e+04 5.586e-10
 16.06888     69.9 1.009e+04 5.853e-10
 16.08870     71.5 1.012e+04 6.205e-10
 16.10852     73.3 1.016e+04 6.630e-10
 16.11958     75.1 1.028e+04 7.195e-10
 16.12949     74.7 9.875e+03 5.222e-10
 16.14816     76.5 1.000e+04 5.683e-10
 16.16798     78.1 1.015e+04 6.188e-10
 16.18108     79.8 1.034e+04 6.764e-10
 16.19099     79.4 1.024e+04 6.399e-10
 16.20762     81.0 1.050e+04 7.114e-10
 16.22725     82.5 1.082e+04 8.045e-10
 16.23716     81.9 1.020e+04 5.961e-10
 16.24726     83.2 1.048e+04 6.786e-10
 16.26708     84.3 1.077e+04 7.668e-10
 16.28690     85.4 1.110e+04 8.744e-10
 16.30672     86.3 1.147e+04 1.008e-09
 16.32654     87.0 1.193e+04 1.187e-09
 16.34484     87.7 1.251e+04 1.442e-09
 16.35475     87.3 1.138e+04 9.771e-10
 16.36618     87.8 1.179e+04 1.109e-09
 16.38600     88.0 1.229e+04 1.291e-09
 16.40582     88.1 1.286e+04 1.550e-09
 16.42564     88.2 1.349e+04 1.940e-09
 16.44546     88.4 1.406e+04 2.368e-09
 16.46242     88.6 1.434e+04 2.578e-09
 16.47233     88.0 1.203e+04 1.214e-09
 16.48510     88.3 1.219e+04 1.254e-09
 16.50492     88.5 1.218e+04 1.242e-09
 16.53475     88.8 1.117e+04 8.377e-10
 16.57449     90.1 1.053e+04 6.330e-10
 16.61413     92.0 9.812e+03 4.531e-10
 16.65377     94.4 9.576e+03 4.098e-10
 16.68788     97.4 9.605e+03 4.153e-10
 16.70770     98.3 9.330e+03 3.317e-10
 16.73305    100.8 9.501e+03 3.719e-10
 16.76268    101.8 9.673e+03 4.589e-10
 16.78241    103.0 9.892e+03 5.711e-10
 16.80223    104.3 1.017e+04 7.073e-10
 16.81518    105.6 1.046e+04 8.462e-10
 16.82509    105.8 1.041e+04 7.937e-10
 16.84187    106.9 1.073e+04 9.425e-10
 16.86169    107.9 1.100e+04 1.077e-09
 16.88151    108.8 1.116e+04 1.157e-09
 16.90133    109.7 1.122e+04 1.185e-09
 16.91520    110.4 1.123e+04 1.182e-09
 16.92511    111.2 1.147e+04 1.301e-09
 16.93276    111.9 1.149e+04 1.310e-09
 16.94267    112.0 1.158e+04 1.326e-09
 16.96079    112.6 1.158e+04 1.328e-09
 16.98061    113.2 1.160e+04 1.349e-09
 17.00043    113.8 1.169e+04 1.420e-09
 17.02025    114.3 1.185e+04 1.545e-09
 17.04007    114.8 1.205e+04 1.708e-09
 17.05035    115.4 1.227e+04 1.887e-09
 17.06026    115.2 1.217e+04 1.721e-09
 17.07971    115.8 1.240e+04 1.909e-09
 17.09953    116.3 1.264e+04 2.103e-09
 17.11935    116.9 1.287e+04 2.270e-09
 17.13917    117.4 1.309e+04 2.400e-09
 17.15802    117.7 1.330e+04 2.516e-09
 17.16793    117.4 1.334e+04 2.558e-09
 17.17881    117.4 1.356e+04 2.716e-09
 17.19863    117.4 1.367e+04 2.792e-09
 17.21845    117.1 1.367e+04 2.782e-09
 17.23827    116.8 1.360e+04 2.719e-09
 17.25809    116.5 1.354e+04 2.697e-09
 17.27561    116.1 1.356e+04 2.726e-09
 17.28552    115.9 1.383e+04 2.972e-09
 17.29773    115.5 1.388e+04 3.034e-09
 17.31755    115.1 1.389e+04 3.053e-09
 17.33737    114.7 1.386e+04 3.033e-09
 17.35719    114.4 1.374e+04 2.909e-09
 17.37701    114.2 1.352e+04 2.631e-09
 17.39319    114.0 1.325e+04 2.316e-09
 17.40310    113.4 1.299e+04 2.072e-09
 17.41665    112.9 1.272e+04 1.840e-09
 17.43647    112.4 1.247e+04 1.649e-09
 17.45629    111.8 1.221e+04 1.474e-09
 17.47611    111.5 1.195e+04 1.318e-09
 17.49593    111.3 1.166e+04 1.155e-09
 17.51078    111.2 1.137e+04 9.905e-10
 17.52069    110.9 1.130e+04 9.680e-10
 17.53557    110.9 1.105e+04 8.326e-10
 17.55539    110.8 1.078e+04 7.114e-10
 17.57521    110.8 1.051e+04 6.125e-10
 17.59503    110.8 1.025e+04 5.444e-10
 17.61485    110.9 1.010e+04 4.929e-10
 17.62836    111.1 9.998e+03 4.525e-10
 17.63827    111.2 1.012e+04 4.999e-10
 17.64932    111.4 1.004e+04 4.575e-10
 17.65923    111.3 1.004e+04 4.765e-10
 17.67431    111.8 1.003e+04 4.507e-10
 17.69413    112.0 1.003e+04 4.393e-10
 17.72396    112.8 1.006e+04 4.458e-10
 17.76370    113.4 9.970e+03 4.191e-10
 17.80334    113.9 9.853e+03 3.970e-10
 17.84298    114.3 9.723e+03 3.763e-10
 17.86373    114.6 9.646e+03 3.601e-10
 17.88355    115.8 9.861e+03 4.121e-10
 17.92226    116.2 9.675e+03 3.688e-10
 17.96190    116.7 9.496e+03 3.226e-10
 18.00154    117.5 9.351e+03 2.829e-10
 18.04118    118.5 9.229e+03 2.513e-10
 18.07908    119.7 9.146e+03 2.303e-10
 18.09890    121.3 9.081e+03 2.180e-10
 18.12046    122.9 9.022e+03 2.059e-10
 18.16010    124.6 9.064e+03 2.003e-10
 18.19974    126.4 9.091e+03 2.030e-10
 18.23938    128.2 9.149e+03 2.067e-10
 18.27902    130.0 9.247e+03 2.131e-10
 18.31424    131.7 9.429e+03 2.297e-10
 18.33406    133.3 9.299e+03 2.135e-10
 18.35830    135.0 9.587e+03 2.456e-10
 18.39794    136.5 1.000e+04 3.050e-10
 18.43758    137.4 1.027e+04 3.642e-10
 18.46721    138.7 1.045e+04 4.265e-10
 18.48693    139.5 1.065e+04 5.105e-10
 18.50675    140.4 1.086e+04 6.071e-10
 18.52657    141.1 1.111e+04 7.114e-10
 18.54639    141.6 1.144e+04 8.318e-10
 18.55913    141.9 1.177e+04 9.659e-10
 18.56904    142.8 1.163e+04 8.811e-10
 18.58603    142.9 1.188e+04 9.827e-10
 18.60585    143.0 1.196e+04 1.014e-09
 18.62567    143.1 1.194e+04 1.009e-09
 18.64549    143.2 1.184e+04 9.763e-10
 18.66531    143.5 1.164e+04 8.972e-10
 18.67671    143.7 1.138e+04 7.955e-10
 18.68662    144.6 1.137e+04 7.398e-10
 18.70495    144.8 1.112e+04 6.472e-10
 18.72477    144.8 1.088e+04 5.758e-10
 18.74459    144.7 1.079e+04 5.632e-10
 18.76441    144.4 1.080e+04 5.712e-10
 18.78423    143.5 1.091e+04 6.152e-10
 18.79430    142.0 1.124e+04 7.516e-10
 18.80421    143.4 1.135e+04 7.883e-10
 18.82387    141.6 1.189e+04 1.127e-09
 18.84370    140.0 1.247e+04 1.578e-09
 18.86352    138.4 1.305e+04 1.993e-09
 18.88334    135.9 1.361e+04 2.269e-09
 18.90197    132.0 1.422e+04 2.445e-09
 18.91188    132.6 1.505e+04 2.801e-09
 18.92298    127.2 1.621e+04 3.060e-09
 18.94280    122.1 1.665e+04 3.421e-09
 18.96262    118.1 1.665e+04 3.852e-09
 18.98244    115.1 1.660e+04 4.315e-09
 19.00226    113.0 1.663e+04 4.797e-09
 19.01956    111.4 1.667e+04 5.459e-09
 19.02947    111.4 1.664e+04 5.823e-09
 19.04190    111.0 1.681e+04 6.414e-09
 19.05671    110.7 1.709e+04 7.010e-09
 19.06657    110.0 1.758e+04 7.950e-09
 19.07648    109.0 1.818e+04 9.519e-09
 19.08321    107.9 1.873e+04 1.165e-08
 19.08816    108.3 1.863e+04 1.135e-08
 19.09630    107.5 1.900e+04 1.387e-08
 19.10621    106.8 1.937e+04 1.725e-08
 19.11612    106.3 1.984e+04 2.153e-08
 19.12242    105.9 2.043e+04 2.578e-08
 19.12737    106.1 2.036e+04 2.710e-08
 19.13594    105.7 2.098e+04 2.846e-08
 19.14200    105.1 2.107e+04 2.807e-08
 19.14696    105.3 2.105e+04 2.786e-08
 19.15576    104.9 2.115e+04 2.663e-08
 19.16567    104.5 2.126e+04 2.311e-08
 19.17558    103.8 2.145e+04 1.785e-08
 19.18549    102.6 2.158e+04 1.225e-08
 19.20041    100.4 2.190e+04 8.490e-09
 19.22028     96.5 2.154e+04 3.359e-09
 19.24010     91.0 1.999e+04 1.096e-09
 19.25473     85.3 1.529e+04 5.066e-10
 19.26464     87.1 1.984e+04 1.740e-09
 19.27974     83.0 1.502e+04 8.609e-10
 19.29956     82.0 1.269e+04 7.336e-10
 19.31938     82.2 1.235e+04 7.230e-10
 19.33920     82.9 1.221e+04 7.276e-10
 19.35902     83.8 1.216e+04 7.485e-10
 19.37231     84.6 1.215e+04 7.930e-10
 19.38222     83.8 1.242e+04 1.135e-09
 19.39866     84.6 1.244e+04 1.156e-09
 19.41848     85.2 1.251e+04 1.195e-09
 19.43830     85.6 1.258e+04 1.242e-09
 19.45812     85.8 1.265e+04 1.291e-09
 19.47794     86.0 1.270e+04 1.318e-09
 19.48990     86.1 1.273e+04 1.339e-09
 19.49981     85.4 1.278e+04 1.324e-09
 19.51758     85.2 1.273e+04 1.278e-09
 19.53740     85.0 1.267e+04 1.267e-09
 19.55722     84.6 1.266e+04 1.272e-09
 19.57704     84.0 1.266e+04 1.292e-09
 19.59686     83.4 1.266e+04 1.311e-09
 19.60748     82.7 1.265e+04 1.311e-09
 19.61739     82.0 1.260e+04 1.307e-09
 19.63650     81.2 1.259e+04 1.300e-09
 19.65632     80.6 1.250e+04 1.252e-09
 19.67614     80.0 1.232e+04 1.157e-09
 19.69596     79.6 1.212e+04 1.044e-09
 19.71516     79.3 1.190e+04 9.377e-10
 19.72507     78.7 1.203e+04 1.017e-09
 19.73560     78.5 1.185e+04 9.137e-10
 19.75542     78.3 1.169e+04 8.231e-10
 19.77524     78.2 1.155e+04 7.421e-10
 19.79506     78.2 1.141e+04 6.760e-10
 19.81488     78.2 1.129e+04 6.333e-10
 19.83274     78.3 1.123e+04 6.262e-10
 19.84265     78.2 1.149e+04 6.695e-10
 19.85168     78.4 1.141e+04 6.553e-10
 19.86159     77.2 1.161e+04 7.308e-10
 19.87434     77.5 1.156e+04 7.500e-10
 19.89416     77.7 1.159e+04 7.887e-10
 19.91398     77.7 1.170e+04 8.420e-10
 19.93380     77.4 1.198e+04 9.405e-10
 19.95033     76.4 1.265e+04 1.155e-09
 19.96024     76.8 1.267e+04 1.138e-09
 19.97344     74.9 1.381e+04 1.582e-09
 19.99326     72.7 1.493e+04 2.345e-09
 20.01308     70.6 1.563e+04 3.356e-09
 20.03290     68.9 1.598e+04 4.288e-09
 20.05272     67.2 1.605e+04 4.546e-09
 20.06791     65.4 1.598e+04 4.150e-09
 20.07782     65.6 1.600e+04 3.952e-09
 20.09236     63.0 1.557e+04 3.034e-09
 20.11218     59.9 1.493e+04 2.099e-09
 20.13200     56.5 1.395e+04 1.396e-09
 20.15182     53.0 1.273e+04 9.787e-10
 20.17164     49.2 1.197e+04 7.122e-10
 20.18550     44.2 1.257e+04 7.562e-10
 20.19541     36.6 1.660e+04 1.473e-09
 20.21128     31.1 1.654e+04 2.505e-09
 20.23110     27.0 1.724e+04 3.980e-09
 20.25092     23.8 1.858e+04 5.820e-09
 20.27074     20.9 1.956e+04 7.836e-09
 20.29056     18.0 1.943e+04 8.565e-09
 20.30308     15.7 1.872e+04 8.257e-09
 20.31299     11.4 1.927e+04 1.048e-08
 20.33020      9.5 1.921e+04 9.636e-09
 20.35002      7.8 1.985e+04 8.424e-09
 20.36984      6.0 2.024e+04 6.804e-09
 20.38966      4.1 1.942e+04 5.116e-09
 20.40948      2.9 1.733e+04 3.722e-09
 20.42067      2.7 1.530e+04 2.914e-09
 20.43058      2.5 1.810e+04 6.289e-09
 20.44912      3.4 1.667e+04 4.075e-09
 20.46894      4.1 1.497e+04 2.503e-09
 20.48876      3.9 1.342e+04 1.705e-09
 20.50858      4.5 1.198e+04 1.144e-09
 20.52834      4.9 1.158e+04 8.941e-10
 20.54816      5.2 1.128e+04 7.886e-10
 20.57599      6.5 1.111e+04 7.138e-10
 20.59590      6.4 1.016e+04 4.156e-10
 20.61779      8.5 9.575e+03 3.516e-10
 20.64612     10.9 9.367e+03 3.387e-10
 20.66594     12.8 1.135e+04 6.715e-10
 20.69707     15.7 1.135e+04 6.921e-10
 20.72670     15.2 1.096e+04 6.591e-10
 20.74642     15.9 1.094e+04 7.088e-10
 20.76351     15.7 1.139e+04 8.840e-10
 20.77342     18.0 1.182e+04 1.013e-09
 20.78606     17.6 1.195e+04 1.155e-09
 20.80588     16.8 1.218e+04 1.331e-09
 20.82570     15.1 1.264e+04 1.610e-09
 20.84552      9.4 1.518e+04 2.609e-09
 20.86534     -2.3 1.960e+04 7.227e-09
 20.88110     -9.8 1.883e+04 1.061e-08
 20.89101    -10.4 1.898e+04 1.147e-08
 20.90498    -18.2 1.973e+04 8.965e-09
 20.92481    -30.1 1.972e+04 3.562e-09
 20.94463    -46.2 1.437e+04 1.524e-09
 20.96445    -51.8 1.353e+04 1.478e-09
 20.98427    -55.1 1.483e+04 2.159e-09
 20.99868    -57.7 1.581e+04 3.049e-09
 21.00859    -61.0 1.664e+04 3.777e-09
 21.02391    -61.9 1.685e+04 4.481e-09
 21.04373    -62.0 1.700e+04 5.094e-09
 21.06355    -61.7 1.676e+04 5.120e-09
 21.08337    -61.3 1.632e+04 4.796e-09
 21.10319    -61.2 1.586e+04 4.244e-09
 21.11626    -61.4 1.541e+04 3.620e-09
 21.12617    -63.0 1.484e+04 2.660e-09
 21.14283    -63.9 1.485e+04 2.500e-09
 21.16265    -65.5 1.497e+04 2.517e-09
 21.18247    -67.1 1.484e+04 2.820e-09
 21.20229    -67.9 1.463e+04 3.211e-09
 21.22211    -68.2 1.462e+04 3.485e-09
 21.23385    -69.4 1.504e+04 3.657e-09
 21.24376    -71.7 1.606e+04 3.711e-09
 21.26175    -77.6 1.899e+04 4.318e-09
 21.28157    -85.1 2.009e+04 5.241e-09
 21.30139    -91.3 1.906e+04 5.995e-09
 21.31992    -94.3 1.724e+04 6.364e-09
 21.32983    -97.3 1.697e+04 8.106e-09
 21.34103    -98.2 1.643e+04 5.907e-09
 21.35143   -100.4 1.648e+04 4.002e-09
 21.36134   -102.9 1.611e+04 3.013e-09
 21.38067   -107.8 1.579e+04 1.941e-09
 21.40049   -113.3 1.520e+04 1.463e-09
 21.42031   -118.1 1.465e+04 1.356e-09
 21.44013   -121.8 1.417e+04 1.490e-09
 21.45911   -124.1 1.433e+04 1.812e-09
 21.46902   -124.5 1.345e+04 1.462e-09
 21.47977   -126.0 1.346e+04 1.498e-09
 21.49959   -126.8 1.317e+04 1.444e-09
 21.51941   -127.3 1.269e+04 1.299e-09
 21.53923   -127.5 1.223e+04 1.167e-09
 21.55905   -127.6 1.186e+04 1.061e-09
 21.57669   -127.5 1.158e+04 9.704e-10
 21.58660   -128.2 1.156e+04 9.389e-10
 21.59869   -127.9 1.139e+04 9.003e-10
 21.61851   -127.7 1.131e+04 8.813e-10
 21.63833   -127.5 1.131e+04 8.766e-10
 21.65815   -127.4 1.139e+04 9.008e-10
 21.67797   -127.1 1.148e+04 9.906e-10
 21.69428   -126.4 1.156e+04 1.118e-09
 21.70419   -126.9 1.162e+04 1.095e-09
 21.71761   -126.0 1.168e+04 1.159e-09
 21.73743   -125.5 1.182e+04 1.234e-09
 21.75725   -125.5 1.218e+04 1.418e-09
 21.77707   -127.1 1.408e+04 2.100e-09
 21.79689   -129.9 1.682e+04 4.280e-09
 21.81186   -131.8 1.901e+04 9.251e-09
 21.82177   -131.0 1.790e+04 5.505e-09
 21.83153   -132.3 1.970e+04 1.057e-08
 21.84139   -132.5 2.046e+04 1.455e-08
 21.85130   -132.9 2.126e+04 1.897e-08
 21.86121   -133.3 2.221e+04 2.787e-08
 21.87056   -133.7 2.297e+04 3.683e-08
 21.87551   -133.3 2.277e+04 3.351e-08
 21.88103   -133.6 2.357e+04 4.266e-08
 21.89094   -134.3 2.421e+04 4.619e-08
 21.90085   -135.5 2.449e+04 4.604e-08
 21.91076   -137.0 2.530e+04 3.461e-08
 21.92067   -139.1 2.535e+04 2.132e-08
 21.92935   -141.9 2.416e+04 1.260e-08
 21.93431   -139.8 2.587e+04 1.873e-08
 21.94049   -142.9 2.444e+04 1.133e-08
 21.95540   -145.8 2.287e+04 8.273e-09
 21.97527   -150.0 1.874e+04 4.671e-09
 21.99509   -153.8 1.505e+04 3.145e-09
 22.01491   -156.2 1.373e+04 2.756e-09
 22.03473   -157.3 1.363e+04 2.842e-09
 22.04703   -157.8 1.411e+04 3.405e-09
 22.05643   -158.8 1.418e+04 3.553e-09
 22.06395   -157.8 1.350e+04 2.090e-09
 22.07437   -158.5 1.374e+04 2.554e-09
 22.09419   -158.9 1.387e+04 2.758e-09
 22.11401   -159.0 1.390e+04 2.811e-09
 22.13383   -159.2 1.386e+04 2.789e-09
 22.15365   -159.7 1.365e+04 2.575e-09
 22.16462   -160.3 1.342e+04 2.307e-09
 22.17453   -164.3 1.825e+04 2.094e-09
 22.19329   -164.7 2.088e+04 1.807e-09
 22.21311   -164.7 2.113e+04 1.860e-09
 22.23293   -164.4 1.929e+04 1.891e-09
 22.25275   -164.3 1.675e+04 1.789e-09
 22.27229   -164.0 1.490e+04 1.664e-09
 22.28220   -168.1 1.913e+04 3.471e-09
 22.29239   -167.0 1.711e+04 2.996e-09
 22.31221   -165.9 1.588e+04 2.609e-09
 22.33203   -164.7 1.486e+04 2.284e-09
 22.35185   -163.6 1.400e+04 1.972e-09
 22.37167   -162.3 1.327e+04 1.687e-09
 22.38988   -161.0 1.266e+04 1.443e-09
 22.39979   -162.6 1.383e+04 1.789e-09
 22.41131   -161.2 1.322e+04 1.489e-09
 22.43113   -159.8 1.269e+04 1.253e-09
 22.45095   -158.3 1.224e+04 1.076e-09
 22.47077   -156.4 1.201e+04 9.606e-10
 22.49059   -154.4 1.205e+04 9.047e-10
 22.50746   -152.5 1.212e+04 8.851e-10
 22.51737   -153.5 1.297e+04 1.147e-09
 22.53023   -151.8 1.308e+04 1.142e-09
 22.55005   -150.3 1.316e+04 1.135e-09
 22.56987   -148.9 1.316e+04 1.160e-09
 22.58969   -147.0 1.311e+04 1.194e-09
 22.60951   -145.4 1.305e+04 1.279e-09
 22.62505   -144.0 1.303e+04 1.284e-09
 22.63496   -144.3 1.337e+04 1.634e-09
 22.64915   -142.8 1.328e+04 1.616e-09
 22.67898   -140.4 1.302e+04 1.492e-09
 22.71872   -137.4 1.305e+04 1.530e-09
 22.74273   -135.2 1.315e+04 1.568e-09
 22.75254   -135.4 1.312e+04 1.609e-09
 22.76807   -134.4 1.310e+04 1.603e-09
 22.78789   -132.4 1.311e+04 1.651e-09
 22.79807   -131.3 1.311e+04 1.692e-09
 22.80798   -131.2 1.314e+04 1.784e-09
 22.82753   -129.7 1.321e+04 1.883e-09
 22.84735   -128.4 1.349e+04 2.136e-09
 22.86022   -127.4 1.392e+04 2.592e-09
 22.87013   -127.6 1.371e+04 2.476e-09
 22.88699   -126.9 1.415e+04 3.050e-09
 22.90681   -125.8 1.463e+04 3.815e-09
 22.92663   -124.4 1.515e+04 4.706e-09
 22.94645   -123.2 1.564e+04 5.546e-09
 22.96627   -122.3 1.589e+04 6.000e-09
 22.97780   -121.5 1.590e+04 6.056e-09
 22.98771   -121.1 1.510e+04 4.106e-09
 23.00592   -120.3 1.497e+04 3.880e-09
 23.02574   -119.7 1.462e+04 3.308e-09
 23.04556   -119.5 1.415e+04 2.767e-09
 23.06538   -119.3 1.369e+04 2.364e-09
 23.08520   -118.9 1.331e+04 2.075e-09
 23.09539   -118.4 1.300e+04 1.845e-09
 23.10530   -117.8 1.272e+04 1.500e-09
 23.12484   -117.0 1.252e+04 1.392e-09
 23.14466   -116.1 1.233e+04 1.267e-09
 23.16448   -115.1 1.213e+04 1.111e-09
 23.18430   -114.1 1.193e+04 9.205e-10
 23.20306   -113.2 1.171e+04 7.625e-10
 23.21297   -112.6 1.172e+04 7.867e-10
 23.22394   -111.6 1.155e+04 6.752e-10
 23.24376   -110.6 1.137e+04 5.723e-10
 23.26358   -109.5 1.123e+04 4.842e-10
 23.28340   -108.4 1.117e+04 4.143e-10
 23.30322   -107.4 1.115e+04 3.614e-10
 23.32065   -106.3 1.110e+04 3.356e-10
 23.33056   -105.7 1.116e+04 3.690e-10
 23.35286   -104.8 1.108e+04 3.348e-10
 23.39260   -102.3 1.103e+04 3.295e-10
 23.42852   -100.1 1.114e+04 3.692e-10
 23.44834    -99.5 1.116e+04 3.794e-10
 23.47188    -97.7 1.159e+04 5.539e-10
 23.51152    -95.6 1.217e+04 8.831e-10
 23.53229    -94.1 1.260e+04 1.278e-09
 23.54210    -94.6 1.243e+04 1.116e-09
 23.55582    -94.9 1.355e+04 1.476e-09
 23.56573    -94.5 1.314e+04 1.441e-09
 23.58070    -97.6 1.612e+04 2.558e-09
 23.60052   -101.9 1.840e+04 6.092e-09
 23.62034   -104.1 1.935e+04 1.401e-08
 23.64016   -104.6 1.983e+04 2.453e-08
 23.65497   -104.4 1.997e+04 2.946e-08
 23.66484   -104.4 1.993e+04 2.994e-08
 23.67330   -104.3 1.968e+04 2.591e-08
 23.67826   -104.5 1.963e+04 2.563e-08
 23.68466   -104.7 1.928e+04 1.905e-08
 23.69957   -106.1 1.878e+04 1.282e-08
 23.71944   -109.1 1.730e+04 6.138e-09
 23.73926   -113.0 1.521e+04 2.830e-09
 23.75908   -116.1 1.353e+04 1.741e-09
 23.77890   -117.2 1.291e+04 1.470e-09
 23.79099   -117.4 1.268e+04 1.403e-09
 23.80090   -116.4 1.272e+04 1.589e-09
 23.81854   -116.5 1.257e+04 1.519e-09
 23.83836   -116.4 1.236e+04 1.467e-09
 23.85818   -116.3 1.212e+04 1.418e-09
 23.87800   -116.1 1.193e+04 1.381e-09
 23.89782   -115.9 1.180e+04 1.360e-09
 23.90857   -115.6 1.175e+04 1.346e-09
 23.91848   -115.1 1.191e+04 1.442e-09
 23.93746   -114.8 1.190e+04 1.436e-09
 23.95728   -114.6 1.188e+04 1.421e-09
 23.97710   -114.3 1.173e+04 1.310e-09
 23.99692   -114.1 1.149e+04 1.151e-09
 24.01624   -113.9 1.124e+04 1.006e-09
 24.02615   -113.4 1.126e+04 1.023e-09
 24.03656   -113.3 1.099e+04 8.930e-10
 24.05638   -113.0 1.077e+04 8.075e-10
 24.07620   -112.8 1.063e+04 7.610e-10
 24.09602   -112.4 1.057e+04 7.404e-10
 24.11584   -112.1 1.055e+04 7.303e-10
 24.13383   -111.7 1.053e+04 7.224e-10
 24.14374   -111.1 1.034e+04 6.388e-10
 24.15548   -110.7 1.030e+04 6.192e-10
 24.17530   -110.3 1.025e+04 5.989e-10
 24.19512   -109.8 1.020e+04 5.784e-10
 24.21494   -109.4 1.015e+04 5.585e-10
 24.23476   -109.1 1.012e+04 5.407e-10
 24.25141   -108.9 1.009e+04 5.258e-10
 24.26132   -108.4 1.004e+04 5.029e-10
 24.26631   -108.3 1.006e+04 5.153e-10
 24.27622   -108.6 1.023e+04 5.583e-10
 24.29422   -108.6 1.035e+04 5.981e-10
 24.31404   -109.3 1.070e+04 6.806e-10
 24.33386   -110.4 1.136e+04 8.205e-10
 24.35368   -111.9 1.213e+04 1.019e-09
 24.36900   -113.3 1.260e+04 1.221e-09
 24.37891   -112.5 1.287e+04 1.434e-09
 24.39332   -113.7 1.305e+04 1.556e-09
 24.41314   -114.5 1.290e+04 1.563e-09
 24.43296   -115.1 1.229e+04 1.406e-09
 24.45278   -115.4 1.163e+04 1.186e-09
 24.47260   -115.6 1.112e+04 1.007e-09
 24.48658   -115.7 1.078e+04 8.710e-10
 24.49649   -115.3 1.088e+04 8.972e-10
 24.51224   -115.4 1.057e+04 7.734e-10
 24.53206   -115.4 1.033e+04 6.779e-10
 24.55188   -115.3 1.015e+04 6.029e-10
 24.57170   -115.2 1.000e+04 5.329e-10
 24.59152   -115.1 9.823e+03 4.674e-10
 24.60427   -114.7 9.614e+03 4.162e-10
 24.62418   -113.6 9.757e+03 4.253e-10
 24.66109   -113.3 9.447e+03 3.580e-10
 24.70073   -112.8 9.077e+03 2.872e-10
 24.74037   -112.2 8.789e+03 2.330e-10
 24.78001   -111.6 8.631e+03 2.044e-10
 24.81965   -110.8 8.595e+03 1.979e-10
 24.85929   -109.4 8.743e+03 2.156e-10
 24.89893   -108.9 8.841e+03 2.327e-10
 24.93857   -108.5 8.864e+03 2.424e-10
 24.97821   -108.1 8.824e+03 2.414e-10
 25.00063   -107.5 8.661e+03 2.127e-10
 25.02045   -108.1 8.502e+03 1.810e-10
 25.05488   -107.4 8.329e+03 1.452e-10
 25.07470   -106.7 8.255e+03 1.371e-10
 25.09713   -106.1 8.123e+03 1.111e-10
 25.13677   -105.6 8.095e+03 1.042e-10
 25.17641   -105.0 8.106e+03 1.042e-10
 25.21605   -104.4 8.168e+03 1.082e-10
 25.25569   -103.8 8.220e+03 1.109e-10
 25.29005   -103.1 8.249e+03 1.119e-10
 25.30987   -102.4 8.149e+03 9.909e-11
 25.33497   -101.6 8.162e+03 9.904e-11
 25.37461   -101.0 8.192e+03 9.942e-11
 25.41425   -100.8 8.338e+03 1.093e-10
 25.45389   -101.0 8.836e+03 1.653e-10
 25.49353   -101.4 9.508e+03 2.948e-10
 25.52522   -101.8 1.025e+04 5.036e-10
 25.54504   -102.4 1.052e+04 6.154e-10
 25.57281   -103.4 1.102e+04 8.224e-10
 25.60245   -103.9 1.120e+04 8.656e-10
 25.62217   -104.9 1.131e+04 8.980e-10
 25.64199   -106.3 1.147e+04 9.422e-10
 25.65252   -107.4 1.176e+04 1.024e-09
 25.66243   -107.3 1.131e+04 8.359e-10
 25.68163   -108.2 1.156e+04 8.963e-10
 25.70145   -109.2 1.174e+04 9.646e-10
 25.72127   -110.2 1.176e+04 9.975e-10
 25.73455   -111.1 1.168e+04 1.002e-09
 25.74446   -111.2 1.136e+04 8.743e-10
 25.76020   -111.9 1.111e+04 8.291e-10
 25.77011   -111.8 1.111e+04 7.706e-10
 25.78073   -112.3 1.090e+04 7.514e-10
 25.80055   -112.6 1.069e+04 7.091e-10
 25.82037   -112.7 1.056e+04 6.574e-10
 25.84019   -112.8 1.046e+04 6.092e-10
 25.86001   -112.6 1.038e+04 5.640e-10
 25.87778   -112.3 1.030e+04 5.260e-10
 25.88769   -112.8 1.040e+04 5.099e-10
 25.89965   -112.4 1.029e+04 4.749e-10
 25.91947   -111.9 1.019e+04 4.510e-10
 25.93929   -111.1 1.011e+04 4.297e-10
 25.96912   -110.0 1.003e+04 3.998e-10
 25.99556   -107.7 9.930e+03 3.922e-10
 26.01538   -109.5 1.025e+04 4.152e-10
 26.04850   -108.0 1.083e+04 4.807e-10
 26.08814   -108.5 1.261e+04 8.057e-10
 26.11305   -108.7 1.395e+04 1.727e-09
 26.12286   -110.6 1.421e+04 2.260e-09
 26.13749   -110.9 1.490e+04 3.449e-09
 26.15731   -110.8 1.566e+04 5.191e-09
 26.17713   -110.2 1.612e+04 6.991e-09
 26.19695   -109.4 1.631e+04 7.729e-09
 26.21677   -108.7 1.627e+04 7.493e-09
 26.23054   -108.3 1.600e+04 6.419e-09
 26.24045   -109.8 1.476e+04 4.035e-09
 26.25641   -110.0 1.404e+04 2.913e-09
 26.27623   -110.5 1.321e+04 2.014e-09
 26.29605   -111.1 1.246e+04 1.400e-09
 26.31587   -112.1 1.144e+04 9.724e-10
 26.33569   -112.6 1.085e+04 7.589e-10
 26.34812   -112.7 1.059e+04 6.557e-10
 26.35803   -112.2 1.021e+04 5.302e-10
 26.37533   -111.9 1.008e+04 4.860e-10
 26.39515   -111.6 1.003e+04 4.738e-10
 26.41497   -111.2 1.003e+04 4.727e-10
 26.43479   -110.9 1.007e+04 4.933e-10
 26.45461   -110.6 1.019e+04 5.566e-10
 26.46571   -110.1 1.032e+04 6.433e-10
 26.46986   -109.4 1.010e+04 5.272e-10
 26.47858   -109.5 1.011e+04 5.424e-10
 26.49425   -108.9 1.026e+04 6.354e-10
 26.51407   -108.1 1.045e+04 7.486e-10
 26.53389   -107.1 1.063e+04 8.317e-10
 26.55371   -106.0 1.073e+04 8.612e-10
 26.57338   -105.1 1.076e+04 8.645e-10
 26.58329   -104.5 1.053e+04 7.769e-10
 26.59335   -103.4 1.058e+04 7.551e-10
 26.61317   -102.4 1.053e+04 6.784e-10
 26.63299   -101.6 1.045e+04 6.005e-10
 26.65281   -100.8 1.036e+04 5.425e-10
 26.67263   -100.2 1.029e+04 5.157e-10
 26.69097    -99.4 1.027e+04 5.101e-10
 26.70088    -98.6 9.954e+03 4.220e-10
 26.71227    -97.8 9.958e+03 4.220e-10
 26.73209    -97.0 1.003e+04 4.405e-10
 26.75191    -96.1 1.012e+04 4.862e-10
 26.77173    -95.2 1.020e+04 5.422e-10
 26.79155    -94.1 1.027e+04 5.990e-10
 26.80855    -92.9 1.034e+04 6.533e-10
 26.81846    -92.2 1.000e+04 5.305e-10
 26.83119    -91.0 1.007e+04 5.771e-10
 26.85101    -89.8 1.012e+04 6.100e-10
 26.87083    -88.5 1.013e+04 6.248e-10
 26.89065    -87.3 1.015e+04 6.273e-10
 26.91047    -86.1 1.017e+04 6.166e-10
 26.92613    -85.0 1.023e+04 6.040e-10
 26.93605    -84.2 9.875e+03 5.001e-10
 26.95011    -83.1 9.935e+03 4.981e-10
 26.96993    -82.2 9.987e+03 4.965e-10
 26.98975    -81.2 1.011e+04 5.105e-10
 27.00957    -80.1 1.025e+04 5.469e-10
 27.02939    -79.2 1.033e+04 5.838e-10
 27.04372    -78.0 1.033e+04 6.010e-10
 27.05363    -77.5 1.019e+04 5.204e-10
 27.07904    -76.0 1.039e+04 6.115e-10
 27.11878    -73.5 1.039e+04 6.253e-10
 27.15159    -70.9 1.055e+04 6.530e-10
 27.17141    -70.1 1.038e+04 6.098e-10
 27.19806    -67.5 1.075e+04 7.132e-10
 27.23770    -65.5 1.135e+04 8.849e-10
 27.26733    -65.1 1.202e+04 1.220e-09
 27.27889    -65.1 1.278e+04 1.637e-09
 27.28880    -65.2 1.285e+04 1.650e-09
 27.30688    -65.9 1.398e+04 2.561e-09
 27.32670    -66.8 1.511e+04 4.573e-09
 27.34652    -66.7 1.620e+04 8.060e-09
 27.36634    -65.6 1.708e+04 1.228e-08
 27.38616    -64.3 1.777e+04 1.466e-08
 27.39647    -63.5 1.799e+04 1.485e-08
 27.40638    -63.4 1.706e+04 1.132e-08
 27.42580    -62.9 1.696e+04 8.426e-09
 27.44562    -64.1 1.650e+04 5.602e-09
 27.46544    -66.6 1.537e+04 3.835e-09
 27.48526    -67.4 1.424e+04 2.983e-09
 27.50415    -67.2 1.356e+04 2.444e-09
 27.51406    -66.5 1.362e+04 2.458e-09
 27.52490    -65.7 1.295e+04 1.938e-09
 27.54472    -64.9 1.237e+04 1.464e-09
 27.56454    -64.2 1.193e+04 1.104e-09
 27.58436    -63.7 1.149e+04 8.521e-10
 27.60418    -63.1 1.117e+04 7.009e-10
 27.62173    -62.6 1.100e+04 6.276e-10
 27.63164    -62.2 1.134e+04 7.969e-10
 27.64382    -61.7 1.119e+04 7.534e-10
 27.66364    -61.0 1.107e+04 7.329e-10
 27.68346    -60.1 1.100e+04 7.275e-10
 27.70328    -59.1 1.094e+04 7.174e-10
 27.72310    -58.0 1.086e+04 6.751e-10
 27.73932    -56.9 1.076e+04 5.859e-10
 27.74923    -56.1 1.105e+04 7.892e-10
 27.76274    -55.2 1.096e+04 6.281e-10
 27.78256    -54.8 1.076e+04 4.677e-10
 27.80238    -55.0 1.041e+04 3.602e-10
 27.82220    -55.9 1.026e+04 3.159e-10
 27.84202    -56.3 1.020e+04 3.188e-10
 27.85690    -56.4 1.016e+04 3.519e-10
 27.86681    -56.4 1.034e+04 4.196e-10
 27.88166    -57.0 1.038e+04 4.652e-10
 27.90148    -58.1 1.064e+04 4.852e-10
 27.92130    -59.3 1.095e+04 6.549e-10
 27.93691    -60.0 1.158e+04 9.116e-10
 27.94682    -60.6 1.164e+04 1.011e-09
 27.96094    -60.9 1.225e+04 1.335e-09
 27.97449    -61.2 1.309e+04 1.460e-09
 27.98440    -63.1 1.473e+04 2.749e-09
 28.00058    -63.1 1.464e+04 2.766e-09
 28.02040    -62.9 1.431e+04 2.599e-09
 28.04022    -62.5 1.406e+04 2.441e-09
 28.06004    -62.2 1.375e+04 2.190e-09
 28.07986    -61.9 1.358e+04 2.038e-09
 28.09207    -61.7 1.337e+04 1.850e-09
 28.10198    -63.3 1.391e+04 2.354e-09
 28.11950    -63.1 1.384e+04 2.243e-09
 28.13932    -63.0 1.382e+04 2.234e-09
 28.15914    -62.8 1.376e+04 2.295e-09
 28.17896    -62.6 1.368e+04 2.397e-09
 28.19878    -62.5 1.350e+04 2.436e-09
 28.20966    -62.3 1.332e+04 2.374e-09
 28.21957    -63.2 1.354e+04 2.797e-09
 28.23842    -63.0 1.332e+04 2.502e-09
 28.25824    -63.3 1.313e+04 2.191e-09
 28.27806    -65.0 1.306e+04 2.021e-09
 28.29788    -67.4 1.299e+04 1.973e-09
 28.31733    -69.6 1.283e+04 2.052e-09
 28.32724    -69.9 1.290e+04 2.072e-09
 28.33752    -71.6 1.293e+04 2.330e-09
 28.35734    -72.6 1.294e+04 2.404e-09
 28.37716    -73.2 1.278e+04 2.228e-09
 28.39698    -74.2 1.239e+04 1.581e-09
 28.41680    -76.2 1.175e+04 9.773e-10
 28.43492    -78.6 1.087e+04 6.321e-10
 28.44483    -78.0 1.118e+04 7.275e-10
 28.45644    -80.2 1.039e+04 5.191e-10
 28.47626    -81.3 1.007e+04 4.462e-10
 28.50609    -82.0 9.940e+03 3.902e-10
 28.54279    -82.3 9.831e+03 3.502e-10
 28.56261    -82.5 1.015e+04 4.764e-10
 28.58547    -82.8 1.027e+04 4.870e-10
 28.62511    -86.3 1.141e+04 6.442e-10
 28.65474    -91.4 1.295e+04 1.320e-09
 28.67009    -93.4 1.452e+04 3.159e-09
 28.67657    -94.0 1.513e+04 4.022e-09
 28.68094    -93.4 1.493e+04 3.943e-09
 28.69428    -94.0 1.594e+04 6.665e-09
 28.71410    -94.9 1.628e+04 7.657e-09
 28.73392    -96.0 1.607e+04 7.111e-09
 28.75374    -96.9 1.492e+04 4.015e-09
 28.77356    -99.3 1.307e+04 1.754e-09
 28.78767   -102.0 1.115e+04 8.434e-10
 28.79758   -102.2 1.120e+04 9.210e-10
 28.81320   -103.2 1.033e+04 5.986e-10
 28.83302   -103.4 1.001e+04 4.676e-10
 28.85284   -103.0 9.740e+03 3.856e-10
 28.87266   -102.7 9.637e+03 3.532e-10
 28.90249   -102.3 9.608e+03 3.363e-10
 28.94223   -101.4 9.403e+03 3.007e-10
 28.98187   -100.2 9.334e+03 2.918e-10
 29.01313    -99.1 9.378e+03 3.101e-10
 29.03295    -99.1 9.369e+03 3.068e-10
 29.06115    -98.2 9.717e+03 4.027e-10
 29.09078    -97.0 9.828e+03 4.460e-10
 29.11050    -97.0 9.971e+03 5.053e-10
 29.13032    -96.4 1.013e+04 5.843e-10
 29.14043    -96.0 1.017e+04 6.037e-10
 29.15034    -96.1 1.032e+04 6.512e-10
 29.16997    -95.6 1.033e+04 6.551e-10
 29.18979    -95.2 1.021e+04 5.975e-10
 29.21961    -95.2 9.961e+03 4.730e-10
 29.24830    -94.6 9.723e+03 3.818e-10
 29.26812    -95.1 9.889e+03 4.303e-10
 29.29899    -94.5 9.802e+03 3.990e-10
 29.33863    -94.4 9.852e+03 3.991e-10
 29.37827    -94.5 1.005e+04 4.497e-10
 29.40535    -94.6 1.021e+04 5.181e-10
 29.42517    -93.8 1.011e+04 4.715e-10
 29.45755    -93.8 1.024e+04 5.204e-10
 29.48347    -93.8 1.027e+04 5.311e-10
 29.50329    -94.7 1.027e+04 5.245e-10
 29.53683    -94.9 1.017e+04 4.567e-10
 29.57647    -95.2 1.005e+04 3.903e-10
 29.61611    -95.6 9.997e+03 3.592e-10
 29.65575    -96.1 9.985e+03 3.519e-10
 29.69539    -96.6 9.975e+03 3.447e-10
 29.71864    -97.0 9.920e+03 3.204e-10
 29.73846    -97.5 9.825e+03 2.850e-10
 29.77467    -97.8 9.653e+03 2.200e-10
 29.81431    -98.2 9.521e+03 1.720e-10
 29.85395    -98.5 9.470e+03 1.461e-10
 29.89359    -98.6 9.471e+03 1.343e-10
 29.93323    -98.5 9.483e+03 1.282e-10
 29.95381    -98.2 9.506e+03 1.239e-10
 29.97363    -98.0 9.509e+03 1.204e-10
 30.01251    -97.4 9.554e+03 1.176e-10
 30.05215    -96.7 9.581e+03 1.092e-10
 30.09179    -95.9 9.611e+03 9.877e-11
 30.13144    -95.2 9.618e+03 9.364e-11
 30.16915    -94.4 9.624e+03 9.371e-11
 30.18897    -94.4 9.741e+03 1.075e-10
 30.21072    -93.5 9.743e+03 1.246e-10
 30.25036    -92.4 9.758e+03 1.470e-10
 30.29000    -91.2 9.773e+03 1.666e-10
 30.32964    -90.0 9.785e+03 1.820e-10
 30.36928    -88.8 9.817e+03 2.016e-10
 30.40432    -87.8 9.888e+03 2.360e-10
 30.42414    -87.6 1.005e+04 2.765e-10
 30.44856    -86.5 1.020e+04 3.468e-10
 30.48820    -85.6 1.034e+04 4.095e-10
 30.52784    -84.9 1.039e+04 4.418e-10
 30.56748    -84.3 1.037e+04 4.492e-10
 30.60712    -83.9 1.039e+04 4.599e-10
 30.63675    -83.2 1.041e+04 4.732e-10
 30.64921    -83.2 1.045e+04 5.279e-10
 30.65912    -83.3 1.076e+04 6.565e-10
 30.67629    -82.7 1.080e+04 7.264e-10
 30.69611    -82.4 1.087e+04 7.809e-10
 30.71593    -81.9 1.091e+04 8.404e-10
 30.73575    -81.8 1.105e+04 9.170e-10
 30.76558    -81.3 1.136e+04 1.095e-09
 30.80532    -80.3 1.129e+04 1.073e-09
 30.84496    -79.4 1.104e+04 9.312e-10
 30.87359    -78.9 1.081e+04 8.292e-10
 30.88347    -77.0 1.078e+04 8.453e-10
 30.89448    -77.3 1.097e+04 1.036e-09
 30.92424    -76.7 1.084e+04 9.224e-10
 30.96388    -76.7 1.094e+04 9.262e-10
 30.99215    -77.7 1.160e+04 1.253e-09
 31.00196    -77.1 1.116e+04 1.053e-09
 31.01323    -77.3 1.138e+04 1.229e-09
 31.03305    -77.2 1.153e+04 1.381e-09
 31.05287    -77.0 1.164e+04 1.473e-09
 31.07269    -76.9 1.176e+04 1.531e-09
 31.09251    -77.6 1.206e+04 1.616e-09
 31.10964    -79.1 1.242e+04 1.767e-09
 31.11955    -78.0 1.204e+04 1.520e-09
 31.13215    -79.6 1.249e+04 1.819e-09
 31.15197    -80.9 1.276e+04 2.184e-09
 31.17179    -81.5 1.289e+04 2.451e-09
 31.19161    -82.0 1.290e+04 2.508e-09
 31.21143    -82.6 1.273e+04 2.250e-09
 31.22722    -83.8 1.213e+04 1.638e-09
 31.23713    -83.0 1.235e+04 1.835e-09
 31.25108    -84.9 1.161e+04 1.346e-09
 31.28090    -86.6 1.112e+04 1.115e-09
 31.32064    -88.1 1.112e+04 1.120e-09
 31.34500    -89.6 1.153e+04 1.330e-09
 31.36482    -91.0 1.222e+04 1.846e-09
 31.39992    -92.2 1.231e+04 1.954e-09
 31.43956    -93.1 1.218e+04 1.895e-09
 31.47920    -94.2 1.182e+04 1.649e-09
 31.51884    -94.9 1.137e+04 1.354e-09
 31.55848    -95.3 1.092e+04 1.079e-09
 31.58007    -95.5 1.055e+04 8.800e-10
 31.58989    -95.9 1.056e+04 8.930e-10
 31.60751    -96.1 1.038e+04 7.956e-10
 31.61742    -95.6 1.051e+04 8.628e-10
 31.62766    -95.6 1.015e+04 6.734e-10
 31.64748    -95.9 9.911e+03 5.516e-10
 31.66730    -96.2 9.815e+03 4.787e-10
 31.68712    -96.7 9.800e+03 4.481e-10
 31.69756    -97.3 9.806e+03 4.429e-10
 31.70747    -97.4 9.751e+03 4.242e-10
 31.72676    -98.2 9.838e+03 4.244e-10
 31.74658    -99.4 1.017e+04 4.781e-10
 31.76640   -100.8 1.051e+04 6.184e-10
 31.78622   -101.9 1.081e+04 8.368e-10
 31.80524   -102.4 1.104e+04 1.091e-09
 31.81515   -102.2 1.074e+04 8.870e-10
 31.82586   -102.3 1.091e+04 1.081e-09
 31.84568   -102.2 1.096e+04 1.153e-09
 31.86550   -101.9 1.090e+04 1.155e-09
 31.88532   -101.5 1.068e+04 9.360e-10
 31.90514   -101.6 1.058e+04 5.952e-10
 31.92282   -103.7 1.038e+04 3.886e-10
 31.93273   -103.4 1.044e+04 4.147e-10
 31.95479   -106.0 9.898e+03 3.044e-10
 31.99452   -106.7 9.321e+03 2.710e-10
 32.03069   -106.7 9.160e+03 2.520e-10
 32.05051   -107.2 9.159e+03 2.509e-10
 32.07380   -107.0 9.040e+03 2.095e-10
 32.11344   -106.9 9.010e+03 1.771e-10
 32.15308   -107.0 9.036e+03 1.687e-10
 32.19273   -107.0 9.119e+03 1.712e-10
 32.23237   -106.9 9.251e+03 1.913e-10
 32.26586   -106.5 9.302e+03 2.068e-10
 32.28568   -108.0 9.284e+03 1.895e-10
 32.31165   -107.5 9.270e+03 1.851e-10
 32.34183   -107.0 9.261e+03 1.723e-10
 32.36165   -105.5 9.355e+03 1.956e-10
 32.39093   -105.1 9.357e+03 1.855e-10
 32.43057   -104.9 9.358e+03 1.793e-10
 32.47021   -104.6 9.347e+03 1.768e-10
 32.50103   -104.3 9.324e+03 1.750e-10
 32.52085   -105.2 9.216e+03 1.455e-10
 32.54949   -104.6 9.188e+03 1.387e-10
 32.58913   -104.0 9.187e+03 1.338e-10
 32.62877   -103.3 9.205e+03 1.324e-10
 32.66841   -102.6 9.264e+03 1.333e-10
 32.70805   -102.0 9.372e+03 1.366e-10
 32.73620   -101.5 9.532e+03 1.462e-10
 32.75602   -101.9 9.461e+03 1.289e-10
 32.78733   -101.4 9.621e+03 1.444e-10
 32.82697   -101.0 9.798e+03 1.795e-10
 32.86661   -100.3 9.993e+03 2.283e-10
 32.90625    -99.5 1.017e+04 2.687e-10
 32.94589    -98.9 1.026e+04 2.826e-10
 32.97137    -98.6 1.027e+04 2.842e-10
 32.99119    -98.7 1.011e+04 2.439e-10
 33.02517    -98.4 1.005e+04 2.409e-10
 33.06481    -98.0 9.947e+03 2.334e-10
 33.10445    -97.4 9.843e+03 2.279e-10
 33.14409    -96.7 9.756e+03 2.231e-10
 33.18373    -95.9 9.718e+03 2.225e-10
 33.20654    -95.1 9.762e+03 2.291e-10
 33.22636    -95.2 9.683e+03 1.979e-10
 33.26301    -94.9 9.890e+03 2.119e-10
 33.30265    -95.2 1.032e+04 2.557e-10
 33.32403    -95.0 1.059e+04 3.153e-10
 33.33384    -95.3 1.065e+04 3.310e-10
 33.35201    -95.3 1.070e+04 3.452e-10
 33.37183    -95.4 1.090e+04 4.455e-10
 33.39165    -95.8 1.104e+04 5.703e-10
 33.41147    -95.7 1.121e+04 7.530e-10
 33.43129    -95.5 1.139e+04 8.765e-10
 33.44151    -95.2 1.155e+04 9.612e-10
 33.45142    -95.0 1.133e+04 8.163e-10
 33.47093    -94.7 1.142e+04 8.598e-10
 33.49075    -94.5 1.146e+04 9.056e-10
 33.51057    -94.2 1.148e+04 9.647e-10
 33.53039    -93.8 1.154e+04 1.042e-09
 33.54919    -93.4 1.159e+04 1.118e-09
 33.55910    -93.1 1.146e+04 9.995e-10
 33.57003    -92.7 1.148e+04 1.054e-09
 33.58985    -92.3 1.148e+04 1.066e-09
 33.60967    -91.8 1.135e+04 1.039e-09
 33.62949    -91.4 1.121e+04 9.577e-10
 33.64931    -91.0 1.109e+04 8.661e-10
 33.66677    -90.7 1.096e+04 7.793e-10
 33.67668    -90.4 1.094e+04 7.475e-10
 33.68895    -90.1 1.080e+04 6.697e-10
 33.70877    -89.8 1.063e+04 5.853e-10
 33.72859    -89.5 1.044e+04 4.996e-10
 33.74841    -89.2 1.026e+04 4.202e-10
 33.77824    -88.9 1.012e+04 3.560e-10
 33.81007    -88.4 9.928e+03 3.041e-10
 33.82989    -88.3 9.950e+03 3.098e-10
 33.85761    -87.4 9.769e+03 2.716e-10
 33.89223    -86.3 9.711e+03 2.610e-10
 33.91205    -86.2 9.727e+03 2.557e-10
 33.93689    -85.2 9.710e+03 2.592e-10
 33.97653    -84.4 9.733e+03 2.659e-10
 34.01617    -83.7 9.813e+03 2.662e-10
 34.05581    -83.2 9.922e+03 2.673e-10
 34.09545    -82.8 9.954e+03 2.708e-10
 34.12740    -82.4 9.876e+03 2.702e-10
 34.14722    -83.2 9.961e+03 2.703e-10
 34.17473    -82.5 9.847e+03 2.587e-10
 34.21437    -81.2 9.842e+03 2.549e-10
 34.25402    -79.4 1.002e+04 2.649e-10
 34.29366    -77.8 1.029e+04 2.983e-10
 34.32329    -77.5 1.060e+04 3.050e-10
 34.34301    -78.1 1.093e+04 3.349e-10
 34.36237    -79.1 1.145e+04 4.830e-10
 34.37228    -79.9 1.152e+04 4.793e-10
 34.38265    -80.9 1.188e+04 7.366e-10
 34.40247    -81.1 1.225e+04 1.130e-09
 34.42229    -80.8 1.253e+04 1.529e-09
 34.44211    -80.1 1.274e+04 1.750e-09
 34.46193    -79.6 1.280e+04 1.795e-09
 34.47996    -79.4 1.274e+04 1.560e-09
 34.48987    -80.1 1.252e+04 1.332e-09
 34.50157    -80.3 1.234e+04 1.026e-09
 34.52139    -80.6 1.216e+04 8.058e-10
 34.54121    -80.8 1.201e+04 6.843e-10
 34.55391    -80.6 1.192e+04 6.346e-10
 34.56382    -80.8 1.195e+04 6.085e-10
 34.58085    -80.2 1.194e+04 6.001e-10
 34.59754    -79.8 1.208e+04 6.012e-10
 34.60745    -79.9 1.200e+04 5.936e-10
 34.62049    -79.6 1.211e+04 6.449e-10
 34.64031    -79.3 1.227e+04 7.475e-10
 34.66013    -79.1 1.254e+04 9.125e-10
 34.67995    -78.8 1.290e+04 1.176e-09
 34.69977    -78.5 1.334e+04 1.574e-09
 34.71513    -78.2 1.376e+04 2.114e-09
 34.72504    -78.5 1.355e+04 2.020e-09
 34.73941    -78.0 1.387e+04 2.634e-09
 34.75923    -77.3 1.411e+04 3.248e-09
 34.77905    -76.6 1.427e+04 3.705e-09
 34.79887    -75.8 1.436e+04 3.881e-09
 34.81869    -75.2 1.436e+04 3.872e-09
 34.83271    -74.5 1.425e+04 3.648e-09
 34.84262    -74.5 1.388e+04 3.016e-09
 34.85833    -73.9 1.371e+04 2.734e-09
 34.87815    -73.3 1.347e+04 2.409e-09
 34.89797    -72.7 1.320e+04 2.078e-09
 34.91779    -72.0 1.296e+04 1.788e-09
 34.93761    -71.3 1.274e+04 1.540e-09
 34.95030    -70.5 1.254e+04 1.346e-09
 34.96021    -70.2 1.238e+04 1.235e-09
 34.97725    -69.5 1.222e+04 1.095e-09
 34.99707    -69.0 1.202e+04 9.919e-10
 35.01689    -68.3 1.185e+04 9.425e-10
 35.03671    -67.4 1.180e+04 9.304e-10
 35.05653    -66.6 1.182e+04 9.525e-10
 35.06788    -65.9 1.189e+04 1.009e-09
 35.07779    -65.4 1.161e+04 8.632e-10
 35.09617    -64.8 1.178e+04 9.455e-10
 35.11599    -64.4 1.193e+04 1.072e-09
 35.13581    -64.0 1.203e+04 1.247e-09
 35.15563    -63.6 1.214e+04 1.461e-09
 35.17545    -63.3 1.215e+04 1.586e-09
 35.20528    -62.5 1.197e+04 1.472e-09
 35.24502    -61.4 1.168e+04 1.263e-09
 35.27831    -60.1 1.106e+04 8.090e-10
 35.29690    -60.4 1.133e+04 8.600e-10
 35.30325    -60.0 1.133e+04 9.140e-10
 35.32430    -58.1 1.050e+04 4.673e-10
 35.36394    -55.9 9.949e+03 2.147e-10
 35.40358    -54.1 9.649e+03 1.240e-10
 35.44322    -52.0 9.411e+03 1.010e-10
 35.48286    -49.7 9.331e+03 9.515e-11
 35.51860    -47.4 9.355e+03 9.505e-11
 35.53842    -47.5 9.517e+03 1.162e-10
 35.56214    -46.0 9.739e+03 1.364e-10
 35.60178    -45.6 9.862e+03 2.499e-10
 35.64142    -45.3 1.070e+04 5.797e-10
 35.68106    -46.1 1.229e+04 1.382e-09
 35.71069    -48.2 1.373e+04 2.704e-09
 35.73042    -50.4 1.413e+04 3.144e-09
 35.75024    -52.5 1.415e+04 3.047e-09
 35.76348    -55.0 1.336e+04 2.277e-09
 35.77339    -55.5 1.312e+04 1.985e-09
 35.78988    -58.0 1.210e+04 1.171e-09
 35.80970    -60.2 1.141e+04 6.980e-10
 35.82952    -62.2 1.102e+04 4.741e-10
 35.84934    -64.0 1.081e+04 3.724e-10
 35.86916    -65.2 1.072e+04 3.530e-10
 35.88106    -65.8 1.066e+04 3.644e-10
 35.89097    -66.2 1.059e+04 3.668e-10
 35.90880    -66.6 1.062e+04 4.109e-10
 35.92862    -66.8 1.063e+04 4.663e-10
 35.94844    -66.9 1.068e+04 5.382e-10
 35.96826    -67.0 1.077e+04 5.930e-10
 35.98808    -66.8 1.081e+04 6.427e-10
 35.99865    -66.6 1.079e+04 6.385e-10
 36.00856    -66.8 1.068e+04 6.076e-10
 36.02215    -66.6 1.059e+04 5.379e-10
 36.03206    -66.0 1.071e+04 6.273e-10
 36.04754    -65.8 1.062e+04 5.618e-10
 36.07737    -66.0 1.037e+04 4.249e-10
 36.11710    -65.8 1.024e+04 3.525e-10
 36.15674    -65.6 1.017e+04 3.277e-10
 36.18638    -65.3 1.021e+04 3.427e-10
 36.20610    -65.4 1.026e+04 3.638e-10
 36.22391    -65.4 1.048e+04 4.365e-10
 36.23382    -65.1 1.040e+04 4.142e-10
 36.24574    -65.2 1.055e+04 4.722e-10
 36.26556    -65.2 1.082e+04 5.865e-10
 36.28538    -65.3 1.105e+04 7.034e-10
 36.30520    -65.3 1.130e+04 8.664e-10
 36.32502    -65.3 1.152e+04 1.050e-09
 36.34149    -65.4 1.178e+04 1.291e-09
 36.35140    -65.2 1.179e+04 1.321e-09
 36.36466    -65.4 1.213e+04 1.592e-09
 36.38448    -65.7 1.240e+04 1.830e-09
 36.40430    -65.9 1.249e+04 1.928e-09
 36.42412    -65.9 1.245e+04 1.796e-09
 36.44394    -65.8 1.223e+04 1.402e-09
 36.45908    -65.8 1.195e+04 9.957e-10
 36.46899    -65.9 1.183e+04 9.776e-10
 36.48358    -66.3 1.141e+04 6.476e-10
 36.50340    -66.8 1.099e+04 4.438e-10
 36.52322    -67.3 1.060e+04 3.441e-10
 36.55305    -67.1 1.027e+04 2.928e-10
 36.59279    -66.2 1.015e+04 2.708e-10
 36.63243    -65.2 1.017e+04 2.994e-10
 36.67207    -64.3 1.034e+04 3.897e-10
 36.69444    -63.5 1.053e+04 4.824e-10
 36.71426    -63.9 1.057e+04 4.912e-10
 36.74655    -63.6 1.081e+04 5.843e-10
 36.76637    -64.7 1.103e+04 6.624e-10
 36.79099    -65.0 1.105e+04 6.538e-10
 36.83063    -65.5 1.087e+04 5.969e-10
 36.87027    -65.8 1.071e+04 5.605e-10
 36.90979    -65.8 1.061e+04 5.386e-10
 36.94943    -67.3 1.057e+04 5.393e-10
 36.98919    -66.7 1.038e+04 5.006e-10
 37.02883    -65.7 1.020e+04 4.647e-10
 37.06847    -64.4 9.972e+03 4.089e-10
 37.10811    -63.0 9.770e+03 3.433e-10
 37.14496    -61.3 9.610e+03 2.843e-10
 37.16478    -62.1 9.433e+03 2.211e-10
 37.18739    -60.4 9.252e+03 1.898e-10
 37.22703    -58.6 9.144e+03 1.755e-10
 37.26667    -56.7 9.090e+03 1.709e-10
 37.30631    -54.7 9.058e+03 1.777e-10
 37.34595    -52.7 9.048e+03 1.867e-10
 37.38013    -50.7 9.078e+03 1.990e-10
 37.39995    -50.8 9.053e+03 1.861e-10
 37.42523    -49.0 9.087e+03 1.969e-10
 37.46487    -47.4 9.079e+03 2.112e-10
 37.50451    -45.7 9.077e+03 2.314e-10
 37.54415    -43.9 9.090e+03 2.403e-10
 37.58379    -42.3 9.002e+03 2.129e-10
 37.61530    -40.9 8.824e+03 1.735e-10
 37.63512    -40.7 8.821e+03 1.728e-10
 37.66307    -39.1 8.669e+03 1.335e-10
 37.70271    -37.9 8.532e+03 1.064e-10
 37.74235    -36.9 8.453e+03 9.330e-11
 37.78199    -35.7 8.397e+03 8.861e-11
 37.82163    -34.4 8.409e+03 9.342e-11
 37.85047    -33.0 8.420e+03 1.059e-10
 37.87029    -32.5 8.428e+03 1.055e-10
 37.90091    -30.9 8.347e+03 1.178e-10
 37.94055    -28.9 8.239e+03 1.133e-10
 37.98019    -26.9 8.138e+03 9.589e-11
 38.01983    -25.4 8.211e+03 7.885e-11
 38.05947    -24.0 8.235e+03 7.928e-11
 38.08564    -22.3 8.237e+03 8.740e-11
 38.10546    -22.1 8.349e+03 1.058e-10
 38.13875    -20.0 8.387e+03 1.158e-10
 38.17839    -18.0 8.454e+03 1.242e-10
 38.21479    -16.0 8.521e+03 1.328e-10
 38.23461    -16.0 8.590e+03 1.504e-10
 38.25767    -14.0 8.587e+03 1.484e-10
 38.29731    -11.9 8.537e+03 1.393e-10
 38.32081     -9.8 8.472e+03 1.280e-10
 38.34063     -9.6 8.454e+03 1.267e-10
 38.37660     -7.3 8.358e+03 1.077e-10
 38.41624     -5.0 8.289e+03 9.359e-11
 38.45588     -2.8 8.225e+03 8.600e-11
 38.49552     -0.4 8.187e+03 8.280e-11
 38.53516      2.1 8.197e+03 8.227e-11
 38.55598      4.7 8.231e+03 8.228e-11
 38.57580      5.1 8.153e+03 6.630e-11
 38.61444      7.7 8.220e+03 6.775e-11
 38.65408     10.1 8.296e+03 7.067e-11
 38.69372     12.6 8.374e+03 7.530e-11
 38.73336     14.9 8.456e+03 8.186e-11
 38.77133     17.3 8.555e+03 9.082e-11
 38.79115     17.8 8.552e+03 9.032e-11
 38.81264     20.1 8.669e+03 1.028e-10
 38.85228     22.4 8.796e+03 1.175e-10
 38.89192     24.7 8.936e+03 1.351e-10
 38.93156     26.7 9.128e+03 1.619e-10
 38.97120     28.5 9.417e+03 2.152e-10
 39.00650     30.0 9.929e+03 3.380e-10
 39.02632     30.6 9.789e+03 2.939e-10
 39.05048     32.0 1.060e+04 5.473e-10
 39.09012     33.1 1.154e+04 9.705e-10
 39.12976     33.4 1.229e+04 1.437e-09
 39.16940     33.4 1.275e+04 1.682e-09
 39.20904     33.1 1.273e+04 1.589e-09
 39.24167     32.8 1.235e+04 1.226e-09
 39.26149     33.7 1.268e+04 1.596e-09
 39.28832     33.2 1.196e+04 1.118e-09
 39.32796     32.7 1.104e+04 7.161e-10
 39.36760     32.5 1.025e+04 4.882e-10
 39.40724     32.8 9.729e+03 3.667e-10
 39.44688     33.5 9.368e+03 2.841e-10
 39.47684     34.5 9.071e+03 2.217e-10
 39.49666     34.7 9.038e+03 2.124e-10
 39.52616     36.0 8.769e+03 1.662e-10
 39.56580     37.4 8.560e+03 1.379e-10
 39.60544     38.8 8.379e+03 1.285e-10
 39.64508     40.4 8.304e+03 1.280e-10
 39.68303     42.2 8.280e+03 1.284e-10
 39.70285     42.2 8.406e+03 1.404e-10
 39.71201     43.9 8.390e+03 1.422e-10
 39.73183     44.2 8.360e+03 1.384e-10
 39.76400     46.0 8.308e+03 1.354e-10
 39.80364     47.7 8.244e+03 1.308e-10
 39.84328     49.5 8.207e+03 1.304e-10
 39.88292     51.4 8.222e+03 1.344e-10
 39.92256     53.2 8.281e+03 1.448e-10
 39.94718     55.0 8.377e+03 1.644e-10
 39.96700     55.2 8.210e+03 1.328e-10
 40.00184     57.0 8.324e+03 1.564e-10
 40.04148     58.7 8.654e+03 2.114e-10
 40.08112     60.0 9.208e+03 3.236e-10
 40.11076     60.9 9.381e+03 3.772e-10
 40.13048     61.4 9.603e+03 4.458e-10
 40.15030     61.8 1.022e+04 6.451e-10
 40.17012     62.0 1.054e+04 7.764e-10
 40.18225     61.9 1.149e+04 1.254e-09
 40.20217     62.0 1.103e+04 1.027e-09
 40.23968     61.8 1.190e+04 1.550e-09
 40.27932     61.2 1.250e+04 1.841e-09
 40.31896     60.2 1.286e+04 1.943e-09
 40.34860     59.2 1.313e+04 2.115e-09
 40.36832     58.4 1.313e+04 2.045e-09
 40.39760     56.7 1.284e+04 1.666e-09
 40.41752     56.4 1.283e+04 1.766e-09
 40.43789     54.8 1.257e+04 1.531e-09
 40.47753     53.9 1.225e+04 1.318e-09
 40.51717     53.4 1.196e+04 1.157e-09
 40.55681     53.5 1.176e+04 1.022e-09
 40.59645     53.7 1.154e+04 8.390e-10
 40.63287     54.0 1.125e+04 6.419e-10
 40.65269     54.7 1.070e+04 4.642e-10
 40.67573     55.8 1.046e+04 4.078e-10
 40.71537     57.1 1.041e+04 4.147e-10
 40.75501     58.5 1.050e+04 4.563e-10
 40.79465     59.7 1.082e+04 5.704e-10
 40.83429     61.0 1.133e+04 7.796e-10
 40.86804     62.1 1.176e+04 9.112e-10
 40.88786     63.1 1.202e+04 1.134e-09
 40.90356     63.1 1.236e+04 1.290e-09
 40.92328     63.1 1.255e+04 1.364e-09
 40.94310     63.1 1.255e+04 1.367e-09
 40.96292     63.2 1.245e+04 1.293e-09
 40.98274     63.1 1.223e+04 1.141e-09
 40.99534     63.0 1.196e+04 1.002e-09
 41.00525     63.4 1.236e+04 1.217e-09
 41.02238     63.0 1.207e+04 1.047e-09
 41.04220     62.6 1.201e+04 1.034e-09
 41.06202     62.0 1.210e+04 1.094e-09
 41.08184     61.0 1.251e+04 1.348e-09
 41.10166     59.7 1.325e+04 1.970e-09
 41.11292     58.5 1.403e+04 3.068e-09
 41.12283     58.5 1.373e+04 2.568e-09
 41.14130     57.7 1.419e+04 3.645e-09
 41.16099     56.8 1.427e+04 3.952e-09
 41.17090     57.3 1.373e+04 3.086e-09
 41.18094     56.4 1.362e+04 2.970e-09
 41.20076     55.5 1.320e+04 2.515e-09
 41.23059     54.3 1.217e+04 1.397e-09
 41.27033     53.3 1.094e+04 6.168e-10
 41.30997     52.1 9.281e+03 2.114e-10
 41.33838     51.1 8.343e+03 1.215e-10
 41.35820     52.7 8.462e+03 1.254e-10
 41.38925     52.8 8.182e+03 1.140e-10
 41.42889     53.8 8.136e+03 1.126e-10
 41.46853     55.6 8.140e+03 1.149e-10
 41.50817     57.5 8.182e+03 1.283e-10
 41.54781     59.2 8.279e+03 1.541e-10
 41.57355     60.7 8.391e+03 1.849e-10
 41.59337     61.6 8.453e+03 1.772e-10
 41.62709     62.9 8.744e+03 2.425e-10
 41.66673     63.5 9.315e+03 3.640e-10
 41.70637     63.5 1.025e+04 5.868e-10
 41.74601     63.4 1.120e+04 9.290e-10
 41.78565     63.2 1.181e+04 1.283e-09
 41.80872     62.9 1.203e+04 1.505e-09
 41.82854     63.4 1.256e+04 1.918e-09
 41.86493     63.1 1.244e+04 1.837e-09
 41.90457     63.1 1.222e+04 1.699e-09
 41.94421     63.3 1.199e+04 1.553e-09
 41.98385     63.7 1.169e+04 1.312e-09
 42.02349     64.4 1.129e+04 1.048e-09
 42.04379     65.4 1.115e+04 9.474e-10
 42.05360     65.6 1.098e+04 8.363e-10
 42.07285     66.0 1.097e+04 8.111e-10
 42.09267     66.3 1.098e+04 8.001e-10
 42.11249     66.6 1.100e+04 8.101e-10
 42.13231     66.9 1.108e+04 8.485e-10
 42.15136     67.3 1.118e+04 9.044e-10
 42.16127     67.6 1.109e+04 8.482e-10
 42.17195     68.2 1.120e+04 9.006e-10
 42.19177     68.8 1.120e+04 9.263e-10
 42.21159     69.5 1.115e+04 9.005e-10
 42.23141     70.2 1.100e+04 8.156e-10
 42.25123     70.9 1.074e+04 6.438e-10
 42.26895     71.1 1.046e+04 5.054e-10
 42.27886     71.6 1.052e+04 5.238e-10
 42.30088     72.9 1.008e+04 3.656e-10
 42.34061     74.9 9.517e+03 2.135e-10
 42.38025     76.9 8.959e+03 1.233e-10
 42.41989     78.8 8.590e+03 8.812e-11
 42.45953     81.3 8.499e+03 8.476e-11
 42.49440     84.1 8.485e+03 8.621e-11
 42.51422     84.6 8.481e+03 8.380e-11
 42.53882     87.4 8.457e+03 8.957e-11
 42.57846     90.5 8.613e+03 1.150e-10
 42.61810     93.8 9.113e+03 1.663e-10
 42.63924     95.2 9.222e+03 1.840e-10
 42.65906     97.1 9.166e+03 1.803e-10
 42.68737     97.3 9.477e+03 2.262e-10
 42.70709     96.9 9.854e+03 3.123e-10
 42.72691     95.6 1.102e+04 5.712e-10
 42.73929     93.6 1.331e+04 1.379e-09
 42.74920     92.9 1.345e+04 1.684e-09
 42.76655     91.7 1.485e+04 3.152e-09
 42.78137     90.6 1.587e+04 4.295e-09
 42.79123     88.7 1.733e+04 6.245e-09
 42.79798     86.4 1.878e+04 1.004e-08
 42.80294     86.5 1.843e+04 9.802e-09
 42.81105     85.1 1.943e+04 1.514e-08
 42.82096     84.6 2.017e+04 2.155e-08
 42.83087     84.0 2.084e+04 2.558e-08
 42.84078     82.7 2.090e+04 2.535e-08
 42.85069     81.0 2.070e+04 2.318e-08
 42.85678     79.6 2.006e+04 1.805e-08
 42.86673     80.8 1.939e+04 1.453e-08
 42.88547     79.6 1.810e+04 8.383e-09
 42.90529     76.8 1.629e+04 3.598e-09
 42.92511     71.5 1.327e+04 1.531e-09
 42.94493     67.0 1.143e+04 1.130e-09
 42.96455     66.5 1.118e+04 1.095e-09
 42.97446     68.1 1.087e+04 8.604e-10
 42.98457     68.4 1.082e+04 8.703e-10
 43.00439     68.8 1.066e+04 8.604e-10
 43.02421     69.5 1.058e+04 8.293e-10
 43.04403     69.5 1.099e+04 8.637e-10
 43.06385     67.1 1.305e+04 1.137e-09
 43.08213     64.6 1.501e+04 2.153e-09
 43.09204     71.5 1.140e+04 8.407e-10
 43.10349     68.3 1.397e+04 1.669e-09
 43.12331     63.5 1.774e+04 5.339e-09
 43.14313     59.1 2.091e+04 1.342e-08
 43.16295     55.1 2.485e+04 1.959e-08
 43.18277     50.6 2.726e+04 1.857e-08
 43.19972     45.6 2.752e+04 1.440e-08
 43.20963     53.7 2.755e+04 1.906e-08
 43.22241     48.5 2.771e+04 1.550e-08
 43.24223     43.7 2.433e+04 8.932e-09
 43.26205     39.9 1.748e+04 4.994e-09
 43.28187     38.1 1.276e+04 3.244e-09
 43.30169     37.8 1.203e+04 2.055e-09
 43.31730     37.8 1.211e+04 1.364e-09
 43.32721     39.2 1.223e+04 2.122e-09
 43.34133     39.0 1.224e+04 1.421e-09
 43.37116     37.0 1.126e+04 5.460e-10
 43.41090     35.3 8.767e+03 2.034e-10
 43.43508     34.0 7.987e+03 9.399e-11
 43.45490     37.6 1.012e+04 3.243e-10
 43.49018     36.4 9.086e+03 1.902e-10
 43.52982     35.4 8.987e+03 1.821e-10
 43.55257     34.6 8.847e+03 1.897e-10
 43.56238     34.6 8.844e+03 1.901e-10
 43.57917     34.5 8.740e+03 2.038e-10
 43.59900     34.1 8.894e+03 2.416e-10
 43.61882     34.1 8.995e+03 2.620e-10
 43.63864     34.0 9.041e+03 2.879e-10
 43.65846     33.9 9.116e+03 3.076e-10
 43.67006     33.7 9.210e+03 3.192e-10
 43.67997     31.7 1.100e+04 5.244e-10
 43.69810     31.4 1.069e+04 5.433e-10
 43.71792     31.1 1.049e+04 5.411e-10
 43.73774     31.1 1.042e+04 5.369e-10
 43.75756     31.4 1.036e+04 5.315e-10
 43.77738     32.0 1.035e+04 5.279e-10
 43.78764     32.8 1.037e+04 5.212e-10
 43.79755     31.9 1.122e+04 7.506e-10
 43.81702     32.8 1.104e+04 6.694e-10
 43.83684     33.5 1.091e+04 6.159e-10
 43.85666     34.2 1.086e+04 6.047e-10
 43.87648     34.8 1.088e+04 6.114e-10
 43.89532     35.4 1.098e+04 6.467e-10
 43.90523     35.1 1.115e+04 7.983e-10
 43.91612     35.7 1.131e+04 8.860e-10
 43.93594     36.4 1.152e+04 1.028e-09
 43.95576     37.2 1.185e+04 1.240e-09
 43.97558     37.7 1.239e+04 1.570e-09
 43.99540     37.9 1.307e+04 2.108e-09
 44.01290     38.0 1.389e+04 2.915e-09
 44.02281     38.9 1.327e+04 2.476e-09
 44.03504     38.9 1.398e+04 3.124e-09
 44.05486     38.9 1.465e+04 3.847e-09
 44.07468     39.0 1.515e+04 4.462e-09
 44.09450     39.0 1.522e+04 4.586e-09
 44.10738     38.9 1.514e+04 4.457e-09
 44.11729     39.0 1.481e+04 3.378e-09
 44.13049     38.6 1.453e+04 3.007e-09
 44.14040     39.5 1.342e+04 1.475e-09
 44.15396     38.6 1.315e+04 1.257e-09
 44.17378     37.6 1.268e+04 1.123e-09
 44.19360     36.5 1.231e+04 1.105e-09
 44.21342     35.5 1.225e+04 1.169e-09
 44.23324     34.7 1.224e+04 1.380e-09
 44.24807     34.6 1.242e+04 1.750e-09
 44.25798     35.0 1.200e+04 1.207e-09
 44.27288     35.2 1.236e+04 1.656e-09
 44.29270     35.6 1.278e+04 2.187e-09
 44.31252     36.1 1.325e+04 2.721e-09
 44.33234     36.1 1.367e+04 3.157e-09
 44.35216     35.7 1.447e+04 3.742e-09
 44.36566     34.1 1.536e+04 4.843e-09
 44.37557     34.0 1.617e+04 5.548e-09
 44.39180     32.1 1.728e+04 8.795e-09
 44.41162     31.8 1.779e+04 1.253e-08
 44.43144     31.9 1.770e+04 1.267e-08
 44.45126     32.5 1.712e+04 1.086e-08
 44.47108     33.5 1.611e+04 6.994e-09
 44.48324     33.8 1.492e+04 3.580e-09
 44.49315     33.9 1.634e+04 5.581e-09
 44.51072     33.3 1.499e+04 2.390e-09
 44.53054     31.3 1.329e+04 9.843e-10
 44.55036     29.6 1.116e+04 4.789e-10
 44.57018     29.5 1.081e+04 3.715e-10
 44.59101     31.3 1.046e+04 3.053e-10
 44.61083     30.6 1.129e+04 4.068e-10
 44.63965     32.7 1.113e+04 3.781e-10
 44.67939     35.4 1.084e+04 3.097e-10
 44.71903     38.2 1.053e+04 2.523e-10
 44.75867     40.9 1.030e+04 2.136e-10
 44.79831     43.7 1.028e+04 1.905e-10
 44.82628     46.6 1.041e+04 1.788e-10
 44.83609     44.6 1.151e+04 2.777e-10
 44.84150     45.7 1.173e+04 2.767e-10
 44.85141     45.5 1.192e+04 3.788e-10
 44.86748     46.4 1.214e+04 4.306e-10
 44.88730     47.5 1.228e+04 4.977e-10
 44.90712     48.5 1.242e+04 5.883e-10
 44.92694     49.5 1.249e+04 7.136e-10
 44.94367     50.5 1.249e+04 8.612e-10
 44.95358     50.2 1.257e+04 1.799e-09
 44.96658     51.4 1.262e+04 1.970e-09
 44.98640     52.7 1.269e+04 2.130e-09
 45.00622     53.9 1.283e+04 2.250e-09
 45.02604     55.1 1.298e+04 2.351e-09
 45.04586     56.2 1.313e+04 2.437e-09
 45.06125     57.5 1.323e+04 2.668e-09
 45.07116     57.3 1.366e+04 2.317e-09
 45.08550     58.6 1.395e+04 2.113e-09
 45.10532     59.7 1.410e+04 1.868e-09
 45.12514     60.8 1.427e+04 1.556e-09
 45.14496     61.8 1.441e+04 1.205e-09
 45.16478     62.5 1.432e+04 8.912e-10
 45.17884     62.8 1.386e+04 6.533e-10
 45.18875     59.4 1.086e+04 3.374e-10
 45.20442     60.2 1.033e+04 3.164e-10
 45.22424     61.3 1.007e+04 3.142e-10
 45.24406     62.4 1.007e+04 3.171e-10
 45.26388     63.5 1.009e+04 3.248e-10
 45.28370     64.9 1.014e+04 3.369e-10
 45.29642     66.2 1.023e+04 3.586e-10
 45.30633     66.1 1.020e+04 3.535e-10
 45.32334     67.4 1.030e+04 3.796e-10
 45.34316     68.8 1.035e+04 4.071e-10
 45.36298     70.2 1.040e+04 4.417e-10
 45.38280     71.7 1.045e+04 4.764e-10
 45.40262     73.1 1.049e+04 5.104e-10
 45.41401     74.8 1.050e+04 5.252e-10
 45.42392     74.8 1.033e+04 4.377e-10
 45.44226     75.8 1.035e+04 4.397e-10
 45.46208     77.8 1.030e+04 4.242e-10
 45.48190     78.8 1.028e+04 4.139e-10
 45.51173     81.5 1.028e+04 4.264e-10
 45.55147     84.8 9.862e+03 2.944e-10
 45.57582     88.2 9.737e+03 2.746e-10
 45.59564     88.7 9.803e+03 2.860e-10
 45.63075     92.3 9.851e+03 2.963e-10
 45.67039     96.1 1.002e+04 3.198e-10
 45.71003     99.3 1.010e+04 3.441e-10
 45.73966    101.1 1.002e+04 3.315e-10
 45.75685    103.0 9.944e+03 3.282e-10
 45.76676    103.1 1.008e+04 3.571e-10
 45.77921    105.2 1.006e+04 3.930e-10
 45.79903    107.5 1.022e+04 4.578e-10
 45.81885    109.6 1.047e+04 5.395e-10
 45.83867    111.5 1.073e+04 6.257e-10
 45.85849    113.4 1.099e+04 7.079e-10
 45.87444    115.4 1.125e+04 8.034e-10
 45.88435    115.6 1.144e+04 1.030e-09
 45.89813    117.2 1.204e+04 1.227e-09
 45.91795    117.4 1.280e+04 1.557e-09
 45.93777    117.0 1.392e+04 2.325e-09
 45.95759    115.8 1.594e+04 4.218e-09
 45.97741    114.7 1.758e+04 7.629e-09
 45.99197    113.6 1.869e+04 1.116e-08
 45.99688    113.6 1.973e+04 1.433e-08
 46.00208    112.8 2.063e+04 1.952e-08
 46.01199    112.0 2.141e+04 2.647e-08
 46.02190    111.2 2.203e+04 3.354e-08
 46.03181    110.2 2.225e+04 3.607e-08
 46.04172    109.0 2.212e+04 3.541e-08
 46.05072    108.2 2.169e+04 3.207e-08
 46.05567    108.1 2.260e+04 4.236e-08
 46.06154    108.0 2.176e+04 3.186e-08
 46.07145    108.0 2.079e+04 2.305e-08
 46.08136    107.7 1.960e+04 1.710e-08
 46.09127    106.9 2.211e+04 1.148e-08
 46.10118    105.6 2.586e+04 8.987e-09
 46.10951    104.0 3.184e+04 8.239e-09
 46.11446    104.9 2.758e+04 6.602e-09
 46.12100    103.1 3.459e+04 6.143e-09
 46.13091    101.4 4.106e+04 6.480e-09
 46.14082    100.5 4.439e+04 8.835e-09
 46.15073    100.5 3.989e+04 1.539e-08
 46.16064    100.2 3.359e+04 2.624e-08
 46.16830    100.2 2.899e+04 3.683e-08
 46.17326    100.7 4.209e+04 1.292e-08
 46.18046    101.2 3.734e+04 1.670e-08
 46.19037    101.6 3.384e+04 1.965e-08
 46.20028    102.2 3.116e+04 2.125e-08
 46.21020    102.7 2.891e+04 2.278e-08
 46.22011    103.3 2.708e+04 2.489e-08
 46.22709    103.8 2.594e+04 2.798e-08
 46.23205    105.2 3.602e+04 1.275e-08
 46.23993    105.9 3.326e+04 1.622e-08
 46.24984    106.6 3.016e+04 2.175e-08
 46.25975    107.4 2.774e+04 2.928e-08
 46.26966    108.1 2.606e+04 3.975e-08
 46.27957    108.9 2.502e+04 5.140e-08
 46.28589    109.6 2.482e+04 6.233e-08
 46.29084    110.9 2.808e+04 3.858e-08
 46.29939    111.6 2.650e+04 5.460e-08
 46.30930    112.5 2.582e+04 7.208e-08
 46.31460    113.4 2.618e+04 8.424e-08
 46.31955    114.2 2.699e+04 6.487e-08
 46.32912    115.3 2.641e+04 8.382e-08
 46.33903    116.3 2.693e+04 9.300e-08
 46.34468    116.7 2.756e+04 9.961e-08
 46.34963    118.9 2.667e+04 1.042e-07
 46.35885    119.8 2.724e+04 1.175e-07
 46.36876    118.9 3.140e+04 1.119e-07
 46.37867    113.9 3.921e+04 9.056e-08
 46.38858    103.4 5.365e+04 3.987e-08
 46.39849     89.2 6.259e+04 1.826e-08
 46.40840     93.3 5.926e+04 3.838e-08
 46.41831     78.6 6.375e+04 1.495e-08
 46.42822     64.6 4.586e+04 7.959e-09
 46.43813     54.0 2.424e+04 4.876e-09
 46.44804     47.4 1.717e+04 3.180e-09
 46.45731     44.6 1.542e+04 2.472e-09
 46.46226     45.0 1.811e+04 2.453e-09
 46.46786     39.1 1.565e+04 1.692e-09
 46.47777     37.7 1.500e+04 1.476e-09
 46.48768     32.8 1.582e+04 9.506e-10
 46.49759     31.2 1.538e+04 8.334e-10
 46.50750     24.2 1.442e+04 5.397e-10
 46.51610     23.3 1.407e+04 5.140e-10
 46.52106     23.4 1.422e+04 5.319e-10
 46.53232     16.3 1.116e+04 4.281e-10
 46.55219     12.2 1.098e+04 4.310e-10
 46.57004      8.1 1.068e+04 4.069e-10
 46.57995      7.1 1.214e+04 4.312e-10
 46.59183      4.2 1.090e+04 4.069e-10
 46.61165      1.0 1.064e+04 3.184e-10
 46.63147     -6.3 2.836e+04 1.565e-10
 46.65129    -14.7 1.233e+05 4.244e-11
 46.67111     -8.7 1.741e+05 4.379e-11
 46.68762     43.7 1.126e+05 8.170e-10
 46.69748     44.4 5.438e+04 1.197e-10
 46.70570     43.9 6.185e+04 2.389e-11
 46.71561     41.7 6.674e+04 1.863e-11
 46.73052     33.9 4.905e+04 1.236e-08
 46.75039     29.2 8.474e+04 7.463e-10
 46.78022     20.3 1.610e+05 3.683e-11
 46.81996    -13.3 1.879e+04 6.511e-11
 46.85960    -15.3 8.261e+03 1.185e-10
 46.89924    -13.2 8.478e+03 1.492e-10
 46.92299    -11.0 8.685e+03 1.791e-10
 46.94281    -12.4 8.713e+03 1.811e-10
 46.97852    -10.4 8.811e+03 1.932e-10
 47.01816     -8.9 8.858e+03 1.967e-10
 47.04406     -7.6 8.856e+03 1.982e-10
 47.06388    -10.7 8.857e+03 1.976e-10
 47.09744     -9.1 8.819e+03 2.062e-10
 47.13708     -6.9 8.822e+03 2.149e-10
 47.15816     -4.8 8.757e+03 2.147e-10
 47.17798     -5.6 8.617e+03 1.964e-10
 47.21636     -3.3 8.532e+03 1.761e-10
 47.25600     -1.0 8.366e+03 1.558e-10
 47.29564      1.6 8.158e+03 1.370e-10
 47.33528      4.3 7.970e+03 1.164e-10
 47.37351      6.9 7.841e+03 1.001e-10
 47.39333      6.4 7.852e+03 1.043e-10
 47.41456      9.2 7.745e+03 9.415e-11
 47.45420     11.9 7.719e+03 9.126e-11
 47.49384     14.4 7.767e+03 9.528e-11
 47.53348     16.9 7.876e+03 1.064e-10
 47.57312     19.5 8.018e+03 1.263e-10
 47.60868     22.2 8.176e+03 1.527e-10
 47.62850     21.5 8.261e+03 1.679e-10
 47.65240     24.1 8.466e+03 1.929e-10
 47.69204     26.6 8.707e+03 2.176e-10
 47.73168     29.0 8.983e+03 2.500e-10
 47.77132     30.9 9.234e+03 2.836e-10
 47.80095     31.3 9.606e+03 3.455e-10
 47.82068     31.4 1.006e+04 4.429e-10
 47.84050     31.2 1.075e+04 6.681e-10
 47.85356     31.2 1.148e+04 1.040e-09
 47.86347     30.1 1.165e+04 1.327e-09
 47.88014     31.2 1.206e+04 1.809e-09
 47.89996     32.7 1.240e+04 2.191e-09
 47.91978     34.4 1.244e+04 2.206e-09
 47.93960     36.2 1.231e+04 1.977e-09
 47.95942     38.1 1.201e+04 1.612e-09
 47.97114     39.3 1.187e+04 1.192e-09
 47.98105     37.4 1.150e+04 7.909e-10
 48.00906     38.7 1.145e+04 6.865e-10
 48.04880     38.9 1.089e+04 4.175e-10
 48.07901     39.4 1.014e+04 3.101e-10
 48.09874     35.8 1.032e+04 4.668e-10
 48.11798     36.7 1.043e+04 5.110e-10
 48.13780     37.6 1.051e+04 5.437e-10
 48.15762     38.3 1.055e+04 5.647e-10
 48.17744     38.9 1.060e+04 5.931e-10
 48.19640     39.4 1.068e+04 6.384e-10
 48.20631     38.3 1.135e+04 9.357e-10
 48.21708     38.7 1.125e+04 9.337e-10
 48.23690     39.5 1.114e+04 9.046e-10
 48.25672     40.0 1.121e+04 9.065e-10
 48.28655     40.7 1.127e+04 9.297e-10
 48.31418     40.2 1.159e+04 1.080e-09
 48.32400     38.3 1.087e+04 9.840e-10
 48.33600     37.7 1.101e+04 1.024e-09
 48.35582     37.5 1.132e+04 1.056e-09
 48.37564     36.8 1.134e+04 1.078e-09
 48.39546     36.7 1.146e+04 1.059e-09
 48.41528     35.8 1.163e+04 1.030e-09
 48.43157     35.0 1.188e+04 9.802e-10
 48.44148     31.7 1.505e+04 1.402e-09
 48.45492     30.3 1.616e+04 1.686e-09
 48.47474     29.6 1.702e+04 2.108e-09
 48.49456     29.0 1.754e+04 2.705e-09
 48.51210     28.9 1.797e+04 3.501e-09
 48.52201     32.3 1.681e+04 1.774e-09
 48.53420     32.1 1.759e+04 2.393e-09
 48.54916     31.6 1.830e+04 3.431e-09
 48.55907     30.4 1.808e+04 5.981e-09
 48.57384     29.9 1.845e+04 7.425e-09
 48.59366     29.1 1.884e+04 9.076e-09
 48.61348     28.4 1.926e+04 1.110e-08
 48.63330     27.6 1.975e+04 1.327e-08
 48.65312     27.3 1.996e+04 1.513e-08
 48.66674     27.5 1.973e+04 1.323e-08
 48.67665     25.5 1.839e+04 6.361e-09
 48.68776     25.0 1.759e+04 3.787e-09
 48.69762     24.4 1.721e+04 3.395e-09
 48.71253     24.8 1.714e+04 2.582e-09
 48.73240     22.2 1.592e+04 1.579e-09
 48.75222     17.8 1.331e+04 9.003e-10
 48.77204     13.5 1.069e+04 5.502e-10
 48.78433     11.0 9.874e+03 4.194e-10
 48.79424     10.6 9.777e+03 3.905e-10
 48.81168      9.6 9.783e+03 3.943e-10
 48.83150      8.3 9.837e+03 4.086e-10
 48.85132      6.9 9.851e+03 4.110e-10
 48.87114      4.7 1.002e+04 4.358e-10
 48.89096      2.0 1.023e+04 4.740e-10
 48.90191     -0.8 1.028e+04 5.184e-10
 48.91182     -1.5 1.028e+04 5.153e-10
 48.93060     -3.9 1.022e+04 5.312e-10
 48.95042     -6.1 1.022e+04 5.618e-10
 48.97024     -8.8 1.067e+04 6.731e-10
 48.99006    -12.7 1.155e+04 9.489e-10
 49.00959    -19.3 1.447e+04 1.736e-09
 49.01950    -20.6 1.455e+04 1.925e-09
 49.02970    -27.8 1.899e+04 4.006e-09
 49.04452    -34.3 2.229e+04 9.364e-09
 49.05438    -36.2 2.327e+04 1.096e-08
 49.06429    -41.2 2.419e+04 2.139e-08
 49.07324    -44.4 2.469e+04 3.005e-08
 49.07819    -44.3 2.444e+04 2.873e-08
 49.08411    -47.6 2.435e+04 3.122e-08
 49.09402    -50.2 2.432e+04 3.104e-08
 49.10393    -52.8 2.375e+04 2.606e-08
 49.11384    -55.4 2.311e+04 1.842e-08
 49.12375    -57.3 2.212e+04 1.331e-08
 49.13203    -59.5 2.144e+04 9.568e-09
 49.13703    -58.4 2.214e+04 1.188e-08
 49.14862    -64.4 1.941e+04 5.220e-09
 49.16844    -69.8 1.553e+04 2.156e-09
 49.18826    -73.1 1.290e+04 1.151e-09
 49.20808    -74.5 1.157e+04 8.315e-10
 49.22790    -75.1 1.075e+04 7.439e-10
 49.24476    -74.8 1.050e+04 7.515e-10
 49.25317    -74.4 1.066e+04 7.428e-10
 49.25613    -75.9 1.022e+04 6.164e-10
 49.26754    -74.9 1.047e+04 6.685e-10
 49.28736    -73.9 1.070e+04 7.157e-10
 49.30718    -73.1 1.082e+04 7.521e-10
 49.32700    -72.4 1.089e+04 7.895e-10
 49.34682    -71.7 1.093e+04 8.243e-10
 49.36234    -71.0 1.100e+04 8.594e-10
 49.37225    -70.9 1.073e+04 7.571e-10
 49.38646    -70.4 1.083e+04 7.978e-10
 49.40628    -70.3 1.111e+04 8.975e-10
 49.42610    -70.7 1.171e+04 1.143e-09
 49.44592    -71.6 1.262e+04 1.651e-09
 49.46574    -72.4 1.367e+04 2.569e-09
 49.47993    -72.9 1.476e+04 3.954e-09
 49.48984    -73.1 1.452e+04 3.468e-09
 49.50538    -73.5 1.554e+04 5.171e-09
 49.52520    -73.7 1.623e+04 6.570e-09
 49.54502    -74.6 1.643e+04 6.912e-09
 49.56484    -75.9 1.629e+04 6.653e-09
 49.58466    -77.3 1.544e+04 5.052e-09
 49.59751    -78.9 1.435e+04 3.539e-09
 49.60742    -78.6 1.429e+04 3.381e-09
 49.62430    -80.4 1.330e+04 2.410e-09
 49.64412    -81.6 1.271e+04 1.926e-09
 49.66394    -82.2 1.240e+04 1.660e-09
 49.68376    -82.4 1.219e+04 1.476e-09
 49.70358    -82.5 1.197e+04 1.305e-09
 49.71510    -82.4 1.176e+04 1.169e-09
 49.72501    -82.7 1.182e+04 1.232e-09
 49.74322    -82.5 1.169e+04 1.149e-09
 49.76304    -82.3 1.166e+04 1.120e-09
 49.78287    -82.0 1.166e+04 1.132e-09
 49.80269    -81.6 1.172e+04 1.143e-09
 49.82251    -81.2 1.185e+04 1.154e-09
 49.83268    -80.9 1.205e+04 1.174e-09
 49.84259    -81.5 1.228e+04 1.267e-09
 49.86215    -81.3 1.249e+04 1.318e-09
 49.88197    -81.1 1.265e+04 1.371e-09
 49.90179    -80.8 1.273e+04 1.400e-09
 49.92161    -80.7 1.274e+04 1.402e-09
 49.94036    -80.7 1.270e+04 1.369e-09
 49.95027    -81.4 1.290e+04 1.650e-09
 49.96125    -81.4 1.271e+04 1.538e-09
 49.98034    -81.7 1.250e+04 1.414e-09
 49.99025    -80.0 1.324e+04 2.220e-09
 50.00089    -80.6 1.310e+04 1.973e-09
 50.02071    -80.8 1.367e+04 1.941e-09
 50.04053    -82.4 1.356e+04 1.826e-09
 50.05794    -85.1 1.361e+04 1.822e-09
 50.06785    -85.0 1.325e+04 1.557e-09
 50.08017    -87.8 1.349e+04 1.603e-09
 50.09999    -90.5 1.373e+04 1.842e-09
 50.11981    -92.6 1.394e+04 2.160e-09
 50.13963    -94.2 1.417e+04 2.486e-09
 50.15945    -95.4 1.441e+04 2.730e-09
 50.17553    -96.4 1.469e+04 2.878e-09
 50.18544    -96.6 1.431e+04 2.433e-09
 50.19909    -97.4 1.444e+04 2.498e-09
 50.21891    -97.9 1.448e+04 2.464e-09
 50.23873    -98.2 1.446e+04 2.275e-09
 50.25855    -98.4 1.405e+04 1.919e-09
 50.27837    -98.5 1.369e+04 1.623e-09
 50.29311    -98.7 1.377e+04 1.600e-09
 50.30302    -98.8 1.461e+04 1.751e-09
 50.31801    -98.8 1.413e+04 1.674e-09
 50.33783    -99.0 1.364e+04 1.630e-09
 50.35765    -99.7 1.357e+04 1.646e-09
 50.37747   -100.6 1.381e+04 1.794e-09
 50.39228   -102.0 1.448e+04 2.240e-09
 50.40215   -102.5 1.475e+04 2.473e-09
 50.41060   -103.0 1.501e+04 2.832e-09
 50.41555   -103.7 1.522e+04 3.136e-09
 50.42197   -104.0 1.544e+04 3.514e-09
 50.43188   -104.3 1.569e+04 3.979e-09
 50.44179   -104.4 1.597e+04 4.364e-09
 50.45170   -104.7 1.628e+04 4.880e-09
 50.46161   -105.0 1.678e+04 5.403e-09
 50.46939   -105.5 1.743e+04 6.150e-09
 50.47435   -105.8 1.774e+04 6.515e-09
 50.48143   -106.6 1.855e+04 7.471e-09
 50.49134   -107.7 1.933e+04 8.982e-09
 50.50125   -108.9 2.000e+04 1.072e-08
 50.51116   -110.2 2.041e+04 1.302e-08
 50.52107   -111.4 2.056e+04 1.571e-08
 50.52818   -112.4 2.054e+04 1.813e-08
 50.53314   -112.3 1.994e+04 1.613e-08
 50.54089   -113.1 1.984e+04 1.735e-08
 50.55080   -113.7 1.972e+04 1.811e-08
 50.56071   -114.0 1.966e+04 1.823e-08
 50.57062   -114.0 1.932e+04 1.815e-08
 50.58053   -113.9 1.904e+04 1.644e-08
 50.58697   -113.7 1.863e+04 1.403e-08
 50.59193   -113.7 1.808e+04 1.163e-08
 50.60035   -113.6 1.775e+04 1.007e-08
 50.61026   -113.7 1.700e+04 7.665e-09
 50.62017   -113.7 1.670e+04 6.671e-09
 50.63508   -113.6 1.608e+04 5.095e-09
 50.64586   -113.6 1.520e+04 3.345e-09
 50.65577   -113.7 1.474e+04 2.863e-09
 50.67477   -114.2 1.355e+04 1.783e-09
 50.69459   -114.5 1.267e+04 1.258e-09
 50.71441   -114.4 1.211e+04 9.957e-10
 50.73423   -114.1 1.169e+04 8.345e-10
 50.75354   -113.1 1.156e+04 7.581e-10
 50.76345   -113.0 1.153e+04 7.380e-10
 50.77387   -112.2 1.141e+04 6.785e-10
 50.79369   -111.4 1.130e+04 6.357e-10
 50.81351   -110.6 1.123e+04 6.116e-10
 50.83333   -109.8 1.118e+04 5.986e-10
 50.85315   -109.1 1.115e+04 5.932e-10
 50.87112   -108.3 1.114e+04 6.060e-10
 50.88103   -108.2 1.097e+04 5.430e-10
 50.90280   -107.3 1.090e+04 5.236e-10
 50.94254   -105.7 1.075e+04 4.922e-10
 50.98218   -104.2 1.065e+04 4.703e-10
 51.02182   -102.9 1.061e+04 4.731e-10
 51.06146   -101.7 1.071e+04 5.190e-10
 51.09658   -100.7 1.082e+04 5.959e-10
 51.11640   -100.0 1.039e+04 4.115e-10
 51.14074    -99.0 1.055e+04 5.088e-10
 51.18038    -98.0 1.064e+04 5.761e-10
 51.22002    -97.0 1.065e+04 5.918e-10
 51.25966    -96.1 1.058e+04 5.656e-10
 51.29930    -95.2 1.055e+04 5.583e-10
 51.33175    -94.1 1.049e+04 5.654e-10
 51.35157    -93.7 1.056e+04 5.940e-10
 51.37858    -92.5 1.053e+04 6.122e-10
 51.41822    -91.1 1.051e+04 6.266e-10
 51.44878    -89.6 1.049e+04 6.368e-10
 51.46860    -89.0 1.056e+04 6.348e-10
 51.49750    -87.5 1.053e+04 6.397e-10
 51.53714    -85.9 1.055e+04 6.615e-10
 51.56692    -84.4 1.058e+04 6.965e-10
 51.58674    -84.3 1.048e+04 5.692e-10
 51.61642    -83.0 1.064e+04 6.704e-10
 51.65606    -81.7 1.071e+04 7.400e-10
 51.69570    -80.5 1.074e+04 7.579e-10
 51.73534    -79.3 1.076e+04 7.293e-10
 51.76497    -77.9 1.063e+04 6.224e-10
 51.78469    -77.7 1.060e+04 6.115e-10
 51.80189    -76.7 1.048e+04 5.402e-10
 51.81180    -76.2 1.028e+04 4.486e-10
 51.82433    -75.4 1.028e+04 4.160e-10
 51.84416    -74.7 1.031e+04 4.067e-10
 51.86398    -74.4 1.046e+04 4.087e-10
 51.88380    -74.2 1.072e+04 4.481e-10
 51.90362    -74.1 1.099e+04 5.414e-10
 51.91948    -74.1 1.126e+04 7.043e-10
 51.92939    -73.1 1.112e+04 5.619e-10
 51.94326    -73.1 1.144e+04 7.719e-10
 51.96308    -73.0 1.178e+04 1.060e-09
 51.98290    -72.7 1.210e+04 1.365e-09
 52.00272    -72.4 1.231e+04 1.598e-09
 52.02254    -72.2 1.240e+04 1.694e-09
 52.03706    -71.9 1.234e+04 1.573e-09
 52.04697    -71.2 1.277e+04 2.031e-09
 52.06218    -70.9 1.266e+04 1.759e-09
 52.08200    -70.7 1.231e+04 1.215e-09
 52.10182    -71.3 1.171e+04 7.146e-10
 52.12164    -72.6 1.071e+04 4.021e-10
 52.14146    -73.9 9.727e+03 2.697e-10
 52.15465    -74.4 9.460e+03 2.384e-10
 52.16456    -73.5 9.810e+03 2.608e-10
 52.18110    -74.0 9.392e+03 2.277e-10
 52.21092    -73.7 9.285e+03 2.219e-10
 52.25066    -72.7 9.167e+03 2.106e-10
 52.27243    -71.2 9.044e+03 1.964e-10
 52.29225    -71.3 9.491e+03 2.808e-10
 52.32994    -69.5 9.344e+03 2.685e-10
 52.36958    -67.7 9.320e+03 2.652e-10
 52.40922    -65.8 9.317e+03 2.619e-10
 52.44886    -63.9 9.319e+03 2.523e-10
 52.48778    -61.9 9.256e+03 2.320e-10
 52.50760    -61.9 9.660e+03 3.227e-10
 52.52814    -59.7 9.537e+03 2.969e-10
 52.56778    -57.3 9.336e+03 2.523e-10
 52.60742    -55.0 9.228e+03 2.106e-10
 52.64706    -52.9 9.237e+03 1.997e-10
 52.68670    -51.0 9.370e+03 2.055e-10
 52.72295    -49.3 9.558e+03 2.500e-10
 52.74277    -48.6 9.495e+03 2.284e-10
 52.76598    -46.8 9.649e+03 2.634e-10
 52.80562    -45.0 9.741e+03 2.933e-10
 52.84527    -43.2 9.753e+03 3.035e-10
 52.88491    -41.3 9.704e+03 2.828e-10
 52.91702    -39.4 9.645e+03 2.455e-10
 52.93684    -39.8 9.637e+03 2.535e-10
 52.95812    -38.0 9.591e+03 2.369e-10
 52.97794    -37.4 9.861e+03 3.106e-10
 53.00383    -35.6 9.922e+03 3.321e-10
 53.04347    -33.7 9.993e+03 3.616e-10
 53.08311    -31.7 1.004e+04 3.756e-10
 53.12275    -29.7 1.008e+04 3.894e-10
 53.16239    -27.6 1.012e+04 3.884e-10
 53.19329    -25.6 1.016e+04 3.723e-10
 53.21311    -25.6 1.020e+04 3.806e-10
 53.24167    -23.8 1.015e+04 3.457e-10
 53.28131    -22.0 1.011e+04 3.176e-10
 53.32095    -20.2 1.011e+04 3.090e-10
 53.36059    -18.5 1.015e+04 3.196e-10
 53.40023    -16.9 1.023e+04 3.452e-10
 53.42846    -15.2 1.033e+04 3.691e-10
 53.44828    -15.0 9.910e+03 2.329e-10
 53.47951    -13.5 9.912e+03 2.236e-10
 53.51915    -12.1 9.932e+03 2.161e-10
 53.55879    -10.6 9.988e+03 2.200e-10
 53.59843     -9.1 1.004e+04 2.333e-10
 53.63807     -7.5 9.998e+03 2.414e-10
 53.66363     -5.4 9.963e+03 2.216e-10
 53.68345     -5.0 9.840e+03 1.779e-10
 53.71735     -2.9 9.871e+03 1.820e-10
 53.75699     -1.0 9.874e+03 1.820e-10
 53.79663      0.9 9.847e+03 1.794e-10
 53.83627      2.8 9.827e+03 1.771e-10
 53.87591      4.6 9.772e+03 1.696e-10
 53.89879      6.7 9.638e+03 1.533e-10
 53.91861      7.6 9.704e+03 1.808e-10
 53.95519      9.8 9.569e+03 1.577e-10
 53.99483     12.0 9.443e+03 1.250e-10
 54.03447     14.3 9.374e+03 9.299e-11
 54.07411     16.3 9.404e+03 6.925e-11
 54.11375     18.1 9.300e+03 5.725e-11
 54.13396     20.1 9.171e+03 5.706e-11
 54.15378     20.5 9.326e+03 6.186e-11
 54.19303     22.4 9.295e+03 6.637e-11
 54.23267     24.3 9.277e+03 8.246e-11
 54.27231     26.4 9.300e+03 1.077e-10
 54.31195     28.7 9.377e+03 1.359e-10
 54.34931     31.0 9.483e+03 1.611e-10
 54.36913     31.1 9.575e+03 1.760e-10
 54.38526     33.2 9.693e+03 1.955e-10
 54.40508     33.4 9.488e+03 1.247e-10
 54.43087     35.4 9.565e+03 1.340e-10
 54.47051     37.1 9.629e+03 1.489e-10
 54.51015     38.8 9.691e+03 1.740e-10
 54.54979     40.5 9.768e+03 2.117e-10
 54.58448     42.2 9.878e+03 2.645e-10
 54.60430     42.0 1.009e+04 3.387e-10
 54.62907     43.7 1.020e+04 4.025e-10
 54.66871     45.4 1.029e+04 4.505e-10
 54.70835     47.2 1.036e+04 4.763e-10
 54.74799     48.8 1.038e+04 4.716e-10
 54.78763     50.2 1.033e+04 4.383e-10
 54.81965     51.7 1.019e+04 3.787e-10
 54.83947     51.5 9.926e+03 3.086e-10
 54.86691     53.1 9.736e+03 2.506e-10
 54.90656     54.7 9.555e+03 1.986e-10
 54.94620     56.2 9.411e+03 1.619e-10
 54.98584     57.7 9.400e+03 1.544e-10
 55.02548     59.3 9.428e+03 1.581e-10
 55.05482     60.7 9.531e+03 1.738e-10
 55.07464     60.7 9.239e+03 1.144e-10
 55.10476     62.0 9.366e+03 1.374e-10
 55.14440     63.4 9.507e+03 1.735e-10
 55.18404     64.8 9.639e+03 2.126e-10
 55.22368     66.1 9.770e+03 2.457e-10
 55.26332     67.5 9.871e+03 2.645e-10
 55.28999     68.8 9.967e+03 2.779e-10
 55.30981     69.4 9.866e+03 2.565e-10
 55.34260     70.4 1.005e+04 2.878e-10
 55.38224     70.9 1.042e+04 3.948e-10
 55.42188     71.0 1.104e+04 6.701e-10
 55.46152     71.2 1.185e+04 1.176e-09
 55.50116     71.0 1.237e+04 1.566e-09
 55.52516     70.5 1.235e+04 1.543e-09
 55.54498     70.8 1.237e+04 1.578e-09
 55.58044     70.9 1.207e+04 1.363e-09
 55.62008     71.5 1.147e+04 9.545e-10
 55.65972     72.3 1.086e+04 6.307e-10
 55.69936     73.1 1.044e+04 4.504e-10
 55.73900     74.1 1.019e+04 3.682e-10
 55.76033     75.4 1.007e+04 3.374e-10
 55.78015     75.9 9.875e+03 2.981e-10
 55.81828     77.5 9.888e+03 3.024e-10
 55.85350     79.1 9.954e+03 3.157e-10
 55.87332     79.2 9.957e+03 3.233e-10
 55.89756     80.7 1.010e+04 3.566e-10
 55.93720     82.1 1.026e+04 4.059e-10
 55.97568     83.2 1.050e+04 4.928e-10
 55.99540     83.2 1.061e+04 5.284e-10
 56.00638     83.6 1.080e+04 6.204e-10
 56.02620     83.9 1.099e+04 7.279e-10
 56.04602     84.0 1.123e+04 8.744e-10
 56.06584     84.1 1.147e+04 1.048e-09
 56.08566     84.0 1.179e+04 1.271e-09
 56.10298     84.0 1.190e+04 1.330e-09
 56.11289     83.9 1.190e+04 1.329e-09
 56.13530     83.3 1.223e+04 1.531e-09
 56.17504     82.8 1.201e+04 1.382e-09
 56.21085     82.2 1.149e+04 9.678e-10
 56.23067     81.3 1.117e+04 8.147e-10
 56.25432     80.3 1.077e+04 5.717e-10
 56.29396     79.3 1.051e+04 4.842e-10
 56.33360     78.6 1.037e+04 4.543e-10
 56.37324     78.2 1.023e+04 4.227e-10
 56.41288     78.1 1.010e+04 3.919e-10
 56.44602     77.9 1.012e+04 3.919e-10
 56.46584     77.3 1.007e+04 3.882e-10
 56.48216     76.9 1.010e+04 3.968e-10
 56.50188     76.6 1.016e+04 4.154e-10
 56.52170     76.1 1.029e+04 4.897e-10
 56.54152     75.7 1.043e+04 6.133e-10
 56.56134     75.3 1.076e+04 7.918e-10
 56.57332     75.3 1.091e+04 8.547e-10
 56.58323     75.2 1.085e+04 8.425e-10
 56.61099     74.8 1.128e+04 1.014e-09
 56.65072     73.4 1.133e+04 9.769e-10
 56.68119     71.3 1.123e+04 7.427e-10
 56.70101     71.1 1.117e+04 7.822e-10
 56.73000     68.6 1.103e+04 6.032e-10
 56.76964     66.2 1.091e+04 5.392e-10
 56.80928     64.1 1.092e+04 5.397e-10
 56.84892     62.4 1.097e+04 5.525e-10
 56.88856     61.1 1.092e+04 5.365e-10
 56.91636     60.3 1.081e+04 4.602e-10
 56.93618     59.9 1.074e+04 4.277e-10
 56.96785     59.5 1.063e+04 3.323e-10
 57.00749     59.3 1.059e+04 2.630e-10
 57.04713     59.1 1.056e+04 2.296e-10
 57.08677     59.0 1.055e+04 2.327e-10
 57.12641     59.1 1.049e+04 2.465e-10
 57.15153     59.5 1.043e+04 2.667e-10
 57.17135     59.2 1.053e+04 3.361e-10
 57.20569     59.7 1.045e+04 3.503e-10
 57.24533     60.3 1.037e+04 3.402e-10
 57.28497     60.7 1.023e+04 3.083e-10
 57.32174     61.2 1.010e+04 2.601e-10
 57.34156     60.9 1.032e+04 3.296e-10
 57.36425     60.9 1.015e+04 2.564e-10
 57.38670     60.7 9.996e+03 2.076e-10
 57.40652     60.7 9.943e+03 1.972e-10
 57.44353     60.5 9.821e+03 1.835e-10
 57.48317     60.3 9.717e+03 1.792e-10
 57.52281     60.4 9.605e+03 1.699e-10
 57.56245     60.6 9.491e+03 1.467e-10
 57.60205     60.8 9.379e+03 1.170e-10
 57.64169     61.3 9.287e+03 1.008e-10
 57.68137     61.4 9.290e+03 1.050e-10
 57.72101     61.6 9.316e+03 1.320e-10
 57.76065     62.2 9.424e+03 1.887e-10
 57.80029     62.9 9.503e+03 2.383e-10
 57.83722     63.6 9.499e+03 2.378e-10
 57.85704     63.8 9.403e+03 2.096e-10
 57.87957     64.5 9.300e+03 1.857e-10
 57.91921     65.2 9.169e+03 1.495e-10
 57.95885     65.8 9.022e+03 1.230e-10
 57.99849     66.6 8.897e+03 1.189e-10
 58.03813     67.6 8.883e+03 1.220e-10
 58.07239     68.7 8.876e+03 1.362e-10
 58.09221     69.2 8.856e+03 1.443e-10
 58.11741     70.5 8.933e+03 1.684e-10
 58.15705     71.8 9.077e+03 2.038e-10
 58.19669     73.0 9.325e+03 2.532e-10
 58.23633     73.4 9.622e+03 3.209e-10
 58.27597     73.4 9.950e+03 4.183e-10
 58.30756     72.9 1.041e+04 5.857e-10
 58.32738     73.4 1.038e+04 5.934e-10
 58.35525     72.6 1.092e+04 8.545e-10
 58.39489     71.6 1.142e+04 1.124e-09
 58.43453     70.2 1.173e+04 1.258e-09
 58.47417     68.3 1.185e+04 1.280e-09
 58.51381     66.2 1.200e+04 1.321e-09
 58.54273     64.1 1.216e+04 1.366e-09
 58.55254     65.1 1.269e+04 1.800e-09
 58.56317     63.8 1.270e+04 1.806e-09
 58.58299     63.0 1.259e+04 1.738e-09
 58.60281     62.4 1.233e+04 1.463e-09
 58.62263     62.1 1.205e+04 1.081e-09
 58.64245     61.7 1.152e+04 6.776e-10
 58.67228     61.8 1.136e+04 3.966e-10
 58.71201     59.4 9.771e+03 8.614e-11
 58.75165     57.0 9.016e+03 6.548e-11
 58.77790     56.5 8.968e+03 6.738e-11
 58.79641     56.8 9.162e+03 6.976e-11
 58.80980     56.3 8.910e+03 6.596e-11
 58.83093     56.2 9.058e+03 8.490e-11
 58.87057     56.3 9.365e+03 1.331e-10
 58.91021     56.4 9.732e+03 2.076e-10
 58.94985     56.4 1.009e+04 3.066e-10
 58.98949     55.2 1.086e+04 4.498e-10
 59.01297     55.8 1.094e+04 4.888e-10
 59.02278     57.2 1.154e+04 6.306e-10
 59.03885     56.1 1.209e+04 7.111e-10
 59.05867     53.6 1.329e+04 9.837e-10
 59.07849     47.2 1.580e+04 2.437e-09
 59.09331     43.2 1.750e+04 4.257e-09
 59.10317     36.7 2.101e+04 9.252e-09
 59.11308     29.9 2.329e+04 2.531e-08
 59.12299     25.4 2.378e+04 6.154e-08
 59.13036     22.3 2.417e+04 1.078e-07
 59.13531     20.2 2.458e+04 1.206e-07
 59.14281     16.7 2.481e+04 9.687e-08
 59.15272     13.3 2.515e+04 4.708e-08
 59.16263      6.5 2.383e+04 1.861e-08
 59.17754     -5.3 1.783e+04 4.155e-09
 59.19741    -15.6 1.282e+04 1.213e-09
 59.21723    -19.8 1.110e+04 6.397e-10
 59.23705    -21.4 1.033e+04 4.940e-10
 59.24814    -21.4 1.010e+04 4.233e-10
 59.26806    -24.6 1.006e+04 4.101e-10
 59.30662    -25.6 1.036e+04 5.063e-10
 59.34626    -26.0 1.071e+04 7.375e-10
 59.38590    -26.0 1.089e+04 9.211e-10
 59.42554    -26.0 1.094e+04 9.729e-10
 59.46359    -26.5 1.085e+04 9.098e-10
 59.48341    -28.9 1.069e+04 8.807e-10
 59.50482    -29.4 1.053e+04 8.517e-10
 59.54446    -29.1 1.050e+04 9.304e-10
 59.58410    -28.2 1.043e+04 9.260e-10
 59.62374    -27.5 9.975e+03 7.342e-10
 59.66338    -26.4 9.402e+03 5.317e-10
 59.69875    -25.0 8.903e+03 3.556e-10
 59.71857    -25.4 8.498e+03 2.609e-10
 59.74266    -24.2 8.348e+03 1.913e-10
 59.78230    -23.4 8.265e+03 1.636e-10
 59.82194    -22.1 8.353e+03 1.706e-10
 59.86158    -20.7 8.517e+03 1.999e-10
 59.90122    -19.2 8.704e+03 2.333e-10
 59.93392    -17.7 8.872e+03 2.689e-10
 59.95374    -17.7 8.824e+03 2.565e-10
 59.98050    -16.1 8.953e+03 2.838e-10
 60.02014    -14.9 9.232e+03 3.004e-10
 60.05978    -14.6 9.742e+03 3.213e-10
 60.09942    -14.8 9.987e+03 4.424e-10
 60.13906    -14.5 1.015e+04 5.921e-10
 60.16909    -14.3 1.038e+04 7.020e-10
 60.18891    -15.3 1.088e+04 7.832e-10
 60.21834    -17.4 1.179e+04 1.181e-09
 60.24797    -18.6 1.179e+04 1.247e-09
 60.26770    -19.5 1.204e+04 1.372e-09
 60.27785    -20.2 1.233e+04 1.432e-09
 60.29777    -22.2 1.194e+04 1.237e-09
 60.32725    -24.3 1.216e+04 1.451e-09
 60.34698    -24.8 1.236e+04 1.568e-09
 60.36680    -26.1 1.229e+04 1.801e-09
 60.38662    -26.6 1.242e+04 1.983e-09
 60.40407    -26.9 1.229e+04 2.085e-09
 60.41398    -27.1 1.196e+04 1.792e-09
 60.42626    -27.0 1.175e+04 1.588e-09
 60.44608    -27.0 1.140e+04 1.241e-09
 60.46590    -26.5 1.116e+04 1.030e-09
 60.49572    -27.8 9.955e+03 5.117e-10
 60.53546    -28.2 9.172e+03 3.497e-10
 60.57510    -27.4 8.936e+03 2.930e-10
 60.60474    -26.0 8.906e+03 2.619e-10
 60.62446    -25.9 8.893e+03 2.601e-10
 60.63924    -25.5 9.383e+03 2.924e-10
 60.64915    -25.6 9.312e+03 2.658e-10
 60.66410    -26.9 1.010e+04 3.769e-10
 60.68392    -28.6 1.114e+04 6.707e-10
 60.70374    -29.9 1.184e+04 1.248e-09
 60.72356    -30.1 1.248e+04 2.210e-09
 60.74338    -29.3 1.317e+04 3.366e-09
 60.75682    -28.8 1.425e+04 4.628e-09
 60.76673    -29.2 1.424e+04 4.346e-09
 60.78302    -30.5 1.573e+04 5.788e-09
 60.80284    -32.9 1.664e+04 7.043e-09
 60.82266    -35.7 1.669e+04 7.766e-09
 60.84248    -38.1 1.595e+04 7.622e-09
 60.86230    -38.9 1.545e+04 7.046e-09
 60.87441    -38.7 1.536e+04 5.667e-09
 60.88432    -37.9 1.576e+04 6.527e-09
 60.90194    -38.9 1.483e+04 3.880e-09
 60.92176    -41.7 1.327e+04 2.295e-09
 60.94158    -43.3 1.222e+04 1.619e-09
 60.96140    -43.9 1.160e+04 1.299e-09
 60.98122    -44.1 1.122e+04 1.112e-09
 60.99199    -44.1 1.097e+04 9.736e-10
 61.00190    -43.7 1.111e+04 1.050e-09
 61.01197    -43.5 1.093e+04 9.258e-10
 61.02188    -43.6 1.120e+04 1.103e-09
 61.04068    -43.5 1.088e+04 8.859e-10
 61.06050    -43.5 1.054e+04 6.910e-10
 61.08985    -43.5 1.018e+04 4.993e-10
 61.10977    -42.6 1.041e+04 6.052e-10
 61.13007    -42.3 9.801e+03 3.557e-10
 61.16971    -42.1 9.449e+03 2.403e-10
 61.20935    -41.4 9.207e+03 1.921e-10
 61.24899    -40.8 9.151e+03 1.711e-10
 61.28863    -40.3 9.237e+03 1.712e-10
 61.32512    -40.0 9.430e+03 1.977e-10
 61.34494    -38.8 9.316e+03 1.516e-10
 61.36791    -38.5 9.474e+03 1.973e-10
 61.40755    -38.0 9.672e+03 2.633e-10
 61.44719    -38.0 1.010e+04 3.578e-10
 61.48683    -40.2 1.127e+04 6.032e-10
 61.51646    -42.0 1.251e+04 1.013e-09
 61.53618    -43.0 1.315e+04 1.275e-09
 61.55600    -44.4 1.353e+04 2.024e-09
 61.57001    -45.1 1.338e+04 2.156e-09
 61.57992    -44.4 1.358e+04 2.091e-09
 61.59564    -45.3 1.329e+04 2.115e-09
 61.61546    -46.8 1.314e+04 1.772e-09
 61.63528    -49.0 1.302e+04 1.424e-09
 61.65510    -51.2 1.270e+04 1.193e-09
 61.67492    -53.1 1.230e+04 1.081e-09
 61.68759    -54.6 1.212e+04 1.047e-09
 61.69750    -54.1 1.215e+04 1.091e-09
 61.72457    -55.8 1.210e+04 1.079e-09
 61.74629    -58.5 1.207e+04 1.206e-09
 61.75610    -58.0 1.219e+04 1.465e-09
 61.77402    -59.3 1.242e+04 1.632e-09
 61.79384    -60.6 1.236e+04 1.697e-09
 61.80518    -61.1 1.217e+04 1.707e-09
 61.81509    -60.6 1.191e+04 1.401e-09
 61.83348    -60.7 1.134e+04 1.257e-09
 61.85330    -60.3 1.093e+04 9.615e-10
 61.87312    -60.2 1.053e+04 6.296e-10
 61.89294    -60.7 1.019e+04 4.228e-10
 61.92277    -61.1 9.679e+03 2.985e-10
 61.96251    -61.0 9.037e+03 1.766e-10
 62.00215    -59.9 8.592e+03 1.095e-10
 62.03063    -58.9 8.487e+03 8.747e-11
 62.05045    -57.8 8.549e+03 8.976e-11
 62.08143    -57.0 8.509e+03 8.417e-11
 62.12107    -56.0 8.510e+03 8.497e-11
 62.16071    -55.1 8.585e+03 1.005e-10
 62.20035    -54.2 8.662e+03 1.211e-10
 62.23999    -53.1 8.691e+03 1.335e-10
 62.26580    -52.1 8.687e+03 1.362e-10
 62.28562    -51.1 8.743e+03 1.485e-10
 62.31927    -49.9 8.676e+03 1.417e-10
 62.35891    -48.8 8.626e+03 1.253e-10
 62.39855    -47.7 8.612e+03 1.160e-10
 62.43819    -46.4 8.619e+03 1.137e-10
 62.47783    -45.3 8.751e+03 1.163e-10
 62.50097    -44.7 9.024e+03 1.475e-10
 62.52079    -43.2 8.921e+03 1.347e-10
 62.55711    -42.7 9.205e+03 1.914e-10
 62.59675    -42.0 9.589e+03 3.357e-10
 62.63639    -40.8 1.007e+04 5.783e-10
 62.67603    -39.4 1.056e+04 8.122e-10
 62.71567    -38.7 1.090e+04 8.964e-10
 62.73614    -39.1 1.137e+04 9.193e-10
 62.75596    -36.4 1.100e+04 8.898e-10
 62.79495    -38.7 1.244e+04 1.073e-09
 62.82459    -44.3 1.356e+04 1.820e-09
 62.84362    -46.2 1.402e+04 2.801e-09
 62.85353    -45.3 1.456e+04 2.937e-09
 62.86413    -46.3 1.489e+04 4.168e-09
 62.88395    -47.1 1.487e+04 4.439e-09
 62.90377    -47.7 1.417e+04 3.262e-09
 62.92359    -49.1 1.307e+04 1.452e-09
 62.94341    -52.0 1.154e+04 5.332e-10
 62.96120    -54.6 1.016e+04 2.767e-10
 62.97111    -53.2 1.097e+04 3.972e-10
 62.98305    -54.4 1.009e+04 2.776e-10
 63.00287    -54.4 9.765e+03 2.452e-10
 63.03270    -54.1 9.590e+03 2.227e-10
 63.07243    -53.2 9.435e+03 1.895e-10
 63.11207    -52.3 9.342e+03 1.683e-10
 63.15172    -51.4 9.301e+03 1.639e-10
 63.18666    -50.4 9.275e+03 1.650e-10
 63.20648    -49.6 9.433e+03 1.945e-10
 63.21453    -48.8 9.453e+03 2.242e-10
 63.23435    -48.8 9.392e+03 2.085e-10
 63.27064    -47.8 9.412e+03 2.216e-10
 63.31028    -46.7 9.465e+03 2.255e-10
 63.34992    -45.8 9.514e+03 2.260e-10
 63.38956    -45.0 9.626e+03 2.209e-10
 63.42183    -44.3 9.736e+03 2.224e-10
 63.44165    -43.7 9.741e+03 2.528e-10
 63.46884    -43.0 9.756e+03 2.371e-10
 63.50848    -42.1 9.755e+03 2.122e-10
 63.54812    -41.2 9.716e+03 1.814e-10
 63.58776    -40.4 9.708e+03 1.575e-10
 63.62740    -39.8 9.726e+03 1.523e-10
 63.65700    -39.4 9.883e+03 1.788e-10
 63.67682    -38.7 9.840e+03 1.422e-10
 63.70668    -38.6 1.005e+04 2.069e-10
 63.74632    -38.4 1.029e+04 3.123e-10
 63.78596    -38.2 1.062e+04 4.362e-10
 63.82560    -38.1 1.091e+04 5.495e-10
 63.86524    -38.1 1.102e+04 5.946e-10
 63.89217    -38.1 1.099e+04 5.854e-10
 63.91199    -37.9 1.111e+04 6.689e-10
 63.94452    -37.7 1.088e+04 4.980e-10
 63.98416    -37.7 1.070e+04 3.641e-10
 64.02380    -37.7 1.058e+04 3.123e-10
 64.06344    -37.2 1.055e+04 3.021e-10
 64.10308    -36.6 1.064e+04 3.087e-10
 64.12734    -36.2 1.076e+04 3.244e-10
 64.14716    -36.1 1.100e+04 3.259e-10
 64.18236    -35.8 1.104e+04 3.724e-10
 64.22200    -35.3 1.105e+04 3.928e-10
 64.26164    -34.6 1.086e+04 3.755e-10
 64.30128    -33.5 1.054e+04 2.697e-10
 64.34092    -32.6 1.033e+04 1.653e-10
 64.36251    -32.1 1.031e+04 1.098e-10
 64.38233    -31.6 1.027e+04 8.573e-11
 64.42020    -31.4 1.031e+04 7.214e-11
 64.45984    -30.8 1.031e+04 7.203e-11
 64.49948    -30.0 1.018e+04 9.007e-11
 64.53912    -28.6 1.006e+04 1.093e-10
 64.57786    -27.0 1.004e+04 1.144e-10
 64.59768    -26.4 9.958e+03 9.597e-11
 64.61840    -25.0 9.936e+03 9.131e-11
 64.65804    -23.7 9.967e+03 7.652e-11
 64.68277    -22.9 9.986e+03 6.930e-11
 64.70259    -22.7 9.989e+03 6.443e-11
 64.73732    -21.8 9.967e+03 6.260e-11
 64.77696    -20.6 9.857e+03 7.186e-11
 64.81303    -19.0 9.897e+03 8.488e-11
 64.83285    -18.6 9.706e+03 8.762e-11
 64.85624    -17.1 9.892e+03 1.041e-10
 64.89588    -16.2 1.012e+04 1.264e-10
 64.93552    -15.4 1.012e+04 1.783e-10
 64.97516    -13.9 1.009e+04 2.687e-10
 65.01480    -12.2 1.021e+04 3.447e-10
 65.04820    -11.0 1.031e+04 3.700e-10
 65.06802    -10.1 1.038e+04 2.477e-10
 65.09408     -9.6 1.046e+04 2.588e-10
 65.13372     -9.4 1.027e+04 3.268e-10
 65.17336     -8.3 1.023e+04 4.045e-10
 65.21301     -7.0 1.030e+04 4.519e-10
 65.25265     -6.1 1.040e+04 4.427e-10
 65.28337     -5.5 1.044e+04 4.269e-10
 65.30319     -4.6 1.055e+04 4.744e-10
 65.33193     -3.8 1.037e+04 4.345e-10
 65.37157     -2.9 1.018e+04 3.917e-10
 65.41121     -1.8 9.935e+03 3.552e-10
 65.45085     -0.3 9.643e+03 3.001e-10
 65.49049      1.4 9.550e+03 2.328e-10
 65.51853      2.3 9.551e+03 1.980e-10
 65.53836      3.0 9.519e+03 2.005e-10
 65.56977      4.3 9.453e+03 2.011e-10
 65.60941      5.8 9.436e+03 2.334e-10
 65.64905      7.6 9.467e+03 2.662e-10
 65.68869      9.3 9.518e+03 2.662e-10
 65.72833     10.8 9.506e+03 2.533e-10
 65.75370     12.1 9.488e+03 2.471e-10
 65.77352     12.7 9.421e+03 2.375e-10
 65.80761     14.1 9.356e+03 2.308e-10
 65.84725     15.6 9.334e+03 2.185e-10
 65.88689     16.9 9.385e+03 1.975e-10
 65.92653     18.0 9.455e+03 1.725e-10
 65.96617     18.8 9.545e+03 1.743e-10
 65.98887     17.8 1.015e+04 2.809e-10
 66.00869     19.2 9.851e+03 2.774e-10
 66.04545     18.8 1.095e+04 6.419e-10
 66.08509     18.9 1.202e+04 1.405e-09
 66.12473     19.4 1.242e+04 1.878e-09
 66.15101     19.6 1.228e+04 1.521e-09
 66.16082     22.1 1.411e+04 3.355e-09
 66.17408     22.4 1.387e+04 2.949e-09
 66.19390     21.4 1.357e+04 2.314e-09
 66.21372     19.6 1.273e+04 1.634e-09
 66.22385     17.3 1.192e+04 1.290e-09
 66.23376     17.2 1.198e+04 1.700e-09
 66.25336     16.3 1.188e+04 1.600e-09
 66.27318     15.6 1.206e+04 1.660e-09
 66.29301     14.4 1.277e+04 1.935e-09
 66.31283      9.4 1.583e+04 3.442e-09
 66.33152      3.8 1.850e+04 8.272e-09
 66.34143      4.4 1.804e+04 8.250e-09
 66.35247      3.1 1.823e+04 1.636e-08
 66.36728      3.0 1.844e+04 2.699e-08
 66.37714      3.9 1.855e+04 3.253e-08
 66.38705      5.1 1.850e+04 3.694e-08
 66.39517      6.2 1.867e+04 3.707e-08
 66.40013      6.1 1.861e+04 2.868e-08
 66.40687      7.3 1.887e+04 2.642e-08
 66.41678      8.7 1.942e+04 2.142e-08
 66.43170      8.8 2.112e+04 1.061e-08
 66.44911      5.4 2.132e+04 3.755e-09
 66.45902      1.6 1.781e+04 2.666e-09
 66.47139     -4.8 1.220e+04 1.253e-09
 66.49121     -5.2 1.125e+04 1.085e-09
 66.52103     -3.7 1.116e+04 1.048e-09
 66.56077     -2.4 1.131e+04 9.668e-10
 66.59040     -2.0 1.135e+04 8.298e-10
 66.61013     -3.6 1.196e+04 8.879e-10
 66.62995    -15.1 2.154e+04 1.548e-09
 66.64476    -27.1 2.634e+04 5.615e-09
 66.65462    -35.3 2.688e+04 1.559e-08
 66.66453    -40.4 2.513e+04 4.743e-08
 66.67444    -42.6 2.328e+04 9.705e-08
 66.68418    -43.8 2.290e+04 1.191e-07
 66.68914    -43.4 2.286e+04 1.508e-07
 66.69426    -45.4 2.344e+04 1.391e-07
 66.70417    -48.2 2.733e+04 5.829e-08
 66.71408    -54.6 3.447e+04 1.312e-08
 66.72399    -67.0 3.286e+04 2.429e-09
 66.73390    -79.6 1.551e+04 1.168e-09
 66.74882    -82.4 1.086e+04 9.946e-10
 66.76869    -81.6 1.046e+04 8.675e-10
 66.78851    -80.7 1.015e+04 6.835e-10
 66.80186    -80.1 9.867e+03 5.273e-10
 66.81177    -79.6 9.954e+03 5.770e-10
 66.82815    -79.2 9.684e+03 4.560e-10
 66.84797    -78.7 9.480e+03 3.993e-10
 66.87780    -78.0 9.350e+03 3.636e-10
 66.90973    -77.1 9.025e+03 2.930e-10
 66.92955    -76.3 9.284e+03 3.581e-10
 66.95717    -75.4 8.982e+03 2.891e-10
 66.99681    -74.6 8.727e+03 2.328e-10
 67.03645    -74.0 8.569e+03 1.962e-10
 67.07609    -73.6 8.513e+03 1.819e-10
 67.11573    -73.4 8.503e+03 1.794e-10
 67.14490    -73.5 8.535e+03 1.864e-10
 67.16472    -73.1 8.711e+03 2.092e-10
 67.19501    -73.6 8.998e+03 2.497e-10
 67.23465    -74.5 9.348e+03 3.030e-10
 67.26239    -75.5 9.515e+03 3.277e-10
 67.27220    -76.0 9.803e+03 4.051e-10
 67.28401    -77.4 1.007e+04 5.116e-10
 67.30383    -78.5 1.030e+04 6.509e-10
 67.32365    -79.2 1.055e+04 8.116e-10
 67.34347    -79.7 1.078e+04 9.784e-10
 67.36329    -80.0 1.097e+04 1.114e-09
 67.37988    -80.3 1.106e+04 1.171e-09
 67.38979    -80.3 1.126e+04 1.277e-09
 67.40293    -80.5 1.115e+04 1.231e-09
 67.42275    -80.6 1.092e+04 1.116e-09
 67.44257    -80.5 1.067e+04 9.834e-10
 67.47240    -80.3 1.037e+04 8.086e-10
 67.51214    -79.9 9.552e+03 4.973e-10
 67.55178    -79.1 8.935e+03 3.182e-10
 67.59142    -78.1 8.380e+03 1.998e-10
 67.61524    -77.0 8.051e+03 1.345e-10
 67.62325    -77.0 7.974e+03 1.157e-10
 67.63907    -77.4 7.741e+03 7.469e-11
 67.67070    -76.2 7.685e+03 5.671e-11
 67.71034    -75.2 7.714e+03 5.000e-11
 67.74998    -74.5 7.737e+03 4.895e-11
 67.78962    -74.1 7.894e+03 5.756e-11
 67.82926    -73.6 8.072e+03 8.564e-11
 67.85041    -73.0 8.226e+03 1.180e-10
 67.87023    -72.9 8.251e+03 1.180e-10
 67.90854    -72.3 8.340e+03 1.363e-10
 67.94818    -71.9 8.360e+03 1.397e-10
 67.98782    -71.5 8.334e+03 1.329e-10
 68.02746    -71.1 8.279e+03 1.129e-10
 68.06576    -70.8 8.238e+03 9.874e-11
 68.08558    -70.9 8.215e+03 9.701e-11
 68.10674    -70.6 8.206e+03 9.532e-11
 68.14638    -70.1 8.205e+03 9.527e-11
 68.18602    -69.5 8.219e+03 9.623e-11
 68.22566    -68.8 8.246e+03 9.472e-11
 68.26530    -68.1 8.302e+03 8.248e-11
 68.30093    -67.6 8.357e+03 6.912e-11
 68.32075    -67.6 8.387e+03 7.353e-11
 68.34458    -67.2 8.432e+03 6.304e-11
 68.38422    -66.6 8.444e+03 5.457e-11
 68.42386    -65.9 8.424e+03 4.844e-11
 68.46350    -65.0 8.356e+03 4.457e-11
 68.50314    -64.1 8.319e+03 4.332e-11
 68.53610    -63.1 8.348e+03 4.346e-11
 68.55592    -63.0 8.289e+03 3.972e-11
 68.58242    -62.1 8.493e+03 4.133e-11
 68.62206    -61.4 8.659e+03 4.921e-11
 68.66170    -60.7 8.813e+03 6.326e-11
 68.70134    -60.0 8.960e+03 8.450e-11
 68.74098    -59.2 9.120e+03 1.140e-10
 68.77127    -58.3 9.291e+03 1.460e-10
 68.79109    -57.8 9.218e+03 1.285e-10
 68.82026    -56.7 9.380e+03 1.610e-10
 68.85990    -55.6 9.521e+03 1.792e-10
 68.89954    -54.5 9.591e+03 1.811e-10
 68.93918    -53.6 9.672e+03 1.745e-10
 68.97882    -53.3 9.812e+03 1.717e-10
 69.00644    -54.2 1.024e+04 1.880e-10
 69.02626    -55.8 1.164e+04 4.331e-10
 69.04810    -58.7 1.215e+04 6.171e-10
 69.06782    -61.5 1.318e+04 1.248e-09
 69.08729    -64.3 1.436e+04 2.638e-09
 69.09720    -63.3 1.363e+04 1.893e-09
 69.10746    -65.8 1.484e+04 3.440e-09
 69.12383    -68.0 1.576e+04 4.996e-09
 69.13374    -67.9 1.600e+04 5.519e-09
 69.14710    -70.9 1.622e+04 5.712e-09
 69.16692    -74.2 1.585e+04 4.773e-09
 69.18674    -77.5 1.464e+04 3.294e-09
 69.20656    -80.3 1.338e+04 2.221e-09
 69.22638    -82.2 1.249e+04 1.569e-09
 69.24141    -83.6 1.189e+04 1.151e-09
 69.25132    -82.9 1.192e+04 1.198e-09
 69.26602    -83.8 1.138e+04 8.728e-10
 69.28584    -84.6 1.089e+04 6.319e-10
 69.30566    -85.3 1.044e+04 4.600e-10
 69.32548    -86.0 1.006e+04 3.521e-10
 69.34530    -86.4 9.808e+03 3.038e-10
 69.37513    -86.5 9.710e+03 2.858e-10
 69.41487    -87.0 9.459e+03 2.598e-10
 69.45451    -87.3 9.227e+03 2.398e-10
 69.47678    -87.5 9.079e+03 2.209e-10
 69.49660    -86.8 8.958e+03 1.951e-10
 69.53379    -87.0 8.774e+03 1.569e-10
 69.57343    -87.2 8.639e+03 1.304e-10
 69.61307    -87.5 8.519e+03 1.160e-10
 69.65271    -87.6 8.421e+03 1.105e-10
 69.69213    -87.7 8.356e+03 1.085e-10
 69.71195    -87.1 8.255e+03 9.614e-11
 69.73199    -87.2 8.233e+03 9.697e-11
 69.77163    -87.4 8.209e+03 9.798e-11
 69.81127    -87.6 8.186e+03 9.883e-11
 69.85091    -88.0 8.184e+03 1.004e-10
 69.89055    -91.1 8.521e+03 1.087e-10
 69.92730    -98.7 1.106e+04 2.933e-10
 69.94712   -101.1 1.209e+04 5.013e-10
 69.95982   -104.8 1.295e+04 1.297e-09
 69.97954   -107.6 1.386e+04 2.268e-09
 69.99936   -110.9 1.441e+04 3.345e-09
 70.01918   -114.4 1.451e+04 3.513e-09
 70.03900   -118.0 1.398e+04 2.789e-09
 70.05460   -121.9 1.258e+04 1.484e-09
 70.06451   -123.9 1.198e+04 1.150e-09
 70.07864   -127.4 1.039e+04 5.980e-10
 70.09846   -129.3 9.923e+03 3.989e-10
 70.12829   -130.1 9.735e+03 2.947e-10
 70.16247   -130.9 9.550e+03 2.459e-10
 70.18229   -133.3 9.457e+03 2.247e-10
 70.20767   -134.5 9.270e+03 2.079e-10
 70.24731   -135.1 9.145e+03 2.044e-10
 70.28695   -135.5 9.068e+03 2.064e-10
 70.32659   -135.3 8.963e+03 2.043e-10
 70.36623   -134.9 8.936e+03 1.988e-10
 70.39764   -134.4 8.938e+03 1.986e-10
 70.41746   -135.9 9.213e+03 2.727e-10
 70.44551   -135.3 9.206e+03 2.713e-10
 70.48515   -134.8 9.201e+03 2.713e-10
 70.52479   -134.2 9.197e+03 2.720e-10
 70.55573   -133.7 9.202e+03 2.749e-10
 70.57555   -133.0 9.048e+03 2.185e-10
 70.60407   -132.8 9.148e+03 2.312e-10
 70.63281   -132.8 9.310e+03 2.551e-10
 70.65263   -134.3 9.230e+03 2.268e-10
 70.68335   -134.8 9.538e+03 2.726e-10
 70.72299   -135.7 9.946e+03 3.638e-10
 70.76263   -136.8 1.035e+04 5.066e-10
 70.80227   -137.8 1.064e+04 6.631e-10
 70.84191   -138.6 1.072e+04 7.494e-10
 70.86798   -139.2 1.068e+04 7.612e-10
 70.88780   -140.1 1.041e+04 6.511e-10
 70.92119   -140.0 9.991e+03 4.739e-10
 70.96083   -139.6 9.524e+03 2.802e-10
 71.00047   -139.4 9.172e+03 1.649e-10
 71.04011   -139.3 9.000e+03 1.112e-10
 71.07975   -139.1 8.963e+03 9.367e-11
 71.10315   -138.8 8.957e+03 9.006e-11
 71.12297   -139.3 8.910e+03 8.550e-11
 71.15903   -138.7 8.938e+03 8.720e-11
 71.19867   -138.2 8.997e+03 9.965e-11
 71.23831   -137.7 9.027e+03 1.163e-10
 71.27795   -137.1 9.043e+03 1.278e-10
 71.31759   -136.6 9.046e+03 1.307e-10
 71.33832   -136.0 9.015e+03 1.292e-10
 71.35814   -136.0 8.905e+03 9.127e-11
 71.39688   -135.4 8.809e+03 8.025e-11
 71.43652   -134.7 8.731e+03 7.308e-11
 71.47616   -134.0 8.700e+03 7.138e-11
 71.51580   -133.2 8.681e+03 7.221e-11
 71.55366   -132.5 8.670e+03 8.072e-11
 71.57348   -132.2 8.599e+03 7.604e-11
 71.59508   -131.4 8.628e+03 8.690e-11
 71.63472   -130.5 8.669e+03 9.551e-11
 71.67436   -130.1 8.734e+03 1.012e-10
 71.71400   -130.1 8.861e+03 1.097e-10
 71.75364   -131.5 9.265e+03 1.747e-10
 71.78883   -133.5 1.109e+04 5.770e-10
 71.80865   -134.2 1.183e+04 1.002e-09
 71.82291   -135.0 1.295e+04 2.057e-09
 71.84263   -135.7 1.363e+04 3.102e-09
 71.86245   -136.4 1.413e+04 4.152e-09
 71.88227   -137.2 1.426e+04 4.475e-09
 71.90209   -137.6 1.420e+04 4.475e-09
 71.91613   -137.8 1.377e+04 3.760e-09
 71.92604   -138.3 1.363e+04 3.321e-09
 71.94173   -139.1 1.299e+04 2.203e-09
 71.96155   -140.3 1.235e+04 1.463e-09
 71.98137   -141.8 1.185e+04 1.053e-09
 72.00119   -143.0 1.158e+04 8.453e-10
 72.02101   -143.9 1.151e+04 7.457e-10
 72.03369   -144.7 1.151e+04 6.960e-10
 72.04360   -146.4 1.159e+04 5.778e-10
 72.06065   -147.4 1.169e+04 5.563e-10
 72.08047   -148.4 1.172e+04 5.531e-10
 72.10029   -149.5 1.177e+04 5.548e-10
 72.12011   -150.6 1.190e+04 5.852e-10
 72.13993   -151.9 1.199e+04 6.657e-10
 72.15130   -153.0 1.211e+04 7.881e-10
 72.16121   -154.9 1.235e+04 1.001e-09
 72.17957   -156.0 1.258e+04 1.175e-09
 72.19939   -157.1 1.281e+04 1.360e-09
 72.21921   -158.2 1.301e+04 1.523e-09
 72.23903   -159.5 1.314e+04 1.638e-09
 72.25885   -160.6 1.316e+04 1.683e-09
 72.26889   -161.6 1.315e+04 1.694e-09
 72.27880   -163.6 1.328e+04 1.993e-09
 72.29849   -164.2 1.300e+04 1.806e-09
 72.31831   -164.4 1.271e+04 1.541e-09
 72.33813   -164.6 1.244e+04 1.280e-09
 72.35795   -164.7 1.215e+04 1.034e-09
 72.37656   -164.5 1.182e+04 8.126e-10
 72.38647   -165.3 1.174e+04 7.388e-10
 72.39759   -164.9 1.143e+04 5.763e-10
 72.41741   -164.4 1.120e+04 4.593e-10
 72.43723   -163.8 1.105e+04 3.809e-10
 72.46706   -162.9 1.101e+04 3.302e-10
 72.49434   -162.1 1.099e+04 3.223e-10
 72.51416   -162.9 1.111e+04 3.902e-10
 72.54644   -161.7 1.132e+04 4.644e-10
 72.58608   -160.9 1.160e+04 6.024e-10
 72.62572   -160.3 1.197e+04 8.193e-10
 72.66536   -160.1 1.232e+04 1.102e-09
 72.70500   -160.1 1.258e+04 1.358e-09
 72.72951   -160.4 1.272e+04 1.469e-09
 72.74933   -160.9 1.302e+04 1.770e-09
 72.76790   -161.2 1.286e+04 1.657e-09
 72.77772   -161.1 1.318e+04 1.885e-09
 72.79400   -161.4 1.318e+04 1.893e-09
 72.81382   -161.7 1.319e+04 1.801e-09
 72.83364   -162.2 1.335e+04 1.656e-09
 72.84690   -163.2 1.360e+04 1.538e-09
 72.85681   -164.1 1.496e+04 3.055e-09
 72.87328   -165.3 1.538e+04 3.309e-09
 72.89310   -166.8 1.558e+04 3.386e-09
 72.91292   -168.8 1.562e+04 3.388e-09
 72.93274   -171.1 1.556e+04 3.207e-09
 72.95256   -173.5 1.530e+04 3.021e-09
 72.96449   -175.9 1.504e+04 2.968e-09
 72.97440   -176.4 1.671e+04 5.008e-09
 72.99220   -178.9 1.613e+04 4.249e-09
 73.01202   -181.0 1.569e+04 3.912e-09
 73.03184   -182.7 1.557e+04 3.860e-09
 73.05166   -184.2 1.561e+04 3.949e-09
 73.07148   -185.8 1.599e+04 4.729e-09
 73.08207   -187.2 1.639e+04 6.035e-09
 73.09198   -189.0 1.637e+04 6.118e-09
 73.11112   -190.1 1.666e+04 7.257e-09
 73.13094   -191.5 1.671e+04 7.600e-09
 73.15076   -192.9 1.654e+04 7.404e-09
 73.17058   -194.3 1.604e+04 5.872e-09
 73.18975   -196.3 1.563e+04 4.448e-09
 73.19966   -199.1 1.585e+04 4.228e-09
 73.21022   -202.0 1.585e+04 3.976e-09
 73.23004   -204.7 1.590e+04 4.136e-09
 73.24986   -206.9 1.603e+04 5.070e-09
 73.26968   -208.4 1.611e+04 6.089e-09
 73.28950   -209.8 1.609e+04 6.463e-09
 73.30733   -211.2 1.591e+04 6.341e-09
 73.31724   -212.3 1.533e+04 5.107e-09
 73.32914   -213.6 1.477e+04 3.931e-09
 73.34896   -214.9 1.418e+04 2.959e-09
 73.36878   -216.1 1.365e+04 2.288e-09
 73.38860   -217.1 1.324e+04 1.856e-09
 73.40842   -217.8 1.294e+04 1.569e-09
 73.42492   -218.2 1.269e+04 1.354e-09
 73.43483   -218.1 1.244e+04 1.126e-09
 73.44806   -218.1 1.222e+04 9.847e-10
 73.46788   -218.0 1.200e+04 8.423e-10
 73.48770   -217.6 1.179e+04 7.069e-10
 73.50193   -216.8 1.165e+04 6.067e-10
 73.51184   -216.3 1.160e+04 4.795e-10
 73.53735   -216.1 1.153e+04 4.334e-10
 73.57709   -215.1 1.132e+04 3.672e-10
 73.61673   -213.6 1.110e+04 3.117e-10
 73.65037   -212.1 1.097e+04 2.710e-10
 73.67019   -211.6 1.092e+04 2.222e-10
 73.69601   -210.0 1.089e+04 1.961e-10
 73.73565   -208.4 1.089e+04 1.789e-10
 73.77529   -206.8 1.089e+04 1.702e-10
 73.81493   -205.1 1.089e+04 1.679e-10
 73.85457   -203.4 1.089e+04 1.682e-10
 73.88554   -201.8 1.096e+04 1.739e-10
 73.90536   -201.2 1.089e+04 1.358e-10
 73.93385   -199.7 1.097e+04 1.511e-10
 73.97349   -198.4 1.106e+04 1.862e-10
 74.01313   -197.1 1.116e+04 2.407e-10
 74.05277   -195.8 1.129e+04 3.089e-10
 74.09241   -194.6 1.141e+04 3.769e-10
 74.12071   -193.5 1.148e+04 4.238e-10
 74.14053   -193.3 1.154e+04 4.509e-10
 74.17169   -192.4 1.155e+04 4.667e-10
 74.21133   -191.4 1.148e+04 4.633e-10
 74.25097   -190.1 1.127e+04 4.024e-10
 74.29061   -188.5 1.106e+04 3.206e-10
 74.33025   -186.8 1.091e+04 2.547e-10
 74.35588   -185.1 1.083e+04 2.120e-10
 74.37570   -185.4 1.083e+04 2.314e-10
 74.40953   -183.6 1.079e+04 2.070e-10
 74.44917   -181.8 1.079e+04 1.907e-10
 74.48881   -180.0 1.079e+04 1.773e-10
 74.52845   -178.1 1.077e+04 1.649e-10
 74.56809   -176.3 1.072e+04 1.547e-10
 74.59105   -174.4 1.066e+04 1.473e-10
 74.61087   -174.7 1.064e+04 1.418e-10
 74.64737   -172.7 1.057e+04 1.335e-10
 74.68701   -170.6 1.051e+04 1.271e-10
 74.72665   -168.4 1.046e+04 1.213e-10
 74.76629   -166.2 1.043e+04 1.151e-10
 74.80593   -163.9 1.039e+04 1.081e-10
 74.82622   -161.5 1.036e+04 1.010e-10
 74.84604   -161.5 1.033e+04 8.976e-11
 74.88521   -159.0 1.031e+04 8.450e-11
 74.92485   -156.5 1.029e+04 8.024e-11
 74.96045   -153.9 1.028e+04 7.697e-11
 74.98027   -153.3 1.028e+04 7.706e-11
 75.00413   -150.7 1.027e+04 7.481e-11
 75.04157   -148.1 1.026e+04 7.319e-11
 75.06139   -148.0 1.024e+04 6.705e-11
 75.08341   -145.4 1.024e+04 6.611e-11
 75.12305   -142.7 1.025e+04 6.539e-11
 75.16269   -140.1 1.027e+04 6.517e-11
 75.20233   -137.5 1.032e+04 6.554e-11
 75.24197   -135.1 1.039e+04 6.901e-11
 75.27674   -132.7 1.042e+04 7.758e-11
 75.29656   -132.7 1.042e+04 7.769e-11
 75.32125   -130.3 1.044e+04 9.243e-11
 75.36089   -127.9 1.050e+04 1.175e-10
 75.40053   -125.6 1.060e+04 1.594e-10
 75.44017   -123.3 1.072e+04 2.237e-10
 75.47981   -121.1 1.084e+04 3.071e-10
 75.51191   -118.9 1.096e+04 3.956e-10
 75.53173   -118.7 1.097e+04 4.159e-10
 75.55910   -116.5 1.111e+04 5.007e-10
 75.59874   -114.5 1.120e+04 5.441e-10
 75.63838   -112.5 1.121e+04 5.549e-10
 75.67802   -110.5 1.117e+04 5.399e-10
 75.71766   -108.3 1.106e+04 4.837e-10
 75.74708   -106.1 1.093e+04 4.184e-10
 75.76690   -105.8 1.092e+04 4.302e-10
 75.79694   -103.5 1.081e+04 3.697e-10
 75.83658   -101.3 1.070e+04 3.252e-10
 75.87622    -99.1 1.062e+04 2.960e-10
 75.91586    -97.0 1.059e+04 2.792e-10
 75.95550    -94.8 1.060e+04 2.756e-10
 75.98225    -92.8 1.065e+04 2.783e-10
 76.00207    -92.0 1.059e+04 2.675e-10
 76.03478    -90.0 1.072e+04 2.812e-10
 76.07442    -88.1 1.082e+04 3.193e-10
 76.11406    -86.1 1.091e+04 3.650e-10
 76.15370    -84.1 1.094e+04 4.089e-10
 76.19334    -82.1 1.090e+04 4.417e-10
 76.21742    -80.0 1.085e+04 4.545e-10
 76.23724    -79.0 1.076e+04 3.932e-10
 76.27262    -76.9 1.070e+04 4.077e-10
 76.31226    -74.7 1.069e+04 4.133e-10
 76.35190    -72.5 1.075e+04 3.859e-10
 76.39154    -70.3 1.074e+04 3.703e-10
 76.42869    -68.1 1.078e+04 3.627e-10
 76.44851    -67.8 1.083e+04 4.294e-10
 76.45259    -65.7 1.084e+04 3.973e-10
 76.47241    -64.8 1.088e+04 4.211e-10
 76.51046    -63.0 1.095e+04 4.167e-10
 76.55010    -61.4 1.110e+04 4.487e-10
 76.58974    -60.0 1.122e+04 5.420e-10
 76.62938    -58.4 1.132e+04 6.860e-10
 76.66794    -56.8 1.142e+04 8.511e-10
 76.68776    -56.6 1.185e+04 1.280e-09
 76.70866    -54.8 1.191e+04 1.380e-09
 76.74830    -52.9 1.187e+04 1.372e-09
 76.78794    -50.9 1.186e+04 1.314e-09
 76.82758    -49.2 1.196e+04 1.378e-09
 76.86722    -47.8 1.228e+04 1.750e-09
 76.90311    -46.4 1.279e+04 2.632e-09
 76.92293    -46.4 1.311e+04 3.256e-09
 76.94650    -44.6 1.374e+04 4.596e-09
 76.98614    -43.5 1.396e+04 5.037e-09
 77.02578    -42.7 1.366e+04 4.435e-09
 77.06542    -41.5 1.297e+04 2.930e-09
 77.10506    -40.5 1.225e+04 1.696e-09
 77.13828    -39.9 1.183e+04 1.195e-09
 77.15810    -40.2 1.201e+04 1.353e-09
 77.18434    -39.3 1.182e+04 1.207e-09
 77.22398    -38.1 1.185e+04 1.260e-09
 77.26362    -37.0 1.195e+04 1.382e-09
 77.30326    -35.9 1.201e+04 1.518e-09
 77.34290    -34.5 1.203e+04 1.623e-09
 77.37344    -32.8 1.188e+04 1.394e-09
 77.39326    -33.5 1.174e+04 1.205e-09
 77.42218    -31.7 1.149e+04 8.536e-10
 77.46182    -30.1 1.128e+04 6.017e-10
 77.50146    -28.4 1.112e+04 4.476e-10
 77.54110    -26.7 1.097e+04 3.838e-10
 77.58075    -24.7 1.091e+04 3.717e-10
 77.60861    -22.6 1.092e+04 3.938e-10
 77.62843    -23.1 1.089e+04 3.875e-10
 77.66003    -20.7 1.082e+04 4.299e-10
 77.69967    -18.2 1.077e+04 4.409e-10
 77.73931    -15.8 1.078e+04 3.983e-10
 77.77895    -13.6 1.076e+04 3.525e-10
 77.81859    -11.4 1.065e+04 3.298e-10
 77.84378     -8.8 1.053e+04 2.864e-10
 77.86360     -8.9 1.047e+04 2.474e-10
 77.89693     -6.2 1.043e+04 1.880e-10
 77.91675     -6.3 1.044e+04 1.271e-10
 77.93751     -3.7 1.050e+04 9.577e-11
 77.97715     -1.6 1.047e+04 7.891e-11
 78.01679      0.7 1.029e+04 7.543e-11
 78.05643      3.2 1.025e+04 7.789e-11
 78.07895      5.7 1.021e+04 8.360e-11
 78.09877      5.9 1.019e+04 6.180e-11
 78.13571      8.7 1.018e+04 6.628e-11
 78.17535     11.4 1.018e+04 7.078e-11
 78.21499     14.1 1.018e+04 7.482e-11
 78.25463     16.7 1.022e+04 7.810e-11
 78.29427     19.3 1.024e+04 8.151e-11
 78.33391     22.2 1.026e+04 7.477e-11
 78.37355     24.9 1.029e+04 8.066e-11
 78.41319     27.5 1.030e+04 8.623e-11
 78.45283     30.2 1.032e+04 9.021e-11
 78.49247     32.9 1.035e+04 9.209e-11
 78.52947     35.5 1.038e+04 9.231e-11
 78.54929     35.7 1.040e+04 9.250e-11
 78.57175     38.2 1.043e+04 9.639e-11
 78.61139     40.7 1.046e+04 1.027e-10
 78.65103     43.0 1.049e+04 1.148e-10
 78.69067     45.4 1.053e+04 1.358e-10
 78.73031     47.7 1.059e+04 1.676e-10
 78.76464     50.1 1.065e+04 2.090e-10
 78.78446     50.4 1.070e+04 2.325e-10
 78.80959     52.7 1.076e+04 2.696e-10
 78.84923     55.0 1.079e+04 2.948e-10
 78.88887     57.1 1.082e+04 2.919e-10
 78.92851     59.1 1.080e+04 2.775e-10
 78.96815     61.3 1.076e+04 2.426e-10
 78.99981     63.4 1.075e+04 2.010e-10
 79.01963     63.7 1.071e+04 1.690e-10
 79.04743     65.6 1.072e+04 1.360e-10
 79.08707     67.4 1.073e+04 1.166e-10
 79.12671     69.3 1.071e+04 1.134e-10
 79.16635     71.2 1.070e+04 1.159e-10
 79.20599     73.1 1.068e+04 1.267e-10
 79.23498     75.0 1.063e+04 1.473e-10
 79.25480     75.2 1.058e+04 1.417e-10
 79.28527     77.1 1.052e+04 1.666e-10
 79.32491     78.8 1.051e+04 1.851e-10
 79.36455     80.4 1.053e+04 1.855e-10
 79.38499     81.8 1.053e+04 1.801e-10
 79.40481     82.6 1.063e+04 2.147e-10
 79.44383     83.9 1.061e+04 2.057e-10
 79.47015     85.0 1.054e+04 1.994e-10
 79.48997     85.0 1.054e+04 1.968e-10
 79.52311     85.8 1.057e+04 2.002e-10
 79.56275     86.3 1.066e+04 2.444e-10
 79.60239     86.9 1.087e+04 3.842e-10
 79.64204     87.7 1.113e+04 6.069e-10
 79.68168     88.2 1.126e+04 7.247e-10
 79.70532     88.6 1.123e+04 6.851e-10
 79.72514     87.7 1.122e+04 6.765e-10
 79.76096     88.0 1.108e+04 5.225e-10
 79.80060     88.3 1.086e+04 3.496e-10
 79.84024     88.5 1.052e+04 2.357e-10
 79.87988     89.2 1.038e+04 2.239e-10
 79.91952     90.4 1.036e+04 2.410e-10
 79.94049     91.8 1.038e+04 2.950e-10
 79.96031     91.4 1.056e+04 4.021e-10
 79.99880     93.0 1.063e+04 4.910e-10
 80.03844     94.5 1.071e+04 5.652e-10
 80.07808     96.0 1.075e+04 6.072e-10
 80.11772     97.6 1.077e+04 6.245e-10
 80.15584     99.0 1.076e+04 6.339e-10
 80.17556     99.0 1.095e+04 7.288e-10
 80.18689     99.7 1.098e+04 7.447e-10
 80.20671    100.5 1.101e+04 7.641e-10
 80.22653    101.2 1.105e+04 7.913e-10
 80.24635    101.9 1.109e+04 8.214e-10
 80.26617    102.5 1.114e+04 8.576e-10
 80.28314    103.2 1.120e+04 9.022e-10
 80.29305    102.9 1.120e+04 9.080e-10
 80.30581    103.5 1.128e+04 9.662e-10
 80.32563    104.1 1.138e+04 1.026e-09
 80.34545    104.6 1.149e+04 1.093e-09
 80.36527    105.0 1.160e+04 1.150e-09
 80.38509    105.5 1.169e+04 1.183e-09
 80.40072    105.8 1.176e+04 1.199e-09
 80.41063    105.7 1.161e+04 1.111e-09
 80.42473    106.1 1.160e+04 1.075e-09
 80.44455    106.5 1.152e+04 9.944e-10
 80.47438    107.1 1.153e+04 1.001e-09
 80.51412    107.9 1.158e+04 1.044e-09
 80.55376    108.7 1.175e+04 1.201e-09
 80.59340    109.1 1.208e+04 1.503e-09
 80.62618    109.0 1.244e+04 1.747e-09
 80.64600    109.3 1.213e+04 1.436e-09
 80.67268    109.0 1.219e+04 1.428e-09
 80.71232    108.6 1.211e+04 1.274e-09
 80.75196    108.3 1.180e+04 8.738e-10
 80.79160    108.1 1.136e+04 4.857e-10
 80.83124    107.6 1.097e+04 2.728e-10
 80.85324    107.2 1.089e+04 2.274e-10
 80.86352    106.4 1.072e+04 1.485e-10
 80.88117    107.4 1.078e+04 1.484e-10
 80.91052    106.9 1.072e+04 1.443e-10
 80.95016    106.1 1.074e+04 1.485e-10
 80.98980    104.4 1.098e+04 1.850e-10
 81.02944    102.1 1.137e+04 2.870e-10
 81.06908    100.0 1.172e+04 4.220e-10
 81.09642     98.5 1.195e+04 5.331e-10
 81.10623     98.7 1.197e+04 4.965e-10
 81.11844     97.3 1.218e+04 5.919e-10
 81.13826     95.7 1.236e+04 6.727e-10
 81.15808     94.0 1.246e+04 7.250e-10
 81.17790     92.3 1.246e+04 7.579e-10
 81.19772     90.6 1.240e+04 7.864e-10
 81.21391     89.1 1.233e+04 8.220e-10
 81.22382     88.8 1.226e+04 7.953e-10
 81.23736     87.5 1.221e+04 8.553e-10
 81.25718     86.5 1.219e+04 9.178e-10
 81.27700     85.7 1.219e+04 9.761e-10
 81.29682     85.0 1.221e+04 1.031e-09
 81.31664     84.4 1.226e+04 1.094e-09
 81.33149     83.8 1.237e+04 1.187e-09
 81.34140     83.6 1.237e+04 1.190e-09
 81.35628     82.8 1.260e+04 1.334e-09
 81.37610     81.8 1.292e+04 1.551e-09
 81.39592     80.7 1.327e+04 1.866e-09
 81.41574     79.7 1.361e+04 2.318e-09
 81.43556     78.4 1.417e+04 3.051e-09
 81.44908     76.5 1.506e+04 4.230e-09
 81.45899     75.5 1.502e+04 3.906e-09
 81.47520     73.4 1.583e+04 4.943e-09
 81.49001     71.8 1.674e+04 5.930e-09
 81.49988     68.9 1.816e+04 8.062e-09
 81.50777     65.6 1.918e+04 1.204e-08
 81.51273     64.6 1.893e+04 1.204e-08
 81.51970     62.8 1.894e+04 1.805e-08
 81.52961     62.6 1.907e+04 2.382e-08
 81.53952     62.3 1.938e+04 2.509e-08
 81.54943     61.3 1.931e+04 2.317e-08
 81.55934     60.6 1.915e+04 2.189e-08
 81.56661     59.1 1.882e+04 1.440e-08
 81.57657     59.0 1.849e+04 1.437e-08
 81.58716     55.8 1.769e+04 6.928e-09
 81.59707     57.2 1.798e+04 8.877e-09
 81.61394     52.3 1.655e+04 3.848e-09
 81.63376     47.1 1.406e+04 2.305e-09
 81.65358     45.7 1.309e+04 2.091e-09
 81.67340     45.8 1.294e+04 2.011e-09
 81.68425     46.0 1.289e+04 1.919e-09
 81.69416     46.9 1.301e+04 2.105e-09
 81.71304     47.0 1.297e+04 2.009e-09
 81.73286     47.0 1.290e+04 1.877e-09
 81.75268     47.1 1.281e+04 1.707e-09
 81.77250     47.2 1.262e+04 1.497e-09
 81.79192     47.6 1.232e+04 1.289e-09
 81.80183     48.1 1.247e+04 1.548e-09
 81.81214     48.5 1.215e+04 1.314e-09
 81.83196     49.0 1.205e+04 1.087e-09
 81.85178     49.5 1.211e+04 1.000e-09
 81.87160     48.9 1.396e+04 1.075e-09
 81.89142     44.1 2.657e+04 1.568e-09
 81.90624     38.8 3.925e+04 2.197e-09
 81.91436     33.2 4.781e+04 3.040e-09
 81.91937     38.2 2.894e+04 1.780e-09
 81.92606     19.1 5.100e+04 3.598e-09
 81.93592     10.9 3.077e+04 4.510e-08
 81.94583      9.7 2.243e+04 2.620e-07
 81.95412     10.6 2.084e+04 4.343e-07
 81.95908     12.4 2.252e+04 1.597e-07
 81.96565     13.2 2.112e+04 2.512e-07
 81.97316     13.9 2.098e+04 2.793e-07
 81.97811     13.4 2.101e+04 2.949e-07
 81.98547     14.6 2.105e+04 2.535e-07
 81.99538     15.8 2.119e+04 1.845e-07
 82.00529     17.8 2.100e+04 1.153e-07
 82.01520     18.3 2.237e+04 6.357e-08
 82.02511     19.0 2.350e+04 2.653e-08
 82.03195     17.6 2.443e+04 1.298e-08
 82.03690     18.8 2.375e+04 2.426e-08
 82.04993     19.0 2.233e+04 1.187e-08
 82.06980     18.2 2.055e+04 3.722e-09
 82.08962     17.6 1.658e+04 9.423e-10
 82.10944     16.4 1.203e+04 3.888e-10
 82.12926     17.5 9.475e+03 2.437e-10
 82.14468     18.6 9.364e+03 2.290e-10
 82.15459     19.1 9.693e+03 2.552e-10
 82.16890     21.1 9.153e+03 2.046e-10
 82.18872     22.1 9.244e+03 2.079e-10
 82.21855     24.6 9.149e+03 1.772e-10
 82.25255     27.3 9.035e+03 1.528e-10
 82.27237     27.9 9.277e+03 2.259e-10
 82.29793     30.5 9.168e+03 2.093e-10
 82.32148     32.6 8.902e+03 1.743e-10
 82.34130     33.9 9.266e+03 2.346e-10
 82.37721     35.9 9.009e+03 1.935e-10
 82.41685     37.6 8.731e+03 1.489e-10
 82.45649     38.7 8.619e+03 1.200e-10
 82.48772     39.6 8.672e+03 1.188e-10
 82.50754     40.8 8.765e+03 1.432e-10
 82.53577     41.5 8.823e+03 1.485e-10
 82.57541     41.9 8.952e+03 1.741e-10
 82.61505     42.2 9.174e+03 2.253e-10
 82.65469     42.2 9.481e+03 2.885e-10
 82.69433     41.6 9.836e+03 3.590e-10
 82.72279     40.2 1.005e+04 4.204e-10
 82.73260     39.9 1.005e+04 4.120e-10
 82.74368     38.9 1.028e+04 5.451e-10
 82.76350     38.2 1.057e+04 7.451e-10
 82.78333     37.8 1.096e+04 9.793e-10
 82.80315     37.6 1.142e+04 1.242e-09
 82.82297     37.1 1.193e+04 1.516e-09
 82.84028     36.0 1.255e+04 1.877e-09
 82.85019     34.8 1.291e+04 2.216e-09
 82.86261     33.3 1.353e+04 2.908e-09
 82.88243     32.2 1.407e+04 3.925e-09
 82.90225     31.6 1.452e+04 5.049e-09
 82.92207     31.1 1.483e+04 5.803e-09
 82.94189     30.7 1.495e+04 5.926e-09
 82.95786     30.1 1.493e+04 5.738e-09
 82.96777     30.1 1.495e+04 5.724e-09
 82.98153     29.6 1.478e+04 5.123e-09
 83.00135     28.9 1.444e+04 4.251e-09
 83.02117     28.0 1.402e+04 3.285e-09
 83.04099     26.6 1.357e+04 2.409e-09
 83.05540     24.9 1.311e+04 1.706e-09
 83.06531     24.7 1.280e+04 1.213e-09
 83.07544     21.8 1.239e+04 8.907e-10
 83.08535     21.5 1.244e+04 8.735e-10
 83.10045     17.9 1.244e+04 8.753e-10
 83.12027     15.4 1.206e+04 9.584e-10
 83.14009     14.8 1.184e+04 1.020e-09
 83.15991     14.1 1.224e+04 1.155e-09
 83.17973     13.7 1.250e+04 1.233e-09
 83.19303     12.9 1.282e+04 1.371e-09
 83.20294     11.8 1.321e+04 1.543e-09
 83.21937     12.0 1.306e+04 1.616e-09
 83.23919     12.5 1.300e+04 1.632e-09
 83.25901     13.3 1.296e+04 1.549e-09
 83.27883     14.5 1.291e+04 1.321e-09
 83.29865     15.4 1.294e+04 1.109e-09
 83.31061     15.9 1.293e+04 9.688e-10
 83.32052     15.1 1.310e+04 1.163e-09
 83.33829     15.8 1.293e+04 1.026e-09
 83.35811     16.5 1.276e+04 9.754e-10
 83.37793     17.5 1.276e+04 9.944e-10
 83.39775     18.4 1.278e+04 1.069e-09
 83.41757     19.4 1.275e+04 1.168e-09
 83.42820     20.6 1.273e+04 1.287e-09
 83.43811     20.2 1.276e+04 1.327e-09
 83.45721     21.6 1.281e+04 1.464e-09
 83.47703     22.8 1.285e+04 1.571e-09
 83.49685     24.0 1.284e+04 1.628e-09
 83.51667     25.3 1.280e+04 1.668e-09
 83.53587     26.6 1.275e+04 1.689e-09
 83.54578     26.5 1.259e+04 1.614e-09
 83.55631     27.8 1.252e+04 1.579e-09
 83.57613     29.1 1.238e+04 1.490e-09
 83.59595     30.4 1.234e+04 1.431e-09
 83.61577     31.5 1.236e+04 1.415e-09
 83.63559     32.5 1.238e+04 1.420e-09
 83.65346     33.6 1.240e+04 1.447e-09
 83.66337     33.6 1.248e+04 1.268e-09
 83.67523     34.8 1.256e+04 1.363e-09
 83.69505     36.0 1.276e+04 1.511e-09
 83.71487     37.0 1.303e+04 1.692e-09
 83.73469     37.8 1.338e+04 1.946e-09
 83.75451     38.5 1.392e+04 2.406e-09
 83.77104     39.1 1.460e+04 3.187e-09
 83.78095     38.6 1.466e+04 3.147e-09
 83.78952     39.1 1.532e+04 4.274e-09
 83.79943     37.9 1.543e+04 4.643e-09
 83.81397     38.6 1.588e+04 5.497e-09
 83.83379     39.2 1.637e+04 6.388e-09
 83.85361     39.7 1.689e+04 7.123e-09
 83.87343     39.7 1.735e+04 7.779e-09
 83.88863     39.3 1.768e+04 8.539e-09
 83.89854     38.1 1.740e+04 8.854e-09
 83.91307     37.7 1.740e+04 9.962e-09
 83.93289     37.6 1.732e+04 1.138e-08
 83.95271     37.7 1.690e+04 1.176e-08
 83.97253     38.3 1.656e+04 1.057e-08
 83.99235     39.4 1.598e+04 8.119e-09
 84.00621     40.3 1.526e+04 5.473e-09
 84.01612     40.1 1.409e+04 2.457e-09
 84.03199     40.0 1.333e+04 1.536e-09
 84.05181     39.9 1.244e+04 9.719e-10
 84.07163     40.2 1.174e+04 6.980e-10
 84.09145     40.9 1.138e+04 5.592e-10
 84.11127     42.6 1.145e+04 5.138e-10
 84.12380     42.9 1.147e+04 5.110e-10
 84.13381     41.8 1.082e+04 4.070e-10
 84.16102     43.7 1.049e+04 3.061e-10
 84.20066     45.5 1.013e+04 2.466e-10
 84.24030     47.4 9.881e+03 2.379e-10
 84.27994     49.6 9.841e+03 2.427e-10
 84.31958     51.7 9.836e+03 2.676e-10
 84.34925     53.7 9.936e+03 3.057e-10
 84.36907     53.6 9.743e+03 2.713e-10
 84.39886     55.5 9.785e+03 2.906e-10
 84.43850     57.4 9.838e+03 3.154e-10
 84.47814     59.2 9.893e+03 3.473e-10
 84.51778     61.0 9.922e+03 3.754e-10
 84.55742     62.7 9.951e+03 3.988e-10
 84.58442     64.4 9.964e+03 4.160e-10
 84.60424     64.4 9.619e+03 3.027e-10
 84.63670     66.2 9.632e+03 2.955e-10
 84.67634     68.0 9.636e+03 2.824e-10
 84.71598     69.6 9.628e+03 2.751e-10
 84.74561     70.5 9.543e+03 2.770e-10
 84.76533     70.9 9.542e+03 2.813e-10
 84.78515     71.5 9.593e+03 3.064e-10
 84.80497     72.1 9.789e+03 3.639e-10
 84.81940     72.7 1.021e+04 4.864e-10
 84.82931     72.8 9.603e+03 3.740e-10
 84.84461     73.5 9.880e+03 4.655e-10
 84.86444     74.2 1.033e+04 6.219e-10
 84.88426     74.7 1.092e+04 8.694e-10
 84.90408     75.2 1.157e+04 1.222e-09
 84.92390     75.7 1.222e+04 1.681e-09
 84.93698     76.2 1.283e+04 2.249e-09
 84.94689     76.6 1.127e+04 1.155e-09
 84.96354     77.0 1.181e+04 1.489e-09
 84.98336     77.2 1.246e+04 1.945e-09
 85.00318     77.2 1.316e+04 2.596e-09
 85.02300     77.3 1.385e+04 3.515e-09
 85.04282     77.4 1.446e+04 4.731e-09
 85.05457     77.8 1.493e+04 6.118e-09
 85.06448     78.1 1.368e+04 3.671e-09
 85.08246     78.5 1.421e+04 4.743e-09
 85.10228     79.2 1.453e+04 5.649e-09
 85.12210     79.9 1.455e+04 5.887e-09
 85.14192     80.8 1.441e+04 5.628e-09
 85.16174     81.8 1.402e+04 4.783e-09
 85.17215     82.7 1.360e+04 3.938e-09
 85.18206     82.8 1.369e+04 4.010e-09
 85.20138     82.8 1.411e+04 3.839e-09
 85.22120     81.6 1.520e+04 4.235e-09
 85.24102     79.2 1.713e+04 5.565e-09
 85.25776     76.8 1.841e+04 8.031e-09
 85.26767     78.3 1.849e+04 8.210e-09
 85.27983     76.5 1.909e+04 1.233e-08
 85.28969     75.1 1.959e+04 2.498e-08
 85.29542     75.3 1.938e+04 2.461e-08
 85.30533     75.4 1.913e+04 2.411e-08
 85.32025     75.6 1.877e+04 2.214e-08
 85.34012     75.4 1.783e+04 1.565e-08
 85.35994     74.7 1.702e+04 1.094e-08
 85.37976     73.3 1.631e+04 7.644e-09
 85.39741     72.0 1.545e+04 5.418e-09
 85.40732     69.9 1.338e+04 2.292e-09
 85.41940     69.2 1.227e+04 1.745e-09
 85.43922     69.3 1.168e+04 1.521e-09
 85.45904     69.9 1.140e+04 1.419e-09
 85.47886     70.7 1.128e+04 1.351e-09
 85.49868     71.5 1.121e+04 1.272e-09
 85.51500     72.2 1.110e+04 1.166e-09
 85.52491     71.6 1.038e+04 6.899e-10
 85.53832     72.3 1.032e+04 6.408e-10
 85.55814     72.9 1.025e+04 5.927e-10
 85.57796     73.6 1.022e+04 5.450e-10
 85.59778     74.0 1.019e+04 5.068e-10
 85.61760     74.7 1.013e+04 4.786e-10
 85.63258     75.3 1.010e+04 4.621e-10
 85.64249     75.0 9.958e+03 3.829e-10
 85.66725     76.5 1.002e+04 4.130e-10
 85.70698     78.0 9.986e+03 4.146e-10
 85.74045     79.2 9.925e+03 4.254e-10
 85.76027     79.1 9.897e+03 3.975e-10
 85.78626     80.0 9.876e+03 4.172e-10
 85.81590     80.3 9.844e+03 4.146e-10
 85.83562     80.6 9.945e+03 4.343e-10
 85.85544     80.4 1.020e+04 4.941e-10
 85.86775     79.9 1.049e+04 5.826e-10
 85.87766     79.7 1.045e+04 5.777e-10
 85.89508     78.9 1.076e+04 7.392e-10
 85.91490     78.1 1.108e+04 9.854e-10
 85.93472     77.2 1.144e+04 1.319e-09
 85.95454     76.3 1.180e+04 1.717e-09
 85.97436     75.3 1.217e+04 2.028e-09
 85.98534     73.8 1.253e+04 2.157e-09
 85.99295     74.5 1.215e+04 1.802e-09
 86.00179     75.9 1.229e+04 2.071e-09
 86.01400     74.2 1.261e+04 2.173e-09
 86.03382     71.9 1.290e+04 2.219e-09
 86.05364     68.9 1.322e+04 2.276e-09
 86.07346     65.7 1.337e+04 2.305e-09
 86.09301     62.7 1.333e+04 2.264e-09
 86.10292     64.5 1.301e+04 2.022e-09
 86.11310     62.1 1.291e+04 1.951e-09
 86.13292     59.8 1.261e+04 1.653e-09
 86.15274     58.6 1.225e+04 1.431e-09
 86.18257     57.1 1.178e+04 1.142e-09
 86.21079     55.9 1.152e+04 1.009e-09
 86.22060     56.9 1.174e+04 1.156e-09
 86.23202     56.5 1.171e+04 1.155e-09
 86.25184     55.9 1.176e+04 1.203e-09
 86.27166     55.6 1.183e+04 1.298e-09
 86.29148     55.7 1.191e+04 1.404e-09
 86.31130     56.0 1.197e+04 1.499e-09
 86.32818     56.4 1.201e+04 1.499e-09
 86.33809     56.9 1.199e+04 1.539e-09
 86.35094     57.2 1.198e+04 1.488e-09
 86.38077     57.5 1.181e+04 1.321e-09
 86.42051     58.2 1.157e+04 1.155e-09
 86.44596     59.2 1.128e+04 9.509e-10
 86.46578     59.8 1.098e+04 7.900e-10
 86.49979     61.0 1.084e+04 7.317e-10
 86.53943     62.5 1.090e+04 7.407e-10
 86.57907     64.2 1.098e+04 7.573e-10
 86.61871     65.8 1.100e+04 7.607e-10
 86.65835     67.6 1.100e+04 7.233e-10
 86.68113     69.4 1.089e+04 6.453e-10
 86.70095     70.1 1.084e+04 6.446e-10
 86.72620     72.1 1.071e+04 5.564e-10
 86.74602     71.7 1.074e+04 5.607e-10
 86.77727     73.7 1.067e+04 4.985e-10
 86.81691     75.6 1.067e+04 4.494e-10
 86.85655     77.3 1.070e+04 4.127e-10
 86.89619     79.0 1.071e+04 3.917e-10
 86.91630     80.7 1.071e+04 3.839e-10
 86.93612     81.3 1.091e+04 5.344e-10
 86.97547     82.9 1.090e+04 5.249e-10
 87.01511     84.6 1.084e+04 4.983e-10
 87.05475     86.4 1.073e+04 4.541e-10
 87.09439     88.3 1.060e+04 3.998e-10
 87.13165     90.3 1.046e+04 3.480e-10
 87.15147     90.6 1.057e+04 3.686e-10
 87.17367     92.6 1.043e+04 3.017e-10
 87.21331     94.6 1.035e+04 2.543e-10
 87.25295     96.5 1.033e+04 2.249e-10
 87.29259     98.6 1.035e+04 2.153e-10
 87.33223    100.7 1.035e+04 2.192e-10
 87.36682    102.9 1.036e+04 2.280e-10
 87.38664    103.1 1.044e+04 2.790e-10
 87.41151    105.4 1.049e+04 3.083e-10
 87.45115    107.7 1.070e+04 3.685e-10
 87.49079    110.0 1.100e+04 4.580e-10
 87.53043    111.7 1.121e+04 5.531e-10
 87.56007    112.5 1.127e+04 6.566e-10
 87.57979    113.6 1.140e+04 8.107e-10
 87.59961    114.9 1.162e+04 1.021e-09
 87.61170    116.2 1.188e+04 1.259e-09
 87.62161    116.3 1.191e+04 1.311e-09
 87.63925    117.5 1.215e+04 1.557e-09
 87.65907    118.7 1.239e+04 1.805e-09
 87.67889    119.8 1.265e+04 2.089e-09
 87.69871    120.8 1.291e+04 2.422e-09
 87.71853    121.9 1.323e+04 2.805e-09
 87.72929    122.8 1.365e+04 3.314e-09
 87.73920    122.8 1.326e+04 2.221e-09
 87.75817    123.7 1.363e+04 2.447e-09
 87.77799    124.4 1.401e+04 2.681e-09
 87.79781    125.1 1.442e+04 2.962e-09
 87.81763    125.6 1.478e+04 3.284e-09
 87.83696    125.8 1.501e+04 3.543e-09
 87.84687    124.7 1.340e+04 1.530e-09
 87.85727    124.6 1.371e+04 1.898e-09
 87.87709    124.3 1.449e+04 2.674e-09
 87.89691    123.8 1.529e+04 3.514e-09
 87.91173    121.5 1.727e+04 4.752e-09
 87.92159    116.8 2.026e+04 8.837e-09
 87.93150    112.0 2.167e+04 2.024e-08
 87.94141    109.3 2.158e+04 4.260e-08
 87.95132    108.4 2.125e+04 7.177e-08
 87.95940    108.0 2.116e+04 8.504e-08
 87.96436    108.1 2.107e+04 8.589e-08
 87.97114    107.5 2.103e+04 8.186e-08
 87.98105    107.0 2.094e+04 6.367e-08
 87.99096    106.1 2.088e+04 4.018e-08
 88.00087    104.9 2.081e+04 2.322e-08
 88.01578    101.2 1.981e+04 9.058e-09
 88.03565     95.0 1.655e+04 2.763e-09
 88.05547     91.7 1.363e+04 1.929e-09
 88.07213     92.6 1.349e+04 1.785e-09
 88.09205     93.7 1.341e+04 1.892e-09
 88.12504     95.5 1.291e+04 1.470e-09
 88.16468     98.0 1.252e+04 1.107e-09
 88.19444    100.4 1.219e+04 8.288e-10
 88.21426    100.4 1.204e+04 6.652e-10
 88.24396    102.8 1.178e+04 5.759e-10
 88.28360    105.4 1.173e+04 5.717e-10
 88.30750    108.2 1.176e+04 5.801e-10
 88.32732    108.6 1.175e+04 5.759e-10
 88.36288    111.4 1.191e+04 6.156e-10
 88.40252    114.0 1.208e+04 6.704e-10
 88.42498    115.3 1.214e+04 7.285e-10
 88.43480    115.2 1.217e+04 7.302e-10
 88.45187    116.1 1.235e+04 8.194e-10
 88.47169    116.9 1.268e+04 9.930e-10
 88.49151    117.3 1.324e+04 1.321e-09
 88.51133    117.1 1.404e+04 1.974e-09
 88.53115    116.6 1.493e+04 3.200e-09
 88.54247    116.1 1.575e+04 5.174e-09
 88.55238    115.2 1.541e+04 5.014e-09
 88.57079    114.8 1.576e+04 6.369e-09
 88.59061    114.4 1.586e+04 6.744e-09
 88.61043    113.7 1.582e+04 6.195e-09
 88.63025    112.7 1.576e+04 5.101e-09
 88.65007    111.3 1.561e+04 3.815e-09
 88.66989    107.9 1.387e+04 1.820e-09
 88.68971    106.0 1.350e+04 1.796e-09
 88.70953    104.7 1.345e+04 1.884e-09
 88.72935    103.7 1.352e+04 2.262e-09
 88.74917    103.0 1.384e+04 2.943e-09
 88.76773    102.5 1.429e+04 3.828e-09
 88.77764    103.1 1.387e+04 3.113e-09
 88.78881    102.9 1.420e+04 3.627e-09
 88.80863    102.6 1.444e+04 3.999e-09
 88.82845    102.4 1.456e+04 4.165e-09
 88.84827    102.1 1.456e+04 4.169e-09
 88.86809    101.9 1.452e+04 4.128e-09
 88.88532    101.9 1.448e+04 4.040e-09
 88.89523    102.1 1.414e+04 3.397e-09
 88.90773    102.0 1.426e+04 3.683e-09
 88.92755    101.9 1.450e+04 4.165e-09
 88.93827    102.0 1.484e+04 4.842e-09
 88.94818    101.9 1.535e+04 6.250e-09
 88.96719    102.3 1.575e+04 7.387e-09
 88.98702    102.7 1.606e+04 8.354e-09
 89.00290    102.8 1.612e+04 8.376e-09
 89.01281    103.2 1.606e+04 8.452e-09
 89.02666    103.4 1.593e+04 8.070e-09
 89.04648    104.0 1.556e+04 6.976e-09
 89.06630    104.7 1.506e+04 5.605e-09
 89.08612    105.3 1.462e+04 4.371e-09
 89.10594    105.8 1.429e+04 3.453e-09
 89.12048    106.2 1.405e+04 2.836e-09
 89.13039    106.7 1.367e+04 2.358e-09
 89.14558    107.0 1.348e+04 1.982e-09
 89.16540    107.3 1.332e+04 1.750e-09
 89.18522    107.9 1.311e+04 1.579e-09
 89.20504    108.3 1.306e+04 1.553e-09
 89.22826    109.6 1.307e+04 1.602e-09
 89.24817    110.4 1.254e+04 1.211e-09
 89.27460    112.3 1.240e+04 1.071e-09
 89.31424    114.1 1.233e+04 9.601e-10
 89.35388    115.9 1.227e+04 8.798e-10
 89.39352    117.8 1.220e+04 8.249e-10
 89.43316    119.7 1.208e+04 7.895e-10
 89.46352    121.9 1.194e+04 7.424e-10
 89.48325    122.9 1.175e+04 6.249e-10
 89.50234    124.0 1.174e+04 6.280e-10
 89.52216    125.2 1.175e+04 6.346e-10
 89.55199    127.3 1.185e+04 6.500e-10
 89.59172    129.8 1.195e+04 6.803e-10
 89.62136    131.0 1.198e+04 7.100e-10
 89.64108    132.2 1.201e+04 7.268e-10
 89.66090    133.3 1.204e+04 7.423e-10
 89.67239    134.5 1.208e+04 7.552e-10
 89.68230    134.4 1.214e+04 8.155e-10
 89.69850    135.6 1.221e+04 8.368e-10
 89.70841    135.9 1.219e+04 8.167e-10
 89.72036    137.0 1.226e+04 8.299e-10
 89.74018    138.0 1.233e+04 8.464e-10
 89.76000    139.0 1.239e+04 8.662e-10
 89.77982    140.0 1.246e+04 9.044e-10
 89.79964    140.9 1.256e+04 9.596e-10
 89.81608    141.7 1.266e+04 1.041e-09
 89.82599    141.8 1.257e+04 1.036e-09
 89.83928    142.6 1.265e+04 1.112e-09
 89.85910    143.5 1.278e+04 1.232e-09
 89.87892    144.2 1.288e+04 1.326e-09
 89.90875    145.0 1.320e+04 1.579e-09
 89.93386    145.9 1.326e+04 1.664e-09
 89.95368    145.7 1.305e+04 1.552e-09
 89.98813    146.4 1.299e+04 1.526e-09
 90.02777    147.0 1.282e+04 1.450e-09
 90.06741    147.5 1.265e+04 1.391e-09
 90.10705    147.6 1.249e+04 1.336e-09
 90.14669    147.4 1.226e+04 1.215e-09
 90.16903    147.4 1.186e+04 9.484e-10
 90.18885    147.9 1.189e+04 9.449e-10
 90.22597    148.2 1.144e+04 6.619e-10
 90.26561    148.8 1.096e+04 4.205e-10
 90.30525    149.4 1.047e+04 2.699e-10
 90.34489    150.4 1.020e+04 2.289e-10
 90.38438    151.8 1.015e+04 2.253e-10
 90.42402    153.4 1.026e+04 2.729e-10
 90.46381    155.3 1.033e+04 2.981e-10
 90.50345    157.3 1.056e+04 3.556e-10
 90.53308    158.2 1.063e+04 3.842e-10
 90.55280    158.9 1.068e+04 4.205e-10
 90.57262    159.6 1.074e+04 4.866e-10
 90.59244    160.4 1.085e+04 5.808e-10
 90.61226    161.4 1.101e+04 7.016e-10
 90.62927    162.5 1.124e+04 8.496e-10
 90.63918    162.6 1.108e+04 8.456e-10
 90.65190    163.7 1.136e+04 1.024e-09
 90.67172    164.7 1.170e+04 1.252e-09
 90.69154    165.5 1.219e+04 1.578e-09
 90.71136    165.9 1.280e+04 2.072e-09
 90.73118    165.9 1.365e+04 2.919e-09
 90.74685    165.7 1.470e+04 4.397e-09
 90.75676    165.6 1.480e+04 3.642e-09
 90.77082    165.5 1.562e+04 5.089e-09
 90.78564    165.5 1.590e+04 5.878e-09
 90.79550    165.3 1.642e+04 7.416e-09
 90.80541    164.9 1.699e+04 9.483e-09
 90.81050    164.2 1.770e+04 1.217e-08
 90.81546    163.4 1.786e+04 1.119e-08
 90.82523    162.1 1.863e+04 1.624e-08
 90.83514    161.0 1.930e+04 2.434e-08
 90.84505    160.4 1.991e+04 3.650e-08
 90.85496    160.3 2.047e+04 5.174e-08
 90.86434    160.2 2.112e+04 6.349e-08
 90.86929    160.7 2.107e+04 9.410e-08
 90.87478    160.4 2.184e+04 1.025e-07
 90.88469    158.9 2.194e+04 9.754e-08
 90.89460    157.6 2.193e+04 7.482e-08
 90.90451    156.7 2.160e+04 4.285e-08
 90.91442    155.7 2.103e+04 2.175e-08
 90.92934    153.2 1.944e+04 8.686e-09
 90.94920    148.0 1.516e+04 3.006e-09
 90.96902    144.4 1.259e+04 2.503e-09
 90.98202    144.4 1.243e+04 2.458e-09
 90.99193    145.0 1.243e+04 2.271e-09
 91.00866    145.4 1.239e+04 2.260e-09
 91.02848    146.1 1.244e+04 2.301e-09
 91.04831    146.8 1.275e+04 2.540e-09
 91.06813    147.2 1.340e+04 3.107e-09
 91.08795    147.5 1.426e+04 4.099e-09
 91.09961    147.7 1.521e+04 5.678e-09
 91.10952    148.5 1.450e+04 4.319e-09
 91.12759    148.7 1.538e+04 5.714e-09
 91.14064    148.8 1.624e+04 7.271e-09
 91.15055    148.2 1.638e+04 7.185e-09
 91.16723    147.8 1.687e+04 7.816e-09
 91.18705    147.2 1.696e+04 7.629e-09
 91.20687    146.3 1.681e+04 6.712e-09
 91.21719    145.3 1.630e+04 5.312e-09
 91.22710    144.9 1.521e+04 3.719e-09
 91.24651    143.6 1.451e+04 2.996e-09
 91.26633    142.5 1.389e+04 2.547e-09
 91.28615    141.8 1.342e+04 2.286e-09
 91.30597    141.3 1.347e+04 2.267e-09
 91.32487    140.9 1.366e+04 2.332e-09
 91.33478    140.5 1.444e+04 3.258e-09
 91.34561    140.3 1.485e+04 3.784e-09
 91.36543    140.0 1.510e+04 4.276e-09
 91.38525    139.4 1.510e+04 4.625e-09
 91.40507    138.5 1.504e+04 4.930e-09
 91.42489    137.3 1.515e+04 5.386e-09
 91.44245    135.9 1.552e+04 6.170e-09
 91.45236    135.8 1.589e+04 6.292e-09
 91.46453    134.3 1.615e+04 6.973e-09
 91.48435    133.1 1.654e+04 8.151e-09
 91.50417    132.3 1.702e+04 9.402e-09
 91.52399    131.3 1.746e+04 9.694e-09
 91.54381    129.8 1.758e+04 9.205e-09
 91.56004    127.3 1.775e+04 7.756e-09
 91.56995    125.9 1.674e+04 5.909e-09
 91.58345    122.6 1.630e+04 4.940e-09
 91.60327    118.7 1.568e+04 4.340e-09
 91.62309    114.7 1.518e+04 4.113e-09
 91.64291    111.0 1.503e+04 4.097e-09
 91.66273    107.8 1.510e+04 4.236e-09
 91.67762    105.0 1.535e+04 4.731e-09
 91.68753    106.6 1.489e+04 4.218e-09
 91.70237    104.3 1.527e+04 4.910e-09
 91.72219    102.5 1.564e+04 5.809e-09
 91.74201    101.1 1.575e+04 6.005e-09
 91.76183    100.0 1.564e+04 5.767e-09
 91.78165     99.1 1.531e+04 5.022e-09
 91.79521     98.1 1.473e+04 3.920e-09
 91.80512     99.5 1.508e+04 4.462e-09
 91.82129     98.2 1.439e+04 3.325e-09
 91.84111     97.0 1.345e+04 2.331e-09
 91.86093     95.9 1.247e+04 1.611e-09
 91.89076     95.8 1.150e+04 9.601e-10
 91.93049     95.2 1.019e+04 5.221e-10
 91.97013     95.4 9.499e+03 3.537e-10
 92.00978     95.9 9.357e+03 3.099e-10
 92.03057     97.0 9.320e+03 2.966e-10
 92.05039     98.2 9.007e+03 1.899e-10
 92.08906     99.3 8.947e+03 1.749e-10
 92.12870    100.4 8.954e+03 1.721e-10
 92.16834    101.5 8.960e+03 1.727e-10
 92.20798    102.5 8.988e+03 1.769e-10
 92.24592    103.3 9.085e+03 1.962e-10
 92.26574    104.8 8.822e+03 1.322e-10
 92.28726    105.7 9.027e+03 1.674e-10
 92.32690    105.9 9.484e+03 2.793e-10
 92.36654    106.1 1.022e+04 5.172e-10
 92.40618    106.3 1.084e+04 7.991e-10
 92.44582    106.0 1.150e+04 9.741e-10
 92.47545    105.3 1.169e+04 9.927e-10
 92.49080    104.7 1.173e+04 9.770e-10
 92.50081    107.5 1.203e+04 1.227e-09
 92.51509    106.2 1.222e+04 1.226e-09
 92.53481    104.9 1.224e+04 1.121e-09
 92.55463    103.2 1.241e+04 1.038e-09
 92.57445     99.9 1.293e+04 1.096e-09
 92.59427     95.0 1.454e+04 1.452e-09
 92.60839     90.7 1.527e+04 2.496e-09
 92.61308     93.9 1.453e+04 1.601e-09
 92.61879     93.4 1.400e+04 1.544e-09
 92.63391     90.5 1.422e+04 2.204e-09
 92.65373     88.9 1.383e+04 2.418e-09
 92.67355     88.0 1.340e+04 2.299e-09
 92.69337     87.3 1.295e+04 1.916e-09
 92.71616     85.4 1.176e+04 9.647e-10
 92.73608     87.3 1.162e+04 7.798e-10
 92.76294     86.1 1.040e+04 3.526e-10
 92.80258     85.2 9.332e+03 1.597e-10
 92.84222     85.3 8.785e+03 1.155e-10
 92.88186     86.1 8.538e+03 1.085e-10
 92.92150     87.6 8.457e+03 1.041e-10
 92.95143     89.2 8.430e+03 9.942e-11
 92.97125     90.8 8.467e+03 1.072e-10
 93.00078     92.3 8.447e+03 1.064e-10
 93.04042     93.5 8.394e+03 1.035e-10
 93.08006     94.6 8.384e+03 1.028e-10
 93.11970     95.2 8.397e+03 1.044e-10
 93.15934     95.3 8.430e+03 1.132e-10
 93.18660     95.2 8.531e+03 1.417e-10
 93.20642     97.1 8.629e+03 1.529e-10
 93.23862     96.6 8.826e+03 2.086e-10
 93.27826     96.1 9.132e+03 3.030e-10
 93.31790     95.3 9.445e+03 4.091e-10
 93.35754     94.1 9.698e+03 4.532e-10
 93.39718     92.6 9.740e+03 4.503e-10
 93.42177     90.9 9.794e+03 4.247e-10
 93.44159     91.6 1.003e+04 4.751e-10
 93.47646     89.3 1.005e+04 4.263e-10
 93.51610     86.7 1.010e+04 4.271e-10
 93.55574     84.0 1.036e+04 4.726e-10
 93.59538     81.6 1.082e+04 6.406e-10
 93.63502     80.0 1.118e+04 8.589e-10
 93.65694     78.6 1.135e+04 9.167e-10
 93.67676     79.3 1.098e+04 7.743e-10
 93.71430     78.2 1.096e+04 7.384e-10
 93.75394     76.6 1.098e+04 6.296e-10
 93.79358     72.9 1.173e+04 6.863e-10
 93.82322     70.1 1.231e+04 7.323e-10
 93.84294     66.3 1.317e+04 1.067e-09
 93.86276     63.3 1.341e+04 1.706e-09
 93.88200     60.9 1.393e+04 2.627e-09
 93.89201     64.8 1.304e+04 1.177e-09
 93.90250     61.2 1.386e+04 2.201e-09
 93.92222     59.4 1.396e+04 2.787e-09
 93.94204     57.6 1.402e+04 2.729e-09
 93.96186     54.7 1.451e+04 2.381e-09
 93.98168     51.3 1.469e+04 1.920e-09
 93.99959     48.4 1.441e+04 1.628e-09
 94.00950     51.4 1.415e+04 1.244e-09
 94.03133     46.4 1.338e+04 1.217e-09
 94.06740     43.9 1.216e+04 8.671e-10
 94.08722     43.8 1.192e+04 8.046e-10
 94.10746     44.0 1.111e+04 6.400e-10
 94.12728     46.4 1.154e+04 7.476e-10
 94.15035     47.3 1.117e+04 6.448e-10
 94.18999     48.0 1.089e+04 4.255e-10
 94.22963     48.2 1.057e+04 2.612e-10
 94.26927     47.9 1.008e+04 1.596e-10
 94.30891     48.0 9.817e+03 1.118e-10
 94.34263     48.4 9.801e+03 1.013e-10
 94.36245     49.9 9.902e+03 1.185e-10
 94.38819     50.0 9.900e+03 1.197e-10
 94.42783     50.1 1.002e+04 1.431e-10
 94.46747     50.2 1.037e+04 2.247e-10
 94.50711     50.3 1.084e+04 3.726e-10
 94.53674     50.3 1.111e+04 5.228e-10
 94.55646     50.6 1.113e+04 6.001e-10
 94.57628     51.2 1.106e+04 5.718e-10
 94.58751     51.3 1.095e+04 5.131e-10
 94.59742     51.9 1.101e+04 5.408e-10
 94.62593     51.9 1.090e+04 4.180e-10
 94.66567     52.2 1.032e+04 2.480e-10
 94.70531     52.2 9.854e+03 1.426e-10
 94.74495     52.6 9.679e+03 1.197e-10
 94.78459     53.5 9.757e+03 1.275e-10
 94.81297     54.3 1.011e+04 1.750e-10
 94.83279     54.1 1.039e+04 2.109e-10
 94.85386     53.8 1.060e+04 2.675e-10
 94.87358     53.5 1.080e+04 3.787e-10
 94.89340     53.3 1.106e+04 6.119e-10
 94.91322     53.4 1.142e+04 9.389e-10
 94.93035     53.6 1.186e+04 1.333e-09
 94.94026     53.0 1.233e+04 1.822e-09
 94.95286     53.3 1.268e+04 2.253e-09
 94.97268     53.3 1.284e+04 2.463e-09
 94.99250     53.2 1.290e+04 2.486e-09
 95.01232     52.9 1.290e+04 2.374e-09
 95.03214     52.3 1.281e+04 2.200e-09
 95.04794     51.8 1.254e+04 1.942e-09
 95.05785     51.2 1.218e+04 1.602e-09
 95.07178     50.5 1.179e+04 1.395e-09
 95.09160     50.2 1.144e+04 1.232e-09
 95.11142     50.2 1.107e+04 1.067e-09
 95.13124     50.5 1.069e+04 9.001e-10
 95.15106     50.9 1.030e+04 7.384e-10
 95.16552     51.6 9.898e+03 5.847e-10
 95.17543     51.3 9.741e+03 5.221e-10
 95.19071     51.9 9.465e+03 4.317e-10
 95.22053     52.9 9.163e+03 3.390e-10
 95.26027     54.0 8.712e+03 2.610e-10
 95.28330     56.0 8.640e+03 2.551e-10
 95.30312     56.1 8.742e+03 2.647e-10
 95.32954     57.0 8.713e+03 2.695e-10
 95.34927     57.7 8.696e+03 2.811e-10
 95.36909     58.8 8.738e+03 3.025e-10
 95.38891     58.1 9.911e+03 3.957e-10
 95.40069     47.5 1.918e+04 1.489e-09
 95.41060     45.1 2.045e+04 1.925e-09
 95.42354     37.5 2.024e+04 7.094e-09
 95.43340     38.1 1.788e+04 1.546e-08
 95.44331     39.7 1.703e+04 2.575e-08
 95.45322     41.2 1.703e+04 3.331e-08
 95.45939     42.7 1.750e+04 3.375e-08
 95.46434     42.7 1.744e+04 3.423e-08
 95.47304     44.3 1.795e+04 3.374e-08
 95.48295     44.3 1.875e+04 2.703e-08
 95.49286     44.0 1.975e+04 1.963e-08
 95.50778     42.1 2.214e+04 7.889e-09
 95.51828     30.7 2.175e+04 1.347e-09
 95.52819     30.3 2.275e+04 9.628e-10
 95.54536     14.8 1.131e+04 4.779e-10
 95.55527     15.7 1.030e+04 4.260e-10
 95.57729     13.3 1.008e+04 2.444e-10
 95.61703     11.8 9.304e+03 2.286e-10
 95.65667     12.4 9.023e+03 2.162e-10
 95.69631     13.6 8.953e+03 1.542e-10
 95.73382     14.1 8.966e+03 1.092e-10
 95.75364     15.1 8.986e+03 1.120e-10
 95.77559     15.3 8.981e+03 9.854e-11
 95.81523     15.8 9.047e+03 1.106e-10
 95.85487     16.8 9.142e+03 1.515e-10
 95.89451     18.4 9.254e+03 2.199e-10
 95.93415     19.8 9.579e+03 3.041e-10
 95.96899     20.1 1.018e+04 4.341e-10
 95.98881     20.2 1.027e+04 4.697e-10
 96.01343     19.7 1.136e+04 8.715e-10
 96.05307     20.1 1.219e+04 1.652e-09
 96.09271     20.9 1.278e+04 2.181e-09
 96.13236     20.8 1.282e+04 2.114e-09
 96.17200     21.1 1.234e+04 1.711e-09
 96.20416     21.8 1.155e+04 1.118e-09
 96.22398     22.2 1.146e+04 1.048e-09
 96.25128     23.2 1.087e+04 7.379e-10
 96.29092     24.6 1.042e+04 5.179e-10
 96.33056     26.2 1.028e+04 3.587e-10
 96.37020     27.6 1.033e+04 2.602e-10
 96.40984     28.8 1.032e+04 2.249e-10
 96.43933     30.2 1.030e+04 2.325e-10
 96.45915     30.9 1.019e+04 2.182e-10
 96.48912     32.2 1.028e+04 2.488e-10
 96.52876     33.6 1.039e+04 3.063e-10
 96.56840     35.2 1.054e+04 3.571e-10
 96.60804     36.5 1.077e+04 3.911e-10
 96.64768     37.6 1.094e+04 4.228e-10
 96.67450     38.6 1.099e+04 4.297e-10
 96.69432     39.1 1.074e+04 3.499e-10
 96.72696     40.2 1.069e+04 3.381e-10
 96.76660     41.7 1.065e+04 2.961e-10
 96.80624     43.4 1.068e+04 2.333e-10
 96.84588     44.8 1.081e+04 1.809e-10
 96.88552     46.3 1.104e+04 1.620e-10
 96.90967     47.5 1.113e+04 1.705e-10
 96.92949     48.0 1.105e+04 1.742e-10
 96.96480     49.2 1.123e+04 2.108e-10
 97.00388     50.6 1.138e+04 2.914e-10
 97.02370     50.8 1.151e+04 3.087e-10
 97.04408     52.3 1.175e+04 3.324e-10
 97.08372     53.7 1.211e+04 3.713e-10
 97.12336     54.9 1.237e+04 4.688e-10
 97.14484     56.2 1.273e+04 6.397e-10
 97.16466     56.0 1.202e+04 3.438e-10
 97.20264     56.1 1.214e+04 4.772e-10
 97.24228     55.8 1.271e+04 8.731e-10
 97.26233     55.2 1.351e+04 1.706e-09
 97.27214     55.4 1.281e+04 1.229e-09
 97.29164     55.3 1.318e+04 1.725e-09
 97.31146     55.6 1.359e+04 2.176e-09
 97.33128     55.5 1.413e+04 2.743e-09
 97.35110     55.3 1.468e+04 2.822e-09
 97.36991     54.6 1.480e+04 2.756e-09
 97.37982     54.4 1.413e+04 2.042e-09
 97.39074     53.7 1.409e+04 1.860e-09
 97.41056     52.8 1.398e+04 1.756e-09
 97.44038     51.7 1.332e+04 1.483e-09
 97.48012     51.5 1.234e+04 9.690e-10
 97.51976     52.2 1.132e+04 4.666e-10
 97.55940     52.5 1.078e+04 1.891e-10
 97.59536     52.3 1.055e+04 9.220e-11
 97.61518     53.5 1.068e+04 1.219e-10
 97.63868     53.5 1.021e+04 8.833e-11
 97.67832     54.3 9.947e+03 8.674e-11
 97.71796     55.6 9.913e+03 8.884e-11
 97.75760     56.9 9.831e+03 9.669e-11
 97.79724     58.2 9.736e+03 1.066e-10
 97.83053     59.5 9.643e+03 1.103e-10
 97.85035     60.2 9.682e+03 1.135e-10
 97.87652     61.5 9.616e+03 1.114e-10
 97.91616     62.9 9.512e+03 1.051e-10
 97.95580     64.2 9.406e+03 9.636e-11
 97.99544     65.5 9.303e+03 8.850e-11
 98.03508     66.8 9.196e+03 8.318e-11
 98.06570     68.2 9.087e+03 8.031e-11
 98.08552     68.7 9.136e+03 8.835e-11
 98.11436     70.1 9.035e+03 8.778e-11
 98.15400     71.6 9.000e+03 8.732e-11
 98.19365     73.0 8.996e+03 8.791e-11
 98.23329     74.4 8.997e+03 9.207e-11
 98.27293     75.6 9.033e+03 1.038e-10
 98.30087     76.9 9.068e+03 1.279e-10
 98.32069     77.4 9.143e+03 1.349e-10
 98.35221     78.6 9.204e+03 1.725e-10
 98.39185     80.0 9.207e+03 2.247e-10
 98.43149     81.5 9.222e+03 2.581e-10
 98.47113     82.7 9.221e+03 2.562e-10
 98.49194     83.8 9.163e+03 2.454e-10
 98.51176     83.9 9.398e+03 3.717e-10
 98.53604     84.9 9.389e+03 3.720e-10
 98.55586     85.7 9.475e+03 3.878e-10
 98.59005     86.7 9.419e+03 3.793e-10
 98.62969     87.7 9.286e+03 3.573e-10
 98.66933     88.7 9.089e+03 3.127e-10
 98.70897     89.9 8.821e+03 2.477e-10
 98.74861     91.1 8.514e+03 1.762e-10
 98.77121     92.3 8.207e+03 1.175e-10
 98.79103     93.5 8.548e+03 1.824e-10
 98.82789     94.7 8.303e+03 1.365e-10
 98.86753     95.9 8.059e+03 1.048e-10
 98.90717     97.1 7.881e+03 8.668e-11
 98.94681     98.2 7.781e+03 7.961e-11
 98.98645     99.3 7.800e+03 8.345e-11
 99.02609    101.0 7.973e+03 1.173e-10
 99.06573    101.8 8.056e+03 1.351e-10
 99.10537    102.7 8.217e+03 1.730e-10
 99.14501    103.6 8.381e+03 2.174e-10
 99.18465    104.5 8.530e+03 2.570e-10
 99.22173    105.4 8.628e+03 2.831e-10
 99.24155    105.6 8.503e+03 2.588e-10
 99.26393    106.6 8.503e+03 2.625e-10
 99.30357    107.6 8.492e+03 2.661e-10
 99.34321    108.8 8.476e+03 2.703e-10
 99.38285    110.0 8.471e+03 2.696e-10
 99.42249    111.4 8.438e+03 2.652e-10
 99.45690    112.6 8.352e+03 2.517e-10
 99.47672    112.8 8.308e+03 2.426e-10
 99.50177    114.3 8.295e+03 2.453e-10
 99.54141    116.2 8.337e+03 2.538e-10
 99.58105    118.0 8.459e+03 2.719e-10
 99.61068    118.7 8.585e+03 2.977e-10
 99.63041    119.2 8.713e+03 3.254e-10
 99.65023    119.5 8.968e+03 3.812e-10
 99.67005    119.8 9.282e+03 4.795e-10
 99.68987    119.7 9.739e+03 6.485e-10
 99.70178    118.2 1.103e+04 9.442e-10
 99.71169    120.8 1.050e+04 9.354e-10
 99.72951    118.0 1.465e+04 1.652e-09
 99.74933    109.8 2.514e+04 3.739e-09
 99.76053    101.3 3.053e+04 1.037e-08
 99.76543    105.2 3.034e+04 7.121e-09
 99.77400     98.5 3.118e+04 2.100e-08
 99.78391     93.7 2.822e+04 4.755e-08
 99.79382     91.1 2.474e+04 6.059e-08
 99.80373     89.3 2.268e+04 5.456e-08
 99.81364     87.4 2.138e+04 3.817e-08
 99.81927     84.8 2.033e+04 2.309e-08
 99.82422     86.3 2.169e+04 3.357e-08
 99.83347     82.5 2.036e+04 1.649e-08
 99.84338     77.2 1.830e+04 8.311e-09
 99.85329     72.0 1.554e+04 5.072e-09
 99.86320     68.2 1.361e+04 3.790e-09
 99.87311     67.2 1.340e+04 3.627e-09
 99.88302     65.6 1.343e+04 3.616e-09
 99.89293     65.7 1.346e+04 3.654e-09
 99.90784     65.3 1.358e+04 3.604e-09
 99.92704     65.2 1.356e+04 3.596e-09
 99.93695     63.3 1.400e+04 4.094e-09
 99.94753     63.0 1.433e+04 4.370e-09
 99.95999     62.8 1.491e+04 5.085e-09
 99.96990     62.6 1.441e+04 2.990e-09
 99.98717     62.7 1.499e+04 3.300e-09
100.00699     63.0 1.526e+04 3.633e-09
