# Columns:
#   distance along LOS (in CHIMPs)
#   peculiar velocity  (in km/s)
#   temperature (K)
#   HI number density
# pos=(206.513,139.517,69.728), angles=(1.48091,4.19642)
  0.00176     15.8 8.914e+03 2.741e-10
  0.00409     16.3 9.288e+03 4.183e-10
  0.02169     16.2 9.264e+03 4.261e-10
  0.04368     16.9 9.139e+03 3.813e-10
  0.06638     18.0 9.455e+03 5.193e-10
  0.08893     17.9 9.373e+03 4.964e-10
  0.11626     18.8 9.475e+03 5.305e-10
  0.15122     19.5 9.306e+03 4.816e-10
  0.17376     19.3 8.944e+03 3.800e-10
  0.20644     19.8 8.579e+03 2.796e-10
  0.23606     20.1 8.295e+03 2.231e-10
  0.25860     20.3 8.027e+03 1.638e-10
  0.29662     20.6 7.973e+03 1.529e-10
  0.32089     20.6 8.149e+03 1.674e-10
  0.34344     20.7 7.826e+03 1.156e-10
  0.38319     20.0 8.358e+03 2.014e-10
  0.40573     20.4 8.085e+03 1.480e-10
  0.43189     19.9 8.882e+03 3.082e-10
  0.46417     19.4 9.665e+03 5.456e-10
  0.47776     20.9 9.170e+03 3.880e-10
  0.49057     21.0 8.956e+03 3.048e-10
  0.52208     19.9 9.830e+03 6.002e-10
  0.55286     18.6 1.074e+04 1.012e-09
  0.57541     19.0 1.074e+04 9.914e-10
  0.59518     16.9 1.157e+04 1.401e-09
  0.60636     17.0 1.159e+04 1.451e-09
  0.62333     15.0 1.196e+04 1.626e-09
  0.63751     12.8 1.235e+04 1.832e-09
  0.64878     13.2 1.241e+04 1.921e-09
  0.66843     10.9 1.258e+04 1.997e-09
  0.67993      8.4 1.247e+04 1.933e-09
  0.68572      8.5 1.253e+04 1.935e-09
  0.69677      8.9 1.280e+04 2.151e-09
  0.71107      6.7 1.208e+04 1.755e-09
  0.72234      6.7 1.208e+04 1.725e-09
  0.73606      4.7 1.126e+04 1.232e-09
  0.75349      3.0 1.071e+04 8.470e-10
  0.76476      2.5 1.069e+04 8.116e-10
  0.78115      0.3 1.023e+04 5.484e-10
  0.79591     -2.3 9.705e+03 3.982e-10
  0.80718     -3.1 9.813e+03 4.413e-10
  0.82624     -5.0 9.536e+03 4.087e-10
  0.83833     -5.9 9.465e+03 4.052e-10
  0.84960     -6.4 9.810e+03 5.306e-10
  0.86947     -6.7 9.858e+03 5.574e-10
  0.88075     -7.1 1.031e+04 7.397e-10
  0.89388     -7.2 1.036e+04 7.529e-10
  0.90702     -7.4 1.043e+04 7.456e-10
  0.91376     -7.8 1.093e+04 1.014e-09
  0.92317     -8.1 1.131e+04 1.144e-09
  0.93897     -8.6 1.132e+04 1.093e-09
  0.95431     -9.3 1.134e+04 1.086e-09
  0.96559     -9.8 1.163e+04 1.201e-09
  0.98406    -10.5 1.182e+04 1.295e-09
  0.99673    -11.2 1.199e+04 1.435e-09
  1.00800    -11.1 1.231e+04 1.640e-09
  1.02788    -11.4 1.246e+04 1.809e-09
  1.03925    -11.6 1.268e+04 1.950e-09
  1.06317    -12.0 1.252e+04 1.869e-09
  1.10164    -12.6 1.177e+04 1.272e-09
  1.12418    -12.2 1.197e+04 1.406e-09
  1.15335    -12.8 1.102e+04 8.040e-10
  1.18648    -13.7 9.932e+03 3.971e-10
  1.20902    -12.8 1.049e+04 5.438e-10
  1.24353    -13.5 9.752e+03 3.181e-10
  1.27132    -13.9 9.297e+03 2.108e-10
  1.29386    -13.4 9.677e+03 2.709e-10
  1.32771    -13.4 9.229e+03 1.776e-10
  1.35015    -13.7 9.317e+03 1.966e-10
  1.37870    -12.8 9.244e+03 1.624e-10
  1.41845    -12.0 8.965e+03 1.107e-10
  1.44099    -11.6 9.215e+03 1.459e-10
  1.46899    -10.7 9.079e+03 1.183e-10
  1.50328     -9.7 9.060e+03 1.136e-10
  1.52583     -9.3 9.280e+03 1.486e-10
  1.55917     -8.4 9.333e+03 1.532e-10
  1.58812     -7.7 9.475e+03 1.791e-10
  1.61067     -7.3 9.746e+03 2.465e-10
  1.64935     -6.6 9.766e+03 2.589e-10
  1.67296     -5.8 9.728e+03 2.581e-10
  1.69551     -5.4 9.923e+03 2.974e-10
  1.73525     -4.6 9.810e+03 2.263e-10
  1.75780     -4.5 1.002e+04 2.400e-10
  1.77075     -4.1 9.812e+03 1.730e-10
  1.79329     -4.6 1.000e+04 2.405e-10
  1.82009     -4.2 9.959e+03 2.145e-10
  1.84264     -4.6 1.012e+04 2.662e-10
  1.87481     -4.1 1.017e+04 2.693e-10
  1.90493     -4.0 1.053e+04 3.721e-10
  1.92748     -4.1 1.055e+04 4.062e-10
  1.96499     -3.7 1.093e+04 5.877e-10
  1.98977     -3.4 1.124e+04 7.638e-10
  1.99440     -3.5 1.108e+04 6.964e-10
  2.00334     -3.6 1.118e+04 7.396e-10
  2.02072     -3.7 1.122e+04 7.754e-10
  2.03199     -3.9 1.116e+04 7.572e-10
  2.04370     -3.8 1.122e+04 7.997e-10
  2.06314     -3.9 1.122e+04 8.040e-10
  2.07441     -4.1 1.117e+04 7.854e-10
  2.10016     -4.0 1.105e+04 7.499e-10
  2.13690     -3.6 1.060e+04 5.912e-10
  2.15944     -3.5 1.050e+04 5.588e-10
  2.19044     -2.7 9.934e+03 3.635e-10
  2.21379     -2.2 9.442e+03 2.232e-10
  2.22253     -2.5 9.451e+03 2.258e-10
  2.24428     -2.0 9.589e+03 2.561e-10
  2.28063     -1.3 9.406e+03 2.098e-10
  2.30658      0.0 9.354e+03 2.005e-10
  2.31775     -0.2 9.509e+03 2.315e-10
  2.33679      0.2 9.559e+03 2.320e-10
  2.34880      1.3 9.637e+03 2.423e-10
  2.36007      0.4 1.026e+04 3.497e-10
  2.37995      1.0 1.033e+04 3.772e-10
  2.39122     -0.1 1.117e+04 7.269e-10
  2.40443      0.9 1.119e+04 7.931e-10
  2.42236      2.0 1.125e+04 8.679e-10
  2.43050      1.8 1.220e+04 1.604e-09
  2.43511      1.7 1.225e+04 1.541e-09
  2.44952      1.9 1.276e+04 1.819e-09
  2.46478      1.4 1.353e+04 2.463e-09
  2.47606      1.1 1.452e+04 4.029e-09
  2.49461      0.3 1.541e+04 5.608e-09
  2.50720      0.4 1.632e+04 7.630e-09
  2.51848      0.3 1.642e+04 7.825e-09
  2.53402      0.6 1.642e+04 7.689e-09
  2.54014      0.5 1.653e+04 7.925e-09
  2.54442      0.3 1.735e+04 1.034e-08
  2.54957      0.1 1.688e+04 8.869e-09
  2.56225      0.1 1.681e+04 8.919e-09
  2.58077      0.3 1.608e+04 7.013e-09
  2.59204     -0.4 1.527e+04 5.764e-09
  2.60734     -0.5 1.462e+04 4.187e-09
  2.62319     -1.0 1.391e+04 2.656e-09
  2.63446     -1.3 1.380e+04 2.761e-09
  2.64536     -2.2 1.345e+04 1.826e-09
  2.65663     -3.7 1.324e+04 1.399e-09
  2.66561     -5.2 1.217e+04 9.617e-10
  2.67688     -4.7 1.269e+04 1.255e-09
  2.69675     -5.4 1.187e+04 1.019e-09
  2.70803     -5.1 1.241e+04 1.387e-09
  2.72007     -5.1 1.196e+04 1.206e-09
  2.73917     -4.8 1.178e+04 1.118e-09
  2.75044     -4.4 1.204e+04 1.337e-09
  2.76516     -3.8 1.187e+04 1.159e-09
  2.78159     -3.1 1.182e+04 1.022e-09
  2.79286     -3.2 1.203e+04 1.067e-09
  2.81025     -2.8 1.200e+04 9.210e-10
  2.82401     -2.6 1.199e+04 8.269e-10
  2.83528     -3.3 1.231e+04 9.005e-10
  2.85516     -2.8 1.225e+04 8.554e-10
  2.86643     -4.7 1.353e+04 1.252e-09
  2.86688     -4.6 1.406e+04 1.405e-09
  2.87815     -6.1 1.620e+04 3.145e-09
  2.89758     -5.9 1.700e+04 4.057e-09
  2.90885     -9.4 1.953e+04 1.186e-08
  2.92298     -9.1 2.048e+04 1.621e-08
  2.93984    -11.4 2.157e+04 2.344e-08
  2.94553    -12.3 2.151e+04 3.472e-08
  2.95117    -12.1 2.056e+04 5.109e-08
  2.96111    -11.8 2.071e+04 7.277e-08
  2.96674    -11.2 2.047e+04 6.969e-08
  2.97191    -10.7 2.059e+04 9.900e-08
  2.97754     -9.2 2.075e+04 9.770e-08
  2.98232     -8.9 2.087e+04 1.391e-07
  2.98795     -7.8 2.027e+04 8.450e-08
  2.99615     -7.1 2.027e+04 9.609e-08
  3.00353     -6.3 2.031e+04 1.040e-07
  3.00916     -5.3 2.003e+04 3.905e-08
  3.01870     -4.6 2.038e+04 3.294e-08
  3.02473     -4.2 2.071e+04 2.565e-08
  3.03606     -5.8 2.059e+04 4.864e-09
  3.05598     -6.4 2.001e+04 2.831e-09
  3.06725    -11.4 1.768e+04 2.192e-10
  3.07713    -11.4 1.579e+04 1.928e-10
  3.08840    -16.8 1.191e+04 1.587e-10
  3.09840    -16.9 1.053e+04 1.559e-10
  3.10977    -19.4 8.706e+03 1.431e-10
  3.13736    -16.7 8.690e+03 1.422e-10
  3.17216    -13.8 8.799e+03 1.476e-10
  3.19470    -14.0 8.747e+03 1.572e-10
  3.22754    -11.3 8.916e+03 1.767e-10
  3.25690     -8.8 9.175e+03 2.141e-10
  3.26807     -9.6 9.481e+03 2.799e-10
  3.28371     -9.2 9.438e+03 2.761e-10
  3.29865     -7.4 9.544e+03 2.976e-10
  3.30289     -7.6 9.600e+03 3.303e-10
  3.31049     -8.1 9.872e+03 4.221e-10
  3.32880     -6.9 1.004e+04 4.874e-10
  3.34164     -5.7 1.040e+04 6.039e-10
  3.35291     -6.7 1.074e+04 7.366e-10
  3.37279     -5.9 1.106e+04 8.805e-10
  3.38406     -6.8 1.101e+04 9.656e-10
  3.39643     -6.0 1.122e+04 1.092e-09
  3.41521     -5.2 1.158e+04 1.272e-09
  3.42648     -6.0 1.117e+04 1.146e-09
  3.44152     -5.4 1.148e+04 1.290e-09
  3.45762     -5.3 1.198e+04 1.514e-09
  3.46890     -6.0 1.138e+04 1.132e-09
  3.48662     -6.4 1.192e+04 1.297e-09
  3.50004     -7.1 1.240e+04 1.517e-09
  3.51105     -7.8 1.134e+04 9.489e-10
  3.52017     -9.2 1.214e+04 1.265e-09
  3.53119    -10.3 1.216e+04 1.412e-09
  3.54246    -10.9 1.132e+04 8.916e-10
  3.55425    -12.0 1.147e+04 9.909e-10
  3.57361    -13.4 1.147e+04 1.065e-09
  3.58488    -13.4 1.116e+04 8.213e-10
  3.59934    -14.8 1.121e+04 9.254e-10
  3.61603    -16.2 1.125e+04 1.052e-09
  3.62730    -15.9 1.108e+04 9.412e-10
  3.64443    -16.7 1.110e+04 1.078e-09
  3.65845    -17.2 1.142e+04 1.230e-09
  3.66972    -16.2 1.119e+04 1.179e-09
  3.68953    -16.7 1.166e+04 1.342e-09
  3.71207    -17.2 1.274e+04 1.645e-09
  3.73041    -19.0 1.332e+04 1.868e-09
  3.73908    -22.5 1.296e+04 1.749e-09
  3.74329    -23.9 1.550e+04 2.768e-09
  3.75716    -24.7 1.520e+04 2.854e-09
  3.77443    -25.2 1.482e+04 2.815e-09
  3.78570    -29.0 2.110e+04 7.499e-09
  3.80225    -30.0 2.190e+04 7.531e-09
  3.81685    -31.2 2.281e+04 7.536e-09
  3.82244    -32.5 2.386e+04 1.755e-08
  3.83034    -33.0 2.409e+04 1.861e-08
  3.83796    -33.5 2.464e+04 1.910e-08
  3.84307    -34.6 2.362e+04 2.560e-08
  3.84671    -35.8 2.321e+04 2.008e-08
  3.85288    -36.4 2.327e+04 2.213e-08
  3.85917    -37.2 2.325e+04 2.540e-08
  3.86481    -38.1 2.209e+04 2.963e-08
  3.87475    -39.7 2.249e+04 3.522e-08
  3.88038    -40.5 2.142e+04 3.263e-08
  3.88670    -42.3 2.188e+04 4.342e-08
  3.89595    -44.3 2.197e+04 6.325e-08
  3.90159    -43.8 2.254e+04 4.315e-08
  3.90925    -45.4 2.247e+04 6.754e-08
  3.91716    -46.5 2.235e+04 1.026e-07
  3.92280    -47.0 2.394e+04 5.641e-08
  3.93179    -47.2 2.341e+04 8.377e-08
  3.93837    -46.7 2.287e+04 1.031e-07
  3.94401    -45.8 2.619e+04 4.324e-08
  3.95184    -44.5 2.574e+04 4.801e-08
  3.95708    -43.0 2.457e+04 4.235e-08
  3.95958    -44.9 2.805e+04 1.784e-08
  3.96561    -43.9 2.792e+04 1.845e-08
  3.97516    -43.5 2.666e+04 1.783e-08
  3.98648    -47.3 2.057e+04 5.069e-09
  4.00516    -46.8 1.975e+04 5.223e-09
  4.01767    -46.1 1.852e+04 4.982e-09
  4.02895    -47.4 1.370e+04 2.381e-09
  4.04882    -46.5 1.377e+04 2.531e-09
  4.06009    -45.5 1.272e+04 1.793e-09
  4.07280    -44.5 1.293e+04 1.925e-09
  4.09124    -43.4 1.298e+04 1.973e-09
  4.10251    -42.6 1.205e+04 1.464e-09
  4.11789    -41.5 1.210e+04 1.501e-09
  4.13366    -40.3 1.205e+04 1.495e-09
  4.14493    -39.6 1.127e+04 1.130e-09
  4.16218    -38.4 1.130e+04 1.114e-09
  4.17346    -38.2 1.087e+04 9.583e-10
  4.17608    -37.0 1.076e+04 8.721e-10
  4.18735    -36.2 1.038e+04 7.147e-10
  4.20722    -35.1 1.028e+04 6.483e-10
  4.21850    -34.3 9.907e+03 5.120e-10
  4.23062    -33.2 9.862e+03 4.716e-10
  4.24964    -32.2 9.775e+03 4.331e-10
  4.26091    -31.6 9.492e+03 3.621e-10
  4.27571    -30.7 9.474e+03 3.531e-10
  4.29206    -29.7 9.430e+03 3.494e-10
  4.31470    -28.7 9.253e+03 3.160e-10
  4.35455    -26.4 9.270e+03 3.371e-10
  4.37709    -25.6 9.016e+03 2.949e-10
  4.38390    -23.7 9.180e+03 3.428e-10
  4.40644    -24.3 9.320e+03 3.841e-10
  4.43939    -22.3 9.573e+03 4.777e-10
  4.46193    -21.9 9.509e+03 4.813e-10
  4.49009    -20.2 9.780e+03 5.720e-10
  4.52423    -18.7 1.003e+04 6.445e-10
  4.54677    -18.2 9.926e+03 6.454e-10
  4.58027    -17.5 1.010e+04 6.348e-10
  4.60906    -17.4 1.061e+04 7.106e-10
  4.63161    -17.3 1.070e+04 7.804e-10
  4.67045    -17.7 1.173e+04 1.098e-09
  4.69380    -18.3 1.260e+04 1.899e-09
  4.70498    -18.1 1.227e+04 1.981e-09
  4.72485    -18.4 1.350e+04 2.718e-09
  4.73613    -17.8 1.300e+04 2.531e-09
  4.74917    -18.1 1.436e+04 3.750e-09
  4.76727    -19.1 1.575e+04 5.934e-09
  4.77854    -18.1 1.497e+04 4.340e-09
  4.79426    -18.7 1.605e+04 6.934e-09
  4.80969    -18.9 1.681e+04 1.103e-08
  4.81963    -18.1 1.641e+04 6.309e-09
  4.82674    -20.2 1.685e+04 2.624e-09
  4.83935    -20.9 1.847e+04 3.419e-09
  4.85211    -22.1 1.980e+04 3.909e-09
  4.86338    -24.2 1.794e+04 1.844e-09
  4.88326    -27.2 1.717e+04 1.929e-09
  4.89453    -30.0 1.280e+04 1.229e-09
  4.90698    -31.4 1.228e+04 1.429e-09
  4.92568    -32.2 1.229e+04 1.624e-09
  4.93695    -31.4 1.193e+04 1.381e-09
  4.95207    -32.1 1.199e+04 1.408e-09
  4.96809    -32.7 1.195e+04 1.393e-09
  4.97937    -32.3 1.170e+04 1.178e-09
  4.99717    -32.9 1.146e+04 1.010e-09
  5.01051    -34.1 1.109e+04 8.236e-10
  5.03316    -35.9 1.080e+04 6.425e-10
  5.06490    -39.4 9.866e+03 4.797e-10
  5.08408    -42.0 1.021e+04 6.225e-10
  5.09545    -41.5 1.081e+04 5.947e-10
  5.12136    -45.0 1.161e+04 1.153e-09
  5.15784    -47.1 1.199e+04 1.495e-09
  5.18039    -48.8 1.139e+04 1.175e-09
  5.21154    -52.6 1.111e+04 1.017e-09
  5.24268    -57.6 1.008e+04 5.675e-10
  5.25602    -60.0 1.024e+04 6.126e-10
  5.26998    -60.8 1.079e+04 8.719e-10
  5.30173    -65.0 9.544e+03 5.170e-10
  5.32752    -67.9 8.742e+03 3.269e-10
  5.35006    -68.3 8.734e+03 3.199e-10
  5.38981    -70.6 8.176e+03 1.916e-10
  5.41235    -71.1 8.154e+03 1.720e-10
  5.43700    -73.4 7.595e+03 1.162e-10
  5.47465    -74.9 7.487e+03 1.062e-10
  5.49719    -74.4 7.588e+03 1.112e-10
  5.52718    -76.0 7.641e+03 1.154e-10
  5.55949    -78.8 8.447e+03 2.106e-10
  5.58203    -78.0 8.775e+03 2.469e-10
  5.61736    -79.6 1.000e+04 5.469e-10
  5.64432    -80.9 1.102e+04 9.530e-10
  5.66687    -79.1 1.064e+04 7.342e-10
  5.69047    -81.1 1.115e+04 8.921e-10
  5.71209    -80.3 1.073e+04 6.669e-10
  5.72916    -79.7 9.963e+03 3.977e-10
  5.75264    -82.3 1.018e+04 4.131e-10
  5.79145    -84.9 1.055e+04 4.796e-10
  5.81400    -84.4 1.002e+04 3.551e-10
  5.84282    -86.1 1.026e+04 4.597e-10
  5.87629    -86.9 1.047e+04 5.838e-10
  5.89884    -86.7 1.028e+04 5.222e-10
  5.93300    -87.3 1.033e+04 5.583e-10
  5.96113    -88.0 1.047e+04 5.884e-10
  5.98368    -87.9 1.081e+04 6.906e-10
  6.02318    -89.5 1.133e+04 7.833e-10
  6.04587    -91.4 1.266e+04 1.242e-09
  6.05705    -91.7 1.268e+04 1.195e-09
  6.07692    -93.0 1.323e+04 1.726e-09
  6.08819    -93.2 1.306e+04 1.516e-09
  6.10190    -93.8 1.332e+04 1.989e-09
  6.11934    -94.1 1.358e+04 2.597e-09
  6.12822    -94.4 1.354e+04 1.688e-09
  6.13332    -94.7 1.350e+04 1.328e-09
  6.14699    -95.6 1.385e+04 1.435e-09
  6.16176    -97.0 1.424e+04 1.559e-09
  6.17303    -98.9 1.242e+04 8.706e-10
  6.19208   -100.9 1.276e+04 1.007e-09
  6.20418   -103.0 1.312e+04 1.272e-09
  6.21545   -103.6 1.212e+04 9.972e-10
  6.23532   -105.1 1.254e+04 1.276e-09
  6.24660   -105.0 1.212e+04 1.151e-09
  6.25972   -106.2 1.253e+04 1.380e-09
  6.27774   -107.5 1.286e+04 1.542e-09
  6.28902   -106.9 1.247e+04 1.397e-09
  6.30481   -108.5 1.274e+04 1.491e-09
  6.32016   -110.4 1.301e+04 1.638e-09
  6.33143   -109.7 1.282e+04 1.520e-09
  6.34357   -111.8 1.317e+04 1.757e-09
  6.35484   -110.8 1.349e+04 1.905e-09
  6.36258   -112.9 1.366e+04 2.209e-09
  6.37385   -112.3 1.381e+04 2.204e-09
  6.39373   -114.5 1.373e+04 2.408e-09
  6.40500   -114.3 1.415e+04 2.585e-09
  6.41753   -116.6 1.411e+04 2.642e-09
  6.43615   -118.6 1.391e+04 2.620e-09
  6.44742   -119.7 1.513e+04 3.305e-09
  6.46262   -121.8 1.474e+04 3.087e-09
  6.47857   -123.5 1.412e+04 2.699e-09
  6.48984   -124.5 1.475e+04 3.639e-09
  6.50772   -125.6 1.389e+04 3.011e-09
  6.52098   -126.5 1.315e+04 2.462e-09
  6.53226   -127.1 1.356e+04 2.980e-09
  6.55213   -127.8 1.289e+04 2.326e-09
  6.56340   -128.5 1.339e+04 2.631e-09
  6.56509   -129.0 1.270e+04 2.023e-09
  6.57636   -128.7 1.303e+04 2.408e-09
  6.59455   -129.0 1.231e+04 1.860e-09
  6.60582   -129.3 1.275e+04 2.107e-09
  6.62044   -129.2 1.208e+04 1.623e-09
  6.63697   -129.1 1.150e+04 1.278e-09
  6.64824   -129.1 1.163e+04 1.255e-09
  6.66553   -128.6 1.112e+04 9.645e-10
  6.67939   -128.1 1.071e+04 7.638e-10
  6.69066   -128.4 1.054e+04 6.525e-10
  6.71053   -128.1 1.026e+04 5.347e-10
  6.73308   -128.1 9.746e+03 4.061e-10
  6.75295   -127.9 9.623e+03 3.705e-10
  6.76432   -127.3 9.549e+03 3.715e-10
  6.78973   -127.2 9.564e+03 3.571e-10
  6.82671   -127.4 9.629e+03 3.620e-10
  6.84926   -127.0 9.758e+03 3.915e-10
  6.87991   -127.6 1.000e+04 4.847e-10
  6.91145   -127.8 1.024e+04 6.377e-10
  6.92263   -127.5 1.029e+04 6.464e-10
  6.93608   -127.9 1.030e+04 6.769e-10
  6.95378   -128.1 1.029e+04 6.817e-10
  6.96505   -127.9 1.030e+04 6.714e-10
  6.98117   -127.9 1.016e+04 6.580e-10
  6.99619   -127.8 9.846e+03 5.700e-10
  7.00061   -127.5 9.810e+03 5.449e-10
  7.00813   -127.2 9.790e+03 5.366e-10
  7.02626   -126.9 9.519e+03 4.330e-10
  7.05859   -126.8 9.353e+03 3.684e-10
  7.08123   -126.5 9.355e+03 3.359e-10
  7.10537   -126.3 9.032e+03 2.600e-10
  7.14352   -125.8 8.781e+03 2.181e-10
  7.16607   -125.7 8.782e+03 2.117e-10
  7.19555   -125.1 8.749e+03 2.077e-10
  7.22836   -124.7 8.910e+03 2.407e-10
  7.25090   -125.1 9.247e+03 2.865e-10
  7.28573   -125.2 9.864e+03 4.453e-10
  7.31320   -125.1 1.035e+04 6.363e-10
  7.33574   -126.0 1.122e+04 1.037e-09
  7.37549   -125.8 1.161e+04 1.306e-09
  7.39794   -125.9 1.236e+04 1.942e-09
  7.40954   -125.9 1.239e+04 1.969e-09
  7.42862   -125.9 1.237e+04 1.964e-09
  7.43680   -126.3 1.220e+04 1.798e-09
  7.44026   -126.3 1.222e+04 1.844e-09
  7.45463   -126.1 1.209e+04 1.766e-09
  7.47141   -125.8 1.193e+04 1.650e-09
  7.48268   -125.6 1.175e+04 1.555e-09
  7.49972   -125.2 1.160e+04 1.435e-09
  7.51382   -124.9 1.139e+04 1.287e-09
  7.52510   -124.6 1.096e+04 1.042e-09
  7.54481   -124.3 1.078e+04 9.370e-10
  7.55624   -124.0 1.058e+04 8.246e-10
  7.56752   -123.7 1.025e+04 6.597e-10
  7.58739   -123.3 1.007e+04 5.738e-10
  7.59866   -123.1 9.875e+03 4.677e-10
  7.61245   -122.8 9.809e+03 4.483e-10
  7.62991   -122.7 9.789e+03 4.365e-10
  7.65255   -122.1 9.470e+03 3.213e-10
  7.69155   -121.4 9.411e+03 3.162e-10
  7.71484   -120.8 9.364e+03 3.076e-10
  7.73739   -120.1 9.139e+03 2.215e-10
  7.77714   -119.7 9.136e+03 2.220e-10
  7.79968   -119.2 9.013e+03 1.663e-10
  7.82682   -119.0 9.015e+03 1.716e-10
  7.86059   -119.0 8.987e+03 1.709e-10
  7.87319   -119.5 9.139e+03 1.908e-10
  7.88452   -119.2 9.172e+03 1.888e-10
  7.91701   -119.2 9.175e+03 1.915e-10
  7.94681   -119.1 9.110e+03 1.873e-10
  7.96936   -118.5 9.153e+03 2.026e-10
  8.00719   -118.0 9.043e+03 1.738e-10
  8.03165   -117.6 8.962e+03 1.434e-10
  8.05420   -116.8 9.032e+03 1.471e-10
  8.09394   -116.3 9.024e+03 1.273e-10
  8.11649   -115.7 9.106e+03 1.379e-10
  8.14246   -115.1 9.135e+03 1.328e-10
  8.17878   -114.5 9.178e+03 1.290e-10
  8.20133   -113.7 9.232e+03 1.601e-10
  8.23264   -112.8 9.234e+03 1.607e-10
  8.26362   -111.9 9.253e+03 1.525e-10
  8.28616   -110.6 9.353e+03 1.938e-10
  8.30363   -109.7 9.342e+03 1.837e-10
  8.32617   -109.6 9.453e+03 2.219e-10
  8.34846   -108.7 9.444e+03 1.843e-10
  8.37100   -107.1 9.540e+03 2.339e-10
  8.41075   -106.4 9.572e+03 2.074e-10
  8.43330   -104.8 9.741e+03 2.415e-10
  8.45810   -104.2 9.815e+03 2.149e-10
  8.49559   -103.7 9.924e+03 1.893e-10
  8.51813   -102.5 1.018e+04 2.114e-10
  8.54828   -102.1 1.027e+04 1.867e-10
  8.58043   -101.7 1.025e+04 1.715e-10
  8.60297   -100.7 1.023e+04 2.691e-10
  8.63846   -100.3 1.019e+04 2.420e-10
  8.66526    -99.8 1.005e+04 2.121e-10
  8.68781    -97.9 1.006e+04 3.331e-10
  8.72412    -97.3 9.943e+03 2.700e-10
  8.74558    -97.5 9.836e+03 2.041e-10
  8.75010    -95.8 9.977e+03 2.664e-10
  8.77374    -95.3 9.900e+03 1.871e-10
  8.81240    -95.2 9.856e+03 1.268e-10
  8.83494    -94.0 1.001e+04 1.697e-10
  8.86392    -94.4 9.975e+03 1.430e-10
  8.89723    -94.7 9.970e+03 1.386e-10
  8.91978    -93.9 1.019e+04 2.114e-10
  8.95410    -94.3 1.030e+04 2.470e-10
  8.98207    -94.5 1.046e+04 3.066e-10
  9.00462    -93.5 1.071e+04 4.156e-10
  9.04428    -93.7 1.080e+04 4.653e-10
  9.07800    -93.2 1.066e+04 4.786e-10
  9.09786    -93.4 1.065e+04 4.865e-10
  9.10913    -93.3 1.074e+04 4.629e-10
  9.12300    -93.5 1.073e+04 4.630e-10
  9.14028    -93.8 1.067e+04 4.568e-10
  9.15155    -93.8 1.063e+04 4.060e-10
  9.16697    -94.0 1.055e+04 3.961e-10
  9.18961    -94.6 1.044e+04 2.470e-10
  9.21404    -94.7 1.026e+04 2.681e-10
  9.23649    -95.1 1.042e+04 3.166e-10
  9.25626    -95.1 1.047e+04 3.434e-10
  9.26754    -95.4 1.063e+04 4.191e-10
  9.28082    -95.8 1.088e+04 4.776e-10
  9.29868    -96.7 1.144e+04 5.821e-10
  9.30996    -98.8 1.273e+04 9.950e-10
  9.32591   -100.1 1.313e+04 1.397e-09
  9.34110   -100.8 1.330e+04 1.924e-09
  9.35238   -101.1 1.352e+04 2.980e-09
  9.37100   -101.1 1.340e+04 3.236e-09
  9.38352   -100.9 1.332e+04 3.282e-09
  9.38974   -100.6 1.332e+04 3.277e-09
  9.39976   -100.8 1.382e+04 3.948e-09
  9.41467   -100.6 1.340e+04 3.236e-09
  9.42594   -102.1 1.392e+04 2.789e-09
  9.43863   -102.7 1.354e+04 2.013e-09
  9.45709   -103.8 1.331e+04 1.501e-09
  9.46836   -108.2 1.400e+04 1.919e-09
  9.48372   -109.4 1.382e+04 1.859e-09
  9.49951   -110.2 1.371e+04 1.903e-09
  9.51078   -111.9 1.407e+04 3.191e-09
  9.52882   -111.9 1.414e+04 3.974e-09
  9.54193   -111.4 1.423e+04 4.631e-09
  9.55320   -111.0 1.499e+04 5.480e-09
  9.57307   -110.5 1.498e+04 5.657e-09
  9.58434   -110.2 1.478e+04 4.760e-09
  9.59645   -109.5 1.464e+04 4.586e-09
  9.61001   -108.8 1.430e+04 4.119e-09
  9.61777   -108.4 1.411e+04 3.790e-09
  9.62676   -108.9 1.322e+04 2.115e-09
  9.64154   -108.6 1.283e+04 1.823e-09
  9.65791   -108.2 1.238e+04 1.532e-09
  9.66918   -108.9 1.170e+04 8.397e-10
  9.68663   -108.4 1.134e+04 7.572e-10
  9.70033   -107.7 1.102e+04 6.875e-10
  9.71160   -107.8 1.093e+04 4.224e-10
  9.73148   -107.0 1.076e+04 3.937e-10
  9.74275   -107.4 1.077e+04 3.122e-10
  9.75427   -106.5 1.066e+04 3.181e-10
  9.77389   -105.6 1.053e+04 3.328e-10
  9.78526   -106.9 1.062e+04 2.453e-10
  9.81083   -104.6 1.032e+04 2.321e-10
  9.84765   -102.5 1.019e+04 2.284e-10
  9.87020   -102.4 9.978e+03 1.970e-10
  9.90101   -100.4 9.821e+03 1.899e-10
  9.93249    -98.3 9.748e+03 1.883e-10
  9.95504    -97.4 9.547e+03 1.683e-10
  9.99119    -95.4 9.498e+03 1.614e-10
 10.01733    -93.2 9.467e+03 1.585e-10
 10.03429    -92.2 9.452e+03 1.502e-10
 10.05324    -92.1 9.385e+03 1.267e-10
 10.07962    -90.0 9.378e+03 1.263e-10
 10.10217    -89.3 9.585e+03 1.390e-10
 10.12647    -87.6 9.547e+03 1.513e-10
 10.16446    -86.5 9.674e+03 1.995e-10
 10.18701    -85.7 9.982e+03 2.736e-10
 10.21665    -85.0 1.047e+04 4.336e-10
 10.24930    -84.9 1.121e+04 7.122e-10
 10.27185    -84.6 1.175e+04 8.528e-10
 10.30683    -84.7 1.233e+04 1.347e-09
 10.33414    -85.1 1.267e+04 1.716e-09
 10.35668    -84.4 1.272e+04 1.700e-09
 10.39643    -85.0 1.279e+04 1.764e-09
 10.41898    -83.6 1.262e+04 1.451e-09
 10.44210    -84.1 1.245e+04 1.015e-09
 10.47374    -84.5 1.145e+04 4.990e-10
 10.49036    -85.1 1.088e+04 4.450e-10
 10.50381    -83.8 1.071e+04 4.498e-10
 10.53229    -82.9 1.027e+04 2.868e-10
 10.56611    -81.5 9.896e+03 1.506e-10
 10.58865    -79.6 9.895e+03 1.692e-10
 10.62247    -78.1 9.698e+03 9.528e-11
 10.65095    -76.9 9.723e+03 6.983e-11
 10.67349    -74.8 9.729e+03 7.503e-11
 10.71265    -73.5 9.758e+03 6.981e-11
 10.73578    -72.3 9.889e+03 7.189e-11
 10.75833    -70.2 9.958e+03 7.670e-11
 10.79808    -69.3 1.019e+04 1.078e-10
 10.82062    -67.8 1.043e+04 1.302e-10
 10.84792    -67.0 1.063e+04 2.238e-10
 10.88291    -66.0 1.078e+04 3.272e-10
 10.90546    -64.7 1.127e+04 5.976e-10
 10.91678    -63.6 1.144e+04 7.278e-10
 10.93932    -63.6 1.146e+04 7.442e-10
 10.96775    -62.8 1.139e+04 7.047e-10
 10.99030    -61.2 1.194e+04 1.089e-09
 11.02829    -60.3 1.155e+04 8.264e-10
 11.05259    -59.4 1.113e+04 6.075e-10
 11.07514    -58.0 1.143e+04 6.556e-10
 11.11488    -57.1 1.113e+04 5.104e-10
 11.13743    -55.8 1.116e+04 5.054e-10
 11.16356    -54.6 1.093e+04 4.127e-10
 11.19972    -53.3 1.073e+04 3.426e-10
 11.22227    -52.0 1.079e+04 3.450e-10
 11.25374    -50.7 1.070e+04 2.954e-10
 11.28456    -49.3 1.066e+04 2.590e-10
 11.30711    -48.6 1.093e+04 3.303e-10
 11.33727    -47.8 1.090e+04 3.585e-10
 11.35982    -46.7 1.066e+04 2.480e-10
 11.36940    -46.5 1.088e+04 2.658e-10
 11.39194    -46.5 1.162e+04 5.184e-10
 11.41172    -47.8 1.204e+04 6.990e-10
 11.42289    -48.1 1.255e+04 9.700e-10
 11.44277    -49.0 1.320e+04 1.426e-09
 11.45404    -49.7 1.423e+04 2.085e-09
 11.46773    -50.6 1.501e+04 3.408e-09
 11.48519    -50.8 1.562e+04 4.866e-09
 11.49646    -51.7 1.606e+04 6.113e-09
 11.51282    -52.3 1.617e+04 6.530e-09
 11.52761    -53.4 1.615e+04 6.399e-09
 11.53888    -54.5 1.578e+04 6.502e-09
 11.55791    -55.8 1.544e+04 5.622e-09
 11.56987    -57.4 1.512e+04 5.002e-09
 11.57071    -58.0 1.583e+04 6.367e-09
 11.58130    -58.6 1.590e+04 7.142e-09
 11.60117    -59.1 1.564e+04 6.994e-09
 11.61244    -59.1 1.553e+04 6.597e-09
 11.62555    -58.9 1.510e+04 5.556e-09
 11.64359    -58.5 1.454e+04 3.992e-09
 11.65486    -59.1 1.418e+04 2.942e-09
 11.67064    -59.3 1.343e+04 1.789e-09
 11.68601    -60.0 1.265e+04 1.065e-09
 11.69728    -61.1 1.203e+04 7.915e-10
 11.71573    -61.9 1.146e+04 5.368e-10
 11.72843    -62.3 1.109e+04 4.051e-10
 11.73970    -62.9 1.080e+04 3.494e-10
 11.75958    -63.2 1.060e+04 2.976e-10
 11.77085    -63.8 1.054e+04 2.952e-10
 11.78022    -64.1 1.043e+04 2.726e-10
 11.80286    -63.6 1.049e+04 2.846e-10
 11.83334    -63.8 1.031e+04 2.579e-10
 11.85588    -64.7 1.029e+04 2.767e-10
 11.88502    -65.0 1.003e+04 2.377e-10
 11.91817    -65.4 9.792e+03 2.088e-10
 11.94072    -65.8 9.826e+03 2.293e-10
 11.97520    -66.2 9.688e+03 2.050e-10
 12.00301    -66.6 9.664e+03 2.010e-10
 12.02556    -66.7 9.738e+03 2.386e-10
 12.06531    -66.6 9.711e+03 2.481e-10
 12.11040    -66.0 9.660e+03 2.767e-10
 12.15014    -65.4 9.647e+03 2.829e-10
 12.17269    -65.2 9.525e+03 2.455e-10
 12.20066    -64.6 9.425e+03 2.369e-10
 12.23498    -63.5 9.346e+03 2.308e-10
 12.25753    -63.9 9.487e+03 2.516e-10
 12.29084    -62.9 9.328e+03 2.242e-10
 12.31982    -61.8 9.185e+03 1.951e-10
 12.34237    -61.9 9.265e+03 2.515e-10
 12.38102    -60.6 9.033e+03 1.995e-10
 12.40466    -59.3 8.851e+03 1.567e-10
 12.42720    -59.4 8.776e+03 1.531e-10
 12.46695    -58.0 8.609e+03 1.160e-10
 12.48950    -58.1 8.493e+03 1.014e-10
 12.51629    -57.0 8.388e+03 7.996e-11
 12.55179    -55.9 8.319e+03 6.988e-11
 12.57433    -56.3 8.246e+03 6.835e-11
 12.60647    -55.1 8.239e+03 6.617e-11
 12.63663    -54.2 8.251e+03 6.600e-11
 12.65146    -54.9 8.267e+03 6.613e-11
 12.66640    -54.1 8.270e+03 7.363e-11
 12.69666    -54.4 8.420e+03 7.603e-11
 12.72146    -55.7 8.922e+03 1.183e-10
 12.74401    -56.7 9.001e+03 1.169e-10
 12.78376    -58.6 9.611e+03 2.584e-10
 12.80630    -59.3 9.429e+03 2.566e-10
 12.83193    -61.5 9.917e+03 4.414e-10
 12.86860    -64.9 1.042e+04 6.103e-10
 12.89114    -65.0 1.045e+04 6.296e-10
 12.92211    -68.7 1.107e+04 8.530e-10
 12.95343    -72.8 1.165e+04 1.110e-09
 12.96461    -70.8 1.175e+04 1.221e-09
 12.97828    -72.8 1.201e+04 1.359e-09
 12.99566    -75.1 1.214e+04 1.443e-09
 13.00693    -75.1 1.255e+04 1.718e-09
 13.02337    -77.4 1.258e+04 1.716e-09
 13.03808    -79.9 1.254e+04 1.652e-09
 13.04935    -80.7 1.330e+04 2.140e-09
 13.06846    -83.3 1.305e+04 2.018e-09
 13.08050    -85.5 1.282e+04 1.970e-09
 13.08746    -86.1 1.343e+04 2.724e-09
 13.09797    -86.4 1.358e+04 2.843e-09
 13.11164    -87.6 1.309e+04 2.607e-09
 13.12291    -87.4 1.342e+04 3.321e-09
 13.13610    -87.8 1.303e+04 2.883e-09
 13.15406    -87.9 1.260e+04 2.351e-09
 13.16533    -87.9 1.274e+04 2.568e-09
 13.18119    -87.9 1.235e+04 2.071e-09
 13.19648    -88.0 1.190e+04 1.558e-09
 13.20775    -88.2 1.194e+04 1.794e-09
 13.22628    -88.3 1.161e+04 1.445e-09
 13.23890    -88.3 1.126e+04 1.134e-09
 13.25017    -88.0 1.149e+04 1.483e-09
 13.27005    -87.7 1.129e+04 1.252e-09
 13.28132    -87.3 1.156e+04 1.597e-09
 13.29392    -87.0 1.149e+04 1.429e-09
 13.30822    -86.9 1.133e+04 1.220e-09
 13.31549    -87.0 1.123e+04 1.192e-09
 13.32374    -86.5 1.165e+04 1.570e-09
 13.33901    -86.4 1.154e+04 1.384e-09
 13.35488    -86.5 1.128e+04 1.174e-09
 13.36616    -86.1 1.177e+04 1.555e-09
 13.38410    -86.1 1.153e+04 1.341e-09
 13.39730    -86.2 1.125e+04 1.168e-09
 13.40858    -85.4 1.176e+04 1.532e-09
 13.42845    -85.5 1.140e+04 1.294e-09
 13.43972    -84.7 1.204e+04 1.742e-09
 13.45174    -84.7 1.177e+04 1.504e-09
 13.47087    -84.8 1.144e+04 1.295e-09
 13.48214    -84.6 1.157e+04 1.354e-09
 13.50211    -85.2 1.092e+04 1.034e-09
 13.52375    -84.0 1.100e+04 1.075e-09
 13.52983    -83.4 1.143e+04 1.268e-09
 13.55339    -83.6 1.025e+04 7.510e-10
 13.58705    -83.4 9.242e+03 4.781e-10
 13.60959    -81.5 1.036e+04 7.438e-10
 13.64357    -81.4 9.016e+03 4.076e-10
 13.67189    -81.2 8.483e+03 3.014e-10
 13.68306    -80.3 8.699e+03 3.380e-10
 13.69974    -80.0 8.613e+03 3.197e-10
 13.73365    -79.6 8.582e+03 3.073e-10
 13.75672    -79.2 8.500e+03 2.980e-10
 13.77927    -77.8 8.775e+03 3.461e-10
 13.81902    -77.5 8.732e+03 3.502e-10
 13.84156    -76.4 9.083e+03 4.206e-10
 13.86902    -76.2 9.194e+03 4.962e-10
 13.90386    -76.1 9.867e+03 7.151e-10
 13.92630    -74.9 1.023e+04 8.265e-10
 13.95033    -74.9 1.080e+04 1.104e-09
 13.97297    -74.1 1.027e+04 8.254e-10
 13.98869    -74.5 1.150e+04 1.482e-09
 13.99987    -73.6 1.099e+04 1.191e-09
 14.01537    -73.9 1.157e+04 1.542e-09
 14.03092    -74.2 1.234e+04 2.195e-09
 14.04219    -73.6 1.201e+04 1.852e-09
 14.06047    -73.8 1.261e+04 2.444e-09
 14.07334    -74.1 1.304e+04 2.990e-09
 14.08461    -73.7 1.267e+04 2.395e-09
 14.10448    -73.9 1.300e+04 2.788e-09
 14.11576    -74.0 1.310e+04 2.549e-09
 14.12810    -74.5 1.341e+04 2.990e-09
 14.14690    -75.2 1.350e+04 3.105e-09
 14.15817    -76.6 1.450e+04 3.900e-09
 14.17175    -77.6 1.465e+04 4.062e-09
 14.18302    -77.6 1.547e+04 5.158e-09
 14.18932    -78.5 1.562e+04 5.416e-09
 14.20059    -80.0 1.705e+04 9.638e-09
 14.21828    -80.5 1.697e+04 9.640e-09
 14.23174    -80.9 1.647e+04 8.107e-09
 14.24301    -80.6 1.752e+04 1.370e-08
 14.26289    -80.5 1.643e+04 8.928e-09
 14.27416    -80.2 1.675e+04 1.023e-08
 14.28592    -80.5 1.541e+04 6.063e-09
 14.30531    -81.3 1.422e+04 3.807e-09
 14.31658    -81.5 1.415e+04 3.898e-09
 14.33101    -82.3 1.334e+04 2.950e-09
 14.34772    -82.5 1.294e+04 2.519e-09
 14.35900    -82.6 1.299e+04 2.701e-09
 14.37610    -82.4 1.291e+04 2.613e-09
 14.39014    -81.9 1.290e+04 2.594e-09
 14.39604    -81.9 1.297e+04 2.737e-09
 14.40454    -81.9 1.351e+04 3.143e-09
 14.42119    -82.0 1.373e+04 3.475e-09
 14.44374    -85.1 1.562e+04 4.318e-09
 14.46371    -88.5 1.753e+04 6.580e-09
 14.47498    -89.3 1.773e+04 6.768e-09
 14.48883    -92.5 1.875e+04 1.002e-08
 14.50613    -95.5 1.903e+04 1.223e-08
 14.51740    -95.7 1.890e+04 1.233e-08
 14.53392    -98.8 1.871e+04 1.253e-08
 14.54855   -102.0 1.777e+04 1.016e-08
 14.55982   -101.7 1.747e+04 9.616e-09
 14.57901   -104.8 1.603e+04 6.338e-09
 14.59097   -107.8 1.472e+04 4.316e-09
 14.60224   -107.1 1.451e+04 3.953e-09
 14.61479   -109.5 1.360e+04 3.057e-09
 14.62407   -110.8 1.277e+04 2.065e-09
 14.63339   -110.0 1.289e+04 2.105e-09
 14.64665   -111.1 1.236e+04 1.847e-09
 14.66453   -111.7 1.200e+04 1.622e-09
 14.67580   -110.9 1.213e+04 1.706e-09
 14.69174   -111.3 1.178e+04 1.455e-09
 14.70695   -111.6 1.136e+04 1.148e-09
 14.71822   -111.0 1.159e+04 1.290e-09
 14.73683   -111.2 1.114e+04 9.741e-10
 14.74937   -111.4 1.068e+04 7.093e-10
 14.76064   -110.8 1.086e+04 8.234e-10
 14.78052   -110.7 1.040e+04 5.916e-10
 14.79179   -110.0 1.061e+04 7.020e-10
 14.80447   -109.9 1.019e+04 5.051e-10
 14.82294   -109.6 9.907e+03 3.956e-10
 14.83223   -109.2 1.002e+04 4.265e-10
 14.83631   -109.1 9.976e+03 4.341e-10
 14.85418   -109.1 9.707e+03 3.440e-10
 14.87682   -107.7 9.841e+03 3.738e-10
 14.90612   -107.4 9.658e+03 3.049e-10
 14.93912   -106.8 9.533e+03 2.662e-10
 14.96166   -105.8 9.838e+03 3.303e-10
 14.99630   -105.4 9.866e+03 3.299e-10
 15.02386   -105.4 1.005e+04 3.759e-10
 15.03503   -105.3 1.024e+04 4.616e-10
 15.04656   -105.3 1.035e+04 5.126e-10
 15.05783   -105.3 1.051e+04 6.123e-10
 15.06618   -105.3 1.069e+04 7.013e-10
 15.07745   -104.7 1.099e+04 8.415e-10
 15.09732   -104.6 1.113e+04 8.938e-10
 15.10860   -104.1 1.133e+04 1.006e-09
 15.12011   -104.1 1.135e+04 1.003e-09
 15.13974   -104.1 1.132e+04 9.502e-10
 15.15102   -103.4 1.133e+04 9.429e-10
 15.16520   -103.4 1.122e+04 8.378e-10
 15.18216   -103.5 1.113e+04 7.373e-10
 15.19343   -102.6 1.108e+04 6.754e-10
 15.21029   -102.6 1.101e+04 5.869e-10
 15.22458   -102.7 1.098e+04 5.259e-10
 15.23585   -101.8 1.094e+04 4.815e-10
 15.25538   -101.7 1.094e+04 4.573e-10
 15.26700   -101.7 1.095e+04 4.522e-10
 15.26843   -100.5 1.087e+04 4.272e-10
 15.27935   -100.0 1.102e+04 5.206e-10
 15.29815    -99.9 1.103e+04 5.203e-10
 15.30942    -98.7 1.098e+04 4.950e-10
 15.32301    -98.7 1.119e+04 5.196e-10
 15.34057    -98.8 1.130e+04 5.934e-10
 15.35184    -97.4 1.125e+04 5.932e-10
 15.36811    -97.5 1.140e+04 6.841e-10
 15.38298    -97.9 1.165e+04 7.972e-10
 15.39426    -96.2 1.157e+04 7.872e-10
 15.41320    -96.9 1.188e+04 9.079e-10
 15.42540    -97.9 1.230e+04 1.059e-09
 15.43668    -96.0 1.219e+04 1.024e-09
 15.45655    -97.5 1.268e+04 1.183e-09
 15.46782    -95.4 1.255e+04 1.144e-09
 15.47833    -97.2 1.306e+04 1.311e-09
 15.48960    -95.7 1.346e+04 1.534e-09
 15.49897    -98.2 1.413e+04 1.823e-09
 15.51024    -95.9 1.399e+04 1.776e-09
 15.52592    -99.3 1.477e+04 2.125e-09
 15.54139   -104.0 1.537e+04 2.474e-09
 15.55266   -101.0 1.631e+04 2.758e-09
 15.57102   -108.3 1.665e+04 3.052e-09
 15.58376   -114.8 1.657e+04 2.973e-09
 15.58935   -114.2 1.669e+04 3.110e-09
 15.59463   -119.0 1.696e+04 3.293e-09
 15.60026   -119.3 1.745e+04 3.889e-09
 15.60492   -125.4 1.750e+04 4.232e-09
 15.61056   -128.6 1.898e+04 5.651e-09
 15.62049   -134.3 1.869e+04 6.490e-09
 15.62613   -138.4 1.971e+04 9.805e-09
 15.63292   -142.0 1.863e+04 1.011e-08
 15.64170   -143.8 1.792e+04 1.013e-08
 15.64734   -146.2 1.784e+04 1.350e-08
 15.65546   -146.8 1.731e+04 1.208e-08
 15.66291   -146.8 1.691e+04 1.032e-08
 15.66855   -148.1 1.743e+04 1.072e-08
 15.67801   -148.3 1.700e+04 8.358e-09
 15.68412   -148.6 1.653e+04 6.762e-09
 15.68976   -149.6 1.676e+04 6.056e-09
 15.69969   -149.7 1.609e+04 5.277e-09
 15.70457   -150.8 1.685e+04 3.829e-09
 15.71112   -153.5 1.803e+04 3.275e-09
 15.72883   -152.4 1.603e+04 2.280e-09
 15.74221   -151.6 1.354e+04 1.375e-09
 15.75348   -154.1 1.181e+04 6.032e-10
 15.77336   -154.2 1.056e+04 4.678e-10
 15.78463   -155.1 9.867e+03 3.818e-10
 15.79647   -154.5 9.469e+03 3.392e-10
 15.81578   -152.8 9.371e+03 3.310e-10
 15.82705   -152.4 9.320e+03 3.209e-10
 15.84156   -150.7 9.275e+03 3.145e-10
 15.85820   -149.1 9.269e+03 3.134e-10
 15.86947   -148.5 9.277e+03 3.143e-10
 15.88665   -147.2 9.329e+03 3.210e-10
 15.90061   -146.2 9.387e+03 3.354e-10
 15.91189   -145.1 9.311e+03 3.314e-10
 15.94311   -144.2 9.339e+03 3.392e-10
 15.97437   -142.7 9.293e+03 3.318e-10
 15.99692   -141.1 9.338e+03 3.422e-10
 16.03339   -139.5 9.220e+03 3.192e-10
 16.05921   -137.8 9.061e+03 2.885e-10
 16.08176   -136.5 9.312e+03 3.261e-10
 16.12054   -134.8 9.106e+03 2.859e-10
 16.14101   -135.2 9.240e+03 3.352e-10
 16.14405   -133.7 9.469e+03 4.101e-10
 16.16867   -132.1 9.246e+03 3.429e-10
 16.20634   -130.0 8.970e+03 2.800e-10
 16.22889   -128.8 9.090e+03 3.044e-10
 16.25885   -126.4 8.766e+03 2.377e-10
 16.29118   -124.2 8.548e+03 1.926e-10
 16.31373   -122.9 8.589e+03 1.973e-10
 16.34903   -120.7 8.442e+03 1.604e-10
 16.37602   -118.5 8.346e+03 1.315e-10
 16.39857   -117.4 8.415e+03 1.364e-10
 16.43831   -115.2 8.325e+03 1.115e-10
 16.46086   -114.0 8.406e+03 1.205e-10
 16.48430   -111.8 8.324e+03 9.906e-11
 16.52315   -109.7 8.317e+03 8.556e-11
 16.54570   -108.6 8.407e+03 9.053e-11
 16.56358   -106.5 8.446e+03 8.078e-11
 16.58612   -106.4 8.483e+03 9.409e-11
 16.60799   -104.4 8.501e+03 9.244e-11
 16.63053   -103.3 8.638e+03 1.013e-10
 16.66467   -101.3 8.645e+03 1.010e-10
 16.69283    -99.5 8.810e+03 1.039e-10
 16.71537    -98.4 8.857e+03 1.096e-10
 16.75485    -96.6 9.111e+03 1.253e-10
 16.77767    -94.9 9.337e+03 1.584e-10
 16.80021    -94.1 9.477e+03 1.665e-10
 16.83996    -92.5 9.800e+03 2.308e-10
 16.86250    -92.1 1.017e+04 2.678e-10
 16.89012    -90.4 1.068e+04 4.101e-10
 16.92480    -89.1 1.124e+04 5.907e-10
 16.94724    -90.0 1.194e+04 9.264e-10
 16.96702    -89.6 1.250e+04 1.383e-09
 16.97829    -90.1 1.260e+04 1.495e-09
 16.99138    -89.5 1.313e+04 1.967e-09
 17.00642    -89.0 1.360e+04 2.534e-09
 17.01321    -89.4 1.359e+04 2.604e-09
 17.02071    -89.6 1.319e+04 2.223e-09
 17.03647    -88.9 1.341e+04 2.557e-09
 17.05186    -88.3 1.349e+04 2.765e-09
 17.06313    -88.1 1.260e+04 1.734e-09
 17.08157    -87.4 1.262e+04 1.757e-09
 17.09428    -86.6 1.259e+04 1.729e-09
 17.11692    -87.3 1.135e+04 6.863e-10
 17.15677    -85.7 1.119e+04 6.587e-10
 17.17931    -85.7 1.003e+04 3.040e-10
 17.20576    -83.9 1.006e+04 3.435e-10
 17.24160    -81.9 1.004e+04 3.768e-10
 17.26415    -80.8 9.678e+03 2.823e-10
 17.29594    -78.6 9.749e+03 3.139e-10
 17.32644    -76.5 9.783e+03 3.398e-10
 17.34899    -75.5 9.671e+03 2.910e-10
 17.38613    -73.5 9.779e+03 3.358e-10
 17.41128    -71.6 9.995e+03 4.115e-10
 17.42972    -70.2 1.011e+04 4.070e-10
 17.44950    -70.5 1.016e+04 4.369e-10
 17.46478    -69.1 1.039e+04 5.300e-10
 17.48465    -68.6 1.057e+04 6.135e-10
 17.49592    -68.6 1.080e+04 6.674e-10
 17.50993    -68.3 1.121e+04 8.406e-10
 17.52707    -68.1 1.167e+04 1.051e-09
 17.53834    -69.0 1.246e+04 1.449e-09
 17.55502    -68.9 1.295e+04 1.865e-09
 17.56949    -68.8 1.327e+04 2.237e-09
 17.58076    -69.5 1.401e+04 3.308e-09
 17.60011    -69.2 1.412e+04 3.604e-09
 17.61191    -69.0 1.413e+04 3.661e-09
 17.62318    -69.2 1.483e+04 4.903e-09
 17.64305    -68.7 1.470e+04 4.472e-09
 17.65433    -69.1 1.487e+04 4.461e-09
 17.65971    -68.6 1.438e+04 3.763e-09
 17.67098    -69.5 1.369e+04 2.672e-09
 17.68547    -69.0 1.319e+04 2.229e-09
 17.69675    -69.7 1.298e+04 1.768e-09
 17.71284    -68.9 1.251e+04 1.529e-09
 17.72789    -68.0 1.213e+04 1.367e-09
 17.73916    -68.7 1.179e+04 9.831e-10
 17.75793    -67.6 1.156e+04 9.370e-10
 17.77031    -66.4 1.144e+04 9.129e-10
 17.78158    -67.0 1.124e+04 7.324e-10
 17.80146    -65.6 1.134e+04 8.297e-10
 17.81283    -67.1 1.093e+04 5.411e-10
 17.83704    -64.5 1.104e+04 6.190e-10
 17.87015    -61.8 1.125e+04 7.899e-10
 17.88579    -62.4 1.078e+04 4.351e-10
 17.89776    -63.0 1.020e+04 2.981e-10
 17.92722    -60.6 1.053e+04 3.815e-10
 17.96006    -58.2 1.085e+04 5.100e-10
 17.98260    -58.6 1.019e+04 3.659e-10
 18.01740    -56.1 1.050e+04 4.577e-10
 18.04489    -53.7 1.075e+04 5.697e-10
 18.06744    -53.6 1.011e+04 4.169e-10
 18.10719    -51.0 1.037e+04 5.070e-10
 18.12973    -50.5 9.824e+03 3.773e-10
 18.15267    -47.8 1.011e+04 4.695e-10
 18.19203    -45.1 1.041e+04 5.994e-10
 18.21457    -44.3 9.958e+03 4.330e-10
 18.24286    -41.5 1.031e+04 5.862e-10
 18.27686    -38.7 1.068e+04 7.841e-10
 18.29941    -38.0 1.026e+04 5.519e-10
 18.31319    -35.1 1.067e+04 7.670e-10
 18.33574    -35.4 1.023e+04 4.715e-10
 18.36170    -32.5 1.056e+04 6.447e-10
 18.38425    -31.9 1.055e+04 6.245e-10
 18.42322    -29.0 1.086e+04 7.859e-10
 18.44654    -26.2 1.098e+04 8.492e-10
 18.46909    -25.8 1.134e+04 9.730e-10
 18.50883    -23.2 1.138e+04 9.884e-10
 18.53138    -23.1 1.176e+04 1.226e-09
 18.55849    -20.3 1.170e+04 1.164e-09
 18.59367    -17.3 1.128e+04 8.641e-10
 18.61622    -17.7 1.181e+04 1.230e-09
 18.64867    -14.7 1.146e+04 9.500e-10
 18.67851    -11.6 1.103e+04 6.814e-10
 18.70105    -12.6 1.202e+04 1.307e-09
 18.73369     -9.9 1.204e+04 1.167e-09
 18.75624    -10.7 1.216e+04 1.401e-09
 18.76325     -9.3 1.253e+04 1.637e-09
 18.77442     -9.9 1.312e+04 2.411e-09
 18.79430     -8.8 1.336e+04 2.808e-09
 18.80557     -9.0 1.369e+04 3.127e-09
 18.81757     -8.0 1.400e+04 3.702e-09
 18.83672     -6.8 1.426e+04 4.317e-09
 18.84799     -7.2 1.419e+04 4.137e-09
 18.86266     -6.0 1.448e+04 4.826e-09
 18.87914     -4.8 1.474e+04 5.491e-09
 18.89041     -4.9 1.421e+04 4.240e-09
 18.90775     -3.5 1.432e+04 4.434e-09
 18.92156     -2.1 1.439e+04 4.409e-09
 18.93283     -2.7 1.331e+04 2.318e-09
 18.95270     -1.4 1.316e+04 1.980e-09
 18.96397     -2.5 1.197e+04 1.102e-09
 18.96629     -1.8 1.192e+04 8.634e-10
 18.97756     -3.1 1.130e+04 6.430e-10
 18.99522     -1.2 1.233e+04 6.734e-10
 19.01786     -4.4 9.515e+03 3.010e-10
 19.05449     -4.3 9.248e+03 2.160e-10
 19.08015     -4.6 9.090e+03 1.886e-10
 19.10270     -4.0 8.856e+03 1.815e-10
 19.14245     -3.6 8.834e+03 1.776e-10
 19.16499     -1.8 8.843e+03 1.821e-10
 19.17673     -1.1 8.985e+03 1.856e-10
 19.19928     -2.0 8.965e+03 1.835e-10
 19.22728     -2.1 9.228e+03 2.181e-10
 19.24983     -0.3 9.230e+03 2.255e-10
 19.27995     -1.2 9.937e+03 3.910e-10
 19.31212     -1.7 1.078e+04 7.390e-10
 19.33467     -0.0 1.091e+04 8.876e-10
 19.37013     -0.2 1.159e+04 1.281e-09
 19.39696     -0.6 1.176e+04 1.333e-09
 19.40244      0.4 1.197e+04 1.548e-09
 19.40933      0.5 1.187e+04 1.514e-09
 19.42630      0.7 1.176e+04 1.405e-09
 19.43918      0.3 1.134e+04 8.676e-10
 19.45046      1.5 1.132e+04 8.640e-10
 19.47033      0.5 1.089e+04 4.503e-10
 19.48160      1.4 1.091e+04 4.527e-10
 19.49394     -0.7 1.023e+04 2.675e-10
 19.51275     -1.8 9.723e+03 2.142e-10
 19.52402     -1.1 9.694e+03 2.143e-10
 19.54399     -1.9 9.594e+03 2.001e-10
 19.56664      0.0 9.545e+03 2.030e-10
 19.59559     -0.3 9.468e+03 1.895e-10
 19.61977     -1.3 9.740e+03 1.906e-10
 19.63057     -0.2 9.342e+03 1.542e-10
 19.65148      1.8 9.312e+03 1.559e-10
 19.68577      1.2 9.437e+03 1.543e-10
 19.71377     -0.4 1.047e+04 2.013e-10
 19.72494      0.9 9.880e+03 1.787e-10
 19.74194      0.5 9.971e+03 1.951e-10
 19.75599     -0.2 9.977e+03 2.466e-10
 19.76726     -0.2 9.942e+03 2.497e-10
 19.78703     -0.6 1.003e+04 3.174e-10
 19.79841     -0.5 1.027e+04 4.151e-10
 19.80968     -1.0 1.030e+04 4.319e-10
 19.82956     -0.5 1.060e+04 5.131e-10
 19.83853     -1.2 1.076e+04 5.974e-10
 19.84110     -1.5 1.088e+04 6.360e-10
 19.85466     -1.0 1.099e+04 6.588e-10
 19.87198     -0.5 1.123e+04 6.887e-10
 19.88325     -2.1 1.180e+04 9.572e-10
 19.89976     -1.7 1.182e+04 9.283e-10
 19.91440     -1.0 1.208e+04 9.587e-10
 19.92567     -2.7 1.204e+04 1.083e-09
 19.94485     -1.9 1.225e+04 1.094e-09
 19.95681     -1.0 1.315e+04 1.311e-09
 19.96819     -3.0 1.206e+04 9.704e-10
 19.98806     -1.1 1.314e+04 1.332e-09
 19.99923     -2.1 1.197e+04 9.858e-10
 20.01248     -0.9 1.264e+04 1.102e-09
 20.03038     -0.1 1.354e+04 1.352e-09
 20.04165     -1.1 1.200e+04 8.099e-10
 20.05134     -0.5 1.243e+04 8.883e-10
 20.06271     -3.0 1.149e+04 7.263e-10
 20.07290     -1.4 1.224e+04 8.470e-10
 20.08407     -2.9 1.119e+04 6.515e-10
 20.10267     -3.8 1.132e+04 7.023e-10
 20.11522     -5.5 1.188e+04 8.514e-10
 20.12649     -5.5 1.169e+04 8.140e-10
 20.14636     -7.0 1.237e+04 1.175e-09
 20.15764     -6.4 1.213e+04 1.103e-09
 20.17030     -7.8 1.290e+04 1.781e-09
 20.18878     -8.6 1.392e+04 3.078e-09
 20.20006     -7.2 1.354e+04 2.544e-09
 20.21539     -7.5 1.437e+04 4.022e-09
 20.23120     -7.5 1.487e+04 5.094e-09
 20.24248     -6.3 1.454e+04 4.558e-09
 20.26048     -6.2 1.479e+04 5.088e-09
 20.27286     -6.0 1.467e+04 4.973e-09
 20.27473     -5.8 1.424e+04 4.045e-09
 20.28489     -4.5 1.416e+04 3.906e-09
 20.30477     -4.2 1.383e+04 3.460e-09
 20.31604     -3.2 1.380e+04 3.434e-09
 20.32812     -2.8 1.343e+04 2.774e-09
 20.34719     -2.7 1.288e+04 1.946e-09
 20.35846     -1.6 1.290e+04 2.123e-09
 20.37321     -1.4 1.237e+04 1.581e-09
 20.40713     -1.0 1.198e+04 1.224e-09
 20.43222      0.6 1.104e+04 7.464e-10
 20.45477      2.9 1.114e+04 9.003e-10
 20.48331      4.7 1.042e+04 5.687e-10
 20.50296      5.8 1.010e+04 3.861e-10
 20.51706      7.5 1.033e+04 5.108e-10
 20.54250      9.1 9.989e+03 3.654e-10
 20.57935     11.3 9.707e+03 2.877e-10
 20.60190     12.9 9.931e+03 3.992e-10
 20.63268     15.2 9.792e+03 3.436e-10
 20.66419     17.5 9.682e+03 2.951e-10
 20.68674     19.0 9.977e+03 4.317e-10
 20.72286     21.2 9.889e+03 3.790e-10
 20.74903     23.4 9.812e+03 3.385e-10
 20.77157     24.8 1.008e+04 4.611e-10
 20.81132     26.9 1.004e+04 4.320e-10
 20.83387     27.9 1.020e+04 4.770e-10
 20.85814     30.0 1.020e+04 4.709e-10
 20.89616     31.9 1.022e+04 4.551e-10
 20.91870     32.7 1.023e+04 4.466e-10
 20.92635     34.7 1.019e+04 4.180e-10
 20.94889     35.3 1.025e+04 4.522e-10
 20.98100     37.2 1.017e+04 3.854e-10
 21.00354     37.8 1.012e+04 3.644e-10
 21.03850     39.4 1.005e+04 3.159e-10
 21.06584     40.8 9.976e+03 2.870e-10
 21.08838     41.5 9.813e+03 2.819e-10
 21.12813     43.1 9.911e+03 2.869e-10
 21.15067     44.1 9.891e+03 3.063e-10
 21.17377     45.7 1.031e+04 3.394e-10
 21.20749     46.1 1.056e+04 3.338e-10
 21.22404     45.8 1.093e+04 3.864e-10
 21.23532     46.8 1.098e+04 3.997e-10
 21.25249     46.3 1.110e+04 4.752e-10
 21.26646     46.1 1.092e+04 5.818e-10
 21.27774     46.8 1.119e+04 6.139e-10
 21.29758     47.1 1.103e+04 7.350e-10
 21.32012     48.2 1.147e+04 9.750e-10
 21.34003     49.0 1.164e+04 1.003e-09
 21.35130     49.3 1.206e+04 1.357e-09
 21.35792     49.8 1.222e+04 1.217e-09
 21.36919     49.6 1.233e+04 1.358e-09
 21.38245     49.5 1.242e+04 1.090e-09
 21.39372     50.0 1.281e+04 1.654e-09
 21.41031     49.5 1.275e+04 1.360e-09
 21.42487     48.9 1.296e+04 1.228e-09
 21.43614     49.6 1.319e+04 1.725e-09
 21.45540     49.1 1.373e+04 1.646e-09
 21.46729     48.0 1.434e+04 1.910e-09
 21.47856     48.8 1.478e+04 2.303e-09
 21.49843     47.9 1.519e+04 2.696e-09
 21.50970     48.5 1.580e+04 3.598e-09
 21.52303     48.2 1.586e+04 3.881e-09
 21.54085     48.4 1.527e+04 4.026e-09
 21.55212     49.1 1.631e+04 5.138e-09
 21.56812     49.4 1.538e+04 4.351e-09
 21.58327     50.1 1.467e+04 3.025e-09
 21.59454     50.2 1.562e+04 3.988e-09
 21.61322     50.2 1.509e+04 2.817e-09
 21.62569     49.5 1.441e+04 1.908e-09
 21.63696     49.1 1.601e+04 3.300e-09
 21.65684     48.1 1.532e+04 2.321e-09
 21.66811     47.4 1.698e+04 5.677e-09
 21.68085     47.8 1.683e+04 4.165e-09
 21.69925     47.7 1.575e+04 2.824e-09
 21.71053     48.8 1.770e+04 5.994e-09
 21.72594     47.5 1.560e+04 3.421e-09
 21.74167     47.1 1.397e+04 2.596e-09
 21.75295     46.8 1.471e+04 3.237e-09
 21.77103     47.0 1.382e+04 2.529e-09
 21.78409     47.5 1.342e+04 1.955e-09
 21.79147     46.7 1.355e+04 2.154e-09
 21.80096     46.8 1.339e+04 1.992e-09
 21.81524     47.5 1.298e+04 1.581e-09
 21.82651     47.1 1.315e+04 1.718e-09
 21.84648     48.3 1.252e+04 1.206e-09
 21.86913     48.4 1.263e+04 1.316e-09
 21.89523     51.2 1.186e+04 7.936e-10
 21.93142     53.4 1.157e+04 4.695e-10
 21.95396     54.0 1.192e+04 8.072e-10
 21.98541     56.4 1.157e+04 5.795e-10
 22.01130     58.4 1.171e+04 4.548e-10
 22.01951     58.5 1.169e+04 4.584e-10
 22.02733     59.1 1.197e+04 6.866e-10
 22.04158     60.1 1.174e+04 6.039e-10
 22.05848     61.4 1.157e+04 5.228e-10
 22.06975     61.9 1.181e+04 8.157e-10
 22.08667     63.0 1.187e+04 6.754e-10
 22.10090     64.0 1.176e+04 6.256e-10
 22.11217     64.7 1.218e+04 9.664e-10
 22.13176     65.2 1.242e+04 8.436e-10
 22.14332     66.2 1.217e+04 9.123e-10
 22.15459     67.1 1.273e+04 1.247e-09
 22.17446     67.7 1.258e+04 1.192e-09
 22.18574     68.6 1.314e+04 1.573e-09
 22.21028     70.0 1.286e+04 1.673e-09
 22.23292     70.7 1.339e+04 1.952e-09
 22.24823     72.1 1.304e+04 1.789e-09
 22.27077     72.7 1.331e+04 2.148e-09
 22.30105     74.4 1.311e+04 1.969e-09
 22.33306     76.4 1.295e+04 1.501e-09
 22.35561     77.0 1.303e+04 1.897e-09
 22.39123     78.8 1.290e+04 1.333e-09
 22.41790     80.0 1.267e+04 9.196e-10
 22.44045     80.7 1.272e+04 1.143e-09
 22.48019     81.8 1.256e+04 9.894e-10
 22.50274     82.5 1.259e+04 1.038e-09
 22.51513     83.2 1.249e+04 1.047e-09
 22.53369     84.1 1.228e+04 1.052e-09
 22.54496     84.3 1.243e+04 1.097e-09
 22.56013     85.2 1.234e+04 1.167e-09
 22.57611     86.1 1.236e+04 1.176e-09
 22.58738     86.3 1.245e+04 1.268e-09
 22.60522     87.3 1.258e+04 1.279e-09
 22.61853     87.8 1.268e+04 1.239e-09
 22.62980     87.9 1.283e+04 1.364e-09
 22.64968     88.4 1.286e+04 1.319e-09
 22.66095     88.4 1.298e+04 1.426e-09
 22.66450     88.6 1.294e+04 1.376e-09
 22.67587     89.0 1.257e+04 1.121e-09
 22.70687     89.9 1.259e+04 1.151e-09
 22.73471     90.7 1.252e+04 1.189e-09
 22.75725     90.8 1.271e+04 1.295e-09
 22.79700     91.8 1.243e+04 1.204e-09
 22.84209     92.8 1.221e+04 1.141e-09
 22.88184     94.1 1.203e+04 8.979e-10
 22.90439     94.0 1.198e+04 1.029e-09
 22.93232     95.5 1.190e+04 8.184e-10
 22.96668     96.7 1.202e+04 7.279e-10
 22.98922     96.5 1.171e+04 6.812e-10
 23.02251     96.6 1.170e+04 5.987e-10
 23.05152     96.3 1.189e+04 6.497e-10
 23.07406     96.9 1.134e+04 5.772e-10
 23.09646     96.5 1.157e+04 7.347e-10
 23.11900     96.3 1.175e+04 8.267e-10
 23.13635     97.0 1.173e+04 7.975e-10
 23.15890     98.2 1.171e+04 8.182e-10
 23.19865     99.2 1.163e+04 6.422e-10
 23.22119    100.2 1.158e+04 7.692e-10
 23.24796    101.1 1.151e+04 5.086e-10
 23.28349    101.7 1.146e+04 3.555e-10
 23.30603    102.8 1.148e+04 4.933e-10
 23.33814    103.7 1.136e+04 3.899e-10
 23.36832    105.1 1.127e+04 3.733e-10
 23.39087    106.0 1.146e+04 5.014e-10
 23.42833    107.5 1.133e+04 4.503e-10
 23.45316    109.2 1.121e+04 4.139e-10
 23.47571    109.8 1.134e+04 4.950e-10
 23.51545    111.6 1.112e+04 4.035e-10
 23.53645    112.0 1.126e+04 4.995e-10
 23.53950    112.2 1.121e+04 3.779e-10
 23.56360    114.2 1.102e+04 3.507e-10
 23.60029    116.3 1.097e+04 3.511e-10
 23.62284    116.6 1.102e+04 4.011e-10
 23.65378    118.8 1.103e+04 4.151e-10
 23.68513    120.9 1.112e+04 4.700e-10
 23.70768    120.9 1.121e+04 5.512e-10
 23.74396    122.9 1.146e+04 6.914e-10
 23.76997    124.8 1.178e+04 9.102e-10
 23.79251    124.3 1.186e+04 9.738e-10
 23.83226    125.9 1.224e+04 1.251e-09
 23.85481    125.0 1.219e+04 1.218e-09
 23.87924    126.2 1.236e+04 1.294e-09
 23.91710    127.5 1.230e+04 1.225e-09
 23.93965    126.6 1.205e+04 1.128e-09
 23.95999    128.1 1.186e+04 9.273e-10
 23.98254    128.7 1.194e+04 7.582e-10
 24.00194    130.3 1.161e+04 4.187e-10
 24.02448    129.5 1.119e+04 3.983e-10
 24.05960    131.0 1.098e+04 2.167e-10
 24.08678    132.4 1.089e+04 1.190e-10
 24.10932    132.3 1.075e+04 1.270e-10
 24.14907    133.6 1.059e+04 7.864e-11
 24.17161    133.9 1.039e+04 9.725e-11
 24.19487    135.4 1.019e+04 7.101e-11
 24.23391    137.1 1.009e+04 6.761e-11
 24.25645    137.6 1.009e+04 7.836e-11
 24.28506    139.5 1.007e+04 7.661e-11
 24.31875    141.3 1.009e+04 7.910e-11
 24.34129    141.9 1.015e+04 9.137e-11
 24.37524    143.7 1.020e+04 8.950e-11
 24.40303    145.3 1.025e+04 8.602e-11
 24.40883    145.8 1.021e+04 8.672e-11
 24.42613    146.3 1.019e+04 8.273e-11
 24.46542    147.8 1.016e+04 7.711e-11
 24.48842    149.1 1.004e+04 7.148e-11
 24.51097    149.6 9.846e+03 6.853e-11
 24.55071    150.8 9.640e+03 6.905e-11
 24.57326    151.4 9.635e+03 6.868e-11
 24.60069    152.7 9.621e+03 7.044e-11
 24.63555    153.6 9.616e+03 8.159e-11
 24.65810    154.3 9.611e+03 8.132e-11
 24.69087    154.3 9.680e+03 1.206e-10
 24.72039    154.1 9.932e+03 2.077e-10
 24.74294    154.9 9.939e+03 2.125e-10
 24.78106    154.2 1.029e+04 3.608e-10
 24.80523    153.2 1.042e+04 5.077e-10
 24.81640    153.4 1.059e+04 5.368e-10
 24.83461    153.1 1.056e+04 5.714e-10
 24.84483    153.3 1.046e+04 5.456e-10
 24.84745    153.2 1.057e+04 6.153e-10
 24.86742    152.4 1.047e+04 5.846e-10
 24.89007    152.4 1.080e+04 7.566e-10
 24.91633    150.6 1.037e+04 6.133e-10
 24.95236    148.6 9.790e+03 3.480e-10
 24.97490    148.5 1.016e+04 4.383e-10
 25.00651    145.9 9.138e+03 1.903e-10
 25.03720    144.0 8.539e+03 1.420e-10
 25.05974    143.6 8.508e+03 1.511e-10
 25.09669    143.2 8.457e+03 1.512e-10
 25.12204    143.6 8.452e+03 1.581e-10
 25.14458    143.4 8.432e+03 1.597e-10
 25.18433    144.1 8.510e+03 1.801e-10
 25.20687    143.9 8.415e+03 1.685e-10
 25.23197    144.7 8.434e+03 1.713e-10
 25.26657    145.5 8.415e+03 1.650e-10
 25.28122    145.5 8.496e+03 1.867e-10
 25.29171    145.4 8.243e+03 1.430e-10
 25.32215    146.2 8.176e+03 1.300e-10
 25.35400    147.1 8.101e+03 1.205e-10
 25.37655    147.1 7.878e+03 1.031e-10
 25.41233    148.2 7.834e+03 1.053e-10
 25.43884    149.3 7.817e+03 1.132e-10
 25.46139    149.7 7.733e+03 1.120e-10
 25.50114    150.9 7.789e+03 1.218e-10
 25.52368    151.5 7.775e+03 1.219e-10
 25.54760    152.7 7.834e+03 1.323e-10
 25.58597    153.8 7.902e+03 1.442e-10
 25.60852    154.7 7.891e+03 1.462e-10
 25.63779    155.9 7.989e+03 1.608e-10
 25.67081    157.2 8.120e+03 1.821e-10
 25.69336    158.1 8.129e+03 1.916e-10
 25.70961    159.4 8.315e+03 2.239e-10
 25.73216    159.4 8.762e+03 3.182e-10
 25.75565    160.4 8.985e+03 3.689e-10
 25.77820    161.2 8.967e+03 3.771e-10
 25.79797    161.5 8.991e+03 3.880e-10
 25.80915    161.7 8.990e+03 3.993e-10
 25.82902    161.9 9.063e+03 4.149e-10
 25.84029    162.1 9.080e+03 4.325e-10
 25.85177    162.3 9.213e+03 4.668e-10
 25.87144    162.5 9.420e+03 5.243e-10
 25.88271    162.6 9.404e+03 5.280e-10
 25.89686    162.9 9.625e+03 6.039e-10
 25.91386    163.2 9.815e+03 6.850e-10
 25.92513    163.1 9.811e+03 6.831e-10
 25.93094    163.4 9.999e+03 7.726e-10
 25.94221    163.3 1.017e+04 8.736e-10
 25.95628    163.8 1.029e+04 9.538e-10
 25.96755    163.5 1.033e+04 9.706e-10
 25.98705    163.8 1.058e+04 1.073e-09
 25.99870    162.7 1.357e+04 1.490e-09
 26.00997    163.3 1.137e+04 1.266e-09
 26.02984    160.0 1.873e+04 2.258e-09
 26.04112    161.0 1.511e+04 1.695e-09
 26.05468    153.7 2.833e+04 3.766e-09
 26.07154    144.4 3.376e+04 1.719e-08
 26.07780    138.1 2.825e+04 7.679e-08
 26.08344    139.8 3.118e+04 3.519e-08
 26.09337    135.6 2.681e+04 9.580e-08
 26.09901    137.4 3.016e+04 3.531e-08
 26.10531    133.0 2.633e+04 6.884e-08
 26.11458    129.6 2.428e+04 8.323e-08
 26.12022    129.9 2.483e+04 5.180e-08
 26.12786    127.4 2.374e+04 5.301e-08
 26.13579    125.9 2.232e+04 4.778e-08
 26.14143    125.4 2.256e+04 3.908e-08
 26.14672    124.0 2.173e+04 2.871e-08
 26.15236    123.4 2.170e+04 2.699e-08
 26.15705    122.4 2.268e+04 1.102e-08
 26.16837    119.9 2.069e+04 9.987e-09
 26.18825    115.6 1.749e+04 3.092e-09
 26.19952    114.7 1.569e+04 3.235e-09
 26.21250    111.6 1.271e+04 1.475e-09
 26.23067    110.9 1.173e+04 9.834e-10
 26.24194    111.6 1.181e+04 1.072e-09
 26.25759    112.0 1.140e+04 8.401e-10
 26.27308    112.6 1.115e+04 6.906e-10
 26.28436    113.0 1.118e+04 7.438e-10
 26.30268    113.6 1.087e+04 6.059e-10
 26.31550    114.2 1.055e+04 5.015e-10
 26.32678    114.7 1.065e+04 5.781e-10
 26.34665    115.2 1.037e+04 4.892e-10
 26.35792    115.8 1.060e+04 6.039e-10
 26.36270    116.1 1.042e+04 5.301e-10
 26.37398    115.9 1.035e+04 5.014e-10
 26.38907    116.2 1.042e+04 4.975e-10
 26.40034    116.7 1.060e+04 6.043e-10
 26.41541    117.0 1.065e+04 6.049e-10
 26.43149    117.2 1.072e+04 6.136e-10
 26.44276    117.6 1.094e+04 7.632e-10
 26.46050    117.8 1.095e+04 7.687e-10
 26.47391    118.0 1.096e+04 7.847e-10
 26.48518    118.3 1.121e+04 9.660e-10
 26.50505    118.3 1.127e+04 9.891e-10
 26.51633    118.6 1.153e+04 1.204e-09
 26.52814    118.4 1.158e+04 1.214e-09
 26.54747    118.1 1.160e+04 1.221e-09
 26.55875    118.2 1.182e+04 1.420e-09
 26.57295    118.1 1.170e+04 1.315e-09
 26.58422    118.4 1.139e+04 1.017e-09
 26.58989    118.0 1.119e+04 9.256e-10
 26.60116    118.0 1.128e+04 9.763e-10
 26.62114    118.3 1.068e+04 7.547e-10
 26.64378    118.2 1.074e+04 7.627e-10
 26.67488    117.6 1.006e+04 5.233e-10
 26.70607    116.7 9.789e+03 4.480e-10
 26.72862    116.4 9.761e+03 4.481e-10
 26.76506    115.5 9.727e+03 4.605e-10
 26.79091    114.8 9.719e+03 5.160e-10
 26.81346    114.9 9.706e+03 5.194e-10
 26.85320    114.2 9.721e+03 5.230e-10
 26.87575    114.4 9.673e+03 5.158e-10
 26.90034    113.9 9.489e+03 4.441e-10
 26.93804    113.8 9.080e+03 3.131e-10
 26.96059    114.3 8.878e+03 2.724e-10
 26.99052    114.4 8.431e+03 1.676e-10
 27.01619    114.4 8.101e+03 1.100e-10
 27.02600    114.6 8.170e+03 1.119e-10
 27.04542    115.1 7.989e+03 9.256e-11
 27.08070    115.4 7.796e+03 9.002e-11
 27.10772    116.6 7.785e+03 9.245e-11
 27.13026    117.6 7.722e+03 8.760e-11
 27.17001    118.9 7.791e+03 9.573e-11
 27.19256    119.9 7.802e+03 9.439e-11
 27.21597    121.1 7.937e+03 1.082e-10
 27.25485    122.2 8.085e+03 1.253e-10
 27.27739    122.8 8.190e+03 1.422e-10
 27.30616    123.7 8.387e+03 1.738e-10
 27.33969    124.4 8.626e+03 2.084e-10
 27.36223    124.8 8.966e+03 2.763e-10
 27.39634    125.0 9.293e+03 3.342e-10
 27.42452    124.6 9.587e+03 3.950e-10
 27.43570    124.6 9.623e+03 4.128e-10
 27.44776    124.4 9.747e+03 4.345e-10
 27.45903    124.5 9.707e+03 4.323e-10
 27.46675    124.0 9.999e+03 5.160e-10
 27.47802    123.7 1.010e+04 5.437e-10
 27.49760    123.4 1.018e+04 5.675e-10
 27.50917    122.7 1.028e+04 5.750e-10
 27.52044    122.1 1.030e+04 5.745e-10
 27.54031    121.5 1.031e+04 5.661e-10
 27.55159    120.7 1.031e+04 5.564e-10
 27.57156    119.8 1.038e+04 5.690e-10
 27.59420    117.9 1.031e+04 5.545e-10
 27.62179    115.4 1.051e+04 6.340e-10
 27.65649    113.7 1.083e+04 8.003e-10
 27.67904    112.4 1.062e+04 7.569e-10
 27.71197    111.6 1.052e+04 7.235e-10
 27.74133    111.0 1.019e+04 5.634e-10
 27.76388    110.6 9.675e+03 3.752e-10
 27.80216    109.7 9.289e+03 2.414e-10
 27.82617    108.7 8.924e+03 1.794e-10
 27.84872    108.6 8.627e+03 1.355e-10
 27.87972    108.5 8.613e+03 1.401e-10
 27.89839    108.1 8.441e+03 1.183e-10
 27.91101    108.5 8.315e+03 1.003e-10
 27.93743    108.7 8.397e+03 1.155e-10
 27.97330    108.9 8.567e+03 1.396e-10
 27.99585    109.6 8.399e+03 9.657e-11
 28.02761    109.7 8.519e+03 1.082e-10
 28.05814    109.8 8.611e+03 1.278e-10
 28.08068    110.2 8.331e+03 7.877e-11
 28.11779    110.2 8.432e+03 1.072e-10
 28.14298    110.5 8.873e+03 1.682e-10
 28.16552    111.4 8.557e+03 1.301e-10
 28.19661    111.8 8.854e+03 1.618e-10
 28.21635    111.5 9.230e+03 2.162e-10
 28.22762    112.2 9.051e+03 1.913e-10
 28.24160    110.7 1.060e+04 2.989e-10
 28.25877    101.8 1.608e+04 1.209e-09
 28.27004     99.8 1.711e+04 1.377e-09
 28.28669     94.7 1.684e+04 5.801e-09
 28.30118     96.4 1.637e+04 1.119e-08
 28.31246     96.2 1.634e+04 1.117e-08
 28.32257     98.0 1.624e+04 1.098e-08
 28.33384     99.1 1.662e+04 1.226e-08
 28.34360     98.5 1.676e+04 6.853e-09
 28.35488     98.0 1.707e+04 5.491e-09
 28.37475     91.9 1.731e+04 1.834e-09
 28.38602     89.4 1.646e+04 1.256e-09
 28.39942     79.7 1.091e+04 6.290e-10
 28.43333     77.7 9.561e+03 4.920e-10
 28.45978     77.9 8.802e+03 2.616e-10
 28.48233     77.5 8.645e+03 2.030e-10
 28.52208     75.3 8.183e+03 1.063e-10
 28.54462     74.5 8.164e+03 1.075e-10
 28.56870     72.8 7.694e+03 8.245e-11
 28.60691     72.1 7.585e+03 8.055e-11
 28.62946     72.0 7.778e+03 1.081e-10
 28.65889     70.1 8.250e+03 1.193e-10
 28.69175     66.9 8.649e+03 1.895e-10
 28.71430     65.5 9.159e+03 2.799e-10
 28.73407     64.2 9.323e+03 3.611e-10
 28.74525     63.5 9.551e+03 4.162e-10
 28.75434     61.2 1.027e+04 5.006e-10
 28.76561     59.9 1.057e+04 5.274e-10
 28.77640     55.1 1.163e+04 7.733e-10
 28.78767     51.8 1.198e+04 9.662e-10
 28.80524     47.5 1.183e+04 1.087e-09
 28.81881     44.0 1.129e+04 9.573e-10
 28.83009     42.1 1.108e+04 8.867e-10
 28.84996     39.0 1.080e+04 5.818e-10
 28.86123     36.3 1.072e+04 4.495e-10
 28.88424     30.8 9.407e+03 2.319e-10
 28.92372     26.3 8.720e+03 2.069e-10
 28.94627     23.1 8.708e+03 2.151e-10
 28.97452     20.8 8.718e+03 2.518e-10
 29.00856     19.1 8.942e+03 3.029e-10
 29.03111     16.8 8.878e+03 2.963e-10
 29.06471     15.5 8.814e+03 2.996e-10
 29.09340     14.7 8.690e+03 2.793e-10
 29.11594     12.9 8.314e+03 2.037e-10
 29.15489     12.4 8.132e+03 1.685e-10
 29.17824     12.0 7.957e+03 1.392e-10
 29.18710     10.4 7.829e+03 1.274e-10
 29.20884     12.1 7.906e+03 1.279e-10
 29.24053     12.0 7.848e+03 1.200e-10
 29.26307     10.7 7.841e+03 1.205e-10
 29.29016     11.0 7.826e+03 1.181e-10
 29.32537     11.4 7.831e+03 1.175e-10
 29.34791     10.4 7.909e+03 1.224e-10
 29.38034     11.0 7.974e+03 1.223e-10
 29.41021     11.5 8.088e+03 1.259e-10
 29.43275     10.2 8.197e+03 1.347e-10
 29.47053     10.5 8.435e+03 1.451e-10
 29.49504     10.6 8.726e+03 1.761e-10
 29.51759      9.0 9.042e+03 2.255e-10
 29.55734      9.4 9.280e+03 2.824e-10
 29.57988      8.2 9.622e+03 3.683e-10
 29.60580      8.9 9.759e+03 3.998e-10
 29.62934      9.4 9.904e+03 4.144e-10
 29.64317     10.1 1.002e+04 4.132e-10
 29.66472      8.6 1.005e+04 3.899e-10
 29.69598      8.5 1.021e+04 4.249e-10
 29.72691      7.8 1.024e+04 4.023e-10
 29.73809      7.0 1.018e+04 3.772e-10
 29.75215      6.3 1.038e+04 4.312e-10
 29.76924      5.8 1.063e+04 5.484e-10
 29.78051      5.3 1.056e+04 5.402e-10
 29.79724      4.9 1.104e+04 7.418e-10
 29.81166      4.5 1.167e+04 1.076e-09
 29.82293      4.5 1.143e+04 1.023e-09
 29.83939      4.0 1.222e+04 1.524e-09
 29.85066      3.3 1.271e+04 1.908e-09
 29.85407      1.8 1.410e+04 2.970e-09
 29.86535     -2.4 1.664e+04 4.628e-09
 29.88522     -6.3 1.907e+04 8.829e-09
 29.89644    -10.6 2.105e+04 1.572e-08
 29.90423    -12.8 2.173e+04 2.555e-08
 29.91197    -13.9 2.151e+04 3.560e-08
 29.91761    -14.2 2.126e+04 6.331e-08
 29.92678    -14.0 2.104e+04 6.914e-08
 29.93318    -13.6 2.074e+04 6.919e-08
 29.93882    -12.9 2.102e+04 7.984e-08
 29.94875    -12.6 2.141e+04 6.106e-08
 29.95439    -12.2 2.160e+04 5.720e-08
 29.95569    -13.2 2.249e+04 3.754e-08
 29.96133    -15.1 2.250e+04 2.582e-08
 29.96996    -18.5 2.190e+04 1.635e-08
 29.98128    -21.3 2.166e+04 8.806e-09
 30.00015    -27.4 1.866e+04 4.475e-09
 30.01248    -31.4 1.636e+04 2.645e-09
 30.02375    -37.3 1.260e+04 1.021e-09
 30.04362    -38.8 1.166e+04 8.638e-10
 30.05490    -40.8 1.071e+04 5.813e-10
 30.06091    -41.1 1.063e+04 5.759e-10
 30.07218    -40.7 1.080e+04 6.406e-10
 30.08604    -40.9 1.071e+04 5.940e-10
 30.09732    -41.7 1.067e+04 5.066e-10
 30.11288    -41.9 1.053e+04 4.676e-10
 30.12846    -42.0 1.039e+04 4.224e-10
 30.15111    -42.6 1.004e+04 3.338e-10
 30.19095    -42.2 9.862e+03 3.109e-10
 30.21350    -42.9 9.581e+03 2.424e-10
 30.23707    -42.2 9.446e+03 2.370e-10
 30.27579    -41.4 9.339e+03 2.303e-10
 30.29833    -41.5 9.197e+03 1.752e-10
 30.32725    -40.6 9.103e+03 1.714e-10
 30.36063    -39.7 9.007e+03 1.635e-10
 30.38317    -39.7 8.899e+03 1.425e-10
 30.41744    -38.6 8.859e+03 1.518e-10
 30.44547    -37.5 8.866e+03 1.582e-10
 30.46801    -37.2 8.856e+03 1.672e-10
 30.49287    -36.1 8.892e+03 1.773e-10
 30.51542    -35.4 8.906e+03 1.709e-10
 30.55271    -34.2 9.089e+03 2.188e-10
 30.59260    -33.4 9.252e+03 2.471e-10
 30.61514    -33.1 9.428e+03 3.265e-10
 30.64289    -32.5 9.638e+03 3.981e-10
 30.67743    -31.8 9.775e+03 4.704e-10
 30.69998    -31.3 1.010e+04 6.426e-10
 30.73307    -30.6 1.019e+04 6.937e-10
 30.76227    -30.0 1.022e+04 7.118e-10
 30.78482    -29.9 1.051e+04 8.401e-10
 30.82326    -29.3 1.047e+04 8.238e-10
 30.84711    -28.8 1.045e+04 8.194e-10
 30.86966    -29.0 1.051e+04 9.114e-10
 30.90940    -28.5 1.045e+04 9.025e-10
 30.93188    -28.8 1.044e+04 9.387e-10
 30.95846    -28.5 1.159e+04 1.352e-09
 30.99225    -29.1 1.201e+04 1.682e-09
 31.00532    -29.8 1.233e+04 1.974e-09
 31.01659    -30.1 1.229e+04 1.992e-09
 31.03647    -30.3 1.243e+04 2.168e-09
 31.04774    -30.4 1.214e+04 1.914e-09
 31.05979    -30.5 1.204e+04 1.885e-09
 31.07888    -30.6 1.186e+04 1.721e-09
 31.10153    -31.5 1.126e+04 1.214e-09
 31.13889    -33.3 1.082e+04 9.292e-10
 31.16392    -35.5 1.049e+04 7.917e-10
 31.18646    -35.9 9.873e+03 6.134e-10
 31.22621    -37.5 1.003e+04 6.754e-10
 31.24876    -37.0 1.000e+04 6.737e-10
 31.27417    -38.3 9.900e+03 6.502e-10
 31.31105    -39.4 9.604e+03 5.279e-10
 31.33359    -39.4 9.385e+03 4.516e-10
 31.35641    -40.7 9.180e+03 3.602e-10
 31.37896    -40.8 8.831e+03 2.763e-10
 31.39589    -41.4 8.795e+03 2.589e-10
 31.41843    -41.6 8.784e+03 2.592e-10
 31.45453    -41.7 8.772e+03 2.575e-10
 31.48072    -41.0 8.801e+03 2.639e-10
 31.50327    -40.9 8.840e+03 2.677e-10
 31.54302    -39.9 8.913e+03 2.850e-10
 31.56556    -40.0 9.139e+03 3.131e-10
 31.58980    -39.2 9.349e+03 3.686e-10
 31.62352    -38.8 9.481e+03 4.351e-10
 31.63893    -38.8 9.705e+03 5.304e-10
 31.65021    -39.7 1.015e+04 7.019e-10
 31.66852    -39.4 1.051e+04 8.774e-10
 31.68135    -38.9 1.087e+04 1.067e-09
 31.69262    -39.3 1.129e+04 1.275e-09
 31.71250    -38.7 1.148e+04 1.356e-09
 31.72377    -39.0 1.149e+04 1.326e-09
 31.73615    -38.3 1.147e+04 1.300e-09
 31.75492    -37.6 1.138e+04 1.236e-09
 31.76619    -38.0 1.105e+04 9.433e-10
 31.78125    -37.7 1.082e+04 8.271e-10
 31.79734    -37.4 1.055e+04 7.104e-10
 31.80407    -38.8 1.012e+04 4.298e-10
 31.82190    -39.3 9.735e+03 3.190e-10
 31.85982    -38.1 9.508e+03 2.815e-10
 31.88237    -40.0 8.921e+03 1.797e-10
 31.90544    -39.1 8.816e+03 1.603e-10
 31.94466    -38.1 8.691e+03 1.418e-10
 31.96721    -39.4 8.662e+03 1.429e-10
 31.99562    -38.9 8.649e+03 1.371e-10
 32.02950    -39.7 8.795e+03 1.401e-10
 32.05205    -42.7 9.489e+03 2.385e-10
 32.08581    -44.3 1.030e+04 5.127e-10
 32.11434    -45.0 1.088e+04 9.673e-10
 32.13688    -45.7 1.067e+04 9.188e-10
 32.17599    -45.6 1.070e+04 9.783e-10
 32.19918    -45.7 1.027e+04 6.462e-10
 32.22059    -47.5 9.457e+03 2.637e-10
 32.24249    -49.2 9.114e+03 1.566e-10
 32.26147    -52.1 8.513e+03 8.630e-11
 32.28402    -53.7 8.241e+03 8.456e-11
 32.31126    -54.2 8.191e+03 8.169e-11
 32.34631    -54.6 8.111e+03 9.961e-11
 32.36885    -54.5 8.091e+03 1.128e-10
 32.40144    -55.2 8.398e+03 1.407e-10
 32.43115    -56.4 8.905e+03 1.849e-10
 32.45369    -58.0 9.176e+03 2.106e-10
 32.49163    -60.7 9.649e+03 3.133e-10
 32.51598    -63.2 9.803e+03 4.045e-10
 32.53853    -64.1 9.965e+03 4.945e-10
 32.57828    -65.6 9.838e+03 4.752e-10
 32.60072    -66.1 9.693e+03 3.915e-10
 32.62680    -67.2 9.410e+03 2.966e-10
 32.66299    -68.7 9.063e+03 2.115e-10
 32.68543    -68.7 8.976e+03 2.321e-10
 32.70534    -69.4 8.930e+03 2.184e-10
 32.71661    -70.4 9.190e+03 2.592e-10
 32.72816    -70.8 9.186e+03 2.621e-10
 32.74776    -71.0 9.138e+03 2.699e-10
 32.75903    -72.3 9.827e+03 3.627e-10
 32.77325    -72.3 9.944e+03 3.877e-10
 32.79018    -72.3 1.009e+04 4.164e-10
 32.80145    -75.2 1.214e+04 8.955e-10
 32.81834    -74.7 1.189e+04 8.612e-10
 32.83260    -74.3 1.167e+04 8.513e-10
 32.84387    -75.1 1.140e+04 1.516e-09
 32.86343    -74.3 1.131e+04 1.493e-09
 32.87502    -73.3 1.129e+04 1.494e-09
 32.88462    -72.7 1.163e+04 1.823e-09
 32.89558    -72.3 1.169e+04 1.736e-09
 32.90616    -71.6 1.184e+04 1.635e-09
 32.91743    -71.9 1.184e+04 1.620e-09
 32.93107    -71.3 1.186e+04 1.517e-09
 32.94858    -70.9 1.179e+04 1.395e-09
 32.95985    -71.6 1.108e+04 1.239e-09
 32.97616    -71.1 1.085e+04 1.138e-09
 32.99100    -70.6 1.065e+04 1.027e-09
 33.00227    -70.6 1.022e+04 9.689e-10
 33.02125    -70.1 1.004e+04 8.771e-10
 33.03342    -69.5 9.858e+03 7.656e-10
 33.04469    -69.3 9.797e+03 7.008e-10
 33.06457    -68.6 9.609e+03 6.055e-10
 33.07584    -68.3 9.826e+03 5.016e-10
 33.08889    -67.9 9.624e+03 4.310e-10
 33.10593    -67.7 9.415e+03 3.808e-10
 33.11275    -67.2 9.474e+03 4.979e-10
 33.11826    -67.2 9.453e+03 4.900e-10
 33.13398    -66.7 9.338e+03 4.659e-10
 33.14950    -66.1 9.243e+03 4.455e-10
 33.17214    -65.5 9.210e+03 4.249e-10
 33.21189    -64.4 8.900e+03 3.729e-10
 33.23444    -63.5 8.929e+03 3.745e-10
 33.25817    -62.3 8.543e+03 3.042e-10
 33.29673    -60.9 8.129e+03 2.311e-10
 33.31928    -59.9 8.150e+03 2.180e-10
 33.34835    -58.3 7.774e+03 1.491e-10
 33.38157    -56.7 7.466e+03 1.036e-10
 33.40411    -55.9 7.531e+03 1.073e-10
 33.43854    -54.4 7.310e+03 8.201e-11
 33.46641    -52.9 7.141e+03 7.011e-11
 33.48895    -52.5 7.337e+03 9.364e-11
 33.52652    -50.9 7.269e+03 9.166e-11
 33.54905    -50.7 7.262e+03 9.668e-11
 33.57379    -48.6 7.626e+03 1.598e-10
 33.61354    -46.8 7.683e+03 1.769e-10
 33.63608    -46.5 8.369e+03 2.768e-10
 33.66399    -45.0 8.471e+03 3.026e-10
 33.69837    -43.6 8.593e+03 3.391e-10
 33.72092    -43.8 9.035e+03 4.483e-10
 33.74070    -43.0 9.121e+03 5.017e-10
 33.75187    -43.2 9.270e+03 5.680e-10
 33.75912    -42.6 9.322e+03 5.946e-10
 33.77039    -42.4 9.156e+03 5.080e-10
 33.78302    -41.8 9.233e+03 5.442e-10
 33.79429    -42.3 9.515e+03 6.268e-10
 33.81034    -41.7 9.602e+03 6.650e-10
 33.82544    -41.2 9.656e+03 6.888e-10
 33.83671    -41.3 9.687e+03 7.041e-10
 33.85543    -40.8 9.690e+03 7.037e-10
 33.86795    -40.2 9.658e+03 6.801e-10
 33.89060    -40.3 9.404e+03 5.918e-10
 33.93034    -39.6 9.003e+03 4.468e-10
 33.95289    -40.5 8.787e+03 3.438e-10
 33.96956    -40.6 8.550e+03 2.864e-10
 33.99211    -38.8 8.724e+03 3.198e-10
 34.01518    -39.0 8.729e+03 3.198e-10
 34.03773    -39.9 8.922e+03 3.418e-10
 34.06981    -40.6 9.091e+03 4.043e-10
 34.10002    -41.7 9.469e+03 4.962e-10
 34.12257    -44.3 1.075e+04 8.582e-10
 34.14234    -47.0 1.123e+04 8.828e-10
 34.15352    -49.1 1.205e+04 1.318e-09
 34.17107    -51.4 1.280e+04 1.927e-09
 34.18466    -52.9 1.318e+04 3.119e-09
 34.19321    -53.2 1.327e+04 4.186e-09
 34.20216    -52.5 1.367e+04 4.506e-09
 34.21581    -51.9 1.386e+04 5.137e-09
 34.22708    -51.6 1.386e+04 5.114e-09
 34.23871    -50.6 1.363e+04 4.591e-09
 34.25823    -49.6 1.363e+04 3.680e-09
 34.26950    -50.7 1.332e+04 2.400e-09
 34.28380    -52.9 1.269e+04 1.562e-09
 34.30065    -56.4 1.136e+04 1.020e-09
 34.31192    -59.7 1.029e+04 7.732e-10
 34.32889    -60.8 1.014e+04 7.535e-10
 34.34307    -61.8 1.028e+04 8.698e-10
 34.35434    -63.9 1.125e+04 1.238e-09
 34.37398    -63.9 1.155e+04 1.535e-09
 34.38549    -63.5 1.174e+04 1.779e-09
 34.39676    -64.5 1.231e+04 2.285e-09
 34.41241    -63.8 1.213e+04 2.250e-09
 34.42124    -64.4 1.248e+04 2.287e-09
 34.42790    -65.3 1.306e+04 3.044e-09
 34.44162    -64.8 1.258e+04 2.537e-09
 34.45905    -64.3 1.214e+04 2.126e-09
 34.47032    -65.2 1.233e+04 2.416e-09
 34.48671    -65.0 1.178e+04 1.957e-09
 34.50147    -64.6 1.128e+04 1.609e-09
 34.51274    -65.4 1.145e+04 1.874e-09
 34.53180    -64.7 1.097e+04 1.552e-09
 34.54389    -64.0 1.057e+04 1.301e-09
 34.55516    -64.4 1.090e+04 1.575e-09
 34.57504    -63.5 1.056e+04 1.329e-09
 34.58631    -63.6 1.117e+04 1.671e-09
 34.59944    -63.0 1.091e+04 1.436e-09
 34.61745    -62.6 1.068e+04 1.272e-09
 34.62873    -62.8 1.115e+04 1.548e-09
 34.63393    -62.3 1.092e+04 1.448e-09
 34.64520    -62.0 1.091e+04 1.278e-09
 34.65987    -61.4 1.085e+04 1.252e-09
 34.67115    -61.4 1.116e+04 1.342e-09
 34.68962    -60.9 1.113e+04 1.332e-09
 34.70229    -60.4 1.113e+04 1.388e-09
 34.71357    -60.3 1.121e+04 1.303e-09
 34.73344    -59.7 1.122e+04 1.301e-09
 34.74471    -60.0 1.115e+04 1.141e-09
 34.75725    -59.7 1.111e+04 1.109e-09
 34.77586    -59.3 1.108e+04 1.076e-09
 34.78713    -59.9 1.080e+04 9.378e-10
 34.80235    -59.7 1.077e+04 9.221e-10
 34.81828    -59.5 1.075e+04 9.085e-10
 34.82955    -59.7 1.068e+04 8.848e-10
 34.84417    -59.3 1.068e+04 8.814e-10
 34.85545    -59.3 1.042e+04 7.169e-10
 34.86070    -58.9 1.042e+04 7.352e-10
 34.87197    -58.9 1.049e+04 7.485e-10
 34.89184    -58.3 1.046e+04 7.565e-10
 34.90312    -58.2 1.048e+04 7.911e-10
 34.91507    -57.6 1.042e+04 7.755e-10
 34.93426    -57.0 1.040e+04 7.689e-10
 34.94553    -56.7 1.044e+04 7.914e-10
 34.96016    -56.0 1.045e+04 7.691e-10
 34.97668    -55.4 1.046e+04 7.532e-10
 34.98795    -55.1 1.047e+04 7.350e-10
 35.00526    -54.5 1.046e+04 7.050e-10
 35.01910    -53.8 1.046e+04 6.888e-10
 35.03037    -53.8 1.044e+04 6.843e-10
 35.05034    -52.9 1.051e+04 6.772e-10
 35.07299    -52.5 1.047e+04 6.597e-10
 35.10691    -51.7 1.070e+04 6.897e-10
 35.13528    -51.4 1.132e+04 9.680e-10
 35.15783    -51.5 1.166e+04 1.227e-09
 35.19709    -50.5 1.223e+04 1.773e-09
 35.22002    -49.3 1.265e+04 2.327e-09
 35.24257    -48.6 1.224e+04 1.811e-09
 35.27590    -46.9 1.190e+04 1.592e-09
 35.28722    -46.1 1.168e+04 1.168e-09
 35.29363    -46.0 1.208e+04 1.921e-09
 35.30476    -45.9 1.180e+04 1.544e-09
 35.32089    -45.2 1.162e+04 1.145e-09
 35.33591    -45.0 1.136e+04 7.497e-10
 35.34718    -45.0 1.119e+04 5.974e-10
 35.36598    -45.7 1.072e+04 3.760e-10
 35.37833    -46.7 9.988e+03 2.531e-10
 35.38960    -46.6 9.776e+03 2.235e-10
 35.40947    -46.9 9.345e+03 1.902e-10
 35.42075    -46.7 9.293e+03 1.862e-10
 35.43362    -46.7 9.182e+03 1.817e-10
 35.45199    -46.1 9.187e+03 1.942e-10
 35.47463    -45.5 9.318e+03 2.054e-10
 35.51273    -44.2 9.145e+03 2.039e-10
 35.53693    -42.4 8.841e+03 1.814e-10
 35.55947    -41.4 8.851e+03 1.870e-10
 35.59922    -39.4 8.587e+03 1.583e-10
 35.62176    -38.2 8.495e+03 1.484e-10
 35.64800    -36.1 8.347e+03 1.254e-10
 35.68406    -34.0 8.256e+03 1.059e-10
 35.70660    -33.0 8.248e+03 9.171e-11
 35.71918    -31.0 8.196e+03 8.747e-11
 35.74172    -30.7 8.318e+03 9.560e-11
 35.76889    -28.7 8.287e+03 9.450e-11
 35.79144    -27.8 8.325e+03 8.732e-11
 35.82836    -25.7 8.342e+03 9.925e-11
 35.85373    -23.6 8.388e+03 1.151e-10
 35.87628    -22.7 8.415e+03 1.073e-10
 35.91603    -20.4 8.464e+03 1.247e-10
 35.93857    -19.4 8.507e+03 1.024e-10
 35.96364    -17.4 8.582e+03 1.127e-10
 36.00086    -15.6 8.648e+03 1.236e-10
 36.02341    -15.1 8.663e+03 1.093e-10
 36.05382    -13.7 8.653e+03 1.362e-10
 36.08570    -11.9 8.711e+03 1.651e-10
 36.10825    -11.0 8.713e+03 1.684e-10
 36.13967     -8.9 8.816e+03 1.839e-10
 36.16222     -8.8 8.767e+03 1.323e-10
 36.17054     -7.0 8.814e+03 1.419e-10
 36.19309     -6.2 8.796e+03 1.403e-10
 36.23283     -4.3 8.839e+03 1.360e-10
 36.25538     -3.3 8.745e+03 1.691e-10
 36.27927     -1.5 8.751e+03 1.578e-10
 36.31767     -0.1 8.917e+03 1.229e-10
 36.34022      1.0 8.821e+03 1.539e-10
 36.36945      2.1 8.895e+03 1.452e-10
 36.40251      3.5 8.684e+03 1.654e-10
 36.42505      4.8 8.914e+03 1.838e-10
 36.45964      6.7 8.697e+03 1.877e-10
 36.48735      9.2 8.577e+03 1.511e-10
 36.50989      9.8 8.701e+03 1.893e-10
 36.54964     11.7 8.667e+03 1.320e-10
 36.58253     13.3 8.735e+03 1.503e-10
 36.60526     14.1 8.762e+03 1.387e-10
 36.63448     15.1 8.673e+03 1.086e-10
 36.65702     15.5 8.803e+03 1.976e-10
 36.68509     17.0 8.699e+03 1.658e-10
 36.71932     18.5 8.640e+03 1.413e-10
 36.74186     19.4 8.851e+03 2.168e-10
 36.77527     20.4 8.772e+03 1.895e-10
 36.80415     21.4 8.773e+03 1.970e-10
 36.82670     21.7 8.901e+03 2.579e-10
 36.86546     23.1 8.912e+03 2.921e-10
 36.88899     24.7 8.977e+03 3.239e-10
 36.91154     25.4 9.071e+03 3.283e-10
 36.95128     26.8 9.197e+03 3.568e-10
 36.97383     27.1 9.383e+03 3.554e-10
 37.00073     28.3 9.698e+03 4.097e-10
 37.02566     28.9 9.838e+03 4.567e-10
 37.03683     29.4 9.877e+03 5.139e-10
 37.04720     30.1 1.011e+04 5.714e-10
 37.05847     30.2 1.022e+04 5.951e-10
 37.07835     30.7 1.041e+04 6.316e-10
 37.08962     30.6 1.056e+04 6.660e-10
 37.10199     30.9 1.073e+04 6.975e-10
 37.12077     30.8 1.098e+04 7.464e-10
 37.13204     30.2 1.118e+04 8.492e-10
 37.14708     30.0 1.139e+04 9.608e-10
 37.16319     30.0 1.155e+04 1.107e-09
 37.17446     29.1 1.211e+04 1.530e-09
 37.19217     28.8 1.282e+04 1.975e-09
 37.20560     26.2 1.555e+04 2.980e-09
 37.21688     20.6 1.980e+04 7.645e-09
 37.22676     17.7 2.109e+04 9.879e-09
 37.23235     15.7 2.157e+04 1.429e-08
 37.24135     14.3 2.145e+04 2.135e-08
 37.24652     17.8 2.006e+04 1.149e-08
 37.24797     15.2 2.030e+04 2.135e-08
 37.25407     14.6 1.983e+04 2.831e-08
 37.26350     15.4 1.934e+04 3.651e-08
 37.26914     15.9 1.946e+04 3.716e-08
 37.27662     17.3 1.947e+04 3.769e-08
 37.28471     18.7 1.962e+04 3.604e-08
 37.29034     18.6 2.013e+04 2.622e-08
 37.30485     17.0 2.092e+04 1.448e-08
 37.32159     13.6 2.032e+04 8.159e-09
 37.33286      8.1 1.635e+04 3.740e-09
 37.34999      4.1 1.383e+04 2.789e-09
 37.36401      3.4 1.374e+04 2.932e-09
 37.37528      2.9 1.328e+04 2.293e-09
 37.39508      2.5 1.388e+04 2.692e-09
 37.41763      2.1 1.361e+04 2.692e-09
 37.43757      2.5 1.358e+04 3.072e-09
 37.44885      3.3 1.292e+04 2.457e-09
 37.45733      4.1 1.274e+04 2.453e-09
 37.46860      4.4 1.305e+04 2.697e-09
 37.47999      5.2 1.274e+04 2.361e-09
 37.49126      5.6 1.228e+04 2.025e-09
 37.50781      6.2 1.210e+04 1.747e-09
 37.52251      5.8 1.213e+04 1.382e-09
 37.54515      6.4 1.167e+04 1.216e-09
 37.58490      6.4 1.187e+04 1.263e-09
 37.60735      6.7 1.156e+04 1.038e-09
 37.62054      6.7 1.178e+04 1.198e-09
 37.63840      6.5 1.272e+04 1.458e-09
 37.64967      6.8 1.217e+04 1.356e-09
 37.66563      6.7 1.359e+04 1.583e-09
 37.67885      6.9 1.427e+04 1.824e-09
 37.68276      7.0 1.239e+04 7.731e-10
 37.69209      7.6 1.196e+04 5.671e-10
 37.71072      6.2 1.203e+04 5.035e-10
 37.72323      4.9 1.194e+04 5.182e-10
 37.73451      4.5 1.111e+04 3.190e-10
 37.75438      2.8 1.137e+04 4.087e-10
 37.76565      2.1 1.060e+04 2.938e-10
 37.77835     -0.9 1.230e+04 4.949e-10
 37.79680     -3.9 1.336e+04 1.072e-09
 37.80807     -5.1 1.284e+04 1.045e-09
 37.82345     -6.4 1.289e+04 1.915e-09
 37.83922     -6.1 1.309e+04 3.020e-09
 37.85049     -5.8 1.286e+04 2.776e-09
 37.86854     -5.9 1.368e+04 2.944e-09
 37.88164     -9.0 1.498e+04 2.698e-09
 37.89092     -9.7 1.466e+04 2.259e-09
 37.90037    -10.1 1.500e+04 2.468e-09
 37.91278    -15.0 1.310e+04 2.023e-09
 37.92406    -15.5 1.290e+04 1.789e-09
 37.93617    -16.9 1.211e+04 1.692e-09
 37.95520    -17.2 1.169e+04 1.348e-09
 37.96648    -17.2 1.171e+04 1.368e-09
 37.98126    -17.7 1.124e+04 8.084e-10
 37.99762    -19.8 1.066e+04 3.994e-10
 38.00889    -19.7 1.080e+04 4.381e-10
 38.03773    -22.6 9.596e+03 1.995e-10
 38.07138    -23.2 9.041e+03 1.283e-10
 38.09393    -23.0 9.038e+03 1.485e-10
 38.12801    -21.7 8.648e+03 9.813e-11
 38.15622    -20.5 8.547e+03 7.805e-11
 38.17877    -19.4 8.540e+03 7.756e-11
 38.21819    -18.2 8.526e+03 6.998e-11
 38.24106    -17.1 8.673e+03 7.152e-11
 38.26360    -16.2 8.661e+03 6.689e-11
 38.30335    -15.8 8.932e+03 8.591e-11
 38.32590    -15.0 9.108e+03 9.776e-11
 38.33233    -14.4 9.066e+03 1.518e-10
 38.35488    -15.1 9.096e+03 1.640e-10
 38.38819    -13.4 9.250e+03 2.511e-10
 38.41074    -12.0 9.492e+03 2.882e-10
 38.44364    -10.3 9.673e+03 3.190e-10
 38.47303     -8.9 9.706e+03 3.191e-10
 38.49557     -8.0 9.730e+03 3.008e-10
 38.53382     -7.0 9.701e+03 2.663e-10
 38.55787     -6.1 9.713e+03 2.647e-10
 38.58041     -5.4 9.636e+03 2.684e-10
 38.62016     -4.4 9.719e+03 3.123e-10
 38.64270     -3.3 9.757e+03 3.170e-10
 38.66910     -2.1 9.883e+03 3.693e-10
 38.70500     -0.7 1.004e+04 4.567e-10
 38.72754      0.1 1.011e+04 4.087e-10
 38.75283      0.9 1.033e+04 5.182e-10
 38.77537     -0.6 1.038e+04 4.965e-10
 38.78984     -0.1 1.083e+04 6.824e-10
 38.81238      0.0 1.084e+04 6.560e-10
 38.84946      0.6 1.128e+04 8.343e-10
 38.87467      1.1 1.153e+04 9.262e-10
 38.89722      1.3 1.128e+04 8.096e-10
 38.93697      1.9 1.116e+04 6.860e-10
 38.95951      1.5 1.103e+04 7.172e-10
 38.98474      2.4 1.086e+04 5.288e-10
 39.02180      2.9 1.045e+04 3.558e-10
 39.04435      4.2 1.023e+04 3.703e-10
 39.07492      4.3 9.708e+03 2.697e-10
 39.10664      5.6 9.343e+03 2.761e-10
 39.12919      5.9 9.468e+03 2.774e-10
 39.16510      7.9 9.496e+03 3.195e-10
 39.19148     10.0 9.573e+03 3.296e-10
 39.19970     10.8 9.594e+03 3.668e-10
 39.21841      9.5 9.394e+03 2.506e-10
 39.25377     11.3 9.568e+03 2.458e-10
 39.27632     12.2 9.233e+03 2.627e-10
 39.30037     13.4 9.441e+03 2.843e-10
 39.33861     14.9 9.668e+03 3.632e-10
 39.36116     16.2 9.294e+03 2.751e-10
 39.39055     17.8 9.580e+03 2.995e-10
 39.42345     19.1 9.760e+03 2.822e-10
 39.44600     20.1 9.530e+03 1.890e-10
 39.48074     21.0 9.722e+03 1.703e-10
 39.50829     21.2 9.853e+03 1.803e-10
 39.53083     22.5 9.647e+03 1.547e-10
 39.57058     21.9 1.020e+04 2.220e-10
 39.59313     23.3 1.019e+04 2.339e-10
 39.61601     22.7 1.051e+04 4.974e-10
 39.63891     23.4 1.059e+04 7.316e-10
 39.65577     24.2 1.040e+04 5.960e-10
 39.67796     25.3 1.063e+04 6.729e-10
 39.70619     26.4 1.048e+04 6.644e-10
 39.74026     28.3 9.983e+03 4.716e-10
 39.76280     29.6 1.002e+04 4.673e-10
 39.79637     31.0 9.586e+03 2.282e-10
 39.82509     31.9 9.450e+03 1.075e-10
 39.84764     32.7 9.437e+03 1.033e-10
 39.88656     33.6 9.414e+03 6.063e-11
 39.90993     34.9 9.238e+03 4.845e-11
 39.93248     36.0 9.254e+03 5.321e-11
 39.97223     37.9 9.240e+03 5.236e-11
 39.99477     39.0 9.285e+03 6.837e-11
 40.02183     40.9 9.339e+03 7.001e-11
 40.05706     42.8 9.430e+03 7.839e-11
 40.07209     44.2 9.511e+03 1.135e-10
 40.08195     44.9 9.703e+03 1.639e-10
 40.11201     47.2 9.995e+03 1.871e-10
 40.14190     49.2 1.032e+04 2.292e-10
 40.15308     49.5 1.046e+04 2.680e-10
 40.16818     49.9 1.045e+04 2.680e-10
 40.18413     50.5 1.046e+04 2.869e-10
 40.19540     51.2 1.053e+04 3.522e-10
 40.21327     51.9 1.075e+04 4.330e-10
 40.22655     51.8 1.138e+04 5.685e-10
 40.23782     51.3 1.268e+04 1.006e-09
 40.25769     49.7 1.385e+04 1.600e-09
 40.26896     48.4 1.570e+04 3.933e-09
 40.28073     48.0 1.598e+04 5.427e-09
 40.29200     47.9 1.691e+04 7.411e-09
 40.30011     48.0 1.621e+04 6.842e-09
 40.31138     49.5 1.741e+04 1.089e-08
 40.32600     49.5 1.610e+04 6.531e-09
 40.34253     47.9 1.448e+04 3.429e-09
 40.35380     47.1 1.482e+04 2.636e-09
 40.37109     44.5 1.296e+04 1.561e-09
 40.38495     43.7 1.221e+04 1.183e-09
 40.39622     42.5 1.198e+04 1.040e-09
 40.42755     42.5 1.183e+04 1.057e-09
 40.45871     43.4 1.150e+04 9.592e-10
 40.48125     42.8 1.148e+04 9.422e-10
 40.50244     44.2 1.136e+04 8.604e-10
 40.52499     44.1 1.104e+04 5.305e-10
 40.54355     45.2 1.103e+04 5.650e-10
 40.56609     44.6 1.112e+04 6.177e-10
 40.60584     45.4 1.110e+04 6.018e-10
 40.62839     45.0 1.122e+04 7.300e-10
 40.65310     45.7 1.102e+04 6.056e-10
 40.69068     46.3 1.069e+04 4.118e-10
 40.71322     46.2 1.078e+04 4.680e-10
 40.74329     46.5 1.051e+04 2.657e-10
 40.77552     46.4 1.034e+04 1.611e-10
 40.79806     46.0 1.056e+04 1.688e-10
 40.83347     45.8 9.979e+03 1.465e-10
 40.86035     46.5 9.774e+03 1.463e-10
 40.88290     46.4 9.815e+03 1.819e-10
 40.92265     47.5 9.716e+03 1.846e-10
 40.94448     47.5 9.785e+03 2.252e-10
 40.94548     48.1 9.822e+03 1.891e-10
 40.96874     49.1 9.753e+03 1.930e-10
 41.00749     50.3 9.685e+03 1.852e-10
 41.03003     50.4 9.709e+03 2.051e-10
 41.05892     51.6 9.608e+03 1.565e-10
 41.09232     52.5 9.597e+03 1.046e-10
 41.11487     52.5 9.583e+03 1.072e-10
 41.14911     52.9 9.505e+03 7.695e-11
 41.17716     53.5 9.437e+03 7.584e-11
 41.19971     53.7 9.478e+03 8.471e-11
 41.23929     54.8 9.471e+03 8.983e-11
 41.28438     56.9 9.620e+03 1.200e-10
 41.32429     58.4 9.687e+03 1.272e-10
 41.34684     59.1 9.750e+03 1.324e-10
 41.36598     60.4 9.779e+03 1.320e-10
 41.38852     60.5 9.975e+03 1.769e-10
 41.40913     61.4 1.014e+04 1.955e-10
 41.43168     61.7 1.012e+04 1.758e-10
 41.46474     62.1 1.034e+04 2.407e-10
 41.49397     62.6 1.062e+04 3.688e-10
 41.51651     62.7 1.058e+04 3.780e-10
 41.55492     63.1 1.086e+04 5.026e-10
 41.57881     63.1 1.092e+04 5.066e-10
 41.60135     63.4 1.096e+04 5.220e-10
 41.64110     63.5 1.094e+04 4.667e-10
 41.66365     63.7 1.097e+04 4.761e-10
 41.69020     63.9 1.082e+04 3.786e-10
 41.72594     64.1 1.077e+04 3.556e-10
 41.74848     64.3 1.070e+04 3.584e-10
 41.78038     64.8 1.072e+04 3.636e-10
 41.80892     65.1 1.073e+04 3.893e-10
 41.81667     65.3 1.074e+04 4.258e-10
 41.82185     65.4 1.066e+04 4.164e-10
 41.83655     65.7 1.071e+04 4.282e-10
 41.85300     66.0 1.075e+04 4.439e-10
 41.86427     66.0 1.074e+04 4.482e-10
 41.88164     66.1 1.078e+04 4.670e-10
 41.89542     66.2 1.083e+04 4.902e-10
 41.90669     65.9 1.094e+04 5.372e-10
 41.92657     65.9 1.101e+04 5.744e-10
 41.93784     65.5 1.117e+04 7.031e-10
 41.94928     65.6 1.126e+04 7.677e-10
 41.96898     65.7 1.138e+04 8.552e-10
 41.98026     65.3 1.158e+04 1.100e-09
 41.99437     65.4 1.171e+04 1.231e-09
 42.01140     65.7 1.187e+04 1.391e-09
 42.02268     65.4 1.209e+04 1.639e-09
 42.03034     65.5 1.232e+04 1.807e-09
 42.04162     65.8 1.217e+04 1.715e-09
 42.05382     65.9 1.242e+04 1.872e-09
 42.06510     65.0 1.272e+04 2.009e-09
 42.08455     64.7 1.301e+04 2.204e-09
 42.09624     64.3 1.332e+04 2.494e-09
 42.10751     63.0 1.321e+04 2.387e-09
 42.12739     62.7 1.344e+04 2.740e-09
 42.13866     61.6 1.279e+04 2.066e-09
 42.15219     61.8 1.298e+04 2.313e-09
 42.16981     62.2 1.317e+04 2.535e-09
 42.18108     60.8 1.234e+04 1.541e-09
 42.19728     61.0 1.246e+04 1.483e-09
 42.21223     61.1 1.252e+04 1.358e-09
 42.23309     56.9 1.093e+04 6.961e-10
 42.25206     57.6 1.093e+04 5.798e-10
 42.27471     56.5 1.049e+04 4.977e-10
 42.29726     54.2 9.677e+03 4.048e-10
 42.32147     54.0 9.942e+03 4.797e-10
 42.35955     53.7 1.043e+04 6.529e-10
 42.38210     53.3 9.994e+03 5.523e-10
 42.41165     53.7 1.030e+04 6.840e-10
 42.44439     54.2 1.057e+04 7.883e-10
 42.46694     53.7 9.801e+03 4.298e-10
 42.50184     54.0 9.808e+03 4.133e-10
 42.52923     54.6 9.677e+03 3.450e-10
 42.55177     54.4 9.228e+03 3.119e-10
 42.59152     55.6 9.101e+03 2.506e-10
 42.61407     56.0 9.067e+03 3.100e-10
 42.63711     57.4 8.831e+03 2.320e-10
 42.67255     59.0 8.621e+03 1.479e-10
 42.68926     59.5 8.786e+03 1.601e-10
 42.69891     60.2 8.782e+03 2.065e-10
 42.72729     61.6 8.616e+03 1.304e-10
 42.76120     62.8 8.473e+03 8.257e-11
 42.78374     63.5 8.476e+03 1.045e-10
 42.81747     64.7 8.321e+03 8.150e-11
 42.84604     66.3 8.279e+03 8.075e-11
 42.86858     66.9 8.333e+03 8.891e-11
 42.90766     68.6 8.348e+03 9.047e-11
 42.93087     70.2 8.433e+03 9.974e-11
 42.95342     70.5 8.501e+03 1.022e-10
 42.99317     71.7 8.694e+03 1.221e-10
 43.01571     71.4 8.835e+03 1.333e-10
 43.04293     72.1 9.098e+03 1.788e-10
 43.07800     72.7 9.440e+03 2.706e-10
 43.10055     72.3 9.626e+03 3.402e-10
 43.11559     73.1 9.924e+03 4.564e-10
 43.13814     72.8 9.838e+03 3.940e-10
 43.16284     73.7 1.012e+04 4.989e-10
 43.18539     73.4 1.001e+04 3.654e-10
 43.22329     73.9 1.015e+04 3.512e-10
 43.24768     74.3 1.030e+04 3.201e-10
 43.27023     72.8 9.954e+03 2.420e-10
 43.30997     73.2 9.920e+03 2.441e-10
 43.33252     72.6 9.862e+03 2.540e-10
 43.35857     73.3 9.791e+03 2.586e-10
 43.39481     74.1 9.757e+03 2.562e-10
 43.41736     74.0 9.801e+03 2.509e-10
 43.44875     74.6 9.728e+03 2.228e-10
 43.47965     75.0 9.606e+03 1.969e-10
 43.50220     74.4 9.466e+03 1.994e-10
 43.53609     75.0 9.267e+03 1.907e-10
 43.55863     74.8 9.327e+03 2.013e-10
 43.56449     75.6 9.167e+03 1.991e-10
 43.58703     75.9 9.007e+03 1.775e-10
 43.62678     77.0 8.899e+03 1.699e-10
 43.64933     77.3 8.769e+03 1.245e-10
 43.67420     78.5 8.714e+03 1.242e-10
 43.71162     79.7 8.699e+03 1.270e-10
 43.73416     79.7 8.631e+03 9.876e-11
 43.76439     80.8 8.631e+03 1.143e-10
 43.79646     82.0 8.665e+03 1.354e-10
 43.81900     82.2 8.625e+03 1.402e-10
 43.85457     83.5 8.711e+03 1.735e-10
 43.88130     84.8 8.752e+03 2.017e-10
 43.90384     85.2 8.862e+03 2.404e-10
 43.94359     86.6 8.884e+03 2.486e-10
 43.96613     87.0 8.925e+03 2.583e-10
 43.97913     88.3 8.871e+03 2.449e-10
 44.00168     88.1 8.860e+03 2.331e-10
 44.02843     89.4 8.709e+03 1.932e-10
 44.05097     89.9 8.764e+03 2.103e-10
 44.08002     91.1 8.586e+03 1.619e-10
 44.11326     92.3 8.454e+03 1.269e-10
 44.13581     92.4 8.513e+03 1.362e-10
 44.17021     93.5 8.513e+03 1.241e-10
 44.19810     94.5 8.545e+03 1.240e-10
 44.22065     94.1 8.823e+03 1.858e-10
 44.26039     94.9 8.973e+03 2.252e-10
 44.30548     95.8 9.767e+03 4.950e-10
 44.34523     96.5 9.835e+03 5.006e-10
 44.36778     96.0 1.029e+04 5.848e-10
 44.39566     96.2 1.021e+04 5.225e-10
 44.42217     96.3 1.019e+04 4.991e-10
 44.43404     95.8 1.010e+04 4.679e-10
 44.45262     94.5 1.046e+04 5.587e-10
 44.48584     94.5 1.060e+04 6.466e-10
 44.51491     94.6 1.085e+04 7.809e-10
 44.53746     94.3 1.082e+04 6.539e-10
 44.57602     94.2 1.090e+04 6.422e-10
 44.59975     93.5 1.094e+04 5.926e-10
 44.62229     92.6 1.070e+04 3.265e-10
 44.66204     91.5 1.052e+04 2.968e-10
 44.68459     91.0 1.021e+04 2.553e-10
 44.71130     90.2 1.008e+04 2.338e-10
 44.74688     88.9 9.975e+03 2.162e-10
 44.76942     88.5 1.018e+04 2.561e-10
 44.80148     86.1 1.022e+04 2.645e-10
 44.83172     83.0 1.035e+04 3.417e-10
 44.85036     82.2 1.067e+04 4.611e-10
 44.86521     80.4 1.042e+04 4.314e-10
 44.89166     78.6 1.079e+04 6.319e-10
 44.91656     77.0 1.113e+04 6.867e-10
 44.93910     75.3 1.117e+04 5.182e-10
 44.97885     72.9 1.120e+04 5.133e-10
 45.00139     70.9 1.107e+04 5.503e-10
 45.02694     69.7 1.094e+04 6.310e-10
 45.06369     68.9 1.086e+04 6.245e-10
 45.08623     69.6 1.115e+04 7.454e-10
 45.11712     68.7 1.104e+04 6.921e-10
 45.14852     67.4 1.066e+04 5.288e-10
 45.17107     67.0 1.135e+04 6.719e-10
 45.20730     65.9 1.070e+04 5.171e-10
 45.23336     65.4 9.991e+03 2.986e-10
 45.25591     65.5 1.108e+04 4.601e-10
 45.28571     64.7 1.052e+04 2.833e-10
 45.30643     65.7 1.011e+04 2.168e-10
 45.31810     64.8 1.094e+04 2.693e-10
 45.33110     64.0 1.096e+04 2.830e-10
 45.34915     63.1 1.086e+04 3.212e-10
 45.36042     62.7 1.105e+04 4.098e-10
 45.37620     61.4 1.124e+04 5.883e-10
 45.39157     61.0 1.142e+04 8.268e-10
 45.40294     61.6 1.199e+04 1.082e-09
 45.43275     61.3 1.224e+04 1.320e-09
 45.46533     61.1 1.198e+04 1.134e-09
 45.48788     60.6 1.182e+04 8.771e-10
 45.52294     59.8 1.089e+04 3.629e-10
 45.55017     57.6 9.770e+03 1.575e-10
 45.57272     56.7 9.516e+03 1.472e-10
 45.61246     56.4 9.246e+03 1.450e-10
 45.63501     56.7 9.294e+03 1.671e-10
 45.65821     57.4 9.246e+03 1.730e-10
 45.69730     58.4 9.223e+03 2.035e-10
 45.71985     59.1 9.316e+03 2.135e-10
 45.72875     60.1 9.425e+03 2.734e-10
 45.75129     60.2 9.606e+03 2.092e-10
 45.78214     61.0 9.674e+03 2.174e-10
 45.80468     61.5 9.599e+03 1.591e-10
 45.83857     61.9 9.598e+03 1.604e-10
 45.86698     62.0 9.553e+03 1.662e-10
 45.88952     62.3 9.517e+03 1.097e-10
 45.92876     62.2 9.388e+03 1.339e-10
 45.95181     62.3 9.314e+03 1.725e-10
 45.97436     62.9 9.324e+03 1.357e-10
 46.01411     63.4 9.341e+03 1.753e-10
 46.03665     63.9 9.295e+03 1.607e-10
 46.06403     64.3 9.287e+03 1.705e-10
 46.09895     64.7 9.253e+03 1.661e-10
 46.12149     65.5 9.181e+03 1.730e-10
 46.14924     65.6 9.078e+03 1.460e-10
 46.17179     65.7 8.955e+03 1.082e-10
 46.18378     65.5 8.919e+03 9.641e-11
 46.20633     65.9 8.907e+03 1.091e-10
 46.24439     65.4 8.910e+03 1.178e-10
 46.26862     65.2 8.929e+03 1.615e-10
 46.29117     65.6 9.018e+03 1.985e-10
 46.33091     66.0 9.139e+03 2.637e-10
 46.35346     66.0 9.256e+03 2.682e-10
 46.37967     65.8 9.366e+03 2.819e-10
 46.41575     65.2 9.386e+03 2.854e-10
 46.43830     64.2 9.452e+03 3.041e-10
 46.46985     63.8 9.300e+03 2.953e-10
 46.50059     63.9 9.138e+03 2.788e-10
 46.52314     63.4 9.064e+03 2.248e-10
 46.56003     63.7 8.885e+03 1.793e-10
 46.58543     64.0 8.740e+03 1.480e-10
 46.59514     62.9 8.539e+03 9.840e-11
 46.61483     62.8 8.303e+03 9.768e-11
 46.64772     63.4 8.197e+03 9.625e-11
 46.67027     62.8 8.066e+03 9.138e-11
 46.69530     63.7 8.091e+03 9.607e-11
 46.73256     64.3 8.152e+03 1.136e-10
 46.75511     63.7 8.208e+03 1.511e-10
 46.78549     64.8 8.349e+03 2.049e-10
 46.81740     66.0 8.524e+03 2.615e-10
 46.83994     65.5 8.684e+03 2.478e-10
 46.87567     66.5 8.660e+03 2.412e-10
 46.90224     67.5 8.527e+03 2.118e-10
 46.92478     66.3 8.230e+03 1.731e-10
 46.96453     67.2 7.954e+03 1.348e-10
 46.98707     66.6 7.834e+03 1.265e-10
 47.01094     67.7 7.738e+03 1.183e-10
 47.03532     69.3 7.776e+03 1.222e-10
 47.05120     69.7 7.863e+03 1.419e-10
 47.07191     69.7 8.110e+03 1.712e-10
 47.08975     70.4 8.162e+03 1.768e-10
 47.10286     70.8 8.305e+03 1.884e-10
 47.11414     69.1 8.742e+03 2.433e-10
 47.13401     67.2 9.614e+03 4.104e-10
 47.14528     63.9 1.081e+04 8.824e-10
 47.15729     62.6 1.214e+04 1.761e-09
 47.17643     62.9 1.339e+04 3.202e-09
 47.18770     61.8 1.449e+04 4.753e-09
 47.19670     62.1 1.501e+04 5.601e-09
 47.20318     62.1 1.552e+04 6.614e-09
 47.20881     61.2 1.585e+04 7.053e-09
 47.21875     60.3 1.665e+04 8.193e-09
 47.22439     59.3 1.692e+04 8.409e-09
 47.23047     54.9 2.051e+04 1.121e-08
 47.23996     40.2 2.973e+04 2.998e-08
 47.24560     34.5 3.017e+04 2.803e-08
 47.25091     23.0 2.494e+04 7.534e-08
 47.25655     23.8 2.449e+04 8.038e-08
 47.26117     19.9 2.280e+04 8.200e-08
 47.26681     17.5 2.217e+04 7.139e-08
 47.27556     17.1 2.179e+04 5.878e-08
 47.28238     16.2 2.314e+04 2.968e-08
 47.28802     14.7 2.301e+04 2.691e-08
 47.29795     12.1 2.531e+04 9.355e-09
 47.30359     11.0 2.518e+04 9.115e-09
 47.31506     -1.3 2.556e+04 1.387e-09
 47.33483    -18.5 9.919e+03 4.620e-10
 47.34611    -17.2 1.166e+04 4.693e-10
 47.36020    -20.6 8.526e+03 2.998e-10
 47.37725    -20.6 8.393e+03 2.825e-10
 47.38862    -20.7 8.613e+03 2.999e-10
 47.41676    -20.5 7.998e+03 2.324e-10
 47.45101    -19.4 7.784e+03 2.088e-10
 47.46752    -19.2 7.990e+03 2.358e-10
 47.47836    -18.7 8.166e+03 2.785e-10
 47.50694    -17.3 7.941e+03 2.405e-10
 47.53585    -15.7 7.753e+03 2.055e-10
 47.55840    -15.8 7.860e+03 2.162e-10
 47.59712    -14.6 7.810e+03 1.987e-10
 47.62069    -13.3 7.795e+03 1.964e-10
 47.64323    -13.3 8.064e+03 2.363e-10
 47.68298    -11.7 8.036e+03 2.294e-10
 47.70553    -12.0 8.534e+03 3.111e-10
 47.73240    -10.8 8.604e+03 3.102e-10
 47.76782    -10.4 8.912e+03 3.606e-10
 47.79037    -10.9 9.616e+03 5.675e-10
 47.82258    -10.9 1.019e+04 7.827e-10
 47.85266    -10.5 1.087e+04 1.194e-09
 47.87520    -10.5 1.110e+04 1.330e-09
 47.89886     -9.9 1.132e+04 1.511e-09
 47.92140    -10.2 1.131e+04 1.513e-09
 47.93750     -8.6 1.080e+04 1.209e-09
 47.96004     -9.0 1.052e+04 9.464e-10
 47.99979     -8.4 1.005e+04 6.753e-10
 48.02233     -9.6 9.717e+03 5.108e-10
 48.04804     -9.3 9.668e+03 4.943e-10
 48.08463     -8.7 9.599e+03 4.811e-10
 48.10717     -8.9 9.654e+03 4.928e-10
 48.13822     -7.5 9.508e+03 4.601e-10
 48.16947     -6.5 9.367e+03 3.943e-10
 48.19201     -6.6 9.301e+03 2.862e-10
 48.22840     -6.4 9.143e+03 2.295e-10
 48.25430     -6.5 9.189e+03 2.373e-10
 48.27685     -7.1 8.915e+03 1.554e-10
 48.31660     -6.5 9.046e+03 1.883e-10
 48.33914     -6.2 8.865e+03 1.278e-10
 48.34190     -5.1 8.893e+03 1.246e-10
 48.36444     -5.6 8.917e+03 1.157e-10
 48.40143     -4.5 8.860e+03 9.063e-11
 48.42398     -4.0 8.734e+03 7.950e-11
 48.45385     -3.1 8.757e+03 5.581e-11
 48.48627     -2.5 8.803e+03 4.270e-11
 48.50882     -2.0 8.791e+03 4.141e-11
 48.54404     -1.3 8.760e+03 4.114e-11
 48.57111     -0.3 8.699e+03 4.422e-11
 48.59366      0.3 8.630e+03 4.816e-11
 48.63340      1.8 8.518e+03 5.804e-11
 48.65595      2.6 8.484e+03 6.128e-11
 48.67931      4.4 8.500e+03 6.925e-11
 48.71824      6.0 8.590e+03 7.315e-11
 48.74079      6.4 8.694e+03 7.667e-11
 48.76239      7.6 8.839e+03 8.466e-11
 48.78494      7.4 8.853e+03 8.938e-11
 48.80308      8.5 8.883e+03 1.124e-10
 48.82563      9.0 8.931e+03 1.229e-10
 48.85967     10.5 8.988e+03 1.450e-10
 48.88792     11.9 9.123e+03 1.619e-10
 48.91046     12.2 9.260e+03 1.518e-10
 48.94986     12.9 9.416e+03 1.640e-10
 48.97276     13.3 9.589e+03 1.873e-10
 48.99530     12.5 9.889e+03 2.253e-10
 49.03505     12.6 1.012e+04 3.423e-10
 49.05759     12.2 1.032e+04 4.665e-10
 49.08513     12.4 1.071e+04 6.928e-10
 49.11989     12.5 1.106e+04 9.238e-10
 49.14243     12.3 1.111e+04 9.481e-10
 49.17531     12.0 1.113e+04 9.476e-10
 49.20472     11.6 1.092e+04 8.444e-10
 49.21230     10.7 1.092e+04 7.361e-10
 49.22798      9.9 1.087e+04 6.101e-10
 49.26549      7.9 1.099e+04 7.130e-10
 49.28956      6.1 1.124e+04 9.790e-10
 49.31211      5.7 1.184e+04 1.453e-09
 49.35186      4.9 1.214e+04 1.802e-09
 49.37440      4.2 1.227e+04 1.887e-09
 49.40077      3.5 1.197e+04 1.668e-09
 49.43669      3.1 1.114e+04 1.045e-09
 49.45924      2.9 1.017e+04 5.138e-10
 49.49095      1.3 9.394e+03 2.585e-10
 49.52153     -0.1 8.907e+03 1.863e-10
 49.54408     -0.3 8.573e+03 1.365e-10
 49.58113     -0.1 8.467e+03 1.426e-10
 49.60637      0.8 8.400e+03 1.421e-10
 49.62862      1.6 8.280e+03 1.222e-10
 49.64847      1.2 8.316e+03 1.235e-10
 49.66866      2.6 8.232e+03 1.169e-10
 49.69121      3.4 8.155e+03 1.001e-10
 49.71640      4.7 8.122e+03 8.448e-11
 49.75350      5.4 8.162e+03 6.798e-11
 49.77605      5.7 8.238e+03 6.781e-11
 49.80659      6.1 8.328e+03 7.014e-11
 49.83834      6.4 8.421e+03 8.012e-11
 49.86088      6.6 8.555e+03 1.105e-10
 49.89677      7.1 8.686e+03 1.303e-10
 49.92318      7.2 8.854e+03 1.529e-10
 49.94572      7.5 8.974e+03 1.695e-10
 49.98547      7.4 8.989e+03 1.894e-10
 50.00802      7.6 8.933e+03 1.752e-10
 50.03204      7.7 8.847e+03 1.724e-10
 50.06897      8.0 8.856e+03 1.688e-10
 50.08469      7.4 9.063e+03 1.876e-10
 50.09285      7.1 9.011e+03 1.703e-10
 50.12222      6.2 9.250e+03 1.873e-10
 50.15515      3.3 1.007e+04 3.375e-10
 50.17769      2.3 1.054e+04 4.813e-10
 50.19747      0.7 1.117e+04 7.043e-10
 50.20864     -0.1 1.146e+04 8.594e-10
 50.22348     -1.3 1.195e+04 1.399e-09
 50.23979     -1.1 1.208e+04 1.581e-09
 50.25106     -1.0 1.186e+04 1.381e-09
 50.26857     -1.6 1.180e+04 1.253e-09
 50.30218     -2.2 1.093e+04 5.837e-10
 50.32482     -2.9 1.056e+04 3.745e-10
 50.34768     -6.5 1.012e+04 1.312e-10
 50.38712     -9.8 9.445e+03 8.790e-11
 50.40966     -9.3 9.396e+03 9.269e-11
 50.43786    -11.1 9.481e+03 1.016e-10
 50.47195    -12.7 9.669e+03 1.276e-10
 50.49450    -12.3 9.664e+03 1.314e-10
 50.51201    -16.5 1.102e+04 1.876e-10
 50.53456    -17.6 1.130e+04 2.327e-10
 50.55669    -20.8 1.141e+04 4.257e-10
 50.57924    -20.2 1.115e+04 3.964e-10
 50.61822    -21.2 1.063e+04 5.781e-10
 50.64163    -20.4 1.054e+04 2.597e-10
 50.66418    -19.7 1.038e+04 2.691e-10
 50.70392    -21.3 1.051e+04 1.276e-10
 50.72647    -19.8 1.039e+04 1.419e-10
 50.75350    -22.5 1.032e+04 9.107e-11
 50.78876    -24.1 1.032e+04 9.955e-11
 50.81131    -22.2 1.031e+04 1.042e-10
 50.84368    -22.9 9.961e+03 1.873e-10
 50.87360    -22.5 1.023e+04 2.756e-10
 50.89614    -21.1 1.036e+04 3.109e-10
 50.93251    -22.4 1.121e+04 4.134e-10
 50.95505    -24.1 1.148e+04 4.838e-10
 50.95844    -27.4 1.220e+04 8.517e-10
 50.98098    -26.8 1.277e+04 1.628e-09
 51.01267    -26.8 1.341e+04 2.641e-09
 51.03181    -27.0 1.342e+04 2.601e-09
 51.04308    -26.0 1.375e+04 3.492e-09
 51.05767    -24.8 1.357e+04 2.327e-09
 51.07423    -26.4 1.319e+04 1.336e-09
 51.08550    -25.7 1.374e+04 1.406e-09
 51.10547    -30.2 1.166e+04 6.870e-10
 51.12811    -30.3 1.195e+04 7.043e-10
 51.15932    -32.9 1.117e+04 5.251e-10
 51.19041    -34.6 1.117e+04 5.083e-10
 51.21295    -34.2 1.130e+04 6.363e-10
 51.24950    -35.8 1.134e+04 5.570e-10
 51.27524    -37.5 1.133e+04 4.883e-10
 51.29779    -37.8 1.108e+04 3.655e-10
 51.33754    -40.0 1.084e+04 3.076e-10
 51.36008    -40.6 1.063e+04 2.552e-10
 51.37555    -41.7 1.054e+04 2.403e-10
 51.39809    -41.7 1.048e+04 2.178e-10
 51.42238    -42.4 1.045e+04 2.115e-10
 51.44492    -42.9 1.035e+04 1.903e-10
 51.47495    -43.3 1.038e+04 1.961e-10
 51.50721    -43.1 1.039e+04 2.360e-10
 51.52976    -42.9 1.030e+04 2.136e-10
 51.56514    -42.1 1.031e+04 2.432e-10
 51.59205    -41.1 1.036e+04 2.657e-10
 51.61460    -40.5 1.009e+04 1.753e-10
 51.65434    -39.7 1.008e+04 1.744e-10
 51.67689    -39.2 9.944e+03 1.085e-10
 51.70041    -38.5 9.946e+03 1.185e-10
 51.73918    -37.7 9.948e+03 1.506e-10
 51.76173    -37.1 9.887e+03 1.140e-10
 51.79059    -36.0 9.950e+03 1.502e-10
 51.81859    -34.8 1.005e+04 1.698e-10
 51.82947    -34.5 9.989e+03 1.727e-10
 51.84657    -33.8 9.986e+03 1.588e-10
 51.88077    -32.7 1.002e+04 1.679e-10
 51.90886    -31.7 9.899e+03 1.486e-10
 51.93140    -30.8 9.951e+03 1.563e-10
 51.97096    -29.7 9.903e+03 1.162e-10
 52.01605    -28.6 1.021e+04 9.393e-11
 52.05599    -28.7 1.026e+04 6.774e-11
 52.07853    -28.7 1.023e+04 1.125e-10
 52.10623    -28.4 1.003e+04 9.739e-11
 52.14083    -27.7 9.964e+03 9.158e-11
 52.16337    -26.9 1.009e+04 1.213e-10
 52.19641    -26.3 1.007e+04 1.122e-10
 52.22567    -25.6 1.010e+04 1.128e-10
 52.24579    -25.2 1.012e+04 1.239e-10
 52.26163    -25.0 9.923e+03 1.121e-10
 52.28659    -23.8 9.836e+03 1.173e-10
 52.31050    -22.4 9.797e+03 1.160e-10
 52.33305    -21.6 9.839e+03 9.853e-11
 52.37280    -20.5 9.947e+03 8.344e-11
 52.39534    -20.4 9.979e+03 7.615e-11
 52.42187    -19.8 9.997e+03 7.243e-11
 52.45763    -19.3 9.968e+03 8.464e-11
 52.48018    -19.0 9.810e+03 1.022e-10
 52.51205    -18.0 9.795e+03 1.335e-10
 52.54247    -17.0 9.910e+03 1.691e-10
 52.56502    -15.7 9.699e+03 1.531e-10
 52.60223    -14.8 9.903e+03 1.514e-10
 52.62731    -14.6 1.009e+04 1.387e-10
 52.64986    -14.4 9.951e+03 1.077e-10
 52.68212    -14.8 9.861e+03 1.037e-10
 52.70186    -13.2 1.004e+04 9.125e-11
 52.71215    -12.8 1.001e+04 8.789e-11
 52.73750    -12.5 9.475e+03 9.819e-11
 52.77444    -11.3 9.264e+03 1.037e-10
 52.79699    -10.4 9.304e+03 9.328e-11
 52.82769     -9.7 9.658e+03 8.149e-11
 52.85928     -9.9 1.004e+04 8.411e-11
 52.88183     -9.6 9.961e+03 7.876e-11
 52.91787     -8.8 9.369e+03 1.161e-10
 52.94412     -7.1 9.000e+03 1.305e-10
 52.96666     -6.3 9.165e+03 1.161e-10
 53.00641     -5.2 9.630e+03 8.711e-11
 53.02896     -5.5 9.695e+03 1.003e-10
 53.05314     -6.2 9.793e+03 1.190e-10
 53.09125     -7.3 1.007e+04 1.740e-10
 53.11379     -6.7 1.032e+04 3.128e-10
 53.12516     -6.0 1.015e+04 4.015e-10
 53.14771     -4.8 1.031e+04 3.761e-10
 53.17609     -4.3 1.013e+04 3.570e-10
 53.19863     -3.2 1.005e+04 3.261e-10
 53.23351     -3.0 9.525e+03 1.835e-10
 53.26093     -2.8 9.262e+03 8.294e-11
 53.28347     -3.7 9.169e+03 5.248e-11
 53.32322     -3.7 8.815e+03 3.639e-11
 53.34576     -4.1 8.800e+03 3.546e-11
 53.36878     -3.0 8.660e+03 3.241e-11
 53.40806     -1.9 8.636e+03 3.173e-11
 53.43060     -1.3 8.650e+03 3.788e-11
 53.45896     -0.2 8.502e+03 4.016e-11
 53.49289      0.8 8.504e+03 4.556e-11
 53.51544      1.6 8.354e+03 4.596e-11
 53.54566      2.7 8.485e+03 5.334e-11
 53.56820      3.0 8.701e+03 6.400e-11
 53.57773      4.3 8.857e+03 1.011e-10
 53.60028      4.5 8.970e+03 9.451e-11
 53.63932      5.1 9.277e+03 1.231e-10
 53.66257      5.3 9.345e+03 1.545e-10
 53.68512      5.6 9.369e+03 1.499e-10
 53.72486      6.0 9.350e+03 1.729e-10
 53.74741      6.3 9.479e+03 1.793e-10
 53.77460      6.8 9.459e+03 1.994e-10
 53.80970      7.4 9.492e+03 2.123e-10
 53.83225      8.1 9.673e+03 2.342e-10
 53.86478      9.0 9.829e+03 2.510e-10
 53.89454      9.9 9.865e+03 2.416e-10
 53.91709     10.4 9.984e+03 2.485e-10
 53.95496     11.7 9.943e+03 2.193e-10
 53.97938     12.6 9.985e+03 1.700e-10
 53.99057     13.7 9.774e+03 1.726e-10
 54.01124     14.4 9.598e+03 2.146e-10
 54.04167     15.2 9.759e+03 1.713e-10
 54.06422     16.0 9.600e+03 1.740e-10
 54.09024     16.4 9.717e+03 1.677e-10
 54.12651     16.6 9.840e+03 1.836e-10
 54.14905     16.8 9.713e+03 2.333e-10
 54.18042     17.3 9.956e+03 3.342e-10
 54.21135     17.9 1.030e+04 4.254e-10
 54.23389     18.4 1.049e+04 6.805e-10
 54.27060     18.8 1.085e+04 8.394e-10
 54.29619     18.6 1.105e+04 9.326e-10
 54.31873     18.9 1.133e+04 1.028e-09
 54.35848     19.0 1.126e+04 9.851e-10
 54.38102     19.4 1.080e+04 7.171e-10
 54.40587     19.9 1.046e+04 4.647e-10
 54.43174     19.3 1.026e+04 2.796e-10
 54.44664     21.6 9.999e+03 2.753e-10
 54.46586     21.6 9.638e+03 1.714e-10
 54.49605     21.2 9.492e+03 1.352e-10
 54.52815     21.3 9.524e+03 1.536e-10
 54.55070     21.8 9.220e+03 1.282e-10
 54.58624     22.7 9.280e+03 1.905e-10
 54.61299     24.0 9.418e+03 2.878e-10
 54.63554     24.8 9.295e+03 2.278e-10
 54.67529     26.2 9.444e+03 3.122e-10
 54.69783     27.1 9.222e+03 2.241e-10
 54.72151     28.6 9.272e+03 2.867e-10
 54.76012     30.5 9.314e+03 3.091e-10
 54.78267     31.2 9.133e+03 2.142e-10
 54.81169     32.7 9.321e+03 2.089e-10
 54.84496     33.8 9.500e+03 2.021e-10
 54.86296     33.5 9.566e+03 2.186e-10
 54.87478     36.4 9.474e+03 2.385e-10
 54.90187     37.4 9.752e+03 2.418e-10
 54.92980     38.0 9.989e+03 2.524e-10
 54.94097     36.5 1.018e+04 3.043e-10
 54.95804     36.2 1.027e+04 3.145e-10
 54.97202     36.1 1.018e+04 3.405e-10
 54.98330     35.4 1.009e+04 4.653e-10
 55.00313     35.2 1.025e+04 5.278e-10
 55.02568     34.5 1.104e+04 7.659e-10
 55.04559     33.8 1.121e+04 8.254e-10
 55.05686     33.6 1.134e+04 8.551e-10
 55.07077     32.9 1.125e+04 8.103e-10
 55.08483     31.9 1.122e+04 7.491e-10
 55.09080     33.9 1.126e+04 7.744e-10
 55.09928     32.8 1.105e+04 6.955e-10
 55.11586     31.5 1.092e+04 6.324e-10
 55.13043     29.9 1.081e+04 6.008e-10
 55.14170     29.2 1.045e+04 5.625e-10
 55.16095     28.3 1.030e+04 5.636e-10
 55.17285     27.8 1.032e+04 6.082e-10
 55.18412     27.8 1.034e+04 5.934e-10
 55.20399     27.5 1.060e+04 6.737e-10
 55.21527     27.5 1.045e+04 6.417e-10
 55.22859     27.0 1.107e+04 7.783e-10
 55.24641     26.1 1.209e+04 1.086e-09
 55.25768     25.9 1.181e+04 1.006e-09
 55.27368     25.1 1.235e+04 1.436e-09
 55.28883     25.2 1.264e+04 1.982e-09
 55.29896     25.7 1.207e+04 1.729e-09
 55.30635     26.9 1.199e+04 1.431e-09
 55.31877     27.1 1.245e+04 1.980e-09
 55.33125     27.3 1.302e+04 2.625e-09
 55.34252     27.6 1.271e+04 2.189e-09
 55.36240     26.7 1.380e+04 3.101e-09
 55.37367     26.7 1.347e+04 2.561e-09
 55.38641     25.5 1.440e+04 3.928e-09
 55.40327     23.9 1.500e+04 5.041e-09
 55.41035     23.8 1.495e+04 5.054e-09
 55.41604     25.3 1.445e+04 4.144e-09
 55.42581     23.3 1.606e+04 5.662e-09
 55.43156     22.2 1.661e+04 6.268e-09
 55.43720     22.5 1.629e+04 5.694e-09
 55.44714     20.6 1.738e+04 6.807e-09
 55.45277     20.1 1.730e+04 5.349e-09
 55.45958     19.1 1.717e+04 5.546e-09
 55.46835     16.6 1.672e+04 5.975e-09
 55.47398     16.3 1.631e+04 5.531e-09
 55.48213     15.1 1.586e+04 5.393e-09
 55.48956     13.3 1.573e+04 5.167e-09
 55.50088     13.0 1.503e+04 4.430e-09
 55.51660     12.2 1.513e+04 4.062e-09
 55.52694     11.6 1.541e+04 4.532e-09
 55.53202     12.8 1.456e+04 4.004e-09
 55.54423     12.1 1.430e+04 2.960e-09
 55.56322     10.8 1.324e+04 1.932e-09
 55.57449     12.1 1.261e+04 1.440e-09
 55.58932     10.5 1.150e+04 9.616e-10
 55.60564     10.0 1.091e+04 7.675e-10
 55.61691     10.8 1.038e+04 5.243e-10
 55.63441     10.9 1.006e+04 4.621e-10
 55.64806     11.2 1.014e+04 4.247e-10
 55.67070     13.1 9.723e+03 2.997e-10
 55.71054     14.5 9.575e+03 3.175e-10
 55.73309     16.1 8.969e+03 1.959e-10
 55.73831     17.5 9.012e+03 2.302e-10
 55.76086     17.4 9.132e+03 2.503e-10
 55.79538     19.1 9.313e+03 3.679e-10
 55.81793     21.0 8.826e+03 2.544e-10
 55.84879     23.0 9.024e+03 3.396e-10
 55.88022     24.9 9.267e+03 4.108e-10
 55.90277     26.2 9.015e+03 2.997e-10
 55.93897     27.3 9.328e+03 3.939e-10
 55.96506     28.5 9.727e+03 5.315e-10
 55.97623     29.1 9.454e+03 4.389e-10
 55.99514     29.3 9.530e+03 4.671e-10
 56.00728     30.3 9.787e+03 5.844e-10
 56.01856     30.4 9.624e+03 4.960e-10
 56.03843     30.8 9.707e+03 5.353e-10
 56.04980     31.1 9.427e+03 4.150e-10
 56.06287     31.6 9.554e+03 4.599e-10
 56.08085     31.8 9.646e+03 4.900e-10
 56.09212     31.6 9.370e+03 3.959e-10
 56.10786     29.0 1.067e+04 5.300e-10
 56.12327     22.2 1.410e+04 1.447e-09
 56.13454     21.2 1.346e+04 1.225e-09
 56.15295     17.0 1.402e+04 3.156e-09
 56.16569     16.7 1.501e+04 6.151e-09
 56.17135     16.4 1.476e+04 6.092e-09
 56.18116     16.7 1.457e+04 5.408e-09
 56.19683     17.5 1.510e+04 6.464e-09
 56.20811     17.8 1.458e+04 6.233e-09
 56.22059     18.9 1.455e+04 4.192e-09
 56.23925     16.7 1.396e+04 2.199e-09
 56.25052     17.7 1.398e+04 2.012e-09
 56.26568     12.7 1.156e+04 8.347e-10
 56.28167     10.3 1.018e+04 5.501e-10
 56.29294      9.8 1.000e+04 4.832e-10
 56.31077      9.1 9.634e+03 4.332e-10
 56.32409      9.4 9.882e+03 4.755e-10
 56.33536      9.0 9.931e+03 4.800e-10
 56.35524      7.9 1.034e+04 5.324e-10
 56.36651      6.4 1.096e+04 6.312e-10
 56.37841      3.7 1.196e+04 8.995e-10
 56.39141      1.8 1.281e+04 1.365e-09
 56.39938      2.7 1.273e+04 1.170e-09
 56.40893     -0.6 1.323e+04 2.319e-09
 56.42350      0.3 1.334e+04 3.222e-09
 56.44007      1.3 1.326e+04 3.587e-09
 56.45135      2.2 1.346e+04 4.430e-09
 56.46859      2.9 1.331e+04 3.610e-09
 56.48249      2.1 1.332e+04 2.731e-09
 56.49377     -5.6 1.827e+04 4.189e-09
 56.51364    -11.2 1.847e+04 4.196e-09
 56.53619    -22.4 1.808e+04 1.134e-08
 56.55606    -26.5 1.992e+04 1.408e-08
 56.56733    -31.6 2.267e+04 2.294e-08
 56.58132    -38.1 2.340e+04 2.078e-08
 56.59848    -46.2 2.160e+04 1.311e-08
 56.60754    -54.7 1.711e+04 4.916e-09
 56.61293    -51.6 1.800e+04 6.709e-09
 56.62641    -57.9 1.529e+04 3.362e-09
 56.64090    -62.9 1.347e+04 1.721e-09
 56.65217    -67.6 1.119e+04 1.048e-09
 56.67150    -69.3 1.038e+04 7.606e-10
 56.68332    -70.2 1.001e+04 5.892e-10
 56.69459    -70.6 9.958e+03 5.739e-10
 56.71446    -71.3 9.650e+03 4.604e-10
 56.72574    -71.6 9.558e+03 4.373e-10
 56.73914    -72.1 9.314e+03 3.698e-10
 56.75688    -72.4 9.214e+03 3.465e-10
 56.76825    -72.1 9.239e+03 3.448e-10
 56.79570    -72.7 9.152e+03 3.188e-10
 56.82327    -74.1 9.426e+03 3.319e-10
 56.83445    -73.7 9.302e+03 3.220e-10
 56.84172    -74.9 9.802e+03 3.815e-10
 56.85309    -74.9 9.746e+03 3.749e-10
 56.87296    -76.7 1.048e+04 5.691e-10
 56.88414    -77.0 1.044e+04 5.801e-10
 56.89696    -78.0 1.075e+04 7.361e-10
 56.91529    -79.6 1.119e+04 1.068e-09
 56.92656    -79.3 1.108e+04 9.767e-10
 56.94205    -80.6 1.117e+04 1.064e-09
 56.95770    -81.9 1.115e+04 1.073e-09
 56.96898    -81.9 1.097e+04 9.842e-10
 56.98714    -82.8 1.065e+04 8.557e-10
 57.00012    -83.5 1.030e+04 6.895e-10
 57.01140    -83.3 1.017e+04 6.309e-10
 57.03127    -83.8 9.862e+03 4.967e-10
 57.04254    -83.7 9.788e+03 4.654e-10
 57.04479    -84.3 9.572e+03 3.853e-10
 57.05607    -83.6 9.622e+03 4.074e-10
 57.07369    -83.8 9.523e+03 3.769e-10
 57.08506    -83.0 9.592e+03 3.806e-10
 57.11133    -83.2 9.263e+03 3.068e-10
 57.14745    -82.8 8.875e+03 2.385e-10
 57.17000    -81.7 8.746e+03 2.093e-10
 57.20152    -80.7 8.568e+03 1.847e-10
 57.23229    -79.6 8.533e+03 1.797e-10
 57.25483    -78.2 8.498e+03 1.600e-10
 57.29170    -77.3 8.586e+03 1.711e-10
 57.31713    -76.8 8.817e+03 2.100e-10
 57.33967    -75.7 8.967e+03 2.141e-10
 57.37942    -75.6 9.441e+03 3.323e-10
 57.40196    -74.9 9.902e+03 4.261e-10
 57.42697    -74.8 1.065e+04 7.402e-10
 57.46426    -75.1 1.113e+04 9.696e-10
 57.48012    -74.3 1.207e+04 1.568e-09
 57.48793    -73.9 1.181e+04 1.376e-09
 57.51715    -75.0 1.191e+04 1.459e-09
 57.54910    -75.7 1.144e+04 1.146e-09
 57.57164    -75.2 1.202e+04 1.481e-09
 57.59142    -75.7 1.097e+04 8.579e-10
 57.60259    -75.5 1.110e+04 8.962e-10
 57.61841    -76.1 1.038e+04 5.946e-10
 57.63374    -76.5 9.905e+03 4.445e-10
 57.65638    -76.1 9.955e+03 4.374e-10
 57.69623    -76.2 9.603e+03 3.337e-10
 57.71877    -75.6 9.618e+03 3.424e-10
 57.74261    -76.0 9.510e+03 3.113e-10
 57.78106    -76.0 9.558e+03 3.168e-10
 57.80361    -75.5 9.508e+03 3.036e-10
 57.83279    -75.6 9.621e+03 3.125e-10
 57.86590    -75.8 9.789e+03 3.359e-10
 57.88845    -75.7 9.812e+03 3.301e-10
 57.90843    -76.1 1.001e+04 3.824e-10
 57.93097    -75.9 9.814e+03 3.375e-10
 57.95074    -76.0 9.854e+03 3.672e-10
 57.97329    -75.8 9.899e+03 3.973e-10
 58.01303    -75.4 9.788e+03 3.860e-10
 58.05812    -74.0 9.265e+03 2.522e-10
 58.09787    -73.1 8.865e+03 1.678e-10
 58.12042    -72.7 8.639e+03 1.053e-10
 58.14843    -72.0 8.368e+03 7.264e-11
 58.18271    -71.1 8.104e+03 5.922e-11
 58.20525    -70.6 7.955e+03 5.087e-11
 58.23861    -69.3 7.852e+03 4.987e-11
 58.26755    -67.8 7.773e+03 4.964e-11
 58.29009    -66.9 7.696e+03 4.615e-11
 58.32879    -65.3 7.620e+03 4.542e-11
 58.35239    -63.2 7.561e+03 4.439e-11
 58.37493    -62.3 7.490e+03 3.999e-11
 58.41468    -60.6 7.424e+03 3.857e-11
 58.43722    -59.7 7.366e+03 3.593e-11
 58.46407    -58.2 7.322e+03 3.529e-11
 58.49952    -56.8 7.307e+03 3.525e-11
 58.52206    -55.9 7.283e+03 3.479e-11
 58.55425    -54.5 7.241e+03 3.688e-11
 58.58435    -53.1 7.205e+03 3.952e-11
 58.60690    -52.2 7.172e+03 4.029e-11
 58.64443    -50.7 7.143e+03 4.131e-11
 58.66919    -49.3 7.105e+03 4.153e-11
 58.69174    -48.2 7.036e+03 4.054e-11
 58.73149    -46.6 6.958e+03 3.745e-11
 58.75403    -45.7 6.963e+03 3.442e-11
 58.77196    -44.2 6.911e+03 3.111e-11
 58.79451    -44.2 6.942e+03 3.181e-11
 58.81632    -42.8 6.894e+03 2.975e-11
 58.83887    -42.1 6.903e+03 2.967e-11
 58.86989    -40.7 6.902e+03 2.944e-11
 58.90116    -39.6 6.940e+03 2.974e-11
 58.92371    -39.1 7.013e+03 3.370e-11
 58.96007    -38.3 7.105e+03 4.252e-11
 58.98600    -37.5 7.223e+03 6.009e-11
 59.00855    -36.7 7.310e+03 6.759e-11
 59.04829    -35.9 7.452e+03 9.119e-11
 59.07084    -35.3 7.506e+03 1.016e-10
 59.09534    -35.0 7.700e+03 1.283e-10
 59.13313    -35.7 8.259e+03 2.036e-10
 59.15568    -35.0 8.270e+03 2.023e-10
 59.18552    -36.5 9.310e+03 4.049e-10
 59.21500    -37.3 1.010e+04 7.645e-10
 59.22490    -37.7 1.032e+04 8.340e-10
 59.24051    -36.7 1.010e+04 7.358e-10
 59.27571    -37.0 1.051e+04 9.705e-10
 59.30281    -37.7 1.059e+04 1.000e-09
 59.31398    -36.6 1.045e+04 8.935e-10
 59.33187    -36.9 1.049e+04 9.041e-10
 59.36500    -38.1 1.055e+04 9.509e-10
 59.38765    -38.4 1.060e+04 9.336e-10
 59.39961    -40.2 1.105e+04 1.226e-09
 59.41860    -41.5 1.171e+04 1.628e-09
 59.42987    -42.4 1.217e+04 1.911e-09
 59.43633    -43.9 1.356e+04 3.212e-09
 59.44760    -42.8 1.289e+04 2.602e-09
 59.46102    -44.0 1.416e+04 4.171e-09
 59.47229    -45.1 1.518e+04 4.813e-09
 59.48969    -46.0 1.643e+04 6.968e-09
 59.50343    -46.9 1.743e+04 8.596e-09
 59.51471    -50.4 1.665e+04 7.292e-09
 59.53458    -52.7 1.638e+04 7.075e-09
 59.54585    -54.7 1.512e+04 5.688e-09
 59.55733    -57.4 1.541e+04 5.584e-09
 59.57700    -60.6 1.591e+04 5.715e-09
 59.58827    -63.5 1.588e+04 4.570e-09
 59.60242    -67.6 1.585e+04 4.835e-09
 59.61942    -70.8 1.555e+04 4.890e-09
 59.63069    -73.4 1.528e+04 4.819e-09
 59.64657    -75.0 1.465e+04 4.552e-09
 59.65785    -74.0 1.580e+04 6.527e-09
 59.66184    -75.9 1.482e+04 4.121e-09
 59.67311    -76.6 1.513e+04 5.204e-09
 59.69260    -78.9 1.360e+04 2.569e-09
 59.70426    -81.6 1.195e+04 1.353e-09
 59.71553    -82.0 1.202e+04 1.432e-09
 59.73540    -83.6 1.103e+04 9.489e-10
 59.74668    -84.1 1.103e+04 9.093e-10
 59.76024    -84.6 1.069e+04 7.169e-10
 59.77782    -85.0 1.051e+04 6.170e-10
 59.78910    -85.9 1.042e+04 5.455e-10
 59.80533    -86.0 1.026e+04 4.924e-10
 59.82024    -85.9 1.018e+04 4.504e-10
 59.83151    -86.7 1.005e+04 4.055e-10
 59.85042    -86.4 1.001e+04 3.829e-10
 59.86266    -86.1 1.000e+04 3.766e-10
 59.87403    -87.1 9.890e+03 3.437e-10
 59.90698    -86.6 9.898e+03 3.309e-10
 59.93642    -86.2 9.892e+03 3.298e-10
 59.95897    -87.6 9.886e+03 3.188e-10
 59.97874    -86.9 9.947e+03 3.320e-10
 59.98992    -87.4 9.976e+03 3.315e-10
 60.00824    -87.5 1.001e+04 3.402e-10
 60.02106    -87.8 1.010e+04 3.585e-10
 60.03234    -89.3 1.058e+04 3.717e-10
 60.05221    -90.1 1.090e+04 4.229e-10
 60.06348    -92.3 1.137e+04 6.274e-10
 60.07588    -93.0 1.156e+04 8.228e-10
 60.08962    -93.3 1.180e+04 1.103e-09
 60.09710    -93.8 1.226e+04 1.494e-09
 60.10590    -94.1 1.268e+04 2.229e-09
 60.12097    -93.9 1.289e+04 2.577e-09
 60.13705    -93.5 1.304e+04 2.775e-09
 60.14832    -93.3 1.319e+04 3.043e-09
 60.16606    -93.1 1.316e+04 2.878e-09
 60.17947    -92.9 1.302e+04 2.475e-09
 60.19074    -93.1 1.278e+04 1.989e-09
 60.21061    -93.2 1.248e+04 1.667e-09
 60.22189    -93.6 1.216e+04 1.325e-09
 60.23369    -93.6 1.192e+04 1.129e-09
 60.25303    -93.5 1.171e+04 9.857e-10
 60.27568    -93.9 1.120e+04 7.572e-10
 60.31280    -92.1 1.108e+04 7.322e-10
 60.33807    -90.2 1.104e+04 7.510e-10
 60.36061    -89.4 1.078e+04 6.225e-10
 60.40036    -87.7 1.099e+04 7.179e-10
 60.42291    -86.9 1.084e+04 6.338e-10
 60.44807    -85.2 1.108e+04 7.518e-10
 60.48520    -83.6 1.129e+04 8.675e-10
 60.50774    -83.1 1.111e+04 7.476e-10
 60.52158    -81.6 1.130e+04 8.353e-10
 60.54412    -81.6 1.130e+04 8.211e-10
 60.57004    -80.2 1.150e+04 9.226e-10
 60.59258    -80.2 1.117e+04 7.253e-10
 60.62844    -79.1 1.142e+04 8.308e-10
 60.65487    -78.1 1.172e+04 9.719e-10
 60.67742    -78.7 1.148e+04 8.429e-10
 60.71717    -78.3 1.181e+04 1.009e-09
 60.73971    -78.7 1.180e+04 1.006e-09
 60.76371    -78.7 1.215e+04 1.188e-09
 60.80201    -78.8 1.242e+04 1.331e-09
 60.82455    -79.5 1.259e+04 1.469e-09
 60.85389    -79.6 1.269e+04 1.513e-09
 60.88684    -79.4 1.269e+04 1.487e-09
 60.90939    -79.9 1.234e+04 1.108e-09
 60.94207    -79.3 1.214e+04 8.638e-10
 60.96462    -79.2 1.181e+04 6.063e-10
 60.97168    -78.5 1.163e+04 4.842e-10
 60.99423    -79.2 1.093e+04 2.813e-10
 61.03397    -78.2 1.083e+04 2.578e-10
 61.05652    -78.4 1.053e+04 2.257e-10
 61.07935    -76.9 1.051e+04 2.250e-10
 61.11881    -75.4 1.052e+04 2.349e-10
 61.14136    -74.9 1.044e+04 2.340e-10
 61.16953    -73.2 1.063e+04 2.618e-10
 61.20365    -71.6 1.093e+04 3.053e-10
 61.22620    -71.6 1.115e+04 3.832e-10
 61.24597    -70.7 1.129e+04 4.250e-10
 61.25715    -71.1 1.147e+04 5.129e-10
 61.27079    -70.7 1.168e+04 6.430e-10
 61.28829    -70.2 1.194e+04 8.060e-10
 61.29957    -70.7 1.224e+04 1.017e-09
 61.31588    -70.3 1.258e+04 1.296e-09
 61.33071    -69.9 1.293e+04 1.643e-09
 61.34199    -70.7 1.319e+04 1.966e-09
 61.36097    -70.5 1.355e+04 2.440e-09
 61.37313    -70.5 1.390e+04 3.006e-09
 61.38440    -71.8 1.394e+04 3.093e-09
 61.39619    -72.1 1.432e+04 3.807e-09
 61.40568    -72.1 1.459e+04 4.061e-09
 61.41555    -73.6 1.394e+04 2.568e-09
 61.42861    -73.9 1.435e+04 3.128e-09
 61.44670    -74.1 1.482e+04 3.947e-09
 61.45797    -76.2 1.332e+04 1.665e-09
 61.47370    -76.5 1.362e+04 1.845e-09
 61.48912    -76.8 1.381e+04 2.050e-09
 61.50039    -79.5 1.175e+04 8.640e-10
 61.51879    -80.4 1.184e+04 9.287e-10
 61.53153    -81.0 1.197e+04 1.076e-09
 61.54291    -82.3 1.063e+04 5.436e-10
 61.56278    -82.5 1.106e+04 7.279e-10
 61.57395    -82.7 1.062e+04 5.405e-10
 61.58643    -83.0 1.084e+04 6.087e-10
 61.60510    -83.5 1.116e+04 7.251e-10
 61.61384    -83.5 1.059e+04 4.935e-10
 61.61771    -84.0 1.047e+04 4.853e-10
 61.63152    -84.9 1.061e+04 5.535e-10
 61.64752    -85.8 1.085e+04 6.406e-10
 61.65879    -85.4 1.037e+04 5.226e-10
 61.67661    -86.1 1.057e+04 6.145e-10
 61.68994    -86.6 1.092e+04 7.165e-10
 61.70121    -85.8 1.053e+04 6.290e-10
 61.72108    -86.0 1.085e+04 7.069e-10
 61.73236    -85.4 1.059e+04 6.445e-10
 61.74424    -85.5 1.082e+04 7.025e-10
 61.76350    -85.7 1.098e+04 7.220e-10
 61.77478    -85.0 1.078e+04 6.767e-10
 61.78934    -85.1 1.086e+04 6.768e-10
 61.80592    -85.3 1.097e+04 6.220e-10
 61.81720    -84.5 1.077e+04 6.004e-10
 61.82796    -84.6 1.078e+04 5.335e-10
 61.83923    -84.6 1.066e+04 4.611e-10
 61.84834    -84.6 1.067e+04 4.299e-10
 61.85971    -83.9 1.047e+04 4.163e-10
 61.89099    -83.7 1.051e+04 3.673e-10
 61.92210    -83.3 1.058e+04 3.601e-10
 61.94465    -82.2 1.023e+04 3.308e-10
 61.98117    -81.8 1.040e+04 3.316e-10
 62.00684    -81.0 1.053e+04 3.662e-10
 62.02939    -80.3 1.043e+04 3.820e-10
 62.04926    -80.1 1.054e+04 4.271e-10
 62.05004    -79.6 1.046e+04 4.158e-10
 62.06075    -79.5 1.050e+04 4.203e-10
 62.08031    -79.3 1.052e+04 4.320e-10
 62.09158    -78.9 1.048e+04 4.285e-10
 62.10497    -78.4 1.041e+04 4.084e-10
 62.12273    -77.8 1.038e+04 3.688e-10
 62.13400    -77.6 1.038e+04 3.675e-10
 62.15397    -77.2 1.040e+04 3.367e-10
 62.17662    -76.8 1.037e+04 3.286e-10
 62.20662    -75.7 1.031e+04 2.790e-10
 62.23891    -74.1 1.031e+04 2.696e-10
 62.25839    -74.5 1.061e+04 2.832e-10
 62.27110    -73.9 1.061e+04 2.826e-10
 62.28113    -72.8 1.062e+04 2.741e-10
 62.29241    -73.7 1.096e+04 3.530e-10
 62.30788    -73.3 1.127e+04 3.588e-10
 62.32355    -72.8 1.155e+04 4.252e-10
 62.33483    -73.6 1.150e+04 6.333e-10
 62.35297    -73.0 1.179e+04 7.653e-10
 62.36597    -72.2 1.207e+04 9.608e-10
 62.37724    -72.6 1.196e+04 1.193e-09
 62.39712    -71.8 1.232e+04 1.410e-09
 62.40839    -72.1 1.214e+04 1.446e-09
 62.42061    -71.4 1.244e+04 1.649e-09
 62.43954    -70.7 1.287e+04 1.950e-09
 62.45081    -70.8 1.203e+04 1.419e-09
 62.46570    -70.3 1.249e+04 1.587e-09
 62.48125    -70.0 1.303e+04 2.019e-09
 62.48623    -69.9 1.318e+04 2.232e-09
 62.49323    -69.8 1.196e+04 1.143e-09
 62.51079    -69.3 1.270e+04 1.429e-09
 62.52438    -68.6 1.349e+04 2.129e-09
 62.53565    -68.8 1.187e+04 7.963e-10
 62.55552    -68.3 1.295e+04 1.180e-09
 62.56679    -68.8 1.092e+04 4.519e-10
 62.57843    -68.5 1.201e+04 6.058e-10
 62.59794    -68.8 1.340e+04 1.016e-09
 62.60921    -69.1 1.129e+04 4.164e-10
 62.62352    -69.8 1.262e+04 6.836e-10
 62.64036    -70.1 1.367e+04 1.377e-09
 62.65163    -70.2 1.182e+04 6.214e-10
 62.66861    -70.4 1.276e+04 1.123e-09
 62.68278    -70.2 1.351e+04 1.940e-09
 62.69405    -70.9 1.229e+04 1.184e-09
 62.70277    -70.7 1.288e+04 1.615e-09
 62.71404    -70.2 1.249e+04 1.282e-09
 62.72520    -70.0 1.309e+04 1.976e-09
 62.74784    -70.2 1.238e+04 1.501e-09
 62.78144    -70.5 1.269e+04 1.732e-09
 62.79876    -70.5 1.283e+04 1.792e-09
 62.81004    -71.0 1.250e+04 1.612e-09
 62.82643    -71.4 1.273e+04 1.678e-09
 62.84118    -72.0 1.290e+04 1.636e-09
 62.85246    -72.9 1.284e+04 1.650e-09
 62.87152    -74.0 1.303e+04 1.630e-09
 62.88360    -75.3 1.325e+04 1.646e-09
 62.89487    -76.4 1.328e+04 1.899e-09
 62.91301    -77.5 1.337e+04 2.030e-09
 62.92242    -77.3 1.354e+04 2.214e-09
 62.92602    -78.0 1.344e+04 2.282e-09
 62.93916    -78.8 1.329e+04 2.419e-09
 62.95717    -79.3 1.320e+04 2.434e-09
 62.96844    -79.5 1.282e+04 1.992e-09
 62.98425    -79.9 1.269e+04 1.786e-09
 62.99959    -80.7 1.264e+04 1.545e-09
 63.01086    -81.6 1.229e+04 1.009e-09
 63.02934    -83.1 1.223e+04 9.202e-10
 63.04201    -84.7 1.218e+04 9.023e-10
 63.05328    -86.0 1.172e+04 6.214e-10
 63.07315    -87.1 1.146e+04 6.954e-10
 63.08442    -87.8 1.112e+04 5.240e-10
 63.09698    -88.0 1.105e+04 5.517e-10
 63.11557    -88.3 1.100e+04 5.491e-10
 63.12684    -88.9 1.078e+04 4.115e-10
 63.13463    -89.6 1.064e+04 3.621e-10
 63.15728    -89.1 1.048e+04 3.281e-10
 63.18933    -89.6 1.023e+04 2.499e-10
 63.21188    -89.9 9.926e+03 1.961e-10
 63.24372    -89.9 9.740e+03 1.635e-10
 63.27417    -89.2 9.588e+03 1.455e-10
 63.29672    -88.8 9.608e+03 1.474e-10
 63.33390    -87.7 9.568e+03 1.405e-10
 63.35901    -86.5 9.534e+03 1.368e-10
 63.38155    -86.1 9.684e+03 1.830e-10
 63.42130    -84.6 9.647e+03 1.790e-10
 63.44385    -84.0 9.773e+03 2.206e-10
 63.46917    -82.5 9.731e+03 2.088e-10
 63.50614    -80.9 9.691e+03 2.022e-10
 63.52868    -80.3 9.723e+03 2.067e-10
 63.55523    -78.6 9.692e+03 2.036e-10
 63.57777    -78.2 9.692e+03 2.040e-10
 63.59098    -76.5 9.695e+03 2.037e-10
 63.61352    -75.9 9.696e+03 1.975e-10
 63.64954    -74.6 9.824e+03 2.057e-10
 63.67582    -74.0 1.012e+04 2.881e-10
 63.69836    -73.6 1.031e+04 3.224e-10
 63.73811    -73.4 1.095e+04 5.892e-10
 63.76065    -72.8 1.114e+04 6.413e-10
 63.77344    -73.2 1.161e+04 1.007e-09
 63.78782    -73.0 1.206e+04 1.376e-09
 63.79481    -72.6 1.200e+04 1.359e-09
 63.80288    -72.3 1.205e+04 1.380e-09
 63.81843    -72.1 1.237e+04 1.643e-09
 63.83402    -72.3 1.255e+04 1.773e-09
 63.84530    -72.1 1.233e+04 1.566e-09
 63.87489    -72.7 1.217e+04 1.392e-09
 63.90778    -73.2 1.197e+04 1.203e-09
 63.93033    -72.4 1.129e+04 7.824e-10
 63.96517    -72.6 1.101e+04 6.156e-10
 63.99262    -72.4 1.082e+04 5.249e-10
 64.00317    -71.3 1.057e+04 4.033e-10
 64.02081    -70.5 1.066e+04 4.428e-10
 64.05491    -70.2 1.051e+04 3.822e-10
 64.07746    -68.9 1.044e+04 3.541e-10
 64.10045    -68.2 1.027e+04 3.038e-10
 64.13975    -67.1 1.014e+04 2.718e-10
 64.16230    -65.8 1.013e+04 2.620e-10
 64.19063    -64.7 1.004e+04 2.369e-10
 64.22459    -63.3 9.956e+03 2.205e-10
 64.24714    -62.1 9.967e+03 2.181e-10
 64.28081    -60.6 9.941e+03 2.055e-10
 64.30943    -59.0 9.939e+03 1.936e-10
 64.33197    -58.0 1.002e+04 2.072e-10
 64.37099    -56.4 1.002e+04 1.941e-10
 64.39427    -54.8 1.003e+04 1.805e-10
 64.41681    -53.9 1.008e+04 1.893e-10
 64.44131    -52.4 1.010e+04 1.768e-10
 64.45924    -52.0 1.017e+04 1.911e-10
 64.47911    -51.2 1.018e+04 2.021e-10
 64.50627    -49.8 1.016e+04 1.839e-10
 64.54140    -48.3 1.011e+04 1.716e-10
 64.56394    -47.6 1.001e+04 1.854e-10
 64.59645    -46.1 9.944e+03 1.683e-10
 64.62624    -44.7 9.890e+03 1.558e-10
 64.64878    -44.0 9.741e+03 1.706e-10
 64.68663    -42.6 9.737e+03 1.636e-10
 64.71107    -41.5 9.851e+03 1.747e-10
 64.73362    -40.6 9.759e+03 1.912e-10
 64.77337    -39.5 9.873e+03 2.169e-10
 64.79591    -38.7 9.760e+03 2.212e-10
 64.82190    -37.7 9.850e+03 2.440e-10
 64.85821    -36.7 9.974e+03 2.861e-10
 64.87556    -35.8 9.782e+03 2.571e-10
 64.88435    -35.7 9.802e+03 2.802e-10
 64.91209    -34.9 9.976e+03 3.615e-10
 64.94304    -33.5 1.026e+04 4.714e-10
 64.96559    -32.7 1.003e+04 4.272e-10
 65.00227    -31.2 1.041e+04 5.704e-10
 65.02778    -29.7 1.067e+04 6.161e-10
 65.03896    -29.2 1.068e+04 6.367e-10
 65.05844    -29.1 1.073e+04 6.654e-10
 65.07011    -28.4 1.093e+04 7.286e-10
 65.08138    -27.9 1.091e+04 7.653e-10
 65.09440    -27.5 1.099e+04 7.957e-10
 65.10340    -27.6 1.103e+04 8.338e-10
 65.11252    -27.0 1.101e+04 8.423e-10
 65.12607    -26.5 1.116e+04 9.058e-10
 65.14367    -26.2 1.124e+04 9.484e-10
 65.15494    -25.6 1.123e+04 9.655e-10
 65.17116    -25.3 1.147e+04 1.072e-09
 65.18609    -26.2 1.260e+04 1.351e-09
 65.19736    -25.1 1.189e+04 1.272e-09
 65.21625    -29.1 1.513e+04 2.541e-09
 65.22851    -33.8 1.759e+04 7.648e-09
 65.23978    -32.3 1.692e+04 5.483e-09
 65.25966    -35.0 1.857e+04 1.500e-08
 65.27093    -33.6 1.761e+04 8.796e-09
 65.28389    -35.3 1.892e+04 1.804e-08
 65.30207    -36.1 1.966e+04 2.352e-08
 65.31156    -35.8 1.872e+04 1.495e-08
 65.31592    -35.6 1.849e+04 1.397e-08
 65.32898    -37.3 1.892e+04 1.506e-08
 65.34449    -39.8 1.848e+04 1.076e-08
 65.35577    -39.2 1.781e+04 1.011e-08
 65.37407    -41.6 1.684e+04 6.508e-09
 65.38691    -43.7 1.509e+04 3.603e-09
 65.39819    -42.4 1.579e+04 4.754e-09
 65.41806    -43.9 1.432e+04 2.730e-09
 65.42933    -42.5 1.511e+04 3.900e-09
 65.44171    -43.7 1.375e+04 2.162e-09
 65.46048    -44.7 1.233e+04 1.193e-09
 65.47175    -43.5 1.310e+04 1.656e-09
 65.48680    -44.5 1.172e+04 9.386e-10
 65.50290    -44.7 1.095e+04 6.644e-10
 65.51417    -44.1 1.126e+04 7.586e-10
 65.52617    -44.1 1.079e+04 5.988e-10
 65.53744    -44.1 1.093e+04 6.726e-10
 65.54532    -43.9 1.061e+04 5.505e-10
 65.55659    -43.6 1.060e+04 5.648e-10
 65.57656    -42.8 1.023e+04 4.118e-10
 65.58783    -42.6 1.056e+04 5.382e-10
 65.59953    -41.5 1.023e+04 4.199e-10
 65.63344    -40.3 9.850e+03 3.021e-10
 65.66150    -37.9 9.528e+03 1.976e-10
 65.68404    -36.9 9.389e+03 1.913e-10
 65.72372    -35.0 9.311e+03 1.483e-10
 65.74788    -32.1 9.171e+03 1.173e-10
 65.77043    -32.2 9.210e+03 1.178e-10
 65.80863    -30.1 9.151e+03 1.146e-10
 65.83117    -28.8 9.126e+03 9.339e-11
 65.85900    -26.7 9.108e+03 9.390e-11
 65.89347    -24.7 9.081e+03 9.650e-11
 65.91601    -23.5 9.123e+03 7.545e-11
 65.94918    -21.6 9.128e+03 8.188e-11
 65.97830    -19.7 9.128e+03 9.156e-11
 66.00085    -18.8 9.074e+03 8.372e-11
 66.03936    -16.9 9.095e+03 9.637e-11
 66.06314    -14.9 9.149e+03 1.118e-10
 66.08569    -14.0 9.082e+03 1.158e-10
 66.12543    -12.1 9.171e+03 1.427e-10
 66.14798    -11.1 9.182e+03 1.495e-10
 66.16838     -9.4 9.356e+03 1.971e-10
 66.19092     -9.4 9.517e+03 2.370e-10
 66.21027     -7.8 9.752e+03 2.971e-10
 66.23282     -7.1 9.889e+03 3.357e-10
 66.26482     -5.9 1.015e+04 4.573e-10
 66.29511     -5.0 1.048e+04 6.336e-10
 66.31766     -4.0 1.028e+04 5.282e-10
 66.35500     -2.8 1.057e+04 6.756e-10
 66.37995     -1.5 1.075e+04 7.510e-10
 66.40249     -1.0 1.057e+04 3.150e-10
 66.44224     -0.1 1.039e+04 3.260e-10
 66.46479     -0.2 1.004e+04 1.860e-10
 66.49027      1.1 9.901e+03 2.037e-10
 66.52708      2.5 9.794e+03 1.992e-10
 66.54963      3.2 9.782e+03 2.286e-10
 66.58045      4.7 9.769e+03 2.393e-10
 66.61142      6.3 9.706e+03 2.017e-10
 66.62034      6.2 9.735e+03 1.549e-10
 66.63446      7.3 9.825e+03 2.700e-10
 66.67064      8.9 9.857e+03 1.912e-10
 66.69676      9.9 9.742e+03 1.456e-10
 66.71930     10.7 9.817e+03 2.295e-10
 66.75905     11.7 9.630e+03 2.121e-10
 66.78159     12.7 9.646e+03 2.888e-10
 66.80591     14.4 9.536e+03 2.951e-10
 66.84389     16.4 9.465e+03 2.743e-10
 66.86643     17.0 9.419e+03 2.779e-10
 66.89609     18.5 9.334e+03 2.255e-10
 66.92873     19.4 9.339e+03 1.754e-10
 66.95127     19.9 9.103e+03 1.633e-10
 66.98627     20.9 9.184e+03 1.694e-10
 67.01356     21.2 9.482e+03 2.246e-10
 67.03611     21.8 9.173e+03 1.789e-10
 67.05446     22.4 9.437e+03 2.844e-10
 67.07640     22.7 9.614e+03 3.271e-10
 67.09840     23.0 9.388e+03 2.681e-10
 67.12155     24.3 9.644e+03 4.232e-10
 67.16069     25.9 9.859e+03 4.978e-10
 67.18324     26.5 9.442e+03 3.602e-10
 67.21173     28.1 9.438e+03 3.102e-10
 67.24553     28.6 9.559e+03 2.458e-10
 67.26808     29.1 9.265e+03 1.763e-10
 67.30191     29.5 9.441e+03 1.880e-10
 67.33037     29.1 9.942e+03 2.836e-10
 67.35292     30.2 9.610e+03 2.336e-10
 67.39209     30.2 1.037e+04 4.648e-10
 67.41521     30.5 1.118e+04 9.587e-10
 67.43775     31.5 1.107e+04 8.444e-10
 67.47495     31.8 1.182e+04 1.361e-09
 67.49273     30.8 1.197e+04 1.518e-09
 67.50005     31.6 1.206e+04 1.516e-09
 67.52737     30.9 1.273e+04 1.913e-09
 67.56234     30.0 1.276e+04 1.976e-09
 67.58479     30.6 1.308e+04 2.369e-09
 67.61745     30.1 1.227e+04 1.701e-09
 67.64718     30.2 1.125e+04 1.131e-09
 67.66972     31.2 1.100e+04 1.040e-09
 67.70773     32.3 1.021e+04 7.007e-10
 67.73202     33.9 9.640e+03 4.873e-10
 67.75456     35.1 9.371e+03 4.134e-10
 67.79431     36.8 9.048e+03 3.147e-10
 67.81685     38.3 8.733e+03 2.458e-10
 67.84300     40.3 8.594e+03 2.135e-10
 67.87915     42.2 8.525e+03 1.894e-10
 67.90169     43.9 8.353e+03 1.699e-10
 67.91799     46.0 8.411e+03 1.756e-10
 67.94054     45.9 8.348e+03 1.661e-10
 67.96398     47.9 8.453e+03 1.855e-10
 67.98653     49.8 8.365e+03 1.772e-10
 68.02337     51.9 8.540e+03 2.121e-10
 68.04882     53.9 8.690e+03 2.333e-10
 68.07137     56.0 8.724e+03 2.539e-10
 68.11112     57.7 8.912e+03 2.721e-10
 68.13366     59.9 9.057e+03 3.189e-10
 68.15864     61.1 9.321e+03 3.511e-10
 68.19595     61.6 9.696e+03 4.155e-10
 68.21850     63.6 1.007e+04 5.369e-10
 68.24882     63.0 1.060e+04 6.982e-10
 68.28079     61.4 1.119e+04 1.031e-09
 68.30334     62.6 1.143e+04 1.125e-09
 68.33849     60.4 1.184e+04 1.507e-09
 68.36103     60.2 1.123e+04 1.170e-09
 68.36563     58.2 1.173e+04 1.521e-09
 68.38818     58.1 1.153e+04 1.308e-09
 68.40795     55.3 1.159e+04 1.363e-09
 68.41913     54.6 1.167e+04 1.324e-09
 68.43900     52.1 1.140e+04 1.240e-09
 68.45037     51.1 1.198e+04 1.362e-09
 68.47428     47.1 1.136e+04 1.264e-09
 68.51276     45.6 1.065e+04 1.023e-09
 68.53531     43.4 1.094e+04 1.023e-09
 68.56446     39.4 1.029e+04 6.994e-10
 68.59760     35.8 1.009e+04 6.141e-10
 68.62014     31.0 9.915e+03 6.246e-10
 68.63992     29.7 9.713e+03 6.117e-10
 68.65110     28.4 9.671e+03 6.168e-10
 68.66572     27.9 9.653e+03 6.017e-10
 68.68224     26.6 9.590e+03 5.382e-10
 68.69351     24.3 9.557e+03 4.770e-10
 68.71081     23.6 9.196e+03 4.080e-10
 68.74463     21.5 8.926e+03 3.177e-10
 68.78144     18.8 8.616e+03 2.752e-10
 68.80408     20.1 8.673e+03 2.864e-10
 68.82364     19.6 8.622e+03 2.770e-10
 68.84065     19.8 8.723e+03 2.873e-10
 68.85192     16.2 1.029e+04 4.828e-10
 68.86863     15.6 1.073e+04 5.854e-10
 68.88306     15.5 1.090e+04 6.961e-10
 68.89434     13.9 1.102e+04 1.093e-09
 68.91372     13.4 1.177e+04 1.410e-09
 68.92548      9.6 1.447e+04 2.294e-09
 68.93676      2.4 1.719e+04 5.679e-09
 68.95663     -3.3 1.886e+04 1.008e-08
 68.96790    -10.0 2.062e+04 1.582e-08
 68.98136    -14.8 2.304e+04 1.878e-08
 68.99905    -20.0 2.567e+04 1.589e-08
 69.00927    -32.9 2.388e+04 7.325e-09
 69.01413    -30.2 2.171e+04 5.995e-09
 69.02645    -40.4 1.752e+04 4.100e-09
 69.04147    -46.2 1.537e+04 3.692e-09
 69.05274    -49.2 1.443e+04 3.576e-09
 69.07154    -49.8 1.419e+04 4.029e-09
 69.08389    -49.4 1.425e+04 4.186e-09
 69.09516    -50.8 1.337e+04 2.754e-09
 69.11503    -50.6 1.312e+04 2.414e-09
 69.12631    -53.4 1.161e+04 1.384e-09
 69.13918    -53.5 1.098e+04 1.118e-09
 69.15745    -53.7 1.037e+04 8.668e-10
 69.16873    -55.0 9.723e+03 6.564e-10
 69.18427    -54.7 9.428e+03 5.310e-10
 69.19987    -54.4 9.135e+03 4.318e-10
 69.21114    -55.1 8.947e+03 3.768e-10
 69.22438    -54.3 8.691e+03 3.242e-10
 69.23741    -54.0 8.547e+03 2.869e-10
 69.25376    -54.0 8.181e+03 2.395e-10
 69.28592    -52.4 7.776e+03 1.902e-10
 69.31605    -50.8 7.719e+03 1.717e-10
 69.33860    -51.3 7.581e+03 1.551e-10
 69.37610    -49.4 7.550e+03 1.549e-10
 69.40089    -47.2 7.479e+03 1.486e-10
 69.42344    -47.4 7.294e+03 1.260e-10
 69.46318    -45.2 7.157e+03 1.091e-10
 69.48573    -45.3 6.998e+03 9.275e-11
 69.51137    -43.1 6.897e+03 8.138e-11
 69.54802    -40.8 6.838e+03 7.460e-11
 69.57057    -40.8 6.787e+03 7.172e-11
 69.60155    -38.6 6.808e+03 7.223e-11
 69.63286    -36.4 6.900e+03 7.964e-11
 69.65382    -36.5 6.993e+03 8.898e-11
 69.66761    -36.4 7.042e+03 8.868e-11
 69.69174    -34.4 7.206e+03 1.096e-10
 69.71770    -32.4 7.422e+03 1.367e-10
 69.74024    -32.6 7.533e+03 1.559e-10
 69.77999    -30.7 7.764e+03 1.895e-10
 69.80254    -30.9 7.778e+03 1.925e-10
 69.82701    -29.1 7.936e+03 2.145e-10
 69.86483    -27.5 8.006e+03 2.215e-10
 69.88737    -27.8 7.886e+03 1.929e-10
 69.91719    -26.6 7.885e+03 1.783e-10
 69.94967    -25.5 7.847e+03 1.662e-10
 69.97221    -26.3 7.849e+03 1.632e-10
 70.00737    -25.4 7.862e+03 1.680e-10
 70.03450    -24.1 7.982e+03 1.942e-10
 70.05705    -24.8 8.118e+03 2.042e-10
 70.08811    -23.2 8.244e+03 2.212e-10
 70.10989    -22.5 8.244e+03 2.202e-10
 70.11934    -23.5 8.273e+03 2.199e-10
 70.14265    -21.9 8.379e+03 2.286e-10
 70.18163    -20.6 8.466e+03 2.219e-10
 70.20418    -22.4 8.860e+03 2.581e-10
 70.23283    -21.2 8.971e+03 2.928e-10
 70.26647    -19.9 9.170e+03 3.286e-10
 70.28902    -21.4 9.691e+03 4.501e-10
 70.30879    -20.5 9.814e+03 4.888e-10
 70.31786    -21.6 9.983e+03 5.379e-10
 70.32070    -20.9 9.770e+03 4.795e-10
 70.33409    -20.2 9.821e+03 4.952e-10
 70.35112    -19.8 9.886e+03 5.219e-10
 70.36239    -20.6 1.008e+04 5.488e-10
 70.37918    -19.7 1.007e+04 5.517e-10
 70.39354    -18.9 1.020e+04 5.414e-10
 70.40481    -19.8 1.032e+04 5.390e-10
 70.42427    -18.8 1.018e+04 5.403e-10
 70.43595    -17.5 1.027e+04 4.963e-10
 70.44723    -18.4 1.045e+04 4.959e-10
 70.46710    -17.2 1.046e+04 4.557e-10
 70.47837    -18.3 1.103e+04 5.224e-10
 70.49191    -16.9 1.083e+04 4.657e-10
 70.50952    -15.6 1.073e+04 4.410e-10
 70.52079    -17.3 1.139e+04 6.657e-10
 70.53095    -16.0 1.141e+04 6.653e-10
 70.54222    -15.5 1.138e+04 6.919e-10
 70.55194    -14.8 1.151e+04 7.055e-10
 70.56321    -15.9 1.186e+04 9.475e-10
 70.58318    -13.0 1.160e+04 7.512e-10
 70.60573    -15.1 1.318e+04 1.286e-09
 70.62550    -14.4 1.438e+04 1.684e-09
 70.63678    -15.6 1.496e+04 2.215e-09
 70.64973    -15.5 1.624e+04 3.472e-09
 70.66792    -16.1 1.761e+04 5.509e-09
 70.67920    -18.2 1.764e+04 5.843e-09
 70.69482    -19.9 1.901e+04 9.466e-09
 70.71034    -21.0 1.970e+04 1.418e-08
 70.72161    -24.1 1.948e+04 1.383e-08
 70.73991    -24.2 1.969e+04 1.860e-08
 70.75247    -25.5 1.995e+04 1.993e-08
 70.75405    -24.2 2.017e+04 2.039e-08
 70.76403    -26.5 1.991e+04 1.876e-08
 70.78391    -28.5 2.026e+04 1.563e-08
 70.79518    -30.8 1.991e+04 1.267e-08
 70.80754    -35.0 1.830e+04 7.804e-09
 70.82633    -38.7 1.617e+04 5.143e-09
 70.83760    -40.2 1.490e+04 3.745e-09
 70.85264    -41.6 1.413e+04 2.811e-09
 70.86875    -42.9 1.365e+04 2.330e-09
 70.88002    -43.6 1.305e+04 1.730e-09
 70.89773    -44.9 1.254e+04 1.477e-09
 70.91116    -45.9 1.218e+04 1.353e-09
 70.92244    -46.9 1.202e+04 1.139e-09
 70.94231    -48.1 1.210e+04 1.260e-09
 70.95358    -50.7 1.224e+04 1.255e-09
 70.96272    -53.4 1.304e+04 1.584e-09
 70.97399    -52.9 1.293e+04 1.575e-09
 70.98473    -55.1 1.386e+04 2.339e-09
 70.99600    -57.0 1.474e+04 3.887e-09
 71.01045    -57.8 1.527e+04 4.933e-09
 71.02715    -59.3 1.532e+04 5.109e-09
 71.03842    -60.3 1.529e+04 5.254e-09
 71.05554    -61.7 1.423e+04 4.197e-09
 71.06957    -62.5 1.324e+04 2.989e-09
 71.08084    -63.8 1.264e+04 2.048e-09
 71.10064    -65.0 1.188e+04 1.366e-09
 71.12318    -68.2 1.053e+04 7.455e-10
 71.14313    -68.9 1.013e+04 6.360e-10
 71.15441    -69.4 9.964e+03 5.908e-10
 71.16827    -69.3 9.869e+03 5.678e-10
 71.18424    -69.1 9.820e+03 5.529e-10
 71.19025    -69.2 9.880e+03 5.844e-10
 71.19683    -69.4 9.830e+03 5.840e-10
 71.21336    -69.2 9.797e+03 5.788e-10
 71.22797    -69.0 9.762e+03 5.695e-10
 71.23924    -69.0 9.780e+03 5.831e-10
 71.25845    -68.9 9.731e+03 5.699e-10
 71.27039    -68.8 9.669e+03 5.441e-10
 71.28166    -68.9 9.789e+03 5.863e-10
 71.30154    -69.1 9.797e+03 5.696e-10
 71.31281    -69.4 9.971e+03 6.350e-10
 71.32609    -69.9 1.004e+04 6.418e-10
 71.34396    -70.6 1.008e+04 6.478e-10
 71.35523    -70.8 1.028e+04 7.521e-10
 71.37118    -71.3 1.028e+04 7.615e-10
 71.38638    -71.6 1.017e+04 7.404e-10
 71.39765    -71.6 1.024e+04 7.630e-10
 71.40576    -72.3 1.000e+04 6.099e-10
 71.41703    -72.6 9.860e+03 5.613e-10
 71.44877    -73.8 9.246e+03 3.660e-10
 71.47141    -74.3 8.866e+03 2.872e-10
 71.49538    -75.1 8.418e+03 2.088e-10
 71.53370    -75.3 8.297e+03 1.863e-10
 71.55625    -75.9 8.243e+03 1.772e-10
 71.58556    -76.3 8.419e+03 1.844e-10
 71.61854    -76.8 9.052e+03 2.491e-10
 71.64109    -77.7 9.578e+03 3.356e-10
 71.67574    -77.9 9.997e+03 4.713e-10
 71.70328    -79.1 1.015e+04 6.189e-10
 71.71446    -79.6 9.996e+03 6.299e-10
 71.73191    -79.8 9.942e+03 5.644e-10
 71.74560    -80.6 9.866e+03 4.687e-10
 71.75687    -81.6 9.702e+03 3.832e-10
 71.77675    -82.1 9.564e+03 3.616e-10
 71.78812    -82.1 9.551e+03 3.393e-10
 71.81102    -82.6 9.245e+03 3.205e-10
 71.83772    -82.6 9.290e+03 3.354e-10
 71.84890    -82.9 9.305e+03 3.494e-10
 71.86159    -83.1 9.396e+03 3.614e-10
 71.87286    -83.8 9.556e+03 3.787e-10
 71.88973    -84.8 9.909e+03 4.359e-10
 71.90401    -86.3 1.023e+04 4.976e-10
 71.91528    -87.8 1.042e+04 5.726e-10
 71.93482    -89.3 1.048e+04 6.786e-10
 71.94642    -90.3 1.051e+04 7.832e-10
 71.95770    -90.9 1.064e+04 8.805e-10
 71.97757    -91.4 1.077e+04 9.621e-10
 71.98884    -92.1 1.106e+04 1.062e-09
 72.00246    -92.8 1.114e+04 1.089e-09
 72.01999    -93.4 1.117e+04 1.093e-09
 72.03126    -94.7 1.160e+04 1.232e-09
 72.04755    -95.2 1.165e+04 1.237e-09
 72.05905    -95.8 1.187e+04 1.281e-09
 72.06264    -97.9 1.305e+04 2.078e-09
 72.07368    -99.5 1.358e+04 2.576e-09
 72.09264   -100.3 1.374e+04 2.695e-09
 72.10483   -101.2 1.397e+04 2.844e-09
 72.11610   -102.5 1.419e+04 3.057e-09
 72.13597   -103.2 1.430e+04 3.208e-09
 72.14725   -104.3 1.451e+04 3.405e-09
 72.16028   -104.5 1.475e+04 3.698e-09
 72.17839   -104.7 1.507e+04 3.891e-09
 72.18967   -105.6 1.503e+04 3.428e-09
 72.20537   -105.6 1.505e+04 3.231e-09
 72.22081   -105.7 1.513e+04 2.754e-09
 72.23209   -106.8 1.444e+04 1.801e-09
 72.25046   -107.1 1.409e+04 1.353e-09
 72.26323   -107.4 1.367e+04 1.069e-09
 72.27080   -108.0 1.287e+04 7.494e-10
 72.28067   -110.4 1.103e+04 3.742e-10
 72.30702   -110.9 1.034e+04 2.969e-10
 72.33699   -109.4 1.018e+04 2.819e-10
 72.35954   -108.9 9.950e+03 2.414e-10
 72.39720   -107.6 9.848e+03 2.225e-10
 72.42183   -106.1 9.813e+03 2.111e-10
 72.44438   -105.7 9.762e+03 1.832e-10
 72.48412   -104.3 9.674e+03 1.726e-10
 72.50667   -103.9 9.635e+03 1.504e-10
 72.53247   -102.4 9.597e+03 1.479e-10
 72.56896   -100.9 9.600e+03 1.533e-10
 72.59151   -100.4 9.590e+03 1.354e-10
 72.62265    -98.8 9.606e+03 1.525e-10
 72.65380    -97.3 9.660e+03 1.776e-10
 72.67635    -96.8 9.661e+03 1.633e-10
 72.70126    -95.3 9.751e+03 2.004e-10
 72.72380    -95.5 9.762e+03 1.684e-10
 72.73864    -94.0 9.862e+03 2.054e-10
 72.76118    -93.5 9.882e+03 2.037e-10
 72.80093    -92.0 9.979e+03 2.302e-10
 72.82348    -91.6 1.001e+04 2.300e-10
 72.84811    -90.1 1.002e+04 2.343e-10
 72.88577    -88.6 9.963e+03 2.097e-10
 72.90831    -88.1 9.983e+03 1.982e-10
 72.93829    -86.5 9.930e+03 1.699e-10
 72.97061    -84.7 9.904e+03 1.503e-10
 72.99315    -84.1 9.905e+03 1.418e-10
 73.02847    -82.2 9.839e+03 1.280e-10
 73.05545    -80.2 9.818e+03 1.157e-10
 73.07799    -79.5 9.833e+03 1.135e-10
 73.11774    -77.5 9.827e+03 1.071e-10
 73.14028    -76.7 9.831e+03 1.076e-10
 73.14430    -74.7 9.903e+03 1.083e-10
 73.16684    -74.9 1.005e+04 1.278e-10
 73.20258    -73.2 1.005e+04 1.441e-10
 73.22512    -72.2 1.005e+04 1.449e-10
 73.25393    -69.8 9.955e+03 1.740e-10
 73.28741    -67.1 9.996e+03 1.872e-10
 73.30996    -66.2 1.001e+04 1.842e-10
 73.34411    -63.6 1.014e+04 1.677e-10
 73.37225    -61.5 1.031e+04 1.548e-10
 73.39480    -60.6 1.033e+04 1.554e-10
 73.43429    -59.0 1.038e+04 1.717e-10
 73.45709    -57.2 1.052e+04 2.328e-10
 73.47964    -56.6 1.054e+04 2.477e-10
 73.51938    -54.6 1.127e+04 3.927e-10
 73.54193    -54.4 1.118e+04 3.924e-10
 73.56479    -53.7 1.164e+04 5.198e-10
 73.58734    -54.2 1.155e+04 4.936e-10
 73.60329    -53.2 1.140e+04 5.255e-10
 73.61530    -52.8 1.141e+04 5.614e-10
 73.62667    -52.6 1.137e+04 4.522e-10
 73.65975    -51.4 1.138e+04 4.429e-10
 73.68896    -49.9 1.131e+04 3.755e-10
 73.71151    -49.4 1.133e+04 3.537e-10
 73.74993    -47.9 1.134e+04 3.211e-10
 73.77380    -46.7 1.142e+04 3.068e-10
 73.78497    -45.6 1.144e+04 2.930e-10
 73.79739    -45.8 1.156e+04 3.108e-10
 73.80741    -46.3 1.164e+04 3.660e-10
 73.81612    -45.4 1.166e+04 3.428e-10
 73.82864    -45.6 1.191e+04 4.576e-10
 73.84727    -45.4 1.215e+04 6.565e-10
 73.85854    -44.6 1.213e+04 6.248e-10
 73.87374    -44.3 1.268e+04 9.692e-10
 73.88969    -44.6 1.383e+04 1.775e-09
 73.90096    -43.7 1.362e+04 1.666e-09
 73.91883    -44.8 1.564e+04 3.419e-09
 73.93211    -47.3 1.795e+04 1.007e-08
 73.94338    -46.8 1.868e+04 1.093e-08
 73.95327    -48.1 1.964e+04 2.500e-08
 73.95885    -48.4 2.045e+04 2.678e-08
 73.96879    -49.0 2.066e+04 4.307e-08
 73.97443    -49.5 2.149e+04 5.743e-08
 73.98073    -48.6 2.087e+04 1.237e-07
 73.99000    -47.4 2.093e+04 1.963e-07
 73.99564    -46.6 2.125e+04 3.429e-07
 74.00327    -46.9 2.155e+04 3.338e-07
 74.01121    -46.3 2.155e+04 1.931e-07
 74.01548    -47.3 2.185e+04 2.971e-07
 74.01881    -47.1 2.163e+04 2.569e-07
 74.02582    -46.0 2.155e+04 9.260e-08
 74.03242    -46.3 2.187e+04 2.755e-08
 74.03806    -46.6 2.147e+04 3.327e-08
 74.04804    -49.5 2.074e+04 8.045e-09
 74.05936    -49.3 2.034e+04 1.092e-08
 74.07664    -54.1 1.666e+04 3.389e-09
 74.09051    -55.7 1.476e+04 1.706e-09
 74.10178    -54.5 1.549e+04 2.611e-09
 74.12166    -54.5 1.469e+04 1.964e-09
 74.14420    -53.5 1.472e+04 2.353e-09
 74.16407    -53.5 1.419e+04 2.207e-09
 74.17535    -52.8 1.477e+04 2.806e-09
 74.18937    -52.3 1.407e+04 2.489e-09
 74.20649    -52.1 1.370e+04 2.332e-09
 74.21777    -51.9 1.411e+04 2.816e-09
 74.22916    -51.0 1.365e+04 2.163e-09
 74.24043    -51.4 1.438e+04 3.007e-09
 74.24891    -51.0 1.386e+04 2.295e-09
 74.26019    -50.5 1.431e+04 2.891e-09
 74.27955    -50.2 1.370e+04 1.712e-09
 74.29133    -50.4 1.315e+04 1.349e-09
 74.30260    -50.2 1.327e+04 1.379e-09
 74.32248    -50.3 1.290e+04 1.027e-09
 74.33375    -50.3 1.287e+04 9.499e-10
 74.34719    -50.3 1.273e+04 8.900e-10
 74.36490    -48.4 1.227e+04 7.655e-10
 74.37617    -48.2 1.224e+04 7.251e-10
 74.39228    -47.9 1.227e+04 7.279e-10
 74.40732    -46.2 1.201e+04 6.689e-10
 74.41859    -46.3 1.203e+04 6.849e-10
 74.43737    -45.0 1.209e+04 6.310e-10
 74.44974    -43.9 1.211e+04 5.908e-10
 74.45177    -43.8 1.213e+04 6.212e-10
 74.46195    -44.3 1.244e+04 8.562e-10
 74.48088    -43.3 1.250e+04 8.627e-10
 74.49215    -43.2 1.258e+04 9.640e-10
 74.50501    -42.2 1.259e+04 1.002e-09
 74.52330    -41.2 1.257e+04 1.027e-09
 74.53457    -41.2 1.262e+04 1.147e-09
 74.55010    -40.4 1.275e+04 1.227e-09
 74.56572    -39.6 1.298e+04 1.372e-09
 74.57699    -39.5 1.297e+04 1.522e-09
 74.59519    -38.7 1.313e+04 1.725e-09
 74.60814    -37.7 1.327e+04 1.903e-09
 74.61941    -37.5 1.324e+04 2.055e-09
 74.63929    -36.4 1.340e+04 2.161e-09
 74.65056    -36.2 1.341e+04 2.258e-09
 74.66093    -35.4 1.363e+04 2.327e-09
 74.67220    -36.1 1.413e+04 3.134e-09
 74.68170    -35.6 1.438e+04 3.053e-09
 74.69298    -35.6 1.432e+04 2.772e-09
 74.70792    -35.6 1.445e+04 2.749e-09
 74.72412    -35.7 1.455e+04 2.809e-09
 74.73540    -35.5 1.428e+04 2.558e-09
 74.75301    -35.5 1.447e+04 2.755e-09
 74.76654    -35.4 1.453e+04 2.927e-09
 74.77782    -34.8 1.419e+04 2.586e-09
 74.79769    -34.4 1.415e+04 2.496e-09
 74.80896    -33.7 1.389e+04 2.220e-09
 74.82065    -33.1 1.369e+04 1.902e-09
 74.84011    -32.7 1.349e+04 1.547e-09
 74.85138    -31.9 1.346e+04 1.538e-09
 74.87127    -31.5 1.324e+04 1.153e-09
 74.89392    -31.9 1.224e+04 5.081e-10
 74.92230    -31.3 1.149e+04 3.610e-10
 74.95629    -30.3 1.115e+04 3.325e-10
 74.97883    -29.0 1.145e+04 3.941e-10
 75.01248    -27.4 1.123e+04 4.142e-10
 75.04113    -25.3 1.109e+04 4.060e-10
 75.06367    -23.9 1.140e+04 4.827e-10
 75.10266    -22.5 1.133e+04 4.483e-10
 75.12596    -21.1 1.125e+04 3.896e-10
 75.13714    -20.8 1.152e+04 4.772e-10
 75.15692    -20.4 1.149e+04 4.464e-10
 75.16819    -20.1 1.164e+04 4.971e-10
 75.18816    -19.4 1.134e+04 3.602e-10
 75.21070    -18.7 1.162e+04 4.011e-10
 75.23784    -18.1 1.136e+04 3.256e-10
 75.27310    -17.6 1.116e+04 3.071e-10
 75.29564    -17.0 1.122e+04 3.266e-10
 75.31441    -16.1 1.099e+04 3.039e-10
 75.32426    -16.3 1.115e+04 3.435e-10
 75.32659    -16.1 1.116e+04 3.495e-10
 75.33919    -16.0 1.111e+04 3.352e-10
 75.35784    -15.2 1.099e+04 3.255e-10
 75.36911    -14.6 1.088e+04 2.959e-10
 75.38429    -14.5 1.086e+04 2.900e-10
 75.41820    -13.8 1.076e+04 2.762e-10
 75.44277    -13.0 1.067e+04 2.708e-10
 75.45395    -12.4 1.058e+04 2.393e-10
 75.47372    -12.2 1.059e+04 2.393e-10
 75.48500    -12.1 1.061e+04 2.371e-10
 75.50497    -11.8 1.070e+04 2.658e-10
 75.52751    -10.9 1.066e+04 2.450e-10
 75.55347    -10.4 1.078e+04 2.997e-10
 75.58990     -9.4 1.067e+04 3.031e-10
 75.61245     -8.6 1.080e+04 3.163e-10
 75.64375     -7.8 1.062e+04 3.091e-10
 75.67474     -6.8 1.057e+04 3.157e-10
 75.69729     -6.4 1.069e+04 3.428e-10
 75.73394     -4.9 1.056e+04 3.496e-10
 75.75745     -3.2 1.045e+04 3.546e-10
 75.76055     -4.8 1.071e+04 4.250e-10
 75.78212     -4.2 1.050e+04 3.816e-10
 75.82187     -2.5 1.032e+04 3.786e-10
 75.84442     -2.1 1.032e+04 3.570e-10
 75.86921     -0.7 1.029e+04 3.801e-10
 75.90671      0.1 1.052e+04 4.549e-10
 75.92926     -0.6 1.095e+04 5.797e-10
 75.95939      0.0 1.145e+04 8.931e-10
 75.99155      0.5 1.190e+04 1.270e-09
 76.01409     -0.7 1.197e+04 1.331e-09
 76.04957     -0.3 1.208e+04 1.407e-09
 76.07629     -0.5 1.196e+04 1.343e-09
 76.08746     -1.1 1.179e+04 1.214e-09
 76.10574     -1.0 1.170e+04 1.143e-09
 76.11861     -0.9 1.153e+04 1.029e-09
 76.12988     -1.5 1.122e+04 8.653e-10
 76.14976     -1.2 1.098e+04 7.678e-10
 76.16103     -1.6 1.064e+04 6.401e-10
 76.17338     -1.0 1.041e+04 5.479e-10
 76.18902     -0.7 1.027e+04 4.872e-10
 76.19655     -0.8 1.037e+04 5.236e-10
 76.20345     -1.2 1.021e+04 4.428e-10
 76.21847     -0.2 1.006e+04 3.934e-10
 76.23459     -0.2 1.005e+04 3.831e-10
 76.24596     -0.2 9.949e+03 3.469e-10
 76.27503      1.7 9.718e+03 3.026e-10
 76.30835      3.7 9.543e+03 2.836e-10
 76.33090      4.3 9.343e+03 2.413e-10
 76.36521      6.4 9.324e+03 2.420e-10
 76.39319      8.5 9.314e+03 2.418e-10
 76.41574      9.3 9.178e+03 2.069e-10
 76.45539     11.4 9.163e+03 2.057e-10
 76.50048     14.2 9.063e+03 1.786e-10
 76.54032     16.2 9.041e+03 1.743e-10
 76.56287     16.9 9.024e+03 1.631e-10
 76.59067     18.9 8.977e+03 1.560e-10
 76.62099     21.0 8.914e+03 1.484e-10
 76.63294     20.7 8.911e+03 1.469e-10
 76.64771     21.5 8.872e+03 1.337e-10
 76.68085     23.6 8.799e+03 1.232e-10
 76.71000     25.7 8.736e+03 1.154e-10
 76.73255     26.5 8.672e+03 1.016e-10
 76.77103     28.6 8.614e+03 9.755e-11
 76.79484     30.8 8.589e+03 9.590e-11
 76.81738     31.5 8.537e+03 9.093e-11
 76.85713     33.8 8.537e+03 9.243e-11
 76.87968     34.4 8.511e+03 9.168e-11
 76.90630     36.6 8.556e+03 9.578e-11
 76.94197     38.8 8.619e+03 1.029e-10
 76.96451     39.4 8.640e+03 1.079e-10
 76.99649     41.5 8.709e+03 1.213e-10
 77.02681     43.6 8.795e+03 1.388e-10
 77.04926     44.2 8.819e+03 1.513e-10
 77.08657     46.4 9.019e+03 1.778e-10
 77.11165     48.5 9.131e+03 2.029e-10
 77.13419     49.1 9.162e+03 2.145e-10
 77.17394     51.1 9.306e+03 2.412e-10
 77.19648     51.6 9.344e+03 2.513e-10
 77.22194     53.5 9.478e+03 2.780e-10
 77.25878     55.3 9.590e+03 3.025e-10
 77.28132     55.6 9.573e+03 3.045e-10
 77.31212     57.3 9.622e+03 3.186e-10
 77.34361     58.8 9.638e+03 3.229e-10
 77.36616     59.3 9.558e+03 3.167e-10
 77.40230     60.8 9.551e+03 3.122e-10
 77.42845     62.3 9.516e+03 2.956e-10
 77.45100     62.9 9.420e+03 2.919e-10
 77.48452     64.4 9.346e+03 2.684e-10
 77.50533     64.0 9.729e+03 3.466e-10
 77.51329     64.7 9.579e+03 3.268e-10
 77.53758     66.2 9.539e+03 3.112e-10
 77.57558     67.9 9.436e+03 2.884e-10
 77.59813     68.9 9.314e+03 2.753e-10
 77.62776     70.6 9.248e+03 2.672e-10
 77.66042     72.5 9.182e+03 2.638e-10
 77.68297     73.6 9.178e+03 2.597e-10
 77.71794     75.6 9.215e+03 2.698e-10
 77.74526     77.6 9.343e+03 2.992e-10
 77.76781     78.9 9.444e+03 3.076e-10
 77.80755     80.9 9.730e+03 3.658e-10
 77.83010     81.8 9.779e+03 3.690e-10
 77.84184     82.6 9.997e+03 4.302e-10
 77.86105     83.4 1.023e+04 5.000e-10
 77.87232     83.7 1.028e+04 5.205e-10
 77.88684     84.5 1.064e+04 6.395e-10
 77.90347     85.1 1.107e+04 7.954e-10
 77.91474     85.2 1.132e+04 9.070e-10
 77.92737     85.1 1.198e+04 1.227e-09
 77.93864     84.7 1.230e+04 1.421e-09
 77.94589     84.2 1.311e+04 2.000e-09
 77.95716     83.9 1.383e+04 2.735e-09
 77.97702     83.7 1.489e+04 4.198e-09
 77.99957     84.1 1.655e+04 8.067e-09
 78.01945     84.1 1.719e+04 9.542e-09
 78.03073     84.0 1.732e+04 9.924e-09
 78.04466     83.2 1.729e+04 9.790e-09
 78.06187     82.7 1.697e+04 8.782e-09
 78.07314     83.3 1.628e+04 6.708e-09
 78.08975     82.9 1.557e+04 4.725e-09
 78.10429     81.9 1.480e+04 3.436e-09
 78.11556     81.6 1.368e+04 1.873e-09
 78.13484     80.2 1.339e+04 1.792e-09
 78.14671     79.3 1.341e+04 1.835e-09
 78.14949     78.6 1.238e+04 1.095e-09
 78.16016     77.5 1.258e+04 1.216e-09
 78.17786     77.1 1.289e+04 1.461e-09
 78.18913     76.8 1.229e+04 1.083e-09
 78.20248     76.5 1.278e+04 1.419e-09
 78.22028     76.2 1.343e+04 1.907e-09
 78.23155     75.9 1.312e+04 1.654e-09
 78.24757     74.8 1.418e+04 2.466e-09
 78.26269     73.5 1.517e+04 3.701e-09
 78.27397     72.8 1.517e+04 3.631e-09
 78.28386     72.2 1.553e+04 4.417e-09
 78.28944     71.9 1.560e+04 4.442e-09
 78.29820     71.5 1.582e+04 4.878e-09
 78.30502     70.9 1.632e+04 5.744e-09
 78.31065     70.4 1.624e+04 5.424e-09
 78.32059     69.7 1.682e+04 6.453e-09
 78.32623     69.0 1.669e+04 5.926e-09
 78.33201     68.2 1.720e+04 6.789e-09
 78.34180     67.4 1.763e+04 7.622e-09
 78.34744     66.3 1.714e+04 6.496e-09
 78.35456     65.3 1.726e+04 6.796e-09
 78.36301     64.2 1.724e+04 6.931e-09
 78.36749     63.0 1.642e+04 5.811e-09
 78.37031     61.9 1.662e+04 6.540e-09
 78.37711     60.9 1.647e+04 6.550e-09
 78.38422     60.0 1.630e+04 6.557e-09
 78.38985     59.5 1.564e+04 5.474e-09
 78.40534     58.2 1.559e+04 5.392e-09
 78.42110     57.7 1.574e+04 5.696e-09
 78.43237     58.0 1.434e+04 3.366e-09
 78.45048     58.0 1.407e+04 3.019e-09
 78.46352     58.0 1.380e+04 2.750e-09
 78.47479     57.5 1.296e+04 1.668e-09
 78.49466     57.7 1.296e+04 1.650e-09
 78.50594     57.4 1.219e+04 1.050e-09
 78.51811     57.8 1.220e+04 1.054e-09
 78.53708     58.3 1.225e+04 1.090e-09
 78.54836     58.2 1.157e+04 7.581e-10
 78.56320     58.7 1.167e+04 8.238e-10
 78.57950     59.4 1.184e+04 9.496e-10
 78.58568     59.4 1.118e+04 7.034e-10
 78.59193     58.5 1.088e+04 6.602e-10
 78.60829     59.4 1.106e+04 7.350e-10
 78.62192     60.5 1.134e+04 8.402e-10
 78.63319     60.6 1.083e+04 6.882e-10
 78.65307     61.4 1.107e+04 7.612e-10
 78.66434     61.6 1.078e+04 6.868e-10
 78.67593     61.8 1.109e+04 7.729e-10
 78.69549     61.7 1.194e+04 1.068e-09
 78.70676     62.0 1.144e+04 9.266e-10
 78.72102     61.3 1.286e+04 1.525e-09
 78.73791     59.7 1.491e+04 3.082e-09
 78.74918     59.6 1.423e+04 2.621e-09
 78.76611     58.4 1.602e+04 5.350e-09
 78.78032     57.9 1.786e+04 1.096e-08
 78.79160     58.2 1.720e+04 9.309e-09
 78.80218     58.0 1.845e+04 1.443e-08
 78.81345     57.4 1.810e+04 1.341e-08
 78.82274     56.5 1.846e+04 1.440e-08
 78.83402     57.1 1.759e+04 1.149e-08
 78.85389     56.3 1.741e+04 1.078e-08
 78.86516     57.1 1.672e+04 8.841e-09
 78.87884     56.7 1.607e+04 6.765e-09
 78.89631     56.1 1.496e+04 4.221e-09
 78.90758     56.7 1.444e+04 3.493e-09
 78.92393     55.6 1.318e+04 2.154e-09
 78.93873     54.3 1.191e+04 1.410e-09
 78.95000     55.1 1.175e+04 1.356e-09
 78.96902     54.8 1.117e+04 1.144e-09
 78.98115     55.5 1.108e+04 1.120e-09
 78.99242     56.8 1.107e+04 1.120e-09
 79.01229     57.6 1.108e+04 1.123e-09
 79.02187     58.8 1.105e+04 1.120e-09
 79.02370     58.7 1.099e+04 1.086e-09
 79.03666     59.6 1.102e+04 1.098e-09
 79.05471     60.3 1.111e+04 1.136e-09
 79.06599     61.5 1.109e+04 1.131e-09
 79.08175     62.1 1.128e+04 1.223e-09
 79.09713     62.6 1.156e+04 1.364e-09
 79.10840     63.8 1.159e+04 1.388e-09
 79.12684     64.1 1.205e+04 1.643e-09
 79.13955     64.2 1.262e+04 2.021e-09
 79.15082     65.0 1.279e+04 2.207e-09
 79.17070     65.0 1.352e+04 2.902e-09
 79.18197     65.8 1.378e+04 3.283e-09
 79.19448     65.8 1.463e+04 4.510e-09
 79.21312     65.9 1.527e+04 5.396e-09
 79.22439     66.8 1.584e+04 6.968e-09
 79.23394     66.7 1.628e+04 7.446e-09
 79.24522     66.6 1.609e+04 7.018e-09
 79.25554     66.3 1.609e+04 6.877e-09
 79.26681     67.2 1.694e+04 9.278e-09
 79.28466     66.7 1.681e+04 8.581e-09
 79.29795     66.1 1.626e+04 6.689e-09
 79.30923     66.8 1.716e+04 9.286e-09
 79.32910     65.9 1.637e+04 6.478e-09
 79.34037     66.5 1.724e+04 8.687e-09
 79.35230     64.9 1.625e+04 5.696e-09
 79.37152     63.1 1.489e+04 3.624e-09
 79.38279     63.2 1.587e+04 5.037e-09
 79.39739     61.3 1.457e+04 3.523e-09
 79.41394     60.1 1.349e+04 2.642e-09
 79.42521     60.2 1.440e+04 3.739e-09
 79.44248     59.7 1.368e+04 3.038e-09
 79.45546     59.7 1.320e+04 2.518e-09
 79.45807     60.5 1.258e+04 1.897e-09
 79.46763     60.6 1.334e+04 2.690e-09
 79.48750     60.7 1.295e+04 2.261e-09
 79.51005     61.2 1.298e+04 2.331e-09
 79.52992     61.3 1.259e+04 1.922e-09
 79.54120     61.8 1.279e+04 2.187e-09
 79.56117     61.7 1.224e+04 1.547e-09
 79.58381     63.0 1.239e+04 1.830e-09
 79.61177     64.1 1.210e+04 1.571e-09
 79.64549     65.1 1.210e+04 1.549e-09
 79.65718     65.6 1.217e+04 1.608e-09
 79.66623     66.2 1.226e+04 1.776e-09
 79.67698     67.1 1.207e+04 1.574e-09
 79.68833     67.3 1.214e+04 1.615e-09
 79.69960     67.8 1.225e+04 1.744e-09
 79.71303     67.9 1.247e+04 1.950e-09
 79.73075     68.0 1.283e+04 2.339e-09
 79.74202     68.7 1.284e+04 2.385e-09
 79.75812     68.9 1.340e+04 3.057e-09
 79.77316     69.1 1.412e+04 4.082e-09
 79.78444     70.1 1.387e+04 3.618e-09
 79.80321     70.4 1.442e+04 4.168e-09
 79.81558     70.2 1.471e+04 4.208e-09
 79.82686     70.8 1.418e+04 3.304e-09
 79.84673     70.2 1.420e+04 3.221e-09
 79.85800     70.8 1.381e+04 2.768e-09
 79.87084     69.9 1.377e+04 2.512e-09
 79.88723     68.7 1.358e+04 2.182e-09
 79.89426     69.7 1.395e+04 2.481e-09
 79.90042     70.6 1.389e+04 2.437e-09
 79.91594     69.4 1.340e+04 1.813e-09
 79.93157     68.0 1.302e+04 1.469e-09
 79.94284     69.4 1.314e+04 1.542e-09
 79.96103     68.4 1.305e+04 1.520e-09
 79.97399     67.5 1.325e+04 1.620e-09
 79.98526     69.2 1.334e+04 1.673e-09
 80.00513     68.6 1.382e+04 2.020e-09
 80.01641     70.3 1.398e+04 2.068e-09
 80.02866     70.0 1.456e+04 2.711e-09
 80.04755     69.8 1.505e+04 3.388e-09
 80.05883     71.5 1.534e+04 3.668e-09
 80.07375     71.3 1.559e+04 4.071e-09
 80.08997     70.8 1.556e+04 3.978e-09
 80.10124     72.5 1.607e+04 4.657e-09
 80.10875     71.9 1.585e+04 4.310e-09
 80.12002     70.9 1.426e+04 2.188e-09
 80.13239     70.3 1.394e+04 1.909e-09
 80.14366     71.6 1.436e+04 2.266e-09
 80.16354     70.8 1.392e+04 1.916e-09
 80.17481     72.1 1.433e+04 2.278e-09
 80.18648     71.0 1.391e+04 1.938e-09
 80.20596     69.9 1.366e+04 1.736e-09
 80.21723     70.6 1.410e+04 2.111e-09
 80.23157     69.4 1.416e+04 2.159e-09
 80.24838     68.4 1.429e+04 2.394e-09
 80.25965     68.4 1.506e+04 3.053e-09
 80.27666     67.6 1.537e+04 3.730e-09
 80.29079     67.1 1.538e+04 4.241e-09
 80.30207     66.7 1.616e+04 5.168e-09
 80.31900     66.4 1.602e+04 5.070e-09
 80.33027     66.3 1.414e+04 3.077e-09
 80.33321     66.1 1.376e+04 2.880e-09
 80.34449     65.5 1.373e+04 2.458e-09
 80.36436     65.4 1.310e+04 2.081e-09
 80.37563     64.3 1.313e+04 1.755e-09
 80.38939     64.1 1.241e+04 1.392e-09
 80.40678     63.6 1.182e+04 1.089e-09
 80.41805     62.7 1.188e+04 1.036e-09
 80.43448     62.4 1.141e+04 8.564e-10
 80.44920     62.1 1.113e+04 7.695e-10
 80.46047     62.2 1.122e+04 7.866e-10
 80.47957     62.3 1.102e+04 7.584e-10
 80.49162     62.5 1.093e+04 7.488e-10
 80.50289     63.2 1.115e+04 8.242e-10
 80.52276     63.7 1.103e+04 7.917e-10
 80.53404     64.5 1.128e+04 8.897e-10
 80.54052     65.1 1.112e+04 8.311e-10
 80.55179     65.4 1.104e+04 8.203e-10
 80.56518     65.9 1.087e+04 7.721e-10
 80.57646     66.6 1.114e+04 8.654e-10
 80.59230     67.4 1.088e+04 7.672e-10
 80.60760     67.8 1.075e+04 7.117e-10
 80.61897     68.8 1.112e+04 8.473e-10
 80.64886     70.3 1.067e+04 6.552e-10
 80.68136     71.6 1.021e+04 4.844e-10
 80.70391     73.2 1.061e+04 6.106e-10
 80.73904     74.5 1.013e+04 4.477e-10
 80.76620     76.0 9.887e+03 4.292e-10
 80.78875     77.4 1.019e+04 5.057e-10
 80.82849     78.9 1.020e+04 5.104e-10
 80.85104     80.0 1.054e+04 5.878e-10
 80.87432     81.5 1.052e+04 5.903e-10
 80.91333     83.1 1.052e+04 6.084e-10
 80.93588     83.9 1.067e+04 6.105e-10
 80.96121     85.4 1.054e+04 5.883e-10
 80.98376     85.1 9.922e+03 3.773e-10
 80.99817     86.6 9.889e+03 3.759e-10
 81.02072     87.4 1.004e+04 3.966e-10
 81.05468     88.9 1.004e+04 3.998e-10
 81.08301     90.4 1.009e+04 4.296e-10
 81.10555     91.1 1.040e+04 5.489e-10
 81.14486     92.7 1.057e+04 6.334e-10
 81.16785     94.4 1.078e+04 7.172e-10
 81.19039     94.5 1.133e+04 9.673e-10
 81.23014     95.2 1.164e+04 1.076e-09
 81.25259     94.4 1.227e+04 1.432e-09
 81.26867     94.7 1.240e+04 1.519e-09
 81.28364     95.1 1.237e+04 1.505e-09
 81.29491     94.5 1.279e+04 1.828e-09
 81.31376     94.8 1.274e+04 1.850e-09
 81.32605     95.6 1.266e+04 1.839e-09
 81.33733     95.1 1.302e+04 2.196e-09
 81.35720     96.0 1.295e+04 2.141e-09
 81.36847     95.4 1.319e+04 2.346e-09
 81.38139     96.3 1.309e+04 2.255e-09
 81.39972     98.2 1.292e+04 2.099e-09
 81.41120     96.9 1.299e+04 2.052e-09
 81.42680     96.2 1.275e+04 1.805e-09
 81.46050     97.9 1.255e+04 1.670e-09
 81.48465     99.6 1.230e+04 1.488e-09
 81.50720     98.9 1.150e+04 8.198e-10
 81.54695    100.6 1.119e+04 6.807e-10
 81.56949    100.2 1.062e+04 3.919e-10
 81.59577    102.0 1.043e+04 3.471e-10
 81.63178    103.8 1.028e+04 3.149e-10
 81.65433    104.1 1.016e+04 2.867e-10
 81.68595    106.1 1.008e+04 2.714e-10
 81.71662    108.0 1.003e+04 2.569e-10
 81.73917    108.5 1.020e+04 2.845e-10
 81.77614    110.4 1.018e+04 2.769e-10
 81.80146    112.3 1.017e+04 2.717e-10
 81.82401    112.9 1.041e+04 3.218e-10
 81.84729    114.7 1.036e+04 3.166e-10
 81.86727    114.7 1.024e+04 3.153e-10
 81.88630    115.4 1.029e+04 3.332e-10
 81.91141    117.3 1.033e+04 3.401e-10
 81.94859    119.2 1.040e+04 3.463e-10
 81.97114    119.8 1.039e+04 3.472e-10
 82.00159    121.6 1.044e+04 3.598e-10
 82.03343    123.5 1.047e+04 3.730e-10
 82.05598    124.0 1.024e+04 3.367e-10
 82.09177    126.1 1.028e+04 3.625e-10
 82.11827    128.2 1.037e+04 3.976e-10
 82.14081    129.0 1.004e+04 2.926e-10
 82.18056    131.2 1.023e+04 3.313e-10
 82.20311    131.6 9.780e+03 2.044e-10
 82.22705    133.6 9.946e+03 2.367e-10
 82.26540    135.5 1.012e+04 2.727e-10
 82.28359    136.2 9.572e+03 1.575e-10
 82.29033    136.1 9.485e+03 1.265e-10
 82.31723    138.1 9.583e+03 1.470e-10
 82.35024    140.0 9.697e+03 1.720e-10
 82.37278    140.8 9.398e+03 1.189e-10
 82.40741    142.8 9.533e+03 1.457e-10
 82.43507    144.9 9.679e+03 1.796e-10
 82.45762    145.6 9.512e+03 1.526e-10
 82.49737    147.7 9.718e+03 1.892e-10
 82.51991    148.0 9.624e+03 1.720e-10
 82.54268    149.9 9.824e+03 2.052e-10
 82.58221    151.7 1.006e+04 2.437e-10
 82.60475    151.3 9.913e+03 2.295e-10
 82.63287    152.7 1.000e+04 2.600e-10
 82.66704    153.8 1.007e+04 2.956e-10
 82.68959    153.5 9.933e+03 2.892e-10
 82.71083    154.5 9.951e+03 3.248e-10
 82.73337    153.1 1.006e+04 3.437e-10
 82.75188    153.5 1.011e+04 3.860e-10
 82.77443    153.8 9.847e+03 3.168e-10
 82.81323    154.0 9.905e+03 3.629e-10
 82.83672    153.7 9.948e+03 4.199e-10
 82.85927    154.1 9.868e+03 3.998e-10
 82.89901    154.2 9.991e+03 4.694e-10
 82.92146    153.9 1.024e+04 5.187e-10
 82.93215    153.3 1.027e+04 5.473e-10
 82.94342    153.1 1.013e+04 5.021e-10
 82.95251    152.6 1.011e+04 5.112e-10
 82.96378    152.0 1.016e+04 5.314e-10
 82.98375    152.2 1.013e+04 5.227e-10
 83.00640    152.2 1.016e+04 5.467e-10
 83.03869    152.0 9.914e+03 4.863e-10
 83.06869    152.1 9.617e+03 4.111e-10
 83.09123    151.9 9.606e+03 3.927e-10
 83.12887    152.4 9.284e+03 3.202e-10
 83.15353    153.1 8.994e+03 2.726e-10
 83.15598    152.8 9.222e+03 2.832e-10
 83.17641    152.6 9.289e+03 2.987e-10
 83.21582    153.8 9.338e+03 3.039e-10
 83.23837    153.1 9.682e+03 3.742e-10
 83.25277    153.6 9.693e+03 3.830e-10
 83.26932    154.2 9.749e+03 4.009e-10
 83.28059    153.6 9.893e+03 4.911e-10
 83.29776    154.0 1.004e+04 5.902e-10
 83.31174    154.5 1.020e+04 6.899e-10
 83.32301    154.3 1.043e+04 7.944e-10
 83.34285    154.9 1.057e+04 8.399e-10
 83.36392    154.9 1.072e+04 8.394e-10
 83.37519    154.7 1.066e+04 7.780e-10
 83.38530    155.0 1.065e+04 7.342e-10
 83.39657    154.1 1.044e+04 6.138e-10
 83.41049    154.2 1.031e+04 5.524e-10
 83.42772    154.3 1.016e+04 4.995e-10
 83.43899    153.3 1.003e+04 4.197e-10
 83.45558    153.5 9.931e+03 3.975e-10
 83.47014    153.7 9.860e+03 3.899e-10
 83.48141    152.7 9.872e+03 3.553e-10
 83.50067    153.2 9.859e+03 3.582e-10
 83.51256    153.7 9.831e+03 3.693e-10
 83.52383    152.8 9.824e+03 3.534e-10
 83.54370    153.5 9.840e+03 3.734e-10
 83.55508    152.8 9.887e+03 3.576e-10
 83.56841    153.7 9.940e+03 4.032e-10
 83.58544    154.7 1.008e+04 4.721e-10
 83.59198    154.4 1.019e+04 5.056e-10
 83.59740    154.1 1.018e+04 5.014e-10
 83.61340    154.9 1.042e+04 5.933e-10
 83.62854    155.5 1.071e+04 7.031e-10
 83.63982    155.4 1.076e+04 6.722e-10
 83.65849    155.9 1.117e+04 8.182e-10
 83.67096    156.1 1.173e+04 1.048e-09
 83.68223    155.6 1.182e+04 1.028e-09
 83.70211    155.2 1.259e+04 1.392e-09
 83.71338    153.7 1.314e+04 1.476e-09
 83.72613    153.0 1.405e+04 2.188e-09
 83.74453    152.3 1.489e+04 3.218e-09
 83.75580    150.9 1.522e+04 4.233e-09
 83.77122    150.7 1.585e+04 5.781e-09
 83.78695    150.5 1.619e+04 6.835e-09
 83.79822    150.0 1.643e+04 7.509e-09
 83.80696    149.6 1.637e+04 7.308e-09
 83.81823    149.1 1.542e+04 4.990e-09
 83.82937    148.9 1.511e+04 4.112e-09
 83.84064    148.2 1.496e+04 3.343e-09
 83.86051    147.8 1.429e+04 2.271e-09
 83.87178    146.3 1.377e+04 1.698e-09
 83.88395    145.7 1.289e+04 1.123e-09
 83.90293    145.1 1.217e+04 7.900e-10
 83.91420    143.8 1.195e+04 7.539e-10
 83.92904    143.7 1.164e+04 5.885e-10
 83.94535    143.8 1.145e+04 5.006e-10
 83.95662    143.3 1.155e+04 6.273e-10
 83.97413    143.8 1.155e+04 6.271e-10
 83.98777    144.3 1.155e+04 6.294e-10
 83.99904    143.9 1.173e+04 7.963e-10
 84.01721    144.3 1.179e+04 8.176e-10
 84.02818    144.1 1.128e+04 6.845e-10
 84.03019    143.8 1.161e+04 8.812e-10
 84.04177    144.1 1.183e+04 9.955e-10
 84.06133    144.3 1.217e+04 1.174e-09
 84.07261    144.0 1.260e+04 1.471e-09
 84.08686    144.0 1.298e+04 1.722e-09
 84.10375    143.8 1.330e+04 1.959e-09
 84.11503    143.2 1.347e+04 2.111e-09
 84.13195    142.7 1.350e+04 2.123e-09
 84.14617    142.2 1.346e+04 2.087e-09
 84.15745    141.6 1.327e+04 1.946e-09
 84.17704    141.1 1.309e+04 1.776e-09
 84.18859    140.5 1.294e+04 1.613e-09
 84.19986    140.0 1.272e+04 1.415e-09
 84.21974    139.2 1.262e+04 1.301e-09
 84.23101    138.7 1.245e+04 1.165e-09
 84.23873    138.0 1.240e+04 1.096e-09
 84.25000    137.8 1.267e+04 1.466e-09
 84.26216    137.2 1.273e+04 1.470e-09
 84.27343    136.8 1.255e+04 1.361e-09
 84.28977    136.2 1.253e+04 1.329e-09
 84.30458    135.7 1.248e+04 1.276e-09
 84.31585    135.4 1.225e+04 1.143e-09
 84.33486    134.9 1.214e+04 1.055e-09
 84.34700    134.4 1.199e+04 9.533e-10
 84.35827    134.4 1.176e+04 8.051e-10
 84.37814    133.9 1.161e+04 6.927e-10
 84.38941    133.7 1.139e+04 5.366e-10
 84.40249    133.1 1.124e+04 4.566e-10
 84.42056    132.6 1.113e+04 3.997e-10
 84.44320    132.8 1.081e+04 3.117e-10
 84.46044    132.6 1.062e+04 2.708e-10
 84.48299    131.8 1.085e+04 3.405e-10
 84.50559    131.2 1.065e+04 2.919e-10
 84.52814    132.2 1.035e+04 2.461e-10
 84.56789    131.6 1.020e+04 2.243e-10
 84.59043    132.4 1.014e+04 2.172e-10
 84.61687    131.7 1.013e+04 2.203e-10
 84.65273    130.7 1.014e+04 2.355e-10
 84.67527    131.6 1.020e+04 2.525e-10
 84.70705    130.4 1.029e+04 2.879e-10
 84.73756    129.0 1.041e+04 3.336e-10
 84.76011    129.9 1.047e+04 3.605e-10
 84.79724    128.4 1.055e+04 4.150e-10
 84.82240    126.7 1.051e+04 4.337e-10
 84.84495    127.6 1.051e+04 4.359e-10
 84.88094    126.1 1.037e+04 4.185e-10
 84.90076    125.8 1.025e+04 4.062e-10
 84.90724    126.8 1.021e+04 4.040e-10
 84.93251    125.7 9.908e+03 3.539e-10
 84.96953    124.9 9.707e+03 3.366e-10
 84.99208    126.3 9.662e+03 3.285e-10
 85.02269    125.9 9.654e+03 3.311e-10
 85.05437    125.7 9.665e+03 3.498e-10
 85.07692    127.4 9.766e+03 3.658e-10
 85.11287    127.0 9.779e+03 3.978e-10
 85.13911    126.5 9.764e+03 4.221e-10
 85.15029    126.9 9.961e+03 4.889e-10
 85.16904    126.7 9.974e+03 5.148e-10
 85.18143    126.4 9.995e+03 5.391e-10
 85.19271    127.0 1.020e+04 5.982e-10
 85.21258    126.7 1.021e+04 6.088e-10
 85.22385    127.1 1.045e+04 6.808e-10
 85.23668    126.6 1.045e+04 6.833e-10
 85.25500    126.1 1.048e+04 6.976e-10
 85.26627    126.3 1.068e+04 7.720e-10
 85.28177    125.7 1.070e+04 7.833e-10
 85.29742    125.0 1.074e+04 8.108e-10
 85.30869    125.3 1.091e+04 8.799e-10
 85.32378    124.6 1.088e+04 8.830e-10
 85.33506    124.5 1.074e+04 8.405e-10
 85.33984    123.8 1.076e+04 8.721e-10
 85.35111    124.2 1.088e+04 9.222e-10
 85.37098    123.6 1.088e+04 9.291e-10
 85.38226    123.9 1.095e+04 9.563e-10
 85.39450    123.2 1.096e+04 9.631e-10
 85.41340    122.5 1.105e+04 1.002e-09
 85.42467    122.7 1.105e+04 9.984e-10
 85.43959    122.1 1.114e+04 1.048e-09
 85.45582    121.4 1.126e+04 1.126e-09
 85.46709    121.8 1.125e+04 1.105e-09
 85.48468    120.9 1.151e+04 1.221e-09
 85.49824    118.6 1.228e+04 1.630e-09
 85.50951    118.7 1.237e+04 1.606e-09
 85.52939    114.9 1.476e+04 2.863e-09
 85.54066    115.9 1.420e+04 2.408e-09
 85.54525    114.4 1.500e+04 3.049e-09
 85.55084    114.9 1.519e+04 3.161e-09
 85.55613    113.2 1.620e+04 4.079e-09
 85.56177    113.6 1.603e+04 3.719e-09
 85.56913    111.0 1.759e+04 5.612e-09
 85.57734    107.8 1.884e+04 1.004e-08
 85.58298    108.4 1.880e+04 8.396e-09
 85.59167    105.8 1.959e+04 1.622e-08
 85.59855    105.1 2.018e+04 2.886e-08
 85.60419    105.1 2.020e+04 2.274e-08
 85.61413    104.4 1.993e+04 3.406e-08
 85.61976    104.3 1.972e+04 2.319e-08
 85.62549    103.6 1.989e+04 2.420e-08
 85.63534    102.2 2.035e+04 2.439e-08
 85.64097    101.9 1.989e+04 1.773e-08
 85.64804     99.4 2.113e+04 1.832e-08
 85.65597     94.2 2.582e+04 1.979e-08
 85.65884     92.9 2.798e+04 2.394e-08
 85.66218     94.5 2.535e+04 1.877e-08
 85.67058     87.4 3.065e+04 1.952e-08
 85.68754     79.5 3.057e+04 1.571e-08
 85.69906     69.3 2.633e+04 1.095e-08
 85.71034     73.2 2.743e+04 1.089e-08
 85.73021     65.7 2.059e+04 7.081e-09
 85.74148     69.5 2.375e+04 8.202e-09
 85.75523     64.3 1.729e+04 5.051e-09
 85.76682     61.1 1.351e+04 2.832e-09
 85.77295     57.6 1.315e+04 2.385e-09
 85.78390     61.0 1.398e+04 3.362e-09
 85.80032     58.6 1.306e+04 1.722e-09
 85.81505     57.0 1.295e+04 9.670e-10
 85.82632     59.4 1.272e+04 1.380e-09
 85.84541     58.0 1.224e+04 8.634e-10
 85.85747     57.5 1.090e+04 7.093e-10
 85.86874     59.8 1.157e+04 7.708e-10
 85.88861     59.7 1.064e+04 6.735e-10
 85.89988     60.8 1.116e+04 7.079e-10
 85.91304     61.0 1.056e+04 6.549e-10
 85.93103     61.3 1.054e+04 6.484e-10
 85.94230     62.3 1.072e+04 6.558e-10
 85.95813     62.5 1.069e+04 6.515e-10
 85.97345     62.7 1.069e+04 6.559e-10
 85.98111     63.3 1.093e+04 7.014e-10
 85.98834     61.3 1.062e+04 6.761e-10
 86.00323     61.8 1.061e+04 7.005e-10
 86.01587     62.5 1.065e+04 7.431e-10
 86.02714     62.8 1.078e+04 8.414e-10
 86.04702     63.5 1.092e+04 9.135e-10
 86.05829     64.0 1.107e+04 1.052e-09
 86.07086     64.8 1.127e+04 1.151e-09
 86.08943     65.7 1.145e+04 1.243e-09
 86.10071     66.2 1.165e+04 1.437e-09
 86.11595     67.2 1.188e+04 1.516e-09
 86.13185     68.2 1.211e+04 1.570e-09
 86.14313     68.7 1.244e+04 1.662e-09
 86.16104     69.5 1.250e+04 1.622e-09
 86.17427     70.4 1.249e+04 1.540e-09
 86.18555     70.5 1.314e+04 1.497e-09
 86.19859     71.1 1.286e+04 1.303e-09
 86.20915     69.8 1.188e+04 9.235e-10
 86.21669     69.1 1.163e+04 7.129e-10
 86.22868     69.6 1.137e+04 6.474e-10
 86.24784     70.3 1.119e+04 5.884e-10
 86.25911     69.5 1.078e+04 4.549e-10
 86.28514     70.1 1.051e+04 3.483e-10
 86.31896     70.6 1.036e+04 3.089e-10
 86.33268     71.0 1.023e+04 2.819e-10
 86.34405     70.5 9.790e+03 2.271e-10
 86.37542     71.8 9.800e+03 2.289e-10
 86.40644     72.8 1.000e+04 2.501e-10
 86.42898     73.6 9.703e+03 2.285e-10
 86.46560     74.0 1.039e+04 3.373e-10
 86.49118     74.0 1.072e+04 4.241e-10
 86.50235     75.1 1.060e+04 4.323e-10
 86.52177     74.9 1.097e+04 5.485e-10
 86.53350     74.7 1.134e+04 6.836e-10
 86.54477     75.3 1.161e+04 7.707e-10
 86.56465     74.8 1.214e+04 9.650e-10
 86.57592     76.1 1.234e+04 1.130e-09
 86.58941     75.2 1.305e+04 1.394e-09
 86.60706     73.8 1.336e+04 1.469e-09
 86.61834     75.3 1.388e+04 1.808e-09
 86.63036     73.2 1.388e+04 1.766e-09
 86.64163     72.7 1.352e+04 1.527e-09
 86.64948     70.7 1.316e+04 1.369e-09
 86.66076     71.7 1.384e+04 1.699e-09
 86.67959     69.6 1.305e+04 1.301e-09
 86.69190     67.6 1.222e+04 9.398e-10
 86.70318     68.6 1.248e+04 1.020e-09
 86.72315     66.0 1.150e+04 5.861e-10
 86.74579     68.0 1.168e+04 5.996e-10
 86.78124     64.5 1.030e+04 2.426e-10
 86.80808     61.6 1.034e+04 2.346e-10
 86.83063     63.5 9.977e+03 1.557e-10
 86.87038     61.2 1.030e+04 2.285e-10
 86.89292     62.9 1.014e+04 1.496e-10
 86.91651     61.0 1.094e+04 4.292e-10
 86.95521     59.7 1.170e+04 9.739e-10
 86.97776     60.8 1.163e+04 8.217e-10
 87.00670     59.1 1.199e+04 1.131e-09
 87.04005     56.9 1.183e+04 1.016e-09
 87.06186     57.9 1.197e+04 1.138e-09
 87.07359     59.3 1.232e+04 1.207e-09
 87.09688     57.0 1.188e+04 8.789e-10
 87.12489     53.9 1.084e+04 4.389e-10
 87.14744     54.3 1.096e+04 4.202e-10
 87.18706     50.7 9.772e+03 2.388e-10
 87.23215     49.7 9.536e+03 2.311e-10
 87.27202     48.9 9.591e+03 2.104e-10
 87.29457     48.7 9.855e+03 2.896e-10
 87.32233     46.8 1.018e+04 3.169e-10
 87.35686     45.0 1.038e+04 3.659e-10
 87.37931     44.3 1.054e+04 5.169e-10
 87.39908     44.0 1.033e+04 4.688e-10
 87.41036     43.9 1.044e+04 6.025e-10
 87.42359     43.9 1.029e+04 5.218e-10
 87.44150     43.7 1.014e+04 4.027e-10
 87.45277     43.5 1.025e+04 4.503e-10
 87.46868     42.7 1.037e+04 3.423e-10
 87.48392     40.9 1.058e+04 3.423e-10
 87.49519     38.6 1.143e+04 4.631e-10
 87.50517     35.3 1.200e+04 6.465e-10
 87.51654     38.9 1.108e+04 4.417e-10
 87.52654     36.9 1.118e+04 6.709e-10
 87.54908     35.7 1.188e+04 1.294e-09
 87.58883     37.5 1.160e+04 1.024e-09
 87.61137     37.3 1.187e+04 9.882e-10
 87.63797     35.2 1.121e+04 3.466e-10
 87.67367     32.1 9.644e+03 2.046e-10
 87.69621     30.3 9.105e+03 1.877e-10
 87.72815     31.0 8.869e+03 1.867e-10
 87.75850     32.4 8.882e+03 1.978e-10
 87.78105     31.9 8.905e+03 1.658e-10
 87.81834     32.5 8.994e+03 1.607e-10
 87.84334     32.9 8.956e+03 1.612e-10
 87.86589     31.5 8.753e+03 1.528e-10
 87.90564     32.5 8.613e+03 1.477e-10
 87.92818     31.9 8.509e+03 1.410e-10
 87.93713     32.9 8.468e+03 1.170e-10
 87.95968     33.5 8.877e+03 2.157e-10
 87.99047     34.2 8.924e+03 1.988e-10
 88.01302     32.7 8.982e+03 2.019e-10
 88.04379     33.1 8.960e+03 2.030e-10
 88.07531     33.9 8.921e+03 1.984e-10
 88.09786     33.4 8.900e+03 2.380e-10
 88.13397     34.8 8.859e+03 2.175e-10
 88.16015     36.0 8.784e+03 1.735e-10
 88.18270     35.8 8.717e+03 1.887e-10
 88.22244     36.9 8.541e+03 1.403e-10
 88.24499     36.7 8.399e+03 1.305e-10
 88.26925     37.8 8.323e+03 1.098e-10
 88.30728     39.2 8.360e+03 1.115e-10
 88.32983     38.6 8.303e+03 9.879e-11
 88.35763     39.6 8.459e+03 1.192e-10
 88.38017     40.6 8.585e+03 1.376e-10
 88.39212     41.3 8.970e+03 2.121e-10
 88.41466     40.6 8.953e+03 2.456e-10
 88.44961     42.2 9.444e+03 4.096e-10
 88.47696     44.0 9.992e+03 6.195e-10
 88.49950     44.4 9.609e+03 4.012e-10
 88.53925     45.5 9.742e+03 3.842e-10
 88.56179     44.1 9.362e+03 2.350e-10
 88.58488     43.9 9.290e+03 2.138e-10
 88.62409     43.9 9.224e+03 2.148e-10
 88.64663     43.0 9.247e+03 2.510e-10
 88.67507     43.6 9.215e+03 2.535e-10
 88.70893     44.8 9.173e+03 2.416e-10
 88.73147     45.0 9.251e+03 3.200e-10
 88.76525     46.3 9.018e+03 2.329e-10
 88.79376     47.6 8.840e+03 1.597e-10
 88.80664     48.0 8.710e+03 1.559e-10
 88.82321     48.7 8.774e+03 1.680e-10
 88.85543     50.0 8.565e+03 1.146e-10
 88.87860     51.3 8.444e+03 8.450e-11
 88.90115     51.8 8.323e+03 7.986e-11
 88.94089     53.6 8.263e+03 7.119e-11
 88.96344     54.3 8.312e+03 7.394e-11
 88.99070     56.3 8.317e+03 7.308e-11
 89.02573     58.4 8.349e+03 6.978e-11
 89.04828     59.3 8.461e+03 9.042e-11
 89.08088     61.3 8.482e+03 8.853e-11
 89.11057     63.4 8.516e+03 8.155e-11
 89.13312     64.5 8.579e+03 1.225e-10
 89.17107     66.6 8.598e+03 1.129e-10
 89.19541     68.8 8.600e+03 1.006e-10
 89.21795     70.1 8.724e+03 1.373e-10
 89.24371     72.3 8.716e+03 1.184e-10
 89.26270     72.6 8.838e+03 1.437e-10
 89.28025     73.9 8.979e+03 1.854e-10
 89.30634     76.0 8.911e+03 1.510e-10
 89.34254     78.1 8.857e+03 1.240e-10
 89.36509     79.2 8.796e+03 1.373e-10
 89.39652     81.2 8.777e+03 1.231e-10
 89.42738     83.3 8.804e+03 1.163e-10
 89.44992     84.7 8.781e+03 1.366e-10
 89.48670     86.9 8.883e+03 1.459e-10
 89.51222     89.0 9.028e+03 1.597e-10
 89.53476     90.6 9.235e+03 2.137e-10
 89.57451     92.8 9.567e+03 2.573e-10
 89.59705     94.6 9.865e+03 3.372e-10
 89.62198     96.0 1.013e+04 3.968e-10
 89.65570     96.8 1.026e+04 4.561e-10
 89.67042     97.7 1.047e+04 5.374e-10
 89.67883     98.8 1.073e+04 6.714e-10
 89.68655     98.6 1.089e+04 7.045e-10
 89.70069     99.4 1.126e+04 8.498e-10
 89.71284     99.8 1.159e+04 1.007e-09
 89.72412    100.7 1.191e+04 1.197e-09
 89.74399    100.9 1.222e+04 1.416e-09
 89.75526    101.8 1.254e+04 1.622e-09
 89.76833    101.8 1.293e+04 1.958e-09
 89.78641    101.6 1.335e+04 2.374e-09
 89.79768    102.6 1.360e+04 2.446e-09
 89.81342    102.2 1.398e+04 2.903e-09
 89.82883    101.9 1.426e+04 3.321e-09
 89.84010    102.7 1.422e+04 3.232e-09
 89.85851    102.2 1.435e+04 3.497e-09
 89.87125    101.6 1.448e+04 3.488e-09
 89.88252    102.4 1.439e+04 3.429e-09
 89.89680    101.4 1.467e+04 3.548e-09
 89.90686    100.0 1.487e+04 3.417e-09
 89.91367    100.5 1.479e+04 3.392e-09
 89.92615     98.5 1.539e+04 4.003e-09
 89.94481     96.6 1.600e+04 4.972e-09
 89.95609     97.3 1.616e+04 5.399e-09
 89.97124     96.0 1.681e+04 7.017e-09
 89.98723     94.6 1.749e+04 8.681e-09
 89.99850     95.4 1.742e+04 8.318e-09
 90.01633     93.7 1.785e+04 9.058e-09
 90.02965     91.9 1.783e+04 9.012e-09
 90.04092     92.5 1.770e+04 7.716e-09
 90.06080     90.7 1.747e+04 7.536e-09
 90.07207     90.8 1.743e+04 6.552e-09
 90.08397     89.1 1.697e+04 6.450e-09
 90.10322     87.8 1.610e+04 5.891e-09
 90.11449     88.1 1.662e+04 6.279e-09
 90.11832     87.3 1.589e+04 5.210e-09
 90.12959     85.3 1.458e+04 3.251e-09
 90.14564     83.8 1.383e+04 2.079e-09
 90.15691     84.1 1.460e+04 2.424e-09
 90.17415     81.5 1.339e+04 1.364e-09
 90.18805     78.3 1.190e+04 8.259e-10
 90.19933     77.1 1.259e+04 9.086e-10
 90.21920     71.6 1.374e+04 9.489e-10
 90.24175     46.7 2.094e+04 6.406e-09
 90.26162     45.0 1.908e+04 1.173e-08
 90.27289     45.4 1.784e+04 1.488e-08
 90.28688     46.1 1.732e+04 1.375e-08
 90.30404     46.4 1.725e+04 1.052e-08
 90.31531     44.6 1.822e+04 3.846e-09
 90.32857     40.5 1.895e+04 1.707e-09
 90.33984     39.2 1.901e+04 1.594e-09
 90.34646     30.8 1.560e+04 7.958e-10
 90.35773     19.1 1.080e+04 4.731e-10
 90.37706     17.6 1.099e+04 6.208e-10
 90.38888     14.4 1.029e+04 7.481e-10
 90.40025     12.4 1.110e+04 7.349e-10
 90.43362     12.1 1.224e+04 1.665e-09
 90.46264     11.6 1.238e+04 1.872e-09
 90.48518     11.1 1.229e+04 1.597e-09
 90.52380      9.2 1.202e+04 1.013e-09
 90.54748      5.3 1.107e+04 6.312e-10
 90.55141      0.3 1.033e+04 5.614e-10
 90.57283     -0.7 1.017e+04 5.917e-10
 90.60977     -0.3 9.948e+03 5.545e-10
 90.63231     -0.9 1.010e+04 6.094e-10
 90.65907     -0.7 9.960e+03 4.750e-10
 90.69461     -0.9 9.733e+03 3.778e-10
 90.71715     -3.6 9.123e+03 2.239e-10
 90.74925     -3.4 9.041e+03 2.290e-10
 90.77945     -2.6 8.950e+03 2.238e-10
 90.80199     -3.6 8.704e+03 1.960e-10
 90.83944     -2.1 8.620e+03 1.744e-10
 90.86428     -0.8 8.562e+03 1.514e-10
 90.88683     -1.5 8.479e+03 1.390e-10
 90.92658     -0.5 8.487e+03 1.394e-10
 90.94912     -1.3 8.424e+03 1.420e-10
 90.97078      0.1 8.605e+03 1.778e-10
 90.99332      0.8 8.604e+03 1.641e-10
 91.01141      2.0 8.883e+03 2.225e-10
 91.03396      1.3 9.080e+03 2.734e-10
 91.06489      2.8 9.627e+03 4.256e-10
 91.09625      4.2 1.019e+04 6.124e-10
 91.10743      3.0 1.009e+04 5.693e-10
 91.12106      3.7 1.025e+04 6.551e-10
 91.13848      4.4 1.042e+04 7.396e-10
 91.14975      4.2 1.031e+04 6.539e-10
 91.16615      4.7 1.047e+04 6.888e-10
 91.18090      5.0 1.061e+04 7.091e-10
 91.19217      4.3 1.052e+04 6.332e-10
 91.20338      4.4 1.058e+04 6.379e-10
 91.21465      4.3 1.056e+04 6.688e-10
 91.22331      4.4 1.056e+04 6.558e-10
 91.23459      3.7 1.049e+04 5.986e-10
 91.25446      3.7 1.046e+04 5.808e-10
 91.26573      2.7 1.038e+04 5.453e-10
 91.27888      2.4 1.046e+04 5.299e-10
 91.29688      2.1 1.050e+04 5.274e-10
 91.30815      0.8 1.081e+04 5.570e-10
 91.32397     -0.1 1.103e+04 5.874e-10
 91.33930     -0.9 1.117e+04 6.415e-10
 91.35057     -2.9 1.134e+04 7.879e-10
 91.36906     -3.8 1.141e+04 8.454e-10
 91.38172     -4.9 1.153e+04 8.897e-10
 91.39299     -6.3 1.170e+04 1.022e-09
 91.41286     -7.6 1.186e+04 1.067e-09
 91.42361     -9.1 1.192e+04 1.147e-09
 91.42490     -9.0 1.169e+04 1.006e-09
 91.43670    -10.1 1.174e+04 1.063e-09
 91.45528    -11.0 1.173e+04 1.139e-09
 91.46656    -12.2 1.169e+04 1.178e-09
 91.48179    -12.6 1.165e+04 1.209e-09
 91.49770    -12.6 1.156e+04 1.192e-09
 91.50898    -13.2 1.128e+04 1.096e-09
 91.52688    -12.8 1.111e+04 9.779e-10
 91.54012    -12.3 1.092e+04 8.132e-10
 91.55139    -12.8 1.064e+04 6.645e-10
 91.57127    -12.7 1.053e+04 5.334e-10
 91.58254    -13.4 1.030e+04 4.358e-10
 91.59452    -13.4 1.011e+04 3.631e-10
 91.61369    -13.6 9.924e+03 3.277e-10
 91.62496    -14.1 9.739e+03 3.189e-10
 91.64493    -12.9 9.641e+03 3.206e-10
 91.66757    -13.3 9.581e+03 3.153e-10
 91.69617    -11.7 9.630e+03 3.424e-10
 91.72987    -10.1 9.854e+03 4.114e-10
 91.75241    -10.1 9.952e+03 4.818e-10
 91.78635     -8.2 1.035e+04 6.312e-10
 91.81470     -6.2 1.078e+04 8.262e-10
 91.83725     -6.1 1.084e+04 8.670e-10
 91.85686     -4.0 1.127e+04 1.050e-09
 91.87940     -3.3 1.095e+04 8.079e-10
 91.89954     -1.5 1.118e+04 8.480e-10
 91.92209     -1.4 1.125e+04 8.778e-10
 91.96184      0.2 1.126e+04 8.581e-10
 91.98438      0.2 1.104e+04 7.491e-10
 92.01180      2.0 1.097e+04 7.067e-10
 92.04667      4.0 1.077e+04 5.864e-10
 92.06922      4.0 1.042e+04 5.080e-10
 92.10198      6.0 1.032e+04 4.352e-10
 92.13151      7.8 1.021e+04 3.792e-10
 92.15406      7.6 1.024e+04 4.386e-10
 92.19217      9.5 1.032e+04 4.896e-10
 92.21635     11.7 1.060e+04 6.287e-10
 92.23890     11.9 1.091e+04 8.357e-10
 92.27098     12.9 1.106e+04 9.814e-10
 92.28843     14.0 1.117e+04 1.129e-09
 92.29600     14.2 1.094e+04 9.935e-10
 92.30099     14.6 1.078e+04 9.355e-10
 92.31597     15.7 1.091e+04 9.728e-10
 92.33214     16.9 1.115e+04 9.546e-10
 92.34341     16.7 1.092e+04 7.652e-10
 92.36106     17.5 1.102e+04 7.310e-10
 92.37456     18.1 1.105e+04 6.853e-10
 92.38583     17.6 1.077e+04 5.414e-10
 92.40570     18.1 1.073e+04 5.083e-10
 92.41698     17.7 1.053e+04 4.244e-10
 92.42870     18.3 1.053e+04 4.152e-10
 92.44812     18.7 1.053e+04 4.084e-10
 92.45940     18.4 1.047e+04 3.796e-10
 92.47379     19.0 1.051e+04 3.872e-10
 92.49054     19.5 1.055e+04 3.951e-10
 92.50182     19.2 1.068e+04 3.948e-10
 92.50995     19.5 1.084e+04 4.088e-10
 92.52122     18.1 1.109e+04 5.444e-10
 92.53296     18.3 1.111e+04 6.033e-10
 92.54423     17.4 1.123e+04 7.371e-10
 92.56397     17.3 1.136e+04 8.524e-10
 92.57538     17.1 1.149e+04 9.904e-10
 92.58665     16.1 1.196e+04 1.392e-09
 92.60653     16.3 1.205e+04 1.595e-09
 92.61780     15.7 1.247e+04 2.090e-09
 92.63161     16.2 1.251e+04 2.174e-09
 92.64895     16.6 1.251e+04 2.157e-09
 92.66022     15.7 1.266e+04 2.251e-09
 92.67670     16.0 1.244e+04 2.085e-09
 92.69137     16.4 1.216e+04 1.862e-09
 92.70264     15.3 1.170e+04 1.467e-09
 92.72020     15.6 1.133e+04 1.218e-09
 92.73147     15.3 1.103e+04 1.058e-09
 92.73378     15.7 1.074e+04 9.015e-10
 92.74506     14.4 1.037e+04 6.916e-10
 92.76493     14.9 1.013e+04 5.710e-10
 92.78757     13.6 9.584e+03 3.814e-10
 92.82344     15.2 9.306e+03 3.311e-10
 92.84996     17.1 9.058e+03 2.896e-10
 92.87251     16.1 8.569e+03 1.962e-10
 92.91226     18.3 8.395e+03 1.731e-10
 92.93480     17.6 8.198e+03 1.430e-10
 92.95871     19.9 8.104e+03 1.317e-10
 92.99710     22.2 8.022e+03 1.203e-10
 93.01964     22.1 8.006e+03 1.184e-10
 93.04890     24.4 7.953e+03 1.082e-10
 93.08193     26.6 7.925e+03 9.940e-11
 93.10448     26.4 8.063e+03 1.158e-10
 93.13908     28.2 8.112e+03 1.220e-10
 93.16343     29.9 8.230e+03 1.436e-10
 93.16858     29.5 8.373e+03 1.806e-10
 93.18932     29.1 8.691e+03 2.482e-10
 93.22906     30.9 8.960e+03 3.183e-10
 93.25161     30.5 9.350e+03 4.146e-10
 93.27435     32.0 9.606e+03 4.847e-10
 93.31390     33.1 9.643e+03 4.858e-10
 93.33645     31.9 9.934e+03 5.580e-10
 93.36453     32.7 9.842e+03 5.024e-10
 93.39874     33.1 9.700e+03 4.402e-10
 93.42129     31.2 1.011e+04 5.708e-10
 93.45472     31.4 9.998e+03 5.545e-10
 93.48358     31.9 9.850e+03 5.352e-10
 93.50612     30.6 1.008e+04 6.301e-10
 93.54490     31.4 9.778e+03 5.255e-10
 93.56842     32.1 9.428e+03 4.081e-10
 93.58490     30.5 9.339e+03 3.467e-10
 93.60648     29.3 9.255e+03 3.090e-10
 93.63071     29.1 9.116e+03 2.639e-10
 93.65326     26.8 9.115e+03 2.531e-10
 93.68017     26.4 9.241e+03 2.817e-10
 93.71555     26.1 9.589e+03 3.700e-10
 93.73800     24.7 9.755e+03 4.215e-10
 93.75777     24.2 1.002e+04 5.055e-10
 93.76904     22.7 1.019e+04 5.422e-10
 93.78143     21.8 1.042e+04 5.961e-10
 93.80019     20.6 1.057e+04 6.375e-10
 93.81146     18.8 1.062e+04 6.577e-10
 93.81653     17.6 1.058e+04 6.799e-10
 93.82780     16.5 1.051e+04 6.619e-10
 93.84261     15.6 1.047e+04 6.860e-10
 93.85388     14.6 1.042e+04 6.794e-10
 93.87161     14.3 1.040e+04 6.846e-10
 93.88513     14.8 1.049e+04 7.322e-10
 93.89640     13.6 1.041e+04 6.785e-10
 93.91618     13.0 1.048e+04 6.884e-10
 93.92745     12.0 1.043e+04 6.367e-10
 93.93925     10.9 1.033e+04 5.884e-10
 93.95859      9.8 1.012e+04 5.286e-10
 93.96987      7.9 9.888e+03 4.502e-10
 93.98434      6.9 9.722e+03 4.287e-10
 94.00101      6.3 9.662e+03 4.291e-10
 94.01229      4.8 9.611e+03 4.000e-10
 94.02677      4.1 9.614e+03 4.149e-10
 94.04087      4.1 9.637e+03 4.272e-10
 94.05490      2.7 9.614e+03 4.076e-10
 94.08599      2.0 9.613e+03 4.250e-10
 94.11710      0.9 9.654e+03 4.081e-10
 94.13964     -0.3 9.617e+03 3.558e-10
 94.17617     -1.8 9.722e+03 3.417e-10
 94.20203     -3.5 9.732e+03 3.454e-10
 94.22458     -4.1 9.704e+03 3.379e-10
 94.26432     -4.9 9.650e+03 3.654e-10
 94.28687     -5.4 9.619e+03 3.672e-10
 94.31145     -5.6 9.545e+03 3.609e-10
 94.34916     -5.5 9.334e+03 3.343e-10
 94.37171     -5.5 9.300e+03 3.330e-10
 94.40163     -5.2 8.999e+03 2.834e-10
 94.43400     -4.8 8.763e+03 2.462e-10
 94.45655     -4.5 8.619e+03 2.176e-10
 94.47001     -4.0 8.468e+03 1.965e-10
 94.49256     -3.2 8.402e+03 1.940e-10
 94.51884     -2.6 8.333e+03 1.875e-10
 94.54138     -2.1 8.265e+03 1.728e-10
 94.58113     -1.5 8.279e+03 1.769e-10
 94.60368     -1.0 8.249e+03 1.687e-10
 94.62708     -0.4 8.307e+03 1.825e-10
 94.66597     -0.0 8.348e+03 1.923e-10
 94.68851      0.4 8.467e+03 1.994e-10
 94.71727      0.5 8.593e+03 2.103e-10
 94.75081      0.5 8.681e+03 2.149e-10
 94.77335      0.7 8.889e+03 2.508e-10
 94.80745      0.6 8.874e+03 2.502e-10
 94.83565      0.6 8.789e+03 2.414e-10
 94.85819      1.0 8.826e+03 2.545e-10
 94.89051      1.2 8.634e+03 2.251e-10
 94.91305      3.1 8.612e+03 2.178e-10
 94.92048      3.4 8.385e+03 1.804e-10
 94.94303      4.0 8.299e+03 1.637e-10
 94.98278      4.3 8.069e+03 1.374e-10
 95.00532      5.0 7.994e+03 1.278e-10
 95.03290      5.5 7.977e+03 1.291e-10
 95.06761      6.0 7.970e+03 1.392e-10
 95.09016      6.9 7.995e+03 1.430e-10
 95.12308      7.6 8.076e+03 1.747e-10
 95.15245      8.3 8.140e+03 2.007e-10
 95.17500      9.4 8.191e+03 2.096e-10
 95.21327      9.9 8.198e+03 2.118e-10
 95.23729     10.3 8.173e+03 2.100e-10
 95.25984     11.4 8.245e+03 2.215e-10
 95.29958     11.6 8.216e+03 2.236e-10
 95.32213     12.7 8.354e+03 2.422e-10
 95.33355     12.9 8.346e+03 2.530e-10
 95.35609     13.9 8.515e+03 2.899e-10
 95.38442     14.1 8.578e+03 3.217e-10
 95.40697     15.1 8.834e+03 3.863e-10
 95.43872     15.4 8.903e+03 4.192e-10
 95.46926     15.8 8.895e+03 4.172e-10
 95.49181     17.0 9.207e+03 5.068e-10
 95.52890     17.6 9.110e+03 4.788e-10
 95.55410     18.2 8.850e+03 3.970e-10
 95.57664     19.2 9.164e+03 4.793e-10
 95.61639     19.8 8.792e+03 3.561e-10
 95.63894     20.6 9.143e+03 4.389e-10
 95.66418     20.7 8.806e+03 3.236e-10
 95.70123     20.7 8.567e+03 2.491e-10
 95.72377     21.0 8.949e+03 3.297e-10
 95.75404     21.0 8.651e+03 2.483e-10
 95.77659     21.3 8.512e+03 2.161e-10
 95.78607     21.4 8.250e+03 1.775e-10
 95.80861     21.6 8.303e+03 1.799e-10
 95.84454     21.9 8.141e+03 1.661e-10
 95.87091     22.7 8.131e+03 1.663e-10
 95.89345     22.8 8.134e+03 1.665e-10
 95.93320     24.1 8.154e+03 1.722e-10
 95.95574     24.4 8.160e+03 1.684e-10
 95.97981     25.8 8.270e+03 1.846e-10
 96.01804     27.2 8.436e+03 1.968e-10
 96.04058     27.8 8.352e+03 1.714e-10
 96.07000     29.1 8.386e+03 1.705e-10
 96.10287     30.5 8.416e+03 1.627e-10
 96.12542     31.1 8.340e+03 1.313e-10
 96.16018     32.5 8.371e+03 1.239e-10
 96.18771     33.9 8.390e+03 1.194e-10
 96.20207     34.4 8.399e+03 1.185e-10
 96.21963     34.5 8.498e+03 1.319e-10
 96.25001     35.6 8.700e+03 1.573e-10
 96.27255     36.1 9.181e+03 2.288e-10
 96.29545     37.2 9.509e+03 2.983e-10
 96.33484     38.3 9.771e+03 3.609e-10
 96.35739     38.5 1.030e+04 5.103e-10
 96.38563     39.4 1.028e+04 4.742e-10
 96.41968     40.3 1.018e+04 3.893e-10
 96.44223     40.0 1.051e+04 4.174e-10
 96.47582     40.5 1.014e+04 3.079e-10
 96.50452     41.0 9.823e+03 2.764e-10
 96.52707     40.5 1.001e+04 3.401e-10
 96.56600     41.6 9.996e+03 3.489e-10
 96.58936     43.1 1.005e+04 3.833e-10
 96.61190     42.8 1.012e+04 4.287e-10
 96.64002     43.5 1.026e+04 5.013e-10
 96.65804     43.6 1.037e+04 5.463e-10
 96.67420     44.3 1.049e+04 5.889e-10
 96.68990     45.0 1.066e+04 6.608e-10
 96.70515     45.3 1.086e+04 7.478e-10
 96.71642     44.9 1.096e+04 8.016e-10
 96.73489     45.0 1.118e+04 9.202e-10
 96.74757     45.0 1.138e+04 1.022e-09
 96.75884     44.4 1.156e+04 1.110e-09
 96.77871     44.1 1.178e+04 1.218e-09
 96.78999     43.2 1.213e+04 1.418e-09
 96.80253     42.7 1.237e+04 1.575e-09
 96.82113     42.1 1.246e+04 1.655e-09
 96.83240     41.3 1.284e+04 2.014e-09
 96.84762     40.8 1.279e+04 1.993e-09
 96.86145     40.2 1.260e+04 1.898e-09
 96.86610     40.8 1.248e+04 1.748e-09
 96.87482     40.0 1.274e+04 1.969e-09
 96.89271     39.1 1.240e+04 1.728e-09
 96.90597     38.2 1.226e+04 1.662e-09
 96.91724     37.1 1.257e+04 1.887e-09
 96.93712     36.2 1.259e+04 1.902e-09
 96.94839     35.3 1.289e+04 2.129e-09
 96.96035     34.8 1.297e+04 2.177e-09
 96.97954     34.6 1.302e+04 2.204e-09
 96.99081     33.8 1.308e+04 2.240e-09
 97.00544     33.7 1.292e+04 2.090e-09
 97.02195     33.4 1.260e+04 1.808e-09
 97.03323     32.3 1.228e+04 1.555e-09
 97.05053     31.9 1.171e+04 1.197e-09
 97.06437     31.5 1.137e+04 1.039e-09
 97.07436     30.7 1.126e+04 9.988e-10
 97.08316     31.4 1.162e+04 1.194e-09
 97.10709     31.6 1.121e+04 9.747e-10
 97.13813     31.8 1.080e+04 7.775e-10
 97.16068     30.0 1.079e+04 7.866e-10
 97.19727     30.3 1.058e+04 6.958e-10
 97.22297     30.9 1.040e+04 6.216e-10
 97.24552     29.1 1.045e+04 6.520e-10
 97.28526     29.4 1.044e+04 6.300e-10
 97.30781     27.7 1.046e+04 6.465e-10
 97.32118     28.0 1.059e+04 6.762e-10
 97.33876     27.4 1.076e+04 7.196e-10
 97.35003     25.7 1.072e+04 7.246e-10
 97.36617     24.8 1.079e+04 7.802e-10
 97.38118     23.9 1.093e+04 8.568e-10
 97.39245     22.7 1.072e+04 7.832e-10
 97.41126     21.8 1.095e+04 8.446e-10
 97.42360     20.7 1.115e+04 8.724e-10
 97.43487     19.1 1.081e+04 7.199e-10
 97.45475     17.3 1.084e+04 7.186e-10
 97.46602     15.5 1.055e+04 6.255e-10
 97.47890     13.2 1.062e+04 6.468e-10
 97.49717     10.3 1.083e+04 7.148e-10
 97.50844      8.7 1.066e+04 7.030e-10
 97.51474      5.0 1.135e+04 9.452e-10
 97.52601      4.7 1.149e+04 1.008e-09
 97.53958      0.3 1.291e+04 1.689e-09
 97.55086      0.1 1.270e+04 1.592e-09
 97.56908     -4.3 1.420e+04 2.728e-09
 97.58200     -8.0 1.500e+04 3.904e-09
 97.59328     -8.3 1.491e+04 3.818e-09
 97.61315    -11.5 1.491e+04 3.930e-09
 97.62442    -11.6 1.483e+04 3.905e-09
 97.63672    -13.9 1.445e+04 3.573e-09
 97.65557    -15.7 1.362e+04 2.638e-09
 97.66684    -15.0 1.359e+04 2.641e-09
 97.68181    -17.0 1.248e+04 1.699e-09
 97.69799    -19.9 1.186e+04 1.357e-09
 97.70926    -19.0 1.163e+04 1.249e-09
 97.72498    -22.4 1.189e+04 1.325e-09
 97.73626    -21.8 1.211e+04 1.546e-09
 97.74036    -23.1 1.227e+04 1.618e-09
 97.74595    -22.5 1.215e+04 1.549e-09
 97.75498    -24.1 1.289e+04 1.817e-09
 97.76152    -28.7 1.579e+04 3.000e-09
 97.76716    -27.6 1.505e+04 2.716e-09
 97.77709    -33.0 2.001e+04 5.957e-09
 97.78273    -31.5 1.815e+04 4.961e-09
 97.78880    -40.0 2.718e+04 1.590e-08
 97.79830    -51.2 2.750e+04 1.876e-07
 97.80394    -47.0 3.006e+04 6.796e-08
 97.81135    -54.0 2.343e+04 5.476e-07
 97.81951    -59.0 2.289e+04 5.398e-07
 97.82515    -56.4 2.306e+04 5.328e-07
 97.83389    -59.0 2.422e+04 2.229e-07
 97.84072    -61.9 2.225e+04 6.513e-08
 97.84248    -60.1 2.384e+04 7.970e-08
 97.84692    -57.8 2.497e+04 1.126e-07
 97.85629    -62.0 2.139e+04 3.456e-08
 97.86193    -59.8 2.318e+04 4.328e-08
 97.86771    -64.0 1.857e+04 1.738e-08
 97.88467    -64.8 1.743e+04 9.731e-09
 97.89881    -65.3 1.588e+04 3.112e-09
 97.91008    -63.9 1.609e+04 5.910e-09
 97.92981    -63.1 1.569e+04 1.977e-09
 97.94123    -65.4 1.374e+04 6.033e-10
 97.94665    -61.6 1.564e+04 1.200e-09
 97.95778    -61.6 1.580e+04 1.200e-09
 97.97238    -64.6 1.192e+04 4.357e-10
 97.98365    -61.2 1.484e+04 7.493e-10
 97.99744    -64.0 1.049e+04 3.551e-10
 98.01479    -62.9 1.025e+04 3.135e-10
 98.02607    -62.3 1.046e+04 3.584e-10
 98.05391    -60.2 1.065e+04 3.463e-10
 98.08856    -58.7 1.045e+04 3.031e-10
 98.11110    -57.6 1.102e+04 5.082e-10
 98.14418    -56.2 1.097e+04 4.957e-10
 98.17339    -55.4 1.098e+04 5.571e-10
 98.19594    -54.3 1.138e+04 7.889e-10
 98.23437    -53.5 1.124e+04 7.533e-10
 98.25823    -53.0 1.147e+04 7.887e-10
 98.28078    -53.0 1.129e+04 6.635e-10
 98.32052    -53.6 1.127e+04 7.034e-10
 98.34307    -53.1 1.085e+04 5.456e-10
 98.36719    -53.0 1.086e+04 6.881e-10
 98.38974    -51.7 1.083e+04 6.806e-10
 98.40536    -50.7 1.097e+04 7.804e-10
 98.42791    -49.9 1.056e+04 5.751e-10
 98.45982    -49.4 1.052e+04 5.748e-10
 98.49010    -48.3 1.026e+04 4.282e-10
 98.51265    -47.7 1.013e+04 3.880e-10
 98.55000    -46.6 9.907e+03 2.924e-10
 98.57504    -46.0 9.761e+03 2.229e-10
 98.59758    -44.5 9.421e+03 1.883e-10
 98.63733    -43.9 9.413e+03 1.726e-10
 98.65988    -42.1 9.249e+03 1.638e-10
 98.68528    -41.3 9.351e+03 1.667e-10
 98.72217    -40.3 9.297e+03 1.899e-10
 98.74472    -38.6 9.311e+03 1.843e-10
 98.77546    -37.7 9.217e+03 2.010e-10
 98.80701    -36.7 9.267e+03 2.018e-10
 98.81924    -35.3 9.386e+03 2.130e-10
 98.83278    -34.4 9.426e+03 2.203e-10
 98.86564    -33.5 9.528e+03 2.233e-10
 98.89185    -32.7 9.667e+03 2.317e-10
 98.91439    -31.7 9.796e+03 2.867e-10
 98.95414    -30.5 9.849e+03 3.312e-10
 98.97668    -29.5 1.002e+04 4.242e-10
 99.00091    -28.7 1.032e+04 4.282e-10
 99.03898    -29.7 1.122e+04 4.503e-10
 99.06152    -30.3 1.204e+04 8.258e-10
 99.09110    -31.4 1.212e+04 1.285e-09
 99.12382    -32.0 1.179e+04 1.385e-09
 99.14636    -31.7 1.190e+04 1.421e-09
 99.16614    -30.9 1.146e+04 1.154e-09
 99.17731    -31.1 1.146e+04 1.074e-09
 99.19236    -32.0 1.114e+04 8.132e-10
 99.20846    -33.6 1.060e+04 5.826e-10
 99.21973    -34.1 1.035e+04 5.528e-10
 99.23745    -35.2 9.842e+03 4.567e-10
 99.25088    -35.8 9.681e+03 4.169e-10
 99.25524    -35.6 9.539e+03 4.152e-10
 99.26435    -34.9 9.858e+03 5.329e-10
 99.28202    -35.1 9.798e+03 5.117e-10
 99.29330    -34.7 9.568e+03 4.729e-10
 99.30508    -34.7 9.617e+03 4.485e-10
 99.32444    -34.9 9.663e+03 4.525e-10
 99.33572    -34.5 9.408e+03 3.822e-10
 99.35017    -34.7 9.486e+03 4.172e-10
 99.36686    -34.8 9.659e+03 4.568e-10
 99.37813    -34.5 9.385e+03 3.794e-10
 99.39527    -34.7 9.574e+03 4.695e-10
 99.40928    -34.8 9.882e+03 5.687e-10
 99.42055    -34.9 9.767e+03 5.307e-10
 99.44036    -35.9 1.067e+04 8.322e-10
 99.46290    -37.8 1.183e+04 1.329e-09
 99.47460    -38.6 1.266e+04 2.259e-09
 99.48327    -38.4 1.286e+04 2.506e-09
 99.49412    -37.3 1.221e+04 2.040e-09
 99.50799    -37.0 1.274e+04 2.807e-09
 99.52527    -36.4 1.346e+04 3.699e-09
 99.53654    -35.5 1.267e+04 2.485e-09
 99.55308    -36.1 1.351e+04 2.934e-09
 99.56768    -37.4 1.412e+04 3.233e-09
 99.57896    -37.4 1.299e+04 2.135e-09
 99.59818    -39.4 1.306e+04 2.261e-09
 99.61010    -41.7 1.295e+04 2.391e-09
 99.62138    -40.9 1.241e+04 1.943e-09
 99.64125    -43.2 1.311e+04 2.403e-09
 99.65252    -42.1 1.282e+04 2.278e-09
 99.66581    -44.6 1.432e+04 3.159e-09
 99.68367    -46.3 1.575e+04 4.398e-09
 99.69143    -45.4 1.606e+04 4.923e-09
 99.69607    -45.8 1.660e+04 5.900e-09
 99.70478    -47.9 1.663e+04 6.218e-09
 99.71042    -47.6 1.699e+04 6.724e-09
 99.71644    -48.3 1.701e+04 6.846e-09
 99.72599    -50.7 1.525e+04 5.740e-09
 99.73163    -50.0 1.619e+04 7.123e-09
 99.73899    -51.1 1.552e+04 6.623e-09
 99.75595    -51.9 1.508e+04 6.200e-09
 99.76851    -52.0 1.495e+04 4.698e-09
 99.77978    -51.7 1.537e+04 6.006e-09
 99.79965    -53.1 1.474e+04 2.937e-09
 99.81093    -52.3 1.509e+04 3.535e-09
 99.82363    -59.0 1.259e+04 1.248e-09
 99.84207    -63.3 1.097e+04 8.062e-10
 99.85335    -64.0 1.135e+04 9.142e-10
 99.86872    -65.7 1.126e+04 8.716e-10
 99.88449    -67.2 1.151e+04 9.440e-10
 99.89576    -67.7 1.186e+04 1.145e-09
 99.90637    -68.4 1.184e+04 1.210e-09
 99.91764    -67.5 1.159e+04 1.024e-09
 99.92691    -68.0 1.163e+04 1.114e-09
 99.93818    -67.9 1.181e+04 1.252e-09
 99.95806    -68.0 1.167e+04 1.213e-09
 99.96933    -67.9 1.176e+04 1.284e-09
 99.98145    -68.0 1.151e+04 1.120e-09
100.00048    -68.2 1.125e+04 9.528e-10
