# Columns:
#   distance along LOS (in CHIMPs)
#   peculiar velocity  (in km/s)
#   temperature (K)
#   HI number density
# pos=(43.9123,10.0794,134.302), angles=(1.62464,4.18989)
  0.00736    -27.4 9.254e+03 1.945e-10
  0.03301    -26.2 9.402e+03 2.394e-10
  0.05558    -25.5 9.431e+03 2.306e-10
  0.08244    -24.5 9.609e+03 2.879e-10
  0.11735    -23.5 9.840e+03 3.542e-10
  0.13992    -23.5 1.001e+04 3.633e-10
  0.15145    -22.7 1.033e+04 4.525e-10
  0.17402    -24.3 1.171e+04 7.565e-10
  0.20168    -23.4 1.154e+04 7.598e-10
  0.22425    -24.4 1.246e+04 1.136e-09
  0.26301    -23.0 1.179e+04 8.927e-10
  0.28602    -22.1 1.122e+04 7.229e-10
  0.30859    -23.0 1.159e+04 8.014e-10
  0.34778    -22.0 1.115e+04 6.547e-10
  0.37036    -23.3 1.127e+04 6.525e-10
  0.39844    -21.8 1.124e+04 6.528e-10
  0.43212    -19.9 1.146e+04 7.610e-10
  0.45469    -21.7 1.147e+04 7.768e-10
  0.48872    -20.9 1.216e+04 1.079e-09
  0.51339    -20.4 1.288e+04 1.380e-09
  0.51845    -22.2 1.316e+04 1.636e-09
  0.52755    -22.7 1.282e+04 1.524e-09
  0.54496    -23.5 1.351e+04 2.203e-09
  0.55843    -24.0 1.407e+04 2.983e-09
  0.56972    -24.4 1.361e+04 2.546e-09
  0.58931    -24.9 1.375e+04 2.982e-09
  0.60060    -25.1 1.334e+04 2.476e-09
  0.61267    -25.4 1.348e+04 2.666e-09
  0.63148    -25.7 1.367e+04 2.698e-09
  0.64277    -25.8 1.303e+04 2.225e-09
  0.65781    -25.9 1.296e+04 2.087e-09
  0.67365    -26.1 1.282e+04 1.805e-09
  0.68493    -25.9 1.232e+04 1.627e-09
  0.70295    -26.2 1.218e+04 1.365e-09
  0.71582    -27.1 1.216e+04 1.159e-09
  0.72710    -26.3 1.178e+04 1.086e-09
  0.74670    -26.9 1.173e+04 9.480e-10
  0.75798    -25.9 1.145e+04 8.877e-10
  0.77067    -26.8 1.127e+04 7.730e-10
  0.78887    -26.6 1.097e+04 7.728e-10
  0.80015    -26.1 1.090e+04 7.286e-10
  0.81581    -26.2 1.087e+04 7.295e-10
  0.83113    -26.0 1.109e+04 9.132e-10
  0.85380    -24.0 1.058e+04 6.601e-10
  0.87552    -23.5 1.080e+04 7.677e-10
  0.89608    -23.4 1.070e+04 7.338e-10
  0.91557    -21.3 1.036e+04 5.709e-10
  0.94015    -20.9 1.070e+04 7.339e-10
  0.97733    -20.5 1.065e+04 7.278e-10
  0.99990    -18.5 1.059e+04 6.877e-10
  1.03043    -18.1 1.035e+04 6.182e-10
  1.06167    -17.3 9.799e+03 4.392e-10
  1.08424    -15.7 9.987e+03 4.923e-10
  1.12072    -14.9 9.393e+03 3.300e-10
  1.14600    -14.1 8.828e+03 2.206e-10
  1.16858    -12.7 9.117e+03 2.679e-10
  1.20777    -11.9 8.673e+03 2.000e-10
  1.23034    -10.7 9.036e+03 2.564e-10
  1.25614     -9.7 8.795e+03 2.301e-10
  1.29211     -8.3 8.689e+03 2.163e-10
  1.31468     -7.3 9.110e+03 3.097e-10
  1.34643     -5.7 9.014e+03 2.987e-10
  1.37644     -4.1 8.878e+03 2.654e-10
  1.39901     -3.1 9.119e+03 3.132e-10
  1.43671     -1.6 8.875e+03 2.520e-10
  1.46078     -0.4 8.632e+03 2.026e-10
  1.48335      0.7 8.653e+03 2.041e-10
  1.52254      2.0 8.559e+03 1.898e-10
  1.54511      3.4 8.559e+03 1.885e-10
  1.57214      4.9 8.582e+03 1.921e-10
  1.59958      6.1 8.719e+03 2.148e-10
  1.61175      6.2 8.711e+03 2.141e-10
  1.62945      7.8 8.727e+03 2.140e-10
  1.66242      9.1 9.081e+03 2.750e-10
  1.69121     10.0 9.511e+03 3.640e-10
  1.70240     11.2 9.501e+03 3.413e-10
  1.71866     11.3 9.626e+03 3.926e-10
  1.73319     11.3 9.847e+03 4.833e-10
  1.74447     11.8 1.002e+04 5.041e-10
  1.76380     12.0 1.033e+04 6.378e-10
  1.77536     12.0 1.080e+04 8.420e-10
  1.78664     12.7 1.101e+04 8.656e-10
  1.80624     12.8 1.148e+04 1.152e-09
  1.81752     13.4 1.162e+04 1.158e-09
  1.83151     13.6 1.202e+04 1.529e-09
  1.84841     13.9 1.240e+04 1.896e-09
  1.85969     14.5 1.246e+04 1.835e-09
  1.87666     14.9 1.270e+04 2.104e-09
  1.89057     15.1 1.277e+04 2.110e-09
  1.90186     15.8 1.284e+04 2.162e-09
  1.92146     15.9 1.288e+04 2.149e-09
  1.93274     16.4 1.297e+04 2.216e-09
  1.94437     16.4 1.303e+04 2.241e-09
  1.96142     16.4 1.290e+04 2.035e-09
  1.96939     16.6 1.320e+04 2.347e-09
  1.97491     17.0 1.343e+04 2.666e-09
  1.98951     17.0 1.349e+04 2.669e-09
  2.00579     16.8 1.337e+04 2.355e-09
  2.01708     17.4 1.384e+04 3.080e-09
  2.03465     17.2 1.376e+04 2.820e-09
  2.04796     16.8 1.356e+04 2.381e-09
  2.05925     17.8 1.406e+04 3.142e-09
  2.07884     17.4 1.377e+04 2.708e-09
  2.09013     18.5 1.415e+04 3.136e-09
  2.10237     18.1 1.376e+04 2.657e-09
  2.12101     17.5 1.326e+04 2.122e-09
  2.13230     18.6 1.359e+04 2.414e-09
  2.15199     17.5 1.291e+04 1.538e-09
  2.17456     18.7 1.314e+04 2.012e-09
  2.19265     18.6 1.300e+04 1.831e-09
  2.20535     18.5 1.299e+04 1.523e-09
  2.21663     19.1 1.338e+04 2.205e-09
  2.23633     18.7 1.342e+04 1.246e-09
  2.24761     19.8 1.388e+04 3.049e-09
  2.26036     20.0 1.395e+04 2.815e-09
  2.27840     20.2 1.403e+04 2.289e-09
  2.28968     20.6 1.445e+04 3.788e-09
  2.30551     20.7 1.454e+04 3.204e-09
  2.32057     20.6 1.467e+04 2.337e-09
  2.32722     21.1 1.518e+04 4.274e-09
  2.33473     21.2 1.526e+04 4.637e-09
  2.35065     21.0 1.537e+04 3.920e-09
  2.36273     20.7 1.528e+04 2.940e-09
  2.37402     21.4 1.612e+04 5.430e-09
  2.39362     21.0 1.615e+04 4.461e-09
  2.40490     21.9 1.667e+04 6.675e-09
  2.41836     21.5 1.672e+04 6.057e-09
  2.43579     21.0 1.678e+04 4.683e-09
  2.44707     21.8 1.674e+04 7.073e-09
  2.46351     21.2 1.677e+04 6.368e-09
  2.47795     20.3 1.714e+04 5.181e-09
  2.48924     21.2 1.719e+04 8.348e-09
  2.50865     20.3 1.759e+04 8.146e-09
  2.52012     19.5 1.825e+04 6.916e-09
  2.53141     20.5 1.799e+04 1.218e-08
  2.55100     19.7 1.837e+04 1.159e-08
  2.56229     20.4 1.844e+04 1.611e-08
  2.57636     19.6 1.892e+04 1.642e-08
  2.59317     18.4 1.925e+04 1.408e-08
  2.60446     19.0 1.923e+04 1.887e-08
  2.62150     17.8 1.920e+04 1.663e-08
  2.63534     17.0 1.870e+04 1.176e-08
  2.64663     18.2 1.889e+04 1.570e-08
  2.66622     17.6 1.831e+04 1.201e-08
  2.67751     19.1 1.844e+04 1.333e-08
  2.68548     18.9 1.803e+04 1.054e-08
  2.69676     19.2 1.799e+04 9.830e-09
  2.70839     18.6 1.725e+04 7.181e-09
  2.71968     20.0 1.756e+04 7.436e-09
  2.73436     19.6 1.701e+04 6.029e-09
  2.75056     18.8 1.593e+04 4.648e-09
  2.76184     20.0 1.679e+04 5.006e-09
  2.77950     19.7 1.602e+04 4.417e-09
  2.79273     19.4 1.496e+04 3.674e-09
  2.80401     20.7 1.627e+04 4.421e-09
  2.82361     20.3 1.528e+04 3.951e-09
  2.83489     20.9 1.620e+04 4.457e-09
  2.84722     21.0 1.562e+04 4.194e-09
  2.86578     20.9 1.453e+04 3.287e-09
  2.87706     22.1 1.633e+04 4.653e-09
  2.89236     21.7 1.549e+04 3.580e-09
  2.90795     20.1 1.458e+04 2.520e-09
  2.91923     22.5 1.677e+04 3.889e-09
  2.93750     20.7 1.578e+04 2.662e-09
  2.95011     17.7 1.421e+04 2.356e-09
  2.96140     21.2 1.713e+04 2.339e-09
  2.98100     17.8 1.453e+04 1.993e-09
  2.99228     21.3 1.803e+04 1.704e-09
  3.00521     17.6 1.451e+04 1.449e-09
  3.02316     14.6 1.371e+04 1.727e-09
  3.03445     16.4 1.454e+04 1.143e-09
  3.04751     11.9 1.441e+04 1.840e-09
  3.05880     12.4 1.445e+04 1.810e-09
  3.06533      8.8 1.491e+04 3.825e-09
  3.07662      8.9 1.473e+04 2.447e-09
  3.09550      9.2 1.527e+04 5.256e-09
  3.10750     10.2 1.554e+04 7.074e-09
  3.11879     11.1 1.495e+04 5.184e-09
  3.13838     11.9 1.503e+04 5.193e-09
  3.14967     12.3 1.434e+04 3.416e-09
  3.16321     12.7 1.428e+04 2.922e-09
  3.18055     12.3 1.418e+04 1.873e-09
  3.19184     12.0 1.312e+04 1.322e-09
  3.20835      9.5 1.261e+04 7.219e-10
  3.22272      6.9 1.112e+04 3.548e-10
  3.23400      7.0 1.086e+04 3.390e-10
  3.25350      5.3 1.005e+04 2.654e-10
  3.26498      5.9 9.794e+03 2.305e-10
  3.28765      7.9 9.505e+03 1.968e-10
  3.32685      7.5 9.358e+03 1.845e-10
  3.34942      9.8 9.210e+03 1.829e-10
  3.37783      9.0 9.339e+03 2.014e-10
  3.41118      8.0 9.615e+03 2.753e-10
  3.43375     10.4 9.575e+03 2.535e-10
  3.46812      9.2 9.792e+03 3.219e-10
  3.49552      8.5 9.667e+03 3.084e-10
  3.51809      9.8 9.830e+03 3.284e-10
  3.55728      8.9 9.565e+03 2.806e-10
  3.57986     10.1 9.823e+03 3.590e-10
  3.60354      9.7 9.302e+03 2.489e-10
  3.64162      9.4 8.774e+03 1.584e-10
  3.66419     11.1 9.048e+03 1.887e-10
  3.69383     10.2 8.515e+03 1.155e-10
  3.72596     10.3 8.311e+03 1.098e-10
  3.74853     11.3 8.441e+03 1.253e-10
  3.77177     11.4 8.629e+03 1.433e-10
  3.79434     11.1 8.653e+03 1.430e-10
  3.81029     10.5 9.385e+03 2.218e-10
  3.82148     10.6 9.659e+03 2.576e-10
  3.84035      9.4 1.004e+04 3.239e-10
  3.85227      7.5 1.049e+04 5.247e-10
  3.86355      7.5 1.057e+04 7.029e-10
  3.88315      7.2 1.082e+04 9.311e-10
  3.89443      7.8 1.109e+04 1.124e-09
  3.90806      7.9 1.118e+04 1.165e-09
  3.92532      8.1 1.107e+04 1.074e-09
  3.93660      8.1 1.113e+04 1.067e-09
  3.95320      7.5 1.086e+04 8.419e-10
  3.96748      6.5 1.048e+04 6.284e-10
  3.97877      6.0 1.034e+04 6.068e-10
  3.99834      5.0 9.874e+03 4.183e-10
  4.02092      4.0 9.549e+03 3.588e-10
  4.04054      3.4 9.385e+03 3.324e-10
  4.05182      3.9 9.386e+03 3.243e-10
  4.06606      3.4 9.432e+03 3.348e-10
  4.08270      2.6 9.555e+03 3.906e-10
  4.09399      3.3 9.442e+03 3.510e-10
  4.11120      2.6 9.757e+03 4.283e-10
  4.12487      0.3 1.100e+04 7.206e-10
  4.13599      0.8 1.085e+04 5.813e-10
  4.14489      2.8 9.941e+03 4.097e-10
  4.15575     -0.2 1.165e+04 7.385e-10
  4.16704     -0.1 1.159e+04 6.098e-10
  4.17891     -3.3 1.256e+04 1.234e-09
  4.19792     -4.9 1.272e+04 2.333e-09
  4.20921     -6.7 1.330e+04 2.639e-09
  4.22406     -9.5 1.565e+04 5.217e-09
  4.24009    -12.7 1.828e+04 9.334e-09
  4.25138    -15.1 1.900e+04 1.358e-08
  4.26920    -17.7 1.924e+04 1.496e-08
  4.28226    -19.9 1.861e+04 1.299e-08
  4.29354    -21.2 1.877e+04 1.223e-08
  4.31314    -24.1 1.815e+04 5.967e-09
  4.32443    -28.8 1.815e+04 3.914e-09
  4.33691    -36.7 1.492e+04 1.624e-09
  4.35531    -41.8 1.150e+04 1.186e-09
  4.36659    -43.1 1.101e+04 1.218e-09
  4.38205    -41.9 1.089e+04 1.198e-09
  4.39748    -40.8 1.092e+04 1.197e-09
  4.40876    -41.2 1.092e+04 9.786e-10
  4.42720    -40.9 1.110e+04 8.624e-10
  4.43964    -40.9 1.127e+04 7.677e-10
  4.45093    -43.3 1.059e+04 5.252e-10
  4.47053    -43.9 1.023e+04 4.642e-10
  4.48181    -45.8 9.298e+03 3.531e-10
  4.49491    -45.5 9.237e+03 3.513e-10
  4.50692    -45.2 9.134e+03 3.659e-10
  4.51342    -44.4 9.077e+03 3.428e-10
  4.52408    -43.9 9.075e+03 3.201e-10
  4.55153    -42.8 9.151e+03 3.490e-10
  4.58594    -41.6 9.300e+03 3.634e-10
  4.60851    -41.4 9.001e+03 2.391e-10
  4.64182    -40.5 9.014e+03 2.464e-10
  4.67028    -39.6 9.005e+03 2.490e-10
  4.69285    -39.3 8.661e+03 1.774e-10
  4.73204    -38.6 8.778e+03 2.001e-10
  4.77718    -37.4 8.991e+03 2.364e-10
  4.81638    -36.4 9.653e+03 3.599e-10
  4.83895    -35.3 9.493e+03 3.304e-10
  4.85615    -36.0 1.015e+04 5.442e-10
  4.86896    -37.2 1.080e+04 7.961e-10
  4.87126    -36.3 1.051e+04 6.674e-10
  4.88092    -35.5 1.043e+04 6.001e-10
  4.90052    -36.1 1.105e+04 9.165e-10
  4.91181    -35.6 1.098e+04 7.665e-10
  4.92376    -36.3 1.158e+04 1.117e-09
  4.94269    -36.5 1.197e+04 1.495e-09
  4.95397    -37.2 1.201e+04 1.486e-09
  4.96890    -37.4 1.221e+04 1.877e-09
  4.98486    -37.2 1.236e+04 2.008e-09
  4.99614    -37.8 1.260e+04 2.444e-09
  5.01405    -37.6 1.276e+04 2.439e-09
  5.02702    -38.0 1.296e+04 1.998e-09
  5.03831    -38.3 1.401e+04 2.646e-09
  5.05791    -39.9 1.318e+04 1.908e-09
  5.06919    -40.3 1.431e+04 2.425e-09
  5.08176    -41.6 1.297e+04 1.686e-09
  5.10007    -42.3 1.251e+04 1.406e-09
  5.11136    -42.7 1.254e+04 1.500e-09
  5.12690    -43.3 1.229e+04 1.297e-09
  5.14224    -44.0 1.220e+04 1.216e-09
  5.15353    -44.7 1.201e+04 1.168e-09
  5.17204    -45.4 1.199e+04 1.138e-09
  5.18441    -46.0 1.207e+04 1.134e-09
  5.19570    -46.8 1.201e+04 1.189e-09
  5.21529    -47.3 1.207e+04 1.217e-09
  5.22658    -48.1 1.248e+04 1.399e-09
  5.23099    -47.8 1.211e+04 1.238e-09
  5.24227    -46.7 1.210e+04 1.267e-09
  5.27371    -45.9 1.203e+04 1.179e-09
  5.29982    -45.4 1.169e+04 9.302e-10
  5.32240    -45.8 1.191e+04 1.224e-09
  5.36159    -45.8 1.172e+04 1.025e-09
  5.38416    -46.3 1.199e+04 1.346e-09
  5.39785    -47.2 1.209e+04 1.480e-09
  5.41485    -47.1 1.236e+04 1.705e-09
  5.42613    -47.3 1.269e+04 2.130e-09
  5.44290    -47.0 1.307e+04 2.481e-09
  5.45702    -46.8 1.319e+04 2.537e-09
  5.46830    -46.5 1.378e+04 3.202e-09
  5.48790    -46.7 1.387e+04 2.951e-09
  5.49918    -46.9 1.430e+04 3.178e-09
  5.51061    -47.6 1.409e+04 2.515e-09
  5.53007    -49.3 1.371e+04 2.122e-09
  5.54135    -49.9 1.339e+04 1.833e-09
  5.55575    -51.6 1.284e+04 1.638e-09
  5.57223    -52.4 1.269e+04 1.619e-09
  5.58352    -53.1 1.190e+04 1.266e-09
  5.59302    -53.5 1.184e+04 1.240e-09
  5.60431    -53.1 1.183e+04 1.223e-09
  5.61440    -53.4 1.179e+04 1.203e-09
  5.63707    -54.0 1.141e+04 9.951e-10
  5.66871    -53.9 1.140e+04 1.019e-09
  5.68745    -53.9 1.141e+04 1.029e-09
  5.69874    -54.0 1.095e+04 8.534e-10
  5.71375    -53.8 1.104e+04 9.188e-10
  5.72962    -53.6 1.109e+04 9.413e-10
  5.74091    -53.3 1.106e+04 9.334e-10
  5.75890    -53.0 1.117e+04 9.728e-10
  5.77179    -53.1 1.164e+04 1.041e-09
  5.78308    -53.0 1.135e+04 1.074e-09
  5.80267    -55.7 1.396e+04 1.644e-09
  5.81396    -55.5 1.298e+04 1.818e-09
  5.82661    -58.7 1.541e+04 3.737e-09
  5.84484    -59.9 1.746e+04 8.445e-09
  5.85613    -58.2 1.562e+04 6.464e-09
  5.87175    -57.7 1.736e+04 1.097e-08
  5.88701    -57.1 1.858e+04 1.450e-08
  5.89829    -56.0 1.642e+04 7.679e-09
  5.91689    -56.0 1.710e+04 8.148e-09
  5.92918    -56.7 1.789e+04 6.558e-09
  5.94046    -58.3 1.557e+04 3.441e-09
  5.95505    -61.1 1.459e+04 2.318e-09
  5.96436    -58.5 1.534e+04 2.950e-09
  5.97134    -59.6 1.368e+04 2.000e-09
  5.98461    -61.6 1.308e+04 1.660e-09
  6.00223    -62.5 1.267e+04 1.529e-09
  6.01351    -61.7 1.276e+04 1.589e-09
  6.02975    -62.1 1.272e+04 1.583e-09
  6.04439    -62.3 1.259e+04 1.534e-09
  6.05568    -62.3 1.310e+04 1.811e-09
  6.07489    -62.5 1.288e+04 1.638e-09
  6.08656    -62.6 1.254e+04 1.370e-09
  6.09785    -62.7 1.370e+04 2.330e-09
  6.11745    -63.0 1.306e+04 1.753e-09
  6.12873    -63.1 1.373e+04 2.537e-09
  6.14260    -63.4 1.291e+04 1.684e-09
  6.15961    -63.7 1.207e+04 1.082e-09
  6.17090    -63.7 1.294e+04 1.741e-09
  6.18775    -64.2 1.206e+04 1.135e-09
  6.20178    -64.5 1.143e+04 8.075e-10
  6.21307    -64.8 1.181e+04 9.420e-10
  6.23266    -64.9 1.136e+04 7.031e-10
  6.24395    -65.6 1.172e+04 9.535e-10
  6.26684    -65.6 1.147e+04 8.338e-10
  6.30070    -65.9 1.138e+04 7.562e-10
  6.31700    -66.3 1.147e+04 7.743e-10
  6.32829    -65.8 1.175e+04 9.657e-10
  6.34575    -66.5 1.190e+04 1.061e-09
  6.35917    -66.9 1.210e+04 1.261e-09
  6.37045    -67.3 1.211e+04 1.272e-09
  6.39005    -67.3 1.225e+04 1.448e-09
  6.40134    -67.7 1.207e+04 1.152e-09
  6.41346    -67.6 1.208e+04 1.170e-09
  6.43222    -67.3 1.204e+04 1.072e-09
  6.44350    -68.8 1.147e+04 7.061e-10
  6.45860    -69.1 1.133e+04 5.389e-10
  6.47439    -70.6 1.114e+04 3.993e-10
  6.48567    -72.3 1.056e+04 3.426e-10
  6.50374    -73.8 1.042e+04 3.124e-10
  6.51656    -74.9 1.040e+04 3.094e-10
  6.52784    -75.3 1.031e+04 3.219e-10
  6.54744    -76.2 1.047e+04 3.667e-10
  6.55872    -76.4 1.042e+04 4.249e-10
  6.57146    -77.1 1.067e+04 5.011e-10
  6.58961    -78.0 1.100e+04 6.055e-10
  6.60089    -78.0 1.112e+04 7.008e-10
  6.61660    -78.9 1.148e+04 8.251e-10
  6.63177    -79.9 1.178e+04 9.077e-10
  6.64306    -80.5 1.224e+04 1.196e-09
  6.66174    -81.8 1.256e+04 1.363e-09
  6.67394    -83.1 1.262e+04 1.422e-09
  6.68003    -83.4 1.280e+04 1.541e-09
  6.69040    -82.7 1.289e+04 1.631e-09
  6.70492    -83.6 1.263e+04 1.483e-09
  6.72759    -85.1 1.281e+04 1.659e-09
  6.76351    -86.3 1.220e+04 1.279e-09
  6.78936    -88.2 1.149e+04 8.969e-10
  6.81193    -89.8 1.151e+04 8.578e-10
  6.83143    -90.6 1.135e+04 8.023e-10
  6.84261    -91.7 1.133e+04 8.002e-10
  6.86221    -92.7 1.127e+04 7.859e-10
  6.87350    -93.7 1.120e+04 7.421e-10
  6.88745    -96.9 1.146e+04 8.987e-10
  6.90438   -103.1 1.425e+04 1.603e-09
  6.91566   -111.6 1.824e+04 3.408e-09
  6.93260   -115.9 1.900e+04 6.638e-09
  6.94655   -118.9 1.910e+04 9.122e-09
  6.95783   -124.7 1.957e+04 1.094e-08
  6.97743   -127.6 1.867e+04 8.690e-09
  6.98872   -134.0 1.751e+04 5.183e-09
  7.00031   -138.2 1.480e+04 2.241e-09
  7.01960   -141.8 1.198e+04 1.057e-09
  7.03088   -145.8 1.075e+04 6.080e-10
  7.04115   -146.0 1.042e+04 4.500e-10
  7.05243   -145.7 1.059e+04 4.902e-10
  7.06177   -145.3 1.038e+04 3.767e-10
  7.07305   -147.0 1.003e+04 3.069e-10
  7.09059   -146.5 9.875e+03 2.774e-10
  7.10403   -145.3 9.824e+03 2.578e-10
  7.12670   -147.5 9.566e+03 2.360e-10
  7.16589   -146.6 9.292e+03 2.026e-10
  7.18847   -147.8 9.208e+03 1.955e-10
  7.21493   -146.9 9.157e+03 1.851e-10
  7.25023   -146.1 9.149e+03 1.833e-10
  7.27280   -146.8 9.134e+03 1.819e-10
  7.30522   -146.1 9.132e+03 1.810e-10
  7.33457   -145.4 9.138e+03 1.788e-10
  7.35714   -145.7 9.115e+03 1.739e-10
  7.39209   -144.8 9.076e+03 1.607e-10
  7.41466   -145.2 9.063e+03 1.533e-10
  7.41890   -144.3 9.011e+03 1.385e-10
  7.44147   -144.2 8.953e+03 1.271e-10
  7.48067   -143.3 8.897e+03 1.143e-10
  7.50324   -143.1 8.847e+03 1.054e-10
  7.53093   -142.1 8.826e+03 9.914e-11
  7.56500   -141.0 8.825e+03 9.796e-11
  7.58758   -140.7 8.804e+03 9.285e-11
  7.62121   -139.7 8.833e+03 9.306e-11
  7.64934   -138.9 8.956e+03 1.019e-10
  7.67191   -138.5 8.953e+03 1.003e-10
  7.71111   -137.7 9.061e+03 1.191e-10
  7.73368   -137.3 9.100e+03 1.207e-10
  7.75664   -136.5 9.242e+03 1.478e-10
  7.79544   -135.7 9.374e+03 1.741e-10
  7.81801   -135.5 9.386e+03 1.761e-10
  7.84692   -134.7 9.473e+03 1.950e-10
  7.87978   -133.8 9.496e+03 2.013e-10
  7.90235   -133.4 9.397e+03 1.868e-10
  7.93721   -132.3 9.355e+03 1.816e-10
  7.96411   -131.0 9.282e+03 1.570e-10
  7.98668   -130.2 9.163e+03 1.255e-10
  8.02588   -128.7 9.125e+03 1.080e-10
  8.04845   -128.1 9.065e+03 8.967e-11
  8.07263   -126.6 9.103e+03 8.529e-11
  8.11021   -125.2 9.188e+03 8.483e-11
  8.13116   -125.0 9.306e+03 8.996e-11
  8.13872   -124.8 9.246e+03 8.302e-11
  8.16292   -123.9 9.456e+03 1.133e-10
  8.19455   -123.3 9.767e+03 1.680e-10
  8.21712   -123.0 9.944e+03 2.428e-10
  8.25320   -122.5 1.051e+04 4.003e-10
  8.27889   -122.4 1.121e+04 6.340e-10
  8.30146   -122.1 1.159e+04 8.399e-10
  8.34065   -122.7 1.252e+04 1.303e-09
  8.36313   -123.4 1.320e+04 1.849e-09
  8.37715   -123.6 1.376e+04 2.515e-09
  8.39391   -124.0 1.459e+04 3.577e-09
  8.40520   -124.4 1.513e+04 4.283e-09
  8.42229   -125.0 1.621e+04 6.545e-09
  8.43608   -125.9 1.707e+04 8.834e-09
  8.44736   -126.5 1.792e+04 1.157e-08
  8.46696   -127.7 1.868e+04 1.563e-08
  8.47825   -128.7 1.914e+04 1.809e-08
  8.48927   -129.9 1.958e+04 2.124e-08
  8.50051   -131.1 2.020e+04 2.704e-08
  8.50908   -131.8 1.936e+04 2.020e-08
  8.52041   -132.9 1.941e+04 2.083e-08
  8.53515   -133.1 1.808e+04 1.296e-08
  8.55130   -133.2 1.631e+04 6.655e-09
  8.56258   -133.8 1.629e+04 6.951e-09
  8.58029   -133.8 1.462e+04 3.457e-09
  8.59347   -134.4 1.328e+04 1.750e-09
  8.60475   -134.6 1.333e+04 1.916e-09
  8.62435   -135.3 1.238e+04 1.133e-09
  8.63563   -135.4 1.239e+04 1.207e-09
  8.64800   -135.6 1.170e+04 8.347e-10
  8.66652   -135.5 1.113e+04 6.390e-10
  8.67780   -135.5 1.117e+04 6.747e-10
  8.69315   -135.1 1.077e+04 5.704e-10
  8.70868   -134.2 1.057e+04 5.194e-10
  8.71997   -134.2 1.057e+04 5.285e-10
  8.73829   -133.5 1.049e+04 5.058e-10
  8.75085   -132.6 1.047e+04 5.011e-10
  8.76214   -132.7 1.040e+04 4.964e-10
  8.78173   -131.9 1.039e+04 4.948e-10
  8.79302   -132.1 1.039e+04 4.916e-10
  8.80600   -131.6 1.043e+04 4.944e-10
  8.82390   -131.4 1.065e+04 5.497e-10
  8.83519   -131.8 1.059e+04 5.391e-10
  8.85114   -131.8 1.087e+04 6.610e-10
  8.86259   -131.8 1.131e+04 8.785e-10
  8.86623   -131.8 1.093e+04 6.765e-10
  8.87736   -132.1 1.084e+04 6.720e-10
  8.89629   -131.9 1.126e+04 9.158e-10
  8.90824   -131.6 1.174e+04 1.263e-09
  8.91952   -131.6 1.156e+04 1.170e-09
  8.93912   -131.1 1.199e+04 1.534e-09
  8.95041   -131.0 1.175e+04 1.301e-09
  8.96400   -130.5 1.209e+04 1.603e-09
  8.98129   -129.9 1.235e+04 1.916e-09
  8.99258   -130.0 1.207e+04 1.468e-09
  9.00914   -129.4 1.227e+04 1.722e-09
  9.02346   -128.7 1.240e+04 1.938e-09
  9.03474   -129.1 1.218e+04 1.397e-09
  9.05428   -128.4 1.231e+04 1.547e-09
  9.07686   -128.2 1.191e+04 1.200e-09
  9.09651   -127.6 1.203e+04 1.265e-09
  9.10779   -128.1 1.157e+04 9.117e-10
  9.12200   -127.6 1.169e+04 9.686e-10
  9.13868   -127.3 1.182e+04 1.027e-09
  9.16135   -127.7 1.140e+04 8.160e-10
  9.20064   -127.3 1.167e+04 9.337e-10
  9.22321   -127.6 1.099e+04 6.636e-10
  9.24634   -127.2 1.129e+04 7.574e-10
  9.28497   -127.1 1.179e+04 9.522e-10
  9.30754   -126.8 1.077e+04 6.235e-10
  9.33662   -126.6 1.075e+04 6.268e-10
  9.36921   -126.0 1.037e+04 5.239e-10
  9.39178   -125.6 1.008e+04 4.435e-10
  9.42690   -124.3 9.879e+03 4.153e-10
  9.45365   -122.7 9.698e+03 3.943e-10
  9.47622   -122.1 9.312e+03 2.829e-10
  9.51541   -120.5 9.166e+03 2.586e-10
  9.53798   -119.7 8.915e+03 1.913e-10
  9.56233   -118.1 8.812e+03 1.719e-10
  9.58685   -116.6 8.721e+03 1.566e-10
  9.60169   -117.3 8.723e+03 1.600e-10
  9.62232   -116.4 8.540e+03 1.243e-10
  9.65262   -115.0 8.478e+03 1.157e-10
  9.68408   -113.5 8.451e+03 1.160e-10
  9.70665   -112.6 8.360e+03 9.486e-11
  9.74290   -111.3 8.335e+03 9.539e-11
  9.76842   -110.0 8.405e+03 1.130e-10
  9.79099   -109.1 8.328e+03 8.979e-11
  9.83018   -108.1 8.440e+03 1.116e-10
  9.85275   -107.2 8.404e+03 9.413e-11
  9.87833   -106.5 8.632e+03 1.294e-10
  9.91452   -105.9 8.940e+03 1.992e-10
  9.93709   -105.2 8.950e+03 1.823e-10
  9.96861   -104.8 9.290e+03 2.931e-10
  9.99886   -104.4 9.584e+03 4.221e-10
 10.02143   -104.1 9.767e+03 4.485e-10
 10.05890   -103.8 1.002e+04 5.562e-10
 10.08319   -103.8 1.006e+04 5.813e-10
 10.10576   -103.8 1.024e+04 6.163e-10
 10.14496   -104.1 9.990e+03 5.440e-10
 10.16753   -104.3 1.000e+04 5.298e-10
 10.19432   -104.5 9.797e+03 4.513e-10
 10.22929   -104.3 9.806e+03 4.259e-10
 10.25186   -104.8 9.738e+03 4.131e-10
 10.27136   -104.8 9.708e+03 3.835e-10
 10.28255   -105.2 9.855e+03 4.178e-10
 10.29570   -106.1 1.014e+04 4.906e-10
 10.31072   -106.9 1.055e+04 6.317e-10
 10.31717   -107.8 1.061e+04 6.664e-10
 10.32472   -107.9 1.083e+04 7.653e-10
 10.34084   -108.4 1.128e+04 1.028e-09
 10.35560   -108.8 1.169e+04 1.304e-09
 10.36689   -109.1 1.180e+04 1.341e-09
 10.38598   -109.6 1.197e+04 1.451e-09
 10.39777   -110.2 1.201e+04 1.470e-09
 10.40906   -110.9 1.197e+04 1.428e-09
 10.42865   -111.6 1.181e+04 1.346e-09
 10.43994   -112.6 1.179e+04 1.335e-09
 10.45370   -113.5 1.157e+04 1.215e-09
 10.47082   -114.7 1.152e+04 1.179e-09
 10.48211   -116.8 1.182e+04 1.313e-09
 10.49884   -119.9 1.264e+04 1.473e-09
 10.51299   -123.8 1.382e+04 2.198e-09
 10.52427   -125.9 1.392e+04 2.657e-09
 10.54387   -128.2 1.452e+04 3.762e-09
 10.55516   -129.3 1.410e+04 3.659e-09
 10.56655   -130.5 1.419e+04 3.988e-09
 10.58604   -131.3 1.413e+04 3.943e-09
 10.59733   -132.3 1.322e+04 2.861e-09
 10.61170   -133.3 1.275e+04 2.276e-09
 10.62821   -134.6 1.212e+04 1.708e-09
 10.63949   -136.0 1.115e+04 1.228e-09
 10.65684   -136.9 1.055e+04 9.570e-10
 10.67038   -137.3 1.007e+04 7.696e-10
 10.67500   -137.4 9.707e+03 6.486e-10
 10.68404   -137.3 9.637e+03 6.212e-10
 10.70126   -137.1 9.335e+03 5.057e-10
 10.71254   -136.9 9.097e+03 4.296e-10
 10.73593   -136.6 8.923e+03 3.666e-10
 10.77450   -135.9 8.750e+03 3.143e-10
 10.79708   -135.8 8.490e+03 2.789e-10
 10.82632   -134.5 8.273e+03 2.392e-10
 10.85884   -132.9 8.151e+03 2.143e-10
 10.88141   -132.4 8.103e+03 2.094e-10
 10.91660   -130.7 8.041e+03 1.888e-10
 10.94318   -128.9 7.986e+03 1.707e-10
 10.96575   -128.5 7.980e+03 1.749e-10
 11.00494   -126.7 7.947e+03 1.629e-10
 11.02751   -126.5 8.054e+03 1.899e-10
 11.03498   -124.6 8.088e+03 1.874e-10
 11.05755   -124.5 8.007e+03 1.692e-10
 11.08928   -122.5 8.052e+03 1.693e-10
 11.11185   -122.3 8.221e+03 2.066e-10
 11.14231   -120.3 8.237e+03 2.067e-10
 11.17361   -118.3 8.263e+03 2.031e-10
 11.19618   -118.1 8.324e+03 2.165e-10
 11.23260   -116.1 8.328e+03 2.074e-10
 11.25795   -114.0 8.320e+03 1.954e-10
 11.28052   -113.8 8.315e+03 1.961e-10
 11.31971   -111.6 8.296e+03 1.830e-10
 11.34229   -111.3 8.171e+03 1.710e-10
 11.36802   -109.0 8.153e+03 1.596e-10
 11.40405   -106.8 8.139e+03 1.498e-10
 11.42662   -106.3 8.023e+03 1.391e-10
 11.45831   -103.9 8.040e+03 1.352e-10
 11.48839   -101.4 8.061e+03 1.312e-10
 11.51096   -100.7 7.973e+03 1.255e-10
 11.54859    -98.2 8.022e+03 1.237e-10
 11.57272    -95.7 8.066e+03 1.184e-10
 11.59529    -95.0 8.038e+03 1.206e-10
 11.63449    -92.5 8.094e+03 1.175e-10
 11.65706    -91.8 8.073e+03 1.218e-10
 11.68402    -89.4 8.138e+03 1.218e-10
 11.71882    -87.2 8.301e+03 1.241e-10
 11.74140    -86.5 8.278e+03 1.278e-10
 11.75904    -84.4 8.425e+03 1.399e-10
 11.78161    -84.3 8.370e+03 1.320e-10
 11.80316    -82.2 8.501e+03 1.611e-10
 11.82573    -81.4 8.449e+03 1.504e-10
 11.86459    -79.1 8.608e+03 1.863e-10
 11.88750    -76.6 8.799e+03 2.266e-10
 11.91007    -76.0 8.616e+03 1.824e-10
 11.94926    -73.5 8.787e+03 2.060e-10
 11.97183    -73.0 8.643e+03 1.759e-10
 12.00002    -70.5 8.791e+03 1.838e-10
 12.03360    -68.5 8.890e+03 1.823e-10
 12.05617    -68.0 8.844e+03 1.705e-10
 12.09030    -66.3 9.031e+03 1.838e-10
 12.11793    -64.5 9.212e+03 2.294e-10
 12.14051    -64.4 9.145e+03 2.058e-10
 12.17970    -61.8 9.631e+03 2.854e-10
 12.20227    -62.4 9.366e+03 2.253e-10
 12.21435    -60.3 9.556e+03 2.711e-10
 12.23296    -60.0 9.642e+03 2.864e-10
 12.24424    -60.2 9.640e+03 2.739e-10
 12.25939    -59.9 9.746e+03 3.302e-10
 12.27513    -60.7 1.045e+04 4.242e-10
 12.28641    -60.5 1.008e+04 3.900e-10
 12.30453    -62.7 1.158e+04 5.831e-10
 12.31729    -66.2 1.377e+04 1.353e-09
 12.32858    -65.0 1.252e+04 9.142e-10
 12.34818    -68.2 1.416e+04 1.869e-09
 12.35946    -67.0 1.337e+04 1.332e-09
 12.37225    -69.0 1.382e+04 2.192e-09
 12.39034    -69.5 1.333e+04 2.756e-09
 12.40163    -69.1 1.284e+04 1.950e-09
 12.41739    -69.0 1.257e+04 2.073e-09
 12.43251    -68.6 1.251e+04 1.584e-09
 12.44380    -68.5 1.211e+04 1.260e-09
 12.46253    -69.1 1.185e+04 7.532e-10
 12.47468    -70.4 1.123e+04 4.453e-10
 12.48377    -69.8 1.111e+04 4.018e-10
 12.49420    -68.9 1.132e+04 4.941e-10
 12.50556    -69.6 1.106e+04 3.193e-10
 12.51685    -69.0 1.104e+04 3.084e-10
 12.54163    -69.2 1.070e+04 2.228e-10
 12.57881    -68.8 1.053e+04 2.045e-10
 12.60138    -68.3 1.054e+04 2.083e-10
 12.62063    -67.4 1.093e+04 2.272e-10
 12.63207    -68.2 1.121e+04 2.645e-10
 12.64335    -68.1 1.122e+04 2.709e-10
 12.66295    -68.7 1.168e+04 4.058e-10
 12.67424    -68.4 1.168e+04 4.309e-10
 12.68824    -68.9 1.190e+04 5.914e-10
 12.70512    -68.9 1.225e+04 8.632e-10
 12.71640    -68.9 1.227e+04 8.500e-10
 12.73338    -69.0 1.246e+04 1.130e-09
 12.74729    -68.8 1.280e+04 1.357e-09
 12.75857    -69.0 1.274e+04 1.318e-09
 12.77817    -68.9 1.299e+04 1.374e-09
 12.78945    -69.3 1.291e+04 1.392e-09
 12.80110    -69.9 1.289e+04 1.325e-09
 12.82034    -70.4 1.311e+04 1.371e-09
 12.83162    -71.4 1.328e+04 1.467e-09
 12.84494    -73.1 1.335e+04 1.457e-09
 12.85623    -71.9 1.307e+04 1.322e-09
 12.86250    -72.9 1.328e+04 1.444e-09
 12.87379    -73.1 1.277e+04 1.246e-09
 12.89138    -74.1 1.246e+04 1.126e-09
 12.90467    -74.5 1.257e+04 1.095e-09
 12.91596    -74.8 1.189e+04 7.216e-10
 12.93556    -75.7 1.171e+04 6.273e-10
 12.94684    -76.3 1.095e+04 4.118e-10
 12.95910    -76.9 1.079e+04 3.787e-10
 12.97772    -77.4 1.081e+04 3.724e-10
 12.98901    -77.1 1.052e+04 2.807e-10
 13.00424    -77.3 1.061e+04 2.931e-10
 13.01989    -77.4 1.074e+04 3.286e-10
 13.03118    -77.0 1.058e+04 2.895e-10
 13.04938    -77.2 1.068e+04 3.289e-10
 13.06216    -76.9 1.101e+04 5.195e-10
 13.08483    -75.5 1.026e+04 2.999e-10
 13.12402    -74.0 1.019e+04 3.232e-10
 13.14659    -72.7 9.814e+03 1.883e-10
 13.17372    -71.7 1.010e+04 2.675e-10
 13.20717    -70.5 1.037e+04 4.240e-10
 13.21924    -71.1 1.032e+04 3.632e-10
 13.23093    -70.0 1.012e+04 2.508e-10
 13.26400    -68.8 1.049e+04 4.529e-10
 13.29269    -67.3 1.097e+04 7.069e-10
 13.31526    -66.2 1.060e+04 5.204e-10
 13.35429    -64.4 1.105e+04 6.953e-10
 13.39943    -61.6 1.099e+04 6.126e-10
 13.43879    -60.3 1.089e+04 4.943e-10
 13.46136    -59.2 1.087e+04 4.803e-10
 13.48971    -58.1 1.054e+04 3.282e-10
 13.52313    -57.3 1.031e+04 2.428e-10
 13.54570    -56.6 1.056e+04 2.782e-10
 13.58000    -55.9 1.057e+04 2.675e-10
 13.60747    -55.4 1.070e+04 3.251e-10
 13.61865    -55.0 1.075e+04 3.606e-10
 13.63623    -55.0 1.074e+04 3.683e-10
 13.64944    -54.0 1.073e+04 4.551e-10
 13.66072    -53.8 1.072e+04 4.856e-10
 13.68032    -53.5 1.088e+04 5.062e-10
 13.69161    -53.0 1.088e+04 5.268e-10
 13.70394    -52.6 1.099e+04 6.022e-10
 13.72249    -52.6 1.102e+04 6.152e-10
 13.73377    -52.0 1.083e+04 5.341e-10
 13.74909    -51.8 1.075e+04 6.035e-10
 13.76466    -51.5 1.089e+04 6.242e-10
 13.77594    -51.0 1.070e+04 4.881e-10
 13.79423    -50.6 1.061e+04 5.963e-10
 13.80683    -50.0 1.094e+04 6.128e-10
 13.81811    -49.7 1.071e+04 4.820e-10
 13.83771    -49.5 1.068e+04 5.802e-10
 13.84899    -49.1 1.043e+04 4.841e-10
 13.86194    -48.7 1.069e+04 5.112e-10
 13.87988    -48.5 1.091e+04 5.689e-10
 13.89116    -48.0 1.074e+04 4.905e-10
 13.90708    -48.2 1.085e+04 5.154e-10
 13.92214    -48.5 1.108e+04 7.157e-10
 13.93491    -47.3 1.056e+04 5.446e-10
 13.95380    -46.0 1.039e+04 4.109e-10
 13.98400    -45.3 1.056e+04 4.497e-10
 14.00658    -44.0 1.025e+04 3.670e-10
 14.03142    -43.8 1.045e+04 4.555e-10
 14.06834    -43.8 1.084e+04 6.593e-10
 14.09091    -42.5 1.046e+04 5.414e-10
 14.12171    -43.4 1.129e+04 7.704e-10
 14.15268    -45.4 1.213e+04 1.251e-09
 14.17525    -43.8 1.165e+04 9.790e-10
 14.21199    -43.3 1.193e+04 1.663e-09
 14.23701    -43.9 1.219e+04 1.349e-09
 14.25958    -41.7 1.162e+04 1.239e-09
 14.29878    -42.6 1.183e+04 8.917e-10
 14.32135    -40.9 1.164e+04 8.247e-10
 14.33603    -41.9 1.137e+04 7.264e-10
 14.35204    -42.7 1.133e+04 7.238e-10
 14.36332    -42.9 1.178e+04 7.350e-10
 14.38108    -44.9 1.238e+04 8.657e-10
 14.39420    -46.5 1.253e+04 1.106e-09
 14.40549    -47.1 1.252e+04 1.412e-09
 14.42509    -47.2 1.240e+04 1.797e-09
 14.43637    -46.8 1.247e+04 2.065e-09
 14.44879    -46.3 1.253e+04 2.133e-09
 14.46725    -45.9 1.259e+04 2.089e-09
 14.47854    -45.7 1.246e+04 1.804e-09
 14.49394    -46.1 1.203e+04 1.496e-09
 14.50942    -46.3 1.150e+04 1.241e-09
 14.52071    -46.9 1.114e+04 9.819e-10
 14.53908    -46.5 1.093e+04 8.445e-10
 14.55159    -46.2 1.090e+04 7.134e-10
 14.57426    -47.0 1.049e+04 5.515e-10
 14.61355    -45.9 1.018e+04 5.060e-10
 14.63612    -46.0 1.011e+04 4.769e-10
 14.65203    -45.2 9.902e+03 4.312e-10
 14.66639    -45.3 9.892e+03 4.392e-10
 14.66998    -45.4 9.741e+03 4.049e-10
 14.67809    -45.6 9.686e+03 3.902e-10
 14.69708    -45.3 9.613e+03 3.891e-10
 14.70898    -45.2 9.616e+03 3.983e-10
 14.72026    -45.7 9.607e+03 3.889e-10
 14.73986    -45.3 9.581e+03 3.918e-10
 14.75115    -45.7 9.586e+03 3.922e-10
 14.76479    -45.5 9.543e+03 3.943e-10
 14.78213    -44.4 9.372e+03 3.634e-10
 14.80479    -44.8 9.426e+03 3.823e-10
 14.84398    -43.8 9.313e+03 3.434e-10
 14.88913    -43.2 9.141e+03 2.849e-10
 14.92832    -42.1 8.812e+03 2.487e-10
 14.95090    -42.4 9.037e+03 2.864e-10
 14.97941    -41.3 8.771e+03 2.550e-10
 15.01266    -40.2 8.596e+03 2.332e-10
 15.03523    -40.4 8.717e+03 2.604e-10
 15.06969    -39.6 8.692e+03 2.515e-10
 15.09700    -39.1 8.777e+03 2.715e-10
 15.11957    -39.2 8.909e+03 3.031e-10
 15.15876    -38.7 8.991e+03 3.339e-10
 15.18133    -38.4 9.002e+03 3.444e-10
 15.20512    -37.5 8.791e+03 3.249e-10
 15.24310    -36.0 8.594e+03 2.787e-10
 15.26567    -35.2 8.349e+03 2.223e-10
 15.29541    -34.1 8.219e+03 1.779e-10
 15.32743    -33.1 8.149e+03 1.649e-10
 15.35001    -32.5 8.037e+03 1.432e-10
 15.37936    -31.4 8.147e+03 1.641e-10
 15.40193    -31.3 7.858e+03 1.353e-10
 15.41177    -30.0 8.016e+03 1.618e-10
 15.43434    -29.2 8.143e+03 1.866e-10
 15.47354    -27.8 8.374e+03 2.241e-10
 15.49611    -26.9 8.464e+03 2.420e-10
 15.52112    -25.6 8.873e+03 3.098e-10
 15.55787    -24.3 9.382e+03 4.210e-10
 15.58044    -23.2 9.212e+03 3.834e-10
 15.59994    -23.6 9.744e+03 5.355e-10
 15.62242    -22.8 1.003e+04 6.540e-10
 15.64201    -22.7 1.047e+04 8.386e-10
 15.65330    -21.9 1.023e+04 7.291e-10
 15.66764    -22.0 1.093e+04 9.782e-10
 15.68418    -23.0 1.209e+04 1.525e-09
 15.69547    -21.7 1.154e+04 1.143e-09
 15.71278    -22.6 1.220e+04 1.679e-09
 15.72635    -22.5 1.247e+04 2.233e-09
 15.73763    -21.7 1.204e+04 1.688e-09
 15.75248    -21.5 1.206e+04 1.972e-09
 15.76308    -21.4 1.209e+04 2.060e-09
 15.76852    -20.7 1.176e+04 1.647e-09
 15.78049    -20.0 1.184e+04 1.830e-09
 15.79940    -19.7 1.191e+04 1.719e-09
 15.81068    -18.9 1.172e+04 1.598e-09
 15.82563    -19.0 1.203e+04 1.464e-09
 15.84157    -19.8 1.235e+04 1.263e-09
 15.85285    -18.5 1.221e+04 1.312e-09
 15.87078    -19.7 1.225e+04 1.209e-09
 15.88374    -20.4 1.184e+04 1.111e-09
 15.89502    -19.1 1.209e+04 1.208e-09
 15.91462    -19.3 1.164e+04 1.090e-09
 15.92590    -18.0 1.198e+04 1.229e-09
 15.93849    -17.9 1.161e+04 1.038e-09
 15.95679    -17.9 1.142e+04 8.232e-10
 15.96807    -16.9 1.174e+04 9.567e-10
 15.98363    -17.5 1.156e+04 7.445e-10
 15.99895    -18.4 1.133e+04 6.349e-10
 16.01024    -17.5 1.159e+04 7.214e-10
 16.02877    -18.3 1.132e+04 6.655e-10
 16.04112    -19.0 1.126e+04 6.976e-10
 16.05241    -18.1 1.137e+04 7.123e-10
 16.07200    -18.6 1.156e+04 7.874e-10
 16.08329    -17.7 1.163e+04 7.464e-10
 16.09649    -17.9 1.192e+04 8.443e-10
 16.11417    -17.8 1.221e+04 9.910e-10
 16.12091    -17.1 1.219e+04 8.558e-10
 16.12580    -16.5 1.161e+04 6.576e-10
 16.14163    -16.5 1.180e+04 7.191e-10
 16.15634    -16.8 1.228e+04 8.669e-10
 16.16763    -16.0 1.209e+04 7.689e-10
 16.18677    -16.9 1.302e+04 1.075e-09
 16.19851    -18.2 1.474e+04 1.915e-09
 16.20979    -16.8 1.371e+04 1.418e-09
 16.22939    -17.3 1.473e+04 2.444e-09
 16.24068    -16.2 1.399e+04 1.878e-09
 16.25449    -15.9 1.468e+04 2.887e-09
 16.27156    -15.1 1.530e+04 4.035e-09
 16.28284    -14.2 1.448e+04 3.006e-09
 16.29963    -13.3 1.492e+04 3.600e-09
 16.31373    -12.6 1.535e+04 3.986e-09
 16.32501    -11.7 1.451e+04 3.042e-09
 16.34461    -11.0 1.480e+04 3.150e-09
 16.35590    -10.1 1.401e+04 2.408e-09
 16.36734     -9.4 1.422e+04 2.442e-09
 16.38678     -8.8 1.467e+04 2.605e-09
 16.39806     -7.9 1.374e+04 1.914e-09
 16.41248     -7.2 1.421e+04 2.071e-09
 16.42895     -6.5 1.466e+04 2.433e-09
 16.44023     -5.8 1.381e+04 1.719e-09
 16.45763     -4.7 1.439e+04 2.113e-09
 16.47111     -3.6 1.519e+04 2.951e-09
 16.47875     -2.6 1.404e+04 1.862e-09
 16.48783     -2.3 1.380e+04 1.684e-09
 16.50200     -1.3 1.470e+04 2.266e-09
 16.51328     -0.5 1.324e+04 1.247e-09
 16.52534      0.4 1.435e+04 1.675e-09
 16.54416      1.0 1.636e+04 3.322e-09
 16.55545      1.9 1.388e+04 1.251e-09
 16.57048      2.7 1.641e+04 2.613e-09
 16.58633      3.9 1.806e+04 6.234e-09
 16.59762      4.3 1.539e+04 1.676e-09
 16.61562      5.0 1.741e+04 3.808e-09
 16.62850      6.2 1.825e+04 8.883e-09
 16.63979      6.6 1.680e+04 2.341e-09
 16.65938      8.0 1.813e+04 5.855e-09
 16.67067      7.8 1.576e+04 1.633e-09
 16.68334     10.5 1.808e+04 4.246e-09
 16.70155     12.0 1.911e+04 8.065e-09
 16.71284     12.0 1.768e+04 2.393e-09
 16.72259     11.5 2.064e+04 3.953e-09
 16.72818     12.9 1.804e+04 2.605e-09
 16.73403     13.4 2.021e+04 3.508e-09
 16.74362     13.8 2.260e+04 5.678e-09
 16.74926     13.6 1.902e+04 2.284e-09
 16.75660     13.7 2.108e+04 2.940e-09
 16.76471     13.4 2.332e+04 6.102e-09
 16.77035     14.2 2.081e+04 3.018e-09
 16.77917     14.7 2.351e+04 4.979e-09
 16.78579     16.0 2.380e+04 8.012e-09
 16.79143     14.1 2.235e+04 2.982e-09
 16.80123     15.6 2.414e+04 4.977e-09
 16.80687     15.2 1.873e+04 2.314e-09
 16.81302     15.3 2.260e+04 3.729e-09
 16.82232     15.3 2.498e+04 6.150e-09
 16.82796     13.6 1.831e+04 2.021e-09
 16.83560     12.5 2.336e+04 3.815e-09
 16.84340     10.7 2.518e+04 7.339e-09
 16.84628     10.5 1.960e+04 2.998e-09
 16.84977     11.4 1.505e+04 2.082e-09
 16.85817     10.6 1.731e+04 3.064e-09
 16.86448     10.3 2.180e+04 5.475e-09
 16.87013      9.6 1.554e+04 2.897e-09
 16.87992      9.1 2.018e+04 5.152e-09
 16.88557      9.0 1.459e+04 3.034e-09
 16.89202      8.5 1.755e+04 4.631e-09
 16.90101      8.2 2.475e+04 9.531e-09
 16.90665      8.0 1.570e+04 4.700e-09
 16.91459      7.9 2.012e+04 7.180e-09
 16.92209      8.1 2.562e+04 1.203e-08
 16.92774      7.2 1.789e+04 7.113e-09
 16.93717      7.9 2.005e+04 9.094e-09
 16.94318      8.5 2.331e+04 1.191e-08
 16.95451      8.1 1.752e+04 7.150e-09
 16.97416      8.5 1.945e+04 7.396e-09
 16.98544      8.5 1.670e+04 9.948e-09
 16.99933      9.2 1.632e+04 8.777e-09
 17.01633      9.9 1.607e+04 5.829e-09
 17.02761     10.6 1.654e+04 9.783e-09
 17.04448     11.4 1.578e+04 6.956e-09
 17.05849     12.3 1.482e+04 4.673e-09
 17.06978     13.5 1.566e+04 6.732e-09
 17.08938     14.1 1.492e+04 4.419e-09
 17.10066     15.7 1.544e+04 5.252e-09
 17.11219     16.1 1.476e+04 3.512e-09
 17.13154     16.5 1.426e+04 2.325e-09
 17.14283     17.7 1.419e+04 2.489e-09
 17.15733     18.1 1.364e+04 1.771e-09
 17.17371     18.7 1.329e+04 1.328e-09
 17.18500     19.6 1.284e+04 1.375e-09
 17.20061     20.7 1.269e+04 1.160e-09
 17.21190     21.5 1.315e+04 1.881e-09
 17.21588     22.4 1.336e+04 1.553e-09
 17.22717     23.2 1.264e+04 1.437e-09
 17.24676     24.3 1.275e+04 1.287e-09
 17.25805     24.9 1.231e+04 1.132e-09
 17.27019     25.9 1.231e+04 1.112e-09
 17.28893     26.5 1.276e+04 1.160e-09
 17.30022     27.5 1.206e+04 1.008e-09
 17.31533     28.1 1.229e+04 1.063e-09
 17.33110     28.7 1.356e+04 1.253e-09
 17.34238     29.7 1.220e+04 1.071e-09
 17.36047     30.2 1.317e+04 1.267e-09
 17.37327     30.0 1.481e+04 1.649e-09
 17.38455     31.9 1.334e+04 1.428e-09
 17.40415     31.9 1.484e+04 1.828e-09
 17.41543     33.6 1.359e+04 1.616e-09
 17.42819     33.9 1.480e+04 2.087e-09
 17.44632     34.4 1.477e+04 2.304e-09
 17.45760     36.2 1.470e+04 2.136e-09
 17.47333     36.4 1.472e+04 2.070e-09
 17.50728     37.4 1.373e+04 1.364e-09
 17.53085     38.1 1.231e+04 7.763e-10
 17.55245     40.8 1.345e+04 9.802e-10
 17.57403     42.1 1.386e+04 1.504e-09
 17.59252     41.7 1.310e+04 9.954e-10
 17.61509     43.3 1.302e+04 8.572e-10
 17.64271     44.8 1.269e+04 8.804e-10
 17.67695     45.7 1.132e+04 5.061e-10
 17.69952     48.2 1.226e+04 8.700e-10
 17.73309     49.5 1.108e+04 5.413e-10
 17.76129     51.0 1.044e+04 3.620e-10
 17.78386     53.2 1.093e+04 5.892e-10
 17.82305     54.8 1.042e+04 4.051e-10
 17.84562     56.8 1.098e+04 6.736e-10
 17.86852     58.6 1.060e+04 4.831e-10
 17.90739     60.4 1.029e+04 3.502e-10
 17.92996     62.1 1.084e+04 6.149e-10
 17.95880     63.8 1.057e+04 5.046e-10
 17.99172     65.6 1.040e+04 4.974e-10
 18.01429     67.4 1.101e+04 7.783e-10
 18.04909     69.0 1.088e+04 7.403e-10
 18.07606     70.5 1.073e+04 6.858e-10
 18.09863     72.1 1.121e+04 9.098e-10
 18.13782     73.3 1.083e+04 7.022e-10
 18.16040     74.6 1.130e+04 9.162e-10
 18.18452     75.1 1.078e+04 6.961e-10
 18.22216     75.4 1.029e+04 5.637e-10
 18.24473     76.5 1.126e+04 1.022e-09
 18.27480     76.8 1.089e+04 8.946e-10
 18.29819     77.5 1.036e+04 6.873e-10
 18.30731     79.0 1.071e+04 7.674e-10
 18.32907     80.2 1.170e+04 1.331e-09
 18.36508     80.8 1.101e+04 9.854e-10
 18.39083     81.5 1.038e+04 7.087e-10
 18.41340     82.6 1.065e+04 8.087e-10
 18.45260     83.2 1.008e+04 6.129e-10
 18.47517     84.1 1.002e+04 6.069e-10
 18.50051     85.2 9.801e+03 5.698e-10
 18.53693     86.6 9.749e+03 5.600e-10
 18.55951     87.9 9.719e+03 5.501e-10
 18.59080     89.4 9.718e+03 5.502e-10
 18.62127     90.7 9.749e+03 5.639e-10
 18.64384     92.2 9.552e+03 4.988e-10
 18.68108     93.5 9.655e+03 5.293e-10
 18.70561     94.6 9.905e+03 6.057e-10
 18.72818     96.2 9.453e+03 4.477e-10
 18.76737     97.2 9.589e+03 4.813e-10
 18.78994     98.8 9.103e+03 3.511e-10
 18.81651     99.8 9.146e+03 3.603e-10
 18.85171    100.8 9.139e+03 3.594e-10
 18.87428    102.7 8.793e+03 2.879e-10
 18.90679    103.9 8.836e+03 2.968e-10
 18.93604    105.2 8.868e+03 3.051e-10
 18.95862    107.1 8.659e+03 2.632e-10
 18.99708    108.7 8.792e+03 2.926e-10
 19.02038    110.4 8.978e+03 3.326e-10
 19.02298    112.2 8.914e+03 3.131e-10
 19.03344    112.0 9.381e+03 4.500e-10
 19.05107    112.6 9.433e+03 4.758e-10
 19.06235    113.4 9.388e+03 4.530e-10
 19.07588    114.0 9.505e+03 4.989e-10
 19.09324    114.8 9.674e+03 5.720e-10
 19.10452    115.4 9.623e+03 5.552e-10
 19.13241    117.2 1.030e+04 7.934e-10
 19.16648    118.5 1.076e+04 1.021e-09
 19.18905    119.4 1.090e+04 1.075e-09
 19.22279    120.7 1.165e+04 1.531e-09
 19.25072    121.1 1.179e+04 1.617e-09
 19.26191    121.0 1.176e+04 1.577e-09
 19.27902    121.3 1.189e+04 1.658e-09
 19.29279    121.5 1.204e+04 1.753e-09
 19.30408    121.4 1.183e+04 1.590e-09
 19.32367    121.6 1.197e+04 1.652e-09
 19.33506    121.7 1.162e+04 1.351e-09
 19.34683    121.5 1.167e+04 1.388e-09
 19.36584    121.4 1.176e+04 1.446e-09
 19.37713    120.9 1.112e+04 1.077e-09
 19.38409    121.0 1.120e+04 1.111e-09
 19.39537    121.9 1.163e+04 1.286e-09
 19.40801    121.6 1.164e+04 1.303e-09
 19.41939    120.6 1.023e+04 7.083e-10
 19.44850    120.0 1.031e+04 7.458e-10
 19.48125    119.8 1.072e+04 9.431e-10
 19.50383    119.7 1.006e+04 7.104e-10
 19.53879    120.1 1.064e+04 9.731e-10
 19.56549    120.1 1.085e+04 1.113e-09
 19.58806    120.4 1.062e+04 9.706e-10
 19.60766    120.4 1.085e+04 1.062e-09
 19.61885    120.3 1.059e+04 9.458e-10
 19.63845    120.4 1.055e+04 9.062e-10
 19.64983    120.5 1.002e+04 6.790e-10
 19.67421    120.6 9.837e+03 5.647e-10
 19.70797    120.5 9.513e+03 4.478e-10
 19.72278    120.4 9.260e+03 3.670e-10
 19.73417    120.4 9.078e+03 3.126e-10
 19.74631    120.6 8.984e+03 2.900e-10
 19.75750    120.1 8.882e+03 2.632e-10
 19.76495    120.2 8.864e+03 2.635e-10
 19.77624    120.2 8.809e+03 2.456e-10
 19.79583    120.4 8.808e+03 2.493e-10
 19.80712    120.5 8.731e+03 2.312e-10
 19.82073    120.6 8.813e+03 2.493e-10
 19.83800    120.5 8.972e+03 2.938e-10
 19.84929    120.7 8.991e+03 2.762e-10
 19.86587    120.4 9.261e+03 3.505e-10
 19.88017    119.5 1.014e+04 5.665e-10
 19.89145    119.7 1.002e+04 5.572e-10
 19.91101    118.7 1.121e+04 9.977e-10
 19.93359    118.4 1.226e+04 1.796e-09
 19.95322    118.1 1.369e+04 3.089e-09
 19.96451    118.9 1.324e+04 2.970e-09
 19.97873    118.8 1.435e+04 4.325e-09
 19.99539    118.6 1.524e+04 5.410e-09
 20.00667    119.1 1.484e+04 4.825e-09
 20.02387    118.1 1.520e+04 4.853e-09
 20.03756    116.8 1.525e+04 4.739e-09
 20.04884    116.9 1.470e+04 4.136e-09
 20.06844    115.3 1.459e+04 3.768e-09
 20.07972    115.4 1.403e+04 3.290e-09
 20.09158    113.8 1.385e+04 3.026e-09
 20.10815    112.5 1.366e+04 2.732e-09
 20.11589    112.4 1.389e+04 2.862e-09
 20.12189    112.7 1.339e+04 2.576e-09
 20.13673    111.6 1.350e+04 2.434e-09
 20.15277    110.4 1.352e+04 2.280e-09
 20.16406    111.1 1.324e+04 2.108e-09
 20.18187    110.1 1.323e+04 1.988e-09
 20.19494    109.3 1.310e+04 1.943e-09
 20.20623    110.1 1.296e+04 1.722e-09
 20.22583    109.5 1.284e+04 1.708e-09
 20.23711    110.2 1.269e+04 1.499e-09
 20.24958    109.8 1.260e+04 1.488e-09
 20.26799    109.8 1.251e+04 1.461e-09
 20.27928    110.4 1.239e+04 1.303e-09
 20.29472    110.7 1.232e+04 1.279e-09
 20.31016    111.0 1.224e+04 1.208e-09
 20.32145    111.6 1.216e+04 1.134e-09
 20.33987    112.1 1.208e+04 1.062e-09
 20.35233    112.6 1.199e+04 9.492e-10
 20.36361    113.4 1.197e+04 9.455e-10
 20.38321    114.0 1.190e+04 8.449e-10
 20.39450    114.8 1.189e+04 8.563e-10
 20.40758    115.4 1.185e+04 7.695e-10
 20.42538    116.1 1.178e+04 6.701e-10
 20.43667    116.9 1.184e+04 7.233e-10
 20.45272    117.6 1.179e+04 6.367e-10
 20.46755    118.3 1.169e+04 5.504e-10
 20.47372    119.1 1.182e+04 6.221e-10
 20.48147    119.4 1.211e+04 7.726e-10
 20.49786    119.9 1.196e+04 6.254e-10
 20.50972    120.6 1.170e+04 5.166e-10
 20.52100    121.5 1.195e+04 6.061e-10
 20.54060    122.0 1.169e+04 5.076e-10
 20.55188    123.0 1.195e+04 5.991e-10
 20.56558    123.5 1.171e+04 5.219e-10
 20.58277    124.0 1.147e+04 4.867e-10
 20.59405    124.9 1.174e+04 5.460e-10
 20.61072    125.4 1.155e+04 5.369e-10
 20.62493    125.9 1.155e+04 5.411e-10
 20.63622    126.6 1.172e+04 6.043e-10
 20.65582    127.3 1.172e+04 6.214e-10
 20.67839    128.4 1.191e+04 7.225e-10
 20.69799    128.8 1.201e+04 7.752e-10
 20.70927    129.3 1.215e+04 8.542e-10
 20.72358    129.6 1.229e+04 9.129e-10
 20.74015    130.1 1.243e+04 9.360e-10
 20.75144    130.3 1.257e+04 1.009e-09
 20.76872    130.5 1.262e+04 1.006e-09
 20.78232    130.9 1.261e+04 9.742e-10
 20.79361    130.8 1.271e+04 1.027e-09
 20.81320    130.9 1.261e+04 9.591e-10
 20.82449    130.7 1.270e+04 9.891e-10
 20.83221    131.0 1.249e+04 8.859e-10
 20.84350    131.5 1.279e+04 9.588e-10
 20.85537    131.5 1.262e+04 8.757e-10
 20.86666    131.3 1.281e+04 8.920e-10
 20.88635    131.0 1.245e+04 8.298e-10
 20.90892    129.9 1.262e+04 8.912e-10
 20.92672    129.4 1.259e+04 8.998e-10
 20.93971    128.7 1.281e+04 9.474e-10
 20.95099    127.8 1.272e+04 1.002e-09
 20.97059    127.3 1.301e+04 1.174e-09
 20.98188    126.9 1.288e+04 1.213e-09
 20.99443    126.8 1.317e+04 1.416e-09
 21.01276    126.7 1.347e+04 1.671e-09
 21.02404    126.4 1.323e+04 1.537e-09
 21.03957    126.4 1.350e+04 1.743e-09
 21.05493    126.4 1.373e+04 1.972e-09
 21.06621    126.1 1.349e+04 1.751e-09
 21.08471    126.1 1.365e+04 1.895e-09
 21.09709    126.1 1.365e+04 1.909e-09
 21.10838    125.7 1.338e+04 1.677e-09
 21.12798    125.7 1.330e+04 1.638e-09
 21.13926    125.4 1.305e+04 1.487e-09
 21.15243    125.5 1.289e+04 1.401e-09
 21.17015    125.5 1.269e+04 1.285e-09
 21.18143    125.3 1.261e+04 1.281e-09
 21.19425    125.4 1.248e+04 1.206e-09
 21.20553    125.3 1.244e+04 1.173e-09
 21.21231    125.3 1.233e+04 1.107e-09
 21.22360    125.2 1.241e+04 1.150e-09
 21.24271    125.2 1.242e+04 1.146e-09
 21.25448    125.1 1.244e+04 1.140e-09
 21.26577    124.9 1.248e+04 1.136e-09
 21.28536    124.7 1.247e+04 1.124e-09
 21.29665    124.4 1.241e+04 1.071e-09
 21.31043    124.1 1.236e+04 1.019e-09
 21.32753    123.7 1.233e+04 9.304e-10
 21.33882    123.2 1.211e+04 8.125e-10
 21.35557    122.1 1.211e+04 7.250e-10
 21.36970    120.3 1.215e+04 7.154e-10
 21.38099    120.3 1.183e+04 6.986e-10
 21.40058    118.0 1.207e+04 7.322e-10
 21.41187    118.7 1.203e+04 7.334e-10
 21.42328    116.3 1.255e+04 8.746e-10
 21.44275    113.9 1.299e+04 1.171e-09
 21.45404    114.9 1.324e+04 1.247e-09
 21.46842    112.8 1.344e+04 1.697e-09
 21.48492    111.4 1.336e+04 1.796e-09
 21.49620    112.1 1.382e+04 2.356e-09
 21.51357    111.0 1.374e+04 2.279e-09
 21.52709    110.2 1.341e+04 1.879e-09
 21.53837    111.1 1.430e+04 2.876e-09
 21.55628    110.0 1.373e+04 1.884e-09
 21.56682    109.2 1.356e+04 1.542e-09
 21.56926    110.1 1.488e+04 2.612e-09
 21.58128    107.9 1.379e+04 1.283e-09
 21.60014    105.6 1.209e+04 6.714e-10
 21.61142    106.1 1.309e+04 8.555e-10
 21.62642    104.2 1.174e+04 6.359e-10
 21.66038    105.3 1.110e+04 5.047e-10
 21.68467    106.5 1.046e+04 3.634e-10
 21.70724    106.5 1.044e+04 3.540e-10
 21.74643    108.8 1.013e+04 2.632e-10
 21.76901    108.8 1.008e+04 2.449e-10
 21.79590    111.3 9.954e+03 2.024e-10
 21.83077    113.6 9.829e+03 1.760e-10
 21.85334    114.2 9.829e+03 1.749e-10
 21.88619    116.7 9.757e+03 1.709e-10
 21.91511    119.0 9.705e+03 1.691e-10
 21.92485    119.9 9.815e+03 1.831e-10
 21.94108    119.7 1.010e+04 2.454e-10
 21.97647    122.0 1.016e+04 2.651e-10
 21.99944    124.2 1.020e+04 2.631e-10
 22.02201    125.1 1.042e+04 3.424e-10
 22.06121    127.0 1.042e+04 3.384e-10
 22.08378    127.8 1.058e+04 3.916e-10
 22.11190    129.5 1.057e+04 3.813e-10
 22.14554    131.0 1.051e+04 3.473e-10
 22.16811    131.5 1.069e+04 3.946e-10
 22.20218    133.0 1.060e+04 3.551e-10
 22.22988    134.6 1.053e+04 3.315e-10
 22.25245    134.6 1.069e+04 3.393e-10
 22.29164    136.2 1.071e+04 3.363e-10
 22.31422    135.9 1.073e+04 3.351e-10
 22.33761    137.2 1.076e+04 3.417e-10
 22.37137    137.8 1.074e+04 3.523e-10
 22.38707    138.7 1.080e+04 3.817e-10
 22.39836    138.5 1.075e+04 3.598e-10
 22.41641    139.4 1.084e+04 3.925e-10
 22.42924    140.1 1.093e+04 4.319e-10
 22.44053    139.9 1.082e+04 3.943e-10
 22.46012    140.6 1.090e+04 4.254e-10
 22.47141    140.3 1.080e+04 3.896e-10
 22.48413    141.0 1.086e+04 4.139e-10
 22.50229    141.7 1.092e+04 4.441e-10
 22.51358    141.5 1.082e+04 4.041e-10
 22.52927    142.2 1.086e+04 4.222e-10
 22.54446    142.8 1.088e+04 4.433e-10
 22.55574    142.7 1.078e+04 4.039e-10
 22.57441    143.4 1.077e+04 4.061e-10
 22.58663    144.0 1.075e+04 4.081e-10
 22.59791    144.0 1.068e+04 3.907e-10
 22.61751    144.6 1.061e+04 3.787e-10
 22.62879    144.6 1.061e+04 3.776e-10
 22.64212    145.4 1.053e+04 3.613e-10
 22.65366    146.0 1.049e+04 3.529e-10
 22.66504    145.7 1.032e+04 3.108e-10
 22.69075    147.1 1.032e+04 3.136e-10
 22.71333    148.0 1.034e+04 3.176e-10
 22.74389    149.5 1.033e+04 3.242e-10
 22.77499    151.0 1.038e+04 3.568e-10
 22.78618    151.4 1.041e+04 3.614e-10
 22.80012    152.5 1.050e+04 4.026e-10
 22.81706    153.6 1.065e+04 4.613e-10
 22.82835    153.9 1.070e+04 4.729e-10
 22.84527    154.9 1.086e+04 5.415e-10
 22.85923    155.9 1.105e+04 6.251e-10
 22.87052    156.1 1.106e+04 6.326e-10
 22.89011    157.1 1.124e+04 7.213e-10
 22.90140    157.2 1.122e+04 7.212e-10
 22.91298    158.0 1.139e+04 8.111e-10
 22.93228    158.8 1.166e+04 9.336e-10
 22.94357    158.6 1.157e+04 8.975e-10
 22.95812    159.2 1.181e+04 1.005e-09
 22.97445    159.8 1.206e+04 1.126e-09
 22.98574    159.1 1.199e+04 1.109e-09
 23.00326    159.4 1.217e+04 1.225e-09
 23.01569    159.5 1.265e+04 1.515e-09
 23.01776    159.1 1.225e+04 1.408e-09
 23.02790    158.0 1.222e+04 1.387e-09
 23.04750    156.7 1.297e+04 1.862e-09
 23.05879    155.8 1.303e+04 1.903e-09
 23.07098    152.8 1.450e+04 3.031e-09
 23.08786    150.6 1.545e+04 4.126e-09
 23.09521    148.7 1.638e+04 5.508e-09
 23.10086    148.5 1.641e+04 5.718e-09
 23.11038    146.7 1.755e+04 8.250e-09
 23.11630    144.7 1.883e+04 1.287e-08
 23.12194    145.1 1.869e+04 1.256e-08
 23.13174    143.3 1.989e+04 1.961e-08
 23.13738    143.6 1.977e+04 1.869e-08
 23.14424    142.1 2.091e+04 2.808e-08
 23.15282    140.4 2.195e+04 3.724e-08
 23.15847    140.6 2.190e+04 3.657e-08
 23.16681    138.8 2.256e+04 4.188e-08
 23.17391    136.9 2.257e+04 4.087e-08
 23.17955    137.1 2.269e+04 4.532e-08
 23.18935    135.4 2.256e+04 4.303e-08
 23.19658    134.1 2.253e+04 4.541e-08
 23.20225    135.1 2.261e+04 4.826e-08
 23.21043    133.3 2.223e+04 3.856e-08
 23.21608    133.6 2.263e+04 5.321e-08
 23.22323    131.7 2.210e+04 3.930e-08
 23.23152    129.7 2.129e+04 2.760e-08
 23.23716    130.0 2.207e+04 3.584e-08
 23.24581    128.1 2.111e+04 2.499e-08
 23.25260    126.5 2.018e+04 1.817e-08
 23.25824    126.3 2.059e+04 1.952e-08
 23.27407    123.2 1.898e+04 1.124e-08
 23.28922    119.5 1.715e+04 7.361e-09
 23.30051    118.4 1.692e+04 6.979e-09
 23.31926    114.6 1.688e+04 7.131e-09
 23.33139    110.0 1.800e+04 9.218e-09
 23.34268    107.0 1.916e+04 1.234e-08
 23.36227    103.3 1.991e+04 1.894e-08
 23.37356    100.6 1.984e+04 1.903e-08
 23.37772     98.1 1.943e+04 1.817e-08
 23.38901     99.8 1.922e+04 1.734e-08
 23.40444     99.4 1.809e+04 1.365e-08
 23.41573     98.0 1.743e+04 1.050e-08
 23.43212     96.8 1.634e+04 4.951e-09
 23.44661     92.7 1.490e+04 1.846e-09
 23.45790     87.3 1.364e+04 1.180e-09
 23.47726     79.3 1.065e+04 6.140e-10
 23.48888     78.4 1.028e+04 6.293e-10
 23.51155     75.8 1.009e+04 6.987e-10
 23.55074     76.0 1.037e+04 8.382e-10
 23.57331     75.0 1.035e+04 8.078e-10
 23.60159     75.2 1.078e+04 9.610e-10
 23.63508     75.1 1.100e+04 1.061e-09
 23.65765     74.0 1.070e+04 8.891e-10
 23.69188     74.4 1.100e+04 1.080e-09
 23.71941     75.2 1.102e+04 1.105e-09
 23.74198     74.8 1.094e+04 1.077e-09
 23.78118     76.0 1.087e+04 1.030e-09
 23.80375     75.8 1.060e+04 9.026e-10
 23.82731     77.1 1.045e+04 8.156e-10
 23.86107     77.9 1.020e+04 7.201e-10
 23.87660     78.6 1.015e+04 6.993e-10
 23.88799     78.4 9.846e+03 5.283e-10
 23.90621     79.3 9.835e+03 5.389e-10
 23.91877     80.0 9.893e+03 5.643e-10
 23.93006     80.0 9.595e+03 4.417e-10
 23.94965     80.7 9.688e+03 4.646e-10
 23.96094     80.6 9.294e+03 3.070e-10
 23.97382     81.2 9.519e+03 3.506e-10
 23.99182     81.5 9.982e+03 4.474e-10
 24.00311     81.4 9.329e+03 2.693e-10
 24.01897     81.4 9.900e+03 3.567e-10
 24.03399     81.3 1.053e+04 5.362e-10
 24.04528     81.0 9.811e+03 3.365e-10
 24.06411     81.0 1.034e+04 5.068e-10
 24.07616     81.2 1.086e+04 7.615e-10
 24.08744     81.0 1.030e+04 5.504e-10
 24.10179     81.3 1.082e+04 8.054e-10
 24.11086     81.6 1.070e+04 7.316e-10
 24.11833     81.7 1.039e+04 5.937e-10
 24.13182     82.1 1.091e+04 8.442e-10
 24.14921     82.5 1.141e+04 1.083e-09
 24.16049     82.8 1.114e+04 9.309e-10
 24.17696     83.0 1.150e+04 9.966e-10
 24.19138     82.6 1.150e+04 9.841e-10
 24.20266     83.1 1.137e+04 8.760e-10
 24.22211     82.5 1.128e+04 7.911e-10
 24.23354     81.5 1.103e+04 7.086e-10
 24.24483     81.8 1.109e+04 6.712e-10
 24.26443     80.6 1.079e+04 6.126e-10
 24.27571     80.8 1.087e+04 6.219e-10
 24.28982     79.7 1.068e+04 6.092e-10
 24.30659     78.9 1.069e+04 6.133e-10
 24.31788     78.7 1.080e+04 6.436e-10
 24.33496     78.0 1.086e+04 6.614e-10
 24.34876     77.5 1.100e+04 6.826e-10
 24.36005     77.1 1.117e+04 7.566e-10
 24.37965     76.8 1.130e+04 7.697e-10
 24.39093     76.3 1.149e+04 9.180e-10
 24.40268     76.3 1.150e+04 9.024e-10
 24.42181     76.4 1.149e+04 8.823e-10
 24.43310     76.2 1.183e+04 1.085e-09
 24.44782     76.5 1.160e+04 1.063e-09
 24.46382     76.8 1.158e+04 1.069e-09
 24.46870     76.2 1.206e+04 1.326e-09
 24.47527     74.7 1.459e+04 2.270e-09
 24.49296     73.8 1.468e+04 2.534e-09
 24.50615     71.9 1.543e+04 3.923e-09
 24.51744     71.0 1.726e+04 6.198e-09
 24.53703     70.1 1.759e+04 1.007e-08
 24.54832     70.3 1.928e+04 1.301e-08
 24.55498     70.1 1.930e+04 1.630e-08
 24.56366     70.3 1.973e+04 2.188e-08
 24.56930     70.1 1.982e+04 2.139e-08
 24.57750     70.3 2.008e+04 2.824e-08
 24.58475     70.5 2.008e+04 3.199e-08
 24.59044     70.0 2.023e+04 2.397e-08
 24.60582     70.2 2.007e+04 2.448e-08
 24.62137     69.8 1.961e+04 2.069e-08
 24.63265     68.3 1.898e+04 1.437e-08
 24.65096     68.4 1.778e+04 1.068e-08
 24.66354     68.4 1.668e+04 6.752e-09
 24.67482     67.8 1.591e+04 5.235e-09
 24.69442     67.6 1.541e+04 3.530e-09
 24.70570     67.5 1.491e+04 2.824e-09
 24.71867     66.8 1.438e+04 1.988e-09
 24.73659     65.8 1.377e+04 1.800e-09
 24.74787     66.5 1.329e+04 1.339e-09
 24.76381     66.0 1.298e+04 1.191e-09
 24.77876     65.5 1.360e+04 1.514e-09
 24.79004     66.7 1.271e+04 9.654e-10
 24.80896     66.7 1.321e+04 1.137e-09
 24.82092     67.0 1.432e+04 1.836e-09
 24.82653     67.7 1.326e+04 1.091e-09
 24.83714     67.7 1.337e+04 1.110e-09
 24.85181     68.1 1.419e+04 1.573e-09
 24.86309     68.1 1.386e+04 1.358e-09
 24.87667     68.6 1.439e+04 1.736e-09
 24.89397     69.3 1.492e+04 2.351e-09
 24.90526     68.1 1.592e+04 2.681e-09
 24.92181     68.9 1.686e+04 3.335e-09
 24.93609     69.0 1.772e+04 4.068e-09
 24.94169     66.1 2.026e+04 5.692e-09
 24.94993     65.6 2.158e+04 6.905e-09
 24.95713     65.1 2.304e+04 8.148e-09
 24.96277     63.1 2.216e+04 1.262e-08
 24.97250     63.0 2.304e+04 1.470e-08
 24.97821     62.9 2.493e+04 1.703e-08
 24.98386     64.0 2.167e+04 2.807e-08
 24.99365     63.4 2.347e+04 2.960e-08
 24.99930     64.6 2.047e+04 4.199e-08
 25.00636     63.8 2.133e+04 4.020e-08
 25.01241     62.7 2.296e+04 3.587e-08
 25.01515     62.7 2.275e+04 3.388e-08
 25.02038     63.7 2.139e+04 3.465e-08
 25.02893     61.8 2.318e+04 3.347e-08
 25.03582     59.1 2.549e+04 3.490e-08
 25.04146     59.1 2.366e+04 3.245e-08
 25.05126     55.8 2.525e+04 3.807e-08
 25.05691     55.7 2.397e+04 2.993e-08
 25.06278     51.8 2.509e+04 4.491e-08
 25.07235     49.2 2.435e+04 6.878e-08
 25.07799     47.3 2.428e+04 5.855e-08
 25.08536     47.7 2.243e+04 1.124e-07
 25.09343     49.3 2.140e+04 2.171e-07
 25.09907     48.5 2.145e+04 2.164e-07
 25.10793     49.6 2.144e+04 3.014e-07
 25.11452     49.8 2.138e+04 2.701e-07
 25.12016     49.6 2.130e+04 2.353e-07
 25.12996     50.4 2.129e+04 1.553e-07
 25.13560     50.5 2.165e+04 1.020e-07
 25.14178     50.0 2.203e+04 6.052e-08
 25.15104     48.3 2.240e+04 3.388e-08
 25.15668     48.0 2.305e+04 2.490e-08
 25.16653     45.4 2.124e+04 1.575e-08
 25.17786     46.1 2.147e+04 1.111e-08
 25.18788     44.6 1.921e+04 8.334e-09
 25.19917     45.1 2.043e+04 9.920e-09
 25.20875     44.5 1.872e+04 7.456e-09
 25.22003     46.8 1.923e+04 6.302e-09
 25.23781     46.3 1.769e+04 5.633e-09
 25.25092     46.2 1.644e+04 5.143e-09
 25.26220     47.9 1.702e+04 4.111e-09
 25.28180     47.8 1.606e+04 4.235e-09
 25.29308     49.3 1.602e+04 2.898e-09
 25.30552     49.4 1.545e+04 3.167e-09
 25.32397     49.9 1.508e+04 3.289e-09
 25.33525     50.9 1.462e+04 2.308e-09
 25.35066     51.5 1.438e+04 2.298e-09
 25.36613     51.9 1.406e+04 2.208e-09
 25.37742     52.7 1.362e+04 1.628e-09
 25.40719     53.8 1.318e+04 1.362e-09
 25.43928     54.2 1.282e+04 1.288e-09
 25.45047     55.7 1.240e+04 1.107e-09
 25.46352     55.9 1.221e+04 1.036e-09
 25.48135     55.8 1.219e+04 1.055e-09
 25.49264     57.5 1.183e+04 8.458e-10
 25.50866     57.1 1.184e+04 8.775e-10
 25.52352     56.8 1.185e+04 9.634e-10
 25.53481     58.2 1.156e+04 7.464e-10
 25.54991     57.7 1.165e+04 8.493e-10
 25.56120     56.7 1.144e+04 7.576e-10
 25.56569     56.1 1.190e+04 9.988e-10
 25.57697     56.3 1.137e+04 7.797e-10
 25.59657     55.5 1.232e+04 1.123e-09
 25.60786     55.5 1.155e+04 1.058e-09
 25.62152     54.5 1.329e+04 1.597e-09
 25.63874     50.0 1.941e+04 5.538e-09
 25.65003     52.9 1.655e+04 2.729e-09
 25.66666     45.6 2.274e+04 9.989e-09
 25.68086     42.5 2.282e+04 1.887e-08
 25.69214     42.5 2.294e+04 1.526e-08
 25.71179     39.1 1.991e+04 2.258e-08
 25.73436     37.6 1.888e+04 1.644e-08
 25.75396     36.1 1.757e+04 9.432e-09
 25.76524     35.3 1.823e+04 1.226e-08
 25.77952     33.2 1.663e+04 6.071e-09
 25.79613     30.5 1.499e+04 2.304e-09
 25.80741     31.9 1.547e+04 4.370e-09
 25.82466     30.1 1.405e+04 1.636e-09
 25.83829     27.6 1.150e+04 6.656e-10
 25.84958     29.3 1.277e+04 1.143e-09
 25.86918     27.6 1.072e+04 5.720e-10
 25.88046     28.2 1.135e+04 7.805e-10
 25.89237     28.1 1.051e+04 5.316e-10
 25.91134     29.2 1.022e+04 4.136e-10
 25.91963     29.5 1.042e+04 4.800e-10
 25.92323     29.4 1.044e+04 5.059e-10
 25.93751     30.2 1.032e+04 4.051e-10
 25.95351     31.0 1.019e+04 3.449e-10
 25.96480     31.4 1.027e+04 3.740e-10
 25.98266     32.0 1.015e+04 3.204e-10
 25.99568     32.5 1.007e+04 3.106e-10
 26.00697     33.0 1.015e+04 3.319e-10
 26.02656     33.4 1.031e+04 3.648e-10
 26.03785     33.7 1.040e+04 4.033e-10
 26.05037     34.1 1.046e+04 4.914e-10
 26.06873     35.0 1.044e+04 6.138e-10
 26.08002     35.4 1.055e+04 7.265e-10
 26.09551     36.5 1.077e+04 8.549e-10
 26.11090     38.0 1.100e+04 1.019e-09
 26.12219     38.5 1.120e+04 1.207e-09
 26.14065     39.9 1.143e+04 1.279e-09
 26.15307     41.0 1.183e+04 1.255e-09
 26.16435     41.6 1.198e+04 1.504e-09
 26.18395     42.0 1.204e+04 1.368e-09
 26.19524     42.4 1.235e+04 1.719e-09
 26.20837     41.6 1.271e+04 1.708e-09
 26.22612     40.7 1.283e+04 1.697e-09
 26.23740     40.9 1.329e+04 2.334e-09
 26.25351     40.5 1.309e+04 2.287e-09
 26.26829     41.1 1.309e+04 2.325e-09
 26.27747     42.7 1.398e+04 3.493e-09
 26.28526     42.6 1.436e+04 4.454e-09
 26.29865     42.2 1.481e+04 3.768e-09
 26.31041     38.3 1.668e+04 4.210e-09
 26.31600     38.8 1.729e+04 4.750e-09
 26.32580     34.6 1.910e+04 5.981e-09
 26.33144     34.1 2.056e+04 7.545e-09
 26.33805     29.5 2.029e+04 9.712e-09
 26.34688     26.7 1.946e+04 1.262e-08
 26.35252     26.4 1.994e+04 1.562e-08
 26.36063     25.4 1.942e+04 2.033e-08
 26.36797     25.0 1.901e+04 2.451e-08
 26.37361     25.0 1.947e+04 3.050e-08
 26.38320     26.2 2.010e+04 3.647e-08
 26.38905     25.9 1.976e+04 3.530e-08
 26.39469     25.8 1.988e+04 3.626e-08
 26.40449     27.0 1.906e+04 2.474e-08
 26.41013     27.1 1.881e+04 2.256e-08
 26.41705     28.0 1.845e+04 1.450e-08
 26.42558     27.4 1.741e+04 8.364e-09
 26.43122     26.8 1.716e+04 7.112e-09
 26.43963     26.1 1.720e+04 4.358e-09
 26.45651     16.6 1.266e+04 1.421e-09
 26.47913     11.6 9.812e+03 6.876e-10
 26.49872     11.1 9.465e+03 5.997e-10
 26.51001     11.2 9.587e+03 6.524e-10
 26.52436     11.0 9.360e+03 5.972e-10
 26.54089     11.2 9.194e+03 5.603e-10
 26.55218     11.3 9.268e+03 5.979e-10
 26.56951     11.8 9.168e+03 5.611e-10
 26.58306     12.3 9.100e+03 5.198e-10
 26.59435     12.5 9.173e+03 5.441e-10
 26.61404     12.8 9.079e+03 4.607e-10
 26.63671     13.3 9.149e+03 4.643e-10
 26.67127     13.8 9.006e+03 4.088e-10
 26.69847     14.2 8.800e+03 3.536e-10
 26.72105     15.2 8.949e+03 3.751e-10
 26.76024     15.7 8.865e+03 3.570e-10
 26.78281     16.5 8.879e+03 3.626e-10
 26.79532     16.6 8.746e+03 3.481e-10
 26.81350     16.8 8.755e+03 3.611e-10
 26.82478     17.3 8.755e+03 3.698e-10
 26.84036     16.9 9.171e+03 4.491e-10
 26.85567     11.7 1.230e+04 8.988e-10
 26.86695      8.8 1.393e+04 1.608e-09
 26.88550      5.2 1.548e+04 4.248e-09
 26.89778      4.3 1.593e+04 6.835e-09
 26.90338      4.1 1.640e+04 8.338e-09
 26.91318      4.1 1.683e+04 1.050e-08
 26.91882      4.2 1.738e+04 1.290e-08
 26.92491      4.7 1.778e+04 1.439e-08
 26.93426      5.0 1.789e+04 1.469e-08
 26.93990      5.4 1.829e+04 1.750e-08
 26.94748      5.8 1.831e+04 1.428e-08
 26.95535      5.9 1.829e+04 1.001e-08
 26.96099      6.3 1.912e+04 1.003e-08
 26.97005      3.5 1.902e+04 6.009e-09
 26.97643      0.1 1.790e+04 3.653e-09
 26.98207     -3.1 1.750e+04 2.685e-09
 26.99799    -10.2 1.353e+04 1.342e-09
 27.00933     -7.9 1.531e+04 1.705e-09
 27.01305    -14.0 1.115e+04 1.005e-09
 27.02434    -14.7 1.113e+04 1.014e-09
 27.04350    -14.5 1.080e+04 9.427e-10
 27.05522    -13.9 1.079e+04 9.440e-10
 27.06651    -13.9 1.085e+04 9.300e-10
 27.08610    -13.5 1.083e+04 9.309e-10
 27.09739    -13.6 1.088e+04 9.074e-10
 27.11121    -13.2 1.087e+04 9.073e-10
 27.12827    -13.1 1.104e+04 9.642e-10
 27.13956    -13.4 1.119e+04 9.837e-10
 27.15636    -14.3 1.189e+04 1.218e-09
 27.17044    -15.5 1.275e+04 1.637e-09
 27.18172    -16.1 1.357e+04 1.890e-09
 27.20132    -17.2 1.436e+04 2.599e-09
 27.21261    -17.4 1.515e+04 2.958e-09
 27.22407    -18.3 1.546e+04 3.610e-09
 27.24349    -19.5 1.552e+04 3.841e-09
 27.25478    -20.0 1.572e+04 3.848e-09
 27.26921    -21.5 1.532e+04 3.822e-09
 27.28566    -23.0 1.474e+04 3.472e-09
 27.29694    -23.6 1.464e+04 3.422e-09
 27.31436    -24.9 1.415e+04 3.207e-09
 27.32783    -25.8 1.373e+04 3.029e-09
 27.33911    -26.0 1.374e+04 3.080e-09
 27.35871    -26.2 1.333e+04 2.826e-09
 27.36999    -26.3 1.328e+04 2.798e-09
 27.37136    -26.3 1.276e+04 2.288e-09
 27.38264    -26.2 1.299e+04 2.713e-09
 27.40088    -26.2 1.234e+04 2.030e-09
 27.41216    -26.2 1.207e+04 1.804e-09
 27.42721    -26.4 1.144e+04 1.351e-09
 27.44304    -26.6 1.088e+04 1.033e-09
 27.45433    -26.8 1.061e+04 9.193e-10
 27.47235    -26.9 1.017e+04 7.229e-10
 27.48521    -26.7 9.824e+03 5.849e-10
 27.49650    -27.1 9.684e+03 5.432e-10
 27.51609    -27.1 9.410e+03 4.569e-10
 27.52738    -27.5 9.316e+03 4.420e-10
 27.54007    -27.4 9.117e+03 3.961e-10
 27.55826    -27.2 9.025e+03 3.760e-10
 27.56955    -27.6 9.039e+03 3.863e-10
 27.58521    -27.2 9.033e+03 3.842e-10
 27.60043    -26.8 9.096e+03 3.982e-10
 27.61172    -27.1 9.207e+03 4.383e-10
 27.63035    -26.7 9.339e+03 4.824e-10
 27.64260    -26.1 9.492e+03 5.389e-10
 27.65388    -26.3 9.593e+03 5.735e-10
 27.67348    -25.6 9.773e+03 6.362e-10
 27.68477    -25.9 9.777e+03 6.335e-10
 27.69807    -25.2 9.957e+03 6.997e-10
 27.71565    -24.3 1.016e+04 7.759e-10
 27.72694    -24.5 1.001e+04 7.075e-10
 27.73339    -23.7 1.015e+04 7.602e-10
 27.74468    -23.4 1.001e+04 7.163e-10
 27.75782    -22.5 1.013e+04 7.621e-10
 27.76910    -22.7 9.854e+03 6.505e-10
 27.78835    -21.7 9.938e+03 6.764e-10
 27.79999    -20.7 1.003e+04 7.028e-10
 27.81127    -20.8 9.653e+03 5.481e-10
 27.84488    -19.7 9.672e+03 5.377e-10
 27.87323    -17.6 9.844e+03 5.764e-10
 27.89580    -17.6 9.214e+03 3.957e-10
 27.93500    -15.7 9.573e+03 4.667e-10
 27.95757    -15.6 9.203e+03 3.526e-10
 27.96902    -14.8 9.612e+03 4.520e-10
 27.98826    -13.9 9.916e+03 5.449e-10
 27.99954    -13.8 9.937e+03 5.476e-10
 28.01406    -12.9 1.030e+04 6.809e-10
 28.03042    -11.9 1.069e+04 8.325e-10
 28.04171    -12.0 1.089e+04 8.940e-10
 28.05920    -11.1 1.135e+04 1.102e-09
 28.07259    -10.5 1.169e+04 1.314e-09
 28.08388    -10.4 1.190e+04 1.505e-09
 28.09542     -8.9 1.219e+04 1.773e-09
 28.10584     -8.2 1.199e+04 1.554e-09
 28.12614     -7.2 1.265e+04 1.950e-09
 28.16097     -4.5 1.274e+04 2.008e-09
 28.18801     -1.8 1.254e+04 1.565e-09
 28.21058     -0.8 1.266e+04 1.473e-09
 28.24977      0.7 1.237e+04 9.915e-10
 28.27224      1.3 1.235e+04 9.432e-10
 28.28492      1.9 1.220e+04 8.575e-10
 28.30303      2.3 1.220e+04 8.515e-10
 28.31431      2.8 1.217e+04 8.582e-10
 28.33401      2.9 1.207e+04 9.385e-10
 28.35658      3.4 1.234e+04 1.021e-09
 28.37520      3.8 1.271e+04 1.279e-09
 28.38736      3.8 1.272e+04 1.321e-09
 28.39865      4.2 1.250e+04 1.223e-09
 28.41825      3.9 1.271e+04 1.476e-09
 28.42953      2.9 1.258e+04 1.100e-09
 28.44291     -3.9 1.548e+04 1.786e-09
 28.45745    -14.1 1.925e+04 3.363e-09
 28.46367    -12.2 2.153e+04 5.031e-09
 28.47170    -22.0 2.110e+04 6.454e-09
 28.48806    -29.5 2.043e+04 8.939e-09
 28.50258    -35.1 1.960e+04 9.251e-09
 28.50818    -37.3 1.793e+04 7.754e-09
 28.51617    -39.1 1.802e+04 6.592e-09
 28.52357    -42.5 1.721e+04 4.798e-09
 28.52921    -44.2 1.683e+04 4.080e-09
 28.53874    -47.5 1.655e+04 3.132e-09
 28.54465    -52.8 1.569e+04 2.329e-09
 28.55599    -58.3 1.577e+04 2.062e-09
 28.57563    -62.6 1.522e+04 1.869e-09
 28.58692    -69.1 1.658e+04 2.232e-09
 28.60091    -72.4 2.178e+04 2.677e-09
 28.61780    -77.4 2.750e+04 5.220e-09
 28.62909    -84.1 2.773e+04 8.299e-09
 28.63842    -83.3 2.796e+04 6.950e-09
 28.64249    -88.1 3.226e+04 1.721e-08
 28.64443    -91.0 2.913e+04 2.114e-08
 28.65160    -93.3 2.959e+04 3.254e-08
 28.65987    -94.5 2.950e+04 5.097e-08
 28.66552    -97.1 2.573e+04 5.667e-08
 28.67417    -97.4 2.504e+04 8.932e-08
 28.68096    -96.8 2.445e+04 1.382e-07
 28.68660    -97.6 2.296e+04 1.378e-07
 28.69640    -96.8 2.273e+04 2.023e-07
 28.70204    -97.0 2.295e+04 1.427e-07
 28.70803    -96.7 2.292e+04 1.815e-07
 28.71748    -96.8 2.285e+04 1.943e-07
 28.72312    -96.7 2.288e+04 9.537e-08
 28.73060    -96.1 2.255e+04 9.426e-08
 28.73857    -95.2 2.208e+04 8.166e-08
 28.74421    -94.8 2.227e+04 4.244e-08
 28.75317    -94.1 2.214e+04 3.810e-08
 28.75965    -93.4 2.192e+04 3.436e-08
 28.76529    -93.8 2.137e+04 1.945e-08
 28.77509    -93.1 2.162e+04 1.846e-08
 28.78073    -94.4 1.874e+04 9.746e-09
 28.78703    -94.0 1.898e+04 9.260e-09
 28.79618    -93.6 1.913e+04 8.866e-09
 28.80182    -94.9 1.641e+04 5.663e-09
 28.80960    -94.9 1.622e+04 5.384e-09
 28.81726    -94.9 1.601e+04 5.120e-09
 28.82146    -95.4 1.452e+04 3.699e-09
 28.83077    -97.1 1.425e+04 3.131e-09
 28.84824    -96.0 1.406e+04 3.630e-09
 28.85953    -95.4 1.330e+04 2.399e-09
 28.87177    -94.0 1.341e+04 2.858e-09
 28.89041    -92.6 1.346e+04 3.118e-09
 28.90169    -92.4 1.308e+04 1.983e-09
 28.91691    -91.4 1.308e+04 2.053e-09
 28.93258    -90.6 1.302e+04 2.049e-09
 28.94386    -91.4 1.216e+04 1.056e-09
 28.96205    -91.1 1.197e+04 1.027e-09
 28.97474    -91.4 1.189e+04 9.687e-10
 28.98603    -92.5 1.089e+04 5.787e-10
 29.00563    -93.2 1.101e+04 5.954e-10
 29.01691    -93.9 1.051e+04 4.331e-10
 29.02976    -96.6 1.133e+04 5.655e-10
 29.04779   -100.9 1.382e+04 1.032e-09
 29.05908   -100.0 1.241e+04 8.402e-10
 29.07491   -103.2 1.394e+04 1.551e-09
 29.08996   -106.1 1.554e+04 2.616e-09
 29.10125   -104.1 1.380e+04 1.925e-09
 29.12005   -106.5 1.477e+04 2.479e-09
 29.13213   -109.0 1.545e+04 2.697e-09
 29.14342   -106.9 1.424e+04 2.064e-09
 29.16301   -109.1 1.445e+04 2.079e-09
 29.17430   -107.1 1.362e+04 1.687e-09
 29.18152   -108.9 1.377e+04 1.587e-09
 29.19280   -110.8 1.426e+04 2.052e-09
 29.20518   -111.6 1.402e+04 2.087e-09
 29.21647   -109.9 1.367e+04 1.850e-09
 29.23290   -110.3 1.356e+04 1.980e-09
 29.24735   -110.4 1.355e+04 2.144e-09
 29.25863   -108.8 1.336e+04 1.974e-09
 29.27805   -108.6 1.342e+04 2.158e-09
 29.28952   -108.2 1.350e+04 2.316e-09
 29.30080   -106.8 1.324e+04 2.162e-09
 29.32040   -106.3 1.326e+04 2.270e-09
 29.33169   -104.9 1.309e+04 2.102e-09
 29.34576   -104.2 1.306e+04 2.136e-09
 29.36257   -103.5 1.298e+04 2.107e-09
 29.37385   -102.0 1.272e+04 1.903e-09
 29.39090   -101.1 1.255e+04 1.809e-09
 29.40474   -100.3 1.241e+04 1.653e-09
 29.41602    -99.1 1.217e+04 1.549e-09
 29.43562    -98.2 1.201e+04 1.400e-09
 29.44690    -97.0 1.205e+04 1.304e-09
 29.45862    -96.2 1.184e+04 1.170e-09
 29.47779    -95.2 1.162e+04 1.038e-09
 29.48907    -94.5 1.166e+04 1.038e-09
 29.50376    -93.7 1.149e+04 9.249e-10
 29.51995    -93.2 1.132e+04 8.292e-10
 29.53134    -92.1 1.160e+04 9.869e-10
 29.56038    -90.1 1.129e+04 8.420e-10
 29.59320    -88.5 1.112e+04 7.544e-10
 29.61577    -86.4 1.162e+04 9.832e-10
 29.65067    -84.9 1.155e+04 9.594e-10
 29.67754    -83.6 1.150e+04 9.386e-10
 29.70011    -81.7 1.216e+04 1.335e-09
 29.73930    -80.5 1.210e+04 1.325e-09
 29.76187    -78.7 1.280e+04 1.799e-09
 29.78609    -77.7 1.270e+04 1.742e-09
 29.82364    -76.6 1.226e+04 1.453e-09
 29.84611    -75.3 1.208e+04 1.383e-09
 29.86490    -74.5 1.176e+04 1.196e-09
 29.87690    -73.6 1.153e+04 1.070e-09
 29.88818    -73.0 1.156e+04 1.086e-09
 29.90568    -72.3 1.124e+04 9.024e-10
 29.91470    -72.0 1.084e+04 6.739e-10
 29.91906    -71.3 1.092e+04 6.960e-10
 29.93261    -70.2 1.069e+04 5.921e-10
 29.94995    -69.1 1.050e+04 5.180e-10
 29.96123    -68.6 1.058e+04 5.337e-10
 29.97775    -67.7 1.036e+04 4.525e-10
 29.99221    -66.7 1.014e+04 3.835e-10
 30.01488    -65.1 1.025e+04 4.023e-10
 30.05408    -62.4 9.805e+03 3.169e-10
 30.07665    -60.5 9.925e+03 3.317e-10
 30.10209    -57.9 9.811e+03 3.054e-10
 30.13841    -55.2 9.797e+03 3.022e-10
 30.16098    -53.4 9.958e+03 3.290e-10
 30.19237    -51.0 1.007e+04 3.620e-10
 30.22275    -49.1 1.055e+04 4.973e-10
 30.24532    -47.1 1.071e+04 5.334e-10
 30.28266    -45.5 1.133e+04 7.704e-10
 30.30708    -44.7 1.214e+04 1.123e-09
 30.31827    -42.8 1.193e+04 1.080e-09
 30.33777    -42.9 1.265e+04 1.370e-09
 30.34906    -42.0 1.277e+04 1.431e-09
 30.36146    -41.9 1.349e+04 1.838e-09
 30.37994    -45.0 1.579e+04 3.351e-09
 30.39122    -44.5 1.688e+04 4.538e-09
 30.40660    -47.6 1.917e+04 9.746e-09
 30.42211    -50.3 2.040e+04 1.591e-08
 30.42770    -49.6 2.116e+04 1.839e-08
 30.43472    -51.3 2.156e+04 2.079e-08
 30.44309    -53.6 2.155e+04 2.200e-08
 30.44874    -53.9 2.263e+04 2.981e-08
 30.45417    -55.6 2.205e+04 2.816e-08
 30.45982    -55.0 2.180e+04 3.229e-08
 30.46418    -56.5 2.109e+04 2.301e-08
 30.46982    -56.7 2.165e+04 2.662e-08
 30.47962    -59.4 2.075e+04 1.516e-08
 30.48526    -60.0 2.130e+04 1.571e-08
 30.49115    -64.2 1.938e+04 8.372e-09
 30.50070    -68.0 1.725e+04 5.472e-09
 30.50635    -69.2 1.696e+04 5.304e-09
 30.51372    -71.1 1.589e+04 4.224e-09
 30.52179    -71.7 1.550e+04 3.669e-09
 30.52743    -72.0 1.549e+04 3.639e-09
 30.53728    -72.1 1.495e+04 3.010e-09
 30.54861    -72.2 1.485e+04 2.810e-09
 30.56460    -73.1 1.322e+04 1.669e-09
 30.57949    -73.6 1.221e+04 1.180e-09
 30.59078    -73.4 1.208e+04 1.087e-09
 30.60975    -73.3 1.145e+04 8.360e-10
 30.62166    -73.0 1.087e+04 6.272e-10
 30.63028    -72.5 1.075e+04 5.990e-10
 30.64093    -72.4 1.093e+04 6.497e-10
 30.65254    -72.2 1.031e+04 4.594e-10
 30.66383    -71.6 1.025e+04 4.585e-10
 30.67746    -71.3 9.916e+03 3.621e-10
 30.69471    -71.1 9.724e+03 3.103e-10
 30.70610    -69.9 9.905e+03 3.586e-10
 30.73408    -69.1 9.444e+03 2.666e-10
 30.76796    -67.7 9.180e+03 2.095e-10
 30.79053    -65.7 9.218e+03 2.223e-10
 30.82437    -64.9 9.181e+03 2.096e-10
 30.85229    -64.3 9.186e+03 2.084e-10
 30.87487    -62.4 9.256e+03 2.313e-10
 30.91406    -62.2 9.549e+03 2.920e-10
 30.93663    -60.5 9.638e+03 3.234e-10
 30.95979    -60.3 1.015e+04 4.872e-10
 30.99840    -59.8 1.057e+04 6.689e-10
 31.02097    -58.3 1.048e+04 6.423e-10
 31.05008    -58.1 1.069e+04 7.209e-10
 31.08273    -58.2 1.073e+04 7.305e-10
 31.10530    -56.7 1.054e+04 6.594e-10
 31.14036    -56.8 1.045e+04 6.054e-10
 31.16707    -56.8 1.024e+04 5.221e-10
 31.18964    -55.6 1.016e+04 5.034e-10
 31.22883    -55.3 1.003e+04 4.739e-10
 31.25140    -54.2 9.945e+03 4.565e-10
 31.27579    -53.8 9.811e+03 4.374e-10
 31.31317    -53.2 9.626e+03 3.998e-10
 31.33574    -52.1 9.402e+03 3.464e-10
 31.35390    -51.3 9.105e+03 2.762e-10
 31.37648    -50.9 9.342e+03 3.209e-10
 31.39751    -50.1 9.095e+03 2.656e-10
 31.42008    -49.1 8.809e+03 2.091e-10
 31.45636    -48.2 8.655e+03 1.829e-10
 31.48184    -47.3 8.618e+03 1.772e-10
 31.50441    -46.3 8.378e+03 1.375e-10
 31.54361    -45.4 8.400e+03 1.399e-10
 31.56618    -44.7 8.148e+03 1.032e-10
 31.59179    -44.2 8.352e+03 1.237e-10
 31.62794    -43.9 8.604e+03 1.631e-10
 31.65051    -43.8 8.437e+03 1.413e-10
 31.68207    -43.6 8.794e+03 2.046e-10
 31.71228    -43.4 9.150e+03 2.779e-10
 31.73485    -43.5 9.152e+03 2.846e-10
 31.77236    -43.4 9.485e+03 3.608e-10
 31.79661    -43.2 9.738e+03 4.111e-10
 31.81919    -43.4 9.602e+03 3.684e-10
 31.85838    -43.1 9.653e+03 3.655e-10
 31.88095    -43.7 9.495e+03 3.087e-10
 31.90778    -43.5 9.469e+03 2.851e-10
 31.94272    -43.0 9.459e+03 2.795e-10
 31.96529    -44.0 9.367e+03 2.613e-10
 31.99807    -43.7 9.421e+03 2.648e-10
 32.02705    -44.8 1.004e+04 3.335e-10
 32.04962    -47.6 1.024e+04 3.088e-10
 32.06912    -52.6 1.146e+04 4.784e-10
 32.08031    -56.2 1.229e+04 5.647e-10
 32.08906    -60.7 1.462e+04 1.628e-09
 32.10034    -62.1 1.475e+04 1.826e-09
 32.11119    -65.3 1.662e+04 4.801e-09
 32.12248    -66.2 1.677e+04 5.745e-09
 32.14208    -67.9 1.780e+04 9.211e-09
 32.15336    -68.4 1.765e+04 8.630e-09
 32.16716    -70.5 1.774e+04 8.974e-09
 32.18424    -72.5 1.723e+04 7.069e-09
 32.19553    -73.4 1.654e+04 5.306e-09
 32.21230    -76.4 1.528e+04 3.050e-09
 32.22641    -80.0 1.427e+04 2.007e-09
 32.23770    -82.0 1.463e+04 2.555e-09
 32.25729    -84.7 1.467e+04 2.642e-09
 32.26858    -87.0 1.626e+04 5.198e-09
 32.28001    -88.4 1.749e+04 8.230e-09
 32.29946    -89.1 1.822e+04 1.136e-08
 32.31075    -89.7 1.959e+04 1.939e-08
 32.32515    -90.4 1.963e+04 1.984e-08
 32.34158    -90.8 1.904e+04 1.707e-08
 32.34718    -91.3 1.892e+04 1.610e-08
 32.35327    -91.2 1.860e+04 1.395e-08
 32.37025    -91.1 1.790e+04 1.054e-08
 32.38380    -91.0 1.651e+04 6.148e-09
 32.39508    -92.1 1.563e+04 3.790e-09
 32.41468    -92.6 1.458e+04 2.408e-09
 32.42597    -94.6 1.334e+04 1.369e-09
 32.43801    -94.7 1.258e+04 9.766e-10
 32.45109    -94.0 1.210e+04 7.558e-10
 32.45864    -92.9 1.222e+04 8.586e-10
 32.46813    -93.7 1.158e+04 6.167e-10
 32.48315    -92.8 1.145e+04 5.323e-10
 32.49902    -92.0 1.131e+04 4.599e-10
 32.51030    -92.1 1.081e+04 4.062e-10
 32.52829    -91.3 1.066e+04 3.611e-10
 32.54119    -90.7 1.053e+04 3.302e-10
 32.55247    -90.6 1.049e+04 3.290e-10
 32.57217    -90.0 1.044e+04 3.074e-10
 32.59483    -89.1 1.040e+04 3.338e-10
 32.63006    -87.8 1.033e+04 3.254e-10
 32.65660    -86.4 1.031e+04 3.283e-10
 32.67917    -86.0 1.037e+04 3.628e-10
 32.71836    -85.1 1.051e+04 4.068e-10
 32.74094    -85.0 1.050e+04 4.041e-10
 32.76549    -85.1 1.092e+04 5.248e-10
 32.80203    -85.6 1.140e+04 7.207e-10
 32.81667    -84.6 1.113e+04 6.306e-10
 32.82527    -85.7 1.123e+04 6.289e-10
 32.85577    -86.9 1.182e+04 8.490e-10
 32.88694    -89.3 1.271e+04 1.248e-09
 32.89813    -90.7 1.310e+04 1.399e-09
 32.91200    -92.7 1.426e+04 2.254e-09
 32.92901    -94.4 1.527e+04 3.642e-09
 32.94029    -95.5 1.521e+04 3.787e-09
 32.95715    -96.5 1.574e+04 4.974e-09
 32.97118    -97.5 1.603e+04 5.736e-09
 32.98246    -98.3 1.535e+04 4.410e-09
 33.00206    -99.4 1.544e+04 4.116e-09
 33.01335   -100.6 1.472e+04 2.639e-09
 33.02486   -102.8 1.442e+04 1.848e-09
 33.04423   -105.6 1.382e+04 1.250e-09
 33.05551   -107.9 1.271e+04 8.964e-10
 33.07000   -110.7 1.217e+04 8.098e-10
 33.08640   -113.1 1.204e+04 7.966e-10
 33.09768   -114.6 1.229e+04 8.981e-10
 33.11514   -116.7 1.249e+04 1.068e-09
 33.12856   -118.3 1.260e+04 1.243e-09
 33.13985   -119.3 1.307e+04 1.662e-09
 33.15945   -120.4 1.305e+04 1.701e-09
 33.17073   -121.1 1.349e+04 2.122e-09
 33.17515   -121.7 1.325e+04 1.860e-09
 33.18644   -122.6 1.401e+04 2.617e-09
 33.20161   -123.5 1.391e+04 2.146e-09
 33.21290   -124.5 1.429e+04 2.129e-09
 33.22800   -126.0 1.425e+04 1.804e-09
 33.24378   -127.3 1.417e+04 1.696e-09
 33.25507   -128.6 1.395e+04 1.804e-09
 33.27314   -129.2 1.391e+04 1.811e-09
 33.28595   -129.4 1.377e+04 1.913e-09
 33.29724   -129.6 1.355e+04 2.120e-09
 33.31683   -129.2 1.352e+04 2.223e-09
 33.32812   -128.9 1.343e+04 2.336e-09
 33.34086   -128.2 1.340e+04 2.340e-09
 33.35900   -127.3 1.320e+04 2.217e-09
 33.37029   -127.3 1.320e+04 2.182e-09
 33.38600   -126.4 1.302e+04 1.992e-09
 33.40117   -125.5 1.277e+04 1.755e-09
 33.41246   -125.6 1.267e+04 1.779e-09
 33.43114   -124.5 1.242e+04 1.543e-09
 33.44334   -123.4 1.213e+04 1.316e-09
 33.45462   -123.2 1.205e+04 1.337e-09
 33.47422   -122.1 1.180e+04 1.152e-09
 33.48551   -121.7 1.167e+04 1.120e-09
 33.49885   -120.4 1.146e+04 9.686e-10
 33.51639   -119.2 1.125e+04 8.415e-10
 33.52767   -118.7 1.091e+04 7.654e-10
 33.53719   -117.5 1.074e+04 6.716e-10
 33.54847   -118.1 1.051e+04 5.172e-10
 33.55856   -116.8 1.041e+04 4.744e-10
 33.56984   -116.2 1.015e+04 4.085e-10
 33.58914   -114.8 1.014e+04 3.839e-10
 33.60072   -113.4 1.015e+04 3.783e-10
 33.62339   -112.6 9.847e+03 2.951e-10
 33.66268   -109.7 9.890e+03 2.961e-10
 33.68526   -109.1 9.403e+03 1.945e-10
 33.71348   -106.1 9.474e+03 1.960e-10
 33.74702   -103.3 9.770e+03 2.111e-10
 33.76959   -103.0 9.197e+03 1.673e-10
 33.80376   -100.3 9.340e+03 1.735e-10
 33.83136    -97.6 1.029e+04 2.442e-10
 33.85393    -97.8 9.786e+03 2.469e-10
 33.89312    -95.0 1.066e+04 3.363e-10
 33.91569    -95.7 1.066e+04 3.741e-10
 33.93919    -93.9 1.171e+04 5.195e-10
 33.97295    -94.7 1.313e+04 8.634e-10
 33.98855    -95.2 1.497e+04 1.189e-09
 33.99983   -100.5 1.638e+04 2.681e-09
 34.01799   -101.2 1.735e+04 4.982e-09
 34.03072   -101.3 1.790e+04 8.392e-09
 34.04200   -102.2 1.778e+04 1.245e-08
 34.06160   -101.6 1.803e+04 1.413e-08
 34.07288   -102.0 1.770e+04 1.252e-08
 34.08570   -101.5 1.765e+04 1.181e-08
 34.10377   -101.0 1.712e+04 8.215e-09
 34.11505   -102.4 1.622e+04 3.799e-09
 34.13085   -103.9 1.507e+04 2.164e-09
 34.14594   -106.0 1.339e+04 1.225e-09
 34.15722   -108.8 1.091e+04 6.442e-10
 34.17599   -109.3 1.018e+04 5.006e-10
 34.18810   -109.0 9.860e+03 4.385e-10
 34.19939   -108.4 9.656e+03 3.886e-10
 34.21899   -107.8 9.607e+03 3.735e-10
 34.23027   -107.0 9.486e+03 3.327e-10
 34.24370   -106.0 9.456e+03 3.281e-10
 34.26115   -105.2 9.450e+03 3.270e-10
 34.27254   -106.1 9.329e+03 2.933e-10
 34.29223   -104.5 9.427e+03 3.009e-10
 34.31480   -102.9 9.182e+03 2.760e-10
 34.34547   -101.9 9.665e+03 3.596e-10
 34.37657   -101.5 1.153e+04 8.360e-10
 34.39914   -102.0 1.180e+04 9.080e-10
 34.41864   -100.4 1.300e+04 1.480e-09
 34.42983   -101.0 1.318e+04 1.624e-09
 34.44684   -100.4 1.444e+04 2.719e-09
 34.46071    -99.7 1.555e+04 4.274e-09
 34.47199   -100.1 1.520e+04 4.008e-09
 34.49159    -99.1 1.606e+04 5.662e-09
 34.50288    -99.2 1.470e+04 4.373e-09
 34.51456    -98.0 1.533e+04 5.247e-09
 34.53376    -96.9 1.578e+04 6.086e-09
 34.54504    -96.9 1.420e+04 3.615e-09
 34.55970    -96.0 1.458e+04 3.872e-09
 34.57593    -95.0 1.490e+04 4.193e-09
 34.58721    -96.8 1.328e+04 1.865e-09
 34.60484    -96.0 1.400e+04 2.029e-09
 34.61810    -94.8 1.512e+04 2.385e-09
 34.62525    -99.4 1.131e+04 6.990e-10
 34.63457   -101.2 9.198e+03 4.637e-10
 34.64898   -100.7 1.035e+04 5.033e-10
 34.66026   -102.5 8.439e+03 3.461e-10
 34.67255   -102.6 8.511e+03 3.536e-10
 34.69115   -103.2 9.218e+03 4.388e-10
 34.70243   -103.7 8.466e+03 4.009e-10
 34.71770   -104.2 8.563e+03 4.819e-10
 34.73331   -105.1 9.683e+03 6.628e-10
 34.74460   -104.5 9.147e+03 5.908e-10
 34.76284   -105.1 9.386e+03 7.164e-10
 34.77548   -105.5 1.049e+04 9.835e-10
 34.78677   -104.4 9.672e+03 8.091e-10
 34.80636   -104.8 1.022e+04 1.036e-09
 34.81765   -103.9 1.010e+04 9.220e-10
 34.83055   -104.8 1.077e+04 1.197e-09
 34.84853   -108.0 1.375e+04 1.934e-09
 34.85982   -107.2 1.261e+04 1.658e-09
 34.87569   -111.7 1.608e+04 3.488e-09
 34.89070   -114.5 1.845e+04 9.204e-09
 34.90199   -113.5 1.790e+04 7.762e-09
 34.92084   -114.0 1.955e+04 1.626e-08
 34.93282   -113.8 2.021e+04 2.279e-08
 34.94411   -113.6 1.919e+04 1.780e-08
 34.96375   -113.7 1.955e+04 2.084e-08
 34.97504   -113.4 1.787e+04 1.366e-08
 34.98531   -113.4 1.785e+04 1.389e-08
 34.99660   -113.3 1.794e+04 1.430e-08
 35.00592   -112.9 1.766e+04 1.391e-08
 35.01721   -112.5 1.649e+04 9.537e-09
 35.03369   -112.2 1.622e+04 8.673e-09
 35.04809   -111.7 1.570e+04 7.188e-09
 35.05937   -111.7 1.498e+04 5.602e-09
 35.07884   -111.0 1.450e+04 4.681e-09
 35.09026   -110.3 1.395e+04 3.641e-09
 35.10154   -110.0 1.342e+04 3.145e-09
 35.12114   -109.3 1.293e+04 2.434e-09
 35.13242   -108.7 1.259e+04 2.160e-09
 35.14655   -108.0 1.216e+04 1.657e-09
 35.16331   -107.3 1.170e+04 1.226e-09
 35.17459   -106.7 1.153e+04 1.158e-09
 35.19169   -106.1 1.109e+04 8.849e-10
 35.20547   -105.4 1.068e+04 6.814e-10
 35.21676   -105.0 1.061e+04 6.466e-10
 35.23636   -104.2 1.035e+04 5.288e-10
 35.24764   -103.8 1.021e+04 5.411e-10
 35.25940   -103.0 1.005e+04 4.814e-10
 35.27853   -102.1 9.980e+03 4.472e-10
 35.28981   -101.7 1.010e+04 4.713e-10
 35.30455   -100.9 1.010e+04 4.682e-10
 35.32069   -100.2 1.011e+04 4.673e-10
 35.33198   -100.0 1.028e+04 4.930e-10
 35.34735    -99.4 1.037e+04 5.283e-10
 35.35863    -98.9 1.051e+04 5.628e-10
 35.36286    -98.3 1.063e+04 6.232e-10
 35.37415    -98.0 1.068e+04 6.200e-10
 35.39374    -97.4 1.080e+04 6.853e-10
 35.40503    -97.3 1.090e+04 5.947e-10
 35.42879    -96.8 1.101e+04 6.281e-10
 35.46699    -95.8 1.129e+04 7.240e-10
 35.48956    -96.1 1.124e+04 5.535e-10
 35.51917    -95.8 1.152e+04 6.605e-10
 35.55133    -95.7 1.168e+04 8.139e-10
 35.57390    -95.9 1.127e+04 7.417e-10
 35.60945    -95.5 1.136e+04 8.419e-10
 35.63566    -95.1 1.140e+04 8.891e-10
 35.65823    -94.8 1.090e+04 5.804e-10
 35.69743    -94.3 1.076e+04 4.986e-10
 35.71855    -94.5 1.022e+04 3.002e-10
 35.72086    -94.9 1.036e+04 3.423e-10
 35.74488    -94.5 1.020e+04 2.649e-10
 35.78176    -93.9 1.001e+04 2.035e-10
 35.80433    -93.1 9.653e+03 2.028e-10
 35.83516    -92.3 9.522e+03 1.595e-10
 35.86610    -91.3 9.519e+03 1.438e-10
 35.88867    -90.1 9.459e+03 1.669e-10
 35.92545    -89.3 9.475e+03 1.638e-10
 35.95044    -88.6 9.711e+03 1.809e-10
 35.97301    -87.1 9.590e+03 2.089e-10
 36.01220    -86.5 9.830e+03 2.687e-10
 36.03477    -84.8 9.578e+03 2.530e-10
 36.06088    -84.0 9.644e+03 2.792e-10
 36.09654    -83.3 9.652e+03 2.843e-10
 36.11911    -81.5 9.354e+03 2.226e-10
 36.15116    -80.8 9.249e+03 1.977e-10
 36.18087    -80.3 9.132e+03 1.607e-10
 36.20344    -78.3 8.966e+03 1.324e-10
 36.24145    -77.8 8.879e+03 1.103e-10
 36.26521    -77.5 8.875e+03 1.019e-10
 36.28778    -75.3 8.750e+03 9.363e-11
 36.32697    -74.9 8.755e+03 9.195e-11
 36.34955    -72.5 8.708e+03 8.874e-11
 36.37687    -72.1 8.757e+03 8.931e-11
 36.41131    -71.9 8.879e+03 1.063e-10
 36.43388    -69.2 8.770e+03 8.996e-11
 36.44492    -68.9 8.813e+03 1.059e-10
 36.46749    -68.9 8.692e+03 8.975e-11
 36.49565    -68.6 8.704e+03 1.039e-10
 36.51822    -65.9 8.661e+03 8.543e-11
 36.55741    -65.5 8.654e+03 9.357e-11
 36.60255    -62.7 8.640e+03 8.275e-11
 36.64175    -62.7 8.732e+03 8.909e-11
 36.66432    -60.2 8.738e+03 8.241e-11
 36.69287    -60.8 8.936e+03 1.009e-10
 36.72608    -61.5 9.181e+03 1.457e-10
 36.74865    -59.2 9.188e+03 1.470e-10
 36.78315    -59.8 9.422e+03 2.136e-10
 36.81042    -60.3 9.587e+03 2.693e-10
 36.83299    -58.0 9.578e+03 2.672e-10
 36.87218    -58.7 9.603e+03 2.774e-10
 36.89476    -56.5 9.597e+03 2.732e-10
 36.91858    -57.2 9.469e+03 2.540e-10
 36.95652    -57.8 9.386e+03 2.390e-10
 36.97909    -55.8 9.254e+03 2.129e-10
 37.00886    -56.3 9.246e+03 2.115e-10
 37.04086    -56.6 9.283e+03 2.235e-10
 37.06343    -54.4 9.181e+03 2.010e-10
 37.09915    -54.6 9.219e+03 2.161e-10
 37.12519    -54.8 9.199e+03 2.194e-10
 37.14776    -52.5 9.145e+03 2.025e-10
 37.16899    -52.6 9.050e+03 1.978e-10
 37.18908    -52.7 9.015e+03 1.886e-10
 37.20953    -50.4 9.006e+03 1.804e-10
 37.23458    -50.4 8.839e+03 1.566e-10
 37.27129    -50.5 8.691e+03 1.272e-10
 37.29387    -48.1 8.729e+03 1.330e-10
 37.32486    -48.3 8.621e+03 1.114e-10
 37.35563    -48.6 8.556e+03 1.019e-10
 37.37820    -46.1 8.592e+03 1.058e-10
 37.41515    -46.4 8.588e+03 1.024e-10
 37.43997    -46.8 8.584e+03 1.027e-10
 37.46254    -44.2 8.622e+03 1.103e-10
 37.50173    -44.7 8.611e+03 1.116e-10
 37.52430    -42.1 8.661e+03 1.231e-10
 37.55057    -42.9 8.665e+03 1.241e-10
 37.58607    -44.1 8.756e+03 1.305e-10
 37.60864    -41.8 8.852e+03 1.459e-10
 37.64086    -43.9 9.012e+03 1.874e-10
 37.67040    -46.2 9.135e+03 2.650e-10
 37.69298    -44.3 9.357e+03 3.219e-10
 37.73114    -46.9 9.565e+03 4.316e-10
 37.75474    -50.0 9.960e+03 5.323e-10
 37.77731    -48.8 1.025e+04 6.090e-10
 37.81004    -51.5 1.092e+04 6.952e-10
 37.82760    -54.3 1.146e+04 8.147e-10
 37.83888    -55.2 1.176e+04 9.233e-10
 37.85509    -60.8 1.218e+04 1.237e-09
 37.86976    -65.3 1.241e+04 1.499e-09
 37.88105    -66.0 1.268e+04 1.678e-09
 37.89285    -70.3 1.276e+04 1.783e-09
 37.90414    -70.5 1.329e+04 2.118e-09
 37.91193    -75.2 1.326e+04 2.125e-09
 37.92322    -76.3 1.354e+04 2.351e-09
 37.94281    -81.0 1.303e+04 2.004e-09
 37.95410    -82.3 1.329e+04 2.244e-09
 37.96794    -86.8 1.263e+04 1.772e-09
 37.98498    -90.7 1.212e+04 1.449e-09
 37.99627    -91.6 1.234e+04 1.597e-09
 38.01309    -95.0 1.196e+04 1.311e-09
 38.02715    -98.0 1.159e+04 1.081e-09
 38.03844    -99.1 1.162e+04 1.077e-09
 38.05803   -101.8 1.117e+04 8.549e-10
 38.06932   -103.0 1.118e+04 8.564e-10
 38.08080   -105.3 1.075e+04 6.731e-10
 38.10020   -107.3 1.039e+04 5.223e-10
 38.11149   -108.3 1.044e+04 5.431e-10
 38.12594   -110.2 1.013e+04 4.281e-10
 38.14237   -111.7 9.977e+03 3.598e-10
 38.15365   -112.4 1.003e+04 4.028e-10
 38.17108   -113.3 1.001e+04 3.636e-10
 38.18454   -113.9 1.006e+04 3.578e-10
 38.19582   -114.9 1.013e+04 3.870e-10
 38.21552   -115.5 1.021e+04 3.689e-10
 38.22680   -116.8 1.030e+04 4.174e-10
 38.23880   -117.4 1.032e+04 4.159e-10
 38.25489   -118.0 1.042e+04 4.161e-10
 38.26239   -118.4 1.042e+04 4.145e-10
 38.26887   -120.1 1.052e+04 4.514e-10
 38.28394   -120.9 1.059e+04 4.649e-10
 38.29976   -121.7 1.065e+04 4.779e-10
 38.31104   -123.2 1.077e+04 5.140e-10
 38.32908   -123.8 1.079e+04 5.208e-10
 38.34192   -124.4 1.079e+04 5.220e-10
 38.35321   -125.9 1.094e+04 5.773e-10
 38.37281   -126.4 1.091e+04 5.741e-10
 38.38409   -128.0 1.115e+04 6.588e-10
 38.39680   -128.4 1.109e+04 6.401e-10
 38.41497   -128.6 1.105e+04 6.236e-10
 38.42626   -130.1 1.128e+04 7.365e-10
 38.44194   -130.2 1.125e+04 7.288e-10
 38.45714   -130.2 1.124e+04 7.277e-10
 38.46843   -131.8 1.148e+04 8.429e-10
 38.48708   -131.8 1.152e+04 8.558e-10
 38.49931   -131.9 1.165e+04 8.928e-10
 38.51060   -134.1 1.210e+04 1.096e-09
 38.53019   -134.2 1.233e+04 1.221e-09
 38.54148   -136.3 1.274e+04 1.544e-09
 38.55479   -136.1 1.288e+04 1.713e-09
 38.57236   -135.9 1.291e+04 1.813e-09
 38.58365   -137.5 1.285e+04 1.799e-09
 38.59994   -137.1 1.281e+04 1.799e-09
 38.61453   -136.5 1.269e+04 1.745e-09
 38.62022   -137.4 1.219e+04 1.396e-09
 38.62820   -137.8 1.218e+04 1.405e-09
 38.64508   -137.1 1.204e+04 1.274e-09
 38.65670   -136.5 1.193e+04 1.162e-09
 38.66798   -137.7 1.153e+04 7.079e-10
 38.68758   -137.2 1.149e+04 6.396e-10
 38.69887   -139.9 1.103e+04 3.515e-10
 38.71279   -139.6 1.088e+04 3.241e-10
 38.72975   -139.2 1.069e+04 3.137e-10
 38.74103   -139.8 1.050e+04 2.908e-10
 38.76073   -138.4 1.067e+04 3.149e-10
 38.78340   -140.3 9.812e+03 2.281e-10
 38.81456   -137.2 9.691e+03 2.257e-10
 38.84516   -134.6 9.700e+03 2.258e-10
 38.86773   -135.3 9.775e+03 2.319e-10
 38.90484   -132.5 9.781e+03 2.381e-10
 38.92950   -129.9 9.878e+03 2.478e-10
 38.95207   -130.2 1.006e+04 2.764e-10
 38.99126   -127.7 1.009e+04 2.815e-10
 39.01374   -127.4 1.051e+04 3.862e-10
 39.02879   -126.4 1.070e+04 4.053e-10
 39.04452   -126.0 1.100e+04 4.431e-10
 39.05581   -127.8 1.199e+04 7.778e-10
 39.07393   -127.6 1.238e+04 9.640e-10
 39.08669   -127.3 1.273e+04 1.225e-09
 39.09798   -128.5 1.364e+04 2.492e-09
 39.11757   -127.6 1.383e+04 2.910e-09
 39.12886   -127.7 1.468e+04 4.584e-09
 39.14164   -126.7 1.467e+04 4.629e-09
 39.15974   -125.7 1.450e+04 4.190e-09
 39.17103   -126.1 1.460e+04 4.054e-09
 39.18679   -125.3 1.430e+04 3.307e-09
 39.20191   -124.6 1.392e+04 2.592e-09
 39.21319   -126.0 1.373e+04 2.052e-09
 39.23193   -125.6 1.318e+04 1.550e-09
 39.24408   -125.2 1.265e+04 1.193e-09
 39.25536   -126.7 1.215e+04 1.045e-09
 39.27496   -126.1 1.176e+04 8.776e-10
 39.28624   -126.9 1.153e+04 8.653e-10
 39.29964   -126.0 1.135e+04 7.629e-10
 39.31713   -124.8 1.121e+04 6.827e-10
 39.32841   -125.4 1.127e+04 7.188e-10
 39.34098   -124.3 1.120e+04 6.690e-10
 39.35227   -124.5 1.102e+04 6.375e-10
 39.35929   -123.5 1.091e+04 5.869e-10
 39.37058   -124.0 1.088e+04 5.772e-10
 39.38993   -122.9 1.078e+04 5.344e-10
 39.40146   -121.7 1.074e+04 5.099e-10
 39.41275   -122.2 1.074e+04 5.056e-10
 39.43235   -121.1 1.073e+04 4.960e-10
 39.44363   -121.7 1.073e+04 4.963e-10
 39.45764   -120.7 1.072e+04 4.882e-10
 39.47451   -119.6 1.071e+04 4.828e-10
 39.48580   -120.2 1.073e+04 4.816e-10
 39.50278   -119.0 1.075e+04 4.730e-10
 39.51668   -117.9 1.078e+04 4.676e-10
 39.52797   -118.7 1.082e+04 4.519e-10
 39.54756   -117.7 1.088e+04 4.308e-10
 39.55895   -119.4 1.079e+04 4.025e-10
 39.58198   -117.8 1.071e+04 3.524e-10
 39.62081   -115.5 1.050e+04 2.888e-10
 39.64338   -116.5 1.007e+04 2.297e-10
 39.67226   -114.2 9.941e+03 1.833e-10
 39.70515   -111.9 9.842e+03 1.629e-10
 39.72772   -112.8 9.771e+03 1.642e-10
 39.76255   -110.7 9.712e+03 1.582e-10
 39.78948   -108.5 9.694e+03 1.575e-10
 39.81205   -109.8 1.001e+04 2.103e-10
 39.85125   -107.4 1.014e+04 2.381e-10
 39.87382   -108.9 1.100e+04 4.033e-10
 39.88659   -106.6 1.085e+04 3.962e-10
 39.90451   -105.8 1.109e+04 4.776e-10
 39.91579   -107.1 1.146e+04 5.963e-10
 39.93164   -106.0 1.166e+04 7.020e-10
 39.94667   -104.9 1.192e+04 8.224e-10
 39.95796   -106.8 1.216e+04 9.251e-10
 39.97678   -105.7 1.225e+04 1.050e-09
 39.98884   -104.3 1.230e+04 1.178e-09
 40.00013   -106.7 1.253e+04 1.186e-09
 40.01972   -107.1 1.320e+04 1.405e-09
 40.03101   -114.4 1.533e+04 1.488e-09
 40.04449   -116.9 1.613e+04 2.044e-09
 40.06189   -119.4 1.655e+04 2.830e-09
 40.07116   -123.9 1.542e+04 2.793e-09
 40.07633   -125.5 1.583e+04 3.440e-09
 40.08963   -127.0 1.617e+04 3.179e-09
 40.10406   -129.9 1.594e+04 2.510e-09
 40.11535   -134.4 1.373e+04 1.279e-09
 40.13478   -137.1 1.297e+04 9.847e-10
 40.14623   -139.3 1.237e+04 7.996e-10
 40.15751   -139.4 1.184e+04 6.382e-10
 40.17711   -140.3 1.160e+04 5.634e-10
 40.18840   -140.0 1.148e+04 4.985e-10
 40.20249   -140.3 1.131e+04 4.481e-10
 40.21928   -140.5 1.115e+04 4.019e-10
 40.23056   -139.5 1.101e+04 3.615e-10
 40.24763   -139.4 1.089e+04 3.327e-10
 40.26145   -139.2 1.082e+04 3.202e-10
 40.27283   -138.3 1.086e+04 3.191e-10
 40.30425   -137.4 1.083e+04 3.052e-10
 40.33469   -136.2 1.083e+04 3.060e-10
 40.35726   -135.1 1.067e+04 2.875e-10
 40.39454   -133.6 1.073e+04 3.041e-10
 40.41903   -132.1 1.088e+04 3.635e-10
 40.44160   -130.8 1.077e+04 3.301e-10
 40.48079   -129.2 1.086e+04 3.845e-10
 40.50337   -128.1 1.080e+04 3.501e-10
 40.52997   -126.6 1.082e+04 3.800e-10
 40.56513   -125.3 1.082e+04 4.048e-10
 40.58770   -124.3 1.077e+04 3.655e-10
 40.60720   -123.2 1.082e+04 3.757e-10
 40.61839   -123.2 1.077e+04 3.710e-10
 40.63134   -122.7 1.077e+04 3.888e-10
 40.64927   -121.6 1.085e+04 4.395e-10
 40.67194   -120.4 1.091e+04 4.470e-10
 40.69154   -119.6 1.111e+04 5.319e-10
 40.70273   -119.4 1.098e+04 4.914e-10
 40.72163   -118.5 1.111e+04 5.598e-10
 40.73361   -117.6 1.125e+04 6.342e-10
 40.75628   -116.7 1.111e+04 5.446e-10
 40.78921   -115.4 1.113e+04 5.639e-10
 40.80039   -115.9 1.123e+04 6.007e-10
 40.80666   -115.2 1.137e+04 6.661e-10
 40.81804   -115.4 1.103e+04 4.460e-10
 40.84596   -113.7 1.115e+04 4.844e-10
 40.87990   -112.1 1.124e+04 5.237e-10
 40.90248   -111.1 1.047e+04 2.733e-10
 40.93625   -109.3 1.062e+04 2.777e-10
 40.96424   -107.5 1.073e+04 3.026e-10
 40.98681   -106.4 1.007e+04 1.963e-10
 41.02601   -104.6 1.033e+04 2.224e-10
 41.04858   -103.4 1.004e+04 1.732e-10
 41.07167   -101.7 1.027e+04 2.219e-10
 41.11034    -99.8 1.046e+04 2.989e-10
 41.13291    -98.4 1.042e+04 3.071e-10
 41.16196    -96.5 1.072e+04 4.367e-10
 41.19468    -94.6 1.096e+04 5.838e-10
 41.21725    -93.3 1.101e+04 5.905e-10
 41.25224    -91.8 1.129e+04 7.296e-10
 41.27901    -90.5 1.151e+04 8.391e-10
 41.30158    -89.6 1.161e+04 8.920e-10
 41.34078    -88.5 1.170e+04 9.905e-10
 41.36335    -87.7 1.174e+04 1.028e-09
 41.38767    -86.6 1.168e+04 1.036e-09
 41.42511    -85.2 1.141e+04 9.367e-10
 41.44769    -84.6 1.135e+04 8.069e-10
 41.47796    -83.2 1.110e+04 6.454e-10
 41.50945    -82.0 1.103e+04 5.725e-10
 41.52229    -82.3 1.103e+04 5.075e-10
 41.53594    -82.8 1.105e+04 5.093e-10
 41.56824    -81.7 1.104e+04 5.097e-10
 41.59379    -80.3 1.119e+04 5.696e-10
 41.61636    -80.5 1.103e+04 4.316e-10
 41.65555    -79.5 1.116e+04 4.320e-10
 41.67812    -80.5 1.096e+04 3.368e-10
 41.70367    -80.2 1.107e+04 3.423e-10
 41.73989    -80.1 1.129e+04 3.997e-10
 41.76246    -79.7 1.117e+04 3.347e-10
 41.79395    -79.0 1.120e+04 3.691e-10
 41.82422    -77.9 1.114e+04 3.728e-10
 41.84680    -77.3 1.097e+04 3.356e-10
 41.88424    -76.1 1.081e+04 3.023e-10
 41.90856    -74.9 1.064e+04 2.712e-10
 41.93113    -73.9 1.057e+04 2.730e-10
 41.97033    -72.4 1.045e+04 2.557e-10
 41.99290    -71.2 1.051e+04 2.537e-10
 42.01966    -69.7 1.052e+04 2.491e-10
 42.05466    -68.2 1.057e+04 2.496e-10
 42.07723    -67.4 1.056e+04 2.404e-10
 42.10995    -66.2 1.058e+04 2.403e-10
 42.13900    -65.1 1.060e+04 2.426e-10
 42.16157    -64.4 1.055e+04 2.393e-10
 42.20023    -63.3 1.055e+04 2.404e-10
 42.22333    -62.3 1.062e+04 2.439e-10
 42.23796    -61.7 1.074e+04 2.297e-10
 42.26000    -62.3 1.072e+04 2.291e-10
 42.28510    -61.6 1.088e+04 2.335e-10
 42.30767    -61.4 1.096e+04 2.582e-10
 42.33566    -61.1 1.110e+04 2.734e-10
 42.36944    -61.2 1.132e+04 3.240e-10
 42.39201    -61.1 1.122e+04 3.499e-10
 42.42594    -61.0 1.148e+04 5.067e-10
 42.45367    -60.4 1.177e+04 6.910e-10
 42.47625    -59.8 1.139e+04 5.663e-10
 42.49584    -59.2 1.156e+04 6.462e-10
 42.50703    -59.3 1.165e+04 5.906e-10
 42.52663    -59.4 1.175e+04 5.775e-10
 42.53801    -59.0 1.109e+04 3.898e-10
 42.56137    -59.2 1.107e+04 3.637e-10
 42.59987    -59.4 1.095e+04 3.511e-10
 42.62244    -58.8 1.055e+04 2.633e-10
 42.65166    -58.6 1.050e+04 3.000e-10
 42.68421    -58.1 1.048e+04 3.177e-10
 42.70678    -57.3 1.035e+04 2.794e-10
 42.74194    -56.7 1.027e+04 2.692e-10
 42.76855    -56.0 1.016e+04 2.345e-10
 42.79112    -54.9 1.002e+04 1.973e-10
 42.83031    -54.2 9.951e+03 1.768e-10
 42.85288    -53.3 9.797e+03 1.643e-10
 42.87737    -52.3 9.791e+03 1.632e-10
 42.91465    -51.3 9.855e+03 1.756e-10
 42.93722    -50.3 9.806e+03 1.890e-10
 42.96150    -49.2 9.912e+03 2.187e-10
 42.98407    -49.5 9.781e+03 1.728e-10
 42.99898    -48.3 9.909e+03 2.090e-10
 43.02155    -47.2 1.003e+04 2.578e-10
 43.05794    -46.1 1.029e+04 3.139e-10
 43.08332    -45.1 1.054e+04 3.662e-10
 43.10589    -44.2 1.073e+04 4.422e-10
 43.14508    -43.7 1.090e+04 4.912e-10
 43.16765    -43.3 1.088e+04 5.243e-10
 43.19336    -42.9 1.089e+04 5.388e-10
 43.22942    -42.1 1.076e+04 5.396e-10
 43.25199    -41.5 1.060e+04 4.923e-10
 43.28365    -40.5 1.040e+04 4.387e-10
 43.31376    -39.5 1.023e+04 3.753e-10
 43.33633    -38.8 1.004e+04 2.902e-10
 43.37393    -37.9 1.004e+04 2.600e-10
 43.39809    -36.9 1.003e+04 2.548e-10
 43.42066    -36.1 9.904e+03 2.176e-10
 43.45986    -35.0 9.943e+03 2.612e-10
 43.48243    -34.0 9.833e+03 2.414e-10
 43.50936    -32.5 9.957e+03 2.965e-10
 43.54419    -30.8 1.010e+04 3.456e-10
 43.56676    -29.6 1.000e+04 3.238e-10
 43.59964    -27.9 1.012e+04 3.526e-10
 43.62853    -26.4 1.021e+04 3.654e-10
 43.65110    -25.3 1.016e+04 3.528e-10
 43.68556    -24.1 1.041e+04 4.157e-10
 43.70813    -24.9 1.042e+04 4.277e-10
 43.71287    -24.0 1.086e+04 6.130e-10
 43.73544    -22.9 1.100e+04 6.951e-10
 43.77463    -22.0 1.160e+04 1.026e-09
 43.79720    -21.2 1.163e+04 1.028e-09
 43.82536    -20.8 1.203e+04 1.255e-09
 43.85897    -20.8 1.217e+04 1.319e-09
 43.88154    -20.1 1.202e+04 1.223e-09
 43.91564    -19.9 1.187e+04 1.206e-09
 43.94330    -19.5 1.158e+04 1.036e-09
 43.96587    -18.6 1.145e+04 9.667e-10
 44.00507    -18.2 1.124e+04 8.189e-10
 44.02764    -17.2 1.115e+04 7.795e-10
 44.05107    -16.9 1.094e+04 6.708e-10
 44.08940    -16.7 1.067e+04 5.603e-10
 44.11198    -15.7 1.075e+04 5.965e-10
 44.14135    -15.4 1.051e+04 5.000e-10
 44.17374    -15.1 1.025e+04 3.939e-10
 44.19631    -14.0 1.032e+04 4.111e-10
 44.23164    -13.8 1.006e+04 3.069e-10
 44.25808    -14.1 1.006e+04 2.736e-10
 44.28065    -13.3 1.020e+04 3.134e-10
 44.30015    -14.4 1.101e+04 3.072e-10
 44.31133    -15.0 1.168e+04 3.618e-10
 44.33093    -22.4 1.407e+04 9.939e-10
 44.34222    -23.5 1.421e+04 1.714e-09
 44.35558    -25.5 1.518e+04 4.495e-09
 44.37310    -25.9 1.650e+04 8.096e-09
 44.38439    -24.4 1.650e+04 7.224e-09
 44.40073    -25.6 1.745e+04 7.394e-09
 44.41527    -30.9 1.862e+04 4.432e-09
 44.42397    -34.0 1.746e+04 2.020e-09
 44.43200    -32.8 1.928e+04 4.844e-09
 44.44587    -42.1 1.686e+04 1.718e-09
 44.45744    -51.2 1.263e+04 7.728e-10
 44.46872    -52.1 1.151e+04 6.049e-10
 44.48832    -53.8 1.136e+04 5.515e-10
 44.49960    -53.1 1.119e+04 5.076e-10
 44.51358    -54.3 1.122e+04 4.899e-10
 44.53049    -55.2 1.129e+04 4.889e-10
 44.54177    -54.8 1.103e+04 4.483e-10
 44.55872    -55.7 1.134e+04 4.835e-10
 44.57275    -56.6 1.190e+04 6.321e-10
 44.58404    -55.3 1.134e+04 4.942e-10
 44.60354    -55.7 1.161e+04 5.535e-10
 44.61482    -55.5 1.149e+04 5.382e-10
 44.63452    -56.3 1.231e+04 7.947e-10
 44.65709    -55.2 1.187e+04 6.251e-10
 44.67158    -55.3 1.233e+04 7.266e-10
 44.68787    -55.8 1.268e+04 7.997e-10
 44.69916    -55.9 1.261e+04 7.244e-10
 44.71672    -55.9 1.310e+04 8.767e-10
 44.73004    -56.3 1.349e+04 1.138e-09
 44.74133    -55.9 1.295e+04 8.400e-10
 44.76092    -56.3 1.321e+04 1.032e-09
 44.77221    -56.3 1.283e+04 8.192e-10
 44.78274    -56.8 1.312e+04 1.038e-09
 44.79403    -57.4 1.418e+04 1.988e-09
 44.80309    -57.7 1.423e+04 2.301e-09
 44.81438    -57.9 1.401e+04 1.893e-09
 44.82958    -58.1 1.409e+04 2.225e-09
 44.84526    -58.3 1.424e+04 2.598e-09
 44.85655    -58.4 1.398e+04 2.201e-09
 44.87472    -58.4 1.417e+04 2.572e-09
 44.88743    -58.4 1.437e+04 2.897e-09
 44.89871    -58.3 1.408e+04 2.505e-09
 44.91831    -58.2 1.426e+04 2.735e-09
 44.92960    -58.0 1.403e+04 2.422e-09
 44.94243    -57.8 1.415e+04 2.544e-09
 44.96048    -57.8 1.415e+04 2.523e-09
 44.97176    -57.5 1.405e+04 2.342e-09
 44.98758    -57.6 1.387e+04 2.125e-09
 45.00265    -57.9 1.353e+04 1.796e-09
 45.01393    -57.5 1.345e+04 1.758e-09
 45.03272    -57.7 1.307e+04 1.488e-09
 45.04481    -57.6 1.276e+04 1.283e-09
 45.05610    -57.2 1.275e+04 1.308e-09
 45.07570    -56.9 1.251e+04 1.148e-09
 45.08698    -56.4 1.257e+04 1.214e-09
 45.10043    -55.9 1.238e+04 1.082e-09
 45.11787    -55.2 1.225e+04 9.595e-10
 45.12915    -54.7 1.237e+04 1.075e-09
 45.14478    -54.0 1.228e+04 9.510e-10
 45.15606    -54.4 1.213e+04 8.766e-10
 45.16003    -53.7 1.208e+04 7.740e-10
 45.17132    -53.2 1.222e+04 9.042e-10
 45.19072    -52.6 1.219e+04 8.009e-10
 45.20220    -52.1 1.218e+04 7.182e-10
 45.21349    -51.7 1.228e+04 8.708e-10
 45.23308    -51.3 1.229e+04 7.960e-10
 45.24437    -50.8 1.236e+04 9.703e-10
 45.25843    -50.7 1.237e+04 9.041e-10
 45.27525    -50.6 1.238e+04 8.744e-10
 45.28654    -50.1 1.257e+04 1.045e-09
 45.30357    -50.3 1.257e+04 1.022e-09
 45.31742    -50.6 1.258e+04 1.020e-09
 45.32871    -51.0 1.316e+04 1.278e-09
 45.34830    -51.7 1.327e+04 1.301e-09
 45.35959    -53.2 1.444e+04 2.080e-09
 45.37129    -53.8 1.433e+04 2.090e-09
 45.39047    -54.1 1.404e+04 2.037e-09
 45.40176    -54.8 1.458e+04 3.103e-09
 45.41643    -54.9 1.402e+04 2.602e-09
 45.43264    -54.8 1.354e+04 2.172e-09
 45.44392    -55.2 1.365e+04 2.182e-09
 45.46157    -55.0 1.327e+04 1.748e-09
 45.47481    -54.9 1.309e+04 1.431e-09
 45.48609    -56.0 1.321e+04 1.136e-09
 45.50569    -56.2 1.297e+04 9.274e-10
 45.51698    -57.5 1.257e+04 8.200e-10
 45.54067    -56.7 1.212e+04 6.878e-10
 45.57894    -55.6 1.200e+04 6.330e-10
 45.60141    -55.5 1.181e+04 6.060e-10
 45.61957    -55.0 1.165e+04 5.573e-10
 45.63219    -54.5 1.146e+04 5.043e-10
 45.64348    -54.6 1.146e+04 5.069e-10
 45.66308    -54.0 1.127e+04 4.477e-10
 45.67436    -54.1 1.125e+04 4.542e-10
 45.68728    -53.4 1.109e+04 4.002e-10
 45.70524    -52.6 1.103e+04 3.726e-10
 45.71653    -52.6 1.102e+04 3.773e-10
 45.73242    -52.4 1.102e+04 3.722e-10
 45.74751    -51.7 1.101e+04 3.549e-10
 45.77018    -51.3 1.093e+04 3.763e-10
 45.80937    -49.7 1.083e+04 3.340e-10
 45.83194    -49.2 1.078e+04 3.526e-10
 45.85676    -47.7 1.070e+04 3.104e-10
 45.88032    -46.1 1.060e+04 2.807e-10
 45.89470    -45.3 1.058e+04 2.779e-10
 45.91628    -45.1 1.062e+04 3.260e-10
 45.94705    -43.8 1.064e+04 3.272e-10
 45.97804    -42.6 1.066e+04 3.475e-10
 46.00062    -42.4 1.069e+04 4.668e-10
 46.03733    -41.0 1.080e+04 5.304e-10
 46.06238    -39.6 1.089e+04 5.729e-10
 46.08495    -39.4 1.082e+04 5.673e-10
 46.12415    -38.1 1.084e+04 5.711e-10
 46.14672    -37.6 1.046e+04 4.537e-10
 46.17276    -36.2 1.038e+04 4.083e-10
 46.20848    -34.8 1.028e+04 3.560e-10
 46.23105    -34.0 9.852e+03 2.108e-10
 46.26304    -32.5 9.820e+03 1.801e-10
 46.29282    -31.1 9.824e+03 1.547e-10
 46.31539    -30.5 9.562e+03 9.972e-11
 46.35333    -29.2 9.540e+03 9.266e-11
 46.37715    -27.9 9.542e+03 9.122e-11
 46.39973    -27.0 9.303e+03 8.725e-11
 46.43892    -25.7 9.368e+03 8.832e-11
 46.46149    -24.4 9.342e+03 8.913e-11
 46.48875    -23.0 9.345e+03 9.319e-11
 46.52326    -21.5 9.335e+03 9.526e-11
 46.54583    -20.3 9.310e+03 9.726e-11
 46.57904    -18.7 9.271e+03 9.146e-11
 46.60438    -17.0 9.295e+03 7.917e-11
 46.61037    -16.6 9.281e+03 7.839e-11
 46.63016    -15.6 9.235e+03 7.857e-11
 46.66932    -14.1 9.252e+03 6.781e-11
 46.71446    -11.6 9.246e+03 5.890e-11
 46.75369    -10.0 9.229e+03 5.080e-11
 46.77626     -9.1 9.178e+03 5.239e-11
 46.80475     -7.4 9.161e+03 4.510e-11
 46.83803     -5.8 9.156e+03 3.936e-11
 46.86060     -4.8 9.109e+03 4.298e-11
 46.89503     -3.2 9.121e+03 3.935e-11
 46.92237     -1.6 9.141e+03 3.794e-11
 46.94494     -0.6 9.111e+03 4.281e-11
 46.98413      1.0 9.144e+03 4.290e-11
 47.00670      2.0 9.153e+03 4.854e-11
 47.03046      3.5 9.206e+03 5.253e-11
 47.06847      5.1 9.233e+03 5.759e-11
 47.09104      6.1 9.254e+03 6.554e-11
 47.12075      7.8 9.353e+03 6.838e-11
 47.15280      9.3 9.410e+03 6.855e-11
 47.17537     10.2 9.447e+03 7.541e-11
 47.21103     11.6 9.580e+03 7.101e-11
 47.23714     12.8 9.639e+03 6.848e-11
 47.25971     13.7 9.716e+03 7.701e-11
 47.29890     14.9 9.856e+03 7.872e-11
 47.32148     15.6 9.882e+03 9.111e-11
 47.32845     16.9 1.001e+04 9.837e-11
 47.35102     16.8 9.985e+03 1.182e-10
 47.38324     18.3 1.006e+04 1.278e-10
 47.40581     19.2 1.016e+04 1.425e-10
 47.43674     20.7 1.022e+04 1.334e-10
 47.46758     22.1 1.030e+04 1.293e-10
 47.49015     23.0 1.032e+04 1.303e-10
 47.52703     24.5 1.053e+04 1.326e-10
 47.55191     25.8 1.066e+04 1.583e-10
 47.57448     26.8 1.073e+04 1.527e-10
 47.61368     28.2 1.089e+04 2.049e-10
 47.63625     29.2 1.095e+04 2.014e-10
 47.66245     30.5 1.119e+04 2.874e-10
 47.69801     31.6 1.143e+04 4.166e-10
 47.72058     32.6 1.135e+04 3.954e-10
 47.75274     34.0 1.153e+04 5.128e-10
 47.78235     35.0 1.190e+04 5.900e-10
 47.80492     36.3 1.177e+04 4.506e-10
 47.84302     36.5 1.201e+04 5.148e-10
 47.86669     36.5 1.227e+04 7.492e-10
 47.88926     37.4 1.230e+04 7.356e-10
 47.92845     37.9 1.248e+04 1.150e-09
 47.95102     38.9 1.253e+04 1.200e-09
 47.97845     39.4 1.266e+04 1.314e-09
 48.01279     39.9 1.254e+04 1.020e-09
 48.03536     40.7 1.245e+04 8.252e-10
 48.05251     40.8 1.212e+04 5.129e-10
 48.07508     41.3 1.226e+04 5.773e-10
 48.09712     41.7 1.180e+04 3.936e-10
 48.11969     42.1 1.169e+04 2.910e-10
 48.15889     43.5 1.135e+04 2.725e-10
 48.20403     46.2 1.120e+04 2.366e-10
 48.24322     48.2 1.122e+04 2.439e-10
 48.26580     49.1 1.121e+04 2.278e-10
 48.29445     51.1 1.127e+04 2.524e-10
 48.32756     53.0 1.137e+04 2.926e-10
 48.35013     54.0 1.138e+04 2.872e-10
 48.38473     55.8 1.149e+04 3.919e-10
 48.41190     57.4 1.186e+04 6.307e-10
 48.43447     58.2 1.194e+04 6.545e-10
 48.47366     59.4 1.258e+04 1.172e-09
 48.49623     59.8 1.262e+04 1.224e-09
 48.50877     60.4 1.322e+04 1.793e-09
 48.52692     60.5 1.326e+04 1.835e-09
 48.53821     60.4 1.326e+04 1.886e-09
 48.55790     61.2 1.341e+04 1.963e-09
 48.58057     61.1 1.340e+04 1.956e-09
 48.61044     61.9 1.309e+04 1.613e-09
 48.64233     62.4 1.266e+04 1.122e-09
 48.66491     62.6 1.240e+04 9.492e-10
 48.70073     62.5 1.214e+04 7.361e-10
 48.72667     62.8 1.208e+04 7.227e-10
 48.74924     63.0 1.191e+04 5.944e-10
 48.77658     63.4 1.196e+04 6.244e-10
 48.79657     63.6 1.175e+04 5.200e-10
 48.81101     64.1 1.161e+04 4.826e-10
 48.83615     64.8 1.173e+04 5.200e-10
 48.87277     65.3 1.178e+04 5.258e-10
 48.89534     66.2 1.180e+04 5.138e-10
 48.92644     66.9 1.177e+04 4.942e-10
 48.95711     67.7 1.166e+04 4.283e-10
 48.97968     68.5 1.169e+04 4.016e-10
 49.01672     69.3 1.157e+04 3.281e-10
 49.04144     70.4 1.148e+04 2.582e-10
 49.06401     71.2 1.149e+04 2.659e-10
 49.10321     72.4 1.142e+04 2.186e-10
 49.12578     73.3 1.140e+04 2.257e-10
 49.15215     74.6 1.136e+04 1.896e-10
 49.18754     76.0 1.127e+04 1.770e-10
 49.21012     77.0 1.122e+04 1.855e-10
 49.24244     78.3 1.125e+04 1.910e-10
 49.27188     79.4 1.135e+04 2.258e-10
 49.29445     80.2 1.126e+04 2.418e-10
 49.33272     81.3 1.141e+04 3.228e-10
 49.35622     82.5 1.163e+04 4.388e-10
 49.37879     83.3 1.154e+04 4.298e-10
 49.41798     84.5 1.172e+04 5.083e-10
 49.44055     85.4 1.154e+04 4.684e-10
 49.46815     86.3 1.156e+04 4.654e-10
 49.50064     87.2 1.154e+04 4.428e-10
 49.51224     87.8 1.148e+04 3.953e-10
 49.52489     88.8 1.121e+04 3.389e-10
 49.55843     89.8 1.131e+04 3.542e-10
 49.58665     90.6 1.148e+04 4.177e-10
 49.60923     91.6 1.137e+04 4.205e-10
 49.62873     91.9 1.152e+04 4.978e-10
 49.63991     92.3 1.151e+04 5.119e-10
 49.65951     92.6 1.168e+04 6.094e-10
 49.67080     93.1 1.161e+04 6.277e-10
 49.68238     93.4 1.183e+04 7.548e-10
 49.70168     93.6 1.208e+04 7.882e-10
 49.71296     94.1 1.202e+04 7.810e-10
 49.72752     94.3 1.202e+04 7.725e-10
 49.74385     94.3 1.197e+04 7.264e-10
 49.75513     94.9 1.188e+04 7.220e-10
 49.77266     95.2 1.180e+04 5.626e-10
 49.78601     95.2 1.177e+04 5.058e-10
 49.79730     95.6 1.174e+04 5.033e-10
 49.81699     96.2 1.166e+04 3.902e-10
 49.83966     97.3 1.166e+04 4.388e-10
 49.87443     97.5 1.151e+04 3.079e-10
 49.90143     97.8 1.137e+04 2.549e-10
 49.92400     99.0 1.139e+04 2.764e-10
 49.96319     99.0 1.146e+04 2.660e-10
 49.98576     99.9 1.146e+04 2.750e-10
 50.00985     99.3 1.169e+04 2.897e-10
 50.04361     98.5 1.215e+04 3.606e-10
 50.05862     97.2 1.229e+04 4.999e-10
 50.06991     97.8 1.217e+04 4.548e-10
 50.08866     97.4 1.214e+04 6.060e-10
 50.10079     97.5 1.220e+04 7.379e-10
 50.11207     98.0 1.207e+04 6.435e-10
 50.13167     98.0 1.225e+04 6.530e-10
 50.14296     98.4 1.214e+04 5.527e-10
 50.15637     98.1 1.224e+04 5.279e-10
 50.17384     97.4 1.235e+04 4.512e-10
 50.18512     97.5 1.228e+04 4.037e-10
 50.20151     97.2 1.230e+04 3.900e-10
 50.21601     96.5 1.228e+04 3.813e-10
 50.22781     97.3 1.216e+04 3.587e-10
 50.24727     97.7 1.194e+04 2.960e-10
 50.27797     97.4 1.194e+04 3.073e-10
 50.30054     98.8 1.176e+04 2.795e-10
 50.32585     98.8 1.187e+04 3.247e-10
 50.36230     98.9 1.205e+04 3.681e-10
 50.38487    100.2 1.202e+04 3.752e-10
 50.41614    100.7 1.193e+04 3.809e-10
 50.44664    100.7 1.186e+04 3.872e-10
 50.46921    101.5 1.192e+04 4.481e-10
 50.50642    101.4 1.190e+04 4.848e-10
 50.53098    101.4 1.190e+04 5.437e-10
 50.55355    102.2 1.196e+04 6.068e-10
 50.58532    102.2 1.213e+04 7.064e-10
 50.59783    101.9 1.226e+04 7.536e-10
 50.60515    102.5 1.218e+04 6.703e-10
 50.61512    102.7 1.217e+04 6.665e-10
 50.63037    102.2 1.237e+04 7.418e-10
 50.64600    101.5 1.256e+04 8.636e-10
 50.65728    101.5 1.263e+04 9.021e-10
 50.67551    100.7 1.282e+04 1.153e-09
 50.68817    100.5 1.299e+04 1.486e-09
 50.69945    100.5 1.311e+04 1.649e-09
 50.71905    100.6 1.313e+04 1.778e-09
 50.73033    100.7 1.321e+04 1.891e-09
 50.74322    101.1 1.308e+04 1.783e-09
 50.76122    101.4 1.281e+04 1.406e-09
 50.77250    101.7 1.278e+04 1.407e-09
 50.78836    101.6 1.262e+04 9.561e-10
 50.80339    100.6 1.244e+04 6.477e-10
 50.81467    101.0 1.238e+04 6.145e-10
 50.83351     99.7 1.192e+04 4.918e-10
 50.84555     99.4 1.137e+04 4.638e-10
 50.85684     99.7 1.137e+04 4.581e-10
 50.87644     99.5 1.133e+04 4.643e-10
 50.88772     99.9 1.135e+04 4.648e-10
 50.90122    100.5 1.122e+04 4.716e-10
 50.91860    100.6 1.122e+04 4.775e-10
 50.92989    100.9 1.128e+04 4.995e-10
 50.94867    100.9 1.134e+04 6.293e-10
 50.97134    102.0 1.111e+04 4.896e-10
 50.99185    101.6 1.118e+04 6.203e-10
 51.01442    102.3 1.133e+04 7.096e-10
 51.04813    101.8 1.146e+04 7.857e-10
 51.07619    101.0 1.151e+04 8.122e-10
 51.09876    101.2 1.153e+04 8.096e-10
 51.13795    100.3 1.146e+04 8.115e-10
 51.16052    100.5 1.135e+04 7.689e-10
 51.18356    100.4 1.110e+04 6.690e-10
 51.22229    100.5 1.083e+04 5.253e-10
 51.24486    100.9 1.064e+04 4.418e-10
 51.27384    100.7 1.056e+04 3.284e-10
 51.30662     99.9 1.052e+04 2.493e-10
 51.32919    100.5 1.026e+04 2.192e-10
 51.36412     99.3 1.006e+04 2.138e-10
 51.39096     97.8 1.011e+04 2.773e-10
 51.41353     98.7 1.009e+04 2.799e-10
 51.45272     97.9 1.038e+04 4.214e-10
 51.47530     98.9 1.036e+04 4.184e-10
 51.49955     98.1 1.064e+04 4.849e-10
 51.53706     96.8 1.063e+04 4.575e-10
 51.55963     97.5 1.057e+04 4.142e-10
 51.58984     96.4 1.028e+04 3.432e-10
 51.62140     95.7 9.920e+03 2.692e-10
 51.64397     96.5 9.883e+03 2.838e-10
 51.67283     96.3 9.784e+03 2.629e-10
 51.69540     96.4 9.776e+03 2.624e-10
 51.70573     95.9 9.844e+03 2.746e-10
 51.72830     96.4 9.851e+03 2.921e-10
 51.75902     96.0 1.018e+04 3.616e-10
 51.77859     94.1 1.091e+04 5.588e-10
 51.78987     94.3 1.090e+04 5.532e-10
 51.80407     92.5 1.154e+04 9.636e-10
 51.82076     91.8 1.227e+04 1.776e-09
 51.83204     92.2 1.196e+04 1.532e-09
 51.84921     92.7 1.177e+04 1.647e-09
 51.86292     93.1 1.173e+04 1.579e-09
 51.87421     93.1 1.147e+04 1.383e-09
 51.89381     92.9 1.146e+04 1.167e-09
 51.90509     92.9 1.130e+04 1.077e-09
 51.91692     91.6 1.137e+04 8.972e-10
 51.93597     89.1 1.124e+04 8.401e-10
 51.94726     89.4 1.128e+04 8.821e-10
 51.96206     87.4 1.110e+04 8.825e-10
 51.99602     87.6 1.099e+04 9.507e-10
 52.02051     85.7 1.166e+04 1.245e-09
 52.04308     86.0 1.167e+04 1.241e-09
 52.08227     83.9 1.203e+04 1.219e-09
 52.10484     83.6 1.143e+04 8.141e-10
 52.13154     80.8 1.059e+04 6.206e-10
 52.16661     79.7 9.618e+03 4.061e-10
 52.18918     79.3 9.029e+03 2.905e-10
 52.22183     78.8 8.958e+03 2.398e-10
 52.25094     78.7 8.870e+03 2.126e-10
 52.27351     78.7 8.884e+03 2.325e-10
 52.31211     79.0 8.866e+03 2.311e-10
 52.33528     79.5 8.896e+03 2.120e-10
 52.35785     79.4 8.999e+03 2.381e-10
 52.39689     80.0 8.851e+03 2.025e-10
 52.41947     80.7 9.117e+03 2.829e-10
 52.44754     81.4 8.836e+03 2.038e-10
 52.48138     81.6 8.775e+03 1.533e-10
 52.50395     81.2 8.797e+03 1.673e-10
 52.53782     81.6 8.720e+03 1.492e-10
 52.56572     82.2 8.754e+03 1.567e-10
 52.58829     82.3 8.801e+03 1.698e-10
 52.62748     83.1 8.872e+03 1.851e-10
 52.65005     83.3 8.934e+03 1.970e-10
 52.67325     84.3 9.059e+03 2.168e-10
 52.71182     85.3 9.160e+03 2.389e-10
 52.73439     85.7 9.392e+03 2.686e-10
 52.76354     86.7 9.635e+03 2.946e-10
 52.79615     87.6 9.814e+03 3.144e-10
 52.80734     87.3 1.005e+04 3.767e-10
 52.81977     87.4 1.011e+04 3.906e-10
 52.83813     87.7 1.039e+04 4.622e-10
 52.84941     87.5 1.071e+04 5.726e-10
 52.86491     87.4 1.092e+04 6.262e-10
 52.88039     87.4 1.120e+04 7.224e-10
 52.89168     86.5 1.171e+04 9.853e-10
 52.91005     86.5 1.187e+04 1.055e-09
 52.92246     86.4 1.203e+04 1.148e-09
 52.93375     85.6 1.263e+04 1.548e-09
 52.95335     85.7 1.255e+04 1.471e-09
 52.96463     85.1 1.312e+04 1.993e-09
 52.97777     85.4 1.251e+04 1.509e-09
 52.99551     85.3 1.217e+04 1.287e-09
 53.00680     84.5 1.244e+04 1.435e-09
 53.02649     83.8 1.166e+04 9.969e-10
 53.04916     81.5 1.166e+04 9.865e-10
 53.07953     82.6 1.090e+04 6.990e-10
 53.11093     84.1 1.060e+04 5.952e-10
 53.12978     83.3 1.055e+04 6.152e-10
 53.14353     83.8 1.061e+04 6.461e-10
 53.16982     85.3 1.061e+04 6.088e-10
 53.19526     87.0 1.051e+04 5.650e-10
 53.21784     86.7 1.045e+04 5.966e-10
 53.25703     88.5 1.039e+04 5.122e-10
 53.27960     88.5 1.026e+04 4.910e-10
 53.30524     90.0 1.016e+04 3.723e-10
 53.34137     91.1 1.008e+04 3.031e-10
 53.36394     91.2 9.812e+03 2.240e-10
 53.39553     92.5 9.748e+03 2.126e-10
 53.42570     93.9 9.835e+03 2.290e-10
 53.44827     94.0 9.551e+03 1.690e-10
 53.48581     95.1 9.873e+03 2.425e-10
 53.51004     96.5 1.050e+04 4.593e-10
 53.53261     96.8 1.022e+04 3.583e-10
 53.57180     98.7 1.097e+04 6.752e-10
 53.59437     99.0 1.060e+04 5.007e-10
 53.62124    101.0 1.122e+04 7.504e-10
 53.65614    102.8 1.139e+04 7.936e-10
 53.67861    103.2 1.117e+04 6.961e-10
 53.69811    103.9 1.120e+04 7.047e-10
 53.70940    104.1 1.110e+04 6.537e-10
 53.72262    104.7 1.128e+04 6.916e-10
 53.74028    105.0 1.151e+04 7.516e-10
 53.75157    105.1 1.161e+04 7.866e-10
 53.76776    105.2 1.197e+04 9.388e-10
 53.78245    105.1 1.233e+04 1.163e-09
 53.79373    105.1 1.255e+04 1.361e-09
 53.81290    104.5 1.333e+04 1.932e-09
 53.82462    103.2 1.444e+04 3.046e-09
 53.83590    103.0 1.479e+04 3.666e-09
 53.85550    102.5 1.551e+04 5.314e-09
 53.86485    102.4 1.563e+04 5.735e-09
 53.86740    102.6 1.596e+04 6.410e-09
 53.88061    102.2 1.604e+04 6.547e-09
 53.89767    101.5 1.585e+04 5.839e-09
 53.90895    101.3 1.537e+04 4.753e-09
 53.92576     99.4 1.479e+04 3.274e-09
 53.93983     96.7 1.294e+04 2.016e-09
 53.95112     95.2 1.282e+04 1.375e-09
 53.97072     92.4 1.128e+04 7.953e-10
 53.98200     91.3 1.099e+04 7.133e-10
 53.99347     89.8 1.061e+04 6.079e-10
 54.01289     87.3 1.127e+04 5.581e-10
 54.02417     89.7 1.033e+04 5.589e-10
 54.03861     84.8 1.422e+04 6.575e-10
 54.05505     79.1 1.699e+04 2.368e-09
 54.06634     82.8 1.593e+04 1.107e-09
 54.08375     79.1 1.639e+04 4.091e-09
 54.09722     78.2 1.801e+04 1.092e-08
 54.10851     79.7 1.647e+04 6.919e-09
 54.11826     79.8 1.783e+04 1.189e-08
 54.12385     80.8 1.663e+04 9.831e-09
 54.13365     80.5 1.794e+04 1.224e-08
 54.13929     81.5 1.660e+04 1.025e-08
 54.14573     80.6 1.846e+04 1.285e-08
 54.15473     78.7 2.200e+04 1.668e-08
 54.16038     80.2 1.909e+04 1.295e-08
 54.16830     78.3 2.342e+04 1.616e-08
 54.17582     76.7 2.577e+04 1.964e-08
 54.18146     77.9 2.438e+04 1.557e-08
 54.19087     75.6 2.542e+04 1.664e-08
 54.19690     72.4 2.294e+04 1.622e-08
 54.20254     73.8 2.403e+04 1.359e-08
 54.21234     70.4 2.106e+04 1.245e-08
 54.21799     71.7 2.173e+04 1.012e-08
 54.22369     68.7 1.974e+04 9.666e-09
 54.22933     68.8 1.910e+04 8.951e-09
 54.23343     67.5 1.876e+04 1.090e-08
 54.23907     66.7 1.936e+04 8.567e-09
 54.24730     64.5 2.025e+04 1.098e-08
 54.25456     64.1 2.085e+04 1.478e-08
 54.26589     60.3 2.207e+04 1.417e-08
 54.28120     56.9 2.352e+04 2.071e-08
 54.29104     55.0 2.426e+04 2.677e-08
 54.29668     53.0 2.411e+04 2.594e-08
 54.30373     51.9 2.469e+04 3.401e-08
 54.31212     51.2 2.467e+04 4.387e-08
 54.31776     49.7 2.428e+04 3.361e-08
 54.32630     49.5 2.442e+04 4.140e-08
 54.33320     49.5 2.427e+04 4.953e-08
 54.33885     48.1 2.405e+04 2.537e-08
 54.34865     48.4 2.418e+04 2.696e-08
 54.35429     46.6 2.420e+04 9.280e-09
 54.36015     46.8 2.480e+04 8.614e-09
 54.36973     46.8 2.512e+04 8.704e-09
 54.38106     42.1 2.561e+04 1.447e-09
 54.39975     41.2 2.575e+04 1.542e-09
 54.41199     40.0 2.430e+04 2.209e-09
 54.42328     32.6 1.600e+04 2.835e-10
 54.44288     34.7 1.968e+04 3.636e-10
 54.45416     29.3 1.018e+04 3.135e-10
 54.46746     31.2 1.098e+04 3.444e-10
 54.48505     32.6 1.225e+04 4.099e-10
 54.49633     26.7 1.128e+04 4.793e-10
 54.51261     26.8 1.246e+04 6.665e-10
 54.52721     27.1 1.392e+04 1.054e-09
 54.53850     20.2 1.411e+04 2.390e-09
 54.55775     20.4 1.499e+04 3.399e-09
 54.56938     20.3 1.592e+04 4.351e-09
 54.58052     14.4 1.762e+04 7.542e-09
 54.59146     14.5 1.863e+04 9.328e-09
 54.60026     12.7 1.835e+04 7.315e-09
 54.61155      6.3 1.819e+04 6.882e-09
 54.62546      1.3 1.763e+04 4.516e-09
 54.64243    -10.2 1.894e+04 3.778e-09
 54.65372    -16.9 1.768e+04 2.663e-09
 54.67060    -35.4 2.378e+04 4.678e-09
 54.68455    -44.9 2.228e+04 1.147e-08
 54.69015    -45.9 2.212e+04 1.233e-08
 54.69872    -48.5 2.196e+04 2.604e-08
 54.70559    -49.9 2.216e+04 4.663e-08
 54.71123    -50.6 2.210e+04 4.510e-08
 54.72103    -51.8 2.268e+04 6.549e-08
 54.72667    -52.5 2.226e+04 5.274e-08
 54.73258    -54.4 2.248e+04 5.784e-08
 54.74211    -56.3 2.257e+04 5.719e-08
 54.74775    -56.6 2.186e+04 3.803e-08
 54.75515    -58.8 2.194e+04 3.203e-08
 54.76320    -61.2 2.178e+04 2.627e-08
 54.76884    -61.8 2.058e+04 1.684e-08
 54.78341    -65.3 1.969e+04 1.187e-08
 54.79982    -67.7 1.953e+04 1.024e-08
 54.81110    -69.7 1.547e+04 3.252e-09
 54.82860    -71.7 1.486e+04 2.590e-09
 54.84199    -73.0 1.453e+04 2.264e-09
 54.85327    -76.3 1.008e+04 7.411e-10
 54.87287    -76.6 1.004e+04 7.232e-10
 54.88416    -76.5 9.567e+03 5.241e-10
 54.89632    -76.5 9.685e+03 5.532e-10
 54.91504    -76.3 9.781e+03 5.934e-10
 54.93771    -75.8 9.810e+03 5.878e-10
 54.97551    -75.4 1.042e+04 8.202e-10
 54.99957    -74.9 1.098e+04 1.032e-09
 55.02214    -74.6 1.104e+04 1.062e-09
 55.06133    -74.3 1.121e+04 1.150e-09
 55.08391    -73.9 1.124e+04 1.182e-09
 55.11094    -73.5 1.102e+04 1.068e-09
 55.14567    -72.6 1.051e+04 8.055e-10
 55.16814    -72.3 1.021e+04 6.769e-10
 55.18764    -71.9 9.915e+03 5.585e-10
 55.19893    -71.8 9.971e+03 5.695e-10
 55.21231    -71.1 9.797e+03 4.982e-10
 55.22981    -70.2 9.678e+03 4.450e-10
 55.24110    -70.0 9.767e+03 4.534e-10
 55.25745    -69.0 9.663e+03 4.010e-10
 55.29141    -67.9 9.629e+03 3.648e-10
 55.31434    -66.3 9.440e+03 3.069e-10
 55.31599    -66.0 9.391e+03 2.543e-10
 55.33829    -65.8 9.324e+03 2.374e-10
 55.37611    -63.1 9.038e+03 1.809e-10
 55.39868    -62.6 9.002e+03 1.551e-10
 55.42693    -60.0 8.909e+03 1.310e-10
 55.46044    -57.5 8.890e+03 1.253e-10
 55.48301    -56.7 8.935e+03 1.277e-10
 55.51722    -54.2 8.929e+03 1.262e-10
 55.54478    -51.8 8.922e+03 1.253e-10
 55.56735    -51.0 9.097e+03 1.441e-10
 55.60654    -48.8 9.027e+03 1.375e-10
 55.62912    -48.1 9.429e+03 2.245e-10
 55.65265    -45.8 9.214e+03 1.999e-10
 55.69088    -43.6 8.922e+03 1.598e-10
 55.71345    -43.0 9.426e+03 3.196e-10
 55.74293    -40.8 9.113e+03 2.506e-10
 55.77522    -38.7 8.845e+03 1.920e-10
 55.79779    -38.1 9.334e+03 3.523e-10
 55.83321    -36.0 9.225e+03 3.040e-10
 55.85955    -34.2 9.217e+03 2.854e-10
 55.88212    -34.1 1.000e+04 5.118e-10
 55.90162    -32.8 1.034e+04 5.711e-10
 55.91281    -32.8 1.054e+04 6.642e-10
 55.93241    -32.8 1.067e+04 7.089e-10
 55.94379    -33.1 1.130e+04 1.120e-09
 55.96864    -32.2 1.180e+04 1.408e-09
 56.00565    -31.5 1.195e+04 1.520e-09
 56.02813    -31.5 1.238e+04 1.847e-09
 56.03959    -31.0 1.223e+04 1.626e-09
 56.05087    -30.7 1.222e+04 1.659e-09
 56.05891    -30.4 1.188e+04 1.346e-09
 56.07020    -30.7 1.198e+04 1.400e-09
 56.08980    -30.6 1.157e+04 1.087e-09
 56.10108    -31.1 1.162e+04 1.107e-09
 56.11516    -31.2 1.117e+04 8.817e-10
 56.14911    -30.9 1.075e+04 7.078e-10
 56.17433    -29.8 1.028e+04 5.418e-10
 56.19690    -30.5 1.059e+04 6.644e-10
 56.23609    -29.6 1.056e+04 6.522e-10
 56.25866    -30.5 1.100e+04 8.575e-10
 56.28464    -29.8 1.125e+04 9.885e-10
 56.32043    -29.1 1.149e+04 1.151e-09
 56.34300    -30.3 1.152e+04 1.153e-09
 56.37492    -29.9 1.165e+04 1.269e-09
 56.40476    -29.1 1.159e+04 1.278e-09
 56.42734    -29.7 1.135e+04 1.166e-09
 56.46521    -28.8 1.121e+04 1.121e-09
 56.48910    -27.9 1.104e+04 1.040e-09
 56.51167    -28.4 1.101e+04 1.009e-09
 56.55087    -27.3 1.109e+04 1.060e-09
 56.57344    -27.8 1.104e+04 1.029e-09
 56.60063    -26.6 1.129e+04 1.133e-09
 56.63439    -26.6 1.135e+04 1.149e-09
 56.64629    -26.5 1.140e+04 1.192e-09
 56.65758    -27.1 1.131e+04 1.071e-09
 56.67717    -26.9 1.132e+04 1.083e-09
 56.68846    -27.7 1.114e+04 9.360e-10
 56.70201    -27.6 1.111e+04 9.263e-10
 56.71934    -27.4 1.106e+04 9.108e-10
 56.73063    -28.3 1.072e+04 7.641e-10
 56.74715    -28.1 1.065e+04 7.346e-10
 56.76151    -27.9 1.057e+04 7.044e-10
 56.76673    -28.5 1.026e+04 5.951e-10
 56.77494    -28.8 1.015e+04 5.568e-10
 56.79229    -28.5 1.018e+04 5.596e-10
 56.80378    -27.9 1.037e+04 6.029e-10
 56.82645    -28.8 9.811e+03 4.210e-10
 56.86564    -28.2 9.777e+03 3.891e-10
 56.88821    -28.8 9.482e+03 2.978e-10
 56.91663    -28.5 9.547e+03 2.891e-10
 56.94998    -28.2 9.593e+03 2.823e-10
 56.97255    -28.5 9.674e+03 2.802e-10
 57.00692    -28.4 9.701e+03 2.764e-10
 57.03431    -28.4 9.630e+03 2.422e-10
 57.05688    -28.9 9.974e+03 2.950e-10
 57.09608    -29.1 9.698e+03 2.599e-10
 57.11865    -29.3 9.994e+03 3.421e-10
 57.14234    -29.3 9.826e+03 3.164e-10
 57.18041    -29.5 9.804e+03 3.179e-10
 57.20289    -30.2 9.972e+03 3.687e-10
 57.22115    -30.6 1.002e+04 4.215e-10
 57.23367    -30.9 1.011e+04 4.733e-10
 57.24496    -31.4 1.024e+04 5.368e-10
 57.26455    -31.4 1.032e+04 5.947e-10
 57.27584    -31.7 1.043e+04 6.335e-10
 57.28886    -31.7 1.045e+04 6.594e-10
 57.30672    -31.6 1.045e+04 6.696e-10
 57.31801    -31.8 1.045e+04 6.562e-10
 57.33400    -31.7 1.034e+04 6.257e-10
 57.34889    -31.6 1.021e+04 5.766e-10
 57.36018    -31.7 1.008e+04 5.339e-10
 57.37914    -31.5 9.900e+03 4.808e-10
 57.41075    -31.2 9.697e+03 4.124e-10
 57.43342    -30.9 9.635e+03 4.066e-10
 57.45834    -30.0 9.408e+03 3.345e-10
 57.48791    -29.3 9.329e+03 3.034e-10
 57.50219    -29.9 9.686e+03 4.125e-10
 57.51776    -29.5 9.796e+03 4.420e-10
 57.54862    -28.9 9.729e+03 4.156e-10
 57.57952    -28.3 9.768e+03 4.235e-10
 57.60209    -28.1 1.003e+04 4.838e-10
 57.62159    -27.5 1.017e+04 5.555e-10
 57.63278    -27.6 1.034e+04 6.031e-10
 57.65000    -27.5 1.052e+04 7.108e-10
 57.66366    -27.0 1.072e+04 8.177e-10
 57.67495    -26.9 1.080e+04 8.454e-10
 57.69455    -26.6 1.094e+04 8.960e-10
 57.70583    -26.7 1.101e+04 9.088e-10
 57.71771    -26.4 1.113e+04 9.330e-10
 57.73671    -26.4 1.114e+04 9.322e-10
 57.74800    -26.1 1.117e+04 8.980e-10
 57.76285    -25.9 1.119e+04 8.983e-10
 57.77888    -25.8 1.116e+04 7.967e-10
 57.79017    -25.8 1.125e+04 7.575e-10
 57.80800    -25.9 1.122e+04 6.675e-10
 57.82105    -26.1 1.114e+04 5.939e-10
 57.83234    -26.0 1.123e+04 6.019e-10
 57.84975    -26.3 1.115e+04 5.415e-10
 57.85983    -26.0 1.103e+04 5.050e-10
 57.86322    -26.0 1.120e+04 5.559e-10
 57.87571    -26.3 1.105e+04 5.172e-10
 57.89420    -26.6 1.076e+04 4.707e-10
 57.91687    -26.3 1.127e+04 6.175e-10
 57.95490    -26.4 1.117e+04 6.111e-10
 57.97863    -26.2 1.119e+04 6.903e-10
 58.00120    -26.2 1.180e+04 9.076e-10
 58.04040    -25.6 1.184e+04 1.039e-09
 58.06287    -25.3 1.196e+04 1.089e-09
 58.09023    -25.1 1.228e+04 1.324e-09
 58.12473    -25.2 1.251e+04 1.419e-09
 58.14721    -26.7 1.343e+04 1.956e-09
 58.16671    -27.4 1.389e+04 2.395e-09
 58.17799    -28.5 1.460e+04 3.458e-09
 58.19171    -28.4 1.473e+04 3.809e-09
 58.20887    -28.6 1.487e+04 3.977e-09
 58.21766    -30.3 1.613e+04 5.041e-09
 58.22307    -28.0 1.598e+04 6.238e-09
 58.23685    -31.5 1.818e+04 6.630e-09
 58.25104    -38.2 2.023e+04 9.282e-09
 58.25664    -41.5 2.091e+04 1.077e-08
 58.26496    -43.7 2.107e+04 1.366e-08
 58.27203    -45.7 2.051e+04 1.715e-08
 58.27767    -48.3 2.137e+04 2.598e-08
 58.28747    -48.9 2.120e+04 2.710e-08
 58.29311    -50.6 2.092e+04 4.087e-08
 58.29882    -49.9 2.073e+04 3.081e-08
 58.30855    -49.8 2.060e+04 2.040e-08
 58.31420    -50.0 2.053e+04 2.122e-08
 58.32139    -51.6 2.055e+04 1.491e-08
 58.32964    -53.2 2.024e+04 8.281e-09
 58.33533    -54.1 2.067e+04 1.079e-08
 58.34970    -60.9 1.733e+04 3.914e-09
 58.36626    -66.1 1.360e+04 2.160e-09
 58.37755    -66.9 1.256e+04 1.688e-09
 58.39485    -66.9 1.234e+04 1.601e-09
 58.40843    -66.4 1.245e+04 1.702e-09
 58.41971    -66.0 1.199e+04 1.324e-09
 58.43931    -65.7 1.253e+04 1.544e-09
 58.46198    -65.3 1.212e+04 9.121e-10
 58.48158    -64.7 1.298e+04 1.622e-09
 58.49276    -64.2 1.211e+04 8.886e-10
 58.50770    -64.0 1.288e+04 1.243e-09
 58.52365    -63.7 1.340e+04 1.692e-09
 58.53493    -63.7 1.273e+04 9.269e-10
 58.55284    -63.4 1.304e+04 1.176e-09
 58.56582    -63.0 1.308e+04 1.357e-09
 58.57550    -63.0 1.215e+04 8.878e-10
 58.58510    -63.1 1.252e+04 1.091e-09
 58.59670    -62.5 1.251e+04 1.189e-09
 58.60798    -61.9 1.168e+04 7.826e-10
 58.62056    -61.3 1.167e+04 8.028e-10
 58.63887    -60.8 1.157e+04 8.051e-10
 58.65015    -60.7 1.142e+04 6.278e-10
 58.66570    -60.2 1.134e+04 6.272e-10
 58.68103    -59.6 1.124e+04 6.073e-10
 58.69242    -59.1 1.084e+04 4.230e-10
 58.72232    -58.3 1.078e+04 4.207e-10
 58.75428    -57.5 1.079e+04 4.230e-10
 58.77685    -56.9 1.081e+04 4.217e-10
 58.81261    -56.5 1.078e+04 4.255e-10
 58.83862    -55.9 1.073e+04 4.230e-10
 58.86119    -55.0 1.086e+04 4.899e-10
 58.90038    -54.5 1.083e+04 4.847e-10
 58.92295    -53.5 1.088e+04 4.898e-10
 58.93604    -53.3 1.092e+04 5.129e-10
 58.95861    -52.9 1.087e+04 4.836e-10
 58.98472    -52.6 1.093e+04 5.055e-10
 59.00729    -52.0 1.113e+04 5.667e-10
 59.02679    -51.9 1.136e+04 6.693e-10
 59.03798    -51.8 1.155e+04 7.280e-10
 59.04941    -52.1 1.172e+04 8.367e-10
 59.06886    -52.3 1.192e+04 1.005e-09
 59.08014    -52.3 1.226e+04 1.210e-09
 59.09455    -52.6 1.233e+04 1.273e-09
 59.11103    -52.9 1.235e+04 1.284e-09
 59.12231    -53.9 1.302e+04 1.636e-09
 59.13969    -54.0 1.281e+04 1.588e-09
 59.15319    -53.9 1.244e+04 1.372e-09
 59.16448    -54.5 1.248e+04 1.651e-09
 59.18408    -54.2 1.210e+04 1.275e-09
 59.19536    -54.5 1.207e+04 1.374e-09
 59.20741    -54.6 1.168e+04 9.736e-10
 59.22624    -54.8 1.130e+04 7.065e-10
 59.23753    -55.6 1.113e+04 6.956e-10
 59.25255    -55.7 1.081e+04 5.480e-10
 59.26841    -55.7 1.061e+04 4.694e-10
 59.27970    -56.6 1.084e+04 5.373e-10
 59.29769    -56.5 1.085e+04 5.277e-10
 59.30916    -56.5 1.096e+04 5.253e-10
 59.31076    -55.9 1.100e+04 5.235e-10
 59.32187    -57.2 1.149e+04 7.379e-10
 59.34146    -56.9 1.153e+04 8.099e-10
 59.35275    -57.8 1.195e+04 1.164e-09
 59.36541    -57.3 1.200e+04 1.264e-09
 59.38363    -56.9 1.197e+04 1.312e-09
 59.39492    -57.6 1.243e+04 1.767e-09
 59.41055    -57.0 1.228e+04 1.707e-09
 59.42580    -56.3 1.193e+04 1.518e-09
 59.43709    -56.4 1.207e+04 1.692e-09
 59.45569    -55.8 1.155e+04 1.329e-09
 59.46797    -55.1 1.102e+04 9.866e-10
 59.47925    -55.1 1.108e+04 9.130e-10
 59.49885    -54.8 1.061e+04 6.091e-10
 59.51014    -55.1 1.040e+04 5.338e-10
 59.52983    -54.7 1.008e+04 3.703e-10
 59.55250    -55.3 9.925e+03 2.873e-10
 59.58003    -53.6 9.691e+03 2.186e-10
 59.61426    -52.2 9.669e+03 2.049e-10
 59.63684    -53.5 9.767e+03 2.928e-10
 59.66010    -52.2 9.927e+03 3.956e-10
 59.68267    -52.1 1.039e+04 4.767e-10
 59.69860    -50.6 1.060e+04 6.483e-10
 59.72117    -50.9 1.087e+04 8.896e-10
 59.76037    -49.3 1.091e+04 9.073e-10
 59.78294    -50.0 1.077e+04 8.088e-10
 59.80574    -48.5 1.039e+04 5.616e-10
 59.84470    -47.4 9.921e+03 3.617e-10
 59.86727    -48.4 9.366e+03 2.873e-10
 59.89602    -47.4 9.093e+03 2.153e-10
 59.92904    -46.2 8.974e+03 1.873e-10
 59.95161    -46.6 9.058e+03 1.878e-10
 59.98631    -45.1 9.029e+03 1.879e-10
 60.01337    -43.7 9.042e+03 1.963e-10
 60.03595    -43.8 9.148e+03 2.153e-10
 60.07514    -42.1 9.110e+03 2.230e-10
 60.09771    -41.9 9.081e+03 2.285e-10
 60.12174    -40.1 9.039e+03 2.213e-10
 60.15948    -38.6 9.009e+03 2.118e-10
 60.18205    -38.4 9.059e+03 1.949e-10
 60.21202    -37.2 9.113e+03 2.022e-10
 60.24381    -36.1 9.178e+03 2.190e-10
 60.26638    -36.4 9.415e+03 2.273e-10
 60.30230    -35.2 9.449e+03 2.575e-10
 60.32815    -33.8 9.485e+03 2.875e-10
 60.35072    -33.3 9.430e+03 2.867e-10
 60.38417    -31.8 9.408e+03 2.828e-10
 60.40406    -31.5 9.346e+03 2.371e-10
 60.41248    -30.7 9.215e+03 2.084e-10
 60.43773    -29.4 9.411e+03 2.204e-10
 60.47425    -28.2 9.539e+03 2.757e-10
 60.49682    -27.7 9.426e+03 2.124e-10
 60.52802    -26.3 9.555e+03 3.127e-10
 60.55858    -24.5 9.843e+03 4.197e-10
 60.58116    -23.9 9.636e+03 3.188e-10
 60.61830    -22.0 9.918e+03 4.083e-10
 60.64292    -20.2 1.018e+04 4.457e-10
 60.66549    -19.8 9.883e+03 3.814e-10
 60.70469    -18.1 1.013e+04 4.336e-10
 60.72726    -17.5 9.891e+03 3.543e-10
 60.75373    -16.1 1.019e+04 4.370e-10
 60.78902    -15.2 1.056e+04 5.327e-10
 60.81159    -15.6 1.067e+04 5.234e-10
 60.84401    -14.7 1.103e+04 8.464e-10
 60.87336    -13.4 1.132e+04 1.095e-09
 60.89593    -12.7 1.136e+04 1.026e-09
 60.93430    -11.3 1.130e+04 8.644e-10
 60.95769    -10.5 1.112e+04 5.673e-10
 60.98027    -10.6 1.124e+04 2.810e-10
 61.01946    -10.8 1.077e+04 2.187e-10
 61.04203    -11.1 1.026e+04 2.039e-10
 61.06972    -10.0 1.011e+04 1.884e-10
 61.10380     -8.7 1.029e+04 1.617e-10
 61.11973     -8.5 1.055e+04 1.954e-10
 61.13080     -7.5 1.051e+04 1.783e-10
 61.16001     -6.9 1.075e+04 1.684e-10
 61.18813     -6.9 1.141e+04 2.091e-10
 61.19932     -6.5 1.108e+04 2.875e-10
 61.21624     -7.5 1.158e+04 3.590e-10
 61.23010     -8.6 1.217e+04 6.052e-10
 61.24139     -8.7 1.248e+04 8.078e-10
 61.26099     -9.6 1.271e+04 1.385e-09
 61.27227     -9.1 1.283e+04 1.572e-09
 61.28395     -8.6 1.281e+04 2.462e-09
 61.30316     -7.6 1.310e+04 3.193e-09
 61.31444     -6.8 1.300e+04 2.715e-09
 61.32910     -6.2 1.322e+04 2.814e-09
 61.34532     -6.2 1.360e+04 2.084e-09
 61.35661     -6.7 1.367e+04 1.376e-09
 61.37424     -8.2 1.337e+04 8.979e-10
 61.38749    -10.0 1.226e+04 5.889e-10
 61.39878    -11.1 1.139e+04 5.128e-10
 61.41847    -10.8 1.133e+04 4.254e-10
 61.44114    -11.4 1.108e+04 3.474e-10
 61.47601    -11.9 1.058e+04 2.413e-10
 61.50291    -11.6 1.039e+04 1.991e-10
 61.52548    -11.3 1.039e+04 2.218e-10
 61.56467    -10.5 1.022e+04 2.156e-10
 61.58724     -9.9 1.028e+04 2.318e-10
 61.61143     -8.7 1.022e+04 2.523e-10
 61.64901     -7.3 1.016e+04 2.583e-10
 61.67158     -6.6 1.015e+04 2.436e-10
 61.70172     -5.1 1.000e+04 2.377e-10
 61.73334     -3.3 1.002e+04 1.914e-10
 61.75591     -3.1 1.002e+04 1.843e-10
 61.79200     -2.1 1.012e+04 1.497e-10
 61.81768     -1.3 1.007e+04 1.448e-10
 61.83540     -0.8 9.884e+03 1.617e-10
 61.85487     -0.3 9.941e+03 1.502e-10
 61.87944      0.7 9.729e+03 1.862e-10
 61.90201      1.4 9.778e+03 1.833e-10
 61.92743      3.0 9.718e+03 2.121e-10
 61.96378      4.7 9.778e+03 1.945e-10
 61.98635      4.2 9.834e+03 2.555e-10
 62.01771      6.0 9.762e+03 2.153e-10
 62.04812      7.6 9.694e+03 1.561e-10
 62.07069      8.2 9.637e+03 2.368e-10
 62.10800      9.3 9.757e+03 1.464e-10
 62.13245     10.0 9.572e+03 1.055e-10
 62.15502     10.4 9.648e+03 1.363e-10
 62.19422     11.5 9.275e+03 9.891e-11
 62.21679     12.4 9.289e+03 1.338e-10
 62.24342     13.8 9.043e+03 8.656e-11
 62.27855     15.0 8.921e+03 6.686e-11
 62.30112     15.7 9.031e+03 7.118e-11
 62.33371     16.8 8.814e+03 6.209e-11
 62.36289     18.2 8.769e+03 6.361e-11
 62.38546     18.8 8.851e+03 8.130e-11
 62.42399     20.6 8.815e+03 9.377e-11
 62.44723     22.5 8.880e+03 9.927e-11
 62.46980     23.4 8.999e+03 1.483e-10
 62.50899     25.2 9.087e+03 1.474e-10
 62.53156     25.9 9.380e+03 2.322e-10
 62.55636     27.3 9.498e+03 2.253e-10
 62.57893     27.1 9.782e+03 3.734e-10
 62.59333     28.5 9.929e+03 3.948e-10
 62.61590     29.1 1.039e+04 6.298e-10
 62.64971     30.1 1.056e+04 6.457e-10
 62.67766     30.8 1.062e+04 6.343e-10
 62.70023     30.5 1.121e+04 9.873e-10
 62.73943     30.4 1.149e+04 1.078e-09
 62.76200     29.6 1.234e+04 1.788e-09
 62.78513     29.4 1.258e+04 2.135e-09
 62.82376     30.0 1.244e+04 2.056e-09
 62.84634     30.2 1.238e+04 2.014e-09
 62.87542     30.1 1.185e+04 1.380e-09
 62.90810     29.1 1.122e+04 8.812e-10
 62.93067     28.3 1.067e+04 6.610e-10
 62.96570     27.6 1.024e+04 5.215e-10
 62.99244     27.0 1.033e+04 5.462e-10
 63.01501     26.6 1.019e+04 5.125e-10
 63.05420     25.0 1.085e+04 7.937e-10
 63.07677     24.9 1.088e+04 8.754e-10
 63.10113     24.7 1.158e+04 1.392e-09
 63.13854     24.8 1.175e+04 1.507e-09
 63.16111     25.3 1.112e+04 1.004e-09
 63.19141     24.1 1.102e+04 7.921e-10
 63.22287     21.5 1.100e+04 8.140e-10
 63.24545     20.9 1.037e+04 5.490e-10
 63.28042     19.0 1.069e+04 8.471e-10
 63.30299     19.5 1.072e+04 8.225e-10
 63.30721     18.2 1.118e+04 1.265e-09
 63.32978     19.1 1.072e+04 9.713e-10
 63.36898     18.4 1.074e+04 1.055e-09
 63.39155     19.4 1.031e+04 8.617e-10
 63.41713     19.0 1.004e+04 7.395e-10
 63.45331     17.7 9.667e+03 6.029e-10
 63.47588     19.2 9.431e+03 5.326e-10
 63.50741     18.3 9.094e+03 4.631e-10
 63.53765     17.6 8.876e+03 4.202e-10
 63.56022     18.5 8.605e+03 3.334e-10
 63.59769     16.7 8.681e+03 3.565e-10
 63.62198     15.4 8.538e+03 3.901e-10
 63.64455     15.9 8.670e+03 4.286e-10
 63.68375     15.9 8.463e+03 3.946e-10
 63.70632     16.5 8.580e+03 4.127e-10
 63.73312     16.3 8.075e+03 3.018e-10
 63.76808     16.2 7.426e+03 1.920e-10
 63.79066     16.1 7.534e+03 2.141e-10
 63.82341     16.2 7.126e+03 1.547e-10
 63.85242     16.7 6.932e+03 1.288e-10
 63.87499     17.0 7.238e+03 1.853e-10
 63.91369     18.3 7.238e+03 1.909e-10
 63.93676     19.9 7.314e+03 2.065e-10
 63.95933     20.6 7.549e+03 2.497e-10
 63.99852     22.5 7.577e+03 2.562e-10
 64.02109     23.1 7.563e+03 2.487e-10
 64.02706     25.1 7.543e+03 2.411e-10
 64.04963     25.3 7.420e+03 2.154e-10
 64.08286     27.1 7.401e+03 2.059e-10
 64.10543     27.4 7.362e+03 1.922e-10
 64.13940     29.2 7.472e+03 2.179e-10
 64.16719     31.3 7.562e+03 2.444e-10
 64.18977     31.9 7.727e+03 2.713e-10
 64.22896     34.3 7.892e+03 3.146e-10
 64.25153     34.9 8.053e+03 3.332e-10
 64.27483     37.2 8.201e+03 3.592e-10
 64.31330     39.3 8.370e+03 3.899e-10
 64.33587     39.9 8.353e+03 3.760e-10
 64.36511     41.8 8.675e+03 4.470e-10
 64.39763     43.2 9.438e+03 6.776e-10
 64.42020     44.2 8.918e+03 4.469e-10
 64.45540     45.7 9.809e+03 7.252e-10
 64.48197     47.3 1.058e+04 1.116e-09
 64.50454     47.9 9.738e+03 5.380e-10
 64.52404     48.4 1.017e+04 7.925e-10
 64.53523     48.6 9.724e+03 5.664e-10
 64.55482     49.0 9.859e+03 6.481e-10
 64.56611     48.8 9.438e+03 4.541e-10
 64.57934     49.0 9.672e+03 5.490e-10
 64.59699     49.1 9.996e+03 6.745e-10
 64.60828     49.0 9.552e+03 5.146e-10
 64.62449     49.2 9.920e+03 6.326e-10
 64.63916     49.3 1.027e+04 7.750e-10
 64.65044     49.3 1.026e+04 7.497e-10
 64.66963     49.3 1.057e+04 8.900e-10
 64.68133     49.2 1.083e+04 1.031e-09
 64.69261     46.0 1.233e+04 1.403e-09
 64.71221     44.9 1.300e+04 1.732e-09
 64.72350     41.5 1.489e+04 3.533e-09
 64.73734     40.3 1.574e+04 4.511e-09
 64.75092     38.7 1.650e+04 6.091e-09
 64.75667     37.5 1.735e+04 8.051e-09
 64.76566     37.2 1.686e+04 7.880e-09
 64.78249     36.4 1.706e+04 9.278e-09
 64.79655     36.0 1.706e+04 1.007e-08
 64.80783     35.6 1.658e+04 8.749e-09
 64.82743     35.2 1.660e+04 9.370e-09
 64.83871     34.6 1.630e+04 7.005e-09
 64.85020     34.4 1.652e+04 7.797e-09
 64.86960     34.5 1.617e+04 7.397e-09
 64.88088     33.2 1.676e+04 6.430e-09
 64.89534     33.9 1.649e+04 6.053e-09
 64.91176     34.7 1.560e+04 4.953e-09
 64.92305     33.5 1.571e+04 4.532e-09
 64.94048     34.4 1.491e+04 3.387e-09
 64.95393     34.7 1.368e+04 2.313e-09
 64.96522     34.0 1.318e+04 2.092e-09
 64.98482     34.6 1.211e+04 1.550e-09
 64.99610     34.8 1.197e+04 1.492e-09
 65.00820     35.3 1.132e+04 1.118e-09
 65.02708     35.5 1.037e+04 7.956e-10
 65.04975     36.0 1.007e+04 7.117e-10
 65.08739     37.3 9.628e+03 6.131e-10
 65.11151     39.5 9.623e+03 6.175e-10
 65.13409     40.3 9.593e+03 6.315e-10
 65.17328     42.5 9.930e+03 7.810e-10
 65.19585     43.3 9.803e+03 7.254e-10
 65.22282     45.3 1.015e+04 8.715e-10
 65.25762     47.2 1.014e+04 8.525e-10
 65.28019     47.5 1.010e+04 8.100e-10
 65.31310     49.4 1.001e+04 7.611e-10
 65.34195     51.4 9.724e+03 6.005e-10
 65.36452     51.5 9.719e+03 6.158e-10
 65.40339     53.4 9.509e+03 5.276e-10
 65.42629     55.5 9.295e+03 4.448e-10
 65.44886     56.0 9.119e+03 4.083e-10
 65.47518     58.2 8.983e+03 3.597e-10
 65.49214     58.2 8.618e+03 2.703e-10
 65.51062     58.9 8.365e+03 1.790e-10
 65.53881     61.3 8.306e+03 1.721e-10
 65.57239     63.6 8.288e+03 1.678e-10
 65.59496     63.8 8.136e+03 9.409e-11
 65.62910     66.2 8.130e+03 9.931e-11
 65.65673     68.5 8.175e+03 1.076e-10
 65.67930     68.4 8.315e+03 1.026e-10
 65.71849     70.8 8.371e+03 1.186e-10
 65.74106     70.3 8.622e+03 1.557e-10
 65.76453     72.7 8.707e+03 1.759e-10
 65.80283     75.1 8.768e+03 1.930e-10
 65.82540     75.3 9.052e+03 2.694e-10
 65.85481     77.7 8.996e+03 2.452e-10
 65.88716     80.2 8.922e+03 2.168e-10
 65.90973     80.3 8.848e+03 1.842e-10
 65.94510     82.6 8.739e+03 1.368e-10
 65.97150     84.9 8.622e+03 1.013e-10
 65.99407     84.2 8.721e+03 8.449e-11
 66.03326     86.1 8.569e+03 6.782e-11
 66.05584     85.3 8.624e+03 7.654e-11
 66.08052     87.4 8.466e+03 7.133e-11
 66.11760     89.7 8.451e+03 7.153e-11
 66.14017     88.9 8.633e+03 9.542e-11
 66.17081     91.1 8.646e+03 9.802e-11
 66.19925     93.2 8.684e+03 1.085e-10
 66.20781     93.1 8.942e+03 1.427e-10
 66.22451     92.5 9.209e+03 2.431e-10
 66.26109     94.6 9.290e+03 2.773e-10
 66.28627     96.8 9.417e+03 3.233e-10
 66.30884     96.2 9.322e+03 3.308e-10
 66.34804     98.0 9.426e+03 3.658e-10
 66.37061     97.8 9.039e+03 2.943e-10
 66.39652     99.7 9.079e+03 3.196e-10
 66.43237    101.5 9.101e+03 3.431e-10
 66.45494    101.1 8.796e+03 2.281e-10
 66.48680    102.9 8.803e+03 2.275e-10
 66.51671    104.6 8.790e+03 2.200e-10
 66.53928    103.6 8.633e+03 1.748e-10
 66.57709    105.4 8.630e+03 1.744e-10
 66.60105    107.2 8.597e+03 1.713e-10
 66.62362    106.1 8.716e+03 2.081e-10
 66.66281    107.8 8.761e+03 2.171e-10
 66.68538    107.4 9.037e+03 3.068e-10
 66.71251    109.0 9.047e+03 3.054e-10
 66.74715    110.5 9.040e+03 2.958e-10
 66.76972    110.0 8.984e+03 2.585e-10
 66.80280    111.1 8.915e+03 2.189e-10
 66.83148    111.9 8.792e+03 1.832e-10
 66.85405    110.0 8.768e+03 1.739e-10
 66.89308    110.3 8.815e+03 1.829e-10
 66.92331    107.9 9.332e+03 3.350e-10
 66.94588    108.7 9.313e+03 3.273e-10
 66.97758    108.6 9.902e+03 5.554e-10
 67.00016    106.7 1.006e+04 6.080e-10
 67.02851    105.7 1.049e+04 6.992e-10
 67.06192    103.7 1.053e+04 6.810e-10
 67.08449    100.3 1.023e+04 5.820e-10
 67.11880     97.9 9.905e+03 4.884e-10
 67.14626     96.1 9.350e+03 3.692e-10
 67.16883     95.5 9.300e+03 3.974e-10
 67.20802     95.0 8.838e+03 2.818e-10
 67.23059     95.0 8.982e+03 2.876e-10
 67.25422     94.5 8.463e+03 1.852e-10
 67.29236     93.9 8.199e+03 1.628e-10
 67.31493     93.8 8.327e+03 1.771e-10
 67.34451     93.6 8.318e+03 1.817e-10
 67.37669     93.7 8.397e+03 2.087e-10
 67.39927     94.2 8.546e+03 2.216e-10
 67.43479     94.4 8.638e+03 2.460e-10
 67.46103     94.8 8.734e+03 2.665e-10
 67.48360     95.4 8.609e+03 1.967e-10
 67.52280     95.8 8.569e+03 1.814e-10
 67.54537     96.1 8.364e+03 1.219e-10
 67.57022     96.4 8.322e+03 1.201e-10
 67.60713     96.8 8.318e+03 1.217e-10
 67.62970     97.2 8.143e+03 1.056e-10
 67.64737     98.1 8.133e+03 1.129e-10
 67.66995     98.4 7.924e+03 9.316e-11
 67.69147     99.5 7.949e+03 1.019e-10
 67.71404    100.5 7.921e+03 1.070e-10
 67.75079    101.7 7.939e+03 1.113e-10
 67.77580    102.9 7.935e+03 1.129e-10
 67.79838    104.1 7.976e+03 1.291e-10
 67.83757    105.4 7.932e+03 1.271e-10
 67.86014    106.8 7.977e+03 1.317e-10
 67.88622    108.2 7.904e+03 1.207e-10
 67.92191    109.5 7.824e+03 1.065e-10
 67.94448    111.0 7.936e+03 1.079e-10
 67.97650    112.3 7.820e+03 8.832e-11
 68.00624    113.4 7.710e+03 7.275e-11
 68.02881    114.6 7.758e+03 7.683e-11
 68.06678    115.6 7.644e+03 7.081e-11
 68.09058    116.7 7.632e+03 7.066e-11
 68.11315    118.0 7.680e+03 8.319e-11
 68.15234    119.1 7.680e+03 8.364e-11
 68.17491    120.5 7.823e+03 1.017e-10
 68.20221    121.6 7.821e+03 1.054e-10
 68.23668    122.7 7.911e+03 1.195e-10
 68.25925    123.9 8.150e+03 1.438e-10
 68.29250    125.0 8.286e+03 1.737e-10
 68.32101    126.0 8.546e+03 2.159e-10
 68.34359    127.3 8.807e+03 2.489e-10
 68.37144    128.2 9.020e+03 2.895e-10
 68.39401    128.2 9.073e+03 2.824e-10
 68.42792    129.5 9.431e+03 3.397e-10
 68.46712    129.4 9.500e+03 3.574e-10
 68.48969    130.4 9.799e+03 4.155e-10
 68.51821    129.7 9.869e+03 4.411e-10
 68.55145    128.7 1.009e+04 5.236e-10
 68.57402    128.7 1.058e+04 6.736e-10
 68.60849    126.7 1.077e+04 7.704e-10
 68.63579    124.3 1.076e+04 7.700e-10
 68.65836    123.4 1.105e+04 8.657e-10
 68.69755    121.3 1.061e+04 6.500e-10
 68.72012    120.2 1.065e+04 5.554e-10
 68.74392    118.5 9.711e+03 2.526e-10
 68.78189    116.8 8.794e+03 1.298e-10
 68.80446    114.8 8.906e+03 1.618e-10
 68.83420    114.6 8.885e+03 1.625e-10
 68.86623    115.1 8.935e+03 1.748e-10
 68.88880    114.0 9.659e+03 3.607e-10
 68.92449    114.3 1.037e+04 5.861e-10
 68.95056    114.3 1.109e+04 9.250e-10
 68.97313    114.1 1.229e+04 1.697e-09
 69.01233    113.9 1.255e+04 1.753e-09
 69.03490    112.6 1.285e+04 1.804e-09
 69.05992    111.7 1.272e+04 1.504e-09
 69.09550    110.5 1.214e+04 9.485e-10
 69.10968    110.9 1.261e+04 1.351e-09
 69.11923    109.3 1.197e+04 1.098e-09
 69.15020    108.7 1.121e+04 6.410e-10
 69.18100    108.4 1.041e+04 3.405e-10
 69.20357    108.1 1.048e+04 4.033e-10
 69.24049    108.0 9.962e+03 2.466e-10
 69.26534    108.3 9.588e+03 1.747e-10
 69.28791    108.2 9.786e+03 2.355e-10
 69.32710    109.0 9.470e+03 1.785e-10
 69.34967    109.0 9.547e+03 2.369e-10
 69.37591    110.0 9.501e+03 2.224e-10
 69.41144    111.5 9.531e+03 2.253e-10
 69.43401    111.5 9.929e+03 2.974e-10
 69.46620    112.6 1.014e+04 3.266e-10
 69.49567    112.8 1.040e+04 3.969e-10
 69.50686    112.1 1.088e+04 6.170e-10
 69.52243    112.4 1.113e+04 7.477e-10
 69.53775    112.8 1.136e+04 8.969e-10
 69.54903    112.3 1.181e+04 1.232e-09
 69.56757    112.8 1.203e+04 1.403e-09
 69.57991    113.2 1.223e+04 1.546e-09
 69.59120    112.6 1.255e+04 1.901e-09
 69.61080    112.7 1.281e+04 1.982e-09
 69.62208    111.3 1.326e+04 2.194e-09
 69.63529    111.0 1.340e+04 2.233e-09
 69.65296    110.8 1.340e+04 2.227e-09
 69.66425    109.1 1.335e+04 2.057e-09
 69.68043    109.4 1.303e+04 1.870e-09
 69.69513    110.0 1.268e+04 1.646e-09
 69.70642    109.3 1.234e+04 1.183e-09
 69.72557    109.7 1.215e+04 9.458e-10
 69.73730    109.7 1.195e+04 7.699e-10
 69.74859    107.0 1.130e+04 4.410e-10
 69.76818    106.5 1.064e+04 4.067e-10
 69.77947    103.7 9.673e+03 3.086e-10
 69.79328    104.0 9.602e+03 3.265e-10
 69.81035    104.3 9.622e+03 3.714e-10
 69.82164    103.4 9.625e+03 3.796e-10
 69.83066    103.8 9.816e+03 4.529e-10
 69.84194    104.3 9.882e+03 4.532e-10
 69.85252    104.6 1.007e+04 5.401e-10
 69.86380    103.6 1.016e+04 5.747e-10
 69.88340    103.9 1.029e+04 6.839e-10
 69.89469    103.2 1.032e+04 7.566e-10
 69.90614    103.6 1.050e+04 8.682e-10
 69.92557    103.9 1.073e+04 9.817e-10
 69.93686    103.5 1.079e+04 9.885e-10
 69.95128    103.2 1.092e+04 1.030e-09
 69.96774    102.6 1.103e+04 1.054e-09
 69.97902    101.5 1.096e+04 9.866e-10
 69.99642     99.6 1.144e+04 1.124e-09
 70.00991     96.4 1.257e+04 1.543e-09
 70.02119     92.8 1.363e+04 2.144e-09
 70.04079     89.8 1.469e+04 3.608e-09
 70.05207     87.7 1.508e+04 4.973e-09
 70.06414     87.0 1.577e+04 7.331e-09
 70.08296     86.3 1.623e+04 8.770e-09
 70.09424     85.5 1.616e+04 8.579e-09
 70.10928     84.5 1.609e+04 8.173e-09
 70.12512     83.7 1.577e+04 6.601e-09
 70.13641     82.6 1.486e+04 4.103e-09
 70.15442     79.9 1.429e+04 2.824e-09
 70.16729     75.7 1.383e+04 2.400e-09
 70.17858     72.5 1.264e+04 1.757e-09
 70.19269     68.8 1.277e+04 2.047e-09
 70.20258     71.2 1.210e+04 1.371e-09
 70.20946     69.3 1.137e+04 1.181e-09
 70.22214     67.1 1.225e+04 1.795e-09
 70.24034     65.9 1.315e+04 2.845e-09
 70.25163     66.6 1.259e+04 2.540e-09
 70.26728     66.2 1.326e+04 3.410e-09
 70.28251     65.6 1.369e+04 3.656e-09
 70.29380     66.0 1.305e+04 2.786e-09
 70.31242     64.7 1.305e+04 2.673e-09
 70.32468     63.0 1.286e+04 2.135e-09
 70.33596     62.5 1.206e+04 1.486e-09
 70.35556     59.4 1.133e+04 9.645e-10
 70.36685     58.6 1.062e+04 7.401e-10
 70.38013     55.0 9.838e+03 5.571e-10
 70.39773     51.6 9.748e+03 5.527e-10
 70.40902     51.9 9.782e+03 5.511e-10
 70.42528     50.0 9.841e+03 5.759e-10
 70.43990     46.5 1.042e+04 7.137e-10
 70.46257     46.9 1.055e+04 7.935e-10
 70.50186     40.9 1.154e+04 1.101e-09
 70.52443     44.4 1.121e+04 1.068e-09
 70.54363     39.5 1.131e+04 1.072e-09
 70.56620     40.4 1.157e+04 1.293e-09
 70.58619     36.7 1.124e+04 1.029e-09
 70.60877     39.1 1.116e+04 9.525e-10
 70.62826     36.8 1.092e+04 7.705e-10
 70.63945     37.3 1.071e+04 7.228e-10
 70.65099     35.9 1.033e+04 5.338e-10
 70.67034     34.0 1.049e+04 5.051e-10
 70.68162     35.1 1.007e+04 4.199e-10
 70.69613     33.3 1.017e+04 4.294e-10
 70.73008     31.2 1.110e+04 6.436e-10
 70.75487     28.2 1.204e+04 1.246e-09
 70.77744     31.5 1.123e+04 7.869e-10
 70.80908     30.7 1.134e+04 9.190e-10
 70.82772     30.0 1.146e+04 1.027e-09
 70.83901     31.4 1.119e+04 8.271e-10
 70.85413     30.2 1.137e+04 9.294e-10
 70.86989     29.0 1.141e+04 9.427e-10
 70.88118     30.0 1.142e+04 8.736e-10
 70.89927     27.6 1.171e+04 9.295e-10
 70.91206     25.6 1.169e+04 9.462e-10
 70.92344     27.0 1.179e+04 9.633e-10
 70.94304     23.8 1.213e+04 1.090e-09
 70.95423     23.8 1.196e+04 1.085e-09
 70.96698     22.0 1.199e+04 1.183e-09
 70.98521     18.3 1.211e+04 1.396e-09
 71.00788     21.1 1.143e+04 1.163e-09
 71.04618     18.9 1.095e+04 9.340e-10
 71.06964     16.5 1.104e+04 9.305e-10
 71.09221     18.8 1.035e+04 6.746e-10
 71.12508     18.2 1.042e+04 6.940e-10
 71.14250     16.6 1.141e+04 9.140e-10
 71.15378     18.4 1.066e+04 7.155e-10
 71.17012     15.7 1.274e+04 1.366e-09
 71.18466     13.4 1.410e+04 2.697e-09
 71.19595     14.9 1.400e+04 2.247e-09
 71.21527      9.4 1.800e+04 6.373e-09
 71.22683      3.7 2.143e+04 2.044e-08
 71.23243      5.4 2.139e+04 1.796e-08
 71.24218      2.3 2.185e+04 3.008e-08
 71.24782      2.6 2.116e+04 3.346e-08
 71.25467      3.1 2.111e+04 6.447e-08
 71.26326      2.5 2.118e+04 7.375e-08
 71.26890      3.6 2.108e+04 9.445e-08
 71.27724      4.6 2.116e+04 6.206e-08
 71.28433      3.7 2.204e+04 3.238e-08
 71.28997      6.0 2.286e+04 4.790e-08
 71.29978      2.3 2.454e+04 2.015e-08
 71.31107     -2.8 2.957e+04 9.849e-09
 71.32807    -13.4 2.628e+04 2.215e-09
 71.34205    -26.3 1.224e+04 9.818e-10
 71.35334    -24.7 1.565e+04 1.058e-09
 71.37293    -29.3 1.178e+04 1.028e-09
 71.38422    -31.0 1.224e+04 1.394e-09
 71.39584    -33.1 1.252e+04 1.624e-09
 71.41510    -34.8 1.274e+04 1.931e-09
 71.42639    -36.2 1.345e+04 2.537e-09
 71.44098    -37.2 1.353e+04 2.758e-09
 71.45727    -37.9 1.355e+04 2.871e-09
 71.46855    -38.5 1.354e+04 2.893e-09
 71.48612    -38.8 1.323e+04 2.716e-09
 71.49944    -38.9 1.284e+04 2.475e-09
 71.51072    -39.2 1.218e+04 1.754e-09
 71.53032    -38.9 1.187e+04 1.460e-09
 71.54161    -39.7 1.144e+04 8.999e-10
 71.55383    -39.7 1.128e+04 7.254e-10
 71.57249    -39.8 1.104e+04 5.846e-10
 71.58377    -41.7 1.015e+04 3.649e-10
 71.59898    -41.8 1.001e+04 3.285e-10
 71.61466    -41.8 9.983e+03 3.184e-10
 71.62594    -42.8 9.804e+03 2.898e-10
 71.64082    -43.0 1.005e+04 3.113e-10
 71.65210    -43.4 9.710e+03 2.567e-10
 71.65682    -43.9 1.000e+04 3.155e-10
 71.66811    -44.8 1.025e+04 4.007e-10
 71.68771    -44.9 1.060e+04 5.095e-10
 71.69899    -46.0 1.073e+04 7.397e-10
 71.72322    -46.0 1.132e+04 1.069e-09
 71.76095    -45.7 1.214e+04 1.702e-09
 71.78352    -45.9 1.195e+04 1.677e-09
 71.81360    -45.9 1.195e+04 1.716e-09
 71.84519    -45.8 1.142e+04 1.353e-09
 71.86776    -46.5 1.088e+04 1.020e-09
 71.90388    -46.3 1.029e+04 6.866e-10
 71.92953    -46.2 9.704e+03 4.392e-10
 71.95210    -46.4 9.847e+03 4.851e-10
 71.99139    -45.7 9.297e+03 3.006e-10
 72.01155    -45.5 9.910e+03 5.756e-10
 72.01433    -46.1 9.839e+03 5.464e-10
 72.03931    -45.2 9.045e+03 3.217e-10
 72.07573    -44.4 8.647e+03 2.610e-10
 72.09830    -43.3 9.351e+03 3.803e-10
 72.12959    -42.2 9.014e+03 3.295e-10
 72.16006    -41.4 8.967e+03 3.271e-10
 72.18263    -40.8 9.548e+03 3.923e-10
 72.21988    -40.7 9.548e+03 3.904e-10
 72.24440    -40.8 9.563e+03 4.143e-10
 72.26697    -40.7 9.874e+03 5.027e-10
 72.30616    -40.6 9.547e+03 4.486e-10
 72.32873    -40.1 1.016e+04 5.303e-10
 72.35531    -40.1 9.730e+03 3.835e-10
 72.39050    -40.1 9.448e+03 2.968e-10
 72.41297    -40.5 9.752e+03 3.707e-10
 72.44549    -40.2 9.602e+03 3.655e-10
 72.47484    -39.4 9.365e+03 3.026e-10
 72.48602    -39.3 9.937e+03 4.428e-10
 72.50182    -39.2 9.916e+03 4.011e-10
 72.51681    -39.3 9.838e+03 3.704e-10
 72.52809    -39.8 9.830e+03 4.170e-10
 72.54697    -39.7 9.848e+03 4.018e-10
 72.55907    -39.5 9.838e+03 3.719e-10
 72.58174    -40.0 1.015e+04 6.101e-10
 72.62094    -39.7 9.939e+03 5.229e-10
 72.64351    -38.8 1.009e+04 6.160e-10
 72.67130    -39.0 9.738e+03 4.477e-10
 72.70527    -40.2 9.690e+03 4.068e-10
 72.72722    -40.4 9.535e+03 3.664e-10
 72.73839    -40.5 9.244e+03 2.950e-10
 72.76159    -41.6 9.576e+03 3.921e-10
 72.78961    -42.1 9.918e+03 5.171e-10
 72.81218    -41.9 1.010e+04 6.541e-10
 72.85137    -42.2 1.017e+04 6.657e-10
 72.87394    -42.1 1.049e+04 8.214e-10
 72.89701    -43.1 1.002e+04 4.979e-10
 72.93571    -44.6 9.357e+03 2.425e-10
 72.95828    -45.3 9.607e+03 2.972e-10
 72.98730    -46.8 9.271e+03 1.828e-10
 73.02005    -48.1 9.157e+03 1.543e-10
 73.04262    -48.6 9.270e+03 2.072e-10
 73.07758    -49.3 9.194e+03 2.140e-10
 73.10438    -49.3 9.204e+03 2.836e-10
 73.12695    -49.1 9.263e+03 3.288e-10
 73.16615    -48.5 9.275e+03 3.582e-10
 73.18872    -48.2 9.178e+03 3.482e-10
 73.21301    -47.1 8.876e+03 3.112e-10
 73.25048    -46.0 8.542e+03 2.251e-10
 73.27305    -45.6 8.391e+03 1.781e-10
 73.30329    -44.9 8.176e+03 1.337e-10
 73.33482    -44.5 8.116e+03 1.164e-10
 73.35739    -43.8 7.982e+03 1.067e-10
 73.39358    -43.6 8.021e+03 1.066e-10
 73.41916    -43.9 8.337e+03 1.476e-10
 73.44173    -43.1 8.287e+03 1.180e-10
 73.46246    -43.6 8.715e+03 2.119e-10
 73.48208    -43.8 8.699e+03 2.153e-10
 73.50349    -43.6 8.702e+03 1.885e-10
 73.52901    -43.9 9.062e+03 3.100e-10
 73.56526    -44.1 9.340e+03 3.606e-10
 73.58783    -43.6 9.297e+03 3.553e-10
 73.61929    -44.4 9.380e+03 3.552e-10
 73.64959    -45.8 9.354e+03 2.883e-10
 73.67216    -45.2 9.275e+03 2.558e-10
 73.70958    -46.7 9.231e+03 2.360e-10
 73.73393    -47.8 9.207e+03 2.360e-10
 73.75650    -47.3 9.129e+03 2.218e-10
 73.79569    -47.8 9.061e+03 2.251e-10
 73.81827    -47.1 8.982e+03 2.105e-10
 73.84500    -47.6 8.785e+03 1.710e-10
 73.88003    -48.2 8.604e+03 1.179e-10
 73.90260    -48.3 8.631e+03 1.114e-10
 73.93529    -49.1 8.407e+03 7.956e-11
 73.96437    -49.7 8.172e+03 6.652e-11
 73.98694    -49.5 8.144e+03 7.334e-11
 74.02557    -49.2 8.000e+03 6.908e-11
 74.04870    -48.5 7.971e+03 6.919e-11
 74.07127    -48.1 8.006e+03 6.704e-11
 74.11047    -47.3 7.980e+03 6.531e-11
 74.13304    -47.4 8.096e+03 6.428e-11
 74.16100    -46.6 8.077e+03 6.292e-11
 74.18652    -45.8 8.058e+03 6.087e-11
 74.19775    -46.0 7.894e+03 4.756e-11
 74.21738    -46.3 7.994e+03 6.411e-11
 74.25128    -45.6 8.011e+03 6.465e-11
 74.27914    -45.3 8.137e+03 7.029e-11
 74.30171    -45.6 8.348e+03 1.247e-10
 74.34091    -45.1 8.465e+03 1.661e-10
 74.36348    -44.6 8.657e+03 2.317e-10
 74.38671    -43.8 8.843e+03 2.630e-10
 74.42524    -43.4 9.063e+03 2.823e-10
 74.44781    -43.7 9.184e+03 2.837e-10
 74.47699    -44.1 9.340e+03 2.885e-10
 74.50958    -44.6 9.354e+03 3.033e-10
 74.53215    -45.1 9.545e+03 4.014e-10
 74.56728    -44.8 9.484e+03 4.090e-10
 74.59391    -44.3 9.358e+03 4.011e-10
 74.61648    -44.1 9.476e+03 4.195e-10
 74.65568    -43.8 9.336e+03 3.938e-10
 74.67825    -44.6 9.469e+03 3.549e-10
 74.70271    -44.7 9.438e+03 3.996e-10
 74.74001    -44.5 9.360e+03 4.402e-10
 74.76259    -44.6 9.519e+03 5.740e-10
 74.79299    -43.5 9.493e+03 5.902e-10
 74.82435    -42.1 9.265e+03 5.437e-10
 74.84692    -41.7 9.083e+03 4.842e-10
 74.88328    -40.4 8.745e+03 3.865e-10
 74.90869    -39.3 8.531e+03 3.336e-10
 74.91342    -39.0 8.194e+03 2.171e-10
 74.93315    -39.3 8.043e+03 2.043e-10
 74.97045    -37.7 7.918e+03 2.016e-10
 74.99302    -37.7 7.783e+03 1.392e-10
 75.01870    -36.0 7.757e+03 1.513e-10
 75.05479    -34.3 7.698e+03 1.581e-10
 75.07736    -34.8 7.861e+03 1.795e-10
 75.10899    -33.3 7.976e+03 2.299e-10
 75.13912    -32.0 8.227e+03 3.090e-10
 75.16170    -32.2 8.883e+03 4.580e-10
 75.19927    -31.4 9.636e+03 7.010e-10
 75.22346    -30.9 1.060e+04 1.136e-09
 75.24603    -31.7 1.051e+04 1.076e-09
 75.28523    -30.7 1.089e+04 1.305e-09
 75.30780    -32.5 9.902e+03 8.383e-10
 75.33470    -31.5 9.529e+03 7.409e-10
 75.36956    -30.7 8.982e+03 5.025e-10
 75.39213    -31.4 8.193e+03 3.238e-10
 75.42498    -30.9 7.732e+03 2.263e-10
 75.45390    -30.1 7.408e+03 1.812e-10
 75.47647    -29.8 7.248e+03 1.637e-10
 75.51527    -28.5 7.242e+03 1.610e-10
 75.53823    -27.7 7.480e+03 1.886e-10
 75.56081    -27.5 7.452e+03 1.882e-10
 75.60000    -27.7 8.163e+03 3.180e-10
 75.62257    -28.7 8.483e+03 3.688e-10
 75.63465    -29.0 9.608e+03 7.276e-10
 75.65722    -29.4 9.780e+03 7.758e-10
 75.68434    -28.8 1.077e+04 1.284e-09
 75.70691    -31.6 1.167e+04 1.825e-09
 75.74098    -30.3 1.182e+04 2.001e-09
 75.76867    -29.3 1.167e+04 1.874e-09
 75.79124    -31.1 1.142e+04 1.753e-09
 75.83044    -29.4 1.088e+04 1.412e-09
 75.85301    -30.5 9.887e+03 8.093e-10
 75.87641    -28.1 9.623e+03 6.899e-10
 75.91477    -26.4 9.272e+03 5.755e-10
 75.93734    -27.5 8.411e+03 3.427e-10
 75.96669    -25.6 8.526e+03 3.624e-10
 75.99911    -24.2 8.948e+03 4.799e-10
 76.02168    -24.1 8.641e+03 4.157e-10
 76.05698    -22.1 9.035e+03 5.519e-10
 76.08344    -19.8 9.530e+03 7.269e-10
 76.10602    -18.9 9.237e+03 5.914e-10
 76.12552    -17.5 9.420e+03 6.623e-10
 76.13670    -17.0 9.305e+03 5.976e-10
 76.15630    -16.5 9.348e+03 6.071e-10
 76.16768    -16.3 9.237e+03 5.494e-10
 76.18102    -15.0 9.246e+03 5.358e-10
 76.19847    -14.5 9.214e+03 5.275e-10
 76.20975    -14.2 9.182e+03 5.038e-10
 76.22606    -13.3 9.239e+03 4.725e-10
 76.24064    -13.2 9.352e+03 4.849e-10
 76.25192    -12.9 9.421e+03 4.916e-10
 76.27121    -12.3 9.537e+03 5.167e-10
 76.28280    -12.5 9.789e+03 5.680e-10
 76.29409    -12.0 1.001e+04 6.011e-10
 76.31369    -11.6 1.015e+04 7.210e-10
 76.32497    -10.8 1.049e+04 8.344e-10
 76.33892    -10.6 1.063e+04 9.301e-10
 76.35586    -10.1 1.066e+04 1.074e-09
 76.36416     -9.1 1.101e+04 1.166e-09
 76.36980     -8.9 1.091e+04 1.136e-09
 76.38406     -8.7 1.097e+04 1.229e-09
 76.39802     -8.6 1.119e+04 1.412e-09
 76.40931     -7.5 1.134e+04 1.437e-09
 76.42891     -7.4 1.157e+04 1.628e-09
 76.44019     -6.3 1.148e+04 1.463e-09
 76.45178     -6.4 1.186e+04 1.831e-09
 76.47107     -6.6 1.240e+04 2.244e-09
 76.48236     -5.8 1.249e+04 2.176e-09
 76.49692     -6.1 1.326e+04 2.987e-09
 76.51324     -5.6 1.358e+04 3.656e-09
 76.52453     -5.2 1.388e+04 3.670e-09
 76.54206     -4.0 1.375e+04 4.481e-09
 76.55541     -2.9 1.350e+04 4.408e-09
 76.56670     -2.1 1.385e+04 4.495e-09
 76.58629     -0.6 1.361e+04 4.305e-09
 76.59758     -0.2 1.389e+04 3.540e-09
 76.60977      0.8 1.348e+04 3.242e-09
 76.62846      1.5 1.311e+04 2.721e-09
 76.63975      1.1 1.323e+04 2.594e-09
 76.65492      1.6 1.289e+04 2.188e-09
 76.67063      1.6 1.282e+04 1.878e-09
 76.68191      2.1 1.264e+04 2.006e-09
 76.70006      2.5 1.269e+04 1.875e-09
 76.71280      2.4 1.311e+04 2.023e-09
 76.72200      3.3 1.279e+04 2.108e-09
 76.73183      2.7 1.330e+04 2.868e-09
 76.74368      1.9 1.406e+04 3.684e-09
 76.75496      3.2 1.391e+04 3.359e-09
 76.76777      3.0 1.423e+04 4.543e-09
 76.78585      3.9 1.431e+04 6.079e-09
 76.79713      5.3 1.451e+04 4.630e-09
 76.81291      6.2 1.468e+04 5.978e-09
 76.82802      7.5 1.462e+04 7.055e-09
 76.83930      9.1 1.480e+04 4.190e-09
 76.85806      9.8 1.480e+04 4.552e-09
 76.87018      9.9 1.468e+04 4.674e-09
 76.88147     10.1 1.436e+04 2.700e-09
 76.90107     10.2 1.406e+04 2.627e-09
 76.91235     10.1 1.307e+04 1.685e-09
 76.92577     10.5 1.295e+04 1.666e-09
 76.94323     11.3 1.273e+04 1.603e-09
 76.95452     11.7 1.183e+04 1.142e-09
 76.97091     12.5 1.189e+04 1.111e-09
 76.98540     13.6 1.196e+04 1.075e-09
 76.99669     14.0 1.107e+04 8.318e-10
 77.01606     14.7 1.133e+04 8.547e-10
 77.02757     15.5 1.145e+04 8.576e-10
 77.05024     17.6 1.090e+04 7.522e-10
 77.08268     18.5 1.068e+04 6.842e-10
 77.09386     18.1 1.045e+04 5.668e-10
 77.10062     19.2 1.059e+04 6.716e-10
 77.11200     20.1 1.003e+04 3.969e-10
 77.12901     21.1 1.046e+04 5.578e-10
 77.14279     22.3 1.077e+04 7.026e-10
 77.15407     22.5 1.037e+04 5.870e-10
 77.17367     23.3 1.068e+04 7.184e-10
 77.19634     25.0 1.042e+04 4.957e-10
 77.21594     25.8 1.082e+04 6.887e-10
 77.22712     26.0 1.052e+04 5.704e-10
 77.24177     26.9 1.073e+04 6.894e-10
 77.25801     27.9 1.101e+04 8.783e-10
 77.26929     28.4 1.061e+04 5.936e-10
 77.28691     29.3 1.080e+04 7.428e-10
 77.30018     30.5 1.099e+04 9.160e-10
 77.31146     30.6 1.065e+04 6.958e-10
 77.33106     31.7 1.084e+04 8.186e-10
 77.34234     32.1 1.054e+04 6.132e-10
 77.35462     33.0 1.065e+04 6.873e-10
 77.37323     34.1 1.074e+04 7.505e-10
 77.38451     34.0 1.053e+04 5.759e-10
 77.39977     35.0 1.053e+04 5.965e-10
 77.41539     36.0 1.051e+04 5.978e-10
 77.42668     35.7 1.036e+04 4.694e-10
 77.44461     36.5 1.042e+04 4.565e-10
 77.45590     36.5 1.056e+04 5.012e-10
 77.45756     37.1 1.057e+04 4.958e-10
 77.46885     35.6 1.112e+04 5.394e-10
 77.48844     36.0 1.102e+04 5.314e-10
 77.49973     33.6 1.193e+04 7.761e-10
 77.51262     34.0 1.141e+04 7.526e-10
 77.53061     34.4 1.096e+04 7.575e-10
 77.54190     33.7 1.103e+04 9.927e-10
 77.55776     34.5 1.072e+04 9.369e-10
 77.57278     35.2 1.049e+04 9.373e-10
 77.58407     35.6 1.054e+04 8.374e-10
 77.60291     36.6 1.044e+04 7.491e-10
 77.61495     37.6 1.044e+04 7.402e-10
 77.62623     37.2 1.055e+04 5.040e-10
 77.64583     38.1 1.064e+04 4.545e-10
 77.65712     36.5 1.003e+04 2.809e-10
 77.67062     37.1 1.002e+04 2.503e-10
 77.68800     37.8 9.954e+03 2.391e-10
 77.69929     36.2 9.198e+03 1.969e-10
 77.71576     37.2 9.080e+03 1.889e-10
 77.73017     38.3 9.095e+03 1.907e-10
 77.74155     37.9 9.121e+03 2.630e-10
 77.77238     40.8 9.177e+03 2.512e-10
 77.80332     42.7 9.198e+03 2.390e-10
 77.81520     44.0 9.217e+03 3.389e-10
 77.82941     44.1 8.864e+03 2.403e-10
 77.86267     47.2 9.052e+03 2.219e-10
 77.88765     48.4 9.076e+03 2.202e-10
 77.89884     49.0 9.173e+03 2.862e-10
 77.91844     50.1 9.138e+03 2.601e-10
 77.92972     49.8 9.306e+03 2.927e-10
 77.94147     50.9 9.435e+03 2.957e-10
 77.96061     51.9 9.730e+03 3.184e-10
 77.97189     51.8 9.968e+03 4.856e-10
 77.98662     52.2 1.044e+04 5.612e-10
 78.00277     52.4 1.092e+04 6.731e-10
 78.01406     52.3 1.099e+04 9.433e-10
 78.03176     52.5 1.138e+04 1.117e-09
 78.04494     52.6 1.188e+04 1.373e-09
 78.05623     52.2 1.257e+04 2.041e-09
 78.07582     50.6 1.426e+04 2.693e-09
 78.08711     45.8 1.801e+04 6.044e-09
 78.09947     42.2 1.960e+04 9.236e-09
 78.11799     38.5 2.026e+04 1.397e-08
 78.12923     36.1 2.034e+04 2.614e-08
 78.13887     35.5 2.004e+04 3.205e-08
 78.14462     35.5 2.008e+04 3.977e-08
 78.15026     35.4 2.029e+04 4.792e-08
 78.16006     34.9 2.096e+04 5.168e-08
 78.16570     33.7 2.127e+04 5.255e-08
 78.17273     32.9 2.138e+04 4.896e-08
 78.17986     32.0 2.193e+04 3.847e-08
 78.18264     32.1 2.241e+04 4.575e-08
 78.18679     29.7 2.457e+04 3.854e-08
 78.19530     27.6 2.500e+04 2.598e-08
 78.20223     24.9 2.438e+04 1.767e-08
 78.21356     15.9 2.081e+04 1.260e-08
 78.23321     10.7 1.751e+04 5.799e-09
 78.24450      9.2 1.661e+04 6.711e-09
 78.25747      7.0 1.402e+04 3.287e-09
 78.27538      5.7 1.203e+04 1.695e-09
 78.28666      5.4 1.200e+04 1.736e-09
 78.30261      4.4 1.089e+04 9.286e-10
 78.31755      3.0 1.016e+04 5.159e-10
 78.32883      2.5 1.011e+04 5.107e-10
 78.34853      1.9 9.226e+03 3.090e-10
 78.37120      1.1 9.260e+03 3.160e-10
 78.40438      0.6 8.588e+03 2.186e-10
 78.43296      1.1 8.384e+03 1.952e-10
 78.45553      0.1 9.262e+03 3.566e-10
 78.49466      1.2 9.160e+03 3.423e-10
 78.53090      2.5 9.569e+03 5.203e-10
 78.55347      1.3 9.956e+03 6.530e-10
 78.57906      2.3 9.918e+03 6.225e-10
 78.60163      1.7 9.720e+03 5.236e-10
 78.63009      2.0 9.947e+03 5.664e-10
 78.66340      2.2 1.058e+04 7.733e-10
 78.68597      0.9 9.937e+03 5.458e-10
 78.72037      1.1 1.095e+04 8.800e-10
 78.74764      0.7 1.173e+04 1.196e-09
 78.77021     -0.6 1.129e+04 9.992e-10
 78.78980     -2.6 1.343e+04 2.145e-09
 78.80099     -1.9 1.269e+04 1.665e-09
 78.82059     -4.1 1.382e+04 2.858e-09
 78.83187     -3.0 1.283e+04 1.838e-09
 78.84432     -3.3 1.355e+04 2.760e-09
 78.86276     -3.2 1.386e+04 3.190e-09
 78.87404     -3.9 1.293e+04 1.977e-09
 78.88946     -4.6 1.304e+04 1.965e-09
 78.90402     -7.9 1.463e+04 2.367e-09
 78.90820    -12.9 1.531e+04 2.221e-09
 78.91621    -12.5 1.425e+04 1.654e-09
 78.93460    -19.8 1.721e+04 4.010e-09
 78.94709    -22.7 1.708e+04 8.080e-09
 78.95838    -22.7 1.770e+04 8.939e-09
 78.97798    -23.3 1.774e+04 1.393e-08
 78.98926    -23.0 1.849e+04 1.615e-08
 79.00232    -24.7 1.859e+04 1.734e-08
 79.02014    -26.3 1.812e+04 1.296e-08
 79.03143    -26.4 1.879e+04 1.709e-08
 79.04746    -29.2 1.835e+04 8.673e-09
 79.06231    -33.9 1.696e+04 3.155e-09
 79.07360    -32.2 1.756e+04 4.597e-09
 79.09260    -39.8 1.442e+04 1.502e-09
 79.10448    -45.9 1.136e+04 9.024e-10
 79.11577    -45.6 1.200e+04 9.830e-10
 79.13536    -48.6 1.117e+04 8.545e-10
 79.14665    -48.4 1.137e+04 9.070e-10
 79.16032    -50.5 1.097e+04 8.601e-10
 79.17753    -51.8 1.059e+04 8.089e-10
 79.18882    -51.4 1.092e+04 8.910e-10
 79.20546    -52.4 1.030e+04 6.687e-10
 79.21970    -54.0 9.818e+03 4.637e-10
 79.23098    -53.4 9.807e+03 4.745e-10
 79.25058    -54.7 9.336e+03 3.309e-10
 79.26604    -55.3 8.990e+03 2.600e-10
 79.27734    -55.7 8.932e+03 2.501e-10
 79.29285    -56.5 8.801e+03 2.279e-10
 79.31552    -55.5 8.832e+03 2.280e-10
 79.35237    -56.1 8.751e+03 2.174e-10
 79.37728    -56.9 9.308e+03 3.112e-10
 79.39985    -55.0 9.097e+03 2.771e-10
 79.43905    -55.8 9.683e+03 4.320e-10
 79.46162    -54.0 9.552e+03 3.714e-10
 79.48779    -55.0 1.025e+04 6.165e-10
 79.52338    -56.2 1.115e+04 9.853e-10
 79.54595    -54.2 1.076e+04 8.034e-10
 79.57808    -56.4 1.152e+04 9.711e-10
 79.60772    -59.7 1.230e+04 1.060e-09
 79.63029    -56.4 1.130e+04 6.942e-10
 79.66836    -59.5 1.156e+04 7.240e-10
 79.69205    -61.1 1.152e+04 8.030e-10
 79.71463    -57.1 1.072e+04 4.517e-10
 79.75382    -57.9 1.079e+04 5.128e-10
 79.77639    -54.7 1.044e+04 3.664e-10
 79.80379    -54.8 1.046e+04 3.728e-10
 79.83816    -54.2 1.016e+04 2.863e-10
 79.86073    -51.4 1.025e+04 2.968e-10
 79.89407    -50.9 1.011e+04 1.891e-10
 79.92249    -50.5 9.800e+03 1.279e-10
 79.94506    -48.1 1.002e+04 1.569e-10
 79.97903    -47.8 9.716e+03 1.384e-10
 80.00150    -48.8 9.706e+03 1.616e-10
 80.02940    -45.7 9.678e+03 2.142e-10
 80.06859    -44.7 9.482e+03 2.048e-10
 80.09116    -42.4 9.665e+03 2.539e-10
 80.11979    -41.2 9.432e+03 2.241e-10
 80.15293    -39.9 9.206e+03 1.825e-10
 80.17550    -37.9 9.321e+03 2.031e-10
 80.21007    -36.9 9.081e+03 1.511e-10
 80.23727    -36.1 9.000e+03 1.283e-10
 80.25984    -34.1 8.985e+03 1.292e-10
 80.29903    -33.5 8.919e+03 1.197e-10
 80.32160    -31.5 8.976e+03 1.263e-10
 80.34550    -31.0 8.966e+03 1.239e-10
 80.38337    -31.0 9.228e+03 1.707e-10
 80.40594    -28.8 9.237e+03 1.678e-10
 80.43578    -28.7 9.643e+03 2.875e-10
 80.46770    -28.3 1.014e+04 4.562e-10
 80.49027    -26.7 1.031e+04 5.052e-10
 80.50977    -26.8 1.061e+04 6.175e-10
 80.52096    -26.2 1.073e+04 7.035e-10
 80.53716    -26.1 1.076e+04 7.459e-10
 80.55184    -25.6 1.078e+04 7.512e-10
 80.56313    -24.8 1.098e+04 9.056e-10
 80.58230    -24.3 1.083e+04 7.654e-10
 80.59401    -23.8 1.068e+04 5.323e-10
 80.60530    -23.0 1.088e+04 7.101e-10
 80.62489    -22.9 1.064e+04 4.508e-10
 80.63618    -21.9 1.085e+04 6.181e-10
 80.65001    -22.4 1.059e+04 3.852e-10
 80.66706    -22.8 1.012e+04 2.947e-10
 80.67835    -21.9 1.046e+04 3.477e-10
 80.69804    -22.4 9.844e+03 2.752e-10
 80.71707    -21.5 9.971e+03 2.996e-10
 80.72547    -21.7 9.977e+03 2.969e-10
 80.74011    -21.4 9.777e+03 2.858e-10
 80.75140    -20.7 1.005e+04 3.383e-10
 80.76287    -20.5 9.861e+03 3.218e-10
 80.78238    -20.2 9.673e+03 3.145e-10
 80.80505    -17.9 1.034e+04 4.442e-10
 80.84206    -17.3 9.907e+03 3.828e-10
 80.86681    -16.8 9.727e+03 3.537e-10
 80.88938    -14.6 1.051e+04 4.787e-10
 80.92858    -15.5 1.035e+04 4.171e-10
 80.95105    -14.7 1.032e+04 4.590e-10
 80.96601    -16.0 1.045e+04 4.392e-10
 80.98184    -17.7 1.069e+04 4.765e-10
 80.99312    -17.7 1.177e+04 6.871e-10
 81.01115    -19.9 1.196e+04 8.603e-10
 81.02400    -22.3 1.240e+04 1.388e-09
 81.03529    -22.6 1.319e+04 2.202e-09
 81.05489    -24.1 1.357e+04 2.921e-09
 81.06617    -24.4 1.456e+04 4.107e-09
 81.07621    -26.1 1.465e+04 4.331e-09
 81.08750    -28.0 1.472e+04 4.371e-09
 81.09705    -29.9 1.469e+04 4.264e-09
 81.10834    -31.5 1.468e+04 4.413e-09
 81.12401    -33.0 1.422e+04 3.924e-09
 81.13922    -34.2 1.377e+04 3.539e-09
 81.15051    -35.2 1.340e+04 3.205e-09
 81.16915    -35.6 1.311e+04 2.924e-09
 81.18139    -35.9 1.292e+04 2.743e-09
 81.19268    -36.7 1.259e+04 2.275e-09
 81.21227    -36.9 1.247e+04 2.189e-09
 81.22356    -38.2 1.235e+04 1.847e-09
 81.23686    -38.0 1.226e+04 1.839e-09
 81.25444    -37.7 1.216e+04 1.840e-09
 81.26573    -38.5 1.215e+04 1.699e-09
 81.28201    -37.9 1.209e+04 1.701e-09
 81.29661    -37.3 1.204e+04 1.717e-09
 81.30789    -37.8 1.189e+04 1.546e-09
 81.32715    -37.2 1.191e+04 1.582e-09
 81.33878    -36.7 1.198e+04 1.684e-09
 81.35006    -36.9 1.159e+04 1.344e-09
 81.36966    -36.3 1.174e+04 1.471e-09
 81.38095    -36.7 1.132e+04 1.076e-09
 81.39486    -36.1 1.154e+04 1.188e-09
 81.41183    -35.4 1.179e+04 1.321e-09
 81.42311    -37.1 1.178e+04 1.061e-09
 81.43825    -36.6 1.204e+04 1.190e-09
 81.44953    -37.8 1.155e+04 9.449e-10
 81.45400    -37.2 1.173e+04 1.045e-09
 81.46528    -39.9 1.199e+04 1.359e-09
 81.48488    -39.7 1.242e+04 1.562e-09
 81.49616    -41.7 1.269e+04 2.353e-09
 81.50772    -41.5 1.318e+04 2.747e-09
 81.52705    -41.4 1.343e+04 3.047e-09
 81.53833    -41.9 1.315e+04 3.148e-09
 81.55286    -41.5 1.316e+04 3.226e-09
 81.56921    -41.1 1.307e+04 3.234e-09
 81.58050    -41.7 1.300e+04 2.534e-09
 81.59800    -41.4 1.309e+04 2.354e-09
 81.61138    -41.2 1.331e+04 2.203e-09
 81.62267    -44.8 1.325e+04 1.077e-09
 81.64227    -45.7 1.328e+04 9.083e-10
 81.65355    -51.0 1.059e+04 4.671e-10
 81.66571    -52.1 1.011e+04 4.372e-10
 81.68443    -53.0 9.787e+03 4.306e-10
 81.69572    -54.0 9.455e+03 4.500e-10
 81.71086    -54.2 9.452e+03 4.829e-10
 81.72660    -54.2 9.502e+03 5.191e-10
 81.73789    -54.6 9.635e+03 5.226e-10
 81.75600    -54.4 9.666e+03 5.318e-10
 81.76877    -54.2 9.670e+03 5.282e-10
 81.78006    -54.6 9.719e+03 5.046e-10
 81.79965    -54.4 9.551e+03 4.564e-10
 81.81007    -54.8 9.329e+03 4.811e-10
 81.81156    -55.0 9.230e+03 4.416e-10
 81.82371    -54.4 9.066e+03 3.786e-10
 81.84182    -54.2 8.992e+03 3.567e-10
 81.85311    -54.2 8.987e+03 3.540e-10
 81.86886    -53.6 8.888e+03 2.874e-10
 81.88399    -53.6 8.892e+03 2.771e-10
 81.89537    -54.1 8.902e+03 2.808e-10
 81.92548    -53.8 8.851e+03 2.611e-10
 81.95723    -53.0 8.976e+03 2.744e-10
 81.97981    -53.1 8.663e+03 2.374e-10
 82.01576    -52.2 8.931e+03 2.831e-10
 82.04157    -51.1 9.155e+03 3.320e-10
 82.06414    -50.3 8.691e+03 2.600e-10
 82.10334    -49.1 8.807e+03 2.820e-10
 82.12591    -48.0 8.501e+03 2.030e-10
 82.15119    -46.8 8.588e+03 2.068e-10
 82.18767    -45.1 8.654e+03 2.075e-10
 82.21024    -44.9 8.558e+03 1.656e-10
 82.24147    -43.7 8.607e+03 1.789e-10
 82.27201    -42.3 8.648e+03 1.919e-10
 82.29458    -42.0 8.710e+03 2.169e-10
 82.33176    -40.4 8.877e+03 2.461e-10
 82.35634    -38.6 9.025e+03 2.665e-10
 82.37891    -38.1 9.452e+03 3.360e-10
 82.41811    -36.6 9.707e+03 3.666e-10
 82.44058    -37.0 9.968e+03 4.640e-10
 82.45571    -36.3 1.005e+04 5.213e-10
 82.47137    -35.5 1.018e+04 5.757e-10
 82.48265    -35.4 1.034e+04 6.329e-10
 82.50085    -35.0 1.058e+04 6.902e-10
 82.51354    -34.7 1.072e+04 7.520e-10
 82.52492    -34.6 1.083e+04 8.114e-10
 82.55747    -33.0 1.099e+04 8.926e-10
 82.58668    -31.2 1.095e+04 8.619e-10
 82.59787    -32.0 1.118e+04 9.744e-10
 82.61370    -31.4 1.090e+04 9.110e-10
 82.62875    -31.0 1.089e+04 8.742e-10
 82.64004    -40.6 2.029e+04 1.401e-09
 82.65885    -44.9 2.310e+04 2.129e-09
 82.67092    -48.5 2.313e+04 3.839e-09
 82.68221    -54.3 1.965e+04 1.260e-08
 82.70180    -54.5 1.867e+04 1.564e-08
 82.71309    -55.4 1.832e+04 1.797e-08
 82.72656    -54.3 1.829e+04 1.605e-08
 82.74397    -53.1 1.862e+04 1.204e-08
 82.75526    -61.1 1.915e+04 2.966e-09
 82.77170    -66.8 1.642e+04 1.242e-09
 82.78614    -72.5 1.203e+04 7.011e-10
 82.79743    -77.1 8.719e+03 4.735e-10
 82.81684    -76.8 8.659e+03 4.833e-10
 82.82831    -76.4 8.722e+03 5.102e-10
 82.83959    -76.5 8.687e+03 4.847e-10
 82.85919    -76.1 8.791e+03 5.161e-10
 82.87048    -76.2 8.656e+03 4.613e-10
 82.88456    -75.9 8.793e+03 5.059e-10
 82.89766    -75.6 8.939e+03 5.555e-10
 82.90318    -75.7 8.837e+03 5.240e-10
 82.91264    -75.8 8.782e+03 4.996e-10
 82.92970    -75.6 8.921e+03 5.442e-10
 82.94353    -75.4 9.097e+03 6.009e-10
 82.95481    -75.5 9.099e+03 5.980e-10
 82.97441    -75.4 9.335e+03 6.717e-10
 82.98570    -75.6 9.432e+03 6.862e-10
 82.99741    -75.8 9.727e+03 7.850e-10
 83.01658    -76.3 1.008e+04 9.190e-10
 83.02786    -76.8 1.027e+04 9.765e-10
 83.04256    -77.5 1.061e+04 1.135e-09
 83.05875    -78.2 1.093e+04 1.301e-09
 83.07003    -78.6 1.107e+04 1.389e-09
 83.08770    -79.3 1.121e+04 1.489e-09
 83.10091    -80.0 1.124e+04 1.513e-09
 83.11220    -80.3 1.124e+04 1.520e-09
 83.13180    -80.9 1.103e+04 1.400e-09
 83.14308    -81.2 1.091e+04 1.317e-09
 83.15541    -81.7 1.058e+04 1.130e-09
 83.17396    -82.1 1.027e+04 9.708e-10
 83.18525    -82.2 1.007e+04 8.601e-10
 83.20055    -82.5 9.788e+03 7.213e-10
 83.21613    -82.7 9.492e+03 5.838e-10
 83.22742    -83.1 9.341e+03 5.063e-10
 83.24570    -83.6 9.102e+03 4.243e-10
 83.27800    -84.1 8.934e+03 3.707e-10
 83.30066    -85.0 8.923e+03 3.733e-10
 83.32489    -84.9 8.838e+03 3.443e-10
 83.36243    -84.4 8.747e+03 3.110e-10
 83.38500    -85.0 9.100e+03 3.825e-10
 83.41518    -84.8 9.126e+03 3.722e-10
 83.44677    -84.7 9.164e+03 3.705e-10
 83.46934    -86.0 9.474e+03 4.233e-10
 83.50546    -86.4 9.538e+03 4.303e-10
 83.53110    -86.7 9.628e+03 4.732e-10
 83.55367    -88.1 9.508e+03 4.121e-10
 83.59287    -87.9 9.568e+03 3.970e-10
 83.61544    -89.2 9.208e+03 2.652e-10
 83.62192    -89.2 9.195e+03 2.319e-10
 83.64449    -89.9 9.073e+03 2.101e-10
 83.67720    -90.1 8.992e+03 1.806e-10
 83.69977    -91.0 8.939e+03 1.643e-10
 83.73117    -91.2 8.862e+03 1.527e-10
 83.76154    -91.3 8.838e+03 1.506e-10
 83.78411    -92.1 8.857e+03 1.500e-10
 83.82146    -92.3 8.854e+03 1.550e-10
 83.84588    -92.5 8.900e+03 1.639e-10
 83.86845    -93.5 8.910e+03 1.616e-10
 83.90764    -93.7 8.941e+03 1.629e-10
 83.93021    -94.9 8.981e+03 1.631e-10
 83.95688    -95.0 8.969e+03 1.618e-10
 83.99198    -95.1 9.061e+03 1.625e-10
 84.01455    -96.0 9.193e+03 1.744e-10
 84.04717    -96.0 9.228e+03 1.711e-10
 84.07631    -96.0 9.444e+03 1.858e-10
 84.09888    -96.7 9.439e+03 1.810e-10
 84.13745    -97.0 9.885e+03 2.127e-10
 84.16065    -97.5 1.046e+04 3.230e-10
 84.18322    -98.7 1.055e+04 3.272e-10
 84.21635    -99.7 1.087e+04 5.041e-10
 84.23350   -100.1 1.119e+04 7.249e-10
 84.24479   -100.4 1.122e+04 7.285e-10
 84.26140   -100.0 1.155e+04 9.084e-10
 84.27567    -99.9 1.179e+04 1.004e-09
 84.28696   -100.3 1.167e+04 9.108e-10
 84.30665   -100.3 1.181e+04 9.959e-10
 84.32932   -100.9 1.145e+04 7.585e-10
 84.34598   -100.6 1.129e+04 7.165e-10
 84.36855   -100.3 1.069e+04 4.864e-10
 84.39109    -99.6 1.059e+04 4.689e-10
 84.41366    -99.4 1.024e+04 3.388e-10
 84.45285    -98.2 1.025e+04 3.469e-10
 84.47542    -97.7 9.961e+03 2.457e-10
 84.49859    -96.5 1.011e+04 2.728e-10
 84.53719    -95.5 1.037e+04 3.473e-10
 84.55976    -94.9 1.014e+04 2.332e-10
 84.58888    -94.3 1.059e+04 3.571e-10
 84.62152    -93.7 1.110e+04 5.646e-10
 84.64409    -93.7 1.105e+04 5.017e-10
 84.67916    -93.4 1.163e+04 7.664e-10
 84.70586    -93.6 1.203e+04 9.044e-10
 84.72843    -93.7 1.206e+04 9.103e-10
 84.76762    -94.6 1.213e+04 9.191e-10
 84.79020    -95.0 1.210e+04 8.942e-10
 84.81459    -95.8 1.172e+04 6.781e-10
 84.85196    -96.4 1.114e+04 4.434e-10
 84.87453    -96.5 1.100e+04 4.114e-10
 84.90487    -96.7 1.050e+04 2.727e-10
 84.93630    -96.4 1.010e+04 2.003e-10
 84.95887    -96.2 1.001e+04 1.739e-10
 84.99516    -95.5 9.893e+03 1.572e-10
 85.02063    -94.9 9.884e+03 1.623e-10
 85.04320    -94.7 9.864e+03 1.542e-10
 85.07005    -94.3 9.953e+03 2.227e-10
 85.08957    -93.6 9.864e+03 1.735e-10
 85.10497    -93.6 9.959e+03 1.853e-10
 85.13058    -93.1 1.008e+04 2.965e-10
 85.16673    -92.5 1.021e+04 3.877e-10
 85.18931    -92.7 1.024e+04 3.805e-10
 85.22087    -92.4 1.020e+04 3.847e-10
 85.25107    -92.0 9.886e+03 3.293e-10
 85.27364    -92.3 9.796e+03 2.960e-10
 85.31115    -91.7 9.476e+03 2.305e-10
 85.33541    -90.8 9.198e+03 1.705e-10
 85.35798    -91.0 9.278e+03 1.891e-10
 85.39717    -89.8 9.070e+03 1.466e-10
 85.41974    -90.0 9.315e+03 2.029e-10
 85.44658    -88.7 9.179e+03 1.761e-10
 85.48151    -87.5 9.145e+03 1.665e-10
 85.50408    -87.7 9.438e+03 2.447e-10
 85.53686    -86.6 9.487e+03 2.535e-10
 85.56584    -85.6 9.612e+03 2.867e-10
 85.58841    -86.5 1.000e+04 4.054e-10
 85.62715    -85.8 1.020e+04 4.649e-10
 85.65018    -85.3 1.045e+04 5.446e-10
 85.67275    -87.2 1.076e+04 6.290e-10
 85.71194    -87.4 1.099e+04 7.255e-10
 85.73452    -89.9 1.100e+04 7.078e-10
 85.76258    -90.6 1.146e+04 8.952e-10
 85.79411    -91.4 1.192e+04 1.187e-09
 85.80524    -90.9 1.155e+04 9.349e-10
 85.81885    -93.2 1.131e+04 7.414e-10
 85.85286    -94.4 1.156e+04 9.202e-10
 85.88062    -96.1 1.175e+04 1.049e-09
 85.90319    -98.5 1.165e+04 9.489e-10
 85.94238   -101.1 1.168e+04 9.313e-10
 85.96495   -103.1 1.159e+04 8.246e-10
 85.98829   -106.2 1.145e+04 7.590e-10
 86.02672   -109.1 1.144e+04 8.026e-10
 86.04929   -110.0 1.121e+04 6.856e-10
 86.07857   -111.9 1.115e+04 7.322e-10
 86.11105   -113.3 1.092e+04 7.202e-10
 86.13363   -113.3 1.076e+04 6.246e-10
 86.16886   -114.1 1.035e+04 4.755e-10
 86.19539   -114.6 9.926e+03 2.965e-10
 86.21796   -114.3 9.921e+03 2.859e-10
 86.25716   -114.8 9.565e+03 1.864e-10
 86.27973   -114.5 9.566e+03 1.862e-10
 86.30428   -114.8 9.412e+03 1.594e-10
 86.34149   -114.6 9.399e+03 1.584e-10
 86.36406   -114.0 9.351e+03 1.557e-10
 86.39457   -113.6 9.355e+03 1.714e-10
 86.42583   -113.1 9.365e+03 1.765e-10
 86.44840   -112.2 9.264e+03 1.461e-10
 86.48485   -111.5 9.172e+03 1.186e-10
 86.51016   -110.9 9.041e+03 7.936e-11
 86.52091   -110.0 8.984e+03 6.631e-11
 86.54074   -109.4 9.122e+03 8.475e-11
 86.57193   -109.1 8.976e+03 5.870e-11
 86.59450   -108.1 8.946e+03 5.576e-11
 86.62028   -107.8 8.901e+03 5.398e-11
 86.65627   -107.7 8.930e+03 5.384e-11
 86.67884   -106.8 9.133e+03 5.758e-11
 86.71056   -108.0 9.655e+03 8.658e-11
 86.74060   -110.3 1.081e+04 2.526e-10
 86.76317   -108.4 1.104e+04 3.640e-10
 86.80085   -110.9 1.214e+04 8.201e-10
 86.82484   -112.2 1.288e+04 1.446e-09
 86.84741   -111.4 1.288e+04 1.435e-09
 86.87975   -112.4 1.345e+04 2.098e-09
 86.89130   -113.4 1.361e+04 2.563e-09
 86.89815   -114.1 1.323e+04 1.995e-09
 86.90908   -113.1 1.313e+04 1.746e-09
 86.92480   -114.1 1.302e+04 1.883e-09
 86.93996   -114.5 1.285e+04 1.873e-09
 86.95125   -113.6 1.277e+04 1.704e-09
 86.96994   -113.8 1.239e+04 1.420e-09
 86.98213   -114.5 1.195e+04 8.858e-10
 86.99341   -113.5 1.207e+04 9.533e-10
 87.02646   -114.3 1.137e+04 5.616e-10
 87.05538   -115.2 1.064e+04 3.189e-10
 87.07795   -113.5 1.087e+04 3.981e-10
 87.11685   -114.1 1.040e+04 2.204e-10
 87.13971   -114.5 1.016e+04 1.367e-10
 87.16228   -112.8 1.031e+04 1.801e-10
 87.20148   -112.8 1.008e+04 1.312e-10
 87.22405   -111.2 1.022e+04 1.734e-10
 87.24224   -111.0 1.002e+04 1.402e-10
 87.26481   -110.8 1.014e+04 1.447e-10
 87.28581   -110.4 9.973e+03 1.238e-10
 87.30838   -109.0 1.018e+04 1.756e-10
 87.34256   -108.5 1.009e+04 1.569e-10
 87.37015   -108.2 1.008e+04 1.418e-10
 87.39272   -106.9 1.040e+04 2.262e-10
 87.43191   -106.7 1.039e+04 2.096e-10
 87.45448   -105.6 1.084e+04 3.734e-10
 87.47798   -105.8 1.081e+04 3.620e-10
 87.51625   -105.9 1.076e+04 3.425e-10
 87.53882   -105.1 1.141e+04 6.351e-10
 87.56827   -105.2 1.116e+04 5.211e-10
 87.60059   -105.1 1.080e+04 3.925e-10
 87.62316   -104.5 1.111e+04 5.533e-10
 87.65855   -104.1 1.063e+04 3.768e-10
 87.68492   -103.3 1.037e+04 2.977e-10
 87.70749   -102.8 1.048e+04 3.502e-10
 87.74669   -101.8 1.034e+04 3.087e-10
 87.76926   -101.3 1.044e+04 3.513e-10
 87.79398   -100.1 1.034e+04 3.287e-10
 87.83102    -98.7 1.027e+04 3.175e-10
 87.85359    -98.3 1.027e+04 3.188e-10
 87.88427    -97.0 1.024e+04 3.148e-10
 87.91536    -95.8 1.025e+04 3.196e-10
 87.93793    -95.6 1.027e+04 3.271e-10
 87.96630    -94.5 1.037e+04 3.627e-10
 87.98887    -95.1 1.034e+04 3.379e-10
 87.99970    -94.0 1.051e+04 3.989e-10
 88.02227    -93.9 1.051e+04 4.027e-10
 88.06146    -93.1 1.056e+04 4.213e-10
 88.08403    -93.0 1.037e+04 3.621e-10
 88.10998    -92.0 1.021e+04 3.103e-10
 88.14580    -91.0 1.002e+04 2.433e-10
 88.16837    -90.8 9.830e+03 1.819e-10
 88.20026    -89.9 9.687e+03 1.430e-10
 88.23013    -88.8 9.560e+03 1.164e-10
 88.25270    -88.6 9.462e+03 9.710e-11
 88.29055    -87.5 9.401e+03 8.525e-11
 88.31447    -86.4 9.379e+03 7.822e-11
 88.33704    -86.3 9.374e+03 7.556e-11
 88.37623    -85.1 9.391e+03 7.316e-11
 88.39881    -85.2 9.509e+03 7.862e-11
 88.42597    -83.8 9.526e+03 7.776e-11
 88.46057    -82.4 9.517e+03 7.619e-11
 88.48314    -82.4 9.541e+03 8.670e-11
 88.51626    -80.9 9.496e+03 8.158e-11
 88.54491    -79.3 9.476e+03 7.884e-11
 88.56748    -79.2 9.496e+03 8.418e-11
 88.60654    -77.6 9.499e+03 8.365e-11
 88.65168    -76.3 9.657e+03 9.298e-11
 88.69036    -75.0 9.727e+03 1.042e-10
 88.70712    -75.2 9.740e+03 1.067e-10
 88.71358    -75.3 9.729e+03 1.105e-10
 88.74197    -74.0 9.776e+03 1.209e-10
 88.77534    -72.6 9.792e+03 1.276e-10
 88.79791    -72.6 9.734e+03 1.169e-10
 88.83225    -71.2 9.736e+03 1.090e-10
 88.85968    -69.9 9.759e+03 9.869e-11
 88.88225    -70.1 9.776e+03 8.116e-11
 88.92144    -69.2 9.797e+03 7.788e-11
 88.94402    -69.7 9.814e+03 7.574e-11
 88.96768    -68.8 9.846e+03 7.607e-11
 89.00578    -67.9 9.909e+03 7.799e-11
 89.02835    -68.8 1.006e+04 1.052e-10
 89.05797    -67.6 1.000e+04 1.148e-10
 89.09012    -66.3 9.963e+03 1.186e-10
 89.11269    -66.5 1.006e+04 1.651e-10
 89.14825    -65.0 1.003e+04 1.505e-10
 89.17445    -63.4 1.002e+04 1.353e-10
 89.19702    -63.2 1.007e+04 1.422e-10
 89.23622    -61.5 1.002e+04 1.228e-10
 89.25879    -61.3 1.009e+04 1.119e-10
 89.28368    -59.5 1.007e+04 9.409e-11
 89.32055    -57.7 1.005e+04 8.031e-11
 89.34313    -57.5 1.013e+04 7.025e-11
 89.37396    -55.6 1.011e+04 6.227e-11
 89.40489    -53.7 1.011e+04 5.401e-11
 89.42279    -53.4 1.015e+04 5.152e-11
 89.43700    -52.8 1.015e+04 5.077e-11
 89.46425    -50.9 1.015e+04 4.380e-11
 89.48923    -49.1 1.016e+04 3.977e-11
 89.51180    -48.7 1.018e+04 4.025e-11
 89.55099    -46.9 1.022e+04 3.995e-11
 89.57356    -46.4 1.025e+04 4.422e-11
 89.59967    -44.6 1.031e+04 4.679e-11
 89.63533    -42.7 1.029e+04 5.302e-11
 89.65790    -42.1 1.039e+04 5.495e-11
 89.68996    -40.2 1.035e+04 5.959e-11
 89.71966    -38.2 1.031e+04 6.109e-11
 89.74224    -37.7 1.033e+04 6.091e-11
 89.78024    -35.6 1.032e+04 5.804e-11
 89.80400    -33.7 1.047e+04 5.131e-11
 89.82657    -33.1 1.046e+04 5.171e-11
 89.86577    -31.4 1.046e+04 5.345e-11
 89.88834    -30.6 1.044e+04 5.071e-11
 89.91567    -28.7 1.045e+04 5.544e-11
 89.95010    -26.8 1.056e+04 6.240e-11
 89.97267    -26.1 1.066e+04 5.370e-11
 90.00595    -24.5 1.080e+04 6.691e-11
 90.03444    -23.1 1.089e+04 9.315e-11
 90.05701    -22.6 1.090e+04 9.047e-11
 90.09620    -20.8 1.089e+04 1.308e-10
 90.13846    -18.0 1.100e+04 1.583e-10
 90.16106    -17.4 1.089e+04 1.411e-10
 90.18054    -15.5 1.104e+04 1.511e-10
 90.20311    -14.9 1.111e+04 1.423e-10
 90.23167    -13.3 1.111e+04 1.341e-10
 90.26487    -11.8 1.109e+04 1.143e-10
 90.28745    -11.4 1.114e+04 1.186e-10
 90.32195    -10.0 1.108e+04 1.072e-10
 90.34921     -8.6 1.105e+04 9.718e-11
 90.37178     -8.2 1.111e+04 1.234e-10
 90.41098     -6.8 1.105e+04 1.269e-10
 90.43355     -6.4 1.113e+04 1.752e-10
 90.45738     -4.8 1.115e+04 1.974e-10
 90.49531     -3.2 1.114e+04 1.989e-10
 90.51788     -2.7 1.133e+04 2.683e-10
 90.54766     -1.1 1.129e+04 2.569e-10
 90.57965      0.5 1.123e+04 2.266e-10
 90.60222      1.0 1.138e+04 2.669e-10
 90.63795      2.5 1.132e+04 2.198e-10
 90.66398      4.1 1.123e+04 1.846e-10
 90.68656      4.4 1.137e+04 1.703e-10
 90.72575      5.9 1.131e+04 1.350e-10
 90.74832      5.8 1.136e+04 1.191e-10
 90.77337      7.2 1.125e+04 1.010e-10
 90.81009      8.5 1.112e+04 9.543e-11
 90.83266      8.7 1.106e+04 1.118e-10
 90.86256     10.2 1.103e+04 1.181e-10
 90.88513     10.7 1.103e+04 1.165e-10
 90.89442     12.1 1.105e+04 1.353e-10
 90.91699     12.5 1.104e+04 1.535e-10
 90.95394     14.0 1.107e+04 1.886e-10
 90.97876     15.5 1.122e+04 2.400e-10
 91.00133     15.8 1.122e+04 1.940e-10
 91.04052     17.1 1.130e+04 2.042e-10
 91.06309     16.9 1.126e+04 1.577e-10
 91.08937     17.9 1.128e+04 1.633e-10
 91.12486     18.9 1.129e+04 1.849e-10
 91.14743     19.0 1.122e+04 1.745e-10
 91.17966     20.3 1.126e+04 2.066e-10
 91.20920     21.6 1.133e+04 2.465e-10
 91.23177     22.1 1.135e+04 2.224e-10
 91.26994     23.4 1.139e+04 2.445e-10
 91.29353     24.8 1.144e+04 2.644e-10
 91.31610     25.3 1.143e+04 2.309e-10
 91.35530     26.7 1.145e+04 2.379e-10
 91.37787     27.2 1.146e+04 2.146e-10
 91.40537     28.6 1.149e+04 2.121e-10
 91.43963     29.8 1.153e+04 2.223e-10
 91.46220     30.1 1.154e+04 2.113e-10
 91.49565     31.2 1.175e+04 2.887e-10
 91.52387     31.6 1.193e+04 4.009e-10
 91.53506     31.4 1.188e+04 4.482e-10
 91.55188     32.0 1.210e+04 6.196e-10
 91.56594     32.2 1.244e+04 8.913e-10
 91.57723     32.2 1.248e+04 9.972e-10
 91.59682     31.8 1.298e+04 1.447e-09
 91.60811     31.6 1.311e+04 1.570e-09
 91.60900     30.9 1.380e+04 2.329e-09
 91.62028     29.5 1.564e+04 2.885e-09
 91.63899     28.3 1.678e+04 4.715e-09
 91.65028     25.8 1.859e+04 6.267e-09
 91.66474     24.7 1.824e+04 7.381e-09
 91.68116     23.6 1.771e+04 7.143e-09
 91.69245     21.8 1.813e+04 8.667e-09
 91.70988     21.5 1.693e+04 6.461e-09
 91.72333     20.9 1.587e+04 4.075e-09
 91.73461     19.5 1.603e+04 4.019e-09
 91.75421     18.5 1.489e+04 2.533e-09
 91.76550     17.1 1.467e+04 2.480e-09
 91.77760     16.8 1.366e+04 1.867e-09
 91.79638     17.3 1.299e+04 1.559e-09
 91.80766     17.0 1.289e+04 1.529e-09
 91.82274     18.1 1.257e+04 1.313e-09
 91.83855     19.3 1.232e+04 1.162e-09
 91.84983     19.2 1.227e+04 9.866e-10
 91.86788     20.4 1.202e+04 8.060e-10
 91.88072     21.4 1.188e+04 6.706e-10
 91.89200     20.6 1.190e+04 5.313e-10
 91.91160     21.1 1.176e+04 4.382e-10
 91.92288     19.9 1.180e+04 3.896e-10
 91.93559     20.4 1.155e+04 3.505e-10
 91.95377     20.9 1.147e+04 3.433e-10
 91.96505     19.8 1.142e+04 3.489e-10
 91.97103     20.8 1.133e+04 3.522e-10
 91.98231     20.2 1.132e+04 3.492e-10
 91.99593     20.7 1.132e+04 3.549e-10
 92.00722     19.8 1.115e+04 4.005e-10
 92.02588     20.9 1.113e+04 4.250e-10
 92.03810     21.8 1.117e+04 4.637e-10
 92.04939     21.0 1.126e+04 5.245e-10
 92.06898     21.8 1.130e+04 5.741e-10
 92.08027     20.7 1.132e+04 6.512e-10
 92.09359     21.6 1.133e+04 6.811e-10
 92.11115     22.3 1.139e+04 7.001e-10
 92.12244     21.3 1.119e+04 6.974e-10
 92.13873     22.0 1.113e+04 6.832e-10
 92.15332     22.7 1.108e+04 6.466e-10
 92.16461     21.7 1.089e+04 5.338e-10
 92.18388     21.9 1.087e+04 5.083e-10
 92.19549     22.7 1.084e+04 4.593e-10
 92.20677     22.2 1.076e+04 4.164e-10
 92.22637     22.3 1.076e+04 4.064e-10
 92.23775     21.2 1.054e+04 3.322e-10
 92.26307     22.1 1.044e+04 3.203e-10
 92.29962     22.9 1.046e+04 3.340e-10
 92.32219     22.2 1.009e+04 2.695e-10
 92.33325     23.3 1.025e+04 3.156e-10
 92.35583     23.7 1.014e+04 2.926e-10
 92.38395     24.8 1.031e+04 3.386e-10
 92.40652     24.8 1.004e+04 2.787e-10
 92.44364     25.9 1.022e+04 3.050e-10
 92.46829     26.9 1.032e+04 3.058e-10
 92.49086     27.1 1.018e+04 2.722e-10
 92.53005     28.0 1.020e+04 2.478e-10
 92.55263     28.2 1.018e+04 2.409e-10
 92.57907     29.0 1.017e+04 2.111e-10
 92.61439     29.7 1.018e+04 1.992e-10
 92.63696     29.9 1.027e+04 2.121e-10
 92.66935     30.6 1.030e+04 2.120e-10
 92.69873     31.3 1.036e+04 2.110e-10
 92.72130     31.3 1.062e+04 2.812e-10
 92.75964     31.9 1.057e+04 2.480e-10
 92.78306     32.4 1.052e+04 2.197e-10
 92.80563     32.3 1.073e+04 2.464e-10
 92.84483     32.4 1.077e+04 2.071e-10
 92.86740     31.6 1.122e+04 2.318e-10
 92.89506     31.2 1.116e+04 2.329e-10
 92.92916     30.6 1.126e+04 2.774e-10
 92.95174     28.5 1.276e+04 5.189e-10
 92.98535     28.4 1.267e+04 6.105e-10
 93.01350     28.5 1.259e+04 7.135e-10
 93.03607     27.2 1.344e+04 1.307e-09
 93.05732     27.4 1.317e+04 1.270e-09
 93.07952     25.6 1.306e+04 1.172e-09
 93.09774     24.5 1.339e+04 1.529e-09
 93.12068     23.9 1.369e+04 1.728e-09
 93.15453     24.4 1.391e+04 1.817e-09
 93.17069     24.1 1.410e+04 1.949e-09
 93.18198     22.1 1.470e+04 2.623e-09
 93.19958     22.1 1.471e+04 2.681e-09
 93.21286     22.2 1.468e+04 2.678e-09
 93.22415     20.5 1.532e+04 3.629e-09
 93.24374     20.5 1.517e+04 3.406e-09
 93.25503     18.6 1.576e+04 4.475e-09
 93.26729     18.4 1.547e+04 4.011e-09
 93.28591     18.2 1.521e+04 3.706e-09
 93.29720     16.2 1.545e+04 4.318e-09
 93.31243     16.1 1.511e+04 3.868e-09
 93.32808     16.2 1.482e+04 3.512e-09
 93.33936     14.6 1.481e+04 3.553e-09
 93.35758     14.9 1.449e+04 3.088e-09
 93.37025     15.3 1.423e+04 2.679e-09
 93.38153     13.8 1.398e+04 2.214e-09
 93.40113     14.2 1.374e+04 1.834e-09
 93.41241     12.8 1.338e+04 1.425e-09
 93.41915     13.0 1.318e+04 1.183e-09
 93.43044     11.6 1.296e+04 1.140e-09
 93.44330     11.7 1.282e+04 1.003e-09
 93.45458     10.6 1.256e+04 8.277e-10
 93.47043     10.9 1.239e+04 7.535e-10
 93.48547     11.1 1.229e+04 7.120e-10
 93.49675     10.2 1.212e+04 6.412e-10
 93.51558     10.9 1.201e+04 6.038e-10
 93.52763     11.0 1.202e+04 6.026e-10
 93.53892     11.0 1.192e+04 5.628e-10
 93.55861     12.8 1.180e+04 5.001e-10
 93.58128     12.1 1.171e+04 4.414e-10
 93.61734     13.2 1.173e+04 3.976e-10
 93.64305     13.7 1.192e+04 3.596e-10
 93.66562     10.4 1.294e+04 5.357e-10
 93.70481      9.9 1.343e+04 8.623e-10
 93.72738      6.7 1.387e+04 1.836e-09
 93.75277      7.4 1.389e+04 2.141e-09
 93.78138      8.0 1.369e+04 2.003e-09
 93.79519      5.7 1.334e+04 1.829e-09
 93.81172      2.7 1.286e+04 1.359e-09
 93.83122      4.3 1.287e+04 1.320e-09
 93.84241      2.6 1.253e+04 9.628e-10
 93.85414      1.8 1.207e+04 6.903e-10
 93.87329      1.6 1.171e+04 5.181e-10
 93.89596     -0.2 1.126e+04 4.047e-10
 93.93334      1.4 1.112e+04 3.457e-10
 93.95782      3.0 1.099e+04 3.031e-10
 93.98039      1.6 1.073e+04 2.562e-10
 94.01959      3.0 1.077e+04 2.600e-10
 94.04216      1.7 1.073e+04 2.512e-10
 94.06876      2.7 1.087e+04 2.797e-10
 94.10392      3.7 1.119e+04 3.728e-10
 94.12649      2.1 1.136e+04 4.585e-10
 94.15905      2.9 1.175e+04 5.972e-10
 94.18816      2.6 1.200e+04 6.998e-10
 94.19935      1.3 1.212e+04 7.793e-10
 94.21528      1.1 1.221e+04 8.226e-10
 94.23023      0.9 1.225e+04 8.243e-10
 94.24152     -0.2 1.227e+04 8.346e-10
 94.26042     -0.2 1.227e+04 8.064e-10
 94.27240     -0.3 1.235e+04 7.545e-10
 94.28368     -1.5 1.235e+04 6.723e-10
 94.30328     -1.8 1.231e+04 6.050e-10
 94.31457     -3.0 1.216e+04 5.192e-10
 94.33426     -1.8 1.206e+04 4.959e-10
 94.35693     -2.6 1.172e+04 3.776e-10
 94.38476     -1.6 1.143e+04 3.116e-10
 94.41870     -0.4 1.122e+04 2.567e-10
 94.44127     -0.8 1.097e+04 1.803e-10
 94.47504      0.5 1.091e+04 1.614e-10
 94.50303      1.7 1.086e+04 1.523e-10
 94.51086      1.4 1.076e+04 1.306e-10
 94.52802      0.2 1.080e+04 1.264e-10
 94.56480      1.3 1.084e+04 1.370e-10
 94.58737      0.9 1.082e+04 1.337e-10
 94.61047      1.9 1.079e+04 1.541e-10
 94.64913      2.9 1.072e+04 1.755e-10
 94.67170      2.5 1.065e+04 1.686e-10
 94.70076      3.6 1.061e+04 1.836e-10
 94.73347      4.5 1.063e+04 1.974e-10
 94.75604      3.1 1.069e+04 1.917e-10
 94.79104      2.6 1.107e+04 2.264e-10
 94.81781      1.6 1.181e+04 3.544e-10
 94.84038     -2.1 1.271e+04 6.325e-10
 94.87957     -3.3 1.303e+04 1.025e-09
 94.90214     -7.1 1.340e+04 1.492e-09
 94.92647     -8.1 1.323e+04 1.605e-09
 94.96391     -9.2 1.302e+04 1.571e-09
 94.98648    -12.9 1.256e+04 1.277e-09
 95.01675    -13.9 1.186e+04 9.146e-10
 95.04824    -14.5 1.116e+04 6.267e-10
 95.07081    -17.0 1.044e+04 4.025e-10
 95.10704    -16.4 1.018e+04 3.265e-10
 95.13258    -15.5 1.002e+04 2.832e-10
 95.15515    -16.3 9.887e+03 2.559e-10
 95.19434    -15.2 9.780e+03 2.457e-10
 95.21691    -16.3 9.767e+03 2.487e-10
 95.22951    -15.6 9.882e+03 2.902e-10
 95.25208    -17.3 1.020e+04 3.569e-10
 95.27868    -17.7 1.114e+04 5.869e-10
 95.30125    -20.0 1.214e+04 9.415e-10
 95.32075    -19.8 1.246e+04 1.038e-09
 95.33194    -21.1 1.314e+04 1.351e-09
 95.34384    -23.4 1.424e+04 2.156e-09
 95.36282    -25.8 1.501e+04 3.466e-09
 95.37411    -27.8 1.521e+04 4.334e-09
 95.38898    -28.8 1.523e+04 5.045e-09
 95.40499    -29.3 1.500e+04 4.835e-09
 95.41627    -30.2 1.456e+04 3.957e-09
 95.43412    -31.0 1.416e+04 2.796e-09
 95.44716    -33.0 1.374e+04 1.856e-09
 95.45844    -36.0 1.320e+04 1.307e-09
 95.47804    -39.3 1.272e+04 1.185e-09
 95.48932    -42.0 1.257e+04 1.160e-09
 95.50184    -44.0 1.247e+04 1.243e-09
 95.52021    -44.9 1.231e+04 1.422e-09
 95.53149    -45.7 1.219e+04 1.480e-09
 95.54698    -45.7 1.209e+04 1.434e-09
 95.56238    -45.8 1.188e+04 1.215e-09
 95.57366    -46.6 1.176e+04 9.794e-10
 95.59135    -47.9 1.148e+04 5.706e-10
 95.60263    -48.4 1.128e+04 4.815e-10
 95.60454    -49.9 1.096e+04 3.425e-10
 95.61583    -50.7 1.083e+04 3.055e-10
 95.64865    -51.5 1.017e+04 1.930e-10
 95.67779    -51.2 9.436e+03 1.283e-10
 95.70036    -51.7 9.145e+03 9.821e-11
 95.73903    -50.9 9.103e+03 8.639e-11
 95.76213    -49.8 9.128e+03 8.549e-11
 95.78470    -50.0 9.164e+03 7.750e-11
 95.82389    -48.9 9.172e+03 7.818e-11
 95.84646    -49.0 9.215e+03 7.350e-11
 95.87446    -47.9 9.246e+03 7.681e-11
 95.90823    -46.8 9.300e+03 8.391e-11
 95.93080    -46.9 9.357e+03 8.135e-11
 95.95357    -45.9 9.431e+03 9.309e-11
 95.97614    -46.0 9.394e+03 9.645e-11
 95.99256    -45.1 9.503e+03 1.103e-10
 96.01513    -45.2 9.512e+03 1.102e-10
 96.05433    -44.5 9.625e+03 1.253e-10
 96.07690    -44.6 9.643e+03 1.253e-10
 96.10017    -44.0 9.788e+03 1.410e-10
 96.13866    -43.5 9.898e+03 1.562e-10
 96.16124    -43.6 1.000e+04 1.584e-10
 96.19045    -43.2 1.003e+04 1.657e-10
 96.22300    -42.9 1.004e+04 1.644e-10
 96.24557    -42.9 1.010e+04 1.607e-10
 96.28074    -42.6 1.004e+04 1.496e-10
 96.30734    -42.5 9.948e+03 1.398e-10
 96.32991    -42.3 9.918e+03 1.308e-10
 96.36910    -42.2 9.903e+03 1.309e-10
 96.39167    -42.0 9.905e+03 1.278e-10
 96.41616    -42.2 9.919e+03 1.370e-10
 96.45344    -42.7 9.965e+03 1.533e-10
 96.47601    -42.9 1.020e+04 1.704e-10
 96.50645    -43.6 1.037e+04 2.070e-10
 96.53777    -44.5 1.042e+04 2.244e-10
 96.56034    -44.9 1.087e+04 2.700e-10
 96.59673    -46.2 1.092e+04 2.764e-10
 96.62211    -47.6 1.112e+04 3.061e-10
 96.63330    -47.5 1.126e+04 3.316e-10
 96.65280    -49.0 1.145e+04 3.712e-10
 96.66408    -50.9 1.168e+04 4.566e-10
 96.67554    -53.0 1.178e+04 5.616e-10
 96.68873    -54.9 1.180e+04 6.575e-10
 96.69687    -54.3 1.180e+04 6.401e-10
 96.70625    -55.5 1.183e+04 7.023e-10
 96.72068    -56.9 1.182e+04 7.242e-10
 96.73713    -58.3 1.183e+04 7.386e-10
 96.74842    -59.0 1.184e+04 7.160e-10
 96.76582    -60.2 1.180e+04 6.807e-10
 96.77930    -61.4 1.173e+04 6.365e-10
 96.79059    -61.9 1.170e+04 5.916e-10
 96.81018    -63.0 1.168e+04 5.723e-10
 96.82147    -63.5 1.171e+04 5.629e-10
 96.83354    -64.6 1.172e+04 5.750e-10
 96.85235    -65.6 1.166e+04 5.945e-10
 96.86364    -66.1 1.170e+04 6.641e-10
 96.87868    -66.8 1.165e+04 6.670e-10
 96.89452    -67.2 1.151e+04 6.461e-10
 96.90581    -67.3 1.155e+04 7.143e-10
 96.92382    -67.6 1.138e+04 6.366e-10
 96.93669    -67.9 1.123e+04 5.220e-10
 96.94797    -67.9 1.122e+04 5.473e-10
 96.96757    -68.6 1.100e+04 4.454e-10
 96.97886    -68.7 1.095e+04 4.593e-10
 96.99153    -69.6 1.083e+04 4.370e-10
 97.00974    -70.5 1.084e+04 4.449e-10
 97.02102    -70.5 1.093e+04 4.852e-10
 97.03668    -71.4 1.109e+04 5.631e-10
 97.05076    -72.3 1.140e+04 7.073e-10
 97.05470    -70.9 1.138e+04 6.982e-10
 97.06319    -70.9 1.165e+04 8.186e-10
 97.08182    -71.6 1.206e+04 1.051e-09
 97.09407    -72.5 1.235e+04 1.242e-09
 97.10536    -72.6 1.245e+04 1.304e-09
 97.12496    -73.6 1.242e+04 1.286e-09
 97.13624    -73.7 1.237e+04 1.265e-09
 97.14953    -74.8 1.213e+04 1.143e-09
 97.16713    -78.0 1.209e+04 9.369e-10
 97.18979    -79.7 1.172e+04 7.825e-10
 97.22873    -82.1 1.126e+04 6.914e-10
 97.25166    -84.9 1.108e+04 6.687e-10
 97.27423    -84.5 1.093e+04 6.562e-10
 97.31342    -88.3 1.093e+04 6.440e-10
 97.33599    -88.1 1.100e+04 6.690e-10
 97.36415    -91.7 1.062e+04 5.346e-10
 97.39776    -94.8 9.666e+03 3.038e-10
 97.41273    -94.4 9.759e+03 3.027e-10
 97.42427    -91.9 1.043e+04 4.635e-10
 97.45444    -94.9 9.211e+03 2.013e-10
 97.48209    -97.6 8.425e+03 1.286e-10
 97.50467    -97.2 8.587e+03 1.540e-10
 97.54386    -97.4 8.402e+03 1.476e-10
 97.56643    -96.9 8.524e+03 1.682e-10
 97.58987    -96.4 8.400e+03 1.524e-10
 97.62820    -95.9 8.295e+03 1.330e-10
 97.65077    -95.4 8.309e+03 1.326e-10
 97.68015    -95.1 8.146e+03 1.137e-10
 97.71253    -94.9 8.128e+03 1.150e-10
 97.73510    -94.6 8.110e+03 1.146e-10
 97.77043    -94.9 8.199e+03 1.352e-10
 97.79687    -95.0 8.508e+03 1.953e-10
 97.81944    -94.5 8.577e+03 2.153e-10
 97.85863    -94.4 8.909e+03 2.848e-10
 97.88120    -93.8 8.916e+03 2.913e-10
 97.90586    -93.9 8.928e+03 2.901e-10
 97.94297    -94.2 8.911e+03 2.853e-10
 97.96554    -93.7 8.781e+03 2.615e-10
 97.99615    -94.2 8.890e+03 2.785e-10
 98.02731    -95.2 9.333e+03 3.690e-10
 98.04988    -95.1 9.577e+03 3.891e-10
 98.08643    -96.0 1.040e+04 6.685e-10
 98.11154    -96.1 1.085e+04 9.514e-10
 98.12273    -96.3 1.089e+04 1.009e-09
 98.13685    -96.7 1.094e+04 1.110e-09
 98.14780    -95.8 1.093e+04 1.069e-09
 98.15361    -95.7 1.088e+04 1.071e-09
 98.16523    -95.8 1.079e+04 1.048e-09
 98.18450    -95.7 1.057e+04 9.209e-10
 98.19578    -95.3 1.046e+04 8.832e-10
 98.21038    -95.4 1.020e+04 6.810e-10
 98.22666    -96.2 1.001e+04 5.198e-10
 98.23795    -96.2 9.928e+03 4.565e-10
 98.25764    -96.9 9.719e+03 3.677e-10
 98.28031    -96.2 9.538e+03 3.318e-10
 98.31214    -96.3 9.185e+03 2.923e-10
 98.34208    -96.1 9.126e+03 2.835e-10
 98.36465    -94.8 8.793e+03 2.414e-10
 98.40243    -94.5 8.754e+03 2.158e-10
 98.42641    -94.5 8.742e+03 1.891e-10
 98.44899    -92.9 8.469e+03 1.585e-10
 98.48818    -93.2 8.409e+03 1.473e-10
 98.51075    -91.5 8.378e+03 1.438e-10
 98.53785    -92.0 8.425e+03 1.517e-10
 98.57252    -92.3 8.515e+03 1.586e-10
 98.59509    -90.5 8.551e+03 1.626e-10
 98.62814    -90.4 8.534e+03 1.549e-10
 98.65685    -90.0 8.458e+03 1.267e-10
 98.67942    -88.3 8.495e+03 1.368e-10
 98.71842    -88.2 8.466e+03 1.066e-10
 98.76357    -86.7 8.515e+03 1.009e-10
 98.80295    -86.8 8.529e+03 1.030e-10
 98.82552    -85.1 8.572e+03 1.083e-10
 98.84983    -85.1 8.647e+03 1.219e-10
 98.87240    -84.6 8.624e+03 1.148e-10
 98.88729    -84.4 8.813e+03 1.525e-10
 98.90986    -82.6 8.816e+03 1.528e-10
 98.94414    -82.3 9.075e+03 2.060e-10
 98.97163    -81.9 9.361e+03 2.564e-10
 98.99420    -80.1 9.360e+03 2.553e-10
 99.03339    -79.8 9.608e+03 2.703e-10
 99.05596    -78.1 9.623e+03 2.695e-10
 99.07956    -77.9 9.666e+03 2.644e-10
 99.11773    -77.4 9.684e+03 2.482e-10
 99.14030    -75.7 9.724e+03 2.502e-10
 99.16985    -75.1 9.734e+03 2.341e-10
 99.20206    -74.3 9.774e+03 2.174e-10
 99.22463    -72.6 9.873e+03 2.421e-10
 99.26013    -71.8 1.000e+04 2.449e-10
 99.28640    -71.0 1.008e+04 2.375e-10
 99.30897    -69.3 1.028e+04 3.069e-10
 99.34816    -68.3 1.028e+04 2.885e-10
 99.37074    -66.7 1.047e+04 3.613e-10
 99.39556    -65.6 1.040e+04 3.131e-10
 99.43250    -64.6 1.027e+04 2.541e-10
 99.45507    -62.8 1.043e+04 3.061e-10
 99.48584    -61.6 1.033e+04 2.512e-10
 99.51684    -60.5 1.027e+04 2.201e-10
 99.53941    -58.6 1.042e+04 2.510e-10
 99.57389    -57.3 1.038e+04 2.297e-10
 99.59646    -57.0 1.026e+04 2.021e-10
 99.60117    -55.6 1.028e+04 2.034e-10
 99.62374    -53.5 1.038e+04 2.130e-10
 99.66294    -52.1 1.041e+04 2.160e-10
 99.68551    -49.9 1.052e+04 2.312e-10
 99.71155    -48.4 1.058e+04 2.392e-10
 99.74727    -47.0 1.057e+04 2.309e-10
 99.76984    -44.7 1.077e+04 2.805e-10
 99.80184    -43.2 1.073e+04 2.641e-10
 99.83161    -41.7 1.062e+04 2.199e-10
 99.85418    -39.5 1.089e+04 3.125e-10
 99.89212    -38.1 1.072e+04 2.511e-10
 99.91595    -36.9 1.048e+04 2.059e-10
 99.93852    -34.7 1.078e+04 3.052e-10
 99.97771    -33.5 1.058e+04 2.840e-10
100.00028    -31.5 1.084e+04 3.887e-10
