# Columns:
#   distance along LOS (in CHIMPs)
#   peculiar velocity  (in km/s)
#   temperature (K)
#   HI number density
# pos=(182.88,102.989,182.609), angles=(1.4704,1.63543)
  0.00094     30.6 1.699e+04 6.914e-09
  0.00670     28.1 1.624e+04 7.180e-09
  0.01653     28.1 1.650e+04 8.344e-09
  0.02304     24.9 1.613e+04 6.046e-09
  0.03288     24.1 1.601e+04 5.627e-09
  0.05106     19.3 1.526e+04 3.191e-09
  0.07073     13.1 1.382e+04 1.691e-09
  0.09040      8.1 1.217e+04 1.208e-09
  0.11007      6.1 1.173e+04 1.192e-09
  0.12974      5.2 1.190e+04 1.309e-09
  0.14942      5.0 1.192e+04 1.359e-09
  0.16909      5.3 1.205e+04 1.461e-09
  0.18876      5.9 1.183e+04 1.358e-09
  0.20910      7.0 1.154e+04 1.169e-09
  0.22877      8.2 1.191e+04 1.306e-09
  0.24777      8.6 1.125e+04 8.511e-10
  0.26744      8.6 1.047e+04 6.397e-10
  0.28711      8.5 1.022e+04 4.333e-10
  0.30620      8.2 1.001e+04 3.910e-10
  0.31603      6.9 9.680e+03 3.328e-10
  0.32646      6.6 9.421e+03 2.941e-10
  0.34613      6.4 9.438e+03 3.023e-10
  0.36580      7.4 9.602e+03 3.836e-10
  0.38547      7.6 9.638e+03 3.888e-10
  0.40480      8.5 9.762e+03 4.414e-10
  0.41463      8.5 9.910e+03 5.081e-10
  0.42481      9.0 1.042e+04 6.223e-10
  0.44448      9.0 1.119e+04 7.968e-10
  0.46415      8.5 1.208e+04 1.119e-09
  0.48383      7.9 1.275e+04 1.572e-09
  0.50350      7.9 1.337e+04 2.179e-09
  0.52317      8.4 1.391e+04 2.935e-09
  0.54284      9.2 1.476e+04 3.796e-09
  0.56251      9.8 1.541e+04 4.347e-09
  0.58218      9.6 1.550e+04 4.406e-09
  0.60059      9.6 1.501e+04 4.013e-09
  0.61043      9.8 1.498e+04 2.959e-09
  0.61554      9.2 1.430e+04 2.506e-09
  0.62537      9.1 1.411e+04 3.013e-09
  0.64119      9.2 1.358e+04 2.626e-09
  0.66087      9.6 1.328e+04 2.248e-09
  0.68054      9.9 1.318e+04 1.969e-09
  0.70021     10.0 1.309e+04 1.751e-09
  0.71988     10.1 1.302e+04 1.756e-09
  0.73955     10.2 1.310e+04 1.733e-09
  0.75922     10.5 1.327e+04 1.791e-09
  0.77889     10.7 1.345e+04 1.843e-09
  0.79639     10.6 1.351e+04 1.947e-09
  0.80622     10.4 1.374e+04 2.378e-09
  0.81824      9.9 1.395e+04 2.628e-09
  0.83791      9.5 1.384e+04 2.925e-09
  0.85758      9.4 1.378e+04 3.200e-09
  0.87725      9.4 1.393e+04 3.193e-09
  0.89692      9.3 1.383e+04 2.974e-09
  0.91504      9.0 1.340e+04 2.626e-09
  0.92487      8.3 1.308e+04 2.368e-09
  0.93626      8.4 1.274e+04 2.079e-09
  0.95593      8.8 1.260e+04 1.757e-09
  0.97560      9.0 1.238e+04 1.451e-09
  0.99218      8.8 1.242e+04 1.107e-09
  1.00202      6.4 1.266e+04 1.002e-09
  1.01495      5.1 1.289e+04 9.053e-10
  1.03462      4.4 1.284e+04 8.748e-10
  1.05429      4.2 1.275e+04 9.524e-10
  1.07396      4.5 1.254e+04 1.106e-09
  1.09363      5.2 1.255e+04 1.259e-09
  1.11330      5.9 1.243e+04 1.537e-09
  1.13297      6.5 1.262e+04 1.754e-09
  1.15264      7.1 1.284e+04 2.155e-09
  1.17232      7.6 1.319e+04 2.741e-09
  1.18797      8.0 1.378e+04 3.499e-09
  1.19781      8.0 1.349e+04 2.831e-09
  1.21166      8.0 1.414e+04 3.369e-09
  1.22437      7.6 1.509e+04 4.611e-09
  1.23421      7.9 1.525e+04 5.651e-09
  1.25100      6.9 1.660e+04 7.594e-09
  1.27067      5.8 1.771e+04 9.637e-09
  1.29034      5.0 1.818e+04 1.123e-08
  1.31001      4.6 1.838e+04 1.171e-08
  1.32969      4.4 1.838e+04 1.017e-08
  1.34936      3.4 1.776e+04 7.587e-09
  1.36903      0.9 1.623e+04 5.466e-09
  1.38377     -1.2 1.456e+04 4.160e-09
  1.39361     -0.2 1.636e+04 5.338e-09
  1.40837     -1.1 1.492e+04 4.957e-09
  1.42804     -0.5 1.464e+04 5.025e-09
  1.44771      0.5 1.476e+04 4.751e-09
  1.46738      1.5 1.534e+04 4.178e-09
  1.48705      2.0 1.579e+04 3.163e-09
  1.50673      1.4 1.552e+04 2.076e-09
  1.52388     -0.1 1.429e+04 1.265e-09
  1.53371     -2.5 1.053e+04 6.880e-10
  1.54607     -3.0 1.029e+04 6.927e-10
  1.56574     -3.0 1.029e+04 7.161e-10
  1.57956     -3.0 1.031e+04 7.278e-10
  1.58940     -3.0 1.188e+04 7.766e-10
  1.60508     -3.2 1.136e+04 7.980e-10
  1.62475     -3.5 1.096e+04 8.318e-10
  1.64442     -3.9 1.087e+04 8.903e-10
  1.66410     -4.3 1.083e+04 9.826e-10
  1.68377     -4.4 1.091e+04 1.138e-09
  1.70344     -3.8 1.101e+04 1.209e-09
  1.72311     -3.2 1.098e+04 1.206e-09
  1.74278     -2.3 1.078e+04 1.057e-09
  1.76245     -1.8 1.060e+04 8.872e-10
  1.77536     -1.8 1.035e+04 7.160e-10
  1.78519     -2.5 1.080e+04 7.159e-10
  1.80179     -3.3 1.073e+04 5.958e-10
  1.83140     -4.7 1.076e+04 4.827e-10
  1.87084     -4.7 1.061e+04 4.987e-10
  1.91018     -3.9 1.053e+04 5.231e-10
  1.94952     -3.1 1.018e+04 4.845e-10
  1.98886     -2.4 9.628e+03 3.928e-10
  2.02821     -1.9 9.160e+03 3.241e-10
  2.06755     -1.4 8.939e+03 3.146e-10
  2.10689      0.0 8.892e+03 3.331e-10
  2.13291      1.8 8.726e+03 3.194e-10
  2.15258      1.7 8.714e+03 3.157e-10
  2.16714      3.5 8.369e+03 2.380e-10
  2.18681      3.1 8.122e+03 1.671e-10
  2.22492      4.0 7.780e+03 9.589e-11
  2.26426      4.4 7.605e+03 6.614e-11
  2.30360      5.2 7.633e+03 6.329e-11
  2.34295      5.8 7.777e+03 7.533e-11
  2.38229      6.7 7.923e+03 1.148e-10
  2.42163      8.3 8.092e+03 1.732e-10
  2.46097     10.5 8.288e+03 2.262e-10
  2.50031     12.1 8.455e+03 2.254e-10
  2.53906     13.7 8.423e+03 1.997e-10
  2.55873     12.9 8.556e+03 2.272e-10
  2.57900     14.0 8.503e+03 1.997e-10
  2.61834     15.0 8.481e+03 1.829e-10
  2.65768     15.6 8.614e+03 1.949e-10
  2.69703     15.9 8.968e+03 2.535e-10
  2.73191     16.9 9.243e+03 3.437e-10
  2.75158     17.0 9.237e+03 3.470e-10
  2.77571     18.7 9.255e+03 3.686e-10
  2.81505     20.8 9.116e+03 3.148e-10
  2.85440     21.8 9.052e+03 2.449e-10
  2.89374     22.4 8.964e+03 2.158e-10
  2.92315     21.9 9.344e+03 2.754e-10
  2.94029     20.9 1.040e+04 4.565e-10
  2.95013     18.9 1.045e+04 6.305e-10
  2.96239     17.9 1.110e+04 1.167e-09
  2.98206     18.3 1.165e+04 2.016e-09
  3.00173     19.7 1.246e+04 3.186e-09
  3.02141     21.7 1.325e+04 4.147e-09
  3.04105     23.5 1.376e+04 4.202e-09
  3.05576     24.2 1.414e+04 4.083e-09
  3.06557     24.2 1.433e+04 3.865e-09
  3.07540     23.6 1.493e+04 2.901e-09
  3.08524     21.6 1.640e+04 2.740e-09
  3.09507     16.5 2.106e+04 2.406e-09
  3.10491     10.0 2.606e+04 3.005e-09
  3.11475      3.3 2.692e+04 4.395e-09
  3.12458     -1.0 2.515e+04 5.924e-09
  3.13442     -3.9 2.234e+04 8.218e-09
  3.14091     -5.0 2.069e+04 1.013e-08
  3.14582     -4.4 2.142e+04 7.151e-09
  3.15409     -4.9 1.939e+04 9.198e-09
  3.16392     -4.7 1.856e+04 1.022e-08
  3.17873     -3.9 1.801e+04 1.344e-08
  3.19845     -3.2 1.776e+04 1.114e-08
  3.21812     -3.2 1.734e+04 8.604e-09
  3.23779     -3.9 1.695e+04 5.710e-09
  3.25746     -5.6 1.637e+04 3.040e-09
  3.27713     -9.1 1.539e+04 1.527e-09
  3.29680    -14.3 1.280e+04 9.152e-10
  3.31647    -17.7 1.138e+04 8.579e-10
  3.33188    -21.0 1.133e+04 1.019e-09
  3.34172    -20.4 1.135e+04 9.598e-10
  3.35039    -21.9 1.148e+04 1.130e-09
  3.37016    -24.0 1.213e+04 1.704e-09
  3.39525    -24.4 1.208e+04 1.731e-09
  3.41483    -25.0 1.220e+04 1.660e-09
  3.43450    -26.4 1.208e+04 1.278e-09
  3.45417    -29.7 1.133e+04 8.893e-10
  3.47384    -32.6 1.048e+04 6.778e-10
  3.49351    -34.0 1.007e+04 5.889e-10
  3.52312    -34.8 9.889e+03 5.326e-10
  3.56256    -35.9 9.334e+03 3.836e-10
  3.60190    -36.3 8.849e+03 2.673e-10
  3.64124    -36.2 8.540e+03 1.916e-10
  3.68058    -35.3 8.278e+03 1.409e-10
  3.71383    -34.1 8.229e+03 1.284e-10
  3.73350    -34.1 8.170e+03 1.280e-10
  3.75927    -33.0 8.259e+03 1.291e-10
  3.79861    -33.0 8.611e+03 1.767e-10
  3.83795    -35.2 1.075e+04 5.461e-10
  3.86736    -37.2 1.252e+04 1.291e-09
  3.88694    -38.7 1.402e+04 2.500e-09
  3.90661    -39.4 1.537e+04 4.690e-09
  3.91926    -39.5 1.667e+04 8.005e-09
  3.92910    -41.2 1.627e+04 6.680e-09
  3.94595    -41.5 1.694e+04 8.509e-09
  3.95923    -42.4 1.710e+04 8.926e-09
  3.96907    -42.0 1.627e+04 6.996e-09
  3.98529    -43.7 1.602e+04 6.491e-09
  4.00496    -46.1 1.551e+04 5.431e-09
  4.02463    -48.6 1.541e+04 5.114e-09
  4.04431    -50.5 1.593e+04 5.255e-09
  4.06398    -51.7 1.632e+04 5.639e-09
  4.08365    -52.5 1.631e+04 5.694e-09
  4.10332    -52.8 1.586e+04 5.234e-09
  4.11506    -53.0 1.534e+04 4.339e-09
  4.12490    -54.7 1.407e+04 2.693e-09
  4.14266    -55.8 1.364e+04 2.022e-09
  4.16233    -57.9 1.289e+04 1.494e-09
  4.18200    -60.1 1.193e+04 1.170e-09
  4.20167    -61.7 1.138e+04 1.036e-09
  4.22135    -62.4 1.122e+04 1.014e-09
  4.24102    -62.8 1.119e+04 1.018e-09
  4.25873    -63.1 1.119e+04 1.019e-09
  4.26857    -61.8 1.142e+04 1.078e-09
  4.28036    -62.6 1.133e+04 1.054e-09
  4.30996    -63.9 1.104e+04 9.495e-10
  4.34940    -64.7 1.080e+04 8.871e-10
  4.38875    -65.1 1.085e+04 8.844e-10
  4.41815    -65.7 1.093e+04 9.359e-10
  4.43773    -66.1 1.105e+04 1.004e-09
  4.45740    -66.6 1.132e+04 1.163e-09
  4.47707    -66.8 1.158e+04 1.336e-09
  4.49674    -67.0 1.186e+04 1.538e-09
  4.51641    -67.6 1.184e+04 1.520e-09
  4.53608    -67.7 1.202e+04 1.621e-09
  4.55576    -68.0 1.205e+04 1.631e-09
  4.56807    -68.3 1.201e+04 1.596e-09
  4.57790    -68.2 1.195e+04 1.542e-09
  4.59510    -68.6 1.170e+04 1.376e-09
  4.61477    -69.1 1.133e+04 1.165e-09
  4.63444    -69.7 1.087e+04 9.328e-10
  4.65411    -70.3 1.039e+04 7.099e-10
  4.67378    -71.1 9.920e+03 5.173e-10
  4.69261    -72.0 9.485e+03 3.733e-10
  4.70244    -73.3 9.183e+03 3.062e-10
  4.71312    -73.5 8.972e+03 2.663e-10
  4.74273    -73.6 8.824e+03 2.329e-10
  4.78217    -74.7 8.600e+03 2.001e-10
  4.82151    -75.8 8.546e+03 1.919e-10
  4.86085    -76.9 8.586e+03 1.958e-10
  4.88860    -78.4 8.948e+03 2.522e-10
  4.90827    -79.7 8.770e+03 2.322e-10
  4.93954    -80.9 9.076e+03 3.051e-10
  4.97888    -82.5 9.525e+03 4.073e-10
  5.01822    -85.5 1.041e+04 5.985e-10
  5.04763    -88.2 1.135e+04 9.408e-10
  5.06721    -91.1 1.240e+04 1.507e-09
  5.08420    -93.7 1.374e+04 2.582e-09
  5.09403    -94.8 1.399e+04 2.669e-09
  5.10655    -97.1 1.532e+04 4.551e-09
  5.12622    -99.3 1.620e+04 6.483e-09
  5.14589   -101.6 1.646e+04 7.234e-09
  5.16556   -103.7 1.635e+04 7.208e-09
  5.17691   -105.2 1.553e+04 5.335e-09
  5.18674   -105.1 1.563e+04 5.467e-09
  5.20490   -106.5 1.426e+04 2.896e-09
  5.22457   -108.4 1.264e+04 1.337e-09
  5.24425   -110.7 1.117e+04 6.274e-10
  5.26392   -112.5 1.029e+04 3.547e-10
  5.27999   -113.5 9.959e+03 2.723e-10
  5.29976   -113.8 9.785e+03 2.345e-10
  5.33296   -113.9 9.740e+03 2.255e-10
  5.37230   -114.1 9.772e+03 2.341e-10
  5.41165   -114.4 1.020e+04 3.571e-10
  5.45099   -114.5 1.071e+04 6.001e-10
  5.49033   -114.6 1.103e+04 8.170e-10
  5.52967   -115.4 1.113e+04 8.822e-10
  5.55908   -116.6 1.124e+04 1.027e-09
  5.57866   -117.3 1.092e+04 8.928e-10
  5.59833   -117.8 1.062e+04 7.485e-10
  5.61800   -118.1 1.035e+04 6.217e-10
  5.63767   -118.2 1.008e+04 5.158e-10
  5.65734   -118.2 9.832e+03 4.335e-10
  5.67168   -117.6 9.652e+03 3.766e-10
  5.68151   -119.1 9.848e+03 4.032e-10
  5.69668   -118.7 9.710e+03 3.740e-10
  5.72629   -118.2 9.714e+03 3.732e-10
  5.76573   -117.3 9.604e+03 3.667e-10
  5.78594   -116.0 9.370e+03 3.444e-10
  5.80561   -116.1 9.633e+03 4.099e-10
  5.84441   -114.7 9.395e+03 3.703e-10
  5.88375   -113.0 9.099e+03 3.168e-10
  5.92310   -111.1 8.828e+03 2.707e-10
  5.96244   -109.2 8.615e+03 2.372e-10
  6.00178   -107.3 8.465e+03 2.143e-10
  6.04112   -105.3 8.377e+03 1.997e-10
  6.06337   -103.5 8.323e+03 1.913e-10
  6.08304   -103.5 8.435e+03 2.067e-10
  6.11981   -101.7 8.438e+03 2.124e-10
  6.15915    -99.9 8.457e+03 2.214e-10
  6.19849    -98.2 8.456e+03 2.271e-10
  6.23783    -96.4 8.449e+03 2.289e-10
  6.27718    -94.7 8.382e+03 2.230e-10
  6.31652    -92.9 8.229e+03 2.021e-10
  6.35586    -91.0 8.021e+03 1.691e-10
  6.38494    -89.0 7.781e+03 1.346e-10
  6.40462    -89.0 7.727e+03 1.271e-10
  6.43455    -87.0 7.520e+03 1.029e-10
  6.45496    -84.9 7.339e+03 8.366e-11
  6.47463    -84.8 7.430e+03 9.106e-11
  6.51323    -82.7 7.274e+03 7.387e-11
  6.55257    -80.6 7.148e+03 6.213e-11
  6.59192    -78.4 7.048e+03 5.552e-11
  6.63126    -76.1 7.003e+03 5.267e-11
  6.67060    -73.8 6.990e+03 5.156e-11
  6.70994    -71.5 6.982e+03 5.073e-11
  6.74928    -69.0 6.971e+03 4.948e-11
  6.78863    -66.5 6.957e+03 4.761e-11
  6.82687    -64.0 6.941e+03 4.556e-11
  6.84655    -64.1 6.942e+03 4.471e-11
  6.86731    -61.6 6.935e+03 4.322e-11
  6.90665    -59.0 6.937e+03 4.286e-11
  6.94600    -56.6 6.971e+03 4.311e-11
  6.98395    -54.5 7.110e+03 4.909e-11
  7.00362    -55.2 7.179e+03 5.550e-11
  7.02468    -53.2 7.394e+03 7.816e-11
  7.06402    -51.2 7.729e+03 1.179e-10
  7.10337    -49.1 8.145e+03 1.823e-10
  7.14271    -47.0 8.576e+03 2.706e-10
  7.18205    -44.8 8.936e+03 3.632e-10
  7.21846    -42.7 9.123e+03 4.121e-10
  7.23813    -43.0 9.296e+03 4.559e-10
  7.26074    -40.9 9.312e+03 4.604e-10
  7.30008    -38.6 9.066e+03 3.826e-10
  7.33942    -36.3 8.686e+03 2.742e-10
  7.37876    -34.3 8.352e+03 1.920e-10
  7.41810    -32.5 8.232e+03 1.652e-10
  7.45745    -30.8 8.266e+03 1.602e-10
  7.49679    -29.2 8.504e+03 1.922e-10
  7.53613    -27.7 8.868e+03 2.672e-10
  7.57547    -26.3 9.468e+03 3.814e-10
  7.60252    -26.1 1.011e+04 5.676e-10
  7.61226    -26.8 1.043e+04 7.278e-10
  7.61969    -26.6 1.062e+04 8.177e-10
  7.62953    -27.2 1.119e+04 1.084e-09
  7.64413    -26.7 1.136e+04 1.185e-09
  7.66380    -26.3 1.143e+04 1.222e-09
  7.68347    -25.8 1.140e+04 1.203e-09
  7.70314    -25.2 1.130e+04 1.147e-09
  7.72281    -24.7 1.117e+04 1.074e-09
  7.74248    -24.1 1.107e+04 1.013e-09
  7.76215    -23.5 1.094e+04 9.376e-10
  7.78183    -22.8 1.091e+04 8.853e-10
  7.80150    -22.1 1.095e+04 8.679e-10
  7.81549    -21.6 1.091e+04 8.528e-10
  7.82532    -22.1 1.054e+04 6.576e-10
  7.84084    -21.4 1.077e+04 7.048e-10
  7.86051    -21.3 1.084e+04 7.633e-10
  7.88018    -20.7 1.144e+04 9.369e-10
  7.89985    -21.1 1.165e+04 1.063e-09
  7.91176    -21.1 1.243e+04 1.493e-09
  7.92160    -22.2 1.256e+04 1.644e-09
  7.93919    -23.1 1.299e+04 2.102e-09
  7.95887    -23.2 1.345e+04 2.733e-09
  7.97854    -23.0 1.365e+04 3.082e-09
  7.99821    -22.6 1.373e+04 3.181e-09
  8.01128    -22.3 1.364e+04 2.769e-09
  8.02112    -22.0 1.375e+04 3.020e-09
  8.03755    -22.0 1.354e+04 2.318e-09
  8.05722    -23.3 1.339e+04 1.752e-09
  8.07689    -25.3 1.325e+04 1.426e-09
  8.09656    -27.5 1.329e+04 1.329e-09
  8.11624    -29.7 1.357e+04 1.654e-09
  8.13591    -31.5 1.370e+04 2.127e-09
  8.15558    -32.4 1.387e+04 2.662e-09
  8.17525    -33.0 1.413e+04 2.998e-09
  8.19492    -33.8 1.422e+04 3.075e-09
  8.20708    -35.2 1.400e+04 2.801e-09
  8.21359    -35.0 1.510e+04 3.958e-09
  8.22110    -37.0 1.448e+04 3.418e-09
  8.23426    -38.9 1.373e+04 2.809e-09
  8.25393    -40.2 1.340e+04 2.478e-09
  8.27360    -40.9 1.334e+04 2.272e-09
  8.29328    -41.6 1.327e+04 2.131e-09
  8.31295    -42.2 1.312e+04 1.980e-09
  8.33262    -42.9 1.290e+04 1.747e-09
  8.35229    -43.9 1.244e+04 1.515e-09
  8.37196    -44.1 1.234e+04 1.497e-09
  8.39163    -43.9 1.233e+04 1.565e-09
  8.40287    -43.9 1.217e+04 1.512e-09
  8.41271    -44.0 1.189e+04 1.323e-09
  8.43097    -43.9 1.162e+04 1.234e-09
  8.45064    -43.6 1.153e+04 1.202e-09
  8.47032    -43.4 1.136e+04 1.125e-09
  8.48999    -43.1 1.140e+04 1.088e-09
  8.50966    -42.8 1.140e+04 9.493e-10
  8.52060    -42.7 1.136e+04 8.298e-10
  8.53044    -43.3 1.110e+04 7.085e-10
  8.55893    -43.0 1.093e+04 6.411e-10
  8.59837    -42.6 1.057e+04 5.165e-10
  8.62778    -42.0 1.051e+04 5.163e-10
  8.64736    -41.7 1.047e+04 4.921e-10
  8.67696    -41.5 1.036e+04 4.550e-10
  8.71640    -41.0 1.051e+04 4.567e-10
  8.75574    -40.7 1.079e+04 4.818e-10
  8.78482    -40.4 1.098e+04 5.320e-10
  8.80449    -39.8 1.118e+04 7.108e-10
  8.82020    -39.7 1.123e+04 6.893e-10
  8.82994    -41.1 1.133e+04 7.550e-10
  8.84407    -41.0 1.139e+04 8.155e-10
  8.87367    -40.5 1.155e+04 9.788e-10
  8.91311    -39.9 1.174e+04 1.104e-09
  8.95245    -39.6 1.192e+04 1.121e-09
  8.99180    -39.6 1.211e+04 1.073e-09
  9.03114    -39.7 1.203e+04 9.553e-10
  9.07048    -39.8 1.168e+04 7.887e-10
  9.10982    -39.6 1.122e+04 5.682e-10
  9.14917    -39.6 1.120e+04 4.045e-10
  9.17641    -39.6 1.114e+04 3.164e-10
  9.19608    -39.1 1.082e+04 2.875e-10
  9.22785    -39.1 1.081e+04 2.596e-10
  9.26719    -38.8 1.061e+04 2.728e-10
  9.30654    -38.0 1.032e+04 3.237e-10
  9.34588    -36.7 1.018e+04 3.355e-10
  9.38522    -35.2 9.938e+03 3.011e-10
  9.41930    -33.8 9.679e+03 2.114e-10
  9.43897    -35.5 9.539e+03 1.643e-10
  9.46390    -34.4 9.255e+03 1.299e-10
  9.50325    -32.9 9.021e+03 1.125e-10
  9.54259    -31.2 8.890e+03 1.068e-10
  9.56800    -29.2 8.815e+03 1.027e-10
  9.58767    -29.4 8.763e+03 8.440e-11
  9.62127    -27.4 8.692e+03 7.856e-11
  9.66062    -25.4 8.640e+03 7.452e-11
  9.69996    -23.3 8.618e+03 7.286e-11
  9.73930    -21.3 8.647e+03 7.328e-11
  9.77864    -19.4 8.696e+03 8.021e-11
  9.81799    -17.4 8.745e+03 9.241e-11
  9.85733    -15.4 8.795e+03 1.072e-10
  9.89667    -13.2 8.835e+03 1.209e-10
  9.93601    -11.1 8.840e+03 1.279e-10
  9.95959     -9.0 8.800e+03 1.282e-10
  9.97926     -9.4 8.774e+03 1.184e-10
 10.01470     -7.5 8.800e+03 1.141e-10
 10.03798     -6.0 8.897e+03 1.204e-10
 10.05765     -6.2 8.906e+03 1.211e-10
 10.09338     -4.5 8.955e+03 1.485e-10
 10.13272     -2.4 9.017e+03 1.764e-10
 10.17207     -0.5 9.212e+03 1.890e-10
 10.21141      0.9 9.299e+03 2.024e-10
 10.25075      2.3 9.229e+03 2.136e-10
 10.29009      3.8 9.160e+03 2.165e-10
 10.32944      5.4 9.100e+03 2.255e-10
 10.35118      7.1 9.061e+03 2.283e-10
 10.37085      6.7 8.845e+03 1.786e-10
 10.40812      8.4 8.880e+03 1.879e-10
 10.44746     10.2 8.942e+03 2.019e-10
 10.48681     12.2 9.014e+03 2.130e-10
 10.52615     14.1 9.101e+03 2.189e-10
 10.56549     15.9 9.197e+03 2.221e-10
 10.60483     17.6 9.334e+03 2.320e-10
 10.63698     18.4 9.666e+03 2.680e-10
 10.65665     17.0 9.317e+03 2.200e-10
 10.68352     16.9 9.894e+03 3.614e-10
 10.72286     17.1 1.058e+04 6.199e-10
 10.74267     16.8 1.095e+04 8.139e-10
 10.75241     16.2 1.095e+04 8.270e-10
 10.77184     16.7 1.110e+04 8.690e-10
 10.79151     16.5 1.113e+04 8.654e-10
 10.81118     16.5 1.103e+04 8.087e-10
 10.83085     16.2 1.092e+04 7.223e-10
 10.85053     15.2 1.090e+04 6.894e-10
 10.87020     12.5 1.136e+04 7.725e-10
 10.88987      7.7 1.239e+04 1.135e-09
 10.90954      5.1 1.249e+04 1.609e-09
 10.92853      4.6 1.240e+04 1.958e-09
 10.93837      4.1 1.232e+04 1.800e-09
 10.94612      2.7 1.284e+04 1.748e-09
 10.95596      3.1 1.288e+04 1.907e-09
 10.96855      1.1 1.298e+04 1.536e-09
 10.98822     -2.2 1.173e+04 8.453e-10
 11.00790     -6.3 9.903e+03 4.636e-10
 11.03750     -9.5 9.193e+03 2.840e-10
 11.07694    -11.9 8.388e+03 1.619e-10
 11.11469    -14.5 7.934e+03 1.144e-10
 11.13436    -13.5 7.977e+03 1.209e-10
 11.15562    -15.3 7.783e+03 1.078e-10
 11.19497    -16.2 7.827e+03 1.260e-10
 11.23431    -16.5 8.103e+03 1.597e-10
 11.25565    -17.4 8.564e+03 2.070e-10
 11.27533    -18.6 8.560e+03 2.067e-10
 11.31299    -20.5 9.106e+03 2.948e-10
 11.35234    -22.4 9.789e+03 4.547e-10
 11.38175    -24.2 1.023e+04 6.438e-10
 11.40132    -24.7 1.082e+04 8.345e-10
 11.42099    -25.8 1.150e+04 1.067e-09
 11.44066    -27.4 1.204e+04 1.233e-09
 11.46033    -29.9 1.236e+04 1.331e-09
 11.48000    -32.3 1.275e+04 1.444e-09
 11.49967    -35.5 1.262e+04 1.399e-09
 11.51592    -39.5 1.308e+04 1.425e-09
 11.52575    -45.4 1.914e+04 1.539e-09
 11.53902    -69.6 3.624e+04 2.937e-09
 11.55372    -79.0 3.482e+04 5.334e-09
 11.55978    -86.2 3.242e+04 1.192e-08
 11.56475    -80.1 3.228e+04 6.785e-09
 11.57339    -90.4 2.917e+04 1.667e-08
 11.58318    -95.1 2.698e+04 2.601e-08
 11.59301    -99.1 2.617e+04 2.939e-08
 11.60285   -102.5 2.520e+04 2.879e-08
 11.61269   -105.7 2.460e+04 2.206e-08
 11.61863   -109.3 2.388e+04 1.434e-08
 11.62355   -112.1 2.306e+04 1.165e-08
 11.63236   -116.5 2.020e+04 6.912e-09
 11.64219   -120.0 1.713e+04 4.453e-09
 11.65699   -120.7 1.569e+04 3.465e-09
 11.67671   -122.5 1.376e+04 2.629e-09
 11.69639   -122.8 1.291e+04 2.112e-09
 11.71171   -122.3 1.274e+04 1.930e-09
 11.72155   -122.9 1.278e+04 1.966e-09
 11.73573   -122.4 1.259e+04 1.813e-09
 11.75540   -121.8 1.235e+04 1.679e-09
 11.77507   -121.3 1.216e+04 1.547e-09
 11.79474   -120.7 1.201e+04 1.431e-09
 11.81441   -120.1 1.192e+04 1.349e-09
 11.83408   -119.8 1.191e+04 1.314e-09
 11.85376   -119.6 1.192e+04 1.310e-09
 11.86430   -119.7 1.218e+04 1.318e-09
 11.87413   -121.0 1.266e+04 1.539e-09
 11.89310   -121.9 1.284e+04 1.908e-09
 11.90750   -122.9 1.303e+04 2.496e-09
 11.91734   -121.9 1.271e+04 1.740e-09
 11.93244   -122.8 1.305e+04 2.278e-09
 11.95211   -129.9 2.058e+04 3.450e-09
 11.96682   -141.1 2.908e+04 6.202e-09
 11.97660   -149.9 3.327e+04 1.415e-08
 11.98644   -158.7 3.202e+04 4.358e-08
 11.99627   -166.8 2.876e+04 1.031e-07
 12.00530   -174.5 2.731e+04 1.350e-07
 12.01022   -171.2 2.707e+04 1.448e-07
 12.01395   -178.8 2.653e+04 1.571e-07
 12.01887   -179.4 2.541e+04 2.182e-07
 12.02578   -188.8 2.589e+04 1.079e-07
 12.03562   -201.7 2.494e+04 2.052e-08
 12.04545   -214.7 1.868e+04 3.497e-09
 12.05529   -219.9 1.431e+04 1.770e-09
 12.07009   -221.5 1.320e+04 1.416e-09
 12.08981   -223.4 1.253e+04 1.088e-09
 12.10330   -226.0 1.112e+04 7.161e-10
 12.11314   -224.6 1.180e+04 9.005e-10
 12.12915   -226.3 1.053e+04 6.225e-10
 12.14882   -226.7 1.009e+04 4.966e-10
 12.16380   -226.7 9.920e+03 4.192e-10
 12.17363   -226.8 9.855e+03 4.096e-10
 12.18816   -226.3 9.656e+03 3.612e-10
 12.21777   -226.1 9.580e+03 3.382e-10
 12.25721   -225.6 9.464e+03 3.129e-10
 12.28945   -224.5 9.415e+03 3.046e-10
 12.30913   -224.6 9.272e+03 2.785e-10
 12.33589   -223.1 9.248e+03 2.759e-10
 12.37524   -221.5 9.408e+03 3.032e-10
 12.41458   -220.1 9.884e+03 3.929e-10
 12.44399   -219.0 1.031e+04 5.137e-10
 12.46330   -218.7 1.056e+04 5.897e-10
 12.47323   -218.5 1.059e+04 6.273e-10
 12.48333   -217.9 1.085e+04 7.179e-10
 12.49489   -217.3 1.099e+04 7.784e-10
 12.50472   -216.6 1.118e+04 8.431e-10
 12.52257   -216.0 1.135e+04 9.133e-10
 12.54225   -215.8 1.137e+04 9.207e-10
 12.56192   -215.5 1.135e+04 9.168e-10
 12.58159   -215.0 1.128e+04 9.067e-10
 12.60126   -214.6 1.117e+04 8.682e-10
 12.62093   -214.2 1.104e+04 8.197e-10
 12.64060   -213.8 1.091e+04 7.664e-10
 12.66027   -213.5 1.076e+04 7.127e-10
 12.67994   -213.2 1.061e+04 6.632e-10
 12.69068   -212.9 1.048e+04 6.231e-10
 12.70052   -212.5 1.107e+04 8.183e-10
 12.71929   -212.2 1.091e+04 7.692e-10
 12.73896   -211.8 1.078e+04 7.345e-10
 12.75863   -211.3 1.072e+04 7.175e-10
 12.77264   -210.8 1.071e+04 7.132e-10
 12.78247   -210.5 1.083e+04 7.282e-10
 12.79797   -210.0 1.085e+04 7.296e-10
 12.81764   -209.5 1.104e+04 7.944e-10
 12.83731   -209.0 1.127e+04 8.940e-10
 12.85698   -208.4 1.149e+04 1.001e-09
 12.87664   -207.7 1.167e+04 1.098e-09
 12.89631   -206.4 1.174e+04 1.132e-09
 12.91600   -205.7 1.185e+04 1.194e-09
 12.93567   -205.0 1.195e+04 1.256e-09
 12.95534   -204.3 1.203e+04 1.315e-09
 12.97501   -203.6 1.211e+04 1.377e-09
 12.99468   -202.9 1.220e+04 1.446e-09
 13.01435   -202.3 1.234e+04 1.533e-09
 13.03402   -201.7 1.252e+04 1.658e-09
 13.05370   -201.3 1.276e+04 1.854e-09
 13.07214   -200.9 1.310e+04 2.144e-09
 13.08105   -200.4 1.406e+04 3.268e-09
 13.08227   -199.6 1.414e+04 3.393e-09
 13.09304   -199.3 1.467e+04 4.124e-09
 13.11271   -199.1 1.516e+04 4.951e-09
 13.13238   -199.1 1.560e+04 5.850e-09
 13.15205   -199.5 1.598e+04 6.832e-09
 13.17172   -199.8 1.633e+04 7.911e-09
 13.19139   -200.0 1.665e+04 9.030e-09
 13.21107   -200.2 1.686e+04 9.934e-09
 13.23074   -200.6 1.691e+04 1.024e-08
 13.25041   -201.0 1.680e+04 1.019e-08
 13.26823   -201.0 1.634e+04 9.089e-09
 13.27807   -200.6 1.665e+04 9.880e-09
 13.28975   -200.4 1.613e+04 8.315e-09
 13.30942   -200.3 1.564e+04 6.846e-09
 13.32909   -200.3 1.516e+04 5.640e-09
 13.34876   -200.3 1.465e+04 4.693e-09
 13.36843   -200.1 1.421e+04 3.939e-09
 13.38148   -199.8 1.388e+04 3.364e-09
 13.39131   -199.8 1.394e+04 3.205e-09
 13.40778   -199.6 1.377e+04 2.634e-09
 13.42745   -199.5 1.374e+04 2.176e-09
 13.44712   -199.6 1.375e+04 1.809e-09
 13.46403   -199.8 1.370e+04 1.522e-09
 13.47386   -198.0 1.380e+04 2.442e-09
 13.48646   -198.2 1.390e+04 2.163e-09
 13.50613   -198.5 1.393e+04 1.955e-09
 13.52580   -199.0 1.384e+04 1.819e-09
 13.54547   -199.4 1.367e+04 1.734e-09
 13.56515   -199.7 1.345e+04 1.682e-09
 13.58482   -200.0 1.324e+04 1.645e-09
 13.60449   -200.2 1.301e+04 1.601e-09
 13.62416   -200.3 1.275e+04 1.520e-09
 13.64383   -200.3 1.245e+04 1.389e-09
 13.65982   -200.2 1.208e+04 1.214e-09
 13.66966   -199.4 1.310e+04 1.819e-09
 13.68098   -199.4 1.255e+04 1.433e-09
 13.69081   -199.5 1.177e+04 1.033e-09
 13.70284   -199.4 1.122e+04 8.223e-10
 13.72252   -199.3 1.077e+04 6.698e-10
 13.75212   -199.0 1.033e+04 5.293e-10
 13.79156   -197.8 9.688e+03 3.708e-10
 13.83090   -196.4 9.527e+03 3.227e-10
 13.85581   -194.8 9.483e+03 3.087e-10
 13.86555   -194.8 1.001e+04 4.066e-10
 13.87988   -194.0 1.001e+04 4.051e-10
 13.89956   -193.3 1.002e+04 4.051e-10
 13.91923   -192.6 1.008e+04 4.113e-10
 13.93890   -191.9 1.020e+04 4.386e-10
 13.95857   -191.2 1.034e+04 4.818e-10
 13.97824   -190.6 1.050e+04 5.368e-10
 13.99032   -189.9 1.066e+04 6.016e-10
 14.00015   -189.1 1.035e+04 4.977e-10
 14.01758   -188.5 1.050e+04 5.518e-10
 14.03725   -187.8 1.061e+04 6.056e-10
 14.05141   -187.1 1.070e+04 6.604e-10
 14.06125   -187.1 1.097e+04 7.736e-10
 14.07660   -186.4 1.097e+04 8.028e-10
 14.09627   -185.6 1.093e+04 8.148e-10
 14.11594   -184.8 1.089e+04 8.157e-10
 14.13561   -183.9 1.083e+04 8.119e-10
 14.15528   -183.1 1.080e+04 8.049e-10
 14.17495   -182.1 1.074e+04 7.960e-10
 14.19462   -181.3 1.072e+04 7.848e-10
 14.21429   -180.4 1.069e+04 7.711e-10
 14.23397   -179.7 1.065e+04 7.545e-10
 14.24721   -178.7 1.057e+04 7.239e-10
 14.25704   -178.5 1.053e+04 7.102e-10
 14.27331   -177.6 1.044e+04 6.645e-10
 14.28982   -176.5 1.032e+04 5.970e-10
 14.29965   -176.2 1.051e+04 6.868e-10
 14.31265   -175.1 1.039e+04 6.353e-10
 14.33232   -173.9 1.026e+04 5.703e-10
 14.35199   -172.7 1.014e+04 5.102e-10
 14.38160   -171.6 1.003e+04 4.644e-10
 14.42104   -170.1 9.821e+03 4.060e-10
 14.46038   -168.0 9.549e+03 3.465e-10
 14.49972   -165.8 9.316e+03 2.992e-10
 14.53906   -163.4 9.153e+03 2.646e-10
 14.57841   -161.2 9.043e+03 2.370e-10
 14.61775   -159.0 8.953e+03 2.115e-10
 14.63899   -156.9 8.857e+03 1.871e-10
 14.65866   -155.8 9.093e+03 2.137e-10
 14.69643   -153.8 9.003e+03 1.910e-10
 14.73578   -151.8 8.981e+03 1.775e-10
 14.77512   -149.8 8.987e+03 1.746e-10
 14.81446   -148.0 9.070e+03 1.751e-10
 14.85380   -146.4 9.362e+03 1.971e-10
 14.88902   -144.8 9.624e+03 2.472e-10
 14.90869   -143.8 9.531e+03 2.487e-10
 14.93249   -142.2 9.862e+03 3.278e-10
 14.97183   -140.8 1.015e+04 4.035e-10
 15.01091   -139.5 1.037e+04 4.503e-10
 15.03058   -138.9 1.035e+04 4.664e-10
 15.05051   -137.6 1.051e+04 4.904e-10
 15.08986   -136.6 1.072e+04 5.030e-10
 15.12920   -135.8 1.105e+04 5.418e-10
 15.16854   -135.2 1.143e+04 6.629e-10
 15.20788   -134.6 1.173e+04 8.724e-10
 15.24723   -133.9 1.188e+04 1.052e-09
 15.28657   -133.2 1.190e+04 1.094e-09
 15.32591   -132.2 1.168e+04 1.001e-09
 15.36525   -131.0 1.131e+04 6.434e-10
 15.40250   -129.8 1.098e+04 3.385e-10
 15.42217   -129.1 1.101e+04 3.636e-10
 15.44394   -128.1 1.085e+04 2.187e-10
 15.48328   -127.5 1.076e+04 1.822e-10
 15.50769   -127.0 1.073e+04 1.810e-10
 15.52736   -124.5 1.093e+04 2.019e-10
 15.56196   -124.3 1.096e+04 2.059e-10
 15.60131   -124.2 1.117e+04 3.038e-10
 15.64065   -123.9 1.180e+04 5.080e-10
 15.67999   -123.7 1.291e+04 7.833e-10
 15.70940   -125.5 1.450e+04 1.494e-09
 15.72897   -126.6 1.507e+04 2.240e-09
 15.74864   -127.1 1.528e+04 3.682e-09
 15.76832   -127.0 1.543e+04 5.800e-09
 15.78799   -126.5 1.556e+04 8.114e-09
 15.80373   -126.1 1.567e+04 9.845e-09
 15.81290   -125.6 1.586e+04 1.048e-08
 15.81683   -126.1 1.546e+04 8.851e-09
 15.82733   -125.6 1.536e+04 9.052e-09
 15.84700   -125.0 1.518e+04 8.896e-09
 15.86667   -124.3 1.511e+04 8.302e-09
 15.88634   -123.5 1.499e+04 7.711e-09
 15.90601   -122.8 1.494e+04 6.941e-09
 15.92569   -122.2 1.510e+04 5.755e-09
 15.94536   -121.4 1.535e+04 4.381e-09
 15.96503   -120.9 1.541e+04 3.165e-09
 15.98470   -120.8 1.501e+04 2.250e-09
 15.99952   -120.9 1.438e+04 1.663e-09
 16.00936   -122.1 1.351e+04 8.857e-10
 16.02404   -121.7 1.299e+04 8.203e-10
 16.04371   -121.1 1.265e+04 8.151e-10
 16.06338   -120.2 1.245e+04 8.456e-10
 16.08305   -119.1 1.218e+04 9.008e-10
 16.10273   -118.0 1.205e+04 9.274e-10
 16.11633   -116.7 1.188e+04 9.385e-10
 16.12617   -116.0 1.205e+04 7.831e-10
 16.14207   -114.7 1.187e+04 7.940e-10
 16.16174   -113.4 1.173e+04 7.854e-10
 16.18141   -112.1 1.166e+04 7.457e-10
 16.19532   -110.9 1.161e+04 6.862e-10
 16.20515   -110.9 1.143e+04 5.304e-10
 16.22075   -109.8 1.137e+04 4.832e-10
 16.24042   -108.5 1.133e+04 4.474e-10
 16.26009   -107.4 1.136e+04 4.294e-10
 16.27977   -106.3 1.138e+04 4.261e-10
 16.29944   -105.3 1.139e+04 4.269e-10
 16.31911   -104.3 1.150e+04 4.324e-10
 16.33878   -103.3 1.166e+04 4.770e-10
 16.35845   -102.5 1.180e+04 5.527e-10
 16.37812   -101.5 1.193e+04 6.392e-10
 16.39111   -100.5 1.205e+04 7.254e-10
 16.40095   -100.8 1.199e+04 6.386e-10
 16.41583    -99.8 1.213e+04 7.227e-10
 16.42567    -99.2 1.201e+04 6.869e-10
 16.43714    -98.4 1.209e+04 7.283e-10
 16.45681    -97.5 1.214e+04 7.503e-10
 16.47648    -96.9 1.213e+04 7.511e-10
 16.49615    -96.1 1.209e+04 7.319e-10
 16.51582    -95.4 1.201e+04 6.911e-10
 16.54542    -94.4 1.198e+04 6.446e-10
 16.57727    -92.0 1.186e+04 5.732e-10
 16.59694    -91.8 1.168e+04 5.891e-10
 16.62421    -89.3 1.165e+04 5.653e-10
 16.66355    -87.2 1.172e+04 5.649e-10
 16.70289    -86.3 1.236e+04 7.262e-10
 16.72527    -85.9 1.303e+04 1.070e-09
 16.73501    -85.9 1.298e+04 1.085e-09
 16.75187    -85.9 1.343e+04 1.389e-09
 16.77154    -86.7 1.486e+04 1.832e-09
 16.78270    -88.7 1.721e+04 2.853e-09
 16.79254    -89.3 1.741e+04 3.217e-09
 16.81089    -90.6 1.892e+04 5.991e-09
 16.83056    -90.9 1.895e+04 9.427e-09
 16.85023    -90.7 1.865e+04 1.089e-08
 16.86990    -90.2 1.789e+04 1.056e-08
 16.88957    -89.8 1.699e+04 8.686e-09
 16.90924    -89.5 1.613e+04 6.986e-09
 16.92891    -89.1 1.543e+04 5.988e-09
 16.94859    -88.4 1.480e+04 5.004e-09
 16.96826    -87.5 1.431e+04 4.024e-09
 16.97850    -86.6 1.390e+04 3.156e-09
 16.98833    -86.6 1.349e+04 2.426e-09
 17.00760    -85.6 1.315e+04 1.885e-09
 17.02467    -84.8 1.285e+04 1.446e-09
 17.03451    -84.1 1.375e+04 2.928e-09
 17.04694    -83.2 1.353e+04 2.456e-09
 17.06661    -82.3 1.329e+04 1.975e-09
 17.08628    -81.4 1.299e+04 1.500e-09
 17.10595    -80.5 1.263e+04 1.066e-09
 17.12563    -79.7 1.219e+04 7.160e-10
 17.14530    -79.1 1.171e+04 4.660e-10
 17.16445    -78.6 1.121e+04 3.101e-10
 17.17429    -77.9 1.107e+04 3.019e-10
 17.18464    -77.3 1.066e+04 2.188e-10
 17.20431    -76.6 1.035e+04 1.766e-10
 17.22398    -75.8 1.017e+04 1.545e-10
 17.24365    -74.8 1.007e+04 1.411e-10
 17.26332    -73.7 1.004e+04 1.356e-10
 17.28299    -72.4 1.003e+04 1.328e-10
 17.30267    -71.3 1.008e+04 1.332e-10
 17.32234    -70.0 1.012e+04 1.343e-10
 17.33401    -69.0 1.018e+04 1.366e-10
 17.34385    -68.2 1.054e+04 1.441e-10
 17.36025    -67.8 1.134e+04 1.751e-10
 17.37009    -65.1 1.025e+04 1.301e-10
 17.38135    -64.6 1.040e+04 1.361e-10
 17.40102    -63.9 1.092e+04 1.697e-10
 17.42069    -63.5 1.161e+04 2.220e-10
 17.44036    -63.1 1.271e+04 3.217e-10
 17.46004    -63.0 1.412e+04 5.102e-10
 17.47971    -63.2 1.532e+04 8.805e-10
 17.49938    -64.0 1.592e+04 1.602e-09
 17.51905    -64.6 1.598e+04 2.905e-09
 17.53872    -64.7 1.597e+04 4.882e-09
 17.55604    -64.5 1.630e+04 7.750e-09
 17.56588    -62.9 1.615e+04 3.799e-09
 17.57806    -62.7 1.635e+04 6.448e-09
 17.59773    -62.2 1.684e+04 9.112e-09
 17.61740    -61.8 1.733e+04 1.040e-08
 17.63351    -61.6 1.749e+04 1.040e-08
 17.64335    -61.8 1.837e+04 1.498e-08
 17.65675    -62.6 1.796e+04 1.114e-08
 17.67642    -63.9 1.631e+04 7.111e-09
 17.69609    -65.2 1.470e+04 4.654e-09
 17.71576    -65.7 1.362e+04 3.222e-09
 17.73543    -65.7 1.302e+04 2.280e-09
 17.75184    -65.5 1.244e+04 1.549e-09
 17.76167    -64.3 1.311e+04 2.491e-09
 17.77477    -64.1 1.262e+04 1.679e-09
 17.79445    -64.2 1.205e+04 1.039e-09
 17.81412    -65.0 1.133e+04 6.313e-10
 17.83379    -66.0 1.052e+04 4.199e-10
 17.85346    -66.6 9.975e+03 3.350e-10
 17.87313    -66.6 9.784e+03 3.110e-10
 17.89280    -66.5 9.718e+03 3.021e-10
 17.91247    -66.2 9.686e+03 2.940e-10
 17.93214    -66.1 9.639e+03 2.850e-10
 17.94285    -66.1 9.625e+03 2.755e-10
 17.94850    -65.9 9.598e+03 2.664e-10
 17.95747    -65.7 9.588e+03 2.743e-10
 17.97149    -65.7 9.599e+03 2.670e-10
 17.99116    -66.7 1.006e+04 2.776e-10
 18.01083    -69.0 1.094e+04 3.544e-10
 18.03050    -71.6 1.156e+04 5.668e-10
 18.05017    -73.0 1.181e+04 9.469e-10
 18.06984    -73.3 1.205e+04 1.449e-09
 18.08951    -73.2 1.227e+04 1.880e-09
 18.10918    -72.7 1.246e+04 2.051e-09
 18.12885    -72.2 1.256e+04 2.054e-09
 18.14343    -72.1 1.244e+04 1.715e-09
 18.15326    -72.0 1.249e+04 1.887e-09
 18.16820    -72.2 1.243e+04 1.521e-09
 18.18787    -72.7 1.232e+04 1.210e-09
 18.20754    -73.4 1.216e+04 1.009e-09
 18.22721    -73.8 1.206e+04 9.215e-10
 18.24235    -73.9 1.204e+04 8.957e-10
 18.25219    -74.4 1.184e+04 7.658e-10
 18.26655    -74.3 1.198e+04 8.613e-10
 18.28622    -73.9 1.213e+04 9.353e-10
 18.30590    -73.5 1.227e+04 9.744e-10
 18.32557    -73.1 1.230e+04 9.819e-10
 18.33922    -72.6 1.225e+04 9.607e-10
 18.34906    -72.1 1.226e+04 8.982e-10
 18.36491    -71.5 1.223e+04 8.491e-10
 18.38458    -70.7 1.219e+04 7.714e-10
 18.40425    -69.8 1.231e+04 7.161e-10
 18.43386    -68.7 1.242e+04 7.000e-10
 18.47330    -67.3 1.271e+04 6.933e-10
 18.50270    -67.1 1.323e+04 7.138e-10
 18.52228    -68.0 1.466e+04 8.334e-10
 18.53502    -70.0 1.788e+04 1.152e-09
 18.54476    -72.7 2.069e+04 2.596e-09
 18.56152    -72.1 2.315e+04 4.101e-09
 18.58129    -72.1 2.426e+04 8.489e-09
 18.59600    -73.2 2.447e+04 8.512e-09
 18.60578    -74.2 2.412e+04 9.344e-09
 18.61562    -75.9 2.318e+04 1.031e-08
 18.62545    -77.1 2.190e+04 1.193e-08
 18.63282    -78.4 2.076e+04 1.423e-08
 18.63774    -78.6 2.110e+04 2.312e-08
 18.64513    -79.3 2.045e+04 2.169e-08
 18.65993    -79.8 1.982e+04 1.716e-08
 18.67965    -80.0 1.916e+04 1.581e-08
 18.69932    -80.1 1.882e+04 1.336e-08
 18.71899    -80.2 1.856e+04 1.061e-08
 18.73081    -80.6 1.834e+04 8.401e-09
 18.73568    -80.6 1.827e+04 8.993e-09
 18.74348    -80.7 1.809e+04 8.360e-09
 18.75332    -80.9 1.767e+04 7.458e-09
 18.76315    -80.9 1.745e+04 6.968e-09
 18.77299    -81.0 1.698e+04 6.350e-09
 18.78282    -80.8 1.666e+04 5.948e-09
 18.79763    -80.6 1.598e+04 5.186e-09
 18.81735    -79.8 1.557e+04 4.481e-09
 18.83702    -79.3 1.543e+04 3.839e-09
 18.85119    -78.8 1.530e+04 3.344e-09
 18.86102    -78.5 1.615e+04 4.826e-09
 18.87636    -78.0 1.598e+04 4.498e-09
 18.89603    -77.6 1.579e+04 4.065e-09
 18.91570    -77.0 1.551e+04 3.584e-09
 18.92661    -76.5 1.513e+04 3.094e-09
 18.93644    -76.8 1.465e+04 2.708e-09
 18.95504    -76.1 1.420e+04 2.425e-09
 18.97471    -75.3 1.379e+04 2.177e-09
 18.99439    -74.4 1.344e+04 1.962e-09
 19.01406    -73.4 1.317e+04 1.777e-09
 19.03373    -72.4 1.296e+04 1.634e-09
 19.05340    -71.4 1.282e+04 1.540e-09
 19.07307    -70.5 1.270e+04 1.478e-09
 19.09274    -69.5 1.260e+04 1.434e-09
 19.11241    -68.4 1.254e+04 1.407e-09
 19.12240    -67.4 1.249e+04 1.387e-09
 19.13224    -67.1 1.240e+04 1.349e-09
 19.15069    -66.0 1.236e+04 1.321e-09
 19.16053    -66.0 1.264e+04 1.552e-09
 19.17143    -64.9 1.258e+04 1.503e-09
 19.19110    -63.9 1.254e+04 1.457e-09
 19.21077    -63.0 1.249e+04 1.414e-09
 19.23044    -61.9 1.247e+04 1.393e-09
 19.25011    -60.9 1.249e+04 1.392e-09
 19.26978    -60.0 1.252e+04 1.422e-09
 19.28945    -59.0 1.252e+04 1.484e-09
 19.30836    -57.8 1.264e+04 1.612e-09
 19.31820    -57.5 1.239e+04 1.449e-09
 19.32880    -56.3 1.263e+04 1.620e-09
 19.34847    -55.3 1.289e+04 1.839e-09
 19.36814    -54.3 1.311e+04 2.050e-09
 19.38781    -53.2 1.333e+04 2.250e-09
 19.40748    -52.2 1.353e+04 2.410e-09
 19.42715    -51.2 1.364e+04 2.473e-09
 19.44682    -50.2 1.368e+04 2.477e-09
 19.46003    -49.3 1.362e+04 2.399e-09
 19.46986    -49.8 1.355e+04 2.356e-09
 19.48616    -48.7 1.340e+04 2.223e-09
 19.50416    -47.8 1.324e+04 2.054e-09
 19.51399    -47.5 1.261e+04 1.511e-09
 19.52551    -46.8 1.241e+04 1.352e-09
 19.54518    -46.2 1.230e+04 1.278e-09
 19.57478    -45.3 1.251e+04 1.340e-09
 19.61422    -43.9 1.233e+04 1.247e-09
 19.65356    -42.8 1.238e+04 1.295e-09
 19.69031    -42.0 1.256e+04 1.507e-09
 19.70998    -41.0 1.164e+04 8.790e-10
 19.73225    -40.2 1.201e+04 1.200e-09
 19.75972    -39.0 1.232e+04 1.490e-09
 19.77940    -38.3 1.201e+04 1.317e-09
 19.81093    -37.0 1.215e+04 1.440e-09
 19.85028    -35.8 1.219e+04 1.472e-09
 19.88962    -34.6 1.216e+04 1.462e-09
 19.92896    -33.4 1.215e+04 1.456e-09
 19.96830    -32.3 1.221e+04 1.509e-09
 20.00765    -31.3 1.232e+04 1.612e-09
 20.04699    -30.3 1.238e+04 1.656e-09
 20.08190    -29.2 1.229e+04 1.612e-09
 20.10157    -29.8 1.212e+04 1.462e-09
 20.12567    -28.7 1.183e+04 1.303e-09
 20.15508    -27.7 1.170e+04 1.310e-09
 20.17466    -26.8 1.130e+04 1.132e-09
 20.19433    -25.6 1.086e+04 9.067e-10
 20.21400    -24.5 1.052e+04 6.868e-10
 20.23367    -23.8 1.030e+04 5.233e-10
 20.25334    -23.2 1.011e+04 4.207e-10
 20.28294    -22.5 9.895e+03 3.333e-10
 20.32238    -21.0 9.762e+03 2.935e-10
 20.35873    -19.7 9.812e+03 2.948e-10
 20.37840    -18.8 9.828e+03 3.373e-10
 20.40107    -17.8 9.921e+03 3.739e-10
 20.43048    -17.5 9.926e+03 3.889e-10
 20.45005    -17.2 9.951e+03 4.081e-10
 20.46972    -16.7 1.019e+04 4.600e-10
 20.48313    -17.0 1.039e+04 5.122e-10
 20.49296    -18.0 1.076e+04 6.374e-10
 20.50906    -18.4 1.108e+04 8.388e-10
 20.52874    -18.8 1.127e+04 1.074e-09
 20.54841    -18.7 1.143e+04 1.328e-09
 20.56808    -18.2 1.156e+04 1.474e-09
 20.58775    -17.7 1.170e+04 1.493e-09
 20.60742    -17.5 1.186e+04 1.401e-09
 20.62709    -17.9 1.202e+04 1.181e-09
 20.64676    -19.1 1.210e+04 9.764e-10
 20.66643    -20.8 1.192e+04 8.957e-10
 20.67771    -22.3 1.173e+04 8.768e-10
 20.68036    -22.3 1.196e+04 9.645e-10
 20.68876    -24.4 1.196e+04 1.100e-09
 20.70578    -25.2 1.206e+04 1.210e-09
 20.72545    -25.9 1.228e+04 1.308e-09
 20.74512    -26.5 1.251e+04 1.343e-09
 20.76479    -27.2 1.265e+04 1.336e-09
 20.78446    -27.8 1.262e+04 1.278e-09
 20.80413    -28.4 1.246e+04 1.230e-09
 20.82380    -29.0 1.234e+04 1.190e-09
 20.84347    -29.6 1.236e+04 1.177e-09
 20.86315    -30.3 1.279e+04 1.275e-09
 20.87472    -31.3 1.350e+04 1.612e-09
 20.88455    -33.7 1.394e+04 2.252e-09
 20.90249    -34.5 1.432e+04 3.111e-09
 20.92216    -34.8 1.454e+04 4.206e-09
 20.94183    -34.8 1.480e+04 5.391e-09
 20.96150    -33.8 1.504e+04 6.683e-09
 20.97721    -32.4 1.510e+04 6.887e-09
 20.98704    -32.3 1.574e+04 8.860e-09
 21.00084    -30.6 1.599e+04 9.333e-09
 21.02052    -29.2 1.603e+04 7.554e-09
 21.04019    -28.1 1.576e+04 4.435e-09
 21.05986    -28.2 1.503e+04 2.195e-09
 21.07051    -29.8 1.328e+04 1.074e-09
 21.08035    -32.3 1.174e+04 8.441e-10
 21.09920    -31.8 1.106e+04 6.609e-10
 21.11887    -30.8 1.073e+04 5.623e-10
 21.13854    -29.6 1.054e+04 5.101e-10
 21.15821    -28.5 1.042e+04 4.722e-10
 21.17788    -27.2 1.033e+04 4.405e-10
 21.19756    -26.1 1.032e+04 4.410e-10
 21.22716    -24.1 1.050e+04 4.928e-10
 21.25667    -21.3 1.010e+04 3.998e-10
 21.27634    -21.7 1.051e+04 5.406e-10
 21.30594    -18.8 1.008e+04 3.991e-10
 21.34528    -16.4 9.983e+03 3.224e-10
 21.38463    -14.4 9.938e+03 2.853e-10
 21.42397    -12.4 9.929e+03 2.781e-10
 21.46331    -11.0 1.019e+04 3.135e-10
 21.50265    -10.7 1.090e+04 4.944e-10
 21.54200    -10.1 1.149e+04 8.815e-10
 21.57141     -8.3 1.207e+04 1.441e-09
 21.58605     -8.3 1.203e+04 1.497e-09
 21.59588     -8.5 1.215e+04 1.621e-09
 21.61065     -6.4 1.226e+04 1.921e-09
 21.63032     -5.1 1.229e+04 1.726e-09
 21.64806     -4.2 1.258e+04 1.324e-09
 21.65790     -6.1 1.295e+04 1.011e-09
 21.66966     -6.8 1.244e+04 7.800e-10
 21.68933     -7.1 1.198e+04 6.587e-10
 21.70901     -6.6 1.190e+04 6.249e-10
 21.72868     -5.9 1.206e+04 6.416e-10
 21.74835     -5.1 1.231e+04 6.824e-10
 21.76802     -4.6 1.260e+04 7.589e-10
 21.78769     -4.3 1.284e+04 9.068e-10
 21.80736     -4.0 1.320e+04 1.144e-09
 21.82703     -3.9 1.378e+04 1.471e-09
 21.84386     -4.1 1.422e+04 1.934e-09
 21.85369     -5.4 1.446e+04 2.641e-09
 21.86637     -4.9 1.434e+04 3.371e-09
 21.88555     -3.6 1.414e+04 3.848e-09
 21.89538     -3.6 1.399e+04 3.872e-09
 21.90572     -2.4 1.381e+04 3.954e-09
 21.92539     -0.9 1.356e+04 3.180e-09
 21.94506     -0.3 1.323e+04 2.300e-09
 21.96473     -0.3 1.262e+04 1.556e-09
 21.98440     -0.0 1.211e+04 1.184e-09
 22.00407      0.6 1.165e+04 8.998e-10
 22.02374      1.1 1.120e+04 7.666e-10
 22.03975      2.6 1.119e+04 5.484e-10
 22.05952      2.1 1.138e+04 6.324e-10
 22.09279      4.1 1.139e+04 5.999e-10
 22.13213      5.5 1.161e+04 7.220e-10
 22.17147      7.0 1.202e+04 1.035e-09
 22.19508      8.3 1.261e+04 1.374e-09
 22.21475      9.0 1.252e+04 1.344e-09
 22.25016      9.8 1.299e+04 1.638e-09
 22.28950     10.2 1.299e+04 1.786e-09
 22.32884     10.7 1.276e+04 1.482e-09
 22.35825     10.9 1.248e+04 1.006e-09
 22.37783     10.9 1.214e+04 7.803e-10
 22.39750     11.0 1.173e+04 5.533e-10
 22.41717     11.2 1.133e+04 4.275e-10
 22.43124     11.5 1.147e+04 2.969e-10
 22.44108     10.5 1.153e+04 2.905e-10
 22.45651     10.4 1.152e+04 2.709e-10
 22.47618     10.7 1.156e+04 2.574e-10
 22.49439     10.7 1.157e+04 2.583e-10
 22.50422     11.0 1.166e+04 2.795e-10
 22.52546     11.5 1.155e+04 3.401e-10
 22.56490     13.1 1.146e+04 4.252e-10
 22.60424     15.1 1.145e+04 4.492e-10
 22.64358     17.5 1.135e+04 3.829e-10
 22.68292     19.7 1.119e+04 2.535e-10
 22.72227     20.9 1.116e+04 1.881e-10
 22.76161     22.4 1.105e+04 1.850e-10
 22.79408     24.1 1.104e+04 2.008e-10
 22.81375     24.1 1.120e+04 2.189e-10
 22.82303     26.1 1.122e+04 2.471e-10
 22.84270     25.3 1.122e+04 2.239e-10
 22.87963     27.3 1.131e+04 2.610e-10
 22.91898     29.2 1.146e+04 2.809e-10
 22.95832     30.9 1.160e+04 2.917e-10
 22.99766     32.6 1.168e+04 3.034e-10
 23.03700     34.1 1.183e+04 3.306e-10
 23.07635     35.3 1.206e+04 3.754e-10
 23.10332     36.0 1.229e+04 4.168e-10
 23.11306     34.9 1.245e+04 5.192e-10
 23.12533     34.9 1.258e+04 7.075e-10
 23.14500     35.1 1.264e+04 9.958e-10
 23.16467     35.7 1.274e+04 1.292e-09
 23.18434     36.7 1.282e+04 1.460e-09
 23.20401     37.4 1.302e+04 1.514e-09
 23.21442     38.0 1.306e+04 1.440e-09
 23.22425     37.5 1.307e+04 1.275e-09
 23.24336     37.5 1.306e+04 1.178e-09
 23.27296     38.0 1.289e+04 9.426e-10
 23.31240     37.9 1.271e+04 6.806e-10
 23.35174     37.7 1.248e+04 5.196e-10
 23.38115     37.5 1.232e+04 4.710e-10
 23.40038     37.6 1.219e+04 4.605e-10
 23.41021     37.1 1.210e+04 4.421e-10
 23.41256     37.4 1.202e+04 4.542e-10
 23.43233     37.2 1.195e+04 4.535e-10
 23.46977     38.3 1.187e+04 4.948e-10
 23.50911     39.7 1.189e+04 5.030e-10
 23.54845     40.9 1.189e+04 4.795e-10
 23.58653     42.1 1.187e+04 4.548e-10
 23.60620     41.7 1.180e+04 3.769e-10
 23.62714     42.9 1.175e+04 3.503e-10
 23.66648     44.1 1.170e+04 3.290e-10
 23.70582     45.3 1.174e+04 3.266e-10
 23.74517     46.3 1.178e+04 3.418e-10
 23.77457     46.8 1.179e+04 3.621e-10
 23.79197     46.8 1.188e+04 4.087e-10
 23.80180     46.5 1.185e+04 4.479e-10
 23.81382     46.7 1.192e+04 5.593e-10
 23.83349     47.0 1.203e+04 6.892e-10
 23.85316     47.4 1.220e+04 8.040e-10
 23.87283     47.6 1.240e+04 8.544e-10
 23.89250     47.6 1.260e+04 8.450e-10
 23.91218     47.2 1.275e+04 8.077e-10
 23.93185     46.3 1.311e+04 7.539e-10
 23.95152     44.6 1.358e+04 7.866e-10
 23.97119     42.2 1.394e+04 1.010e-09
 23.98776     40.0 1.398e+04 1.602e-09
 23.99760     40.1 1.366e+04 1.880e-09
 24.01053     40.2 1.374e+04 2.706e-09
 24.02140     40.7 1.408e+04 3.236e-09
 24.03124     39.8 1.427e+04 3.215e-09
 24.04987     40.0 1.428e+04 2.968e-09
 24.06954     39.8 1.419e+04 2.449e-09
 24.09915     38.6 1.347e+04 1.501e-09
 24.13859     38.2 1.270e+04 9.738e-10
 24.17793     38.6 1.206e+04 7.241e-10
 24.21727     39.7 1.164e+04 5.713e-10
 24.25662     41.5 1.136e+04 4.413e-10
 24.29596     43.5 1.116e+04 3.138e-10
 24.33530     45.5 1.104e+04 2.046e-10
 24.36971     47.4 1.095e+04 1.285e-10
 24.38938     47.5 1.115e+04 1.563e-10
 24.41399     49.0 1.100e+04 1.090e-10
 24.45333     50.7 1.077e+04 9.027e-11
 24.49267     52.7 1.055e+04 8.453e-11
 24.53201     54.9 1.041e+04 8.421e-11
 24.57135     57.2 1.033e+04 8.598e-11
 24.61070     59.6 1.031e+04 8.800e-11
 24.65004     61.8 1.031e+04 9.643e-11
 24.68938     64.1 1.039e+04 1.006e-10
 24.72872     66.3 1.044e+04 1.050e-10
 24.76130     68.5 1.049e+04 1.111e-10
 24.78097     68.5 1.064e+04 9.531e-11
 24.80741     70.6 1.071e+04 9.904e-11
 24.84675     72.6 1.078e+04 1.067e-10
 24.88609     74.4 1.083e+04 1.233e-10
 24.92544     76.1 1.088e+04 1.529e-10
 24.96478     77.8 1.096e+04 1.929e-10
 25.00412     79.4 1.109e+04 2.296e-10
 25.04346     80.8 1.120e+04 2.490e-10
 25.08280     82.1 1.126e+04 2.424e-10
 25.12215     83.1 1.136e+04 2.331e-10
 25.15289     84.0 1.140e+04 2.356e-10
 25.17256     83.9 1.151e+04 2.684e-10
 25.20083     84.7 1.156e+04 3.016e-10
 25.22944     85.5 1.162e+04 3.361e-10
 25.24911     85.3 1.175e+04 4.379e-10
 25.27952     86.1 1.170e+04 4.051e-10
 25.31886     87.2 1.154e+04 3.042e-10
 25.35820     88.5 1.139e+04 1.807e-10
 25.39754     89.6 1.135e+04 8.929e-11
 25.43689     90.3 1.114e+04 4.789e-11
 25.47623     91.2 1.069e+04 4.307e-11
 25.51557     92.7 1.066e+04 4.341e-11
 25.54448     94.5 1.063e+04 4.638e-11
 25.56415     94.7 1.073e+04 4.665e-11
 25.59425     96.5 1.075e+04 5.355e-11
 25.63360     98.3 1.082e+04 6.303e-11
 25.67294    100.1 1.089e+04 7.454e-11
 25.71228    101.8 1.098e+04 8.655e-11
 25.75162    103.4 1.112e+04 9.436e-11
 25.79097    104.7 1.117e+04 9.434e-11
 25.82844    105.9 1.119e+04 9.145e-11
 25.84811    105.4 1.115e+04 8.661e-11
 25.86965    106.6 1.112e+04 7.857e-11
 25.90899    107.9 1.108e+04 6.829e-11
 25.93607    109.1 1.106e+04 5.769e-11
 25.95574    109.3 1.111e+04 5.949e-11
 25.98768    110.7 1.111e+04 5.883e-11
 26.02702    112.0 1.111e+04 6.003e-11
 26.06636    113.3 1.113e+04 6.537e-11
 26.10570    114.7 1.114e+04 7.754e-11
 26.14505    116.0 1.115e+04 9.769e-11
 26.18439    117.4 1.116e+04 1.262e-10
 26.22373    118.7 1.119e+04 1.612e-10
 26.26307    119.8 1.126e+04 1.969e-10
 26.30242    120.7 1.135e+04 2.266e-10
 26.32766    121.4 1.137e+04 2.427e-10
 26.34733    120.9 1.142e+04 2.349e-10
 26.38110    121.4 1.136e+04 2.445e-10
 26.42044    122.0 1.129e+04 2.540e-10
 26.44711    122.6 1.121e+04 2.614e-10
 26.46679    122.4 1.127e+04 2.702e-10
 26.49913    123.0 1.120e+04 2.891e-10
 26.53847    123.6 1.112e+04 3.198e-10
 26.57781    124.2 1.109e+04 3.674e-10
 26.61716    124.6 1.112e+04 4.401e-10
 26.65650    124.8 1.120e+04 5.397e-10
 26.69584    124.8 1.130e+04 6.478e-10
 26.71925    124.6 1.150e+04 7.823e-10
 26.73892    124.4 1.197e+04 9.590e-10
 26.75635    124.5 1.194e+04 9.669e-10
 26.76609    124.2 1.205e+04 1.071e-09
 26.78416    124.1 1.211e+04 1.148e-09
 26.80384    123.9 1.220e+04 1.237e-09
 26.82351    123.5 1.239e+04 1.395e-09
 26.84318    122.8 1.270e+04 1.668e-09
 26.86285    122.0 1.311e+04 2.112e-09
 26.88252    121.3 1.357e+04 2.737e-09
 26.90219    120.7 1.396e+04 3.320e-09
 26.91485    119.9 1.410e+04 3.403e-09
 26.92468    120.4 1.450e+04 4.074e-09
 26.94153    119.6 1.452e+04 4.016e-09
 26.96121    118.7 1.441e+04 3.683e-09
 26.98088    117.7 1.407e+04 3.040e-09
 27.00055    116.4 1.356e+04 2.399e-09
 27.02022    114.9 1.300e+04 1.951e-09
 27.03989    113.5 1.257e+04 1.715e-09
 27.05576    112.3 1.232e+04 1.572e-09
 27.06559    111.9 1.233e+04 1.556e-09
 27.08917    110.2 1.190e+04 1.254e-09
 27.11084    108.7 1.136e+04 9.228e-10
 27.13051    108.8 1.185e+04 1.239e-09
 27.16795    108.0 1.107e+04 7.289e-10
 27.20729    107.6 1.021e+04 3.737e-10
 27.24663    107.3 9.435e+03 2.156e-10
 27.28597    107.5 9.167e+03 1.935e-10
 27.32532    108.7 9.135e+03 1.929e-10
 27.36466    110.5 9.119e+03 1.994e-10
 27.40400    112.2 9.149e+03 2.245e-10
 27.44334    113.9 9.254e+03 2.646e-10
 27.48269    115.4 9.403e+03 3.128e-10
 27.52203    116.7 9.640e+03 3.588e-10
 27.56137    117.9 9.807e+03 4.223e-10
 27.60071    119.4 1.007e+04 5.197e-10
 27.63012    119.9 1.025e+04 6.048e-10
 27.64970    120.4 1.041e+04 6.824e-10
 27.66460    120.7 1.060e+04 7.726e-10
 27.67443    120.7 1.071e+04 8.512e-10
 27.68819    121.0 1.093e+04 9.692e-10
 27.69803    120.5 1.094e+04 9.750e-10
 27.70871    120.5 1.119e+04 1.146e-09
 27.72838    120.7 1.144e+04 1.367e-09
 27.74805    120.9 1.171e+04 1.639e-09
 27.76772    121.1 1.200e+04 1.972e-09
 27.78739    121.5 1.235e+04 2.346e-09
 27.80706    121.9 1.271e+04 2.693e-09
 27.82674    122.2 1.310e+04 2.783e-09
 27.84641    122.4 1.317e+04 2.742e-09
 27.86608    122.4 1.324e+04 2.585e-09
 27.88399    122.4 1.319e+04 2.308e-09
 27.89382    121.2 1.248e+04 1.437e-09
 27.91535    120.9 1.201e+04 1.265e-09
 27.95479    121.2 1.180e+04 1.249e-09
 27.99414    121.6 1.163e+04 1.221e-09
 28.03348    122.2 1.148e+04 1.160e-09
 28.07282    122.8 1.134e+04 1.071e-09
 28.11216    123.5 1.126e+04 1.013e-09
 28.15151    124.0 1.129e+04 9.851e-10
 28.19085    124.2 1.132e+04 9.651e-10
 28.23019    124.1 1.128e+04 9.174e-10
 28.26380    124.0 1.118e+04 7.978e-10
 28.27987    123.5 1.112e+04 7.764e-10
 28.28561    123.2 1.074e+04 4.886e-10
 28.30887    123.2 1.047e+04 3.403e-10
 28.34822    123.1 1.017e+04 2.284e-10
 28.38756    123.1 9.904e+03 1.557e-10
 28.42690    123.3 9.676e+03 1.156e-10
 28.46624    123.7 9.503e+03 9.605e-11
 28.50559    124.5 9.391e+03 9.412e-11
 28.54493    125.7 9.377e+03 9.609e-11
 28.58427    126.9 9.371e+03 1.030e-10
 28.62361    128.3 9.411e+03 1.137e-10
 28.65752    129.6 9.479e+03 1.262e-10
 28.67719    129.9 9.513e+03 1.278e-10
 28.70230    131.2 9.590e+03 1.393e-10
 28.74164    132.5 9.657e+03 1.472e-10
 28.78098    133.7 9.724e+03 1.516e-10
 28.82032    134.9 9.787e+03 1.546e-10
 28.85967    135.9 9.849e+03 1.602e-10
 28.88247    136.9 9.962e+03 1.795e-10
 28.90214    137.6 9.936e+03 1.739e-10
 28.93835    138.5 1.011e+04 2.189e-10
 28.97769    139.1 1.041e+04 3.145e-10
 29.01704    139.5 1.080e+04 4.886e-10
 29.04911    139.6 1.119e+04 7.245e-10
 29.06878    139.6 1.074e+04 4.635e-10
 29.09572    139.3 1.090e+04 5.080e-10
 29.13506    138.6 1.095e+04 5.144e-10
 29.17441    137.9 1.093e+04 5.153e-10
 29.21375    137.8 1.093e+04 5.266e-10
 29.25309    137.8 1.095e+04 5.708e-10
 29.29243    138.0 1.117e+04 6.620e-10
 29.32184    137.9 1.141e+04 7.553e-10
 29.34142    137.8 1.168e+04 8.712e-10
 29.36109    137.7 1.205e+04 1.048e-09
 29.38076    137.4 1.253e+04 1.310e-09
 29.40043    136.9 1.308e+04 1.693e-09
 29.42010    136.1 1.356e+04 2.168e-09
 29.43977    135.4 1.389e+04 2.671e-09
 29.45034    134.7 1.404e+04 3.021e-09
 29.46018    134.4 1.508e+04 4.330e-09
 29.47911    133.8 1.503e+04 4.211e-09
 29.49111    133.2 1.481e+04 3.763e-09
 29.50095    132.8 1.500e+04 3.874e-09
 29.51846    132.1 1.466e+04 3.231e-09
 29.53813    131.2 1.429e+04 2.624e-09
 29.55780    130.3 1.388e+04 2.198e-09
 29.57747    129.3 1.351e+04 1.988e-09
 29.59714    128.7 1.324e+04 1.918e-09
 29.61681    128.4 1.309e+04 1.891e-09
 29.63630    128.2 1.298e+04 1.864e-09
 29.64614    127.7 1.304e+04 1.903e-09
 29.65615    127.8 1.297e+04 1.868e-09
 29.67582    127.8 1.284e+04 1.800e-09
 29.69550    127.9 1.268e+04 1.721e-09
 29.71517    127.9 1.253e+04 1.649e-09
 29.73484    127.9 1.244e+04 1.627e-09
 29.75451    127.9 1.244e+04 1.639e-09
 29.77418    127.9 1.246e+04 1.672e-09
 29.79061    127.8 1.259e+04 1.803e-09
 29.80045    127.4 1.275e+04 1.886e-09
 29.81352    127.3 1.277e+04 1.889e-09
 29.83219    127.0 1.254e+04 1.655e-09
 29.84203    127.4 1.326e+04 2.368e-09
 29.85287    127.2 1.315e+04 2.259e-09
 29.87254    127.0 1.291e+04 1.983e-09
 29.89221    126.6 1.252e+04 1.538e-09
 29.92181    126.7 1.225e+04 1.173e-09
 29.96125    125.6 1.076e+04 4.711e-10
 30.00059    124.2 9.582e+03 2.490e-10
 30.03994    123.5 9.537e+03 2.421e-10
 30.07928    123.2 9.605e+03 2.547e-10
 30.10015    122.8 9.837e+03 2.963e-10
 30.10988    123.3 9.730e+03 2.749e-10
 30.12826    122.8 9.929e+03 3.095e-10
 30.14793    121.7 1.035e+04 4.059e-10
 30.16760    120.1 1.092e+04 5.869e-10
 30.18728    118.4 1.155e+04 8.919e-10
 30.20695    116.8 1.220e+04 1.335e-09
 30.22369    115.3 1.279e+04 1.855e-09
 30.23352    114.9 1.261e+04 1.671e-09
 30.24629    113.5 1.287e+04 1.699e-09
 30.26596    111.9 1.288e+04 1.629e-09
 30.28563    110.4 1.276e+04 1.358e-09
 30.30530    108.9 1.241e+04 9.976e-10
 30.32497    107.3 1.196e+04 6.873e-10
 30.34464    105.4 1.146e+04 4.824e-10
 30.36432    103.5 1.102e+04 3.937e-10
 30.38399    101.9 1.090e+04 3.901e-10
 30.39945    100.5 1.091e+04 4.060e-10
 30.40929    100.6 1.106e+04 4.738e-10
 30.41948     99.3 1.118e+04 5.429e-10
 30.42932     99.0 1.076e+04 4.127e-10
 30.44300     98.1 1.106e+04 5.257e-10
 30.46267     97.3 1.136e+04 6.791e-10
 30.48234     96.7 1.166e+04 8.636e-10
 30.50201     96.1 1.190e+04 1.028e-09
 30.52168     95.5 1.202e+04 1.086e-09
 30.54136     94.9 1.201e+04 1.074e-09
 30.56103     94.5 1.192e+04 1.011e-09
 30.58070     94.0 1.175e+04 9.029e-10
 30.60037     93.7 1.156e+04 7.864e-10
 30.61528     93.4 1.137e+04 6.822e-10
 30.62511     94.3 1.146e+04 7.455e-10
 30.63971     94.2 1.130e+04 6.609e-10
 30.65938     94.1 1.115e+04 5.858e-10
 30.67905     94.0 1.103e+04 5.352e-10
 30.69873     93.9 1.098e+04 5.258e-10
 30.70879     93.8 1.098e+04 5.299e-10
 30.71863     94.1 1.097e+04 5.417e-10
 30.73807     94.0 1.105e+04 5.724e-10
 30.75774     94.1 1.115e+04 6.307e-10
 30.77741     94.3 1.127e+04 7.028e-10
 30.79708     94.6 1.136e+04 7.494e-10
 30.81107     94.9 1.138e+04 7.502e-10
 30.82091     95.4 1.126e+04 7.056e-10
 30.83642     95.8 1.124e+04 6.856e-10
 30.85609     96.2 1.119e+04 6.294e-10
 30.87577     96.6 1.114e+04 5.530e-10
 30.89544     96.8 1.107e+04 4.832e-10
 30.91511     97.0 1.095e+04 4.591e-10
 30.93478     97.3 1.093e+04 4.603e-10
 30.95445     97.7 1.091e+04 4.714e-10
 30.97412     98.3 1.094e+04 5.052e-10
 30.99379     98.8 1.105e+04 5.600e-10
 31.00686     99.4 1.121e+04 6.355e-10
 31.01153     99.5 1.109e+04 5.583e-10
 31.01813     99.5 1.097e+04 4.905e-10
 31.03313     99.9 1.118e+04 5.719e-10
 31.05281    100.4 1.143e+04 6.781e-10
 31.07248    100.8 1.168e+04 8.057e-10
 31.09215    101.2 1.190e+04 9.418e-10
 31.11182    101.7 1.208e+04 1.069e-09
 31.13149    102.3 1.224e+04 1.175e-09
 31.15116    102.8 1.238e+04 1.255e-09
 31.17083    103.3 1.253e+04 1.353e-09
 31.19050    103.8 1.272e+04 1.499e-09
 31.20266    104.1 1.299e+04 1.729e-09
 31.21249    103.7 1.320e+04 1.984e-09
 31.22985    103.9 1.360e+04 2.522e-09
 31.24952    104.3 1.404e+04 3.213e-09
 31.26919    104.8 1.446e+04 3.911e-09
 31.28886    105.1 1.470e+04 4.144e-09
 31.30779    105.1 1.469e+04 4.082e-09
 31.31763    105.4 1.500e+04 4.559e-09
 31.32820    105.5 1.488e+04 4.212e-09
 31.34787    105.8 1.451e+04 3.501e-09
 31.36754    106.0 1.406e+04 2.664e-09
 31.38722    105.9 1.369e+04 1.903e-09
 31.39845    105.7 1.328e+04 1.343e-09
 31.40829    104.5 1.302e+04 9.897e-10
 31.42656    103.8 1.252e+04 7.561e-10
 31.44623    103.4 1.208e+04 6.789e-10
 31.46590    103.3 1.200e+04 6.761e-10
 31.48557    103.3 1.199e+04 6.816e-10
 31.50524    103.2 1.201e+04 7.220e-10
 31.52491    103.1 1.206e+04 8.271e-10
 31.54458    103.1 1.216e+04 9.762e-10
 31.56426    103.4 1.233e+04 1.132e-09
 31.58393    103.6 1.261e+04 1.214e-09
 31.59425    103.6 1.267e+04 1.205e-09
 31.60408    102.6 1.215e+04 8.245e-10
 31.61713    102.4 1.211e+04 7.742e-10
 31.62697    102.2 1.196e+04 6.808e-10
 31.64294    102.1 1.173e+04 5.923e-10
 31.66261    102.0 1.146e+04 4.948e-10
 31.68228    101.9 1.122e+04 3.931e-10
 31.70195    101.8 1.109e+04 3.402e-10
 31.72163    102.0 1.092e+04 2.830e-10
 31.74130    102.0 1.079e+04 2.458e-10
 31.77047    102.9 1.066e+04 2.434e-10
 31.79024    102.7 1.038e+04 2.095e-10
 31.81034    104.0 1.025e+04 2.077e-10
 31.84968    105.6 1.021e+04 2.123e-10
 31.88903    107.4 1.013e+04 2.296e-10
 31.91683    109.3 1.010e+04 2.598e-10
 31.93650    109.6 1.013e+04 2.676e-10
 31.96771    111.7 1.020e+04 3.103e-10
 32.00705    113.6 1.034e+04 3.454e-10
 32.04639    115.0 1.045e+04 3.663e-10
 32.08574    116.3 1.047e+04 3.717e-10
 32.11515    117.0 1.025e+04 3.120e-10
 32.13472    117.5 1.026e+04 3.145e-10
 32.15439    118.3 1.026e+04 3.226e-10
 32.17180    118.7 1.025e+04 3.273e-10
 32.18173    118.4 9.964e+03 2.504e-10
 32.20376    119.7 9.953e+03 2.699e-10
 32.24311    121.0 9.943e+03 2.921e-10
 32.28245    122.4 9.960e+03 3.177e-10
 32.32179    123.7 1.004e+04 3.545e-10
 32.36113    125.2 9.954e+03 3.672e-10
 32.40048    126.4 9.910e+03 3.689e-10
 32.43982    127.5 9.804e+03 3.616e-10
 32.47916    128.7 9.630e+03 3.370e-10
 32.51583    129.9 9.433e+03 2.999e-10
 32.53550    130.3 9.538e+03 3.082e-10
 32.55375    131.5 9.291e+03 2.586e-10
 32.57342    131.8 9.186e+03 2.510e-10
 32.59719    133.0 9.060e+03 2.263e-10
 32.63653    134.3 8.945e+03 2.059e-10
 32.67587    135.5 8.829e+03 1.884e-10
 32.71521    136.6 8.704e+03 1.778e-10
 32.75456    137.8 8.660e+03 1.771e-10
 32.79390    138.9 8.660e+03 1.809e-10
 32.83324    140.0 8.712e+03 2.011e-10
 32.87258    140.9 8.915e+03 2.534e-10
 32.91193    141.7 9.187e+03 3.302e-10
 32.94534    142.2 9.387e+03 4.076e-10
 32.96501    142.3 9.436e+03 4.353e-10
 32.99061    142.9 9.435e+03 4.534e-10
 33.02995    143.5 9.381e+03 4.383e-10
 33.06930    144.3 9.274e+03 4.023e-10
 33.10864    145.1 9.162e+03 3.648e-10
 33.13450    145.9 9.056e+03 3.317e-10
 33.14424    146.4 9.488e+03 4.539e-10
 33.15077    146.8 9.464e+03 4.415e-10
 33.16061    146.4 9.157e+03 3.624e-10
 33.17729    147.0 9.072e+03 3.374e-10
 33.19696    147.4 9.007e+03 3.213e-10
 33.21663    148.0 8.868e+03 2.918e-10
 33.23630    148.4 8.764e+03 2.719e-10
 33.25598    149.1 8.728e+03 2.639e-10
 33.27565    149.3 8.758e+03 2.662e-10
 33.29532    149.1 8.953e+03 2.851e-10
 33.31499    147.7 9.761e+03 3.867e-10
 33.33466    144.2 1.186e+04 8.803e-10
 33.34657    140.5 1.433e+04 2.390e-09
 33.35640    142.6 1.211e+04 1.385e-09
 33.37400    140.2 1.375e+04 2.983e-09
 33.39367    138.3 1.502e+04 4.628e-09
 33.41335    136.0 1.564e+04 4.789e-09
 33.43302    132.9 1.573e+04 4.378e-09
 33.44365    128.0 1.578e+04 3.639e-09
 33.45348    125.9 1.663e+04 4.372e-09
 33.46739    121.8 1.639e+04 4.179e-09
 33.47718    119.4 1.610e+04 4.183e-09
 33.48701    116.7 1.597e+04 4.317e-09
 33.49685    115.1 1.580e+04 4.678e-09
 33.50669    113.7 1.584e+04 5.503e-09
 33.51652    112.8 1.603e+04 6.693e-09
 33.52636    112.4 1.645e+04 8.082e-09
 33.53619    112.3 1.670e+04 8.797e-09
 33.54231    111.6 1.775e+04 1.136e-08
 33.55220    112.2 1.638e+04 7.872e-09
 33.57071    112.2 1.616e+04 6.518e-09
 33.59039    111.8 1.571e+04 4.410e-09
 33.61006    110.5 1.497e+04 2.600e-09
 33.62973    108.6 1.381e+04 1.518e-09
 33.64940    107.2 1.254e+04 1.096e-09
 33.66907    107.3 1.215e+04 1.054e-09
 33.68874    108.2 1.208e+04 1.048e-09
 33.70841    109.5 1.207e+04 1.056e-09
 33.72808    110.8 1.209e+04 1.092e-09
 33.73815    112.2 1.220e+04 1.166e-09
 33.74338    112.1 1.147e+04 7.096e-10
 33.75298    111.9 1.163e+04 7.607e-10
 33.76743    113.1 1.172e+04 8.065e-10
 33.78710    114.2 1.182e+04 8.651e-10
 33.80677    115.3 1.192e+04 9.331e-10
 33.82644    116.5 1.202e+04 1.007e-09
 33.84611    117.6 1.213e+04 1.082e-09
 33.86578    118.8 1.222e+04 1.149e-09
 33.88545    119.9 1.226e+04 1.187e-09
 33.90512    120.9 1.224e+04 1.188e-09
 33.92411    122.1 1.219e+04 1.174e-09
 33.93395    122.1 1.142e+04 7.330e-10
 33.94447    123.3 1.140e+04 7.319e-10
 33.96414    124.5 1.134e+04 7.222e-10
 33.98381    125.7 1.127e+04 7.046e-10
 34.00348    127.0 1.119e+04 6.873e-10
 34.02315    128.3 1.114e+04 6.772e-10
 34.04265    129.5 1.110e+04 6.747e-10
 34.05249    129.4 1.105e+04 6.352e-10
 34.06249    130.8 1.102e+04 6.255e-10
 34.08216    132.1 1.102e+04 6.266e-10
 34.10184    133.4 1.102e+04 6.299e-10
 34.11991    134.6 1.101e+04 6.325e-10
 34.12974    134.9 1.076e+04 5.514e-10
 34.14118    136.2 1.079e+04 5.722e-10
 34.16085    137.5 1.085e+04 5.956e-10
 34.18052    138.8 1.091e+04 6.261e-10
 34.20019    140.0 1.101e+04 6.528e-10
 34.21986    141.1 1.112e+04 6.787e-10
 34.23953    142.2 1.125e+04 7.122e-10
 34.25920    143.2 1.143e+04 7.658e-10
 34.27888    144.0 1.172e+04 8.576e-10
 34.29855    144.2 1.207e+04 1.008e-09
 34.31570    144.2 1.255e+04 1.263e-09
 34.32554    145.4 1.302e+04 1.417e-09
 34.33789    145.1 1.393e+04 1.907e-09
 34.35199    144.5 1.507e+04 2.870e-09
 34.36182    143.4 1.524e+04 3.001e-09
 34.37723    142.8 1.637e+04 4.848e-09
 34.39690    142.2 1.730e+04 6.315e-09
 34.41657    141.0 1.751e+04 6.305e-09
 34.43625    139.0 1.733e+04 5.623e-09
 34.45592    136.4 1.633e+04 4.064e-09
 34.47559    133.0 1.456e+04 2.651e-09
 34.49526    129.4 1.273e+04 1.800e-09
 34.51150    126.4 1.180e+04 1.427e-09
 34.52133    127.0 1.196e+04 1.523e-09
 34.53460    124.3 1.155e+04 1.290e-09
 34.55427    123.3 1.141e+04 1.226e-09
 34.57394    122.9 1.129e+04 1.166e-09
 34.59361    122.5 1.107e+04 1.038e-09
 34.61329    122.0 1.071e+04 8.552e-10
 34.64289    121.5 1.022e+04 6.259e-10
 34.68233    121.4 9.585e+03 4.232e-10
 34.72167    121.4 8.992e+03 2.791e-10
 34.76101    121.5 8.522e+03 1.904e-10
 34.80036    121.9 8.172e+03 1.440e-10
 34.83970    122.6 8.047e+03 1.282e-10
 34.87904    123.7 8.069e+03 1.319e-10
 34.90328    125.1 8.109e+03 1.420e-10
 34.92295    125.4 8.098e+03 1.368e-10
 34.95118    127.2 8.186e+03 1.600e-10
 34.97086    129.0 8.021e+03 1.359e-10
 34.99707    131.0 8.196e+03 1.678e-10
 35.03641    133.0 8.472e+03 2.168e-10
 35.07575    135.2 8.861e+03 2.851e-10
 35.11510    136.9 9.212e+03 3.683e-10
 35.14450    137.3 9.305e+03 4.058e-10
 35.16408    137.9 9.425e+03 4.555e-10
 35.18375    138.4 9.674e+03 5.518e-10
 35.20342    138.5 1.009e+04 7.023e-10
 35.22309    138.4 1.081e+04 9.569e-10
 35.24276    137.5 1.179e+04 1.402e-09
 35.26033    136.1 1.275e+04 2.080e-09
 35.27016    138.0 1.304e+04 2.325e-09
 35.28211    136.3 1.367e+04 2.814e-09
 35.29468    134.0 1.374e+04 2.828e-09
 35.30451    135.1 1.394e+04 2.952e-09
 35.32145    132.6 1.390e+04 2.754e-09
 35.34112    129.9 1.329e+04 2.244e-09
 35.36079    126.4 1.290e+04 1.957e-09
 35.38046    122.5 1.315e+04 1.985e-09
 35.40013    118.5 1.384e+04 2.261e-09
 35.41980    115.1 1.470e+04 2.978e-09
 35.43947    112.5 1.539e+04 3.906e-09
 35.45915    110.6 1.567e+04 4.492e-09
 35.47882    109.0 1.552e+04 4.382e-09
 35.49047    107.4 1.497e+04 3.864e-09
 35.50031    108.0 1.599e+04 5.343e-09
 35.51816    106.5 1.518e+04 4.170e-09
 35.53783    104.9 1.416e+04 3.002e-09
 35.55750    103.4 1.324e+04 2.148e-09
 35.56966    101.9 1.261e+04 1.643e-09
 35.57950    104.3 1.287e+04 1.912e-09
 35.59684    102.7 1.267e+04 1.604e-09
 35.61651    101.2 1.273e+04 1.573e-09
 35.63619     99.8 1.278e+04 1.601e-09
 35.65586     98.4 1.288e+04 1.710e-09
 35.67553     97.3 1.299e+04 1.859e-09
 35.68627     96.5 1.308e+04 1.955e-09
 35.69610     96.0 1.311e+04 1.951e-09
 35.71487     95.2 1.310e+04 1.930e-09
 35.73454     94.4 1.304e+04 1.846e-09
 35.75421     93.6 1.291e+04 1.704e-09
 35.77388     92.8 1.270e+04 1.541e-09
 35.79356     92.1 1.246e+04 1.389e-09
 35.81323     91.6 1.223e+04 1.263e-09
 35.83290     91.2 1.205e+04 1.169e-09
 35.85257     90.9 1.192e+04 1.102e-09
 35.86917     90.8 1.184e+04 1.047e-09
 35.87899     91.7 1.183e+04 1.050e-09
 35.89190     91.8 1.173e+04 9.594e-10
 35.91158     91.7 1.163e+04 8.949e-10
 35.93125     91.7 1.150e+04 8.137e-10
 35.95092     91.8 1.135e+04 7.238e-10
 35.97060     91.9 1.121e+04 6.338e-10
 35.99027     92.0 1.107e+04 5.514e-10
 36.00994     92.0 1.094e+04 4.821e-10
 36.02961     92.0 1.081e+04 4.361e-10
 36.04928     92.0 1.075e+04 4.274e-10
 36.06802     91.9 1.076e+04 4.323e-10
 36.07786     92.1 1.061e+04 4.006e-10
 36.08862     92.1 1.067e+04 4.219e-10
 36.10829     92.1 1.087e+04 4.826e-10
 36.12796     91.9 1.117e+04 5.866e-10
 36.14764     91.8 1.155e+04 7.347e-10
 36.16731     91.5 1.206e+04 9.262e-10
 36.17850     90.8 1.269e+04 1.171e-09
 36.18834     91.8 1.267e+04 1.198e-09
 36.20665     90.5 1.338e+04 1.518e-09
 36.22632     88.9 1.410e+04 2.002e-09
 36.24599     87.5 1.457e+04 2.639e-09
 36.26381     86.5 1.481e+04 3.218e-09
 36.27365     87.1 1.491e+04 3.240e-09
 36.28533     85.2 1.581e+04 4.010e-09
 36.30501     80.8 1.846e+04 5.657e-09
 36.32468     74.9 2.075e+04 8.783e-09
 36.34435     68.7 2.144e+04 1.351e-08
 36.35905     65.2 2.189e+04 1.517e-08
 36.36653     62.2 2.159e+04 1.789e-08
 36.37145     61.6 2.150e+04 2.244e-08
 36.37867     59.0 2.112e+04 2.710e-08
 36.38851     56.9 2.098e+04 3.321e-08
 36.39835     55.4 2.118e+04 4.035e-08
 36.40818     54.5 2.192e+04 4.485e-08
 36.41802     53.4 2.285e+04 4.423e-08
 36.42785     52.3 2.352e+04 4.013e-08
 36.43769     51.1 2.407e+04 3.091e-08
 36.44752     49.7 2.403e+04 2.406e-08
 36.45736     48.6 2.361e+04 1.944e-08
 36.46443     47.8 2.313e+04 1.735e-08
 36.46935     44.4 2.275e+04 1.558e-08
 36.47796     43.7 2.075e+04 1.161e-08
 36.48784     42.2 2.231e+04 1.776e-08
 36.50172     42.5 2.076e+04 1.325e-08
 36.52139     43.0 1.931e+04 1.019e-08
 36.54106     43.9 1.824e+04 8.284e-09
 36.56073     45.2 1.748e+04 7.027e-09
 36.58040     46.7 1.683e+04 5.987e-09
 36.60007     48.4 1.622e+04 4.978e-09
 36.61974     50.1 1.568e+04 4.101e-09
 36.63942     51.7 1.515e+04 3.335e-09
 36.65540     53.3 1.458e+04 2.665e-09
 36.66524     51.0 1.295e+04 1.432e-09
 36.67876     52.5 1.233e+04 1.154e-09
 36.69843     53.9 1.180e+04 9.562e-10
 36.71810     55.4 1.131e+04 7.991e-10
 36.73777     57.0 1.093e+04 6.969e-10
 36.75744     58.9 1.071e+04 6.308e-10
 36.77711     60.5 1.066e+04 6.107e-10
 36.78734     62.7 1.066e+04 6.065e-10
 36.79718     62.2 1.069e+04 6.050e-10
 36.81646     63.8 1.076e+04 6.212e-10
 36.83613     66.6 1.092e+04 6.573e-10
 36.85120     67.4 1.099e+04 6.735e-10
 36.86103     66.2 1.071e+04 5.839e-10
 36.87547     68.7 1.072e+04 5.981e-10
 36.89514     69.8 1.076e+04 6.149e-10
 36.92474     71.8 1.078e+04 6.123e-10
 36.96418     75.0 1.087e+04 6.372e-10
 36.99359     78.0 1.094e+04 6.800e-10
 37.01317     79.0 1.102e+04 7.163e-10
 37.03284     80.2 1.104e+04 7.158e-10
 37.04699     81.5 1.106e+04 7.057e-10
 37.05683     80.2 1.109e+04 7.314e-10
 37.07218     81.4 1.102e+04 7.065e-10
 37.08684     82.0 1.095e+04 6.898e-10
 37.09668     81.7 1.089e+04 6.456e-10
 37.11152     83.3 1.092e+04 6.525e-10
 37.13119     84.0 1.092e+04 6.557e-10
 37.15087     85.5 1.094e+04 6.641e-10
 37.17054     86.1 1.093e+04 6.651e-10
 37.19021     87.1 1.082e+04 6.388e-10
 37.20988     88.1 1.072e+04 6.360e-10
 37.22955     89.0 1.072e+04 6.517e-10
 37.24279     89.9 1.074e+04 6.685e-10
 37.25262     89.1 1.103e+04 8.039e-10
 37.26889     90.0 1.103e+04 7.968e-10
 37.28856     90.9 1.100e+04 7.813e-10
 37.30823     91.8 1.095e+04 7.584e-10
 37.32791     92.7 1.089e+04 7.309e-10
 37.34758     93.5 1.082e+04 7.003e-10
 37.36725     94.3 1.074e+04 6.678e-10
 37.38634     95.2 1.065e+04 6.355e-10
 37.39618     95.6 1.056e+04 5.823e-10
 37.40659     96.3 1.045e+04 5.438e-10
 37.42626     97.3 1.031e+04 4.881e-10
 37.43858     97.9 1.021e+04 4.547e-10
 37.44842     97.1 1.008e+04 4.190e-10
 37.47554     99.4 9.966e+03 3.852e-10
 37.51498    101.7 9.832e+03 3.628e-10
 37.55432    104.0 9.796e+03 3.587e-10
 37.59366    106.3 9.791e+03 3.598e-10
 37.62474    108.7 9.805e+03 3.655e-10
 37.64441    108.0 9.477e+03 2.943e-10
 37.67235    110.5 9.603e+03 3.189e-10
 37.71169    112.6 9.784e+03 3.543e-10
 37.75103    114.2 9.927e+03 3.926e-10
 37.79037    115.3 9.900e+03 4.165e-10
 37.81978    117.3 1.010e+04 5.216e-10
 37.83017    118.4 1.024e+04 5.987e-10
 37.84001    117.6 9.905e+03 4.996e-10
 37.85903    118.7 9.982e+03 5.390e-10
 37.87870    119.7 1.004e+04 5.557e-10
 37.89837    120.4 1.010e+04 5.635e-10
 37.91804    120.8 1.016e+04 5.798e-10
 37.93771    120.7 1.041e+04 6.128e-10
 37.95738    120.2 1.052e+04 6.590e-10
 37.97705    119.1 1.126e+04 7.181e-10
 37.99518    117.6 1.232e+04 9.398e-10
 38.00502    116.6 1.411e+04 1.620e-09
 38.01613    114.9 1.518e+04 2.562e-09
 38.02597    112.9 1.572e+04 4.065e-09
 38.03607    111.7 1.633e+04 5.512e-09
 38.05574    110.5 1.697e+04 7.471e-09
 38.07541    109.8 1.772e+04 9.733e-09
 38.09508    109.1 1.793e+04 1.055e-08
 38.11475    108.1 1.789e+04 1.039e-08
 38.13442    107.8 1.737e+04 8.934e-09
 38.15409    108.0 1.622e+04 6.400e-09
 38.17377    108.2 1.488e+04 4.116e-09
 38.19344    108.0 1.348e+04 2.507e-09
 38.21193    107.2 1.221e+04 1.554e-09
 38.22176    106.5 1.146e+04 1.116e-09
 38.23278    105.6 1.052e+04 7.479e-10
 38.25245    105.4 1.005e+04 5.797e-10
 38.27212    105.7 9.933e+03 5.114e-10
 38.29179    106.5 9.890e+03 4.883e-10
 38.30452    107.7 9.864e+03 4.820e-10
 38.31436    107.4 9.424e+03 3.940e-10
 38.33113    108.6 9.432e+03 3.943e-10
 38.35081    109.6 9.462e+03 3.996e-10
 38.37048    110.4 9.490e+03 4.060e-10
 38.39015    111.3 9.540e+03 4.234e-10
 38.40772    112.1 9.678e+03 4.573e-10
 38.41756    112.1 9.466e+03 4.258e-10
 38.42949    112.7 9.715e+03 4.844e-10
 38.44916    113.2 1.009e+04 5.778e-10
 38.46883    113.6 1.059e+04 7.259e-10
 38.48850    113.8 1.120e+04 9.466e-10
 38.50818    114.0 1.183e+04 1.251e-09
 38.52785    114.1 1.240e+04 1.616e-09
 38.54752    114.2 1.287e+04 1.991e-09
 38.56719    114.0 1.321e+04 2.290e-09
 38.58686    113.6 1.345e+04 2.479e-09
 38.60352    113.0 1.363e+04 2.586e-09
 38.61084    113.7 1.367e+04 2.582e-09
 38.61386    114.3 1.376e+04 2.619e-09
 38.62620    113.1 1.397e+04 2.750e-09
 38.64587    111.6 1.416e+04 2.858e-09
 38.66554    109.8 1.434e+04 2.983e-09
 38.68522    107.9 1.450e+04 3.096e-09
 38.70489    106.0 1.451e+04 3.085e-09
 38.72456    104.1 1.443e+04 2.965e-09
 38.74423    102.2 1.410e+04 2.649e-09
 38.76390    100.4 1.356e+04 2.190e-09
 38.78357     98.3 1.290e+04 1.711e-09
 38.79931     96.1 1.224e+04 1.330e-09
 38.80915     96.1 1.278e+04 1.622e-09
 38.82291     93.7 1.215e+04 1.302e-09
 38.84258     91.7 1.163e+04 1.127e-09
 38.86226     90.6 1.125e+04 1.040e-09
 38.88193     90.4 1.103e+04 9.919e-10
 38.90160     90.4 1.087e+04 9.349e-10
 38.91336     90.4 1.070e+04 8.589e-10
 38.92319     90.9 1.078e+04 9.141e-10
 38.94094     91.0 1.065e+04 8.506e-10
 38.96061     91.0 1.052e+04 7.868e-10
 38.98028     90.9 1.040e+04 7.324e-10
 38.99510     90.8 1.028e+04 6.907e-10
 39.00494     90.6 1.027e+04 6.960e-10
 39.01963     90.6 1.015e+04 6.657e-10
 39.03930     90.6 1.005e+04 6.494e-10
 39.05897     90.6 9.976e+03 6.447e-10
 39.07864     90.5 9.949e+03 6.391e-10
 39.09831     90.5 9.972e+03 6.480e-10
 39.11798     90.3 1.006e+04 6.739e-10
 39.13765     90.1 1.020e+04 7.173e-10
 39.15732     89.7 1.035e+04 7.754e-10
 39.17699     88.9 1.056e+04 8.613e-10
 39.19090     87.6 1.101e+04 1.039e-09
 39.20073     87.7 1.050e+04 8.241e-10
 39.21286     85.7 1.119e+04 1.093e-09
 39.22270     85.5 1.121e+04 1.074e-09
 39.23601     82.0 1.315e+04 1.893e-09
 39.25568     78.3 1.499e+04 3.479e-09
 39.27038     76.3 1.619e+04 5.667e-09
 39.28017     76.2 1.641e+04 6.263e-09
 39.29497     75.4 1.730e+04 9.119e-09
 39.31469     74.6 1.798e+04 1.170e-08
 39.33436     73.8 1.795e+04 1.144e-08
 39.35403     73.5 1.746e+04 9.050e-09
 39.37371     73.1 1.632e+04 5.845e-09
 39.38669     72.1 1.514e+04 3.594e-09
 39.39653     73.4 1.516e+04 3.908e-09
 39.41305     72.2 1.413e+04 2.555e-09
 39.43272     71.3 1.307e+04 1.742e-09
 39.45239     71.0 1.221e+04 1.325e-09
 39.47206     71.2 1.178e+04 1.180e-09
 39.49173     72.1 1.172e+04 1.169e-09
 39.51140     73.2 1.181e+04 1.207e-09
 39.52220     73.9 1.219e+04 1.384e-09
 39.53203     73.1 1.224e+04 1.401e-09
 39.55075     73.5 1.290e+04 1.781e-09
 39.57042     73.9 1.383e+04 2.451e-09
 39.58249     74.3 1.496e+04 3.585e-09
 39.59232     75.4 1.361e+04 2.418e-09
 39.60976     75.8 1.457e+04 3.310e-09
 39.62943     76.1 1.552e+04 4.503e-09
 39.64910     76.4 1.636e+04 5.986e-09
 39.66877     76.7 1.699e+04 7.496e-09
 39.68844     77.1 1.733e+04 8.454e-09
 39.70315     77.4 1.718e+04 7.859e-09
 39.71294     77.5 1.722e+04 7.745e-09
 39.72277     77.6 1.734e+04 7.982e-09
 39.73261     77.5 1.751e+04 8.426e-09
 39.74244     77.4 1.759e+04 8.829e-09
 39.75228     77.3 1.755e+04 9.087e-09
 39.76211     77.4 1.752e+04 9.259e-09
 39.77195     77.5 1.754e+04 9.402e-09
 39.77819     77.5 1.759e+04 9.490e-09
 39.78310     77.7 1.717e+04 7.731e-09
 39.79162     77.6 1.718e+04 7.887e-09
 39.80146     77.4 1.716e+04 7.991e-09
 39.81129     77.2 1.716e+04 8.058e-09
 39.82113     77.1 1.722e+04 8.182e-09
 39.82652     76.9 1.739e+04 8.477e-09
 39.83144     76.9 1.802e+04 9.953e-09
 39.84080     76.7 1.839e+04 1.091e-08
 39.85063     76.5 1.879e+04 1.207e-08
 39.86047     76.3 1.919e+04 1.340e-08
 39.87031     76.1 1.964e+04 1.495e-08
 39.87608     75.9 2.012e+04 1.669e-08
 39.88100     76.3 1.943e+04 1.502e-08
 39.88998     76.1 1.995e+04 1.712e-08
 39.89981     75.9 2.052e+04 1.972e-08
 39.90965     75.7 2.110e+04 2.276e-08
 39.91948     75.5 2.159e+04 2.585e-08
 39.92932     75.5 2.201e+04 2.906e-08
 39.93915     75.6 2.243e+04 3.258e-08
 39.94899     75.6 2.286e+04 3.611e-08
 39.95883     75.5 2.327e+04 3.780e-08
 39.96866     75.1 2.334e+04 3.766e-08
 39.97398     74.8 2.332e+04 3.629e-08
 39.97667     75.6 2.316e+04 3.606e-08
 39.98119     75.4 2.376e+04 4.934e-08
 39.98833     75.2 2.374e+04 4.482e-08
 39.99817     75.1 2.360e+04 3.935e-08
 40.00800     74.8 2.335e+04 3.395e-08
 40.01784     74.7 2.297e+04 2.873e-08
 40.02767     74.7 2.250e+04 2.474e-08
 40.03751     75.0 2.192e+04 2.130e-08
 40.04735     75.1 2.158e+04 1.950e-08
 40.06215     76.1 2.124e+04 1.746e-08
 40.08187     77.0 2.109e+04 1.622e-08
 40.10154     78.1 2.089e+04 1.468e-08
 40.12120     79.7 2.087e+04 1.336e-08
 40.14087     81.7 2.087e+04 1.271e-08
 40.16004     83.7 2.068e+04 1.166e-08
 40.16982     84.5 2.226e+04 1.732e-08
 40.17521     85.4 2.241e+04 1.709e-08
 40.18504     86.3 2.262e+04 1.695e-08
 40.19488     87.2 2.285e+04 1.686e-08
 40.20471     88.1 2.315e+04 1.728e-08
 40.21455     89.0 2.348e+04 1.810e-08
 40.22439     90.0 2.384e+04 1.954e-08
 40.23422     91.0 2.405e+04 2.111e-08
 40.24406     92.3 2.410e+04 2.289e-08
 40.25389     93.4 2.419e+04 2.511e-08
 40.26275     94.4 2.438e+04 2.807e-08
 40.26767     94.9 2.611e+04 4.364e-08
 40.27356     95.6 2.644e+04 4.731e-08
 40.28069     95.8 2.674e+04 5.088e-08
 40.28561     98.9 2.583e+04 8.499e-08
 40.29324     99.1 2.602e+04 9.318e-08
 40.30307     98.8 2.618e+04 1.011e-07
 40.31291     97.6 2.640e+04 1.048e-07
 40.32274     96.1 2.667e+04 1.020e-07
 40.33258     94.8 2.714e+04 9.523e-08
 40.34241     94.0 2.777e+04 9.153e-08
 40.35225     93.4 2.844e+04 8.989e-08
 40.36065     93.0 2.907e+04 8.736e-08
 40.36557     91.3 2.794e+04 1.255e-07
 40.37192     90.6 2.794e+04 1.270e-07
 40.38176     89.9 2.810e+04 1.209e-07
 40.39159     89.5 2.820e+04 1.057e-07
 40.40143     89.2 2.817e+04 8.377e-08
 40.41126     89.0 2.794e+04 6.074e-08
 40.42110     88.5 2.751e+04 4.187e-08
 40.43044     86.9 2.667e+04 2.813e-08
 40.43536     89.4 2.859e+04 3.389e-08
 40.44077     87.0 2.688e+04 2.387e-08
 40.45060     84.0 2.463e+04 1.819e-08
 40.45855     81.0 2.279e+04 1.537e-08
 40.46347     78.2 2.202e+04 1.316e-08
 40.47028     74.1 2.188e+04 1.162e-08
 40.48011     68.0 2.243e+04 1.183e-08
 40.48995     58.7 2.455e+04 1.346e-08
 40.49978     49.0 2.552e+04 1.687e-08
 40.50962     40.0 2.451e+04 1.876e-08
 40.51945     32.5 2.316e+04 1.775e-08
 40.52929     24.4 2.287e+04 1.551e-08
 40.53912     18.0 2.250e+04 1.241e-08
 40.54896     10.0 2.330e+04 8.660e-09
 40.55645      4.7 2.258e+04 6.590e-09
 40.56136      7.5 2.228e+04 7.257e-09
 40.57360     -2.9 2.068e+04 3.861e-09
 40.59332    -10.9 1.528e+04 2.470e-09
 40.61299    -11.0 1.465e+04 2.370e-09
 40.63266     -9.3 1.452e+04 2.295e-09
 40.65233     -7.4 1.448e+04 2.210e-09
 40.67200     -5.5 1.440e+04 2.037e-09
 40.69167     -3.8 1.420e+04 1.931e-09
 40.71134     -2.2 1.412e+04 1.930e-09
 40.73004     -0.9 1.418e+04 2.007e-09
 40.73987     -1.6 1.518e+04 2.571e-09
 40.74742     -0.1 1.542e+04 2.865e-09
 40.75726      2.2 1.479e+04 2.499e-09
 40.77036      3.4 1.525e+04 2.923e-09
 40.79003      4.6 1.576e+04 3.615e-09
 40.80970      5.9 1.589e+04 4.235e-09
 40.82937      7.5 1.584e+04 4.606e-09
 40.84904      9.3 1.568e+04 4.721e-09
 40.86871     11.3 1.556e+04 4.459e-09
 40.88839     13.2 1.523e+04 3.742e-09
 40.90806     14.7 1.454e+04 2.661e-09
 40.92773     15.2 1.402e+04 1.973e-09
 40.94322     15.3 1.347e+04 1.606e-09
 40.95305     17.4 1.399e+04 1.924e-09
 40.96707     17.4 1.316e+04 1.472e-09
 40.98674     17.9 1.266e+04 1.337e-09
 41.00641     19.3 1.246e+04 1.280e-09
 41.02608     21.2 1.237e+04 1.250e-09
 41.03938     23.2 1.240e+04 1.235e-09
 41.04921     22.4 1.285e+04 1.474e-09
 41.06543     24.4 1.295e+04 1.437e-09
 41.08510     26.3 1.297e+04 1.379e-09
 41.10477     28.1 1.294e+04 1.330e-09
 41.12444     29.9 1.289e+04 1.310e-09
 41.13901     31.7 1.282e+04 1.311e-09
 41.14885     32.5 1.230e+04 1.097e-09
 41.16378     34.3 1.228e+04 1.099e-09
 41.18345     36.3 1.228e+04 1.119e-09
 41.20312     38.4 1.239e+04 1.176e-09
 41.22279     40.6 1.255e+04 1.246e-09
 41.24247     42.7 1.266e+04 1.300e-09
 41.26214     44.7 1.272e+04 1.321e-09
 41.28181     46.8 1.274e+04 1.318e-09
 41.30148     48.8 1.273e+04 1.302e-09
 41.32115     50.6 1.268e+04 1.278e-09
 41.33481     52.5 1.265e+04 1.261e-09
 41.34270     53.6 1.247e+04 1.173e-09
 41.34871     53.9 1.354e+04 1.740e-09
 41.36049     55.8 1.339e+04 1.639e-09
 41.38016     57.6 1.321e+04 1.552e-09
 41.39984     59.3 1.310e+04 1.503e-09
 41.41951     61.0 1.310e+04 1.521e-09
 41.43918     62.6 1.317e+04 1.586e-09
 41.45885     64.3 1.330e+04 1.701e-09
 41.47852     66.0 1.351e+04 1.873e-09
 41.49819     67.8 1.381e+04 2.115e-09
 41.51786     69.7 1.412e+04 2.403e-09
 41.53060     71.5 1.437e+04 2.688e-09
 41.54044     72.6 1.788e+04 2.508e-09
 41.55720     74.3 1.874e+04 2.729e-09
 41.57688     75.9 2.062e+04 2.997e-09
 41.59655     77.3 2.399e+04 2.968e-09
 41.61622     78.6 3.180e+04 2.543e-09
 41.63589     80.9 4.315e+04 2.021e-09
 41.64822     84.0 5.218e+04 1.403e-09
 41.65308     81.9 4.765e+04 5.953e-09
 41.66038     82.9 4.850e+04 5.562e-09
 41.67022     83.4 4.977e+04 4.558e-09
 41.68005     83.8 4.954e+04 3.970e-09
 41.69485     83.5 5.195e+04 1.710e-09
 41.71457     81.7 5.943e+04 9.024e-10
 41.72639     78.2 6.130e+04 8.039e-10
 41.73126     71.5 4.222e+04 5.851e-09
 41.73907     70.0 3.829e+04 7.476e-09
 41.74890     69.7 3.470e+04 9.936e-09
 41.75874     69.7 3.202e+04 1.290e-08
 41.76857     70.3 3.016e+04 1.588e-08
 41.77841     71.1 2.894e+04 1.881e-08
 41.78824     72.1 2.819e+04 2.148e-08
 41.79787     73.1 2.771e+04 2.413e-08
 41.80279     74.4 2.684e+04 2.791e-08
 41.80791     75.7 2.663e+04 3.062e-08
 41.81775     77.2 2.648e+04 3.378e-08
 41.82419     78.8 2.639e+04 3.620e-08
 41.82911     77.5 2.655e+04 5.544e-08
 41.83742     79.2 2.666e+04 5.674e-08
 41.84726     81.4 2.681e+04 5.796e-08
 41.85709     83.8 2.709e+04 5.990e-08
 41.86693     86.5 2.750e+04 6.308e-08
 41.87676     89.3 2.795e+04 6.748e-08
 41.88660     92.0 2.830e+04 7.257e-08
 41.89643     94.9 2.855e+04 7.830e-08
 41.90627     97.7 2.875e+04 8.440e-08
 41.91611    100.6 2.894e+04 9.074e-08
 41.92209    103.6 2.925e+04 9.748e-08
 41.92701     98.0 3.295e+04 5.460e-08
 41.93578     99.8 3.399e+04 4.610e-08
 41.94561    101.1 3.473e+04 3.935e-08
 41.95254    101.8 3.399e+04 3.673e-08
 41.95745    100.6 3.688e+04 8.711e-09
 41.96528    100.6 3.559e+04 6.152e-09
 41.97512     99.6 3.211e+04 4.711e-09
 41.98495     97.9 3.004e+04 3.568e-09
 41.99479     95.4 3.062e+04 2.941e-09
 42.00463     92.4 3.513e+04 2.304e-09
 42.01446     87.5 3.828e+04 2.582e-09
 42.01999     80.6 3.981e+04 4.130e-09
 42.02491     71.7 2.915e+04 2.178e-09
 42.03413     63.2 3.220e+04 4.183e-09
 42.04397     54.2 3.286e+04 8.338e-09
 42.05380     45.6 3.247e+04 1.464e-08
 42.06364     37.6 3.219e+04 2.289e-08
 42.07347     29.8 3.193e+04 3.306e-08
 42.08331     21.4 3.181e+04 4.554e-08
 42.09315     13.7 3.126e+04 6.185e-08
 42.10229      7.1 3.118e+04 7.246e-08
 42.10721     -2.5 4.068e+04 1.145e-08
 42.11282     -6.7 4.387e+04 7.471e-09
 42.11789    -11.8 5.045e+04 3.389e-09
 42.12280     -7.9 4.829e+04 2.626e-09
 42.13249    -13.4 4.547e+04 1.596e-09
 42.14232    -20.5 3.275e+04 1.263e-09
 42.15216    -23.2 2.383e+04 1.318e-09
 42.16200    -25.7 1.832e+04 1.261e-09
 42.17183    -25.6 1.739e+04 1.212e-09
 42.18167    -23.6 1.657e+04 1.248e-09
 42.19150    -23.0 1.641e+04 1.252e-09
 42.20134    -20.9 1.550e+04 1.272e-09
 42.21087    -20.3 1.555e+04 1.259e-09
 42.21578    -18.0 1.534e+04 1.091e-09
 42.22101    -16.0 1.498e+04 1.109e-09
 42.23084    -15.8 1.499e+04 1.115e-09
 42.24068    -14.3 1.519e+04 1.227e-09
 42.25052    -14.1 1.532e+04 1.254e-09
 42.25696    -14.4 1.650e+04 1.707e-09
 42.26187    -17.6 1.782e+04 2.554e-09
 42.27019    -17.5 1.828e+04 2.729e-09
 42.28002    -16.9 1.869e+04 3.945e-09
 42.28986    -15.9 1.892e+04 4.234e-09
 42.29969    -14.5 1.845e+04 5.293e-09
 42.30876    -13.1 1.845e+04 5.723e-09
 42.31368    -13.3 1.795e+04 4.811e-09
 42.31936    -11.5 1.772e+04 5.365e-09
 42.32920    -10.4 1.782e+04 5.729e-09
 42.33904     -9.4 1.816e+04 6.075e-09
 42.34887     -8.6 1.862e+04 6.365e-09
 42.35871     -8.0 1.950e+04 6.257e-09
 42.36854     -7.5 2.023e+04 6.144e-09
 42.37838     -8.3 2.129e+04 5.624e-09
 42.38821     -9.2 2.150e+04 5.272e-09
 42.39805    -12.5 2.125e+04 4.231e-09
 42.40666    -14.2 2.066e+04 3.891e-09
 42.41158    -14.9 2.002e+04 3.656e-09
 42.41772    -18.9 1.866e+04 3.086e-09
 42.42756    -19.1 1.852e+04 3.050e-09
 42.43739    -21.0 1.761e+04 3.020e-09
 42.44723    -21.0 1.757e+04 3.002e-09
 42.45706    -21.3 1.728e+04 3.140e-09
 42.46690    -21.3 1.728e+04 3.134e-09
 42.48170    -21.0 1.727e+04 3.301e-09
 42.49974    -21.1 1.749e+04 3.220e-09
 42.50957    -21.7 1.669e+04 2.530e-09
 42.52109    -22.6 1.686e+04 2.334e-09
 42.54076    -25.1 1.713e+04 2.136e-09
 42.55656    -29.4 1.742e+04 2.032e-09
 42.56639    -31.9 1.708e+04 2.184e-09
 42.58010    -36.5 1.743e+04 2.250e-09
 42.59978    -42.9 1.896e+04 2.690e-09
 42.61945    -51.0 2.030e+04 3.283e-09
 42.63415    -58.8 2.001e+04 3.586e-09
 42.64394    -59.9 2.039e+04 3.685e-09
 42.65377    -66.2 1.986e+04 3.978e-09
 42.66361    -69.0 2.071e+04 4.355e-09
 42.67345    -75.4 2.141e+04 4.915e-09
 42.68328    -80.8 2.307e+04 5.798e-09
 42.69312    -87.2 2.406e+04 6.821e-09
 42.70035    -92.7 2.408e+04 7.972e-09
 42.70527    -88.2 2.372e+04 6.525e-09
 42.71113    -93.4 2.344e+04 7.133e-09
 42.71604    -92.6 2.323e+04 7.665e-09
 42.72262    -96.2 2.272e+04 8.396e-09
 42.73246    -99.2 2.194e+04 9.213e-09
 42.74229   -102.2 2.155e+04 1.073e-08
 42.75213   -107.4 2.559e+04 1.299e-08
 42.76197   -115.6 3.712e+04 1.674e-08
 42.77180   -124.9 4.433e+04 2.738e-08
 42.78164   -134.1 4.288e+04 5.144e-08
 42.79147   -143.0 3.967e+04 7.518e-08
 42.79825   -151.4 3.625e+04 8.714e-08
 42.80317   -141.4 3.894e+04 8.124e-08
 42.81114   -149.3 3.585e+04 9.323e-08
 42.82098   -156.7 3.387e+04 7.906e-08
 42.83081   -164.2 3.418e+04 4.301e-08
 42.84065   -171.9 3.278e+04 1.982e-08
 42.85049   -178.5 2.770e+04 1.079e-08
 42.86032   -182.8 2.294e+04 7.810e-09
 42.86579   -184.9 2.113e+04 6.107e-09
 42.87071   -178.8 2.320e+04 7.142e-09
 42.87999   -180.5 2.172e+04 6.039e-09
 42.89128   -182.4 1.945e+04 4.944e-09
 42.90116   -177.3 2.092e+04 4.686e-09
 42.91451   -180.1 1.627e+04 3.483e-09
 42.93419   -180.3 1.519e+04 2.710e-09
 42.95386   -179.8 1.472e+04 2.182e-09
 42.97353   -178.5 1.405e+04 1.657e-09
 42.99320   -177.2 1.313e+04 1.212e-09
 43.01287   -175.7 1.237e+04 8.943e-10
 43.03254   -174.2 1.177e+04 6.827e-10
 43.05221   -172.6 1.131e+04 5.400e-10
 43.07188   -170.9 1.097e+04 4.437e-10
 43.08712   -169.2 1.072e+04 3.785e-10
 43.09696   -168.5 1.094e+04 4.767e-10
 43.11123   -166.9 1.063e+04 4.009e-10
 43.13090   -165.2 1.041e+04 3.501e-10
 43.15057   -163.6 1.027e+04 3.241e-10
 43.16539   -162.1 1.021e+04 3.189e-10
 43.17523   -161.5 1.020e+04 3.550e-10
 43.18991   -159.8 1.015e+04 3.436e-10
 43.21952   -158.6 1.014e+04 3.403e-10
 43.25896   -156.1 9.909e+03 3.161e-10
 43.29830   -153.4 9.704e+03 2.931e-10
 43.33764   -150.8 9.541e+03 2.762e-10
 43.37698   -148.3 9.380e+03 2.572e-10
 43.41632   -145.8 9.283e+03 2.412e-10
 43.45526   -143.4 9.261e+03 2.363e-10
 43.47493   -142.7 8.977e+03 2.037e-10
 43.47891   -140.5 8.909e+03 1.924e-10
 43.49858   -139.4 9.115e+03 2.298e-10
 43.53435   -137.0 9.100e+03 2.198e-10
 43.57369   -134.9 9.112e+03 2.186e-10
 43.61304   -133.8 9.217e+03 2.240e-10
 43.65238   -133.5 9.568e+03 3.333e-10
 43.69172   -134.2 1.115e+04 6.630e-10
 43.72113   -136.0 1.301e+04 1.415e-09
 43.74070   -137.9 1.548e+04 2.702e-09
 43.76037   -140.0 1.768e+04 5.458e-09
 43.77423   -142.5 1.918e+04 1.008e-08
 43.78407   -143.0 1.926e+04 9.385e-09
 43.79972   -145.7 2.001e+04 1.374e-08
 43.81939   -148.1 2.018e+04 1.596e-08
 43.83906   -150.0 2.010e+04 1.606e-08
 43.85873   -151.6 1.942e+04 1.365e-08
 43.87030   -153.4 1.860e+04 9.342e-09
 43.88014   -153.9 1.868e+04 9.201e-09
 43.89807   -157.3 1.940e+04 6.415e-09
 43.91774   -164.1 2.046e+04 5.574e-09
 43.93741   -172.3 2.654e+04 5.225e-09
 43.95212   -179.1 2.829e+04 1.040e-08
 43.96191   -180.7 2.610e+04 1.947e-08
 43.96810   -181.4 2.414e+04 3.809e-08
 43.97302   -180.8 2.402e+04 4.150e-08
 43.98158   -180.7 2.323e+04 7.519e-08
 43.99141   -180.4 2.322e+04 1.183e-07
 44.00125   -180.4 2.355e+04 1.551e-07
 44.01108   -180.7 2.395e+04 1.699e-07
 44.02092   -181.9 2.410e+04 1.723e-07
 44.03076   -183.8 2.526e+04 1.400e-07
 44.04059   -186.9 2.656e+04 9.089e-08
 44.05043   -191.4 2.737e+04 5.843e-08
 44.06026   -196.9 2.685e+04 4.135e-08
 44.06600   -202.4 2.546e+04 3.248e-08
 44.07092   -205.1 2.621e+04 2.907e-08
 44.07855   -210.0 2.439e+04 2.406e-08
 44.08347   -212.0 2.215e+04 1.608e-08
 44.08977   -215.0 2.157e+04 1.412e-08
 44.09960   -218.2 2.081e+04 1.165e-08
 44.10944   -221.3 1.970e+04 8.879e-09
 44.11928   -224.1 1.833e+04 6.491e-09
 44.12911   -226.4 1.708e+04 4.895e-09
 44.13895   -227.9 1.633e+04 4.091e-09
 44.15375   -229.4 1.582e+04 3.558e-09
 44.17347   -232.0 1.478e+04 2.769e-09
 44.19314   -233.5 1.375e+04 2.199e-09
 44.21281   -233.8 1.337e+04 1.948e-09
 44.23248   -233.7 1.325e+04 1.849e-09
 44.25205   -232.9 1.311e+04 1.789e-09
 44.26189   -232.9 1.259e+04 1.248e-09
 44.27182   -231.9 1.247e+04 1.182e-09
 44.29150   -230.9 1.234e+04 1.132e-09
 44.31117   -229.8 1.219e+04 1.083e-09
 44.33084   -228.8 1.200e+04 1.025e-09
 44.35051   -227.7 1.178e+04 9.546e-10
 44.37018   -226.5 1.155e+04 8.742e-10
 44.38307   -225.3 1.130e+04 7.861e-10
 44.39291   -224.7 1.128e+04 8.314e-10
 44.40952   -223.5 1.105e+04 7.490e-10
 44.42919   -222.2 1.081e+04 6.622e-10
 44.44785   -220.9 1.057e+04 5.739e-10
 44.45768   -220.9 1.025e+04 3.885e-10
 44.46854   -219.5 1.013e+04 3.604e-10
 44.48821   -218.0 1.003e+04 3.516e-10
 44.51781   -216.5 9.962e+03 3.468e-10
 44.55725   -214.6 9.752e+03 3.074e-10
 44.59659   -212.3 9.467e+03 2.593e-10
 44.63400   -209.7 9.199e+03 2.185e-10
 44.65367   -210.1 8.917e+03 1.713e-10
 44.67293   -207.4 8.751e+03 1.509e-10
 44.69260   -206.6 8.862e+03 1.590e-10
 44.71462   -203.9 8.702e+03 1.396e-10
 44.75396   -201.1 8.581e+03 1.251e-10
 44.79331   -198.4 8.500e+03 1.152e-10
 44.83265   -195.7 8.457e+03 1.096e-10
 44.87199   -193.1 8.449e+03 1.080e-10
 44.91133   -190.6 8.459e+03 1.085e-10
 44.95067   -188.3 8.507e+03 1.157e-10
 44.99002   -186.0 8.568e+03 1.284e-10
 45.02559   -183.7 8.650e+03 1.458e-10
 45.04526   -184.2 8.771e+03 1.608e-10
 45.06870   -181.9 8.867e+03 1.859e-10
 45.10804   -179.5 8.947e+03 2.096e-10
 45.14739   -177.1 9.009e+03 2.297e-10
 45.18673   -174.6 9.056e+03 2.457e-10
 45.22607   -172.1 9.092e+03 2.573e-10
 45.26541   -169.6 9.105e+03 2.635e-10
 45.29161   -167.1 9.102e+03 2.651e-10
 45.31128   -166.8 9.053e+03 2.514e-10
 45.34410   -164.2 8.999e+03 2.400e-10
 45.38344   -161.7 8.923e+03 2.236e-10
 45.41718   -159.2 8.805e+03 2.017e-10
 45.43685   -159.6 8.953e+03 2.459e-10
 45.46212   -157.0 8.769e+03 2.122e-10
 45.50147   -154.4 8.550e+03 1.753e-10
 45.54081   -151.8 8.320e+03 1.409e-10
 45.58015   -149.2 8.105e+03 1.117e-10
 45.61949   -146.6 7.927e+03 8.889e-11
 45.65884   -144.1 7.799e+03 7.242e-11
 45.69818   -141.8 7.711e+03 6.195e-11
 45.73752   -139.5 7.633e+03 5.498e-11
 45.77686   -137.2 7.568e+03 5.054e-11
 45.80877   -134.9 7.514e+03 4.848e-11
 45.82844   -135.2 7.733e+03 7.121e-11
 45.85555   -133.0 7.717e+03 7.077e-11
 45.89061   -130.9 7.716e+03 7.130e-11
 45.91028   -130.2 7.682e+03 7.298e-11
 45.93423   -128.2 7.707e+03 7.755e-11
 45.97358   -126.5 7.771e+03 8.561e-11
 46.01292   -124.8 7.833e+03 9.404e-11
 46.05226   -123.3 7.867e+03 1.013e-10
 46.09160   -121.8 7.887e+03 1.082e-10
 46.13094   -120.4 7.948e+03 1.191e-10
 46.17029   -119.1 8.092e+03 1.444e-10
 46.20036   -117.8 8.362e+03 1.894e-10
 46.22003   -117.8 8.446e+03 1.926e-10
 46.24897   -116.7 8.910e+03 2.795e-10
 46.28831   -115.5 9.416e+03 4.151e-10
 46.32766   -114.1 9.782e+03 5.500e-10
 46.36700   -112.9 9.937e+03 6.067e-10
 46.40634   -111.8 9.952e+03 6.105e-10
 46.44568   -110.6 9.883e+03 5.564e-10
 46.48503   -109.6 9.818e+03 4.832e-10
 46.50928   -109.1 9.828e+03 4.405e-10
 46.52896   -107.2 9.488e+03 3.660e-10
 46.56371   -106.8 9.388e+03 3.194e-10
 46.59195   -106.7 9.334e+03 3.099e-10
 46.61162   -106.5 1.098e+04 6.847e-10
 46.64239   -106.9 1.124e+04 8.268e-10
 46.68174   -106.8 1.140e+04 9.461e-10
 46.72108   -106.3 1.141e+04 9.839e-10
 46.76042   -105.1 1.125e+04 9.488e-10
 46.79976   -103.5 1.107e+04 8.629e-10
 46.83911   -101.8 1.086e+04 7.556e-10
 46.87845   -100.4 1.075e+04 6.858e-10
 46.91779   -100.0 1.076e+04 6.669e-10
 46.94720   -100.8 1.161e+04 8.773e-10
 46.96677   -101.3 1.168e+04 9.213e-10
 46.98334   -101.8 1.167e+04 9.406e-10
 46.99318   -103.1 1.271e+04 1.431e-09
 47.00612   -103.7 1.271e+04 1.600e-09
 47.02579   -104.1 1.277e+04 1.784e-09
 47.04546   -104.3 1.295e+04 1.988e-09
 47.06513   -104.5 1.321e+04 2.192e-09
 47.08480   -104.8 1.355e+04 2.410e-09
 47.10447   -105.4 1.389e+04 2.654e-09
 47.11793   -106.1 1.420e+04 2.965e-09
 47.12776   -106.1 1.423e+04 3.028e-09
 47.14381   -106.6 1.448e+04 3.366e-09
 47.16348   -107.0 1.479e+04 3.784e-09
 47.17914   -107.4 1.513e+04 4.234e-09
 47.18897   -108.3 1.497e+04 3.968e-09
 47.20283   -108.6 1.519e+04 4.107e-09
 47.22250   -109.2 1.552e+04 4.337e-09
 47.24217   -110.3 1.602e+04 4.880e-09
 47.26184   -111.8 1.658e+04 6.014e-09
 47.28151   -113.3 1.709e+04 7.907e-09
 47.30118   -114.3 1.755e+04 1.035e-08
 47.32085   -115.0 1.787e+04 1.247e-08
 47.34053   -115.8 1.796e+04 1.320e-08
 47.36020   -116.5 1.782e+04 1.313e-08
 47.37493   -116.7 1.708e+04 9.949e-09
 47.38477   -117.4 1.750e+04 1.196e-08
 47.39954   -117.6 1.665e+04 8.318e-09
 47.41743   -118.2 1.570e+04 4.827e-09
 47.42726   -118.7 1.630e+04 6.965e-09
 47.43888   -119.6 1.556e+04 4.416e-09
 47.45855   -121.0 1.480e+04 2.705e-09
 47.47822   -122.5 1.391e+04 1.683e-09
 47.49789   -123.7 1.284e+04 1.131e-09
 47.51757   -124.3 1.185e+04 8.582e-10
 47.53724   -124.4 1.115e+04 7.176e-10
 47.55691   -124.1 1.070e+04 6.156e-10
 47.57073   -123.2 1.040e+04 5.114e-10
 47.58056   -122.8 1.060e+04 5.973e-10
 47.59625   -122.1 1.035e+04 4.667e-10
 47.62585   -121.5 1.024e+04 3.424e-10
 47.66529   -121.2 1.017e+04 2.937e-10
 47.70464   -120.6 1.005e+04 2.725e-10
 47.72696   -119.8 1.000e+04 2.719e-10
 47.73670   -120.7 1.022e+04 3.143e-10
 47.75362   -120.3 1.019e+04 3.263e-10
 47.76652   -119.6 1.011e+04 3.368e-10
 47.77636   -119.2 1.014e+04 3.371e-10
 47.79296   -118.7 1.011e+04 3.448e-10
 47.82257   -118.0 1.012e+04 3.854e-10
 47.86201   -116.8 1.004e+04 3.756e-10
 47.90135   -115.5 9.886e+03 3.482e-10
 47.94069   -113.8 9.656e+03 3.025e-10
 47.98003   -112.0 9.384e+03 2.548e-10
 48.01938   -110.1 9.136e+03 2.133e-10
 48.05872   -108.1 8.934e+03 1.829e-10
 48.09806   -106.2 8.814e+03 1.652e-10
 48.13740   -104.3 8.758e+03 1.581e-10
 48.15831   -102.4 8.733e+03 1.562e-10
 48.17798   -102.2 8.758e+03 1.496e-10
 48.21609   -100.4 8.757e+03 1.555e-10
 48.25543    -98.6 8.746e+03 1.590e-10
 48.29477    -96.7 8.697e+03 1.540e-10
 48.32596    -94.8 8.626e+03 1.406e-10
 48.34564    -95.6 8.597e+03 1.355e-10
 48.37346    -93.8 8.489e+03 1.132e-10
 48.41280    -92.2 8.408e+03 9.996e-11
 48.45214    -90.6 8.375e+03 9.508e-11
 48.49148    -89.0 8.370e+03 9.429e-11
 48.53023    -87.5 8.404e+03 9.802e-11
 48.54990    -87.4 8.477e+03 1.047e-10
 48.57017    -86.2 8.546e+03 1.139e-10
 48.60951    -85.3 8.788e+03 1.436e-10
 48.64885    -84.6 9.077e+03 1.937e-10
 48.68819    -84.1 9.362e+03 2.643e-10
 48.72754    -83.7 9.603e+03 3.425e-10
 48.76688    -83.4 9.725e+03 3.983e-10
 48.80622    -83.1 9.742e+03 4.126e-10
 48.84556    -82.5 9.638e+03 4.062e-10
 48.88491    -81.5 9.354e+03 3.501e-10
 48.92182    -80.3 9.066e+03 2.859e-10
 48.94149    -80.2 9.218e+03 3.148e-10
 48.94464    -78.8 8.926e+03 2.432e-10
 48.96431    -78.7 8.656e+03 1.650e-10
 49.00293    -77.1 8.495e+03 1.255e-10
 49.04228    -75.4 8.413e+03 1.072e-10
 49.08162    -73.7 8.399e+03 1.028e-10
 49.12096    -72.1 8.403e+03 1.035e-10
 49.16030    -70.9 8.549e+03 1.357e-10
 49.19965    -69.7 8.882e+03 2.168e-10
 49.23899    -68.4 9.395e+03 3.605e-10
 49.27833    -67.2 1.003e+04 5.801e-10
 49.31341    -66.3 1.062e+04 8.411e-10
 49.33308    -66.7 1.045e+04 7.415e-10
 49.35701    -66.2 1.064e+04 8.073e-10
 49.39636    -65.8 1.065e+04 7.767e-10
 49.43570    -65.4 1.044e+04 6.452e-10
 49.47504    -64.9 1.018e+04 5.448e-10
 49.51438    -64.4 1.004e+04 5.024e-10
 49.54364    -63.7 1.005e+04 5.074e-10
 49.56331    -64.2 1.025e+04 5.752e-10
 49.59307    -63.8 1.020e+04 5.518e-10
 49.63241    -63.4 1.013e+04 5.145e-10
 49.67175    -63.3 1.009e+04 4.820e-10
 49.70499    -63.3 1.012e+04 4.749e-10
 49.72467    -63.2 1.059e+04 6.406e-10
 49.75044    -63.9 1.081e+04 6.753e-10
 49.78978    -65.5 1.142e+04 8.602e-10
 49.81919    -66.9 1.197e+04 1.119e-09
 49.83876    -67.8 1.241e+04 1.309e-09
 49.85278    -69.1 1.301e+04 1.579e-09
 49.86262    -67.8 1.171e+04 8.799e-10
 49.87810    -69.2 1.209e+04 1.052e-09
 49.89778    -70.6 1.251e+04 1.255e-09
 49.91043    -72.1 1.289e+04 1.547e-09
 49.92026    -72.3 1.345e+04 2.041e-09
 49.93712    -73.6 1.348e+04 2.238e-09
 49.95679    -74.7 1.343e+04 2.426e-09
 49.97646    -75.5 1.337e+04 2.467e-09
 49.99613    -76.3 1.328e+04 2.381e-09
 50.01580    -77.3 1.317e+04 2.134e-09
 50.03547    -78.4 1.306e+04 1.893e-09
 50.05515    -79.6 1.299e+04 1.716e-09
 50.07482    -80.9 1.294e+04 1.574e-09
 50.09449    -82.0 1.291e+04 1.450e-09
 50.10622    -83.3 1.287e+04 1.384e-09
 50.11606    -83.3 1.284e+04 1.396e-09
 50.13383    -84.4 1.278e+04 1.380e-09
 50.15229    -85.7 1.304e+04 1.490e-09
 50.16222    -82.5 1.264e+04 1.260e-09
 50.17327    -85.0 1.298e+04 1.392e-09
 50.19284    -86.4 1.342e+04 1.722e-09
 50.21251    -87.8 1.376e+04 2.189e-09
 50.23219    -88.8 1.396e+04 2.581e-09
 50.25186    -89.7 1.399e+04 2.708e-09
 50.27153    -90.5 1.390e+04 2.655e-09
 50.29120    -91.2 1.351e+04 2.264e-09
 50.30202    -91.8 1.294e+04 1.704e-09
 50.31185    -91.8 1.293e+04 1.687e-09
 50.33054    -92.5 1.224e+04 1.170e-09
 50.35021    -92.9 1.162e+04 8.303e-10
 50.36988    -93.0 1.115e+04 6.105e-10
 50.38955    -93.0 1.080e+04 4.591e-10
 50.40923    -92.8 1.054e+04 3.602e-10
 50.42890    -92.5 1.045e+04 3.238e-10
 50.45850    -92.0 1.041e+04 2.880e-10
 50.48817    -91.4 1.011e+04 2.217e-10
 50.50784    -91.2 9.897e+03 1.962e-10
 50.53728    -89.9 9.669e+03 1.564e-10
 50.57663    -88.7 9.593e+03 1.360e-10
 50.61597    -87.4 9.585e+03 1.233e-10
 50.65531    -86.1 9.592e+03 1.167e-10
 50.69465    -84.7 9.599e+03 1.154e-10
 50.73400    -83.2 9.621e+03 1.178e-10
 50.76132    -81.8 9.620e+03 1.180e-10
 50.78099    -80.9 9.587e+03 1.185e-10
 50.81268    -79.4 9.515e+03 1.064e-10
 50.85202    -77.9 9.472e+03 9.178e-11
 50.87976    -76.5 9.452e+03 8.069e-11
 50.89943    -76.4 9.434e+03 7.610e-11
 50.93071    -75.0 9.449e+03 7.129e-11
 50.97005    -73.8 9.459e+03 7.072e-11
 51.00939    -72.9 9.585e+03 7.577e-11
 51.04873    -72.3 9.665e+03 1.099e-10
 51.08808    -71.3 9.735e+03 1.732e-10
 51.12742    -70.2 9.882e+03 2.458e-10
 51.16676    -69.2 9.995e+03 2.858e-10
 51.20610    -68.5 1.001e+04 2.905e-10
 51.24545    -67.7 9.871e+03 2.631e-10
 51.27135    -66.8 9.764e+03 2.246e-10
 51.29102    -67.2 9.979e+03 2.588e-10
 51.32413    -66.6 1.001e+04 2.451e-10
 51.36032    -66.5 1.030e+04 2.614e-10
 51.37999    -66.4 1.041e+04 3.329e-10
 51.39288    -66.2 1.054e+04 3.418e-10
 51.41246    -66.6 1.069e+04 4.684e-10
 51.43213    -67.1 1.122e+04 6.622e-10
 51.45180    -68.8 1.229e+04 1.033e-09
 51.46695    -71.3 1.368e+04 1.781e-09
 51.47679    -72.4 1.401e+04 2.200e-09
 51.49114    -75.1 1.504e+04 3.668e-09
 51.51081    -77.3 1.568e+04 5.330e-09
 51.53048    -79.2 1.598e+04 6.272e-09
 51.55015    -81.2 1.602e+04 6.453e-09
 51.56982    -83.0 1.565e+04 5.584e-09
 51.58950    -85.3 1.489e+04 3.685e-09
 51.60917    -88.4 1.387e+04 2.257e-09
 51.62884    -91.7 1.280e+04 1.503e-09
 51.64851    -94.4 1.198e+04 1.176e-09
 51.66275    -96.0 1.151e+04 1.037e-09
 51.67258    -96.6 1.102e+04 8.343e-10
 51.67930    -97.3 1.072e+04 7.502e-10
 51.68914    -96.4 1.099e+04 8.415e-10
 51.70752    -96.9 1.074e+04 7.574e-10
 51.72719    -97.3 1.048e+04 6.505e-10
 51.74686    -97.7 1.020e+04 5.301e-10
 51.76654    -98.4 9.910e+03 4.174e-10
 51.79614    -99.2 9.623e+03 3.174e-10
 51.83558   -100.3 9.358e+03 2.485e-10
 51.87492   -101.3 9.143e+03 2.133e-10
 51.91426   -102.0 9.107e+03 2.078e-10
 51.95361   -102.7 9.324e+03 2.373e-10
 51.97900   -103.0 9.665e+03 3.179e-10
 51.99867   -102.8 9.953e+03 3.914e-10
 52.02236   -102.7 9.920e+03 4.133e-10
 52.04193   -102.7 9.931e+03 4.206e-10
 52.05434   -102.8 9.936e+03 4.291e-10
 52.07410   -102.3 9.927e+03 4.204e-10
 52.11098   -102.3 9.889e+03 3.959e-10
 52.15032   -102.3 9.715e+03 3.300e-10
 52.18966   -102.3 9.550e+03 2.762e-10
 52.22900   -102.2 9.451e+03 2.555e-10
 52.26835   -101.8 9.403e+03 2.502e-10
 52.30769   -100.9 9.370e+03 2.490e-10
 52.34703    -99.8 9.265e+03 2.416e-10
 52.38637    -98.3 9.164e+03 2.154e-10
 52.42572    -96.7 9.061e+03 1.861e-10
 52.44612    -95.1 8.990e+03 1.659e-10
 52.46579    -94.7 9.001e+03 1.698e-10
 52.50440    -93.1 8.955e+03 1.546e-10
 52.54374    -91.4 8.950e+03 1.506e-10
 52.57800    -89.8 8.993e+03 1.544e-10
 52.59767    -89.4 9.291e+03 2.038e-10
 52.62243    -87.8 9.408e+03 2.284e-10
 52.66177    -86.2 9.487e+03 2.444e-10
 52.70111    -84.6 9.536e+03 2.522e-10
 52.74045    -83.0 9.579e+03 2.558e-10
 52.77980    -81.4 9.590e+03 2.521e-10
 52.81804    -79.9 9.582e+03 2.446e-10
 52.83771    -80.2 9.367e+03 2.058e-10
 52.85848    -78.6 9.376e+03 2.038e-10
 52.89782    -77.0 9.436e+03 2.072e-10
 52.93717    -75.5 9.496e+03 2.142e-10
 52.97651    -74.0 9.572e+03 2.217e-10
 53.01585    -72.6 9.699e+03 2.344e-10
 53.05519    -71.2 9.888e+03 2.625e-10
 53.09453    -69.7 1.014e+04 3.158e-10
 53.13388    -68.3 1.038e+04 3.900e-10
 53.16329    -67.2 1.049e+04 4.359e-10
 53.18286    -66.9 1.058e+04 4.914e-10
 53.19648    -66.2 1.080e+04 5.950e-10
 53.20631    -66.1 1.098e+04 6.519e-10
 53.21927    -65.5 1.120e+04 7.331e-10
 53.22910    -65.3 1.116e+04 7.354e-10
 53.24187    -64.7 1.142e+04 8.500e-10
 53.26154    -64.2 1.169e+04 9.764e-10
 53.28122    -63.9 1.196e+04 1.100e-09
 53.30089    -63.7 1.223e+04 1.212e-09
 53.32056    -63.8 1.252e+04 1.309e-09
 53.34023    -64.1 1.284e+04 1.394e-09
 53.35990    -64.6 1.319e+04 1.466e-09
 53.37957    -65.2 1.348e+04 1.542e-09
 53.39924    -65.8 1.362e+04 1.636e-09
 53.41506    -66.1 1.364e+04 1.751e-09
 53.42490    -65.4 1.426e+04 2.494e-09
 53.43858    -65.5 1.409e+04 2.464e-09
 53.45826    -65.3 1.392e+04 2.307e-09
 53.47793    -65.0 1.374e+04 2.130e-09
 53.49598    -64.5 1.359e+04 1.953e-09
 53.50582    -65.2 1.336e+04 1.728e-09
 53.51727    -64.8 1.319e+04 1.537e-09
 53.53694    -64.2 1.307e+04 1.422e-09
 53.55661    -63.6 1.306e+04 1.400e-09
 53.57628    -63.1 1.316e+04 1.417e-09
 53.59595    -62.8 1.338e+04 1.515e-09
 53.61086    -62.4 1.372e+04 1.707e-09
 53.62069    -61.6 1.352e+04 1.615e-09
 53.63530    -61.3 1.383e+04 1.813e-09
 53.65497    -61.1 1.420e+04 2.111e-09
 53.67464    -60.8 1.454e+04 2.503e-09
 53.69431    -60.6 1.484e+04 2.958e-09
 53.71398    -60.2 1.509e+04 3.397e-09
 53.73365    -59.7 1.528e+04 3.673e-09
 53.75332    -59.2 1.534e+04 3.753e-09
 53.77299    -58.7 1.529e+04 3.469e-09
 53.79267    -58.4 1.513e+04 2.860e-09
 53.80532    -58.2 1.480e+04 2.158e-09
 53.80947    -59.0 1.454e+04 1.955e-09
 53.81649    -57.8 1.526e+04 2.738e-09
 53.83201    -57.9 1.489e+04 2.102e-09
 53.85168    -58.0 1.429e+04 1.598e-09
 53.87135    -57.8 1.367e+04 1.305e-09
 53.89102    -57.6 1.320e+04 1.079e-09
 53.92063    -57.5 1.257e+04 8.510e-10
 53.96007    -55.7 1.217e+04 7.133e-10
 53.99281    -53.4 1.202e+04 6.674e-10
 54.01248    -52.7 1.245e+04 8.455e-10
 54.03875    -50.0 1.236e+04 8.082e-10
 54.06816    -48.3 1.235e+04 8.334e-10
 54.08773    -47.4 1.235e+04 8.602e-10
 54.10482    -46.0 1.239e+04 9.000e-10
 54.11465    -46.0 1.242e+04 8.930e-10
 54.12707    -44.9 1.240e+04 9.029e-10
 54.14675    -43.6 1.238e+04 9.169e-10
 54.16642    -42.4 1.243e+04 9.399e-10
 54.18609    -41.3 1.252e+04 9.700e-10
 54.19824    -40.2 1.254e+04 9.928e-10
 54.20808    -39.7 1.258e+04 1.012e-09
 54.22543    -38.5 1.262e+04 1.048e-09
 54.24510    -37.5 1.271e+04 1.121e-09
 54.26477    -36.6 1.278e+04 1.201e-09
 54.28444    -35.6 1.292e+04 1.317e-09
 54.30412    -34.8 1.311e+04 1.465e-09
 54.32379    -34.0 1.329e+04 1.636e-09
 54.34346    -33.1 1.342e+04 1.793e-09
 54.36313    -32.1 1.351e+04 1.894e-09
 54.38280    -31.0 1.353e+04 1.907e-09
 54.39404    -29.9 1.356e+04 1.821e-09
 54.40387    -29.3 1.309e+04 1.188e-09
 54.41416    -28.6 1.315e+04 1.078e-09
 54.42399    -28.9 1.462e+04 2.056e-09
 54.44181    -28.7 1.480e+04 2.060e-09
 54.46148    -28.8 1.493e+04 2.169e-09
 54.48116    -29.2 1.495e+04 2.464e-09
 54.50083    -29.2 1.496e+04 2.976e-09
 54.52050    -28.7 1.524e+04 3.757e-09
 54.54017    -28.2 1.601e+04 4.921e-09
 54.55984    -27.9 1.704e+04 6.502e-09
 54.57951    -27.8 1.781e+04 8.436e-09
 54.58983    -27.7 1.800e+04 1.001e-08
 54.59967    -26.3 1.790e+04 7.285e-09
 54.61885    -26.4 1.826e+04 8.456e-09
 54.63853    -26.1 1.757e+04 9.140e-09
 54.65820    -25.4 1.717e+04 8.816e-09
 54.67787    -24.6 1.676e+04 8.240e-09
 54.69754    -23.7 1.626e+04 7.261e-09
 54.71366    -23.0 1.592e+04 5.759e-09
 54.72349    -24.4 1.565e+04 3.989e-09
 54.73688    -24.1 1.549e+04 2.459e-09
 54.75655    -24.4 1.475e+04 1.341e-09
 54.77579    -25.3 1.307e+04 7.778e-10
 54.78563    -23.4 1.551e+04 1.778e-09
 54.79589    -25.8 1.466e+04 9.561e-10
 54.81557    -27.7 1.316e+04 7.967e-10
 54.83524    -28.4 1.237e+04 8.030e-10
 54.85491    -28.4 1.201e+04 9.258e-10
 54.87458    -28.4 1.190e+04 9.902e-10
 54.89425    -28.4 1.194e+04 1.029e-09
 54.91392    -28.6 1.190e+04 1.005e-09
 54.93359    -29.0 1.168e+04 9.249e-10
 54.95326    -29.9 1.160e+04 8.947e-10
 54.97158    -30.8 1.162e+04 8.914e-10
 54.98142    -30.3 1.233e+04 9.821e-10
 54.99261    -31.6 1.218e+04 9.858e-10
 55.01228    -32.4 1.228e+04 1.031e-09
 55.02299    -33.3 1.246e+04 1.198e-09
 55.03293    -31.8 1.209e+04 1.078e-09
 55.06165    -32.7 1.264e+04 1.540e-09
 55.10099    -32.7 1.307e+04 2.174e-09
 55.13040    -32.5 1.323e+04 2.454e-09
 55.14998    -31.8 1.321e+04 2.440e-09
 55.16738    -31.1 1.299e+04 2.063e-09
 55.17721    -31.2 1.295e+04 2.111e-09
 55.18932    -30.6 1.262e+04 1.650e-09
 55.21892    -30.4 1.215e+04 1.210e-09
 55.25836    -30.3 1.144e+04 8.095e-10
 55.28777    -30.2 1.094e+04 6.195e-10
 55.30734    -30.0 1.087e+04 5.924e-10
 55.33695    -29.4 1.065e+04 5.067e-10
 55.36327    -28.6 1.032e+04 3.940e-10
 55.37301    -28.4 1.043e+04 4.579e-10
 55.38603    -28.1 1.035e+04 4.241e-10
 55.41563    -27.7 9.937e+03 3.143e-10
 55.45507    -26.9 9.625e+03 2.257e-10
 55.49442    -26.6 9.060e+03 1.715e-10
 55.53376    -25.4 8.957e+03 1.652e-10
 55.55916    -24.0 8.970e+03 1.680e-10
 55.57884    -24.0 9.271e+03 1.885e-10
 55.61236    -22.3 9.267e+03 2.322e-10
 55.65170    -19.5 9.306e+03 2.537e-10
 55.69113    -17.4 9.277e+03 2.498e-10
 55.73047    -15.3 9.182e+03 2.201e-10
 55.76981    -13.4 9.041e+03 1.776e-10
 55.80915    -11.7 8.918e+03 1.468e-10
 55.84850    -10.0 8.769e+03 1.374e-10
 55.88784     -8.0 8.732e+03 1.372e-10
 55.92718     -6.1 8.742e+03 1.511e-10
 55.95075     -4.0 8.846e+03 1.709e-10
 55.97042     -3.5 8.845e+03 1.717e-10
 56.00587     -1.6 8.979e+03 1.986e-10
 56.04521      0.3 9.071e+03 2.392e-10
 56.08455      2.6 9.142e+03 2.775e-10
 56.12389      4.7 9.241e+03 2.707e-10
 56.16324      6.3 9.295e+03 2.436e-10
 56.20258      7.8 9.217e+03 2.456e-10
 56.23103      9.6 9.249e+03 2.241e-10
 56.25070     10.0 9.246e+03 1.937e-10
 56.28126     11.4 9.272e+03 1.650e-10
 56.32060     12.7 9.254e+03 1.699e-10
 56.34234     13.8 9.408e+03 2.073e-10
 56.36201     14.6 9.692e+03 2.770e-10
 56.39929     15.7 9.825e+03 3.543e-10
 56.43863     16.8 1.023e+04 5.264e-10
 56.47797     18.1 1.090e+04 8.704e-10
 56.51732     19.6 1.168e+04 1.305e-09
 56.53804     19.3 1.225e+04 1.693e-09
 56.54132     20.3 1.174e+04 1.323e-09
 56.55001     20.6 1.191e+04 1.452e-09
 56.56630     20.4 1.234e+04 1.675e-09
 56.58597     19.2 1.338e+04 2.235e-09
 56.60564     16.7 1.471e+04 3.487e-09
 56.62531     14.5 1.559e+04 5.816e-09
 56.64498     13.5 1.674e+04 9.476e-09
 56.66465     13.4 1.784e+04 1.177e-08
 56.68433     13.1 1.782e+04 1.034e-08
 56.70400     11.8 1.762e+04 6.952e-09
 56.72367      7.0 1.799e+04 4.108e-09
 56.73374      1.0 1.583e+04 2.936e-09
 56.74357      3.3 1.610e+04 2.987e-09
 56.76301     -1.1 1.436e+04 2.828e-09
 56.78268     -2.2 1.369e+04 3.610e-09
 56.80235     -1.8 1.405e+04 4.617e-09
 56.82202     -1.6 1.468e+04 5.559e-09
 56.83968     -1.9 1.551e+04 5.801e-09
 56.84951     -0.1 1.515e+04 4.925e-09
 56.86137     -1.2 1.570e+04 3.922e-09
 56.88104     -3.1 1.585e+04 2.832e-09
 56.90071     -6.0 1.501e+04 2.044e-09
 56.91970     -9.6 1.331e+04 1.595e-09
 56.92953     -8.9 1.460e+04 2.435e-09
 56.94005    -11.6 1.320e+04 1.938e-09
 56.95972    -12.0 1.302e+04 1.855e-09
 56.98933    -12.3 1.283e+04 1.611e-09
 57.02877    -14.4 1.285e+04 1.573e-09
 57.05818    -16.8 1.204e+04 1.201e-09
 57.07775    -16.9 1.186e+04 1.099e-09
 57.09742    -19.1 1.091e+04 7.654e-10
 57.11549    -19.9 1.062e+04 6.306e-10
 57.12533    -20.6 1.042e+04 5.437e-10
 57.13676    -21.9 1.017e+04 4.489e-10
 57.14901    -22.8 1.002e+04 4.025e-10
 57.15885    -21.8 1.015e+04 4.252e-10
 57.18604    -23.0 9.901e+03 3.697e-10
 57.22548    -24.0 9.728e+03 3.407e-10
 57.26482    -24.8 9.418e+03 2.880e-10
 57.30416    -24.9 9.127e+03 2.287e-10
 57.34350    -24.7 8.865e+03 1.634e-10
 57.38285    -24.6 8.691e+03 1.130e-10
 57.42219    -24.7 8.632e+03 9.044e-11
 57.44871    -24.7 8.638e+03 8.861e-11
 57.46838    -23.1 8.585e+03 8.447e-11
 57.49744    -22.9 8.566e+03 8.928e-11
 57.51711    -22.9 8.703e+03 1.342e-10
 57.54022    -22.8 8.976e+03 1.546e-10
 57.57956    -22.8 9.254e+03 2.050e-10
 57.61890    -22.6 9.428e+03 2.753e-10
 57.65824    -22.3 9.552e+03 3.441e-10
 57.69759    -22.0 9.714e+03 4.100e-10
 57.73693    -21.6 1.007e+04 4.987e-10
 57.77627    -21.4 1.047e+04 6.167e-10
 57.81561    -21.4 1.086e+04 7.772e-10
 57.85495    -21.2 1.109e+04 9.657e-10
 57.88903    -20.4 1.121e+04 1.031e-09
 57.90870    -21.4 1.011e+04 5.226e-10
 57.93364    -20.9 1.024e+04 5.200e-10
 57.96305    -20.2 1.034e+04 5.231e-10
 57.98262    -20.4 1.024e+04 4.804e-10
 58.00229    -20.4 1.033e+04 4.766e-10
 58.02196    -21.0 1.051e+04 4.902e-10
 58.04164    -21.6 1.074e+04 5.566e-10
 58.05735    -22.0 1.098e+04 6.665e-10
 58.06719    -21.4 1.085e+04 6.379e-10
 58.08098    -21.5 1.110e+04 7.377e-10
 58.09446    -21.6 1.137e+04 8.250e-10
 58.10430    -22.5 1.143e+04 8.679e-10
 58.12032    -22.8 1.149e+04 8.682e-10
 58.13999    -23.4 1.138e+04 8.069e-10
 58.15966    -24.1 1.115e+04 7.365e-10
 58.17933    -24.6 1.104e+04 7.017e-10
 58.20894    -24.1 1.129e+04 7.362e-10
 58.24838    -26.0 1.212e+04 1.039e-09
 58.27779    -28.9 1.206e+04 1.082e-09
 58.29026    -30.0 1.221e+04 1.303e-09
 58.30009    -30.4 1.186e+04 1.096e-09
 58.31703    -31.3 1.183e+04 1.207e-09
 58.33670    -31.5 1.162e+04 1.165e-09
 58.35637    -31.8 1.146e+04 9.382e-10
 58.36669    -33.3 1.143e+04 7.423e-10
 58.37653    -32.9 1.194e+04 9.180e-10
 58.39572    -36.3 1.210e+04 8.756e-10
 58.41539    -40.3 1.272e+04 1.092e-09
 58.43506    -42.8 1.284e+04 1.737e-09
 58.45473    -43.2 1.301e+04 2.432e-09
 58.47440    -43.2 1.307e+04 2.685e-09
 58.48605    -43.0 1.284e+04 2.536e-09
 58.49589    -43.3 1.281e+04 2.596e-09
 58.51374    -42.9 1.238e+04 1.919e-09
 58.53341    -43.3 1.176e+04 1.082e-09
 58.55309    -45.7 1.094e+04 5.374e-10
 58.57276    -48.1 9.893e+03 2.926e-10
 58.60236    -48.9 9.157e+03 2.077e-10
 58.64180    -48.7 8.575e+03 1.594e-10
 58.66639    -47.7 8.296e+03 1.313e-10
 58.67712    -48.4 8.305e+03 1.331e-10
 58.69188    -48.3 8.360e+03 1.389e-10
 58.72049    -47.6 8.384e+03 1.375e-10
 58.75983    -48.9 9.465e+03 1.739e-10
 58.78924    -53.0 1.176e+04 4.491e-10
 58.80881    -54.6 1.233e+04 6.446e-10
 58.82848    -56.6 1.377e+04 2.187e-09
 58.84815    -56.7 1.511e+04 5.010e-09
 58.86781    -56.4 1.619e+04 7.502e-09
 58.88748    -58.2 1.698e+04 9.294e-09
 58.90717    -59.8 1.636e+04 6.556e-09
 58.92684    -62.3 1.458e+04 3.075e-09
 58.94651    -65.6 1.244e+04 1.475e-09
 58.96569    -67.3 1.134e+04 9.565e-10
 58.97553    -66.8 1.129e+04 9.728e-10
 58.98585    -67.1 1.100e+04 7.797e-10
 59.00552    -67.1 1.079e+04 6.560e-10
 59.03513    -67.3 1.057e+04 5.474e-10
 59.06380    -66.9 1.002e+04 3.417e-10
 59.08347    -67.5 9.869e+03 2.847e-10
 59.11391    -67.0 9.689e+03 2.220e-10
 59.15325    -66.7 9.682e+03 2.016e-10
 59.19259    -66.4 9.742e+03 2.044e-10
 59.23194    -66.1 9.837e+03 2.250e-10
 59.26539    -65.5 9.894e+03 2.532e-10
 59.28506    -64.3 9.553e+03 1.794e-10
 59.31062    -63.4 9.646e+03 2.154e-10
 59.34996    -62.3 9.733e+03 2.543e-10
 59.38931    -61.2 9.862e+03 2.941e-10
 59.42865    -59.9 1.002e+04 3.326e-10
 59.45539    -58.7 1.013e+04 3.654e-10
 59.47506    -58.2 9.901e+03 2.812e-10
 59.50733    -56.7 9.950e+03 2.978e-10
 59.54667    -55.2 9.988e+03 3.113e-10
 59.58602    -53.7 1.003e+04 3.213e-10
 59.62536    -52.2 1.009e+04 3.296e-10
 59.66470    -51.0 1.026e+04 3.438e-10
 59.70404    -50.4 1.070e+04 4.219e-10
 59.74339    -50.1 1.125e+04 6.213e-10
 59.78273    -49.9 1.185e+04 9.292e-10
 59.82207    -49.8 1.227e+04 1.151e-09
 59.84698    -50.1 1.233e+04 1.188e-09
 59.86665    -47.9 1.236e+04 1.206e-09
 59.88406    -48.0 1.219e+04 1.089e-09
 59.90374    -47.2 1.216e+04 1.065e-09
 59.94010    -47.2 1.176e+04 7.082e-10
 59.97944    -47.4 1.133e+04 4.014e-10
 60.01878    -48.1 1.117e+04 2.767e-10
 60.05812    -48.8 1.115e+04 2.558e-10
 60.09747    -50.1 1.128e+04 2.640e-10
 60.13681    -52.2 1.142e+04 3.107e-10
 60.17615    -54.7 1.138e+04 3.360e-10
 60.21549    -57.2 1.125e+04 3.366e-10
 60.23857    -59.1 1.095e+04 2.718e-10
 60.25824    -58.2 1.116e+04 2.978e-10
 60.29418    -60.2 1.093e+04 2.045e-10
 60.33352    -61.6 1.066e+04 1.423e-10
 60.37286    -62.4 1.051e+04 1.220e-10
 60.41221    -62.5 1.049e+04 1.193e-10
 60.45155    -62.5 1.051e+04 1.285e-10
 60.48307    -61.9 1.059e+04 1.863e-10
 60.50274    -60.8 1.050e+04 1.856e-10
 60.53023    -59.9 1.066e+04 2.860e-10
 60.56957    -58.7 1.093e+04 4.162e-10
 60.60892    -57.6 1.112e+04 5.355e-10
 60.63015    -56.6 1.118e+04 5.693e-10
 60.64983    -56.6 1.144e+04 7.300e-10
 60.68760    -55.3 1.135e+04 7.315e-10
 60.72694    -53.8 1.100e+04 5.775e-10
 60.76629    -52.4 1.065e+04 3.872e-10
 60.80563    -51.2 1.036e+04 2.610e-10
 60.84497    -50.1 1.013e+04 2.079e-10
 60.88431    -48.8 1.002e+04 1.977e-10
 60.92366    -47.5 9.951e+03 2.046e-10
 60.96300    -46.3 9.984e+03 2.504e-10
 61.00207    -44.9 1.012e+04 3.097e-10
 61.02174    -44.5 1.024e+04 3.452e-10
 61.04168    -43.2 1.040e+04 4.185e-10
 61.08102    -42.1 1.055e+04 4.601e-10
 61.10174    -41.1 1.062e+04 4.737e-10
 61.12141    -40.9 1.048e+04 4.259e-10
 61.15971    -40.2 1.053e+04 4.677e-10
 61.19905    -39.5 1.049e+04 5.200e-10
 61.23839    -38.7 1.045e+04 5.665e-10
 61.27774    -37.6 1.041e+04 5.793e-10
 61.31708    -36.4 1.022e+04 5.599e-10
 61.35642    -35.0 9.997e+03 4.723e-10
 61.39366    -33.8 9.786e+03 3.772e-10
 61.41333    -33.6 9.967e+03 4.133e-10
 61.43511    -33.0 9.939e+03 3.864e-10
 61.47445    -32.4 9.994e+03 3.878e-10
 61.51379    -31.8 1.009e+04 4.276e-10
 61.55313    -30.9 1.011e+04 4.510e-10
 61.59247    -29.9 1.002e+04 4.337e-10
 61.63182    -28.8 9.782e+03 3.538e-10
 61.67116    -27.8 9.527e+03 2.558e-10
 61.70074    -27.0 9.449e+03 2.150e-10
 61.72042    -27.1 9.514e+03 2.443e-10
 61.74984    -26.3 9.518e+03 2.394e-10
 61.78525    -26.0 9.757e+03 3.023e-10
 61.80483    -25.9 1.009e+04 4.399e-10
 61.81850    -25.7 1.025e+04 5.360e-10
 61.83817    -25.3 1.043e+04 6.399e-10
 61.85784    -24.9 1.062e+04 7.428e-10
 61.87751    -24.5 1.076e+04 8.337e-10
 61.89718    -24.1 1.083e+04 8.915e-10
 61.91685    -23.6 1.083e+04 9.068e-10
 61.93652    -23.1 1.072e+04 8.896e-10
 61.95620    -22.5 1.063e+04 8.264e-10
 61.97587    -22.0 1.057e+04 7.455e-10
 61.99069    -21.5 1.048e+04 6.681e-10
 62.00052    -21.9 1.016e+04 5.085e-10
 62.00989    -21.7 9.986e+03 4.469e-10
 62.01972    -22.0 1.002e+04 4.447e-10
 62.03488    -21.8 9.864e+03 4.224e-10
 62.06449    -20.4 9.867e+03 4.218e-10
 62.10393    -19.0 9.765e+03 3.836e-10
 62.14327    -17.9 9.809e+03 3.790e-10
 62.17268    -17.8 9.903e+03 3.705e-10
 62.18648    -17.9 1.000e+04 4.519e-10
 62.19641    -18.0 9.577e+03 3.047e-10
 62.22195    -17.3 9.846e+03 4.225e-10
 62.25136    -15.7 1.008e+04 5.337e-10
 62.27093    -15.2 1.001e+04 5.242e-10
 62.29965    -14.3 9.870e+03 4.787e-10
 62.31942    -14.6 9.656e+03 4.226e-10
 62.33998    -12.9 9.212e+03 3.047e-10
 62.37932    -11.1 8.911e+03 2.076e-10
 62.41866     -9.7 8.671e+03 1.411e-10
 62.45801     -8.1 8.557e+03 1.182e-10
 62.49735     -6.3 8.433e+03 1.089e-10
 62.53669     -4.3 8.390e+03 1.092e-10
 62.56843     -2.1 8.309e+03 1.143e-10
 62.58810     -2.3 8.307e+03 1.096e-10
 62.61538     -0.3 8.262e+03 1.089e-10
 62.65472      1.5 8.189e+03 1.159e-10
 62.69406      3.5 8.073e+03 1.389e-10
 62.73340      6.6 8.115e+03 1.609e-10
 62.77274      9.2 8.093e+03 1.556e-10
 62.81209     11.9 8.006e+03 1.242e-10
 62.85143     14.0 7.930e+03 9.810e-11
 62.89077     15.9 7.842e+03 8.693e-11
 62.91842     18.2 7.736e+03 8.296e-11
 62.93809     17.8 7.746e+03 8.531e-11
 62.96002     20.3 7.719e+03 8.593e-11
 62.97969     20.4 7.918e+03 1.109e-10
 63.00880     22.8 7.980e+03 1.187e-10
 63.04814     25.3 8.088e+03 1.413e-10
 63.08748     27.7 8.289e+03 1.827e-10
 63.12683     30.4 8.514e+03 2.333e-10
 63.16617     33.1 8.802e+03 2.885e-10
 63.20551     35.5 9.115e+03 3.416e-10
 63.24485     38.1 9.333e+03 3.749e-10
 63.27426     39.8 9.591e+03 4.368e-10
 63.29383     40.5 9.749e+03 4.815e-10
 63.31351     41.3 9.990e+03 6.043e-10
 63.33318     42.3 1.014e+04 7.440e-10
 63.35141     43.6 1.039e+04 9.008e-10
 63.36125     43.6 1.080e+04 1.074e-09
 63.37252     44.6 1.126e+04 1.291e-09
 63.39219     44.7 1.185e+04 1.591e-09
 63.41186     43.9 1.299e+04 2.236e-09
 63.43153     41.1 1.566e+04 4.687e-09
 63.45120     37.0 1.888e+04 1.246e-08
 63.46591     35.4 1.961e+04 1.712e-08
 63.47570     35.1 1.983e+04 2.060e-08
 63.48553     34.6 2.007e+04 2.186e-08
 63.49537     34.2 1.995e+04 1.980e-08
 63.50520     33.7 1.981e+04 1.797e-08
 63.51504     32.6 1.946e+04 1.265e-08
 63.52702     31.7 1.858e+04 7.806e-09
 63.53690     27.3 1.715e+04 4.735e-09
 63.54721     21.2 1.293e+04 2.076e-09
 63.55704     20.5 1.218e+04 2.078e-09
 63.56923     18.5 1.103e+04 1.355e-09
 63.59884     17.5 1.066e+04 9.203e-10
 63.63828     16.4 1.032e+04 7.848e-10
 63.66768     15.7 1.031e+04 8.007e-10
 63.68726     15.5 1.037e+04 8.252e-10
 63.70693     13.4 1.157e+04 1.104e-09
 63.72660     10.2 1.582e+04 1.936e-09
 63.74300      9.1 1.807e+04 3.834e-09
 63.75284     10.9 1.389e+04 1.334e-09
 63.76594      9.8 1.521e+04 1.968e-09
 63.78561      9.4 1.501e+04 2.687e-09
 63.80528      8.8 1.458e+04 2.713e-09
 63.82496      7.7 1.393e+04 2.450e-09
 63.83640      6.4 1.298e+04 2.228e-09
 63.84624      6.7 1.225e+04 1.660e-09
 63.86430      6.4 1.194e+04 1.705e-09
 63.88397      6.6 1.194e+04 1.728e-09
 63.90364      7.1 1.202e+04 1.831e-09
 63.92331      7.8 1.195e+04 1.811e-09
 63.93880      8.6 1.168e+04 1.705e-09
 63.94863      9.0 1.174e+04 1.606e-09
 63.96265      9.7 1.146e+04 1.445e-09
 63.98233     10.4 1.122e+04 1.232e-09
 64.00200     11.1 1.080e+04 1.071e-09
 64.02167     11.4 1.072e+04 8.577e-10
 64.04134     11.6 1.051e+04 7.546e-10
 64.06101     11.5 1.042e+04 7.062e-10
 64.08068     11.5 1.050e+04 7.162e-10
 64.10035     11.4 1.070e+04 8.009e-10
 64.12002     11.6 1.078e+04 9.802e-10
 64.13459     12.3 1.099e+04 1.171e-09
 64.14064     12.3 1.101e+04 1.184e-09
 64.14574     12.7 1.093e+04 1.184e-09
 64.15937     14.0 1.111e+04 1.344e-09
 64.17904     15.4 1.133e+04 1.485e-09
 64.19871     16.6 1.142e+04 1.507e-09
 64.21838     18.1 1.127e+04 1.418e-09
 64.23805     19.5 1.102e+04 1.235e-09
 64.25772     20.9 1.079e+04 1.027e-09
 64.27739     21.2 1.083e+04 9.474e-10
 64.29706     22.9 1.030e+04 7.385e-10
 64.31674     22.9 1.030e+04 7.378e-10
 64.34634     25.4 1.032e+04 7.385e-10
 64.37585     27.3 1.021e+04 7.298e-10
 64.39542     28.3 1.033e+04 7.771e-10
 64.41509     29.6 1.042e+04 8.412e-10
 64.43476     31.0 1.060e+04 9.426e-10
 64.44524     32.4 1.079e+04 1.052e-09
 64.45508     32.1 1.115e+04 1.271e-09
 64.47410     33.4 1.135e+04 1.429e-09
 64.49378     34.8 1.155e+04 1.571e-09
 64.51345     36.3 1.178e+04 1.702e-09
 64.52618     37.5 1.189e+04 1.753e-09
 64.53602     37.5 1.204e+04 1.988e-09
 64.55279     38.8 1.204e+04 1.971e-09
 64.57246     40.1 1.203e+04 1.911e-09
 64.59213     41.1 1.196e+04 1.807e-09
 64.61180     42.2 1.192e+04 1.672e-09
 64.63147     43.1 1.191e+04 1.538e-09
 64.65114     43.8 1.186e+04 1.427e-09
 64.67082     44.7 1.181e+04 1.356e-09
 64.69049     45.4 1.178e+04 1.352e-09
 64.71016     45.9 1.192e+04 1.384e-09
 64.72198     45.8 1.234e+04 1.532e-09
 64.73181     44.5 1.231e+04 1.506e-09
 64.74474     44.4 1.265e+04 1.776e-09
 64.75458     44.0 1.303e+04 2.099e-09
 64.76917     44.3 1.325e+04 2.482e-09
 64.78884     44.9 1.333e+04 2.645e-09
 64.80851     45.4 1.328e+04 2.494e-09
 64.82819     45.6 1.325e+04 2.183e-09
 64.84786     45.2 1.323e+04 1.855e-09
 64.86753     44.7 1.306e+04 1.602e-09
 64.88720     44.7 1.292e+04 1.493e-09
 64.90687     44.8 1.301e+04 1.540e-09
 64.91777     45.0 1.333e+04 1.725e-09
 64.92761     45.9 1.253e+04 1.282e-09
 64.94621     46.4 1.310e+04 1.527e-09
 64.96588     46.3 1.392e+04 2.112e-09
 64.98555     46.3 1.477e+04 3.263e-09
 65.00523     46.6 1.569e+04 5.298e-09
 65.02490     46.7 1.709e+04 9.329e-09
 65.04424     46.3 1.859e+04 1.630e-08
 65.05408     45.6 1.879e+04 1.620e-08
 65.05927     44.5 1.978e+04 2.324e-08
 65.06906     44.3 2.016e+04 2.915e-08
 65.07889     44.8 2.058e+04 3.730e-08
 65.08873     44.7 2.085e+04 3.938e-08
 65.09857     45.6 2.048e+04 3.340e-08
 65.10840     45.8 2.018e+04 2.703e-08
 65.11347     46.4 1.948e+04 1.902e-08
 65.12335     47.2 1.779e+04 1.073e-08
 65.14292     46.8 1.632e+04 3.745e-09
 65.16259     43.7 1.483e+04 1.062e-09
 65.18227     38.8 1.270e+04 3.849e-10
 65.21187     36.6 1.207e+04 5.033e-10
 65.25131     36.5 1.146e+04 5.031e-10
 65.28072     37.4 1.126e+04 4.864e-10
 65.29953     38.0 1.139e+04 5.243e-10
 65.30946     38.0 1.125e+04 4.255e-10
 65.32006     38.4 1.141e+04 5.762e-10
 65.33964     39.0 1.153e+04 7.542e-10
 65.35358     39.4 1.180e+04 9.399e-10
 65.36342     39.8 1.181e+04 9.312e-10
 65.37898     39.8 1.228e+04 1.231e-09
 65.39865     40.1 1.239e+04 1.593e-09
 65.41832     40.7 1.227e+04 1.763e-09
 65.43799     41.6 1.215e+04 1.691e-09
 65.45766     42.1 1.205e+04 1.525e-09
 65.47733     42.6 1.178e+04 1.234e-09
 65.49532     42.8 1.150e+04 9.913e-10
 65.50516     43.2 1.167e+04 1.137e-09
 65.51668     43.6 1.129e+04 8.775e-10
 65.53635     43.8 1.100e+04 7.028e-10
 65.55602     44.4 1.074e+04 5.606e-10
 65.57569     44.7 1.060e+04 4.755e-10
 65.59536     45.4 1.042e+04 3.906e-10
 65.61503     45.4 1.040e+04 3.771e-10
 65.64464     46.5 1.031e+04 3.553e-10
 65.68147     48.0 1.020e+04 3.517e-10
 65.70115     48.1 1.038e+04 3.809e-10
 65.72342     49.1 1.041e+04 3.994e-10
 65.76276     49.4 1.050e+04 4.856e-10
 65.80210     49.6 1.065e+04 6.228e-10
 65.84145     49.6 1.066e+04 6.851e-10
 65.88079     49.5 1.054e+04 6.615e-10
 65.92013     49.6 1.023e+04 5.711e-10
 65.95278     49.6 9.916e+03 4.641e-10
 65.97245     49.9 1.005e+04 5.009e-10
 65.99881     50.2 9.763e+03 4.104e-10
 66.03816     50.6 9.565e+03 3.460e-10
 66.07306     51.2 9.364e+03 3.022e-10
 66.09274     51.2 9.376e+03 2.834e-10
 66.11684     51.8 9.198e+03 2.650e-10
 66.15618     52.7 9.196e+03 2.688e-10
 66.19553     53.7 9.230e+03 2.920e-10
 66.23487     54.9 9.274e+03 3.338e-10
 66.27421     56.4 9.397e+03 3.667e-10
 66.31355     57.8 9.495e+03 3.657e-10
 66.35290     59.0 9.577e+03 3.648e-10
 66.39224     59.8 9.737e+03 3.768e-10
 66.43158     60.5 9.985e+03 4.365e-10
 66.46465     61.1 1.025e+04 5.079e-10
 66.48423     61.9 1.053e+04 6.134e-10
 66.50023     62.2 1.072e+04 6.344e-10
 66.51990     62.3 1.080e+04 6.339e-10
 66.54951     62.7 1.088e+04 6.463e-10
 66.57145     63.6 1.059e+04 4.788e-10
 66.59113     64.8 1.039e+04 4.187e-10
 66.62829     65.6 1.005e+04 2.755e-10
 66.66763     66.1 9.741e+03 2.142e-10
 66.70698     67.1 9.749e+03 2.175e-10
 66.74632     68.3 9.852e+03 2.448e-10
 66.78566     69.6 1.008e+04 2.991e-10
 66.82500     71.0 1.028e+04 3.506e-10
 66.85624     72.5 1.044e+04 3.780e-10
 66.87259     72.4 1.070e+04 4.379e-10
 66.88060     72.5 1.071e+04 4.367e-10
 66.89366     73.1 1.075e+04 4.155e-10
 66.91333     73.5 1.082e+04 4.048e-10
 66.93300     73.8 1.088e+04 4.075e-10
 66.95267     74.0 1.103e+04 4.252e-10
 66.97234     74.1 1.119e+04 4.635e-10
 66.99201     74.2 1.134e+04 5.164e-10
 67.01168     74.3 1.148e+04 5.797e-10
 67.03135     74.3 1.158e+04 6.497e-10
 67.05103     74.4 1.166e+04 7.213e-10
 67.06168     74.5 1.172e+04 7.886e-10
 67.07151     74.2 1.175e+04 8.536e-10
 67.09037     74.5 1.185e+04 9.544e-10
 67.11004     74.9 1.204e+04 1.018e-09
 67.12971     75.2 1.228e+04 1.063e-09
 67.14938     75.3 1.252e+04 1.100e-09
 67.16905     75.2 1.277e+04 1.148e-09
 67.18010     75.0 1.301e+04 1.230e-09
 67.18993     75.4 1.306e+04 1.269e-09
 67.20840     75.0 1.325e+04 1.396e-09
 67.22807     74.8 1.333e+04 1.596e-09
 67.24764     74.8 1.338e+04 1.863e-09
 67.25747     74.6 1.321e+04 1.535e-09
 67.26741     74.8 1.339e+04 1.616e-09
 67.28708     75.2 1.360e+04 1.620e-09
 67.30675     75.6 1.364e+04 1.590e-09
 67.32642     75.9 1.360e+04 1.500e-09
 67.34609     76.2 1.341e+04 1.365e-09
 67.36576     76.6 1.318e+04 1.213e-09
 67.38544     76.9 1.296e+04 1.071e-09
 67.40511     77.1 1.279e+04 9.494e-10
 67.42478     77.3 1.265e+04 8.558e-10
 67.44343     77.6 1.252e+04 8.273e-10
 67.45327     77.0 1.234e+04 5.783e-10
 67.46412     77.3 1.235e+04 6.033e-10
 67.47960     77.0 1.248e+04 7.122e-10
 67.48943     76.5 1.315e+04 1.100e-09
 67.50346     75.8 1.415e+04 1.802e-09
 67.51817     74.9 1.485e+04 2.420e-09
 67.52795     74.5 1.513e+04 2.587e-09
 67.53779     72.3 1.685e+04 3.782e-09
 67.54615     68.3 1.895e+04 7.441e-09
 67.55107     69.2 1.756e+04 5.884e-09
 67.55746     66.4 1.850e+04 1.060e-08
 67.56730     65.9 1.900e+04 1.736e-08
 67.57713     66.2 1.953e+04 2.421e-08
 67.58697     66.5 2.009e+04 2.660e-08
 67.59680     66.2 2.029e+04 2.601e-08
 67.60664     65.7 2.046e+04 2.368e-08
 67.61647     64.4 2.097e+04 1.743e-08
 67.62631     62.6 2.152e+04 1.187e-08
 67.63918     55.0 2.224e+04 7.275e-09
 67.64906     56.0 1.967e+04 3.515e-09
 67.66083     47.1 1.719e+04 2.674e-09
 67.68050     41.5 1.553e+04 3.041e-09
 67.70017     40.0 1.504e+04 3.713e-09
 67.71985     39.6 1.486e+04 3.677e-09
 67.73952     39.2 1.453e+04 3.087e-09
 67.75919     38.1 1.412e+04 2.202e-09
 67.77886     36.3 1.358e+04 1.513e-09
 67.78894     34.6 1.282e+04 1.088e-09
 67.79877     35.5 1.318e+04 1.323e-09
 67.81820     34.2 1.243e+04 9.684e-10
 67.83502     33.6 1.192e+04 7.800e-10
 67.84486     34.7 1.199e+04 8.174e-10
 67.85754     34.6 1.165e+04 6.852e-10
 67.87721     34.7 1.139e+04 5.747e-10
 67.89689     34.9 1.118e+04 4.753e-10
 67.91656     35.0 1.100e+04 3.635e-10
 67.93623     34.7 1.100e+04 3.187e-10
 67.96583     34.4 1.089e+04 3.214e-10
 68.00527     35.0 1.065e+04 3.118e-10
 68.03101     36.2 1.047e+04 3.108e-10
 68.05068     36.7 1.032e+04 2.673e-10
 68.08396     37.9 1.024e+04 2.881e-10
 68.12330     39.5 1.016e+04 3.000e-10
 68.16264     41.1 1.017e+04 3.071e-10
 68.20198     42.5 1.023e+04 3.131e-10
 68.24133     43.7 1.036e+04 3.327e-10
 68.28067     44.7 1.045e+04 3.774e-10
 68.32001     45.8 1.051e+04 4.385e-10
 68.35935     47.1 1.058e+04 5.114e-10
 68.38813     48.4 1.068e+04 5.737e-10
 68.40781     48.2 1.068e+04 5.709e-10
 68.42260     49.5 1.073e+04 5.871e-10
 68.44227     49.1 1.069e+04 6.139e-10
 68.47738     50.3 1.071e+04 6.191e-10
 68.51672     51.4 1.065e+04 5.951e-10
 68.55607     52.7 1.045e+04 5.119e-10
 68.59541     54.2 1.016e+04 3.876e-10
 68.63475     55.5 9.834e+03 2.536e-10
 68.67409     56.4 9.521e+03 1.680e-10
 68.71343     57.6 9.293e+03 1.498e-10
 68.75278     59.2 9.285e+03 1.538e-10
 68.79212     61.1 9.349e+03 1.710e-10
 68.81419     62.9 9.502e+03 2.031e-10
 68.83386     62.1 9.496e+03 2.149e-10
 68.87080     63.8 9.692e+03 2.657e-10
 68.91015     65.5 9.925e+03 3.351e-10
 68.94949     67.1 1.013e+04 4.186e-10
 68.98714     68.7 1.031e+04 4.491e-10
 69.00681     68.2 1.023e+04 4.107e-10
 69.02817     69.6 1.024e+04 4.062e-10
 69.06752     71.0 1.020e+04 3.763e-10
 69.10686     72.4 1.007e+04 3.100e-10
 69.14620     73.7 9.903e+03 2.395e-10
 69.18554     75.1 9.707e+03 2.043e-10
 69.20578     76.8 9.685e+03 2.053e-10
 69.22545     75.5 9.621e+03 1.903e-10
 69.26423     77.3 9.734e+03 2.171e-10
 69.30357     79.1 9.940e+03 2.630e-10
 69.34291     81.1 1.033e+04 3.268e-10
 69.38225     83.0 1.065e+04 3.757e-10
 69.41166     83.6 1.074e+04 3.933e-10
 69.43124     84.1 1.079e+04 4.028e-10
 69.45091     84.4 1.090e+04 4.342e-10
 69.47058     84.7 1.109e+04 4.942e-10
 69.49025     85.0 1.134e+04 5.825e-10
 69.50992     85.3 1.164e+04 7.041e-10
 69.52959     85.5 1.196e+04 8.780e-10
 69.54926     85.7 1.231e+04 1.123e-09
 69.56893     86.0 1.270e+04 1.393e-09
 69.58734     86.4 1.305e+04 1.653e-09
 69.59717     84.9 1.291e+04 1.431e-09
 69.60571     85.2 1.277e+04 1.195e-09
 69.62548     83.1 1.229e+04 9.299e-10
 69.65765     83.1 1.177e+04 6.622e-10
 69.69699     82.3 1.116e+04 4.683e-10
 69.73633     81.6 1.084e+04 4.210e-10
 69.77568     81.6 1.085e+04 4.379e-10
 69.81502     81.2 1.106e+04 5.651e-10
 69.85436     80.6 1.168e+04 9.130e-10
 69.89370     79.8 1.242e+04 1.432e-09
 69.91505     78.7 1.286e+04 1.859e-09
 69.92479     78.9 1.278e+04 1.735e-09
 69.94269     78.3 1.294e+04 1.890e-09
 69.96236     77.4 1.294e+04 1.846e-09
 69.97893     76.8 1.287e+04 1.776e-09
 69.98876     76.9 1.306e+04 2.047e-09
 70.01163     75.5 1.273e+04 1.657e-09
 70.04114     74.6 1.229e+04 1.210e-09
 70.06071     74.0 1.202e+04 1.037e-09
 70.08038     73.0 1.166e+04 8.061e-10
 70.10006     72.4 1.140e+04 7.043e-10
 70.11973     71.3 1.147e+04 6.327e-10
 70.13940     70.6 1.142e+04 6.005e-10
 70.16900     69.0 1.163e+04 6.899e-10
 70.20482     69.3 1.172e+04 7.324e-10
 70.22449     71.4 1.184e+04 9.143e-10
 70.24778     72.3 1.176e+04 8.561e-10
 70.27719     72.5 1.182e+04 7.337e-10
 70.29677     72.9 1.174e+04 6.237e-10
 70.31644     73.4 1.165e+04 5.607e-10
 70.33611     73.8 1.174e+04 5.610e-10
 70.35578     74.1 1.210e+04 6.425e-10
 70.37052     74.0 1.279e+04 8.687e-10
 70.38035     72.3 1.334e+04 1.232e-09
 70.39512     72.6 1.380e+04 1.767e-09
 70.41479     73.3 1.419e+04 2.470e-09
 70.43447     74.1 1.446e+04 3.162e-09
 70.45414     75.1 1.449e+04 3.525e-09
 70.47381     76.0 1.439e+04 3.407e-09
 70.49348     77.0 1.418e+04 3.071e-09
 70.51315     77.9 1.392e+04 2.641e-09
 70.52379     78.6 1.346e+04 2.194e-09
 70.53363     79.0 1.362e+04 2.212e-09
 70.55249     79.6 1.325e+04 1.865e-09
 70.56631     80.2 1.274e+04 1.529e-09
 70.57615     79.2 1.226e+04 1.224e-09
 70.59183     79.8 1.191e+04 1.023e-09
 70.61151     80.5 1.165e+04 8.710e-10
 70.63118     81.2 1.149e+04 7.683e-10
 70.65085     81.7 1.140e+04 7.153e-10
 70.67052     82.3 1.139e+04 7.099e-10
 70.69019     82.9 1.142e+04 7.187e-10
 70.70986     83.3 1.156e+04 7.661e-10
 70.72953     83.5 1.181e+04 8.696e-10
 70.74920     83.6 1.208e+04 1.023e-09
 70.76211     83.6 1.237e+04 1.233e-09
 70.77194     83.9 1.235e+04 1.214e-09
 70.78855     83.8 1.266e+04 1.494e-09
 70.80822     83.7 1.294e+04 1.794e-09
 70.82329     83.2 1.301e+04 1.886e-09
 70.83313     83.6 1.303e+04 1.925e-09
 70.84756     83.2 1.296e+04 1.883e-09
 70.86723     82.8 1.264e+04 1.671e-09
 70.88690     82.5 1.215e+04 1.299e-09
 70.90657     82.1 1.160e+04 9.284e-10
 70.92624     81.5 1.112e+04 6.557e-10
 70.94592     80.7 1.073e+04 4.667e-10
 70.95790     79.8 1.036e+04 3.496e-10
 70.96774     80.0 1.035e+04 3.397e-10
 70.98526     79.1 1.013e+04 3.205e-10
 71.00493     78.7 1.012e+04 3.235e-10
 71.02460     78.4 1.012e+04 3.470e-10
 71.04427     78.1 1.020e+04 4.061e-10
 71.06394     77.8 1.033e+04 4.961e-10
 71.08361     77.8 1.046e+04 6.064e-10
 71.10328     77.8 1.056e+04 7.088e-10
 71.12280     77.8 1.057e+04 7.203e-10
 71.13263     78.3 1.060e+04 7.606e-10
 71.14263     78.3 1.059e+04 7.526e-10
 71.15369     78.3 1.054e+04 7.135e-10
 71.16353     78.3 1.040e+04 6.439e-10
 71.18197     78.1 1.031e+04 5.867e-10
 71.20164     77.6 1.028e+04 5.344e-10
 71.22131     76.8 1.031e+04 5.257e-10
 71.24098     75.9 1.036e+04 5.340e-10
 71.26065     74.7 1.052e+04 5.765e-10
 71.28033     73.4 1.072e+04 6.659e-10
 71.30000     72.2 1.093e+04 7.925e-10
 71.31967     71.1 1.111e+04 9.269e-10
 71.33934     70.1 1.122e+04 1.011e-09
 71.34949     69.0 1.122e+04 1.013e-09
 71.35933     69.1 1.122e+04 1.010e-09
 71.37868     67.7 1.118e+04 9.768e-10
 71.39835     66.2 1.104e+04 9.030e-10
 71.41802     64.3 1.080e+04 7.853e-10
 71.43213     63.5 1.062e+04 7.324e-10
 71.44197     63.6 1.054e+04 7.045e-10
 71.46730     62.1 1.020e+04 5.829e-10
 71.50674     60.4 9.686e+03 4.144e-10
 71.53564     59.0 9.263e+03 3.262e-10
 71.55532     58.2 9.350e+03 3.586e-10
 71.58542     57.1 9.351e+03 3.571e-10
 71.62477     56.2 9.550e+03 3.881e-10
 71.65417     55.9 9.776e+03 4.483e-10
 71.67375     55.2 1.003e+04 5.401e-10
 71.69342     54.4 1.030e+04 6.521e-10
 71.71309     53.7 1.056e+04 7.701e-10
 71.73124     53.0 1.076e+04 8.722e-10
 71.73995     52.4 1.064e+04 8.369e-10
 71.74147     52.3 1.070e+04 8.679e-10
 71.75243     51.7 1.081e+04 9.327e-10
 71.77210     51.1 1.085e+04 9.498e-10
 71.79178     50.4 1.082e+04 9.359e-10
 71.81145     49.7 1.073e+04 8.896e-10
 71.83112     49.0 1.058e+04 8.101e-10
 71.85079     48.4 1.038e+04 7.102e-10
 71.87046     47.4 1.020e+04 6.130e-10
 71.90006     46.5 1.008e+04 5.381e-10
 71.92723     45.5 9.652e+03 4.057e-10
 71.94690     45.7 9.287e+03 3.390e-10
 71.97885     45.3 9.052e+03 2.797e-10
 72.01819     45.1 8.853e+03 2.271e-10
 72.04117     45.1 8.678e+03 1.826e-10
 72.06084     45.0 8.580e+03 1.731e-10
 72.09687     45.0 8.416e+03 1.506e-10
 72.13622     45.3 8.361e+03 1.506e-10
 72.17556     45.9 8.365e+03 1.543e-10
 72.21490     46.6 8.404e+03 1.706e-10
 72.25424     47.4 8.534e+03 2.030e-10
 72.29359     48.3 8.712e+03 2.402e-10
 72.31882     49.2 8.803e+03 2.499e-10
 72.33849     49.3 8.838e+03 2.550e-10
 72.37227     50.2 8.798e+03 2.427e-10
 72.41161     51.1 8.705e+03 2.058e-10
 72.45095     51.8 8.570e+03 1.665e-10
 72.49030     52.4 8.454e+03 1.441e-10
 72.52964     53.2 8.414e+03 1.419e-10
 72.56898     54.2 8.419e+03 1.428e-10
 72.60832     55.3 8.483e+03 1.473e-10
 72.64017     56.4 8.595e+03 1.562e-10
 72.65984     55.9 8.576e+03 1.541e-10
 72.68701     57.0 8.687e+03 1.638e-10
 72.71041     58.1 8.800e+03 1.784e-10
 72.73008     57.8 8.711e+03 1.483e-10
 72.76569     59.0 8.755e+03 1.507e-10
 72.80504     60.3 8.779e+03 1.511e-10
 72.84438     61.7 8.786e+03 1.492e-10
 72.88372     63.1 8.782e+03 1.443e-10
 72.92306     64.7 8.786e+03 1.369e-10
 72.96240     66.3 8.812e+03 1.300e-10
 73.00175     67.9 8.886e+03 1.273e-10
 73.04109     69.5 8.963e+03 1.333e-10
 73.08043     71.2 9.092e+03 1.504e-10
 73.10200     72.9 9.239e+03 1.763e-10
 73.12167     72.7 9.323e+03 2.195e-10
 73.15912     74.4 9.444e+03 2.471e-10
 73.19846     76.1 9.559e+03 2.716e-10
 73.23780     77.8 9.695e+03 2.974e-10
 73.25884     79.5 9.864e+03 3.318e-10
 73.27852     78.9 1.001e+04 3.521e-10
 73.31649     80.5 9.978e+03 3.445e-10
 73.35583     82.1 9.916e+03 3.240e-10
 73.39517     83.7 9.836e+03 2.804e-10
 73.43451     85.4 9.708e+03 2.203e-10
 73.47385     86.9 9.560e+03 1.617e-10
 73.51320     88.1 9.343e+03 1.265e-10
 73.55254     89.4 9.330e+03 1.236e-10
 73.59188     90.8 9.338e+03 1.265e-10
 73.63122     92.1 9.368e+03 1.389e-10
 73.67057     93.2 9.437e+03 1.573e-10
 73.70991     94.3 9.528e+03 1.756e-10
 73.74925     95.1 9.680e+03 1.808e-10
 73.78859     95.8 9.711e+03 1.768e-10
 73.82794     96.3 9.785e+03 1.664e-10
 73.85785     96.2 9.869e+03 1.651e-10
 73.87575     97.2 9.881e+03 1.602e-10
 73.88518     96.8 9.770e+03 1.450e-10
 73.90662     96.6 9.995e+03 1.598e-10
 73.94596     96.2 1.029e+04 2.099e-10
 73.98530     95.7 1.066e+04 2.911e-10
 74.02465     94.9 1.094e+04 3.560e-10
 74.06399     93.8 1.114e+04 3.787e-10
 74.10333     92.0 1.119e+04 3.969e-10
 74.14267     90.3 1.117e+04 4.168e-10
 74.18202     89.4 1.109e+04 4.009e-10
 74.22136     88.7 1.095e+04 3.412e-10
 74.25710     87.9 1.091e+04 2.847e-10
 74.27677     86.5 1.085e+04 2.498e-10
 74.30004     85.1 1.089e+04 2.611e-10
 74.33939     83.8 1.114e+04 3.219e-10
 74.37873     82.8 1.147e+04 4.127e-10
 74.41807     81.8 1.166e+04 4.418e-10
 74.45685     80.7 1.163e+04 4.407e-10
 74.47652     80.0 1.160e+04 4.412e-10
 74.49675     79.2 1.140e+04 4.190e-10
 74.53610     78.9 1.126e+04 3.870e-10
 74.57544     79.0 1.116e+04 3.427e-10
 74.61478     79.2 1.100e+04 2.894e-10
 74.64869     79.7 1.077e+04 2.444e-10
 74.66836     78.8 1.044e+04 1.753e-10
 74.69347     79.7 1.035e+04 1.694e-10
 74.73281     80.8 1.031e+04 1.714e-10
 74.77215     82.0 1.031e+04 1.790e-10
 74.81149     83.2 1.035e+04 2.015e-10
 74.85084     84.3 1.047e+04 2.481e-10
 74.89018     85.4 1.069e+04 3.267e-10
 74.92952     86.5 1.094e+04 4.191e-10
 74.96886     87.3 1.104e+04 5.000e-10
 74.99827     87.8 1.103e+04 5.525e-10
 75.01785     88.3 1.105e+04 5.622e-10
 75.03752     88.9 1.102e+04 5.468e-10
 75.04992     89.2 1.098e+04 5.220e-10
 75.05975     89.1 1.102e+04 5.353e-10
 75.07543     89.9 1.088e+04 4.713e-10
 75.09520     89.8 1.083e+04 4.508e-10
 75.12623     91.0 1.068e+04 3.966e-10
 75.16557     92.3 1.055e+04 3.656e-10
 75.20492     93.8 1.054e+04 3.661e-10
 75.24426     95.3 1.057e+04 3.800e-10
 75.27367     96.2 1.049e+04 3.942e-10
 75.29324     96.8 1.047e+04 4.190e-10
 75.31291     97.5 1.049e+04 4.533e-10
 75.33258     98.1 1.054e+04 4.917e-10
 75.35226     98.7 1.059e+04 5.285e-10
 75.37193     99.3 1.064e+04 5.690e-10
 75.38467     99.9 1.070e+04 6.051e-10
 75.39450     99.7 1.076e+04 6.129e-10
 75.41127    100.2 1.093e+04 6.481e-10
 75.43094    100.7 1.108e+04 6.928e-10
 75.44151    101.2 1.119e+04 7.346e-10
 75.45134    100.5 1.164e+04 9.491e-10
 75.47028    101.2 1.171e+04 1.015e-09
 75.48995    101.9 1.175e+04 1.036e-09
 75.50962    102.7 1.182e+04 1.054e-09
 75.52930    103.2 1.194e+04 1.090e-09
 75.54897    103.6 1.212e+04 1.166e-09
 75.56864    103.9 1.247e+04 1.342e-09
 75.58831    104.0 1.298e+04 1.672e-09
 75.60798    103.9 1.358e+04 2.166e-09
 75.62747    103.7 1.419e+04 2.842e-09
 75.63730    102.6 1.501e+04 4.313e-09
 75.64732    102.2 1.552e+04 5.260e-09
 75.66699    102.1 1.604e+04 6.325e-09
 75.68417    102.0 1.645e+04 7.297e-09
 75.69400    101.9 1.729e+04 9.354e-09
 75.70634    101.7 1.747e+04 9.900e-09
 75.72601    101.4 1.735e+04 9.519e-09
 75.74568    101.2 1.688e+04 8.193e-09
 75.76535    101.0 1.615e+04 6.385e-09
 75.78502    100.5 1.530e+04 4.819e-09
 75.80469     99.9 1.438e+04 3.580e-09
 75.82326     99.5 1.346e+04 2.773e-09
 75.83310     98.8 1.290e+04 2.343e-09
 75.84403     98.9 1.222e+04 1.885e-09
 75.86371     99.4 1.184e+04 1.618e-09
 75.88338    100.0 1.164e+04 1.430e-09
 75.90305    100.6 1.157e+04 1.305e-09
 75.92272    101.2 1.165e+04 1.272e-09
 75.94239    101.5 1.171e+04 1.282e-09
 75.96206    101.5 1.189e+04 1.332e-09
 75.98173    101.5 1.215e+04 1.463e-09
 75.99350    101.6 1.249e+04 1.669e-09
 76.00334    100.7 1.204e+04 1.296e-09
 76.01906    100.7 1.225e+04 1.373e-09
 76.02889    100.8 1.150e+04 1.012e-09
 76.04075    100.7 1.159e+04 1.045e-09
 76.06042    100.3 1.162e+04 1.059e-09
 76.08009     99.4 1.160e+04 1.053e-09
 76.09976     98.4 1.147e+04 1.033e-09
 76.11943     97.2 1.135e+04 1.025e-09
 76.13910     96.2 1.134e+04 1.050e-09
 76.15877     95.5 1.140e+04 1.098e-09
 76.17844     94.8 1.158e+04 1.200e-09
 76.19811     94.7 1.163e+04 1.234e-09
 76.21485     93.9 1.175e+04 1.273e-09
 76.22469     95.2 1.155e+04 1.174e-09
 76.23746     94.5 1.155e+04 1.190e-09
 76.25713     93.7 1.163e+04 1.220e-09
 76.27680     92.6 1.169e+04 1.240e-09
 76.29301     91.6 1.171e+04 1.241e-09
 76.30284     91.9 1.156e+04 1.150e-09
 76.31614     91.0 1.157e+04 1.133e-09
 76.33581     90.3 1.157e+04 1.106e-09
 76.35548     89.6 1.167e+04 1.126e-09
 76.37516     88.7 1.193e+04 1.214e-09
 76.39483     87.6 1.217e+04 1.361e-09
 76.41064     86.5 1.218e+04 1.447e-09
 76.42048     87.6 1.239e+04 1.554e-09
 76.43417     86.7 1.220e+04 1.539e-09
 76.45384     86.3 1.182e+04 1.363e-09
 76.47351     86.0 1.134e+04 1.033e-09
 76.49318     85.6 1.081e+04 6.578e-10
 76.51285     85.2 1.046e+04 5.152e-10
 76.54246     86.7 1.002e+04 3.680e-10
 76.58190     87.5 9.474e+03 2.604e-10
 76.60663     88.7 9.421e+03 2.465e-10
 76.62631     88.7 9.553e+03 2.825e-10
 76.66058     90.0 9.585e+03 2.944e-10
 76.68999     91.1 9.710e+03 3.238e-10
 76.70956     91.0 1.014e+04 4.427e-10
 76.72924     90.9 1.072e+04 6.705e-10
 76.74891     90.9 1.141e+04 1.027e-09
 76.76858     90.7 1.223e+04 1.560e-09
 76.78825     90.3 1.318e+04 2.333e-09
 76.80223     89.2 1.420e+04 3.392e-09
 76.81207     89.3 1.369e+04 2.771e-09
 76.82759     87.7 1.473e+04 3.973e-09
 76.84726     86.0 1.530e+04 5.309e-09
 76.86693     84.7 1.551e+04 6.099e-09
 76.88164     84.1 1.572e+04 6.542e-09
 76.89143     83.5 1.563e+04 6.420e-09
 76.90180     83.2 1.513e+04 5.463e-09
 76.91168     83.3 1.616e+04 7.471e-09
 76.92595     82.8 1.555e+04 6.020e-09
 76.94562     82.3 1.468e+04 3.921e-09
 76.96529     80.8 1.378e+04 2.187e-09
 76.98496     77.5 1.328e+04 1.484e-09
 76.99803     73.9 1.319e+04 1.480e-09
 77.00786     74.7 1.342e+04 1.592e-09
 77.02430     71.4 1.338e+04 1.834e-09
 77.04397     70.5 1.349e+04 2.452e-09
 77.06365     70.6 1.349e+04 2.938e-09
 77.08332     71.1 1.341e+04 2.801e-09
 77.10299     71.7 1.306e+04 2.308e-09
 77.12266     72.2 1.257e+04 1.612e-09
 77.14233     72.0 1.204e+04 1.034e-09
 77.16200     71.3 1.147e+04 6.871e-10
 77.18167     70.5 1.084e+04 5.373e-10
 77.19382     70.5 1.041e+04 5.102e-10
 77.20366     70.6 1.046e+04 5.223e-10
 77.22102     71.4 1.062e+04 6.178e-10
 77.24069     72.1 1.058e+04 6.187e-10
 77.26036     72.8 1.058e+04 6.233e-10
 77.28003     73.5 1.059e+04 6.231e-10
 77.29970     74.0 1.057e+04 6.150e-10
 77.31937     74.2 1.052e+04 5.896e-10
 77.33904     74.2 1.047e+04 5.715e-10
 77.36865     74.5 1.033e+04 5.230e-10
 77.38981     74.5 1.019e+04 4.614e-10
 77.40948     75.3 1.027e+04 4.655e-10
 77.44743     75.0 9.948e+03 3.786e-10
 77.48677     74.5 9.623e+03 2.913e-10
 77.51088     74.1 9.256e+03 2.165e-10
 77.53055     74.3 9.228e+03 2.103e-10
 77.56546     74.4 8.948e+03 1.674e-10
 77.60480     74.9 8.726e+03 1.353e-10
 77.64414     75.8 8.553e+03 1.113e-10
 77.68348     76.8 8.426e+03 9.540e-11
 77.72282     78.0 8.346e+03 8.702e-11
 77.76173     79.3 8.306e+03 8.360e-11
 77.78140     79.4 8.274e+03 8.074e-11
 77.80151     80.7 8.270e+03 8.009e-11
 77.84085     82.1 8.284e+03 7.984e-11
 77.88019     83.4 8.304e+03 7.982e-11
 77.91954     84.7 8.317e+03 8.071e-11
 77.95888     85.9 8.332e+03 8.269e-11
 77.99822     87.2 8.354e+03 8.600e-11
 78.03756     88.5 8.399e+03 9.324e-11
 78.07691     89.9 8.447e+03 1.023e-10
 78.10988     91.2 8.509e+03 1.120e-10
 78.12955     90.8 8.457e+03 1.039e-10
 78.15332     92.1 8.516e+03 1.112e-10
 78.17299     92.0 8.438e+03 9.745e-11
 78.19493     93.1 8.546e+03 1.082e-10
 78.23428     94.1 8.728e+03 1.325e-10
 78.27362     95.0 8.977e+03 1.748e-10
 78.31296     95.8 9.288e+03 2.398e-10
 78.35230     96.5 9.593e+03 3.185e-10
 78.39164     97.3 9.827e+03 3.636e-10
 78.43099     97.9 9.850e+03 3.626e-10
 78.47033     98.7 9.796e+03 3.489e-10
 78.50967     99.7 9.709e+03 3.153e-10
 78.54491    100.8 9.578e+03 2.650e-10
 78.56458    101.0 9.666e+03 2.891e-10
 78.58836    102.3 9.492e+03 2.277e-10
 78.62770    103.7 9.315e+03 1.738e-10
 78.66704    105.3 9.156e+03 1.332e-10
 78.70638    106.9 9.027e+03 1.061e-10
 78.72856    108.7 8.921e+03 9.116e-11
 78.74823    107.7 8.850e+03 8.976e-11
 78.78507    109.8 8.839e+03 8.869e-11
 78.82441    112.1 8.835e+03 8.996e-11
 78.86375    114.4 8.854e+03 9.437e-11
 78.90309    116.9 8.904e+03 1.015e-10
 78.93650    119.3 8.976e+03 1.103e-10
 78.95617    119.2 8.998e+03 1.115e-10
 78.98178    121.6 9.081e+03 1.200e-10
 79.02112    123.9 9.177e+03 1.301e-10
 79.06046    126.2 9.304e+03 1.428e-10
 79.09981    128.3 9.449e+03 1.616e-10
 79.13915    130.4 9.621e+03 1.900e-10
 79.17849    132.3 9.833e+03 2.286e-10
 79.21783    134.1 1.006e+04 2.740e-10
 79.25718    135.8 1.025e+04 3.131e-10
 79.29652    137.3 1.041e+04 3.230e-10
 79.32756    138.7 1.042e+04 3.184e-10
 79.33946    138.5 1.039e+04 3.093e-10
 79.34776    138.2 1.015e+04 2.563e-10
 79.37520    139.7 1.011e+04 2.356e-10
 79.41454    141.1 1.002e+04 2.096e-10
 79.45389    142.5 9.903e+03 1.827e-10
 79.49323    143.8 9.756e+03 1.573e-10
 79.53257    145.1 9.595e+03 1.368e-10
 79.57191    146.5 9.476e+03 1.267e-10
 79.61126    148.0 9.464e+03 1.265e-10
 79.65060    149.5 9.466e+03 1.294e-10
 79.68994    151.1 9.526e+03 1.430e-10
 79.71968    152.6 9.699e+03 1.720e-10
 79.73935    152.7 9.693e+03 1.713e-10
 79.76863    153.8 9.926e+03 2.165e-10
 79.80797    154.3 1.012e+04 2.725e-10
 79.84731    154.5 1.017e+04 3.170e-10
 79.87672    154.9 1.022e+04 3.772e-10
 79.89629    155.4 1.040e+04 4.666e-10
 79.91528    155.9 1.069e+04 5.959e-10
 79.92511    155.7 1.067e+04 5.726e-10
 79.93564    156.0 1.100e+04 7.249e-10
 79.94604    156.1 1.133e+04 8.725e-10
 79.95587    156.0 1.190e+04 1.162e-09
 79.97498    155.9 1.218e+04 1.286e-09
 79.99465    155.6 1.240e+04 1.363e-09
 80.01432    154.9 1.253e+04 1.400e-09
 80.03399    154.1 1.256e+04 1.388e-09
 80.05366    153.4 1.253e+04 1.360e-09
 80.07333    152.7 1.238e+04 1.264e-09
 80.09300    152.2 1.224e+04 1.196e-09
 80.11107    152.0 1.197e+04 1.064e-09
 80.13084    152.7 1.186e+04 9.941e-10
 80.16205    152.9 1.121e+04 7.107e-10
 80.19146    153.0 1.076e+04 5.689e-10
 80.21103    153.3 1.046e+04 4.794e-10
 80.23070    153.8 1.022e+04 4.138e-10
 80.24554    154.4 1.009e+04 3.829e-10
 80.25538    154.3 1.009e+04 3.791e-10
 80.27004    154.9 1.008e+04 3.767e-10
 80.28972    155.9 1.008e+04 3.785e-10
 80.30687    157.0 1.013e+04 3.916e-10
 80.31670    157.1 1.006e+04 3.620e-10
 80.32906    157.7 1.019e+04 3.828e-10
 80.34873    157.5 1.062e+04 4.476e-10
 80.36840    155.9 1.219e+04 7.288e-10
 80.38807    150.3 1.607e+04 2.027e-09
 80.40016    147.0 1.815e+04 3.464e-09
 80.40503    146.5 1.825e+04 3.676e-09
 80.40958    142.9 2.036e+04 6.736e-09
 80.41450    143.4 1.987e+04 6.069e-09
 80.42240    139.5 2.177e+04 1.320e-08
 80.43223    136.4 2.284e+04 2.942e-08
 80.44207    134.6 2.327e+04 5.129e-08
 80.45191    133.0 2.343e+04 5.726e-08
 80.46174    131.5 2.345e+04 5.486e-08
 80.47158    130.2 2.358e+04 4.294e-08
 80.48141    128.2 2.397e+04 2.478e-08
 80.49125    125.5 2.405e+04 1.293e-08
 80.50261    118.2 2.317e+04 3.596e-09
 80.51250    118.3 2.268e+04 4.610e-09
 80.52577    108.2 1.560e+04 2.264e-09
 80.54504    105.0 1.443e+04 2.239e-09
 80.55488    105.9 1.443e+04 2.229e-09
 80.56511    105.2 1.448e+04 2.284e-09
 80.58478    104.7 1.486e+04 2.605e-09
 80.60445    104.2 1.565e+04 3.350e-09
 80.62413    103.8 1.667e+04 4.499e-09
 80.64380    103.1 1.774e+04 5.974e-09
 80.66347    101.7 1.871e+04 7.173e-09
 80.68314     99.8 1.935e+04 7.746e-09
 80.69846     97.5 1.984e+04 8.043e-09
 80.70829     97.9 1.835e+04 5.091e-09
 80.72248     95.6 1.833e+04 4.630e-09
 80.74215     93.1 1.818e+04 4.300e-09
 80.76182     90.8 1.803e+04 4.100e-09
 80.78149     88.9 1.813e+04 4.112e-09
 80.80117     86.9 1.860e+04 4.497e-09
 80.82084     84.9 1.931e+04 5.386e-09
 80.84051     83.2 1.964e+04 6.312e-09
 80.85438     82.1 1.928e+04 6.171e-09
 80.86421     82.3 1.932e+04 6.067e-09
 80.87985     82.5 1.887e+04 5.573e-09
 80.89425     83.2 1.813e+04 4.387e-09
 80.90409     85.7 1.950e+04 6.555e-09
 80.91919     87.1 1.909e+04 5.582e-09
 80.93886     89.1 1.855e+04 3.685e-09
 80.95854     90.6 1.779e+04 1.680e-09
 80.97821     90.3 1.522e+04 6.101e-10
 80.99788     90.1 1.285e+04 4.838e-10
 81.01755     91.6 1.238e+04 4.660e-10
 81.03722     95.2 1.232e+04 4.777e-10
 81.05689    100.4 1.255e+04 5.440e-10
 81.07656    107.0 1.316e+04 6.647e-10
 81.09005    115.6 1.425e+04 8.243e-10
 81.09988    116.1 2.660e+04 5.185e-10
 81.11590     68.3 4.206e+05 4.431e-11
 81.13061      5.2 6.751e+05 5.147e-11
 81.14040    -40.5 9.272e+05 5.349e-11
 81.14775    -11.2 5.508e+05 2.743e-10
 81.15264      3.0 4.234e+05 1.181e-09
 81.15756     12.8 4.160e+04 1.600e-06
 81.16111      9.3 1.494e+04 2.758e-04
 81.16357     10.3 1.653e+04 1.664e-04
 81.16577      4.1 1.215e+04 2.471e-03
 81.16699     -0.6 1.291e+04 1.480e-03
 81.16860     -2.7 1.329e+04 8.761e-04
 81.17106     -3.4 1.609e+04 7.572e-05
 81.17352     -2.5 1.762e+04 2.816e-05
 81.17598      4.3 1.942e+04 3.514e-05
 81.17844     36.0 1.184e+04 6.235e-03
 81.18089     70.3 1.053e+04 3.709e-02
 81.18335     80.4 1.080e+04 2.592e-02
 81.18581     81.3 1.285e+04 2.645e-03
 81.18827     82.1 2.200e+04 1.738e-05
 81.19023     83.4 5.510e+04 2.794e-07
 81.19146     86.1 1.758e+04 7.332e-05
 81.19319     85.4 1.184e+04 7.990e-03
 81.19565     85.1 1.016e+04 4.843e-02
 81.19811     70.7 1.023e+04 5.823e-02
 81.19975     43.0 1.125e+04 1.739e-02
 81.20098     39.8 1.186e+04 9.744e-03
 81.20302      3.0 2.879e+04 1.191e-05
 81.20548    -21.7 5.927e+04 1.627e-07
 81.20794    -27.0 6.087e+04 1.185e-07
 81.21040    -45.1 1.036e+05 1.392e-08
 81.21286    -68.2 3.518e+05 1.207e-09
 81.21471    -62.3 1.188e+06 1.450e-10
 81.21594    -81.2 4.006e+05 3.568e-10
 81.21778    -91.6 4.931e+05 2.575e-10
 81.22148    -65.9 8.852e+05 1.396e-10
 81.22641   -167.9 4.015e+05 3.237e-10
 81.23133   -222.5 3.407e+05 3.730e-10
 81.23599   -217.5 4.532e+05 3.650e-10
 81.23844   -219.0 1.210e+05 3.172e-09
 81.23920   -216.8 7.078e+04 1.672e-08
 81.24166   -218.1 1.204e+05 3.133e-09
 81.24608   -213.7 7.790e+04 1.209e-08
 81.25100   -198.3 7.710e+04 1.436e-08
 81.25592   -184.2 1.089e+05 5.988e-09
 81.26083   -171.0 1.796e+05 1.457e-09
 81.26823   -156.2 3.434e+05 3.478e-10
 81.27809   -133.4 5.547e+05 1.006e-10
 81.28574   -173.8 2.789e+05 1.023e-10
 81.29066   -187.5 7.524e+04 2.656e-09
 81.29777   -180.1 6.660e+04 3.458e-09
 81.31257   -165.1 8.939e+04 2.283e-09
 81.33229   -152.8 2.427e+05 9.464e-11
 81.35196   -171.5 9.376e+04 1.394e-10
 81.37163   -191.5 1.688e+04 4.139e-10
 81.39130   -185.6 1.249e+04 5.011e-10
 81.41097   -179.9 1.214e+04 5.433e-10
 81.43064   -175.2 1.208e+04 5.580e-10
 81.45031   -171.0 1.201e+04 5.714e-10
 81.46322   -167.4 1.195e+04 5.832e-10
 81.47305   -166.8 1.180e+04 5.589e-10
 81.48164   -163.9 1.178e+04 5.755e-10
 81.49147   -163.5 1.153e+04 5.261e-10
 81.50933   -161.0 1.156e+04 5.500e-10
 81.52900   -158.7 1.160e+04 5.781e-10
 81.54867   -156.7 1.164e+04 6.082e-10
 81.56834   -155.0 1.167e+04 6.342e-10
 81.58801   -153.6 1.166e+04 6.459e-10
 81.60768   -152.2 1.163e+04 6.474e-10
 81.62735   -150.7 1.135e+04 6.180e-10
 81.64703   -149.0 1.106e+04 5.253e-10
 81.66670   -147.2 1.091e+04 4.350e-10
 81.67753   -146.1 1.095e+04 3.730e-10
 81.69730   -145.4 1.076e+04 3.793e-10
 81.73574   -144.0 1.023e+04 3.101e-10
 81.76291   -142.3 9.766e+03 2.545e-10
 81.78259   -143.6 1.000e+04 2.818e-10
 81.81443   -141.9 9.933e+03 2.781e-10
 81.85377   -140.5 9.987e+03 3.005e-10
 81.89311   -139.1 1.025e+04 3.573e-10
 81.93245   -137.7 1.048e+04 4.164e-10
 81.97180   -136.3 1.071e+04 4.812e-10
 82.00120   -134.6 1.084e+04 5.565e-10
 82.02078   -134.2 1.091e+04 6.043e-10
 82.04045   -133.5 1.101e+04 6.697e-10
 82.05918   -132.8 1.113e+04 7.268e-10
 82.06902   -132.3 1.107e+04 7.098e-10
 82.07206   -131.5 1.112e+04 7.391e-10
 82.08189   -132.1 1.087e+04 7.035e-10
 82.09946   -131.3 1.084e+04 7.047e-10
 82.11913   -130.5 1.077e+04 6.943e-10
 82.13880   -129.7 1.068e+04 6.748e-10
 82.15848   -128.8 1.057e+04 6.463e-10
 82.17815   -127.8 1.047e+04 6.151e-10
 82.19782   -126.9 1.037e+04 5.846e-10
 82.21749   -126.0 1.028e+04 5.597e-10
 82.23716   -125.0 1.022e+04 5.413e-10
 82.25498   -124.1 1.018e+04 5.307e-10
 82.26481   -123.5 9.939e+03 4.461e-10
 82.27650   -122.5 9.951e+03 4.471e-10
 82.29617   -121.8 9.960e+03 4.513e-10
 82.31585   -120.9 1.004e+04 4.728e-10
 82.33552   -120.2 1.016e+04 5.054e-10
 82.35519   -119.4 1.033e+04 5.550e-10
 82.37156   -118.4 1.055e+04 6.034e-10
 82.38139   -118.2 1.031e+04 5.011e-10
 82.39453   -117.4 1.047e+04 5.283e-10
 82.41420   -116.6 1.054e+04 5.410e-10
 82.43387   -115.9 1.057e+04 5.435e-10
 82.45077   -115.3 1.056e+04 5.432e-10
 82.46061   -114.9 1.068e+04 5.727e-10
 82.47321   -114.3 1.068e+04 5.775e-10
 82.49289   -113.8 1.068e+04 5.842e-10
 82.51256   -113.3 1.072e+04 5.977e-10
 82.53223   -112.8 1.080e+04 6.177e-10
 82.55190   -112.3 1.090e+04 6.393e-10
 82.57157   -111.7 1.098e+04 6.588e-10
 82.59124   -111.2 1.104e+04 6.771e-10
 82.61091   -110.7 1.106e+04 6.897e-10
 82.63058   -110.3 1.105e+04 6.921e-10
 82.64657   -109.8 1.101e+04 6.905e-10
 82.65640   -109.5 1.082e+04 6.371e-10
 82.66993   -109.0 1.073e+04 6.108e-10
 82.68089   -108.6 1.066e+04 5.931e-10
 82.69073   -107.9 1.073e+04 6.278e-10
 82.70927   -107.5 1.072e+04 6.338e-10
 82.72894   -107.4 1.077e+04 6.605e-10
 82.74861   -107.6 1.104e+04 7.388e-10
 82.76828   -108.8 1.179e+04 9.523e-10
 82.78795   -110.7 1.283e+04 1.386e-09
 82.80762   -112.6 1.373e+04 2.042e-09
 82.82730   -114.3 1.425e+04 2.710e-09
 82.84236   -115.8 1.430e+04 3.018e-09
 82.85220   -114.3 1.407e+04 2.802e-09
 82.86664   -115.5 1.410e+04 2.925e-09
 82.88631   -116.4 1.353e+04 2.695e-09
 82.90598   -117.1 1.269e+04 1.983e-09
 82.92565   -117.7 1.178e+04 1.353e-09
 82.94532   -118.1 1.097e+04 9.408e-10
 82.96499   -118.2 1.043e+04 7.050e-10
 82.98040   -118.0 9.999e+03 5.482e-10
 82.99023   -118.1 1.009e+04 5.928e-10
 83.00434   -116.9 9.708e+03 4.810e-10
 83.02401   -115.6 9.423e+03 4.022e-10
 83.03816   -114.3 9.268e+03 3.589e-10
 83.04799   -114.0 9.230e+03 3.434e-10
 83.07328   -113.2 9.165e+03 3.289e-10
 83.11272   -111.2 8.909e+03 2.831e-10
 83.15206   -108.5 8.668e+03 2.496e-10
 83.18147   -106.1 8.597e+03 2.375e-10
 83.20105   -105.5 8.581e+03 2.363e-10
 83.22072   -104.4 8.638e+03 2.392e-10
 83.23395   -104.1 8.767e+03 2.487e-10
 83.24379   -103.6 8.656e+03 2.379e-10
 83.26006   -103.4 8.890e+03 2.707e-10
 83.27973   -105.4 9.743e+03 4.405e-10
 83.28973   -108.2 1.245e+04 1.127e-09
 83.29957   -108.1 1.257e+04 1.223e-09
 83.31907   -109.5 1.504e+04 3.001e-09
 83.33875   -109.9 1.680e+04 6.004e-09
 83.35842   -110.5 1.782e+04 9.103e-09
 83.37809   -111.7 1.801e+04 1.028e-08
 83.39776   -112.8 1.747e+04 8.649e-09
 83.41743   -113.8 1.609e+04 5.810e-09
 83.42975   -115.0 1.477e+04 3.820e-09
 83.43958   -113.6 1.479e+04 4.037e-09
 83.45677   -114.7 1.373e+04 2.865e-09
 83.47644   -115.3 1.293e+04 2.096e-09
 83.49611   -115.6 1.229e+04 1.580e-09
 83.51579   -115.6 1.180e+04 1.222e-09
 83.53546   -115.5 1.135e+04 9.760e-10
 83.55513   -115.3 1.095e+04 8.258e-10
 83.57480   -114.9 1.069e+04 7.451e-10
 83.58924   -114.4 1.056e+04 7.145e-10
 83.59907   -113.9 1.061e+04 7.563e-10
 83.61414   -113.3 1.054e+04 7.467e-10
 83.62554   -112.6 1.059e+04 7.819e-10
 83.63538   -111.7 1.038e+04 6.631e-10
 83.65348   -111.0 1.045e+04 7.004e-10
 83.67316   -110.5 1.065e+04 7.877e-10
 83.69283   -110.1 1.100e+04 9.306e-10
 83.71250   -109.7 1.147e+04 1.155e-09
 83.73217   -109.5 1.204e+04 1.492e-09
 83.75184   -109.4 1.266e+04 1.974e-09
 83.77151   -109.2 1.325e+04 2.598e-09
 83.79118   -109.0 1.382e+04 3.235e-09
 83.81085   -108.8 1.433e+04 3.846e-09
 83.82134   -108.6 1.467e+04 4.289e-09
 83.83117   -107.8 1.373e+04 3.137e-09
 83.85020   -107.7 1.377e+04 3.171e-09
 83.86987   -107.6 1.362e+04 3.000e-09
 83.88874   -107.5 1.315e+04 2.457e-09
 83.89857   -106.9 1.311e+04 2.250e-09
 83.90921   -106.9 1.257e+04 1.762e-09
 83.92888   -107.0 1.204e+04 1.416e-09
 83.94855   -107.0 1.163e+04 1.206e-09
 83.96822   -107.0 1.147e+04 1.142e-09
 83.98789   -106.8 1.144e+04 1.137e-09
 84.00730   -107.0 1.175e+04 1.245e-09
 84.01713   -106.6 1.050e+04 7.319e-10
 84.02724   -106.5 1.087e+04 8.626e-10
 84.04691   -106.5 1.136e+04 1.095e-09
 84.06658   -106.2 1.194e+04 1.365e-09
 84.08625   -105.7 1.245e+04 1.601e-09
 84.10592   -105.4 1.270e+04 1.709e-09
 84.12559   -105.0 1.274e+04 1.721e-09
 84.14526   -104.2 1.243e+04 1.562e-09
 84.16493   -103.3 1.197e+04 1.292e-09
 84.18461   -102.5 1.153e+04 1.036e-09
 84.19807   -101.7 1.121e+04 8.329e-10
 84.20672   -100.9 1.174e+04 9.949e-10
 84.21293    -99.8 1.125e+04 8.203e-10
 84.22395    -99.0 1.103e+04 6.807e-10
 84.24362    -98.3 1.091e+04 5.818e-10
 84.26329    -97.6 1.085e+04 5.162e-10
 84.28296    -96.8 1.087e+04 4.862e-10
 84.30263    -95.9 1.089e+04 4.803e-10
 84.32230    -95.1 1.105e+04 4.900e-10
 84.34197    -94.4 1.122e+04 5.442e-10
 84.36165    -93.6 1.141e+04 6.411e-10
 84.38132    -92.6 1.162e+04 7.757e-10
 84.39888    -91.6 1.182e+04 9.327e-10
 84.40872    -91.0 1.148e+04 6.968e-10
 84.42066    -90.1 1.177e+04 8.739e-10
 84.44033    -89.4 1.206e+04 1.074e-09
 84.46000    -88.9 1.236e+04 1.255e-09
 84.47967    -89.4 1.258e+04 1.338e-09
 84.49758    -89.6 1.317e+04 1.739e-09
 84.50741    -89.0 1.316e+04 1.738e-09
 84.51901    -89.0 1.357e+04 2.295e-09
 84.53869    -89.3 1.436e+04 3.176e-09
 84.55836    -89.9 1.531e+04 4.373e-09
 84.57803    -90.8 1.618e+04 5.732e-09
 84.59468    -91.8 1.680e+04 6.735e-09
 84.60452    -90.9 1.663e+04 6.743e-09
 84.61737    -91.5 1.682e+04 6.970e-09
 84.63704    -92.1 1.691e+04 6.526e-09
 84.65671    -92.8 1.641e+04 4.592e-09
 84.67638    -94.0 1.537e+04 2.799e-09
 84.69606    -95.4 1.396e+04 1.646e-09
 84.71573    -96.0 1.264e+04 1.021e-09
 84.73540    -96.2 1.183e+04 7.041e-10
 84.75507    -96.0 1.142e+04 5.246e-10
 84.77474    -95.2 1.115e+04 4.048e-10
 84.79047    -94.5 1.099e+04 3.266e-10
 84.80031    -94.8 1.109e+04 3.415e-10
 84.80691    -94.1 1.105e+04 2.989e-10
 84.81675    -93.3 1.107e+04 3.418e-10
 84.83375    -92.6 1.110e+04 3.103e-10
 84.85342    -91.9 1.110e+04 3.006e-10
 84.87310    -91.1 1.108e+04 3.032e-10
 84.89277    -90.2 1.105e+04 3.254e-10
 84.92237    -89.1 1.122e+04 3.984e-10
 84.96181    -86.9 1.122e+04 4.504e-10
 85.00115    -84.7 1.128e+04 4.974e-10
 85.04050    -82.3 1.129e+04 5.442e-10
 85.07984    -79.9 1.127e+04 5.723e-10
 85.11918    -77.7 1.123e+04 6.080e-10
 85.15852    -75.6 1.131e+04 6.688e-10
 85.18226    -73.8 1.164e+04 8.209e-10
 85.20193    -74.7 1.107e+04 6.846e-10
 85.23721    -72.4 1.100e+04 6.367e-10
 85.27655    -70.1 1.100e+04 5.667e-10
 85.30596    -68.6 1.088e+04 5.094e-10
 85.32553    -67.8 1.069e+04 4.615e-10
 85.34520    -66.7 1.049e+04 4.039e-10
 85.36487    -65.9 1.041e+04 3.817e-10
 85.37786    -65.0 1.035e+04 3.676e-10
 85.38769    -64.7 9.389e+03 2.107e-10
 85.40422    -64.0 9.398e+03 2.113e-10
 85.41575    -62.3 9.459e+03 2.256e-10
 85.42559    -62.3 9.362e+03 2.264e-10
 85.44356    -61.6 9.420e+03 2.398e-10
 85.46323    -59.8 9.699e+03 2.967e-10
 85.48290    -58.8 9.991e+03 3.605e-10
 85.51251    -56.4 1.027e+04 4.890e-10
 85.55195    -53.2 1.013e+04 5.148e-10
 85.57385    -49.8 1.005e+04 5.406e-10
 85.59352    -50.2 8.973e+03 2.734e-10
 85.63063    -47.1 9.131e+03 3.195e-10
 85.66004    -44.4 9.472e+03 4.070e-10
 85.67961    -43.7 9.488e+03 4.228e-10
 85.69928    -41.9 9.799e+03 5.079e-10
 85.71525    -41.4 9.938e+03 5.602e-10
 85.72509    -42.4 1.005e+04 6.252e-10
 85.73863    -41.4 1.022e+04 7.701e-10
 85.75830    -41.0 1.049e+04 9.457e-10
 85.76945    -41.4 1.163e+04 1.315e-09
 85.77928    -40.4 1.055e+04 9.233e-10
 85.79764    -42.5 1.281e+04 1.503e-09
 85.81731    -45.9 1.532e+04 2.926e-09
 85.83698    -48.7 1.649e+04 5.084e-09
 85.85169    -49.8 1.673e+04 6.380e-09
 85.86147    -50.5 1.695e+04 6.909e-09
 85.86725    -51.4 1.696e+04 7.217e-09
 85.87068    -50.8 1.668e+04 6.608e-09
 85.87474    -51.5 1.643e+04 6.372e-09
 85.88115    -52.1 1.614e+04 6.043e-09
 85.89595    -53.2 1.565e+04 5.118e-09
 85.91567    -55.8 1.449e+04 2.829e-09
 85.93534    -60.6 1.225e+04 1.183e-09
 85.95501    -65.2 1.003e+04 5.384e-10
 85.96524    -67.3 9.198e+03 3.538e-10
 85.97508    -65.7 9.723e+03 4.769e-10
 85.99435    -66.7 9.288e+03 3.387e-10
 86.01402    -67.5 8.701e+03 2.503e-10
 86.02459    -67.9 8.426e+03 2.194e-10
 86.03452    -66.8 8.660e+03 2.496e-10
 86.06340    -66.8 8.220e+03 1.895e-10
 86.10274    -65.1 7.773e+03 1.349e-10
 86.14208    -63.1 7.526e+03 1.035e-10
 86.18142    -61.1 7.399e+03 8.455e-11
 86.22077    -58.9 7.313e+03 7.272e-11
 86.26011    -56.7 7.249e+03 6.547e-11
 86.29945    -54.4 7.209e+03 6.183e-11
 86.33736    -51.9 7.191e+03 6.080e-11
 86.35703    -52.0 7.089e+03 4.922e-11
 86.37813    -49.5 7.080e+03 4.872e-11
 86.41748    -47.1 7.092e+03 4.925e-11
 86.45682    -44.6 7.119e+03 5.095e-11
 86.49616    -42.0 7.154e+03 5.222e-11
 86.53550    -39.4 7.207e+03 5.271e-11
 86.57485    -36.9 7.277e+03 5.273e-11
 86.61395    -34.4 7.365e+03 5.331e-11
 86.63362    -34.0 7.401e+03 7.113e-11
 86.65353    -31.5 7.475e+03 7.720e-11
 86.69287    -28.8 7.534e+03 8.291e-11
 86.72895    -26.1 7.594e+03 8.639e-11
 86.74862    -26.4 7.600e+03 8.764e-11
 86.77156    -23.7 7.627e+03 8.790e-11
 86.81090    -21.1 7.639e+03 8.433e-11
 86.85024    -18.8 7.693e+03 8.399e-11
 86.88958    -16.8 7.790e+03 9.911e-11
 86.92893    -14.5 7.909e+03 1.322e-10
 86.96827    -11.8 8.147e+03 1.698e-10
 87.00761     -9.3 8.367e+03 1.953e-10
 87.04695     -7.3 8.702e+03 2.246e-10
 87.08630     -5.8 9.444e+03 3.089e-10
 87.12053     -4.5 1.005e+04 4.619e-10
 87.14021     -6.3 1.038e+04 6.976e-10
 87.15505     -4.9 1.055e+04 9.112e-10
 87.17462     -3.2 1.060e+04 1.008e-09
 87.19429     -1.9 1.075e+04 1.050e-09
 87.21396     -0.6 1.078e+04 1.072e-09
 87.23243      1.0 1.074e+04 1.008e-09
 87.24227      1.2 1.077e+04 8.552e-10
 87.25331      2.0 1.078e+04 7.412e-10
 87.27298      2.6 1.068e+04 5.591e-10
 87.29265      2.8 1.052e+04 4.863e-10
 87.32225      3.5 9.878e+03 3.315e-10
 87.36169      5.6 9.553e+03 2.873e-10
 87.40103      7.8 9.298e+03 2.464e-10
 87.44038      9.7 9.260e+03 2.365e-10
 87.47972     11.4 9.350e+03 2.595e-10
 87.51212     13.3 9.513e+03 3.025e-10
 87.53180     11.5 9.035e+03 2.237e-10
 87.55840     13.6 9.274e+03 2.484e-10
 87.59775     14.7 9.641e+03 2.697e-10
 87.62716     14.3 9.900e+03 2.997e-10
 87.64673     14.1 9.891e+03 3.089e-10
 87.66640     13.4 1.001e+04 3.670e-10
 87.68607     12.9 1.038e+04 5.018e-10
 87.70574     12.6 1.086e+04 7.046e-10
 87.71756     12.4 1.132e+04 9.454e-10
 87.72739     12.0 1.069e+04 7.510e-10
 87.74508     11.9 1.094e+04 8.597e-10
 87.76476     11.7 1.106e+04 9.305e-10
 87.78443     11.3 1.102e+04 9.175e-10
 87.80410     10.8 1.086e+04 8.653e-10
 87.82377     10.3 1.065e+04 7.714e-10
 87.84127      9.5 1.051e+04 6.740e-10
 87.85111      8.5 1.038e+04 5.502e-10
 87.86311      6.9 1.026e+04 4.813e-10
 87.88278      5.2 1.018e+04 4.441e-10
 87.90245      1.3 1.096e+04 5.514e-10
 87.91335     -3.9 1.234e+04 9.312e-10
 87.92319     -2.1 1.144e+04 6.037e-10
 87.94180     -5.7 1.200e+04 9.939e-10
 87.96147     -6.3 1.200e+04 1.355e-09
 87.98114     -6.6 1.187e+04 1.492e-09
 88.00081     -7.4 1.192e+04 1.488e-09
 88.02048    -12.0 1.369e+04 1.870e-09
 88.03519    -18.6 1.557e+04 2.661e-09
 88.04497    -19.9 1.609e+04 2.863e-09
 88.05481    -25.6 1.743e+04 4.640e-09
 88.06464    -30.4 1.918e+04 7.701e-09
 88.07448    -34.8 1.998e+04 1.438e-08
 88.08431    -37.8 2.047e+04 2.360e-08
 88.09415    -39.7 2.109e+04 3.401e-08
 88.10399    -41.1 2.204e+04 3.935e-08
 88.10905    -42.8 2.278e+04 4.089e-08
 88.11397    -41.2 2.201e+04 3.062e-08
 88.12366    -44.2 2.392e+04 2.393e-08
 88.13349    -49.3 2.252e+04 1.464e-08
 88.14333    -54.2 2.147e+04 9.355e-09
 88.15051    -58.0 2.141e+04 6.137e-09
 88.15543    -54.8 2.194e+04 7.098e-09
 88.16300    -59.1 2.001e+04 4.284e-09
 88.17780    -63.2 1.615e+04 2.703e-09
 88.19752    -68.4 1.257e+04 1.423e-09
 88.21719    -69.6 1.091e+04 1.056e-09
 88.23686    -69.5 1.046e+04 8.996e-10
 88.25654    -69.0 1.020e+04 7.973e-10
 88.27621    -68.4 1.007e+04 7.319e-10
 88.29511    -67.7 9.990e+03 6.786e-10
 88.30494    -65.4 9.861e+03 7.107e-10
 88.31555    -64.7 9.779e+03 6.479e-10
 88.33522    -64.1 9.672e+03 5.935e-10
 88.35489    -63.6 9.517e+03 5.426e-10
 88.37456    -62.9 9.316e+03 4.954e-10
 88.39423    -61.9 9.105e+03 4.502e-10
 88.42384    -59.9 8.980e+03 4.017e-10
 88.45030    -58.1 8.810e+03 3.807e-10
 88.46998    -57.0 8.938e+03 4.084e-10
 88.50262    -55.5 8.729e+03 3.692e-10
 88.54196    -53.6 8.529e+03 3.300e-10
 88.58130    -51.7 8.461e+03 3.174e-10
 88.62065    -49.9 8.542e+03 3.273e-10
 88.65999    -48.4 8.856e+03 3.872e-10
 88.68689    -46.6 9.095e+03 4.521e-10
 88.70656    -44.7 9.271e+03 4.714e-10
 88.73867    -43.1 9.584e+03 5.682e-10
 88.77802    -41.5 9.795e+03 6.288e-10
 88.81736    -40.0 9.909e+03 6.433e-10
 88.85670    -38.7 9.957e+03 6.403e-10
 88.89604    -37.6 9.934e+03 6.190e-10
 88.93539    -36.5 9.803e+03 5.700e-10
 88.97473    -35.1 9.528e+03 4.810e-10
 89.01407    -33.6 9.211e+03 3.686e-10
 89.04931    -32.1 8.846e+03 2.646e-10
 89.06898    -32.4 8.913e+03 2.767e-10
 89.07848    -30.9 8.590e+03 2.054e-10
 89.09815    -30.6 8.572e+03 1.901e-10
 89.13210    -28.7 8.450e+03 1.740e-10
 89.17144    -26.8 8.351e+03 1.450e-10
 89.21078    -25.0 8.297e+03 1.122e-10
 89.25012    -23.8 8.274e+03 9.293e-11
 89.28947    -23.0 8.285e+03 8.890e-11
 89.32881    -22.7 8.570e+03 1.067e-10
 89.36815    -22.5 9.034e+03 1.825e-10
 89.40749    -21.7 9.626e+03 3.204e-10
 89.44684    -20.8 1.011e+04 4.801e-10
 89.47007    -20.1 1.031e+04 5.982e-10
 89.48974    -18.9 9.939e+03 4.376e-10
 89.52552    -18.3 9.991e+03 4.960e-10
 89.56486    -17.6 1.002e+04 5.292e-10
 89.60420    -16.9 1.000e+04 5.248e-10
 89.64355    -16.6 1.002e+04 4.956e-10
 89.66798    -16.5 9.973e+03 4.672e-10
 89.68765    -16.1 9.483e+03 3.209e-10
 89.72223    -15.6 9.503e+03 3.340e-10
 89.76157    -14.8 9.543e+03 3.656e-10
 89.80092    -14.0 9.664e+03 4.122e-10
 89.84026    -13.0 9.863e+03 4.783e-10
 89.86166    -11.9 1.009e+04 5.620e-10
 89.88133    -11.0 1.040e+04 7.060e-10
 89.91894     -9.7 1.054e+04 7.666e-10
 89.95829     -8.2 1.052e+04 7.456e-10
 89.99763     -6.7 1.041e+04 6.345e-10
 90.03697     -5.7 1.021e+04 5.001e-10
 90.07631     -4.8 1.018e+04 4.492e-10
 90.10572     -4.1 1.033e+04 5.200e-10
 90.12530     -4.0 1.029e+04 5.292e-10
 90.14497     -3.4 1.040e+04 6.418e-10
 90.16464     -2.7 1.033e+04 6.983e-10
 90.18431     -0.8 1.056e+04 8.060e-10
 90.20398      0.3 1.053e+04 7.969e-10
 90.22365      1.8 1.055e+04 7.810e-10
 90.24322      2.7 1.041e+04 7.249e-10
 90.25305      3.5 1.038e+04 7.234e-10
 90.26689      5.2 1.018e+04 5.825e-10
 90.28666      5.3 1.050e+04 6.718e-10
 90.31237      6.6 1.028e+04 5.849e-10
 90.35171      8.4 1.028e+04 6.408e-10
 90.39105     11.2 1.042e+04 7.614e-10
 90.43039     13.9 1.055e+04 8.310e-10
 90.45980     15.5 1.077e+04 8.859e-10
 90.47938     16.5 1.104e+04 9.883e-10
 90.49905     17.3 1.121e+04 1.070e-09
 90.51872     18.5 1.143e+04 1.199e-09
 90.53839     19.0 1.217e+04 1.485e-09
 90.55806     18.8 1.309e+04 1.930e-09
 90.57613     18.4 1.375e+04 2.518e-09
 90.58596     18.4 1.381e+04 2.715e-09
 90.59740     18.7 1.419e+04 3.407e-09
 90.61707     19.6 1.438e+04 4.035e-09
 90.63481     20.4 1.440e+04 4.159e-09
 90.64464     21.3 1.499e+04 5.680e-09
 90.65642     22.8 1.474e+04 5.192e-09
 90.67609     23.8 1.447e+04 4.353e-09
 90.69576     24.0 1.407e+04 3.410e-09
 90.71543     23.7 1.377e+04 2.693e-09
 90.73510     23.0 1.345e+04 2.210e-09
 90.75477     22.5 1.307e+04 1.960e-09
 90.77444     22.2 1.293e+04 1.913e-09
 90.79411     22.4 1.285e+04 1.895e-09
 90.81379     22.9 1.240e+04 1.780e-09
 90.83060     22.0 1.317e+04 1.442e-09
 90.84044     22.4 1.321e+04 2.238e-09
 90.85313     13.7 2.166e+04 2.886e-09
 90.87280      3.9 2.516e+04 7.173e-09
 90.88546      0.5 2.049e+04 1.489e-08
 90.89530      1.8 2.071e+04 7.053e-09
 90.91214     -0.4 1.739e+04 1.083e-08
 90.93181      0.1 1.672e+04 1.011e-08
 90.95148      0.9 1.712e+04 6.240e-09
 90.97115     -0.6 1.808e+04 2.128e-09
 90.99083     -9.9 1.589e+04 4.564e-10
 91.01050    -19.0 9.725e+03 1.724e-10
 91.02640    -20.2 8.966e+03 1.505e-10
 91.03623    -19.3 8.766e+03 1.371e-10
 91.04984    -19.4 8.689e+03 1.306e-10
 91.06951    -19.4 8.677e+03 1.315e-10
 91.08918    -19.0 8.769e+03 1.407e-10
 91.10885    -18.8 8.831e+03 1.522e-10
 91.12852    -18.0 9.068e+03 1.753e-10
 91.14820    -17.7 9.147e+03 1.893e-10
 91.16787    -17.0 9.439e+03 2.272e-10
 91.18497    -16.7 9.750e+03 2.630e-10
 91.19480    -18.6 1.211e+04 6.980e-10
 91.20721    -20.6 1.445e+04 1.253e-09
 91.22219    -23.3 1.611e+04 2.481e-09
 91.23203    -21.0 1.585e+04 2.018e-09
 91.24655    -22.8 1.697e+04 4.044e-09
 91.26622    -22.9 1.738e+04 7.183e-09
 91.28589    -22.1 1.757e+04 1.026e-08
 91.30556    -20.6 1.752e+04 1.194e-08
 91.32524    -19.4 1.714e+04 9.853e-09
 91.34491    -18.7 1.691e+04 7.408e-09
 91.36458    -18.8 1.644e+04 4.457e-09
 91.38425    -20.5 1.555e+04 2.287e-09
 91.40392    -22.9 1.366e+04 1.173e-09
 91.41799    -24.5 1.183e+04 7.905e-10
 91.42782    -23.1 1.253e+04 9.451e-10
 91.44326    -24.1 1.115e+04 7.351e-10
 91.46293    -23.3 1.088e+04 7.103e-10
 91.48261    -22.2 1.106e+04 7.596e-10
 91.49430    -22.0 1.088e+04 7.437e-10
 91.50424    -22.4 1.011e+04 4.740e-10
 91.53198    -21.8 1.038e+04 4.886e-10
 91.57132    -22.3 1.083e+04 5.622e-10
 91.61066    -23.6 1.199e+04 9.559e-10
 91.64007    -23.3 1.253e+04 1.394e-09
 91.65965    -23.4 1.288e+04 1.744e-09
 91.67932    -23.2 1.311e+04 1.988e-09
 91.69899    -22.9 1.321e+04 2.038e-09
 91.71866    -22.8 1.325e+04 1.899e-09
 91.73833    -22.9 1.316e+04 1.653e-09
 91.75800    -23.2 1.299e+04 1.473e-09
 91.77767    -23.3 1.285e+04 1.391e-09
 91.79380    -23.0 1.282e+04 1.372e-09
 91.80364    -23.2 1.336e+04 1.797e-09
 91.80958    -22.5 1.334e+04 1.794e-09
 91.81941    -21.8 1.335e+04 1.811e-09
 91.83669    -21.1 1.344e+04 1.827e-09
 91.85636    -20.5 1.350e+04 1.855e-09
 91.87603    -19.8 1.356e+04 1.924e-09
 91.89570    -19.3 1.384e+04 2.176e-09
 91.91537    -19.0 1.440e+04 2.658e-09
 91.93504    -19.0 1.546e+04 3.659e-09
 91.95471    -19.9 1.697e+04 5.839e-09
 91.97438    -21.2 1.862e+04 1.048e-08
 91.98909    -21.8 1.953e+04 1.589e-08
 91.99888    -22.2 2.018e+04 2.360e-08
 92.00527    -22.3 2.039e+04 3.128e-08
 92.01019    -21.7 1.987e+04 2.478e-08
 92.01855    -21.6 2.029e+04 3.013e-08
 92.02838    -21.8 2.088e+04 3.521e-08
 92.03822    -22.3 2.164e+04 3.850e-08
 92.04805    -23.0 2.217e+04 3.943e-08
 92.05789    -24.3 2.326e+04 3.373e-08
 92.06772    -26.0 2.391e+04 2.552e-08
 92.07756    -28.3 2.384e+04 1.795e-08
 92.08740    -31.2 2.277e+04 1.361e-08
 92.09723    -34.4 2.116e+04 1.107e-08
 92.10309    -37.3 1.949e+04 1.020e-08
 92.11298    -37.1 1.858e+04 4.509e-09
 92.13175    -38.0 1.743e+04 5.062e-09
 92.15142    -37.9 1.732e+04 6.371e-09
 92.17110    -37.2 1.756e+04 7.982e-09
 92.19077    -36.5 1.795e+04 1.010e-08
 92.20117    -36.2 1.843e+04 1.247e-08
 92.21100    -36.3 1.919e+04 1.437e-08
 92.23011    -36.9 1.995e+04 2.018e-08
 92.24481    -37.3 2.015e+04 2.395e-08
 92.25279    -37.9 2.034e+04 3.094e-08
 92.25771    -38.0 2.046e+04 3.035e-08
 92.26444    -38.3 2.059e+04 4.127e-08
 92.27427    -38.2 2.060e+04 5.327e-08
 92.28411    -38.3 2.058e+04 6.594e-08
 92.29394    -38.2 2.069e+04 7.612e-08
 92.29897    -38.1 2.073e+04 8.064e-08
 92.30388    -38.3 2.158e+04 1.188e-07
 92.31361    -38.0 2.111e+04 8.437e-08
 92.32345    -37.3 2.068e+04 5.892e-08
 92.33329    -36.8 2.057e+04 4.312e-08
 92.34312    -36.7 2.051e+04 3.111e-08
 92.35296    -37.2 2.020e+04 2.204e-08
 92.36776    -37.8 1.957e+04 1.512e-08
 92.38712    -38.0 1.893e+04 1.176e-08
 92.39696    -39.2 1.832e+04 9.620e-09
 92.40264    -40.1 1.745e+04 7.338e-09
 92.41248    -40.1 1.723e+04 7.359e-09
 92.42682    -41.0 1.655e+04 6.188e-09
 92.44649    -41.8 1.623e+04 5.563e-09
 92.46616    -42.8 1.631e+04 5.203e-09
 92.48583    -44.5 1.648e+04 4.741e-09
 92.50551    -47.0 1.585e+04 4.034e-09
 92.52518    -49.5 1.446e+04 3.162e-09
 92.54485    -51.3 1.315e+04 2.229e-09
 92.56452    -52.2 1.215e+04 1.431e-09
 92.58292    -52.8 1.143e+04 8.652e-10
 92.59276    -52.7 1.136e+04 7.656e-10
 92.60386    -53.6 1.075e+04 4.226e-10
 92.62353    -54.8 1.021e+04 2.512e-10
 92.64320    -55.5 9.840e+03 1.818e-10
 92.67281    -55.8 9.609e+03 1.421e-10
 92.70234    -55.9 9.183e+03 8.551e-11
 92.72201    -55.9 8.868e+03 7.111e-11
 92.75159    -56.4 8.814e+03 6.035e-11
 92.79093    -57.4 8.861e+03 5.935e-11
 92.83027    -61.7 1.010e+04 8.954e-11
 92.86962    -66.9 1.185e+04 4.657e-10
 92.89903    -69.9 1.274e+04 1.407e-09
 92.91860    -70.6 1.314e+04 1.979e-09
 92.93827    -71.5 1.341e+04 2.335e-09
 92.95794    -72.1 1.340e+04 2.343e-09
 92.97451    -72.6 1.295e+04 1.789e-09
 92.98434    -72.3 1.301e+04 1.934e-09
 92.99728    -73.0 1.229e+04 1.281e-09
 93.01148    -74.0 1.162e+04 8.650e-10
 93.02132    -71.9 1.192e+04 1.072e-09
 93.03663    -72.5 1.136e+04 7.684e-10
 93.05630    -72.8 1.097e+04 6.054e-10
 93.07597    -72.9 1.069e+04 5.133e-10
 93.09564    -72.7 1.048e+04 4.629e-10
 93.11531    -72.4 1.033e+04 4.419e-10
 93.14492    -72.2 1.025e+04 4.315e-10
 93.18436    -70.6 1.015e+04 4.196e-10
 93.22370    -68.8 1.006e+04 4.157e-10
 93.26304    -66.6 9.959e+03 3.878e-10
 93.30134    -64.6 9.814e+03 3.266e-10
 93.32101    -63.1 9.676e+03 2.947e-10
 93.34172    -61.1 9.524e+03 2.458e-10
 93.36629    -59.2 9.479e+03 2.190e-10
 93.38596    -59.1 9.223e+03 1.640e-10
 93.42041    -57.3 9.229e+03 1.610e-10
 93.45975    -55.8 9.465e+03 1.823e-10
 93.49909    -54.6 9.819e+03 2.743e-10
 93.53844    -53.0 1.021e+04 4.199e-10
 93.56199    -51.8 1.055e+04 5.626e-10
 93.57173    -52.2 1.047e+04 5.320e-10
 93.58742    -51.6 1.067e+04 6.119e-10
 93.61702    -50.6 1.098e+04 7.243e-10
 93.65646    -49.6 1.128e+04 8.075e-10
 93.68587    -49.3 1.124e+04 7.498e-10
 93.70545    -49.1 1.127e+04 7.283e-10
 93.72512    -48.8 1.129e+04 7.061e-10
 93.74479    -48.4 1.124e+04 6.734e-10
 93.75779    -47.8 1.135e+04 6.916e-10
 93.77755    -48.5 1.111e+04 5.992e-10
 93.81383    -47.2 1.087e+04 4.551e-10
 93.85317    -45.6 1.055e+04 3.005e-10
 93.89252    -44.0 1.018e+04 1.874e-10
 93.92002    -42.5 9.853e+03 1.423e-10
 93.93969    -42.0 9.602e+03 1.379e-10
 93.97120    -40.0 9.550e+03 1.267e-10
 94.01054    -37.8 9.545e+03 1.249e-10
 94.04989    -35.6 9.660e+03 1.271e-10
 94.08923    -33.5 9.922e+03 1.440e-10
 94.12857    -31.4 1.014e+04 1.822e-10
 94.14947    -29.3 1.035e+04 2.435e-10
 94.16914    -29.4 1.024e+04 2.169e-10
 94.20726    -27.2 1.046e+04 2.842e-10
 94.24660    -25.1 1.066e+04 3.533e-10
 94.28594    -23.1 1.081e+04 4.076e-10
 94.32528    -21.1 1.089e+04 4.326e-10
 94.36463    -19.2 1.089e+04 4.276e-10
 94.40397    -17.1 1.083e+04 3.886e-10
 94.44331    -15.0 1.074e+04 3.419e-10
 94.48265    -12.9 1.064e+04 2.982e-10
 94.51902    -10.7 1.057e+04 2.661e-10
 94.53809     -9.8 1.071e+04 2.974e-10
 94.54106    -10.2 1.090e+04 3.752e-10
 94.56134     -8.0 1.085e+04 3.383e-10
 94.60068     -5.8 1.080e+04 3.034e-10
 94.64002     -3.5 1.082e+04 2.843e-10
 94.67936     -1.5 1.099e+04 2.863e-10
 94.71871     -0.5 1.139e+04 3.405e-10
 94.75805     -0.4 1.181e+04 5.476e-10
 94.79739      0.7 1.253e+04 1.021e-09
 94.83673      1.7 1.318e+04 1.345e-09
 94.87608      2.0 1.332e+04 1.346e-09
 94.91298      1.7 1.304e+04 1.140e-09
 94.93265      0.7 1.266e+04 1.045e-09
 94.95476      1.0 1.250e+04 1.008e-09
 94.98417      2.1 1.275e+04 1.180e-09
 95.00374      2.3 1.278e+04 1.259e-09
 95.02341      2.9 1.283e+04 1.444e-09
 95.04308      3.7 1.286e+04 1.567e-09
 95.06276      4.8 1.297e+04 1.669e-09
 95.08243      5.6 1.292e+04 1.658e-09
 95.10210      6.8 1.276e+04 1.538e-09
 95.11841      7.7 1.271e+04 1.386e-09
 95.12825      7.3 1.253e+04 1.265e-09
 95.13760      8.1 1.233e+04 1.089e-09
 95.15737      9.1 1.279e+04 1.341e-09
 95.19081     10.5 1.242e+04 1.054e-09
 95.23016     12.0 1.212e+04 9.921e-10
 95.26950     14.6 1.197e+04 1.030e-09
 95.30457     17.6 1.178e+04 8.733e-10
 95.32424     17.5 1.183e+04 9.131e-10
 95.34818     19.9 1.159e+04 6.525e-10
 95.38753     21.6 1.144e+04 5.387e-10
 95.42687     23.5 1.139e+04 5.402e-10
 95.46621     25.6 1.145e+04 6.149e-10
 95.50555     27.9 1.159e+04 7.256e-10
 95.54489     30.0 1.172e+04 8.220e-10
 95.58424     31.9 1.184e+04 9.076e-10
 95.62358     33.8 1.195e+04 9.815e-10
 95.66292     35.5 1.206e+04 1.039e-09
 95.69616     36.8 1.225e+04 1.144e-09
 95.71583     35.9 1.203e+04 1.003e-09
 95.73670     37.0 1.248e+04 1.293e-09
 95.75637     37.6 1.240e+04 1.250e-09
 95.77102     37.7 1.285e+04 1.564e-09
 95.79059     37.9 1.312e+04 1.850e-09
 95.81026     38.1 1.348e+04 2.231e-09
 95.82993     37.9 1.408e+04 2.784e-09
 95.84960     37.4 1.469e+04 3.484e-09
 95.86927     37.2 1.516e+04 4.278e-09
 95.88894     37.1 1.513e+04 4.485e-09
 95.90159     37.4 1.485e+04 4.237e-09
 95.91143     36.9 1.470e+04 4.161e-09
 95.92829     37.2 1.422e+04 3.315e-09
 95.94796     37.1 1.364e+04 2.426e-09
 95.96763     36.7 1.308e+04 1.788e-09
 95.98730     36.2 1.255e+04 1.346e-09
 96.01690     36.2 1.204e+04 1.016e-09
 96.05634     36.1 1.148e+04 8.562e-10
 96.08775     36.8 1.156e+04 9.202e-10
 96.10742     35.2 1.135e+04 8.510e-10
 96.13503     36.3 1.154e+04 1.009e-09
 96.17437     37.6 1.149e+04 1.054e-09
 96.21371     39.1 1.118e+04 9.185e-10
 96.25306     40.6 1.065e+04 6.924e-10
 96.29240     42.0 1.010e+04 5.120e-10
 96.33174     43.6 9.587e+03 3.704e-10
 96.35537     45.5 9.235e+03 2.849e-10
 96.37504     46.6 9.241e+03 2.931e-10
 96.41043     48.6 8.936e+03 2.138e-10
 96.44977     50.5 8.714e+03 1.507e-10
 96.47934     52.3 8.527e+03 1.147e-10
 96.49901     52.1 8.309e+03 7.948e-11
 96.52845     54.1 8.234e+03 7.940e-11
 96.56779     56.4 8.243e+03 8.504e-11
 96.60714     58.9 8.290e+03 1.001e-10
 96.64648     61.5 8.376e+03 1.252e-10
 96.68582     64.1 8.502e+03 1.610e-10
 96.72516     66.9 8.678e+03 2.090e-10
 96.76451     69.6 8.912e+03 2.687e-10
 96.80385     72.3 9.188e+03 3.369e-10
 96.84319     74.8 9.456e+03 4.078e-10
 96.87093     77.1 9.714e+03 4.899e-10
 96.89060     77.0 9.550e+03 4.659e-10
 96.92188     79.1 9.818e+03 5.539e-10
 96.95437     81.0 1.006e+04 6.437e-10
 96.97405     81.6 9.675e+03 4.864e-10
 97.00056     83.5 9.862e+03 5.424e-10
 97.03990     85.1 1.010e+04 6.096e-10
 97.07924     86.6 1.029e+04 6.646e-10
 97.11859     88.0 1.031e+04 6.790e-10
 97.14800     88.4 1.022e+04 6.670e-10
 97.16757     89.1 1.017e+04 6.664e-10
 97.18724     89.9 1.012e+04 6.524e-10
 97.20691     90.7 1.006e+04 6.325e-10
 97.22658     91.5 1.001e+04 6.223e-10
 97.24625     92.4 9.974e+03 6.151e-10
 97.26232     93.4 9.954e+03 6.133e-10
 97.26975     93.3 9.777e+03 5.488e-10
 97.27335     94.0 9.910e+03 6.098e-10
 97.28560     95.0 9.973e+03 6.316e-10
 97.30527     96.1 1.004e+04 6.475e-10
 97.32494     97.1 1.009e+04 6.482e-10
 97.34461     97.9 1.009e+04 6.469e-10
 97.36428     98.8 1.008e+04 6.480e-10
 97.38395     99.8 1.008e+04 6.576e-10
 97.40362    101.0 1.013e+04 6.759e-10
 97.42329    102.0 1.020e+04 6.989e-10
 97.44297    103.2 1.031e+04 7.281e-10
 97.45812    104.3 1.047e+04 7.678e-10
 97.46795    104.3 1.007e+04 6.230e-10
 97.48231    105.3 1.019e+04 6.387e-10
 97.50198    106.4 1.031e+04 6.577e-10
 97.52165    107.4 1.044e+04 6.812e-10
 97.54132    108.3 1.057e+04 7.119e-10
 97.56099    109.3 1.072e+04 7.542e-10
 97.57285    110.4 1.089e+04 8.124e-10
 97.58269    110.4 1.127e+04 9.512e-10
 97.60034    111.4 1.147e+04 1.036e-09
 97.62001    112.5 1.167e+04 1.130e-09
 97.63968    113.6 1.186e+04 1.229e-09
 97.65391    114.7 1.206e+04 1.341e-09
 97.66375    113.7 1.162e+04 1.119e-09
 97.67902    114.1 1.234e+04 1.410e-09
 97.69869    113.9 1.329e+04 1.934e-09
 97.71836    113.4 1.435e+04 2.814e-09
 97.73803    113.0 1.543e+04 4.169e-09
 97.75770    112.9 1.655e+04 6.141e-09
 97.77738    112.6 1.757e+04 8.813e-09
 97.79705    112.4 1.810e+04 1.087e-08
 97.81175    111.6 1.861e+04 1.239e-08
 97.82154    110.7 1.904e+04 1.322e-08
 97.83137    109.5 1.974e+04 1.407e-08
 97.84121    107.5 2.101e+04 1.529e-08
 97.84961    104.3 2.306e+04 1.697e-08
 97.85453     98.6 2.493e+04 1.640e-08
 97.86088     93.1 2.640e+04 1.741e-08
 97.87072     86.6 2.666e+04 1.973e-08
 97.87718     80.4 2.613e+04 2.004e-08
 97.88209     82.4 2.691e+04 2.129e-08
 97.89039     76.7 2.549e+04 2.091e-08
 97.90022     71.8 2.375e+04 1.859e-08
 97.91006     67.3 2.212e+04 1.493e-08
 97.91989     63.0 2.059e+04 1.079e-08
 97.92973     58.3 1.935e+04 6.820e-09
 97.93957     54.0 1.763e+04 4.095e-09
 97.95437     47.6 1.621e+04 2.348e-09
 97.97409     38.0 1.344e+04 1.043e-09
 97.99376     29.2 1.089e+04 6.665e-10
 98.01343     24.1 1.084e+04 6.779e-10
 98.03310     19.2 1.132e+04 8.010e-10
 98.04550     13.9 1.209e+04 1.105e-09
 98.05534     13.1 1.203e+04 1.083e-09
 98.07244      8.6 1.286e+04 1.587e-09
 98.09211      2.7 1.464e+04 2.617e-09
 98.11179     -5.4 1.807e+04 5.070e-09
 98.13146    -13.6 1.977e+04 9.375e-09
 98.15113    -21.3 1.990e+04 1.315e-08
 98.17080    -27.2 2.130e+04 1.489e-08
 98.18169    -37.3 2.457e+04 1.384e-08
 98.19153    -30.3 2.180e+04 1.263e-08
 98.21014    -43.1 2.395e+04 9.072e-09
 98.22981    -57.8 2.745e+04 1.029e-08
 98.24129    -68.3 2.512e+04 1.624e-08
 98.25113    -61.9 2.584e+04 9.595e-09
 98.26915    -70.9 2.297e+04 1.275e-08
 98.28883    -75.9 2.132e+04 1.405e-08
 98.30850    -78.0 1.998e+04 1.443e-08
 98.32817    -79.5 1.875e+04 1.107e-08
 98.34784    -81.1 1.754e+04 6.316e-09
 98.36751    -83.4 1.571e+04 3.094e-09
 98.38718    -85.9 1.330e+04 1.532e-09
 98.40685    -87.8 1.166e+04 9.347e-10
 98.42652    -88.8 1.122e+04 7.306e-10
 98.43709    -89.2 1.111e+04 6.511e-10
 98.44692    -87.8 1.099e+04 6.304e-10
 98.46587    -88.0 1.088e+04 5.793e-10
 98.48119    -88.2 1.070e+04 5.483e-10
 98.49103    -87.2 1.093e+04 6.007e-10
 98.50521    -87.3 1.071e+04 5.559e-10
 98.52488    -87.4 1.059e+04 5.241e-10
 98.54455    -87.5 1.060e+04 5.003e-10
 98.56422    -87.8 1.063e+04 4.795e-10
 98.58389    -88.4 1.065e+04 4.742e-10
 98.60356    -88.9 1.065e+04 4.748e-10
 98.62305    -89.4 1.060e+04 4.755e-10
 98.63288    -88.0 1.058e+04 4.251e-10
 98.64291    -88.4 1.044e+04 4.220e-10
 98.66258    -88.7 1.020e+04 3.976e-10
 98.69218    -89.0 1.001e+04 3.601e-10
 98.73162    -88.9 9.891e+03 3.230e-10
 98.77096    -89.5 9.864e+03 3.195e-10
 98.80037    -90.2 1.031e+04 3.911e-10
 98.81884    -90.5 1.052e+04 5.915e-10
 98.82868    -89.0 1.048e+04 4.906e-10
 98.83962    -89.2 1.085e+04 6.714e-10
 98.85929    -89.2 1.117e+04 8.586e-10
 98.87896    -89.2 1.150e+04 1.040e-09
 98.89863    -89.4 1.188e+04 1.210e-09
 98.91830    -90.1 1.224e+04 1.371e-09
 98.93797    -91.1 1.253e+04 1.521e-09
 98.95765    -92.1 1.274e+04 1.669e-09
 98.97732    -92.8 1.288e+04 1.805e-09
 98.99699    -93.5 1.298e+04 1.898e-09
 99.01464    -94.0 1.304e+04 1.933e-09
 99.02447    -92.8 1.314e+04 2.084e-09
 99.03633    -93.2 1.331e+04 2.191e-09
 99.05600    -93.7 1.340e+04 2.217e-09
 99.07567    -94.3 1.349e+04 2.110e-09
 99.09003    -95.0 1.348e+04 1.886e-09
 99.09987    -95.9 1.374e+04 1.936e-09
 99.11501    -97.0 1.354e+04 1.676e-09
 99.13469    -97.8 1.322e+04 1.465e-09
 99.15436    -98.3 1.284e+04 1.300e-09
 99.17403    -98.6 1.250e+04 1.163e-09
 99.19370    -98.6 1.223e+04 1.042e-09
 99.21043    -98.7 1.208e+04 9.391e-10
 99.22027    -97.5 1.226e+04 9.579e-10
 99.23304    -97.7 1.212e+04 8.841e-10
 99.25271    -97.9 1.209e+04 8.664e-10
 99.27238    -98.1 1.212e+04 8.712e-10
 99.29206    -98.4 1.232e+04 9.206e-10
 99.31173    -98.7 1.252e+04 9.568e-10
 99.33140    -99.1 1.256e+04 9.614e-10
 99.35107    -99.3 1.250e+04 9.252e-10
 99.37074    -99.1 1.238e+04 8.789e-10
 99.38963    -98.3 1.235e+04 8.402e-10
 99.40940    -99.4 1.201e+04 7.024e-10
 99.43978    -99.3 1.153e+04 4.905e-10
 99.47913    -99.4 1.108e+04 3.219e-10
 99.51847    -99.5 1.076e+04 2.135e-10
 99.55781    -99.9 1.041e+04 1.498e-10
 99.59238   -100.3 1.003e+04 1.249e-10
 99.61205   -100.6 1.028e+04 1.731e-10
 99.63650   -101.0 1.020e+04 1.776e-10
 99.67584   -101.2 1.026e+04 1.901e-10
 99.71518   -101.2 1.027e+04 1.927e-10
 99.75452   -101.0 1.023e+04 1.888e-10
 99.79386   -100.7 1.019e+04 1.849e-10
 99.83321   -100.2 1.019e+04 1.831e-10
 99.87255    -99.7 1.027e+04 1.961e-10
 99.91189    -99.3 1.035e+04 2.142e-10
 99.95123    -99.0 1.043e+04 2.283e-10
 99.98397    -99.1 1.062e+04 2.509e-10
100.00180   -100.7 1.158e+04 4.095e-10
