# Columns:
#   distance along LOS (in CHIMPs)
#   peculiar velocity  (in km/s)
#   temperature (K)
#   HI number density
# pos=(253.841,74.6744,200.665), angles=(1.6718,4.62245)
  0.00395     69.7 4.212e+04 5.741e-09
  0.01282     49.6 4.090e+04 6.221e-09
  0.02267     36.6 4.231e+04 6.175e-09
  0.03253     16.9 4.539e+04 7.220e-09
  0.04239      5.8 4.169e+04 7.925e-09
  0.04829     -6.2 3.696e+04 1.153e-08
  0.05322     -1.5 3.871e+04 1.037e-08
  0.05999     -7.9 3.370e+04 1.431e-08
  0.06491    -19.0 3.410e+04 2.552e-08
  0.07195    -23.1 3.534e+04 2.855e-08
  0.08181    -25.8 3.734e+04 2.468e-08
  0.09166    -28.0 3.729e+04 2.102e-08
  0.10152    -30.3 3.834e+04 1.716e-08
  0.11137    -30.8 3.884e+04 1.187e-08
  0.12123    -31.7 3.680e+04 9.901e-09
  0.13606    -40.8 2.883e+04 7.196e-09
  0.15231    -38.3 2.434e+04 6.279e-09
  0.16216    -37.7 2.404e+04 5.008e-09
  0.17553    -34.1 2.227e+04 4.361e-09
  0.19524    -29.9 2.190e+04 3.900e-09
  0.21495    -25.9 2.121e+04 3.490e-09
  0.23467    -22.3 2.029e+04 3.096e-09
  0.25056    -18.9 1.936e+04 2.775e-09
  0.26041    -22.9 1.879e+04 2.289e-09
  0.27409    -18.8 1.836e+04 2.207e-09
  0.29380    -14.8 1.790e+04 2.091e-09
  0.31351    -10.9 1.748e+04 1.946e-09
  0.33322     -7.1 1.711e+04 1.798e-09
  0.35293     -3.5 1.680e+04 1.673e-09
  0.37000     -0.2 1.660e+04 1.565e-09
  0.37985     -1.6 1.620e+04 1.376e-09
  0.39235      1.1 1.598e+04 1.240e-09
  0.41206      3.3 1.581e+04 1.123e-09
  0.43177      4.8 1.580e+04 1.056e-09
  0.44596      5.8 1.613e+04 1.081e-09
  0.45581      5.7 1.471e+04 7.261e-10
  0.47120      6.5 1.499e+04 7.562e-10
  0.49091      6.3 1.568e+04 8.513e-10
  0.51062      5.4 1.658e+04 1.042e-09
  0.53033      3.7 1.704e+04 1.273e-09
  0.55004      1.4 1.717e+04 1.458e-09
  0.56975     -2.5 1.732e+04 1.718e-09
  0.58769     -7.6 1.787e+04 2.023e-09
  0.59754     -8.1 1.674e+04 1.538e-09
  0.60917    -13.2 1.666e+04 1.645e-09
  0.62888    -18.0 1.621e+04 1.574e-09
  0.64136    -22.5 1.547e+04 1.371e-09
  0.65121    -23.6 1.531e+04 1.198e-09
  0.66831    -27.3 1.464e+04 1.055e-09
  0.68802    -29.4 1.397e+04 8.895e-10
  0.70773    -30.8 1.368e+04 7.754e-10
  0.72744    -33.0 1.413e+04 7.712e-10
  0.74715    -38.8 1.662e+04 1.043e-09
  0.76686    -45.1 1.863e+04 1.940e-09
  0.78160    -45.8 1.897e+04 2.919e-09
  0.79140    -46.4 1.944e+04 3.323e-09
  0.80126    -48.5 2.008e+04 6.320e-09
  0.81021    -49.1 2.063e+04 8.798e-09
  0.81514    -47.0 2.021e+04 6.525e-09
  0.82097    -47.0 2.103e+04 1.097e-08
  0.83082    -47.7 2.143e+04 1.355e-08
  0.83666    -47.0 2.257e+04 1.847e-08
  0.84159    -48.2 2.389e+04 2.272e-08
  0.85054    -49.5 2.519e+04 2.607e-08
  0.86039    -50.5 2.647e+04 2.833e-08
  0.87025    -51.6 2.764e+04 2.878e-08
  0.88010    -53.9 2.843e+04 2.331e-08
  0.88996    -54.7 2.962e+04 2.044e-08
  0.89981    -58.1 2.820e+04 1.650e-08
  0.90967    -59.7 2.811e+04 1.535e-08
  0.91905    -60.8 2.620e+04 1.319e-08
  0.92398    -57.9 2.555e+04 1.211e-08
  0.92938    -58.9 2.438e+04 1.114e-08
  0.94421    -61.8 2.400e+04 1.254e-08
  0.96397    -61.6 2.350e+04 1.248e-08
  0.98368    -60.9 2.354e+04 1.284e-08
  1.00339    -60.2 2.393e+04 1.329e-08
  1.02231    -59.4 2.484e+04 1.318e-08
  1.03213    -62.2 2.532e+04 1.125e-08
  1.04278    -58.2 2.467e+04 1.152e-08
  1.06253    -57.7 2.475e+04 1.111e-08
  1.08224    -56.9 2.533e+04 1.013e-08
  1.10195    -55.9 2.619e+04 8.762e-09
  1.12166    -54.9 2.737e+04 7.116e-09
  1.14137    -54.4 2.859e+04 5.327e-09
  1.16108    -54.5 2.905e+04 3.816e-09
  1.18079    -54.9 2.798e+04 2.865e-09
  1.20050    -55.2 2.541e+04 2.437e-09
  1.21771    -55.0 2.257e+04 2.312e-09
  1.22756    -58.4 1.563e+04 2.618e-09
  1.23993    -57.1 1.567e+04 2.825e-09
  1.25062    -56.0 1.598e+04 3.005e-09
  1.26047    -53.2 1.756e+04 2.949e-09
  1.27935    -52.1 1.690e+04 3.106e-09
  1.29906    -50.8 1.648e+04 3.221e-09
  1.31877    -49.5 1.640e+04 3.315e-09
  1.33848    -48.5 1.651e+04 3.381e-09
  1.35819    -47.8 1.673e+04 3.427e-09
  1.37790    -47.5 1.693e+04 3.386e-09
  1.39761    -47.6 1.720e+04 3.355e-09
  1.41311    -49.4 1.738e+04 3.503e-09
  1.42296    -54.5 2.224e+04 4.305e-09
  1.43206    -58.1 2.535e+04 4.581e-09
  1.44187    -61.8 2.666e+04 6.739e-09
  1.45172    -64.0 2.770e+04 8.214e-09
  1.46158    -66.5 2.793e+04 1.161e-08
  1.46821    -68.5 2.758e+04 1.654e-08
  1.47314    -68.7 2.713e+04 2.045e-08
  1.48129    -70.4 2.628e+04 2.776e-08
  1.49114    -71.8 2.551e+04 3.362e-08
  1.50100    -73.1 2.515e+04 3.547e-08
  1.51071    -74.8 2.503e+04 3.400e-08
  1.51564    -77.0 2.504e+04 3.948e-08
  1.52071    -79.1 2.509e+04 3.189e-08
  1.53056    -81.2 2.492e+04 2.655e-08
  1.54042    -83.1 2.457e+04 2.279e-08
  1.55028    -84.8 2.399e+04 2.004e-08
  1.56013    -85.9 2.361e+04 1.773e-08
  1.57496    -87.3 2.331e+04 1.578e-08
  1.59472    -90.0 2.240e+04 1.341e-08
  1.60851    -91.6 2.224e+04 1.300e-08
  1.61837    -95.2 2.004e+04 8.107e-09
  1.63414    -97.1 2.011e+04 8.331e-09
  1.65386    -99.3 2.037e+04 9.185e-09
  1.66859   -101.1 2.066e+04 9.962e-09
  1.67840   -102.0 2.053e+04 1.001e-08
  1.68590   -103.3 2.017e+04 1.004e-08
  1.69083   -104.7 2.004e+04 1.004e-08
  1.69811   -105.5 1.963e+04 9.452e-09
  1.70611   -106.4 1.898e+04 8.511e-09
  1.71104   -106.7 1.836e+04 7.184e-09
  1.71782   -107.0 1.806e+04 6.331e-09
  1.72767   -108.0 1.791e+04 5.348e-09
  1.73753   -109.7 1.811e+04 4.685e-09
  1.74739   -112.1 1.827e+04 4.213e-09
  1.75724   -114.0 1.850e+04 4.099e-09
  1.77207   -120.0 1.869e+04 4.005e-09
  1.79183   -127.1 1.809e+04 3.962e-09
  1.80391   -132.4 1.738e+04 4.057e-09
  1.81377   -131.6 1.639e+04 2.890e-09
  1.83125   -133.9 1.594e+04 3.255e-09
  1.85097   -134.9 1.583e+04 3.395e-09
  1.87068   -135.3 1.532e+04 3.089e-09
  1.89039   -135.6 1.448e+04 2.244e-09
  1.90369   -136.0 1.342e+04 1.421e-09
  1.91354   -136.4 1.365e+04 1.549e-09
  1.92981   -137.1 1.240e+04 9.394e-10
  1.94952   -137.3 1.141e+04 6.178e-10
  1.96923   -137.2 1.090e+04 4.557e-10
  1.98894   -136.3 1.079e+04 3.696e-10
  1.99931   -135.5 1.091e+04 3.377e-10
  2.00917   -133.4 1.101e+04 3.734e-10
  2.02836   -133.0 1.115e+04 3.628e-10
  2.04808   -133.4 1.124e+04 3.591e-10
  2.06779   -134.0 1.127e+04 3.592e-10
  2.08750   -135.2 1.107e+04 3.501e-10
  2.10721   -135.8 1.105e+04 3.534e-10
  2.12138   -137.0 1.073e+04 3.744e-10
  2.13123   -137.0 1.076e+04 4.366e-10
  2.14663   -137.9 1.137e+04 6.587e-10
  2.16634   -138.6 1.249e+04 1.118e-09
  2.18486   -138.8 1.402e+04 1.982e-09
  2.19471   -137.3 1.324e+04 1.565e-09
  2.20576   -137.4 1.505e+04 2.913e-09
  2.22547   -137.2 1.677e+04 5.097e-09
  2.24519   -137.0 1.812e+04 7.558e-09
  2.26490   -137.4 1.892e+04 9.419e-09
  2.28461   -138.4 1.915e+04 1.005e-08
  2.30432   -139.5 1.909e+04 9.470e-09
  2.32403   -140.6 1.835e+04 6.906e-09
  2.33907   -141.9 1.720e+04 4.485e-09
  2.34893   -143.3 1.685e+04 3.798e-09
  2.36345   -144.8 1.513e+04 2.485e-09
  2.38026   -145.5 1.390e+04 1.946e-09
  2.39012   -143.9 1.468e+04 2.120e-09
  2.40287   -144.6 1.359e+04 1.669e-09
  2.42258   -144.7 1.306e+04 1.479e-09
  2.44230   -143.9 1.276e+04 1.333e-09
  2.46201   -142.9 1.259e+04 1.215e-09
  2.48172   -141.9 1.245e+04 1.092e-09
  2.50143   -140.9 1.225e+04 9.531e-10
  2.52114   -140.0 1.198e+04 8.100e-10
  2.54085   -139.0 1.168e+04 6.813e-10
  2.55676   -138.1 1.141e+04 5.728e-10
  2.56662   -139.2 1.146e+04 5.628e-10
  2.57566   -138.4 1.133e+04 4.905e-10
  2.58552   -138.2 1.096e+04 4.577e-10
  2.59998   -137.3 1.086e+04 4.052e-10
  2.61969   -136.5 1.092e+04 3.800e-10
  2.63940   -135.9 1.107e+04 3.771e-10
  2.65912   -135.7 1.144e+04 4.032e-10
  2.67883   -135.7 1.191e+04 4.701e-10
  2.69854   -136.1 1.243e+04 5.996e-10
  2.71825   -136.6 1.294e+04 8.203e-10
  2.73796   -136.9 1.341e+04 1.157e-09
  2.75767   -137.0 1.389e+04 1.611e-09
  2.77106   -136.9 1.439e+04 2.173e-09
  2.77799   -136.4 1.307e+04 1.366e-09
  2.78431   -137.3 1.376e+04 1.781e-09
  2.79709   -137.0 1.431e+04 2.301e-09
  2.81680   -136.8 1.490e+04 2.838e-09
  2.83651   -136.8 1.550e+04 3.333e-09
  2.85623   -137.0 1.607e+04 3.748e-09
  2.87594   -137.4 1.657e+04 4.091e-09
  2.89565   -137.9 1.693e+04 4.403e-09
  2.91536   -138.3 1.724e+04 4.719e-09
  2.93507   -138.7 1.743e+04 5.180e-09
  2.95478   -138.7 1.716e+04 5.716e-09
  2.96646   -138.6 1.688e+04 5.999e-09
  2.97632   -136.7 1.781e+04 5.623e-09
  2.99214   -136.4 1.778e+04 6.648e-09
  3.00200   -137.3 1.665e+04 5.778e-09
  3.01391   -136.8 1.668e+04 5.790e-09
  3.03362   -136.3 1.691e+04 5.751e-09
  3.05334   -135.9 1.754e+04 5.613e-09
  3.07305   -135.6 1.832e+04 5.351e-09
  3.08778   -134.9 1.925e+04 5.636e-09
  3.09759   -134.8 2.016e+04 5.594e-09
  3.10582   -137.3 2.214e+04 5.506e-09
  3.11075   -138.1 2.007e+04 3.952e-09
  3.11730   -141.4 2.114e+04 3.820e-09
  3.12715   -146.4 2.283e+04 3.862e-09
  3.13701   -151.7 2.399e+04 4.725e-09
  3.14687   -157.0 2.353e+04 6.549e-09
  3.15672   -161.3 2.230e+04 9.775e-09
  3.16177   -163.8 2.173e+04 1.514e-08
  3.16670   -160.3 2.628e+04 1.111e-08
  3.17643   -163.6 2.343e+04 1.609e-08
  3.18629   -165.5 2.264e+04 2.235e-08
  3.19614   -166.8 2.277e+04 2.901e-08
  3.20600   -168.0 2.295e+04 3.514e-08
  3.21466   -169.6 2.334e+04 3.899e-08
  3.21959   -168.1 2.257e+04 3.882e-08
  3.22571   -169.6 2.256e+04 3.891e-08
  3.23556   -171.4 2.310e+04 3.574e-08
  3.24542   -173.7 2.446e+04 3.322e-08
  3.25454   -176.4 2.583e+04 3.486e-08
  3.25947   -178.6 2.716e+04 5.360e-08
  3.26513   -180.7 2.617e+04 7.050e-08
  3.27499   -182.2 2.479e+04 1.023e-07
  3.28484   -183.2 2.344e+04 1.573e-07
  3.29470   -183.8 2.247e+04 2.374e-07
  3.30455   -184.6 2.195e+04 3.248e-07
  3.31441   -185.9 2.178e+04 3.745e-07
  3.32351   -187.5 2.173e+04 3.822e-07
  3.32844   -187.4 2.204e+04 3.545e-07
  3.33412   -188.4 2.171e+04 3.469e-07
  3.34397   -188.5 2.194e+04 2.975e-07
  3.35224   -188.4 2.206e+04 2.837e-07
  3.35717   -188.2 2.125e+04 2.561e-07
  3.36369   -188.2 2.138e+04 2.467e-07
  3.37354   -189.3 2.183e+04 2.436e-07
  3.38340   -192.0 2.296e+04 2.919e-07
  3.39325   -194.9 2.181e+04 5.726e-07
  3.40311   -197.9 2.086e+04 1.124e-06
  3.41048   -200.3 2.044e+04 1.471e-06
  3.41538   -201.6 2.040e+04 1.657e-06
  3.42031   -204.6 2.019e+04 1.878e-06
  3.42523   -207.2 2.015e+04 1.919e-06
  3.43016   -209.0 2.001e+04 1.721e-06
  3.43477   -209.8 2.044e+04 1.138e-06
  3.43723   -209.1 2.036e+04 1.088e-06
  3.44002   -209.7 2.090e+04 6.778e-07
  3.44494   -210.2 2.159e+04 4.225e-07
  3.44987   -210.9 2.206e+04 2.975e-07
  3.45482   -208.7 2.280e+04 2.026e-07
  3.46224   -209.2 2.466e+04 1.060e-07
  3.47210   -210.2 2.644e+04 6.874e-08
  3.48195   -211.2 2.744e+04 5.524e-08
  3.49181   -212.1 2.782e+04 4.926e-08
  3.50166   -212.9 2.783e+04 4.499e-08
  3.51152   -213.5 2.761e+04 4.077e-08
  3.52137   -213.6 2.726e+04 3.638e-08
  3.53123   -213.5 2.671e+04 3.201e-08
  3.54108   -213.1 2.598e+04 2.787e-08
  3.54613   -212.6 2.514e+04 2.402e-08
  3.54776   -212.2 2.486e+04 2.903e-08
  3.55257   -211.7 2.387e+04 1.219e-08
  3.56577   -211.7 2.210e+04 1.043e-08
  3.58553   -210.5 2.089e+04 9.545e-09
  3.60524   -209.2 1.955e+04 8.414e-09
  3.62495   -208.0 1.885e+04 7.671e-09
  3.64467   -206.9 1.825e+04 7.064e-09
  3.65507   -205.8 1.765e+04 6.520e-09
  3.66493   -206.0 1.672e+04 5.203e-09
  3.68409   -204.7 1.618e+04 4.823e-09
  3.70380   -203.4 1.587e+04 4.663e-09
  3.72351   -202.2 1.580e+04 4.637e-09
  3.73821   -201.1 1.575e+04 4.725e-09
  3.74807   -200.0 1.660e+04 5.111e-09
  3.76293   -198.9 1.656e+04 5.905e-09
  3.78264   -198.1 1.680e+04 7.241e-09
  3.80235   -198.0 1.763e+04 9.022e-09
  3.82206   -198.7 2.041e+04 1.050e-08
  3.83587   -201.0 2.244e+04 1.104e-08
  3.84074   -202.2 2.377e+04 1.125e-08
  3.84661   -206.4 2.942e+04 1.352e-08
  3.85646   -210.6 2.547e+04 6.530e-08
  3.86632   -211.5 2.199e+04 3.029e-07
  3.87266   -211.8 2.076e+04 7.996e-07
  3.87759   -211.8 2.132e+04 3.262e-07
  3.88603   -212.5 2.073e+04 6.343e-07
  3.89588   -213.3 2.067e+04 7.885e-07
  3.90325   -214.3 2.070e+04 1.009e-06
  3.90815   -214.9 2.047e+04 1.111e-06
  3.91308   -215.0 2.039e+04 1.135e-06
  3.91801   -214.8 2.057e+04 9.396e-07
  3.92294   -214.5 2.111e+04 6.608e-07
  3.92704   -214.4 2.171e+04 4.470e-07
  3.92950   -213.1 2.163e+04 4.648e-07
  3.93279   -213.3 2.202e+04 3.577e-07
  3.93593   -213.6 2.224e+04 2.943e-07
  3.93842   -214.4 2.451e+04 1.701e-07
  3.94516   -213.8 2.564e+04 8.840e-08
  3.95502   -213.6 2.681e+04 3.942e-08
  3.96487   -214.4 2.647e+04 1.661e-08
  3.97473   -217.5 2.312e+04 7.328e-09
  3.98151   -220.3 1.770e+04 3.781e-09
  3.98644   -217.3 2.120e+04 5.683e-09
  3.99444   -219.7 1.629e+04 3.130e-09
  4.00429   -220.9 1.369e+04 2.116e-09
  4.01912   -221.3 1.292e+04 1.569e-09
  4.03888   -220.7 1.194e+04 9.982e-10
  4.05860   -220.4 1.069e+04 5.792e-10
  4.07831   -220.7 9.740e+03 3.727e-10
  4.09045   -220.7 9.401e+03 2.886e-10
  4.10031   -219.3 9.621e+03 3.491e-10
  4.11773   -219.1 9.362e+03 2.798e-10
  4.12902   -218.6 9.268e+03 2.494e-10
  4.13887   -217.6 9.135e+03 2.301e-10
  4.15715   -217.0 9.038e+03 2.118e-10
  4.18681   -216.4 8.930e+03 1.949e-10
  4.22633   -215.0 8.641e+03 1.656e-10
  4.26576   -213.3 8.525e+03 1.559e-10
  4.30518   -212.2 8.518e+03 1.545e-10
  4.34460   -211.8 8.542e+03 1.845e-10
  4.38402   -212.3 9.605e+03 3.238e-10
  4.42344   -213.4 1.131e+04 6.671e-10
  4.45291   -213.5 1.211e+04 9.835e-10
  4.47253   -213.8 1.297e+04 1.473e-09
  4.49224   -214.1 1.394e+04 2.214e-09
  4.50996   -214.5 1.504e+04 3.219e-09
  4.51982   -213.8 1.376e+04 2.410e-09
  4.52583   -214.2 1.449e+04 3.025e-09
  4.53569   -213.4 1.530e+04 3.740e-09
  4.55137   -214.4 1.592e+04 4.328e-09
  4.57108   -215.8 1.606e+04 4.442e-09
  4.59079   -216.9 1.601e+04 4.170e-09
  4.61050   -217.7 1.542e+04 3.108e-09
  4.63021   -218.8 1.454e+04 2.176e-09
  4.64993   -219.9 1.374e+04 1.670e-09
  4.66964   -221.0 1.334e+04 1.517e-09
  4.68935   -221.7 1.325e+04 1.495e-09
  4.70536   -222.3 1.319e+04 1.545e-09
  4.71522   -221.0 1.252e+04 1.139e-09
  4.72877   -221.3 1.270e+04 1.257e-09
  4.74353   -221.5 1.291e+04 1.480e-09
  4.75338   -221.4 1.302e+04 1.590e-09
  4.76819   -221.5 1.309e+04 1.771e-09
  4.78790   -221.4 1.311e+04 1.866e-09
  4.80761   -221.3 1.309e+04 1.881e-09
  4.82732   -221.1 1.292e+04 1.847e-09
  4.84704   -220.8 1.263e+04 1.679e-09
  4.86675   -220.5 1.227e+04 1.435e-09
  4.88646   -220.3 1.184e+04 1.157e-09
  4.90077   -220.0 1.137e+04 8.905e-10
  4.91062   -218.1 1.244e+04 1.321e-09
  4.92588   -217.9 1.200e+04 1.061e-09
  4.94559   -217.9 1.150e+04 8.136e-10
  4.96122   -217.7 1.104e+04 6.078e-10
  4.97107   -217.7 1.096e+04 5.902e-10
  4.98501   -217.6 1.050e+04 4.409e-10
  5.00472   -217.4 1.005e+04 3.439e-10
  5.02443   -216.6 9.816e+03 2.986e-10
  5.05410   -216.0 9.617e+03 2.660e-10
  5.09362   -216.1 9.372e+03 2.384e-10
  5.13304   -215.4 9.250e+03 2.304e-10
  5.17246   -214.6 9.260e+03 2.375e-10
  5.21188   -214.0 9.690e+03 3.088e-10
  5.25131   -213.4 1.050e+04 4.485e-10
  5.28191   -213.3 1.127e+04 6.016e-10
  5.30162   -210.8 1.026e+04 3.650e-10
  5.32020   -210.4 1.055e+04 4.130e-10
  5.33981   -210.3 1.059e+04 4.471e-10
  5.35952   -210.3 1.085e+04 5.335e-10
  5.37923   -210.4 1.192e+04 6.725e-10
  5.39660   -211.2 1.396e+04 9.693e-10
  5.40645   -213.1 1.576e+04 1.388e-09
  5.41865   -214.5 1.765e+04 2.630e-09
  5.43836   -216.7 2.054e+04 4.880e-09
  5.45808   -219.7 2.473e+04 1.119e-08
  5.47281   -223.0 3.303e+04 1.648e-08
  5.48194   -224.7 3.039e+04 9.027e-08
  5.48687   -226.4 4.383e+04 1.848e-08
  5.49247   -226.8 3.025e+04 3.628e-07
  5.49984   -225.1 2.823e+04 1.100e-06
  5.50474   -221.8 1.820e+04 1.547e-05
  5.50967   -220.1 1.278e+04 1.220e-03
  5.51268   -218.5 1.004e+04 2.877e-02
  5.51390   -213.8 9.419e+03 7.966e-02
  5.51518   -217.1 9.238e+03 7.282e-02
  5.51641   -221.7 9.262e+03 7.432e-02
  5.51764   -228.1 9.217e+03 7.138e-02
  5.51887   -235.1 9.477e+03 5.873e-02
  5.52011   -242.4 9.472e+03 3.893e-02
  5.52134   -246.9 9.963e+03 2.249e-02
  5.52319   -252.9 1.151e+04 6.754e-03
  5.52566   -262.0 1.926e+04 1.107e-05
  5.52937   -266.4 2.410e+04 1.104e-06
  5.53321   -271.1 2.566e+04 2.473e-07
  5.53567   -271.7 2.394e+04 8.140e-07
  5.53924   -272.8 2.465e+04 2.065e-07
  5.54416   -272.8 2.421e+04 1.217e-07
  5.55158   -272.4 2.386e+04 9.745e-08
  5.56146   -270.1 2.310e+04 6.878e-08
  5.57132   -267.9 2.311e+04 4.650e-08
  5.57965   -266.5 2.389e+04 3.257e-08
  5.58457   -266.2 2.532e+04 2.613e-08
  5.59103   -265.5 2.560e+04 1.809e-08
  5.60088   -264.9 2.500e+04 1.317e-08
  5.61074   -264.5 2.383e+04 1.014e-08
  5.61912   -264.1 2.270e+04 8.357e-09
  5.62405   -263.7 2.265e+04 1.076e-08
  5.63045   -263.2 2.176e+04 9.161e-09
  5.64030   -262.5 2.108e+04 8.643e-09
  5.65514   -261.7 2.032e+04 8.395e-09
  5.66992   -260.7 1.907e+04 6.083e-09
  5.67735   -259.9 1.870e+04 5.872e-09
  5.68232   -260.5 1.909e+04 4.263e-09
  5.69461   -258.8 1.786e+04 3.144e-09
  5.71432   -257.3 1.687e+04 2.436e-09
  5.73403   -256.2 1.576e+04 1.845e-09
  5.75374   -255.1 1.479e+04 1.447e-09
  5.77345   -254.1 1.398e+04 1.179e-09
  5.79316   -252.9 1.334e+04 9.931e-10
  5.81287   -251.7 1.292e+04 8.648e-10
  5.83198   -250.5 1.267e+04 7.710e-10
  5.84184   -250.1 1.313e+04 1.211e-09
  5.85230   -248.9 1.287e+04 1.068e-09
  5.86792   -247.6 1.272e+04 9.536e-10
  5.87777   -247.6 1.242e+04 4.557e-10
  5.89172   -246.5 1.231e+04 4.033e-10
  5.91143   -245.4 1.225e+04 3.692e-10
  5.93114   -244.4 1.225e+04 3.622e-10
  5.95085   -243.4 1.248e+04 4.192e-10
  5.97056   -242.3 1.288e+04 5.392e-10
  6.00023   -241.3 1.344e+04 7.835e-10
  6.02979   -240.2 1.320e+04 5.134e-10
  6.04941   -239.0 1.355e+04 6.033e-10
  6.05953   -238.2 1.379e+04 6.341e-10
  6.06358   -237.4 1.400e+04 1.067e-09
  6.08313   -237.1 1.315e+04 2.654e-10
  6.11859   -236.0 1.370e+04 3.938e-10
  6.15801   -235.4 1.366e+04 6.175e-10
  6.18748   -234.7 1.410e+04 1.251e-09
  6.20709   -234.6 1.402e+04 1.383e-09
  6.22680   -234.7 1.401e+04 1.709e-09
  6.24651   -234.7 1.410e+04 1.922e-09
  6.25872   -234.8 1.427e+04 2.190e-09
  6.26858   -234.3 1.335e+04 1.372e-09
  6.27722   -234.3 1.346e+04 1.545e-09
  6.28707   -234.2 1.398e+04 2.023e-09
  6.30565   -234.1 1.425e+04 2.302e-09
  6.32536   -234.1 1.450e+04 2.583e-09
  6.34507   -234.0 1.468e+04 2.807e-09
  6.36478   -234.0 1.474e+04 2.940e-09
  6.38449   -233.9 1.474e+04 2.975e-09
  6.40420   -233.6 1.452e+04 2.928e-09
  6.42391   -233.0 1.420e+04 2.670e-09
  6.44362   -232.3 1.387e+04 2.349e-09
  6.45412   -231.5 1.359e+04 2.058e-09
  6.46398   -231.4 1.327e+04 1.624e-09
  6.48305   -230.7 1.315e+04 1.541e-09
  6.51271   -230.1 1.309e+04 1.473e-09
  6.55223   -228.8 1.299e+04 1.530e-09
  6.58170   -228.5 1.312e+04 1.899e-09
  6.60131   -228.0 1.342e+04 2.082e-09
  6.62102   -227.8 1.399e+04 2.448e-09
  6.63967   -227.7 1.463e+04 2.981e-09
  6.64952   -227.2 1.510e+04 3.281e-09
  6.66045   -227.2 1.621e+04 4.556e-09
  6.68016   -227.5 1.705e+04 5.839e-09
  6.69987   -228.6 1.744e+04 6.583e-09
  6.71260   -230.4 1.747e+04 6.696e-09
  6.72245   -231.2 1.797e+04 7.716e-09
  6.73929   -233.7 1.680e+04 5.505e-09
  6.75900   -236.1 1.554e+04 3.804e-09
  6.77871   -238.0 1.476e+04 3.000e-09
  6.79842   -239.2 1.440e+04 2.707e-09
  6.81813   -239.9 1.428e+04 2.656e-09
  6.83507   -240.2 1.421e+04 2.773e-09
  6.84492   -240.4 1.486e+04 3.347e-09
  6.85756   -240.5 1.476e+04 3.373e-09
  6.87727   -240.5 1.473e+04 3.576e-09
  6.89698   -240.1 1.480e+04 3.883e-09
  6.91669   -239.7 1.492e+04 4.154e-09
  6.93029   -239.4 1.497e+04 4.276e-09
  6.94015   -239.5 1.518e+04 4.646e-09
  6.95611   -239.1 1.503e+04 4.485e-09
  6.97582   -238.7 1.462e+04 3.829e-09
  6.99553   -238.2 1.404e+04 2.965e-09
  7.01524   -237.5 1.337e+04 2.176e-09
  7.03047   -236.9 1.267e+04 1.552e-09
  7.04033   -237.0 1.274e+04 1.568e-09
  7.05467   -236.4 1.214e+04 1.130e-09
  7.07438   -235.9 1.159e+04 8.279e-10
  7.09409   -235.3 1.113e+04 6.368e-10
  7.11380   -234.7 1.078e+04 5.239e-10
  7.13351   -233.9 1.052e+04 4.571e-10
  7.14798   -232.9 1.032e+04 4.148e-10
  7.15784   -233.0 1.021e+04 3.930e-10
  7.17293   -231.4 1.011e+04 3.734e-10
  7.19264   -230.0 1.009e+04 3.693e-10
  7.21611   -229.1 1.011e+04 3.675e-10
  7.23592   -229.3 1.020e+04 3.807e-10
  7.26183   -227.5 1.018e+04 3.884e-10
  7.30125   -225.9 1.015e+04 4.064e-10
  7.33072   -224.7 1.016e+04 4.266e-10
  7.35033   -224.2 1.016e+04 4.387e-10
  7.37999   -224.0 1.016e+04 4.557e-10
  7.41951   -223.0 1.039e+04 5.338e-10
  7.45894   -222.8 1.082e+04 6.523e-10
  7.49836   -223.6 1.152e+04 8.940e-10
  7.52783   -225.5 1.205e+04 1.178e-09
  7.54744   -226.2 1.218e+04 1.366e-09
  7.56715   -226.7 1.227e+04 1.570e-09
  7.58336   -227.3 1.248e+04 1.800e-09
  7.59322   -228.1 1.317e+04 2.331e-09
  7.60657   -228.7 1.344e+04 2.638e-09
  7.61667   -229.2 1.367e+04 2.920e-09
  7.62653   -228.9 1.319e+04 2.459e-09
  7.64599   -229.2 1.354e+04 2.810e-09
  7.66571   -229.3 1.387e+04 3.166e-09
  7.68542   -229.4 1.412e+04 3.465e-09
  7.70513   -229.5 1.430e+04 3.655e-09
  7.72484   -229.5 1.441e+04 3.693e-09
  7.74455   -229.3 1.447e+04 3.663e-09
  7.76426   -229.1 1.453e+04 3.620e-09
  7.78397   -228.9 1.456e+04 3.597e-09
  7.80105   -229.0 1.461e+04 3.607e-09
  7.80945   -230.3 1.459e+04 3.793e-09
  7.81207   -229.6 1.547e+04 5.073e-09
  7.82339   -229.7 1.564e+04 5.170e-09
  7.84310   -230.1 1.594e+04 5.456e-09
  7.86282   -230.9 1.643e+04 6.054e-09
  7.88253   -231.9 1.716e+04 7.111e-09
  7.90224   -233.0 1.790e+04 8.455e-09
  7.92195   -234.0 1.863e+04 1.026e-08
  7.93668   -235.6 1.882e+04 1.014e-08
  7.94649   -236.6 1.981e+04 1.305e-08
  7.95634   -237.6 2.043e+04 1.696e-08
  7.96620   -238.3 2.090e+04 2.198e-08
  7.97606   -238.8 2.114e+04 2.704e-08
  7.98591   -239.2 2.116e+04 3.068e-08
  7.99577   -239.6 2.104e+04 3.222e-08
  8.00245   -239.7 2.096e+04 3.253e-08
  8.00738   -240.4 2.169e+04 4.445e-08
  8.01548   -240.4 2.097e+04 3.743e-08
  8.02357   -240.0 2.018e+04 3.027e-08
  8.02850   -240.0 1.990e+04 3.000e-08
  8.03519   -239.7 1.948e+04 2.496e-08
  8.04504   -239.4 1.921e+04 2.110e-08
  8.05490   -239.4 1.916e+04 1.862e-08
  8.06476   -239.4 1.935e+04 1.753e-08
  8.07461   -240.1 1.942e+04 1.736e-08
  8.08447   -241.7 1.976e+04 1.725e-08
  8.09432   -244.0 2.069e+04 1.764e-08
  8.10015   -246.3 2.126e+04 2.129e-08
  8.10508   -247.7 2.131e+04 2.271e-08
  8.11403   -249.3 2.171e+04 2.995e-08
  8.12389   -250.8 2.203e+04 3.842e-08
  8.13242   -252.4 2.216e+04 4.412e-08
  8.13735   -251.7 2.285e+04 6.531e-08
  8.14360   -253.6 2.286e+04 6.969e-08
  8.15345   -255.5 2.269e+04 6.937e-08
  8.16331   -256.7 2.195e+04 5.493e-08
  8.17317   -257.6 2.098e+04 3.423e-08
  8.18302   -258.3 1.973e+04 1.952e-08
  8.19288   -259.2 1.836e+04 1.170e-08
  8.20278   -260.1 1.754e+04 7.937e-09
  8.21761   -261.3 1.565e+04 3.824e-09
  8.23643   -262.4 1.416e+04 1.866e-09
  8.24629   -262.5 1.465e+04 2.182e-09
  8.25704   -264.1 1.276e+04 9.288e-10
  8.27675   -265.6 1.105e+04 4.495e-10
  8.29646   -266.2 1.022e+04 3.089e-10
  8.31617   -266.4 1.001e+04 2.745e-10
  8.33588   -265.5 9.955e+03 2.669e-10
  8.36554   -264.5 9.990e+03 2.731e-10
  8.38862   -263.3 9.914e+03 2.619e-10
  8.40833   -263.6 9.552e+03 2.100e-10
  8.44447   -262.1 9.477e+03 1.982e-10
  8.48389   -261.3 9.475e+03 1.862e-10
  8.52333   -260.0 9.446e+03 1.717e-10
  8.56275   -258.6 9.415e+03 1.580e-10
  8.60217   -257.1 9.386e+03 1.478e-10
  8.64159   -255.6 9.368e+03 1.424e-10
  8.68102   -254.1 9.350e+03 1.411e-10
  8.72044   -252.7 9.340e+03 1.411e-10
  8.75971   -251.4 9.324e+03 1.426e-10
  8.79913   -251.1 9.259e+03 1.413e-10
  8.83870   -250.1 9.238e+03 1.416e-10
  8.87813   -249.2 9.203e+03 1.452e-10
  8.89956   -248.5 9.192e+03 1.605e-10
  8.91927   -248.4 9.210e+03 1.584e-10
  8.95697   -247.8 9.262e+03 1.856e-10
  8.99639   -247.3 9.345e+03 2.204e-10
  9.03581   -246.8 9.411e+03 2.570e-10
  9.07524   -246.2 9.438e+03 2.880e-10
  9.11466   -245.5 9.433e+03 3.065e-10
  9.15051   -244.7 9.421e+03 3.136e-10
  9.17022   -244.5 9.222e+03 2.310e-10
  9.19350   -243.6 9.219e+03 2.316e-10
  9.23292   -242.9 9.224e+03 2.321e-10
  9.27235   -242.5 9.211e+03 2.363e-10
  9.31177   -242.6 9.454e+03 2.933e-10
  9.33494   -243.3 1.011e+04 4.219e-10
  9.35465   -245.3 1.102e+04 6.666e-10
  9.39061   -247.3 1.194e+04 1.131e-09
  9.43003   -248.7 1.250e+04 1.609e-09
  9.45950   -249.0 1.231e+04 1.523e-09
  9.47912   -249.3 1.233e+04 1.565e-09
  9.49883   -249.3 1.234e+04 1.603e-09
  9.51854   -249.3 1.230e+04 1.588e-09
  9.54122   -249.4 1.233e+04 1.611e-09
  9.56103   -249.0 1.175e+04 1.282e-09
  9.58772   -248.3 1.141e+04 1.100e-09
  9.62714   -247.3 1.110e+04 9.349e-10
  9.66657   -246.0 1.074e+04 7.775e-10
  9.70599   -244.5 1.039e+04 6.301e-10
  9.74541   -242.7 1.006e+04 5.096e-10
  9.77032   -240.8 9.851e+03 4.276e-10
  9.79003   -241.7 9.891e+03 4.465e-10
  9.82425   -239.7 9.828e+03 4.036e-10
  9.86368   -238.0 9.831e+03 3.963e-10
  9.90310   -236.9 9.878e+03 3.994e-10
  9.93212   -236.5 1.043e+04 4.904e-10
  9.95183   -237.3 9.914e+03 3.720e-10
  9.98194   -236.9 1.051e+04 5.021e-10
 10.02136   -236.8 1.095e+04 6.341e-10
 10.06079   -237.0 1.108e+04 6.930e-10
 10.10021   -237.4 1.105e+04 6.961e-10
 10.13963   -237.9 1.071e+04 5.813e-10
 10.17905   -238.3 1.030e+04 4.263e-10
 10.20570   -238.2 1.012e+04 3.188e-10
 10.22541   -239.8 1.015e+04 3.218e-10
 10.25790   -239.2 1.021e+04 3.036e-10
 10.29732   -238.4 1.038e+04 3.063e-10
 10.32292   -237.8 1.137e+04 3.825e-10
 10.34263   -236.7 9.704e+03 1.623e-10
 10.37616   -236.4 1.071e+04 1.947e-10
 10.41558   -236.5 1.204e+04 3.541e-10
 10.45500   -236.8 1.291e+04 7.182e-10
 10.48447   -237.0 1.359e+04 1.500e-09
 10.50409   -237.0 1.381e+04 1.809e-09
 10.51813   -236.9 1.417e+04 2.432e-09
 10.52798   -236.5 1.330e+04 1.253e-09
 10.54351   -236.8 1.363e+04 1.618e-09
 10.56322   -237.2 1.400e+04 2.082e-09
 10.58293   -237.7 1.437e+04 2.684e-09
 10.60264   -238.0 1.466e+04 3.270e-09
 10.62235   -238.2 1.481e+04 3.691e-09
 10.64089   -238.3 1.483e+04 3.799e-09
 10.65075   -237.9 1.464e+04 3.353e-09
 10.66178   -238.1 1.452e+04 3.305e-09
 10.68149   -238.2 1.423e+04 2.921e-09
 10.70120   -238.5 1.388e+04 2.373e-09
 10.71353   -238.9 1.345e+04 1.865e-09
 10.72338   -238.3 1.426e+04 2.635e-09
 10.74062   -238.7 1.387e+04 2.025e-09
 10.76033   -239.1 1.342e+04 1.580e-09
 10.78004   -239.4 1.299e+04 1.300e-09
 10.79975   -239.4 1.264e+04 1.128e-09
 10.81946   -239.3 1.236e+04 1.010e-09
 10.83917   -238.9 1.213e+04 9.040e-10
 10.85858   -238.2 1.197e+04 7.899e-10
 10.86844   -238.1 1.215e+04 9.643e-10
 10.87860   -237.3 1.199e+04 8.162e-10
 10.89831   -236.3 1.186e+04 6.539e-10
 10.90893   -235.4 1.177e+04 5.184e-10
 10.91879   -235.5 1.207e+04 6.944e-10
 10.93773   -234.6 1.195e+04 5.497e-10
 10.95744   -233.6 1.188e+04 4.510e-10
 10.97715   -232.7 1.183e+04 3.960e-10
 11.00681   -232.0 1.178e+04 3.598e-10
 11.04633   -230.2 1.173e+04 3.259e-10
 11.07647   -228.1 1.162e+04 2.918e-10
 11.09524   -228.3 1.193e+04 3.270e-10
 11.10443   -227.5 1.225e+04 3.993e-10
 11.12508   -226.5 1.232e+04 4.290e-10
 11.16460   -224.4 1.217e+04 3.940e-10
 11.20402   -222.4 1.208e+04 3.667e-10
 11.24344   -220.3 1.205e+04 3.648e-10
 11.28287   -218.3 1.210e+04 3.768e-10
 11.32229   -216.2 1.218e+04 4.289e-10
 11.36171   -214.0 1.226e+04 5.078e-10
 11.40113   -211.8 1.234e+04 6.001e-10
 11.44055   -209.7 1.248e+04 7.111e-10
 11.47562   -208.1 1.282e+04 8.791e-10
 11.49533   -206.7 1.283e+04 9.021e-10
 11.51185   -205.4 1.336e+04 1.203e-09
 11.53156   -205.4 1.299e+04 1.088e-09
 11.55882   -204.4 1.340e+04 1.347e-09
 11.58829   -204.2 1.368e+04 1.483e-09
 11.60790   -204.7 1.421e+04 1.883e-09
 11.62761   -205.5 1.506e+04 2.919e-09
 11.64732   -206.1 1.597e+04 4.776e-09
 11.66704   -206.3 1.679e+04 7.533e-09
 11.68068   -206.4 1.749e+04 1.103e-08
 11.69053   -206.0 1.755e+04 1.137e-08
 11.70646   -206.0 1.807e+04 1.492e-08
 11.72617   -205.9 1.837e+04 1.797e-08
 11.73920   -205.6 1.849e+04 1.961e-08
 11.74906   -205.8 1.789e+04 1.503e-08
 11.76559   -205.4 1.794e+04 1.588e-08
 11.77833   -205.3 1.820e+04 1.770e-08
 11.78321   -205.1 1.798e+04 1.653e-08
 11.79013   -205.1 1.803e+04 1.701e-08
 11.79999   -205.0 1.809e+04 1.770e-08
 11.80984   -204.8 1.817e+04 1.871e-08
 11.81970   -204.6 1.823e+04 1.975e-08
 11.82955   -204.3 1.825e+04 2.050e-08
 11.83941   -204.1 1.826e+04 2.105e-08
 11.84795   -203.8 1.818e+04 2.100e-08
 11.85288   -203.8 1.799e+04 1.874e-08
 11.86410   -203.5 1.810e+04 2.022e-08
 11.87608   -202.5 1.820e+04 2.179e-08
 11.88594   -202.6 1.793e+04 1.856e-08
 11.90357   -201.9 1.807e+04 2.032e-08
 11.92328   -201.1 1.814e+04 2.142e-08
 11.94299   -200.4 1.826e+04 2.226e-08
 11.95689   -199.7 1.845e+04 2.351e-08
 11.96675   -199.8 1.853e+04 2.373e-08
 11.98241   -199.2 1.882e+04 2.689e-08
 12.00212   -198.8 1.911e+04 2.994e-08
 12.02183   -198.4 1.935e+04 3.344e-08
 12.04154   -197.8 1.955e+04 3.621e-08
 12.06125   -197.5 1.965e+04 3.753e-08
 12.07148   -197.3 1.963e+04 3.714e-08
 12.08134   -197.0 1.969e+04 3.706e-08
 12.10068   -196.9 1.969e+04 3.676e-08
 12.12039   -196.7 1.931e+04 3.174e-08
 12.14010   -196.3 1.853e+04 2.356e-08
 12.15981   -195.6 1.747e+04 1.559e-08
 12.17458   -194.7 1.632e+04 9.726e-09
 12.18444   -195.0 1.633e+04 9.990e-09
 12.19923   -194.1 1.528e+04 6.235e-09
 12.21894   -193.4 1.446e+04 4.149e-09
 12.23865   -192.9 1.385e+04 3.021e-09
 12.25703   -192.3 1.343e+04 2.426e-09
 12.26688   -191.4 1.381e+04 3.102e-09
 12.27808   -190.7 1.353e+04 2.619e-09
 12.29779   -190.0 1.337e+04 2.366e-09
 12.31750   -189.3 1.326e+04 2.219e-09
 12.33721   -188.7 1.316e+04 2.106e-09
 12.35692   -188.1 1.306e+04 2.002e-09
 12.37663   -187.3 1.296e+04 1.886e-09
 12.39227   -186.7 1.287e+04 1.794e-09
 12.40213   -186.6 1.287e+04 1.786e-09
 12.41605   -185.9 1.276e+04 1.695e-09
 12.43576   -185.2 1.266e+04 1.605e-09
 12.45243   -184.5 1.257e+04 1.511e-09
 12.46228   -183.2 1.283e+04 1.622e-09
 12.47519   -182.7 1.275e+04 1.538e-09
 12.49490   -182.1 1.267e+04 1.471e-09
 12.51461   -181.6 1.260e+04 1.424e-09
 12.53432   -181.0 1.254e+04 1.401e-09
 12.55403   -180.4 1.251e+04 1.400e-09
 12.57374   -179.9 1.247e+04 1.415e-09
 12.59345   -179.3 1.243e+04 1.442e-09
 12.60996   -178.7 1.240e+04 1.461e-09
 12.61982   -178.2 1.240e+04 1.432e-09
 12.63287   -177.6 1.238e+04 1.448e-09
 12.64783   -177.1 1.233e+04 1.448e-09
 12.65769   -176.5 1.261e+04 1.809e-09
 12.67230   -176.0 1.250e+04 1.748e-09
 12.69201   -175.4 1.239e+04 1.612e-09
 12.71172   -174.9 1.228e+04 1.446e-09
 12.73143   -174.4 1.217e+04 1.280e-09
 12.75114   -173.9 1.208e+04 1.130e-09
 12.77085   -173.6 1.199e+04 1.001e-09
 12.79056   -173.3 1.190e+04 8.977e-10
 12.81790   -173.0 1.180e+04 8.169e-10
 12.83761   -172.5 1.185e+04 8.888e-10
 12.84323   -172.1 1.182e+04 8.785e-10
 12.85309   -171.7 1.183e+04 8.704e-10
 12.86941   -171.2 1.184e+04 8.715e-10
 12.89907   -170.9 1.189e+04 9.210e-10
 12.93859   -169.7 1.191e+04 9.387e-10
 12.97801   -168.1 1.194e+04 9.650e-10
 13.01743   -166.9 1.233e+04 1.196e-09
 13.03873   -165.4 1.240e+04 1.246e-09
 13.04703   -164.8 1.268e+04 1.461e-09
 13.05520   -164.8 1.317e+04 2.163e-09
 13.06651   -164.3 1.318e+04 2.220e-09
 13.08623   -163.5 1.315e+04 2.282e-09
 13.10594   -162.8 1.340e+04 2.598e-09
 13.12565   -162.2 1.370e+04 3.042e-09
 13.14536   -161.8 1.414e+04 3.755e-09
 13.16507   -161.4 1.467e+04 4.824e-09
 13.18478   -161.0 1.530e+04 6.362e-09
 13.20449   -160.6 1.592e+04 8.327e-09
 13.22418   -160.1 1.643e+04 1.032e-08
 13.24389   -159.2 1.722e+04 1.434e-08
 13.26304   -158.8 1.747e+04 1.589e-08
 13.27289   -158.9 1.800e+04 1.974e-08
 13.28334   -158.6 1.806e+04 2.078e-08
 13.30305   -158.2 1.798e+04 2.041e-08
 13.32276   -157.7 1.770e+04 1.817e-08
 13.34247   -157.1 1.734e+04 1.506e-08
 13.36218   -156.5 1.699e+04 1.206e-08
 13.38189   -155.8 1.673e+04 9.562e-09
 13.40160   -155.2 1.654e+04 7.537e-09
 13.41958   -154.8 1.630e+04 5.860e-09
 13.42944   -154.6 1.745e+04 1.349e-08
 13.44102   -154.0 1.727e+04 1.122e-08
 13.46073   -153.5 1.697e+04 8.810e-09
 13.48045   -153.0 1.653e+04 6.663e-09
 13.49058   -152.6 1.594e+04 4.932e-09
 13.50044   -152.0 1.663e+04 8.908e-09
 13.51987   -151.4 1.601e+04 6.504e-09
 13.53958   -150.9 1.531e+04 4.841e-09
 13.55929   -150.3 1.461e+04 3.790e-09
 13.57900   -149.6 1.400e+04 3.178e-09
 13.59871   -148.9 1.352e+04 2.848e-09
 13.61498   -147.9 1.319e+04 2.671e-09
 13.62484   -147.7 1.381e+04 3.203e-09
 13.63813   -146.8 1.341e+04 2.839e-09
 13.65784   -145.8 1.315e+04 2.588e-09
 13.67756   -144.7 1.297e+04 2.399e-09
 13.69727   -143.6 1.283e+04 2.268e-09
 13.70827   -142.6 1.278e+04 2.164e-09
 13.71813   -142.1 1.295e+04 2.293e-09
 13.73669   -141.2 1.282e+04 2.162e-09
 13.75640   -140.2 1.274e+04 2.056e-09
 13.77611   -139.3 1.271e+04 1.945e-09
 13.79582   -138.4 1.266e+04 1.831e-09
 13.81038   -137.4 1.260e+04 1.716e-09
 13.82024   -137.6 1.264e+04 1.749e-09
 13.83524   -136.7 1.261e+04 1.701e-09
 13.85495   -135.8 1.259e+04 1.671e-09
 13.87467   -134.9 1.257e+04 1.650e-09
 13.89438   -133.9 1.255e+04 1.632e-09
 13.91409   -133.0 1.253e+04 1.616e-09
 13.92596   -132.1 1.251e+04 1.606e-09
 13.93582   -131.9 1.274e+04 1.854e-09
 13.95351   -130.9 1.274e+04 1.877e-09
 13.97322   -130.0 1.275e+04 1.906e-09
 13.99293   -129.0 1.274e+04 1.937e-09
 14.00578   -128.0 1.274e+04 1.970e-09
 14.01564   -128.0 1.324e+04 2.798e-09
 14.03235   -126.9 1.322e+04 2.809e-09
 14.05206   -125.9 1.319e+04 2.740e-09
 14.07178   -124.9 1.312e+04 2.540e-09
 14.09149   -124.0 1.297e+04 2.198e-09
 14.12115   -123.4 1.264e+04 1.712e-09
 14.14385   -121.3 1.228e+04 1.430e-09
 14.15361   -121.3 1.282e+04 2.096e-09
 14.17033   -120.2 1.266e+04 1.927e-09
 14.19143   -118.9 1.256e+04 1.795e-09
 14.21124   -119.0 1.284e+04 2.149e-09
 14.23951   -116.1 1.238e+04 1.760e-09
 14.27894   -113.3 1.204e+04 1.397e-09
 14.31836   -110.9 1.188e+04 1.167e-09
 14.35778   -108.5 1.174e+04 1.016e-09
 14.39720   -106.2 1.168e+04 9.340e-10
 14.43662   -103.9 1.169e+04 9.103e-10
 14.47605   -101.7 1.171e+04 9.089e-10
 14.51547    -99.7 1.182e+04 9.640e-10
 14.55489    -97.8 1.187e+04 1.046e-09
 14.57923    -96.0 1.188e+04 1.127e-09
 14.58696    -95.5 1.207e+04 1.306e-09
 14.60204    -95.4 1.231e+04 1.657e-09
 14.63373    -93.7 1.229e+04 1.667e-09
 14.67316    -91.9 1.217e+04 1.598e-09
 14.71258    -90.4 1.204e+04 1.452e-09
 14.75200    -89.4 1.199e+04 1.343e-09
 14.79142    -88.8 1.198e+04 1.289e-09
 14.83084    -88.4 1.201e+04 1.289e-09
 14.87027    -88.2 1.200e+04 1.280e-09
 14.90969    -87.9 1.188e+04 1.175e-09
 14.94911    -87.6 1.167e+04 9.444e-10
 14.97313    -87.1 1.142e+04 7.071e-10
 14.99284    -87.2 1.131e+04 6.735e-10
 15.01461    -86.4 1.106e+04 5.242e-10
 15.03432    -86.6 1.102e+04 4.937e-10
 15.06737    -85.2 1.092e+04 4.508e-10
 15.10680    -83.6 1.091e+04 4.483e-10
 15.14622    -82.2 1.103e+04 5.149e-10
 15.18564    -80.8 1.124e+04 6.564e-10
 15.22506    -79.3 1.144e+04 8.152e-10
 15.26448    -77.8 1.163e+04 9.573e-10
 15.30391    -76.5 1.187e+04 1.103e-09
 15.34333    -75.2 1.209e+04 1.276e-09
 15.36393    -74.0 1.235e+04 1.476e-09
 15.38364    -73.7 1.177e+04 9.820e-10
 15.42217    -72.6 1.197e+04 1.036e-09
 15.45000    -71.8 1.234e+04 1.192e-09
 15.46971    -73.3 1.285e+04 1.681e-09
 15.50102    -72.9 1.324e+04 2.179e-09
 15.54044    -72.5 1.347e+04 2.639e-09
 15.57986    -72.2 1.350e+04 2.858e-09
 15.61928    -71.9 1.340e+04 2.842e-09
 15.65870    -71.4 1.335e+04 2.767e-09
 15.68817    -71.0 1.337e+04 2.710e-09
 15.70779    -70.9 1.361e+04 2.801e-09
 15.72750    -71.5 1.421e+04 3.118e-09
 15.74469    -72.7 1.498e+04 4.431e-09
 15.75454    -71.2 1.484e+04 4.169e-09
 15.76692    -71.9 1.564e+04 6.808e-09
 15.78663    -71.8 1.650e+04 1.119e-08
 15.80634    -71.2 1.734e+04 1.692e-08
 15.82605    -70.5 1.789e+04 2.073e-08
 15.84576    -70.2 1.803e+04 2.123e-08
 15.86547    -69.8 1.771e+04 1.773e-08
 15.88518    -69.5 1.713e+04 1.322e-08
 15.90489    -69.1 1.647e+04 9.778e-09
 15.92461    -69.3 1.596e+04 7.565e-09
 15.94009    -69.4 1.555e+04 6.252e-09
 15.94994    -68.5 1.599e+04 7.062e-09
 15.96403    -68.7 1.545e+04 5.498e-09
 15.98374    -68.8 1.504e+04 4.723e-09
 16.00345    -68.7 1.476e+04 4.439e-09
 16.02316    -68.3 1.465e+04 4.396e-09
 16.04287    -67.6 1.458e+04 4.526e-09
 16.06258    -66.9 1.459e+04 4.749e-09
 16.08230    -66.1 1.461e+04 4.831e-09
 16.10201    -65.4 1.456e+04 4.701e-09
 16.11273    -65.0 1.448e+04 4.494e-09
 16.12258    -64.3 1.453e+04 4.555e-09
 16.13549    -64.0 1.439e+04 4.335e-09
 16.14544    -64.6 1.431e+04 4.059e-09
 16.17119    -63.8 1.410e+04 3.846e-09
 16.21061    -62.5 1.360e+04 3.026e-09
 16.25003    -61.0 1.291e+04 1.887e-09
 16.28946    -59.4 1.221e+04 1.021e-09
 16.32076    -57.8 1.168e+04 5.505e-10
 16.34047    -56.9 1.183e+04 6.841e-10
 16.36830    -55.4 1.144e+04 3.766e-10
 16.40772    -53.9 1.122e+04 2.695e-10
 16.44714    -52.2 1.116e+04 2.291e-10
 16.48657    -50.4 1.117e+04 2.162e-10
 16.51663    -48.4 1.124e+04 2.262e-10
 16.53634    -48.0 1.109e+04 2.080e-10
 16.56541    -46.0 1.118e+04 2.157e-10
 16.60483    -44.1 1.126e+04 2.285e-10
 16.64425    -42.4 1.135e+04 2.458e-10
 16.68368    -40.8 1.144e+04 2.747e-10
 16.72310    -39.4 1.149e+04 3.181e-10
 16.75614    -37.9 1.149e+04 3.642e-10
 16.77585    -36.7 1.131e+04 2.685e-10
 16.80194    -35.0 1.129e+04 2.999e-10
 16.84136    -33.2 1.127e+04 3.181e-10
 16.88079    -31.4 1.126e+04 3.209e-10
 16.90743    -29.6 1.128e+04 3.125e-10
 16.92714    -29.2 1.125e+04 3.105e-10
 16.95963    -27.4 1.124e+04 3.053e-10
 16.99905    -25.7 1.127e+04 3.064e-10
 17.03847    -24.1 1.135e+04 3.135e-10
 17.07790    -22.6 1.141e+04 3.290e-10
 17.11732    -21.2 1.146e+04 3.551e-10
 17.15674    -19.7 1.152e+04 3.873e-10
 17.19152    -18.2 1.158e+04 4.218e-10
 17.21123    -16.6 1.164e+04 4.311e-10
 17.23558    -15.1 1.170e+04 4.878e-10
 17.27501    -13.6 1.171e+04 5.560e-10
 17.29824    -11.9 1.171e+04 6.229e-10
 17.31795    -11.7 1.171e+04 6.198e-10
 17.35385     -9.9 1.170e+04 6.527e-10
 17.39327     -7.8 1.168e+04 5.969e-10
 17.43269     -5.7 1.170e+04 4.503e-10
 17.47211     -4.0 1.182e+04 2.808e-10
 17.51154     -2.8 1.176e+04 1.959e-10
 17.55096     -1.7 1.160e+04 1.708e-10
 17.59038     -0.2 1.129e+04 1.923e-10
 17.62690      2.1 1.114e+04 2.328e-10
 17.64661      3.0 1.146e+04 2.490e-10
 17.66922      4.9 1.132e+04 2.343e-10
 17.70865      6.6 1.130e+04 1.648e-10
 17.74807      8.3 1.134e+04 1.658e-10
 17.78749      9.6 1.142e+04 2.005e-10
 17.82691     11.0 1.153e+04 2.953e-10
 17.86633     12.5 1.162e+04 4.919e-10
 17.90576     14.4 1.179e+04 7.116e-10
 17.94518     16.2 1.203e+04 8.046e-10
 17.98460     17.5 1.206e+04 7.634e-10
 18.02402     18.6 1.207e+04 7.022e-10
 18.06013     19.1 1.223e+04 7.141e-10
 18.07868     18.5 1.212e+04 6.261e-10
 18.08200     18.8 1.204e+04 5.665e-10
 18.10287     18.6 1.205e+04 5.546e-10
 18.14229     19.0 1.203e+04 6.377e-10
 18.18171     19.9 1.204e+04 6.741e-10
 18.22113     20.6 1.208e+04 6.628e-10
 18.26055     20.8 1.216e+04 7.127e-10
 18.29998     21.1 1.228e+04 9.350e-10
 18.33940     22.2 1.238e+04 1.214e-09
 18.37882     23.6 1.227e+04 1.149e-09
 18.41824     25.8 1.176e+04 7.547e-10
 18.45093     28.0 1.127e+04 3.825e-10
 18.47064     27.9 1.128e+04 3.798e-10
 18.49709     29.4 1.106e+04 1.690e-10
 18.51738     30.3 1.105e+04 8.537e-11
 18.53709     31.4 1.110e+04 1.090e-10
 18.57593     32.5 1.070e+04 8.591e-11
 18.61535     34.4 1.055e+04 8.361e-11
 18.65477     36.5 1.055e+04 8.424e-11
 18.69420     38.4 1.061e+04 8.780e-11
 18.73362     40.0 1.068e+04 9.411e-11
 18.77304     41.5 1.073e+04 1.037e-10
 18.81246     42.9 1.077e+04 1.177e-10
 18.84173     44.4 1.080e+04 1.338e-10
 18.86145     44.3 1.085e+04 1.606e-10
 18.89131     45.8 1.086e+04 1.698e-10
 18.93073     47.3 1.086e+04 1.658e-10
 18.95276     48.6 1.087e+04 1.538e-10
 18.97247     49.1 1.089e+04 1.439e-10
 19.00957     50.3 1.092e+04 1.279e-10
 19.04899     51.5 1.094e+04 1.204e-10
 19.08842     52.9 1.094e+04 1.176e-10
 19.12784     54.4 1.094e+04 1.144e-10
 19.16726     56.1 1.094e+04 1.076e-10
 19.20668     57.8 1.091e+04 9.649e-11
 19.23254     59.6 1.088e+04 8.191e-11
 19.25225     59.3 1.092e+04 9.370e-11
 19.28553     61.0 1.090e+04 7.853e-11
 19.32495     62.6 1.091e+04 6.542e-11
 19.36437     64.2 1.088e+04 5.745e-11
 19.38814     66.0 1.081e+04 5.587e-11
 19.40785     66.6 1.085e+04 5.918e-11
 19.44321     68.6 1.081e+04 5.944e-11
 19.48264     70.7 1.078e+04 6.143e-11
 19.52206     72.9 1.076e+04 6.558e-11
 19.56148     75.1 1.077e+04 7.128e-11
 19.60090     77.3 1.081e+04 7.821e-11
 19.62334     79.5 1.087e+04 8.665e-11
 19.64305     79.2 1.086e+04 1.178e-10
 19.67974     81.3 1.096e+04 1.321e-10
 19.71917     83.3 1.107e+04 1.499e-10
 19.75859     85.0 1.117e+04 1.802e-10
 19.79801     86.6 1.137e+04 2.456e-10
 19.82352     87.9 1.169e+04 3.527e-10
 19.84323     88.0 1.170e+04 3.629e-10
 19.86690     88.2 1.184e+04 4.472e-10
 19.88651     88.6 1.204e+04 5.757e-10
 19.90623     89.1 1.233e+04 7.648e-10
 19.92594     89.2 1.266e+04 9.997e-10
 19.94565     89.1 1.302e+04 1.295e-09
 19.96536     88.8 1.344e+04 1.684e-09
 19.98507     88.0 1.390e+04 2.189e-09
 20.00409     86.9 1.433e+04 2.817e-09
 20.01395     85.9 1.439e+04 2.905e-09
 20.02449     84.7 1.473e+04 3.608e-09
 20.04102     83.7 1.496e+04 4.278e-09
 20.05087     84.0 1.507e+04 4.452e-09
 20.06391     83.1 1.514e+04 4.713e-09
 20.08362     82.2 1.508e+04 4.615e-09
 20.10334     81.6 1.480e+04 4.095e-09
 20.12305     81.1 1.435e+04 3.197e-09
 20.14276     80.3 1.389e+04 2.267e-09
 20.16247     79.5 1.351e+04 1.784e-09
 20.19213     77.5 1.294e+04 1.401e-09
 20.23165     77.1 1.272e+04 1.353e-09
 20.25891     76.9 1.263e+04 1.319e-09
 20.27862     77.2 1.272e+04 1.395e-09
 20.31050     77.0 1.252e+04 1.311e-09
 20.34992     77.0 1.214e+04 1.079e-09
 20.38523     77.2 1.163e+04 7.550e-10
 20.40495     76.8 1.130e+04 5.961e-10
 20.42876     77.0 1.096e+04 4.262e-10
 20.46818     77.2 1.068e+04 3.169e-10
 20.50761     77.6 1.052e+04 2.877e-10
 20.54703     78.2 1.053e+04 2.937e-10
 20.58645     78.8 1.058e+04 3.182e-10
 20.62587     79.1 1.065e+04 3.558e-10
 20.66529     79.3 1.069e+04 3.895e-10
 20.69429     79.3 1.071e+04 4.128e-10
 20.71400     80.2 1.073e+04 4.234e-10
 20.74414     80.1 1.065e+04 3.832e-10
 20.77604     79.9 1.067e+04 3.854e-10
 20.79575     80.2 1.040e+04 2.809e-10
 20.82298     79.9 1.050e+04 3.050e-10
 20.86240     79.2 1.083e+04 4.305e-10
 20.90183     78.6 1.148e+04 7.669e-10
 20.94125     78.1 1.216e+04 1.241e-09
 20.98067     77.1 1.238e+04 1.338e-09
 21.02009     75.9 1.228e+04 1.232e-09
 21.05951     75.0 1.183e+04 8.293e-10
 21.09894     74.2 1.117e+04 4.470e-10
 21.12967     73.5 1.057e+04 2.372e-10
 21.14938     74.9 1.075e+04 2.858e-10
 21.16684     74.3 1.026e+04 1.557e-10
 21.18655     75.9 1.036e+04 1.777e-10
 21.21720     75.7 9.999e+03 1.149e-10
 21.25662     76.1 9.750e+03 1.013e-10
 21.29605     76.9 9.779e+03 1.064e-10
 21.33547     77.8 9.889e+03 1.258e-10
 21.37489     78.8 1.001e+04 1.710e-10
 21.41431     79.8 1.015e+04 2.372e-10
 21.45373     80.8 1.030e+04 2.906e-10
 21.49316     81.6 1.042e+04 3.022e-10
 21.53258     82.2 1.041e+04 2.898e-10
 21.55764     82.7 1.033e+04 2.587e-10
 21.57040     84.1 1.042e+04 2.775e-10
 21.58476     84.8 1.042e+04 2.831e-10
 21.61142     85.4 1.034e+04 2.444e-10
 21.65084     85.9 1.029e+04 2.246e-10
 21.69027     86.5 1.029e+04 2.335e-10
 21.72969     87.0 1.041e+04 2.723e-10
 21.76911     87.5 1.068e+04 3.427e-10
 21.80853     87.7 1.097e+04 4.256e-10
 21.83800     87.9 1.116e+04 5.565e-10
 21.85761     88.1 1.133e+04 7.500e-10
 21.87732     88.4 1.164e+04 8.967e-10
 21.89704     88.4 1.171e+04 8.884e-10
 21.91675     88.2 1.173e+04 8.170e-10
 21.93646     87.9 1.158e+04 7.524e-10
 21.94835     87.4 1.129e+04 6.427e-10
 21.96816     88.1 1.178e+04 8.164e-10
 22.00043     87.1 1.145e+04 6.728e-10
 22.02014     87.8 1.184e+04 7.990e-10
 22.04506     86.2 1.132e+04 6.369e-10
 22.08448     85.2 1.119e+04 6.183e-10
 22.12391     84.6 1.125e+04 6.504e-10
 22.16333     83.9 1.133e+04 6.981e-10
 22.20275     83.4 1.142e+04 7.335e-10
 22.22788     82.9 1.144e+04 7.327e-10
 22.23764     82.7 1.142e+04 7.420e-10
 22.25183     82.1 1.149e+04 7.887e-10
 22.27154     81.3 1.167e+04 8.987e-10
 22.29125     80.5 1.195e+04 1.090e-09
 22.31097     79.9 1.223e+04 1.352e-09
 22.32920     79.4 1.254e+04 1.667e-09
 22.33905     79.6 1.248e+04 1.623e-09
 22.35039     79.2 1.284e+04 2.007e-09
 22.37010     78.4 1.311e+04 2.242e-09
 22.38981     77.6 1.294e+04 2.126e-09
 22.40952     77.1 1.262e+04 1.945e-09
 22.43572     76.9 1.210e+04 1.387e-09
 22.45553     77.4 1.205e+04 1.403e-09
 22.47870     77.0 1.107e+04 6.771e-10
 22.51813     75.8 1.032e+04 3.260e-10
 22.55755     74.8 1.011e+04 2.705e-10
 22.59697     74.4 1.010e+04 2.727e-10
 22.63639     73.8 1.025e+04 3.119e-10
 22.67581     72.9 1.064e+04 4.344e-10
 22.71034     72.3 1.075e+04 5.268e-10
 22.72995     72.7 1.074e+04 5.710e-10
 22.74461     72.9 1.070e+04 5.733e-10
 22.76432     72.9 1.065e+04 5.403e-10
 22.78403     72.5 1.070e+04 4.626e-10
 22.80374     71.8 1.074e+04 3.959e-10
 22.82345     70.4 1.078e+04 3.905e-10
 22.84316     69.3 1.075e+04 4.025e-10
 22.86287     68.5 1.086e+04 5.307e-10
 22.88086     68.5 1.086e+04 5.620e-10
 22.89071     68.4 1.062e+04 4.160e-10
 22.91225     68.0 1.080e+04 5.437e-10
 22.95177     67.3 1.108e+04 6.965e-10
 22.99119     66.4 1.121e+04 7.150e-10
 23.03061     65.4 1.125e+04 7.059e-10
 23.07003     64.4 1.136e+04 7.200e-10
 23.10114     63.3 1.144e+04 7.451e-10
 23.12085     62.7 1.151e+04 7.170e-10
 23.14888     61.7 1.146e+04 6.932e-10
 23.18830     61.1 1.134e+04 5.870e-10
 23.22772     60.5 1.120e+04 4.619e-10
 23.26714     59.7 1.128e+04 3.882e-10
 23.30657     58.7 1.134e+04 3.877e-10
 23.33603     58.4 1.150e+04 3.756e-10
 23.35565     57.6 1.171e+04 4.114e-10
 23.37536     56.6 1.186e+04 4.893e-10
 23.39507     55.7 1.198e+04 5.957e-10
 23.41478     55.0 1.227e+04 6.693e-10
 23.43449     54.8 1.233e+04 6.728e-10
 23.46416     54.9 1.218e+04 6.087e-10
 23.49194     54.3 1.221e+04 4.595e-10
 23.51166     53.0 1.232e+04 4.432e-10
 23.54310     50.9 1.243e+04 2.351e-10
 23.58252     48.7 1.204e+04 1.944e-10
 23.62194     47.5 1.169e+04 1.925e-10
 23.66136     47.1 1.138e+04 2.060e-10
 23.70079     46.7 1.136e+04 2.114e-10
 23.74021     46.0 1.146e+04 2.124e-10
 23.76167     45.3 1.152e+04 2.167e-10
 23.78138     44.5 1.161e+04 2.315e-10
 23.81905     43.5 1.166e+04 2.368e-10
 23.85847     42.5 1.167e+04 2.736e-10
 23.88275     41.6 1.153e+04 3.014e-10
 23.90246     40.5 1.157e+04 3.104e-10
 23.93732     40.8 1.120e+04 2.591e-10
 23.97674     41.8 1.094e+04 1.531e-10
 24.01616     41.8 1.112e+04 7.124e-11
 24.05558     41.0 1.122e+04 4.071e-11
 24.09501     40.9 1.073e+04 3.723e-11
 24.13443     41.7 1.067e+04 3.699e-11
 24.17385     42.9 1.068e+04 3.840e-11
 24.19705     44.0 1.068e+04 4.124e-11
 24.21676     43.9 1.070e+04 4.192e-11
 24.25269     45.0 1.062e+04 4.711e-11
 24.27355     46.0 1.052e+04 5.152e-11
 24.29326     45.2 1.052e+04 5.432e-11
 24.33154     46.1 1.043e+04 5.929e-11
 24.37096     46.9 1.036e+04 6.445e-11
 24.41038     47.6 1.032e+04 7.098e-11
 24.44980     48.4 1.034e+04 7.816e-11
 24.48922     49.0 1.039e+04 8.594e-11
 24.52865     49.5 1.040e+04 9.722e-11
 24.56807     50.2 1.036e+04 1.112e-10
 24.60749     51.1 1.034e+04 1.228e-10
 24.63243     52.2 1.031e+04 1.247e-10
 24.64987     51.9 1.023e+04 1.095e-10
 24.66435     51.3 1.016e+04 7.970e-11
 24.68633     52.1 1.025e+04 5.559e-11
 24.72576     52.6 1.000e+04 4.581e-11
 24.76518     53.2 9.858e+03 4.586e-11
 24.80460     54.0 9.869e+03 4.760e-11
 24.84402     55.0 9.927e+03 5.358e-11
 24.88344     56.0 1.013e+04 6.666e-11
 24.92287     56.0 1.040e+04 1.026e-10
 24.96229     56.0 1.073e+04 2.222e-10
 25.00171     56.3 1.120e+04 5.008e-10
 25.03544     56.4 1.146e+04 6.672e-10
 25.05516     56.4 1.130e+04 5.386e-10
 25.06782     56.2 1.118e+04 4.881e-10
 25.08753     56.2 1.136e+04 6.079e-10
 25.11998     56.3 1.092e+04 4.155e-10
 25.15940     56.4 1.042e+04 2.241e-10
 25.19882     56.6 1.001e+04 1.157e-10
 25.23824     57.1 9.730e+03 6.700e-11
 25.27766     58.0 9.576e+03 4.638e-11
 25.31709     59.0 9.317e+03 4.027e-11
 25.35651     60.4 9.226e+03 4.038e-11
 25.39593     61.8 9.212e+03 4.115e-11
 25.42625     63.3 9.178e+03 4.477e-11
 25.44596     63.6 9.217e+03 4.856e-11
 25.47477     65.1 9.191e+03 5.492e-11
 25.50320     66.7 9.172e+03 6.138e-11
 25.52291     66.9 9.140e+03 5.915e-11
 25.55362     68.4 9.134e+03 5.927e-11
 25.59304     70.0 9.108e+03 5.718e-11
 25.63246     71.6 9.078e+03 5.120e-11
 25.67188     73.1 9.053e+03 4.458e-11
 25.71131     74.6 9.037e+03 4.173e-11
 25.75073     76.1 9.039e+03 4.209e-11
 25.79015     77.7 9.058e+03 4.479e-11
 25.81705     79.3 9.099e+03 5.184e-11
 25.83676     79.8 9.145e+03 5.006e-11
 25.86899     81.5 9.194e+03 5.956e-11
 25.90842     83.1 9.284e+03 7.315e-11
 25.93858     84.6 9.429e+03 9.188e-11
 25.95829     84.8 9.441e+03 1.018e-10
 25.98726     86.1 9.674e+03 1.397e-10
 26.02668     87.0 9.958e+03 2.011e-10
 26.06610     87.8 1.027e+04 2.861e-10
 26.10553     88.3 1.057e+04 3.713e-10
 26.14495     88.5 1.071e+04 3.968e-10
 26.18437     88.7 1.070e+04 3.874e-10
 26.20785     89.0 1.061e+04 3.511e-10
 26.22756     89.4 1.047e+04 2.859e-10
 26.26321     89.8 1.035e+04 2.505e-10
 26.30264     90.2 1.019e+04 2.195e-10
 26.34206     90.8 1.006e+04 2.026e-10
 26.37396     91.6 1.007e+04 2.050e-10
 26.39367     91.3 1.001e+04 2.036e-10
 26.42090     91.4 1.008e+04 2.225e-10
 26.46032     91.3 1.028e+04 2.909e-10
 26.49975     91.3 1.062e+04 4.456e-10
 26.53917     91.2 1.085e+04 5.606e-10
 26.57859     90.9 1.081e+04 5.435e-10
 26.59865     90.9 1.057e+04 4.393e-10
 26.61837     91.5 1.082e+04 5.513e-10
 26.65743     91.7 1.048e+04 3.847e-10
 26.69685     91.8 1.011e+04 2.347e-10
 26.73628     91.9 9.837e+03 1.465e-10
 26.77570     92.2 9.690e+03 1.046e-10
 26.80934     93.0 9.616e+03 8.593e-11
 26.82905     93.0 9.589e+03 7.463e-11
 26.85454     93.9 9.433e+03 7.298e-11
 26.89396     95.2 9.432e+03 7.355e-11
 26.93339     96.5 9.461e+03 7.735e-11
 26.96975     97.6 9.510e+03 8.972e-11
 26.98946     98.2 9.471e+03 8.857e-11
 27.01223     99.4 9.586e+03 1.168e-10
 27.05165    100.5 9.818e+03 1.775e-10
 27.09107    101.6 1.019e+04 2.861e-10
 27.13050    102.6 1.062e+04 4.490e-10
 27.16992    102.9 1.078e+04 5.062e-10
 27.19939    103.5 1.085e+04 5.223e-10
 27.21900    103.7 1.083e+04 4.896e-10
 27.24463    104.1 1.078e+04 3.846e-10
 27.26444    103.7 1.067e+04 3.378e-10
 27.28818    104.0 1.040e+04 2.497e-10
 27.32761    104.2 1.016e+04 2.062e-10
 27.36055    104.7 1.012e+04 2.002e-10
 27.38026    105.2 1.036e+04 2.647e-10
 27.40645    106.0 1.036e+04 2.656e-10
 27.44587    106.9 1.044e+04 2.707e-10
 27.48529    107.5 1.060e+04 2.902e-10
 27.52472    107.5 1.073e+04 3.194e-10
 27.56414    107.3 1.083e+04 3.353e-10
 27.59361    107.0 1.101e+04 3.752e-10
 27.61322    106.6 1.120e+04 4.086e-10
 27.63293    105.8 1.135e+04 4.522e-10
 27.65264    104.9 1.139e+04 4.989e-10
 27.67235    104.1 1.132e+04 5.494e-10
 27.68977    103.4 1.124e+04 6.035e-10
 27.69962    103.0 1.148e+04 7.799e-10
 27.71178    102.7 1.136e+04 7.670e-10
 27.73149    102.4 1.124e+04 7.262e-10
 27.75116    102.2 1.116e+04 6.626e-10
 27.77087    101.7 1.117e+04 6.153e-10
 27.79062    100.8 1.102e+04 4.551e-10
 27.81033    100.3 1.096e+04 4.019e-10
 27.83999     99.6 1.069e+04 3.243e-10
 27.87951     99.3 1.042e+04 2.936e-10
 27.91894     99.4 1.039e+04 2.967e-10
 27.95836     99.8 1.041e+04 3.061e-10
 27.99778    100.2 1.053e+04 3.148e-10
 28.03720    100.3 1.066e+04 3.308e-10
 28.07662    100.2 1.077e+04 3.642e-10
 28.11549    100.1 1.089e+04 4.069e-10
 28.13520    100.4 1.084e+04 4.312e-10
 28.14215    100.6 1.091e+04 4.601e-10
 28.15191    100.2 1.098e+04 5.008e-10
 28.16513    100.2 1.104e+04 5.072e-10
 28.19479    100.9 1.100e+04 5.155e-10
 28.23431    101.2 1.090e+04 4.727e-10
 28.27373    101.2 1.087e+04 4.310e-10
 28.31316    101.2 1.094e+04 4.260e-10
 28.35258    101.3 1.104e+04 4.383e-10
 28.39200    101.5 1.116e+04 4.456e-10
 28.43142    101.8 1.122e+04 4.190e-10
 28.47084    102.3 1.119e+04 3.732e-10
 28.51027    103.0 1.115e+04 3.094e-10
 28.53296    103.9 1.107e+04 2.484e-10
 28.55267    102.7 1.107e+04 2.038e-10
 28.57058    103.9 1.093e+04 1.826e-10
 28.59029    103.5 1.095e+04 1.906e-10
 28.62853    105.0 1.075e+04 1.845e-10
 28.66795    106.7 1.071e+04 1.893e-10
 28.70738    108.5 1.071e+04 2.122e-10
 28.74680    110.3 1.089e+04 2.624e-10
 28.78622    111.3 1.105e+04 3.213e-10
 28.81569    111.6 1.128e+04 4.030e-10
 28.83530    111.5 1.165e+04 5.523e-10
 28.85501    111.2 1.222e+04 8.407e-10
 28.87472    110.5 1.292e+04 1.371e-09
 28.89443    110.0 1.359e+04 2.241e-09
 28.91371    110.0 1.411e+04 3.307e-09
 28.92356    109.7 1.469e+04 4.346e-09
 28.93386    109.7 1.496e+04 4.927e-09
 28.95357    109.4 1.490e+04 4.741e-09
 28.97328    109.2 1.453e+04 3.807e-09
 28.99299    108.5 1.379e+04 2.406e-09
 29.00586    107.0 1.288e+04 1.312e-09
 29.02567    105.6 1.226e+04 8.964e-10
 29.06217    102.6 1.072e+04 3.883e-10
 29.10159    101.0 1.032e+04 2.965e-10
 29.14102    100.8 1.018e+04 2.736e-10
 29.18044    100.9 1.006e+04 2.542e-10
 29.21986    101.5 9.918e+03 2.256e-10
 29.25928    102.4 9.760e+03 1.886e-10
 29.29485    103.4 9.596e+03 1.511e-10
 29.31456    102.6 9.683e+03 1.754e-10
 29.33813    103.9 9.510e+03 1.460e-10
 29.37755    105.5 9.375e+03 1.277e-10
 29.41697    107.2 9.306e+03 1.203e-10
 29.44134    109.1 9.272e+03 1.191e-10
 29.46105    108.9 9.202e+03 1.082e-10
 29.49581    110.8 9.212e+03 1.104e-10
 29.53524    112.8 9.214e+03 1.151e-10
 29.57466    114.8 9.223e+03 1.215e-10
 29.61408    116.7 9.223e+03 1.248e-10
 29.65350    118.5 9.194e+03 1.261e-10
 29.68565    120.3 9.154e+03 1.272e-10
 29.70536    120.0 9.145e+03 1.280e-10
 29.73235    122.0 9.135e+03 1.337e-10
 29.77177    124.0 9.133e+03 1.387e-10
 29.81119    126.0 9.131e+03 1.425e-10
 29.85061    128.0 9.127e+03 1.454e-10
 29.87673    129.9 9.128e+03 1.488e-10
 29.89644    129.9 9.066e+03 1.406e-10
 29.92946    131.8 9.082e+03 1.429e-10
 29.96888    133.6 9.104e+03 1.481e-10
 30.00830    135.4 9.122e+03 1.561e-10
 30.04772    137.1 9.155e+03 1.683e-10
 30.07646    138.9 9.252e+03 1.890e-10
 30.09617    139.2 9.211e+03 1.853e-10
 30.12657    141.0 9.393e+03 2.182e-10
 30.16599    142.6 9.682e+03 2.741e-10
 30.20541    143.8 9.909e+03 3.287e-10
 30.23488    144.3 1.006e+04 3.793e-10
 30.25449    144.6 1.033e+04 4.751e-10
 30.27166    144.6 1.067e+04 6.327e-10
 30.28152    145.4 1.038e+04 4.971e-10
 30.29391    145.2 1.074e+04 6.601e-10
 30.31191    144.1 1.198e+04 1.072e-09
 30.32177    143.9 1.175e+04 8.715e-10
 30.33334    141.2 1.358e+04 1.829e-09
 30.35305    138.8 1.489e+04 3.475e-09
 30.36778    137.5 1.557e+04 4.656e-09
 30.37419    136.0 1.634e+04 6.066e-09
 30.37912    136.7 1.617e+04 5.581e-09
 30.38744    134.6 1.723e+04 7.882e-09
 30.39730    133.0 1.780e+04 1.035e-08
 30.41213    131.3 1.841e+04 1.239e-08
 30.43189    127.4 1.901e+04 1.246e-08
 30.45160    122.0 1.911e+04 1.131e-08
 30.46706    116.1 1.858e+04 8.000e-09
 30.47692    117.6 1.958e+04 1.094e-08
 30.49102    111.3 1.807e+04 5.807e-09
 30.51073    105.0 1.534e+04 2.546e-09
 30.52960     99.0 1.227e+04 1.130e-09
 30.53946     99.6 1.243e+04 1.230e-09
 30.55016     95.0 1.090e+04 7.039e-10
 30.56987     92.0 1.068e+04 5.150e-10
 30.58958     90.1 1.050e+04 4.389e-10
 30.60929     88.9 1.029e+04 3.936e-10
 30.63895     87.4 1.006e+04 3.672e-10
 30.67847     87.0 9.758e+03 3.147e-10
 30.71790     86.9 9.511e+03 2.734e-10
 30.74749     86.9 9.358e+03 2.645e-10
 30.76720     87.6 9.333e+03 2.612e-10
 30.79674     87.9 9.337e+03 2.657e-10
 30.83616     88.2 9.380e+03 2.898e-10
 30.85806     88.4 9.476e+03 3.356e-10
 30.87777     87.9 9.633e+03 3.800e-10
 30.90505     88.1 9.656e+03 4.125e-10
 30.92467     88.1 9.688e+03 4.304e-10
 30.94438     88.2 9.739e+03 4.584e-10
 30.96409     88.2 9.797e+03 4.809e-10
 30.97484     88.2 9.851e+03 4.939e-10
 30.98470     88.6 9.807e+03 4.838e-10
 31.00351     88.5 9.832e+03 4.874e-10
 31.02322     88.0 9.815e+03 4.790e-10
 31.04293     87.8 9.774e+03 4.654e-10
 31.05327     87.1 9.684e+03 4.261e-10
 31.06312     87.0 9.882e+03 4.979e-10
 31.08235     86.4 9.741e+03 4.414e-10
 31.11202     85.2 9.582e+03 3.715e-10
 31.15154     83.9 9.347e+03 3.273e-10
 31.18287     82.8 9.300e+03 3.277e-10
 31.20258     84.1 9.390e+03 3.459e-10
 31.22915     83.1 9.362e+03 3.487e-10
 31.24886     81.4 9.390e+03 3.592e-10
 31.26980     80.5 9.423e+03 3.705e-10
 31.30922     79.7 9.520e+03 3.950e-10
 31.34865     79.3 9.567e+03 4.182e-10
 31.38807     79.2 9.587e+03 4.401e-10
 31.42749     79.0 9.615e+03 4.345e-10
 31.46691     78.9 9.501e+03 3.853e-10
 31.50633     78.5 9.298e+03 3.536e-10
 31.54576     78.4 9.298e+03 3.596e-10
 31.58518     78.5 9.365e+03 3.996e-10
 31.61465     78.8 9.459e+03 4.466e-10
 31.62791     79.2 9.637e+03 5.203e-10
 31.63312     79.5 9.553e+03 4.591e-10
 31.63947     79.3 9.652e+03 4.956e-10
 31.65397     79.7 9.834e+03 5.810e-10
 31.67368     80.1 9.973e+03 6.500e-10
 31.69339     80.6 1.003e+04 6.789e-10
 31.71310     81.0 1.002e+04 6.710e-10
 31.73282     81.3 9.960e+03 6.344e-10
 31.75253     81.2 9.872e+03 5.725e-10
 31.77224     80.9 9.874e+03 5.440e-10
 31.79195     80.2 9.916e+03 5.521e-10
 31.81166     79.5 1.009e+04 6.013e-10
 31.82502     78.7 1.043e+04 7.157e-10
 31.83487     77.2 1.160e+04 1.244e-09
 31.84560     76.5 1.212e+04 1.568e-09
 31.85546     76.6 1.210e+04 1.468e-09
 31.87079     76.0 1.262e+04 1.807e-09
 31.89050     75.4 1.307e+04 2.188e-09
 31.91021     75.0 1.340e+04 2.566e-09
 31.92993     74.6 1.360e+04 2.887e-09
 31.94964     74.3 1.371e+04 3.095e-09
 31.96935     74.0 1.374e+04 3.108e-09
 31.98906     73.7 1.368e+04 2.942e-09
 32.00877     73.4 1.350e+04 2.688e-09
 32.02042     73.1 1.330e+04 2.414e-09
 32.03027     71.4 1.296e+04 2.019e-09
 32.04819     71.2 1.252e+04 1.605e-09
 32.06329     71.0 1.207e+04 1.258e-09
 32.07315     71.3 1.205e+04 1.126e-09
 32.08761     70.9 1.158e+04 8.437e-10
 32.10732     70.5 1.112e+04 6.519e-10
 32.12704     70.2 1.067e+04 5.261e-10
 32.14675     70.1 1.018e+04 4.412e-10
 32.16646     70.7 1.008e+04 3.957e-10
 32.18617     71.2 1.017e+04 3.771e-10
 32.21583     71.6 9.830e+03 3.100e-10
 32.25535     72.9 9.582e+03 2.481e-10
 32.29477     74.4 9.399e+03 2.039e-10
 32.33420     76.0 9.365e+03 1.746e-10
 32.37362     77.7 9.399e+03 1.714e-10
 32.40156     79.3 9.435e+03 1.746e-10
 32.42127     79.1 9.668e+03 2.340e-10
 32.45246     80.5 9.804e+03 2.501e-10
 32.48902     81.9 1.004e+04 2.948e-10
 32.50873     82.5 1.002e+04 2.955e-10
 32.53131     84.1 1.012e+04 3.315e-10
 32.57073     85.5 1.022e+04 3.407e-10
 32.61015     86.7 1.023e+04 3.332e-10
 32.64957     87.8 1.021e+04 2.951e-10
 32.68899     88.7 1.010e+04 2.291e-10
 32.72842     89.6 9.916e+03 1.721e-10
 32.76784     90.5 9.728e+03 1.590e-10
 32.79236     91.8 9.726e+03 1.650e-10
 32.81207     90.8 9.785e+03 2.011e-10
 32.84668     92.3 9.829e+03 2.599e-10
 32.88610     94.1 1.004e+04 3.680e-10
 32.92440     95.9 1.032e+04 5.070e-10
 32.94411     96.3 1.017e+04 3.372e-10
 32.96495     97.8 1.048e+04 4.700e-10
 33.00437     99.2 1.088e+04 6.676e-10
 33.04379    100.3 1.129e+04 8.726e-10
 33.08321    101.3 1.171e+04 1.079e-09
 33.11268    101.6 1.180e+04 1.117e-09
 33.13230    101.8 1.180e+04 1.114e-09
 33.15175    102.0 1.176e+04 1.086e-09
 33.16160    102.0 1.186e+04 1.108e-09
 33.17172    102.2 1.177e+04 1.040e-09
 33.18297    102.6 1.155e+04 9.005e-10
 33.20278    103.1 1.164e+04 9.461e-10
 33.24090    103.6 1.142e+04 6.893e-10
 33.28032    103.5 1.103e+04 4.805e-10
 33.31975    103.1 1.068e+04 4.239e-10
 33.35917    102.7 1.069e+04 4.426e-10
 33.37949    102.0 1.091e+04 5.743e-10
 33.39920    101.5 1.057e+04 4.683e-10
 33.43801    101.2 1.109e+04 7.162e-10
 33.47743    101.2 1.156e+04 1.010e-09
 33.51685    101.0 1.172e+04 1.091e-09
 33.55426    100.6 1.167e+04 1.065e-09
 33.57397     99.8 1.208e+04 1.444e-09
 33.59570     99.7 1.178e+04 1.249e-09
 33.63512     99.7 1.125e+04 9.010e-10
 33.67454     99.6 1.065e+04 5.838e-10
 33.71396     99.3 1.004e+04 3.587e-10
 33.75339     98.6 9.521e+03 2.454e-10
 33.79281     98.3 9.209e+03 2.150e-10
 33.81487     98.3 9.281e+03 2.213e-10
 33.83458     97.7 9.739e+03 3.034e-10
 33.87165     98.0 9.851e+03 3.722e-10
 33.91107     98.3 9.981e+03 4.492e-10
 33.94506     98.4 1.010e+04 5.196e-10
 33.96477     98.7 9.396e+03 3.144e-10
 33.98992     98.7 9.652e+03 3.757e-10
 34.02934     98.6 1.013e+04 4.794e-10
 34.05881     97.4 1.092e+04 6.673e-10
 34.07842     95.8 1.177e+04 1.027e-09
 34.09813     94.5 1.252e+04 1.668e-09
 34.11784     94.3 1.309e+04 2.458e-09
 34.13756     94.3 1.333e+04 2.900e-09
 34.15012     94.3 1.329e+04 2.839e-09
 34.15998     94.3 1.352e+04 3.183e-09
 34.17698     94.5 1.337e+04 2.971e-09
 34.19669     94.9 1.294e+04 2.245e-09
 34.21640     94.8 1.236e+04 1.444e-09
 34.23611     94.0 1.187e+04 8.412e-10
 34.25006     92.2 1.123e+04 5.009e-10
 34.25991     89.5 1.090e+04 4.471e-10
 34.27553     88.3 1.028e+04 4.301e-10
 34.29524     88.2 1.026e+04 4.360e-10
 34.31495     88.3 1.027e+04 4.661e-10
 34.33467     88.7 1.040e+04 5.220e-10
 34.34552     89.1 1.056e+04 5.852e-10
 34.35538     89.1 1.081e+04 6.690e-10
 34.37409     89.6 1.091e+04 7.079e-10
 34.39380     90.2 1.095e+04 7.074e-10
 34.41351     90.8 1.097e+04 6.881e-10
 34.43322     91.3 1.102e+04 6.457e-10
 34.45293     91.6 1.115e+04 5.866e-10
 34.46775     91.6 1.131e+04 5.394e-10
 34.47761     89.0 1.159e+04 6.346e-10
 34.49235     88.6 1.162e+04 6.675e-10
 34.51206     88.5 1.156e+04 7.294e-10
 34.53107     88.7 1.147e+04 8.023e-10
 34.54092     88.7 1.144e+04 7.753e-10
 34.55149     89.1 1.139e+04 8.251e-10
 34.57120     89.8 1.135e+04 8.533e-10
 34.59091     90.4 1.133e+04 8.386e-10
 34.61062     91.1 1.129e+04 7.953e-10
 34.63033     91.6 1.123e+04 7.490e-10
 34.65004     92.2 1.118e+04 6.962e-10
 34.66975     92.7 1.110e+04 6.362e-10
 34.68544     93.0 1.101e+04 5.898e-10
 34.69530     91.2 1.085e+04 5.442e-10
 34.70917     91.7 1.080e+04 5.434e-10
 34.72647     92.3 1.079e+04 5.499e-10
 34.73633     92.2 1.090e+04 5.622e-10
 34.74860     92.7 1.092e+04 5.877e-10
 34.76831     93.4 1.095e+04 6.268e-10
 34.78802     94.1 1.101e+04 6.708e-10
 34.80773     94.9 1.109e+04 7.139e-10
 34.82744     95.6 1.113e+04 7.465e-10
 34.84715     96.4 1.113e+04 7.465e-10
 34.86686     97.1 1.110e+04 7.382e-10
 34.88657     97.8 1.102e+04 7.086e-10
 34.90313     98.5 1.092e+04 6.609e-10
 34.91299     97.5 1.069e+04 5.661e-10
 34.92187     98.2 1.060e+04 5.128e-10
 34.93173     97.9 1.069e+04 5.502e-10
 34.94571     98.6 1.062e+04 5.071e-10
 34.96542     99.3 1.053e+04 4.664e-10
 34.98513     99.8 1.047e+04 4.448e-10
 35.00484    100.8 1.044e+04 4.364e-10
 35.02455    101.3 1.042e+04 4.308e-10
 35.04426    102.4 1.042e+04 4.331e-10
 35.06397    103.0 1.042e+04 4.336e-10
 35.08368    104.1 1.043e+04 4.320e-10
 35.10339    104.7 1.042e+04 4.299e-10
 35.11727    105.8 1.040e+04 4.183e-10
 35.12485    105.1 1.040e+04 4.256e-10
 35.14063    104.3 1.032e+04 4.061e-10
 35.17258    106.1 1.017e+04 3.707e-10
 35.21200    107.9 9.986e+03 3.335e-10
 35.25142    109.8 9.800e+03 2.998e-10
 35.29084    111.6 9.616e+03 2.737e-10
 35.33027    113.5 9.474e+03 2.581e-10
 35.36969    115.3 9.423e+03 2.542e-10
 35.40911    117.0 9.445e+03 2.605e-10
 35.44853    118.5 9.521e+03 2.795e-10
 35.48795    119.7 9.686e+03 3.101e-10
 35.50827    120.2 9.863e+03 3.443e-10
 35.52798    120.4 9.973e+03 3.558e-10
 35.55630    120.0 1.006e+04 3.816e-10
 35.56606    118.2 1.007e+04 3.947e-10
 35.57646    118.1 1.014e+04 4.227e-10
 35.59617    117.8 1.029e+04 4.787e-10
 35.61588    117.3 1.046e+04 5.465e-10
 35.63559    116.5 1.063e+04 6.065e-10
 35.65530    115.4 1.067e+04 6.176e-10
 35.67501    114.2 1.059e+04 6.081e-10
 35.69362    112.8 1.047e+04 6.027e-10
 35.70348    113.3 1.110e+04 8.000e-10
 35.71443    108.9 1.205e+04 9.352e-10
 35.73415    101.2 1.473e+04 1.547e-09
 35.75386     93.8 1.641e+04 3.000e-09
 35.77357     88.9 1.699e+04 5.021e-09
 35.78375     86.4 1.712e+04 6.197e-09
 35.78863     86.3 1.715e+04 6.398e-09
 35.79615     85.5 1.703e+04 6.306e-09
 35.80108     84.3 1.757e+04 7.178e-09
 35.81294     82.9 1.727e+04 6.443e-09
 35.83270     80.3 1.686e+04 4.988e-09
 35.85241     76.6 1.587e+04 3.311e-09
 35.87212     72.6 1.422e+04 2.178e-09
 35.88902     69.3 1.288e+04 1.624e-09
 35.89888     66.8 1.287e+04 1.547e-09
 35.91154     64.9 1.301e+04 1.589e-09
 35.93126     62.2 1.397e+04 1.888e-09
 35.95097     58.5 1.556e+04 2.795e-09
 35.97068     55.7 1.612e+04 3.981e-09
 35.99039     54.6 1.647e+04 5.916e-09
 36.00144     54.6 1.636e+04 7.177e-09
 36.01130     56.0 1.503e+04 4.436e-09
 36.02981     55.1 1.556e+04 5.439e-09
 36.04952     54.0 1.586e+04 5.794e-09
 36.06923     52.6 1.579e+04 5.395e-09
 36.08442     51.1 1.522e+04 4.297e-09
 36.09428     49.8 1.506e+04 4.104e-09
 36.10865     49.0 1.398e+04 2.812e-09
 36.12836     48.7 1.279e+04 1.837e-09
 36.14808     48.7 1.182e+04 1.225e-09
 36.16779     48.7 1.113e+04 7.971e-10
 36.18750     48.7 1.059e+04 5.072e-10
 36.20721     48.7 1.018e+04 3.371e-10
 36.21913     49.0 9.763e+03 2.264e-10
 36.22899     49.8 9.632e+03 2.049e-10
 36.24663     49.8 9.524e+03 1.896e-10
 36.26634     50.0 8.932e+03 1.501e-10
 36.27983     50.0 8.781e+03 1.457e-10
 36.28968     48.7 8.636e+03 1.429e-10
 36.30576     49.3 8.718e+03 1.572e-10
 36.32547     49.4 8.796e+03 1.704e-10
 36.34519     49.5 9.256e+03 2.587e-10
 36.36490     49.8 9.633e+03 3.548e-10
 36.39456     49.8 1.112e+04 8.878e-10
 36.42716     51.8 1.132e+04 1.112e-09
 36.44687     54.4 1.060e+04 8.114e-10
 36.47350     56.0 1.124e+04 1.078e-09
 36.51292     56.7 1.151e+04 1.094e-09
 36.55235     56.8 1.164e+04 8.728e-10
 36.59177     56.6 1.112e+04 4.840e-10
 36.63119     56.8 1.009e+04 2.398e-10
 36.66097     57.3 8.989e+03 1.709e-10
 36.68068     56.1 9.708e+03 3.727e-10
 36.71003     57.6 9.175e+03 3.340e-10
 36.74946     59.8 9.298e+03 3.489e-10
 36.78888     62.2 9.414e+03 3.854e-10
 36.82830     64.3 9.467e+03 4.172e-10
 36.86254     66.0 9.422e+03 4.123e-10
 36.88226     66.0 1.010e+04 5.411e-10
 36.90714     67.5 9.639e+03 4.424e-10
 36.94657     68.8 9.328e+03 3.599e-10
 36.98599     69.9 9.081e+03 2.908e-10
 37.02541     70.9 8.892e+03 2.411e-10
 37.05177     71.8 8.865e+03 2.297e-10
 37.07148     71.3 8.762e+03 2.026e-10
 37.10425     72.0 8.758e+03 2.031e-10
 37.14368     72.5 8.803e+03 2.120e-10
 37.18310     73.0 8.958e+03 2.382e-10
 37.22252     73.5 9.187e+03 2.766e-10
 37.26194     73.7 9.363e+03 3.132e-10
 37.29141     73.4 9.761e+03 3.880e-10
 37.30759     73.2 1.032e+04 5.195e-10
 37.31744     72.0 1.066e+04 6.229e-10
 37.33073     71.6 1.130e+04 9.341e-10
 37.35045     71.4 1.197e+04 1.469e-09
 37.37016     71.4 1.273e+04 2.332e-09
 37.38987     71.8 1.374e+04 3.687e-09
 37.40958     72.4 1.514e+04 5.643e-09
 37.42929     72.9 1.639e+04 8.123e-09
 37.44238     72.9 1.729e+04 1.053e-08
 37.45223     71.4 1.799e+04 8.855e-09
 37.46871     71.0 1.800e+04 8.705e-09
 37.48842     70.5 1.765e+04 7.883e-09
 37.50813     70.3 1.694e+04 6.429e-09
 37.52528     70.1 1.625e+04 4.900e-09
 37.53513     70.1 1.574e+04 4.221e-09
 37.54756     70.3 1.549e+04 3.341e-09
 37.56727     70.2 1.524e+04 2.512e-09
 37.58698     69.8 1.477e+04 1.863e-09
 37.60669     68.9 1.421e+04 1.496e-09
 37.62640     68.0 1.369e+04 1.420e-09
 37.63778     67.1 1.366e+04 1.474e-09
 37.64764     65.5 1.249e+04 1.056e-09
 37.66582     65.1 1.288e+04 1.290e-09
 37.68553     64.8 1.333e+04 1.601e-09
 37.70524     64.1 1.375e+04 1.895e-09
 37.72495     62.9 1.414e+04 2.079e-09
 37.74297     60.9 1.445e+04 2.169e-09
 37.75282     61.0 1.501e+04 3.035e-09
 37.76438     58.4 1.515e+04 3.138e-09
 37.78409     55.5 1.517e+04 3.199e-09
 37.80380     52.5 1.506e+04 3.311e-09
 37.82333     49.9 1.473e+04 3.490e-09
 37.83318     50.1 1.432e+04 3.028e-09
 37.84322     48.4 1.411e+04 3.167e-09
 37.86293     47.3 1.385e+04 3.048e-09
 37.88264     46.9 1.323e+04 2.491e-09
 37.90235     46.7 1.253e+04 1.730e-09
 37.93202     45.7 1.155e+04 8.272e-10
 37.97154     43.2 9.964e+03 3.256e-10
 38.01096     42.4 9.751e+03 3.064e-10
 38.05038     42.9 9.698e+03 3.446e-10
 38.08980     44.6 9.845e+03 4.635e-10
 38.12922     46.9 1.014e+04 6.170e-10
 38.16865     49.0 1.035e+04 6.518e-10
 38.20447     50.1 1.001e+04 4.993e-10
 38.22418     48.6 1.016e+04 5.329e-10
 38.24749     49.6 1.016e+04 4.865e-10
 38.28691     50.5 1.007e+04 4.401e-10
 38.32633     51.3 9.926e+03 3.987e-10
 38.36576     52.4 9.741e+03 3.504e-10
 38.40518     53.7 9.500e+03 2.893e-10
 38.44460     55.2 9.248e+03 2.233e-10
 38.48402     56.6 9.027e+03 1.679e-10
 38.52344     57.9 8.877e+03 1.345e-10
 38.56287     59.3 8.848e+03 1.256e-10
 38.59527     60.9 8.871e+03 1.277e-10
 38.61498     60.0 8.834e+03 1.202e-10
 38.62378     61.5 8.959e+03 1.353e-10
 38.64349     61.1 8.991e+03 1.412e-10
 38.68113     62.3 9.237e+03 1.829e-10
 38.72055     63.3 9.593e+03 2.557e-10
 38.75998     63.9 1.010e+04 3.834e-10
 38.79940     64.3 1.071e+04 5.850e-10
 38.83882     64.6 1.115e+04 7.796e-10
 38.87824     64.9 1.132e+04 8.507e-10
 38.90771     64.6 1.123e+04 7.979e-10
 38.92732     64.4 1.118e+04 7.783e-10
 38.95699     64.8 1.092e+04 6.639e-10
 38.98607     64.3 1.069e+04 5.742e-10
 39.00578     63.5 1.096e+04 6.490e-10
 39.03593     62.6 1.109e+04 7.068e-10
 39.05916     61.5 1.136e+04 8.436e-10
 39.07888     59.8 1.114e+04 7.826e-10
 39.11477     59.6 1.121e+04 8.231e-10
 39.14424     59.8 1.113e+04 8.018e-10
 39.16386     59.7 1.100e+04 7.432e-10
 39.18128     59.4 1.084e+04 6.784e-10
 39.19113     58.9 1.113e+04 8.074e-10
 39.20328     58.1 1.115e+04 7.701e-10
 39.22299     57.2 1.120e+04 7.508e-10
 39.24270     56.5 1.118e+04 7.378e-10
 39.26241     56.0 1.109e+04 7.236e-10
 39.27666     55.1 1.106e+04 7.274e-10
 39.28652     54.4 1.073e+04 6.167e-10
 39.30183     52.2 1.168e+04 6.944e-10
 39.32154     49.6 1.320e+04 8.962e-10
 39.34126     47.7 1.364e+04 1.143e-09
 39.36097     46.2 1.353e+04 1.286e-09
 39.37668     44.9 1.315e+04 1.301e-09
 39.38654     44.5 1.401e+04 2.277e-09
 39.40039     42.7 1.359e+04 1.779e-09
 39.42010     39.7 1.316e+04 1.524e-09
 39.43981     37.0 1.272e+04 1.478e-09
 39.45952     35.1 1.254e+04 1.446e-09
 39.47923     34.1 1.235e+04 1.373e-09
 39.49435     33.2 1.209e+04 1.174e-09
 39.50421     33.3 1.210e+04 1.181e-09
 39.51865     32.1 1.179e+04 9.063e-10
 39.53836     29.9 1.134e+04 6.045e-10
 39.55808     28.4 1.076e+04 4.709e-10
 39.58774     27.1 1.038e+04 3.752e-10
 39.62726     25.3 9.708e+03 2.517e-10
 39.66668     24.3 9.349e+03 2.125e-10
 39.70610     24.0 9.217e+03 2.041e-10
 39.74553     23.9 9.174e+03 2.119e-10
 39.76768     24.0 9.224e+03 2.476e-10
 39.78739     23.2 9.307e+03 2.594e-10
 39.82437     22.9 9.540e+03 3.332e-10
 39.86379     22.5 1.008e+04 4.994e-10
 39.90321     22.0 1.069e+04 7.108e-10
 39.92993     20.8 1.128e+04 8.285e-10
 39.94964     22.3 1.140e+04 9.376e-10
 39.98206     20.6 1.162e+04 9.443e-10
 40.02148     19.0 1.136e+04 7.892e-10
 40.06090     17.3 1.080e+04 5.327e-10
 40.10032     15.4 1.017e+04 3.644e-10
 40.13877     13.9 9.777e+03 2.751e-10
 40.15848      9.5 9.711e+03 2.660e-10
 40.17917      9.1 9.512e+03 2.575e-10
 40.21859      9.1 9.487e+03 2.692e-10
 40.25801      9.4 9.437e+03 2.679e-10
 40.29743     10.1 9.332e+03 2.604e-10
 40.33686     11.3 9.052e+03 2.275e-10
 40.36531     12.7 8.766e+03 1.723e-10
 40.38502     14.5 8.928e+03 2.116e-10
 40.41570     15.8 8.681e+03 1.545e-10
 40.45512     16.8 8.613e+03 1.233e-10
 40.49454     17.8 8.567e+03 1.147e-10
 40.52957     19.0 8.582e+03 1.251e-10
 40.54928     16.9 8.711e+03 1.715e-10
 40.57339     18.8 8.863e+03 2.148e-10
 40.61281     20.8 9.028e+03 2.444e-10
 40.65223     22.7 9.153e+03 2.523e-10
 40.69165     24.5 9.169e+03 2.398e-10
 40.73107     26.3 9.177e+03 2.192e-10
 40.77050     28.1 9.144e+03 1.844e-10
 40.80069     29.8 9.088e+03 1.450e-10
 40.82040     31.8 9.306e+03 2.232e-10
 40.84934     33.5 9.281e+03 1.884e-10
 40.88876     35.1 9.215e+03 1.547e-10
 40.92038     36.6 9.138e+03 1.286e-10
 40.94009     35.5 9.183e+03 1.424e-10
 40.96761     36.5 9.412e+03 1.749e-10
 41.00703     37.4 9.926e+03 2.848e-10
 41.04645     38.4 1.063e+04 4.947e-10
 41.08587     39.0 1.135e+04 7.416e-10
 41.12529     39.1 1.207e+04 9.246e-10
 41.16472     38.8 1.267e+04 1.055e-09
 41.20414     38.1 1.311e+04 1.240e-09
 41.23607     37.3 1.325e+04 1.505e-09
 41.25578     39.8 1.307e+04 1.217e-09
 41.28298     39.3 1.314e+04 1.575e-09
 41.31118     39.3 1.312e+04 1.864e-09
 41.32094     37.6 1.321e+04 2.005e-09
 41.33206     37.8 1.307e+04 1.897e-09
 41.36173     38.3 1.278e+04 1.732e-09
 41.40125     39.0 1.216e+04 1.302e-09
 41.44067     39.8 1.143e+04 8.633e-10
 41.48009     40.5 1.073e+04 5.763e-10
 41.51951     41.4 1.020e+04 4.353e-10
 41.55894     42.9 9.861e+03 3.711e-10
 41.59836     44.8 9.626e+03 3.295e-10
 41.63778     46.8 9.426e+03 2.847e-10
 41.67145     48.8 9.243e+03 2.381e-10
 41.69117     49.9 9.087e+03 1.985e-10
 41.70198     51.7 8.952e+03 1.733e-10
 41.72169     51.8 9.113e+03 1.998e-10
 41.75605     53.6 9.024e+03 1.873e-10
 41.79547     55.5 8.951e+03 1.785e-10
 41.83489     57.4 8.843e+03 1.663e-10
 41.87431     59.3 8.682e+03 1.445e-10
 41.91373     61.3 8.479e+03 1.181e-10
 41.95316     63.2 8.295e+03 9.752e-11
 41.99258     65.1 8.189e+03 8.207e-11
 42.03200     67.0 8.122e+03 7.808e-11
 42.07142     69.0 8.125e+03 7.875e-11
 42.09278     71.1 8.149e+03 8.360e-11
 42.10849     71.3 8.150e+03 8.355e-11
 42.12655     72.7 8.021e+03 7.133e-11
 42.15027     74.8 8.080e+03 7.934e-11
 42.18969     77.0 8.227e+03 9.968e-11
 42.22911     79.2 8.430e+03 1.323e-10
 42.26853     81.4 8.659e+03 1.740e-10
 42.30795     83.7 8.854e+03 2.139e-10
 42.34738     85.6 8.967e+03 2.256e-10
 42.38680     87.4 8.957e+03 2.226e-10
 42.42622     89.1 8.869e+03 2.053e-10
 42.46387     90.9 8.682e+03 1.741e-10
 42.48359     91.9 8.664e+03 1.682e-10
 42.50506     93.7 8.432e+03 1.337e-10
 42.54222     95.6 8.201e+03 1.048e-10
 42.56193     97.1 8.242e+03 1.034e-10
 42.58391     99.1 8.028e+03 8.123e-11
 42.62333    101.1 7.856e+03 6.655e-11
 42.66275    103.3 7.728e+03 5.708e-11
 42.70217    105.6 7.645e+03 5.069e-11
 42.74159    108.0 7.608e+03 4.595e-11
 42.78102    110.5 7.590e+03 4.253e-11
 42.82044    113.0 7.581e+03 4.018e-11
 42.85468    115.4 7.612e+03 3.868e-11
 42.87439    116.6 7.609e+03 3.890e-11
 42.89928    119.0 7.623e+03 3.877e-11
 42.93870    121.5 7.645e+03 3.888e-11
 42.97760    123.9 7.694e+03 3.966e-11
 42.99731    125.2 7.774e+03 4.863e-11
 43.01755    127.5 7.838e+03 5.331e-11
 43.05697    129.8 7.924e+03 6.038e-11
 43.09639    132.0 8.039e+03 7.059e-11
 43.13581    134.0 8.192e+03 8.507e-11
 43.17524    135.9 8.385e+03 1.045e-10
 43.21466    137.5 8.619e+03 1.294e-10
 43.24548    138.8 8.869e+03 1.601e-10
 43.26519    140.1 9.059e+03 1.916e-10
 43.29350    141.2 9.348e+03 2.388e-10
 43.33292    141.8 9.559e+03 2.781e-10
 43.37235    142.2 9.649e+03 2.931e-10
 43.41177    142.4 9.642e+03 2.880e-10
 43.43269    142.6 9.554e+03 2.651e-10
 43.45240    143.6 9.493e+03 2.572e-10
 43.49061    144.0 9.346e+03 2.299e-10
 43.53003    144.2 9.170e+03 1.961e-10
 43.56946    144.2 9.092e+03 1.715e-10
 43.60888    144.0 9.116e+03 1.688e-10
 43.63628    143.6 9.173e+03 1.719e-10
 43.65599    145.3 9.068e+03 1.522e-10
 43.68772    144.6 9.329e+03 1.719e-10
 43.72714    143.2 9.740e+03 2.143e-10
 43.76657    141.0 1.008e+04 2.641e-10
 43.79603    139.0 1.032e+04 3.151e-10
 43.81565    137.5 1.074e+04 4.076e-10
 43.83149    136.1 1.117e+04 5.523e-10
 43.84134    137.6 1.108e+04 5.225e-10
 43.85507    136.0 1.178e+04 7.250e-10
 43.86788    130.1 1.454e+04 1.439e-09
 43.87773    130.8 1.445e+04 1.620e-09
 43.88952    126.8 1.594e+04 2.217e-09
 43.89932    123.3 1.701e+04 2.905e-09
 43.90918    120.2 1.822e+04 3.823e-09
 43.91903    112.4 2.248e+04 7.109e-09
 43.92889     94.4 3.022e+04 3.238e-08
 43.93402     77.8 2.912e+04 1.145e-07
 43.93895     78.7 2.841e+04 1.442e-07
 43.94860     66.8 2.682e+04 1.659e-07
 43.95846     60.0 2.453e+04 1.238e-07
 43.96831     55.6 2.302e+04 5.468e-08
 43.97663     51.2 2.340e+04 1.842e-08
 43.98155     52.1 2.308e+04 1.999e-08
 43.99300     37.4 2.701e+04 4.263e-09
 44.01276     13.9 1.760e+04 1.740e-09
 44.02689      7.0 1.310e+04 1.895e-09
 44.03675      7.1 1.325e+04 1.905e-09
 44.05218      6.1 1.334e+04 2.208e-09
 44.07189      5.0 1.374e+04 2.412e-09
 44.08557      2.1 1.461e+04 2.502e-09
 44.09543      2.5 1.496e+04 2.795e-09
 44.11131     -2.2 1.546e+04 2.665e-09
 44.13102     -7.1 1.471e+04 2.187e-09
 44.15073    -11.4 1.324e+04 1.739e-09
 44.17045    -13.9 1.241e+04 1.442e-09
 44.19016    -16.2 1.211e+04 1.183e-09
 44.20987    -20.2 1.235e+04 1.013e-09
 44.22229    -26.8 1.273e+04 9.688e-10
 44.23215    -25.1 1.306e+04 1.126e-09
 44.24929    -32.0 1.297e+04 1.157e-09
 44.26900    -36.8 1.246e+04 1.266e-09
 44.28871    -39.1 1.220e+04 1.298e-09
 44.30326    -40.2 1.172e+04 1.095e-09
 44.31312    -40.3 1.191e+04 1.240e-09
 44.32813    -41.7 1.144e+04 7.631e-10
 44.34784    -44.8 1.069e+04 3.768e-10
 44.36756    -48.8 1.009e+04 2.276e-10
 44.39722    -54.2 9.290e+03 1.604e-10
 44.41789    -59.3 8.879e+03 1.274e-10
 44.43760    -56.5 8.576e+03 1.054e-10
 44.47616    -59.4 8.578e+03 1.018e-10
 44.51558    -63.1 9.644e+03 1.552e-10
 44.54505    -67.6 1.027e+04 2.606e-10
 44.56467    -69.8 1.131e+04 4.587e-10
 44.58438    -73.6 1.264e+04 8.533e-10
 44.60324    -77.7 1.429e+04 1.697e-09
 44.61309    -75.3 1.358e+04 1.244e-09
 44.62380    -79.2 1.509e+04 2.405e-09
 44.64351    -82.2 1.613e+04 3.994e-09
 44.66322    -84.4 1.654e+04 5.138e-09
 44.68293    -86.8 1.647e+04 5.377e-09
 44.70264    -88.9 1.585e+04 4.763e-09
 44.72235    -91.0 1.513e+04 3.315e-09
 44.73864    -93.7 1.430e+04 2.084e-09
 44.74850    -97.0 1.345e+04 1.307e-09
 44.76178   -100.3 1.218e+04 8.431e-10
 44.78149   -102.7 1.128e+04 6.547e-10
 44.79864   -104.2 1.100e+04 6.057e-10
 44.80850   -103.0 1.124e+04 6.689e-10
 44.82091   -104.3 1.110e+04 6.540e-10
 44.84062   -105.5 1.102e+04 6.701e-10
 44.86033   -106.7 1.132e+04 7.623e-10
 44.88004   -107.6 1.167e+04 8.967e-10
 44.89975   -108.4 1.191e+04 1.028e-09
 44.91946   -109.0 1.210e+04 1.153e-09
 44.93917   -109.5 1.232e+04 1.268e-09
 44.95633   -110.0 1.255e+04 1.370e-09
 44.96619   -111.2 1.274e+04 1.409e-09
 44.97860   -111.6 1.286e+04 1.466e-09
 44.99404   -111.8 1.295e+04 1.528e-09
 45.00390   -112.2 1.311e+04 1.624e-09
 45.02797   -113.6 1.313e+04 1.637e-09
 45.05754   -116.1 1.314e+04 1.712e-09
 45.07715   -119.5 1.402e+04 1.746e-09
 45.09686   -127.4 1.942e+04 2.745e-09
 45.11657   -135.2 2.272e+04 6.690e-09
 45.13628   -141.1 2.311e+04 1.208e-08
 45.15600   -146.8 2.283e+04 1.369e-08
 45.17402   -153.3 2.137e+04 1.085e-08
 45.18383   -158.5 2.073e+04 9.146e-09
 45.18934   -162.8 1.984e+04 6.219e-09
 45.19925   -165.9 1.962e+04 5.672e-09
 45.21513   -175.4 1.599e+04 3.106e-09
 45.23484   -180.0 1.461e+04 2.628e-09
 45.25455   -182.4 1.400e+04 2.454e-09
 45.27426   -183.1 1.373e+04 2.325e-09
 45.29397   -183.4 1.335e+04 2.082e-09
 45.31368   -183.5 1.286e+04 1.694e-09
 45.33339   -183.6 1.227e+04 1.251e-09
 45.35310   -183.4 1.159e+04 8.608e-10
 45.37282   -183.0 1.094e+04 5.779e-10
 45.38484   -182.5 1.053e+04 4.198e-10
 45.39389   -182.6 1.049e+04 4.061e-10
 45.40157   -182.7 1.042e+04 3.908e-10
 45.42219   -182.8 1.035e+04 3.422e-10
 45.46171   -183.2 1.017e+04 2.956e-10
 45.50113   -182.9 9.931e+03 2.573e-10
 45.54055   -181.9 9.807e+03 2.414e-10
 45.57059   -181.1 9.785e+03 2.385e-10
 45.59030   -181.2 9.722e+03 2.267e-10
 45.60960   -180.9 9.729e+03 2.268e-10
 45.62931   -180.8 9.728e+03 2.253e-10
 45.65882   -180.9 9.802e+03 2.336e-10
 45.69824   -182.3 1.067e+04 3.181e-10
 45.73766   -185.0 1.197e+04 5.573e-10
 45.77709   -188.7 1.280e+04 1.050e-09
 45.80656   -192.0 1.287e+04 1.450e-09
 45.82617   -194.9 1.424e+04 1.994e-09
 45.83695   -200.2 1.734e+04 3.216e-09
 45.84681   -201.3 1.858e+04 5.053e-09
 45.86559   -208.0 2.096e+04 1.022e-08
 45.88032   -213.8 2.180e+04 1.357e-08
 45.89013   -216.6 2.210e+04 1.663e-08
 45.89999   -220.0 2.219e+04 1.925e-08
 45.90984   -222.5 2.214e+04 2.040e-08
 45.91970   -225.8 2.206e+04 2.071e-08
 45.92955   -228.0 2.150e+04 1.978e-08
 45.93941   -230.8 2.063e+04 1.585e-08
 45.94570   -232.9 1.993e+04 1.182e-08
 45.95063   -233.3 1.984e+04 1.040e-08
 45.95912   -236.6 1.869e+04 6.344e-09
 45.96602   -238.9 1.788e+04 4.384e-09
 45.97100   -238.3 1.813e+04 6.060e-09
 45.98386   -243.5 1.618e+04 2.868e-09
 46.00357   -249.1 1.409e+04 1.523e-09
 46.02328   -253.6 1.275e+04 1.049e-09
 46.04299   -256.0 1.238e+04 9.248e-10
 46.05464   -257.7 1.230e+04 8.890e-10
 46.06450   -259.9 1.232e+04 8.685e-10
 46.08241   -262.0 1.232e+04 8.499e-10
 46.10212   -264.2 1.240e+04 8.293e-10
 46.12183   -266.3 1.253e+04 8.290e-10
 46.14154   -268.4 1.270e+04 8.608e-10
 46.15659   -270.5 1.293e+04 9.474e-10
 46.16645   -270.1 1.275e+04 9.035e-10
 46.18097   -272.1 1.300e+04 1.046e-09
 46.20068   -273.9 1.327e+04 1.253e-09
 46.22039   -275.7 1.360e+04 1.508e-09
 46.24010   -277.4 1.391e+04 1.793e-09
 46.25981   -279.0 1.418e+04 2.053e-09
 46.27233   -280.7 1.433e+04 2.215e-09
 46.28219   -282.7 1.359e+04 1.770e-09
 46.29923   -284.5 1.340e+04 1.692e-09
 46.31894   -286.5 1.310e+04 1.565e-09
 46.33865   -288.4 1.284e+04 1.448e-09
 46.35199   -290.3 1.272e+04 1.398e-09
 46.36185   -289.9 1.278e+04 1.393e-09
 46.37808   -291.8 1.274e+04 1.378e-09
 46.39779   -293.5 1.279e+04 1.413e-09
 46.41750   -295.1 1.297e+04 1.556e-09
 46.43721   -296.4 1.311e+04 1.686e-09
 46.45692   -297.5 1.313e+04 1.734e-09
 46.47663   -298.4 1.303e+04 1.706e-09
 46.49002   -299.1 1.281e+04 1.556e-09
 46.49988   -299.2 1.304e+04 1.753e-09
 46.51605   -299.7 1.278e+04 1.569e-09
 46.53576   -300.0 1.244e+04 1.309e-09
 46.54740   -300.4 1.207e+04 1.055e-09
 46.55725   -300.5 1.182e+04 9.234e-10
 46.57519   -301.0 1.143e+04 7.561e-10
 46.59490   -301.4 1.106e+04 6.397e-10
 46.61461   -301.7 1.072e+04 5.644e-10
 46.63432   -301.9 1.051e+04 5.047e-10
 46.65403   -301.9 1.038e+04 4.596e-10
 46.67374   -301.9 1.030e+04 4.302e-10
 46.69345   -301.8 1.026e+04 4.109e-10
 46.70772   -301.7 1.024e+04 3.981e-10
 46.71757   -301.9 1.047e+04 4.576e-10
 46.73287   -301.7 1.045e+04 4.529e-10
 46.76254   -302.1 1.011e+04 3.612e-10
 46.80206   -302.0 9.970e+03 3.378e-10
 46.84148   -301.3 9.819e+03 3.129e-10
 46.88090   -300.5 9.656e+03 2.845e-10
 46.91575   -299.8 9.467e+03 2.522e-10
 46.93546   -299.4 9.846e+03 3.264e-10
 46.95975   -298.7 9.717e+03 2.979e-10
 46.99917   -298.1 9.674e+03 2.838e-10
 47.03859   -297.9 9.676e+03 2.826e-10
 47.07801   -297.9 9.971e+03 3.111e-10
 47.11408   -299.1 1.098e+04 4.707e-10
 47.13380   -298.0 1.043e+04 3.973e-10
 47.15686   -299.9 1.116e+04 5.758e-10
 47.19628   -302.9 1.144e+04 7.131e-10
 47.23570   -306.5 1.146e+04 7.414e-10
 47.27512   -309.9 1.118e+04 7.131e-10
 47.31454   -312.5 1.059e+04 5.477e-10
 47.35113   -314.3 1.003e+04 3.880e-10
 47.37084   -315.0 1.037e+04 4.358e-10
 47.39339   -316.0 1.005e+04 3.529e-10
 47.43281   -316.2 9.979e+03 3.353e-10
 47.47223   -316.2 9.965e+03 3.327e-10
 47.50489   -315.7 9.944e+03 3.316e-10
 47.52460   -314.3 1.008e+04 3.489e-10
 47.55107   -313.4 1.006e+04 3.532e-10
 47.59050   -312.2 1.002e+04 3.529e-10
 47.62992   -310.8 9.923e+03 3.385e-10
 47.66934   -309.2 9.834e+03 3.158e-10
 47.70876   -307.4 9.751e+03 2.922e-10
 47.74818   -305.6 9.686e+03 2.703e-10
 47.78651   -303.9 9.624e+03 2.482e-10
 47.80622   -304.1 9.725e+03 2.762e-10
 47.82703   -302.3 9.648e+03 2.466e-10
 47.86645   -300.6 9.566e+03 2.184e-10
 47.89569   -298.8 9.503e+03 1.963e-10
 47.91540   -297.7 9.575e+03 2.381e-10
 47.94529   -295.8 9.479e+03 2.078e-10
 47.98472   -293.9 9.470e+03 1.919e-10
 48.02414   -291.9 9.484e+03 1.886e-10
 48.06356   -290.0 9.558e+03 1.906e-10
 48.10298   -288.2 9.820e+03 2.246e-10
 48.14240   -286.4 1.010e+04 2.916e-10
 48.18183   -284.5 1.035e+04 3.786e-10
 48.22125   -282.6 1.055e+04 4.615e-10
 48.24160   -280.7 1.070e+04 5.140e-10
 48.26131   -280.9 1.063e+04 4.832e-10
 48.28649   -279.0 1.068e+04 4.997e-10
 48.30620   -277.4 1.089e+04 5.867e-10
 48.33951   -275.7 1.099e+04 6.359e-10
 48.37894   -274.2 1.101e+04 6.487e-10
 48.41836   -272.7 1.098e+04 6.344e-10
 48.45778   -271.3 1.087e+04 5.585e-10
 48.49720   -270.0 1.077e+04 4.859e-10
 48.53662   -268.7 1.068e+04 4.335e-10
 48.57605   -267.4 1.061e+04 4.048e-10
 48.61547   -266.2 1.054e+04 3.932e-10
 48.65489   -265.1 1.048e+04 3.876e-10
 48.67698   -263.6 1.047e+04 3.848e-10
 48.67968   -263.6 1.028e+04 3.534e-10
 48.69701   -262.3 1.058e+04 4.392e-10
 48.73373   -260.9 1.055e+04 4.221e-10
 48.77316   -259.8 1.052e+04 4.062e-10
 48.81258   -258.5 1.048e+04 3.861e-10
 48.85200   -257.2 1.042e+04 3.612e-10
 48.89142   -255.6 1.037e+04 3.345e-10
 48.93084   -253.8 1.035e+04 3.086e-10
 48.97027   -252.1 1.034e+04 2.830e-10
 49.00969   -250.5 1.032e+04 2.564e-10
 49.04839   -248.7 1.025e+04 2.303e-10
 49.06810   -248.3 1.019e+04 1.658e-10
 49.08853   -246.4 1.010e+04 1.477e-10
 49.11237   -244.4 1.004e+04 1.374e-10
 49.13208   -243.8 1.002e+04 1.361e-10
 49.16738   -241.7 9.997e+03 1.321e-10
 49.20680   -239.5 9.996e+03 1.316e-10
 49.24622   -237.5 1.002e+04 1.323e-10
 49.28564   -235.8 1.036e+04 1.519e-10
 49.32506   -234.4 1.071e+04 2.277e-10
 49.36449   -233.1 1.101e+04 3.633e-10
 49.40391   -232.0 1.135e+04 5.591e-10
 49.43919   -231.1 1.169e+04 8.074e-10
 49.45890   -230.3 1.087e+04 2.784e-10
 49.48275   -229.5 1.109e+04 4.160e-10
 49.52217   -228.7 1.137e+04 6.101e-10
 49.54775   -227.9 1.174e+04 8.603e-10
 49.56746   -227.8 1.176e+04 8.616e-10
 49.60102   -226.9 1.215e+04 1.178e-09
 49.64044   -226.2 1.250e+04 1.464e-09
 49.67986   -225.8 1.265e+04 1.598e-09
 49.71928   -225.5 1.266e+04 1.615e-09
 49.75870   -225.3 1.253e+04 1.471e-09
 49.78817   -224.4 1.228e+04 1.264e-09
 49.80779   -224.5 1.219e+04 1.111e-09
 49.82750   -224.6 1.197e+04 9.358e-10
 49.83965   -224.8 1.176e+04 8.152e-10
 49.84961   -224.5 1.186e+04 1.061e-09
 49.87697   -223.8 1.152e+04 8.559e-10
 49.91639   -223.0 1.119e+04 7.090e-10
 49.95581   -222.1 1.089e+04 6.171e-10
 49.98313   -220.7 1.063e+04 5.452e-10
 50.00284   -219.8 1.059e+04 5.221e-10
 50.03466   -218.4 1.042e+04 4.785e-10
 50.07408   -216.9 1.021e+04 4.164e-10
 50.11350   -215.2 9.975e+03 3.474e-10
 50.15292   -213.4 9.710e+03 2.743e-10
 50.19235   -211.5 9.458e+03 2.104e-10
 50.22079   -209.5 9.248e+03 1.617e-10
 50.24051   -209.4 9.347e+03 1.884e-10
 50.27119   -207.4 9.166e+03 1.497e-10
 50.31061   -205.3 9.028e+03 1.217e-10
 50.35003   -203.0 8.924e+03 1.024e-10
 50.38946   -200.7 8.846e+03 8.953e-11
 50.41851   -198.3 8.778e+03 8.152e-11
 50.43822   -197.6 8.853e+03 9.673e-11
 50.46830   -195.1 8.791e+03 8.785e-11
 50.50772   -192.6 8.743e+03 8.235e-11
 50.54714   -189.9 8.706e+03 7.950e-11
 50.58657   -187.3 8.679e+03 7.839e-11
 50.61160   -184.6 8.661e+03 7.792e-11
 50.63131   -184.4 8.604e+03 9.574e-11
 50.66541   -181.7 8.578e+03 9.294e-11
 50.70483   -179.0 8.564e+03 8.998e-11
 50.74425   -176.3 8.567e+03 8.704e-11
 50.78368   -173.6 8.592e+03 8.505e-11
 50.82310   -170.9 8.604e+03 8.459e-11
 50.85389   -168.4 8.623e+03 8.464e-11
 50.87360   -168.0 8.724e+03 1.050e-10
 50.90194   -165.7 8.819e+03 1.081e-10
 50.94136   -163.4 8.921e+03 1.183e-10
 50.98079   -161.2 9.039e+03 1.346e-10
 51.00240   -159.2 9.167e+03 1.556e-10
 51.02211   -159.0 9.167e+03 1.655e-10
 51.05963   -157.1 9.326e+03 1.938e-10
 51.09905   -155.3 9.514e+03 2.264e-10
 51.13847   -153.7 9.736e+03 2.649e-10
 51.17790   -152.5 9.978e+03 3.099e-10
 51.21732   -151.7 1.020e+04 3.612e-10
 51.25674   -151.5 1.042e+04 4.263e-10
 51.28927   -151.6 1.085e+04 5.537e-10
 51.30899   -151.1 1.064e+04 5.316e-10
 51.33558   -152.9 1.176e+04 8.958e-10
 51.36505   -154.4 1.268e+04 1.434e-09
 51.38315   -155.6 1.358e+04 2.169e-09
 51.39301   -154.8 1.305e+04 1.726e-09
 51.40438   -155.9 1.373e+04 2.399e-09
 51.42409   -157.0 1.437e+04 3.176e-09
 51.44380   -158.2 1.468e+04 3.748e-09
 51.46351   -159.4 1.473e+04 3.889e-09
 51.48322   -160.5 1.457e+04 3.823e-09
 51.50293   -161.3 1.404e+04 3.102e-09
 51.51663   -162.1 1.345e+04 2.251e-09
 51.52648   -162.6 1.349e+04 2.298e-09
 51.54235   -163.4 1.282e+04 1.637e-09
 51.56206   -163.8 1.230e+04 1.241e-09
 51.57855   -163.9 1.195e+04 1.005e-09
 51.58841   -163.5 1.198e+04 1.004e-09
 51.61144   -163.9 1.160e+04 7.864e-10
 51.65096   -163.1 1.081e+04 5.013e-10
 51.69038   -162.2 1.023e+04 3.252e-10
 51.72466   -161.0 9.975e+03 2.360e-10
 51.74437   -161.1 9.771e+03 1.992e-10
 51.76429   -159.6 9.748e+03 1.664e-10
 51.78401   -158.1 9.668e+03 1.715e-10
 51.80865   -156.6 9.690e+03 1.538e-10
 51.84807   -155.2 9.710e+03 1.500e-10
 51.88749   -153.8 9.735e+03 1.502e-10
 51.92691   -152.4 9.783e+03 1.554e-10
 51.96633   -151.0 9.803e+03 1.620e-10
 52.00576   -149.5 9.804e+03 1.652e-10
 52.04518   -147.9 9.774e+03 1.661e-10
 52.08460   -146.2 9.736e+03 1.611e-10
 52.12402   -144.4 9.715e+03 1.544e-10
 52.15510   -142.4 9.716e+03 1.497e-10
 52.17140   -141.5 9.712e+03 1.476e-10
 52.17975   -140.9 9.676e+03 1.272e-10
 52.20287   -139.0 9.687e+03 1.275e-10
 52.24229   -137.0 9.759e+03 1.351e-10
 52.28171   -135.1 9.834e+03 1.516e-10
 52.32113   -133.0 9.919e+03 1.746e-10
 52.36055   -130.9 1.003e+04 1.987e-10
 52.39998   -128.8 1.015e+04 2.207e-10
 52.43940   -126.7 1.026e+04 2.361e-10
 52.47882   -124.8 1.031e+04 2.413e-10
 52.51824   -122.8 1.033e+04 2.305e-10
 52.54590   -120.8 1.033e+04 2.026e-10
 52.56561   -120.5 1.018e+04 1.482e-10
 52.59542   -118.5 1.018e+04 1.207e-10
 52.61513   -118.5 1.025e+04 1.592e-10
 52.63651   -116.4 1.022e+04 1.298e-10
 52.67593   -114.4 1.020e+04 1.072e-10
 52.71535   -112.2 1.018e+04 9.155e-11
 52.75477   -109.9 1.017e+04 8.078e-11
 52.79420   -107.6 1.017e+04 7.241e-11
 52.83362   -105.2 1.018e+04 6.465e-11
 52.87304   -102.7 1.020e+04 5.703e-11
 52.91246   -100.2 1.025e+04 5.003e-11
 52.93670    -97.6 1.031e+04 4.437e-11
 52.95641    -96.9 1.023e+04 4.317e-11
 52.99131    -94.3 1.030e+04 3.952e-11
 53.03073    -91.7 1.036e+04 3.788e-11
 53.07015    -88.9 1.049e+04 4.451e-11
 53.10957    -86.2 1.053e+04 4.398e-11
 53.14899    -83.7 1.078e+04 4.319e-11
 53.18842    -81.3 1.097e+04 4.677e-11
 53.22784    -79.1 1.094e+04 6.118e-11
 53.26726    -76.9 1.095e+04 9.041e-11
 53.30668    -74.7 1.105e+04 1.421e-10
 53.32750    -72.6 1.126e+04 2.196e-10
 53.34722    -71.8 1.126e+04 2.187e-10
 53.38553    -69.8 1.146e+04 3.052e-10
 53.42495    -68.2 1.161e+04 3.716e-10
 53.46437    -66.8 1.166e+04 3.922e-10
 53.48589    -65.5 1.165e+04 3.868e-10
 53.50561    -65.7 1.156e+04 3.397e-10
 53.54321    -64.2 1.149e+04 2.813e-10
 53.58264    -62.7 1.142e+04 2.300e-10
 53.62206    -61.1 1.135e+04 2.031e-10
 53.66148    -59.2 1.133e+04 1.978e-10
 53.69860    -57.3 1.134e+04 2.029e-10
 53.71831    -56.5 1.136e+04 1.983e-10
 53.74032    -54.7 1.140e+04 2.196e-10
 53.77975    -52.7 1.146e+04 2.508e-10
 53.81917    -50.7 1.151e+04 2.743e-10
 53.85859    -48.7 1.153e+04 2.833e-10
 53.89801    -46.8 1.154e+04 2.816e-10
 53.92128    -45.1 1.150e+04 2.761e-10
 53.94099    -45.4 1.148e+04 3.290e-10
 53.97686    -43.7 1.142e+04 3.407e-10
 54.01628    -41.8 1.134e+04 3.828e-10
 54.05570    -39.7 1.123e+04 4.204e-10
 54.08940    -37.6 1.116e+04 4.282e-10
 54.10911    -37.2 1.150e+04 6.503e-10
 54.13454    -35.4 1.132e+04 6.348e-10
 54.17397    -33.6 1.126e+04 5.756e-10
 54.21339    -32.1 1.122e+04 5.341e-10
 54.25281    -30.6 1.110e+04 5.070e-10
 54.29223    -28.8 1.084e+04 4.567e-10
 54.33165    -26.6 1.056e+04 3.622e-10
 54.35666    -24.2 1.030e+04 2.520e-10
 54.37637    -24.4 1.046e+04 3.213e-10
 54.41050    -22.3 1.027e+04 2.083e-10
 54.44992    -20.5 1.015e+04 1.618e-10
 54.48020    -18.5 1.008e+04 1.519e-10
 54.49991    -18.5 9.937e+03 1.271e-10
 54.52876    -16.2 9.877e+03 1.277e-10
 54.56818    -13.6 9.837e+03 1.428e-10
 54.60761    -10.8 9.818e+03 1.498e-10
 54.64703     -8.0 9.835e+03 1.428e-10
 54.68645     -5.5 9.866e+03 1.304e-10
 54.72587     -3.2 9.988e+03 1.299e-10
 54.76529     -1.4 1.004e+04 1.564e-10
 54.79204      0.3 1.027e+04 2.119e-10
 54.81175     -0.6 1.033e+04 2.041e-10
 54.84414     -0.2 1.114e+04 3.957e-10
 54.87100      0.2 1.189e+04 9.850e-10
 54.89072      0.4 1.147e+04 8.406e-10
 54.92298      0.5 1.219e+04 1.092e-09
 54.96240     -1.2 1.288e+04 1.269e-09
 55.00183     -2.8 1.255e+04 1.625e-09
 55.03130     -2.9 1.225e+04 1.609e-09
 55.05091     -2.7 1.218e+04 1.385e-09
 55.06621     -3.3 1.219e+04 9.599e-10
 55.07607     -2.7 1.214e+04 9.874e-10
 55.09033     -3.9 1.183e+04 8.048e-10
 55.11004     -4.6 1.124e+04 7.152e-10
 55.12975     -4.4 1.105e+04 6.836e-10
 55.14946     -3.7 1.084e+04 6.404e-10
 55.16917     -2.8 1.083e+04 5.585e-10
 55.19884     -2.1 1.084e+04 4.769e-10
 55.22742     -0.8 1.089e+04 3.577e-10
 55.24713     -1.1 1.097e+04 3.551e-10
 55.26181     -0.2 1.097e+04 4.173e-10
 55.28152     -0.2 1.105e+04 4.625e-10
 55.30725      1.1 1.098e+04 5.788e-10
 55.32686      1.8 1.105e+04 6.420e-10
 55.34657      3.3 1.116e+04 7.694e-10
 55.36628      4.5 1.121e+04 7.982e-10
 55.38600      5.6 1.129e+04 7.596e-10
 55.40571      5.8 1.134e+04 7.460e-10
 55.42542      7.1 1.128e+04 7.081e-10
 55.44492      7.1 1.132e+04 7.110e-10
 55.45477      7.0 1.128e+04 6.875e-10
 55.47479      8.2 1.136e+04 7.565e-10
 55.51431      9.6 1.144e+04 8.421e-10
 55.55373     11.0 1.138e+04 8.318e-10
 55.59316     13.0 1.110e+04 7.103e-10
 55.63258     15.2 1.071e+04 5.003e-10
 55.65261     16.9 1.044e+04 3.216e-10
 55.66312     16.8 1.031e+04 2.803e-10
 55.68251     16.3 1.021e+04 2.608e-10
 55.71142     17.8 1.000e+04 1.864e-10
 55.75084     19.6 9.804e+03 1.548e-10
 55.79027     21.7 9.716e+03 1.466e-10
 55.82969     24.0 9.673e+03 1.496e-10
 55.86911     26.3 9.657e+03 1.550e-10
 55.90853     28.7 9.667e+03 1.604e-10
 55.94795     31.0 9.675e+03 1.640e-10
 55.98738     33.3 9.690e+03 1.621e-10
 56.02370     35.7 9.726e+03 1.555e-10
 56.04341     36.2 9.564e+03 1.290e-10
 56.06622     38.6 9.632e+03 1.303e-10
 56.09818     40.8 9.719e+03 1.287e-10
 56.11790     40.8 9.680e+03 1.281e-10
 56.14506     43.0 9.818e+03 1.324e-10
 56.18449     45.0 9.910e+03 1.390e-10
 56.22391     47.1 1.000e+04 1.455e-10
 56.26333     49.3 1.000e+04 1.482e-10
 56.30275     51.4 9.934e+03 1.412e-10
 56.34217     53.6 9.845e+03 1.225e-10
 56.38160     55.6 9.739e+03 1.021e-10
 56.41450     57.6 9.608e+03 9.221e-11
 56.43421     58.8 9.843e+03 1.324e-10
 56.46044     60.9 9.816e+03 1.277e-10
 56.49986     62.8 9.865e+03 1.353e-10
 56.53357     64.0 1.012e+04 1.777e-10
 56.55328     64.4 1.047e+04 2.558e-10
 56.57870     65.0 1.117e+04 4.081e-10
 56.60817     64.1 1.172e+04 5.301e-10
 56.61957     63.3 1.206e+04 7.393e-10
 56.62942     65.5 1.172e+04 5.557e-10
 56.64750     64.7 1.202e+04 7.560e-10
 56.66721     63.9 1.220e+04 9.627e-10
 56.68692     63.0 1.247e+04 1.176e-09
 56.70663     62.1 1.277e+04 1.390e-09
 56.72634     61.3 1.303e+04 1.598e-09
 56.74605     60.4 1.332e+04 1.733e-09
 56.76092     59.2 1.361e+04 1.809e-09
 56.77077     57.4 1.499e+04 2.788e-09
 56.78547     54.7 1.562e+04 3.209e-09
 56.80511     51.7 1.615e+04 3.907e-09
 56.82482     49.1 1.737e+04 6.086e-09
 56.84461     46.0 1.733e+04 6.791e-09
 56.86432     43.7 1.693e+04 6.994e-09
 56.88403     41.6 1.642e+04 6.436e-09
 56.90374     39.1 1.582e+04 5.496e-09
 56.92345     36.6 1.509e+04 4.362e-09
 56.94316     34.4 1.424e+04 3.284e-09
 56.96287     32.7 1.333e+04 2.381e-09
 56.97861     31.3 1.250e+04 1.678e-09
 56.98846     29.7 1.229e+04 1.534e-09
 57.00051     28.6 1.162e+04 1.071e-09
 57.01037     27.6 1.164e+04 1.054e-09
 57.02201     26.1 1.090e+04 7.024e-10
 57.04172     24.8 1.025e+04 5.148e-10
 57.06143     23.7 9.867e+03 4.728e-10
 57.08114     24.0 9.704e+03 4.525e-10
 57.10085     24.0 9.749e+03 4.601e-10
 57.13051     23.9 9.792e+03 4.741e-10
 57.17003     24.3 9.814e+03 4.865e-10
 57.19601     24.9 9.839e+03 4.913e-10
 57.20266     23.9 1.011e+04 5.638e-10
 57.20615     22.7 1.039e+04 6.704e-10
 57.21912     22.7 1.037e+04 7.014e-10
 57.23883     23.0 1.034e+04 6.945e-10
 57.25854     23.1 1.032e+04 6.780e-10
 57.27825     23.0 1.032e+04 6.675e-10
 57.29796     23.0 1.026e+04 6.603e-10
 57.31767     23.2 1.015e+04 6.484e-10
 57.33738     23.5 1.003e+04 6.327e-10
 57.35709     24.0 9.921e+03 6.109e-10
 57.37680     24.4 9.809e+03 5.877e-10
 57.39132     25.0 9.606e+03 4.851e-10
 57.40117     24.7 9.637e+03 4.830e-10
 57.41399     24.6 9.582e+03 4.526e-10
 57.42394     24.3 9.540e+03 4.348e-10
 57.44599     25.9 9.125e+03 3.329e-10
 57.48541     27.5 8.794e+03 2.670e-10
 57.52483     28.8 8.628e+03 2.383e-10
 57.56425     30.0 8.690e+03 2.557e-10
 57.58691     31.5 8.842e+03 3.046e-10
 57.60662     30.5 9.218e+03 4.131e-10
 57.64310     32.4 9.329e+03 4.606e-10
 57.68252     34.4 9.285e+03 4.514e-10
 57.72194     36.6 9.104e+03 3.859e-10
 57.76136     38.5 8.870e+03 2.967e-10
 57.80079     40.2 8.629e+03 2.397e-10
 57.83971     41.9 8.537e+03 2.182e-10
 57.85942     41.6 8.380e+03 1.817e-10
 57.87963     43.6 8.377e+03 1.813e-10
 57.91905     45.7 8.406e+03 1.857e-10
 57.95800     47.8 8.484e+03 1.960e-10
 57.97771     46.7 8.547e+03 1.904e-10
 57.99790     48.8 8.659e+03 2.083e-10
 58.03732     50.9 8.783e+03 2.216e-10
 58.07674     52.9 8.884e+03 2.231e-10
 58.11616     54.8 8.898e+03 2.203e-10
 58.15558     56.6 8.924e+03 2.140e-10
 58.19501     58.5 8.935e+03 2.127e-10
 58.23443     60.3 8.990e+03 2.153e-10
 58.27385     62.0 9.080e+03 2.259e-10
 58.29480     63.6 9.193e+03 2.454e-10
 58.31452     63.7 9.217e+03 2.474e-10
 58.34881     65.2 9.383e+03 2.804e-10
 58.36852     64.4 9.628e+03 3.532e-10
 58.39212     65.9 9.885e+03 4.193e-10
 58.43154     67.2 1.016e+04 4.833e-10
 58.47096     68.3 1.035e+04 5.103e-10
 58.51038     69.5 1.039e+04 5.010e-10
 58.54980     70.7 1.039e+04 4.617e-10
 58.58923     72.1 1.032e+04 4.170e-10
 58.62865     73.6 1.023e+04 3.864e-10
 58.66807     75.3 1.017e+04 3.657e-10
 58.70749     77.1 1.011e+04 3.443e-10
 58.73019     79.0 1.003e+04 3.262e-10
 58.74259     79.0 1.004e+04 3.282e-10
 58.75932     78.6 1.041e+04 4.607e-10
 58.78634     80.8 1.054e+04 4.676e-10
 58.82576     83.6 1.073e+04 4.716e-10
 58.85523     85.1 1.048e+04 4.409e-10
 58.87484     86.3 1.035e+04 4.337e-10
 58.89455     87.4 1.045e+04 4.371e-10
 58.91426     87.7 1.104e+04 4.556e-10
 58.93397     85.9 1.499e+04 6.458e-10
 58.94467     80.9 2.238e+04 1.315e-09
 58.94848     76.3 2.715e+04 2.978e-09
 58.95251     75.1 2.652e+04 4.830e-09
 58.95851     71.8 2.769e+04 9.592e-09
 58.96837     69.0 2.624e+04 2.024e-08
 58.97822     68.1 2.419e+04 3.882e-08
 58.98808     68.2 2.270e+04 5.981e-08
 58.99794     68.4 2.143e+04 7.221e-08
 59.00779     69.0 2.099e+04 7.306e-08
 59.01765     69.9 2.018e+04 7.024e-08
 59.02750     70.7 1.986e+04 6.175e-08
 59.03735     71.1 1.968e+04 5.531e-08
 59.04720     71.2 1.973e+04 3.544e-08
 59.05643     70.6 2.147e+04 2.477e-08
 59.06136     70.3 2.356e+04 1.593e-08
 59.06692     69.3 2.731e+04 8.776e-09
 59.07678     67.8 3.115e+04 4.407e-09
 59.08663     65.4 3.318e+04 2.148e-09
 59.09649     61.8 3.102e+04 1.154e-09
 59.10635     57.7 2.392e+04 7.699e-10
 59.11620     54.8 1.807e+04 6.764e-10
 59.12606     53.5 1.540e+04 6.208e-10
 59.13505     53.3 1.503e+04 6.023e-10
 59.14002     50.6 1.229e+04 6.591e-10
 59.15079     50.6 1.206e+04 6.165e-10
 59.16537     50.5 1.211e+04 6.477e-10
 59.17523     51.2 1.196e+04 6.301e-10
 59.19021     51.2 1.204e+04 7.107e-10
 59.20993     51.3 1.214e+04 8.056e-10
 59.22964     51.8 1.227e+04 8.791e-10
 59.24935     52.2 1.236e+04 8.870e-10
 59.26906     52.5 1.238e+04 8.721e-10
 59.28877     52.5 1.240e+04 8.014e-10
 59.30848     52.1 1.239e+04 6.884e-10
 59.33814     51.5 1.196e+04 5.016e-10
 59.37766     51.6 1.133e+04 3.169e-10
 59.41709     51.6 1.084e+04 2.024e-10
 59.45651     51.7 1.054e+04 1.460e-10
 59.49593     52.2 1.031e+04 1.277e-10
 59.52121     53.4 1.022e+04 1.268e-10
 59.54092     53.3 1.023e+04 1.245e-10
 59.57477     54.8 1.023e+04 1.252e-10
 59.60095     56.2 1.025e+04 1.278e-10
 59.62066     57.0 1.026e+04 1.287e-10
 59.65362     58.3 1.033e+04 1.364e-10
 59.69304     59.6 1.039e+04 1.506e-10
 59.73246     60.8 1.041e+04 1.734e-10
 59.77188     62.1 1.040e+04 2.027e-10
 59.81131     63.5 1.033e+04 2.339e-10
 59.85073     64.9 1.019e+04 2.507e-10
 59.89015     66.2 1.014e+04 2.502e-10
 59.91202     67.6 1.001e+04 2.466e-10
 59.93173     67.7 9.966e+03 2.218e-10
 59.96899     69.1 9.812e+03 2.090e-10
 60.00842     70.6 9.791e+03 2.092e-10
 60.03633     72.1 9.797e+03 2.173e-10
 60.05604     72.9 9.838e+03 2.122e-10
 60.08726     74.4 9.870e+03 2.299e-10
 60.12668     76.0 9.958e+03 2.613e-10
 60.16610     77.5 1.007e+04 3.012e-10
 60.20553     79.0 1.016e+04 3.456e-10
 60.24495     80.6 1.022e+04 3.908e-10
 60.28311     82.2 1.020e+04 4.227e-10
 60.30282     82.6 9.771e+03 2.566e-10
 60.32379     84.3 9.802e+03 3.049e-10
 60.36321     86.3 9.890e+03 3.650e-10
 60.40264     88.5 1.005e+04 4.289e-10
 60.44206     90.1 1.016e+04 4.727e-10
 60.47153     91.3 1.010e+04 4.797e-10
 60.49124     92.0 1.010e+04 4.662e-10
 60.51095     93.2 1.009e+04 4.903e-10
 60.53056     94.1 1.013e+04 5.210e-10
 60.55027     95.2 1.017e+04 5.628e-10
 60.56998     96.3 1.024e+04 6.140e-10
 60.58969     97.3 1.034e+04 6.777e-10
 60.60941     98.3 1.047e+04 7.536e-10
 60.62912     99.2 1.061e+04 8.379e-10
 60.64883    100.1 1.077e+04 9.229e-10
 60.66854    100.9 1.088e+04 9.680e-10
 60.68357    101.5 1.089e+04 9.652e-10
 60.69343    101.1 1.073e+04 6.548e-10
 60.71791    101.8 1.028e+04 4.999e-10
 60.75743    103.6 9.863e+03 3.841e-10
 60.79686    105.5 9.325e+03 2.640e-10
 60.83628    107.5 8.817e+03 1.789e-10
 60.87570    109.3 8.403e+03 1.326e-10
 60.90710    111.2 8.161e+03 1.161e-10
 60.92681    111.8 8.090e+03 1.103e-10
 60.95454    113.9 8.083e+03 1.112e-10
 60.99397    116.0 8.081e+03 1.171e-10
 61.03339    118.2 8.109e+03 1.295e-10
 61.06471    120.2 8.185e+03 1.486e-10
 61.08442    120.1 8.429e+03 1.874e-10
 61.11223    122.1 8.574e+03 2.214e-10
 61.15165    124.1 8.726e+03 2.573e-10
 61.19107    126.0 8.871e+03 2.926e-10
 61.23050    127.7 8.990e+03 3.245e-10
 61.26992    129.1 9.073e+03 3.459e-10
 61.30934    130.3 9.207e+03 3.404e-10
 61.34248    131.3 9.213e+03 3.289e-10
 61.36219    132.2 8.957e+03 2.587e-10
 61.38818    133.1 8.957e+03 2.419e-10
 61.42761    134.0 9.016e+03 2.445e-10
 61.45552    134.4 9.136e+03 2.569e-10
 61.47523    134.2 9.114e+03 2.327e-10
 61.49650    134.0 9.200e+03 2.630e-10
 61.51611    133.4 9.509e+03 3.637e-10
 61.53582    131.5 1.074e+04 6.974e-10
 61.55553    129.2 1.238e+04 1.524e-09
 61.56983    127.1 1.393e+04 3.169e-09
 61.57968    128.6 1.359e+04 2.738e-09
 61.59495    125.9 1.584e+04 5.849e-09
 61.61467    121.6 1.843e+04 1.031e-08
 61.63438    115.3 2.046e+04 1.231e-08
 61.65072    107.8 2.052e+04 1.167e-08
 61.66058    104.6 2.070e+04 1.237e-08
 61.67380     98.7 1.853e+04 8.186e-09
 61.69351     94.9 1.549e+04 4.264e-09
 61.71322     92.3 1.289e+04 1.845e-09
 61.74288     89.3 1.214e+04 7.395e-10
 61.77786     84.4 1.032e+04 2.208e-10
 61.79757     85.8 1.021e+04 1.599e-10
 61.82183     84.3 9.806e+03 1.517e-10
 61.84632     84.4 9.792e+03 1.529e-10
 61.86603     83.3 9.727e+03 1.563e-10
 61.90067     83.7 9.780e+03 1.841e-10
 61.94009     84.2 1.001e+04 2.390e-10
 61.97951     84.8 1.027e+04 3.063e-10
 62.01894     85.2 1.044e+04 3.340e-10
 62.05836     85.6 1.045e+04 3.290e-10
 62.09778     86.2 1.039e+04 3.044e-10
 62.13720     86.9 1.035e+04 2.999e-10
 62.17662     88.0 1.035e+04 3.076e-10
 62.21324     88.9 1.048e+04 3.665e-10
 62.23295     90.8 1.016e+04 2.727e-10
 62.23712     91.9 1.040e+04 3.494e-10
 62.25683     92.1 1.050e+04 4.188e-10
 62.28494     92.3 1.078e+04 5.405e-10
 62.30455     92.8 1.096e+04 6.322e-10
 62.32426     93.3 1.112e+04 7.139e-10
 62.34397     93.7 1.127e+04 7.761e-10
 62.36368     94.1 1.141e+04 8.099e-10
 62.38339     94.4 1.148e+04 8.143e-10
 62.40311     94.6 1.148e+04 7.972e-10
 62.42247     94.8 1.145e+04 7.586e-10
 62.43233     94.6 1.154e+04 8.304e-10
 62.44059     94.9 1.150e+04 8.168e-10
 62.45045     96.3 1.160e+04 8.435e-10
 62.46224     96.4 1.162e+04 8.535e-10
 62.48195     96.5 1.169e+04 8.908e-10
 62.50166     96.5 1.183e+04 9.728e-10
 62.52137     96.4 1.201e+04 1.102e-09
 62.54108     96.5 1.223e+04 1.281e-09
 62.56079     96.6 1.246e+04 1.491e-09
 62.58050     96.7 1.265e+04 1.646e-09
 62.60021     96.7 1.270e+04 1.660e-09
 62.61787     96.6 1.268e+04 1.636e-09
 62.62773     96.2 1.266e+04 1.616e-09
 62.63964     96.2 1.244e+04 1.452e-09
 62.65828     96.3 1.213e+04 1.238e-09
 62.66814     97.0 1.234e+04 1.369e-09
 62.67906     97.2 1.199e+04 1.136e-09
 62.69877     97.6 1.163e+04 9.173e-10
 62.71848     97.9 1.130e+04 7.415e-10
 62.73819     98.3 1.101e+04 6.107e-10
 62.75790     98.6 1.080e+04 5.304e-10
 62.77761     99.0 1.062e+04 4.830e-10
 62.79732     99.7 1.051e+04 4.841e-10
 62.81327    100.5 1.049e+04 4.908e-10
 62.82313    100.2 1.053e+04 5.612e-10
 62.83675    101.1 1.058e+04 5.886e-10
 62.85646    102.1 1.065e+04 6.180e-10
 62.87597    103.1 1.071e+04 6.419e-10
 62.88583    103.8 1.072e+04 6.422e-10
 62.89588    104.7 1.077e+04 6.484e-10
 62.91559    105.5 1.077e+04 6.462e-10
 62.93530    106.3 1.077e+04 6.375e-10
 62.95501    107.1 1.073e+04 6.152e-10
 62.97472    107.8 1.068e+04 5.878e-10
 62.99443    108.8 1.060e+04 5.504e-10
 63.00868    109.4 1.062e+04 5.381e-10
 63.01853    109.1 1.059e+04 5.475e-10
 63.03386    110.0 1.057e+04 5.393e-10
 63.05357    110.6 1.058e+04 5.419e-10
 63.08323    111.0 1.055e+04 5.294e-10
 63.10371    112.4 1.045e+04 5.035e-10
 63.12343    114.2 1.045e+04 5.108e-10
 63.16217    115.2 1.040e+04 4.973e-10
 63.20160    115.9 1.031e+04 4.679e-10
 63.24102    116.5 1.017e+04 4.281e-10
 63.28044    117.1 1.003e+04 3.918e-10
 63.31986    117.7 9.904e+03 3.675e-10
 63.35928    118.6 9.779e+03 3.661e-10
 63.38982    119.7 9.739e+03 3.645e-10
 63.40953    119.1 9.943e+03 4.008e-10
 63.43813    120.5 9.873e+03 3.869e-10
 63.47755    122.1 9.759e+03 3.579e-10
 63.51697    123.8 9.615e+03 3.204e-10
 63.53910    125.7 9.508e+03 2.929e-10
 63.55881    125.4 9.491e+03 2.882e-10
 63.59581    127.3 9.500e+03 2.870e-10
 63.63524    129.3 9.579e+03 2.920e-10
 63.67466    131.2 9.815e+03 3.191e-10
 63.71408    132.7 1.004e+04 3.671e-10
 63.74355    133.3 1.008e+04 3.937e-10
 63.75659    133.8 1.007e+04 4.149e-10
 63.76645    133.5 1.009e+04 4.275e-10
 63.78043    134.2 1.019e+04 4.823e-10
 63.79028    133.3 1.008e+04 4.567e-10
 63.80258    134.1 1.020e+04 5.232e-10
 63.82230    134.9 1.033e+04 5.874e-10
 63.84201    135.6 1.042e+04 6.363e-10
 63.86172    136.3 1.048e+04 6.718e-10
 63.88143    136.9 1.052e+04 6.916e-10
 63.90114    137.4 1.053e+04 6.883e-10
 63.92085    137.8 1.054e+04 6.703e-10
 63.94056    138.1 1.051e+04 6.255e-10
 63.96027    138.4 1.043e+04 5.619e-10
 63.97428    138.2 1.027e+04 4.638e-10
 63.99409    136.8 9.881e+03 3.442e-10
 64.02946    137.4 9.615e+03 2.799e-10
 64.06888    137.8 9.401e+03 2.508e-10
 64.10830    138.1 9.388e+03 2.534e-10
 64.14772    138.3 9.449e+03 2.769e-10
 64.17142    138.4 9.543e+03 3.104e-10
 64.19113    138.0 9.731e+03 3.332e-10
 64.21661    137.1 9.996e+03 4.372e-10
 64.23623    136.6 1.023e+04 5.716e-10
 64.25594    136.2 1.044e+04 7.167e-10
 64.27565    135.9 1.069e+04 8.495e-10
 64.29536    135.2 1.100e+04 9.794e-10
 64.31507    133.6 1.149e+04 1.157e-09
 64.33478    131.0 1.222e+04 1.475e-09
 64.35449    128.0 1.305e+04 2.046e-09
 64.36663    125.4 1.379e+04 2.935e-09
 64.37649    125.3 1.307e+04 2.388e-09
 64.39391    123.6 1.345e+04 2.908e-09
 64.40966    122.1 1.353e+04 2.994e-09
 64.41952    121.8 1.317e+04 2.581e-09
 64.43334    120.4 1.312e+04 2.514e-09
 64.45305    119.0 1.282e+04 2.175e-09
 64.47276    118.2 1.242e+04 1.866e-09
 64.50242    117.5 1.175e+04 1.399e-09
 64.54194    115.8 1.016e+04 7.347e-10
 64.56223    114.7 8.534e+03 3.659e-10
 64.58194    114.9 9.490e+03 5.753e-10
 64.62079    114.9 9.027e+03 4.396e-10
 64.65025    115.1 8.784e+03 3.799e-10
 64.66987    115.2 8.787e+03 3.769e-10
 64.68958    114.9 8.942e+03 3.992e-10
 64.70929    114.4 9.411e+03 4.900e-10
 64.72900    114.1 1.006e+04 6.685e-10
 64.74758    114.1 1.067e+04 9.126e-10
 64.75743    113.0 1.149e+04 1.307e-09
 64.76842    113.5 1.194e+04 1.594e-09
 64.78813    114.0 1.226e+04 1.774e-09
 64.80784    114.3 1.229e+04 1.765e-09
 64.82756    114.5 1.225e+04 1.667e-09
 64.84505    114.6 1.203e+04 1.458e-09
 64.85490    114.3 1.196e+04 1.456e-09
 64.86698    114.2 1.164e+04 1.199e-09
 64.88669    113.9 1.125e+04 9.504e-10
 64.90640    113.6 1.087e+04 7.493e-10
 64.92611    113.1 1.052e+04 6.079e-10
 64.94298    112.7 1.026e+04 5.029e-10
 64.95283    110.7 1.058e+04 5.975e-10
 64.96553    110.5 1.062e+04 6.159e-10
 64.98524    110.6 1.077e+04 6.622e-10
 65.00495    110.7 1.103e+04 7.314e-10
 65.02467    110.6 1.144e+04 8.271e-10
 65.04438    110.1 1.203e+04 9.662e-10
 65.06274    109.2 1.279e+04 1.182e-09
 65.07259    109.7 1.199e+04 8.639e-10
 65.08380    108.7 1.278e+04 1.094e-09
 65.10351    107.5 1.344e+04 1.424e-09
 65.12322    106.4 1.380e+04 1.802e-09
 65.13838    105.6 1.389e+04 2.125e-09
 65.14823    103.2 1.374e+04 2.234e-09
 65.16264    102.8 1.352e+04 2.145e-09
 65.18235    102.3 1.318e+04 1.856e-09
 65.20206    101.3 1.285e+04 1.447e-09
 65.22178     99.5 1.253e+04 1.079e-09
 65.24149     97.0 1.217e+04 8.438e-10
 65.26120     94.2 1.192e+04 7.767e-10
 65.28043     91.8 1.183e+04 8.120e-10
 65.29028     94.5 1.182e+04 7.824e-10
 65.30062     92.3 1.177e+04 8.470e-10
 65.32033     90.0 1.203e+04 1.040e-09
 65.33378     87.4 1.286e+04 1.384e-09
 65.34364     85.0 1.286e+04 1.353e-09
 65.35975     82.1 1.381e+04 1.789e-09
 65.37946     78.9 1.426e+04 2.059e-09
 65.39917     75.6 1.414e+04 2.032e-09
 65.41889     72.6 1.358e+04 1.845e-09
 65.43860     70.0 1.290e+04 1.548e-09
 65.45831     67.8 1.241e+04 1.272e-09
 65.47802     65.8 1.218e+04 1.066e-09
 65.49773     64.0 1.229e+04 9.774e-10
 65.50797     62.3 1.255e+04 9.947e-10
 65.51783     65.6 1.225e+04 1.069e-09
 65.52918     64.2 1.262e+04 1.109e-09
 65.53904     64.5 1.270e+04 1.051e-09
 65.55686     62.8 1.340e+04 1.303e-09
 65.57657     61.4 1.379e+04 1.743e-09
 65.59628     60.6 1.408e+04 2.402e-09
 65.61600     60.8 1.462e+04 3.408e-09
 65.63571     60.9 1.538e+04 4.636e-09
 65.65044     61.5 1.568e+04 5.121e-09
 65.66025     61.6 1.582e+04 5.365e-09
 65.67010     61.6 1.630e+04 5.975e-09
 65.67996     61.4 1.686e+04 6.748e-09
 65.68981     61.0 1.744e+04 7.534e-09
 65.69967     60.5 1.792e+04 8.251e-09
 65.70952     59.9 1.832e+04 8.944e-09
 65.71938     59.1 1.865e+04 9.606e-09
 65.72449     58.3 1.897e+04 1.035e-08
 65.72575     59.1 1.823e+04 7.042e-09
 65.73050     60.6 1.901e+04 1.008e-08
 65.73909     59.7 1.916e+04 1.049e-08
 65.74895     58.6 1.934e+04 1.092e-08
 65.75880     57.4 1.953e+04 1.139e-08
 65.76866     56.3 1.983e+04 1.198e-08
 65.77851     55.2 2.022e+04 1.273e-08
 65.78837     54.0 2.073e+04 1.366e-08
 65.79822     52.9 2.112e+04 1.452e-08
 65.80808     51.8 2.151e+04 1.526e-08
 65.81726     50.8 2.168e+04 1.558e-08
 65.82219     52.4 2.057e+04 1.155e-08
 65.82779     51.0 2.127e+04 1.244e-08
 65.83441     50.6 2.150e+04 1.259e-08
 65.83934     50.8 2.153e+04 1.269e-08
 65.85248     47.3 2.289e+04 1.585e-08
 65.87224     44.2 2.362e+04 1.660e-08
 65.89195     41.0 2.353e+04 1.669e-08
 65.91013     37.7 2.258e+04 1.672e-08
 65.91998     42.0 2.296e+04 1.725e-08
 65.93137     38.8 2.232e+04 1.852e-08
 65.94336     36.9 2.103e+04 1.770e-08
 65.95321     38.9 2.185e+04 1.918e-08
 65.97079     37.8 2.011e+04 1.581e-08
 65.99050     37.5 1.864e+04 9.884e-09
 66.01021     36.9 1.785e+04 4.645e-09
 66.02993     34.8 1.747e+04 1.632e-09
 66.04964     30.5 1.508e+04 5.293e-10
 66.06935     26.5 1.004e+04 3.814e-10
 66.08906     25.4 9.344e+03 3.527e-10
 66.10563     25.4 9.321e+03 3.561e-10
 66.12544     28.9 9.892e+03 3.859e-10
 66.15139     29.4 9.419e+03 3.392e-10
 66.17110     30.1 9.129e+03 3.543e-10
 66.19766     32.0 8.887e+03 2.998e-10
 66.23709     34.2 8.778e+03 2.620e-10
 66.27651     36.8 8.684e+03 2.625e-10
 66.31593     39.7 8.806e+03 2.884e-10
 66.35535     42.3 9.235e+03 3.486e-10
 66.37884     43.4 9.442e+03 4.045e-10
 66.38859     44.1 9.365e+03 3.896e-10
 66.40443     45.5 9.559e+03 4.512e-10
 66.42415     46.9 9.813e+03 5.320e-10
 66.44386     48.2 1.007e+04 6.200e-10
 66.46357     49.6 1.029e+04 7.022e-10
 66.48328     51.0 1.049e+04 7.719e-10
 66.49633     52.3 1.070e+04 8.297e-10
 66.50619     51.7 1.033e+04 6.636e-10
 66.52270     52.7 1.047e+04 6.768e-10
 66.54241     53.6 1.052e+04 6.769e-10
 66.56212     54.3 1.052e+04 6.741e-10
 66.58183     55.0 1.053e+04 6.761e-10
 66.59643     55.7 1.053e+04 6.895e-10
 66.60628     56.7 1.067e+04 7.476e-10
 66.62126     57.4 1.068e+04 7.615e-10
 66.64097     58.1 1.072e+04 8.042e-10
 66.66068     58.8 1.080e+04 8.606e-10
 66.68039     59.7 1.087e+04 9.171e-10
 66.69173     60.5 1.096e+04 9.709e-10
 66.70159     59.8 1.079e+04 8.940e-10
 66.71981     60.6 1.088e+04 9.400e-10
 66.73952     61.3 1.096e+04 9.781e-10
 66.75923     62.0 1.103e+04 1.012e-09
 66.77894     62.7 1.108e+04 1.043e-09
 66.79865     63.4 1.107e+04 1.062e-09
 66.81412     64.2 1.105e+04 1.059e-09
 66.82398     64.8 1.113e+04 1.057e-09
 66.83808     65.6 1.104e+04 1.026e-09
 66.85779     66.4 1.089e+04 9.637e-10
 66.87728     67.3 1.066e+04 8.688e-10
 66.88714     66.4 1.054e+04 8.237e-10
 66.89721     67.2 1.026e+04 7.164e-10
 66.91692     68.0 9.934e+03 6.011e-10
 66.93663     68.5 9.661e+03 5.050e-10
 66.95634     68.6 9.439e+03 4.362e-10
 66.98601     69.2 9.170e+03 3.722e-10
 67.02215     70.4 8.860e+03 3.139e-10
 67.04186     71.0 8.972e+03 3.491e-10
 67.06495     72.4 8.940e+03 3.501e-10
 67.10437     73.6 8.934e+03 3.474e-10
 67.14379     74.5 8.925e+03 3.388e-10
 67.18321     74.3 8.923e+03 3.297e-10
 67.22264     73.7 9.061e+03 3.333e-10
 67.25842     71.9 9.316e+03 3.516e-10
 67.27813     71.6 9.103e+03 3.651e-10
 67.30148     69.9 9.249e+03 3.735e-10
 67.33095     68.0 9.305e+03 4.021e-10
 67.35056     66.0 9.420e+03 4.427e-10
 67.37027     64.2 9.602e+03 5.052e-10
 67.38998     60.6 1.049e+04 7.046e-10
 67.40969     56.3 1.225e+04 1.086e-09
 67.42443     51.8 1.620e+04 1.732e-09
 67.43424     41.7 2.441e+04 5.352e-09
 67.44409     34.1 2.608e+04 1.601e-08
 67.45395     30.6 2.423e+04 3.220e-08
 67.46339     29.5 2.216e+04 4.923e-08
 67.46831     30.7 2.347e+04 3.444e-08
 67.47202     30.5 2.154e+04 5.088e-08
 67.47695     30.7 2.098e+04 5.238e-08
 67.48351     31.0 2.046e+04 5.440e-08
 67.49337     31.8 1.998e+04 5.231e-08
 67.50322     32.7 1.985e+04 4.541e-08
 67.51308     33.3 1.994e+04 3.570e-08
 67.52791     33.7 2.011e+04 2.012e-08
 67.54767     32.6 2.016e+04 7.471e-09
 67.56738     29.8 1.822e+04 2.651e-09
 67.58709     26.7 1.375e+04 1.191e-09
 67.61676     25.7 1.065e+04 7.388e-10
 67.64923     28.1 9.582e+03 5.306e-10
 67.66894     31.7 1.029e+04 6.305e-10
 67.69570     33.9 9.645e+03 5.190e-10
 67.73512     37.0 9.529e+03 5.005e-10
 67.77454     40.2 9.475e+03 4.954e-10
 67.81397     43.1 9.445e+03 4.808e-10
 67.85339     45.7 9.430e+03 4.483e-10
 67.89281     48.0 9.412e+03 4.099e-10
 67.93223     50.0 9.496e+03 4.385e-10
 67.97165     51.8 9.543e+03 4.777e-10
 68.01107     53.4 9.750e+03 5.544e-10
 68.04003     54.8 9.883e+03 6.369e-10
 68.04979     56.1 9.707e+03 5.355e-10
 68.06016     56.7 9.737e+03 5.687e-10
 68.07987     57.2 9.845e+03 6.099e-10
 68.09958     57.8 9.909e+03 6.459e-10
 68.11929     58.3 1.001e+04 6.925e-10
 68.13012     58.9 1.011e+04 7.446e-10
 68.13998     59.2 1.020e+04 7.972e-10
 68.15871     59.7 1.041e+04 8.963e-10
 68.17842     60.2 1.061e+04 1.000e-09
 68.19813     60.9 1.082e+04 1.094e-09
 68.21785     61.6 1.101e+04 1.155e-09
 68.23523     62.2 1.114e+04 1.167e-09
 68.24509     63.2 1.115e+04 1.151e-09
 68.25727     63.7 1.132e+04 1.170e-09
 68.27698     63.9 1.145e+04 1.177e-09
 68.29669     64.0 1.151e+04 1.182e-09
 68.31640     64.2 1.154e+04 1.198e-09
 68.33611     64.5 1.154e+04 1.224e-09
 68.34781     64.9 1.152e+04 1.225e-09
 68.35767     65.5 1.201e+04 1.446e-09
 68.37553     66.0 1.196e+04 1.412e-09
 68.39524     66.6 1.191e+04 1.347e-09
 68.41495     67.3 1.185e+04 1.240e-09
 68.43064     68.0 1.176e+04 1.098e-09
 68.44049     68.7 1.177e+04 1.283e-09
 68.45438     69.0 1.169e+04 1.014e-09
 68.47409     68.9 1.156e+04 7.827e-10
 68.49380     68.4 1.130e+04 6.817e-10
 68.51351     67.8 1.122e+04 6.831e-10
 68.53322     67.2 1.117e+04 7.194e-10
 68.55293     66.8 1.115e+04 8.558e-10
 68.56550     66.9 1.126e+04 1.076e-09
 68.57536     67.2 1.260e+04 1.541e-09
 68.59235     67.6 1.254e+04 1.837e-09
 68.61206     68.3 1.253e+04 1.902e-09
 68.62604     69.0 1.247e+04 1.844e-09
 68.63589     69.6 1.266e+04 2.198e-09
 68.65149     70.0 1.257e+04 1.984e-09
 68.68115     70.3 1.201e+04 1.392e-09
 68.72067     71.2 1.144e+04 9.153e-10
 68.76009     71.8 1.147e+04 6.959e-10
 68.78339     72.6 1.185e+04 7.403e-10
 68.80310     72.7 1.128e+04 6.877e-10
 68.82163     73.9 1.159e+04 8.285e-10
 68.84134     75.2 1.103e+04 5.842e-10
 68.87836     76.6 1.156e+04 7.448e-10
 68.90783     75.8 1.267e+04 1.198e-09
 68.92744     75.8 1.324e+04 1.843e-09
 68.94715     76.3 1.356e+04 2.708e-09
 68.96686     77.2 1.374e+04 3.605e-09
 68.98657     78.5 1.392e+04 4.355e-09
 69.00088     79.9 1.402e+04 4.722e-09
 69.01074     80.2 1.369e+04 3.969e-09
 69.01684     81.6 1.371e+04 4.057e-09
 69.02669     81.6 1.382e+04 3.957e-09
 69.04571     82.9 1.382e+04 3.948e-09
 69.06542     84.1 1.371e+04 3.772e-09
 69.08513     85.4 1.341e+04 3.314e-09
 69.10484     86.3 1.300e+04 2.635e-09
 69.12455     87.2 1.256e+04 2.045e-09
 69.15421     88.0 1.172e+04 1.187e-09
 69.19272     89.6 1.079e+04 7.241e-10
 69.21234     90.6 1.118e+04 9.885e-10
 69.21857     91.4 1.086e+04 8.131e-10
 69.22843     92.1 1.101e+04 8.666e-10
 69.24282     92.9 1.071e+04 7.184e-10
 69.26253     93.7 1.042e+04 6.084e-10
 69.28224     94.7 1.013e+04 5.285e-10
 69.30195     95.7 9.901e+03 4.738e-10
 69.32166     96.8 9.718e+03 4.357e-10
 69.34137     97.9 9.577e+03 4.054e-10
 69.36108     99.1 9.475e+03 3.812e-10
 69.38079    100.2 9.373e+03 3.547e-10
 69.39779    101.2 9.306e+03 3.308e-10
 69.40764    101.7 9.332e+03 3.437e-10
 69.42021    102.9 9.225e+03 3.036e-10
 69.43627    103.4 9.174e+03 2.855e-10
 69.44612    104.2 9.218e+03 3.001e-10
 69.46959    105.3 9.097e+03 2.620e-10
 69.50911    107.3 8.942e+03 2.286e-10
 69.54853    109.1 8.853e+03 2.101e-10
 69.57800    109.9 8.821e+03 2.114e-10
 69.59319    110.7 8.802e+03 2.103e-10
 69.60304    111.5 8.760e+03 2.054e-10
 69.61732    111.7 8.845e+03 2.145e-10
 69.63704    111.5 9.129e+03 2.456e-10
 69.65396    110.5 9.732e+03 3.349e-10
 69.66381    110.3 9.734e+03 3.973e-10
 69.67646    108.5 1.054e+04 6.148e-10
 69.69617    106.5 1.139e+04 1.001e-09
 69.71588    104.4 1.232e+04 1.568e-09
 69.73559    102.2 1.337e+04 2.143e-09
 69.75530     99.7 1.418e+04 2.259e-09
 69.77501     96.9 1.418e+04 2.161e-09
 69.78859     94.1 1.370e+04 1.797e-09
 69.79844     92.2 1.342e+04 1.770e-09
 69.81443     90.6 1.229e+04 1.375e-09
 69.83415     89.7 1.161e+04 1.140e-09
 69.85386     89.4 1.134e+04 1.008e-09
 69.87165     89.4 1.122e+04 9.329e-10
 69.88150     89.8 1.119e+04 9.286e-10
 69.89328     89.9 1.112e+04 8.784e-10
 69.91299     90.1 1.101e+04 8.358e-10
 69.93270     90.4 1.094e+04 8.156e-10
 69.95241     90.7 1.095e+04 8.168e-10
 69.97212     90.9 1.100e+04 8.255e-10
 69.98399     91.2 1.109e+04 8.429e-10
 69.99385     90.0 1.144e+04 8.458e-10
 70.01154     90.3 1.147e+04 8.641e-10
 70.03126     90.6 1.146e+04 8.660e-10
 70.05097     90.8 1.143e+04 8.628e-10
 70.07068     91.1 1.138e+04 8.518e-10
 70.08934     91.4 1.135e+04 8.450e-10
 70.09919     92.0 1.119e+04 7.748e-10
 70.11010     92.3 1.119e+04 7.769e-10
 70.12981     92.4 1.121e+04 7.910e-10
 70.14952     92.6 1.133e+04 8.343e-10
 70.16923     92.8 1.157e+04 9.174e-10
 70.17939     93.0 1.186e+04 1.052e-09
 70.18925     91.5 1.217e+04 1.140e-09
 70.20865     91.7 1.240e+04 1.365e-09
 70.22837     92.0 1.275e+04 1.661e-09
 70.24808     92.4 1.301e+04 2.076e-09
 70.26779     93.0 1.323e+04 2.519e-09
 70.28750     93.6 1.350e+04 2.950e-09
 70.30703     94.2 1.386e+04 3.375e-09
 70.31688     94.5 1.457e+04 4.292e-09
 70.32692     94.7 1.513e+04 5.131e-09
 70.34663     94.5 1.565e+04 5.931e-09
 70.36494     94.3 1.613e+04 6.736e-09
 70.37479     92.9 1.568e+04 5.575e-09
 70.38605     92.7 1.566e+04 5.479e-09
 70.40576     92.5 1.553e+04 5.077e-09
 70.42548     92.2 1.520e+04 4.362e-09
 70.44519     91.5 1.472e+04 3.511e-09
 70.46490     90.5 1.414e+04 2.684e-09
 70.48461     89.0 1.344e+04 2.032e-09
 70.50432     87.4 1.268e+04 1.626e-09
 70.52403     86.0 1.225e+04 1.554e-09
 70.53458     85.0 1.228e+04 1.635e-09
 70.54443     84.4 1.239e+04 1.718e-09
 70.56034     84.1 1.280e+04 2.074e-09
 70.57019     83.6 1.310e+04 2.334e-09
 70.58316     83.7 1.350e+04 2.795e-09
 70.60287     83.6 1.352e+04 2.823e-09
 70.62258     83.5 1.339e+04 2.694e-09
 70.64230     83.5 1.302e+04 2.274e-09
 70.66201     83.2 1.256e+04 1.763e-09
 70.68172     82.2 1.207e+04 1.341e-09
 70.70143     80.8 1.154e+04 1.097e-09
 70.72114     79.5 1.123e+04 9.997e-10
 70.74085     78.7 1.108e+04 9.963e-10
 70.75227     78.3 1.106e+04 1.003e-09
 70.75730     78.5 1.092e+04 9.870e-10
 70.76560     78.1 1.099e+04 1.064e-09
 70.78027     78.0 1.100e+04 1.072e-09
 70.79998     78.0 1.097e+04 1.057e-09
 70.81969     78.1 1.084e+04 9.958e-10
 70.83941     78.2 1.065e+04 8.998e-10
 70.85912     78.2 1.044e+04 7.998e-10
 70.87883     78.1 1.026e+04 7.277e-10
 70.89854     78.0 1.022e+04 7.152e-10
 70.91825     78.0 1.024e+04 7.207e-10
 70.93796     77.9 1.034e+04 7.519e-10
 70.95114     77.7 1.058e+04 8.203e-10
 70.96100     76.8 1.085e+04 9.183e-10
 70.96996     76.3 1.120e+04 1.060e-09
 70.97981     76.9 1.074e+04 8.659e-10
 70.99709     76.5 1.105e+04 9.873e-10
 71.01680     76.0 1.133e+04 1.117e-09
 71.03652     75.4 1.161e+04 1.255e-09
 71.05623     74.8 1.187e+04 1.400e-09
 71.07594     74.2 1.208e+04 1.545e-09
 71.09565     73.6 1.223e+04 1.680e-09
 71.11536     73.1 1.228e+04 1.761e-09
 71.13507     72.8 1.220e+04 1.717e-09
 71.14654     72.6 1.204e+04 1.594e-09
 71.15640     71.9 1.180e+04 1.399e-09
 71.17449     71.5 1.164e+04 1.221e-09
 71.18765     70.7 1.158e+04 1.039e-09
 71.19750     71.9 1.158e+04 1.142e-09
 71.21391     70.3 1.169e+04 9.393e-10
 71.23363     67.4 1.181e+04 9.349e-10
 71.25334     63.5 1.210e+04 1.031e-09
 71.27305     60.2 1.252e+04 1.447e-09
 71.29276     58.4 1.300e+04 2.113e-09
 71.31247     57.6 1.337e+04 2.512e-09
 71.33209     56.8 1.339e+04 2.470e-09
 71.35180     56.5 1.280e+04 1.829e-09
 71.37160     55.4 1.237e+04 1.357e-09
 71.39131     53.7 1.177e+04 9.648e-10
 71.40534     51.9 1.112e+04 7.942e-10
 71.41519     52.0 1.114e+04 7.933e-10
 71.43074     51.3 1.105e+04 7.936e-10
 71.45045     51.1 1.114e+04 8.524e-10
 71.47016     51.1 1.145e+04 1.015e-09
 71.48987     51.2 1.179e+04 1.237e-09
 71.50958     51.4 1.215e+04 1.490e-09
 71.52749     51.6 1.251e+04 1.754e-09
 71.53735     51.8 1.232e+04 1.626e-09
 71.54900     51.7 1.262e+04 1.903e-09
 71.56871     51.3 1.310e+04 2.247e-09
 71.58842     50.6 1.367e+04 2.802e-09
 71.60813     50.0 1.421e+04 3.592e-09
 71.62303     49.8 1.461e+04 4.313e-09
 71.63289     49.1 1.513e+04 4.728e-09
 71.64756     48.8 1.514e+04 4.660e-09
 71.66727     48.3 1.496e+04 4.245e-09
 71.68698     47.5 1.472e+04 3.558e-09
 71.70669     46.1 1.445e+04 2.826e-09
 71.72289     44.4 1.394e+04 2.182e-09
 71.73275     45.2 1.342e+04 1.779e-09
 71.74611     43.7 1.274e+04 1.357e-09
 71.76582     42.8 1.202e+04 1.067e-09
 71.78553     42.4 1.142e+04 8.640e-10
 71.80524     42.2 1.097e+04 7.149e-10
 71.82495     42.1 1.061e+04 5.945e-10
 71.84072     42.0 1.034e+04 4.985e-10
 71.85058     40.9 1.012e+04 4.183e-10
 71.86438     40.6 9.908e+03 3.581e-10
 71.88409     40.4 9.732e+03 3.413e-10
 71.90380     40.4 9.728e+03 3.503e-10
 71.91829     40.4 9.761e+03 3.589e-10
 71.92825     40.9 9.778e+03 3.457e-10
 71.95327     41.0 9.774e+03 3.649e-10
 71.99269     41.1 9.743e+03 3.655e-10
 72.03212     41.2 9.598e+03 3.332e-10
 72.07154     41.5 9.290e+03 2.586e-10
 72.11096     41.4 8.976e+03 2.033e-10
 72.15038     41.0 9.027e+03 2.082e-10
 72.18980     39.7 9.407e+03 2.742e-10
 72.21927     38.9 9.645e+03 3.458e-10
 72.23889     38.0 1.011e+04 4.878e-10
 72.25860     36.8 1.083e+04 7.895e-10
 72.27610     36.0 1.152e+04 1.226e-09
 72.28596     35.7 1.154e+04 1.233e-09
 72.29802     35.0 1.196e+04 1.509e-09
 72.30910     32.7 1.294e+04 1.819e-09
 72.31895     34.7 1.223e+04 1.500e-09
 72.33744     27.7 1.522e+04 2.343e-09
 72.35715     19.2 1.676e+04 4.224e-09
 72.37686     14.4 1.557e+04 4.890e-09
 72.39657     12.9 1.460e+04 3.917e-09
 72.41628     11.2 1.355e+04 2.236e-09
 72.43600      7.7 1.195e+04 1.085e-09
 72.46566      3.3 1.032e+04 4.556e-10
 72.50518     -0.9 8.527e+03 1.887e-10
 72.54460     -1.6 8.152e+03 1.513e-10
 72.58402     -1.4 8.094e+03 1.469e-10
 72.62344     -1.3 8.356e+03 1.572e-10
 72.66287     -2.3 8.750e+03 2.005e-10
 72.69024     -2.8 8.984e+03 3.186e-10
 72.70948     -1.7 9.620e+03 5.222e-10
 72.72153     -0.5 9.698e+03 5.418e-10
 72.74171      0.3 1.011e+04 6.778e-10
 72.78113      0.5 1.029e+04 7.084e-10
 72.81060     -0.1 1.003e+04 5.724e-10
 72.83021     -0.8 1.002e+04 5.567e-10
 72.84993     -1.9 1.000e+04 5.596e-10
 72.86964     -2.5 9.861e+03 6.005e-10
 72.88544     -2.3 9.906e+03 6.528e-10
 72.89530     -2.1 9.859e+03 6.611e-10
 72.90906     -1.3 9.765e+03 6.559e-10
 72.92877     -0.4 9.562e+03 5.952e-10
 72.93903      0.5 9.390e+03 5.241e-10
 72.94889      0.8 9.763e+03 6.908e-10
 72.96819      1.7 9.676e+03 5.552e-10
 72.98790      1.9 9.512e+03 4.524e-10
 73.01757      1.6 9.194e+03 3.529e-10
 73.05709      2.2 8.742e+03 2.852e-10
 73.08104      3.9 8.411e+03 2.341e-10
 73.10075      3.6 7.812e+03 1.301e-10
 73.13593      5.2 7.696e+03 1.203e-10
 73.15692      6.6 7.693e+03 1.379e-10
 73.17663      6.6 7.750e+03 1.339e-10
 73.21477      7.4 8.195e+03 1.771e-10
 73.24424      7.4 8.404e+03 2.371e-10
 73.26386      5.9 9.774e+03 3.490e-10
 73.27625     -0.6 1.325e+04 1.009e-09
 73.28610     -1.5 1.324e+04 1.465e-09
 73.30328     -4.8 1.488e+04 3.278e-09
 73.32299     -7.7 1.674e+04 5.447e-09
 73.33772     -9.0 1.808e+04 6.826e-09
 73.34753    -10.2 1.910e+04 7.708e-09
 73.35739    -12.3 1.943e+04 7.976e-09
 73.36724    -14.7 1.970e+04 8.240e-09
 73.37385    -20.4 1.703e+04 5.982e-09
 73.37599    -22.3 1.628e+04 5.138e-09
 73.37924    -21.8 1.572e+04 4.569e-09
 73.38695    -23.1 1.522e+04 4.279e-09
 73.40178    -25.1 1.472e+04 3.852e-09
 73.42154    -28.2 1.472e+04 2.964e-09
 73.44126    -32.2 1.372e+04 1.750e-09
 73.46097    -36.1 1.212e+04 1.031e-09
 73.47165    -38.3 1.087e+04 6.819e-10
 73.48150    -39.0 1.056e+04 5.675e-10
 73.50039    -39.3 1.016e+04 4.531e-10
 73.52010    -39.4 9.863e+03 3.763e-10
 73.53981    -39.5 9.681e+03 3.315e-10
 73.56947    -39.8 9.476e+03 2.880e-10
 73.59230    -38.7 9.233e+03 2.541e-10
 73.61201    -38.0 9.338e+03 2.894e-10
 73.64842    -37.1 9.225e+03 2.723e-10
 73.68784    -36.7 9.325e+03 2.988e-10
 73.72726    -36.6 9.951e+03 4.692e-10
 73.76668    -36.4 1.067e+04 7.595e-10
 73.80610    -36.4 1.133e+04 1.103e-09
 73.83557    -37.5 1.176e+04 1.373e-09
 73.85259    -38.2 1.197e+04 1.462e-09
 73.86245    -39.6 1.271e+04 1.809e-09
 73.87490    -40.6 1.268e+04 1.818e-09
 73.89461    -41.3 1.241e+04 1.722e-09
 73.91432    -41.8 1.210e+04 1.548e-09
 73.93403    -42.0 1.174e+04 1.343e-09
 73.95374    -42.2 1.133e+04 1.129e-09
 73.97345    -42.1 1.088e+04 9.033e-10
 73.99316    -42.0 1.038e+04 6.884e-10
 74.01287    -42.1 9.891e+03 5.076e-10
 74.02758    -42.6 9.319e+03 3.578e-10
 74.04739    -42.9 9.162e+03 3.228e-10
 74.08206    -43.1 8.448e+03 2.076e-10
 74.12148    -43.0 7.902e+03 1.430e-10
 74.16090    -42.6 7.724e+03 1.241e-10
 74.20032    -42.0 7.673e+03 1.189e-10
 74.23374    -41.5 7.668e+03 1.159e-10
 74.25345    -42.3 7.727e+03 1.187e-10
 74.27917    -42.1 7.782e+03 1.179e-10
 74.31859    -42.4 7.896e+03 1.360e-10
 74.35801    -43.1 8.415e+03 2.057e-10
 74.39743    -43.3 9.111e+03 3.459e-10
 74.43686    -42.9 9.666e+03 5.116e-10
 74.46306    -42.3 9.881e+03 5.761e-10
 74.48277    -42.6 9.435e+03 4.391e-10
 74.51570    -42.1 9.397e+03 3.971e-10
 74.55512    -41.4 8.964e+03 2.570e-10
 74.59454    -40.7 8.480e+03 1.559e-10
 74.62454    -39.7 8.146e+03 1.031e-10
 74.64425    -39.3 8.127e+03 9.792e-11
 74.67339    -38.0 7.952e+03 7.211e-11
 74.71281    -36.4 7.884e+03 5.874e-11
 74.75223    -34.6 7.864e+03 5.047e-11
 74.79165    -32.8 7.869e+03 4.718e-11
 74.83108    -31.0 7.899e+03 4.705e-11
 74.87050    -29.4 7.972e+03 5.236e-11
 74.89844    -27.6 8.091e+03 6.471e-11
 74.91815    -27.9 8.208e+03 8.347e-11
 74.94934    -25.9 8.400e+03 1.000e-10
 74.98876    -24.1 8.623e+03 1.215e-10
 75.01534    -22.4 8.867e+03 1.528e-10
 75.03505    -23.8 9.046e+03 1.734e-10
 75.06761    -22.5 9.453e+03 2.427e-10
 75.09708    -20.4 9.649e+03 2.793e-10
 75.11594    -20.1 9.611e+03 2.798e-10
 75.12579    -20.3 9.694e+03 3.089e-10
 75.13640    -20.3 1.064e+04 4.284e-10
 75.15611    -21.7 1.187e+04 6.148e-10
 75.17582    -23.1 1.324e+04 1.045e-09
 75.19553    -24.6 1.406e+04 1.709e-09
 75.21055    -25.5 1.451e+04 2.566e-09
 75.22040    -27.5 1.450e+04 2.848e-09
 75.23495    -28.0 1.510e+04 3.191e-09
 75.25467    -29.6 1.576e+04 3.005e-09
 75.27438    -32.6 1.641e+04 2.614e-09
 75.29409    -36.3 1.528e+04 2.216e-09
 75.31380    -39.4 1.346e+04 1.966e-09
 75.33351    -40.9 1.282e+04 1.898e-09
 75.34349    -41.4 1.283e+04 1.948e-09
 75.35334    -42.7 1.281e+04 1.862e-09
 75.37293    -43.5 1.294e+04 1.865e-09
 75.39264    -44.4 1.288e+04 1.815e-09
 75.40595    -45.1 1.273e+04 1.775e-09
 75.41581    -45.4 1.251e+04 1.564e-09
 75.43206    -45.5 1.240e+04 1.524e-09
 75.45178    -45.3 1.227e+04 1.452e-09
 75.47149    -45.0 1.215e+04 1.348e-09
 75.49120    -44.6 1.201e+04 1.232e-09
 75.51091    -44.4 1.185e+04 1.131e-09
 75.53062    -44.1 1.166e+04 1.061e-09
 75.55033    -43.6 1.153e+04 1.038e-09
 75.56118    -43.0 1.151e+04 1.039e-09
 75.57103    -43.7 1.130e+04 9.687e-10
 75.58975    -43.0 1.127e+04 9.855e-10
 75.60135    -42.3 1.128e+04 1.009e-09
 75.61121    -42.3 1.085e+04 7.515e-10
 75.62917    -41.7 1.089e+04 7.771e-10
 75.64889    -41.1 1.096e+04 8.088e-10
 75.66860    -40.7 1.107e+04 8.541e-10
 75.68831    -40.4 1.118e+04 9.190e-10
 75.70802    -40.1 1.131e+04 1.010e-09
 75.72773    -39.7 1.149e+04 1.132e-09
 75.74744    -39.3 1.172e+04 1.262e-09
 75.76715    -39.0 1.192e+04 1.380e-09
 75.77887    -38.7 1.202e+04 1.486e-09
 75.78872    -38.8 1.207e+04 1.538e-09
 75.80657    -37.7 1.195e+04 1.453e-09
 75.82628    -37.2 1.196e+04 1.479e-09
 75.84600    -36.5 1.191e+04 1.460e-09
 75.86571    -35.8 1.176e+04 1.376e-09
 75.89537    -35.0 1.162e+04 1.249e-09
 75.93489    -33.8 1.131e+04 1.054e-09
 75.97431    -32.4 1.103e+04 9.117e-10
 76.01373    -30.6 1.099e+04 8.972e-10
 76.05316    -28.7 1.108e+04 9.572e-10
 76.09258    -26.6 1.127e+04 1.081e-09
 76.13200    -24.4 1.151e+04 1.175e-09
 76.16804    -22.4 1.174e+04 1.204e-09
 76.18765    -21.6 1.229e+04 1.513e-09
 76.20079    -20.7 1.230e+04 1.465e-09
 76.21425    -19.7 1.233e+04 1.443e-09
 76.22420    -21.4 1.187e+04 1.166e-09
 76.24031    -20.0 1.190e+04 1.211e-09
 76.25993    -19.5 1.189e+04 1.229e-09
 76.27964    -19.2 1.189e+04 1.283e-09
 76.29935    -18.9 1.189e+04 1.310e-09
 76.31906    -18.9 1.190e+04 1.326e-09
 76.33877    -19.1 1.186e+04 1.319e-09
 76.35848    -20.0 1.162e+04 1.244e-09
 76.37310    -20.3 1.157e+04 1.197e-09
 76.38296    -20.8 1.309e+04 1.352e-09
 76.39790    -21.6 1.281e+04 1.414e-09
 76.41761    -22.2 1.286e+04 1.458e-09
 76.43194    -23.0 1.307e+04 1.609e-09
 76.44180    -23.0 1.257e+04 1.343e-09
 76.45704    -23.8 1.306e+04 1.626e-09
 76.47675    -24.7 1.393e+04 2.319e-09
 76.49646    -26.3 1.515e+04 3.550e-09
 76.51617    -27.7 1.667e+04 6.421e-09
 76.53588    -29.0 1.799e+04 1.154e-08
 76.55559    -29.0 1.922e+04 1.909e-08
 76.56850    -28.6 1.971e+04 2.130e-08
 76.57338    -28.9 2.097e+04 4.619e-08
 76.58013    -28.4 2.077e+04 3.814e-08
 76.58999    -28.0 2.083e+04 2.914e-08
 76.59984    -27.7 2.083e+04 2.234e-08
 76.61467    -29.7 2.005e+04 1.460e-08
 76.63443    -31.4 1.872e+04 9.305e-09
 76.64963    -33.2 1.669e+04 6.134e-09
 76.65949    -31.6 1.810e+04 8.315e-09
 76.67386    -32.7 1.649e+04 6.257e-09
 76.69357    -32.9 1.568e+04 5.050e-09
 76.71328    -32.4 1.509e+04 4.083e-09
 76.73299    -31.9 1.450e+04 3.130e-09
 76.75270    -31.7 1.378e+04 2.283e-09
 76.76390    -31.8 1.290e+04 1.634e-09
 76.77376    -33.2 1.207e+04 1.277e-09
 76.79212    -32.8 1.159e+04 1.062e-09
 76.81183    -32.2 1.132e+04 8.928e-10
 76.83154    -31.7 1.109e+04 7.425e-10
 76.85126    -31.3 1.083e+04 6.054e-10
 76.86732    -30.9 1.054e+04 4.866e-10
 76.87718    -30.7 1.090e+04 6.324e-10
 76.89068    -30.4 1.061e+04 4.983e-10
 76.91039    -30.3 1.034e+04 3.966e-10
 76.93010    -30.2 1.018e+04 3.390e-10
 76.94955    -29.8 1.008e+04 2.920e-10
 76.96936    -30.7 1.009e+04 3.047e-10
 76.99928    -30.1 9.939e+03 2.702e-10
 77.03871    -28.9 9.626e+03 2.207e-10
 77.07535    -27.6 9.385e+03 1.836e-10
 77.09506    -28.5 9.746e+03 2.387e-10
 77.11755    -27.3 9.540e+03 2.078e-10
 77.15697    -26.1 9.525e+03 2.059e-10
 77.19639    -25.1 9.588e+03 2.401e-10
 77.23581    -23.8 9.744e+03 2.988e-10
 77.27524    -22.4 9.946e+03 3.483e-10
 77.31466    -21.3 1.018e+04 3.999e-10
 77.34045    -20.6 1.038e+04 4.580e-10
 77.36016    -21.5 1.054e+04 5.290e-10
 77.39350    -21.3 1.083e+04 6.158e-10
 77.43292    -21.6 1.120e+04 7.289e-10
 77.47235    -23.0 1.140e+04 8.186e-10
 77.51073    -25.0 1.120e+04 8.256e-10
 77.53045    -26.8 1.142e+04 9.956e-10
 77.53575    -26.4 1.092e+04 8.328e-10
 77.54551    -27.1 1.071e+04 7.509e-10
 77.56085    -27.1 1.067e+04 6.175e-10
 77.58056    -28.7 1.032e+04 4.428e-10
 77.60027    -30.2 9.887e+03 3.437e-10
 77.61998    -31.6 9.423e+03 2.850e-10
 77.63969    -31.8 9.361e+03 2.771e-10
 77.66936    -31.8 9.367e+03 2.948e-10
 77.70888    -32.0 9.420e+03 2.912e-10
 77.73115    -32.6 9.611e+03 3.105e-10
 77.75086    -33.1 9.612e+03 2.995e-10
 77.77777    -34.8 1.001e+04 4.515e-10
 77.79738    -35.5 1.031e+04 6.103e-10
 77.81709    -35.6 1.063e+04 7.779e-10
 77.83680    -35.6 1.095e+04 9.220e-10
 77.85652    -35.6 1.126e+04 9.959e-10
 77.87623    -36.6 1.155e+04 1.033e-09
 77.89594    -38.5 1.167e+04 1.021e-09
 77.91565    -40.9 1.153e+04 1.035e-09
 77.92646    -42.7 1.143e+04 1.126e-09
 77.93631    -42.1 1.101e+04 9.038e-10
 77.95507    -43.3 1.113e+04 1.012e-09
 77.96563    -44.4 1.129e+04 1.074e-09
 77.97549    -44.8 1.157e+04 1.175e-09
 77.99449    -46.4 1.163e+04 1.197e-09
 78.01420    -48.0 1.156e+04 1.103e-09
 78.03391    -49.6 1.131e+04 9.083e-10
 78.05363    -51.3 1.095e+04 6.634e-10
 78.07334    -53.2 1.052e+04 4.384e-10
 78.10224    -56.3 9.878e+03 2.734e-10
 78.12196    -55.3 9.789e+03 2.578e-10
 78.14242    -56.5 9.314e+03 1.982e-10
 78.18194    -57.7 8.947e+03 1.476e-10
 78.22136    -58.2 8.865e+03 1.341e-10
 78.26079    -58.9 8.891e+03 1.335e-10
 78.30021    -61.0 9.537e+03 1.927e-10
 78.32968    -63.0 1.026e+04 3.555e-10
 78.34929    -64.0 1.059e+04 4.237e-10
 78.36900    -66.7 1.119e+04 8.181e-10
 78.38871    -68.0 1.170e+04 1.234e-09
 78.40101    -69.1 1.197e+04 1.477e-09
 78.41087    -69.3 1.224e+04 1.649e-09
 78.42813    -70.7 1.227e+04 1.703e-09
 78.44785    -72.1 1.185e+04 1.412e-09
 78.46756    -74.0 1.114e+04 8.592e-10
 78.48727    -77.1 1.036e+04 4.891e-10
 78.50280    -80.4 9.616e+03 3.214e-10
 78.51266    -79.6 9.720e+03 3.409e-10
 78.52669    -82.0 9.295e+03 2.950e-10
 78.54640    -83.3 9.184e+03 2.878e-10
 78.57606    -84.4 9.388e+03 3.331e-10
 78.61558    -86.9 1.015e+04 5.202e-10
 78.65501    -89.3 1.101e+04 8.507e-10
 78.69443    -91.7 1.175e+04 1.237e-09
 78.73385    -93.9 1.230e+04 1.650e-09
 78.76332    -94.4 1.270e+04 2.040e-09
 78.78293    -94.9 1.273e+04 2.102e-09
 78.80264    -95.3 1.274e+04 2.218e-09
 78.82235    -95.4 1.224e+04 1.766e-09
 78.83639    -95.5 1.154e+04 1.236e-09
 78.84625    -95.4 1.178e+04 1.382e-09
 78.86178    -95.7 1.096e+04 9.054e-10
 78.88149    -96.1 1.024e+04 6.019e-10
 78.89361    -96.5 9.664e+03 4.215e-10
 78.90346    -95.4 1.012e+04 6.073e-10
 78.92091    -95.4 9.645e+03 4.501e-10
 78.94062    -95.2 9.371e+03 3.797e-10
 78.97028    -94.5 9.269e+03 3.604e-10
 79.00980    -92.9 8.847e+03 2.726e-10
 79.04923    -91.0 8.382e+03 1.938e-10
 79.08865    -89.1 7.959e+03 1.335e-10
 79.12807    -87.2 7.663e+03 9.496e-11
 79.16749    -85.5 7.556e+03 7.782e-11
 79.20691    -83.7 7.532e+03 7.339e-11
 79.24634    -81.8 7.531e+03 7.279e-11
 79.27197    -80.1 7.620e+03 7.776e-11
 79.28068    -80.4 7.881e+03 1.011e-10
 79.29446    -80.7 8.377e+03 1.817e-10
 79.32518    -78.9 8.586e+03 2.315e-10
 79.36460    -77.1 8.783e+03 2.874e-10
 79.40402    -75.3 8.931e+03 3.386e-10
 79.44345    -73.6 9.023e+03 3.776e-10
 79.48287    -71.7 9.049e+03 3.994e-10
 79.52229    -69.8 9.037e+03 4.057e-10
 79.56171    -67.9 8.997e+03 4.045e-10
 79.60113    -65.8 8.807e+03 3.656e-10
 79.64055    -63.5 8.484e+03 2.903e-10
 79.66555    -61.3 8.102e+03 2.044e-10
 79.68526    -61.4 7.899e+03 1.745e-10
 79.70735    -59.2 7.602e+03 1.241e-10
 79.72706    -59.7 7.622e+03 1.271e-10
 79.75882    -57.6 7.445e+03 1.027e-10
 79.79824    -55.6 7.331e+03 9.069e-11
 79.83766    -53.4 7.283e+03 8.723e-11
 79.87709    -51.3 7.268e+03 8.691e-11
 79.91651    -49.2 7.276e+03 9.162e-11
 79.95593    -47.2 7.319e+03 9.937e-11
 79.99535    -45.1 7.356e+03 1.046e-10
 80.03477    -43.1 7.379e+03 1.066e-10
 80.05635    -41.0 7.392e+03 1.049e-10
 80.07607    -40.7 7.359e+03 1.022e-10
 80.11362    -38.6 7.332e+03 9.113e-11
 80.14274    -36.9 7.340e+03 7.970e-11
 80.16245    -37.2 7.362e+03 8.590e-11
 80.19246    -36.1 7.457e+03 8.898e-11
 80.23188    -35.4 7.712e+03 1.173e-10
 80.27131    -34.7 8.136e+03 1.848e-10
 80.31073    -33.8 8.650e+03 2.790e-10
 80.35015    -33.1 9.073e+03 3.523e-10
 80.38957    -32.9 9.234e+03 3.637e-10
 80.42745    -33.5 9.156e+03 3.231e-10
 80.44716    -32.3 9.650e+03 4.607e-10
 80.46842    -32.8 9.160e+03 3.107e-10
 80.50784    -33.2 8.979e+03 2.647e-10
 80.54726    -32.4 8.807e+03 2.201e-10
 80.57812    -31.3 8.713e+03 1.836e-10
 80.59783    -32.2 8.879e+03 1.986e-10
 80.62610    -31.3 8.831e+03 1.729e-10
 80.66553    -30.2 8.861e+03 1.697e-10
 80.70495    -29.3 9.055e+03 1.941e-10
 80.74437    -28.6 9.283e+03 2.546e-10
 80.78379    -28.1 1.014e+04 4.099e-10
 80.81825    -28.6 1.118e+04 6.765e-10
 80.83786    -29.8 1.243e+04 1.539e-09
 80.85259    -29.9 1.305e+04 2.062e-09
 80.87230    -30.1 1.371e+04 2.643e-09
 80.89201    -30.3 1.430e+04 3.120e-09
 80.91172    -32.0 1.526e+04 3.731e-09
 80.93143    -36.1 1.758e+04 5.063e-09
 80.95114    -41.6 1.942e+04 8.394e-09
 80.97085    -45.3 1.956e+04 1.447e-08
 80.99056    -47.0 1.926e+04 1.902e-08
 81.01027    -47.8 1.866e+04 1.851e-08
 81.02316    -47.8 1.774e+04 1.234e-08
 81.02634    -48.2 1.766e+04 9.124e-09
 81.03317    -50.3 1.815e+04 8.501e-09
 81.04969    -55.3 1.591e+04 3.031e-09
 81.06941    -59.9 1.274e+04 1.430e-09
 81.08912    -61.0 1.161e+04 1.083e-09
 81.10883    -60.8 1.128e+04 9.410e-10
 81.12854    -60.0 1.104e+04 8.111e-10
 81.14825    -59.3 1.078e+04 6.850e-10
 81.16796    -58.7 1.055e+04 5.698e-10
 81.18767    -58.1 1.033e+04 4.702e-10
 81.20738    -57.8 1.010e+04 3.909e-10
 81.21871    -57.4 9.908e+03 3.428e-10
 81.22857    -58.8 9.644e+03 2.982e-10
 81.24085    -58.1 9.600e+03 2.847e-10
 81.25071    -58.3 9.693e+03 3.145e-10
 81.26652    -58.1 9.750e+03 3.164e-10
 81.28623    -57.9 9.925e+03 3.453e-10
 81.30594    -58.0 1.003e+04 3.885e-10
 81.32565    -57.5 1.015e+04 4.643e-10
 81.34536    -57.3 1.024e+04 5.334e-10
 81.36507    -56.6 1.039e+04 6.471e-10
 81.38478    -56.0 1.044e+04 6.789e-10
 81.40426    -55.3 1.042e+04 6.796e-10
 81.41411    -55.5 1.015e+04 5.752e-10
 81.42420    -54.8 1.007e+04 5.324e-10
 81.44391    -54.3 1.002e+04 4.706e-10
 81.45854    -54.0 9.889e+03 4.117e-10
 81.46849    -55.3 9.893e+03 3.798e-10
 81.49339    -54.6 9.736e+03 3.123e-10
 81.53281    -53.7 9.515e+03 2.682e-10
 81.57223    -52.5 9.409e+03 2.550e-10
 81.59985    -51.3 9.378e+03 2.637e-10
 81.61957    -51.1 9.156e+03 2.149e-10
 81.65108    -49.8 9.334e+03 2.578e-10
 81.69050    -48.5 9.581e+03 3.315e-10
 81.72992    -47.1 9.808e+03 4.145e-10
 81.76934    -45.6 1.001e+04 5.010e-10
 81.80876    -43.9 1.014e+04 5.669e-10
 81.84818    -42.4 1.015e+04 5.765e-10
 81.88426    -40.9 1.010e+04 5.482e-10
 81.90397    -41.6 1.040e+04 6.662e-10
 81.92703    -40.0 1.026e+04 6.022e-10
 81.96645    -38.2 1.006e+04 4.986e-10
 81.99066    -36.5 9.802e+03 3.917e-10
 82.01037    -36.6 9.530e+03 2.927e-10
 82.04529    -34.9 9.275e+03 2.356e-10
 82.08472    -32.8 9.124e+03 2.134e-10
 82.12414    -30.5 9.015e+03 1.995e-10
 82.16356    -28.0 8.978e+03 1.918e-10
 82.20298    -25.6 8.985e+03 1.874e-10
 82.24240    -23.5 9.143e+03 2.063e-10
 82.28183    -21.8 9.445e+03 2.719e-10
 82.31964    -20.2 1.001e+04 4.219e-10
 82.33936    -22.5 1.070e+04 5.933e-10
 82.36067    -20.5 1.183e+04 1.196e-09
 82.38136    -19.5 1.207e+04 1.453e-09
 82.39112    -19.8 1.194e+04 1.282e-09
 82.40975    -20.0 1.280e+04 1.865e-09
 82.42946    -20.2 1.352e+04 2.491e-09
 82.44917    -20.5 1.387e+04 3.069e-09
 82.46889    -20.7 1.426e+04 3.435e-09
 82.48860    -20.8 1.479e+04 3.858e-09
 82.50831    -20.5 1.488e+04 3.963e-09
 82.52802    -20.3 1.496e+04 3.454e-09
 82.54700    -21.2 1.490e+04 2.848e-09
 82.55685    -24.2 1.362e+04 1.774e-09
 82.56681    -25.4 1.286e+04 1.553e-09
 82.57667    -27.1 1.288e+04 1.577e-09
 82.58715    -27.6 1.246e+04 1.565e-09
 82.60686    -27.6 1.238e+04 1.673e-09
 82.62657    -27.2 1.246e+04 1.865e-09
 82.64628    -26.7 1.264e+04 2.080e-09
 82.66600    -26.0 1.271e+04 2.357e-09
 82.68571    -25.2 1.284e+04 2.523e-09
 82.70542    -24.3 1.294e+04 2.646e-09
 82.72513    -23.7 1.315e+04 2.699e-09
 82.74484    -23.6 1.332e+04 2.693e-09
 82.76221    -24.1 1.360e+04 2.781e-09
 82.77207    -25.2 1.365e+04 2.881e-09
 82.77454    -25.7 1.381e+04 3.061e-09
 82.78440    -26.3 1.375e+04 3.076e-09
 82.80397    -26.2 1.369e+04 3.232e-09
 82.82368    -25.7 1.339e+04 3.147e-09
 82.84339    -24.8 1.305e+04 2.823e-09
 82.86311    -23.6 1.250e+04 2.244e-09
 82.88282    -22.6 1.188e+04 1.539e-09
 82.90253    -22.3 1.135e+04 9.651e-10
 82.92224    -22.6 1.075e+04 6.169e-10
 82.94195    -23.1 1.022e+04 4.323e-10
 82.95761    -23.6 9.754e+03 3.390e-10
 82.96747    -24.7 9.607e+03 3.084e-10
 82.99132    -23.3 9.532e+03 3.031e-10
 83.03084    -21.9 9.414e+03 3.164e-10
 83.07027    -20.5 9.417e+03 3.367e-10
 83.10969    -19.4 9.385e+03 3.368e-10
 83.14335    -18.2 9.238e+03 3.122e-10
 83.16306    -19.7 9.224e+03 3.101e-10
 83.18853    -18.7 9.042e+03 2.780e-10
 83.21012    -18.2 8.947e+03 2.569e-10
 83.22983    -18.5 8.949e+03 2.545e-10
 83.26738    -19.1 9.139e+03 2.696e-10
 83.30680    -19.6 9.933e+03 4.250e-10
 83.33627    -18.5 1.001e+04 4.201e-10
 83.34842    -19.3 1.035e+04 5.307e-10
 83.35827    -20.9 1.082e+04 6.242e-10
 83.37559    -21.4 1.095e+04 8.539e-10
 83.39530    -21.6 1.127e+04 1.069e-09
 83.41501    -21.8 1.159e+04 1.286e-09
 83.42761    -22.1 1.194e+04 1.470e-09
 83.43747    -22.1 1.215e+04 1.568e-09
 83.45443    -22.8 1.243e+04 1.705e-09
 83.47415    -23.6 1.270e+04 1.829e-09
 83.49386    -24.3 1.280e+04 1.918e-09
 83.51357    -24.8 1.275e+04 1.964e-09
 83.53328    -25.0 1.264e+04 1.954e-09
 83.54382    -25.1 1.251e+04 1.876e-09
 83.55367    -26.6 1.194e+04 1.479e-09
 83.57270    -26.8 1.170e+04 1.348e-09
 83.59241    -26.8 1.138e+04 1.210e-09
 83.61212    -26.5 1.098e+04 1.068e-09
 83.63183    -25.9 1.065e+04 9.284e-10
 83.64531    -25.3 1.035e+04 7.835e-10
 83.65516    -25.2 1.028e+04 7.386e-10
 83.67126    -24.7 1.005e+04 6.118e-10
 83.69097    -24.6 9.846e+03 5.152e-10
 83.71068    -24.5 9.658e+03 4.573e-10
 83.72936    -23.6 9.409e+03 4.257e-10
 83.73922    -23.9 9.258e+03 3.661e-10
 83.75010    -23.8 9.248e+03 3.633e-10
 83.77976    -21.6 9.155e+03 3.706e-10
 83.81928    -19.5 9.119e+03 3.465e-10
 83.85871    -17.5 9.076e+03 3.239e-10
 83.89813    -15.7 8.768e+03 2.746e-10
 83.92496    -13.8 8.559e+03 2.379e-10
 83.94467    -14.3 8.544e+03 2.348e-10
 83.97697    -12.5 8.365e+03 1.955e-10
 84.01639    -10.8 8.215e+03 1.609e-10
 84.05582     -9.3 8.096e+03 1.434e-10
 84.08088     -7.6 8.103e+03 1.444e-10
 84.10059     -7.1 8.086e+03 1.423e-10
 84.13466     -5.7 8.169e+03 1.513e-10
 84.17408     -4.6 8.413e+03 1.887e-10
 84.21350     -3.4 8.862e+03 2.673e-10
 84.25292     -2.5 9.405e+03 3.827e-10
 84.29235     -1.9 9.772e+03 4.645e-10
 84.31576     -1.4 9.754e+03 4.403e-10
 84.33547     -2.2 9.520e+03 3.716e-10
 84.37119     -1.5 9.227e+03 2.759e-10
 84.41061     -1.3 8.911e+03 1.845e-10
 84.45003     -1.4 8.893e+03 1.741e-10
 84.48946     -2.2 9.274e+03 2.143e-10
 84.51626     -3.5 1.003e+04 3.674e-10
 84.53597     -3.9 1.007e+04 3.918e-10
 84.55835     -4.1 1.022e+04 5.183e-10
 84.57796     -4.3 1.040e+04 6.455e-10
 84.59767     -4.7 1.079e+04 7.096e-10
 84.61738     -5.8 1.111e+04 7.346e-10
 84.63709     -7.3 1.105e+04 7.074e-10
 84.65680     -8.8 1.077e+04 6.559e-10
 84.67652     -9.6 1.037e+04 5.087e-10
 84.69623     -9.9 1.029e+04 4.815e-10
 84.70637    -11.9 1.045e+04 4.264e-10
 84.71622    -12.1 1.060e+04 4.703e-10
 84.73376    -12.7 1.045e+04 4.446e-10
 84.74361    -13.0 1.048e+04 4.457e-10
 84.75536    -14.4 1.046e+04 4.482e-10
 84.77507    -15.2 1.026e+04 4.459e-10
 84.79478    -15.9 1.018e+04 4.461e-10
 84.81449    -17.4 1.039e+04 4.673e-10
 84.83420    -19.6 1.131e+04 6.104e-10
 84.85391    -21.4 1.214e+04 9.274e-10
 84.87363    -22.1 1.267e+04 1.422e-09
 84.89192    -22.0 1.312e+04 1.948e-09
 84.90177    -22.1 1.262e+04 1.534e-09
 84.91305    -21.6 1.296e+04 1.957e-09
 84.93276    -20.9 1.322e+04 2.214e-09
 84.95145    -20.4 1.345e+04 2.243e-09
 84.96131    -21.9 1.405e+04 2.601e-09
 84.97218    -22.1 1.386e+04 2.281e-09
 84.99189    -22.5 1.363e+04 2.007e-09
 85.01160    -22.9 1.329e+04 1.773e-09
 85.03131    -23.1 1.304e+04 1.657e-09
 85.05102    -22.9 1.286e+04 1.620e-09
 85.07074    -22.7 1.282e+04 1.634e-09
 85.08732    -22.4 1.273e+04 1.627e-09
 85.09717    -22.2 1.268e+04 1.595e-09
 85.11016    -21.8 1.255e+04 1.565e-09
 85.12987    -21.1 1.225e+04 1.448e-09
 85.14958    -20.4 1.208e+04 1.199e-09
 85.16914    -20.0 1.181e+04 9.401e-10
 85.17900    -21.9 1.095e+04 5.009e-10
 85.18900    -22.0 1.042e+04 3.020e-10
 85.20871    -22.4 9.977e+03 2.490e-10
 85.22842    -22.8 9.469e+03 1.791e-10
 85.24813    -23.1 9.259e+03 1.697e-10
 85.27780    -22.4 9.269e+03 1.763e-10
 85.31732    -21.6 9.250e+03 1.826e-10
 85.35674    -20.6 9.347e+03 1.947e-10
 85.38703    -20.0 9.401e+03 2.163e-10
 85.40674    -21.7 8.936e+03 1.763e-10
 85.43558    -21.0 8.921e+03 1.840e-10
 85.46846    -20.9 9.355e+03 2.314e-10
 85.48817    -21.7 9.730e+03 2.922e-10
 85.51443    -21.5 1.022e+04 4.047e-10
 85.55385    -21.4 1.064e+04 5.272e-10
 85.58332    -20.9 1.086e+04 6.256e-10
 85.60293    -21.8 1.118e+04 7.551e-10
 85.61438    -22.4 1.121e+04 9.011e-10
 85.62423    -23.7 1.169e+04 1.077e-09
 85.64235    -25.3 1.311e+04 1.443e-09
 85.66206    -28.3 1.569e+04 2.273e-09
 85.67352    -32.3 1.834e+04 4.331e-09
 85.68338    -31.7 1.801e+04 3.449e-09
 85.70149    -38.6 2.142e+04 7.990e-09
 85.72120    -46.5 2.309e+04 1.791e-08
 85.73593    -50.9 2.277e+04 3.093e-08
 85.74574    -53.1 2.159e+04 3.613e-08
 85.75559    -54.3 2.105e+04 3.636e-08
 85.76545    -54.9 2.086e+04 3.018e-08
 85.77112    -54.8 2.123e+04 2.201e-08
 85.77605    -54.8 2.099e+04 2.508e-08
 85.78516    -55.2 2.173e+04 1.543e-08
 85.79502    -58.6 2.206e+04 7.639e-09
 85.80487    -64.1 2.059e+04 3.489e-09
 85.81473    -71.3 1.576e+04 1.655e-09
 85.82458    -72.7 1.440e+04 1.486e-09
 85.83202    -77.2 1.204e+04 9.695e-10
 85.84192    -80.4 1.102e+04 8.843e-10
 85.85907    -84.2 1.061e+04 7.891e-10
 85.86892    -84.8 1.063e+04 7.951e-10
 85.87889    -93.4 1.396e+04 1.094e-09
 85.89860   -104.4 1.772e+04 4.299e-09
 85.91831   -111.5 1.932e+04 1.292e-08
 85.93304   -115.0 2.093e+04 2.661e-08
 85.94082   -118.3 2.213e+04 3.705e-08
 85.94574   -118.3 2.147e+04 2.978e-08
 85.95270   -121.8 2.250e+04 3.374e-08
 85.96160   -126.1 2.291e+04 3.374e-08
 85.96652   -126.5 2.277e+04 3.110e-08
 85.97242   -132.0 2.366e+04 2.252e-08
 85.98227   -139.2 2.186e+04 1.154e-08
 85.99213   -146.8 1.803e+04 6.019e-09
 86.00198   -151.6 1.582e+04 4.063e-09
 86.01681   -154.8 1.517e+04 3.292e-09
 86.03657   -158.5 1.371e+04 2.243e-09
 86.04976   -162.5 1.177e+04 1.359e-09
 86.05780   -161.1 1.152e+04 1.304e-09
 86.06432   -160.8 1.140e+04 1.201e-09
 86.07600   -162.2 1.101e+04 9.315e-10
 86.09571   -163.1 1.075e+04 7.721e-10
 86.11542   -164.1 1.038e+04 6.399e-10
 86.13513   -165.0 1.005e+04 5.447e-10
 86.15484   -165.7 9.879e+03 4.872e-10
 86.17455   -166.4 9.845e+03 4.648e-10
 86.19426   -167.3 9.846e+03 4.614e-10
 86.21397   -168.5 1.003e+04 4.768e-10
 86.23368   -169.9 1.036e+04 5.696e-10
 86.24987   -171.0 1.072e+04 7.277e-10
 86.25972   -169.8 1.062e+04 6.859e-10
 86.26745   -170.4 1.095e+04 8.649e-10
 86.27731   -169.4 1.068e+04 7.446e-10
 86.29282   -169.9 1.100e+04 9.287e-10
 86.31253   -170.2 1.118e+04 1.045e-09
 86.33224   -170.5 1.122e+04 1.072e-09
 86.35195   -170.8 1.117e+04 1.052e-09
 86.37166   -170.9 1.094e+04 8.851e-10
 86.39137   -171.3 1.064e+04 6.765e-10
 86.41108   -171.8 1.033e+04 4.993e-10
 86.43079   -172.1 1.003e+04 3.837e-10
 86.46046   -171.4 9.810e+03 3.317e-10
 86.49998   -170.9 9.615e+03 2.998e-10
 86.53940   -170.1 9.554e+03 2.911e-10
 86.57882   -169.2 9.559e+03 2.912e-10
 86.61824   -168.4 9.581e+03 2.929e-10
 86.64087   -167.8 9.596e+03 2.985e-10
 86.66058   -165.6 9.709e+03 3.178e-10
 86.69317   -165.2 9.719e+03 3.272e-10
 86.71288   -164.1 9.352e+03 2.652e-10
 86.73651   -163.6 9.401e+03 2.810e-10
 86.77593   -163.2 9.473e+03 2.975e-10
 86.81535   -162.9 9.625e+03 3.186e-10
 86.85477   -162.5 9.869e+03 3.563e-10
 86.88424   -161.6 1.001e+04 3.986e-10
 86.90386   -162.3 1.017e+04 4.634e-10
 86.92052   -162.7 1.031e+04 5.448e-10
 86.93038   -161.4 1.020e+04 4.730e-10
 86.94328   -161.9 1.037e+04 5.439e-10
 86.96299   -161.9 1.060e+04 6.187e-10
 86.98270   -162.1 1.091e+04 7.016e-10
 87.00241   -162.4 1.122e+04 7.990e-10
 87.02162   -162.7 1.147e+04 9.034e-10
 87.03147   -160.9 1.116e+04 8.017e-10
 87.04183   -161.2 1.137e+04 8.833e-10
 87.06154   -161.4 1.151e+04 9.634e-10
 87.08126   -161.3 1.159e+04 1.032e-09
 87.10097   -161.1 1.163e+04 1.067e-09
 87.12068   -161.0 1.157e+04 1.041e-09
 87.13821   -160.9 1.147e+04 1.008e-09
 87.14807   -160.3 1.160e+04 1.063e-09
 87.16010   -160.2 1.150e+04 1.029e-09
 87.17981   -160.1 1.140e+04 9.750e-10
 87.19952   -160.0 1.130e+04 9.047e-10
 87.21702   -159.9 1.122e+04 8.046e-10
 87.22688   -158.3 1.148e+04 1.019e-09
 87.23894   -158.2 1.142e+04 9.440e-10
 87.25865   -158.0 1.135e+04 8.015e-10
 87.27837   -157.8 1.118e+04 6.268e-10
 87.29808   -157.9 1.087e+04 4.618e-10
 87.32774   -157.9 1.037e+04 3.141e-10
 87.36726   -157.3 9.580e+03 2.035e-10
 87.40276   -156.2 8.781e+03 1.454e-10
 87.42247   -155.0 1.066e+04 3.763e-10
 87.44610   -153.3 1.016e+04 3.167e-10
 87.48553   -151.0 9.943e+03 2.956e-10
 87.52495   -148.4 9.880e+03 2.960e-10
 87.56394   -146.2 1.028e+04 3.739e-10
 87.58365   -144.1 9.787e+03 2.715e-10
 87.60379   -141.9 1.020e+04 3.730e-10
 87.64321   -140.0 1.107e+04 5.918e-10
 87.68264   -138.5 1.210e+04 9.691e-10
 87.71210   -137.6 1.334e+04 1.842e-09
 87.73172   -136.9 1.381e+04 2.346e-09
 87.75143   -136.0 1.431e+04 2.979e-09
 87.77114   -135.4 1.458e+04 3.314e-09
 87.79085   -135.0 1.481e+04 3.475e-09
 87.80114   -134.7 1.494e+04 3.515e-09
 87.80366   -134.0 1.524e+04 3.996e-09
 87.81308   -133.6 1.684e+04 7.108e-09
 87.83027   -133.2 1.706e+04 7.530e-09
 87.84998   -132.8 1.704e+04 7.052e-09
 87.86969   -132.5 1.676e+04 5.881e-09
 87.88941   -132.4 1.609e+04 4.359e-09
 87.90912   -132.4 1.516e+04 3.073e-09
 87.92883   -132.4 1.410e+04 2.301e-09
 87.94854   -132.2 1.355e+04 1.860e-09
 87.96825   -131.7 1.337e+04 1.737e-09
 87.98796   -131.1 1.338e+04 1.728e-09
 87.99863   -130.7 1.378e+04 2.007e-09
 88.00848   -130.3 1.312e+04 1.574e-09
 88.01883   -129.8 1.383e+04 2.131e-09
 88.02869   -128.9 1.417e+04 2.423e-09
 88.04709   -128.4 1.498e+04 3.524e-09
 88.06680   -127.7 1.587e+04 5.244e-09
 88.08652   -126.5 1.684e+04 7.653e-09
 88.10623   -125.4 1.782e+04 1.039e-08
 88.12594   -124.9 1.878e+04 1.366e-08
 88.14565   -124.8 1.951e+04 1.578e-08
 88.16536   -125.1 1.987e+04 1.679e-08
 88.18417   -126.1 2.005e+04 1.618e-08
 88.19398   -125.9 2.065e+04 2.469e-08
 88.20473   -126.6 2.019e+04 1.896e-08
 88.22449   -127.4 1.946e+04 1.462e-08
 88.23652   -128.0 1.849e+04 1.128e-08
 88.24638   -127.5 1.924e+04 1.421e-08
 88.26391   -127.7 1.805e+04 1.019e-08
 88.28363   -127.6 1.665e+04 7.065e-09
 88.30334   -127.4 1.546e+04 4.989e-09
 88.32305   -126.6 1.440e+04 3.533e-09
 88.34276   -125.5 1.361e+04 2.600e-09
 88.36247   -124.3 1.302e+04 1.985e-09
 88.37957   -123.3 1.258e+04 1.573e-09
 88.38943   -123.2 1.199e+04 1.332e-09
 88.40189   -122.0 1.159e+04 1.092e-09
 88.42160   -120.6 1.128e+04 9.221e-10
 88.44131   -119.2 1.113e+04 8.210e-10
 88.45422   -118.0 1.113e+04 7.723e-10
 88.46407   -117.8 1.126e+04 7.690e-10
 88.48074   -116.8 1.145e+04 7.414e-10
 88.50045   -115.9 1.171e+04 8.005e-10
 88.52016   -115.1 1.227e+04 9.402e-10
 88.53987   -114.6 1.291e+04 1.206e-09
 88.55958   -114.2 1.362e+04 1.683e-09
 88.57497   -113.7 1.429e+04 2.442e-09
 88.58483   -112.1 1.300e+04 1.059e-09
 88.59900   -111.8 1.396e+04 1.677e-09
 88.61871   -111.4 1.470e+04 2.667e-09
 88.63842   -110.5 1.516e+04 3.876e-09
 88.65813   -109.3 1.535e+04 4.847e-09
 88.67191   -107.9 1.541e+04 5.263e-09
 88.68176   -106.9 1.492e+04 4.243e-09
 88.69756   -105.7 1.495e+04 4.370e-09
 88.71727   -104.2 1.483e+04 4.348e-09
 88.73698   -102.6 1.472e+04 4.131e-09
 88.75669   -101.0 1.461e+04 3.609e-09
 88.77037    -99.7 1.440e+04 2.818e-09
 88.78023    -98.7 1.442e+04 3.725e-09
 88.79611    -97.1 1.418e+04 3.165e-09
 88.81582    -95.7 1.391e+04 2.465e-09
 88.83553    -94.9 1.365e+04 1.701e-09
 88.86520    -95.2 1.285e+04 9.690e-10
 88.88979    -93.6 1.212e+04 6.707e-10
 88.90950    -91.4 1.270e+04 7.621e-10
 88.94414    -89.6 1.185e+04 5.276e-10
 88.96597    -88.0 1.082e+04 3.909e-10
 88.98568    -84.0 1.247e+04 8.892e-10
 89.02298    -82.5 1.180e+04 6.477e-10
 89.06240    -81.3 1.106e+04 5.204e-10
 89.10183    -80.2 1.039e+04 4.493e-10
 89.14125    -79.4 9.731e+03 4.002e-10
 89.18067    -78.9 9.232e+03 3.764e-10
 89.22009    -79.4 9.558e+03 4.286e-10
 89.25951    -80.6 1.029e+04 5.676e-10
 89.29894    -82.8 1.139e+04 8.483e-10
 89.32517    -85.4 1.241e+04 1.298e-09
 89.34359    -79.6 1.180e+04 1.007e-09
 89.35677    -76.1 1.193e+04 8.804e-10
 89.36783    -81.2 1.282e+04 1.464e-09
 89.38744    -82.6 1.319e+04 1.828e-09
 89.40715    -84.0 1.348e+04 2.163e-09
 89.42686    -86.2 1.349e+04 2.237e-09
 89.44657    -88.3 1.306e+04 1.925e-09
 89.46628    -90.5 1.245e+04 1.412e-09
 89.48600    -93.1 1.191e+04 1.094e-09
 89.50571    -95.5 1.186e+04 1.037e-09
 89.52542    -98.6 1.312e+04 1.167e-09
 89.54212   -102.0 1.490e+04 2.059e-09
 89.54952   -104.6 1.590e+04 3.822e-09
 89.55253   -100.2 1.484e+04 1.999e-09
 89.56484   -103.4 1.626e+04 3.935e-09
 89.58455   -105.3 1.742e+04 7.378e-09
 89.60426   -105.9 1.865e+04 1.223e-08
 89.62397   -106.0 1.984e+04 1.738e-08
 89.64368   -106.0 2.092e+04 2.137e-08
 89.65639   -107.1 2.145e+04 1.873e-08
 89.66127   -106.9 2.180e+04 1.945e-08
 89.66822   -107.3 2.210e+04 1.848e-08
 89.67808   -108.1 2.254e+04 1.627e-08
 89.68794   -108.8 2.248e+04 1.428e-08
 89.69779   -109.9 2.196e+04 1.144e-08
 89.70765   -110.6 2.079e+04 9.771e-09
 89.71750   -112.0 1.889e+04 7.490e-09
 89.72736   -113.2 1.728e+04 5.776e-09
 89.73721   -114.2 1.623e+04 4.605e-09
 89.74236   -114.7 1.555e+04 3.950e-09
 89.74733   -115.5 1.500e+04 3.260e-09
 89.76036   -115.7 1.452e+04 2.780e-09
 89.77022   -114.0 1.513e+04 3.500e-09
 89.78166   -114.3 1.469e+04 2.983e-09
 89.80137   -114.7 1.368e+04 2.285e-09
 89.82108   -115.2 1.261e+04 1.784e-09
 89.84079   -115.5 1.210e+04 1.515e-09
 89.86050   -115.6 1.194e+04 1.373e-09
 89.88022   -115.6 1.182e+04 1.281e-09
 89.89993   -115.7 1.166e+04 1.199e-09
 89.91964   -115.9 1.149e+04 1.123e-09
 89.93293   -116.0 1.129e+04 1.051e-09
 89.94278   -116.2 1.058e+04 7.558e-10
 89.95906   -116.3 1.052e+04 7.317e-10
 89.97805   -116.4 1.045e+04 7.098e-10
 89.98791   -116.0 1.050e+04 7.354e-10
 89.99848   -116.2 1.039e+04 7.059e-10
 90.01819   -116.5 1.035e+04 6.885e-10
 90.03790   -117.0 1.036e+04 6.860e-10
 90.05761   -117.5 1.038e+04 6.882e-10
 90.07733   -118.2 1.041e+04 6.900e-10
 90.09704   -118.8 1.042e+04 6.906e-10
 90.11675   -119.4 1.047e+04 6.969e-10
 90.12833   -120.2 1.066e+04 7.268e-10
 90.13818   -119.6 1.010e+04 5.949e-10
 90.15617   -120.4 1.009e+04 5.881e-10
 90.17588   -121.2 1.027e+04 6.037e-10
 90.19559   -122.3 1.066e+04 6.553e-10
 90.20560   -123.7 1.133e+04 7.793e-10
 90.21545   -124.5 1.239e+04 1.058e-09
 90.23501   -125.9 1.320e+04 1.466e-09
 90.25472   -127.0 1.375e+04 2.005e-09
 90.27443   -127.8 1.403e+04 2.598e-09
 90.29415   -128.2 1.416e+04 3.182e-09
 90.31386   -128.5 1.435e+04 3.780e-09
 90.33357   -128.3 1.355e+04 2.699e-09
 90.35328   -128.8 1.406e+04 3.281e-09
 90.37299   -129.9 1.529e+04 4.069e-09
 90.39270   -131.7 1.724e+04 5.298e-09
 90.41241   -133.6 1.902e+04 7.032e-09
 90.42329   -135.4 1.997e+04 8.762e-09
 90.43314   -138.5 2.057e+04 1.266e-08
 90.45183   -139.4 1.954e+04 1.236e-08
 90.47154   -139.7 1.838e+04 1.088e-08
 90.49126   -139.9 1.721e+04 9.030e-09
 90.50928   -139.7 1.636e+04 6.793e-09
 90.51913   -139.5 1.790e+04 1.246e-08
 90.53068   -138.9 1.678e+04 9.787e-09
 90.55039   -138.3 1.590e+04 6.724e-09
 90.57010   -137.4 1.511e+04 4.359e-09
 90.58981   -136.5 1.457e+04 2.815e-09
 90.60952   -135.9 1.414e+04 1.866e-09
 90.62923   -135.4 1.373e+04 1.308e-09
 90.64098   -134.7 1.337e+04 9.938e-10
 90.65083   -136.1 1.299e+04 5.160e-10
 90.66865   -135.1 1.282e+04 4.485e-10
 90.68837   -134.1 1.276e+04 4.105e-10
 90.70468   -133.2 1.271e+04 3.883e-10
 90.71453   -133.3 1.343e+04 1.086e-09
 90.72779   -132.5 1.349e+04 1.080e-09
 90.74750   -131.8 1.353e+04 1.088e-09
 90.76721   -131.1 1.343e+04 1.109e-09
 90.78692   -130.4 1.322e+04 1.128e-09
 90.80663   -129.8 1.301e+04 1.153e-09
 90.82634   -129.2 1.284e+04 1.191e-09
 90.84605   -128.6 1.274e+04 1.238e-09
 90.85867   -128.1 1.268e+04 1.264e-09
 90.86853   -128.7 1.231e+04 1.106e-09
 90.88548   -128.2 1.232e+04 1.139e-09
 90.90008   -127.8 1.233e+04 1.156e-09
 90.90993   -128.2 1.242e+04 1.229e-09
 90.92490   -127.8 1.232e+04 1.202e-09
 90.94461   -127.4 1.218e+04 1.148e-09
 90.96432   -127.1 1.203e+04 1.074e-09
 90.98403   -126.8 1.184e+04 9.907e-10
 91.00374   -126.6 1.167e+04 9.069e-10
 91.02345   -126.3 1.151e+04 8.286e-10
 91.04316   -126.0 1.137e+04 7.596e-10
 91.06287   -125.8 1.123e+04 6.961e-10
 91.07636   -125.5 1.108e+04 6.341e-10
 91.08622   -125.8 1.108e+04 6.636e-10
 91.09548   -125.5 1.094e+04 6.054e-10
 91.10534   -125.7 1.095e+04 6.427e-10
 91.12201   -125.3 1.080e+04 5.673e-10
 91.14172   -125.0 1.063e+04 4.967e-10
 91.16143   -124.6 1.043e+04 4.360e-10
 91.19109   -124.3 1.017e+04 3.697e-10
 91.23061   -123.4 9.799e+03 2.814e-10
 91.27003   -122.7 9.519e+03 2.288e-10
 91.29108   -122.1 9.340e+03 1.969e-10
 91.31079   -122.4 9.244e+03 1.826e-10
 91.34888   -121.7 9.067e+03 1.600e-10
 91.38830   -120.9 8.985e+03 1.503e-10
 91.42772   -120.0 8.976e+03 1.489e-10
 91.46714   -119.2 9.020e+03 1.543e-10
 91.50208   -118.7 9.195e+03 1.881e-10
 91.52179   -118.5 9.219e+03 2.024e-10
 91.54599   -117.8 9.413e+03 2.569e-10
 91.58541   -117.0 9.599e+03 3.186e-10
 91.62483   -116.2 9.740e+03 3.711e-10
 91.66217   -115.5 9.787e+03 3.969e-10
 91.68188   -116.5 9.609e+03 3.481e-10
 91.70368   -115.8 9.606e+03 3.532e-10
 91.74310   -114.8 9.427e+03 3.309e-10
 91.78252   -113.7 9.161e+03 2.666e-10
 91.82194   -112.5 8.932e+03 2.079e-10
 91.86136   -111.6 8.869e+03 1.798e-10
 91.90079   -111.0 8.878e+03 1.752e-10
 91.93746   -111.0 8.981e+03 1.857e-10
 91.95718   -110.4 9.175e+03 2.104e-10
 91.97963   -110.8 9.789e+03 3.379e-10
 92.01905   -111.1 1.039e+04 5.640e-10
 92.05297   -111.4 1.080e+04 7.691e-10
 92.07268   -112.8 1.112e+04 9.286e-10
 92.09790   -113.5 1.127e+04 1.028e-09
 92.13732   -114.1 1.121e+04 1.013e-09
 92.17674   -114.4 1.096e+04 8.658e-10
 92.21616   -114.8 1.087e+04 7.828e-10
 92.25558   -115.5 1.094e+04 7.872e-10
 92.29501   -116.1 1.155e+04 1.039e-09
 92.33443   -116.4 1.210e+04 1.453e-09
 92.37285   -116.8 1.228e+04 1.651e-09
 92.39256   -117.0 1.147e+04 1.131e-09
 92.41327   -117.4 1.148e+04 1.172e-09
 92.44377   -117.7 1.129e+04 1.111e-09
 92.46348   -120.3 1.109e+04 9.417e-10
 92.49212   -121.0 1.090e+04 8.173e-10
 92.53154   -121.8 1.090e+04 8.032e-10
 92.57096   -122.7 1.116e+04 9.237e-10
 92.61038   -123.5 1.153e+04 1.186e-09
 92.64980   -124.4 1.184e+04 1.428e-09
 92.68923   -125.6 1.217e+04 1.595e-09
 92.71869   -127.8 1.192e+04 1.419e-09
 92.73831   -128.8 1.197e+04 1.434e-09
 92.75802   -130.4 1.187e+04 1.377e-09
 92.77773   -131.6 1.166e+04 1.287e-09
 92.79744   -132.6 1.129e+04 1.102e-09
 92.81715   -133.3 1.088e+04 8.902e-10
 92.82774   -134.0 1.049e+04 7.153e-10
 92.83512   -134.2 1.035e+04 7.034e-10
 92.84424   -133.5 1.019e+04 6.223e-10
 92.85657   -133.8 9.953e+03 5.369e-10
 92.87628   -134.0 9.812e+03 4.883e-10
 92.89600   -134.0 9.776e+03 4.750e-10
 92.91571   -133.8 9.770e+03 4.738e-10
 92.93542   -133.7 9.868e+03 4.942e-10
 92.95513   -133.7 1.027e+04 5.939e-10
 92.97484   -133.8 1.076e+04 7.329e-10
 92.99455   -133.9 1.123e+04 9.045e-10
 93.01426   -133.8 1.159e+04 1.099e-09
 93.02978   -133.7 1.180e+04 1.280e-09
 93.03964   -132.1 1.162e+04 1.125e-09
 93.04543   -131.9 1.176e+04 1.271e-09
 93.05529   -132.5 1.156e+04 1.179e-09
 93.07339   -132.1 1.155e+04 1.224e-09
 93.09311   -131.7 1.147e+04 1.227e-09
 93.11282   -131.1 1.118e+04 1.117e-09
 93.13253   -130.5 1.093e+04 9.244e-10
 93.15224   -130.0 1.070e+04 7.446e-10
 93.17195   -129.7 1.048e+04 6.092e-10
 93.19166   -129.4 1.026e+04 5.253e-10
 93.21137   -128.9 1.012e+04 4.800e-10
 93.22518   -128.3 1.006e+04 4.558e-10
 93.23504   -127.6 1.018e+04 4.608e-10
 93.25079   -127.1 1.016e+04 4.484e-10
 93.26313   -126.6 1.017e+04 4.439e-10
 93.27298   -126.6 9.951e+03 3.792e-10
 93.29022   -126.0 9.963e+03 3.765e-10
 93.30993   -125.4 1.003e+04 3.767e-10
 93.32964   -124.9 1.021e+04 3.870e-10
 93.34935   -124.4 1.041e+04 4.244e-10
 93.36906   -123.8 1.063e+04 4.929e-10
 93.38877   -123.2 1.089e+04 5.968e-10
 93.40848   -122.5 1.117e+04 7.237e-10
 93.42058   -121.8 1.148e+04 8.778e-10
 93.43044   -121.6 1.151e+04 8.640e-10
 93.44790   -121.1 1.194e+04 1.060e-09
 93.46761   -120.9 1.242e+04 1.360e-09
 93.48082   -120.5 1.318e+04 1.900e-09
 93.49067   -120.2 1.288e+04 1.648e-09
 93.50704   -120.1 1.378e+04 2.524e-09
 93.52675   -119.6 1.476e+04 3.923e-09
 93.54646   -118.6 1.566e+04 5.735e-09
 93.56617   -117.4 1.642e+04 7.524e-09
 93.58588   -116.5 1.701e+04 8.618e-09
 93.60559   -116.3 1.730e+04 8.846e-09
 93.61599   -116.3 1.751e+04 8.742e-09
 93.62584   -116.1 1.850e+04 1.471e-08
 93.64501   -116.7 1.871e+04 1.464e-08
 93.66472   -118.1 1.951e+04 1.604e-08
 93.67946   -119.1 1.970e+04 1.698e-08
 93.68926   -119.5 1.977e+04 1.948e-08
 93.69841   -119.8 1.974e+04 2.035e-08
 93.70334   -119.7 1.983e+04 1.490e-08
 93.70866   -119.9 1.980e+04 1.579e-08
 93.71359   -119.8 1.979e+04 2.407e-08
 93.71883   -119.6 1.968e+04 2.648e-08
 93.72869   -119.5 1.964e+04 2.404e-08
 93.74352   -119.3 1.969e+04 1.269e-08
 93.76328   -119.9 1.886e+04 7.703e-09
 93.78299   -121.6 1.678e+04 4.310e-09
 93.80153   -122.8 1.474e+04 2.913e-09
 93.81139   -121.6 1.664e+04 4.594e-09
 93.82241   -122.8 1.475e+04 2.590e-09
 93.84212   -123.2 1.349e+04 1.771e-09
 93.86183   -123.2 1.270e+04 1.376e-09
 93.88154   -122.9 1.214e+04 1.054e-09
 93.90126   -122.5 1.180e+04 8.295e-10
 93.91620   -122.0 1.148e+04 6.749e-10
 93.92605   -121.5 1.186e+04 7.960e-10
 93.94068   -121.0 1.163e+04 6.649e-10
 93.96039   -120.4 1.146e+04 5.817e-10
 93.98010   -119.8 1.135e+04 5.327e-10
 93.99693   -119.2 1.133e+04 5.124e-10
 94.00679   -119.5 1.140e+04 5.148e-10
 94.01952   -118.8 1.140e+04 5.137e-10
 94.03923   -118.2 1.147e+04 5.422e-10
 94.05894   -117.6 1.159e+04 6.083e-10
 94.07865   -116.9 1.170e+04 6.885e-10
 94.09837   -116.1 1.180e+04 7.698e-10
 94.11808   -115.3 1.190e+04 8.379e-10
 94.13389   -114.5 1.196e+04 8.757e-10
 94.14374   -114.7 1.219e+04 1.082e-09
 94.15750   -113.8 1.216e+04 1.068e-09
 94.17721   -113.0 1.206e+04 9.868e-10
 94.19233   -112.2 1.192e+04 8.706e-10
 94.20219   -111.8 1.220e+04 1.215e-09
 94.21663   -111.1 1.203e+04 1.068e-09
 94.23634   -110.6 1.182e+04 9.106e-10
 94.25605   -110.1 1.156e+04 7.669e-10
 94.27576   -109.8 1.131e+04 6.512e-10
 94.29548   -109.4 1.109e+04 5.701e-10
 94.31519   -109.0 1.092e+04 5.190e-10
 94.33490   -108.5 1.081e+04 4.899e-10
 94.35158   -108.1 1.077e+04 4.762e-10
 94.36144   -108.0 1.074e+04 4.452e-10
 94.37432   -107.6 1.069e+04 4.322e-10
 94.38774   -107.4 1.064e+04 4.242e-10
 94.39759   -106.8 1.085e+04 5.520e-10
 94.41374   -106.6 1.082e+04 5.401e-10
 94.43345   -106.6 1.079e+04 5.303e-10
 94.45316   -106.5 1.078e+04 5.260e-10
 94.47287   -106.5 1.078e+04 5.397e-10
 94.50254   -106.3 1.084e+04 5.700e-10
 94.54206   -106.4 1.065e+04 5.025e-10
 94.56947   -106.4 1.046e+04 4.349e-10
 94.57922   -106.9 1.059e+04 4.230e-10
 94.58314   -107.0 1.045e+04 4.099e-10
 94.59299   -106.4 1.066e+04 4.458e-10
 94.62080   -106.8 1.033e+04 3.939e-10
 94.66032   -106.0 1.012e+04 3.590e-10
 94.69975   -104.6 1.001e+04 3.283e-10
 94.73917   -102.9 9.962e+03 3.115e-10
 94.76888   -101.2 9.957e+03 3.027e-10
 94.78859   -101.0 1.038e+04 4.331e-10
 94.81801    -99.3 1.044e+04 4.513e-10
 94.85743    -97.6 1.043e+04 4.633e-10
 94.89686    -95.7 1.038e+04 4.725e-10
 94.93628    -93.7 1.035e+04 4.887e-10
 94.97570    -91.6 1.034e+04 5.018e-10
 95.00485    -89.6 1.032e+04 5.061e-10
 95.02456    -90.1 1.034e+04 5.565e-10
 95.05454    -88.1 1.026e+04 5.355e-10
 95.09397    -86.2 1.012e+04 5.012e-10
 95.13339    -84.3 9.977e+03 4.583e-10
 95.15968    -82.4 9.855e+03 4.131e-10
 95.17939    -82.6 9.795e+03 3.641e-10
 95.21223    -80.9 9.739e+03 3.399e-10
 95.25165    -79.4 9.741e+03 3.333e-10
 95.29108    -78.3 9.814e+03 3.398e-10
 95.33050    -77.7 1.009e+04 4.355e-10
 95.36992    -77.3 1.041e+04 6.254e-10
 95.40934    -77.0 1.064e+04 8.166e-10
 95.44023    -77.0 1.070e+04 8.719e-10
 95.45994    -76.3 1.134e+04 1.231e-09
 95.48819    -76.6 1.115e+04 1.194e-09
 95.52761    -76.6 1.043e+04 8.252e-10
 95.55039    -76.8 9.928e+03 5.747e-10
 95.57010    -76.9 1.023e+04 6.984e-10
 95.59650    -77.3 9.806e+03 5.045e-10
 95.61611    -77.5 9.598e+03 4.550e-10
 95.64578    -77.4 9.546e+03 4.520e-10
 95.68529    -77.2 8.928e+03 3.187e-10
 95.72472    -76.7 8.295e+03 2.144e-10
 95.76414    -75.7 7.886e+03 1.390e-10
 95.80356    -74.4 7.695e+03 1.045e-10
 95.84298    -72.8 7.509e+03 8.178e-11
 95.87561    -71.2 7.370e+03 6.653e-11
 95.89532    -71.3 7.380e+03 6.960e-11
 95.92158    -69.6 7.317e+03 6.549e-11
 95.94129    -69.9 7.315e+03 6.806e-11
 95.96125    -68.1 7.292e+03 6.693e-11
 96.00067    -66.2 7.292e+03 6.860e-11
 96.04009    -64.4 7.339e+03 7.438e-11
 96.07951    -62.6 7.383e+03 7.996e-11
 96.11894    -60.8 7.439e+03 8.391e-11
 96.15836    -59.2 7.472e+03 8.485e-11
 96.19778    -57.6 7.524e+03 8.249e-11
 96.23720    -56.3 7.564e+03 8.058e-11
 96.27662    -55.0 7.578e+03 7.911e-11
 96.31099    -53.6 7.577e+03 7.655e-11
 96.32704    -54.0 7.561e+03 7.434e-11
 96.33209    -54.0 7.556e+03 8.033e-11
 96.35547    -52.4 7.493e+03 6.870e-11
 96.39489    -50.8 7.459e+03 5.807e-11
 96.43431    -49.3 7.490e+03 5.103e-11
 96.47373    -47.8 7.521e+03 4.996e-11
 96.51316    -46.3 7.576e+03 5.421e-11
 96.55258    -44.6 7.617e+03 6.330e-11
 96.59200    -42.7 7.669e+03 7.312e-11
 96.63142    -40.6 7.731e+03 8.025e-11
 96.67084    -38.6 7.793e+03 8.379e-11
 96.70318    -36.6 7.850e+03 8.526e-11
 96.72289    -36.4 7.987e+03 1.106e-10
 96.74637    -34.7 8.130e+03 1.169e-10
 96.76609    -35.6 8.295e+03 1.185e-10
 96.78911    -34.4 8.514e+03 1.590e-10
 96.82853    -32.8 8.757e+03 2.311e-10
 96.86795    -30.8 9.026e+03 3.105e-10
 96.90738    -28.8 9.177e+03 3.465e-10
 96.94680    -26.8 9.147e+03 3.349e-10
 96.98622    -24.7 8.974e+03 2.614e-10
 97.02564    -22.9 8.796e+03 1.850e-10
 97.06506    -21.2 8.606e+03 1.400e-10
 97.09398    -19.2 8.483e+03 1.187e-10
 97.11369    -19.5 8.481e+03 9.471e-11
 97.14391    -17.6 8.430e+03 7.678e-11
 97.18176    -15.8 8.449e+03 7.138e-11
 97.20147    -16.4 8.480e+03 7.180e-11
 97.22275    -14.8 8.580e+03 7.696e-11
 97.26217    -13.2 8.466e+03 1.036e-10
 97.30160    -10.7 8.445e+03 1.321e-10
 97.34102     -8.3 8.491e+03 1.390e-10
 97.38044     -5.7 8.425e+03 1.203e-10
 97.41986     -3.3 8.347e+03 8.908e-11
 97.45928     -1.5 8.361e+03 6.153e-11
 97.48479     -0.1 8.231e+03 4.900e-11
 97.50450     -0.2 8.234e+03 5.042e-11
 97.53813      1.6 8.097e+03 4.729e-11
 97.57755      3.9 8.077e+03 4.742e-11
 97.61697      6.3 8.091e+03 5.002e-11
 97.65639      8.8 8.047e+03 5.117e-11
 97.69582     11.5 8.051e+03 5.115e-11
 97.73524     14.1 8.054e+03 4.985e-11
 97.77466     16.7 8.070e+03 4.821e-11
 97.81408     19.2 8.107e+03 4.690e-11
 97.85350     21.6 8.128e+03 4.681e-11
 97.87559     23.9 8.183e+03 4.775e-11
 97.89530     23.7 8.115e+03 3.868e-11
 97.93235     26.1 8.157e+03 4.233e-11
 97.97177     28.4 8.212e+03 4.853e-11
 98.01119     30.8 8.284e+03 5.713e-11
 98.05061     33.1 8.365e+03 6.686e-11
 98.07223     35.4 8.455e+03 7.740e-11
 98.09194     35.4 8.410e+03 7.465e-11
 98.12946     37.5 8.510e+03 9.104e-11
 98.16888     39.7 8.634e+03 1.130e-10
 98.20830     41.9 8.782e+03 1.417e-10
 98.24668     44.0 8.970e+03 1.732e-10
 98.26639     44.5 8.789e+03 1.314e-10
 98.28714     46.7 8.951e+03 1.548e-10
 98.32657     48.9 9.105e+03 1.720e-10
 98.36599     50.9 9.226e+03 1.820e-10
 98.40541     53.0 9.329e+03 1.863e-10
 98.44483     55.0 9.410e+03 1.933e-10
 98.48425     57.1 9.496e+03 2.003e-10
 98.50761     59.2 9.575e+03 2.050e-10
 98.52732     59.4 9.526e+03 1.808e-10
 98.56310     61.5 9.579e+03 1.775e-10
 98.60252     63.5 9.620e+03 1.802e-10
 98.63748     65.6 9.720e+03 1.991e-10
 98.65719     66.6 9.794e+03 2.144e-10
 98.68136     68.9 1.003e+04 2.307e-10
 98.72079     70.9 1.033e+04 2.642e-10
 98.75026     71.8 1.037e+04 2.723e-10
 98.76987     72.7 1.044e+04 2.873e-10
 98.78958     73.7 1.061e+04 3.337e-10
 98.80929     74.8 1.088e+04 4.277e-10
 98.82900     75.9 1.130e+04 5.935e-10
 98.84254     76.3 1.211e+04 9.143e-10
 98.85240     77.6 1.157e+04 7.617e-10
 98.86842     78.1 1.221e+04 1.156e-09
 98.88813     77.7 1.405e+04 2.186e-09
 98.90785     77.0 1.659e+04 4.793e-09
 98.92756     76.6 1.850e+04 9.931e-09
 98.94280     76.3 1.963e+04 1.713e-08
 98.95265     76.4 1.976e+04 1.655e-08
 98.96200     75.7 2.055e+04 2.439e-08
 98.97181     75.6 2.090e+04 3.310e-08
 98.98166     75.4 2.098e+04 4.232e-08
 98.99152     75.0 2.078e+04 4.561e-08
 99.00137     75.0 2.058e+04 4.397e-08
 99.01123     75.0 2.026e+04 3.895e-08
 99.02109     75.2 1.982e+04 2.803e-08
 99.03094     75.1 1.950e+04 2.047e-08
 99.03790     74.2 1.834e+04 6.802e-09
 99.04282     75.6 1.963e+04 2.413e-08
 99.05065     75.5 1.910e+04 1.393e-08
 99.06548     74.8 1.857e+04 7.543e-09
 99.08524     72.5 1.667e+04 2.855e-09
 99.10496     70.7 1.431e+04 1.805e-09
 99.12467     70.8 1.313e+04 1.544e-09
 99.14438     71.8 1.293e+04 1.481e-09
 99.16049     73.5 1.280e+04 1.411e-09
 99.17035     73.4 1.282e+04 1.496e-09
 99.19375     76.2 1.300e+04 1.577e-09
 99.23327     79.2 1.285e+04 1.423e-09
 99.27269     82.1 1.265e+04 1.222e-09
 99.31212     84.9 1.255e+04 9.418e-10
 99.35154     87.4 1.262e+04 7.172e-10
 99.37838     89.4 1.274e+04 5.775e-10
 99.39809     88.8 1.274e+04 5.763e-10
 99.41899     89.8 1.297e+04 5.475e-10
 99.42875     91.3 1.544e+04 1.595e-09
 99.44004     91.9 1.640e+04 1.549e-09
 99.45975     92.2 1.684e+04 1.404e-09
 99.47946     92.3 1.642e+04 1.195e-09
 99.49917     92.1 1.552e+04 1.169e-09
 99.51889     91.9 1.522e+04 1.257e-09
 99.53860     91.7 1.501e+04 1.513e-09
 99.55831     91.5 1.523e+04 1.934e-09
 99.57802     91.0 1.579e+04 2.681e-09
 99.59587     90.2 1.675e+04 4.152e-09
 99.60573     89.5 1.632e+04 3.096e-09
 99.61429     88.7 1.744e+04 5.305e-09
 99.62415     88.6 1.824e+04 1.090e-08
 99.63218     88.5 1.875e+04 1.384e-08
 99.64198     88.6 1.912e+04 1.618e-08
 99.65184     88.6 1.944e+04 1.823e-08
 99.66169     88.4 1.976e+04 1.933e-08
 99.67652     88.0 1.955e+04 2.031e-08
 99.69628     87.6 1.932e+04 1.840e-08
 99.71600     87.6 1.844e+04 1.253e-08
 99.73571     87.4 1.703e+04 6.801e-09
 99.75542     86.7 1.517e+04 3.199e-09
 99.77513     85.8 1.338e+04 1.613e-09
 99.79484     85.2 1.210e+04 9.866e-10
 99.80979     85.0 1.105e+04 5.217e-10
 99.81876     85.7 1.191e+04 9.437e-10
 99.83347     86.1 1.163e+04 8.656e-10
 99.86402     87.3 1.070e+04 5.302e-10
 99.90345     89.3 1.017e+04 3.665e-10
 99.94287     91.5 9.907e+03 2.823e-10
 99.98229     93.7 9.759e+03 2.243e-10
