# Columns:
#   distance along LOS (in CHIMPs)
#   peculiar velocity  (in km/s)
#   temperature (K)
#   HI number density
# pos=(65.8969,56.5265,74.9751), angles=(1.56703,3.37409)
  0.00919     83.2 1.068e+04 1.431e-10
  0.02119     82.0 1.052e+04 1.386e-10
  0.04406     80.1 1.037e+04 1.349e-10
  0.08420     78.2 1.039e+04 1.507e-10
  0.12434     76.5 1.058e+04 2.144e-10
  0.15435     75.5 1.079e+04 2.697e-10
  0.17433     74.5 1.105e+04 3.438e-10
  0.18605     73.5 1.129e+04 4.388e-10
  0.19608     72.4 1.167e+04 5.158e-10
  0.21447     69.5 1.242e+04 6.483e-10
  0.23454     64.2 1.374e+04 1.130e-09
  0.25461     59.0 1.472e+04 2.384e-09
  0.26857     55.7 1.533e+04 3.833e-09
  0.27861     54.3 1.492e+04 3.013e-09
  0.29476     51.4 1.490e+04 2.883e-09
  0.31483     48.4 1.460e+04 2.127e-09
  0.33490     44.3 1.377e+04 1.155e-09
  0.35110     39.6 1.217e+04 5.776e-10
  0.37127     38.7 1.144e+04 4.792e-10
  0.40534     35.1 1.005e+04 2.973e-10
  0.44549     33.5 9.937e+03 2.898e-10
  0.48563     31.8 1.023e+04 3.547e-10
  0.51635     29.9 1.120e+04 7.183e-10
  0.53642     30.0 1.122e+04 7.436e-10
  0.56592     29.0 1.213e+04 1.387e-09
  0.59593     28.2 1.272e+04 2.044e-09
  0.60871     28.0 1.294e+04 2.362e-09
  0.61875     28.4 1.269e+04 2.036e-09
  0.63597     28.1 1.283e+04 2.116e-09
  0.65604     27.1 1.307e+04 2.075e-09
  0.67611     25.5 1.339e+04 1.986e-09
  0.69124     23.8 1.344e+04 1.862e-09
  0.70128     24.5 1.303e+04 1.534e-09
  0.71626     23.1 1.301e+04 1.446e-09
  0.73633     21.8 1.283e+04 1.320e-09
  0.75640     20.3 1.253e+04 1.164e-09
  0.77377     18.1 1.240e+04 1.112e-09
  0.78380     18.7 1.262e+04 1.214e-09
  0.79654     15.1 1.303e+04 1.494e-09
  0.81661     12.4 1.345e+04 2.171e-09
  0.83668     11.4 1.336e+04 2.530e-09
  0.85629     11.2 1.312e+04 2.384e-09
  0.86633     12.1 1.342e+04 2.798e-09
  0.87683     10.7 1.409e+04 2.302e-09
  0.89690      5.8 1.548e+04 2.050e-09
  0.91697     -2.6 1.620e+04 2.608e-09
  0.93704     -8.0 1.512e+04 4.244e-09
  0.94886     -8.3 1.505e+04 6.526e-09
  0.95889     -7.8 1.507e+04 6.990e-09
  0.97718     -6.4 1.477e+04 7.613e-09
  0.99726     -4.3 1.464e+04 5.864e-09
  1.01733     -5.6 1.529e+04 3.219e-09
  1.02921    -11.5 1.483e+04 2.028e-09
  1.03323    -11.5 1.420e+04 1.790e-09
  1.04142    -12.0 1.404e+04 1.857e-09
  1.05747    -16.5 1.300e+04 1.631e-09
  1.07754    -17.9 1.267e+04 1.776e-09
  1.09761    -18.2 1.273e+04 1.847e-09
  1.11391    -18.6 1.257e+04 1.679e-09
  1.12395    -17.9 1.255e+04 1.678e-09
  1.13776    -18.7 1.242e+04 1.334e-09
  1.15783    -21.5 1.253e+04 1.097e-09
  1.17790    -25.3 1.286e+04 1.071e-09
  1.19644    -29.2 1.266e+04 1.212e-09
  1.20647    -27.4 1.220e+04 8.816e-10
  1.21804    -29.4 1.209e+04 1.178e-09
  1.23811    -30.0 1.189e+04 1.433e-09
  1.25818    -30.0 1.203e+04 1.529e-09
  1.27826    -30.3 1.222e+04 1.450e-09
  1.28900    -31.3 1.223e+04 1.123e-09
  1.29904    -30.2 1.188e+04 1.138e-09
  1.31840    -31.2 1.173e+04 9.370e-10
  1.33847    -32.1 1.137e+04 7.914e-10
  1.35854    -32.5 1.091e+04 6.714e-10
  1.37153    -32.4 1.053e+04 5.632e-10
  1.38156    -31.0 1.071e+04 6.323e-10
  1.39869    -30.9 1.042e+04 5.111e-10
  1.41876    -30.9 1.021e+04 4.091e-10
  1.43883    -31.0 1.004e+04 3.430e-10
  1.45405    -31.1 9.877e+03 3.147e-10
  1.46409    -30.7 9.904e+03 3.166e-10
  1.48910    -30.7 9.829e+03 3.113e-10
  1.52674    -30.4 9.969e+03 4.039e-10
  1.54681    -28.2 9.680e+03 2.929e-10
  1.56949    -27.8 1.003e+04 4.445e-10
  1.59950    -27.2 1.057e+04 6.216e-10
  1.61911    -27.1 1.067e+04 6.825e-10
  1.62914    -26.7 1.048e+04 6.259e-10
  1.63954    -26.1 1.077e+04 7.088e-10
  1.65961    -26.0 1.090e+04 7.516e-10
  1.67969    -25.8 1.107e+04 8.165e-10
  1.69976    -26.0 1.119e+04 8.838e-10
  1.71167    -26.2 1.137e+04 9.983e-10
  1.72170    -24.8 1.141e+04 9.219e-10
  1.73990    -25.6 1.175e+04 1.108e-09
  1.75997    -26.7 1.224e+04 1.458e-09
  1.78004    -28.0 1.271e+04 2.022e-09
  1.79420    -28.3 1.345e+04 2.883e-09
  1.80423    -29.2 1.379e+04 4.259e-09
  1.82019    -28.2 1.467e+04 5.929e-09
  1.84026    -27.1 1.545e+04 6.556e-09
  1.86033    -26.6 1.590e+04 6.416e-09
  1.87672    -27.1 1.589e+04 4.013e-09
  1.88676    -25.0 1.617e+04 6.150e-09
  1.90047    -28.7 1.494e+04 3.090e-09
  1.92054    -31.9 1.298e+04 2.005e-09
  1.94061    -32.8 1.236e+04 1.735e-09
  1.95925    -33.1 1.218e+04 1.636e-09
  1.96928    -32.7 1.216e+04 1.529e-09
  1.98076    -32.9 1.212e+04 1.513e-09
  2.00083    -33.1 1.215e+04 1.556e-09
  2.02090    -33.2 1.229e+04 1.679e-09
  2.04097    -33.1 1.244e+04 1.817e-09
  2.05181    -33.1 1.254e+04 1.885e-09
  2.06185    -32.9 1.280e+04 2.186e-09
  2.08111    -32.9 1.301e+04 2.358e-09
  2.10119    -32.9 1.314e+04 2.489e-09
  2.12126    -32.8 1.317e+04 2.344e-09
  2.13434    -32.8 1.324e+04 1.974e-09
  2.14437    -32.5 1.365e+04 2.640e-09
  2.16140    -32.8 1.373e+04 1.999e-09
  2.18147    -34.5 1.330e+04 1.361e-09
  2.20154    -37.2 1.215e+04 9.973e-10
  2.21686    -39.9 1.164e+04 9.222e-10
  2.22690    -40.4 1.178e+04 1.020e-09
  2.24169    -43.6 1.265e+04 1.209e-09
  2.26176    -46.7 1.374e+04 2.088e-09
  2.28183    -47.8 1.445e+04 3.523e-09
  2.29939    -47.9 1.503e+04 5.029e-09
  2.30943    -49.3 1.605e+04 5.491e-09
  2.32197    -49.2 1.617e+04 5.828e-09
  2.34204    -48.7 1.579e+04 4.986e-09
  2.36211    -48.4 1.470e+04 3.022e-09
  2.38192    -49.4 1.339e+04 1.634e-09
  2.39195    -51.8 1.291e+04 1.459e-09
  2.40226    -53.8 1.176e+04 1.016e-09
  2.42233    -54.3 1.134e+04 9.057e-10
  2.44240    -54.2 1.123e+04 8.868e-10
  2.46247    -53.6 1.126e+04 9.659e-10
  2.47448    -53.2 1.147e+04 1.131e-09
  2.48452    -53.3 1.146e+04 1.315e-09
  2.50261    -52.6 1.161e+04 1.454e-09
  2.52269    -51.9 1.177e+04 1.549e-09
  2.54276    -51.5 1.183e+04 1.575e-09
  2.55701    -51.2 1.184e+04 1.554e-09
  2.57718    -51.9 1.181e+04 1.411e-09
  2.61320    -51.8 1.149e+04 1.117e-09
  2.65335    -52.0 1.110e+04 8.222e-10
  2.69349    -52.4 1.057e+04 6.242e-10
  2.72226    -52.2 1.009e+04 5.197e-10
  2.74233    -52.4 1.009e+04 6.003e-10
  2.77377    -51.5 9.959e+03 5.141e-10
  2.81392    -50.9 1.001e+04 4.596e-10
  2.85406    -50.5 1.007e+04 4.521e-10
  2.88731    -50.0 1.025e+04 4.954e-10
  2.90738    -50.1 1.026e+04 5.700e-10
  2.93435    -49.0 1.033e+04 6.164e-10
  2.97449    -47.9 1.027e+04 6.126e-10
  3.01463    -47.1 1.022e+04 5.973e-10
  3.05236    -46.2 1.020e+04 6.314e-10
  3.07243    -45.7 1.019e+04 5.735e-10
  3.09492    -44.9 1.028e+04 6.363e-10
  3.13506    -44.2 1.059e+04 7.929e-10
  3.17520    -43.2 1.096e+04 9.788e-10
  3.21535    -42.4 1.125e+04 1.065e-09
  3.23749    -41.8 1.130e+04 1.062e-09
  3.25756    -41.2 1.130e+04 1.072e-09
  3.29563    -40.9 1.128e+04 1.036e-09
  3.33577    -40.9 1.131e+04 1.037e-09
  3.37592    -41.5 1.176e+04 1.305e-09
  3.40254    -41.8 1.237e+04 1.770e-09
  3.41248    -41.6 1.248e+04 1.972e-09
  3.42590    -41.6 1.274e+04 2.338e-09
  3.44597    -41.4 1.290e+04 2.589e-09
  3.46604    -41.1 1.292e+04 2.640e-09
  3.48487    -40.8 1.289e+04 2.564e-09
  3.49491    -39.8 1.284e+04 2.719e-09
  3.50619    -39.6 1.249e+04 2.083e-09
  3.52626    -40.7 1.221e+04 1.557e-09
  3.54633    -42.7 1.171e+04 1.179e-09
  3.56640    -44.5 1.121e+04 9.717e-10
  3.57743    -45.7 1.089e+04 8.668e-10
  3.58747    -44.8 1.089e+04 8.484e-10
  3.60654    -45.8 1.066e+04 7.911e-10
  3.62662    -46.6 1.050e+04 7.440e-10
  3.64669    -47.3 1.041e+04 7.178e-10
  3.65996    -47.9 1.036e+04 7.029e-10
  3.67000    -47.6 1.051e+04 7.478e-10
  3.69696    -48.7 1.034e+04 6.874e-10
  3.73265    -50.3 1.027e+04 6.737e-10
  3.75272    -48.8 1.041e+04 7.504e-10
  3.77735    -49.7 1.033e+04 7.419e-10
  3.81749    -50.2 1.060e+04 8.828e-10
  3.85763    -51.2 1.139e+04 1.123e-09
  3.88764    -53.1 1.232e+04 1.367e-09
  3.90754    -54.7 1.325e+04 1.761e-09
  3.92761    -56.7 1.471e+04 2.983e-09
  3.94776    -57.7 1.523e+04 3.867e-09
  3.96783    -58.5 1.530e+04 4.097e-09
  3.98790    -59.2 1.493e+04 3.892e-09
  4.00010    -59.9 1.419e+04 2.876e-09
  4.01014    -59.9 1.460e+04 3.380e-09
  4.02804    -61.9 1.359e+04 2.130e-09
  4.04812    -64.8 1.264e+04 1.450e-09
  4.06819    -67.3 1.199e+04 1.174e-09
  4.08263    -68.9 1.162e+04 1.086e-09
  4.09267    -69.7 1.204e+04 1.272e-09
  4.10833    -70.2 1.181e+04 1.233e-09
  4.12840    -70.4 1.158e+04 1.201e-09
  4.14847    -70.1 1.130e+04 1.126e-09
  4.16516    -69.4 1.103e+04 9.912e-10
  4.17519    -69.1 1.117e+04 1.093e-09
  4.18862    -68.4 1.078e+04 8.507e-10
  4.20869    -68.0 1.030e+04 6.179e-10
  4.22876    -67.9 9.856e+03 4.389e-10
  4.24768    -68.2 9.831e+03 3.708e-10
  4.25772    -69.7 1.086e+04 4.001e-10
  4.26890    -78.9 2.029e+04 4.293e-10
  4.28897    -89.5 2.205e+04 1.848e-09
  4.30904    -93.8 1.992e+04 9.607e-09
  4.32405    -95.2 1.942e+04 2.546e-08
  4.33404    -94.9 1.974e+04 4.407e-08
  4.34015    -94.0 1.999e+04 6.622e-08
  4.34517    -93.7 1.997e+04 5.539e-08
  4.35411    -92.8 1.995e+04 6.467e-08
  4.36414    -92.3 1.990e+04 6.690e-08
  4.37418    -91.8 1.973e+04 6.460e-08
  4.38141    -91.4 1.962e+04 4.219e-08
  4.38643    -90.7 2.048e+04 2.771e-08
  4.39425    -90.9 2.125e+04 1.277e-08
  4.40429    -94.9 2.167e+04 4.962e-09
  4.41432   -100.1 1.906e+04 2.215e-09
  4.42272   -103.5 1.538e+04 1.401e-09
  4.43281   -104.8 1.287e+04 9.772e-10
  4.44954   -105.5 1.047e+04 6.244e-10
  4.46962   -104.5 9.925e+03 4.970e-10
  4.48969   -103.2 9.754e+03 4.573e-10
  4.50530   -102.0 9.739e+03 4.245e-10
  4.51534   -101.8 9.506e+03 4.760e-10
  4.52983   -100.6 9.466e+03 4.560e-10
  4.54990    -99.5 9.453e+03 4.359e-10
  4.56997    -98.4 9.458e+03 4.167e-10
  4.58783    -97.5 9.502e+03 3.999e-10
  4.59786    -97.4 9.799e+03 4.160e-10
  4.61012    -96.5 9.848e+03 3.973e-10
  4.63019    -95.6 9.898e+03 3.836e-10
  4.65026    -94.9 9.920e+03 3.804e-10
  4.67033    -94.4 9.973e+03 3.815e-10
  4.69040    -94.3 1.061e+04 4.338e-10
  4.71047    -95.0 1.118e+04 5.292e-10
  4.73054    -96.3 1.188e+04 7.919e-10
  4.75062    -97.2 1.260e+04 1.314e-09
  4.76292    -97.4 1.326e+04 2.101e-09
  4.77295    -97.3 1.343e+04 2.388e-09
  4.79076    -97.1 1.399e+04 3.396e-09
  4.81083    -96.9 1.434e+04 4.152e-09
  4.83090    -96.9 1.442e+04 4.365e-09
  4.84544    -96.9 1.438e+04 4.347e-09
  4.85548    -96.1 1.452e+04 4.902e-09
  4.87104    -95.6 1.427e+04 4.581e-09
  4.89112    -95.1 1.384e+04 3.726e-09
  4.91119    -94.8 1.328e+04 2.829e-09
  4.92797    -94.5 1.261e+04 2.084e-09
  4.93800    -92.9 1.318e+04 2.722e-09
  4.95133    -92.5 1.254e+04 2.002e-09
  4.97140    -92.2 1.182e+04 1.479e-09
  4.99147    -92.1 1.118e+04 1.143e-09
  5.01050    -91.7 1.072e+04 9.473e-10
  5.02053    -89.6 1.116e+04 1.091e-09
  5.03162    -89.4 1.075e+04 9.208e-10
  5.05169    -89.2 1.057e+04 8.499e-10
  5.07176    -88.9 1.053e+04 8.345e-10
  5.09183    -89.2 1.073e+04 8.616e-10
  5.10306    -91.3 1.195e+04 1.218e-09
  5.11309    -89.0 1.179e+04 1.143e-09
  5.13197    -91.5 1.310e+04 1.863e-09
  5.15204    -93.7 1.401e+04 2.809e-09
  5.17212    -95.9 1.444e+04 3.456e-09
  5.18558    -98.3 1.449e+04 3.588e-09
  5.19562    -96.2 1.462e+04 3.696e-09
  5.21226    -98.8 1.409e+04 3.390e-09
  5.23233   -101.2 1.302e+04 2.236e-09
  5.25240   -104.0 1.170e+04 1.278e-09
  5.26811   -106.9 1.046e+04 7.515e-10
  5.27815   -105.5 1.057e+04 8.058e-10
  5.29254   -108.4 9.780e+03 5.491e-10
  5.31262   -110.8 9.477e+03 4.579e-10
  5.33269   -112.6 9.350e+03 4.320e-10
  5.35064   -113.8 9.283e+03 4.245e-10
  5.36067   -112.1 9.333e+03 4.290e-10
  5.37283   -118.1 1.205e+04 3.928e-10
  5.39290   -137.6 3.920e+04 3.634e-10
  5.41297   -154.9 3.512e+04 3.734e-09
  5.42798   -163.4 2.812e+04 2.156e-08
  5.43797   -166.4 2.438e+04 4.485e-08
  5.44310   -168.5 2.248e+04 6.320e-08
  5.44812   -169.3 2.185e+04 7.695e-08
  5.45804   -169.6 2.161e+04 7.818e-08
  5.46807   -169.5 2.139e+04 6.476e-08
  5.47811   -169.6 2.210e+04 3.812e-08
  5.48437   -172.2 2.344e+04 1.662e-08
  5.48938   -176.9 2.498e+04 7.432e-09
  5.49818   -185.3 2.162e+04 2.158e-09
  5.50822   -191.4 1.522e+04 1.149e-09
  5.51825   -193.1 1.294e+04 9.725e-10
  5.52568   -193.7 1.203e+04 8.744e-10
  5.53576   -196.8 1.034e+04 6.072e-10
  5.55347   -195.4 1.017e+04 5.537e-10
  5.57355   -194.2 1.015e+04 5.464e-10
  5.59362   -193.2 1.016e+04 5.460e-10
  5.60825   -192.1 1.017e+04 5.488e-10
  5.61829   -192.9 1.003e+04 5.062e-10
  5.63376   -191.9 1.004e+04 5.124e-10
  5.65383   -191.0 1.004e+04 5.134e-10
  5.67390   -190.1 1.000e+04 5.004e-10
  5.69078   -189.0 9.910e+03 4.597e-10
  5.70082   -189.9 9.830e+03 4.310e-10
  5.71405   -188.8 9.712e+03 3.935e-10
  5.73412   -187.8 9.628e+03 3.695e-10
  5.75419   -187.0 9.595e+03 3.604e-10
  5.77331   -186.3 9.588e+03 3.586e-10
  5.78334   -187.5 9.639e+03 3.813e-10
  5.79433   -186.7 9.677e+03 3.854e-10
  5.81440   -186.0 9.835e+03 4.136e-10
  5.83447   -185.2 1.004e+04 4.642e-10
  5.85455   -184.4 1.026e+04 5.264e-10
  5.86587   -183.7 1.046e+04 5.881e-10
  5.87591   -184.3 1.067e+04 7.094e-10
  5.89469   -183.7 1.079e+04 7.611e-10
  5.91476   -183.1 1.081e+04 7.759e-10
  5.93483   -182.4 1.078e+04 7.769e-10
  5.94840   -181.5 1.056e+04 7.170e-10
  5.95843   -181.7 1.078e+04 7.978e-10
  5.97497   -180.6 1.054e+04 6.652e-10
  5.99505   -179.4 1.028e+04 5.394e-10
  6.01512   -178.4 1.009e+04 4.478e-10
  6.03092   -177.6 9.995e+03 3.985e-10
  6.04096   -177.7 9.999e+03 3.993e-10
  6.06539   -177.0 9.932e+03 3.607e-10
  6.10361   -175.3 9.697e+03 2.884e-10
  6.12368   -175.5 9.828e+03 3.167e-10
  6.14578   -173.3 9.579e+03 2.449e-10
  6.18592   -171.1 9.375e+03 1.860e-10
  6.22606   -169.0 9.274e+03 1.450e-10
  6.26621   -167.0 9.280e+03 1.215e-10
  6.28873   -165.1 9.332e+03 1.132e-10
  6.30881   -164.6 9.529e+03 1.258e-10
  6.34649   -162.9 9.564e+03 1.232e-10
  6.38663   -161.7 9.739e+03 1.230e-10
  6.42678   -160.8 1.017e+04 1.411e-10
  6.45379   -160.0 1.042e+04 1.801e-10
  6.47386   -159.6 1.074e+04 2.010e-10
  6.50706   -159.1 1.087e+04 2.476e-10
  6.54721   -158.7 1.089e+04 2.793e-10
  6.58735   -158.5 1.089e+04 2.868e-10
  6.61884   -158.6 1.082e+04 2.810e-10
  6.63891   -159.1 1.114e+04 3.583e-10
  6.66763   -159.0 1.093e+04 2.976e-10
  6.70778   -158.9 1.073e+04 2.524e-10
  6.74792   -158.7 1.061e+04 2.406e-10
  6.78389   -158.5 1.055e+04 2.409e-10
  6.80397   -158.6 1.079e+04 3.257e-10
  6.82821   -158.1 1.078e+04 3.221e-10
  6.86835   -157.5 1.072e+04 3.196e-10
  6.90849   -156.8 1.047e+04 3.138e-10
  6.94863   -156.1 1.019e+04 2.894e-10
  6.96902   -155.5 1.000e+04 2.552e-10
  6.98909   -154.9 1.066e+04 2.947e-10
  7.02892   -154.6 1.049e+04 2.729e-10
  7.06906   -154.3 1.042e+04 2.690e-10
  7.10921   -154.2 1.035e+04 2.749e-10
  7.13407   -154.2 1.034e+04 3.017e-10
  7.14401   -153.6 1.074e+04 3.696e-10
  7.15919   -153.8 1.072e+04 3.923e-10
  7.17926   -154.0 1.072e+04 4.241e-10
  7.19933   -154.2 1.076e+04 4.688e-10
  7.21640   -154.5 1.083e+04 5.299e-10
  7.22644   -154.3 1.113e+04 5.953e-10
  7.23947   -154.6 1.126e+04 6.913e-10
  7.25955   -154.9 1.141e+04 8.141e-10
  7.27962   -155.2 1.158e+04 9.592e-10
  7.29893   -155.4 1.174e+04 1.108e-09
  7.30897   -155.7 1.188e+04 1.220e-09
  7.31976   -156.0 1.189e+04 1.275e-09
  7.33983   -156.2 1.189e+04 1.282e-09
  7.35990   -156.4 1.179e+04 1.265e-09
  7.37998   -156.3 1.161e+04 1.163e-09
  7.39149   -156.1 1.143e+04 1.016e-09
  7.40153   -156.2 1.132e+04 7.890e-10
  7.42012   -156.2 1.110e+04 6.237e-10
  7.44019   -156.3 1.083e+04 4.852e-10
  7.46026   -156.3 1.057e+04 3.916e-10
  7.47402   -156.3 1.038e+04 3.396e-10
  7.48415   -157.5 1.024e+04 2.476e-10
  7.51063   -157.4 9.855e+03 1.701e-10
  7.55078   -156.7 9.492e+03 1.173e-10
  7.59092   -155.9 9.280e+03 8.905e-11
  7.62923   -155.0 9.169e+03 7.470e-11
  7.64930   -155.4 9.109e+03 7.073e-11
  7.67121   -154.2 9.047e+03 6.523e-11
  7.71135   -152.9 8.969e+03 6.252e-11
  7.75149   -151.5 8.889e+03 6.103e-11
  7.79163   -149.9 8.821e+03 5.993e-11
  7.81436   -148.3 8.770e+03 5.861e-11
  7.83443   -148.2 8.663e+03 6.252e-11
  7.87192   -146.4 8.655e+03 6.072e-11
  7.91206   -144.6 8.661e+03 5.901e-11
  7.95221   -142.8 8.684e+03 5.705e-11
  7.97941   -141.0 8.725e+03 5.456e-11
  7.99948   -141.0 8.781e+03 6.222e-11
  8.03249   -139.2 8.817e+03 6.192e-11
  8.07264   -137.4 8.889e+03 6.007e-11
  8.11278   -135.5 8.915e+03 5.837e-11
  8.14446   -133.5 8.928e+03 5.768e-11
  8.16454   -133.6 8.801e+03 7.851e-11
  8.19306   -131.7 8.794e+03 7.826e-11
  8.23321   -130.1 8.805e+03 7.866e-11
  8.27335   -129.1 9.072e+03 8.758e-11
  8.30952   -128.4 9.461e+03 1.278e-10
  8.32959   -128.6 9.490e+03 1.498e-10
  8.35364   -128.2 9.870e+03 2.351e-10
  8.39378   -127.9 1.023e+04 3.244e-10
  8.43392   -127.8 1.051e+04 3.730e-10
  8.47406   -128.0 1.059e+04 3.819e-10
  8.49464   -128.0 1.063e+04 3.661e-10
  8.51471   -129.2 1.076e+04 4.268e-10
  8.55435   -128.8 1.072e+04 3.357e-10
  8.59449   -128.3 1.073e+04 2.677e-10
  8.63464   -127.8 1.076e+04 2.495e-10
  8.65970   -127.1 1.076e+04 2.493e-10
  8.67977   -129.0 1.097e+04 4.633e-10
  8.71492   -127.9 1.079e+04 4.624e-10
  8.75506   -126.5 1.053e+04 4.566e-10
  8.79521   -125.1 1.035e+04 4.209e-10
  8.82475   -123.8 1.019e+04 3.676e-10
  8.84482   -125.1 1.026e+04 3.752e-10
  8.87549   -123.9 1.005e+04 3.135e-10
  8.91564   -122.6 9.857e+03 2.658e-10
  8.95578   -121.3 9.778e+03 2.432e-10
  8.98980   -119.9 9.774e+03 2.391e-10
  9.00987   -121.0 9.673e+03 2.324e-10
  9.03606   -119.9 9.845e+03 2.504e-10
  9.07621   -119.2 1.027e+04 3.537e-10
  9.11635   -118.5 1.074e+04 5.409e-10
  9.15486   -117.9 1.114e+04 7.757e-10
  9.17493   -119.2 1.093e+04 6.953e-10
  9.19664   -119.0 1.104e+04 8.089e-10
  9.23678   -119.0 1.103e+04 8.276e-10
  9.27692   -118.9 1.071e+04 7.597e-10
  9.31706   -118.5 1.022e+04 5.530e-10
  9.33998   -118.1 9.715e+03 3.667e-10
  9.36005   -118.5 9.507e+03 3.214e-10
  9.39735   -117.8 9.116e+03 2.134e-10
  9.43749   -116.9 8.824e+03 1.503e-10
  9.47764   -115.7 8.618e+03 1.130e-10
  9.50503   -114.3 8.473e+03 8.995e-11
  9.52511   -114.1 8.402e+03 7.853e-11
  9.55792   -112.5 8.311e+03 6.414e-11
  9.59806   -110.7 8.241e+03 5.423e-11
  9.63821   -108.9 8.188e+03 4.739e-11
  9.67009   -107.0 8.152e+03 4.286e-11
  9.69016   -106.8 8.122e+03 3.927e-11
  9.71849   -104.9 8.120e+03 3.826e-11
  9.75864   -103.0 8.123e+03 3.809e-11
  9.79878   -101.3 8.138e+03 3.841e-11
  9.83514    -99.7 8.176e+03 4.028e-11
  9.85521    -99.8 8.402e+03 4.252e-11
  9.87906    -98.4 8.717e+03 4.720e-11
  9.91921    -97.2 9.061e+03 5.370e-11
  9.95935    -96.5 9.415e+03 6.675e-11
  9.99949    -96.5 9.822e+03 1.037e-10
 10.02027    -97.3 1.048e+04 2.294e-10
 10.04034    -98.7 1.101e+04 5.200e-10
 10.07978    -99.0 1.184e+04 1.141e-09
 10.10270    -98.8 1.197e+04 1.335e-09
 10.11263    -98.8 1.217e+04 1.608e-09
 10.12976    -98.3 1.249e+04 1.971e-09
 10.14983    -97.8 1.287e+04 2.354e-09
 10.16991    -97.3 1.314e+04 2.596e-09
 10.18512    -97.1 1.319e+04 2.612e-09
 10.19516    -97.5 1.266e+04 1.897e-09
 10.21005    -97.4 1.239e+04 1.654e-09
 10.23012    -97.3 1.190e+04 1.301e-09
 10.25019    -97.3 1.135e+04 9.608e-10
 10.26765    -97.2 1.082e+04 6.768e-10
 10.27769    -97.3 1.039e+04 5.085e-10
 10.29033    -97.0 1.015e+04 3.773e-10
 10.31041    -96.8 9.959e+03 3.066e-10
 10.33048    -96.5 9.895e+03 2.811e-10
 10.35028    -96.1 9.876e+03 2.601e-10
 10.37044    -96.2 9.582e+03 2.085e-10
 10.40092    -95.0 9.487e+03 1.921e-10
 10.44107    -93.7 9.509e+03 1.932e-10
 10.48121    -92.7 9.706e+03 2.276e-10
 10.51543    -91.5 9.906e+03 2.826e-10
 10.53550    -91.8 9.981e+03 3.367e-10
 10.56149    -90.7 1.023e+04 4.078e-10
 10.60164    -89.8 1.036e+04 4.288e-10
 10.64178    -89.2 1.043e+04 4.205e-10
 10.68048    -89.2 1.066e+04 3.793e-10
 10.70055    -90.3 1.076e+04 3.983e-10
 10.72207    -91.5 1.109e+04 3.896e-10
 10.76221    -93.5 1.184e+04 4.646e-10
 10.80235    -95.4 1.230e+04 6.363e-10
 10.84249    -97.7 1.274e+04 9.685e-10
 10.86561    -99.9 1.309e+04 1.342e-09
 10.88568   -101.5 1.336e+04 1.514e-09
 10.92278   -103.9 1.344e+04 1.637e-09
 10.96292   -105.9 1.311e+04 1.577e-09
 11.00307   -106.7 1.226e+04 1.037e-09
 11.03066   -107.1 1.133e+04 5.355e-10
 11.05073   -108.4 1.104e+04 4.576e-10
 11.08335   -108.2 1.046e+04 2.608e-10
 11.12349   -107.6 1.030e+04 2.093e-10
 11.16364   -106.7 1.026e+04 1.999e-10
 11.19571   -105.9 1.028e+04 2.060e-10
 11.21578   -106.9 1.025e+04 2.276e-10
 11.24392   -106.2 1.029e+04 2.604e-10
 11.28407   -105.4 1.029e+04 2.901e-10
 11.32421   -104.6 1.023e+04 3.010e-10
 11.36077   -104.0 1.021e+04 2.982e-10
 11.38084   -104.8 1.008e+04 2.643e-10
 11.38871   -104.5 1.020e+04 2.779e-10
 11.40878   -102.5 9.988e+03 2.486e-10
 11.44464   -102.1 1.003e+04 2.507e-10
 11.48478   -101.9 1.019e+04 2.855e-10
 11.52492   -101.6 1.035e+04 3.463e-10
 11.54589   -101.2 1.047e+04 4.085e-10
 11.56596   -101.0 1.030e+04 3.837e-10
 11.60521   -100.3 1.034e+04 4.124e-10
 11.64535    -99.4 1.038e+04 4.273e-10
 11.68549    -98.6 1.039e+04 4.339e-10
 11.71094    -97.7 1.036e+04 4.339e-10
 11.73101    -97.1 1.041e+04 4.482e-10
 11.76578    -96.2 1.046e+04 4.814e-10
 11.80592    -95.2 1.048e+04 5.214e-10
 11.84607    -94.2 1.047e+04 5.502e-10
 11.87600    -93.1 1.044e+04 5.577e-10
 11.89607    -92.5 1.064e+04 6.520e-10
 11.92635    -91.7 1.063e+04 6.374e-10
 11.96649    -91.4 1.072e+04 6.451e-10
 12.00664    -91.5 1.099e+04 7.165e-10
 12.04105    -92.2 1.134e+04 8.496e-10
 12.06112    -93.2 1.202e+04 1.238e-09
 12.08692    -94.8 1.240e+04 1.563e-09
 12.11693    -96.2 1.244e+04 1.686e-09
 12.13342    -96.5 1.247e+04 1.729e-09
 12.14345    -96.9 1.258e+04 1.878e-09
 12.15698    -97.9 1.253e+04 1.942e-09
 12.17705    -98.2 1.249e+04 1.937e-09
 12.20601    -98.6 1.252e+04 1.948e-09
 12.22608   -100.7 1.250e+04 1.945e-09
 12.23726   -101.3 1.248e+04 1.932e-09
 12.25734   -102.0 1.249e+04 1.932e-09
 12.27741   -102.6 1.250e+04 1.933e-09
 12.29748   -103.5 1.259e+04 1.987e-09
 12.30851   -104.6 1.275e+04 2.094e-09
 12.31854   -105.4 1.281e+04 2.125e-09
 12.33762   -107.0 1.318e+04 2.401e-09
 12.35769   -108.8 1.360e+04 2.815e-09
 12.37776   -110.4 1.395e+04 3.268e-09
 12.39103   -111.8 1.409e+04 3.538e-09
 12.40107   -113.0 1.468e+04 4.507e-09
 12.41791   -114.0 1.463e+04 4.551e-09
 12.43798   -114.4 1.407e+04 3.967e-09
 12.45805   -114.5 1.326e+04 2.844e-09
 12.47356   -114.8 1.239e+04 1.886e-09
 12.48360   -115.2 1.240e+04 1.888e-09
 12.49819   -115.6 1.159e+04 1.198e-09
 12.51826   -115.9 1.097e+04 7.965e-10
 12.53834   -115.8 1.047e+04 5.575e-10
 12.55609   -115.0 1.013e+04 4.221e-10
 12.56612   -115.7 1.010e+04 4.120e-10
 12.57848   -115.2 1.003e+04 3.634e-10
 12.60868   -115.0 1.003e+04 3.384e-10
 12.64892   -114.0 9.934e+03 3.053e-10
 12.68907   -112.5 9.799e+03 2.746e-10
 12.72134   -111.0 9.722e+03 2.477e-10
 12.74141   -111.5 9.966e+03 3.118e-10
 12.76935   -109.9 9.820e+03 2.593e-10
 12.80950   -108.3 9.713e+03 2.193e-10
 12.84964   -106.7 9.665e+03 2.007e-10
 12.88639   -105.0 9.653e+03 1.979e-10
 12.90646   -105.6 9.684e+03 2.035e-10
 12.92992   -104.1 9.732e+03 2.099e-10
 12.97007   -102.6 9.907e+03 2.463e-10
 13.01021   -101.1 1.006e+04 2.938e-10
 13.05035    -99.5 1.016e+04 3.300e-10
 13.07151    -97.9 1.018e+04 3.440e-10
 13.09159    -98.3 1.021e+04 3.448e-10
 13.13064    -96.7 1.021e+04 3.478e-10
 13.17078    -95.0 1.018e+04 3.367e-10
 13.21092    -93.4 1.015e+04 3.300e-10
 13.23657    -91.9 1.017e+04 3.359e-10
 13.25664    -92.0 1.021e+04 3.153e-10
 13.29121    -90.8 1.045e+04 3.812e-10
 13.33135    -89.8 1.077e+04 5.114e-10
 13.37150    -88.8 1.105e+04 6.843e-10
 13.40162    -87.9 1.126e+04 8.444e-10
 13.42159    -88.2 1.149e+04 9.724e-10
 13.44155    -87.6 1.158e+04 1.029e-09
 13.46162    -87.3 1.159e+04 1.037e-09
 13.48169    -86.9 1.152e+04 1.023e-09
 13.49399    -86.4 1.142e+04 9.746e-10
 13.50402    -86.8 1.142e+04 9.811e-10
 13.52184    -86.2 1.129e+04 9.127e-10
 13.54191    -85.6 1.116e+04 8.353e-10
 13.56198    -85.0 1.103e+04 7.535e-10
 13.57651    -84.2 1.086e+04 6.552e-10
 13.58655    -84.3 1.073e+04 5.786e-10
 13.60212    -83.3 1.061e+04 4.903e-10
 13.62219    -82.6 1.060e+04 4.634e-10
 13.65240    -81.6 1.063e+04 4.124e-10
 13.69264    -80.1 1.053e+04 3.457e-10
 13.73173    -78.2 1.044e+04 3.032e-10
 13.75180    -78.3 1.030e+04 2.519e-10
 13.77292    -76.3 1.024e+04 2.328e-10
 13.81307    -74.3 1.018e+04 2.208e-10
 13.85321    -72.1 1.016e+04 2.142e-10
 13.89335    -70.0 1.016e+04 2.128e-10
 13.91685    -67.9 1.019e+04 2.142e-10
 13.93692    -67.5 1.009e+04 1.762e-10
 13.97364    -65.4 1.019e+04 1.802e-10
 14.01378    -63.4 1.032e+04 2.032e-10
 14.05393    -61.6 1.045e+04 2.483e-10
 14.08191    -59.7 1.059e+04 3.091e-10
 14.10198    -59.3 1.049e+04 2.451e-10
 14.13421    -57.5 1.065e+04 3.169e-10
 14.17435    -55.6 1.082e+04 3.882e-10
 14.21450    -53.6 1.093e+04 4.296e-10
 14.24696    -51.7 1.097e+04 4.188e-10
 14.26703    -51.3 1.096e+04 4.019e-10
 14.29478    -49.4 1.094e+04 3.727e-10
 14.33493    -47.6 1.091e+04 3.204e-10
 14.37507    -46.0 1.091e+04 2.956e-10
 14.41201    -44.4 1.099e+04 2.995e-10
 14.43208    -44.1 1.098e+04 2.811e-10
 14.45535    -42.6 1.111e+04 3.182e-10
 14.49550    -41.2 1.129e+04 3.699e-10
 14.53564    -40.0 1.152e+04 4.325e-10
 14.57578    -39.2 1.182e+04 4.925e-10
 14.59704    -38.6 1.202e+04 5.220e-10
 14.61711    -38.2 1.202e+04 4.616e-10
 14.64593    -38.8 1.192e+04 6.438e-10
 14.66591    -38.4 1.188e+04 8.244e-10
 14.67947    -37.5 1.208e+04 1.038e-09
 14.68950    -37.5 1.200e+04 9.704e-10
 14.70605    -36.6 1.220e+04 1.095e-09
 14.73626    -36.2 1.234e+04 1.199e-09
 14.76219    -36.1 1.229e+04 1.118e-09
 14.78226    -35.3 1.229e+04 1.155e-09
 14.81664    -35.7 1.217e+04 9.089e-10
 14.85678    -36.4 1.208e+04 8.028e-10
 14.89693    -36.7 1.194e+04 8.282e-10
 14.92724    -36.5 1.193e+04 9.820e-10
 14.94732    -36.2 1.192e+04 9.636e-10
 14.97721    -35.3 1.203e+04 1.134e-09
 15.01735    -34.6 1.209e+04 1.130e-09
 15.05750    -34.0 1.201e+04 9.549e-10
 15.09230    -33.2 1.178e+04 7.964e-10
 15.11237    -33.2 1.246e+04 1.088e-09
 15.13778    -32.2 1.227e+04 9.069e-10
 15.17793    -30.9 1.210e+04 7.379e-10
 15.21807    -29.8 1.206e+04 6.287e-10
 15.25735    -28.9 1.203e+04 5.926e-10
 15.27742    -29.8 1.264e+04 1.044e-09
 15.29835    -29.0 1.271e+04 1.270e-09
 15.33850    -27.9 1.301e+04 1.640e-09
 15.37864    -26.6 1.325e+04 1.984e-09
 15.41878    -25.5 1.324e+04 2.032e-09
 15.44248    -24.2 1.294e+04 1.686e-09
 15.46255    -25.0 1.327e+04 2.114e-09
 15.49907    -23.7 1.273e+04 1.435e-09
 15.53921    -21.9 1.210e+04 8.544e-10
 15.57935    -20.4 1.166e+04 5.429e-10
 15.60753    -19.0 1.151e+04 4.382e-10
 15.62760    -19.7 1.157e+04 4.239e-10
 15.65964    -17.8 1.133e+04 3.976e-10
 15.69978    -15.6 1.119e+04 3.742e-10
 15.73993    -13.5 1.116e+04 3.361e-10
 15.77258    -11.5 1.111e+04 2.847e-10
 15.79265    -12.2 1.125e+04 3.058e-10
 15.82021    -10.6 1.135e+04 2.906e-10
 15.86035     -9.4 1.144e+04 3.136e-10
 15.90050     -8.3 1.157e+04 3.843e-10
 15.93764     -6.9 1.154e+04 4.659e-10
 15.95771     -7.3 1.158e+04 5.608e-10
 15.98078     -6.0 1.144e+04 5.009e-10
 16.02093     -4.8 1.112e+04 3.899e-10
 16.06107     -4.0 1.089e+04 2.971e-10
 16.10121     -3.4 1.065e+04 2.592e-10
 16.12276     -2.6 1.060e+04 2.599e-10
 16.14283     -2.5 1.041e+04 1.989e-10
 16.18150     -1.5 1.039e+04 2.145e-10
 16.22164     -0.4 1.038e+04 2.574e-10
 16.26178      0.8 1.045e+04 3.230e-10
 16.28781      1.9 1.059e+04 3.972e-10
 16.30789      2.0 1.067e+04 3.889e-10
 16.33194      1.8 1.077e+04 4.730e-10
 16.35191      1.7 1.083e+04 5.591e-10
 16.37015      0.8 1.133e+04 8.497e-10
 16.38018      1.0 1.144e+04 8.818e-10
 16.39205      0.5 1.188e+04 1.273e-09
 16.41212     -0.8 1.271e+04 2.109e-09
 16.43220     -0.6 1.291e+04 2.636e-09
 16.45277     -1.5 1.270e+04 2.258e-09
 16.47294     -1.8 1.294e+04 2.639e-09
 16.50264     -2.4 1.192e+04 1.389e-09
 16.54278     -4.5 1.077e+04 5.595e-10
 16.58293     -6.0 9.820e+03 3.001e-10
 16.61792     -5.7 9.404e+03 2.316e-10
 16.63799     -5.6 9.619e+03 2.960e-10
 16.66321     -4.6 9.543e+03 2.547e-10
 16.70336     -3.7 9.590e+03 2.256e-10
 16.74350     -3.5 9.632e+03 2.287e-10
 16.78297     -3.9 9.708e+03 2.588e-10
 16.80305     -4.2 1.086e+04 6.022e-10
 16.82378     -5.6 1.146e+04 8.489e-10
 16.86393     -6.5 1.142e+04 8.596e-10
 16.90407     -8.5 1.066e+04 5.911e-10
 16.94421    -12.3 1.065e+04 5.459e-10
 16.96810    -14.1 1.044e+04 5.545e-10
 16.98817    -14.2 1.035e+04 4.706e-10
 17.02450    -14.8 1.021e+04 4.480e-10
 17.06464    -15.5 1.045e+04 4.730e-10
 17.10478    -16.8 1.083e+04 5.919e-10
 17.13315    -17.7 1.109e+04 8.072e-10
 17.15322    -17.9 1.133e+04 9.216e-10
 17.18507    -18.5 1.159e+04 1.073e-09
 17.22521    -19.0 1.145e+04 9.351e-10
 17.26536    -19.9 1.140e+04 8.170e-10
 17.29821    -21.0 1.161e+04 9.338e-10
 17.31828    -21.6 1.160e+04 9.358e-10
 17.34564    -21.5 1.194e+04 1.149e-09
 17.37565    -20.9 1.236e+04 1.400e-09
 17.39057    -20.7 1.268e+04 1.518e-09
 17.40061    -21.9 1.284e+04 1.333e-09
 17.41570    -23.2 1.424e+04 2.170e-09
 17.43577    -32.0 1.970e+04 6.714e-09
 17.45077    -39.1 2.170e+04 2.078e-08
 17.46076    -40.8 2.140e+04 3.260e-08
 17.47080    -41.1 2.075e+04 4.676e-08
 17.47802    -41.2 2.006e+04 4.722e-08
 17.48304    -41.5 2.005e+04 6.088e-08
 17.49087    -40.1 1.995e+04 4.443e-08
 17.50090    -39.9 2.140e+04 2.254e-08
 17.51094    -44.2 2.411e+04 1.008e-08
 17.51928    -55.1 1.867e+04 2.946e-09
 17.52430    -55.4 1.885e+04 2.985e-09
 17.53608    -63.3 1.347e+04 1.482e-09
 17.55563    -65.2 1.218e+04 8.839e-10
 17.56566    -65.1 1.257e+04 9.749e-10
 17.57627    -66.5 1.176e+04 4.996e-10
 17.59634    -67.7 1.151e+04 3.143e-10
 17.62654    -68.4 1.125e+04 2.226e-10
 17.64838    -68.8 1.085e+04 1.558e-10
 17.66846    -69.6 1.084e+04 1.528e-10
 17.70693    -68.5 1.057e+04 1.282e-10
 17.74707    -67.3 1.054e+04 1.241e-10
 17.78721    -66.3 1.060e+04 1.296e-10
 17.81344    -65.6 1.062e+04 1.648e-10
 17.83351    -65.6 1.063e+04 1.627e-10
 17.86750    -64.7 1.070e+04 2.191e-10
 17.90764    -63.9 1.090e+04 2.874e-10
 17.94778    -63.1 1.114e+04 3.588e-10
 17.97849    -62.8 1.128e+04 4.113e-10
 17.99856    -63.1 1.133e+04 4.055e-10
 18.01794    -63.1 1.137e+04 4.535e-10
 18.03791    -63.3 1.139e+04 4.784e-10
 18.05798    -63.5 1.135e+04 5.176e-10
 18.07086    -63.7 1.136e+04 5.402e-10
 18.08089    -64.2 1.138e+04 5.611e-10
 18.09813    -64.5 1.140e+04 5.891e-10
 18.11820    -64.8 1.146e+04 6.023e-10
 18.13827    -65.2 1.150e+04 6.084e-10
 18.15338    -65.7 1.153e+04 6.094e-10
 18.16342    -66.0 1.157e+04 6.518e-10
 18.17841    -66.3 1.157e+04 6.482e-10
 18.19848    -66.7 1.159e+04 6.630e-10
 18.21855    -66.9 1.164e+04 6.750e-10
 18.23591    -67.1 1.167e+04 7.023e-10
 18.24595    -67.5 1.162e+04 7.192e-10
 18.25870    -67.9 1.162e+04 7.275e-10
 18.27877    -68.3 1.159e+04 7.332e-10
 18.29884    -68.7 1.139e+04 7.100e-10
 18.31844    -69.0 1.132e+04 6.689e-10
 18.32847    -69.3 1.123e+04 6.301e-10
 18.33898    -69.5 1.110e+04 5.820e-10
 18.35905    -69.7 1.098e+04 5.393e-10
 18.37913    -69.8 1.084e+04 5.032e-10
 18.39920    -69.9 1.072e+04 4.774e-10
 18.41100    -69.7 1.062e+04 4.639e-10
 18.42104    -69.7 1.064e+04 4.546e-10
 18.43934    -69.4 1.061e+04 4.550e-10
 18.46954    -68.9 1.061e+04 4.736e-10
 18.49372    -68.4 1.057e+04 5.071e-10
 18.51379    -68.6 1.062e+04 5.027e-10
 18.54993    -67.8 1.067e+04 5.282e-10
 18.59007    -67.0 1.066e+04 5.025e-10
 18.63021    -66.6 1.062e+04 4.587e-10
 18.65878    -66.4 1.060e+04 4.495e-10
 18.67885    -67.2 1.068e+04 4.781e-10
 18.71050    -66.8 1.074e+04 5.084e-10
 18.75064    -66.2 1.079e+04 5.143e-10
 18.79079    -65.8 1.081e+04 4.964e-10
 18.82383    -65.6 1.083e+04 4.850e-10
 18.84390    -66.1 1.074e+04 4.100e-10
 18.87107    -66.4 1.085e+04 4.134e-10
 18.91121    -66.6 1.106e+04 5.384e-10
 18.94122    -67.2 1.113e+04 7.050e-10
 18.96120    -66.7 1.109e+04 7.808e-10
 18.98127    -66.1 1.105e+04 8.056e-10
 18.99872    -65.4 1.084e+04 7.221e-10
 19.00876    -65.5 1.083e+04 7.193e-10
 19.02141    -64.7 1.062e+04 5.739e-10
 19.04148    -64.4 1.049e+04 4.336e-10
 19.07169    -64.0 1.037e+04 3.672e-10
 19.11193    -62.9 9.903e+03 2.271e-10
 19.15207    -61.7 9.521e+03 1.502e-10
 19.17401    -60.2 9.429e+03 1.325e-10
 19.19408    -60.4 9.461e+03 1.298e-10
 19.23236    -58.6 9.443e+03 1.273e-10
 19.27250    -57.0 9.518e+03 1.400e-10
 19.31264    -55.4 9.602e+03 1.748e-10
 19.33906    -53.5 9.709e+03 2.143e-10
 19.35913    -53.7 9.755e+03 2.145e-10
 19.39293    -51.7 9.856e+03 2.318e-10
 19.43307    -50.0 9.920e+03 2.220e-10
 19.47321    -48.5 9.956e+03 1.970e-10
 19.50411    -47.3 9.976e+03 1.872e-10
 19.52419    -47.8 1.012e+04 1.895e-10
 19.55350    -46.8 1.019e+04 2.292e-10
 19.59364    -45.6 1.039e+04 3.221e-10
 19.63379    -44.0 1.064e+04 4.524e-10
 19.66917    -42.3 1.090e+04 5.673e-10
 19.68924    -42.6 1.097e+04 5.900e-10
 19.71407    -41.1 1.123e+04 6.506e-10
 19.75421    -40.1 1.149e+04 6.677e-10
 19.79436    -39.5 1.171e+04 6.936e-10
 19.83422    -38.9 1.184e+04 7.809e-10
 19.85429    -39.0 1.191e+04 8.349e-10
 19.87464    -38.3 1.204e+04 9.188e-10
 19.91479    -37.4 1.225e+04 9.636e-10
 19.95493    -37.2 1.247e+04 9.507e-10
 19.99507    -37.3 1.248e+04 9.509e-10
 20.01935    -37.1 1.234e+04 9.919e-10
 20.03942    -37.6 1.200e+04 8.798e-10
 20.07536    -36.0 1.162e+04 6.550e-10
 20.11550    -34.5 1.136e+04 3.524e-10
 20.15564    -34.0 1.133e+04 1.844e-10
 20.18440    -33.9 1.105e+04 1.367e-10
 20.20447    -34.0 1.075e+04 1.158e-10
 20.23593    -32.9 1.059e+04 1.079e-10
 20.27607    -31.3 1.031e+04 1.209e-10
 20.31622    -29.4 1.031e+04 1.295e-10
 20.34945    -27.5 1.032e+04 1.301e-10
 20.36952    -27.8 1.027e+04 1.181e-10
 20.39650    -26.0 1.020e+04 1.216e-10
 20.43664    -23.9 1.011e+04 1.112e-10
 20.47679    -21.7 1.009e+04 8.929e-11
 20.51451    -20.0 1.016e+04 6.795e-11
 20.53458    -19.9 1.012e+04 7.072e-11
 20.55707    -18.6 1.009e+04 6.041e-11
 20.59722    -16.9 9.978e+03 6.022e-11
 20.63736    -15.0 9.930e+03 6.323e-11
 20.67750    -13.0 9.925e+03 6.667e-11
 20.69963    -11.1 9.963e+03 7.051e-11
 20.71970    -11.4 9.972e+03 7.125e-11
 20.75779     -9.9 1.001e+04 8.007e-11
 20.79793     -8.4 1.001e+04 9.706e-11
 20.83807     -6.7 1.001e+04 1.190e-10
 20.86468     -4.8 1.005e+04 1.270e-10
 20.88476     -4.9 9.984e+03 1.185e-10
 20.91836     -2.8 9.908e+03 1.033e-10
 20.95850     -0.9 9.892e+03 7.819e-11
 20.99864      0.4 9.944e+03 5.695e-11
 21.02974      1.5 9.881e+03 4.784e-11
 21.04981      1.3 9.807e+03 4.280e-11
 21.07893      2.7 9.756e+03 4.386e-11
 21.11907      4.3 9.718e+03 4.786e-11
 21.15922      5.9 9.708e+03 5.433e-11
 21.19479      7.5 9.727e+03 6.140e-11
 21.21486      7.7 9.700e+03 5.934e-11
 21.23950      9.3 9.745e+03 6.605e-11
 21.27964     10.7 9.803e+03 7.272e-11
 21.31979     12.0 9.872e+03 7.975e-11
 21.35984     13.1 9.951e+03 8.769e-11
 21.39999     14.5 1.002e+04 9.507e-11
 21.44022     15.3 1.014e+04 1.142e-10
 21.48036     16.0 1.034e+04 1.514e-10
 21.52050     16.2 1.064e+04 2.125e-10
 21.54497     16.1 1.109e+04 3.184e-10
 21.56504     16.7 1.100e+04 3.063e-10
 21.60079     16.1 1.151e+04 4.490e-10
 21.62740     14.6 1.182e+04 5.940e-10
 21.63734     15.1 1.178e+04 5.680e-10
 21.65077     14.8 1.181e+04 7.506e-10
 21.68098     14.4 1.221e+04 1.012e-09
 21.71002     13.3 1.248e+04 9.493e-10
 21.73009     14.0 1.254e+04 9.075e-10
 21.74802      9.9 1.315e+04 9.872e-10
 21.75796     10.0 1.292e+04 8.430e-10
 21.77120      8.1 1.304e+04 8.970e-10
 21.79127      5.3 1.335e+04 1.181e-09
 21.80239      3.3 1.309e+04 1.644e-09
 21.81243      3.5 1.300e+04 1.723e-09
 21.83141      2.9 1.284e+04 1.702e-09
 21.85149      3.0 1.248e+04 1.457e-09
 21.87156      2.7 1.237e+04 1.034e-09
 21.88492      1.6 1.232e+04 6.591e-10
 21.89495      1.0 1.231e+04 5.873e-10
 21.92183     -1.5 1.179e+04 4.485e-10
 21.96207     -1.6 1.138e+04 3.227e-10
 22.00222     -1.2 1.118e+04 2.220e-10
 22.04013     -0.8 1.105e+04 1.583e-10
 22.06020     -0.8 1.107e+04 1.494e-10
 22.08250     -0.4 1.105e+04 1.475e-10
 22.12264      0.0 1.114e+04 1.650e-10
 22.16279      0.5 1.124e+04 2.269e-10
 22.20293      1.1 1.133e+04 3.255e-10
 22.22525      1.5 1.148e+04 4.364e-10
 22.24533      1.8 1.146e+04 4.496e-10
 22.28322      1.8 1.164e+04 5.495e-10
 22.32336      1.3 1.197e+04 6.585e-10
 22.35337      0.5 1.211e+04 7.716e-10
 22.37334      0.3 1.222e+04 8.482e-10
 22.39011     -1.9 1.321e+04 1.086e-09
 22.40015     -3.9 1.396e+04 1.366e-09
 22.41349     -9.3 1.577e+04 3.373e-09
 22.43356    -11.6 1.557e+04 6.293e-09
 22.45363    -10.7 1.498e+04 6.101e-09
 22.47264    -11.3 1.518e+04 4.894e-09
 22.48268    -11.2 1.531e+04 3.898e-09
 22.49377    -14.9 1.542e+04 2.214e-09
 22.51384    -19.6 1.378e+04 1.545e-09
 22.53391    -21.5 1.256e+04 1.332e-09
 22.55399    -21.5 1.222e+04 1.212e-09
 22.56520    -21.1 1.193e+04 1.037e-09
 22.57524    -20.7 1.176e+04 8.782e-10
 22.60426    -21.0 1.158e+04 5.264e-10
 22.64450    -20.5 1.114e+04 3.238e-10
 22.68465    -20.5 1.100e+04 1.829e-10
 22.72041    -20.5 1.088e+04 1.610e-10
 22.74049    -19.9 1.091e+04 1.522e-10
 22.76493    -20.6 1.102e+04 2.004e-10
 22.80507    -19.5 1.069e+04 3.571e-10
 22.84522    -17.7 1.058e+04 3.997e-10
 22.88536    -15.4 1.042e+04 3.295e-10
 22.92550    -13.5 1.045e+04 2.081e-10
 22.96565    -12.7 1.038e+04 1.698e-10
 23.00579    -11.5 1.037e+04 1.660e-10
 23.04593     -9.9 1.038e+04 1.612e-10
 23.07059     -8.0 1.036e+04 1.436e-10
 23.09066     -7.2 1.036e+04 1.276e-10
 23.12622     -5.5 1.031e+04 1.081e-10
 23.16636     -3.9 1.018e+04 8.978e-11
 23.20650     -2.2 1.000e+04 7.571e-11
 23.23565     -0.2 9.866e+03 6.375e-11
 23.25572      0.8 9.849e+03 5.951e-11
 23.28679      2.8 9.826e+03 4.928e-11
 23.32693      4.6 9.861e+03 4.213e-11
 23.36707      6.3 9.844e+03 3.993e-11
 23.40070      8.1 9.838e+03 3.996e-11
 23.42077      9.1 9.838e+03 4.172e-11
 23.44736     10.9 9.856e+03 4.514e-11
 23.48750     12.7 9.871e+03 4.995e-11
 23.52765     14.5 9.891e+03 5.650e-11
 23.56575     16.2 9.896e+03 6.692e-11
 23.58582     17.2 9.882e+03 7.670e-11
 23.60793     18.9 9.875e+03 9.280e-11
 23.64807     20.6 9.860e+03 1.150e-10
 23.68822     22.5 9.876e+03 1.377e-10
 23.72836     24.3 9.940e+03 1.488e-10
 23.75088     26.0 9.979e+03 1.475e-10
 23.77095     27.0 9.947e+03 1.416e-10
 23.80865     28.7 9.944e+03 1.309e-10
 23.84879     30.4 9.909e+03 1.145e-10
 23.88893     32.1 9.850e+03 9.707e-11
 23.91593     33.7 9.755e+03 8.373e-11
 23.93600     34.8 9.785e+03 6.977e-11
 23.96922     36.6 9.678e+03 6.709e-11
 24.00936     38.5 9.683e+03 6.786e-11
 24.04950     40.3 9.727e+03 7.366e-11
 24.08098     41.9 9.798e+03 9.398e-11
 24.10106     43.0 9.789e+03 8.536e-11
 24.12979     44.7 9.892e+03 1.264e-10
 24.16993     46.3 1.011e+04 2.043e-10
 24.21008     47.6 1.045e+04 3.354e-10
 24.24604     48.7 1.085e+04 5.275e-10
 24.26611     49.8 1.085e+04 5.246e-10
 24.29036     50.5 1.126e+04 7.904e-10
 24.33050     50.9 1.155e+04 9.734e-10
 24.37065     51.1 1.156e+04 9.680e-10
 24.41079     51.5 1.137e+04 8.560e-10
 24.43116     52.5 1.094e+04 5.963e-10
 24.45123     53.4 1.112e+04 6.778e-10
 24.49108     54.7 1.058e+04 3.813e-10
 24.53122     56.4 1.013e+04 1.960e-10
 24.57136     58.1 9.919e+03 1.069e-10
 24.59622     59.8 9.927e+03 6.794e-11
 24.61629     60.7 1.003e+04 6.148e-11
 24.65165     62.5 9.810e+03 5.219e-11
 24.69179     64.6 9.724e+03 5.134e-11
 24.73193     66.9 9.709e+03 5.133e-11
 24.76127     69.3 9.710e+03 5.154e-11
 24.78134     70.3 9.749e+03 4.826e-11
 24.81222     72.5 9.756e+03 4.944e-11
 24.85236     74.7 9.776e+03 5.250e-11
 24.89250     76.7 9.798e+03 5.803e-11
 24.92632     78.7 9.797e+03 6.653e-11
 24.94639     79.6 9.836e+03 6.770e-11
 24.97279     81.6 9.869e+03 8.158e-11
 25.01293     83.5 9.938e+03 9.729e-11
 25.05308     85.4 1.007e+04 1.075e-10
 25.09138     87.0 1.012e+04 1.080e-10
 25.11145     87.9 1.016e+04 1.213e-10
 25.13336     89.5 1.017e+04 1.182e-10
 25.17350     91.1 1.018e+04 1.056e-10
 25.21365     92.8 1.018e+04 8.673e-11
 25.25379     94.6 1.018e+04 6.826e-11
 25.27650     96.2 1.019e+04 5.427e-11
 25.29657     97.1 1.026e+04 5.685e-11
 25.33408     98.7 1.020e+04 4.937e-11
 25.37422    100.6 1.016e+04 4.889e-11
 25.41436    102.6 1.016e+04 4.914e-11
 25.44156    104.8 1.019e+04 4.998e-11
 25.46163    105.5 1.024e+04 5.314e-11
 25.49465    107.6 1.029e+04 5.704e-11
 25.53479    109.6 1.033e+04 6.469e-11
 25.57493    111.7 1.039e+04 7.648e-11
 25.60661    113.7 1.047e+04 9.291e-11
 25.62668    114.3 1.051e+04 1.071e-10
 25.65522    116.3 1.063e+04 1.349e-10
 25.69536    118.2 1.075e+04 1.773e-10
 25.73550    120.0 1.090e+04 2.522e-10
 25.77166    121.7 1.112e+04 3.965e-10
 25.79173    122.2 1.110e+04 4.201e-10
 25.81579    123.8 1.152e+04 6.782e-10
 25.85593    125.2 1.210e+04 1.101e-09
 25.89608    126.2 1.263e+04 1.566e-09
 25.93622    126.6 1.287e+04 1.721e-09
 25.95679    126.7 1.286e+04 1.708e-09
 25.97686    127.1 1.226e+04 1.095e-09
 26.01650    127.2 1.212e+04 9.497e-10
 26.05665    127.2 1.194e+04 7.902e-10
 26.09679    127.3 1.177e+04 6.730e-10
 26.12184    127.5 1.167e+04 6.002e-10
 26.14191    128.3 1.138e+04 4.884e-10
 26.17708    128.9 1.138e+04 4.823e-10
 26.21722    129.7 1.136e+04 4.548e-10
 26.25736    130.6 1.126e+04 3.913e-10
 26.28689    131.8 1.108e+04 3.140e-10
 26.30696    132.9 1.107e+04 3.103e-10
 26.33765    134.2 1.086e+04 2.553e-10
 26.37779    135.7 1.078e+04 2.501e-10
 26.41793    137.3 1.079e+04 2.605e-10
 26.45195    138.8 1.086e+04 3.140e-10
 26.47202    139.5 1.088e+04 3.173e-10
 26.49822    141.0 1.106e+04 4.405e-10
 26.53836    142.5 1.133e+04 6.318e-10
 26.57851    144.0 1.163e+04 8.430e-10
 26.61700    145.2 1.184e+04 9.484e-10
 26.63707    145.9 1.169e+04 8.007e-10
 26.65879    147.0 1.169e+04 7.872e-10
 26.69893    148.1 1.166e+04 7.128e-10
 26.73908    149.3 1.157e+04 5.913e-10
 26.77922    150.5 1.144e+04 4.720e-10
 26.80213    151.7 1.129e+04 3.777e-10
 26.82220    152.5 1.135e+04 3.570e-10
 26.85951    153.8 1.125e+04 3.346e-10
 26.89965    155.2 1.115e+04 3.179e-10
 26.93979    156.6 1.103e+04 3.030e-10
 26.96718    158.3 1.092e+04 2.829e-10
 26.98725    159.0 1.098e+04 2.894e-10
 27.02008    160.7 1.090e+04 2.619e-10
 27.06022    162.4 1.086e+04 2.313e-10
 27.10036    164.1 1.087e+04 2.017e-10
 27.13223    165.6 1.091e+04 1.781e-10
 27.15230    166.2 1.100e+04 1.614e-10
 27.18065    167.7 1.101e+04 1.619e-10
 27.22079    169.2 1.106e+04 1.658e-10
 27.26093    170.5 1.117e+04 1.794e-10
 27.29729    171.7 1.123e+04 2.067e-10
 27.31736    171.9 1.126e+04 2.433e-10
 27.34122    172.9 1.125e+04 2.943e-10
 27.38136    173.9 1.123e+04 3.500e-10
 27.42151    174.9 1.124e+04 4.051e-10
 27.46165    175.9 1.128e+04 4.574e-10
 27.48241    176.9 1.135e+04 5.266e-10
 27.50248    176.9 1.130e+04 4.936e-10
 27.54193    177.8 1.134e+04 5.333e-10
 27.58208    178.6 1.141e+04 5.759e-10
 27.62222    179.4 1.151e+04 6.202e-10
 27.64746    180.0 1.170e+04 6.221e-10
 27.66754    180.1 1.139e+04 3.748e-10
 27.70251    180.3 1.140e+04 3.489e-10
 27.74265    180.4 1.137e+04 3.189e-10
 27.78279    180.4 1.132e+04 2.904e-10
 27.81252    180.4 1.125e+04 2.793e-10
 27.83259    181.0 1.105e+04 2.060e-10
 27.86308    181.4 1.101e+04 2.166e-10
 27.90322    182.0 1.103e+04 2.466e-10
 27.94336    182.6 1.114e+04 3.000e-10
 27.97757    183.0 1.129e+04 3.778e-10
 27.99764    183.9 1.122e+04 3.652e-10
 28.02365    184.1 1.139e+04 4.689e-10
 28.06379    184.2 1.156e+04 5.606e-10
 28.10393    183.8 1.172e+04 5.810e-10
 28.14262    182.9 1.173e+04 5.726e-10
 28.16270    183.8 1.178e+04 5.741e-10
 28.18422    182.5 1.173e+04 5.216e-10
 28.22436    181.2 1.165e+04 4.374e-10
 28.26451    179.8 1.162e+04 3.870e-10
 28.30465    178.7 1.163e+04 3.834e-10
 28.32775    177.6 1.171e+04 4.005e-10
 28.34782    178.8 1.185e+04 4.435e-10
 28.38494    177.7 1.194e+04 4.962e-10
 28.41018    176.9 1.195e+04 5.477e-10
 28.42012    177.0 1.192e+04 5.968e-10
 28.43492    176.7 1.197e+04 7.026e-10
 28.45499    176.4 1.207e+04 7.928e-10
 28.47506    176.1 1.220e+04 8.687e-10
 28.49261    175.9 1.235e+04 9.427e-10
 28.50264    176.1 1.235e+04 9.449e-10
 28.51520    175.8 1.242e+04 9.846e-10
 28.53528    175.4 1.253e+04 1.046e-09
 28.55535    174.9 1.269e+04 1.140e-09
 28.57513    174.3 1.289e+04 1.270e-09
 28.58517    174.6 1.273e+04 1.141e-09
 28.59549    174.0 1.295e+04 1.294e-09
 28.61556    173.4 1.320e+04 1.476e-09
 28.63563    172.7 1.344e+04 1.624e-09
 28.65570    172.0 1.359e+04 1.643e-09
 28.66770    171.2 1.360e+04 1.610e-09
 28.67773    171.6 1.359e+04 1.768e-09
 28.69585    170.8 1.360e+04 1.728e-09
 28.71592    170.0 1.360e+04 1.617e-09
 28.73599    168.9 1.355e+04 1.493e-09
 28.75022    167.8 1.347e+04 1.439e-09
 28.76026    168.4 1.367e+04 1.847e-09
 28.77613    167.3 1.367e+04 1.836e-09
 28.79620    166.3 1.367e+04 1.849e-09
 28.81628    165.4 1.369e+04 1.880e-09
 28.83275    164.6 1.368e+04 1.868e-09
 28.84278    165.1 1.379e+04 2.055e-09
 28.85642    164.4 1.368e+04 1.907e-09
 28.87649    163.9 1.350e+04 1.673e-09
 28.89656    163.4 1.326e+04 1.388e-09
 28.91528    162.9 1.299e+04 1.126e-09
 28.92531    163.2 1.291e+04 1.060e-09
 28.93670    162.7 1.262e+04 8.952e-10
 28.95678    162.3 1.250e+04 8.670e-10
 28.97685    162.2 1.250e+04 8.677e-10
 28.99692    162.0 1.258e+04 9.088e-10
 29.00784    161.7 1.279e+04 1.048e-09
 29.01787    162.3 1.278e+04 8.567e-10
 29.03706    162.0 1.309e+04 9.919e-10
 29.05713    161.7 1.338e+04 1.168e-09
 29.07720    161.4 1.350e+04 1.304e-09
 29.09037    161.0 1.348e+04 1.312e-09
 29.10040    161.5 1.344e+04 1.065e-09
 29.11735    161.1 1.339e+04 1.064e-09
 29.13742    160.8 1.323e+04 1.040e-09
 29.15749    160.5 1.301e+04 9.554e-10
 29.17289    160.0 1.286e+04 8.375e-10
 29.18293    160.8 1.294e+04 9.385e-10
 29.19763    160.2 1.295e+04 9.172e-10
 29.21770    159.4 1.300e+04 9.161e-10
 29.23778    158.1 1.320e+04 9.472e-10
 29.25542    156.4 1.344e+04 1.062e-09
 29.26545    157.6 1.346e+04 1.343e-09
 29.27792    155.6 1.356e+04 1.562e-09
 29.29799    153.5 1.363e+04 1.846e-09
 29.31806    151.8 1.368e+04 2.102e-09
 29.33795    150.1 1.371e+04 2.140e-09
 29.34798    151.5 1.377e+04 2.518e-09
 29.35820    149.7 1.376e+04 2.477e-09
 29.37828    148.2 1.363e+04 2.302e-09
 29.39835    146.9 1.328e+04 1.912e-09
 29.41842    146.1 1.288e+04 1.484e-09
 29.43051    145.4 1.240e+04 1.086e-09
 29.44054    146.3 1.290e+04 1.368e-09
 29.46870    145.3 1.196e+04 6.921e-10
 29.50319    144.6 1.080e+04 2.880e-10
 29.52327    145.6 1.082e+04 2.947e-10
 29.54908    145.0 1.005e+04 1.986e-10
 29.58922    145.4 9.951e+03 1.946e-10
 29.62936    146.5 9.940e+03 1.979e-10
 29.66825    147.6 1.000e+04 2.302e-10
 29.68832    148.6 9.990e+03 2.638e-10
 29.70965    149.1 1.015e+04 3.235e-10
 29.74979    149.3 1.029e+04 3.776e-10
 29.78994    149.3 1.034e+04 3.909e-10
 29.83008    149.1 1.031e+04 3.864e-10
 29.85337    148.6 1.023e+04 3.818e-10
 29.87344    149.8 1.005e+04 3.291e-10
 29.91036    149.6 9.904e+03 3.038e-10
 29.95051    149.3 9.908e+03 3.078e-10
 29.99065    149.0 9.984e+03 3.451e-10
 30.01833    148.8 1.002e+04 3.648e-10
 30.03840    150.2 9.690e+03 2.569e-10
 30.07094    150.4 9.763e+03 2.979e-10
 30.11108    150.6 9.888e+03 3.548e-10
 30.15122    150.9 9.942e+03 3.703e-10
 30.18348    151.3 9.910e+03 3.583e-10
 30.20355    152.8 9.639e+03 3.308e-10
 30.23151    153.5 9.726e+03 3.289e-10
 30.27165    154.2 9.778e+03 3.274e-10
 30.31179    154.7 9.871e+03 3.324e-10
 30.34853    155.0 9.948e+03 3.535e-10
 30.36860    156.7 9.960e+03 3.750e-10
 30.38195    156.4 1.000e+04 3.861e-10
 30.40192    156.5 1.014e+04 4.263e-10
 30.42199    156.7 1.029e+04 4.978e-10
 30.44090    156.9 1.045e+04 5.858e-10
 30.45094    157.6 1.046e+04 5.729e-10
 30.46213    157.7 1.064e+04 6.822e-10
 30.48221    157.9 1.086e+04 8.220e-10
 30.50228    158.0 1.111e+04 9.876e-10
 30.52235    158.1 1.138e+04 1.176e-09
 30.53346    158.2 1.165e+04 1.384e-09
 30.54350    158.6 1.161e+04 1.344e-09
 30.56249    158.7 1.191e+04 1.578e-09
 30.58256    158.8 1.225e+04 1.851e-09
 30.60263    158.8 1.260e+04 2.179e-09
 30.61599    158.7 1.293e+04 2.559e-09
 30.62602    159.4 1.270e+04 2.280e-09
 30.64278    159.5 1.304e+04 2.687e-09
 30.66285    159.5 1.335e+04 3.169e-09
 30.68292    159.7 1.360e+04 3.636e-09
 30.69852    159.8 1.367e+04 3.769e-09
 30.70855    160.3 1.334e+04 3.078e-09
 30.72306    160.3 1.331e+04 3.203e-09
 30.74313    160.3 1.327e+04 3.146e-09
 30.76321    160.4 1.310e+04 2.934e-09
 30.78104    160.6 1.282e+04 2.584e-09
 30.79108    160.9 1.250e+04 2.209e-09
 30.80335    161.1 1.232e+04 2.090e-09
 30.82342    161.2 1.216e+04 1.928e-09
 30.84349    161.5 1.204e+04 1.827e-09
 30.86356    161.8 1.201e+04 1.770e-09
 30.88363    162.5 1.200e+04 1.801e-09
 30.90371    162.9 1.211e+04 1.904e-09
 30.92378    163.3 1.216e+04 1.896e-09
 30.94385    163.7 1.220e+04 1.827e-09
 30.95613    163.9 1.227e+04 1.702e-09
 30.96617    164.4 1.257e+04 2.323e-09
 30.98399    164.5 1.278e+04 2.383e-09
 31.00406    164.6 1.302e+04 2.421e-09
 31.02413    164.5 1.330e+04 2.472e-09
 31.03866    164.2 1.358e+04 2.521e-09
 31.04869    164.6 1.418e+04 4.077e-09
 31.06428    164.3 1.459e+04 4.560e-09
 31.08435    163.8 1.497e+04 4.992e-09
 31.10442    163.2 1.544e+04 4.957e-09
 31.12118    162.4 1.549e+04 4.891e-09
 31.13122    163.0 1.656e+04 8.712e-09
 31.14456    162.2 1.669e+04 8.598e-09
 31.16463    161.3 1.677e+04 8.138e-09
 31.18471    160.2 1.663e+04 6.793e-09
 31.20371    159.0 1.595e+04 4.819e-09
 31.21375    159.9 1.710e+04 8.215e-09
 31.22485    159.4 1.602e+04 4.747e-09
 31.24492    158.7 1.445e+04 2.323e-09
 31.26499    157.3 1.252e+04 1.114e-09
 31.28506    155.7 1.141e+04 6.992e-10
 31.29627    155.4 1.137e+04 6.464e-10
 31.30631    155.4 1.131e+04 6.410e-10
 31.32521    155.5 1.127e+04 6.351e-10
 31.34528    155.8 1.128e+04 6.361e-10
 31.36535    156.1 1.135e+04 6.424e-10
 31.37880    156.3 1.144e+04 6.561e-10
 31.38884    156.4 1.142e+04 6.959e-10
 31.40549    156.5 1.154e+04 7.330e-10
 31.42556    156.5 1.164e+04 7.641e-10
 31.44563    156.5 1.174e+04 7.974e-10
 31.46133    156.2 1.189e+04 8.541e-10
 31.47136    155.5 1.239e+04 1.154e-09
 31.48578    154.6 1.277e+04 1.412e-09
 31.50585    153.7 1.315e+04 1.797e-09
 31.52592    153.0 1.348e+04 2.285e-09
 31.54385    152.6 1.373e+04 2.806e-09
 31.55389    152.1 1.440e+04 4.039e-09
 31.56606    151.8 1.445e+04 4.147e-09
 31.58613    151.5 1.441e+04 4.045e-09
 31.60621    151.0 1.428e+04 3.682e-09
 31.62628    150.3 1.412e+04 3.218e-09
 31.63642    149.4 1.398e+04 2.806e-09
 31.64645    147.9 1.441e+04 3.373e-09
 31.66642    147.0 1.434e+04 3.266e-09
 31.68649    146.2 1.426e+04 3.211e-09
 31.70656    145.7 1.418e+04 3.167e-09
 31.71894    145.5 1.409e+04 3.115e-09
 31.72898    145.5 1.454e+04 4.225e-09
 31.74671    145.5 1.441e+04 3.996e-09
 31.76678    145.5 1.426e+04 3.778e-09
 31.78685    145.5 1.426e+04 3.637e-09
 31.80147    145.4 1.437e+04 3.570e-09
 31.81151    145.7 1.440e+04 4.021e-09
 31.82699    145.5 1.462e+04 4.025e-09
 31.84706    145.1 1.472e+04 3.980e-09
 31.86714    144.6 1.480e+04 3.810e-09
 31.88400    143.7 1.472e+04 3.435e-09
 31.89403    144.3 1.541e+04 4.740e-09
 31.90728    143.3 1.534e+04 4.300e-09
 31.92735    141.9 1.492e+04 3.612e-09
 31.94742    140.3 1.411e+04 2.818e-09
 31.96652    138.6 1.303e+04 2.076e-09
 31.97656    139.7 1.448e+04 3.226e-09
 31.98756    138.3 1.308e+04 2.085e-09
 32.00764    137.5 1.179e+04 1.367e-09
 32.03784    137.2 1.044e+04 6.994e-10
 32.05928    137.0 8.966e+03 3.142e-10
 32.07935    136.7 7.549e+03 2.803e-10
 32.10733    136.5 7.699e+03 1.017e-10
 32.12740    136.9 7.432e+03 1.572e-10
 32.15837    137.4 7.562e+03 1.040e-10
 32.19851    138.7 7.565e+03 8.834e-11
 32.22433    140.2 7.487e+03 8.083e-11
 32.24441    140.5 7.501e+03 8.153e-11
 32.27879    142.0 7.375e+03 7.081e-11
 32.31894    143.4 7.216e+03 6.557e-11
 32.35908    144.9 7.091e+03 6.524e-11
 32.38939    146.5 7.079e+03 6.538e-11
 32.40946    146.6 7.015e+03 6.291e-11
 32.43937    148.2 6.994e+03 6.460e-11
 32.47951    149.8 6.996e+03 6.895e-11
 32.51965    151.5 7.038e+03 7.439e-11
 32.55444    153.2 7.094e+03 7.970e-11
 32.57451    153.3 7.100e+03 8.630e-11
 32.59994    154.8 7.203e+03 9.196e-11
 32.64008    156.2 7.253e+03 9.213e-11
 32.68022    157.4 7.265e+03 9.068e-11
 32.71949    158.6 7.267e+03 8.504e-11
 32.73957    158.6 7.340e+03 1.040e-10
 32.76051    159.8 7.304e+03 9.636e-11
 32.80065    161.1 7.286e+03 9.188e-11
 32.84080    162.4 7.295e+03 9.216e-11
 32.88094    163.6 7.345e+03 9.629e-11
 32.90462    164.5 7.543e+03 1.173e-10
 32.92469    164.7 7.758e+03 1.537e-10
 32.96122    165.5 8.212e+03 2.125e-10
 33.00137    166.1 8.759e+03 3.117e-10
 33.04151    166.1 9.169e+03 4.202e-10
 33.06957    165.9 9.350e+03 4.821e-10
 33.07951    165.8 9.318e+03 4.689e-10
 33.09149    165.7 9.522e+03 5.319e-10
 33.11156    165.5 9.776e+03 6.097e-10
 33.13164    165.1 1.002e+04 6.577e-10
 33.15171    164.6 1.011e+04 6.595e-10
 33.16204    163.9 1.012e+04 6.523e-10
 33.17208    163.7 1.016e+04 6.610e-10
 33.19185    162.9 1.016e+04 6.422e-10
 33.21192    162.0 1.012e+04 6.028e-10
 33.23199    161.0 1.007e+04 5.532e-10
 33.24457    159.8 9.996e+03 5.046e-10
 33.25460    159.3 1.014e+04 5.607e-10
 33.27214    157.9 1.008e+04 5.455e-10
 33.29221    156.6 1.007e+04 5.473e-10
 33.31228    155.2 1.010e+04 5.644e-10
 33.32709    153.8 1.022e+04 6.189e-10
 33.33713    152.6 1.053e+04 7.421e-10
 33.35242    151.2 1.069e+04 8.320e-10
 33.37249    149.6 1.091e+04 9.287e-10
 33.39256    147.7 1.112e+04 1.006e-09
 33.40962    146.0 1.130e+04 1.075e-09
 33.41966    144.1 1.144e+04 1.099e-09
 33.43271    138.9 1.304e+04 1.570e-09
 33.45278    125.0 1.855e+04 5.240e-09
 33.47285    110.2 2.258e+04 1.539e-08
 33.49215     98.2 2.330e+04 1.634e-08
 33.50218     92.7 2.305e+04 1.394e-08
 33.51299     81.4 2.350e+04 5.721e-09
 33.53306     64.8 2.292e+04 7.880e-10
 33.55314     50.3 1.424e+04 3.839e-10
 33.57321     31.6 8.561e+03 6.941e-11
 33.58481     33.8 9.289e+03 2.098e-10
 33.60498     34.8 8.858e+03 1.449e-10
 33.64365     30.8 9.008e+03 1.559e-10
 33.68380     27.5 8.975e+03 1.867e-10
 33.72394     25.7 8.894e+03 2.111e-10
 33.74996     24.6 9.029e+03 2.259e-10
 33.77003     26.8 8.933e+03 2.000e-10
 33.80422     24.2 9.508e+03 2.705e-10
 33.84437     20.4 1.074e+04 5.960e-10
 33.88451     16.7 1.245e+04 1.250e-09
 33.91501     14.2 1.271e+04 1.960e-09
 33.93508     16.2 1.263e+04 1.673e-09
 33.96480     15.1 1.191e+04 1.433e-09
 34.00494     15.4 1.099e+04 7.602e-10
 34.04508     14.4 1.032e+04 3.663e-10
 34.08006     14.0 9.535e+03 2.332e-10
 34.10014     14.6 9.545e+03 2.476e-10
 34.12537     15.5 9.037e+03 1.874e-10
 34.16551     17.0 8.975e+03 1.330e-10
 34.20565     18.0 9.038e+03 1.020e-10
 34.24512     18.7 8.970e+03 8.593e-11
 34.26519     20.4 8.891e+03 8.803e-11
 34.28594     21.0 8.777e+03 6.826e-11
 34.32608     22.0 8.463e+03 7.220e-11
 34.36623     23.6 8.344e+03 7.132e-11
 34.40637     25.4 8.325e+03 6.413e-11
 34.43024     27.0 8.501e+03 5.256e-11
 34.45031     27.7 8.496e+03 5.288e-11
 34.48665     29.2 8.573e+03 4.674e-11
 34.52680     30.7 8.573e+03 4.633e-11
 34.56694     32.1 8.599e+03 4.885e-11
 34.59530     33.4 8.697e+03 5.923e-11
 34.61537     34.6 8.656e+03 5.627e-11
 34.64723     36.1 8.777e+03 7.561e-11
 34.68737     37.6 8.944e+03 1.165e-10
 34.72751     39.1 9.221e+03 1.952e-10
 34.76035     40.5 9.655e+03 3.316e-10
 34.78042     41.7 9.633e+03 3.163e-10
 34.80780     43.2 1.027e+04 5.701e-10
 34.84794     44.5 1.096e+04 8.947e-10
 34.88808     45.4 1.151e+04 1.164e-09
 34.92540     45.7 1.156e+04 1.159e-09
 34.94547     47.3 1.164e+04 1.186e-09
 34.96837     47.8 1.154e+04 1.099e-09
 35.00851     48.5 1.123e+04 8.557e-10
 35.04865     49.1 1.084e+04 5.711e-10
 35.08880     49.4 1.050e+04 3.727e-10
 35.11053     49.9 1.013e+04 2.768e-10
 35.13060     51.6 1.042e+04 3.147e-10
 35.16908     52.3 1.005e+04 2.868e-10
 35.20923     53.6 9.776e+03 2.724e-10
 35.24937     55.2 9.593e+03 2.399e-10
 35.27558     56.7 9.437e+03 1.994e-10
 35.29565     58.1 9.758e+03 2.925e-10
 35.32965     59.6 9.577e+03 2.512e-10
 35.36980     60.8 9.440e+03 2.166e-10
 35.40994     62.0 9.331e+03 2.070e-10
 35.44063     63.2 9.294e+03 2.134e-10
 35.46071     64.2 9.486e+03 2.612e-10
 35.49023     65.2 9.465e+03 2.734e-10
 35.53037     66.0 9.468e+03 2.930e-10
 35.57051     66.7 9.478e+03 2.973e-10
 35.60569     67.2 9.437e+03 2.915e-10
 35.62576     68.0 9.434e+03 3.049e-10
 35.65080     68.5 9.272e+03 2.639e-10
 35.69094     69.0 9.123e+03 2.267e-10
 35.73108     69.5 8.947e+03 2.156e-10
 35.77074     70.3 8.928e+03 2.171e-10
 35.79081     70.9 8.679e+03 1.547e-10
 35.81137     71.9 8.673e+03 1.580e-10
 35.85151     72.9 8.697e+03 1.714e-10
 35.89165     73.9 8.752e+03 1.965e-10
 35.93180     75.0 8.816e+03 2.306e-10
 35.95587     76.1 8.912e+03 2.722e-10
 35.97594     76.9 8.742e+03 2.155e-10
 36.01208     78.1 8.956e+03 2.796e-10
 36.05223     79.2 9.233e+03 3.620e-10
 36.08224     79.6 9.334e+03 4.079e-10
 36.10221     79.8 9.491e+03 4.750e-10
 36.12072     80.1 9.768e+03 5.876e-10
 36.13076     80.4 9.780e+03 6.046e-10
 36.14235     80.8 1.012e+04 7.633e-10
 36.16242     81.3 1.042e+04 9.154e-10
 36.18250     81.7 1.057e+04 9.702e-10
 36.20257     82.0 1.055e+04 9.574e-10
 36.21329     82.5 1.040e+04 8.885e-10
 36.22332     82.9 1.056e+04 9.546e-10
 36.24271     83.4 1.033e+04 8.241e-10
 36.26278     83.7 1.004e+04 6.689e-10
 36.28285     83.7 9.758e+03 5.303e-10
 36.29581     83.3 9.519e+03 4.337e-10
 36.30585     84.0 9.740e+03 5.013e-10
 36.32300     83.6 9.595e+03 4.649e-10
 36.34307     83.2 9.597e+03 4.666e-10
 36.36314     82.8 9.664e+03 4.850e-10
 36.37834     82.2 9.800e+03 5.423e-10
 36.38838     82.6 1.021e+04 6.746e-10
 36.40328     81.2 1.056e+04 8.362e-10
 36.42335     80.1 1.094e+04 1.089e-09
 36.44342     79.1 1.148e+04 1.374e-09
 36.46087     78.2 1.193e+04 1.556e-09
 36.47090     76.3 1.379e+04 2.996e-09
 36.48357     75.3 1.383e+04 2.992e-09
 36.50364     74.8 1.363e+04 2.796e-09
 36.52371     74.1 1.325e+04 2.315e-09
 36.54339     73.0 1.269e+04 1.836e-09
 36.55343     70.5 1.319e+04 2.079e-09
 36.56385     68.5 1.247e+04 1.648e-09
 36.58392     67.4 1.251e+04 1.659e-09
 36.60400     66.9 1.278e+04 1.803e-09
 36.62407     66.8 1.316e+04 2.078e-09
 36.63596     66.3 1.401e+04 2.637e-09
 36.64599     64.3 1.242e+04 1.655e-09
 36.66421     62.1 1.515e+04 2.611e-09
 36.68428     56.1 1.959e+04 6.749e-09
 36.69929     53.3 1.935e+04 8.108e-09
 36.70927     49.8 1.995e+04 1.271e-08
 36.71838     47.7 1.987e+04 1.860e-08
 36.72340     47.1 1.912e+04 1.760e-08
 36.72934     46.3 1.979e+04 2.459e-08
 36.73938     45.3 2.084e+04 3.065e-08
 36.74942     43.6 2.152e+04 3.115e-08
 36.75945     41.7 2.177e+04 2.847e-08
 36.76467     39.6 2.212e+04 2.303e-08
 36.76968     39.3 2.211e+04 2.336e-08
 36.78459     34.7 2.126e+04 1.517e-08
 36.80101     28.6 1.831e+04 8.611e-09
 36.81104     27.8 1.823e+04 9.392e-09
 36.82478     24.0 1.560e+04 6.429e-09
 36.84485     23.6 1.478e+04 5.369e-09
 36.86492     24.1 1.426e+04 4.464e-09
 36.88354     24.7 1.374e+04 3.586e-09
 36.89357     24.3 1.370e+04 3.446e-09
 36.90507     24.6 1.318e+04 2.765e-09
 36.92514     25.2 1.269e+04 2.150e-09
 36.94521     25.5 1.244e+04 1.868e-09
 36.96616     26.7 1.193e+04 1.504e-09
 36.98633     25.8 1.152e+04 1.256e-09
 37.01566     28.0 1.107e+04 1.013e-09
 37.05580     30.4 1.065e+04 7.659e-10
 37.09594     33.0 1.022e+04 5.165e-10
 37.13131     35.2 9.912e+03 3.163e-10
 37.15138     34.3 9.542e+03 2.378e-10
 37.17623     35.9 9.260e+03 1.878e-10
 37.21637     37.7 9.229e+03 1.879e-10
 37.25651     39.2 9.350e+03 2.035e-10
 37.29636     40.5 9.621e+03 2.689e-10
 37.31644     39.7 9.578e+03 2.964e-10
 37.33680     40.4 9.981e+03 4.478e-10
 37.37694     40.4 1.060e+04 7.236e-10
 37.41708     40.3 1.118e+04 1.137e-09
 37.45723     40.4 1.134e+04 1.349e-09
 37.48149     40.8 1.121e+04 1.271e-09
 37.50156     40.0 1.055e+04 9.525e-10
 37.53751     40.7 9.844e+03 5.757e-10
 37.57766     40.6 9.123e+03 3.258e-10
 37.61780     40.6 8.614e+03 2.326e-10
 37.64654     41.6 8.555e+03 2.289e-10
 37.66661     41.3 7.977e+03 1.313e-10
 37.69808     43.1 8.101e+03 1.539e-10
 37.73823     45.0 8.366e+03 2.014e-10
 37.77837     47.2 8.716e+03 2.713e-10
 37.81160     49.6 9.183e+03 3.627e-10
 37.83167     49.5 8.484e+03 1.965e-10
 37.85866     51.8 8.990e+03 2.663e-10
 37.88867     52.7 9.380e+03 3.390e-10
 37.90396     53.5 9.673e+03 4.207e-10
 37.91400     53.4 9.354e+03 3.235e-10
 37.92871     54.4 9.659e+03 4.108e-10
 37.94878     55.0 1.015e+04 5.504e-10
 37.96885     54.2 1.160e+04 8.908e-10
 37.98649     50.8 1.450e+04 2.309e-09
 37.99653     50.7 1.357e+04 1.834e-09
 38.00900     47.6 1.605e+04 5.348e-09
 38.02907     48.0 1.763e+04 1.192e-08
 38.04914     48.2 1.841e+04 1.481e-08
 38.06902     47.7 1.836e+04 1.338e-08
 38.07905     46.5 1.815e+04 1.256e-08
 38.08928     45.5 1.771e+04 8.937e-09
 38.10935     42.9 1.650e+04 4.734e-09
 38.12943     38.6 1.398e+04 2.333e-09
 38.14950     35.6 1.161e+04 1.507e-09
 38.16158     35.6 1.113e+04 1.281e-09
 38.17162     36.2 1.089e+04 1.013e-09
 38.18964     35.9 1.034e+04 8.342e-10
 38.21984     36.5 1.030e+04 7.068e-10
 38.26008     37.9 1.025e+04 6.978e-10
 38.29009     39.3 1.001e+04 6.140e-10
 38.31007     40.2 1.008e+04 6.285e-10
 38.32663     41.2 1.011e+04 6.528e-10
 38.34680     42.0 9.975e+03 6.193e-10
 38.37038     43.7 9.963e+03 6.108e-10
 38.39035     45.0 1.003e+04 6.138e-10
 38.40916     46.2 1.005e+04 6.082e-10
 38.41920     46.3 9.792e+03 5.429e-10
 38.43050     47.8 9.790e+03 5.167e-10
 38.45057     49.2 9.822e+03 4.880e-10
 38.47064     50.4 9.861e+03 4.593e-10
 38.49071     51.7 9.896e+03 4.522e-10
 38.50172     53.1 9.957e+03 4.605e-10
 38.51176     53.1 9.777e+03 4.426e-10
 38.53085     54.6 9.940e+03 4.648e-10
 38.55093     55.9 1.018e+04 5.197e-10
 38.57100     57.3 1.042e+04 6.064e-10
 38.58425     58.8 1.068e+04 7.264e-10
 38.59428     58.7 1.052e+04 6.585e-10
 38.61114     60.0 1.080e+04 7.876e-10
 38.63121     61.1 1.107e+04 9.522e-10
 38.65128     62.6 1.131e+04 1.143e-09
 38.66678     63.6 1.172e+04 1.393e-09
 38.67681     64.3 1.126e+04 1.092e-09
 38.69143     63.9 1.248e+04 1.457e-09
 38.71150     58.2 1.809e+04 3.261e-09
 38.72650     53.3 2.101e+04 5.475e-09
 38.73649     49.1 2.257e+04 9.667e-09
 38.74652     46.4 2.213e+04 1.598e-08
 38.75422     44.2 2.179e+04 2.216e-08
 38.75924     46.1 2.194e+04 1.846e-08
 38.76660     43.5 2.206e+04 2.558e-08
 38.77663     41.3 2.270e+04 2.546e-08
 38.78667     38.0 2.310e+04 2.321e-08
 38.79549     34.1 2.296e+04 1.653e-08
 38.80050     38.0 2.341e+04 2.059e-08
 38.80674     32.4 2.281e+04 1.404e-08
 38.81677     23.4 2.103e+04 1.011e-08
 38.82681     14.5 1.989e+04 8.584e-09
 38.83675      8.5 1.970e+04 8.583e-09
 38.84177      8.4 2.054e+04 1.004e-08
 38.84688      3.6 1.966e+04 9.852e-09
 38.85692      0.2 1.910e+04 9.431e-09
 38.86695     -3.4 1.759e+04 7.939e-09
 38.87699     -5.9 1.654e+04 6.682e-09
 38.88303     -9.5 1.662e+04 5.512e-09
 38.88805    -11.0 1.759e+04 6.106e-09
 38.89706    -17.3 2.633e+04 5.874e-09
 38.91216    -31.1 3.931e+04 4.413e-09
 38.92434    -44.9 4.107e+04 7.743e-09
 38.92931    -54.3 3.355e+04 1.805e-08
 38.93720    -57.5 2.893e+04 2.843e-08
 38.94724    -59.6 2.509e+04 3.606e-08
 38.95727    -59.7 2.397e+04 3.815e-08
 38.96556    -59.4 2.318e+04 3.177e-08
 38.97057    -62.4 2.218e+04 2.224e-08
 38.97735    -63.1 2.174e+04 1.348e-08
 38.98738    -65.0 2.108e+04 7.322e-09
 38.99742    -67.4 2.038e+04 3.919e-09
 39.00687    -72.2 1.865e+04 1.712e-09
 39.01695    -83.6 1.104e+04 5.047e-10
 39.03264    -85.9 9.190e+03 3.512e-10
 39.05271    -86.3 8.973e+03 3.222e-10
 39.07278    -86.7 8.949e+03 3.175e-10
 39.08944    -87.4 8.997e+03 3.195e-10
 39.09948    -87.2 8.927e+03 3.064e-10
 39.11293    -87.8 9.069e+03 3.263e-10
 39.13300    -88.5 9.256e+03 3.607e-10
 39.15307    -89.1 9.416e+03 3.956e-10
 39.17197    -89.8 9.550e+03 4.335e-10
 39.19214    -89.6 9.207e+03 3.343e-10
 39.22351    -90.5 9.277e+03 3.482e-10
 39.26366    -91.1 9.277e+03 3.558e-10
 39.30380    -91.3 9.260e+03 3.562e-10
 39.33722    -91.3 9.174e+03 3.466e-10
 39.35729    -90.9 8.652e+03 2.290e-10
 39.38409    -90.3 8.512e+03 2.147e-10
 39.42423    -89.2 8.327e+03 1.795e-10
 39.46437    -88.0 8.173e+03 1.465e-10
 39.50227    -86.8 8.101e+03 1.294e-10
 39.52234    -86.4 7.995e+03 1.226e-10
 39.54466    -85.2 7.991e+03 1.202e-10
 39.58480    -84.3 8.072e+03 1.235e-10
 39.62494    -83.8 8.389e+03 1.622e-10
 39.66509    -83.3 8.758e+03 2.414e-10
 39.68740    -82.8 9.173e+03 3.547e-10
 39.70747    -82.4 9.004e+03 3.093e-10
 39.74537    -82.0 9.236e+03 3.654e-10
 39.78551    -81.8 9.374e+03 3.864e-10
 39.82566    -81.8 9.402e+03 3.877e-10
 39.85245    -82.2 9.440e+03 3.642e-10
 39.87252    -82.0 8.832e+03 2.111e-10
 39.90594    -82.5 8.734e+03 1.777e-10
 39.94609    -82.6 8.608e+03 1.464e-10
 39.98623    -82.6 8.454e+03 1.168e-10
 40.01750    -82.3 8.283e+03 9.030e-11
 40.03758    -81.6 8.175e+03 7.589e-11
 40.06651    -80.8 8.084e+03 6.101e-11
 40.10666    -79.8 8.094e+03 5.399e-11
 40.14680    -78.8 8.112e+03 5.280e-11
 40.18256    -78.0 8.314e+03 5.447e-11
 40.20263    -77.4 8.290e+03 4.724e-11
 40.22709    -76.7 8.558e+03 6.534e-11
 40.26723    -75.7 8.744e+03 9.525e-11
 40.30737    -74.3 8.926e+03 1.282e-10
 40.34751    -72.9 9.087e+03 1.549e-10
 40.38766    -70.8 9.161e+03 2.165e-10
 40.42780    -69.4 9.279e+03 2.305e-10
 40.46794    -68.0 9.362e+03 2.516e-10
 40.50809    -66.7 9.406e+03 2.803e-10
 40.53274    -65.3 9.384e+03 2.958e-10
 40.55281    -64.8 9.456e+03 3.317e-10
 40.58837    -63.5 9.348e+03 3.214e-10
 40.62852    -61.8 9.114e+03 2.700e-10
 40.66866    -60.0 8.868e+03 2.039e-10
 40.69779    -58.5 8.711e+03 1.492e-10
 40.71786    -58.5 8.929e+03 1.289e-10
 40.74894    -57.5 8.926e+03 1.116e-10
 40.78909    -56.4 8.939e+03 1.088e-10
 40.82923    -55.5 9.060e+03 1.116e-10
 40.86284    -54.5 9.179e+03 1.199e-10
 40.88291    -54.7 9.177e+03 1.278e-10
 40.90952    -53.4 9.176e+03 1.332e-10
 40.94966    -52.5 9.178e+03 1.334e-10
 40.98980    -52.0 9.163e+03 1.289e-10
 41.02790    -51.7 9.124e+03 1.236e-10
 41.04797    -51.7 9.229e+03 1.253e-10
 41.07009    -51.6 9.216e+03 1.288e-10
 41.11023    -51.3 9.079e+03 1.392e-10
 41.15037    -50.7 8.977e+03 1.445e-10
 41.19052    -49.8 8.851e+03 1.445e-10
 41.21302    -48.8 8.808e+03 1.375e-10
 41.23309    -47.9 8.602e+03 1.163e-10
 41.27080    -46.8 8.624e+03 8.842e-11
 41.31094    -45.9 8.757e+03 7.702e-11
 41.35109    -45.1 8.958e+03 7.633e-11
 41.37808    -44.5 9.320e+03 9.745e-11
 41.39815    -43.8 8.718e+03 5.204e-11
 41.43137    -43.3 8.901e+03 7.181e-11
 41.47152    -42.4 9.020e+03 1.087e-10
 41.51166    -41.1 9.155e+03 1.494e-10
 41.54313    -39.7 9.207e+03 1.777e-10
 41.56320    -39.3 8.799e+03 1.699e-10
 41.59194    -37.9 8.838e+03 1.825e-10
 41.63209    -36.6 8.791e+03 1.808e-10
 41.67223    -34.9 8.662e+03 1.577e-10
 41.70818    -33.2 8.594e+03 1.289e-10
 41.72825    -32.9 8.506e+03 1.015e-10
 41.75252    -31.6 8.529e+03 8.181e-11
 41.79266    -30.2 8.533e+03 7.773e-11
 41.83280    -29.0 8.531e+03 8.235e-11
 41.87294    -28.4 8.542e+03 1.488e-10
 41.89331    -27.5 9.118e+03 3.346e-10
 41.91338    -27.4 9.309e+03 3.719e-10
 41.94310    -27.4 1.071e+04 8.868e-10
 41.96307    -28.5 1.185e+04 1.520e-09
 41.97564    -29.7 1.306e+04 2.615e-09
 41.98567    -31.0 1.381e+04 3.421e-09
 42.00321    -32.7 1.523e+04 6.637e-09
 42.02329    -33.0 1.632e+04 1.047e-08
 42.04336    -32.9 1.681e+04 1.213e-08
 42.05816    -33.2 1.668e+04 1.092e-08
 42.06820    -33.0 1.729e+04 1.237e-08
 42.08350    -32.6 1.566e+04 5.467e-09
 42.10357    -35.9 1.366e+04 1.924e-09
 42.12364    -39.1 1.166e+04 7.748e-10
 42.14069    -40.2 1.079e+04 4.659e-10
 42.15073    -41.3 1.010e+04 4.095e-10
 42.16379    -41.4 9.840e+03 3.166e-10
 42.19399    -40.6 9.869e+03 2.803e-10
 42.22341    -39.9 9.674e+03 2.508e-10
 42.24348    -39.8 9.327e+03 2.164e-10
 42.27437    -38.3 9.178e+03 1.699e-10
 42.31452    -37.0 9.143e+03 1.241e-10
 42.35466    -36.1 9.151e+03 8.358e-11
 42.38847    -36.1 9.139e+03 6.116e-11
 42.40854    -36.3 9.061e+03 5.440e-11
 42.43494    -36.4 9.069e+03 5.159e-11
 42.46664    -36.8 9.104e+03 6.185e-11
 42.48671    -36.8 9.110e+03 7.994e-11
 42.51523    -36.7 9.220e+03 1.075e-10
 42.55352    -36.3 9.372e+03 1.263e-10
 42.57359    -36.0 9.317e+03 1.297e-10
 42.59552    -35.8 9.392e+03 1.313e-10
 42.63566    -36.2 9.482e+03 1.280e-10
 42.67580    -37.5 9.833e+03 1.486e-10
 42.71595    -38.1 9.930e+03 3.019e-10
 42.73865    -37.4 1.016e+04 5.469e-10
 42.75872    -36.8 9.949e+03 3.159e-10
 42.79623    -35.7 9.957e+03 4.069e-10
 42.83637    -34.7 9.881e+03 4.091e-10
 42.87652    -33.3 9.394e+03 2.697e-10
 42.90370    -32.1 8.952e+03 1.369e-10
 42.92377    -31.6 9.020e+03 1.098e-10
 42.95680    -30.6 8.891e+03 6.495e-11
 42.99695    -29.5 8.757e+03 4.958e-11
 43.03709    -28.2 8.721e+03 4.638e-11
 43.06875    -26.9 8.820e+03 4.711e-11
 43.08882    -26.5 9.181e+03 5.031e-11
 43.11737    -25.7 9.103e+03 6.954e-11
 43.15752    -24.6 8.936e+03 1.022e-10
 43.19766    -22.9 8.737e+03 1.457e-10
 43.23381    -20.8 8.646e+03 1.737e-10
 43.25388    -19.9 8.653e+03 1.960e-10
 43.27795    -18.1 8.571e+03 1.969e-10
 43.31809    -16.2 8.472e+03 1.666e-10
 43.35823    -15.1 8.511e+03 1.321e-10
 43.39837    -14.2 8.494e+03 1.231e-10
 43.41893    -13.0 8.444e+03 1.406e-10
 43.43900    -12.5 8.617e+03 2.145e-10
 43.47866    -10.7 8.565e+03 2.513e-10
 43.51880     -8.2 8.669e+03 2.805e-10
 43.55895     -6.1 8.899e+03 2.631e-10
 43.58398     -4.3 9.059e+03 2.103e-10
 43.60406     -4.4 8.865e+03 2.340e-10
 43.63923     -2.9 8.909e+03 2.087e-10
 43.67937     -2.0 9.029e+03 1.929e-10
 43.71952     -1.6 9.177e+03 2.240e-10
 43.74904     -1.0 9.355e+03 3.552e-10
 43.76911      0.8 9.064e+03 2.946e-10
 43.79980      2.4 9.408e+03 3.859e-10
 43.83995      3.9 9.788e+03 4.354e-10
 43.88009      4.8 9.851e+03 3.843e-10
 43.91409      5.6 9.279e+03 3.285e-10
 43.93416      5.9 9.473e+03 3.282e-10
 43.96037      7.3 8.913e+03 3.135e-10
 44.00052      9.1 8.664e+03 2.756e-10
 44.04066     11.1 8.570e+03 2.161e-10
 44.07914     12.5 8.685e+03 1.585e-10
 44.09922     13.5 8.974e+03 2.273e-10
 44.12095     14.2 8.882e+03 1.821e-10
 44.16109     15.2 8.832e+03 1.800e-10
 44.20123     16.3 8.904e+03 2.063e-10
 44.24137     17.5 9.151e+03 3.111e-10
 44.26427     19.5 9.497e+03 4.597e-10
 44.28434     20.2 9.590e+03 3.385e-10
 44.31153     20.1 9.960e+03 4.713e-10
 44.33150     20.8 9.919e+03 5.252e-10
 44.34660     21.2 1.021e+04 5.843e-10
 44.35664     21.2 1.033e+04 5.687e-10
 44.37164     21.6 1.046e+04 6.303e-10
 44.39172     21.5 1.062e+04 6.947e-10
 44.41179     21.5 1.057e+04 6.907e-10
 44.42913     21.9 1.029e+04 6.123e-10
 44.43916     22.3 1.043e+04 6.979e-10
 44.45193     22.1 1.023e+04 6.172e-10
 44.48213     22.8 9.935e+03 4.705e-10
 44.52237     22.3 9.431e+03 2.820e-10
 44.56252     22.0 9.101e+03 2.178e-10
 44.59438     22.9 8.738e+03 2.097e-10
 44.61445     23.2 8.732e+03 2.143e-10
 44.64280     25.2 8.604e+03 2.103e-10
 44.68295     27.5 8.632e+03 2.157e-10
 44.72309     29.8 8.745e+03 2.332e-10
 44.75943     32.3 9.038e+03 2.831e-10
 44.77950     32.3 8.981e+03 2.598e-10
 44.80338     34.3 9.347e+03 3.544e-10
 44.83338     35.4 9.619e+03 4.768e-10
 44.85180     36.4 9.859e+03 5.908e-10
 44.86183     36.4 9.783e+03 5.795e-10
 44.87343     37.9 1.008e+04 7.188e-10
 44.89350     39.1 1.041e+04 8.669e-10
 44.91357     40.4 1.064e+04 9.858e-10
 44.93364     41.7 1.093e+04 1.092e-09
 44.94446     43.5 1.103e+04 1.085e-09
 44.95449     43.0 1.098e+04 1.134e-09
 44.97379     43.8 1.116e+04 1.156e-09
 44.99386     45.0 1.118e+04 1.148e-09
 45.01393     45.7 1.122e+04 1.138e-09
 45.04413     47.3 1.134e+04 1.150e-09
 45.08438     48.9 1.134e+04 1.043e-09
 45.10951     49.6 1.119e+04 9.725e-10
 45.11945     49.7 1.166e+04 1.203e-09
 45.13436     50.6 1.145e+04 1.040e-09
 45.15443     50.8 1.146e+04 9.891e-10
 45.17450     50.0 1.282e+04 1.111e-09
 45.19194     48.0 1.447e+04 1.690e-09
 45.20197     50.6 1.255e+04 1.176e-09
 45.21464     48.7 1.414e+04 1.785e-09
 45.23472     47.2 1.467e+04 2.953e-09
 45.25479     46.9 1.478e+04 4.422e-09
 45.27447     47.2 1.513e+04 6.048e-09
 45.28450     48.1 1.541e+04 5.234e-09
 45.29493     47.7 1.600e+04 7.162e-09
 45.30993     47.6 1.611e+04 7.601e-09
 45.31992     47.5 1.619e+04 7.839e-09
 45.32567     47.3 1.662e+04 7.648e-09
 45.33068     47.3 1.674e+04 9.425e-09
 45.33999     47.1 1.700e+04 9.513e-09
 45.35003     46.7 1.746e+04 9.184e-09
 45.36006     46.2 1.783e+04 8.647e-09
 45.36693     44.8 1.859e+04 7.638e-09
 45.37195     45.7 1.832e+04 1.125e-08
 45.38014     44.8 1.896e+04 9.810e-09
 45.39017     42.9 1.973e+04 7.812e-09
 45.40021     41.9 1.923e+04 6.399e-09
 45.41531     39.4 2.062e+04 6.553e-09
 45.43543     33.5 2.173e+04 5.331e-09
 45.44955     28.6 2.226e+04 6.620e-09
 45.45959     34.5 1.994e+04 3.407e-09
 45.47557     27.7 2.155e+04 4.281e-09
 45.49564     22.2 2.199e+04 9.304e-09
 45.51572     19.0 2.248e+04 1.726e-08
 45.53072     17.1 2.170e+04 2.641e-08
 45.53700     16.7 2.120e+04 3.099e-08
 45.54202     14.1 2.308e+04 4.489e-08
 45.55074     13.2 2.199e+04 6.666e-08
 45.56078     11.7 2.203e+04 9.743e-08
 45.57081      9.4 2.248e+04 1.504e-07
 45.57826      7.1 2.234e+04 2.643e-07
 45.58328      7.1 2.117e+04 5.719e-07
 45.59089      4.7 2.128e+04 7.684e-07
 45.60092      0.5 2.229e+04 5.739e-07
 45.61096     -3.9 2.407e+04 2.831e-07
 45.61953     -8.4 2.422e+04 1.407e-07
 45.62455     -9.7 2.362e+04 2.247e-07
 45.63103    -12.0 2.273e+04 1.489e-07
 45.64106    -12.9 2.197e+04 9.880e-08
 45.65110    -13.1 2.186e+04 7.216e-08
 45.66079    -13.0 2.230e+04 5.845e-08
 45.66581    -13.6 2.327e+04 5.995e-08
 45.67117    -13.9 2.331e+04 4.709e-08
 45.68121    -14.7 2.280e+04 3.582e-08
 45.69124    -15.3 2.217e+04 2.831e-08
 45.70128    -16.0 2.158e+04 2.399e-08
 45.70712    -16.3 2.098e+04 2.086e-08
 45.71721    -18.1 2.038e+04 1.696e-08
 45.73650    -18.8 1.878e+04 1.412e-08
 45.75657    -18.5 1.810e+04 1.301e-08
 45.77664    -17.9 1.784e+04 1.252e-08
 45.78970    -17.2 1.751e+04 1.169e-08
 45.79973    -18.5 1.730e+04 8.097e-09
 45.81679    -17.8 1.708e+04 7.399e-09
 45.83686    -16.8 1.680e+04 6.531e-09
 45.85693    -15.8 1.651e+04 5.606e-09
 45.87222    -14.8 1.596e+04 4.567e-09
 45.88226    -15.9 1.503e+04 2.786e-09
 45.89707    -14.6 1.426e+04 2.273e-09
 45.91714    -13.2 1.369e+04 1.870e-09
 45.93722    -12.0 1.324e+04 1.569e-09
 45.95475    -10.8 1.299e+04 1.420e-09
 45.97492    -11.2 1.199e+04 8.573e-10
 46.00766     -8.2 1.167e+04 6.612e-10
 46.04780     -5.1 1.139e+04 5.481e-10
 46.08795     -1.4 1.142e+04 5.024e-10
 46.12000      2.1 1.195e+04 5.199e-10
 46.14007      0.7 9.383e+03 3.753e-10
 46.16823      4.0 9.615e+03 3.201e-10
 46.20838      6.7 9.964e+03 2.890e-10
 46.23839      6.1 8.394e+03 8.607e-11
 46.25836      6.9 9.237e+03 1.005e-10
 46.27843      9.0 8.762e+03 1.451e-10
 46.29489      8.2 8.757e+03 1.424e-10
 46.30503      8.5 8.990e+03 1.326e-10
 46.32880      8.3 1.449e+04 1.976e-10
 46.35881      9.5 2.014e+04 2.794e-10
 46.37742     10.1 2.094e+04 3.497e-10
 46.38746      8.9 1.679e+04 1.794e-10
 46.39886     10.2 1.401e+04 2.207e-10
 46.41893      8.8 1.128e+04 2.262e-10
 46.43900      8.5 9.043e+03 2.494e-10
 46.45907      8.5 7.925e+03 2.350e-10
 46.46998      8.8 8.136e+03 2.437e-10
 46.49015      8.6 9.156e+03 2.556e-10
 46.52952      6.9 9.259e+03 3.092e-10
 46.56966      6.7 9.595e+03 4.059e-10
 46.60981      6.2 9.730e+03 4.119e-10
 46.63523      4.9 9.798e+03 3.815e-10
 46.65530      5.5 1.004e+04 4.378e-10
 46.69009      4.9 1.000e+04 4.420e-10
 46.73023      4.0 1.009e+04 5.035e-10
 46.77038      3.9 1.044e+04 7.402e-10
 46.80028      5.2 1.075e+04 9.760e-10
 46.82036      7.2 1.099e+04 1.074e-09
 46.85066      9.3 1.096e+04 1.046e-09
 46.89081     11.4 1.083e+04 8.774e-10
 46.93095     12.3 1.079e+04 7.326e-10
 46.96534     13.3 1.104e+04 8.052e-10
 46.98541     14.7 1.108e+04 8.811e-10
 47.00110     15.5 1.114e+04 9.136e-10
 47.02107     15.8 1.145e+04 1.041e-09
 47.04115     15.6 1.213e+04 1.370e-09
 47.05770     16.0 1.255e+04 1.818e-09
 47.06774     16.9 1.253e+04 1.732e-09
 47.08129     17.6 1.296e+04 2.279e-09
 47.10136     18.4 1.328e+04 2.843e-09
 47.12143     19.2 1.353e+04 3.356e-09
 47.14023     19.9 1.358e+04 3.649e-09
 47.15027     20.5 1.355e+04 3.559e-09
 47.16157     21.4 1.345e+04 3.535e-09
 47.18165     22.3 1.314e+04 3.309e-09
 47.20172     23.3 1.277e+04 2.847e-09
 47.22179     23.9 1.255e+04 2.289e-09
 47.23279     23.9 1.253e+04 1.821e-09
 47.24283     25.2 1.240e+04 1.915e-09
 47.26193     25.0 1.226e+04 1.556e-09
 47.28200     23.5 1.367e+04 1.566e-09
 47.30207     21.2 1.606e+04 2.031e-09
 47.31532     20.0 1.665e+04 2.973e-09
 47.32536     24.1 1.500e+04 1.946e-09
 47.34222     23.1 1.601e+04 2.722e-09
 47.36229     22.9 1.583e+04 3.699e-09
 47.38236     23.2 1.544e+04 4.697e-09
 47.39785     24.1 1.542e+04 5.420e-09
 47.40788     26.1 1.541e+04 4.332e-09
 47.42250     27.0 1.535e+04 5.163e-09
 47.44257     28.1 1.562e+04 5.469e-09
 47.46265     29.2 1.573e+04 5.332e-09
 47.48037     29.7 1.588e+04 4.802e-09
 47.49041     31.3 1.579e+04 5.331e-09
 47.50279     31.2 1.631e+04 5.093e-09
 47.52286     30.3 1.659e+04 4.825e-09
 47.54293     29.7 1.653e+04 4.388e-09
 47.56290     29.2 1.603e+04 3.701e-09
 47.57294     30.2 1.767e+04 6.060e-09
 47.58307     29.7 1.738e+04 5.118e-09
 47.60315     28.2 1.688e+04 4.114e-09
 47.62322     25.8 1.617e+04 3.628e-09
 47.64329     23.0 1.569e+04 3.716e-09
 47.65546     20.8 1.566e+04 4.312e-09
 47.65827     19.4 1.624e+04 4.902e-09
 47.66617     19.0 1.587e+04 5.390e-09
 47.68343     17.9 1.643e+04 7.143e-09
 47.70350     17.6 1.691e+04 8.378e-09
 47.72357     17.4 1.696e+04 8.449e-09
 47.73799     16.9 1.649e+04 7.669e-09
 47.74803     12.3 1.769e+04 6.760e-09
 47.76372      3.2 2.287e+04 8.820e-09
 47.77872     -2.7 2.658e+04 1.222e-08
 47.78417     -7.7 2.968e+04 1.726e-08
 47.78919    -17.2 2.913e+04 2.274e-08
 47.79875    -20.8 2.862e+04 2.850e-08
 47.80878    -24.2 2.825e+04 2.963e-08
 47.81882    -27.1 2.737e+04 2.591e-08
 47.82544    -29.7 2.662e+04 1.901e-08
 47.83045    -36.8 2.257e+04 1.128e-08
 47.84395    -41.3 1.819e+04 5.724e-09
 47.86407    -44.8 1.357e+04 1.838e-09
 47.88415    -49.7 1.197e+04 6.167e-10
 47.90304    -55.7 9.752e+03 2.724e-10
 47.91308    -56.4 9.751e+03 3.053e-10
 47.92429    -57.7 9.130e+03 2.380e-10
 47.94436    -58.1 9.027e+03 2.210e-10
 47.97457    -58.7 9.045e+03 2.096e-10
 47.99580    -59.7 9.027e+03 2.050e-10
 48.01587    -59.9 9.333e+03 3.025e-10
 48.05495    -60.9 9.366e+03 3.007e-10
 48.09509    -62.2 9.395e+03 2.851e-10
 48.13523    -65.4 9.778e+03 2.766e-10
 48.16076    -71.1 1.267e+04 2.459e-10
 48.17069    -71.1 1.231e+04 2.735e-10
 48.18522    -82.5 1.509e+04 8.759e-10
 48.20529    -90.3 1.678e+04 2.897e-09
 48.22536    -94.0 1.785e+04 7.682e-09
 48.24319    -97.2 1.904e+04 1.040e-08
 48.25322    -96.0 1.878e+04 1.021e-08
 48.26550   -101.6 1.915e+04 9.774e-09
 48.28558   -111.4 1.840e+04 4.011e-09
 48.30565   -125.0 1.385e+04 1.180e-09
 48.32571   -133.3 1.124e+04 7.629e-10
 48.34578   -134.2 1.054e+04 5.782e-10
 48.36586   -135.9 1.036e+04 5.272e-10
 48.38593   -137.6 9.959e+03 4.273e-10
 48.41614   -139.2 9.475e+03 3.279e-10
 48.45638   -141.0 9.087e+03 2.705e-10
 48.49096   -142.7 8.820e+03 2.446e-10
 48.51103   -140.8 8.823e+03 2.286e-10
 48.53666   -142.2 8.805e+03 2.258e-10
 48.57681   -143.7 8.977e+03 2.570e-10
 48.61695   -145.1 9.382e+03 3.383e-10
 48.65601   -146.6 9.860e+03 4.503e-10
 48.67609   -145.2 9.883e+03 4.908e-10
 48.69724   -146.4 1.038e+04 6.695e-10
 48.73738   -147.2 1.081e+04 8.656e-10
 48.77752   -147.4 1.112e+04 1.044e-09
 48.81766   -147.2 1.128e+04 1.148e-09
 48.84114   -146.8 1.130e+04 1.160e-09
 48.86121   -145.3 1.086e+04 9.092e-10
 48.89795   -144.6 1.085e+04 8.662e-10
 48.93809   -143.6 1.086e+04 8.466e-10
 48.97824   -142.5 1.096e+04 8.520e-10
 49.00619   -141.1 1.130e+04 9.544e-10
 49.02626   -140.6 1.127e+04 9.171e-10
 49.05852   -139.1 1.167e+04 1.176e-09
 49.09866   -137.4 1.201e+04 1.413e-09
 49.13881   -135.4 1.231e+04 1.583e-09
 49.16882   -133.7 1.251e+04 1.697e-09
 49.18109   -132.3 1.259e+04 1.752e-09
 49.19122   -134.0 1.232e+04 1.585e-09
 49.20896   -132.2 1.267e+04 1.803e-09
 49.22893   -131.6 1.280e+04 1.849e-09
 49.24900   -131.8 1.318e+04 1.952e-09
 49.26361   -135.5 1.600e+04 2.476e-09
 49.27365   -136.5 1.533e+04 2.366e-09
 49.28915   -142.4 1.972e+04 6.843e-09
 49.30415   -145.3 2.150e+04 1.814e-08
 49.30980   -146.5 2.177e+04 3.016e-08
 49.31481   -147.4 2.192e+04 2.954e-08
 49.32417   -148.7 2.207e+04 4.558e-08
 49.33421   -150.1 2.219e+04 5.313e-08
 49.34425   -152.2 2.248e+04 5.422e-08
 49.35106   -156.6 2.392e+04 5.234e-08
 49.35608   -156.4 2.335e+04 5.687e-08
 49.36432   -161.5 2.563e+04 4.144e-08
 49.37435   -170.7 3.297e+04 3.137e-08
 49.38439   -183.0 4.298e+04 2.794e-08
 49.39232   -194.0 3.765e+04 6.578e-08
 49.39734   -185.9 4.014e+04 2.636e-08
 49.40446   -194.6 3.347e+04 8.488e-08
 49.41450   -200.1 2.772e+04 2.539e-07
 49.42453   -204.8 2.601e+04 4.475e-07
 49.43359   -211.3 2.607e+04 4.966e-07
 49.43860   -204.2 2.506e+04 7.090e-07
 49.44460   -212.5 2.497e+04 7.773e-07
 49.45464   -223.0 2.557e+04 4.440e-07
 49.46467   -234.5 2.574e+04 9.003e-08
 49.47471   -243.7 2.159e+04 1.218e-08
 49.47987   -246.9 1.661e+04 4.704e-09
 49.48489   -245.5 2.057e+04 9.138e-09
 49.49478   -247.7 1.606e+04 4.091e-09
 49.50482   -248.2 1.447e+04 3.183e-09
 49.51485   -248.1 1.404e+04 2.799e-09
 49.52118   -247.5 1.374e+04 2.315e-09
 49.52620   -248.5 1.381e+04 2.669e-09
 49.53492   -248.1 1.369e+04 2.433e-09
 49.55003   -247.5 1.344e+04 2.141e-09
 49.57015   -247.4 1.257e+04 1.485e-09
 49.59022   -246.8 1.088e+04 8.831e-10
 49.60376   -246.1 9.805e+03 6.333e-10
 49.61379   -245.5 1.112e+04 9.632e-10
 49.63036   -244.5 1.014e+04 7.262e-10
 49.65043   -243.3 9.851e+03 6.588e-10
 49.67050   -241.9 9.764e+03 6.424e-10
 49.68628   -240.4 9.733e+03 6.381e-10
 49.69632   -240.2 1.029e+04 8.081e-10
 49.71065   -238.9 1.024e+04 8.010e-10
 49.73072   -237.6 1.019e+04 7.926e-10
 49.75079   -236.5 1.014e+04 7.845e-10
 49.76881   -235.5 1.012e+04 7.820e-10
 49.77884   -235.1 1.058e+04 9.699e-10
 49.79093   -234.2 1.050e+04 9.436e-10
 49.81100   -233.4 1.048e+04 9.367e-10
 49.83108   -232.8 1.049e+04 9.447e-10
 49.85115   -232.2 1.057e+04 9.797e-10
 49.86137   -231.7 1.070e+04 1.036e-09
 49.87141   -231.3 1.077e+04 1.067e-09
 49.89129   -231.0 1.087e+04 1.105e-09
 49.91136   -230.8 1.095e+04 1.144e-09
 49.93143   -230.7 1.101e+04 1.173e-09
 49.94390   -230.6 1.103e+04 1.184e-09
 49.95393   -230.2 1.101e+04 1.171e-09
 49.97158   -230.2 1.101e+04 1.175e-09
 49.99165   -230.2 1.099e+04 1.172e-09
 50.01172   -230.2 1.088e+04 1.126e-09
 50.02642   -230.0 1.070e+04 1.039e-09
 50.03646   -229.7 1.074e+04 1.061e-09
 50.05186   -229.6 1.051e+04 9.435e-10
 50.07193   -229.4 1.024e+04 8.213e-10
 50.09201   -229.3 9.934e+03 6.955e-10
 50.10895   -229.0 9.574e+03 5.715e-10
 50.11899   -228.8 9.677e+03 5.958e-10
 50.13215   -228.2 9.313e+03 4.860e-10
 50.15222   -227.3 9.042e+03 4.122e-10
 50.18154   -226.4 8.958e+03 3.771e-10
 50.20161   -225.7 8.977e+03 3.847e-10
 50.22257   -225.0 9.008e+03 3.817e-10
 50.26281   -224.1 9.073e+03 3.904e-10
 50.30295   -223.3 9.219e+03 4.156e-10
 50.34309   -222.7 9.374e+03 4.449e-10
 50.36667   -222.9 9.567e+03 5.140e-10
 50.37660   -223.3 9.645e+03 5.560e-10
 50.39308   -223.3 9.687e+03 5.698e-10
 50.41315   -223.2 9.727e+03 5.792e-10
 50.43322   -223.1 9.777e+03 5.906e-10
 50.44909   -223.0 9.847e+03 6.080e-10
 50.45913   -223.0 9.847e+03 6.078e-10
 50.47336   -222.8 9.927e+03 6.281e-10
 50.49343   -222.6 1.000e+04 6.468e-10
 50.51351   -222.4 1.006e+04 6.587e-10
 50.53162   -222.2 1.008e+04 6.625e-10
 50.54166   -222.1 1.005e+04 6.580e-10
 50.55365   -221.9 1.005e+04 6.578e-10
 50.57372   -221.6 1.003e+04 6.463e-10
 50.59379   -221.2 9.989e+03 6.297e-10
 50.61386   -220.6 9.957e+03 6.162e-10
 50.62418   -219.9 9.951e+03 6.101e-10
 50.63422   -219.7 9.964e+03 6.106e-10
 50.65401   -219.0 9.969e+03 6.100e-10
 50.67408   -218.4 1.000e+04 6.109e-10
 50.69415   -217.8 1.007e+04 6.199e-10
 50.70671   -217.2 1.018e+04 6.421e-10
 50.71675   -217.3 1.031e+04 6.573e-10
 50.73429   -216.9 1.056e+04 7.287e-10
 50.75436   -216.5 1.085e+04 8.297e-10
 50.77443   -216.1 1.114e+04 9.467e-10
 50.78924   -215.8 1.142e+04 1.064e-09
 50.79927   -216.0 1.179e+04 1.241e-09
 50.81458   -215.8 1.203e+04 1.371e-09
 50.83465   -215.8 1.215e+04 1.438e-09
 50.85472   -215.8 1.217e+04 1.453e-09
 50.87176   -215.7 1.214e+04 1.444e-09
 50.88180   -216.0 1.228e+04 1.554e-09
 50.89486   -215.6 1.205e+04 1.392e-09
 50.91493   -215.0 1.180e+04 1.223e-09
 50.93501   -214.4 1.160e+04 1.086e-09
 50.95429   -213.8 1.144e+04 9.720e-10
 50.96433   -213.7 1.134e+04 8.807e-10
 50.97515   -213.1 1.120e+04 7.802e-10
 50.99522   -212.4 1.109e+04 7.021e-10
 51.01529   -211.7 1.099e+04 6.408e-10
 51.03536   -211.0 1.093e+04 5.895e-10
 51.04685   -210.2 1.090e+04 5.404e-10
 51.05689   -210.3 1.092e+04 4.397e-10
 51.07551   -209.7 1.091e+04 4.077e-10
 51.10571   -209.0 1.091e+04 3.841e-10
 51.14595   -206.9 1.087e+04 3.569e-10
 51.18609   -205.0 1.088e+04 3.413e-10
 51.21210   -203.1 1.090e+04 3.275e-10
 51.23217   -202.8 1.096e+04 3.370e-10
 51.26638   -200.9 1.099e+04 3.381e-10
 51.30652   -199.1 1.097e+04 3.385e-10
 51.34667   -197.4 1.092e+04 3.387e-10
 51.37715   -195.6 1.083e+04 3.358e-10
 51.39723   -195.6 1.082e+04 3.412e-10
 51.42695   -193.7 1.062e+04 3.070e-10
 51.46709   -191.7 1.041e+04 2.654e-10
 51.50724   -189.5 1.020e+04 2.195e-10
 51.54221   -187.3 1.002e+04 1.754e-10
 51.56228   -186.9 9.861e+03 1.326e-10
 51.58752   -184.6 9.739e+03 1.060e-10
 51.62767   -182.2 9.655e+03 8.933e-11
 51.66781   -179.8 9.609e+03 8.059e-11
 51.70726   -177.3 9.603e+03 7.795e-11
 51.72733   -176.7 9.628e+03 7.945e-11
 51.74809   -174.3 9.632e+03 7.940e-11
 51.78824   -172.2 9.653e+03 8.008e-11
 51.82838   -170.8 9.759e+03 9.286e-11
 51.86852   -169.7 1.016e+04 1.711e-10
 51.89239   -168.8 1.076e+04 3.552e-10
 51.91246   -168.1 1.087e+04 4.355e-10
 51.94881   -167.3 1.160e+04 7.615e-10
 51.97482   -167.1 1.223e+04 1.093e-09
 51.98475   -166.9 1.219e+04 1.114e-09
 51.99879   -167.3 1.270e+04 1.479e-09
 52.01886   -167.8 1.312e+04 1.891e-09
 52.03893   -168.5 1.341e+04 2.200e-09
 52.05724   -169.2 1.351e+04 2.372e-09
 52.06728   -168.8 1.317e+04 2.040e-09
 52.07908   -169.3 1.316e+04 2.049e-09
 52.09915   -169.6 1.299e+04 1.957e-09
 52.11922   -169.8 1.272e+04 1.697e-09
 52.13929   -170.1 1.241e+04 1.397e-09
 52.14981   -170.6 1.209e+04 1.123e-09
 52.15984   -170.2 1.193e+04 9.584e-10
 52.17944   -170.8 1.172e+04 8.115e-10
 52.19951   -171.4 1.155e+04 7.019e-10
 52.21958   -172.0 1.140e+04 6.153e-10
 52.23233   -172.7 1.128e+04 5.455e-10
 52.24237   -172.3 1.132e+04 5.619e-10
 52.25972   -173.1 1.120e+04 5.090e-10
 52.27979   -173.9 1.109e+04 4.642e-10
 52.29986   -174.5 1.100e+04 4.348e-10
 52.31486   -175.1 1.098e+04 4.258e-10
 52.32490   -175.1 1.106e+04 4.592e-10
 52.34001   -175.8 1.106e+04 4.588e-10
 52.36008   -176.5 1.111e+04 4.640e-10
 52.38015   -177.2 1.122e+04 4.994e-10
 52.39739   -177.8 1.135e+04 5.592e-10
 52.40742   -178.1 1.155e+04 6.733e-10
 52.42029   -178.5 1.167e+04 7.496e-10
 52.44036   -179.0 1.178e+04 8.176e-10
 52.46044   -179.5 1.186e+04 8.679e-10
 52.47991   -179.9 1.188e+04 8.903e-10
 52.48995   -180.0 1.211e+04 1.034e-09
 52.50058   -180.5 1.211e+04 1.054e-09
 52.52065   -180.8 1.210e+04 1.059e-09
 52.54072   -181.0 1.203e+04 1.035e-09
 52.56079   -181.1 1.195e+04 9.486e-10
 52.57248   -181.1 1.189e+04 8.231e-10
 52.58251   -181.6 1.228e+04 1.153e-09
 52.60094   -181.7 1.224e+04 1.031e-09
 52.62101   -181.8 1.219e+04 8.883e-10
 52.64108   -181.9 1.214e+04 7.549e-10
 52.65500   -182.1 1.209e+04 6.466e-10
 52.66504   -182.5 1.250e+04 1.078e-09
 52.68122   -182.7 1.245e+04 9.203e-10
 52.70129   -182.9 1.239e+04 7.847e-10
 52.72136   -183.0 1.231e+04 6.757e-10
 52.73753   -183.0 1.223e+04 5.927e-10
 52.74757   -183.4 1.252e+04 8.463e-10
 52.76151   -183.4 1.239e+04 7.281e-10
 52.78158   -183.2 1.225e+04 6.284e-10
 52.80165   -182.7 1.212e+04 5.431e-10
 52.82006   -182.1 1.201e+04 4.795e-10
 52.83009   -182.5 1.214e+04 5.774e-10
 52.83578   -182.1 1.203e+04 4.942e-10
 52.84582   -183.0 1.190e+04 4.493e-10
 52.87200   -182.8 1.170e+04 4.048e-10
 52.90278   -182.0 1.139e+04 3.508e-10
 52.92285   -182.4 1.152e+04 3.665e-10
 52.95238   -181.1 1.110e+04 2.899e-10
 52.99252   -179.5 1.069e+04 2.248e-10
 53.03267   -177.7 1.041e+04 1.785e-10
 53.06783   -175.8 1.023e+04 1.494e-10
 53.08790   -175.6 1.031e+04 1.554e-10
 53.11295   -173.5 1.024e+04 1.440e-10
 53.15310   -171.4 1.022e+04 1.426e-10
 53.19324   -169.4 1.022e+04 1.430e-10
 53.23288   -167.7 1.027e+04 1.578e-10
 53.25296   -167.7 1.061e+04 2.277e-10
 53.27352   -166.2 1.078e+04 2.953e-10
 53.31367   -164.7 1.099e+04 3.902e-10
 53.35381   -163.2 1.122e+04 5.061e-10
 53.39395   -161.7 1.140e+04 6.245e-10
 53.41801   -160.3 1.152e+04 7.213e-10
 53.43808   -160.7 1.174e+04 8.585e-10
 53.47424   -159.2 1.170e+04 8.513e-10
 53.51438   -157.7 1.163e+04 8.234e-10
 53.55452   -156.2 1.160e+04 8.060e-10
 53.58306   -154.7 1.157e+04 7.817e-10
 53.60313   -154.5 1.128e+04 5.646e-10
 53.63481   -152.9 1.118e+04 4.975e-10
 53.67495   -151.3 1.108e+04 4.339e-10
 53.71510   -149.5 1.098e+04 3.725e-10
 53.74812   -147.6 1.086e+04 3.181e-10
 53.76819   -146.8 1.076e+04 2.011e-10
 53.79538   -144.7 1.071e+04 1.895e-10
 53.83552   -142.5 1.069e+04 1.869e-10
 53.87567   -140.6 1.081e+04 2.215e-10
 53.91317   -138.7 1.095e+04 3.071e-10
 53.93324   -137.8 1.100e+04 3.096e-10
 53.95595   -135.9 1.131e+04 4.975e-10
 53.99610   -133.9 1.176e+04 8.031e-10
 54.03624   -132.0 1.231e+04 1.228e-09
 54.07638   -130.3 1.285e+04 1.692e-09
 54.09820   -129.4 1.326e+04 2.108e-09
 54.10814   -129.6 1.366e+04 2.569e-09
 54.12637   -129.5 1.408e+04 3.192e-09
 54.14644   -129.3 1.446e+04 4.039e-09
 54.16651   -128.9 1.471e+04 4.651e-09
 54.18063   -128.5 1.490e+04 5.074e-09
 54.19066   -128.5 1.522e+04 5.212e-09
 54.20665   -128.2 1.524e+04 5.286e-09
 54.22672   -128.0 1.524e+04 5.300e-09
 54.24679   -127.7 1.513e+04 5.167e-09
 54.26315   -127.3 1.497e+04 4.870e-09
 54.27319   -127.6 1.493e+04 4.611e-09
 54.28694   -127.1 1.478e+04 4.357e-09
 54.30701   -126.5 1.472e+04 4.236e-09
 54.32708   -126.0 1.472e+04 4.225e-09
 54.34568   -125.8 1.507e+04 4.216e-09
 54.35572   -125.7 1.477e+04 4.005e-09
 54.36722   -127.1 1.717e+04 4.710e-09
 54.38729   -128.9 1.972e+04 8.930e-09
 54.40230   -129.4 2.104e+04 1.304e-08
 54.41229   -130.0 2.167e+04 2.440e-08
 54.42232   -130.3 2.185e+04 7.027e-08
 54.43236   -129.6 2.160e+04 1.958e-07
 54.43814   -128.9 2.132e+04 4.452e-07
 54.44316   -129.5 2.141e+04 4.341e-07
 54.45243   -129.8 2.122e+04 7.156e-07
 54.46246   -132.6 2.122e+04 8.249e-07
 54.47250   -134.9 2.109e+04 7.844e-07
 54.47941   -135.4 2.113e+04 4.619e-07
 54.48443   -134.9 2.131e+04 3.400e-07
 54.49257   -134.8 2.128e+04 1.831e-07
 54.50261   -134.3 2.106e+04 9.995e-08
 54.51264   -134.1 2.064e+04 5.621e-08
 54.52067   -134.2 2.002e+04 3.451e-08
 54.52569   -134.6 2.007e+04 2.980e-08
 54.53271   -134.9 1.920e+04 2.194e-08
 54.54782   -135.1 1.829e+04 1.645e-08
 54.56794   -133.6 1.681e+04 1.021e-08
 54.58801   -132.3 1.571e+04 6.466e-09
 54.60330   -131.3 1.502e+04 4.437e-09
 54.61333   -131.5 1.515e+04 5.108e-09
 54.62815   -130.7 1.461e+04 3.844e-09
 54.64822   -129.9 1.413e+04 2.996e-09
 54.66829   -128.8 1.372e+04 2.423e-09
 54.68582   -127.8 1.338e+04 2.028e-09
 54.69586   -127.8 1.338e+04 2.188e-09
 54.70844   -127.0 1.303e+04 1.831e-09
 54.72851   -126.3 1.272e+04 1.602e-09
 54.75841   -125.3 1.246e+04 1.452e-09
 54.77858   -125.0 1.234e+04 1.426e-09
 54.79895   -122.4 1.189e+04 1.212e-09
 54.83910   -120.0 1.165e+04 1.086e-09
 54.87924   -117.7 1.158e+04 1.047e-09
 54.91938   -115.6 1.157e+04 1.055e-09
 54.94363   -113.8 1.156e+04 1.086e-09
 54.95357   -114.1 1.149e+04 1.046e-09
 54.96937   -113.4 1.148e+04 1.054e-09
 54.98944   -112.5 1.147e+04 1.066e-09
 55.00951   -111.8 1.144e+04 1.069e-09
 55.02596   -110.8 1.139e+04 1.076e-09
 55.03600   -110.8 1.130e+04 1.025e-09
 55.04965   -110.1 1.126e+04 1.008e-09
 55.07986   -109.3 1.124e+04 9.886e-10
 55.10869   -107.7 1.111e+04 9.214e-10
 55.12876   -107.3 1.080e+04 7.525e-10
 55.16024   -105.7 1.060e+04 6.402e-10
 55.20038   -104.3 1.050e+04 5.720e-10
 55.24053   -103.0 1.046e+04 5.435e-10
 55.27374   -101.6 1.043e+04 5.345e-10
 55.29381   -100.7 1.028e+04 4.762e-10
 55.32081    -99.3 1.031e+04 5.079e-10
 55.36095    -97.8 1.030e+04 5.230e-10
 55.40110    -96.2 1.024e+04 5.225e-10
 55.43879    -94.4 1.007e+04 4.803e-10
 55.45886    -93.5 1.010e+04 4.919e-10
 55.48138    -91.6 9.920e+03 4.288e-10
 55.52153    -89.7 9.786e+03 3.813e-10
 55.56167    -87.8 9.738e+03 3.655e-10
 55.60181    -86.0 9.731e+03 3.648e-10
 55.62392    -84.2 9.783e+03 3.955e-10
 55.64399    -83.3 9.769e+03 3.841e-10
 55.68210    -81.7 9.853e+03 4.379e-10
 55.72224    -80.2 9.876e+03 4.794e-10
 55.76238    -78.6 9.865e+03 4.898e-10
 55.78897    -76.9 9.763e+03 4.861e-10
 55.80904    -76.0 9.776e+03 4.691e-10
 55.84267    -74.2 9.566e+03 4.222e-10
 55.88281    -72.2 9.331e+03 3.427e-10
 55.92295    -70.3 9.137e+03 2.693e-10
 55.95403    -68.5 9.008e+03 2.199e-10
 55.97410    -67.6 9.090e+03 2.500e-10
 56.00324    -65.8 9.060e+03 2.275e-10
 56.04338    -64.1 9.066e+03 2.233e-10
 56.08353    -62.9 9.116e+03 2.303e-10
 56.11908    -62.2 9.504e+03 3.393e-10
 56.13915    -61.5 9.707e+03 4.549e-10
 56.16381    -61.3 1.061e+04 8.109e-10
 56.20395    -61.5 1.189e+04 1.615e-09
 56.23396    -62.2 1.257e+04 2.553e-09
 56.25394    -61.9 1.330e+04 3.839e-09
 56.27401    -61.6 1.377e+04 4.723e-09
 56.29397    -61.6 1.394e+04 4.961e-09
 56.30401    -61.5 1.405e+04 5.064e-09
 56.31415    -61.5 1.378e+04 4.100e-09
 56.33422    -61.7 1.317e+04 2.943e-09
 56.35430    -62.6 1.264e+04 2.115e-09
 56.37437    -63.5 1.218e+04 1.649e-09
 56.38653    -64.1 1.186e+04 1.437e-09
 56.39657    -64.3 1.165e+04 1.282e-09
 56.41451    -64.5 1.149e+04 1.208e-09
 56.43458    -64.5 1.142e+04 1.169e-09
 56.45465    -64.4 1.138e+04 1.135e-09
 56.46906    -64.3 1.136e+04 1.094e-09
 56.47910    -64.2 1.120e+04 9.974e-10
 56.49480    -64.1 1.116e+04 9.389e-10
 56.51487    -64.0 1.108e+04 8.557e-10
 56.53494    -63.8 1.095e+04 7.469e-10
 56.55159    -63.5 1.080e+04 6.189e-10
 56.56162    -63.3 1.061e+04 5.311e-10
 56.57508    -63.3 1.047e+04 4.332e-10
 56.60529    -63.4 1.037e+04 3.677e-10
 56.63431    -62.8 1.023e+04 3.146e-10
 56.65438    -62.2 1.020e+04 3.347e-10
 56.68567    -61.5 1.023e+04 3.314e-10
 56.72581    -61.3 1.060e+04 4.199e-10
 56.76596    -60.9 1.108e+04 6.478e-10
 56.79936    -60.5 1.149e+04 9.292e-10
 56.81943    -60.6 1.159e+04 9.596e-10
 56.84624    -60.4 1.187e+04 1.128e-09
 56.88638    -60.4 1.191e+04 1.159e-09
 56.92653    -59.9 1.159e+04 9.120e-10
 56.96442    -58.9 1.109e+04 5.885e-10
 56.98449    -58.7 1.085e+04 4.083e-10
 57.00681    -57.6 1.049e+04 2.438e-10
 57.04696    -56.5 1.018e+04 1.674e-10
 57.08710    -55.0 1.008e+04 1.498e-10
 57.12724    -53.3 1.004e+04 1.471e-10
 57.14954    -51.6 1.005e+04 1.685e-10
 57.16961    -51.4 1.000e+04 1.731e-10
 57.20753    -49.6 1.011e+04 2.178e-10
 57.24767    -47.9 1.023e+04 2.735e-10
 57.28781    -46.2 1.036e+04 3.234e-10
 57.31460    -44.7 1.047e+04 3.498e-10
 57.33467    -44.2 1.046e+04 3.672e-10
 57.36810    -42.9 1.049e+04 3.690e-10
 57.40824    -41.6 1.052e+04 3.531e-10
 57.44838    -40.5 1.055e+04 3.271e-10
 57.47965    -39.5 1.062e+04 3.039e-10
 57.49972    -39.0 1.065e+04 2.966e-10
 57.52867    -38.2 1.072e+04 2.870e-10
 57.56881    -37.6 1.079e+04 2.823e-10
 57.60896    -36.9 1.083e+04 2.805e-10
 57.64470    -36.1 1.087e+04 2.763e-10
 57.66477    -35.8 1.097e+04 3.369e-10
 57.68924    -34.9 1.102e+04 3.293e-10
 57.72938    -33.9 1.106e+04 3.157e-10
 57.76953    -32.9 1.108e+04 2.975e-10
 57.80967    -31.7 1.106e+04 2.711e-10
 57.84981    -30.7 1.101e+04 2.412e-10
 57.88996    -29.7 1.099e+04 2.251e-10
 57.93010    -28.7 1.100e+04 2.240e-10
 57.97024    -27.8 1.104e+04 2.423e-10
 57.99488    -27.0 1.108e+04 2.720e-10
 58.01495    -27.0 1.090e+04 2.592e-10
 58.05053    -26.0 1.086e+04 2.633e-10
 58.09067    -24.7 1.073e+04 2.347e-10
 58.13081    -23.5 1.066e+04 1.800e-10
 58.15993    -22.4 1.063e+04 1.322e-10
 58.18001    -21.9 1.051e+04 1.020e-10
 58.21110    -20.9 1.050e+04 7.601e-11
 58.25124    -19.9 1.046e+04 6.124e-11
 58.29138    -18.8 1.029e+04 5.568e-11
 58.32499    -17.6 1.014e+04 5.417e-11
 58.34506    -16.8 1.009e+04 5.343e-11
 58.37167    -15.3 1.009e+04 5.341e-11
 58.41181    -14.0 1.016e+04 5.518e-11
 58.45196    -13.4 1.032e+04 5.948e-11
 58.49004    -13.5 1.095e+04 7.116e-11
 58.51011    -11.7 1.046e+04 6.592e-11
 58.53224    -12.0 1.094e+04 8.974e-11
 58.57238    -12.0 1.105e+04 1.840e-10
 58.61253    -11.5 1.126e+04 3.436e-10
 58.65267    -11.1 1.157e+04 4.841e-10
 58.67517    -11.4 1.185e+04 5.545e-10
 58.69524     -9.6 1.170e+04 5.218e-10
 58.73296    -10.1 1.188e+04 5.773e-10
 58.77310    -10.7 1.200e+04 6.419e-10
 58.81324    -11.1 1.201e+04 6.835e-10
 58.84022    -11.1 1.170e+04 6.440e-10
 58.86029     -9.7 1.191e+04 7.684e-10
 58.89353     -9.5 1.165e+04 6.311e-10
 58.93367     -9.1 1.137e+04 4.225e-10
 58.97381     -8.6 1.111e+04 2.594e-10
 59.00527     -8.1 1.089e+04 1.746e-10
 59.02534     -7.3 1.095e+04 1.994e-10
 59.05410     -6.7 1.082e+04 1.515e-10
 59.09424     -5.9 1.078e+04 1.378e-10
 59.13439     -4.9 1.080e+04 1.369e-10
 59.17033     -3.9 1.088e+04 1.504e-10
 59.19040     -3.4 1.088e+04 1.486e-10
 59.21467     -2.4 1.092e+04 1.686e-10
 59.25481     -1.4 1.088e+04 1.960e-10
 59.29496     -0.2 1.082e+04 2.135e-10
 59.33510      1.2 1.071e+04 1.897e-10
 59.35545      2.5 1.058e+04 1.485e-10
 59.37552      2.7 1.058e+04 1.598e-10
 59.41539      4.1 1.043e+04 1.200e-10
 59.45553      5.4 1.032e+04 8.821e-11
 59.49567      6.6 1.020e+04 7.013e-11
 59.52050      8.0 1.010e+04 6.198e-11
 59.54058      8.5 1.010e+04 5.855e-11
 59.57596     10.0 1.001e+04 5.483e-11
 59.61610     11.7 9.984e+03 5.401e-11
 59.65624     13.4 9.991e+03 5.466e-11
 59.68556     15.0 1.001e+04 5.869e-11
 59.70563     15.5 9.964e+03 5.399e-11
 59.73653     17.2 1.001e+04 6.083e-11
 59.77667     18.7 1.007e+04 6.807e-11
 59.81681     20.1 1.007e+04 7.691e-11
 59.85061     21.6 1.001e+04 8.588e-11
 59.87068     22.1 1.001e+04 8.291e-11
 59.89710     23.6 9.943e+03 9.181e-11
 59.93724     25.3 9.889e+03 9.583e-11
 59.97739     27.0 9.871e+03 9.306e-11
 60.01566     28.5 9.861e+03 8.792e-11
 60.03574     28.9 9.918e+03 1.048e-10
 60.05767     30.4 9.882e+03 1.024e-10
 60.09781     32.1 9.794e+03 9.896e-11
 60.13796     34.0 9.767e+03 8.940e-11
 60.17810     35.6 9.865e+03 7.625e-11
 60.20079     36.9 9.871e+03 7.019e-11
 60.22086     37.0 9.888e+03 7.367e-11
 60.25839     38.4 9.836e+03 7.282e-11
 60.29853     39.9 9.812e+03 7.747e-11
 60.33867     41.6 9.803e+03 8.052e-11
 60.36584     43.5 9.709e+03 7.697e-11
 60.38591     43.4 9.692e+03 8.312e-11
 60.41896     45.4 9.705e+03 7.130e-11
 60.45910     46.8 9.823e+03 5.947e-11
 60.49924     48.1 9.730e+03 5.837e-11
 60.53090     49.3 9.773e+03 6.310e-11
 60.55097     49.1 9.786e+03 7.223e-11
 60.57953     50.3 9.858e+03 8.754e-11
 60.61967     51.6 9.964e+03 1.106e-10
 60.65981     52.6 1.014e+04 1.412e-10
 60.69595     53.2 1.037e+04 1.886e-10
 60.71602     52.6 1.036e+04 1.873e-10
 60.74010     53.0 1.047e+04 2.254e-10
 60.78024     53.9 1.040e+04 2.079e-10
 60.82039     55.0 1.036e+04 1.454e-10
 60.86053     55.3 1.049e+04 8.407e-11
 60.88107     55.1 1.005e+04 6.109e-11
 60.90115     54.5 9.834e+03 5.960e-11
 60.94082     55.5 9.768e+03 6.025e-11
 60.98096     56.9 9.752e+03 6.376e-11
 61.02110     58.5 9.854e+03 6.804e-11
 61.04613     60.1 1.005e+04 7.758e-11
 61.06620     60.9 9.886e+03 7.048e-11
 61.10139     62.3 1.009e+04 7.945e-11
 61.14153     63.8 1.018e+04 1.031e-10
 61.18167     65.5 1.021e+04 1.420e-10
 61.21118     67.4 1.028e+04 1.891e-10
 61.23125     68.1 1.020e+04 1.656e-10
 61.26196     70.2 1.032e+04 2.157e-10
 61.30210     72.3 1.047e+04 2.586e-10
 61.34224     74.1 1.063e+04 2.913e-10
 61.37623     75.8 1.080e+04 3.365e-10
 61.39631     76.7 1.078e+04 3.314e-10
 61.42253     78.1 1.118e+04 4.390e-10
 61.45254     78.0 1.138e+04 5.407e-10
 61.46860     78.2 1.148e+04 6.268e-10
 61.47864     78.8 1.154e+04 6.447e-10
 61.49258     79.3 1.182e+04 8.291e-10
 61.51266     79.8 1.210e+04 1.058e-09
 61.53273     80.3 1.229e+04 1.302e-09
 61.55113     80.9 1.244e+04 1.529e-09
 61.56116     81.0 1.252e+04 1.534e-09
 61.57287     81.6 1.270e+04 1.680e-09
 61.59294     82.1 1.278e+04 1.691e-09
 61.62315     82.5 1.272e+04 1.531e-09
 61.66339     83.2 1.240e+04 1.219e-09
 61.70353     84.1 1.203e+04 8.171e-10
 61.72641     84.8 1.172e+04 5.361e-10
 61.74648     84.9 1.170e+04 6.028e-10
 61.78382     85.7 1.143e+04 4.352e-10
 61.82396     86.8 1.131e+04 4.204e-10
 61.86410     88.1 1.130e+04 4.635e-10
 61.89147     89.7 1.138e+04 5.511e-10
 61.91154     90.0 1.121e+04 4.414e-10
 61.94439     91.7 1.135e+04 5.442e-10
 61.98453     93.4 1.147e+04 6.151e-10
 62.02467     95.1 1.147e+04 6.072e-10
 62.05652     96.8 1.144e+04 5.407e-10
 62.07659     97.1 1.152e+04 6.026e-10
 62.10496     98.6 1.145e+04 4.956e-10
 62.14510    100.1 1.137e+04 4.135e-10
 62.18524    101.5 1.137e+04 4.124e-10
 62.22157    102.9 1.147e+04 4.405e-10
 62.24164    103.1 1.153e+04 4.705e-10
 62.26553    104.2 1.167e+04 5.384e-10
 62.30567    105.2 1.173e+04 6.045e-10
 62.34582    106.2 1.181e+04 6.377e-10
 62.38596    107.1 1.181e+04 6.214e-10
 62.40670    107.8 1.174e+04 5.762e-10
 62.41664    107.8 1.182e+04 6.161e-10
 62.43594    108.0 1.177e+04 6.209e-10
 62.45601    108.4 1.170e+04 6.322e-10
 62.47609    108.8 1.168e+04 6.494e-10
 62.48903    109.2 1.168e+04 6.722e-10
 62.49906    109.6 1.174e+04 7.756e-10
 62.51623    110.0 1.180e+04 8.104e-10
 62.53630    110.4 1.191e+04 8.443e-10
 62.55637    110.5 1.205e+04 8.850e-10
 62.57156    110.5 1.223e+04 9.344e-10
 62.58159    110.3 1.238e+04 1.045e-09
 62.59651    110.0 1.253e+04 1.180e-09
 62.61659    109.8 1.264e+04 1.402e-09
 62.63666    109.8 1.269e+04 1.679e-09
 62.65408    109.9 1.277e+04 1.946e-09
 62.66412    109.8 1.280e+04 2.059e-09
 62.67680    110.0 1.290e+04 2.151e-09
 62.69687    109.9 1.300e+04 2.189e-09
 62.71694    109.7 1.318e+04 2.245e-09
 62.73661    108.9 1.345e+04 2.400e-09
 62.74664    107.7 1.364e+04 2.438e-09
 62.75709    105.4 1.439e+04 2.935e-09
 62.77716    102.8 1.508e+04 4.104e-09
 62.79723    101.1 1.537e+04 5.769e-09
 62.81730    100.3 1.533e+04 6.924e-09
 62.82917    100.0 1.517e+04 6.814e-09
 62.83921     99.3 1.515e+04 6.828e-09
 62.85744     99.2 1.456e+04 5.219e-09
 62.87751     99.2 1.391e+04 3.571e-09
 62.89759     99.0 1.355e+04 2.570e-09
 62.91170     98.6 1.306e+04 1.818e-09
 62.92183     97.7 1.311e+04 1.916e-09
 62.94796     97.6 1.251e+04 1.346e-09
 62.98810     98.7 1.212e+04 9.971e-10
 63.02825    100.4 1.183e+04 7.877e-10
 63.06691    102.1 1.171e+04 6.785e-10
 63.08698    102.2 1.171e+04 7.115e-10
 63.10853    103.8 1.164e+04 5.571e-10
 63.14867    105.1 1.167e+04 4.805e-10
 63.18525    106.2 1.166e+04 4.702e-10
 63.20532    105.8 1.162e+04 5.650e-10
 63.22896    106.9 1.165e+04 5.968e-10
 63.25204    107.9 1.163e+04 5.968e-10
 63.27211    108.3 1.135e+04 5.056e-10
 63.30925    109.7 1.130e+04 4.866e-10
 63.34939    111.2 1.123e+04 4.303e-10
 63.38953    112.8 1.112e+04 3.448e-10
 63.41709    114.4 1.095e+04 2.583e-10
 63.43716    115.2 1.097e+04 2.689e-10
 63.46982    116.8 1.080e+04 2.005e-10
 63.50996    118.6 1.065e+04 1.549e-10
 63.55010    120.4 1.052e+04 1.276e-10
 63.58214    122.4 1.042e+04 1.115e-10
 63.60221    123.0 1.048e+04 1.140e-10
 63.63039    125.1 1.039e+04 1.004e-10
 63.67053    127.2 1.034e+04 9.021e-11
 63.71067    129.5 1.032e+04 8.168e-11
 63.74720    131.9 1.029e+04 7.538e-11
 63.76727    132.2 1.029e+04 7.479e-11
 63.79096    134.5 1.027e+04 7.061e-11
 63.83110    136.8 1.024e+04 6.777e-11
 63.87125    139.1 1.023e+04 6.560e-11
 63.91139    141.4 1.021e+04 6.343e-11
 63.93232    143.6 1.021e+04 6.082e-11
 63.95239    144.0 1.019e+04 6.477e-11
 63.99167    146.3 1.019e+04 6.172e-11
 64.03182    148.4 1.019e+04 5.802e-11
 64.07196    150.5 1.021e+04 5.481e-11
 64.09737    152.6 1.025e+04 5.337e-11
 64.11745    153.1 1.027e+04 5.574e-11
 64.15225    155.0 1.032e+04 5.488e-11
 64.19239    156.8 1.036e+04 5.538e-11
 64.23253    158.5 1.044e+04 5.895e-11
 64.26243    160.0 1.049e+04 6.911e-11
 64.28250    160.7 1.050e+04 6.905e-11
 64.31282    162.1 1.055e+04 9.159e-11
 64.35296    163.3 1.067e+04 1.366e-10
 64.39310    164.2 1.089e+04 2.134e-10
 64.42748    164.6 1.118e+04 3.159e-10
 64.44755    165.1 1.120e+04 3.251e-10
 64.47339    165.2 1.152e+04 4.475e-10
 64.51353    164.9 1.171e+04 5.415e-10
 64.55367    164.6 1.160e+04 5.857e-10
 64.59253    163.8 1.164e+04 6.494e-10
 64.61261    163.6 1.202e+04 8.665e-10
 64.63396    162.4 1.217e+04 9.093e-10
 64.67410    160.8 1.217e+04 8.776e-10
 64.71425    159.9 1.204e+04 7.240e-10
 64.75439    159.7 1.184e+04 4.701e-10
 64.77766    159.4 1.165e+04 2.808e-10
 64.79773    158.4 1.160e+04 2.448e-10
 64.83467    158.2 1.114e+04 2.094e-10
 64.87482    158.8 1.111e+04 2.115e-10
 64.91496    159.7 1.111e+04 2.423e-10
 64.94271    160.4 1.127e+04 3.784e-10
 64.96278    159.2 1.150e+04 4.468e-10
 64.99525    159.6 1.201e+04 8.096e-10
 65.03539    159.5 1.248e+04 1.239e-09
 65.07553    158.8 1.280e+04 1.419e-09
 65.10777    157.5 1.277e+04 1.348e-09
 65.12784    155.6 1.253e+04 1.083e-09
 65.15582    155.0 1.215e+04 7.791e-10
 65.19596    154.8 1.163e+04 4.725e-10
 65.23610    154.7 1.100e+04 3.032e-10
 65.27282    155.2 1.059e+04 2.770e-10
 65.29289    154.7 1.052e+04 2.602e-10
 65.31639    156.1 1.049e+04 2.599e-10
 65.35653    157.7 1.045e+04 2.682e-10
 65.39668    159.3 1.042e+04 2.802e-10
 65.43682    160.7 1.042e+04 2.799e-10
 65.45794    161.8 1.040e+04 2.720e-10
 65.47802    161.4 1.028e+04 2.344e-10
 65.51710    162.4 1.021e+04 2.160e-10
 65.55725    163.4 1.008e+04 1.918e-10
 65.59739    164.6 9.906e+03 1.681e-10
 65.62300    165.9 9.750e+03 1.456e-10
 65.64307    166.1 9.712e+03 1.615e-10
 65.67768    167.6 9.623e+03 1.534e-10
 65.71782    169.2 9.565e+03 1.465e-10
 65.75796    170.7 9.528e+03 1.417e-10
 65.78805    172.3 9.505e+03 1.401e-10
 65.80812    172.7 9.654e+03 1.885e-10
 65.83825    174.2 9.645e+03 1.869e-10
 65.87839    175.7 9.636e+03 1.861e-10
 65.91853    177.2 9.640e+03 1.864e-10
 65.95310    178.7 9.655e+03 1.930e-10
 65.97318    179.0 9.857e+03 2.605e-10
 65.99882    180.3 9.930e+03 2.916e-10
 66.03896    181.6 1.007e+04 3.587e-10
 66.07910    182.9 1.030e+04 4.603e-10
 66.11816    183.9 1.055e+04 5.671e-10
 66.13823    183.8 1.066e+04 6.135e-10
 66.15939    184.7 1.083e+04 6.344e-10
 66.19953    185.3 1.086e+04 6.288e-10
 66.23968    185.9 1.088e+04 5.984e-10
 66.26969    186.2 1.088e+04 5.815e-10
 66.28966    186.5 1.085e+04 5.537e-10
 66.30309    186.6 1.079e+04 5.054e-10
 66.31312    186.9 1.087e+04 5.566e-10
 66.32980    187.1 1.083e+04 5.237e-10
 66.34987    187.2 1.074e+04 4.804e-10
 66.36995    187.3 1.068e+04 4.591e-10
 66.40015    188.2 1.064e+04 4.549e-10
 66.44039    189.2 1.059e+04 4.508e-10
 66.46824    190.3 1.070e+04 4.931e-10
 66.47818    191.0 1.081e+04 5.143e-10
 66.49037    191.7 1.080e+04 5.343e-10
 66.51045    192.3 1.081e+04 5.635e-10
 66.53052    192.8 1.074e+04 6.106e-10
 66.55059    193.4 1.070e+04 6.692e-10
 66.57066    194.3 1.087e+04 7.779e-10
 66.59073    195.0 1.091e+04 8.951e-10
 66.61080    195.6 1.101e+04 1.026e-09
 66.63087    196.2 1.116e+04 1.160e-09
 66.64323    196.8 1.132e+04 1.271e-09
 66.65327    197.2 1.166e+04 1.566e-09
 66.67102    197.6 1.190e+04 1.717e-09
 66.69109    197.8 1.200e+04 1.717e-09
 66.71116    197.9 1.203e+04 1.696e-09
 66.72576    197.9 1.208e+04 1.630e-09
 66.73579    198.5 1.269e+04 2.362e-09
 66.75130    198.5 1.270e+04 2.254e-09
 66.77137    198.2 1.261e+04 2.098e-09
 66.79145    197.9 1.242e+04 1.870e-09
 66.80828    197.4 1.215e+04 1.581e-09
 66.81832    198.3 1.298e+04 2.408e-09
 66.83159    197.7 1.260e+04 1.869e-09
 66.85166    196.8 1.214e+04 1.355e-09
 66.87173    195.3 1.165e+04 9.639e-10
 66.89081    193.4 1.123e+04 7.616e-10
 66.90085    193.6 1.204e+04 1.048e-09
 66.91187    191.3 1.158e+04 9.177e-10
 66.93195    189.5 1.129e+04 9.147e-10
 66.95202    188.3 1.120e+04 9.298e-10
 66.97209    187.4 1.113e+04 9.390e-10
 66.98337    186.9 1.107e+04 9.310e-10
 66.99341    186.3 1.118e+04 9.833e-10
 67.01223    186.0 1.107e+04 9.241e-10
 67.03230    185.9 1.093e+04 8.608e-10
 67.05237    186.0 1.077e+04 8.066e-10
 67.06590    186.2 1.072e+04 7.952e-10
 67.07593    185.4 1.087e+04 8.422e-10
 67.09252    185.5 1.098e+04 8.848e-10
 67.11259    185.3 1.140e+04 1.014e-09
 67.13266    184.8 1.217e+04 1.279e-09
 67.14843    184.4 1.301e+04 1.709e-09
 67.15846    183.5 1.366e+04 2.413e-09
 67.17280    183.5 1.429e+04 3.257e-09
 67.19287    183.6 1.465e+04 4.069e-09
 67.21295    183.9 1.482e+04 4.663e-09
 67.23095    184.4 1.480e+04 4.984e-09
 67.24099    184.7 1.561e+04 7.100e-09
 67.25309    185.3 1.556e+04 6.904e-09
 67.27316    186.0 1.540e+04 6.496e-09
 67.29323    186.7 1.530e+04 6.183e-09
 67.31330    187.6 1.529e+04 5.828e-09
 67.32352    188.4 1.528e+04 5.334e-09
 67.33355    188.8 1.534e+04 5.224e-09
 67.35345    189.4 1.524e+04 4.741e-09
 67.37352    190.1 1.516e+04 4.442e-09
 67.39359    190.7 1.514e+04 4.314e-09
 67.40604    191.6 1.519e+04 4.271e-09
 67.41608    191.6 1.495e+04 3.468e-09
 67.43373    192.4 1.504e+04 3.584e-09
 67.45380    193.2 1.527e+04 3.787e-09
 67.47387    193.7 1.559e+04 4.121e-09
 67.48852    194.0 1.551e+04 4.064e-09
 67.49856    194.1 1.548e+04 4.138e-09
 67.50895    194.3 1.572e+04 4.429e-09
 67.51894    194.3 1.630e+04 5.251e-09
 67.52897    194.2 1.684e+04 6.151e-09
 67.53475    194.0 1.727e+04 7.086e-09
 67.53977    194.3 1.728e+04 6.993e-09
 67.54904    193.9 1.777e+04 8.606e-09
 67.55908    193.5 1.814e+04 1.009e-08
 67.56912    192.9 1.846e+04 1.174e-08
 67.57602    192.5 1.864e+04 1.326e-08
 67.58103    192.7 1.891e+04 1.465e-08
 67.58919    192.3 1.908e+04 1.664e-08
 67.59922    192.1 1.922e+04 1.835e-08
 67.60926    191.7 1.939e+04 2.013e-08
 67.61728    191.5 1.942e+04 2.054e-08
 67.62230    191.9 1.986e+04 2.305e-08
 67.63440    191.0 1.973e+04 2.203e-08
 67.65362    189.9 1.939e+04 1.885e-08
 67.66361    189.9 1.980e+04 1.950e-08
 67.67454    188.6 1.900e+04 1.196e-08
 67.69466    186.2 1.777e+04 6.444e-09
 67.71473    182.3 1.698e+04 4.464e-09
 67.73480    178.6 1.665e+04 4.444e-09
 67.74618    176.1 1.641e+04 4.630e-09
 67.75622    173.6 1.620e+04 5.404e-09
 67.77495    172.5 1.605e+04 6.021e-09
 67.79502    171.4 1.641e+04 6.024e-09
 67.81509    169.6 1.665e+04 5.202e-09
 67.82871    166.5 1.643e+04 3.461e-09
 67.83875    163.1 1.534e+04 3.035e-09
 67.85523    158.7 1.367e+04 1.918e-09
 67.87530    154.8 1.238e+04 1.370e-09
 67.89537    152.4 1.180e+04 1.108e-09
 67.91124    151.2 1.163e+04 9.864e-10
 67.92127    152.0 1.188e+04 1.133e-09
 67.93552    151.8 1.180e+04 1.012e-09
 67.95559    151.7 1.157e+04 8.809e-10
 67.97566    151.6 1.124e+04 7.510e-10
 67.99376    151.6 1.090e+04 6.398e-10
 68.00380    152.4 1.112e+04 7.072e-10
 68.01580    152.2 1.084e+04 6.330e-10
 68.03587    152.2 1.065e+04 5.959e-10
 68.05595    152.1 1.052e+04 5.835e-10
 68.07602    152.4 1.056e+04 5.970e-10
 68.08633    152.5 1.057e+04 6.064e-10
 68.09636    152.8 1.079e+04 6.614e-10
 68.11616    152.8 1.085e+04 6.921e-10
 68.13623    152.7 1.098e+04 7.409e-10
 68.15630    152.5 1.120e+04 8.199e-10
 68.16885    152.1 1.129e+04 8.814e-10
 68.17889    152.0 1.153e+04 9.465e-10
 68.19645    151.6 1.162e+04 1.008e-09
 68.21652    151.5 1.171e+04 1.065e-09
 68.24672    150.7 1.197e+04 1.134e-09
 68.28696    150.9 1.198e+04 1.128e-09
 68.32407    151.8 1.192e+04 1.087e-09
 68.34414    150.5 1.194e+04 1.051e-09
 68.36725    151.9 1.183e+04 9.690e-10
 68.40739    153.6 1.167e+04 8.888e-10
 68.44753    155.5 1.152e+04 8.280e-10
 68.48768    157.7 1.139e+04 7.848e-10
 68.50919    159.9 1.129e+04 7.522e-10
 68.52926    159.0 1.089e+04 5.018e-10
 68.56796    161.2 1.070e+04 4.354e-10
 68.60811    163.3 1.049e+04 3.688e-10
 68.64825    165.5 1.026e+04 3.042e-10
 68.67424    167.6 1.002e+04 2.461e-10
 68.69432    166.7 9.370e+03 1.235e-10
 68.72853    168.9 9.180e+03 1.097e-10
 68.76868    171.1 9.071e+03 1.030e-10
 68.80882    173.3 9.044e+03 1.014e-10
 68.83930    175.5 9.056e+03 1.038e-10
 68.85937    175.3 8.953e+03 1.012e-10
 68.88911    177.5 9.045e+03 1.107e-10
 68.92925    179.5 9.148e+03 1.182e-10
 68.96939    181.3 9.232e+03 1.244e-10
 69.00435    182.9 9.282e+03 1.294e-10
 69.02442    182.9 9.274e+03 1.364e-10
 69.04968    184.3 9.293e+03 1.421e-10
 69.08982    185.5 9.274e+03 1.515e-10
 69.12996    186.4 9.262e+03 1.722e-10
 69.16940    187.2 9.331e+03 2.134e-10
 69.18948    187.7 9.453e+03 2.477e-10
 69.21025    188.6 9.570e+03 3.077e-10
 69.25039    189.0 9.690e+03 3.749e-10
 69.29054    189.1 9.725e+03 4.201e-10
 69.32054    189.8 9.766e+03 4.747e-10
 69.34052    189.9 9.831e+03 5.081e-10
 69.35433    189.8 9.940e+03 5.456e-10
 69.36437    190.6 1.004e+04 5.832e-10
 69.38066    190.0 1.024e+04 6.527e-10
 69.40073    189.0 1.059e+04 7.948e-10
 69.42080    187.8 1.110e+04 1.055e-09
 69.43686    186.3 1.171e+04 1.466e-09
 69.44690    187.0 1.212e+04 1.648e-09
 69.46095    185.4 1.284e+04 2.389e-09
 69.48102    183.9 1.343e+04 3.232e-09
 69.50109    182.4 1.383e+04 3.733e-09
 69.51939    180.5 1.390e+04 3.730e-09
 69.52942    180.7 1.480e+04 5.141e-09
 69.54123    178.4 1.477e+04 5.023e-09
 69.56130    175.5 1.468e+04 4.566e-09
 69.58138    172.0 1.483e+04 4.197e-09
 69.60145    168.1 1.497e+04 4.207e-09
 69.61195    164.2 1.524e+04 4.435e-09
 69.62199    162.6 1.633e+04 5.815e-09
 69.64159    158.8 1.669e+04 6.927e-09
 69.66166    155.9 1.729e+04 8.861e-09
 69.68173    153.6 1.822e+04 1.151e-08
 69.69448    151.4 1.929e+04 1.437e-08
 69.70451    149.0 1.990e+04 1.544e-08
 69.72188    146.5 2.022e+04 1.577e-08
 69.74195    143.8 2.011e+04 1.517e-08
 69.76202    141.4 1.947e+04 1.306e-08
 69.77700    139.5 1.828e+04 9.961e-09
 69.78704    137.5 1.656e+04 5.868e-09
 69.80216    135.9 1.522e+04 4.181e-09
 69.82223    134.3 1.417e+04 3.131e-09
 69.84230    132.7 1.349e+04 2.592e-09
 69.85953    131.3 1.331e+04 2.463e-09
 69.86957    130.4 1.316e+04 2.506e-09
 69.88245    129.7 1.372e+04 2.802e-09
 69.90252    129.0 1.437e+04 3.292e-09
 69.92259    128.4 1.489e+04 3.849e-09
 69.94206    128.0 1.523e+04 4.300e-09
 69.95204    128.5 1.562e+04 4.888e-09
 69.95762    128.4 1.574e+04 4.878e-09
 69.96765    128.4 1.578e+04 4.861e-09
 69.97769    128.5 1.582e+04 4.835e-09
 69.98772    128.6 1.582e+04 4.809e-09
 69.99326    128.7 1.584e+04 4.664e-09
 69.99828    129.5 1.638e+04 5.525e-09
 70.00780    129.9 1.629e+04 5.349e-09
 70.01783    130.6 1.609e+04 5.050e-09
 70.02787    130.5 1.653e+04 4.934e-09
 70.03452    127.8 1.987e+04 5.592e-09
 70.03954    123.4 2.671e+04 1.354e-08
 70.04794    114.9 3.248e+04 2.840e-08
 70.05513    109.4 3.290e+04 4.170e-08
 70.05761    108.2 3.377e+04 5.542e-08
 70.06044    105.2 3.201e+04 7.826e-08
 70.06545    102.2 2.928e+04 1.146e-07
 70.07047     99.9 2.678e+04 1.487e-07
 70.07549     97.8 2.482e+04 1.802e-07
 70.07825     96.2 2.393e+04 1.921e-07
 70.08075     94.8 2.308e+04 3.695e-07
 70.08552     93.5 2.339e+04 3.344e-07
 70.09054     92.3 2.341e+04 2.550e-07
 70.09809     91.7 2.374e+04 3.262e-07
 70.10815     90.7 2.711e+04 7.237e-08
 70.11705     88.0 3.245e+04 1.579e-08
 70.12713     81.3 3.951e+04 2.656e-09
 70.14338     67.8 1.979e+04 1.507e-09
 70.16345     62.6 1.300e+04 1.714e-09
 70.18352     62.3 1.309e+04 2.175e-09
 70.19967     62.9 1.367e+04 3.073e-09
 70.20971     64.3 1.345e+04 2.725e-09
 70.22366     65.1 1.398e+04 3.508e-09
 70.24373     65.6 1.429e+04 3.964e-09
 70.26380     65.8 1.429e+04 3.954e-09
 70.28220     66.0 1.419e+04 3.760e-09
 70.29224     67.0 1.378e+04 3.239e-09
 70.30395     66.9 1.358e+04 2.976e-09
 70.32402     66.6 1.323e+04 2.618e-09
 70.34409     66.3 1.276e+04 2.244e-09
 70.36416     66.4 1.225e+04 1.885e-09
 70.37476     66.7 1.178e+04 1.575e-09
 70.38480     67.7 1.181e+04 1.615e-09
 70.40431     68.1 1.143e+04 1.369e-09
 70.42438     68.6 1.109e+04 1.156e-09
 70.44445     69.0 1.079e+04 9.825e-10
 70.45729     69.3 1.051e+04 8.439e-10
 70.46732     70.1 1.075e+04 9.561e-10
 70.48459     70.2 1.047e+04 8.268e-10
 70.50466     70.3 1.022e+04 7.361e-10
 70.52473     70.3 1.005e+04 7.089e-10
 70.53982     70.5 1.004e+04 7.140e-10
 70.54985     70.7 1.026e+04 7.908e-10
 70.56488     70.7 1.032e+04 8.227e-10
 70.58495     70.4 1.059e+04 9.533e-10
 70.60502     69.8 1.129e+04 1.276e-09
 70.62234     69.0 1.244e+04 1.929e-09
 70.63238     67.7 1.365e+04 3.017e-09
 70.64010     68.3 1.399e+04 3.510e-09
 70.65008     68.3 1.427e+04 3.761e-09
 70.66012     68.0 1.502e+04 4.578e-09
 70.66853     67.3 1.622e+04 6.040e-09
 70.67354     65.0 1.809e+04 9.464e-09
 70.68019     63.9 1.950e+04 1.345e-08
 70.69023     62.4 2.103e+04 2.003e-08
 70.70026     59.5 2.328e+04 3.280e-08
 70.70979     55.7 2.525e+04 6.386e-08
 70.71481     55.0 2.420e+04 8.408e-08
 70.72033     51.3 2.420e+04 1.553e-07
 70.73037     48.1 2.265e+04 3.121e-07
 70.74040     46.0 2.157e+04 4.722e-07
 70.75044     44.0 2.175e+04 4.841e-07
 70.75607     41.5 2.277e+04 3.639e-07
 70.76109     38.1 2.538e+04 1.418e-07
 70.77051     32.9 2.733e+04 7.075e-08
 70.78055     26.1 2.614e+04 3.826e-08
 70.79058     20.4 2.236e+04 2.610e-08
 70.79733     18.2 2.096e+04 2.102e-08
 70.80235     17.1 2.154e+04 2.316e-08
 70.81065     16.9 2.119e+04 2.050e-08
 70.82069     16.8 2.080e+04 1.779e-08
 70.83073     16.8 2.022e+04 1.523e-08
 70.84583     16.8 1.972e+04 1.372e-08
 70.86595     16.7 1.796e+04 8.868e-09
 70.87996     16.5 1.602e+04 5.673e-09
 70.88999     15.4 1.555e+04 4.885e-09
 70.90609     15.1 1.375e+04 3.104e-09
 70.92616     15.3 1.274e+04 2.260e-09
 70.94623     16.1 1.205e+04 1.722e-09
 70.97644     17.5 1.117e+04 1.118e-09
 71.01668     19.9 1.045e+04 8.085e-10
 71.04521     22.4 1.004e+04 6.342e-10
 71.06528     21.3 9.293e+03 3.946e-10
 71.09697     23.4 9.052e+03 3.241e-10
 71.13711     25.6 8.895e+03 2.911e-10
 71.17725     27.7 8.800e+03 2.763e-10
 71.21026     29.7 8.783e+03 2.716e-10
 71.23033     29.4 8.555e+03 2.356e-10
 71.25754     31.4 8.668e+03 2.368e-10
 71.29768     33.3 8.873e+03 2.487e-10
 71.33782     34.3 9.244e+03 2.856e-10
 71.37531     33.4 9.991e+03 4.530e-10
 71.39538     31.9 9.901e+03 4.679e-10
 71.41811     30.6 1.096e+04 9.587e-10
 71.45825     29.4 1.181e+04 1.580e-09
 71.49839     27.5 1.208e+04 1.731e-09
 71.52840     26.1 1.216e+04 1.745e-09
 71.54838     24.8 1.221e+04 1.685e-09
 71.56024     22.1 1.248e+04 1.744e-09
 71.57028     22.0 1.292e+04 2.059e-09
 71.58852     19.9 1.288e+04 2.026e-09
 71.60859     17.9 1.264e+04 1.902e-09
 71.62866     15.3 1.263e+04 1.784e-09
 71.64277     10.1 1.384e+04 1.884e-09
 71.65281      7.3 1.553e+04 3.111e-09
 71.66881      2.2 1.428e+04 3.002e-09
 71.68888     -1.1 1.261e+04 2.874e-09
 71.70895     -1.7 1.218e+04 2.823e-09
 71.72530     -1.2 1.204e+04 2.668e-09
 71.73533     -0.8 1.210e+04 2.253e-09
 71.74909     -1.2 1.211e+04 1.616e-09
 71.76916     -4.3 1.185e+04 1.068e-09
 71.78923     -9.2 1.047e+04 7.606e-10
 71.80782    -11.5 1.013e+04 7.299e-10
 71.81786    -11.9 1.014e+04 6.672e-10
 71.82938    -13.6 1.043e+04 9.040e-10
 71.84945    -14.4 1.087e+04 1.219e-09
 71.86952    -14.8 1.110e+04 1.468e-09
 71.88959    -14.2 1.145e+04 1.678e-09
 71.90039    -14.2 1.144e+04 1.660e-09
 71.91042    -14.0 1.128e+04 1.613e-09
 71.92973    -14.1 1.134e+04 1.368e-09
 71.94981    -15.9 1.142e+04 1.078e-09
 71.96988    -19.4 1.079e+04 8.011e-10
 71.98291    -21.8 1.018e+04 6.779e-10
 71.99295    -21.9 1.023e+04 7.154e-10
 72.02015    -23.0 9.889e+03 6.023e-10
 72.05560    -24.8 9.786e+03 5.186e-10
 72.07567    -25.1 1.032e+04 7.380e-10
 72.10054    -28.8 1.043e+04 5.912e-10
 72.14068    -34.6 1.118e+04 6.249e-10
 72.18082    -39.9 1.181e+04 9.921e-10
 72.22065    -43.2 1.188e+04 1.234e-09
 72.24072    -45.5 1.201e+04 1.558e-09
 72.25098    -46.3 1.112e+04 1.009e-09
 72.27095    -46.9 1.059e+04 6.091e-10
 72.30115    -48.0 9.837e+03 3.162e-10
 72.34139    -49.3 9.113e+03 1.679e-10
 72.38154    -50.0 8.526e+03 9.965e-11
 72.40578    -50.0 8.377e+03 8.970e-11
 72.42585    -50.8 8.335e+03 8.720e-11
 72.46182    -50.4 8.434e+03 9.621e-11
 72.50197    -50.1 8.581e+03 1.196e-10
 72.54211    -49.7 8.696e+03 1.373e-10
 72.57083    -49.2 8.741e+03 1.414e-10
 72.59090    -50.0 8.821e+03 1.454e-10
 72.62239    -49.7 8.848e+03 1.408e-10
 72.66254    -49.6 8.810e+03 1.383e-10
 72.70268    -49.4 8.756e+03 1.432e-10
 72.73588    -48.9 8.749e+03 1.507e-10
 72.75595    -49.6 8.863e+03 2.000e-10
 72.78297    -48.8 8.775e+03 1.971e-10
 72.82311    -47.9 8.661e+03 1.774e-10
 72.86325    -47.1 8.548e+03 1.558e-10
 72.90094    -46.4 8.455e+03 1.393e-10
 72.92101    -46.7 8.379e+03 1.400e-10
 72.94354    -45.9 8.316e+03 1.214e-10
 72.98368    -45.3 8.332e+03 1.144e-10
 73.02382    -44.8 8.400e+03 1.150e-10
 73.06397    -44.4 8.503e+03 1.253e-10
 73.08606    -43.9 8.560e+03 1.364e-10
 73.10613    -44.3 8.539e+03 1.357e-10
 73.14425    -43.7 8.586e+03 1.439e-10
 73.18440    -43.3 8.623e+03 1.471e-10
 73.22454    -43.1 8.707e+03 1.546e-10
 73.25112    -43.2 8.925e+03 1.855e-10
 73.27119    -44.0 9.064e+03 2.355e-10
 73.30482    -44.0 9.385e+03 3.437e-10
 73.34497    -43.5 9.698e+03 4.587e-10
 73.38511    -42.8 9.846e+03 5.015e-10
 73.41617    -42.0 9.849e+03 4.951e-10
 73.43624    -42.1 9.685e+03 4.220e-10
 73.46540    -41.2 9.405e+03 2.766e-10
 73.50554    -40.5 9.150e+03 1.944e-10
 73.54456    -39.8 9.019e+03 1.637e-10
 73.56463    -39.4 9.034e+03 1.711e-10
 73.58122    -38.3 8.954e+03 1.566e-10
 73.60129    -38.8 8.764e+03 1.278e-10
 73.62597    -37.3 8.724e+03 1.217e-10
 73.66611    -35.8 8.699e+03 1.152e-10
 73.70625    -34.3 8.694e+03 1.086e-10
 73.74628    -32.9 8.710e+03 1.053e-10
 73.78642    -32.3 8.710e+03 7.976e-11
 73.82668    -31.8 8.855e+03 1.044e-10
 73.86682    -31.0 8.963e+03 1.593e-10
 73.90697    -29.6 9.143e+03 2.339e-10
 73.93140    -27.9 9.334e+03 2.860e-10
 73.95147    -28.0 9.069e+03 2.405e-10
 73.98725    -26.3 9.126e+03 2.361e-10
 74.02740    -24.7 9.118e+03 1.685e-10
 74.06754    -23.5 9.058e+03 1.166e-10
 74.09645    -22.6 9.029e+03 9.016e-11
 74.11653    -22.6 8.877e+03 6.920e-11
 74.14782    -21.5 8.895e+03 6.552e-11
 74.18797    -20.4 9.076e+03 7.074e-11
 74.22811    -19.3 9.144e+03 9.058e-11
 74.26151    -17.8 9.221e+03 1.196e-10
 74.28158    -17.8 9.086e+03 9.965e-11
 74.30840    -16.3 9.204e+03 1.238e-10
 74.34854    -14.8 9.292e+03 1.433e-10
 74.38868    -13.1 9.351e+03 1.510e-10
 74.42656    -11.6 9.286e+03 1.431e-10
 74.44663    -11.4 9.232e+03 1.352e-10
 74.46897    -10.1 9.227e+03 1.160e-10
 74.50911     -9.0 9.031e+03 1.082e-10
 74.54925     -7.5 8.782e+03 1.115e-10
 74.58940     -5.5 8.681e+03 1.022e-10
 74.61169     -3.6 8.666e+03 8.807e-11
 74.63176     -3.5 8.597e+03 7.805e-11
 74.66968     -1.6 8.527e+03 6.970e-11
 74.70982      0.4 8.469e+03 6.228e-11
 74.74997      2.4 8.435e+03 5.588e-11
 74.77674      4.3 8.423e+03 5.085e-11
 74.79681      4.1 8.464e+03 4.427e-11
 74.83025      5.9 8.430e+03 4.636e-11
 74.87040      7.8 8.404e+03 5.321e-11
 74.91054      9.7 8.410e+03 6.146e-11
 74.94179     11.7 8.473e+03 7.196e-11
 74.96186     11.8 8.605e+03 7.878e-11
 74.99082     13.7 8.743e+03 9.280e-11
 75.03097     15.2 8.902e+03 1.086e-10
 75.07111     16.6 9.084e+03 1.257e-10
 75.10685     17.5 9.361e+03 1.509e-10
 75.12692     16.8 9.894e+03 2.094e-10
 75.15140     17.5 1.023e+04 2.777e-10
 75.19154     18.4 1.034e+04 3.212e-10
 75.23168     19.7 1.020e+04 3.057e-10
 75.27183     20.7 1.017e+04 2.703e-10
 75.31197     21.2 1.043e+04 2.498e-10
 75.35211     22.2 1.047e+04 2.499e-10
 75.39225     23.1 1.059e+04 2.734e-10
 75.43240     24.2 1.084e+04 2.985e-10
 75.45702     25.1 1.117e+04 3.257e-10
 75.47710     24.3 1.143e+04 3.768e-10
 75.50255     24.3 1.153e+04 3.970e-10
 75.52252     24.5 1.155e+04 4.531e-10
 75.53936     24.1 1.192e+04 5.512e-10
 75.54939     23.3 1.231e+04 6.233e-10
 75.56267     19.1 1.436e+04 1.285e-09
 75.58274     15.1 1.547e+04 3.890e-09
 75.60281     16.1 1.540e+04 7.092e-09
 75.62188     18.1 1.507e+04 6.882e-09
 75.63192     18.6 1.479e+04 5.717e-09
 75.64295     19.6 1.439e+04 3.723e-09
 75.66302     18.1 1.463e+04 1.800e-09
 75.68309     13.5 1.426e+04 7.978e-10
 75.70317      8.4 1.259e+04 6.249e-10
 75.71444      4.3 1.283e+04 7.442e-10
 75.72448      5.6 1.289e+04 7.927e-10
 75.74331      2.5 1.316e+04 1.424e-09
 75.76338      0.2 1.400e+04 2.692e-09
 75.78345     -4.4 1.690e+04 5.037e-09
 75.79697    -12.0 2.085e+04 9.101e-09
 75.80701    -14.2 2.164e+04 1.629e-08
 75.82359    -18.7 2.024e+04 2.380e-08
 75.84367    -20.2 1.837e+04 2.427e-08
 75.86374    -18.2 1.729e+04 1.673e-08
 75.87950    -16.2 1.769e+04 7.604e-09
 75.88953    -18.6 1.751e+04 4.771e-09
 75.90388    -26.7 1.505e+04 1.780e-09
 75.92395    -32.1 1.216e+04 1.163e-09
 75.94402    -32.5 1.197e+04 1.202e-09
 75.96202    -32.9 1.211e+04 1.361e-09
 75.97206    -33.5 1.198e+04 1.219e-09
 75.98417    -34.1 1.218e+04 1.310e-09
 76.00424    -34.9 1.232e+04 1.346e-09
 76.02431    -36.1 1.224e+04 1.300e-09
 76.04438    -37.3 1.177e+04 1.101e-09
 76.05459    -38.4 1.132e+04 8.746e-10
 76.06462    -39.4 1.109e+04 7.900e-10
 76.08452    -40.6 1.084e+04 6.097e-10
 76.10459    -42.4 1.060e+04 4.554e-10
 76.12467    -44.3 1.039e+04 3.723e-10
 76.13711    -45.8 1.012e+04 3.392e-10
 76.15728    -46.7 1.004e+04 3.370e-10
 76.19511    -47.8 9.796e+03 3.112e-10
 76.23525    -48.4 9.461e+03 2.665e-10
 76.27540    -48.6 9.168e+03 2.081e-10
 76.30236    -48.5 8.889e+03 1.632e-10
 76.32243    -48.4 8.733e+03 1.292e-10
 76.35568    -48.0 8.569e+03 1.053e-10
 76.39583    -47.3 8.524e+03 9.866e-11
 76.43597    -46.5 8.536e+03 9.892e-11
 76.46742    -45.9 8.649e+03 1.126e-10
 76.48749    -45.9 8.664e+03 1.136e-10
 76.51625    -45.4 8.810e+03 1.473e-10
 76.55640    -44.7 9.008e+03 1.889e-10
 76.59654    -43.9 9.200e+03 2.202e-10
 76.63247    -43.3 9.288e+03 2.352e-10
 76.65254    -43.2 9.343e+03 2.617e-10
 76.67683    -42.5 9.295e+03 2.480e-10
 76.71697    -41.8 9.217e+03 2.352e-10
 76.75711    -41.0 9.209e+03 2.356e-10
 76.79725    -40.2 9.286e+03 2.648e-10
 76.81759    -39.2 9.438e+03 3.183e-10
 76.83767    -39.4 9.384e+03 2.903e-10
 76.87754    -38.5 9.584e+03 3.548e-10
 76.91768    -37.7 9.853e+03 4.517e-10
 76.95783    -36.7 1.016e+04 5.751e-10
 76.98265    -35.6 1.047e+04 6.718e-10
 77.00272    -36.3 1.023e+04 5.533e-10
 77.03811    -35.8 1.042e+04 5.966e-10
 77.07826    -35.8 1.051e+04 6.025e-10
 77.11840    -36.4 1.069e+04 6.570e-10
 77.14770    -37.0 1.110e+04 9.366e-10
 77.16777    -37.4 1.082e+04 8.614e-10
 77.19868    -37.0 1.124e+04 1.134e-09
 77.22869    -36.6 1.186e+04 1.511e-09
 77.24007    -37.0 1.199e+04 1.674e-09
 77.25010    -36.8 1.170e+04 1.379e-09
 77.26874    -37.2 1.209e+04 1.770e-09
 77.28881    -37.9 1.255e+04 2.149e-09
 77.30888    -38.4 1.325e+04 2.657e-09
 77.32259    -38.9 1.382e+04 3.052e-09
 77.33263    -39.7 1.389e+04 3.444e-09
 77.34902    -39.7 1.408e+04 3.794e-09
 77.36910    -39.4 1.404e+04 3.745e-09
 77.38917    -38.9 1.355e+04 2.945e-09
 77.40512    -39.0 1.260e+04 1.929e-09
 77.41516    -38.3 1.286e+04 2.344e-09
 77.42931    -39.1 1.211e+04 1.498e-09
 77.44938    -39.7 1.137e+04 1.044e-09
 77.47771    -39.9 1.072e+04 7.344e-10
 77.49788    -39.3 1.091e+04 8.616e-10
 77.51983    -38.0 1.010e+04 5.177e-10
 77.55997    -36.8 9.699e+03 3.470e-10
 77.60011    -35.8 9.534e+03 2.960e-10
 77.64026    -34.4 9.470e+03 2.853e-10
 77.66293    -32.9 9.458e+03 2.928e-10
 77.68300    -32.4 9.493e+03 3.339e-10
 77.72054    -30.8 9.435e+03 3.098e-10
 77.76068    -29.2 9.331e+03 2.640e-10
 77.80083    -28.1 9.326e+03 1.993e-10
 77.82799    -27.7 9.483e+03 1.740e-10
 77.84806    -27.1 9.234e+03 1.415e-10
 77.88111    -26.9 9.361e+03 1.301e-10
 77.92126    -26.6 9.583e+03 1.866e-10
 77.96140    -25.8 9.822e+03 3.388e-10
 77.99141    -24.1 9.936e+03 3.758e-10
 78.00288    -24.1 9.963e+03 3.947e-10
 78.01301    -23.8 9.584e+03 2.800e-10
 78.04168    -22.3 9.901e+03 3.678e-10
 78.08183    -21.9 1.056e+04 5.264e-10
 78.12197    -22.2 1.150e+04 9.209e-10
 78.15809    -22.5 1.222e+04 1.554e-09
 78.17816    -22.6 1.154e+04 1.158e-09
 78.20226    -21.3 1.209e+04 1.687e-09
 78.23227    -21.3 1.183e+04 1.223e-09
 78.25046    -21.0 1.158e+04 1.019e-09
 78.26050    -20.8 1.131e+04 9.298e-10
 78.27231    -20.8 1.107e+04 4.874e-10
 78.29238    -21.8 1.060e+04 3.466e-10
 78.31245    -22.8 1.037e+04 2.520e-10
 78.33252    -22.8 1.030e+04 2.422e-10
 78.34302    -23.0 1.024e+04 2.252e-10
 78.36319    -22.7 1.002e+04 1.954e-10
 78.40297    -21.9 9.847e+03 2.121e-10
 78.44311    -20.5 9.766e+03 2.327e-10
 78.48326    -19.1 9.704e+03 2.337e-10
 78.50827    -17.8 9.700e+03 2.186e-10
 78.52834    -17.6 9.190e+03 1.287e-10
 78.56354    -16.6 9.207e+03 1.408e-10
 78.60368    -15.6 9.357e+03 1.836e-10
 78.64383    -14.4 9.543e+03 2.820e-10
 78.67332    -12.9 9.744e+03 4.000e-10
 78.69340    -12.2 9.445e+03 3.019e-10
 78.72411    -10.8 9.740e+03 4.148e-10
 78.76426     -9.4 1.011e+04 5.821e-10
 78.80440     -8.0 1.045e+04 7.630e-10
 78.83838     -6.7 1.061e+04 8.688e-10
 78.85845     -6.2 1.033e+04 7.069e-10
 78.88468     -5.0 1.051e+04 8.330e-10
 78.92483     -3.6 1.056e+04 8.748e-10
 78.96497     -2.3 1.062e+04 9.141e-10
 79.00343     -1.1 1.066e+04 9.137e-10
 79.02350     -0.6 1.063e+04 9.288e-10
 79.04526      0.8 1.053e+04 8.577e-10
 79.08540      2.3 1.026e+04 7.162e-10
 79.12554      3.7 9.970e+03 5.869e-10
 79.16569      5.3 9.675e+03 4.777e-10
 79.18856      6.9 9.423e+03 3.918e-10
 79.20863      7.5 9.067e+03 2.759e-10
 79.24597      9.2 8.915e+03 2.278e-10
 79.28611     10.7 8.813e+03 1.958e-10
 79.32626     12.2 8.747e+03 1.821e-10
 79.35361     13.7 8.722e+03 1.810e-10
 79.37368     14.4 8.575e+03 1.404e-10
 79.40654     15.8 8.615e+03 1.574e-10
 79.44669     17.2 8.684e+03 1.694e-10
 79.48683     18.6 8.680e+03 1.659e-10
 79.51866     20.2 8.568e+03 1.441e-10
 79.53873     21.2 8.643e+03 1.459e-10
 79.56711     22.7 8.499e+03 1.055e-10
 79.60726     24.0 8.414e+03 6.709e-11
 79.64740     24.7 8.440e+03 4.155e-11
 79.68372     25.2 8.413e+03 2.974e-11
 79.70379     26.1 8.600e+03 3.652e-11
 79.72769     26.9 8.446e+03 3.327e-11
 79.76783     28.1 8.403e+03 3.413e-11
 79.80797     29.4 8.340e+03 3.789e-11
 79.84811     30.9 8.320e+03 4.482e-11
 79.86884     32.6 8.346e+03 5.362e-11
 79.88891     33.6 8.375e+03 5.506e-11
 79.92840     35.4 8.430e+03 6.231e-11
 79.96854     37.1 8.517e+03 6.893e-11
 80.00869     38.8 8.618e+03 7.427e-11
 80.03389     40.4 8.719e+03 7.856e-11
 80.05397     41.5 8.742e+03 8.081e-11
 80.08897     43.1 8.861e+03 8.663e-11
 80.12911     44.5 8.962e+03 9.020e-11
 80.16926     45.9 9.049e+03 9.186e-11
 80.19895     47.3 9.109e+03 9.278e-11
 80.21902     48.4 9.202e+03 1.018e-10
 80.24954     49.7 9.232e+03 1.012e-10
 80.28969     51.0 9.263e+03 1.001e-10
 80.32983     52.5 9.304e+03 9.904e-11
 80.36400     54.0 9.372e+03 9.732e-11
 80.38407     55.0 9.418e+03 8.894e-11
 80.41011     56.3 9.510e+03 8.112e-11
 80.45026     57.6 9.582e+03 8.089e-11
 80.49040     58.4 9.737e+03 8.790e-11
 80.52905     59.0 9.956e+03 1.212e-10
 80.54913     59.6 9.963e+03 1.136e-10
 80.57069     60.0 1.023e+04 1.884e-10
 80.61083     60.0 1.056e+04 3.175e-10
 80.63155     59.5 1.085e+04 4.797e-10
 80.64149     59.6 1.081e+04 4.990e-10
 80.66081     59.4 1.107e+04 7.209e-10
 80.68088     59.2 1.145e+04 9.733e-10
 80.70096     58.8 1.193e+04 1.262e-09
 80.71398     58.1 1.241e+04 1.639e-09
 80.72402     58.4 1.252e+04 1.671e-09
 80.74110     57.7 1.292e+04 2.144e-09
 80.76117     57.2 1.331e+04 2.546e-09
 80.78124     56.5 1.348e+04 2.603e-09
 80.79651     55.5 1.346e+04 2.497e-09
 80.80655     55.1 1.344e+04 2.469e-09
 80.82138     53.8 1.322e+04 2.018e-09
 80.84146     52.1 1.274e+04 1.489e-09
 80.86153     49.9 1.208e+04 1.098e-09
 80.87904     47.9 1.146e+04 8.793e-10
 80.88907     47.8 1.186e+04 1.028e-09
 80.90167     46.4 1.135e+04 8.718e-10
 80.92174     45.5 1.104e+04 7.915e-10
 80.94181     44.7 1.085e+04 7.380e-10
 80.96156     44.2 1.078e+04 7.240e-10
 80.97160     43.9 1.054e+04 5.964e-10
 80.98196     43.4 1.052e+04 5.872e-10
 81.00203     42.8 1.055e+04 5.796e-10
 81.02210     42.2 1.054e+04 5.710e-10
 81.04217     41.6 1.049e+04 5.525e-10
 81.05413     41.0 1.036e+04 5.225e-10
 81.06426     40.8 1.004e+04 3.921e-10
 81.09254     40.1 1.004e+04 3.926e-10
 81.13269     39.5 1.003e+04 3.846e-10
 81.17283     38.7 1.005e+04 3.601e-10
 81.20284     38.1 1.009e+04 3.555e-10
 81.21918     37.5 1.016e+04 3.622e-10
 81.22922     37.2 1.024e+04 3.802e-10
 81.24288     36.3 1.043e+04 4.250e-10
 81.26296     35.0 1.076e+04 5.252e-10
 81.28303     32.9 1.127e+04 7.650e-10
 81.30171     30.6 1.199e+04 1.308e-09
 81.31174     30.7 1.205e+04 1.487e-09
 81.32317     29.5 1.300e+04 2.454e-09
 81.34324     28.4 1.393e+04 3.360e-09
 81.36331     26.8 1.414e+04 3.381e-09
 81.38338     25.2 1.389e+04 2.913e-09
 81.39427     23.3 1.311e+04 2.027e-09
 81.40430     23.1 1.315e+04 2.311e-09
 81.42353     21.2 1.233e+04 1.501e-09
 81.44360     18.8 1.162e+04 1.013e-09
 81.46367     17.1 1.119e+04 8.484e-10
 81.47680     14.1 1.198e+04 9.923e-10
 81.48683     11.2 1.351e+04 1.560e-09
 81.50381      7.5 1.411e+04 2.797e-09
 81.52388      6.9 1.440e+04 4.780e-09
 81.54396      7.3 1.498e+04 6.654e-09
 81.55932      8.1 1.547e+04 7.813e-09
 81.56936      9.6 1.510e+04 6.379e-09
 81.58410      9.7 1.492e+04 4.695e-09
 81.60417      8.7 1.449e+04 2.936e-09
 81.62424      5.8 1.329e+04 1.634e-09
 81.64185      2.7 1.140e+04 9.317e-10
 81.65188      2.4 1.101e+04 7.872e-10
 81.66438      2.5 1.098e+04 7.857e-10
 81.69459      2.6 1.040e+04 5.970e-10
 81.72457      2.7 1.008e+04 4.878e-10
 81.74464      3.4 9.684e+03 3.356e-10
 81.77497      4.1 9.641e+03 3.409e-10
 81.81512      4.5 9.776e+03 4.086e-10
 81.85526      5.5 9.888e+03 5.366e-10
 81.88962      6.9 9.907e+03 5.958e-10
 81.90970      7.9 9.425e+03 3.328e-10
 81.93554      9.4 9.370e+03 3.494e-10
 81.97569     10.7 9.337e+03 3.279e-10
 82.01583     11.6 9.280e+03 2.896e-10
 82.05468     12.6 9.164e+03 2.663e-10
 82.07475     13.6 9.067e+03 2.490e-10
 82.09612     14.8 9.020e+03 2.501e-10
 82.13626     16.1 9.018e+03 2.422e-10
 82.17640     16.9 9.104e+03 2.556e-10
 82.21654     17.4 9.378e+03 3.313e-10
 82.23980     18.3 9.712e+03 4.794e-10
 82.25987     19.1 9.459e+03 3.145e-10
 82.29683     20.1 9.604e+03 4.093e-10
 82.33697     21.3 9.534e+03 4.304e-10
 82.37712     22.9 9.318e+03 3.775e-10
 82.40486     24.5 9.025e+03 2.646e-10
 82.42493     24.8 9.016e+03 2.718e-10
 82.45740     26.2 8.892e+03 2.256e-10
 82.49754     27.3 8.882e+03 1.768e-10
 82.53769     28.4 8.904e+03 1.401e-10
 82.56991     29.6 8.871e+03 1.207e-10
 82.58998     30.6 9.023e+03 2.271e-10
 82.61797     31.9 9.009e+03 1.911e-10
 82.65812     33.3 8.988e+03 1.665e-10
 82.69826     34.8 8.960e+03 1.551e-10
 82.73496     36.3 8.938e+03 1.519e-10
 82.75503     37.2 9.176e+03 1.688e-10
 82.77854     38.5 9.121e+03 1.652e-10
 82.81869     39.6 9.178e+03 1.740e-10
 82.85883     40.5 9.319e+03 2.067e-10
 82.89897     41.4 9.502e+03 2.560e-10
 82.92009     42.0 9.708e+03 2.946e-10
 82.94016     42.5 9.834e+03 3.113e-10
 82.97926     43.0 9.818e+03 3.044e-10
 83.01940     43.4 9.705e+03 2.793e-10
 83.05954     43.6 9.594e+03 2.703e-10
 83.08514     43.9 9.591e+03 2.807e-10
 83.10521     44.7 9.642e+03 2.897e-10
 83.13983     45.1 9.717e+03 3.421e-10
 83.17997     45.8 9.799e+03 4.067e-10
 83.22012     46.5 9.781e+03 4.127e-10
 83.25019     47.3 9.650e+03 3.976e-10
 83.27027     48.4 9.777e+03 4.245e-10
 83.30040     49.0 9.566e+03 3.673e-10
 83.34055     49.4 9.311e+03 3.395e-10
 83.38069     49.6 9.162e+03 3.424e-10
 83.41525     49.7 9.164e+03 3.746e-10
 83.43532     50.8 9.264e+03 3.647e-10
 83.46097     50.8 9.282e+03 4.071e-10
 83.50112     50.5 9.273e+03 4.217e-10
 83.54126     49.7 9.240e+03 4.064e-10
 83.58030     48.1 9.188e+03 3.797e-10
 83.60028     48.5 9.218e+03 4.308e-10
 83.61131     47.4 9.141e+03 4.168e-10
 83.63139     46.5 9.007e+03 4.001e-10
 83.65146     45.6 8.987e+03 4.031e-10
 83.67153     44.7 8.997e+03 4.191e-10
 83.68270     43.9 9.082e+03 4.419e-10
 83.69274     44.2 9.074e+03 4.147e-10
 83.71167     43.4 9.131e+03 4.243e-10
 83.73174     41.8 9.560e+03 4.946e-10
 83.75181     36.4 1.151e+04 8.718e-10
 83.76523     30.9 1.374e+04 1.955e-09
 83.77527     30.8 1.411e+04 2.718e-09
 83.78689     23.6 1.851e+04 6.390e-09
 83.79688     14.0 2.585e+04 1.420e-08
 83.80640      8.2 2.707e+04 3.337e-08
 83.81141      6.0 2.673e+04 5.705e-08
 83.81695      2.2 2.472e+04 7.039e-08
 83.82698     -0.6 2.312e+04 5.519e-08
 83.83702     -3.8 2.156e+04 2.951e-08
 83.84771     -8.0 1.901e+04 1.177e-08
 83.85779    -11.0 1.977e+04 9.730e-09
 83.87224    -20.6 1.361e+04 1.445e-09
 83.89231    -24.5 1.005e+04 5.874e-10
 83.91239    -25.0 9.208e+03 4.252e-10
 83.92374    -24.0 9.020e+03 3.708e-10
 83.93160    -23.4 9.123e+03 4.129e-10
 83.94032    -24.3 8.955e+03 3.206e-10
 83.95253    -23.6 8.912e+03 3.042e-10
 83.98273    -23.0 9.000e+03 3.116e-10
 84.02297    -22.6 9.407e+03 4.467e-10
 84.05298    -22.6 9.745e+03 6.027e-10
 84.07296    -22.1 9.863e+03 6.796e-10
 84.09303    -20.9 1.005e+04 7.394e-10
 84.10537    -20.5 9.943e+03 6.851e-10
 84.11541    -20.9 1.012e+04 7.888e-10
 84.13317    -20.0 1.008e+04 6.995e-10
 84.15324    -19.7 1.001e+04 5.354e-10
 84.18345    -20.5 9.564e+03 3.918e-10
 84.22369    -21.7 8.741e+03 2.043e-10
 84.26059    -22.0 8.531e+03 1.848e-10
 84.28066    -21.9 8.848e+03 2.523e-10
 84.30397    -21.2 8.828e+03 2.391e-10
 84.34412    -20.6 8.896e+03 2.583e-10
 84.38426    -19.7 8.996e+03 3.100e-10
 84.42440    -18.4 9.084e+03 3.514e-10
 84.44571    -16.9 9.107e+03 3.385e-10
 84.46578    -16.9 9.053e+03 3.625e-10
 84.50469    -15.5 8.905e+03 3.010e-10
 84.54483    -14.5 8.777e+03 2.003e-10
 84.58497    -14.4 8.674e+03 1.406e-10
 84.61076    -14.4 8.807e+03 1.478e-10
 84.63084    -13.0 8.697e+03 1.545e-10
 84.66526    -13.0 9.052e+03 1.992e-10
 84.70540    -12.2 9.120e+03 3.353e-10
 84.74555     -9.8 9.379e+03 4.309e-10
 84.77582     -8.3 9.546e+03 4.223e-10
 84.79589     -7.5 9.591e+03 4.763e-10
 84.82583     -6.6 9.766e+03 4.585e-10
 84.86597     -5.7 9.971e+03 4.719e-10
 84.90612     -4.8 1.038e+04 4.863e-10
 84.94087     -4.3 1.069e+04 4.665e-10
 84.96094     -3.8 1.126e+04 6.724e-10
 84.98640     -3.6 1.114e+04 7.109e-10
 85.02655     -3.3 1.100e+04 7.528e-10
 85.06669     -2.6 1.097e+04 8.177e-10
 85.10592     -2.0 1.124e+04 8.574e-10
 85.12600     -0.4 1.126e+04 8.929e-10
 85.14697     -0.9 1.177e+04 6.436e-10
 85.18712     -2.8 1.186e+04 7.373e-10
 85.22726     -3.3 1.161e+04 1.204e-09
 85.26740     -2.2 1.163e+04 1.434e-09
 85.29105     -1.1 1.157e+04 1.037e-09
 85.31112      0.1 1.164e+04 1.253e-09
 85.34769      0.8 1.086e+04 7.007e-10
 85.38783      1.8 9.805e+03 3.642e-10
 85.42798      3.0 9.384e+03 1.710e-10
 85.45610      3.2 9.366e+03 8.527e-11
 85.47617      3.9 9.294e+03 1.145e-10
 85.50826      4.7 9.066e+03 1.056e-10
 85.54840      6.1 9.059e+03 1.080e-10
 85.58855      7.3 9.111e+03 1.173e-10
 85.62116      8.3 9.279e+03 1.314e-10
 85.64123      9.3 9.191e+03 1.730e-10
 85.66883     10.1 9.440e+03 1.947e-10
 85.69884      9.9 9.738e+03 1.997e-10
 85.71352      7.1 1.102e+04 2.979e-10
 85.72356      8.1 1.081e+04 3.026e-10
 85.73889      5.0 1.179e+04 5.320e-10
 85.75896      3.2 1.150e+04 8.584e-10
 85.77903      4.5 1.103e+04 1.453e-09
 85.79605      5.8 1.112e+04 1.500e-09
 85.80609      6.0 1.119e+04 1.557e-09
 85.81917      6.9 1.151e+04 1.100e-09
 85.83924      4.9 1.242e+04 8.477e-10
 85.85932      1.2 1.207e+04 6.716e-10
 85.87858     -1.2 1.137e+04 7.061e-10
 85.88861      0.3 1.153e+04 6.698e-10
 85.89946     -0.8 1.107e+04 7.983e-10
 85.91953     -0.7 1.116e+04 9.144e-10
 85.93960     -0.4 1.132e+04 9.675e-10
 85.95967     -0.7 1.144e+04 9.238e-10
 85.97124     -1.6 1.139e+04 7.444e-10
 85.99141     -0.6 1.122e+04 7.176e-10
 86.03012     -1.5 1.096e+04 6.551e-10
 86.07026     -2.0 1.079e+04 5.232e-10
 86.11040     -2.9 1.064e+04 4.026e-10
 86.13639     -4.1 1.056e+04 3.843e-10
 86.15646     -2.8 1.083e+04 4.195e-10
 86.19069     -5.5 1.129e+04 5.343e-10
 86.23083     -7.3 1.151e+04 9.876e-10
 86.27098     -7.0 1.204e+04 1.446e-09
 86.30144     -6.9 1.168e+04 1.179e-09
 86.32151     -6.2 1.182e+04 1.231e-09
 86.35126     -7.2 1.071e+04 3.908e-10
 86.39140     -9.6 1.018e+04 1.539e-10
 86.43155    -10.9 9.874e+03 1.274e-10
 86.46650    -11.2 9.912e+03 1.797e-10
 86.48657    -10.8 9.847e+03 1.507e-10
 86.51183    -10.2 9.967e+03 2.048e-10
 86.55198     -9.9 1.020e+04 2.250e-10
 86.59212    -10.7 1.036e+04 2.037e-10
 86.63155    -11.5 1.011e+04 1.623e-10
 86.65162    -11.0 1.008e+04 1.658e-10
 86.67240    -11.0 9.926e+03 1.530e-10
 86.71255    -10.4 9.883e+03 1.273e-10
 86.75269     -9.7 9.922e+03 9.013e-11
 86.79283     -9.1 1.004e+04 5.936e-11
 86.81667     -8.7 1.010e+04 4.529e-11
 86.83674     -8.3 1.030e+04 5.921e-11
 86.87312     -8.1 1.032e+04 5.555e-11
 86.91326     -7.6 1.013e+04 6.752e-11
 86.95340     -6.8 9.862e+03 9.344e-11
 86.98173     -5.6 9.789e+03 1.162e-10
 87.00180     -4.5 9.887e+03 1.534e-10
 87.03369     -3.9 1.004e+04 1.665e-10
 87.07383     -4.1 1.035e+04 2.125e-10
 87.11398     -7.7 1.158e+04 5.469e-10
 87.14399    -10.4 1.254e+04 1.255e-09
 87.15662    -13.0 1.362e+04 2.075e-09
 87.16666    -11.7 1.360e+04 2.066e-09
 87.18403    -13.8 1.543e+04 3.706e-09
 87.20410    -18.1 1.630e+04 5.209e-09
 87.22417    -21.8 1.651e+04 5.635e-09
 87.23915    -25.8 1.617e+04 4.033e-09
 87.24918    -25.5 1.659e+04 5.848e-09
 87.26432    -29.6 1.571e+04 2.522e-09
 87.28439    -35.7 1.330e+04 7.087e-10
 87.30446    -40.6 1.134e+04 3.369e-10
 87.32167    -42.1 1.069e+04 2.614e-10
 87.33171    -42.0 1.070e+04 2.582e-10
 87.34460    -42.4 1.046e+04 2.325e-10
 87.36467    -42.4 1.038e+04 2.193e-10
 87.39488    -42.2 1.025e+04 1.978e-10
 87.43512    -41.3 9.987e+03 1.637e-10
 87.47526    -40.5 9.896e+03 1.479e-10
 87.49696    -39.8 9.875e+03 1.433e-10
 87.51703    -39.3 9.964e+03 1.720e-10
 87.55555    -38.7 1.005e+04 1.917e-10
 87.59569    -38.3 1.016e+04 2.214e-10
 87.63583    -38.0 1.028e+04 2.625e-10
 87.66201    -37.7 1.038e+04 3.153e-10
 87.68208    -37.1 1.060e+04 3.724e-10
 87.71612    -36.7 1.073e+04 3.827e-10
 87.75626    -36.4 1.063e+04 3.792e-10
 87.79641    -36.1 1.049e+04 3.490e-10
 87.82707    -35.9 1.041e+04 3.153e-10
 87.84714    -35.6 1.047e+04 3.009e-10
 87.87669    -36.0 1.051e+04 3.018e-10
 87.91683    -37.1 1.096e+04 4.850e-10
 87.95698    -37.6 1.156e+04 9.124e-10
 87.99212    -37.7 1.213e+04 1.345e-09
 88.01219    -37.9 1.221e+04 1.340e-09
 88.03726    -38.7 1.227e+04 1.430e-09
 88.07741    -39.4 1.172e+04 1.161e-09
 88.11755    -39.6 1.088e+04 6.732e-10
 88.15717    -39.8 1.019e+04 3.918e-10
 88.17724    -40.0 1.031e+04 4.377e-10
 88.19783    -39.2 9.885e+03 3.028e-10
 88.23798    -38.1 9.731e+03 2.535e-10
 88.27812    -37.0 9.657e+03 2.417e-10
 88.31826    -35.7 9.649e+03 2.402e-10
 88.34230    -34.6 9.683e+03 2.436e-10
 88.36237    -34.9 9.686e+03 2.269e-10
 88.39855    -33.9 9.701e+03 2.294e-10
 88.43869    -32.8 9.720e+03 2.254e-10
 88.47883    -31.8 9.736e+03 2.107e-10
 88.50735    -30.9 9.739e+03 1.916e-10
 88.52742    -30.9 9.584e+03 1.633e-10
 88.55912    -30.2 9.530e+03 1.529e-10
 88.59926    -29.6 9.499e+03 1.542e-10
 88.63941    -28.8 9.564e+03 1.891e-10
 88.67240    -27.9 9.713e+03 2.376e-10
 88.69248    -27.6 9.703e+03 2.479e-10
 88.71969    -27.1 9.973e+03 3.093e-10
 88.75983    -27.1 1.037e+04 4.164e-10
 88.79998    -27.8 1.092e+04 6.777e-10
 88.83746    -28.0 1.157e+04 1.136e-09
 88.85753    -27.1 1.110e+04 8.544e-10
 88.88026    -27.6 1.162e+04 1.133e-09
 88.92041    -29.1 1.193e+04 1.248e-09
 88.96055    -31.7 1.200e+04 1.214e-09
 89.00069    -34.5 1.199e+04 1.267e-09
 89.02258    -35.9 1.198e+04 1.441e-09
 89.04265    -34.7 1.205e+04 1.484e-09
 89.08098    -34.6 1.206e+04 1.533e-09
 89.10349    -34.5 1.201e+04 1.502e-09
 89.10746    -34.9 1.167e+04 1.189e-09
 89.11495    -34.0 1.180e+04 1.247e-09
 89.13096    -33.9 1.176e+04 1.192e-09
 89.15103    -34.0 1.179e+04 1.187e-09
 89.17110    -35.6 1.226e+04 1.323e-09
 89.18744    -39.4 1.391e+04 2.505e-09
 89.19748    -38.1 1.436e+04 2.795e-09
 89.21125    -42.3 1.671e+04 7.190e-09
 89.22625    -44.1 1.791e+04 1.197e-08
 89.23362    -45.3 1.894e+04 1.534e-08
 89.23864    -45.7 2.019e+04 2.115e-08
 89.24627    -48.5 2.242e+04 3.520e-08
 89.25631    -52.3 2.406e+04 5.419e-08
 89.26635    -56.2 2.466e+04 6.874e-08
 89.27489    -60.5 2.465e+04 7.185e-08
 89.27990    -61.9 2.449e+04 1.302e-07
 89.28642    -65.3 2.365e+04 9.344e-08
 89.29645    -67.9 2.250e+04 5.386e-08
 89.30649    -70.0 2.112e+04 3.143e-08
 89.31615    -71.7 2.000e+04 2.036e-08
 89.32117    -72.7 1.999e+04 1.996e-08
 89.32656    -74.4 1.875e+04 1.310e-08
 89.33660    -76.2 1.721e+04 8.569e-09
 89.34663    -77.7 1.567e+04 5.964e-09
 89.35667    -78.5 1.475e+04 4.793e-09
 89.36248    -78.6 1.431e+04 4.094e-09
 89.37256    -79.2 1.381e+04 3.579e-09
 89.39189    -79.0 1.302e+04 2.703e-09
 89.41196    -79.0 1.270e+04 2.356e-09
 89.43203    -78.9 1.265e+04 2.296e-09
 89.44506    -78.8 1.273e+04 2.350e-09
 89.45509    -78.2 1.225e+04 1.969e-09
 89.47218    -78.0 1.275e+04 2.436e-09
 89.49225    -77.9 1.358e+04 3.205e-09
 89.51232    -78.2 1.477e+04 4.468e-09
 89.52758    -79.0 1.620e+04 6.621e-09
 89.53762    -77.8 1.574e+04 5.980e-09
 89.55246    -79.0 1.769e+04 9.877e-09
 89.56747    -80.6 1.952e+04 1.605e-08
 89.57377    -81.5 2.058e+04 2.025e-08
 89.57878    -80.9 2.124e+04 2.065e-08
 89.58749    -82.9 2.300e+04 3.616e-08
 89.59752    -85.7 2.367e+04 7.457e-08
 89.60756    -88.6 2.349e+04 1.434e-07
 89.61503    -92.0 2.293e+04 2.223e-07
 89.62005    -91.6 2.199e+04 5.766e-07
 89.62763    -95.7 2.162e+04 6.967e-07
 89.63513    -98.5 2.190e+04 4.872e-07
 89.63812    -99.5 2.197e+04 3.995e-07
 89.64063   -100.6 2.158e+04 6.226e-07
 89.64515   -101.5 2.171e+04 3.885e-07
 89.65016   -101.8 2.173e+04 2.650e-07
 89.65627   -101.8 2.137e+04 1.670e-07
 89.66131   -102.6 2.188e+04 2.207e-07
 89.66777   -102.4 2.130e+04 9.509e-08
 89.67781   -102.5 1.998e+04 3.419e-08
 89.68785   -103.7 1.873e+04 1.977e-08
 89.69756   -104.4 1.762e+04 1.323e-08
 89.70257   -105.1 1.773e+04 1.364e-08
 89.70792   -105.4 1.649e+04 9.136e-09
 89.71795   -105.7 1.548e+04 6.459e-09
 89.72799   -105.9 1.469e+04 4.976e-09
 89.73802   -105.9 1.428e+04 4.332e-09
 89.75313   -105.5 1.388e+04 3.661e-09
 89.77325   -104.5 1.267e+04 2.166e-09
 89.78520   -104.2 1.152e+04 1.270e-09
 89.79523   -104.2 1.184e+04 1.539e-09
 89.81339   -104.0 1.116e+04 1.076e-09
 89.83346   -103.8 1.070e+04 8.089e-10
 89.85353   -103.5 1.038e+04 6.537e-10
 89.86773   -103.1 1.021e+04 5.721e-10
 89.87776   -103.1 1.052e+04 7.208e-10
 89.89368   -102.6 1.046e+04 6.926e-10
 89.91375   -102.2 1.044e+04 6.864e-10
 89.93382   -101.8 1.043e+04 6.855e-10
 89.95025   -101.2 1.043e+04 6.867e-10
 89.96029   -101.3 1.065e+04 8.089e-10
 89.97396   -100.7 1.060e+04 7.709e-10
 89.99403   -100.1 1.050e+04 6.788e-10
 90.01410    -99.6 1.030e+04 5.419e-10
 90.03288    -99.4 9.992e+03 3.982e-10
 90.05305    -99.9 9.937e+03 3.819e-10
 90.08455    -99.6 9.676e+03 2.978e-10
 90.12469    -98.7 9.377e+03 2.258e-10
 90.16484    -97.8 9.282e+03 2.006e-10
 90.19803    -97.2 9.298e+03 1.987e-10
 90.21810    -97.5 9.268e+03 1.993e-10
 90.24512    -96.9 9.440e+03 2.197e-10
 90.28526    -96.4 9.786e+03 2.917e-10
 90.32541    -95.5 1.006e+04 3.738e-10
 90.36308    -94.4 1.015e+04 4.029e-10
 90.38315    -94.1 1.008e+04 3.773e-10
 90.40569    -92.9 1.007e+04 3.766e-10
 90.44584    -91.5 9.965e+03 3.350e-10
 90.48598    -89.8 9.921e+03 3.008e-10
 90.52612    -87.9 9.928e+03 2.948e-10
 90.54821    -86.4 1.018e+04 3.299e-10
 90.56828    -85.8 1.014e+04 3.142e-10
 90.60641    -84.5 1.083e+04 5.102e-10
 90.64655    -83.2 1.147e+04 8.346e-10
 90.68669    -81.9 1.191e+04 1.099e-09
 90.71326    -81.0 1.201e+04 1.162e-09
 90.73333    -80.3 1.208e+04 1.183e-09
 90.76698    -79.4 1.206e+04 1.077e-09
 90.80712    -78.2 1.165e+04 6.753e-10
 90.84726    -77.0 1.096e+04 3.815e-10
 90.87831    -75.9 1.041e+04 2.707e-10
 90.89838    -75.1 1.062e+04 2.756e-10
 90.92755    -73.6 1.049e+04 2.601e-10
 90.96769    -72.0 1.048e+04 2.650e-10
 91.00784    -70.8 1.077e+04 3.537e-10
 91.04337    -69.7 1.108e+04 4.960e-10
 91.06344    -69.3 1.152e+04 6.297e-10
 91.08812    -68.1 1.170e+04 7.922e-10
 91.12826    -67.0 1.169e+04 8.263e-10
 91.16841    -65.4 1.142e+04 6.520e-10
 91.19842    -64.1 1.119e+04 4.460e-10
 91.21826    -63.8 1.119e+04 3.585e-10
 91.22839    -63.9 1.121e+04 3.815e-10
 91.24869    -62.6 1.110e+04 2.705e-10
 91.28884    -61.0 1.110e+04 2.139e-10
 91.32898    -59.2 1.114e+04 2.066e-10
 91.36912    -57.9 1.129e+04 2.513e-10
 91.39354    -57.0 1.146e+04 5.105e-10
 91.40348    -56.6 1.128e+04 4.420e-10
 91.41911    -56.4 1.123e+04 5.462e-10
 91.43918    -56.0 1.134e+04 8.626e-10
 91.45925    -55.9 1.188e+04 1.370e-09
 91.47588    -55.6 1.270e+04 2.118e-09
 91.48591    -55.1 1.284e+04 2.206e-09
 91.49939    -54.7 1.397e+04 3.157e-09
 91.51946    -54.5 1.518e+04 4.125e-09
 91.53953    -54.5 1.616e+04 4.745e-09
 91.55840    -55.5 1.650e+04 4.891e-09
 91.56844    -56.0 1.624e+04 4.464e-09
 91.57968    -57.3 1.583e+04 3.829e-09
 91.59975    -58.8 1.461e+04 2.909e-09
 91.61982    -60.1 1.323e+04 2.264e-09
 91.63989    -61.0 1.254e+04 1.842e-09
 91.65096    -61.7 1.231e+04 1.652e-09
 91.66100    -61.1 1.243e+04 1.759e-09
 91.68003    -61.5 1.240e+04 1.709e-09
 91.70011    -62.0 1.245e+04 1.709e-09
 91.72018    -62.9 1.296e+04 1.833e-09
 91.73349    -64.2 1.380e+04 2.201e-09
 91.74353    -63.9 1.421e+04 2.507e-09
 91.76032    -65.9 1.530e+04 3.430e-09
 91.78039    -67.6 1.604e+04 4.741e-09
 91.80046    -68.8 1.633e+04 6.121e-09
 91.81602    -69.5 1.618e+04 6.853e-09
 91.82605    -69.1 1.688e+04 8.349e-09
 91.84061    -69.2 1.633e+04 8.197e-09
 91.86068    -69.1 1.546e+04 6.638e-09
 91.88075    -69.1 1.445e+04 4.780e-09
 91.89854    -69.0 1.342e+04 3.239e-09
 91.90858    -68.9 1.331e+04 2.877e-09
 91.92089    -69.0 1.226e+04 1.874e-09
 91.94096    -68.9 1.131e+04 1.226e-09
 91.96103    -68.1 1.053e+04 8.082e-10
 91.98107    -67.3 1.000e+04 5.513e-10
 92.01128    -66.6 9.650e+03 3.809e-10
 92.05155    -65.4 9.349e+03 2.948e-10
 92.07383    -63.2 8.866e+03 2.047e-10
 92.09390    -62.5 8.970e+03 2.366e-10
 92.13184    -60.4 8.738e+03 1.923e-10
 92.17198    -58.4 8.709e+03 1.799e-10
 92.21212    -56.7 8.731e+03 1.794e-10
 92.23888    -55.4 8.982e+03 2.108e-10
 92.25895    -54.9 9.255e+03 2.815e-10
 92.29241    -53.5 9.538e+03 3.579e-10
 92.33255    -52.0 9.691e+03 4.222e-10
 92.37269    -50.7 9.697e+03 4.405e-10
 92.40394    -49.5 9.642e+03 4.217e-10
 92.42401    -49.0 9.536e+03 3.921e-10
 92.45298    -47.7 9.369e+03 3.480e-10
 92.49312    -46.4 9.315e+03 3.332e-10
 92.53327    -45.1 9.334e+03 3.335e-10
 92.56899    -44.0 9.497e+03 3.505e-10
 92.58906    -43.5 9.368e+03 2.974e-10
 92.61355    -42.6 9.662e+03 3.405e-10
 92.65369    -41.7 9.987e+03 4.043e-10
 92.68370    -41.2 1.013e+04 4.560e-10
 92.70368    -41.3 1.026e+04 5.087e-10
 92.72375    -41.1 1.038e+04 5.875e-10
 92.74382    -40.9 1.047e+04 6.451e-10
 92.76389    -40.7 1.069e+04 7.720e-10
 92.78396    -40.5 1.066e+04 7.731e-10
 92.80404    -40.0 1.045e+04 6.974e-10
 92.82411    -39.6 1.018e+04 5.581e-10
 92.83645    -39.3 9.908e+03 4.279e-10
 92.84648    -39.3 9.990e+03 4.564e-10
 92.86425    -39.2 9.747e+03 3.674e-10
 92.89445    -39.1 9.497e+03 3.017e-10
 92.91917    -37.9 9.001e+03 2.184e-10
 92.93924    -38.2 9.181e+03 2.593e-10
 92.97484    -36.4 8.888e+03 2.229e-10
 93.01498    -34.5 8.810e+03 2.138e-10
 93.05512    -32.4 8.802e+03 2.113e-10
 93.08422    -30.2 8.806e+03 2.083e-10
 93.10429    -30.2 9.134e+03 2.700e-10
 93.13541    -28.2 9.118e+03 2.553e-10
 93.17555    -26.3 9.121e+03 2.458e-10
 93.21569    -24.7 9.185e+03 2.485e-10
 93.24927    -23.4 9.377e+03 2.788e-10
 93.26935    -23.7 9.609e+03 3.723e-10
 93.29598    -22.5 9.891e+03 4.479e-10
 93.33612    -21.5 1.021e+04 5.516e-10
 93.37627    -20.9 1.058e+04 7.111e-10
 93.41433    -20.4 1.101e+04 9.184e-10
 93.43440    -20.5 1.099e+04 8.923e-10
 93.45655    -20.2 1.124e+04 1.036e-09
 93.49670    -20.0 1.131e+04 1.079e-09
 93.53684    -19.9 1.127e+04 9.902e-10
 93.57698    -19.9 1.102e+04 7.681e-10
 93.59945    -20.2 1.062e+04 5.126e-10
 93.61952    -20.0 1.057e+04 4.881e-10
 93.65727    -20.8 1.027e+04 3.244e-10
 93.69741    -21.4 1.017e+04 2.716e-10
 93.73755    -21.9 1.013e+04 2.572e-10
 93.76451    -22.0 1.018e+04 2.791e-10
 93.78458    -21.7 1.027e+04 3.089e-10
 93.81784    -21.3 1.052e+04 3.666e-10
 93.85798    -20.7 1.072e+04 4.019e-10
 93.89812    -20.2 1.077e+04 4.040e-10
 93.92956    -19.7 1.076e+04 3.638e-10
 93.94963    -19.2 1.089e+04 3.972e-10
 93.97841    -18.7 1.090e+04 3.550e-10
 94.01855    -18.5 1.106e+04 3.493e-10
 94.04856    -18.8 1.130e+04 4.405e-10
 94.06854    -19.0 1.140e+04 5.649e-10
 94.08861    -18.9 1.157e+04 7.452e-10
 94.10445    -18.7 1.179e+04 9.303e-10
 94.11449    -18.6 1.170e+04 8.877e-10
 94.12875    -18.4 1.187e+04 1.026e-09
 94.14882    -18.3 1.195e+04 1.082e-09
 94.16889    -18.4 1.195e+04 1.085e-09
 94.18698    -18.3 1.183e+04 1.009e-09
 94.19702    -18.1 1.163e+04 8.913e-10
 94.20904    -18.1 1.155e+04 7.725e-10
 94.22911    -18.3 1.146e+04 6.796e-10
 94.25931    -18.3 1.139e+04 6.058e-10
 94.27974    -18.2 1.136e+04 5.823e-10
 94.28350    -17.7 1.112e+04 4.710e-10
 94.30332    -18.3 1.171e+04 8.667e-10
 94.33970    -17.3 1.172e+04 9.876e-10
 94.36217    -16.2 1.160e+04 9.599e-10
 94.37210    -16.0 1.158e+04 9.309e-10
 94.38968    -15.6 1.150e+04 9.061e-10
 94.40975    -14.6 1.146e+04 8.527e-10
 94.42982    -14.3 1.126e+04 7.367e-10
 94.44469    -13.8 1.082e+04 5.340e-10
 94.46486    -13.3 1.110e+04 6.526e-10
 94.50027    -11.5 1.063e+04 4.558e-10
 94.54041    -10.1 1.040e+04 3.459e-10
 94.58055     -9.0 1.030e+04 3.170e-10
 94.60984     -7.8 1.028e+04 3.222e-10
 94.62992     -7.8 1.064e+04 4.475e-10
 94.66084     -6.8 1.077e+04 5.467e-10
 94.70098     -5.6 1.084e+04 6.163e-10
 94.74112     -4.4 1.079e+04 6.316e-10
 94.77490     -3.3 1.063e+04 5.309e-10
 94.79497     -3.0 1.046e+04 3.998e-10
 94.82141     -2.5 1.023e+04 2.651e-10
 94.86155     -2.6 1.012e+04 2.162e-10
 94.90170     -2.7 1.018e+04 2.353e-10
 94.93995     -2.1 1.025e+04 3.363e-10
 94.96002     -1.5 1.020e+04 3.272e-10
 94.98198     -0.3 1.026e+04 3.882e-10
 95.02212      0.7 1.013e+04 3.728e-10
 95.06227      1.9 9.789e+03 2.402e-10
 95.10241      2.5 9.546e+03 1.435e-10
 95.12508      2.7 9.282e+03 1.080e-10
 95.14515      3.3 9.308e+03 1.008e-10
 95.18270      4.4 9.233e+03 9.810e-11
 95.22284      5.7 9.203e+03 1.185e-10
 95.26298      7.3 9.222e+03 1.454e-10
 95.29013      9.0 9.303e+03 1.637e-10
 95.31020      9.8 9.305e+03 1.415e-10
 95.34327     11.3 9.369e+03 1.451e-10
 95.38341     12.6 9.389e+03 1.479e-10
 95.42355     14.0 9.318e+03 1.557e-10
 95.45518     15.7 9.239e+03 1.605e-10
 95.47525     16.4 9.246e+03 1.608e-10
 95.50384     18.1 9.272e+03 1.671e-10
 95.54398     19.3 9.432e+03 1.760e-10
 95.58413     20.1 9.593e+03 2.257e-10
 95.62024     21.2 9.790e+03 3.229e-10
 95.64031     22.2 9.924e+03 3.719e-10
 95.66441     23.6 1.021e+04 4.566e-10
 95.70455     25.0 1.031e+04 5.052e-10
 95.74470     26.2 1.028e+04 5.091e-10
 95.78484     27.6 1.032e+04 4.572e-10
 95.80536     28.6 1.028e+04 4.049e-10
 95.82543     29.4 1.035e+04 4.335e-10
 95.86513     30.9 1.025e+04 4.178e-10
 95.90527     32.8 1.013e+04 3.706e-10
 95.94541     34.6 9.994e+03 3.107e-10
 95.97041     36.1 9.948e+03 2.726e-10
 95.99049     36.9 9.987e+03 2.713e-10
 96.02570     38.3 9.993e+03 2.851e-10
 96.06584     40.0 9.862e+03 2.982e-10
 96.10598     41.6 9.867e+03 3.067e-10
 96.13547     43.0 9.882e+03 3.108e-10
 96.15554     44.1 1.018e+04 3.925e-10
 96.18627     45.4 1.018e+04 3.809e-10
 96.22641     46.8 1.010e+04 3.361e-10
 96.26655     48.2 9.880e+03 2.712e-10
 96.30052     49.5 9.669e+03 2.090e-10
 96.32059     50.1 9.856e+03 2.323e-10
 96.34684     51.4 9.637e+03 1.886e-10
 96.38698     52.8 9.474e+03 1.626e-10
 96.42713     54.4 9.346e+03 1.502e-10
 96.46557     56.2 9.301e+03 1.474e-10
 96.48565     56.9 9.485e+03 1.849e-10
 96.50741     58.8 9.478e+03 1.799e-10
 96.54755     60.6 9.503e+03 1.777e-10
 96.58770     62.4 9.563e+03 1.692e-10
 96.62784     64.2 9.531e+03 1.587e-10
 96.65070     65.9 9.500e+03 1.478e-10
 96.67077     66.4 9.543e+03 1.468e-10
 96.70813     68.2 9.552e+03 1.349e-10
 96.74827     69.9 9.575e+03 1.230e-10
 96.78841     71.6 9.584e+03 1.174e-10
 96.81575     73.3 9.590e+03 1.189e-10
 96.83582     73.9 9.600e+03 1.184e-10
 96.86870     75.7 9.641e+03 1.255e-10
 96.90884     77.5 9.725e+03 1.409e-10
 96.94898     79.1 9.855e+03 1.679e-10
 96.98081     80.5 1.006e+04 2.206e-10
 97.00088     81.2 1.010e+04 2.279e-10
 97.02927     82.4 1.042e+04 3.252e-10
 97.06941     83.6 1.075e+04 4.527e-10
 97.10955     84.8 1.106e+04 5.508e-10
 97.14586     85.9 1.118e+04 5.515e-10
 97.16593     86.2 1.106e+04 4.996e-10
 97.18984     87.4 1.111e+04 4.398e-10
 97.22998     88.6 1.117e+04 3.730e-10
 97.27013     89.7 1.120e+04 3.343e-10
 97.31027     90.9 1.116e+04 3.203e-10
 97.33098     92.2 1.108e+04 3.153e-10
 97.35106     92.5 1.100e+04 2.115e-10
 97.39056     93.8 1.087e+04 2.072e-10
 97.43070     95.3 1.071e+04 2.047e-10
 97.47084     96.9 1.054e+04 2.019e-10
 97.49604     98.7 1.041e+04 1.940e-10
 97.51611     99.1 1.038e+04 1.615e-10
 97.55113    101.1 1.031e+04 1.669e-10
 97.59127    103.1 1.028e+04 1.602e-10
 97.63141    105.0 1.026e+04 1.456e-10
 97.66109    106.8 1.026e+04 1.270e-10
 97.68116    107.3 1.035e+04 1.520e-10
 97.71170    109.0 1.035e+04 1.352e-10
 97.75184    110.5 1.036e+04 1.260e-10
 97.79198    112.0 1.036e+04 1.279e-10
 97.82614    113.3 1.039e+04 1.398e-10
 97.84622    113.5 1.051e+04 1.595e-10
 97.87227    114.6 1.059e+04 1.756e-10
 97.91241    115.5 1.066e+04 1.806e-10
 97.95256    116.2 1.067e+04 1.754e-10
 97.99120    116.8 1.065e+04 1.622e-10
 98.01127    117.1 1.068e+04 1.587e-10
 98.03284    117.9 1.067e+04 1.504e-10
 98.07298    118.8 1.068e+04 1.515e-10
 98.11313    119.6 1.074e+04 1.629e-10
 98.15327    119.8 1.084e+04 1.910e-10
 98.17632    119.7 1.136e+04 2.880e-10
 98.19639    121.2 1.109e+04 2.457e-10
 98.23356    121.1 1.160e+04 3.914e-10
 98.27370    120.8 1.216e+04 6.612e-10
 98.31384    120.3 1.260e+04 9.544e-10
 98.34138    119.4 1.273e+04 1.022e-09
 98.36145    121.5 1.250e+04 9.163e-10
 98.39413    120.9 1.248e+04 9.000e-10
 98.43427    120.9 1.226e+04 7.899e-10
 98.47441    121.4 1.195e+04 6.354e-10
 98.50643    122.3 1.162e+04 4.765e-10
 98.52650    124.1 1.163e+04 4.944e-10
 98.55470    125.3 1.137e+04 3.900e-10
 98.59484    126.7 1.118e+04 3.117e-10
 98.63498    128.4 1.101e+04 2.492e-10
 98.67148    130.3 1.084e+04 1.940e-10
 98.69155    132.0 1.096e+04 2.487e-10
 98.71527    134.0 1.082e+04 1.948e-10
 98.75541    136.1 1.070e+04 1.442e-10
 98.79556    138.1 1.061e+04 1.050e-10
 98.83570    140.1 1.046e+04 8.229e-11
 98.85661    142.3 1.023e+04 7.865e-11
 98.87668    144.0 1.041e+04 9.357e-11
 98.91598    146.2 1.032e+04 9.359e-11
 98.95613    148.5 1.030e+04 9.581e-11
 98.99627    150.7 1.028e+04 1.083e-10
 99.02166    152.8 1.034e+04 1.394e-10
 99.04173    154.5 1.040e+04 1.440e-10
 99.07656    156.5 1.053e+04 1.892e-10
 99.11670    158.4 1.076e+04 2.484e-10
 99.15684    160.0 1.101e+04 3.055e-10
 99.18671    161.3 1.125e+04 3.469e-10
 99.20679    163.2 1.123e+04 3.363e-10
 99.23713    164.4 1.135e+04 3.511e-10
 99.27727    165.5 1.140e+04 3.545e-10
 99.31741    166.6 1.138e+04 3.523e-10
 99.35177    167.8 1.130e+04 3.462e-10
 99.37184    169.9 1.127e+04 3.436e-10
 99.39770    171.2 1.121e+04 3.390e-10
 99.43784    172.5 1.111e+04 3.292e-10
 99.47799    173.9 1.099e+04 3.202e-10
 99.51682    175.3 1.084e+04 3.119e-10
 99.53689    177.3 1.099e+04 3.338e-10
 99.55827    178.6 1.087e+04 3.323e-10
 99.59841    179.9 1.073e+04 3.271e-10
 99.63856    181.3 1.056e+04 3.124e-10
 99.67870    182.8 1.036e+04 2.847e-10
 99.70195    184.4 1.018e+04 2.487e-10
 99.72202    185.8 1.030e+04 2.913e-10
 99.75899    187.5 1.011e+04 2.531e-10
 99.79913    189.3 9.976e+03 2.183e-10
 99.83927    191.2 9.875e+03 1.914e-10
 99.86700    193.2 9.788e+03 1.764e-10
 99.88707    194.6 9.879e+03 2.114e-10
 99.91956    196.7 9.870e+03 2.094e-10
 99.95970    198.9 9.881e+03 2.109e-10
 99.99984    201.0 9.955e+03 2.222e-10
