# Columns:
#   distance along LOS (in CHIMPs)
#   peculiar velocity  (in km/s)
#   temperature (K)
#   HI number density
# pos=(13.3833,81.1991,164.732), angles=(1.34261,4.66512)
  0.00605     15.2 1.232e+04 1.222e-09
  0.01245     15.9 1.310e+04 1.613e-09
  0.02064     15.4 1.317e+04 1.769e-09
  0.03032     16.8 1.267e+04 1.485e-09
  0.04221     18.0 1.329e+04 1.855e-09
  0.06228     19.1 1.395e+04 2.450e-09
  0.08235     20.4 1.468e+04 3.198e-09
  0.09577     21.9 1.554e+04 3.913e-09
  0.10581     21.4 1.505e+04 3.499e-09
  0.12250     22.5 1.591e+04 4.099e-09
  0.14257     23.9 1.642e+04 4.487e-09
  0.16265     25.0 1.718e+04 5.120e-09
  0.17909     25.4 1.892e+04 6.234e-09
  0.18912     24.9 1.699e+04 4.773e-09
  0.20279     25.6 1.887e+04 6.620e-09
  0.22287     26.9 2.070e+04 9.480e-09
  0.24294     28.5 2.220e+04 1.153e-08
  0.25795     31.2 2.235e+04 1.064e-08
  0.26732     31.1 2.322e+04 1.137e-08
  0.27234     30.6 2.241e+04 1.077e-08
  0.27797     30.9 2.424e+04 1.490e-08
  0.28801     30.8 2.618e+04 1.998e-08
  0.29804     30.2 2.721e+04 3.302e-08
  0.30808     30.3 2.733e+04 5.479e-08
  0.31400     30.4 2.614e+04 1.007e-07
  0.31902     29.7 2.697e+04 6.440e-08
  0.32815     30.0 2.631e+04 9.354e-08
  0.33819     30.2 2.605e+04 1.137e-07
  0.34823     30.1 2.667e+04 1.120e-07
  0.35566     29.2 2.726e+04 1.008e-07
  0.36068     28.7 2.995e+04 4.662e-08
  0.36830     27.5 2.906e+04 5.295e-08
  0.37834     26.4 2.781e+04 5.645e-08
  0.38838     25.7 2.665e+04 5.541e-08
  0.39732     25.4 2.578e+04 5.097e-08
  0.40234     24.9 2.533e+04 4.189e-08
  0.40845     24.5 2.463e+04 3.769e-08
  0.41849     24.2 2.377e+04 3.270e-08
  0.42852     24.1 2.303e+04 2.745e-08
  0.43856     24.0 2.237e+04 2.291e-08
  0.44399     24.0 2.176e+04 1.854e-08
  0.44855     23.5 2.173e+04 1.845e-08
  0.45315     24.2 2.279e+04 2.745e-08
  0.45863     24.2 2.207e+04 2.440e-08
  0.46867     24.1 2.145e+04 2.027e-08
  0.47871     24.0 2.096e+04 1.712e-08
  0.48565     23.8 2.038e+04 1.394e-08
  0.49067     23.4 2.028e+04 1.391e-08
  0.50385     23.7 2.013e+04 1.264e-08
  0.52239     23.6 1.904e+04 8.079e-09
  0.53243     23.4 1.861e+04 8.182e-09
  0.54404     23.2 1.747e+04 5.307e-09
  0.56412     23.0 1.626e+04 3.226e-09
  0.58419     22.9 1.518e+04 1.544e-09
  0.60426     22.1 1.395e+04 7.813e-10
  0.61574     20.6 1.299e+04 4.424e-10
  0.62578     22.1 1.203e+04 4.737e-10
  0.64441     22.3 1.135e+04 3.464e-10
  0.66448     21.1 1.145e+04 3.261e-10
  0.68456     19.4 1.053e+04 3.520e-10
  0.69906     17.2 1.052e+04 4.208e-10
  0.70910     20.2 9.961e+03 2.848e-10
  0.72470     18.2 9.677e+03 4.254e-10
  0.74478     16.6 9.730e+03 5.125e-10
  0.76485     14.8 1.128e+04 6.653e-10
  0.78238     14.2 1.127e+04 9.642e-10
  0.79241     16.2 1.125e+04 6.897e-10
  0.80500     15.1 1.105e+04 1.061e-09
  0.82507     14.8 1.204e+04 1.873e-09
  0.84514     13.4 1.517e+04 3.107e-09
  0.86522     11.9 1.917e+04 5.490e-09
  0.87573     10.2 2.118e+04 8.358e-09
  0.87666     14.1 1.804e+04 4.253e-09
  0.88622     12.2 2.030e+04 6.774e-09
  0.90536     10.1 2.106e+04 8.935e-09
  0.92544      7.7 1.964e+04 8.690e-09
  0.94551      6.1 1.788e+04 6.838e-09
  0.95905      5.5 1.665e+04 5.295e-09
  0.96908      8.3 1.677e+04 5.240e-09
  0.98566      7.9 1.592e+04 4.440e-09
  1.00573      7.6 1.495e+04 3.319e-09
  1.02580      7.5 1.411e+04 2.249e-09
  1.04236      7.2 1.334e+04 1.572e-09
  1.05240     10.0 1.401e+04 2.219e-09
  1.06595      9.5 1.350e+04 1.648e-09
  1.08603      8.4 1.323e+04 1.418e-09
  1.10610      7.0 1.328e+04 1.421e-09
  1.12568      5.6 1.373e+04 1.884e-09
  1.13572      6.8 1.426e+04 1.976e-09
  1.14625      5.7 1.447e+04 2.771e-09
  1.16632      5.8 1.491e+04 3.796e-09
  1.18639      6.9 1.533e+04 4.868e-09
  1.20647      8.0 1.565e+04 5.447e-09
  1.21903      9.0 1.571e+04 5.472e-09
  1.22907      9.4 1.529e+04 4.443e-09
  1.24661     10.1 1.498e+04 3.438e-09
  1.26669     10.2 1.450e+04 2.427e-09
  1.28676      9.6 1.399e+04 1.710e-09
  1.29911      8.9 1.350e+04 1.284e-09
  1.30466      8.7 1.401e+04 1.899e-09
  1.31239      8.1 1.305e+04 1.088e-09
  1.32691      8.0 1.270e+04 9.535e-10
  1.34698      8.5 1.242e+04 8.971e-10
  1.36705      8.9 1.217e+04 8.651e-10
  1.38567      9.3 1.200e+04 8.613e-10
  1.39570      8.8 1.067e+04 6.171e-10
  1.40720      9.3 1.080e+04 6.853e-10
  1.42727      9.8 1.096e+04 7.573e-10
  1.44735     10.4 1.110e+04 8.223e-10
  1.46742     10.9 1.121e+04 8.693e-10
  1.47902     11.5 1.126e+04 8.870e-10
  1.48906     12.2 1.111e+04 8.767e-10
  1.50757     13.0 1.106e+04 8.418e-10
  1.52764     13.8 1.093e+04 7.545e-10
  1.54771     14.5 1.080e+04 6.721e-10
  1.56234     14.9 1.082e+04 6.418e-10
  1.57237     15.6 1.056e+04 5.541e-10
  1.58786     15.8 1.049e+04 5.041e-10
  1.60793     15.8 1.063e+04 5.154e-10
  1.62801     15.5 1.107e+04 6.013e-10
  1.64565     14.9 1.177e+04 8.142e-10
  1.65569     15.7 1.124e+04 6.396e-10
  1.66815     14.8 1.209e+04 9.760e-10
  1.68823     14.1 1.294e+04 1.552e-09
  1.70830     13.9 1.365e+04 2.349e-09
  1.72204     14.1 1.423e+04 3.193e-09
  1.73208     13.7 1.405e+04 3.079e-09
  1.73901     14.1 1.437e+04 3.468e-09
  1.74904     14.7 1.439e+04 3.396e-09
  1.76852     14.7 1.451e+04 3.501e-09
  1.78860     14.2 1.438e+04 3.006e-09
  1.80867     13.1 1.382e+04 2.151e-09
  1.82232     11.6 1.295e+04 1.500e-09
  1.83236     12.2 1.295e+04 1.490e-09
  1.84882     11.5 1.212e+04 1.076e-09
  1.86889     11.4 1.155e+04 8.076e-10
  1.88896     11.5 1.112e+04 5.965e-10
  1.90564     11.5 1.065e+04 4.256e-10
  1.91568     12.1 1.068e+04 4.435e-10
  1.92911     12.0 1.036e+04 3.394e-10
  1.94918     12.2 1.032e+04 3.176e-10
  1.97939     12.9 1.042e+04 3.154e-10
  2.01964     13.6 1.032e+04 2.635e-10
  2.05978     14.4 1.001e+04 2.044e-10
  2.08250     15.1 9.713e+03 1.587e-10
  2.10258     16.7 9.807e+03 1.686e-10
  2.13513     17.3 9.499e+03 1.291e-10
  2.15520     16.8 9.452e+03 1.189e-10
  2.18022     17.3 9.303e+03 1.045e-10
  2.22037     18.0 9.222e+03 1.008e-10
  2.24914     19.1 9.206e+03 1.018e-10
  2.26921     20.7 9.195e+03 1.012e-10
  2.30066     21.9 9.203e+03 1.063e-10
  2.34081     23.2 9.217e+03 1.123e-10
  2.38096     24.5 9.222e+03 1.193e-10
  2.41577     26.0 9.207e+03 1.236e-10
  2.43584     27.5 9.211e+03 1.243e-10
  2.46125     29.0 9.168e+03 1.240e-10
  2.50140     30.7 9.112e+03 1.196e-10
  2.54155     32.3 9.106e+03 1.156e-10
  2.58169     33.7 9.210e+03 1.160e-10
  2.60248     34.4 9.450e+03 1.429e-10
  2.62255     36.0 9.509e+03 1.452e-10
  2.66199     36.6 9.687e+03 2.153e-10
  2.70213     38.0 1.010e+04 3.279e-10
  2.74228     39.1 1.048e+04 4.328e-10
  2.76911     39.8 1.085e+04 5.046e-10
  2.78918     41.3 1.086e+04 5.182e-10
  2.82257     40.9 1.112e+04 5.550e-10
  2.86272     40.3 1.128e+04 6.012e-10
  2.90287     39.8 1.136e+04 6.373e-10
  2.93574     39.4 1.157e+04 6.807e-10
  2.95572     40.7 1.144e+04 6.788e-10
  2.97293     37.8 1.214e+04 8.622e-10
  2.99083     34.4 1.370e+04 1.246e-09
  3.00086     32.9 1.519e+04 2.345e-09
  3.01308     29.2 1.655e+04 4.391e-09
  3.02890     27.0 1.707e+04 7.062e-09
  3.03894     28.0 1.745e+04 7.336e-09
  3.05322     26.6 1.761e+04 9.339e-09
  3.07330     25.5 1.711e+04 8.754e-09
  3.09337     24.8 1.638e+04 5.779e-09
  3.11222     22.5 1.507e+04 2.584e-09
  3.12226     23.5 1.559e+04 3.176e-09
  3.13352     19.2 1.318e+04 1.214e-09
  3.15359     15.7 1.125e+04 6.179e-10
  3.17366     14.7 1.067e+04 4.438e-10
  3.19374     14.0 1.043e+04 3.417e-10
  3.20557     13.2 1.030e+04 2.960e-10
  3.21561     13.8 1.035e+04 3.250e-10
  3.23388     13.4 1.031e+04 3.087e-10
  3.26409     12.8 1.034e+04 3.182e-10
  3.28908     12.6 1.025e+04 3.247e-10
  3.30916     13.1 1.044e+04 3.732e-10
  3.34448     13.1 1.044e+04 3.899e-10
  3.38463     13.4 1.026e+04 3.734e-10
  3.42478     14.1 1.000e+04 3.072e-10
  3.45572     14.6 9.659e+03 2.341e-10
  3.47579     15.0 9.873e+03 2.736e-10
  3.50507     15.7 9.449e+03 2.039e-10
  3.54522     16.5 9.163e+03 1.554e-10
  3.58536     17.5 9.042e+03 1.296e-10
  3.62235     18.6 8.964e+03 1.139e-10
  3.64242     18.9 8.964e+03 1.156e-10
  3.66566     20.1 8.893e+03 1.059e-10
  3.70581     21.5 8.823e+03 1.009e-10
  3.74595     22.9 8.754e+03 9.796e-11
  3.78610     24.3 8.679e+03 9.507e-11
  3.80906     25.8 8.598e+03 9.193e-11
  3.82913     26.2 8.660e+03 9.766e-11
  3.84692     27.7 8.596e+03 9.474e-11
  3.86699     27.8 8.508e+03 8.490e-11
  3.90654     29.5 8.467e+03 8.191e-11
  3.94669     31.2 8.455e+03 8.049e-11
  3.97569     32.8 8.463e+03 8.044e-11
  3.99576     33.0 8.587e+03 9.178e-11
  4.02698     34.3 8.672e+03 9.847e-11
  4.06713     35.4 8.750e+03 1.210e-10
  4.10727     36.8 8.868e+03 1.580e-10
  4.14232     38.4 9.021e+03 2.011e-10
  4.16240     38.2 9.230e+03 2.341e-10
  4.18757     39.8 9.334e+03 2.648e-10
  4.22771     41.3 9.361e+03 2.722e-10
  4.26786     42.9 9.238e+03 2.519e-10
  4.30801     44.7 9.043e+03 2.127e-10
  4.32903     46.6 8.884e+03 1.752e-10
  4.34910     45.6 8.956e+03 1.836e-10
  4.38830     47.3 8.870e+03 1.536e-10
  4.42845     48.6 8.876e+03 1.490e-10
  4.46860     49.7 9.192e+03 1.895e-10
  4.49566     50.6 9.731e+03 2.741e-10
  4.50560     49.7 9.865e+03 2.997e-10
  4.51858     49.6 9.952e+03 3.118e-10
  4.53866     49.3 1.030e+04 4.919e-10
  4.55873     49.3 1.088e+04 6.889e-10
  4.57879     49.6 1.158e+04 1.106e-09
  4.59886     49.5 1.220e+04 1.370e-09
  4.62909     50.2 1.248e+04 1.460e-09
  4.66230     50.0 1.261e+04 1.494e-09
  4.68237     46.4 1.223e+04 1.081e-09
  4.69278     45.3 1.160e+04 7.520e-10
  4.71285     45.2 1.123e+04 6.653e-10
  4.74962     44.0 1.060e+04 4.614e-10
  4.78977     43.2 9.956e+03 3.629e-10
  4.82893     43.4 9.500e+03 3.142e-10
  4.84900     41.0 8.961e+03 2.282e-10
  4.87007     41.8 8.947e+03 1.897e-10
  4.91021     42.3 8.862e+03 1.767e-10
  4.95036     43.4 8.761e+03 1.784e-10
  4.99051     44.7 8.795e+03 1.863e-10
  5.01564     45.9 8.868e+03 1.955e-10
  5.03571     43.8 8.940e+03 2.044e-10
  5.07080     44.9 9.127e+03 2.313e-10
  5.11095     46.2 9.291e+03 2.579e-10
  5.14096     48.0 9.385e+03 2.855e-10
  5.16093     48.2 9.522e+03 3.074e-10
  5.18101     48.9 9.617e+03 3.664e-10
  5.19211     49.6 9.956e+03 4.571e-10
  5.20215     48.0 1.055e+04 6.637e-10
  5.22116     47.6 1.164e+04 9.899e-10
  5.24123     45.9 1.371e+04 1.717e-09
  5.26130     43.2 1.606e+04 3.428e-09
  5.27543     40.7 1.775e+04 6.795e-09
  5.28547     38.1 1.829e+04 1.021e-08
  5.30145     37.1 1.895e+04 1.292e-08
  5.32152     35.9 1.932e+04 1.425e-08
  5.34160     33.9 1.955e+04 1.289e-08
  5.35875     31.1 1.909e+04 8.803e-09
  5.36878     27.4 1.813e+04 6.615e-09
  5.38174     23.8 1.641e+04 5.065e-09
  5.40182     22.1 1.570e+04 4.744e-09
  5.42189     21.8 1.567e+04 4.858e-09
  5.44196     21.6 1.571e+04 4.936e-09
  5.45210     21.1 1.572e+04 4.876e-09
  5.46214     20.4 1.613e+04 5.474e-09
  5.48211     20.0 1.603e+04 5.181e-09
  5.50218     19.7 1.596e+04 4.997e-09
  5.52226     19.3 1.598e+04 4.931e-09
  5.53542     18.8 1.637e+04 5.125e-09
  5.54156     17.7 1.649e+04 5.173e-09
  5.54848     19.5 1.549e+04 4.720e-09
  5.56240     18.7 1.621e+04 5.366e-09
  5.58248     17.5 1.721e+04 6.615e-09
  5.60255     16.4 1.813e+04 8.057e-09
  5.61873     15.6 1.852e+04 9.164e-09
  5.62877     14.6 1.826e+04 8.727e-09
  5.64270     13.8 1.798e+04 8.581e-09
  5.66277     13.2 1.718e+04 7.237e-09
  5.68284     12.6 1.619e+04 5.533e-09
  5.70205     12.3 1.524e+04 4.102e-09
  5.71209     11.8 1.499e+04 3.806e-09
  5.72299     12.2 1.416e+04 2.753e-09
  5.74306     12.6 1.338e+04 1.985e-09
  5.76314     13.1 1.289e+04 1.541e-09
  5.79335     13.6 1.232e+04 1.168e-09
  5.83359     15.6 1.118e+04 6.996e-10
  5.86888     17.4 1.045e+04 4.726e-10
  5.88895     17.3 1.014e+04 3.815e-10
  5.91388     19.5 9.931e+03 3.423e-10
  5.95403     22.0 9.876e+03 3.346e-10
  5.99418     24.4 9.918e+03 3.551e-10
  6.03433     27.0 1.010e+04 4.196e-10
  6.05558     29.6 1.035e+04 5.111e-10
  6.07566     30.0 1.031e+04 5.006e-10
  6.11462     32.5 1.082e+04 6.518e-10
  6.13880     33.3 1.096e+04 7.508e-10
  6.14874     33.5 1.093e+04 7.328e-10
  6.16461     35.1 1.143e+04 9.376e-10
  6.18468     36.9 1.181e+04 1.206e-09
  6.20475     38.6 1.206e+04 1.413e-09
  6.22202     40.4 1.278e+04 1.945e-09
  6.23206     40.2 1.276e+04 1.950e-09
  6.24490     40.9 1.453e+04 2.783e-09
  6.26497     39.1 1.754e+04 5.445e-09
  6.28505     35.7 2.063e+04 1.171e-08
  6.30005     33.1 2.220e+04 2.397e-08
  6.31004     32.7 2.174e+04 4.665e-08
  6.31528     33.6 2.146e+04 8.894e-08
  6.32030     33.6 2.139e+04 7.523e-08
  6.33012     34.9 2.142e+04 1.200e-07
  6.34015     35.8 2.145e+04 1.445e-07
  6.35019     36.9 2.131e+04 1.072e-07
  6.35694     38.4 2.123e+04 5.622e-08
  6.36195     38.4 2.079e+04 4.558e-08
  6.37026     39.3 2.111e+04 2.739e-08
  6.38425     38.0 2.177e+04 1.090e-08
  6.39429     38.9 2.182e+04 1.044e-08
  6.39864     37.1 2.006e+04 5.581e-09
  6.40873     38.4 1.958e+04 5.552e-09
  6.42556     33.9 1.680e+04 2.320e-09
  6.44564     28.8 1.334e+04 1.329e-09
  6.46571     26.8 1.277e+04 1.238e-09
  6.48201     25.4 1.267e+04 1.564e-09
  6.49204     27.6 1.292e+04 1.659e-09
  6.50586     27.2 1.352e+04 2.153e-09
  6.52593     25.9 1.421e+04 2.615e-09
  6.54094     23.7 1.474e+04 2.809e-09
  6.55092     22.8 1.504e+04 2.872e-09
  6.56096     19.2 1.545e+04 2.703e-09
  6.57025     17.5 1.630e+04 2.806e-09
  6.57526     13.4 2.114e+04 4.343e-09
  6.58103      3.8 2.456e+04 6.824e-09
  6.59107     -4.6 2.674e+04 1.645e-08
  6.60068    -12.4 2.696e+04 3.382e-08
  6.60570    -15.7 2.692e+04 4.803e-08
  6.61114    -19.7 2.645e+04 7.277e-08
  6.61692    -22.6 2.532e+04 8.921e-08
  6.62194    -27.5 2.446e+04 9.786e-08
  6.63122    -28.2 2.402e+04 8.786e-08
  6.64125    -28.7 2.360e+04 7.942e-08
  6.65129    -29.2 2.350e+04 7.128e-08
  6.65858    -29.8 2.365e+04 6.568e-08
  6.66360    -31.4 2.641e+04 2.900e-08
  6.67136    -31.8 2.781e+04 2.327e-08
  6.68140    -32.0 2.950e+04 1.942e-08
  6.69144    -32.0 3.075e+04 1.763e-08
  6.70024    -31.9 3.271e+04 1.456e-08
  6.70526    -34.7 4.397e+04 2.582e-09
  6.71151    -35.1 4.439e+04 2.359e-09
  6.72662    -34.0 3.949e+04 4.524e-09
  6.74199    -37.4 3.585e+04 1.642e-09
  6.75203    -48.4 1.771e+04 7.821e-10
  6.76681    -49.6 1.141e+04 8.075e-10
  6.78688    -48.4 1.081e+04 6.754e-10
  6.80696    -46.9 1.051e+04 5.568e-10
  6.81726    -45.7 1.035e+04 4.628e-10
  6.82558    -45.1 1.033e+04 4.312e-10
  6.83535    -45.3 1.034e+04 4.009e-10
  6.84710    -44.7 1.033e+04 3.805e-10
  6.87731    -43.2 1.034e+04 3.550e-10
  6.90882    -41.0 1.037e+04 3.387e-10
  6.92890    -42.5 9.998e+03 2.477e-10
  6.95770    -40.9 1.015e+04 2.620e-10
  6.99785    -39.9 1.040e+04 3.250e-10
  7.02786    -39.1 1.048e+04 3.624e-10
  7.04784    -39.0 1.053e+04 3.911e-10
  7.06791    -38.9 1.074e+04 4.730e-10
  7.08530    -38.7 1.114e+04 5.892e-10
  7.09533    -40.0 1.103e+04 4.850e-10
  7.10806    -40.6 1.157e+04 6.699e-10
  7.12813    -41.1 1.205e+04 9.369e-10
  7.14821    -41.5 1.244e+04 1.234e-09
  7.16828    -41.7 1.278e+04 1.516e-09
  7.17865    -41.9 1.309e+04 1.733e-09
  7.18869    -43.1 1.296e+04 1.656e-09
  7.20843    -44.4 1.362e+04 1.803e-09
  7.22850    -47.0 1.428e+04 2.015e-09
  7.24019    -49.9 1.474e+04 2.316e-09
  7.25023    -48.1 1.442e+04 2.021e-09
  7.26197    -50.6 1.466e+04 2.394e-09
  7.27200    -53.5 1.469e+04 2.542e-09
  7.28872    -54.7 1.461e+04 2.724e-09
  7.30879    -55.3 1.446e+04 2.697e-09
  7.32887    -55.8 1.410e+04 2.152e-09
  7.34528    -57.0 1.355e+04 1.435e-09
  7.35532    -59.7 1.335e+04 1.258e-09
  7.36901    -61.8 1.257e+04 8.476e-10
  7.38909    -63.8 1.197e+04 6.696e-10
  7.40916    -65.1 1.182e+04 6.206e-10
  7.42860    -66.0 1.185e+04 6.175e-10
  7.43864    -68.7 1.252e+04 8.477e-10
  7.44931    -70.1 1.280e+04 1.020e-09
  7.46938    -71.4 1.317e+04 1.332e-09
  7.48945    -73.0 1.403e+04 1.859e-09
  7.50953    -75.2 1.552e+04 2.840e-09
  7.52195    -78.2 1.764e+04 4.653e-09
  7.53199    -84.4 2.174e+04 1.426e-08
  7.54968    -86.7 2.232e+04 2.058e-08
  7.56356    -87.6 2.216e+04 2.157e-08
  7.56853    -89.1 2.236e+04 2.565e-08
  7.57467    -89.9 2.238e+04 2.655e-08
  7.58471    -91.3 2.241e+04 2.697e-08
  7.59474    -92.6 2.214e+04 2.564e-08
  7.60478    -93.6 2.195e+04 2.409e-08
  7.61019    -94.3 2.184e+04 2.285e-08
  7.61526    -97.2 2.178e+04 2.123e-08
  7.62997    -99.6 2.129e+04 1.844e-08
  7.65004   -102.0 2.032e+04 1.543e-08
  7.66312   -104.5 1.892e+04 1.238e-08
  7.67316   -104.7 1.887e+04 1.232e-08
  7.68859   -106.1 1.745e+04 1.010e-08
  7.69862   -107.5 1.808e+04 9.663e-09
  7.71026   -107.9 1.760e+04 8.446e-09
  7.73034   -108.3 1.695e+04 7.173e-09
  7.75041   -108.9 1.616e+04 6.096e-09
  7.77048   -109.2 1.542e+04 5.312e-09
  7.78194   -109.3 1.485e+04 4.758e-09
  7.79198   -109.9 1.526e+04 4.046e-09
  7.81063   -110.0 1.502e+04 3.914e-09
  7.83070   -110.2 1.480e+04 3.689e-09
  7.85078   -110.4 1.449e+04 3.358e-09
  7.86526   -110.7 1.411e+04 2.966e-09
  7.87529   -111.8 1.403e+04 3.002e-09
  7.89092   -112.3 1.390e+04 3.026e-09
  7.91100   -112.7 1.388e+04 2.933e-09
  7.93107   -113.3 1.382e+04 2.777e-09
  7.94857   -114.2 1.371e+04 2.580e-09
  7.95861   -114.5 1.490e+04 3.283e-09
  7.97122   -115.2 1.502e+04 3.138e-09
  7.99129   -116.0 1.482e+04 2.868e-09
  8.01136   -117.2 1.441e+04 2.628e-09
  8.03144   -118.6 1.394e+04 2.440e-09
  8.04193   -120.2 1.361e+04 2.302e-09
  8.05196   -120.6 1.491e+04 2.563e-09
  8.07158   -122.8 1.461e+04 2.355e-09
  8.08605   -125.0 1.445e+04 2.168e-09
  8.09609   -126.7 1.562e+04 2.366e-09
  8.11173   -129.4 1.555e+04 2.197e-09
  8.12524   -131.7 1.526e+04 2.074e-09
  8.13528   -134.6 1.697e+04 3.497e-09
  8.15188   -136.1 1.577e+04 3.032e-09
  8.17195   -137.0 1.481e+04 2.620e-09
  8.19203   -137.6 1.410e+04 2.263e-09
  8.20856   -137.9 1.358e+04 1.950e-09
  8.21860   -138.9 1.380e+04 2.165e-09
  8.23217   -139.1 1.357e+04 1.835e-09
  8.25225   -139.3 1.332e+04 1.580e-09
  8.27232   -139.5 1.305e+04 1.375e-09
  8.29188   -139.7 1.277e+04 1.178e-09
  8.30191   -141.4 1.260e+04 1.107e-09
  8.31247   -141.4 1.226e+04 9.123e-10
  8.33254   -141.4 1.197e+04 7.439e-10
  8.35261   -141.5 1.173e+04 6.049e-10
  8.37269   -141.6 1.158e+04 5.017e-10
  8.38523   -141.8 1.160e+04 4.468e-10
  8.39527   -143.5 1.188e+04 5.957e-10
  8.41283   -143.9 1.187e+04 5.930e-10
  8.43291   -144.4 1.189e+04 6.111e-10
  8.45298   -145.1 1.206e+04 7.283e-10
  8.46855   -145.6 1.229e+04 9.343e-10
  8.47858   -146.4 1.250e+04 1.208e-09
  8.49313   -146.6 1.277e+04 1.402e-09
  8.50898   -146.8 1.305e+04 1.595e-09
  8.51902   -147.3 1.317e+04 1.707e-09
  8.53327   -147.7 1.340e+04 1.752e-09
  8.55186   -148.6 1.349e+04 1.736e-09
  8.56190   -149.3 1.287e+04 1.154e-09
  8.57342   -150.4 1.285e+04 9.970e-10
  8.59349   -151.5 1.277e+04 8.559e-10
  8.61357   -152.4 1.254e+04 7.403e-10
  8.63364   -152.9 1.221e+04 6.276e-10
  8.64522   -153.1 1.185e+04 5.074e-10
  8.65525   -153.6 1.120e+04 3.059e-10
  8.68392   -153.9 1.095e+04 2.391e-10
  8.72417   -154.1 1.071e+04 1.860e-10
  8.76431   -153.7 1.038e+04 1.342e-10
  8.80201   -152.9 1.010e+04 1.071e-10
  8.82208   -152.6 9.785e+03 5.742e-11
  8.84461   -151.4 9.782e+03 5.618e-11
  8.88475   -149.9 9.791e+03 5.645e-11
  8.92207   -148.3 9.794e+03 6.020e-11
  8.94214   -149.3 9.912e+03 9.575e-11
  8.96505   -147.6 9.885e+03 9.506e-11
  8.98872   -145.8 9.888e+03 9.903e-11
  9.00879   -145.7 9.884e+03 8.915e-11
  9.04534   -144.0 9.964e+03 1.108e-10
  9.08549   -142.2 1.013e+04 1.417e-10
  9.12564   -140.7 1.035e+04 1.818e-10
  9.15535   -139.8 1.060e+04 2.322e-10
  9.17542   -140.6 1.110e+04 4.288e-10
  9.20593   -140.4 1.139e+04 5.668e-10
  9.24608   -140.4 1.171e+04 7.231e-10
  9.28622   -141.1 1.219e+04 9.258e-10
  9.32198   -143.2 1.264e+04 1.152e-09
  9.34206   -141.9 1.222e+04 1.006e-09
  9.36652   -144.4 1.241e+04 1.017e-09
  9.40666   -147.5 1.260e+04 1.056e-09
  9.43668   -151.0 1.318e+04 1.253e-09
  9.45665   -152.4 1.323e+04 1.297e-09
  9.47673   -154.1 1.338e+04 1.423e-09
  9.49680   -155.1 1.338e+04 1.444e-09
  9.50849   -155.9 1.333e+04 1.447e-09
  9.51853   -156.9 1.451e+04 1.921e-09
  9.53695   -157.2 1.437e+04 1.942e-09
  9.55702   -157.2 1.399e+04 1.801e-09
  9.57709   -157.2 1.356e+04 1.615e-09
  9.59181   -157.0 1.318e+04 1.458e-09
  9.60185   -157.5 1.454e+04 2.144e-09
  9.61724   -157.3 1.391e+04 1.756e-09
  9.63731   -157.1 1.340e+04 1.553e-09
  9.65739   -156.9 1.308e+04 1.463e-09
  9.67513   -156.6 1.289e+04 1.413e-09
  9.68516   -157.1 1.357e+04 1.844e-09
  9.69753   -156.7 1.333e+04 1.748e-09
  9.71761   -156.2 1.312e+04 1.647e-09
  9.73768   -155.8 1.292e+04 1.543e-09
  9.75775   -155.5 1.272e+04 1.431e-09
  9.76848   -155.2 1.254e+04 1.323e-09
  9.77846   -155.1 1.256e+04 1.293e-09
  9.79784   -156.0 1.199e+04 9.507e-10
  9.81797   -155.9 1.185e+04 8.871e-10
  9.84186   -156.4 1.166e+04 7.862e-10
  9.86193   -155.3 1.138e+04 6.341e-10
  9.87820   -155.2 1.134e+04 6.095e-10
  9.89827   -155.1 1.124e+04 5.811e-10
  9.91834   -155.7 1.124e+04 5.743e-10
  9.93511   -157.8 1.187e+04 7.270e-10
  9.94515   -157.9 1.176e+04 6.038e-10
  9.95849   -161.3 1.259e+04 8.642e-10
  9.97856   -165.5 1.608e+04 2.727e-09
  9.99864   -167.5 1.846e+04 7.077e-09
 10.01843   -168.5 1.992e+04 1.346e-08
 10.02847   -171.3 2.000e+04 1.209e-08
 10.03878   -172.5 2.016e+04 1.383e-08
 10.05886   -173.8 1.968e+04 1.324e-08
 10.07893   -175.1 1.839e+04 9.141e-09
 10.09900   -176.9 1.654e+04 5.114e-09
 10.11178   -179.0 1.435e+04 2.827e-09
 10.12182   -181.0 1.276e+04 1.907e-09
 10.13915   -181.8 1.165e+04 1.372e-09
 10.15922   -181.9 1.117e+04 1.106e-09
 10.17930   -181.2 1.083e+04 9.295e-10
 10.19510   -180.4 1.051e+04 7.838e-10
 10.20514   -180.5 1.025e+04 7.093e-10
 10.21073   -179.6 9.946e+03 5.949e-10
 10.22077   -181.0 9.723e+03 5.234e-10
 10.23952   -179.9 9.433e+03 4.330e-10
 10.25959   -178.7 9.326e+03 3.813e-10
 10.28980   -176.8 9.370e+03 3.657e-10
 10.33004   -176.5 9.342e+03 3.470e-10
 10.36193   -176.3 9.021e+03 3.117e-10
 10.38200   -176.3 8.870e+03 3.066e-10
 10.41034   -175.4 8.692e+03 2.765e-10
 10.45048   -174.5 8.671e+03 2.601e-10
 10.49063   -173.8 8.689e+03 2.527e-10
 10.52856   -173.4 8.696e+03 2.506e-10
 10.54864   -173.7 8.835e+03 2.778e-10
 10.57092   -173.7 8.844e+03 2.732e-10
 10.61107   -173.9 8.849e+03 2.727e-10
 10.63386   -174.2 8.983e+03 2.890e-10
 10.65393   -176.6 9.188e+03 3.185e-10
 10.69137   -176.8 9.307e+03 3.524e-10
 10.71527   -177.1 9.384e+03 3.743e-10
 10.73534   -178.0 9.744e+03 4.676e-10
 10.77166   -181.9 1.037e+04 5.524e-10
 10.79849   -185.2 1.085e+04 6.023e-10
 10.80843   -187.1 1.159e+04 8.653e-10
 10.82165   -190.1 1.306e+04 1.480e-09
 10.84172   -192.4 1.473e+04 2.879e-09
 10.86179   -193.9 1.629e+04 5.349e-09
 10.88171   -195.5 1.736e+04 8.059e-09
 10.89174   -196.4 1.714e+04 7.556e-09
 10.90194   -198.8 1.727e+04 7.852e-09
 10.92201   -201.1 1.716e+04 7.272e-09
 10.94209   -203.4 1.661e+04 5.594e-09
 10.96216   -206.0 1.579e+04 4.021e-09
 10.97506   -208.6 1.488e+04 2.926e-09
 10.98510   -210.7 1.388e+04 2.086e-09
 11.00231   -212.7 1.332e+04 1.767e-09
 11.02238   -214.1 1.290e+04 1.568e-09
 11.04246   -215.4 1.258e+04 1.428e-09
 11.05659   -216.5 1.235e+04 1.326e-09
 11.06248   -217.5 1.253e+04 1.458e-09
 11.06841   -218.9 1.252e+04 1.458e-09
 11.08260   -219.7 1.226e+04 1.341e-09
 11.10268   -220.3 1.206e+04 1.256e-09
 11.13288   -221.4 1.183e+04 1.175e-09
 11.17313   -222.0 1.132e+04 1.010e-09
 11.21327   -222.2 1.086e+04 8.181e-10
 11.23524   -222.4 1.042e+04 6.437e-10
 11.25532   -223.6 9.876e+03 4.620e-10
 11.29357   -223.2 9.477e+03 3.551e-10
 11.33372   -222.5 9.194e+03 2.850e-10
 11.37386   -221.7 8.989e+03 2.345e-10
 11.40188   -220.8 8.823e+03 1.945e-10
 11.42195   -221.3 8.585e+03 1.536e-10
 11.45416   -220.3 8.475e+03 1.327e-10
 11.47972   -219.2 8.378e+03 1.171e-10
 11.49979   -219.7 8.426e+03 1.225e-10
 11.53445   -218.4 8.404e+03 1.175e-10
 11.56851   -217.0 8.402e+03 1.166e-10
 11.58858   -217.2 8.262e+03 9.872e-11
 11.61474   -215.8 8.264e+03 9.866e-11
 11.65489   -214.6 8.320e+03 9.880e-11
 11.69504   -213.7 8.491e+03 1.096e-10
 11.73514   -213.2 8.707e+03 1.410e-10
 11.77529   -213.8 9.176e+03 2.033e-10
 11.81548   -214.0 9.924e+03 3.358e-10
 11.85563   -214.3 1.067e+04 5.445e-10
 11.89577   -215.0 1.123e+04 7.577e-10
 11.92185   -215.9 1.146e+04 8.369e-10
 11.94192   -217.5 1.118e+04 7.336e-10
 11.96593   -217.6 1.121e+04 7.012e-10
 11.98591   -218.0 1.111e+04 6.582e-10
 12.00497   -218.9 1.066e+04 5.103e-10
 12.01501   -218.9 1.047e+04 4.240e-10
 12.02605   -218.9 1.034e+04 3.676e-10
 12.04613   -218.2 1.033e+04 3.544e-10
 12.06620   -217.8 1.034e+04 3.535e-10
 12.08838   -217.3 1.042e+04 3.688e-10
 12.10856   -218.3 1.044e+04 3.347e-10
 12.13665   -217.8 1.053e+04 3.378e-10
 12.17680   -217.2 1.071e+04 3.454e-10
 12.21695   -216.6 1.093e+04 3.643e-10
 12.25512   -216.1 1.114e+04 3.873e-10
 12.27519   -217.6 1.100e+04 3.301e-10
 12.29724   -217.2 1.105e+04 3.337e-10
 12.32558   -216.9 1.108e+04 3.196e-10
 12.34565   -216.5 1.096e+04 3.075e-10
 12.37753   -215.9 1.099e+04 2.898e-10
 12.41768   -215.3 1.096e+04 2.653e-10
 12.44182   -214.5 1.095e+04 2.505e-10
 12.46190   -216.0 1.087e+04 2.462e-10
 12.49798   -215.2 1.098e+04 2.495e-10
 12.53812   -214.3 1.128e+04 2.888e-10
 12.57827   -213.4 1.164e+04 3.626e-10
 12.60845   -212.4 1.195e+04 4.358e-10
 12.62843   -213.3 1.199e+04 4.807e-10
 12.64833   -213.1 1.202e+04 5.147e-10
 12.66840   -213.1 1.200e+04 5.224e-10
 12.68848   -212.9 1.187e+04 5.132e-10
 12.70161   -212.5 1.175e+04 4.597e-10
 12.71165   -212.7 1.164e+04 4.061e-10
 12.73876   -212.0 1.165e+04 3.917e-10
 12.77509   -211.6 1.150e+04 3.562e-10
 12.79516   -212.7 1.122e+04 2.789e-10
 12.81915   -212.2 1.111e+04 2.466e-10
 12.85930   -211.7 1.110e+04 2.287e-10
 12.89944   -211.6 1.111e+04 2.235e-10
 12.93959   -211.6 1.119e+04 2.333e-10
 12.96179   -211.6 1.133e+04 2.662e-10
 12.98187   -212.7 1.103e+04 2.272e-10
 13.01989   -212.5 1.120e+04 2.774e-10
 13.06003   -212.4 1.132e+04 3.121e-10
 13.10018   -212.2 1.133e+04 3.214e-10
 13.12843   -211.7 1.124e+04 3.143e-10
 13.14850   -212.0 1.107e+04 2.980e-10
 13.17143   -211.2 1.096e+04 2.488e-10
 13.19151   -210.7 1.102e+04 2.767e-10
 13.22062   -209.9 1.094e+04 2.225e-10
 13.26077   -209.0 1.091e+04 1.781e-10
 13.29506   -208.0 1.097e+04 1.573e-10
 13.31513   -208.6 1.094e+04 1.488e-10
 13.34106   -207.7 1.096e+04 1.468e-10
 13.38121   -207.1 1.119e+04 1.489e-10
 13.42135   -206.6 1.141e+04 1.707e-10
 13.46150   -206.2 1.147e+04 2.097e-10
 13.50165   -207.1 1.143e+04 2.474e-10
 13.54179   -207.2 1.154e+04 3.150e-10
 13.58194   -207.5 1.202e+04 4.360e-10
 13.62209   -207.7 1.278e+04 6.176e-10
 13.64830   -208.3 1.297e+04 6.519e-10
 13.65824   -208.7 1.284e+04 6.259e-10
 13.67208   -209.6 1.310e+04 7.410e-10
 13.69215   -211.2 1.342e+04 1.089e-09
 13.71222   -212.3 1.339e+04 1.345e-09
 13.73152   -212.8 1.332e+04 1.416e-09
 13.74156   -212.5 1.309e+04 1.257e-09
 13.75237   -212.6 1.302e+04 1.264e-09
 13.77244   -212.5 1.269e+04 1.178e-09
 13.79252   -212.1 1.242e+04 9.508e-10
 13.81259   -211.5 1.218e+04 7.069e-10
 13.82488   -210.8 1.201e+04 5.036e-10
 13.83491   -210.3 1.199e+04 4.264e-10
 13.86287   -209.9 1.190e+04 3.222e-10
 13.90312   -209.0 1.170e+04 2.485e-10
 13.94326   -207.2 1.143e+04 1.776e-10
 13.98167   -205.2 1.125e+04 1.359e-10
 14.00174   -204.4 1.119e+04 1.306e-10
 14.01729   -202.5 1.117e+04 1.167e-10
 14.03737   -201.9 1.122e+04 1.175e-10
 14.06370   -200.1 1.121e+04 1.124e-10
 14.10385   -198.1 1.122e+04 1.116e-10
 14.14400   -196.3 1.122e+04 1.120e-10
 14.16837   -194.5 1.128e+04 1.115e-10
 14.18845   -193.8 1.122e+04 1.056e-10
 14.22429   -192.0 1.113e+04 1.018e-10
 14.26444   -190.1 1.109e+04 9.707e-11
 14.30459   -188.2 1.110e+04 9.484e-11
 14.33501   -186.4 1.111e+04 9.473e-11
 14.35508   -185.8 1.109e+04 8.633e-11
 14.38488   -184.5 1.131e+04 9.807e-11
 14.42503   -183.4 1.150e+04 1.476e-10
 14.46517   -182.1 1.165e+04 2.312e-10
 14.50164   -180.8 1.181e+04 3.292e-10
 14.52171   -180.9 1.190e+04 3.780e-10
 14.54547   -180.0 1.199e+04 4.326e-10
 14.58561   -179.3 1.199e+04 4.420e-10
 14.62576   -178.3 1.191e+04 4.193e-10
 14.66591   -177.0 1.180e+04 3.830e-10
 14.68835   -175.7 1.175e+04 3.609e-10
 14.70842   -175.9 1.181e+04 3.462e-10
 14.74620   -174.6 1.183e+04 3.426e-10
 14.78635   -173.4 1.180e+04 3.407e-10
 14.82650   -172.3 1.172e+04 3.360e-10
 14.85498   -171.1 1.160e+04 3.233e-10
 14.87156   -171.2 1.169e+04 3.264e-10
 14.88323   -171.1 1.158e+04 2.880e-10
 14.90679   -169.9 1.152e+04 2.952e-10
 14.94694   -168.8 1.149e+04 3.148e-10
 14.98708   -167.7 1.155e+04 3.472e-10
 15.02161   -166.7 1.166e+04 3.912e-10
 15.04169   -167.4 1.204e+04 5.795e-10
 15.06738   -166.7 1.215e+04 6.405e-10
 15.10752   -166.1 1.219e+04 6.630e-10
 15.14767   -165.4 1.211e+04 6.365e-10
 15.18782   -164.6 1.194e+04 5.445e-10
 15.20832   -163.7 1.183e+04 4.460e-10
 15.22839   -164.6 1.169e+04 3.810e-10
 15.26811   -163.7 1.155e+04 3.092e-10
 15.30826   -162.8 1.147e+04 2.724e-10
 15.34841   -161.9 1.145e+04 2.540e-10
 15.37495   -161.1 1.146e+04 2.463e-10
 15.39503   -162.1 1.146e+04 2.187e-10
 15.42870   -161.8 1.158e+04 2.533e-10
 15.46885   -161.8 1.183e+04 3.238e-10
 15.50899   -162.0 1.212e+04 4.516e-10
 15.54159   -162.4 1.236e+04 6.370e-10
 15.56166   -164.1 1.261e+04 9.019e-10
 15.58929   -164.5 1.276e+04 1.080e-09
 15.62943   -164.9 1.279e+04 1.140e-09
 15.66958   -165.1 1.273e+04 1.107e-09
 15.70822   -164.8 1.252e+04 9.541e-10
 15.72758   -166.2 1.219e+04 8.116e-10
 15.72908   -166.0 1.231e+04 9.104e-10
 15.74987   -165.6 1.204e+04 7.207e-10
 15.77989   -164.8 1.187e+04 6.246e-10
 15.79986   -164.5 1.183e+04 5.970e-10
 15.81142   -164.0 1.181e+04 5.869e-10
 15.82145   -164.3 1.178e+04 5.750e-10
 15.84001   -164.0 1.177e+04 5.729e-10
 15.86008   -163.1 1.180e+04 5.741e-10
 15.88016   -162.8 1.180e+04 5.803e-10
 15.89473   -161.9 1.181e+04 5.850e-10
 15.91490   -162.0 1.172e+04 5.303e-10
 15.95061   -160.4 1.166e+04 4.947e-10
 15.99076   -159.1 1.155e+04 4.355e-10
 16.03090   -157.8 1.137e+04 3.652e-10
 16.06156   -156.5 1.113e+04 2.972e-10
 16.08163   -157.0 1.081e+04 2.058e-10
 16.11120   -155.4 1.072e+04 1.951e-10
 16.15134   -153.8 1.070e+04 1.963e-10
 16.19149   -152.2 1.072e+04 2.338e-10
 16.22819   -150.5 1.088e+04 3.124e-10
 16.24827   -150.6 1.088e+04 2.983e-10
 16.27178   -148.8 1.106e+04 3.936e-10
 16.31193   -147.3 1.126e+04 4.722e-10
 16.35208   -146.1 1.137e+04 5.069e-10
 16.39222   -145.4 1.140e+04 5.138e-10
 16.41490   -144.8 1.139e+04 5.080e-10
 16.43497   -144.9 1.131e+04 4.993e-10
 16.47252   -144.2 1.128e+04 4.688e-10
 16.51267   -143.5 1.130e+04 4.611e-10
 16.55281   -142.7 1.138e+04 4.726e-10
 16.57494   -141.9 1.146e+04 4.907e-10
 16.58359   -141.5 1.129e+04 4.083e-10
 16.60161   -141.3 1.122e+04 3.624e-10
 16.63311   -140.3 1.126e+04 3.760e-10
 16.67325   -139.2 1.127e+04 3.712e-10
 16.71340   -138.1 1.120e+04 3.332e-10
 16.74817   -137.0 1.110e+04 2.736e-10
 16.76824   -136.5 1.104e+04 2.580e-10
 16.79369   -135.3 1.101e+04 2.087e-10
 16.83384   -134.0 1.102e+04 1.677e-10
 16.87399   -132.6 1.107e+04 1.393e-10
 16.91413   -131.2 1.112e+04 1.220e-10
 16.93487   -129.8 1.113e+04 1.123e-10
 16.95495   -129.4 1.112e+04 1.209e-10
 16.99443   -128.0 1.110e+04 1.191e-10
 17.03457   -126.7 1.109e+04 1.195e-10
 17.07472   -125.4 1.110e+04 1.227e-10
 17.10151   -124.1 1.110e+04 1.287e-10
 17.12158   -124.0 1.116e+04 1.586e-10
 17.15502   -122.7 1.115e+04 1.644e-10
 17.19516   -121.4 1.113e+04 1.646e-10
 17.23531   -120.0 1.106e+04 1.587e-10
 17.26814   -118.6 1.100e+04 1.466e-10
 17.28821   -118.7 1.102e+04 1.673e-10
 17.31560   -117.2 1.099e+04 1.545e-10
 17.35575   -115.8 1.098e+04 1.506e-10
 17.39590   -114.4 1.099e+04 1.509e-10
 17.42080   -113.1 1.104e+04 1.654e-10
 17.43960   -113.6 1.105e+04 1.670e-10
 17.45485   -113.5 1.104e+04 1.688e-10
 17.47619   -112.6 1.120e+04 2.099e-10
 17.51634   -112.3 1.150e+04 3.064e-10
 17.55648   -112.4 1.190e+04 5.022e-10
 17.59663   -112.5 1.232e+04 7.941e-10
 17.62148   -112.9 1.269e+04 1.038e-09
 17.64155   -113.1 1.279e+04 1.223e-09
 17.66679   -113.3 1.290e+04 1.208e-09
 17.68677   -113.5 1.281e+04 1.137e-09
 17.70460   -114.1 1.263e+04 9.473e-10
 17.71464   -114.1 1.255e+04 9.241e-10
 17.72691   -114.8 1.239e+04 7.940e-10
 17.74699   -115.4 1.232e+04 7.501e-10
 17.76706   -116.0 1.232e+04 7.418e-10
 17.78713   -116.7 1.236e+04 7.646e-10
 17.79795   -117.3 1.241e+04 8.331e-10
 17.80799   -118.1 1.262e+04 1.014e-09
 17.82728   -118.4 1.281e+04 1.238e-09
 17.84353   -118.5 1.306e+04 1.392e-09
 17.85357   -118.1 1.297e+04 1.318e-09
 17.86743   -118.1 1.318e+04 1.407e-09
 17.88127   -118.2 1.327e+04 1.406e-09
 17.89131   -118.8 1.397e+04 2.264e-09
 17.90757   -118.9 1.389e+04 2.087e-09
 17.92765   -119.0 1.369e+04 1.824e-09
 17.94772   -118.9 1.344e+04 1.494e-09
 17.96459   -118.8 1.315e+04 1.102e-09
 17.97462   -119.2 1.345e+04 1.305e-09
 17.99800   -120.0 1.287e+04 7.430e-10
 18.03825   -119.2 1.238e+04 5.228e-10
 18.07839   -118.0 1.185e+04 3.958e-10
 18.11854   -116.5 1.166e+04 3.754e-10
 18.14145   -115.1 1.158e+04 3.828e-10
 18.16153   -115.3 1.161e+04 3.805e-10
 18.19883   -113.8 1.154e+04 4.081e-10
 18.23898   -112.4 1.145e+04 4.562e-10
 18.26656   -111.0 1.139e+04 5.012e-10
 18.28664   -110.6 1.141e+04 4.949e-10
 18.30809   -109.1 1.132e+04 4.997e-10
 18.32816   -108.5 1.127e+04 4.923e-10
 18.35942   -107.4 1.119e+04 4.807e-10
 18.39957   -106.2 1.101e+04 4.251e-10
 18.43972   -104.0 1.077e+04 3.449e-10
 18.47472   -101.7 1.060e+04 2.729e-10
 18.49479   -101.7 1.051e+04 2.473e-10
 18.52001    -99.7 1.038e+04 1.959e-10
 18.56016    -97.6 1.024e+04 1.674e-10
 18.60030    -95.4 1.014e+04 1.547e-10
 18.64045    -93.2 1.012e+04 1.507e-10
 18.66143    -91.2 1.016e+04 1.541e-10
 18.68150    -90.8 1.004e+04 1.215e-10
 18.72074    -89.0 1.009e+04 1.410e-10
 18.76089    -87.2 1.011e+04 1.871e-10
 18.80104    -85.2 1.013e+04 2.524e-10
 18.82806    -83.1 1.022e+04 3.182e-10
 18.84813    -82.4 1.007e+04 2.440e-10
 18.88133    -80.3 1.017e+04 2.980e-10
 18.92148    -78.3 1.028e+04 3.419e-10
 18.96163    -76.6 1.037e+04 3.756e-10
 18.99469    -74.9 1.046e+04 4.181e-10
 19.01477    -74.2 1.055e+04 4.516e-10
 19.04192    -72.7 1.066e+04 5.158e-10
 19.08207    -71.2 1.072e+04 5.467e-10
 19.11252    -69.7 1.075e+04 5.601e-10
 19.13259    -69.5 1.070e+04 5.423e-10
 19.16133    -67.9 1.068e+04 5.463e-10
 19.18140    -67.1 1.064e+04 5.312e-10
 19.20251    -65.4 1.055e+04 5.177e-10
 19.24265    -63.5 1.046e+04 5.140e-10
 19.28280    -61.5 1.046e+04 5.071e-10
 19.32295    -60.1 1.046e+04 4.795e-10
 19.34803    -58.8 1.043e+04 4.548e-10
 19.36811    -57.9 1.047e+04 4.557e-10
 19.40324    -57.0 1.062e+04 5.083e-10
 19.44339    -55.5 1.061e+04 5.873e-10
 19.48354    -54.0 1.042e+04 5.514e-10
 19.51467    -52.6 1.009e+04 4.085e-10
 19.53474    -51.9 1.019e+04 4.550e-10
 19.56383    -50.8 9.829e+03 3.125e-10
 19.60398    -49.8 9.507e+03 2.359e-10
 19.64412    -48.6 9.335e+03 2.098e-10
 19.68130    -47.1 9.281e+03 2.063e-10
 19.70137    -46.3 9.184e+03 1.803e-10
 19.72442    -44.8 9.208e+03 1.897e-10
 19.76456    -43.5 9.248e+03 2.124e-10
 19.80471    -42.2 9.291e+03 2.330e-10
 19.84486    -41.0 9.255e+03 2.214e-10
 19.86801    -39.6 9.100e+03 1.775e-10
 19.88808    -38.4 9.106e+03 1.749e-10
 19.92515    -37.2 8.964e+03 1.229e-10
 19.95838    -36.3 8.771e+03 8.905e-11
 19.97845    -35.0 8.851e+03 9.531e-11
 20.00544    -34.3 8.621e+03 7.982e-11
 20.03464    -33.1 8.604e+03 8.010e-11
 20.05471    -32.1 8.605e+03 7.989e-11
 20.08574    -31.4 8.728e+03 9.397e-11
 20.12589    -30.9 8.997e+03 1.518e-10
 20.16603    -30.3 9.501e+03 2.826e-10
 20.20127    -29.5 1.005e+04 4.648e-10
 20.22135    -28.7 9.975e+03 4.371e-10
 20.24633    -28.1 1.027e+04 5.394e-10
 20.28647    -27.5 1.018e+04 4.936e-10
 20.32662    -27.2 9.936e+03 3.740e-10
 20.36677    -27.1 9.681e+03 2.747e-10
 20.38798    -26.9 9.430e+03 2.222e-10
 20.40805    -26.5 9.433e+03 2.211e-10
 20.44706    -26.1 9.299e+03 2.212e-10
 20.48721    -25.6 9.452e+03 2.514e-10
 20.52735    -25.1 9.661e+03 3.233e-10
 20.55461    -24.2 9.923e+03 4.332e-10
 20.57469    -23.8 9.760e+03 3.915e-10
 20.60765    -22.7 9.858e+03 4.228e-10
 20.64780    -21.8 9.846e+03 4.062e-10
 20.68794    -20.9 9.864e+03 3.885e-10
 20.72125    -20.6 9.958e+03 4.045e-10
 20.74132    -19.6 9.758e+03 3.502e-10
 20.76824    -19.4 1.003e+04 4.364e-10
 20.80423    -18.8 1.026e+04 5.703e-10
 20.82431    -17.7 1.031e+04 5.798e-10
 20.84853    -17.2 1.044e+04 6.353e-10
 20.88788    -16.7 1.037e+04 6.077e-10
 20.90795    -15.9 1.052e+04 6.851e-10
 20.92882    -15.7 1.031e+04 5.989e-10
 20.96897    -15.6 1.017e+04 5.468e-10
 21.00912    -15.3 1.000e+04 5.059e-10
 21.04926    -14.7 9.840e+03 4.628e-10
 21.07459    -13.7 9.675e+03 4.081e-10
 21.09466    -13.0 9.421e+03 3.215e-10
 21.12956    -11.8 9.300e+03 2.842e-10
 21.16970    -10.5 9.189e+03 2.492e-10
 21.20985     -9.1 9.112e+03 2.193e-10
 21.24122     -7.5 9.077e+03 1.914e-10
 21.26129     -6.9 8.984e+03 1.817e-10
 21.29015     -5.3 9.020e+03 1.668e-10
 21.33029     -3.9 9.042e+03 1.506e-10
 21.37044     -2.6 9.066e+03 1.453e-10
 21.40785     -1.9 9.167e+03 1.572e-10
 21.42793     -1.5 9.316e+03 1.935e-10
 21.45073     -1.2 9.600e+03 2.717e-10
 21.49088     -0.8 1.009e+04 4.862e-10
 21.53103      0.0 1.070e+04 8.196e-10
 21.57117      0.5 1.094e+04 9.182e-10
 21.59456      1.2 1.081e+04 8.227e-10
 21.61463      1.8 1.072e+04 7.657e-10
 21.65009      2.7 1.039e+04 5.464e-10
 21.67017      3.6 1.034e+04 5.341e-10
 21.69161      4.6 1.003e+04 3.248e-10
 21.73176      5.3 9.772e+03 1.993e-10
 21.76119      6.2 9.460e+03 1.572e-10
 21.78127      7.4 9.629e+03 1.747e-10
 21.81206      8.7 9.356e+03 1.555e-10
 21.85220     10.3 9.232e+03 1.517e-10
 21.89235     12.0 9.177e+03 1.474e-10
 21.92783     13.7 9.134e+03 1.404e-10
 21.94790     14.5 9.239e+03 1.443e-10
 21.97264     15.9 9.189e+03 1.351e-10
 22.01279     17.0 9.144e+03 1.280e-10
 22.05294     18.0 9.112e+03 1.278e-10
 22.09308     18.9 9.139e+03 1.385e-10
 22.11453     19.9 9.203e+03 1.672e-10
 22.13461     20.1 9.260e+03 1.869e-10
 22.17338     21.3 9.272e+03 2.137e-10
 22.21352     22.6 9.253e+03 2.371e-10
 22.25367     24.1 9.237e+03 2.515e-10
 22.28117     25.7 9.235e+03 2.574e-10
 22.30124     26.0 9.006e+03 2.053e-10
 22.33396     27.6 8.948e+03 1.930e-10
 22.37411     29.2 8.903e+03 1.814e-10
 22.41426     31.0 8.915e+03 1.799e-10
 22.44780     32.6 8.983e+03 1.862e-10
 22.46787     33.3 8.875e+03 1.664e-10
 22.49455     34.5 9.133e+03 1.991e-10
 22.51603     34.9 9.716e+03 3.482e-10
 22.53610     34.4 9.848e+03 4.005e-10
 22.57485     34.7 1.100e+04 8.975e-10
 22.61443     34.8 1.218e+04 1.722e-09
 22.63451     35.7 1.217e+04 1.705e-09
 22.65514     35.0 1.275e+04 2.041e-09
 22.69529     33.9 1.256e+04 1.776e-09
 22.73543     33.6 1.184e+04 9.805e-10
 22.77558     33.1 1.082e+04 3.964e-10
 22.80114     32.3 9.977e+03 1.879e-10
 22.82121     33.1 1.001e+04 1.864e-10
 22.85587     33.2 9.653e+03 1.600e-10
 22.89602     34.4 9.605e+03 1.545e-10
 22.93617     36.1 9.630e+03 1.548e-10
 22.96777     37.6 9.688e+03 1.564e-10
 22.98785     38.1 9.682e+03 1.525e-10
 23.01646     39.4 9.752e+03 1.544e-10
 23.05661     40.4 9.860e+03 1.601e-10
 23.09676     41.3 9.964e+03 1.764e-10
 23.13441     42.3 1.006e+04 2.009e-10
 23.15448     42.2 1.021e+04 2.518e-10
 23.17705     43.2 1.036e+04 3.025e-10
 23.21720     44.3 1.053e+04 3.148e-10
 23.25734     45.4 1.061e+04 3.174e-10
 23.29749     46.6 1.069e+04 3.236e-10
 23.32111     47.7 1.089e+04 3.519e-10
 23.34119     47.5 1.115e+04 4.558e-10
 23.36188     48.5 1.152e+04 5.959e-10
 23.38196     48.0 1.175e+04 7.116e-10
 23.41793     49.0 1.206e+04 8.241e-10
 23.45808     49.7 1.214e+04 8.409e-10
 23.48775     50.6 1.206e+04 7.531e-10
 23.50782     50.3 1.217e+04 8.463e-10
 23.53837     51.6 1.183e+04 5.983e-10
 23.57852     53.1 1.144e+04 3.851e-10
 23.61867     54.5 1.114e+04 2.546e-10
 23.65438     55.8 1.080e+04 1.961e-10
 23.67445     55.5 1.073e+04 1.889e-10
 23.69896     57.1 1.074e+04 1.868e-10
 23.73911     59.0 1.070e+04 1.972e-10
 23.77925     60.8 1.061e+04 2.168e-10
 23.81940     62.5 1.055e+04 2.444e-10
 23.84109     64.4 1.059e+04 2.870e-10
 23.86116     64.1 1.052e+04 2.882e-10
 23.89969     65.7 1.070e+04 3.310e-10
 23.92430     66.7 1.076e+04 3.545e-10
 23.93424     66.3 1.074e+04 3.530e-10
 23.94968     66.7 1.079e+04 3.745e-10
 23.96976     66.9 1.085e+04 4.180e-10
 23.98983     67.1 1.098e+04 4.810e-10
 24.00752     66.4 1.126e+04 5.594e-10
 24.01756     65.8 1.112e+04 5.627e-10
 24.02998     64.3 1.146e+04 6.216e-10
 24.05005     62.1 1.260e+04 7.821e-10
 24.07012     60.7 1.399e+04 1.292e-09
 24.09020     60.4 1.454e+04 1.921e-09
 24.10088     60.7 1.454e+04 2.363e-09
 24.11091     61.1 1.298e+04 1.056e-09
 24.13034     61.1 1.294e+04 1.169e-09
 24.15042     61.2 1.285e+04 1.251e-09
 24.17049     61.2 1.277e+04 1.341e-09
 24.18419     61.3 1.272e+04 1.464e-09
 24.19423     61.2 1.205e+04 9.686e-10
 24.20755     61.4 1.219e+04 1.208e-09
 24.21758     60.7 1.232e+04 1.452e-09
 24.23071     61.2 1.241e+04 1.710e-09
 24.25078     62.0 1.254e+04 1.942e-09
 24.26751     62.8 1.271e+04 2.156e-09
 24.27755     62.9 1.260e+04 2.102e-09
 24.29093     63.9 1.271e+04 2.271e-09
 24.31100     64.7 1.272e+04 2.148e-09
 24.33108     65.5 1.262e+04 1.868e-09
 24.35083     65.9 1.245e+04 1.518e-09
 24.36086     66.2 1.274e+04 1.979e-09
 24.37122     66.4 1.254e+04 1.624e-09
 24.39130     66.3 1.224e+04 1.314e-09
 24.41137     66.1 1.189e+04 1.112e-09
 24.43144     65.9 1.159e+04 1.057e-09
 24.44418     65.8 1.156e+04 1.086e-09
 24.45422     66.0 1.187e+04 1.265e-09
 24.47159     65.6 1.190e+04 1.340e-09
 24.49167     65.3 1.213e+04 1.578e-09
 24.51174     65.0 1.259e+04 1.980e-09
 24.52750     64.8 1.313e+04 2.529e-09
 24.53753     63.8 1.330e+04 2.623e-09
 24.55189     63.6 1.373e+04 3.208e-09
 24.57196     63.7 1.406e+04 3.715e-09
 24.59203     63.7 1.406e+04 3.699e-09
 24.61081     63.6 1.400e+04 3.586e-09
 24.62085     62.6 1.359e+04 2.982e-09
 24.63048     62.5 1.326e+04 2.606e-09
 24.64051     62.6 1.287e+04 2.278e-09
 24.65225     62.5 1.248e+04 1.913e-09
 24.67233     62.4 1.201e+04 1.575e-09
 24.69240     62.3 1.151e+04 1.293e-09
 24.70417     62.6 1.106e+04 1.085e-09
 24.71420     61.9 1.084e+04 1.001e-09
 24.73255     62.6 1.059e+04 9.010e-10
 24.75262     63.4 1.037e+04 8.097e-10
 24.78283     64.6 1.032e+04 7.621e-10
 24.82307     66.7 1.000e+04 6.239e-10
 24.85308     67.8 9.721e+03 5.394e-10
 24.87080     68.7 9.567e+03 5.019e-10
 24.88084     68.5 9.712e+03 5.504e-10
 24.89313     69.3 9.712e+03 5.514e-10
 24.91321     70.0 9.748e+03 5.616e-10
 24.93328     70.5 9.871e+03 5.967e-10
 24.95335     70.5 1.011e+04 6.743e-10
 24.96415     70.2 1.051e+04 8.231e-10
 24.97419     70.0 1.070e+04 9.010e-10
 24.99350     69.4 1.132e+04 1.188e-09
 25.01357     68.7 1.205e+04 1.648e-09
 25.03365     68.1 1.272e+04 2.230e-09
 25.04747     67.7 1.323e+04 2.698e-09
 25.05719     67.3 1.377e+04 3.256e-09
 25.06344     68.0 1.385e+04 3.376e-09
 25.07380     67.4 1.434e+04 3.827e-09
 25.09387     66.4 1.433e+04 3.710e-09
 25.11394     65.7 1.397e+04 3.035e-09
 25.13079     64.9 1.315e+04 1.995e-09
 25.14082     64.7 1.358e+04 2.340e-09
 25.15409     63.4 1.226e+04 1.309e-09
 25.17416     61.5 1.073e+04 7.449e-10
 25.19424     59.7 9.532e+03 5.093e-10
 25.21410     59.3 9.283e+03 4.413e-10
 25.22414     59.2 9.285e+03 4.569e-10
 25.23438     59.4 9.186e+03 4.219e-10
 25.25446     59.9 9.111e+03 4.064e-10
 25.27453     60.5 9.074e+03 4.041e-10
 25.29460     61.2 9.091e+03 4.069e-10
 25.30746     61.6 9.176e+03 4.207e-10
 25.31749     61.4 9.167e+03 4.195e-10
 25.33475     61.2 9.354e+03 4.573e-10
 25.35482     60.5 9.868e+03 5.832e-10
 25.37490     59.4 1.090e+04 8.854e-10
 25.39077     58.3 1.235e+04 1.544e-09
 25.40081     58.0 1.243e+04 1.681e-09
 25.41504     56.8 1.388e+04 2.849e-09
 25.43512     55.3 1.536e+04 4.655e-09
 25.45519     53.8 1.638e+04 6.742e-09
 25.47409     52.2 1.697e+04 8.165e-09
 25.48413     52.1 1.641e+04 7.087e-09
 25.48637     50.2 1.652e+04 6.950e-09
 25.49641     51.9 1.751e+04 9.229e-09
 25.51541     49.9 1.769e+04 8.784e-09
 25.53548     47.4 1.774e+04 6.885e-09
 25.55556     43.7 1.709e+04 4.629e-09
 25.56744     38.9 1.519e+04 3.952e-09
 25.57748     39.4 1.443e+04 3.592e-09
 25.59570     36.1 1.403e+04 3.478e-09
 25.61578     34.4 1.395e+04 3.379e-09
 25.63585     33.7 1.402e+04 3.214e-09
 25.65076     33.3 1.419e+04 3.020e-09
 25.66080     34.6 1.383e+04 2.812e-09
 25.67600     34.0 1.416e+04 2.633e-09
 25.69607     33.3 1.437e+04 2.623e-09
 25.71615     32.7 1.480e+04 2.652e-09
 25.73408     32.3 1.539e+04 2.805e-09
 25.74411     33.7 1.434e+04 2.634e-09
 25.75629     33.7 1.486e+04 2.750e-09
 25.77637     33.8 1.548e+04 3.090e-09
 25.79644     34.1 1.588e+04 3.594e-09
 25.81651     34.6 1.612e+04 4.179e-09
 25.82743     35.0 1.629e+04 4.735e-09
 25.83747     36.5 1.560e+04 3.714e-09
 25.85666     37.0 1.585e+04 4.171e-09
 25.87673     37.5 1.605e+04 4.649e-09
 25.89681     38.0 1.618e+04 5.105e-09
 25.90930     38.6 1.620e+04 5.348e-09
 25.91320     39.7 1.722e+04 6.800e-09
 25.92078     41.0 1.719e+04 6.633e-09
 25.93695     41.5 1.712e+04 6.636e-09
 25.95703     42.2 1.690e+04 6.383e-09
 25.97710     42.9 1.659e+04 5.829e-09
 25.99406     43.6 1.627e+04 5.200e-09
 26.00410     44.9 1.639e+04 5.446e-09
 26.01725     45.6 1.605e+04 4.798e-09
 26.03732     46.2 1.592e+04 4.262e-09
 26.05739     46.4 1.614e+04 4.172e-09
 26.07738     46.2 1.678e+04 4.509e-09
 26.09745     47.7 1.696e+04 4.297e-09
 26.11761     47.8 1.818e+04 5.595e-09
 26.13769     48.1 1.912e+04 7.662e-09
 26.15269     48.6 1.981e+04 9.352e-09
 26.16268     48.8 2.033e+04 1.067e-08
 26.17063     48.8 2.109e+04 1.445e-08
 26.18072     49.9 2.087e+04 1.091e-08
 26.19284     49.6 2.221e+04 2.012e-08
 26.20283     49.9 2.246e+04 3.477e-08
 26.21229     50.4 2.227e+04 6.321e-08
 26.21731     50.7 2.259e+04 3.317e-08
 26.22290     51.3 2.228e+04 6.195e-08
 26.23294     52.1 2.207e+04 1.097e-07
 26.24298     52.9 2.186e+04 1.654e-07
 26.25301     53.4 2.158e+04 1.851e-07
 26.25897     54.0 2.139e+04 1.743e-07
 26.26399     54.7 2.138e+04 1.681e-07
 26.27309     55.2 2.140e+04 1.599e-07
 26.28312     54.9 2.150e+04 1.301e-07
 26.29316     53.2 2.197e+04 8.321e-08
 26.30063     50.6 2.259e+04 4.739e-08
 26.30565     50.8 2.314e+04 4.736e-08
 26.31323     47.1 2.378e+04 2.596e-08
 26.32327     44.2 2.373e+04 1.900e-08
 26.33218     40.4 2.122e+04 1.313e-08
 26.33720     42.2 2.393e+04 2.039e-08
 26.34229     40.1 2.276e+04 1.564e-08
 26.34730     39.7 2.267e+04 1.795e-08
 26.35845     38.5 2.158e+04 1.664e-08
 26.37857     38.9 2.035e+04 1.547e-08
 26.39864     40.3 2.007e+04 1.563e-08
 26.41872     41.8 1.979e+04 1.545e-08
 26.43072     43.2 1.945e+04 1.428e-08
 26.44076     43.2 2.070e+04 1.807e-08
 26.45886     44.4 2.067e+04 1.755e-08
 26.47894     45.6 2.054e+04 1.559e-08
 26.49394     46.3 2.077e+04 1.738e-08
 26.50393     47.3 2.084e+04 1.761e-08
 26.51394     48.3 2.102e+04 1.708e-08
 26.52397     48.2 2.229e+04 2.517e-08
 26.53404     48.7 2.272e+04 2.518e-08
 26.54360     49.3 2.304e+04 2.464e-08
 26.54862     49.2 2.285e+04 1.361e-08
 26.55411     49.5 2.308e+04 1.182e-08
 26.56061     49.8 2.335e+04 1.023e-08
 26.56563     49.5 2.412e+04 2.354e-08
 26.57419     49.6 2.444e+04 2.170e-08
 26.58422     49.7 2.478e+04 1.974e-08
 26.59426     49.8 2.502e+04 1.783e-08
 26.60227     50.0 2.516e+04 1.621e-08
 26.60729     49.7 2.469e+04 3.577e-08
 26.61433     50.1 2.483e+04 3.526e-08
 26.62437     50.3 2.503e+04 3.572e-08
 26.63441     50.5 2.523e+04 3.679e-08
 26.64393     50.9 2.535e+04 3.852e-08
 26.64895     50.6 2.417e+04 6.051e-08
 26.65448     51.1 2.423e+04 6.440e-08
 26.66452     51.6 2.450e+04 7.103e-08
 26.67456     52.1 2.423e+04 8.687e-08
 26.68459     52.7 2.385e+04 1.053e-07
 26.69061     53.2 2.372e+04 1.222e-07
 26.69563     53.2 2.313e+04 1.078e-07
 26.70467     54.0 2.298e+04 1.035e-07
 26.71470     55.1 2.268e+04 9.286e-08
 26.72474     56.7 2.234e+04 8.222e-08
 26.73227     58.3 2.223e+04 7.464e-08
 26.73728     57.2 2.305e+04 2.812e-08
 26.74481     58.0 2.370e+04 2.542e-08
 26.75485     59.0 2.444e+04 2.467e-08
 26.76008     59.8 2.514e+04 2.614e-08
 26.76510     61.2 2.413e+04 7.393e-08
 26.77392     62.1 2.463e+04 8.797e-08
 26.77894     60.2 2.590e+04 3.035e-08
 26.78496     61.0 2.645e+04 3.872e-08
 26.79500     62.5 2.613e+04 5.670e-08
 26.80503     64.6 2.545e+04 8.901e-08
 26.81507     67.3 2.446e+04 1.415e-07
 26.82060     70.5 2.357e+04 2.136e-07
 26.82562     67.9 2.636e+04 8.600e-08
 26.83514     71.7 2.485e+04 1.525e-07
 26.84518     75.4 2.356e+04 2.359e-07
 26.85522     79.2 2.272e+04 3.342e-07
 26.86226     83.0 2.212e+04 4.437e-07
 26.86728     79.4 2.541e+04 1.823e-07
 26.87529     83.0 2.509e+04 2.385e-07
 26.88533     87.2 2.609e+04 2.651e-07
 26.89536     89.4 2.879e+04 2.531e-07
 26.90392     84.8 3.460e+04 2.383e-07
 26.90894     62.4 5.151e+04 3.020e-08
 26.91544     51.6 3.670e+04 1.672e-07
 26.92547     37.2 3.075e+04 2.974e-07
 26.93551     24.6 3.219e+04 1.490e-07
 26.94555     18.8 4.130e+04 2.251e-08
 26.95558     12.8 4.872e+04 2.310e-09
 26.96562      4.9 5.107e+04 1.370e-09
 26.97154    -12.6 4.800e+04 2.160e-09
 26.97656    -17.2 4.479e+04 4.161e-09
 26.98569    -20.2 4.163e+04 4.557e-09
 26.99225    -20.4 3.126e+04 9.071e-09
 26.99727    -16.1 3.220e+04 4.473e-09
 27.00577    -16.5 2.942e+04 5.693e-09
 27.01580    -14.3 2.664e+04 7.578e-09
 27.02584    -13.6 2.587e+04 9.599e-09
 27.03391    -12.1 2.436e+04 1.333e-08
 27.04400     -8.1 2.337e+04 5.937e-09
 27.06107     -6.3 2.202e+04 9.220e-09
 27.08114     -4.0 2.166e+04 1.244e-08
 27.10121     -1.4 2.166e+04 1.426e-08
 27.11733      1.2 2.183e+04 1.483e-08
 27.12736      3.0 2.042e+04 9.683e-09
 27.14136      5.2 1.994e+04 9.631e-09
 27.16143      6.9 1.965e+04 9.283e-09
 27.17809      8.5 1.928e+04 8.391e-09
 27.18813      7.8 2.026e+04 1.035e-08
 27.20064      9.4 1.938e+04 8.496e-09
 27.21068     10.1 1.827e+04 6.365e-09
 27.22165     11.4 1.766e+04 5.356e-09
 27.24173     12.9 1.717e+04 4.790e-09
 27.26180     14.4 1.672e+04 4.452e-09
 27.28187     15.6 1.654e+04 4.342e-09
 27.29400     16.9 1.637e+04 4.333e-09
 27.30403     17.3 1.433e+04 2.710e-09
 27.32202     18.8 1.434e+04 2.721e-09
 27.34209     20.4 1.462e+04 2.924e-09
 27.36217     21.7 1.513e+04 3.378e-09
 27.37731     22.9 1.555e+04 3.959e-09
 27.38735     23.5 1.378e+04 2.425e-09
 27.40232     24.7 1.433e+04 2.861e-09
 27.42239     26.0 1.495e+04 3.572e-09
 27.44246     27.3 1.567e+04 4.674e-09
 27.46063     28.4 1.636e+04 6.143e-09
 27.47067     29.0 1.509e+04 3.917e-09
 27.48261     30.0 1.580e+04 5.126e-09
 27.50268     31.0 1.655e+04 6.666e-09
 27.52276     32.0 1.733e+04 8.459e-09
 27.54283     32.9 1.805e+04 1.053e-08
 27.55398     33.7 1.851e+04 1.212e-08
 27.56402     34.4 1.746e+04 8.240e-09
 27.58298     35.2 1.779e+04 8.525e-09
 27.60102     36.0 1.794e+04 8.391e-09
 27.61105     36.4 1.807e+04 1.048e-08
 27.62312     37.3 1.829e+04 1.075e-08
 27.63730     37.6 1.844e+04 1.109e-08
 27.64734     38.1 1.797e+04 8.108e-09
 27.66327     38.2 1.818e+04 8.299e-09
 27.68334     37.9 1.823e+04 8.846e-09
 27.70342     37.3 1.834e+04 9.971e-09
 27.72062     36.6 1.857e+04 1.162e-08
 27.73065     38.1 1.802e+04 7.417e-09
 27.74356     38.0 1.795e+04 7.380e-09
 27.76364     38.1 1.784e+04 6.850e-09
 27.78371     37.8 1.769e+04 6.002e-09
 27.80378     37.2 1.733e+04 5.480e-09
 27.81397     36.8 1.680e+04 5.326e-09
 27.82401     37.6 1.637e+04 3.073e-09
 27.84393     37.5 1.586e+04 3.601e-09
 27.86400     37.9 1.543e+04 4.074e-09
 27.88408     38.6 1.507e+04 3.964e-09
 27.89729     39.2 1.442e+04 3.379e-09
 27.90732     40.0 1.445e+04 3.115e-09
 27.92422     40.6 1.381e+04 2.670e-09
 27.94430     41.1 1.333e+04 2.051e-09
 27.96437     41.7 1.287e+04 1.479e-09
 27.98070     41.7 1.215e+04 7.288e-10
 28.00087     43.4 1.250e+04 9.947e-10
 28.03482     43.9 1.146e+04 3.793e-10
 28.07497     43.9 1.067e+04 1.607e-10
 28.11512     44.6 1.031e+04 1.399e-10
 28.14743     46.3 1.025e+04 1.407e-10
 28.16750     47.6 1.037e+04 1.235e-10
 28.19541     49.3 1.034e+04 1.242e-10
 28.23556     51.1 1.037e+04 1.283e-10
 28.27571     52.8 1.045e+04 1.394e-10
 28.31406     54.1 1.052e+04 1.711e-10
 28.33414     55.4 1.045e+04 1.390e-10
 28.35600     56.7 1.051e+04 1.876e-10
 28.39615     57.9 1.064e+04 2.811e-10
 28.43629     59.0 1.082e+04 4.016e-10
 28.45711     60.0 1.093e+04 4.720e-10
 28.47718     60.3 1.097e+04 4.745e-10
 28.50077     60.8 1.097e+04 4.669e-10
 28.52084     62.5 1.100e+04 5.000e-10
 28.55673     63.0 1.097e+04 4.956e-10
 28.59688     63.4 1.090e+04 4.931e-10
 28.63703     63.7 1.087e+04 5.033e-10
 28.66740     64.1 1.084e+04 5.359e-10
 28.68748     65.6 1.087e+04 5.456e-10
 28.71732     65.8 1.085e+04 5.602e-10
 28.75747     66.0 1.078e+04 5.429e-10
 28.79762     66.3 1.055e+04 4.769e-10
 28.83404     66.7 1.026e+04 3.751e-10
 28.85411     67.9 1.030e+04 3.912e-10
 28.87791     68.2 1.000e+04 3.043e-10
 28.91806     68.5 9.782e+03 2.525e-10
 28.95820     68.8 9.666e+03 2.340e-10
 28.99835     69.4 9.616e+03 2.267e-10
 29.02074     70.0 9.583e+03 2.201e-10
 29.04082     70.8 9.448e+03 1.765e-10
 29.07864     71.5 9.426e+03 1.762e-10
 29.11879     72.4 9.391e+03 1.739e-10
 29.15894     73.5 9.336e+03 1.679e-10
 29.18738     74.7 9.267e+03 1.573e-10
 29.20745     75.1 9.233e+03 1.509e-10
 29.23923     76.4 9.164e+03 1.382e-10
 29.27938     77.6 9.097e+03 1.257e-10
 29.30297     78.9 9.083e+03 1.209e-10
 29.32304     79.1 9.188e+03 1.260e-10
 29.35401     80.4 9.219e+03 1.275e-10
 29.37408     80.5 9.160e+03 1.333e-10
 29.39982     81.8 9.226e+03 1.508e-10
 29.43997     83.1 9.332e+03 1.813e-10
 29.48011     84.5 9.451e+03 2.155e-10
 29.52026     85.9 9.549e+03 2.513e-10
 29.54072     87.3 9.645e+03 2.614e-10
 29.56079     87.3 9.329e+03 1.893e-10
 29.60055     88.3 9.238e+03 1.666e-10
 29.64070     89.2 9.139e+03 1.481e-10
 29.68085     90.0 9.066e+03 1.395e-10
 29.70735     90.9 9.056e+03 1.390e-10
 29.72742     90.8 8.840e+03 1.127e-10
 29.76114     92.0 8.834e+03 1.080e-10
 29.80129     93.3 8.838e+03 1.021e-10
 29.84143     94.8 8.838e+03 9.551e-11
 29.87398     96.3 8.830e+03 8.888e-11
 29.89406     96.5 8.683e+03 6.430e-11
 29.92173     98.1 8.667e+03 6.110e-11
 29.96188     99.9 8.638e+03 6.049e-11
 30.00202    101.7 8.639e+03 6.080e-11
 30.04062    103.7 8.647e+03 6.185e-11
 30.06069    104.2 8.581e+03 5.738e-11
 30.08232    106.2 8.643e+03 6.111e-11
 30.12246    108.3 8.729e+03 6.636e-11
 30.14883    110.3 8.824e+03 7.345e-11
 30.16890    110.0 8.857e+03 7.417e-11
 30.20276    111.9 9.057e+03 9.989e-11
 30.22732    113.7 9.381e+03 1.622e-10
 30.24740    114.7 9.280e+03 1.507e-10
 30.28305    116.6 9.700e+03 2.510e-10
 30.32320    118.9 1.048e+04 4.593e-10
 30.35321    119.7 1.077e+04 5.847e-10
 30.37319    120.3 1.108e+04 7.321e-10
 30.39326    120.9 1.146e+04 9.385e-10
 30.40380    121.4 1.184e+04 1.175e-09
 30.41383    122.1 1.173e+04 1.094e-09
 30.43341    122.5 1.216e+04 1.362e-09
 30.45348    122.5 1.256e+04 1.638e-09
 30.47355    122.5 1.290e+04 1.893e-09
 30.48711    122.4 1.318e+04 2.087e-09
 30.49715    122.9 1.304e+04 1.964e-09
 30.51370    122.7 1.324e+04 2.170e-09
 30.53377    122.4 1.330e+04 2.278e-09
 30.55385    122.2 1.330e+04 2.346e-09
 30.57043    122.2 1.322e+04 2.208e-09
 30.57811    122.5 1.350e+04 2.439e-09
 30.58160    122.2 1.326e+04 2.028e-09
 30.59399    122.1 1.301e+04 1.612e-09
 30.61407    122.0 1.269e+04 1.176e-09
 30.63414    121.8 1.233e+04 8.178e-10
 30.65375    121.4 1.194e+04 5.659e-10
 30.66378    121.4 1.207e+04 6.979e-10
 30.67429    120.9 1.164e+04 5.187e-10
 30.69436    120.7 1.125e+04 4.216e-10
 30.71443    120.8 1.098e+04 3.729e-10
 30.73451    120.8 1.082e+04 3.501e-10
 30.74710    121.4 1.077e+04 3.605e-10
 30.75714    121.4 1.091e+04 4.504e-10
 30.77465    121.9 1.090e+04 4.584e-10
 30.79473    122.5 1.090e+04 4.754e-10
 30.81480    123.2 1.094e+04 4.990e-10
 30.83042    123.7 1.103e+04 5.276e-10
 30.84045    123.6 1.102e+04 5.450e-10
 30.85495    124.0 1.120e+04 5.858e-10
 30.87502    124.3 1.143e+04 6.491e-10
 30.89510    124.5 1.164e+04 7.395e-10
 30.91373    124.6 1.184e+04 8.498e-10
 30.92377    124.6 1.190e+04 8.747e-10
 30.93524    124.9 1.200e+04 9.938e-10
 30.95532    125.3 1.204e+04 1.102e-09
 30.97539    125.8 1.202e+04 1.180e-09
 30.99449    126.5 1.197e+04 1.214e-09
 31.00453    126.1 1.177e+04 1.165e-09
 31.00709    127.0 1.164e+04 1.131e-09
 31.01712    126.8 1.163e+04 1.082e-09
 31.03561    127.7 1.148e+04 1.015e-09
 31.05568    128.5 1.132e+04 9.269e-10
 31.07576    129.3 1.119e+04 8.142e-10
 31.09040    130.0 1.105e+04 6.890e-10
 31.10044    129.8 1.120e+04 7.421e-10
 31.11590    130.5 1.109e+04 6.341e-10
 31.13598    131.1 1.095e+04 5.214e-10
 31.15605    131.5 1.073e+04 4.159e-10
 31.17372    131.8 1.046e+04 3.343e-10
 31.18376    131.9 1.070e+04 4.370e-10
 31.19620    132.2 1.046e+04 3.503e-10
 31.21627    132.5 1.027e+04 3.045e-10
 31.23634    132.9 1.007e+04 2.882e-10
 31.25642    133.5 9.926e+03 2.873e-10
 31.26707    134.1 9.885e+03 2.918e-10
 31.27711    134.2 1.015e+04 3.129e-10
 31.29656    135.0 1.008e+04 3.282e-10
 31.31664    135.8 1.011e+04 3.645e-10
 31.33671    136.5 1.028e+04 4.216e-10
 31.35039    137.2 1.050e+04 5.007e-10
 31.36043    136.6 1.176e+04 6.768e-10
 31.37686    137.1 1.233e+04 8.629e-10
 31.39693    137.5 1.295e+04 1.121e-09
 31.41700    137.7 1.352e+04 1.437e-09
 31.42745    137.8 1.392e+04 1.719e-09
 31.43412    137.6 1.252e+04 1.093e-09
 31.44374    136.6 1.454e+04 2.254e-09
 31.45715    136.4 1.481e+04 2.480e-09
 31.47723    136.1 1.481e+04 2.477e-09
 31.49730    135.4 1.455e+04 2.283e-09
 31.51702    134.0 1.410e+04 1.996e-09
 31.52701    132.6 1.523e+04 2.665e-09
 31.53233    131.0 1.515e+04 2.525e-09
 31.54237    129.3 1.504e+04 2.459e-09
 31.55240    127.4 1.505e+04 2.476e-09
 31.56244    125.7 1.502e+04 2.500e-09
 31.56862    123.9 1.506e+04 2.588e-09
 31.57364    122.9 1.663e+04 3.414e-09
 31.58251    121.5 1.662e+04 3.557e-09
 31.59255    120.1 1.667e+04 3.787e-09
 31.60259    119.1 1.674e+04 4.016e-09
 31.61028    118.1 1.688e+04 4.277e-09
 31.61530    117.0 1.810e+04 7.081e-09
 31.62266    116.2 1.820e+04 7.497e-09
 31.63270    115.4 1.838e+04 8.027e-09
 31.63882    114.5 1.862e+04 8.725e-09
 31.64384    115.0 1.755e+04 5.547e-09
 31.65194    114.2 1.794e+04 6.112e-09
 31.65696    113.4 1.873e+04 9.350e-09
 31.66281    112.4 1.902e+04 1.062e-08
 31.67284    111.3 1.934e+04 1.224e-08
 31.68288    110.1 1.967e+04 1.422e-08
 31.69292    108.7 1.996e+04 1.661e-08
 31.69861    107.4 2.019e+04 1.942e-08
 31.70363    107.3 2.033e+04 2.536e-08
 31.71299    106.1 2.050e+04 2.850e-08
 31.72303    105.2 2.074e+04 3.212e-08
 31.73306    104.4 2.104e+04 3.617e-08
 31.74027    103.7 2.135e+04 4.115e-08
 31.74529    103.7 2.152e+04 3.647e-08
 31.75314    103.1 2.156e+04 3.475e-08
 31.76317    102.6 2.149e+04 3.139e-08
 31.77321    102.0 2.133e+04 2.467e-08
 31.78193    101.4 2.108e+04 1.870e-08
 31.78700    100.8 2.034e+04 1.106e-08
 31.79840     98.6 1.923e+04 5.782e-09
 31.81847     95.3 1.709e+04 2.436e-09
 31.83855     91.0 1.333e+04 1.081e-09
 31.85038     87.6 1.070e+04 6.713e-10
 31.86042     91.0 1.385e+04 1.024e-09
 31.87036     88.2 1.105e+04 6.840e-10
 31.88040     87.0 1.033e+04 5.807e-10
 31.89877     86.9 1.026e+04 5.632e-10
 31.91884     87.0 1.023e+04 5.529e-10
 31.93891     87.1 1.021e+04 5.430e-10
 31.95368     87.3 1.020e+04 5.330e-10
 31.96372     87.6 1.038e+04 6.145e-10
 31.97906     87.9 1.040e+04 6.108e-10
 31.99913     88.4 1.041e+04 6.060e-10
 32.01921     89.0 1.038e+04 5.982e-10
 32.03700     89.7 1.039e+04 5.994e-10
 32.04703     90.4 1.054e+04 6.771e-10
 32.05936     91.0 1.057e+04 6.832e-10
 32.07943     91.8 1.059e+04 6.929e-10
 32.09950     92.6 1.061e+04 7.150e-10
 32.11958     93.5 1.066e+04 7.610e-10
 32.13035     94.5 1.076e+04 8.243e-10
 32.14039     94.7 1.080e+04 8.004e-10
 32.15972     95.7 1.089e+04 8.538e-10
 32.17980     96.6 1.098e+04 8.971e-10
 32.19987     97.5 1.101e+04 9.014e-10
 32.21367     98.3 1.100e+04 8.953e-10
 32.22370     98.3 1.093e+04 8.187e-10
 32.24002     99.3 1.083e+04 7.602e-10
 32.26009     99.9 1.073e+04 7.094e-10
 32.27331    100.6 1.059e+04 6.465e-10
 32.28335    100.7 1.070e+04 7.325e-10
 32.29698    101.2 1.058e+04 6.864e-10
 32.30702    101.4 1.043e+04 5.685e-10
 32.32031    101.8 1.027e+04 5.304e-10
 32.34038    102.1 1.021e+04 5.275e-10
 32.36046    102.4 1.022e+04 5.319e-10
 32.38030    102.5 1.028e+04 5.592e-10
 32.39034    102.6 1.005e+04 4.568e-10
 32.40060    102.6 1.017e+04 5.087e-10
 32.42068    102.7 1.040e+04 5.940e-10
 32.44075    102.8 1.066e+04 7.020e-10
 32.46082    103.0 1.090e+04 8.072e-10
 32.47365    103.2 1.102e+04 8.711e-10
 32.48369    103.6 1.083e+04 7.890e-10
 32.50097    103.8 1.091e+04 8.246e-10
 32.52104    104.0 1.091e+04 8.209e-10
 32.54112    104.2 1.084e+04 7.929e-10
 32.55697    104.4 1.073e+04 7.458e-10
 32.56701    104.8 1.083e+04 8.065e-10
 32.58126    105.1 1.074e+04 7.763e-10
 32.60134    105.4 1.064e+04 7.427e-10
 32.62141    105.9 1.055e+04 7.099e-10
 32.64029    106.4 1.051e+04 6.942e-10
 32.65032    106.9 1.066e+04 7.928e-10
 32.66156    107.6 1.067e+04 7.934e-10
 32.68163    108.3 1.071e+04 8.043e-10
 32.69624    108.9 1.083e+04 8.516e-10
 32.70628    108.5 1.092e+04 9.064e-10
 32.72178    108.7 1.118e+04 1.037e-09
 32.73364    108.7 1.160e+04 1.269e-09
 32.74368    109.6 1.176e+04 1.391e-09
 32.76193    109.5 1.239e+04 1.828e-09
 32.78200    109.4 1.313e+04 2.467e-09
 32.80207    109.2 1.387e+04 3.186e-09
 32.81696    108.8 1.441e+04 3.526e-09
 32.82699    109.8 1.498e+04 4.517e-09
 32.84222    109.1 1.552e+04 4.637e-09
 32.86229    107.8 1.551e+04 4.351e-09
 32.88237    106.0 1.514e+04 3.369e-09
 32.90027    103.6 1.402e+04 2.208e-09
 32.91031    104.9 1.600e+04 3.886e-09
 32.92251    102.1 1.440e+04 2.246e-09
 32.94259     99.1 1.197e+04 1.291e-09
 32.96266     96.4 1.004e+04 8.575e-10
 32.98273     94.9 1.030e+04 7.000e-10
 32.99363     94.0 1.032e+04 7.001e-10
 33.00366     92.9 1.049e+04 7.519e-10
 33.02288     91.6 1.059e+04 7.779e-10
 33.04295     90.1 1.090e+04 8.902e-10
 33.06303     88.8 1.119e+04 1.056e-09
 33.09324     87.3 1.161e+04 1.287e-09
 33.13348     85.3 1.190e+04 1.375e-09
 33.16046     83.2 1.197e+04 1.365e-09
 33.18053     82.0 1.171e+04 1.135e-09
 33.21377     79.9 1.116e+04 7.744e-10
 33.25392     78.8 1.048e+04 5.020e-10
 33.29407     78.5 9.862e+03 3.369e-10
 33.32709     78.6 9.454e+03 2.631e-10
 33.34716     78.6 9.410e+03 2.545e-10
 33.37436     79.7 9.386e+03 2.557e-10
 33.41451     81.1 9.431e+03 2.747e-10
 33.45466     82.7 9.512e+03 3.084e-10
 33.49372     84.4 9.587e+03 3.214e-10
 33.51380     84.6 9.606e+03 3.060e-10
 33.53226     86.2 9.545e+03 2.798e-10
 33.55233     87.0 9.466e+03 2.627e-10
 33.57510     88.8 9.481e+03 2.499e-10
 33.61524     90.6 9.498e+03 2.490e-10
 33.65539     92.3 9.556e+03 2.563e-10
 33.68043     93.9 9.720e+03 2.864e-10
 33.70050     94.0 9.622e+03 2.582e-10
 33.73568     95.3 9.865e+03 3.116e-10
 33.77583     96.3 1.014e+04 3.788e-10
 33.81598     96.9 1.040e+04 4.461e-10
 33.84706     97.5 1.059e+04 4.892e-10
 33.86714     97.0 1.071e+04 5.406e-10
 33.89627     97.5 1.074e+04 5.429e-10
 33.93642     98.3 1.070e+04 5.162e-10
 33.97656     99.3 1.059e+04 4.494e-10
 34.01370    100.6 1.043e+04 3.733e-10
 34.03377    100.2 1.034e+04 3.199e-10
 34.05686    101.6 1.018e+04 2.588e-10
 34.09701    103.1 1.009e+04 2.448e-10
 34.13715    105.0 1.009e+04 2.449e-10
 34.17730    106.8 1.011e+04 2.486e-10
 34.20040    108.6 1.018e+04 2.613e-10
 34.22048    108.9 1.009e+04 2.288e-10
 34.25759    110.7 1.018e+04 2.444e-10
 34.29774    112.5 1.029e+04 2.644e-10
 34.33789    114.2 1.038e+04 2.869e-10
 34.36704    115.8 1.049e+04 3.078e-10
 34.38711    116.4 1.031e+04 2.715e-10
 34.41818    118.2 1.031e+04 2.732e-10
 34.45833    119.6 1.031e+04 2.732e-10
 34.49847    120.9 1.028e+04 2.686e-10
 34.53367    122.2 1.023e+04 2.605e-10
 34.55374    123.0 1.022e+04 2.919e-10
 34.57877    124.4 1.025e+04 3.155e-10
 34.61892    125.8 1.032e+04 3.468e-10
 34.65906    127.2 1.042e+04 3.716e-10
 34.69921    128.3 1.045e+04 3.727e-10
 34.72038    129.3 1.045e+04 3.631e-10
 34.74045    130.1 1.054e+04 4.139e-10
 34.77950    130.9 1.044e+04 3.534e-10
 34.81965    131.8 1.028e+04 2.713e-10
 34.85980    132.4 1.005e+04 1.987e-10
 34.88701    133.1 9.747e+03 1.593e-10
 34.90708    133.7 9.740e+03 1.495e-10
 34.94009    134.5 9.546e+03 1.417e-10
 34.98024    135.5 9.538e+03 1.431e-10
 35.02038    136.6 9.550e+03 1.528e-10
 35.05364    137.7 9.643e+03 1.803e-10
 35.07372    138.0 9.576e+03 1.570e-10
 35.10068    138.9 9.702e+03 1.915e-10
 35.14082    139.8 9.829e+03 2.277e-10
 35.18097    140.6 9.922e+03 2.543e-10
 35.22028    141.5 9.989e+03 2.657e-10
 35.24035    141.7 9.888e+03 2.280e-10
 35.24405    142.7 9.892e+03 2.304e-10
 35.26412    143.4 9.946e+03 2.458e-10
 35.30141    144.4 1.000e+04 2.553e-10
 35.34156    145.5 1.013e+04 2.782e-10
 35.38171    146.6 1.033e+04 3.208e-10
 35.40698    147.5 1.056e+04 3.777e-10
 35.42706    148.0 1.040e+04 3.495e-10
 35.46200    148.9 1.063e+04 4.095e-10
 35.50215    149.6 1.080e+04 4.522e-10
 35.54229    150.0 1.087e+04 4.682e-10
 35.57362    149.9 1.089e+04 4.738e-10
 35.59369    149.4 1.069e+04 3.727e-10
 35.62259    148.7 1.079e+04 3.902e-10
 35.65260    148.1 1.089e+04 4.058e-10
 35.66677    147.8 1.097e+04 4.356e-10
 35.67681    148.4 1.101e+04 4.635e-10
 35.69265    147.9 1.118e+04 5.065e-10
 35.71272    147.0 1.151e+04 5.898e-10
 35.73280    145.4 1.208e+04 7.507e-10
 35.75009    143.1 1.287e+04 1.059e-09
 35.76013    140.3 1.325e+04 1.247e-09
 35.77294    138.5 1.361e+04 1.972e-09
 35.79302    137.4 1.381e+04 2.627e-09
 35.81309    136.7 1.371e+04 2.837e-09
 35.83316    136.1 1.362e+04 2.756e-09
 35.84344    135.8 1.330e+04 2.359e-09
 35.85348    134.7 1.289e+04 1.625e-09
 35.87331    134.3 1.238e+04 1.165e-09
 35.90352    134.0 1.188e+04 8.508e-10
 35.92695    133.4 1.084e+04 4.419e-10
 35.94703    130.9 9.547e+03 1.804e-10
 35.98391    130.7 8.994e+03 1.279e-10
 36.02406    131.7 8.920e+03 1.261e-10
 36.06420    133.4 8.906e+03 1.270e-10
 36.08991    135.3 8.896e+03 1.322e-10
 36.09922    135.6 8.904e+03 1.314e-10
 36.11366    135.6 8.771e+03 1.183e-10
 36.14450    137.6 8.843e+03 1.311e-10
 36.18464    139.6 8.944e+03 1.506e-10
 36.22479    141.5 9.060e+03 1.769e-10
 36.26022    143.5 9.177e+03 2.084e-10
 36.28029    143.3 9.110e+03 1.983e-10
 36.30508    145.3 9.237e+03 2.354e-10
 36.34523    147.1 9.308e+03 2.562e-10
 36.38538    148.8 9.309e+03 2.566e-10
 36.42553    150.5 9.276e+03 2.510e-10
 36.44693    152.3 9.161e+03 2.285e-10
 36.46700    152.2 9.099e+03 2.125e-10
 36.50582    154.2 8.902e+03 1.676e-10
 36.54597    156.2 8.693e+03 1.255e-10
 36.58611    158.3 8.514e+03 9.396e-11
 36.61356    160.3 8.356e+03 7.471e-11
 36.63363    160.2 8.261e+03 6.964e-11
 36.66641    162.5 8.182e+03 6.921e-11
 36.70655    165.0 8.165e+03 7.036e-11
 36.74670    167.5 8.151e+03 7.363e-11
 36.78019    170.1 8.166e+03 7.917e-11
 36.80027    170.4 8.241e+03 9.059e-11
 36.82699    173.0 8.302e+03 1.002e-10
 36.86714    175.5 8.379e+03 1.113e-10
 36.90729    178.0 8.467e+03 1.227e-10
 36.93577    180.5 8.560e+03 1.320e-10
 36.95523    181.2 8.349e+03 1.101e-10
 36.96690    181.3 8.434e+03 1.167e-10
 36.98758    183.7 8.492e+03 1.198e-10
 37.02773    186.0 8.533e+03 1.211e-10
 37.06788    188.4 8.562e+03 1.221e-10
 37.10802    190.7 8.590e+03 1.242e-10
 37.13353    193.0 8.643e+03 1.279e-10
 37.15361    192.8 8.629e+03 1.234e-10
 37.18832    194.9 8.758e+03 1.356e-10
 37.22846    196.8 9.089e+03 1.672e-10
 37.26861    198.4 9.566e+03 2.274e-10
 37.30017    199.7 1.014e+04 3.290e-10
 37.32024    198.7 1.054e+04 4.345e-10
 37.34890    200.2 1.102e+04 6.074e-10
 37.38905    201.1 1.139e+04 7.608e-10
 37.42920    201.7 1.164e+04 7.896e-10
 37.46680    202.6 1.172e+04 7.396e-10
 37.48687    200.8 1.139e+04 6.488e-10
 37.50949    200.9 1.100e+04 4.925e-10
 37.54964    200.9 1.047e+04 3.801e-10
 37.58979    200.9 9.987e+03 3.352e-10
 37.62993    201.2 9.848e+03 3.327e-10
 37.65351    201.6 9.832e+03 3.342e-10
 37.67358    200.8 9.545e+03 2.978e-10
 37.71023    201.2 9.546e+03 2.962e-10
 37.75037    201.5 9.523e+03 2.899e-10
 37.78163    201.9 9.533e+03 2.894e-10
 37.80160    202.6 9.738e+03 3.254e-10
 37.81995    202.3 9.747e+03 3.263e-10
 37.84012    201.8 9.741e+03 3.225e-10
 37.86068    201.4 9.763e+03 3.303e-10
 37.88065    201.2 9.815e+03 3.422e-10
 37.90073    200.9 9.958e+03 3.773e-10
 37.91330    200.5 1.020e+04 4.455e-10
 37.92334    199.3 1.038e+04 5.076e-10
 37.94088    198.8 1.065e+04 6.268e-10
 37.96095    198.4 1.093e+04 7.600e-10
 37.98102    198.0 1.120e+04 8.996e-10
 37.99662    197.6 1.145e+04 1.039e-09
 38.00665    196.8 1.144e+04 1.064e-09
 38.02117    196.4 1.165e+04 1.125e-09
 38.04124    195.8 1.168e+04 1.118e-09
 38.06132    194.9 1.169e+04 1.083e-09
 38.07993    193.7 1.164e+04 1.015e-09
 38.08997    192.3 1.111e+04 7.642e-10
 38.10146    190.8 1.094e+04 6.962e-10
 38.12154    189.2 1.077e+04 6.544e-10
 38.14161    187.7 1.066e+04 6.341e-10
 38.16168    186.2 1.061e+04 6.236e-10
 38.17329    184.8 1.058e+04 6.094e-10
 38.18332    183.6 1.032e+04 5.015e-10
 38.20183    182.4 1.032e+04 4.826e-10
 38.23204    180.6 1.019e+04 4.046e-10
 38.27228    178.3 1.000e+04 3.347e-10
 38.31243    175.2 9.845e+03 2.921e-10
 38.34011    172.0 9.856e+03 2.914e-10
 38.36019    170.4 9.984e+03 3.085e-10
 38.38259    168.1 1.027e+04 3.595e-10
 38.40256    166.4 1.060e+04 4.489e-10
 38.42264    163.9 1.128e+04 6.643e-10
 38.43327    162.2 1.176e+04 9.046e-10
 38.44331    161.6 1.186e+04 9.862e-10
 38.47292    159.4 1.257e+04 1.374e-09
 38.50675    155.8 1.303e+04 1.555e-09
 38.52682    155.0 1.255e+04 1.291e-09
 38.55331    151.4 1.245e+04 1.167e-09
 38.59346    147.9 1.201e+04 9.206e-10
 38.62748    144.6 1.143e+04 6.740e-10
 38.64756    144.4 1.164e+04 7.459e-10
 38.67338    141.4 1.100e+04 5.273e-10
 38.69345    141.1 1.087e+04 5.111e-10
 38.71390    139.0 1.070e+04 4.488e-10
 38.75405    136.9 1.064e+04 4.073e-10
 38.79419    135.0 1.064e+04 3.698e-10
 38.83434    132.7 1.069e+04 3.330e-10
 38.86009    130.2 1.074e+04 3.118e-10
 38.88016    129.2 1.073e+04 3.047e-10
 38.91463    125.9 1.086e+04 3.125e-10
 38.94331    124.1 1.095e+04 3.223e-10
 38.95325    123.8 1.102e+04 3.294e-10
 38.96462    121.5 1.122e+04 3.842e-10
 38.98469    119.1 1.132e+04 4.718e-10
 39.00477    116.9 1.141e+04 5.727e-10
 39.02484    114.9 1.163e+04 6.270e-10
 39.03656    112.9 1.194e+04 6.193e-10
 39.04660    111.4 1.229e+04 6.755e-10
 39.06025    108.7 1.254e+04 6.642e-10
 39.07029    106.2 1.278e+04 6.961e-10
 39.08506    104.2 1.272e+04 6.773e-10
 39.11527    101.9 1.275e+04 7.103e-10
 39.14538     98.7 1.301e+04 8.424e-10
 39.16536     96.0 1.342e+04 1.100e-09
 39.18543     93.2 1.386e+04 1.469e-09
 39.20320     90.6 1.416e+04 1.865e-09
 39.21323     88.7 1.414e+04 2.028e-09
 39.22558     86.7 1.414e+04 2.205e-09
 39.24565     84.9 1.395e+04 2.099e-09
 39.26572     83.1 1.366e+04 1.823e-09
 39.28580     80.8 1.341e+04 1.478e-09
 39.29655     78.0 1.311e+04 1.170e-09
 39.30659     75.3 1.263e+04 9.383e-10
 39.32594     72.3 1.213e+04 8.545e-10
 39.34602     69.8 1.188e+04 8.704e-10
 39.36609     67.8 1.190e+04 9.228e-10
 39.37987     66.1 1.210e+04 1.047e-09
 39.38990     64.8 1.214e+04 1.055e-09
 39.40624     63.4 1.234e+04 1.156e-09
 39.42631     62.1 1.232e+04 1.138e-09
 39.44638     61.2 1.218e+04 1.085e-09
 39.47324     59.9 1.181e+04 9.042e-10
 39.49332     56.6 1.139e+04 7.436e-10
 39.51674     55.6 1.101e+04 6.154e-10
 39.54669     54.1 1.028e+04 4.089e-10
 39.56677     52.4 9.397e+03 2.362e-10
 39.59713     51.4 8.976e+03 1.862e-10
 39.63728     51.2 8.979e+03 1.761e-10
 39.67742     51.2 8.936e+03 1.717e-10
 39.71333     51.0 9.008e+03 1.790e-10
 39.73340     49.8 8.975e+03 1.718e-10
 39.75772     48.8 9.457e+03 2.232e-10
 39.79786     47.8 1.002e+04 3.123e-10
 39.83801     47.4 1.027e+04 3.971e-10
 39.87816     47.4 1.023e+04 4.362e-10
 39.90003     47.6 1.016e+04 4.339e-10
 39.92011     45.9 1.067e+04 5.409e-10
 39.94832     45.9 1.052e+04 5.126e-10
 39.96829     45.5 1.058e+04 5.357e-10
 39.98316     45.2 1.072e+04 5.965e-10
 39.99319     44.1 1.113e+04 7.434e-10
 40.00844     44.0 1.141e+04 8.941e-10
 40.02851     44.1 1.176e+04 1.101e-09
 40.04859     44.7 1.204e+04 1.334e-09
 40.06647     45.4 1.224e+04 1.507e-09
 40.07651     45.0 1.230e+04 1.553e-09
 40.08873     45.7 1.229e+04 1.543e-09
 40.10881     46.3 1.220e+04 1.457e-09
 40.12888     46.7 1.206e+04 1.298e-09
 40.14895     46.5 1.191e+04 1.139e-09
 40.15983     46.0 1.182e+04 1.052e-09
 40.16986     44.8 1.170e+04 1.000e-09
 40.18910     44.0 1.179e+04 1.041e-09
 40.20917     43.2 1.203e+04 1.171e-09
 40.22925     42.7 1.232e+04 1.365e-09
 40.24314     42.2 1.270e+04 1.645e-09
 40.25318     40.7 1.312e+04 1.838e-09
 40.26940     39.3 1.419e+04 2.315e-09
 40.28947     37.0 1.559e+04 2.965e-09
 40.30954     34.5 1.678e+04 3.753e-09
 40.32646     32.3 1.738e+04 4.512e-09
 40.33592     29.1 1.783e+04 6.098e-09
 40.33908     27.2 1.817e+04 8.347e-09
 40.34969     26.3 1.792e+04 8.045e-09
 40.36976     25.7 1.735e+04 7.112e-09
 40.38984     25.1 1.678e+04 5.863e-09
 40.40978     24.2 1.621e+04 4.704e-09
 40.41981     22.2 1.550e+04 3.616e-09
 40.42998     21.3 1.483e+04 2.886e-09
 40.45006     20.6 1.437e+04 2.648e-09
 40.47013     20.3 1.431e+04 2.658e-09
 40.49020     20.0 1.433e+04 2.782e-09
 40.50313     19.8 1.454e+04 3.121e-09
 40.51317     19.2 1.378e+04 2.444e-09
 40.53035     18.9 1.422e+04 2.959e-09
 40.55042     18.6 1.468e+04 3.511e-09
 40.57050     18.1 1.506e+04 3.810e-09
 40.58644     17.3 1.506e+04 3.699e-09
 40.59648     16.6 1.486e+04 3.459e-09
 40.61064     15.2 1.516e+04 2.995e-09
 40.63072     13.5 1.586e+04 2.397e-09
 40.65079     11.5 1.665e+04 1.853e-09
 40.66976      9.3 1.680e+04 1.445e-09
 40.67980      7.2 1.809e+04 2.051e-09
 40.69094      5.4 1.689e+04 1.965e-09
 40.71101      4.0 1.589e+04 1.957e-09
 40.73108      3.0 1.529e+04 2.012e-09
 40.75116      2.4 1.498e+04 2.104e-09
 40.76201      2.0 1.481e+04 2.195e-09
 40.76393     -0.4 1.502e+04 2.638e-09
 40.77315     -2.0 1.508e+04 2.782e-09
 40.79130     -2.3 1.479e+04 2.653e-09
 40.81138     -2.4 1.462e+04 2.588e-09
 40.83145     -2.6 1.451e+04 2.548e-09
 40.84643     -2.7 1.443e+04 2.515e-09
 40.85647     -4.2 1.439e+04 2.522e-09
 40.87160     -4.2 1.429e+04 2.476e-09
 40.89167     -4.1 1.415e+04 2.417e-09
 40.91175     -3.9 1.395e+04 2.299e-09
 40.92975     -3.4 1.369e+04 2.122e-09
 40.93978     -4.6 1.358e+04 2.076e-09
 40.95189     -3.8 1.321e+04 1.784e-09
 40.97197     -3.2 1.281e+04 1.501e-09
 40.99204     -2.3 1.234e+04 1.196e-09
 41.01211     -1.5 1.195e+04 9.898e-10
 41.02310     -0.1 1.144e+04 7.247e-10
 41.03314     -0.4 1.132e+04 6.786e-10
 41.05226     -0.2 1.124e+04 6.421e-10
 41.08247      2.4 1.074e+04 4.703e-10
 41.10661      4.7 9.978e+03 3.328e-10
 41.12669      4.5 9.743e+03 2.887e-10
 41.16286      7.1 9.401e+03 2.282e-10
 41.18513      9.8 9.229e+03 1.990e-10
 41.20521      9.2 9.344e+03 2.182e-10
 41.24315     12.2 9.202e+03 1.921e-10
 41.27325     15.3 9.083e+03 1.716e-10
 41.29332     15.6 8.891e+03 1.402e-10
 41.32345     18.7 8.802e+03 1.233e-10
 41.36359     21.7 8.722e+03 1.094e-10
 41.40374     24.7 8.644e+03 1.005e-10
 41.43988     27.8 8.598e+03 9.921e-11
 41.45995     27.9 8.492e+03 8.332e-11
 41.48403     30.9 8.495e+03 8.473e-11
 41.52418     33.7 8.521e+03 9.101e-11
 41.56433     36.5 8.611e+03 1.056e-10
 41.60447     39.3 8.786e+03 1.313e-10
 41.62659     42.0 9.076e+03 1.718e-10
 41.64666     42.1 9.019e+03 1.635e-10
 41.68477     44.8 9.370e+03 2.157e-10
 41.72492     47.3 9.747e+03 2.804e-10
 41.76506     49.1 1.008e+04 3.381e-10
 41.79322     51.4 1.034e+04 4.165e-10
 41.80316     51.4 1.026e+04 3.826e-10
 41.81505     52.0 1.031e+04 4.106e-10
 41.83512     53.1 1.042e+04 4.620e-10
 41.85520     54.3 1.055e+04 5.316e-10
 41.87527     55.3 1.071e+04 6.117e-10
 41.88638     56.2 1.093e+04 7.250e-10
 41.89641     56.0 1.106e+04 7.742e-10
 41.91542     56.1 1.163e+04 9.982e-10
 41.93549     56.0 1.226e+04 1.310e-09
 41.95556     55.9 1.283e+04 1.692e-09
 41.96969     55.9 1.324e+04 2.055e-09
 41.97973     55.2 1.338e+04 2.232e-09
 41.99571     55.1 1.343e+04 2.259e-09
 42.01579     54.9 1.330e+04 2.138e-09
 42.03080     54.7 1.301e+04 1.841e-09
 42.04083     55.0 1.332e+04 2.127e-09
 42.05301     54.3 1.331e+04 1.960e-09
 42.06305     53.3 1.299e+04 1.670e-09
 42.07601     51.0 1.320e+04 1.728e-09
 42.09608     46.1 1.442e+04 2.226e-09
 42.11615     41.0 1.594e+04 3.489e-09
 42.13116     37.7 1.661e+04 4.694e-09
 42.14115     35.5 1.706e+04 6.454e-09
 42.14627     33.1 1.783e+04 9.207e-09
 42.15635     32.9 1.756e+04 8.270e-09
 42.17637     28.0 1.948e+04 1.138e-08
 42.19645     20.1 2.105e+04 1.261e-08
 42.21652     11.3 2.083e+04 1.211e-08
 42.22968      4.4 1.930e+04 1.030e-08
 42.23972      4.1 2.004e+04 1.177e-08
 42.25667     -0.3 1.918e+04 9.664e-09
 42.27674     -5.0 1.980e+04 7.743e-09
 42.29681    -12.4 2.261e+04 7.131e-09
 42.31182    -23.2 2.828e+04 1.014e-08
 42.31792    -28.6 2.950e+04 1.229e-08
 42.32294    -29.3 2.728e+04 5.103e-08
 42.33184    -35.4 2.857e+04 5.558e-08
 42.34188    -41.1 2.696e+04 7.059e-08
 42.35192    -44.0 2.650e+04 5.836e-08
 42.35958    -47.0 2.649e+04 3.735e-08
 42.36460    -46.7 2.789e+04 5.549e-08
 42.37199    -48.4 2.885e+04 2.066e-08
 42.38203    -52.0 2.821e+04 9.406e-09
 42.39627    -63.3 2.254e+04 3.156e-09
 42.40635    -66.3 2.438e+04 2.351e-09
 42.41725    -82.8 1.174e+04 9.709e-10
 42.43733    -83.5 1.135e+04 8.648e-10
 42.45373    -84.5 1.156e+04 8.998e-10
 42.46376    -85.3 1.180e+04 1.010e-09
 42.47747    -86.6 1.183e+04 1.053e-09
 42.48967    -87.6 1.180e+04 1.121e-09
 42.49970    -89.2 1.193e+04 1.200e-09
 42.51762    -89.6 1.196e+04 1.251e-09
 42.53769    -89.8 1.205e+04 1.293e-09
 42.55777    -90.1 1.214e+04 1.320e-09
 42.57298    -90.7 1.223e+04 1.340e-09
 42.58302    -92.3 1.231e+04 1.376e-09
 42.59792    -92.9 1.246e+04 1.462e-09
 42.61799    -93.7 1.270e+04 1.597e-09
 42.63806    -94.6 1.297e+04 1.745e-09
 42.65630    -95.8 1.325e+04 1.901e-09
 42.66634    -97.3 1.345e+04 2.028e-09
 42.67821    -99.0 1.378e+04 2.259e-09
 42.69828   -100.6 1.406e+04 2.598e-09
 42.71836   -102.0 1.427e+04 2.870e-09
 42.73843   -103.1 1.449e+04 3.045e-09
 42.74965   -104.4 1.461e+04 3.103e-09
 42.75969   -105.9 1.481e+04 3.376e-09
 42.77858   -107.4 1.463e+04 3.041e-09
 42.79865   -109.3 1.426e+04 2.608e-09
 42.81872   -111.1 1.387e+04 2.222e-09
 42.83297   -112.6 1.328e+04 1.846e-09
 42.84301   -114.0 1.312e+04 1.701e-09
 42.85887   -114.9 1.268e+04 1.442e-09
 42.87665   -115.4 1.236e+04 1.223e-09
 42.88669   -115.6 1.244e+04 1.277e-09
 42.89902   -116.2 1.218e+04 1.090e-09
 42.91629   -117.1 1.192e+04 9.241e-10
 42.92632   -118.1 1.179e+04 8.662e-10
 42.93916   -119.0 1.156e+04 7.614e-10
 42.95924   -119.9 1.141e+04 7.109e-10
 42.97931   -120.5 1.131e+04 6.949e-10
 42.99970   -120.9 1.122e+04 6.874e-10
 43.01987   -121.9 1.122e+04 6.499e-10
 43.04976   -122.6 1.115e+04 6.032e-10
 43.08991   -123.5 1.102e+04 5.280e-10
 43.11992   -124.2 1.095e+04 5.064e-10
 43.13990   -124.6 1.095e+04 5.150e-10
 43.15997   -125.1 1.103e+04 5.523e-10
 43.17627   -125.4 1.123e+04 5.999e-10
 43.18631   -125.7 1.127e+04 6.073e-10
 43.20012   -126.3 1.143e+04 6.501e-10
 43.22019   -127.1 1.149e+04 6.729e-10
 43.24027   -128.1 1.149e+04 6.790e-10
 43.25959   -129.1 1.150e+04 6.743e-10
 43.26963   -129.2 1.143e+04 6.350e-10
 43.28041   -130.6 1.149e+04 6.154e-10
 43.29958   -132.5 1.166e+04 6.177e-10
 43.30962   -132.2 1.138e+04 5.387e-10
 43.32056   -133.9 1.140e+04 5.286e-10
 43.34063   -135.6 1.143e+04 5.441e-10
 43.35294   -139.7 1.208e+04 6.843e-10
 43.36298   -140.1 1.191e+04 6.408e-10
 43.38078   -150.4 1.718e+04 1.847e-09
 43.40085   -159.7 2.063e+04 6.278e-09
 43.42093   -167.1 2.148e+04 1.268e-08
 43.43626   -175.4 2.157e+04 1.460e-08
 43.44630   -176.9 2.166e+04 1.283e-08
 43.46107   -189.8 2.103e+04 8.148e-09
 43.48115   -206.5 1.758e+04 2.992e-09
 43.50122   -218.4 1.476e+04 2.107e-09
 43.51958   -222.9 1.433e+04 2.002e-09
 43.52961   -223.9 1.432e+04 2.024e-09
 43.54137   -226.5 1.422e+04 2.014e-09
 43.56144   -229.2 1.376e+04 1.824e-09
 43.58151   -231.9 1.322e+04 1.330e-09
 43.60159   -234.8 1.272e+04 9.575e-10
 43.61293   -237.5 1.229e+04 7.323e-10
 43.62297   -238.7 1.212e+04 6.533e-10
 43.64173   -241.0 1.177e+04 5.543e-10
 43.66181   -242.8 1.149e+04 4.898e-10
 43.68188   -244.2 1.126e+04 4.318e-10
 43.69625   -244.8 1.105e+04 3.804e-10
 43.70628   -245.7 1.102e+04 3.698e-10
 43.72261   -246.6 1.083e+04 3.405e-10
 43.74278   -247.1 1.096e+04 3.519e-10
 43.77241   -247.7 1.077e+04 3.230e-10
 43.81255   -248.6 1.072e+04 3.159e-10
 43.85270   -249.1 1.078e+04 3.274e-10
 43.87311   -249.7 1.082e+04 3.352e-10
 43.89319   -251.2 1.059e+04 2.979e-10
 43.93299   -251.7 1.058e+04 2.880e-10
 43.97314   -252.2 1.046e+04 2.579e-10
 44.01329   -252.4 1.027e+04 2.205e-10
 44.03975   -252.2 1.007e+04 1.894e-10
 44.05982   -252.8 9.886e+03 1.682e-10
 44.09358   -251.9 9.775e+03 1.499e-10
 44.13373   -250.6 9.734e+03 1.398e-10
 44.17388   -249.0 9.733e+03 1.366e-10
 44.20638   -247.3 9.743e+03 1.362e-10
 44.22645   -247.4 9.649e+03 1.199e-10
 44.25417   -246.1 9.697e+03 1.213e-10
 44.29432   -245.6 1.018e+04 1.697e-10
 44.33446   -245.4 1.104e+04 3.306e-10
 44.37301   -245.1 1.179e+04 6.173e-10
 44.39309   -245.8 1.200e+04 7.617e-10
 44.41476   -245.8 1.250e+04 1.071e-09
 44.45490   -246.3 1.264e+04 1.144e-09
 44.49505   -247.2 1.259e+04 1.109e-09
 44.53520   -247.7 1.221e+04 8.874e-10
 44.55972   -247.8 1.174e+04 6.714e-10
 44.57301   -248.1 1.152e+04 5.340e-10
 44.58864   -248.3 1.150e+04 5.402e-10
 44.61549   -247.5 1.128e+04 4.388e-10
 44.64294   -245.7 1.130e+04 4.175e-10
 44.65288   -245.6 1.119e+04 3.790e-10
 44.66548   -245.5 1.116e+04 3.718e-10
 44.69569   -245.1 1.100e+04 3.331e-10
 44.72635   -243.9 1.062e+04 2.589e-10
 44.74643   -243.6 1.041e+04 2.217e-10
 44.77608   -242.4 1.008e+04 1.739e-10
 44.81623   -241.1 9.909e+03 1.474e-10
 44.85637   -239.8 9.879e+03 1.379e-10
 44.89299   -238.3 9.875e+03 1.366e-10
 44.91306   -237.8 9.856e+03 1.338e-10
 44.93667   -236.3 9.904e+03 1.368e-10
 44.97681   -234.9 1.002e+04 1.519e-10
 45.01696   -233.4 1.011e+04 1.697e-10
 45.05711   -231.9 1.014e+04 1.800e-10
 45.07969   -230.4 1.015e+04 1.818e-10
 45.09977   -229.8 1.016e+04 1.764e-10
 45.13740   -228.2 1.012e+04 1.707e-10
 45.17755   -226.5 1.005e+04 1.568e-10
 45.21770   -224.8 1.003e+04 1.482e-10
 45.24633   -223.3 1.003e+04 1.471e-10
 45.26640   -223.0 1.003e+04 1.466e-10
 45.29799   -222.6 1.006e+04 1.538e-10
 45.33814   -223.5 1.082e+04 2.875e-10
 45.37828   -225.4 1.324e+04 1.016e-09
 45.40830   -226.7 1.441e+04 2.351e-09
 45.42280   -227.7 1.515e+04 3.423e-09
 45.42883   -228.4 1.514e+04 3.472e-09
 45.43430   -228.2 1.505e+04 3.394e-09
 45.44834   -229.6 1.528e+04 3.871e-09
 45.46842   -231.1 1.527e+04 3.938e-09
 45.48849   -232.3 1.487e+04 3.527e-09
 45.50612   -233.3 1.427e+04 2.626e-09
 45.51615   -233.8 1.413e+04 2.400e-09
 45.52864   -234.8 1.354e+04 1.722e-09
 45.54871   -235.8 1.298e+04 1.253e-09
 45.56879   -236.5 1.252e+04 9.584e-10
 45.58886   -237.0 1.219e+04 7.934e-10
 45.59947   -237.1 1.197e+04 7.103e-10
 45.60951   -237.2 1.183e+04 6.316e-10
 45.62901   -237.2 1.169e+04 5.947e-10
 45.65921   -236.8 1.153e+04 5.243e-10
 45.69946   -235.5 1.129e+04 4.677e-10
 45.73961   -234.2 1.109e+04 4.542e-10
 45.76630   -232.7 1.102e+04 4.527e-10
 45.78637   -232.2 1.077e+04 3.319e-10
 45.81990   -230.6 1.077e+04 3.228e-10
 45.86005   -229.1 1.085e+04 3.056e-10
 45.90019   -227.4 1.092e+04 2.917e-10
 45.93293   -225.8 1.099e+04 2.828e-10
 45.95301   -225.4 1.096e+04 2.789e-10
 45.98049   -223.9 1.098e+04 2.734e-10
 46.02063   -222.4 1.097e+04 2.649e-10
 46.06078   -220.9 1.095e+04 2.573e-10
 46.09957   -219.4 1.093e+04 2.531e-10
 46.11964   -219.1 1.092e+04 2.472e-10
 46.14107   -217.5 1.091e+04 2.441e-10
 46.18122   -216.0 1.096e+04 2.445e-10
 46.22137   -214.7 1.113e+04 2.602e-10
 46.26028   -213.5 1.133e+04 2.900e-10
 46.28036   -213.0 1.134e+04 2.974e-10
 46.28627   -212.0 1.150e+04 3.243e-10
 46.30635   -211.6 1.152e+04 3.170e-10
 46.34181   -210.8 1.168e+04 3.459e-10
 46.38196   -210.0 1.174e+04 3.520e-10
 46.42210   -209.2 1.171e+04 3.217e-10
 46.45291   -208.3 1.161e+04 2.653e-10
 46.47298   -208.1 1.168e+04 2.966e-10
 46.50240   -207.1 1.157e+04 2.426e-10
 46.54254   -206.1 1.148e+04 2.085e-10
 46.58269   -204.9 1.138e+04 1.961e-10
 46.61954   -203.5 1.132e+04 1.957e-10
 46.63961   -203.2 1.127e+04 1.993e-10
 46.66298   -201.7 1.119e+04 2.025e-10
 46.70313   -200.1 1.114e+04 2.071e-10
 46.74328   -198.5 1.111e+04 2.054e-10
 46.78342   -197.0 1.107e+04 1.976e-10
 46.80625   -195.4 1.102e+04 1.822e-10
 46.82632   -194.7 1.092e+04 1.607e-10
 46.86372   -193.0 1.090e+04 1.472e-10
 46.90387   -191.2 1.087e+04 1.370e-10
 46.94401   -189.4 1.086e+04 1.329e-10
 46.97288   -187.5 1.085e+04 1.343e-10
 46.99295   -186.7 1.082e+04 1.263e-10
 47.02431   -184.9 1.085e+04 1.360e-10
 47.06445   -183.0 1.085e+04 1.489e-10
 47.10460   -181.2 1.087e+04 1.604e-10
 47.12622   -179.4 1.087e+04 1.674e-10
 47.14105   -178.0 1.081e+04 1.371e-10
 47.15959   -177.3 1.083e+04 1.491e-10
 47.18489   -175.6 1.084e+04 1.617e-10
 47.22504   -173.9 1.081e+04 1.720e-10
 47.26519   -172.3 1.080e+04 1.743e-10
 47.30533   -170.5 1.078e+04 1.743e-10
 47.32622   -168.7 1.074e+04 1.632e-10
 47.34629   -168.2 1.071e+04 1.507e-10
 47.38563   -166.3 1.063e+04 1.260e-10
 47.42577   -164.4 1.055e+04 1.010e-10
 47.46592   -162.6 1.043e+04 8.284e-11
 47.49285   -160.8 1.029e+04 7.337e-11
 47.51293   -160.3 1.024e+04 7.019e-11
 47.54622   -158.4 1.020e+04 6.962e-11
 47.58636   -156.5 1.017e+04 7.357e-11
 47.62651   -154.5 1.011e+04 8.202e-11
 47.65948   -152.4 1.007e+04 9.375e-11
 47.67956   -151.9 1.008e+04 9.359e-11
 47.70680   -149.8 1.006e+04 1.072e-10
 47.74695   -147.8 1.003e+04 1.256e-10
 47.78710   -145.9 1.007e+04 1.565e-10
 47.82612   -144.0 1.029e+04 2.105e-10
 47.84619   -143.6 1.021e+04 1.962e-10
 47.86739   -141.8 1.060e+04 2.842e-10
 47.89740   -139.9 1.094e+04 3.938e-10
 47.91738   -140.1 1.095e+04 4.442e-10
 47.92931   -140.1 1.110e+04 6.484e-10
 47.93935   -139.6 1.108e+04 5.970e-10
 47.95753   -139.4 1.132e+04 7.560e-10
 47.97188   -138.5 1.161e+04 9.233e-10
 47.98192   -138.4 1.144e+04 9.047e-10
 47.99767   -138.1 1.182e+04 1.116e-09
 48.01263   -138.7 1.253e+04 1.527e-09
 48.02267   -138.6 1.257e+04 1.627e-09
 48.03782   -140.5 1.406e+04 2.671e-09
 48.05789   -143.5 1.633e+04 4.989e-09
 48.07290   -146.0 1.825e+04 8.921e-09
 48.08289   -146.4 1.848e+04 9.366e-09
 48.09292   -148.4 1.961e+04 1.495e-08
 48.10087   -149.3 2.018e+04 1.934e-08
 48.10589   -149.2 1.992e+04 1.777e-08
 48.11300   -150.4 2.072e+04 2.685e-08
 48.12303   -151.1 2.130e+04 3.241e-08
 48.13307   -152.6 2.153e+04 3.461e-08
 48.14253   -154.1 2.113e+04 2.886e-08
 48.14754   -153.6 2.039e+04 2.528e-08
 48.15314   -154.5 1.935e+04 1.676e-08
 48.16318   -155.4 1.810e+04 1.053e-08
 48.17828   -156.4 1.685e+04 6.404e-09
 48.18930   -158.7 1.451e+04 2.376e-09
 48.19934   -157.9 1.459e+04 2.598e-09
 48.21848   -161.5 1.188e+04 1.042e-09
 48.23855   -162.5 1.063e+04 7.205e-10
 48.25863   -162.4 1.025e+04 6.321e-10
 48.27262   -161.5 1.011e+04 5.805e-10
 48.28265   -160.7 1.018e+04 5.964e-10
 48.29877   -159.9 1.008e+04 5.568e-10
 48.31885   -159.2 1.010e+04 5.426e-10
 48.33892   -158.4 1.011e+04 5.402e-10
 48.35593   -157.8 1.017e+04 5.499e-10
 48.36597   -157.3 1.015e+04 5.470e-10
 48.37907   -156.7 1.021e+04 5.749e-10
 48.39481   -156.1 1.031e+04 6.245e-10
 48.40484   -155.3 1.029e+04 5.679e-10
 48.41922   -154.8 1.046e+04 6.552e-10
 48.43925   -154.4 1.062e+04 7.494e-10
 48.45932   -153.5 1.077e+04 8.396e-10
 48.47944   -153.0 1.098e+04 9.581e-10
 48.49951   -152.4 1.115e+04 1.064e-09
 48.51958   -151.8 1.127e+04 1.136e-09
 48.53260   -151.3 1.132e+04 1.155e-09
 48.54264   -151.0 1.131e+04 1.157e-09
 48.55973   -150.6 1.127e+04 1.090e-09
 48.58994   -150.3 1.086e+04 8.729e-10
 48.63018   -149.2 1.030e+04 6.458e-10
 48.67033   -148.5 9.623e+03 4.409e-10
 48.69943   -147.8 9.276e+03 3.538e-10
 48.71950   -146.9 9.325e+03 3.559e-10
 48.75062   -146.1 9.372e+03 3.606e-10
 48.79077   -145.2 9.734e+03 4.374e-10
 48.81784   -143.5 9.800e+03 4.571e-10
 48.83791   -143.1 9.539e+03 3.923e-10
 48.86606   -142.3 9.547e+03 3.921e-10
 48.88614   -141.8 9.860e+03 4.697e-10
 48.91121   -141.1 9.671e+03 4.223e-10
 48.95136   -140.3 9.340e+03 3.625e-10
 48.99150   -139.1 9.027e+03 3.118e-10
 49.03165   -137.9 8.738e+03 2.729e-10
 49.05277   -136.8 8.549e+03 2.400e-10
 49.07284   -136.6 8.417e+03 2.133e-10
 49.11194   -135.5 8.230e+03 1.830e-10
 49.15209   -134.5 8.051e+03 1.551e-10
 49.19224   -133.3 7.906e+03 1.350e-10
 49.21940   -132.2 7.851e+03 1.248e-10
 49.23948   -131.7 7.824e+03 1.180e-10
 49.27253   -130.6 7.819e+03 1.161e-10
 49.31268   -129.8 7.857e+03 1.182e-10
 49.35283   -129.3 8.029e+03 1.390e-10
 49.38604   -128.7 8.301e+03 1.842e-10
 49.40611   -128.2 8.294e+03 1.833e-10
 49.43312   -127.4 8.656e+03 2.468e-10
 49.47327   -126.6 9.003e+03 3.087e-10
 49.51341   -126.1 9.280e+03 3.536e-10
 49.55267   -125.8 9.528e+03 3.931e-10
 49.57274   -125.4 9.528e+03 4.035e-10
 49.59371   -125.1 9.787e+03 4.587e-10
 49.63385   -124.7 1.006e+04 5.381e-10
 49.66379   -124.1 1.025e+04 6.003e-10
 49.68386   -123.6 1.024e+04 5.971e-10
 49.70401   -122.6 1.039e+04 6.578e-10
 49.72399   -122.6 1.040e+04 6.607e-10
 49.73918   -121.8 1.050e+04 6.921e-10
 49.74922   -121.4 1.052e+04 6.997e-10
 49.76414   -121.3 1.054e+04 7.097e-10
 49.78421   -120.5 1.075e+04 7.791e-10
 49.80428   -120.2 1.095e+04 8.484e-10
 49.82250   -119.5 1.120e+04 9.539e-10
 49.83254   -118.9 1.118e+04 9.402e-10
 49.84443   -118.2 1.137e+04 1.023e-09
 49.86450   -117.2 1.157e+04 1.116e-09
 49.88458   -116.4 1.169e+04 1.169e-09
 49.90465   -115.5 1.179e+04 1.219e-09
 49.91585   -114.9 1.183e+04 1.245e-09
 49.92589   -114.1 1.202e+04 1.297e-09
 49.94480   -113.5 1.215e+04 1.354e-09
 49.96487   -112.9 1.228e+04 1.426e-09
 49.98494   -112.3 1.241e+04 1.522e-09
 49.99917   -111.6 1.252e+04 1.619e-09
 50.00921   -110.5 1.289e+04 1.816e-09
 50.02509   -109.6 1.322e+04 2.048e-09
 50.04516   -109.1 1.352e+04 2.227e-09
 50.06524   -108.8 1.388e+04 2.413e-09
 50.08249   -108.7 1.407e+04 2.444e-09
 50.09252   -108.9 1.593e+04 4.403e-09
 50.09656   -108.5 1.645e+04 4.957e-09
 50.10660   -108.1 1.685e+04 5.274e-09
 50.12546   -108.2 1.688e+04 5.251e-09
 50.14553   -108.0 1.669e+04 4.693e-09
 50.16561   -107.7 1.568e+04 3.495e-09
 50.17584   -108.9 1.458e+04 2.728e-09
 50.18588   -109.7 1.586e+04 3.499e-09
 50.20575   -111.4 1.476e+04 2.867e-09
 50.22583   -112.1 1.442e+04 2.802e-09
 50.24590   -112.4 1.456e+04 3.299e-09
 50.25916   -112.1 1.484e+04 3.995e-09
 50.26919   -113.1 1.431e+04 3.108e-09
 50.28605   -112.4 1.423e+04 3.136e-09
 50.30612   -111.7 1.404e+04 2.963e-09
 50.32619   -111.2 1.375e+04 2.574e-09
 50.34247   -111.0 1.335e+04 2.072e-09
 50.35251   -112.0 1.227e+04 1.313e-09
 50.36634   -111.9 1.188e+04 1.112e-09
 50.38641   -111.7 1.161e+04 1.015e-09
 50.40649   -111.3 1.149e+04 9.737e-10
 50.42579   -110.5 1.142e+04 9.468e-10
 50.43583   -110.3 1.111e+04 7.420e-10
 50.44663   -109.3 1.111e+04 7.335e-10
 50.46671   -108.3 1.105e+04 7.100e-10
 50.48678   -107.3 1.100e+04 6.775e-10
 50.50685   -106.2 1.094e+04 6.388e-10
 50.51914   -105.2 1.087e+04 5.962e-10
 50.52174   -105.1 1.072e+04 5.477e-10
 50.52953   -105.5 1.064e+04 5.281e-10
 50.54700   -104.4 1.061e+04 5.053e-10
 50.56707   -103.3 1.061e+04 4.864e-10
 50.58715   -102.4 1.060e+04 4.711e-10
 50.60246   -101.5 1.060e+04 4.661e-10
 50.61250   -101.3 1.057e+04 4.459e-10
 50.62729   -100.5 1.063e+04 4.569e-10
 50.64737    -99.9 1.073e+04 5.026e-10
 50.66744    -99.0 1.085e+04 5.683e-10
 50.68578    -97.9 1.099e+04 6.593e-10
 50.69581    -98.0 1.091e+04 6.100e-10
 50.70759    -96.9 1.102e+04 7.003e-10
 50.72766    -95.5 1.117e+04 7.743e-10
 50.74774    -94.2 1.146e+04 8.288e-10
 50.76781    -93.3 1.179e+04 8.591e-10
 50.77913    -92.9 1.196e+04 8.717e-10
 50.78917    -93.2 1.189e+04 8.249e-10
 50.80796    -93.2 1.182e+04 8.796e-10
 50.82803    -92.8 1.192e+04 1.023e-09
 50.84810    -92.0 1.210e+04 1.188e-09
 50.86245    -91.1 1.241e+04 1.403e-09
 50.87248    -91.6 1.230e+04 1.388e-09
 50.88825    -90.7 1.245e+04 1.571e-09
 50.90832    -89.8 1.266e+04 1.697e-09
 50.92840    -89.0 1.276e+04 1.715e-09
 50.94242    -88.5 1.289e+04 1.661e-09
 50.94975    -89.3 1.269e+04 1.506e-09
 50.95580    -89.6 1.245e+04 1.311e-09
 50.96854    -89.2 1.265e+04 1.277e-09
 50.98862    -89.1 1.260e+04 1.300e-09
 51.00869    -88.9 1.244e+04 1.373e-09
 51.02876    -88.1 1.266e+04 1.470e-09
 51.03912    -88.2 1.328e+04 1.470e-09
 51.04915    -88.2 1.362e+04 1.698e-09
 51.06891    -89.0 1.402e+04 2.049e-09
 51.08898    -89.8 1.432e+04 2.388e-09
 51.10906    -90.4 1.469e+04 2.791e-09
 51.12243    -91.7 1.543e+04 3.257e-09
 51.13247    -90.3 1.574e+04 4.014e-09
 51.14920    -92.3 1.661e+04 4.496e-09
 51.16928    -96.0 1.729e+04 5.732e-09
 51.18428    -99.5 1.778e+04 7.306e-09
 51.19427   -100.7 1.799e+04 8.056e-09
 51.20570   -102.9 1.827e+04 9.876e-09
 51.21574   -102.9 1.860e+04 1.058e-08
 51.22945   -104.5 1.928e+04 1.307e-08
 51.24957   -107.7 1.999e+04 1.251e-08
 51.26964   -113.7 1.956e+04 5.843e-09
 51.28907   -123.4 1.454e+04 2.075e-09
 51.29910   -118.2 1.899e+04 2.728e-09
 51.30979   -127.8 1.320e+04 1.568e-09
 51.32987   -133.9 1.426e+04 1.822e-09
 51.34994   -140.9 1.642e+04 2.793e-09
 51.36535   -146.1 1.836e+04 5.487e-09
 51.37539   -148.5 1.844e+04 6.725e-09
 51.38242   -151.5 1.844e+04 8.570e-09
 51.39246   -149.5 1.862e+04 8.625e-09
 51.41016   -152.1 1.840e+04 9.553e-09
 51.43023   -153.7 1.786e+04 8.214e-09
 51.44524   -153.3 1.788e+04 7.743e-09
 51.45523   -153.8 1.792e+04 5.936e-09
 51.46569   -156.7 1.754e+04 2.947e-09
 51.47577   -154.1 1.815e+04 5.713e-09
 51.49045   -157.4 1.795e+04 2.527e-09
 51.51053   -163.0 1.625e+04 6.502e-10
 51.53060   -169.4 9.821e+03 2.355e-10
 51.54905   -171.5 8.705e+03 2.160e-10
 51.55909   -169.5 8.879e+03 2.929e-10
 51.57075   -170.5 8.454e+03 2.975e-10
 51.59082   -170.8 8.835e+03 3.510e-10
 51.61089   -174.3 1.173e+04 4.530e-10
 51.63097   -179.7 1.395e+04 1.047e-09
 51.64241   -183.7 1.485e+04 2.528e-09
 51.65244   -181.2 1.495e+04 2.507e-09
 51.67111   -184.4 1.551e+04 4.356e-09
 51.69119   -187.1 1.578e+04 5.379e-09
 51.71126   -190.1 1.580e+04 5.523e-09
 51.72572   -193.0 1.530e+04 4.592e-09
 51.73576   -192.6 1.551e+04 5.138e-09
 51.75141   -195.7 1.460e+04 3.610e-09
 51.77148   -198.1 1.356e+04 2.518e-09
 51.78828   -199.5 1.274e+04 1.931e-09
 51.79832   -199.7 1.245e+04 1.800e-09
 51.80904   -200.0 1.212e+04 1.531e-09
 51.81908   -200.0 1.273e+04 1.960e-09
 51.83170   -200.1 1.243e+04 1.672e-09
 51.85177   -199.8 1.208e+04 1.380e-09
 51.87185   -199.5 1.174e+04 1.123e-09
 51.89192   -199.3 1.148e+04 9.292e-10
 51.90239   -199.0 1.132e+04 7.969e-10
 51.91243   -199.2 1.189e+04 1.113e-09
 51.93207   -198.9 1.182e+04 1.024e-09
 51.95214   -198.6 1.178e+04 9.737e-10
 51.97222   -198.1 1.175e+04 9.450e-10
 51.98571   -197.6 1.172e+04 9.276e-10
 51.99575   -198.0 1.212e+04 1.251e-09
 52.01236   -197.3 1.207e+04 1.225e-09
 52.03244   -196.6 1.202e+04 1.195e-09
 52.05251   -196.0 1.197e+04 1.162e-09
 52.06903   -195.3 1.195e+04 1.132e-09
 52.07906   -195.5 1.224e+04 1.381e-09
 52.09266   -195.0 1.225e+04 1.348e-09
 52.11273   -194.7 1.226e+04 1.330e-09
 52.13280   -194.6 1.231e+04 1.328e-09
 52.15234   -194.6 1.242e+04 1.378e-09
 52.16238   -194.4 1.256e+04 1.545e-09
 52.17295   -194.3 1.263e+04 1.622e-09
 52.19302   -194.2 1.268e+04 1.725e-09
 52.21121   -193.9 1.271e+04 1.812e-09
 52.22124   -193.5 1.215e+04 1.389e-09
 52.23317   -193.1 1.220e+04 1.478e-09
 52.24570   -192.6 1.224e+04 1.523e-09
 52.25573   -192.0 1.219e+04 1.441e-09
 52.27332   -191.6 1.219e+04 1.379e-09
 52.29339   -191.4 1.218e+04 1.282e-09
 52.31346   -191.3 1.216e+04 1.174e-09
 52.32901   -191.4 1.208e+04 1.074e-09
 52.33905   -190.8 1.210e+04 1.058e-09
 52.35361   -190.9 1.194e+04 9.656e-10
 52.37368   -190.9 1.174e+04 8.484e-10
 52.39376   -190.7 1.153e+04 7.027e-10
 52.41233   -190.5 1.132e+04 5.435e-10
 52.42236   -190.1 1.139e+04 5.638e-10
 52.43390   -190.1 1.107e+04 4.134e-10
 52.45398   -190.1 1.071e+04 3.082e-10
 52.48419   -189.7 1.052e+04 2.579e-10
 52.50588   -187.6 9.964e+03 1.895e-10
 52.52595   -187.5 9.964e+03 1.887e-10
 52.56458   -185.1 9.826e+03 1.527e-10
 52.60472   -182.9 9.831e+03 1.409e-10
 52.64487   -180.8 9.851e+03 1.392e-10
 52.67251   -179.0 1.009e+04 1.518e-10
 52.69258   -179.8 1.057e+04 1.782e-10
 52.72517   -178.6 1.103e+04 2.563e-10
 52.75518   -176.6 1.099e+04 2.747e-10
 52.76567   -176.6 1.111e+04 3.090e-10
 52.77570   -177.0 1.121e+04 3.563e-10
 52.79523   -176.3 1.134e+04 4.826e-10
 52.81530   -176.0 1.134e+04 5.822e-10
 52.83537   -175.4 1.133e+04 6.669e-10
 52.84898   -174.8 1.132e+04 6.886e-10
 52.85902   -175.0 1.134e+04 6.782e-10
 52.87552   -174.5 1.123e+04 6.341e-10
 52.89559   -173.9 1.108e+04 5.627e-10
 52.91567   -173.4 1.092e+04 4.858e-10
 52.93230   -172.8 1.074e+04 4.158e-10
 52.94234   -172.8 1.074e+04 4.026e-10
 52.95581   -171.8 1.063e+04 3.577e-10
 52.97589   -171.4 1.061e+04 3.411e-10
 53.00568   -170.9 1.064e+04 3.337e-10
 53.02585   -170.9 1.064e+04 3.311e-10
 53.04634   -169.7 1.055e+04 3.150e-10
 53.06730   -168.1 1.056e+04 3.138e-10
 53.08737   -167.6 1.073e+04 3.549e-10
 53.12663   -166.3 1.087e+04 3.762e-10
 53.15665   -164.9 1.090e+04 3.539e-10
 53.17662   -164.8 1.096e+04 3.737e-10
 53.19229   -164.4 1.110e+04 4.394e-10
 53.20232   -163.5 1.097e+04 3.571e-10
 53.21677   -163.5 1.108e+04 4.295e-10
 53.23684   -163.1 1.121e+04 5.734e-10
 53.25692   -162.7 1.134e+04 7.134e-10
 53.27560   -162.3 1.161e+04 8.598e-10
 53.28564   -161.4 1.143e+04 7.532e-10
 53.29706   -161.0 1.177e+04 8.775e-10
 53.31714   -161.1 1.228e+04 1.043e-09
 53.33721   -161.8 1.285e+04 1.335e-09
 53.35728   -162.8 1.331e+04 1.830e-09
 53.36896   -163.3 1.360e+04 2.489e-09
 53.37899   -162.1 1.349e+04 2.105e-09
 53.39743   -162.2 1.381e+04 2.873e-09
 53.41750   -161.9 1.400e+04 3.398e-09
 53.43758   -161.4 1.407e+04 3.560e-09
 53.45227   -160.8 1.400e+04 3.145e-09
 53.46231   -159.8 1.420e+04 3.797e-09
 53.47772   -159.1 1.398e+04 3.001e-09
 53.49003   -158.4 1.358e+04 1.765e-09
 53.50007   -158.7 1.332e+04 1.402e-09
 53.51787   -159.0 1.280e+04 6.622e-10
 53.53559   -160.4 1.200e+04 3.379e-10
 53.54563   -158.2 1.269e+04 5.307e-10
 53.55802   -159.7 1.184e+04 3.019e-10
 53.57809   -160.3 1.104e+04 2.568e-10
 53.59816   -159.9 1.089e+04 2.523e-10
 53.61824   -159.6 1.086e+04 2.509e-10
 53.64845   -158.0 1.079e+04 2.477e-10
 53.68869   -156.0 1.064e+04 2.474e-10
 53.71246   -154.0 1.060e+04 2.480e-10
 53.73253   -152.5 1.043e+04 2.283e-10
 53.76898   -150.5 1.037e+04 2.200e-10
 53.80913   -148.5 1.041e+04 2.207e-10
 53.84928   -146.5 1.048e+04 2.331e-10
 53.87909   -144.4 1.055e+04 2.538e-10
 53.89916   -142.7 1.035e+04 2.181e-10
 53.91316   -140.7 1.048e+04 2.440e-10
 53.93323   -141.5 1.046e+04 2.419e-10
 53.96972   -139.6 1.062e+04 2.708e-10
 54.00987   -138.0 1.099e+04 3.070e-10
 54.03988   -135.5 1.103e+04 3.284e-10
 54.05556   -135.7 1.125e+04 3.561e-10
 54.06570   -134.7 1.096e+04 3.289e-10
 54.08003   -133.8 1.123e+04 3.768e-10
 54.10000   -134.2 1.144e+04 4.552e-10
 54.12007   -134.2 1.173e+04 5.939e-10
 54.13888   -134.0 1.207e+04 8.025e-10
 54.14892   -132.5 1.160e+04 5.705e-10
 54.16022   -132.3 1.193e+04 7.610e-10
 54.18029   -131.8 1.220e+04 1.007e-09
 54.20037   -131.1 1.238e+04 1.243e-09
 54.22044   -130.2 1.248e+04 1.372e-09
 54.23223   -129.4 1.250e+04 1.332e-09
 54.24227   -128.5 1.248e+04 1.352e-09
 54.26059   -127.7 1.251e+04 1.332e-09
 54.28066   -127.1 1.239e+04 1.235e-09
 54.30074   -126.7 1.207e+04 1.079e-09
 54.33094   -125.4 1.182e+04 9.761e-10
 54.37119   -123.6 1.117e+04 6.629e-10
 54.39906   -121.9 1.061e+04 4.300e-10
 54.41914   -119.8 1.080e+04 5.561e-10
 54.45148   -118.1 1.040e+04 3.822e-10
 54.49163   -116.3 1.014e+04 2.862e-10
 54.53178   -114.5 1.004e+04 2.522e-10
 54.56570   -112.4 9.922e+03 2.394e-10
 54.58577   -110.9 9.860e+03 2.357e-10
 54.61207   -108.7 9.733e+03 2.191e-10
 54.65222   -106.4 9.680e+03 2.111e-10
 54.69236   -104.0 9.652e+03 2.081e-10
 54.73233   -101.5 9.634e+03 2.096e-10
 54.75884    -97.8 9.434e+03 1.837e-10
 54.77909    -98.0 9.391e+03 1.762e-10
 54.81280    -95.6 9.434e+03 1.853e-10
 54.85295    -93.4 9.552e+03 2.072e-10
 54.89310    -91.2 9.755e+03 2.437e-10
 54.91904    -89.2 1.005e+04 2.980e-10
 54.93911    -87.9 9.819e+03 2.651e-10
 54.97339    -86.3 1.021e+04 3.476e-10
 55.01354    -85.3 1.061e+04 4.739e-10
 55.05368    -84.6 1.092e+04 6.370e-10
 55.08567    -84.4 1.141e+04 8.320e-10
 55.10574    -82.8 1.140e+04 8.709e-10
 55.12384    -82.3 1.186e+04 1.034e-09
 55.14382    -83.1 1.214e+04 1.157e-09
 55.16389    -83.5 1.238e+04 1.313e-09
 55.17883    -84.1 1.233e+04 1.319e-09
 55.18665    -83.5 1.253e+04 1.452e-09
 55.19179    -83.8 1.249e+04 1.457e-09
 55.20404    -84.0 1.231e+04 1.346e-09
 55.22411    -84.1 1.202e+04 1.156e-09
 55.24419    -84.0 1.176e+04 9.420e-10
 55.26214    -83.7 1.155e+04 7.266e-10
 55.27218    -83.2 1.166e+04 8.428e-10
 55.28433    -83.0 1.147e+04 6.223e-10
 55.30441    -82.8 1.129e+04 4.417e-10
 55.32448    -82.9 1.098e+04 3.268e-10
 55.34455    -82.8 1.088e+04 3.136e-10
 55.37476    -82.3 1.052e+04 2.516e-10
 55.41501    -81.2 1.035e+04 2.224e-10
 55.43901    -79.9 1.038e+04 2.220e-10
 55.45908    -79.3 1.023e+04 2.140e-10
 55.49530    -78.3 1.041e+04 2.424e-10
 55.53545    -76.9 1.065e+04 3.156e-10
 55.57559    -75.3 1.076e+04 3.580e-10
 55.60487    -74.2 1.076e+04 3.489e-10
 55.61485    -74.5 1.069e+04 3.103e-10
 55.62572    -74.5 1.059e+04 2.728e-10
 55.65589    -73.9 1.060e+04 2.635e-10
 55.69604    -73.2 1.061e+04 2.835e-10
 55.72605    -71.9 1.055e+04 3.121e-10
 55.74602    -71.9 1.055e+04 3.220e-10
 55.76610    -71.2 1.062e+04 3.578e-10
 55.78212    -71.5 1.077e+04 3.913e-10
 55.79225    -70.9 1.059e+04 2.776e-10
 55.80634    -71.7 1.081e+04 3.424e-10
 55.82632    -73.1 1.101e+04 4.563e-10
 55.84639    -74.0 1.104e+04 6.977e-10
 55.86543    -73.9 1.121e+04 9.407e-10
 55.87547    -73.5 1.092e+04 7.335e-10
 55.88654    -73.0 1.115e+04 9.406e-10
 55.90661    -72.3 1.129e+04 9.985e-10
 55.92668    -71.9 1.132e+04 9.819e-10
 55.94676    -71.8 1.115e+04 8.423e-10
 55.95879    -72.2 1.106e+04 7.533e-10
 55.96882    -71.7 1.097e+04 6.988e-10
 55.98690    -72.2 1.097e+04 6.802e-10
 56.00698    -73.7 1.149e+04 7.448e-10
 56.02705    -75.9 1.218e+04 1.099e-09
 56.03764    -77.3 1.268e+04 1.761e-09
 56.04266    -77.0 1.274e+04 1.690e-09
 56.05214    -76.6 1.272e+04 1.518e-09
 56.06720    -77.2 1.338e+04 2.587e-09
 56.08727    -77.0 1.412e+04 3.769e-09
 56.10735    -76.6 1.472e+04 4.425e-09
 56.12542    -76.8 1.488e+04 4.489e-09
 56.13546    -76.9 1.502e+04 4.858e-09
 56.14749    -77.6 1.488e+04 4.154e-09
 56.16757    -79.0 1.388e+04 2.764e-09
 56.18764    -80.7 1.261e+04 1.820e-09
 56.20771    -81.7 1.162e+04 1.325e-09
 56.21877    -81.9 1.104e+04 1.051e-09
 56.22881    -81.6 1.101e+04 1.032e-09
 56.24786    -81.6 1.047e+04 8.081e-10
 56.26793    -81.3 1.005e+04 6.480e-10
 56.28801    -81.0 9.776e+03 5.395e-10
 56.30209    -81.1 9.597e+03 4.700e-10
 56.31213    -80.8 9.501e+03 4.367e-10
 56.33829    -81.2 9.188e+03 3.646e-10
 56.37853    -80.5 8.891e+03 3.287e-10
 56.41868    -79.4 8.726e+03 3.023e-10
 56.45073    -78.1 8.545e+03 2.802e-10
 56.47081    -78.5 8.606e+03 2.878e-10
 56.49897    -76.6 8.555e+03 2.755e-10
 56.53912    -75.1 8.343e+03 2.396e-10
 56.57927    -73.6 8.182e+03 2.106e-10
 56.61941    -72.2 8.137e+03 2.008e-10
 56.64559    -70.6 8.173e+03 2.026e-10
 56.66566    -70.1 8.153e+03 1.997e-10
 56.69971    -68.5 8.348e+03 2.225e-10
 56.73985    -66.8 8.763e+03 2.839e-10
 56.78000    -65.2 9.153e+03 3.571e-10
 56.81001    -65.0 9.575e+03 4.824e-10
 56.82206    -65.3 9.895e+03 6.025e-10
 56.83210    -64.8 9.718e+03 5.408e-10
 56.85006    -64.5 1.010e+04 7.227e-10
 56.87014    -63.8 1.034e+04 8.171e-10
 56.88350    -62.8 1.065e+04 9.003e-10
 56.89354    -62.5 1.046e+04 8.236e-10
 56.90538    -61.8 1.072e+04 8.916e-10
 56.91542    -61.9 1.027e+04 6.862e-10
 56.93036    -61.7 1.059e+04 7.225e-10
 56.95043    -62.8 1.130e+04 8.258e-10
 56.97050    -65.3 1.235e+04 1.168e-09
 56.98870    -67.8 1.297e+04 1.816e-09
 56.99873    -68.1 1.234e+04 1.489e-09
 57.01065    -69.0 1.275e+04 2.213e-09
 57.03072    -69.0 1.331e+04 2.903e-09
 57.05080    -68.7 1.390e+04 3.145e-09
 57.07087    -69.3 1.424e+04 3.129e-09
 57.08205    -72.4 1.467e+04 2.523e-09
 57.09209    -71.6 1.390e+04 2.176e-09
 57.11102    -75.0 1.384e+04 1.997e-09
 57.13109    -77.7 1.365e+04 2.168e-09
 57.15116    -78.5 1.347e+04 2.630e-09
 57.16537    -78.3 1.345e+04 2.950e-09
 57.17540    -77.5 1.307e+04 2.384e-09
 57.19131    -76.9 1.274e+04 2.211e-09
 57.21139    -76.2 1.241e+04 1.730e-09
 57.23146    -75.9 1.202e+04 1.180e-09
 57.24868    -76.6 1.145e+04 7.641e-10
 57.25872    -75.5 1.126e+04 6.516e-10
 57.27161    -76.3 1.065e+04 4.588e-10
 57.29168    -76.6 1.015e+04 3.906e-10
 57.30643    -76.3 1.001e+04 3.756e-10
 57.31647    -75.6 1.017e+04 3.919e-10
 57.33183    -75.2 1.012e+04 3.985e-10
 57.34204    -74.6 1.020e+04 4.625e-10
 57.35207    -73.5 1.003e+04 3.539e-10
 57.37197    -72.6 1.003e+04 4.082e-10
 57.39205    -71.7 1.008e+04 4.668e-10
 57.41212    -70.4 1.012e+04 5.275e-10
 57.42535    -69.1 1.013e+04 5.522e-10
 57.43539    -68.4 9.912e+03 4.515e-10
 57.45227    -66.9 9.872e+03 4.700e-10
 57.47234    -65.5 9.764e+03 4.506e-10
 57.49241    -63.9 9.743e+03 4.185e-10
 57.50867    -62.5 9.746e+03 3.893e-10
 57.51871    -62.0 9.571e+03 3.488e-10
 57.53256    -60.5 9.534e+03 3.322e-10
 57.55263    -59.4 9.618e+03 3.300e-10
 57.57271    -58.7 1.110e+04 3.545e-10
 57.59199    -60.0 1.727e+04 4.627e-10
 57.60202    -56.8 1.005e+04 3.045e-10
 57.61285    -56.7 1.253e+04 3.638e-10
 57.63293    -56.6 1.596e+04 4.669e-10
 57.64363    -55.6 1.624e+04 6.110e-10
 57.64860    -55.2 1.410e+04 5.335e-10
 57.65792    -55.2 1.451e+04 5.454e-10
 57.66796    -54.5 1.591e+04 7.003e-10
 57.67800    -55.2 1.834e+04 8.517e-10
 57.68524    -54.9 2.191e+04 1.437e-09
 57.69026    -52.7 1.511e+04 7.570e-10
 57.69807    -53.4 1.763e+04 8.975e-10
 57.70811    -53.4 2.140e+04 1.606e-09
 57.71814    -54.6 2.430e+04 2.844e-09
 57.72690    -54.6 2.556e+04 6.111e-09
 57.73192    -51.4 2.108e+04 1.512e-09
 57.73428    -52.2 2.471e+04 2.666e-09
 57.73930    -50.9 1.842e+04 1.193e-09
 57.74825    -51.1 2.262e+04 2.144e-09
 57.75829    -52.2 2.537e+04 4.041e-09
 57.76833    -53.0 2.595e+04 8.161e-09
 57.77358    -54.1 2.494e+04 1.424e-08
 57.77860    -52.3 2.581e+04 3.931e-09
 57.78840    -53.0 2.589e+04 8.602e-09
 57.79844    -53.7 2.464e+04 1.698e-08
 57.80847    -52.8 2.380e+04 3.411e-08
 57.81524    -51.9 2.312e+04 5.985e-08
 57.82025    -51.9 2.516e+04 1.815e-08
 57.82855    -51.1 2.471e+04 3.310e-08
 57.83858    -50.8 2.377e+04 5.732e-08
 57.84862    -49.8 2.285e+04 1.028e-07
 57.85689    -48.3 2.192e+04 1.897e-07
 57.86191    -49.2 2.360e+04 1.116e-07
 57.86869    -47.5 2.311e+04 2.544e-07
 57.87873    -47.7 2.293e+04 3.582e-07
 57.88877    -49.1 2.224e+04 3.158e-07
 57.89855    -47.9 2.173e+04 1.932e-07
 57.90357    -46.3 2.292e+04 1.271e-07
 57.90884    -45.3 2.254e+04 1.280e-07
 57.91888    -44.6 2.220e+04 1.601e-07
 57.92891    -44.3 2.238e+04 2.324e-07
 57.93895    -44.3 2.180e+04 4.820e-07
 57.94520    -44.5 2.120e+04 7.277e-07
 57.94696    -44.1 2.152e+04 6.846e-07
 57.94821    -44.2 2.191e+04 3.765e-07
 57.95145    -44.5 2.216e+04 3.640e-07
 57.95647    -46.0 2.327e+04 2.900e-07
 57.96148    -48.1 2.273e+04 3.136e-07
 57.96601    -50.6 2.247e+04 3.258e-07
 57.96852    -51.0 2.320e+04 2.950e-07
 57.97152    -52.3 2.307e+04 3.242e-07
 57.97654    -54.8 2.261e+04 3.028e-07
 57.98156    -55.5 2.222e+04 3.010e-07
 57.98686    -54.8 2.140e+04 2.857e-07
 57.99191    -55.0 2.199e+04 1.863e-07
 57.99917    -54.2 2.164e+04 1.719e-07
 58.00921    -53.6 2.164e+04 1.686e-07
 58.01924    -53.1 2.188e+04 1.766e-07
 58.02855    -52.5 2.261e+04 1.781e-07
 58.03356    -52.3 2.216e+04 1.325e-07
 58.03932    -51.6 2.263e+04 1.341e-07
 58.04935    -50.8 2.358e+04 1.252e-07
 58.05939    -50.1 2.477e+04 1.095e-07
 58.06943    -49.9 2.552e+04 9.697e-08
 58.07522    -50.1 2.603e+04 8.014e-08
 58.08024    -49.9 2.527e+04 8.351e-08
 58.08950    -50.0 2.562e+04 7.138e-08
 58.09954    -50.1 2.552e+04 5.930e-08
 58.10957    -50.1 2.502e+04 4.883e-08
 58.11688    -50.0 2.433e+04 4.035e-08
 58.12190    -49.8 2.472e+04 4.741e-08
 58.12965    -49.7 2.429e+04 4.258e-08
 58.13968    -49.6 2.376e+04 3.831e-08
 58.14972    -49.5 2.306e+04 3.339e-08
 58.15721    -49.5 2.203e+04 2.806e-08
 58.16101    -48.6 2.309e+04 3.348e-08
 58.16356    -48.3 2.377e+04 4.000e-08
 58.16979    -48.3 2.326e+04 3.680e-08
 58.17983    -48.2 2.275e+04 3.351e-08
 58.18987    -48.3 2.204e+04 2.951e-08
 58.19990    -48.6 2.104e+04 2.443e-08
 58.20522    -48.4 2.017e+04 2.178e-08
 58.21023    -48.4 2.142e+04 2.810e-08
 58.21998    -48.3 2.061e+04 2.447e-08
 58.23002    -48.1 2.005e+04 2.158e-08
 58.24005    -48.5 1.950e+04 1.822e-08
 58.24687    -48.2 1.942e+04 1.653e-08
 58.25189    -47.6 2.031e+04 2.021e-08
 58.26013    -47.8 1.971e+04 1.732e-08
 58.27523    -48.2 1.824e+04 1.227e-08
 58.28863    -48.5 1.684e+04 8.810e-09
 58.29867    -47.8 1.834e+04 1.359e-08
 58.31542    -48.1 1.701e+04 1.095e-08
 58.33550    -48.1 1.668e+04 9.262e-09
 58.35557    -47.8 1.665e+04 7.599e-09
 58.37195    -47.5 1.648e+04 5.955e-09
 58.38198    -47.4 1.631e+04 7.186e-09
 58.39572    -47.5 1.581e+04 5.477e-09
 58.41579    -48.4 1.496e+04 4.167e-09
 58.43587    -49.2 1.410e+04 3.448e-09
 58.45526    -49.5 1.360e+04 3.170e-09
 58.46530    -49.9 1.279e+04 2.526e-09
 58.47601    -49.9 1.261e+04 2.236e-09
 58.49609    -49.6 1.247e+04 2.013e-09
 58.51616    -49.5 1.235e+04 1.786e-09
 58.53623    -49.8 1.227e+04 1.583e-09
 58.54862    -50.4 1.220e+04 1.425e-09
 58.55865    -53.3 1.136e+04 9.118e-10
 58.57522    -54.3 1.126e+04 8.711e-10
 58.58526    -57.3 1.129e+04 1.088e-09
 58.59645    -58.0 1.182e+04 1.184e-09
 58.61653    -58.7 1.211e+04 1.272e-09
 58.63193    -59.3 1.241e+04 1.355e-09
 58.64197    -60.8 1.216e+04 1.333e-09
 58.65667    -61.1 1.235e+04 1.412e-09
 58.67675    -61.4 1.251e+04 1.498e-09
 58.69682    -61.6 1.265e+04 1.603e-09
 58.71525    -61.9 1.288e+04 1.728e-09
 58.72529    -62.3 1.241e+04 1.633e-09
 58.73697    -62.2 1.247e+04 1.692e-09
 58.75704    -62.1 1.255e+04 1.782e-09
 58.77711    -61.8 1.258e+04 1.859e-09
 58.79719    -61.6 1.260e+04 1.850e-09
 58.80860    -61.5 1.270e+04 1.838e-09
 58.81864    -61.1 1.178e+04 1.384e-09
 58.83733    -61.2 1.175e+04 1.287e-09
 58.85741    -62.2 1.258e+04 1.380e-09
 58.87748    -65.3 1.436e+04 2.067e-09
 58.89192    -68.3 1.576e+04 3.842e-09
 58.90196    -65.9 1.393e+04 1.886e-09
 58.91763    -68.0 1.499e+04 3.606e-09
 58.93770    -68.2 1.578e+04 6.226e-09
 58.95778    -67.6 1.642e+04 8.695e-09
 58.97524    -67.0 1.671e+04 9.565e-09
 58.98527    -67.2 1.632e+04 8.304e-09
 58.99792    -67.1 1.654e+04 8.691e-09
 59.00819    -68.2 1.643e+04 7.487e-09
 59.01822    -67.2 1.637e+04 7.556e-09
 59.03807    -69.1 1.570e+04 5.620e-09
 59.05814    -70.9 1.458e+04 4.292e-09
 59.06859    -71.7 1.404e+04 3.809e-09
 59.07863    -72.2 1.469e+04 4.302e-09
 59.09829    -72.9 1.441e+04 4.084e-09
 59.11836    -73.2 1.429e+04 3.972e-09
 59.13844    -73.1 1.417e+04 3.835e-09
 59.15191    -73.0 1.399e+04 3.650e-09
 59.16194    -74.0 1.382e+04 3.477e-09
 59.17858    -73.4 1.356e+04 3.152e-09
 59.19866    -72.7 1.334e+04 2.771e-09
 59.21873    -72.1 1.322e+04 2.416e-09
 59.23522    -71.6 1.306e+04 2.112e-09
 59.24526    -73.0 1.229e+04 1.254e-09
 59.25888    -72.7 1.202e+04 1.151e-09
 59.27895    -72.2 1.179e+04 1.118e-09
 59.29902    -71.6 1.158e+04 1.128e-09
 59.31854    -70.7 1.143e+04 1.150e-09
 59.32858    -71.2 1.080e+04 9.108e-10
 59.33917    -70.0 1.081e+04 9.182e-10
 59.35924    -69.0 1.084e+04 9.043e-10
 59.37932    -67.9 1.083e+04 8.659e-10
 59.39939    -67.0 1.078e+04 7.999e-10
 59.41189    -66.3 1.069e+04 7.230e-10
 59.42193    -66.8 1.039e+04 5.143e-10
 59.43112    -66.2 1.028e+04 4.855e-10
 59.44115    -65.2 1.041e+04 5.614e-10
 59.45961    -64.7 1.029e+04 5.229e-10
 59.47968    -64.0 1.019e+04 5.064e-10
 59.49521    -63.1 1.015e+04 5.191e-10
 59.50525    -63.3 1.004e+04 4.622e-10
 59.51983    -62.6 1.006e+04 4.900e-10
 59.53991    -61.3 1.017e+04 5.637e-10
 59.55998    -60.1 1.029e+04 6.233e-10
 59.57853    -59.0 1.051e+04 7.115e-10
 59.58856    -58.8 1.039e+04 6.511e-10
 59.60013    -57.8 1.058e+04 7.274e-10
 59.62020    -56.7 1.081e+04 8.342e-10
 59.64027    -55.6 1.107e+04 9.726e-10
 59.66035    -54.8 1.134e+04 1.155e-09
 59.67188    -53.8 1.156e+04 1.378e-09
 59.68192    -53.4 1.123e+04 1.019e-09
 59.70049    -52.3 1.143e+04 1.196e-09
 59.72057    -51.1 1.161e+04 1.380e-09
 59.74064    -49.9 1.170e+04 1.523e-09
 59.75520    -48.5 1.176e+04 1.621e-09
 59.76523    -48.3 1.128e+04 9.773e-10
 59.78079    -47.0 1.127e+04 1.012e-09
 59.80086    -45.7 1.118e+04 1.013e-09
 59.82093    -44.3 1.113e+04 9.787e-10
 59.83851    -43.0 1.102e+04 9.124e-10
 59.84855    -43.2 1.058e+04 5.579e-10
 59.85404    -41.5 1.052e+04 5.193e-10
 59.86408    -40.9 1.049e+04 5.478e-10
 59.88115    -39.9 1.035e+04 4.963e-10
 59.90123    -37.9 1.037e+04 4.549e-10
 59.92130    -37.2 1.030e+04 4.299e-10
 59.93187    -35.0 1.040e+04 4.025e-10
 59.95204    -34.6 1.013e+04 3.203e-10
 59.99175    -31.9 1.030e+04 3.288e-10
 60.01528    -29.9 1.055e+04 4.220e-10
 60.02522    -29.7 1.051e+04 3.698e-10
 60.04174    -29.5 1.056e+04 3.878e-10
 60.06181    -28.1 1.062e+04 5.546e-10
 60.08189    -26.7 1.105e+04 6.552e-10
 60.09850    -24.9 1.121e+04 9.172e-10
 60.10854    -24.9 1.106e+04 7.658e-10
 60.12204    -23.4 1.148e+04 8.866e-10
 60.14211    -22.1 1.165e+04 1.036e-09
 60.16218    -20.6 1.187e+04 1.158e-09
 60.18182    -19.2 1.223e+04 1.368e-09
 60.19185    -19.7 1.194e+04 1.193e-09
 60.20233    -18.7 1.220e+04 1.401e-09
 60.22240    -17.8 1.267e+04 1.615e-09
 60.24248    -16.9 1.320e+04 1.958e-09
 60.26255    -16.2 1.373e+04 2.443e-09
 60.27517    -15.7 1.430e+04 3.070e-09
 60.27956    -16.7 1.384e+04 2.564e-09
 60.28701    -15.7 1.361e+04 2.369e-09
 60.30270    -15.3 1.433e+04 3.032e-09
 60.32277    -15.2 1.501e+04 3.961e-09
 60.34284    -14.8 1.544e+04 5.080e-09
 60.35849    -13.7 1.547e+04 5.967e-09
 60.36852    -13.9 1.392e+04 2.783e-09
 60.38299    -12.5 1.376e+04 2.515e-09
 60.40306    -11.3 1.351e+04 1.964e-09
 60.42314    -10.7 1.301e+04 1.256e-09
 60.44180    -11.8 1.237e+04 8.651e-10
 60.45184    -13.5 1.113e+04 5.770e-10
 60.46328    -11.8 1.078e+04 4.684e-10
 60.48336    -11.5 1.095e+04 4.839e-10
 60.51357     -9.1 1.011e+04 2.612e-10
 60.55381     -6.4 9.948e+03 1.554e-10
 60.59396     -4.1 9.957e+03 1.018e-10
 60.61867     -1.9 9.862e+03 7.844e-11
 60.63874     -2.3 9.584e+03 6.274e-11
 60.67425      0.2 9.509e+03 6.312e-11
 60.70010      2.8 9.476e+03 6.740e-11
 60.72017      3.0 9.479e+03 7.293e-11
 60.75454      5.7 9.411e+03 8.303e-11
 60.78530      8.4 9.383e+03 9.216e-11
 60.80537      8.3 9.347e+03 9.042e-11
 60.83484     10.9 9.367e+03 9.606e-11
 60.87498     13.4 9.393e+03 9.808e-11
 60.91513     15.6 9.400e+03 9.860e-11
 60.95193     17.8 9.401e+03 9.929e-11
 60.97201     17.7 9.383e+03 9.833e-11
 60.99543     19.9 9.384e+03 9.913e-11
 61.03557     22.0 9.403e+03 1.010e-10
 61.07572     24.1 9.443e+03 1.034e-10
 61.11587     26.0 9.524e+03 1.097e-10
 61.13864     27.8 9.664e+03 1.224e-10
 61.15871     27.6 9.679e+03 1.216e-10
 61.19616     29.1 9.870e+03 1.465e-10
 61.23631     30.6 1.005e+04 2.006e-10
 61.27645     32.0 1.028e+04 2.763e-10
 61.30527     33.4 1.053e+04 3.482e-10
 61.32535     33.2 1.072e+04 4.497e-10
 61.35675     34.3 1.100e+04 5.119e-10
 61.39689     34.9 1.103e+04 5.061e-10
 61.43704     35.4 1.096e+04 4.624e-10
 61.47191     36.2 1.069e+04 3.707e-10
 61.49198     35.8 1.092e+04 4.905e-10
 61.51734     36.9 1.051e+04 3.292e-10
 61.54596     38.1 1.017e+04 2.141e-10
 61.56603     38.1 1.003e+04 1.977e-10
 61.59763     39.3 9.861e+03 1.372e-10
 61.63778     40.7 9.728e+03 1.072e-10
 61.65861     42.5 9.645e+03 1.036e-10
 61.67869     42.2 9.757e+03 1.065e-10
 61.71807     44.3 9.767e+03 1.081e-10
 61.75822     46.5 9.827e+03 1.154e-10
 61.79836     48.6 9.967e+03 1.358e-10
 61.82525     50.7 1.004e+04 1.735e-10
 61.84532     50.4 1.036e+04 2.282e-10
 61.87866     52.5 1.051e+04 2.986e-10
 61.91880     54.5 1.062e+04 3.729e-10
 61.95895     56.3 1.062e+04 4.155e-10
 61.99188     58.0 1.060e+04 4.134e-10
 62.01195     57.7 1.127e+04 6.182e-10
 62.03924     59.6 1.124e+04 5.942e-10
 62.06926     60.7 1.090e+04 4.795e-10
 62.08504     61.5 1.070e+04 4.247e-10
 62.09508     61.0 1.125e+04 5.765e-10
 62.10931     61.7 1.131e+04 5.861e-10
 62.12938     62.4 1.137e+04 5.959e-10
 62.14945     63.1 1.144e+04 6.035e-10
 62.16836     63.7 1.152e+04 6.124e-10
 62.17839     63.1 1.274e+04 1.186e-09
 62.18960     63.7 1.281e+04 1.215e-09
 62.20967     64.3 1.285e+04 1.247e-09
 62.22975     64.7 1.289e+04 1.294e-09
 62.24982     65.2 1.296e+04 1.369e-09
 62.26171     65.6 1.308e+04 1.490e-09
 62.27175     65.2 1.412e+04 2.801e-09
 62.28997     65.6 1.432e+04 3.162e-09
 62.31004     66.0 1.452e+04 3.646e-09
 62.33011     66.5 1.483e+04 4.238e-09
 62.34503     67.2 1.506e+04 4.904e-09
 62.35506     67.0 1.605e+04 7.210e-09
 62.37026     67.9 1.627e+04 7.820e-09
 62.39033     68.5 1.628e+04 7.780e-09
 62.40166     69.2 1.614e+04 7.252e-09
 62.41169     69.2 1.616e+04 7.242e-09
 62.42834     70.1 1.573e+04 5.880e-09
 62.43838     70.0 1.603e+04 6.623e-09
 62.45056     70.8 1.545e+04 5.012e-09
 62.47063     71.6 1.484e+04 3.534e-09
 62.49070     72.2 1.427e+04 2.457e-09
 62.51176     73.2 1.342e+04 1.564e-09
 62.53193     72.7 1.368e+04 1.709e-09
 62.56115     74.6 1.301e+04 1.284e-09
 62.60130     77.0 1.287e+04 1.203e-09
 62.64145     79.9 1.296e+04 1.223e-09
 62.67146     81.1 1.311e+04 1.292e-09
 62.68833     81.9 1.336e+04 1.448e-09
 62.69837     82.1 1.338e+04 1.461e-09
 62.71151     82.6 1.372e+04 1.712e-09
 62.73158     83.4 1.413e+04 2.182e-09
 62.75166     84.2 1.456e+04 2.813e-09
 62.77165     84.9 1.489e+04 3.413e-09
 62.79172     85.5 1.508e+04 3.612e-09
 62.81188     86.1 1.516e+04 3.909e-09
 62.82459     86.7 1.511e+04 3.835e-09
 62.83462     86.3 1.516e+04 3.929e-09
 62.85202     86.9 1.492e+04 3.501e-09
 62.86500     87.6 1.457e+04 2.866e-09
 62.87504     87.3 1.471e+04 3.138e-09
 62.89217     87.9 1.441e+04 2.589e-09
 62.91224     88.4 1.410e+04 2.066e-09
 62.93232     88.8 1.380e+04 1.656e-09
 62.94832     89.2 1.353e+04 1.369e-09
 62.95835     89.1 1.363e+04 1.555e-09
 62.97246     89.7 1.345e+04 1.351e-09
 62.99254     90.6 1.331e+04 1.218e-09
 63.01261     91.1 1.330e+04 1.175e-09
 63.03163     92.1 1.316e+04 1.058e-09
 63.05180     92.3 1.310e+04 1.057e-09
 63.08306     94.0 1.278e+04 9.173e-10
 63.12321     95.8 1.249e+04 7.962e-10
 63.16336     97.6 1.219e+04 6.899e-10
 63.19846     99.8 1.197e+04 6.435e-10
 63.21853    100.1 1.209e+04 7.037e-10
 63.23767    102.6 1.208e+04 7.096e-10
 63.25775    102.5 1.200e+04 6.332e-10
 63.28380    104.7 1.217e+04 7.099e-10
 63.31381    105.5 1.231e+04 8.231e-10
 63.33379    105.9 1.243e+04 9.701e-10
 63.35386    106.5 1.257e+04 1.161e-09
 63.37393    107.0 1.279e+04 1.381e-09
 63.38497    107.0 1.306e+04 1.685e-09
 63.39501    106.9 1.270e+04 1.629e-09
 63.41408    106.7 1.306e+04 2.004e-09
 63.43415    105.8 1.406e+04 2.879e-09
 63.45423    104.0 1.565e+04 4.944e-09
 63.46829    102.3 1.717e+04 8.551e-09
 63.47833    101.6 1.622e+04 5.415e-09
 63.49437     99.4 1.761e+04 9.601e-09
 63.51445     97.2 1.821e+04 1.199e-08
 63.53452     94.9 1.807e+04 1.142e-08
 63.55161     92.9 1.730e+04 8.858e-09
 63.56164     91.5 1.581e+04 5.705e-09
 63.57467     89.9 1.480e+04 3.833e-09
 63.59474     88.2 1.348e+04 2.217e-09
 63.61482     86.4 1.211e+04 1.262e-09
 63.63489     84.8 1.103e+04 8.149e-10
 63.65496     83.1 1.033e+04 5.262e-10
 63.67044     83.2 1.007e+04 4.303e-10
 63.68048     83.1 1.004e+04 4.280e-10
 63.69511     83.2 9.940e+03 3.894e-10
 63.71834     84.7 9.803e+03 3.519e-10
 63.73851     83.9 9.500e+03 2.773e-10
 63.76556     85.5 9.178e+03 2.136e-10
 63.80571     87.0 8.905e+03 1.761e-10
 63.84586     88.6 8.784e+03 1.665e-10
 63.88507     90.3 8.787e+03 1.673e-10
 63.90514     90.0 8.782e+03 1.532e-10
 63.92615     91.7 8.784e+03 1.646e-10
 63.96630     93.3 8.888e+03 1.915e-10
 64.00644     94.8 9.053e+03 2.321e-10
 64.04659     96.3 9.274e+03 2.873e-10
 64.07177     97.8 9.554e+03 3.598e-10
 64.08864     97.8 9.532e+03 3.459e-10
 64.10361     97.0 9.635e+03 3.739e-10
 64.12688     97.8 9.799e+03 4.270e-10
 64.15499     98.6 9.989e+03 5.087e-10
 64.16493     98.4 1.006e+04 5.208e-10
 64.17687     98.5 1.031e+04 6.264e-10
 64.19695     98.5 1.064e+04 7.644e-10
 64.21702     98.3 1.109e+04 9.613e-10
 64.23709     97.9 1.164e+04 1.257e-09
 64.24825     97.5 1.220e+04 1.663e-09
 64.25828     97.0 1.228e+04 1.794e-09
 64.27724     96.7 1.268e+04 2.203e-09
 64.29731     96.4 1.293e+04 2.482e-09
 64.31739     96.2 1.293e+04 2.458e-09
 64.33156     95.8 1.293e+04 2.357e-09
 64.34160     95.3 1.257e+04 1.958e-09
 64.35753     94.3 1.260e+04 1.787e-09
 64.37761     92.9 1.255e+04 1.642e-09
 64.39768     91.2 1.245e+04 1.561e-09
 64.41488     89.5 1.232e+04 1.523e-09
 64.42492     89.0 1.199e+04 1.327e-09
 64.43783     87.8 1.192e+04 1.314e-09
 64.45790     86.8 1.188e+04 1.284e-09
 64.47797     85.7 1.185e+04 1.231e-09
 64.49805     84.7 1.181e+04 1.154e-09
 64.50823     83.6 1.174e+04 1.070e-09
 64.51645     84.0 1.152e+04 9.479e-10
 64.52634     83.3 1.122e+04 7.991e-10
 64.53819     82.5 1.123e+04 7.780e-10
 64.55827     81.8 1.127e+04 7.626e-10
 64.57834     81.2 1.130e+04 7.425e-10
 64.59155     80.7 1.131e+04 7.132e-10
 64.60159     81.5 1.121e+04 6.523e-10
 64.61849     81.1 1.122e+04 6.230e-10
 64.63856     80.7 1.124e+04 6.127e-10
 64.65863     80.3 1.129e+04 6.174e-10
 64.67487     79.8 1.143e+04 6.425e-10
 64.68490     80.5 1.133e+04 6.013e-10
 64.69878     80.1 1.149e+04 6.560e-10
 64.71885     79.6 1.170e+04 7.391e-10
 64.73893     79.1 1.194e+04 8.539e-10
 64.75818     78.7 1.222e+04 9.993e-10
 64.76822     79.9 1.199e+04 8.660e-10
 64.77908     79.6 1.222e+04 9.774e-10
 64.79915     79.3 1.233e+04 1.036e-09
 64.81922     78.8 1.232e+04 1.027e-09
 64.83930     78.6 1.219e+04 9.298e-10
 64.85154     78.2 1.188e+04 7.327e-10
 64.86157     79.3 1.190e+04 7.284e-10
 64.87944     79.0 1.145e+04 4.985e-10
 64.89952     78.8 1.122e+04 4.224e-10
 64.92492     79.3 1.065e+04 2.566e-10
 64.94466     81.5 1.087e+04 3.005e-10
 64.94946     81.4 1.073e+04 2.503e-10
 64.96997     81.4 9.923e+03 1.293e-10
 65.01012     81.6 9.673e+03 1.181e-10
 65.05026     82.5 9.625e+03 1.205e-10
 65.09041     84.2 9.634e+03 1.388e-10
 65.11172     86.1 9.938e+03 1.860e-10
 65.13179     86.5 1.010e+04 2.184e-10
 65.16057     87.0 1.024e+04 2.503e-10
 65.18054     86.9 1.040e+04 2.916e-10
 65.19484     86.6 1.067e+04 3.922e-10
 65.20488     86.9 1.068e+04 3.945e-10
 65.22069     86.4 1.111e+04 5.691e-10
 65.24076     85.0 1.248e+04 1.017e-09
 65.26084     82.7 1.440e+04 2.112e-09
 65.27816     80.7 1.577e+04 3.574e-09
 65.28819     81.2 1.525e+04 2.701e-09
 65.29592     79.2 1.637e+04 4.042e-09
 65.30591     77.0 1.742e+04 5.942e-09
 65.31594     74.3 1.847e+04 9.305e-09
 65.32474     71.8 1.929e+04 1.378e-08
 65.32976     71.4 1.937e+04 1.265e-08
 65.33602     68.2 2.047e+04 1.906e-08
 65.34605     65.5 2.158e+04 2.467e-08
 65.35609     61.9 2.317e+04 2.524e-08
 65.36613     58.1 2.335e+04 2.412e-08
 65.37141     52.7 2.344e+04 1.809e-08
 65.37237     54.0 2.401e+04 2.612e-08
 65.37712     52.5 2.319e+04 1.941e-08
 65.38620     49.6 2.226e+04 1.484e-08
 65.40130     43.9 2.136e+04 9.609e-09
 65.42143     34.3 1.816e+04 4.511e-09
 65.44150     26.5 1.469e+04 2.842e-09
 65.45483     22.7 1.365e+04 2.326e-09
 65.46486     22.6 1.365e+04 2.444e-09
 65.48165     21.7 1.325e+04 2.092e-09
 65.50172     20.6 1.319e+04 1.645e-09
 65.52179     17.4 1.357e+04 1.631e-09
 65.53814     11.6 1.485e+04 1.966e-09
 65.54818      9.8 1.562e+04 2.455e-09
 65.56194      5.7 1.473e+04 3.104e-09
 65.58201      4.8 1.413e+04 2.998e-09
 65.60209      4.6 1.348e+04 2.421e-09
 65.62146      3.8 1.315e+04 1.501e-09
 65.63150      3.2 1.339e+04 1.291e-09
 65.64223     -0.6 1.278e+04 6.327e-10
 65.66231     -4.1 1.137e+04 4.302e-10
 65.68238     -5.0 1.114e+04 4.211e-10
 65.70245     -5.3 1.120e+04 4.496e-10
 65.71481     -5.4 1.127e+04 5.308e-10
 65.72485     -5.8 1.124e+04 5.905e-10
 65.74260     -5.2 1.131e+04 7.166e-10
 65.76267     -4.4 1.140e+04 8.076e-10
 65.78275     -3.6 1.148e+04 8.186e-10
 65.79513     -2.7 1.138e+04 7.847e-10
 65.80047     -2.8 1.141e+04 8.006e-10
 65.80817     -2.4 1.109e+04 7.145e-10
 65.82289     -1.8 1.094e+04 6.147e-10
 65.85310     -1.0 1.060e+04 4.118e-10
 65.89335     -0.1 1.032e+04 3.227e-10
 65.93349      1.7 9.965e+03 2.428e-10
 65.96496      3.4 9.743e+03 1.915e-10
 65.98503      3.9 9.493e+03 1.395e-10
 66.01379      5.5 9.395e+03 1.276e-10
 66.05393      7.3 9.348e+03 1.284e-10
 66.09408      9.3 9.314e+03 1.333e-10
 66.13159     11.3 9.304e+03 1.416e-10
 66.15167     12.1 9.118e+03 1.205e-10
 66.17438     14.3 9.101e+03 1.218e-10
 66.21452     16.4 9.107e+03 1.214e-10
 66.25467     18.5 9.094e+03 1.236e-10
 66.29482     20.7 9.122e+03 1.283e-10
 66.31830     22.9 9.188e+03 1.394e-10
 66.33837     23.7 9.021e+03 1.121e-10
 66.37511     25.9 9.146e+03 1.344e-10
 66.41526     28.1 9.393e+03 1.730e-10
 66.45540     30.0 9.818e+03 2.287e-10
 66.48484     30.9 1.013e+04 2.763e-10
 66.50491     31.9 1.004e+04 2.916e-10
 66.52556     32.1 1.052e+04 4.024e-10
 66.54554     32.6 1.093e+04 5.489e-10
 66.56561     33.1 1.144e+04 7.625e-10
 66.57809     33.7 1.202e+04 1.050e-09
 66.58813     34.6 1.125e+04 6.472e-10
 66.60576     34.9 1.175e+04 8.342e-10
 66.62583     35.1 1.223e+04 1.097e-09
 66.64099     35.3 1.266e+04 1.445e-09
 66.65102     35.0 1.288e+04 1.732e-09
 66.66141     35.6 1.311e+04 2.088e-09
 66.67144     36.1 1.243e+04 1.328e-09
 66.68605     36.7 1.263e+04 1.592e-09
 66.70613     37.3 1.272e+04 1.764e-09
 66.72620     38.2 1.265e+04 1.730e-09
 66.74472     38.8 1.247e+04 1.555e-09
 66.75476     39.4 1.224e+04 1.299e-09
 66.77648     39.6 1.190e+04 1.065e-09
 66.81673     40.9 1.125e+04 7.035e-10
 66.83827     42.4 1.058e+04 4.180e-10
 66.85835     43.8 1.129e+04 7.717e-10
 66.89702     45.3 1.085e+04 5.277e-10
 66.93717     46.8 1.028e+04 3.289e-10
 66.97731     48.2 9.658e+03 2.103e-10
 67.00491     49.8 9.284e+03 1.593e-10
 67.02498     51.0 1.009e+04 3.011e-10
 67.05761     52.5 9.513e+03 2.077e-10
 67.09775     54.2 9.195e+03 1.783e-10
 67.13790     56.2 9.183e+03 1.828e-10
 67.17154     58.2 9.203e+03 1.929e-10
 67.19161     58.9 9.251e+03 1.919e-10
 67.21819     61.0 9.297e+03 2.083e-10
 67.25834     63.0 9.412e+03 2.304e-10
 67.29849     64.9 9.542e+03 2.529e-10
 67.33817     66.5 9.654e+03 2.760e-10
 67.35825     67.4 9.703e+03 2.896e-10
 67.37878     68.9 9.883e+03 3.423e-10
 67.41893     70.3 1.005e+04 3.970e-10
 67.45908     71.5 1.019e+04 4.551e-10
 67.48704     72.7 1.030e+04 5.088e-10
 67.50711     72.6 1.048e+04 5.641e-10
 67.52478     72.9 1.052e+04 6.241e-10
 67.53472     73.3 1.069e+04 7.299e-10
 67.54921     73.7 1.073e+04 7.508e-10
 67.56928     74.1 1.073e+04 7.520e-10
 67.58936     74.1 1.070e+04 7.433e-10
 67.61957     74.5 1.075e+04 7.686e-10
 67.65981     74.3 1.078e+04 7.763e-10
 67.68982     74.4 1.057e+04 6.932e-10
 67.70135     73.9 1.064e+04 7.220e-10
 67.71139     74.5 1.052e+04 6.604e-10
 67.72987     73.8 1.072e+04 7.536e-10
 67.74995     73.1 1.092e+04 8.493e-10
 67.77002     72.4 1.110e+04 9.549e-10
 67.78467     71.7 1.126e+04 1.067e-09
 67.79471     72.2 1.126e+04 1.074e-09
 67.81017     71.5 1.141e+04 1.187e-09
 67.83024     70.8 1.148e+04 1.285e-09
 67.85031     70.1 1.159e+04 1.281e-09
 67.86799     69.1 1.165e+04 1.281e-09
 67.87802     69.6 1.167e+04 1.281e-09
 67.89046     68.3 1.171e+04 1.275e-09
 67.90977     66.8 1.182e+04 1.311e-09
 67.91981     66.0 1.169e+04 1.225e-09
 67.93061     64.5 1.202e+04 1.414e-09
 67.95068     63.2 1.234e+04 1.661e-09
 67.96134     62.3 1.257e+04 1.881e-09
 67.97138     62.9 1.217e+04 1.568e-09
 67.99083     62.3 1.229e+04 1.694e-09
 68.01090     61.8 1.229e+04 1.695e-09
 68.03097     61.6 1.216e+04 1.613e-09
 68.04466     61.6 1.187e+04 1.392e-09
 68.05469     62.1 1.191e+04 1.445e-09
 68.07112     62.2 1.163e+04 1.225e-09
 68.09119     62.3 1.128e+04 9.681e-10
 68.11127     62.3 1.090e+04 7.473e-10
 68.12797     62.3 1.050e+04 5.722e-10
 68.13801     62.8 1.069e+04 6.497e-10
 68.15141     62.5 1.038e+04 5.305e-10
 68.18162     62.8 9.982e+03 4.346e-10
 68.21149     64.0 9.875e+03 4.232e-10
 68.23156     64.4 9.967e+03 4.440e-10
 68.26201     65.4 1.000e+04 4.636e-10
 68.29203     66.2 1.009e+04 4.659e-10
 68.30464     66.5 1.014e+04 4.698e-10
 68.31468     66.6 1.014e+04 4.724e-10
 68.33208     67.1 1.018e+04 4.688e-10
 68.34274     67.4 1.019e+04 4.637e-10
 68.35287     67.3 1.018e+04 4.342e-10
 68.37812     67.7 1.022e+04 4.051e-10
 68.39809     68.2 1.021e+04 4.235e-10
 68.41237     68.1 1.021e+04 4.059e-10
 68.43244     68.1 1.022e+04 4.023e-10
 68.45252     68.1 1.021e+04 4.041e-10
 68.47128     68.0 1.023e+04 4.139e-10
 68.48131     68.0 1.033e+04 4.577e-10
 68.49266     67.6 1.046e+04 5.022e-10
 68.51274     67.3 1.054e+04 5.363e-10
 68.54294     67.5 1.071e+04 6.131e-10
 68.56483     67.3 1.115e+04 7.806e-10
 68.58490     67.6 1.123e+04 8.123e-10
 68.62334     67.0 1.127e+04 8.071e-10
 68.66348     66.6 1.120e+04 6.951e-10
 68.70363     66.2 1.096e+04 4.779e-10
 68.73146     65.8 1.067e+04 3.087e-10
 68.75153     66.3 1.063e+04 3.348e-10
 68.78392     66.0 1.049e+04 2.827e-10
 68.82407     66.2 1.036e+04 2.491e-10
 68.86422     66.6 1.018e+04 2.101e-10
 68.89809     67.4 1.003e+04 1.591e-10
 68.91817     68.4 1.016e+04 1.984e-10
 68.94451     69.2 1.004e+04 1.326e-10
 68.98466     70.0 9.968e+03 8.603e-11
 69.02480     70.7 9.859e+03 6.553e-11
 69.06473     71.9 9.810e+03 6.433e-11
 69.08480     72.4 9.809e+03 8.798e-11
 69.10510     73.9 9.824e+03 8.872e-11
 69.14525     75.2 9.926e+03 9.337e-11
 69.17876     76.3 1.013e+04 1.104e-10
 69.19883     77.0 1.011e+04 1.069e-10
 69.22554     78.0 1.031e+04 1.396e-10
 69.25143     79.0 1.049e+04 2.002e-10
 69.27151     79.9 1.053e+04 2.286e-10
 69.30583     80.8 1.070e+04 2.853e-10
 69.34598     81.2 1.075e+04 2.982e-10
 69.38613     81.6 1.071e+04 2.879e-10
 69.41807     82.1 1.054e+04 2.447e-10
 69.43814     83.0 1.060e+04 2.331e-10
 69.46642     83.8 1.039e+04 1.804e-10
 69.50657     84.6 1.018e+04 1.370e-10
 69.54671     85.6 9.994e+03 1.074e-10
 69.58470     86.6 1.006e+04 9.595e-11
 69.60477     87.7 9.983e+03 1.442e-10
 69.62701     88.9 9.991e+03 1.463e-10
 69.66716     90.0 1.005e+04 1.521e-10
 69.70730     90.7 1.015e+04 1.671e-10
 69.74745     91.1 1.023e+04 2.016e-10
 69.77141     91.4 1.033e+04 2.645e-10
 69.79148     92.7 1.057e+04 3.639e-10
 69.82774     92.8 1.076e+04 4.400e-10
 69.86789     92.4 1.084e+04 4.522e-10
 69.90804     91.8 1.081e+04 4.299e-10
 69.93804     91.2 1.062e+04 3.366e-10
 69.95811     91.2 1.064e+04 3.225e-10
 69.98833     90.3 1.028e+04 2.010e-10
 70.02462     89.3 9.947e+03 1.427e-10
 70.04469     88.8 1.025e+04 2.001e-10
 70.06862     87.9 1.030e+04 1.995e-10
 70.10467     87.0 1.054e+04 2.243e-10
 70.12475     84.8 1.117e+04 3.407e-10
 70.14892     84.3 1.144e+04 5.274e-10
 70.18906     84.5 1.168e+04 7.489e-10
 70.22921     84.7 1.184e+04 8.734e-10
 70.26936     84.8 1.182e+04 8.607e-10
 70.29138     85.3 1.174e+04 7.862e-10
 70.30132     84.9 1.164e+04 7.552e-10
 70.31935     85.0 1.159e+04 7.344e-10
 70.33942     85.3 1.152e+04 6.849e-10
 70.35949     85.3 1.143e+04 6.018e-10
 70.38970     85.2 1.112e+04 4.533e-10
 70.42995     86.2 1.068e+04 3.281e-10
 70.45801     87.4 1.022e+04 2.134e-10
 70.47809     87.5 1.018e+04 2.145e-10
 70.51024     88.8 9.810e+03 1.331e-10
 70.55039     89.9 9.464e+03 8.695e-11
 70.59053     91.2 9.286e+03 7.930e-11
 70.62464     93.0 9.280e+03 7.949e-11
 70.64472     93.2 9.251e+03 8.095e-11
 70.67083     95.0 9.168e+03 8.903e-11
 70.71097     96.9 9.155e+03 1.104e-10
 70.75112     98.7 9.290e+03 1.472e-10
 70.79127    100.1 9.660e+03 2.112e-10
 70.83142    101.8 1.039e+04 4.269e-10
 70.86143    101.6 1.092e+04 5.822e-10
 70.88032    101.7 1.133e+04 7.831e-10
 70.89035    101.3 1.131e+04 7.655e-10
 70.89447    101.7 1.159e+04 8.794e-10
 70.90451    101.9 1.148e+04 8.805e-10
 70.92155    102.0 1.152e+04 8.744e-10
 70.94162    102.1 1.157e+04 8.311e-10
 70.96170    101.7 1.156e+04 7.130e-10
 70.97789    101.1 1.119e+04 5.116e-10
 70.98792    102.6 1.145e+04 6.469e-10
 71.00184    102.2 1.130e+04 5.048e-10
 71.02192    101.5 1.098e+04 3.933e-10
 71.04199    100.7 1.064e+04 3.265e-10
 71.07220    100.9 1.028e+04 3.024e-10
 71.11244    101.5 1.014e+04 3.060e-10
 71.14462    102.2 1.015e+04 3.258e-10
 71.16459    101.9 1.041e+04 4.479e-10
 71.19264    102.5 1.033e+04 4.361e-10
 71.23288    103.3 1.024e+04 3.911e-10
 71.27303    103.7 1.008e+04 3.285e-10
 71.31125    103.9 9.995e+03 3.065e-10
 71.33132    103.6 9.909e+03 3.089e-10
 71.35332    103.7 9.952e+03 3.266e-10
 71.38334    103.8 1.000e+04 3.405e-10
 71.40331    103.8 1.010e+04 3.696e-10
 71.41445    103.7 1.036e+04 4.597e-10
 71.42448    103.7 1.031e+04 4.694e-10
 71.44346    103.5 1.065e+04 6.295e-10
 71.46353    103.3 1.105e+04 8.525e-10
 71.48361    103.1 1.154e+04 1.149e-09
 71.49776    102.6 1.218e+04 1.551e-09
 71.50780    102.3 1.234e+04 1.633e-09
 71.52375    101.2 1.326e+04 2.388e-09
 71.54383    100.2 1.413e+04 3.380e-09
 71.56390     99.2 1.479e+04 4.057e-09
 71.58108     98.1 1.490e+04 4.040e-09
 71.59112     97.5 1.494e+04 5.045e-09
 71.60405     96.5 1.483e+04 4.664e-09
 71.62412     95.5 1.446e+04 3.540e-09
 71.64419     94.0 1.404e+04 2.288e-09
 71.66427     91.5 1.352e+04 1.530e-09
 71.67443     88.6 1.282e+04 1.236e-09
 71.68447     86.0 1.538e+04 2.191e-09
 71.70441     83.3 1.568e+04 2.482e-09
 71.72449     81.3 1.596e+04 3.079e-09
 71.73621     79.8 1.614e+04 3.896e-09
 71.74625     82.3 1.532e+04 2.618e-09
 71.75775     80.6 1.556e+04 3.327e-09
 71.76779     78.6 1.658e+04 5.866e-09
 71.78471     77.6 1.612e+04 6.026e-09
 71.80478     77.3 1.557e+04 5.895e-09
 71.82486     77.3 1.513e+04 5.403e-09
 71.84107     77.4 1.477e+04 4.841e-09
 71.85110     76.9 1.480e+04 4.233e-09
 71.86500     77.2 1.437e+04 3.223e-09
 71.88508     77.0 1.388e+04 2.309e-09
 71.90515     76.9 1.317e+04 1.649e-09
 71.92438     76.8 1.245e+04 1.245e-09
 71.93442     74.6 1.160e+04 9.253e-10
 71.95543     76.2 1.172e+04 9.905e-10
 71.99567     76.3 1.130e+04 9.437e-10
 72.01793     76.9 1.136e+04 9.838e-10
 72.03800     76.5 1.139e+04 1.054e-09
 72.07597     77.5 1.191e+04 1.329e-09
 72.10115     77.5 1.203e+04 1.404e-09
 72.11109     77.3 1.212e+04 1.473e-09
 72.12596     77.2 1.240e+04 1.688e-09
 72.14603     76.9 1.262e+04 1.886e-09
 72.15914     76.6 1.294e+04 2.267e-09
 72.16918     76.7 1.350e+04 2.885e-09
 72.18437     76.8 1.366e+04 3.280e-09
 72.19441     76.9 1.377e+04 3.429e-09
 72.20625     77.2 1.386e+04 3.650e-09
 72.22632     77.5 1.384e+04 3.633e-09
 72.24640     77.9 1.368e+04 3.426e-09
 72.26647     78.3 1.330e+04 2.891e-09
 72.27772     78.6 1.279e+04 2.281e-09
 72.28776     78.7 1.290e+04 2.369e-09
 72.30662     78.9 1.212e+04 1.623e-09
 72.32669     78.9 1.191e+04 1.473e-09
 72.35110     79.6 1.109e+04 9.923e-10
 72.37127     80.0 1.118e+04 1.032e-09
 72.39714     81.3 1.037e+04 6.901e-10
 72.43729     82.7 9.822e+03 5.205e-10
 72.47744     84.5 9.640e+03 4.890e-10
 72.51758     86.6 9.589e+03 4.841e-10
 72.53790     88.9 9.570e+03 4.829e-10
 72.55798     89.3 9.456e+03 4.095e-10
 72.58226     91.8 9.519e+03 4.323e-10
 72.60234     92.5 9.881e+03 5.363e-10
 72.63803     94.8 9.938e+03 5.611e-10
 72.66804     95.9 9.934e+03 5.777e-10
 72.68801     96.8 1.002e+04 6.282e-10
 72.70434     97.8 1.020e+04 7.064e-10
 72.71438     98.1 1.037e+04 7.712e-10
 72.72816     99.1 1.067e+04 8.987e-10
 72.74823    100.0 1.104e+04 1.055e-09
 72.76831    100.7 1.146e+04 1.252e-09
 72.78766    101.2 1.191e+04 1.492e-09
 72.79770    101.2 1.239e+04 1.820e-09
 72.80845    101.5 1.292e+04 2.217e-09
 72.82853    101.7 1.336e+04 2.603e-09
 72.84860    101.9 1.364e+04 2.820e-09
 72.86867    102.0 1.366e+04 2.817e-09
 72.88101    102.2 1.358e+04 2.725e-09
 72.89105    102.2 1.394e+04 3.234e-09
 72.90882    102.5 1.352e+04 2.614e-09
 72.92890    102.8 1.290e+04 1.924e-09
 72.95910    103.4 1.202e+04 1.222e-09
 72.99935    104.0 1.056e+04 6.307e-10
 73.03780    104.6 9.393e+03 3.641e-10
 73.05788    104.3 9.061e+03 3.173e-10
 73.07964    105.8 9.020e+03 2.649e-10
 73.11979    108.1 8.947e+03 2.606e-10
 73.15993    110.7 8.940e+03 2.608e-10
 73.20008    113.4 8.945e+03 2.647e-10
 73.22451    116.1 8.984e+03 2.753e-10
 73.24458    115.9 8.701e+03 2.267e-10
 73.28038    118.6 8.827e+03 2.287e-10
 73.32052    120.8 9.106e+03 2.362e-10
 73.35054    122.4 9.143e+03 2.440e-10
 73.37051    123.6 9.069e+03 2.389e-10
 73.39058    124.9 9.114e+03 2.441e-10
 73.40099    125.2 9.534e+03 2.707e-10
 73.41102    121.9 1.135e+04 3.316e-10
 73.42793    117.4 1.634e+04 6.162e-10
 73.43796    123.1 1.305e+04 4.465e-10
 73.44260    121.4 1.456e+04 5.660e-10
 73.44756    118.4 1.776e+04 6.522e-10
 73.45573    112.3 2.338e+04 1.417e-09
 73.46576    105.5 2.562e+04 4.837e-09
 73.47580    100.7 2.474e+04 1.453e-08
 73.48420     98.2 2.347e+04 3.267e-08
 73.48922     96.3 2.272e+04 4.981e-08
 73.49587     95.4 2.350e+04 6.468e-08
 73.50591     93.4 2.601e+04 6.440e-08
 73.51595     88.9 2.929e+04 5.360e-08
 73.52586     81.3 3.337e+04 3.436e-08
 73.53088     72.1 3.481e+04 1.958e-08
 73.53602     60.9 2.955e+04 1.422e-08
 73.54606     51.8 2.281e+04 1.323e-08
 73.55609     46.4 2.047e+04 1.260e-08
 73.56613     43.4 1.979e+04 1.256e-08
 73.57254     41.3 1.943e+04 1.240e-08
 73.57756     40.4 1.992e+04 1.476e-08
 73.58620     38.8 1.973e+04 1.362e-08
 73.59624     36.7 1.958e+04 1.195e-08
 73.60628     34.2 1.975e+04 1.116e-08
 73.61420     30.8 2.027e+04 1.179e-08
 73.61922     30.5 2.025e+04 1.158e-08
 73.62635     23.4 2.287e+04 1.449e-08
 73.63639     13.7 2.709e+04 2.587e-08
 73.64431      5.9 2.681e+04 6.613e-08
 73.64933     10.1 2.706e+04 4.364e-08
 73.65586      4.5 2.487e+04 1.362e-07
 73.66087      3.1 2.507e+04 9.495e-08
 73.66650     -0.3 2.291e+04 2.340e-07
 73.67653     -2.7 2.243e+04 3.298e-07
 73.68657     -4.0 2.254e+04 2.709e-07
 73.69661     -4.9 2.364e+04 1.305e-07
 73.70253     -5.9 2.497e+04 4.116e-08
 73.70755     -6.6 2.375e+04 3.697e-08
 73.71668     -9.8 2.368e+04 1.479e-08
 73.73178    -19.4 1.987e+04 4.108e-09
 73.74429    -26.3 1.297e+04 1.459e-09
 73.75433    -22.8 1.412e+04 1.757e-09
 73.77198    -26.3 1.148e+04 8.937e-10
 73.80219    -25.0 1.124e+04 7.074e-10
 73.84243    -27.1 9.986e+03 4.787e-10
 73.88258    -26.9 9.868e+03 4.602e-10
 73.91112    -27.8 1.057e+04 5.965e-10
 73.93119    -25.3 9.847e+03 4.323e-10
 73.96287    -26.5 1.063e+04 6.534e-10
 74.00302    -26.2 1.127e+04 1.002e-09
 74.04317    -25.7 1.137e+04 1.021e-09
 74.07775    -24.9 1.084e+04 6.383e-10
 74.09782    -23.2 1.183e+04 1.051e-09
 74.12346    -23.9 1.167e+04 6.301e-10
 74.16361    -27.2 1.147e+04 4.717e-10
 74.20375    -30.4 1.132e+04 7.357e-10
 74.24390    -30.8 1.193e+04 1.257e-09
 74.26436    -30.9 1.219e+04 1.615e-09
 74.27427    -29.7 1.245e+04 1.818e-09
 74.29386    -31.4 1.228e+04 1.593e-09
 74.31396    -31.3 1.199e+04 1.301e-09
 74.33404    -31.3 1.165e+04 1.046e-09
 74.34758    -31.6 1.126e+04 8.419e-10
 74.35762    -31.2 1.117e+04 7.933e-10
 74.37418    -31.2 1.084e+04 6.868e-10
 74.39426    -30.8 1.052e+04 6.039e-10
 74.41433    -30.1 1.031e+04 5.519e-10
 74.43090    -29.2 1.014e+04 5.062e-10
 74.44093    -28.5 1.021e+04 5.419e-10
 74.45448    -27.5 1.024e+04 5.187e-10
 74.47455    -26.7 1.034e+04 4.825e-10
 74.49462    -26.2 1.048e+04 4.723e-10
 74.51421    -25.9 1.073e+04 4.402e-10
 74.52425    -24.9 1.077e+04 5.299e-10
 74.53477    -24.7 1.106e+04 5.441e-10
 74.55484    -24.6 1.126e+04 6.332e-10
 74.57492    -24.4 1.143e+04 7.573e-10
 74.59499    -23.9 1.152e+04 9.945e-10
 74.60757    -23.1 1.192e+04 1.228e-09
 74.61760    -21.7 1.193e+04 1.203e-09
 74.63514    -21.2 1.223e+04 1.459e-09
 74.65521    -20.8 1.268e+04 1.730e-09
 74.67528    -20.4 1.308e+04 2.044e-09
 74.69088    -19.7 1.298e+04 2.189e-09
 74.70092    -18.8 1.296e+04 2.179e-09
 74.70675    -17.8 1.284e+04 2.166e-09
 74.71679    -18.5 1.220e+04 1.504e-09
 74.73551    -17.4 1.210e+04 1.244e-09
 74.75558    -16.9 1.218e+04 9.675e-10
 74.77420    -17.1 1.217e+04 7.584e-10
 74.78424    -15.1 1.213e+04 8.598e-10
 74.79573    -15.4 1.203e+04 6.649e-10
 74.81580    -16.0 1.166e+04 5.837e-10
 74.83587    -16.3 1.122e+04 6.045e-10
 74.85595    -16.2 1.117e+04 6.523e-10
 74.86755    -15.6 1.124e+04 7.764e-10
 74.87759    -14.1 1.122e+04 7.301e-10
 74.89609    -13.6 1.144e+04 8.534e-10
 74.91617    -13.0 1.173e+04 1.001e-09
 74.93624    -12.5 1.194e+04 1.123e-09
 74.95087    -12.0 1.227e+04 1.295e-09
 74.96091    -10.5 1.220e+04 1.338e-09
 74.97639    -10.0 1.244e+04 1.489e-09
 74.99646     -9.5 1.285e+04 1.678e-09
 75.01653     -9.8 1.361e+04 1.987e-09
 75.03419    -11.4 1.469e+04 2.738e-09
 75.04422     -9.0 1.468e+04 2.701e-09
 75.05668    -11.0 1.589e+04 4.025e-09
 75.07675    -11.9 1.629e+04 6.248e-09
 75.09683    -10.7 1.611e+04 8.797e-09
 75.11690     -9.3 1.585e+04 9.172e-09
 75.12754     -8.7 1.666e+04 7.744e-09
 75.13023     -8.0 1.652e+04 9.207e-09
 75.13460     -8.1 1.589e+04 6.953e-09
 75.14189     -8.4 1.622e+04 6.693e-09
 75.15193     -9.7 1.788e+04 4.972e-09
 75.16197    -10.8 1.846e+04 4.765e-09
 75.17707    -13.3 1.927e+04 3.752e-09
 75.19719    -17.1 1.610e+04 2.200e-09
 75.21086    -19.5 1.335e+04 1.398e-09
 75.22089    -19.7 1.452e+04 3.129e-09
 75.23734    -19.5 1.343e+04 2.439e-09
 75.25741    -18.4 1.271e+04 1.915e-09
 75.27749    -17.2 1.219e+04 1.498e-09
 75.29417    -16.0 1.175e+04 1.196e-09
 75.30421    -15.3 1.219e+04 1.631e-09
 75.31764    -14.3 1.177e+04 1.198e-09
 75.33771    -13.3 1.139e+04 8.928e-10
 75.35778    -12.3 1.100e+04 7.878e-10
 75.37749    -11.2 1.095e+04 7.275e-10
 75.38753    -11.0 1.090e+04 6.991e-10
 75.39793     -9.8 1.078e+04 6.819e-10
 75.41800     -8.4 1.081e+04 6.941e-10
 75.43808     -7.0 1.096e+04 7.361e-10
 75.45815     -5.4 1.108e+04 8.499e-10
 75.47084     -3.9 1.129e+04 9.301e-10
 75.48088     -3.8 1.130e+04 9.359e-10
 75.49830     -2.2 1.152e+04 1.035e-09
 75.51837     -0.7 1.171e+04 1.140e-09
 75.53844      0.5 1.199e+04 1.290e-09
 75.55261      1.5 1.214e+04 1.422e-09
 75.55829      1.1 1.178e+04 1.210e-09
 75.56420      1.2 1.183e+04 1.217e-09
 75.57859      2.3 1.193e+04 1.388e-09
 75.59866      3.6 1.200e+04 1.535e-09
 75.61874      4.9 1.204e+04 1.558e-09
 75.63747      6.4 1.200e+04 1.505e-09
 75.64751      6.5 1.203e+04 1.515e-09
 75.65888      7.8 1.199e+04 1.412e-09
 75.67896      8.8 1.191e+04 1.260e-09
 75.69903      9.5 1.172e+04 1.092e-09
 75.71910     10.0 1.148e+04 9.352e-10
 75.73083     10.1 1.129e+04 8.220e-10
 75.74087     10.4 1.126e+04 8.121e-10
 75.75925     10.3 1.114e+04 7.542e-10
 75.77932      9.9 1.115e+04 7.784e-10
 75.79940      9.4 1.125e+04 8.635e-10
 75.81414      9.0 1.147e+04 1.010e-09
 75.82418      8.2 1.163e+04 1.090e-09
 75.83954      8.2 1.170e+04 1.250e-09
 75.85962      8.7 1.160e+04 1.341e-09
 75.87969      8.9 1.170e+04 1.313e-09
 75.89746      8.6 1.178e+04 1.245e-09
 75.90750      8.2 1.170e+04 1.184e-09
 75.91984      6.7 1.170e+04 1.071e-09
 75.93991      3.1 1.190e+04 1.049e-09
 75.95999     -2.5 1.269e+04 1.172e-09
 75.97554     -8.2 1.402e+04 1.695e-09
 75.98558    -10.4 1.583e+04 3.258e-09
 75.99081    -12.7 1.619e+04 4.619e-09
 76.00085    -15.1 1.579e+04 4.312e-09
 76.02021    -17.8 1.550e+04 4.297e-09
 76.04028    -20.8 1.485e+04 3.498e-09
 76.06035    -24.7 1.401e+04 2.500e-09
 76.07413    -29.1 1.285e+04 1.674e-09
 76.08417    -31.7 1.204e+04 1.268e-09
 76.10050    -35.9 1.161e+04 1.077e-09
 76.12057    -39.7 1.147e+04 1.024e-09
 76.14065    -44.7 1.195e+04 1.266e-09
 76.15745    -57.1 1.807e+04 3.204e-09
 76.16748    -56.2 1.739e+04 2.373e-09
 76.18079    -73.4 2.665e+04 9.875e-09
 76.19197    -85.7 2.768e+04 2.697e-08
 76.19694    -85.8 2.819e+04 2.740e-08
 76.20403    -92.3 2.747e+04 4.154e-08
 76.20905    -91.0 2.695e+04 4.082e-08
 76.21582    -97.4 2.641e+04 4.629e-08
 76.22586   -103.6 2.405e+04 4.249e-08
 76.23590   -108.7 2.168e+04 2.812e-08
 76.24569   -112.0 1.997e+04 1.838e-08
 76.25070   -110.2 1.999e+04 1.705e-08
 76.25597   -112.2 1.896e+04 1.134e-08
 76.26601   -113.4 1.820e+04 7.665e-09
 76.28111   -114.6 1.745e+04 4.594e-09
 76.30123   -117.6 1.573e+04 2.201e-09
 76.32131   -121.2 1.366e+04 1.068e-09
 76.33412   -122.7 1.282e+04 8.692e-10
 76.34415   -122.9 1.127e+04 3.598e-10
 76.36145   -123.4 1.099e+04 3.538e-10
 76.38153   -123.7 1.100e+04 4.780e-10
 76.39847   -123.8 1.162e+04 6.840e-10
 76.40851   -123.1 1.202e+04 9.415e-10
 76.41743   -123.1 1.264e+04 1.342e-09
 76.42747   -122.5 1.185e+04 8.185e-10
 76.44175   -122.0 1.271e+04 1.273e-09
 76.46182   -121.6 1.351e+04 1.863e-09
 76.48190   -120.8 1.424e+04 2.759e-09
 76.50075   -120.2 1.483e+04 3.350e-09
 76.51079   -119.8 1.365e+04 1.791e-09
 76.52204   -119.6 1.389e+04 1.870e-09
 76.54212   -119.8 1.392e+04 1.814e-09
 76.56219   -120.3 1.357e+04 1.576e-09
 76.58226   -121.4 1.303e+04 1.415e-09
 76.59410   -122.5 1.270e+04 1.380e-09
 76.60414   -122.4 1.093e+04 8.936e-10
 76.62241   -122.6 1.111e+04 9.996e-10
 76.64248   -122.4 1.164e+04 1.209e-09
 76.66256   -122.2 1.219e+04 1.471e-09
 76.67742   -121.8 1.263e+04 1.753e-09
 76.68746   -121.1 1.156e+04 1.128e-09
 76.70270   -120.9 1.181e+04 1.249e-09
 76.72278   -120.5 1.202e+04 1.371e-09
 76.74285   -120.0 1.223e+04 1.492e-09
 76.76074   -119.6 1.244e+04 1.610e-09
 76.77077   -119.7 1.087e+04 9.080e-10
 76.78300   -119.4 1.101e+04 9.496e-10
 76.80307   -119.0 1.126e+04 1.029e-09
 76.82140   -118.8 1.152e+04 1.121e-09
 76.83144   -118.9 1.125e+04 1.020e-09
 76.84322   -118.6 1.149e+04 1.095e-09
 76.85409   -118.2 1.181e+04 1.233e-09
 76.86413   -117.7 1.064e+04 8.053e-10
 76.88336   -117.3 1.100e+04 9.266e-10
 76.90344   -116.9 1.143e+04 1.164e-09
 76.92351   -116.7 1.200e+04 1.586e-09
 76.93741   -117.7 1.307e+04 2.447e-09
 76.94744   -117.2 1.217e+04 1.682e-09
 76.96366   -119.4 1.447e+04 3.515e-09
 76.98373   -121.2 1.722e+04 8.180e-09
 77.00380   -121.8 1.964e+04 1.878e-08
 77.01881   -122.1 2.132e+04 3.936e-08
 77.02565   -122.0 2.211e+04 5.583e-08
 77.03066   -122.1 2.234e+04 7.564e-08
 77.03778   -122.5 2.277e+04 9.583e-08
 77.04280   -122.3 2.297e+04 1.030e-07
 77.04887   -124.1 2.296e+04 1.090e-07
 77.05891   -125.0 2.205e+04 9.393e-08
 77.06730   -125.0 2.118e+04 5.894e-08
 77.07232   -126.2 2.173e+04 8.343e-08
 77.07898   -125.1 2.048e+04 3.896e-08
 77.08902   -124.6 1.940e+04 1.816e-08
 77.10399   -125.2 1.786e+04 8.704e-09
 77.11408   -125.3 1.780e+04 9.137e-09
 77.12425   -125.7 1.557e+04 3.934e-09
 77.14432   -126.1 1.329e+04 1.652e-09
 77.16439   -126.8 1.130e+04 7.439e-10
 77.18447   -127.1 1.006e+04 4.321e-10
 77.19739   -127.0 9.589e+03 3.442e-10
 77.20743   -126.6 9.557e+03 3.337e-10
 77.22461   -125.4 9.372e+03 3.018e-10
 77.25482   -124.0 9.300e+03 2.867e-10
 77.29507   -121.7 9.140e+03 2.652e-10
 77.33521   -119.5 9.101e+03 2.581e-10
 77.36422   -117.6 9.101e+03 2.622e-10
 77.38430   -116.7 9.009e+03 2.460e-10
 77.41551   -115.0 9.170e+03 2.759e-10
 77.45565   -113.5 9.419e+03 3.339e-10
 77.49580   -112.0 9.659e+03 4.008e-10
 77.53086   -110.9 9.852e+03 4.563e-10
 77.55093   -109.7 9.753e+03 4.070e-10
 77.56596   -108.5 9.844e+03 4.241e-10
 77.58593   -108.5 9.895e+03 4.439e-10
 77.60601   -108.4 9.981e+03 4.784e-10
 77.62401   -108.4 1.009e+04 5.013e-10
 77.63405   -107.6 9.956e+03 4.447e-10
 77.64616   -107.7 1.008e+04 4.723e-10
 77.66623   -108.0 1.026e+04 5.110e-10
 77.67729   -108.5 1.051e+04 5.732e-10
 77.68733   -107.6 1.030e+04 4.878e-10
 77.70638   -108.0 1.049e+04 5.341e-10
 77.71747   -108.4 1.065e+04 5.788e-10
 77.73764   -107.2 1.045e+04 4.773e-10
 77.77683   -108.4 1.091e+04 6.129e-10
 77.80078   -109.6 1.109e+04 6.941e-10
 77.81072   -109.1 1.108e+04 6.771e-10
 77.82682   -110.1 1.110e+04 7.107e-10
 77.84689   -110.9 1.107e+04 7.192e-10
 77.86696   -111.4 1.097e+04 7.209e-10
 77.88400   -111.7 1.059e+04 6.511e-10
 77.89404   -111.9 1.092e+04 7.832e-10
 77.90711   -111.9 1.055e+04 6.606e-10
 77.92718   -111.8 1.024e+04 5.273e-10
 77.94726   -111.6 9.987e+03 4.321e-10
 77.97746   -111.4 9.785e+03 3.631e-10
 78.01771   -111.2 9.398e+03 2.734e-10
 78.05083   -110.0 8.968e+03 1.980e-10
 78.07090   -109.8 9.243e+03 2.520e-10
 78.09800   -108.5 8.942e+03 2.001e-10
 78.13815   -107.2 8.800e+03 1.701e-10
 78.17830   -106.0 8.782e+03 1.568e-10
 78.21746   -104.8 8.779e+03 1.534e-10
 78.23754   -104.1 8.986e+03 2.112e-10
 78.25859   -102.8 9.022e+03 2.125e-10
 78.29874   -101.7 9.112e+03 2.163e-10
 78.33888   -101.1 9.314e+03 2.440e-10
 78.37903   -100.9 9.822e+03 3.300e-10
 78.40417   -101.8 1.085e+04 5.381e-10
 78.42424   -100.4 1.086e+04 5.375e-10
 78.44919   -100.5 1.114e+04 6.167e-10
 78.46917   -101.8 1.196e+04 8.275e-10
 78.48729   -103.7 1.292e+04 1.367e-09
 78.49733   -103.7 1.312e+04 1.492e-09
 78.50931   -105.1 1.385e+04 2.433e-09
 78.52315   -106.0 1.441e+04 3.531e-09
 78.53319   -104.4 1.333e+04 2.090e-09
 78.54946   -105.4 1.394e+04 2.961e-09
 78.56953   -106.5 1.461e+04 3.774e-09
 78.58064   -108.1 1.533e+04 4.387e-09
 78.59068   -108.0 1.572e+04 5.084e-09
 78.60968   -110.7 1.664e+04 5.663e-09
 78.62975   -114.1 1.724e+04 5.857e-09
 78.64983   -117.8 1.759e+04 5.639e-09
 78.66396   -121.3 1.702e+04 4.907e-09
 78.67400   -123.0 1.769e+04 5.357e-09
 78.68997   -126.7 1.646e+04 4.472e-09
 78.71005   -130.4 1.617e+04 4.051e-09
 78.73012   -133.9 1.618e+04 3.993e-09
 78.74728   -137.0 1.658e+04 4.907e-09
 78.75731   -140.1 1.722e+04 6.708e-09
 78.77027   -141.2 1.727e+04 8.843e-09
 78.79034   -141.8 1.735e+04 1.030e-08
 78.81042   -142.3 1.736e+04 1.058e-08
 78.83049   -142.7 1.716e+04 1.049e-08
 78.84063   -143.0 1.673e+04 9.167e-09
 78.85067   -144.0 1.691e+04 8.294e-09
 78.87064   -144.7 1.627e+04 6.197e-09
 78.89071   -145.7 1.535e+04 4.523e-09
 78.91078   -146.7 1.426e+04 3.360e-09
 78.92395   -147.3 1.328e+04 2.592e-09
 78.93398   -148.4 1.252e+04 1.968e-09
 78.94608   -148.4 1.199e+04 1.679e-09
 78.95612   -147.3 1.241e+04 1.960e-09
 78.97100   -147.2 1.181e+04 1.590e-09
 78.99108   -146.8 1.133e+04 1.290e-09
 79.00726   -146.4 1.092e+04 1.042e-09
 79.01730   -146.8 1.081e+04 9.729e-10
 79.03122   -146.5 1.053e+04 8.305e-10
 79.05130   -146.2 1.029e+04 7.083e-10
 79.07137   -145.9 1.008e+04 6.145e-10
 79.09058   -145.8 9.944e+03 5.487e-10
 79.10062   -146.3 1.012e+04 5.964e-10
 79.11152   -146.3 1.007e+04 5.616e-10
 79.13159   -146.4 1.006e+04 5.419e-10
 79.15166   -146.6 1.006e+04 5.347e-10
 79.17174   -146.8 1.007e+04 5.331e-10
 79.18393   -147.2 1.016e+04 5.334e-10
 79.19397   -148.0 1.026e+04 5.793e-10
 79.21188   -148.5 1.040e+04 5.753e-10
 79.23196   -149.1 1.052e+04 5.837e-10
 79.25203   -149.8 1.065e+04 5.956e-10
 79.26725   -150.6 1.079e+04 6.070e-10
 79.27729   -152.5 1.115e+04 7.205e-10
 79.29218   -153.9 1.145e+04 7.887e-10
 79.31225   -155.3 1.174e+04 8.830e-10
 79.34246   -157.3 1.201e+04 1.013e-09
 79.36911   -159.8 1.210e+04 1.224e-09
 79.37905   -159.1 1.246e+04 1.377e-09
 79.39255   -160.1 1.236e+04 1.394e-09
 79.41262   -162.3 1.233e+04 1.422e-09
 79.43269   -167.9 1.496e+04 1.502e-09
 79.44392   -176.7 1.970e+04 2.730e-09
 79.45396   -183.7 2.076e+04 5.186e-09
 79.47284   -189.4 2.081e+04 1.095e-08
 79.49291   -193.8 2.045e+04 1.500e-08
 79.51299   -197.7 2.019e+04 1.557e-08
 79.52724   -201.0 1.875e+04 1.241e-08
 79.53727   -204.2 1.797e+04 8.311e-09
 79.55313   -208.2 1.575e+04 3.862e-09
 79.57321   -211.5 1.368e+04 2.222e-09
 79.59328   -213.0 1.284e+04 1.835e-09
 79.61055   -213.6 1.262e+04 1.775e-09
 79.62059   -215.4 1.255e+04 1.678e-09
 79.63343   -214.9 1.253e+04 1.846e-09
 79.65350   -214.4 1.278e+04 2.048e-09
 79.67357   -214.1 1.305e+04 2.256e-09
 79.69365   -214.0 1.329e+04 2.440e-09
 79.70391   -214.2 1.344e+04 2.554e-09
 79.71394   -215.2 1.353e+04 2.705e-09
 79.73379   -215.5 1.357e+04 2.739e-09
 79.75387   -215.8 1.355e+04 2.740e-09
 79.77394   -216.0 1.330e+04 2.565e-09
 79.78722   -216.1 1.288e+04 2.174e-09
 79.79519   -216.9 1.287e+04 2.197e-09
 79.80198   -218.0 1.266e+04 2.080e-09
 79.81409   -217.9 1.212e+04 1.605e-09
 79.83416   -217.8 1.161e+04 1.214e-09
 79.85423   -217.7 1.115e+04 9.237e-10
 79.87054   -217.6 1.075e+04 7.222e-10
 79.88058   -218.2 1.064e+04 6.623e-10
 79.89438   -217.9 1.031e+04 5.418e-10
 79.91445   -217.4 1.005e+04 4.570e-10
 79.93453   -216.6 9.865e+03 4.039e-10
 79.95386   -215.5 9.809e+03 3.842e-10
 79.96389   -215.9 9.823e+03 3.836e-10
 79.98481   -215.1 9.831e+03 3.777e-10
 80.02505   -214.1 9.745e+03 3.520e-10
 80.06520   -213.1 9.587e+03 3.131e-10
 80.10535   -212.0 9.429e+03 2.735e-10
 80.13072   -210.8 9.318e+03 2.412e-10
 80.15080   -210.7 9.327e+03 2.405e-10
 80.18564   -209.3 9.260e+03 2.206e-10
 80.21506   -207.9 9.255e+03 2.161e-10
 80.23514   -209.7 9.245e+03 2.135e-10
 80.26594   -208.7 9.326e+03 2.168e-10
 80.29736   -208.1 9.797e+03 2.770e-10
 80.31743   -207.1 9.701e+03 2.510e-10
 80.34623   -206.6 1.019e+04 3.580e-10
 80.38638   -206.1 1.062e+04 5.055e-10
 80.42652   -205.8 1.087e+04 6.218e-10
 80.45654   -204.4 1.099e+04 6.790e-10
 80.47383   -204.8 1.100e+04 6.922e-10
 80.48396   -204.1 1.096e+04 6.687e-10
 80.49668   -204.0 1.103e+04 7.051e-10
 80.51666   -204.6 1.091e+04 6.983e-10
 80.53673   -204.7 1.064e+04 6.336e-10
 80.55681   -204.6 1.035e+04 5.348e-10
 80.56718   -204.5 1.011e+04 4.430e-10
 80.57722   -203.9 1.024e+04 4.883e-10
 80.59695   -203.9 9.999e+03 3.978e-10
 80.62716   -204.1 9.773e+03 3.197e-10
 80.65070   -203.2 9.385e+03 2.093e-10
 80.67077   -202.3 9.662e+03 2.668e-10
 80.70755   -201.4 9.292e+03 1.693e-10
 80.74770   -200.3 9.159e+03 1.313e-10
 80.78785   -199.0 9.141e+03 1.237e-10
 80.81733   -197.3 9.148e+03 1.217e-10
 80.83740   -196.8 9.172e+03 1.210e-10
 80.86814   -195.0 9.177e+03 1.194e-10
 80.90829   -193.1 9.184e+03 1.184e-10
 80.94843   -191.1 9.201e+03 1.181e-10
 80.98396   -189.3 9.224e+03 1.194e-10
 81.00404   -189.1 9.202e+03 1.169e-10
 81.02873   -187.5 9.234e+03 1.192e-10
 81.06092   -186.4 9.362e+03 1.433e-10
 81.08100   -187.1 9.390e+03 1.508e-10
 81.10902   -186.2 9.571e+03 2.032e-10
 81.14917   -185.6 9.917e+03 3.109e-10
 81.17067   -185.2 1.048e+04 5.038e-10
 81.19074   -184.6 9.821e+03 3.279e-10
 81.22946   -184.1 1.027e+04 4.899e-10
 81.26961   -183.7 1.087e+04 7.272e-10
 81.30975   -183.3 1.147e+04 1.020e-09
 81.33730   -183.2 1.191e+04 1.292e-09
 81.35738   -182.2 1.105e+04 8.524e-10
 81.39005   -182.1 1.147e+04 1.073e-09
 81.43020   -182.3 1.187e+04 1.302e-09
 81.47034   -182.3 1.222e+04 1.500e-09
 81.50394   -182.5 1.229e+04 1.534e-09
 81.52401   -181.5 1.219e+04 1.558e-09
 81.55064   -181.7 1.223e+04 1.609e-09
 81.59078   -181.8 1.212e+04 1.573e-09
 81.63093   -181.8 1.188e+04 1.403e-09
 81.67057   -182.1 1.163e+04 1.202e-09
 81.69064   -181.4 1.207e+04 1.583e-09
 81.71122   -182.1 1.180e+04 1.334e-09
 81.75137   -182.8 1.141e+04 1.024e-09
 81.79152   -183.5 1.092e+04 7.283e-10
 81.83166   -183.9 1.039e+04 5.001e-10
 81.85728   -184.0 9.983e+03 3.632e-10
 81.87735   -183.3 9.996e+03 3.801e-10
 81.90678   -183.3 9.747e+03 2.916e-10
 81.92686   -184.0 1.045e+04 4.786e-10
 81.95211   -183.8 1.023e+04 3.854e-10
 81.99225   -182.9 1.003e+04 3.184e-10
 82.02391   -181.8 9.874e+03 2.695e-10
 82.04398   -181.0 9.884e+03 2.655e-10
 82.07255   -179.8 9.780e+03 2.275e-10
 82.11269   -178.4 9.707e+03 1.981e-10
 82.15284   -176.9 9.656e+03 1.752e-10
 82.19054   -175.4 9.623e+03 1.572e-10
 82.21062   -174.5 9.692e+03 1.657e-10
 82.23313   -173.0 9.655e+03 1.481e-10
 82.27328   -171.4 9.644e+03 1.370e-10
 82.31343   -169.8 9.644e+03 1.344e-10
 82.35357   -168.2 9.645e+03 1.352e-10
 82.37725   -166.7 9.720e+03 1.396e-10
 82.39732   -165.7 9.767e+03 1.416e-10
 82.43387   -164.4 9.895e+03 1.490e-10
 82.47401   -163.1 9.957e+03 1.607e-10
 82.51416   -161.9 9.991e+03 1.744e-10
 82.54388   -160.9 1.003e+04 1.919e-10
 82.56396   -160.0 1.011e+04 2.252e-10
 82.59446   -159.1 1.022e+04 2.614e-10
 82.63460   -158.2 1.039e+04 3.218e-10
 82.67475   -157.4 1.059e+04 3.973e-10
 82.71051   -156.8 1.077e+04 4.542e-10
 82.73059   -156.4 1.102e+04 5.736e-10
 82.75264   -156.2 1.110e+04 6.075e-10
 82.77271   -156.8 1.148e+04 7.883e-10
 82.79519   -156.9 1.149e+04 7.865e-10
 82.83534   -156.7 1.136e+04 6.916e-10
 82.87548   -155.8 1.114e+04 5.793e-10
 82.89722   -154.7 1.097e+04 5.363e-10
 82.91729   -155.1 1.085e+04 4.833e-10
 82.95578   -154.8 1.111e+04 4.251e-10
 82.98044   -151.7 9.936e+03 3.291e-10
 82.99038   -153.4 1.010e+04 2.737e-10
 83.00577   -163.0 1.641e+04 2.829e-10
 83.02584   -174.3 2.937e+04 3.991e-10
 83.04591   -181.7 2.384e+04 4.310e-09
 83.06366   -184.1 2.101e+04 1.506e-08
 83.07370   -184.2 2.019e+04 1.715e-08
 83.08606   -184.8 1.973e+04 2.120e-08
 83.10613   -185.2 1.932e+04 1.900e-08
 83.12621   -186.1 1.855e+04 1.254e-08
 83.14628   -187.3 1.731e+04 6.162e-09
 83.15701   -188.8 1.550e+04 2.566e-09
 83.16705   -189.6 1.473e+04 1.764e-09
 83.18541   -191.1 1.292e+04 9.080e-10
 83.19545   -192.7 1.221e+04 7.295e-10
 83.20650   -192.0 1.188e+04 6.636e-10
 83.22657   -190.6 1.177e+04 6.452e-10
 83.24033   -189.3 1.170e+04 6.376e-10
 83.25037   -189.1 1.157e+04 6.208e-10
 83.26672   -187.7 1.146e+04 6.014e-10
 83.28679   -186.1 1.135e+04 5.747e-10
 83.30687   -184.4 1.127e+04 5.429e-10
 83.32365   -182.9 1.126e+04 5.090e-10
 83.33368   -182.8 1.122e+04 4.828e-10
 83.35715   -181.5 1.131e+04 4.750e-10
 83.39712   -179.6 1.129e+04 4.432e-10
 83.41719   -179.9 1.110e+04 3.895e-10
 83.43754   -178.0 1.094e+04 3.471e-10
 83.47769   -176.1 1.074e+04 2.997e-10
 83.51783   -174.1 1.053e+04 2.555e-10
 83.55798   -172.0 1.036e+04 2.188e-10
 83.58383   -169.9 1.024e+04 1.898e-10
 83.60390   -169.9 1.012e+04 1.680e-10
 83.61857   -167.7 1.004e+04 1.441e-10
 83.63865   -168.0 1.016e+04 1.777e-10
 83.67842   -165.9 1.008e+04 1.502e-10
 83.71857   -163.8 1.001e+04 1.250e-10
 83.75046   -161.7 9.965e+03 1.045e-10
 83.77053   -161.7 9.866e+03 9.242e-11
 83.79886   -159.7 9.853e+03 8.305e-11
 83.83901   -157.7 9.862e+03 7.968e-11
 83.87916   -155.7 9.866e+03 7.935e-11
 83.91709   -153.7 9.892e+03 8.045e-11
 83.93717   -153.5 9.870e+03 7.921e-11
 83.95945   -151.6 9.907e+03 8.566e-11
 83.99960   -149.6 9.927e+03 9.526e-11
 84.03974   -147.5 9.952e+03 1.049e-10
 84.07989   -145.5 9.984e+03 1.126e-10
 84.10380   -143.4 1.001e+04 1.172e-10
 84.12387   -143.2 9.970e+03 1.137e-10
 84.16018   -141.2 9.967e+03 1.163e-10
 84.20033   -139.2 9.955e+03 1.189e-10
 84.24048   -137.1 9.933e+03 1.226e-10
 84.27043   -135.2 9.903e+03 1.287e-10
 84.29051   -134.9 9.894e+03 1.268e-10
 84.32077   -132.9 9.863e+03 1.346e-10
 84.36092   -131.0 9.838e+03 1.443e-10
 84.40107   -129.2 9.839e+03 1.556e-10
 84.43707   -127.4 9.864e+03 1.700e-10
 84.45714   -127.6 9.882e+03 1.639e-10
 84.46443   -126.3 9.951e+03 1.861e-10
 84.48450   -127.7 1.007e+04 1.903e-10
 84.52151   -126.6 1.022e+04 2.367e-10
 84.56165   -125.7 1.037e+04 3.105e-10
 84.60180   -124.8 1.055e+04 3.910e-10
 84.62377   -123.9 1.066e+04 4.440e-10
 84.64385   -124.6 1.061e+04 4.238e-10
 84.68209   -123.8 1.053e+04 4.077e-10
 84.72224   -123.1 1.036e+04 3.656e-10
 84.76239   -122.4 1.018e+04 3.254e-10
 84.79041   -121.6 1.007e+04 2.990e-10
 84.81048   -121.8 9.938e+03 2.730e-10
 84.84268   -120.8 9.926e+03 2.695e-10
 84.88283   -119.7 9.938e+03 2.693e-10
 84.92298   -118.5 9.995e+03 2.733e-10
 84.95704   -117.5 1.007e+04 2.837e-10
 84.97711   -117.9 1.001e+04 2.907e-10
 85.00327   -116.9 1.009e+04 3.161e-10
 85.04342   -116.0 1.018e+04 3.576e-10
 85.08356   -115.1 1.031e+04 4.146e-10
 85.12367   -114.3 1.042e+04 4.731e-10
 85.16382   -113.6 1.033e+04 4.377e-10
 85.20400   -113.3 1.036e+04 4.486e-10
 85.22697   -113.6 1.040e+04 4.445e-10
 85.23691   -113.4 1.038e+04 4.307e-10
 85.25399   -113.5 1.040e+04 4.457e-10
 85.27407   -114.0 1.046e+04 4.823e-10
 85.29414   -114.4 1.059e+04 5.483e-10
 85.31009   -114.8 1.070e+04 6.272e-10
 85.32013   -114.4 1.054e+04 5.775e-10
 85.33429   -114.6 1.062e+04 6.713e-10
 85.35436   -114.8 1.067e+04 7.411e-10
 85.37443   -115.1 1.067e+04 7.678e-10
 85.39350   -115.6 1.067e+04 7.753e-10
 85.40354   -115.0 1.067e+04 8.229e-10
 85.41458   -115.4 1.053e+04 7.422e-10
 85.43465   -115.9 1.036e+04 6.558e-10
 85.45473   -116.4 1.017e+04 5.817e-10
 85.47480   -116.7 1.003e+04 5.337e-10
 85.48686   -117.2 1.000e+04 5.189e-10
 85.49689   -117.1 9.935e+03 4.651e-10
 85.51495   -118.9 1.003e+04 4.914e-10
 85.53502   -121.8 1.111e+04 7.706e-10
 85.55509   -124.3 1.246e+04 1.515e-09
 85.57017   -125.8 1.354e+04 2.781e-09
 85.58021   -125.3 1.324e+04 2.413e-09
 85.59524   -126.2 1.397e+04 3.599e-09
 85.61531   -127.0 1.433e+04 4.341e-09
 85.63539   -127.8 1.439e+04 4.514e-09
 85.65349   -128.4 1.405e+04 4.174e-09
 85.66353   -128.2 1.376e+04 3.674e-09
 85.67553   -128.8 1.320e+04 3.003e-09
 85.69561   -129.3 1.257e+04 2.368e-09
 85.71568   -129.7 1.205e+04 1.942e-09
 85.73302   -129.9 1.180e+04 1.758e-09
 85.74306   -130.5 1.178e+04 1.721e-09
 85.74684   -130.5 1.175e+04 1.700e-09
 85.75688   -130.2 1.137e+04 1.349e-09
 85.77590   -130.2 1.137e+04 1.351e-09
 85.79598   -130.7 1.169e+04 1.537e-09
 85.81605   -131.7 1.257e+04 2.231e-09
 85.83016   -132.5 1.366e+04 3.466e-09
 85.84020   -132.1 1.272e+04 2.297e-09
 85.85620   -132.8 1.385e+04 3.671e-09
 85.87627   -133.3 1.489e+04 5.535e-09
 85.89634   -134.1 1.568e+04 7.236e-09
 85.91348   -135.2 1.603e+04 7.853e-09
 85.92351   -134.1 1.557e+04 6.721e-09
 85.93649   -135.4 1.574e+04 7.076e-09
 85.95656   -136.8 1.575e+04 6.649e-09
 85.97664   -138.1 1.511e+04 4.942e-09
 85.99671   -139.5 1.425e+04 3.432e-09
 86.01678   -138.9 1.366e+04 2.674e-09
 86.03686   -139.4 1.279e+04 1.836e-09
 86.05693   -139.3 1.206e+04 1.244e-09
 86.07700   -139.1 1.149e+04 8.309e-10
 86.09015   -138.8 1.103e+04 5.669e-10
 86.10018   -137.9 1.117e+04 6.302e-10
 86.11715   -137.7 1.078e+04 4.502e-10
 86.13722   -137.7 1.063e+04 3.963e-10
 86.15605   -137.9 1.045e+04 3.454e-10
 86.17231   -137.3 1.034e+04 3.314e-10
 86.18369   -135.5 1.048e+04 3.618e-10
 86.20768   -134.9 1.015e+04 3.028e-10
 86.24782   -134.0 9.892e+03 2.662e-10
 86.28797   -133.4 9.776e+03 2.536e-10
 86.32812   -133.0 9.747e+03 2.531e-10
 86.35033   -132.9 9.734e+03 2.600e-10
 86.37040   -132.0 9.817e+03 2.895e-10
 86.40841   -132.5 9.883e+03 3.316e-10
 86.44856   -133.1 1.006e+04 4.181e-10
 86.48870   -133.6 1.026e+04 5.070e-10
 86.51686   -133.9 1.034e+04 5.603e-10
 86.52680   -133.9 1.040e+04 5.950e-10
 86.53869   -134.6 1.045e+04 6.272e-10
 86.55877   -135.9 1.054e+04 6.780e-10
 86.57884   -137.2 1.075e+04 7.601e-10
 86.59891   -137.9 1.093e+04 8.002e-10
 86.61012   -139.6 1.133e+04 1.027e-09
 86.62016   -139.2 1.121e+04 9.565e-10
 86.63906   -140.8 1.158e+04 1.207e-09
 86.65913   -142.4 1.185e+04 1.455e-09
 86.67921   -143.9 1.195e+04 1.598e-09
 86.69344   -145.4 1.196e+04 1.633e-09
 86.70347   -145.4 1.207e+04 1.674e-09
 86.71935   -146.9 1.201e+04 1.676e-09
 86.73943   -148.0 1.174e+04 1.456e-09
 86.75950   -149.0 1.142e+04 1.130e-09
 86.77675   -149.8 1.113e+04 8.554e-10
 86.78679   -150.0 1.124e+04 9.936e-10
 86.79965   -150.5 1.098e+04 7.541e-10
 86.81972   -150.7 1.086e+04 6.222e-10
 86.84993   -151.0 1.078e+04 5.301e-10
 86.87030   -150.8 1.060e+04 3.950e-10
 86.89037   -151.1 1.082e+04 4.960e-10
 86.93032   -150.6 1.067e+04 3.741e-10
 86.97047   -149.9 1.061e+04 2.977e-10
 87.00201   -149.0 1.065e+04 2.622e-10
 87.02208   -149.1 1.072e+04 2.747e-10
 87.03693   -148.0 1.077e+04 2.571e-10
 87.05701   -148.1 1.096e+04 3.625e-10
 87.09091   -146.8 1.100e+04 3.335e-10
 87.13105   -145.4 1.105e+04 3.086e-10
 87.17120   -144.1 1.109e+04 2.831e-10
 87.20357   -142.7 1.109e+04 2.626e-10
 87.22364   -142.6 1.107e+04 2.428e-10
 87.25150   -141.2 1.102e+04 2.131e-10
 87.29164   -139.7 1.098e+04 1.937e-10
 87.33179   -138.2 1.095e+04 1.838e-10
 87.37020   -136.7 1.092e+04 1.817e-10
 87.39027   -136.3 1.092e+04 1.801e-10
 87.41208   -134.7 1.090e+04 1.820e-10
 87.45223   -133.1 1.089e+04 1.844e-10
 87.49238   -131.6 1.088e+04 1.870e-10
 87.53252   -130.1 1.088e+04 1.921e-10
 87.55691   -128.8 1.090e+04 2.118e-10
 87.57698   -128.7 1.093e+04 2.296e-10
 87.61282   -127.4 1.098e+04 2.881e-10
 87.65296   -126.0 1.108e+04 3.717e-10
 87.69311   -124.6 1.121e+04 4.713e-10
 87.72354   -123.1 1.138e+04 5.896e-10
 87.74361   -123.1 1.126e+04 5.638e-10
 87.77341   -121.7 1.137e+04 6.490e-10
 87.81355   -120.4 1.156e+04 7.566e-10
 87.84356   -119.0 1.170e+04 8.163e-10
 87.85771   -119.0 1.184e+04 9.372e-10
 87.86784   -118.4 1.163e+04 7.852e-10
 87.88371   -117.7 1.180e+04 8.695e-10
 87.90001   -117.4 1.204e+04 1.112e-09
 87.91015   -117.2 1.151e+04 5.642e-10
 87.93399   -116.5 1.184e+04 8.218e-10
 87.97414   -115.9 1.236e+04 1.446e-09
 88.01429   -115.0 1.290e+04 2.396e-09
 88.05443   -114.0 1.333e+04 3.283e-09
 88.07688   -113.1 1.353e+04 3.629e-09
 88.09695   -112.3 1.338e+04 3.244e-09
 88.13473   -111.6 1.362e+04 3.639e-09
 88.17487   -111.2 1.363e+04 3.425e-09
 88.21502   -111.1 1.360e+04 3.273e-09
 88.24351   -111.3 1.370e+04 3.465e-09
 88.25345   -111.6 1.373e+04 3.583e-09
 88.26501   -111.8 1.403e+04 4.403e-09
 88.28064   -111.8 1.431e+04 5.380e-09
 88.29067   -111.1 1.467e+04 6.549e-09
 88.30516   -111.0 1.514e+04 8.146e-09
 88.32523   -111.0 1.533e+04 8.769e-09
 88.33667   -111.2 1.532e+04 8.707e-09
 88.34671   -111.2 1.551e+04 9.295e-09
 88.36538   -111.2 1.507e+04 7.407e-09
 88.38545   -111.5 1.441e+04 5.148e-09
 88.40552   -112.1 1.385e+04 3.817e-09
 88.41999   -112.3 1.348e+04 3.103e-09
 88.43012   -113.0 1.339e+04 3.051e-09
 88.45590   -113.0 1.275e+04 2.147e-09
 88.49605   -112.5 1.222e+04 1.535e-09
 88.53620   -111.6 1.178e+04 1.124e-09
 88.57634   -110.8 1.154e+04 9.076e-10
 88.59685   -109.7 1.141e+04 7.864e-10
 88.61693   -109.6 1.136e+04 7.018e-10
 88.65664   -108.3 1.122e+04 6.156e-10
 88.69372   -106.8 1.108e+04 5.083e-10
 88.71380   -106.5 1.115e+04 5.438e-10
 88.73693   -105.1 1.103e+04 4.229e-10
 88.76349   -103.7 1.093e+04 3.137e-10
 88.78356   -103.4 1.091e+04 3.215e-10
 88.81722   -102.1 1.082e+04 2.581e-10
 88.85737   -100.8 1.078e+04 2.169e-10
 88.89752    -99.4 1.073e+04 1.925e-10
 88.93012    -98.0 1.064e+04 1.805e-10
 88.95019    -97.3 1.068e+04 1.921e-10
 88.97781    -95.9 1.059e+04 1.817e-10
 89.01796    -94.5 1.050e+04 1.726e-10
 89.05811    -93.0 1.043e+04 1.640e-10
 89.09675    -91.5 1.040e+04 1.597e-10
 89.11683    -91.1 1.045e+04 1.690e-10
 89.13840    -89.7 1.045e+04 1.689e-10
 89.17855    -88.3 1.050e+04 1.814e-10
 89.21869    -86.9 1.054e+04 2.125e-10
 89.25884    -85.5 1.058e+04 2.536e-10
 89.28346    -84.1 1.061e+04 2.933e-10
 89.30353    -83.8 1.061e+04 2.910e-10
 89.33913    -82.3 1.065e+04 3.236e-10
 89.37928    -81.0 1.066e+04 3.387e-10
 89.41943    -79.6 1.066e+04 3.389e-10
 89.45009    -78.3 1.066e+04 3.227e-10
 89.47017    -78.1 1.068e+04 3.262e-10
 89.49972    -76.7 1.068e+04 3.014e-10
 89.53958    -75.4 1.065e+04 2.742e-10
 89.55966    -75.4 1.062e+04 2.366e-10
 89.58002    -74.1 1.056e+04 2.166e-10
 89.61673    -72.9 1.051e+04 2.060e-10
 89.63680    -72.6 1.053e+04 2.130e-10
 89.66031    -71.3 1.051e+04 2.112e-10
 89.70046    -69.9 1.050e+04 2.116e-10
 89.74060    -68.5 1.049e+04 2.096e-10
 89.78075    -67.0 1.050e+04 1.938e-10
 89.80343    -65.6 1.050e+04 1.684e-10
 89.82351    -65.0 1.050e+04 1.963e-10
 89.86104    -63.9 1.051e+04 1.840e-10
 89.90119    -63.0 1.053e+04 1.847e-10
 89.94134    -62.3 1.054e+04 2.204e-10
 89.97007    -61.4 1.055e+04 2.788e-10
 89.99014    -61.1 1.079e+04 4.177e-10
 90.02163    -60.1 1.084e+04 4.637e-10
 90.06178    -59.4 1.081e+04 4.655e-10
 90.10192    -58.4 1.066e+04 3.913e-10
 90.13670    -57.6 1.057e+04 2.901e-10
 90.15677    -57.3 1.061e+04 3.621e-10
 90.18222    -56.5 1.049e+04 2.564e-10
 90.22237    -55.5 1.041e+04 1.810e-10
 90.26251    -54.4 1.036e+04 1.289e-10
 90.30266    -53.4 1.035e+04 9.624e-11
 90.32341    -52.3 1.035e+04 8.281e-11
 90.34348    -51.5 1.035e+04 8.692e-11
 90.38295    -50.3 1.035e+04 8.290e-11
 90.40551    -49.1 1.045e+04 8.431e-11
 90.42559    -48.9 1.047e+04 8.021e-11
 90.46325    -48.2 1.055e+04 1.035e-10
 90.49004    -47.4 1.060e+04 1.495e-10
 90.51011    -47.1 1.075e+04 1.963e-10
 90.54354    -46.2 1.087e+04 3.107e-10
 90.58369    -45.4 1.110e+04 4.450e-10
 90.62383    -45.0 1.131e+04 5.972e-10
 90.65667    -44.9 1.151e+04 7.947e-10
 90.67675    -44.8 1.176e+04 9.280e-10
 90.70413    -44.5 1.194e+04 1.155e-09
 90.73414    -44.5 1.204e+04 1.310e-09
 90.74983    -44.3 1.210e+04 1.411e-09
 90.75987    -44.1 1.226e+04 1.516e-09
 90.77419    -44.6 1.240e+04 1.689e-09
 90.79426    -45.0 1.250e+04 1.924e-09
 90.81434    -45.4 1.258e+04 2.180e-09
 90.82825    -45.8 1.285e+04 2.445e-09
 90.83702    -45.5 1.259e+04 2.041e-09
 90.84318    -45.0 1.257e+04 2.121e-09
 90.85448    -45.7 1.292e+04 2.296e-09
 90.87456    -47.5 1.321e+04 2.558e-09
 90.89463    -49.9 1.338e+04 3.116e-09
 90.91470    -52.0 1.378e+04 4.053e-09
 90.92650    -53.6 1.443e+04 4.981e-09
 90.93654    -55.3 1.566e+04 6.575e-09
 90.95485    -56.7 1.550e+04 6.867e-09
 90.97492    -58.2 1.496e+04 5.968e-09
 90.99500    -59.6 1.445e+04 4.928e-09
 91.00982    -60.8 1.401e+04 4.200e-09
 91.01985    -62.2 1.415e+04 4.616e-09
 91.03515    -62.4 1.386e+04 4.192e-09
 91.05522    -62.2 1.365e+04 3.794e-09
 91.07529    -61.9 1.344e+04 3.360e-09
 91.09313    -61.6 1.319e+04 2.918e-09
 91.10317    -62.1 1.320e+04 2.934e-09
 91.11544    -61.8 1.292e+04 2.539e-09
 91.13551    -61.4 1.265e+04 2.258e-09
 91.15559    -60.9 1.250e+04 2.103e-09
 91.17655    -60.2 1.253e+04 1.985e-09
 91.19662    -59.6 1.236e+04 1.800e-09
 91.22594    -59.6 1.221e+04 1.589e-09
 91.25137    -57.9 1.171e+04 1.031e-09
 91.27145    -57.2 1.180e+04 1.163e-09
 91.30633    -56.0 1.157e+04 8.627e-10
 91.34328    -55.0 1.137e+04 6.471e-10
 91.36335    -54.9 1.150e+04 7.411e-10
 91.38663    -53.7 1.138e+04 6.509e-10
 91.42677    -52.4 1.130e+04 6.041e-10
 91.46692    -51.1 1.121e+04 5.721e-10
 91.50707    -49.8 1.117e+04 5.607e-10
 91.52999    -48.5 1.118e+04 5.577e-10
 91.55006    -48.5 1.109e+04 4.302e-10
 91.58736    -47.9 1.125e+04 4.533e-10
 91.62751    -47.8 1.145e+04 6.376e-10
 91.66765    -47.4 1.164e+04 9.404e-10
 91.69662    -46.9 1.189e+04 1.244e-09
 91.71669    -46.6 1.184e+04 1.212e-09
 91.74795    -46.2 1.167e+04 1.093e-09
 91.78809    -45.6 1.131e+04 6.685e-10
 91.82824    -45.3 1.104e+04 3.705e-10
 91.86325    -45.2 1.089e+04 2.446e-10
 91.88333    -44.9 1.076e+04 1.785e-10
 91.90854    -44.0 1.073e+04 1.666e-10
 91.94868    -43.3 1.089e+04 1.796e-10
 91.98883    -42.7 1.091e+04 2.610e-10
 92.02898    -41.4 1.097e+04 3.764e-10
 92.04996    -39.7 1.107e+04 4.264e-10
 92.07003    -39.0 1.094e+04 3.434e-10
 92.09723    -37.5 1.086e+04 3.199e-10
 92.11730    -37.6 1.082e+04 2.911e-10
 92.14942    -35.6 1.080e+04 1.828e-10
 92.18956    -34.4 1.088e+04 9.713e-11
 92.21659    -33.8 1.072e+04 6.657e-11
 92.23667    -33.3 1.071e+04 6.080e-11
 92.26986    -32.0 1.061e+04 5.501e-11
 92.31000    -30.4 1.072e+04 5.578e-11
 92.35015    -29.3 1.076e+04 7.187e-11
 92.38323    -27.9 1.069e+04 1.122e-10
 92.40330    -27.4 1.076e+04 1.147e-10
 92.43044    -25.7 1.074e+04 1.892e-10
 92.47059    -23.8 1.080e+04 2.908e-10
 92.51074    -22.3 1.096e+04 3.669e-10
 92.54986    -21.5 1.117e+04 3.917e-10
 92.56993    -20.7 1.115e+04 3.479e-10
 92.59103    -20.4 1.111e+04 3.715e-10
 92.63118    -20.0 1.117e+04 3.955e-10
 92.67133    -20.1 1.131e+04 4.214e-10
 92.71147    -20.0 1.119e+04 4.961e-10
 92.73657    -19.3 1.115e+04 4.935e-10
 92.75664    -18.5 1.121e+04 5.742e-10
 92.79177    -17.9 1.122e+04 5.252e-10
 92.83191    -17.2 1.104e+04 3.927e-10
 92.87206    -16.7 1.083e+04 2.906e-10
 92.90320    -16.4 1.079e+04 2.400e-10
 92.92327    -15.4 1.085e+04 2.617e-10
 92.94309    -15.3 1.088e+04 2.476e-10
 92.96316    -15.0 1.109e+04 2.579e-10
 92.99250    -15.9 1.151e+04 2.665e-10
 93.03265    -16.3 1.130e+04 3.570e-10
 93.06983    -16.4 1.124e+04 3.803e-10
 93.08991    -15.5 1.154e+04 4.141e-10
 93.11294    -16.4 1.118e+04 3.432e-10
 93.15309    -16.3 1.081e+04 3.416e-10
 93.19324    -15.8 1.080e+04 3.229e-10
 93.23338    -15.4 1.080e+04 3.200e-10
 93.25654    -15.1 1.094e+04 3.406e-10
 93.27661    -15.1 1.080e+04 2.642e-10
 93.31368    -14.7 1.108e+04 3.412e-10
 93.35382    -15.6 1.154e+04 5.270e-10
 93.39397    -16.2 1.174e+04 1.099e-09
 93.42317    -15.0 1.213e+04 1.709e-09
 93.44325    -15.4 1.181e+04 1.229e-09
 93.47426    -14.1 1.207e+04 1.637e-09
 93.51441    -13.2 1.208e+04 1.099e-09
 93.55456    -13.0 1.176e+04 5.195e-10
 93.58981    -13.5 1.121e+04 2.817e-10
 93.60988    -12.3 1.138e+04 2.663e-10
 93.63485    -12.7 1.101e+04 1.933e-10
 93.67500    -11.8 1.088e+04 1.854e-10
 93.71515    -10.9 1.085e+04 2.303e-10
 93.75529     -9.2 1.079e+04 3.058e-10
 93.77651     -6.8 1.079e+04 3.709e-10
 93.79009     -5.9 1.070e+04 3.407e-10
 93.80902     -6.3 1.058e+04 3.380e-10
 93.83559     -4.5 1.082e+04 3.485e-10
 93.87573     -3.1 1.098e+04 3.687e-10
 93.91588     -1.5 1.094e+04 3.952e-10
 93.94315      0.2 1.107e+04 3.842e-10
 93.96322      1.6 1.086e+04 3.270e-10
 93.99617      3.0 1.110e+04 3.199e-10
 94.03632      4.0 1.124e+04 3.432e-10
 94.07647      5.3 1.117e+04 3.924e-10
 94.10978      6.8 1.107e+04 4.236e-10
 94.12985      8.0 1.108e+04 3.859e-10
 94.15676      9.5 1.102e+04 4.013e-10
 94.19691     11.3 1.095e+04 3.706e-10
 94.23706     12.9 1.092e+04 3.128e-10
 94.27641     14.6 1.081e+04 2.520e-10
 94.29648     16.2 1.081e+04 2.081e-10
 94.31735     17.7 1.067e+04 1.608e-10
 94.35750     19.4 1.056e+04 1.241e-10
 94.39764     21.0 1.059e+04 9.524e-11
 94.43779     22.3 1.066e+04 7.879e-11
 94.46312     23.6 1.068e+04 7.812e-11
 94.48319     25.0 1.074e+04 7.542e-11
 94.51808     26.1 1.076e+04 8.068e-11
 94.55823     27.4 1.069e+04 9.504e-11
 94.59838     28.7 1.065e+04 1.109e-10
 94.62975     30.1 1.067e+04 1.226e-10
 94.64611     30.9 1.066e+04 1.369e-10
 94.65488     30.7 1.070e+04 1.632e-10
 94.67867     32.1 1.069e+04 1.405e-10
 94.71882     33.3 1.068e+04 1.192e-10
 94.75896     34.7 1.070e+04 1.169e-10
 94.79638     36.1 1.076e+04 1.248e-10
 94.81646     37.1 1.060e+04 9.267e-11
 94.83926     38.6 1.070e+04 1.081e-10
 94.87941     40.0 1.082e+04 1.498e-10
 94.91955     41.7 1.097e+04 2.192e-10
 94.95970     43.4 1.112e+04 3.085e-10
 94.98309     45.1 1.126e+04 3.949e-10
 95.00316     46.0 1.120e+04 3.456e-10
 95.03999     47.6 1.134e+04 4.578e-10
 95.08014     49.2 1.155e+04 5.668e-10
 95.12029     50.1 1.165e+04 5.871e-10
 95.14972     50.5 1.158e+04 5.622e-10
 95.15966     51.2 1.162e+04 5.902e-10
 95.17028     51.3 1.155e+04 5.708e-10
 95.19035     51.8 1.142e+04 5.292e-10
 95.21042     51.9 1.139e+04 5.173e-10
 95.23050     52.2 1.129e+04 5.058e-10
 95.24288     52.4 1.128e+04 5.044e-10
 95.25292     52.6 1.130e+04 5.077e-10
 95.27064     52.8 1.129e+04 5.181e-10
 95.29072     52.9 1.129e+04 5.214e-10
 95.31079     53.2 1.120e+04 5.340e-10
 95.32620     53.3 1.118e+04 5.375e-10
 95.33624     53.9 1.119e+04 5.325e-10
 95.35094     54.4 1.111e+04 5.359e-10
 95.37101     54.5 1.110e+04 5.338e-10
 95.40122     55.1 1.104e+04 5.549e-10
 95.44146     55.8 1.091e+04 5.138e-10
 95.48066     56.7 1.073e+04 4.297e-10
 95.50074     57.3 1.077e+04 4.435e-10
 95.50306     58.3 1.067e+04 4.041e-10
 95.52314     59.0 1.098e+04 5.234e-10
 95.56190     60.0 1.088e+04 4.612e-10
 95.60205     61.0 1.080e+04 4.304e-10
 95.64220     62.1 1.084e+04 4.351e-10
 95.66970     63.1 1.090e+04 4.706e-10
 95.68977     62.5 1.105e+04 5.316e-10
 95.72249     63.3 1.109e+04 6.300e-10
 95.76264     63.9 1.117e+04 7.101e-10
 95.80278     64.5 1.114e+04 6.945e-10
 95.83633     65.1 1.088e+04 6.111e-10
 95.85640     63.6 1.103e+04 6.116e-10
 95.88308     64.4 1.070e+04 4.980e-10
 95.92322     65.2 1.034e+04 3.975e-10
 95.96337     66.1 1.001e+04 3.228e-10
 96.00296     67.3 9.764e+03 2.774e-10
 96.02304     66.1 1.032e+04 3.949e-10
 96.04367     67.8 1.012e+04 3.238e-10
 96.08381     69.2 9.943e+03 2.739e-10
 96.12396     70.6 9.867e+03 2.546e-10
 96.16411     72.1 9.855e+03 2.571e-10
 96.18967     73.7 9.834e+03 2.755e-10
 96.20974     73.2 9.997e+03 3.430e-10
 96.24440     74.8 1.001e+04 3.560e-10
 96.28455     76.2 1.015e+04 3.914e-10
 96.32469     77.6 1.042e+04 4.447e-10
 96.34660     78.6 1.070e+04 4.957e-10
 96.35813     77.9 1.129e+04 7.521e-10
 96.37638     77.6 1.093e+04 6.139e-10
 96.39485     78.0 1.084e+04 5.933e-10
 96.41483     78.3 1.089e+04 6.448e-10
 96.43490     78.4 1.104e+04 7.530e-10
 96.44946     78.4 1.118e+04 8.640e-10
 96.45950     78.3 1.115e+04 8.368e-10
 96.47505     78.2 1.124e+04 9.501e-10
 96.49512     78.2 1.131e+04 1.060e-09
 96.51520     78.3 1.135e+04 1.156e-09
 96.53278     78.4 1.134e+04 1.213e-09
 96.54282     78.2 1.141e+04 1.211e-09
 96.55534     78.5 1.136e+04 1.238e-09
 96.57542     78.9 1.127e+04 1.208e-09
 96.59549     79.2 1.111e+04 1.135e-09
 96.61556     79.5 1.092e+04 1.029e-09
 96.62613     79.8 1.068e+04 8.942e-10
 96.63617     79.4 1.082e+04 9.354e-10
 96.65571     79.5 1.057e+04 7.969e-10
 96.67578     79.4 1.033e+04 6.843e-10
 96.69586     79.2 1.022e+04 6.511e-10
 96.70945     79.0 1.024e+04 6.552e-10
 96.71949     78.8 1.026e+04 7.161e-10
 96.73600     78.6 1.031e+04 7.348e-10
 96.75608     78.2 1.053e+04 8.254e-10
 96.76933     77.6 1.093e+04 1.023e-09
 96.77937     77.7 1.075e+04 9.164e-10
 96.79277     77.1 1.123e+04 1.228e-09
 96.80280     77.6 1.102e+04 1.087e-09
 96.81630     77.1 1.144e+04 1.383e-09
 96.83637     76.5 1.166e+04 1.599e-09
 96.85644     75.7 1.166e+04 1.605e-09
 96.87608     74.6 1.156e+04 1.536e-09
 96.88612     75.0 1.157e+04 1.512e-09
 96.89659     73.5 1.150e+04 1.444e-09
 96.91667     71.5 1.143e+04 1.324e-09
 96.93674     68.9 1.137e+04 1.238e-09
 96.95681     66.2 1.131e+04 1.214e-09
 96.96944     64.0 1.124e+04 1.211e-09
 96.97947     63.9 1.159e+04 1.414e-09
 96.99696     62.0 1.136e+04 1.264e-09
 97.01703     60.4 1.117e+04 1.062e-09
 97.03711     58.8 1.105e+04 8.375e-10
 97.05275     57.1 1.099e+04 6.270e-10
 97.06279     54.8 1.092e+04 4.713e-10
 97.07725     52.8 1.023e+04 3.772e-10
 97.09733     51.6 9.990e+03 3.773e-10
 97.11740     50.5 1.020e+04 4.043e-10
 97.13607     49.1 1.109e+04 5.342e-10
 97.14611     45.0 1.321e+04 1.279e-09
 97.15755     44.2 1.352e+04 2.080e-09
 97.17762     44.1 1.378e+04 3.368e-09
 97.19226     44.8 1.429e+04 5.244e-09
 97.20230     44.5 1.454e+04 4.789e-09
 97.21777     44.9 1.537e+04 7.888e-09
 97.22942     44.7 1.684e+04 1.278e-08
 97.23946     43.7 1.777e+04 1.232e-08
 97.25285     42.3 1.890e+04 1.383e-08
 97.26283     38.8 2.128e+04 1.951e-08
 97.27098     35.3 2.277e+04 3.009e-08
 97.27600     35.4 2.276e+04 2.236e-08
 97.28291     32.9 2.283e+04 3.025e-08
 97.29294     31.5 2.172e+04 3.404e-08
 97.30298     30.5 2.135e+04 3.308e-08
 97.31264     29.9 2.091e+04 2.744e-08
 97.31766     28.0 1.827e+04 1.901e-08
 97.32305     27.6 1.831e+04 1.523e-08
 97.33816     25.8 1.812e+04 9.076e-09
 97.35828     21.7 1.705e+04 3.785e-09
 97.37835     16.5 1.406e+04 1.852e-09
 97.39606     15.3 1.222e+04 1.297e-09
 97.40609     15.1 1.224e+04 1.375e-09
 97.41850     15.5 1.144e+04 1.072e-09
 97.43857     16.8 1.105e+04 8.289e-10
 97.45865     18.2 1.089e+04 6.222e-10
 97.47872     18.9 1.092e+04 4.134e-10
 97.48941     19.0 1.094e+04 3.487e-10
 97.49945     18.9 1.086e+04 3.137e-10
 97.52900     19.8 1.062e+04 2.784e-10
 97.56288     21.6 1.031e+04 2.453e-10
 97.58296     21.6 1.007e+04 1.795e-10
 97.60939     24.0 9.915e+03 1.738e-10
 97.64954     26.5 9.837e+03 1.675e-10
 97.68969     28.8 9.812e+03 1.591e-10
 97.72952     31.0 9.803e+03 1.563e-10
 97.74959     31.4 9.703e+03 1.388e-10
 97.76998     33.4 9.727e+03 1.491e-10
 97.81013     35.4 9.771e+03 1.800e-10
 97.85028     37.4 9.892e+03 2.359e-10
 97.89042     39.4 1.008e+04 3.004e-10
 97.91622     41.1 1.017e+04 3.167e-10
 97.93630     41.6 1.007e+04 2.434e-10
 97.97072     43.2 1.004e+04 2.402e-10
 98.01086     44.9 9.916e+03 2.165e-10
 98.03831     46.7 9.794e+03 1.756e-10
 98.05839     46.5 9.816e+03 1.658e-10
 98.08286     48.3 9.735e+03 1.330e-10
 98.10293     48.9 9.667e+03 1.311e-10
 98.13130     50.7 9.577e+03 1.021e-10
 98.17145     52.3 9.480e+03 8.510e-11
 98.21160     54.1 9.337e+03 7.963e-11
 98.24949     56.0 9.262e+03 7.935e-11
 98.26956     56.7 9.205e+03 8.776e-11
 98.29189     58.7 9.183e+03 8.887e-11
 98.33204     60.8 9.159e+03 9.266e-11
 98.37219     62.8 9.188e+03 9.808e-11
 98.41233     64.7 9.273e+03 1.047e-10
 98.43620     66.6 9.401e+03 1.148e-10
 98.45627     67.2 9.351e+03 1.240e-10
 98.49263     68.9 9.456e+03 1.371e-10
 98.53277     70.5 9.563e+03 1.515e-10
 98.57292     72.0 9.678e+03 1.644e-10
 98.60283     73.4 9.778e+03 1.728e-10
 98.62290     73.9 9.747e+03 1.649e-10
 98.65321     75.2 9.794e+03 1.599e-10
 98.69336     76.5 9.844e+03 1.501e-10
 98.73351     77.9 9.868e+03 1.466e-10
 98.76946     79.4 9.891e+03 1.491e-10
 98.78954     79.8 9.906e+03 1.310e-10
 98.81380     81.2 1.001e+04 1.370e-10
 98.85395     82.4 1.024e+04 1.638e-10
 98.88417     83.4 1.054e+04 2.216e-10
 98.90425     83.5 1.035e+04 1.749e-10
 98.93424     84.4 1.064e+04 2.480e-10
 98.95617     85.2 1.090e+04 3.432e-10
 98.97624     85.4 1.089e+04 3.659e-10
 99.01454     86.1 1.095e+04 4.444e-10
 99.05468     86.5 1.093e+04 4.500e-10
 99.09483     87.0 1.081e+04 4.181e-10
 99.12280     87.7 1.057e+04 3.219e-10
 99.14288     87.9 1.081e+04 3.579e-10
 99.17512     88.7 1.047e+04 2.338e-10
 99.21527     89.6 1.016e+04 1.796e-10
 99.25542     91.1 1.010e+04 1.779e-10
 99.28944     93.0 1.009e+04 1.835e-10
 99.30951     92.7 1.022e+04 1.987e-10
 99.33571     94.6 1.026e+04 2.248e-10
 99.37586     96.5 1.049e+04 2.779e-10
 99.41600     98.2 1.083e+04 3.594e-10
 99.45607     98.9 1.106e+04 4.451e-10
 99.48608     99.3 1.110e+04 7.078e-10
 99.50614    100.3 1.135e+04 8.946e-10
 99.52621    101.2 1.166e+04 1.044e-09
 99.54629    101.9 1.196e+04 1.114e-09
 99.55926    102.3 1.218e+04 1.132e-09
 99.56930    102.0 1.217e+04 1.058e-09
 99.58643    102.2 1.230e+04 1.064e-09
 99.60651    102.2 1.242e+04 1.087e-09
 99.62658    102.0 1.259e+04 1.149e-09
 99.64258    101.8 1.280e+04 1.289e-09
 99.65262    101.6 1.264e+04 1.225e-09
 99.66673    101.5 1.284e+04 1.436e-09
 99.68680    101.3 1.311e+04 1.724e-09
 99.70687    101.1 1.344e+04 2.089e-09
 99.72590    100.8 1.375e+04 2.529e-09
 99.73593    101.5 1.325e+04 1.867e-09
 99.73987    101.2 1.365e+04 2.088e-09
 99.74991    101.2 1.344e+04 1.801e-09
 99.76709    100.9 1.367e+04 1.978e-09
 99.78717    100.4 1.377e+04 2.163e-09
 99.80724    100.2 1.377e+04 2.362e-09
 99.81925    100.2 1.369e+04 2.485e-09
 99.82929    100.3 1.327e+04 1.745e-09
 99.84739    100.4 1.323e+04 1.958e-09
 99.86746    100.4 1.317e+04 1.992e-09
 99.88754    100.6 1.304e+04 1.945e-09
 99.90257    100.8 1.267e+04 1.748e-09
 99.91260    101.2 1.264e+04 1.664e-09
 99.92768    101.6 1.235e+04 1.493e-09
 99.94776    102.3 1.193e+04 1.191e-09
 99.96783    103.2 1.145e+04 8.649e-10
 99.98588    104.0 1.108e+04 5.918e-10
 99.99592    104.4 1.116e+04 7.014e-10
100.00798    105.3 1.079e+04 4.800e-10
