# Columns:
#   distance along LOS (in CHIMPs)
#   peculiar velocity  (in km/s)
#   temperature (K)
#   HI number density
# pos=(221.5,16.6434,225.232), angles=(0.515333,4.58555)
  0.00048   -240.2 9.699e+03 2.452e-10
  0.00232   -239.6 9.702e+03 2.439e-10
  0.02495   -239.4 9.685e+03 2.438e-10
  0.04740   -238.4 9.712e+03 2.456e-10
  0.07102   -238.3 9.634e+03 2.322e-10
  0.10980   -238.3 9.476e+03 2.101e-10
  0.13225   -237.5 9.734e+03 2.580e-10
  0.16080   -237.7 9.581e+03 2.347e-10
  0.19464   -237.8 9.473e+03 2.185e-10
  0.21709   -237.6 9.881e+03 3.120e-10
  0.25059   -238.0 9.827e+03 3.030e-10
  0.27949   -237.9 9.750e+03 2.993e-10
  0.30194   -239.4 1.019e+04 4.656e-10
  0.32181   -240.6 9.120e+03 4.939e-10
  0.33294   -242.6 9.436e+03 6.341e-10
  0.35140   -248.0 1.184e+04 1.065e-09
  0.36414   -254.7 1.681e+04 2.317e-09
  0.37536   -257.2 1.798e+04 3.808e-09
  0.39534   -263.6 2.074e+04 1.071e-08
  0.40656   -264.9 2.040e+04 1.199e-08
  0.41874   -270.0 2.118e+04 2.120e-08
  0.43553   -273.5 2.097e+04 2.303e-08
  0.44327   -275.5 2.096e+04 2.354e-08
  0.44893   -275.5 2.056e+04 2.079e-08
  0.46363   -279.4 1.975e+04 1.957e-08
  0.48013   -281.5 1.804e+04 1.298e-08
  0.49136   -282.2 1.722e+04 9.602e-09
  0.50853   -284.2 1.533e+04 4.816e-09
  0.52261   -285.8 1.357e+04 2.401e-09
  0.53383   -286.1 1.253e+04 1.507e-09
  0.55342   -287.3 1.123e+04 8.343e-10
  0.56503   -287.6 1.073e+04 5.557e-10
  0.57625   -287.3 1.044e+04 4.244e-10
  0.59623   -287.1 1.037e+04 3.384e-10
  0.61646   -286.6 1.027e+04 2.886e-10
  0.62977   -286.3 1.029e+04 3.039e-10
  0.65453   -286.2 1.022e+04 2.754e-10
  0.68127   -285.8 1.005e+04 2.240e-10
  0.70371   -285.3 9.785e+03 1.800e-10
  0.74367   -284.8 9.718e+03 1.625e-10
  0.76611   -283.9 9.654e+03 1.482e-10
  0.78930   -283.2 9.668e+03 1.480e-10
  0.82851   -282.6 9.844e+03 1.686e-10
  0.85096   -281.4 9.847e+03 1.671e-10
  0.87909   -280.8 1.003e+04 2.057e-10
  0.91336   -280.3 1.013e+04 2.381e-10
  0.93580   -279.0 1.016e+04 2.389e-10
  0.96887   -278.5 1.017e+04 2.493e-10
  0.99820   -278.0 1.016e+04 2.493e-10
  1.02065   -276.7 1.027e+04 2.568e-10
  1.05866   -276.0 1.015e+04 2.333e-10
  1.08305   -274.9 1.000e+04 1.950e-10
  1.10549   -273.7 1.021e+04 2.368e-10
  1.14544   -272.5 1.010e+04 2.007e-10
  1.16789   -271.5 1.044e+04 3.128e-10
  1.19334   -270.4 1.041e+04 2.865e-10
  1.23029   -269.3 1.045e+04 2.762e-10
  1.24946   -268.4 1.078e+04 4.314e-10
  1.25740   -267.8 1.086e+04 4.819e-10
  1.28312   -267.0 1.090e+04 4.630e-10
  1.31513   -266.5 1.094e+04 4.434e-10
  1.33758   -265.7 1.124e+04 6.224e-10
  1.37291   -265.5 1.123e+04 5.611e-10
  1.39998   -265.3 1.110e+04 4.623e-10
  1.42243   -264.5 1.134e+04 6.032e-10
  1.46238   -264.3 1.107e+04 4.487e-10
  1.48482   -263.3 1.130e+04 5.704e-10
  1.50759   -262.7 1.097e+04 3.891e-10
  1.54722   -261.7 1.061e+04 2.544e-10
  1.56967   -260.5 1.093e+04 3.367e-10
  1.59737   -259.4 1.060e+04 2.189e-10
  1.63207   -258.1 1.042e+04 1.569e-10
  1.65451   -257.0 1.068e+04 2.108e-10
  1.68716   -255.6 1.049e+04 1.548e-10
  1.71691   -254.1 1.042e+04 1.322e-10
  1.73936   -253.1 1.060e+04 1.697e-10
  1.77694   -251.4 1.055e+04 1.420e-10
  1.80176   -249.6 1.055e+04 1.349e-10
  1.82420   -248.6 1.069e+04 1.791e-10
  1.86250   -246.7 1.073e+04 1.679e-10
  1.88237   -246.3 1.075e+04 1.663e-10
  1.88660   -245.2 1.087e+04 2.493e-10
  1.91162   -243.4 1.093e+04 2.412e-10
  1.94900   -241.9 1.098e+04 2.380e-10
  1.97145   -240.7 1.127e+04 3.916e-10
  2.00141   -239.6 1.146e+04 3.894e-10
  2.03385   -238.8 1.157e+04 3.821e-10
  2.05629   -237.5 1.186e+04 6.966e-10
  2.09119   -236.9 1.190e+04 6.610e-10
  2.11869   -236.4 1.187e+04 5.990e-10
  2.14114   -235.0 1.231e+04 1.064e-09
  2.18098   -234.6 1.218e+04 9.277e-10
  2.22587   -232.8 1.258e+04 1.337e-09
  2.26593   -232.7 1.241e+04 1.170e-09
  2.28838   -231.5 1.300e+04 1.757e-09
  2.31566   -231.6 1.282e+04 1.528e-09
  2.35078   -232.2 1.251e+04 1.312e-09
  2.37313   -230.6 1.279e+04 1.490e-09
  2.39301   -231.0 1.266e+04 1.397e-09
  2.40423   -230.7 1.285e+04 1.476e-09
  2.41647   -231.2 1.254e+04 1.309e-09
  2.43543   -231.7 1.217e+04 1.141e-09
  2.44665   -230.8 1.255e+04 1.309e-09
  2.46136   -231.1 1.224e+04 1.121e-09
  2.47785   -231.1 1.203e+04 1.014e-09
  2.48907   -230.7 1.219e+04 1.065e-09
  2.50107   -230.8 1.204e+04 9.877e-10
  2.51229   -230.4 1.199e+04 1.074e-09
  2.52027   -230.4 1.191e+04 1.036e-09
  2.53150   -229.8 1.215e+04 1.150e-09
  2.55115   -229.7 1.207e+04 1.121e-09
  2.56270   -229.6 1.199e+04 1.078e-09
  2.57392   -229.1 1.213e+04 1.188e-09
  2.59390   -228.9 1.204e+04 1.117e-09
  2.60512   -228.3 1.219e+04 1.226e-09
  2.61849   -228.1 1.211e+04 1.123e-09
  2.63632   -228.0 1.201e+04 1.010e-09
  2.64754   -227.5 1.211e+04 1.057e-09
  2.66338   -227.5 1.198e+04 9.316e-10
  2.67874   -227.5 1.181e+04 8.130e-10
  2.68996   -226.9 1.193e+04 8.426e-10
  2.70827   -226.9 1.175e+04 7.384e-10
  2.72116   -226.8 1.156e+04 6.543e-10
  2.73239   -226.2 1.169e+04 6.817e-10
  2.75236   -226.1 1.151e+04 6.186e-10
  2.76359   -225.5 1.168e+04 6.642e-10
  2.77561   -225.2 1.152e+04 6.111e-10
  2.79478   -224.8 1.136e+04 5.645e-10
  2.80601   -224.4 1.147e+04 5.988e-10
  2.81484   -224.1 1.131e+04 5.414e-10
  2.82606   -224.0 1.131e+04 5.448e-10
  2.83731   -223.8 1.106e+04 4.627e-10
  2.85985   -222.5 1.128e+04 5.322e-10
  2.89926   -221.7 1.097e+04 4.241e-10
  2.92225   -221.2 1.068e+04 3.170e-10
  2.94469   -219.9 1.091e+04 3.886e-10
  2.98465   -219.6 1.069e+04 3.025e-10
  3.00709   -218.7 1.098e+04 4.136e-10
  3.03394   -218.7 1.083e+04 3.437e-10
  3.06949   -218.5 1.078e+04 3.047e-10
  3.09194   -218.0 1.116e+04 4.851e-10
  3.11758   -217.4 1.100e+04 4.049e-10
  3.14003   -216.9 1.076e+04 3.151e-10
  3.15434   -216.0 1.068e+04 2.695e-10
  3.17678   -215.3 1.085e+04 3.556e-10
  3.21351   -214.1 1.075e+04 2.925e-10
  3.23918   -212.9 1.074e+04 2.611e-10
  3.26163   -211.9 1.083e+04 3.115e-10
  3.30158   -210.6 1.081e+04 2.707e-10
  3.32403   -209.4 1.090e+04 3.212e-10
  3.34819   -208.0 1.087e+04 2.684e-10
  3.38642   -206.7 1.089e+04 2.283e-10
  3.40887   -205.4 1.096e+04 2.475e-10
  3.43798   -204.2 1.095e+04 2.094e-10
  3.47127   -203.0 1.096e+04 1.826e-10
  3.49372   -201.8 1.101e+04 2.066e-10
  3.52776   -200.7 1.101e+04 1.835e-10
  3.55611   -199.6 1.099e+04 1.646e-10
  3.57856   -198.4 1.102e+04 1.884e-10
  3.61755   -197.3 1.095e+04 1.676e-10
  3.64096   -196.2 1.087e+04 1.530e-10
  3.66341   -195.0 1.090e+04 1.668e-10
  3.70336   -193.8 1.085e+04 1.552e-10
  3.72580   -192.6 1.090e+04 1.656e-10
  3.74512   -191.6 1.086e+04 1.567e-10
  3.76757   -191.3 1.083e+04 1.395e-10
  3.78820   -190.2 1.082e+04 1.381e-10
  3.81065   -189.2 1.085e+04 1.420e-10
  3.84201   -188.2 1.082e+04 1.344e-10
  3.87305   -187.3 1.079e+04 1.239e-10
  3.89549   -186.4 1.078e+04 1.213e-10
  3.93180   -185.6 1.072e+04 1.067e-10
  3.95789   -184.7 1.067e+04 9.431e-11
  3.98034   -183.7 1.066e+04 9.284e-11
  4.02029   -182.7 1.062e+04 8.402e-11
  4.04274   -181.6 1.068e+04 8.505e-11
  4.06648   -180.5 1.062e+04 7.738e-11
  4.10514   -179.3 1.060e+04 7.204e-11
  4.12758   -178.0 1.062e+04 7.313e-11
  4.15626   -176.7 1.059e+04 6.595e-11
  4.18998   -175.5 1.058e+04 6.041e-11
  4.21243   -174.1 1.059e+04 6.011e-11
  4.24605   -172.8 1.058e+04 5.446e-11
  4.27483   -171.5 1.058e+04 5.097e-11
  4.29727   -170.1 1.059e+04 5.071e-11
  4.33583   -168.8 1.058e+04 4.836e-11
  4.35967   -167.4 1.058e+04 4.808e-11
  4.37406   -166.0 1.059e+04 4.963e-11
  4.39511   -165.6 1.059e+04 4.738e-11
  4.42207   -164.2 1.059e+04 4.690e-11
  4.44452   -162.8 1.053e+04 5.380e-11
  4.47051   -161.4 1.054e+04 5.387e-11
  4.50691   -160.3 1.061e+04 5.461e-11
  4.52936   -158.9 1.054e+04 6.496e-11
  4.56030   -158.2 1.081e+04 7.956e-11
  4.59176   -157.6 1.090e+04 1.304e-10
  4.61421   -156.4 1.105e+04 1.725e-10
  4.65008   -155.7 1.118e+04 2.874e-10
  4.67660   -155.1 1.133e+04 4.202e-10
  4.69905   -154.0 1.148e+04 4.906e-10
  4.73900   -153.4 1.153e+04 5.773e-10
  4.76145   -152.4 1.148e+04 5.579e-10
  4.78476   -151.7 1.146e+04 5.644e-10
  4.82385   -150.8 1.130e+04 5.240e-10
  4.84629   -149.4 1.115e+04 3.830e-10
  4.87455   -148.5 1.109e+04 3.221e-10
  4.90869   -147.5 1.107e+04 2.712e-10
  4.93114   -146.5 1.108e+04 2.178e-10
  4.96433   -145.6 1.108e+04 2.017e-10
  4.99354   -144.5 1.107e+04 1.924e-10
  5.00697   -143.4 1.106e+04 1.960e-10
  5.02265   -142.7 1.100e+04 1.650e-10
  5.05412   -141.6 1.100e+04 1.638e-10
  5.07838   -140.7 1.105e+04 1.653e-10
  5.10083   -140.0 1.117e+04 2.152e-10
  5.14078   -139.3 1.126e+04 2.578e-10
  5.16323   -138.4 1.135e+04 4.090e-10
  5.18880   -137.5 1.142e+04 4.970e-10
  5.22563   -136.7 1.148e+04 5.710e-10
  5.24807   -135.5 1.151e+04 6.795e-10
  5.27858   -134.6 1.151e+04 6.785e-10
  5.31047   -133.7 1.146e+04 6.635e-10
  5.33292   -132.4 1.146e+04 6.070e-10
  5.36837   -131.6 1.144e+04 5.610e-10
  5.39532   -130.9 1.144e+04 5.152e-10
  5.41776   -130.2 1.147e+04 4.600e-10
  5.45772   -129.8 1.155e+04 4.774e-10
  5.48016   -129.2 1.154e+04 4.712e-10
  5.50305   -128.9 1.164e+04 5.911e-10
  5.54256   -128.7 1.174e+04 7.533e-10
  5.56501   -127.6 1.162e+04 6.403e-10
  5.59283   -127.5 1.173e+04 7.851e-10
  5.62741   -127.5 1.189e+04 9.590e-10
  5.63988   -126.7 1.167e+04 5.939e-10
  5.65019   -125.8 1.160e+04 5.947e-10
  5.68262   -126.2 1.167e+04 6.922e-10
  5.71225   -126.7 1.164e+04 7.692e-10
  5.73470   -126.3 1.138e+04 5.582e-10
  5.77240   -126.6 1.128e+04 5.828e-10
  5.79710   -126.6 1.120e+04 5.829e-10
  5.81954   -125.8 1.093e+04 4.240e-10
  5.85949   -125.7 1.071e+04 4.130e-10
  5.88194   -124.8 1.051e+04 2.918e-10
  5.90708   -124.6 1.041e+04 2.857e-10
  5.94434   -124.4 1.033e+04 2.832e-10
  5.96678   -123.3 1.015e+04 2.175e-10
  5.99687   -123.0 1.005e+04 2.326e-10
  6.02918   -122.6 9.973e+03 2.394e-10
  6.05163   -121.2 9.820e+03 1.914e-10
  6.08665   -120.7 9.769e+03 1.952e-10
  6.11403   -120.1 9.658e+03 1.942e-10
  6.13647   -118.4 9.635e+03 1.530e-10
  6.17643   -117.6 9.493e+03 1.518e-10
  6.22132   -115.1 9.418e+03 1.199e-10
  6.25529   -114.1 9.305e+03 1.151e-10
  6.27278   -113.2 9.377e+03 1.035e-10
  6.28372   -111.6 9.462e+03 9.610e-11
  6.31112   -110.6 9.392e+03 9.696e-11
  6.34612   -109.5 9.359e+03 9.693e-11
  6.36856   -107.9 9.388e+03 1.001e-10
  6.40090   -106.7 9.380e+03 1.006e-10
  6.43096   -105.7 9.415e+03 1.018e-10
  6.45341   -103.9 9.392e+03 1.032e-10
  6.49069   -102.9 9.496e+03 1.049e-10
  6.51581   -102.1 9.612e+03 1.212e-10
  6.53825   -100.2 9.592e+03 1.061e-10
  6.57821    -99.6 9.671e+03 1.324e-10
  6.60065    -97.8 9.680e+03 1.095e-10
  6.62537    -97.3 9.714e+03 1.444e-10
  6.66305    -96.8 9.722e+03 1.808e-10
  6.68550    -95.1 9.750e+03 1.610e-10
  6.71515    -94.7 9.743e+03 2.020e-10
  6.74790    -94.1 9.747e+03 2.312e-10
  6.77034    -92.6 9.821e+03 2.459e-10
  6.80494    -92.1 9.843e+03 2.749e-10
  6.83274    -91.5 9.834e+03 2.831e-10
  6.85519    -90.1 9.953e+03 3.113e-10
  6.88283    -89.6 9.939e+03 3.100e-10
  6.90528    -89.4 1.002e+04 3.155e-10
  6.91759    -88.7 9.882e+03 2.924e-10
  6.94003    -87.5 9.935e+03 2.935e-10
  6.97998    -86.6 9.811e+03 2.543e-10
  7.00243    -85.3 9.841e+03 2.486e-10
  7.02940    -84.4 9.757e+03 2.128e-10
  7.06483    -83.4 9.718e+03 1.862e-10
  7.08728    -82.1 9.734e+03 1.697e-10
  7.11919    -81.2 9.727e+03 1.454e-10
  7.14967    -80.3 9.740e+03 1.276e-10
  7.17212    -78.9 9.775e+03 1.083e-10
  7.20897    -78.0 9.788e+03 9.586e-11
  7.23452    -77.0 9.793e+03 9.149e-11
  7.25697    -75.5 9.793e+03 7.813e-11
  7.29692    -74.4 9.798e+03 7.692e-11
  7.31936    -72.8 9.765e+03 7.110e-11
  7.34365    -71.6 9.782e+03 7.051e-11
  7.38176    -70.3 9.856e+03 7.332e-11
  7.40421    -68.5 9.808e+03 6.876e-11
  7.43344    -67.1 9.885e+03 7.019e-11
  7.46661    -65.7 9.931e+03 7.182e-11
  7.48905    -63.8 9.922e+03 6.501e-11
  7.51037    -62.2 9.976e+03 6.260e-11
  7.53282    -62.1 9.998e+03 6.054e-11
  7.55145    -60.5 1.002e+04 5.858e-11
  7.57390    -58.6 1.002e+04 5.371e-11
  7.61301    -56.9 1.005e+04 5.065e-11
  7.63630    -55.2 1.004e+04 4.858e-11
  7.65874    -53.3 1.004e+04 4.848e-11
  7.69870    -51.5 1.004e+04 4.753e-11
  7.72114    -49.7 1.006e+04 4.967e-11
  7.74769    -48.0 1.006e+04 5.115e-11
  7.78354    -46.3 1.004e+04 5.468e-11
  7.80599    -44.5 1.004e+04 6.431e-11
  7.83747    -42.8 1.001e+04 7.086e-11
  7.86839    -40.9 1.001e+04 7.835e-11
  7.89083    -39.0 1.002e+04 8.843e-11
  7.92726    -37.1 1.003e+04 9.423e-11
  7.95323    -35.3 1.008e+04 1.005e-10
  7.97568    -33.3 1.007e+04 9.815e-11
  8.01563    -31.5 1.011e+04 1.006e-10
  8.03808    -29.6 1.007e+04 9.289e-11
  8.06194    -27.9 1.013e+04 9.355e-11
  8.10047    -26.2 1.025e+04 9.956e-11
  8.12292    -24.2 1.017e+04 8.971e-11
  8.13791    -22.8 1.033e+04 1.071e-10
  8.16036    -22.9 1.026e+04 1.205e-10
  8.18532    -21.5 1.039e+04 1.594e-10
  8.20777    -19.6 1.039e+04 1.809e-10
  8.24151    -18.4 1.064e+04 2.795e-10
  8.27016    -17.5 1.108e+04 4.708e-10
  8.29261    -15.4 1.123e+04 5.818e-10
  8.33129    -14.5 1.190e+04 1.018e-09
  8.35501    -13.8 1.260e+04 1.601e-09
  8.37746    -11.9 1.269e+04 1.731e-09
  8.41741    -11.9 1.312e+04 2.136e-09
  8.43985    -10.1 1.309e+04 2.113e-09
  8.46597    -11.0 1.317e+04 2.163e-09
  8.50225    -12.0 1.293e+04 1.890e-09
  8.52470    -10.0 1.286e+04 1.845e-09
  8.55576    -10.6 1.258e+04 1.591e-09
  8.58710    -11.1 1.247e+04 1.529e-09
  8.60954     -9.1 1.209e+04 1.228e-09
  8.64554     -9.5 1.189e+04 1.158e-09
  8.67194     -9.6 1.161e+04 1.038e-09
  8.69439     -8.0 1.126e+04 8.055e-10
  8.73434     -7.9 1.098e+04 6.798e-10
  8.75679     -6.3 1.076e+04 5.713e-10
  8.76546     -6.3 1.055e+04 4.985e-10
  8.78790     -6.5 1.037e+04 4.154e-10
  8.81919     -6.3 1.034e+04 4.199e-10
  8.84163     -4.8 1.034e+04 4.198e-10
  8.87001     -5.0 1.035e+04 4.188e-10
  8.90403     -5.6 1.052e+04 4.458e-10
  8.92648     -4.9 1.056e+04 4.740e-10
  8.94636     -6.2 1.078e+04 5.585e-10
  8.95748     -6.0 1.079e+04 5.923e-10
  8.97082     -6.6 1.091e+04 7.153e-10
  8.98868     -6.9 1.096e+04 7.784e-10
  8.99990     -6.7 1.092e+04 7.587e-10
  9.01571     -7.2 1.094e+04 7.618e-10
  9.03110     -7.9 1.096e+04 7.245e-10
  9.04233     -8.0 1.091e+04 6.957e-10
  9.06060     -9.7 1.094e+04 6.905e-10
  9.07353    -13.4 1.148e+04 7.360e-10
  9.08073    -14.3 1.131e+04 8.014e-10
  9.09025    -12.8 1.134e+04 7.829e-10
  9.10472    -18.0 1.259e+04 1.530e-09
  9.11595    -18.7 1.328e+04 1.929e-09
  9.12794    -23.1 1.608e+04 4.859e-09
  9.14715    -27.1 1.833e+04 9.986e-09
  9.15837    -27.4 1.800e+04 9.719e-09
  9.17284    -31.9 1.903e+04 1.294e-08
  9.18957    -36.7 1.917e+04 1.345e-08
  9.20079    -37.2 1.850e+04 1.199e-08
  9.21773    -41.2 1.749e+04 8.570e-09
  9.23199    -44.9 1.547e+04 4.480e-09
  9.24322    -44.5 1.502e+04 3.997e-09
  9.26262    -47.2 1.319e+04 2.255e-09
  9.27441    -48.7 1.219e+04 1.575e-09
  9.28564    -48.0 1.210e+04 1.459e-09
  9.30561    -48.6 1.180e+04 1.209e-09
  9.31684    -47.9 1.167e+04 1.083e-09
  9.32996    -48.1 1.158e+04 9.660e-10
  9.34804    -48.2 1.156e+04 9.253e-10
  9.35926    -47.7 1.135e+04 7.719e-10
  9.37485    -47.9 1.131e+04 7.535e-10
  9.39046    -48.1 1.130e+04 7.528e-10
  9.39718    -47.6 1.099e+04 6.152e-10
  9.40402    -46.1 1.107e+04 5.806e-10
  9.41975    -46.5 1.105e+04 5.765e-10
  9.43288    -46.7 1.102e+04 5.882e-10
  9.44410    -46.4 1.077e+04 4.843e-10
  9.46408    -46.6 1.069e+04 4.999e-10
  9.47530    -46.3 1.051e+04 4.227e-10
  9.49841    -46.5 1.050e+04 4.439e-10
  9.53790    -46.3 1.037e+04 4.507e-10
  9.56034    -45.3 1.008e+04 3.657e-10
  9.58829    -45.5 9.993e+03 3.743e-10
  9.62274    -45.5 9.899e+03 3.710e-10
  9.64519    -44.8 9.816e+03 3.645e-10
  9.67808    -44.6 9.867e+03 3.889e-10
  9.70759    -44.1 9.926e+03 4.046e-10
  9.73003    -43.5 1.012e+04 4.860e-10
  9.76786    -42.9 1.028e+04 5.184e-10
  9.79243    -42.0 1.036e+04 5.271e-10
  9.80356    -41.7 1.050e+04 6.002e-10
  9.82344    -41.6 1.049e+04 6.016e-10
  9.83466    -41.5 1.063e+04 6.924e-10
  9.84623    -41.0 1.049e+04 6.704e-10
  9.86586    -40.5 1.042e+04 5.866e-10
  9.87708    -40.0 1.046e+04 6.773e-10
  9.90244    -39.6 1.046e+04 4.831e-10
  9.93968    -39.3 1.033e+04 3.760e-10
  9.96212    -39.1 1.032e+04 3.538e-10
  9.99233    -38.2 9.946e+03 2.404e-10
 10.02054    -37.0 9.594e+03 1.633e-10
 10.03029    -36.3 9.997e+03 2.310e-10
 10.04697    -36.0 9.926e+03 2.096e-10
 10.08211    -34.8 9.598e+03 1.508e-10
 10.10937    -33.5 9.432e+03 1.219e-10
 10.13181    -33.0 9.476e+03 1.321e-10
 10.17176    -31.7 9.446e+03 1.275e-10
 10.21666    -30.1 9.642e+03 1.686e-10
 10.25661    -28.9 9.781e+03 2.052e-10
 10.27906    -28.5 1.014e+04 2.895e-10
 10.30657    -27.2 1.034e+04 3.537e-10
 10.34145    -26.1 1.042e+04 3.890e-10
 10.36380    -26.1 1.054e+04 4.485e-10
 10.38368    -25.3 1.054e+04 4.533e-10
 10.39490    -25.7 1.065e+04 5.222e-10
 10.40739    -25.0 1.060e+04 4.723e-10
 10.42620    -24.3 1.058e+04 4.154e-10
 10.43743    -24.7 1.067e+04 4.526e-10
 10.45228    -24.3 1.062e+04 4.095e-10
 10.48605    -24.1 1.065e+04 3.672e-10
 10.51114    -23.5 1.073e+04 3.321e-10
 10.52227    -24.4 1.084e+04 3.696e-10
 10.54207    -24.2 1.086e+04 3.666e-10
 10.56451    -25.1 1.108e+04 4.585e-10
 10.58457    -24.9 1.108e+04 4.724e-10
 10.59579    -25.7 1.132e+04 6.403e-10
 10.60941    -25.5 1.131e+04 6.619e-10
 10.62699    -25.2 1.131e+04 6.808e-10
 10.63822    -25.7 1.155e+04 8.720e-10
 10.64788    -25.3 1.155e+04 8.584e-10
 10.65911    -25.5 1.219e+04 1.339e-09
 10.66942    -25.1 1.215e+04 1.279e-09
 10.68064    -25.7 1.227e+04 1.310e-09
 10.69919    -25.4 1.207e+04 1.139e-09
 10.71184    -25.1 1.187e+04 9.813e-10
 10.72306    -25.8 1.181e+04 9.321e-10
 10.74304    -25.5 1.162e+04 7.924e-10
 10.75426    -26.2 1.163e+04 7.800e-10
 10.76653    -25.9 1.150e+04 6.958e-10
 10.78546    -25.6 1.140e+04 6.338e-10
 10.79668    -26.3 1.145e+04 6.737e-10
 10.81142    -25.9 1.136e+04 6.425e-10
 10.82788    -25.4 1.126e+04 6.101e-10
 10.83911    -25.9 1.127e+04 6.994e-10
 10.85632    -25.4 1.117e+04 6.458e-10
 10.87031    -24.9 1.109e+04 5.800e-10
 10.88153    -25.4 1.114e+04 6.081e-10
 10.90121    -25.2 1.102e+04 5.255e-10
 10.91283    -24.6 1.089e+04 4.537e-10
 10.93537    -25.3 1.084e+04 4.541e-10
 10.97532    -24.1 1.066e+04 3.996e-10
 10.99777    -24.9 1.059e+04 3.925e-10
 11.02486    -23.8 1.059e+04 3.877e-10
 11.06017    -22.9 1.082e+04 4.520e-10
 11.08261    -23.6 1.077e+04 4.675e-10
 11.11465    -22.6 1.106e+04 5.989e-10
 11.14501    -21.6 1.130e+04 7.350e-10
 11.16746    -22.0 1.119e+04 7.085e-10
 11.20443    -21.1 1.129e+04 7.850e-10
 11.22986    -20.5 1.130e+04 8.122e-10
 11.25230    -20.8 1.107e+04 6.941e-10
 11.27562    -20.4 1.110e+04 7.343e-10
 11.29611    -20.0 1.102e+04 5.999e-10
 11.31470    -20.5 1.089e+04 5.523e-10
 11.33911    -20.2 1.117e+04 7.392e-10
 11.37710    -19.8 1.144e+04 9.916e-10
 11.39955    -20.4 1.151e+04 1.027e-09
 11.42889    -20.2 1.169e+04 1.254e-09
 11.46194    -20.0 1.175e+04 1.348e-09
 11.48439    -20.8 1.155e+04 1.181e-09
 11.51868    -20.2 1.130e+04 1.077e-09
 11.54679    -19.4 1.094e+04 8.558e-10
 11.56924    -19.9 1.049e+04 5.373e-10
 11.60847    -19.1 1.021e+04 4.314e-10
 11.63163    -18.3 1.007e+04 3.875e-10
 11.65408    -19.0 9.866e+03 3.347e-10
 11.69403    -18.0 9.953e+03 3.916e-10
 11.71648    -18.3 9.968e+03 4.048e-10
 11.74314    -17.3 1.007e+04 4.610e-10
 11.77888    -16.4 1.010e+04 4.720e-10
 11.80132    -16.8 1.015e+04 5.036e-10
 11.83293    -16.3 1.008e+04 4.796e-10
 11.86372    -15.8 9.909e+03 4.151e-10
 11.88617    -16.1 9.836e+03 4.003e-10
 11.90316    -15.6 9.600e+03 3.233e-10
 11.92561    -15.3 1.026e+04 5.849e-10
 11.94857    -14.7 9.868e+03 4.118e-10
 11.97101    -15.0 9.667e+03 3.202e-10
 12.01097    -14.4 9.394e+03 2.341e-10
 12.03341    -14.8 9.320e+03 2.063e-10
 12.05739    -14.1 9.161e+03 1.730e-10
 12.09581    -13.2 9.023e+03 1.449e-10
 12.11826    -13.3 9.019e+03 1.423e-10
 12.14718    -12.4 8.903e+03 1.190e-10
 12.18066    -11.6 8.811e+03 1.049e-10
 12.20310    -11.6 8.821e+03 1.081e-10
 12.23697    -10.8 8.783e+03 1.047e-10
 12.26550     -9.9 8.776e+03 1.044e-10
 12.28795     -9.9 8.809e+03 1.079e-10
 12.32675     -9.0 8.807e+03 1.069e-10
 12.35035     -8.2 8.811e+03 1.059e-10
 12.37279     -8.3 8.844e+03 1.082e-10
 12.41275     -7.6 8.849e+03 1.078e-10
 12.43519     -7.9 8.937e+03 1.213e-10
 12.46143     -7.3 8.957e+03 1.282e-10
 12.49759     -6.8 9.002e+03 1.386e-10
 12.52004     -7.2 9.126e+03 1.710e-10
 12.53070     -6.6 9.194e+03 1.861e-10
 12.55315     -7.3 9.414e+03 2.270e-10
 12.58243     -6.8 9.482e+03 2.495e-10
 12.60488     -7.2 9.472e+03 2.327e-10
 12.64100     -6.7 9.502e+03 2.361e-10
 12.66728     -6.0 9.489e+03 2.245e-10
 12.68973     -6.4 9.339e+03 1.828e-10
 12.72968     -5.5 9.232e+03 1.575e-10
 12.75212     -5.6 9.182e+03 1.566e-10
 12.77568     -4.5 9.120e+03 1.291e-10
 12.81452     -3.4 9.122e+03 1.057e-10
 12.83697     -3.3 9.208e+03 1.131e-10
 12.86546     -2.3 9.301e+03 1.054e-10
 12.89937     -1.6 9.394e+03 1.047e-10
 12.92181     -1.8 9.537e+03 1.310e-10
 12.95525     -1.5 9.695e+03 1.726e-10
 12.98421     -1.1 9.820e+03 2.586e-10
 13.00666     -1.1 9.855e+03 3.026e-10
 13.04504     -0.5 1.005e+04 3.795e-10
 13.06906      0.0 1.016e+04 4.214e-10
 13.09150      0.2 1.011e+04 3.962e-10
 13.13146      0.7 1.014e+04 3.848e-10
 13.15390      0.9 1.010e+04 3.362e-10
 13.15825      1.5 1.007e+04 2.880e-10
 13.18069      1.3 9.823e+03 2.176e-10
 13.21630      1.9 9.776e+03 1.865e-10
 13.23875      2.1 9.824e+03 1.864e-10
 13.26950      2.9 9.803e+03 1.832e-10
 13.30115      3.6 9.835e+03 1.831e-10
 13.32359      3.9 9.949e+03 1.913e-10
 13.35928      4.6 1.000e+04 2.058e-10
 13.38599      5.2 1.008e+04 2.360e-10
 13.40844      5.6 1.007e+04 2.387e-10
 13.44839      6.4 1.014e+04 2.792e-10
 13.47084      6.9 1.009e+04 2.575e-10
 13.49396      7.9 1.013e+04 2.697e-10
 13.53324      9.0 1.021e+04 2.616e-10
 13.55568      9.9 1.015e+04 1.833e-10
 13.58375     10.9 1.031e+04 1.599e-10
 13.61808     11.8 1.044e+04 1.486e-10
 13.64053     12.4 1.042e+04 1.044e-10
 13.67353     13.1 1.055e+04 1.130e-10
 13.70293     13.9 1.040e+04 1.519e-10
 13.72537     14.8 1.037e+04 1.536e-10
 13.76332     15.9 1.037e+04 2.091e-10
 13.78777     16.6 1.060e+04 2.549e-10
 13.81022     17.5 1.063e+04 2.668e-10
 13.85017     18.4 1.082e+04 3.297e-10
 13.87262     19.2 1.085e+04 3.403e-10
 13.89800     19.9 1.102e+04 3.730e-10
 13.93501     20.4 1.111e+04 3.830e-10
 13.95746     21.0 1.110e+04 3.837e-10
 13.98778     21.3 1.115e+04 3.831e-10
 14.01986     21.4 1.129e+04 3.984e-10
 14.04231     22.0 1.132e+04 3.959e-10
 14.07757     22.1 1.152e+04 4.415e-10
 14.10470     22.3 1.163e+04 4.696e-10
 14.12715     22.8 1.166e+04 4.700e-10
 14.16710     23.0 1.166e+04 4.693e-10
 14.18955     23.4 1.170e+04 4.607e-10
 14.21225     23.6 1.162e+04 4.018e-10
 14.25195     23.8 1.146e+04 3.098e-10
 14.27439     23.8 1.153e+04 3.449e-10
 14.30203     23.9 1.142e+04 3.162e-10
 14.33679     24.0 1.140e+04 3.138e-10
 14.35924     24.2 1.146e+04 3.301e-10
 14.39088     24.4 1.144e+04 3.369e-10
 14.41333     23.9 1.148e+04 3.730e-10
 14.42164     24.1 1.143e+04 3.604e-10
 14.44408     24.5 1.131e+04 2.808e-10
 14.48160     25.0 1.121e+04 2.487e-10
 14.50648     25.8 1.113e+04 2.058e-10
 14.52893     26.5 1.109e+04 1.651e-10
 14.56888     27.4 1.103e+04 1.378e-10
 14.59133     28.3 1.101e+04 1.203e-10
 14.61628     29.4 1.096e+04 1.053e-10
 14.65373     30.7 1.090e+04 9.684e-11
 14.67617     31.9 1.092e+04 9.802e-11
 14.70607     33.3 1.089e+04 9.604e-11
 14.73857     34.7 1.082e+04 1.009e-10
 14.76102     35.9 1.086e+04 1.171e-10
 14.79585     37.3 1.079e+04 1.337e-10
 14.82342     38.6 1.079e+04 1.546e-10
 14.84586     39.6 1.087e+04 2.027e-10
 14.88564     41.0 1.097e+04 2.430e-10
 14.93053     43.7 1.133e+04 3.778e-10
 14.97066     44.6 1.140e+04 4.044e-10
 14.99311     45.3 1.143e+04 4.591e-10
 15.00900     45.6 1.142e+04 4.568e-10
 15.02411     45.6 1.138e+04 4.724e-10
 15.03344     46.0 1.142e+04 5.145e-10
 15.04077     46.7 1.134e+04 3.911e-10
 15.05389     46.7 1.135e+04 5.298e-10
 15.06653     46.7 1.128e+04 6.425e-10
 15.07776     47.1 1.138e+04 8.302e-10
 15.09773     47.8 1.154e+04 1.099e-09
 15.10895     48.1 1.185e+04 1.327e-09
 15.12113     48.5 1.214e+04 1.564e-09
 15.14015     48.7 1.233e+04 1.697e-09
 15.15138     48.7 1.258e+04 2.057e-09
 15.16602     48.8 1.268e+04 2.126e-09
 15.18258     48.8 1.273e+04 2.116e-09
 15.19380     48.8 1.302e+04 2.661e-09
 15.21092     48.7 1.310e+04 2.502e-09
 15.22500     48.5 1.308e+04 2.269e-09
 15.23622     48.4 1.339e+04 2.724e-09
 15.25581     47.5 1.328e+04 2.522e-09
 15.26742     46.8 1.308e+04 2.453e-09
 15.27864     46.6 1.332e+04 2.778e-09
 15.29862     46.2 1.315e+04 2.726e-09
 15.30984     45.9 1.342e+04 3.006e-09
 15.32315     45.7 1.321e+04 2.943e-09
 15.34104     45.6 1.290e+04 2.774e-09
 15.34989     45.0 1.325e+04 3.006e-09
 15.35445     45.2 1.444e+04 4.217e-09
 15.36804     44.6 1.406e+04 3.657e-09
 15.38347     43.9 1.347e+04 2.968e-09
 15.39469     43.1 1.371e+04 3.302e-09
 15.41293     42.2 1.311e+04 2.765e-09
 15.42589     41.1 1.260e+04 2.410e-09
 15.43711     40.1 1.300e+04 2.744e-09
 15.45709     39.2 1.284e+04 2.655e-09
 15.46831     38.1 1.312e+04 2.790e-09
 15.48027     37.5 1.303e+04 2.762e-09
 15.49951     37.1 1.285e+04 2.526e-09
 15.51073     36.0 1.282e+04 2.484e-09
 15.52517     35.5 1.250e+04 2.079e-09
 15.54193     34.9 1.209e+04 1.707e-09
 15.55316     34.1 1.183e+04 1.548e-09
 15.57006     33.8 1.152e+04 1.287e-09
 15.58435     33.6 1.126e+04 1.046e-09
 15.59558     33.0 1.099e+04 8.649e-10
 15.61495     32.6 1.071e+04 6.808e-10
 15.62687     32.6 1.055e+04 5.796e-10
 15.64657     31.3 9.961e+03 3.932e-10
 15.66841     29.7 9.767e+03 4.530e-10
 15.68937     30.1 9.376e+03 4.062e-10
 15.71182     30.4 9.035e+03 3.671e-10
 15.73860     32.1 9.107e+03 3.940e-10
 15.77422     34.0 9.137e+03 3.983e-10
 15.79666     34.9 9.118e+03 3.962e-10
 15.82839     36.9 9.084e+03 3.702e-10
 15.85906     38.9 9.023e+03 3.137e-10
 15.88151     39.7 9.013e+03 3.143e-10
 15.91817     41.4 9.037e+03 2.770e-10
 15.94391     42.9 9.075e+03 2.689e-10
 15.96635     43.8 9.172e+03 2.895e-10
 16.00630     45.3 9.497e+03 3.566e-10
 16.02875     46.2 9.689e+03 4.246e-10
 16.04153     46.6 9.888e+03 4.843e-10
 16.05975     47.3 9.935e+03 5.274e-10
 16.07098     47.8 1.008e+04 5.955e-10
 16.08633     48.7 1.028e+04 6.928e-10
 16.10218     49.5 1.037e+04 7.509e-10
 16.11340     50.1 1.054e+04 8.445e-10
 16.13122     51.1 1.070e+04 8.989e-10
 16.14460     51.9 1.073e+04 9.002e-10
 16.15582     52.6 1.107e+04 1.041e-09
 16.17580     52.8 1.119e+04 1.044e-09
 16.18702     52.8 1.170e+04 1.293e-09
 16.19856     51.9 1.192e+04 1.375e-09
 16.21822     50.6 1.288e+04 1.763e-09
 16.22944     49.3 1.417e+04 2.851e-09
 16.24345     46.7 1.487e+04 3.403e-09
 16.26064     43.9 1.575e+04 4.915e-09
 16.27187     43.0 1.746e+04 9.538e-09
 16.28453     41.3 1.792e+04 1.277e-08
 16.29576     41.4 1.627e+04 7.477e-09
 16.30307     40.4 1.670e+04 9.616e-09
 16.31429     39.4 1.730e+04 1.146e-08
 16.33324     38.6 1.723e+04 1.138e-08
 16.34549     37.9 1.686e+04 9.391e-09
 16.35671     36.7 1.658e+04 8.798e-09
 16.37669     35.8 1.579e+04 6.598e-09
 16.38791     34.9 1.520e+04 5.938e-09
 16.40058     34.2 1.448e+04 5.091e-09
 16.41911     34.0 1.408e+04 4.734e-09
 16.43033     34.0 1.413e+04 4.820e-09
 16.44547     34.5 1.405e+04 4.803e-09
 16.46153     35.2 1.388e+04 4.533e-09
 16.47276     35.2 1.396e+04 4.521e-09
 16.49036     35.9 1.366e+04 3.913e-09
 16.50396     36.5 1.330e+04 3.210e-09
 16.51518     36.3 1.319e+04 2.889e-09
 16.54658     36.7 1.253e+04 2.022e-09
 16.57777     37.7 1.184e+04 1.403e-09
 16.60022     38.2 1.106e+04 7.642e-10
 16.63646     39.9 1.032e+04 4.149e-10
 16.66262     41.3 9.780e+03 2.362e-10
 16.68506     41.4 9.375e+03 1.058e-10
 16.72502     42.9 9.145e+03 8.704e-11
 16.74746     43.4 8.774e+03 5.635e-11
 16.77114     45.7 8.821e+03 5.540e-11
 16.80986     48.1 8.751e+03 5.902e-11
 16.83231     49.2 8.627e+03 4.495e-11
 16.86092     51.7 8.586e+03 4.781e-11
 16.89471     54.3 8.548e+03 5.135e-11
 16.91238     55.4 8.435e+03 3.929e-11
 16.92349     55.7 8.584e+03 4.165e-11
 16.95071     58.1 8.592e+03 4.077e-11
 16.97955     60.5 8.711e+03 4.241e-11
 17.00200     61.5 8.512e+03 3.522e-11
 17.04049     63.5 8.717e+03 3.876e-11
 17.06440     65.6 8.777e+03 5.496e-11
 17.08684     66.9 8.519e+03 5.226e-11
 17.12679     69.4 8.788e+03 7.362e-11
 17.14924     70.8 8.606e+03 7.136e-11
 17.17517     73.2 9.022e+03 9.545e-11
 17.21164     75.4 9.328e+03 1.494e-10
 17.23409     76.9 9.274e+03 1.100e-10
 17.26496     78.7 9.504e+03 1.783e-10
 17.29648     81.1 9.611e+03 2.826e-10
 17.31893     82.0 9.563e+03 1.984e-10
 17.35474     84.3 9.746e+03 2.881e-10
 17.38133     86.4 9.964e+03 3.322e-10
 17.40378     87.2 9.860e+03 2.836e-10
 17.44373     89.1 1.016e+04 3.465e-10
 17.46617     89.9 9.982e+03 2.909e-10
 17.48942     91.7 1.037e+04 4.000e-10
 17.52857     93.3 1.067e+04 5.042e-10
 17.55102     94.3 1.059e+04 5.512e-10
 17.56789     95.6 1.069e+04 6.423e-10
 17.58202     96.5 1.092e+04 6.603e-10
 17.59325     97.1 1.082e+04 6.390e-10
 17.61268     98.2 1.079e+04 6.084e-10
 17.62445     99.1 1.082e+04 5.554e-10
 17.63567     99.6 1.079e+04 5.560e-10
 17.66890    101.4 1.091e+04 4.727e-10
 17.69826    103.2 1.070e+04 3.362e-10
 17.72071    104.4 1.070e+04 3.483e-10
 17.75878    106.2 1.056e+04 2.356e-10
 17.78311    107.9 1.058e+04 1.712e-10
 17.80555    109.1 1.063e+04 1.767e-10
 17.84551    110.9 1.058e+04 1.468e-10
 17.86795    112.0 1.076e+04 1.572e-10
 17.89346    113.9 1.055e+04 1.515e-10
 17.93035    116.1 1.041e+04 1.524e-10
 17.95280    116.9 1.072e+04 1.836e-10
 17.98324    119.2 1.057e+04 2.003e-10
 18.01520    121.5 1.035e+04 2.172e-10
 18.03764    122.0 1.080e+04 3.123e-10
 18.07303    124.2 1.064e+04 3.324e-10
 18.10004    126.3 1.053e+04 3.381e-10
 18.11117    125.8 1.094e+04 4.830e-10
 18.12895    126.5 1.089e+04 4.876e-10
 18.14227    127.9 1.083e+04 5.100e-10
 18.15349    127.8 1.137e+04 8.221e-10
 18.16716    128.8 1.145e+04 8.776e-10
 18.17801    129.4 1.180e+04 1.144e-09
 18.18469    129.1 1.244e+04 1.630e-09
 18.19629    130.2 1.261e+04 1.783e-09
 18.21589    131.2 1.280e+04 1.889e-09
 18.22711    130.9 1.333e+04 2.255e-09
 18.24118    131.6 1.357e+04 2.382e-09
 18.25831    132.3 1.376e+04 2.452e-09
 18.26954    131.5 1.383e+04 2.444e-09
 18.28607    132.0 1.403e+04 2.506e-09
 18.30074    132.4 1.412e+04 2.534e-09
 18.31196    131.4 1.401e+04 2.337e-09
 18.33097    132.0 1.411e+04 2.371e-09
 18.34316    132.5 1.415e+04 2.389e-09
 18.35438    131.6 1.376e+04 1.835e-09
 18.37436    132.2 1.377e+04 1.823e-09
 18.38558    131.1 1.318e+04 1.264e-09
 18.39831    131.6 1.326e+04 1.291e-09
 18.41678    132.0 1.333e+04 1.355e-09
 18.42800    130.3 1.270e+04 1.183e-09
 18.44320    130.6 1.283e+04 1.337e-09
 18.45920    130.9 1.306e+04 1.474e-09
 18.47042    129.0 1.309e+04 1.492e-09
 18.48093    128.9 1.341e+04 1.514e-09
 18.49215    127.0 1.545e+04 2.807e-09
 18.50162    126.7 1.574e+04 2.844e-09
 18.51285    125.0 1.501e+04 2.603e-09
 18.53282    124.9 1.443e+04 2.105e-09
 18.54405    123.6 1.324e+04 1.699e-09
 18.55543    123.0 1.216e+04 1.191e-09
 18.57525    122.2 1.100e+04 8.636e-10
 18.58647    121.1 1.047e+04 7.217e-10
 18.60032    120.6 1.026e+04 5.994e-10
 18.61767    120.6 1.037e+04 5.359e-10
 18.62889    120.7 1.038e+04 4.953e-10
 18.64522    121.5 1.043e+04 4.772e-10
 18.66009    122.5 1.042e+04 4.556e-10
 18.67131    122.7 1.029e+04 4.358e-10
 18.69011    123.7 1.026e+04 4.100e-10
 18.70251    124.6 1.017e+04 3.811e-10
 18.71374    124.8 1.002e+04 3.735e-10
 18.73371    125.7 9.984e+03 3.503e-10
 18.74494    125.9 9.974e+03 3.503e-10
 18.75745    126.7 9.892e+03 3.290e-10
 18.77614    127.7 9.863e+03 3.174e-10
 18.78736    127.7 9.856e+03 3.220e-10
 18.79470    128.6 9.781e+03 3.117e-10
 18.80602    126.7 9.587e+03 3.051e-10
 18.81866    128.0 9.492e+03 2.996e-10
 18.82978    128.4 9.526e+03 3.090e-10
 18.84723    129.9 9.551e+03 3.217e-10
 18.86098    131.3 9.669e+03 3.650e-10
 18.87220    131.5 9.769e+03 4.138e-10
 18.89213    132.6 1.004e+04 5.087e-10
 18.91457    132.7 1.193e+04 1.097e-09
 18.93460    133.5 1.292e+04 1.565e-09
 18.94578    132.3 1.470e+04 2.118e-09
 18.95149    131.4 1.629e+04 2.804e-09
 18.95710    133.4 1.422e+04 2.323e-09
 18.96133    132.8 1.555e+04 3.146e-09
 18.96694    128.3 2.031e+04 6.688e-09
 18.97620    125.4 2.395e+04 1.272e-08
 18.98254    122.2 2.689e+04 2.768e-08
 18.98815    118.8 2.603e+04 8.139e-08
 18.99814    116.5 2.384e+04 2.835e-07
 19.00375    113.4 2.157e+04 7.988e-07
 19.00987    110.2 2.067e+04 1.511e-06
 19.01935    106.3 2.068e+04 1.520e-06
 19.02496    102.0 2.095e+04 1.262e-06
 19.03232     98.5 2.201e+04 6.438e-07
 19.04056     95.2 2.396e+04 2.152e-07
 19.04617     89.9 2.784e+04 4.807e-08
 19.05477     84.3 2.663e+04 1.875e-08
 19.06177     80.7 2.192e+04 1.717e-08
 19.06738     80.0 2.159e+04 1.522e-08
 19.07721     79.5 2.077e+04 1.483e-08
 19.09302     79.1 2.014e+04 1.310e-08
 19.10429     79.0 1.997e+04 9.768e-09
 19.10847     78.4 1.873e+04 8.429e-09
 19.11969     76.5 1.524e+04 6.213e-09
 19.13549     76.7 1.487e+04 5.919e-09
 19.14671     76.8 1.466e+04 5.287e-09
 19.16148     77.4 1.461e+04 5.440e-09
 19.17791     78.1 1.464e+04 5.506e-09
 19.18914     78.2 1.450e+04 4.833e-09
 19.20638     78.9 1.463e+04 4.851e-09
 19.22034     79.2 1.464e+04 4.754e-09
 19.23156     79.1 1.435e+04 3.703e-09
 19.25127     79.5 1.425e+04 3.536e-09
 19.26276     79.8 1.419e+04 3.458e-09
 19.27398     79.3 1.361e+04 2.239e-09
 19.29396     79.6 1.340e+04 2.097e-09
 19.30518     78.6 1.263e+04 1.241e-09
 19.31861     78.7 1.242e+04 1.114e-09
 19.33638     79.0 1.225e+04 1.062e-09
 19.34760     78.2 1.140e+04 7.405e-10
 19.36768     79.0 1.141e+04 8.321e-10
 19.39022     78.7 1.046e+04 6.801e-10
 19.41121     80.1 1.030e+04 6.474e-10
 19.43366     80.4 9.628e+03 3.829e-10
 19.45262     81.9 9.335e+03 3.022e-10
 19.47507     82.4 9.167e+03 2.997e-10
 19.50960     84.2 8.951e+03 1.998e-10
 19.53746     85.8 8.750e+03 1.218e-10
 19.55991     87.4 8.777e+03 1.239e-10
 19.59938     88.8 8.566e+03 8.224e-11
 19.62231     90.5 8.315e+03 7.589e-11
 19.64476     92.0 8.395e+03 7.423e-11
 19.68471     94.1 8.370e+03 7.452e-11
 19.70715     95.5 8.422e+03 7.444e-11
 19.73406     97.6 8.430e+03 7.746e-11
 19.76955     99.8 8.470e+03 8.788e-11
 19.79200    101.0 8.555e+03 8.720e-11
 19.82385    103.2 8.655e+03 1.049e-10
 19.85440    105.4 8.785e+03 1.286e-10
 19.87684    106.5 8.858e+03 1.268e-10
 19.91363    108.7 9.004e+03 1.531e-10
 19.93924    111.0 9.160e+03 1.785e-10
 19.96169    111.8 9.216e+03 1.672e-10
 20.00164    113.9 9.370e+03 1.853e-10
 20.02409    114.6 9.402e+03 1.534e-10
 20.03876    116.7 9.551e+03 1.600e-10
 20.06120    116.4 9.565e+03 1.656e-10
 20.08649    118.5 9.733e+03 1.730e-10
 20.10893    119.2 9.752e+03 1.287e-10
 20.13810    121.2 9.908e+03 1.366e-10
 20.17133    123.2 1.002e+04 1.519e-10
 20.19378    123.9 9.975e+03 1.100e-10
 20.22788    125.9 1.002e+04 1.285e-10
 20.25618    128.0 1.005e+04 1.501e-10
 20.27862    128.6 9.910e+03 1.144e-10
 20.31767    130.7 9.959e+03 1.337e-10
 20.34102    132.7 9.996e+03 1.539e-10
 20.36347    133.4 9.903e+03 1.256e-10
 20.40342    135.4 9.967e+03 1.468e-10
 20.42587    136.0 9.897e+03 1.279e-10
 20.45235    137.9 9.975e+03 1.532e-10
 20.48827    139.7 1.013e+04 1.910e-10
 20.51071    140.3 1.007e+04 1.746e-10
 20.54213    142.2 1.038e+04 2.305e-10
 20.57311    143.7 1.073e+04 3.162e-10
 20.59556    144.1 1.072e+04 2.952e-10
 20.61543    144.3 1.085e+04 3.568e-10
 20.62656    144.4 1.086e+04 3.474e-10
 20.64295    144.8 1.103e+04 4.340e-10
 20.65776    145.4 1.130e+04 6.064e-10
 20.66898    145.4 1.125e+04 5.392e-10
 20.67732    146.1 1.159e+04 7.833e-10
 20.68855    145.7 1.161e+04 8.546e-10
 20.70018    146.4 1.202e+04 1.155e-09
 20.71141    146.4 1.189e+04 1.021e-09
 20.73138    146.9 1.227e+04 1.321e-09
 20.74260    146.8 1.207e+04 1.071e-09
 20.75518    147.2 1.239e+04 1.336e-09
 20.77380    147.4 1.269e+04 1.625e-09
 20.78503    147.2 1.243e+04 1.239e-09
 20.80007    147.5 1.268e+04 1.497e-09
 20.81623    147.8 1.296e+04 1.777e-09
 20.82745    147.3 1.271e+04 1.408e-09
 20.84496    147.4 1.308e+04 1.778e-09
 20.85865    147.3 1.362e+04 2.348e-09
 20.86987    146.2 1.367e+04 2.376e-09
 20.88985    146.0 1.438e+04 3.408e-09
 20.91229    145.0 1.522e+04 5.402e-09
 20.93227    145.0 1.564e+04 6.166e-09
 20.94349    144.1 1.551e+04 5.991e-09
 20.95719    144.0 1.538e+04 5.461e-09
 20.97469    143.8 1.492e+04 4.060e-09
 20.98592    142.8 1.439e+04 3.229e-09
 20.99110    141.8 1.346e+04 1.856e-09
 21.00232    141.5 1.338e+04 1.927e-09
 21.01712    140.1 1.271e+04 1.415e-09
 21.02834    139.2 1.231e+04 1.156e-09
 21.04698    138.0 1.185e+04 9.446e-10
 21.05964    137.4 1.193e+04 1.002e-09
 21.08218    136.3 1.138e+04 7.135e-10
 21.12213    136.2 1.140e+04 7.825e-10
 21.14458    136.3 1.089e+04 5.035e-10
 21.17063    136.3 1.108e+04 6.288e-10
 21.20698    136.2 1.124e+04 7.547e-10
 21.22942    136.4 1.070e+04 4.665e-10
 21.26042    136.0 1.076e+04 5.216e-10
 21.29182    135.5 1.071e+04 5.122e-10
 21.30280    136.2 1.033e+04 3.625e-10
 21.31628    136.8 1.040e+04 3.629e-10
 21.35020    136.5 1.031e+04 3.478e-10
 21.37667    136.7 1.014e+04 3.087e-10
 21.39911    137.5 9.830e+03 2.425e-10
 21.43907    137.7 9.732e+03 2.133e-10
 21.46151    138.6 9.494e+03 1.997e-10
 21.48488    138.7 9.379e+03 1.744e-10
 21.52391    139.0 9.285e+03 1.545e-10
 21.54636    139.8 9.208e+03 1.537e-10
 21.57467    140.1 9.088e+03 1.384e-10
 21.60876    140.8 8.988e+03 1.282e-10
 21.63120    141.6 8.987e+03 1.285e-10
 21.66445    142.6 8.964e+03 1.266e-10
 21.69360    143.6 8.975e+03 1.276e-10
 21.71605    144.4 8.986e+03 1.339e-10
 21.75424    145.4 9.044e+03 1.414e-10
 21.77845    146.4 9.243e+03 1.728e-10
 21.80089    147.1 9.308e+03 1.947e-10
 21.84084    147.8 9.832e+03 2.958e-10
 21.86329    148.5 9.904e+03 3.352e-10
 21.88892    148.5 1.050e+04 5.161e-10
 21.92128    148.3 1.088e+04 6.899e-10
 21.93561    147.2 1.066e+04 6.337e-10
 21.94814    147.6 1.066e+04 6.159e-10
 21.97870    146.9 1.108e+04 8.790e-10
 22.01044    146.6 1.123e+04 9.793e-10
 22.02156    146.8 1.106e+04 8.662e-10
 22.03462    146.6 1.115e+04 9.416e-10
 22.05276    146.3 1.124e+04 9.953e-10
 22.06398    146.6 1.102e+04 8.860e-10
 22.07951    146.5 1.109e+04 9.256e-10
 22.09518    146.1 1.119e+04 9.597e-10
 22.10641    146.6 1.097e+04 8.548e-10
 22.12441    146.3 1.106e+04 8.845e-10
 22.13761    145.7 1.118e+04 9.095e-10
 22.14883    146.3 1.096e+04 8.082e-10
 22.16881    145.9 1.101e+04 8.203e-10
 22.18003    146.5 1.081e+04 7.223e-10
 22.20307    146.4 1.073e+04 6.628e-10
 22.24262    145.6 1.084e+04 6.843e-10
 22.26507    147.0 1.042e+04 5.199e-10
 22.29295    146.1 1.044e+04 5.087e-10
 22.32747    145.3 1.041e+04 4.967e-10
 22.34991    146.8 1.006e+04 3.977e-10
 22.38274    146.3 9.914e+03 3.751e-10
 22.41231    146.0 9.886e+03 3.764e-10
 22.43476    147.9 9.769e+03 3.609e-10
 22.47252    147.9 9.811e+03 3.802e-10
 22.49716    147.9 1.006e+04 4.524e-10
 22.51960    149.6 1.004e+04 4.560e-10
 22.54892    149.4 1.043e+04 5.893e-10
 22.56862    149.0 1.120e+04 9.898e-10
 22.58200    150.6 1.096e+04 8.679e-10
 22.60720    150.1 1.102e+04 8.653e-10
 22.64440    150.0 1.095e+04 7.896e-10
 22.66685    151.6 1.064e+04 6.547e-10
 22.69699    151.7 1.044e+04 5.183e-10
 22.72925    151.9 1.023e+04 4.352e-10
 22.75169    153.3 1.001e+04 3.524e-10
 22.78677    153.8 9.977e+03 3.554e-10
 22.81409    155.0 9.993e+03 3.779e-10
 22.83654    156.2 9.850e+03 3.151e-10
 22.87649    157.6 9.976e+03 3.691e-10
 22.92138    160.3 1.005e+04 3.749e-10
 22.96133    161.9 1.029e+04 4.373e-10
 22.98378    162.9 1.008e+04 3.431e-10
 23.01124    164.4 1.023e+04 3.719e-10
 23.04618    166.0 1.030e+04 3.710e-10
 23.06863    167.0 1.005e+04 2.899e-10
 23.10102    168.6 1.009e+04 2.920e-10
 23.13102    170.2 1.013e+04 2.873e-10
 23.15347    171.4 9.934e+03 2.404e-10
 23.17646    173.1 1.001e+04 2.523e-10
 23.19891    173.2 9.993e+03 2.331e-10
 23.21587    174.9 1.015e+04 2.472e-10
 23.23832    176.3 1.001e+04 2.190e-10
 23.27827    178.0 1.026e+04 2.545e-10
 23.30071    179.4 1.014e+04 2.316e-10
 23.32549    181.2 1.046e+04 2.884e-10
 23.36311    183.1 1.077e+04 3.543e-10
 23.38556    184.4 1.072e+04 3.422e-10
 23.41527    185.6 1.089e+04 3.926e-10
 23.44786    187.3 1.098e+04 4.420e-10
 23.45899    187.9 1.100e+04 4.493e-10
 23.47119    189.2 1.116e+04 5.154e-10
 23.49004    190.5 1.134e+04 5.837e-10
 23.49781    190.5 1.125e+04 5.604e-10
 23.50141    190.8 1.131e+04 5.880e-10
 23.51608    191.8 1.154e+04 6.689e-10
 23.53261    192.8 1.176e+04 7.398e-10
 23.54383    193.1 1.186e+04 7.986e-10
 23.56098    194.0 1.206e+04 8.760e-10
 23.57503    194.9 1.220e+04 9.426e-10
 23.58625    195.1 1.226e+04 1.009e-09
 23.60587    196.0 1.232e+04 1.048e-09
 23.61745    196.9 1.232e+04 1.051e-09
 23.62868    197.1 1.230e+04 1.067e-09
 23.64865    198.1 1.223e+04 1.025e-09
 23.65987    198.4 1.218e+04 1.006e-09
 23.67321    199.3 1.210e+04 8.969e-10
 23.69107    200.2 1.205e+04 7.675e-10
 23.70230    200.5 1.206e+04 7.669e-10
 23.71810    201.1 1.203e+04 6.530e-10
 23.73350    201.5 1.197e+04 5.692e-10
 23.74472    201.7 1.205e+04 5.829e-10
 23.76299    201.9 1.193e+04 5.639e-10
 23.77592    202.0 1.190e+04 5.740e-10
 23.78714    202.3 1.194e+04 6.134e-10
 23.80381    202.3 1.184e+04 6.842e-10
 23.81426    200.7 1.155e+04 6.290e-10
 23.81834    201.2 1.155e+04 6.775e-10
 23.83033    201.3 1.176e+04 8.790e-10
 23.84954    201.2 1.207e+04 1.154e-09
 23.86076    201.8 1.204e+04 1.153e-09
 23.87523    201.6 1.248e+04 1.506e-09
 23.89196    201.1 1.303e+04 2.010e-09
 23.90319    201.8 1.293e+04 1.876e-09
 23.92012    201.0 1.351e+04 2.447e-09
 23.93439    199.9 1.401e+04 2.934e-09
 23.94561    200.8 1.395e+04 2.822e-09
 23.96501    199.6 1.420e+04 2.970e-09
 23.97681    198.2 1.416e+04 2.884e-09
 23.98803    199.3 1.434e+04 2.954e-09
 24.00801    197.7 1.411e+04 2.629e-09
 24.01923    198.7 1.441e+04 2.814e-09
 24.03235    197.1 1.380e+04 2.208e-09
 24.05043    195.5 1.299e+04 1.618e-09
 24.06165    196.3 1.321e+04 1.777e-09
 24.07724    194.8 1.239e+04 1.326e-09
 24.09285    193.6 1.185e+04 1.065e-09
 24.10408    194.3 1.198e+04 1.190e-09
 24.11758    193.4 1.174e+04 1.044e-09
 24.12880    193.9 1.168e+04 1.101e-09
 24.13527    193.5 1.171e+04 1.099e-09
 24.14650    194.2 1.186e+04 1.236e-09
 24.16647    193.9 1.190e+04 1.236e-09
 24.17770    194.6 1.215e+04 1.436e-09
 24.18948    194.3 1.215e+04 1.427e-09
 24.20890    194.1 1.212e+04 1.399e-09
 24.22012    194.6 1.241e+04 1.642e-09
 24.23437    194.5 1.228e+04 1.545e-09
 24.25132    194.3 1.209e+04 1.415e-09
 24.26254    194.8 1.228e+04 1.570e-09
 24.27926    194.7 1.201e+04 1.361e-09
 24.29374    194.6 1.178e+04 1.178e-09
 24.30496    195.0 1.183e+04 1.191e-09
 24.32415    194.9 1.161e+04 1.023e-09
 24.33616    194.7 1.148e+04 9.255e-10
 24.34739    195.0 1.139e+04 8.547e-10
 24.36736    194.9 1.134e+04 7.851e-10
 24.37859    195.2 1.116e+04 6.725e-10
 24.39149    195.1 1.117e+04 6.513e-10
 24.40979    194.5 1.130e+04 6.817e-10
 24.42101    194.8 1.103e+04 5.495e-10
 24.43145    194.7 1.074e+04 4.809e-10
 24.45399    194.0 1.199e+04 1.103e-09
 24.48360    193.5 1.186e+04 1.181e-09
 24.50605    193.6 1.173e+04 1.030e-09
 24.53759    193.3 1.151e+04 9.647e-10
 24.56845    193.5 1.099e+04 7.634e-10
 24.59089    193.4 1.089e+04 6.880e-10
 24.62738    193.8 1.022e+04 4.678e-10
 24.65329    194.6 9.525e+03 2.949e-10
 24.67574    194.2 9.498e+03 2.866e-10
 24.71569    195.1 8.882e+03 1.976e-10
 24.73814    194.8 9.001e+03 2.174e-10
 24.76205    195.7 8.786e+03 2.028e-10
 24.80054    196.8 8.797e+03 2.047e-10
 24.82298    195.9 9.234e+03 2.662e-10
 24.85184    196.3 9.285e+03 2.789e-10
 24.88528    196.5 9.299e+03 2.916e-10
 24.89641    195.9 9.525e+03 3.506e-10
 24.90776    196.0 9.703e+03 4.063e-10
 24.92761    195.7 9.968e+03 4.977e-10
 24.93883    194.0 1.072e+04 7.630e-10
 24.95265    192.6 1.148e+04 1.036e-09
 24.97003    190.4 1.247e+04 1.446e-09
 24.98125    186.4 1.399e+04 2.433e-09
 24.99755    182.8 1.483e+04 3.132e-09
 25.01245    178.2 1.548e+04 3.663e-09
 25.02368    174.0 1.547e+04 3.622e-09
 25.04244    168.8 1.540e+04 3.478e-09
 25.05488    163.0 1.504e+04 3.255e-09
 25.06010    159.5 1.387e+04 2.331e-09
 25.07011    158.4 1.488e+04 3.096e-09
 25.08608    153.0 1.409e+04 3.096e-09
 25.09730    151.1 1.330e+04 2.426e-09
 25.10978    149.0 1.327e+04 2.942e-09
 25.12850    148.4 1.328e+04 3.095e-09
 25.13972    148.9 1.321e+04 3.054e-09
 25.15467    148.7 1.317e+04 2.977e-09
 25.17092    148.6 1.291e+04 2.621e-09
 25.18214    149.0 1.300e+04 2.690e-09
 25.19956    148.6 1.261e+04 2.125e-09
 25.21334    147.7 1.206e+04 1.525e-09
 25.22457    148.2 1.213e+04 1.569e-09
 25.24446    147.0 1.141e+04 1.060e-09
 25.26690    146.2 1.057e+04 6.763e-10
 25.28706    144.9 9.702e+03 4.769e-10
 25.30961    146.1 9.573e+03 3.858e-10
 25.34566    146.0 9.367e+03 3.564e-10
 25.37200    146.1 9.437e+03 3.732e-10
 25.39445    147.6 9.443e+03 3.580e-10
 25.43440    147.8 9.671e+03 4.270e-10
 25.45685    149.3 9.705e+03 4.324e-10
 25.48034    149.6 1.002e+04 5.525e-10
 25.51925    149.9 1.034e+04 6.793e-10
 25.54169    151.4 1.039e+04 6.959e-10
 25.57012    151.0 1.049e+04 7.291e-10
 25.60409    150.3 1.041e+04 7.068e-10
 25.62654    151.6 1.023e+04 6.184e-10
 25.65991    151.0 9.993e+03 5.672e-10
 25.68663    150.6 9.976e+03 5.711e-10
 25.69321    150.9 9.713e+03 4.751e-10
 25.71138    152.1 9.477e+03 4.094e-10
 25.74970    152.0 9.447e+03 4.102e-10
 25.77378    152.0 9.428e+03 4.146e-10
 25.79623    153.6 9.330e+03 3.935e-10
 25.83618    153.9 9.313e+03 3.978e-10
 25.85863    155.5 9.289e+03 3.978e-10
 25.88437    156.2 9.340e+03 4.069e-10
 25.92103    156.7 9.462e+03 4.310e-10
 25.94347    158.1 9.436e+03 4.281e-10
 25.97416    158.8 9.654e+03 4.779e-10
 26.00587    159.4 9.949e+03 5.626e-10
 26.02832    160.5 9.725e+03 4.817e-10
 26.06395    161.1 9.979e+03 5.530e-10
 26.09062    161.6 9.945e+03 5.441e-10
 26.11307    162.8 9.866e+03 4.999e-10
 26.13304    162.7 9.999e+03 5.674e-10
 26.14417    163.2 9.888e+03 5.150e-10
 26.16414    163.5 1.002e+04 5.762e-10
 26.17537    164.2 9.836e+03 4.908e-10
 26.18721    164.5 1.006e+04 5.894e-10
 26.20657    164.9 1.025e+04 7.007e-10
 26.21779    165.4 1.016e+04 6.269e-10
 26.23210    165.9 1.042e+04 7.718e-10
 26.24899    166.6 1.067e+04 9.110e-10
 26.26021    167.0 1.065e+04 8.579e-10
 26.27699    167.6 1.095e+04 1.039e-09
 26.29141    168.3 1.123e+04 1.206e-09
 26.30263    168.6 1.123e+04 1.187e-09
 26.31397    169.2 1.152e+04 1.378e-09
 26.32520    169.1 1.118e+04 1.147e-09
 26.33383    169.6 1.122e+04 1.243e-09
 26.34506    169.8 1.142e+04 1.284e-09
 26.36503    170.1 1.145e+04 1.366e-09
 26.37626    170.2 1.163e+04 1.409e-09
 26.38922    170.5 1.162e+04 1.459e-09
 26.40745    170.8 1.149e+04 1.369e-09
 26.41868    170.7 1.175e+04 1.517e-09
 26.43412    170.9 1.160e+04 1.419e-09
 26.44988    171.0 1.131e+04 1.235e-09
 26.46110    170.9 1.167e+04 1.449e-09
 26.47901    171.1 1.139e+04 1.263e-09
 26.49230    171.2 1.109e+04 1.086e-09
 26.50352    171.0 1.146e+04 1.291e-09
 26.52350    171.1 1.116e+04 1.113e-09
 26.53472    171.0 1.147e+04 1.288e-09
 26.54635    171.2 1.115e+04 1.108e-09
 26.56592    171.3 1.088e+04 9.692e-10
 26.57714    171.4 1.108e+04 1.061e-09
 26.59124    171.6 1.081e+04 9.234e-10
 26.60834    171.8 1.058e+04 8.150e-10
 26.61957    171.9 1.067e+04 8.300e-10
 26.62775    172.2 1.044e+04 7.302e-10
 26.63897    172.5 1.036e+04 6.998e-10
 26.65077    172.8 1.018e+04 6.235e-10
 26.66199    172.8 1.021e+04 6.133e-10
 26.68103    173.0 1.007e+04 5.604e-10
 26.69319    173.2 9.991e+03 5.461e-10
 26.70441    173.3 1.005e+04 5.538e-10
 26.72439    173.6 1.007e+04 5.562e-10
 26.73561    173.9 1.015e+04 5.630e-10
 26.74837    174.2 1.023e+04 5.806e-10
 26.76681    174.4 1.036e+04 6.184e-10
 26.77803    174.8 1.037e+04 6.170e-10
 26.79326    175.1 1.051e+04 6.706e-10
 26.80923    175.4 1.065e+04 7.330e-10
 26.82046    175.9 1.063e+04 7.085e-10
 26.83815    176.2 1.074e+04 7.584e-10
 26.85166    176.4 1.079e+04 7.826e-10
 26.86288    177.0 1.077e+04 7.444e-10
 26.88285    177.3 1.083e+04 7.676e-10
 26.89408    177.9 1.083e+04 7.343e-10
 26.90549    178.2 1.093e+04 7.707e-10
 26.92528    178.4 1.089e+04 7.789e-10
 26.93650    179.1 1.101e+04 8.067e-10
 26.94152    179.3 1.101e+04 8.000e-10
 26.95274    179.8 1.088e+04 7.643e-10
 26.96770    180.0 1.079e+04 7.279e-10
 26.97892    180.8 1.099e+04 7.864e-10
 26.99528    181.0 1.086e+04 7.397e-10
 27.01012    181.3 1.068e+04 6.667e-10
 27.02135    182.1 1.096e+04 7.547e-10
 27.04017    182.4 1.076e+04 6.801e-10
 27.05254    182.7 1.057e+04 5.983e-10
 27.06377    183.7 1.086e+04 6.984e-10
 27.08374    183.9 1.067e+04 6.247e-10
 27.09497    184.9 1.093e+04 7.061e-10
 27.10751    185.2 1.075e+04 6.468e-10
 27.12617    185.5 1.062e+04 5.933e-10
 27.13739    186.5 1.081e+04 6.643e-10
 27.15240    186.8 1.072e+04 6.350e-10
 27.16859    187.0 1.073e+04 6.203e-10
 27.17981    188.0 1.089e+04 7.019e-10
 27.19729    188.1 1.094e+04 7.189e-10
 27.21101    188.1 1.104e+04 7.490e-10
 27.22223    189.0 1.125e+04 8.657e-10
 27.24219    188.8 1.145e+04 9.416e-10
 27.25529    189.0 1.211e+04 1.267e-09
 27.26651    189.4 1.162e+04 1.010e-09
 27.28463    188.6 1.178e+04 1.079e-09
 27.29586    189.2 1.234e+04 1.355e-09
 27.30953    188.2 1.226e+04 1.373e-09
 27.32706    186.4 1.261e+04 1.489e-09
 27.33828    184.9 1.420e+04 2.252e-09
 27.34822    182.2 1.452e+04 2.359e-09
 27.35378    182.1 1.492e+04 2.685e-09
 27.35993    180.4 1.535e+04 2.908e-09
 27.36938    177.9 1.616e+04 3.544e-09
 27.37499    175.5 1.752e+04 5.172e-09
 27.38238    170.6 2.004e+04 8.084e-09
 27.39059    163.4 2.417e+04 1.641e-08
 27.39620    158.4 2.606e+04 2.974e-08
 27.40482    151.8 2.697e+04 6.460e-08
 27.41180    147.1 2.616e+04 1.014e-07
 27.41344    144.5 2.605e+04 9.244e-08
 27.41769    147.4 2.613e+04 9.228e-08
 27.42727    144.1 2.545e+04 9.494e-08
 27.43301    142.0 2.464e+04 7.122e-08
 27.43863    140.5 2.405e+04 3.666e-08
 27.44861    138.4 2.269e+04 1.527e-08
 27.45423    135.8 2.203e+04 6.699e-09
 27.46660    125.2 1.646e+04 5.168e-10
 27.50042    107.2 1.081e+04 1.806e-10
 27.52814    100.9 8.597e+03 1.394e-10
 27.55059     98.0 8.516e+03 1.353e-10
 27.56925     98.0 8.641e+03 1.178e-10
 27.59170     99.6 8.359e+03 1.081e-10
 27.61298     99.7 8.466e+03 1.055e-10
 27.63543     96.9 8.487e+03 1.066e-10
 27.67538     96.8 8.736e+03 1.158e-10
 27.69783     95.1 9.016e+03 1.286e-10
 27.71366     95.2 9.827e+03 1.615e-10
 27.72883     93.9 1.088e+04 2.444e-10
 27.74006     91.6 1.175e+04 4.208e-10
 27.75845     91.0 1.214e+04 8.022e-10
 27.77126     91.0 1.241e+04 1.393e-09
 27.78248     89.9 1.324e+04 2.142e-09
 27.80246     89.8 1.439e+04 3.424e-09
 27.81368     88.0 1.594e+04 5.395e-09
 27.82579     87.2 1.723e+04 7.756e-09
 27.84488     86.5 1.816e+04 9.362e-09
 27.85610     84.9 1.815e+04 1.092e-08
 27.87069     84.7 1.781e+04 9.570e-09
 27.88283     84.6 1.726e+04 7.597e-09
 27.88822     85.5 1.695e+04 7.900e-09
 27.89852     84.5 1.679e+04 7.718e-09
 27.91558     84.7 1.619e+04 5.876e-09
 27.92972     85.2 1.548e+04 3.881e-09
 27.94095     84.3 1.518e+04 2.675e-09
 27.96047     83.5 1.425e+04 1.487e-09
 27.97215     82.1 1.291e+04 8.460e-10
 27.98337     79.9 1.173e+04 5.234e-10
 28.00334     79.3 1.065e+04 4.031e-10
 28.01457     78.3 1.021e+04 3.271e-10
 28.02781     79.4 1.025e+04 3.404e-10
 28.04577     80.3 1.035e+04 3.555e-10
 28.05699     79.9 1.036e+04 3.330e-10
 28.07270     80.8 1.037e+04 3.503e-10
 28.08819     81.6 1.038e+04 3.776e-10
 28.09941     81.1 1.039e+04 3.791e-10
 28.11760     81.8 1.054e+04 4.395e-10
 28.13061     82.4 1.070e+04 5.189e-10
 28.14184     81.8 1.075e+04 5.458e-10
 28.16181     82.5 1.085e+04 6.271e-10
 28.17303     82.0 1.086e+04 6.530e-10
 28.18493     82.7 1.099e+04 7.303e-10
 28.19660     83.5 1.100e+04 7.352e-10
 28.20467     84.2 1.113e+04 7.913e-10
 28.21546     83.7 1.106e+04 7.629e-10
 28.22983     84.2 1.109e+04 7.557e-10
 28.24666     84.7 1.104e+04 7.102e-10
 28.25788     84.1 1.090e+04 6.029e-10
 28.27472     84.1 1.080e+04 5.462e-10
 28.28908     84.2 1.064e+04 4.763e-10
 28.30030     83.7 1.047e+04 4.118e-10
 28.31961     83.6 1.044e+04 3.981e-10
 28.33150     83.5 1.045e+04 3.847e-10
 28.34272     83.0 1.027e+04 3.321e-10
 28.36270     83.0 1.031e+04 3.358e-10
 28.37392     82.7 1.012e+04 3.040e-10
 28.38695     82.7 1.019e+04 3.189e-10
 28.40512     82.7 1.025e+04 3.314e-10
 28.41635     82.2 1.021e+04 3.321e-10
 28.43185     82.2 1.035e+04 3.688e-10
 28.44755     82.3 1.046e+04 3.995e-10
 28.45877     82.0 1.045e+04 4.086e-10
 28.47674     82.0 1.062e+04 4.646e-10
 28.48997     82.0 1.083e+04 5.376e-10
 28.50115     81.7 1.087e+04 5.826e-10
 28.52113     81.7 1.144e+04 8.433e-10
 28.53239     81.6 1.154e+04 8.735e-10
 28.54408     81.8 1.175e+04 1.001e-09
 28.56359     82.2 1.184e+04 1.107e-09
 28.57481     81.9 1.184e+04 1.071e-09
 28.58897     82.3 1.182e+04 1.072e-09
 28.60601     82.7 1.168e+04 1.025e-09
 28.61724     82.3 1.153e+04 9.061e-10
 28.63386     82.6 1.133e+04 8.280e-10
 28.64843     82.8 1.112e+04 7.371e-10
 28.65966     82.2 1.097e+04 6.773e-10
 28.67876     82.4 1.082e+04 6.371e-10
 28.69086     82.7 1.069e+04 6.052e-10
 28.70208     82.4 1.063e+04 6.057e-10
 28.72206     82.8 1.057e+04 5.982e-10
 28.73328     82.5 1.053e+04 6.100e-10
 28.74609     83.1 1.049e+04 6.021e-10
 28.76448     83.6 1.042e+04 5.796e-10
 28.77570     83.4 1.040e+04 5.959e-10
 28.79099     83.9 1.030e+04 5.564e-10
 28.80690     84.3 1.027e+04 5.202e-10
 28.81761     84.2 1.015e+04 5.142e-10
 28.82414     83.6 1.039e+04 5.891e-10
 28.83588     84.0 1.046e+04 5.563e-10
 28.84932     84.2 1.055e+04 5.399e-10
 28.86055     84.1 1.027e+04 4.757e-10
 28.88052     84.6 1.027e+04 4.380e-10
 28.89175     84.3 9.977e+03 3.861e-10
 28.90322     84.5 1.002e+04 3.876e-10
 28.92295     85.3 9.777e+03 3.430e-10
 28.93417     85.2 9.595e+03 3.147e-10
 28.94811     85.4 9.590e+03 3.050e-10
 28.96537     86.3 9.448e+03 2.875e-10
 28.98791     86.1 9.513e+03 3.170e-10
 29.02687     87.5 9.453e+03 3.190e-10
 29.05041     89.1 9.307e+03 2.973e-10
 29.07286     89.3 9.225e+03 2.876e-10
 29.11281     90.9 9.175e+03 2.743e-10
 29.13525     91.2 9.252e+03 2.904e-10
 29.16155     92.6 9.315e+03 3.024e-10
 29.19765     93.9 9.420e+03 3.294e-10
 29.22000     93.8 9.543e+03 3.671e-10
 29.23988     94.4 9.657e+03 4.033e-10
 29.26233     94.4 1.020e+04 5.929e-10
 29.28230     94.9 1.044e+04 6.897e-10
 29.29352     94.7 1.093e+04 9.141e-10
 29.30725     95.0 1.112e+04 9.935e-10
 29.32472     95.4 1.117e+04 9.796e-10
 29.33595     94.7 1.155e+04 1.172e-09
 29.35215     94.7 1.154e+04 1.122e-09
 29.36715     94.7 1.149e+04 1.076e-09
 29.37837     93.8 1.173e+04 1.172e-09
 29.39704     93.9 1.158e+04 1.073e-09
 29.40957     94.1 1.142e+04 9.688e-10
 29.42079     92.9 1.158e+04 1.011e-09
 29.44046     93.2 1.144e+04 9.011e-10
 29.45052     92.2 1.177e+04 1.062e-09
 29.45199     90.9 1.185e+04 1.055e-09
 29.46438     91.4 1.168e+04 9.350e-10
 29.48319     91.9 1.154e+04 8.347e-10
 29.49441     90.8 1.159e+04 7.825e-10
 29.50927     91.4 1.143e+04 6.973e-10
 29.52561     92.1 1.135e+04 6.437e-10
 29.53684     91.1 1.134e+04 5.835e-10
 29.55416     91.8 1.126e+04 5.517e-10
 29.56804     92.7 1.117e+04 5.349e-10
 29.57926     91.8 1.102e+04 4.880e-10
 29.59906     92.8 1.102e+04 4.951e-10
 29.61046     93.6 1.110e+04 5.170e-10
 29.62168     92.8 1.106e+04 5.143e-10
 29.64166     93.6 1.113e+04 5.420e-10
 29.65288     92.8 1.113e+04 5.513e-10
 29.66640     93.7 1.119e+04 5.818e-10
 29.68408     94.5 1.127e+04 6.146e-10
 29.69530     93.9 1.125e+04 6.295e-10
 29.71129     94.8 1.124e+04 6.267e-10
 29.72650     95.6 1.126e+04 6.124e-10
 29.73773     95.2 1.123e+04 5.823e-10
 29.75423     95.7 1.125e+04 5.310e-10
 29.76545     94.1 1.102e+04 5.013e-10
 29.76893     94.1 1.091e+04 4.902e-10
 29.78015     93.6 1.078e+04 4.593e-10
 29.80012     93.4 1.075e+04 4.694e-10
 29.81135     92.9 1.078e+04 4.732e-10
 29.82352     92.2 1.084e+04 5.464e-10
 29.84255     91.6 1.108e+04 7.204e-10
 29.85377     90.9 1.141e+04 8.713e-10
 29.86841     90.6 1.192e+04 1.237e-09
 29.88497     90.7 1.262e+04 1.685e-09
 29.89619     90.2 1.309e+04 2.092e-09
 29.91331     90.2 1.362e+04 2.299e-09
 29.92739     90.0 1.370e+04 2.243e-09
 29.93862     89.4 1.372e+04 2.314e-09
 29.95820     89.1 1.347e+04 1.884e-09
 29.96981     88.6 1.301e+04 1.412e-09
 29.98104     87.9 1.289e+04 1.245e-09
 30.00101     87.5 1.249e+04 8.907e-10
 30.02356     86.4 1.262e+04 7.092e-10
 30.05697     85.5 1.175e+04 6.108e-10
 30.07942     84.7 1.162e+04 5.768e-10
 30.08605     85.4 1.179e+04 5.947e-10
 30.10850     85.0 1.236e+04 6.984e-10
 30.14845     85.1 1.280e+04 6.732e-10
 30.17090     84.3 1.299e+04 7.111e-10
 30.19408     83.5 1.260e+04 6.147e-10
 30.23330     82.6 1.211e+04 6.279e-10
 30.25574     81.7 1.155e+04 5.202e-10
 30.28387     81.5 1.151e+04 5.470e-10
 30.31744     81.4 1.152e+04 5.819e-10
 30.32917     81.6 1.160e+04 6.251e-10
 30.34049     81.5 1.152e+04 6.313e-10
 30.36047     81.9 1.165e+04 7.092e-10
 30.37159     82.1 1.163e+04 7.307e-10
 30.38177     82.6 1.175e+04 8.268e-10
 30.39299     82.4 1.193e+04 8.869e-10
 30.40279     82.9 1.213e+04 1.053e-09
 30.41402     83.5 1.208e+04 1.110e-09
 30.42957     83.9 1.236e+04 1.332e-09
 30.44521     84.4 1.265e+04 1.649e-09
 30.45644     84.8 1.266e+04 1.650e-09
 30.47447     85.6 1.297e+04 2.074e-09
 30.48764     86.4 1.329e+04 2.566e-09
 30.49886     86.9 1.324e+04 2.483e-09
 30.51884     87.8 1.350e+04 2.952e-09
 30.53006     88.3 1.325e+04 2.610e-09
 30.54181     89.3 1.349e+04 3.008e-09
 30.56126     90.2 1.369e+04 3.241e-09
 30.57248     90.6 1.335e+04 2.679e-09
 30.58670     91.4 1.362e+04 2.974e-09
 30.60368     92.2 1.394e+04 3.248e-09
 30.61490     92.5 1.355e+04 2.604e-09
 30.63159     93.2 1.393e+04 2.972e-09
 30.64610     93.8 1.444e+04 3.313e-09
 30.65733     93.9 1.374e+04 2.591e-09
 30.67648     94.5 1.416e+04 2.887e-09
 30.68853     95.0 1.453e+04 3.080e-09
 30.69636     94.8 1.351e+04 2.386e-09
 30.70676     94.7 1.584e+04 3.511e-09
 30.71973     95.3 1.596e+04 3.934e-09
 30.73095     94.9 1.385e+04 2.488e-09
 30.74382     95.3 1.389e+04 2.842e-09
 30.76215     95.7 1.397e+04 3.239e-09
 30.77337     95.5 1.299e+04 2.560e-09
 30.78872     96.1 1.329e+04 3.109e-09
 30.80457     96.8 1.366e+04 3.820e-09
 30.81579     96.8 1.322e+04 3.181e-09
 30.83361     97.5 1.354e+04 3.972e-09
 30.84699     98.5 1.383e+04 4.840e-09
 30.85822     98.9 1.336e+04 3.845e-09
 30.87819     99.8 1.351e+04 4.459e-09
 30.88942    100.4 1.301e+04 3.087e-09
 30.90095    101.3 1.298e+04 3.205e-09
 30.92061    102.0 1.295e+04 3.186e-09
 30.93184    102.4 1.236e+04 2.177e-09
 30.94584    103.0 1.225e+04 2.152e-09
 30.96304    103.7 1.210e+04 2.084e-09
 30.97436    103.5 1.135e+04 1.179e-09
 31.00215    104.9 1.120e+04 1.167e-09
 31.03685    106.2 1.108e+04 1.147e-09
 31.05930    106.6 1.056e+04 8.298e-10
 31.09194    108.3 1.059e+04 9.264e-10
 31.12170    109.9 1.053e+04 9.392e-10
 31.14415    110.5 1.013e+04 7.585e-10
 31.18172    112.3 1.009e+04 7.443e-10
 31.20654    114.1 9.901e+03 6.697e-10
 31.22899    114.9 9.564e+03 5.245e-10
 31.26894    116.7 9.283e+03 4.173e-10
 31.29139    117.5 9.045e+03 3.314e-10
 31.31205    119.1 8.766e+03 2.414e-10
 31.33450    120.7 8.694e+03 3.208e-10
 31.35379    122.7 8.510e+03 2.687e-10
 31.37623    123.6 8.330e+03 2.207e-10
 31.40619    125.4 8.085e+03 1.682e-10
 31.43863    127.0 7.959e+03 1.441e-10
 31.46108    128.0 7.696e+03 1.146e-10
 31.49597    129.6 7.649e+03 1.133e-10
 31.52348    131.3 7.688e+03 1.176e-10
 31.54592    132.7 7.555e+03 1.076e-10
 31.58576    134.5 7.694e+03 1.251e-10
 31.63065    137.9 8.083e+03 1.752e-10
 31.67072    139.5 8.753e+03 2.724e-10
 31.69317    141.4 8.735e+03 2.724e-10
 31.70912    141.8 8.973e+03 3.231e-10
 31.72417    142.1 9.254e+03 3.850e-10
 31.73539    142.9 9.257e+03 3.864e-10
 31.75391    143.3 9.683e+03 5.086e-10
 31.76659    143.8 1.017e+04 6.941e-10
 31.77782    144.7 1.018e+04 7.092e-10
 31.79779    145.1 1.073e+04 9.538e-10
 31.80902    146.0 1.076e+04 9.881e-10
 31.82125    146.2 1.144e+04 1.309e-09
 31.84022    146.1 1.218e+04 1.693e-09
 31.85144    146.8 1.234e+04 1.830e-09
 31.86614    146.4 1.305e+04 2.310e-09
 31.88264    146.0 1.348e+04 2.502e-09
 31.89386    146.6 1.382e+04 2.882e-09
 31.91104    145.9 1.384e+04 2.855e-09
 31.92506    145.1 1.368e+04 2.609e-09
 31.93628    145.6 1.408e+04 3.044e-09
 31.95062    144.8 1.349e+04 2.407e-09
 31.96185    146.2 1.406e+04 2.986e-09
 31.96748    145.4 1.326e+04 2.124e-09
 31.97871    145.8 1.347e+04 2.306e-09
 31.99868    144.9 1.245e+04 1.557e-09
 32.00991    145.1 1.256e+04 1.616e-09
 32.03459    145.0 1.155e+04 1.015e-09
 32.07250    143.8 9.842e+03 4.925e-10
 32.09495    144.0 9.936e+03 5.127e-10
 32.12447    143.7 8.559e+03 2.764e-10
 32.15734    143.9 8.035e+03 1.783e-10
 32.17979    144.4 8.145e+03 1.924e-10
 32.21426    144.8 8.088e+03 1.550e-10
 32.24219    145.7 8.025e+03 1.492e-10
 32.26464    146.1 7.924e+03 1.448e-10
 32.30404    147.3 7.884e+03 1.433e-10
 32.32703    148.6 7.890e+03 1.447e-10
 32.34948    149.0 7.877e+03 1.439e-10
 32.38943    150.4 7.889e+03 1.478e-10
 32.41188    150.8 7.892e+03 1.484e-10
 32.43872    152.1 7.948e+03 1.602e-10
 32.47428    153.3 8.086e+03 1.831e-10
 32.49672    153.8 8.084e+03 1.832e-10
 32.52851    154.8 8.293e+03 2.184e-10
 32.55912    155.7 8.640e+03 2.790e-10
 32.57531    156.2 8.659e+03 2.837e-10
 32.58958    156.9 8.711e+03 2.926e-10
 32.61829    157.0 9.149e+03 3.872e-10
 32.64397    157.0 9.613e+03 5.035e-10
 32.66641    157.6 9.616e+03 5.104e-10
 32.70637    157.4 1.012e+04 6.663e-10
 32.72881    158.0 9.943e+03 6.075e-10
 32.75297    157.4 1.023e+04 6.317e-10
 32.79121    156.3 1.023e+04 6.168e-10
 32.81366    156.8 9.960e+03 5.129e-10
 32.84276    155.5 9.938e+03 4.679e-10
 32.87606    154.3 9.764e+03 3.857e-10
 32.89850    154.8 9.714e+03 3.719e-10
 32.93254    154.0 9.713e+03 3.467e-10
 32.96090    153.5 9.749e+03 3.468e-10
 32.98335    154.0 9.769e+03 3.411e-10
 33.02233    153.6 9.878e+03 3.461e-10
 33.04575    153.3 1.002e+04 3.622e-10
 33.06819    154.1 9.735e+03 2.706e-10
 33.10814    153.9 9.734e+03 2.692e-10
 33.13059    154.5 9.328e+03 1.734e-10
 33.15701    154.5 9.320e+03 1.760e-10
 33.19299    154.5 9.323e+03 1.918e-10
 33.20822    155.3 8.964e+03 1.337e-10
 33.21713    154.2 9.172e+03 1.699e-10
 33.24679    154.3 9.473e+03 2.391e-10
 33.27783    154.5 9.830e+03 3.292e-10
 33.30028    155.5 9.575e+03 2.676e-10
 33.33658    155.8 9.934e+03 3.541e-10
 33.36258    156.3 1.001e+04 3.807e-10
 33.38503    156.9 1.000e+04 3.660e-10
 33.40500    157.2 1.018e+04 4.318e-10
 33.41613    157.5 1.005e+04 3.864e-10
 33.43611    157.9 1.023e+04 4.512e-10
 33.44733    158.0 1.005e+04 3.876e-10
 33.45984    158.4 1.028e+04 4.776e-10
 33.47853    158.9 1.053e+04 6.004e-10
 33.48975    158.8 1.039e+04 5.421e-10
 33.50473    159.3 1.072e+04 6.866e-10
 33.51948    159.7 1.112e+04 8.574e-10
 33.52447    158.6 1.129e+04 9.435e-10
 33.53217    158.0 1.143e+04 9.968e-10
 33.54962    158.0 1.189e+04 1.240e-09
 33.56337    158.3 1.237e+04 1.548e-09
 33.57460    157.3 1.260e+04 1.769e-09
 33.59452    157.8 1.307e+04 2.166e-09
 33.61696    157.8 1.346e+04 2.591e-09
 33.63700    158.9 1.403e+04 2.940e-09
 33.64822    157.5 1.366e+04 2.457e-09
 33.66186    157.4 1.500e+04 2.478e-09
 33.67631    156.2 1.616e+04 2.550e-09
 33.68188    154.9 1.679e+04 2.549e-09
 33.68493    149.6 2.193e+04 3.184e-09
 33.69059    143.2 2.340e+04 3.511e-09
 33.70058    134.5 2.585e+04 7.930e-09
 33.70614    132.3 2.424e+04 8.194e-09
 33.71226    126.4 2.202e+04 1.761e-08
 33.72174    124.4 2.021e+04 3.112e-08
 33.72735    122.9 2.009e+04 2.669e-08
 33.73471    121.4 1.968e+04 2.904e-08
 33.74295    119.8 1.991e+04 2.682e-08
 33.74857    118.5 1.901e+04 2.244e-08
 33.75716    117.2 1.876e+04 1.718e-08
 33.76421    115.9 1.930e+04 8.587e-09
 33.77549    114.9 1.656e+04 5.773e-09
 33.79546    111.1 1.379e+04 8.501e-10
 33.80669    110.2 1.311e+04 6.592e-10
 33.82212     98.9 1.189e+04 1.672e-10
 33.84112     98.1 1.045e+04 2.363e-10
 33.84930     97.1 1.037e+04 2.151e-10
 33.86397     90.3 9.500e+03 2.110e-10
 33.88031     89.1 9.272e+03 2.127e-10
 33.89153     88.9 9.265e+03 2.138e-10
 33.90877     86.7 9.616e+03 2.575e-10
 33.92273     82.7 1.105e+04 5.054e-10
 33.93395     82.7 1.116e+04 5.614e-10
 33.95366     79.4 1.227e+04 1.249e-09
 33.96515     78.0 1.241e+04 1.777e-09
 33.97638     78.6 1.255e+04 1.858e-09
 33.99635     77.6 1.248e+04 1.833e-09
 34.00757     78.1 1.249e+04 1.835e-09
 34.02100     77.6 1.208e+04 1.520e-09
 34.03877     76.6 1.158e+04 1.015e-09
 34.05000     77.0 1.139e+04 9.192e-10
 34.06589     74.6 1.087e+04 5.137e-10
 34.08120     71.1 1.012e+04 3.035e-10
 34.09242     71.1 9.927e+03 2.929e-10
 34.11078     69.0 9.324e+03 2.549e-10
 34.12362     67.4 9.459e+03 2.705e-10
 34.13484     68.0 9.467e+03 2.831e-10
 34.14702     65.7 1.021e+04 4.079e-10
 34.15738     66.0 1.041e+04 4.680e-10
 34.16604     66.7 1.040e+04 5.116e-10
 34.17812     64.6 1.124e+04 8.628e-10
 34.19724     64.1 1.162e+04 1.311e-09
 34.20846     65.1 1.175e+04 1.403e-09
 34.22302     65.3 1.187e+04 1.571e-09
 34.23966     65.5 1.174e+04 1.460e-09
 34.25089     66.3 1.180e+04 1.512e-09
 34.26791     66.1 1.154e+04 1.146e-09
 34.28209     65.0 1.105e+04 7.195e-10
 34.29331     65.8 1.110e+04 7.416e-10
 34.31280     63.5 1.044e+04 4.091e-10
 34.32451     62.6 9.975e+03 3.408e-10
 34.33573     62.6 9.879e+03 3.206e-10
 34.36901     62.0 9.484e+03 2.445e-10
 34.39832     61.3 9.340e+03 2.314e-10
 34.42077     62.1 9.490e+03 2.660e-10
 34.44976     61.3 9.727e+03 3.159e-10
 34.47221     60.9 9.588e+03 2.694e-10
 34.48307     60.3 9.874e+03 3.813e-10
 34.49420     60.6 9.994e+03 4.087e-10
 34.51417     60.5 1.020e+04 4.717e-10
 34.52540     60.7 1.041e+04 5.312e-10
 34.53727     59.1 1.141e+04 7.833e-10
 34.55660     56.5 1.265e+04 1.203e-09
 34.56782     56.5 1.296e+04 1.402e-09
 34.58216     54.9 1.317e+04 1.963e-09
 34.59902     55.1 1.300e+04 2.521e-09
 34.61024     55.4 1.320e+04 2.648e-09
 34.62705     55.6 1.297e+04 2.392e-09
 34.64144     55.4 1.263e+04 1.688e-09
 34.65266     55.1 1.290e+04 1.719e-09
 34.67194     52.8 1.265e+04 1.037e-09
 34.68386     49.7 1.161e+04 7.154e-10
 34.69509     49.6 1.177e+04 7.871e-10
 34.71506     47.3 1.116e+04 6.273e-10
 34.72629     47.3 1.150e+04 7.490e-10
 34.73928     45.8 1.118e+04 7.106e-10
 34.75749     44.6 1.111e+04 7.095e-10
 34.76871     44.3 1.138e+04 8.545e-10
 34.77456     43.3 1.141e+04 8.652e-10
 34.78578     43.6 1.153e+04 8.885e-10
 34.79991     42.5 1.139e+04 8.489e-10
 34.81113     42.3 1.155e+04 9.726e-10
 34.82907     41.5 1.135e+04 8.665e-10
 34.84233     40.5 1.110e+04 6.940e-10
 34.85355     40.3 1.117e+04 6.902e-10
 34.87353     38.8 1.084e+04 5.370e-10
 34.88475     38.1 1.091e+04 5.044e-10
 34.89641     35.9 1.058e+04 3.939e-10
 34.91595     33.9 1.052e+04 3.572e-10
 34.92718     32.6 1.052e+04 3.550e-10
 34.94130     30.1 1.093e+04 3.697e-10
 34.95837     26.1 1.228e+04 5.159e-10
 34.96960     23.7 1.253e+04 5.985e-10
 34.98619     18.9 1.321e+04 1.024e-09
 35.00080     15.8 1.347e+04 1.798e-09
 35.01202     14.9 1.337e+04 1.845e-09
 35.03109     12.7 1.358e+04 2.283e-09
 35.04322     10.3 1.358e+04 2.320e-09
 35.05444      8.3 1.332e+04 2.092e-09
 35.07442      5.5 1.246e+04 1.465e-09
 35.08564      3.7 1.228e+04 1.441e-09
 35.08833      0.9 1.152e+04 1.002e-09
 35.09955      1.1 1.163e+04 1.040e-09
 35.11684     -1.6 1.089e+04 7.706e-10
 35.12806     -2.4 1.097e+04 8.631e-10
 35.14332     -4.3 1.069e+04 7.174e-10
 35.15926     -6.0 1.067e+04 6.676e-10
 35.17049     -7.5 1.086e+04 6.986e-10
 35.18821     -9.7 1.087e+04 6.922e-10
 35.20169    -12.2 1.113e+04 7.277e-10
 35.21291    -14.5 1.131e+04 8.044e-10
 35.23289    -17.0 1.173e+04 1.047e-09
 35.24411    -19.0 1.201e+04 1.262e-09
 35.25555    -20.4 1.241e+04 1.639e-09
 35.27531    -21.4 1.265e+04 1.917e-09
 35.28653    -22.7 1.261e+04 1.929e-09
 35.30044    -23.8 1.264e+04 1.953e-09
 35.31773    -24.9 1.246e+04 1.813e-09
 35.32895    -26.5 1.224e+04 1.546e-09
 35.34534    -28.1 1.187e+04 1.284e-09
 35.36015    -29.6 1.149e+04 1.085e-09
 35.37138    -31.9 1.157e+04 1.062e-09
 35.39023    -33.5 1.146e+04 1.025e-09
 35.40210    -35.2 1.162e+04 1.032e-09
 35.40323    -35.2 1.180e+04 1.109e-09
 35.41380    -39.0 1.289e+04 1.593e-09
 35.43377    -40.6 1.315e+04 1.898e-09
 35.44500    -42.6 1.350e+04 2.572e-09
 35.45757    -43.3 1.334e+04 2.626e-09
 35.47620    -43.8 1.307e+04 2.384e-09
 35.48742    -44.9 1.269e+04 2.150e-09
 35.50246    -45.7 1.231e+04 1.771e-09
 35.51862    -46.8 1.190e+04 1.456e-09
 35.54116    -48.6 1.093e+04 7.652e-10
 35.58121    -50.2 9.963e+03 4.578e-10
 35.62611    -53.7 8.203e+03 1.454e-10
 35.66606    -54.2 8.192e+03 1.439e-10
 35.68851    -54.4 8.081e+03 1.415e-10
 35.70485    -54.6 8.334e+03 1.940e-10
 35.72729    -53.9 8.862e+03 2.998e-10
 35.75090    -53.9 9.215e+03 4.043e-10
 35.77335    -53.1 9.208e+03 4.055e-10
 35.80568    -53.3 9.511e+03 4.851e-10
 35.83575    -54.6 9.961e+03 5.955e-10
 35.85819    -53.8 9.873e+03 5.590e-10
 35.89547    -55.7 1.053e+04 7.440e-10
 35.92059    -57.6 1.126e+04 1.074e-09
 35.94304    -57.0 1.118e+04 9.971e-10
 35.98299    -59.2 1.156e+04 1.225e-09
 36.00544    -58.8 1.149e+04 1.164e-09
 36.03015    -60.9 1.149e+04 1.175e-09
 36.06784    -62.1 1.104e+04 8.914e-10
 36.09019    -61.5 1.082e+04 7.875e-10
 36.10851    -62.1 1.020e+04 5.288e-10
 36.12129    -62.6 9.833e+03 3.884e-10
 36.13251    -62.4 9.848e+03 3.877e-10
 36.15258    -63.1 9.519e+03 3.010e-10
 36.17513    -62.2 9.598e+03 3.074e-10
 36.20972    -62.4 9.288e+03 2.278e-10
 36.23753    -62.1 9.119e+03 1.885e-10
 36.25997    -61.0 9.335e+03 2.194e-10
 36.29950    -60.0 9.342e+03 2.161e-10
 36.32237    -59.5 9.860e+03 2.566e-10
 36.33281    -58.3 1.023e+04 2.940e-10
 36.34351    -58.6 1.008e+04 2.894e-10
 36.35338    -58.7 1.028e+04 3.229e-10
 36.36460    -58.3 1.039e+04 3.362e-10
 36.37787    -58.4 1.081e+04 4.549e-10
 36.39580    -58.4 1.124e+04 6.303e-10
 36.40702    -57.6 1.142e+04 7.011e-10
 36.42276    -57.2 1.183e+04 9.271e-10
 36.43822    -56.9 1.219e+04 1.176e-09
 36.44944    -56.1 1.245e+04 1.264e-09
 36.46766    -56.8 1.328e+04 1.668e-09
 36.48064    -58.9 1.478e+04 2.448e-09
 36.49187    -64.1 1.886e+04 5.324e-09
 36.51184    -67.0 2.060e+04 8.926e-09
 36.52302    -71.1 2.297e+04 1.844e-08
 36.52929    -72.0 2.307e+04 2.442e-08
 36.53857    -72.0 2.324e+04 2.914e-08
 36.54418    -72.3 2.303e+04 5.220e-08
 36.55173    -71.9 2.322e+04 5.470e-08
 36.55978    -71.8 2.337e+04 5.475e-08
 36.56539    -72.1 2.358e+04 5.941e-08
 36.57418    -73.1 2.348e+04 4.641e-08
 36.58099    -73.9 2.280e+04 3.736e-08
 36.58660    -74.8 2.171e+04 3.034e-08
 36.59659    -75.4 2.073e+04 2.545e-08
 36.60781    -76.5 1.892e+04 1.516e-08
 36.62473    -76.6 1.883e+04 1.489e-08
 36.63911    -76.2 1.859e+04 1.474e-08
 36.64907    -75.9 1.659e+04 6.468e-09
 36.65719    -75.3 1.661e+04 4.940e-09
 36.66967    -74.9 1.652e+04 4.825e-09
 36.68153    -74.4 1.632e+04 4.631e-09
 36.69276    -75.5 1.465e+04 1.888e-09
 36.71273    -74.9 1.453e+04 1.927e-09
 36.72396    -76.2 1.243e+04 9.456e-10
 36.73701    -75.1 1.237e+04 1.017e-09
 36.75515    -74.0 1.228e+04 1.030e-09
 36.76638    -73.8 1.122e+04 7.457e-10
 36.78190    -72.7 1.122e+04 7.542e-10
 36.79758    -71.6 1.114e+04 7.403e-10
 36.80880    -70.7 1.087e+04 6.607e-10
 36.82680    -69.7 1.090e+04 6.743e-10
 36.84000    -68.8 1.096e+04 7.001e-10
 36.85122    -68.5 1.099e+04 7.065e-10
 36.87130    -67.8 1.105e+04 7.456e-10
 36.89384    -65.6 1.074e+04 6.584e-10
 36.92800    -64.0 1.060e+04 6.157e-10
 36.95624    -62.6 1.047e+04 5.795e-10
 36.96572    -60.9 1.038e+04 5.429e-10
 36.98237    -61.2 9.784e+03 3.149e-10
 37.01779    -60.1 9.808e+03 3.386e-10
 37.04108    -58.9 9.815e+03 3.688e-10
 37.06353    -57.7 9.995e+03 4.418e-10
 37.10348    -56.6 9.989e+03 4.566e-10
 37.12593    -55.6 1.030e+04 5.746e-10
 37.15247    -54.4 1.017e+04 5.279e-10
 37.18833    -53.0 1.011e+04 5.061e-10
 37.21077    -52.6 1.012e+04 4.797e-10
 37.24225    -51.7 1.009e+04 4.666e-10
 37.27317    -51.4 1.043e+04 5.259e-10
 37.29562    -51.7 1.030e+04 4.506e-10
 37.33204    -52.5 1.162e+04 7.103e-10
 37.35792    -52.6 1.199e+04 9.305e-10
 37.36905    -52.8 1.215e+04 8.888e-10
 37.38796    -53.6 1.322e+04 1.324e-09
 37.40024    -53.9 1.394e+04 1.954e-09
 37.41147    -54.1 1.413e+04 2.168e-09
 37.43144    -54.0 1.450e+04 3.017e-09
 37.44267    -54.1 1.472e+04 3.461e-09
 37.45530    -53.9 1.498e+04 4.239e-09
 37.47387    -53.8 1.506e+04 4.599e-09
 37.48509    -54.0 1.562e+04 5.608e-09
 37.50019    -54.0 1.564e+04 5.679e-09
 37.51629    -53.8 1.546e+04 5.334e-09
 37.52751    -53.9 1.600e+04 6.788e-09
 37.54508    -53.4 1.554e+04 5.641e-09
 37.55871    -52.9 1.507e+04 4.696e-09
 37.56993    -52.2 1.518e+04 5.017e-09
 37.58727    -51.8 1.467e+04 4.067e-09
 37.59843    -51.5 1.412e+04 3.274e-09
 37.61236    -50.6 1.391e+04 2.976e-09
 37.63233    -50.4 1.385e+04 2.903e-09
 37.64356    -49.9 1.373e+04 2.639e-09
 37.65731    -49.6 1.373e+04 2.626e-09
 37.67476    -49.6 1.403e+04 2.938e-09
 37.68598    -49.2 1.381e+04 2.507e-09
 37.70221    -49.6 1.438e+04 3.173e-09
 37.71718    -49.9 1.500e+04 4.260e-09
 37.72840    -50.1 1.501e+04 4.003e-09
 37.74710    -50.4 1.585e+04 5.686e-09
 37.75960    -50.6 1.680e+04 7.977e-09
 37.77082    -50.8 1.671e+04 7.815e-09
 37.79080    -50.8 1.742e+04 1.034e-08
 37.80202    -50.6 1.672e+04 8.801e-09
 37.81444    -50.7 1.693e+04 9.670e-09
 37.83322    -50.9 1.694e+04 9.823e-09
 37.84445    -50.0 1.571e+04 6.183e-09
 37.85933    -49.8 1.542e+04 5.247e-09
 37.87564    -49.9 1.501e+04 4.049e-09
 37.88687    -50.0 1.379e+04 1.946e-09
 37.90104    -50.9 1.332e+04 1.346e-09
 37.91227    -50.1 1.414e+04 2.589e-09
 37.91807    -50.7 1.361e+04 1.922e-09
 37.92929    -51.2 1.238e+04 9.438e-10
 37.94912    -51.8 1.173e+04 7.314e-10
 37.96049    -51.9 1.109e+04 6.107e-10
 37.97171    -52.1 1.030e+04 4.662e-10
 37.99169    -51.7 1.024e+04 4.704e-10
 38.01423    -50.5 9.461e+03 2.703e-10
 38.05032    -48.9 9.454e+03 2.734e-10
 38.07673    -47.6 9.587e+03 3.375e-10
 38.09918    -46.4 9.053e+03 1.809e-10
 38.13913    -45.2 9.331e+03 2.733e-10
 38.16157    -43.9 8.857e+03 1.620e-10
 38.18500    -42.6 9.086e+03 2.361e-10
 38.21501    -41.3 9.228e+03 2.926e-10
 38.23154    -40.4 9.494e+03 3.837e-10
 38.24642    -39.2 9.189e+03 2.948e-10
 38.27479    -37.9 9.229e+03 3.097e-10
 38.30882    -36.7 9.219e+03 3.078e-10
 38.33126    -35.6 9.001e+03 2.546e-10
 38.36457    -34.4 9.002e+03 2.493e-10
 38.39366    -33.3 8.983e+03 2.451e-10
 38.41611    -32.3 8.973e+03 2.462e-10
 38.45436    -31.4 9.146e+03 2.650e-10
 38.47841    -32.1 9.560e+03 2.826e-10
 38.48954    -31.2 9.579e+03 3.022e-10
 38.50951    -37.0 1.231e+04 3.527e-10
 38.52073    -38.6 1.342e+04 4.315e-10
 38.52859    -49.1 1.913e+04 3.394e-09
 38.53981    -47.7 2.038e+04 1.364e-09
 38.54951    -53.5 2.133e+04 1.113e-08
 38.55745    -55.0 2.166e+04 3.019e-08
 38.56306    -54.6 2.166e+04 3.386e-08
 38.57191    -55.6 2.212e+04 7.196e-08
 38.57866    -56.6 2.278e+04 1.172e-07
 38.58427    -56.8 2.301e+04 1.077e-07
 38.59426    -59.7 2.333e+04 1.182e-07
 38.59987    -60.5 2.343e+04 1.039e-07
 38.60558    -64.3 2.352e+04 8.949e-08
 38.61547    -68.4 2.323e+04 5.081e-08
 38.62108    -69.3 2.295e+04 4.908e-08
 38.62802    -73.1 2.159e+04 2.701e-08
 38.63668    -76.1 1.979e+04 1.629e-08
 38.64229    -75.9 1.999e+04 1.884e-08
 38.65047    -77.5 1.869e+04 1.283e-08
 38.65789    -78.5 1.758e+04 9.118e-09
 38.66350    -78.1 1.807e+04 1.084e-08
 38.67292    -79.0 1.719e+04 8.049e-09
 38.67910    -79.8 1.640e+04 6.223e-09
 38.68472    -79.7 1.700e+04 7.461e-09
 38.69099    -80.7 1.644e+04 6.119e-09
 38.69594    -81.6 1.724e+04 8.138e-09
 38.70031    -81.7 1.775e+04 9.647e-09
 38.70659    -82.8 1.736e+04 8.507e-09
 38.71591    -83.7 1.706e+04 7.762e-09
 38.72153    -83.9 1.751e+04 9.223e-09
 38.72903    -84.5 1.731e+04 8.731e-09
 38.73713    -85.0 1.710e+04 8.204e-09
 38.74274    -84.9 1.728e+04 8.820e-09
 38.75277    -85.5 1.677e+04 7.474e-09
 38.76405    -85.2 1.737e+04 9.790e-09
 38.77963    -86.3 1.656e+04 8.229e-09
 38.79525    -86.8 1.554e+04 6.327e-09
 38.80647    -86.5 1.549e+04 6.203e-09
 38.82453    -86.7 1.456e+04 4.547e-09
 38.83767    -86.9 1.383e+04 3.410e-09
 38.84428    -86.7 1.362e+04 2.998e-09
 38.85358    -87.6 1.342e+04 2.537e-09
 38.86887    -88.4 1.299e+04 2.092e-09
 38.88009    -88.9 1.263e+04 1.628e-09
 38.89187    -89.4 1.254e+04 1.579e-09
 38.91129    -89.8 1.249e+04 1.635e-09
 38.92251    -89.9 1.227e+04 1.478e-09
 38.93676    -90.2 1.253e+04 1.656e-09
 38.95371    -90.7 1.263e+04 1.714e-09
 38.96494    -90.8 1.234e+04 1.498e-09
 38.99297    -91.8 1.211e+04 1.375e-09
 39.02753    -92.2 1.163e+04 1.124e-09
 39.04998    -91.5 1.106e+04 8.085e-10
 39.08286    -91.7 1.045e+04 5.210e-10
 39.11237    -92.3 9.886e+03 3.134e-10
 39.13482    -92.2 9.477e+03 1.959e-10
 39.17264    -93.2 9.158e+03 1.303e-10
 39.19722    -93.9 9.035e+03 1.072e-10
 39.21967    -92.9 8.948e+03 1.061e-10
 39.25962    -92.9 8.951e+03 1.023e-10
 39.28206    -91.4 8.935e+03 1.048e-10
 39.30732    -91.0 8.953e+03 1.030e-10
 39.34446    -90.4 8.985e+03 1.015e-10
 39.36691    -89.0 8.995e+03 1.114e-10
 39.39711    -88.3 9.009e+03 1.109e-10
 39.42931    -87.6 9.028e+03 1.106e-10
 39.45175    -86.6 9.183e+03 1.458e-10
 39.47009    -86.0 9.319e+03 1.609e-10
 39.49254    -85.2 9.221e+03 1.441e-10
 39.51415    -84.7 9.405e+03 1.721e-10
 39.53660    -83.7 9.558e+03 2.220e-10
 39.57655    -83.2 9.799e+03 2.724e-10
 39.62144    -81.9 1.014e+04 3.686e-10
 39.66140    -81.5 1.046e+04 4.669e-10
 39.68384    -80.6 1.040e+04 4.489e-10
 39.71135    -80.3 1.063e+04 5.212e-10
 39.74624    -80.1 1.072e+04 5.468e-10
 39.76869    -79.2 1.059e+04 5.219e-10
 39.80114    -78.9 1.059e+04 5.175e-10
 39.83109    -78.5 1.052e+04 4.573e-10
 39.85353    -77.5 1.048e+04 4.537e-10
 39.89093    -77.0 1.041e+04 3.854e-10
 39.91593    -76.5 1.044e+04 3.453e-10
 39.93838    -75.6 1.057e+04 3.892e-10
 39.97833    -75.1 1.064e+04 3.863e-10
 40.00078    -74.2 1.097e+04 5.289e-10
 40.02560    -73.5 1.102e+04 5.403e-10
 40.05918    -72.8 1.095e+04 5.316e-10
 40.07420    -72.4 1.094e+04 5.303e-10
 40.08543    -71.9 1.116e+04 6.487e-10
 40.09744    -71.6 1.114e+04 6.449e-10
 40.10866    -71.1 1.111e+04 6.247e-10
 40.11662    -70.7 1.113e+04 6.346e-10
 40.12785    -70.2 1.133e+04 7.649e-10
 40.14782    -69.9 1.138e+04 7.779e-10
 40.15905    -69.4 1.169e+04 9.571e-10
 40.17131    -69.1 1.175e+04 9.744e-10
 40.19025    -68.8 1.181e+04 9.877e-10
 40.20147    -68.6 1.192e+04 1.070e-09
 40.21620    -68.5 1.192e+04 1.071e-09
 40.23267    -68.2 1.193e+04 1.063e-09
 40.24389    -68.0 1.201e+04 1.139e-09
 40.26110    -67.7 1.191e+04 1.067e-09
 40.27509    -67.2 1.168e+04 9.203e-10
 40.28631    -67.2 1.168e+04 9.177e-10
 40.30599    -66.8 1.149e+04 8.101e-10
 40.31751    -66.0 1.116e+04 6.282e-10
 40.32874    -65.9 1.103e+04 5.606e-10
 40.34871    -65.5 1.086e+04 4.695e-10
 40.35994    -65.5 1.081e+04 4.486e-10
 40.37333    -64.8 1.062e+04 3.561e-10
 40.39114    -64.4 1.060e+04 3.348e-10
 40.40236    -64.4 1.058e+04 3.228e-10
 40.42954    -63.7 1.061e+04 3.081e-10
 40.46495    -62.4 1.058e+04 3.013e-10
 40.48740    -62.2 1.057e+04 3.038e-10
 40.51943    -60.8 1.058e+04 3.190e-10
 40.54980    -59.5 1.061e+04 3.523e-10
 40.57224    -59.3 1.057e+04 3.851e-10
 40.60921    -58.1 1.059e+04 4.106e-10
 40.63464    -57.1 1.058e+04 4.249e-10
 40.65709    -56.7 1.045e+04 4.052e-10
 40.69704    -55.5 1.033e+04 3.711e-10
 40.71949    -54.9 1.004e+04 2.893e-10
 40.72518    -53.4 9.877e+03 2.381e-10
 40.74762    -53.7 9.980e+03 2.463e-10
 40.78189    -52.3 9.958e+03 2.363e-10
 40.80433    -51.6 9.666e+03 1.509e-10
 40.83367    -50.2 9.669e+03 1.486e-10
 40.86673    -48.9 9.726e+03 1.603e-10
 40.88918    -48.1 9.405e+03 1.042e-10
 40.92346    -46.9 9.471e+03 1.291e-10
 40.95158    -45.6 9.512e+03 1.693e-10
 40.97402    -44.6 9.358e+03 1.461e-10
 41.01325    -43.2 9.421e+03 1.833e-10
 41.03642    -41.7 9.454e+03 2.188e-10
 41.05887    -40.6 9.424e+03 2.099e-10
 41.09882    -39.0 9.426e+03 2.358e-10
 41.12127    -37.9 9.432e+03 2.300e-10
 41.14792    -36.2 9.423e+03 2.455e-10
 41.18366    -34.5 9.410e+03 2.504e-10
 41.20611    -33.4 9.397e+03 2.464e-10
 41.23771    -31.5 9.367e+03 2.485e-10
 41.26851    -29.5 9.264e+03 2.414e-10
 41.29096    -28.4 9.298e+03 2.382e-10
 41.32750    -26.3 9.242e+03 2.305e-10
 41.35272    -24.2 9.140e+03 2.202e-10
 41.35613    -24.2 9.060e+03 2.101e-10
 41.37580    -23.2 9.197e+03 2.167e-10
 41.41575    -20.9 9.057e+03 1.939e-10
 41.43820    -20.0 9.146e+03 1.949e-10
 41.46217    -17.7 9.058e+03 1.769e-10
 41.50060    -15.5 8.916e+03 1.509e-10
 41.52304    -14.6 9.049e+03 1.603e-10
 41.55196    -12.3 8.926e+03 1.345e-10
 41.58544    -10.1 8.792e+03 1.081e-10
 41.60789     -9.3 8.898e+03 1.172e-10
 41.64175     -7.1 8.768e+03 9.485e-11
 41.67029     -4.9 8.639e+03 8.187e-11
 41.69273     -4.1 8.727e+03 8.646e-11
 41.73153     -1.9 8.655e+03 8.138e-11
 41.75513      0.3 8.634e+03 8.087e-11
 41.77758      1.1 8.718e+03 8.513e-11
 41.81753      3.2 8.701e+03 8.581e-11
 41.83998      4.1 8.802e+03 9.065e-11
 41.86621      6.0 8.809e+03 9.870e-11
 41.90238      8.0 8.829e+03 1.113e-10
 41.92482      8.8 8.976e+03 1.294e-10
 41.95599     10.7 9.047e+03 1.508e-10
 41.98026     12.7 9.136e+03 1.723e-10
 41.98904     13.0 9.186e+03 1.859e-10
 42.00967     13.6 9.435e+03 2.267e-10
 42.04578     15.4 9.507e+03 2.362e-10
 42.07207     16.9 9.579e+03 2.415e-10
 42.09451     16.9 9.847e+03 2.858e-10
 42.13447     18.0 9.954e+03 3.033e-10
 42.15691     17.7 1.023e+04 3.893e-10
 42.18046     18.7 1.035e+04 4.543e-10
 42.21931     19.7 1.041e+04 4.969e-10
 42.24176     19.5 1.054e+04 5.904e-10
 42.27024     20.6 1.030e+04 4.702e-10
 42.30416     21.4 1.005e+04 3.531e-10
 42.32660     21.0 9.897e+03 3.009e-10
 42.36003     21.6 9.621e+03 2.230e-10
 42.38900     22.3 9.389e+03 1.885e-10
 42.41145     22.3 9.306e+03 1.803e-10
 42.44982     23.7 9.210e+03 1.726e-10
 42.47384     25.2 9.147e+03 1.623e-10
 42.49629     25.5 9.130e+03 1.562e-10
 42.53624     27.0 9.054e+03 1.421e-10
 42.55869     27.3 9.036e+03 1.391e-10
 42.58449     28.8 8.970e+03 1.276e-10
 42.60780     30.3 8.931e+03 1.201e-10
 42.62195     30.4 9.093e+03 1.427e-10
 42.64353     30.6 9.092e+03 1.436e-10
 42.67428     32.2 9.094e+03 1.426e-10
 42.70593     33.5 9.169e+03 1.436e-10
 42.72838     33.7 9.154e+03 1.470e-10
 42.76406     34.2 9.506e+03 1.757e-10
 42.79078     34.3 9.904e+03 3.064e-10
 42.81322     34.3 9.941e+03 3.195e-10
 42.85318     34.9 1.058e+04 5.864e-10
 42.87562     34.6 1.077e+04 6.520e-10
 42.89874     35.3 1.147e+04 1.011e-09
 42.93802     35.7 1.199e+04 1.330e-09
 42.96047     35.4 1.198e+04 1.336e-09
 42.98853     35.8 1.214e+04 1.458e-09
 43.02287     36.2 1.211e+04 1.458e-09
 43.04531     36.3 1.194e+04 1.347e-09
 43.07831     37.5 1.166e+04 1.158e-09
 43.10771     38.8 1.133e+04 9.468e-10
 43.13016     39.2 1.117e+04 8.756e-10
 43.16810     41.0 1.095e+04 7.392e-10
 43.19256     43.0 1.079e+04 6.651e-10
 43.21491     44.0 1.068e+04 5.929e-10
 43.25486     46.8 1.080e+04 6.585e-10
 43.27740     48.4 1.097e+04 7.124e-10
 43.29146     50.1 1.101e+04 6.682e-10
 43.30841     51.5 1.098e+04 6.653e-10
 43.31963     52.1 1.110e+04 7.050e-10
 43.33625     53.8 1.119e+04 7.731e-10
 43.35083     55.8 1.117e+04 8.206e-10
 43.36205     56.1 1.159e+04 1.011e-09
 43.38115     57.6 1.239e+04 1.247e-09
 43.39325     58.1 1.462e+04 1.868e-09
 43.39881     58.4 1.520e+04 2.384e-09
 43.40875     58.5 1.520e+04 2.416e-09
 43.41436     58.4 1.589e+04 3.031e-09
 43.42033     58.4 1.754e+04 4.034e-09
 43.42996     45.5 3.455e+04 5.512e-09
 43.43558     44.4 3.517e+04 7.540e-09
 43.43995     20.4 5.130e+04 1.613e-08
 43.44333     15.1 5.687e+04 1.733e-08
 43.44613     15.0 5.495e+04 1.929e-08
 43.45113      0.1 3.380e+04 2.276e-07
 43.45674     -6.2 2.159e+04 2.127e-06
 43.46173    -10.7 1.895e+04 6.718e-06
 43.46454    -10.4 1.887e+04 7.278e-06
 43.46752    -14.9 1.854e+04 1.040e-05
 43.47033     -8.0 1.889e+04 8.721e-06
 43.47234    -15.9 1.988e+04 6.832e-06
 43.47514    -18.5 2.066e+04 5.048e-06
 43.47920    -28.0 2.696e+04 1.063e-06
 43.48294    -36.1 3.663e+04 1.979e-07
 43.48575    -38.5 3.830e+04 1.485e-07
 43.49043    -44.4 3.822e+04 8.802e-08
 43.49357    -47.4 3.677e+04 7.525e-08
 43.49921    -53.1 3.558e+04 5.626e-08
 43.50920    -63.8 2.383e+04 2.729e-08
 43.51481    -65.6 2.199e+04 3.411e-08
 43.52134    -66.4 2.010e+04 3.149e-08
 43.53041    -65.6 1.968e+04 2.894e-08
 43.53602    -65.6 2.024e+04 3.764e-08
 43.54321    -64.6 1.981e+04 3.045e-08
 43.54882    -64.4 2.003e+04 2.980e-08
 43.55162    -63.7 1.975e+04 2.453e-08
 43.55723    -64.1 2.027e+04 2.833e-08
 43.56623    -63.5 1.986e+04 2.232e-08
 43.57283    -62.9 1.936e+04 1.778e-08
 43.57844    -63.3 1.947e+04 1.773e-08
 43.58843    -62.5 1.884e+04 1.477e-08
 43.59404    -63.0 1.892e+04 1.419e-08
 43.60556    -62.0 1.836e+04 1.141e-08
 43.62534    -59.5 1.735e+04 7.589e-09
 43.63656    -59.6 1.730e+04 6.491e-09
 43.65050    -57.3 1.644e+04 4.124e-09
 43.66776    -55.6 1.528e+04 2.533e-09
 43.67898    -56.0 1.486e+04 2.009e-09
 43.69540    -55.1 1.370e+04 1.364e-09
 43.71018    -54.2 1.277e+04 1.069e-09
 43.72141    -54.3 1.259e+04 1.061e-09
 43.74029    -53.1 1.212e+04 9.449e-10
 43.75261    -51.9 1.190e+04 9.121e-10
 43.76383    -51.6 1.201e+04 9.574e-10
 43.78381    -50.3 1.195e+04 9.555e-10
 43.79503    -50.0 1.225e+04 1.152e-09
 43.80763    -48.7 1.222e+04 1.233e-09
 43.82623    -47.5 1.241e+04 1.415e-09
 43.83745    -47.0 1.272e+04 1.779e-09
 43.85147    -45.8 1.289e+04 1.972e-09
 43.86269    -45.2 1.296e+04 1.725e-09
 43.86865    -44.1 1.317e+04 1.983e-09
 43.87987    -43.6 1.344e+04 2.340e-09
 43.89741    -42.5 1.361e+04 2.575e-09
 43.91107    -41.4 1.378e+04 2.710e-09
 43.92230    -41.0 1.411e+04 3.247e-09
 43.94227    -40.2 1.423e+04 3.291e-09
 43.96472    -39.2 1.472e+04 3.996e-09
 43.98470    -38.6 1.471e+04 3.696e-09
 43.99592    -38.3 1.512e+04 4.629e-09
 44.00964    -37.8 1.491e+04 4.031e-09
 44.02712    -37.4 1.456e+04 3.362e-09
 44.03834    -37.1 1.482e+04 3.827e-09
 44.05454    -36.8 1.432e+04 2.982e-09
 44.06954    -36.6 1.384e+04 2.337e-09
 44.08076    -36.8 1.391e+04 2.341e-09
 44.09943    -36.9 1.348e+04 1.839e-09
 44.11196    -37.1 1.321e+04 1.565e-09
 44.12319    -38.0 1.313e+04 1.510e-09
 44.14316    -38.2 1.295e+04 1.401e-09
 44.15439    -39.0 1.282e+04 1.369e-09
 44.16524    -38.6 1.260e+04 1.297e-09
 44.17646    -38.9 1.287e+04 1.622e-09
 44.18558    -38.1 1.262e+04 1.470e-09
 44.19681    -38.5 1.238e+04 1.292e-09
 44.21166    -37.8 1.219e+04 1.035e-09
 44.22801    -37.3 1.202e+04 7.669e-10
 44.23923    -38.5 1.192e+04 6.493e-10
 44.25655    -38.7 1.178e+04 4.980e-10
 44.27043    -39.0 1.162e+04 4.070e-10
 44.28165    -40.2 1.160e+04 4.349e-10
 44.30145    -40.2 1.148e+04 3.924e-10
 44.31285    -39.9 1.140e+04 3.717e-10
 44.32407    -40.3 1.155e+04 5.011e-10
 44.34405    -39.6 1.146e+04 4.894e-10
 44.35527    -39.6 1.155e+04 6.441e-10
 44.36879    -38.5 1.141e+04 5.789e-10
 44.38647    -37.5 1.138e+04 4.975e-10
 44.39770    -37.7 1.139e+04 5.022e-10
 44.42500    -37.0 1.136e+04 4.235e-10
 44.46029    -35.3 1.123e+04 3.398e-10
 44.48073    -35.5 1.098e+04 2.893e-10
 44.49043    -35.8 1.095e+04 2.590e-10
 44.51488    -33.6 1.084e+04 2.190e-10
 44.54514    -31.5 1.084e+04 2.006e-10
 44.56758    -31.6 1.087e+04 2.079e-10
 44.60467    -29.5 1.099e+04 2.163e-10
 44.62998    -27.4 1.113e+04 2.320e-10
 44.65243    -27.6 1.142e+04 3.219e-10
 44.69238    -25.6 1.157e+04 3.447e-10
 44.71473    -25.8 1.185e+04 4.994e-10
 44.72793    -24.8 1.192e+04 5.457e-10
 44.74583    -23.9 1.192e+04 5.750e-10
 44.75705    -24.1 1.218e+04 8.020e-10
 44.77282    -23.0 1.220e+04 8.283e-10
 44.78825    -22.1 1.223e+04 8.472e-10
 44.79698    -22.1 1.250e+04 1.035e-09
 44.80400    -22.1 1.258e+04 1.039e-09
 44.81771    -21.2 1.265e+04 1.048e-09
 44.83067    -20.2 1.268e+04 1.051e-09
 44.84190    -20.5 1.279e+04 1.048e-09
 44.86187    -19.6 1.282e+04 1.024e-09
 44.88442    -19.7 1.278e+04 9.243e-10
 44.91892    -17.9 1.270e+04 8.821e-10
 44.94691    -16.5 1.263e+04 9.034e-10
 44.96936    -16.6 1.282e+04 9.011e-10
 45.00870    -15.0 1.288e+04 1.108e-09
 45.03166    -13.9 1.306e+04 1.374e-09
 45.04279    -13.7 1.333e+04 1.504e-09
 45.06276    -13.3 1.326e+04 1.608e-09
 45.07399    -13.4 1.373e+04 1.901e-09
 45.08707    -12.9 1.363e+04 1.923e-09
 45.10519    -12.1 1.312e+04 1.875e-09
 45.11344    -12.2 1.408e+04 2.568e-09
 45.11777    -12.3 1.477e+04 3.105e-09
 45.13196    -11.3 1.403e+04 2.456e-09
 45.14761    -10.6 1.320e+04 1.741e-09
 45.15883    -10.4 1.544e+04 3.429e-09
 45.17686     -9.9 1.459e+04 2.187e-09
 45.19003    -10.8 1.335e+04 1.326e-09
 45.19559    -11.2 1.504e+04 1.808e-09
 45.20482    -11.6 1.441e+04 1.625e-09
 45.21114    -12.8 1.376e+04 1.386e-09
 45.21676    -13.5 1.562e+04 1.876e-09
 45.22674    -13.6 1.444e+04 1.672e-09
 45.23236    -14.8 1.751e+04 2.969e-09
 45.23849    -14.9 1.508e+04 2.288e-09
 45.24795    -15.0 1.453e+04 2.204e-09
 45.25357    -15.3 1.560e+04 2.991e-09
 45.26360    -14.7 1.440e+04 2.349e-09
 45.27483    -15.5 1.666e+04 4.403e-09
 45.28904    -14.4 1.614e+04 3.917e-09
 45.30607    -12.8 1.460e+04 2.364e-09
 45.31730    -16.6 1.853e+04 5.578e-09
 45.33398    -17.2 1.917e+04 5.296e-09
 45.34850    -18.1 1.990e+04 6.823e-09
 45.35972    -21.7 1.935e+04 1.118e-08
 45.37887    -21.5 1.978e+04 1.533e-08
 45.39092    -21.1 1.999e+04 1.985e-08
 45.40214    -21.4 1.893e+04 1.756e-08
 45.42032    -20.5 1.921e+04 2.071e-08
 45.42989    -20.2 1.890e+04 1.926e-08
 45.43334    -20.0 1.723e+04 9.744e-09
 45.44621    -19.1 1.751e+04 1.011e-08
 45.46454    -18.7 1.792e+04 9.229e-09
 45.47576    -20.5 1.681e+04 2.319e-09
 45.49111    -20.9 1.647e+04 1.887e-09
 45.50696    -21.9 1.576e+04 1.465e-09
 45.51819    -24.3 1.329e+04 9.203e-10
 45.54732    -28.7 1.211e+04 7.242e-10
 45.58078    -29.3 1.184e+04 7.150e-10
 45.60323    -31.0 1.102e+04 6.717e-10
 45.63720    -31.1 1.118e+04 7.641e-10
 45.66563    -30.8 1.128e+04 8.803e-10
 45.68807    -31.4 1.130e+04 9.301e-10
 45.72306    -30.4 1.121e+04 9.416e-10
 45.74551    -28.4 1.102e+04 8.046e-10
 45.75047    -27.2 1.091e+04 7.918e-10
 45.77292    -27.0 1.091e+04 8.055e-10
 45.81287    -25.5 1.060e+04 6.680e-10
 45.83532    -24.8 1.051e+04 6.441e-10
 45.86167    -23.1 1.014e+04 4.965e-10
 45.89771    -21.4 9.862e+03 3.735e-10
 45.92016    -20.4 9.854e+03 3.873e-10
 45.95145    -19.0 9.892e+03 3.755e-10
 45.98256    -18.8 1.063e+04 4.716e-10
 46.00501    -18.1 1.084e+04 5.023e-10
 46.02488    -20.8 1.237e+04 1.153e-09
 46.03601    -20.8 1.264e+04 1.242e-09
 46.04786    -21.3 1.337e+04 2.068e-09
 46.05908    -19.8 1.286e+04 1.445e-09
 46.06721    -20.4 1.363e+04 2.510e-09
 46.07843    -20.7 1.414e+04 2.984e-09
 46.09716    -20.9 1.505e+04 5.156e-09
 46.10963    -20.8 1.568e+04 6.489e-09
 46.12085    -21.5 1.652e+04 8.132e-09
 46.14083    -21.6 1.666e+04 8.411e-09
 46.15205    -22.4 1.718e+04 1.020e-08
 46.16450    -22.0 1.651e+04 6.986e-09
 46.18325    -22.8 1.496e+04 2.881e-09
 46.19448    -22.6 1.497e+04 2.924e-09
 46.20939    -27.2 1.227e+04 8.689e-10
 46.22568    -30.6 9.900e+03 3.470e-10
 46.23690    -31.6 9.866e+03 3.289e-10
 46.25428    -32.6 9.212e+03 2.486e-10
 46.26810    -32.5 9.104e+03 2.291e-10
 46.27932    -32.8 9.073e+03 2.304e-10
 46.29939    -32.4 9.037e+03 2.137e-10
 46.32194    -33.7 9.243e+03 2.654e-10
 46.35060    -32.4 8.904e+03 2.285e-10
 46.37305    -30.1 9.000e+03 2.215e-10
 46.38434    -28.6 8.670e+03 1.805e-10
 46.40678    -29.6 8.894e+03 2.379e-10
 46.44527    -27.9 8.682e+03 1.947e-10
 46.46918    -26.2 8.714e+03 1.765e-10
 46.49163    -27.6 8.927e+03 2.372e-10
 46.53158    -26.0 8.933e+03 2.365e-10
 46.55403    -27.6 9.418e+03 3.840e-10
 46.57995    -25.7 9.298e+03 3.839e-10
 46.61643    -23.8 9.220e+03 3.842e-10
 46.63887    -24.3 8.953e+03 3.508e-10
 46.66974    -22.7 8.958e+03 3.506e-10
 46.70127    -21.4 9.064e+03 3.677e-10
 46.72372    -22.6 8.614e+03 2.699e-10
 46.75952    -21.4 8.784e+03 3.158e-10
 46.78612    -19.9 9.001e+03 3.765e-10
 46.80856    -21.3 8.593e+03 2.823e-10
 46.84851    -19.6 8.632e+03 2.949e-10
 46.87096    -20.6 8.170e+03 2.438e-10
 46.89420    -18.7 8.015e+03 2.230e-10
 46.93336    -17.0 7.853e+03 1.928e-10
 46.95581    -17.6 7.697e+03 1.682e-10
 46.97814    -15.8 7.648e+03 1.627e-10
 47.00059    -15.1 7.698e+03 1.777e-10
 47.01820    -13.2 7.697e+03 1.791e-10
 47.04065    -13.7 7.691e+03 1.717e-10
 47.07377    -12.0 7.861e+03 1.924e-10
 47.10305    -10.6 8.305e+03 2.619e-10
 47.12550    -13.7 9.451e+03 3.474e-10
 47.14537    -12.7 1.021e+04 6.300e-10
 47.15650    -12.9 1.029e+04 6.428e-10
 47.17459    -13.2 1.042e+04 6.878e-10
 47.18770    -12.8 1.130e+04 1.270e-09
 47.19892    -13.6 1.114e+04 1.455e-09
 47.21890    -12.8 1.165e+04 1.807e-09
 47.23012    -12.7 1.139e+04 1.636e-09
 47.24193    -11.8 1.169e+04 1.771e-09
 47.26132    -11.0 1.188e+04 1.848e-09
 47.27254    -11.6 1.125e+04 1.156e-09
 47.28682    -11.1 1.129e+04 1.113e-09
 47.30294    -10.7 1.132e+04 1.066e-09
 47.30865    -10.7 1.112e+04 9.769e-10
 47.31497    -12.6 9.785e+03 4.444e-10
 47.33171    -12.6 9.665e+03 3.955e-10
 47.34617    -12.6 9.453e+03 3.571e-10
 47.35749    -15.1 8.446e+03 1.927e-10
 47.38802    -14.3 8.398e+03 1.840e-10
 47.41998    -13.2 8.344e+03 1.860e-10
 47.44243    -14.5 7.888e+03 1.558e-10
 47.47781    -12.9 7.959e+03 1.668e-10
 47.50483    -11.2 8.058e+03 1.762e-10
 47.52727    -12.1 8.223e+03 1.890e-10
 47.56723    -11.0 8.341e+03 1.852e-10
 47.58967    -13.2 9.022e+03 2.687e-10
 47.60569    -12.7 9.038e+03 2.748e-10
 47.62813    -12.7 9.357e+03 3.555e-10
 47.65207    -11.9 9.122e+03 3.226e-10
 47.67452    -13.0 9.657e+03 4.627e-10
 47.70227    -12.0 9.253e+03 3.483e-10
 47.73692    -11.1 9.108e+03 2.596e-10
 47.75936    -12.8 9.252e+03 2.258e-10
 47.79206    -12.5 9.018e+03 1.716e-10
 47.82176    -11.7 8.861e+03 1.565e-10
 47.84421    -13.2 8.660e+03 1.358e-10
 47.88184    -11.7 8.626e+03 1.297e-10
 47.90661    -10.3 8.678e+03 1.278e-10
 47.92905    -11.6 8.694e+03 1.109e-10
 47.96900    -10.9 8.834e+03 1.216e-10
 47.99145    -12.7 8.849e+03 1.177e-10
 48.01652    -12.2 8.984e+03 1.563e-10
 48.05385    -11.2 9.474e+03 2.227e-10
 48.07630    -14.6 1.033e+04 2.637e-10
 48.09499    -13.6 1.017e+04 2.998e-10
 48.10730    -13.9 1.048e+04 3.558e-10
 48.11852    -15.9 1.063e+04 4.840e-10
 48.13850    -16.0 1.061e+04 6.044e-10
 48.14972    -17.3 1.094e+04 7.474e-10
 48.16223    -16.9 1.102e+04 7.826e-10
 48.18092    -16.4 1.110e+04 8.543e-10
 48.19215    -17.4 1.114e+04 8.158e-10
 48.20712    -16.9 1.140e+04 7.648e-10
 48.22334    -17.5 1.166e+04 7.899e-10
 48.23457    -23.6 1.321e+04 8.155e-10
 48.24426    -27.6 1.491e+04 1.178e-09
 48.25548    -29.1 1.537e+04 1.816e-09
 48.26577    -32.8 1.627e+04 3.358e-09
 48.27699    -36.8 1.657e+04 6.275e-09
 48.29691    -41.0 1.900e+04 1.063e-08
 48.31935    -50.1 2.204e+04 1.410e-08
 48.33614    -56.5 2.090e+04 1.087e-08
 48.34490    -57.1 2.066e+04 1.036e-08
 48.35056    -61.2 1.841e+04 7.412e-09
 48.36425    -65.7 1.465e+04 4.731e-09
 48.38181    -66.2 1.403e+04 2.856e-09
 48.39303    -66.7 1.367e+04 2.263e-09
 48.40914    -70.2 1.252e+04 1.012e-09
 48.42423    -73.6 1.107e+04 5.486e-10
 48.43546    -73.6 1.094e+04 5.375e-10
 48.45403    -74.5 1.041e+04 4.158e-10
 48.46666    -74.7 1.017e+04 3.581e-10
 48.47788    -74.4 1.017e+04 3.577e-10
 48.51024    -74.6 1.007e+04 3.251e-10
 48.54047    -74.6 9.729e+03 2.716e-10
 48.56292    -73.8 9.670e+03 2.635e-10
 48.60013    -73.4 9.274e+03 2.066e-10
 48.62532    -72.4 8.957e+03 1.597e-10
 48.64776    -71.8 8.945e+03 1.607e-10
 48.68772    -70.7 8.685e+03 1.183e-10
 48.71016    -70.1 8.800e+03 1.354e-10
 48.73481    -69.0 8.612e+03 9.991e-11
 48.77256    -67.8 8.488e+03 7.621e-11
 48.79501    -67.2 8.727e+03 1.082e-10
 48.82459    -66.1 8.635e+03 8.689e-11
 48.85741    -65.1 8.529e+03 7.331e-11
 48.87114    -64.7 8.876e+03 1.199e-10
 48.88322    -65.4 8.968e+03 1.368e-10
 48.91438    -64.8 8.973e+03 1.257e-10
 48.94225    -64.9 9.159e+03 1.276e-10
 48.96470    -64.7 9.849e+03 2.483e-10
 49.00416    -66.1 1.061e+04 4.221e-10
 49.02700    -67.3 1.127e+04 8.198e-10
 49.03812    -67.2 1.148e+04 9.693e-10
 49.05810    -68.0 1.183e+04 1.276e-09
 49.06932    -67.7 1.194e+04 1.372e-09
 49.08253    -68.3 1.220e+04 1.590e-09
 49.10052    -69.3 1.223e+04 1.630e-09
 49.11175    -69.0 1.220e+04 1.600e-09
 49.12742    -70.1 1.187e+04 1.412e-09
 49.14295    -71.4 1.138e+04 1.064e-09
 49.15417    -70.9 1.140e+04 1.075e-09
 49.17232    -72.4 1.090e+04 8.042e-10
 49.18537    -73.9 1.045e+04 5.966e-10
 49.18740    -73.2 1.054e+04 6.511e-10
 49.19679    -73.0 1.063e+04 7.121e-10
 49.21657    -74.3 1.027e+04 5.766e-10
 49.22779    -73.5 1.042e+04 6.380e-10
 49.23966    -74.7 1.017e+04 5.413e-10
 49.25899    -75.5 9.983e+03 4.541e-10
 49.27021    -74.9 1.018e+04 5.574e-10
 49.28455    -75.7 1.005e+04 4.800e-10
 49.30141    -76.6 1.007e+04 4.357e-10
 49.31264    -76.2 1.026e+04 5.272e-10
 49.32944    -78.0 1.047e+04 5.188e-10
 49.34383    -81.2 1.142e+04 6.189e-10
 49.35506    -80.8 1.166e+04 7.636e-10
 49.37433    -83.7 1.227e+04 1.177e-09
 49.38626    -84.8 1.257e+04 1.826e-09
 49.39748    -84.4 1.276e+04 2.011e-09
 49.41746    -84.5 1.299e+04 2.569e-09
 49.42868    -84.1 1.309e+04 2.645e-09
 49.44167    -84.1 1.314e+04 2.762e-09
 49.45988    -84.1 1.304e+04 2.424e-09
 49.47110    -84.0 1.312e+04 2.427e-09
 49.48657    -84.7 1.284e+04 1.777e-09
 49.49934    -86.1 1.225e+04 1.201e-09
 49.50385    -87.6 1.192e+04 9.222e-10
 49.51352    -87.5 1.204e+04 9.774e-10
 49.53146    -88.7 1.145e+04 8.054e-10
 49.54472    -89.1 1.105e+04 7.254e-10
 49.55595    -88.7 1.131e+04 8.727e-10
 49.57592    -88.6 1.117e+04 8.306e-10
 49.58715    -88.2 1.153e+04 1.044e-09
 49.59880    -88.0 1.142e+04 9.619e-10
 49.61835    -87.8 1.122e+04 8.249e-10
 49.62957    -87.5 1.185e+04 1.162e-09
 49.64369    -87.4 1.166e+04 9.813e-10
 49.66077    -87.2 1.139e+04 7.955e-10
 49.67199    -87.4 1.245e+04 1.372e-09
 49.68858    -87.4 1.221e+04 1.138e-09
 49.70319    -87.8 1.186e+04 9.460e-10
 49.71441    -88.1 1.356e+04 2.011e-09
 49.73348    -88.8 1.318e+04 1.656e-09
 49.74561    -89.6 1.264e+04 1.418e-09
 49.75684    -89.6 1.466e+04 2.975e-09
 49.77681    -90.3 1.399e+04 2.341e-09
 49.78804    -90.2 1.594e+04 4.752e-09
 49.80082    -90.7 1.488e+04 3.227e-09
 49.81311    -91.1 1.374e+04 2.310e-09
 49.82031    -91.2 1.356e+04 2.048e-09
 49.83046    -91.0 1.518e+04 3.245e-09
 49.84571    -91.3 1.369e+04 2.034e-09
 49.86166    -91.4 1.258e+04 1.540e-09
 49.87288    -91.5 1.352e+04 1.862e-09
 49.89060    -91.6 1.257e+04 1.423e-09
 49.90408    -91.4 1.210e+04 1.240e-09
 49.91530    -91.4 1.267e+04 1.431e-09
 49.94681    -90.6 1.238e+04 1.309e-09
 49.97790    -89.1 1.172e+04 9.404e-10
 50.00034    -87.8 1.241e+04 1.310e-09
 50.03670    -86.2 1.157e+04 8.460e-10
 50.06274    -84.5 1.077e+04 4.744e-10
 50.08519    -82.8 1.132e+04 7.232e-10
 50.11585    -81.3 1.065e+04 4.168e-10
 50.13696    -81.4 1.073e+04 4.703e-10
 50.14759    -79.6 1.123e+04 6.894e-10
 50.17138    -78.3 1.083e+04 5.173e-10
 50.20999    -77.2 1.039e+04 3.614e-10
 50.23243    -75.1 1.096e+04 5.891e-10
 50.26116    -74.2 1.051e+04 4.096e-10
 50.29483    -73.8 1.014e+04 2.965e-10
 50.31728    -71.4 1.064e+04 4.391e-10
 50.35095    -71.2 1.038e+04 3.433e-10
 50.37968    -70.8 1.042e+04 3.491e-10
 50.40212    -68.3 1.077e+04 4.233e-10
 50.42200    -69.2 1.052e+04 4.002e-10
 50.43313    -68.0 1.070e+04 4.257e-10
 50.44065    -68.2 1.068e+04 4.667e-10
 50.45187    -68.0 1.069e+04 4.710e-10
 50.46432    -68.1 1.073e+04 5.118e-10
 50.47555    -67.0 1.093e+04 5.697e-10
 50.49552    -67.1 1.101e+04 6.125e-10
 50.50675    -66.2 1.131e+04 7.156e-10
 50.51910    -66.3 1.134e+04 7.448e-10
 50.53795    -66.5 1.136e+04 7.502e-10
 50.54917    -65.8 1.189e+04 9.618e-10
 50.56399    -66.0 1.180e+04 9.307e-10
 50.58037    -66.2 1.158e+04 8.521e-10
 50.59159    -65.5 1.225e+04 1.168e-09
 50.60889    -65.8 1.188e+04 1.002e-09
 50.62279    -66.1 1.160e+04 8.726e-10
 50.63401    -65.6 1.235e+04 1.311e-09
 50.65378    -66.0 1.214e+04 1.173e-09
 50.66521    -66.5 1.206e+04 1.063e-09
 50.67644    -66.8 1.324e+04 1.641e-09
 50.69641    -67.9 1.370e+04 1.654e-09
 50.70764    -69.3 1.539e+04 2.972e-09
 50.72112    -71.5 1.623e+04 3.716e-09
 50.73884    -73.7 1.704e+04 5.238e-09
 50.74969    -75.7 1.839e+04 1.037e-08
 50.75442    -76.2 1.801e+04 7.813e-09
 50.76601    -78.1 1.929e+04 1.415e-08
 50.78121    -79.1 2.057e+04 2.627e-08
 50.78677    -79.1 2.152e+04 3.981e-08
 50.79397    -79.8 2.196e+04 4.868e-08
 50.80237    -80.8 2.198e+04 5.142e-08
 50.80798    -81.8 2.219e+04 5.840e-08
 50.81642    -82.2 2.151e+04 5.055e-08
 50.82358    -82.3 2.095e+04 4.121e-08
 50.82919    -82.3 2.046e+04 3.388e-08
 50.83886    -82.4 1.992e+04 2.480e-08
 50.84479    -82.7 1.924e+04 1.828e-08
 50.85041    -83.2 1.847e+04 1.281e-08
 50.86039    -83.8 1.772e+04 9.249e-09
 50.86601    -84.7 1.669e+04 6.349e-09
 50.87819    -85.6 1.565e+04 4.084e-09
 50.89730    -86.4 1.462e+04 2.301e-09
 50.90853    -89.3 1.245e+04 9.852e-10
 50.92313    -90.7 1.127e+04 6.440e-10
 50.93972    -91.1 1.072e+04 5.220e-10
 50.95095    -91.6 1.017e+04 4.704e-10
 50.96803    -91.0 1.008e+04 4.296e-10
 50.98215    -90.4 1.012e+04 4.083e-10
 50.99337    -90.6 1.032e+04 4.605e-10
 51.01292    -90.7 1.053e+04 4.767e-10
 51.02457    -91.5 1.105e+04 5.722e-10
 51.03579    -93.1 1.194e+04 9.722e-10
 51.05577    -94.6 1.278e+04 1.500e-09
 51.06615    -95.3 1.355e+04 2.445e-09
 51.06819    -95.8 1.362e+04 2.582e-09
 51.08026    -96.4 1.455e+04 4.075e-09
 51.09819    -96.5 1.542e+04 6.071e-09
 51.10941    -96.5 1.562e+04 6.527e-09
 51.12515    -96.7 1.620e+04 8.331e-09
 51.14061    -97.1 1.637e+04 8.987e-09
 51.15184    -96.9 1.576e+04 6.984e-09
 51.17005    -97.0 1.554e+04 6.692e-09
 51.18304    -96.9 1.494e+04 5.327e-09
 51.19426    -97.5 1.373e+04 2.730e-09
 51.21424    -98.1 1.314e+04 2.117e-09
 51.22546    -99.9 1.185e+04 1.110e-09
 51.23738   -100.3 1.141e+04 9.502e-10
 51.25666   -100.6 1.098e+04 7.885e-10
 51.26788   -101.0 1.042e+04 6.049e-10
 51.28228   -100.9 1.023e+04 5.403e-10
 51.29908   -100.7 1.002e+04 4.668e-10
 51.31030   -100.4 9.893e+03 4.290e-10
 51.32717   -100.2 9.771e+03 3.927e-10
 51.34150   -100.1 9.681e+03 3.661e-10
 51.35282    -99.6 9.694e+03 3.713e-10
 51.37094    -98.7 9.394e+03 3.056e-10
 51.39338    -98.7 9.368e+03 3.038e-10
 51.41532    -97.5 9.135e+03 2.449e-10
 51.43777    -96.4 9.162e+03 2.492e-10
 51.47327    -95.2 8.938e+03 2.003e-10
 51.50017    -93.9 8.743e+03 1.676e-10
 51.52261    -92.9 8.931e+03 1.831e-10
 51.56256    -91.5 8.743e+03 1.503e-10
 51.58501    -90.7 9.092e+03 1.982e-10
 51.60795    -89.4 8.957e+03 1.590e-10
 51.64741    -88.1 8.890e+03 1.433e-10
 51.66986    -87.6 9.159e+03 1.905e-10
 51.69773    -86.6 9.137e+03 1.811e-10
 51.73225    -86.0 9.192e+03 1.952e-10
 51.75470    -85.5 9.336e+03 2.249e-10
 51.78752    -85.0 9.600e+03 3.013e-10
 51.81710    -84.4 9.906e+03 4.319e-10
 51.83955    -83.7 9.726e+03 3.317e-10
 51.87730    -83.1 9.821e+03 4.108e-10
 51.90194    -82.4 9.798e+03 4.625e-10
 51.92439    -81.6 9.497e+03 3.458e-10
 51.96434    -80.9 9.433e+03 3.676e-10
 51.98679    -79.9 9.166e+03 2.818e-10
 51.99848    -79.0 9.079e+03 2.898e-10
 52.02092    -78.9 9.000e+03 2.413e-10
 52.04919    -77.9 8.948e+03 2.680e-10
 52.07163    -76.9 8.841e+03 2.169e-10
 52.10177    -75.9 8.783e+03 2.379e-10
 52.13403    -74.8 8.741e+03 2.516e-10
 52.15648    -73.9 8.758e+03 2.465e-10
 52.19155    -72.8 8.754e+03 2.670e-10
 52.21888    -71.7 8.775e+03 2.850e-10
 52.24132    -70.9 8.938e+03 3.117e-10
 52.28128    -69.8 8.941e+03 3.189e-10
 52.32617    -67.9 9.045e+03 3.058e-10
 52.36612    -66.9 8.877e+03 2.751e-10
 52.38857    -66.4 9.015e+03 2.829e-10
 52.41602    -65.3 8.905e+03 2.601e-10
 52.45097    -64.3 8.921e+03 2.504e-10
 52.47341    -63.8 8.968e+03 2.477e-10
 52.50580    -62.8 8.947e+03 2.443e-10
 52.53581    -62.0 9.043e+03 2.494e-10
 52.55826    -61.7 9.207e+03 2.517e-10
 52.59559    -61.0 9.387e+03 2.916e-10
 52.62066    -60.2 9.581e+03 3.567e-10
 52.62864    -60.1 9.705e+03 3.759e-10
 52.64846    -60.1 9.546e+03 3.157e-10
 52.68305    -59.2 9.644e+03 3.785e-10
 52.70550    -58.8 9.661e+03 3.968e-10
 52.73027    -57.9 9.709e+03 4.142e-10
 52.76790    -57.1 9.672e+03 4.112e-10
 52.79035    -56.5 9.618e+03 4.045e-10
 52.82005    -55.7 9.442e+03 3.592e-10
 52.85274    -54.9 9.231e+03 2.965e-10
 52.87519    -54.2 9.126e+03 2.646e-10
 52.90984    -53.5 8.947e+03 2.210e-10
 52.93759    -52.8 8.836e+03 2.001e-10
 52.96004    -52.1 8.865e+03 1.991e-10
 52.99962    -51.2 8.802e+03 1.935e-10
 53.02243    -50.2 8.748e+03 1.912e-10
 53.04488    -49.6 9.145e+03 2.673e-10
 53.08483    -48.3 9.053e+03 2.423e-10
 53.10728    -47.6 9.544e+03 3.964e-10
 53.13430    -46.4 9.439e+03 3.351e-10
 53.16968    -45.4 9.346e+03 2.683e-10
 53.19212    -44.9 9.919e+03 4.898e-10
 53.22409    -44.5 9.873e+03 4.147e-10
 53.25356    -44.4 9.839e+03 3.720e-10
 53.26155    -43.2 9.551e+03 2.992e-10
 53.27697    -42.8 1.024e+04 5.286e-10
 53.31387    -43.7 1.035e+04 5.222e-10
 53.33937    -44.8 1.078e+04 7.170e-10
 53.36181    -44.7 1.088e+04 7.789e-10
 53.40177    -45.0 1.088e+04 8.384e-10
 53.42421    -45.7 1.037e+04 6.422e-10
 53.44855    -46.3 9.967e+03 5.318e-10
 53.48212    -46.4 9.598e+03 4.068e-10
 53.49764    -46.4 9.536e+03 3.887e-10
 53.50896    -46.5 9.335e+03 3.469e-10
 53.53834    -45.9 9.006e+03 2.761e-10
 53.57146    -45.1 8.658e+03 2.127e-10
 53.59390    -44.9 8.293e+03 1.705e-10
 53.62812    -43.9 8.157e+03 1.464e-10
 53.65630    -42.7 8.068e+03 1.322e-10
 53.67875    -42.3 7.895e+03 1.199e-10
 53.71791    -41.0 7.831e+03 1.099e-10
 53.74115    -39.5 7.759e+03 9.933e-11
 53.76359    -39.0 7.639e+03 9.043e-11
 53.80354    -37.5 7.545e+03 8.102e-11
 53.82599    -37.0 7.427e+03 7.179e-11
 53.85258    -35.5 7.359e+03 6.476e-11
 53.88110    -33.9 7.325e+03 6.000e-11
 53.89446    -33.6 7.365e+03 6.347e-11
 53.91084    -33.1 7.249e+03 5.452e-11
 53.94237    -31.6 7.252e+03 5.293e-11
 53.97323    -30.3 7.333e+03 5.366e-11
 53.99568    -29.9 7.208e+03 4.694e-11
 54.03216    -29.0 7.348e+03 5.651e-11
 54.05808    -28.0 7.494e+03 8.281e-11
 54.08053    -27.7 7.459e+03 7.432e-11
 54.12048    -26.6 7.728e+03 1.090e-10
 54.14292    -27.0 7.799e+03 1.095e-10
 54.16683    -26.0 8.148e+03 1.556e-10
 54.20532    -25.2 8.458e+03 2.051e-10
 54.22777    -25.6 8.650e+03 2.724e-10
 54.25662    -25.0 8.832e+03 3.051e-10
 54.29017    -24.7 8.984e+03 3.310e-10
 54.31261    -25.3 8.976e+03 3.354e-10
 54.34641    -25.0 9.095e+03 3.638e-10
 54.37501    -24.4 9.296e+03 4.005e-10
 54.38614    -24.7 9.428e+03 4.076e-10
 54.40233    -24.8 9.380e+03 4.061e-10
 54.41724    -23.8 9.591e+03 4.479e-10
 54.42846    -24.0 9.517e+03 4.422e-10
 54.44722    -23.8 9.563e+03 4.461e-10
 54.45966    -24.5 1.001e+04 5.034e-10
 54.47089    -28.1 1.146e+04 7.437e-10
 54.49086    -33.3 1.377e+04 1.630e-09
 54.50208    -36.3 1.468e+04 3.022e-09
 54.50845    -39.1 1.622e+04 6.395e-09
 54.51967    -39.7 1.703e+04 8.255e-09
 54.53134    -40.9 1.844e+04 1.301e-08
 54.53880    -42.3 1.955e+04 1.514e-08
 54.54441    -43.9 2.105e+04 1.841e-08
 54.55374    -47.2 2.394e+04 2.736e-08
 54.56001    -51.0 2.546e+04 3.780e-08
 54.56562    -53.3 2.581e+04 3.924e-08
 54.57561    -56.8 2.488e+04 4.986e-08
 54.58122    -59.1 2.390e+04 4.332e-08
 54.58741    -62.0 2.181e+04 4.576e-08
 54.59682    -63.4 2.010e+04 4.548e-08
 54.60243    -64.1 1.907e+04 3.244e-08
 54.60986    -63.4 1.873e+04 2.907e-08
 54.61803    -62.9 1.906e+04 2.250e-08
 54.62364    -63.3 1.882e+04 1.734e-08
 54.63230    -63.6 1.853e+04 1.383e-08
 54.64919    -64.8 1.806e+04 9.466e-09
 54.67168    -67.5 1.660e+04 3.827e-09
 54.69175    -69.8 1.547e+04 1.927e-09
 54.70297    -70.4 1.522e+04 1.901e-09
 54.71658    -72.5 1.364e+04 1.129e-09
 54.73417    -74.3 1.207e+04 9.289e-10
 54.74540    -73.5 1.260e+04 1.012e-09
 54.76147    -74.9 1.199e+04 9.986e-10
 54.77660    -76.8 1.226e+04 1.210e-09
 54.78782    -77.5 1.379e+04 1.441e-09
 54.80636    -79.6 1.395e+04 2.020e-09
 54.81902    -80.5 1.404e+04 2.933e-09
 54.82365    -80.9 1.616e+04 3.496e-09
 54.83344    -82.7 1.414e+04 3.506e-09
 54.85022    -82.7 1.434e+04 3.896e-09
 54.86144    -83.2 1.450e+04 3.816e-09
 54.87370    -83.7 1.424e+04 3.657e-09
 54.89264    -84.6 1.380e+04 3.053e-09
 54.90386    -85.6 1.316e+04 2.295e-09
 54.91859    -86.9 1.246e+04 1.607e-09
 54.93506    -88.4 1.186e+04 1.167e-09
 54.94629    -90.2 1.317e+04 9.686e-10
 54.96349    -93.3 1.797e+04 7.191e-10
 54.97749   -100.6 3.092e+04 5.297e-10
 54.98871   -123.1 4.410e+04 2.021e-09
 54.99865   -125.9 4.146e+04 2.013e-09
 55.00421   -134.6 3.478e+04 7.211e-09
 55.01389   -138.2 3.215e+04 1.348e-08
 55.01981   -142.2 2.826e+04 2.707e-08
 55.02542   -145.9 2.484e+04 5.413e-08
 55.03541   -147.6 2.407e+04 7.103e-08
 55.04102   -149.6 2.393e+04 7.638e-08
 55.04756   -150.7 2.399e+04 8.142e-08
 55.05662   -151.7 2.424e+04 7.813e-08
 55.06223   -155.5 2.466e+04 3.083e-08
 55.07001   -157.5 2.409e+04 2.094e-08
 55.07783   -159.3 2.310e+04 1.396e-08
 55.08344   -165.3 1.733e+04 3.710e-09
 55.09246   -166.0 1.589e+04 3.289e-09
 55.09904   -166.1 1.494e+04 3.086e-09
 55.10465   -167.2 1.339e+04 2.402e-09
 55.12056   -166.4 1.323e+04 2.436e-09
 55.13595   -164.8 1.323e+04 2.522e-09
 55.14717   -162.7 1.300e+04 2.422e-09
 55.16550   -161.3 1.281e+04 2.426e-09
 55.17837   -159.8 1.239e+04 2.223e-09
 55.18960   -159.3 1.206e+04 1.985e-09
 55.20957   -157.9 1.196e+04 1.891e-09
 55.22080   -157.2 1.178e+04 1.728e-09
 55.23284   -155.7 1.168e+04 1.665e-09
 55.25200   -154.3 1.140e+04 1.459e-09
 55.26322   -153.7 1.128e+04 1.397e-09
 55.27774   -152.4 1.111e+04 1.283e-09
 55.29442   -151.1 1.093e+04 1.164e-09
 55.30564   -150.5 1.088e+04 1.154e-09
 55.32263   -149.3 1.079e+04 1.087e-09
 55.33684   -148.2 1.068e+04 1.035e-09
 55.34806   -147.6 1.066e+04 1.036e-09
 55.36752   -146.5 1.059e+04 9.967e-10
 55.37926   -145.4 1.047e+04 9.531e-10
 55.39049   -144.9 1.043e+04 9.471e-10
 55.41046   -143.8 1.037e+04 9.135e-10
 55.42169   -143.4 1.022e+04 8.595e-10
 55.43486   -142.4 1.020e+04 8.550e-10
 55.44976   -141.4 1.012e+04 8.235e-10
 55.45656   -141.1 1.012e+04 8.263e-10
 55.46411   -140.7 9.896e+03 7.146e-10
 55.47975   -139.6 9.922e+03 7.456e-10
 55.49531   -138.6 9.932e+03 7.516e-10
 55.50653   -138.2 9.734e+03 6.531e-10
 55.52465   -137.2 9.792e+03 6.911e-10
 55.53773   -135.9 9.837e+03 7.026e-10
 55.54895   -135.6 9.619e+03 6.067e-10
 55.56893   -134.4 9.679e+03 6.305e-10
 55.58015   -134.2 9.390e+03 5.112e-10
 55.59199   -132.8 9.464e+03 5.396e-10
 55.61135   -131.9 9.461e+03 5.330e-10
 55.62258   -132.1 9.236e+03 4.625e-10
 55.64265   -130.8 9.340e+03 4.989e-10
 55.66519   -130.2 8.998e+03 3.939e-10
 55.69319   -128.1 8.866e+03 3.779e-10
 55.72759   -125.8 8.587e+03 3.357e-10
 55.75004   -124.9 8.274e+03 2.446e-10
 55.76373   -122.5 8.132e+03 2.239e-10
 55.78617   -121.4 8.019e+03 2.008e-10
 55.81244   -118.9 7.955e+03 1.848e-10
 55.83488   -118.3 7.766e+03 1.420e-10
 55.87276   -116.0 7.831e+03 1.474e-10
 55.89728   -113.7 7.943e+03 1.598e-10
 55.91973   -113.4 7.936e+03 1.501e-10
 55.95968   -111.3 8.067e+03 1.759e-10
 55.98213   -111.2 8.195e+03 1.849e-10
 56.00744   -109.2 8.418e+03 2.177e-10
 56.04452   -107.4 8.557e+03 2.347e-10
 56.06697   -107.5 8.832e+03 2.879e-10
 56.09722   -105.8 8.879e+03 2.924e-10
 56.12937   -104.1 8.923e+03 2.949e-10
 56.15182   -104.5 9.076e+03 3.248e-10
 56.18701   -102.9 9.080e+03 3.180e-10
 56.21421   -101.1 9.146e+03 3.208e-10
 56.23666   -101.9 9.196e+03 3.245e-10
 56.27661   -100.4 9.450e+03 3.497e-10
 56.32151   -100.6 9.775e+03 4.084e-10
 56.36146    -99.7 9.949e+03 4.530e-10
 56.38390   -101.1 9.947e+03 4.538e-10
 56.39127   -100.2 1.002e+04 4.558e-10
 56.41371    -99.6 9.972e+03 4.514e-10
 56.44630    -98.9 9.904e+03 4.005e-10
 56.46875    -99.8 9.691e+03 3.410e-10
 56.50126    -98.9 9.552e+03 2.778e-10
 56.53115    -98.2 9.470e+03 2.470e-10
 56.55359    -98.6 9.164e+03 1.884e-10
 56.59105    -97.5 9.161e+03 1.858e-10
 56.61599    -96.5 9.349e+03 2.196e-10
 56.63844    -96.0 8.967e+03 1.621e-10
 56.67839    -94.6 9.204e+03 2.084e-10
 56.70084    -93.9 8.903e+03 1.630e-10
 56.72572    -92.4 9.187e+03 2.137e-10
 56.76324    -91.0 9.553e+03 2.955e-10
 56.78568    -90.2 9.375e+03 2.513e-10
 56.81551    -88.7 1.001e+04 4.176e-10
 56.84798    -87.6 1.054e+04 6.666e-10
 56.87043    -87.5 1.046e+04 6.211e-10
 56.90529    -85.7 1.105e+04 9.267e-10
 56.93293    -83.8 1.150e+04 1.144e-09
 56.95537    -83.6 1.168e+04 1.279e-09
 56.99508    -82.4 1.199e+04 1.410e-09
 57.01777    -81.3 1.204e+04 1.341e-09
 57.01905    -81.6 1.225e+04 1.560e-09
 57.04125    -80.8 1.246e+04 1.763e-09
 57.08017    -79.1 1.231e+04 1.591e-09
 57.10262    -79.6 1.236e+04 1.678e-09
 57.12976    -77.8 1.222e+04 1.507e-09
 57.16502    -76.7 1.243e+04 1.574e-09
 57.18746    -76.9 1.174e+04 1.214e-09
 57.20734    -75.8 1.239e+04 1.595e-09
 57.21847    -75.6 1.170e+04 1.021e-09
 57.23057    -75.3 1.204e+04 1.142e-09
 57.24966    -74.4 1.196e+04 1.432e-09
 57.26089    -74.6 1.092e+04 8.414e-10
 57.27547    -73.5 1.132e+04 9.584e-10
 57.29209    -72.4 1.202e+04 1.094e-09
 57.30331    -72.7 1.125e+04 6.973e-10
 57.32036    -71.9 1.108e+04 9.392e-10
 57.33238    -70.8 1.149e+04 1.008e-09
 57.33531    -70.1 1.182e+04 1.128e-09
 57.34573    -70.2 1.122e+04 8.103e-10
 57.36525    -69.3 1.131e+04 9.341e-10
 57.37693    -68.3 1.146e+04 1.050e-09
 57.38816    -68.1 1.120e+04 8.657e-10
 57.40813    -67.1 1.135e+04 9.897e-10
 57.41935    -66.6 1.124e+04 8.939e-10
 57.43259    -65.6 1.141e+04 1.015e-09
 57.45055    -64.6 1.169e+04 1.167e-09
 57.46178    -63.9 1.163e+04 1.107e-09
 57.47748    -62.7 1.184e+04 1.278e-09
 57.49298    -61.6 1.211e+04 1.468e-09
 57.50420    -61.0 1.213e+04 1.460e-09
 57.52238    -60.3 1.243e+04 1.739e-09
 57.53540    -59.7 1.277e+04 2.041e-09
 57.54662    -60.7 1.391e+04 2.493e-09
 57.56660    -60.0 1.437e+04 3.071e-09
 57.57782    -61.2 1.601e+04 5.397e-09
 57.58971    -60.1 1.653e+04 6.676e-09
 57.60902    -59.2 1.729e+04 8.144e-09
 57.62024    -60.2 1.803e+04 1.171e-08
 57.63461    -59.1 1.856e+04 1.335e-08
 57.64615    -58.2 1.933e+04 1.556e-08
 57.65172    -58.8 2.004e+04 2.092e-08
 57.66257    -60.0 2.056e+04 2.569e-08
 57.67256    -60.3 2.114e+04 3.130e-08
 57.67817    -60.9 2.048e+04 2.921e-08
 57.68501    -60.8 2.054e+04 3.229e-08
 57.69377    -60.7 2.066e+04 3.690e-08
 57.69938    -61.1 2.009e+04 2.654e-08
 57.70746    -61.0 2.004e+04 2.804e-08
 57.71498    -61.0 1.985e+04 2.732e-08
 57.72059    -61.6 1.917e+04 1.729e-08
 57.72991    -61.6 1.910e+04 1.712e-08
 57.73619    -61.5 1.891e+04 1.597e-08
 57.74180    -62.5 1.804e+04 1.052e-08
 57.75179    -62.8 1.815e+04 1.042e-08
 57.75740    -63.6 1.713e+04 7.382e-09
 57.76744    -61.9 1.789e+04 9.420e-09
 57.77871    -62.7 1.600e+04 4.739e-09
 57.79173    -62.3 1.520e+04 3.616e-09
 57.80991    -62.2 1.446e+04 2.809e-09
 57.82113    -63.8 1.206e+04 1.526e-09
 57.83663    -63.1 1.189e+04 1.420e-09
 57.85233    -62.2 1.181e+04 1.386e-09
 57.86356    -62.4 1.103e+04 9.979e-10
 57.88152    -61.2 1.115e+04 1.022e-09
 57.89475    -59.9 1.133e+04 1.066e-09
 57.90598    -60.1 1.108e+04 8.522e-10
 57.92595    -58.9 1.124e+04 9.155e-10
 57.93718    -59.4 1.120e+04 8.293e-10
 57.94870    -58.1 1.129e+04 8.988e-10
 57.95993    -59.3 1.084e+04 7.047e-10
 57.96838    -58.1 1.100e+04 7.736e-10
 57.97960    -58.9 1.098e+04 7.595e-10
 57.99375    -57.9 1.116e+04 8.310e-10
 58.01080    -56.9 1.132e+04 9.260e-10
 58.02202    -58.1 1.135e+04 9.271e-10
 58.03864    -57.4 1.156e+04 1.060e-09
 58.05322    -56.7 1.174e+04 1.244e-09
 58.06444    -58.7 1.190e+04 1.291e-09
 58.08354    -58.1 1.205e+04 1.483e-09
 58.09564    -57.5 1.235e+04 1.685e-09
 58.10687    -60.2 1.256e+04 1.775e-09
 58.12684    -60.3 1.284e+04 1.988e-09
 58.13807    -62.7 1.305e+04 2.098e-09
 58.15087    -62.6 1.365e+04 2.408e-09
 58.16927    -62.1 1.410e+04 2.779e-09
 58.18049    -63.4 1.347e+04 2.337e-09
 58.19577    -62.5 1.343e+04 2.330e-09
 58.21169    -61.4 1.328e+04 2.235e-09
 58.22291    -62.8 1.254e+04 1.729e-09
 58.24066    -61.7 1.234e+04 1.563e-09
 58.25411    -60.6 1.213e+04 1.380e-09
 58.26470    -61.9 1.183e+04 1.244e-09
 58.27370    -61.4 1.169e+04 1.235e-09
 58.28531    -60.6 1.167e+04 1.144e-09
 58.29653    -62.0 1.184e+04 1.181e-09
 58.30800    -62.2 1.222e+04 1.241e-09
 58.32773    -62.8 1.275e+04 1.455e-09
 58.33896    -64.7 1.340e+04 2.157e-09
 58.35289    -64.5 1.379e+04 2.840e-09
 58.37015    -63.9 1.404e+04 3.439e-09
 58.38138    -65.1 1.420e+04 4.005e-09
 58.39779    -64.5 1.414e+04 3.979e-09
 58.41258    -63.8 1.405e+04 3.852e-09
 58.42380    -64.6 1.371e+04 3.618e-09
 58.44268    -63.9 1.329e+04 2.965e-09
 58.45500    -63.5 1.285e+04 2.342e-09
 58.46622    -65.2 1.226e+04 1.771e-09
 58.48620    -65.8 1.184e+04 1.439e-09
 58.49742    -67.8 1.136e+04 1.199e-09
 58.51002    -68.2 1.106e+04 1.094e-09
 58.52862    -68.1 1.099e+04 1.082e-09
 58.53984    -69.2 1.087e+04 1.036e-09
 58.55491    -69.0 1.094e+04 1.072e-09
 58.57104    -68.8 1.109e+04 1.145e-09
 58.58115    -69.8 1.107e+04 1.128e-09
 58.58747    -70.2 1.110e+04 1.160e-09
 58.59980    -70.2 1.140e+04 1.332e-09
 58.61347    -70.3 1.168e+04 1.542e-09
 58.62469    -71.4 1.183e+04 1.642e-09
 58.64467    -71.3 1.211e+04 1.887e-09
 58.66711    -72.2 1.237e+04 2.135e-09
 58.68709    -72.1 1.256e+04 2.287e-09
 58.69831    -72.8 1.235e+04 2.207e-09
 58.71203    -72.7 1.232e+04 2.160e-09
 58.72951    -72.6 1.223e+04 2.036e-09
 58.74073    -73.4 1.171e+04 1.602e-09
 58.75693    -73.5 1.153e+04 1.444e-09
 58.77193    -74.1 1.142e+04 1.333e-09
 58.78316    -74.8 1.081e+04 9.972e-10
 58.80182    -75.2 1.072e+04 9.507e-10
 58.81436    -75.5 1.072e+04 9.492e-10
 58.82558    -75.6 1.008e+04 6.887e-10
 58.84556    -75.6 1.010e+04 6.962e-10
 58.85678    -75.5 9.567e+03 5.114e-10
 58.86916    -75.3 9.571e+03 5.165e-10
 58.88798    -75.0 9.628e+03 5.334e-10
 58.89761    -74.7 9.239e+03 4.100e-10
 58.90124    -74.7 9.471e+03 5.014e-10
 58.91405    -74.4 9.604e+03 5.438e-10
 58.93040    -74.2 9.725e+03 5.860e-10
 58.94162    -73.7 9.356e+03 4.554e-10
 58.97027    -73.3 9.759e+03 5.580e-10
 59.00422    -72.2 9.895e+03 6.167e-10
 59.02666    -70.5 9.161e+03 4.179e-10
 59.06015    -69.3 9.266e+03 4.652e-10
 59.08906    -68.0 9.459e+03 5.385e-10
 59.11151    -66.2 8.878e+03 3.723e-10
 59.14993    -64.9 9.152e+03 4.494e-10
 59.17391    -63.4 9.518e+03 5.652e-10
 59.19635    -61.8 9.117e+03 4.327e-10
 59.23631    -60.4 9.540e+03 5.643e-10
 59.25875    -59.1 9.276e+03 4.670e-10
 59.28461    -57.6 9.702e+03 6.118e-10
 59.32115    -56.0 1.006e+04 7.515e-10
 59.34360    -55.1 9.853e+03 6.669e-10
 59.37440    -53.5 1.008e+04 7.564e-10
 59.40600    -51.8 1.021e+04 8.140e-10
 59.42844    -51.2 9.855e+03 6.506e-10
 59.46418    -49.3 9.901e+03 6.889e-10
 59.49074    -47.6 9.967e+03 7.005e-10
 59.50187    -47.4 9.674e+03 5.775e-10
 59.51756    -46.5 9.892e+03 6.388e-10
 59.52888    -45.5 9.711e+03 6.166e-10
 59.53317    -44.9 1.018e+04 7.716e-10
 59.54429    -44.7 9.947e+03 6.536e-10
 59.56427    -44.3 1.019e+04 7.533e-10
 59.57549    -44.1 9.934e+03 6.235e-10
 59.58744    -43.5 1.023e+04 7.580e-10
 59.60669    -43.1 1.061e+04 9.599e-10
 59.61791    -43.0 1.037e+04 8.094e-10
 59.63234    -42.7 1.080e+04 1.058e-09
 59.64911    -42.4 1.131e+04 1.409e-09
 59.66034    -42.2 1.105e+04 1.241e-09
 59.67723    -41.7 1.152e+04 1.615e-09
 59.69153    -41.2 1.201e+04 2.048e-09
 59.70276    -40.9 1.180e+04 1.849e-09
 59.72212    -40.2 1.218e+04 2.125e-09
 59.73396    -39.9 1.249e+04 2.234e-09
 59.74518    -39.7 1.228e+04 2.012e-09
 59.76516    -39.6 1.233e+04 1.964e-09
 59.77638    -39.5 1.222e+04 1.856e-09
 59.78946    -39.4 1.222e+04 1.747e-09
 59.80758    -39.3 1.218e+04 1.613e-09
 59.81880    -39.3 1.215e+04 1.604e-09
 59.83133    -39.1 1.210e+04 1.479e-09
 59.84255    -38.7 1.247e+04 1.773e-09
 59.85000    -38.5 1.241e+04 1.675e-09
 59.86122    -38.8 1.241e+04 1.687e-09
 59.87925    -38.4 1.235e+04 1.612e-09
 59.89242    -37.8 1.233e+04 1.580e-09
 59.90365    -38.1 1.244e+04 1.635e-09
 59.92362    -37.4 1.247e+04 1.642e-09
 59.93485    -37.6 1.258e+04 1.725e-09
 59.94659    -37.0 1.268e+04 1.763e-09
 59.96605    -36.5 1.288e+04 1.906e-09
 59.97727    -36.7 1.287e+04 1.914e-09
 59.99148    -36.0 1.304e+04 2.105e-09
 60.00847    -35.4 1.322e+04 2.350e-09
 60.01969    -35.4 1.307e+04 2.231e-09
 60.03637    -34.8 1.318e+04 2.393e-09
 60.05089    -34.2 1.330e+04 2.532e-09
 60.06211    -34.3 1.307e+04 2.290e-09
 60.08126    -33.8 1.314e+04 2.358e-09
 60.09331    -33.4 1.329e+04 2.484e-09
 60.10454    -33.5 1.296e+04 2.178e-09
 60.12451    -33.2 1.311e+04 2.331e-09
 60.13574    -33.1 1.274e+04 2.034e-09
 60.14510    -32.8 1.285e+04 2.191e-09
 60.15632    -32.7 1.368e+04 3.152e-09
 60.16693    -32.2 1.386e+04 3.458e-09
 60.17816    -32.0 1.328e+04 2.856e-09
 60.19350    -31.5 1.342e+04 3.047e-09
 60.20936    -31.0 1.362e+04 3.250e-09
 60.22058    -30.5 1.296e+04 2.584e-09
 60.23839    -30.0 1.308e+04 2.643e-09
 60.25178    -29.5 1.323e+04 2.732e-09
 60.26300    -28.9 1.247e+04 2.062e-09
 60.28298    -28.4 1.250e+04 2.058e-09
 60.29420    -27.7 1.187e+04 1.596e-09
 60.30573    -27.1 1.182e+04 1.560e-09
 60.32540    -26.4 1.179e+04 1.529e-09
 60.33662    -25.5 1.127e+04 1.213e-09
 60.35062    -24.6 1.122e+04 1.166e-09
 60.36782    -23.7 1.118e+04 1.110e-09
 60.37905    -22.8 1.078e+04 9.061e-10
 60.39551    -21.9 1.070e+04 8.440e-10
 60.41025    -21.0 1.061e+04 7.870e-10
 60.42147    -20.0 1.026e+04 6.484e-10
 60.44041    -19.2 1.015e+04 6.067e-10
 60.45267    -18.2 1.005e+04 5.757e-10
 60.45991    -17.1 9.760e+03 4.829e-10
 60.47009    -17.5 9.963e+03 5.491e-10
 60.48387    -16.1 9.960e+03 5.434e-10
 60.49509    -15.0 9.772e+03 4.722e-10
 60.50775    -14.6 9.803e+03 4.765e-10
 60.52639    -13.1 9.932e+03 5.151e-10
 60.54893    -11.4 9.666e+03 4.338e-10
 60.58650     -8.8 9.776e+03 4.677e-10
 60.61133     -6.1 9.866e+03 5.131e-10
 60.63378     -4.5 9.716e+03 4.588e-10
 60.67373     -2.0 9.927e+03 5.473e-10
 60.69618     -0.6 9.892e+03 5.216e-10
 60.72118      2.0 1.044e+04 7.060e-10
 60.75857      4.1 1.111e+04 9.714e-10
 60.77646      3.9 1.128e+04 1.036e-09
 60.78386      2.8 1.163e+04 1.227e-09
 60.79955      2.6 1.219e+04 1.593e-09
 60.81202      2.6 1.279e+04 2.124e-09
 60.82325      2.3 1.291e+04 2.234e-09
 60.84322      2.6 1.341e+04 2.847e-09
 60.85445      2.5 1.351e+04 2.967e-09
 60.86689      3.0 1.372e+04 3.250e-09
 60.88565      3.4 1.373e+04 3.238e-09
 60.89687      3.2 1.363e+04 3.034e-09
 60.91178      3.5 1.338e+04 2.686e-09
 60.92807      3.8 1.302e+04 2.248e-09
 60.93929      3.3 1.267e+04 1.900e-09
 60.95667      3.3 1.220e+04 1.559e-09
 60.97049      3.6 1.174e+04 1.315e-09
 60.98171      2.9 1.146e+04 1.156e-09
 61.00157      3.4 1.146e+04 1.120e-09
 61.01301      4.7 1.157e+04 1.179e-09
 61.02423      3.6 1.129e+04 1.045e-09
 61.04411      4.4 1.128e+04 1.043e-09
 61.05534      3.6 1.128e+04 1.032e-09
 61.06891      4.2 1.146e+04 1.105e-09
 61.08641      4.8 1.179e+04 1.251e-09
 61.09282      3.9 1.234e+04 1.592e-09
 61.09776      2.6 1.249e+04 1.800e-09
 61.11380      3.1 1.284e+04 2.147e-09
 61.12896      3.7 1.321e+04 2.573e-09
 61.14018      2.6 1.319e+04 2.620e-09
 61.15869      3.3 1.356e+04 3.099e-09
 61.17138      4.1 1.382e+04 3.594e-09
 61.18260      3.3 1.325e+04 2.919e-09
 61.20258      4.0 1.338e+04 2.935e-09
 61.21380      3.0 1.263e+04 1.971e-09
 61.22603      3.4 1.268e+04 1.845e-09
 61.24500      3.4 1.274e+04 1.809e-09
 61.25623      1.4 1.191e+04 1.237e-09
 61.27092      1.0 1.203e+04 1.295e-09
 61.28742      0.5 1.224e+04 1.463e-09
 61.29865     -1.0 1.198e+04 1.362e-09
 61.31582     -1.1 1.220e+04 1.599e-09
 61.32985     -1.0 1.237e+04 1.822e-09
 61.34107     -1.8 1.224e+04 1.754e-09
 61.36071     -1.6 1.236e+04 1.861e-09
 61.37227     -1.4 1.244e+04 1.912e-09
 61.38349     -2.0 1.219e+04 1.683e-09
 61.40018     -2.1 1.216e+04 1.540e-09
 61.40927     -2.2 1.181e+04 1.161e-09
 61.41469     -2.8 1.154e+04 9.128e-10
 61.42805     -3.5 1.144e+04 7.351e-10
 61.44589     -4.6 1.133e+04 6.079e-10
 61.45711     -5.5 1.113e+04 5.124e-10
 61.47294     -6.7 1.098e+04 4.654e-10
 61.48831     -7.6 1.081e+04 4.376e-10
 61.49954     -7.8 1.068e+04 4.063e-10
 61.51783     -8.3 1.057e+04 3.934e-10
 61.53074     -8.6 1.052e+04 3.821e-10
 61.54196     -8.5 1.054e+04 3.750e-10
 61.56203     -8.7 1.047e+04 3.583e-10
 61.58458     -8.3 1.049e+04 3.546e-10
 61.61904     -8.1 1.039e+04 3.350e-10
 61.64698     -7.5 1.033e+04 3.325e-10
 61.66942     -7.3 1.032e+04 3.294e-10
 61.70882     -6.3 1.031e+04 3.343e-10
 61.73182     -5.0 1.034e+04 3.478e-10
 61.75427     -5.0 1.034e+04 3.409e-10
 61.79422     -3.7 1.038e+04 3.561e-10
 61.81667     -4.0 1.038e+04 3.511e-10
 61.83218     -3.2 1.038e+04 3.674e-10
 61.84767     -2.9 1.040e+04 3.922e-10
 61.85889     -3.3 1.042e+04 3.920e-10
 61.87698     -2.9 1.051e+04 4.367e-10
 61.89009     -2.5 1.065e+04 4.926e-10
 61.90132     -3.0 1.071e+04 4.933e-10
 61.92129     -2.5 1.082e+04 5.525e-10
 61.93251     -3.1 1.091e+04 5.624e-10
 61.94432     -2.5 1.097e+04 6.121e-10
 61.96371     -1.8 1.101e+04 6.520e-10
 61.97494     -2.3 1.102e+04 6.364e-10
 61.98921     -1.6 1.101e+04 6.458e-10
 62.00614     -1.0 1.101e+04 6.498e-10
 62.01736     -1.6 1.092e+04 5.946e-10
 62.02772     -1.1 1.091e+04 5.939e-10
 62.03894     -1.4 1.088e+04 5.727e-10
 62.04856     -0.8 1.088e+04 5.742e-10
 62.05978     -1.6 1.072e+04 5.180e-10
 62.07899     -1.0 1.075e+04 5.335e-10
 62.09098     -0.5 1.084e+04 5.764e-10
 62.10220     -1.4 1.072e+04 5.412e-10
 62.12218     -0.8 1.082e+04 6.046e-10
 62.13340     -1.7 1.079e+04 5.930e-10
 62.14633     -1.0 1.092e+04 6.736e-10
 62.16460     -0.3 1.109e+04 7.721e-10
 62.17583     -1.3 1.109e+04 7.654e-10
 62.19123     -0.6 1.127e+04 8.710e-10
 62.20703      0.2 1.145e+04 9.948e-10
 62.21825     -0.8 1.144e+04 9.680e-10
 62.23612     -0.1 1.158e+04 1.074e-09
 62.24945      0.7 1.171e+04 1.182e-09
 62.26067     -0.3 1.153e+04 1.068e-09
 62.28065      0.5 1.158e+04 1.119e-09
 62.29187     -0.3 1.129e+04 9.492e-10
 62.30346      0.7 1.126e+04 9.470e-10
 62.32307      1.7 1.123e+04 9.394e-10
 62.33429      1.1 1.089e+04 7.461e-10
 62.34149      2.0 1.085e+04 7.241e-10
 62.35272      1.8 1.058e+04 6.086e-10
 62.36549      2.7 1.054e+04 6.003e-10
 62.37672      2.1 1.031e+04 4.912e-10
 62.39324      3.0 1.028e+04 4.917e-10
 62.40792      3.9 1.027e+04 5.005e-10
 62.41914      3.4 1.010e+04 4.434e-10
 62.43814      4.3 1.017e+04 4.753e-10
 62.45034      5.1 1.030e+04 5.236e-10
 62.46156      4.7 1.028e+04 5.117e-10
 62.48154      5.4 1.047e+04 5.820e-10
 62.49276      4.6 1.048e+04 5.820e-10
 62.50548      4.9 1.077e+04 6.788e-10
 62.52396      5.0 1.130e+04 8.636e-10
 62.53518      3.8 1.164e+04 1.039e-09
 62.55037      3.7 1.220e+04 1.420e-09
 62.56638      3.6 1.277e+04 1.933e-09
 62.57760      2.7 1.277e+04 2.086e-09
 62.59526      2.7 1.327e+04 2.605e-09
 62.60880      2.9 1.365e+04 3.201e-09
 62.62003      2.4 1.304e+04 2.496e-09
 62.64000      2.6 1.307e+04 2.376e-09
 62.65123      1.9 1.213e+04 1.502e-09
 62.65526      1.4 1.182e+04 1.197e-09
 62.66649      0.2 1.138e+04 9.665e-10
 62.68243     -0.7 1.092e+04 7.452e-10
 62.69365     -2.7 9.992e+03 4.497e-10
 62.70749     -3.6 9.551e+03 3.740e-10
 62.72485     -4.3 9.332e+03 3.374e-10
 62.73607     -5.0 9.200e+03 2.974e-10
 62.75239     -5.0 9.205e+03 2.985e-10
 62.76727     -4.7 9.197e+03 3.090e-10
 62.78982     -4.3 9.110e+03 2.886e-10
 62.82986     -3.8 9.139e+03 3.048e-10
 62.85231     -3.2 8.966e+03 2.629e-10
 62.87604     -3.2 9.026e+03 2.752e-10
 62.91471     -3.1 9.083e+03 2.887e-10
 62.93716     -2.3 8.983e+03 2.641e-10
 62.96582     -2.2 9.090e+03 2.882e-10
 62.99955     -1.9 9.190e+03 3.152e-10
 63.02200     -0.8 9.188e+03 3.023e-10
 63.05561     -0.2 9.287e+03 3.263e-10
 63.08440      1.0 9.324e+03 3.332e-10
 63.10685      2.0 9.325e+03 3.257e-10
 63.14539      3.8 9.354e+03 3.285e-10
 63.16915      5.9 9.358e+03 3.351e-10
 63.19159      7.2 9.395e+03 3.348e-10
 63.22386      9.1 9.416e+03 3.505e-10
 63.24267     10.0 9.464e+03 3.660e-10
 63.25399     10.6 9.462e+03 3.535e-10
 63.26875     11.6 9.553e+03 3.942e-10
 63.28280     12.6 9.725e+03 4.547e-10
 63.28802     11.6 1.011e+04 6.226e-10
 63.29632     12.2 9.963e+03 5.735e-10
 63.31355     13.4 1.019e+04 6.771e-10
 63.32752     14.7 1.045e+04 7.972e-10
 63.33874     15.3 1.019e+04 6.994e-10
 63.35844     16.7 1.041e+04 8.042e-10
 63.36994     18.2 1.062e+04 9.075e-10
 63.38116     18.7 1.024e+04 7.510e-10
 63.40114     20.3 1.037e+04 8.236e-10
 63.41236     20.7 9.998e+03 6.624e-10
 63.42578     22.3 1.009e+04 7.162e-10
 63.44356     23.9 1.030e+04 7.817e-10
 63.45478     24.2 9.840e+03 6.134e-10
 63.47067     25.9 1.003e+04 6.734e-10
 63.48598     27.2 1.064e+04 8.017e-10
 63.49721     27.8 9.817e+03 5.938e-10
 63.51556     29.1 1.067e+04 7.337e-10
 63.52841     29.7 1.319e+04 1.178e-09
 63.53963     30.7 1.118e+04 7.281e-10
 63.55960     31.0 1.503e+04 1.419e-09
 63.57083     31.7 1.264e+04 8.678e-10
 63.58290     31.2 1.780e+04 2.048e-09
 63.59657     31.9 2.269e+04 5.487e-09
 63.60448     32.1 2.301e+04 1.081e-08
 63.61325     33.1 2.445e+04 9.868e-09
 63.62780     36.3 2.706e+04 1.438e-08
 63.64445     38.0 2.869e+04 1.598e-08
 63.65001     38.4 2.923e+04 1.666e-08
 63.65576     39.8 3.004e+04 1.883e-08
 63.66556     40.5 3.154e+04 2.318e-08
 63.67117     40.3 3.231e+04 2.272e-08
 63.67820     41.1 3.358e+04 4.135e-08
 63.68677     42.1 3.169e+04 1.092e-07
 63.69239     39.8 3.355e+04 8.773e-08
 63.69736     41.4 3.120e+04 1.880e-07
 63.70014     39.6 3.460e+04 1.240e-07
 63.70341     39.0 3.306e+04 2.036e-07
 63.70794     37.8 2.969e+04 4.173e-07
 63.71074     31.7 3.596e+04 1.324e-07
 63.71463     23.3 3.504e+04 2.150e-07
 63.71854     10.0 3.521e+04 2.756e-07
 63.72135      0.3 4.464e+04 5.673e-08
 63.72585    -11.5 4.020e+04 8.308e-08
 63.72915    -18.2 3.332e+04 1.390e-07
 63.73478    -16.7 3.351e+04 8.591e-08
 63.74480    -23.3 3.072e+04 1.232e-07
 63.75041    -19.5 3.246e+04 5.902e-08
 63.75336    -22.6 3.065e+04 8.700e-08
 63.75897    -28.1 2.889e+04 9.121e-08
 63.76601    -26.1 2.607e+04 8.868e-08
 63.77162    -23.0 2.714e+04 8.985e-08
 63.77921    -20.9 2.603e+04 8.929e-08
 63.78722    -19.1 2.492e+04 8.753e-08
 63.79283    -16.7 2.605e+04 8.707e-08
 63.80166    -15.6 2.533e+04 8.747e-08
 63.80843    -14.9 2.445e+04 9.023e-08
 63.81404    -13.3 2.519e+04 8.826e-08
 63.82403    -13.0 2.462e+04 9.160e-08
 63.82964    -11.7 2.734e+04 6.568e-08
 63.83533    -11.5 2.650e+04 7.386e-08
 63.84524    -11.7 2.588e+04 8.234e-08
 63.85085    -11.1 3.003e+04 3.504e-08
 63.85777    -11.4 2.979e+04 4.116e-08
 63.86645    -11.8 2.943e+04 4.780e-08
 63.87206    -12.1 3.004e+04 1.427e-08
 63.88022    -12.3 2.992e+04 1.717e-08
 63.88766    -12.5 2.962e+04 2.058e-08
 63.89328    -13.3 2.490e+04 5.051e-09
 63.90267    -13.2 2.536e+04 6.063e-09
 63.90887    -13.2 2.565e+04 7.197e-09
 63.91084    -14.2 1.792e+04 2.651e-09
 63.91586    -13.2 2.519e+04 8.105e-09
 63.92447    -13.2 2.517e+04 9.269e-09
 63.93009    -14.2 1.904e+04 3.202e-09
 63.93634    -14.4 1.962e+04 3.555e-09
 63.94569    -14.6 2.018e+04 4.000e-09
 63.95130    -14.9 1.577e+04 2.455e-09
 63.95878    -15.1 1.619e+04 2.652e-09
 63.96690    -15.4 1.666e+04 2.923e-09
 63.97251    -15.2 1.499e+04 2.427e-09
 63.98123    -15.4 1.524e+04 2.617e-09
 63.98811    -15.7 1.558e+04 2.861e-09
 63.99372    -15.4 1.495e+04 2.625e-09
 64.00368    -15.7 1.513e+04 2.844e-09
 64.01490    -15.5 1.500e+04 2.908e-09
 64.02492    -15.7 1.513e+04 3.174e-09
 64.03053    -15.3 1.498e+04 3.107e-09
 64.03734    -15.4 1.502e+04 3.241e-09
 64.04613    -15.6 1.515e+04 3.513e-09
 64.05740    -15.0 1.498e+04 3.435e-09
 64.06718    -15.4 1.517e+04 3.845e-09
 64.06907    -15.2 1.516e+04 3.899e-09
 64.07295    -14.9 1.500e+04 3.709e-09
 64.08224    -15.0 1.506e+04 3.817e-09
 64.08855    -15.1 1.519e+04 4.053e-09
 64.09982    -14.7 1.506e+04 3.813e-09
 64.11596    -14.7 1.509e+04 3.879e-09
 64.12536    -14.7 1.512e+04 3.902e-09
 64.13102    -14.0 1.478e+04 3.574e-09
 64.14406    -14.6 1.508e+04 3.859e-09
 64.16227    -15.3 1.533e+04 3.983e-09
 64.17350    -14.2 1.476e+04 3.619e-09
 64.18896    -15.2 1.520e+04 3.873e-09
 64.20465    -15.5 1.534e+04 3.889e-09
 64.21587    -14.3 1.496e+04 3.801e-09
 64.22412    -15.1 1.529e+04 3.995e-09
 64.22735    -15.4 1.536e+04 3.309e-09
 64.23142    -14.7 1.522e+04 3.182e-09
 64.23936    -14.9 1.530e+04 3.294e-09
 64.24702    -15.1 1.541e+04 3.531e-09
 64.25263    -14.3 1.527e+04 3.391e-09
 64.26181    -14.4 1.540e+04 3.575e-09
 64.26823    -14.6 1.551e+04 3.780e-09
 64.27384    -13.6 1.535e+04 3.599e-09
 64.28383    -13.8 1.551e+04 3.768e-09
 64.28949    -12.4 1.531e+04 3.544e-09
 64.29553    -12.9 1.548e+04 3.735e-09
 64.30504    -13.2 1.589e+04 4.005e-09
 64.31065    -12.1 1.552e+04 3.744e-09
 64.31792    -12.3 1.586e+04 3.945e-09
 64.32625    -12.8 1.659e+04 4.377e-09
 64.33186    -11.6 1.585e+04 3.938e-09
 64.34037    -12.0 1.652e+04 4.325e-09
 64.34746    -12.4 1.749e+04 4.987e-09
 64.35308    -11.3 1.644e+04 4.309e-09
 64.36282    -11.8 1.756e+04 5.029e-09
 64.36868    -12.3 1.889e+04 6.258e-09
 64.37429    -11.3 1.764e+04 5.218e-09
 64.38090    -11.9 1.887e+04 6.454e-09
 64.38553    -12.3 1.964e+04 8.278e-09
 64.38989    -11.1 1.847e+04 6.670e-09
 64.39649    -11.3 1.931e+04 8.035e-09
 64.40549    -11.6 2.032e+04 9.997e-09
 64.41110    -10.7 1.922e+04 8.201e-09
 64.41893    -10.8 2.033e+04 1.043e-08
 64.42670    -10.7 2.111e+04 1.260e-08
 64.43231     -9.8 1.999e+04 1.038e-08
 64.44138    -10.0 2.102e+04 1.244e-08
 64.44791    -10.3 2.223e+04 1.524e-08
 64.45352     -9.5 2.110e+04 1.278e-08
 64.46351     -9.5 2.217e+04 1.500e-08
 64.46912     -8.8 2.091e+04 1.261e-08
 64.47505     -8.8 2.180e+04 1.416e-08
 64.48472     -8.7 2.264e+04 1.599e-08
 64.49033     -8.2 2.117e+04 1.300e-08
 64.49750     -8.1 2.196e+04 1.401e-08
 64.50593     -8.0 2.295e+04 1.541e-08
 64.51154     -7.8 2.087e+04 1.136e-08
 64.51994     -8.1 2.204e+04 1.209e-08
 64.52714     -8.9 2.382e+04 1.391e-08
 64.53275     -9.5 2.051e+04 8.961e-09
 64.53779    -11.0 2.258e+04 1.030e-08
 64.54340    -11.6 2.711e+04 2.523e-08
 64.54835    -12.8 2.768e+04 4.037e-08
 64.55396    -14.0 2.619e+04 2.037e-08
 64.56395    -15.2 2.655e+04 3.497e-08
 64.56956    -16.8 2.354e+04 1.389e-08
 64.57606    -18.3 2.447e+04 1.936e-08
 64.58516    -20.1 2.504e+04 2.976e-08
 64.59078    -20.6 2.028e+04 8.418e-09
 64.59850    -22.0 2.236e+04 9.829e-09
 64.60638    -23.4 2.495e+04 1.360e-08
 64.61199    -22.4 1.887e+04 4.941e-09
 64.62095    -23.7 2.247e+04 5.956e-09
 64.62759    -25.1 2.520e+04 8.607e-09
 64.63320    -23.6 1.887e+04 3.403e-09
 64.64319    -24.7 2.197e+04 4.346e-09
 64.64880    -23.7 1.669e+04 2.263e-09
 64.65462    -24.9 1.956e+04 2.648e-09
 64.66440    -26.1 2.234e+04 3.667e-09
 64.67001    -25.5 1.828e+04 1.855e-09
 64.67707    -26.6 2.040e+04 2.357e-09
 64.68561    -27.4 2.175e+04 3.383e-09
 64.69122    -27.1 1.855e+04 1.720e-09
 64.69467    -27.8 1.959e+04 2.246e-09
 64.70029    -28.4 2.013e+04 3.710e-09
 64.70682    -28.8 1.996e+04 5.532e-09
 64.71243    -28.2 1.834e+04 2.222e-09
 64.72196    -28.4 1.862e+04 3.388e-09
 64.72803    -28.3 1.884e+04 5.179e-09
 64.73369    -27.5 1.624e+04 1.563e-09
 64.74368    -27.5 1.783e+04 3.379e-09
 64.74924    -26.8 1.613e+04 1.871e-09
 64.75563    -26.6 1.677e+04 2.360e-09
 64.76484    -26.3 1.776e+04 3.686e-09
 64.77045    -25.6 1.575e+04 1.957e-09
 64.77808    -25.3 1.667e+04 2.666e-09
 64.78605    -25.0 1.794e+04 4.154e-09
 64.79166    -24.3 1.557e+04 2.141e-09
 64.80052    -24.1 1.668e+04 2.911e-09
 64.80726    -23.9 1.821e+04 4.654e-09
 64.81288    -23.4 1.524e+04 2.257e-09
 64.82286    -23.2 1.663e+04 3.186e-09
 64.82848    -22.9 1.422e+04 1.872e-09
 64.83419    -22.7 1.508e+04 2.441e-09
 64.84408    -22.6 1.654e+04 3.459e-09
 64.84974    -22.1 1.354e+04 1.732e-09
 64.85161    -22.3 1.531e+04 2.727e-09
 64.85717    -22.4 1.845e+04 5.046e-09
 64.86529    -22.8 2.080e+04 7.583e-09
 64.87090    -22.4 1.695e+04 3.825e-09
 64.87908    -22.7 1.937e+04 5.505e-09
 64.88650    -22.9 2.095e+04 7.668e-09
 64.89211    -22.3 1.828e+04 4.569e-09
 64.90153    -22.6 2.008e+04 6.436e-09
 64.90771    -22.4 2.107e+04 8.458e-09
 64.91332    -21.7 1.984e+04 5.682e-09
 64.92331    -21.3 2.043e+04 6.878e-09
 64.92892    -20.4 1.904e+04 4.521e-09
 64.93520    -19.8 1.918e+04 4.888e-09
 64.94452    -19.4 1.928e+04 5.099e-09
 64.95013    -19.2 1.739e+04 3.264e-09
 64.95765    -19.3 1.745e+04 3.302e-09
 64.96573    -19.7 1.785e+04 3.460e-09
 64.97134    -20.1 1.614e+04 2.625e-09
 64.98009    -20.7 1.660e+04 2.802e-09
 64.98694    -21.6 1.780e+04 3.215e-09
 64.99255    -21.5 1.642e+04 2.716e-09
 65.00254    -22.1 1.707e+04 2.957e-09
 65.00845    -22.4 1.688e+04 2.993e-09
 65.01406    -22.7 1.810e+04 3.359e-09
 65.02375    -23.1 1.900e+04 3.951e-09
 65.02936    -22.3 1.712e+04 3.060e-09
 65.03621    -22.7 1.784e+04 3.809e-09
 65.04496    -22.6 1.779e+04 4.129e-09
 65.05063    -21.5 1.667e+04 3.108e-09
 65.06436    -20.3 1.605e+04 3.138e-09
 65.08187    -19.8 1.566e+04 3.315e-09
 65.09310    -18.0 1.467e+04 2.046e-09
 65.10926    -18.3 1.455e+04 2.230e-09
 65.12430    -18.2 1.423e+04 2.395e-09
 65.13552    -17.1 1.383e+04 1.755e-09
 65.15415    -16.7 1.358e+04 1.926e-09
 65.16672    -17.5 1.350e+04 1.787e-09
 65.17794    -16.4 1.322e+04 1.682e-09
 65.21036    -16.1 1.333e+04 1.372e-09
 65.24054    -14.5 1.288e+04 1.097e-09
 65.26298    -12.2 1.276e+04 1.211e-09
 65.30025    -10.9 1.230e+04 9.025e-10
 65.32538     -9.5 1.162e+04 6.812e-10
 65.34783     -7.4 1.184e+04 6.799e-10
 65.38778     -6.3 1.126e+04 5.242e-10
 65.41023     -4.1 1.146e+04 4.992e-10
 65.43493     -3.0 1.093e+04 4.282e-10
 65.47262     -1.6 1.075e+04 4.531e-10
 65.49507      0.0 1.077e+04 3.939e-10
 65.52471      1.5 1.063e+04 4.384e-10
 65.55747      3.3 1.066e+04 6.092e-10
 65.57992      4.7 1.064e+04 4.968e-10
 65.61450      6.4 1.088e+04 7.357e-10
 65.64231      8.1 1.126e+04 1.028e-09
 65.66476      9.4 1.120e+04 9.312e-10
 65.70428     10.9 1.151e+04 1.176e-09
 65.72716     12.2 1.161e+04 1.223e-09
 65.74960     13.3 1.169e+04 1.258e-09
 65.78194     14.7 1.169e+04 1.254e-09
 65.79988     13.5 1.174e+04 1.212e-09
 65.81200     14.3 1.180e+04 1.242e-09
 65.83896     16.1 1.188e+04 1.262e-09
 65.87440     18.2 1.228e+04 1.458e-09
 65.89685     18.6 1.234e+04 1.462e-09
 65.91673     19.2 1.266e+04 1.736e-09
 65.92785     19.3 1.261e+04 1.724e-09
 65.93977     19.7 1.301e+04 2.185e-09
 65.95905     20.2 1.364e+04 2.991e-09
 65.97027     20.5 1.339e+04 2.588e-09
 65.98467     20.8 1.423e+04 3.619e-09
 66.00147     20.9 1.529e+04 5.312e-09
 66.01270     20.3 1.523e+04 4.530e-09
 66.02956     20.2 1.654e+04 6.893e-09
 66.04385     19.3 1.741e+04 9.366e-09
 66.04941     18.1 1.741e+04 9.029e-09
 66.05752     16.5 1.880e+04 1.156e-08
 66.06501     13.2 2.122e+04 1.827e-08
 66.07062     10.2 2.235e+04 2.352e-08
 66.07997      6.8 2.316e+04 5.094e-08
 66.08622      4.9 2.281e+04 1.057e-07
 66.09183      3.3 2.268e+04 1.122e-07
 66.10103      2.5 2.203e+04 1.713e-07
 66.10605      2.2 2.237e+04 1.254e-07
 66.10743      1.5 2.196e+04 1.018e-07
 66.11364      1.2 2.159e+04 9.501e-08
 66.12303      1.6 2.116e+04 7.289e-08
 66.12864      1.7 2.076e+04 4.718e-08
 66.13608      1.6 2.041e+04 2.936e-08
 66.14424      0.2 2.057e+04 1.695e-08
 66.14986     -2.7 2.075e+04 1.115e-08
 66.15853     -8.8 2.098e+04 8.381e-09
 66.16545    -14.5 2.045e+04 8.368e-09
 66.17107    -17.3 1.982e+04 7.688e-09
 66.18098    -21.5 2.037e+04 8.849e-09
 66.18667    -26.0 2.193e+04 1.460e-08
 66.19228    -27.4 2.211e+04 1.784e-08
 66.20227    -29.9 2.210e+04 4.004e-08
 66.20788    -30.4 2.178e+04 4.604e-08
 66.21465    -30.3 2.167e+04 9.332e-08
 66.22348    -30.2 2.194e+04 1.517e-07
 66.22909    -30.6 2.167e+04 1.333e-07
 66.23709    -30.9 2.171e+04 1.325e-07
 66.24469    -30.8 2.157e+04 1.089e-07
 66.25030    -30.5 2.097e+04 6.882e-08
 66.25792    -29.9 2.032e+04 4.284e-08
 66.26353    -30.2 2.029e+04 4.462e-08
 66.26590    -29.7 1.947e+04 2.742e-08
 66.27151    -30.1 1.881e+04 1.905e-08
 66.28150    -30.9 1.781e+04 1.112e-08
 66.28711    -32.2 1.686e+04 8.149e-09
 66.29887    -33.9 1.507e+04 4.165e-09
 66.31841    -34.7 1.337e+04 1.807e-09
 66.32963    -34.7 1.279e+04 1.478e-09
 66.34381    -36.3 1.208e+04 6.322e-10
 66.36083    -37.9 1.125e+04 3.181e-10
 66.37205    -37.7 1.105e+04 3.229e-10
 66.38870    -38.4 1.014e+04 2.852e-10
 66.40939    -37.4 9.743e+03 2.798e-10
 66.42061    -35.8 1.065e+04 5.367e-10
 66.43360    -35.4 1.055e+04 5.366e-10
 66.44577    -34.3 1.049e+04 5.356e-10
 66.46832    -33.3 1.074e+04 6.587e-10
 66.50827    -31.8 1.069e+04 6.633e-10
 66.53072    -31.3 1.079e+04 7.136e-10
 66.55725    -30.2 1.075e+04 7.024e-10
 66.59311    -29.4 1.062e+04 6.628e-10
 66.61556    -29.0 1.068e+04 6.757e-10
 66.64703    -27.9 1.037e+04 5.548e-10
 66.67796    -26.9 9.916e+03 3.987e-10
 66.70041    -26.3 1.001e+04 4.053e-10
 66.73682    -25.3 9.591e+03 2.744e-10
 66.76280    -24.2 9.239e+03 1.759e-10
 66.78525    -23.5 9.464e+03 1.882e-10
 66.82520    -22.5 9.103e+03 1.219e-10
 66.84765    -21.7 9.359e+03 1.388e-10
 66.87150    -20.6 8.909e+03 1.114e-10
 66.91005    -19.2 8.805e+03 1.119e-10
 66.93249    -18.3 8.902e+03 1.166e-10
 66.96128    -16.5 8.843e+03 1.201e-10
 66.99489    -14.6 8.764e+03 1.364e-10
 67.01734    -13.4 8.897e+03 1.419e-10
 67.03703    -11.4 8.882e+03 1.561e-10
 67.05947    -11.3 9.170e+03 1.945e-10
 67.07974     -9.4 9.160e+03 1.934e-10
 67.10218     -8.3 9.241e+03 1.972e-10
 67.14085     -6.3 9.157e+03 1.825e-10
 67.16458     -4.3 9.041e+03 1.540e-10
 67.18703     -3.0 9.072e+03 1.537e-10
 67.22698     -1.0 8.943e+03 1.207e-10
 67.24943      0.2 9.015e+03 1.234e-10
 67.27553      2.2 8.895e+03 9.741e-11
 67.31183      4.1 8.779e+03 7.976e-11
 67.33427      5.3 8.860e+03 9.313e-11
 67.36532      7.3 8.766e+03 8.643e-11
 67.39667      9.4 8.745e+03 8.637e-11
 67.41912     10.6 8.826e+03 1.020e-10
 67.45510     12.7 8.823e+03 1.027e-10
 67.48152     14.8 8.828e+03 1.062e-10
 67.50396     15.9 8.910e+03 1.196e-10
 67.54391     17.9 8.949e+03 1.246e-10
 67.56636     18.9 9.024e+03 1.333e-10
 67.58978     20.5 9.143e+03 1.442e-10
 67.62876     22.0 9.347e+03 1.705e-10
 67.65121     22.1 9.613e+03 2.067e-10
 67.66457     23.2 9.951e+03 2.837e-10
 67.68701     23.2 1.030e+04 4.052e-10
 67.71360     24.4 1.074e+04 5.915e-10
 67.73605     23.6 1.111e+04 7.957e-10
 67.76935     25.3 1.158e+04 1.024e-09
 67.79835     25.8 1.180e+04 1.137e-09
 67.80948     24.9 1.180e+04 1.147e-09
 67.82527     25.0 1.202e+04 1.261e-09
 67.84068     25.0 1.217e+04 1.449e-09
 67.85190     24.5 1.187e+04 1.241e-09
 67.87016     24.7 1.196e+04 1.320e-09
 67.88310     25.0 1.216e+04 1.440e-09
 67.89432     24.5 1.186e+04 9.710e-10
 67.91430     24.7 1.211e+04 9.856e-10
 67.92552     23.8 1.170e+04 6.519e-10
 67.93750     23.7 1.174e+04 6.378e-10
 67.95672     23.6 1.176e+04 6.058e-10
 67.96794     22.6 1.137e+04 4.158e-10
 67.97814     22.6 1.133e+04 3.728e-10
 67.98937     21.8 1.110e+04 3.129e-10
 67.99914     21.8 1.107e+04 2.910e-10
 68.01037     21.8 1.094e+04 2.639e-10
 68.03044     22.3 1.100e+04 2.574e-10
 68.05298     22.8 1.071e+04 2.025e-10
 68.08360     24.0 1.048e+04 1.710e-10
 68.11538     25.4 1.028e+04 1.596e-10
 68.13783     26.4 9.944e+03 1.137e-10
 68.17339     28.0 9.944e+03 1.146e-10
 68.20023     29.6 9.959e+03 1.207e-10
 68.22267     30.5 9.772e+03 9.375e-11
 68.26263     32.1 9.811e+03 1.072e-10
 68.28507     33.0 9.702e+03 9.181e-11
 68.29211     34.6 9.736e+03 1.101e-10
 68.31455     34.5 9.653e+03 8.884e-11
 68.34747     36.1 9.690e+03 1.131e-10
 68.36992     37.1 9.618e+03 1.012e-10
 68.39785     38.6 9.659e+03 1.256e-10
 68.43232     40.1 9.722e+03 1.534e-10
 68.45476     41.1 9.663e+03 1.400e-10
 68.48764     42.5 9.699e+03 1.610e-10
 68.51716     43.8 9.729e+03 1.759e-10
 68.53961     44.9 9.665e+03 1.592e-10
 68.57742     46.2 9.658e+03 1.595e-10
 68.60201     47.5 9.622e+03 1.554e-10
 68.62445     48.7 9.563e+03 1.374e-10
 68.66440     50.0 9.439e+03 1.221e-10
 68.68685     51.3 9.389e+03 1.064e-10
 68.71210     52.7 9.191e+03 9.826e-11
 68.74925     54.3 9.150e+03 9.830e-11
 68.77170     55.5 9.127e+03 8.981e-11
 68.80189     57.2 9.113e+03 9.095e-11
 68.83409     58.8 9.081e+03 9.668e-11
 68.85654     60.1 9.089e+03 9.293e-11
 68.89167     61.7 9.076e+03 1.017e-10
 68.91894     63.4 9.089e+03 1.119e-10
 68.92447     64.7 9.098e+03 1.084e-10
 68.94210     65.0 8.999e+03 9.282e-11
 68.98134     66.6 8.997e+03 9.569e-11
 69.02623     69.5 9.010e+03 9.450e-11
 69.06618     71.0 9.010e+03 9.568e-11
 69.08863     72.4 9.030e+03 9.582e-11
 69.11613     73.9 9.067e+03 9.900e-11
 69.15103     75.3 9.104e+03 1.040e-10
 69.17347     76.6 9.220e+03 1.277e-10
 69.20592     78.1 9.265e+03 1.423e-10
 69.23587     79.5 9.308e+03 1.591e-10
 69.25832     80.9 9.460e+03 1.946e-10
 69.29571     82.4 9.523e+03 2.080e-10
 69.32072     83.8 9.578e+03 2.229e-10
 69.34316     85.1 9.633e+03 2.294e-10
 69.38312     86.5 9.706e+03 2.418e-10
 69.40556     87.8 9.733e+03 2.255e-10
 69.43038     88.9 9.824e+03 2.321e-10
 69.46796     89.3 9.998e+03 2.610e-10
 69.49041     90.6 9.978e+03 2.319e-10
 69.52017     90.9 1.028e+04 3.265e-10
 69.54719     90.7 1.066e+04 4.869e-10
 69.55738     92.5 1.068e+04 4.829e-10
 69.57525     93.7 1.080e+04 5.062e-10
 69.60996     93.1 1.130e+04 7.526e-10
 69.63765     91.8 1.157e+04 8.207e-10
 69.66010     92.8 1.209e+04 1.094e-09
 69.69974     90.8 1.215e+04 1.073e-09
 69.72250     88.8 1.193e+04 9.041e-10
 69.74494     89.9 1.271e+04 1.276e-09
 69.78489     87.8 1.207e+04 8.920e-10
 69.80734     89.2 1.274e+04 1.144e-09
 69.83442     87.2 1.162e+04 6.745e-10
 69.86974     85.4 1.049e+04 4.267e-10
 69.89219     86.7 1.052e+04 3.983e-10
 69.92421     85.1 1.012e+04 2.983e-10
 69.95458     84.0 1.011e+04 2.997e-10
 69.97703     85.4 1.014e+04 2.917e-10
 70.01399     83.8 1.023e+04 3.148e-10
 70.03943     81.7 1.044e+04 3.783e-10
 70.06188     82.6 1.069e+04 4.331e-10
 70.10183     80.2 1.075e+04 4.761e-10
 70.12427     80.9 1.104e+04 5.589e-10
 70.14867     78.3 1.097e+04 5.277e-10
 70.17473     75.8 1.068e+04 4.232e-10
 70.19029     76.5 1.073e+04 4.427e-10
 70.20912     76.3 1.115e+04 5.603e-10
 70.23845     73.4 1.076e+04 4.734e-10
 70.27152     71.0 1.055e+04 4.483e-10
 70.29396     70.2 1.081e+04 5.495e-10
 70.32824     68.4 1.067e+04 5.091e-10
 70.35636     67.0 1.055e+04 4.439e-10
 70.37881     66.1 1.070e+04 4.733e-10
 70.41803     64.4 1.061e+04 3.588e-10
 70.44121     62.3 1.051e+04 2.849e-10
 70.46365     60.8 1.080e+04 3.983e-10
 70.50361     59.1 1.066e+04 3.632e-10
 70.52605     58.2 1.112e+04 5.620e-10
 70.55270     57.3 1.080e+04 4.270e-10
 70.58845     56.8 1.044e+04 2.849e-10
 70.61090     55.8 1.089e+04 3.634e-10
 70.64249     55.2 1.053e+04 2.152e-10
 70.67330     54.7 1.027e+04 1.518e-10
 70.69574     53.2 1.092e+04 3.324e-10
 70.73228     53.7 1.091e+04 3.479e-10
 70.75814     54.6 1.110e+04 4.215e-10
 70.78059     53.9 1.172e+04 7.523e-10
 70.80047     54.4 1.187e+04 8.215e-10
 70.80303     53.5 1.206e+04 9.572e-10
 70.81330     52.3 1.204e+04 1.044e-09
 70.83157     52.5 1.217e+04 1.177e-09
 70.84279     52.0 1.208e+04 1.169e-09
 70.85554     52.5 1.210e+04 1.221e-09
 70.87399     52.9 1.209e+04 1.205e-09
 70.88521     52.6 1.164e+04 8.737e-10
 70.90043     52.9 1.156e+04 8.251e-10
 70.91641     53.3 1.149e+04 7.676e-10
 70.92764     53.0 1.121e+04 5.276e-10
 70.94532     53.4 1.120e+04 4.696e-10
 70.95884     53.5 1.119e+04 4.054e-10
 70.97006     53.0 1.096e+04 3.049e-10
 70.99013     53.4 1.108e+04 3.162e-10
 71.01268     53.6 1.068e+04 2.018e-10
 71.04653     53.9 1.056e+04 1.668e-10
 71.07507     54.4 1.044e+04 1.624e-10
 71.09752     55.1 1.038e+04 1.527e-10
 71.13631     55.8 1.043e+04 1.694e-10
 71.15992     56.3 1.055e+04 2.021e-10
 71.18237     57.0 1.060e+04 2.168e-10
 71.22232     57.5 1.073e+04 2.703e-10
 71.24476     58.2 1.077e+04 2.763e-10
 71.27099     58.5 1.083e+04 3.135e-10
 71.30716     58.4 1.087e+04 3.370e-10
 71.32961     58.8 1.069e+04 2.691e-10
 71.36077     58.6 1.061e+04 2.633e-10
 71.39201     58.5 1.057e+04 2.603e-10
 71.41445     58.9 1.034e+04 2.155e-10
 71.42982     58.7 1.032e+04 2.249e-10
 71.45226     57.6 1.041e+04 2.110e-10
 71.47685     57.3 1.049e+04 2.532e-10
 71.49930     57.9 1.038e+04 2.462e-10
 71.53925     57.7 1.041e+04 2.904e-10
 71.56170     58.3 1.029e+04 2.672e-10
 71.58524     58.1 1.028e+04 2.662e-10
 71.62410     58.0 1.023e+04 2.505e-10
 71.64654     58.7 1.012e+04 2.156e-10
 71.67502     58.6 1.003e+04 1.696e-10
 71.70894     58.5 9.937e+03 1.214e-10
 71.73139     59.1 9.873e+03 1.011e-10
 71.76481     59.1 9.780e+03 6.681e-11
 71.79379     59.3 9.658e+03 4.428e-11
 71.81623     60.1 9.556e+03 4.050e-11
 71.85460     60.5 9.304e+03 3.100e-11
 71.87863     61.2 9.093e+03 3.015e-11
 71.90108     62.2 9.070e+03 2.890e-11
 71.94103     63.3 9.053e+03 2.879e-11
 71.96348     64.3 9.039e+03 2.850e-11
 71.98927     65.5 9.030e+03 2.857e-11
 72.02588     66.8 9.001e+03 2.955e-11
 72.04832     67.8 9.000e+03 2.942e-11
 72.05736     69.0 8.977e+03 3.196e-11
 72.07980     69.0 8.929e+03 4.296e-11
 72.11072     70.1 8.954e+03 4.774e-11
 72.13317     71.2 8.955e+03 4.792e-11
 72.16884     72.2 8.984e+03 5.409e-11
 72.19557     73.2 9.005e+03 6.026e-11
 72.21801     74.2 9.012e+03 6.229e-11
 72.25796     75.2 9.011e+03 6.625e-11
 72.28041     76.2 9.012e+03 6.702e-11
 72.30352     77.2 8.997e+03 6.898e-11
 72.34281     78.1 8.993e+03 7.247e-11
 72.36525     79.3 8.987e+03 6.921e-11
 72.39331     80.2 9.015e+03 7.576e-11
 72.42765     81.2 9.117e+03 8.875e-11
 72.45010     82.4 9.106e+03 7.816e-11
 72.48309     83.2 9.232e+03 9.294e-11
 72.51250     84.0 9.372e+03 1.113e-10
 72.53494     85.1 9.320e+03 9.283e-11
 72.57288     85.6 9.416e+03 1.065e-10
 72.59734     85.9 9.483e+03 1.195e-10
 72.61979     87.0 9.436e+03 1.049e-10
 72.65974     87.2 9.449e+03 1.152e-10
 72.68197     88.3 9.440e+03 1.104e-10
 72.68490     87.9 9.517e+03 1.129e-10
 72.70756     88.3 9.495e+03 1.220e-10
 72.74459     88.8 9.484e+03 1.331e-10
 72.76703     90.1 9.480e+03 1.267e-10
 72.79734     90.7 9.488e+03 1.367e-10
 72.82943     91.4 9.539e+03 1.502e-10
 72.85188     92.8 9.511e+03 1.411e-10
 72.88713     93.6 9.581e+03 1.589e-10
 72.91428     94.3 9.662e+03 1.795e-10
 72.93672     95.9 9.670e+03 1.738e-10
 72.97668     96.7 9.786e+03 2.008e-10
 72.99912     98.2 9.805e+03 1.978e-10
 73.02181     99.0 9.927e+03 2.315e-10
 73.06152     99.6 1.001e+04 2.495e-10
 73.08397    101.1 1.004e+04 2.665e-10
 73.11159    101.5 1.009e+04 2.743e-10
 73.14637    101.9 1.008e+04 2.729e-10
 73.16881    103.3 1.014e+04 2.953e-10
 73.20138    103.5 1.013e+04 2.919e-10
 73.23121    103.8 1.011e+04 2.857e-10
 73.25366    105.1 1.019e+04 3.088e-10
 73.28999    105.2 1.015e+04 2.980e-10
 73.31244    105.0 1.030e+04 3.482e-10
 73.31606    105.1 1.024e+04 3.232e-10
 73.33850    106.4 1.031e+04 3.332e-10
 73.37845    106.5 1.022e+04 2.964e-10
 73.40090    107.8 1.030e+04 3.038e-10
 73.42584    107.9 1.019e+04 2.624e-10
 73.46330    108.1 1.010e+04 2.360e-10
 73.48575    109.4 1.015e+04 2.261e-10
 73.51563    109.6 1.006e+04 2.034e-10
 73.54814    109.9 9.960e+03 1.942e-10
 73.57059    110.9 9.961e+03 1.674e-10
 73.60541    111.2 9.733e+03 1.678e-10
 73.63299    111.8 9.717e+03 1.681e-10
 73.65544    112.8 9.686e+03 1.434e-10
 73.69520    113.6 9.672e+03 1.456e-10
 73.74009    115.5 9.657e+03 1.338e-10
 73.78023    116.5 9.696e+03 1.543e-10
 73.80268    117.5 9.676e+03 1.317e-10
 73.82988    118.5 9.718e+03 1.582e-10
 73.86508    119.5 9.770e+03 1.980e-10
 73.88752    120.6 9.691e+03 1.712e-10
 73.91753    121.6 9.746e+03 2.136e-10
 73.93998    120.8 9.701e+03 2.164e-10
 73.94992    121.9 9.730e+03 2.517e-10
 73.97237    123.1 9.692e+03 2.200e-10
 74.00945    124.0 9.733e+03 2.363e-10
 74.03477    125.0 9.774e+03 2.426e-10
 74.05721    126.2 9.779e+03 2.390e-10
 74.09717    127.3 9.874e+03 2.502e-10
 74.11961    128.4 1.019e+04 2.952e-10
 74.14413    129.6 1.033e+04 3.376e-10
 74.17770    129.9 1.039e+04 3.717e-10
 74.19304    130.2 1.050e+04 4.293e-10
 74.20426    130.6 1.070e+04 5.691e-10
 74.22249    131.1 1.092e+04 7.223e-10
 74.23546    131.5 1.120e+04 9.137e-10
 74.24408    132.2 1.149e+04 1.166e-09
 74.25356    131.7 1.157e+04 1.154e-09
 74.26666    132.3 1.199e+04 1.398e-09
 74.27788    133.2 1.229e+04 1.573e-09
 74.28983    133.6 1.267e+04 1.735e-09
 74.30908    133.6 1.281e+04 1.759e-09
 74.32031    133.9 1.286e+04 1.733e-09
 74.33473    133.7 1.288e+04 1.702e-09
 74.35151    133.4 1.282e+04 1.605e-09
 74.36273    133.5 1.266e+04 1.456e-09
 74.37962    132.9 1.247e+04 1.359e-09
 74.39393    132.2 1.224e+04 1.257e-09
 74.40515    132.4 1.212e+04 1.196e-09
 74.42451    131.7 1.189e+04 1.106e-09
 74.43635    131.1 1.162e+04 9.771e-10
 74.44757    131.3 1.164e+04 9.165e-10
 74.46755    130.5 1.137e+04 7.736e-10
 74.47877    130.8 1.141e+04 7.504e-10
 74.49885    130.3 1.106e+04 5.949e-10
 74.52139    131.3 1.107e+04 5.393e-10
 74.54508    130.4 1.031e+04 3.213e-10
 74.56752    129.9 1.013e+04 2.917e-10
 74.58379    128.9 9.615e+03 2.124e-10
 74.60624    129.7 9.604e+03 2.048e-10
 74.63795    128.8 9.603e+03 2.060e-10
 74.66863    127.8 9.769e+03 2.264e-10
 74.69108    128.9 1.008e+04 2.639e-10
 74.71096    128.2 1.024e+04 2.937e-10
 74.72208    128.2 1.029e+04 3.103e-10
 74.73876    127.1 1.063e+04 4.042e-10
 74.75328    125.5 1.100e+04 5.667e-10
 74.76451    125.5 1.127e+04 7.110e-10
 74.78365    124.1 1.144e+04 8.165e-10
 74.81578    121.9 1.137e+04 7.387e-10
 74.83832    122.3 1.171e+04 8.774e-10
 74.86241    120.5 1.099e+04 5.268e-10
 74.90072    118.8 9.977e+03 2.858e-10
 74.92317    118.4 9.706e+03 2.365e-10
 74.95220    117.8 9.613e+03 2.305e-10
 74.98547    117.7 9.646e+03 2.338e-10
 74.99660    117.5 9.831e+03 2.472e-10
 75.00812    115.9 1.046e+04 3.576e-10
 75.02779    111.8 1.198e+04 9.325e-10
 75.03902    109.6 1.334e+04 1.944e-09
 75.05301    105.6 1.645e+04 6.505e-09
 75.07022    102.9 1.862e+04 1.614e-08
 75.08144    102.0 1.945e+04 1.972e-08
 75.09790     98.8 2.027e+04 2.317e-08
 75.11264     95.1 2.021e+04 2.066e-08
 75.12386     93.3 2.019e+04 1.599e-08
 75.14280     89.0 1.941e+04 8.222e-09
 75.15506     82.6 1.755e+04 3.259e-09
 75.16629     78.7 1.602e+04 2.669e-09
 75.18365     72.8 1.331e+04 1.653e-09
 75.19344     71.3 1.267e+04 1.702e-09
 75.19748     71.1 1.280e+04 1.858e-09
 75.21014     70.3 1.263e+04 1.794e-09
 75.22868     70.4 1.249e+04 1.673e-09
 75.23991     70.7 1.253e+04 1.705e-09
 75.25503     70.9 1.223e+04 1.440e-09
 75.27111     71.2 1.180e+04 1.085e-09
 75.28233     71.5 1.176e+04 1.058e-09
 75.29992     71.6 1.138e+04 7.617e-10
 75.31353     71.7 1.109e+04 5.272e-10
 75.32475     71.9 1.116e+04 5.692e-10
 75.34473     71.8 1.100e+04 4.257e-10
 75.36717     71.9 1.110e+04 4.396e-10
 75.38715     71.6 1.094e+04 4.093e-10
 75.39837     71.9 1.153e+04 5.927e-10
 75.41215     71.6 1.155e+04 5.922e-10
 75.42957     71.1 1.158e+04 6.032e-10
 75.44080     70.8 1.259e+04 1.079e-09
 75.45705     69.8 1.279e+04 1.165e-09
 75.47200     68.5 1.319e+04 1.324e-09
 75.48322     67.7 1.467e+04 2.738e-09
 75.49742     65.5 1.535e+04 3.381e-09
 75.50864     65.1 1.542e+04 3.983e-09
 75.51442     62.8 1.587e+04 4.912e-09
 75.52564     62.6 1.688e+04 8.052e-09
 75.54562     61.1 1.698e+04 8.897e-09
 75.55684     61.0 1.758e+04 1.053e-08
 75.56928     59.8 1.724e+04 9.445e-09
 75.58804     58.6 1.703e+04 8.276e-09
 75.59926     57.6 1.744e+04 7.346e-09
 75.61417     55.0 1.751e+04 6.504e-09
 75.63046     52.2 1.748e+04 6.099e-09
 75.64169     48.4 1.751e+04 6.256e-09
 75.65906     47.1 1.761e+04 7.503e-09
 75.67288     46.6 1.769e+04 7.710e-09
 75.68411     45.0 1.825e+04 1.243e-08
 75.70396     44.9 1.842e+04 1.243e-08
 75.71531     44.3 1.856e+04 1.208e-08
 75.72653     42.9 1.923e+04 1.826e-08
 75.74651     42.2 1.942e+04 1.946e-08
 75.75773     41.4 1.971e+04 2.252e-08
 75.77130     41.4 1.984e+04 2.328e-08
 75.78893     41.2 1.977e+04 2.274e-08
 75.80015     40.6 1.971e+04 2.130e-08
 75.81119     41.3 1.910e+04 1.721e-08
 75.82241     41.5 1.852e+04 1.544e-08
 75.83135     42.9 1.763e+04 1.115e-08
 75.84257     42.8 1.714e+04 6.710e-09
 75.86108     43.1 1.582e+04 3.571e-09
 75.87377     42.6 1.433e+04 1.849e-09
 75.88500     40.9 1.336e+04 1.353e-09
 75.90497     41.2 1.266e+04 9.768e-10
 75.91620     40.1 1.198e+04 7.929e-10
 75.93627     41.3 1.144e+04 5.575e-10
 75.95881     41.2 1.083e+04 4.463e-10
 75.98473     43.0 1.020e+04 2.711e-10
 76.02121     44.9 9.882e+03 1.835e-10
 76.04366     45.3 9.833e+03 1.664e-10
 76.07452     47.1 9.590e+03 1.325e-10
 76.10606     49.1 9.358e+03 1.278e-10
 76.12850     49.6 9.265e+03 1.154e-10
 76.16430     51.8 9.245e+03 1.156e-10
 76.19090     54.0 9.220e+03 1.184e-10
 76.21335     54.5 9.191e+03 1.102e-10
 76.25330     56.6 9.176e+03 1.196e-10
 76.27575     57.1 9.183e+03 1.178e-10
 76.29898     59.0 9.202e+03 1.296e-10
 76.33815     61.0 9.254e+03 1.411e-10
 76.36059     61.4 9.268e+03 1.412e-10
 76.38877     63.2 9.317e+03 1.489e-10
 76.42299     65.0 9.371e+03 1.516e-10
 76.43948     65.3 9.383e+03 1.527e-10
 76.45015     65.5 9.411e+03 1.658e-10
 76.47855     67.2 9.460e+03 1.698e-10
 76.50784     68.9 9.532e+03 1.764e-10
 76.53028     69.1 9.531e+03 1.937e-10
 76.56834     70.7 9.594e+03 2.044e-10
 76.59268     72.2 9.681e+03 2.249e-10
 76.61513     72.6 9.772e+03 2.678e-10
 76.65508     74.1 9.891e+03 3.042e-10
 76.67753     74.5 9.989e+03 3.418e-10
 76.70302     75.9 1.012e+04 3.865e-10
 76.73992     77.2 1.029e+04 4.383e-10
 76.76237     77.4 1.029e+04 4.401e-10
 76.79280     78.5 1.045e+04 4.726e-10
 76.82477     79.6 1.049e+04 4.680e-10
 76.84722     79.6 1.030e+04 3.987e-10
 76.88259     80.1 1.032e+04 3.776e-10
 76.90961     80.7 1.026e+04 3.284e-10
 76.93206     80.6 1.022e+04 3.117e-10
 76.97201     80.7 1.010e+04 2.575e-10
 76.99446     80.7 1.027e+04 2.903e-10
 77.01727     80.7 1.009e+04 2.433e-10
 77.05524     80.6 9.857e+03 2.056e-10
 77.07239     80.0 9.662e+03 1.776e-10
 77.07930     80.2 9.868e+03 2.323e-10
 77.10705     80.5 9.606e+03 1.813e-10
 77.14170     80.9 9.474e+03 1.621e-10
 77.16415     81.2 9.507e+03 1.693e-10
 77.19684     81.8 9.503e+03 1.699e-10
 77.22655     82.5 9.577e+03 1.844e-10
 77.24899     82.7 9.645e+03 1.985e-10
 77.28662     83.2 9.972e+03 2.567e-10
 77.31139     83.4 1.035e+04 3.405e-10
 77.33384     83.3 1.032e+04 3.393e-10
 77.36509     83.0 1.059e+04 4.373e-10
 77.38004     82.6 1.086e+04 5.540e-10
 77.38865     82.0 1.106e+04 6.257e-10
 77.39604     81.6 1.117e+04 6.466e-10
 77.40988     80.9 1.168e+04 8.729e-10
 77.42724     79.9 1.225e+04 1.205e-09
 77.43846     79.1 1.242e+04 1.339e-09
 77.45478     78.0 1.286e+04 1.870e-09
 77.46966     77.1 1.315e+04 2.440e-09
 77.48089     76.8 1.313e+04 2.476e-09
 77.49967     76.7 1.326e+04 2.970e-09
 77.51209     76.7 1.334e+04 3.257e-09
 77.52331     76.9 1.291e+04 2.606e-09
 77.54329     76.9 1.286e+04 2.456e-09
 77.55451     76.7 1.238e+04 1.789e-09
 77.56701     76.3 1.229e+04 1.580e-09
 77.58571     75.8 1.211e+04 1.314e-09
 77.59693     75.1 1.163e+04 9.859e-10
 77.61190     74.3 1.140e+04 8.469e-10
 77.62813     73.5 1.112e+04 7.440e-10
 77.63935     73.2 1.081e+04 6.585e-10
 77.65679     72.7 1.071e+04 6.531e-10
 77.67055     72.2 1.074e+04 6.658e-10
 77.68178     72.3 1.068e+04 6.319e-10
 77.69381     71.9 1.075e+04 6.606e-10
 77.70503     71.0 1.075e+04 6.379e-10
 77.73545     70.2 1.096e+04 7.335e-10
 77.76912     69.7 1.109e+04 8.370e-10
 77.78660     68.9 1.124e+04 9.448e-10
 77.79782     69.2 1.101e+04 8.027e-10
 77.81392     67.8 1.128e+04 9.520e-10
 77.82902     66.2 1.161e+04 1.177e-09
 77.84024     66.0 1.147e+04 1.040e-09
 77.85881     64.3 1.182e+04 1.320e-09
 77.87144     63.1 1.215e+04 1.636e-09
 77.88267     62.8 1.213e+04 1.600e-09
 77.90264     61.8 1.241e+04 1.826e-09
 77.91387     61.2 1.240e+04 1.848e-09
 77.92615     60.2 1.246e+04 1.870e-09
 77.94506     59.1 1.243e+04 1.828e-09
 77.95629     58.0 1.282e+04 2.065e-09
 77.97104     56.0 1.312e+04 1.937e-09
 77.98749     52.9 1.331e+04 1.932e-09
 77.99871     50.6 1.392e+04 2.444e-09
 78.00758     47.2 1.391e+04 2.578e-09
 78.01881     47.8 1.335e+04 1.926e-09
 78.02991     44.8 1.339e+04 2.322e-09
 78.04113     43.7 1.350e+04 2.811e-09
 78.06083     42.8 1.325e+04 3.005e-09
 78.07233     42.5 1.313e+04 2.844e-09
 78.08356     42.2 1.288e+04 2.440e-09
 78.10353     41.4 1.244e+04 1.711e-09
 78.11475     40.7 1.205e+04 1.304e-09
 78.13949     37.4 1.073e+04 6.135e-10
 78.17735     33.6 9.459e+03 3.988e-10
 78.19979     32.4 9.108e+03 3.390e-10
 78.22937     31.1 9.125e+03 3.447e-10
 78.26219     30.3 9.267e+03 3.741e-10
 78.28464     29.9 9.220e+03 3.605e-10
 78.31032     29.1 9.349e+03 3.841e-10
 78.33277     28.7 9.356e+03 3.818e-10
 78.34704     28.0 9.370e+03 3.844e-10
 78.36948     27.3 9.575e+03 4.277e-10
 78.40894     26.8 9.543e+03 4.183e-10
 78.43188     26.6 9.377e+03 3.661e-10
 78.45433     26.0 9.599e+03 4.080e-10
 78.49428     25.8 9.270e+03 3.096e-10
 78.51673     24.9 9.298e+03 3.106e-10
 78.54362     24.6 9.102e+03 2.523e-10
 78.57913     24.4 9.125e+03 2.473e-10
 78.60157     23.2 9.075e+03 2.144e-10
 78.63341     23.0 9.206e+03 2.208e-10
 78.66397     22.6 9.586e+03 2.529e-10
 78.68642     21.3 9.511e+03 2.278e-10
 78.70630     21.1 9.701e+03 2.605e-10
 78.71742     20.6 9.713e+03 2.598e-10
 78.73422     19.5 9.957e+03 3.173e-10
 78.74862     18.1 1.038e+04 4.525e-10
 78.75984     17.2 1.049e+04 4.832e-10
 78.77911     15.4 1.126e+04 7.802e-10
 78.79104     13.1 1.240e+04 1.349e-09
 78.80227     12.1 1.248e+04 1.444e-09
 78.82224      9.7 1.356e+04 2.413e-09
 78.83347      9.1 1.350e+04 2.436e-09
 78.84645      7.2 1.389e+04 3.103e-09
 78.86467      5.4 1.382e+04 3.088e-09
 78.87589      5.2 1.348e+04 2.693e-09
 78.89135      4.1 1.299e+04 2.225e-09
 78.90709      3.0 1.222e+04 1.432e-09
 78.91831      2.6 1.187e+04 1.155e-09
 78.93777      0.7 1.096e+04 5.939e-10
 78.96031      0.6 1.062e+04 5.012e-10
 78.98091     -1.7 9.576e+03 2.543e-10
 79.00335     -1.2 9.766e+03 2.940e-10
 79.03744     -2.1 9.743e+03 2.933e-10
 79.06565     -2.2 9.823e+03 3.199e-10
 79.07678     -1.8 9.912e+03 3.433e-10
 79.09336     -2.3 1.004e+04 3.734e-10
 79.10798     -3.4 1.053e+04 4.653e-10
 79.11920     -3.5 1.067e+04 4.997e-10
 79.13826     -7.4 1.212e+04 9.847e-10
 79.15040    -10.4 1.362e+04 2.469e-09
 79.16162    -10.1 1.372e+04 2.670e-09
 79.18160    -10.1 1.485e+04 5.391e-09
 79.19282     -9.9 1.488e+04 5.444e-09
 79.20560    -10.0 1.547e+04 6.635e-09
 79.22402    -10.3 1.547e+04 6.354e-09
 79.23524    -10.6 1.568e+04 6.485e-09
 79.25049    -11.5 1.559e+04 5.552e-09
 79.26266    -13.3 1.510e+04 4.195e-09
 79.26740    -12.5 1.503e+04 3.538e-09
 79.27767    -13.1 1.534e+04 4.361e-09
 79.29538    -14.9 1.466e+04 3.283e-09
 79.30887    -16.1 1.389e+04 2.496e-09
 79.32009    -15.9 1.460e+04 3.641e-09
 79.34007    -16.2 1.392e+04 2.695e-09
 79.35129    -15.8 1.466e+04 3.935e-09
 79.36272    -16.2 1.396e+04 2.775e-09
 79.38259    -17.0 1.277e+04 1.468e-09
 79.39381    -16.0 1.378e+04 2.479e-09
 79.40761    -16.6 1.294e+04 1.645e-09
 79.44138    -17.3 1.230e+04 1.072e-09
 79.46753    -18.4 1.127e+04 6.000e-10
 79.48997    -18.3 1.147e+04 7.061e-10
 79.52993    -19.2 1.097e+04 5.276e-10
 79.55237    -19.3 1.100e+04 5.486e-10
 79.56541    -20.0 1.076e+04 4.814e-10
 79.58785    -19.4 1.112e+04 6.095e-10
 79.61477    -20.3 1.119e+04 6.570e-10
 79.63722    -20.9 1.116e+04 6.455e-10
 79.66594    -22.7 1.155e+04 7.516e-10
 79.69962    -25.1 1.212e+04 1.058e-09
 79.72206    -24.8 1.139e+04 7.026e-10
 79.75573    -26.4 1.125e+04 6.829e-10
 79.78446    -27.0 1.070e+04 5.160e-10
 79.80691    -27.3 1.057e+04 4.714e-10
 79.84551    -28.4 1.029e+04 3.365e-10
 79.86931    -29.6 1.021e+04 2.676e-10
 79.89175    -29.9 1.093e+04 5.070e-10
 79.93171    -30.6 1.083e+04 4.599e-10
 79.95415    -31.0 1.132e+04 7.415e-10
 79.98019    -31.7 1.120e+04 6.528e-10
 80.01655    -32.4 1.127e+04 6.737e-10
 80.03900    -33.2 1.143e+04 7.847e-10
 80.06998    -33.8 1.164e+04 8.807e-10
 80.10140    -34.4 1.211e+04 1.144e-09
 80.12384    -35.3 1.218e+04 1.166e-09
 80.14372    -35.8 1.269e+04 1.484e-09
 80.15485    -36.3 1.272e+04 1.495e-09
 80.17079    -37.5 1.338e+04 2.033e-09
 80.18604    -38.5 1.396e+04 2.781e-09
 80.19679    -39.2 1.392e+04 2.769e-09
 80.20398    -39.1 1.349e+04 2.193e-09
 80.21568    -40.6 1.412e+04 2.911e-09
 80.22847    -42.7 1.509e+04 3.961e-09
 80.23969    -44.4 1.513e+04 3.975e-09
 80.25967    -48.2 1.672e+04 5.967e-09
 80.27089    -49.3 1.600e+04 5.548e-09
 80.28302    -51.7 1.668e+04 7.551e-09
 80.30209    -52.6 1.606e+04 6.867e-09
 80.31331    -53.0 1.533e+04 5.132e-09
 80.32791    -53.3 1.439e+04 3.653e-09
 80.34451    -54.4 1.364e+04 2.096e-09
 80.35573    -55.4 1.299e+04 1.745e-09
 80.37281    -56.8 1.233e+04 8.621e-10
 80.38693    -58.1 1.178e+04 6.857e-10
 80.39816    -57.9 1.168e+04 6.623e-10
 80.41823    -59.2 1.110e+04 3.801e-10
 80.44078    -58.7 1.104e+04 3.743e-10
 80.47401    -59.6 1.060e+04 3.375e-10
 80.50317    -60.2 1.070e+04 3.736e-10
 80.52562    -60.5 1.087e+04 4.239e-10
 80.56380    -62.3 1.141e+04 5.810e-10
 80.58792    -63.3 1.163e+04 7.498e-10
 80.59905    -62.4 1.144e+04 7.112e-10
 80.61902    -62.6 1.134e+04 7.366e-10
 80.63025    -61.9 1.130e+04 6.394e-10
 80.64216    -62.1 1.124e+04 5.118e-10
 80.66145    -62.8 1.102e+04 4.259e-10
 80.67267    -62.7 1.098e+04 3.601e-10
 80.69838    -63.9 1.076e+04 2.453e-10
 80.73526    -64.8 1.053e+04 1.823e-10
 80.75771    -63.8 1.031e+04 1.589e-10
 80.78826    -64.2 1.020e+04 1.631e-10
 80.82011    -63.7 1.018e+04 1.924e-10
 80.82989    -62.6 1.004e+04 1.709e-10
 80.84294    -61.8 9.972e+03 1.326e-10
 80.87805    -60.9 9.816e+03 1.486e-10
 80.90495    -59.6 9.826e+03 1.386e-10
 80.92740    -58.5 9.769e+03 1.400e-10
 80.96735    -56.9 9.859e+03 1.130e-10
 80.98980    -55.6 9.782e+03 1.157e-10
 81.01273    -54.7 9.946e+03 8.847e-11
 81.05220    -54.2 9.991e+03 8.460e-11
 81.07464    -52.7 9.976e+03 8.312e-11
 81.10251    -52.7 1.001e+04 1.038e-10
 81.13704    -52.1 9.787e+03 1.759e-10
 81.15949    -50.6 9.868e+03 1.656e-10
 81.19230    -49.2 9.711e+03 2.304e-10
 81.22189    -47.9 9.776e+03 2.390e-10
 81.24433    -46.7 9.808e+03 2.423e-10
 81.28208    -46.0 9.859e+03 2.369e-10
 81.30673    -45.9 9.916e+03 2.314e-10
 81.32918    -44.8 9.926e+03 2.775e-10
 81.36913    -45.3 1.012e+04 3.027e-10
 81.39158    -44.6 1.027e+04 3.709e-10
 81.41676    -45.0 1.037e+04 4.521e-10
 81.44803    -44.5 1.018e+04 4.810e-10
 81.46280    -43.2 1.007e+04 4.379e-10
 81.47642    -42.7 1.009e+04 4.329e-10
 81.50655    -41.8 9.881e+03 3.908e-10
 81.53882    -41.1 9.795e+03 3.239e-10
 81.56127    -41.3 9.738e+03 3.104e-10
 81.59633    -40.9 9.852e+03 3.207e-10
 81.62366    -41.2 1.012e+04 4.190e-10
 81.64611    -41.5 1.004e+04 4.210e-10
 81.68606    -40.7 1.029e+04 6.300e-10
 81.73096    -38.8 9.695e+03 4.060e-10
 81.77091    -37.4 9.457e+03 3.136e-10
 81.79335    -37.5 8.990e+03 1.842e-10
 81.82080    -36.8 8.870e+03 1.423e-10
 81.85575    -36.1 8.783e+03 1.209e-10
 81.87820    -35.9 8.688e+03 1.099e-10
 81.91058    -34.8 8.718e+03 1.072e-10
 81.94060    -33.8 8.797e+03 1.126e-10
 81.96304    -33.4 8.833e+03 1.359e-10
 82.00037    -32.3 9.005e+03 1.658e-10
 82.02544    -31.7 9.321e+03 2.305e-10
 82.04789    -31.0 9.468e+03 2.941e-10
 82.07557    -30.6 9.955e+03 4.645e-10
 82.09571    -29.8 1.024e+04 5.246e-10
 82.11029    -29.4 1.036e+04 5.942e-10
 82.13505    -28.9 1.101e+04 9.665e-10
 82.17269    -28.4 1.127e+04 1.176e-09
 82.19513    -28.3 1.160e+04 1.376e-09
 82.22483    -27.5 1.142e+04 1.288e-09
 82.25753    -26.2 1.080e+04 9.661e-10
 82.27998    -25.9 1.097e+04 1.049e-09
 82.31462    -24.5 1.007e+04 6.174e-10
 82.34238    -23.3 9.279e+03 3.536e-10
 82.36482    -23.0 9.134e+03 3.105e-10
 82.40440    -21.6 8.551e+03 1.893e-10
 82.42722    -19.9 8.226e+03 1.404e-10
 82.44967    -19.4 8.185e+03 1.314e-10
 82.48962    -17.2 7.974e+03 1.068e-10
 82.51207    -16.4 7.982e+03 1.059e-10
 82.53908    -14.0 7.818e+03 8.857e-11
 82.57446    -11.9 7.690e+03 7.686e-11
 82.59691    -11.3 7.759e+03 7.740e-11
 82.62887     -9.4 7.672e+03 7.470e-11
 82.65931     -7.7 7.684e+03 7.596e-11
 82.68176     -7.7 7.961e+03 9.672e-11
 82.70311     -6.3 8.006e+03 1.043e-10
 82.72556     -6.8 8.085e+03 1.208e-10
 82.74415     -5.3 8.202e+03 1.437e-10
 82.76660     -5.3 8.999e+03 2.578e-10
 82.80655     -3.7 8.849e+03 2.404e-10
 82.82900     -3.7 9.465e+03 3.776e-10
 82.85333     -2.4 9.043e+03 2.666e-10
 82.89140     -1.6 8.655e+03 2.002e-10
 82.91384     -2.7 9.032e+03 2.320e-10
 82.94312     -2.6 8.898e+03 2.152e-10
 82.97624     -1.9 8.920e+03 2.242e-10
 82.99869     -3.8 9.613e+03 3.965e-10
 83.01679     -2.5 9.427e+03 3.490e-10
 83.02490     -2.9 9.413e+03 3.622e-10
 83.02969     -3.9 9.718e+03 4.623e-10
 83.04393     -3.9 9.812e+03 5.198e-10
 83.06089     -3.8 1.001e+04 6.088e-10
 83.07212     -5.8 1.051e+04 8.098e-10
 83.08882     -7.0 1.127e+04 1.080e-09
 83.10331    -10.4 1.321e+04 1.899e-09
 83.11454    -14.2 1.430e+04 2.860e-09
 83.13371    -20.1 1.672e+04 5.980e-09
 83.14569    -24.0 1.817e+04 9.344e-09
 83.15125    -25.6 1.818e+04 9.722e-09
 83.16124    -27.6 1.896e+04 1.356e-08
 83.16685    -28.8 1.851e+04 1.323e-08
 83.17290    -30.6 1.849e+04 1.321e-08
 83.17909    -32.2 1.812e+04 1.171e-08
 83.18303    -33.0 1.784e+04 1.116e-08
 83.18806    -35.5 1.803e+04 1.071e-08
 83.19534    -43.5 2.149e+04 1.080e-08
 83.20366    -50.3 2.453e+04 9.168e-09
 83.20927    -52.8 2.384e+04 1.018e-08
 83.21931    -66.9 2.617e+04 1.119e-08
 83.23058    -71.1 2.435e+04 1.246e-08
 83.24595    -83.9 1.794e+04 9.564e-09
 83.26178    -88.7 1.695e+04 6.164e-09
 83.27300    -93.1 1.612e+04 4.479e-09
 83.29084   -100.9 1.275e+04 1.767e-09
 83.30420   -105.3 1.130e+04 9.629e-10
 83.31543   -106.4 1.155e+04 1.071e-09
 83.33046   -108.9 1.091e+04 7.210e-10
 83.34136   -106.6 1.119e+04 8.913e-10
 83.34663   -107.8 1.135e+04 9.472e-10
 83.35818   -109.9 1.057e+04 6.749e-10
 83.37783   -111.1 1.005e+04 5.208e-10
 83.38905   -111.9 1.016e+04 5.721e-10
 83.40307   -112.4 9.851e+03 4.602e-10
 83.42025   -112.9 9.584e+03 3.720e-10
 83.43147   -113.4 9.724e+03 3.936e-10
 83.44796   -113.8 9.486e+03 3.234e-10
 83.46277   -113.8 9.225e+03 2.814e-10
 83.48531   -114.4 9.549e+03 2.978e-10
 83.52526   -114.6 9.354e+03 2.739e-10
 83.54771   -115.4 1.002e+04 3.216e-10
 83.56029   -120.5 1.101e+04 3.006e-10
 83.57871   -126.2 1.303e+04 5.866e-10
 83.58994   -129.1 1.482e+04 1.154e-09
 83.60509   -134.0 1.672e+04 3.676e-09
 83.62114   -137.2 1.785e+04 7.971e-09
 83.63236   -138.5 1.854e+04 1.117e-08
 83.64423   -143.0 1.874e+04 1.179e-08
 83.65546   -142.2 1.911e+04 1.322e-08
 83.66356   -147.2 1.817e+04 9.934e-09
 83.67478   -149.6 1.757e+04 7.661e-09
 83.69476   -156.6 1.450e+04 2.729e-09
 83.70598   -160.0 1.298e+04 1.594e-09
 83.71732   -165.7 1.107e+04 7.946e-10
 83.73718   -168.5 1.037e+04 6.310e-10
 83.74840   -168.9 1.013e+04 5.524e-10
 83.76221   -169.8 9.935e+03 5.248e-10
 83.77960   -170.3 9.796e+03 5.098e-10
 83.79083   -169.7 9.658e+03 4.533e-10
 83.80711   -169.6 9.584e+03 4.380e-10
 83.84087   -169.3 9.557e+03 4.190e-10
 83.86464   -169.5 9.547e+03 4.054e-10
 83.88709   -168.8 9.399e+03 3.412e-10
 83.92704   -168.8 9.339e+03 3.149e-10
 83.94949   -167.8 9.159e+03 2.701e-10
 83.95820   -167.5 9.115e+03 2.542e-10
 83.98064   -166.9 9.209e+03 2.752e-10
 84.01189   -166.4 9.148e+03 2.544e-10
 84.03433   -165.3 9.054e+03 2.319e-10
 84.06544   -164.7 8.995e+03 2.129e-10
 84.09673   -164.0 8.954e+03 2.041e-10
 84.11918   -163.0 8.948e+03 1.973e-10
 84.15522   -162.4 8.939e+03 1.958e-10
 84.18158   -161.8 9.004e+03 2.109e-10
 84.20402   -160.9 9.000e+03 2.087e-10
 84.24398   -160.2 9.127e+03 2.543e-10
 84.26642   -159.5 9.159e+03 2.602e-10
 84.28990   -158.5 9.253e+03 3.066e-10
 84.32882   -157.3 9.284e+03 3.301e-10
 84.35127   -156.7 9.352e+03 3.509e-10
 84.37968   -155.3 9.302e+03 3.488e-10
 84.41367   -153.9 9.204e+03 3.323e-10
 84.43611   -153.5 9.278e+03 3.579e-10
 84.46947   -152.1 9.186e+03 3.449e-10
 84.49851   -150.7 9.099e+03 3.383e-10
 84.52096   -150.3 9.224e+03 3.753e-10
 84.55926   -148.7 9.125e+03 3.643e-10
 84.58336   -147.1 9.007e+03 3.449e-10
 84.58739   -146.9 9.014e+03 3.478e-10
 84.60819   -146.1 8.793e+03 2.945e-10
 84.64575   -144.5 8.738e+03 2.948e-10
 84.66820   -144.1 8.677e+03 2.845e-10
 84.69393   -142.3 8.565e+03 2.699e-10
 84.73060   -140.5 8.469e+03 2.560e-10
 84.75305   -140.2 8.364e+03 2.300e-10
 84.78372   -138.4 8.303e+03 2.218e-10
 84.81544   -136.7 8.248e+03 2.125e-10
 84.83789   -136.4 8.189e+03 1.968e-10
 84.87351   -134.9 8.157e+03 1.900e-10
 84.90029   -133.5 8.122e+03 1.818e-10
 84.92274   -133.3 8.069e+03 1.696e-10
 84.96269   -132.2 8.031e+03 1.627e-10
 84.98513   -132.1 7.972e+03 1.518e-10
 85.00818   -131.1 7.936e+03 1.470e-10
 85.04753   -130.2 7.919e+03 1.446e-10
 85.06998   -130.2 7.863e+03 1.358e-10
 85.09797   -129.3 7.851e+03 1.339e-10
 85.13238   -128.6 7.855e+03 1.351e-10
 85.15482   -128.5 7.795e+03 1.249e-10
 85.18776   -128.0 7.855e+03 1.359e-10
 85.21328   -127.9 8.117e+03 1.829e-10
 85.22030   -127.0 8.087e+03 1.758e-10
 85.23967   -126.9 7.968e+03 1.524e-10
 85.27754   -126.7 8.230e+03 2.090e-10
 85.30207   -126.5 8.541e+03 2.900e-10
 85.32451   -126.0 8.260e+03 2.303e-10
 85.36447   -125.6 8.474e+03 2.883e-10
 85.38691   -124.9 8.200e+03 2.294e-10
 85.41222   -124.6 8.319e+03 2.571e-10
 85.44931   -124.5 8.427e+03 2.714e-10
 85.47176   -123.6 8.158e+03 2.174e-10
 85.50200   -123.2 8.179e+03 2.195e-10
 85.53416   -122.8 8.223e+03 2.253e-10
 85.55660   -121.5 7.878e+03 1.680e-10
 85.59179   -120.8 7.917e+03 1.745e-10
 85.61900   -119.9 8.023e+03 1.967e-10
 85.64145   -118.6 7.723e+03 1.430e-10
 85.68140   -117.8 7.979e+03 1.824e-10
 85.72629   -116.0 8.322e+03 2.264e-10
 85.76624   -115.1 8.817e+03 3.351e-10
 85.78869   -114.2 8.936e+03 3.621e-10
 85.81625   -113.4 9.444e+03 5.080e-10
 85.84082   -112.8 9.751e+03 5.983e-10
 85.85321   -113.6 9.952e+03 6.817e-10
 85.87354   -112.8 1.001e+04 7.071e-10
 85.90604   -112.8 1.028e+04 7.980e-10
 85.93593   -113.0 1.064e+04 9.785e-10
 85.95838   -111.7 1.039e+04 8.719e-10
 85.97826   -111.4 1.061e+04 1.007e-09
 85.98939   -110.7 1.046e+04 9.332e-10
 86.00685   -110.5 1.047e+04 9.563e-10
 86.02058   -109.9 1.038e+04 9.619e-10
 86.03181   -109.0 1.019e+04 8.683e-10
 86.05175   -108.2 9.949e+03 7.723e-10
 86.07419   -106.2 9.549e+03 5.672e-10
 86.09421   -105.3 9.403e+03 4.594e-10
 86.10543   -104.3 9.288e+03 4.110e-10
 86.11909   -103.8 9.231e+03 3.391e-10
 86.13663   -103.7 9.299e+03 3.089e-10
 86.14785   -102.8 9.306e+03 2.941e-10
 86.15440   -103.0 9.468e+03 2.789e-10
 86.16562   -106.0 1.065e+04 3.815e-10
 86.17905   -108.0 1.141e+04 6.403e-10
 86.19027   -107.1 1.136e+04 6.228e-10
 86.20887   -107.8 1.151e+04 1.092e-09
 86.22147   -107.3 1.173e+04 1.719e-09
 86.23270   -106.3 1.153e+04 1.637e-09
 86.25267   -104.7 1.173e+04 2.093e-09
 86.26390   -103.7 1.152e+04 1.974e-09
 86.27621   -102.2 1.167e+04 2.119e-09
 86.29510   -101.0 1.168e+04 1.979e-09
 86.30632    -99.9 1.144e+04 1.843e-09
 86.32110    -98.9 1.132e+04 1.412e-09
 86.33752    -98.5 1.121e+04 9.132e-10
 86.34874    -97.4 1.118e+04 9.194e-10
 86.36600    -97.9 1.082e+04 5.659e-10
 86.37994    -98.7 1.019e+04 3.637e-10
 86.39116    -97.6 1.019e+04 3.708e-10
 86.41089    -98.1 9.907e+03 2.924e-10
 86.42236    -98.2 9.935e+03 2.736e-10
 86.43359    -97.2 9.844e+03 2.849e-10
 86.45356    -97.3 9.963e+03 2.833e-10
 86.46479    -96.4 9.869e+03 2.942e-10
 86.46817    -96.6 1.011e+04 3.279e-10
 86.48602    -98.1 9.898e+03 3.622e-10
 86.50740    -96.3 9.931e+03 3.803e-10
 86.53454    -96.0 1.020e+04 4.998e-10
 86.56811    -95.3 1.061e+04 6.368e-10
 86.58083    -95.2 1.070e+04 6.487e-10
 86.59205    -94.7 1.076e+04 6.969e-10
 86.61203    -94.8 1.089e+04 6.575e-10
 86.62325    -94.3 1.085e+04 7.029e-10
 86.63535    -94.5 1.088e+04 5.943e-10
 86.65445    -94.9 1.083e+04 4.832e-10
 86.66567    -94.3 1.079e+04 5.265e-10
 86.68025    -94.9 1.075e+04 4.336e-10
 86.69687    -95.7 1.068e+04 3.770e-10
 86.70810    -95.1 1.075e+04 4.037e-10
 86.72514    -96.2 1.072e+04 3.720e-10
 86.73930    -97.4 1.072e+04 3.687e-10
 86.75052    -97.2 1.085e+04 4.024e-10
 86.77003    -98.6 1.106e+04 4.239e-10
 86.78172   -100.2 1.151e+04 5.781e-10
 86.78240   -100.1 1.156e+04 6.006e-10
 86.79316    -99.5 1.169e+04 6.687e-10
 86.81292   -100.8 1.207e+04 9.253e-10
 86.82414   -100.5 1.201e+04 9.006e-10
 86.83737   -101.7 1.240e+04 1.192e-09
 86.85534   -102.6 1.275e+04 1.562e-09
 86.86656   -102.2 1.260e+04 1.334e-09
 86.88226   -102.8 1.282e+04 1.582e-09
 86.89776   -103.3 1.289e+04 1.709e-09
 86.90899   -103.1 1.262e+04 1.374e-09
 86.92716   -103.5 1.255e+04 1.380e-09
 86.94019   -103.6 1.233e+04 1.256e-09
 86.95141   -103.2 1.211e+04 1.041e-09
 86.97138   -103.2 1.200e+04 8.795e-10
 86.98261   -102.9 1.184e+04 7.861e-10
 86.99449   -102.9 1.185e+04 6.756e-10
 87.01381   -102.9 1.186e+04 6.082e-10
 87.02503   -102.5 1.181e+04 5.851e-10
 87.03939   -102.5 1.185e+04 5.580e-10
 87.05623   -102.4 1.186e+04 5.556e-10
 87.06745   -101.9 1.187e+04 5.503e-10
 87.08428   -101.9 1.197e+04 5.670e-10
 87.09571   -101.5 1.202e+04 6.398e-10
 87.11825   -100.4 1.174e+04 5.717e-10
 87.14127    -99.5 1.181e+04 6.977e-10
 87.16372    -98.8 1.181e+04 6.213e-10
 87.20367    -97.7 1.184e+04 6.878e-10
 87.22612    -96.7 1.172e+04 5.741e-10
 87.25282    -95.6 1.166e+04 5.815e-10
 87.28851    -94.2 1.140e+04 5.028e-10
 87.31096    -92.9 1.128e+04 4.027e-10
 87.34261    -91.2 1.112e+04 3.125e-10
 87.37336    -89.6 1.102e+04 2.269e-10
 87.39580    -88.0 1.095e+04 2.017e-10
 87.43239    -86.5 1.092e+04 1.566e-10
 87.45820    -85.0 1.090e+04 1.290e-10
 87.48065    -83.3 1.088e+04 1.213e-10
 87.52060    -81.9 1.092e+04 1.077e-10
 87.54305    -80.2 1.090e+04 1.050e-10
 87.56707    -78.9 1.097e+04 1.022e-10
 87.60545    -77.8 1.105e+04 1.032e-10
 87.62789    -76.1 1.102e+04 1.096e-10
 87.65686    -75.0 1.107e+04 1.189e-10
 87.69029    -74.0 1.111e+04 1.272e-10
 87.71199    -72.2 1.106e+04 1.287e-10
 87.72345    -72.5 1.109e+04 1.046e-10
 87.74664    -71.5 1.103e+04 1.013e-10
 87.77514    -70.7 1.098e+04 9.921e-11
 87.79758    -68.9 1.096e+04 9.135e-11
 87.83643    -68.2 1.097e+04 9.017e-11
 87.85998    -67.7 1.109e+04 1.034e-10
 87.88243    -66.1 1.115e+04 9.553e-11
 87.92238    -65.8 1.120e+04 1.362e-10
 87.94483    -64.3 1.121e+04 1.351e-10
 87.97111    -63.5 1.126e+04 2.035e-10
 88.00723    -62.5 1.139e+04 2.824e-10
 88.02967    -60.9 1.133e+04 2.734e-10
 88.06089    -59.8 1.141e+04 3.169e-10
 88.09207    -58.9 1.148e+04 3.443e-10
 88.11452    -57.1 1.139e+04 2.784e-10
 88.15068    -56.3 1.145e+04 3.059e-10
 88.17692    -55.3 1.150e+04 3.545e-10
 88.19936    -53.6 1.139e+04 2.768e-10
 88.23931    -52.3 1.144e+04 3.347e-10
 88.26176    -50.6 1.133e+04 2.741e-10
 88.28536    -49.1 1.144e+04 3.351e-10
 88.32416    -47.5 1.154e+04 3.587e-10
 88.34490    -45.9 1.153e+04 3.839e-10
 88.35099    -45.3 1.149e+04 2.584e-10
 88.37514    -44.1 1.166e+04 2.834e-10
 88.40900    -43.6 1.175e+04 3.195e-10
 88.43145    -42.0 1.189e+04 4.278e-10
 88.46493    -41.4 1.183e+04 5.849e-10
 88.49385    -40.3 1.191e+04 7.625e-10
 88.51630    -38.4 1.212e+04 8.231e-10
 88.55471    -37.8 1.214e+04 8.131e-10
 88.57869    -37.5 1.201e+04 7.435e-10
 88.60114    -36.0 1.206e+04 6.544e-10
 88.64109    -36.6 1.181e+04 5.995e-10
 88.66354    -35.0 1.201e+04 5.986e-10
 88.68939    -35.3 1.159e+04 5.834e-10
 88.72594    -35.2 1.112e+04 5.072e-10
 88.74838    -33.5 1.124e+04 4.783e-10
 88.77918    -33.5 1.080e+04 3.251e-10
 88.81078    -33.2 1.054e+04 2.379e-10
 88.83323    -32.1 1.067e+04 2.139e-10
 88.86896    -31.6 1.041e+04 1.788e-10
 88.89563    -30.7 1.033e+04 1.452e-10
 88.91807    -29.5 1.036e+04 1.590e-10
 88.95608    -28.6 1.040e+04 1.290e-10
 88.97781    -28.5 9.959e+03 1.056e-10
 88.98047    -27.4 1.018e+04 1.217e-10
 89.00364    -27.1 1.013e+04 1.130e-10
 89.04287    -26.5 1.008e+04 1.261e-10
 89.06532    -25.3 1.017e+04 1.569e-10
 89.09343    -24.1 1.009e+04 1.824e-10
 89.12772    -22.6 1.011e+04 1.932e-10
 89.15016    -21.4 1.032e+04 1.849e-10
 89.18321    -21.1 1.073e+04 1.610e-10
 89.21256    -22.8 1.116e+04 2.326e-10
 89.23501    -23.4 1.110e+04 2.777e-10
 89.27300    -24.4 1.141e+04 7.105e-10
 89.29741    -23.6 1.260e+04 1.461e-09
 89.31985    -23.1 1.249e+04 1.086e-09
 89.35146    -27.9 1.422e+04 9.753e-10
 89.37083    -32.2 1.467e+04 1.556e-09
 89.38206    -34.5 1.469e+04 1.626e-09
 89.39626    -37.0 1.424e+04 2.848e-09
 89.41325    -37.5 1.445e+04 4.547e-09
 89.42448    -37.5 1.426e+04 4.325e-09
 89.44115    -37.1 1.448e+04 4.585e-09
 89.45568    -37.4 1.468e+04 3.457e-09
 89.46690    -39.1 1.476e+04 2.266e-09
 89.48604    -44.5 1.450e+04 1.600e-09
 89.49810    -49.3 1.411e+04 1.510e-09
 89.50932    -51.6 1.384e+04 1.476e-09
 89.52930    -53.4 1.376e+04 2.174e-09
 89.54052    -54.3 1.390e+04 2.496e-09
 89.55338    -54.6 1.413e+04 3.097e-09
 89.57172    -54.8 1.430e+04 3.293e-09
 89.58294    -55.5 1.427e+04 3.109e-09
 89.59465    -56.1 1.420e+04 2.690e-09
 89.60588    -55.3 1.428e+04 2.880e-09
 89.61414    -56.7 1.409e+04 2.358e-09
 89.62537    -58.2 1.376e+04 2.029e-09
 89.64317    -59.8 1.325e+04 1.752e-09
 89.65657    -60.8 1.280e+04 1.532e-09
 89.66779    -61.1 1.264e+04 1.410e-09
 89.68777    -61.5 1.238e+04 1.143e-09
 89.69899    -61.9 1.244e+04 9.939e-10
 89.71051    -63.0 1.226e+04 7.329e-10
 89.73019    -64.6 1.213e+04 5.496e-10
 89.74141    -65.9 1.226e+04 5.161e-10
 89.75540    -67.5 1.209e+04 4.793e-10
 89.77261    -68.9 1.205e+04 4.827e-10
 89.78383    -69.4 1.210e+04 5.304e-10
 89.80029    -70.3 1.205e+04 6.171e-10
 89.81503    -71.0 1.203e+04 6.969e-10
 89.82626    -70.9 1.188e+04 6.643e-10
 89.84519    -71.5 1.175e+04 6.658e-10
 89.85746    -72.0 1.155e+04 6.406e-10
 89.86868    -71.5 1.140e+04 5.488e-10
 89.88865    -72.0 1.117e+04 4.861e-10
 89.89988    -71.5 1.101e+04 4.012e-10
 89.90842    -71.7 1.085e+04 3.743e-10
 89.91965    -71.2 1.090e+04 3.557e-10
 89.93117    -72.2 1.068e+04 3.538e-10
 89.95372    -71.2 1.036e+04 2.348e-10
 89.99128    -71.0 9.999e+03 1.920e-10
 90.01612    -70.4 9.747e+03 1.675e-10
 90.03856    -69.3 9.734e+03 1.302e-10
 90.07852    -68.6 9.620e+03 1.251e-10
 90.10096    -67.5 9.663e+03 1.084e-10
 90.12596    -66.7 9.574e+03 1.124e-10
 90.16336    -65.9 9.522e+03 1.272e-10
 90.18581    -64.7 9.557e+03 1.172e-10
 90.21117    -63.7 9.506e+03 1.288e-10
 90.23361    -62.5 9.509e+03 1.351e-10
 90.24821    -61.3 9.470e+03 1.371e-10
 90.27065    -60.1 9.460e+03 1.173e-10
 90.30553    -58.8 9.355e+03 1.099e-10
 90.33305    -57.4 9.312e+03 9.862e-11
 90.35550    -56.5 9.352e+03 8.719e-11
 90.39532    -55.1 9.291e+03 8.335e-11
 90.44021    -52.7 9.291e+03 8.058e-11
 90.48029    -51.2 9.311e+03 8.297e-11
 90.50274    -50.3 9.349e+03 8.633e-11
 90.53000    -48.6 9.335e+03 9.407e-11
 90.56514    -46.9 9.347e+03 1.028e-10
 90.58759    -45.6 9.359e+03 9.777e-11
 90.61978    -43.8 9.397e+03 9.746e-11
 90.64998    -42.2 9.507e+03 9.812e-11
 90.67243    -41.2 9.547e+03 8.047e-11
 90.70957    -40.4 9.864e+03 9.479e-11
 90.73483    -39.6 9.873e+03 1.556e-10
 90.75728    -38.8 9.859e+03 1.481e-10
 90.79723    -37.2 1.001e+04 2.430e-10
 90.81967    -35.9 9.952e+03 2.041e-10
 90.83871    -34.1 1.015e+04 2.429e-10
 90.86115    -33.1 1.021e+04 2.457e-10
 90.88207    -31.8 1.028e+04 2.536e-10
 90.90452    -30.7 1.015e+04 1.752e-10
 90.93403    -29.7 1.021e+04 1.522e-10
 90.96692    -28.8 1.019e+04 1.334e-10
 90.98936    -28.0 1.015e+04 1.107e-10
 91.02382    -27.0 1.009e+04 1.113e-10
 91.05176    -25.6 1.003e+04 1.076e-10
 91.07421    -24.5 9.993e+03 1.094e-10
 91.11360    -22.9 9.902e+03 9.472e-11
 91.13661    -21.4 9.891e+03 7.507e-11
 91.15905    -19.9 9.872e+03 6.642e-11
 91.19901    -18.8 9.894e+03 5.358e-11
 91.22145    -17.6 9.925e+03 4.611e-11
 91.24828    -16.5 9.887e+03 4.350e-11
 91.28385    -15.2 9.861e+03 4.348e-11
 91.30630    -14.0 9.818e+03 4.290e-11
 91.33807    -12.6 9.821e+03 4.409e-11
 91.36870    -11.1 9.833e+03 4.448e-11
 91.39114     -9.9 9.878e+03 4.558e-11
 91.42785     -8.5 9.870e+03 4.605e-11
 91.45354     -7.1 9.964e+03 4.687e-11
 91.46949     -5.8 9.949e+03 4.721e-11
 91.48870     -5.1 9.970e+03 4.831e-11
 91.51594     -3.8 1.013e+04 4.961e-11
 91.53839     -2.6 1.007e+04 5.077e-11
 91.56253     -2.1 1.039e+04 6.121e-11
 91.60078     -3.1 1.090e+04 1.286e-10
 91.62323     -3.0 1.087e+04 1.698e-10
 91.65232     -3.8 1.144e+04 5.142e-10
 91.68563     -3.0 1.216e+04 1.213e-09
 91.70808     -1.4 1.202e+04 1.272e-09
 91.74210     -0.9 1.214e+04 9.024e-10
 91.77047     -1.5 1.178e+04 4.413e-10
 91.79292     -2.4 1.176e+04 2.279e-10
 91.83189     -5.3 1.109e+04 1.633e-10
 91.85532     -6.6 1.117e+04 1.992e-10
 91.87777     -6.8 1.088e+04 2.071e-10
 91.91772     -7.1 1.119e+04 3.474e-10
 91.94016     -6.9 1.112e+04 3.714e-10
 91.95525     -7.8 1.115e+04 4.830e-10
 91.97117     -8.1 1.116e+04 5.507e-10
 91.98239     -8.0 1.106e+04 5.250e-10
 92.00004     -8.3 1.092e+04 5.421e-10
 92.01359     -8.4 1.070e+04 5.034e-10
 92.02481     -8.4 1.067e+04 4.831e-10
 92.04479     -9.3 1.059e+04 4.092e-10
 92.05601     -9.3 1.059e+04 4.000e-10
 92.06738    -10.2 1.062e+04 3.857e-10
 92.08721    -11.7 1.050e+04 3.781e-10
 92.09844    -11.7 1.037e+04 4.066e-10
 92.10482    -12.5 1.033e+04 4.766e-10
 92.11604    -12.9 1.037e+04 5.018e-10
 92.12964    -13.3 1.026e+04 5.463e-10
 92.14086    -13.0 1.022e+04 5.166e-10
 92.15717    -13.1 1.015e+04 5.264e-10
 92.17206    -13.1 1.001e+04 4.943e-10
 92.18328    -12.8 9.955e+03 4.847e-10
 92.20206    -13.3 9.871e+03 4.004e-10
 92.23455    -15.2 9.599e+03 3.078e-10
 92.25700    -15.1 9.690e+03 3.110e-10
 92.28072    -16.1 9.472e+03 3.013e-10
 92.31950    -16.7 9.105e+03 2.886e-10
 92.34194    -16.0 9.156e+03 3.534e-10
 92.37060    -15.6 8.644e+03 3.014e-10
 92.40434    -14.6 8.251e+03 2.328e-10
 92.42679    -13.6 8.209e+03 2.346e-10
 92.46039    -12.6 7.811e+03 1.542e-10
 92.48919    -11.7 7.467e+03 9.432e-11
 92.51163    -10.9 7.476e+03 1.027e-10
 92.55017     -9.9 7.171e+03 6.969e-11
 92.57403     -8.8 6.956e+03 5.658e-11
 92.59648     -7.6 6.885e+03 5.932e-11
 92.63643     -6.4 6.783e+03 5.340e-11
 92.65888     -5.4 6.708e+03 4.996e-11
 92.68485     -4.1 6.660e+03 4.753e-11
 92.72127     -2.6 6.718e+03 4.933e-11
 92.74372     -2.2 6.662e+03 4.883e-11
 92.77464     -0.7 6.752e+03 5.857e-11
 92.80612      0.8 6.866e+03 7.566e-11
 92.82857      1.7 6.756e+03 6.329e-11
 92.86442      2.9 6.953e+03 8.342e-11
 92.89096      3.6 7.300e+03 1.299e-10
 92.91341      3.4 7.461e+03 1.214e-10
 92.95336      3.5 8.219e+03 2.516e-10
 92.97581      2.8 8.478e+03 3.043e-10
 92.98778      4.1 8.621e+03 4.217e-10
 93.00681      4.2 8.793e+03 4.672e-10
 93.01804      4.1 8.923e+03 4.992e-10
 93.03258      4.5 9.290e+03 6.442e-10
 93.04613      4.9 9.621e+03 7.252e-10
 93.05157      4.3 1.027e+04 1.022e-09
 93.06046      4.1 1.031e+04 1.065e-09
 93.07747      4.0 1.026e+04 1.082e-09
 93.09166      4.0 1.015e+04 1.040e-09
 93.10288      4.2 9.961e+03 9.675e-10
 93.12296      4.0 9.980e+03 9.280e-10
 93.14550      4.4 9.635e+03 7.292e-10
 93.17867      4.0 9.526e+03 6.868e-10
 93.20790      4.1 9.386e+03 6.276e-10
 93.23034      4.3 8.848e+03 4.528e-10
 93.26846      5.1 8.622e+03 3.506e-10
 93.29274      5.3 8.314e+03 2.391e-10
 93.31519      5.1 7.829e+03 1.665e-10
 93.34887      5.1 7.721e+03 1.541e-10
 93.36822      3.5 7.721e+03 1.568e-10
 93.37759      3.7 7.518e+03 1.349e-10
 93.40314      4.7 7.589e+03 1.480e-10
 93.43999      5.8 7.649e+03 1.554e-10
 93.46243      6.2 7.686e+03 1.522e-10
 93.49292      6.7 7.766e+03 1.488e-10
 93.52483      6.6 7.899e+03 1.462e-10
 93.54728      5.4 8.303e+03 2.164e-10
 93.58271      5.7 8.189e+03 2.341e-10
 93.60968      6.6 8.233e+03 1.825e-10
 93.63212      7.5 8.618e+03 2.661e-10
 93.67208      6.9 8.327e+03 1.580e-10
 93.69452      7.0 8.511e+03 1.815e-10
 93.71739      5.5 8.157e+03 1.332e-10
 93.75692      5.0 8.159e+03 1.462e-10
 93.77937      5.2 8.149e+03 1.620e-10
 93.80717      4.4 8.576e+03 2.476e-10
 93.84177      3.8 9.135e+03 3.668e-10
 93.86421      4.0 9.241e+03 4.628e-10
 93.89696      4.8 9.417e+03 5.853e-10
 93.92661      5.2 9.423e+03 4.272e-10
 93.94906      6.1 9.209e+03 4.511e-10
 93.97641      5.7 8.829e+03 2.583e-10
 93.99886      6.2 9.034e+03 3.007e-10
 94.01145      5.7 8.594e+03 1.556e-10
 94.03390      6.3 8.647e+03 1.805e-10
 94.07385      5.4 8.395e+03 1.124e-10
 94.09630      6.2 8.543e+03 1.561e-10
 94.12142      5.7 8.494e+03 1.320e-10
 94.15870      5.5 8.685e+03 1.456e-10
 94.18114      6.8 8.684e+03 1.884e-10
 94.21121      7.9 8.753e+03 1.799e-10
 94.24354      9.2 8.882e+03 1.641e-10
 94.26599     11.2 9.052e+03 1.013e-10
 94.30099     11.1 9.348e+03 6.835e-11
 94.32839     10.9 9.292e+03 8.196e-11
 94.35083     11.8 9.078e+03 5.743e-11
 94.39078     12.2 9.086e+03 9.378e-11
 94.43567     15.4 9.185e+03 1.618e-10
 94.47563     16.6 9.548e+03 2.384e-10
 94.49808     19.1 9.548e+03 2.457e-10
 94.52546     19.9 9.975e+03 3.095e-10
 94.56048     16.9 1.282e+04 6.917e-10
 94.58292     21.1 1.167e+04 5.532e-10
 94.60280     15.7 1.459e+04 1.215e-09
 94.61386     18.2 1.382e+04 9.589e-10
 94.62621     16.2 1.417e+04 1.773e-09
 94.64513     16.1 1.382e+04 3.071e-09
 94.65635     17.8 1.412e+04 2.371e-09
 94.67116     18.9 1.352e+04 3.268e-09
 94.68755     19.9 1.321e+04 2.719e-09
 94.69877     20.8 1.323e+04 2.984e-09
 94.71606     21.4 1.318e+04 2.032e-09
 94.73007     18.4 1.305e+04 4.775e-10
 94.75261     21.8 1.303e+04 9.250e-10
 94.79257     18.1 1.189e+04 3.062e-10
 94.81501     23.2 1.267e+04 6.256e-10
 94.83971     19.7 1.176e+04 3.730e-10
 94.87741     17.1 1.201e+04 4.930e-10
 94.89986     22.0 1.226e+04 5.497e-10
 94.92949     19.2 1.253e+04 9.588e-10
 94.96226     18.1 1.252e+04 1.428e-09
 94.98470     21.3 1.298e+04 1.504e-09
 95.01928     20.0 1.288e+04 1.601e-09
 95.04700     18.6 1.239e+04 1.288e-09
 95.05813     20.1 1.258e+04 1.493e-09
 95.07520     19.4 1.258e+04 1.290e-09
 95.08933     17.7 1.187e+04 9.581e-10
 95.10055     19.1 1.214e+04 1.094e-09
 95.12009     18.2 1.157e+04 8.741e-10
 95.13175     17.7 1.115e+04 6.943e-10
 95.14297     18.9 1.124e+04 7.414e-10
 95.16295     18.7 1.110e+04 5.567e-10
 95.17417     19.8 1.120e+04 5.846e-10
 95.18743     19.3 1.112e+04 4.077e-10
 95.20537     18.4 1.091e+04 2.923e-10
 95.21659     19.2 1.099e+04 3.072e-10
 95.23140     19.0 1.074e+04 2.720e-10
 95.25394     19.0 1.050e+04 2.017e-10
 95.27919     18.5 1.005e+04 1.531e-10
 95.30164     20.2 1.025e+04 1.908e-10
 95.33353     20.4 1.004e+04 1.611e-10
 95.36403     20.6 9.977e+03 1.519e-10
 95.38648     22.4 1.007e+04 1.702e-10
 95.42331     22.8 1.003e+04 1.617e-10
 95.44888     23.3 1.008e+04 1.623e-10
 95.47133     24.9 1.014e+04 1.663e-10
 95.51128     24.9 1.038e+04 1.821e-10
 95.53372     26.4 1.037e+04 1.867e-10
 95.55799     26.2 1.062e+04 2.780e-10
 95.59612     26.2 1.092e+04 4.230e-10
 95.61857     27.6 1.091e+04 4.520e-10
 95.64778     27.7 1.126e+04 6.079e-10
 95.68087     28.1 1.140e+04 6.708e-10
 95.69200     28.8 1.131e+04 6.770e-10
 95.70370     28.7 1.119e+04 6.587e-10
 95.72319     28.9 1.108e+04 5.761e-10
 95.73442     29.7 1.097e+04 5.632e-10
 95.74859     29.1 1.088e+04 4.650e-10
 95.76571     28.2 1.073e+04 3.917e-10
 95.78826     29.6 1.041e+04 3.646e-10
 95.82735     29.4 1.010e+04 2.776e-10
 95.85066     29.4 1.001e+04 2.285e-10
 95.85990     30.9 9.907e+03 2.385e-10
 95.88149     31.3 1.016e+04 2.797e-10
 95.91306     31.5 1.015e+04 2.427e-10
 95.93550     32.9 1.010e+04 2.689e-10
 95.96203     33.1 1.014e+04 2.362e-10
 95.99790     33.0 1.020e+04 2.133e-10
 96.02035     34.1 1.022e+04 2.533e-10
 96.05181     33.9 1.041e+04 2.527e-10
 96.08275     33.6 1.068e+04 2.725e-10
 96.10519     34.4 1.085e+04 3.555e-10
 96.14160     34.1 1.108e+04 3.842e-10
 96.16749     33.9 1.118e+04 3.918e-10
 96.17616     34.2 1.131e+04 4.667e-10
 96.18384     33.9 1.147e+04 5.273e-10
 96.19752     33.4 1.153e+04 5.395e-10
 96.20982     32.9 1.156e+04 5.409e-10
 96.22104     33.0 1.177e+04 6.410e-10
 96.24102     32.3 1.170e+04 5.821e-10
 96.25224     32.0 1.191e+04 6.694e-10
 96.26486     31.0 1.178e+04 6.264e-10
 96.28344     30.0 1.173e+04 6.184e-10
 96.29466     28.9 1.200e+04 7.380e-10
 96.30975     27.0 1.231e+04 8.281e-10
 96.32586     24.2 1.307e+04 1.278e-09
 96.33709     23.4 1.319e+04 1.538e-09
 96.35464     21.5 1.381e+04 2.299e-09
 96.36828     20.2 1.446e+04 3.297e-09
 96.37951     20.3 1.387e+04 2.629e-09
 96.39948     19.2 1.403e+04 2.731e-09
 96.42193     17.2 1.306e+04 1.524e-09
 96.44191     14.7 1.244e+04 1.167e-09
 96.45313     14.3 1.186e+04 9.087e-10
 96.46687     12.7 1.148e+04 8.611e-10
 96.48433     12.1 1.134e+04 8.538e-10
 96.49262     13.0 1.117e+04 7.734e-10
 96.50893     14.1 1.111e+04 7.618e-10
 96.54563     14.4 1.101e+04 7.908e-10
 96.56937     14.9 1.086e+04 7.935e-10
 96.59182     16.2 1.077e+04 7.406e-10
 96.63177     17.1 1.053e+04 7.010e-10
 96.65421     18.5 1.052e+04 6.844e-10
 96.66899     18.9 1.026e+04 6.290e-10
 96.68522     19.3 1.016e+04 5.976e-10
 96.69644     19.8 1.013e+04 5.916e-10
 96.71651     20.5 9.958e+03 5.340e-10
 96.73906     21.6 1.001e+04 5.506e-10
 96.77010     23.4 9.668e+03 4.675e-10
 96.80146     24.8 9.479e+03 4.121e-10
 96.82390     25.9 9.443e+03 4.047e-10
 96.85988     27.4 9.204e+03 3.443e-10
 96.88630     29.0 8.953e+03 2.871e-10
 96.90875     30.0 8.905e+03 2.802e-10
 96.94870     31.7 8.691e+03 2.375e-10
 96.97115     32.9 8.699e+03 2.429e-10
 96.99456     34.7 8.520e+03 2.104e-10
 97.03355     36.6 8.357e+03 1.799e-10
 97.05599     37.9 8.421e+03 1.959e-10
 97.08435     39.7 8.273e+03 1.672e-10
 97.11412     41.5 8.156e+03 1.450e-10
 97.12572     41.2 8.145e+03 1.313e-10
 97.14084     42.4 8.172e+03 1.407e-10
 97.17413     44.2 8.101e+03 1.317e-10
 97.20324     46.1 8.076e+03 1.294e-10
 97.22568     47.4 8.103e+03 1.408e-10
 97.26392     49.4 8.094e+03 1.403e-10
 97.28808     51.3 8.133e+03 1.403e-10
 97.31053     52.7 8.160e+03 1.502e-10
 97.35048     54.5 8.193e+03 1.454e-10
 97.37293     55.9 8.220e+03 1.542e-10
 97.39860     57.6 8.215e+03 1.493e-10
 97.43532     59.3 8.251e+03 1.530e-10
 97.45777     60.7 8.176e+03 1.515e-10
 97.48838     62.4 8.226e+03 1.537e-10
 97.52017     63.8 8.474e+03 1.748e-10
 97.54262     65.3 8.157e+03 1.366e-10
 97.57817     66.1 8.490e+03 1.631e-10
 97.60501     66.6 8.964e+03 2.677e-10
 97.62746     68.0 8.515e+03 1.845e-10
 97.66741     68.9 9.006e+03 3.346e-10
 97.68986     70.3 8.708e+03 2.655e-10
 97.71284     72.0 9.297e+03 4.304e-10
 97.74166     73.4 9.842e+03 5.349e-10
 97.75863     73.6 9.717e+03 4.845e-10
 97.77470     75.2 9.578e+03 4.558e-10
 97.80263     75.9 9.570e+03 3.781e-10
 97.83710     75.5 9.606e+03 3.328e-10
 97.85955     77.5 9.449e+03 3.264e-10
 97.89242     76.6 1.000e+04 4.269e-10
 97.92195     76.0 1.087e+04 8.906e-10
 97.94439     77.8 1.053e+04 7.358e-10
 97.98220     78.5 1.159e+04 1.363e-09
 98.00679     79.2 1.226e+04 1.741e-09
 98.02924     81.1 1.164e+04 1.339e-09
 98.06919     80.4 1.186e+04 1.374e-09
 98.09164     82.9 1.116e+04 9.799e-10
 98.11688     81.7 1.095e+04 8.582e-10
 98.15404     81.2 1.086e+04 8.907e-10
 98.17648     83.6 1.046e+04 7.402e-10
 98.20667     84.3 1.071e+04 8.572e-10
 98.23888     84.7 1.081e+04 8.007e-10
 98.26133     87.4 1.058e+04 7.891e-10
 98.29645     87.7 1.035e+04 6.021e-10
 98.32363     88.1 1.032e+04 4.554e-10
 98.34607     90.4 1.014e+04 4.391e-10
 98.36605     89.3 1.051e+04 3.921e-10
 98.37137     91.1 1.004e+04 3.763e-10
 98.38023     91.4 9.973e+03 3.864e-10
 98.39715     90.2 1.039e+04 3.976e-10
 98.40838     92.3 1.005e+04 3.889e-10
 98.41971     91.3 1.050e+04 4.181e-10
 98.43957     90.5 1.098e+04 6.319e-10
 98.45080     92.6 1.065e+04 4.810e-10
 98.46460     91.9 1.120e+04 7.343e-10
 98.48200     91.4 1.187e+04 1.143e-09
 98.49322     93.3 1.148e+04 8.752e-10
 98.50950     92.5 1.233e+04 1.388e-09
 98.52442     91.2 1.340e+04 2.093e-09
 98.53564     93.1 1.297e+04 1.765e-09
 98.55439     91.4 1.423e+04 2.703e-09
 98.56684     88.8 1.535e+04 3.635e-09
 98.57807     91.0 1.530e+04 3.654e-09
 98.59804     88.0 1.631e+04 4.538e-09
 98.60926     90.1 1.653e+04 5.149e-09
 98.62173     86.6 1.724e+04 5.680e-09
 98.64046     82.3 1.681e+04 4.424e-09
 98.65169     84.5 1.798e+04 6.495e-09
 98.66662     79.7 1.616e+04 3.574e-09
 98.68278     75.1 1.393e+04 1.922e-09
 98.68782     74.2 1.397e+04 1.782e-09
 98.69411     75.9 1.524e+04 2.582e-09
 98.71151     70.9 1.350e+04 1.422e-09
 98.72531     66.6 1.249e+04 1.087e-09
 98.73653     67.4 1.292e+04 1.226e-09
 98.75641     64.0 1.212e+04 1.062e-09
 98.76773     61.9 1.173e+04 9.637e-10
 98.77895     62.3 1.199e+04 1.062e-09
 98.79893     60.2 1.169e+04 9.451e-10
 98.81015     60.8 1.197e+04 1.071e-09
 98.82375     58.2 1.189e+04 9.660e-10
 98.84135     53.9 1.205e+04 9.488e-10
 98.85258     55.0 1.226e+04 1.060e-09
 98.86864     48.7 1.357e+04 1.259e-09
 98.88378     42.3 1.530e+04 2.506e-09
 98.89500     43.7 1.523e+04 2.414e-09
 98.91353     37.9 1.646e+04 4.297e-09
 98.92620     31.5 1.697e+04 5.271e-09
 98.93742     32.4 1.714e+04 5.340e-09
 98.95740     24.8 1.711e+04 5.391e-09
 98.96862     25.6 1.736e+04 5.576e-09
 98.98087     17.7 1.607e+04 4.280e-09
 98.99655     10.6 1.383e+04 2.640e-09
 99.00428     11.5 1.388e+04 2.616e-09
 99.01104     12.3 1.424e+04 2.893e-09
 99.02576      7.2 1.235e+04 1.858e-09
 99.04224      4.2 1.151e+04 1.320e-09
 99.05347      4.6 1.152e+04 1.321e-09
 99.07066      2.2 1.096e+04 9.166e-10
 99.08466     -0.6 1.030e+04 6.132e-10
 99.09589     -0.4 1.024e+04 5.852e-10
 99.11555     -3.1 9.517e+03 4.076e-10
 99.12719     -4.6 8.985e+03 3.249e-10
 99.14973     -3.7 8.985e+03 3.198e-10
 99.18968     -4.7 8.672e+03 2.818e-10
 99.21213     -3.9 8.692e+03 2.807e-10
 99.23920     -4.7 8.578e+03 2.681e-10
 99.27453     -5.1 8.562e+03 2.682e-10
 99.29697     -4.5 8.578e+03 2.667e-10
 99.32899     -4.8 8.706e+03 2.933e-10
 99.35937     -4.6 8.920e+03 3.397e-10
 99.38182     -3.9 8.964e+03 3.426e-10
 99.41877     -3.3 9.157e+03 3.903e-10
 99.44422     -2.5 9.330e+03 4.308e-10
 99.46666     -1.5 9.371e+03 4.338e-10
 99.50661     -0.4 9.512e+03 4.613e-10
 99.52906      1.0 9.644e+03 4.735e-10
 99.54213      1.7 9.637e+03 4.848e-10
 99.56007      1.9 9.633e+03 4.903e-10
 99.57129      2.4 9.656e+03 5.011e-10
 99.58692      3.0 9.641e+03 5.096e-10
 99.60249      3.5 9.648e+03 5.120e-10
 99.61371      4.1 9.673e+03 5.216e-10
 99.62409      4.7 9.741e+03 5.265e-10
 99.63532      5.8 9.505e+03 4.370e-10
 99.64491      6.2 9.515e+03 4.309e-10
 99.65613      6.7 9.563e+03 4.371e-10
 99.67621      7.3 9.595e+03 4.284e-10
 99.68743      8.0 9.665e+03 4.409e-10
 99.69916      8.4 9.793e+03 4.437e-10
 99.73292      9.4 1.025e+04 4.874e-10
 99.76115     10.1 1.088e+04 6.047e-10
 99.77228     10.6 1.112e+04 6.310e-10
 99.78894     10.9 1.141e+04 6.960e-10
 99.82271     11.8 1.201e+04 9.578e-10
 99.84590     11.9 1.272e+04 1.563e-09
 99.85702     12.4 1.300e+04 1.754e-09
 99.87700     12.3 1.334e+04 2.135e-09
 99.88822     12.7 1.362e+04 2.309e-09
 99.90117     12.5 1.436e+04 3.066e-09
 99.91942     12.1 1.548e+04 4.215e-09
 99.93064     12.3 1.562e+04 4.342e-09
 99.93786     11.4 1.676e+04 5.949e-09
 99.94909     12.7 1.546e+04 3.999e-09
 99.96184     11.7 1.651e+04 5.427e-09
 99.97307     11.8 1.635e+04 5.075e-09
 99.99096     10.7 1.690e+04 6.044e-09
