# Columns:
#   distance along LOS (in CHIMPs)
#   peculiar velocity  (in km/s)
#   temperature (K)
#   HI number density
# pos=(12.8838,0.218686,174.775), angles=(0.477451,4.4049)
  0.02000   -219.2 1.009e+04 1.930e-10
  0.05920   -218.8 1.008e+04 1.868e-10
  0.08119   -218.6 1.004e+04 1.847e-10
  0.10596   -218.8 1.026e+04 1.917e-10
  0.13935   -219.2 1.091e+04 2.891e-10
  0.15917   -218.7 1.080e+04 2.643e-10
  0.16977   -219.3 1.128e+04 3.802e-10
  0.19393   -219.5 1.175e+04 6.040e-10
  0.23635   -219.6 1.214e+04 8.614e-10
  0.25835   -220.6 1.229e+04 1.010e-09
  0.28189   -220.6 1.237e+04 1.111e-09
  0.32493   -220.3 1.233e+04 1.119e-09
  0.34692   -221.1 1.207e+04 9.561e-10
  0.36985   -220.3 1.202e+04 9.035e-10
  0.41172   -219.3 1.201e+04 8.846e-10
  0.43339   -218.4 1.226e+04 9.615e-10
  0.43550   -219.3 1.219e+04 9.223e-10
  0.45781   -218.5 1.254e+04 1.029e-09
  0.50179   -217.9 1.306e+04 1.216e-09
  0.52407   -218.2 1.371e+04 1.459e-09
  0.54607   -219.2 1.302e+04 9.784e-10
  0.58975   -220.1 1.312e+04 9.620e-10
  0.61265   -221.1 1.307e+04 9.024e-10
  0.63464   -222.1 1.196e+04 5.436e-10
  0.67772   -223.0 1.212e+04 6.562e-10
  0.70123   -223.4 1.244e+04 8.624e-10
  0.70760   -223.6 1.151e+04 5.831e-10
  0.72807   -223.4 1.219e+04 8.523e-10
  0.76568   -223.1 1.244e+04 9.928e-10
  0.78980   -223.0 1.273e+04 1.094e-09
  0.81179   -223.0 1.194e+04 7.466e-10
  0.85364   -223.2 1.230e+04 8.444e-10
  0.87838   -223.6 1.271e+04 9.772e-10
  0.90037   -223.5 1.215e+04 7.215e-10
  0.94160   -224.4 1.268e+04 9.192e-10
  0.96686   -224.5 1.299e+04 1.051e-09
  0.98172   -225.0 1.247e+04 8.373e-10
  1.00035   -225.2 1.331e+04 1.164e-09
  1.01105   -225.2 1.322e+04 1.145e-09
  1.02205   -225.4 1.250e+04 8.324e-10
  1.04036   -225.8 1.270e+04 8.970e-10
  1.05534   -226.5 1.303e+04 1.028e-09
  1.07743   -227.0 1.258e+04 8.237e-10
  1.09972   -227.0 1.289e+04 9.680e-10
  1.11062   -226.9 1.241e+04 7.823e-10
  1.12544   -227.0 1.261e+04 8.489e-10
  1.13644   -227.0 1.294e+04 9.639e-10
  1.14392   -227.3 1.329e+04 1.143e-09
  1.16600   -227.4 1.250e+04 7.987e-10
  1.20549   -227.9 1.288e+04 9.702e-10
  1.23259   -228.2 1.312e+04 1.122e-09
  1.25458   -227.6 1.261e+04 8.565e-10
  1.27272   -228.3 1.346e+04 1.419e-09
  1.27814   -227.7 1.367e+04 1.613e-09
  1.28778   -227.4 1.337e+04 1.346e-09
  1.30425   -227.7 1.406e+04 1.988e-09
  1.32107   -227.7 1.470e+04 2.766e-09
  1.33206   -227.5 1.452e+04 2.430e-09
  1.34823   -227.7 1.507e+04 3.123e-09
  1.36536   -228.1 1.532e+04 3.441e-09
  1.37635   -228.0 1.511e+04 3.059e-09
  1.39221   -228.7 1.516e+04 3.139e-09
  1.40881   -229.2 1.499e+04 2.922e-09
  1.41525   -229.0 1.537e+04 3.504e-09
  1.42064   -228.9 1.522e+04 3.295e-09
  1.43619   -229.4 1.477e+04 2.645e-09
  1.45393   -230.0 1.439e+04 2.164e-09
  1.46493   -230.0 1.421e+04 2.013e-09
  1.48017   -230.7 1.399e+04 1.787e-09
  1.49822   -231.4 1.387e+04 1.670e-09
  1.50922   -232.0 1.384e+04 1.633e-09
  1.52415   -232.9 1.377e+04 1.612e-09
  1.54251   -233.9 1.370e+04 1.628e-09
  1.55236   -234.5 1.358e+04 1.520e-09
  1.55599   -234.8 1.434e+04 2.187e-09
  1.56814   -235.7 1.436e+04 2.263e-09
  1.58680   -236.4 1.427e+04 2.223e-09
  1.59779   -236.8 1.418e+04 2.044e-09
  1.61212   -237.6 1.388e+04 1.694e-09
  1.63109   -238.4 1.347e+04 1.328e-09
  1.64208   -238.7 1.329e+04 1.207e-09
  1.65610   -239.2 1.316e+04 1.083e-09
  1.67547   -240.5 1.297e+04 8.723e-10
  1.69756   -239.9 1.264e+04 7.453e-10
  1.73326   -240.1 1.216e+04 5.271e-10
  1.76415   -239.6 1.184e+04 4.142e-10
  1.78614   -238.1 1.160e+04 3.464e-10
  1.81756   -237.0 1.146e+04 2.987e-10
  1.83955   -237.8 1.146e+04 2.981e-10
  1.85272   -236.5 1.141e+04 2.810e-10
  1.87471   -235.2 1.132e+04 2.299e-10
  1.90918   -233.9 1.129e+04 2.247e-10
  1.94130   -232.5 1.126e+04 2.223e-10
  1.96329   -231.3 1.117e+04 1.885e-10
  1.99714   -229.9 1.112e+04 1.863e-10
  2.02988   -228.6 1.110e+04 1.847e-10
  2.05187   -227.4 1.101e+04 1.591e-10
  2.08511   -226.1 1.102e+04 1.595e-10
  2.11193   -224.9 1.106e+04 1.680e-10
  2.12328   -224.9 1.115e+04 1.701e-10
  2.14044   -223.6 1.103e+04 1.493e-10
  2.17307   -222.5 1.108e+04 1.682e-10
  2.20703   -221.5 1.120e+04 1.950e-10
  2.22902   -220.2 1.110e+04 1.715e-10
  2.26103   -219.5 1.123e+04 2.066e-10
  2.29561   -219.2 1.138e+04 2.591e-10
  2.31760   -218.0 1.137e+04 2.536e-10
  2.34899   -217.9 1.153e+04 3.261e-10
  2.38418   -218.0 1.170e+04 4.028e-10
  2.40617   -217.1 1.181e+04 3.935e-10
  2.43695   -217.6 1.201e+04 4.665e-10
  2.47276   -218.5 1.208e+04 5.010e-10
  2.49475   -218.2 1.214e+04 5.285e-10
  2.52492   -219.0 1.207e+04 5.312e-10
  2.56134   -219.5 1.187e+04 5.016e-10
  2.58333   -219.2 1.183e+04 5.047e-10
  2.61288   -219.3 1.164e+04 4.585e-10
  2.64991   -219.3 1.149e+04 4.002e-10
  2.67172   -218.6 1.137e+04 3.759e-10
  2.70065   -217.6 1.130e+04 3.174e-10
  2.73849   -217.0 1.111e+04 2.549e-10
  2.76048   -216.0 1.108e+04 2.404e-10
  2.78880   -215.2 1.095e+04 1.992e-10
  2.82706   -214.5 1.085e+04 1.702e-10
  2.84906   -213.5 1.090e+04 1.676e-10
  2.87676   -212.9 1.082e+04 1.506e-10
  2.91564   -212.3 1.074e+04 1.410e-10
  2.93763   -211.4 1.075e+04 1.404e-10
  2.95104   -210.8 1.068e+04 1.360e-10
  2.97303   -210.2 1.073e+04 1.368e-10
  3.00422   -209.6 1.070e+04 1.325e-10
  3.02621   -208.6 1.071e+04 1.330e-10
  3.05269   -208.1 1.069e+04 1.331e-10
  3.09279   -207.8 1.068e+04 1.494e-10
  3.11478   -206.7 1.083e+04 1.787e-10
  3.14065   -206.4 1.090e+04 2.114e-10
  3.18137   -206.2 1.096e+04 2.326e-10
  3.20336   -205.0 1.125e+04 3.223e-10
  3.22341   -205.2 1.128e+04 3.188e-10
  3.24540   -204.5 1.146e+04 3.740e-10
  3.26995   -205.2 1.141e+04 3.471e-10
  3.29194   -204.1 1.191e+04 5.165e-10
  3.31657   -204.9 1.189e+04 4.666e-10
  3.35852   -205.8 1.183e+04 4.250e-10
  3.38051   -205.3 1.284e+04 9.282e-10
  3.40453   -205.8 1.268e+04 8.938e-10
  3.44710   -205.9 1.228e+04 6.861e-10
  3.46909   -205.7 1.302e+04 1.230e-09
  3.49250   -205.8 1.251e+04 7.854e-10
  3.51777   -205.8 1.204e+04 4.683e-10
  3.53896   -205.4 1.254e+04 6.724e-10
  3.55767   -206.2 1.335e+04 1.298e-09
  3.58046   -205.7 1.305e+04 9.824e-10
  3.62425   -205.1 1.279e+04 7.477e-10
  3.66823   -204.8 1.321e+04 1.249e-09
  3.71240   -203.4 1.274e+04 8.428e-10
  3.73482   -201.9 1.226e+04 5.269e-10
  3.75681   -202.3 1.280e+04 9.349e-10
  3.79015   -200.3 1.264e+04 6.870e-10
  3.81214   -200.6 1.310e+04 1.071e-09
  3.82340   -199.0 1.322e+04 9.580e-10
  3.84539   -199.6 1.354e+04 1.401e-09
  3.88832   -199.5 1.434e+04 2.070e-09
  3.91188   -199.6 1.507e+04 3.467e-09
  3.92277   -199.7 1.539e+04 4.285e-09
  3.93713   -199.1 1.612e+04 5.874e-09
  3.94813   -199.5 1.615e+04 6.033e-09
  3.95607   -199.5 1.656e+04 7.078e-09
  3.96706   -200.2 1.675e+04 7.756e-09
  3.98709   -200.8 1.683e+04 8.075e-09
  4.00035   -200.7 1.649e+04 7.729e-09
  4.01135   -201.2 1.655e+04 7.986e-09
  4.03107   -201.2 1.621e+04 7.060e-09
  4.04464   -201.4 1.598e+04 6.067e-09
  4.05564   -202.2 1.627e+04 7.051e-09
  4.07332   -202.8 1.631e+04 6.945e-09
  4.08431   -202.7 1.591e+04 5.983e-09
  4.08893   -203.4 1.589e+04 5.750e-09
  4.09993   -204.0 1.630e+04 7.176e-09
  4.11903   -204.8 1.629e+04 7.188e-09
  4.13322   -205.4 1.613e+04 6.949e-09
  4.14422   -206.1 1.639e+04 7.875e-09
  4.16301   -206.5 1.604e+04 7.052e-09
  4.17751   -206.8 1.565e+04 6.006e-09
  4.18850   -207.6 1.564e+04 6.038e-09
  4.20699   -207.8 1.521e+04 5.019e-09
  4.22050   -208.1 1.484e+04 4.213e-09
  4.22431   -208.0 1.441e+04 3.411e-09
  4.23279   -209.0 1.434e+04 3.311e-09
  4.25097   -209.5 1.428e+04 3.197e-09
  4.26608   -209.9 1.430e+04 3.250e-09
  4.27708   -210.9 1.423e+04 3.175e-09
  4.29495   -211.1 1.440e+04 3.578e-09
  4.31037   -211.2 1.452e+04 3.902e-09
  4.32137   -212.0 1.443e+04 3.867e-09
  4.33893   -212.0 1.446e+04 3.990e-09
  4.35466   -212.0 1.425e+04 3.832e-09
  4.36142   -212.4 1.406e+04 3.475e-09
  4.36768   -212.3 1.383e+04 3.064e-09
  4.38291   -212.3 1.346e+04 2.387e-09
  4.39895   -212.6 1.303e+04 1.739e-09
  4.40994   -213.3 1.296e+04 1.687e-09
  4.42690   -213.7 1.261e+04 1.252e-09
  4.44324   -214.1 1.227e+04 9.327e-10
  4.45423   -214.6 1.230e+04 1.001e-09
  4.47088   -214.8 1.202e+04 7.873e-10
  4.48753   -214.7 1.175e+04 6.292e-10
  4.49852   -214.9 1.189e+04 7.152e-10
  4.51486   -213.1 1.165e+04 5.426e-10
  4.53191   -212.4 1.170e+04 4.895e-10
  4.55400   -212.7 1.173e+04 5.283e-10
  4.59202   -212.4 1.170e+04 4.719e-10
  4.62059   -211.7 1.157e+04 4.191e-10
  4.63583   -211.9 1.151e+04 3.942e-10
  4.65125   -210.9 1.148e+04 3.703e-10
  4.67998   -209.7 1.127e+04 3.100e-10
  4.70916   -208.4 1.113e+04 2.680e-10
  4.73115   -208.2 1.102e+04 2.266e-10
  4.76794   -206.7 1.096e+04 1.980e-10
  4.79774   -205.2 1.092e+04 1.761e-10
  4.81973   -204.7 1.090e+04 1.547e-10
  4.85591   -203.1 1.083e+04 1.384e-10
  4.88632   -201.5 1.075e+04 1.233e-10
  4.90831   -200.9 1.069e+04 1.161e-10
  4.92362   -199.3 1.060e+04 1.026e-10
  4.94561   -198.3 1.064e+04 9.736e-11
  4.97489   -196.7 1.056e+04 8.659e-11
  4.99688   -196.1 1.048e+04 7.902e-11
  5.03183   -194.5 1.038e+04 7.090e-11
  5.06347   -192.8 1.027e+04 6.663e-11
  5.08546   -192.2 1.016e+04 6.004e-11
  5.11979   -190.6 1.008e+04 5.905e-11
  5.15205   -188.8 1.006e+04 5.873e-11
  5.17404   -188.3 9.987e+03 5.376e-11
  5.19599   -186.6 9.933e+03 5.527e-11
  5.21798   -185.7 9.973e+03 4.955e-11
  5.24062   -183.9 9.917e+03 5.149e-11
  5.26261   -183.3 9.882e+03 4.929e-11
  5.29571   -181.6 9.857e+03 5.173e-11
  5.32920   -179.9 9.842e+03 5.362e-11
  5.35119   -179.4 9.843e+03 5.351e-11
  5.38368   -177.7 9.829e+03 5.651e-11
  5.41777   -176.1 9.807e+03 6.084e-11
  5.43977   -175.8 9.800e+03 7.367e-11
  5.46836   -174.2 9.791e+03 8.027e-11
  5.49036   -173.2 9.870e+03 7.434e-11
  5.50635   -171.6 9.894e+03 8.363e-11
  5.52834   -171.5 9.981e+03 1.104e-10
  5.55960   -170.2 1.004e+04 1.224e-10
  5.59493   -169.0 1.014e+04 1.335e-10
  5.61692   -169.1 1.028e+04 1.794e-10
  5.64756   -168.3 1.038e+04 1.919e-10
  5.68350   -167.6 1.044e+04 1.975e-10
  5.70549   -167.9 1.052e+04 2.551e-10
  5.73552   -167.5 1.051e+04 2.539e-10
  5.76273   -167.1 1.045e+04 2.490e-10
  5.77730   -166.3 1.061e+04 2.771e-10
  5.79407   -166.5 1.062e+04 3.036e-10
  5.82349   -166.1 1.056e+04 2.903e-10
  5.86066   -165.7 1.050e+04 2.867e-10
  5.88265   -165.7 1.056e+04 3.144e-10
  5.91145   -165.2 1.044e+04 3.078e-10
  5.94923   -164.5 1.022e+04 2.781e-10
  5.97122   -164.4 1.025e+04 3.147e-10
  5.99941   -163.5 1.002e+04 2.459e-10
  6.03510   -162.6 9.850e+03 1.916e-10
  6.05151   -161.4 9.906e+03 1.890e-10
  6.05980   -161.1 9.916e+03 2.104e-10
  6.08737   -160.2 9.775e+03 1.639e-10
  6.12639   -159.2 9.601e+03 1.411e-10
  6.14838   -158.9 9.598e+03 1.360e-10
  6.17533   -157.9 9.397e+03 1.239e-10
  6.21496   -156.8 9.339e+03 1.228e-10
  6.23695   -156.4 9.337e+03 1.162e-10
  6.26329   -155.1 9.260e+03 1.269e-10
  6.30354   -153.8 9.291e+03 1.380e-10
  6.32553   -153.4 9.316e+03 1.373e-10
  6.32946   -152.0 9.343e+03 1.407e-10
  6.35145   -151.2 9.646e+03 1.485e-10
  6.39212   -150.0 9.620e+03 1.461e-10
  6.41411   -149.6 9.607e+03 1.448e-10
  6.43922   -148.3 9.455e+03 1.332e-10
  6.48069   -147.2 9.453e+03 1.287e-10
  6.50268   -146.6 9.443e+03 1.232e-10
  6.52718   -145.7 9.506e+03 1.227e-10
  6.56927   -145.2 9.841e+03 1.657e-10
  6.59126   -144.4 9.804e+03 1.541e-10
  6.60184   -143.8 1.010e+04 2.852e-10
  6.62383   -143.0 9.992e+03 2.191e-10
  6.65785   -142.2 1.032e+04 3.886e-10
  6.67984   -141.2 1.025e+04 3.602e-10
  6.70310   -140.2 1.071e+04 5.514e-10
  6.74642   -139.5 1.111e+04 6.586e-10
  6.76841   -138.4 1.113e+04 6.661e-10
  6.79107   -138.0 1.132e+04 6.883e-10
  6.83500   -137.7 1.147e+04 6.386e-10
  6.87416   -136.7 1.174e+04 6.856e-10
  6.89620   -135.5 1.187e+04 7.221e-10
  6.92301   -135.7 1.189e+04 6.518e-10
  6.94557   -135.8 1.172e+04 5.173e-10
  6.96756   -135.0 1.209e+04 7.015e-10
  7.01097   -135.1 1.175e+04 4.403e-10
  7.03414   -135.2 1.129e+04 2.678e-10
  7.05613   -134.6 1.157e+04 3.387e-10
  7.09893   -134.7 1.123e+04 2.921e-10
  7.12272   -134.0 1.120e+04 2.862e-10
  7.14471   -133.6 1.136e+04 3.312e-10
  7.16857   -132.3 1.132e+04 3.381e-10
  7.19056   -131.9 1.137e+04 3.181e-10
  7.21130   -130.4 1.132e+04 3.228e-10
  7.23329   -130.0 1.131e+04 3.253e-10
  7.27486   -128.4 1.132e+04 3.393e-10
  7.29987   -126.6 1.134e+04 3.413e-10
  7.32186   -125.9 1.115e+04 3.102e-10
  7.36282   -123.9 1.115e+04 3.012e-10
  7.38845   -121.8 1.114e+04 2.771e-10
  7.41044   -121.0 1.099e+04 2.069e-10
  7.44095   -119.3 1.114e+04 1.935e-10
  7.46294   -118.6 1.129e+04 2.436e-10
  7.47703   -118.6 1.183e+04 2.982e-10
  7.49902   -119.7 1.219e+04 4.028e-10
  7.53874   -119.5 1.270e+04 8.659e-10
  7.56560   -119.2 1.309e+04 1.447e-09
  7.58759   -119.7 1.327e+04 1.624e-09
  7.62670   -119.8 1.329e+04 1.579e-09
  7.65408   -120.5 1.340e+04 1.495e-09
  7.67607   -121.9 1.329e+04 1.378e-09
  7.69837   -122.6 1.354e+04 1.605e-09
  7.70927   -123.4 1.363e+04 1.721e-09
  7.72412   -124.0 1.371e+04 1.910e-09
  7.73511   -123.8 1.397e+04 2.263e-09
  7.74256   -124.3 1.424e+04 2.866e-09
  7.75356   -124.8 1.431e+04 2.996e-09
  7.76945   -125.3 1.454e+04 3.410e-09
  7.78685   -125.7 1.467e+04 3.583e-09
  7.79784   -126.2 1.452e+04 3.449e-09
  7.81343   -126.8 1.428e+04 3.024e-09
  7.83114   -127.5 1.384e+04 2.287e-09
  7.84213   -128.2 1.353e+04 1.866e-09
  7.85741   -128.8 1.318e+04 1.385e-09
  7.89049   -129.6 1.288e+04 1.029e-09
  7.91991   -130.2 1.207e+04 5.924e-10
  7.94190   -130.2 1.180e+04 4.380e-10
  7.97855   -130.2 1.140e+04 3.347e-10
  8.00768   -129.5 1.120e+04 2.978e-10
  8.01563   -129.1 1.131e+04 3.056e-10
  8.03048   -128.2 1.128e+04 2.731e-10
  8.06651   -127.3 1.122e+04 2.578e-10
  8.09706   -126.1 1.115e+04 2.458e-10
  8.11905   -124.7 1.122e+04 2.488e-10
  8.15447   -123.3 1.119e+04 2.320e-10
  8.18564   -121.8 1.118e+04 1.797e-10
  8.20763   -120.3 1.124e+04 1.822e-10
  8.24244   -119.2 1.122e+04 1.192e-10
  8.27421   -118.3 1.110e+04 8.365e-11
  8.28984   -116.8 1.116e+04 8.461e-11
  8.30205   -116.3 1.129e+04 1.506e-10
  8.33040   -115.2 1.120e+04 1.002e-10
  8.36279   -114.1 1.096e+04 8.010e-11
  8.38478   -112.5 1.111e+04 8.780e-11
  8.41836   -111.2 1.082e+04 8.135e-11
  8.45137   -109.7 1.073e+04 8.349e-11
  8.47336   -108.2 1.091e+04 8.625e-11
  8.50632   -106.7 1.089e+04 8.985e-11
  8.53994   -105.4 1.094e+04 1.012e-10
  8.56193   -103.8 1.096e+04 1.091e-10
  8.57442   -102.4 1.100e+04 1.196e-10
  8.59641   -102.6 1.102e+04 1.590e-10
  8.62852   -101.0 1.109e+04 1.746e-10
  8.65051    -99.3 1.107e+04 1.700e-10
  8.68225    -97.9 1.109e+04 1.688e-10
  8.71710    -96.6 1.111e+04 1.501e-10
  8.73909    -94.9 1.107e+04 1.503e-10
  8.77021    -93.6 1.106e+04 1.358e-10
  8.80567    -92.3 1.098e+04 1.272e-10
  8.82766    -90.4 1.095e+04 1.297e-10
  8.84679    -88.8 1.087e+04 1.189e-10
  8.86878    -88.5 1.086e+04 1.303e-10
  8.89425    -86.8 1.083e+04 1.104e-10
  8.91624    -85.0 1.082e+04 1.081e-10
  8.94613    -83.4 1.082e+04 9.090e-11
  8.98283    -82.0 1.082e+04 8.009e-11
  9.00482    -80.1 1.078e+04 8.005e-11
  9.03409    -78.6 1.077e+04 7.545e-11
  9.07140    -76.8 1.076e+04 7.749e-11
  9.09339    -74.9 1.077e+04 7.627e-11
  9.11917    -73.3 1.076e+04 7.685e-11
  9.14116    -72.9 1.076e+04 9.096e-11
  9.15998    -71.1 1.076e+04 8.856e-11
  9.18197    -69.3 1.077e+04 8.849e-11
  9.21002    -67.7 1.077e+04 8.740e-11
  9.24856    -66.0 1.073e+04 8.672e-11
  9.27055    -64.2 1.073e+04 9.287e-11
  9.29798    -62.4 1.074e+04 9.046e-11
  9.33713    -60.8 1.079e+04 9.226e-11
  9.35912    -59.1 1.075e+04 1.000e-10
  9.38594    -57.6 1.082e+04 1.099e-10
  9.41353    -56.2 1.084e+04 1.373e-10
  9.43131    -55.6 1.082e+04 1.456e-10
  9.44770    -53.8 1.080e+04 1.382e-10
  9.47390    -52.1 1.084e+04 1.803e-10
  9.51429    -50.5 1.098e+04 2.427e-10
  9.53628    -48.7 1.091e+04 2.227e-10
  9.56186    -47.1 1.110e+04 3.005e-10
  9.60286    -45.9 1.143e+04 3.930e-10
  9.62485    -44.2 1.146e+04 4.064e-10
  9.64983    -43.8 1.181e+04 5.299e-10
  9.68590    -44.2 1.244e+04 7.060e-10
  9.70552    -43.7 1.281e+04 1.053e-09
  9.71343    -42.1 1.295e+04 1.207e-09
  9.72670    -44.1 1.331e+04 1.376e-09
  9.74653    -45.5 1.352e+04 1.726e-09
  9.75752    -44.5 1.358e+04 1.822e-09
  9.77058    -45.6 1.359e+04 2.283e-09
  9.79082    -47.1 1.420e+04 2.909e-09
  9.80181    -46.0 1.422e+04 2.933e-09
  9.81456    -47.7 1.523e+04 3.538e-09
  9.83289    -49.4 1.539e+04 3.968e-09
  9.84244    -50.2 1.598e+04 5.499e-09
  9.84610    -49.9 1.630e+04 6.011e-09
  9.85854    -51.0 1.563e+04 5.097e-09
  9.87939    -52.1 1.509e+04 3.717e-09
  9.89039    -51.6 1.557e+04 4.449e-09
  9.90252    -53.2 1.488e+04 3.163e-09
  9.92368    -54.9 1.436e+04 2.376e-09
  9.93468    -54.6 1.470e+04 2.756e-09
  9.94650    -56.0 1.394e+04 2.163e-09
  9.96797    -56.6 1.364e+04 1.834e-09
  9.97896    -56.0 1.372e+04 2.044e-09
  9.98017    -56.1 1.376e+04 1.719e-09
 10.00226    -58.2 1.311e+04 1.602e-09
 10.04565    -58.4 1.286e+04 1.392e-09
 10.08964    -57.3 1.225e+04 1.238e-09
 10.13362    -56.4 1.188e+04 1.130e-09
 10.15631    -55.2 1.168e+04 8.934e-10
 10.17830    -54.2 1.141e+04 7.753e-10
 10.22158    -53.1 1.135e+04 6.455e-10
 10.24489    -52.1 1.120e+04 5.403e-10
 10.25396    -50.7 1.120e+04 5.604e-10
 10.27463    -50.9 1.081e+04 3.892e-10
 10.30954    -49.7 1.078e+04 3.820e-10
 10.33347    -48.3 1.071e+04 3.337e-10
 10.35546    -46.7 1.077e+04 3.561e-10
 10.39750    -45.7 1.059e+04 2.950e-10
 10.42204    -44.5 1.046e+04 2.096e-10
 10.44403    -43.2 1.055e+04 2.524e-10
 10.48546    -42.5 1.055e+04 1.721e-10
 10.51062    -42.0 1.042e+04 1.465e-10
 10.52817    -41.1 1.062e+04 1.852e-10
 10.54700    -41.3 1.060e+04 2.170e-10
 10.57343    -41.5 1.074e+04 2.440e-10
 10.59920    -42.6 1.114e+04 3.920e-10
 10.62119    -42.9 1.150e+04 5.352e-10
 10.64339    -43.6 1.211e+04 1.020e-09
 10.65428    -43.6 1.202e+04 1.015e-09
 10.67200    -43.8 1.236e+04 1.114e-09
 10.68299    -43.8 1.212e+04 1.055e-09
 10.68758    -44.1 1.214e+04 1.528e-09
 10.69857    -43.4 1.197e+04 1.279e-09
 10.71617    -42.8 1.175e+04 1.180e-09
 10.73186    -42.3 1.158e+04 8.967e-10
 10.74286    -42.1 1.135e+04 6.200e-10
 10.76015    -43.1 1.140e+04 4.646e-10
 10.77615    -44.7 1.114e+04 3.524e-10
 10.79824    -44.6 1.103e+04 3.353e-10
 10.81937    -45.2 1.057e+04 3.294e-10
 10.84136    -44.5 1.032e+04 2.543e-10
 10.86492    -43.3 9.933e+03 1.941e-10
 10.88692    -42.1 9.979e+03 1.971e-10
 10.92527    -41.2 9.925e+03 1.525e-10
 10.95350    -41.1 1.005e+04 1.103e-10
 10.97549    -39.5 1.003e+04 1.450e-10
 11.01324    -38.8 9.947e+03 1.472e-10
 11.04208    -38.4 9.941e+03 1.922e-10
 11.06407    -36.9 1.027e+04 2.324e-10
 11.09175    -36.9 1.060e+04 3.464e-10
 11.11374    -35.6 1.014e+04 2.312e-10
 11.13065    -35.7 1.056e+04 4.147e-10
 11.15264    -35.2 1.111e+04 5.515e-10
 11.18916    -35.3 1.177e+04 1.268e-09
 11.21923    -34.7 1.198e+04 1.492e-09
 11.24122    -33.9 1.252e+04 2.148e-09
 11.27712    -34.3 1.251e+04 1.478e-09
 11.30781    -36.7 1.208e+04 8.979e-10
 11.32980    -37.0 1.171e+04 8.376e-10
 11.36412    -37.8 1.090e+04 6.620e-10
 11.38611    -36.7 1.156e+04 1.058e-09
 11.39638    -36.8 1.116e+04 9.057e-10
 11.41837    -36.4 1.006e+04 3.355e-10
 11.45304    -36.5 1.014e+04 3.697e-10
 11.48496    -36.3 1.021e+04 4.901e-10
 11.50695    -35.9 9.637e+03 2.549e-10
 11.54101    -34.8 9.876e+03 4.255e-10
 11.57354    -33.7 1.028e+04 5.921e-10
 11.59553    -32.8 9.635e+03 3.250e-10
 11.62897    -32.2 1.010e+04 4.738e-10
 11.65848    -31.6 1.039e+04 6.415e-10
 11.66964    -31.1 1.038e+04 6.384e-10
 11.68410    -30.6 1.010e+04 4.952e-10
 11.71693    -29.6 1.038e+04 6.843e-10
 11.75069    -28.9 1.029e+04 6.590e-10
 11.77268    -28.1 1.030e+04 6.840e-10
 11.80489    -27.3 1.013e+04 5.874e-10
 11.83927    -27.1 9.941e+03 4.668e-10
 11.86126    -26.3 9.863e+03 4.624e-10
 11.89285    -26.0 9.556e+03 3.840e-10
 11.92784    -25.7 9.401e+03 3.189e-10
 11.94386    -25.3 9.155e+03 2.423e-10
 11.95285    -24.9 9.252e+03 2.478e-10
 11.98082    -25.2 9.182e+03 2.221e-10
 12.01642    -25.3 9.252e+03 2.198e-10
 12.03841    -24.9 8.970e+03 1.799e-10
 12.06878    -25.0 9.066e+03 1.881e-10
 12.10500    -25.2 9.221e+03 2.554e-10
 12.12699    -24.5 8.879e+03 1.689e-10
 12.15674    -24.6 9.014e+03 2.413e-10
 12.19357    -24.1 9.257e+03 3.475e-10
 12.21556    -23.4 8.873e+03 2.494e-10
 12.22522    -23.1 9.250e+03 3.413e-10
 12.24721    -23.4 9.345e+03 3.686e-10
 12.28215    -23.3 9.696e+03 5.067e-10
 12.30414    -22.4 9.339e+03 3.573e-10
 12.33266    -22.5 9.634e+03 4.486e-10
 12.37073    -22.8 9.907e+03 4.883e-10
 12.39272    -22.4 9.676e+03 4.518e-10
 12.42062    -23.3 1.008e+04 5.755e-10
 12.45930    -23.9 1.019e+04 6.682e-10
 12.48129    -22.4 1.056e+04 8.927e-10
 12.49759    -22.3 1.032e+04 7.554e-10
 12.51958    -22.7 1.024e+04 7.129e-10
 12.54788    -22.9 9.776e+03 5.290e-10
 12.56987    -20.6 9.788e+03 4.739e-10
 12.59655    -20.9 9.328e+03 3.185e-10
 12.63646    -20.5 9.030e+03 2.758e-10
 12.65845    -19.3 8.809e+03 1.713e-10
 12.68451    -17.8 8.696e+03 1.727e-10
 12.72503    -16.5 8.910e+03 2.056e-10
 12.74702    -14.7 8.885e+03 2.015e-10
 12.76138    -13.5 9.621e+03 3.524e-10
 12.78012    -12.3 9.917e+03 3.938e-10
 12.78861    -11.9 1.078e+04 3.651e-10
 12.79176    -14.7 1.125e+04 4.323e-10
 12.80526    -27.6 2.057e+04 2.026e-09
 12.82171    -34.4 2.394e+04 9.381e-09
 12.82981    -38.2 2.432e+04 2.003e-08
 12.83531    -39.1 2.348e+04 2.754e-08
 12.84365    -41.8 2.257e+04 6.994e-08
 12.85195    -44.2 2.245e+04 1.219e-07
 12.85707    -43.4 2.234e+04 1.602e-07
 12.85976    -44.2 2.242e+04 1.054e-07
 12.86564    -46.7 2.391e+04 1.143e-07
 12.87410    -54.3 2.896e+04 4.373e-08
 12.87959    -55.9 2.984e+04 3.309e-08
 12.88763    -73.2 2.352e+04 6.219e-09
 12.89624    -82.3 1.684e+04 3.718e-09
 12.90174    -82.9 1.643e+04 3.529e-09
 12.91294    -85.6 1.573e+04 3.047e-09
 12.92398    -86.7 1.514e+04 2.803e-09
 12.92795    -90.7 1.387e+04 2.585e-09
 12.93894    -88.4 1.415e+04 2.765e-09
 12.95727    -91.1 1.394e+04 2.765e-09
 12.96827    -91.1 1.366e+04 2.607e-09
 12.98119    -92.8 1.366e+04 2.815e-09
 13.00156    -94.2 1.368e+04 2.853e-09
 13.01256    -93.7 1.353e+04 2.566e-09
 13.02517    -95.1 1.339e+04 2.321e-09
 13.04585    -97.1 1.300e+04 1.682e-09
 13.05684    -97.0 1.293e+04 1.643e-09
 13.06413    -99.7 1.233e+04 1.109e-09
 13.07513    -98.0 1.235e+04 1.108e-09
 13.09014   -101.2 1.157e+04 7.160e-10
 13.10113   -100.5 1.145e+04 8.295e-10
 13.11313   -103.2 1.076e+04 5.818e-10
 13.13443   -104.9 1.030e+04 4.674e-10
 13.14542   -104.1 1.048e+04 5.236e-10
 13.15711   -104.9 1.018e+04 4.674e-10
 13.17871   -105.1 1.011e+04 4.447e-10
 13.18971   -104.6 1.028e+04 4.734e-10
 13.20032   -104.8 1.016e+04 4.459e-10
 13.21132   -104.9 1.018e+04 4.141e-10
 13.22300   -105.1 1.006e+04 3.927e-10
 13.24499   -104.7 1.012e+04 4.191e-10
 13.26706   -104.9 1.010e+04 4.068e-10
 13.27829   -105.0 1.011e+04 4.047e-10
 13.28928   -104.4 1.012e+04 4.892e-10
 13.31104   -104.6 1.019e+04 4.895e-10
 13.32257   -104.7 1.038e+04 5.181e-10
 13.33357   -104.2 1.060e+04 5.466e-10
 13.34750   -104.3 1.081e+04 6.124e-10
 13.35850   -104.7 1.081e+04 5.983e-10
 13.36686   -104.9 1.101e+04 6.775e-10
 13.37786   -104.4 1.094e+04 7.825e-10
 13.39901   -104.6 1.111e+04 8.983e-10
 13.41115   -104.8 1.126e+04 1.020e-09
 13.42215   -104.2 1.127e+04 1.052e-09
 13.44299   -104.4 1.139e+04 1.158e-09
 13.45544   -104.5 1.151e+04 1.250e-09
 13.47753   -104.7 1.158e+04 1.127e-09
 13.52015   -105.4 1.156e+04 1.104e-09
 13.54411   -105.7 1.131e+04 9.322e-10
 13.56610   -105.4 1.118e+04 8.773e-10
 13.58840   -105.6 1.092e+04 7.030e-10
 13.59930   -105.6 1.090e+04 6.976e-10
 13.61891   -105.6 1.087e+04 6.728e-10
 13.63087   -105.8 1.084e+04 6.212e-10
 13.63356   -105.6 1.073e+04 5.613e-10
 13.65468   -105.7 1.065e+04 5.553e-10
 13.67698   -105.9 1.087e+04 5.722e-10
 13.68788   -105.7 1.094e+04 5.934e-10
 13.70687   -106.2 1.136e+04 7.074e-10
 13.72117   -106.5 1.172e+04 8.852e-10
 13.73216   -106.8 1.180e+04 9.778e-10
 13.75085   -106.8 1.201e+04 1.133e-09
 13.76546   -106.6 1.205e+04 1.181e-09
 13.77067   -106.4 1.193e+04 1.201e-09
 13.77805   -106.0 1.193e+04 1.204e-09
 13.79483   -105.6 1.178e+04 1.180e-09
 13.80975   -105.0 1.157e+04 1.045e-09
 13.82074   -104.6 1.157e+04 9.009e-10
 13.83881   -104.1 1.144e+04 7.058e-10
 13.85403   -103.8 1.135e+04 5.397e-10
 13.86503   -103.7 1.089e+04 4.684e-10
 13.88280   -103.5 1.087e+04 3.739e-10
 13.89842   -103.1 1.106e+04 3.563e-10
 13.90797   -103.2 1.074e+04 2.933e-10
 13.92543   -102.6 1.068e+04 2.810e-10
 13.95996   -101.6 1.054e+04 2.383e-10
 13.98709   -100.4 1.052e+04 2.314e-10
 14.00908    -99.8 1.030e+04 2.221e-10
 14.04792    -99.0 1.046e+04 2.429e-10
 14.07567    -98.5 1.065e+04 2.874e-10
 14.09766    -97.8 1.055e+04 2.783e-10
 14.13588    -97.8 1.073e+04 3.286e-10
 14.16425    -98.0 1.093e+04 3.847e-10
 14.18219    -97.5 1.088e+04 3.152e-10
 14.19780    -97.6 1.105e+04 3.522e-10
 14.22384    -98.9 1.117e+04 3.812e-10
 14.25282   -100.8 1.129e+04 4.311e-10
 14.27481   -100.2 1.117e+04 3.501e-10
 14.31180   -101.8 1.120e+04 4.056e-10
 14.34130   -102.5 1.113e+04 4.227e-10
 14.36329   -102.1 1.100e+04 4.053e-10
 14.39977   -102.6 1.100e+04 4.346e-10
 14.42998   -102.9 1.096e+04 4.333e-10
 14.45197   -102.1 1.086e+04 3.889e-10
 14.47017   -102.2 1.093e+04 4.040e-10
 14.49217   -101.6 1.066e+04 3.214e-10
 14.51855   -101.4 1.078e+04 3.311e-10
 14.54054   -100.5 1.062e+04 3.514e-10
 14.57569   -100.0 1.083e+04 4.367e-10
 14.60713    -99.4 1.103e+04 5.250e-10
 14.62912    -98.2 1.083e+04 5.088e-10
 14.66365    -97.8 1.102e+04 5.927e-10
 14.69571    -97.5 1.122e+04 6.474e-10
 14.71770    -96.7 1.107e+04 6.295e-10
 14.74255    -96.6 1.122e+04 6.617e-10
 14.76454    -95.8 1.124e+04 6.742e-10
 14.78428    -95.8 1.127e+04 6.827e-10
 14.80627    -95.4 1.127e+04 7.386e-10
 14.83958    -95.5 1.126e+04 7.427e-10
 14.87286    -95.5 1.106e+04 6.599e-10
 14.89485    -95.1 1.107e+04 7.549e-10
 14.92754    -94.7 1.083e+04 6.041e-10
 14.96144    -94.4 1.067e+04 4.722e-10
 14.98343    -94.0 1.074e+04 5.401e-10
 15.01492    -94.1 1.074e+04 4.825e-10
 15.03691    -93.5 1.082e+04 5.183e-10
 15.05001    -94.0 1.088e+04 5.137e-10
 15.07200    -93.8 1.111e+04 6.757e-10
 15.10346    -94.8 1.131e+04 7.455e-10
 15.13859    -96.0 1.158e+04 8.598e-10
 15.16058    -95.8 1.162e+04 9.269e-10
 15.19142    -97.4 1.201e+04 1.025e-09
 15.22717    -99.1 1.253e+04 1.169e-09
 15.24916    -99.2 1.214e+04 1.049e-09
 15.26829   -100.3 1.190e+04 8.889e-10
 15.28225   -100.8 1.197e+04 9.048e-10
 15.29325   -100.7 1.188e+04 8.759e-10
 15.30909   -101.6 1.181e+04 8.182e-10
 15.32008   -101.2 1.150e+04 6.624e-10
 15.32654   -101.5 1.147e+04 6.181e-10
 15.33763   -101.1 1.095e+04 5.472e-10
 15.36735   -101.5 1.076e+04 4.054e-10
 15.40432   -101.5 1.051e+04 3.005e-10
 15.42631   -100.2 1.018e+04 2.371e-10
 15.45531    -99.9 9.999e+03 1.639e-10
 15.49290    -99.6 9.834e+03 1.249e-10
 15.51489    -98.2 9.709e+03 1.061e-10
 15.54327    -97.4 9.561e+03 8.594e-11
 15.58147    -96.2 9.501e+03 7.819e-11
 15.60346    -93.8 9.399e+03 6.498e-11
 15.63123    -92.6 9.370e+03 6.287e-11
 15.67005    -91.2 9.370e+03 6.267e-11
 15.69204    -89.5 9.310e+03 6.064e-11
 15.71919    -88.1 9.339e+03 6.074e-11
 15.75862    -86.8 9.552e+03 6.288e-11
 15.78062    -85.0 9.367e+03 5.815e-11
 15.80716    -83.7 9.515e+03 6.111e-11
 15.84720    -82.5 9.641e+03 7.280e-11
 15.86919    -80.6 9.500e+03 5.584e-11
 15.87602    -79.7 9.722e+03 7.212e-11
 15.89801    -79.2 9.713e+03 6.989e-11
 15.93578    -78.6 9.904e+03 1.142e-10
 15.95777    -76.8 9.815e+03 7.742e-11
 15.98308    -76.2 1.002e+04 1.450e-10
 16.02435    -75.7 1.038e+04 2.656e-10
 16.04634    -74.0 1.014e+04 1.915e-10
 16.07104    -73.4 1.055e+04 3.285e-10
 16.11293    -73.3 1.096e+04 4.781e-10
 16.13492    -71.4 1.071e+04 3.804e-10
 16.14839    -71.6 1.103e+04 4.913e-10
 16.17038    -71.3 1.097e+04 4.436e-10
 16.20151    -71.7 1.104e+04 4.669e-10
 16.22350    -69.8 1.094e+04 4.233e-10
 16.24697    -70.2 1.095e+04 4.277e-10
 16.29008    -70.4 1.085e+04 3.765e-10
 16.31207    -68.6 1.083e+04 3.739e-10
 16.33493    -68.6 1.069e+04 3.106e-10
 16.37866    -68.6 1.050e+04 2.669e-10
 16.40065    -67.0 1.055e+04 2.582e-10
 16.42077    -66.9 1.036e+04 2.335e-10
 16.44276    -66.9 1.031e+04 2.212e-10
 16.46687    -66.7 1.011e+04 2.026e-10
 16.48923    -66.5 9.927e+03 1.849e-10
 16.51122    -65.2 1.007e+04 2.021e-10
 16.55483    -65.0 9.935e+03 1.924e-10
 16.57780    -64.7 9.816e+03 1.838e-10
 16.59979    -63.9 1.006e+04 2.313e-10
 16.64279    -63.9 9.951e+03 2.420e-10
 16.66638    -64.0 1.000e+04 2.689e-10
 16.68837    -64.1 1.055e+04 4.317e-10
 16.71513    -64.9 1.082e+04 5.542e-10
 16.73712    -64.9 1.092e+04 5.922e-10
 16.75496    -65.8 1.129e+04 7.829e-10
 16.76585    -65.7 1.141e+04 8.374e-10
 16.78554    -66.3 1.153e+04 8.768e-10
 16.79905    -67.4 1.159e+04 8.934e-10
 16.81005    -67.9 1.159e+04 8.482e-10
 16.82952    -68.9 1.154e+04 7.822e-10
 16.84334    -69.7 1.148e+04 7.178e-10
 16.85395    -70.6 1.139e+04 5.701e-10
 16.86212    -70.9 1.142e+04 5.257e-10
 16.87350    -71.9 1.124e+04 4.550e-10
 16.90658    -72.7 1.096e+04 3.916e-10
 16.93211    -73.3 1.070e+04 3.429e-10
 16.95410    -73.5 1.065e+04 3.063e-10
 16.98750    -73.5 1.049e+04 2.823e-10
 17.00949    -74.0 1.057e+04 2.747e-10
 17.02069    -73.7 1.047e+04 2.777e-10
 17.04268    -73.6 1.057e+04 3.137e-10
 17.08260    -73.2 1.060e+04 3.483e-10
 17.10926    -72.7 1.062e+04 3.761e-10
 17.13125    -72.5 1.064e+04 3.622e-10
 17.17057    -71.8 1.059e+04 3.546e-10
 17.19784    -71.0 1.058e+04 3.203e-10
 17.21983    -70.7 1.049e+04 2.457e-10
 17.25853    -70.0 1.048e+04 2.104e-10
 17.28187    -69.5 1.048e+04 1.822e-10
 17.28776    -69.3 1.050e+04 1.902e-10
 17.30841    -69.1 1.043e+04 1.638e-10
 17.34649    -68.6 1.054e+04 1.765e-10
 17.37499    -68.4 1.069e+04 2.115e-10
 17.39698    -68.1 1.062e+04 1.906e-10
 17.43445    -68.1 1.080e+04 2.539e-10
 17.46357    -68.3 1.100e+04 3.316e-10
 17.48556    -67.9 1.088e+04 2.861e-10
 17.52241    -68.1 1.107e+04 3.374e-10
 17.55215    -68.6 1.119e+04 3.546e-10
 17.56198    -68.2 1.112e+04 3.212e-10
 17.57623    -68.4 1.130e+04 3.971e-10
 17.61037    -69.3 1.132e+04 4.065e-10
 17.64072    -70.0 1.118e+04 3.968e-10
 17.66271    -69.5 1.135e+04 4.222e-10
 17.69834    -70.1 1.119e+04 4.036e-10
 17.72930    -70.5 1.098e+04 3.730e-10
 17.75129    -70.1 1.124e+04 4.312e-10
 17.78630    -70.3 1.103e+04 3.997e-10
 17.81788    -70.5 1.085e+04 3.787e-10
 17.83620    -70.0 1.097e+04 3.849e-10
 17.84860    -70.1 1.091e+04 3.797e-10
 17.87426    -69.9 1.072e+04 3.417e-10
 17.90645    -69.5 1.054e+04 3.044e-10
 17.92844    -68.9 1.058e+04 2.755e-10
 17.96222    -68.3 1.042e+04 2.412e-10
 17.99503    -67.4 1.025e+04 2.073e-10
 18.01702    -66.8 1.032e+04 1.969e-10
 18.05018    -65.7 1.021e+04 1.763e-10
 18.08361    -64.5 1.013e+04 1.607e-10
 18.10560    -63.8 1.022e+04 1.644e-10
 18.12098    -62.6 1.020e+04 1.634e-10
 18.14297    -62.2 1.013e+04 1.389e-10
 18.17218    -60.9 1.010e+04 1.402e-10
 18.19417    -60.1 1.015e+04 1.391e-10
 18.22611    -58.8 1.019e+04 1.584e-10
 18.26076    -57.4 1.024e+04 1.861e-10
 18.28275    -56.5 1.027e+04 1.854e-10
 18.31407    -55.0 1.037e+04 2.170e-10
 18.34933    -53.5 1.047e+04 2.389e-10
 18.37133    -52.6 1.046e+04 2.332e-10
 18.39335    -51.1 1.050e+04 2.404e-10
 18.41534    -50.7 1.044e+04 1.936e-10
 18.43791    -49.2 1.048e+04 1.982e-10
 18.45990    -48.3 1.048e+04 1.934e-10
 18.48999    -46.8 1.056e+04 1.863e-10
 18.52649    -45.3 1.066e+04 1.682e-10
 18.54848    -44.7 1.073e+04 1.857e-10
 18.57795    -43.4 1.088e+04 1.792e-10
 18.61506    -42.3 1.100e+04 1.868e-10
 18.63705    -42.0 1.118e+04 3.020e-10
 18.66572    -40.8 1.132e+04 3.651e-10
 18.68771    -40.3 1.117e+04 2.752e-10
 18.70364    -39.1 1.129e+04 3.279e-10
 18.72563    -38.6 1.153e+04 5.058e-10
 18.75388    -37.4 1.167e+04 5.569e-10
 18.79222    -36.4 1.179e+04 5.971e-10
 18.81421    -36.1 1.179e+04 5.796e-10
 18.84184    -35.3 1.186e+04 6.051e-10
 18.88079    -34.6 1.191e+04 6.274e-10
 18.90278    -34.0 1.171e+04 4.628e-10
 18.92980    -33.3 1.175e+04 4.834e-10
 18.96008    -32.7 1.176e+04 5.014e-10
 18.97766    -32.4 1.176e+04 5.163e-10
 18.99136    -31.5 1.163e+04 4.213e-10
 19.01776    -30.7 1.160e+04 4.202e-10
 19.05795    -30.0 1.153e+04 3.988e-10
 19.07994    -28.6 1.151e+04 3.673e-10
 19.10573    -27.8 1.151e+04 3.690e-10
 19.14652    -27.1 1.153e+04 3.822e-10
 19.16851    -25.6 1.159e+04 3.798e-10
 19.19369    -25.1 1.166e+04 4.429e-10
 19.23246    -24.8 1.179e+04 5.503e-10
 19.25188    -25.2 1.163e+04 5.161e-10
 19.25709    -23.8 1.189e+04 6.355e-10
 19.28165    -24.0 1.221e+04 8.828e-10
 19.32368    -24.4 1.261e+04 1.256e-09
 19.34557    -24.2 1.304e+04 1.741e-09
 19.35842    -24.8 1.304e+04 2.158e-09
 19.37876    -24.8 1.295e+04 2.270e-09
 19.38879    -24.1 1.304e+04 2.568e-09
 19.39044    -24.1 1.281e+04 2.218e-09
 19.40240    -23.2 1.236e+04 1.736e-09
 19.42305    -22.7 1.209e+04 1.057e-09
 19.43405    -22.3 1.208e+04 8.277e-10
 19.44638    -23.7 1.183e+04 4.320e-10
 19.46734    -24.7 1.158e+04 3.298e-10
 19.47834    -24.9 1.148e+04 3.068e-10
 19.50073    -25.4 1.118e+04 2.485e-10
 19.52282    -25.0 1.109e+04 2.453e-10
 19.52682    -23.6 1.075e+04 1.887e-10
 19.54881    -22.8 1.068e+04 1.596e-10
 19.58941    -21.3 1.063e+04 1.360e-10
 19.63339    -18.7 1.060e+04 1.609e-10
 19.67748    -17.1 1.057e+04 1.670e-10
 19.69997    -15.6 1.056e+04 1.797e-10
 19.72196    -14.5 1.064e+04 2.415e-10
 19.76544    -12.9 1.066e+04 2.525e-10
 19.78855    -11.3 1.067e+04 2.550e-10
 19.80031    -10.4 1.080e+04 3.305e-10
 19.82118     -9.5 1.075e+04 2.885e-10
 19.85340     -7.9 1.072e+04 2.810e-10
 19.87713     -6.3 1.064e+04 2.505e-10
 19.89912     -5.3 1.075e+04 3.025e-10
 19.94136     -3.6 1.067e+04 2.463e-10
 19.96570     -1.8 1.059e+04 1.941e-10
 19.98769     -0.8 1.069e+04 2.160e-10
 20.02933      1.1 1.061e+04 1.635e-10
 20.05428      3.1 1.053e+04 1.261e-10
 20.07453      4.0 1.060e+04 1.255e-10
 20.09356      4.7 1.065e+04 1.327e-10
 20.11729      6.7 1.052e+04 1.054e-10
 20.14286      8.7 1.038e+04 8.759e-11
 20.16485      9.7 1.047e+04 8.852e-11
 20.20525     11.7 1.039e+04 7.945e-11
 20.23143     13.8 1.035e+04 7.506e-11
 20.25342     14.9 1.044e+04 7.753e-11
 20.29321     16.9 1.045e+04 8.030e-11
 20.32001     18.8 1.043e+04 9.575e-11
 20.34200     19.7 1.053e+04 1.070e-10
 20.36593     21.7 1.051e+04 1.491e-10
 20.38792     22.4 1.048e+04 1.277e-10
 20.40859     24.6 1.056e+04 1.586e-10
 20.43058     25.5 1.073e+04 2.393e-10
 20.46913     27.5 1.089e+04 2.989e-10
 20.49716     28.9 1.098e+04 3.437e-10
 20.51915     30.0 1.128e+04 5.078e-10
 20.55710     31.4 1.132e+04 4.913e-10
 20.58574     32.5 1.146e+04 4.538e-10
 20.60773     32.7 1.152e+04 4.294e-10
 20.63830     33.3 1.155e+04 4.147e-10
 20.66029     34.2 1.173e+04 5.196e-10
 20.67432     34.5 1.181e+04 6.121e-10
 20.69631     34.5 1.180e+04 5.980e-10
 20.73302     35.4 1.194e+04 8.365e-10
 20.76289     36.9 1.229e+04 1.046e-09
 20.78488     37.2 1.225e+04 9.985e-10
 20.82098     38.2 1.242e+04 1.060e-09
 20.85147     38.7 1.251e+04 1.049e-09
 20.87346     39.2 1.245e+04 9.672e-10
 20.90894     39.7 1.258e+04 1.093e-09
 20.93267     40.4 1.265e+04 1.310e-09
 20.94178     40.6 1.267e+04 1.399e-09
 20.96204     41.1 1.276e+04 1.409e-09
 20.98424     42.0 1.283e+04 1.680e-09
 20.99513     42.0 1.286e+04 1.733e-09
 21.00771     42.3 1.294e+04 1.787e-09
 21.02843     43.1 1.290e+04 1.849e-09
 21.03942     43.4 1.296e+04 1.930e-09
 21.05169     44.1 1.298e+04 1.773e-09
 21.06866     44.5 1.294e+04 1.509e-09
 21.07869     44.6 1.307e+04 1.642e-09
 21.08371     44.9 1.312e+04 1.709e-09
 21.09567     45.1 1.289e+04 1.502e-09
 21.11700     45.4 1.268e+04 1.278e-09
 21.13909     45.6 1.267e+04 1.169e-09
 21.17283     46.6 1.254e+04 1.038e-09
 21.20504     47.1 1.294e+04 1.174e-09
 21.21590     46.8 1.320e+04 1.251e-09
 21.22757     45.1 1.419e+04 1.698e-09
 21.24960     42.5 1.500e+04 3.038e-09
 21.26086     41.5 1.550e+04 5.563e-09
 21.27186     41.5 1.574e+04 6.076e-09
 21.29358     41.5 1.630e+04 9.276e-09
 21.30515     42.7 1.617e+04 1.175e-08
 21.31615     42.7 1.599e+04 1.078e-08
 21.33756     44.2 1.586e+04 9.326e-09
 21.34944     45.0 1.575e+04 5.871e-09
 21.35291     44.0 1.578e+04 4.958e-09
 21.36302     43.7 1.482e+04 1.910e-09
 21.38154     40.4 1.387e+04 1.114e-09
 21.39373     38.1 1.224e+04 8.033e-10
 21.40472     37.5 1.224e+04 8.262e-10
 21.42552     37.6 1.199e+04 7.408e-10
 21.43802     37.7 1.179e+04 6.814e-10
 21.44901     37.7 1.189e+04 7.685e-10
 21.46951     38.5 1.165e+04 7.018e-10
 21.48230     39.4 1.149e+04 6.373e-10
 21.49002     39.4 1.168e+04 7.124e-10
 21.49921     40.0 1.142e+04 5.407e-10
 21.51349     41.1 1.144e+04 4.945e-10
 21.52659     41.4 1.132e+04 4.785e-10
 21.53759     41.2 1.149e+04 5.468e-10
 21.55747     41.9 1.128e+04 5.165e-10
 21.57088     42.4 1.126e+04 5.047e-10
 21.58188     42.4 1.142e+04 5.879e-10
 21.60145     42.8 1.151e+04 5.442e-10
 21.61517     43.0 1.142e+04 5.376e-10
 21.62616     42.5 1.166e+04 6.539e-10
 21.63539     42.5 1.154e+04 6.570e-10
 21.64639     43.3 1.153e+04 6.487e-10
 21.65946     43.5 1.140e+04 6.562e-10
 21.67045     42.7 1.179e+04 9.033e-10
 21.70050     43.2 1.195e+04 1.122e-09
 21.73723     44.3 1.163e+04 8.313e-10
 21.75922     42.8 1.192e+04 9.777e-10
 21.77178     42.5 1.139e+04 6.352e-10
 21.79377     43.9 1.173e+04 8.741e-10
 21.82581     43.7 1.151e+04 7.602e-10
 21.84780     41.6 1.130e+04 6.446e-10
 21.87652     41.8 1.098e+04 5.923e-10
 21.91439     42.3 1.068e+04 5.437e-10
 21.93638     40.9 1.020e+04 3.756e-10
 21.96449     41.6 1.003e+04 3.345e-10
 22.00296     41.4 1.023e+04 3.190e-10
 22.02495     40.7 1.023e+04 3.183e-10
 22.04415     39.2 1.055e+04 4.319e-10
 22.06614     39.6 1.029e+04 3.207e-10
 22.09154     38.8 1.051e+04 6.368e-10
 22.11353     38.4 1.087e+04 8.436e-10
 22.12932     39.0 1.124e+04 1.225e-09
 22.14663     38.9 1.134e+04 1.250e-09
 22.15762     38.4 1.171e+04 1.532e-09
 22.18002     38.7 1.137e+04 1.220e-09
 22.20211     37.6 1.205e+04 1.674e-09
 22.22837     36.3 1.162e+04 1.114e-09
 22.26869     35.0 1.092e+04 7.646e-10
 22.29068     33.2 1.092e+04 7.197e-10
 22.31633     32.9 1.040e+04 5.025e-10
 22.35727     34.0 1.045e+04 5.332e-10
 22.37926     32.3 1.040e+04 5.036e-10
 22.40430     33.0 1.014e+04 4.417e-10
 22.44585     34.3 1.001e+04 3.780e-10
 22.46784     33.3 9.925e+03 3.118e-10
 22.49226     34.2 9.986e+03 2.277e-10
 22.53442     34.5 1.001e+04 1.979e-10
 22.55641     33.2 9.807e+03 1.897e-10
 22.58022     33.4 1.010e+04 2.351e-10
 22.61079     32.9 1.042e+04 3.174e-10
 22.62168     33.0 1.049e+04 3.768e-10
 22.63380     31.9 1.123e+04 4.997e-10
 22.64479     30.2 1.155e+04 5.851e-10
 22.65699     28.2 1.226e+04 1.052e-09
 22.67809     27.2 1.284e+04 1.715e-09
 22.68908     26.8 1.260e+04 1.804e-09
 22.70097     27.0 1.268e+04 2.271e-09
 22.72238     27.3 1.279e+04 2.241e-09
 22.73337     26.8 1.253e+04 1.696e-09
 22.75605     24.4 1.162e+04 7.853e-10
 22.80012     21.9 9.794e+03 3.609e-10
 22.84411     22.0 9.507e+03 1.710e-10
 22.88326     22.4 9.473e+03 1.596e-10
 22.90525     22.3 9.441e+03 1.602e-10
 22.91072     23.0 9.651e+03 2.081e-10
 22.93271     22.1 1.051e+04 3.545e-10
 22.95491     22.2 1.119e+04 5.110e-10
 22.96581     21.1 1.184e+04 6.979e-10
 22.98685     18.0 1.327e+04 1.218e-09
 22.99910     16.0 1.433e+04 3.053e-09
 23.01010     16.3 1.496e+04 5.374e-09
 23.03024     18.1 1.578e+04 8.766e-09
 23.04124     17.7 1.596e+04 9.440e-09
 23.04339     19.1 1.664e+04 1.135e-08
 23.05438     19.3 1.659e+04 1.109e-08
 23.07481     20.0 1.662e+04 9.702e-09
 23.08768     19.8 1.602e+04 6.398e-09
 23.09867     18.5 1.532e+04 4.042e-09
 23.11879     16.3 1.401e+04 2.314e-09
 23.13197     15.4 1.281e+04 1.515e-09
 23.14296     14.5 1.241e+04 1.278e-09
 23.16277     13.2 1.152e+04 9.043e-10
 23.17635     13.6 1.142e+04 8.353e-10
 23.18001     13.2 1.140e+04 8.587e-10
 23.18842     12.9 1.135e+04 9.035e-10
 23.20675     13.6 1.113e+04 7.854e-10
 23.22054     14.0 1.088e+04 6.559e-10
 23.23154     14.1 1.096e+04 6.722e-10
 23.25073     14.6 1.072e+04 5.611e-10
 23.26483     15.1 1.050e+04 4.657e-10
 23.27583     15.2 1.062e+04 4.833e-10
 23.29471     15.7 1.043e+04 3.972e-10
 23.30912     16.2 1.032e+04 3.199e-10
 23.31702     16.1 1.046e+04 3.483e-10
 23.32461     16.0 1.046e+04 3.745e-10
 23.33870     16.3 1.051e+04 3.321e-10
 23.35341     16.3 1.066e+04 3.128e-10
 23.36440     16.1 1.078e+04 3.605e-10
 23.38268     15.8 1.107e+04 3.789e-10
 23.41576     15.4 1.095e+04 4.944e-10
 23.44218     15.4 1.125e+04 7.805e-10
 23.45432     15.5 1.139e+04 8.920e-10
 23.47198     16.4 1.186e+04 1.070e-09
 23.48637     16.7 1.200e+04 1.329e-09
 23.49727     16.7 1.197e+04 1.301e-09
 23.51462     16.6 1.197e+04 1.317e-09
 23.53056     16.9 1.191e+04 1.353e-09
 23.54155     17.0 1.190e+04 1.333e-09
 23.55860     17.3 1.189e+04 1.250e-09
 23.57485     17.2 1.162e+04 1.068e-09
 23.58584     17.2 1.167e+04 1.113e-09
 23.59698     17.4 1.162e+04 1.022e-09
 23.60798     17.6 1.190e+04 1.208e-09
 23.61914     17.1 1.178e+04 1.094e-09
 23.63013     17.1 1.204e+04 1.275e-09
 23.64656     16.2 1.233e+04 1.337e-09
 23.66342     14.6 1.281e+04 1.559e-09
 23.67442     13.6 1.349e+04 2.183e-09
 23.69054     11.8 1.389e+04 3.012e-09
 23.70771     10.1 1.479e+04 4.539e-09
 23.71871     10.4 1.551e+04 6.349e-09
 23.73317      8.4 1.745e+04 9.382e-09
 23.74416      9.5 1.641e+04 6.803e-09
 23.75200      5.4 1.832e+04 9.204e-09
 23.76300      5.2 1.843e+04 8.707e-09
 23.77850     -1.2 1.902e+04 1.209e-08
 23.79629     -5.7 1.880e+04 1.693e-08
 23.80728     -6.7 1.851e+04 1.505e-08
 23.82249     -8.3 1.880e+04 1.850e-08
 23.84058    -10.4 1.871e+04 1.755e-08
 23.85157    -10.4 1.840e+04 1.629e-08
 23.86647    -13.9 1.864e+04 1.020e-08
 23.88035    -21.6 1.762e+04 4.533e-09
 23.88775    -22.2 1.651e+04 3.671e-09
 23.89586    -23.4 1.673e+04 4.051e-09
 23.91045    -30.7 1.298e+04 2.073e-09
 23.92915    -33.2 1.148e+04 1.398e-09
 23.94015    -33.5 1.226e+04 1.754e-09
 23.95443    -34.8 1.157e+04 1.113e-09
 23.97344    -36.7 1.100e+04 7.062e-10
 23.98444    -39.1 1.176e+04 8.621e-10
 23.99841    -40.9 1.127e+04 6.802e-10
 24.01653    -41.7 1.108e+04 6.382e-10
 24.02486    -40.4 1.043e+04 4.529e-10
 24.02873    -42.2 1.120e+04 7.608e-10
 24.04239    -41.7 1.116e+04 7.738e-10
 24.06202    -41.0 1.120e+04 8.044e-10
 24.07301    -41.3 1.183e+04 1.258e-09
 24.08637    -40.3 1.179e+04 1.187e-09
 24.10631    -39.3 1.177e+04 1.098e-09
 24.11730    -39.3 1.219e+04 1.318e-09
 24.13035    -38.4 1.195e+04 1.132e-09
 24.15069    -37.2 1.164e+04 9.364e-10
 24.17278    -37.5 1.214e+04 1.081e-09
 24.20751    -35.3 1.158e+04 8.102e-10
 24.23927    -33.5 1.133e+04 6.899e-10
 24.25017    -33.3 1.138e+04 7.005e-10
 24.26229    -32.6 1.128e+04 6.642e-10
 24.28346    -31.5 1.122e+04 6.136e-10
 24.29446    -31.5 1.132e+04 6.317e-10
 24.29990    -30.8 1.120e+04 6.010e-10
 24.31090    -30.6 1.116e+04 6.046e-10
 24.32775    -29.6 1.110e+04 5.756e-10
 24.33874    -29.5 1.120e+04 6.000e-10
 24.35026    -28.7 1.104e+04 5.552e-10
 24.37204    -27.7 1.089e+04 4.976e-10
 24.38303    -27.6 1.099e+04 5.298e-10
 24.39424    -26.5 1.085e+04 4.569e-10
 24.41623    -25.5 1.076e+04 3.886e-10
 24.43609    -24.5 1.077e+04 3.575e-10
 24.44708    -24.3 1.074e+04 3.581e-10
 24.46021    -23.5 1.075e+04 3.209e-10
 24.47161    -23.0 1.074e+04 3.068e-10
 24.48260    -22.8 1.080e+04 3.160e-10
 24.50500    -21.9 1.077e+04 2.843e-10
 24.52699    -21.4 1.087e+04 3.316e-10
 24.54817    -20.5 1.086e+04 3.207e-10
 24.56019    -19.9 1.081e+04 3.143e-10
 24.57118    -19.7 1.088e+04 3.711e-10
 24.58337    -18.5 1.080e+04 3.245e-10
 24.59436    -18.4 1.099e+04 3.711e-10
 24.60447    -17.5 1.094e+04 3.489e-10
 24.61547    -17.4 1.096e+04 4.361e-10
 24.64723    -16.0 1.101e+04 4.072e-10
 24.68225    -14.1 1.080e+04 3.070e-10
 24.70424    -13.9 1.083e+04 3.796e-10
 24.73528    -12.2 1.082e+04 2.991e-10
 24.77083    -10.6 1.094e+04 2.509e-10
 24.79272    -10.1 1.092e+04 2.755e-10
 24.81206     -9.1 1.101e+04 2.660e-10
 24.82591     -8.8 1.103e+04 2.650e-10
 24.83691     -8.3 1.099e+04 3.029e-10
 24.85564     -7.8 1.118e+04 3.172e-10
 24.86664     -8.2 1.152e+04 3.734e-10
 24.87020     -8.1 1.175e+04 4.683e-10
 24.88120     -8.8 1.248e+04 6.440e-10
 24.90002     -9.9 1.318e+04 1.007e-09
 24.91449    -11.1 1.408e+04 1.713e-09
 24.92549    -12.6 1.512e+04 3.511e-09
 24.94400    -12.9 1.618e+04 6.236e-09
 24.95878    -12.7 1.714e+04 9.894e-09
 24.96977    -11.8 1.774e+04 1.503e-08
 24.98798    -11.5 1.808e+04 1.691e-08
 25.00283    -11.5 1.798e+04 1.666e-08
 25.00692    -11.4 1.759e+04 1.320e-08
 25.01406    -11.0 1.708e+04 1.117e-08
 25.03196    -10.9 1.644e+04 8.890e-09
 25.04736    -10.8 1.567e+04 6.371e-09
 25.05835    -10.7 1.471e+04 3.663e-09
 25.07594    -10.8 1.405e+04 2.387e-09
 25.09164    -11.1 1.348e+04 1.517e-09
 25.10264    -12.0 1.262e+04 9.778e-10
 25.11992    -12.1 1.221e+04 7.203e-10
 25.13593    -12.1 1.185e+04 5.540e-10
 25.14403    -11.9 1.145e+04 5.093e-10
 25.15001    -11.5 1.157e+04 5.296e-10
 25.16390    -11.2 1.142e+04 4.720e-10
 25.18022    -10.7 1.143e+04 4.543e-10
 25.19122    -10.1 1.132e+04 4.480e-10
 25.20788     -9.7 1.133e+04 4.413e-10
 25.22451     -9.3 1.129e+04 4.492e-10
 25.23550     -8.7 1.135e+04 4.650e-10
 25.25187     -8.2 1.137e+04 5.008e-10
 25.26880     -7.7 1.125e+04 5.444e-10
 25.27979     -7.2 1.140e+04 5.835e-10
 25.28619     -6.4 1.128e+04 6.344e-10
 25.29719     -6.3 1.153e+04 8.069e-10
 25.31309     -5.6 1.147e+04 8.255e-10
 25.32408     -5.0 1.164e+04 9.005e-10
 25.33983     -4.1 1.156e+04 9.064e-10
 25.35737     -3.1 1.129e+04 8.407e-10
 25.36837     -2.6 1.147e+04 9.348e-10
 25.38381     -1.6 1.120e+04 8.159e-10
 25.40166     -0.6 1.094e+04 6.637e-10
 25.41266     -0.1 1.113e+04 7.637e-10
 25.42238      0.9 1.086e+04 6.083e-10
 25.43338      1.0 1.096e+04 6.537e-10
 25.44595      2.0 1.077e+04 5.398e-10
 25.45695      2.5 1.090e+04 5.941e-10
 25.47934      3.3 1.058e+04 4.470e-10
 25.50143      4.5 1.090e+04 5.482e-10
 25.52694      7.0 1.039e+04 4.108e-10
 25.56802      9.4 1.021e+04 3.378e-10
 25.59001     10.8 1.060e+04 4.800e-10
 25.61490     12.8 1.040e+04 4.080e-10
 25.65659     15.3 1.047e+04 3.840e-10
 25.67848     15.9 1.068e+04 4.866e-10
 25.69167     17.5 1.062e+04 4.433e-10
 25.70575     17.9 1.055e+04 4.239e-10
 25.71476     18.1 1.058e+04 4.428e-10
 25.72268     18.8 1.077e+04 5.662e-10
 25.73566     20.0 1.074e+04 5.050e-10
 25.75597     20.7 1.063e+04 4.501e-10
 25.76696     21.5 1.087e+04 5.902e-10
 25.77964     22.3 1.079e+04 4.714e-10
 25.80026     22.8 1.067e+04 4.056e-10
 25.81125     23.5 1.093e+04 4.924e-10
 25.82362     24.0 1.081e+04 3.798e-10
 25.84194     24.2 1.067e+04 3.352e-10
 25.85187     24.3 1.066e+04 3.217e-10
 25.85554     24.9 1.091e+04 3.493e-10
 25.86760     25.3 1.074e+04 2.953e-10
 25.88883     25.4 1.065e+04 2.876e-10
 25.89983     25.8 1.076e+04 2.963e-10
 25.92222     26.6 1.071e+04 2.645e-10
 25.94421     27.0 1.081e+04 2.794e-10
 25.96665     28.4 1.089e+04 2.610e-10
 25.98931     29.8 1.089e+04 2.549e-10
 26.01130     30.1 1.099e+04 2.749e-10
 26.04362     31.6 1.094e+04 3.142e-10
 26.06551     31.7 1.096e+04 3.154e-10
 26.07698     33.1 1.080e+04 4.089e-10
 26.08798     33.4 1.088e+04 4.125e-10
 26.10949     33.8 1.094e+04 4.196e-10
 26.12137     35.5 1.078e+04 4.765e-10
 26.12618     35.7 1.101e+04 5.187e-10
 26.13630     35.8 1.090e+04 4.911e-10
 26.15347     36.4 1.090e+04 4.956e-10
 26.16556     38.1 1.087e+04 4.771e-10
 26.17655     38.3 1.102e+04 5.218e-10
 26.19746     39.1 1.088e+04 4.930e-10
 26.20994     40.7 1.078e+04 3.881e-10
 26.22094     41.1 1.099e+04 4.297e-10
 26.24144     41.7 1.087e+04 3.684e-10
 26.25413     43.1 1.077e+04 2.800e-10
 26.26319     43.3 1.108e+04 3.129e-10
 26.27249     43.1 1.092e+04 2.469e-10
 26.28542     43.2 1.080e+04 2.302e-10
 26.29852     44.7 1.050e+04 1.825e-10
 26.30952     44.6 1.080e+04 2.157e-10
 26.32940     44.7 1.073e+04 2.123e-10
 26.36248     46.6 1.069e+04 2.214e-10
 26.38719     48.9 1.055e+04 2.284e-10
 26.40919     49.3 1.140e+04 5.089e-10
 26.45054     51.9 1.106e+04 4.156e-10
 26.47577     54.7 1.091e+04 3.575e-10
 26.49776     55.1 1.158e+04 6.012e-10
 26.53406     57.8 1.129e+04 4.434e-10
 26.55605     58.3 1.111e+04 4.079e-10
 26.56435     60.7 1.090e+04 3.250e-10
 26.58634     61.4 1.141e+04 4.567e-10
 26.62646     63.6 1.135e+04 3.975e-10
 26.65292     65.8 1.128e+04 3.767e-10
 26.66382     65.8 1.154e+04 4.154e-10
 26.68104     66.1 1.151e+04 4.094e-10
 26.69204     66.3 1.142e+04 4.213e-10
 26.71433     68.5 1.144e+04 4.316e-10
 26.74150     70.9 1.136e+04 4.397e-10
 26.75240     71.1 1.148e+04 4.928e-10
 26.76921     71.6 1.146e+04 4.899e-10
 26.78559     73.4 1.132e+04 4.771e-10
 26.79659     73.7 1.142e+04 5.273e-10
 26.81319     74.4 1.138e+04 5.128e-10
 26.82832     76.1 1.122e+04 4.515e-10
 26.83412     76.8 1.120e+04 4.771e-10
 26.84097     76.9 1.129e+04 5.122e-10
 26.85717     77.2 1.127e+04 4.864e-10
 26.89025     79.3 1.108e+04 3.954e-10
 26.91865     81.5 1.082e+04 2.884e-10
 26.94064     81.5 1.092e+04 2.930e-10
 26.97831     83.4 1.067e+04 2.152e-10
 27.00723     85.3 1.040e+04 1.849e-10
 27.02922     85.0 1.060e+04 2.096e-10
 27.06627     87.1 1.057e+04 2.109e-10
 27.09581     89.1 1.061e+04 2.274e-10
 27.10670     88.5 1.075e+04 2.496e-10
 27.11159     89.0 1.081e+04 2.616e-10
 27.12259     89.3 1.075e+04 2.577e-10
 27.13990     90.3 1.081e+04 2.900e-10
 27.15090     89.2 1.133e+04 4.006e-10
 27.16504     89.6 1.158e+04 5.211e-10
 27.18419     90.0 1.191e+04 7.231e-10
 27.19518     88.8 1.287e+04 1.310e-09
 27.20902     89.3 1.341e+04 1.858e-09
 27.22848     89.7 1.403e+04 2.628e-09
 27.23947     88.6 1.498e+04 4.106e-09
 27.24778     88.9 1.574e+04 5.769e-09
 27.25878     89.0 1.577e+04 6.235e-09
 27.27276     89.4 1.648e+04 8.270e-09
 27.28376     88.2 1.662e+04 8.601e-09
 27.29143     88.4 1.695e+04 9.639e-09
 27.30031     88.6 1.720e+04 1.047e-08
 27.30581     87.8 1.714e+04 1.015e-08
 27.31337     87.7 1.733e+04 1.076e-08
 27.32127     87.4 1.743e+04 1.113e-08
 27.32486     87.7 1.784e+04 1.226e-08
 27.32795     87.0 1.733e+04 1.019e-08
 27.33536     86.6 1.745e+04 1.043e-08
 27.34460     85.7 1.774e+04 1.083e-08
 27.35009     85.3 1.722e+04 8.297e-09
 27.35735     82.6 1.880e+04 1.009e-08
 27.36674     78.7 2.074e+04 1.379e-08
 27.37224     76.1 2.221e+04 1.145e-08
 27.37935     72.6 2.220e+04 1.618e-08
 27.38889     71.1 2.125e+04 2.191e-08
 27.39341     68.4 2.114e+04 2.222e-08
 27.39486     70.2 2.151e+04 1.592e-08
 27.40134     69.6 2.044e+04 1.998e-08
 27.41103     69.2 2.023e+04 2.157e-08
 27.41653     67.1 1.976e+04 2.276e-08
 27.42887     67.4 1.918e+04 2.092e-08
 27.44992     68.3 1.779e+04 1.545e-08
 27.46091     67.6 1.776e+04 1.696e-08
 27.47290     68.1 1.617e+04 9.014e-09
 27.49421     67.9 1.463e+04 3.878e-09
 27.50520     67.4 1.487e+04 4.057e-09
 27.51688     66.1 1.379e+04 1.688e-09
 27.53115     64.4 1.254e+04 8.908e-10
 27.54176     67.0 1.371e+04 1.812e-09
 27.54949     66.4 1.439e+04 2.187e-09
 27.56086     64.8 1.367e+04 1.193e-09
 27.58278     63.3 1.235e+04 9.164e-10
 27.60477     61.7 1.214e+04 1.074e-09
 27.62717     61.2 1.192e+04 1.205e-09
 27.64916     60.6 1.212e+04 1.497e-09
 27.66743     60.5 1.189e+04 1.476e-09
 27.67843     60.7 1.213e+04 1.829e-09
 27.68235     61.0 1.200e+04 1.675e-09
 27.69335     60.8 1.166e+04 1.339e-09
 27.71575     61.1 1.149e+04 1.025e-09
 27.73783     59.6 1.055e+04 4.935e-10
 27.76997     58.3 9.640e+03 2.722e-10
 27.80442     57.7 9.116e+03 2.216e-10
 27.82641     57.9 8.880e+03 2.009e-10
 27.85793     58.9 8.865e+03 2.049e-10
 27.89300     60.2 8.915e+03 2.209e-10
 27.91499     61.1 8.927e+03 2.117e-10
 27.93990     62.2 9.095e+03 2.549e-10
 27.96189     61.4 9.085e+03 2.586e-10
 27.98157     62.4 9.294e+03 3.320e-10
 28.00356     63.2 9.281e+03 3.284e-10
 28.03385     64.2 9.564e+03 4.330e-10
 28.07015     64.5 9.947e+03 5.630e-10
 28.09214     65.6 9.881e+03 5.407e-10
 28.12182     65.6 1.042e+04 7.280e-10
 28.15873     65.4 1.097e+04 1.013e-09
 28.18072     66.7 1.071e+04 8.545e-10
 28.20978     66.6 1.074e+04 9.157e-10
 28.23427     66.9 1.052e+04 8.497e-10
 28.24980     66.0 1.063e+04 9.287e-10
 28.26929     67.6 1.034e+04 7.706e-10
 28.29774     68.3 9.832e+03 5.998e-10
 28.33588     69.2 9.166e+03 3.945e-10
 28.35787     70.5 9.089e+03 3.607e-10
 28.38570     71.6 8.565e+03 2.523e-10
 28.42446     73.1 8.164e+03 1.806e-10
 28.44645     74.4 8.263e+03 2.025e-10
 28.47366     76.2 8.020e+03 1.609e-10
 28.50664     78.1 7.830e+03 1.245e-10
 28.52402     78.0 7.668e+03 1.014e-10
 28.53502     79.4 7.794e+03 1.222e-10
 28.56163     81.4 7.652e+03 9.820e-11
 28.60161     83.3 7.536e+03 7.876e-11
 28.62360     84.7 7.692e+03 1.007e-10
 28.64959     86.6 7.597e+03 8.367e-11
 28.69018     88.5 7.529e+03 7.360e-11
 28.71218     89.9 7.680e+03 9.040e-11
 28.73755     91.7 7.632e+03 8.122e-11
 28.77876     93.7 7.606e+03 8.046e-11
 28.79823     95.0 7.741e+03 9.307e-11
 28.80100     95.3 7.722e+03 1.006e-10
 28.82551     97.4 7.725e+03 1.017e-10
 28.86734     99.5 7.756e+03 1.055e-10
 28.88933    100.8 7.912e+03 1.251e-10
 28.91347    102.8 7.978e+03 1.329e-10
 28.95591    104.9 8.080e+03 1.488e-10
 28.97790    106.1 8.237e+03 1.715e-10
 29.00144    108.0 8.397e+03 1.970e-10
 29.04449    109.9 8.605e+03 2.316e-10
 29.06648    111.0 8.792e+03 2.600e-10
 29.07338    112.7 9.062e+03 3.033e-10
 29.09537    112.8 9.139e+03 3.289e-10
 29.13307    114.2 9.447e+03 3.853e-10
 29.15506    115.1 9.667e+03 4.424e-10
 29.16627    115.4 9.796e+03 4.658e-10
 29.18816    115.6 9.845e+03 4.787e-10
 29.20936    116.7 1.006e+04 5.866e-10
 29.22036    116.6 1.018e+04 7.104e-10
 29.23214    117.4 1.043e+04 8.132e-10
 29.24344    118.0 1.069e+04 8.496e-10
 29.25443    118.3 1.072e+04 9.503e-10
 29.27612    118.8 1.087e+04 9.554e-10
 29.28773    119.1 1.092e+04 9.357e-10
 29.29872    119.5 1.098e+04 1.044e-09
 29.32010    119.9 1.104e+04 9.932e-10
 29.33202    120.0 1.113e+04 9.249e-10
 29.34301    120.6 1.117e+04 1.028e-09
 29.35655    120.7 1.126e+04 1.012e-09
 29.36754    120.2 1.134e+04 1.124e-09
 29.37630    120.2 1.152e+04 1.151e-09
 29.38730    120.5 1.142e+04 1.134e-09
 29.40806    120.2 1.184e+04 1.225e-09
 29.42059    119.4 1.254e+04 1.551e-09
 29.43159    119.9 1.227e+04 1.445e-09
 29.45204    119.4 1.302e+04 1.893e-09
 29.46488    119.1 1.373e+04 2.526e-09
 29.47588    119.2 1.327e+04 2.163e-09
 29.49274    118.6 1.375e+04 2.501e-09
 29.50373    117.7 1.281e+04 1.852e-09
 29.50917    117.0 1.292e+04 1.887e-09
 29.52016    116.9 1.263e+04 1.772e-09
 29.54001    116.1 1.260e+04 1.751e-09
 29.55346    115.7 1.235e+04 1.553e-09
 29.56445    115.6 1.215e+04 1.471e-09
 29.58399    115.4 1.186e+04 1.277e-09
 29.59775    115.4 1.154e+04 1.057e-09
 29.61983    115.1 1.145e+04 9.705e-10
 29.64011    114.7 1.116e+04 6.884e-10
 29.66210    115.5 1.070e+04 5.217e-10
 29.68652    115.4 1.090e+04 5.159e-10
 29.70851    115.3 1.030e+04 3.059e-10
 29.74911    114.8 1.050e+04 3.297e-10
 29.77509    114.5 1.113e+04 4.578e-10
 29.79708    114.9 1.028e+04 2.595e-10
 29.83707    115.0 1.070e+04 3.724e-10
 29.86367    115.6 1.091e+04 4.985e-10
 29.88566    116.6 1.056e+04 3.701e-10
 29.91249    117.5 1.078e+04 4.844e-10
 29.93448    119.3 1.017e+04 3.064e-10
 29.95225    120.3 1.049e+04 3.837e-10
 29.97424    121.2 1.046e+04 3.517e-10
 30.01300    121.8 1.064e+04 3.617e-10
 30.04082    122.0 1.066e+04 3.547e-10
 30.06281    122.7 1.066e+04 3.440e-10
 30.10096    122.9 1.071e+04 3.254e-10
 30.12940    123.1 1.074e+04 3.264e-10
 30.15139    123.4 1.075e+04 3.261e-10
 30.18486    123.4 1.085e+04 3.460e-10
 30.20685    124.5 1.073e+04 3.184e-10
 30.21798    124.4 1.090e+04 3.583e-10
 30.23997    124.3 1.094e+04 3.294e-10
 30.27688    124.2 1.115e+04 3.305e-10
 30.30655    124.3 1.120e+04 3.189e-10
 30.32854    123.9 1.119e+04 2.728e-10
 30.36484    124.1 1.123e+04 2.421e-10
 30.39513    124.3 1.118e+04 2.134e-10
 30.41712    123.6 1.111e+04 1.834e-10
 30.45281    123.9 1.102e+04 1.792e-10
 30.47922    124.2 1.101e+04 1.825e-10
 30.48813    124.9 1.114e+04 1.679e-10
 30.50570    124.2 1.090e+04 1.645e-10
 30.54077    124.5 1.089e+04 1.847e-10
 30.57228    124.9 1.089e+04 2.151e-10
 30.59427    124.4 1.082e+04 2.314e-10
 30.62873    125.0 1.085e+04 2.873e-10
 30.66086    125.6 1.095e+04 3.535e-10
 30.68285    125.3 1.112e+04 3.769e-10
 30.71669    125.6 1.135e+04 4.615e-10
 30.74944    125.7 1.168e+04 6.139e-10
 30.76235    124.6 1.169e+04 5.908e-10
 30.77359    124.9 1.183e+04 7.185e-10
 30.80465    124.5 1.230e+04 1.095e-09
 30.83801    124.2 1.271e+04 1.480e-09
 30.86000    122.3 1.259e+04 1.322e-09
 30.89262    121.4 1.257e+04 1.289e-09
 30.92659    120.7 1.228e+04 1.054e-09
 30.94858    119.0 1.175e+04 7.157e-10
 30.98058    118.4 1.129e+04 4.627e-10
 31.01517    117.8 1.081e+04 3.063e-10
 31.03657    116.5 1.049e+04 2.721e-10
 31.04596    116.6 1.054e+04 2.390e-10
 31.06854    116.8 1.030e+04 2.259e-10
 31.10374    117.6 1.024e+04 2.196e-10
 31.12573    117.3 1.013e+04 1.667e-10
 31.15650    118.1 1.013e+04 1.500e-10
 31.19232    118.9 1.012e+04 1.317e-10
 31.21431    118.7 9.914e+03 9.714e-11
 31.24446    119.5 9.777e+03 9.307e-11
 31.28089    120.4 9.734e+03 9.358e-11
 31.30289    120.6 9.653e+03 9.372e-11
 31.31833    121.6 9.666e+03 9.903e-11
 31.34032    122.0 9.640e+03 8.122e-11
 31.36947    123.2 9.630e+03 9.249e-11
 31.39146    123.6 9.671e+03 9.510e-11
 31.42039    124.7 9.738e+03 1.089e-10
 31.45805    125.7 9.834e+03 1.249e-10
 31.48004    126.0 9.924e+03 1.362e-10
 31.50835    126.8 1.006e+04 1.550e-10
 31.54662    127.4 1.020e+04 1.727e-10
 31.56861    127.3 1.031e+04 1.936e-10
 31.59070    127.5 1.046e+04 2.038e-10
 31.61269    128.3 1.046e+04 2.019e-10
 31.63520    128.2 1.061e+04 2.062e-10
 31.65709    127.8 1.064e+04 2.164e-10
 31.67308    127.7 1.067e+04 2.165e-10
 31.69029    126.9 1.091e+04 2.323e-10
 31.70128    125.1 1.157e+04 3.204e-10
 31.71706    121.8 1.271e+04 6.188e-10
 31.73458    119.0 1.362e+04 1.484e-09
 31.74421    118.5 1.414e+04 2.663e-09
 31.74869    118.2 1.394e+04 2.789e-09
 31.76104    118.3 1.444e+04 4.253e-09
 31.77887    118.2 1.468e+04 4.584e-09
 31.78986    118.3 1.457e+04 3.837e-09
 31.80502    117.7 1.443e+04 2.522e-09
 31.82315    116.0 1.428e+04 1.094e-09
 31.83415    114.5 1.410e+04 5.538e-10
 31.86010    107.4 1.165e+04 1.891e-10
 31.88507    101.8 9.835e+03 1.802e-10
 31.90381    102.1 9.636e+03 2.002e-10
 31.92292    102.2 9.455e+03 1.871e-10
 31.94816    102.8 9.499e+03 2.454e-10
 31.98951    103.7 9.700e+03 3.258e-10
 32.01150    104.3 9.821e+03 3.536e-10
 32.03612    104.6 1.017e+04 4.888e-10
 32.07808    104.5 1.054e+04 6.567e-10
 32.10007    104.9 1.087e+04 8.269e-10
 32.12408    104.7 1.126e+04 1.050e-09
 32.15744    104.4 1.153e+04 1.215e-09
 32.17803    105.3 1.100e+04 8.228e-10
 32.18865    105.6 1.102e+04 8.204e-10
 32.21204    105.4 1.110e+04 8.871e-10
 32.25524    105.3 1.121e+04 9.726e-10
 32.27723    105.8 1.089e+04 6.987e-10
 32.30000    106.0 1.096e+04 7.059e-10
 32.34381    106.1 1.102e+04 7.053e-10
 32.38779    106.9 1.068e+04 4.826e-10
 32.42981    107.0 1.059e+04 4.973e-10
 32.45180    109.1 1.098e+04 6.778e-10
 32.45438    109.3 1.096e+04 6.693e-10
 32.47637    110.1 1.055e+04 4.457e-10
 32.51991    110.2 1.040e+04 4.180e-10
 32.54296    110.4 1.001e+04 3.214e-10
 32.56495    111.2 9.749e+03 2.503e-10
 32.60787    111.4 9.367e+03 1.843e-10
 32.63153    111.5 9.035e+03 1.310e-10
 32.65352    112.7 8.995e+03 1.377e-10
 32.69583    113.1 8.825e+03 1.101e-10
 32.72011    113.6 8.704e+03 9.141e-11
 32.72646    115.0 8.733e+03 1.041e-10
 32.74617    115.8 8.978e+03 1.582e-10
 32.78380    116.5 8.863e+03 1.274e-10
 32.80869    117.2 8.788e+03 9.784e-11
 32.83068    118.7 8.803e+03 1.082e-10
 32.87176    119.2 8.716e+03 7.929e-11
 32.89726    119.7 8.604e+03 6.662e-11
 32.91925    121.2 8.601e+03 7.053e-11
 32.95972    121.9 8.580e+03 6.980e-11
 32.98584    122.7 8.595e+03 7.227e-11
 33.00068    124.2 8.609e+03 8.111e-11
 33.01854    124.7 8.621e+03 8.113e-11
 33.04768    125.7 8.658e+03 8.874e-11
 33.07442    126.8 8.766e+03 1.041e-10
 33.09641    128.4 8.881e+03 1.254e-10
 33.13564    129.5 9.072e+03 1.355e-10
 33.16299    130.5 9.124e+03 1.344e-10
 33.18498    132.0 9.257e+03 1.631e-10
 33.22360    133.0 9.292e+03 1.484e-10
 33.25157    134.2 9.280e+03 1.255e-10
 33.27356    135.7 9.368e+03 1.475e-10
 33.29091    137.3 9.386e+03 1.396e-10
 33.31290    138.6 9.141e+03 1.197e-10
 33.34015    140.4 9.163e+03 1.175e-10
 33.36214    141.9 9.263e+03 1.396e-10
 33.39953    143.8 9.416e+03 1.486e-10
 33.42872    145.3 1.001e+04 1.969e-10
 33.45071    147.0 9.942e+03 2.147e-10
 33.47291    147.7 1.013e+04 2.294e-10
 33.48381    148.3 1.009e+04 2.349e-10
 33.49829    148.8 1.049e+04 2.777e-10
 33.51710    149.0 1.118e+04 4.097e-10
 33.52810    149.9 1.102e+04 3.815e-10
 33.54227    150.3 1.163e+04 6.000e-10
 33.56139    150.7 1.206e+04 9.588e-10
 33.57122    151.6 1.202e+04 8.300e-10
 33.57409    153.2 1.145e+04 5.119e-10
 33.58625    153.5 1.208e+04 8.114e-10
 33.60568    153.8 1.258e+04 1.304e-09
 33.61668    154.4 1.258e+04 1.109e-09
 33.63023    154.4 1.318e+04 1.831e-09
 33.64997    154.6 1.376e+04 2.941e-09
 33.66096    154.4 1.420e+04 2.887e-09
 33.67421    154.9 1.494e+04 4.646e-09
 33.69066    155.1 1.543e+04 5.693e-09
 33.69966    155.1 1.579e+04 6.452e-09
 33.70515    154.8 1.617e+04 7.197e-09
 33.71017    154.7 1.650e+04 8.412e-09
 33.71567    155.4 1.664e+04 8.548e-09
 33.72180    155.4 1.708e+04 1.027e-08
 33.72730    155.1 1.750e+04 1.144e-08
 33.73459    155.0 1.791e+04 1.313e-08
 33.74394    154.4 1.842e+04 1.444e-08
 33.74944    153.5 1.911e+04 1.719e-08
 33.75658    150.1 2.142e+04 2.130e-08
 33.76609    144.2 2.494e+04 3.059e-08
 33.77159    142.3 2.530e+04 4.014e-08
 33.77827    137.0 2.534e+04 6.021e-08
 33.78377    139.0 2.514e+04 7.152e-08
 33.78823    134.3 2.473e+04 7.501e-08
 33.79373    133.0 2.453e+04 7.593e-08
 33.80056    129.5 2.367e+04 6.768e-08
 33.81038    127.3 2.240e+04 4.796e-08
 33.81587    126.9 2.194e+04 4.211e-08
 33.82255    125.8 2.107e+04 2.461e-08
 33.83252    124.3 2.022e+04 1.312e-08
 33.83807    123.9 2.032e+04 1.279e-08
 33.84646    116.9 1.796e+04 3.046e-09
 33.85745    114.8 1.791e+04 2.918e-09
 33.87141    105.2 1.250e+04 1.454e-09
 33.88240    103.9 1.230e+04 1.490e-09
 33.89412    103.0 1.204e+04 1.477e-09
 33.91570    103.0 1.207e+04 1.540e-09
 33.92669    103.0 1.253e+04 1.797e-09
 33.93810    103.0 1.269e+04 1.944e-09
 33.95999    102.8 1.281e+04 2.004e-09
 33.97098    102.6 1.354e+04 2.650e-09
 33.98208    102.4 1.372e+04 2.908e-09
 33.99364    102.2 1.377e+04 3.018e-09
 34.00464    101.3 1.343e+04 2.423e-09
 34.01527    100.9 1.346e+04 2.329e-09
 34.02626    101.0 1.447e+04 3.389e-09
 34.04805    100.6 1.453e+04 3.208e-09
 34.05956     99.9 1.451e+04 2.938e-09
 34.07055     99.7 1.579e+04 4.663e-09
 34.09203     99.2 1.559e+04 4.188e-09
 34.10385     98.4 1.544e+04 3.968e-09
 34.10929     98.4 1.617e+04 5.108e-09
 34.11942     98.3 1.574e+04 4.463e-09
 34.12589     97.8 1.558e+04 4.258e-09
 34.13070     97.9 1.622e+04 5.018e-09
 34.14077     97.7 1.533e+04 4.084e-09
 34.14813     97.7 1.527e+04 3.999e-09
 34.15358     97.6 1.663e+04 5.405e-09
 34.16340     97.5 1.655e+04 5.309e-09
 34.17018     97.4 1.641e+04 5.213e-09
 34.17568     97.1 1.812e+04 7.282e-09
 34.18539     97.0 1.795e+04 7.023e-09
 34.19232     96.9 1.759e+04 6.665e-09
 34.19782     96.5 1.988e+04 1.035e-08
 34.20332     96.3 1.942e+04 9.688e-09
 34.20882     96.6 2.034e+04 1.134e-08
 34.21447     96.3 1.978e+04 1.062e-08
 34.21997     95.8 2.170e+04 1.875e-08
 34.22938     95.4 2.125e+04 1.702e-08
 34.23661     94.8 2.064e+04 1.514e-08
 34.24211     94.6 2.221e+04 2.465e-08
 34.25137     93.4 2.151e+04 2.019e-08
 34.25876     92.7 2.042e+04 1.622e-08
 34.26425     92.2 2.142e+04 2.060e-08
 34.27141     91.4 2.065e+04 1.724e-08
 34.27691     91.1 2.159e+04 2.396e-08
 34.28090     91.1 2.066e+04 1.880e-08
 34.28640     89.8 2.093e+04 1.890e-08
 34.29535     89.7 2.059e+04 1.700e-08
 34.31189     89.3 1.995e+04 1.438e-08
 34.32529     90.1 1.876e+04 1.038e-08
 34.33628     88.7 1.837e+04 7.976e-09
 34.35592     90.0 1.746e+04 5.890e-09
 34.36958     91.1 1.670e+04 4.523e-09
 34.38057     90.0 1.578e+04 3.109e-09
 34.39990     91.0 1.520e+04 2.518e-09
 34.41320     92.0 1.462e+04 2.082e-09
 34.41617     91.7 1.469e+04 2.384e-09
 34.42486     91.1 1.388e+04 1.887e-09
 34.44388     92.5 1.361e+04 1.724e-09
 34.45815     93.8 1.353e+04 1.673e-09
 34.46915     93.8 1.306e+04 1.466e-09
 34.48786     95.0 1.302e+04 1.443e-09
 34.50244     96.3 1.307e+04 1.469e-09
 34.51353     95.9 1.267e+04 1.252e-09
 34.53194     97.4 1.288e+04 1.352e-09
 34.54673     98.3 1.312e+04 1.463e-09
 34.55327     98.4 1.267e+04 1.229e-09
 34.56038     98.6 1.276e+04 1.269e-09
 34.57582     99.3 1.287e+04 1.311e-09
 34.59102     99.8 1.326e+04 1.507e-09
 34.60211     99.7 1.247e+04 1.082e-09
 34.61990     99.9 1.313e+04 1.427e-09
 34.63531    100.1 1.386e+04 2.069e-09
 34.64630     99.6 1.326e+04 1.608e-09
 34.66378    100.1 1.405e+04 2.525e-09
 34.67959    100.9 1.461e+04 3.563e-09
 34.69038    100.6 1.407e+04 2.749e-09
 34.69656    101.1 1.343e+04 1.957e-09
 34.70777    101.7 1.364e+04 2.257e-09
 34.72388    102.1 1.369e+04 2.346e-09
 34.73488    101.8 1.328e+04 1.894e-09
 34.75175    102.2 1.322e+04 1.779e-09
 34.76817    102.5 1.304e+04 1.614e-09
 34.77926    102.0 1.223e+04 1.065e-09
 34.80692    102.5 1.193e+04 9.769e-10
 34.84595    103.1 1.173e+04 9.420e-10
 34.86794    103.1 1.110e+04 6.604e-10
 34.89488    103.9 1.129e+04 8.221e-10
 34.93452    104.9 1.165e+04 1.066e-09
 34.95651    104.9 1.085e+04 6.700e-10
 34.96913    106.0 1.111e+04 8.253e-10
 34.99112    107.7 1.100e+04 8.021e-10
 35.02310    108.8 1.107e+04 8.621e-10
 35.04509    108.6 1.002e+04 4.623e-10
 35.07080    109.6 1.006e+04 4.834e-10
 35.11168    110.7 1.009e+04 5.113e-10
 35.13367    110.5 9.374e+03 3.152e-10
 35.15877    111.9 9.566e+03 3.756e-10
 35.20025    113.5 9.718e+03 4.323e-10
 35.22224    113.2 9.256e+03 3.060e-10
 35.24150    114.7 9.492e+03 3.639e-10
 35.26349    115.8 9.430e+03 3.661e-10
 35.27962    116.1 9.483e+03 3.802e-10
 35.29963    116.5 9.569e+03 4.118e-10
 35.31072    116.1 9.560e+03 3.867e-10
 35.32360    116.5 9.665e+03 4.400e-10
 35.34392    117.0 9.837e+03 5.151e-10
 35.35491    116.4 9.852e+03 5.161e-10
 35.36748    116.7 1.009e+04 6.202e-10
 35.38821    116.8 1.039e+04 7.485e-10
 35.39822    116.1 1.038e+04 7.386e-10
 35.39949    116.5 1.046e+04 7.855e-10
 35.41146    116.5 1.074e+04 9.293e-10
 35.43249    116.2 1.103e+04 1.093e-09
 35.44349    115.4 1.092e+04 1.029e-09
 35.45544    115.1 1.115e+04 1.157e-09
 35.47678    114.7 1.135e+04 1.269e-09
 35.48778    113.8 1.105e+04 1.079e-09
 35.49942    113.3 1.120e+04 1.151e-09
 35.52107    112.7 1.125e+04 1.194e-09
 35.53207    112.0 1.091e+04 1.013e-09
 35.53567    111.5 1.088e+04 1.014e-09
 35.54667    111.7 1.095e+04 1.056e-09
 35.56536    111.2 1.085e+04 1.020e-09
 35.58735    110.1 1.044e+04 8.289e-10
 35.60937    109.6 1.046e+04 8.420e-10
 35.64246    108.6 1.039e+04 8.105e-10
 35.66513    107.7 1.071e+04 9.408e-10
 35.67254    106.9 1.027e+04 7.622e-10
 35.68285    106.9 1.029e+04 7.736e-10
 35.69734    106.6 1.037e+04 8.076e-10
 35.70922    105.5 1.056e+04 8.643e-10
 35.72021    105.3 1.047e+04 8.274e-10
 35.74132    104.6 1.054e+04 8.509e-10
 35.75360    103.5 1.068e+04 8.832e-10
 35.77569    103.1 1.047e+04 8.085e-10
 35.80824    101.2 1.023e+04 6.702e-10
 35.83023    100.6 9.745e+03 5.498e-10
 35.84228     98.9 9.325e+03 4.019e-10
 35.86427     99.2 9.182e+03 3.422e-10
 35.90644     97.7 8.689e+03 2.040e-10
 35.93086     96.3 8.707e+03 1.857e-10
 35.95285     96.3 8.369e+03 1.297e-10
 35.99440     95.6 8.476e+03 1.432e-10
 36.01943     95.0 8.829e+03 2.031e-10
 36.04142     95.5 8.537e+03 1.574e-10
 36.08061     95.0 9.079e+03 2.583e-10
 36.10260     94.6 8.907e+03 2.375e-10
 36.10801     93.8 9.992e+03 4.796e-10
 36.13000     94.5 9.652e+03 3.821e-10
 36.15220     93.8 1.026e+04 5.645e-10
 36.16310     94.3 1.001e+04 4.872e-10
 36.18113     93.9 1.037e+04 6.178e-10
 36.19639     93.8 1.061e+04 7.340e-10
 36.20739     94.2 1.025e+04 5.739e-10
 36.22511     94.0 1.045e+04 6.504e-10
 36.23860     94.0 1.060e+04 6.797e-10
 36.24317     93.6 1.071e+04 7.277e-10
 36.25167     94.1 1.042e+04 5.984e-10
 36.26909     94.2 1.057e+04 6.130e-10
 36.28497     94.3 1.067e+04 6.164e-10
 36.29596     94.8 1.045e+04 5.072e-10
 36.31307     95.0 1.054e+04 5.081e-10
 36.32925     95.4 1.064e+04 5.086e-10
 36.34025     95.7 1.050e+04 4.475e-10
 36.35705     96.0 1.062e+04 4.609e-10
 36.37364     96.8 1.084e+04 4.992e-10
 36.38047     97.3 1.068e+04 4.307e-10
 36.38587     96.7 1.091e+04 5.260e-10
 36.40103     97.0 1.102e+04 5.553e-10
 36.43411     97.8 1.161e+04 7.729e-10
 36.46231     98.9 1.221e+04 1.063e-09
 36.48431     99.2 1.167e+04 7.964e-10
 36.52217     99.9 1.212e+04 9.843e-10
 36.55089     99.8 1.265e+04 1.207e-09
 36.57288     99.8 1.192e+04 7.877e-10
 36.61014     99.3 1.223e+04 8.717e-10
 36.63947     98.3 1.244e+04 1.018e-09
 36.65469     98.7 1.177e+04 6.322e-10
 36.66934     97.8 1.173e+04 6.352e-10
 36.68366     97.2 1.195e+04 8.020e-10
 36.69456     97.5 1.171e+04 6.526e-10
 36.70890     97.4 1.182e+04 7.479e-10
 36.72785     97.3 1.200e+04 8.896e-10
 36.73884     97.7 1.169e+04 6.952e-10
 36.75288     97.6 1.193e+04 8.513e-10
 36.77214     97.7 1.217e+04 1.025e-09
 36.78313     98.1 1.186e+04 8.223e-10
 36.79434     98.2 1.214e+04 9.987e-10
 36.80533     98.0 1.205e+04 9.622e-10
 36.81643     98.0 1.226e+04 1.108e-09
 36.82742     98.6 1.199e+04 9.234e-10
 36.84084     98.6 1.221e+04 1.053e-09
 36.86071     98.5 1.243e+04 1.202e-09
 36.87171     99.0 1.231e+04 1.069e-09
 36.88482     98.9 1.249e+04 1.213e-09
 36.90510     98.5 1.265e+04 1.420e-09
 36.92719     99.5 1.266e+04 1.274e-09
 36.94171     99.0 1.292e+04 1.598e-09
 36.96370     98.6 1.279e+04 1.413e-09
 36.99377     98.0 1.307e+04 1.670e-09
 37.01576     98.2 1.287e+04 1.337e-09
 37.03796     97.4 1.332e+04 1.760e-09
 37.04886     97.4 1.317e+04 1.539e-09
 37.06075     96.8 1.355e+04 1.891e-09
 37.07770     96.3 1.392e+04 2.362e-09
 37.08812     96.1 1.356e+04 1.819e-09
 37.09315     95.9 1.323e+04 1.439e-09
 37.10473     95.4 1.352e+04 1.786e-09
 37.12644     95.1 1.372e+04 2.151e-09
 37.13744     94.8 1.322e+04 1.614e-09
 37.14871     94.6 1.329e+04 1.819e-09
 37.17070     94.5 1.332e+04 1.967e-09
 37.19269     94.4 1.302e+04 1.603e-09
 37.21399     94.3 1.281e+04 1.414e-09
 37.23608     93.8 1.200e+04 7.239e-10
 37.25950     93.2 1.171e+04 6.151e-10
 37.28149     93.5 1.107e+04 4.193e-10
 37.31383     93.8 1.117e+04 4.524e-10
 37.34672     94.0 1.132e+04 5.400e-10
 37.35888     94.2 1.145e+04 5.955e-10
 37.36997     95.4 1.097e+04 3.890e-10
 37.40179     96.0 1.137e+04 6.081e-10
 37.43666     96.8 1.164e+04 8.615e-10
 37.45865     98.3 1.117e+04 5.298e-10
 37.48646     99.1 1.153e+04 7.683e-10
 37.50845     99.4 1.180e+04 9.210e-10
 37.52523     99.9 1.218e+04 1.210e-09
 37.54722    101.3 1.183e+04 8.676e-10
 37.56662    101.0 1.207e+04 1.109e-09
 37.58032    100.9 1.210e+04 1.184e-09
 37.59132    101.6 1.197e+04 1.077e-09
 37.61051    101.7 1.194e+04 1.088e-09
 37.62461    101.8 1.185e+04 1.040e-09
 37.63561    102.5 1.184e+04 1.021e-09
 37.64444    102.7 1.168e+04 9.304e-10
 37.65544    102.9 1.166e+04 9.018e-10
 37.66890    102.9 1.148e+04 7.990e-10
 37.67989    103.6 1.155e+04 8.317e-10
 37.70229    103.7 1.115e+04 6.423e-10
 37.72438    105.3 1.156e+04 7.880e-10
 37.75364    106.2 1.108e+04 5.620e-10
 37.78082    106.5 1.046e+04 3.416e-10
 37.79616    106.6 1.026e+04 3.052e-10
 37.81295    108.4 1.055e+04 3.885e-10
 37.84160    108.7 1.003e+04 2.490e-10
 37.87954    108.9 9.703e+03 1.717e-10
 37.90153    110.3 9.774e+03 1.934e-10
 37.92956    110.4 9.513e+03 1.377e-10
 37.96812    110.7 9.340e+03 1.079e-10
 37.99011    111.9 9.439e+03 1.166e-10
 38.01753    112.0 9.422e+03 1.159e-10
 38.05320    111.8 9.450e+03 1.261e-10
 38.07037    111.8 9.169e+03 1.079e-10
 38.07868    112.9 9.395e+03 1.371e-10
 38.10549    112.1 9.620e+03 1.716e-10
 38.14527    110.8 1.002e+04 2.319e-10
 38.16716    110.8 1.021e+04 2.782e-10
 38.18226    109.4 1.056e+04 3.571e-10
 38.20018    107.7 1.097e+04 5.162e-10
 38.20729    108.1 1.086e+04 4.840e-10
 38.21135    107.8 1.122e+04 6.686e-10
 38.22624    106.5 1.159e+04 9.156e-10
 38.24465    105.5 1.186e+04 1.089e-09
 38.25564    105.5 1.228e+04 1.447e-09
 38.27022    104.3 1.248e+04 1.443e-09
 38.28893    102.3 1.264e+04 1.388e-09
 38.29993    102.1 1.313e+04 1.754e-09
 38.31420     99.1 1.311e+04 1.657e-09
 38.33322     96.3 1.274e+04 1.578e-09
 38.34422     95.7 1.303e+04 1.856e-09
 38.34736     93.9 1.259e+04 1.714e-09
 38.35836     94.6 1.282e+04 1.827e-09
 38.37751     93.0 1.239e+04 1.583e-09
 38.38851     92.4 1.240e+04 1.617e-09
 38.41090     90.5 1.181e+04 1.200e-09
 38.43299     90.2 1.152e+04 9.850e-10
 38.45733     88.2 1.033e+04 4.554e-10
 38.49958     86.1 9.554e+03 2.430e-10
 38.52157     85.3 9.181e+03 1.648e-10
 38.54530     84.7 8.947e+03 1.547e-10
 38.58815     84.7 8.807e+03 1.526e-10
 38.61014     84.8 8.692e+03 1.322e-10
 38.61993     85.5 8.633e+03 1.306e-10
 38.64192     85.1 8.624e+03 1.318e-10
 38.67673     85.9 8.498e+03 1.222e-10
 38.69872     86.2 8.454e+03 1.088e-10
 38.72122     87.2 8.332e+03 9.465e-11
 38.76520     88.1 8.235e+03 8.049e-11
 38.80918     89.5 8.140e+03 7.339e-11
 38.85316     90.7 8.145e+03 7.470e-11
 38.87587     92.0 8.197e+03 8.009e-11
 38.89302     92.6 8.218e+03 8.874e-11
 38.91430     92.5 8.221e+03 8.925e-11
 38.94113     93.8 8.351e+03 1.047e-10
 38.96445     94.9 8.524e+03 1.288e-10
 38.98644     95.7 8.596e+03 1.479e-10
 39.02909     96.7 8.821e+03 1.856e-10
 39.05302     97.6 9.091e+03 2.383e-10
 39.07502     98.4 9.191e+03 2.702e-10
 39.11705     99.0 9.479e+03 3.268e-10
 39.14160     99.0 9.738e+03 3.830e-10
 39.16359     99.5 9.813e+03 4.135e-10
 39.18667     99.6 1.010e+04 5.090e-10
 39.20866     98.6 1.037e+04 6.125e-10
 39.23018     98.8 1.073e+04 7.379e-10
 39.25217     99.3 1.061e+04 6.835e-10
 39.29297     99.4 1.064e+04 6.682e-10
 39.31875     99.4 1.057e+04 5.912e-10
 39.34075    100.1 1.033e+04 4.882e-10
 39.38093     99.9 1.017e+04 4.127e-10
 39.40733     99.5 1.009e+04 3.695e-10
 39.42932    100.3 9.930e+03 3.305e-10
 39.45904     99.8 1.008e+04 3.759e-10
 39.48093     99.0 1.027e+04 4.411e-10
 39.49571     98.7 1.054e+04 5.606e-10
 39.50671     99.3 1.062e+04 6.102e-10
 39.52368     99.3 1.078e+04 6.915e-10
 39.55676     99.5 1.105e+04 8.426e-10
 39.58448     99.3 1.096e+04 7.769e-10
 39.60647    100.3 1.134e+04 9.575e-10
 39.64482     99.6 1.105e+04 7.048e-10
 39.67306     97.9 1.070e+04 5.380e-10
 39.69505     98.3 1.096e+04 5.807e-10
 39.73141     96.9 1.071e+04 5.374e-10
 39.75340     94.7 1.061e+04 5.417e-10
 39.76164     94.7 1.036e+04 4.989e-10
 39.78363     94.4 1.034e+04 4.773e-10
 39.82074     95.1 1.001e+04 3.735e-10
 39.85021     95.9 9.725e+03 2.609e-10
 39.87220     95.4 9.651e+03 2.142e-10
 39.90871     95.9 9.459e+03 1.456e-10
 39.93879     96.5 9.289e+03 1.202e-10
 39.96078     95.9 9.306e+03 1.214e-10
 39.99667     97.1 9.246e+03 1.199e-10
 40.02578     98.4 9.259e+03 1.227e-10
 40.03449     97.4 9.048e+03 9.473e-11
 40.04936     96.9 9.185e+03 1.264e-10
 40.08463     98.6 9.288e+03 1.356e-10
 40.11594    100.5 9.361e+03 1.437e-10
 40.13793    100.0 9.586e+03 1.953e-10
 40.17259    102.0 9.581e+03 1.942e-10
 40.20452    104.1 9.562e+03 1.975e-10
 40.22651    103.5 9.742e+03 2.510e-10
 40.26055    105.7 9.673e+03 2.478e-10
 40.29310    108.2 9.683e+03 2.593e-10
 40.30870    107.4 9.764e+03 2.826e-10
 40.32014    106.6 9.670e+03 2.637e-10
 40.34851    109.2 9.683e+03 2.755e-10
 40.38167    112.0 9.869e+03 3.330e-10
 40.40366    110.9 9.760e+03 3.100e-10
 40.43648    113.5 1.028e+04 4.243e-10
 40.47025    115.5 1.079e+04 5.680e-10
 40.49214    114.8 1.075e+04 5.774e-10
 40.51325    115.4 1.080e+04 6.320e-10
 40.52534    116.2 1.088e+04 7.052e-10
 40.53633    115.2 1.087e+04 7.097e-10
 40.55723    115.8 1.099e+04 8.045e-10
 40.56963    116.4 1.116e+04 9.163e-10
 40.58062    115.0 1.119e+04 9.499e-10
 40.59232    115.3 1.146e+04 1.088e-09
 40.60331    114.5 1.105e+04 8.598e-10
 40.61391    113.7 1.136e+04 9.581e-10
 40.62491    112.2 1.156e+04 1.095e-09
 40.64519    110.4 1.231e+04 1.391e-09
 40.65820    107.9 1.336e+04 2.012e-09
 40.66920    107.4 1.319e+04 2.182e-09
 40.68917    105.8 1.370e+04 2.668e-09
 40.70249    104.2 1.374e+04 2.649e-09
 40.71349    103.7 1.348e+04 2.493e-09
 40.72851    102.1 1.310e+04 2.020e-09
 40.73950    102.0 1.304e+04 1.921e-09
 40.74678    100.0 1.222e+04 1.196e-09
 40.75777     99.2 1.179e+04 1.057e-09
 40.77713     96.2 1.088e+04 6.576e-10
 40.79107     93.1 1.006e+04 4.450e-10
 40.80206     93.7 1.007e+04 4.504e-10
 40.82111     91.7 9.540e+03 3.829e-10
 40.83536     90.5 9.485e+03 3.838e-10
 40.84635     91.6 9.506e+03 3.889e-10
 40.86469     90.7 9.534e+03 4.052e-10
 40.87569     91.1 9.556e+03 4.124e-10
 40.87964     90.5 9.655e+03 4.570e-10
 40.89064     91.4 9.706e+03 4.659e-10
 40.90908     91.2 9.866e+03 5.441e-10
 40.92393     91.5 1.004e+04 6.125e-10
 40.93493     92.0 1.021e+04 6.891e-10
 40.95306     92.3 1.031e+04 7.163e-10
 40.96822     92.6 1.029e+04 6.928e-10
 40.97922     93.1 1.059e+04 8.363e-10
 40.99704     93.5 1.048e+04 7.446e-10
 41.01187     93.7 1.021e+04 5.933e-10
 41.01635     93.9 1.014e+04 5.611e-10
 41.02350     94.4 1.056e+04 7.239e-10
 41.04102     94.4 1.022e+04 5.632e-10
 41.05680     94.1 9.809e+03 4.429e-10
 41.06779     94.6 1.030e+04 5.925e-10
 41.09019     94.4 9.911e+03 4.583e-10
 41.11218     94.8 1.025e+04 5.750e-10
 41.13716     95.5 1.032e+04 5.818e-10
 41.15915     95.8 1.033e+04 6.567e-10
 41.17296     96.0 1.021e+04 6.032e-10
 41.18966     96.2 1.011e+04 5.626e-10
 41.20066     96.5 1.055e+04 7.351e-10
 41.21694     96.8 1.043e+04 6.835e-10
 41.23395     97.1 1.032e+04 6.441e-10
 41.24495     97.3 1.076e+04 8.217e-10
 41.26092     97.6 1.069e+04 7.908e-10
 41.27824     98.0 1.066e+04 7.592e-10
 41.28923     97.8 1.117e+04 9.749e-10
 41.29524     97.9 1.121e+04 9.725e-10
 41.30624     98.1 1.137e+04 1.116e-09
 41.32253     98.0 1.146e+04 1.109e-09
 41.33352     97.4 1.211e+04 1.503e-09
 41.34889     97.0 1.231e+04 1.592e-09
 41.36681     96.5 1.250e+04 1.740e-09
 41.37781     95.8 1.309e+04 2.268e-09
 41.39287     95.8 1.304e+04 2.258e-09
 41.41110     95.8 1.301e+04 2.183e-09
 41.42210     94.8 1.312e+04 2.201e-09
 41.43153     94.9 1.288e+04 1.890e-09
 41.45017     94.5 1.265e+04 1.693e-09
 41.46658     92.4 1.241e+04 1.317e-09
 41.49202     90.3 1.150e+04 7.387e-10
 41.53317     88.0 1.109e+04 6.542e-10
 41.55516     86.5 1.061e+04 5.491e-10
 41.57998     85.6 1.074e+04 6.363e-10
 41.62174     84.7 1.127e+04 8.797e-10
 41.64374     84.2 1.067e+04 6.620e-10
 41.66794     83.2 1.131e+04 8.981e-10
 41.70400     82.0 1.228e+04 1.423e-09
 41.72438     82.8 1.237e+04 1.715e-09
 41.73231     82.9 1.121e+04 9.278e-10
 41.75590     82.7 1.146e+04 9.763e-10
 41.79890     82.0 1.146e+04 9.454e-10
 41.82089     81.6 9.614e+03 3.473e-10
 41.84387     80.6 9.847e+03 4.018e-10
 41.88747     80.5 1.020e+04 5.470e-10
 41.90946     81.1 9.406e+03 3.370e-10
 41.93183     81.7 9.890e+03 5.154e-10
 41.97581     82.3 9.993e+03 5.753e-10
 41.99804     82.9 9.829e+03 5.285e-10
 41.99860     83.9 9.655e+03 4.654e-10
 42.02035     84.7 9.781e+03 5.021e-10
 42.06377     85.4 9.553e+03 4.368e-10
 42.08662     86.1 9.082e+03 3.038e-10
 42.10861     86.9 9.056e+03 2.928e-10
 42.15173     87.6 8.585e+03 1.892e-10
 42.17519     88.2 8.171e+03 1.157e-10
 42.19718     89.1 8.199e+03 1.211e-10
 42.23969     89.6 7.897e+03 7.854e-11
 42.26377     90.1 7.657e+03 6.118e-11
 42.27282     91.2 7.736e+03 6.846e-11
 42.29272     92.2 7.875e+03 8.561e-11
 42.32766     93.0 7.851e+03 8.394e-11
 42.35235     93.4 7.937e+03 9.267e-11
 42.37434     94.5 8.084e+03 1.102e-10
 42.41562     94.4 8.515e+03 1.678e-10
 42.44092     93.2 9.280e+03 2.895e-10
 42.45182     94.2 9.235e+03 2.847e-10
 42.47040     93.2 9.625e+03 3.671e-10
 42.48502     91.5 1.046e+04 6.710e-10
 42.49601     91.8 1.063e+04 7.663e-10
 42.51438     90.7 1.127e+04 1.210e-09
 42.52931     90.0 1.177e+04 1.607e-09
 42.54030     90.1 1.194e+04 1.691e-09
 42.55391     88.8 1.219e+04 1.747e-09
 42.56490     89.2 1.218e+04 1.728e-09
 42.57359     87.0 1.225e+04 1.613e-09
 42.58459     86.9 1.227e+04 1.619e-09
 42.60234     83.2 1.223e+04 1.326e-09
 42.61788     78.4 1.190e+04 1.146e-09
 42.62888     78.4 1.170e+04 1.057e-09
 42.64632     74.6 1.099e+04 9.164e-10
 42.66217     72.1 1.047e+04 8.239e-10
 42.67317     72.2 1.056e+04 7.270e-10
 42.69009     64.3 1.452e+04 9.475e-10
 42.70109     57.6 1.967e+04 1.309e-09
 42.70646     39.8 2.189e+04 6.991e-09
 42.71191     37.9 2.092e+04 1.007e-08
 42.71769     36.9 2.119e+04 1.103e-08
 42.72850     34.8 1.886e+04 2.436e-08
 42.73400     35.0 1.862e+04 3.078e-08
 42.73968     36.2 1.815e+04 3.639e-08
 42.75065     37.6 1.883e+04 4.125e-08
 42.76164     37.0 2.258e+04 3.915e-08
 42.76908     32.3 2.735e+04 2.736e-08
 42.77458     30.6 2.870e+04 2.371e-08
 42.77829     21.2 3.186e+04 1.106e-08
 42.78379     17.6 3.029e+04 8.239e-09
 42.79499      3.8 2.062e+04 4.918e-09
 42.80603     -2.8 1.578e+04 3.808e-09
 42.82225     -6.0 1.386e+04 3.321e-09
 42.83727     -6.5 1.399e+04 2.467e-09
 42.84335     -6.8 1.350e+04 1.877e-09
 42.85032     -8.8 1.298e+04 1.321e-09
 42.86623    -12.7 1.156e+04 7.315e-10
 42.88361    -15.3 1.060e+04 5.672e-10
 42.89461    -16.2 1.058e+04 5.709e-10
 42.91021    -16.6 1.049e+04 5.532e-10
 42.92790    -16.7 1.049e+04 5.585e-10
 42.93889    -17.3 1.055e+04 5.922e-10
 42.95419    -17.0 1.057e+04 6.168e-10
 42.97219    -16.5 1.059e+04 6.340e-10
 42.98046    -16.9 1.059e+04 6.618e-10
 42.98446    -16.5 1.040e+04 5.022e-10
 42.99817    -15.8 1.030e+04 4.801e-10
 43.01648    -15.1 1.023e+04 4.326e-10
 43.02747    -15.3 1.019e+04 4.321e-10
 43.04215    -14.7 1.007e+04 3.829e-10
 43.06086    -13.9 9.934e+03 3.444e-10
 43.08295    -14.3 9.931e+03 3.615e-10
 43.10984    -12.5 9.536e+03 2.689e-10
 43.13183    -11.7 9.197e+03 1.624e-10
 43.14954     -9.6 8.924e+03 1.151e-10
 43.17153    -10.0 9.156e+03 1.660e-10
 43.20728     -7.9 8.980e+03 1.328e-10
 43.23811     -5.7 8.822e+03 1.127e-10
 43.26010     -5.8 9.264e+03 2.239e-10
 43.29524     -3.5 9.100e+03 1.956e-10
 43.32669     -1.3 9.021e+03 1.814e-10
 43.34868     -1.2 9.590e+03 3.482e-10
 43.38221      0.9 9.521e+03 3.205e-10
 43.40421      1.1 9.676e+03 3.492e-10
 43.41527      3.1 9.586e+03 3.262e-10
 43.43726      3.0 1.020e+04 5.699e-10
 43.47116      4.9 9.991e+03 4.977e-10
 43.50384      6.7 9.747e+03 4.354e-10
 43.52583      6.7 1.004e+04 5.608e-10
 43.55912      8.6 9.623e+03 4.154e-10
 43.59242     10.4 9.259e+03 2.957e-10
 43.61441      9.8 9.301e+03 2.955e-10
 43.64708     10.8 9.119e+03 2.270e-10
 43.67658     11.4 9.098e+03 2.083e-10
 43.68850     11.2 9.213e+03 2.419e-10
 43.70299      9.9 9.607e+03 3.635e-10
 43.73505     11.0 9.665e+03 3.986e-10
 43.76957     12.4 9.632e+03 4.261e-10
 43.79156     12.5 9.920e+03 5.538e-10
 43.82301     14.4 9.408e+03 3.289e-10
 43.85815     15.5 8.897e+03 1.715e-10
 43.88014     14.6 8.800e+03 1.433e-10
 43.91097     15.2 8.425e+03 9.050e-11
 43.94673     16.5 8.195e+03 7.496e-11
 43.96272     15.9 8.312e+03 8.456e-11
 43.97094     15.4 8.520e+03 1.079e-10
 43.99893     17.2 8.509e+03 1.054e-10
 44.03530     19.1 8.512e+03 1.074e-10
 44.05729     17.4 9.465e+03 2.700e-10
 44.08689     18.2 9.782e+03 3.021e-10
 44.12388     18.2 1.031e+04 4.665e-10
 44.14587     17.2 1.119e+04 1.022e-09
 44.17486     18.5 1.129e+04 1.154e-09
 44.21245     20.5 1.159e+04 1.270e-09
 44.23445     19.2 1.110e+04 8.474e-10
 44.24331     19.6 1.086e+04 5.187e-10
 44.26530     18.2 1.004e+04 3.578e-10
 44.30103     16.6 9.642e+03 2.923e-10
 44.32302     13.9 9.377e+03 2.967e-10
 44.35078     12.7 1.034e+04 5.188e-10
 44.37940     12.0 1.122e+04 9.104e-10
 44.39030     12.0 1.098e+04 7.771e-10
 44.40041     11.8 1.176e+04 9.970e-10
 44.41150     11.8 1.128e+04 9.839e-10
 44.43874     10.5 1.172e+04 1.140e-09
 44.47818      8.8 1.147e+04 9.975e-10
 44.50017      9.2 1.097e+04 8.445e-10
 44.51569      8.5 1.030e+04 5.331e-10
 44.53335      8.7 1.038e+04 5.472e-10
 44.54427      9.0 1.023e+04 4.875e-10
 44.55949      8.6 1.014e+04 3.713e-10
 44.57756      8.7 1.023e+04 3.374e-10
 44.58856      9.3 1.007e+04 3.021e-10
 44.60347      8.5 9.964e+03 2.706e-10
 44.62185      8.3 1.048e+04 3.000e-10
 44.63284      9.1 1.024e+04 2.902e-10
 44.64746      7.9 1.116e+04 3.864e-10
 44.66267      5.1 1.242e+04 8.140e-10
 44.67036      3.5 1.327e+04 1.171e-09
 44.67713      4.7 1.295e+04 8.779e-10
 44.69144      1.7 1.500e+04 2.698e-09
 44.71043      0.2 1.747e+04 7.942e-09
 44.72142      0.1 1.810e+04 6.288e-09
 44.72987     -0.7 1.980e+04 1.550e-08
 44.73617     -1.3 2.114e+04 2.784e-08
 44.73882     -1.6 2.112e+04 2.969e-08
 44.74347     -2.3 2.114e+04 2.831e-08
 44.75181     -3.1 2.191e+04 5.256e-08
 44.76011     -3.3 2.212e+04 1.117e-07
 44.76561     -4.2 2.178e+04 1.016e-07
 44.77380     -4.4 2.161e+04 2.134e-07
 44.78226     -4.7 2.139e+04 3.770e-07
 44.78776     -5.4 2.117e+04 2.700e-07
 44.79579     -6.3 2.134e+04 3.637e-07
 44.80426     -8.2 2.157e+04 3.825e-07
 44.80737     -8.9 2.209e+04 2.733e-07
 44.80990     -8.8 2.185e+04 1.871e-07
 44.81778    -10.5 2.228e+04 1.777e-07
 44.82655    -12.1 2.299e+04 1.394e-07
 44.83204    -11.8 2.195e+04 9.407e-08
 44.83977    -13.0 2.251e+04 8.591e-08
 44.84869    -14.8 2.363e+04 8.180e-08
 44.85419    -14.8 2.252e+04 5.430e-08
 44.86176    -16.8 2.362e+04 6.495e-08
 44.87083    -18.3 2.419e+04 8.149e-08
 44.87593    -19.1 2.391e+04 5.513e-08
 44.87785    -19.9 2.396e+04 6.345e-08
 44.88376    -21.3 2.405e+04 8.317e-08
 44.89298    -23.4 2.398e+04 9.217e-08
 44.89848    -24.3 2.400e+04 6.846e-08
 44.90575    -27.0 2.384e+04 7.416e-08
 44.91512    -30.3 2.362e+04 7.268e-08
 44.92062    -30.8 2.428e+04 5.438e-08
 44.92774    -34.1 2.421e+04 5.383e-08
 44.93727    -37.7 2.412e+04 4.708e-08
 44.94276    -37.6 2.384e+04 3.534e-08
 44.94594    -41.0 2.304e+04 2.864e-08
 44.95144    -40.5 2.301e+04 2.499e-08
 44.95941    -42.8 2.221e+04 2.005e-08
 44.96491    -42.9 2.170e+04 1.847e-08
 44.97611    -45.0 2.114e+04 1.542e-08
 44.98715    -43.8 1.924e+04 1.215e-08
 44.99930    -46.2 1.839e+04 9.135e-09
 45.02044    -48.3 1.728e+04 6.875e-09
 45.03144    -46.2 1.641e+04 5.337e-09
 45.04328    -47.9 1.565e+04 4.365e-09
 45.06473    -48.9 1.479e+04 3.699e-09
 45.07573    -47.4 1.458e+04 2.890e-09
 45.08223    -48.0 1.395e+04 2.612e-09
 45.09322    -47.4 1.425e+04 3.283e-09
 45.10902    -47.6 1.344e+04 2.619e-09
 45.12002    -46.8 1.341e+04 2.277e-09
 45.13125    -47.0 1.275e+04 1.909e-09
 45.15324    -47.0 1.216e+04 1.563e-09
 45.17523    -46.1 1.157e+04 1.242e-09
 45.19722    -45.8 1.114e+04 1.027e-09
 45.20859    -45.3 1.066e+04 8.193e-10
 45.23068    -44.1 1.058e+04 7.635e-10
 45.27438    -42.9 9.882e+03 5.217e-10
 45.29736    -41.5 9.263e+03 3.650e-10
 45.31935    -39.9 9.349e+03 3.694e-10
 45.35480    -38.7 9.095e+03 3.188e-10
 45.37679    -38.3 8.973e+03 3.082e-10
 45.38594    -37.1 8.779e+03 2.772e-10
 45.40793    -35.4 9.043e+03 3.160e-10
 45.45030    -34.4 9.020e+03 3.258e-10
 45.47452    -33.7 9.020e+03 3.411e-10
 45.49651    -31.9 9.169e+03 3.548e-10
 45.53826    -31.4 9.169e+03 3.606e-10
 45.56309    -31.1 9.002e+03 3.456e-10
 45.58508    -29.3 9.053e+03 3.420e-10
 45.62623    -29.2 8.814e+03 2.860e-10
 45.64916    -29.7 8.608e+03 2.313e-10
 45.65261    -29.2 8.637e+03 2.464e-10
 45.67366    -27.8 8.716e+03 2.575e-10
 45.71419    -28.7 8.579e+03 2.141e-10
 45.74025    -29.8 8.591e+03 2.079e-10
 45.76224    -28.6 8.840e+03 2.260e-10
 45.80215    -30.2 8.916e+03 2.385e-10
 45.82882    -31.3 9.211e+03 3.106e-10
 45.85081    -30.8 9.255e+03 3.266e-10
 45.89011    -31.6 9.436e+03 3.983e-10
 45.91730    -32.0 9.508e+03 4.254e-10
 45.92663    -32.1 9.556e+03 4.680e-10
 45.93233    -31.8 9.537e+03 4.253e-10
 45.94489    -32.2 9.566e+03 4.634e-10
 45.96149    -32.4 9.632e+03 5.059e-10
 45.97249    -32.1 9.788e+03 5.890e-10
 45.98887    -32.0 9.872e+03 6.141e-10
 46.00578    -32.0 9.950e+03 6.213e-10
 46.01678    -31.5 1.010e+04 6.471e-10
 46.03285    -31.6 1.007e+04 6.140e-10
 46.05007    -31.7 1.007e+04 6.041e-10
 46.06106    -31.4 1.002e+04 5.649e-10
 46.06852    -31.6 9.990e+03 5.372e-10
 46.07951    -31.4 1.032e+04 6.967e-10
 46.09436    -31.5 1.036e+04 7.074e-10
 46.11645    -31.5 9.977e+03 4.910e-10
 46.15400    -30.9 1.008e+04 5.197e-10
 46.18313    -30.0 1.010e+04 5.256e-10
 46.20105    -29.2 9.683e+03 3.528e-10
 46.21590    -28.9 1.015e+04 5.339e-10
 46.24196    -27.9 9.906e+03 4.423e-10
 46.27171    -27.0 9.597e+03 3.318e-10
 46.29370    -26.1 9.631e+03 3.081e-10
 46.32992    -24.8 9.368e+03 2.445e-10
 46.36028    -23.4 9.139e+03 1.803e-10
 46.38227    -22.0 9.226e+03 1.888e-10
 46.41788    -20.8 9.051e+03 1.464e-10
 46.44886    -19.7 8.912e+03 1.229e-10
 46.47085    -18.7 9.272e+03 1.698e-10
 46.48827    -17.5 9.176e+03 1.650e-10
 46.51026    -17.5 9.463e+03 2.039e-10
 46.53744    -16.0 9.443e+03 2.118e-10
 46.55943    -15.9 9.751e+03 2.844e-10
 46.59381    -13.9 9.731e+03 2.902e-10
 46.62436    -12.2 9.690e+03 2.934e-10
 46.63447    -12.4 9.856e+03 3.315e-10
 46.63681    -12.6 1.005e+04 4.138e-10
 46.64859    -11.7 1.008e+04 4.202e-10
 46.67010    -11.5 1.081e+04 4.992e-10
 46.68110    -13.1 1.183e+04 7.135e-10
 46.69257    -14.5 1.299e+04 1.080e-09
 46.71439    -15.7 1.375e+04 1.750e-09
 46.72539    -17.1 1.407e+04 2.607e-09
 46.73655    -16.4 1.443e+04 3.773e-09
 46.75854    -15.0 1.460e+04 4.805e-09
 46.76968    -13.8 1.469e+04 5.232e-09
 46.77158    -13.9 1.450e+04 4.879e-09
 46.78244    -13.2 1.506e+04 6.076e-09
 46.80252    -12.3 1.484e+04 5.018e-09
 46.81396    -12.0 1.456e+04 3.728e-09
 46.82496    -14.4 1.358e+04 1.992e-09
 46.84650    -15.5 1.289e+04 1.481e-09
 46.85825    -17.5 1.233e+04 1.215e-09
 46.86925    -19.5 1.158e+04 9.465e-10
 46.89164    -21.0 1.135e+04 9.990e-10
 46.91373    -23.8 1.040e+04 6.882e-10
 46.94565    -24.1 1.072e+04 7.788e-10
 46.98032    -25.1 1.101e+04 8.301e-10
 47.00231    -26.6 1.033e+04 5.489e-10
 47.03301    -28.8 1.040e+04 5.212e-10
 47.05501    -31.9 1.035e+04 5.246e-10
 47.06889    -34.8 1.029e+04 5.308e-10
 47.09088    -34.3 9.566e+03 3.485e-10
 47.12158    -36.8 1.010e+04 5.135e-10
 47.15747    -39.1 1.082e+04 8.124e-10
 47.17946    -37.1 1.046e+04 6.631e-10
 47.20954    -39.0 1.111e+04 9.449e-10
 47.24243    -39.9 1.145e+04 1.096e-09
 47.25685    -41.3 1.154e+04 1.133e-09
 47.26784    -39.5 1.141e+04 1.089e-09
 47.29740    -40.6 1.145e+04 1.101e-09
 47.32738    -43.8 1.128e+04 1.078e-09
 47.34251    -44.7 1.093e+04 8.750e-10
 47.35661    -41.8 1.092e+04 9.513e-10
 47.38546    -44.2 1.031e+04 6.117e-10
 47.42320    -46.2 9.962e+03 4.727e-10
 47.44519    -43.5 1.039e+04 6.273e-10
 47.46233    -45.6 1.021e+04 5.451e-10
 47.47436    -46.0 1.018e+04 5.477e-10
 47.47942    -45.8 9.942e+03 4.983e-10
 47.48928    -44.8 1.014e+04 5.973e-10
 47.50622    -45.4 9.983e+03 5.862e-10
 47.52258    -45.6 9.877e+03 5.647e-10
 47.53357    -44.3 1.033e+04 7.623e-10
 47.55020    -44.3 1.014e+04 6.927e-10
 47.56687    -44.4 9.907e+03 6.013e-10
 47.57786    -43.1 1.033e+04 7.849e-10
 47.59418    -43.3 1.002e+04 6.531e-10
 47.61055    -43.5 9.821e+03 5.715e-10
 47.61653    -43.1 9.763e+03 5.783e-10
 47.62215    -41.9 1.009e+04 7.053e-10
 47.63816    -42.2 9.953e+03 6.439e-10
 47.65544    -42.5 9.931e+03 6.285e-10
 47.66644    -41.5 1.019e+04 7.036e-10
 47.68214    -41.9 1.016e+04 6.845e-10
 47.69973    -42.1 1.016e+04 6.784e-10
 47.71073    -41.5 1.043e+04 7.402e-10
 47.72612    -41.7 1.042e+04 7.146e-10
 47.74402    -41.6 1.038e+04 6.689e-10
 47.75364    -41.2 1.061e+04 7.467e-10
 47.75773    -40.7 1.050e+04 7.702e-10
 47.77010    -40.7 1.036e+04 6.947e-10
 47.78831    -40.7 1.015e+04 6.019e-10
 47.79930    -40.2 1.042e+04 6.888e-10
 47.81408    -40.2 1.015e+04 5.947e-10
 47.83259    -40.2 9.856e+03 5.091e-10
 47.84359    -39.7 1.020e+04 6.319e-10
 47.85806    -39.7 9.922e+03 5.540e-10
 47.87688    -39.5 9.689e+03 4.945e-10
 47.88788    -39.1 1.023e+04 6.732e-10
 47.89392    -39.0 1.008e+04 6.239e-10
 47.90491    -38.5 9.980e+03 5.126e-10
 47.92117    -38.5 9.913e+03 4.488e-10
 47.93217    -38.6 1.052e+04 6.436e-10
 47.94603    -38.7 1.047e+04 5.661e-10
 47.96546    -38.9 1.041e+04 5.039e-10
 47.97645    -38.8 1.119e+04 7.602e-10
 47.99001    -39.0 1.104e+04 6.587e-10
 48.00975    -39.2 1.082e+04 5.761e-10
 48.02074    -39.3 1.151e+04 7.988e-10
 48.03011    -39.6 1.109e+04 6.620e-10
 48.04110    -40.2 1.011e+04 5.625e-10
 48.05404    -40.4 9.846e+03 5.169e-10
 48.06503    -40.9 1.009e+04 6.080e-10
 48.07797    -40.9 9.836e+03 5.482e-10
 48.09832    -41.1 9.667e+03 5.040e-10
 48.10932    -41.5 9.834e+03 5.461e-10
 48.12195    -41.6 9.689e+03 4.925e-10
 48.14261    -41.9 9.625e+03 4.444e-10
 48.15361    -42.3 9.716e+03 4.669e-10
 48.16593    -42.6 9.668e+03 4.176e-10
 48.17729    -42.9 9.692e+03 3.876e-10
 48.18838    -42.8 1.007e+04 3.409e-10
 48.22039    -43.5 9.910e+03 3.032e-10
 48.24238    -44.1 1.000e+04 3.386e-10
 48.26508    -44.5 9.779e+03 3.086e-10
 48.30897    -44.7 9.556e+03 2.669e-10
 48.35295    -45.3 9.710e+03 3.146e-10
 48.39702    -45.5 9.588e+03 2.830e-10
 48.41953    -45.4 9.445e+03 2.565e-10
 48.43938    -46.6 9.694e+03 3.389e-10
 48.46085    -47.3 9.512e+03 2.626e-10
 48.48499    -47.2 9.339e+03 2.420e-10
 48.50811    -47.2 9.290e+03 2.347e-10
 48.53010    -48.4 9.361e+03 2.773e-10
 48.57295    -48.3 9.362e+03 2.763e-10
 48.59669    -48.4 9.587e+03 3.117e-10
 48.61868    -49.2 9.649e+03 3.665e-10
 48.66091    -49.4 9.906e+03 4.395e-10
 48.68526    -49.5 1.004e+04 4.892e-10
 48.70725    -50.1 9.884e+03 4.625e-10
 48.73322    -50.1 9.732e+03 4.351e-10
 48.75521    -50.3 9.496e+03 4.089e-10
 48.77384    -49.7 9.221e+03 3.436e-10
 48.79583    -49.4 9.047e+03 3.219e-10
 48.83683    -48.5 8.822e+03 2.712e-10
 48.86242    -47.4 8.638e+03 2.307e-10
 48.88441    -46.9 8.622e+03 2.303e-10
 48.92480    -45.7 8.501e+03 2.023e-10
 48.95099    -44.4 8.415e+03 1.813e-10
 48.97298    -43.8 8.422e+03 1.858e-10
 49.00560    -42.5 8.377e+03 1.732e-10
 49.02759    -42.6 8.331e+03 1.593e-10
 49.03957    -41.4 8.320e+03 1.538e-10
 49.06156    -41.1 8.448e+03 1.856e-10
 49.10072    -40.0 8.521e+03 1.964e-10
 49.12815    -39.2 8.647e+03 2.119e-10
 49.15014    -39.0 8.878e+03 2.799e-10
 49.18868    -38.4 9.079e+03 3.157e-10
 49.21672    -38.3 9.416e+03 3.844e-10
 49.23871    -37.7 9.349e+03 3.714e-10
 49.27664    -37.8 9.654e+03 4.415e-10
 49.29996    -38.4 1.023e+04 5.970e-10
 49.30662    -38.9 1.005e+04 5.102e-10
 49.32729    -39.6 1.008e+04 4.718e-10
 49.36461    -42.6 1.141e+04 9.061e-10
 49.39378    -44.8 1.234e+04 1.570e-09
 49.40467    -45.1 1.257e+04 1.769e-09
 49.41939    -46.5 1.313e+04 2.406e-09
 49.43595    -47.7 1.347e+04 2.843e-09
 49.44354    -48.2 1.349e+04 2.769e-09
 49.44896    -48.3 1.350e+04 2.806e-09
 49.46337    -49.8 1.351e+04 2.713e-09
 49.48226    -51.7 1.302e+04 1.937e-09
 49.49325    -52.3 1.269e+04 1.647e-09
 49.50735    -55.5 1.146e+04 9.352e-10
 49.52654    -58.8 1.015e+04 5.714e-10
 49.53754    -59.2 9.848e+03 5.289e-10
 49.55133    -60.9 9.364e+03 4.207e-10
 49.57083    -61.6 9.239e+03 3.869e-10
 49.58074    -60.9 9.173e+03 3.693e-10
 49.58323    -60.7 9.583e+03 4.459e-10
 49.59531    -61.1 9.392e+03 4.055e-10
 49.62839    -61.9 9.012e+03 3.404e-10
 49.65960    -62.6 8.779e+03 3.007e-10
 49.68159    -61.9 8.645e+03 2.733e-10
 49.71645    -62.4 8.435e+03 2.370e-10
 49.74818    -62.6 8.319e+03 2.116e-10
 49.77017    -62.2 8.188e+03 1.968e-10
 49.80441    -62.3 7.967e+03 1.693e-10
 49.83676    -61.8 7.752e+03 1.483e-10
 49.85506    -61.5 7.727e+03 1.487e-10
 49.86670    -62.4 7.952e+03 1.929e-10
 49.89238    -61.8 7.832e+03 1.750e-10
 49.92533    -61.0 7.804e+03 1.713e-10
 49.94732    -60.8 7.817e+03 1.812e-10
 49.98034    -60.1 7.852e+03 1.885e-10
 50.01391    -59.4 7.939e+03 2.050e-10
 50.03590    -59.5 8.029e+03 2.271e-10
 50.06830    -59.1 8.148e+03 2.491e-10
 50.10249    -58.8 8.315e+03 2.756e-10
 50.12448    -59.3 8.610e+03 3.329e-10
 50.13907    -59.2 8.905e+03 3.890e-10
 50.14997    -59.8 8.967e+03 3.977e-10
 50.15758    -59.9 9.135e+03 4.380e-10
 50.16857    -60.6 9.374e+03 5.107e-10
 50.18905    -60.7 9.579e+03 5.809e-10
 50.20186    -60.9 9.768e+03 6.552e-10
 50.21286    -61.5 9.990e+03 7.653e-10
 50.23303    -61.6 1.008e+04 8.117e-10
 50.24615    -61.7 1.011e+04 8.250e-10
 50.25715    -62.4 1.011e+04 8.164e-10
 50.27506    -62.6 9.990e+03 7.482e-10
 50.28606    -63.0 9.955e+03 7.392e-10
 50.29044    -63.1 9.710e+03 6.274e-10
 50.30144    -63.9 9.510e+03 5.419e-10
 50.33209    -64.0 9.190e+03 4.316e-10
 50.36822    -63.7 8.778e+03 3.279e-10
 50.39021    -64.7 8.406e+03 2.663e-10
 50.41144    -64.1 7.956e+03 1.999e-10
 50.43343    -64.7 7.844e+03 1.876e-10
 50.45679    -63.8 7.653e+03 1.608e-10
 50.47878    -64.0 7.521e+03 1.470e-10
 50.50811    -62.7 7.484e+03 1.396e-10
 50.54537    -61.3 7.459e+03 1.329e-10
 50.56736    -61.3 7.305e+03 1.116e-10
 50.59607    -60.0 7.281e+03 1.052e-10
 50.63395    -58.6 7.262e+03 1.002e-10
 50.65594    -58.8 7.199e+03 9.191e-11
 50.68382    -57.4 7.262e+03 9.858e-11
 50.70581    -57.9 7.331e+03 1.073e-10
 50.72252    -56.6 7.453e+03 1.205e-10
 50.74451    -57.1 7.721e+03 1.600e-10
 50.77200    -55.9 7.973e+03 1.964e-10
 50.81110    -54.9 8.294e+03 2.486e-10
 50.83309    -55.2 8.651e+03 3.266e-10
 50.85996    -54.5 9.035e+03 4.016e-10
 50.89968    -54.0 9.553e+03 5.206e-10
 50.92167    -54.8 9.548e+03 5.109e-10
 50.94792    -54.8 1.002e+04 6.444e-10
 50.97818    -55.0 1.032e+04 7.545e-10
 50.99652    -55.6 9.992e+03 6.104e-10
 51.01024    -56.6 9.712e+03 5.088e-10
 51.03588    -56.9 9.789e+03 5.249e-10
 51.07683    -57.1 9.804e+03 5.245e-10
 51.09882    -57.1 9.487e+03 4.172e-10
 51.12384    -57.1 9.563e+03 4.082e-10
 51.16541    -57.1 9.663e+03 4.060e-10
 51.18740    -56.9 9.358e+03 3.080e-10
 51.21180    -57.1 9.493e+03 3.148e-10
 51.25055    -57.3 9.609e+03 3.205e-10
 51.27074    -58.1 9.782e+03 3.584e-10
 51.27597    -58.2 9.871e+03 3.774e-10
 51.29977    -58.2 9.957e+03 3.950e-10
 51.34256    -58.1 9.962e+03 3.876e-10
 51.36455    -57.8 1.043e+04 5.491e-10
 51.38773    -57.8 1.047e+04 5.386e-10
 51.43114    -57.9 1.049e+04 5.075e-10
 51.45313    -57.5 1.101e+04 7.329e-10
 51.47569    -58.0 1.107e+04 7.146e-10
 51.51967    -58.7 1.128e+04 7.199e-10
 51.54492    -60.0 1.186e+04 9.295e-10
 51.56691    -61.4 1.211e+04 1.077e-09
 51.60763    -62.5 1.207e+04 9.461e-10
 51.63028    -63.5 1.196e+04 7.899e-10
 51.65227    -63.4 1.223e+04 9.245e-10
 51.69559    -64.3 1.200e+04 7.540e-10
 51.71886    -64.9 1.184e+04 6.784e-10
 51.74085    -64.5 1.176e+04 6.731e-10
 51.78356    -64.6 1.155e+04 6.073e-10
 51.80743    -64.7 1.129e+04 5.275e-10
 51.81917    -64.4 1.111e+04 4.803e-10
 51.83928    -64.7 1.105e+04 4.559e-10
 51.87152    -64.5 1.079e+04 3.684e-10
 51.89601    -64.0 1.053e+04 2.922e-10
 51.91800    -63.4 1.038e+04 2.572e-10
 51.95948    -62.7 1.018e+04 2.059e-10
 51.98458    -62.0 1.002e+04 1.683e-10
 52.00658    -61.2 9.919e+03 1.428e-10
 52.04744    -60.3 9.802e+03 1.184e-10
 52.07316    -59.3 9.697e+03 9.847e-11
 52.09339    -58.7 9.648e+03 8.196e-11
 52.11165    -58.8 9.727e+03 1.040e-10
 52.13540    -57.8 9.625e+03 8.873e-11
 52.16174    -56.7 9.529e+03 7.867e-11
 52.18373    -56.3 9.468e+03 7.367e-11
 52.22337    -55.2 9.435e+03 7.328e-11
 52.25031    -53.9 9.399e+03 7.418e-11
 52.27230    -53.5 9.372e+03 7.758e-11
 52.31133    -52.2 9.373e+03 8.102e-11
 52.33889    -51.0 9.387e+03 8.778e-11
 52.36088    -50.5 9.374e+03 9.478e-11
 52.38402    -49.6 9.452e+03 1.102e-10
 52.40601    -49.6 9.386e+03 1.040e-10
 52.42747    -48.7 9.552e+03 1.407e-10
 52.44946    -48.6 9.606e+03 1.535e-10
 52.48725    -47.9 9.896e+03 2.365e-10
 52.51604    -47.3 1.029e+04 3.757e-10
 52.53803    -47.5 1.035e+04 4.205e-10
 52.57521    -46.8 1.073e+04 5.952e-10
 52.60462    -46.0 1.113e+04 7.921e-10
 52.62661    -46.3 1.096e+04 7.491e-10
 52.65640    -45.5 1.119e+04 8.475e-10
 52.67839    -45.5 1.120e+04 8.627e-10
 52.69320    -44.7 1.137e+04 9.283e-10
 52.71519    -44.9 1.087e+04 6.699e-10
 52.75114    -44.0 1.086e+04 6.304e-10
 52.78177    -43.0 1.087e+04 5.998e-10
 52.80376    -43.4 1.017e+04 3.684e-10
 52.83910    -42.4 1.015e+04 3.573e-10
 52.87035    -41.6 1.016e+04 3.553e-10
 52.89234    -42.2 1.004e+04 3.362e-10
 52.92706    -42.0 1.016e+04 3.628e-10
 52.95076    -42.2 1.038e+04 4.321e-10
 52.96064    -41.8 1.098e+04 6.764e-10
 52.98092    -42.1 1.103e+04 7.168e-10
 53.01502    -42.6 1.128e+04 8.198e-10
 53.04750    -43.4 1.153e+04 9.071e-10
 53.06949    -44.0 1.112e+04 7.224e-10
 53.10298    -45.6 1.098e+04 6.109e-10
 53.13608    -48.0 1.077e+04 4.639e-10
 53.15807    -49.8 1.051e+04 4.049e-10
 53.19095    -53.1 1.049e+04 3.987e-10
 53.22313    -56.5 1.056e+04 4.452e-10
 53.23485    -56.7 1.124e+04 6.346e-10
 53.24665    -57.2 1.129e+04 6.750e-10
 53.27891    -59.7 1.134e+04 7.036e-10
 53.31323    -61.3 1.110e+04 5.977e-10
 53.33513    -61.2 1.098e+04 5.378e-10
 53.35568    -62.1 1.061e+04 3.984e-10
 53.36832    -62.5 1.050e+04 3.571e-10
 53.37177    -62.8 1.042e+04 3.316e-10
 53.38112    -63.1 1.040e+04 3.291e-10
 53.40171    -63.4 1.017e+04 2.872e-10
 53.42380    -63.6 1.030e+04 3.232e-10
 53.45483    -63.3 1.021e+04 3.215e-10
 53.49039    -62.8 1.027e+04 3.653e-10
 53.50907    -63.1 1.057e+04 4.662e-10
 53.51750    -63.7 1.067e+04 4.629e-10
 53.53170    -63.0 1.070e+04 5.116e-10
 53.54547    -63.0 1.078e+04 5.358e-10
 53.55647    -63.1 1.088e+04 5.786e-10
 53.57886    -62.8 1.082e+04 5.550e-10
 53.60095    -63.4 1.081e+04 5.319e-10
 53.63076    -62.8 1.070e+04 5.245e-10
 53.66754    -62.3 1.050e+04 4.787e-10
 53.68953    -63.4 1.026e+04 3.767e-10
 53.71872    -63.2 1.001e+04 3.194e-10
 53.75612    -63.2 9.803e+03 2.823e-10
 53.77811    -64.5 9.522e+03 2.269e-10
 53.78987    -64.4 9.402e+03 2.212e-10
 53.81186    -65.4 9.108e+03 1.592e-10
 53.84469    -65.3 9.040e+03 1.623e-10
 53.86668    -66.2 9.048e+03 1.635e-10
 53.89464    -66.1 8.889e+03 1.649e-10
 53.93327    -66.1 8.784e+03 1.568e-10
 53.95526    -67.2 8.837e+03 1.648e-10
 53.98260    -67.7 8.757e+03 1.594e-10
 54.02185    -68.3 8.721e+03 1.607e-10
 54.04384    -69.3 9.079e+03 2.294e-10
 54.06224    -69.7 9.083e+03 2.491e-10
 54.08423    -70.6 9.352e+03 3.192e-10
 54.11042    -70.8 9.271e+03 3.190e-10
 54.13241    -71.3 9.527e+03 3.729e-10
 54.15853    -71.6 9.176e+03 2.921e-10
 54.19900    -72.2 8.937e+03 2.365e-10
 54.22099    -73.2 9.390e+03 2.970e-10
 54.24649    -74.4 9.427e+03 2.969e-10
 54.28757    -75.8 9.740e+03 3.694e-10
 54.30947    -77.9 1.040e+04 6.419e-10
 54.32326    -78.5 1.047e+04 7.671e-10
 54.34266    -78.7 1.046e+04 8.099e-10
 54.35366    -79.1 1.070e+04 9.362e-10
 54.35641    -79.2 1.045e+04 7.923e-10
 54.36741    -79.3 1.041e+04 7.557e-10
 54.38695    -79.6 1.016e+04 5.726e-10
 54.39795    -80.9 1.010e+04 4.557e-10
 54.42231    -82.6 9.782e+03 3.212e-10
 54.46473    -84.1 9.682e+03 2.921e-10
 54.48672    -86.0 9.742e+03 3.030e-10
 54.51037    -87.4 9.855e+03 3.445e-10
 54.55330    -88.6 1.003e+04 4.140e-10
 54.57529    -89.0 1.007e+04 3.992e-10
 54.59834    -90.0 1.001e+04 3.530e-10
 54.62898    -91.3 9.857e+03 2.996e-10
 54.65053    -91.1 1.013e+04 3.709e-10
 54.66387    -91.5 1.005e+04 3.054e-10
 54.68630    -92.7 9.964e+03 2.907e-10
 54.73028    -94.3 9.817e+03 3.153e-10
 54.77426    -96.3 1.017e+04 4.121e-10
 54.81824    -98.8 1.053e+04 5.104e-10
 54.84102   -101.5 1.094e+04 6.443e-10
 54.86302   -102.8 1.162e+04 8.445e-10
 54.88522   -104.4 1.133e+04 7.734e-10
 54.89611   -106.0 1.159e+04 9.196e-10
 54.91215   -107.8 1.157e+04 1.012e-09
 54.92315   -107.6 1.136e+04 8.536e-10
 54.92941   -109.2 1.135e+04 9.400e-10
 54.94040   -110.2 1.139e+04 1.050e-09
 54.96098   -111.3 1.140e+04 1.062e-09
 54.97369   -112.4 1.154e+04 1.120e-09
 54.98469   -113.7 1.176e+04 1.175e-09
 55.00496   -115.1 1.216e+04 1.367e-09
 55.01798   -116.5 1.259e+04 1.631e-09
 55.02898   -118.4 1.321e+04 2.068e-09
 55.04834   -119.7 1.366e+04 2.588e-09
 55.05933   -118.9 1.313e+04 2.225e-09
 55.06227   -119.7 1.340e+04 2.607e-09
 55.07327   -120.9 1.383e+04 3.024e-09
 55.09293   -121.3 1.410e+04 3.397e-09
 55.10656   -121.6 1.441e+04 3.748e-09
 55.11755   -123.0 1.473e+04 3.709e-09
 55.13691   -123.3 1.493e+04 3.902e-09
 55.15085   -123.7 1.520e+04 4.039e-09
 55.16184   -125.4 1.470e+04 3.314e-09
 55.18089   -126.0 1.457e+04 3.204e-09
 55.19514   -126.9 1.440e+04 3.150e-09
 55.19877   -128.0 1.348e+04 2.303e-09
 55.20652   -127.2 1.311e+04 1.927e-09
 55.22487   -128.0 1.313e+04 1.928e-09
 55.23942   -128.9 1.329e+04 2.013e-09
 55.25042   -129.9 1.290e+04 1.635e-09
 55.26885   -131.0 1.313e+04 1.787e-09
 55.28371   -132.2 1.327e+04 1.997e-09
 55.29471   -133.0 1.282e+04 1.764e-09
 55.31283   -133.8 1.301e+04 2.066e-09
 55.32800   -134.3 1.316e+04 2.329e-09
 55.33588   -134.5 1.309e+04 2.277e-09
 55.34270   -134.1 1.327e+04 2.403e-09
 55.35681   -134.6 1.336e+04 2.572e-09
 55.37229   -135.1 1.337e+04 2.606e-09
 55.38328   -134.4 1.298e+04 2.301e-09
 55.40079   -134.5 1.269e+04 2.099e-09
 55.41658   -134.4 1.235e+04 1.760e-09
 55.42757   -134.4 1.216e+04 1.468e-09
 55.44477   -134.6 1.181e+04 1.199e-09
 55.46087   -134.8 1.146e+04 9.825e-10
 55.47309   -134.3 1.087e+04 7.311e-10
 55.48998   -133.7 1.091e+04 7.279e-10
 55.52184   -133.7 1.080e+04 6.477e-10
 55.54964   -133.5 1.061e+04 5.300e-10
 55.57163   -132.8 1.056e+04 4.852e-10
 55.60990   -132.5 1.065e+04 4.971e-10
 55.63821   -132.1 1.069e+04 5.091e-10
 55.66020   -131.6 1.073e+04 4.980e-10
 55.69786   -131.1 1.077e+04 4.996e-10
 55.72679   -130.6 1.078e+04 4.585e-10
 55.74740   -130.0 1.073e+04 4.314e-10
 55.76245   -129.5 1.106e+04 5.925e-10
 55.78582   -129.0 1.106e+04 5.458e-10
 55.81537   -128.4 1.098e+04 4.616e-10
 55.83736   -127.6 1.089e+04 4.045e-10
 55.87378   -127.1 1.090e+04 3.802e-10
 55.90394   -126.5 1.093e+04 3.768e-10
 55.92593   -126.1 1.103e+04 3.955e-10
 55.96174   -125.8 1.121e+04 4.451e-10
 55.99252   -125.5 1.132e+04 4.807e-10
 56.01451   -125.4 1.154e+04 6.194e-10
 56.03482   -125.4 1.157e+04 6.387e-10
 56.05682   -124.8 1.159e+04 6.658e-10
 56.08110   -124.4 1.151e+04 6.493e-10
 56.10309   -124.3 1.166e+04 7.955e-10
 56.13767   -123.3 1.133e+04 6.145e-10
 56.16967   -122.1 1.099e+04 4.517e-10
 56.19166   -121.8 1.092e+04 4.143e-10
 56.22563   -120.6 1.072e+04 3.033e-10
 56.25825   -119.4 1.061e+04 2.372e-10
 56.28024   -119.6 1.058e+04 2.149e-10
 56.30720   -118.5 1.051e+04 1.898e-10
 56.32919   -117.8 1.061e+04 1.988e-10
 56.34683   -116.8 1.060e+04 1.834e-10
 56.36882   -117.2 1.073e+04 2.262e-10
 56.40155   -116.3 1.074e+04 2.270e-10
 56.43540   -115.3 1.073e+04 2.414e-10
 56.45739   -115.8 1.086e+04 3.574e-10
 56.48952   -114.9 1.089e+04 4.068e-10
 56.52398   -113.9 1.098e+04 4.800e-10
 56.54597   -114.8 1.127e+04 6.458e-10
 56.57748   -114.0 1.144e+04 7.347e-10
 56.60156   -113.4 1.163e+04 8.086e-10
 56.61465   -113.3 1.164e+04 8.269e-10
 56.63455   -114.7 1.171e+04 8.989e-10
 56.66544   -114.5 1.175e+04 8.936e-10
 56.70113   -114.2 1.172e+04 8.556e-10
 56.72312   -115.7 1.143e+04 6.276e-10
 56.75340   -115.6 1.142e+04 5.393e-10
 56.78971   -115.6 1.145e+04 4.998e-10
 56.81170   -117.8 1.112e+04 3.951e-10
 56.84136   -117.5 1.113e+04 4.034e-10
 56.87393   -116.9 1.123e+04 4.314e-10
 56.88887   -116.9 1.088e+04 3.562e-10
 56.90028   -117.7 1.066e+04 3.344e-10
 56.92933   -117.1 1.081e+04 3.622e-10
 56.96686   -116.6 1.096e+04 3.787e-10
 56.98885   -117.7 1.085e+04 2.880e-10
 57.01729   -117.5 1.097e+04 2.761e-10
 57.05544   -117.0 1.099e+04 2.438e-10
 57.07743   -118.5 1.074e+04 2.050e-10
 57.10525   -117.9 1.065e+04 1.733e-10
 57.14401   -117.2 1.062e+04 1.544e-10
 57.16308   -118.9 1.073e+04 1.863e-10
 57.16830   -119.7 1.111e+04 1.932e-10
 57.19321   -121.6 1.217e+04 2.478e-10
 57.23259   -123.9 1.284e+04 4.778e-10
 57.25458   -128.8 1.361e+04 1.136e-09
 57.27008   -129.4 1.361e+04 1.389e-09
 57.28768   -130.0 1.380e+04 1.807e-09
 57.29867   -131.5 1.394e+04 2.210e-09
 57.30429   -131.8 1.396e+04 2.270e-09
 57.31528   -132.1 1.385e+04 2.024e-09
 57.33197   -132.6 1.370e+04 1.813e-09
 57.34296   -134.9 1.373e+04 1.372e-09
 57.35794   -136.9 1.366e+04 1.092e-09
 57.37626   -139.3 1.347e+04 9.019e-10
 57.38725   -143.9 1.382e+04 9.531e-10
 57.40192   -145.3 1.352e+04 9.716e-10
 57.42054   -146.1 1.303e+04 1.051e-09
 57.43154   -147.8 1.272e+04 1.498e-09
 57.44048   -147.4 1.243e+04 1.502e-09
 57.45147   -147.6 1.250e+04 1.677e-09
 57.46483   -147.2 1.233e+04 1.549e-09
 57.47583   -147.7 1.204e+04 1.541e-09
 57.48989   -147.2 1.174e+04 1.363e-09
 57.50912   -146.7 1.149e+04 1.203e-09
 57.52012   -147.3 1.102e+04 9.432e-10
 57.53387   -146.8 1.085e+04 8.271e-10
 57.55341   -146.4 1.072e+04 7.351e-10
 57.56440   -147.0 1.036e+04 5.414e-10
 57.57666   -146.6 1.024e+04 4.939e-10
 57.58766   -146.5 1.014e+04 4.335e-10
 57.59770   -146.1 1.003e+04 4.145e-10
 57.60879   -147.2 9.914e+03 3.664e-10
 57.63302   -146.1 9.652e+03 3.243e-10
 57.67547   -144.8 9.380e+03 2.806e-10
 57.69746   -145.2 8.805e+03 1.741e-10
 57.71304   -143.6 8.591e+03 1.443e-10
 57.73503   -143.2 8.530e+03 1.257e-10
 57.76405   -141.5 8.384e+03 1.085e-10
 57.78604   -141.5 8.180e+03 7.893e-11
 57.80894   -139.6 8.080e+03 6.468e-11
 57.85263   -137.8 8.009e+03 5.355e-11
 57.87462   -137.8 7.912e+03 4.405e-11
 57.89691   -136.2 7.856e+03 3.884e-11
 57.94089   -134.5 7.818e+03 3.649e-11
 57.96319   -132.8 7.808e+03 3.592e-11
 57.98518   -132.8 7.793e+03 3.499e-11
 58.00741   -131.2 7.797e+03 3.495e-11
 58.02940   -130.6 7.869e+03 3.685e-11
 58.05177   -129.2 7.992e+03 3.934e-11
 58.07376   -129.3 7.924e+03 4.187e-11
 58.11681   -128.0 8.006e+03 5.532e-11
 58.14035   -126.7 8.115e+03 7.919e-11
 58.16234   -126.6 8.078e+03 8.061e-11
 58.20477   -125.3 8.225e+03 1.157e-10
 58.22892   -123.9 8.411e+03 1.655e-10
 58.25091   -123.7 8.220e+03 1.274e-10
 58.27978   -122.4 8.373e+03 1.623e-10
 58.30177   -122.0 8.567e+03 2.115e-10
 58.31750   -120.7 8.713e+03 2.527e-10
 58.33949   -120.6 8.403e+03 1.621e-10
 58.38070   -119.4 8.460e+03 1.794e-10
 58.40608   -118.1 8.510e+03 1.989e-10
 58.42807   -118.1 8.198e+03 1.331e-10
 58.46866   -116.8 8.283e+03 1.538e-10
 58.49465   -115.3 8.408e+03 1.830e-10
 58.51664   -115.2 8.228e+03 1.490e-10
 58.55215   -113.6 8.382e+03 1.836e-10
 58.57414   -113.3 8.402e+03 1.655e-10
 58.58323   -111.6 8.618e+03 2.196e-10
 58.60522   -111.5 8.485e+03 1.870e-10
 58.64458   -109.7 8.670e+03 2.365e-10
 58.67181   -107.9 8.889e+03 2.977e-10
 58.69380   -108.1 8.821e+03 2.754e-10
 58.73254   -106.5 9.067e+03 3.481e-10
 58.76038   -104.9 9.430e+03 4.626e-10
 58.78237   -106.2 9.647e+03 5.088e-10
 58.82051   -104.9 1.024e+04 7.410e-10
 58.84652   -103.8 1.089e+04 1.053e-09
 58.85298   -103.3 1.130e+04 1.245e-09
 58.87095   -105.2 1.129e+04 1.230e-09
 58.90847   -104.4 1.173e+04 1.469e-09
 58.93754   -104.1 1.216e+04 1.594e-09
 58.95953   -106.8 1.137e+04 9.878e-10
 58.99643   -107.6 1.178e+04 1.027e-09
 59.02611   -109.4 1.223e+04 1.075e-09
 59.04810   -112.4 1.113e+04 6.118e-10
 59.08439   -114.0 1.159e+04 7.858e-10
 59.11469   -116.0 1.172e+04 9.282e-10
 59.12720   -117.7 1.161e+04 8.227e-10
 59.14088   -115.0 1.162e+04 7.594e-10
 59.17235   -117.0 1.217e+04 1.014e-09
 59.20317   -119.8 1.246e+04 1.197e-09
 59.22516   -121.2 1.256e+04 1.261e-09
 59.26031   -123.7 1.250e+04 1.282e-09
 59.29174   -125.1 1.204e+04 1.143e-09
 59.31373   -126.3 1.170e+04 9.021e-10
 59.34828   -127.2 1.105e+04 5.108e-10
 59.38042   -128.0 1.046e+04 2.809e-10
 59.40141   -129.0 1.035e+04 2.147e-10
 59.41325   -127.6 1.067e+04 3.190e-10
 59.43624   -128.1 1.027e+04 2.149e-10
 59.46900   -128.3 1.012e+04 1.711e-10
 59.49099   -128.9 1.015e+04 1.652e-10
 59.52420   -128.8 1.017e+04 1.517e-10
 59.55757   -129.0 1.027e+04 1.516e-10
 59.57956   -131.3 1.125e+04 3.181e-10
 59.61216   -131.9 1.162e+04 4.727e-10
 59.64615   -131.9 1.172e+04 6.301e-10
 59.66814   -134.1 1.237e+04 1.145e-09
 59.68563   -133.4 1.187e+04 9.763e-10
 59.70762   -133.6 1.208e+04 1.084e-09
 59.73472   -133.1 1.152e+04 7.730e-10
 59.75672   -136.2 1.168e+04 8.007e-10
 59.78809   -137.8 1.170e+04 6.098e-10
 59.82330   -140.0 1.202e+04 6.050e-10
 59.84529   -144.9 1.298e+04 1.261e-09
 59.87605   -146.3 1.262e+04 1.287e-09
 59.91188   -147.0 1.219e+04 1.202e-09
 59.93387   -150.0 1.223e+04 1.303e-09
 59.95800   -150.8 1.153e+04 9.317e-10
 59.97999   -151.9 1.140e+04 8.505e-10
 60.00045   -152.7 1.075e+04 5.765e-10
 60.02244   -154.8 1.088e+04 6.407e-10
 60.05197   -154.7 1.068e+04 5.596e-10
 60.08903   -154.5 1.048e+04 5.031e-10
 60.11102   -155.7 1.089e+04 6.998e-10
 60.13993   -155.2 1.066e+04 6.066e-10
 60.17761   -154.6 1.050e+04 5.369e-10
 60.19960   -155.7 1.058e+04 5.684e-10
 60.22789   -155.0 1.055e+04 5.464e-10
 60.25236   -154.3 1.063e+04 5.582e-10
 60.26866   -155.0 1.040e+04 4.983e-10
 60.28817   -156.2 1.042e+04 5.034e-10
 60.31586   -155.7 1.067e+04 5.959e-10
 60.35476   -155.2 1.102e+04 7.555e-10
 60.37675   -157.0 1.119e+04 8.220e-10
 60.40382   -157.0 1.163e+04 1.084e-09
 60.44334   -157.1 1.196e+04 1.262e-09
 60.46533   -159.9 1.220e+04 1.377e-09
 60.49178   -161.0 1.232e+04 1.430e-09
 60.52473   -162.3 1.242e+04 1.371e-09
 60.54278   -165.6 1.294e+04 1.798e-09
 60.55371   -167.9 1.313e+04 1.883e-09
 60.56855   -168.4 1.311e+04 1.788e-09
 60.58700   -169.0 1.305e+04 1.687e-09
 60.59800   -170.9 1.307e+04 1.695e-09
 60.61253   -171.2 1.299e+04 1.603e-09
 60.63129   -171.7 1.292e+04 1.537e-09
 60.64229   -173.2 1.290e+04 1.540e-09
 60.66761   -174.4 1.284e+04 1.506e-09
 60.70907   -174.8 1.265e+04 1.453e-09
 60.73106   -177.9 1.232e+04 1.375e-09
 60.75567   -177.5 1.234e+04 1.318e-09
 60.79711   -177.0 1.242e+04 1.290e-09
 60.81700   -178.2 1.212e+04 1.061e-09
 60.81944   -179.5 1.199e+04 9.541e-10
 60.83244   -179.5 1.212e+04 1.030e-09
 60.85273   -179.6 1.233e+04 1.174e-09
 60.86373   -181.0 1.249e+04 1.258e-09
 60.87642   -181.1 1.286e+04 1.555e-09
 60.89702   -181.0 1.320e+04 1.910e-09
 60.90801   -182.4 1.335e+04 2.013e-09
 60.92040   -182.5 1.355e+04 2.306e-09
 60.94131   -182.8 1.360e+04 2.448e-09
 60.95230   -184.2 1.355e+04 2.397e-09
 60.95509   -184.4 1.345e+04 2.406e-09
 60.96608   -184.5 1.396e+04 3.266e-09
 60.98560   -184.3 1.335e+04 2.637e-09
 60.99659   -185.1 1.281e+04 1.990e-09
 61.00836   -184.9 1.224e+04 1.463e-09
 61.02988   -184.8 1.172e+04 1.061e-09
 61.04088   -185.8 1.140e+04 8.406e-10
 61.05234   -185.8 1.110e+04 6.672e-10
 61.07417   -185.7 1.093e+04 5.604e-10
 61.08517   -186.7 1.092e+04 5.392e-10
 61.09128   -186.7 1.090e+04 5.098e-10
 61.10227   -186.5 1.082e+04 4.850e-10
 61.11831   -186.6 1.088e+04 4.798e-10
 61.12946   -186.9 1.104e+04 5.091e-10
 61.14045   -188.0 1.132e+04 6.367e-10
 61.16229   -188.2 1.154e+04 7.428e-10
 61.17374   -188.5 1.175e+04 8.630e-10
 61.18474   -189.7 1.190e+04 9.833e-10
 61.20628   -190.1 1.196e+04 1.033e-09
 61.21803   -190.5 1.198e+04 1.045e-09
 61.22822   -191.8 1.185e+04 1.034e-09
 61.23846   -191.6 1.188e+04 1.024e-09
 61.25026   -191.8 1.161e+04 9.418e-10
 61.26232   -192.1 1.130e+04 7.791e-10
 61.27332   -193.1 1.084e+04 5.726e-10
 61.29424   -193.4 1.055e+04 4.572e-10
 61.32732   -194.0 1.026e+04 3.539e-10
 61.35109   -194.1 1.010e+04 3.090e-10
 61.36553   -195.7 9.727e+03 2.383e-10
 61.38583   -194.7 9.798e+03 2.508e-10
 61.41538   -194.7 9.619e+03 2.178e-10
 61.43967   -194.4 9.527e+03 2.055e-10
 61.46166   -195.3 9.078e+03 1.430e-10
 61.50334   -194.7 9.033e+03 1.405e-10
 61.52825   -193.9 9.020e+03 1.406e-10
 61.55024   -194.4 8.738e+03 1.033e-10
 61.59130   -193.5 8.751e+03 1.101e-10
 61.61682   -192.6 8.817e+03 1.198e-10
 61.63881   -192.9 8.668e+03 9.332e-11
 61.65821   -192.2 8.754e+03 1.028e-10
 61.68020   -191.2 8.720e+03 9.945e-11
 61.70540   -190.5 8.813e+03 1.119e-10
 61.72739   -190.8 8.671e+03 8.697e-11
 61.76723   -190.3 8.771e+03 1.069e-10
 61.79398   -189.8 8.921e+03 1.395e-10
 61.81597   -190.0 8.738e+03 1.184e-10
 61.85519   -189.4 8.926e+03 1.636e-10
 61.88255   -188.8 9.183e+03 2.239e-10
 61.90454   -188.9 9.024e+03 2.010e-10
 61.93058   -188.5 9.348e+03 2.715e-10
 61.95257   -187.3 9.286e+03 2.396e-10
 61.97113   -187.3 9.694e+03 3.371e-10
 61.99312   -187.8 9.691e+03 3.391e-10
 62.03111   -188.2 1.011e+04 4.633e-10
 62.05971   -189.2 1.046e+04 5.941e-10
 62.08170   -190.0 1.046e+04 5.921e-10
 62.11907   -192.1 1.063e+04 6.796e-10
 62.14828   -194.6 1.072e+04 7.425e-10
 62.17027   -195.6 1.059e+04 6.660e-10
 62.20295   -198.2 1.068e+04 7.176e-10
 62.22494   -197.6 1.099e+04 8.964e-10
 62.23686   -200.4 1.098e+04 8.952e-10
 62.25885   -201.0 1.072e+04 7.596e-10
 62.29500   -203.4 1.055e+04 6.540e-10
 62.32543   -205.4 1.020e+04 4.737e-10
 62.34743   -205.8 1.007e+04 4.143e-10
 62.38296   -207.2 9.722e+03 2.989e-10
 62.41401   -208.1 9.471e+03 2.287e-10
 62.43600   -207.8 9.487e+03 2.280e-10
 62.47092   -208.1 9.375e+03 1.963e-10
 62.49732   -208.3 9.275e+03 1.750e-10
 62.50699   -206.8 9.271e+03 1.716e-10
 62.52458   -206.4 9.314e+03 1.707e-10
 62.55888   -206.5 9.270e+03 1.475e-10
 62.59116   -206.3 9.185e+03 1.293e-10
 62.61315   -205.7 9.203e+03 1.299e-10
 62.64685   -205.1 9.171e+03 1.218e-10
 62.67974   -204.3 9.162e+03 1.182e-10
 62.70173   -203.7 9.220e+03 1.298e-10
 62.73481   -202.8 9.218e+03 1.297e-10
 62.76832   -201.8 9.228e+03 1.283e-10
 62.78121   -201.2 9.246e+03 1.384e-10
 62.79168   -200.8 9.202e+03 1.218e-10
 62.82277   -199.8 9.187e+03 1.176e-10
 62.85689   -198.7 9.191e+03 1.164e-10
 62.87888   -198.1 9.202e+03 1.225e-10
 62.91073   -197.1 9.229e+03 1.234e-10
 62.94547   -196.2 9.316e+03 1.303e-10
 62.96746   -195.5 9.325e+03 1.345e-10
 62.99869   -194.7 9.410e+03 1.456e-10
 63.03405   -193.8 9.480e+03 1.543e-10
 63.05543   -193.1 9.488e+03 1.550e-10
 63.06405   -192.7 9.469e+03 1.284e-10
 63.08666   -191.8 9.506e+03 1.362e-10
 63.12262   -190.9 9.550e+03 1.410e-10
 63.14461   -190.4 9.553e+03 1.415e-10
 63.17462   -189.4 9.610e+03 1.458e-10
 63.21120   -188.3 9.676e+03 1.522e-10
 63.23319   -187.9 9.700e+03 1.563e-10
 63.26258   -186.6 9.739e+03 1.621e-10
 63.29978   -185.2 9.798e+03 1.698e-10
 63.32177   -184.8 9.792e+03 1.703e-10
 63.33643   -183.2 9.871e+03 1.712e-10
 63.35842   -182.7 9.788e+03 1.688e-10
 63.38835   -181.1 9.920e+03 1.798e-10
 63.41034   -180.6 9.916e+03 1.683e-10
 63.43850   -179.1 1.005e+04 1.871e-10
 63.47693   -177.6 1.018e+04 2.258e-10
 63.49892   -177.1 1.014e+04 1.984e-10
 63.52646   -175.5 1.025e+04 2.416e-10
 63.56551   -173.9 1.036e+04 2.796e-10
 63.58750   -173.3 1.030e+04 2.473e-10
 63.60880   -171.6 1.040e+04 2.718e-10
 63.63079   -170.9 1.026e+04 2.376e-10
 63.65408   -169.1 1.034e+04 2.497e-10
 63.67607   -168.4 1.022e+04 2.099e-10
 63.70239   -166.5 1.025e+04 2.160e-10
 63.74266   -164.5 1.028e+04 2.143e-10
 63.76465   -163.8 1.013e+04 1.794e-10
 63.79035   -161.8 1.018e+04 1.808e-10
 63.83124   -159.9 1.027e+04 1.847e-10
 63.85323   -159.2 1.016e+04 1.640e-10
 63.87831   -157.4 1.037e+04 1.898e-10
 63.90316   -155.7 1.065e+04 2.465e-10
 63.92267   -154.8 1.032e+04 2.143e-10
 63.94180   -153.9 1.020e+04 1.791e-10
 63.96627   -151.9 1.044e+04 2.522e-10
 64.00839   -150.1 1.082e+04 3.871e-10
 64.03038   -149.3 1.072e+04 3.327e-10
 64.05424   -147.9 1.147e+04 6.035e-10
 64.09697   -147.1 1.238e+04 1.076e-09
 64.11896   -147.2 1.279e+04 1.283e-09
 64.13110   -146.5 1.319e+04 1.888e-09
 64.15205   -146.6 1.381e+04 2.849e-09
 64.16305   -146.6 1.440e+04 3.725e-09
 64.17499   -146.6 1.526e+04 5.725e-09
 64.18633   -146.7 1.579e+04 7.035e-09
 64.19669   -145.9 1.539e+04 6.054e-09
 64.20734   -146.1 1.615e+04 8.038e-09
 64.21897   -146.1 1.660e+04 1.000e-08
 64.24063   -146.3 1.661e+04 1.016e-08
 64.25163   -146.6 1.711e+04 1.233e-08
 64.26295   -146.4 1.661e+04 9.530e-09
 64.28492   -146.3 1.581e+04 4.985e-09
 64.30691   -147.5 1.493e+04 2.668e-09
 64.32252   -148.7 1.348e+04 1.312e-09
 64.33352   -146.9 1.440e+04 2.295e-09
 64.34020   -147.8 1.306e+04 1.204e-09
 64.35120   -148.0 1.310e+04 1.401e-09
 64.37290   -148.2 1.216e+04 9.334e-10
 64.38449   -148.0 1.166e+04 7.212e-10
 64.39549   -148.0 1.183e+04 8.451e-10
 64.41688   -147.2 1.148e+04 6.808e-10
 64.42878   -146.3 1.123e+04 5.689e-10
 64.43977   -146.4 1.138e+04 6.437e-10
 64.45871   -145.7 1.118e+04 5.545e-10
 64.46970   -144.9 1.116e+04 5.422e-10
 64.47307   -144.1 1.097e+04 4.636e-10
 64.48406   -144.1 1.103e+04 5.008e-10
 64.50484   -143.3 1.090e+04 4.511e-10
 64.53793   -142.3 1.082e+04 4.191e-10
 64.56184   -140.5 1.062e+04 3.809e-10
 64.58383   -140.9 1.073e+04 4.114e-10
 64.62599   -139.0 1.052e+04 3.695e-10
 64.65042   -136.9 1.043e+04 3.547e-10
 64.67241   -137.3 1.032e+04 3.272e-10
 64.71395   -135.2 1.022e+04 3.072e-10
 64.73899   -133.1 1.018e+04 3.025e-10
 64.74532   -133.4 1.004e+04 2.549e-10
 64.76426   -132.0 1.001e+04 2.420e-10
 64.80191   -129.9 9.943e+03 2.280e-10
 64.82757   -127.7 9.917e+03 2.268e-10
 64.84956   -127.8 9.799e+03 1.947e-10
 64.88987   -125.6 9.770e+03 2.003e-10
 64.91614   -123.5 9.746e+03 2.113e-10
 64.93814   -123.3 9.640e+03 1.831e-10
 64.97784   -121.2 9.611e+03 1.887e-10
 65.00472   -119.2 9.600e+03 1.967e-10
 65.01954   -118.9 9.475e+03 1.629e-10
 65.03663   -117.6 9.469e+03 1.478e-10
 65.06580   -115.7 9.465e+03 1.610e-10
 65.09330   -113.7 9.477e+03 1.788e-10
 65.11529   -113.5 9.374e+03 1.527e-10
 65.15376   -111.5 9.380e+03 1.660e-10
 65.18187   -109.6 9.387e+03 1.790e-10
 65.20386   -109.3 9.247e+03 1.541e-10
 65.24172   -107.3 9.246e+03 1.620e-10
 65.27045   -105.4 9.262e+03 1.686e-10
 65.29244   -105.0 9.133e+03 1.479e-10
 65.30901   -103.1 9.138e+03 1.506e-10
 65.33100   -102.0 9.194e+03 1.626e-10
 65.35903   -100.1 9.212e+03 1.690e-10
 65.38102    -99.7 9.108e+03 1.551e-10
 65.41764    -97.9 9.099e+03 1.615e-10
 65.44760    -96.0 9.084e+03 1.746e-10
 65.46959    -95.6 8.975e+03 1.568e-10
 65.50561    -93.6 8.964e+03 1.676e-10
 65.53618    -91.6 8.961e+03 1.729e-10
 65.55817    -91.2 8.902e+03 1.650e-10
 65.58138    -89.2 8.896e+03 1.659e-10
 65.60337    -88.7 8.950e+03 1.838e-10
 65.62476    -86.7 8.911e+03 1.704e-10
 65.64675    -86.4 8.892e+03 1.665e-10
 65.68153    -84.5 8.844e+03 1.549e-10
 65.71333    -82.6 8.816e+03 1.523e-10
 65.73532    -82.2 8.759e+03 1.404e-10
 65.76949    -80.2 8.722e+03 1.392e-10
 65.80191    -77.9 8.755e+03 1.452e-10
 65.82390    -77.5 8.656e+03 1.199e-10
 65.85375    -75.5 8.798e+03 1.304e-10
 65.87574    -75.2 8.693e+03 1.154e-10
 65.89049    -73.5 8.818e+03 1.383e-10
 65.91248    -73.3 8.755e+03 1.187e-10
 65.94542    -71.5 8.818e+03 1.694e-10
 65.97906    -68.9 9.002e+03 2.377e-10
 66.00105    -68.7 8.921e+03 2.233e-10
 66.03338    -66.1 9.110e+03 2.631e-10
 66.06764    -64.0 9.189e+03 2.283e-10
 66.08963    -63.9 9.143e+03 2.270e-10
 66.12134    -62.2 9.090e+03 2.047e-10
 66.14812    -60.6 9.080e+03 1.897e-10
 66.16100    -59.9 8.901e+03 1.591e-10
 66.17821    -59.7 8.872e+03 1.596e-10
 66.20930    -57.7 8.871e+03 1.557e-10
 66.24479    -55.7 8.881e+03 1.559e-10
 66.26678    -55.4 8.781e+03 1.392e-10
 66.29726    -53.4 8.789e+03 1.355e-10
 66.33337    -51.3 8.810e+03 1.382e-10
 66.35536    -50.9 8.720e+03 1.208e-10
 66.38522    -48.8 8.823e+03 1.281e-10
 66.42049    -47.1 9.037e+03 1.540e-10
 66.43522    -46.0 9.053e+03 1.626e-10
 66.44394    -46.2 9.066e+03 1.615e-10
 66.47319    -45.2 9.407e+03 2.451e-10
 66.51052    -43.9 1.007e+04 4.991e-10
 66.53251    -44.3 1.052e+04 6.262e-10
 66.56115    -44.0 1.144e+04 1.092e-09
 66.59404    -45.2 1.233e+04 1.879e-09
 66.60990    -44.9 1.251e+04 2.418e-09
 66.62089    -44.9 1.240e+04 2.393e-09
 66.63792    -44.0 1.225e+04 2.308e-09
 66.65419    -43.0 1.200e+04 2.000e-09
 66.66518    -43.0 1.179e+04 1.737e-09
 66.68190    -42.3 1.149e+04 1.292e-09
 66.69848    -42.3 1.123e+04 9.384e-10
 66.70924    -42.4 1.106e+04 8.103e-10
 66.71466    -42.4 1.139e+04 8.966e-10
 66.72588    -42.3 1.090e+04 6.268e-10
 66.74276    -42.3 1.078e+04 5.550e-10
 66.75376    -42.2 1.069e+04 5.154e-10
 66.77615    -41.1 1.041e+04 4.442e-10
 66.79824    -40.3 1.036e+04 4.029e-10
 66.82503    -38.8 1.016e+04 3.264e-10
 66.86483    -37.4 1.002e+04 2.756e-10
 66.88682    -36.9 1.009e+04 2.788e-10
 66.91300    -35.5 1.002e+04 2.475e-10
 66.95341    -33.9 9.966e+03 2.236e-10
 66.97540    -33.5 1.025e+04 2.881e-10
 66.98723    -31.8 1.007e+04 2.345e-10
 67.00922    -31.5 1.022e+04 3.054e-10
 67.04198    -29.8 1.003e+04 2.368e-10
 67.06397    -29.3 1.014e+04 2.486e-10
 67.08892    -27.4 9.999e+03 1.790e-10
 67.13056    -25.5 9.925e+03 1.417e-10
 67.15255    -25.1 9.975e+03 1.261e-10
 67.17688    -23.2 9.920e+03 1.050e-10
 67.21913    -21.2 9.878e+03 9.524e-11
 67.24113    -20.7 9.867e+03 8.977e-11
 67.25960    -18.5 9.835e+03 8.917e-11
 67.28159    -18.3 9.842e+03 8.768e-11
 67.30771    -16.1 9.850e+03 9.033e-11
 67.32970    -15.4 9.854e+03 9.092e-11
 67.35281    -13.3 9.900e+03 9.927e-11
 67.39629    -11.1 9.936e+03 1.116e-10
 67.41828    -10.4 9.951e+03 1.156e-10
 67.44077     -8.2 9.977e+03 1.286e-10
 67.48475     -6.0 1.002e+04 1.416e-10
 67.52873     -3.2 1.010e+04 1.550e-10
 67.55396     -1.3 1.018e+04 1.699e-10
 67.57595     -1.3 1.034e+04 2.168e-10
 67.59543      0.3 1.047e+04 2.473e-10
 67.61742      0.7 1.050e+04 2.571e-10
 67.66067      2.2 1.071e+04 3.214e-10
 67.68401      3.8 1.094e+04 3.968e-10
 67.70600      4.1 1.107e+04 4.603e-10
 67.74863      5.6 1.114e+04 4.695e-10
 67.77258      7.3 1.112e+04 4.384e-10
 67.79457      7.6 1.113e+04 4.014e-10
 67.82634      9.4 1.110e+04 3.050e-10
 67.84833      9.1 1.136e+04 3.440e-10
 67.86116     10.8 1.137e+04 2.740e-10
 67.88315     10.7 1.127e+04 2.501e-10
 67.92456     12.7 1.128e+04 2.557e-10
 67.94974     14.6 1.134e+04 2.832e-10
 67.97173     14.5 1.125e+04 3.111e-10
 68.01252     16.3 1.143e+04 4.346e-10
 68.03831     17.9 1.171e+04 6.389e-10
 68.06030     17.6 1.177e+04 7.237e-10
 68.09871     19.1 1.208e+04 9.715e-10
 68.12070     19.0 1.257e+04 1.397e-09
 68.12689     20.2 1.279e+04 1.654e-09
 68.13779     19.8 1.239e+04 1.259e-09
 68.15526     20.3 1.242e+04 1.259e-09
 68.17098     20.8 1.238e+04 1.195e-09
 68.18198     20.6 1.227e+04 1.052e-09
 68.19924     20.8 1.225e+04 1.012e-09
 68.21537     21.4 1.224e+04 1.010e-09
 68.22636     20.8 1.197e+04 7.847e-10
 68.24322     21.2 1.196e+04 7.639e-10
 68.27631     21.4 1.197e+04 7.516e-10
 68.30395     21.8 1.201e+04 7.977e-10
 68.31484     21.1 1.196e+04 7.771e-10
 68.33119     21.5 1.205e+04 8.373e-10
 68.34814     21.7 1.217e+04 9.191e-10
 68.35913     21.0 1.199e+04 9.087e-10
 68.37517     21.2 1.203e+04 9.793e-10
 68.39242     21.5 1.202e+04 1.042e-09
 68.39914     20.8 1.188e+04 9.472e-10
 68.40387     20.1 1.200e+04 9.908e-10
 68.41915     20.2 1.210e+04 1.059e-09
 68.43671     20.2 1.222e+04 1.157e-09
 68.44771     19.2 1.218e+04 1.089e-09
 68.46313     19.3 1.232e+04 1.233e-09
 68.48100     19.5 1.252e+04 1.398e-09
 68.49200     18.7 1.247e+04 1.344e-09
 68.50711     18.9 1.265e+04 1.473e-09
 68.52529     19.1 1.278e+04 1.569e-09
 68.53625     18.7 1.261e+04 1.440e-09
 68.55105     17.3 1.305e+04 1.982e-09
 68.56958     17.8 1.301e+04 1.925e-09
 68.58057     17.6 1.290e+04 1.684e-09
 68.59507     18.3 1.282e+04 1.520e-09
 68.61387     19.0 1.269e+04 1.355e-09
 68.62486     18.9 1.252e+04 1.164e-09
 68.63905     19.8 1.236e+04 1.028e-09
 68.65815     20.9 1.223e+04 8.972e-10
 68.66915     21.0 1.216e+04 7.824e-10
 68.67624     21.6 1.219e+04 7.224e-10
 68.68724     19.7 1.215e+04 7.281e-10
 68.71612     20.7 1.208e+04 6.628e-10
 68.74693     22.7 1.201e+04 6.101e-10
 68.76892     22.8 1.200e+04 6.385e-10
 68.80418     24.8 1.201e+04 6.473e-10
 68.83550     26.7 1.204e+04 6.778e-10
 68.85749     26.6 1.211e+04 7.412e-10
 68.87969     27.3 1.209e+04 7.910e-10
 68.89059     27.3 1.207e+04 8.084e-10
 68.90294     28.0 1.204e+04 8.378e-10
 68.92388     29.1 1.199e+04 8.168e-10
 68.94597     29.3 1.199e+04 7.578e-10
 68.95981     30.8 1.193e+04 6.878e-10
 68.98180     29.7 1.189e+04 7.008e-10
 69.01266     31.0 1.183e+04 6.062e-10
 69.03465     31.4 1.165e+04 5.107e-10
 69.06806     32.8 1.150e+04 4.249e-10
 69.10123     34.1 1.139e+04 3.813e-10
 69.12322     34.8 1.122e+04 3.303e-10
 69.15602     36.2 1.123e+04 3.284e-10
 69.18981     37.6 1.128e+04 3.391e-10
 69.21180     38.5 1.115e+04 2.915e-10
 69.23218     39.9 1.127e+04 3.310e-10
 69.25417     39.1 1.154e+04 4.201e-10
 69.27839     40.2 1.166e+04 4.936e-10
 69.30038     41.6 1.157e+04 4.409e-10
 69.33195     42.4 1.170e+04 5.431e-10
 69.36484     43.3 1.169e+04 5.970e-10
 69.37776     43.9 1.176e+04 6.838e-10
 69.38120     44.5 1.178e+04 6.831e-10
 69.39016     44.4 1.194e+04 7.808e-10
 69.40872     45.0 1.221e+04 9.878e-10
 69.42205     45.3 1.251e+04 1.210e-09
 69.43305     45.6 1.261e+04 1.257e-09
 69.45270     45.5 1.293e+04 1.511e-09
 69.46634     45.0 1.337e+04 1.879e-09
 69.47733     45.1 1.351e+04 1.989e-09
 69.49668     43.9 1.413e+04 2.808e-09
 69.51063     42.6 1.483e+04 4.375e-09
 69.51831     42.4 1.509e+04 5.059e-09
 69.52635     42.2 1.573e+04 7.195e-09
 69.54066     41.8 1.638e+04 1.039e-08
 69.55492     41.3 1.687e+04 1.191e-08
 69.56591     41.0 1.702e+04 1.225e-08
 69.58464     40.1 1.701e+04 1.191e-08
 69.59920     39.4 1.677e+04 1.094e-08
 69.61020     39.0 1.678e+04 1.116e-08
 69.62862     38.2 1.645e+04 9.723e-09
 69.64349     37.1 1.643e+04 9.458e-09
 69.65449     36.7 1.625e+04 8.915e-09
 69.66254     35.8 1.629e+04 9.305e-09
 69.67353     35.0 1.700e+04 1.343e-08
 69.68778     35.1 1.744e+04 1.648e-08
 69.69878     35.1 1.685e+04 1.295e-08
 69.71658     35.4 1.718e+04 1.382e-08
 69.73207     35.7 1.728e+04 1.374e-08
 69.74306     35.8 1.644e+04 8.930e-09
 69.76057     36.1 1.654e+04 8.693e-09
 69.77636     36.3 1.659e+04 8.395e-09
 69.78735     36.0 1.577e+04 5.491e-09
 69.79872     36.0 1.587e+04 5.590e-09
 69.80972     35.1 1.592e+04 7.064e-09
 69.82064     35.3 1.592e+04 7.456e-09
 69.83164     35.4 1.525e+04 5.531e-09
 69.84853     35.9 1.537e+04 6.115e-09
 69.86493     36.5 1.559e+04 6.844e-09
 69.87593     36.8 1.501e+04 5.097e-09
 69.89251     37.4 1.543e+04 6.010e-09
 69.90922     37.9 1.601e+04 7.247e-09
 69.92022     38.0 1.549e+04 5.791e-09
 69.93491     38.4 1.621e+04 7.284e-09
 69.94590     37.5 1.714e+04 9.719e-09
 69.95351     37.7 1.786e+04 1.193e-08
 69.96450     37.8 1.759e+04 1.060e-08
 69.98047     37.6 1.840e+04 1.365e-08
 69.99780     37.4 1.892e+04 1.687e-08
 70.00879     37.3 1.880e+04 1.562e-08
 70.02445     37.4 1.937e+04 2.168e-08
 70.04209     37.5 1.986e+04 2.992e-08
 70.05308     37.5 1.985e+04 2.716e-08
 70.06289     37.0 2.028e+04 3.818e-08
 70.06963     36.5 2.069e+04 5.110e-08
 70.07513     36.0 2.054e+04 5.137e-08
 70.08199     35.4 2.075e+04 6.446e-08
 70.08749     35.5 2.046e+04 5.863e-08
 70.09177     35.5 2.044e+04 5.886e-08
 70.09727     35.5 2.032e+04 5.877e-08
 70.10682     35.8 2.033e+04 5.639e-08
 70.11392     36.0 2.031e+04 5.054e-08
 70.11942     35.9 2.022e+04 4.739e-08
 70.13061     35.8 1.989e+04 3.353e-08
 70.14166     35.5 1.983e+04 3.321e-08
 70.15639     35.2 1.945e+04 2.462e-08
 70.17495     34.6 1.850e+04 1.578e-08
 70.18595     34.5 1.844e+04 1.637e-08
 70.20038     34.6 1.718e+04 9.890e-09
 70.21828     34.6 1.572e+04 5.831e-09
 70.22615     33.7 1.511e+04 4.906e-09
 70.23023     34.2 1.520e+04 5.216e-09
 70.24436     34.5 1.449e+04 3.697e-09
 70.26353     35.1 1.399e+04 2.778e-09
 70.27452     35.4 1.401e+04 2.824e-09
 70.29943     36.4 1.363e+04 2.130e-09
 70.34130     37.7 1.317e+04 1.867e-09
 70.36329     38.3 1.327e+04 1.937e-09
 70.38749     39.0 1.343e+04 2.190e-09
 70.42988     40.4 1.315e+04 1.913e-09
 70.45187     40.3 1.322e+04 2.000e-09
 70.47545     41.7 1.284e+04 1.620e-09
 70.51846     43.2 1.248e+04 1.201e-09
 70.54045     43.1 1.233e+04 9.718e-10
 70.56341     44.5 1.195e+04 6.674e-10
 70.60703     45.9 1.165e+04 5.073e-10
 70.62902     45.7 1.146e+04 4.322e-10
 70.63803     47.6 1.138e+04 4.180e-10
 70.66002     47.0 1.122e+04 4.626e-10
 70.69536     49.3 1.124e+04 4.670e-10
 70.71760     51.6 1.131e+04 4.977e-10
 70.73959     52.0 1.125e+04 4.910e-10
 70.78332     54.2 1.131e+04 5.111e-10
 70.80618     56.4 1.133e+04 5.222e-10
 70.82817     57.0 1.126e+04 4.222e-10
 70.87128     59.3 1.125e+04 3.974e-10
 70.89475     61.6 1.124e+04 3.695e-10
 70.91188     62.2 1.114e+04 2.708e-10
 70.93239     61.7 1.103e+04 2.299e-10
 70.95924     64.0 1.101e+04 2.049e-10
 70.98333     66.2 1.099e+04 1.862e-10
 71.00532     66.9 1.084e+04 1.505e-10
 71.04720     69.2 1.076e+04 1.462e-10
 71.07191     71.5 1.069e+04 1.449e-10
 71.09390     72.4 1.054e+04 1.273e-10
 71.13517     74.8 1.048e+04 1.289e-10
 71.16048     77.2 1.041e+04 1.311e-10
 71.18247     78.3 1.031e+04 1.136e-10
 71.20476     80.6 1.025e+04 1.155e-10
 71.22675     80.5 1.001e+04 1.179e-10
 71.24906     82.8 9.974e+03 1.188e-10
 71.27105     84.0 9.870e+03 9.977e-11
 71.31109     86.2 9.838e+03 1.022e-10
 71.33764     88.4 9.817e+03 1.075e-10
 71.35963     89.5 9.706e+03 9.259e-11
 71.39905     91.6 9.694e+03 1.048e-10
 71.42621     93.6 9.715e+03 1.250e-10
 71.44820     94.7 9.605e+03 1.157e-10
 71.47714     96.6 9.664e+03 1.474e-10
 71.49913     97.0 9.660e+03 1.248e-10
 71.51479     98.8 9.757e+03 1.598e-10
 71.53678     99.8 9.755e+03 1.586e-10
 71.57497    101.2 9.861e+03 2.106e-10
 71.60337    102.5 9.983e+03 2.774e-10
 71.62536    103.4 9.985e+03 3.152e-10
 71.66294    104.3 1.013e+04 3.754e-10
 71.69194    104.9 1.014e+04 3.801e-10
 71.71393    105.4 1.029e+04 4.339e-10
 71.74951    106.0 1.024e+04 4.187e-10
 71.77140    105.9 1.040e+04 5.249e-10
 71.78032    106.3 1.035e+04 5.188e-10
 71.80241    107.0 1.046e+04 5.438e-10
 71.83886    108.3 1.030e+04 5.168e-10
 71.86910    109.4 1.017e+04 5.037e-10
 71.89109    110.8 1.025e+04 5.709e-10
 71.92682    111.5 1.026e+04 5.604e-10
 71.95767    112.0 1.021e+04 5.287e-10
 71.97966    113.1 1.071e+04 7.111e-10
 72.01478    113.5 1.061e+04 6.248e-10
 72.04387    114.0 1.030e+04 4.672e-10
 72.05335    114.6 1.051e+04 6.834e-10
 72.05715    114.5 1.092e+04 8.488e-10
 72.06956    114.7 1.066e+04 6.898e-10
 72.10265    115.2 1.142e+04 7.392e-10
 72.13483    115.5 1.065e+04 4.610e-10
 72.14572    115.3 1.088e+04 4.859e-10
 72.15753    115.3 1.070e+04 3.971e-10
 72.19061    115.2 1.165e+04 5.492e-10
 72.22340    116.7 1.082e+04 5.272e-10
 72.23430    114.1 1.296e+04 9.876e-10
 72.24549    115.0 1.242e+04 8.497e-10
 72.26748    115.8 1.181e+04 8.082e-10
 72.28947    115.6 1.205e+04 1.061e-09
 72.31146    116.1 1.158e+04 9.687e-10
 72.32278    116.6 1.127e+04 8.964e-10
 72.32737    116.3 1.169e+04 1.081e-09
 72.33804    114.9 1.211e+04 1.242e-09
 72.35544    115.0 1.184e+04 1.098e-09
 72.36707    115.0 1.164e+04 1.073e-09
 72.37806    114.6 1.180e+04 1.245e-09
 72.39942    114.6 1.178e+04 1.242e-09
 72.41135    114.5 1.176e+04 1.247e-09
 72.42235    114.0 1.193e+04 1.431e-09
 72.44340    113.8 1.186e+04 1.485e-09
 72.45564    113.7 1.183e+04 1.624e-09
 72.46448    113.3 1.191e+04 1.756e-09
 72.47423    112.4 1.161e+04 1.602e-09
 72.48738    112.5 1.158e+04 1.593e-09
 72.49993    112.6 1.150e+04 1.535e-09
 72.51093    112.1 1.132e+04 1.301e-09
 72.53136    111.6 1.110e+04 1.057e-09
 72.54422    110.7 1.074e+04 7.644e-10
 72.55521    108.9 1.020e+04 5.084e-10
 72.57535    107.1 9.440e+03 3.345e-10
 72.58851    105.3 8.572e+03 2.341e-10
 72.59950    104.4 8.197e+03 2.024e-10
 72.61051    104.0 7.889e+03 1.922e-10
 72.63260    102.9 8.062e+03 2.220e-10
 72.66628    102.2 8.069e+03 2.272e-10
 72.68828    101.9 8.188e+03 2.334e-10
 72.71848    101.4 8.544e+03 2.818e-10
 72.75486    101.2 8.968e+03 3.483e-10
 72.77675    100.2 9.304e+03 3.900e-10
 72.79525     99.0 9.569e+03 4.486e-10
 72.80995     97.8 9.762e+03 5.066e-10
 72.82094     96.9 9.965e+03 5.687e-10
 72.83923     96.0 1.013e+04 6.390e-10
 72.85424     95.2 1.033e+04 7.300e-10
 72.86523     94.8 1.054e+04 8.301e-10
 72.88279     94.3 1.072e+04 9.415e-10
 72.89378     93.5 1.082e+04 1.012e-09
 72.89853     93.3 1.099e+04 1.125e-09
 72.90952     93.4 1.095e+04 1.115e-09
 72.92719     93.3 1.107e+04 1.103e-09
 72.94281     93.2 1.107e+04 1.077e-09
 72.95381     93.3 1.089e+04 9.550e-10
 72.97117     93.0 1.085e+04 8.739e-10
 72.98710     92.7 1.078e+04 7.780e-10
 72.99810     92.7 1.058e+04 6.781e-10
 73.01515     92.2 1.047e+04 6.046e-10
 73.02997     91.7 1.034e+04 5.389e-10
 73.03521     90.4 9.990e+03 4.000e-10
 73.04239     90.6 9.931e+03 3.902e-10
 73.05914     90.3 9.879e+03 3.679e-10
 73.07568     90.0 9.822e+03 3.516e-10
 73.08667     90.7 9.823e+03 3.517e-10
 73.10312     90.6 9.794e+03 3.429e-10
 73.11997     90.5 9.789e+03 3.428e-10
 73.13096     91.5 9.786e+03 3.428e-10
 73.14710     91.3 9.822e+03 3.495e-10
 73.16426     90.9 1.001e+04 3.860e-10
 73.17232     91.8 1.003e+04 3.863e-10
 73.17715     91.6 9.806e+03 3.337e-10
 73.19108     91.2 1.009e+04 4.074e-10
 73.20854     90.5 1.053e+04 5.423e-10
 73.21954     91.5 1.051e+04 5.352e-10
 73.23506     90.9 1.103e+04 7.344e-10
 73.25283     90.2 1.159e+04 1.006e-09
 73.26383     91.1 1.164e+04 1.013e-09
 73.27904     90.1 1.230e+04 1.401e-09
 73.29712     89.0 1.302e+04 1.934e-09
 73.30812     89.7 1.320e+04 2.067e-09
 73.31334     88.6 1.397e+04 2.907e-09
 73.32433     89.6 1.322e+04 2.073e-09
 73.34141     88.7 1.375e+04 2.623e-09
 73.35240     89.4 1.397e+04 2.900e-09
 73.36700     88.6 1.437e+04 3.437e-09
 73.38570     87.8 1.460e+04 3.748e-09
 73.39669     88.6 1.464e+04 3.816e-09
 73.41098     87.9 1.464e+04 3.811e-09
 73.42999     87.2 1.460e+04 3.696e-09
 73.44098     88.3 1.427e+04 3.180e-09
 73.44952     87.6 1.411e+04 2.939e-09
 73.46052     88.2 1.380e+04 2.725e-09
 73.47427     87.7 1.382e+04 2.741e-09
 73.48527     88.9 1.332e+04 2.196e-09
 73.49894     88.6 1.335e+04 2.238e-09
 73.51856     88.3 1.353e+04 2.457e-09
 73.52956     89.8 1.289e+04 1.830e-09
 73.54293     89.6 1.326e+04 2.223e-09
 73.56285     89.2 1.406e+04 3.036e-09
 73.57385     90.9 1.341e+04 2.280e-09
 73.58571     90.4 1.474e+04 3.530e-09
 73.59670     91.1 1.403e+04 3.226e-09
 73.60714     90.7 1.523e+04 4.857e-09
 73.61813     92.5 1.471e+04 3.874e-09
 73.63089     92.0 1.621e+04 6.097e-09
 73.65143     91.5 1.750e+04 8.829e-09
 73.66242     93.4 1.752e+04 8.598e-09
 73.67487     93.1 1.865e+04 1.218e-08
 73.69571     92.5 1.938e+04 1.466e-08
 73.70671     95.0 1.976e+04 1.711e-08
 73.71330     94.2 2.010e+04 1.746e-08
 73.72326     93.4 2.018e+04 1.733e-08
 73.72876     94.5 2.043e+04 1.837e-08
 73.73279     93.9 2.070e+04 1.924e-08
 73.74300     92.5 1.924e+04 1.285e-08
 73.75095     94.3 1.966e+04 1.467e-08
 73.75724     93.7 1.991e+04 1.642e-08
 73.76755     92.9 2.010e+04 1.831e-08
 73.77304     94.0 2.036e+04 1.949e-08
 73.77923     93.2 2.061e+04 2.214e-08
 73.78969     92.3 2.108e+04 2.721e-08
 73.79519     93.5 2.138e+04 2.896e-08
 73.80089     92.6 2.208e+04 4.112e-08
 73.80638     91.5 2.193e+04 3.340e-08
 73.81184     90.4 2.293e+04 6.023e-08
 73.81733     91.6 2.305e+04 5.841e-08
 73.82321     90.8 2.360e+04 1.226e-07
 73.83398     89.4 2.361e+04 2.412e-07
 73.83948     90.6 2.361e+04 2.520e-07
 73.84520     88.0 2.316e+04 4.213e-07
 73.85612     85.0 2.291e+04 4.522e-07
 73.86162     85.7 2.271e+04 5.796e-07
 73.86719     82.8 2.266e+04 5.652e-07
 73.87448     80.2 2.267e+04 4.407e-07
 73.87997     77.8 2.294e+04 3.715e-07
 73.88377     76.5 2.283e+04 2.256e-07
 73.88926     76.0 2.291e+04 2.494e-07
 73.90017     75.9 2.281e+04 1.294e-07
 73.90591     75.5 2.293e+04 5.821e-08
 73.91141     75.6 2.290e+04 7.302e-08
 73.92216     74.5 2.319e+04 3.784e-08
 73.92805     72.7 2.362e+04 2.067e-08
 73.93355     73.3 2.316e+04 2.979e-08
 73.94257     72.0 2.349e+04 1.881e-08
 73.94807     70.2 2.360e+04 1.982e-08
 73.95020     68.2 2.382e+04 1.307e-08
 73.95570     69.0 2.377e+04 1.957e-08
 73.96614     66.7 2.453e+04 1.401e-08
 73.97234     63.5 2.501e+04 9.992e-09
 73.97784     63.7 2.629e+04 1.683e-08
 73.98813     59.9 2.737e+04 1.334e-08
 73.99449     56.6 2.754e+04 1.135e-08
 73.99998     55.7 2.759e+04 2.440e-08
 74.01013     52.9 2.637e+04 2.302e-08
 74.01616     51.3 2.479e+04 2.208e-08
 74.01717     49.2 2.304e+04 2.771e-08
 74.02213     49.3 2.240e+04 6.362e-08
 74.03212     48.6 2.179e+04 5.436e-08
 74.03877     48.3 2.143e+04 4.683e-08
 74.04427     49.3 2.135e+04 1.086e-07
 74.05411     49.0 2.118e+04 7.553e-08
 74.06092     48.7 2.111e+04 4.551e-08
 74.06642     50.1 2.134e+04 6.695e-08
 74.07610     49.4 2.144e+04 3.241e-08
 74.08306     48.4 2.126e+04 1.786e-08
 74.08572     49.5 2.223e+04 1.697e-08
 74.08975     46.0 2.116e+04 7.967e-09
 74.09809     44.2 1.987e+04 5.201e-09
 74.10526     43.3 1.891e+04 4.457e-09
 74.11075     40.1 1.751e+04 1.730e-09
 74.12008     37.2 1.463e+04 1.266e-09
 74.13662     34.4 1.373e+04 1.106e-09
 74.14959     30.1 1.167e+04 8.452e-10
 74.15437     26.4 9.507e+03 5.008e-10
 74.16344     25.3 8.632e+03 3.178e-10
 74.18065     24.8 8.601e+03 3.135e-10
 74.19388     24.5 8.612e+03 3.186e-10
 74.20488     23.9 8.590e+03 3.071e-10
 74.22463     23.8 8.624e+03 3.181e-10
 74.23817     23.8 8.703e+03 3.407e-10
 74.24916     23.5 8.688e+03 3.362e-10
 74.26861     23.6 8.851e+03 3.770e-10
 74.28246     23.7 9.125e+03 4.419e-10
 74.29148     23.0 9.212e+03 4.525e-10
 74.29963     23.1 9.096e+03 4.165e-10
 74.31259     22.8 9.622e+03 5.480e-10
 74.32675     22.5 1.023e+04 7.489e-10
 74.33774     21.3 1.071e+04 9.141e-10
 74.35657     21.3 1.133e+04 1.252e-09
 74.37103     21.7 1.185e+04 1.633e-09
 74.38203     21.0 1.231e+04 1.950e-09
 74.40055     21.4 1.257e+04 2.123e-09
 74.41532     21.5 1.254e+04 2.095e-09
 74.42632     20.6 1.273e+04 2.234e-09
 74.43581     20.8 1.239e+04 1.934e-09
 74.44681     21.5 1.243e+04 1.975e-09
 74.45961     21.9 1.185e+04 1.496e-09
 74.47061     21.4 1.170e+04 1.382e-09
 74.48852     21.8 1.099e+04 9.618e-10
 74.50390     21.9 1.034e+04 6.670e-10
 74.51489     21.3 1.025e+04 6.190e-10
 74.53250     21.4 9.975e+03 4.925e-10
 74.54819     21.9 9.891e+03 4.440e-10
 74.56580     20.8 9.957e+03 4.528e-10
 74.58319     23.3 9.595e+03 3.808e-10
 74.60966     26.1 9.483e+03 3.686e-10
 74.63696     29.4 9.651e+03 3.855e-10
 74.65895     27.9 1.003e+04 4.451e-10
 74.68115     29.5 1.009e+04 4.848e-10
 74.69205     29.0 1.008e+04 5.693e-10
 74.70819     30.2 1.034e+04 7.073e-10
 74.71918     31.4 1.037e+04 6.156e-10
 74.72534     32.6 1.076e+04 6.997e-10
 74.73634     32.2 1.080e+04 1.030e-09
 74.75240     33.5 1.139e+04 1.095e-09
 74.76963     34.8 1.181e+04 1.160e-09
 74.78062     34.8 1.292e+04 1.972e-09
 74.79638     36.1 1.279e+04 1.789e-09
 74.81392     37.2 1.262e+04 1.561e-09
 74.82491     37.4 1.354e+04 2.380e-09
 74.84036     38.4 1.316e+04 1.896e-09
 74.85537     39.3 1.282e+04 1.514e-09
 74.86221     39.4 1.335e+04 2.019e-09
 74.86920     39.3 1.444e+04 3.085e-09
 74.88434     39.7 1.434e+04 2.664e-09
 74.90249     39.8 1.431e+04 2.364e-09
 74.91349     39.4 1.520e+04 3.258e-09
 74.92832     39.3 1.513e+04 2.948e-09
 74.94678     39.2 1.507e+04 2.735e-09
 74.95778     38.6 1.550e+04 3.301e-09
 74.97231     38.4 1.545e+04 3.245e-09
 74.99107     38.3 1.546e+04 3.264e-09
 74.99932     38.0 1.565e+04 3.750e-09
 75.00255     37.5 1.699e+04 7.541e-09
 75.01629     37.5 1.697e+04 7.614e-09
 75.03536     37.5 1.690e+04 7.489e-09
 75.04635     37.0 1.662e+04 6.932e-09
 75.06027     37.1 1.651e+04 6.738e-09
 75.07965     37.4 1.609e+04 5.914e-09
 75.09064     36.7 1.589e+04 5.475e-09
 75.10425     37.3 1.545e+04 4.653e-09
 75.12393     38.0 1.495e+04 3.725e-09
 75.13493     37.4 1.503e+04 3.714e-09
 75.13874     38.0 1.463e+04 2.899e-09
 75.14973     37.4 1.420e+04 2.092e-09
 75.16822     37.8 1.377e+04 1.648e-09
 75.17922     36.6 1.391e+04 1.499e-09
 75.19221     37.0 1.357e+04 1.350e-09
 75.21251     37.4 1.360e+04 1.324e-09
 75.22351     35.9 1.406e+04 1.425e-09
 75.23619     36.3 1.424e+04 1.607e-09
 75.25680     36.6 1.454e+04 1.996e-09
 75.26779     35.0 1.468e+04 2.411e-09
 75.27492     35.8 1.509e+04 3.202e-09
 75.28592     36.3 1.445e+04 2.411e-09
 75.30109     37.1 1.487e+04 3.170e-09
 75.31208     36.1 1.481e+04 3.205e-09
 75.32415     37.2 1.522e+04 4.145e-09
 75.34538     38.4 1.560e+04 5.138e-09
 75.35637     37.9 1.495e+04 3.493e-09
 75.36813     39.1 1.515e+04 3.806e-09
 75.38966     40.1 1.517e+04 3.873e-09
 75.40066     39.3 1.411e+04 1.798e-09
 75.41111     40.3 1.405e+04 1.794e-09
 75.42210     40.6 1.378e+04 1.553e-09
 75.43395     41.7 1.374e+04 1.563e-09
 75.44495     40.6 1.270e+04 7.870e-10
 75.45610     41.8 1.265e+04 8.097e-10
 75.47809     43.1 1.258e+04 8.399e-10
 75.48924     44.4 1.251e+04 8.715e-10
 75.50023     44.0 1.186e+04 6.022e-10
 75.52207     45.5 1.188e+04 6.507e-10
 75.53352     47.0 1.191e+04 7.043e-10
 75.54452     47.1 1.176e+04 6.046e-10
 75.55829     48.6 1.186e+04 6.581e-10
 75.56929     49.1 1.195e+04 7.193e-10
 75.57781     50.6 1.210e+04 7.981e-10
 75.58881     50.7 1.211e+04 7.540e-10
 75.61003     52.1 1.225e+04 8.150e-10
 75.62210     53.5 1.235e+04 8.697e-10
 75.63310     53.3 1.236e+04 8.520e-10
 75.65401     54.6 1.243e+04 8.907e-10
 75.66639     55.8 1.249e+04 9.270e-10
 75.67738     55.5 1.249e+04 9.283e-10
 75.69448     56.6 1.257e+04 9.656e-10
 75.70547     56.7 1.287e+04 1.178e-09
 75.71068     57.7 1.301e+04 1.261e-09
 75.72167     57.3 1.299e+04 1.292e-09
 75.74197     58.2 1.313e+04 1.385e-09
 75.75497     59.1 1.330e+04 1.497e-09
 75.76596     58.8 1.329e+04 1.578e-09
 75.78595     59.6 1.347e+04 1.717e-09
 75.79925     60.4 1.367e+04 1.864e-09
 75.81025     60.0 1.372e+04 2.009e-09
 75.82993     60.6 1.402e+04 2.247e-09
 75.84166     61.1 1.434e+04 2.509e-09
 75.84427     61.0 1.455e+04 2.872e-09
 75.85454     60.3 1.456e+04 3.020e-09
 75.87391     60.6 1.510e+04 3.787e-09
 75.88783     60.8 1.570e+04 4.771e-09
 75.89883     60.2 1.576e+04 5.187e-09
 75.91790     60.4 1.641e+04 6.623e-09
 75.93212     60.4 1.687e+04 7.443e-09
 75.94311     59.6 1.685e+04 7.702e-09
 75.96188     59.3 1.694e+04 7.725e-09
 75.97641     59.0 1.688e+04 7.526e-09
 75.98138     58.6 1.645e+04 7.009e-09
 75.98884     58.5 1.650e+04 7.155e-09
 76.00586     58.2 1.644e+04 6.887e-09
 76.02070     57.9 1.630e+04 6.366e-09
 76.03169     57.3 1.570e+04 4.836e-09
 76.04984     56.6 1.577e+04 4.880e-09
 76.06498     55.6 1.594e+04 5.107e-09
 76.07598     54.7 1.546e+04 4.179e-09
 76.09382     53.5 1.582e+04 5.061e-09
 76.10927     52.5 1.626e+04 6.522e-09
 76.11849     52.0 1.568e+04 5.334e-09
 76.12503     52.1 1.540e+04 4.806e-09
 76.13780     51.7 1.576e+04 5.932e-09
 76.15356     51.2 1.588e+04 6.086e-09
 76.16456     51.1 1.493e+04 3.897e-09
 76.18178     50.7 1.475e+04 3.370e-09
 76.19785     50.3 1.441e+04 2.572e-09
 76.20884     49.9 1.352e+04 1.421e-09
 76.22576     49.0 1.311e+04 9.883e-10
 76.24214     48.1 1.269e+04 7.076e-10
 76.25313     47.9 1.228e+04 5.089e-10
 76.26121     47.7 1.203e+04 4.321e-10
 76.27221     48.3 1.207e+04 4.773e-10
 76.28642     48.4 1.194e+04 4.242e-10
 76.29742     48.8 1.187e+04 4.061e-10
 76.31982     49.3 1.178e+04 4.004e-10
 76.34190     50.4 1.161e+04 3.469e-10
 76.36890     51.8 1.134e+04 2.789e-10
 76.40849     53.4 1.109e+04 2.253e-10
 76.43048     54.7 1.106e+04 1.836e-10
 76.45686     56.2 1.085e+04 1.595e-10
 76.49707     57.7 1.070e+04 1.555e-10
 76.51906     59.0 1.078e+04 1.386e-10
 76.53378     60.6 1.074e+04 1.394e-10
 76.55577     61.2 1.070e+04 1.325e-10
 76.58564     62.9 1.068e+04 1.331e-10
 76.60763     64.2 1.073e+04 1.278e-10
 76.63278     65.9 1.069e+04 1.324e-10
 76.67422     67.4 1.070e+04 1.437e-10
 76.69621     68.9 1.071e+04 1.442e-10
 76.72074     70.3 1.077e+04 1.633e-10
 76.76280     71.5 1.086e+04 1.897e-10
 76.78479     72.9 1.107e+04 1.941e-10
 76.80615     73.9 1.114e+04 2.236e-10
 76.82815     75.1 1.102e+04 1.848e-10
 76.85137     76.0 1.118e+04 2.228e-10
 76.87336     77.1 1.135e+04 2.781e-10
 76.89667     77.9 1.139e+04 3.105e-10
 76.93995     78.6 1.140e+04 3.301e-10
 76.96194     79.5 1.154e+04 3.686e-10
 76.98463     80.1 1.148e+04 3.390e-10
 77.02853     80.8 1.140e+04 3.048e-10
 77.07251     82.0 1.111e+04 2.521e-10
 77.10052     82.7 1.103e+04 2.520e-10
 77.12251     84.1 1.110e+04 2.599e-10
 77.13909     84.8 1.100e+04 2.577e-10
 77.16108     85.3 1.087e+04 2.423e-10
 77.20453     86.2 1.082e+04 2.553e-10
 77.22767     87.1 1.080e+04 2.752e-10
 77.24966     87.6 1.067e+04 2.739e-10
 77.29250     88.6 1.068e+04 2.991e-10
 77.31625     89.5 1.070e+04 3.239e-10
 77.33824     89.9 1.056e+04 3.136e-10
 77.37289     90.9 1.056e+04 3.367e-10
 77.39488     91.9 1.053e+04 3.265e-10
 77.40482     93.0 1.057e+04 3.654e-10
 77.42681     93.2 1.045e+04 3.390e-10
 77.46842     94.3 1.050e+04 3.730e-10
 77.49340     95.4 1.060e+04 4.168e-10
 77.51539     95.5 1.038e+04 3.290e-10
 77.55638     96.7 1.038e+04 3.233e-10
 77.58198     97.8 1.038e+04 3.130e-10
 77.60397     98.2 1.012e+04 2.301e-10
 77.64434     99.5 1.011e+04 2.181e-10
 77.66725    100.7 1.011e+04 2.126e-10
 77.67147    101.4 1.010e+04 2.196e-10
 77.69254    102.1 9.920e+03 1.832e-10
 77.73230    103.6 9.957e+03 1.910e-10
 77.75913    105.0 1.003e+04 2.051e-10
 77.78112    106.0 9.848e+03 1.722e-10
 77.82027    107.5 9.938e+03 1.870e-10
 77.84770    108.8 1.001e+04 2.004e-10
 77.86970    110.0 9.843e+03 1.653e-10
 77.90823    111.2 9.904e+03 1.783e-10
 77.93628    112.4 9.956e+03 1.924e-10
 77.94569    113.5 9.845e+03 1.721e-10
 77.96162    113.9 9.860e+03 1.704e-10
 77.99619    114.8 9.971e+03 2.041e-10
 78.02486    115.4 1.016e+04 2.557e-10
 78.04685    116.6 1.013e+04 2.543e-10
 78.08415    116.9 1.032e+04 3.226e-10
 78.11343    117.0 1.058e+04 4.088e-10
 78.13542    118.4 1.042e+04 3.963e-10
 78.17211    118.7 1.059e+04 4.791e-10
 78.20201    118.9 1.082e+04 5.979e-10
 78.21991    120.4 1.056e+04 4.830e-10
 78.23399    120.4 1.039e+04 3.919e-10
 78.26008    120.5 1.059e+04 4.525e-10
 78.29059    120.4 1.089e+04 5.697e-10
 78.31258    122.3 1.066e+04 4.384e-10
 78.34804    122.6 1.118e+04 5.836e-10
 78.37907    122.8 1.140e+04 6.705e-10
 78.38996    124.0 1.106e+04 5.167e-10
 78.40282    123.9 1.128e+04 6.125e-10
 78.42326    123.9 1.154e+04 7.590e-10
 78.43425    124.8 1.130e+04 6.151e-10
 78.44680    124.9 1.153e+04 7.529e-10
 78.46755    125.0 1.173e+04 8.843e-10
 78.47854    126.0 1.151e+04 7.422e-10
 78.49078    126.2 1.170e+04 8.520e-10
 78.50617    126.1 1.201e+04 9.755e-10
 78.51623    126.4 1.183e+04 9.238e-10
 78.52283    127.5 1.157e+04 7.911e-10
 78.53476    127.5 1.188e+04 8.938e-10
 78.55612    127.0 1.257e+04 1.132e-09
 78.56712    128.3 1.201e+04 8.780e-10
 78.57874    127.7 1.278e+04 1.155e-09
 78.60041    126.8 1.373e+04 1.786e-09
 78.61141    128.2 1.297e+04 1.254e-09
 78.62272    127.4 1.382e+04 1.953e-09
 78.64235    126.7 1.455e+04 2.944e-09
 78.65333    126.9 1.457e+04 2.896e-09
 78.66669    127.9 1.473e+04 3.299e-09
 78.68869    127.4 1.536e+04 4.129e-09
 78.69998    127.0 1.549e+04 4.084e-09
 78.71098    128.6 1.554e+04 4.310e-09
 78.73268    128.3 1.560e+04 4.106e-09
 78.74427    128.2 1.563e+04 3.279e-09
 78.75527    129.7 1.592e+04 4.228e-09
 78.77666    129.4 1.586e+04 3.040e-09
 78.78856    128.9 1.533e+04 1.884e-09
 78.79044    130.5 1.639e+04 2.908e-09
 78.80053    130.7 1.701e+04 5.578e-09
 78.82064    130.4 1.673e+04 3.427e-09
 78.83285    129.7 1.587e+04 2.011e-09
 78.84384    130.9 1.785e+04 3.512e-09
 78.86462    129.9 1.664e+04 1.911e-09
 78.87713    128.7 1.432e+04 1.485e-09
 78.88813    129.8 1.785e+04 1.809e-09
 78.90860    128.6 1.438e+04 1.505e-09
 78.92142    127.9 1.335e+04 1.508e-09
 78.92755    128.7 1.498e+04 1.588e-09
 78.93672    129.6 1.815e+04 2.626e-09
 78.95258    129.1 1.555e+04 2.030e-09
 78.96571    129.0 1.451e+04 2.041e-09
 78.97671    129.0 1.625e+04 2.938e-09
 78.99656    128.9 1.579e+04 2.959e-09
 79.01000    128.3 1.564e+04 3.222e-09
 79.02099    127.8 1.872e+04 5.609e-09
 79.04054    126.5 1.903e+04 6.454e-09
 79.05429    124.7 2.004e+04 9.491e-09
 79.05974    123.7 2.243e+04 1.226e-08
 79.06731    122.1 2.328e+04 1.386e-08
 79.07281    122.7 2.345e+04 1.719e-08
 79.07633    121.0 2.374e+04 1.911e-08
 79.08183    119.1 2.464e+04 2.896e-08
 79.08992    117.7 2.419e+04 2.885e-08
 79.09848    116.6 2.344e+04 2.736e-08
 79.10398    115.7 2.284e+04 4.425e-08
 79.11191    114.8 2.242e+04 3.295e-08
 79.12062    113.7 2.212e+04 2.555e-08
 79.12612    113.0 2.206e+04 3.171e-08
 79.13390    111.5 2.175e+04 2.537e-08
 79.14090    110.3 2.143e+04 2.206e-08
 79.14427    110.2 2.100e+04 2.045e-08
 79.14826    109.3 2.108e+04 2.157e-08
 79.15589    108.5 2.075e+04 1.939e-08
 79.17244    107.4 2.046e+04 1.692e-08
 79.18715    107.0 1.946e+04 1.173e-08
 79.19815    106.6 1.941e+04 9.528e-09
 79.20909    106.4 1.781e+04 4.768e-09
 79.22009    105.7 1.687e+04 3.801e-09
 79.23144    105.2 1.568e+04 2.053e-09
 79.24244    104.1 1.486e+04 1.574e-09
 79.26045    103.0 1.330e+04 7.163e-10
 79.27573    102.0 1.237e+04 3.944e-10
 79.28672    102.6 1.224e+04 3.561e-10
 79.30443    102.5 1.192e+04 2.923e-10
 79.32002    103.2 1.175e+04 2.721e-10
 79.33101    104.0 1.180e+04 2.683e-10
 79.34528    105.0 1.154e+04 2.448e-10
 79.35627    105.4 1.171e+04 2.447e-10
 79.36431    106.1 1.153e+04 2.381e-10
 79.37540    107.4 1.236e+04 2.564e-10
 79.40358    108.7 1.096e+04 2.159e-10
 79.44208    110.5 1.082e+04 2.142e-10
 79.46407    112.9 1.077e+04 2.001e-10
 79.49154    114.9 1.068e+04 1.987e-10
 79.53066    117.5 1.065e+04 2.065e-10
 79.55265    119.2 1.064e+04 2.109e-10
 79.57950    121.8 1.066e+04 2.324e-10
 79.61785    124.5 1.081e+04 2.771e-10
 79.63559    124.6 1.066e+04 2.789e-10
 79.64123    126.0 1.062e+04 2.933e-10
 79.66747    128.2 1.071e+04 3.483e-10
 79.70035    129.1 1.072e+04 3.925e-10
 79.71861    130.1 1.072e+04 4.549e-10
 79.72961    131.2 1.067e+04 5.067e-10
 79.74424    132.4 1.082e+04 6.003e-10
 79.76290    133.5 1.104e+04 7.106e-10
 79.77250    134.3 1.104e+04 7.172e-10
 79.77583    134.3 1.078e+04 5.635e-10
 79.78822    135.4 1.100e+04 6.710e-10
 79.80719    136.3 1.126e+04 8.025e-10
 79.81818    137.0 1.117e+04 7.554e-10
 79.83220    137.8 1.144e+04 9.051e-10
 79.85148    138.5 1.177e+04 1.103e-09
 79.86247    139.1 1.168e+04 1.011e-09
 79.87618    139.8 1.202e+04 1.238e-09
 79.89576    140.5 1.239e+04 1.530e-09
 79.90676    140.8 1.234e+04 1.407e-09
 79.91201    141.6 1.270e+04 1.719e-09
 79.92301    142.2 1.215e+04 1.320e-09
 79.94005    143.0 1.257e+04 1.656e-09
 79.95105    143.2 1.237e+04 1.482e-09
 79.96414    144.0 1.276e+04 1.804e-09
 79.98434    144.9 1.317e+04 2.205e-09
 79.99534    144.9 1.292e+04 1.997e-09
 80.00812    145.8 1.330e+04 2.403e-09
 80.02863    146.6 1.374e+04 2.939e-09
 80.03963    146.8 1.347e+04 2.644e-09
 80.04820    147.6 1.396e+04 3.274e-09
 80.05920    148.4 1.330e+04 2.489e-09
 80.07292    149.2 1.383e+04 3.116e-09
 80.08391    149.6 1.354e+04 2.775e-09
 80.09608    150.4 1.417e+04 3.586e-09
 80.11721    151.1 1.484e+04 4.636e-09
 80.12820    151.5 1.463e+04 4.048e-09
 80.14007    152.1 1.549e+04 5.494e-09
 80.16149    152.6 1.646e+04 7.320e-09
 80.17249    152.8 1.646e+04 6.630e-09
 80.18405    153.4 1.757e+04 9.369e-09
 80.19538    154.0 1.886e+04 1.370e-08
 80.20612    155.7 1.745e+04 9.553e-09
 80.21673    155.5 1.788e+04 1.039e-08
 80.22243    155.6 1.851e+04 1.258e-08
 80.23333    155.9 1.914e+04 1.513e-08
 80.23882    155.9 1.912e+04 1.435e-08
 80.24442    156.3 1.963e+04 1.747e-08
 80.25542    156.6 2.008e+04 2.096e-08
 80.26097    157.0 2.044e+04 2.488e-08
 80.26343    157.5 2.023e+04 2.100e-08
 80.26888    158.0 2.012e+04 1.895e-08
 80.27741    158.4 2.042e+04 2.221e-08
 80.28311    158.8 2.067e+04 2.579e-08
 80.28861    158.9 2.033e+04 1.958e-08
 80.29940    159.2 2.066e+04 2.251e-08
 80.30526    159.6 2.096e+04 2.496e-08
 80.31630    159.1 2.015e+04 1.665e-08
 80.33157    159.6 2.041e+04 1.750e-08
 80.33702    161.7 2.002e+04 1.456e-08
 80.34338    162.0 2.023e+04 1.509e-08
 80.34955    162.2 2.045e+04 1.542e-08
 80.36059    162.8 1.947e+04 1.088e-08
 80.38196    163.5 1.949e+04 1.061e-08
 80.39393    164.3 1.936e+04 9.499e-09
 80.40493    163.5 1.676e+04 5.998e-09
 80.42594    164.2 1.661e+04 5.763e-09
 80.43822    164.8 1.621e+04 5.080e-09
 80.44921    165.4 1.588e+04 5.211e-09
 80.46776    165.9 1.566e+04 4.970e-09
 80.47875    168.3 1.619e+04 5.017e-09
 80.48251    168.9 1.609e+04 4.707e-09
 80.48796    169.2 1.637e+04 5.538e-09
 80.49731    169.1 1.633e+04 5.564e-09
 80.50455    169.1 1.630e+04 5.616e-09
 80.51005    169.1 1.672e+04 6.337e-09
 80.51930    169.0 1.667e+04 6.578e-09
 80.52670    168.8 1.662e+04 6.907e-09
 80.53220    169.2 1.705e+04 8.077e-09
 80.54125    169.0 1.694e+04 8.519e-09
 80.54880    170.4 1.706e+04 8.221e-09
 80.55434    170.7 1.733e+04 9.272e-09
 80.56328    170.5 1.723e+04 9.761e-09
 80.57099    170.4 1.719e+04 1.027e-08
 80.57648    170.7 1.735e+04 1.088e-08
 80.58527    170.5 1.735e+04 1.113e-08
 80.59313    170.2 1.746e+04 1.133e-08
 80.59863    170.5 1.743e+04 1.137e-08
 80.60726    170.1 1.755e+04 1.135e-08
 80.61484    169.4 1.757e+04 1.125e-08
 80.61735    171.4 1.749e+04 1.102e-08
 80.62077    171.6 1.719e+04 1.013e-08
 80.62926    170.7 1.718e+04 9.826e-09
 80.63742    169.9 1.705e+04 9.053e-09
 80.64292    170.5 1.658e+04 7.552e-09
 80.65125    169.3 1.644e+04 6.618e-09
 80.65956    167.5 1.625e+04 5.552e-09
 80.66506    167.3 1.610e+04 4.618e-09
 80.67324    164.7 1.654e+04 3.697e-09
 80.68171    159.8 1.733e+04 3.670e-09
 80.68591    156.6 1.921e+04 3.608e-09
 80.68843    148.6 2.956e+04 6.203e-09
 80.69523    122.5 3.763e+04 2.288e-08
 80.70385    102.4 3.170e+04 6.881e-08
 80.70935     96.1 2.995e+04 8.515e-08
 80.71722     87.8 2.690e+04 8.493e-08
 80.72600     83.5 2.499e+04 5.846e-08
 80.73149     81.7 2.488e+04 4.803e-08
 80.73921     78.0 2.750e+04 1.838e-08
 80.74814     74.6 3.074e+04 7.877e-09
 80.75451     69.6 3.237e+04 4.992e-09
 80.76212     55.3 2.719e+04 1.411e-09
 80.77779     50.1 1.335e+04 1.633e-09
 80.79253     51.8 1.268e+04 1.524e-09
 80.80352     52.7 1.279e+04 1.609e-09
 80.82177     55.8 1.270e+04 1.605e-09
 80.85485     58.7 1.228e+04 1.390e-09
 80.88130     63.1 1.195e+04 1.309e-09
 80.90329     63.9 1.202e+04 1.363e-09
 80.94291     67.6 1.165e+04 1.207e-09
 80.96987     71.1 1.118e+04 9.998e-10
 80.99186     71.4 1.109e+04 9.515e-10
 81.02369     74.7 1.056e+04 7.384e-10
 81.04568     74.3 1.055e+04 7.781e-10
 81.05845     77.7 1.013e+04 6.216e-10
 81.08044     78.1 9.902e+03 5.235e-10
 81.11884     81.3 9.557e+03 4.186e-10
 81.14703     84.3 9.250e+03 3.410e-10
 81.16902     84.7 9.228e+03 3.282e-10
 81.20680     87.5 9.146e+03 3.084e-10
 81.23560     90.0 9.122e+03 2.978e-10
 81.25759     90.6 9.387e+03 3.756e-10
 81.29476     92.8 9.641e+03 4.430e-10
 81.31805     94.7 9.953e+03 5.282e-10
 81.32548     94.5 9.880e+03 5.147e-10
 81.34617     95.4 1.038e+04 7.346e-10
 81.38272     97.0 1.099e+04 1.010e-09
 81.41276     97.9 1.133e+04 1.186e-09
 81.43475     98.6 1.182e+04 1.446e-09
 81.47068     98.7 1.182e+04 1.439e-09
 81.50133     98.7 1.164e+04 1.318e-09
 81.52332     99.4 1.185e+04 1.390e-09
 81.55865     99.6 1.135e+04 1.047e-09
 81.58991     99.8 1.059e+04 6.616e-10
 81.59970    100.7 1.073e+04 6.716e-10
 81.61242    100.0 1.019e+04 4.330e-10
 81.64661    100.2 9.500e+03 2.561e-10
 81.67849    100.5 9.265e+03 2.081e-10
 81.70048    101.5 9.331e+03 1.899e-10
 81.73457    102.1 9.331e+03 1.895e-10
 81.76706    102.8 9.368e+03 2.023e-10
 81.78905    103.7 9.462e+03 1.860e-10
 81.82253    104.3 9.612e+03 2.268e-10
 81.85564    104.8 9.923e+03 3.054e-10
 81.87392    106.0 9.898e+03 2.905e-10
 81.88479    105.9 1.039e+04 4.911e-10
 81.91049    106.3 1.077e+04 5.857e-10
 81.94422    106.4 1.089e+04 5.846e-10
 81.96621    108.0 1.100e+04 6.436e-10
 81.99845    108.1 1.103e+04 6.328e-10
 82.03279    108.0 1.104e+04 6.332e-10
 82.05478    110.0 1.121e+04 7.220e-10
 82.08642    109.9 1.142e+04 7.824e-10
 82.12137    109.1 1.196e+04 9.867e-10
 82.14326    109.6 1.294e+04 1.362e-09
 82.15697    107.9 1.374e+04 1.975e-09
 82.16796    106.3 1.488e+04 3.713e-09
 82.17646    105.1 1.532e+04 4.615e-09
 82.18745    105.2 1.602e+04 6.423e-09
 82.20717    104.0 1.604e+04 6.400e-09
 82.22075    103.0 1.579e+04 5.622e-09
 82.23174    103.4 1.630e+04 7.261e-09
 82.25115    102.6 1.558e+04 4.938e-09
 82.26503    101.2 1.439e+04 2.582e-09
 82.27603    101.6 1.469e+04 3.029e-09
 82.29316     99.0 1.329e+04 1.716e-09
 82.30415     97.8 1.350e+04 1.986e-09
 82.30932     94.9 1.240e+04 1.461e-09
 82.32032     94.8 1.240e+04 1.467e-09
 82.35020     92.7 1.213e+04 1.336e-09
 82.38710     90.6 1.188e+04 1.285e-09
 82.40909     90.8 1.150e+04 1.082e-09
 82.42954     90.1 1.110e+04 8.627e-10
 82.45153     90.0 1.108e+04 8.039e-10
 82.47568     89.5 1.046e+04 4.712e-10
 82.49767     89.4 9.892e+03 2.906e-10
 82.52623     88.8 9.362e+03 1.588e-10
 82.56425     88.3 8.949e+03 9.078e-11
 82.58624     88.7 8.897e+03 8.693e-11
 82.61419     88.8 8.689e+03 6.079e-11
 82.65283     89.1 8.528e+03 4.737e-11
 82.67482     90.0 8.535e+03 4.626e-11
 82.70191     90.6 8.402e+03 3.794e-11
 82.72390     90.5 8.336e+03 3.915e-11
 82.74140     91.4 8.295e+03 3.919e-11
 82.76340     92.2 8.264e+03 3.676e-11
 82.79011     93.4 8.255e+03 3.688e-11
 82.82998     94.8 8.224e+03 3.781e-11
 82.85197     95.7 8.225e+03 3.648e-11
 82.87807     97.2 8.204e+03 3.855e-11
 82.91856     98.7 8.216e+03 4.149e-11
 82.94055     99.8 8.232e+03 3.949e-11
 82.96604    101.3 8.257e+03 4.182e-11
 82.99627    102.9 8.293e+03 4.417e-11
 83.01538    102.8 8.332e+03 4.528e-11
 83.02912    103.7 8.343e+03 4.341e-11
 83.05400    105.2 8.385e+03 4.559e-11
 83.09571    106.7 8.430e+03 4.779e-11
 83.11770    107.5 8.526e+03 4.976e-11
 83.14196    108.9 8.623e+03 5.579e-11
 83.18429    110.2 8.712e+03 6.428e-11
 83.20628    110.9 8.766e+03 9.013e-11
 83.22992    112.3 8.870e+03 1.112e-10
 83.26865    113.8 8.998e+03 1.369e-10
 83.28960    113.1 9.192e+03 1.706e-10
 83.29485    114.1 9.420e+03 2.222e-10
 83.31788    115.4 9.637e+03 2.513e-10
 83.36144    116.7 9.876e+03 2.814e-10
 83.38343    117.1 9.899e+03 2.746e-10
 83.40584    118.1 1.010e+04 2.921e-10
 83.44983    118.8 1.032e+04 3.215e-10
 83.48271    118.8 1.041e+04 3.283e-10
 83.50461    118.6 1.062e+04 3.880e-10
 83.51610    118.2 1.085e+04 5.084e-10
 83.52710    118.2 1.075e+04 4.894e-10
 83.54859    117.9 1.096e+04 6.674e-10
 83.56039    117.8 1.119e+04 8.962e-10
 83.56362    118.2 1.114e+04 8.737e-10
 83.57381    117.6 1.104e+04 8.937e-10
 83.59257    117.8 1.131e+04 1.044e-09
 83.60468    117.5 1.164e+04 1.063e-09
 83.61567    117.7 1.157e+04 9.614e-10
 83.63655    117.0 1.158e+04 9.480e-10
 83.64897    115.9 1.158e+04 8.877e-10
 83.65996    115.9 1.148e+04 7.979e-10
 83.68053    114.5 1.125e+04 7.189e-10
 83.69325    113.1 1.096e+04 6.564e-10
 83.70073    113.4 1.087e+04 6.291e-10
 83.71000    112.6 1.044e+04 5.340e-10
 83.72451    111.7 1.042e+04 5.366e-10
 83.73754    110.9 1.042e+04 5.517e-10
 83.74854    111.5 1.049e+04 5.592e-10
 83.76849    110.6 1.058e+04 6.029e-10
 83.78183    109.8 1.063e+04 6.472e-10
 83.79283    110.3 1.069e+04 6.488e-10
 83.81247    109.6 1.070e+04 6.526e-10
 83.82612    109.0 1.067e+04 6.402e-10
 83.83794    110.0 1.083e+04 6.079e-10
 83.85728    108.2 1.056e+04 5.869e-10
 83.88954    107.5 1.026e+04 4.896e-10
 83.91489    106.8 9.883e+03 4.236e-10
 83.92579    107.7 1.014e+04 4.784e-10
 83.94442    107.3 1.003e+04 4.729e-10
 83.95898    107.1 1.001e+04 4.748e-10
 83.96998    107.4 1.012e+04 5.031e-10
 83.98237    107.3 1.007e+04 5.224e-10
 83.99336    106.8 9.954e+03 4.918e-10
 84.00327    106.8 9.922e+03 5.034e-10
 84.01427    107.7 1.013e+04 5.831e-10
 84.03238    107.9 1.013e+04 5.933e-10
 84.04756    108.1 1.014e+04 6.089e-10
 84.05855    108.5 1.018e+04 5.967e-10
 84.07636    108.7 1.019e+04 5.882e-10
 84.09185    108.9 1.023e+04 5.773e-10
 84.11215    109.1 1.022e+04 4.379e-10
 84.12975    108.0 1.006e+04 3.969e-10
 84.15352    107.4 1.003e+04 3.571e-10
 84.18062    106.3 9.966e+03 3.256e-10
 84.20261    106.1 9.604e+03 2.562e-10
 84.24148    104.4 9.780e+03 2.861e-10
 84.26920    102.7 1.005e+04 3.392e-10
 84.29119    102.9 1.002e+04 3.381e-10
 84.31339    101.5 1.027e+04 3.970e-10
 84.32428    101.7 1.019e+04 3.867e-10
 84.34024    100.2 1.038e+04 4.528e-10
 84.35758     98.3 1.052e+04 5.331e-10
 84.36857     99.1 1.059e+04 5.232e-10
 84.38422     97.1 1.065e+04 5.809e-10
 84.40187     95.2 1.067e+04 6.127e-10
 84.41286     95.8 1.072e+04 6.071e-10
 84.42821     94.0 1.077e+04 6.399e-10
 84.44615     92.2 1.083e+04 6.665e-10
 84.45715     92.5 1.087e+04 6.350e-10
 84.47219     90.6 1.089e+04 6.554e-10
 84.49044     88.7 1.091e+04 6.701e-10
 84.50144     89.0 1.086e+04 6.253e-10
 84.51617     86.9 1.095e+04 6.635e-10
 84.53473     84.4 1.128e+04 7.658e-10
 84.54568     84.5 1.126e+04 7.529e-10
 84.56010     83.2 1.157e+04 9.447e-10
 84.57902     79.0 1.274e+04 1.562e-09
 84.59001     76.2 1.420e+04 2.152e-09
 84.60413     65.1 1.947e+04 7.046e-09
 84.62331     54.8 2.153e+04 1.246e-08
 84.63430     51.3 2.173e+04 1.392e-08
 84.64811     43.4 2.101e+04 1.072e-08
 84.66760     35.3 1.923e+04 4.715e-09
 84.67859     31.3 1.854e+04 2.912e-09
 84.68529     20.8 1.335e+04 1.172e-09
 84.69629     24.3 1.456e+04 1.454e-09
 84.71188     19.1 1.235e+04 1.092e-09
 84.72288     19.6 1.237e+04 1.070e-09
 84.73607     16.3 1.109e+04 8.811e-10
 84.76916     13.6 1.089e+04 7.294e-10
 84.80066     11.5 1.070e+04 6.077e-10
 84.82265      9.1 1.051e+04 5.193e-10
 84.85722      7.3 1.049e+04 5.246e-10
 84.88923      5.9 1.048e+04 4.995e-10
 84.91122      4.1 1.028e+04 4.302e-10
 84.94518      2.7 1.024e+04 3.146e-10
 84.96886      0.3 1.016e+04 2.232e-10
 84.97950      0.0 1.010e+04 2.156e-10
 84.99980     -2.5 1.010e+04 1.945e-10
 85.03314     -4.2 9.808e+03 1.900e-10
 85.06639     -4.7 9.783e+03 1.953e-10
 85.08838     -5.5 1.011e+04 2.573e-10
 85.12110     -4.8 1.018e+04 2.474e-10
 85.15496     -4.2 1.035e+04 2.057e-10
 85.17695     -4.0 1.051e+04 2.811e-10
 85.20906     -3.5 1.064e+04 2.394e-10
 85.24123     -3.5 1.081e+04 2.468e-10
 85.25371     -6.1 1.101e+04 3.188e-10
 85.26553     -5.2 1.127e+04 4.277e-10
 85.28593     -5.2 1.133e+04 4.386e-10
 85.29863     -5.2 1.128e+04 4.779e-10
 85.30962     -5.0 1.134e+04 5.264e-10
 85.33202     -5.5 1.158e+04 7.015e-10
 85.35401     -4.8 1.168e+04 8.237e-10
 85.38489     -4.6 1.169e+04 9.241e-10
 85.42069     -4.3 1.152e+04 8.649e-10
 85.44268     -3.8 1.137e+04 8.207e-10
 85.47295     -3.7 1.094e+04 6.248e-10
 85.50927     -4.1 1.060e+04 4.928e-10
 85.52793     -4.2 1.048e+04 4.867e-10
 85.53559     -4.9 1.031e+04 4.663e-10
 85.56091     -5.1 1.033e+04 4.923e-10
 85.59784     -5.4 1.042e+04 5.370e-10
 85.61983     -6.1 1.048e+04 5.599e-10
 85.64887     -6.9 1.045e+04 5.772e-10
 85.68642     -7.5 1.033e+04 5.527e-10
 85.70841     -8.4 1.015e+04 5.020e-10
 85.73683     -9.2 9.981e+03 3.980e-10
 85.77500    -11.7 1.024e+04 3.835e-10
 85.79699    -15.8 1.055e+04 4.532e-10
 85.80796    -19.8 1.147e+04 8.494e-10
 85.81886    -19.9 1.136e+04 7.474e-10
 85.83009    -21.5 1.175e+04 1.091e-09
 85.84108    -22.1 1.182e+04 1.239e-09
 85.85759    -22.5 1.244e+04 1.941e-09
 85.87437    -22.2 1.249e+04 2.213e-09
 85.88537    -22.6 1.240e+04 2.096e-09
 85.90157    -21.8 1.215e+04 1.884e-09
 85.91866    -22.1 1.172e+04 1.440e-09
 85.92966    -22.7 1.137e+04 1.223e-09
 85.94396    -22.5 1.041e+04 7.469e-10
 85.95495    -22.8 1.038e+04 7.443e-10
 85.96295    -23.9 9.774e+03 4.831e-10
 85.97395    -24.5 9.549e+03 4.222e-10
 86.00062    -24.2 8.836e+03 2.378e-10
 86.04073    -24.4 8.359e+03 1.399e-10
 86.06272    -25.3 8.542e+03 1.613e-10
 86.08034    -24.7 8.554e+03 1.671e-10
 86.10233    -24.5 8.724e+03 2.086e-10
 86.12930    -23.5 8.891e+03 2.414e-10
 86.15129    -24.1 9.434e+03 4.036e-10
 86.17664    -23.3 9.783e+03 4.971e-10
 86.21788    -22.7 1.039e+04 7.082e-10
 86.23987    -23.9 1.059e+04 8.055e-10
 86.26460    -23.1 1.124e+04 1.149e-09
 86.30646    -22.0 1.189e+04 1.585e-09
 86.32845    -22.7 1.114e+04 1.046e-09
 86.34147    -21.3 1.124e+04 1.188e-09
 86.36154    -20.6 1.135e+04 1.175e-09
 86.37254    -21.0 1.067e+04 7.051e-10
 86.37451    -20.8 1.074e+04 7.175e-10
 86.38550    -20.8 1.041e+04 6.184e-10
 86.40583    -20.6 1.056e+04 6.568e-10
 86.41683    -21.4 9.841e+03 4.082e-10
 86.42934    -21.3 1.024e+04 5.011e-10
 86.45012    -21.4 1.084e+04 7.063e-10
 86.46112    -21.4 1.017e+04 4.833e-10
 86.47332    -20.8 1.076e+04 7.495e-10
 86.49441    -19.6 1.126e+04 1.162e-09
 86.50540    -20.1 1.127e+04 8.634e-10
 86.51069    -23.1 1.462e+04 2.078e-09
 86.52169    -25.7 1.542e+04 2.144e-09
 86.53870    -30.0 1.850e+04 9.077e-09
 86.54969    -32.2 1.961e+04 1.302e-08
 86.55573    -31.3 2.032e+04 2.065e-08
 86.56624    -30.2 2.068e+04 3.074e-08
 86.57174    -31.8 2.136e+04 4.226e-08
 86.57768    -31.3 2.213e+04 5.283e-08
 86.58419    -32.0 2.299e+04 5.361e-08
 86.58940    -31.0 2.198e+04 3.860e-08
 86.59388    -31.9 2.261e+04 4.612e-08
 86.59967    -32.2 2.305e+04 3.899e-08
 86.61053    -33.0 2.381e+04 2.928e-08
 86.61603    -33.7 2.396e+04 2.967e-08
 86.62166    -36.5 2.308e+04 1.687e-08
 86.63265    -38.6 2.151e+04 1.396e-08
 86.64683    -44.8 1.642e+04 7.227e-09
 86.65787    -43.4 1.604e+04 5.092e-09
 86.67123    -44.2 1.418e+04 3.778e-09
 86.68256    -43.1 1.344e+04 3.139e-09
 86.69355    -43.6 1.281e+04 2.738e-09
 86.71521    -42.4 1.264e+04 2.413e-09
 86.72685    -41.6 1.251e+04 2.102e-09
 86.73784    -42.9 1.241e+04 1.981e-09
 86.75919    -43.4 1.285e+04 2.067e-09
 86.77113    -46.0 1.435e+04 2.770e-09
 86.78213    -49.6 1.510e+04 3.615e-09
 86.79406    -52.6 1.618e+04 5.960e-09
 86.80506    -52.5 1.690e+04 8.167e-09
 86.81542    -53.2 1.756e+04 1.187e-08
 86.82642    -54.4 1.682e+04 1.145e-08
 86.84716    -53.3 1.646e+04 1.144e-08
 86.85971    -51.5 1.618e+04 9.141e-09
 86.87071    -52.0 1.513e+04 5.147e-09
 86.89114    -54.4 1.515e+04 2.879e-09
 86.90400    -59.7 1.354e+04 1.339e-09
 86.91499    -63.4 1.074e+04 7.151e-10
 86.93025    -66.3 9.423e+03 5.089e-10
 86.94124    -66.8 9.455e+03 5.270e-10
 86.94829    -66.5 9.462e+03 5.070e-10
 86.95928    -66.7 9.138e+03 3.903e-10
 86.97910    -66.7 9.084e+03 3.796e-10
 86.99258    -66.7 9.141e+03 3.891e-10
 87.00357    -66.8 9.005e+03 3.457e-10
 87.02308    -66.9 9.013e+03 3.451e-10
 87.03686    -66.9 9.171e+03 3.749e-10
 87.05895    -67.0 9.133e+03 3.570e-10
 87.08125    -66.6 9.208e+03 3.717e-10
 87.09215    -66.7 9.223e+03 3.746e-10
 87.11104    -67.1 9.360e+03 4.039e-10
 87.12544    -67.8 9.709e+03 5.297e-10
 87.13644    -68.1 9.697e+03 5.466e-10
 87.15502    -68.3 1.004e+04 7.006e-10
 87.16973    -68.2 1.048e+04 9.363e-10
 87.18072    -68.1 1.024e+04 8.815e-10
 87.19900    -67.7 1.046e+04 9.644e-10
 87.21361    -67.2 1.056e+04 1.026e-09
 87.21763    -66.9 1.057e+04 1.056e-09
 87.22501    -66.5 1.014e+04 7.896e-10
 87.24299    -66.0 1.018e+04 7.567e-10
 87.25831    -65.6 1.025e+04 6.853e-10
 87.26930    -65.7 9.727e+03 4.400e-10
 87.28697    -65.7 9.657e+03 4.067e-10
 87.30259    -65.7 9.627e+03 3.632e-10
 87.32468    -65.8 9.192e+03 2.773e-10
 87.36413    -65.4 9.346e+03 2.979e-10
 87.39127    -64.7 9.543e+03 3.465e-10
 87.41326    -64.7 9.476e+03 3.391e-10
 87.43556    -63.8 9.429e+03 4.420e-10
 87.44645    -63.4 9.338e+03 4.125e-10
 87.46289    -62.5 9.564e+03 4.557e-10
 87.47975    -61.5 9.798e+03 5.238e-10
 87.49074    -61.3 9.767e+03 4.922e-10
 87.49698    -60.6 1.007e+04 5.789e-10
 87.50798    -59.6 1.002e+04 5.661e-10
 87.52404    -58.9 1.058e+04 6.704e-10
 87.53503    -58.7 1.054e+04 6.620e-10
 87.55085    -58.4 1.094e+04 8.104e-10
 87.56832    -58.3 1.151e+04 1.144e-09
 87.57932    -57.9 1.137e+04 1.102e-09
 87.59483    -57.6 1.216e+04 1.543e-09
 87.61261    -57.3 1.300e+04 2.223e-09
 87.62361    -56.6 1.268e+04 1.981e-09
 87.63317    -55.8 1.312e+04 2.553e-09
 87.64416    -55.1 1.350e+04 3.043e-09
 87.65690    -53.8 1.374e+04 3.750e-09
 87.66790    -53.2 1.357e+04 3.276e-09
 87.68279    -51.8 1.365e+04 3.444e-09
 87.70119    -50.3 1.355e+04 3.230e-09
 87.71218    -50.0 1.348e+04 2.822e-09
 87.72678    -48.7 1.335e+04 2.510e-09
 87.74548    -47.8 1.330e+04 2.155e-09
 87.75647    -47.8 1.334e+04 2.133e-09
 87.76936    -47.5 1.334e+04 1.809e-09
 87.78035    -45.5 1.415e+04 2.384e-09
 87.78976    -45.7 1.415e+04 2.086e-09
 87.80076    -45.8 1.440e+04 2.487e-09
 87.81474    -45.9 1.415e+04 2.343e-09
 87.83405    -45.9 1.374e+04 2.366e-09
 87.84505    -45.3 1.438e+04 2.796e-09
 87.85872    -44.7 1.377e+04 2.678e-09
 87.87834    -43.8 1.321e+04 2.572e-09
 87.88934    -43.3 1.408e+04 2.648e-09
 87.90270    -42.2 1.316e+04 2.255e-09
 87.91654    -41.1 1.284e+04 1.782e-09
 87.92547    -39.6 1.329e+04 2.588e-09
 87.93362    -39.8 1.498e+04 2.819e-09
 87.94668    -39.4 1.413e+04 2.043e-09
 87.96692    -39.7 1.380e+04 1.585e-09
 87.97791    -40.9 1.623e+04 1.899e-09
 87.99066    -41.8 1.507e+04 1.382e-09
 88.01121    -42.8 1.395e+04 1.242e-09
 88.02220    -43.6 1.573e+04 1.915e-09
 88.03464    -44.6 1.418e+04 1.600e-09
 88.05272    -45.0 1.388e+04 1.610e-09
 88.06258    -44.8 1.882e+04 3.979e-09
 88.06649    -45.2 2.014e+04 4.706e-09
 88.07862    -46.5 1.806e+04 4.410e-09
 88.09978    -46.8 1.731e+04 4.922e-09
 88.11078    -48.0 1.646e+04 3.826e-09
 88.12260    -47.9 1.626e+04 4.255e-09
 88.14407    -47.6 1.612e+04 4.529e-09
 88.15507    -48.9 1.475e+04 2.657e-09
 88.16658    -48.9 1.436e+04 2.459e-09
 88.18836    -49.5 1.454e+04 2.423e-09
 88.19935    -51.4 1.357e+04 1.745e-09
 88.19991    -52.5 1.382e+04 1.949e-09
 88.20535    -53.0 1.411e+04 2.484e-09
 88.21590    -53.3 1.415e+04 2.510e-09
 88.22140    -53.9 1.368e+04 2.260e-09
 88.22696    -54.6 1.367e+04 2.567e-09
 88.23796    -54.7 1.369e+04 2.593e-09
 88.24355    -54.6 1.398e+04 3.080e-09
 88.25459    -54.8 1.375e+04 2.869e-09
 88.27654    -53.9 1.419e+04 3.321e-09
 88.28793    -52.5 1.467e+04 3.753e-09
 88.29893    -52.7 1.378e+04 3.175e-09
 88.32052    -51.9 1.421e+04 3.480e-09
 88.33222    -51.3 1.463e+04 3.863e-09
 88.33680    -51.6 1.434e+04 3.692e-09
 88.34709    -52.8 1.495e+04 4.110e-09
 88.36450    -51.9 1.541e+04 4.744e-09
 88.37651    -51.0 1.570e+04 5.525e-09
 88.38750    -51.5 1.569e+04 5.611e-09
 88.40848    -50.4 1.582e+04 6.323e-09
 88.42080    -48.7 1.594e+04 7.141e-09
 88.43179    -49.3 1.575e+04 6.874e-09
 88.45246    -47.6 1.616e+04 8.009e-09
 88.46508    -46.1 1.642e+04 8.524e-09
 88.47391    -47.3 1.589e+04 7.193e-09
 88.48327    -48.0 1.607e+04 7.295e-09
 88.49644    -47.1 1.668e+04 7.927e-09
 88.50937    -46.7 1.738e+04 8.810e-09
 88.52037    -48.3 1.696e+04 8.579e-09
 88.54042    -48.3 1.795e+04 1.073e-08
 88.55366    -48.4 1.893e+04 1.393e-08
 88.56466    -50.1 1.791e+04 1.297e-08
 88.58440    -49.2 1.889e+04 1.830e-08
 88.59790    -49.3 1.908e+04 2.111e-08
 88.60335    -49.8 1.820e+04 1.685e-08
 88.61179    -49.9 1.869e+04 1.960e-08
 88.61936    -49.9 1.896e+04 2.207e-08
 88.62207    -50.1 1.905e+04 2.305e-08
 88.62549    -50.0 1.781e+04 1.557e-08
 88.63378    -49.8 1.776e+04 1.537e-08
 88.64214    -49.8 1.782e+04 1.511e-08
 88.64764    -50.3 1.685e+04 1.017e-08
 88.65577    -50.4 1.692e+04 9.953e-09
 88.66428    -50.7 1.704e+04 9.887e-09
 88.66978    -51.5 1.593e+04 6.763e-09
 88.67777    -51.7 1.594e+04 6.663e-09
 88.68643    -52.2 1.599e+04 6.614e-09
 88.69062    -52.8 1.485e+04 4.918e-09
 88.69295    -52.8 1.479e+04 4.940e-09
 88.69976    -53.0 1.475e+04 4.875e-09
 88.70857    -53.4 1.492e+04 4.992e-09
 88.71407    -53.4 1.438e+04 4.202e-09
 88.72175    -53.4 1.439e+04 4.213e-09
 88.73076    -53.2 1.450e+04 4.395e-09
 88.74181    -53.2 1.311e+04 2.893e-09
 88.75565    -53.3 1.307e+04 2.644e-09
 88.76664    -53.5 1.310e+04 2.606e-09
 88.77510    -53.6 1.290e+04 2.330e-09
 88.78610    -53.6 1.222e+04 1.755e-09
 88.80431    -54.4 1.187e+04 1.511e-09
 88.81939    -55.1 1.160e+04 1.457e-09
 88.83039    -54.8 1.114e+04 1.124e-09
 88.84829    -55.2 1.097e+04 1.128e-09
 88.86368    -55.2 1.108e+04 1.228e-09
 88.87467    -54.9 1.054e+04 9.208e-10
 88.89183    -54.6 1.065e+04 9.979e-10
 88.90283    -54.3 1.087e+04 1.147e-09
 88.90797    -53.8 1.098e+04 1.226e-09
 88.91896    -53.5 1.056e+04 9.710e-10
 88.93625    -53.0 1.063e+04 1.010e-09
 88.95226    -52.3 1.061e+04 9.932e-10
 88.96325    -52.0 1.028e+04 8.224e-10
 88.98023    -51.3 1.022e+04 7.847e-10
 88.99654    -50.6 1.010e+04 7.051e-10
 89.00754    -50.0 9.836e+03 6.042e-10
 89.02421    -49.4 9.738e+03 5.299e-10
 89.03901    -49.0 9.637e+03 4.597e-10
 89.04464    -48.4 9.800e+03 5.285e-10
 89.05183    -47.8 9.626e+03 4.603e-10
 89.06819    -47.7 9.496e+03 4.038e-10
 89.08512    -47.4 9.452e+03 3.978e-10
 89.09612    -46.9 9.328e+03 3.524e-10
 89.11217    -46.9 9.438e+03 3.723e-10
 89.12941    -46.9 9.650e+03 4.386e-10
 89.14040    -46.5 9.568e+03 4.076e-10
 89.15616    -46.5 9.887e+03 5.369e-10
 89.17370    -46.4 1.026e+04 7.321e-10
 89.18175    -46.1 1.030e+04 7.373e-10
 89.18620    -45.4 1.039e+04 7.947e-10
 89.20014    -45.0 1.079e+04 1.061e-09
 89.21798    -44.6 1.129e+04 1.363e-09
 89.22898    -44.5 1.136e+04 1.410e-09
 89.24412    -44.3 1.165e+04 1.546e-09
 89.26227    -44.1 1.154e+04 1.470e-09
 89.27327    -43.9 1.163e+04 1.537e-09
 89.28810    -43.5 1.133e+04 1.291e-09
 89.30656    -43.2 1.094e+04 9.279e-10
 89.31756    -43.0 1.098e+04 9.844e-10
 89.32238    -43.1 1.068e+04 6.612e-10
 89.33338    -42.0 1.084e+04 7.756e-10
 89.35085    -42.7 1.059e+04 5.038e-10
 89.36184    -42.1 1.063e+04 5.391e-10
 89.37606    -43.5 1.033e+04 3.594e-10
 89.39514    -44.9 9.868e+03 3.093e-10
 89.40613    -44.1 1.011e+04 3.232e-10
 89.42004    -45.2 1.011e+04 3.288e-10
 89.43943    -46.4 1.029e+04 3.726e-10
 89.45042    -45.8 1.045e+04 3.947e-10
 89.45857    -46.5 1.034e+04 4.751e-10
 89.46956    -45.9 1.048e+04 4.734e-10
 89.48371    -46.3 1.035e+04 5.889e-10
 89.49471    -45.5 1.042e+04 6.037e-10
 89.50800    -45.8 1.057e+04 6.680e-10
 89.52800    -46.4 1.086e+04 6.653e-10
 89.53900    -46.4 1.110e+04 7.280e-10
 89.55198    -47.9 1.142e+04 7.500e-10
 89.57229    -49.5 1.148e+04 7.803e-10
 89.58329    -49.7 1.167e+04 8.953e-10
 89.59476    -51.0 1.143e+04 9.006e-10
 89.60575    -50.2 1.146e+04 8.332e-10
 89.61658    -51.3 1.103e+04 7.975e-10
 89.62757    -51.3 1.106e+04 8.251e-10
 89.63995    -51.4 1.070e+04 7.503e-10
 89.66087    -51.5 1.048e+04 6.453e-10
 89.67186    -51.3 1.049e+04 6.398e-10
 89.68393    -51.4 1.036e+04 5.139e-10
 89.70516    -52.0 1.030e+04 4.183e-10
 89.71615    -51.9 1.034e+04 4.112e-10
 89.72791    -52.8 1.031e+04 3.710e-10
 89.74194    -55.6 1.099e+04 4.444e-10
 89.75248    -55.5 1.141e+04 4.704e-10
 89.76044    -55.5 1.141e+04 4.675e-10
 89.77189    -59.4 1.250e+04 8.094e-10
 89.79373    -61.1 1.223e+04 1.423e-09
 89.80473    -60.9 1.223e+04 1.415e-09
 89.81587    -60.3 1.218e+04 2.058e-09
 89.83786    -60.1 1.245e+04 2.105e-09
 89.84902    -61.4 1.322e+04 1.764e-09
 89.86001    -60.4 1.298e+04 1.577e-09
 89.87812    -63.1 1.262e+04 1.194e-09
 89.88912    -63.8 1.241e+04 1.081e-09
 89.89330    -67.7 1.097e+04 7.683e-10
 89.90430    -66.9 1.084e+04 6.603e-10
 89.92582    -68.4 1.036e+04 6.047e-10
 89.93759    -69.1 1.023e+04 5.870e-10
 89.94859    -68.2 1.015e+04 5.410e-10
 89.96980    -68.6 1.010e+04 5.468e-10
 89.98188    -69.0 9.998e+03 5.179e-10
 89.99288    -68.0 9.997e+03 5.183e-10
 90.01378    -68.3 1.007e+04 4.989e-10
 90.02531    -69.0 9.889e+03 4.430e-10
 90.04739    -68.3 9.783e+03 3.753e-10
 90.07065    -69.0 9.504e+03 3.434e-10
 90.09264    -66.8 9.567e+03 3.319e-10
 90.13493    -66.9 9.436e+03 3.174e-10
 90.15923    -66.8 9.462e+03 3.045e-10
 90.18122    -65.0 9.523e+03 2.957e-10
 90.22289    -65.3 9.620e+03 3.039e-10
 90.24781    -65.7 9.965e+03 3.574e-10
 90.26980    -64.8 1.024e+04 4.266e-10
 90.29787    -66.8 1.108e+04 6.923e-10
 90.31986    -63.1 1.026e+04 3.335e-10
 90.33638    -65.9 1.150e+04 6.697e-10
 90.34728    -67.2 1.188e+04 8.870e-10
 90.36563    -68.4 1.257e+04 1.462e-09
 90.38047    -69.4 1.349e+04 2.614e-09
 90.39147    -70.6 1.422e+04 3.742e-09
 90.40961    -72.5 1.582e+04 5.748e-09
 90.42476    -74.7 1.744e+04 7.506e-09
 90.43576    -75.4 1.782e+04 8.669e-09
 90.44486    -79.6 1.811e+04 7.339e-09
 90.45586    -76.2 1.901e+04 1.039e-08
 90.46905    -80.9 1.921e+04 8.570e-09
 90.48005    -82.3 1.852e+04 6.421e-09
 90.49757    -89.9 1.558e+04 3.149e-09
 90.51334    -97.5 1.394e+04 2.218e-09
 90.52433    -98.0 1.265e+04 1.599e-09
 90.54155   -103.2 1.282e+04 1.614e-09
 90.55763   -108.1 1.356e+04 2.147e-09
 90.56862   -107.3 1.353e+04 1.989e-09
 90.58105   -111.4 1.436e+04 2.998e-09
 90.59204   -113.6 1.483e+04 3.706e-09
 90.60192   -117.2 1.499e+04 4.107e-09
 90.61291   -116.2 1.559e+04 5.099e-09
 90.62952   -119.4 1.571e+04 5.289e-09
 90.64620   -123.3 1.579e+04 4.745e-09
 90.65720   -121.6 1.648e+04 6.363e-09
 90.67350   -125.7 1.576e+04 4.714e-09
 90.69049   -129.6 1.435e+04 3.291e-09
 90.70149   -128.0 1.509e+04 4.063e-09
 90.71723   -131.2 1.357e+04 2.804e-09
 90.72823   -133.5 1.345e+04 2.840e-09
 90.73478   -135.3 1.349e+04 2.572e-09
 90.74578   -135.9 1.437e+04 3.429e-09
 90.76146   -138.5 1.502e+04 3.605e-09
 90.77907   -141.2 1.536e+04 3.672e-09
 90.79006   -142.0 1.658e+04 6.341e-09
 90.80544   -144.4 1.672e+04 6.536e-09
 90.82336   -146.5 1.668e+04 6.509e-09
 90.83435   -146.3 1.781e+04 1.087e-08
 90.84942   -147.9 1.732e+04 9.604e-09
 90.86442   -149.1 1.656e+04 7.995e-09
 90.87164   -148.2 1.603e+04 7.227e-09
 90.87864   -148.5 1.644e+04 8.341e-09
 90.89340   -149.7 1.561e+04 6.588e-09
 90.91193   -150.1 1.482e+04 5.235e-09
 90.92293   -150.5 1.485e+04 5.353e-09
 90.93738   -150.7 1.415e+04 4.218e-09
 90.95622   -150.4 1.349e+04 3.276e-09
 90.96722   -150.6 1.347e+04 3.286e-09
 90.98136   -150.1 1.291e+04 2.573e-09
 91.00051   -149.4 1.245e+04 2.081e-09
 91.01151   -148.5 1.205e+04 1.825e-09
 91.02535   -147.8 1.178e+04 1.601e-09
 91.04480   -146.9 1.160e+04 1.429e-09
 91.05579   -146.7 1.145e+04 1.351e-09
 91.06933   -145.8 1.135e+04 1.233e-09
 91.08909   -144.9 1.125e+04 1.123e-09
 91.10008   -144.6 1.113e+04 1.061e-09
 91.11331   -143.6 1.105e+04 9.733e-10
 91.13338   -142.7 1.096e+04 8.896e-10
 91.14437   -142.3 1.085e+04 8.399e-10
 91.14778   -141.3 1.071e+04 7.595e-10
 91.15878   -140.7 1.050e+04 7.014e-10
 91.17766   -139.6 1.039e+04 6.343e-10
 91.18866   -138.7 1.028e+04 5.617e-10
 91.20127   -137.7 1.022e+04 5.170e-10
 91.22205   -136.5 1.022e+04 4.912e-10
 91.24414   -136.1 1.021e+04 4.455e-10
 91.27843   -134.3 1.004e+04 4.036e-10
 91.31072   -132.0 9.845e+03 3.543e-10
 91.33271   -131.0 9.681e+03 2.943e-10
 91.36639   -128.6 9.536e+03 2.606e-10
 91.39930   -126.2 9.415e+03 2.294e-10
 91.42027   -125.0 9.319e+03 1.900e-10
 91.43135   -124.3 9.392e+03 2.014e-10
 91.45435   -121.9 9.280e+03 1.816e-10
 91.48788   -119.6 9.173e+03 1.660e-10
 91.50987   -118.3 9.152e+03 1.485e-10
 91.54232   -115.9 9.107e+03 1.431e-10
 91.57645   -113.6 9.103e+03 1.424e-10
 91.59844   -112.1 9.121e+03 1.317e-10
 91.63028   -110.0 9.160e+03 1.337e-10
 91.66503   -108.4 9.339e+03 1.670e-10
 91.68702   -106.9 9.344e+03 1.570e-10
 91.70372   -105.5 9.653e+03 2.406e-10
 91.72571   -105.3 1.018e+04 3.568e-10
 91.75361   -104.3 1.088e+04 6.296e-10
 91.77560   -103.3 1.130e+04 7.248e-10
 91.79511   -103.0 1.152e+04 9.154e-10
 91.80869   -102.7 1.199e+04 1.180e-09
 91.81969   -102.3 1.235e+04 1.318e-09
 91.83899   -102.1 1.276e+04 1.654e-09
 91.85071   -102.4 1.318e+04 2.078e-09
 91.85370   -103.0 1.419e+04 3.318e-09
 91.86398   -102.7 1.501e+04 4.762e-09
 91.88297   -102.4 1.504e+04 5.096e-09
 91.89727   -102.0 1.487e+04 5.087e-09
 91.90827   -101.3 1.567e+04 7.118e-09
 91.92695   -100.9 1.499e+04 5.853e-09
 91.94156   -100.7 1.431e+04 4.398e-09
 91.95255   -100.2 1.502e+04 6.062e-09
 91.97094   -100.2 1.444e+04 4.668e-09
 91.98585   -100.2 1.382e+04 3.365e-09
 91.99081    -99.8 1.462e+04 4.910e-09
 91.99789   -100.1 1.427e+04 4.213e-09
 92.01492   -100.4 1.365e+04 3.057e-09
 92.03014   -100.7 1.288e+04 2.064e-09
 92.04113    -99.9 1.369e+04 3.364e-09
 92.05890    -99.9 1.292e+04 2.274e-09
 92.07442    -99.9 1.227e+04 1.642e-09
 92.08542    -99.2 1.295e+04 2.295e-09
 92.10782    -99.6 1.189e+04 1.363e-09
 92.12802    -98.2 1.222e+04 1.600e-09
 92.13407    -98.4 1.196e+04 1.439e-09
 92.15795    -98.1 1.179e+04 1.295e-09
 92.19649    -97.3 1.111e+04 9.173e-10
 92.21848    -96.5 1.177e+04 1.273e-09
 92.24601    -95.5 1.109e+04 8.893e-10
 92.27046    -94.9 1.070e+04 6.867e-10
 92.28752    -94.6 1.039e+04 5.090e-10
 92.30706    -93.3 1.066e+04 6.019e-10
 92.33397    -92.7 1.032e+04 4.981e-10
 92.37364    -92.0 1.002e+04 4.335e-10
 92.39563    -90.8 1.026e+04 4.909e-10
 92.42193    -89.9 9.981e+03 4.380e-10
 92.46222    -88.8 9.704e+03 3.778e-10
 92.48421    -87.7 1.000e+04 4.670e-10
 92.50990    -86.5 9.719e+03 3.998e-10
 92.54283    -85.1 9.432e+03 3.134e-10
 92.56174    -84.3 9.499e+03 3.204e-10
 92.57279    -83.3 9.816e+03 4.298e-10
 92.59786    -81.9 9.520e+03 3.189e-10
 92.63937    -80.7 9.307e+03 2.433e-10
 92.66136    -79.8 9.573e+03 3.153e-10
 92.68582    -78.8 9.440e+03 2.678e-10
 92.72795    -77.9 9.419e+03 2.595e-10
 92.74994    -77.2 9.581e+03 3.016e-10
 92.77378    -76.5 9.557e+03 2.964e-10
 92.81520    -75.7 9.568e+03 3.065e-10
 92.83595    -75.1 1.003e+04 4.344e-10
 92.83852    -74.5 9.952e+03 3.952e-10
 92.86174    -73.8 9.821e+03 3.505e-10
 92.90510    -73.1 9.703e+03 3.111e-10
 92.92709    -72.6 9.505e+03 2.337e-10
 92.94971    -71.9 9.407e+03 2.079e-10
 92.99368    -71.2 9.327e+03 1.907e-10
 93.03766    -69.5 9.225e+03 1.531e-10
 93.08165    -68.6 9.231e+03 1.509e-10
 93.10425    -67.6 9.244e+03 1.503e-10
 93.11017    -66.6 9.247e+03 1.475e-10
 93.13156    -65.6 9.280e+03 1.499e-10
 93.16961    -64.5 9.273e+03 1.429e-10
 93.19282    -63.2 9.260e+03 1.296e-10
 93.21481    -62.1 9.295e+03 1.294e-10
 93.25757    -61.0 9.361e+03 1.202e-10
 93.28140    -60.4 9.498e+03 1.192e-10
 93.30339    -59.6 9.642e+03 1.361e-10
 93.34553    -59.9 1.008e+04 1.828e-10
 93.36997    -60.1 1.040e+04 3.750e-10
 93.38439    -59.0 1.041e+04 3.953e-10
 93.40393    -58.2 1.043e+04 3.415e-10
 93.43350    -58.0 1.088e+04 6.575e-10
 93.45855    -57.5 1.127e+04 8.656e-10
 93.48054    -56.4 1.106e+04 7.168e-10
 93.52146    -56.4 1.109e+04 6.636e-10
 93.54713    -56.4 1.091e+04 3.899e-10
 93.56912    -55.3 1.079e+04 3.085e-10
 93.60942    -56.2 1.072e+04 2.126e-10
 93.63570    -56.9 1.069e+04 2.003e-10
 93.65769    -55.5 1.071e+04 1.961e-10
 93.67630    -56.2 1.100e+04 2.488e-10
 93.69829    -56.3 1.121e+04 3.103e-10
 93.72428    -56.6 1.126e+04 3.766e-10
 93.73518    -55.7 1.143e+04 4.344e-10
 93.75216    -55.8 1.142e+04 4.463e-10
 93.76837    -56.0 1.135e+04 4.460e-10
 93.77937    -55.4 1.149e+04 5.439e-10
 93.79614    -55.4 1.148e+04 4.807e-10
 93.81276    -55.7 1.139e+04 3.753e-10
 93.83485    -54.6 1.167e+04 5.057e-10
 93.87331    -54.5 1.132e+04 3.027e-10
 93.90143    -54.1 1.099e+04 2.048e-10
 93.92342    -53.2 1.107e+04 2.355e-10
 93.94867    -52.1 1.086e+04 1.901e-10
 93.97067    -51.5 1.087e+04 2.064e-10
 93.99001    -50.1 1.089e+04 1.807e-10
 94.01200    -49.0 1.085e+04 1.919e-10
 94.04923    -47.6 1.087e+04 1.817e-10
 94.07859    -46.8 1.107e+04 2.030e-10
 94.10058    -45.5 1.087e+04 1.742e-10
 94.13719    -45.2 1.114e+04 2.654e-10
 94.16716    -44.7 1.137e+04 5.655e-10
 94.18915    -43.5 1.104e+04 3.598e-10
 94.22105    -42.7 1.137e+04 6.756e-10
 94.24304    -42.1 1.195e+04 1.108e-09
 94.25574    -41.5 1.267e+04 1.592e-09
 94.27773    -40.3 1.192e+04 1.023e-09
 94.31311    -40.1 1.219e+04 1.167e-09
 94.34432    -40.5 1.218e+04 1.178e-09
 94.36631    -39.1 1.158e+04 7.531e-10
 94.40108    -39.1 1.133e+04 6.295e-10
 94.43289    -39.1 1.105e+04 4.727e-10
 94.45488    -38.0 1.086e+04 3.056e-10
 94.48904    -38.2 1.061e+04 2.307e-10
 94.51541    -37.9 1.040e+04 1.865e-10
 94.52585    -37.5 1.047e+04 2.408e-10
 94.54346    -36.7 1.037e+04 1.805e-10
 94.57700    -35.6 1.015e+04 1.537e-10
 94.61005    -34.4 1.004e+04 1.339e-10
 94.63204    -33.4 9.934e+03 9.639e-11
 94.66496    -32.1 9.878e+03 8.419e-11
 94.69862    -30.6 9.852e+03 8.147e-11
 94.72061    -29.7 9.704e+03 6.315e-11
 94.75292    -27.8 9.696e+03 6.271e-11
 94.78720    -26.1 9.807e+03 6.474e-11
 94.80007    -25.2 9.748e+03 5.547e-11
 94.80977    -24.6 9.873e+03 6.628e-11
 94.84089    -23.7 1.006e+04 9.320e-11
 94.87578    -23.2 1.034e+04 1.718e-10
 94.89777    -22.9 1.027e+04 2.053e-10
 94.92885    -22.0 1.071e+04 4.720e-10
 94.96435    -20.5 1.135e+04 8.798e-10
 94.98634    -18.7 1.149e+04 9.204e-10
 95.00572    -18.4 1.177e+04 1.050e-09
 95.01944    -17.9 1.167e+04 9.647e-10
 95.03044    -17.3 1.179e+04 8.745e-10
 95.04960    -17.1 1.168e+04 7.032e-10
 95.06373    -17.2 1.153e+04 5.535e-10
 95.07409    -17.2 1.136e+04 5.055e-10
 95.08195    -17.3 1.160e+04 6.058e-10
 95.09358    -17.5 1.123e+04 4.698e-10
 95.10802    -17.5 1.106e+04 3.962e-10
 95.11901    -17.0 1.112e+04 4.394e-10
 95.14141    -17.0 1.093e+04 3.612e-10
 95.16340    -15.5 1.112e+04 4.702e-10
 95.19264    -15.1 1.067e+04 3.600e-10
 95.23008    -14.1 1.032e+04 2.996e-10
 95.25207    -12.5 1.052e+04 3.330e-10
 95.28070    -11.5 1.030e+04 2.941e-10
 95.31866    -10.1 1.025e+04 2.735e-10
 95.34065     -9.2 1.028e+04 2.647e-10
 95.35452     -7.8 1.029e+04 2.448e-10
 95.37651     -7.4 1.053e+04 3.180e-10
 95.40724     -6.4 1.058e+04 2.773e-10
 95.42923     -6.0 1.101e+04 3.247e-10
 95.45662     -5.7 1.117e+04 3.090e-10
 95.49581     -5.6 1.132e+04 3.750e-10
 95.51780     -6.2 1.151e+04 6.515e-10
 95.54458     -5.5 1.161e+04 8.325e-10
 95.58439     -5.0 1.186e+04 1.007e-09
 95.60638     -5.1 1.191e+04 9.955e-10
 95.62689     -5.2 1.186e+04 9.740e-10
 95.64888     -5.2 1.226e+04 1.441e-09
 95.67296     -4.6 1.217e+04 1.192e-09
 95.69496     -5.3 1.205e+04 8.758e-10
 95.72050     -7.1 1.162e+04 5.405e-10
 95.75339     -8.5 1.100e+04 4.645e-10
 95.77234     -8.5 1.078e+04 4.496e-10
 95.78193     -8.2 1.072e+04 4.573e-10
 95.78487     -8.2 1.066e+04 4.305e-10
 95.80837     -8.1 1.055e+04 3.971e-10
 95.85012     -8.0 1.050e+04 3.265e-10
 95.87211     -8.2 1.036e+04 2.876e-10
 95.89643     -8.3 1.029e+04 2.836e-10
 95.92126     -8.3 1.021e+04 3.315e-10
 95.94153     -7.6 1.029e+04 3.595e-10
 95.96068     -7.0 1.008e+04 3.463e-10
 95.98439     -5.7 1.048e+04 4.017e-10
 96.02727     -5.6 1.106e+04 4.516e-10
 96.04926     -5.8 1.070e+04 3.516e-10
 96.05735     -7.1 1.108e+04 4.435e-10
 96.06824     -6.3 1.122e+04 5.083e-10
 96.08236     -6.9 1.144e+04 5.788e-10
 96.09335     -6.5 1.127e+04 5.374e-10
 96.10514     -7.8 1.169e+04 8.960e-10
 96.12665     -9.5 1.239e+04 1.478e-09
 96.13764     -8.8 1.192e+04 1.102e-09
 96.14912    -10.1 1.308e+04 1.713e-09
 96.17094    -12.0 1.527e+04 2.736e-09
 96.18193    -10.7 1.384e+04 1.672e-09
 96.19310    -13.7 1.565e+04 2.425e-09
 96.20443    -16.8 1.623e+04 3.624e-09
 96.21542    -16.5 1.797e+04 8.373e-09
 96.22622    -18.2 1.735e+04 1.067e-08
 96.23721    -17.9 1.722e+04 8.844e-09
 96.25908    -18.2 1.721e+04 1.200e-08
 96.27051    -17.7 1.738e+04 1.325e-08
 96.28150    -17.0 1.737e+04 1.342e-08
 96.30306    -16.3 1.745e+04 1.356e-08
 96.31480    -16.1 1.712e+04 9.704e-09
 96.32579    -15.2 1.752e+04 1.101e-08
 96.34062    -16.8 1.744e+04 7.926e-09
 96.35161    -16.5 1.731e+04 7.688e-09
 96.35908    -18.8 1.629e+04 6.278e-09
 96.37008    -18.0 1.739e+04 7.822e-09
 96.39102    -19.6 1.698e+04 7.456e-09
 96.40337    -21.4 1.734e+04 8.034e-09
 96.41437    -21.1 1.846e+04 1.042e-08
 96.43500    -24.0 1.929e+04 1.103e-08
 96.44766    -28.0 1.954e+04 1.156e-08
 96.45311    -26.2 2.035e+04 1.113e-08
 96.46239    -28.2 2.041e+04 1.225e-08
 96.46971    -31.0 1.967e+04 1.265e-08
 96.47520    -30.5 2.021e+04 1.146e-08
 96.48220    -31.9 1.953e+04 1.127e-08
 96.48770    -32.5 1.879e+04 1.807e-08
 96.49185    -32.8 1.832e+04 1.714e-08
 96.49735    -32.4 1.898e+04 1.360e-08
 96.50637    -33.3 1.873e+04 1.177e-08
 96.51400    -34.5 1.838e+04 9.746e-09
 96.51949    -35.4 1.785e+04 7.343e-09
 96.52836    -37.1 1.707e+04 6.411e-09
 96.53614    -38.7 1.664e+04 6.134e-09
 96.54164    -39.1 1.609e+04 4.068e-09
 96.55030    -39.5 1.610e+04 4.276e-09
 96.55579    -39.7 1.626e+04 4.940e-09
 96.56689    -40.5 1.611e+04 4.739e-09
 96.58053    -41.8 1.600e+04 5.283e-09
 96.59152    -41.7 1.500e+04 3.487e-09
 96.61092    -42.4 1.503e+04 4.113e-09
 96.62398    -42.6 1.494e+04 4.778e-09
 96.62688    -42.1 1.489e+04 4.851e-09
 96.63581    -41.5 1.435e+04 3.597e-09
 96.65490    -41.5 1.432e+04 3.735e-09
 96.66910    -41.4 1.425e+04 3.786e-09
 96.68010    -41.0 1.381e+04 2.760e-09
 96.69888    -40.9 1.375e+04 2.804e-09
 96.71339    -40.8 1.353e+04 2.693e-09
 96.72439    -40.3 1.307e+04 2.167e-09
 96.74287    -40.1 1.295e+04 2.156e-09
 96.75768    -39.8 1.278e+04 1.990e-09
 96.76399    -39.0 1.267e+04 1.594e-09
 96.77117    -38.5 1.261e+04 1.570e-09
 96.78685    -38.2 1.255e+04 1.543e-09
 96.80197    -37.9 1.239e+04 1.392e-09
 96.81296    -37.4 1.228e+04 1.322e-09
 96.83083    -36.9 1.209e+04 1.179e-09
 96.84625    -36.4 1.183e+04 9.755e-10
 96.86834    -35.2 1.176e+04 9.748e-10
 96.90799    -34.0 1.122e+04 6.777e-10
 96.93503    -32.6 1.066e+04 4.121e-10
 96.95702    -31.2 1.083e+04 4.939e-10
 96.99595    -30.1 1.041e+04 3.141e-10
 97.02360    -29.3 1.021e+04 2.549e-10
 97.03840    -28.2 1.034e+04 3.160e-10
 97.05473    -27.2 1.045e+04 3.180e-10
 97.08391    -26.5 1.029e+04 2.740e-10
 97.11218    -25.6 1.021e+04 2.573e-10
 97.13417    -24.6 1.030e+04 3.362e-10
 97.17188    -23.6 1.013e+04 2.839e-10
 97.20076    -22.5 9.983e+03 2.142e-10
 97.22275    -21.6 9.996e+03 2.360e-10
 97.25984    -20.7 9.842e+03 1.576e-10
 97.28933    -19.8 9.701e+03 1.172e-10
 97.31132    -19.0 9.690e+03 1.290e-10
 97.32710    -17.9 9.547e+03 1.166e-10
 97.34909    -16.9 9.449e+03 7.279e-11
 97.37791    -15.4 9.421e+03 7.108e-11
 97.39990    -14.6 9.443e+03 7.733e-11
 97.43576    -13.1 9.441e+03 8.064e-11
 97.46649    -11.4 9.441e+03 9.101e-11
 97.48848    -10.8 9.496e+03 1.022e-10
 97.52372     -9.1 9.514e+03 1.135e-10
 97.55506     -7.4 9.533e+03 1.232e-10
 97.57705     -6.9 9.556e+03 1.373e-10
 97.59947     -5.2 9.592e+03 1.385e-10
 97.62147     -4.7 9.589e+03 1.151e-10
 97.64364     -3.3 9.747e+03 1.256e-10
 97.66563     -2.9 9.751e+03 1.511e-10
 97.69965     -2.4 1.012e+04 1.804e-10
 97.73222     -1.9 1.051e+04 2.787e-10
 97.75421     -2.0 1.066e+04 3.473e-10
 97.78761     -1.0 1.083e+04 4.651e-10
 97.82079      0.4 1.104e+04 5.727e-10
 97.84278      0.7 1.097e+04 5.078e-10
 97.87185      2.3 1.100e+04 4.169e-10
 97.89384      2.0 1.115e+04 3.990e-10
 97.90937      2.5 1.100e+04 2.308e-10
 97.93136      1.3 1.060e+04 1.802e-10
 97.96353      1.9 1.043e+04 1.669e-10
 97.99795      3.0 1.039e+04 1.662e-10
 98.01994      2.7 1.057e+04 2.204e-10
 98.05149      4.2 1.061e+04 2.591e-10
 98.08652      6.0 1.064e+04 2.924e-10
 98.10851      5.8 1.111e+04 4.877e-10
 98.13946      7.3 1.118e+04 4.906e-10
 98.16621      8.5 1.120e+04 4.640e-10
 98.17986      7.9 1.074e+04 2.610e-10
 98.19709      7.1 1.134e+04 5.111e-10
 98.22742      8.2 1.111e+04 3.908e-10
 98.26367      8.7 1.095e+04 3.328e-10
 98.28567      7.6 1.124e+04 5.348e-10
 98.31538      7.5 1.158e+04 5.892e-10
 98.35225      7.2 1.207e+04 9.004e-10
 98.37424      6.3 1.244e+04 1.397e-09
 98.39225      6.3 1.268e+04 1.589e-09
 98.40734      6.0 1.311e+04 2.015e-09
 98.41833      5.8 1.315e+04 2.245e-09
 98.43613      5.5 1.346e+04 2.766e-09
 98.44938      5.5 1.376e+04 3.273e-09
 98.45398      6.5 1.300e+04 1.826e-09
 98.46282      6.7 1.274e+04 1.824e-09
 98.48021      6.5 1.331e+04 2.442e-09
 98.49592      6.5 1.337e+04 2.460e-09
 98.50691      6.7 1.309e+04 2.141e-09
 98.52931      6.5 1.304e+04 1.889e-09
 98.55139      6.9 1.221e+04 1.152e-09
 98.57926      5.7 1.175e+04 8.970e-10
 98.61798      5.3 1.140e+04 7.878e-10
 98.63997      6.4 1.080e+04 5.202e-10
 98.66723      7.3 1.057e+04 4.704e-10
 98.70656      8.1 1.045e+04 3.788e-10
 98.72830      9.5 1.010e+04 2.508e-10
 98.73295      9.7 1.006e+04 2.331e-10
 98.75519     10.0 9.985e+03 2.162e-10
 98.79513     10.6 1.021e+04 2.361e-10
 98.81712     11.8 9.953e+03 1.894e-10
 98.84315     11.4 1.041e+04 2.794e-10
 98.88371      9.3 1.147e+04 6.949e-10
 98.90570     10.5 1.122e+04 5.223e-10
 98.92002      8.9 1.191e+04 1.177e-09
 98.93880      8.1 1.274e+04 1.843e-09
 98.94979      8.5 1.252e+04 1.565e-09
 98.96390      6.9 1.435e+04 2.531e-09
 98.98309      1.8 1.711e+04 4.525e-09
 98.99408      1.8 1.682e+04 3.750e-09
 99.00513     -3.2 1.763e+04 6.771e-09
 99.01612     -3.2 1.712e+04 7.257e-09
 99.02738     -5.1 1.677e+04 9.659e-09
 99.03837     -5.1 1.683e+04 1.010e-08
 99.05186     -5.4 1.666e+04 1.055e-08
 99.07166     -4.6 1.582e+04 7.705e-09
 99.08266     -4.6 1.636e+04 9.041e-09
 99.09585     -3.9 1.483e+04 3.490e-09
 99.11595     -7.7 1.275e+04 1.048e-09
 99.12695     -7.7 1.308e+04 1.139e-09
 99.14934    -12.0 1.079e+04 5.226e-10
 99.17143    -12.3 1.086e+04 5.314e-10
 99.19500    -12.4 1.025e+04 4.269e-10
 99.23802    -11.0 1.020e+04 4.291e-10
 99.26001    -10.5 1.003e+04 3.741e-10
 99.27769     -9.8 1.029e+04 4.381e-10
 99.29968     -9.2 1.074e+04 6.810e-10
 99.32659     -8.7 1.091e+04 7.603e-10
 99.34858     -8.2 1.064e+04 6.012e-10
 99.37092     -7.8 1.078e+04 6.636e-10
 99.41490     -7.5 1.084e+04 6.734e-10
 99.43716     -7.1 1.080e+04 6.455e-10
 99.45915     -6.5 1.075e+04 6.122e-10
 99.50286     -6.1 1.079e+04 6.250e-10
 99.52574     -5.5 1.074e+04 6.047e-10
 99.54773     -5.2 1.080e+04 6.151e-10
 99.57206     -4.6 1.085e+04 6.340e-10
 99.59405     -4.7 1.067e+04 5.460e-10
 99.61431     -3.9 1.049e+04 4.393e-10
 99.63630     -3.4 1.058e+04 4.831e-10
 99.67879     -2.4 1.036e+04 3.504e-10
 99.70289     -1.8 1.010e+04 2.419e-10
 99.72488     -1.9 1.039e+04 2.872e-10
 99.76675     -1.8 1.036e+04 2.537e-10
 99.79147     -1.5 1.028e+04 2.937e-10
 99.81346     -1.8 1.116e+04 5.788e-10
 99.84443     -0.9 1.120e+04 7.358e-10
 99.86642     -0.0 1.084e+04 5.391e-10
 99.88004      0.9 1.103e+04 7.192e-10
 99.90203      0.5 1.157e+04 9.107e-10
 99.94267      1.5 1.157e+04 9.488e-10
 99.96862      2.6 1.135e+04 9.219e-10
 99.99061      2.7 1.122e+04 7.119e-10
