# Columns:
#   distance along LOS (in CHIMPs)
#   peculiar velocity  (in km/s)
#   temperature (K)
#   HI number density
# pos=(86.6357,15.4505,3.36622), angles=(1.45211,1.30695)
  0.00423     47.0 9.769e+03 3.358e-10
  0.02884     48.9 9.520e+03 2.824e-10
  0.05927     50.8 9.369e+03 2.652e-10
  0.07965     50.4 9.220e+03 2.293e-10
  0.11034     52.5 9.220e+03 2.366e-10
  0.15109     54.6 9.260e+03 2.523e-10
  0.17419     56.7 9.361e+03 2.712e-10
  0.19457     55.5 9.170e+03 2.466e-10
  0.21619     57.5 9.243e+03 2.572e-10
  0.23657     57.3 9.290e+03 2.651e-10
  0.27333     59.2 9.414e+03 2.853e-10
  0.31408     61.0 9.586e+03 3.150e-10
  0.35274     62.4 9.738e+03 3.561e-10
  0.37311     62.6 9.791e+03 3.752e-10
  0.39558     63.6 9.857e+03 4.201e-10
  0.42605     64.2 9.810e+03 4.374e-10
  0.44119     64.9 9.891e+03 4.774e-10
  0.45138     65.0 9.974e+03 5.074e-10
  0.46670     66.1 1.017e+04 6.016e-10
  0.48707     67.2 1.038e+04 6.807e-10
  0.50194     68.1 1.059e+04 7.460e-10
  0.51213     67.4 1.013e+04 5.502e-10
  0.51965     68.2 1.028e+04 5.939e-10
  0.52984     68.5 1.048e+04 6.655e-10
  0.54820     69.2 1.063e+04 7.068e-10
  0.56857     69.8 1.074e+04 7.461e-10
  0.58793     70.2 1.083e+04 7.822e-10
  0.59811     70.4 1.095e+04 8.302e-10
  0.60932     70.8 1.101e+04 8.581e-10
  0.62970     71.1 1.114e+04 9.106e-10
  0.65007     71.4 1.133e+04 9.996e-10
  0.66591     71.6 1.161e+04 1.135e-09
  0.67204     71.4 1.160e+04 1.132e-09
  0.67657     71.4 1.184e+04 1.268e-09
  0.69082     71.2 1.243e+04 1.634e-09
  0.71119     70.9 1.338e+04 2.299e-09
  0.73157     70.7 1.440e+04 3.228e-09
  0.74480     70.2 1.505e+04 3.913e-09
  0.74984     69.7 1.586e+04 4.807e-09
  0.75289     68.4 1.727e+04 6.684e-09
  0.75799     69.3 1.661e+04 5.808e-09
  0.76713     67.0 1.867e+04 8.890e-09
  0.77731     64.3 2.063e+04 1.491e-08
  0.78398     62.1 2.192e+04 2.607e-08
  0.78907     61.8 2.266e+04 4.010e-08
  0.79769     60.8 2.311e+04 8.391e-08
  0.80788     59.7 2.335e+04 1.724e-07
  0.81806     57.0 2.363e+04 2.802e-07
  0.82321     52.6 2.400e+04 2.938e-07
  0.82830     50.4 2.348e+04 4.039e-07
  0.83488     46.2 2.411e+04 2.621e-07
  0.83997     46.6 2.413e+04 2.694e-07
  0.84863     42.6 2.512e+04 1.371e-07
  0.85735     38.6 2.496e+04 6.524e-08
  0.86244     35.9 2.419e+04 4.350e-08
  0.86900     33.3 2.163e+04 2.489e-08
  0.87919     32.3 1.986e+04 1.751e-08
  0.89153     31.9 1.913e+04 1.336e-08
  0.90177     28.8 1.797e+04 7.022e-09
  0.91494     28.1 1.651e+04 3.817e-09
  0.93532     27.5 1.510e+04 2.318e-09
  0.95569     27.2 1.368e+04 1.596e-09
  0.97004     27.5 1.264e+04 1.287e-09
  0.98023     26.3 1.209e+04 1.276e-09
  0.99385     27.8 1.213e+04 1.258e-09
  1.00404     28.3 1.251e+04 1.317e-09
  1.01682     29.2 1.244e+04 1.276e-09
  1.03719     30.1 1.234e+04 1.236e-09
  1.04850     31.0 1.221e+04 1.208e-09
  1.05869     30.0 1.208e+04 1.400e-09
  1.07794     31.0 1.204e+04 1.347e-09
  1.09831     32.0 1.199e+04 1.286e-09
  1.11677     33.0 1.193e+04 1.217e-09
  1.12696     31.9 1.231e+04 1.493e-09
  1.13906     32.8 1.222e+04 1.399e-09
  1.15782     33.7 1.214e+04 1.314e-09
  1.16801     33.8 1.249e+04 1.636e-09
  1.17981     34.6 1.249e+04 1.583e-09
  1.19523     35.5 1.246e+04 1.517e-09
  1.20542     34.3 1.264e+04 1.684e-09
  1.22056     34.9 1.278e+04 1.685e-09
  1.24094     35.3 1.291e+04 1.700e-09
  1.26131     36.0 1.313e+04 1.750e-09
  1.27369     36.6 1.355e+04 1.878e-09
  1.28388     34.3 1.436e+04 2.484e-09
  1.30206     34.5 1.480e+04 2.957e-09
  1.32180     34.7 1.546e+04 3.775e-09
  1.33198     33.5 1.688e+04 5.847e-09
  1.34197     33.4 1.773e+04 7.998e-09
  1.35216     32.9 1.665e+04 6.448e-09
  1.36319     32.3 1.761e+04 7.754e-09
  1.38356     30.9 1.858e+04 9.039e-09
  1.40393     29.3 1.935e+04 1.061e-08
  1.42043     28.5 1.996e+04 1.197e-08
  1.43062     25.8 1.754e+04 5.490e-09
  1.44468     24.5 1.699e+04 4.883e-09
  1.46506     24.0 1.613e+04 3.974e-09
  1.48543     23.7 1.511e+04 2.842e-09
  1.49595     22.8 1.391e+04 1.735e-09
  1.49922     21.5 1.292e+04 1.241e-09
  1.50908     20.3 1.182e+04 7.822e-10
  1.52618     19.7 1.120e+04 5.663e-10
  1.54656     19.2 1.077e+04 4.458e-10
  1.56693     19.2 1.051e+04 3.797e-10
  1.57735     19.3 1.037e+04 3.449e-10
  1.58754     19.6 1.022e+04 3.269e-10
  1.61797     20.7 1.008e+04 3.083e-10
  1.65881     22.2 1.006e+04 3.097e-10
  1.69956     23.1 1.015e+04 3.327e-10
  1.72428     23.9 1.061e+04 4.341e-10
  1.73437     23.7 1.091e+04 4.062e-10
  1.75030     23.5 1.103e+04 4.648e-10
  1.77068     23.2 1.113e+04 5.374e-10
  1.79105     23.0 1.130e+04 6.248e-10
  1.80254     22.8 1.153e+04 7.273e-10
  1.81273     22.5 1.155e+04 6.898e-10
  1.82390     22.3 1.178e+04 7.866e-10
  1.83408     22.0 1.187e+04 8.026e-10
  1.85218     21.7 1.208e+04 8.708e-10
  1.87082     21.3 1.215e+04 8.790e-10
  1.88100     20.9 1.220e+04 9.043e-10
  1.89293     20.4 1.215e+04 8.931e-10
  1.91330     20.1 1.195e+04 8.319e-10
  1.93368     19.7 1.168e+04 7.464e-10
  1.94928     17.2 1.244e+04 7.998e-10
  1.95946     13.8 1.448e+04 9.909e-10
  1.97443      5.4 1.792e+04 2.320e-09
  1.98787      0.6 1.816e+04 5.422e-09
  1.99806      0.2 1.816e+04 7.466e-09
  2.01518      0.0 1.756e+04 8.795e-09
  2.02774      0.4 1.709e+04 7.821e-09
  2.03793     -0.7 1.668e+04 6.490e-09
  2.05593     -1.7 1.604e+04 3.297e-09
  2.07630     -5.8 1.509e+04 1.255e-09
  2.09601    -12.7 1.240e+04 4.678e-10
  2.10620    -17.6 1.055e+04 3.368e-10
  2.11705    -19.4 9.692e+03 2.747e-10
  2.13742    -19.3 9.529e+03 2.625e-10
  2.15184    -18.9 9.644e+03 2.750e-10
  2.16203    -20.0 9.828e+03 3.153e-10
  2.17447    -19.7 9.908e+03 3.371e-10
  2.18466    -22.7 1.035e+04 3.630e-10
  2.19855    -24.3 1.159e+04 4.197e-10
  2.21892    -27.3 1.415e+04 6.437e-10
  2.23930    -30.4 1.690e+04 1.367e-09
  2.25293    -32.4 1.865e+04 2.907e-09
  2.26312    -39.6 2.161e+04 1.041e-08
  2.28005    -40.5 2.239e+04 1.340e-08
  2.30042    -41.4 2.334e+04 1.517e-08
  2.31581    -43.1 2.357e+04 1.598e-08
  2.32600    -43.5 2.355e+04 1.497e-08
  2.33139    -45.7 2.452e+04 1.351e-08
  2.33644    -52.7 2.439e+04 6.969e-09
  2.34617    -53.0 2.438e+04 6.609e-09
  2.36150    -56.9 2.005e+04 2.418e-09
  2.38192    -60.4 1.588e+04 1.433e-09
  2.39967    -62.6 1.301e+04 1.014e-09
  2.40985    -68.1 1.050e+04 4.320e-10
  2.42267    -68.3 1.005e+04 2.859e-10
  2.44304    -68.8 9.704e+03 2.319e-10
  2.46342    -68.4 9.393e+03 2.109e-10
  2.47813    -68.4 9.229e+03 2.027e-10
  2.48440    -69.9 9.075e+03 1.791e-10
  2.49016    -70.1 9.146e+03 1.923e-10
  2.51455    -68.6 9.443e+03 2.422e-10
  2.54502    -66.5 9.608e+03 2.723e-10
  2.55659    -66.6 9.925e+03 3.304e-10
  2.56677    -68.2 1.015e+04 3.302e-10
  2.58567    -67.5 9.931e+03 3.648e-10
  2.60604    -68.0 1.016e+04 4.444e-10
  2.62486    -68.7 1.067e+04 5.576e-10
  2.63505    -71.2 1.162e+04 7.541e-10
  2.64375    -72.0 1.243e+04 1.111e-09
  2.65394    -72.0 1.253e+04 1.177e-09
  2.66717    -72.3 1.305e+04 1.665e-09
  2.68754    -72.0 1.321e+04 2.065e-09
  2.70332    -71.5 1.320e+04 2.239e-09
  2.71351    -72.7 1.321e+04 2.415e-09
  2.72829    -71.8 1.302e+04 2.259e-09
  2.74867    -71.0 1.285e+04 2.046e-09
  2.76904    -70.6 1.269e+04 1.815e-09
  2.78178    -70.5 1.265e+04 1.567e-09
  2.79197    -72.1 1.230e+04 9.801e-10
  2.80772    -72.2 1.185e+04 7.823e-10
  2.81791    -71.8 1.202e+04 8.841e-10
  2.83016    -71.4 1.171e+04 7.015e-10
  2.85005    -71.1 1.152e+04 6.340e-10
  2.86024    -72.7 1.046e+04 3.532e-10
  2.87091    -70.8 1.031e+04 3.167e-10
  2.89129    -70.6 1.029e+04 3.087e-10
  2.91166    -68.9 1.022e+04 2.956e-10
  2.92851    -68.9 1.021e+04 2.925e-10
  2.93880    -69.4 9.867e+03 2.367e-10
  2.96280    -67.1 9.821e+03 2.383e-10
  3.00354    -64.9 9.792e+03 2.264e-10
  3.04429    -62.9 9.783e+03 2.205e-10
  3.07544    -60.7 9.824e+03 2.206e-10
  3.09582    -62.3 9.595e+03 1.934e-10
  3.12568    -60.1 9.595e+03 1.905e-10
  3.16642    -56.8 9.572e+03 1.779e-10
  3.20729    -54.7 9.621e+03 1.675e-10
  3.23236    -52.7 9.703e+03 1.706e-10
  3.25274    -54.6 9.661e+03 1.654e-10
  3.28879    -53.1 9.908e+03 1.920e-10
  3.32954    -51.6 1.048e+04 2.514e-10
  3.36891    -50.2 1.145e+04 3.453e-10
  3.38929    -52.2 1.140e+04 3.935e-10
  3.40075    -51.1 1.175e+04 4.724e-10
  3.42103    -51.2 1.169e+04 5.507e-10
  3.44141    -50.8 1.168e+04 5.500e-10
  3.45736    -50.6 1.170e+04 5.470e-10
  3.46755    -51.6 1.145e+04 4.456e-10
  3.47389    -50.4 1.142e+04 3.897e-10
  3.48408    -49.9 1.146e+04 4.065e-10
  3.50253    -49.9 1.138e+04 3.745e-10
  3.52290    -49.1 1.112e+04 2.992e-10
  3.53582    -49.1 1.107e+04 2.906e-10
  3.54611    -49.3 1.087e+04 2.577e-10
  3.57404    -48.3 1.048e+04 2.051e-10
  3.61479    -47.2 1.026e+04 1.763e-10
  3.65554    -46.0 1.014e+04 1.557e-10
  3.68275    -44.9 9.954e+03 1.530e-10
  3.70313    -45.3 9.533e+03 1.229e-10
  3.73703    -43.9 9.811e+03 1.487e-10
  3.77778    -42.6 1.051e+04 2.241e-10
  3.80193    -41.6 1.094e+04 3.290e-10
  3.82231    -40.4 1.084e+04 2.988e-10
  3.83958    -40.2 1.094e+04 3.992e-10
  3.84967    -40.1 1.093e+04 3.929e-10
  3.86927    -40.3 1.107e+04 5.356e-10
  3.88965    -39.9 1.133e+04 6.789e-10
  3.90775    -39.1 1.172e+04 7.525e-10
  3.91794    -39.1 1.162e+04 7.070e-10
  3.93040    -38.9 1.194e+04 7.101e-10
  3.95077    -39.0 1.214e+04 7.125e-10
  3.96571    -39.4 1.227e+04 7.249e-10
  3.97590    -38.5 1.226e+04 7.479e-10
  3.98621    -38.9 1.228e+04 7.675e-10
  3.99640    -38.9 1.219e+04 6.987e-10
  4.01190    -39.1 1.218e+04 7.446e-10
  4.03227    -39.0 1.215e+04 8.020e-10
  4.05265    -38.7 1.212e+04 8.418e-10
  4.06467    -38.1 1.212e+04 8.418e-10
  4.07486    -38.2 1.222e+04 8.605e-10
  4.09340    -37.6 1.221e+04 8.518e-10
  4.11377    -36.9 1.210e+04 8.107e-10
  4.12968    -36.3 1.191e+04 7.246e-10
  4.13867    -35.7 1.181e+04 7.257e-10
  4.14313    -35.8 1.202e+04 7.809e-10
  4.15452    -35.3 1.180e+04 6.752e-10
  4.17490    -34.8 1.160e+04 5.663e-10
  4.19527    -34.7 1.144e+04 4.694e-10
  4.21141    -34.8 1.130e+04 3.964e-10
  4.22159    -35.0 1.153e+04 4.746e-10
  4.23602    -35.2 1.145e+04 4.557e-10
  4.25639    -35.4 1.146e+04 4.622e-10
  4.27677    -35.7 1.148e+04 4.923e-10
  4.28987    -35.9 1.155e+04 5.517e-10
  4.29656    -35.8 1.198e+04 7.280e-10
  4.30384    -35.4 1.168e+04 6.128e-10
  4.31752    -35.6 1.171e+04 6.538e-10
  4.33789    -35.9 1.175e+04 6.861e-10
  4.35814    -36.7 1.184e+04 7.198e-10
  4.36833    -36.4 1.207e+04 7.961e-10
  4.37864    -37.8 1.212e+04 8.204e-10
  4.39902    -39.6 1.231e+04 9.271e-10
  4.41939    -44.4 1.436e+04 1.416e-09
  4.43660    -52.7 1.838e+04 3.353e-09
  4.44679    -52.6 1.881e+04 3.400e-09
  4.45762    -58.8 1.818e+04 6.534e-09
  4.46781    -55.0 1.756e+04 4.328e-09
  4.48052    -59.5 1.701e+04 5.522e-09
  4.50089    -60.7 1.584e+04 4.810e-09
  4.51506    -62.8 1.499e+04 2.901e-09
  4.52525    -62.5 1.487e+04 2.648e-09
  4.54164    -65.5 1.544e+04 7.835e-10
  4.56201    -69.0 1.469e+04 3.736e-10
  4.58239    -76.4 1.087e+04 2.289e-10
  4.59352    -76.9 1.051e+04 2.197e-10
  4.60381    -75.0 1.121e+04 2.248e-10
  4.63352    -77.6 9.769e+03 2.303e-10
  4.66189    -76.3 9.293e+03 2.161e-10
  4.67198    -75.8 9.260e+03 2.137e-10
  4.68426    -77.2 9.818e+03 2.535e-10
  4.70464    -81.5 1.159e+04 4.030e-10
  4.72501    -86.5 1.269e+04 8.908e-10
  4.74026    -89.3 1.271e+04 1.689e-09
  4.75044    -88.4 1.267e+04 1.640e-09
  4.76576    -88.6 1.345e+04 2.799e-09
  4.78557    -88.6 1.401e+04 3.290e-09
  4.79575    -89.5 1.404e+04 3.479e-09
  4.80651    -91.0 1.440e+04 3.518e-09
  4.81872    -93.0 1.396e+04 2.396e-09
  4.82890    -92.6 1.395e+04 2.437e-09
  4.84726    -95.9 1.275e+04 1.201e-09
  4.87690    -99.5 1.142e+04 6.127e-10
  4.89737    -99.1 1.140e+04 6.757e-10
  4.91877   -102.6 9.649e+03 3.654e-10
  4.95952   -103.1 8.857e+03 2.059e-10
  5.00027   -103.4 8.711e+03 1.588e-10
  5.03392   -103.5 8.784e+03 1.792e-10
  5.05429   -102.6 8.843e+03 1.846e-10
  5.08176   -102.1 9.009e+03 2.192e-10
  5.11370   -102.0 9.221e+03 2.514e-10
  5.13408   -102.1 9.470e+03 2.700e-10
  5.15298   -100.7 9.611e+03 2.987e-10
  5.17326   -100.8 9.685e+03 3.011e-10
  5.19064   -102.7 1.035e+04 3.248e-10
  5.20083   -100.2 9.746e+03 2.942e-10
  5.21401   -104.4 1.164e+04 3.820e-10
  5.23438   -111.2 1.467e+04 9.890e-10
  5.25475   -114.9 1.547e+04 2.844e-09
  5.26910   -116.0 1.570e+04 5.050e-09
  5.27929   -114.5 1.521e+04 3.488e-09
  5.28767   -114.6 1.561e+04 5.245e-09
  5.29786   -114.9 1.598e+04 5.557e-09
  5.31588   -114.8 1.669e+04 5.729e-09
  5.33625   -115.6 1.695e+04 4.493e-09
  5.34756   -118.1 1.647e+04 2.802e-09
  5.35775   -114.2 1.629e+04 3.442e-09
  5.37700   -117.3 1.577e+04 2.118e-09
  5.39738   -121.5 1.526e+04 1.849e-09
  5.41584   -126.2 1.638e+04 2.309e-09
  5.42602   -121.0 1.496e+04 1.677e-09
  5.43813   -125.3 1.663e+04 2.733e-09
  5.45164   -128.3 1.865e+04 5.968e-09
  5.46183   -128.8 1.869e+04 6.281e-09
  5.47888   -129.7 1.957e+04 1.101e-08
  5.49411   -128.9 1.974e+04 1.363e-08
  5.49929   -129.0 1.984e+04 1.460e-08
  5.50444   -127.6 1.936e+04 1.121e-08
  5.51963   -127.8 1.944e+04 1.407e-08
  5.54000   -127.7 1.935e+04 1.493e-08
  5.56038   -127.9 1.853e+04 1.162e-08
  5.57276   -128.3 1.739e+04 7.668e-09
  5.58295   -126.3 1.793e+04 8.841e-09
  5.60112   -126.9 1.668e+04 6.051e-09
  5.61561   -127.7 1.543e+04 3.683e-09
  5.62580   -127.9 1.510e+04 3.168e-09
  5.64103   -129.0 1.414e+04 1.968e-09
  5.65122   -126.6 1.458e+04 2.887e-09
  5.66225   -127.4 1.387e+04 1.966e-09
  5.68262   -128.1 1.335e+04 1.436e-09
  5.70300   -128.8 1.283e+04 1.151e-09
  5.71949   -129.3 1.227e+04 1.024e-09
  5.72968   -127.1 1.273e+04 1.122e-09
  5.74375   -127.7 1.221e+04 9.962e-10
  5.76412   -127.9 1.185e+04 9.719e-10
  5.77958   -127.7 1.171e+04 9.725e-10
  5.78977   -127.9 1.195e+04 1.108e-09
  5.79795   -127.5 1.193e+04 1.120e-09
  5.80814   -126.4 1.187e+04 1.048e-09
  5.82525   -126.1 1.185e+04 1.061e-09
  5.84562   -125.8 1.189e+04 1.057e-09
  5.86600   -125.7 1.194e+04 1.036e-09
  5.87641   -125.8 1.200e+04 1.037e-09
  5.88660   -124.8 1.198e+04 1.051e-09
  5.90675   -125.0 1.207e+04 1.104e-09
  5.92712   -125.2 1.219e+04 1.173e-09
  5.94355   -125.4 1.234e+04 1.266e-09
  5.95093   -125.8 1.260e+04 1.499e-09
  5.95487   -124.8 1.270e+04 1.572e-09
  5.96787   -125.6 1.317e+04 1.872e-09
  5.98824   -126.6 1.372e+04 2.255e-09
  6.00862   -127.7 1.428e+04 2.690e-09
  6.02315   -128.9 1.471e+04 3.069e-09
  6.03333   -129.1 1.510e+04 3.429e-09
  6.04937   -130.6 1.531e+04 3.640e-09
  6.06974   -132.1 1.540e+04 3.698e-09
  6.09012   -133.5 1.545e+04 3.675e-09
  6.10161   -135.1 1.550e+04 3.558e-09
  6.10883   -136.2 1.511e+04 3.031e-09
  6.11771   -139.2 1.544e+04 3.476e-09
  6.13087   -141.7 1.500e+04 2.945e-09
  6.15124   -144.3 1.466e+04 2.725e-09
  6.16988   -146.5 1.420e+04 2.555e-09
  6.18007   -147.3 1.355e+04 2.068e-09
  6.19199   -149.2 1.333e+04 1.998e-09
  6.21237   -151.1 1.328e+04 1.988e-09
  6.23274   -153.3 1.358e+04 2.094e-09
  6.24834   -155.7 1.436e+04 2.411e-09
  6.25853   -155.8 1.408e+04 2.322e-09
  6.27150   -157.7 1.485e+04 2.875e-09
  6.28168   -157.2 1.350e+04 1.673e-09
  6.29386   -158.5 1.387e+04 1.852e-09
  6.31424   -159.5 1.391e+04 2.010e-09
  6.32680   -160.2 1.380e+04 2.178e-09
  6.33699   -159.2 1.376e+04 2.179e-09
  6.35499   -159.6 1.361e+04 2.366e-09
  6.37536   -159.5 1.352e+04 2.533e-09
  6.39507   -159.2 1.355e+04 2.564e-09
  6.40526   -158.4 1.354e+04 2.524e-09
  6.41611   -158.1 1.343e+04 2.227e-09
  6.43547   -157.8 1.324e+04 2.025e-09
  6.44565   -156.7 1.320e+04 2.052e-09
  6.45686   -156.3 1.311e+04 1.934e-09
  6.47354   -156.1 1.313e+04 1.804e-09
  6.48372   -155.5 1.300e+04 1.771e-09
  6.49761   -155.5 1.297e+04 1.577e-09
  6.51799   -155.5 1.281e+04 1.383e-09
  6.54191   -154.8 1.260e+04 1.267e-09
  6.56228   -154.2 1.199e+04 9.953e-10
  6.58940   -153.1 1.182e+04 9.466e-10
  6.63024   -152.0 1.152e+04 8.786e-10
  6.67099   -150.7 1.141e+04 8.723e-10
  6.69892   -149.2 1.132e+04 8.516e-10
  6.71930   -148.6 1.148e+04 9.145e-10
  6.75249   -147.0 1.137e+04 8.971e-10
  6.77379   -145.5 1.107e+04 7.519e-10
  6.79417   -144.1 1.130e+04 8.312e-10
  6.83399   -142.7 1.115e+04 7.410e-10
  6.85585   -141.7 1.116e+04 7.149e-10
  6.87622   -141.1 1.122e+04 7.783e-10
  6.91549   -140.4 1.156e+04 8.711e-10
  6.95624   -140.2 1.196e+04 1.018e-09
  6.99239   -140.5 1.214e+04 1.118e-09
  7.01277   -140.1 1.258e+04 1.475e-09
  7.03774   -140.4 1.267e+04 1.537e-09
  7.07849   -140.5 1.236e+04 1.304e-09
  7.10173   -140.1 1.167e+04 9.125e-10
  7.12211   -141.2 1.204e+04 1.021e-09
  7.14931   -140.6 1.103e+04 6.015e-10
  7.16969   -140.6 1.169e+04 8.849e-10
  7.20073   -139.3 1.060e+04 4.818e-10
  7.24148   -137.5 1.005e+04 3.186e-10
  7.28223   -135.8 9.893e+03 2.775e-10
  7.30623   -134.0 9.862e+03 2.730e-10
  7.32661   -133.3 9.933e+03 2.830e-10
  7.36373   -131.5 9.882e+03 2.734e-10
  7.40448   -129.6 9.870e+03 2.718e-10
  7.42968   -127.7 9.849e+03 2.711e-10
  7.44760   -127.7 9.880e+03 2.734e-10
  7.46315   -126.7 9.809e+03 2.576e-10
  7.48598   -124.6 9.740e+03 2.485e-10
  7.52673   -122.4 9.680e+03 2.307e-10
  7.56748   -120.1 9.600e+03 2.020e-10
  7.59970   -117.7 9.540e+03 1.778e-10
  7.62008   -116.7 9.514e+03 1.789e-10
  7.64898   -114.2 9.501e+03 1.624e-10
  7.68973   -111.8 9.510e+03 1.544e-10
  7.73048   -109.3 9.519e+03 1.529e-10
  7.75662   -106.9 9.627e+03 1.538e-10
  7.76339   -105.9 9.602e+03 1.537e-10
  7.77799   -105.5 9.602e+03 1.493e-10
  7.81198   -103.2 9.755e+03 1.618e-10
  7.85273   -100.8 9.868e+03 1.815e-10
  7.89317    -98.4 9.987e+03 2.047e-10
  7.91354    -97.1 9.837e+03 1.878e-10
  7.93422    -94.6 9.978e+03 2.047e-10
  7.97497    -92.2 1.014e+04 2.204e-10
  8.01572    -89.9 1.033e+04 2.422e-10
  8.05009    -87.8 1.055e+04 2.774e-10
  8.07046    -86.0 1.036e+04 2.195e-10
  8.08556    -83.9 1.063e+04 2.559e-10
  8.10594    -83.0 1.054e+04 2.327e-10
  8.13797    -80.8 1.077e+04 2.909e-10
  8.17872    -78.5 1.099e+04 3.694e-10
  8.20701    -76.1 1.116e+04 4.245e-10
  8.22739    -74.6 1.138e+04 4.927e-10
  8.26022    -71.9 1.166e+04 6.059e-10
  8.30097    -69.4 1.197e+04 6.552e-10
  8.34172    -67.6 1.237e+04 6.321e-10
  8.36393    -67.4 1.296e+04 6.115e-10
  8.37402    -64.3 1.350e+04 1.139e-09
  8.39246    -64.7 1.408e+04 1.303e-09
  8.41283    -65.0 1.472e+04 1.625e-09
  8.42350    -66.1 1.440e+04 2.067e-09
  8.43248    -65.5 1.484e+04 2.419e-09
  8.44220    -64.3 1.755e+04 5.107e-09
  8.45358    -64.7 1.735e+04 6.642e-09
  8.47396    -65.0 1.740e+04 6.888e-09
  8.49433    -65.4 1.739e+04 4.666e-09
  8.51047    -68.1 1.446e+04 1.825e-09
  8.52066    -63.9 2.100e+04 4.545e-09
  8.53508    -69.8 1.534e+04 1.114e-09
  8.55546    -72.3 1.145e+04 6.402e-10
  8.57583    -71.2 1.102e+04 5.519e-10
  8.58747    -72.4 1.032e+04 3.765e-10
  8.59038    -72.6 1.031e+04 3.346e-10
  8.59912    -71.9 1.183e+04 4.194e-10
  8.62687    -73.0 1.089e+04 2.774e-10
  8.65740    -73.8 9.989e+03 1.694e-10
  8.67777    -72.5 1.331e+04 3.206e-10
  8.70846    -74.2 1.067e+04 2.743e-10
  8.74145    -74.1 1.001e+04 2.599e-10
  8.76182    -74.1 1.004e+04 2.253e-10
  8.78996    -72.5 9.836e+03 2.378e-10
  8.81432    -70.4 9.864e+03 2.433e-10
  8.83469    -71.1 1.010e+04 2.707e-10
  8.87146    -68.9 1.006e+04 2.569e-10
  8.91221    -66.7 9.915e+03 2.482e-10
  8.95087    -64.6 9.865e+03 2.492e-10
  8.97124    -64.9 1.017e+04 2.656e-10
  8.99371    -62.6 9.910e+03 2.517e-10
  9.03446    -60.3 9.788e+03 2.511e-10
  9.06939    -57.8 9.836e+03 2.567e-10
  9.08976    -58.0 9.714e+03 2.330e-10
  9.10779    -55.5 9.756e+03 2.290e-10
  9.12816    -55.4 9.731e+03 2.241e-10
  9.15671    -53.2 9.750e+03 2.201e-10
  9.19746    -51.5 9.943e+03 2.378e-10
  9.23821    -50.1 1.030e+04 3.198e-10
  9.26461    -48.6 1.039e+04 3.716e-10
  9.28499    -48.0 1.028e+04 3.237e-10
  9.31970    -46.5 1.042e+04 3.876e-10
  9.34307    -45.4 1.047e+04 4.803e-10
  9.35316    -45.3 1.038e+04 4.024e-10
  9.37045    -44.9 1.041e+04 3.994e-10
  9.39082    -44.1 1.037e+04 4.115e-10
  9.40732    -43.9 1.051e+04 3.898e-10
  9.41751    -43.8 1.055e+04 4.152e-10
  9.43157    -43.2 1.044e+04 4.233e-10
  9.45194    -43.2 1.054e+04 4.450e-10
  9.47232    -42.9 1.048e+04 5.025e-10
  9.48971    -42.4 1.061e+04 5.377e-10
  9.49989    -42.0 1.054e+04 5.300e-10
  9.51307    -41.4 1.046e+04 6.097e-10
  9.53344    -40.8 1.059e+04 6.368e-10
  9.55382    -40.2 1.061e+04 6.570e-10
  9.56817    -39.5 1.058e+04 6.484e-10
  9.57546    -39.3 1.058e+04 6.459e-10
  9.58148    -39.3 1.047e+04 6.078e-10
  9.59457    -38.7 1.044e+04 5.669e-10
  9.61494    -38.1 1.032e+04 5.328e-10
  9.63532    -37.5 1.028e+04 4.432e-10
  9.64663    -37.1 1.019e+04 4.101e-10
  9.65682    -36.9 1.016e+04 4.287e-10
  9.67607    -36.1 1.014e+04 3.634e-10
  9.69644    -36.0 1.012e+04 3.601e-10
  9.71490    -34.9 1.009e+04 3.183e-10
  9.73345    -34.4 1.025e+04 3.428e-10
  9.74565    -34.5 9.975e+03 3.329e-10
  9.76795    -33.3 1.003e+04 3.143e-10
  9.79346    -33.6 1.034e+04 3.804e-10
  9.80355    -33.3 1.031e+04 3.802e-10
  9.81869    -33.5 1.065e+04 4.925e-10
  9.83906    -33.7 1.126e+04 7.247e-10
  9.85944    -33.7 1.203e+04 1.092e-09
  9.87182    -33.0 1.247e+04 1.578e-09
  9.88201    -32.3 1.215e+04 1.332e-09
  9.89924    -31.3 1.240e+04 1.664e-09
  9.90942    -31.5 1.211e+04 1.466e-09
  9.92056    -30.5 1.246e+04 1.692e-09
  9.94010    -29.9 1.274e+04 1.772e-09
  9.95028    -29.7 1.245e+04 1.579e-09
  9.96131    -29.6 1.265e+04 1.638e-09
  9.98169    -29.6 1.277e+04 1.644e-09
 10.00206    -30.2 1.332e+04 1.783e-09
 10.01856    -33.2 1.532e+04 2.708e-09
 10.02874    -30.5 1.393e+04 2.073e-09
 10.04281    -33.6 1.629e+04 3.670e-09
 10.06319    -35.6 1.710e+04 6.413e-09
 10.08356    -36.8 1.747e+04 1.129e-08
 10.09702    -38.9 1.935e+04 1.482e-08
 10.10206    -39.9 1.942e+04 1.664e-08
 10.10893    -42.2 2.074e+04 2.014e-08
 10.11912    -44.2 2.256e+04 2.228e-08
 10.12931    -46.7 2.370e+04 2.432e-08
 10.13615    -50.1 2.355e+04 2.286e-08
 10.14124    -51.1 2.388e+04 3.432e-08
 10.14968    -54.0 2.335e+04 3.272e-08
 10.15528    -58.2 2.155e+04 2.555e-08
 10.16038    -58.7 2.108e+04 2.226e-08
 10.17006    -61.1 2.036e+04 1.986e-08
 10.17538    -64.1 1.963e+04 1.750e-08
 10.18047    -64.5 2.012e+04 2.058e-08
 10.19043    -66.2 1.990e+04 1.846e-08
 10.20062    -68.1 1.921e+04 1.585e-08
 10.20952    -69.2 1.873e+04 1.382e-08
 10.21461    -69.9 1.827e+04 1.214e-08
 10.22613    -71.1 1.789e+04 1.077e-08
 10.23737    -73.0 1.652e+04 6.726e-09
 10.24475    -72.2 1.579e+04 5.567e-09
 10.25394    -73.4 1.447e+04 3.669e-09
 10.26693    -74.8 1.342e+04 2.447e-09
 10.28731    -76.0 1.256e+04 1.647e-09
 10.30768    -77.1 1.182e+04 1.139e-09
 10.32221    -78.1 1.114e+04 8.110e-10
 10.33240    -78.4 1.086e+04 7.247e-10
 10.34843    -78.8 1.052e+04 5.628e-10
 10.36881    -79.3 1.013e+04 4.457e-10
 10.38918    -79.7 9.817e+03 3.597e-10
 10.40144    -80.4 9.661e+03 3.036e-10
 10.42191    -78.6 9.701e+03 3.117e-10
 10.45895    -78.8 9.444e+03 2.795e-10
 10.47933    -78.8 9.943e+03 3.080e-10
 10.50144    -78.9 9.659e+03 2.820e-10
 10.54219    -78.1 9.419e+03 2.698e-10
 10.58294    -77.0 9.281e+03 2.582e-10
 10.61587    -76.0 9.281e+03 2.526e-10
 10.63625    -75.8 9.501e+03 2.765e-10
 10.66443    -75.0 9.552e+03 2.745e-10
 10.70518    -73.7 9.723e+03 3.230e-10
 10.72938    -72.3 9.937e+03 3.986e-10
 10.74975    -70.7 9.772e+03 3.499e-10
 10.77279    -70.1 1.017e+04 4.721e-10
 10.79317    -70.7 1.039e+04 5.121e-10
 10.82743    -70.1 1.057e+04 6.091e-10
 10.85116    -69.9 1.048e+04 6.341e-10
 10.86125    -70.0 1.062e+04 7.099e-10
 10.87817    -69.5 1.054e+04 6.752e-10
 10.89325    -69.0 1.040e+04 6.025e-10
 10.90344    -67.2 1.024e+04 5.230e-10
 10.91892    -66.7 1.013e+04 4.693e-10
 10.92962    -66.9 1.006e+04 4.198e-10
 10.93980    -66.4 1.018e+04 4.971e-10
 10.95967    -66.1 1.012e+04 4.490e-10
 10.99033    -66.3 9.976e+03 4.018e-10
 11.03118    -65.1 9.650e+03 3.332e-10
 11.05742    -63.8 9.427e+03 2.820e-10
 11.07213    -61.2 9.454e+03 2.934e-10
 11.08664    -60.9 9.580e+03 3.119e-10
 11.11268    -59.9 9.427e+03 2.679e-10
 11.15343    -59.3 9.445e+03 2.552e-10
 11.19418    -58.9 9.581e+03 2.738e-10
 11.22318    -58.1 9.817e+03 3.329e-10
 11.23327    -56.5 9.921e+03 3.881e-10
 11.24492    -56.6 9.994e+03 4.180e-10
 11.26529    -56.3 1.022e+04 5.145e-10
 11.28567    -56.1 1.040e+04 5.981e-10
 11.31633    -55.8 1.068e+04 7.407e-10
 11.35717    -55.1 1.048e+04 6.137e-10
 11.38010    -54.6 1.016e+04 4.701e-10
 11.38791    -54.9 1.039e+04 5.403e-10
 11.40574    -52.9 1.048e+04 6.020e-10
 11.43867    -52.4 1.009e+04 4.248e-10
 11.47942    -52.1 9.750e+03 2.888e-10
 11.51665    -51.9 9.602e+03 2.473e-10
 11.53702    -53.0 9.747e+03 2.877e-10
 11.56092    -52.4 9.791e+03 2.891e-10
 11.60167    -51.8 9.926e+03 3.067e-10
 11.64242    -51.6 1.012e+04 3.668e-10
 11.67357    -52.3 1.076e+04 5.154e-10
 11.69395    -55.0 1.182e+04 6.708e-10
 11.71321    -56.7 1.275e+04 9.773e-10
 11.73358    -56.2 1.283e+04 1.169e-09
 11.75193    -58.9 1.366e+04 1.809e-09
 11.76202    -60.1 1.381e+04 2.193e-09
 11.77466    -61.0 1.387e+04 2.828e-09
 11.79504    -61.4 1.371e+04 3.025e-09
 11.81541    -61.0 1.328e+04 2.662e-09
 11.83030    -60.3 1.293e+04 1.679e-09
 11.84048    -61.0 1.253e+04 1.145e-09
 11.85616    -62.9 1.172e+04 5.752e-10
 11.88682    -64.2 1.059e+04 2.917e-10
 11.92767    -64.4 9.664e+03 1.078e-10
 11.96704    -63.9 9.549e+03 6.977e-11
 11.98741    -63.5 9.480e+03 6.197e-11
 12.00917    -62.7 9.315e+03 5.447e-11
 12.04125    -61.2 9.267e+03 5.430e-11
 12.06162    -60.6 9.291e+03 4.872e-11
 12.09066    -59.0 9.287e+03 5.238e-11
 12.12396    -57.5 9.323e+03 5.958e-11
 12.14433    -57.0 9.273e+03 5.774e-11
 12.17216    -55.3 9.345e+03 6.311e-11
 12.21291    -53.7 9.454e+03 6.617e-11
 12.25366    -52.3 9.580e+03 6.939e-11
 12.28088    -51.0 9.653e+03 7.694e-11
 12.30125    -50.7 9.583e+03 6.766e-11
 12.33516    -49.1 9.613e+03 7.297e-11
 12.36919    -47.4 9.675e+03 7.769e-11
 12.38956    -46.9 9.608e+03 7.343e-11
 12.41666    -45.3 9.699e+03 7.571e-11
 12.43780    -44.1 1.002e+04 8.071e-11
 12.45818    -44.5 9.886e+03 5.942e-11
 12.49816    -44.0 1.001e+04 7.985e-11
 12.53891    -43.3 1.016e+04 1.294e-10
 12.57435    -42.5 1.038e+04 2.151e-10
 12.59472    -42.8 1.038e+04 1.768e-10
 12.62041    -42.0 1.056e+04 2.599e-10
 12.66116    -41.1 1.073e+04 3.052e-10
 12.69713    -40.7 1.081e+04 3.021e-10
 12.71751    -40.4 1.068e+04 2.655e-10
 12.73127    -40.4 1.091e+04 2.105e-10
 12.75164    -41.3 1.095e+04 2.759e-10
 12.78340    -41.6 1.106e+04 3.069e-10
 12.82415    -41.3 1.107e+04 3.937e-10
 12.86490    -40.4 1.121e+04 4.590e-10
 12.88819    -40.3 1.145e+04 4.744e-10
 12.90856    -41.6 1.177e+04 5.564e-10
 12.94640    -42.7 1.184e+04 6.732e-10
 12.98715    -43.2 1.193e+04 8.848e-10
 13.02474    -42.8 1.194e+04 9.722e-10
 13.04228    -44.3 1.206e+04 1.018e-09
 13.04545    -44.3 1.249e+04 1.353e-09
 13.06865    -44.4 1.230e+04 1.030e-09
 13.10940    -45.8 1.184e+04 5.090e-10
 13.15015    -47.9 1.112e+04 3.817e-10
 13.18166    -48.2 1.091e+04 4.181e-10
 13.20203    -49.8 1.106e+04 4.946e-10
 13.23165    -49.1 1.109e+04 5.357e-10
 13.27240    -48.8 1.101e+04 4.947e-10
 13.31315    -48.6 1.078e+04 3.820e-10
 13.33858    -48.5 1.054e+04 2.973e-10
 13.35807    -50.2 1.052e+04 2.740e-10
 13.37339    -50.8 1.039e+04 2.234e-10
 13.39465    -50.6 1.019e+04 1.702e-10
 13.43540    -50.1 9.969e+03 1.376e-10
 13.47512    -49.1 9.716e+03 1.157e-10
 13.49550    -50.3 9.610e+03 9.979e-11
 13.51689    -48.9 9.449e+03 8.058e-11
 13.55764    -47.3 9.356e+03 6.284e-11
 13.59839    -45.9 9.299e+03 4.919e-11
 13.63204    -44.5 9.238e+03 4.017e-11
 13.65242    -45.2 9.214e+03 3.983e-11
 13.67989    -43.7 9.135e+03 3.633e-11
 13.70133    -42.1 9.117e+03 3.405e-11
 13.72171    -42.0 9.098e+03 3.100e-11
 13.76139    -40.5 9.120e+03 2.931e-11
 13.78897    -39.3 9.143e+03 3.103e-11
 13.80934    -39.7 9.162e+03 3.292e-11
 13.84289    -38.3 9.109e+03 3.778e-11
 13.88364    -36.5 8.963e+03 4.182e-11
 13.92439    -34.5 8.922e+03 4.022e-11
 13.94589    -32.8 8.978e+03 3.488e-11
 13.96626    -33.2 9.016e+03 3.438e-11
 14.00589    -32.1 9.070e+03 3.181e-11
 14.02928    -30.9 9.049e+03 3.333e-11
 14.04965    -31.0 9.068e+03 3.376e-11
 14.08243    -29.6 9.009e+03 3.820e-11
 14.10281    -30.1 9.041e+03 4.699e-11
 14.12814    -28.4 9.025e+03 4.991e-11
 14.16888    -26.7 9.019e+03 4.847e-11
 14.20963    -25.1 9.039e+03 4.509e-11
 14.23935    -23.8 9.025e+03 4.254e-11
 14.25973    -24.3 9.058e+03 4.343e-11
 14.29113    -22.9 9.029e+03 4.330e-11
 14.33188    -21.5 9.031e+03 4.471e-11
 14.35722    -20.2 9.038e+03 4.929e-11
 14.37759    -20.2 9.026e+03 4.744e-11
 14.39628    -18.9 9.055e+03 5.447e-11
 14.41665    -19.5 9.086e+03 5.581e-11
 14.45413    -18.2 9.125e+03 6.770e-11
 14.49488    -16.9 9.189e+03 8.564e-11
 14.53282    -15.7 9.295e+03 1.108e-10
 14.55320    -16.3 9.304e+03 1.026e-10
 14.57638    -15.3 9.436e+03 1.279e-10
 14.61713    -14.4 9.555e+03 1.539e-10
 14.65788    -13.5 9.661e+03 1.636e-10
 14.68516    -12.9 9.724e+03 1.596e-10
 14.69665    -13.3 9.667e+03 1.298e-10
 14.71012    -14.1 9.645e+03 1.145e-10
 14.73938    -14.0 9.748e+03 1.179e-10
 14.78013    -14.0 9.839e+03 1.293e-10
 14.82088    -13.6 9.851e+03 1.468e-10
 14.84666    -13.0 9.815e+03 1.554e-10
 14.86704    -13.4 9.798e+03 1.357e-10
 14.90237    -12.7 9.749e+03 1.273e-10
 14.94312    -11.8 9.711e+03 1.212e-10
 14.98321    -11.3 9.824e+03 1.275e-10
 15.00358    -12.3 9.907e+03 1.145e-10
 15.01310    -13.9 1.039e+04 1.855e-10
 15.03348    -14.6 1.041e+04 1.862e-10
 15.06537    -15.9 1.126e+04 5.930e-10
 15.10612    -16.4 1.217e+04 1.265e-09
 15.14013    -17.0 1.212e+04 1.235e-09
 15.16051    -17.7 1.168e+04 9.295e-10
 15.18762    -18.5 1.126e+04 5.941e-10
 15.22837    -19.8 1.077e+04 3.445e-10
 15.26912    -20.6 1.033e+04 2.332e-10
 15.29705    -20.7 1.007e+04 1.924e-10
 15.31743    -21.2 9.999e+03 1.961e-10
 15.34105    -20.7 9.975e+03 1.962e-10
 15.36142    -20.2 9.817e+03 1.651e-10
 15.39137    -19.8 9.889e+03 1.775e-10
 15.43212    -19.3 1.001e+04 2.127e-10
 15.45397    -19.0 1.022e+04 2.625e-10
 15.47435    -19.8 1.020e+04 2.652e-10
 15.51362    -19.6 1.048e+04 3.194e-10
 15.55436    -19.6 1.069e+04 3.469e-10
 15.59052    -19.7 1.064e+04 3.466e-10
 15.61089    -20.4 1.041e+04 3.281e-10
 15.63586    -20.4 1.028e+04 2.942e-10
 15.66899    -20.6 1.028e+04 2.730e-10
 15.68936    -19.5 1.021e+04 2.547e-10
 15.71736    -19.9 1.029e+04 2.592e-10
 15.74744    -20.6 1.052e+04 3.092e-10
 15.76781    -21.3 1.050e+04 3.121e-10
 15.79886    -21.4 1.074e+04 4.112e-10
 15.83961    -21.4 1.083e+04 4.307e-10
 15.88036    -21.2 1.077e+04 3.947e-10
 15.90436    -21.1 1.059e+04 3.084e-10
 15.92474    -21.8 1.049e+04 2.867e-10
 15.96186    -21.6 1.022e+04 2.124e-10
 15.99693    -21.1 9.959e+03 1.632e-10
 16.01730    -20.3 1.015e+04 2.132e-10
 16.04091    -19.6 9.905e+03 1.718e-10
 16.06128    -20.1 9.845e+03 1.632e-10
 16.08411    -19.3 9.665e+03 1.377e-10
 16.12486    -18.3 9.473e+03 1.151e-10
 16.16561    -17.3 9.305e+03 9.424e-11
 16.19783    -16.3 9.095e+03 7.845e-11
 16.21820    -16.4 9.059e+03 7.556e-11
 16.24710    -15.5 8.941e+03 7.334e-11
 16.28785    -14.7 8.944e+03 7.666e-11
 16.32487    -14.5 9.021e+03 9.110e-11
 16.34525    -13.6 9.148e+03 9.154e-11
 16.35475    -14.0 9.508e+03 1.490e-10
 16.37512    -14.9 9.697e+03 1.860e-10
 16.41010    -15.1 1.001e+04 3.243e-10
 16.45085    -15.4 1.026e+04 4.576e-10
 16.49130    -16.3 1.045e+04 5.523e-10
 16.51157    -16.4 1.053e+04 5.723e-10
 16.52197    -17.4 1.061e+04 6.201e-10
 16.54234    -17.6 1.062e+04 6.360e-10
 16.56272    -18.3 1.062e+04 6.617e-10
 16.57975    -19.0 1.063e+04 6.788e-10
 16.58994    -19.5 1.052e+04 6.213e-10
 16.60347    -20.0 1.054e+04 6.417e-10
 16.62384    -20.3 1.060e+04 6.634e-10
 16.64422    -20.8 1.047e+04 6.395e-10
 16.65821    -21.0 1.044e+04 6.372e-10
 16.66661    -21.4 1.042e+04 6.430e-10
 16.67299    -20.7 1.051e+04 6.697e-10
 16.68497    -21.0 1.043e+04 6.577e-10
 16.70534    -21.2 1.043e+04 6.531e-10
 16.73600    -21.3 1.053e+04 6.591e-10
 16.77685    -21.5 1.061e+04 6.523e-10
 16.80514    -21.7 1.066e+04 6.640e-10
 16.82551    -22.5 1.083e+04 7.013e-10
 16.85835    -22.3 1.038e+04 5.630e-10
 16.89910    -21.9 9.810e+03 4.098e-10
 16.93984    -21.4 9.257e+03 2.978e-10
 16.96206    -20.5 8.965e+03 2.475e-10
 16.98243    -21.3 8.864e+03 2.184e-10
 17.02134    -19.6 8.870e+03 2.184e-10
 17.06209    -18.0 9.041e+03 2.494e-10
 17.09256    -17.3 9.115e+03 2.786e-10
 17.10860    -16.6 9.197e+03 3.224e-10
 17.11878    -17.4 9.516e+03 3.204e-10
 17.13321    -19.6 1.202e+04 5.041e-10
 17.15358    -25.8 1.619e+04 1.512e-09
 17.16486    -28.6 1.685e+04 3.254e-09
 17.17505    -26.5 1.575e+04 2.320e-09
 17.18701    -29.4 1.728e+04 5.100e-09
 17.19205    -30.9 1.791e+04 6.549e-09
 17.19933    -30.7 1.831e+04 8.840e-09
 17.20952    -33.3 2.056e+04 1.578e-08
 17.21970    -33.8 2.101e+04 2.024e-08
 17.22619    -36.1 2.304e+04 2.879e-08
 17.23128    -37.0 2.310e+04 2.892e-08
 17.24008    -39.1 2.311e+04 2.926e-08
 17.24680    -42.1 2.321e+04 2.921e-08
 17.25189    -41.2 2.337e+04 3.411e-08
 17.26033    -43.5 2.282e+04 3.349e-08
 17.26542    -44.5 2.268e+04 2.880e-08
 17.27064    -48.0 2.274e+04 2.112e-08
 17.28083    -49.9 2.209e+04 1.775e-08
 17.29616    -54.4 2.112e+04 1.018e-08
 17.31658    -60.5 1.801e+04 5.334e-09
 17.32888    -66.7 1.438e+04 2.861e-09
 17.33590    -64.0 1.663e+04 3.549e-09
 17.34398    -66.7 1.473e+04 2.625e-09
 17.35733    -70.9 1.398e+04 1.875e-09
 17.37771    -74.8 1.341e+04 1.511e-09
 17.39808    -77.4 1.293e+04 1.458e-09
 17.41225    -78.5 1.279e+04 1.474e-09
 17.42244    -78.7 1.311e+04 1.773e-09
 17.43883    -79.0 1.287e+04 1.654e-09
 17.45920    -79.4 1.255e+04 1.321e-09
 17.47958    -80.1 1.208e+04 1.021e-09
 17.49071    -80.6 1.160e+04 8.191e-10
 17.49380    -81.1 1.164e+04 8.381e-10
 17.50304    -81.3 1.138e+04 7.210e-10
 17.52033    -81.1 1.113e+04 6.176e-10
 17.54070    -80.8 1.096e+04 5.404e-10
 17.55899    -80.4 1.082e+04 4.777e-10
 17.56917    -80.8 1.084e+04 4.705e-10
 17.58145    -80.3 1.072e+04 4.275e-10
 17.60183    -79.8 1.064e+04 4.025e-10
 17.62220    -79.2 1.060e+04 3.930e-10
 17.63745    -78.4 1.066e+04 3.945e-10
 17.64763    -78.8 1.084e+04 4.037e-10
 17.65682    -78.8 1.130e+04 4.555e-10
 17.66701    -78.0 1.097e+04 4.087e-10
 17.68333    -78.3 1.151e+04 4.911e-10
 17.70370    -79.2 1.208e+04 6.960e-10
 17.71591    -80.0 1.236e+04 1.088e-09
 17.72609    -80.3 1.229e+04 1.122e-09
 17.74445    -80.3 1.268e+04 1.714e-09
 17.76483    -79.5 1.311e+04 2.432e-09
 17.78418    -78.6 1.358e+04 2.950e-09
 17.79437    -78.7 1.320e+04 2.433e-09
 17.80557    -78.8 1.333e+04 2.468e-09
 17.82079    -80.0 1.338e+04 2.192e-09
 17.83098    -79.7 1.354e+04 2.322e-09
 17.84632    -81.4 1.329e+04 1.989e-09
 17.86264    -83.1 1.303e+04 1.800e-09
 17.87283    -83.1 1.279e+04 1.747e-09
 17.88707    -84.1 1.270e+04 1.637e-09
 17.90745    -85.1 1.265e+04 1.486e-09
 17.92782    -86.3 1.263e+04 1.291e-09
 17.94110    -87.8 1.257e+04 1.107e-09
 17.95129    -87.2 1.246e+04 1.020e-09
 17.96857    -88.7 1.228e+04 9.708e-10
 17.98476    -89.8 1.222e+04 9.864e-10
 17.99495    -90.5 1.272e+04 1.295e-09
 18.00932    -91.0 1.277e+04 1.396e-09
 18.02970    -90.2 1.239e+04 1.213e-09
 18.05007    -90.1 1.252e+04 1.255e-09
 18.08073    -89.8 1.227e+04 1.086e-09
 18.12158    -89.4 1.190e+04 8.808e-10
 18.15630    -88.8 1.176e+04 7.775e-10
 18.17668    -87.2 1.131e+04 5.925e-10
 18.19279    -87.2 1.140e+04 6.041e-10
 18.21307    -87.1 1.149e+04 6.161e-10
 18.23344    -87.0 1.161e+04 6.436e-10
 18.24476    -87.1 1.175e+04 6.606e-10
 18.25494    -86.8 1.176e+04 6.827e-10
 18.27419    -86.7 1.186e+04 7.167e-10
 18.29457    -86.5 1.188e+04 7.200e-10
 18.31271    -86.2 1.182e+04 6.491e-10
 18.32098    -86.1 1.155e+04 5.110e-10
 18.32322    -85.7 1.161e+04 5.644e-10
 18.33532    -85.4 1.147e+04 4.831e-10
 18.36598    -85.1 1.120e+04 3.824e-10
 18.40682    -84.4 1.078e+04 2.706e-10
 18.44757    -82.9 1.043e+04 1.846e-10
 18.47014    -81.4 1.029e+04 1.388e-10
 18.49052    -80.9 1.025e+04 1.212e-10
 18.52907    -79.3 1.014e+04 9.384e-11
 18.56982    -77.5 1.010e+04 7.541e-11
 18.60669    -75.8 1.012e+04 6.307e-11
 18.62707    -75.7 1.008e+04 6.053e-11
 18.64084    -74.1 1.008e+04 5.706e-11
 18.66122    -73.4 1.006e+04 5.361e-11
 18.69207    -71.8 1.006e+04 5.236e-11
 18.73282    -70.3 1.016e+04 5.507e-11
 18.76361    -68.8 1.012e+04 6.569e-11
 18.78399    -68.5 1.004e+04 6.156e-11
 18.81432    -66.6 1.002e+04 7.236e-11
 18.85507    -64.5 1.004e+04 8.025e-11
 18.89582    -62.5 1.007e+04 8.230e-11
 18.92053    -60.6 1.019e+04 7.559e-11
 18.94091    -60.4 1.018e+04 6.713e-11
 18.96879    -59.0 1.033e+04 6.218e-11
 18.98916    -58.4 1.026e+04 5.980e-11
 19.01807    -57.5 1.046e+04 6.039e-11
 19.05708    -56.8 1.034e+04 8.216e-11
 19.07745    -56.4 1.026e+04 8.011e-11
 19.09956    -55.0 1.039e+04 1.139e-10
 19.14031    -54.6 1.088e+04 1.549e-10
 19.18106    -54.6 1.126e+04 2.411e-10
 19.21400    -54.3 1.158e+04 3.970e-10
 19.23438    -54.1 1.156e+04 3.556e-10
 19.25228    -54.2 1.150e+04 5.003e-10
 19.27255    -54.0 1.185e+04 5.545e-10
 19.29227    -54.2 1.228e+04 6.025e-10
 19.30245    -53.9 1.211e+04 5.855e-10
 19.30672    -54.2 1.219e+04 6.030e-10
 19.31691    -54.4 1.231e+04 6.468e-10
 19.33368    -54.7 1.219e+04 6.675e-10
 19.35405    -54.5 1.209e+04 6.516e-10
 19.37073    -54.2 1.213e+04 5.465e-10
 19.38091    -53.9 1.211e+04 4.761e-10
 19.39480    -53.7 1.206e+04 4.377e-10
 19.42546    -53.4 1.207e+04 3.572e-10
 19.46631    -53.0 1.184e+04 2.566e-10
 19.50706    -52.6 1.159e+04 2.176e-10
 19.52784    -51.7 1.152e+04 2.033e-10
 19.54822    -51.1 1.160e+04 2.257e-10
 19.58856    -50.0 1.157e+04 2.314e-10
 19.62467    -48.9 1.160e+04 2.197e-10
 19.64505    -49.2 1.155e+04 2.525e-10
 19.66439    -47.8 1.143e+04 2.532e-10
 19.68476    -47.0 1.144e+04 2.533e-10
 19.71081    -45.7 1.143e+04 2.213e-10
 19.75155    -44.4 1.138e+04 2.170e-10
 19.79230    -43.1 1.131e+04 2.119e-10
 19.82131    -41.6 1.127e+04 2.030e-10
 19.84168    -40.7 1.122e+04 2.010e-10
 19.87380    -39.4 1.127e+04 1.935e-10
 19.91455    -38.5 1.136e+04 2.036e-10
 19.95261    -39.2 1.185e+04 2.662e-10
 19.97289    -39.7 1.212e+04 3.944e-10
 19.97804    -40.8 1.211e+04 6.265e-10
 19.98822    -40.2 1.203e+04 5.893e-10
 20.00604    -40.0 1.196e+04 8.331e-10
 20.02642    -39.5 1.189e+04 1.080e-09
 20.04631    -38.7 1.181e+04 1.184e-09
 20.05650    -38.3 1.170e+04 1.075e-09
 20.06717    -37.5 1.159e+04 9.344e-10
 20.08754    -36.9 1.126e+04 7.726e-10
 20.10792    -35.9 1.083e+04 4.272e-10
 20.12477    -36.1 1.073e+04 3.677e-10
 20.13505    -35.3 1.075e+04 3.808e-10
 20.15905    -34.6 1.020e+04 1.911e-10
 20.19980    -34.5 9.938e+03 1.091e-10
 20.24055    -33.9 9.615e+03 8.903e-11
 20.27170    -32.4 9.437e+03 8.869e-11
 20.29133    -31.1 9.458e+03 8.562e-11
 20.30093    -30.6 9.433e+03 8.050e-11
 20.32205    -28.9 9.384e+03 8.134e-11
 20.36280    -27.3 9.338e+03 8.358e-11
 20.40355    -25.6 9.270e+03 8.488e-11
 20.42862    -23.8 9.197e+03 8.389e-11
 20.44899    -22.5 9.212e+03 8.279e-11
 20.48504    -20.6 9.093e+03 7.817e-11
 20.52579    -18.5 8.994e+03 6.724e-11
 20.56517    -16.5 8.972e+03 5.236e-11
 20.58554    -15.4 9.029e+03 5.428e-11
 20.60729    -13.7 9.068e+03 4.176e-11
 20.62887    -12.2 9.013e+03 3.748e-11
 20.64925    -11.6 8.999e+03 3.802e-11
 20.68879    -10.2 9.023e+03 3.900e-11
 20.72209     -8.8 9.056e+03 4.597e-11
 20.74246     -7.8 9.066e+03 5.100e-11
 20.77029     -6.2 9.031e+03 6.775e-11
 20.81104     -4.4 9.055e+03 9.012e-11
 20.85179     -2.6 9.123e+03 1.139e-10
 20.87901     -0.7 9.158e+03 1.322e-10
 20.89938      0.3 9.171e+03 1.271e-10
 20.93329      2.1 9.191e+03 1.358e-10
 20.95682      3.8 9.199e+03 1.443e-10
 20.97719      4.0 9.350e+03 1.733e-10
 21.01479      5.6 9.362e+03 1.842e-10
 21.03593      7.3 9.430e+03 2.006e-10
 21.05630      8.2 9.566e+03 2.418e-10
 21.09629      9.9 9.685e+03 2.826e-10
 21.13703     11.7 9.803e+03 3.086e-10
 21.17247     13.3 9.827e+03 3.076e-10
 21.19285     14.1 9.972e+03 3.658e-10
 21.21853     15.7 9.942e+03 3.569e-10
 21.25928     17.4 9.904e+03 3.530e-10
 21.28476     19.0 9.933e+03 3.668e-10
 21.30513     18.8 9.936e+03 3.410e-10
 21.32940     20.3 9.979e+03 3.577e-10
 21.34977     21.4 1.016e+04 4.257e-10
 21.38153     22.9 1.028e+04 4.827e-10
 21.42228     24.4 1.040e+04 5.513e-10
 21.46303     25.8 1.046e+04 5.945e-10
 21.48632     27.1 1.045e+04 5.966e-10
 21.50669     28.6 1.055e+04 6.227e-10
 21.54453     29.9 1.057e+04 6.336e-10
 21.58528     30.9 1.066e+04 6.748e-10
 21.61270     31.7 1.088e+04 7.968e-10
 21.62991     32.4 1.037e+04 5.507e-10
 21.64324     34.1 1.067e+04 6.544e-10
 21.66678     35.0 1.112e+04 8.821e-10
 21.70753     35.8 1.147e+04 1.081e-09
 21.74828     36.3 1.150e+04 1.082e-09
 21.77978     36.7 1.138e+04 9.862e-10
 21.80016     38.2 1.193e+04 1.288e-09
 21.82977     38.4 1.157e+04 1.029e-09
 21.87052     38.3 1.118e+04 8.337e-10
 21.91127     38.1 1.108e+04 8.150e-10
 21.93670     38.0 1.118e+04 8.612e-10
 21.94570     39.2 1.157e+04 1.007e-09
 21.95073     41.1 1.191e+04 1.167e-09
 21.96202     40.6 1.197e+04 1.243e-09
 21.98239     40.6 1.209e+04 1.347e-09
 22.00276     40.6 1.220e+04 1.440e-09
 22.01497     40.6 1.229e+04 1.511e-09
 22.02516     40.9 1.247e+04 1.598e-09
 22.04351     40.2 1.257e+04 1.687e-09
 22.06389     39.1 1.276e+04 1.903e-09
 22.08324     37.2 1.331e+04 2.526e-09
 22.09343     36.6 1.343e+04 2.621e-09
 22.10442     34.9 1.461e+04 3.849e-09
 22.11461     34.0 1.682e+04 5.308e-09
 22.11987     29.8 1.969e+04 8.048e-09
 22.12747     23.1 2.351e+04 1.618e-08
 22.13256     23.2 2.346e+04 1.580e-08
 22.14020     17.4 2.385e+04 3.734e-08
 22.15038     14.7 2.245e+04 7.221e-08
 22.16057     13.5 2.200e+04 1.045e-07
 22.16670     12.0 2.252e+04 1.058e-07
 22.17179     10.6 2.309e+04 6.863e-08
 22.18095      8.6 2.409e+04 5.681e-08
 22.19113      5.8 2.570e+04 3.723e-08
 22.19650     -0.1 2.674e+04 2.347e-08
 22.20110     -4.1 2.638e+04 1.908e-08
 22.20593     -6.1 2.447e+04 1.450e-08
 22.21151    -10.6 2.156e+04 1.106e-08
 22.22170    -14.0 2.047e+04 1.202e-08
 22.23188    -14.2 2.028e+04 1.202e-08
 22.24012    -15.9 1.915e+04 1.369e-08
 22.24521    -16.4 1.820e+04 8.942e-09
 22.25226    -16.9 1.773e+04 8.692e-09
 22.26759    -16.5 1.711e+04 7.480e-09
 22.27858    -15.9 1.675e+04 7.211e-09
 22.28877    -16.2 1.683e+04 7.791e-09
 22.30839    -15.2 1.613e+04 5.897e-09
 22.32876    -15.6 1.426e+04 2.886e-09
 22.34913    -15.2 1.372e+04 2.208e-09
 22.36951    -15.0 1.328e+04 1.746e-09
 22.38690    -14.7 1.291e+04 1.484e-09
 22.39709    -14.1 1.259e+04 1.283e-09
 22.41026    -13.7 1.240e+04 1.183e-09
 22.43063    -13.0 1.223e+04 1.130e-09
 22.44255    -12.1 1.206e+04 1.079e-09
 22.45274    -12.1 1.196e+04 1.047e-09
 22.46536    -11.0 1.179e+04 9.722e-10
 22.47555    -10.5 1.167e+04 8.620e-10
 22.49176     -9.4 1.147e+04 7.533e-10
 22.51213     -8.2 1.127e+04 6.225e-10
 22.53251     -7.1 1.113e+04 4.881e-10
 22.54382     -6.2 1.111e+04 3.591e-10
 22.56429     -5.6 1.096e+04 3.058e-10
 22.59653     -5.0 1.083e+04 2.490e-10
 22.61690     -4.9 1.082e+04 2.585e-10
 22.64476     -3.5 1.062e+04 2.563e-10
 22.68056     -1.9 1.064e+04 2.785e-10
 22.70094     -0.4 1.051e+04 2.154e-10
 22.72626      1.0 1.069e+04 2.517e-10
 22.76701      1.8 1.086e+04 3.310e-10
 22.79748      3.2 1.089e+04 4.412e-10
 22.81775      4.3 1.101e+04 5.436e-10
 22.83738      4.8 1.124e+04 6.935e-10
 22.85786      5.8 1.125e+04 6.113e-10
 22.88926      7.1 1.150e+04 7.511e-10
 22.92447      8.3 1.149e+04 7.841e-10
 22.94485      9.5 1.137e+04 7.393e-10
 22.97076     10.7 1.131e+04 6.874e-10
 22.99440     12.0 1.130e+04 6.831e-10
 23.01478     12.8 1.128e+04 6.308e-10
 23.05226     14.2 1.127e+04 6.391e-10
 23.09301     15.7 1.127e+04 6.276e-10
 23.13095     17.4 1.119e+04 5.636e-10
 23.15132     18.2 1.095e+04 4.579e-10
 23.17451     20.1 1.079e+04 3.886e-10
 23.21526     21.9 1.060e+04 2.971e-10
 23.25241     23.7 1.047e+04 2.276e-10
 23.27279     25.0 1.068e+04 2.621e-10
 23.28787     26.7 1.064e+04 2.336e-10
 23.30824     27.9 1.037e+04 1.582e-10
 23.33750     29.7 1.037e+04 1.416e-10
 23.37825     31.6 1.039e+04 1.476e-10
 23.41900     33.5 1.051e+04 1.719e-10
 23.44479     35.4 1.070e+04 2.173e-10
 23.46517     36.8 1.020e+04 1.158e-10
 23.50050     38.7 1.046e+04 1.510e-10
 23.54125     40.5 1.070e+04 2.217e-10
 23.58036     42.2 1.104e+04 3.517e-10
 23.60007     43.5 1.103e+04 3.491e-10
 23.60171     45.2 1.068e+04 2.359e-10
 23.62275     47.7 1.156e+04 4.629e-10
 23.65321     47.6 1.199e+04 6.533e-10
 23.66979     47.8 1.233e+04 8.398e-10
 23.67998     48.5 1.217e+04 7.403e-10
 23.69387     48.6 1.256e+04 9.726e-10
 23.71424     48.5 1.308e+04 1.380e-09
 23.73461     48.4 1.369e+04 2.031e-09
 23.74825     48.3 1.430e+04 2.927e-09
 23.75777     49.1 1.431e+04 3.082e-09
 23.76451     49.9 1.441e+04 3.289e-09
 23.77536     50.1 1.502e+04 4.500e-09
 23.79574     50.4 1.537e+04 5.206e-09
 23.81611     50.5 1.540e+04 5.213e-09
 23.82671     50.5 1.531e+04 5.025e-09
 23.83690     51.4 1.529e+04 5.005e-09
 23.85686     51.4 1.488e+04 4.399e-09
 23.87724     51.5 1.433e+04 3.667e-09
 23.89498     51.7 1.381e+04 2.988e-09
 23.90517     52.3 1.350e+04 2.514e-09
 23.91799     52.4 1.312e+04 2.222e-09
 23.92848     52.8 1.289e+04 2.012e-09
 23.93867     52.8 1.309e+04 2.214e-09
 23.95874     53.4 1.291e+04 2.101e-09
 23.97344     54.1 1.282e+04 2.032e-09
 23.98363     54.7 1.279e+04 2.007e-09
 23.99949     55.5 1.286e+04 2.093e-09
 24.01986     56.2 1.296e+04 2.208e-09
 24.04024     57.1 1.307e+04 2.318e-09
 24.05190     58.0 1.318e+04 2.345e-09
 24.06209     58.4 1.350e+04 2.824e-09
 24.08098     59.3 1.380e+04 2.986e-09
 24.09245     60.2 1.396e+04 2.952e-09
 24.10264     60.2 1.447e+04 3.745e-09
 24.12018     60.9 1.461e+04 3.616e-09
 24.13037     60.8 1.528e+04 5.481e-09
 24.14211     61.3 1.536e+04 5.384e-09
 24.16248     61.6 1.544e+04 4.935e-09
 24.18286     61.9 1.534e+04 4.216e-09
 24.19864     62.1 1.504e+04 3.433e-09
 24.20883     61.6 1.550e+04 5.662e-09
 24.22361     61.5 1.504e+04 4.512e-09
 24.24398     61.2 1.486e+04 3.986e-09
 24.25642     60.6 1.497e+04 4.084e-09
 24.26661     60.8 1.487e+04 4.039e-09
 24.27710     59.7 1.539e+04 4.539e-09
 24.28729     58.9 1.599e+04 5.660e-09
 24.29996     58.5 1.630e+04 6.368e-09
 24.31010     57.7 1.700e+04 7.669e-09
 24.31623     56.6 1.808e+04 9.936e-09
 24.32133     55.7 1.846e+04 1.079e-08
 24.33048     54.7 1.967e+04 1.409e-08
 24.33831     54.0 2.067e+04 1.878e-08
 24.34340     51.8 2.101e+04 1.886e-08
 24.35037     51.3 2.162e+04 2.458e-08
 24.35546     50.1 2.150e+04 2.455e-08
 24.36104     49.7 2.182e+04 3.118e-08
 24.37123     49.4 2.207e+04 3.825e-08
 24.38141     48.7 2.227e+04 4.383e-08
 24.38960     47.4 2.230e+04 4.458e-08
 24.39469     46.3 2.202e+04 4.071e-08
 24.40179     45.1 2.186e+04 3.983e-08
 24.41198     44.0 2.159e+04 3.756e-08
 24.42029     42.9 2.131e+04 3.451e-08
 24.42539     41.9 2.112e+04 2.964e-08
 24.42883     40.4 2.125e+04 2.770e-08
 24.43392     40.3 2.054e+04 2.468e-08
 24.44254     38.7 2.055e+04 2.275e-08
 24.45273     37.3 2.048e+04 2.153e-08
 24.46291     35.8 2.038e+04 2.065e-08
 24.46806     33.9 2.053e+04 2.088e-08
 24.47315     34.8 2.003e+04 1.804e-08
 24.48329     32.6 2.039e+04 1.899e-08
 24.49348     30.2 2.086e+04 2.066e-08
 24.50220     28.3 2.121e+04 2.268e-08
 24.50591     29.5 2.065e+04 1.917e-08
 24.50737     28.1 2.125e+04 2.318e-08
 24.51385     26.8 2.134e+04 2.497e-08
 24.52404     26.0 2.121e+04 2.515e-08
 24.53422     25.2 2.107e+04 2.458e-08
 24.54955     25.4 2.037e+04 1.912e-08
 24.56998     25.2 1.973e+04 1.446e-08
 24.58075     25.0 1.887e+04 1.088e-08
 24.58495     26.6 1.833e+04 9.767e-09
 24.59455     25.6 1.899e+04 9.599e-09
 24.61073     24.9 1.866e+04 6.035e-09
 24.63110     24.0 1.777e+04 3.964e-09
 24.64903     23.3 1.622e+04 2.939e-09
 24.65921     25.9 1.658e+04 3.022e-09
 24.67185     25.3 1.517e+04 2.346e-09
 24.69223     25.1 1.397e+04 1.937e-09
 24.71260     25.5 1.327e+04 1.624e-09
 24.72749     26.3 1.262e+04 1.418e-09
 24.73767     27.5 1.276e+04 1.374e-09
 24.74833     28.3 1.221e+04 1.213e-09
 24.75852     27.7 1.214e+04 1.347e-09
 24.77372     28.8 1.185e+04 1.188e-09
 24.79410     29.7 1.156e+04 1.032e-09
 24.80595     30.7 1.127e+04 9.076e-10
 24.81614     31.3 1.141e+04 9.615e-10
 24.83485     32.1 1.126e+04 8.948e-10
 24.85522     32.9 1.106e+04 7.864e-10
 24.87422     33.6 1.084e+04 6.792e-10
 24.88441     34.2 1.132e+04 8.925e-10
 24.89597     35.0 1.123e+04 8.101e-10
 24.91231     35.7 1.109e+04 7.110e-10
 24.92249     34.8 1.057e+04 5.072e-10
 24.93672     35.3 1.031e+04 4.420e-10
 24.95268     36.2 1.002e+04 3.924e-10
 24.96287     36.9 1.093e+04 6.513e-10
 24.97747     37.6 1.062e+04 5.703e-10
 24.99785     38.2 1.036e+04 5.253e-10
 25.01822     38.9 1.026e+04 5.225e-10
 25.03114     39.4 1.026e+04 5.300e-10
 25.04133     39.4 1.090e+04 7.522e-10
 25.05897     40.0 1.088e+04 7.721e-10
 25.07628     40.6 1.094e+04 8.279e-10
 25.08646     40.2 1.065e+04 7.094e-10
 25.09942     40.9 1.079e+04 7.708e-10
 25.10960     40.8 1.095e+04 1.083e-09
 25.12009     41.6 1.107e+04 1.165e-09
 25.14047     42.2 1.123e+04 1.233e-09
 25.16084     42.8 1.141e+04 1.260e-09
 25.17788     43.3 1.156e+04 1.259e-09
 25.18806     43.8 1.187e+04 1.513e-09
 25.20159     44.0 1.191e+04 1.369e-09
 25.22197     43.9 1.188e+04 1.282e-09
 25.24035     44.0 1.218e+04 1.288e-09
 25.25444     44.9 1.170e+04 1.132e-09
 25.26662     44.3 1.236e+04 1.373e-09
 25.28309     44.5 1.252e+04 1.436e-09
 25.30347     44.8 1.269e+04 1.521e-09
 25.32384     45.3 1.278e+04 1.596e-09
 25.33480     45.6 1.286e+04 1.645e-09
 25.34498     45.4 1.315e+04 1.843e-09
 25.37488     46.7 1.299e+04 1.738e-09
 25.40327     47.7 1.312e+04 1.781e-09
 25.41223     46.5 1.341e+04 2.128e-09
 25.41441     47.0 1.309e+04 1.881e-09
 25.42572     47.4 1.320e+04 1.925e-09
 25.44609     47.6 1.334e+04 1.986e-09
 25.46646     47.5 1.349e+04 2.068e-09
 25.48153     47.4 1.366e+04 2.233e-09
 25.49172     46.7 1.370e+04 2.297e-09
 25.50721     47.0 1.372e+04 2.344e-09
 25.52759     47.3 1.361e+04 2.249e-09
 25.54796     47.6 1.335e+04 1.979e-09
 25.55999     47.7 1.303e+04 1.547e-09
 25.57013     47.2 1.248e+04 1.047e-09
 25.58866     47.8 1.276e+04 1.174e-09
 25.61937     47.3 1.237e+04 7.220e-10
 25.66022     46.5 1.152e+04 4.300e-10
 25.69673     46.8 1.098e+04 3.821e-10
 25.71711     47.1 1.088e+04 3.779e-10
 25.74172     48.5 1.078e+04 3.706e-10
 25.78247     50.2 1.078e+04 3.666e-10
 25.82322     51.8 1.078e+04 3.535e-10
 25.85365     53.4 1.077e+04 3.278e-10
 25.87403     53.8 1.084e+04 3.076e-10
 25.89633     55.3 1.086e+04 2.944e-10
 25.91670     55.2 1.068e+04 2.608e-10
 25.94547     56.7 1.064e+04 2.533e-10
 25.98622     58.3 1.065e+04 2.593e-10
 26.01057     59.9 1.071e+04 2.796e-10
 26.03095     60.0 1.096e+04 3.741e-10
 26.06771     61.6 1.106e+04 4.399e-10
 26.10846     63.0 1.108e+04 4.802e-10
 26.13893     64.2 1.126e+04 5.467e-10
 26.15711     65.0 1.139e+04 5.742e-10
 26.16730     65.0 1.153e+04 5.864e-10
 26.17958     65.4 1.162e+04 6.031e-10
 26.19995     65.7 1.170e+04 6.487e-10
 26.22417     66.0 1.201e+04 7.357e-10
 26.24465     66.1 1.172e+04 6.639e-10
 26.27146     67.1 1.195e+04 7.768e-10
 26.30404     67.7 1.194e+04 7.886e-10
 26.32442     67.4 1.143e+04 5.329e-10
 26.35296     67.7 1.129e+04 4.939e-10
 26.39371     67.9 1.103e+04 4.001e-10
 26.43446     68.3 1.073e+04 2.996e-10
 26.46096     68.9 1.044e+04 2.270e-10
 26.48134     69.5 1.018e+04 1.847e-10
 26.51596     70.5 9.951e+03 1.565e-10
 26.55221     71.7 9.760e+03 1.511e-10
 26.57259     71.7 9.909e+03 1.601e-10
 26.59746     73.1 9.780e+03 1.576e-10
 26.63821     75.9 9.625e+03 1.554e-10
 26.67896     77.9 9.551e+03 1.588e-10
 26.71970     80.1 9.472e+03 1.630e-10
 26.75443     82.4 9.406e+03 1.623e-10
 26.77480     83.5 9.315e+03 1.882e-10
 26.80120     85.8 9.299e+03 1.826e-10
 26.84195     88.1 9.306e+03 1.754e-10
 26.88016     90.4 9.319e+03 1.746e-10
 26.90053     90.1 9.051e+03 1.256e-10
 26.91135     92.3 9.078e+03 1.293e-10
 26.93173     93.1 9.096e+03 1.306e-10
 26.96420     95.1 9.166e+03 1.426e-10
 27.00495     97.2 9.303e+03 1.648e-10
 27.04570     99.1 9.497e+03 1.950e-10
 27.06827    100.9 9.728e+03 2.314e-10
 27.08865    101.6 9.767e+03 2.236e-10
 27.12720    103.1 9.973e+03 2.584e-10
 27.16795    104.3 1.023e+04 2.962e-10
 27.20482    105.1 1.045e+04 3.362e-10
 27.22459    106.0 1.031e+04 3.426e-10
 27.22838    105.0 1.049e+04 4.050e-10
 27.23906    105.0 1.071e+04 4.801e-10
 27.25944    105.2 1.089e+04 5.715e-10
 27.27981    105.4 1.103e+04 6.641e-10
 27.29327    105.7 1.115e+04 7.479e-10
 27.30346    106.1 1.117e+04 7.454e-10
 27.32056    106.3 1.130e+04 8.093e-10
 27.34094    106.4 1.139e+04 8.604e-10
 27.36131    106.5 1.144e+04 9.100e-10
 27.37173    106.7 1.148e+04 9.711e-10
 27.38192    106.9 1.159e+04 9.470e-10
 27.39225    107.1 1.161e+04 9.708e-10
 27.40244    106.4 1.140e+04 8.780e-10
 27.42244    106.4 1.136e+04 8.395e-10
 27.44000    106.3 1.130e+04 7.928e-10
 27.45019    106.5 1.133e+04 7.326e-10
 27.46319    106.2 1.128e+04 6.737e-10
 27.48356    105.8 1.130e+04 6.637e-10
 27.50394    105.4 1.133e+04 6.719e-10
 27.51847    104.8 1.145e+04 7.153e-10
 27.52865    104.4 1.150e+04 6.799e-10
 27.54469    103.6 1.174e+04 8.131e-10
 27.55622    102.9 1.205e+04 1.015e-09
 27.56641    102.5 1.176e+04 9.404e-10
 27.58543    102.1 1.205e+04 1.139e-09
 27.59693    101.8 1.232e+04 1.332e-09
 27.60711    101.0 1.253e+04 1.422e-09
 27.62618    100.7 1.274e+04 1.603e-09
 27.64656    100.2 1.280e+04 1.662e-09
 27.66520     99.5 1.276e+04 1.650e-09
 27.67539     98.2 1.252e+04 1.464e-09
 27.69759     98.1 1.201e+04 1.156e-09
 27.73844     98.1 1.165e+04 9.106e-10
 27.77919     98.1 1.122e+04 6.335e-10
 27.81213     98.3 1.068e+04 3.987e-10
 27.83250     96.6 1.020e+04 3.092e-10
 27.86069     97.5 9.676e+03 2.726e-10
 27.88436     98.9 9.569e+03 2.743e-10
 27.90473    100.2 9.424e+03 2.451e-10
 27.94219    101.7 9.386e+03 2.493e-10
 27.96905    103.6 9.360e+03 2.600e-10
 27.98942    103.3 9.458e+03 2.904e-10
 28.02369    105.4 9.427e+03 2.925e-10
 28.06444    107.4 9.425e+03 2.908e-10
 28.10518    109.4 9.416e+03 2.859e-10
 28.12597    111.4 9.432e+03 2.795e-10
 28.14634    111.6 9.491e+03 2.934e-10
 28.18668    113.5 9.569e+03 3.026e-10
 28.21230    115.2 9.698e+03 3.212e-10
 28.23267    115.1 9.494e+03 2.579e-10
 28.26252    116.3 9.720e+03 3.020e-10
 28.28289    116.1 9.891e+03 3.762e-10
 28.29865    116.9 9.979e+03 4.229e-10
 28.31892    117.6 1.016e+04 4.922e-10
 28.33930    118.3 1.044e+04 5.851e-10
 28.35097    118.5 1.075e+04 6.835e-10
 28.36116    118.8 1.096e+04 7.683e-10
 28.37608    118.6 1.132e+04 8.637e-10
 28.38626    117.7 1.123e+04 7.910e-10
 28.40042    116.9 1.165e+04 9.081e-10
 28.41924    115.7 1.193e+04 1.017e-09
 28.42943    115.3 1.208e+04 1.141e-09
 28.44117    113.5 1.228e+04 1.267e-09
 28.46155    111.0 1.264e+04 1.403e-09
 28.48192    107.4 1.336e+04 1.619e-09
 28.49770    103.0 1.415e+04 2.001e-09
 28.50789    100.4 1.488e+04 2.923e-09
 28.52267     97.2 1.464e+04 3.060e-09
 28.54005     95.2 1.425e+04 2.978e-09
 28.55023     95.1 1.401e+04 2.883e-09
 28.56342     94.4 1.342e+04 2.507e-09
 28.57616     94.0 1.291e+04 1.949e-09
 28.58635     93.3 1.271e+04 1.534e-09
 28.60417     91.5 1.212e+04 9.857e-10
 28.62454     88.9 1.133e+04 7.003e-10
 28.64444     86.4 1.103e+04 6.769e-10
 28.65462     85.5 1.055e+04 6.113e-10
 28.66529     84.9 1.106e+04 7.295e-10
 28.68567     84.4 1.213e+04 9.473e-10
 28.70402     83.4 1.376e+04 1.288e-09
 28.71421     85.4 1.165e+04 7.510e-10
 28.72290     84.1 1.368e+04 1.094e-09
 28.73308     85.7 1.248e+04 9.617e-10
 28.74165     83.9 1.498e+04 1.537e-09
 28.75179     81.8 1.776e+04 2.798e-09
 28.76198     79.2 2.041e+04 5.975e-09
 28.76712     76.4 2.243e+04 1.251e-08
 28.77222     73.7 2.498e+04 1.841e-08
 28.78235     71.5 2.477e+04 4.116e-08
 28.79100     70.2 2.346e+04 7.906e-08
 28.79609     69.0 2.426e+04 5.407e-08
 28.80126     68.9 2.269e+04 1.142e-07
 28.80635     68.3 2.167e+04 2.694e-07
 28.81291     69.0 2.112e+04 4.200e-07
 28.82310     69.2 2.123e+04 4.832e-07
 28.83329     69.2 2.131e+04 4.584e-07
 28.84049     69.4 2.160e+04 3.449e-07
 28.84558     68.8 2.160e+04 3.655e-07
 28.85366     69.4 2.233e+04 1.693e-07
 28.86385     69.2 2.392e+04 5.806e-08
 28.87299     67.8 2.570e+04 1.810e-08
 28.87808     69.0 2.449e+04 4.689e-08
 28.87972     67.0 2.489e+04 1.957e-08
 28.88481     66.4 2.521e+04 1.562e-08
 28.89441     63.8 2.372e+04 7.990e-09
 28.90974     61.5 2.105e+04 5.621e-09
 28.93017     58.7 1.600e+04 3.153e-09
 28.94809     58.4 1.322e+04 2.419e-09
 28.95828     58.3 1.318e+04 2.471e-09
 28.97091     58.9 1.260e+04 2.182e-09
 28.99129     59.8 1.244e+04 1.906e-09
 29.01166     60.4 1.222e+04 1.602e-09
 29.02655     60.6 1.186e+04 1.282e-09
 29.03666     60.8 1.221e+04 1.468e-09
 29.05234     62.0 1.238e+04 1.493e-09
 29.07279     61.7 1.182e+04 1.079e-09
 29.09316     61.1 1.123e+04 7.615e-10
 29.10501     60.3 1.083e+04 5.751e-10
 29.11520     60.2 1.100e+04 6.582e-10
 29.13391     59.9 1.079e+04 5.577e-10
 29.15429     59.3 1.033e+04 4.221e-10
 29.17328     59.0 1.009e+04 3.711e-10
 29.18347     59.2 1.051e+04 4.987e-10
 29.19504     59.1 1.015e+04 4.048e-10
 29.20612     59.1 9.956e+03 3.622e-10
 29.21640     59.8 1.013e+04 3.849e-10
 29.24617     59.9 9.450e+03 2.782e-10
 29.28692     60.3 9.352e+03 2.726e-10
 29.32021     61.1 9.422e+03 2.893e-10
 29.34059     61.6 9.773e+03 3.758e-10
 29.36842     61.8 9.915e+03 4.118e-10
 29.39858     62.0 1.013e+04 4.858e-10
 29.40867     62.5 1.027e+04 5.392e-10
 29.41916     62.9 1.052e+04 6.281e-10
 29.43953     63.2 1.072e+04 7.013e-10
 29.45991     63.3 1.088e+04 7.651e-10
 29.47694     63.2 1.105e+04 8.321e-10
 29.48713     63.5 1.101e+04 8.209e-10
 29.50066     63.2 1.123e+04 9.132e-10
 29.52103     62.8 1.144e+04 1.020e-09
 29.53406     61.7 1.197e+04 1.227e-09
 29.54425     62.9 1.163e+04 1.081e-09
 29.55540     61.9 1.220e+04 1.276e-09
 29.56559     61.3 1.271e+04 1.495e-09
 29.57701     58.9 1.408e+04 2.048e-09
 29.58715     56.3 1.579e+04 2.956e-09
 29.59453     51.9 1.960e+04 5.449e-09
 29.59963     50.9 2.085e+04 6.168e-09
 29.60753     45.0 2.421e+04 1.488e-08
 29.61595     41.2 2.450e+04 3.015e-08
 29.62104     45.1 2.397e+04 1.649e-08
 29.62790     41.8 2.417e+04 3.127e-08
 29.63376     39.9 2.357e+04 4.559e-08
 29.63886     39.0 2.378e+04 5.734e-08
 29.64828     33.3 2.659e+04 8.393e-08
 29.65846     23.6 3.215e+04 9.493e-08
 29.66790     13.4 3.394e+04 7.209e-08
 29.67299     10.1 3.305e+04 7.013e-08
 29.67884      1.3 2.937e+04 2.724e-08
 29.68903    -10.6 2.402e+04 1.209e-08
 29.69798    -23.8 2.203e+04 3.514e-09
 29.70308    -16.3 2.353e+04 6.881e-09
 29.70713    -19.9 2.206e+04 5.059e-09
 29.71227    -21.0 2.298e+04 4.240e-09
 29.72478    -38.6 1.479e+04 7.454e-10
 29.74515    -45.6 1.013e+04 4.180e-10
 29.76553    -47.9 9.980e+03 3.662e-10
 29.78059    -50.6 9.913e+03 3.449e-10
 29.79078    -52.6 9.812e+03 3.232e-10
 29.80628    -54.6 9.920e+03 3.490e-10
 29.82665    -56.1 1.001e+04 4.197e-10
 29.84703    -56.8 1.021e+04 5.277e-10
 29.85905    -57.1 1.056e+04 6.654e-10
 29.86384    -57.8 1.061e+04 6.672e-10
 29.87219    -58.6 1.073e+04 6.498e-10
 29.88778    -59.1 1.134e+04 7.747e-10
 29.90815    -60.5 1.240e+04 9.779e-10
 29.92733    -62.8 1.372e+04 1.379e-09
 29.93752    -65.7 1.463e+04 1.924e-09
 29.94890    -67.6 1.528e+04 2.907e-09
 29.96928    -68.7 1.571e+04 4.201e-09
 29.98965    -69.6 1.634e+04 5.773e-09
 30.00579    -70.6 1.765e+04 8.175e-09
 30.01598    -71.5 1.796e+04 7.293e-09
 30.02598    -73.8 2.105e+04 9.768e-09
 30.03616    -74.6 1.737e+04 3.801e-09
 30.05077    -78.5 2.017e+04 3.839e-09
 30.06601    -84.9 2.354e+04 3.616e-09
 30.07615    -88.0 2.451e+04 4.469e-09
 30.08415    -92.2 2.355e+04 5.124e-09
 30.08924    -94.9 1.899e+04 3.484e-09
 30.09652    -97.2 1.860e+04 4.206e-09
 30.10671    -98.4 1.874e+04 5.002e-09
 30.11296    -98.8 1.873e+04 5.689e-09
 30.11805    -99.1 1.590e+04 3.275e-09
 30.12338    -99.7 1.588e+04 3.607e-09
 30.12847    -99.8 1.549e+04 3.375e-09
 30.13727   -100.0 1.546e+04 3.438e-09
 30.14746   -100.1 1.538e+04 3.500e-09
 30.15752   -100.1 1.521e+04 3.482e-09
 30.16266   -100.0 1.502e+04 3.247e-09
 30.17302   -100.1 1.443e+04 2.711e-09
 30.18995   -100.4 1.378e+04 2.076e-09
 30.20013   -101.9 1.286e+04 1.544e-09
 30.21377   -102.8 1.269e+04 1.468e-09
 30.23098   -104.4 1.261e+04 1.449e-09
 30.24117   -108.5 1.407e+04 1.675e-09
 30.25452   -110.8 1.531e+04 2.455e-09
 30.27490   -112.2 1.595e+04 3.439e-09
 30.29527   -113.1 1.610e+04 4.130e-09
 30.30944   -113.9 1.594e+04 4.238e-09
 30.31963   -116.9 1.604e+04 4.677e-09
 30.33602   -117.8 1.528e+04 3.774e-09
 30.35392   -118.8 1.426e+04 2.731e-09
 30.36411   -119.8 1.375e+04 2.251e-09
 30.37677   -120.8 1.277e+04 1.530e-09
 30.38790   -121.6 1.192e+04 1.070e-09
 30.39809   -124.9 1.115e+04 7.970e-10
 30.41752   -125.2 1.071e+04 6.343e-10
 30.43789   -125.3 1.047e+04 5.444e-10
 30.45618   -125.4 1.034e+04 4.975e-10
 30.46636   -127.5 1.034e+04 4.990e-10
 30.47864   -127.5 1.032e+04 4.923e-10
 30.49902   -127.6 1.032e+04 4.953e-10
 30.51789   -127.6 1.035e+04 5.126e-10
 30.52808   -128.6 1.033e+04 5.124e-10
 30.53464   -128.5 1.035e+04 5.402e-10
 30.54482   -129.9 1.035e+04 5.591e-10
 30.56014   -129.6 1.034e+04 5.627e-10
 30.58052   -129.2 1.026e+04 5.489e-10
 30.60089   -128.7 1.006e+04 4.924e-10
 30.63155   -128.7 9.774e+03 4.003e-10
 30.67138   -128.0 9.619e+03 3.554e-10
 30.69175   -130.4 9.403e+03 3.137e-10
 30.71315   -130.1 9.311e+03 2.991e-10
 30.75390   -129.7 9.313e+03 3.010e-10
 30.79465   -129.6 9.477e+03 3.510e-10
 30.82830   -129.3 9.604e+03 4.187e-10
 30.84867   -129.9 9.529e+03 4.007e-10
 30.85621   -129.0 9.587e+03 4.455e-10
 30.87659   -129.1 9.449e+03 4.005e-10
 30.91689   -128.0 9.486e+03 4.137e-10
 30.95764   -127.1 9.415e+03 3.906e-10
 30.98522   -126.3 9.240e+03 3.223e-10
 31.00560   -126.7 9.045e+03 2.813e-10
 31.03914   -126.0 8.931e+03 2.458e-10
 31.07989   -125.3 8.898e+03 2.348e-10
 31.12064   -124.6 8.928e+03 2.353e-10
 31.14214   -124.0 9.172e+03 2.642e-10
 31.16252   -124.9 9.172e+03 2.662e-10
 31.18416   -124.2 9.425e+03 3.186e-10
 31.20453   -124.3 9.381e+03 3.172e-10
 31.24289   -123.2 9.566e+03 3.627e-10
 31.27869   -122.1 9.726e+03 3.916e-10
 31.29906   -123.1 9.668e+03 3.731e-10
 31.32439   -122.0 9.711e+03 3.700e-10
 31.36514   -120.9 9.701e+03 3.397e-10
 31.40589   -119.9 9.628e+03 2.927e-10
 31.43561   -118.8 9.496e+03 2.455e-10
 31.45598   -119.2 9.120e+03 1.879e-10
 31.48739   -117.9 9.016e+03 1.630e-10
 31.51210   -116.4 8.990e+03 1.546e-10
 31.53247   -116.4 8.871e+03 1.494e-10
 31.56889   -114.8 8.983e+03 1.542e-10
 31.59253   -113.0 9.038e+03 1.632e-10
 31.61290   -112.8 8.906e+03 1.327e-10
 31.65038   -110.8 8.899e+03 1.346e-10
 31.69113   -108.8 8.876e+03 1.331e-10
 31.72908   -106.6 8.800e+03 1.248e-10
 31.74945   -106.4 8.715e+03 1.054e-10
 31.77263   -104.2 8.673e+03 1.019e-10
 31.81338   -102.2 8.671e+03 9.981e-11
 31.84004   -100.3 8.711e+03 1.011e-10
 31.86042   -100.4 8.647e+03 9.368e-11
 31.88600    -98.8 8.811e+03 1.024e-10
 31.90637    -98.5 8.813e+03 1.031e-10
 31.93563    -97.3 9.004e+03 1.309e-10
 31.97638    -96.1 9.233e+03 1.837e-10
 32.01713    -95.0 9.545e+03 2.681e-10
 32.04292    -94.1 9.959e+03 4.043e-10
 32.06329    -93.8 9.824e+03 3.567e-10
 32.09863    -93.2 1.034e+04 5.270e-10
 32.13938    -92.8 1.095e+04 7.814e-10
 32.16798    -92.5 1.148e+04 1.045e-09
 32.18770    -91.5 1.083e+04 7.823e-10
 32.19984    -91.0 1.066e+04 7.012e-10
 32.22088    -90.4 1.096e+04 8.193e-10
 32.26163    -89.9 1.103e+04 8.506e-10
 32.30237    -89.3 1.091e+04 7.957e-10
 32.33639    -88.4 1.070e+04 6.760e-10
 32.35676    -87.2 1.078e+04 7.100e-10
 32.38387    -86.0 1.064e+04 6.285e-10
 32.42462    -84.5 1.035e+04 4.458e-10
 32.46537    -83.1 9.938e+03 2.279e-10
 32.49331    -82.2 9.266e+03 9.078e-11
 32.50349    -80.7 9.938e+03 2.117e-10
 32.51630    -80.3 1.047e+04 3.651e-10
 32.54687    -79.6 9.611e+03 1.414e-10
 32.58762    -79.5 8.815e+03 7.260e-11
 32.62837    -78.5 8.811e+03 6.535e-11
 32.65023    -78.2 9.098e+03 1.027e-10
 32.67060    -78.6 9.692e+03 2.124e-10
 32.70987    -77.9 1.026e+04 4.028e-10
 32.75062    -76.5 1.080e+04 6.513e-10
 32.78677    -75.3 1.138e+04 9.310e-10
 32.80715    -75.7 1.151e+04 1.025e-09
 32.82183    -75.1 1.151e+04 9.801e-10
 32.83386    -74.9 1.158e+04 1.025e-09
 32.84405    -75.1 1.144e+04 8.947e-10
 32.86248    -75.2 1.154e+04 9.366e-10
 32.87523    -75.1 1.172e+04 1.027e-09
 32.88541    -75.2 1.165e+04 1.003e-09
 32.90323    -75.1 1.176e+04 1.097e-09
 32.92361    -74.9 1.185e+04 1.190e-09
 32.94350    -74.5 1.195e+04 1.246e-09
 32.95369    -74.3 1.192e+04 1.234e-09
 32.96436    -74.0 1.195e+04 1.245e-09
 32.98473    -73.8 1.201e+04 1.225e-09
 32.99783    -74.5 1.243e+04 1.235e-09
 33.00802    -74.3 1.206e+04 1.157e-09
 33.02196    -75.5 1.280e+04 1.334e-09
 33.03215    -74.5 1.252e+04 1.262e-09
 33.04586    -76.2 1.342e+04 1.566e-09
 33.06623    -77.9 1.405e+04 2.131e-09
 33.08661    -78.6 1.420e+04 2.901e-09
 33.10042    -78.5 1.425e+04 3.557e-09
 33.11061    -77.7 1.424e+04 3.417e-09
 33.12736    -77.1 1.427e+04 3.760e-09
 33.14773    -76.6 1.421e+04 3.642e-09
 33.16180    -76.5 1.402e+04 3.111e-09
 33.17199    -76.2 1.434e+04 3.422e-09
 33.17888    -77.1 1.451e+04 3.290e-09
 33.18907    -75.6 1.463e+04 3.518e-09
 33.20885    -77.9 1.525e+04 3.706e-09
 33.22923    -81.2 1.576e+04 4.551e-09
 33.24715    -83.8 1.604e+04 6.280e-09
 33.25734    -83.2 1.688e+04 7.636e-09
 33.26998    -85.0 1.739e+04 9.946e-09
 33.29035    -86.2 1.776e+04 1.073e-08
 33.31073    -87.9 1.778e+04 1.001e-08
 33.32561    -89.4 1.655e+04 6.453e-09
 33.33047    -90.3 1.738e+04 8.150e-09
 33.33596    -89.9 1.797e+04 8.221e-09
 33.35148    -93.1 1.554e+04 3.875e-09
 33.37185    -96.0 1.298e+04 1.929e-09
 33.39223    -97.2 1.186e+04 1.321e-09
 33.40408    -97.5 1.138e+04 1.067e-09
 33.41426    -98.2 1.138e+04 1.068e-09
 33.43298    -97.8 1.092e+04 8.801e-10
 33.45335    -97.2 1.063e+04 7.660e-10
 33.47235    -97.0 1.046e+04 6.994e-10
 33.48254    -97.4 1.047e+04 7.092e-10
 33.48975    -97.3 1.041e+04 6.858e-10
 33.49993    -97.1 1.039e+04 6.547e-10
 33.51447    -97.1 1.042e+04 6.572e-10
 33.53485    -97.3 1.067e+04 7.290e-10
 33.55091    -98.4 1.120e+04 9.473e-10
 33.56109    -98.8 1.099e+04 8.833e-10
 33.57560   -100.6 1.170e+04 1.233e-09
 33.59597   -103.0 1.322e+04 2.083e-09
 33.61635   -105.5 1.492e+04 3.817e-09
 33.62927   -107.1 1.631e+04 6.821e-09
 33.63946   -108.4 1.630e+04 6.925e-09
 33.65372   -109.0 1.706e+04 9.696e-09
 33.66390   -108.9 1.753e+04 1.111e-08
 33.67747   -109.7 1.772e+04 1.193e-08
 33.69754   -110.1 1.718e+04 1.030e-08
 33.70773   -111.1 1.642e+04 7.893e-09
 33.71822   -111.2 1.518e+04 4.512e-09
 33.73860   -112.9 1.369e+04 2.232e-09
 33.75897   -116.8 1.189e+04 1.095e-09
 33.77600   -119.4 1.034e+04 6.222e-10
 33.78619   -119.9 1.010e+04 5.473e-10
 33.79972   -120.7 9.520e+03 3.871e-10
 33.81769   -121.1 9.273e+03 3.204e-10
 33.82788   -121.1 9.539e+03 3.791e-10
 33.84047   -121.5 9.389e+03 3.351e-10
 33.85446   -121.6 9.372e+03 3.303e-10
 33.86475   -122.1 9.347e+03 3.121e-10
 33.89160   -123.6 9.120e+03 2.817e-10
 33.93235   -124.8 9.002e+03 2.691e-10
 33.97310   -125.8 9.295e+03 3.134e-10
 34.00139   -127.3 9.690e+03 4.062e-10
 34.02177   -129.7 9.705e+03 4.043e-10
 34.05460   -131.7 1.030e+04 5.475e-10
 34.09535   -133.3 1.091e+04 7.126e-10
 34.13564   -135.8 1.123e+04 8.083e-10
 34.15601   -133.3 1.055e+04 6.166e-10
 34.15831   -138.1 1.104e+04 7.316e-10
 34.16840   -141.5 1.136e+04 9.341e-10
 34.18684   -145.4 1.233e+04 1.234e-09
 34.20721   -149.4 1.420e+04 1.952e-09
 34.22639   -153.0 1.651e+04 3.801e-09
 34.23658   -156.9 1.818e+04 6.908e-09
 34.24796   -160.1 1.891e+04 9.772e-09
 34.26834   -163.3 1.914e+04 1.099e-08
 34.28871   -166.6 1.912e+04 1.120e-08
 34.30485   -169.4 1.841e+04 9.399e-09
 34.31504   -174.3 1.685e+04 5.940e-09
 34.31979   -176.8 1.534e+04 3.848e-09
 34.32998   -177.4 1.484e+04 3.112e-09
 34.34984   -179.7 1.349e+04 2.213e-09
 34.37021   -180.9 1.288e+04 1.849e-09
 34.38331   -181.5 1.274e+04 1.760e-09
 34.39350   -183.6 1.265e+04 1.703e-09
 34.41096   -183.7 1.272e+04 1.777e-09
 34.43134   -183.8 1.292e+04 1.950e-09
 34.45159   -184.0 1.317e+04 2.168e-09
 34.46177   -185.7 1.309e+04 2.116e-09
 34.47209   -186.0 1.320e+04 2.184e-09
 34.48376   -186.5 1.321e+04 2.158e-09
 34.49395   -187.4 1.245e+04 1.630e-09
 34.51284   -188.1 1.235e+04 1.554e-09
 34.53005   -189.1 1.222e+04 1.458e-09
 34.54023   -191.1 1.158e+04 1.129e-09
 34.55358   -192.1 1.148e+04 1.089e-09
 34.57396   -193.1 1.141e+04 1.065e-09
 34.59433   -194.1 1.140e+04 1.060e-09
 34.60851   -195.2 1.141e+04 1.071e-09
 34.61869   -196.5 1.131e+04 1.027e-09
 34.63508   -197.7 1.141e+04 1.081e-09
 34.64773   -198.9 1.153e+04 1.149e-09
 34.65792   -198.6 1.141e+04 1.096e-09
 34.67583   -199.8 1.163e+04 1.222e-09
 34.68697   -201.0 1.184e+04 1.354e-09
 34.69715   -202.0 1.200e+04 1.436e-09
 34.71658   -203.2 1.213e+04 1.534e-09
 34.73696   -204.4 1.215e+04 1.561e-09
 34.75524   -205.5 1.212e+04 1.561e-09
 34.76543   -206.1 1.220e+04 1.637e-09
 34.77771   -206.8 1.197e+04 1.537e-09
 34.79808   -207.4 1.171e+04 1.394e-09
 34.81170   -207.8 1.145e+04 1.244e-09
 34.82189   -207.6 1.168e+04 1.348e-09
 34.83370   -208.0 1.143e+04 1.223e-09
 34.84389   -207.9 1.158e+04 1.319e-09
 34.85921   -208.1 1.129e+04 1.174e-09
 34.87958   -208.2 1.098e+04 1.022e-09
 34.89995   -208.2 1.065e+04 8.685e-10
 34.91216   -208.1 1.031e+04 7.233e-10
 34.92235   -207.9 1.046e+04 7.941e-10
 34.94070   -207.8 1.019e+04 6.702e-10
 34.96108   -208.0 1.017e+04 6.042e-10
 34.97567   -209.1 1.023e+04 5.940e-10
 34.98484   -209.4 1.055e+04 6.647e-10
 34.99062   -208.6 1.064e+04 7.320e-10
 35.00183   -210.0 1.100e+04 7.368e-10
 35.03249   -212.2 1.142e+04 7.844e-10
 35.05909   -214.3 1.200e+04 1.059e-09
 35.06918   -213.7 1.269e+04 1.375e-09
 35.08333   -214.8 1.281e+04 1.602e-09
 35.10370   -215.9 1.274e+04 1.756e-09
 35.12408   -217.2 1.266e+04 1.790e-09
 35.13736   -218.6 1.249e+04 1.768e-09
 35.14274   -218.0 1.271e+04 1.915e-09
 35.14983   -219.0 1.301e+04 2.343e-09
 35.16483   -220.6 1.289e+04 2.164e-09
 35.18520   -222.4 1.290e+04 2.114e-09
 35.20558   -224.6 1.307e+04 2.126e-09
 35.22595   -226.8 1.373e+04 2.667e-09
 35.24632   -229.3 1.376e+04 2.693e-09
 35.26670   -231.4 1.350e+04 2.566e-09
 35.28409   -233.0 1.297e+04 2.196e-09
 35.29428   -232.8 1.334e+04 2.568e-09
 35.30362   -234.1 1.264e+04 1.988e-09
 35.31380   -234.6 1.242e+04 1.784e-09
 35.32782   -235.6 1.185e+04 1.436e-09
 35.34820   -236.6 1.145e+04 1.200e-09
 35.36255   -237.6 1.123e+04 1.068e-09
 35.37274   -237.2 1.118e+04 1.027e-09
 35.38895   -238.0 1.112e+04 9.642e-10
 35.40932   -238.8 1.112e+04 9.529e-10
 35.42970   -239.5 1.118e+04 9.584e-10
 35.44101   -240.0 1.129e+04 1.028e-09
 35.45120   -239.3 1.128e+04 9.961e-10
 35.46759   -239.4 1.135e+04 1.095e-09
 35.47778   -239.0 1.130e+04 1.051e-09
 35.49082   -238.9 1.130e+04 1.095e-09
 35.50928   -238.8 1.129e+04 1.106e-09
 35.51947   -238.0 1.139e+04 1.154e-09
 35.53157   -237.7 1.135e+04 1.153e-09
 35.55195   -237.3 1.113e+04 1.071e-09
 35.57232   -236.6 1.084e+04 9.053e-10
 35.58774   -236.0 1.053e+04 7.276e-10
 35.59793   -235.1 1.061e+04 7.464e-10
 35.61307   -234.5 1.031e+04 5.814e-10
 35.63156   -234.1 1.011e+04 4.597e-10
 35.64175   -234.0 1.015e+04 4.630e-10
 35.65382   -233.7 1.000e+04 3.844e-10
 35.66630   -233.7 9.927e+03 3.380e-10
 35.67649   -232.6 9.958e+03 3.456e-10
 35.69457   -232.2 9.907e+03 3.293e-10
 35.72523   -231.5 9.900e+03 3.241e-10
 35.76608   -229.8 9.888e+03 3.278e-10
 35.79573   -228.2 9.979e+03 3.632e-10
 35.81222   -228.2 1.022e+04 4.054e-10
 35.82332   -227.3 1.024e+04 3.849e-10
 35.84757   -225.7 1.027e+04 4.043e-10
 35.88832   -224.4 1.033e+04 4.247e-10
 35.92907   -223.3 1.037e+04 4.549e-10
 35.95987   -222.2 1.044e+04 4.944e-10
 35.98024   -221.5 1.058e+04 5.192e-10
 36.01057   -220.5 1.076e+04 6.322e-10
 36.05132   -219.5 1.087e+04 6.978e-10
 36.09207   -218.7 1.088e+04 7.096e-10
 36.11679   -217.8 1.074e+04 6.737e-10
 36.12801   -217.3 1.087e+04 7.200e-10
 36.14404   -217.8 1.091e+04 7.325e-10
 36.17357   -216.7 1.060e+04 6.026e-10
 36.21432   -215.6 1.029e+04 4.950e-10
 36.25333   -214.2 1.008e+04 4.309e-10
 36.27371   -213.4 1.012e+04 4.305e-10
 36.29582   -211.8 1.002e+04 4.033e-10
 36.33657   -210.1 1.001e+04 3.984e-10
 36.37732   -208.4 1.005e+04 4.019e-10
 36.41026   -206.9 1.010e+04 4.096e-10
 36.43063   -205.5 1.013e+04 4.099e-10
 36.45161   -204.0 1.014e+04 4.098e-10
 36.47199   -204.6 1.018e+04 4.088e-10
 36.49956   -203.3 1.010e+04 3.806e-10
 36.54031   -202.1 1.004e+04 3.535e-10
 36.56718   -201.0 1.005e+04 3.377e-10
 36.58755   -200.2 1.048e+04 4.001e-10
 36.62181   -199.5 1.062e+04 4.237e-10
 36.66256   -198.8 1.090e+04 5.058e-10
 36.70331   -198.2 1.113e+04 5.991e-10
 36.72410   -197.8 1.122e+04 6.438e-10
 36.74447   -197.8 1.158e+04 7.938e-10
 36.77955   -197.5 1.143e+04 7.164e-10
 36.79993   -197.8 1.155e+04 7.767e-10
 36.82556   -196.8 1.118e+04 6.215e-10
 36.86064   -195.3 1.080e+04 4.779e-10
 36.88102   -195.4 1.083e+04 4.873e-10
 36.90706   -193.6 1.066e+04 4.175e-10
 36.94781   -191.9 1.065e+04 3.936e-10
 36.98856   -190.3 1.069e+04 3.932e-10
 37.01756   -188.9 1.084e+04 4.141e-10
 37.03794   -188.7 1.108e+04 5.326e-10
 37.07006   -187.5 1.126e+04 5.924e-10
 37.10750   -186.4 1.138e+04 6.190e-10
 37.12787   -185.9 1.139e+04 6.428e-10
 37.15156   -185.0 1.146e+04 6.613e-10
 37.17449   -184.3 1.146e+04 6.550e-10
 37.19486   -184.2 1.159e+04 7.768e-10
 37.23305   -183.2 1.141e+04 7.033e-10
 37.27380   -182.1 1.122e+04 6.315e-10
 37.31103   -180.9 1.110e+04 5.942e-10
 37.33141   -180.6 1.116e+04 6.401e-10
 37.35530   -179.4 1.109e+04 6.243e-10
 37.39605   -178.0 1.097e+04 6.108e-10
 37.43544   -176.4 1.081e+04 5.767e-10
 37.45581   -175.6 1.080e+04 5.406e-10
 37.46795   -173.9 1.065e+04 5.077e-10
 37.48833   -173.3 1.076e+04 5.523e-10
 37.51830   -171.5 1.059e+04 4.929e-10
 37.55905   -169.9 1.043e+04 4.339e-10
 37.59980   -168.3 1.029e+04 3.869e-10
 37.62487   -166.8 1.019e+04 3.558e-10
 37.64525   -166.1 1.020e+04 3.687e-10
 37.68130   -164.7 1.013e+04 3.469e-10
 37.72205   -163.4 1.010e+04 3.359e-10
 37.76142   -162.3 1.008e+04 3.188e-10
 37.78179   -161.5 1.007e+04 3.283e-10
 37.78376   -160.5 1.002e+04 3.075e-10
 37.80413   -159.3 9.865e+03 2.569e-10
 37.84430   -158.3 9.725e+03 2.149e-10
 37.88504   -157.5 9.548e+03 1.682e-10
 37.91834   -156.8 9.344e+03 1.308e-10
 37.93872   -155.9 9.422e+03 1.510e-10
 37.96654   -155.3 9.186e+03 1.210e-10
 38.00729   -154.8 9.074e+03 1.125e-10
 38.04804   -154.1 9.058e+03 1.119e-10
 38.07526   -153.5 9.008e+03 1.179e-10
 38.09564   -153.0 9.013e+03 1.175e-10
 38.11170   -152.4 9.007e+03 1.320e-10
 38.13207   -151.7 8.882e+03 9.760e-11
 38.17029   -151.1 8.869e+03 1.079e-10
 38.21104   -150.4 8.846e+03 1.165e-10
 38.23218   -149.6 8.817e+03 1.217e-10
 38.25256   -149.3 8.887e+03 1.218e-10
 38.29254   -148.6 8.907e+03 1.249e-10
 38.33329   -148.4 8.953e+03 1.360e-10
 38.36873   -148.7 9.213e+03 1.928e-10
 38.38910   -148.9 9.339e+03 2.208e-10
 38.41479   -149.2 9.842e+03 3.623e-10
 38.43964   -149.6 1.041e+04 5.910e-10
 38.46002   -150.7 1.018e+04 5.532e-10
 38.49629   -151.0 1.050e+04 7.011e-10
 38.52565   -151.7 1.058e+04 7.341e-10
 38.54602   -152.2 1.081e+04 8.242e-10
 38.57778   -153.0 1.076e+04 8.052e-10
 38.61853   -153.7 1.046e+04 6.945e-10
 38.65928   -154.4 1.018e+04 6.135e-10
 38.68257   -155.0 1.007e+04 5.954e-10
 38.70295   -154.8 1.037e+04 7.013e-10
 38.74078   -154.8 1.025e+04 6.752e-10
 38.76749   -154.9 1.007e+04 6.341e-10
 38.78786   -155.9 9.963e+03 5.849e-10
 38.81200   -155.3 1.005e+04 6.126e-10
 38.82911   -155.4 1.010e+04 6.227e-10
 38.83939   -155.2 1.004e+04 6.036e-10
 38.85275   -155.0 1.020e+04 6.555e-10
 38.87302   -155.6 1.040e+04 7.506e-10
 38.89340   -155.9 1.071e+04 9.102e-10
 38.90757   -156.0 1.112e+04 1.119e-09
 38.91776   -155.3 1.089e+04 9.950e-10
 38.93136   -155.5 1.135e+04 1.236e-09
 38.94155   -156.0 1.067e+04 9.192e-10
 38.95452   -156.4 1.107e+04 1.096e-09
 38.97490   -157.0 1.148e+04 1.303e-09
 38.98603   -157.7 1.188e+04 1.547e-09
 38.99622   -156.8 1.197e+04 1.602e-09
 39.01565   -157.6 1.253e+04 1.991e-09
 39.03602   -158.3 1.302e+04 2.383e-09
 39.05430   -159.1 1.337e+04 2.645e-09
 39.06449   -158.3 1.400e+04 3.305e-09
 39.07677   -159.1 1.432e+04 3.618e-09
 39.09533   -160.0 1.437e+04 3.652e-09
 39.10552   -161.3 1.377e+04 2.935e-09
 39.11752   -162.7 1.367e+04 2.734e-09
 39.13276   -164.8 1.369e+04 2.529e-09
 39.14295   -163.7 1.489e+04 3.718e-09
 39.15827   -167.0 1.506e+04 3.607e-09
 39.17864   -171.7 1.564e+04 3.682e-09
 39.19902   -176.4 1.628e+04 5.009e-09
 39.21122   -179.4 1.672e+04 7.283e-09
 39.22141   -178.8 1.711e+04 8.097e-09
 39.23977   -181.2 1.722e+04 9.513e-09
 39.25930   -183.1 1.721e+04 9.732e-09
 39.26949   -185.3 1.789e+04 1.035e-08
 39.27950   -188.1 1.821e+04 8.728e-09
 39.28969   -187.5 1.871e+04 1.111e-08
 39.30089   -191.0 1.894e+04 9.038e-09
 39.32127   -195.1 1.846e+04 7.477e-09
 39.34164   -198.3 1.749e+04 6.602e-09
 39.35796   -199.8 1.652e+04 5.831e-09
 39.36815   -198.6 1.774e+04 9.176e-09
 39.38239   -199.2 1.702e+04 8.040e-09
 39.40277   -199.2 1.626e+04 6.448e-09
 39.42314   -199.1 1.539e+04 4.739e-09
 39.43346   -199.0 1.437e+04 3.302e-09
 39.43655   -200.3 1.443e+04 3.294e-09
 39.44661   -199.1 1.568e+04 5.305e-09
 39.46389   -199.1 1.449e+04 3.345e-09
 39.48426   -199.3 1.319e+04 2.119e-09
 39.50464   -199.3 1.197e+04 1.432e-09
 39.52501   -198.3 1.173e+04 1.314e-09
 39.54539   -198.2 1.095e+04 1.009e-09
 39.56576   -197.5 1.046e+04 8.310e-10
 39.58315   -196.5 1.016e+04 7.137e-10
 39.59334   -196.2 1.051e+04 8.411e-10
 39.59743   -195.3 1.030e+04 7.495e-10
 39.60762   -195.9 1.000e+04 6.642e-10
 39.62689   -194.8 9.975e+03 6.367e-10
 39.64726   -193.6 1.006e+04 6.363e-10
 39.67792   -192.4 1.027e+04 7.042e-10
 39.71877   -190.2 1.033e+04 7.219e-10
 39.74027   -188.1 1.035e+04 7.426e-10
 39.75254   -187.6 1.078e+04 9.822e-10
 39.77179   -188.2 1.069e+04 8.980e-10
 39.80027   -186.4 1.100e+04 1.022e-09
 39.84102   -185.6 1.150e+04 1.272e-09
 39.87148   -185.0 1.170e+04 1.435e-09
 39.88681   -184.5 1.195e+04 1.659e-09
 39.89699   -184.2 1.163e+04 1.463e-09
 39.91213   -183.7 1.180e+04 1.620e-09
 39.92537   -183.3 1.225e+04 1.948e-09
 39.93556   -184.3 1.372e+04 3.348e-09
 39.95288   -184.2 1.438e+04 4.238e-09
 39.96527   -184.1 1.480e+04 4.993e-09
 39.97546   -184.6 1.474e+04 4.547e-09
 39.99363   -184.2 1.497e+04 5.157e-09
 40.01401   -183.7 1.494e+04 5.356e-09
 40.03354   -183.1 1.474e+04 5.125e-09
 40.04373   -183.3 1.450e+04 4.508e-09
 40.05476   -182.6 1.423e+04 4.200e-09
 40.07513   -181.9 1.386e+04 3.653e-09
 40.08934   -181.1 1.337e+04 2.979e-09
 40.09953   -182.1 1.341e+04 3.009e-09
 40.11200   -181.2 1.284e+04 2.342e-09
 40.12219   -181.1 1.265e+04 2.220e-09
 40.13625   -180.2 1.220e+04 1.763e-09
 40.15663   -179.2 1.174e+04 1.377e-09
 40.17700   -178.1 1.128e+04 1.056e-09
 40.19046   -176.9 1.087e+04 8.095e-10
 40.20065   -176.7 1.086e+04 8.104e-10
 40.21775   -175.2 1.052e+04 6.191e-10
 40.23813   -173.6 1.028e+04 4.894e-10
 40.25332   -172.2 1.020e+04 4.310e-10
 40.26350   -172.8 1.013e+04 4.164e-10
 40.28916   -171.2 1.013e+04 3.924e-10
 40.32720   -168.9 9.907e+03 3.439e-10
 40.34758   -168.5 9.892e+03 3.414e-10
 40.37076   -165.9 9.689e+03 3.082e-10
 40.40730   -163.4 9.554e+03 2.853e-10
 40.42767   -164.0 9.225e+03 2.269e-10
 40.45226   -161.5 9.159e+03 2.093e-10
 40.48412   -159.1 9.118e+03 1.978e-10
 40.50450   -158.6 9.055e+03 1.809e-10
 40.53376   -156.2 9.041e+03 1.780e-10
 40.57451   -153.9 9.040e+03 1.785e-10
 40.61526   -151.7 9.131e+03 1.896e-10
 40.64105   -149.6 9.291e+03 2.297e-10
 40.66142   -149.1 9.234e+03 2.124e-10
 40.69675   -147.0 9.378e+03 2.591e-10
 40.73524   -145.0 9.539e+03 3.028e-10
 40.75561   -145.2 9.377e+03 2.670e-10
 40.77759   -143.3 9.495e+03 2.860e-10
 40.79797   -142.9 9.406e+03 2.541e-10
 40.81900   -141.0 9.450e+03 2.589e-10
 40.85975   -139.0 9.474e+03 2.567e-10
 40.90050   -137.0 9.483e+03 2.395e-10
 40.93451   -134.8 9.457e+03 2.183e-10
 40.95489   -134.4 9.458e+03 2.142e-10
 40.98200   -132.3 9.409e+03 1.975e-10
 41.02275   -130.1 9.338e+03 1.805e-10
 41.06318   -128.0 9.252e+03 1.644e-10
 41.08356   -128.1 9.254e+03 1.636e-10
 41.09143   -126.0 9.181e+03 1.517e-10
 41.11181   -125.4 9.201e+03 1.513e-10
 41.14500   -123.2 9.134e+03 1.443e-10
 41.18575   -121.0 9.088e+03 1.414e-10
 41.22650   -118.8 9.071e+03 1.411e-10
 41.24835   -116.5 9.047e+03 1.431e-10
 41.26873   -115.9 9.058e+03 1.423e-10
 41.30800   -113.6 8.999e+03 1.478e-10
 41.34875   -111.4 8.938e+03 1.531e-10
 41.38490   -109.3 8.901e+03 1.551e-10
 41.40528   -108.6 8.927e+03 1.544e-10
 41.41150   -106.5 8.918e+03 1.564e-10
 41.43187   -106.9 9.181e+03 1.939e-10
 41.47099   -104.9 9.241e+03 2.147e-10
 41.51174   -103.2 9.313e+03 2.407e-10
 41.54182   -101.5 9.366e+03 2.713e-10
 41.56220   -101.9 9.512e+03 3.014e-10
 41.59324   -100.5 9.570e+03 3.964e-10
 41.63399    -98.7 9.736e+03 4.429e-10
 41.67474    -96.7 9.699e+03 4.395e-10
 41.69874    -94.5 9.545e+03 3.856e-10
 41.71912    -95.4 1.006e+04 5.302e-10
 41.73944    -93.5 1.009e+04 5.156e-10
 41.75981    -93.4 1.015e+04 5.260e-10
 41.79699    -91.6 1.037e+04 5.838e-10
 41.83529    -89.9 1.074e+04 7.506e-10
 41.85566    -91.2 1.137e+04 1.177e-09
 41.87849    -89.4 1.158e+04 1.349e-09
 41.91924    -87.5 1.164e+04 1.402e-09
 41.95999    -85.7 1.163e+04 1.369e-09
 41.99221    -83.9 1.177e+04 1.416e-09
 42.01249    -84.3 1.150e+04 1.289e-09
 42.03110    -83.3 1.119e+04 1.143e-09
 42.05148    -82.6 1.103e+04 1.064e-09
 42.06719    -81.7 1.092e+04 1.019e-09
 42.07600    -81.3 1.109e+04 1.147e-09
 42.08066    -82.0 1.079e+04 9.496e-10
 42.09223    -81.1 1.076e+04 9.400e-10
 42.11260    -80.1 1.075e+04 9.391e-10
 42.13298    -79.3 1.067e+04 9.231e-10
 42.14894    -78.3 1.081e+04 9.622e-10
 42.15912    -78.9 1.069e+04 8.729e-10
 42.17373    -78.5 1.060e+04 8.763e-10
 42.19410    -77.3 1.082e+04 9.586e-10
 42.21448    -76.8 1.073e+04 9.467e-10
 42.22740    -75.7 1.080e+04 9.728e-10
 42.23389    -76.1 1.080e+04 9.697e-10
 42.24135    -76.1 1.102e+04 1.098e-09
 42.25522    -75.3 1.095e+04 1.047e-09
 42.27560    -74.4 1.087e+04 9.758e-10
 42.29567    -73.6 1.069e+04 8.512e-10
 42.30586    -73.9 1.064e+04 8.466e-10
 42.31635    -72.8 1.051e+04 7.311e-10
 42.33672    -71.8 1.027e+04 6.026e-10
 42.36738    -70.7 1.012e+04 4.768e-10
 42.39532    -68.7 9.978e+03 4.264e-10
 42.41570    -68.8 1.010e+04 4.287e-10
 42.44260    -66.7 1.001e+04 4.240e-10
 42.46297    -67.0 9.757e+03 3.695e-10
 42.48973    -64.4 9.602e+03 3.909e-10
 42.53048    -61.1 9.554e+03 3.418e-10
 42.57123    -58.4 9.620e+03 2.744e-10
 42.59952    -56.0 9.651e+03 2.623e-10
 42.61989    -56.2 9.379e+03 2.132e-10
 42.65273    -53.6 9.449e+03 2.388e-10
 42.69348    -50.7 9.683e+03 2.983e-10
 42.72327    -47.9 9.932e+03 3.843e-10
 42.74364    -47.9 9.865e+03 3.299e-10
 42.75644    -45.6 1.007e+04 4.344e-10
 42.77682    -45.3 1.005e+04 4.167e-10
 42.80544    -44.7 1.028e+04 5.772e-10
 42.82452    -43.9 1.060e+04 8.034e-10
 42.83471    -43.8 1.053e+04 7.583e-10
 42.84609    -42.6 1.104e+04 1.080e-09
 42.86647    -41.7 1.170e+04 1.535e-09
 42.88684    -40.9 1.237e+04 2.120e-09
 42.89723    -40.3 1.301e+04 2.858e-09
 42.90318    -40.0 1.267e+04 2.382e-09
 42.91317    -39.6 1.242e+04 2.174e-09
 42.92759    -39.0 1.306e+04 2.936e-09
 42.94796    -38.5 1.364e+04 3.856e-09
 42.96834    -37.9 1.418e+04 4.720e-09
 42.98144    -37.4 1.462e+04 5.340e-09
 42.99163    -36.8 1.427e+04 4.715e-09
 43.00909    -36.3 1.464e+04 5.198e-09
 43.02946    -36.2 1.496e+04 5.508e-09
 43.04971    -36.4 1.511e+04 5.521e-09
 43.05990    -35.8 1.513e+04 5.631e-09
 43.06120    -36.2 1.533e+04 5.746e-09
 43.07139    -34.8 1.535e+04 5.875e-09
 43.09059    -35.2 1.538e+04 5.559e-09
 43.11096    -35.5 1.519e+04 4.629e-09
 43.12817    -35.7 1.477e+04 3.392e-09
 43.13836    -35.4 1.529e+04 5.011e-09
 43.15171    -35.3 1.469e+04 3.428e-09
 43.17209    -35.4 1.386e+04 2.114e-09
 43.19246    -36.4 1.304e+04 1.427e-09
 43.20663    -37.7 1.276e+04 1.127e-09
 43.21682    -37.0 1.280e+04 1.087e-09
 43.22517    -38.1 1.245e+04 8.712e-10
 43.23536    -36.7 1.278e+04 9.518e-10
 43.25359    -37.8 1.272e+04 9.533e-10
 43.27396    -38.1 1.290e+04 1.112e-09
 43.28509    -38.1 1.324e+04 1.464e-09
 43.29528    -37.8 1.288e+04 9.612e-10
 43.31471    -38.3 1.334e+04 1.226e-09
 43.33508    -39.1 1.367e+04 1.607e-09
 43.35337    -39.7 1.363e+04 2.044e-09
 43.36355    -39.8 1.341e+04 1.916e-09
 43.37583    -39.3 1.337e+04 2.468e-09
 43.38914    -38.3 1.325e+04 2.463e-09
 43.39933    -38.3 1.351e+04 2.886e-09
 43.41658    -37.1 1.318e+04 2.264e-09
 43.43183    -36.7 1.297e+04 1.472e-09
 43.44202    -35.8 1.316e+04 1.902e-09
 43.45733    -36.0 1.297e+04 1.167e-09
 43.47771    -36.5 1.257e+04 7.573e-10
 43.49808    -36.7 1.204e+04 6.044e-10
 43.51029    -36.4 1.158e+04 5.610e-10
 43.52048    -35.7 1.183e+04 6.075e-10
 43.53883    -35.1 1.148e+04 5.895e-10
 43.55312    -34.1 1.146e+04 6.010e-10
 43.56330    -33.9 1.143e+04 5.968e-10
 43.57856    -32.9 1.148e+04 6.289e-10
 43.58875    -32.5 1.153e+04 6.897e-10
 43.59996    -31.5 1.154e+04 7.353e-10
 43.62033    -30.5 1.153e+04 7.695e-10
 43.64070    -29.3 1.154e+04 7.798e-10
 43.65702    -28.3 1.154e+04 7.731e-10
 43.66721    -27.7 1.155e+04 8.282e-10
 43.68145    -26.6 1.149e+04 7.884e-10
 43.70183    -25.5 1.150e+04 7.464e-10
 43.71709    -24.7 1.151e+04 7.320e-10
 43.72727    -24.2 1.151e+04 8.018e-10
 43.73548    -23.2 1.148e+04 7.771e-10
 43.74567    -22.3 1.147e+04 7.722e-10
 43.76295    -21.5 1.147e+04 7.568e-10
 43.78333    -20.2 1.143e+04 7.298e-10
 43.80370    -19.3 1.147e+04 7.329e-10
 43.83436    -16.6 1.152e+04 7.637e-10
 43.87521    -14.6 1.169e+04 8.430e-10
 43.91596    -12.8 1.206e+04 1.053e-09
 43.95068    -11.0 1.252e+04 1.341e-09
 43.97106     -8.9 1.234e+04 1.380e-09
 43.99746     -7.0 1.255e+04 1.470e-09
 44.03504     -5.4 1.240e+04 1.234e-09
 44.05531     -3.8 1.262e+04 1.782e-09
 44.07886     -3.0 1.222e+04 1.400e-09
 44.10761     -1.3 1.169e+04 9.324e-10
 44.12798      0.7 1.193e+04 1.116e-09
 44.16045      2.6 1.156e+04 8.058e-10
 44.20120      4.6 1.127e+04 6.819e-10
 44.24195      6.9 1.123e+04 6.743e-10
 44.26453      9.2 1.129e+04 7.271e-10
 44.28490     11.0 1.151e+04 8.207e-10
 44.32345     13.5 1.150e+04 8.843e-10
 44.36298     16.2 1.179e+04 1.132e-09
 44.38335     15.9 1.171e+04 1.116e-09
 44.40107     18.8 1.229e+04 1.497e-09
 44.42145     19.7 1.223e+04 1.413e-09
 44.43542     20.9 1.226e+04 1.501e-09
 44.45569     21.9 1.239e+04 1.633e-09
 44.47607     22.7 1.269e+04 1.949e-09
 44.48953     23.4 1.316e+04 2.565e-09
 44.49971     24.4 1.278e+04 1.962e-09
 44.51682     25.1 1.331e+04 2.608e-09
 44.53694     25.8 1.395e+04 3.702e-09
 44.54713     26.1 1.364e+04 3.658e-09
 44.55757     27.3 1.417e+04 4.840e-09
 44.56799     28.6 1.457e+04 5.699e-09
 44.57817     29.2 1.382e+04 3.866e-09
 44.59832     30.4 1.410e+04 4.355e-09
 44.61869     31.6 1.422e+04 4.457e-09
 44.63626     32.7 1.426e+04 4.172e-09
 44.64645     33.3 1.380e+04 3.421e-09
 44.65944     34.3 1.391e+04 3.391e-09
 44.67981     35.2 1.398e+04 3.150e-09
 44.70019     35.9 1.399e+04 2.996e-09
 44.71110     36.6 1.405e+04 2.923e-09
 44.71544     36.7 1.350e+04 2.327e-09
 44.72491     37.7 1.356e+04 2.477e-09
 44.74094     38.5 1.375e+04 2.666e-09
 44.76131     39.4 1.393e+04 2.905e-09
 44.78169     40.4 1.407e+04 3.199e-09
 44.79318     41.3 1.419e+04 3.553e-09
 44.80337     42.5 1.468e+04 4.254e-09
 44.82244     43.4 1.499e+04 4.970e-09
 44.84281     44.2 1.535e+04 5.790e-09
 44.86145     44.8 1.575e+04 6.806e-09
 44.87164     45.6 1.662e+04 8.668e-09
 44.87507     46.1 1.728e+04 1.120e-08
 44.88526     45.9 1.779e+04 1.421e-08
 44.90394     46.4 1.867e+04 1.966e-08
 44.91917     46.6 1.940e+04 2.558e-08
 44.92931     46.6 1.968e+04 2.877e-08
 44.93949     46.4 1.992e+04 3.338e-08
 44.94491     46.4 2.023e+04 3.817e-08
 44.95000     46.3 2.078e+04 6.112e-08
 44.95696     46.2 2.107e+04 7.062e-08
 44.96205     46.5 2.138e+04 1.052e-07
 44.97006     46.0 2.142e+04 1.004e-07
 44.97905     45.7 2.132e+04 8.163e-08
 44.98414     45.4 2.187e+04 1.363e-07
 44.99043     45.6 2.145e+04 9.463e-08
 45.00062     45.8 2.101e+04 5.982e-08
 45.01081     45.8 2.047e+04 3.954e-08
 45.01833     45.6 1.923e+04 2.170e-08
 45.02342     46.0 2.024e+04 3.549e-08
 45.03118     46.1 1.958e+04 2.593e-08
 45.03900     46.4 1.865e+04 1.850e-08
 45.04923     46.5 1.854e+04 1.595e-08
 45.06693     46.6 1.721e+04 1.020e-08
 45.08665     47.0 1.612e+04 7.214e-09
 45.09683     47.5 1.673e+04 9.572e-09
 45.10768     48.0 1.587e+04 6.942e-09
 45.12806     48.8 1.501e+04 5.070e-09
 45.14843     49.8 1.418e+04 3.743e-09
 45.16511     50.9 1.354e+04 2.853e-09
 45.17530     51.0 1.396e+04 3.208e-09
 45.18918     52.1 1.336e+04 2.476e-09
 45.20302     53.3 1.312e+04 2.082e-09
 45.21320     53.9 1.316e+04 2.226e-09
 45.22993     55.2 1.295e+04 1.934e-09
 45.26059     56.8 1.288e+04 1.594e-09
 45.30144     59.1 1.267e+04 1.334e-09
 45.32222     61.4 1.255e+04 1.196e-09
 45.34260     61.6 1.293e+04 1.380e-09
 45.36718     63.7 1.283e+04 1.322e-09
 45.38756     64.5 1.312e+04 1.918e-09
 45.42369     66.3 1.291e+04 1.704e-09
 45.45877     68.0 1.270e+04 1.506e-09
 45.47905     68.9 1.315e+04 1.925e-09
 45.49480     69.7 1.316e+04 1.914e-09
 45.51518     70.6 1.315e+04 1.894e-09
 45.53096     71.3 1.316e+04 1.883e-09
 45.54115     71.7 1.303e+04 1.858e-09
 45.54722     72.4 1.303e+04 1.837e-09
 45.55741     72.6 1.336e+04 2.257e-09
 45.57630     73.4 1.338e+04 2.222e-09
 45.59668     73.9 1.336e+04 2.184e-09
 45.61559     74.5 1.319e+04 1.934e-09
 45.62578     74.7 1.361e+04 2.572e-09
 45.63743     75.4 1.356e+04 2.502e-09
 45.65780     76.0 1.346e+04 2.364e-09
 45.67818     76.4 1.333e+04 2.178e-09
 45.69503     77.2 1.326e+04 2.026e-09
 45.71550     77.6 1.288e+04 1.683e-09
 45.74968     78.7 1.243e+04 1.225e-09
 45.77261     80.0 1.179e+04 7.279e-10
 45.79299     81.2 1.225e+04 1.068e-09
 45.83118     82.7 1.156e+04 5.744e-10
 45.87193     84.3 1.098e+04 2.921e-10
 45.90916     86.0 1.053e+04 1.639e-10
 45.92953     87.4 1.097e+04 3.024e-10
 45.95343     89.3 1.058e+04 1.928e-10
 45.99418     91.4 1.020e+04 1.634e-10
 46.02307     93.9 1.012e+04 1.616e-10
 46.04344     94.6 1.006e+04 1.402e-10
 46.06608     97.1 1.003e+04 1.403e-10
 46.08645     98.1 1.030e+04 1.903e-10
 46.11643    100.6 1.029e+04 1.911e-10
 46.15718    103.1 1.029e+04 1.980e-10
 46.19793    105.4 1.032e+04 2.173e-10
 46.22300    107.5 1.036e+04 2.466e-10
 46.24338    108.3 1.070e+04 3.676e-10
 46.27942    110.1 1.081e+04 4.206e-10
 46.32017    112.0 1.092e+04 4.790e-10
 46.35101    113.8 1.099e+04 5.360e-10
 46.37001    114.9 1.076e+04 4.405e-10
 46.37992    115.5 1.111e+04 5.880e-10
 46.40167    117.3 1.114e+04 6.236e-10
 46.44242    119.0 1.110e+04 6.300e-10
 46.48317    120.7 1.103e+04 6.300e-10
 46.51647    122.4 1.101e+04 6.375e-10
 46.53684    122.9 1.106e+04 5.922e-10
 46.56467    124.6 1.112e+04 5.760e-10
 46.59483    125.3 1.111e+04 6.037e-10
 46.60492    125.4 1.104e+04 5.383e-10
 46.61541    125.9 1.096e+04 5.114e-10
 46.63579    126.6 1.092e+04 5.016e-10
 46.65616    127.2 1.093e+04 5.028e-10
 46.67319    128.0 1.095e+04 5.136e-10
 46.68338    127.6 1.069e+04 3.739e-10
 46.68894    128.5 1.073e+04 3.961e-10
 46.69913    128.9 1.108e+04 4.916e-10
 46.71729    129.6 1.121e+04 5.250e-10
 46.73766    129.6 1.154e+04 6.224e-10
 46.75165    129.3 1.205e+04 8.282e-10
 46.76184    128.8 1.166e+04 6.636e-10
 46.77841    128.3 1.236e+04 1.044e-09
 46.79878    127.9 1.312e+04 1.736e-09
 46.81916    127.7 1.387e+04 2.839e-09
 46.83011    127.8 1.453e+04 4.305e-09
 46.84030    127.7 1.429e+04 4.048e-09
 46.85291    128.0 1.479e+04 5.245e-09
 46.86310    127.4 1.541e+04 6.153e-09
 46.88028    127.4 1.537e+04 6.042e-09
 46.89839    127.2 1.520e+04 5.591e-09
 46.90858    126.9 1.486e+04 4.817e-09
 46.92103    126.7 1.452e+04 3.847e-09
 46.94141    126.3 1.404e+04 2.834e-09
 46.96178    125.7 1.355e+04 2.074e-09
 46.97685    124.8 1.313e+04 1.615e-09
 46.98704    124.5 1.297e+04 1.560e-09
 47.00253    123.9 1.279e+04 1.378e-09
 47.01689    123.5 1.267e+04 1.307e-09
 47.02707    122.7 1.231e+04 1.098e-09
 47.04328    122.5 1.228e+04 1.093e-09
 47.05531    122.4 1.223e+04 1.076e-09
 47.06550    122.3 1.226e+04 1.066e-09
 47.08403    122.2 1.213e+04 9.967e-10
 47.10440    122.2 1.193e+04 8.924e-10
 47.12358    122.2 1.169e+04 7.684e-10
 47.13377    122.0 1.166e+04 7.102e-10
 47.14515    121.9 1.152e+04 6.413e-10
 47.16553    121.6 1.155e+04 6.397e-10
 47.18086    121.0 1.173e+04 6.742e-10
 47.19104    121.5 1.143e+04 5.904e-10
 47.20204    120.5 1.183e+04 6.750e-10
 47.21223    119.0 1.236e+04 8.567e-10
 47.22665    117.5 1.302e+04 1.437e-09
 47.24703    116.4 1.379e+04 2.537e-09
 47.26740    115.2 1.467e+04 4.249e-09
 47.28050    113.5 1.559e+04 6.443e-09
 47.29069    112.0 1.614e+04 7.586e-09
 47.30815    109.0 1.712e+04 8.864e-09
 47.32853    104.7 1.853e+04 9.471e-09
 47.34483     99.2 1.950e+04 9.885e-09
 47.35489    101.5 1.750e+04 7.538e-09
 47.35896     98.3 1.801e+04 7.222e-09
 47.36928     92.9 1.838e+04 6.706e-09
 47.38965     88.0 1.809e+04 6.271e-09
 47.41003     84.0 1.716e+04 6.037e-09
 47.42724     81.3 1.612e+04 5.633e-09
 47.43742     81.2 1.592e+04 6.982e-09
 47.45078     80.6 1.522e+04 5.794e-09
 47.47115     80.5 1.456e+04 4.292e-09
 47.49152     80.4 1.394e+04 2.986e-09
 47.50570     80.1 1.337e+04 2.062e-09
 47.51279     79.9 1.350e+04 2.212e-09
 47.51899     80.8 1.360e+04 2.420e-09
 47.53227     80.3 1.317e+04 1.871e-09
 47.55265     80.0 1.289e+04 1.519e-09
 47.57302     79.8 1.262e+04 1.157e-09
 47.58416     79.8 1.245e+04 1.023e-09
 47.59444     79.5 1.285e+04 1.153e-09
 47.62416     80.3 1.215e+04 7.463e-10
 47.66278     81.3 1.154e+04 4.778e-10
 47.68315     82.4 1.210e+04 7.918e-10
 47.70565     83.7 1.156e+04 5.198e-10
 47.73109     85.0 1.118e+04 3.817e-10
 47.75146     84.3 1.099e+04 2.742e-10
 47.78715     85.9 1.091e+04 2.569e-10
 47.82790     87.6 1.095e+04 2.651e-10
 47.86763     89.4 1.122e+04 3.135e-10
 47.88801     88.8 1.141e+04 2.911e-10
 47.89912     89.1 1.158e+04 3.554e-10
 47.91939     88.9 1.176e+04 4.673e-10
 47.93977     88.8 1.191e+04 6.668e-10
 47.95609     89.0 1.210e+04 9.516e-10
 47.96627     88.6 1.223e+04 1.079e-09
 47.98052     89.2 1.257e+04 1.469e-09
 48.00071     89.5 1.289e+04 1.784e-09
 48.01090     89.6 1.344e+04 2.304e-09
 48.02127     89.5 1.343e+04 2.267e-09
 48.03455     89.2 1.325e+04 2.059e-09
 48.04473     88.3 1.321e+04 2.005e-09
 48.07230     88.3 1.249e+04 1.375e-09
 48.11315     89.1 1.134e+04 7.035e-10
 48.15390     90.2 1.029e+04 3.309e-10
 48.18148     91.5 9.647e+03 1.677e-10
 48.20185     91.1 9.632e+03 1.510e-10
 48.23540     92.6 9.486e+03 9.966e-11
 48.27615     94.4 9.442e+03 8.132e-11
 48.31690     96.4 9.353e+03 7.426e-11
 48.33840     98.6 9.249e+03 6.936e-11
 48.34016     98.9 9.237e+03 6.929e-11
 48.35941     99.5 9.294e+03 7.232e-11
 48.39839    101.9 9.226e+03 7.013e-11
 48.43914    104.3 9.175e+03 6.873e-11
 48.47494    106.8 9.153e+03 6.853e-11
 48.49532    107.1 9.113e+03 6.796e-11
 48.52064    109.6 9.102e+03 6.825e-11
 48.56139    112.1 9.084e+03 7.036e-11
 48.60214    114.6 9.087e+03 7.582e-11
 48.63186    117.2 9.121e+03 8.517e-11
 48.65224    117.9 9.036e+03 7.625e-11
 48.66698    120.5 9.087e+03 8.577e-11
 48.68736    120.7 9.259e+03 1.115e-10
 48.72439    123.3 9.359e+03 1.316e-10
 48.76514    126.0 9.479e+03 1.570e-10
 48.78878    128.7 9.599e+03 1.863e-10
 48.80916    129.6 9.444e+03 1.519e-10
 48.84664    132.3 9.560e+03 1.808e-10
 48.88739    135.1 9.685e+03 2.137e-10
 48.92533    138.0 9.847e+03 2.504e-10
 48.94571    139.0 9.695e+03 2.065e-10
 48.96889    141.9 9.907e+03 2.472e-10
 48.99492    145.0 1.017e+04 2.920e-10
 49.01530    144.9 1.031e+04 3.303e-10
 49.05038    147.9 1.055e+04 3.714e-10
 49.08225    150.5 1.074e+04 4.164e-10
 49.10263    151.5 1.042e+04 3.364e-10
 49.13188    153.6 1.055e+04 3.711e-10
 49.15880    154.7 1.056e+04 3.976e-10
 49.16715    154.7 1.059e+04 4.060e-10
 49.17070    155.1 1.052e+04 3.751e-10
 49.18263    156.4 1.051e+04 3.827e-10
 49.20300    158.0 1.059e+04 4.293e-10
 49.22337    159.5 1.082e+04 5.346e-10
 49.23898    160.8 1.116e+04 6.854e-10
 49.24916    161.1 1.073e+04 5.011e-10
 49.26412    162.4 1.105e+04 6.373e-10
 49.28450    163.4 1.137e+04 7.985e-10
 49.30487    164.4 1.166e+04 9.656e-10
 49.31744    165.2 1.188e+04 1.127e-09
 49.32505    165.9 1.153e+04 8.829e-10
 49.33286    166.1 1.140e+04 8.569e-10
 49.34562    166.9 1.159e+04 9.811e-10
 49.36600    167.8 1.174e+04 1.097e-09
 49.38571    168.6 1.189e+04 1.210e-09
 49.39590    169.4 1.155e+04 9.446e-10
 49.40675    170.2 1.165e+04 1.010e-09
 49.42712    170.9 1.178e+04 1.078e-09
 49.44750    171.4 1.196e+04 1.164e-09
 49.46417    171.7 1.218e+04 1.285e-09
 49.47436    172.7 1.158e+04 8.895e-10
 49.48664    172.9 1.178e+04 9.809e-10
 49.49683    173.1 1.201e+04 1.078e-09
 49.50862    173.1 1.235e+04 1.265e-09
 49.52900    172.9 1.274e+04 1.529e-09
 49.54263    172.7 1.308e+04 1.810e-09
 49.55282    174.0 1.232e+04 1.225e-09
 49.56974    173.8 1.266e+04 1.459e-09
 49.59012    173.6 1.284e+04 1.552e-09
 49.61049    173.3 1.285e+04 1.530e-09
 49.62109    172.9 1.279e+04 1.384e-09
 49.63128    174.8 1.259e+04 1.294e-09
 49.65061    174.4 1.255e+04 1.157e-09
 49.66080    173.9 1.263e+04 1.204e-09
 49.67162    173.5 1.240e+04 9.252e-10
 49.68937    172.8 1.214e+04 6.782e-10
 49.69955    175.1 1.223e+04 7.720e-10
 49.71237    174.3 1.194e+04 5.628e-10
 49.73274    173.3 1.156e+04 4.470e-10
 49.75312    172.5 1.109e+04 4.184e-10
 49.76783    172.0 1.095e+04 4.200e-10
 49.77801    173.8 1.086e+04 3.885e-10
 49.79387    173.3 1.082e+04 3.886e-10
 49.81424    173.1 1.080e+04 3.922e-10
 49.82477    173.1 1.078e+04 4.113e-10
 49.83496    172.9 1.079e+04 4.215e-10
 49.84629    172.8 1.087e+04 4.623e-10
 49.85647    174.1 1.077e+04 4.417e-10
 49.87537    173.9 1.092e+04 5.029e-10
 49.89574    173.6 1.114e+04 5.873e-10
 49.91456    173.3 1.142e+04 6.969e-10
 49.92475    174.3 1.141e+04 6.920e-10
 49.93649    173.8 1.174e+04 8.287e-10
 49.95686    173.2 1.208e+04 9.918e-10
 49.97724    172.4 1.245e+04 1.177e-09
 49.98874    171.3 1.287e+04 1.405e-09
 49.99434    171.3 1.309e+04 1.568e-09
 50.00321    172.2 1.315e+04 1.787e-09
 50.01799    171.0 1.372e+04 2.256e-09
 50.03836    169.4 1.451e+04 3.011e-09
 50.05874    167.7 1.542e+04 4.148e-09
 50.07148    166.0 1.638e+04 5.346e-09
 50.08167    167.3 1.645e+04 6.039e-09
 50.09949    165.4 1.761e+04 7.413e-09
 50.11986    163.2 1.849e+04 7.322e-09
 50.13975    161.0 1.908e+04 6.156e-09
 50.14994    160.9 2.154e+04 1.199e-08
 50.15271    158.6 2.212e+04 1.023e-08
 50.16290    161.4 2.002e+04 6.607e-09
 50.18099    159.0 2.111e+04 3.445e-09
 50.20136    155.4 2.130e+04 1.537e-09
 50.21821    150.9 1.781e+04 1.350e-09
 50.22840    151.6 1.993e+04 3.737e-09
 50.24211    147.8 1.744e+04 3.755e-09
 50.26248    146.2 1.717e+04 4.479e-09
 50.27772    146.1 1.729e+04 5.293e-09
 50.28786    146.0 1.778e+04 6.369e-09
 50.29658    145.9 1.850e+04 8.161e-09
 50.30167    145.5 1.849e+04 1.269e-08
 50.30823    145.6 1.888e+04 1.692e-08
 50.31659    145.9 1.933e+04 2.269e-08
 50.32168    145.7 1.999e+04 1.328e-08
 50.32860    145.9 2.056e+04 1.687e-08
 50.33581    145.9 2.111e+04 2.074e-08
 50.34090    145.9 2.056e+04 2.779e-08
 50.34898    145.7 2.103e+04 3.167e-08
 50.35917    145.5 2.148e+04 3.534e-08
 50.36935    145.0 2.189e+04 3.890e-08
 50.37504    144.5 2.221e+04 4.257e-08
 50.38013    143.9 2.201e+04 4.438e-08
 50.38973    143.2 2.227e+04 4.898e-08
 50.39857    142.5 2.250e+04 5.445e-08
 50.40367    141.1 2.316e+04 4.344e-08
 50.40917    140.2 2.347e+04 4.896e-08
 50.41427    139.0 2.291e+04 5.052e-08
 50.42029    138.3 2.307e+04 5.756e-08
 50.43048    137.3 2.333e+04 6.785e-08
 50.44067    136.1 2.335e+04 8.347e-08
 50.44840    135.2 2.300e+04 1.106e-07
 50.45350    133.7 2.271e+04 8.511e-08
 50.46104    132.7 2.255e+04 1.073e-07
 50.47123    131.5 2.261e+04 1.284e-07
 50.48056    129.6 2.296e+04 1.323e-07
 50.48565    128.8 2.278e+04 1.233e-07
 50.48764    127.3 2.271e+04 1.060e-07
 50.49273    125.6 2.244e+04 5.324e-08
 50.50179    124.5 2.196e+04 4.026e-08
 50.51198    123.7 2.118e+04 2.794e-08
 50.52177    123.1 2.051e+04 1.928e-08
 50.53201    120.6 1.885e+04 1.211e-08
 50.54773    118.3 1.762e+04 7.117e-09
 50.56811    115.1 1.602e+04 4.231e-09
 50.58848    112.0 1.464e+04 3.005e-09
 50.60033    110.1 1.381e+04 2.575e-09
 50.61052    111.9 1.438e+04 2.989e-09
 50.62923    110.7 1.392e+04 2.655e-09
 50.64463    110.0 1.347e+04 2.337e-09
 50.65482    109.1 1.309e+04 2.114e-09
 50.66860    108.8 1.292e+04 2.009e-09
 50.67879    109.6 1.296e+04 2.000e-09
 50.69035    109.3 1.265e+04 1.812e-09
 50.72101    108.1 1.254e+04 1.652e-09
 50.74726    108.0 1.198e+04 1.225e-09
 50.76763    109.5 1.200e+04 1.273e-09
 50.80261    109.8 1.140e+04 8.666e-10
 50.84336    110.3 1.075e+04 5.535e-10
 50.88381    111.0 1.017e+04 3.666e-10
 50.90418    111.7 1.093e+04 5.853e-10
 50.92486    112.8 1.047e+04 4.161e-10
 50.96258    114.0 1.018e+04 3.363e-10
 50.98295    113.8 1.030e+04 3.733e-10
 51.00636    115.4 1.004e+04 3.235e-10
 51.04073    117.0 9.918e+03 3.169e-10
 51.06100    117.6 1.014e+04 3.829e-10
 51.07747    118.2 1.002e+04 3.679e-10
 51.09785    118.8 9.962e+03 3.672e-10
 51.11822    119.2 9.957e+03 3.804e-10
 51.12918    119.5 1.005e+04 4.082e-10
 51.13731    120.2 1.014e+04 4.035e-10
 51.14673    120.6 1.005e+04 3.546e-10
 51.15897    120.6 1.007e+04 3.470e-10
 51.17935    120.4 1.007e+04 3.469e-10
 51.19745    120.0 1.010e+04 3.493e-10
 51.20764    120.1 1.023e+04 3.475e-10
 51.22010    118.8 1.036e+04 3.600e-10
 51.24047    116.8 1.080e+04 3.891e-10
 51.26085    114.2 1.225e+04 4.733e-10
 51.27591    111.7 1.392e+04 8.034e-10
 51.28610    106.7 1.663e+04 2.576e-09
 51.30051    106.4 1.677e+04 4.016e-09
 51.31070    107.5 1.620e+04 2.962e-09
 51.32197    107.0 1.684e+04 4.347e-09
 51.33720    105.8 1.770e+04 6.334e-09
 51.34734    105.2 1.812e+04 8.525e-09
 51.35428    105.2 1.829e+04 1.038e-08
 51.35937    104.6 1.827e+04 1.223e-08
 51.36772    104.9 1.827e+04 1.269e-08
 51.37790    105.3 1.810e+04 1.336e-08
 51.38749    105.8 1.807e+04 1.319e-08
 51.39259    105.8 1.812e+04 1.355e-08
 51.39351    106.2 1.814e+04 1.348e-08
 51.39860    105.8 1.773e+04 1.061e-08
 51.40846    106.0 1.769e+04 9.709e-09
 51.41865    105.8 1.760e+04 8.287e-09
 51.42764    105.4 1.751e+04 7.318e-09
 51.43278    104.4 1.584e+04 4.393e-09
 51.44422    103.8 1.621e+04 3.701e-09
 51.46448    102.1 1.667e+04 3.501e-09
 51.47467    102.2 1.783e+04 5.778e-09
 51.48497    100.5 1.781e+04 6.122e-09
 51.50111    100.4 1.744e+04 5.666e-09
 51.51129    102.0 1.494e+04 1.774e-09
 51.52572    101.6 1.479e+04 1.748e-09
 51.54609    101.6 1.455e+04 1.798e-09
 51.56647    102.0 1.425e+04 1.847e-09
 51.57957    102.7 1.389e+04 1.855e-09
 51.58975    103.9 1.287e+04 1.127e-09
 51.60722    104.8 1.292e+04 1.329e-09
 51.62759    105.6 1.294e+04 1.478e-09
 51.63864    106.1 1.285e+04 1.521e-09
 51.64871    105.7 1.401e+04 2.479e-09
 51.65803    106.9 1.420e+04 2.275e-09
 51.66834    106.9 1.433e+04 2.468e-09
 51.68871    106.2 1.466e+04 2.711e-09
 51.70909    104.8 1.516e+04 3.119e-09
 51.72630    103.0 1.569e+04 3.758e-09
 51.73649    102.0 1.746e+04 7.033e-09
 51.74984    100.4 1.777e+04 8.990e-09
 51.77021     99.1 1.795e+04 1.064e-08
 51.79059     97.8 1.814e+04 1.105e-08
 51.80261     96.4 1.830e+04 1.075e-08
 51.80660     98.3 1.642e+04 5.937e-09
 51.81495     95.0 1.940e+04 1.062e-08
 51.83134     92.9 2.006e+04 1.008e-08
 51.85171     90.9 2.052e+04 1.038e-08
 51.87209     89.0 2.076e+04 1.190e-08
 51.88322     88.0 2.073e+04 1.442e-08
 51.88550     84.9 2.170e+04 2.267e-08
 51.88960     85.4 2.157e+04 2.021e-08
 51.89746     85.2 2.162e+04 2.274e-08
 51.90764     84.9 2.187e+04 2.505e-08
 51.91726     84.4 2.214e+04 2.806e-08
 51.92235     82.1 2.232e+04 3.131e-08
 51.92802     81.9 2.216e+04 3.257e-08
 51.93821     82.0 2.207e+04 3.210e-08
 51.94839     82.1 2.211e+04 2.893e-08
 51.95649     81.9 2.230e+04 2.344e-08
 51.96158     78.7 2.205e+04 1.052e-08
 51.96649     76.8 2.157e+04 6.052e-09
 51.97158     79.1 2.244e+04 1.184e-08
 51.97896     77.2 2.203e+04 6.690e-09
 51.98914     74.4 2.084e+04 3.292e-09
 51.99572     71.3 1.824e+04 1.705e-09
 52.00081     65.9 1.287e+04 9.422e-10
 52.00952     63.8 1.121e+04 6.818e-10
 52.01971     62.2 1.016e+04 5.589e-10
 52.02991     62.7 1.184e+04 5.238e-10
 52.04014     58.6 8.945e+03 3.796e-10
 52.05546     56.7 8.605e+03 3.083e-10
 52.07583     55.5 8.471e+03 2.745e-10
 52.09621     55.0 8.335e+03 2.513e-10
 52.10842     54.7 8.213e+03 2.323e-10
 52.11860     54.9 8.289e+03 2.385e-10
 52.14724     54.9 8.290e+03 2.395e-10
 52.18809     55.5 8.334e+03 2.437e-10
 52.22884     57.1 8.536e+03 2.802e-10
 52.25525     58.2 8.756e+03 3.304e-10
 52.26534     59.0 8.850e+03 3.620e-10
 52.27958     59.3 9.166e+03 4.410e-10
 52.29453     59.9 9.539e+03 5.720e-10
 52.30472     59.5 1.001e+04 8.142e-10
 52.32033     60.3 1.046e+04 1.008e-09
 52.33361     60.9 1.103e+04 1.282e-09
 52.34380     61.1 1.111e+04 1.306e-09
 52.36108     61.6 1.186e+04 1.715e-09
 52.38145     62.1 1.275e+04 2.309e-09
 52.40183     62.6 1.366e+04 3.064e-09
 52.42220     63.0 1.467e+04 4.152e-09
 52.44258     63.1 1.509e+04 4.403e-09
 52.45850     62.9 1.506e+04 4.304e-09
 52.46869     62.5 1.397e+04 3.044e-09
 52.48034     62.1 1.355e+04 2.583e-09
 52.49053     62.4 1.405e+04 3.024e-09
 52.50370     62.0 1.339e+04 2.433e-09
 52.52408     61.7 1.255e+04 1.856e-09
 52.54445     61.6 1.181e+04 1.449e-09
 52.55880     61.7 1.131e+04 1.187e-09
 52.56899     62.4 1.161e+04 1.346e-09
 52.58520     62.7 1.111e+04 1.061e-09
 52.60558     62.9 1.075e+04 8.860e-10
 52.62247     63.3 1.040e+04 7.301e-10
 52.63266     63.6 1.075e+04 9.310e-10
 52.63726     64.1 1.059e+04 8.434e-10
 52.64745     64.8 1.060e+04 8.405e-10
 52.66670     65.2 1.048e+04 7.794e-10
 52.68708     65.6 1.040e+04 7.436e-10
 52.70554     66.0 1.032e+04 7.172e-10
 52.71573     66.7 1.032e+04 7.162e-10
 52.72782     67.2 1.024e+04 6.789e-10
 52.74820     67.8 1.023e+04 6.695e-10
 52.76857     68.5 1.025e+04 6.743e-10
 52.78400     69.0 1.034e+04 6.970e-10
 52.79168     69.6 1.042e+04 7.192e-10
 52.79663     69.8 1.044e+04 7.632e-10
 52.80932     70.0 1.054e+04 7.704e-10
 52.83998     70.0 1.067e+04 7.773e-10
 52.86265     71.0 1.065e+04 7.529e-10
 52.88303     72.3 1.066e+04 7.668e-10
 52.92158     73.0 1.060e+04 6.840e-10
 52.95061     74.0 1.030e+04 4.905e-10
 52.97098     75.1 1.076e+04 7.006e-10
 52.99920     76.2 1.024e+04 4.357e-10
 53.01958     77.1 1.032e+04 4.378e-10
 53.04383     78.2 9.754e+03 2.568e-10
 53.08458     79.5 9.518e+03 2.121e-10
 53.12533     81.3 9.514e+03 2.144e-10
 53.15612     83.3 9.566e+03 2.312e-10
 53.17650     84.2 9.882e+03 3.317e-10
 53.20683     86.2 1.006e+04 3.946e-10
 53.24757     87.8 1.018e+04 4.161e-10
 53.27855     89.2 1.016e+04 4.076e-10
 53.29893     90.5 1.037e+04 4.620e-10
 53.31304     91.7 1.030e+04 4.444e-10
 53.33342     92.3 1.060e+04 5.350e-10
 53.36982     93.3 1.031e+04 4.464e-10
 53.41057     94.2 9.922e+03 3.143e-10
 53.44959     95.0 9.488e+03 1.989e-10
 53.46996     95.6 9.643e+03 2.210e-10
 53.49207     96.1 9.150e+03 1.387e-10
 53.53282     96.6 8.788e+03 1.208e-10
 53.57357     97.4 8.764e+03 1.204e-10
 53.60649     98.4 8.755e+03 1.217e-10
 53.62687     99.5 9.230e+03 1.813e-10
 53.65507    100.3 9.137e+03 1.752e-10
 53.69582    101.1 9.030e+03 1.641e-10
 53.73657    102.0 8.861e+03 1.445e-10
 53.76343    103.1 8.649e+03 1.193e-10
 53.78381    103.3 9.029e+03 1.499e-10
 53.81807    104.5 8.720e+03 1.026e-10
 53.85882    105.6 8.385e+03 7.270e-11
 53.89957    106.8 8.131e+03 5.858e-11
 53.92035    108.2 8.051e+03 5.653e-11
 53.93485    108.0 8.381e+03 6.730e-11
 53.95481    108.6 8.119e+03 5.835e-11
 53.98106    110.4 8.119e+03 5.851e-11
 54.02181    112.2 8.136e+03 5.971e-11
 54.05690    113.8 8.198e+03 6.494e-11
 54.07727    113.2 8.862e+03 1.261e-10
 54.10331    114.9 9.041e+03 1.683e-10
 54.14406    116.9 9.331e+03 2.354e-10
 54.18481    118.9 9.738e+03 3.342e-10
 54.21372    119.5 1.003e+04 4.170e-10
 54.22381    118.9 1.043e+04 5.559e-10
 54.23555    119.4 1.074e+04 6.919e-10
 54.25593    119.9 1.107e+04 8.524e-10
 54.27237    120.4 1.143e+04 1.030e-09
 54.28256    120.8 1.128e+04 9.896e-10
 54.30696    121.6 1.202e+04 1.315e-09
 54.33752    121.4 1.242e+04 1.558e-09
 54.35780    121.3 1.274e+04 1.735e-09
 54.37054    121.1 1.294e+04 1.791e-09
 54.38073    120.8 1.278e+04 1.650e-09
 54.39855    120.7 1.285e+04 1.643e-09
 54.41893    120.5 1.288e+04 1.617e-09
 54.43634    120.2 1.288e+04 1.548e-09
 54.44605    120.7 1.342e+04 2.052e-09
 54.44901    120.5 1.349e+04 1.955e-09
 54.45967    119.9 1.350e+04 1.907e-09
 54.48005    119.3 1.346e+04 1.788e-09
 54.50042    118.7 1.338e+04 1.647e-09
 54.51728    117.9 1.326e+04 1.521e-09
 54.52747    116.6 1.343e+04 1.547e-09
 54.54117    115.6 1.351e+04 1.535e-09
 54.56155    114.7 1.362e+04 1.555e-09
 54.58192    114.1 1.372e+04 1.601e-09
 54.59574    113.6 1.375e+04 1.625e-09
 54.60394    112.1 1.410e+04 1.923e-09
 54.61050    110.7 1.429e+04 2.115e-09
 54.62267    110.5 1.378e+04 1.750e-09
 54.64305    110.5 1.317e+04 1.359e-09
 54.66342    110.7 1.244e+04 9.333e-10
 54.67420    110.6 1.194e+04 7.334e-10
 54.68448    108.9 1.201e+04 7.636e-10
 54.71455    110.7 1.109e+04 4.507e-10
 54.75530    112.8 1.057e+04 3.103e-10
 54.79605    114.9 1.039e+04 2.566e-10
 54.82113    117.1 1.028e+04 2.354e-10
 54.84150    114.4 1.022e+04 2.161e-10
 54.87755    116.9 1.013e+04 2.135e-10
 54.91826    119.3 1.010e+04 2.148e-10
 54.95764    121.2 1.062e+04 2.615e-10
 54.97805    118.8 1.095e+04 3.198e-10
 54.99980    121.1 1.117e+04 3.771e-10
 55.04055    123.4 1.129e+04 4.298e-10
 55.08130    126.0 1.142e+04 5.026e-10
 55.10251    126.8 1.148e+04 5.412e-10
 55.11260    126.8 1.147e+04 5.803e-10
 55.12459    127.3 1.147e+04 6.384e-10
 55.13477    126.0 1.134e+04 6.444e-10
 55.15241    127.0 1.133e+04 6.753e-10
 55.17279    128.1 1.139e+04 7.067e-10
 55.19286    128.9 1.148e+04 7.401e-10
 55.20305    128.0 1.136e+04 6.822e-10
 55.21354    128.8 1.150e+04 7.373e-10
 55.23391    129.6 1.164e+04 7.980e-10
 55.25429    130.3 1.183e+04 8.787e-10
 55.26638    130.9 1.210e+04 9.962e-10
 55.27323    131.1 1.233e+04 1.099e-09
 55.28151    130.0 1.236e+04 1.087e-09
 55.29504    130.4 1.280e+04 1.306e-09
 55.31541    130.9 1.335e+04 1.622e-09
 55.33579    131.3 1.392e+04 2.044e-09
 55.34978    131.7 1.444e+04 2.497e-09
 55.35997    130.5 1.445e+04 2.518e-09
 55.37654    130.8 1.471e+04 2.800e-09
 55.39691    130.7 1.470e+04 2.798e-09
 55.41729    130.7 1.459e+04 2.687e-09
 55.42824    130.9 1.429e+04 2.366e-09
 55.43112    129.7 1.394e+04 2.108e-09
 55.44054    129.8 1.411e+04 2.196e-09
 55.45804    130.2 1.362e+04 1.673e-09
 55.47841    130.6 1.305e+04 1.201e-09
 55.49652    131.0 1.246e+04 8.309e-10
 55.50670    129.7 1.206e+04 7.124e-10
 55.51916    129.9 1.156e+04 4.934e-10
 55.53953    130.0 1.112e+04 3.571e-10
 55.55991    130.1 1.073e+04 2.904e-10
 55.57498    130.1 1.041e+04 2.766e-10
 55.58516    128.6 1.038e+04 2.756e-10
 55.59442    129.7 1.042e+04 2.740e-10
 55.60461    129.0 1.045e+04 3.223e-10
 55.62103    129.7 1.045e+04 3.312e-10
 55.64141    130.4 1.052e+04 3.579e-10
 55.65344    130.9 1.065e+04 3.964e-10
 55.66362    129.3 1.072e+04 4.380e-10
 55.68216    129.7 1.083e+04 4.845e-10
 55.70253    130.1 1.094e+04 5.308e-10
 55.72171    130.3 1.107e+04 5.847e-10
 55.73190    127.7 1.120e+04 6.597e-10
 55.74328    126.6 1.159e+04 7.953e-10
 55.75830    124.2 1.271e+04 1.105e-09
 55.76849    122.5 1.355e+04 1.473e-09
 55.78403    118.9 1.466e+04 2.203e-09
 55.80017    117.3 1.501e+04 2.637e-09
 55.81031    114.6 1.544e+04 3.160e-09
 55.81959    111.8 1.657e+04 4.041e-09
 55.82978    104.8 1.993e+04 7.796e-09
 55.83930     96.0 2.383e+04 1.870e-08
 55.84440     94.5 2.398e+04 1.912e-08
 55.84528     87.3 2.624e+04 2.837e-08
 55.85037     86.0 2.652e+04 2.859e-08
 55.86034     79.1 2.669e+04 2.787e-08
 55.87053     72.5 2.629e+04 2.263e-08
 55.87853     66.0 2.469e+04 1.455e-08
 55.88363     66.0 2.359e+04 1.169e-08
 55.89090     60.1 2.152e+04 7.364e-09
 55.90109     54.7 1.956e+04 4.520e-09
 55.91127     49.5 1.733e+04 2.681e-09
 55.91776     44.7 1.486e+04 1.399e-09
 55.92286     45.8 1.494e+04 1.570e-09
 55.92727     41.5 1.327e+04 9.188e-10
 55.93236     43.7 1.335e+04 1.021e-09
 55.94184     38.9 1.627e+04 7.458e-10
 55.95190     23.1 3.962e+04 1.036e-09
 55.95699     35.8 1.848e+04 6.729e-10
 55.96221     18.7 4.590e+04 1.539e-09
 55.97240      0.5 4.290e+04 1.474e-08
 55.98259     -6.3 2.675e+04 7.448e-08
 55.99113     -3.7 2.365e+04 9.043e-08
 55.99622     -3.9 2.537e+04 8.670e-08
 56.00296     -1.5 2.301e+04 1.019e-07
 56.00925      1.1 2.238e+04 8.191e-08
 56.01434      1.2 2.180e+04 9.381e-08
 56.02334      2.1 2.570e+04 4.545e-08
 56.03036      4.0 3.298e+04 1.280e-08
 56.03545      3.9 2.439e+04 5.085e-08
 56.04371      4.5 3.478e+04 1.109e-08
 56.05390      5.2 5.050e+04 1.713e-09
 56.06923      1.3 6.507e+04 5.402e-10
 56.08624     -2.2 6.507e+04 1.023e-10
 56.09643      4.8 7.220e+04 2.082e-10
 56.10382     -4.0 6.600e+04 6.333e-11
 56.11401      6.2 6.609e+04 3.788e-10
 56.14069    -22.0 3.154e+04 8.619e-11
 56.17229    -31.2 8.516e+03 1.470e-10
 56.19267    -23.2 2.043e+04 7.077e-11
 56.22228    -27.5 7.937e+03 1.062e-10
 56.25041    -25.6 7.631e+03 1.006e-10
 56.27078    -26.4 7.480e+03 7.896e-11
 56.30378    -25.0 7.400e+03 7.315e-11
 56.32921    -23.8 7.296e+03 7.190e-11
 56.34959    -22.9 7.272e+03 7.027e-11
 56.38528    -21.3 7.262e+03 7.273e-11
 56.42603    -19.6 7.333e+03 8.293e-11
 56.46576    -17.5 7.388e+03 9.532e-11
 56.48614    -16.6 7.393e+03 9.422e-11
 56.50753    -14.1 7.433e+03 9.976e-11
 56.54828    -11.8 7.497e+03 1.048e-10
 56.57835    -10.3 7.766e+03 1.252e-10
 56.59872    -10.8 7.726e+03 1.195e-10
 56.62268    -10.4 8.292e+03 1.893e-10
 56.64306     -8.7 8.270e+03 1.858e-10
 56.67053     -7.7 8.888e+03 3.155e-10
 56.71128     -5.6 9.428e+03 4.952e-10
 56.75202     -3.8 9.472e+03 5.218e-10
 56.77960     -1.7 9.180e+03 4.305e-10
 56.79998     -0.7 9.263e+03 4.424e-10
 56.83352      0.9 8.988e+03 3.698e-10
 56.87427      2.3 8.584e+03 2.686e-10
 56.90629      3.3 8.145e+03 1.845e-10
 56.92667      2.7 8.334e+03 2.071e-10
 56.93652      3.3 8.053e+03 1.658e-10
 56.95690      5.2 8.605e+03 2.512e-10
 56.99652      5.8 8.512e+03 2.382e-10
 57.03727      6.7 8.534e+03 2.424e-10
 57.07307      7.8 8.528e+03 2.414e-10
 57.09344      9.1 9.052e+03 3.898e-10
 57.11877     10.7 8.866e+03 3.517e-10
 57.15952     12.7 8.464e+03 2.571e-10
 57.20027     14.8 8.022e+03 1.585e-10
 57.22999     16.3 7.657e+03 9.068e-11
 57.24358     17.8 7.866e+03 1.067e-10
 57.25461     16.1 7.656e+03 8.510e-11
 57.28177     17.4 7.391e+03 6.222e-11
 57.32252     19.4 7.336e+03 6.146e-11
 57.36327     21.6 7.352e+03 6.576e-11
 57.38691     24.0 7.453e+03 8.051e-11
 57.40729     25.4 7.387e+03 6.897e-11
 57.44476     27.9 7.502e+03 8.498e-11
 57.48551     30.4 7.695e+03 1.095e-10
 57.52346     32.9 7.932e+03 1.418e-10
 57.54383     34.5 7.799e+03 1.160e-10
 57.56218     37.0 8.038e+03 1.426e-10
 57.58255     36.3 7.963e+03 1.215e-10
 57.60776     38.7 8.130e+03 1.450e-10
 57.64851     40.9 8.296e+03 1.720e-10
 57.68038     43.0 8.485e+03 2.013e-10
 57.70075     44.3 8.466e+03 2.031e-10
 57.73001     46.1 8.715e+03 2.662e-10
 57.77076     47.9 8.957e+03 3.428e-10
 57.81151     49.8 9.168e+03 4.026e-10
 57.83730     51.4 9.314e+03 4.343e-10
 57.85767     53.5 9.471e+03 4.704e-10
 57.89012     55.1 9.404e+03 4.226e-10
 57.91049     54.0 9.241e+03 3.048e-10
 57.93376     55.2 9.166e+03 2.579e-10
 57.97385     56.4 9.199e+03 2.602e-10
 57.99422     58.1 8.851e+03 1.906e-10
 58.01526     58.8 9.055e+03 2.170e-10
 58.05601     58.9 9.399e+03 2.786e-10
 58.08647     58.6 9.814e+03 3.806e-10
 58.10675     58.2 1.018e+04 5.223e-10
 58.12712     57.4 1.087e+04 8.168e-10
 58.14076     57.1 1.140e+04 1.175e-09
 58.15095     58.3 1.102e+04 9.684e-10
 58.16787     58.5 1.172e+04 1.457e-09
 58.18825     58.9 1.218e+04 1.827e-09
 58.20862     59.1 1.269e+04 1.914e-09
 58.21922     58.9 1.266e+04 1.831e-09
 58.22847     59.7 1.265e+04 1.853e-09
 58.23834     58.7 1.227e+04 1.452e-09
 58.25975     58.0 1.197e+04 1.073e-09
 58.28769     56.1 1.097e+04 6.112e-10
 58.30806     58.8 1.146e+04 6.792e-10
 58.34125     56.2 1.009e+04 3.961e-10
 58.38200     54.7 9.702e+03 3.770e-10
 58.42275     54.3 9.729e+03 4.072e-10
 58.44461     54.2 9.945e+03 4.900e-10
 58.46498     55.3 9.918e+03 4.775e-10
 58.50425     55.2 1.022e+04 6.018e-10
 58.54500     54.8 1.024e+04 6.148e-10
 58.56638     54.4 1.012e+04 5.830e-10
 58.58216     54.2 1.003e+04 5.099e-10
 58.60153     54.6 1.043e+04 6.641e-10
 58.62650     54.5 1.013e+04 5.785e-10
 58.66725     54.6 9.723e+03 4.625e-10
 58.70800     54.7 9.300e+03 3.556e-10
 58.73808     55.1 8.942e+03 2.830e-10
 58.75845     55.1 8.842e+03 2.581e-10
 58.78950     55.8 8.541e+03 2.236e-10
 58.83024     57.1 8.414e+03 2.119e-10
 58.87099     58.8 8.350e+03 2.030e-10
 58.89432     60.8 8.287e+03 1.861e-10
 58.89795     61.3 8.108e+03 1.659e-10
 58.91537     61.5 8.012e+03 1.364e-10
 58.95249     63.7 7.930e+03 1.239e-10
 58.99324     65.8 7.821e+03 1.068e-10
 59.03154     67.7 7.725e+03 9.406e-11
 59.05192     68.6 7.873e+03 1.153e-10
 59.07474     70.9 7.890e+03 1.170e-10
 59.11549     73.1 8.113e+03 1.348e-10
 59.15624     74.6 8.734e+03 2.066e-10
 59.18670     75.2 8.943e+03 2.512e-10
 59.19846     75.6 9.113e+03 2.968e-10
 59.20864     76.5 9.154e+03 3.077e-10
 59.22207     76.8 9.448e+03 3.900e-10
 59.23226     77.0 9.164e+03 2.963e-10
 59.24773     76.7 9.567e+03 3.909e-10
 59.26673     75.9 1.005e+04 5.304e-10
 59.27692     76.6 1.052e+04 6.325e-10
 59.28848     74.9 1.129e+04 8.855e-10
 59.30886     73.2 1.193e+04 1.212e-09
 59.32923     71.6 1.238e+04 1.581e-09
 59.34519     70.5 1.262e+04 1.892e-09
 59.35538     70.1 1.300e+04 2.169e-09
 59.36998     68.8 1.312e+04 2.183e-09
 59.38604     66.7 1.349e+04 2.224e-09
 59.39623     63.5 1.605e+04 3.007e-09
 59.41073     60.0 1.689e+04 3.641e-09
 59.42365     56.8 1.708e+04 4.266e-09
 59.43384     54.0 1.778e+04 7.354e-09
 59.45148     52.5 1.690e+04 7.286e-09
 59.47185     51.5 1.669e+04 7.365e-09
 59.49192     50.8 1.656e+04 7.498e-09
 59.50211     50.6 1.704e+04 8.562e-09
 59.51260     50.6 1.667e+04 7.618e-09
 59.53298     50.8 1.616e+04 6.395e-09
 59.55001     51.3 1.556e+04 4.972e-09
 59.56020     51.0 1.523e+04 4.435e-09
 59.57038     50.8 1.438e+04 3.207e-09
 59.58057     49.9 1.329e+04 2.433e-09
 59.59410     49.6 1.251e+04 1.800e-09
 59.61448     49.5 1.188e+04 1.375e-09
 59.63485     49.5 1.139e+04 1.094e-09
 59.64885     49.9 1.099e+04 9.014e-10
 59.65903     50.4 1.082e+04 8.085e-10
 59.67560     51.2 1.060e+04 7.074e-10
 59.69597     51.9 1.048e+04 6.448e-10
 59.71398     52.6 1.042e+04 6.103e-10
 59.72417     52.5 1.047e+04 5.586e-10
 59.72731     53.2 1.047e+04 5.394e-10
 59.73749     53.5 1.039e+04 4.956e-10
 59.75710     54.1 1.041e+04 4.987e-10
 59.77747     54.6 1.049e+04 5.154e-10
 59.79558     55.1 1.067e+04 5.567e-10
 59.80577     55.3 1.046e+04 5.123e-10
 59.81822     55.6 1.069e+04 5.778e-10
 59.83860     55.6 1.100e+04 6.775e-10
 59.85897     55.5 1.138e+04 8.200e-10
 59.87404     55.5 1.179e+04 1.007e-09
 59.88283     55.6 1.143e+04 8.602e-10
 59.88814     55.0 1.092e+04 6.605e-10
 59.89972     54.8 1.114e+04 7.421e-10
 59.92010     54.3 1.138e+04 8.324e-10
 59.94047     52.8 1.198e+04 1.056e-09
 59.95250     49.7 1.317e+04 1.775e-09
 59.96269     49.8 1.303e+04 1.686e-09
 59.97608     47.1 1.387e+04 2.412e-09
 59.98622     45.8 1.425e+04 2.913e-09
 59.99163     43.9 1.493e+04 3.909e-09
 59.99673     43.8 1.511e+04 4.069e-09
 60.00659     41.8 1.601e+04 5.812e-09
 60.01678     37.1 1.945e+04 1.057e-08
 60.02577     29.4 2.608e+04 3.135e-08
 60.03086     28.8 2.635e+04 3.688e-08
 60.03715     25.3 2.525e+04 8.064e-08
 60.04692     23.1 2.402e+04 8.495e-08
 60.05201     25.7 2.513e+04 4.033e-08
 60.05753     24.3 2.401e+04 3.935e-08
 60.06500     22.4 2.262e+04 3.338e-08
 60.07009     23.4 2.253e+04 2.984e-08
 60.07790     22.3 2.075e+04 2.139e-08
 60.08809     20.5 1.920e+04 1.646e-08
 60.09918     18.9 1.782e+04 1.084e-08
 60.10942     18.1 1.805e+04 7.841e-09
 60.12384     12.7 1.588e+04 5.437e-09
 60.14422     10.9 1.499e+04 5.253e-09
 60.16459     11.0 1.470e+04 5.667e-09
 60.17769     11.9 1.458e+04 5.773e-09
 60.18788     11.6 1.435e+04 5.157e-09
 60.20534     13.0 1.438e+04 5.124e-09
 60.21608     14.3 1.467e+04 4.876e-09
 60.22627     14.7 1.394e+04 4.636e-09
 60.24597     15.6 1.414e+04 4.250e-09
 60.25615     15.0 1.453e+04 4.412e-09
 60.26647     12.5 1.631e+04 5.139e-09
 60.28684      5.1 1.954e+04 8.393e-09
 60.30722      0.9 1.845e+04 1.269e-08
 60.32443      0.1 1.774e+04 1.802e-08
 60.33457      0.1 1.885e+04 3.171e-08
 60.34277     -0.4 1.997e+04 3.500e-08
 60.35296     -1.0 2.077e+04 3.256e-08
 60.36829     -2.3 2.161e+04 1.866e-08
 60.38005     -5.9 1.809e+04 7.468e-09
 60.39024     -6.9 1.833e+04 9.828e-09
 60.40289    -11.6 1.440e+04 3.531e-09
 60.41308    -13.8 1.438e+04 2.816e-09
 60.42946    -16.3 1.373e+04 1.581e-09
 60.44984    -19.3 1.138e+04 8.420e-10
 60.47021    -19.9 1.029e+04 5.983e-10
 60.48135    -18.9 9.754e+03 4.701e-10
 60.49154    -19.5 9.879e+03 5.085e-10
 60.51096    -18.6 9.446e+03 3.989e-10
 60.53394    -16.3 9.054e+03 2.605e-10
 60.55232    -16.5 9.012e+03 2.592e-10
 60.56000    -17.5 8.971e+03 2.732e-10
 60.58247    -15.1 8.305e+03 1.244e-10
 60.62322    -14.5 7.811e+03 8.617e-11
 60.66397    -12.6 7.604e+03 8.143e-11
 60.69655    -10.3 7.538e+03 9.788e-11
 60.71693     -9.8 7.497e+03 9.463e-11
 60.74547     -7.1 7.531e+03 9.321e-11
 60.78622     -4.8 7.540e+03 9.278e-11
 60.82697     -2.9 7.502e+03 1.040e-10
 60.85347     -0.6 7.490e+03 1.153e-10
 60.86811     -0.8 7.452e+03 1.059e-10
 60.88235     -0.8 7.562e+03 9.304e-11
 60.90847      1.3 7.601e+03 1.057e-10
 60.94921      3.4 7.708e+03 1.185e-10
 60.98996      5.0 7.924e+03 1.415e-10
 61.03071      4.5 8.429e+03 2.079e-10
 61.07146      6.2 8.611e+03 2.957e-10
 61.11221      8.0 9.077e+03 3.716e-10
 61.14694      9.2 9.962e+03 4.505e-10
 61.16722      2.7 1.286e+04 1.075e-09
 61.18333      3.6 1.343e+04 1.202e-09
 61.19991      3.7 1.398e+04 1.504e-09
 61.21010      2.6 1.513e+04 2.439e-09
 61.22408      3.0 1.537e+04 3.139e-09
 61.23539      3.8 1.562e+04 4.064e-09
 61.24558      2.5 1.541e+04 5.878e-09
 61.26483      3.9 1.577e+04 7.027e-09
 61.28520      5.4 1.608e+04 8.063e-09
 61.30366      6.9 1.634e+04 8.918e-09
 61.31385      6.9 1.608e+04 7.968e-09
 61.32595      8.5 1.611e+04 7.605e-09
 61.34633      9.9 1.628e+04 7.241e-09
 61.36388     11.4 1.643e+04 6.709e-09
 61.37407     11.0 1.618e+04 5.405e-09
 61.38213     12.6 1.593e+04 4.460e-09
 61.39231     10.6 1.423e+04 1.132e-09
 61.40745     11.5 1.373e+04 8.965e-10
 61.42782     12.2 1.380e+04 8.188e-10
 61.44820     13.0 1.366e+04 7.173e-10
 61.46059     13.9 1.313e+04 5.917e-10
 61.47077     10.9 8.921e+03 1.772e-10
 61.48895     11.9 8.761e+03 1.670e-10
 61.50932     13.7 8.565e+03 1.539e-10
 61.52785     15.0 8.574e+03 1.549e-10
 61.53720     15.2 8.548e+03 1.786e-10
 61.53905     14.9 8.222e+03 1.524e-10
 61.55007     17.4 8.168e+03 1.453e-10
 61.57045     18.2 8.214e+03 1.473e-10
 61.59082     20.8 8.176e+03 1.436e-10
 61.60732     21.8 8.221e+03 1.465e-10
 61.61760     21.4 8.051e+03 1.203e-10
 61.64195     25.1 8.078e+03 1.219e-10
 61.68270     28.7 8.123e+03 1.264e-10
 61.72345     32.3 8.152e+03 1.318e-10
 61.75425     36.0 8.196e+03 1.396e-10
 61.77462     35.8 7.886e+03 1.075e-10
 61.80495     39.4 8.023e+03 1.278e-10
 61.84570     43.0 8.181e+03 1.526e-10
 61.88645     47.1 8.418e+03 1.913e-10
 61.91117     50.8 8.640e+03 2.234e-10
 61.93154     50.6 8.437e+03 2.099e-10
 61.96795     54.3 8.658e+03 2.488e-10
 62.00870     58.1 8.877e+03 2.809e-10
 62.04772     61.9 9.104e+03 3.075e-10
 62.06809     61.6 8.709e+03 2.354e-10
 62.09020     65.5 8.921e+03 2.555e-10
 62.13095     69.6 9.266e+03 2.839e-10
 62.17170     73.3 9.668e+03 3.092e-10
 62.19402     75.0 9.742e+03 3.132e-10
 62.20411     73.7 9.919e+03 3.682e-10
 62.21463     75.3 1.015e+04 4.125e-10
 62.22482     74.9 9.929e+03 3.560e-10
 62.24281     76.6 1.015e+04 4.057e-10
 62.26319     78.3 1.049e+04 5.020e-10
 62.28290     78.6 1.142e+04 6.819e-10
 62.29309     79.0 1.064e+04 5.396e-10
 62.30394     79.0 1.237e+04 9.251e-10
 62.32431     77.9 1.710e+04 2.673e-09
 62.33954     77.3 1.894e+04 4.108e-09
 62.34968     75.6 2.075e+04 6.679e-09
 62.35780     72.7 2.238e+04 1.310e-08
 62.36289     72.0 2.203e+04 1.395e-08
 62.36636     69.4 2.230e+04 2.567e-08
 62.37145     71.8 2.330e+04 2.023e-08
 62.38024     69.3 2.307e+04 3.950e-08
 62.39043     67.3 2.347e+04 5.317e-08
 62.40050     64.8 2.402e+04 5.067e-08
 62.40559     66.4 2.485e+04 6.922e-08
 62.41081     61.3 3.067e+04 5.305e-08
 62.42099     52.3 4.370e+04 2.321e-08
 62.43118     41.4 5.821e+04 7.612e-09
 62.43973     31.2 5.225e+04 5.012e-09
 62.44324     35.0 4.057e+04 5.037e-08
 62.44488     37.2 6.167e+04 6.156e-09
 62.45156     27.3 4.243e+04 7.077e-09
 62.46174     19.8 2.556e+04 7.546e-09
 62.47193     18.6 2.349e+04 7.509e-09
 62.47896     18.8 2.311e+04 8.059e-09
 62.48405     17.8 2.373e+04 1.463e-08
 62.49231     18.7 2.345e+04 1.513e-08
 62.50249     20.0 2.313e+04 1.640e-08
 62.51268     21.0 2.303e+04 1.831e-08
 62.51819     22.0 2.303e+04 2.077e-08
 62.52218     21.8 2.332e+04 2.973e-08
 62.52686     22.5 2.286e+04 1.989e-08
 62.53306     23.2 2.295e+04 2.245e-08
 62.54324     24.2 2.286e+04 2.506e-08
 62.55232     25.2 2.275e+04 2.742e-08
 62.55742     25.1 2.319e+04 3.175e-08
 62.56362     26.4 2.319e+04 3.486e-08
 62.57380     27.5 2.362e+04 3.961e-08
 62.58399     28.1 2.411e+04 4.491e-08
 62.59155     28.6 2.430e+04 4.774e-08
 62.59665     28.4 2.401e+04 4.228e-08
 62.60376     29.2 2.395e+04 4.131e-08
 62.60885     29.7 2.339e+04 3.805e-08
 62.61455     30.4 2.316e+04 3.765e-08
 62.62474     31.3 2.326e+04 3.757e-08
 62.63078     32.1 2.369e+04 4.027e-08
 62.63588     31.5 2.350e+04 2.932e-08
 62.64512     32.3 2.394e+04 3.166e-08
 62.65530     32.7 2.472e+04 3.630e-08
 62.66492     32.8 2.590e+04 4.469e-08
 62.67001     32.5 2.483e+04 2.539e-08
 62.67568     32.5 2.591e+04 3.017e-08
 62.68574     32.2 2.715e+04 4.032e-08
 62.69084     32.5 2.668e+04 4.224e-08
 62.69605     31.7 2.726e+04 6.292e-08
 62.70415     31.0 2.630e+04 1.148e-07
 62.70924     30.8 2.817e+04 4.577e-08
 62.71643     29.7 2.714e+04 9.490e-08
 62.72661     28.1 2.539e+04 1.998e-07
 62.73680     26.9 2.378e+04 2.869e-07
 62.74338     27.4 2.314e+04 2.955e-07
 62.74847     27.5 2.540e+04 1.472e-07
 62.75718     28.2 2.418e+04 1.878e-07
 62.76736     29.2 2.352e+04 1.976e-07
 62.77282     30.3 2.349e+04 1.831e-07
 62.77788     29.9 2.416e+04 1.454e-07
 62.78770     30.6 2.385e+04 1.428e-07
 62.79793     32.0 2.365e+04 1.399e-07
 62.80811     32.6 2.375e+04 1.432e-07
 62.81675     31.7 2.406e+04 1.660e-07
 62.82184     31.4 2.334e+04 1.954e-07
 62.82849     27.0 2.257e+04 4.803e-07
 62.83868     20.2 2.092e+04 1.090e-06
 62.84886     15.0 2.054e+04 1.082e-06
 62.85481     13.3 2.062e+04 7.632e-07
 62.85683     14.4 2.021e+04 6.018e-07
 62.86107     15.0 2.012e+04 7.943e-07
 62.86924     14.6 2.111e+04 4.728e-07
 62.87943     13.6 2.402e+04 1.902e-07
 62.88961     12.0 2.805e+04 6.492e-08
 62.89521     10.5 2.929e+04 3.061e-08
 62.90030     10.0 2.533e+04 4.504e-08
 62.90999     10.1 2.394e+04 3.428e-08
 62.92017     11.5 2.395e+04 2.850e-08
 62.92934     13.2 2.459e+04 2.341e-08
 62.93444     14.1 2.313e+04 2.954e-08
 62.93679     15.7 2.371e+04 2.639e-08
 62.94189     16.0 2.287e+04 2.219e-08
 62.95074     17.0 2.346e+04 1.835e-08
 62.96092     18.2 2.346e+04 1.595e-08
 62.96862     19.5 2.375e+04 1.316e-08
 62.97886     20.7 2.336e+04 2.050e-08
 62.99668     22.7 2.353e+04 1.887e-08
 63.01378     24.6 2.376e+04 1.697e-08
 63.02397     24.8 2.120e+04 1.226e-08
 63.03695     26.4 2.114e+04 1.097e-08
 63.04713     28.1 2.171e+04 1.572e-08
 63.05780     29.3 2.207e+04 1.458e-08
 63.07303     29.4 2.228e+04 1.351e-08
 63.08117     29.2 2.237e+04 1.339e-08
 63.08627     30.5 2.265e+04 1.524e-08
 63.09336     30.9 2.252e+04 1.465e-08
 63.10076     31.0 2.260e+04 1.441e-08
 63.10586     31.1 2.220e+04 1.325e-08
 63.11373     31.4 2.168e+04 1.191e-08
 63.12040     31.2 2.145e+04 1.128e-08
 63.12554     33.0 2.269e+04 1.484e-08
 63.13930     33.2 2.201e+04 1.260e-08
 63.15967     33.4 2.037e+04 8.898e-09
 63.17775     33.1 1.832e+04 5.685e-09
 63.18794     34.1 1.684e+04 5.143e-09
 63.19387     33.8 1.489e+04 3.700e-09
 63.20405     38.1 1.927e+04 6.116e-09
 63.22080     37.3 1.704e+04 3.650e-09
 63.24117     35.4 1.543e+04 2.444e-09
 63.26155     32.7 1.470e+04 1.963e-09
 63.27233     30.6 1.391e+04 1.849e-09
 63.28251     34.0 1.693e+04 2.066e-09
 63.30230     31.8 1.432e+04 2.048e-09
 63.32267     31.6 1.385e+04 2.170e-09
 63.34060     31.8 1.398e+04 2.472e-09
 63.34946     33.5 1.479e+04 2.582e-09
 63.35191     37.3 1.426e+04 2.005e-09
 63.36342     37.2 1.413e+04 2.354e-09
 63.38380     37.1 1.500e+04 2.992e-09
 63.40417     35.0 1.710e+04 4.403e-09
 63.41906     32.3 1.848e+04 6.766e-09
 63.42925     34.7 1.818e+04 6.429e-09
 63.43978     35.0 1.818e+04 6.298e-09
 63.44992     35.3 1.772e+04 5.770e-09
 63.45819     35.6 1.686e+04 4.508e-09
 63.46329     36.1 1.660e+04 4.300e-09
 63.47029     35.5 1.564e+04 3.633e-09
 63.48048     34.2 1.517e+04 2.876e-09
 63.49067     33.1 1.484e+04 2.465e-09
 63.49747     29.8 1.554e+04 1.982e-09
 63.50736     32.2 1.551e+04 1.834e-09
 63.51583     33.0 1.772e+04 2.411e-09
 63.52637     33.4 1.946e+04 1.974e-09
 63.54679     27.3 1.623e+04 8.795e-10
 63.56579     20.9 1.160e+04 5.525e-10
 63.57598     23.0 1.155e+04 5.302e-10
 63.58754     21.8 1.114e+04 4.785e-10
 63.60792     20.9 1.108e+04 4.515e-10
 63.62829     19.5 1.110e+04 4.190e-10
 63.64425     17.4 1.122e+04 4.136e-10
 63.65444     19.1 1.141e+04 4.015e-10
 63.66904     16.0 1.154e+04 4.106e-10
 63.67985     12.9 1.149e+04 4.411e-10
 63.69004     15.1 1.151e+04 4.064e-10
 63.70979     11.4 1.268e+04 4.844e-10
 63.72271    -12.2 6.496e+04 2.837e-10
 63.73290    -57.1 1.069e+05 6.454e-10
 63.74540    -75.0 1.007e+05 1.248e-09
 63.75554    -84.3 4.420e+04 5.497e-08
 63.76172    -88.3 2.279e+04 1.348e-06
 63.76291    -91.2 2.080e+04 3.307e-06
 63.76435    -92.9 1.811e+04 1.168e-05
 63.76822    -92.3 1.613e+04 5.222e-05
 63.77332    -90.8 1.347e+04 6.448e-04
 63.77841    -90.5 1.131e+04 2.805e-03
 63.78141    -90.9 1.256e+04 1.157e-03
 63.78396    -90.3 1.396e+04 2.844e-04
 63.78860    -89.7 1.633e+04 3.890e-05
 63.79369    -90.6 1.827e+04 9.490e-06
 63.79848    -95.9 2.398e+04 1.487e-06
 63.80103    -96.1 3.085e+04 4.015e-07
 63.80645   -116.5 5.790e+04 1.369e-08
 63.81666   -147.1 5.503e+04 1.777e-09
 63.82685   -169.7 2.001e+04 9.821e-10
 63.83521   -172.6 1.387e+04 8.956e-10
 63.84031   -172.9 1.382e+04 9.967e-10
 63.84378   -171.2 1.394e+04 8.083e-10
 63.85401   -173.1 1.245e+04 8.191e-10
 63.86945   -169.9 1.151e+04 6.996e-10
 63.87964   -169.4 1.188e+04 8.345e-10
 63.89316   -166.0 1.143e+04 7.222e-10
 63.91354   -162.7 1.095e+04 6.148e-10
 63.93391   -159.4 1.055e+04 5.177e-10
 63.94791   -156.3 1.024e+04 4.415e-10
 63.95810   -155.7 1.030e+04 4.674e-10
 63.97466   -153.0 1.006e+04 4.052e-10
 63.99504   -150.6 9.938e+03 3.773e-10
 64.00780   -148.9 9.899e+03 3.709e-10
 64.01798   -148.5 9.922e+03 3.948e-10
 64.02647   -146.2 9.850e+03 3.721e-10
 64.04694   -145.7 9.756e+03 3.583e-10
 64.08692   -142.1 9.637e+03 3.444e-10
 64.12767   -138.7 9.660e+03 3.484e-10
 64.15813   -136.5 9.923e+03 3.881e-10
 64.17177   -136.1 1.013e+04 4.487e-10
 64.17665   -136.4 1.034e+04 5.366e-10
 64.18329   -136.4 1.016e+04 4.548e-10
 64.19879   -135.5 1.063e+04 6.268e-10
 64.21916   -134.6 1.107e+04 8.345e-10
 64.23953   -133.7 1.149e+04 1.045e-09
 64.25156   -132.9 1.181e+04 1.223e-09
 64.26175   -133.1 1.186e+04 1.254e-09
 64.28028   -132.5 1.210e+04 1.394e-09
 64.30066   -132.0 1.216e+04 1.426e-09
 64.31984   -131.6 1.214e+04 1.410e-09
 64.33002   -131.7 1.232e+04 1.520e-09
 64.33574   -131.3 1.215e+04 1.376e-09
 64.34593   -131.5 1.204e+04 1.285e-09
 64.36178   -131.3 1.176e+04 1.079e-09
 64.38216   -131.1 1.143e+04 9.041e-10
 64.39830   -131.0 1.113e+04 7.814e-10
 64.40848   -131.2 1.129e+04 8.572e-10
 64.42291   -131.0 1.104e+04 7.654e-10
 64.44328   -130.7 1.084e+04 7.041e-10
 64.46366   -130.3 1.070e+04 6.611e-10
 64.47676   -130.0 1.058e+04 6.288e-10
 64.48695   -130.2 1.069e+04 6.632e-10
 64.49971   -129.8 1.054e+04 6.198e-10
 64.50990   -130.3 1.054e+04 6.264e-10
 64.52478   -129.9 1.042e+04 5.938e-10
 64.54503   -129.6 1.036e+04 5.787e-10
 64.55522   -129.8 1.033e+04 5.591e-10
 64.56553   -129.5 1.032e+04 5.540e-10
 64.58590   -129.3 1.033e+04 5.562e-10
 64.60628   -129.1 1.043e+04 5.793e-10
 64.62349   -129.0 1.054e+04 6.129e-10
 64.63368   -129.2 1.053e+04 6.014e-10
 64.64703   -129.1 1.064e+04 6.358e-10
 64.66368   -129.0 1.072e+04 6.618e-10
 64.67387   -129.4 1.081e+04 6.879e-10
 64.68778   -129.2 1.084e+04 6.973e-10
 64.70195   -129.1 1.083e+04 6.982e-10
 64.71214   -129.4 1.083e+04 6.948e-10
 64.72853   -129.2 1.070e+04 6.678e-10
 64.74890   -129.0 1.054e+04 5.865e-10
 64.76928   -128.9 1.036e+04 4.844e-10
 64.78041   -128.9 1.020e+04 3.886e-10
 64.79060   -129.7 1.022e+04 3.849e-10
 64.81003   -130.1 1.010e+04 3.141e-10
 64.82765   -130.5 1.006e+04 2.847e-10
 64.83794   -131.6 1.002e+04 2.742e-10
 64.86116   -131.5 9.752e+03 2.248e-10
 64.90191   -131.7 9.693e+03 2.096e-10
 64.92734   -132.9 9.812e+03 2.099e-10
 64.93743   -135.4 1.045e+04 2.213e-10
 64.95265   -137.8 1.134e+04 3.332e-10
 64.97302   -139.6 1.159e+04 4.601e-10
 64.99162   -142.5 1.379e+04 8.864e-10
 65.00181   -143.1 1.367e+04 9.228e-10
 65.00561   -146.1 1.602e+04 1.964e-09
 65.01579   -150.3 1.804e+04 5.124e-09
 65.03415   -151.7 1.939e+04 1.023e-08
 65.05452   -152.9 2.037e+04 1.856e-08
 65.06976   -154.7 2.101e+04 2.986e-08
 65.07861   -155.2 2.101e+04 3.168e-08
 65.08268   -155.1 2.048e+04 2.396e-08
 65.08397   -156.3 2.049e+04 2.423e-08
 65.09008   -156.9 2.034e+04 2.452e-08
 65.10027   -157.1 1.989e+04 2.156e-08
 65.11560   -157.6 1.841e+04 1.451e-08
 65.13602   -158.4 1.685e+04 8.104e-09
 65.15234   -159.2 1.560e+04 5.076e-09
 65.16173   -161.6 1.440e+04 3.624e-09
 65.16578   -160.9 1.428e+04 3.376e-09
 65.17677   -161.7 1.332e+04 2.259e-09
 65.19715   -162.4 1.260e+04 1.597e-09
 65.21752   -162.9 1.207e+04 1.175e-09
 65.23080   -163.5 1.157e+04 8.818e-10
 65.24099   -164.5 1.169e+04 8.991e-10
 65.25827   -165.0 1.126e+04 6.970e-10
 65.27864   -165.4 1.083e+04 5.594e-10
 65.29902   -165.8 1.044e+04 4.697e-10
 65.31939   -166.5 1.065e+04 4.928e-10
 65.32975   -166.6 1.035e+04 4.471e-10
 65.33994   -166.3 9.955e+03 3.908e-10
 65.36014   -165.9 9.855e+03 3.823e-10
 65.37753   -165.2 9.819e+03 3.802e-10
 65.38772   -165.7 1.023e+04 4.779e-10
 65.40089   -164.7 1.019e+04 4.836e-10
 65.42127   -163.6 1.021e+04 4.855e-10
 65.44164   -162.5 1.022e+04 4.835e-10
 65.45599   -161.6 1.044e+04 4.938e-10
 65.46618   -161.6 1.077e+04 6.515e-10
 65.48239   -161.2 1.123e+04 7.009e-10
 65.49373   -161.2 1.207e+04 8.517e-10
 65.50391   -160.5 1.190e+04 8.401e-10
 65.52314   -160.6 1.283e+04 1.139e-09
 65.53446   -160.8 1.393e+04 1.731e-09
 65.54464   -160.9 1.439e+04 2.198e-09
 65.56389   -160.8 1.550e+04 3.662e-09
 65.58427   -160.4 1.645e+04 5.889e-09
 65.60273   -159.8 1.717e+04 8.457e-09
 65.61292   -159.6 1.776e+04 1.039e-08
 65.62501   -159.3 1.825e+04 1.248e-08
 65.64539   -159.8 1.834e+04 1.300e-08
 65.65770   -160.1 1.785e+04 1.219e-08
 65.66788   -159.5 1.778e+04 1.122e-08
 65.68119   -159.6 1.693e+04 9.345e-09
 65.69138   -159.3 1.800e+04 1.268e-08
 65.70651   -159.3 1.705e+04 9.684e-09
 65.72689   -159.6 1.606e+04 7.211e-09
 65.74726   -159.9 1.506e+04 5.368e-09
 65.75965   -160.2 1.415e+04 4.020e-09
 65.76984   -160.1 1.473e+04 4.511e-09
 65.78801   -160.3 1.375e+04 3.308e-09
 65.80839   -160.5 1.303e+04 2.516e-09
 65.82167   -160.7 1.255e+04 1.992e-09
 65.83102   -160.2 1.257e+04 1.981e-09
 65.83811   -160.2 1.309e+04 2.446e-09
 65.84914   -160.1 1.247e+04 1.916e-09
 65.86951   -159.5 1.207e+04 1.548e-09
 65.88989   -158.9 1.173e+04 1.265e-09
 65.90638   -158.3 1.143e+04 1.045e-09
 65.91657   -158.1 1.159e+04 1.135e-09
 65.93064   -157.5 1.126e+04 9.164e-10
 65.95101   -156.8 1.101e+04 7.845e-10
 65.97138   -156.4 1.088e+04 7.244e-10
 65.98484   -155.4 1.062e+04 6.197e-10
 65.98891   -155.2 1.062e+04 6.195e-10
 65.99583   -155.0 1.060e+04 6.016e-10
 66.01213   -154.4 1.049e+04 5.551e-10
 66.03251   -153.4 1.040e+04 5.067e-10
 66.05288   -152.7 1.040e+04 4.929e-10
 66.06330   -152.0 1.041e+04 4.892e-10
 66.07349   -151.6 1.024e+04 4.537e-10
 66.09363   -151.0 1.026e+04 4.480e-10
 66.11401   -150.6 1.036e+04 4.636e-10
 66.13158   -150.2 1.050e+04 5.045e-10
 66.14176   -149.5 1.011e+04 4.089e-10
 66.14961   -149.2 1.026e+04 4.425e-10
 66.15980   -149.2 1.052e+04 5.382e-10
 66.17513   -149.1 1.070e+04 6.125e-10
 66.19551   -149.0 1.089e+04 7.033e-10
 66.21004   -148.9 1.107e+04 8.015e-10
 66.22023   -148.2 1.058e+04 5.842e-10
 66.23626   -148.3 1.075e+04 6.668e-10
 66.25663   -148.3 1.092e+04 7.534e-10
 66.27701   -148.4 1.110e+04 8.357e-10
 66.28850   -148.6 1.127e+04 9.060e-10
 66.29869   -147.9 1.092e+04 7.505e-10
 66.31358   -148.0 1.113e+04 8.353e-10
 66.32377   -148.3 1.148e+04 9.550e-10
 66.33813   -148.7 1.167e+04 1.043e-09
 66.35677   -149.0 1.178e+04 1.110e-09
 66.36696   -148.0 1.162e+04 1.023e-09
 66.37888   -148.3 1.173e+04 1.093e-09
 66.39925   -148.4 1.176e+04 1.115e-09
 66.41963   -148.5 1.172e+04 1.076e-09
 66.43523   -148.7 1.162e+04 9.446e-10
 66.44542   -147.7 1.169e+04 1.027e-09
 66.46038   -147.9 1.155e+04 8.561e-10
 66.47755   -148.3 1.131e+04 6.643e-10
 66.48774   -148.8 1.130e+04 6.536e-10
 66.50113   -149.0 1.092e+04 5.396e-10
 66.53179   -148.9 1.073e+04 4.889e-10
 66.57197   -148.3 1.056e+04 4.370e-10
 66.59235   -147.6 1.060e+04 4.489e-10
 66.61338   -147.5 1.055e+04 4.360e-10
 66.65413   -147.9 1.072e+04 4.456e-10
 66.69488   -150.2 1.176e+04 6.426e-10
 66.72535   -152.0 1.250e+04 9.725e-10
 66.73889   -154.0 1.345e+04 1.445e-09
 66.74907   -153.2 1.307e+04 1.292e-09
 66.76600   -155.5 1.407e+04 1.972e-09
 66.78637   -158.2 1.507e+04 2.771e-09
 66.80549   -161.6 1.582e+04 3.486e-09
 66.81568   -161.1 1.747e+04 5.919e-09
 66.81735   -164.7 1.769e+04 6.204e-09
 66.82753   -163.4 1.686e+04 4.844e-09
 66.84235   -166.8 1.665e+04 4.446e-09
 66.85139   -168.3 1.646e+04 4.278e-09
 66.85648   -167.5 1.653e+04 4.297e-09
 66.86782   -170.7 1.585e+04 3.747e-09
 66.88562   -174.3 1.438e+04 2.565e-09
 66.89581   -173.7 1.399e+04 2.157e-09
 66.90862   -176.7 1.259e+04 1.448e-09
 66.92900   -178.7 1.174e+04 9.977e-10
 66.94937   -180.0 1.128e+04 7.145e-10
 66.96408   -180.9 1.105e+04 5.427e-10
 66.97399   -180.3 1.099e+04 5.513e-10
 66.97965   -181.2 1.101e+04 4.979e-10
 66.99012   -181.9 1.089e+04 4.177e-10
 67.01049   -182.4 1.077e+04 3.737e-10
 67.03087   -182.6 1.064e+04 3.464e-10
 67.04254   -182.7 1.055e+04 3.264e-10
 67.05273   -182.3 1.047e+04 3.094e-10
 67.07162   -182.3 1.037e+04 2.890e-10
 67.09199   -181.9 1.033e+04 2.765e-10
 67.11081   -181.6 1.033e+04 2.715e-10
 67.12100   -181.1 1.027e+04 2.584e-10
 67.13274   -180.9 1.028e+04 2.558e-10
 67.14362   -180.8 1.029e+04 2.556e-10
 67.15381   -181.6 1.046e+04 2.723e-10
 67.17349   -181.8 1.066e+04 2.744e-10
 67.18928   -182.3 1.092e+04 2.966e-10
 67.19946   -182.1 1.094e+04 2.857e-10
 67.21424   -183.0 1.121e+04 3.520e-10
 67.23462   -183.7 1.141e+04 4.950e-10
 67.25499   -184.5 1.176e+04 7.640e-10
 67.26774   -185.3 1.249e+04 1.259e-09
 67.27792   -184.4 1.193e+04 1.009e-09
 67.29574   -185.7 1.330e+04 1.698e-09
 67.30760   -187.7 1.506e+04 3.018e-09
 67.31778   -190.3 1.589e+04 4.241e-09
 67.33601   -192.8 1.689e+04 6.196e-09
 67.34620   -193.6 1.747e+04 7.305e-09
 67.35686   -195.8 1.798e+04 9.651e-09
 67.37724   -197.8 1.817e+04 1.059e-08
 67.39761   -199.8 1.806e+04 1.041e-08
 67.41447   -202.0 1.730e+04 7.589e-09
 67.42466   -202.5 1.766e+04 8.367e-09
 67.43836   -205.7 1.605e+04 4.668e-09
 67.45874   -209.8 1.381e+04 2.602e-09
 67.47157   -213.4 1.181e+04 1.679e-09
 67.48175   -215.2 1.089e+04 1.105e-09
 67.49293   -215.9 1.074e+04 1.024e-09
 67.50312   -216.1 1.050e+04 9.000e-10
 67.51986   -216.3 1.046e+04 8.785e-10
 67.54024   -216.4 1.044e+04 8.673e-10
 67.56061   -216.4 1.038e+04 8.514e-10
 67.57139   -216.3 1.031e+04 8.318e-10
 67.58158   -216.4 1.013e+04 7.414e-10
 67.60136   -216.1 1.010e+04 7.412e-10
 67.62174   -215.6 1.009e+04 7.373e-10
 67.63554   -215.1 1.008e+04 7.261e-10
 67.64328   -215.6 1.032e+04 8.280e-10
 67.64985   -215.7 1.020e+04 7.902e-10
 67.66249   -215.2 1.024e+04 8.047e-10
 67.68286   -214.6 1.025e+04 8.073e-10
 67.70323   -214.0 1.018e+04 7.822e-10
 67.71812   -213.3 1.008e+04 7.571e-10
 67.72831   -213.2 1.007e+04 7.596e-10
 67.74398   -212.4 9.983e+03 7.276e-10
 67.76436   -211.6 9.888e+03 6.904e-10
 67.78473   -210.7 9.818e+03 6.591e-10
 67.79658   -209.9 9.759e+03 6.311e-10
 67.80117   -209.8 9.765e+03 6.397e-10
 67.80970   -210.5 9.635e+03 6.049e-10
 67.82548   -209.6 9.552e+03 5.780e-10
 67.84586   -208.7 9.495e+03 5.616e-10
 67.87652   -207.8 9.464e+03 5.498e-10
 67.91736   -205.5 9.393e+03 5.469e-10
 67.94351   -203.8 9.376e+03 5.379e-10
 67.96389   -203.8 9.366e+03 5.330e-10
 67.99886   -202.3 9.372e+03 5.181e-10
 68.03961   -201.0 9.333e+03 4.901e-10
 68.08006   -199.7 9.287e+03 4.662e-10
 68.10043   -199.7 9.358e+03 4.914e-10
 68.11746   -198.6 9.398e+03 5.048e-10
 68.13783   -200.0 8.937e+03 3.887e-10
 68.16186   -198.8 8.864e+03 3.743e-10
 68.20261   -197.7 8.695e+03 3.380e-10
 68.23698   -196.5 8.453e+03 2.817e-10
 68.25736   -196.2 8.781e+03 3.684e-10
 68.28411   -194.9 8.484e+03 2.894e-10
 68.32486   -193.7 8.196e+03 2.220e-10
 68.36561   -192.6 7.980e+03 1.754e-10
 68.39390   -191.7 7.863e+03 1.486e-10
 68.41428   -191.2 8.100e+03 1.861e-10
 68.44540   -190.4 8.053e+03 1.655e-10
 68.46578   -191.6 7.851e+03 1.302e-10
 68.48786   -191.0 7.909e+03 1.319e-10
 68.52861   -190.5 8.081e+03 1.519e-10
 68.55082   -190.0 8.231e+03 1.812e-10
 68.57120   -189.7 8.299e+03 1.965e-10
 68.61010   -189.1 8.400e+03 2.176e-10
 68.65085   -188.6 8.528e+03 2.382e-10
 68.68737   -188.0 8.673e+03 2.588e-10
 68.70774   -187.6 8.660e+03 2.568e-10
 68.73235   -187.0 8.799e+03 2.692e-10
 68.77310   -186.6 8.926e+03 2.760e-10
 68.79372   -186.3 8.972e+03 2.770e-10
 68.81409   -187.9 8.874e+03 2.682e-10
 68.84429   -187.7 8.877e+03 2.503e-10
 68.86466   -187.0 8.916e+03 2.474e-10
 68.89535   -186.8 8.893e+03 2.264e-10
 68.93610   -186.4 8.905e+03 2.024e-10
 68.97685   -186.0 8.930e+03 1.841e-10
 69.00121   -185.7 8.975e+03 1.742e-10
 69.02159   -185.8 9.266e+03 2.315e-10
 69.05835   -185.5 9.255e+03 2.137e-10
 69.09910   -185.0 9.265e+03 2.054e-10
 69.12166   -184.4 9.489e+03 2.227e-10
 69.13995   -185.5 9.344e+03 1.881e-10
 69.15813   -185.2 9.214e+03 1.754e-10
 69.18060   -184.6 9.499e+03 2.229e-10
 69.22135   -183.8 9.781e+03 2.978e-10
 69.26210   -182.9 1.000e+04 3.698e-10
 69.29468   -181.9 1.011e+04 4.035e-10
 69.31505   -181.2 9.862e+03 3.132e-10
 69.34359   -179.9 9.914e+03 3.276e-10
 69.38434   -178.5 9.917e+03 3.286e-10
 69.42509   -176.8 9.849e+03 3.054e-10
 69.44960   -175.1 9.788e+03 2.832e-10
 69.45574   -175.7 9.660e+03 2.522e-10
 69.47197   -175.1 9.674e+03 2.519e-10
 69.50659   -173.5 9.736e+03 2.607e-10
 69.54734   -172.0 9.940e+03 3.019e-10
 69.58809   -170.5 1.019e+04 3.671e-10
 69.62884   -168.6 1.051e+04 5.079e-10
 69.66959   -167.2 1.063e+04 5.570e-10
 69.71034   -165.7 1.064e+04 5.658e-10
 69.74507   -164.0 1.058e+04 5.500e-10
 69.76544   -163.7 1.066e+04 6.236e-10
 69.77755   -161.8 1.057e+04 5.818e-10
 69.79792   -162.8 1.050e+04 5.019e-10
 69.83259   -161.3 1.051e+04 4.996e-10
 69.87334   -160.1 1.075e+04 5.575e-10
 69.90199   -159.3 1.122e+04 7.369e-10
 69.92236   -159.4 1.130e+04 8.204e-10
 69.95484   -158.9 1.168e+04 1.021e-09
 69.99558   -158.8 1.186e+04 1.130e-09
 70.03633   -158.8 1.187e+04 1.125e-09
 70.05891   -158.7 1.165e+04 9.152e-10
 70.07928   -158.7 1.146e+04 8.551e-10
 70.10549   -158.3 1.105e+04 5.780e-10
 70.12586   -160.2 1.082e+04 4.105e-10
 70.15858   -160.0 1.074e+04 3.663e-10
 70.19545   -160.0 1.071e+04 3.579e-10
 70.21583   -159.7 1.065e+04 3.425e-10
 70.24008   -159.9 1.093e+04 3.986e-10
 70.28083   -160.2 1.134e+04 5.239e-10
 70.32158   -161.0 1.187e+04 6.909e-10
 70.35238   -162.9 1.241e+04 8.939e-10
 70.37275   -163.5 1.266e+04 1.042e-09
 70.40308   -165.9 1.296e+04 1.272e-09
 70.43343   -168.4 1.299e+04 1.340e-09
 70.45381   -170.6 1.258e+04 1.107e-09
 70.48458   -172.1 1.212e+04 9.201e-10
 70.50930   -172.7 1.158e+04 6.476e-10
 70.52967   -172.6 1.116e+04 4.918e-10
 70.56608   -172.8 1.077e+04 3.481e-10
 70.60683   -172.7 1.059e+04 2.776e-10
 70.64584   -171.8 1.041e+04 2.430e-10
 70.66622   -171.3 1.014e+04 1.957e-10
 70.68832   -170.1 1.006e+04 1.852e-10
 70.72907   -168.7 9.982e+03 1.785e-10
 70.76137   -167.2 9.902e+03 1.714e-10
 70.78175   -167.2 9.889e+03 1.598e-10
 70.80276   -165.6 9.840e+03 1.545e-10
 70.82314   -165.1 9.776e+03 1.359e-10
 70.85132   -163.4 9.748e+03 1.343e-10
 70.89207   -161.7 9.741e+03 1.335e-10
 70.93282   -160.2 9.745e+03 1.335e-10
 70.95969   -158.7 9.863e+03 1.364e-10
 70.98006   -158.3 9.785e+03 1.236e-10
 71.01432   -156.9 9.884e+03 1.385e-10
 71.05507   -155.5 9.967e+03 1.658e-10
 71.08932   -154.2 1.005e+04 2.016e-10
 71.10969   -154.1 1.010e+04 2.064e-10
 71.11661   -152.7 1.021e+04 2.514e-10
 71.13698   -152.2 1.000e+04 1.884e-10
 71.17732   -150.7 1.005e+04 2.131e-10
 71.21807   -149.0 1.009e+04 2.366e-10
 71.25315   -147.2 1.016e+04 2.603e-10
 71.27353   -146.6 1.001e+04 2.121e-10
 71.29957   -144.6 1.002e+04 2.221e-10
 71.34032   -142.5 1.008e+04 2.357e-10
 71.38107   -140.3 1.020e+04 2.595e-10
 71.41007   -138.2 1.039e+04 3.015e-10
 71.42589   -138.0 1.015e+04 2.357e-10
 71.43763   -137.8 1.004e+04 2.217e-10
 71.46256   -135.7 1.025e+04 2.690e-10
 71.50331   -133.9 1.052e+04 3.532e-10
 71.53378   -132.7 1.058e+04 4.160e-10
 71.55405   -132.1 1.059e+04 5.057e-10
 71.56680   -131.7 1.095e+04 6.472e-10
 71.57699   -131.6 1.073e+04 5.669e-10
 71.59122   -131.7 1.157e+04 7.859e-10
 71.60141   -131.1 1.122e+04 6.851e-10
 71.61518   -132.2 1.280e+04 1.096e-09
 71.63507   -134.6 1.468e+04 2.287e-09
 71.64526   -133.7 1.428e+04 1.653e-09
 71.65593   -136.0 1.612e+04 4.029e-09
 71.67630   -137.1 1.704e+04 8.528e-09
 71.69668   -137.7 1.808e+04 1.293e-08
 71.71353   -139.7 1.974e+04 1.481e-08
 71.72372   -139.0 1.952e+04 1.879e-08
 71.73228   -142.5 2.112e+04 2.010e-08
 71.74242   -145.5 2.244e+04 1.888e-08
 71.75261   -150.2 2.452e+04 1.570e-08
 71.75776   -155.3 2.571e+04 1.195e-08
 71.76025   -152.3 2.621e+04 1.531e-08
 71.76528   -152.9 2.663e+04 1.850e-08
 71.77299   -158.0 2.777e+04 1.349e-08
 71.78317   -164.9 2.586e+04 9.782e-09
 71.79194   -173.0 1.974e+04 7.465e-09
 71.79704   -167.5 2.578e+04 8.956e-09
 71.80355   -172.3 2.018e+04 8.117e-09
 71.81888   -174.9 1.864e+04 7.400e-09
 71.83930   -179.5 1.489e+04 4.610e-09
 71.85968   -182.2 1.333e+04 2.250e-09
 71.87045   -184.3 1.187e+04 1.076e-09
 71.88064   -182.8 1.262e+04 1.489e-09
 71.90042   -184.7 1.113e+04 7.248e-10
 71.91917   -185.5 1.084e+04 5.052e-10
 71.92935   -185.1 1.083e+04 4.636e-10
 71.93873   -185.0 1.077e+04 4.223e-10
 71.94891   -184.2 1.084e+04 4.266e-10
 71.96155   -184.1 1.080e+04 4.065e-10
 71.98192   -183.9 1.080e+04 4.026e-10
 72.00230   -183.9 1.082e+04 4.023e-10
 72.01719   -184.0 1.110e+04 4.333e-10
 72.02737   -183.3 1.105e+04 4.256e-10
 72.04305   -183.4 1.131e+04 5.141e-10
 72.06342   -183.6 1.153e+04 6.496e-10
 72.08314   -183.7 1.174e+04 8.068e-10
 72.09332   -182.7 1.171e+04 8.130e-10
 72.09565   -183.0 1.190e+04 9.575e-10
 72.10584   -182.5 1.186e+04 9.311e-10
 72.12455   -182.8 1.195e+04 1.033e-09
 72.14492   -183.3 1.196e+04 1.075e-09
 72.16392   -183.7 1.196e+04 1.082e-09
 72.17411   -183.0 1.194e+04 1.082e-09
 72.18567   -183.3 1.184e+04 1.075e-09
 72.20605   -183.6 1.165e+04 1.019e-09
 72.22642   -183.9 1.145e+04 9.444e-10
 72.24238   -184.1 1.129e+04 8.677e-10
 72.25257   -183.0 1.121e+04 8.570e-10
 72.25730   -183.1 1.102e+04 7.715e-10
 72.26748   -182.0 1.108e+04 7.829e-10
 72.28754   -182.0 1.090e+04 7.075e-10
 72.30792   -181.9 1.079e+04 6.490e-10
 72.32084   -182.1 1.079e+04 6.295e-10
 72.33103   -180.9 1.050e+04 5.492e-10
 72.34867   -181.1 1.047e+04 5.191e-10
 72.36904   -182.3 1.064e+04 5.165e-10
 72.38912   -184.9 1.233e+04 6.218e-10
 72.39930   -182.0 1.037e+04 4.517e-10
 72.40979   -184.9 1.204e+04 5.212e-10
 72.42127   -188.4 1.412e+04 1.051e-09
 72.43145   -188.6 1.489e+04 1.676e-09
 72.45054   -190.9 1.554e+04 3.416e-09
 72.46758   -192.4 1.582e+04 5.505e-09
 72.47776   -190.6 1.533e+04 3.398e-09
 72.49129   -192.0 1.565e+04 5.201e-09
 72.51167   -193.3 1.565e+04 6.002e-09
 72.53204   -194.6 1.553e+04 6.090e-09
 72.54604   -195.7 1.475e+04 5.132e-09
 72.55622   -194.6 1.508e+04 5.096e-09
 72.57279   -195.6 1.424e+04 3.981e-09
 72.58524   -196.8 1.327e+04 2.625e-09
 72.59542   -197.1 1.322e+04 2.563e-09
 72.61354   -198.4 1.222e+04 1.668e-09
 72.62450   -199.5 1.145e+04 1.160e-09
 72.63468   -198.4 1.187e+04 1.347e-09
 72.65429   -199.4 1.112e+04 9.558e-10
 72.67466   -200.2 1.086e+04 7.575e-10
 72.69277   -200.8 1.091e+04 6.829e-10
 72.70296   -200.2 1.075e+04 6.407e-10
 72.71541   -200.9 1.077e+04 5.758e-10
 72.73579   -201.4 1.080e+04 5.621e-10
 72.74921   -202.1 1.114e+04 5.633e-10
 72.75940   -202.6 1.240e+04 1.034e-09
 72.77123   -203.2 1.286e+04 1.227e-09
 72.78142   -202.9 1.165e+04 7.095e-10
 72.79691   -203.7 1.192e+04 7.467e-10
 72.81729   -204.3 1.207e+04 7.857e-10
 72.83766   -204.8 1.212e+04 8.169e-10
 72.84969   -205.1 1.208e+04 8.436e-10
 72.85988   -205.1 1.053e+04 5.445e-10
 72.87841   -205.3 1.057e+04 5.584e-10
 72.89879   -205.5 1.063e+04 5.823e-10
 72.91318   -205.5 1.071e+04 6.181e-10
 72.92217   -205.8 1.148e+04 8.727e-10
 72.92815   -205.8 1.060e+04 6.292e-10
 72.93953   -205.7 1.066e+04 6.558e-10
 72.95991   -205.5 1.066e+04 6.703e-10
 72.98028   -205.3 1.063e+04 6.723e-10
 72.99642   -205.0 1.045e+04 6.460e-10
 73.00661   -204.4 1.002e+04 5.113e-10
 73.02103   -203.7 9.854e+03 4.552e-10
 73.04141   -203.1 9.718e+03 4.055e-10
 73.06178   -202.6 9.648e+03 3.737e-10
 73.07489   -202.0 9.619e+03 3.552e-10
 73.08016   -201.4 9.479e+03 3.190e-10
 73.09772   -201.8 9.429e+03 3.139e-10
 73.13329   -200.5 9.149e+03 2.548e-10
 73.17404   -198.7 8.923e+03 2.121e-10
 73.21163   -196.9 8.854e+03 1.935e-10
 73.23200   -195.5 8.829e+03 1.886e-10
 73.25554   -193.9 8.835e+03 1.860e-10
 73.29629   -192.5 9.038e+03 2.066e-10
 73.33704   -191.2 9.331e+03 2.619e-10
 73.36855   -189.9 9.641e+03 3.455e-10
 73.38892   -189.0 9.708e+03 3.853e-10
 73.40529   -187.7 9.929e+03 4.856e-10
 73.42566   -186.8 9.540e+03 3.371e-10
 73.45929   -185.6 9.837e+03 4.617e-10
 73.50003   -184.5 1.008e+04 5.690e-10
 73.52547   -183.5 1.022e+04 6.237e-10
 73.54584   -182.5 1.017e+04 5.714e-10
 73.58153   -181.4 1.025e+04 6.110e-10
 73.62228   -180.3 1.030e+04 6.300e-10
 73.66202   -179.2 1.031e+04 6.335e-10
 73.68239   -178.1 1.037e+04 5.375e-10
 73.70378   -176.9 1.039e+04 5.449e-10
 73.73323   -175.6 1.038e+04 5.434e-10
 73.75361   -174.9 1.038e+04 5.555e-10
 73.78528   -173.7 1.032e+04 5.519e-10
 73.81894   -172.1 1.008e+04 4.698e-10
 73.83931   -170.8 1.049e+04 5.210e-10
 73.86678   -169.1 1.030e+04 4.680e-10
 73.90753   -167.2 1.005e+04 3.775e-10
 73.94828   -165.2 9.757e+03 2.814e-10
 73.97586   -163.3 9.448e+03 2.026e-10
 73.99623   -161.6 1.022e+04 4.014e-10
 74.02978   -159.7 9.999e+03 3.217e-10
 74.06117   -158.0 9.746e+03 2.545e-10
 74.08155   -158.0 9.719e+03 2.939e-10
 74.11128   -156.6 9.609e+03 2.551e-10
 74.13278   -155.8 9.590e+03 2.470e-10
 74.14287   -154.5 1.000e+04 3.747e-10
 74.16202   -154.3 9.954e+03 3.638e-10
 74.18239   -154.2 9.946e+03 3.613e-10
 74.20086   -154.3 9.953e+03 3.645e-10
 74.21104   -153.6 1.015e+04 4.522e-10
 74.22314   -153.9 1.027e+04 4.927e-10
 74.23514   -154.4 1.043e+04 5.599e-10
 74.24532   -154.5 1.074e+04 6.685e-10
 74.26389   -155.0 1.090e+04 7.561e-10
 74.27932   -155.6 1.101e+04 8.344e-10
 74.28950   -155.7 1.142e+04 1.065e-09
 74.30464   -156.6 1.158e+04 1.189e-09
 74.32502   -157.4 1.166e+04 1.269e-09
 74.35567   -158.5 1.171e+04 1.306e-09
 74.38912   -160.2 1.163e+04 1.300e-09
 74.40939   -161.2 1.199e+04 1.448e-09
 74.42605   -162.1 1.196e+04 1.420e-09
 74.43624   -163.2 1.225e+04 1.615e-09
 74.44726   -163.9 1.212e+04 1.595e-09
 74.46764   -164.4 1.197e+04 1.581e-09
 74.48801   -164.7 1.179e+04 1.552e-09
 74.50451   -164.9 1.158e+04 1.462e-09
 74.51470   -165.8 1.172e+04 1.521e-09
 74.52876   -165.8 1.148e+04 1.296e-09
 74.54914   -165.7 1.119e+04 1.013e-09
 74.56308   -165.5 1.082e+04 7.421e-10
 74.57327   -165.4 1.086e+04 7.137e-10
 74.58297   -165.1 1.040e+04 5.088e-10
 74.59316   -166.0 1.058e+04 5.392e-10
 74.61026   -165.6 9.999e+03 3.966e-10
 74.64092   -165.3 9.647e+03 3.228e-10
 74.68177   -164.7 9.403e+03 2.681e-10
 74.71706   -163.2 9.041e+03 2.046e-10
 74.73463   -162.8 9.014e+03 1.867e-10
 74.74009   -162.7 8.999e+03 1.960e-10
 74.76327   -160.9 8.727e+03 1.476e-10
 74.80402   -159.3 8.594e+03 1.172e-10
 74.84477   -157.8 8.554e+03 9.882e-11
 74.87663   -156.4 8.551e+03 8.926e-11
 74.89701   -156.2 8.653e+03 1.182e-10
 74.92626   -154.8 8.650e+03 1.166e-10
 74.96701   -153.5 8.652e+03 1.167e-10
 75.00776   -152.2 8.653e+03 1.174e-10
 75.03355   -150.9 8.671e+03 1.183e-10
 75.05042   -150.2 8.782e+03 1.445e-10
 75.06538   -150.1 8.791e+03 1.471e-10
 75.08926   -148.7 8.809e+03 1.341e-10
 75.13001   -147.4 8.832e+03 1.224e-10
 75.17010   -146.0 8.862e+03 1.139e-10
 75.19048   -145.5 8.970e+03 1.331e-10
 75.21151   -144.0 8.996e+03 1.283e-10
 75.25226   -142.6 9.005e+03 1.277e-10
 75.29301   -141.4 9.028e+03 1.284e-10
 75.32702   -140.7 9.276e+03 1.375e-10
 75.34740   -140.7 9.777e+03 2.673e-10
 75.37294   -140.2 1.030e+04 4.432e-10
 75.39332   -139.8 9.864e+03 2.890e-10
 75.41526   -139.4 1.044e+04 5.153e-10
 75.45601   -138.9 1.101e+04 8.458e-10
 75.48394   -138.6 1.149e+04 1.165e-09
 75.49403   -138.7 1.140e+04 1.096e-09
 75.50675   -138.7 1.147e+04 1.120e-09
 75.53741   -138.8 1.148e+04 1.116e-09
 75.57825   -138.7 1.150e+04 1.099e-09
 75.61900   -138.2 1.133e+04 8.911e-10
 75.64086   -137.1 1.105e+04 6.819e-10
 75.66124   -137.6 1.080e+04 4.750e-10
 75.70050   -136.3 1.058e+04 3.848e-10
 75.72126   -135.0 1.053e+04 3.453e-10
 75.74164   -134.8 1.055e+04 3.745e-10
 75.77741   -133.4 1.054e+04 3.651e-10
 75.79779   -133.6 1.042e+04 2.961e-10
 75.82275   -132.0 1.041e+04 2.783e-10
 75.86350   -130.5 1.039e+04 2.580e-10
 75.90425   -129.1 1.036e+04 2.368e-10
 75.93433   -127.7 1.033e+04 2.194e-10
 75.95471   -128.0 1.025e+04 1.886e-10
 75.98575   -126.6 1.026e+04 1.840e-10
 76.02650   -125.3 1.028e+04 1.846e-10
 76.04920   -124.0 1.034e+04 1.928e-10
 76.06958   -123.9 1.039e+04 1.767e-10
 76.09125   -122.6 1.044e+04 1.757e-10
 76.11163   -123.1 1.050e+04 1.957e-10
 76.14875   -121.9 1.052e+04 2.100e-10
 76.18950   -120.6 1.052e+04 2.286e-10
 76.22780   -119.2 1.052e+04 2.491e-10
 76.24817   -119.0 1.044e+04 3.706e-10
 76.27099   -117.3 1.037e+04 3.699e-10
 76.31174   -115.7 1.043e+04 3.273e-10
 76.35249   -114.1 1.054e+04 2.839e-10
 76.37715   -112.6 1.070e+04 2.544e-10
 76.38900   -112.3 1.054e+04 2.531e-10
 76.40509   -111.6 1.051e+04 2.275e-10
 76.43399   -110.0 1.067e+04 1.978e-10
 76.47474   -108.6 1.082e+04 1.868e-10
 76.51549   -107.2 1.088e+04 1.865e-10
 76.54164   -105.8 1.093e+04 1.882e-10
 76.56202   -105.2 1.081e+04 1.833e-10
 76.59699   -103.7 1.084e+04 1.845e-10
 76.63774   -102.0 1.087e+04 1.668e-10
 76.67819   -100.3 1.085e+04 1.386e-10
 76.69856    -99.5 1.085e+04 1.379e-10
 76.70509    -98.0 1.089e+04 1.102e-10
 76.72546    -97.9 1.089e+04 1.402e-10
 76.75999    -96.5 1.093e+04 1.242e-10
 76.80074    -95.2 1.098e+04 1.126e-10
 76.83511    -93.9 1.096e+04 1.086e-10
 76.85548    -93.5 1.105e+04 1.340e-10
 76.88224    -92.2 1.102e+04 1.374e-10
 76.92299    -90.9 1.098e+04 1.545e-10
 76.96374    -89.5 1.097e+04 1.727e-10
 76.99203    -88.1 1.098e+04 1.961e-10
 77.01240    -87.7 1.108e+04 2.715e-10
 77.03303    -86.2 1.103e+04 2.857e-10
 77.05341    -86.1 1.104e+04 2.568e-10
 77.08598    -84.7 1.105e+04 2.828e-10
 77.12673    -83.2 1.106e+04 3.108e-10
 77.14895    -81.8 1.106e+04 3.296e-10
 77.16932    -81.3 1.105e+04 3.371e-10
 77.20823    -79.8 1.100e+04 3.267e-10
 77.24898    -78.1 1.093e+04 3.090e-10
 77.28550    -76.4 1.091e+04 2.930e-10
 77.30587    -75.9 1.092e+04 2.659e-10
 77.33048    -74.3 1.094e+04 2.643e-10
 77.36097    -73.8 1.112e+04 2.825e-10
 77.38135    -73.3 1.112e+04 3.221e-10
 77.41198    -73.1 1.160e+04 5.362e-10
 77.44242    -72.8 1.221e+04 1.135e-09
 77.46279    -72.8 1.213e+04 1.058e-09
 77.49348    -72.4 1.273e+04 1.946e-09
 77.53423    -72.3 1.322e+04 2.871e-09
 77.57498    -72.4 1.348e+04 3.386e-09
 77.59934    -73.5 1.355e+04 3.534e-09
 77.61971    -74.0 1.314e+04 2.622e-09
 77.65648    -75.8 1.319e+04 2.531e-09
 77.68892    -78.2 1.327e+04 2.535e-09
 77.70929    -77.4 1.351e+04 2.427e-09
 77.72769    -80.4 1.361e+04 2.788e-09
 77.74588    -81.7 1.372e+04 3.313e-09
 77.75606    -81.8 1.370e+04 3.481e-09
 77.76834    -83.1 1.396e+04 4.230e-09
 77.78872    -84.6 1.452e+04 5.098e-09
 77.80909    -86.4 1.524e+04 6.000e-09
 77.82434    -88.2 1.583e+04 6.737e-09
 77.83452    -89.4 1.640e+04 8.910e-09
 77.84984    -90.7 1.642e+04 9.331e-09
 77.86288    -91.5 1.608e+04 9.249e-09
 77.87307    -91.0 1.580e+04 7.849e-09
 77.89059    -91.3 1.521e+04 6.749e-09
 77.90280    -91.3 1.450e+04 5.312e-09
 77.91298    -90.8 1.431e+04 6.120e-09
 77.93134    -90.8 1.364e+04 4.257e-09
 77.95171    -90.9 1.315e+04 3.130e-09
 77.97107    -90.9 1.277e+04 2.497e-09
 77.98126    -90.7 1.272e+04 2.410e-09
 77.99246    -90.6 1.248e+04 2.085e-09
 78.01284    -89.9 1.237e+04 1.888e-09
 78.02685    -89.4 1.239e+04 1.751e-09
 78.03704    -89.0 1.201e+04 1.104e-09
 78.04953    -88.5 1.192e+04 9.875e-10
 78.05972    -88.3 1.193e+04 1.074e-09
 78.07396    -87.8 1.205e+04 1.017e-09
 78.09434    -87.2 1.218e+04 9.857e-10
 78.11471    -86.6 1.237e+04 9.685e-10
 78.12799    -86.0 1.254e+04 9.565e-10
 78.13818    -85.3 1.246e+04 1.029e-09
 78.15546    -84.6 1.264e+04 1.024e-09
 78.17583    -83.8 1.271e+04 1.032e-09
 78.19082    -83.0 1.270e+04 1.033e-09
 78.20101    -83.1 1.200e+04 7.330e-10
 78.22687    -82.1 1.248e+04 1.134e-09
 78.26772    -79.9 1.197e+04 1.079e-09
 78.30847    -78.1 1.155e+04 9.599e-10
 78.34319    -75.9 1.116e+04 8.083e-10
 78.35915    -74.8 1.091e+04 9.873e-10
 78.36518    -74.3 1.136e+04 6.634e-10
 78.38996    -72.2 1.117e+04 6.265e-10
 78.43071    -70.1 1.110e+04 5.444e-10
 78.47146    -68.0 1.111e+04 4.484e-10
 78.50011    -66.0 1.116e+04 3.623e-10
 78.52049    -65.1 1.111e+04 3.703e-10
 78.55296    -63.3 1.113e+04 3.087e-10
 78.59371    -61.5 1.111e+04 2.757e-10
 78.63446    -59.7 1.108e+04 2.627e-10
 78.65704    -58.0 1.108e+04 2.593e-10
 78.67494    -57.2 1.119e+04 2.792e-10
 78.69312    -56.4 1.117e+04 3.629e-10
 78.71596    -54.8 1.121e+04 3.554e-10
 78.75671    -53.3 1.127e+04 3.542e-10
 78.79358    -51.8 1.134e+04 3.814e-10
 78.81396    -50.9 1.140e+04 4.287e-10
 78.83821    -49.5 1.144e+04 4.830e-10
 78.87896    -47.9 1.148e+04 5.632e-10
 78.91971    -46.3 1.147e+04 6.145e-10
 78.95050    -44.5 1.144e+04 6.147e-10
 78.97088    -43.6 1.157e+04 7.695e-10
 79.00069    -41.7 1.150e+04 7.579e-10
 79.02106    -41.2 1.139e+04 6.773e-10
 79.04196    -39.2 1.119e+04 5.900e-10
 79.08270    -37.2 1.109e+04 4.745e-10
 79.10742    -35.3 1.108e+04 3.827e-10
 79.12780    -34.1 1.112e+04 4.149e-10
 79.16420    -32.4 1.110e+04 3.284e-10
 79.20495    -30.9 1.114e+04 2.855e-10
 79.24397    -29.6 1.122e+04 2.768e-10
 79.26435    -28.0 1.102e+04 2.182e-10
 79.28645    -26.9 1.110e+04 2.186e-10
 79.32720    -25.8 1.118e+04 2.801e-10
 79.34900    -24.5 1.124e+04 3.785e-10
 79.36938    -24.5 1.130e+04 5.702e-10
 79.40089    -22.8 1.136e+04 6.364e-10
 79.42127    -21.2 1.124e+04 5.134e-10
 79.44945    -19.5 1.128e+04 5.566e-10
 79.49020    -17.7 1.118e+04 5.075e-10
 79.53095    -16.0 1.097e+04 4.061e-10
 79.55781    -14.5 1.079e+04 2.963e-10
 79.57819    -13.0 1.102e+04 4.284e-10
 79.61245    -11.5 1.090e+04 3.526e-10
 79.65320    -10.2 1.082e+04 2.711e-10
 79.67695     -9.1 1.071e+04 1.964e-10
 79.69732     -9.3 1.063e+04 1.536e-10
 79.71473     -8.5 1.032e+04 1.347e-10
 79.73511     -6.6 1.076e+04 2.272e-10
 79.77544     -6.0 1.046e+04 1.921e-10
 79.81619     -5.2 1.028e+04 1.883e-10
 79.85128     -4.3 1.001e+04 2.100e-10
 79.87165     -3.3 1.032e+04 2.611e-10
 79.89769     -2.3 1.022e+04 2.782e-10
 79.93844     -1.0 9.855e+03 2.641e-10
 79.97919      0.3 9.650e+03 1.968e-10
 80.00489      1.3 9.492e+03 1.333e-10
 80.01352      1.2 9.620e+03 1.017e-10
 80.02858      1.7 9.750e+03 1.354e-10
 80.06069      2.5 9.403e+03 1.114e-10
 80.10144      4.0 9.187e+03 1.034e-10
 80.14219      5.7 9.065e+03 9.607e-11
 80.16512      7.2 9.086e+03 9.188e-11
 80.18550      7.9 9.381e+03 1.197e-10
 80.22369      8.5 9.612e+03 1.313e-10
 80.26444      8.8 9.601e+03 2.235e-10
 80.30167      9.5 9.750e+03 3.780e-10
 80.32195      9.9 9.837e+03 4.734e-10
 80.33263      9.8 9.963e+03 6.797e-10
 80.34282      9.6 1.020e+04 7.572e-10
 80.35593      9.8 1.062e+04 9.634e-10
 80.37630      9.4 1.094e+04 1.220e-09
 80.39012      9.0 1.098e+04 1.389e-09
 80.40031      9.1 1.119e+04 1.490e-09
 80.41705      8.4 1.113e+04 1.506e-09
 80.43743      7.7 1.129e+04 1.484e-09
 80.45780      6.3 1.139e+04 1.390e-09
 80.46858      4.9 1.177e+04 1.465e-09
 80.47877      4.4 1.195e+04 1.564e-09
 80.49661      2.7 1.175e+04 1.661e-09
 80.50679      3.1 1.190e+04 1.732e-09
 80.51893      2.8 1.208e+04 1.882e-09
 80.54959      1.6 1.201e+04 2.211e-09
 80.59043      1.9 1.167e+04 2.120e-09
 80.61551      2.8 1.073e+04 1.315e-09
 80.63588      2.6 1.086e+04 1.372e-09
 80.66077      2.4 9.525e+03 6.773e-10
 80.68115      2.9 9.591e+03 7.028e-10
 80.71268      3.1 8.387e+03 3.436e-10
 80.75206      3.6 7.763e+03 2.259e-10
 80.77243      3.9 8.145e+03 3.159e-10
 80.79418      4.8 7.791e+03 2.617e-10
 80.83493      6.4 7.675e+03 2.489e-10
 80.87568      8.1 7.619e+03 2.370e-10
 80.90898      9.2 7.399e+03 2.007e-10
 80.92935      8.9 7.390e+03 2.046e-10
 80.95718     10.0 7.195e+03 1.817e-10
 80.98872     11.3 7.006e+03 1.583e-10
 81.00909     11.6 7.216e+03 1.974e-10
 81.03868     13.0 6.911e+03 1.487e-10
 81.06590     14.5 6.574e+03 1.054e-10
 81.08627     14.1 6.457e+03 9.532e-11
 81.12018     15.6 6.170e+03 6.972e-11
 81.16092     17.3 5.984e+03 5.034e-11
 81.20167     18.7 5.848e+03 3.721e-11
 81.22282     20.0 5.748e+03 3.070e-11
 81.24319     19.8 5.765e+03 3.447e-11
 81.28317     21.3 5.734e+03 3.320e-11
 81.31666     22.8 5.748e+03 3.451e-11
 81.33703     23.2 5.741e+03 3.468e-11
 81.35937     24.8 5.800e+03 3.582e-11
 81.37974     24.7 5.859e+03 4.037e-11
 81.40542     25.8 5.977e+03 4.582e-11
 81.44617     26.6 6.178e+03 6.106e-11
 81.48692     26.9 6.569e+03 1.003e-10
 81.51629     26.7 7.320e+03 1.936e-10
 81.53666     24.6 8.071e+03 3.264e-10
 81.56842     24.2 9.094e+03 6.231e-10
 81.60917     23.8 9.577e+03 8.041e-10
 81.64460     22.9 9.598e+03 7.154e-10
 81.66497     25.0 9.271e+03 6.522e-10
 81.67321     23.7 9.030e+03 4.412e-10
 81.69358     21.7 8.649e+03 3.034e-10
 81.73142     20.9 7.988e+03 2.229e-10
 81.77217     21.5 7.716e+03 1.660e-10
 81.80975     22.0 7.723e+03 1.372e-10
 81.83013     22.0 7.722e+03 1.384e-10
 81.85366     23.2 7.671e+03 1.342e-10
 81.89441     25.0 7.629e+03 1.346e-10
 81.93516     27.2 7.614e+03 1.293e-10
 81.96668     29.4 7.605e+03 1.133e-10
 81.98368     29.6 7.639e+03 1.138e-10
 81.99292     30.6 7.703e+03 1.288e-10
 82.01666     32.8 7.741e+03 1.229e-10
 82.05741     35.2 7.758e+03 1.150e-10
 82.09816     37.6 7.786e+03 1.068e-10
 82.12360     40.1 7.862e+03 9.864e-11
 82.14397     40.3 7.901e+03 1.051e-10
 82.17966     42.8 7.983e+03 1.059e-10
 82.22041     45.1 8.187e+03 1.155e-10
 82.26014     47.0 8.597e+03 1.620e-10
 82.28052     47.5 8.875e+03 2.092e-10
 82.30048     49.5 9.475e+03 3.558e-10
 82.32086     50.6 9.464e+03 3.488e-10
 82.33237     51.3 9.765e+03 4.839e-10
 82.34859     52.1 9.934e+03 5.849e-10
 82.35878     52.1 9.979e+03 6.387e-10
 82.37302     53.5 1.044e+04 8.872e-10
 82.39340     54.8 1.087e+04 1.217e-09
 82.41377     56.1 1.128e+04 1.507e-09
 82.42706     57.2 1.163e+04 1.604e-09
 82.43724     57.5 1.171e+04 1.688e-09
 82.45452     58.3 1.181e+04 1.669e-09
 82.47445     58.5 1.193e+04 1.566e-09
 82.48464     58.9 1.191e+04 1.570e-09
 82.49527     58.8 1.213e+04 1.443e-09
 82.51565     56.7 1.347e+04 2.039e-09
 82.53602     55.1 1.397e+04 2.491e-09
 82.55640     54.6 1.403e+04 2.730e-09
 82.57379     53.9 1.421e+04 2.848e-09
 82.58398     51.5 1.543e+04 4.988e-09
 82.59715     51.6 1.523e+04 4.577e-09
 82.61752     51.3 1.498e+04 3.694e-09
 82.63790     50.7 1.451e+04 2.875e-09
 82.64861     50.3 1.372e+04 2.363e-09
 82.65277     51.1 1.418e+04 2.805e-09
 82.66244     49.4 1.418e+04 2.854e-09
 82.67865     49.5 1.342e+04 2.333e-09
 82.69902     49.8 1.296e+04 2.006e-09
 82.71939     50.4 1.268e+04 1.733e-09
 82.73071     50.5 1.252e+04 1.575e-09
 82.74090     48.4 1.248e+04 1.441e-09
 82.76014     48.4 1.225e+04 1.393e-09
 82.79080     49.4 1.218e+04 1.469e-09
 82.83165     50.9 1.168e+04 1.249e-09
 82.86212     51.3 1.122e+04 1.017e-09
 82.87744     52.3 1.076e+04 7.734e-10
 82.88773     51.1 1.034e+04 4.520e-10
 82.91315     52.4 9.974e+03 2.901e-10
 82.95390     53.4 9.645e+03 2.050e-10
 82.97674     54.5 9.340e+03 1.627e-10
 82.99712     54.8 9.555e+03 2.182e-10
 83.02437     56.3 9.295e+03 2.010e-10
 83.04475     55.7 9.089e+03 1.872e-10
 83.07615     57.6 9.092e+03 1.925e-10
 83.11690     59.3 9.129e+03 1.976e-10
 83.15765     60.8 9.165e+03 2.090e-10
 83.18129     62.3 9.206e+03 2.289e-10
 83.20167     61.9 8.986e+03 2.094e-10
 83.23915     63.3 8.967e+03 2.144e-10
 83.27989     64.7 8.942e+03 2.080e-10
 83.30469     65.8 8.876e+03 1.871e-10
 83.32226     65.7 8.765e+03 1.534e-10
 83.33821     65.0 8.604e+03 1.197e-10
 83.36139     65.8 8.586e+03 1.174e-10
 83.40214     66.5 8.596e+03 1.188e-10
 83.44289     66.9 8.650e+03 1.284e-10
 83.47476     67.1 8.788e+03 1.476e-10
 83.49514     66.4 8.730e+03 1.232e-10
 83.52439     66.1 8.770e+03 1.444e-10
 83.56514     65.7 8.754e+03 1.601e-10
 83.60589     65.0 8.755e+03 1.592e-10
 83.63168     64.1 8.747e+03 1.511e-10
 83.63805     63.8 8.764e+03 1.526e-10
 83.65300     64.2 8.744e+03 1.528e-10
 83.68739     63.1 8.788e+03 1.347e-10
 83.72814     61.2 8.901e+03 1.414e-10
 83.76823     58.5 9.237e+03 1.957e-10
 83.78860     57.2 9.478e+03 2.811e-10
 83.80964     55.4 9.803e+03 5.102e-10
 83.85039     54.3 9.846e+03 6.124e-10
 83.89114     53.5 9.736e+03 5.669e-10
 83.92515     53.0 9.347e+03 4.330e-10
 83.94552     52.6 9.021e+03 3.094e-10
 83.96057     51.4 8.710e+03 2.188e-10
 83.98095     52.1 8.838e+03 2.404e-10
 84.01338     51.1 8.718e+03 2.156e-10
 84.05413     50.3 8.736e+03 2.244e-10
 84.08207     50.0 8.815e+03 2.499e-10
 84.10245     49.4 8.976e+03 3.126e-10
 84.13563     49.4 8.944e+03 3.125e-10
 84.17638     50.1 8.745e+03 2.631e-10
 84.21713     51.1 8.468e+03 1.742e-10
 84.23899     51.8 8.278e+03 1.080e-10
 84.25937     51.9 8.307e+03 7.510e-11
 84.28851     51.9 8.348e+03 5.186e-11
 84.30889     52.6 8.367e+03 5.307e-11
 84.33938     53.0 8.356e+03 5.105e-11
 84.37554     53.9 8.348e+03 5.348e-11
 84.39591     53.7 8.239e+03 5.092e-11
 84.42088     55.1 8.205e+03 6.482e-11
 84.46163     56.7 8.269e+03 7.609e-11
 84.50238     58.3 8.359e+03 7.683e-11
 84.53246     59.6 8.408e+03 7.388e-11
 84.55283     60.0 8.459e+03 7.790e-11
 84.58388     61.2 8.527e+03 7.398e-11
 84.61646     62.4 8.553e+03 7.367e-11
 84.63683     63.3 8.594e+03 7.956e-11
 84.66537     64.3 8.660e+03 8.314e-11
 84.68938     65.3 8.738e+03 9.809e-11
 84.70975     65.7 8.759e+03 1.026e-10
 84.74687     67.0 8.844e+03 1.246e-10
 84.78762     68.3 8.976e+03 1.355e-10
 84.82593     69.5 9.009e+03 1.344e-10
 84.84630     69.8 9.018e+03 1.371e-10
 84.86912     70.8 9.076e+03 1.271e-10
 84.90987     71.7 9.120e+03 1.121e-10
 84.94440     72.7 9.138e+03 1.050e-10
 84.96477     73.3 9.259e+03 1.233e-10
 84.98285     74.3 9.267e+03 1.216e-10
 85.00322     74.6 9.294e+03 1.245e-10
 85.03212     75.8 9.314e+03 1.261e-10
 85.07287     77.1 9.395e+03 1.317e-10
 85.11362     78.4 9.546e+03 1.427e-10
 85.13977     79.5 9.723e+03 1.658e-10
 85.16014     80.0 9.688e+03 1.275e-10
 85.19512     80.9 9.888e+03 1.514e-10
 85.23587     81.6 1.004e+04 2.261e-10
 85.27234     82.4 1.027e+04 3.640e-10
 85.29241     82.9 1.010e+04 1.977e-10
 85.29669     83.6 1.007e+04 1.287e-10
 85.31737     84.5 1.014e+04 1.925e-10
 85.35811     85.4 1.029e+04 2.718e-10
 85.39886     86.4 1.044e+04 3.300e-10
 85.43324     87.5 1.060e+04 3.334e-10
 85.45361     88.0 1.048e+04 2.683e-10
 85.48036     89.2 1.063e+04 2.816e-10
 85.52111     90.4 1.075e+04 2.626e-10
 85.56186     91.5 1.086e+04 2.400e-10
 85.59016     92.7 1.093e+04 2.271e-10
 85.60820     93.2 1.107e+04 2.953e-10
 85.62066     94.2 1.104e+04 3.053e-10
 85.64336     95.4 1.113e+04 3.099e-10
 85.68411     96.5 1.125e+04 3.280e-10
 85.72486     97.6 1.142e+04 3.851e-10
 85.74708     98.5 1.156e+04 4.848e-10
 85.76745     98.6 1.165e+04 5.189e-10
 85.80636     99.5 1.164e+04 5.537e-10
 85.84711    100.4 1.159e+04 5.369e-10
 85.88362    101.5 1.147e+04 4.617e-10
 85.90400    101.5 1.142e+04 3.939e-10
 85.92823    102.6 1.128e+04 2.982e-10
 85.94860    103.4 1.134e+04 3.610e-10
 85.96936    104.5 1.125e+04 2.875e-10
 86.01011    105.4 1.111e+04 2.175e-10
 86.04054    106.2 1.090e+04 1.714e-10
 86.06092    106.4 1.094e+04 1.971e-10
 86.09160    107.3 1.079e+04 1.881e-10
 86.13235    108.3 1.080e+04 1.925e-10
 86.17310    109.2 1.085e+04 2.148e-10
 86.19747    110.1 1.095e+04 2.882e-10
 86.21784    110.0 1.104e+04 3.566e-10
 86.25460    111.0 1.120e+04 4.939e-10
 86.27654    112.0 1.139e+04 6.178e-10
 86.29692    111.6 1.125e+04 5.194e-10
 86.33401    112.2 1.121e+04 4.884e-10
 86.35439    112.0 1.105e+04 3.971e-10
 86.37685    112.7 1.093e+04 3.090e-10
 86.41760    113.3 1.080e+04 2.248e-10
 86.45835    114.1 1.062e+04 1.768e-10
 86.49093    115.2 1.050e+04 1.717e-10
 86.51131    115.6 1.047e+04 1.786e-10
 86.53985    117.1 1.049e+04 1.904e-10
 86.58060    118.7 1.055e+04 2.130e-10
 86.60449    120.2 1.059e+04 2.398e-10
 86.62486    120.5 1.041e+04 1.726e-10
 86.64785    122.1 1.044e+04 1.952e-10
 86.66823    122.6 1.048e+04 2.222e-10
 86.70285    124.2 1.052e+04 2.382e-10
 86.74359    125.8 1.056e+04 2.601e-10
 86.78434    127.3 1.061e+04 2.899e-10
 86.82509    129.0 1.071e+04 3.318e-10
 86.86584    130.4 1.074e+04 3.722e-10
 86.90659    131.8 1.078e+04 4.029e-10
 86.93243    133.2 1.078e+04 4.062e-10
 86.94678    133.0 1.079e+04 4.034e-10
 86.96170    132.8 1.086e+04 4.134e-10
 86.98809    134.1 1.082e+04 3.869e-10
 87.02884    135.5 1.074e+04 3.147e-10
 87.06959    136.7 1.065e+04 2.275e-10
 87.09824    137.7 1.054e+04 1.588e-10
 87.11862    137.3 1.045e+04 1.313e-10
 87.15109    138.2 1.022e+04 1.248e-10
 87.19184    139.4 1.021e+04 1.268e-10
 87.23259    140.7 1.021e+04 1.368e-10
 87.25516    141.8 1.027e+04 1.624e-10
 87.26257    141.9 1.035e+04 1.761e-10
 87.28075    141.7 1.033e+04 1.803e-10
 87.31409    142.7 1.049e+04 2.479e-10
 87.35484    143.5 1.071e+04 3.683e-10
 87.39171    144.1 1.101e+04 5.720e-10
 87.41208    144.3 1.130e+04 7.610e-10
 87.43634    144.3 1.178e+04 1.202e-09
 87.47708    143.9 1.244e+04 1.789e-09
 87.51783    143.1 1.295e+04 2.203e-09
 87.54830    141.8 1.315e+04 2.357e-09
 87.55862    140.6 1.333e+04 2.465e-09
 87.56881    140.4 1.385e+04 3.269e-09
 87.58812    139.3 1.394e+04 3.285e-09
 87.60859    138.7 1.344e+04 2.537e-09
 87.64008    136.7 1.346e+04 2.479e-09
 87.67055    135.5 1.358e+04 2.609e-09
 87.69082    134.9 1.358e+04 2.615e-09
 87.70536    134.5 1.345e+04 2.510e-09
 87.71554    134.7 1.389e+04 2.791e-09
 87.73157    134.6 1.394e+04 2.760e-09
 87.75195    134.3 1.412e+04 2.833e-09
 87.76228    132.9 1.489e+04 3.278e-09
 87.77246    133.7 1.371e+04 2.522e-09
 87.78382    132.0 1.447e+04 3.090e-09
 87.79400    131.9 1.552e+04 3.670e-09
 87.81307    129.8 1.671e+04 6.399e-09
 87.83345    128.4 1.731e+04 1.047e-08
 87.85209    127.3 1.727e+04 1.263e-08
 87.86228    127.6 1.813e+04 1.743e-08
 87.87420    127.2 1.773e+04 1.624e-08
 87.89457    127.6 1.679e+04 1.198e-08
 87.91495    128.1 1.560e+04 7.470e-09
 87.92625    128.2 1.453e+04 4.022e-09
 87.93167    128.8 1.456e+04 4.368e-09
 87.94074    129.2 1.468e+04 4.999e-09
 87.95569    129.0 1.423e+04 3.293e-09
 87.97607    128.9 1.375e+04 2.290e-09
 87.99892    128.6 1.324e+04 1.526e-09
 88.01939    129.1 1.344e+04 2.000e-09
 88.04758    129.3 1.295e+04 1.527e-09
 88.08833    130.1 1.271e+04 1.431e-09
 88.12908    131.3 1.274e+04 1.468e-09
 88.15584    132.0 1.280e+04 1.509e-09
 88.17622    132.8 1.293e+04 1.703e-09
 88.20029    133.0 1.310e+04 1.832e-09
 88.22057    133.0 1.333e+04 2.027e-09
 88.23421    132.8 1.358e+04 2.309e-09
 88.24439    133.3 1.361e+04 2.295e-09
 88.25419    133.1 1.382e+04 2.590e-09
 88.26438    133.8 1.364e+04 2.338e-09
 88.28169    133.8 1.372e+04 2.454e-09
 88.30206    133.8 1.376e+04 2.520e-09
 88.31267    134.0 1.381e+04 2.572e-09
 88.32285    134.4 1.378e+04 2.513e-09
 88.34281    134.5 1.388e+04 2.614e-09
 88.36319    134.6 1.405e+04 2.784e-09
 88.38094    134.6 1.428e+04 3.093e-09
 88.39113    134.9 1.420e+04 3.046e-09
 88.40394    135.0 1.447e+04 3.533e-09
 88.41816    135.2 1.476e+04 4.175e-09
 88.42835    135.9 1.466e+04 3.799e-09
 88.44469    136.1 1.502e+04 4.862e-09
 88.45940    136.5 1.536e+04 6.058e-09
 88.46959    137.0 1.524e+04 5.696e-09
 88.48544    137.6 1.549e+04 6.627e-09
 88.50581    138.1 1.546e+04 6.508e-09
 88.52619    138.5 1.537e+04 6.136e-09
 88.53786    138.9 1.517e+04 5.450e-09
 88.54805    139.3 1.490e+04 4.643e-09
 88.56694    139.4 1.476e+04 4.261e-09
 88.58213    139.5 1.460e+04 3.802e-09
 88.59232    140.3 1.506e+04 4.745e-09
 88.60613    140.2 1.481e+04 3.980e-09
 88.61632    140.3 1.460e+04 3.648e-09
 88.62806    140.2 1.443e+04 3.263e-09
 88.64843    140.2 1.419e+04 2.883e-09
 88.66881    140.3 1.388e+04 2.440e-09
 88.68459    140.6 1.351e+04 1.982e-09
 88.69478    141.0 1.362e+04 2.142e-09
 88.70956    141.4 1.330e+04 1.743e-09
 88.72993    141.8 1.300e+04 1.361e-09
 88.74610    142.2 1.277e+04 1.048e-09
 88.75629    142.2 1.254e+04 8.078e-10
 88.76305    142.4 1.241e+04 6.304e-10
 88.77324    142.6 1.243e+04 6.016e-10
 88.79106    142.8 1.232e+04 5.411e-10
 88.81143    143.1 1.233e+04 5.426e-10
 88.83133    143.1 1.240e+04 5.683e-10
 88.84151    142.9 1.252e+04 5.915e-10
 88.85218    142.2 1.283e+04 7.950e-10
 88.87256    141.1 1.330e+04 1.312e-09
 88.89293    140.7 1.390e+04 2.358e-09
 88.90979    140.8 1.455e+04 3.993e-09
 88.91674    141.0 1.482e+04 4.708e-09
 88.92026    140.9 1.450e+04 3.792e-09
 88.93368    141.3 1.503e+04 5.093e-09
 88.95406    141.2 1.511e+04 5.107e-09
 88.97443    141.1 1.493e+04 4.610e-09
 88.98825    141.1 1.448e+04 3.243e-09
 88.99844    141.1 1.420e+04 2.494e-09
 89.01518    140.3 1.347e+04 1.408e-09
 89.03555    138.5 1.232e+04 8.823e-10
 89.05593    137.1 1.168e+04 8.144e-10
 89.06671    136.7 1.168e+04 8.156e-10
 89.07464    136.7 1.168e+04 8.255e-10
 89.08423    136.8 1.169e+04 8.673e-10
 89.09668    135.9 1.191e+04 9.623e-10
 89.11705    133.9 1.263e+04 1.429e-09
 89.13498    131.8 1.375e+04 2.762e-09
 89.14517    131.8 1.388e+04 3.138e-09
 89.15780    130.6 1.464e+04 5.041e-09
 89.17818    129.1 1.480e+04 5.386e-09
 89.19855    127.7 1.459e+04 4.931e-09
 89.21344    126.7 1.393e+04 3.417e-09
 89.22363    126.5 1.383e+04 3.061e-09
 89.23802    125.0 1.283e+04 1.680e-09
 89.24821    124.6 1.272e+04 1.574e-09
 89.26996    120.4 1.077e+04 5.298e-10
 89.31081    116.7 8.724e+03 1.553e-10
 89.35018    116.1 8.681e+03 1.053e-10
 89.37056    116.1 8.632e+03 9.888e-11
 89.39231    116.4 8.436e+03 8.444e-11
 89.43306    117.5 8.220e+03 8.340e-11
 89.47381    119.0 8.211e+03 8.334e-11
 89.50710    120.5 8.202e+03 8.471e-11
 89.52748    120.5 8.142e+03 7.658e-11
 89.55530    122.1 8.134e+03 8.459e-11
 89.57634    123.5 8.178e+03 9.934e-11
 89.59672    123.8 8.161e+03 1.017e-10
 89.63680    125.2 8.242e+03 1.242e-10
 89.66403    126.7 8.355e+03 1.563e-10
 89.68440    126.9 8.321e+03 1.598e-10
 89.71830    128.4 8.487e+03 2.083e-10
 89.75905    129.9 8.687e+03 2.642e-10
 89.79980    131.2 8.913e+03 3.211e-10
 89.82095    132.4 9.078e+03 3.659e-10
 89.84132    132.8 8.941e+03 3.216e-10
 89.88130    133.7 8.939e+03 3.187e-10
 89.90429    134.5 8.901e+03 3.049e-10
 89.92466    134.8 8.849e+03 3.057e-10
 89.95749    135.7 8.776e+03 2.851e-10
 89.97787    136.1 8.531e+03 2.306e-10
 90.00355    137.3 8.538e+03 2.323e-10
 90.04430    138.6 8.629e+03 2.548e-10
 90.08505    139.7 8.967e+03 3.307e-10
 90.11441    140.4 9.384e+03 4.457e-10
 90.13479    140.9 9.333e+03 4.196e-10
 90.15626    141.1 9.595e+03 5.123e-10
 90.17654    141.2 9.942e+03 6.666e-10
 90.19268    141.5 1.031e+04 8.893e-10
 90.20287    141.6 1.030e+04 8.578e-10
 90.21729    141.9 1.061e+04 1.080e-09
 90.23203    142.2 1.086e+04 1.266e-09
 90.24222    142.8 1.081e+04 1.220e-09
 90.25804    143.0 1.105e+04 1.391e-09
 90.27114    143.2 1.117e+04 1.467e-09
 90.28133    143.2 1.112e+04 1.419e-09
 90.29879    143.3 1.114e+04 1.456e-09
 90.31916    143.5 1.108e+04 1.417e-09
 90.33941    143.7 1.089e+04 1.282e-09
 90.34960    143.8 1.090e+04 1.314e-09
 90.35991    144.1 1.067e+04 1.131e-09
 90.38029    144.5 1.040e+04 9.153e-10
 90.39600    144.6 1.015e+04 7.157e-10
 90.40619    145.3 1.041e+04 9.357e-10
 90.41787    145.5 1.017e+04 7.478e-10
 90.42806    145.7 1.026e+04 8.197e-10
 90.44141    145.8 1.003e+04 6.520e-10
 90.46178    145.8 9.822e+03 5.405e-10
 90.48216    145.9 9.653e+03 4.731e-10
 90.49633    146.0 9.567e+03 4.459e-10
 90.50652    146.3 9.600e+03 4.607e-10
 90.52291    146.6 9.550e+03 4.581e-10
 90.54328    147.0 9.550e+03 4.639e-10
 90.55998    147.5 9.579e+03 4.848e-10
 90.57016    148.0 9.612e+03 5.003e-10
 90.57479    148.4 9.696e+03 5.388e-10
 90.58498    148.6 9.801e+03 5.864e-10
 90.60441    148.9 9.941e+03 6.548e-10
 90.62478    149.2 1.012e+04 7.450e-10
 90.64307    149.5 1.032e+04 8.461e-10
 90.65325    149.6 1.050e+04 9.502e-10
 90.66553    149.9 1.075e+04 1.067e-09
 90.68591    150.2 1.101e+04 1.137e-09
 90.70628    150.3 1.109e+04 1.143e-09
 90.72153    150.4 1.109e+04 1.132e-09
 90.72901    150.3 1.139e+04 1.330e-09
 90.73413    150.3 1.142e+04 1.365e-09
 90.74703    150.4 1.140e+04 1.305e-09
 90.76740    150.6 1.130e+04 1.170e-09
 90.78778    151.0 1.114e+04 1.006e-09
 90.79999    151.4 1.093e+04 8.172e-10
 90.81018    151.2 1.119e+04 9.711e-10
 90.82853    151.6 1.098e+04 8.036e-10
 90.84890    152.1 1.081e+04 6.827e-10
 90.86826    152.6 1.071e+04 6.022e-10
 90.87845    152.5 1.088e+04 6.878e-10
 90.88792    153.1 1.083e+04 6.277e-10
 90.89811    152.8 1.079e+04 6.144e-10
 90.91003    153.4 1.078e+04 6.079e-10
 90.93040    154.5 1.080e+04 6.110e-10
 90.94672    155.3 1.086e+04 6.212e-10
 90.95691    155.3 1.101e+04 7.249e-10
 90.97115    156.2 1.114e+04 7.655e-10
 90.99153    157.0 1.130e+04 8.254e-10
 91.01190    157.9 1.148e+04 9.109e-10
 91.02518    158.7 1.171e+04 1.041e-09
 91.03537    158.6 1.171e+04 9.896e-10
 91.05189    159.3 1.196e+04 1.148e-09
 91.06208    159.0 1.169e+04 8.954e-10
 91.07303    159.8 1.195e+04 1.012e-09
 91.09340    160.5 1.229e+04 1.190e-09
 91.11377    160.5 1.263e+04 8.170e-10
 91.13415    160.6 1.298e+04 1.022e-09
 91.15452    160.6 1.327e+04 1.350e-09
 91.17192    160.7 1.347e+04 1.753e-09
 91.19239    160.6 1.312e+04 1.089e-09
 91.21606    161.7 1.336e+04 1.594e-09
 91.23643    161.0 1.265e+04 9.297e-10
 91.26678    162.3 1.303e+04 1.204e-09
 91.30753    163.7 1.319e+04 1.308e-09
 91.32903    165.0 1.318e+04 1.282e-09
 91.34941    163.6 1.240e+04 7.199e-10
 91.38903    164.8 1.237e+04 6.874e-10
 91.42978    165.9 1.235e+04 6.637e-10
 91.46558    167.0 1.243e+04 6.786e-10
 91.48595    166.2 1.216e+04 6.165e-10
 91.51128    167.5 1.234e+04 6.717e-10
 91.54400    168.7 1.271e+04 8.607e-10
 91.56437    168.7 1.206e+04 6.190e-10
 91.59278    169.9 1.227e+04 7.139e-10
 91.62250    171.3 1.261e+04 9.100e-10
 91.64287    171.2 1.263e+04 9.190e-10
 91.67427    172.6 1.283e+04 1.098e-09
 91.71502    174.3 1.295e+04 1.248e-09
 91.75577    176.0 1.301e+04 1.370e-09
 91.77942    177.9 1.309e+04 1.482e-09
 91.79980    178.0 1.273e+04 1.088e-09
 91.83727    179.8 1.280e+04 1.150e-09
 91.87194    181.7 1.285e+04 1.219e-09
 91.89232    181.6 1.206e+04 5.303e-10
 91.91597    183.5 1.208e+04 5.607e-10
 91.93634    183.5 1.138e+04 3.603e-10
 91.95952    185.4 1.133e+04 3.834e-10
 92.00027    187.4 1.134e+04 4.265e-10
 92.04102    189.7 1.146e+04 5.000e-10
 92.07289    192.1 1.169e+04 6.084e-10
 92.09326    192.2 1.102e+04 4.647e-10
 92.12252    194.5 1.131e+04 5.709e-10
 92.16327    196.9 1.172e+04 7.217e-10
 92.19373    197.8 1.173e+04 7.019e-10
 92.20988    198.3 1.194e+04 7.682e-10
 92.22016    198.7 1.141e+04 4.863e-10
 92.22971    198.8 1.174e+04 5.943e-10
 92.23980    199.1 1.125e+04 4.975e-10
 92.25476    199.1 1.179e+04 6.793e-10
 92.27513    199.1 1.238e+04 1.005e-09
 92.29551    198.7 1.306e+04 1.569e-09
 92.30807    198.2 1.395e+04 2.571e-09
 92.31826    198.4 1.377e+04 2.316e-09
 92.33626    198.0 1.482e+04 3.849e-09
 92.35663    197.6 1.591e+04 6.105e-09
 92.37385    197.1 1.683e+04 8.534e-09
 92.38337    196.9 1.627e+04 6.680e-09
 92.38654    197.4 1.569e+04 5.372e-09
 92.39738    196.4 1.624e+04 6.099e-09
 92.41776    195.1 1.626e+04 6.019e-09
 92.43813    194.0 1.608e+04 5.548e-09
 92.45481    193.1 1.559e+04 4.530e-09
 92.46500    193.4 1.476e+04 3.207e-09
 92.47888    192.6 1.406e+04 2.350e-09
 92.49925    191.7 1.338e+04 1.710e-09
 92.51963    191.2 1.288e+04 1.369e-09
 92.53327    191.1 1.254e+04 1.185e-09
 92.54127    191.5 1.220e+04 9.177e-10
 92.54810    191.4 1.079e+04 4.900e-10
 92.57076    191.0 1.021e+04 3.903e-10
 92.61151    191.4 9.989e+03 3.781e-10
 92.65226    192.2 9.806e+03 3.664e-10
 92.68020    193.4 9.572e+03 3.418e-10
 92.70057    193.8 9.237e+03 2.875e-10
 92.73376    194.8 9.150e+03 2.742e-10
 92.77451    195.8 9.066e+03 2.611e-10
 92.81526    196.7 8.966e+03 2.447e-10
 92.83712    197.5 8.876e+03 2.277e-10
 92.85725    197.5 8.792e+03 2.224e-10
 92.87614    196.9 8.772e+03 2.210e-10
 92.89676    197.3 8.674e+03 2.037e-10
 92.93751    197.6 8.625e+03 1.946e-10
 92.97366    197.8 8.619e+03 1.942e-10
 92.99404    198.0 8.652e+03 2.078e-10
 93.01901    198.0 8.703e+03 2.152e-10
 93.05975    197.8 8.757e+03 2.270e-10
 93.10050    197.4 8.786e+03 2.339e-10
 93.13059    196.9 8.775e+03 2.319e-10
 93.15096    196.4 8.768e+03 2.310e-10
 93.18200    195.7 8.654e+03 2.120e-10
 93.20409    195.0 8.471e+03 1.779e-10
 93.22446    195.0 8.239e+03 1.430e-10
 93.26350    194.5 8.083e+03 1.254e-10
 93.28751    193.9 7.950e+03 1.129e-10
 93.30788    193.8 7.977e+03 1.181e-10
 93.34500    193.3 7.966e+03 1.174e-10
 93.38575    192.8 7.972e+03 1.194e-10
 93.42405    192.2 7.993e+03 1.307e-10
 93.44443    192.1 8.135e+03 1.500e-10
 93.46725    191.2 8.370e+03 1.864e-10
 93.50800    190.1 8.768e+03 2.554e-10
 93.53203    188.9 9.190e+03 3.485e-10
 93.55240    189.7 9.116e+03 3.351e-10
 93.58097    188.2 9.457e+03 3.968e-10
 93.60135    188.1 9.473e+03 3.913e-10
 93.63025    186.2 9.482e+03 3.845e-10
 93.67100    184.3 9.393e+03 3.442e-10
 93.71175    182.5 9.238e+03 2.953e-10
 93.73790    181.3 9.225e+03 2.906e-10
 93.75827    181.2 9.403e+03 3.224e-10
 93.79324    180.8 9.662e+03 3.636e-10
 93.81626    180.7 9.720e+03 3.774e-10
 93.82635    180.5 9.798e+03 3.917e-10
 93.84399    180.1 1.004e+04 4.572e-10
 93.85977    179.6 1.033e+04 5.757e-10
 93.86996    180.5 9.963e+03 4.316e-10
 93.88443    180.0 1.026e+04 5.460e-10
 93.89462    179.2 1.037e+04 6.095e-10
 93.90511    179.0 1.061e+04 7.370e-10
 93.92548    178.8 1.104e+04 9.031e-10
 93.94586    178.4 1.182e+04 1.198e-09
 93.96289    178.1 1.262e+04 1.630e-09
 93.97308    176.5 1.267e+04 1.539e-09
 93.98147    176.5 1.276e+04 1.671e-09
 93.99160    176.0 1.344e+04 1.850e-09
 94.00179    173.2 1.632e+04 2.496e-09
 94.00712    166.4 2.205e+04 6.116e-09
 94.01221    164.2 2.177e+04 7.006e-09
 94.02217    158.3 2.338e+04 2.178e-08
 94.02874    155.1 2.338e+04 5.086e-08
 94.03384    156.1 2.381e+04 4.095e-08
 94.04126    153.9 2.383e+04 7.411e-08
 94.04635    152.9 2.252e+04 5.180e-08
 94.05273    151.4 2.242e+04 5.301e-08
 94.06292    150.1 2.233e+04 4.697e-08
 94.07310    149.1 2.211e+04 3.112e-08
 94.08049    146.7 2.159e+04 1.303e-08
 94.08558    145.7 2.072e+04 1.063e-08
 94.09348    144.5 2.037e+04 7.218e-09
 94.10881    142.0 2.094e+04 2.675e-09
 94.11982    130.5 1.597e+04 3.953e-10
 94.13000    127.6 1.241e+04 3.216e-10
 94.15989    121.1 9.151e+03 2.356e-10
 94.18791    120.9 8.048e+03 1.745e-10
 94.19583    119.0 8.332e+03 1.877e-10
 94.20866    119.5 8.281e+03 1.712e-10
 94.24149    120.1 7.905e+03 1.547e-10
 94.28224    121.1 7.787e+03 1.553e-10
 94.32299    122.1 7.791e+03 1.611e-10
 94.34520    123.0 7.870e+03 1.798e-10
 94.36558    122.8 7.898e+03 1.850e-10
 94.40449    123.7 8.078e+03 2.154e-10
 94.44523    124.6 8.284e+03 2.490e-10
 94.48175    125.6 8.449e+03 2.771e-10
 94.50213    125.6 8.338e+03 2.626e-10
 94.51586    126.6 8.387e+03 2.677e-10
 94.53623    123.6 8.663e+03 3.078e-10
 94.56748    125.0 8.714e+03 3.145e-10
 94.59795    126.7 8.713e+03 3.161e-10
 94.61822    127.2 8.737e+03 3.243e-10
 94.63848    127.7 8.833e+03 3.550e-10
 94.64866    127.9 8.673e+03 3.204e-10
 94.65897    128.1 8.856e+03 3.734e-10
 94.67935    128.2 9.209e+03 4.832e-10
 94.68982    128.0 9.691e+03 6.459e-10
 94.70001    125.9 1.035e+04 8.554e-10
 94.71694    125.0 1.135e+04 1.219e-09
 94.72712    125.7 1.091e+04 1.089e-09
 94.74047    124.6 1.190e+04 1.556e-09
 94.76085    123.6 1.283e+04 2.206e-09
 94.78122    122.8 1.353e+04 2.928e-09
 94.79540    122.1 1.387e+04 3.381e-09
 94.80558    122.7 1.379e+04 3.349e-09
 94.82197    122.1 1.397e+04 3.468e-09
 94.84235    121.5 1.395e+04 3.331e-09
 94.85379    120.8 1.380e+04 2.965e-09
 94.86398    118.5 1.384e+04 2.849e-09
 94.87386    117.4 1.353e+04 2.469e-09
 94.88405    117.6 1.413e+04 3.065e-09
 94.90347    116.5 1.394e+04 2.929e-09
 94.92384    115.6 1.390e+04 2.936e-09
 94.94213    115.1 1.389e+04 2.952e-09
 94.95232    114.7 1.466e+04 3.943e-09
 94.96459    114.4 1.463e+04 3.947e-09
 94.98497    114.2 1.451e+04 3.842e-09
 95.00534    114.2 1.426e+04 3.496e-09
 95.01776    114.4 1.387e+04 2.980e-09
 95.02282    113.1 1.340e+04 2.491e-09
 95.03078    112.4 1.372e+04 2.913e-09
 95.04609    112.6 1.314e+04 2.330e-09
 95.06647    112.8 1.259e+04 1.842e-09
 95.08896    114.4 1.209e+04 1.336e-09
 95.10934    112.9 1.173e+04 1.341e-09
 95.13788    113.9 1.127e+04 1.109e-09
 95.17174    115.5 1.057e+04 7.705e-10
 95.19211    115.0 1.080e+04 9.413e-10
 95.21947    117.0 1.043e+04 7.497e-10
 95.24598    119.2 1.010e+04 5.942e-10
 95.26636    118.9 1.028e+04 7.187e-10
 95.30097    121.2 1.002e+04 5.858e-10
 95.34172    123.4 9.779e+03 4.752e-10
 95.38247    125.7 9.597e+03 3.949e-10
 95.42322    127.4 9.359e+03 3.337e-10
 95.46397    129.7 9.201e+03 2.814e-10
 95.49968    132.0 9.096e+03 2.475e-10
 95.52006    131.3 9.296e+03 2.969e-10
 95.53945    133.7 9.207e+03 2.657e-10
 95.55982    133.2 9.050e+03 2.470e-10
 95.58622    135.7 8.996e+03 2.221e-10
 95.62697    138.2 9.033e+03 2.139e-10
 95.66772    140.8 9.038e+03 2.136e-10
 95.69637    143.5 9.067e+03 2.144e-10
 95.71674    143.1 8.969e+03 1.911e-10
 95.74922    145.7 9.076e+03 1.974e-10
 95.78997    148.3 9.200e+03 2.085e-10
 95.82762    150.9 9.313e+03 2.234e-10
 95.84800    150.2 9.583e+03 2.643e-10
 95.85329    152.8 9.660e+03 2.788e-10
 95.87367    152.0 9.678e+03 2.788e-10
 95.91221    154.4 9.706e+03 2.873e-10
 95.94268    156.2 9.672e+03 2.910e-10
 95.96296    157.2 9.671e+03 2.972e-10
 95.98333    158.1 9.714e+03 3.173e-10
 95.99983    159.1 9.806e+03 3.618e-10
 96.00790    158.4 1.005e+04 4.411e-10
 96.01178    157.5 1.074e+04 6.359e-10
 96.02408    158.0 1.119e+04 8.133e-10
 96.04445    158.4 1.170e+04 1.063e-09
 96.06483    158.6 1.221e+04 1.401e-09
 96.07829    158.9 1.268e+04 1.832e-09
 96.08848    157.7 1.304e+04 2.345e-09
 96.10558    158.0 1.329e+04 2.759e-09
 96.12595    158.4 1.349e+04 3.059e-09
 96.14633    158.6 1.364e+04 3.168e-09
 96.15675    158.4 1.370e+04 3.120e-09
 96.16579    156.0 1.410e+04 3.142e-09
 96.17575    153.6 1.458e+04 3.158e-09
 96.18708    152.5 1.429e+04 2.833e-09
 96.20745    151.4 1.387e+04 2.505e-09
 96.22502    150.5 1.335e+04 2.211e-09
 96.23521    147.6 1.331e+04 2.393e-09
 96.24820    147.1 1.286e+04 2.127e-09
 96.26858    146.7 1.254e+04 1.937e-09
 96.28895    146.4 1.230e+04 1.822e-09
 96.30348    146.1 1.208e+04 1.755e-09
 96.31367    144.6 1.194e+04 1.835e-09
 96.32953    144.6 1.176e+04 1.762e-09
 96.33972    143.5 1.138e+04 1.392e-09
 96.35007    143.5 1.140e+04 1.389e-09
 96.37045    143.1 1.151e+04 1.403e-09
 96.38194    142.4 1.177e+04 1.466e-09
 96.39213    140.7 1.166e+04 1.260e-09
 96.41120    139.4 1.190e+04 1.402e-09
 96.43157    137.6 1.227e+04 1.696e-09
 96.45022    135.6 1.279e+04 2.117e-09
 96.46040    133.5 1.256e+04 1.986e-09
 96.47232    131.0 1.321e+04 2.463e-09
 96.49270    127.3 1.414e+04 3.142e-09
 96.50369    121.9 1.550e+04 4.325e-09
 96.51388    120.1 1.531e+04 3.971e-09
 96.52868    114.2 1.610e+04 5.247e-09
 96.53887    113.0 1.620e+04 5.773e-09
 96.55382    108.5 1.621e+04 6.350e-09
 96.57420    104.5 1.609e+04 6.167e-09
 96.59457    101.1 1.557e+04 5.207e-09
 96.60714     97.9 1.472e+04 3.624e-09
 96.61733     99.3 1.475e+04 3.539e-09
 96.63532     95.9 1.369e+04 2.186e-09
 96.65570     92.2 1.273e+04 1.522e-09
 96.68635     89.6 1.195e+04 1.049e-09
 96.72720     87.1 1.140e+04 8.443e-10
 96.75407     86.3 1.111e+04 7.107e-10
 96.77444     88.3 1.096e+04 6.228e-10
 96.80870     88.0 1.077e+04 5.018e-10
 96.83183     87.7 1.058e+04 3.960e-10
 96.85220     87.9 1.055e+04 3.446e-10
 96.89020     87.9 1.052e+04 3.286e-10
 96.91099     88.1 1.057e+04 3.530e-10
 96.93136     89.5 1.053e+04 2.839e-10
 96.96141     89.4 1.067e+04 3.090e-10
 96.97907     89.1 1.085e+04 3.615e-10
 96.98925     89.5 1.086e+04 3.274e-10
 96.99560     89.4 1.108e+04 4.120e-10
 97.00579     89.9 1.098e+04 3.553e-10
 97.02244     89.7 1.124e+04 4.825e-10
 97.04281     89.5 1.149e+04 7.231e-10
 97.05753     89.6 1.180e+04 1.125e-09
 97.06771     90.3 1.175e+04 9.177e-10
 97.08356     90.6 1.218e+04 1.384e-09
 97.10394     91.2 1.273e+04 2.001e-09
 97.12431     91.9 1.316e+04 2.540e-09
 97.13599     92.2 1.338e+04 2.651e-09
 97.14617     92.5 1.306e+04 1.848e-09
 97.15957     92.5 1.308e+04 1.848e-09
 97.16976     92.6 1.334e+04 2.244e-09
 97.18544     92.6 1.330e+04 2.213e-09
 97.20436     92.5 1.303e+04 2.047e-09
 97.22483     92.6 1.245e+04 1.465e-09
 97.25694     92.8 1.198e+04 1.220e-09
 97.29769     93.1 1.131e+04 8.267e-10
 97.32364     93.3 1.095e+04 6.902e-10
 97.33373     93.1 1.098e+04 6.900e-10
 97.34844     93.2 1.078e+04 6.281e-10
 97.36118     93.5 1.066e+04 6.103e-10
 97.37137     94.4 1.086e+04 7.224e-10
 97.38918     94.9 1.087e+04 7.235e-10
 97.40956     95.5 1.090e+04 7.339e-10
 97.42945     96.0 1.097e+04 7.628e-10
 97.43964     96.5 1.104e+04 8.690e-10
 97.45031     97.1 1.113e+04 9.176e-10
 97.47068     97.6 1.121e+04 9.608e-10
 97.48752     98.2 1.125e+04 9.827e-10
 97.49770     97.9 1.108e+04 8.698e-10
 97.50791     98.5 1.106e+04 8.442e-10
 97.51810     99.3 1.123e+04 1.005e-09
 97.53181     99.9 1.116e+04 9.418e-10
 97.55218    100.4 1.111e+04 8.768e-10
 97.57256    100.9 1.110e+04 8.185e-10
 97.58638    101.3 1.114e+04 7.840e-10
 97.59656    101.9 1.099e+04 7.928e-10
 97.61331    102.3 1.097e+04 7.685e-10
 97.63368    102.6 1.098e+04 7.702e-10
 97.65149    102.9 1.101e+04 7.817e-10
 97.66168    102.4 1.080e+04 6.719e-10
 97.66484    102.8 1.086e+04 7.221e-10
 97.67502    103.5 1.058e+04 6.480e-10
 97.69481    103.9 1.069e+04 7.134e-10
 97.71518    104.2 1.086e+04 8.182e-10
 97.73311    104.7 1.103e+04 9.427e-10
 97.74330    105.1 1.080e+04 8.019e-10
 97.75593    105.6 1.096e+04 9.105e-10
 97.77630    106.0 1.108e+04 1.004e-09
 97.79668    106.4 1.116e+04 1.073e-09
 97.81157    106.9 1.124e+04 1.118e-09
 97.82016    107.3 1.141e+04 8.316e-10
 97.82565    107.1 1.156e+04 8.761e-10
 97.83743    107.6 1.153e+04 9.473e-10
 97.85780    108.0 1.154e+04 1.041e-09
 97.87818    108.5 1.165e+04 1.168e-09
 97.89003    109.0 1.186e+04 1.331e-09
 97.90022    109.3 1.192e+04 9.765e-10
 97.91893    109.7 1.222e+04 1.236e-09
 97.93930    110.2 1.260e+04 1.615e-09
 97.95830    110.7 1.305e+04 2.134e-09
 97.96849    110.6 1.312e+04 1.938e-09
 97.97943    111.0 1.383e+04 2.822e-09
 97.98962    110.4 1.384e+04 2.782e-09
 98.00043    110.6 1.452e+04 3.946e-09
 98.02080    110.7 1.518e+04 5.325e-09
 98.03676    110.6 1.578e+04 6.788e-09
 98.04695    110.3 1.578e+04 8.662e-09
 98.06155    110.4 1.639e+04 1.154e-08
 98.08192    110.4 1.683e+04 1.312e-08
 98.10230    110.0 1.690e+04 1.309e-08
 98.11522    109.3 1.681e+04 1.241e-08
 98.12541    109.9 1.691e+04 1.094e-08
 98.14305    109.7 1.653e+04 9.160e-09
 98.15359    109.4 1.612e+04 7.255e-09
 98.16378    108.1 1.606e+04 5.779e-09
 98.18350    107.7 1.585e+04 5.002e-09
 98.19368    106.3 1.506e+04 2.682e-09
 98.20417    105.9 1.453e+04 2.581e-09
 98.22455    105.7 1.409e+04 2.604e-09
 98.24492    106.0 1.393e+04 2.660e-09
 98.26196    106.9 1.383e+04 2.820e-09
 98.27215    105.4 1.321e+04 2.587e-09
 98.28567    106.7 1.388e+04 3.392e-09
 98.30605    107.7 1.471e+04 4.312e-09
 98.31751    107.8 1.524e+04 4.948e-09
 98.32256    108.0 1.565e+04 5.585e-09
 98.33142    108.0 1.619e+04 6.543e-09
 98.34032    108.0 1.679e+04 7.778e-09
 98.34541    106.5 1.702e+04 9.005e-09
 98.35179    106.2 1.770e+04 1.053e-08
 98.36198    105.4 1.871e+04 1.233e-08
 98.37217    103.4 2.000e+04 1.463e-08
 98.37955     99.6 2.166e+04 1.761e-08
 98.38464     97.5 2.241e+04 1.670e-08
 98.39254     92.3 2.368e+04 1.838e-08
 98.39945     85.9 2.411e+04 1.976e-08
 98.40454     85.6 2.581e+04 2.632e-08
 98.41292     78.5 2.539e+04 2.529e-08
 98.41878     72.5 2.393e+04 2.263e-08
 98.42387     73.4 2.275e+04 1.815e-08
 98.43329     69.1 2.150e+04 1.708e-08
 98.44862     66.7 1.969e+04 1.294e-08
 98.46904     64.2 1.779e+04 8.980e-09
 98.48153     63.8 1.624e+04 5.398e-09
 98.48945     62.3 1.748e+04 5.588e-09
 98.49734     65.2 1.562e+04 4.198e-09
 98.50979     64.8 1.464e+04 2.483e-09
 98.53017     64.1 1.355e+04 1.467e-09
 98.55054     63.6 1.257e+04 9.582e-10
 98.56561     63.7 1.201e+04 7.227e-10
 98.57580     65.4 1.187e+04 7.059e-10
 98.59129     65.8 1.161e+04 6.103e-10
 98.61167     66.6 1.145e+04 5.911e-10
 98.63204     67.6 1.144e+04 6.004e-10
 98.64407     68.5 1.144e+04 6.460e-10
 98.64735     69.5 1.146e+04 5.774e-10
 98.65569     69.3 1.152e+04 7.007e-10
 98.67279     70.1 1.154e+04 7.857e-10
 98.69317     71.0 1.160e+04 8.825e-10
 98.71235     72.0 1.165e+04 9.234e-10
 98.72253     72.2 1.158e+04 8.638e-10
 98.73392     72.9 1.157e+04 8.678e-10
 98.75429     73.4 1.157e+04 8.713e-10
 98.77466     73.5 1.160e+04 8.814e-10
 98.79081     73.2 1.180e+04 9.245e-10
 98.80099     73.3 1.175e+04 8.809e-10
 98.80947     72.3 1.217e+04 1.053e-09
 98.81966     71.2 1.312e+04 1.726e-09
 98.83579     69.9 1.370e+04 2.301e-09
 98.85616     68.8 1.423e+04 3.032e-09
 98.86927     67.8 1.469e+04 3.663e-09
 98.87945     68.9 1.434e+04 3.058e-09
 98.89691     67.7 1.475e+04 3.399e-09
 98.91729     66.1 1.497e+04 3.417e-09
 98.93754     64.3 1.496e+04 3.259e-09
 98.94773     65.4 1.488e+04 3.241e-09
 98.95804     63.6 1.468e+04 2.959e-09
 98.97345     61.7 1.427e+04 2.529e-09
 98.98363     59.2 1.430e+04 2.893e-09
 98.99879     57.5 1.373e+04 2.678e-09
 99.01600     56.4 1.325e+04 2.513e-09
 99.02619     57.0 1.326e+04 2.649e-09
 99.03954     56.6 1.267e+04 2.431e-09
 99.05991     56.5 1.232e+04 2.241e-09
 99.08029     56.3 1.218e+04 1.970e-09
 99.09446     55.7 1.234e+04 1.912e-09
 99.10465     55.5 1.269e+04 2.465e-09
 99.12103     53.8 1.360e+04 2.850e-09
 99.13742     50.6 1.489e+04 3.937e-09
 99.14760     49.1 1.488e+04 4.547e-09
 99.16178     48.8 1.542e+04 6.805e-09
 99.17292     49.2 1.533e+04 7.479e-09
 99.18311     50.1 1.621e+04 1.102e-08
 99.20253     50.7 1.584e+04 1.013e-08
 99.22291     52.3 1.493e+04 7.393e-09
 99.24119     53.3 1.391e+04 4.332e-09
 99.25138     53.5 1.399e+04 4.422e-09
 99.26366     52.9 1.292e+04 2.436e-09
 99.29432     50.1 1.105e+04 7.690e-10
 99.31985     47.6 9.414e+03 3.700e-10
 99.34023     47.6 9.635e+03 4.629e-10
 99.37591     48.1 9.361e+03 3.855e-10
 99.41666     49.2 9.251e+03 3.585e-10
 99.45537     50.2 9.270e+03 3.388e-10
 99.47473     50.9 9.478e+03 3.624e-10
 99.47677     50.4 9.278e+03 2.795e-10
 99.49816     50.3 9.295e+03 2.483e-10
 99.53891     49.7 9.367e+03 2.464e-10
 99.57966     49.0 9.574e+03 2.568e-10
 99.61013     48.2 9.731e+03 2.684e-10
 99.62331     47.0 9.995e+03 2.940e-10
 99.63242     45.4 1.010e+04 3.330e-10
 99.63952     46.4 1.009e+04 3.366e-10
 99.65078     45.1 1.058e+04 4.009e-10
 99.67115     42.3 1.136e+04 5.889e-10
 99.69153     37.7 1.297e+04 1.261e-09
 99.71190     31.7 1.527e+04 4.108e-09
 99.73228     30.9 1.569e+04 5.010e-09
 99.75265     30.6 1.552e+04 4.544e-09
 99.77004     30.0 1.496e+04 2.905e-09
 99.78023     27.5 1.360e+04 1.718e-09
 99.79330     24.9 1.272e+04 8.384e-10
 99.80349     25.9 1.276e+04 7.426e-10
 99.82406     17.5 1.115e+04 2.806e-10
 99.86491     13.6 9.905e+03 2.367e-10
 99.90566     13.5 9.797e+03 2.489e-10
 99.92716     13.9 9.726e+03 2.432e-10
 99.94753     14.1 9.363e+03 1.864e-10
 99.98716     13.9 9.486e+03 1.450e-10
