# Columns:
#   distance along LOS (in CHIMPs)
#   peculiar velocity  (in km/s)
#   temperature (K)
#   HI number density
# pos=(49.8122,104.158,59.0365), angles=(1.36135,3.10259)
  0.00502   -191.7 2.368e+04 2.192e-07
  0.01484   -190.7 2.557e+04 1.206e-07
  0.01984   -191.5 2.749e+04 8.572e-08
  0.02504   -191.2 2.943e+04 4.345e-08
  0.03503   -191.6 3.009e+04 2.124e-08
  0.04502   -194.1 2.794e+04 1.044e-08
  0.05501   -197.1 2.244e+04 5.534e-09
  0.06330   -199.1 1.712e+04 3.489e-09
  0.06830   -200.2 1.548e+04 3.188e-09
  0.07499   -200.2 1.484e+04 2.592e-09
  0.08498   -199.5 1.465e+04 2.275e-09
  0.10002   -198.9 1.424e+04 1.933e-09
  0.12005   -197.5 1.312e+04 1.209e-09
  0.14003   -195.9 1.169e+04 6.947e-10
  0.15533   -194.5 1.087e+04 4.632e-10
  0.16532   -194.4 1.102e+04 5.022e-10
  0.18000   -192.7 1.057e+04 3.505e-10
  0.19998   -191.2 1.030e+04 2.816e-10
  0.23006   -190.0 1.023e+04 2.535e-10
  0.27012   -188.1 9.922e+03 2.113e-10
  0.31008   -185.0 9.487e+03 1.714e-10
  0.33939   -181.6 9.249e+03 1.505e-10
  0.35937   -180.4 9.197e+03 1.490e-10
  0.37308   -177.1 9.145e+03 1.424e-10
  0.39306   -177.3 9.291e+03 1.480e-10
  0.42998   -174.2 9.277e+03 1.465e-10
  0.46995   -171.3 9.310e+03 1.489e-10
  0.50991   -168.8 9.482e+03 1.756e-10
  0.53324   -166.4 9.688e+03 2.268e-10
  0.55322   -164.9 9.621e+03 2.041e-10
  0.58984   -162.5 9.847e+03 2.700e-10
  0.62981   -160.0 1.006e+04 3.463e-10
  0.66977   -157.7 1.022e+04 4.123e-10
  0.70710   -155.6 1.034e+04 4.579e-10
  0.72709   -153.9 1.039e+04 4.848e-10
  0.74971   -151.9 1.050e+04 5.289e-10
  0.78967   -150.0 1.059e+04 5.470e-10
  0.82964   -148.5 1.066e+04 5.521e-10
  0.86960   -147.2 1.077e+04 5.626e-10
  0.89948   -145.8 1.063e+04 5.643e-10
  0.91075   -145.3 1.058e+04 6.007e-10
  0.92074   -144.0 1.057e+04 5.499e-10
  0.93935   -143.5 1.045e+04 5.503e-10
  0.95933   -142.7 1.039e+04 5.734e-10
  0.97931   -141.9 1.033e+04 5.971e-10
  0.99769   -141.0 1.029e+04 6.110e-10
  1.00768   -140.2 1.022e+04 5.325e-10
  1.01928   -139.4 1.016e+04 5.457e-10
  1.03926   -138.6 1.012e+04 5.564e-10
  1.05924   -137.8 1.009e+04 5.620e-10
  1.07923   -137.0 9.981e+03 5.595e-10
  1.09461   -136.2 9.970e+03 5.459e-10
  1.10460   -135.7 1.005e+04 5.361e-10
  1.11919   -135.1 1.004e+04 5.405e-10
  1.13918   -134.4 1.007e+04 5.412e-10
  1.15916   -133.7 1.010e+04 5.448e-10
  1.17914   -133.0 1.012e+04 5.492e-10
  1.19154   -132.2 1.012e+04 5.531e-10
  1.20153   -132.1 1.017e+04 5.538e-10
  1.21911   -131.3 1.016e+04 5.572e-10
  1.23909   -130.5 1.016e+04 5.608e-10
  1.25907   -129.6 1.016e+04 5.659e-10
  1.27847   -128.7 1.017e+04 5.716e-10
  1.28846   -128.7 1.019e+04 5.769e-10
  1.29904   -127.8 1.019e+04 5.829e-10
  1.31902   -126.8 1.019e+04 5.865e-10
  1.33900   -125.9 1.019e+04 5.880e-10
  1.35899   -124.9 1.017e+04 5.895e-10
  1.37540   -124.0 1.016e+04 5.919e-10
  1.38539   -124.0 1.015e+04 5.878e-10
  1.39455   -123.1 1.013e+04 5.821e-10
  1.40454   -122.9 1.023e+04 6.060e-10
  1.41894   -122.0 1.026e+04 6.190e-10
  1.43892   -121.0 1.031e+04 6.363e-10
  1.45890   -120.1 1.038e+04 6.619e-10
  1.47232   -119.1 1.048e+04 6.966e-10
  1.48231   -119.3 1.042e+04 6.703e-10
  1.49887   -118.3 1.053e+04 7.126e-10
  1.51885   -117.4 1.066e+04 7.679e-10
  1.53883   -116.5 1.079e+04 8.332e-10
  1.55881   -115.6 1.094e+04 9.029e-10
  1.56925   -114.7 1.108e+04 9.762e-10
  1.57924   -114.8 1.105e+04 9.601e-10
  1.59878   -113.9 1.116e+04 1.016e-09
  1.61876   -113.0 1.127e+04 1.072e-09
  1.63875   -112.3 1.132e+04 1.101e-09
  1.65628   -110.9 1.141e+04 1.148e-09
  1.67636   -111.0 1.139e+04 1.145e-09
  1.70888   -109.2 1.141e+04 1.155e-09
  1.74885   -107.2 1.137e+04 1.120e-09
  1.78881   -105.2 1.126e+04 1.025e-09
  1.82878   -103.4 1.113e+04 9.091e-10
  1.85023   -101.7 1.098e+04 7.900e-10
  1.87021   -101.9 1.139e+04 9.702e-10
  1.90871   -100.4 1.132e+04 8.994e-10
  1.94868    -99.3 1.118e+04 8.301e-10
  1.98864    -98.4 1.102e+04 7.698e-10
  2.02409    -97.7 1.089e+04 7.260e-10
  2.04398    -98.0 1.152e+04 1.067e-09
  2.05839    -97.6 1.135e+04 9.321e-10
  2.07837    -97.6 1.136e+04 9.209e-10
  2.10844    -98.1 1.198e+04 1.181e-09
  2.14850    -97.6 1.176e+04 1.138e-09
  2.18847    -96.7 1.140e+04 1.032e-09
  2.21794    -95.4 1.091e+04 8.857e-10
  2.23793    -96.2 1.170e+04 1.256e-09
  2.26840    -94.5 1.107e+04 9.753e-10
  2.30837    -92.6 1.060e+04 7.657e-10
  2.34833    -90.6 1.019e+04 6.063e-10
  2.38830    -88.8 9.936e+03 4.964e-10
  2.41180    -87.0 9.747e+03 4.108e-10
  2.41993    -87.0 1.010e+04 5.539e-10
  2.43640    -86.2 9.473e+03 3.420e-10
  2.46823    -84.4 9.224e+03 2.582e-10
  2.50819    -82.6 8.998e+03 1.969e-10
  2.54816    -80.9 8.739e+03 1.533e-10
  2.58566    -79.4 8.430e+03 1.249e-10
  2.60565    -79.1 1.025e+04 2.313e-10
  2.62809    -77.9 1.019e+04 2.143e-10
  2.66806    -76.9 9.864e+03 2.131e-10
  2.70802    -75.9 9.501e+03 2.304e-10
  2.74799    -74.9 9.605e+03 2.770e-10
  2.77951    -73.6 9.887e+03 3.592e-10
  2.79950    -74.1 1.146e+04 1.006e-09
  2.82792    -72.4 1.165e+04 1.202e-09
  2.86788    -71.0 1.191e+04 1.472e-09
  2.89776    -70.4 1.247e+04 2.094e-09
  2.91765    -70.9 1.322e+04 2.607e-09
  2.93205    -72.4 1.466e+04 3.967e-09
  2.94204    -70.5 1.309e+04 2.487e-09
  2.95761    -71.4 1.442e+04 3.495e-09
  2.97317    -72.3 1.566e+04 4.947e-09
  2.98316    -73.0 1.600e+04 5.398e-09
  2.99758    -73.9 1.674e+04 7.021e-09
  3.01756    -74.5 1.689e+04 7.537e-09
  3.03754    -75.0 1.669e+04 7.267e-09
  3.05753    -75.3 1.574e+04 5.363e-09
  3.07009    -76.4 1.464e+04 3.702e-09
  3.08009    -76.0 1.483e+04 3.422e-09
  3.09749    -78.0 1.375e+04 2.161e-09
  3.11747    -79.6 1.311e+04 1.605e-09
  3.13746    -80.7 1.294e+04 1.384e-09
  3.15703    -81.5 1.293e+04 1.269e-09
  3.16702    -82.1 1.198e+04 8.038e-10
  3.17742    -82.5 1.190e+04 7.507e-10
  3.19741    -82.9 1.183e+04 7.108e-10
  3.21739    -83.1 1.176e+04 7.045e-10
  3.23737    -83.0 1.169e+04 7.157e-10
  3.25395    -82.5 1.148e+04 7.213e-10
  3.26395    -81.8 1.121e+04 6.036e-10
  3.27734    -80.9 1.100e+04 5.721e-10
  3.29732    -79.9 1.082e+04 5.083e-10
  3.31730    -79.1 1.070e+04 4.389e-10
  3.33729    -78.4 1.064e+04 3.917e-10
  3.35088    -78.0 1.060e+04 3.637e-10
  3.36097    -77.9 1.060e+04 3.674e-10
  3.38744    -76.6 1.040e+04 2.961e-10
  3.42740    -75.2 1.010e+04 2.347e-10
  3.44808    -73.6 9.808e+03 1.962e-10
  3.46806    -72.7 9.661e+03 1.592e-10
  3.50734    -71.1 9.570e+03 1.683e-10
  3.53493    -69.4 9.550e+03 1.923e-10
  3.55492    -67.9 9.363e+03 1.059e-10
  3.58727    -66.5 9.459e+03 1.478e-10
  3.62723    -65.1 9.592e+03 2.108e-10
  3.66720    -63.9 9.811e+03 2.785e-10
  3.70716    -62.9 1.007e+04 3.294e-10
  3.72878    -62.5 1.059e+04 4.394e-10
  3.74877    -61.0 1.071e+04 5.072e-10
  3.78709    -60.4 1.125e+04 6.906e-10
  3.82706    -60.1 1.155e+04 8.088e-10
  3.86703    -60.2 1.169e+04 9.004e-10
  3.90265    -60.0 1.174e+04 9.847e-10
  3.92264    -58.3 1.152e+04 8.090e-10
  3.94696    -58.1 1.139e+04 7.822e-10
  3.97683    -57.6 1.157e+04 8.603e-10
  3.99672    -57.5 1.139e+04 8.306e-10
  4.00937    -57.1 1.107e+04 7.652e-10
  4.01937    -56.5 1.107e+04 7.075e-10
  4.03668    -55.9 1.082e+04 6.390e-10
  4.05667    -55.2 1.061e+04 5.477e-10
  4.07665    -54.7 1.045e+04 4.552e-10
  4.09631    -54.3 1.030e+04 3.866e-10
  4.10630    -53.7 1.040e+04 4.040e-10
  4.11662    -53.3 1.028e+04 3.677e-10
  4.13660    -52.7 1.020e+04 3.523e-10
  4.15658    -52.1 1.013e+04 3.495e-10
  4.17656    -51.2 1.012e+04 3.724e-10
  4.19323    -50.4 1.009e+04 3.966e-10
  4.20322    -50.2 1.023e+04 4.288e-10
  4.22662    -49.2 1.017e+04 4.432e-10
  4.26668    -47.0 1.019e+04 4.721e-10
  4.29035    -44.9 1.017e+04 4.750e-10
  4.31034    -44.1 1.035e+04 5.926e-10
  4.34661    -41.5 1.015e+04 5.179e-10
  4.38658    -39.0 1.007e+04 4.556e-10
  4.42654    -37.2 9.928e+03 4.129e-10
  4.45642    -34.6 9.893e+03 3.951e-10
  4.46955    -33.9 9.871e+03 3.949e-10
  4.47726    -33.3 9.959e+03 4.096e-10
  4.48411    -32.5 9.886e+03 3.681e-10
  4.50648    -30.0 9.841e+03 3.614e-10
  4.53635    -28.5 9.953e+03 4.139e-10
  4.55624    -27.6 9.897e+03 4.377e-10
  4.57094    -26.0 9.938e+03 4.893e-10
  4.58093    -25.1 9.783e+03 3.792e-10
  4.59620    -24.3 9.752e+03 4.063e-10
  4.61619    -22.6 9.879e+03 4.712e-10
  4.63617    -22.0 1.026e+04 5.304e-10
  4.65615    -23.9 1.297e+04 1.024e-09
  4.66787    -26.6 1.571e+04 2.533e-09
  4.67786    -23.0 1.378e+04 1.072e-09
  4.69612    -26.1 1.640e+04 2.937e-09
  4.71106    -26.7 1.655e+04 4.739e-09
  4.71623    -27.6 1.672e+04 6.714e-09
  4.72123    -26.7 1.704e+04 5.514e-09
  4.72737    -26.7 1.704e+04 9.236e-09
  4.73237    -27.2 1.703e+04 1.135e-08
  4.74098    -26.8 1.720e+04 1.425e-08
  4.75097    -25.7 1.798e+04 1.652e-08
  4.75970    -24.8 1.909e+04 1.695e-08
  4.76470    -24.2 1.794e+04 1.837e-08
  4.77096    -23.1 1.879e+04 1.922e-08
  4.78095    -22.8 1.909e+04 1.787e-08
  4.79598    -21.6 2.016e+04 1.713e-08
  4.81601    -22.7 2.239e+04 7.936e-09
  4.83600    -27.6 1.942e+04 2.145e-09
  4.85173    -32.6 1.174e+04 8.548e-10
  4.86172    -26.0 2.001e+04 1.862e-09
  4.87596    -30.9 1.145e+04 8.023e-10
  4.89595    -31.0 1.009e+04 6.442e-10
  4.91593    -30.1 9.928e+03 5.500e-10
  4.93591    -28.8 9.944e+03 5.210e-10
  4.94865    -28.4 9.826e+03 4.796e-10
  4.95864    -28.3 9.816e+03 4.785e-10
  4.98597    -27.4 9.498e+03 4.003e-10
  5.02579    -26.6 9.454e+03 4.008e-10
  5.04577    -25.6 9.460e+03 2.738e-10
  5.06600    -25.3 9.484e+03 2.986e-10
  5.10596    -25.2 9.922e+03 4.361e-10
  5.14593    -25.0 1.040e+04 5.854e-10
  5.18589    -26.0 1.098e+04 7.105e-10
  5.21964    -28.4 1.143e+04 8.439e-10
  5.23962    -27.5 9.996e+03 3.339e-10
  5.26582    -30.0 1.035e+04 4.610e-10
  5.30579    -32.1 1.058e+04 6.449e-10
  5.34575    -33.8 1.073e+04 7.361e-10
  5.37563    -34.6 1.071e+04 7.663e-10
  5.39552    -35.2 1.069e+04 7.722e-10
  5.41330    -36.3 1.057e+04 7.703e-10
  5.42329    -35.2 1.074e+04 8.319e-10
  5.43548    -36.1 1.074e+04 8.688e-10
  5.45546    -37.2 1.070e+04 8.707e-10
  5.47545    -38.3 1.063e+04 8.262e-10
  5.49122    -39.8 1.050e+04 7.465e-10
  5.50121    -38.8 1.052e+04 7.734e-10
  5.51022    -40.5 1.041e+04 6.944e-10
  5.52021    -39.7 1.142e+04 1.011e-09
  5.53540    -42.3 1.127e+04 8.938e-10
  5.55538    -45.2 1.109e+04 7.978e-10
  5.57536    -47.7 1.100e+04 7.960e-10
  5.59534    -49.2 1.093e+04 8.726e-10
  5.60715    -49.7 1.091e+04 9.765e-10
  5.61714    -50.0 1.185e+04 1.371e-09
  5.63531    -50.1 1.173e+04 1.390e-09
  5.65529    -49.9 1.159e+04 1.334e-09
  5.67528    -49.7 1.137e+04 1.185e-09
  5.69408    -49.6 1.103e+04 9.940e-10
  5.70407    -49.8 1.182e+04 1.287e-09
  5.71524    -49.6 1.137e+04 1.044e-09
  5.73522    -49.1 1.090e+04 8.412e-10
  5.75521    -48.7 1.045e+04 6.797e-10
  5.77519    -48.2 1.010e+04 5.603e-10
  5.79101    -47.6 9.837e+03 4.718e-10
  5.80100    -48.1 1.086e+04 7.062e-10
  5.81516    -47.6 1.047e+04 6.074e-10
  5.83514    -47.0 1.018e+04 5.468e-10
  5.85512    -46.2 1.001e+04 5.190e-10
  5.87510    -45.2 9.970e+03 5.136e-10
  5.88793    -44.0 9.979e+03 5.166e-10
  5.89792    -44.2 1.018e+04 6.565e-10
  5.91507    -43.0 1.013e+04 6.505e-10
  5.93505    -41.6 1.011e+04 6.547e-10
  5.95504    -40.4 1.017e+04 6.756e-10
  5.97487    -39.2 1.022e+04 6.939e-10
  5.98486    -39.2 1.044e+04 7.544e-10
  5.99500    -37.8 1.046e+04 7.540e-10
  6.00705    -36.6 1.058e+04 7.778e-10
  6.01704    -35.9 1.061e+04 7.851e-10
  6.03497    -34.9 1.077e+04 8.257e-10
  6.05495    -34.0 1.082e+04 8.481e-10
  6.07179    -32.9 1.088e+04 8.745e-10
  6.08178    -33.0 1.095e+04 8.779e-10
  6.09491    -32.1 1.113e+04 9.308e-10
  6.11490    -31.9 1.122e+04 9.632e-10
  6.13488    -32.4 1.174e+04 1.121e-09
  6.15486    -33.9 1.283e+04 1.467e-09
  6.16872    -35.7 1.452e+04 2.249e-09
  6.17871    -38.9 1.663e+04 4.057e-09
  6.19483    -39.4 1.683e+04 5.818e-09
  6.21481    -39.1 1.646e+04 6.862e-09
  6.23479    -38.6 1.612e+04 7.152e-09
  6.25478    -37.8 1.521e+04 6.640e-09
  6.26564    -36.7 1.423e+04 5.159e-09
  6.27563    -36.3 1.363e+04 4.285e-09
  6.29474    -35.4 1.295e+04 2.964e-09
  6.31473    -34.9 1.248e+04 2.018e-09
  6.33471    -34.7 1.184e+04 1.318e-09
  6.35258    -34.7 1.113e+04 8.915e-10
  6.36257    -36.5 1.020e+04 5.220e-10
  6.38476    -36.0 9.243e+03 3.444e-10
  6.42483    -33.1 8.736e+03 2.638e-10
  6.46479    -29.7 8.315e+03 1.975e-10
  6.50309    -27.1 8.166e+03 1.617e-10
  6.52308    -27.1 8.250e+03 1.712e-10
  6.53663    -24.6 8.053e+03 1.410e-10
  6.55661    -25.1 7.906e+03 1.286e-10
  6.58469    -22.5 7.879e+03 1.199e-10
  6.62465    -20.0 7.885e+03 1.181e-10
  6.66462    -17.7 7.978e+03 1.217e-10
  6.70459    -15.7 8.135e+03 1.362e-10
  6.73048    -13.8 8.339e+03 1.624e-10
  6.75046    -14.6 8.616e+03 2.195e-10
  6.78452    -12.7 8.806e+03 2.694e-10
  6.82448    -10.5 8.909e+03 3.047e-10
  6.86445     -8.3 8.919e+03 3.141e-10
  6.90435     -6.3 8.919e+03 3.047e-10
  6.94432     -5.0 8.783e+03 2.615e-10
  6.98435     -3.5 8.809e+03 2.430e-10
  7.02431     -2.1 8.965e+03 2.541e-10
  7.06428     -0.8 9.234e+03 2.946e-10
  7.09820      0.5 9.467e+03 3.565e-10
  7.11818      0.0 9.454e+03 3.999e-10
  7.14421      2.0 9.613e+03 4.309e-10
  7.18417      3.7 9.636e+03 3.865e-10
  7.22414      5.0 9.625e+03 3.334e-10
  7.26411      5.9 9.767e+03 3.220e-10
  7.29205      6.6 9.908e+03 3.547e-10
  7.31203      5.8 9.755e+03 2.781e-10
  7.34404      6.5 9.942e+03 3.410e-10
  7.37391      7.2 1.007e+04 3.941e-10
  7.38878      7.5 1.019e+04 4.208e-10
  7.39877      7.3 1.016e+04 4.492e-10
  7.41378      7.8 1.012e+04 4.964e-10
  7.43376      8.3 1.016e+04 5.195e-10
  7.45375      8.6 1.031e+04 5.247e-10
  7.47373      8.7 1.030e+04 5.134e-10
  7.48580      9.0 1.046e+04 4.984e-10
  7.50588      7.9 1.122e+04 6.868e-10
  7.53476      7.4 1.129e+04 8.767e-10
  7.55474      7.0 1.126e+04 8.517e-10
  7.58383      7.6 1.106e+04 9.084e-10
  7.62380      9.0 1.077e+04 7.819e-10
  7.65977     10.1 1.045e+04 5.320e-10
  7.67975      8.9 1.036e+04 4.386e-10
  7.70373      8.4 1.007e+04 3.146e-10
  7.74369      7.8 1.025e+04 2.990e-10
  7.78366      7.0 1.033e+04 3.979e-10
  7.82362      7.4 1.028e+04 4.569e-10
  7.85362      7.7 1.018e+04 4.280e-10
  7.87360      7.8 9.990e+03 3.482e-10
  7.90356      8.1 9.736e+03 2.998e-10
  7.94352      9.0 9.233e+03 2.430e-10
  7.98349     10.4 8.951e+03 1.714e-10
  8.02345     11.3 8.854e+03 1.236e-10
  8.04747     12.4 8.691e+03 1.020e-10
  8.06745     12.9 8.626e+03 9.261e-11
  8.10338     14.5 8.550e+03 8.338e-11
  8.14335     16.1 8.618e+03 7.725e-11
  8.18331     17.0 8.786e+03 7.931e-11
  8.22134     17.2 9.230e+03 1.161e-10
  8.24132     17.6 8.994e+03 8.147e-11
  8.26325     17.9 9.468e+03 1.517e-10
  8.30321     18.5 9.806e+03 2.597e-10
  8.34318     18.8 1.002e+04 3.705e-10
  8.37305     18.8 9.926e+03 4.176e-10
  8.39294     18.5 1.019e+04 4.818e-10
  8.41292     18.0 1.050e+04 5.575e-10
  8.42499     17.0 1.069e+04 6.335e-10
  8.43498     17.7 1.041e+04 5.272e-10
  8.46298     17.5 1.046e+04 5.769e-10
  8.50304     17.0 1.024e+04 5.650e-10
  8.54301     16.4 9.906e+03 5.382e-10
  8.56642     15.0 1.031e+04 6.042e-10
  8.58640     15.1 9.928e+03 4.357e-10
  8.60894     13.5 1.065e+04 6.435e-10
  8.61884     13.7 1.085e+04 7.998e-10
  8.63273     13.0 1.116e+04 9.630e-10
  8.65272     12.6 1.135e+04 1.114e-09
  8.67270     12.6 1.153e+04 1.283e-09
  8.69268      9.6 1.433e+04 2.138e-09
  8.70577      4.1 1.784e+04 4.958e-09
  8.71576      5.1 1.892e+04 3.661e-09
  8.73265     -0.4 2.060e+04 1.076e-08
  8.74759     -1.5 1.924e+04 2.182e-08
  8.75414     -1.9 1.944e+04 2.997e-08
  8.75913     -3.2 2.014e+04 3.758e-08
  8.76752     -2.5 2.037e+04 5.268e-08
  8.77751     -1.8 2.101e+04 6.471e-08
  8.78750     -1.7 2.149e+04 6.782e-08
  8.79749     -1.2 2.343e+04 4.485e-08
  8.80260     -4.6 2.668e+04 1.944e-08
  8.80759     -2.0 2.530e+04 3.802e-08
  8.81748     -7.2 2.563e+04 1.477e-08
  8.83251    -14.1 1.945e+04 7.269e-09
  8.85254    -17.1 1.485e+04 3.355e-09
  8.87253    -17.5 1.347e+04 2.177e-09
  8.88963    -17.9 1.246e+04 1.382e-09
  8.89962    -16.7 1.317e+04 1.698e-09
  8.91249    -17.7 1.231e+04 1.061e-09
  8.93248    -18.8 1.140e+04 7.022e-10
  8.95246    -19.7 1.082e+04 5.450e-10
  8.97244    -20.1 1.066e+04 4.959e-10
  8.98656    -20.4 1.065e+04 4.804e-10
  8.99655    -20.1 1.069e+04 5.390e-10
  9.01241    -20.3 1.072e+04 5.824e-10
  9.03239    -20.4 1.084e+04 6.454e-10
  9.05237    -20.5 1.096e+04 7.093e-10
  9.07206    -20.6 1.105e+04 7.698e-10
  9.08205    -21.3 1.120e+04 8.515e-10
  9.08348    -21.4 1.121e+04 9.157e-10
  9.09347    -20.7 1.138e+04 9.772e-10
  9.11232    -20.8 1.136e+04 9.867e-10
  9.13230    -20.6 1.115e+04 9.860e-10
  9.15229    -20.2 1.093e+04 9.197e-10
  9.17041    -19.8 1.075e+04 8.104e-10
  9.18041    -19.3 1.084e+04 7.592e-10
  9.19225    -19.2 1.065e+04 6.533e-10
  9.21223    -19.3 1.044e+04 5.761e-10
  9.23222    -19.7 1.027e+04 5.222e-10
  9.25220    -20.0 1.015e+04 4.927e-10
  9.26734    -20.0 1.015e+04 4.903e-10
  9.27733    -19.8 1.027e+04 5.357e-10
  9.29217    -19.2 1.036e+04 5.635e-10
  9.31215    -18.5 1.040e+04 5.711e-10
  9.33213    -17.7 1.037e+04 5.517e-10
  9.35211    -16.9 1.030e+04 4.991e-10
  9.36427    -16.2 1.024e+04 4.455e-10
  9.37426    -15.8 1.041e+04 4.779e-10
  9.39208    -15.4 1.029e+04 4.147e-10
  9.41206    -15.1 1.012e+04 3.729e-10
  9.43205    -14.8 1.004e+04 3.609e-10
  9.45120    -14.9 1.040e+04 3.765e-10
  9.46119    -14.1 1.026e+04 3.942e-10
  9.47201    -15.8 1.175e+04 5.259e-10
  9.49199    -20.1 1.465e+04 1.189e-09
  9.51198    -23.0 1.561e+04 2.958e-09
  9.53196    -23.3 1.585e+04 5.822e-09
  9.54812    -22.5 1.638e+04 8.720e-09
  9.55812    -21.2 1.660e+04 8.171e-09
  9.57193    -20.1 1.707e+04 1.012e-08
  9.58789    -19.6 1.732e+04 1.007e-08
  9.59788    -19.5 1.700e+04 7.904e-09
  9.61189    -21.6 1.709e+04 4.391e-09
  9.63187    -28.7 1.453e+04 1.891e-09
  9.64505    -34.1 1.148e+04 1.256e-09
  9.65504    -31.8 1.231e+04 1.452e-09
  9.67184    -34.2 1.132e+04 1.270e-09
  9.69182    -34.8 1.129e+04 1.271e-09
  9.71181    -35.2 1.126e+04 1.278e-09
  9.73179    -35.1 1.111e+04 1.232e-09
  9.74198    -35.0 1.095e+04 1.133e-09
  9.75197    -34.4 1.099e+04 1.142e-09
  9.77175    -34.2 1.080e+04 1.009e-09
  9.79174    -34.2 1.062e+04 8.741e-10
  9.81172    -34.5 1.053e+04 7.900e-10
  9.82891    -35.0 1.053e+04 7.746e-10
  9.83890    -34.1 1.054e+04 7.158e-10
  9.85168    -34.7 1.060e+04 7.135e-10
  9.87167    -35.3 1.100e+04 8.367e-10
  9.89165    -35.7 1.156e+04 1.135e-09
  9.91163    -35.8 1.232e+04 1.596e-09
  9.92583    -35.8 1.326e+04 2.272e-09
  9.93583    -34.5 1.252e+04 1.688e-09
  9.95160    -34.5 1.350e+04 2.444e-09
  9.97158    -34.3 1.445e+04 3.555e-09
  9.99156    -34.0 1.524e+04 4.749e-09
 10.01155    -33.4 1.580e+04 5.723e-09
 10.02276    -32.7 1.610e+04 6.231e-09
 10.03275    -31.5 1.626e+04 6.673e-09
 10.05151    -30.8 1.652e+04 7.147e-09
 10.07150    -30.1 1.645e+04 6.927e-09
 10.09148    -29.5 1.599e+04 5.899e-09
 10.10372    -29.0 1.528e+04 4.810e-09
 10.11194    -29.4 1.607e+04 5.889e-09
 10.11969    -27.9 1.634e+04 6.303e-09
 10.13144    -27.5 1.582e+04 5.222e-09
 10.15143    -27.2 1.522e+04 4.382e-09
 10.17141    -26.6 1.470e+04 3.825e-09
 10.19139    -25.6 1.441e+04 3.562e-09
 10.20662    -24.6 1.431e+04 3.478e-09
 10.21661    -23.6 1.433e+04 3.405e-09
 10.23136    -22.5 1.427e+04 3.358e-09
 10.25134    -21.3 1.424e+04 3.322e-09
 10.27132    -20.1 1.421e+04 3.284e-09
 10.29131    -18.7 1.416e+04 3.224e-09
 10.30354    -17.3 1.415e+04 3.185e-09
 10.31354    -16.4 1.425e+04 3.050e-09
 10.33127    -15.0 1.429e+04 3.037e-09
 10.35126    -13.8 1.430e+04 3.000e-09
 10.37124    -12.5 1.427e+04 2.973e-09
 10.39048    -11.3 1.446e+04 3.024e-09
 10.40047    -10.3 1.459e+04 2.841e-09
 10.41120     -9.2 1.497e+04 3.052e-09
 10.43119     -8.5 1.538e+04 3.407e-09
 10.45117     -8.0 1.578e+04 3.930e-09
 10.47115     -7.6 1.624e+04 4.759e-09
 10.48740     -6.8 1.669e+04 5.984e-09
 10.49740     -5.6 1.673e+04 5.197e-09
 10.51112     -4.7 1.711e+04 6.540e-09
 10.53110     -3.5 1.743e+04 7.994e-09
 10.55108     -2.0 1.771e+04 9.276e-09
 10.57107     -0.5 1.804e+04 1.033e-08
 10.58433      0.8 1.847e+04 1.114e-08
 10.59432      1.9 1.838e+04 1.038e-08
 10.60956      2.9 1.875e+04 1.117e-08
 10.61955      2.6 1.690e+04 4.591e-09
 10.63101      3.4 1.704e+04 4.051e-09
 10.65100      4.5 1.713e+04 3.374e-09
 10.67098      5.6 1.685e+04 2.718e-09
 10.68125      6.9 1.628e+04 2.149e-09
 10.69125      7.8 1.656e+04 1.519e-09
 10.71095      8.4 1.553e+04 1.187e-09
 10.73093      9.0 1.447e+04 9.007e-10
 10.75091      9.7 1.402e+04 7.844e-10
 10.76819     10.9 1.408e+04 6.930e-10
 10.77818     11.5 1.343e+04 5.467e-10
 10.79088     12.6 1.365e+04 5.250e-10
 10.81086     14.7 1.427e+04 5.246e-10
 10.83084     16.2 1.452e+04 5.102e-10
 10.85083     18.4 1.497e+04 4.954e-10
 10.86511     20.0 1.557e+04 5.050e-10
 10.87511     20.5 1.460e+04 3.766e-10
 10.89079     22.5 1.547e+04 4.222e-10
 10.91077     23.8 1.758e+04 5.026e-10
 10.93076     23.7 2.267e+04 7.514e-10
 10.95074     22.3 2.821e+04 1.464e-09
 10.96204     23.3 2.916e+04 4.698e-09
 10.97203     21.8 3.077e+04 1.837e-09
 10.99071     25.8 3.098e+04 6.203e-09
 11.00546     28.3 3.010e+04 1.165e-08
 11.01040     26.7 3.480e+04 5.528e-09
 11.01559     27.4 3.557e+04 8.703e-09
 11.02558     27.9 3.690e+04 1.220e-08
 11.03557     23.8 4.422e+04 1.240e-08
 11.04556     14.2 7.811e+04 2.001e-09
 11.05387      4.7 9.454e+04 8.528e-10
 11.05887      5.2 1.013e+05 3.938e-10
 11.06554     -5.2 7.050e+04 7.118e-10
 11.07554    -10.7 5.779e+04 9.083e-10
 11.08553    -18.0 3.893e+04 1.858e-09
 11.09552    -22.1 3.148e+04 2.289e-09
 11.11055    -28.4 2.593e+04 5.814e-09
 11.12539    -30.6 2.426e+04 7.497e-09
 11.13538    -25.1 1.685e+04 3.068e-09
 11.14590    -26.7 1.763e+04 4.699e-09
 11.15589    -25.5 1.708e+04 3.976e-09
 11.17055    -26.2 1.747e+04 5.227e-09
 11.19053    -26.2 1.742e+04 5.733e-09
 11.21052    -25.7 1.742e+04 5.829e-09
 11.23050    -25.0 1.736e+04 4.580e-09
 11.24282    -24.6 1.656e+04 2.917e-09
 11.25282    -24.1 1.676e+04 3.627e-09
 11.27047    -24.0 1.566e+04 2.257e-09
 11.29045    -24.3 1.410e+04 1.438e-09
 11.31043    -24.3 1.281e+04 1.052e-09
 11.32976    -23.4 1.222e+04 8.792e-10
 11.33975    -23.1 1.256e+04 1.037e-09
 11.35040    -22.0 1.217e+04 8.872e-10
 11.37038    -20.7 1.191e+04 7.682e-10
 11.39036    -19.4 1.167e+04 6.514e-10
 11.41034    -18.1 1.143e+04 5.466e-10
 11.42668    -16.9 1.123e+04 4.559e-10
 11.43667    -17.0 1.151e+04 5.704e-10
 11.45031    -15.9 1.138e+04 4.897e-10
 11.47029    -14.9 1.126e+04 4.240e-10
 11.49028    -13.9 1.114e+04 3.746e-10
 11.51026    -12.8 1.101e+04 3.394e-10
 11.52361    -11.4 1.094e+04 3.215e-10
 11.53360    -11.8 1.126e+04 4.143e-10
 11.55022    -10.7 1.114e+04 3.808e-10
 11.57021     -9.2 1.104e+04 3.550e-10
 11.59019     -8.0 1.092e+04 3.311e-10
 11.61064     -5.8 1.079e+04 3.133e-10
 11.63062     -5.7 1.110e+04 3.767e-10
 11.64122     -4.0 1.100e+04 3.603e-10
 11.65121     -4.3 1.092e+04 3.350e-10
 11.67012     -3.6 1.087e+04 3.288e-10
 11.69010     -1.5 1.087e+04 3.424e-10
 11.70747     -1.2 1.081e+04 3.505e-10
 11.71746     -1.1 1.090e+04 4.205e-10
 11.74016      1.2 1.076e+04 3.932e-10
 11.78022      4.8 1.057e+04 3.531e-10
 11.80459      7.7 1.068e+04 3.636e-10
 11.82457      7.3 1.075e+04 4.152e-10
 11.86015     10.0 1.101e+04 4.383e-10
 11.90012     12.3 1.140e+04 5.434e-10
 11.94008     14.4 1.191e+04 7.472e-10
 11.97846     16.5 1.239e+04 1.028e-09
 11.99844     15.6 1.189e+04 8.163e-10
 12.02002     17.5 1.200e+04 8.947e-10
 12.05998     19.2 1.169e+04 7.351e-10
 12.09995     21.0 1.139e+04 4.816e-10
 12.13991     22.1 1.131e+04 2.734e-10
 12.17231     21.8 1.119e+04 2.089e-10
 12.19229     21.4 1.038e+04 1.054e-10
 12.21984     22.0 1.053e+04 1.532e-10
 12.25981     23.7 1.045e+04 2.726e-10
 12.29978     26.0 1.060e+04 3.789e-10
 12.33974     27.8 1.085e+04 4.068e-10
 12.36616     28.5 1.115e+04 4.083e-10
 12.38614     28.6 1.071e+04 3.308e-10
 12.41967     30.0 1.082e+04 4.416e-10
 12.45964     31.7 1.079e+04 4.327e-10
 12.49960     32.9 1.121e+04 3.160e-10
 12.53957     31.3 1.331e+04 3.564e-10
 12.55991     30.2 1.250e+04 4.454e-10
 12.57989     31.3 1.254e+04 3.710e-10
 12.60941     28.6 1.450e+04 1.204e-09
 12.62930     26.4 1.625e+04 3.535e-09
 12.64675     27.0 1.689e+04 8.043e-09
 12.65674     26.8 1.613e+04 5.328e-09
 12.66289     29.6 1.602e+04 8.994e-09
 12.67288     29.4 1.528e+04 6.858e-09
 12.68925     31.4 1.547e+04 7.201e-09
 12.70923     33.7 1.546e+04 5.358e-09
 12.72921     33.2 1.547e+04 3.189e-09
 12.74367     30.8 1.441e+04 1.604e-09
 12.75366     31.8 1.380e+04 1.469e-09
 12.77927     31.0 1.237e+04 8.988e-10
 12.81933     31.2 1.161e+04 6.908e-10
 12.85929     33.0 1.102e+04 6.019e-10
 12.89926     35.3 1.078e+04 5.548e-10
 12.92773     37.4 1.062e+04 5.133e-10
 12.94771     38.9 1.066e+04 5.585e-10
 12.97919     41.0 1.067e+04 5.658e-10
 13.01916     42.8 1.076e+04 6.260e-10
 13.05912     44.3 1.109e+04 8.052e-10
 13.09909     46.3 1.106e+04 8.919e-10
 13.12158     48.6 1.091e+04 8.422e-10
 13.13147     48.9 1.126e+04 1.009e-09
 13.14885     49.1 1.118e+04 9.668e-10
 13.17892     51.2 1.102e+04 8.502e-10
 13.21899     52.9 1.025e+04 5.360e-10
 13.25895     54.9 9.607e+03 3.513e-10
 13.29545     57.1 9.203e+03 2.459e-10
 13.31543     57.5 9.446e+03 2.932e-10
 13.33888     59.7 9.106e+03 2.074e-10
 13.37885     62.0 8.894e+03 1.635e-10
 13.41881     64.4 8.770e+03 1.369e-10
 13.45878     66.8 8.648e+03 1.232e-10
 13.48930     69.3 8.599e+03 1.173e-10
 13.50928     69.5 8.615e+03 1.085e-10
 13.53871     71.9 8.589e+03 1.023e-10
 13.57868     74.3 8.591e+03 9.925e-11
 13.61864     76.6 8.625e+03 9.823e-11
 13.65861     78.7 8.679e+03 9.958e-11
 13.68315     80.6 8.759e+03 1.039e-10
 13.68931     81.1 8.650e+03 9.593e-11
 13.70474     80.6 8.532e+03 8.757e-11
 13.73854     82.3 8.615e+03 9.302e-11
 13.77850     83.5 8.842e+03 1.147e-10
 13.81847     84.4 9.420e+03 2.048e-10
 13.85701     84.7 1.023e+04 4.041e-10
 13.87700     85.6 9.852e+03 2.969e-10
 13.89840     85.5 1.060e+04 5.197e-10
 13.93837     85.1 1.130e+04 7.685e-10
 13.97833     83.9 1.197e+04 9.803e-10
 14.00821     82.3 1.281e+04 1.267e-09
 14.02809     81.0 1.328e+04 1.485e-09
 14.04808     79.8 1.380e+04 1.768e-09
 14.06066     78.8 1.388e+04 1.836e-09
 14.07065     79.9 1.318e+04 1.230e-09
 14.08804     78.8 1.309e+04 1.253e-09
 14.10803     77.9 1.287e+04 1.206e-09
 14.12801     77.2 1.253e+04 1.057e-09
 14.14760     76.7 1.222e+04 8.820e-10
 14.15759     77.5 1.218e+04 8.817e-10
 14.16797     77.1 1.205e+04 8.130e-10
 14.18796     76.9 1.195e+04 7.413e-10
 14.20039     76.9 1.189e+04 6.760e-10
 14.21038     77.0 1.183e+04 6.976e-10
 14.22792     77.1 1.190e+04 6.911e-10
 14.24452     77.1 1.195e+04 6.916e-10
 14.25451     78.1 1.222e+04 8.905e-10
 14.26789     78.1 1.228e+04 9.071e-10
 14.28787     78.0 1.239e+04 9.444e-10
 14.30785     77.3 1.271e+04 1.067e-09
 14.32784     75.8 1.325e+04 1.429e-09
 14.34145     74.2 1.379e+04 2.205e-09
 14.35144     75.2 1.421e+04 2.425e-09
 14.36780     74.0 1.472e+04 3.826e-09
 14.38778     73.7 1.503e+04 4.906e-09
 14.40777     73.1 1.512e+04 4.846e-09
 14.42775     71.9 1.519e+04 4.108e-09
 14.43837     69.9 1.487e+04 2.810e-09
 14.44836     70.3 1.558e+04 3.825e-09
 14.46772     67.4 1.473e+04 2.121e-09
 14.48770     63.8 1.333e+04 1.128e-09
 14.50768     60.4 1.195e+04 7.275e-10
 14.52531     58.3 1.126e+04 5.790e-10
 14.53530     57.2 1.139e+04 6.539e-10
 14.54765     56.6 1.103e+04 6.220e-10
 14.56763     56.9 1.072e+04 5.820e-10
 14.58761     57.0 1.065e+04 5.449e-10
 14.60760     56.8 1.083e+04 4.695e-10
 14.62223     56.4 1.092e+04 4.483e-10
 14.63222     55.1 1.128e+04 5.425e-10
 14.65765     54.9 1.120e+04 5.855e-10
 14.69643     54.7 1.114e+04 6.544e-10
 14.71641     52.7 1.140e+04 8.394e-10
 14.73768     53.6 1.097e+04 6.001e-10
 14.77765     53.5 1.073e+04 4.301e-10
 14.80629     53.0 1.045e+04 3.833e-10
 14.82627     51.4 1.018e+04 3.266e-10
 14.85758     51.7 9.973e+03 3.472e-10
 14.89754     52.5 9.802e+03 3.405e-10
 14.93751     53.5 9.542e+03 2.951e-10
 14.97747     53.5 9.301e+03 2.196e-10
 15.00014     53.0 9.057e+03 1.909e-10
 15.02012     52.6 9.034e+03 2.008e-10
 15.05740     52.6 8.950e+03 2.079e-10
 15.09737     52.9 8.891e+03 2.155e-10
 15.13734     53.2 8.886e+03 2.172e-10
 15.17400     53.2 8.864e+03 2.147e-10
 15.19399     53.2 8.891e+03 2.249e-10
 15.21727     53.2 8.788e+03 2.127e-10
 15.25723     53.5 8.607e+03 1.928e-10
 15.29720     54.3 8.398e+03 1.600e-10
 15.33716     55.2 8.232e+03 1.241e-10
 15.36785     55.7 8.127e+03 9.375e-11
 15.38784     55.7 8.130e+03 1.006e-10
 15.41710     56.1 8.009e+03 8.571e-11
 15.45706     56.7 8.014e+03 8.760e-11
 15.49703     57.0 8.123e+03 1.024e-10
 15.53699     57.3 8.402e+03 1.470e-10
 15.56171     57.6 8.813e+03 2.275e-10
 15.58169     57.5 8.698e+03 1.964e-10
 15.61692     57.3 9.049e+03 2.619e-10
 15.65689     56.8 9.311e+03 3.002e-10
 15.69685     55.8 9.491e+03 3.043e-10
 15.72809     54.4 9.499e+03 2.759e-10
 15.74683     54.2 9.437e+03 2.684e-10
 15.75556     53.1 9.609e+03 3.107e-10
 15.77679     52.0 9.667e+03 3.177e-10
 15.81675     51.8 9.620e+03 3.052e-10
 15.85672     52.0 9.437e+03 2.636e-10
 15.89668     52.6 9.288e+03 2.200e-10
 15.92942     53.1 9.183e+03 1.702e-10
 15.94941     52.4 9.057e+03 1.112e-10
 15.97661     52.6 8.954e+03 8.509e-11
 16.01658     53.2 8.821e+03 7.696e-11
 16.05655     54.3 8.757e+03 7.862e-11
 16.09651     55.7 8.728e+03 8.763e-11
 16.12327     57.2 8.784e+03 1.019e-10
 16.14326     56.5 8.823e+03 1.063e-10
 16.17644     57.9 9.004e+03 1.440e-10
 16.21641     59.4 9.328e+03 2.185e-10
 16.25637     60.9 9.733e+03 3.480e-10
 16.29634     62.7 1.036e+04 5.642e-10
 16.31713     64.2 1.139e+04 9.588e-10
 16.33711     62.6 1.178e+04 1.230e-09
 16.37627     63.2 1.259e+04 1.693e-09
 16.40396     63.6 1.298e+04 1.977e-09
 16.41386     62.9 1.295e+04 1.958e-09
 16.42603     63.1 1.309e+04 2.119e-09
 16.44602     63.4 1.317e+04 2.212e-09
 16.46600     63.9 1.313e+04 2.138e-09
 16.48598     64.6 1.304e+04 1.953e-09
 16.50079     65.2 1.284e+04 1.598e-09
 16.51088     63.1 1.193e+04 1.086e-09
 16.53613     63.3 1.114e+04 6.760e-10
 16.57610     63.6 1.056e+04 5.657e-10
 16.61606     64.6 1.052e+04 5.802e-10
 16.65603     66.3 1.078e+04 6.596e-10
 16.68484     68.2 1.132e+04 7.979e-10
 16.70483     67.2 1.068e+04 7.237e-10
 16.73596     69.2 1.099e+04 8.314e-10
 16.75966     70.4 1.137e+04 9.165e-10
 16.76955     70.1 1.097e+04 8.785e-10
 16.78157     71.3 1.138e+04 9.703e-10
 16.79157     70.6 1.090e+04 9.142e-10
 16.80571     71.7 1.124e+04 1.044e-09
 16.82569     72.4 1.182e+04 1.247e-09
 16.84567     72.6 1.329e+04 1.725e-09
 16.86565     72.6 1.510e+04 2.860e-09
 16.87850     73.1 1.689e+04 5.439e-09
 16.88849     73.3 1.511e+04 3.372e-09
 16.90562     74.3 1.699e+04 6.203e-09
 16.92560     75.2 1.876e+04 1.108e-08
 16.94054     75.4 1.947e+04 1.423e-08
 16.95048     75.4 2.037e+04 2.091e-08
 16.96048     75.8 2.099e+04 3.269e-08
 16.97033     76.1 2.146e+04 5.431e-08
 16.97533     76.1 2.059e+04 2.786e-08
 16.98046     76.1 2.079e+04 3.772e-08
 16.99045     76.1 2.104e+04 5.142e-08
 17.00044     76.4 2.124e+04 6.054e-08
 17.01043     76.7 2.140e+04 6.177e-08
 17.01738     77.2 2.147e+04 5.732e-08
 17.02074     77.1 2.182e+04 7.213e-08
 17.02379     77.2 2.066e+04 4.031e-08
 17.03042     77.9 2.083e+04 3.939e-08
 17.04041     78.6 2.096e+04 3.587e-08
 17.05040     79.4 2.102e+04 3.111e-08
 17.06039     80.2 2.129e+04 2.595e-08
 17.06726     81.4 2.139e+04 2.205e-08
 17.07230     81.6 2.002e+04 1.772e-08
 17.08547     85.1 2.098e+04 1.729e-08
 17.10040     86.3 2.127e+04 1.797e-08
 17.11035     87.9 2.154e+04 1.868e-08
 17.11572     90.3 2.194e+04 1.971e-08
 17.12072     91.8 2.191e+04 1.980e-08
 17.13033     94.6 2.240e+04 2.162e-08
 17.14032     98.4 2.265e+04 2.237e-08
 17.15031    104.5 2.344e+04 2.055e-08
 17.15919    107.1 2.749e+04 1.945e-08
 17.16418    102.7 3.059e+04 5.570e-08
 17.16777     98.8 3.566e+04 1.036e-07
 17.17274     96.2 3.511e+04 1.828e-07
 17.17774     87.4 2.603e+04 1.475e-06
 17.18274     73.6 1.884e+04 1.609e-05
 17.18587     59.8 1.696e+04 4.423e-05
 17.18836     66.6 1.834e+04 2.396e-05
 17.19273     58.4 1.860e+04 1.849e-05
 17.19772     48.5 2.012e+04 8.016e-06
 17.20272     35.1 2.464e+04 2.373e-06
 17.20762     19.3 3.894e+04 2.526e-07
 17.21264     27.9 4.422e+04 7.264e-08
 17.22025     24.9 5.861e+04 1.049e-08
 17.23024     22.5 6.807e+04 2.668e-09
 17.24528     14.3 4.969e+04 1.746e-09
 17.25621      6.6 3.528e+04 3.069e-10
 17.26620     -1.0 1.263e+04 3.404e-10
 17.29538      2.8 9.230e+03 3.696e-10
 17.33545      7.1 9.014e+03 3.689e-10
 17.37541     10.4 8.953e+03 3.121e-10
 17.41538     10.9 8.701e+03 2.203e-10
 17.44026      8.1 9.392e+03 3.125e-10
 17.46025      8.0 8.937e+03 2.418e-10
 17.49531      3.4 1.015e+04 5.400e-10
 17.52519      0.6 1.137e+04 1.113e-09
 17.53699     -0.2 1.168e+04 1.202e-09
 17.54699     -1.0 1.155e+04 1.087e-09
 17.56505     -4.3 1.197e+04 1.355e-09
 17.58504     -7.1 1.218e+04 1.434e-09
 17.60502    -11.5 1.178e+04 1.223e-09
 17.62393    -15.2 1.179e+04 1.149e-09
 17.63392    -16.0 1.216e+04 1.394e-09
 17.64498    -19.5 1.194e+04 1.307e-09
 17.66497    -22.3 1.148e+04 1.212e-09
 17.68495    -23.8 1.131e+04 1.160e-09
 17.70493    -24.7 1.110e+04 1.052e-09
 17.72085    -25.5 1.071e+04 8.576e-10
 17.73084    -25.7 1.054e+04 7.656e-10
 17.74490    -26.6 1.013e+04 5.796e-10
 17.76488    -28.2 1.011e+04 4.709e-10
 17.78123    -30.5 1.027e+04 4.448e-10
 17.79122    -29.3 9.673e+03 3.717e-10
 17.80788    -31.2 1.041e+04 3.905e-10
 17.82797    -30.6 9.499e+03 3.444e-10
 17.85500    -32.8 1.077e+04 4.698e-10
 17.88488    -35.8 1.251e+04 1.237e-09
 17.90471    -36.2 1.316e+04 2.020e-09
 17.92470    -36.3 1.386e+04 2.775e-09
 17.94473    -36.4 1.461e+04 4.144e-09
 17.96471    -36.4 1.531e+04 5.720e-09
 17.98469    -36.4 1.595e+04 7.190e-09
 18.00164    -36.5 1.640e+04 8.248e-09
 18.01163    -36.9 1.605e+04 7.121e-09
 18.02466    -37.2 1.616e+04 7.427e-09
 18.04464    -37.6 1.610e+04 7.395e-09
 18.06462    -38.0 1.590e+04 6.848e-09
 18.08461    -38.4 1.559e+04 6.063e-09
 18.09856    -38.9 1.519e+04 5.257e-09
 18.10855    -39.2 1.493e+04 4.851e-09
 18.12457    -39.4 1.453e+04 4.302e-09
 18.14455    -39.4 1.413e+04 3.807e-09
 18.16454    -39.1 1.369e+04 3.299e-09
 18.18452    -38.3 1.321e+04 2.755e-09
 18.19549    -37.4 1.277e+04 2.206e-09
 18.21557    -37.7 1.237e+04 1.697e-09
 18.25466    -36.6 1.156e+04 1.145e-09
 18.29462    -35.2 1.075e+04 7.461e-10
 18.33459    -33.7 1.021e+04 5.275e-10
 18.36955    -32.4 9.838e+03 4.054e-10
 18.38953    -32.7 9.840e+03 4.273e-10
 18.41452    -31.4 9.631e+03 3.711e-10
 18.45448    -30.1 9.472e+03 3.292e-10
 18.49445    -28.9 9.319e+03 2.850e-10
 18.53442    -27.8 9.148e+03 2.370e-10
 18.56340    -26.9 8.996e+03 2.063e-10
 18.58339    -26.5 9.120e+03 2.347e-10
 18.61435    -25.3 9.064e+03 2.295e-10
 18.65431    -23.8 9.123e+03 2.449e-10
 18.69428    -22.2 9.216e+03 2.558e-10
 18.73424    -20.6 9.322e+03 2.660e-10
 18.75725    -19.0 9.421e+03 2.805e-10
 18.77724    -18.3 9.235e+03 2.075e-10
 18.80309    -16.7 9.319e+03 2.169e-10
 18.82307    -16.3 9.233e+03 2.082e-10
 18.85414    -14.5 9.273e+03 2.225e-10
 18.89411    -12.4 9.281e+03 2.223e-10
 18.93112    -10.2 9.271e+03 1.948e-10
 18.95110     -9.6 9.087e+03 1.658e-10
 18.97404     -7.6 9.160e+03 1.420e-10
 19.01400     -6.2 9.277e+03 1.260e-10
 19.05397     -5.3 9.393e+03 1.271e-10
 19.09393     -4.2 9.500e+03 1.928e-10
 19.12497     -2.0 9.740e+03 2.850e-10
 19.14495     -0.7 9.730e+03 2.994e-10
 19.17387      1.4 9.982e+03 3.359e-10
 19.21383      2.2 9.995e+03 3.282e-10
 19.25380      2.9 9.816e+03 3.316e-10
 19.29376      4.5 9.674e+03 3.849e-10
 19.31882      6.1 9.696e+03 3.720e-10
 19.33881      7.2 9.774e+03 4.266e-10
 19.37369      8.2 9.942e+03 3.649e-10
 19.41366      8.2 9.950e+03 3.320e-10
 19.45362      8.8 9.809e+03 3.818e-10
 19.49269     10.7 9.411e+03 3.667e-10
 19.51267     11.9 9.403e+03 3.386e-10
 19.53356     13.9 9.069e+03 2.096e-10
 19.57352     14.8 8.858e+03 1.225e-10
 19.61349     15.4 8.612e+03 9.928e-11
 19.65345     17.1 8.459e+03 1.082e-10
 19.68654     19.5 8.357e+03 1.254e-10
 19.70652     20.5 8.318e+03 1.146e-10
 19.73338     23.0 8.318e+03 1.135e-10
 19.77335     25.2 8.345e+03 1.062e-10
 19.81332     27.1 8.392e+03 1.022e-10
 19.83475     28.7 8.465e+03 1.108e-10
 19.85473     29.3 8.184e+03 6.851e-11
 19.88039     31.2 8.263e+03 7.995e-11
 19.90037     32.3 8.131e+03 6.975e-11
 19.93321     34.3 8.190e+03 7.980e-11
 19.97318     36.5 8.203e+03 9.122e-11
 20.01314     38.8 8.221e+03 1.007e-10
 20.05311     40.9 8.349e+03 1.140e-10
 20.07424     41.8 8.787e+03 1.659e-10
 20.09423     42.8 8.616e+03 1.302e-10
 20.13304     43.5 9.413e+03 2.988e-10
 20.17301     44.7 1.033e+04 6.530e-10
 20.21297     46.1 1.095e+04 9.989e-10
 20.24811     47.3 1.114e+04 1.070e-09
 20.26809     48.3 1.099e+04 9.961e-10
 20.29290     49.4 1.085e+04 8.503e-10
 20.33287     50.3 1.036e+04 5.364e-10
 20.37283     50.9 9.645e+03 3.039e-10
 20.41280     51.4 9.057e+03 1.948e-10
 20.44196     52.0 8.829e+03 1.668e-10
 20.46194     53.1 8.839e+03 1.750e-10
 20.49273     54.1 8.840e+03 1.825e-10
 20.53270     55.3 8.974e+03 2.143e-10
 20.57266     56.8 9.351e+03 2.981e-10
 20.61263     57.7 9.766e+03 3.956e-10
 20.63571     58.5 9.982e+03 5.152e-10
 20.64561     59.1 1.006e+04 5.579e-10
 20.66239     59.6 1.046e+04 7.395e-10
 20.68237     59.9 1.084e+04 9.240e-10
 20.70236     60.0 1.121e+04 1.110e-09
 20.72234     60.0 1.160e+04 1.300e-09
 20.73254     59.7 1.197e+04 1.481e-09
 20.74253     59.9 1.223e+04 1.628e-09
 20.76230     59.2 1.250e+04 1.825e-09
 20.78229     58.6 1.264e+04 2.005e-09
 20.80227     58.0 1.260e+04 2.019e-09
 20.81948     57.6 1.249e+04 1.980e-09
 20.82947     57.8 1.275e+04 2.243e-09
 20.84224     57.6 1.260e+04 2.101e-09
 20.85623     56.9 1.253e+04 1.901e-09
 20.86622     57.5 1.315e+04 2.536e-09
 20.88220     56.2 1.325e+04 2.461e-09
 20.90218     54.3 1.342e+04 2.573e-09
 20.91640     52.7 1.365e+04 2.974e-09
 20.92639     53.1 1.356e+04 2.846e-09
 20.94215     52.4 1.341e+04 3.015e-09
 20.96213     52.3 1.329e+04 2.921e-09
 20.98212     51.8 1.329e+04 2.658e-09
 21.00210     50.3 1.353e+04 2.468e-09
 21.01333     48.1 1.339e+04 2.222e-09
 21.02332     47.9 1.329e+04 2.174e-09
 21.04206     47.2 1.257e+04 1.861e-09
 21.06205     47.3 1.184e+04 1.475e-09
 21.08203     47.7 1.127e+04 1.063e-09
 21.10026     47.6 1.088e+04 7.012e-10
 21.11025     47.8 1.092e+04 7.263e-10
 21.12200     47.1 1.061e+04 4.120e-10
 21.14198     45.6 1.023e+04 3.070e-10
 21.17205     45.7 9.364e+03 1.953e-10
 21.19738     45.8 8.891e+03 1.418e-10
 21.21736     45.6 8.921e+03 1.580e-10
 21.25208     46.7 8.906e+03 1.469e-10
 21.29204     47.8 8.975e+03 1.525e-10
 21.33201     48.5 9.148e+03 1.737e-10
 21.37125     49.3 9.273e+03 2.031e-10
 21.39123     48.9 9.267e+03 1.989e-10
 21.41194     49.5 9.288e+03 2.013e-10
 21.45191     50.0 9.236e+03 1.903e-10
 21.49187     50.9 9.114e+03 1.579e-10
 21.53184     52.0 9.019e+03 1.183e-10
 21.56510     52.9 8.985e+03 8.593e-11
 21.58508     53.0 8.998e+03 8.674e-11
 21.61177     54.0 8.928e+03 7.602e-11
 21.65174     55.2 8.943e+03 7.942e-11
 21.69170     56.4 9.032e+03 9.734e-11
 21.73167     57.7 9.234e+03 1.346e-10
 21.75895     58.9 9.558e+03 1.853e-10
 21.77893     59.5 9.672e+03 1.974e-10
 21.81160     60.5 9.958e+03 2.370e-10
 21.85156     61.3 1.013e+04 2.678e-10
 21.87809     62.1 1.014e+04 2.835e-10
 21.88798     61.2 1.022e+04 3.148e-10
 21.90133     61.5 1.025e+04 3.201e-10
 21.92131     62.0 1.021e+04 3.198e-10
 21.94129     62.0 1.026e+04 3.249e-10
 21.95261     61.9 1.047e+04 3.598e-10
 21.96260     62.1 1.052e+04 3.861e-10
 21.98126     62.1 1.070e+04 4.211e-10
 22.00124     61.6 1.114e+04 5.780e-10
 22.02122     61.7 1.114e+04 6.115e-10
 22.03954     62.6 1.118e+04 7.393e-10
 22.04953     63.0 1.119e+04 7.518e-10
 22.06119     63.3 1.125e+04 7.973e-10
 22.08117     64.2 1.130e+04 9.126e-10
 22.10115     64.5 1.138e+04 9.607e-10
 22.12114     65.6 1.134e+04 9.755e-10
 22.13647     65.9 1.138e+04 9.866e-10
 22.14655     65.2 1.123e+04 8.888e-10
 22.17129     66.5 1.085e+04 7.190e-10
 22.21125     67.7 1.035e+04 5.413e-10
 22.25122     68.5 9.790e+03 4.037e-10
 22.29119     69.8 9.370e+03 3.119e-10
 22.32052     71.5 9.188e+03 2.864e-10
 22.34050     71.4 9.325e+03 3.243e-10
 22.37112     73.1 9.419e+03 3.477e-10
 22.41108     74.4 9.522e+03 3.752e-10
 22.44096     75.1 9.768e+03 4.620e-10
 22.46084     75.9 1.005e+04 5.667e-10
 22.48083     76.8 1.032e+04 6.849e-10
 22.50081     77.7 1.056e+04 8.084e-10
 22.51417     78.7 1.079e+04 9.311e-10
 22.52417     79.1 1.087e+04 9.858e-10
 22.54078     80.1 1.103e+04 1.056e-09
 22.56076     81.0 1.115e+04 1.083e-09
 22.58074     81.8 1.116e+04 1.073e-09
 22.60072     82.6 1.114e+04 1.031e-09
 22.61110     83.3 1.106e+04 9.623e-10
 22.62109     83.5 1.094e+04 8.932e-10
 22.64069     84.1 1.083e+04 8.222e-10
 22.66067     84.7 1.074e+04 7.715e-10
 22.68065     85.3 1.071e+04 7.528e-10
 22.69803     86.0 1.073e+04 7.541e-10
 22.70803     86.3 1.068e+04 7.487e-10
 22.72062     87.3 1.079e+04 7.832e-10
 22.74060     88.3 1.099e+04 8.476e-10
 22.76059     89.2 1.126e+04 9.504e-10
 22.78057     90.3 1.164e+04 1.111e-09
 22.79496     91.3 1.211e+04 1.354e-09
 22.80495     91.7 1.245e+04 1.520e-09
 22.82053     92.5 1.318e+04 2.013e-09
 22.84052     93.5 1.392e+04 2.714e-09
 22.86050     95.0 1.473e+04 3.712e-09
 22.88048     97.4 1.568e+04 4.964e-09
 22.89184     99.1 1.632e+04 5.949e-09
 22.90093     99.6 1.759e+04 8.683e-09
 22.90956    101.7 1.748e+04 8.289e-09
 22.91540    102.9 1.774e+04 8.668e-09
 22.92535    104.0 1.797e+04 9.219e-09
 22.93525    105.3 1.814e+04 9.791e-09
 22.94025    105.1 1.893e+04 1.283e-08
 22.94533    106.8 1.883e+04 1.316e-08
 22.95532    108.8 1.864e+04 1.299e-08
 22.96531    110.9 1.873e+04 1.232e-08
 22.97530    113.0 1.896e+04 1.217e-08
 22.98372    114.6 1.971e+04 1.218e-08
 22.98871    114.6 2.013e+04 1.327e-08
 22.99529    115.5 2.177e+04 1.347e-08
 23.00528    115.4 2.415e+04 1.375e-08
 23.01527    114.5 2.689e+04 1.349e-08
 23.02526    112.3 2.843e+04 1.228e-08
 23.03218    108.2 2.896e+04 9.871e-09
 23.03718    103.4 2.961e+04 8.548e-09
 23.04524     96.0 2.588e+04 5.778e-09
 23.05524     86.3 2.227e+04 4.143e-09
 23.06523     77.1 1.969e+04 3.241e-09
 23.07522     65.9 2.230e+04 2.748e-09
 23.08064     40.8 4.438e+04 2.098e-09
 23.08564     29.8 5.312e+04 2.450e-09
 23.09520     -5.8 5.031e+04 1.082e-08
 23.10519    -24.4 3.116e+04 5.565e-08
 23.11518    -31.4 2.617e+04 1.180e-07
 23.12411    -39.4 3.567e+04 1.206e-07
 23.12911    -37.4 3.235e+04 1.346e-07
 23.13517    -48.9 4.769e+04 8.251e-08
 23.14516    -65.4 5.603e+04 4.646e-08
 23.15515    -80.2 4.059e+04 5.405e-08
 23.16238    -86.6 2.547e+04 5.857e-08
 23.16737    -89.3 2.303e+04 4.962e-08
 23.17257    -87.5 2.270e+04 5.268e-08
 23.17757    -87.0 2.285e+04 6.234e-08
 23.18512    -86.0 2.278e+04 5.597e-08
 23.19511    -85.4 2.278e+04 3.738e-08
 23.20511    -85.5 2.286e+04 2.082e-08
 23.21510    -88.8 2.230e+04 1.053e-08
 23.22103    -92.9 1.997e+04 5.295e-09
 23.22603    -92.7 1.992e+04 5.449e-09
 23.23508    -95.7 1.710e+04 3.458e-09
 23.24507    -96.7 1.575e+04 2.902e-09
 23.25955    -97.2 1.490e+04 2.460e-09
 23.26959    -96.8 1.505e+04 2.552e-09
 23.28014    -97.0 1.356e+04 1.753e-09
 23.30012    -97.0 1.228e+04 1.287e-09
 23.32011    -96.3 1.187e+04 1.125e-09
 23.34009    -95.3 1.176e+04 1.057e-09
 23.35653    -94.3 1.170e+04 1.000e-09
 23.36652    -94.0 1.170e+04 1.005e-09
 23.38005    -93.2 1.167e+04 9.535e-10
 23.40004    -92.3 1.168e+04 9.137e-10
 23.41539    -91.5 1.170e+04 8.900e-10
 23.42539    -91.7 1.135e+04 6.724e-10
 23.44000    -91.1 1.125e+04 6.461e-10
 23.45345    -90.4 1.116e+04 6.270e-10
 23.46345    -89.9 1.123e+04 6.391e-10
 23.47997    -89.2 1.115e+04 6.172e-10
 23.49995    -88.5 1.106e+04 5.912e-10
 23.51993    -87.7 1.096e+04 5.614e-10
 23.53992    -87.0 1.085e+04 5.296e-10
 23.55038    -86.2 1.071e+04 4.980e-10
 23.56037    -85.6 1.077e+04 5.021e-10
 23.57988    -84.8 1.063e+04 4.715e-10
 23.59986    -84.0 1.050e+04 4.443e-10
 23.61985    -83.0 1.038e+04 4.230e-10
 23.63731    -82.0 1.029e+04 4.077e-10
 23.64730    -81.4 1.034e+04 4.094e-10
 23.65981    -80.3 1.028e+04 3.991e-10
 23.67980    -79.3 1.026e+04 3.954e-10
 23.69978    -78.2 1.027e+04 3.951e-10
 23.71976    -77.2 1.043e+04 4.103e-10
 23.73424    -76.6 1.080e+04 4.675e-10
 23.74423    -76.7 1.157e+04 5.409e-10
 23.75973    -76.3 1.269e+04 7.064e-10
 23.77971    -75.8 1.384e+04 9.679e-10
 23.79969    -75.0 1.459e+04 1.356e-09
 23.81968    -74.2 1.498e+04 1.874e-09
 23.83116    -74.0 1.553e+04 2.559e-09
 23.84116    -74.6 1.696e+04 3.817e-09
 23.85964    -75.0 1.861e+04 5.474e-09
 23.87962    -75.7 2.020e+04 8.086e-09
 23.89456    -76.0 2.067e+04 9.969e-09
 23.90450    -76.2 2.073e+04 1.194e-08
 23.91450    -76.3 2.052e+04 1.344e-08
 23.92300    -76.3 2.033e+04 1.409e-08
 23.92799    -76.5 2.046e+04 1.496e-08
 23.93113    -76.4 2.004e+04 1.520e-08
 23.94117    -75.0 2.087e+04 1.039e-08
 23.95956    -75.1 2.026e+04 1.118e-08
 23.97954    -74.9 1.849e+04 1.152e-08
 23.99952    -74.5 1.745e+04 9.847e-09
 24.01502    -74.1 1.690e+04 7.242e-09
 24.02501    -75.4 1.693e+04 5.870e-09
 24.03949    -75.8 1.640e+04 3.294e-09
 24.05947    -78.4 1.493e+04 1.625e-09
 24.07945    -81.5 1.215e+04 8.344e-10
 24.09944    -83.5 1.042e+04 5.453e-10
 24.11195    -84.1 1.002e+04 4.527e-10
 24.12194    -84.9 1.007e+04 4.360e-10
 24.13940    -85.5 1.004e+04 3.702e-10
 24.15938    -87.0 1.004e+04 3.227e-10
 24.17937    -89.0 1.009e+04 3.056e-10
 24.19888    -91.4 1.029e+04 3.023e-10
 24.20887    -91.2 9.810e+03 2.565e-10
 24.21933    -92.8 9.973e+03 2.597e-10
 24.24940    -95.1 1.054e+04 3.094e-10
 24.28947    -99.1 1.121e+04 5.422e-10
 24.32943   -101.8 1.182e+04 9.939e-10
 24.36940   -103.4 1.209e+04 1.296e-09
 24.39293   -104.4 1.208e+04 1.338e-09
 24.41291   -102.9 1.261e+04 1.640e-09
 24.44933   -103.3 1.254e+04 1.617e-09
 24.47921   -103.7 1.187e+04 1.213e-09
 24.48966   -103.6 1.160e+04 1.070e-09
 24.49965   -103.2 1.182e+04 1.217e-09
 24.51907   -103.2 1.143e+04 9.825e-10
 24.53906   -103.1 1.112e+04 8.134e-10
 24.55904   -102.8 1.084e+04 6.921e-10
 24.57659   -102.4 1.062e+04 6.132e-10
 24.58658   -102.0 1.078e+04 6.732e-10
 24.59901   -101.4 1.062e+04 6.121e-10
 24.61899   -100.7 1.054e+04 5.794e-10
 24.63897   -100.0 1.052e+04 5.641e-10
 24.65895    -99.2 1.052e+04 5.600e-10
 24.67352    -98.3 1.059e+04 5.627e-10
 24.68351    -97.9 1.059e+04 5.625e-10
 24.69892    -97.0 1.066e+04 5.643e-10
 24.71890    -96.1 1.075e+04 5.684e-10
 24.73889    -95.2 1.088e+04 5.676e-10
 24.75887    -94.3 1.099e+04 5.630e-10
 24.77044    -93.5 1.109e+04 5.510e-10
 24.78043    -93.2 1.113e+04 5.534e-10
 24.79883    -92.5 1.112e+04 5.411e-10
 24.81882    -91.9 1.106e+04 5.309e-10
 24.83880    -91.3 1.092e+04 5.294e-10
 24.85738    -90.8 1.081e+04 5.329e-10
 24.86737    -90.5 1.090e+04 5.441e-10
 24.87877    -90.0 1.064e+04 5.787e-10
 24.89875    -89.4 1.069e+04 5.987e-10
 24.91873    -88.8 1.068e+04 6.102e-10
 24.93871    -88.2 1.067e+04 6.121e-10
 24.95289    -87.4 1.057e+04 6.017e-10
 24.95849    -87.5 1.043e+04 5.693e-10
 24.96429    -87.5 1.059e+04 6.332e-10
 24.97868    -86.6 1.044e+04 5.963e-10
 24.99866    -85.6 1.028e+04 5.471e-10
 25.01864    -84.5 1.014e+04 4.919e-10
 25.03863    -83.4 1.004e+04 4.366e-10
 25.05123    -82.2 9.976e+03 3.907e-10
 25.06122    -82.2 1.004e+04 4.630e-10
 25.07859    -80.9 9.969e+03 4.095e-10
 25.09858    -79.8 9.919e+03 3.701e-10
 25.12827    -78.4 9.816e+03 3.169e-10
 25.14825    -77.5 9.845e+03 3.563e-10
 25.16861    -75.7 9.810e+03 3.262e-10
 25.20868    -73.2 9.617e+03 2.668e-10
 25.24864    -70.5 9.494e+03 2.310e-10
 25.28861    -67.9 9.479e+03 2.233e-10
 25.32222    -65.4 9.537e+03 2.279e-10
 25.34220    -65.6 9.897e+03 3.301e-10
 25.35845    -63.7 1.001e+04 3.410e-10
 25.37834    -62.9 1.015e+04 3.835e-10
 25.39832    -61.3 1.042e+04 4.775e-10
 25.41830    -60.5 1.058e+04 5.376e-10
 25.42894    -58.8 1.086e+04 6.618e-10
 25.43893    -59.4 1.092e+04 7.141e-10
 25.45827    -58.4 1.106e+04 7.839e-10
 25.46872    -57.1 1.121e+04 8.601e-10
 25.47872    -56.8 1.129e+04 9.603e-10
 25.49823    -55.7 1.136e+04 9.878e-10
 25.51587    -54.6 1.138e+04 9.913e-10
 25.52586    -54.9 1.134e+04 9.825e-10
 25.53820    -53.7 1.127e+04 9.485e-10
 25.55818    -52.6 1.115e+04 8.774e-10
 25.57816    -51.4 1.102e+04 8.006e-10
 25.59815    -50.1 1.085e+04 7.208e-10
 25.61280    -49.0 1.064e+04 6.452e-10
 25.62279    -48.7 1.046e+04 5.876e-10
 25.63811    -47.3 1.018e+04 4.962e-10
 25.65810    -45.9 9.983e+03 4.295e-10
 25.68817    -43.8 9.764e+03 3.640e-10
 25.70992    -40.1 9.285e+03 2.644e-10
 25.72990    -40.3 9.222e+03 2.566e-10
 25.76820    -36.9 9.029e+03 2.057e-10
 25.80816    -33.5 8.887e+03 1.706e-10
 25.84813    -30.1 8.775e+03 1.463e-10
 25.88379    -26.5 8.713e+03 1.325e-10
 25.90377    -26.6 8.828e+03 1.569e-10
 25.92806    -22.9 8.828e+03 1.551e-10
 25.96477    -19.4 8.854e+03 1.560e-10
 25.98475    -19.6 8.875e+03 1.431e-10
 26.00799    -16.2 8.981e+03 1.564e-10
 26.04796    -12.9 9.176e+03 1.868e-10
 26.07764     -9.9 9.425e+03 2.431e-10
 26.09762    -10.0 9.493e+03 2.840e-10
 26.12789     -6.9 9.717e+03 3.596e-10
 26.16785     -3.7 9.993e+03 4.592e-10
 26.19773     -1.2 1.029e+04 5.293e-10
 26.21761     -0.8 1.016e+04 5.213e-10
 26.23760      1.6 1.052e+04 6.014e-10
 26.25758      2.3 1.042e+04 5.885e-10
 26.27129      4.1 1.067e+04 6.392e-10
 26.28128      3.9 1.035e+04 4.940e-10
 26.29755      4.4 1.032e+04 4.886e-10
 26.31753      5.7 1.058e+04 5.397e-10
 26.33751      6.1 1.068e+04 5.791e-10
 26.35749      7.2 1.094e+04 7.012e-10
 26.36822      7.7 1.102e+04 7.982e-10
 26.37821      7.2 1.073e+04 6.581e-10
 26.39746      8.2 1.096e+04 8.695e-10
 26.41744      9.1 1.123e+04 1.058e-09
 26.43743     10.4 1.147e+04 1.261e-09
 26.45515     11.7 1.181e+04 1.369e-09
 26.46514     11.0 1.162e+04 1.306e-09
 26.47739     11.7 1.187e+04 1.410e-09
 26.49039     12.2 1.195e+04 1.352e-09
 26.50039     12.1 1.192e+04 1.267e-09
 26.51736     12.1 1.183e+04 1.170e-09
 26.53734     12.2 1.143e+04 1.043e-09
 26.55208     12.7 1.105e+04 8.504e-10
 26.56207     12.7 1.104e+04 8.269e-10
 26.57730     13.3 1.081e+04 6.315e-10
 26.59729     13.4 1.075e+04 4.398e-10
 26.61727     13.3 1.042e+04 3.411e-10
 26.63725     13.2 1.023e+04 2.734e-10
 26.64900     13.3 1.014e+04 2.351e-10
 26.65899     12.8 1.013e+04 2.385e-10
 26.67722     13.2 1.014e+04 2.190e-10
 26.69720     13.8 1.022e+04 2.174e-10
 26.71718     14.5 1.002e+04 2.623e-10
 26.73594     15.4 1.045e+04 2.643e-10
 26.74593     15.2 1.067e+04 3.274e-10
 26.75715     16.0 1.068e+04 4.100e-10
 26.77713     16.8 1.086e+04 4.837e-10
 26.79712     17.5 1.125e+04 5.418e-10
 26.81710     18.5 1.122e+04 6.684e-10
 26.83286     19.6 1.130e+04 7.433e-10
 26.84285     19.2 1.154e+04 1.013e-09
 26.85706     20.6 1.163e+04 1.091e-09
 26.87705     22.0 1.172e+04 1.094e-09
 26.89703     23.4 1.164e+04 1.040e-09
 26.91701     24.9 1.158e+04 9.384e-10
 26.92979     25.7 1.168e+04 9.173e-10
 26.93978     25.8 1.178e+04 9.964e-10
 26.96707     27.8 1.137e+04 7.374e-10
 26.99643     30.2 1.132e+04 7.207e-10
 27.01621     29.8 1.182e+04 8.171e-10
 27.02681     30.0 1.199e+04 7.981e-10
 27.04700     32.8 1.179e+04 7.420e-10
 27.08706     35.7 1.209e+04 8.851e-10
 27.12703     38.9 1.244e+04 1.137e-09
 27.16699     42.7 1.293e+04 1.402e-09
 27.19687     44.6 1.302e+04 1.489e-09
 27.21057     46.2 1.314e+04 1.629e-09
 27.22056     46.6 1.291e+04 1.430e-09
 27.23674     48.4 1.306e+04 1.593e-09
 27.25672     50.0 1.321e+04 1.745e-09
 27.27670     51.4 1.330e+04 1.848e-09
 27.29669     53.0 1.338e+04 1.958e-09
 27.30750     54.5 1.356e+04 2.109e-09
 27.31749     55.0 1.338e+04 2.056e-09
 27.33665     56.4 1.362e+04 2.229e-09
 27.35663     57.7 1.386e+04 2.392e-09
 27.37662     59.1 1.424e+04 2.628e-09
 27.39443     60.3 1.480e+04 3.000e-09
 27.40442     60.7 1.485e+04 3.059e-09
 27.41658     61.4 1.554e+04 3.667e-09
 27.43657     62.2 1.670e+04 4.932e-09
 27.44784     62.7 1.712e+04 5.668e-09
 27.45279     62.8 1.718e+04 5.832e-09
 27.46145     62.9 1.784e+04 6.765e-09
 27.47144     62.7 1.863e+04 8.262e-09
 27.48143     62.5 1.943e+04 1.022e-08
 27.49126     62.6 1.994e+04 1.236e-08
 27.49625     62.7 2.010e+04 1.394e-08
 27.50141     63.1 2.033e+04 1.690e-08
 27.51140     63.6 2.054e+04 2.004e-08
 27.51696     64.2 2.061e+04 2.346e-08
 27.52196     64.6 2.077e+04 2.905e-08
 27.53139     65.1 2.107e+04 3.860e-08
 27.53972     65.7 2.119e+04 5.268e-08
 27.54472     66.1 2.136e+04 8.052e-08
 27.55137     66.7 2.178e+04 9.259e-08
 27.56136     66.8 2.192e+04 8.936e-08
 27.57135     66.9 2.218e+04 7.691e-08
 27.58134     67.0 2.258e+04 5.922e-08
 27.58818     67.2 2.297e+04 4.243e-08
 27.59318     67.8 2.345e+04 5.123e-08
 27.60133     67.8 2.385e+04 3.094e-08
 27.61132     67.0 2.367e+04 1.972e-08
 27.62131     65.8 2.293e+04 1.366e-08
 27.63635     65.4 2.251e+04 1.294e-08
 27.65638     63.7 2.063e+04 8.232e-09
 27.67522     62.3 1.865e+04 6.000e-09
 27.68521     60.5 1.659e+04 4.743e-09
 27.69634     60.4 1.590e+04 4.871e-09
 27.71633     60.9 1.582e+04 5.191e-09
 27.73631     62.1 1.598e+04 5.580e-09
 27.75629     63.4 1.615e+04 6.020e-09
 27.77214     64.5 1.625e+04 6.266e-09
 27.78213     64.4 1.551e+04 5.398e-09
 27.79626     65.6 1.531e+04 4.891e-09
 27.81624     66.5 1.490e+04 4.233e-09
 27.83622     67.1 1.442e+04 3.504e-09
 27.85621     67.5 1.385e+04 2.805e-09
 27.86907     67.7 1.320e+04 2.229e-09
 27.87906     66.7 1.230e+04 1.594e-09
 27.89617     66.6 1.181e+04 1.352e-09
 27.91615     66.3 1.159e+04 1.203e-09
 27.93614     66.1 1.150e+04 1.145e-09
 27.95600     66.2 1.151e+04 1.156e-09
 27.96599     65.1 1.117e+04 9.914e-10
 27.97610     65.2 1.125e+04 1.040e-09
 27.99608     65.1 1.133e+04 1.068e-09
 28.01607     64.8 1.139e+04 1.072e-09
 28.02789     64.3 1.146e+04 1.080e-09
 28.03789     65.7 1.201e+04 1.176e-09
 28.05293     64.4 1.200e+04 1.163e-09
 28.06292     63.2 1.194e+04 1.133e-09
 28.07602     61.6 1.216e+04 1.236e-09
 28.09600     60.2 1.249e+04 1.488e-09
 28.11598     59.0 1.295e+04 1.913e-09
 28.13596     58.3 1.345e+04 2.514e-09
 28.14985     57.6 1.433e+04 3.382e-09
 28.15984     57.0 1.455e+04 3.491e-09
 28.17593     55.6 1.582e+04 4.726e-09
 28.19591     54.1 1.668e+04 6.007e-09
 28.21590     52.7 1.669e+04 6.504e-09
 28.23588     51.7 1.637e+04 6.266e-09
 28.24678     50.7 1.589e+04 5.433e-09
 28.25677     49.6 1.575e+04 4.797e-09
 28.27584     47.6 1.578e+04 3.933e-09
 28.29583     44.9 1.578e+04 3.013e-09
 28.31581     42.0 1.484e+04 2.172e-09
 28.33371     39.6 1.319e+04 1.588e-09
 28.34370     38.4 1.252e+04 1.478e-09
 28.35578     38.2 1.167e+04 1.157e-09
 28.37576     38.2 1.125e+04 8.987e-10
 28.39574     38.2 1.091e+04 6.699e-10
 28.41572     37.7 1.066e+04 5.170e-10
 28.43064     37.2 1.049e+04 4.399e-10
 28.44063     35.9 1.027e+04 3.684e-10
 28.45569     35.6 1.022e+04 3.707e-10
 28.47567     35.5 1.020e+04 3.969e-10
 28.49566     35.8 1.035e+04 4.593e-10
 28.51564     36.2 1.066e+04 5.778e-10
 28.52756     36.8 1.113e+04 7.637e-10
 28.53566     35.2 1.168e+04 1.043e-09
 28.54372     35.1 1.168e+04 1.071e-09
 28.55560     36.0 1.221e+04 1.448e-09
 28.57559     36.9 1.276e+04 1.866e-09
 28.59557     37.6 1.334e+04 2.300e-09
 28.61449     38.3 1.354e+04 2.477e-09
 28.62444     23.5 1.614e+04 3.356e-09
 28.63044     31.8 1.797e+04 3.022e-09
 28.64043     15.0 4.143e+04 5.861e-09
 28.65042     -6.4 4.503e+04 3.502e-08
 28.66042    -15.4 2.521e+04 5.820e-07
 28.66786    -20.6 2.152e+04 1.493e-06
 28.67285    -28.2 2.255e+04 1.308e-06
 28.67788    -34.5 2.799e+04 2.970e-07
 28.68285    -36.5 3.452e+04 1.108e-07
 28.69037    -60.2 4.068e+04 6.616e-09
 28.70038    -79.5 2.128e+04 2.366e-09
 28.71037    -83.0 1.621e+04 2.026e-09
 28.71632    -83.3 1.594e+04 1.964e-09
 28.72131    -83.7 1.642e+04 2.141e-09
 28.73540    -83.7 1.659e+04 2.345e-09
 28.75543    -84.4 1.480e+04 1.710e-09
 28.77541    -85.2 1.282e+04 1.206e-09
 28.79540    -85.7 1.177e+04 9.761e-10
 28.80835    -85.7 1.140e+04 9.015e-10
 28.81834    -85.7 1.118e+04 8.525e-10
 28.83536    -85.0 1.106e+04 8.234e-10
 28.85535    -84.2 1.091e+04 7.843e-10
 28.87533    -83.3 1.071e+04 7.214e-10
 28.89528    -82.3 1.048e+04 6.331e-10
 28.91526    -81.2 1.021e+04 4.943e-10
 28.93528    -80.5 1.005e+04 4.250e-10
 28.96535    -79.8 9.833e+03 3.605e-10
 29.00541    -78.7 9.274e+03 2.897e-10
 29.03977    -77.2 8.732e+03 2.265e-10
 29.05975    -77.5 9.338e+03 2.986e-10
 29.07933    -76.0 8.904e+03 2.456e-10
 29.09932    -75.1 9.003e+03 2.618e-10
 29.12531    -73.7 8.902e+03 2.443e-10
 29.15519    -72.3 8.489e+03 2.020e-10
 29.17507    -72.0 8.528e+03 2.058e-10
 29.18606    -71.4 8.738e+03 2.263e-10
 29.19605    -71.3 8.962e+03 2.483e-10
 29.21504    -71.4 9.230e+03 2.842e-10
 29.23502    -71.0 9.661e+03 3.704e-10
 29.25500    -70.9 9.984e+03 4.493e-10
 29.27299    -70.5 1.030e+04 6.015e-10
 29.28298    -70.2 1.053e+04 6.901e-10
 29.29497    -69.6 1.069e+04 8.025e-10
 29.31495    -68.8 1.084e+04 9.002e-10
 29.33493    -68.0 1.098e+04 9.621e-10
 29.35492    -67.4 1.115e+04 1.012e-09
 29.36991    -66.9 1.132e+04 1.058e-09
 29.37991    -66.7 1.147e+04 1.055e-09
 29.39488    -66.4 1.157e+04 1.073e-09
 29.41487    -66.0 1.164e+04 1.109e-09
 29.43485    -65.6 1.165e+04 1.129e-09
 29.45483    -65.2 1.163e+04 1.135e-09
 29.46684    -64.6 1.155e+04 1.128e-09
 29.47683    -64.7 1.163e+04 1.168e-09
 29.49480    -64.1 1.155e+04 1.159e-09
 29.51478    -63.5 1.145e+04 1.123e-09
 29.53476    -62.8 1.135e+04 1.069e-09
 29.55377    -62.2 1.124e+04 1.016e-09
 29.56377    -62.5 1.162e+04 1.227e-09
 29.56539    -62.0 1.158e+04 1.209e-09
 29.57538    -62.7 1.150e+04 1.173e-09
 29.59471    -62.1 1.162e+04 1.215e-09
 29.61469    -61.8 1.183e+04 1.310e-09
 29.63468    -61.5 1.211e+04 1.468e-09
 29.65070    -61.0 1.244e+04 1.719e-09
 29.66069    -61.2 1.274e+04 2.029e-09
 29.67464    -60.6 1.297e+04 2.298e-09
 29.69462    -59.9 1.315e+04 2.565e-09
 29.71461    -59.0 1.329e+04 2.795e-09
 29.73459    -58.1 1.341e+04 2.985e-09
 29.74762    -57.0 1.348e+04 3.091e-09
 29.75762    -57.0 1.333e+04 3.000e-09
 29.77456    -56.1 1.334e+04 3.014e-09
 29.79454    -55.2 1.339e+04 2.964e-09
 29.81452    -54.6 1.360e+04 3.075e-09
 29.83450    -54.2 1.397e+04 3.314e-09
 29.85449    -53.7 1.413e+04 3.422e-09
 29.87447    -53.1 1.483e+04 3.906e-09
 29.89445    -52.5 1.560e+04 4.307e-09
 29.91444    -52.1 1.608e+04 4.338e-09
 29.93148    -52.4 1.640e+04 4.086e-09
 29.94148    -52.1 1.631e+04 3.097e-09
 29.95440    -52.6 1.670e+04 2.862e-09
 29.97438    -52.8 1.591e+04 2.594e-09
 29.99437    -53.0 1.477e+04 2.221e-09
 30.01435    -52.9 1.392e+04 1.973e-09
 30.02841    -52.1 1.334e+04 1.803e-09
 30.03840    -51.8 1.268e+04 1.303e-09
 30.05432    -50.9 1.231e+04 1.214e-09
 30.07123    -49.9 1.207e+04 1.146e-09
 30.09131    -49.3 1.191e+04 1.041e-09
 30.12445    -47.0 1.158e+04 9.307e-10
 30.16442    -44.6 1.153e+04 9.323e-10
 30.19429    -42.3 1.178e+04 1.128e-09
 30.21227    -41.6 1.171e+04 1.150e-09
 30.22236    -41.7 1.210e+04 1.351e-09
 30.24435    -39.2 1.212e+04 1.467e-09
 30.28431    -36.5 1.220e+04 1.547e-09
 30.32428    -33.8 1.222e+04 1.551e-09
 30.35416    -31.4 1.208e+04 1.443e-09
 30.37404    -30.4 1.205e+04 1.411e-09
 30.39402    -29.7 1.218e+04 1.423e-09
 30.40612    -29.4 1.250e+04 1.574e-09
 30.41611    -30.1 1.292e+04 1.870e-09
 30.43399    -29.8 1.328e+04 2.330e-09
 30.45397    -29.0 1.348e+04 2.790e-09
 30.47395    -27.7 1.367e+04 3.136e-09
 30.49305    -26.4 1.374e+04 3.271e-09
 30.50304    -26.4 1.395e+04 3.802e-09
 30.51392    -25.3 1.373e+04 3.337e-09
 30.53390    -24.9 1.345e+04 2.838e-09
 30.55389    -24.9 1.307e+04 2.343e-09
 30.57387    -25.2 1.253e+04 1.801e-09
 30.58706    -25.6 1.183e+04 1.440e-09
 30.59318    -25.2 1.205e+04 1.478e-09
 30.59997    -25.9 1.159e+04 1.164e-09
 30.61383    -26.1 1.102e+04 9.833e-10
 30.63382    -25.7 1.083e+04 9.067e-10
 30.65380    -24.9 1.084e+04 8.932e-10
 30.67378    -24.2 1.081e+04 9.119e-10
 30.68690    -23.3 1.080e+04 9.374e-10
 30.69690    -23.5 1.040e+04 6.856e-10
 30.71375    -22.6 1.032e+04 7.335e-10
 30.73373    -21.5 1.027e+04 7.726e-10
 30.75371    -20.3 1.026e+04 7.943e-10
 30.77370    -19.1 1.032e+04 7.954e-10
 30.78383    -18.0 1.033e+04 7.907e-10
 30.79382    -18.4 1.011e+04 7.299e-10
 30.81366    -17.4 1.022e+04 7.145e-10
 30.83365    -16.6 1.014e+04 7.676e-10
 30.85363    -15.9 1.026e+04 7.438e-10
 30.87076    -15.3 1.026e+04 7.934e-10
 30.88075    -15.1 1.016e+04 7.463e-10
 30.89359    -14.3 1.013e+04 8.344e-10
 30.91358    -13.3 1.028e+04 8.622e-10
 30.93356    -12.1 1.041e+04 9.487e-10
 30.95354    -11.0 1.049e+04 9.692e-10
 30.96769     -9.9 1.048e+04 9.629e-10
 30.97768     -9.6 1.029e+04 8.347e-10
 30.99351     -8.6 1.028e+04 8.118e-10
 31.01349     -7.8 1.026e+04 7.730e-10
 31.03347     -7.1 1.024e+04 7.548e-10
 31.05346     -6.5 1.037e+04 7.934e-10
 31.06461     -6.1 1.072e+04 8.975e-10
 31.07461     -6.2 1.008e+04 7.040e-10
 31.09290     -5.4 1.020e+04 7.774e-10
 31.10289     -6.1 1.039e+04 8.297e-10
 31.11340     -6.5 1.192e+04 1.278e-09
 31.13339     -8.0 1.566e+04 2.539e-09
 31.14833     -7.8 1.675e+04 2.953e-09
 31.15645     -8.2 1.790e+04 3.497e-09
 31.16149     -7.2 1.499e+04 1.881e-09
 31.16831     -8.8 1.798e+04 3.251e-09
 31.17825     -9.3 1.919e+04 4.303e-09
 31.18824    -10.6 1.970e+04 7.250e-09
 31.19823    -11.0 1.995e+04 9.558e-09
 31.20491    -12.5 1.984e+04 1.302e-08
 31.20990    -13.5 1.889e+04 7.890e-09
 31.21822    -13.9 1.936e+04 8.630e-09
 31.23325    -14.8 1.968e+04 1.529e-08
 31.24847    -17.0 1.939e+04 1.663e-08
 31.25846    -17.9 1.721e+04 9.787e-09
 31.27327    -19.0 1.788e+04 1.226e-08
 31.29325    -19.6 1.908e+04 1.296e-08
 31.31323    -20.6 1.873e+04 1.086e-08
 31.33322    -22.2 1.748e+04 8.401e-09
 31.34540    -23.1 1.585e+04 6.121e-09
 31.35539    -21.8 1.648e+04 6.797e-09
 31.37318    -21.9 1.544e+04 5.162e-09
 31.39316    -21.5 1.457e+04 3.909e-09
 31.41315    -21.0 1.384e+04 2.918e-09
 31.43233    -20.9 1.314e+04 2.227e-09
 31.44232    -21.0 1.333e+04 2.143e-09
 31.45311    -21.5 1.258e+04 1.621e-09
 31.47310    -21.5 1.214e+04 1.380e-09
 31.49308    -21.4 1.191e+04 1.268e-09
 31.51936    -20.6 1.152e+04 1.125e-09
 31.53944    -20.5 1.110e+04 9.615e-10
 31.56321    -18.9 1.087e+04 9.288e-10
 31.60318    -17.0 1.101e+04 9.971e-10
 31.64314    -15.2 1.148e+04 1.110e-09
 31.67302    -12.9 1.105e+04 9.105e-10
 31.69291    -13.0 1.124e+04 9.522e-10
 31.71289    -11.8 1.157e+04 1.133e-09
 31.72311    -11.2 1.202e+04 1.360e-09
 31.73310    -10.5 1.116e+04 8.604e-10
 31.75285     -9.8 1.144e+04 9.866e-10
 31.77284     -9.1 1.167e+04 1.191e-09
 31.79282     -8.1 1.169e+04 1.470e-09
 31.81004     -6.9 1.170e+04 1.607e-09
 31.82003     -6.4 1.126e+04 1.117e-09
 31.83279     -5.4 1.131e+04 1.271e-09
 31.85277     -4.3 1.146e+04 1.370e-09
 31.87275     -3.4 1.150e+04 1.478e-09
 31.89273     -2.6 1.164e+04 1.473e-09
 31.90697     -1.8 1.164e+04 1.434e-09
 31.91696     -1.4 1.137e+04 1.273e-09
 31.93270     -0.3 1.129e+04 1.277e-09
 31.95268      0.9 1.119e+04 1.213e-09
 31.97267      2.0 1.106e+04 1.107e-09
 31.99265      3.3 1.098e+04 9.354e-10
 32.00389      3.6 1.094e+04 7.950e-10
 32.01388      4.5 1.092e+04 8.717e-10
 32.04270      4.8 1.063e+04 6.679e-10
 32.08103      5.1 1.066e+04 7.073e-10
 32.10101      7.4 1.069e+04 7.174e-10
 32.11477      7.8 1.096e+04 8.918e-10
 32.13475      8.5 1.101e+04 8.852e-10
 32.16270      9.4 1.103e+04 9.853e-10
 32.20266     11.4 1.067e+04 8.355e-10
 32.24263     13.8 9.997e+03 4.795e-10
 32.27488     15.7 9.364e+03 1.934e-10
 32.29486     17.0 9.899e+03 4.039e-10
 32.32256     18.4 9.386e+03 1.702e-10
 32.36253     19.2 8.899e+03 7.347e-11
 32.40249     20.3 8.426e+03 5.314e-11
 32.44246     21.8 8.364e+03 5.649e-11
 32.46873     23.4 8.423e+03 7.499e-11
 32.48872     25.0 8.744e+03 8.649e-11
 32.52239     26.5 8.703e+03 1.117e-10
 32.56235     28.3 8.832e+03 1.568e-10
 32.60232     30.2 9.046e+03 2.089e-10
 32.64229     32.1 9.269e+03 2.569e-10
 32.66258     33.9 9.475e+03 2.952e-10
 32.68257     35.0 9.418e+03 2.869e-10
 32.72222     36.8 9.591e+03 3.186e-10
 32.76218     38.5 9.768e+03 3.628e-10
 32.80215     40.0 9.954e+03 4.343e-10
 32.83645     41.4 1.019e+04 5.460e-10
 32.85643     43.1 1.026e+04 5.474e-10
 32.88208     44.6 1.070e+04 7.784e-10
 32.92205     46.2 1.107e+04 1.023e-09
 32.96201     47.8 1.114e+04 1.074e-09
 33.00198     49.6 1.098e+04 8.784e-10
 33.03030     50.8 1.064e+04 5.398e-10
 33.05028     52.0 1.176e+04 1.424e-09
 33.08191     53.1 1.140e+04 9.807e-10
 33.12187     53.6 1.096e+04 6.747e-10
 33.14643     54.2 1.082e+04 6.517e-10
 33.16641     54.1 1.138e+04 8.790e-10
 33.20180     55.0 1.150e+04 9.819e-10
 33.22415     55.9 1.187e+04 1.210e-09
 33.24414     56.3 1.206e+04 1.429e-09
 33.28174     57.1 1.187e+04 1.313e-09
 33.32170     57.9 1.155e+04 1.062e-09
 33.36167     58.5 1.118e+04 8.114e-10
 33.39802     59.1 1.082e+04 6.286e-10
 33.41800     59.2 1.048e+04 5.619e-10
 33.44160     60.1 1.040e+04 5.370e-10
 33.48156     61.5 1.046e+04 5.513e-10
 33.52153     63.1 1.066e+04 6.189e-10
 33.56150     64.7 1.094e+04 7.201e-10
 33.59137     65.7 1.106e+04 7.814e-10
 33.60167     66.4 1.119e+04 8.284e-10
 33.61176     66.7 1.073e+04 6.637e-10
 33.63134     67.5 1.089e+04 7.088e-10
 33.65122     68.3 1.089e+04 7.075e-10
 33.66206     69.2 1.086e+04 6.837e-10
 33.67205     69.3 1.080e+04 6.659e-10
 33.68860     70.2 1.076e+04 6.321e-10
 33.69859     70.3 1.050e+04 5.571e-10
 33.71117     71.3 1.047e+04 5.407e-10
 33.73115     72.1 1.048e+04 5.397e-10
 33.75114     73.1 1.049e+04 5.399e-10
 33.77112     73.9 1.052e+04 5.466e-10
 33.78553     75.0 1.066e+04 5.762e-10
 33.80561     76.0 1.051e+04 5.256e-10
 33.84125     77.9 1.071e+04 5.737e-10
 33.87113     78.5 1.084e+04 6.168e-10
 33.88245     79.0 1.097e+04 6.707e-10
 33.89244     79.4 1.081e+04 5.852e-10
 33.91100     80.0 1.097e+04 6.254e-10
 33.93098     80.6 1.115e+04 6.913e-10
 33.95097     81.1 1.135e+04 7.849e-10
 33.96939     81.6 1.157e+04 9.088e-10
 33.97938     81.8 1.143e+04 7.404e-10
 33.99093     82.2 1.170e+04 8.705e-10
 34.01091     82.4 1.198e+04 1.032e-09
 34.03090     82.5 1.226e+04 1.227e-09
 34.05088     82.6 1.252e+04 1.451e-09
 34.06631     82.6 1.274e+04 1.687e-09
 34.07630     82.2 1.266e+04 1.592e-09
 34.09084     81.9 1.296e+04 1.925e-09
 34.11083     81.0 1.368e+04 2.571e-09
 34.13081     79.2 1.476e+04 3.703e-09
 34.14575     77.7 1.539e+04 4.371e-09
 34.15569     75.9 1.630e+04 5.430e-09
 34.16314     73.7 1.731e+04 7.456e-09
 34.16813     72.6 1.770e+04 7.451e-09
 34.17280     70.8 1.839e+04 1.024e-08
 34.17779     69.3 1.872e+04 1.085e-08
 34.18567     68.5 1.909e+04 1.481e-08
 34.19566     68.3 1.942e+04 1.860e-08
 34.20565     67.8 1.950e+04 1.915e-08
 34.21160     67.4 1.948e+04 1.905e-08
 34.21660     66.9 1.949e+04 1.931e-08
 34.22563     65.5 1.983e+04 1.755e-08
 34.23562     64.4 2.054e+04 1.612e-08
 34.24561     59.4 2.280e+04 1.689e-08
 34.25507     55.5 2.421e+04 1.723e-08
 34.26006     52.1 2.490e+04 2.077e-08
 34.27064     42.4 2.410e+04 1.981e-08
 34.29067     36.7 2.031e+04 1.283e-08
 34.31066     33.0 1.784e+04 5.947e-09
 34.33064     28.2 1.815e+04 1.840e-09
 34.34710     19.8 1.709e+04 4.624e-10
 34.35709     11.0 1.095e+04 2.875e-10
 34.37060      9.0 1.016e+04 2.870e-10
 34.39059      8.3 1.026e+04 3.175e-10
 34.41057      8.0 1.048e+04 3.716e-10
 34.43055      7.7 1.076e+04 4.412e-10
 34.44402      7.3 1.105e+04 5.398e-10
 34.45401      6.5 1.097e+04 5.307e-10
 34.47052      6.4 1.135e+04 6.651e-10
 34.49050      5.9 1.202e+04 8.595e-10
 34.51048      5.1 1.318e+04 1.198e-09
 34.53047      2.1 1.607e+04 2.323e-09
 34.54090     -1.7 1.797e+04 3.711e-09
 34.55089     -1.7 1.685e+04 2.851e-09
 34.56539     -4.1 1.721e+04 4.922e-09
 34.57533     -4.5 1.700e+04 5.831e-09
 34.58432     -4.7 1.662e+04 7.824e-09
 34.58931     -4.6 1.603e+04 6.418e-09
 34.59531     -4.6 1.623e+04 6.847e-09
 34.61035     -3.9 1.684e+04 9.817e-09
 34.62788     -3.6 1.697e+04 9.857e-09
 34.63787     -3.8 1.626e+04 7.611e-09
 34.65036     -3.3 1.597e+04 6.282e-09
 34.67035     -3.9 1.521e+04 4.312e-09
 34.68373     -5.4 1.359e+04 2.643e-09
 34.69372     -7.5 1.240e+04 1.857e-09
 34.71031     -7.0 1.177e+04 1.472e-09
 34.72481     -6.3 1.114e+04 1.147e-09
 34.73480     -6.1 1.110e+04 1.131e-09
 34.75028     -5.0 1.090e+04 8.861e-10
 34.77026     -4.8 1.071e+04 7.823e-10
 34.79024     -4.1 1.032e+04 6.480e-10
 34.81023     -3.8 1.022e+04 6.068e-10
 34.84030     -2.5 1.001e+04 5.795e-10
 34.88036     -0.8 9.932e+03 5.752e-10
 34.90886      1.1 9.864e+03 5.535e-10
 34.92884      1.6 1.026e+04 7.063e-10
 34.96029      3.2 1.016e+04 6.629e-10
 35.00026      4.4 1.016e+04 6.304e-10
 35.04022      5.1 1.032e+04 6.701e-10
 35.08019      5.5 1.074e+04 8.359e-10
 35.10271      6.2 1.108e+04 1.014e-09
 35.12269      5.8 1.097e+04 8.676e-10
 35.16012      7.0 1.096e+04 8.531e-10
 35.18955      7.7 1.093e+04 8.456e-10
 35.19911      7.8 1.090e+04 8.082e-10
 35.19956      7.5 1.103e+04 8.242e-10
 35.20988      7.8 1.105e+04 8.483e-10
 35.22987      8.0 1.119e+04 8.999e-10
 35.24985      8.3 1.127e+04 9.407e-10
 35.26983      8.6 1.138e+04 1.017e-09
 35.28637      8.9 1.150e+04 1.113e-09
 35.29637      9.1 1.140e+04 1.075e-09
 35.30980      9.6 1.152e+04 1.149e-09
 35.32978     10.0 1.161e+04 1.186e-09
 35.35985     10.7 1.145e+04 1.144e-09
 35.39991     11.7 1.145e+04 1.163e-09
 35.42979     11.9 1.158e+04 1.245e-09
 35.44968     12.5 1.159e+04 1.261e-09
 35.46966     13.0 1.168e+04 1.305e-09
 35.48023     13.4 1.179e+04 1.369e-09
 35.49022     13.6 1.192e+04 1.468e-09
 35.50962     13.9 1.208e+04 1.564e-09
 35.52961     14.2 1.236e+04 1.745e-09
 35.54959     14.3 1.271e+04 2.080e-09
 35.56716     14.0 1.352e+04 2.651e-09
 35.57715     14.0 1.356e+04 2.811e-09
 35.58956     13.2 1.478e+04 4.041e-09
 35.60954     12.3 1.607e+04 6.146e-09
 35.62952     11.7 1.722e+04 9.400e-09
 35.64950     10.3 1.879e+04 1.504e-08
 35.66404      6.9 2.076e+04 2.510e-08
 35.66898      6.3 2.081e+04 2.611e-08
 35.67439      5.0 2.086e+04 3.563e-08
 35.68438      4.1 2.044e+04 4.781e-08
 35.69437      3.4 2.005e+04 5.266e-08
 35.70436      3.4 1.970e+04 4.854e-08
 35.71030      3.6 1.941e+04 3.926e-08
 35.71339      3.9 1.983e+04 3.736e-08
 35.71745      3.6 1.963e+04 3.265e-08
 35.72434      2.6 2.034e+04 2.297e-08
 35.73433      0.3 2.127e+04 1.720e-08
 35.74937     -8.1 2.474e+04 9.458e-09
 35.76101    -24.2 2.233e+04 7.226e-09
 35.77100    -22.5 2.138e+04 6.706e-09
 35.78938    -31.0 1.900e+04 8.542e-09
 35.80937    -35.4 1.958e+04 1.101e-08
 35.82935    -40.6 1.917e+04 1.102e-08
 35.84429    -43.1 1.803e+04 9.252e-09
 35.85284    -44.3 1.742e+04 7.753e-09
 35.85784    -43.5 1.777e+04 8.369e-09
 35.86422    -46.2 1.564e+04 5.634e-09
 35.87421    -47.0 1.509e+04 4.683e-09
 35.88925    -48.9 1.383e+04 3.263e-09
 35.90928    -51.5 1.347e+04 1.972e-09
 35.92926    -54.6 1.264e+04 1.311e-09
 35.94487    -56.0 1.179e+04 1.042e-09
 35.95486    -54.4 1.196e+04 1.086e-09
 35.96923    -54.7 1.149e+04 9.705e-10
 35.98921    -54.5 1.124e+04 8.907e-10
 36.00920    -54.0 1.090e+04 7.810e-10
 36.02918    -53.5 1.055e+04 6.577e-10
 36.04179    -53.0 1.023e+04 5.455e-10
 36.05179    -51.8 1.041e+04 6.078e-10
 36.06914    -51.3 1.012e+04 5.032e-10
 36.08913    -50.8 9.826e+03 4.162e-10
 36.10911    -50.1 9.537e+03 3.432e-10
 36.12873    -49.2 9.296e+03 2.908e-10
 36.13872    -48.6 9.381e+03 3.018e-10
 36.15916    -48.3 9.069e+03 2.465e-10
 36.19923    -46.8 8.737e+03 2.058e-10
 36.22143    -45.5 8.578e+03 1.914e-10
 36.22807    -44.2 9.286e+03 3.120e-10
 36.24583    -42.4 9.395e+03 3.145e-10
 36.27916    -41.0 9.115e+03 2.722e-10
 36.31912    -39.8 9.050e+03 2.711e-10
 36.35909    -38.5 9.127e+03 2.884e-10
 36.39906    -37.1 9.192e+03 2.975e-10
 36.41970    -35.8 9.177e+03 2.887e-10
 36.43968    -34.4 9.768e+03 4.157e-10
 36.47899    -33.4 9.634e+03 3.688e-10
 36.51895    -32.3 9.365e+03 2.930e-10
 36.55892    -31.1 9.206e+03 2.549e-10
 36.59357    -30.2 9.378e+03 2.597e-10
 36.61355    -29.0 9.782e+03 3.628e-10
 36.63885    -28.8 1.047e+04 5.075e-10
 36.67882    -29.3 1.156e+04 1.081e-09
 36.70039    -28.9 1.237e+04 1.900e-09
 36.71028    -29.1 1.274e+04 2.209e-09
 36.72707    -29.1 1.329e+04 3.027e-09
 36.73706    -29.1 1.322e+04 3.026e-09
 36.74856    -28.1 1.370e+04 4.239e-09
 36.76854    -26.5 1.384e+04 4.648e-09
 36.78722    -25.1 1.386e+04 4.543e-09
 36.79721    -24.5 1.439e+04 6.032e-09
 36.80851    -22.9 1.407e+04 4.153e-09
 36.82849    -22.3 1.362e+04 2.249e-09
 36.84847    -24.2 1.220e+04 1.077e-09
 36.86846    -25.4 1.109e+04 6.577e-10
 36.88415    -25.8 1.054e+04 5.056e-10
 36.89414    -25.7 1.050e+04 4.921e-10
 36.91851    -25.9 1.020e+04 4.206e-10
 36.95857    -25.6 1.005e+04 4.066e-10
 36.98127    -25.2 1.006e+04 4.725e-10
 37.00125    -24.7 1.033e+04 5.921e-10
 37.03851    -23.7 1.041e+04 6.761e-10
 37.07847    -22.8 1.022e+04 6.458e-10
 37.11844    -22.0 9.736e+03 4.198e-10
 37.15514    -22.0 9.410e+03 2.660e-10
 37.17512    -21.5 9.333e+03 2.507e-10
 37.19837    -21.7 9.220e+03 2.245e-10
 37.23310    -21.4 9.343e+03 2.398e-10
 37.25309    -22.2 9.650e+03 4.156e-10
 37.27830    -21.8 9.781e+03 4.605e-10
 37.31827    -21.3 9.822e+03 5.243e-10
 37.34899    -20.5 9.811e+03 5.514e-10
 37.36897    -19.3 9.533e+03 4.395e-10
 37.39820    -17.9 9.393e+03 3.756e-10
 37.43816    -16.9 9.269e+03 2.692e-10
 37.47813    -16.7 9.078e+03 1.960e-10
 37.51809    -16.9 8.928e+03 1.871e-10
 37.54284    -16.9 8.944e+03 2.526e-10
 37.56282    -15.9 8.809e+03 1.646e-10
 37.59802    -15.5 9.079e+03 3.224e-10
 37.63799    -14.0 9.736e+03 5.050e-10
 37.67796    -13.3 1.036e+04 5.915e-10
 37.71671    -14.3 1.051e+04 5.977e-10
 37.73669    -12.2 1.096e+04 8.714e-10
 37.75789    -13.8 1.108e+04 8.590e-10
 37.79785    -14.9 1.122e+04 9.223e-10
 37.83782    -16.5 1.136e+04 1.009e-09
 37.87778    -18.1 1.153e+04 1.191e-09
 37.91056    -19.2 1.175e+04 1.372e-09
 37.93054    -18.9 1.179e+04 1.331e-09
 37.95772    -20.0 1.178e+04 1.386e-09
 37.98759    -20.6 1.150e+04 1.229e-09
 38.00729    -20.6 1.147e+04 1.193e-09
 38.01728    -20.3 1.144e+04 1.184e-09
 38.02746    -20.5 1.112e+04 9.932e-10
 38.04744    -20.3 1.090e+04 8.295e-10
 38.06743    -20.5 1.056e+04 6.479e-10
 38.08741    -20.3 1.036e+04 5.186e-10
 38.10421    -20.7 1.008e+04 4.086e-10
 38.11420    -20.5 9.972e+03 3.799e-10
 38.12737    -20.5 9.823e+03 3.424e-10
 38.15745    -20.4 9.688e+03 3.156e-10
 38.19751    -19.5 9.691e+03 3.254e-10
 38.23748    -18.4 9.819e+03 4.118e-10
 38.26476    -16.7 1.001e+04 5.169e-10
 38.28475    -16.0 1.043e+04 6.617e-10
 38.29826    -14.0 1.033e+04 6.102e-10
 38.31824    -13.3 1.030e+04 5.993e-10
 38.35737    -11.5 1.009e+04 4.922e-10
 38.39734     -9.8 9.836e+03 3.885e-10
 38.43730     -8.0 9.631e+03 3.104e-10
 38.47213     -6.2 9.486e+03 2.650e-10
 38.49211     -5.6 9.383e+03 2.523e-10
 38.51723     -3.6 9.337e+03 2.400e-10
 38.55720     -1.5 9.337e+03 2.368e-10
 38.59717      0.6 9.366e+03 2.311e-10
 38.63713      2.6 9.447e+03 2.300e-10
 38.66598      4.3 9.494e+03 2.617e-10
 38.68596      4.4 9.660e+03 3.468e-10
 38.70697      6.3 9.862e+03 4.344e-10
 38.72686      6.5 9.900e+03 4.402e-10
 38.74684      8.0 1.027e+04 5.559e-10
 38.76271      8.3 1.041e+04 5.773e-10
 38.77270      8.1 1.052e+04 6.263e-10
 38.78040      9.3 1.119e+04 9.088e-10
 38.79039      9.4 1.086e+04 7.732e-10
 38.80679     10.1 1.106e+04 8.192e-10
 38.82677      9.9 1.139e+04 9.291e-10
 38.84676      9.8 1.204e+04 1.165e-09
 38.85963      9.3 1.297e+04 1.622e-09
 38.86962      9.5 1.226e+04 1.366e-09
 38.88672      9.1 1.289e+04 1.704e-09
 38.90670      8.4 1.339e+04 2.021e-09
 38.92669      7.8 1.323e+04 2.256e-09
 38.94657      8.0 1.296e+04 2.453e-09
 38.95656      7.5 1.237e+04 1.651e-09
 38.96665      7.8 1.241e+04 1.618e-09
 38.98664      7.6 1.248e+04 1.459e-09
 39.00662      6.6 1.249e+04 1.333e-09
 39.02660      5.2 1.223e+04 1.268e-09
 39.04349      4.5 1.184e+04 1.234e-09
 39.05348      4.3 1.147e+04 1.110e-09
 39.06657      5.1 1.107e+04 1.083e-09
 39.08655      6.5 1.095e+04 9.528e-10
 39.10653      7.2 1.121e+04 6.806e-10
 39.12652      6.5 1.083e+04 4.961e-10
 39.14042      5.1 1.019e+04 3.279e-10
 39.15041      4.1 9.902e+03 3.063e-10
 39.16648      2.7 9.632e+03 2.737e-10
 39.18646      1.3 9.855e+03 2.833e-10
 39.20645     -1.8 1.057e+04 3.934e-10
 39.22643     -5.5 1.151e+04 6.899e-10
 39.23734     -8.8 1.222e+04 1.303e-09
 39.24733     -8.8 1.236e+04 1.584e-09
 39.26639     -9.7 1.296e+04 2.385e-09
 39.28624    -10.2 1.342e+04 2.858e-09
 39.29623     -9.5 1.317e+04 2.358e-09
 39.30636    -10.9 1.322e+04 2.419e-09
 39.32428    -12.8 1.268e+04 1.958e-09
 39.33427    -13.5 1.235e+04 1.772e-09
 39.34633    -15.7 1.154e+04 1.372e-09
 39.36631    -16.9 1.107e+04 1.111e-09
 39.39638    -18.1 1.059e+04 8.489e-10
 39.42130    -21.1 9.784e+03 5.694e-10
 39.43119    -20.8 9.295e+03 4.645e-10
 39.44624    -21.4 9.238e+03 4.410e-10
 39.46622    -23.0 8.922e+03 3.946e-10
 39.48621    -23.3 8.923e+03 3.943e-10
 39.50619    -24.6 8.864e+03 3.848e-10
 39.51813    -25.1 8.943e+03 4.021e-10
 39.52812    -24.8 9.015e+03 4.205e-10
 39.54615    -25.5 9.166e+03 4.401e-10
 39.56614    -26.5 9.487e+03 4.866e-10
 39.59517    -28.7 1.018e+04 5.946e-10
 39.61515    -27.9 9.791e+03 5.878e-10
 39.63617    -30.3 1.132e+04 9.433e-10
 39.66615    -36.2 1.342e+04 2.418e-09
 39.68603    -38.0 1.444e+04 4.168e-09
 39.70199    -38.7 1.501e+04 6.084e-09
 39.71198    -37.4 1.470e+04 4.521e-09
 39.72600    -37.9 1.500e+04 5.636e-09
 39.74598    -38.6 1.503e+04 5.849e-09
 39.76597    -39.3 1.467e+04 5.139e-09
 39.78595    -40.7 1.378e+04 3.475e-09
 39.79891    -43.1 1.273e+04 2.288e-09
 39.80504    -41.6 1.270e+04 2.337e-09
 39.81206    -42.9 1.384e+04 3.052e-09
 39.82591    -46.4 1.383e+04 2.849e-09
 39.84590    -49.1 1.431e+04 3.142e-09
 39.86588    -51.0 1.468e+04 3.527e-09
 39.88585    -52.5 1.466e+04 3.705e-09
 39.90583    -52.1 1.553e+04 4.947e-09
 39.92583    -53.2 1.519e+04 4.688e-09
 39.94581    -54.3 1.457e+04 4.051e-09
 39.96579    -55.6 1.377e+04 3.116e-09
 39.98277    -57.0 1.287e+04 2.282e-09
 39.99276    -56.0 1.368e+04 2.897e-09
 40.00576    -57.5 1.257e+04 2.010e-09
 40.02574    -58.3 1.180e+04 1.450e-09
 40.04572    -58.6 1.127e+04 1.069e-09
 40.06571    -58.9 1.081e+04 7.845e-10
 40.07970    -59.2 1.040e+04 5.862e-10
 40.08969    -58.9 1.091e+04 7.477e-10
 40.10567    -59.2 1.052e+04 6.026e-10
 40.12566    -59.3 1.025e+04 5.326e-10
 40.14564    -59.3 1.011e+04 5.108e-10
 40.16562    -58.8 1.007e+04 5.059e-10
 40.17662    -58.2 1.006e+04 5.070e-10
 40.18661    -57.8 1.045e+04 6.838e-10
 40.20559    -57.1 1.044e+04 6.991e-10
 40.22557    -56.2 1.044e+04 7.016e-10
 40.24555    -55.4 1.037e+04 6.803e-10
 40.26356    -54.5 1.031e+04 6.585e-10
 40.27355    -54.0 1.058e+04 7.937e-10
 40.28552    -53.1 1.052e+04 7.410e-10
 40.30550    -52.4 1.050e+04 6.913e-10
 40.31790    -51.5 1.048e+04 6.616e-10
 40.32789    -51.8 1.048e+04 6.469e-10
 40.34547    -50.9 1.049e+04 6.362e-10
 40.36048    -50.1 1.061e+04 6.464e-10
 40.37047    -49.7 1.067e+04 6.631e-10
 40.38543    -49.0 1.081e+04 6.881e-10
 40.40542    -48.3 1.098e+04 7.389e-10
 40.42540    -47.6 1.119e+04 8.118e-10
 40.44538    -46.9 1.142e+04 9.054e-10
 40.45741    -46.2 1.168e+04 1.016e-09
 40.46740    -45.6 1.168e+04 9.955e-10
 40.48535    -45.0 1.197e+04 1.109e-09
 40.50533    -44.7 1.228e+04 1.245e-09
 40.52531    -44.6 1.264e+04 1.433e-09
 40.54434    -45.0 1.309e+04 1.760e-09
 40.55433    -44.3 1.310e+04 1.568e-09
 40.56528    -44.8 1.352e+04 1.983e-09
 40.58526    -45.1 1.394e+04 2.582e-09
 40.60524    -45.2 1.434e+04 3.255e-09
 40.62523    -45.1 1.462e+04 3.775e-09
 40.64127    -45.0 1.471e+04 3.907e-09
 40.65126    -44.5 1.430e+04 2.864e-09
 40.66519    -44.5 1.411e+04 2.681e-09
 40.68518    -44.6 1.356e+04 2.208e-09
 40.70516    -45.2 1.289e+04 1.761e-09
 40.72514    -45.7 1.231e+04 1.437e-09
 40.73829    -45.9 1.184e+04 1.192e-09
 40.75837    -45.3 1.135e+04 9.831e-10
 40.79528    -44.6 1.065e+04 7.028e-10
 40.83524    -43.5 9.881e+03 4.428e-10
 40.87521    -42.0 9.166e+03 2.513e-10
 40.91225    -40.6 8.611e+03 1.445e-10
 40.93224    -39.7 8.676e+03 1.553e-10
 40.95514    -38.6 8.396e+03 1.122e-10
 40.99510    -37.2 8.316e+03 1.033e-10
 41.03507    -35.9 8.312e+03 1.037e-10
 41.07504    -34.9 8.494e+03 1.411e-10
 41.10611    -33.8 8.853e+03 2.339e-10
 41.12609    -33.1 8.870e+03 2.662e-10
 41.15497    -31.5 9.181e+03 3.597e-10
 41.19493    -30.2 9.415e+03 4.273e-10
 41.23490    -29.2 9.488e+03 4.475e-10
 41.27486    -28.3 9.399e+03 4.180e-10
 41.29996    -27.2 9.140e+03 3.468e-10
 41.31994    -26.7 8.702e+03 2.295e-10
 41.33976    -25.5 8.555e+03 2.045e-10
 41.35975    -25.8 8.484e+03 1.983e-10
 41.39476    -24.2 8.440e+03 1.976e-10
 41.43473    -22.5 8.432e+03 1.982e-10
 41.47382    -20.8 8.476e+03 2.019e-10
 41.49381    -20.4 8.352e+03 1.814e-10
 41.51466    -18.9 8.433e+03 1.916e-10
 41.55462    -17.5 8.507e+03 2.064e-10
 41.59459    -16.0 8.568e+03 2.245e-10
 41.63455    -14.5 8.644e+03 2.461e-10
 41.66767    -12.9 8.743e+03 2.698e-10
 41.68766    -12.6 8.507e+03 2.138e-10
 41.71449    -11.0 8.537e+03 2.090e-10
 41.75445     -9.3 8.576e+03 1.993e-10
 41.79442     -7.7 8.600e+03 1.871e-10
 41.83438     -6.1 8.598e+03 1.798e-10
 41.86153     -4.6 8.575e+03 1.799e-10
 41.88151     -4.6 8.105e+03 1.161e-10
 41.91431     -2.8 8.183e+03 1.374e-10
 41.95428     -0.6 8.259e+03 1.598e-10
 41.99425      1.7 8.337e+03 1.749e-10
 42.03421      3.9 8.385e+03 1.801e-10
 42.05538      6.0 8.518e+03 1.866e-10
 42.07536      6.4 8.355e+03 1.700e-10
 42.11414      8.2 8.532e+03 1.815e-10
 42.15411      9.7 8.723e+03 2.190e-10
 42.19407     11.4 9.031e+03 2.962e-10
 42.22924     13.4 9.500e+03 4.163e-10
 42.24923     14.3 8.640e+03 1.940e-10
 42.27400     15.3 8.830e+03 2.240e-10
 42.31397     16.4 9.159e+03 3.037e-10
 42.35144     17.8 9.654e+03 4.406e-10
 42.37142     18.2 9.904e+03 5.212e-10
 42.39390     19.4 1.033e+04 6.045e-10
 42.42309     20.5 1.063e+04 7.621e-10
 42.44308     21.4 1.016e+04 5.759e-10
 42.47383     23.1 1.038e+04 7.505e-10
 42.51380     25.0 1.062e+04 8.412e-10
 42.55376     26.5 1.086e+04 8.808e-10
 42.58364     27.4 1.086e+04 8.486e-10
 42.60353     27.8 1.087e+04 8.428e-10
 42.61675     28.5 1.095e+04 8.806e-10
 42.62674     28.7 1.072e+04 7.611e-10
 42.64349     29.2 1.077e+04 7.721e-10
 42.66347     29.8 1.077e+04 7.809e-10
 42.68346     30.3 1.072e+04 7.811e-10
 42.70344     31.4 1.061e+04 7.511e-10
 42.71368     31.6 1.063e+04 7.513e-10
 42.72367     31.7 1.041e+04 6.618e-10
 42.75349     33.4 1.001e+04 5.467e-10
 42.79081     35.2 9.525e+03 3.458e-10
 42.81080     35.3 9.521e+03 3.625e-10
 42.83352     36.8 9.180e+03 2.199e-10
 42.87349     37.7 8.999e+03 1.461e-10
 42.91345     38.9 8.897e+03 1.289e-10
 42.95342     40.4 8.897e+03 1.388e-10
 42.98466     42.4 8.941e+03 1.623e-10
 43.00465     42.5 8.897e+03 1.517e-10
 43.03335     44.5 8.996e+03 1.807e-10
 43.07332     46.4 9.136e+03 2.135e-10
 43.11328     48.3 9.296e+03 2.522e-10
 43.15325     50.0 9.494e+03 3.072e-10
 43.17851     51.8 9.739e+03 3.694e-10
 43.19850     52.0 9.626e+03 3.249e-10
 43.23318     53.7 9.758e+03 3.429e-10
 43.27315     55.3 9.835e+03 3.256e-10
 43.31311     56.6 9.877e+03 2.773e-10
 43.35238     57.8 9.928e+03 2.603e-10
 43.37237     57.9 9.750e+03 2.160e-10
 43.38310     58.8 9.880e+03 2.372e-10
 43.40308     58.7 9.623e+03 1.687e-10
 43.43301     59.4 9.930e+03 2.309e-10
 43.47297     60.4 1.032e+04 3.932e-10
 43.51294     61.7 1.079e+04 6.303e-10
 43.54623     62.9 1.109e+04 7.422e-10
 43.56622     63.1 1.099e+04 6.977e-10
 43.59287     64.2 1.094e+04 6.558e-10
 43.63284     65.8 1.066e+04 4.969e-10
 43.67280     67.2 1.032e+04 3.123e-10
 43.71277     68.3 1.000e+04 1.978e-10
 43.74008     69.4 9.668e+03 1.727e-10
 43.76007     69.7 9.632e+03 1.701e-10
 43.79270     71.3 9.609e+03 1.728e-10
 43.83266     72.8 9.620e+03 1.940e-10
 43.87263     74.1 9.751e+03 2.488e-10
 43.91260     75.3 9.943e+03 3.234e-10
 43.93393     76.1 1.006e+04 3.781e-10
 43.95392     76.2 9.905e+03 3.424e-10
 43.99253     76.5 9.881e+03 3.393e-10
 44.03249     76.8 9.761e+03 3.200e-10
 44.07246     77.2 9.601e+03 2.834e-10
 44.10780     77.7 9.450e+03 2.288e-10
 44.12779     77.9 9.420e+03 2.228e-10
 44.15239     78.4 9.179e+03 1.656e-10
 44.19236     78.9 8.996e+03 1.442e-10
 44.23232     79.8 9.012e+03 1.471e-10
 44.27229     80.7 9.228e+03 1.688e-10
 44.30165     81.7 9.707e+03 2.402e-10
 44.32164     82.5 9.364e+03 2.165e-10
 44.35222     83.7 9.785e+03 2.988e-10
 44.38209     84.0 1.002e+04 3.702e-10
 44.39838     84.6 1.017e+04 4.391e-10
 44.40837     84.9 1.009e+04 4.077e-10
 44.41457     85.7 1.023e+04 4.739e-10
 44.42456     85.5 1.042e+04 5.112e-10
 44.44195     86.3 1.057e+04 5.721e-10
 44.46193     87.0 1.071e+04 6.243e-10
 44.48191     87.6 1.086e+04 6.770e-10
 44.49531     88.0 1.098e+04 7.418e-10
 44.50530     88.1 1.101e+04 7.614e-10
 44.52188     88.5 1.115e+04 8.555e-10
 44.54186     88.7 1.130e+04 9.759e-10
 44.56184     89.0 1.151e+04 1.129e-09
 44.58182     89.2 1.175e+04 1.342e-09
 44.59223     89.4 1.208e+04 1.641e-09
 44.60223     89.3 1.220e+04 1.728e-09
 44.62179     89.5 1.264e+04 2.198e-09
 44.64177     89.9 1.310e+04 2.647e-09
 44.66176     90.1 1.333e+04 2.747e-09
 44.67917     90.2 1.330e+04 2.689e-09
 44.68916     90.0 1.330e+04 2.593e-09
 44.70172     90.1 1.310e+04 2.185e-09
 44.72170     89.7 1.281e+04 1.696e-09
 44.74169     88.6 1.279e+04 1.562e-09
 44.76167     86.8 1.291e+04 1.637e-09
 44.77609     84.4 1.340e+04 2.026e-09
 44.78608     83.1 1.359e+04 2.277e-09
 44.80164     81.6 1.440e+04 3.679e-09
 44.82162     81.4 1.528e+04 5.657e-09
 44.84160     80.9 1.614e+04 6.879e-09
 44.86158     79.6 1.647e+04 6.833e-09
 44.87302     77.6 1.657e+04 6.158e-09
 44.88301     76.0 1.645e+04 5.966e-09
 44.90155     73.6 1.577e+04 4.595e-09
 44.92041     71.2 1.450e+04 3.372e-09
 44.93040     70.3 1.466e+04 3.733e-09
 44.94152     68.6 1.327e+04 2.505e-09
 44.95995     67.5 1.238e+04 1.776e-09
 44.96994     67.3 1.200e+04 1.412e-09
 44.99157     67.7 1.175e+04 1.091e-09
 45.03163     66.6 1.078e+04 5.560e-10
 45.05707     65.5 9.945e+03 3.765e-10
 45.07706     65.4 9.354e+03 2.776e-10
 45.11156     65.8 9.338e+03 2.821e-10
 45.15153     66.8 9.550e+03 3.426e-10
 45.18141     67.3 9.687e+03 3.808e-10
 45.20129     67.4 9.966e+03 4.472e-10
 45.22128     67.4 1.035e+04 5.544e-10
 45.24074     67.3 1.080e+04 7.135e-10
 45.25073     67.5 1.062e+04 6.043e-10
 45.26124     66.8 1.130e+04 8.554e-10
 45.28122     65.8 1.211e+04 1.300e-09
 45.30121     64.8 1.292e+04 2.018e-09
 45.32119     64.2 1.378e+04 3.014e-09
 45.33766     63.5 1.485e+04 4.246e-09
 45.34765     63.7 1.485e+04 4.502e-09
 45.36115     62.7 1.580e+04 5.366e-09
 45.38114     60.9 1.638e+04 5.950e-09
 45.40112     58.9 1.637e+04 6.294e-09
 45.42110     57.5 1.627e+04 6.211e-09
 45.43459     55.6 1.682e+04 6.579e-09
 45.43973     56.1 1.580e+04 4.959e-09
 45.44623     55.2 1.617e+04 5.315e-09
 45.46107     47.5 1.941e+04 7.672e-09
 45.48105     40.7 2.036e+04 1.353e-08
 45.50103     36.9 1.919e+04 1.484e-08
 45.52102     35.0 1.804e+04 1.181e-08
 45.53151     33.0 1.683e+04 6.285e-09
 45.54150     32.2 1.635e+04 5.636e-09
 45.56098     28.3 1.446e+04 2.491e-09
 45.58097     23.8 1.274e+04 1.059e-09
 45.60095     20.7 1.107e+04 5.954e-10
 45.61845     19.6 1.026e+04 4.407e-10
 45.62844     19.5 1.029e+04 4.593e-10
 45.64091     19.5 1.016e+04 4.027e-10
 45.66090     19.3 1.029e+04 3.606e-10
 45.68088     19.4 1.027e+04 3.578e-10
 45.71095     19.8 1.025e+04 3.718e-10
 45.75102     21.3 1.027e+04 3.483e-10
 45.79098     22.5 1.024e+04 2.765e-10
 45.81249     23.3 9.966e+03 2.169e-10
 45.83248     22.7 1.010e+04 2.287e-10
 45.87091     23.7 9.578e+03 1.865e-10
 45.91088     25.2 9.291e+03 1.540e-10
 45.95084     26.7 9.201e+03 1.207e-10
 45.98636     28.0 9.099e+03 1.061e-10
 46.00634     27.8 9.100e+03 1.053e-10
 46.03077     29.2 8.974e+03 1.084e-10
 46.07074     31.0 8.863e+03 1.161e-10
 46.11071     33.1 8.839e+03 1.227e-10
 46.15067     35.0 8.888e+03 1.247e-10
 46.18021     36.7 8.961e+03 1.291e-10
 46.20019     36.7 9.083e+03 1.597e-10
 46.23060     38.2 9.296e+03 1.869e-10
 46.27057     39.6 9.616e+03 2.446e-10
 46.31053     41.0 1.001e+04 3.317e-10
 46.35050     42.1 1.025e+04 4.037e-10
 46.37396     42.8 1.057e+04 5.457e-10
 46.38386     42.9 1.071e+04 6.170e-10
 46.40026     43.4 1.098e+04 6.806e-10
 46.42024     43.8 1.117e+04 7.273e-10
 46.44023     44.0 1.128e+04 7.608e-10
 46.45791     44.3 1.138e+04 7.978e-10
 46.46790     44.2 1.137e+04 7.960e-10
 46.47079     44.2 1.157e+04 8.583e-10
 46.48078     43.2 1.179e+04 9.826e-10
 46.50018     42.2 1.242e+04 1.236e-09
 46.52016     40.4 1.336e+04 1.815e-09
 46.54014     38.9 1.409e+04 2.858e-09
 46.55773     38.5 1.457e+04 3.947e-09
 46.56772     38.1 1.433e+04 3.798e-09
 46.58011     38.4 1.436e+04 4.015e-09
 46.60009     38.8 1.419e+04 3.591e-09
 46.62007     39.3 1.370e+04 2.614e-09
 46.64006     39.1 1.299e+04 1.682e-09
 46.67013     36.5 1.113e+04 5.188e-10
 46.71019     33.5 9.202e+03 1.847e-10
 46.74178     31.6 8.270e+03 1.325e-10
 46.76176     30.6 8.303e+03 1.148e-10
 46.79012     29.8 8.594e+03 1.481e-10
 46.83009     29.1 9.064e+03 2.911e-10
 46.87005     29.7 9.318e+03 5.112e-10
 46.91002     31.2 9.125e+03 4.891e-10
 46.93563     33.5 8.597e+03 3.406e-10
 46.95561     33.7 8.316e+03 2.780e-10
 46.98995     34.6 7.876e+03 1.225e-10
 47.02992     33.9 7.422e+03 5.426e-11
 47.06988     34.0 7.071e+03 4.674e-11
 47.10950     35.2 7.051e+03 5.011e-11
 47.12948     35.7 7.046e+03 4.984e-11
 47.14981     37.3 7.108e+03 6.302e-11
 47.18978     39.2 7.214e+03 8.181e-11
 47.22974     41.3 7.340e+03 9.734e-11
 47.26971     43.1 7.454e+03 1.054e-10
 47.30335     44.4 7.594e+03 1.126e-10
 47.32333     45.0 7.665e+03 1.255e-10
 47.34964     46.1 7.843e+03 1.409e-10
 47.38961     47.1 8.057e+03 1.672e-10
 47.42957     48.1 8.213e+03 1.823e-10
 47.46954     49.0 8.251e+03 1.820e-10
 47.48976     49.1 8.284e+03 1.804e-10
 47.49744     49.5 8.264e+03 1.750e-10
 47.51718     50.5 8.325e+03 1.688e-10
 47.54947     50.1 8.688e+03 2.094e-10
 47.58943     48.5 9.279e+03 3.153e-10
 47.61931     47.3 9.696e+03 4.811e-10
 47.63920     47.1 9.910e+03 5.874e-10
 47.65918     46.5 1.027e+04 6.495e-10
 47.67916     45.3 1.034e+04 6.289e-10
 47.69095     43.1 1.027e+04 5.879e-10
 47.71103     42.3 1.163e+04 9.493e-10
 47.74930     39.6 1.052e+04 6.415e-10
 47.78926     38.6 9.901e+03 4.891e-10
 47.82923     38.3 9.660e+03 3.889e-10
 47.86492     38.4 9.535e+03 3.454e-10
 47.88490     37.9 9.275e+03 2.749e-10
 47.90916     38.6 9.085e+03 2.325e-10
 47.94913     40.0 8.932e+03 2.172e-10
 47.98909     41.7 8.802e+03 2.043e-10
 48.02906     43.6 8.695e+03 1.903e-10
 48.05877     45.5 8.629e+03 1.777e-10
 48.07875     45.8 8.579e+03 1.715e-10
 48.10899     48.1 8.604e+03 1.706e-10
 48.14895     50.3 8.635e+03 1.716e-10
 48.18892     52.5 8.681e+03 1.754e-10
 48.22888     54.5 8.755e+03 1.834e-10
 48.25262     56.6 8.836e+03 1.997e-10
 48.27260     57.3 8.971e+03 2.132e-10
 48.30882     59.3 9.140e+03 2.558e-10
 48.34878     61.3 9.281e+03 3.043e-10
 48.38875     63.3 9.404e+03 3.454e-10
 48.42649     65.2 9.497e+03 3.584e-10
 48.44647     65.9 9.707e+03 4.321e-10
 48.46868     67.9 9.785e+03 4.449e-10
 48.50144     69.8 9.765e+03 4.235e-10
 48.52142     70.1 9.429e+03 3.163e-10
 48.54861     72.0 9.359e+03 2.780e-10
 48.58858     74.0 9.278e+03 2.397e-10
 48.62034     75.9 9.201e+03 2.059e-10
 48.64032     76.6 9.448e+03 2.731e-10
 48.66851     78.6 9.332e+03 2.261e-10
 48.70847     80.6 9.232e+03 1.900e-10
 48.74844     82.7 9.167e+03 1.694e-10
 48.78840     85.0 9.172e+03 1.618e-10
 48.81419     87.2 9.205e+03 1.655e-10
 48.83417     87.6 9.301e+03 1.734e-10
 48.86833     89.9 9.383e+03 1.810e-10
 48.90830     92.2 9.528e+03 2.062e-10
 48.94827     94.5 9.792e+03 2.567e-10
 48.98806     96.9 1.017e+04 3.414e-10
 49.02802     99.2 1.041e+04 3.695e-10
 49.05807    100.1 1.063e+04 4.833e-10
 49.07796    101.1 1.081e+04 5.920e-10
 49.09478    102.1 1.097e+04 6.703e-10
 49.10477    102.2 1.080e+04 6.023e-10
 49.11792    103.2 1.092e+04 6.529e-10
 49.13791    104.2 1.102e+04 6.761e-10
 49.15789    105.2 1.109e+04 6.852e-10
 49.17787    106.1 1.113e+04 6.885e-10
 49.19170    106.9 1.115e+04 6.880e-10
 49.20170    107.2 1.101e+04 6.468e-10
 49.21784    108.2 1.104e+04 6.570e-10
 49.23782    109.2 1.107e+04 6.643e-10
 49.25780    110.2 1.110e+04 6.688e-10
 49.27779    111.2 1.113e+04 6.768e-10
 49.28863    112.3 1.120e+04 6.906e-10
 49.29862    112.6 1.119e+04 7.025e-10
 49.31775    113.7 1.129e+04 7.340e-10
 49.33774    114.8 1.140e+04 7.761e-10
 49.35772    116.0 1.153e+04 8.374e-10
 49.37556    117.1 1.169e+04 9.211e-10
 49.38556    117.2 1.176e+04 9.620e-10
 49.39768    118.3 1.193e+04 1.063e-09
 49.41767    119.5 1.212e+04 1.186e-09
 49.43765    120.5 1.234e+04 1.332e-09
 49.45763    121.5 1.256e+04 1.483e-09
 49.47249    122.4 1.274e+04 1.610e-09
 49.48248    122.3 1.274e+04 1.611e-09
 49.49760    123.2 1.282e+04 1.673e-09
 49.51758    124.0 1.290e+04 1.727e-09
 49.53291    124.8 1.297e+04 1.769e-09
 49.54290    124.3 1.249e+04 1.420e-09
 49.55755    125.1 1.257e+04 1.469e-09
 49.56941    126.0 1.259e+04 1.474e-09
 49.57941    125.7 1.222e+04 1.290e-09
 49.59751    126.7 1.210e+04 1.217e-09
 49.61750    127.8 1.194e+04 1.113e-09
 49.63748    128.9 1.178e+04 9.982e-10
 49.65635    130.1 1.161e+04 8.908e-10
 49.66634    129.8 1.118e+04 6.832e-10
 49.67744    131.0 1.105e+04 6.143e-10
 49.69743    132.2 1.095e+04 5.872e-10
 49.71741    133.4 1.091e+04 5.870e-10
 49.73739    134.7 1.089e+04 5.963e-10
 49.75327    136.2 1.089e+04 6.288e-10
 49.76327    135.8 1.074e+04 5.764e-10
 49.77736    137.5 1.087e+04 6.676e-10
 49.79734    139.3 1.104e+04 7.600e-10
 49.81732    141.3 1.121e+04 8.281e-10
 49.83731    143.3 1.141e+04 8.411e-10
 49.85020    144.9 1.145e+04 8.361e-10
 49.86019    144.7 1.155e+04 8.960e-10
 49.87727    146.0 1.159e+04 8.731e-10
 49.89725    147.1 1.163e+04 8.248e-10
 49.91724    147.8 1.169e+04 7.817e-10
 49.93713    147.6 1.175e+04 7.688e-10
 49.95712    145.6 1.190e+04 8.275e-10
 49.97719    143.6 1.232e+04 8.826e-10
 49.99717    140.7 1.290e+04 1.044e-09
 50.01715    135.5 1.421e+04 1.425e-09
 50.03209    130.1 1.524e+04 1.943e-09
 50.03896    127.5 1.524e+04 2.224e-09
 50.04395    126.5 1.565e+04 2.389e-09
 50.04864    123.8 1.571e+04 2.674e-09
 50.05363    123.9 1.554e+04 2.723e-09
 50.06202    121.8 1.568e+04 2.931e-09
 50.07201    119.7 1.587e+04 3.096e-09
 50.08200    116.6 1.803e+04 3.314e-09
 50.08742    106.1 3.051e+04 4.602e-09
 50.09242     95.0 4.098e+04 9.493e-09
 50.10198     75.3 3.804e+04 7.512e-08
 50.11197     59.8 2.780e+04 5.089e-07
 50.12196     50.2 2.638e+04 7.188e-07
 50.13089     44.4 3.050e+04 3.613e-07
 50.13588     41.0 3.671e+04 1.433e-07
 50.14195     33.7 4.296e+04 3.333e-08
 50.15194     25.0 3.038e+04 1.661e-08
 50.16193     20.2 1.974e+04 1.160e-08
 50.17192     23.3 1.991e+04 9.505e-09
 50.17935     21.2 1.654e+04 7.667e-09
 50.18434     20.4 1.517e+04 7.493e-09
 50.19695     21.8 1.763e+04 6.047e-09
 50.21698     22.3 1.696e+04 4.612e-09
 50.22791     22.5 1.606e+04 3.649e-09
 50.23790     24.1 1.626e+04 3.833e-09
 50.25695     23.9 1.557e+04 3.091e-09
 50.27693     23.9 1.508e+04 2.663e-09
 50.29691     24.3 1.467e+04 2.402e-09
 50.31484     25.0 1.441e+04 2.221e-09
 50.32483     25.8 1.434e+04 2.019e-09
 50.33688     26.3 1.398e+04 1.831e-09
 50.35686     26.9 1.345e+04 1.621e-09
 50.37684     27.5 1.284e+04 1.449e-09
 50.39683     28.1 1.226e+04 1.328e-09
 50.41177     29.0 1.181e+04 1.272e-09
 50.42176     29.6 1.177e+04 1.217e-09
 50.43679     30.8 1.163e+04 1.224e-09
 50.45677     31.8 1.162e+04 1.274e-09
 50.47676     32.9 1.166e+04 1.337e-09
 50.49674     33.7 1.194e+04 1.490e-09
 50.50869     34.2 1.252e+04 1.765e-09
 50.51869     34.8 1.210e+04 1.536e-09
 50.53671     35.2 1.271e+04 1.830e-09
 50.55457     35.3 1.332e+04 2.240e-09
 50.56457     33.4 1.340e+04 2.323e-09
 50.57667     33.9 1.347e+04 2.714e-09
 50.59563     34.6 1.350e+04 2.909e-09
 50.60562     35.4 1.303e+04 2.624e-09
 50.61664     36.3 1.310e+04 2.714e-09
 50.63662     37.3 1.312e+04 2.641e-09
 50.65660     38.2 1.332e+04 2.378e-09
 50.67658     38.6 1.351e+04 1.975e-09
 50.69255     38.6 1.337e+04 1.559e-09
 50.70254     39.8 1.324e+04 1.757e-09
 50.71655     39.4 1.295e+04 1.395e-09
 50.73653     38.8 1.231e+04 1.137e-09
 50.75652     38.3 1.182e+04 1.050e-09
 50.77650     38.4 1.183e+04 1.082e-09
 50.78948     38.4 1.212e+04 1.221e-09
 50.79947     39.3 1.227e+04 1.409e-09
 50.81646     39.2 1.290e+04 1.739e-09
 50.83645     38.6 1.392e+04 2.314e-09
 50.85643     37.7 1.485e+04 3.250e-09
 50.87641     37.3 1.526e+04 4.479e-09
 50.89640     39.4 1.580e+04 5.852e-09
 50.91638     39.6 1.560e+04 6.047e-09
 50.93636     40.1 1.537e+04 5.614e-09
 50.95634     40.5 1.503e+04 4.601e-09
 50.97334     40.8 1.461e+04 3.501e-09
 50.98333     41.2 1.461e+04 3.545e-09
 50.99631     41.2 1.415e+04 2.703e-09
 51.01629     41.2 1.361e+04 2.041e-09
 51.03628     41.1 1.312e+04 1.542e-09
 51.05626     41.0 1.252e+04 1.163e-09
 51.07026     41.0 1.190e+04 9.127e-10
 51.07442     41.7 1.269e+04 1.206e-09
 51.08040     40.7 1.151e+04 7.665e-10
 51.09622     41.0 1.112e+04 6.845e-10
 51.11621     41.5 1.094e+04 6.505e-10
 51.13619     42.3 1.084e+04 6.302e-10
 51.15617     43.2 1.079e+04 6.133e-10
 51.16719     44.3 1.071e+04 5.786e-10
 51.17718     44.0 1.096e+04 6.862e-10
 51.19614     45.1 1.091e+04 6.396e-10
 51.21612     46.1 1.078e+04 5.762e-10
 51.23610     47.3 1.067e+04 5.150e-10
 51.25412     48.5 1.058e+04 4.461e-10
 51.26411     47.6 1.086e+04 5.270e-10
 51.27607     48.5 1.087e+04 4.822e-10
 51.29605     49.8 1.082e+04 4.331e-10
 51.31604     50.1 1.086e+04 4.291e-10
 51.33602     51.7 1.058e+04 3.614e-10
 51.35105     52.0 1.058e+04 3.540e-10
 51.36104     51.5 1.072e+04 4.106e-10
 51.38607     53.6 1.031e+04 3.188e-10
 51.42614     55.5 1.014e+04 2.968e-10
 51.44817     57.8 9.978e+03 2.731e-10
 51.46815     55.9 1.023e+04 3.561e-10
 51.50607     58.3 1.003e+04 3.091e-10
 51.54603     60.8 9.841e+03 2.677e-10
 51.57644     63.4 9.709e+03 2.375e-10
 51.59642     63.5 9.644e+03 2.232e-10
 51.62204     65.9 9.547e+03 1.981e-10
 51.64202     64.1 9.608e+03 2.499e-10
 51.66593     66.6 9.576e+03 2.332e-10
 51.70590     69.2 9.586e+03 2.206e-10
 51.74586     71.6 9.645e+03 2.161e-10
 51.78583     74.0 9.744e+03 2.196e-10
 51.81589     76.2 9.956e+03 2.396e-10
 51.83577     74.9 1.065e+04 4.298e-10
 51.85557     75.7 1.088e+04 5.389e-10
 51.87555     76.6 1.115e+04 6.924e-10
 51.89554     77.5 1.146e+04 8.977e-10
 51.91262     78.4 1.176e+04 1.143e-09
 51.92261     77.9 1.230e+04 1.561e-09
 51.93550     78.9 1.255e+04 1.687e-09
 51.95549     79.8 1.279e+04 1.765e-09
 51.97547     80.6 1.295e+04 1.818e-09
 51.99545     81.2 1.312e+04 1.815e-09
 52.00954     81.5 1.322e+04 1.772e-09
 52.01953     78.7 1.321e+04 1.542e-09
 52.03542     78.6 1.310e+04 1.509e-09
 52.05540     78.7 1.293e+04 1.515e-09
 52.07538     79.0 1.283e+04 1.561e-09
 52.09207     79.6 1.283e+04 1.670e-09
 52.10207     78.4 1.274e+04 1.657e-09
 52.10647     79.2 1.286e+04 1.779e-09
 52.11646     78.1 1.272e+04 1.667e-09
 52.13533     79.1 1.283e+04 1.679e-09
 52.15531     80.1 1.299e+04 1.670e-09
 52.17530     80.5 1.326e+04 1.671e-09
 52.19340     79.9 1.356e+04 1.686e-09
 52.20339     77.7 1.298e+04 1.308e-09
 52.21526     76.4 1.355e+04 1.467e-09
 52.23524     74.8 1.414e+04 1.872e-09
 52.25523     73.6 1.472e+04 2.555e-09
 52.27521     72.6 1.530e+04 3.523e-09
 52.29033     71.7 1.617e+04 4.776e-09
 52.30032     69.0 1.707e+04 5.852e-09
 52.31518     67.5 1.819e+04 8.746e-09
 52.33516     66.4 1.848e+04 1.125e-08
 52.35514     65.4 1.828e+04 1.097e-08
 52.37512     64.6 1.773e+04 9.140e-09
 52.38725     63.2 1.715e+04 6.116e-09
 52.39724     63.3 1.744e+04 7.674e-09
 52.41509     60.3 1.744e+04 4.350e-09
 52.43507     52.4 1.799e+04 4.101e-09
 52.45506     41.8 1.852e+04 5.089e-09
 52.47419     33.5 1.839e+04 7.403e-09
 52.48418     35.0 1.835e+04 6.306e-09
 52.49502     28.5 1.798e+04 6.287e-09
 52.51500     20.9 1.748e+04 5.404e-09
 52.53499      9.4 1.747e+04 3.442e-09
 52.55497     -2.9 1.509e+04 1.585e-09
 52.57111    -14.3 1.237e+04 1.005e-09
 52.58110    -13.4 1.332e+04 1.062e-09
 52.59494    -21.0 1.254e+04 9.009e-10
 52.60790    -24.9 1.242e+04 9.556e-10
 52.61790    -18.2 1.158e+04 7.629e-10
 52.63490    -21.4 1.174e+04 8.080e-10
 52.65488    -23.4 1.150e+04 8.344e-10
 52.66804    -23.7 1.140e+04 8.770e-10
 52.67803    -23.5 1.110e+04 7.571e-10
 52.69485    -22.8 1.088e+04 7.700e-10
 52.71483    -21.8 1.075e+04 7.397e-10
 52.73482    -20.8 1.053e+04 6.697e-10
 52.75480    -19.7 1.037e+04 6.090e-10
 52.76496    -18.7 1.014e+04 5.485e-10
 52.77495    -18.7 1.019e+04 5.425e-10
 52.79476    -17.4 1.015e+04 5.120e-10
 52.81475    -16.0 1.016e+04 5.018e-10
 52.83473    -14.5 1.027e+04 5.077e-10
 52.85190    -12.8 1.036e+04 5.348e-10
 52.86189    -13.3 1.239e+04 6.351e-10
 52.87469    -11.9 1.218e+04 6.673e-10
 52.89468    -10.6 1.216e+04 7.209e-10
 52.91466     -9.2 1.241e+04 8.287e-10
 52.93464     -8.0 1.285e+04 9.823e-10
 52.94882     -6.9 1.336e+04 1.173e-09
 52.95881     -8.3 1.698e+04 2.306e-09
 52.97461     -6.9 1.743e+04 2.877e-09
 52.99459     -5.4 1.806e+04 3.646e-09
 53.01457     -3.9 1.871e+04 4.530e-09
 53.03456     -2.5 1.943e+04 5.446e-09
 53.04575     -0.8 1.995e+04 6.313e-09
 53.05574     -1.0 1.986e+04 8.429e-09
 53.07452      0.7 1.962e+04 8.598e-09
 53.09451      2.1 1.920e+04 8.563e-09
 53.11374      3.3 1.864e+04 8.237e-09
 53.12373      5.7 1.902e+04 5.238e-09
 53.13268      6.7 1.924e+04 5.438e-09
 53.14267      6.3 1.872e+04 6.322e-09
 53.15445      7.0 1.829e+04 6.305e-09
 53.17444      7.8 1.779e+04 6.393e-09
 53.19442      8.6 1.734e+04 6.625e-09
 53.21440      9.4 1.689e+04 7.175e-09
 53.22961     10.6 1.651e+04 7.759e-09
 53.23960     10.8 1.670e+04 7.642e-09
 53.25437     12.2 1.655e+04 8.017e-09
 53.27435     14.0 1.648e+04 8.186e-09
 53.29433     15.8 1.673e+04 8.074e-09
 53.31432     17.8 1.677e+04 7.420e-09
 53.32653     19.2 1.696e+04 6.538e-09
 53.33652     19.2 1.692e+04 6.071e-09
 53.35428     19.7 1.742e+04 5.615e-09
 53.37427     20.3 1.789e+04 5.249e-09
 53.39425     21.1 1.852e+04 5.192e-09
 53.41347     22.4 1.900e+04 4.861e-09
 53.42346     22.6 1.829e+04 4.074e-09
 53.43421     23.7 1.792e+04 3.364e-09
 53.45420     24.1 1.739e+04 2.661e-09
 53.47418     24.0 1.662e+04 2.129e-09
 53.49416     24.4 1.550e+04 1.638e-09
 53.51039     25.0 1.468e+04 1.355e-09
 53.52038     25.8 1.420e+04 1.591e-09
 53.53413     27.0 1.385e+04 1.407e-09
 53.55411     28.1 1.344e+04 1.257e-09
 53.57409     29.4 1.306e+04 1.138e-09
 53.59408     30.8 1.300e+04 1.079e-09
 53.60732     32.0 1.302e+04 1.098e-09
 53.61731     33.0 1.322e+04 1.284e-09
 53.62957     33.8 1.351e+04 1.320e-09
 53.63957     33.2 1.521e+04 2.235e-09
 53.65402     34.4 1.442e+04 2.042e-09
 53.67401     35.9 1.388e+04 2.048e-09
 53.69399     37.5 1.367e+04 2.131e-09
 53.70424     39.2 1.344e+04 2.282e-09
 53.71423     39.4 1.412e+04 2.465e-09
 53.73396     41.3 1.391e+04 2.614e-09
 53.75394     43.2 1.378e+04 2.761e-09
 53.77392     45.1 1.369e+04 2.937e-09
 53.79118     46.9 1.374e+04 3.165e-09
 53.80117     46.9 1.421e+04 3.359e-09
 53.81389     48.6 1.436e+04 3.664e-09
 53.83387     50.2 1.481e+04 4.136e-09
 53.85385     51.6 1.530e+04 4.616e-09
 53.87384     52.8 1.574e+04 5.019e-09
 53.88810     54.1 1.646e+04 5.665e-09
 53.89809     53.5 1.778e+04 6.618e-09
 53.91380     54.7 1.871e+04 7.581e-09
 53.93378     55.2 1.991e+04 9.068e-09
 53.95377     55.5 2.112e+04 1.192e-08
 53.96871     55.8 2.120e+04 1.311e-08
 53.97865     55.8 2.160e+04 1.506e-08
 53.98493     55.6 2.220e+04 1.813e-08
 53.98992     55.9 2.195e+04 1.510e-08
 53.99863     55.9 2.248e+04 1.823e-08
 54.00862     55.9 2.308e+04 2.148e-08
 54.01861     55.9 2.359e+04 2.606e-08
 54.02840     56.3 2.389e+04 3.176e-08
 54.03339     56.5 2.417e+04 2.165e-08
 54.03860     56.8 2.465e+04 2.380e-08
 54.04859     56.8 2.521e+04 2.471e-08
 54.05858     56.9 2.568e+04 2.441e-08
 54.06857     56.8 2.590e+04 2.366e-08
 54.07686     56.7 2.602e+04 2.164e-08
 54.08185     55.9 2.505e+04 1.565e-08
 54.08855     55.7 2.444e+04 1.472e-08
 54.09854     55.5 2.384e+04 1.420e-08
 54.11358     54.5 2.141e+04 1.351e-08
 54.13361     54.1 1.976e+04 1.189e-08
 54.14540     54.1 1.809e+04 9.814e-09
 54.15540     54.4 1.839e+04 6.895e-09
 54.16889     54.4 1.664e+04 6.403e-09
 54.17888     54.5 1.619e+04 5.924e-09
 54.19356     55.0 1.547e+04 5.915e-09
 54.21354     56.0 1.509e+04 5.806e-09
 54.23353     57.2 1.470e+04 5.397e-09
 54.25351     58.8 1.433e+04 4.583e-09
 54.26581     60.2 1.408e+04 3.668e-09
 54.27580     60.4 1.419e+04 3.685e-09
 54.29348     61.3 1.377e+04 2.852e-09
 54.31346     61.9 1.330e+04 2.185e-09
 54.33344     62.4 1.283e+04 1.699e-09
 54.35275     62.7 1.234e+04 1.359e-09
 54.36274     63.1 1.224e+04 1.423e-09
 54.37341     63.8 1.191e+04 1.217e-09
 54.39339     64.7 1.167e+04 1.068e-09
 54.41337     65.6 1.153e+04 9.669e-10
 54.43335     66.4 1.137e+04 9.056e-10
 54.44967     67.2 1.126e+04 8.546e-10
 54.45966     67.2 1.124e+04 7.829e-10
 54.47332     67.8 1.105e+04 7.276e-10
 54.49330     68.3 1.086e+04 6.804e-10
 54.51329     68.9 1.069e+04 6.311e-10
 54.53327     69.5 1.055e+04 5.854e-10
 54.54660     70.0 1.045e+04 5.510e-10
 54.55659     69.7 1.037e+04 5.153e-10
 54.57323     70.3 1.038e+04 5.159e-10
 54.59322     70.8 1.044e+04 5.229e-10
 54.61320     71.2 1.055e+04 5.494e-10
 54.63318     71.5 1.077e+04 6.081e-10
 54.64352     71.4 1.110e+04 7.189e-10
 54.65159     70.2 1.166e+04 8.583e-10
 54.66123     70.9 1.122e+04 7.841e-10
 54.67315     70.5 1.190e+04 1.070e-09
 54.69313     69.9 1.267e+04 1.541e-09
 54.71311     69.6 1.336e+04 2.237e-09
 54.73046     69.8 1.391e+04 3.139e-09
 54.74045     69.9 1.389e+04 3.642e-09
 54.75308     70.8 1.401e+04 3.984e-09
 54.77306     71.5 1.397e+04 3.963e-09
 54.79305     72.2 1.373e+04 3.688e-09
 54.81303     73.0 1.332e+04 3.086e-09
 54.82738     73.5 1.287e+04 2.369e-09
 54.83737     72.7 1.225e+04 1.233e-09
 54.86308     71.9 1.145e+04 6.655e-10
 54.90315     70.6 1.062e+04 4.405e-10
 54.94311     70.0 1.038e+04 4.333e-10
 54.97299     69.3 1.028e+04 4.679e-10
 54.99287     69.2 1.022e+04 5.001e-10
 55.01124     69.2 1.030e+04 5.666e-10
 55.02123     69.7 1.003e+04 5.450e-10
 55.03284     70.0 1.025e+04 6.297e-10
 55.05282     70.3 1.046e+04 7.261e-10
 55.07281     70.8 1.065e+04 8.227e-10
 55.10288     71.7 1.085e+04 8.782e-10
 55.14294     72.6 1.090e+04 8.779e-10
 55.18291     73.5 1.085e+04 8.175e-10
 55.20529     74.8 1.062e+04 6.888e-10
 55.22527     75.3 1.079e+04 8.365e-10
 55.26284     76.8 1.051e+04 6.849e-10
 55.30280     78.5 1.020e+04 5.471e-10
 55.34277     80.3 9.938e+03 4.587e-10
 55.37915     82.4 9.854e+03 4.375e-10
 55.39914     82.6 9.959e+03 4.573e-10
 55.42270     84.8 1.000e+04 4.551e-10
 55.46267     86.4 1.004e+04 4.681e-10
 55.48597     88.2 1.013e+04 5.618e-10
 55.49587     88.2 1.026e+04 5.773e-10
 55.51243     89.4 1.043e+04 6.594e-10
 55.53241     90.6 1.066e+04 7.620e-10
 55.55239     91.7 1.095e+04 8.888e-10
 55.57238     92.7 1.126e+04 1.065e-09
 55.58280     93.3 1.187e+04 1.359e-09
 55.59279     92.7 1.267e+04 1.522e-09
 55.61234     93.0 1.424e+04 2.395e-09
 55.62622     92.9 1.507e+04 3.100e-09
 55.63117     92.7 1.510e+04 3.122e-09
 55.63722     92.0 1.635e+04 3.993e-09
 55.64721     90.0 1.899e+04 6.033e-09
 55.65720     87.5 2.174e+04 1.034e-08
 55.66720     85.0 2.313e+04 1.837e-08
 55.67463     83.0 2.337e+04 3.363e-08
 55.67963     82.8 2.355e+04 4.118e-08
 55.68281     81.0 2.285e+04 9.475e-08
 55.68780     82.2 2.176e+04 1.740e-07
 55.69717     81.1 2.141e+04 3.865e-07
 55.70716     78.7 2.133e+04 6.404e-07
 55.71715     75.7 2.180e+04 6.669e-07
 55.72310     72.1 2.257e+04 5.733e-07
 55.72809     72.2 2.269e+04 3.908e-07
 55.73714     68.5 2.629e+04 2.064e-07
 55.74713     63.9 3.056e+04 8.575e-08
 55.75712     58.3 3.134e+04 3.626e-08
 55.76656     52.7 2.629e+04 1.984e-08
 55.77156     52.0 2.637e+04 1.740e-08
 55.77710     47.9 2.142e+04 1.179e-08
 55.79214     44.4 1.675e+04 7.766e-09
 55.81217     43.9 1.533e+04 5.666e-09
 55.83215     44.5 1.496e+04 4.679e-09
 55.85214     45.5 1.479e+04 3.940e-09
 55.86359     46.3 1.448e+04 3.235e-09
 55.87358     47.4 1.514e+04 4.792e-09
 55.89210     48.3 1.493e+04 4.192e-09
 55.91208     49.2 1.453e+04 3.530e-09
 55.93207     50.1 1.398e+04 2.934e-09
 55.95052     51.1 1.331e+04 2.434e-09
 55.96051     52.3 1.481e+04 4.088e-09
 55.97203     53.3 1.437e+04 3.599e-09
 55.99201     54.3 1.375e+04 3.170e-09
 56.01200     55.3 1.319e+04 2.877e-09
 56.03198     56.7 1.304e+04 2.835e-09
 56.04744     58.1 1.308e+04 2.873e-09
 56.05744     58.7 1.495e+04 4.710e-09
 56.07195     60.3 1.537e+04 4.962e-09
 56.08688     61.2 1.502e+04 4.719e-09
 56.09581     61.6 1.479e+04 4.500e-09
 56.10081     61.9 1.514e+04 5.124e-09
 56.10682     62.3 1.524e+04 5.255e-09
 56.11681     62.7 1.567e+04 5.560e-09
 56.12680     63.2 1.647e+04 5.992e-09
 56.13679     63.8 1.728e+04 6.759e-09
 56.14427     64.2 1.835e+04 7.808e-09
 56.14927     63.8 1.996e+04 1.029e-08
 56.15678     63.7 2.118e+04 1.195e-08
 56.16677     63.5 2.220e+04 1.397e-08
 56.17676     63.2 2.295e+04 1.587e-08
 56.18675     63.1 2.343e+04 1.759e-08
 56.19273     63.1 2.365e+04 1.966e-08
 56.19463     62.9 2.439e+04 2.005e-08
 56.19864     65.0 2.167e+04 1.587e-08
 56.20673     64.9 2.236e+04 1.841e-08
 56.21672     64.9 2.300e+04 2.188e-08
 56.22672     64.5 2.380e+04 2.638e-08
 56.23620     64.1 2.446e+04 2.945e-08
 56.24120     63.9 2.485e+04 2.723e-08
 56.24670     63.5 2.529e+04 2.848e-08
 56.25669     63.1 2.598e+04 2.595e-08
 56.26668     62.3 2.657e+04 1.943e-08
 56.27667     61.7 2.610e+04 1.495e-08
 56.28466     60.5 2.521e+04 1.074e-08
 56.28966     59.4 2.276e+04 7.682e-09
 56.29666     58.2 2.067e+04 6.204e-09
 56.30665     56.1 1.826e+04 4.345e-09
 56.31664     54.6 1.645e+04 3.600e-09
 56.32663     52.7 1.498e+04 2.693e-09
 56.33313     51.7 1.430e+04 2.392e-09
 56.33817     53.9 1.654e+04 2.452e-09
 56.35171     51.5 1.488e+04 1.746e-09
 56.37169     49.7 1.450e+04 1.345e-09
 56.39167     48.1 1.300e+04 1.118e-09
 56.41165     46.7 1.367e+04 9.186e-10
 56.42515     46.5 1.200e+04 8.279e-10
 56.43515     46.5 1.020e+04 7.082e-10
 56.45162     46.8 9.999e+03 6.286e-10
 56.47160     47.7 9.812e+03 5.570e-10
 56.49159     48.8 9.631e+03 5.007e-10
 56.51157     50.0 9.528e+03 4.588e-10
 56.52208     51.2 9.444e+03 4.242e-10
 56.53207     51.4 9.374e+03 4.025e-10
 56.55153     52.2 9.312e+03 3.708e-10
 56.57152     52.7 9.352e+03 3.678e-10
 56.59150     53.0 9.567e+03 3.910e-10
 56.60901     53.3 1.012e+04 4.760e-10
 56.61901     52.9 1.004e+04 4.862e-10
 56.63146     52.9 1.060e+04 6.742e-10
 56.65145     53.1 1.127e+04 9.292e-10
 56.67143     53.5 1.195e+04 1.242e-09
 56.69141     53.8 1.248e+04 1.618e-09
 56.70457     54.2 1.287e+04 1.979e-09
 56.70906     54.4 1.252e+04 1.799e-09
 56.71588     54.6 1.243e+04 1.689e-09
 56.72633     54.8 1.289e+04 2.113e-09
 56.73628     55.0 1.304e+04 2.223e-09
 56.74627     55.6 1.326e+04 2.439e-09
 56.75430     55.9 1.336e+04 2.580e-09
 56.75930     55.8 1.334e+04 2.563e-09
 56.76625     56.5 1.355e+04 2.687e-09
 56.77624     56.8 1.366e+04 2.752e-09
 56.78623     57.4 1.376e+04 2.716e-09
 56.79623     57.7 1.377e+04 2.706e-09
 56.80277     58.1 1.383e+04 2.593e-09
 56.81281     58.2 1.369e+04 2.368e-09
 56.82625     57.3 1.347e+04 1.940e-09
 56.83619     56.9 1.323e+04 1.795e-09
 56.84618     55.8 1.302e+04 1.573e-09
 56.85123     55.3 1.263e+04 1.439e-09
 56.85623     55.1 1.271e+04 1.424e-09
 56.86617     52.9 1.233e+04 1.263e-09
 56.87616     51.7 1.258e+04 1.156e-09
 56.88615     47.0 1.441e+04 1.183e-09
 56.89470     44.0 1.458e+04 1.203e-09
 56.89969     43.2 1.232e+04 9.679e-10
 56.90613     33.2 1.522e+04 1.586e-09
 56.91612     30.6 1.602e+04 1.894e-09
 56.92611     20.2 1.881e+04 5.357e-09
 56.93611     19.6 1.893e+04 5.864e-09
 56.95114     14.7 1.889e+04 8.853e-09
 56.97117     14.3 1.858e+04 7.649e-09
 56.98672     13.3 1.826e+04 4.617e-09
 56.99672     16.0 1.636e+04 4.312e-09
 57.01114     14.8 1.624e+04 2.088e-09
 57.03112     11.6 1.412e+04 7.620e-10
 57.05110     10.6 1.226e+04 4.006e-10
 57.07109      9.7 1.105e+04 2.922e-10
 57.08375      8.2 1.002e+04 2.590e-10
 57.10383     10.2 9.459e+03 1.685e-10
 57.14122     11.5 8.785e+03 1.629e-10
 57.18119     13.6 8.734e+03 1.878e-10
 57.22115     16.3 8.931e+03 2.452e-10
 57.25771     18.8 9.066e+03 2.559e-10
 57.27770     19.5 9.214e+03 3.047e-10
 57.30108     22.0 9.154e+03 2.779e-10
 57.34105     24.1 9.021e+03 2.252e-10
 57.38102     25.9 8.833e+03 1.794e-10
 57.42098     27.9 8.606e+03 1.430e-10
 57.45156     30.1 8.475e+03 1.151e-10
 57.47155     30.3 8.630e+03 1.519e-10
 57.50091     32.4 8.557e+03 1.292e-10
 57.54088     34.5 8.563e+03 1.260e-10
 57.58084     36.2 8.640e+03 1.326e-10
 57.62081     37.5 8.882e+03 1.643e-10
 57.64541     38.7 9.327e+03 2.589e-10
 57.66540     38.7 9.558e+03 3.274e-10
 57.70074     40.1 1.010e+04 4.869e-10
 57.72644     41.5 1.044e+04 5.796e-10
 57.74642     41.6 1.042e+04 5.703e-10
 57.78067     42.6 1.040e+04 5.558e-10
 57.81928     43.8 1.016e+04 4.682e-10
 57.83926     43.4 9.990e+03 4.010e-10
 57.86060     44.4 9.622e+03 2.944e-10
 57.90057     45.2 9.307e+03 2.048e-10
 57.94053     45.6 9.137e+03 1.632e-10
 57.98050     46.0 9.173e+03 1.685e-10
 58.01313     46.0 9.379e+03 2.100e-10
 58.03312     46.0 9.367e+03 2.225e-10
 58.06043     46.3 9.562e+03 2.777e-10
 58.10040     46.8 9.716e+03 3.271e-10
 58.14036     47.2 9.731e+03 3.182e-10
 58.18033     47.0 9.746e+03 2.849e-10
 58.20698     45.9 9.756e+03 2.614e-10
 58.21688     46.3 9.665e+03 2.635e-10
 58.23009     45.9 9.632e+03 2.581e-10
 58.24207     45.1 9.734e+03 2.756e-10
 58.25206     45.3 9.950e+03 3.191e-10
 58.27006     43.7 1.045e+04 4.334e-10
 58.29004     41.4 1.136e+04 7.546e-10
 58.30371     38.5 1.312e+04 1.615e-09
 58.31370     38.3 1.377e+04 2.158e-09
 58.33000     36.0 1.546e+04 4.553e-09
 58.34999     34.4 1.701e+04 8.001e-09
 58.36997     32.5 1.807e+04 9.640e-09
 58.38995     30.6 1.792e+04 8.670e-09
 58.40064     28.7 1.713e+04 6.197e-09
 58.41063     29.2 1.784e+04 7.996e-09
 58.42992     25.8 1.658e+04 4.571e-09
 58.44990     22.2 1.509e+04 2.631e-09
 58.46988     19.3 1.370e+04 1.782e-09
 58.48757     17.5 1.278e+04 1.424e-09
 58.49756     16.4 1.280e+04 1.431e-09
 58.50985     16.3 1.220e+04 1.235e-09
 58.52983     16.1 1.199e+04 1.097e-09
 58.54982     16.1 1.184e+04 1.034e-09
 58.57460     15.9 1.205e+04 1.147e-09
 58.59468     15.5 1.152e+04 9.400e-10
 58.61995     15.8 1.127e+04 8.877e-10
 58.65992     16.6 1.131e+04 9.153e-10
 58.69988     17.6 1.132e+04 9.360e-10
 58.73812     18.8 1.146e+04 9.357e-10
 58.75810     17.6 1.096e+04 7.876e-10
 58.76855     19.0 1.091e+04 6.887e-10
 58.78854     20.7 1.044e+04 5.830e-10
 58.81978     22.6 1.049e+04 5.493e-10
 58.85974     24.8 1.055e+04 5.463e-10
 58.89971     27.1 1.064e+04 5.519e-10
 58.93968     30.0 1.088e+04 6.121e-10
 58.96231     33.6 1.128e+04 7.601e-10
 58.98229     35.9 1.121e+04 6.806e-10
 59.00952     38.9 1.170e+04 8.455e-10
 59.02940     39.4 1.303e+04 9.107e-10
 59.04914     31.4 3.175e+04 1.145e-09
 59.05913     39.4 1.715e+04 1.007e-09
 59.06937     32.1 3.585e+04 1.359e-09
 59.08935     26.7 4.100e+04 3.053e-09
 59.10933     22.2 3.337e+04 7.835e-09
 59.12932     17.2 2.446e+04 1.593e-08
 59.14426     15.5 2.066e+04 1.973e-08
 59.15096     16.0 1.967e+04 1.710e-08
 59.15601     17.9 2.184e+04 1.641e-08
 59.16424     16.8 1.809e+04 1.671e-08
 59.17418     16.3 1.849e+04 1.212e-08
 59.18417     15.5 2.202e+04 5.650e-09
 59.19416     13.5 2.526e+04 2.683e-09
 59.20920     10.3 2.965e+04 1.241e-09
 59.22923     -9.4 1.894e+04 2.261e-10
 59.24299    -19.2 9.347e+03 1.820e-10
 59.25298    -17.5 9.948e+03 1.959e-10
 59.26374    -20.7 9.324e+03 2.107e-10
 59.27373    -18.0 9.072e+03 2.033e-10
 59.28918    -24.6 1.099e+04 2.533e-10
 59.30916    -38.5 1.963e+04 8.416e-10
 59.32915    -49.4 2.444e+04 3.848e-09
 59.33987    -52.2 2.453e+04 7.465e-09
 59.34482    -54.1 2.440e+04 1.062e-08
 59.35403    -58.4 2.663e+04 2.386e-08
 59.36402    -63.1 2.650e+04 7.665e-08
 59.37401    -68.6 2.543e+04 2.477e-07
 59.38329    -75.4 2.496e+04 5.442e-07
 59.38828    -79.3 2.698e+04 4.698e-07
 59.39399    -90.1 2.794e+04 4.429e-07
 59.40398   -102.7 3.240e+04 1.309e-07
 59.41397   -117.0 3.210e+04 1.813e-08
 59.42397   -128.3 2.169e+04 5.432e-09
 59.43175   -132.8 1.748e+04 2.998e-09
 59.43675   -133.3 1.740e+04 2.975e-09
 59.44395   -136.2 1.645e+04 1.835e-09
 59.45394   -139.1 1.497e+04 1.319e-09
 59.46898   -142.4 1.348e+04 9.935e-10
 59.48901   -146.1 1.147e+04 7.675e-10
 59.50899   -147.0 1.122e+04 7.461e-10
 59.52378   -147.5 1.139e+04 8.119e-10
 59.53377   -148.3 1.166e+04 9.448e-10
 59.54896   -148.7 1.186e+04 1.042e-09
 59.56894   -149.1 1.196e+04 1.096e-09
 59.58892   -149.6 1.203e+04 1.120e-09
 59.60891   -150.1 1.204e+04 1.125e-09
 59.62070   -150.6 1.202e+04 1.115e-09
 59.63069   -151.3 1.218e+04 1.167e-09
 59.64887   -151.7 1.197e+04 1.054e-09
 59.66885   -152.1 1.170e+04 9.237e-10
 59.68884   -152.5 1.141e+04 7.941e-10
 59.70764   -152.7 1.110e+04 6.757e-10
 59.71763   -153.5 1.114e+04 6.854e-10
 59.72880   -153.6 1.086e+04 5.929e-10
 59.74878   -153.7 1.062e+04 5.220e-10
 59.76877   -153.6 1.044e+04 4.719e-10
 59.77957   -153.3 1.032e+04 4.385e-10
 59.78956   -153.2 1.029e+04 4.312e-10
 59.80456   -152.7 1.025e+04 4.173e-10
 59.81455   -153.1 1.053e+04 4.850e-10
 59.82872   -152.6 1.053e+04 4.844e-10
 59.84870   -152.0 1.069e+04 4.993e-10
 59.86868   -151.4 1.095e+04 5.533e-10
 59.88866   -150.8 1.123e+04 6.321e-10
 59.90149   -150.2 1.150e+04 7.306e-10
 59.91148   -150.9 1.191e+04 9.435e-10
 59.92863   -150.1 1.214e+04 1.089e-09
 59.94861   -149.1 1.240e+04 1.235e-09
 59.96860   -148.1 1.264e+04 1.399e-09
 59.98842   -147.0 1.274e+04 1.558e-09
 59.99841   -147.1 1.330e+04 2.073e-09
 60.00856   -145.7 1.340e+04 2.134e-09
 60.02854   -144.2 1.343e+04 2.110e-09
 60.04853   -142.8 1.342e+04 1.991e-09
 60.06851   -141.4 1.334e+04 1.796e-09
 60.08535   -140.1 1.315e+04 1.548e-09
 60.09534   -139.9 1.401e+04 1.846e-09
 60.10848   -138.7 1.369e+04 1.467e-09
 60.12846   -137.9 1.327e+04 1.125e-09
 60.14844   -137.4 1.276e+04 8.598e-10
 60.16842   -137.0 1.220e+04 6.775e-10
 60.18227   -136.5 1.177e+04 5.672e-10
 60.19226   -136.8 1.237e+04 6.240e-10
 60.20839   -136.4 1.189e+04 5.724e-10
 60.22837   -135.8 1.154e+04 5.668e-10
 60.24836   -135.2 1.138e+04 5.789e-10
 60.26834   -134.5 1.129e+04 6.013e-10
 60.27920   -134.0 1.126e+04 6.237e-10
 60.28628   -134.3 1.144e+04 6.088e-10
 60.29540   -135.1 1.084e+04 5.153e-10
 60.30830   -134.5 1.088e+04 5.166e-10
 60.32829   -134.1 1.090e+04 5.137e-10
 60.34827   -133.8 1.095e+04 5.063e-10
 60.36613   -133.7 1.099e+04 5.027e-10
 60.37612   -134.4 1.088e+04 4.494e-10
 60.38823   -134.5 1.095e+04 4.584e-10
 60.40822   -134.6 1.095e+04 4.887e-10
 60.42820   -134.5 1.092e+04 5.233e-10
 60.44818   -134.4 1.088e+04 5.434e-10
 60.46306   -134.1 1.087e+04 5.479e-10
 60.47305   -133.9 1.085e+04 5.495e-10
 60.48815   -133.4 1.076e+04 5.413e-10
 60.50813   -132.7 1.063e+04 4.812e-10
 60.52811   -132.1 1.054e+04 4.090e-10
 60.54810   -131.7 1.050e+04 3.636e-10
 60.55998   -131.4 1.049e+04 3.239e-10
 60.56997   -131.3 1.048e+04 3.130e-10
 60.58806   -131.2 1.048e+04 2.943e-10
 60.60805   -130.8 1.048e+04 2.622e-10
 60.62803   -130.6 1.049e+04 2.511e-10
 60.64692   -130.2 1.050e+04 2.363e-10
 60.65691   -129.1 1.029e+04 2.015e-10
 60.66799   -128.8 1.034e+04 1.950e-10
 60.68798   -128.2 1.042e+04 1.876e-10
 60.70796   -127.9 1.064e+04 2.016e-10
 60.72794   -127.3 1.082e+04 2.229e-10
 60.74384   -127.2 1.104e+04 2.666e-10
 60.75383   -126.6 1.090e+04 2.185e-10
 60.76791   -126.0 1.116e+04 2.775e-10
 60.78789   -125.8 1.138e+04 3.657e-10
 60.80124   -125.3 1.160e+04 5.360e-10
 60.81123   -124.3 1.094e+04 2.483e-10
 60.82786   -124.0 1.124e+04 3.625e-10
 60.84077   -123.6 1.157e+04 5.393e-10
 60.85076   -122.9 1.162e+04 4.789e-10
 60.86782   -122.5 1.201e+04 7.609e-10
 60.88781   -121.8 1.239e+04 1.151e-09
 60.90779   -121.1 1.276e+04 1.534e-09
 60.92770   -120.4 1.305e+04 1.881e-09
 60.94768   -119.2 1.333e+04 2.174e-09
 60.96774   -118.6 1.341e+04 2.253e-09
 60.98772   -118.1 1.344e+04 2.240e-09
 61.00770   -117.6 1.330e+04 1.999e-09
 61.02463   -117.2 1.312e+04 1.752e-09
 61.03462   -116.5 1.321e+04 1.819e-09
 61.04767   -116.2 1.303e+04 1.608e-09
 61.06765   -115.8 1.295e+04 1.474e-09
 61.08763   -115.6 1.297e+04 1.434e-09
 61.10762   -115.5 1.300e+04 1.431e-09
 61.12155   -116.2 1.356e+04 1.560e-09
 61.13154   -115.4 1.330e+04 1.491e-09
 61.14758   -116.5 1.416e+04 2.075e-09
 61.16756   -116.8 1.508e+04 3.423e-09
 61.18755   -116.6 1.595e+04 5.562e-09
 61.20753   -115.8 1.662e+04 7.824e-09
 61.21848   -115.5 1.695e+04 9.070e-09
 61.22847   -115.0 1.664e+04 8.263e-09
 61.24750   -114.9 1.669e+04 8.539e-09
 61.26748   -114.5 1.627e+04 7.769e-09
 61.28746   -113.4 1.540e+04 5.634e-09
 61.30541   -112.6 1.448e+04 3.754e-09
 61.31504   -112.1 1.432e+04 3.569e-09
 61.31707   -112.2 1.420e+04 3.543e-09
 61.32743   -111.6 1.350e+04 2.462e-09
 61.34741   -111.2 1.289e+04 1.716e-09
 61.36739   -110.8 1.236e+04 1.245e-09
 61.38738   -110.5 1.192e+04 9.589e-10
 61.40234   -110.0 1.157e+04 7.974e-10
 61.41233   -109.6 1.165e+04 8.424e-10
 61.42734   -109.0 1.141e+04 7.552e-10
 61.44732   -108.2 1.131e+04 7.254e-10
 61.46731   -107.5 1.129e+04 7.198e-10
 61.48729   -106.9 1.131e+04 7.210e-10
 61.49926   -106.5 1.148e+04 7.767e-10
 61.50925   -106.3 1.154e+04 8.070e-10
 61.52726   -106.1 1.178e+04 9.201e-10
 61.54724   -106.0 1.205e+04 1.073e-09
 61.56722   -106.1 1.236e+04 1.264e-09
 61.58619   -106.1 1.271e+04 1.495e-09
 61.59619   -106.1 1.268e+04 1.465e-09
 61.60719   -106.4 1.298e+04 1.672e-09
 61.62717   -106.8 1.314e+04 1.804e-09
 61.64715   -107.3 1.317e+04 1.836e-09
 61.66714   -107.7 1.310e+04 1.821e-09
 61.68312   -108.1 1.284e+04 1.655e-09
 61.69311   -108.2 1.286e+04 1.667e-09
 61.70710   -108.5 1.253e+04 1.473e-09
 61.72708   -108.6 1.217e+04 1.243e-09
 61.74707   -108.7 1.183e+04 1.018e-09
 61.76705   -108.7 1.150e+04 8.164e-10
 61.78005   -108.6 1.116e+04 6.402e-10
 61.79004   -108.3 1.122e+04 6.815e-10
 61.80702   -108.1 1.089e+04 5.283e-10
 61.82291   -107.9 1.056e+04 4.166e-10
 61.83290   -108.0 1.048e+04 3.757e-10
 61.84698   -108.0 1.030e+04 3.317e-10
 61.86696   -107.9 1.025e+04 3.239e-10
 61.89704   -108.0 1.023e+04 3.193e-10
 61.93710   -108.0 1.017e+04 3.190e-10
 61.96410   -108.2 1.010e+04 3.418e-10
 61.98408   -107.5 1.027e+04 3.766e-10
 62.01703   -107.8 1.029e+04 4.061e-10
 62.05700   -108.1 1.028e+04 4.165e-10
 62.09696   -108.6 1.008e+04 3.941e-10
 62.13693   -108.8 9.728e+03 3.087e-10
 62.15795   -108.8 9.448e+03 2.313e-10
 62.17793   -108.2 9.556e+03 2.589e-10
 62.21686   -108.0 9.349e+03 2.088e-10
 62.25682   -107.5 9.278e+03 1.949e-10
 62.29679   -106.8 9.271e+03 1.936e-10
 62.33182   -106.2 9.371e+03 2.180e-10
 62.35180   -105.5 9.504e+03 2.508e-10
 62.37672   -104.8 9.670e+03 3.063e-10
 62.41669   -104.1 9.788e+03 3.546e-10
 62.45665   -103.5 9.819e+03 3.703e-10
 62.49662   -102.8 9.780e+03 3.681e-10
 62.52567   -101.8 9.513e+03 3.111e-10
 62.54565   -100.9 9.512e+03 3.036e-10
 62.57655    -99.7 9.219e+03 2.200e-10
 62.61651    -98.5 8.903e+03 1.492e-10
 62.65648    -97.3 8.614e+03 1.029e-10
 62.69645    -96.1 8.431e+03 7.949e-11
 62.71952    -94.8 8.361e+03 7.163e-11
 62.73950    -93.9 8.455e+03 8.605e-11
 62.77638    -92.6 8.433e+03 8.463e-11
 62.81634    -91.4 8.425e+03 8.526e-11
 62.84478    -90.4 8.457e+03 9.568e-11
 62.86476    -91.0 8.398e+03 8.274e-11
 62.89339    -89.9 8.492e+03 9.861e-11
 62.91337    -89.2 8.622e+03 1.242e-10
 62.93624    -88.2 8.735e+03 1.423e-10
 62.97621    -87.2 8.828e+03 1.535e-10
 63.01617    -86.4 8.892e+03 1.575e-10
 63.05614    -85.8 8.940e+03 1.592e-10
 63.08724    -85.4 9.019e+03 1.640e-10
 63.10722    -84.7 9.228e+03 2.033e-10
 63.13607    -84.4 9.320e+03 2.150e-10
 63.17603    -84.2 9.380e+03 2.212e-10
 63.21600    -84.2 9.404e+03 2.224e-10
 63.25596    -84.1 9.389e+03 2.143e-10
 63.28109    -83.9 9.339e+03 1.997e-10
 63.30107    -83.2 9.420e+03 2.087e-10
 63.33590    -82.9 9.309e+03 1.891e-10
 63.37586    -82.5 9.211e+03 1.689e-10
 63.41583    -81.7 9.110e+03 1.458e-10
 63.45496    -80.6 9.002e+03 1.217e-10
 63.47494    -80.0 9.087e+03 1.422e-10
 63.49576    -78.8 8.979e+03 1.143e-10
 63.53572    -77.4 8.910e+03 9.060e-11
 63.57569    -75.9 8.891e+03 7.449e-11
 63.61566    -74.4 8.896e+03 6.441e-11
 63.64881    -73.1 8.938e+03 6.088e-11
 63.66879    -72.4 8.880e+03 5.912e-11
 63.69559    -71.1 8.903e+03 5.811e-11
 63.73555    -70.5 9.005e+03 5.925e-11
 63.77552    -70.6 9.384e+03 7.632e-11
 63.81548    -70.8 1.027e+04 1.932e-10
 63.84266    -70.5 1.106e+04 4.488e-10
 63.86264    -68.8 1.018e+04 1.932e-10
 63.87644    -68.5 1.090e+04 4.086e-10
 63.89642    -68.8 1.023e+04 2.808e-10
 63.93538    -68.3 1.062e+04 4.057e-10
 63.97535    -67.9 1.085e+04 4.728e-10
 64.00522    -67.2 1.081e+04 4.619e-10
 64.02511    -67.1 1.080e+04 4.651e-10
 64.03631    -66.7 1.070e+04 4.368e-10
 64.05639    -65.3 1.067e+04 3.978e-10
 64.09524    -64.6 1.070e+04 3.615e-10
 64.13521    -63.9 1.064e+04 2.965e-10
 64.17517    -62.9 1.051e+04 2.467e-10
 64.21038    -61.7 1.042e+04 2.281e-10
 64.23036    -60.6 1.060e+04 2.625e-10
 64.25511    -59.3 1.060e+04 2.628e-10
 64.29507    -58.1 1.065e+04 2.920e-10
 64.33504    -56.8 1.063e+04 3.230e-10
 64.37500    -55.5 1.059e+04 3.293e-10
 64.40423    -54.1 1.041e+04 3.091e-10
 64.42421    -53.5 1.042e+04 3.032e-10
 64.45493    -51.9 1.023e+04 2.577e-10
 64.49490    -50.2 1.010e+04 2.164e-10
 64.53487    -48.6 1.002e+04 1.831e-10
 64.57483    -47.1 9.950e+03 1.598e-10
 64.59808    -45.6 9.913e+03 1.475e-10
 64.61806    -45.0 9.923e+03 1.371e-10
 64.65476    -43.5 9.908e+03 1.326e-10
 64.69473    -41.9 9.921e+03 1.320e-10
 64.73469    -40.4 9.992e+03 1.375e-10
 64.77195    -39.1 1.010e+04 1.536e-10
 64.79193    -38.4 1.010e+04 1.425e-10
 64.81462    -37.2 1.025e+04 1.725e-10
 64.85459    -36.1 1.047e+04 2.228e-10
 64.88811    -35.0 1.075e+04 2.925e-10
 64.90810    -35.8 1.064e+04 2.739e-10
 64.93452    -34.9 1.093e+04 3.439e-10
 64.96440    -34.0 1.114e+04 3.978e-10
 64.97559    -33.8 1.116e+04 4.218e-10
 64.98558    -33.5 1.119e+04 4.149e-10
 65.00427    -33.1 1.134e+04 4.623e-10
 65.02425    -32.8 1.144e+04 5.001e-10
 65.04423    -32.6 1.150e+04 5.421e-10
 65.06253    -32.4 1.154e+04 5.835e-10
 65.07252    -32.2 1.158e+04 5.649e-10
 65.08420    -32.0 1.160e+04 6.211e-10
 65.10418    -31.6 1.163e+04 6.800e-10
 65.12416    -31.2 1.163e+04 7.222e-10
 65.14415    -30.7 1.161e+04 7.455e-10
 65.15945    -30.2 1.157e+04 7.475e-10
 65.16944    -30.0 1.175e+04 8.578e-10
 65.18411    -29.4 1.170e+04 8.624e-10
 65.20409    -28.6 1.152e+04 8.334e-10
 65.22408    -27.7 1.128e+04 7.432e-10
 65.24406    -26.7 1.106e+04 6.093e-10
 65.25638    -25.9 1.094e+04 4.775e-10
 65.26637    -25.6 1.111e+04 5.820e-10
 65.28403    -25.1 1.097e+04 4.349e-10
 65.30401    -24.8 1.093e+04 3.725e-10
 65.33342    -24.1 1.095e+04 3.175e-10
 65.35350    -24.0 1.104e+04 3.450e-10
 65.37414    -22.5 1.098e+04 3.180e-10
 65.41411    -20.7 1.083e+04 2.922e-10
 65.45408    -18.8 1.068e+04 2.682e-10
 65.49404    -17.0 1.054e+04 2.413e-10
 65.52737    -15.3 1.043e+04 2.153e-10
 65.54735    -15.2 1.069e+04 2.608e-10
 65.57397    -13.7 1.063e+04 2.383e-10
 65.61394    -12.2 1.065e+04 2.290e-10
 65.65390    -10.6 1.069e+04 2.237e-10
 65.69387     -8.9 1.072e+04 2.202e-10
 65.72122     -7.3 1.072e+04 2.188e-10
 65.74120     -7.3 1.091e+04 2.553e-10
 65.77380     -5.9 1.103e+04 2.571e-10
 65.81377     -5.3 1.145e+04 3.294e-10
 65.84364     -5.8 1.169e+04 4.523e-10
 65.86353     -6.0 1.179e+04 5.730e-10
 65.88351     -5.4 1.208e+04 8.465e-10
 65.90349     -4.8 1.220e+04 1.049e-09
 65.91487     -3.7 1.242e+04 1.198e-09
 65.92097     -3.6 1.234e+04 1.092e-09
 65.92957     -3.9 1.215e+04 8.999e-10
 65.94346     -3.3 1.210e+04 8.376e-10
 65.96344     -2.9 1.202e+04 6.768e-10
 65.98342     -2.9 1.177e+04 5.287e-10
 66.01350     -3.3 1.124e+04 3.490e-10
 66.05356     -2.2 1.097e+04 3.138e-10
 66.08894     -0.8 1.080e+04 2.812e-10
 66.10892     -0.2 1.072e+04 2.954e-10
 66.13349      1.0 1.071e+04 2.982e-10
 66.17346      1.6 1.092e+04 3.297e-10
 66.19575      1.2 1.085e+04 3.884e-10
 66.20565      1.5 1.093e+04 4.201e-10
 66.22322      1.1 1.094e+04 5.171e-10
 66.24320      1.6 1.099e+04 7.545e-10
 66.26318      2.6 1.107e+04 8.428e-10
 66.28259      3.6 1.109e+04 8.555e-10
 66.29258      3.8 1.137e+04 9.924e-10
 66.30315      4.6 1.118e+04 8.206e-10
 66.32313      4.7 1.085e+04 5.388e-10
 66.34312      3.3 1.044e+04 3.709e-10
 66.37319      2.6 1.009e+04 3.143e-10
 66.41325      2.7 9.980e+03 3.115e-10
 66.45322      3.6 9.866e+03 3.326e-10
 66.47664      4.7 9.839e+03 3.656e-10
 66.49662      5.0 1.007e+04 4.035e-10
 66.53315      6.2 1.004e+04 4.126e-10
 66.57311      7.4 9.878e+03 3.971e-10
 66.61308      8.8 9.676e+03 3.609e-10
 66.65051     10.2 9.574e+03 3.255e-10
 66.67049     10.6 9.750e+03 3.769e-10
 66.69301     11.8 9.763e+03 3.712e-10
 66.73298     12.7 9.840e+03 3.965e-10
 66.75732     13.7 9.788e+03 4.082e-10
 66.76722     13.7 9.804e+03 4.542e-10
 66.78274     13.8 9.995e+03 5.140e-10
 66.80272     14.3 1.050e+04 6.461e-10
 66.82270     14.1 1.104e+04 7.562e-10
 66.84269     13.5 1.138e+04 9.618e-10
 66.85415     13.3 1.142e+04 1.187e-09
 66.86414     13.2 1.139e+04 1.140e-09
 66.88265     13.7 1.143e+04 1.334e-09
 66.90263     14.5 1.149e+04 1.379e-09
 66.92262     15.3 1.150e+04 1.215e-09
 66.94109     15.5 1.135e+04 9.095e-10
 66.94973     15.2 1.137e+04 9.426e-10
 66.95124     15.4 1.143e+04 1.119e-09
 66.96258     15.4 1.113e+04 8.051e-10
 66.98257     14.5 1.081e+04 5.625e-10
 67.00255     13.0 1.043e+04 4.451e-10
 67.02253     11.7 1.012e+04 4.206e-10
 67.03801     11.2 1.006e+04 4.235e-10
 67.04800     10.7 1.005e+04 4.341e-10
 67.06250     10.6 9.986e+03 4.777e-10
 67.08248     11.0 1.004e+04 5.155e-10
 67.10246     11.2 1.028e+04 5.467e-10
 67.12245     10.8 1.058e+04 5.667e-10
 67.13494      9.9 1.080e+04 6.104e-10
 67.14493      9.4 1.078e+04 5.985e-10
 67.16241      8.6 1.067e+04 6.702e-10
 67.18239      8.6 1.063e+04 7.876e-10
 67.20238      9.3 1.076e+04 8.886e-10
 67.22187      9.7 1.099e+04 9.427e-10
 67.23186      9.4 1.085e+04 8.418e-10
 67.25243      9.0 1.082e+04 7.331e-10
 67.29249      8.0 1.067e+04 6.765e-10
 67.33246      7.5 1.075e+04 7.061e-10
 67.37243      7.6 1.102e+04 8.010e-10
 67.40593      7.7 1.130e+04 8.999e-10
 67.42591      8.2 1.067e+04 6.205e-10
 67.45236      8.2 1.088e+04 6.731e-10
 67.49232      8.2 1.122e+04 8.445e-10
 67.53229      8.6 1.167e+04 1.143e-09
 67.57225      9.7 1.189e+04 1.338e-09
 67.59978     10.8 1.182e+04 1.252e-09
 67.61976     12.0 1.181e+04 1.277e-09
 67.65219     13.1 1.180e+04 1.209e-09
 67.68206     13.7 1.144e+04 8.647e-10
 67.69651     13.8 1.141e+04 8.591e-10
 67.70650     14.3 1.145e+04 8.803e-10
 67.72193     15.5 1.138e+04 7.970e-10
 67.74191     16.0 1.132e+04 7.105e-10
 67.76190     16.5 1.118e+04 6.375e-10
 67.78188     17.2 1.107e+04 5.750e-10
 67.79343     17.9 1.098e+04 5.252e-10
 67.80342     18.4 1.097e+04 5.065e-10
 67.82184     19.2 1.092e+04 4.473e-10
 67.85192     20.4 1.087e+04 3.940e-10
 67.89198     21.7 1.067e+04 3.007e-10
 67.93194     22.8 1.038e+04 2.680e-10
 67.96311     24.7 1.036e+04 2.730e-10
 67.97868     24.9 1.042e+04 2.768e-10
 67.98748     25.7 1.049e+04 2.863e-10
 68.01188     27.6 1.042e+04 2.961e-10
 68.05184     29.7 1.039e+04 2.851e-10
 68.09181     31.7 1.033e+04 2.684e-10
 68.13177     33.7 1.021e+04 2.558e-10
 68.16135     36.0 1.008e+04 2.246e-10
 68.18133     36.5 1.020e+04 2.556e-10
 68.21170     38.7 1.013e+04 2.150e-10
 68.25167     40.5 1.022e+04 1.977e-10
 68.29164     42.3 1.031e+04 1.901e-10
 68.33160     44.4 1.040e+04 1.803e-10
 68.35520     46.4 1.050e+04 1.818e-10
 68.37518     46.5 1.079e+04 2.316e-10
 68.41153     48.6 1.098e+04 2.591e-10
 68.45150     50.7 1.110e+04 3.067e-10
 68.49146     53.1 1.145e+04 4.500e-10
 68.52906     56.2 1.232e+04 7.768e-10
 68.54905     56.0 1.226e+04 7.996e-10
 68.56131     58.0 1.279e+04 1.038e-09
 68.58119     58.9 1.316e+04 1.210e-09
 68.60117     60.1 1.409e+04 1.817e-09
 68.62116     61.6 1.532e+04 3.068e-09
 68.63579     65.7 1.731e+04 5.795e-09
 68.64578     64.7 1.632e+04 4.271e-09
 68.66112     64.0 1.938e+04 7.107e-09
 68.67606     56.8 2.853e+04 2.571e-08
 68.68415     51.8 2.981e+04 1.878e-07
 68.68915     44.9 3.620e+04 5.105e-08
 68.69599     37.6 3.193e+04 1.386e-07
 68.70599     32.4 2.417e+04 4.285e-07
 68.71598     30.0 2.190e+04 7.075e-07
 68.72597     30.2 2.217e+04 5.053e-07
 68.73261     31.7 2.374e+04 2.371e-07
 68.73761     31.4 2.285e+04 2.061e-07
 68.74156     33.0 2.457e+04 1.049e-07
 68.74656     34.6 2.509e+04 9.492e-08
 68.75594     35.7 3.083e+04 2.648e-08
 68.76593     34.0 3.517e+04 6.400e-09
 68.78097     25.6 2.594e+04 1.931e-09
 68.80100     17.7 1.252e+04 6.059e-10
 68.81964     20.2 1.126e+04 4.741e-10
 68.82964     20.9 1.151e+04 5.499e-10
 68.84097     23.4 1.136e+04 4.518e-10
 68.86095     24.8 1.136e+04 4.162e-10
 68.88093     25.9 1.145e+04 4.274e-10
 68.90092     26.4 1.154e+04 4.706e-10
 68.91657     27.1 1.154e+04 6.039e-10
 68.92656     28.3 1.145e+04 5.479e-10
 68.94088     29.0 1.174e+04 6.890e-10
 68.96086     30.0 1.184e+04 9.048e-10
 68.98085     31.1 1.206e+04 1.095e-09
 68.99458     32.1 1.225e+04 1.277e-09
 69.00457     32.6 1.223e+04 1.320e-09
 69.01350     33.6 1.248e+04 1.417e-09
 69.02349     34.2 1.246e+04 1.412e-09
 69.04080     34.9 1.258e+04 1.458e-09
 69.06078     35.5 1.259e+04 1.341e-09
 69.08076     36.0 1.223e+04 1.142e-09
 69.10043     36.6 1.180e+04 9.234e-10
 69.11042     37.4 1.197e+04 9.932e-10
 69.12073     38.3 1.147e+04 7.549e-10
 69.14071     39.0 1.109e+04 5.835e-10
 69.16069     39.6 1.093e+04 3.794e-10
 69.18068     39.5 1.082e+04 3.624e-10
 69.21075     41.6 1.029e+04 2.679e-10
 69.25081     43.3 9.971e+03 2.218e-10
 69.28448     45.5 9.854e+03 2.006e-10
 69.30447     46.8 9.900e+03 2.100e-10
 69.33074     49.0 9.835e+03 1.906e-10
 69.37071     51.0 9.831e+03 1.789e-10
 69.41067     53.1 9.850e+03 1.752e-10
 69.45064     55.2 9.877e+03 1.783e-10
 69.47833     57.2 9.934e+03 1.879e-10
 69.49832     58.4 9.909e+03 1.931e-10
 69.53057     60.3 9.966e+03 2.132e-10
 69.57054     62.2 1.007e+04 2.493e-10
 69.61050     64.3 1.023e+04 2.936e-10
 69.65047     66.4 1.024e+04 2.949e-10
 69.67219     68.7 1.016e+04 2.541e-10
 69.69217     69.7 1.020e+04 2.888e-10
 69.73040     71.9 1.007e+04 2.183e-10
 69.77036     73.8 9.889e+03 1.498e-10
 69.81033     75.4 9.603e+03 1.145e-10
 69.84605     77.2 9.438e+03 1.116e-10
 69.86604     78.5 9.437e+03 1.170e-10
 69.89026     80.4 9.423e+03 1.209e-10
 69.93023     82.4 9.476e+03 1.369e-10
 69.97019     84.5 9.567e+03 1.637e-10
 70.00645     86.7 9.711e+03 1.909e-10
 70.02643     87.4 9.702e+03 1.820e-10
 70.03990     89.4 9.770e+03 1.846e-10
 70.05989     90.4 9.750e+03 1.903e-10
 70.09009     92.4 9.756e+03 1.880e-10
 70.13005     94.4 9.759e+03 1.779e-10
 70.17002     96.3 9.740e+03 1.643e-10
 70.20999     98.2 9.718e+03 1.557e-10
 70.23375    100.1 9.726e+03 1.564e-10
 70.25374    100.9 9.736e+03 1.637e-10
 70.28992    102.8 9.798e+03 1.710e-10
 70.32988    104.3 9.993e+03 2.055e-10
 70.36985    105.4 1.030e+04 2.940e-10
 70.40762    106.1 1.065e+04 4.434e-10
 70.42761    107.1 1.059e+04 4.117e-10
 70.44978    107.5 1.094e+04 6.075e-10
 70.48975    108.0 1.107e+04 7.234e-10
 70.51444    107.9 1.086e+04 6.832e-10
 70.52434    108.4 1.100e+04 7.151e-10
 70.53208    108.4 1.083e+04 6.634e-10
 70.54207    108.5 1.091e+04 6.772e-10
 70.56958    108.1 1.043e+04 4.673e-10
 70.60147    108.4 9.892e+03 3.215e-10
 70.62146    109.7 1.016e+04 3.900e-10
 70.64961    110.1 9.621e+03 2.824e-10
 70.68957    110.9 9.411e+03 2.661e-10
 70.72954    112.1 9.419e+03 2.771e-10
 70.76950    113.2 9.531e+03 3.181e-10
 70.79532    114.3 9.730e+03 3.742e-10
 70.81531    115.3 9.873e+03 4.007e-10
 70.84944    116.2 1.003e+04 4.483e-10
 70.87931    116.3 1.002e+04 4.400e-10
 70.89205    116.3 9.983e+03 4.305e-10
 70.90205    116.9 1.000e+04 4.302e-10
 70.92927    117.0 1.001e+04 4.396e-10
 70.96919    117.6 9.958e+03 4.128e-10
 71.00916    119.1 9.983e+03 4.012e-10
 71.03811    119.8 9.767e+03 3.446e-10
 71.05809    120.4 9.435e+03 2.804e-10
 71.08923    120.7 9.323e+03 2.486e-10
 71.12920    121.2 9.244e+03 2.186e-10
 71.16304    121.8 9.179e+03 1.902e-10
 71.18303    122.9 9.362e+03 2.259e-10
 71.20913    123.5 9.281e+03 1.960e-10
 71.24909    124.0 9.283e+03 1.947e-10
 71.28906    124.1 9.404e+03 2.099e-10
 71.32902    124.0 9.718e+03 2.646e-10
 71.35689    123.9 1.005e+04 3.473e-10
 71.37688    124.6 1.014e+04 3.604e-10
 71.40896    124.5 1.045e+04 4.495e-10
 71.44892    124.1 1.069e+04 4.993e-10
 71.48889    123.2 1.091e+04 5.377e-10
 71.52885    121.6 1.125e+04 6.230e-10
 71.55074    119.6 1.158e+04 7.098e-10
 71.57073    120.2 1.140e+04 6.027e-10
 71.60878    118.6 1.152e+04 5.918e-10
 71.63758    117.1 1.182e+04 6.492e-10
 71.64747    117.7 1.164e+04 5.880e-10
 71.65855    115.9 1.201e+04 6.456e-10
 71.67853    113.6 1.227e+04 7.868e-10
 71.69851    112.5 1.218e+04 8.616e-10
 71.72451    111.5 1.219e+04 9.757e-10
 71.74459    112.5 1.225e+04 9.911e-10
 71.76865    111.0 1.236e+04 1.092e-09
 71.80861    108.7 1.222e+04 9.647e-10
 71.84858    106.1 1.174e+04 7.401e-10
 71.87845    104.8 1.155e+04 6.624e-10
 71.89834    103.0 1.129e+04 5.723e-10
 71.91827    101.2 1.081e+04 4.385e-10
 71.93825    100.5 1.054e+04 4.041e-10
 71.96838    101.2 1.040e+04 3.665e-10
 72.00844    101.4 9.934e+03 2.588e-10
 72.04841    101.2 9.499e+03 1.893e-10
 72.06977    100.9 9.372e+03 1.832e-10
 72.08976     99.5 9.274e+03 1.661e-10
 72.11231     99.0 9.423e+03 2.026e-10
 72.13230     99.3 9.428e+03 2.087e-10
 72.16830     98.7 9.641e+03 2.783e-10
 72.20827     98.2 9.791e+03 3.279e-10
 72.24823     97.6 9.791e+03 3.242e-10
 72.28618     96.9 9.694e+03 3.012e-10
 72.30616     97.3 9.685e+03 3.028e-10
 72.32816     96.6 9.510e+03 2.787e-10
 72.36813     96.1 9.365e+03 2.721e-10
 72.40810     96.0 9.327e+03 2.740e-10
 72.44806     95.9 9.344e+03 2.818e-10
 72.48003     95.5 9.509e+03 3.134e-10
 72.50001     95.8 9.521e+03 3.320e-10
 72.52799     95.0 9.691e+03 3.555e-10
 72.56796     94.4 9.660e+03 3.545e-10
 72.60792     94.5 9.455e+03 3.250e-10
 72.64789     94.9 9.068e+03 2.424e-10
 72.67388     95.5 8.685e+03 1.585e-10
 72.69386     96.0 8.674e+03 1.618e-10
 72.72782     96.5 8.380e+03 1.104e-10
 72.76779     97.0 8.263e+03 1.005e-10
 72.80775     97.8 8.269e+03 1.033e-10
 72.84772     98.7 8.346e+03 1.174e-10
 72.88768    100.4 8.570e+03 1.526e-10
 72.92765    101.2 8.899e+03 2.080e-10
 72.96762    101.7 9.310e+03 2.864e-10
 72.99749    102.0 9.528e+03 3.486e-10
 73.01738    101.7 9.753e+03 4.196e-10
 73.03736    101.3 1.010e+04 5.403e-10
 73.05140    100.4 1.072e+04 7.555e-10
 73.06139    101.2 1.067e+04 7.706e-10
 73.07733     99.7 1.160e+04 1.097e-09
 73.09125     96.9 1.297e+04 1.819e-09
 73.10124     97.4 1.317e+04 2.124e-09
 73.11729     94.6 1.440e+04 3.541e-09
 73.13727     92.8 1.509e+04 5.155e-09
 73.14832     91.4 1.501e+04 5.235e-09
 73.15831     90.9 1.531e+04 5.786e-09
 73.17724     90.2 1.498e+04 5.269e-09
 73.19722     89.2 1.443e+04 3.758e-09
 73.21720     85.8 1.402e+04 2.145e-09
 73.23526     79.1 1.325e+04 1.525e-09
 73.24525     76.5 1.512e+04 2.303e-09
 73.25717     67.0 1.490e+04 2.787e-09
 73.27715     62.7 1.402e+04 3.844e-09
 73.29714     63.0 1.384e+04 4.148e-09
 73.31712     62.2 1.429e+04 3.427e-09
 73.33218     59.8 1.431e+04 2.129e-09
 73.34217     57.7 1.434e+04 1.685e-09
 73.35708     52.4 1.208e+04 6.613e-10
 73.37707     46.9 9.554e+03 2.882e-10
 73.40714     47.2 9.347e+03 2.495e-10
 73.42930     45.6 9.455e+03 2.308e-10
 73.44928     44.3 9.470e+03 2.474e-10
 73.47708     44.1 9.762e+03 3.210e-10
 73.49696     43.5 9.995e+03 3.547e-10
 73.51604     42.4 1.023e+04 5.384e-10
 73.52603     41.9 1.025e+04 5.546e-10
 73.53693     41.7 1.064e+04 7.307e-10
 73.55691     41.8 1.087e+04 9.118e-10
 73.57690     42.0 1.113e+04 1.002e-09
 73.59688     42.0 1.120e+04 1.014e-09
 73.60708     41.9 1.115e+04 9.367e-10
 73.61317     41.7 1.134e+04 1.028e-09
 73.62296     41.3 1.142e+04 1.081e-09
 73.63684     40.9 1.131e+04 9.316e-10
 73.65683     40.8 1.110e+04 8.448e-10
 73.67681     40.7 1.076e+04 6.900e-10
 73.69679     40.9 1.044e+04 6.088e-10
 73.72686     41.3 1.031e+04 5.168e-10
 73.76693     42.1 1.025e+04 5.340e-10
 73.79702     43.4 1.025e+04 5.917e-10
 73.81691     43.3 1.035e+04 6.376e-10
 73.83667     44.3 1.044e+04 7.295e-10
 73.85666     45.1 1.062e+04 7.677e-10
 73.87664     45.8 1.078e+04 8.268e-10
 73.89375     46.3 1.095e+04 8.727e-10
 73.90374     46.5 1.110e+04 9.287e-10
 73.91660     46.8 1.133e+04 1.012e-09
 73.93659     46.8 1.157e+04 1.107e-09
 73.95657     47.0 1.174e+04 1.295e-09
 73.97655     47.2 1.201e+04 1.443e-09
 73.99068     47.6 1.217e+04 1.626e-09
 74.00067     46.9 1.285e+04 2.108e-09
 74.01652     47.3 1.310e+04 2.387e-09
 74.03650     47.8 1.329e+04 2.639e-09
 74.05648     48.2 1.343e+04 2.798e-09
 74.07647     48.8 1.337e+04 2.888e-09
 74.08760     49.4 1.331e+04 2.866e-09
 74.09759     49.1 1.412e+04 3.859e-09
 74.11292     49.8 1.396e+04 3.578e-09
 74.12291     49.5 1.369e+04 3.264e-09
 74.13641     50.2 1.330e+04 2.678e-09
 74.15640     50.5 1.309e+04 2.079e-09
 74.17454     50.5 1.263e+04 1.697e-09
 74.18453     49.8 1.271e+04 1.714e-09
 74.19636     49.8 1.226e+04 1.396e-09
 74.21635     49.6 1.195e+04 1.259e-09
 74.24642     50.7 1.158e+04 1.103e-09
 74.28648     52.4 1.138e+04 1.052e-09
 74.32645     55.1 1.111e+04 9.318e-10
 74.35859     58.0 1.071e+04 6.968e-10
 74.37857     57.6 1.069e+04 6.925e-10
 74.40638     60.2 1.029e+04 4.669e-10
 74.44634     62.2 9.935e+03 3.182e-10
 74.48631     64.4 9.631e+03 2.484e-10
 74.52627     66.9 9.493e+03 2.335e-10
 74.55244     69.8 9.473e+03 2.325e-10
 74.57242     69.7 9.380e+03 2.193e-10
 74.60621     72.6 9.410e+03 2.244e-10
 74.64617     75.6 9.454e+03 2.311e-10
 74.68614     78.6 9.506e+03 2.358e-10
 74.72610     81.6 9.551e+03 2.356e-10
 74.74629     84.6 9.571e+03 2.329e-10
 74.76627     84.4 9.577e+03 2.346e-10
 74.80603     87.4 9.619e+03 2.327e-10
 74.84600     90.3 9.668e+03 2.320e-10
 74.88597     93.2 9.732e+03 2.323e-10
 74.92016     96.2 9.818e+03 2.357e-10
 74.94014     95.8 9.845e+03 2.466e-10
 74.96590     98.8 9.910e+03 2.507e-10
 75.00586    101.9 1.001e+04 2.628e-10
 75.04583    105.0 1.020e+04 2.875e-10
 75.08579    108.3 1.048e+04 3.337e-10
 75.11401    110.8 1.075e+04 3.891e-10
 75.13302    109.9 1.057e+04 3.562e-10
 75.14477    109.3 1.044e+04 3.373e-10
 75.16573    111.2 1.043e+04 3.676e-10
 75.19560    113.9 1.057e+04 4.488e-10
 75.21074    115.6 1.088e+04 5.483e-10
 75.22073    115.1 1.082e+04 5.343e-10
 75.23547    116.5 1.105e+04 6.213e-10
 75.25545    117.8 1.127e+04 7.059e-10
 75.27544    118.9 1.149e+04 7.946e-10
 75.29542    119.9 1.173e+04 8.869e-10
 75.30767    120.9 1.198e+04 9.848e-10
 75.31766    120.5 1.154e+04 7.818e-10
 75.33538    121.4 1.169e+04 8.154e-10
 75.35537    122.2 1.186e+04 8.468e-10
 75.37535    123.0 1.201e+04 8.760e-10
 75.39460    123.8 1.212e+04 9.012e-10
 75.40459    123.2 1.130e+04 5.793e-10
 75.41532    124.0 1.132e+04 5.807e-10
 75.43530    124.8 1.140e+04 5.920e-10
 75.45528    125.5 1.152e+04 6.173e-10
 75.47526    126.2 1.169e+04 6.668e-10
 75.49152    126.8 1.195e+04 7.527e-10
 75.50152    126.2 1.116e+04 5.636e-10
 75.51523    126.8 1.135e+04 6.256e-10
 75.53521    127.3 1.151e+04 6.975e-10
 75.55519    127.8 1.164e+04 7.752e-10
 75.57518    128.2 1.177e+04 8.568e-10
 75.58845    128.6 1.187e+04 9.500e-10
 75.59844    128.5 1.181e+04 9.397e-10
 75.61514    129.2 1.195e+04 1.040e-09
 75.63513    129.9 1.205e+04 1.112e-09
 75.65042    130.5 1.214e+04 1.173e-09
 75.66041    130.3 1.231e+04 1.336e-09
 75.67509    130.8 1.248e+04 1.473e-09
 75.68538    131.1 1.269e+04 1.652e-09
 75.69537    131.2 1.289e+04 1.908e-09
 75.71506    131.6 1.319e+04 2.242e-09
 75.73504    132.0 1.352e+04 2.616e-09
 75.75502    132.3 1.383e+04 2.947e-09
 75.77231    132.3 1.399e+04 3.025e-09
 75.78230    132.6 1.445e+04 3.812e-09
 75.79499    132.5 1.448e+04 3.785e-09
 75.81497    132.2 1.441e+04 3.569e-09
 75.83495    131.8 1.413e+04 3.095e-09
 75.85494    131.3 1.371e+04 2.526e-09
 75.86923    130.7 1.320e+04 1.992e-09
 75.87923    131.2 1.368e+04 2.683e-09
 75.89490    130.9 1.312e+04 2.108e-09
 75.91489    130.7 1.265e+04 1.687e-09
 75.93487    130.7 1.231e+04 1.395e-09
 75.95485    130.9 1.207e+04 1.196e-09
 75.96616    131.1 1.185e+04 1.057e-09
 75.97615    131.9 1.220e+04 1.315e-09
 75.99482    132.4 1.200e+04 1.177e-09
 76.01480    132.9 1.182e+04 1.090e-09
 76.03478    133.6 1.173e+04 1.070e-09
 76.05309    134.2 1.181e+04 1.113e-09
 76.06309    134.9 1.192e+04 1.250e-09
 76.07475    135.3 1.216e+04 1.331e-09
 76.09473    135.3 1.289e+04 1.614e-09
 76.11471    134.9 1.403e+04 2.337e-09
 76.13470    134.8 1.522e+04 3.476e-09
 76.15002    135.2 1.607e+04 4.705e-09
 76.15996    135.8 1.617e+04 4.838e-09
 76.16615    135.8 1.652e+04 5.632e-09
 76.17114    136.1 1.696e+04 6.779e-09
 76.17956    136.2 1.731e+04 7.710e-09
 76.18955    136.3 1.766e+04 8.677e-09
 76.19838    136.4 1.809e+04 9.820e-09
 76.20338    136.7 1.810e+04 9.914e-09
 76.20953    136.7 1.859e+04 1.123e-08
 76.21953    136.7 1.900e+04 1.259e-08
 76.22952    136.6 1.928e+04 1.401e-08
 76.23951    136.6 1.944e+04 1.552e-08
 76.24685    136.7 1.962e+04 1.678e-08
 76.25184    136.9 2.012e+04 1.738e-08
 76.25949    137.0 2.039e+04 1.937e-08
 76.26948    137.0 2.045e+04 2.143e-08
 76.27947    137.1 2.040e+04 2.318e-08
 76.28947    137.3 2.044e+04 2.436e-08
 76.29531    137.4 2.040e+04 2.502e-08
 76.30031    137.4 2.120e+04 2.921e-08
 76.30945    137.5 2.110e+04 3.040e-08
 76.31944    137.7 2.098e+04 3.028e-08
 76.32943    138.0 2.086e+04 2.962e-08
 76.33878    138.3 2.087e+04 2.850e-08
 76.34377    138.2 2.183e+04 3.589e-08
 76.34941    138.3 2.169e+04 3.646e-08
 76.35941    138.3 2.166e+04 3.604e-08
 76.36940    138.5 2.169e+04 3.517e-08
 76.37939    138.7 2.170e+04 3.442e-08
 76.38724    138.8 2.174e+04 3.306e-08
 76.39224    139.0 2.243e+04 4.980e-08
 76.39937    139.2 2.237e+04 5.217e-08
 76.40936    139.3 2.234e+04 5.165e-08
 76.41907    139.6 2.218e+04 4.969e-08
 76.42406    139.4 2.215e+04 5.336e-08
 76.42935    140.1 2.186e+04 5.109e-08
 76.43570    140.9 2.167e+04 4.780e-08
 76.44070    140.4 2.214e+04 7.900e-08
 76.44933    141.2 2.209e+04 8.574e-08
 76.45932    141.7 2.242e+04 9.251e-08
 76.46931    142.0 2.295e+04 1.047e-07
 76.47917    141.7 2.336e+04 1.323e-07
 76.48416    141.5 2.267e+04 2.369e-07
 76.48929    141.3 2.240e+04 3.830e-07
 76.49929    140.6 2.207e+04 6.330e-07
 76.50928    138.0 2.222e+04 7.593e-07
 76.51927    134.9 2.222e+04 6.954e-07
 76.52763    134.4 2.213e+04 5.051e-07
 76.53263    133.8 2.137e+04 7.970e-07
 76.53925    134.0 2.156e+04 5.929e-07
 76.54924    134.5 2.176e+04 4.152e-07
 76.55923    135.3 2.187e+04 2.859e-07
 76.56923    136.4 2.181e+04 2.028e-07
 76.57609    137.7 2.167e+04 1.508e-07
 76.58109    137.7 2.111e+04 2.681e-07
 76.58921    139.4 2.108e+04 2.406e-07
 76.59920    141.1 2.118e+04 2.165e-07
 76.60919    142.7 2.135e+04 1.919e-07
 76.61918    144.1 2.158e+04 1.627e-07
 76.62456    145.4 2.177e+04 1.289e-07
 76.62955    146.2 2.139e+04 2.676e-07
 76.63917    147.5 2.149e+04 2.214e-07
 76.64916    148.6 2.167e+04 1.717e-07
 76.65915    149.4 2.184e+04 1.279e-07
 76.66802    150.0 2.195e+04 9.919e-08
 76.67302    151.2 2.171e+04 1.931e-07
 76.67698    152.1 2.187e+04 1.595e-07
 76.68198    150.5 2.193e+04 8.240e-08
 76.68912    151.4 2.218e+04 6.712e-08
 76.69911    151.9 2.257e+04 5.373e-08
 76.70911    152.1 2.291e+04 4.427e-08
 76.71649    151.9 2.301e+04 3.766e-08
 76.72148    153.3 2.404e+04 6.486e-08
 76.72909    152.9 2.455e+04 5.318e-08
 76.73908    153.0 2.485e+04 4.444e-08
 76.74907    153.3 2.473e+04 4.060e-08
 76.75906    154.1 2.442e+04 3.976e-08
 76.76495    155.1 2.424e+04 4.008e-08
 76.76995    155.7 2.749e+04 4.994e-08
 76.77904    156.7 2.720e+04 5.423e-08
 76.78904    157.6 2.680e+04 5.955e-08
 76.79903    158.6 2.636e+04 6.337e-08
 76.80842    159.1 2.616e+04 6.234e-08
 76.81341    159.8 2.949e+04 7.325e-08
 76.81901    160.2 2.854e+04 7.668e-08
 76.82900    160.3 2.788e+04 7.113e-08
 76.83899    159.8 2.704e+04 6.101e-08
 76.84898    158.4 2.628e+04 4.920e-08
 76.85688    155.6 2.587e+04 3.838e-08
 76.86187    155.4 2.931e+04 4.571e-08
 76.86897    150.8 2.917e+04 3.210e-08
 76.87896    145.3 2.937e+04 2.091e-08
 76.88895    140.5 2.895e+04 1.399e-08
 76.89894    136.5 2.866e+04 9.236e-09
 76.90534    133.3 2.819e+04 6.240e-09
 76.91034    129.9 3.154e+04 5.718e-09
 76.91892    127.7 2.882e+04 3.966e-09
 76.92892    126.5 2.638e+04 2.853e-09
 76.93490    126.0 2.383e+04 2.311e-09
 76.93989    126.6 2.071e+04 1.842e-09
 76.94881    126.7 2.045e+04 1.653e-09
 76.95380    125.3 1.966e+04 1.681e-09
 76.95889    125.5 1.928e+04 1.649e-09
 76.96888    126.0 1.793e+04 1.528e-09
 76.97887    126.2 1.767e+04 1.517e-09
 76.99232    127.7 1.904e+04 1.549e-09
 77.00236    125.0 1.699e+04 1.677e-09
 77.01394    126.4 1.596e+04 1.617e-09
 77.03392    127.8 1.432e+04 1.498e-09
 77.05391    129.0 1.363e+04 1.427e-09
 77.07389    130.2 1.303e+04 1.309e-09
 77.08930    131.1 1.239e+04 1.188e-09
 77.09929    130.8 1.292e+04 1.675e-09
 77.11385    131.6 1.271e+04 1.491e-09
 77.13384    132.0 1.258e+04 1.344e-09
 77.15382    132.2 1.249e+04 1.239e-09
 77.17380    132.3 1.241e+04 1.184e-09
 77.18622    132.4 1.233e+04 1.176e-09
 77.19034    131.5 1.278e+04 1.520e-09
 77.19791    131.6 1.253e+04 1.385e-09
 77.21377    131.6 1.242e+04 1.362e-09
 77.23375    131.7 1.231e+04 1.335e-09
 77.25373    131.8 1.222e+04 1.296e-09
 77.27316    131.7 1.213e+04 1.239e-09
 77.28315    131.0 1.234e+04 1.361e-09
 77.29370    130.7 1.225e+04 1.288e-09
 77.31368    130.3 1.220e+04 1.249e-09
 77.33367    129.7 1.218e+04 1.241e-09
 77.35365    129.1 1.220e+04 1.254e-09
 77.37008    128.4 1.224e+04 1.288e-09
 77.38007    127.6 1.282e+04 1.650e-09
 77.39361    127.3 1.290e+04 1.750e-09
 77.41360    126.9 1.291e+04 1.771e-09
 77.43358    126.5 1.287e+04 1.757e-09
 77.45356    126.2 1.272e+04 1.685e-09
 77.46701    125.9 1.252e+04 1.561e-09
 77.47700    126.2 1.302e+04 1.832e-09
 77.49353    125.8 1.276e+04 1.580e-09
 77.51351    125.3 1.247e+04 1.395e-09
 77.53349    124.9 1.220e+04 1.260e-09
 77.55348    124.7 1.196e+04 1.161e-09
 77.56393    124.6 1.177e+04 1.072e-09
 77.57393    125.0 1.203e+04 1.169e-09
 77.59344    125.2 1.186e+04 1.095e-09
 77.61343    125.6 1.169e+04 1.009e-09
 77.63341    126.0 1.149e+04 9.176e-10
 77.65087    126.4 1.126e+04 8.389e-10
 77.66086    127.4 1.153e+04 9.244e-10
 77.67337    128.1 1.132e+04 8.700e-10
 77.69336    129.0 1.130e+04 8.736e-10
 77.70375    129.8 1.141e+04 9.191e-10
 77.71374    131.3 1.104e+04 7.627e-10
 77.73332    132.1 1.118e+04 8.202e-10
 77.74779    132.3 1.177e+04 1.056e-09
 77.75778    134.0 1.155e+04 9.791e-10
 77.77329    134.0 1.267e+04 1.406e-09
 77.79327    133.5 1.485e+04 2.518e-09
 77.81325    132.9 1.712e+04 5.012e-09
 77.83324    132.9 1.884e+04 9.282e-09
 77.84472    133.3 1.970e+04 1.308e-08
 77.85471    135.7 1.959e+04 1.177e-08
 77.86816    134.7 2.048e+04 1.629e-08
 77.87810    134.0 2.110e+04 2.025e-08
 77.88809    133.6 2.154e+04 2.348e-08
 77.89808    134.6 2.187e+04 2.586e-08
 77.90807    134.5 2.193e+04 2.719e-08
 77.91807    134.4 2.213e+04 2.528e-08
 77.92806    134.0 2.267e+04 2.062e-08
 77.93655    133.0 2.320e+04 1.449e-08
 77.94155    135.1 2.281e+04 2.096e-08
 77.94804    133.7 2.353e+04 1.423e-08
 77.95657    131.2 2.347e+04 8.395e-09
 77.96156    134.1 2.318e+04 1.344e-08
 77.96802    131.2 2.319e+04 7.709e-09
 77.97801    127.6 2.106e+04 4.386e-09
 77.98501    123.3 1.772e+04 2.979e-09
 77.99001    126.8 2.115e+04 4.168e-09
 77.99800    123.2 1.712e+04 2.955e-09
 78.01303    119.9 1.487e+04 2.588e-09
 78.02858    118.0 1.426e+04 2.393e-09
 78.03857    119.0 1.485e+04 2.719e-09
 78.05305    117.5 1.453e+04 2.616e-09
 78.07303    115.2 1.399e+04 2.398e-09
 78.09301    112.9 1.368e+04 2.274e-09
 78.11300    110.9 1.351e+04 2.262e-09
 78.12550    109.6 1.336e+04 2.265e-09
 78.13549    109.4 1.370e+04 2.517e-09
 78.15296    108.3 1.346e+04 2.363e-09
 78.17294    107.3 1.337e+04 2.091e-09
 78.19293    106.1 1.321e+04 1.736e-09
 78.20958    104.4 1.287e+04 1.419e-09
 78.21910    107.8 1.278e+04 1.495e-09
 78.22243    106.4 1.299e+04 1.492e-09
 78.23289    104.4 1.265e+04 1.272e-09
 78.25288    102.1 1.217e+04 1.083e-09
 78.27286    100.2 1.165e+04 9.799e-10
 78.29284     98.7 1.142e+04 9.788e-10
 78.30936     97.6 1.141e+04 1.006e-09
 78.31935     96.2 1.164e+04 1.113e-09
 78.33281     95.3 1.173e+04 1.107e-09
 78.35279     94.5 1.181e+04 1.021e-09
 78.37277     93.3 1.176e+04 8.893e-10
 78.39276     91.6 1.154e+04 7.294e-10
 78.40629     89.4 1.108e+04 6.017e-10
 78.41628     86.5 1.082e+04 5.884e-10
 78.43272     84.5 1.053e+04 5.720e-10
 78.45270     83.1 1.050e+04 5.964e-10
 78.47269     82.4 1.067e+04 6.817e-10
 78.49267     82.1 1.093e+04 7.960e-10
 78.50321     82.1 1.115e+04 9.088e-10
 78.51320     80.5 1.153e+04 1.078e-09
 78.53263     80.7 1.175e+04 1.181e-09
 78.55262     80.8 1.195e+04 1.291e-09
 78.57260     81.0 1.213e+04 1.373e-09
 78.59015     81.2 1.222e+04 1.415e-09
 78.60014     79.6 1.259e+04 1.641e-09
 78.61257     80.1 1.255e+04 1.602e-09
 78.64264     81.7 1.208e+04 1.223e-09
 78.67728     83.3 1.179e+04 1.028e-09
 78.69726     80.8 1.173e+04 9.344e-10
 78.72267     82.5 1.145e+04 7.594e-10
 78.76263     84.1 1.132e+04 6.714e-10
 78.80260     85.6 1.116e+04 6.322e-10
 78.83247     85.7 1.098e+04 6.147e-10
 78.85236     86.9 1.123e+04 7.161e-10
 78.87093     88.0 1.157e+04 7.778e-10
 78.88092     86.6 1.112e+04 6.501e-10
 78.89233     87.1 1.131e+04 6.862e-10
 78.92240     85.9 1.111e+04 6.291e-10
 78.96246     84.3 1.112e+04 6.686e-10
 79.00243     81.8 1.130e+04 7.475e-10
 79.03230     79.2 1.145e+04 8.224e-10
 79.05219     76.3 1.229e+04 1.016e-09
 79.06478     73.5 1.341e+04 1.405e-09
 79.07477     75.7 1.207e+04 8.503e-10
 79.09215     73.1 1.302e+04 1.097e-09
 79.11214     70.5 1.380e+04 1.594e-09
 79.13212     67.9 1.424e+04 2.384e-09
 79.15172     66.2 1.413e+04 3.057e-09
 79.16171     67.5 1.422e+04 2.630e-09
 79.17209     67.2 1.436e+04 3.648e-09
 79.19207     67.8 1.434e+04 4.436e-09
 79.21205     69.3 1.423e+04 3.615e-09
 79.23125     70.4 1.423e+04 2.358e-09
 79.24124     70.6 1.425e+04 2.982e-09
 79.24864     69.6 1.430e+04 1.652e-09
 79.25863     71.9 1.500e+04 3.337e-09
 79.27200     70.2 1.490e+04 1.746e-09
 79.29198     67.0 1.342e+04 8.538e-10
 79.31196     64.6 1.131e+04 5.925e-10
 79.33195     64.5 1.097e+04 6.230e-10
 79.34557     65.2 1.125e+04 7.045e-10
 79.35556     65.2 1.171e+04 8.985e-10
 79.37191     65.9 1.185e+04 1.002e-09
 79.39190     67.0 1.197e+04 1.115e-09
 79.41188     68.2 1.203e+04 1.217e-09
 79.43186     69.5 1.202e+04 1.280e-09
 79.44249     70.8 1.208e+04 1.323e-09
 79.45248     70.0 1.215e+04 1.352e-09
 79.47183     71.2 1.189e+04 1.225e-09
 79.49181     72.2 1.161e+04 1.057e-09
 79.51179     71.7 1.138e+04 8.834e-10
 79.52943     69.8 1.409e+04 7.146e-10
 79.53942     70.0 1.093e+04 6.475e-10
 79.55176     63.1 8.645e+03 6.511e-10
 79.57174     57.9 8.806e+03 5.299e-10
 79.59172     50.7 1.329e+04 4.360e-10
 79.61171     46.5 1.680e+04 5.520e-10
 79.62635     45.4 1.908e+04 1.552e-09
 79.63634     47.8 1.414e+04 4.478e-10
 79.65167     47.0 1.556e+04 1.720e-09
 79.67166     48.8 1.838e+04 4.948e-09
 79.69164     50.4 1.929e+04 9.715e-09
 79.71162     51.5 1.951e+04 1.261e-08
 79.72328     52.2 1.932e+04 1.239e-08
 79.73327     54.4 1.862e+04 9.970e-09
 79.74708     54.8 1.870e+04 1.062e-08
 79.75708     55.0 1.910e+04 1.124e-08
 79.77157     54.9 1.896e+04 1.071e-08
 79.79155     54.7 1.871e+04 1.018e-08
 79.81021     54.5 1.807e+04 7.866e-09
 79.82020     56.6 1.844e+04 1.049e-08
 79.83152     56.6 1.805e+04 8.465e-09
 79.85150     56.1 1.706e+04 5.912e-09
 79.87148     55.3 1.582e+04 4.074e-09
 79.89147     54.7 1.451e+04 3.076e-09
 79.90714     54.8 1.367e+04 2.520e-09
 79.91713     56.2 1.436e+04 2.678e-09
 79.93143     56.1 1.344e+04 2.255e-09
 79.95142     56.9 1.306e+04 2.011e-09
 79.97140     58.1 1.280e+04 1.852e-09
 79.99138     59.5 1.255e+04 1.708e-09
 80.00406     60.8 1.213e+04 1.508e-09
 80.01405     61.1 1.241e+04 1.573e-09
 80.03135     62.6 1.212e+04 1.364e-09
 80.05133     63.0 1.211e+04 1.264e-09
 80.08140     65.1 1.211e+04 1.184e-09
 80.12146     65.2 1.269e+04 1.479e-09
 80.15134     64.7 1.349e+04 2.322e-09
 80.17123     65.3 1.375e+04 2.906e-09
 80.18792     66.0 1.389e+04 3.123e-09
 80.19791     66.7 1.369e+04 2.780e-09
 80.21119     67.4 1.357e+04 2.623e-09
 80.23117     68.2 1.321e+04 2.177e-09
 80.25116     68.6 1.277e+04 1.655e-09
 80.26291     68.4 1.236e+04 1.230e-09
 80.27291     68.3 1.215e+04 1.155e-09
 80.28485     67.7 1.181e+04 9.239e-10
 80.29484     68.6 1.179e+04 9.269e-10
 80.31111     68.1 1.147e+04 8.131e-10
 80.33109     67.3 1.159e+04 8.498e-10
 80.35107     64.7 1.248e+04 1.156e-09
 80.37105     62.5 1.289e+04 1.753e-09
 80.38177     63.2 1.296e+04 2.571e-09
 80.39176     63.7 1.305e+04 2.607e-09
 80.41102     64.6 1.293e+04 2.755e-09
 80.43100     66.3 1.265e+04 2.450e-09
 80.45099     66.8 1.224e+04 1.799e-09
 80.46871     66.3 1.178e+04 1.110e-09
 80.47870     66.7 1.188e+04 1.165e-09
 80.49095     64.5 1.091e+04 6.771e-10
 80.51093     62.4 9.754e+03 4.487e-10
 80.53092     61.5 9.347e+03 3.782e-10
 80.55574     62.4 9.324e+03 3.706e-10
 80.57582     62.3 9.264e+03 3.676e-10
 80.60105     62.2 9.357e+03 3.774e-10
 80.64102     61.7 9.686e+03 4.548e-10
 80.68098     61.5 9.912e+03 5.402e-10
 80.72095     61.6 9.820e+03 5.209e-10
 80.74969     61.5 9.533e+03 4.444e-10
 80.76967     60.5 9.321e+03 4.019e-10
 80.80088     60.3 9.304e+03 3.890e-10
 80.83076     60.4 9.239e+03 3.695e-10
 80.84642     60.2 9.302e+03 3.744e-10
 80.85641     59.7 9.395e+03 4.042e-10
 80.87062     58.6 9.862e+03 4.686e-10
 80.89061     56.1 1.081e+04 6.343e-10
 80.91059     54.3 1.135e+04 9.890e-10
 80.93057     53.9 1.152e+04 1.137e-09
 80.94344     54.6 1.203e+04 1.606e-09
 80.96352     53.3 1.206e+04 1.577e-09
 81.00071     51.3 1.222e+04 1.251e-09
 81.04067     47.6 1.205e+04 1.155e-09
 81.08064     45.9 1.202e+04 1.302e-09
 81.11740     46.2 1.225e+04 1.427e-09
 81.13739     45.2 1.126e+04 8.076e-10
 81.16057     45.1 1.086e+04 6.332e-10
 81.20054     44.8 1.052e+04 6.288e-10
 81.22422     45.7 1.102e+04 8.305e-10
 81.23412     45.4 1.067e+04 7.238e-10
 81.25030     45.4 1.108e+04 8.659e-10
 81.27028     45.4 1.152e+04 1.275e-09
 81.28458     45.5 1.234e+04 1.752e-09
 81.29457     45.2 1.240e+04 1.914e-09
 81.31025     45.4 1.307e+04 2.615e-09
 81.32105     45.3 1.383e+04 3.729e-09
 81.33104     45.2 1.367e+04 3.448e-09
 81.35021     44.7 1.498e+04 4.795e-09
 81.36447     44.4 1.567e+04 6.021e-09
 81.36942     44.1 1.572e+04 6.024e-09
 81.37509     44.3 1.594e+04 6.524e-09
 81.38508     44.5 1.604e+04 6.985e-09
 81.39508     44.6 1.616e+04 7.084e-09
 81.40794     44.7 1.611e+04 6.182e-09
 81.41798     43.8 1.665e+04 7.316e-09
 81.43014     43.0 1.644e+04 6.264e-09
 81.45013     41.1 1.547e+04 4.874e-09
 81.47011     40.0 1.445e+04 3.810e-09
 81.49009     39.7 1.381e+04 3.135e-09
 81.50491     39.8 1.313e+04 2.463e-09
 81.51490     39.2 1.323e+04 2.476e-09
 81.53006     39.3 1.257e+04 1.856e-09
 81.56013     39.1 1.176e+04 1.213e-09
 81.60019     40.5 1.072e+04 6.823e-10
 81.64016     40.4 1.015e+04 4.423e-10
 81.67897     40.5 1.002e+04 4.326e-10
 81.69896     40.3 9.945e+03 3.979e-10
 81.72009     41.1 1.046e+04 6.839e-10
 81.76006     43.1 1.114e+04 1.057e-09
 81.80002     44.6 1.137e+04 1.201e-09
 81.83999     45.5 1.118e+04 9.175e-10
 81.87282     45.7 1.056e+04 6.681e-10
 81.89281     45.7 1.085e+04 7.693e-10
 81.91992     46.0 1.037e+04 5.346e-10
 81.94979     45.8 1.024e+04 4.228e-10
 81.96955     46.1 1.005e+04 3.914e-10
 81.97955     46.1 1.003e+04 3.714e-10
 81.99975     46.9 1.012e+04 3.491e-10
 82.03982     47.6 1.017e+04 3.681e-10
 82.06658     48.3 1.033e+04 4.458e-10
 82.07647     48.2 1.023e+04 4.147e-10
 82.08958     48.5 1.042e+04 4.378e-10
 82.10956     48.2 1.063e+04 5.911e-10
 82.12954     48.2 1.159e+04 7.986e-10
 82.14953     47.9 1.307e+04 1.263e-09
 82.16341     47.4 1.444e+04 2.075e-09
 82.17340     46.6 1.489e+04 2.415e-09
 82.18949     46.2 1.605e+04 3.863e-09
 82.20443     45.2 1.711e+04 5.789e-09
 82.21177     44.1 1.848e+04 7.623e-09
 82.21677     43.7 1.859e+04 8.206e-09
 82.22436     43.2 1.937e+04 1.131e-08
 82.23435     43.2 1.979e+04 1.233e-08
 82.24435     43.3 2.083e+04 1.785e-08
 82.25434     42.8 2.217e+04 2.197e-08
 82.26023     41.7 2.253e+04 3.189e-08
 82.26523     41.1 2.263e+04 3.138e-08
 82.27432     40.8 2.302e+04 3.898e-08
 82.28431     40.4 2.318e+04 4.966e-08
 82.29430     40.3 2.310e+04 5.982e-08
 82.30370     40.1 2.310e+04 6.843e-08
 82.30870     39.5 2.305e+04 5.659e-08
 82.31115     39.2 2.292e+04 5.834e-08
 82.31615     37.5 2.240e+04 2.416e-08
 82.32428     36.6 2.214e+04 2.187e-08
 82.33427     36.3 2.174e+04 2.007e-08
 82.34426     35.9 2.133e+04 1.732e-08
 82.35216     35.7 2.089e+04 1.498e-08
 82.35721     34.6 1.953e+04 9.860e-09
 82.36934     34.1 1.885e+04 7.979e-09
 82.38932     33.3 1.778e+04 5.959e-09
 82.40930     32.9 1.662e+04 4.295e-09
 82.42928     32.7 1.550e+04 3.176e-09
 82.44419     32.4 1.444e+04 2.497e-09
 82.45418     31.9 1.310e+04 1.595e-09
 82.46925     32.1 1.277e+04 1.493e-09
 82.48923     32.4 1.260e+04 1.454e-09
 82.50922     33.0 1.260e+04 1.480e-09
 82.52920     33.4 1.265e+04 1.485e-09
 82.54112     34.0 1.268e+04 1.495e-09
 82.55111     34.6 1.263e+04 1.479e-09
 82.56916     35.6 1.257e+04 1.477e-09
 82.58915     36.8 1.241e+04 1.375e-09
 82.60913     37.8 1.230e+04 1.224e-09
 82.62815     38.5 1.215e+04 1.007e-09
 82.64823     40.1 1.218e+04 1.093e-09
 82.67927     42.1 1.194e+04 9.099e-10
 82.71923     44.5 1.161e+04 7.191e-10
 82.75920     46.6 1.137e+04 5.733e-10
 82.79916     48.5 1.121e+04 5.207e-10
 82.82209     50.6 1.130e+04 5.663e-10
 82.84208     52.2 1.094e+04 4.516e-10
 82.87909     54.2 1.079e+04 4.410e-10
 82.91906     56.3 1.075e+04 4.674e-10
 82.95902     58.6 1.069e+04 4.856e-10
 82.99596     61.1 1.056e+04 4.726e-10
 83.01595     62.3 1.046e+04 4.352e-10
 83.03896     64.6 1.043e+04 4.471e-10
 83.07892     67.1 1.043e+04 4.616e-10
 83.10278     67.9 1.046e+04 4.766e-10
 83.11268     68.7 1.034e+04 4.694e-10
 83.12868     69.2 1.058e+04 5.247e-10
 83.14867     68.7 1.141e+04 7.225e-10
 83.16865     67.9 1.231e+04 1.171e-09
 83.18863     67.9 1.300e+04 1.882e-09
 83.19961     68.7 1.334e+04 2.542e-09
 83.20960     69.6 1.304e+04 2.059e-09
 83.22860     70.4 1.311e+04 2.335e-09
 83.24858     71.2 1.297e+04 2.201e-09
 83.26856     71.7 1.261e+04 1.818e-09
 83.28654     71.9 1.211e+04 1.351e-09
 83.29654     72.7 1.218e+04 1.443e-09
 83.30853     72.5 1.165e+04 1.053e-09
 83.32792     72.0 1.107e+04 7.424e-10
 83.33791     72.1 1.146e+04 9.035e-10
 83.34849     71.1 1.082e+04 6.749e-10
 83.36848     70.7 1.037e+04 5.967e-10
 83.38347     70.7 1.036e+04 6.092e-10
 83.39346     71.8 1.059e+04 6.775e-10
 83.40844     71.9 1.060e+04 7.122e-10
 83.42843     72.3 1.063e+04 7.705e-10
 83.44841     72.8 1.067e+04 8.465e-10
 83.46839     73.6 1.072e+04 9.079e-10
 83.48039     74.5 1.074e+04 9.278e-10
 83.49039     74.9 1.095e+04 1.020e-09
 83.50836     75.8 1.090e+04 9.939e-10
 83.52834     76.5 1.077e+04 9.199e-10
 83.54832     77.3 1.053e+04 7.850e-10
 83.56733     77.7 1.028e+04 6.436e-10
 83.57732     78.0 1.049e+04 7.282e-10
 83.58829     77.9 1.022e+04 5.840e-10
 83.60827     77.5 9.989e+03 4.829e-10
 83.62825     77.0 9.832e+03 4.420e-10
 83.64824     76.6 9.820e+03 4.467e-10
 83.66425     76.3 9.892e+03 4.784e-10
 83.67424     76.4 9.898e+03 4.817e-10
 83.68820     76.1 1.005e+04 5.337e-10
 83.70819     76.0 1.026e+04 6.058e-10
 83.72817     75.7 1.053e+04 6.991e-10
 83.74815     75.3 1.087e+04 8.241e-10
 83.76118     74.7 1.127e+04 9.943e-10
 83.77117     74.3 1.125e+04 9.771e-10
 83.78812     73.5 1.168e+04 1.184e-09
 83.80810     72.4 1.223e+04 1.464e-09
 83.82808     70.6 1.308e+04 1.912e-09
 83.84375     68.0 1.403e+04 2.551e-09
 83.85374     67.6 1.428e+04 2.937e-09
 83.86300     62.4 1.609e+04 4.355e-09
 83.87295     56.0 1.953e+04 7.501e-09
 83.88294     50.4 2.179e+04 1.391e-08
 83.89293     47.1 2.196e+04 2.176e-08
 83.90147     45.4 2.149e+04 3.111e-08
 83.90647     44.8 2.166e+04 3.450e-08
 83.91291     43.3 2.197e+04 3.526e-08
 83.92290     41.6 2.234e+04 2.815e-08
 83.93289     38.8 2.270e+04 2.031e-08
 83.94289     33.5 2.195e+04 1.154e-08
 83.94994     32.3 2.171e+04 1.028e-08
 83.95498     28.0 2.157e+04 9.564e-09
 83.96796     18.8 1.720e+04 5.365e-09
 83.98794     15.6 1.557e+04 4.643e-09
 84.00793     15.3 1.575e+04 4.946e-09
 84.02791     14.9 1.569e+04 4.616e-09
 84.04196     14.5 1.579e+04 4.525e-09
 84.05195     13.5 1.547e+04 3.384e-09
 84.06788     13.3 1.526e+04 2.468e-09
 84.08786     12.9 1.487e+04 1.629e-09
 84.10784     12.1 1.412e+04 9.824e-10
 84.12782     10.7 1.284e+04 5.842e-10
 84.13889      9.2 1.160e+04 4.163e-10
 84.14888      6.7 1.077e+04 3.231e-10
 84.16779      6.6 1.065e+04 3.157e-10
 84.18777      6.9 1.062e+04 3.229e-10
 84.20776      7.0 1.073e+04 3.658e-10
 84.22582      7.0 1.097e+04 4.341e-10
 84.23581      6.5 1.099e+04 4.409e-10
 84.24772      6.1 1.140e+04 5.631e-10
 84.26770      5.4 1.186e+04 7.598e-10
 84.28769      4.8 1.227e+04 1.030e-09
 84.30767      4.7 1.265e+04 1.324e-09
 84.32275      5.0 1.287e+04 1.502e-09
 84.33274      3.5 1.352e+04 1.986e-09
 84.34764      3.8 1.356e+04 2.044e-09
 84.35958      3.8 1.349e+04 1.835e-09
 84.36957      3.6 1.369e+04 2.011e-09
 84.38760      2.8 1.362e+04 1.611e-09
 84.40758      0.9 1.361e+04 1.415e-09
 84.41967     -1.1 1.362e+04 1.389e-09
 84.42966     -3.6 1.446e+04 2.342e-09
 84.44755     -5.1 1.448e+04 2.658e-09
 84.46753     -5.9 1.458e+04 3.080e-09
 84.48752     -6.1 1.468e+04 3.332e-09
 84.50661     -6.1 1.475e+04 3.353e-09
 84.51660     -7.5 1.478e+04 3.271e-09
 84.52748     -7.7 1.473e+04 2.981e-09
 84.54746     -8.4 1.463e+04 2.480e-09
 84.56745     -9.8 1.431e+04 1.889e-09
 84.59752    -12.2 1.316e+04 1.296e-09
 84.63758    -12.9 1.241e+04 1.136e-09
 84.67755    -13.0 1.216e+04 1.092e-09
 84.70065    -13.0 1.209e+04 1.094e-09
 84.72064    -15.4 1.189e+04 1.023e-09
 84.75748    -15.2 1.182e+04 9.800e-10
 84.79744    -15.1 1.183e+04 9.377e-10
 84.83741    -15.1 1.187e+04 9.067e-10
 84.87452    -15.3 1.185e+04 8.779e-10
 84.89450    -16.9 1.072e+04 4.992e-10
 84.91734    -17.0 1.056e+04 4.793e-10
 84.95731    -16.8 1.037e+04 4.644e-10
 84.99727    -16.2 1.013e+04 3.979e-10
 85.03724    -15.5 9.809e+03 3.115e-10
 85.06837    -14.7 9.516e+03 2.355e-10
 85.08835    -16.0 9.021e+03 1.527e-10
 85.11717    -14.9 9.023e+03 1.358e-10
 85.15713    -13.7 9.035e+03 1.323e-10
 85.19710    -12.6 9.052e+03 1.319e-10
 85.23707    -11.9 9.260e+03 1.435e-10
 85.26222    -11.3 9.469e+03 2.019e-10
 85.28221    -12.0 9.422e+03 1.945e-10
 85.31700    -10.9 9.703e+03 2.935e-10
 85.35696     -9.6 1.003e+04 4.010e-10
 85.38145     -8.2 1.027e+04 4.828e-10
 85.40143     -7.4 9.983e+03 3.974e-10
 85.43609     -6.3 1.015e+04 4.438e-10
 85.45607     -7.0 1.015e+04 4.459e-10
 85.47686     -6.3 1.044e+04 5.170e-10
 85.51683     -6.3 1.094e+04 6.647e-10
 85.55679     -6.5 1.169e+04 9.576e-10
 85.58667     -7.2 1.245e+04 1.383e-09
 85.60655     -7.6 1.278e+04 1.592e-09
 85.62654     -8.3 1.328e+04 2.021e-09
 85.63974     -8.7 1.368e+04 2.337e-09
 85.64973     -9.1 1.376e+04 2.345e-09
 85.66650     -9.8 1.389e+04 2.406e-09
 85.68648    -10.7 1.382e+04 2.293e-09
 85.70647    -11.6 1.351e+04 1.997e-09
 85.72645    -12.6 1.321e+04 1.767e-09
 85.73666    -13.3 1.291e+04 1.594e-09
 85.74665    -13.9 1.306e+04 1.732e-09
 85.76642    -14.1 1.278e+04 1.612e-09
 85.78640    -14.0 1.242e+04 1.432e-09
 85.80638    -13.6 1.200e+04 1.188e-09
 85.82360    -13.2 1.161e+04 9.449e-10
 85.83359    -13.6 1.179e+04 1.064e-09
 85.84635    -13.1 1.143e+04 8.030e-10
 85.86633    -12.6 1.103e+04 5.933e-10
 85.88631    -12.2 1.072e+04 4.449e-10
 85.89708    -11.9 1.045e+04 3.422e-10
 85.90707    -11.8 1.038e+04 3.328e-10
 85.92052    -11.7 1.033e+04 2.844e-10
 85.93051    -12.0 1.031e+04 2.917e-10
 85.95635    -11.8 1.034e+04 2.665e-10
 85.99641    -11.0 1.033e+04 2.576e-10
 86.01755    -10.6 1.051e+04 2.896e-10
 86.02744    -11.3 1.057e+04 3.088e-10
 86.04617    -11.3 1.063e+04 3.371e-10
 86.06616    -11.0 1.075e+04 4.554e-10
 86.08614    -10.0 1.104e+04 5.874e-10
 86.10438     -8.9 1.136e+04 7.143e-10
 86.11437     -9.3 1.133e+04 6.956e-10
 86.12611     -8.3 1.152e+04 7.440e-10
 86.14609     -7.5 1.162e+04 7.536e-10
 86.16607     -6.7 1.171e+04 7.118e-10
 86.18605     -6.2 1.166e+04 6.359e-10
 86.20131     -5.9 1.143e+04 5.576e-10
 86.21130     -7.5 1.137e+04 5.040e-10
 86.22602     -7.4 1.131e+04 5.036e-10
 86.24600     -7.5 1.131e+04 5.608e-10
 86.26599     -8.4 1.199e+04 7.220e-10
 86.28597     -9.9 1.311e+04 1.121e-09
 86.29823    -11.2 1.417e+04 1.915e-09
 86.30822    -14.1 1.449e+04 2.426e-09
 86.32593    -14.6 1.499e+04 3.689e-09
 86.34592    -15.1 1.583e+04 4.877e-09
 86.36590    -19.5 1.899e+04 6.542e-09
 86.38517    -30.0 2.291e+04 9.240e-09
 86.39516    -33.7 2.193e+04 8.391e-09
 86.40292    -43.1 2.166e+04 1.092e-08
 86.41291    -37.3 2.033e+04 8.015e-09
 86.42585    -44.7 2.034e+04 1.044e-08
 86.44583    -49.8 2.035e+04 1.288e-08
 86.46581    -54.2 2.118e+04 1.459e-08
 86.48075    -58.8 2.192e+04 1.364e-08
 86.48699    -62.2 2.285e+04 1.415e-08
 86.49203    -60.9 2.279e+04 1.190e-08
 86.50074    -65.8 2.370e+04 1.312e-08
 86.51068    -69.3 2.450e+04 1.489e-08
 86.52067    -72.8 2.518e+04 1.622e-08
 86.53046    -76.4 2.560e+04 1.860e-08
 86.53545    -75.2 2.574e+04 2.035e-08
 86.54065    -77.9 2.615e+04 2.471e-08
 86.55064    -80.5 2.603e+04 2.877e-08
 86.56063    -82.8 2.575e+04 3.072e-08
 86.57063    -85.2 2.520e+04 3.131e-08
 86.57892    -88.0 2.405e+04 3.097e-08
 86.58391    -85.1 2.653e+04 4.189e-08
 86.59061    -88.3 2.527e+04 3.658e-08
 86.60060    -91.9 2.304e+04 2.776e-08
 86.61059    -95.0 2.085e+04 1.996e-08
 86.62058    -97.6 1.988e+04 1.457e-08
 86.62738   -100.2 1.937e+04 1.115e-08
 86.63238    -99.6 2.072e+04 1.187e-08
 86.64057   -102.9 1.996e+04 8.973e-09
 86.65056   -106.2 1.862e+04 6.806e-09
 86.66055   -108.8 1.749e+04 5.516e-09
 86.66573   -110.5 1.666e+04 4.700e-09
 86.67073   -111.6 1.688e+04 4.706e-09
 86.67584   -112.5 1.616e+04 4.156e-09
 86.68084   -113.7 1.730e+04 4.371e-09
 86.69052   -114.1 1.596e+04 3.940e-09
 86.70051   -114.4 1.570e+04 3.740e-09
 86.71051   -114.1 1.563e+04 3.644e-09
 86.71931   -113.6 1.563e+04 3.616e-09
 86.72431   -114.7 1.598e+04 3.823e-09
 86.73049   -114.0 1.587e+04 3.726e-09
 86.74552   -113.1 1.582e+04 3.683e-09
 86.76288   -112.4 1.587e+04 3.752e-09
 86.77282   -113.4 1.622e+04 4.041e-09
 86.78045   -113.1 1.616e+04 4.074e-09
 86.79044   -113.1 1.613e+04 4.098e-09
 86.80043   -113.0 1.608e+04 4.215e-09
 86.81042   -113.1 1.610e+04 4.285e-09
 86.81624   -113.3 1.617e+04 4.422e-09
 86.82123   -114.5 1.625e+04 4.529e-09
 86.83040   -115.6 1.644e+04 4.608e-09
 86.84039   -117.3 1.693e+04 4.793e-09
 86.85039   -119.8 1.786e+04 5.110e-09
 86.85970   -123.3 1.890e+04 5.464e-09
 86.86470   -126.7 1.945e+04 5.774e-09
 86.87037   -129.8 2.003e+04 6.041e-09
 86.88540   -135.6 2.089e+04 6.657e-09
 86.90544   -145.3 2.174e+04 8.382e-09
 86.91875   -155.6 2.207e+04 1.175e-08
 86.92874   -161.3 2.110e+04 1.049e-08
 86.94036   -165.9 2.151e+04 1.454e-08
 86.95030   -169.3 2.167e+04 1.782e-08
 86.95663   -172.2 2.185e+04 2.136e-08
 86.96162   -171.6 2.151e+04 1.919e-08
 86.97028   -174.4 2.157e+04 2.037e-08
 86.98027   -177.0 2.162e+04 2.126e-08
 86.99027   -179.4 2.166e+04 2.149e-08
 87.00010   -181.7 2.167e+04 2.128e-08
 87.00509   -181.8 2.115e+04 1.753e-08
 87.01025   -184.3 2.105e+04 1.611e-08
 87.02024   -186.8 2.071e+04 1.409e-08
 87.03023   -189.5 2.017e+04 1.176e-08
 87.04022   -192.2 1.941e+04 9.607e-09
 87.04856   -194.6 1.858e+04 7.780e-09
 87.05360   -194.3 1.828e+04 7.165e-09
 87.06530   -198.6 1.688e+04 4.967e-09
 87.08528   -201.6 1.579e+04 3.570e-09
 87.10526   -203.4 1.507e+04 2.743e-09
 87.12525   -204.3 1.450e+04 2.243e-09
 87.14059   -204.7 1.394e+04 1.914e-09
 87.15058   -204.8 1.327e+04 1.528e-09
 87.16521   -205.0 1.290e+04 1.405e-09
 87.18520   -205.0 1.278e+04 1.370e-09
 87.20518   -204.7 1.275e+04 1.360e-09
 87.22516   -203.9 1.275e+04 1.411e-09
 87.23751   -203.1 1.292e+04 1.567e-09
 87.24750   -203.6 1.298e+04 1.449e-09
 87.26513   -202.8 1.303e+04 1.516e-09
 87.28511   -202.0 1.310e+04 1.563e-09
 87.30509   -201.1 1.316e+04 1.594e-09
 87.32445   -200.3 1.319e+04 1.603e-09
 87.33444   -201.4 1.302e+04 1.465e-09
 87.34506   -200.8 1.304e+04 1.445e-09
 87.36504   -200.3 1.305e+04 1.441e-09
 87.38502   -200.1 1.320e+04 1.445e-09
 87.40501   -200.0 1.340e+04 1.504e-09
 87.42137   -200.1 1.364e+04 1.613e-09
 87.43096   -202.5 1.384e+04 1.946e-09
 87.43458   -202.9 1.338e+04 1.832e-09
 87.44497   -202.6 1.344e+04 2.038e-09
 87.46496   -202.1 1.348e+04 2.209e-09
 87.48494   -201.7 1.350e+04 2.298e-09
 87.50492   -201.2 1.354e+04 2.319e-09
 87.51830   -200.9 1.352e+04 2.314e-09
 87.52829   -201.6 1.302e+04 1.751e-09
 87.54489   -201.3 1.282e+04 1.458e-09
 87.56487   -201.3 1.261e+04 1.167e-09
 87.58485   -201.4 1.236e+04 9.122e-10
 87.60483   -201.6 1.208e+04 7.010e-10
 87.61522   -201.9 1.179e+04 5.353e-10
 87.62521   -204.1 1.083e+04 3.003e-10
 87.64480   -204.1 1.046e+04 2.583e-10
 87.66478   -203.7 1.026e+04 2.398e-10
 87.68477   -202.7 1.020e+04 2.325e-10
 87.70225   -201.5 1.026e+04 2.253e-10
 87.72233   -203.4 1.018e+04 2.397e-10
 87.75490   -201.4 9.888e+03 2.175e-10
 87.79487   -199.0 9.597e+03 1.990e-10
 87.83483   -196.3 9.461e+03 1.917e-10
 87.87480   -193.7 9.428e+03 1.905e-10
 87.89620   -191.0 9.423e+03 1.931e-10
 87.91618   -192.1 9.695e+03 2.456e-10
 87.95473   -189.5 9.779e+03 2.756e-10
 87.99470   -186.9 9.939e+03 3.168e-10
 88.03466   -184.3 1.011e+04 3.563e-10
 88.07007   -181.8 1.027e+04 3.904e-10
 88.09005   -183.1 1.045e+04 4.044e-10
 88.10450   -180.6 1.048e+04 4.309e-10
 88.12439   -180.0 1.053e+04 4.544e-10
 88.14437   -179.0 1.057e+04 4.933e-10
 88.16435   -178.5 1.060e+04 5.326e-10
 88.17679   -177.8 1.066e+04 5.853e-10
 88.18678   -178.8 1.088e+04 6.079e-10
 88.20432   -178.2 1.103e+04 6.693e-10
 88.22430   -177.7 1.118e+04 7.258e-10
 88.24429   -177.3 1.131e+04 7.826e-10
 88.26372   -177.1 1.143e+04 8.468e-10
 88.27372   -178.1 1.137e+04 8.358e-10
 88.28425   -178.1 1.143e+04 9.005e-10
 88.30423   -178.2 1.154e+04 9.977e-10
 88.32422   -178.3 1.172e+04 1.151e-09
 88.34420   -178.6 1.199e+04 1.377e-09
 88.36065   -178.8 1.231e+04 1.669e-09
 88.37064   -179.0 1.192e+04 1.368e-09
 88.38416   -179.2 1.227e+04 1.565e-09
 88.40415   -179.5 1.253e+04 1.755e-09
 88.42413   -179.9 1.263e+04 1.877e-09
 88.44411   -180.2 1.265e+04 1.905e-09
 88.45625   -180.3 1.262e+04 1.900e-09
 88.45972   -179.3 1.250e+04 1.854e-09
 88.46757   -180.1 1.197e+04 1.147e-09
 88.48408   -180.2 1.170e+04 1.050e-09
 88.51415   -180.2 1.140e+04 9.587e-10
 88.55421   -180.1 1.095e+04 8.424e-10
 88.59418   -179.1 1.080e+04 8.145e-10
 88.63164   -178.0 1.078e+04 8.161e-10
 88.65162   -178.0 1.042e+04 5.759e-10
 88.67411   -177.2 1.044e+04 5.845e-10
 88.71408   -176.5 1.031e+04 5.722e-10
 88.75404   -175.7 1.011e+04 5.194e-10
 88.79401   -174.7 9.782e+03 4.312e-10
 88.82549   -173.4 9.469e+03 3.314e-10
 88.84547   -173.9 9.646e+03 3.855e-10
 88.87394   -172.5 9.398e+03 3.127e-10
 88.91390   -171.1 9.203e+03 2.589e-10
 88.95387   -169.8 9.108e+03 2.319e-10
 88.99384   -168.5 9.084e+03 2.258e-10
 89.01934   -167.3 9.073e+03 2.270e-10
 89.03932   -167.5 9.621e+03 3.788e-10
 89.07377   -166.2 9.566e+03 3.715e-10
 89.11373   -165.0 9.445e+03 3.354e-10
 89.15370   -163.8 9.278e+03 2.760e-10
 89.19321   -162.7 9.083e+03 2.104e-10
 89.21319   -163.0 9.283e+03 2.231e-10
 89.23363   -162.3 9.132e+03 1.639e-10
 89.27360   -161.8 9.145e+03 1.495e-10
 89.31356   -161.3 9.162e+03 1.484e-10
 89.35353   -161.1 9.242e+03 1.653e-10
 89.38706   -161.0 9.938e+03 3.068e-10
 89.40704   -161.8 1.046e+04 6.464e-10
 89.43346   -161.1 1.144e+04 1.164e-09
 89.46812   -160.5 1.230e+04 1.886e-09
 89.48811   -159.0 1.188e+04 1.451e-09
 89.51339   -158.9 1.252e+04 2.028e-09
 89.54327   -159.4 1.294e+04 2.644e-09
 89.56315   -159.6 1.296e+04 2.747e-09
 89.58071   -159.8 1.292e+04 2.760e-09
 89.59071   -160.0 1.330e+04 2.683e-09
 89.60312   -160.1 1.324e+04 2.632e-09
 89.62310   -160.2 1.309e+04 2.347e-09
 89.64308   -160.8 1.290e+04 1.991e-09
 89.66307   -161.7 1.267e+04 1.676e-09
 89.67764   -162.6 1.243e+04 1.469e-09
 89.68763   -163.7 1.264e+04 1.839e-09
 89.70303   -164.4 1.235e+04 1.730e-09
 89.72301   -165.0 1.223e+04 1.704e-09
 89.74300   -165.9 1.223e+04 1.706e-09
 89.76298   -167.9 1.245e+04 1.909e-09
 89.77456   -170.3 1.381e+04 2.925e-09
 89.78456   -170.0 1.350e+04 2.608e-09
 89.80295   -173.2 1.566e+04 4.142e-09
 89.82293   -176.5 1.737e+04 6.390e-09
 89.84291   -180.1 1.828e+04 8.356e-09
 89.86150   -183.8 1.843e+04 8.966e-09
 89.87149   -187.5 1.956e+04 1.016e-08
 89.88288   -189.8 1.885e+04 1.025e-08
 89.90286   -191.1 1.733e+04 8.379e-09
 89.92284   -191.8 1.594e+04 5.778e-09
 89.94282   -192.4 1.488e+04 3.896e-09
 89.95842   -193.0 1.415e+04 2.745e-09
 89.96842   -194.8 1.491e+04 3.938e-09
 89.98279   -195.2 1.411e+04 3.019e-09
 89.99375   -195.4 1.340e+04 2.370e-09
 90.00374   -196.4 1.307e+04 2.237e-09
 90.02276   -196.3 1.249e+04 1.808e-09
 90.04274   -195.7 1.202e+04 1.507e-09
 90.05535   -195.2 1.165e+04 1.279e-09
 90.06534   -195.6 1.182e+04 1.528e-09
 90.08270   -195.2 1.154e+04 1.299e-09
 90.10269   -194.7 1.131e+04 1.147e-09
 90.12267   -194.1 1.114e+04 1.053e-09
 90.14228   -193.5 1.102e+04 9.912e-10
 90.15227   -194.1 1.120e+04 1.056e-09
 90.16264   -193.4 1.112e+04 1.022e-09
 90.18262   -192.7 1.107e+04 9.932e-10
 90.20260   -191.9 1.105e+04 9.723e-10
 90.22258   -191.1 1.105e+04 9.575e-10
 90.23921   -190.3 1.104e+04 9.415e-10
 90.24920   -191.1 1.123e+04 1.096e-09
 90.26255   -190.4 1.122e+04 1.097e-09
 90.28253   -189.7 1.116e+04 1.089e-09
 90.30252   -188.9 1.103e+04 1.049e-09
 90.32250   -188.2 1.083e+04 9.744e-10
 90.33613   -187.4 1.059e+04 8.746e-10
 90.34613   -187.7 1.075e+04 9.932e-10
 90.36246   -186.7 1.046e+04 8.518e-10
 90.38245   -185.6 1.016e+04 7.144e-10
 90.40243   -184.3 9.861e+03 5.878e-10
 90.42241   -182.9 9.638e+03 4.886e-10
 90.43306   -181.6 9.542e+03 4.335e-10
 90.44305   -181.8 9.562e+03 4.339e-10
 90.47247   -180.8 9.511e+03 3.992e-10
 90.49978   -179.1 9.327e+03 3.388e-10
 90.51743   -179.5 9.323e+03 3.430e-10
 90.53018   -180.2 9.517e+03 3.520e-10
 90.55250   -177.7 9.328e+03 3.080e-10
 90.59246   -175.3 9.230e+03 2.805e-10
 90.63243   -172.9 9.217e+03 2.731e-10
 90.67239   -170.6 9.254e+03 2.760e-10
 90.70405   -168.3 9.322e+03 2.887e-10
 90.72403   -169.2 9.993e+03 4.602e-10
 90.75232   -167.0 1.008e+04 5.064e-10
 90.79229   -165.0 1.010e+04 5.330e-10
 90.83226   -162.9 1.009e+04 5.394e-10
 90.87222   -160.8 1.000e+04 5.362e-10
 90.89790   -158.5 9.803e+03 4.928e-10
 90.91788   -159.2 1.011e+04 5.822e-10
 90.95215   -156.8 9.842e+03 4.814e-10
 90.99212   -154.2 9.562e+03 3.823e-10
 91.03208   -151.7 9.292e+03 2.993e-10
 91.07177   -149.0 9.058e+03 2.363e-10
 91.09175   -149.6 9.114e+03 2.271e-10
 91.11201   -146.9 8.932e+03 1.780e-10
 91.15198   -144.2 8.799e+03 1.437e-10
 91.19195   -141.5 8.714e+03 1.216e-10
 91.23191   -138.7 8.684e+03 1.097e-10
 91.26562   -135.9 8.689e+03 1.061e-10
 91.28560   -136.6 8.754e+03 1.011e-10
 91.31184   -133.9 8.759e+03 1.008e-10
 91.35181   -131.4 8.916e+03 1.052e-10
 91.39177   -129.0 9.132e+03 1.272e-10
 91.43174   -126.6 9.311e+03 1.638e-10
 91.45947   -124.0 9.493e+03 2.144e-10
 91.47945   -124.8 9.480e+03 1.824e-10
 91.51146   -122.1 9.580e+03 2.091e-10
 91.53145   -122.7 9.503e+03 1.862e-10
 91.55164   -120.1 9.567e+03 2.068e-10
 91.59160   -117.6 9.623e+03 2.281e-10
 91.63157   -115.1 9.665e+03 2.469e-10
 91.65332   -112.8 9.683e+03 2.606e-10
 91.67330   -113.5 9.471e+03 2.110e-10
 91.71150   -111.3 9.568e+03 2.370e-10
 91.75147   -109.1 9.655e+03 2.577e-10
 91.79143   -107.0 9.760e+03 2.743e-10
 91.82719   -104.9 9.900e+03 3.051e-10
 91.84717   -105.9 1.035e+04 5.009e-10
 91.87136   -103.8 1.060e+04 6.123e-10
 91.91133   -101.7 1.074e+04 6.999e-10
 91.95129    -99.7 1.083e+04 7.693e-10
 91.99126    -97.7 1.085e+04 7.977e-10
 92.02104    -95.7 1.078e+04 7.800e-10
 92.04102    -96.9 1.089e+04 8.459e-10
 92.07119    -94.9 1.058e+04 7.128e-10
 92.11116    -92.9 1.022e+04 5.802e-10
 92.15112    -90.9 9.879e+03 4.624e-10
 92.19109    -88.8 9.586e+03 3.715e-10
 92.21489    -86.7 9.354e+03 3.096e-10
 92.23487    -87.7 9.212e+03 2.892e-10
 92.27102    -85.4 9.025e+03 2.466e-10
 92.31098    -83.2 8.919e+03 2.270e-10
 92.35095    -81.0 8.885e+03 2.227e-10
 92.38876    -78.9 8.932e+03 2.386e-10
 92.40874    -79.7 8.709e+03 1.947e-10
 92.43088    -77.6 8.744e+03 2.061e-10
 92.47085    -75.5 8.792e+03 2.210e-10
 92.51081    -73.4 8.834e+03 2.327e-10
 92.54312    -71.3 8.859e+03 2.388e-10
 92.56311    -72.0 8.501e+03 1.760e-10
 92.58261    -69.9 8.504e+03 1.778e-10
 92.60259    -70.7 8.473e+03 1.728e-10
 92.63071    -68.6 8.475e+03 1.708e-10
 92.67067    -66.5 8.507e+03 1.730e-10
 92.71064    -64.5 8.592e+03 1.847e-10
 92.75061    -62.6 8.722e+03 2.115e-10
 92.77646    -60.5 8.859e+03 2.489e-10
 92.79644    -61.1 8.839e+03 2.386e-10
 92.83054    -58.8 8.928e+03 2.619e-10
 92.87050    -56.5 8.976e+03 2.719e-10
 92.91047    -54.1 8.976e+03 2.599e-10
 92.95032    -51.9 8.920e+03 2.312e-10
 92.99029    -50.1 8.844e+03 2.066e-10
 93.03037    -48.1 8.913e+03 2.131e-10
 93.07033    -46.3 9.115e+03 2.603e-10
 93.11030    -44.2 9.319e+03 3.252e-10
 93.14418    -41.7 9.498e+03 3.651e-10
 93.16416    -41.3 9.527e+03 3.863e-10
 93.19023    -39.0 9.605e+03 3.829e-10
 93.23019    -37.1 9.583e+03 3.093e-10
 93.27016    -35.8 9.514e+03 2.651e-10
 93.31013    -34.3 9.497e+03 2.610e-10
 93.33803    -32.6 9.598e+03 3.027e-10
 93.35801    -31.1 9.442e+03 2.634e-10
 93.39006    -29.0 9.589e+03 2.890e-10
 93.43002    -27.1 9.853e+03 3.181e-10
 93.46999    -25.6 1.000e+04 3.588e-10
 93.50995    -23.7 1.001e+04 3.736e-10
 93.53188    -21.5 9.901e+03 3.490e-10
 93.55186    -19.7 1.002e+04 3.832e-10
 93.57478    -17.4 1.003e+04 3.546e-10
 93.59477    -17.0 1.005e+04 3.290e-10
 93.62985    -14.8 9.844e+03 2.641e-10
 93.66982    -12.9 9.742e+03 1.652e-10
 93.70574    -12.4 9.611e+03 8.598e-11
 93.72573     -9.8 1.023e+04 2.214e-10
 93.74975    -10.1 1.008e+04 1.692e-10
 93.78971    -10.6 9.677e+03 1.905e-10
 93.82968    -10.5 9.589e+03 2.098e-10
 93.86964    -10.7 1.006e+04 2.464e-10
 93.89960    -11.2 1.042e+04 3.337e-10
 93.91958    -10.8 1.118e+04 6.309e-10
 93.94958    -11.2 1.092e+04 7.180e-10
 93.98954    -10.6 1.054e+04 6.507e-10
 94.02951     -9.5 1.008e+04 4.665e-10
 94.06947     -8.5 9.559e+03 2.913e-10
 94.09345     -7.6 9.056e+03 1.937e-10
 94.11343     -8.2 8.997e+03 1.857e-10
 94.14940     -7.0 8.784e+03 1.293e-10
 94.18937     -6.5 8.736e+03 9.611e-11
 94.22933     -6.3 8.853e+03 8.972e-11
 94.26731     -5.6 9.260e+03 1.382e-10
 94.28730     -6.0 9.845e+03 2.596e-10
 94.30927     -4.9 1.036e+04 4.045e-10
 94.34923     -4.9 1.105e+04 6.621e-10
 94.37413     -5.9 1.166e+04 9.768e-10
 94.38403     -6.0 1.184e+04 1.105e-09
 94.39899     -5.7 1.209e+04 1.402e-09
 94.41898     -5.4 1.254e+04 1.768e-09
 94.43896     -4.9 1.273e+04 1.964e-09
 94.45894     -4.8 1.286e+04 1.971e-09
 94.47096     -4.9 1.283e+04 1.946e-09
 94.48095     -5.3 1.273e+04 1.864e-09
 94.49891     -5.8 1.282e+04 1.898e-09
 94.51889     -6.5 1.305e+04 2.011e-09
 94.53887     -7.5 1.327e+04 2.238e-09
 94.55789     -8.0 1.340e+04 2.546e-09
 94.56789     -8.7 1.354e+04 2.889e-09
 94.57884     -8.4 1.366e+04 3.294e-09
 94.59626     -7.6 1.365e+04 3.465e-09
 94.60625     -7.7 1.320e+04 2.967e-09
 94.61880     -6.5 1.305e+04 2.570e-09
 94.63879     -6.5 1.288e+04 1.971e-09
 94.65482    -11.3 1.603e+04 2.479e-09
 94.66481    -13.5 1.717e+04 3.063e-09
 94.67875    -21.1 1.895e+04 5.963e-09
 94.69369    -23.0 1.787e+04 1.145e-08
 94.70319    -23.0 1.795e+04 1.414e-08
 94.70818    -22.7 1.783e+04 1.479e-08
 94.71363    -21.4 1.762e+04 1.917e-08
 94.72362    -20.4 1.804e+04 2.043e-08
 94.73865    -19.6 1.807e+04 1.918e-08
 94.75175    -18.0 1.798e+04 1.322e-08
 94.76174    -17.8 1.744e+04 1.033e-08
 94.77867    -19.6 1.766e+04 5.501e-09
 94.79865    -24.9 1.517e+04 2.841e-09
 94.81863    -27.6 1.298e+04 2.003e-09
 94.83862    -27.1 1.261e+04 1.861e-09
 94.85860    -26.4 1.211e+04 1.496e-09
 94.87858    -25.3 1.213e+04 1.436e-09
 94.89856    -24.4 1.201e+04 1.370e-09
 94.91855    -23.5 1.186e+04 1.249e-09
 94.93560    -22.7 1.170e+04 1.103e-09
 94.94560    -22.7 1.152e+04 1.002e-09
 94.95851    -21.7 1.128e+04 9.022e-10
 94.97850    -20.7 1.114e+04 7.587e-10
 94.99848    -20.4 1.099e+04 7.218e-10
 95.02264    -18.2 1.089e+04 6.637e-10
 95.04272    -18.2 1.064e+04 5.620e-10
 95.06861    -15.3 1.022e+04 3.929e-10
 95.10858    -12.9 9.988e+03 2.955e-10
 95.14854    -10.3 9.833e+03 2.502e-10
 95.18851     -7.4 9.738e+03 2.337e-10
 95.21658     -4.5 9.726e+03 2.337e-10
 95.23657     -4.4 9.892e+03 2.983e-10
 95.26844     -1.3 9.941e+03 3.191e-10
 95.30841      1.8 1.000e+04 3.217e-10
 95.34837      4.7 1.005e+04 3.130e-10
 95.38834      7.4 1.012e+04 3.057e-10
 95.41044      9.9 1.020e+04 3.153e-10
 95.43042      9.9 1.046e+04 4.409e-10
 95.46827     12.3 1.064e+04 5.144e-10
 95.50824     14.8 1.091e+04 6.326e-10
 95.54820     17.2 1.118e+04 7.720e-10
 95.58430     19.5 1.143e+04 9.008e-10
 95.60429     19.5 1.159e+04 1.001e-09
 95.61812     21.4 1.189e+04 1.137e-09
 95.63811     21.7 1.260e+04 1.610e-09
 95.65801     22.3 1.282e+04 1.839e-09
 95.67789     22.8 1.327e+04 2.236e-09
 95.69102     23.3 1.379e+04 2.769e-09
 95.70102     22.9 1.421e+04 3.343e-09
 95.71786     23.6 1.471e+04 4.066e-09
 95.73784     24.1 1.479e+04 4.157e-09
 95.75783     24.7 1.463e+04 3.970e-09
 95.77781     25.5 1.419e+04 3.376e-09
 95.78795     26.2 1.365e+04 2.694e-09
 95.79794     26.0 1.363e+04 2.717e-09
 95.81777     26.6 1.293e+04 2.017e-09
 95.83776     26.8 1.234e+04 1.578e-09
 95.85774     27.3 1.178e+04 1.240e-09
 95.87488     27.8 1.135e+04 1.031e-09
 95.88488     27.4 1.122e+04 9.635e-10
 95.89770     28.6 1.078e+04 7.856e-10
 95.91769     28.9 1.066e+04 7.314e-10
 95.94776     30.7 1.047e+04 6.654e-10
 95.97200     33.2 1.004e+04 5.307e-10
 95.99199     32.8 9.919e+03 4.975e-10
 96.02779     34.8 9.717e+03 4.343e-10
 96.06775     36.8 9.521e+03 3.812e-10
 96.10772     38.9 9.332e+03 3.485e-10
 96.14587     41.2 9.366e+03 3.576e-10
 96.16586     40.3 9.733e+03 4.748e-10
 96.18765     42.1 9.921e+03 5.367e-10
 96.22762     44.1 1.016e+04 6.378e-10
 96.25269     45.5 1.021e+04 6.789e-10
 96.26259     45.3 1.033e+04 7.273e-10
 96.27738     45.9 1.035e+04 7.593e-10
 96.29736     47.1 1.033e+04 7.503e-10
 96.31734     47.8 1.030e+04 7.435e-10
 96.33733     48.7 1.024e+04 7.255e-10
 96.34952     49.6 1.017e+04 7.022e-10
 96.35951     49.0 1.016e+04 7.019e-10
 96.37729     49.8 1.013e+04 6.864e-10
 96.39728     50.5 1.015e+04 6.883e-10
 96.41726     51.0 1.020e+04 7.050e-10
 96.43645     51.5 1.030e+04 7.482e-10
 96.44644     50.7 1.049e+04 8.358e-10
 96.45722     51.3 1.067e+04 9.318e-10
 96.47721     52.0 1.084e+04 1.039e-09
 96.49719     52.8 1.098e+04 1.134e-09
 96.51717     53.6 1.107e+04 1.203e-09
 96.53338     54.5 1.110e+04 1.222e-09
 96.54337     54.0 1.113e+04 1.245e-09
 96.55714     54.8 1.111e+04 1.229e-09
 96.57712     55.6 1.107e+04 1.200e-09
 96.59710     56.3 1.102e+04 1.164e-09
 96.61709     57.0 1.095e+04 1.124e-09
 96.63030     57.8 1.090e+04 1.091e-09
 96.64030     57.1 1.079e+04 1.036e-09
 96.64959     57.8 1.077e+04 1.022e-09
 96.65958     58.2 1.126e+04 1.270e-09
 96.67703     58.9 1.122e+04 1.240e-09
 96.69702     59.6 1.122e+04 1.237e-09
 96.71700     60.2 1.126e+04 1.254e-09
 96.72723     60.8 1.136e+04 1.296e-09
 96.73722     60.0 1.131e+04 1.279e-09
 96.75697     60.7 1.138e+04 1.318e-09
 96.77695     61.4 1.140e+04 1.328e-09
 96.79693     62.2 1.134e+04 1.290e-09
 96.81416     63.1 1.121e+04 1.207e-09
 96.82415     62.5 1.080e+04 9.537e-10
 96.83690     63.5 1.061e+04 8.388e-10
 96.85688     64.3 1.043e+04 7.347e-10
 96.87686     64.9 1.027e+04 6.472e-10
 96.89685     65.5 1.013e+04 5.834e-10
 96.91109     66.0 1.004e+04 5.451e-10
 96.92108     64.9 9.658e+03 4.360e-10
 96.93681     65.3 9.656e+03 4.444e-10
 96.95679     65.7 9.691e+03 4.719e-10
 96.97678     66.1 9.853e+03 5.279e-10
 96.99676     66.1 1.009e+04 6.075e-10
 97.00801     65.9 1.045e+04 7.333e-10
 97.01801     65.1 1.062e+04 8.141e-10
 97.03673     64.6 1.120e+04 1.078e-09
 97.05671     64.0 1.179e+04 1.441e-09
 97.07669     63.5 1.228e+04 1.847e-09
 97.09495     63.0 1.263e+04 2.124e-09
 97.10494     62.8 1.289e+04 2.304e-09
 97.11666     62.0 1.294e+04 2.281e-09
 97.13664     61.0 1.287e+04 2.077e-09
 97.15543     59.5 1.266e+04 1.703e-09
 97.16542     59.1 1.300e+04 2.035e-09
 97.17661     57.1 1.279e+04 1.751e-09
 97.19187     55.1 1.244e+04 1.503e-09
 97.20186     55.3 1.239e+04 1.475e-09
 97.21657     53.8 1.192e+04 1.279e-09
 97.23655     53.1 1.157e+04 1.163e-09
 97.25654     53.2 1.142e+04 1.097e-09
 97.27652     53.4 1.133e+04 1.033e-09
 97.28880     53.9 1.121e+04 9.470e-10
 97.29879     54.5 1.121e+04 9.433e-10
 97.31649     55.1 1.109e+04 8.459e-10
 97.33647     55.8 1.096e+04 7.533e-10
 97.35645     56.6 1.086e+04 6.859e-10
 97.37573     57.7 1.079e+04 6.472e-10
 97.38572     57.8 1.101e+04 7.277e-10
 97.39642     59.1 1.098e+04 7.152e-10
 97.41640     60.6 1.098e+04 7.109e-10
 97.43638     62.5 1.103e+04 7.194e-10
 97.45636     64.4 1.116e+04 7.552e-10
 97.47266     66.3 1.133e+04 8.158e-10
 97.48265     65.8 1.231e+04 1.102e-09
 97.49633     67.2 1.295e+04 1.334e-09
 97.51631     69.4 1.440e+04 1.855e-09
 97.53630     71.7 1.594e+04 2.640e-09
 97.55123     71.3 1.705e+04 3.699e-09
 97.56118     70.3 1.896e+04 5.226e-09
 97.56949     67.7 2.298e+04 8.884e-09
 97.57448     67.3 2.202e+04 1.151e-08
 97.58116     64.3 2.461e+04 2.451e-08
 97.59115     61.5 2.484e+04 6.826e-08
 97.60114     58.8 2.411e+04 1.683e-07
 97.61113     55.3 2.463e+04 2.193e-07
 97.61795     50.4 2.560e+04 1.779e-07
 97.62294     50.6 2.440e+04 2.252e-07
 97.63112     46.0 2.549e+04 1.514e-07
 97.64111     41.2 2.733e+04 6.645e-08
 97.65110     35.5 2.821e+04 2.458e-08
 97.66109     27.6 2.542e+04 1.134e-08
 97.66641     18.4 2.117e+04 8.369e-09
 97.67141     19.8 2.219e+04 8.255e-09
 97.67616     14.1 1.835e+04 6.862e-09
 97.68115     17.8 1.975e+04 6.586e-09
 97.69611     10.7 1.726e+04 6.622e-09
 97.71614      9.4 1.714e+04 7.034e-09
 97.73612      9.5 1.833e+04 8.083e-09
 97.75344     10.1 1.940e+04 9.291e-09
 97.76343     10.4 1.641e+04 4.473e-09
 97.77609     10.9 1.756e+04 5.239e-09
 97.79607     11.8 1.765e+04 5.101e-09
 97.81606     12.1 1.814e+04 5.367e-09
 97.83604     12.2 1.886e+04 6.061e-09
 97.85037     12.1 1.953e+04 7.184e-09
 97.86036     12.2 1.792e+04 4.420e-09
 97.87600     12.3 1.917e+04 6.088e-09
 97.89599     12.6 1.981e+04 8.164e-09
 97.91597     13.2 1.972e+04 1.003e-08
 97.93595     14.2 1.931e+04 1.099e-08
 97.94729     15.1 1.887e+04 1.094e-08
 97.95728     15.1 1.914e+04 8.490e-09
 97.97592     15.3 1.892e+04 8.643e-09
 97.99590     15.3 1.860e+04 8.297e-09
 98.01588     15.0 1.840e+04 7.830e-09
 98.03423     14.8 1.808e+04 7.106e-09
 98.04422     13.9 1.872e+04 9.716e-09
 98.05585     14.1 1.862e+04 9.570e-09
 98.07583     14.7 1.832e+04 8.699e-09
 98.09582     15.3 1.798e+04 7.177e-09
 98.11580     15.9 1.754e+04 5.436e-09
 98.13115     16.4 1.704e+04 4.046e-09
 98.14114     16.4 1.769e+04 6.041e-09
 98.15576     16.5 1.732e+04 4.833e-09
 98.17575     16.5 1.703e+04 4.592e-09
 98.18709     16.6 1.721e+04 4.888e-09
 98.19708     17.6 1.663e+04 4.479e-09
 98.21571     17.8 1.702e+04 4.849e-09
 98.22808     17.5 1.835e+04 6.978e-09
 98.23303     17.8 1.764e+04 5.541e-09
 98.24059     17.1 1.895e+04 7.214e-09
 98.25058     15.6 2.193e+04 1.051e-08
 98.26058     13.1 2.417e+04 1.800e-08
 98.27057     10.9 2.399e+04 3.305e-08
 98.27644     10.6 2.343e+04 5.974e-08
 98.28144     10.4 2.522e+04 3.480e-08
 98.29055     10.2 2.432e+04 4.966e-08
 98.30054     10.0 2.348e+04 5.523e-08
 98.31053     10.1 2.285e+04 5.508e-08
 98.31991     10.4 2.231e+04 5.142e-08
 98.32491      9.4 2.210e+04 2.924e-08
 98.33052      9.9 2.136e+04 2.852e-08
 98.34051     10.2 2.099e+04 2.695e-08
 98.35050     10.5 2.072e+04 2.444e-08
 98.36049     10.6 2.055e+04 2.261e-08
 98.37553     11.2 2.006e+04 1.927e-08
 98.39556     11.8 1.920e+04 1.476e-08
 98.41194     12.1 1.795e+04 1.069e-08
 98.42193     13.1 1.771e+04 1.072e-08
 98.43552     13.6 1.703e+04 8.182e-09
 98.45551     14.3 1.640e+04 6.381e-09
 98.47549     14.8 1.583e+04 5.148e-09
 98.49547     15.4 1.519e+04 4.186e-09
 98.50886     16.3 1.450e+04 3.445e-09
 98.51885     17.3 1.455e+04 3.598e-09
 98.53544     18.2 1.397e+04 3.071e-09
 98.55542     19.2 1.352e+04 2.627e-09
 98.57540     20.3 1.313e+04 2.231e-09
 98.59539     21.4 1.283e+04 1.914e-09
 98.60579     22.5 1.254e+04 1.637e-09
 98.61578     23.3 1.256e+04 1.729e-09
 98.63535     24.3 1.238e+04 1.557e-09
 98.65533     25.5 1.217e+04 1.393e-09
 98.67532     26.8 1.204e+04 1.258e-09
 98.69272     27.8 1.192e+04 1.177e-09
 98.70034     28.5 1.207e+04 1.300e-09
 98.70292     29.0 1.261e+04 1.478e-09
 98.71528     30.1 1.245e+04 1.393e-09
 98.73527     31.3 1.223e+04 1.295e-09
 98.75525     32.5 1.192e+04 1.176e-09
 98.77975     34.3 1.168e+04 9.258e-10
 98.79983     35.8 1.225e+04 1.337e-09
 98.82538     38.5 1.172e+04 1.058e-09
 98.86535     41.4 1.138e+04 8.839e-10
 98.88667     42.4 1.110e+04 8.010e-10
 98.89656     43.1 1.125e+04 8.681e-10
 98.91511     44.4 1.123e+04 8.727e-10
 98.93509     45.8 1.122e+04 8.780e-10
 98.95508     47.1 1.124e+04 8.953e-10
 98.97351     48.4 1.128e+04 9.272e-10
 98.98350     49.3 1.140e+04 9.578e-10
 98.99504     50.5 1.149e+04 1.001e-09
 99.01502     51.9 1.165e+04 1.088e-09
 99.03501     53.2 1.186e+04 1.189e-09
 99.05499     54.2 1.205e+04 1.300e-09
 99.07043     54.9 1.223e+04 1.418e-09
 99.08042     55.6 1.239e+04 1.494e-09
 99.09496     56.4 1.264e+04 1.710e-09
 99.11494     57.4 1.285e+04 1.925e-09
 99.13492     58.3 1.301e+04 2.058e-09
 99.15490     58.9 1.303e+04 2.053e-09
 99.16736     59.5 1.292e+04 1.953e-09
 99.17735     60.8 1.341e+04 2.433e-09
 99.19487     61.5 1.324e+04 2.244e-09
 99.20876     62.0 1.287e+04 1.896e-09
 99.21875     62.7 1.309e+04 2.102e-09
 99.23484     63.1 1.264e+04 1.720e-09
 99.25429     63.3 1.206e+04 1.349e-09
 99.26428     65.1 1.272e+04 1.738e-09
 99.27480     65.3 1.203e+04 1.263e-09
 99.29478     65.3 1.126e+04 9.060e-10
 99.31477     65.3 1.060e+04 6.977e-10
 99.33475     65.6 1.021e+04 5.723e-10
 99.35122     66.0 9.952e+03 4.768e-10
 99.36121     67.3 1.010e+04 4.737e-10
 99.38480     67.9 9.847e+03 3.809e-10
 99.42487     68.7 9.385e+03 3.416e-10
 99.46483     70.1 9.403e+03 3.464e-10
 99.50480     71.0 9.568e+03 3.793e-10
 99.53527     71.6 9.767e+03 4.194e-10
 99.55516     73.4 9.791e+03 4.903e-10
 99.58463     73.9 9.973e+03 5.241e-10
 99.62470     74.3 9.968e+03 5.151e-10
 99.66466     74.5 9.856e+03 4.718e-10
 99.70463     74.6 9.708e+03 4.223e-10
 99.72902     75.6 9.818e+03 4.822e-10
 99.73892     76.3 9.958e+03 5.594e-10
 99.75439     76.3 9.967e+03 5.428e-10
 99.77437     76.3 1.002e+04 5.343e-10
 99.79435     76.2 1.005e+04 5.333e-10
 99.81434     76.2 1.011e+04 5.315e-10
 99.82585     76.2 1.018e+04 5.291e-10
 99.83584     76.6 1.031e+04 6.058e-10
 99.85430     76.6 1.038e+04 6.062e-10
 99.87429     76.6 1.047e+04 6.074e-10
 99.89427     76.7 1.057e+04 6.128e-10
 99.91279     76.8 1.066e+04 6.251e-10
 99.92278     77.3 1.082e+04 7.623e-10
 99.93423     77.5 1.089e+04 7.769e-10
 99.95422     78.0 1.094e+04 7.846e-10
 99.97420     78.6 1.099e+04 7.905e-10
 99.99418     79.0 1.112e+04 8.080e-10
