# Columns:
#   distance along LOS (in CHIMPs)
#   peculiar velocity  (in km/s)
#   temperature (K)
#   HI number density
# pos=(204.853,141.316,10.6285), angles=(3.02901,1.39429)
  0.00037     33.2 1.243e+04 1.546e-09
  0.01058     33.6 1.227e+04 1.451e-09
  0.03023     34.2 1.208e+04 1.329e-09
  0.04989     34.8 1.175e+04 1.076e-09
  0.07947     36.4 1.184e+04 9.418e-10
  0.11888     36.8 1.048e+04 4.303e-10
  0.15819     36.9 9.186e+03 2.517e-10
  0.19750     37.8 8.688e+03 2.085e-10
  0.23681     40.1 8.650e+03 2.096e-10
  0.25820     43.0 8.671e+03 2.169e-10
  0.27786     42.3 8.783e+03 2.335e-10
  0.31544     45.1 8.872e+03 2.594e-10
  0.35475     47.8 9.080e+03 3.012e-10
  0.39406     50.2 9.364e+03 3.553e-10
  0.43337     52.2 9.736e+03 4.270e-10
  0.47268     54.2 1.016e+04 5.180e-10
  0.51199     56.0 1.045e+04 5.975e-10
  0.55130     57.4 1.052e+04 6.382e-10
  0.59062     58.3 1.054e+04 6.784e-10
  0.61160     57.0 1.131e+04 9.036e-10
  0.62133     56.0 1.247e+04 1.463e-09
  0.63956     55.0 1.378e+04 1.968e-09
  0.65921     53.5 1.510e+04 3.043e-09
  0.67887     52.4 1.595e+04 4.700e-09
  0.69853     52.0 1.639e+04 6.528e-09
  0.71818     52.2 1.656e+04 7.632e-09
  0.73784     52.3 1.661e+04 7.582e-09
  0.75749     52.2 1.659e+04 7.095e-09
  0.77715     51.7 1.647e+04 6.123e-09
  0.78825     50.5 1.609e+04 4.947e-09
  0.79808     49.4 1.624e+04 4.915e-09
  0.81646     47.8 1.569e+04 4.343e-09
  0.83612     47.0 1.520e+04 4.083e-09
  0.85577     46.8 1.477e+04 3.712e-09
  0.87543     46.7 1.418e+04 2.867e-09
  0.89508     45.9 1.461e+04 1.753e-09
  0.91474     44.1 1.576e+04 1.560e-09
  0.93439     42.1 1.748e+04 1.805e-09
  0.95405     40.5 1.821e+04 2.596e-09
  0.96500     39.5 1.840e+04 3.728e-09
  0.96986     39.6 1.956e+04 1.057e-08
  0.97852     39.0 1.933e+04 1.220e-08
  0.98835     38.5 1.951e+04 1.540e-08
  0.99818     38.2 1.938e+04 1.706e-08
  1.00801     38.0 1.963e+04 1.911e-08
  1.01783     37.8 1.992e+04 2.206e-08
  1.02766     37.7 2.016e+04 2.421e-08
  1.03749     37.4 2.053e+04 2.592e-08
  1.04732     37.3 2.076e+04 2.506e-08
  1.05327     36.7 2.148e+04 2.421e-08
  1.05819     37.6 2.084e+04 3.745e-08
  1.06697     36.7 2.150e+04 3.516e-08
  1.07680     34.7 2.247e+04 3.596e-08
  1.08663     31.5 2.446e+04 4.089e-08
  1.09646     28.2 2.551e+04 5.613e-08
  1.10628     26.0 2.529e+04 8.467e-08
  1.11611     24.7 2.485e+04 1.192e-07
  1.12594     23.6 2.477e+04 1.343e-07
  1.13577     22.5 2.492e+04 1.230e-07
  1.14165     21.4 2.513e+04 9.351e-08
  1.14656     22.2 2.358e+04 1.853e-07
  1.15542     21.4 2.433e+04 1.264e-07
  1.16359     20.7 2.516e+04 7.411e-08
  1.16851     21.2 2.489e+04 6.717e-08
  1.17508     19.9 2.584e+04 3.958e-08
  1.18491     18.6 2.586e+04 2.293e-08
  1.19473     16.3 2.525e+04 1.392e-08
  1.20953     13.4 2.374e+04 1.009e-08
  1.22923      8.1 1.985e+04 5.915e-09
  1.24889      4.8 1.594e+04 5.104e-09
  1.26854      3.8 1.484e+04 5.433e-09
  1.28820      3.3 1.519e+04 6.126e-09
  1.30785      2.3 1.547e+04 6.101e-09
  1.31849      1.5 1.529e+04 5.108e-09
  1.32832      1.7 1.542e+04 6.137e-09
  1.34716      1.1 1.441e+04 4.026e-09
  1.36682      0.0 1.315e+04 2.279e-09
  1.38648     -2.4 1.181e+04 1.222e-09
  1.41606     -3.9 1.037e+04 5.992e-10
  1.45547     -6.7 9.038e+03 2.496e-10
  1.49478     -6.5 8.713e+03 2.067e-10
  1.53409     -6.5 9.016e+03 2.673e-10
  1.57340     -6.1 9.566e+03 4.258e-10
  1.60279     -5.2 9.867e+03 5.837e-10
  1.62234     -5.0 9.929e+03 6.004e-10
  1.65192     -4.1 9.994e+03 6.260e-10
  1.67218     -2.2 9.557e+03 4.826e-10
  1.69184     -1.8 9.479e+03 4.606e-10
  1.73064     -0.3 9.071e+03 3.006e-10
  1.76996      0.4 8.770e+03 2.090e-10
  1.80927      1.9 8.546e+03 1.912e-10
  1.84858      3.8 8.586e+03 2.029e-10
  1.88789      6.0 8.710e+03 2.329e-10
  1.92720      8.3 8.858e+03 2.664e-10
  1.96651     10.7 8.987e+03 2.981e-10
  2.00582     13.1 9.116e+03 3.354e-10
  2.02568     15.6 9.204e+03 3.658e-10
  2.04533     16.1 8.880e+03 2.689e-10
  2.08445     18.6 8.867e+03 2.645e-10
  2.12376     21.0 8.916e+03 2.704e-10
  2.16307     23.4 9.076e+03 2.902e-10
  2.20238     25.8 9.207e+03 3.098e-10
  2.24169     28.2 9.318e+03 3.265e-10
  2.28100     30.6 9.419e+03 3.408e-10
  2.32032     33.0 9.520e+03 3.543e-10
  2.35952     35.6 9.647e+03 3.704e-10
  2.39883     38.7 9.424e+03 3.204e-10
  2.43825     41.1 9.669e+03 3.653e-10
  2.47756     43.1 9.891e+03 4.113e-10
  2.50695     44.8 1.015e+04 4.825e-10
  2.52650     45.2 1.025e+04 5.103e-10
  2.55609     46.8 1.038e+04 5.221e-10
  2.59550     48.6 1.062e+04 5.954e-10
  2.63481     50.2 1.075e+04 6.712e-10
  2.67412     51.7 1.085e+04 7.262e-10
  2.71301     53.1 1.106e+04 7.715e-10
  2.73267     54.2 1.073e+04 6.240e-10
  2.75274     54.9 1.098e+04 6.945e-10
  2.79205     54.9 1.127e+04 7.995e-10
  2.82144     54.3 1.153e+04 9.782e-10
  2.84100     54.2 1.160e+04 1.048e-09
  2.86065     53.7 1.178e+04 1.189e-09
  2.88031     53.1 1.187e+04 1.286e-09
  2.89939     52.4 1.184e+04 1.274e-09
  2.90922     52.5 1.178e+04 1.238e-09
  2.91962     51.8 1.171e+04 1.213e-09
  2.93927     51.2 1.136e+04 1.024e-09
  2.95893     50.9 1.121e+04 9.522e-10
  2.98851     50.7 1.052e+04 5.993e-10
  3.02792     50.2 9.587e+03 2.708e-10
  3.06651     49.3 8.784e+03 1.167e-10
  3.08616     49.3 8.766e+03 1.129e-10
  3.10654     48.8 8.306e+03 7.264e-11
  3.13673     49.1 8.182e+03 6.982e-11
  3.15638     49.1 8.138e+03 6.718e-11
  3.18517     49.9 8.123e+03 6.787e-11
  3.22448     51.0 8.143e+03 7.451e-11
  3.26379     52.0 8.269e+03 9.313e-11
  3.30310     52.8 8.509e+03 1.267e-10
  3.34241     53.6 8.873e+03 1.822e-10
  3.38172     54.3 9.320e+03 2.606e-10
  3.42000     54.8 9.754e+03 3.527e-10
  3.43966     53.7 9.745e+03 3.531e-10
  3.45042     54.0 9.974e+03 4.182e-10
  3.46998     54.1 1.009e+04 4.728e-10
  3.48963     54.3 1.018e+04 5.113e-10
  3.50929     54.4 1.037e+04 5.391e-10
  3.52894     53.8 1.069e+04 5.696e-10
  3.54860     52.0 1.193e+04 6.433e-10
  3.56826     49.6 1.311e+04 8.732e-10
  3.58791     47.2 1.374e+04 1.358e-09
  3.60638     45.3 1.413e+04 2.175e-09
  3.61621     42.8 1.475e+04 3.387e-09
  3.62722     41.9 1.552e+04 4.516e-09
  3.64688     41.1 1.612e+04 5.340e-09
  3.66653     40.1 1.629e+04 5.300e-09
  3.68619     39.2 1.608e+04 4.665e-09
  3.70585     37.9 1.543e+04 3.451e-09
  3.72550     36.1 1.453e+04 2.262e-09
  3.74516     33.5 1.362e+04 1.496e-09
  3.76481     30.7 1.324e+04 1.355e-09
  3.78313     27.6 1.344e+04 1.488e-09
  3.79296     25.4 1.343e+04 1.584e-09
  3.80412     22.4 1.412e+04 2.499e-09
  3.82378     19.9 1.496e+04 3.918e-09
  3.84344     17.8 1.559e+04 5.164e-09
  3.86309     16.5 1.541e+04 4.589e-09
  3.88275     15.4 1.461e+04 2.929e-09
  3.90240     12.0 1.414e+04 1.323e-09
  3.92206      5.2 1.337e+04 5.316e-10
  3.94171     -1.1 1.127e+04 3.184e-10
  3.95988     -3.3 1.062e+04 3.049e-10
  3.96970     -3.0 1.066e+04 2.719e-10
  3.98103     -3.4 1.070e+04 2.862e-10
  4.00068     -4.7 1.089e+04 3.582e-10
  4.02034     -5.0 1.093e+04 3.718e-10
  4.04992     -5.4 1.095e+04 4.460e-10
  4.08933     -6.2 1.073e+04 4.166e-10
  4.11871     -7.5 1.100e+04 3.673e-10
  4.13278     -8.1 1.098e+04 3.731e-10
  4.14096     -7.9 1.098e+04 3.717e-10
  4.14655     -7.8 1.108e+04 3.626e-10
  4.16795     -9.3 1.063e+04 3.345e-10
  4.20726    -10.0 1.037e+04 2.664e-10
  4.24657    -11.4 1.029e+04 2.138e-10
  4.28588    -12.1 1.004e+04 2.100e-10
  4.32520    -11.7 9.890e+03 2.251e-10
  4.36451    -11.1 9.892e+03 2.408e-10
  4.40382    -11.1 1.030e+04 3.200e-10
  4.43320    -10.7 1.045e+04 3.909e-10
  4.45276    -11.4 1.103e+04 5.026e-10
  4.48039    -11.2 1.113e+04 8.433e-10
  4.50014    -10.4 1.112e+04 6.506e-10
  4.52175     -9.9 1.133e+04 9.900e-10
  4.56106     -9.5 1.148e+04 1.065e-09
  4.60038     -9.3 1.118e+04 8.854e-10
  4.63969     -9.2 1.069e+04 6.728e-10
  4.67900     -8.8 1.021e+04 5.366e-10
  4.71831     -8.0 1.005e+04 4.457e-10
  4.74770     -7.5 1.008e+04 4.039e-10
  4.76725     -7.6 1.016e+04 4.066e-10
  4.78691     -7.5 1.015e+04 4.391e-10
  4.80656     -7.3 1.022e+04 4.732e-10
  4.82622     -7.0 1.026e+04 5.027e-10
  4.84361     -6.4 1.021e+04 5.238e-10
  4.85344     -6.4 1.026e+04 5.104e-10
  4.86553     -5.9 1.031e+04 5.029e-10
  4.88519     -5.6 1.037e+04 4.864e-10
  4.91477     -5.7 1.028e+04 4.309e-10
  4.95418     -5.1 1.003e+04 3.740e-10
  4.99349     -3.8 9.818e+03 2.993e-10
  5.03280     -2.3 9.610e+03 2.312e-10
  5.07211     -0.8 9.439e+03 1.742e-10
  5.10957      0.6 9.323e+03 1.398e-10
  5.12922      1.2 9.375e+03 1.543e-10
  5.15073      2.6 9.316e+03 1.440e-10
  5.18748      4.3 9.336e+03 1.473e-10
  5.20713      4.4 9.154e+03 8.164e-11
  5.22936      6.1 9.225e+03 8.494e-11
  5.26867      7.5 9.401e+03 9.650e-11
  5.30798      8.5 9.661e+03 1.367e-10
  5.34729      9.4 1.001e+04 2.399e-10
  5.38660     10.6 1.050e+04 4.217e-10
  5.42591     11.5 1.102e+04 6.031e-10
  5.46523     12.0 1.135e+04 6.900e-10
  5.50454     12.2 1.143e+04 6.811e-10
  5.54097     12.4 1.129e+04 6.013e-10
  5.56063     12.5 1.122e+04 5.703e-10
  5.58316     12.9 1.101e+04 4.491e-10
  5.62247     13.5 1.084e+04 3.329e-10
  5.66178     14.2 1.066e+04 2.409e-10
  5.70109     14.9 1.054e+04 1.790e-10
  5.74040     15.8 1.041e+04 1.538e-10
  5.77972     17.0 1.036e+04 1.541e-10
  5.81903     18.3 1.039e+04 1.686e-10
  5.85834     19.7 1.052e+04 2.057e-10
  5.89447     21.5 1.068e+04 2.505e-10
  5.91412     21.1 1.053e+04 2.230e-10
  5.93696     23.0 1.054e+04 2.292e-10
  5.97627     25.0 1.050e+04 2.200e-10
  6.01558     26.8 1.044e+04 1.967e-10
  6.05490     28.4 1.041e+04 1.743e-10
  6.09421     29.8 1.042e+04 1.675e-10
  6.13352     31.1 1.046e+04 1.741e-10
  6.17283     32.1 1.056e+04 2.055e-10
  6.21214     33.2 1.072e+04 2.620e-10
  6.24796     34.3 1.082e+04 3.057e-10
  6.26762     34.3 1.061e+04 2.521e-10
  6.29076     35.5 1.057e+04 2.369e-10
  6.33008     36.7 1.042e+04 1.854e-10
  6.36939     37.7 1.026e+04 1.366e-10
  6.40870     38.7 1.013e+04 1.060e-10
  6.44801     39.8 9.979e+03 9.421e-11
  6.48732     41.3 9.918e+03 9.335e-11
  6.52663     43.0 9.912e+03 9.450e-11
  6.56594     44.6 9.912e+03 9.740e-11
  6.60146     46.1 9.919e+03 1.031e-10
  6.62111     46.2 9.847e+03 9.553e-11
  6.64457     47.7 9.879e+03 1.064e-10
  6.68388     49.0 9.941e+03 1.206e-10
  6.72319     50.2 1.005e+04 1.509e-10
  6.76250     51.4 1.035e+04 2.204e-10
  6.80181     52.6 1.066e+04 3.169e-10
  6.83120     53.2 1.090e+04 4.216e-10
  6.85076     53.7 1.127e+04 5.617e-10
  6.87041     53.7 1.182e+04 7.803e-10
  6.89007     53.3 1.247e+04 1.151e-09
  6.90972     52.8 1.311e+04 1.778e-09
  6.92938     52.8 1.371e+04 2.721e-09
  6.94903     53.1 1.435e+04 3.881e-09
  6.96458     53.6 1.469e+04 4.611e-09
  6.97441     53.7 1.468e+04 4.681e-09
  6.98835     54.3 1.460e+04 4.432e-09
  7.00800     55.1 1.433e+04 3.728e-09
  7.02766     55.4 1.400e+04 2.787e-09
  7.04731     55.4 1.363e+04 2.014e-09
  7.06697     54.9 1.323e+04 1.530e-09
  7.08662     54.4 1.280e+04 1.316e-09
  7.10187     54.4 1.258e+04 1.317e-09
  7.11170     54.3 1.198e+04 8.871e-10
  7.12594     54.7 1.198e+04 9.262e-10
  7.14133     55.2 1.211e+04 1.046e-09
  7.15116     55.6 1.189e+04 9.058e-10
  7.16525     56.1 1.211e+04 1.062e-09
  7.18490     56.6 1.236e+04 1.278e-09
  7.20456     57.2 1.264e+04 1.561e-09
  7.22421     57.8 1.292e+04 1.902e-09
  7.24387     58.4 1.318e+04 2.255e-09
  7.26353     59.1 1.341e+04 2.524e-09
  7.28318     59.5 1.358e+04 2.635e-09
  7.30284     59.6 1.370e+04 2.701e-09
  7.31808     59.6 1.382e+04 2.727e-09
  7.32791     60.4 1.351e+04 2.479e-09
  7.34215     60.2 1.367e+04 2.634e-09
  7.36180     59.9 1.392e+04 2.817e-09
  7.38146     59.6 1.409e+04 2.959e-09
  7.40112     59.3 1.411e+04 2.958e-09
  7.42077     59.3 1.396e+04 2.710e-09
  7.44043     59.2 1.357e+04 2.107e-09
  7.46008     58.9 1.306e+04 1.472e-09
  7.47974     57.8 1.254e+04 1.001e-09
  7.49483     56.2 1.189e+04 7.330e-10
  7.50465     57.4 1.228e+04 8.543e-10
  7.51905     55.9 1.154e+04 6.707e-10
  7.53870     55.2 1.104e+04 6.129e-10
  7.55836     55.2 1.092e+04 5.974e-10
  7.57802     55.2 1.086e+04 5.866e-10
  7.59767     55.3 1.079e+04 5.749e-10
  7.61733     55.4 1.070e+04 5.611e-10
  7.63698     55.7 1.062e+04 5.480e-10
  7.65664     56.1 1.057e+04 5.394e-10
  7.67157     56.5 1.056e+04 5.344e-10
  7.68140     56.7 1.064e+04 5.651e-10
  7.69595     57.2 1.061e+04 5.552e-10
  7.71561     57.8 1.059e+04 5.394e-10
  7.73526     58.5 1.053e+04 5.087e-10
  7.75492     59.3 1.046e+04 4.602e-10
  7.77457     60.2 1.044e+04 3.968e-10
  7.79423     60.9 1.060e+04 3.334e-10
  7.81388     60.9 1.093e+04 3.040e-10
  7.83354     60.5 1.130e+04 3.255e-10
  7.84832     58.6 1.263e+04 4.712e-10
  7.85815     56.7 1.295e+04 5.692e-10
  7.87285     52.7 1.547e+04 1.606e-09
  7.89251     50.3 1.697e+04 4.553e-09
  7.91216     49.4 1.803e+04 1.029e-08
  7.92686     48.9 1.928e+04 1.410e-08
  7.93660     47.8 2.029e+04 1.756e-08
  7.94642     44.1 2.184e+04 2.181e-08
  7.95629     39.2 2.425e+04 2.775e-08
  7.96612     33.9 2.517e+04 3.572e-08
  7.97595     29.3 2.387e+04 3.976e-08
  7.98577     26.5 2.198e+04 3.878e-08
  7.99560     24.5 2.070e+04 3.512e-08
  8.00543     23.9 1.992e+04 2.723e-08
  8.01526     23.4 1.936e+04 2.070e-08
  8.02502     22.4 1.830e+04 1.192e-08
  8.03490     23.3 1.765e+04 1.022e-08
  8.04975     21.4 1.621e+04 3.754e-09
  8.06941     16.1 1.369e+04 1.460e-09
  8.09899     15.5 1.178e+04 9.129e-10
  8.13840     16.4 1.071e+04 5.971e-10
  8.17771     18.5 1.069e+04 5.413e-10
  8.20191     20.5 1.081e+04 5.963e-10
  8.21164     20.4 1.071e+04 5.300e-10
  8.22665     20.6 1.074e+04 5.341e-10
  8.24631     22.1 1.067e+04 5.325e-10
  8.26597     22.4 1.065e+04 5.294e-10
  8.29555     23.6 1.067e+04 5.569e-10
  8.33496     25.0 1.057e+04 5.268e-10
  8.36893     25.8 1.045e+04 4.848e-10
  8.38859     25.9 1.035e+04 4.416e-10
  8.41358     26.6 1.028e+04 4.266e-10
  8.45289     27.3 1.017e+04 3.957e-10
  8.49220     27.9 1.003e+04 3.619e-10
  8.53151     28.6 9.888e+03 3.277e-10
  8.57082     29.0 9.862e+03 3.113e-10
  8.61014     29.4 9.887e+03 3.030e-10
  8.64945     29.5 9.944e+03 2.985e-10
  8.68876     29.5 1.006e+04 2.838e-10
  8.72243     28.8 1.032e+04 2.938e-10
  8.74208     29.5 1.120e+04 5.806e-10
  8.76738     28.9 1.137e+04 6.188e-10
  8.80669     27.9 1.121e+04 5.920e-10
  8.84600     26.5 1.092e+04 5.559e-10
  8.88531     25.1 1.082e+04 5.701e-10
  8.92463     23.8 1.092e+04 6.410e-10
  8.96394     22.9 1.110e+04 6.996e-10
  8.99332     21.3 1.149e+04 8.618e-10
  9.01288     20.1 1.174e+04 9.914e-10
  9.03254     18.7 1.206e+04 1.165e-09
  9.05219     17.5 1.222e+04 1.357e-09
  9.07185     16.5 1.212e+04 1.441e-09
  9.08454     16.0 1.187e+04 1.370e-09
  9.08842     15.2 1.213e+04 1.562e-09
  9.09538     15.1 1.210e+04 1.574e-09
  9.11116     15.3 1.145e+04 1.194e-09
  9.13082     15.4 1.090e+04 7.998e-10
  9.15047     14.7 1.060e+04 5.248e-10
  9.17013     13.2 1.030e+04 3.401e-10
  9.19971     10.8 9.750e+03 2.956e-10
  9.23912     11.3 9.201e+03 2.552e-10
  9.27843     12.8 8.915e+03 2.431e-10
  9.31774     14.6 8.766e+03 2.060e-10
  9.35705     16.1 8.655e+03 1.625e-10
  9.39636     17.5 8.476e+03 1.398e-10
  9.42942     19.3 8.403e+03 1.390e-10
  9.44907     20.3 8.308e+03 1.297e-10
  9.47499     22.3 8.290e+03 1.350e-10
  9.51430     24.5 8.293e+03 1.462e-10
  9.55361     26.9 8.272e+03 1.494e-10
  9.59292     29.4 8.238e+03 1.448e-10
  9.63223     31.9 8.169e+03 1.289e-10
  9.67154     34.1 8.104e+03 1.079e-10
  9.71085     36.2 8.056e+03 9.125e-11
  9.75016     38.2 8.058e+03 9.064e-11
  9.78291     40.2 8.065e+03 9.229e-11
  9.80257     41.0 8.168e+03 1.079e-10
  9.82879     43.1 8.184e+03 1.133e-10
  9.86810     45.2 8.212e+03 1.222e-10
  9.90741     47.4 8.251e+03 1.341e-10
  9.94672     49.7 8.290e+03 1.446e-10
  9.98603     52.1 8.305e+03 1.495e-10
 10.02534     54.3 8.332e+03 1.488e-10
 10.06466     56.6 8.347e+03 1.492e-10
 10.10397     58.8 8.373e+03 1.517e-10
 10.13641     61.1 8.425e+03 1.595e-10
 10.15606     61.3 8.424e+03 1.577e-10
 10.18259     63.6 8.518e+03 1.752e-10
 10.22190     66.0 8.654e+03 2.004e-10
 10.26121     68.5 8.801e+03 2.276e-10
 10.30052     71.0 8.933e+03 2.475e-10
 10.33984     73.4 9.033e+03 2.616e-10
 10.37915     75.9 9.085e+03 2.704e-10
 10.41846     78.2 9.139e+03 2.724e-10
 10.45777     80.6 9.192e+03 2.704e-10
 10.48990     82.9 9.255e+03 2.698e-10
 10.50956     82.8 9.071e+03 2.041e-10
 10.53639     85.0 9.098e+03 2.040e-10
 10.57570     87.0 9.176e+03 2.101e-10
 10.61502     89.0 9.310e+03 2.329e-10
 10.65433     90.9 9.474e+03 2.684e-10
 10.69364     92.8 9.687e+03 3.046e-10
 10.73295     94.6 9.795e+03 3.380e-10
 10.77226     96.3 1.001e+04 3.363e-10
 10.81157     97.8 1.002e+04 3.223e-10
 10.84340     99.3 1.003e+04 2.914e-10
 10.86305     99.8 1.010e+04 3.256e-10
 10.89019    101.3 1.016e+04 2.911e-10
 10.92951    102.8 1.017e+04 2.492e-10
 10.96882    103.8 1.020e+04 2.207e-10
 11.00813    104.5 1.019e+04 2.070e-10
 11.04744    104.9 1.022e+04 2.154e-10
 11.06740    105.3 1.030e+04 2.418e-10
 11.08706    104.7 1.017e+04 2.290e-10
 11.12606    105.5 1.031e+04 2.633e-10
 11.16537    106.7 1.040e+04 2.809e-10
 11.19689    108.0 1.040e+04 2.719e-10
 11.21655    107.9 1.079e+04 3.832e-10
 11.24400    109.4 1.073e+04 3.324e-10
 11.28331    111.0 1.064e+04 2.735e-10
 11.32262    112.5 1.054e+04 2.262e-10
 11.36193    114.1 1.041e+04 2.006e-10
 11.40124    115.7 1.031e+04 1.851e-10
 11.44055    117.5 1.021e+04 1.761e-10
 11.47987    119.2 1.018e+04 1.772e-10
 11.51918    121.0 1.015e+04 1.827e-10
 11.55039    122.9 1.015e+04 1.938e-10
 11.57004    122.6 1.028e+04 2.045e-10
 11.59780    124.3 1.027e+04 2.174e-10
 11.63711    125.9 1.029e+04 2.466e-10
 11.67642    127.4 1.036e+04 2.918e-10
 11.71573    128.6 1.047e+04 3.453e-10
 11.75504    129.6 1.054e+04 3.923e-10
 11.79436    130.4 1.057e+04 4.223e-10
 11.83367    131.1 1.059e+04 4.385e-10
 11.87298    131.8 1.058e+04 4.513e-10
 11.90388    132.5 1.061e+04 4.789e-10
 11.92354    132.5 1.084e+04 5.674e-10
 11.95160    133.3 1.082e+04 5.769e-10
 11.99091    134.2 1.084e+04 5.921e-10
 12.03022    135.1 1.086e+04 6.000e-10
 12.06954    136.1 1.087e+04 5.777e-10
 12.10885    136.9 1.090e+04 5.080e-10
 12.14816    137.4 1.093e+04 4.291e-10
 12.18747    137.8 1.095e+04 3.600e-10
 12.22678    138.3 1.085e+04 3.096e-10
 12.25738    138.9 1.075e+04 2.694e-10
 12.27703    139.9 1.256e+04 5.311e-10
 12.30540    140.4 1.291e+04 4.680e-10
 12.34472    140.6 1.347e+04 4.061e-10
 12.38403    140.3 1.383e+04 3.341e-10
 12.42334    139.0 1.325e+04 2.713e-10
 12.46265    137.5 1.173e+04 2.493e-10
 12.50196    136.2 1.104e+04 3.376e-10
 12.53135    135.3 1.099e+04 4.958e-10
 12.55090    134.9 1.126e+04 7.204e-10
 12.57056    134.5 1.182e+04 1.053e-09
 12.59022    134.3 1.238e+04 1.455e-09
 12.60987    134.0 1.283e+04 1.842e-09
 12.62050    133.6 1.310e+04 2.055e-09
 12.63033    133.6 1.351e+04 2.390e-09
 12.64918    132.8 1.345e+04 2.326e-09
 12.66884    132.1 1.327e+04 2.130e-09
 12.68849    131.5 1.300e+04 1.865e-09
 12.70815    130.9 1.277e+04 1.631e-09
 12.72781    130.3 1.273e+04 1.521e-09
 12.74746    129.5 1.287e+04 1.565e-09
 12.76712    128.1 1.351e+04 1.808e-09
 12.78677    126.1 1.476e+04 2.546e-09
 12.79725    124.0 1.606e+04 4.037e-09
 12.80708    123.9 1.673e+04 6.208e-09
 12.82608    122.4 1.778e+04 9.820e-09
 12.84574    121.1 1.844e+04 1.321e-08
 12.86540    119.7 1.886e+04 1.495e-08
 12.88505    118.3 1.883e+04 1.424e-08
 12.90471    116.4 1.863e+04 1.190e-08
 12.92436    113.6 1.820e+04 8.750e-09
 12.94402    109.5 1.736e+04 6.039e-09
 12.96367    104.7 1.603e+04 4.229e-09
 12.97400    100.3 1.455e+04 3.154e-09
 12.98383    100.0 1.452e+04 3.118e-09
 13.00299     96.3 1.357e+04 2.543e-09
 13.02264     92.9 1.347e+04 2.297e-09
 13.04005     89.6 1.352e+04 2.338e-09
 13.04988     90.4 1.332e+04 2.131e-09
 13.06195     87.0 1.344e+04 2.263e-09
 13.08161     84.3 1.348e+04 2.573e-09
 13.10126     82.5 1.345e+04 2.851e-09
 13.12092     81.5 1.332e+04 2.832e-09
 13.14058     80.9 1.302e+04 2.658e-09
 13.15075     80.6 1.260e+04 2.241e-09
 13.16057     80.3 1.238e+04 1.935e-09
 13.17989     79.7 1.173e+04 1.282e-09
 13.19954     78.6 1.106e+04 7.937e-10
 13.21920     76.9 1.038e+04 4.943e-10
 13.23885     75.2 9.848e+03 3.706e-10
 13.25851     74.3 9.513e+03 3.335e-10
 13.28809     74.6 9.581e+03 3.518e-10
 13.31786     74.8 9.413e+03 3.430e-10
 13.33752     74.9 9.202e+03 3.062e-10
 13.36681     75.3 9.198e+03 3.050e-10
 13.40612     75.7 9.163e+03 2.854e-10
 13.44543     75.9 9.101e+03 2.462e-10
 13.48475     76.0 9.049e+03 2.173e-10
 13.52406     75.9 9.068e+03 2.153e-10
 13.56337     75.7 9.112e+03 2.224e-10
 13.60268     75.3 9.217e+03 2.475e-10
 13.64199     74.8 9.366e+03 2.812e-10
 13.67136     74.2 9.423e+03 3.022e-10
 13.69101     75.3 9.572e+03 3.501e-10
 13.72061     74.7 9.582e+03 3.648e-10
 13.75992     74.5 9.506e+03 3.551e-10
 13.79924     74.7 9.280e+03 3.088e-10
 13.83855     75.2 8.971e+03 2.311e-10
 13.87786     76.0 8.657e+03 1.513e-10
 13.91717     76.9 8.394e+03 9.155e-11
 13.95648     77.6 8.205e+03 6.126e-11
 13.99579     78.7 8.162e+03 5.762e-11
 14.02485     80.1 8.161e+03 5.890e-11
 14.04451     80.3 8.142e+03 5.669e-11
 14.07442     81.7 8.177e+03 6.800e-11
 14.11373     83.1 8.386e+03 9.926e-11
 14.15304     84.5 8.731e+03 1.585e-10
 14.19235     85.8 9.194e+03 2.509e-10
 14.23166     86.8 9.655e+03 3.517e-10
 14.27097     87.0 9.906e+03 3.800e-10
 14.31028     87.0 9.911e+03 3.720e-10
 14.34960     86.8 9.857e+03 3.378e-10
 14.37835     86.5 9.835e+03 3.197e-10
 14.39800     87.2 9.927e+03 3.375e-10
 14.42822     86.8 9.913e+03 3.252e-10
 14.46753     86.6 9.954e+03 3.314e-10
 14.50684     86.4 1.002e+04 3.441e-10
 14.53623     86.2 9.979e+03 3.493e-10
 14.55490     86.1 9.949e+03 3.554e-10
 14.56473     86.3 9.972e+03 3.496e-10
 14.57544     86.0 9.943e+03 3.574e-10
 14.59510     85.6 1.003e+04 3.664e-10
 14.61475     85.0 1.024e+04 3.836e-10
 14.63441     84.1 1.055e+04 4.182e-10
 14.65406     83.1 1.090e+04 4.744e-10
 14.67372     82.2 1.120e+04 5.559e-10
 14.69337     81.5 1.144e+04 6.669e-10
 14.71303     81.1 1.163e+04 8.027e-10
 14.73165     80.9 1.180e+04 9.530e-10
 14.74147     81.3 1.166e+04 8.709e-10
 14.75234     81.3 1.192e+04 1.026e-09
 14.77200     81.4 1.220e+04 1.128e-09
 14.79165     81.3 1.230e+04 1.133e-09
 14.82123     81.3 1.217e+04 9.812e-10
 14.86064     81.2 1.187e+04 6.950e-10
 14.89995     80.8 1.123e+04 3.763e-10
 14.92934     80.6 1.064e+04 2.645e-10
 14.94890     80.6 1.037e+04 2.322e-10
 14.96855     80.7 1.020e+04 2.234e-10
 14.98821     81.0 1.020e+04 2.245e-10
 15.00787     81.8 1.023e+04 2.312e-10
 15.02272     82.3 1.044e+04 2.519e-10
 15.03255     81.4 1.174e+04 3.602e-10
 15.04718     81.7 1.244e+04 4.953e-10
 15.06683     81.9 1.298e+04 7.193e-10
 15.08514     82.4 1.333e+04 1.060e-09
 15.09497     83.5 1.254e+04 6.168e-10
 15.10614     84.0 1.311e+04 9.076e-10
 15.12580     84.7 1.349e+04 1.295e-09
 15.14546     85.5 1.372e+04 1.764e-09
 15.16511     86.2 1.399e+04 2.311e-09
 15.18477     86.9 1.445e+04 3.083e-09
 15.20442     87.4 1.515e+04 4.148e-09
 15.21912     87.4 1.540e+04 4.401e-09
 15.22889     87.2 1.588e+04 4.839e-09
 15.23872     86.1 1.690e+04 6.343e-09
 15.24855     84.6 1.780e+04 9.399e-09
 15.25838     83.1 1.819e+04 1.440e-08
 15.26670     82.7 1.838e+04 2.332e-08
 15.27162     82.4 1.851e+04 2.126e-08
 15.27803     82.7 1.896e+04 3.849e-08
 15.28786     83.7 1.975e+04 6.848e-08
 15.29769     83.9 2.051e+04 9.826e-08
 15.30752     83.2 2.072e+04 1.004e-07
 15.31734     83.0 2.058e+04 8.919e-08
 15.32717     83.3 2.036e+04 6.320e-08
 15.33700     83.4 2.033e+04 3.952e-08
 15.34683     82.8 2.067e+04 2.501e-08
 15.35508     81.5 2.070e+04 1.758e-08
 15.35999     81.9 2.021e+04 1.327e-08
 15.36648     80.6 1.979e+04 1.016e-08
 15.37631     79.7 1.907e+04 8.511e-09
 15.38614     79.3 1.833e+04 7.459e-09
 15.39597     79.3 1.785e+04 6.664e-09
 15.40580     79.2 1.758e+04 6.152e-09
 15.41562     79.3 1.754e+04 5.967e-09
 15.42545     79.4 1.758e+04 5.999e-09
 15.43528     79.5 1.777e+04 6.208e-09
 15.44345     79.6 1.810e+04 6.677e-09
 15.44837     79.3 1.645e+04 5.226e-09
 15.45493     79.5 1.676e+04 5.750e-09
 15.46476     79.9 1.719e+04 6.514e-09
 15.47459     80.1 1.772e+04 7.597e-09
 15.48442     80.2 1.830e+04 9.018e-09
 15.49425     80.4 1.892e+04 1.089e-08
 15.50407     80.4 1.960e+04 1.333e-08
 15.51390     80.4 2.030e+04 1.634e-08
 15.52074     80.5 2.090e+04 1.974e-08
 15.52566     81.1 1.977e+04 1.036e-08
 15.53183     81.2 2.041e+04 1.163e-08
 15.53674     81.5 1.902e+04 1.156e-08
 15.54339     81.9 1.949e+04 1.297e-08
 15.55321     82.3 1.990e+04 1.365e-08
 15.56304     82.5 2.005e+04 1.364e-08
 15.57287     82.8 2.000e+04 1.383e-08
 15.58270     83.1 1.985e+04 1.376e-08
 15.59749     83.5 2.005e+04 1.664e-08
 15.61538     84.9 1.954e+04 1.474e-08
 15.62521     85.5 1.907e+04 1.509e-08
 15.63685     86.8 1.850e+04 1.242e-08
 15.65650     88.1 1.796e+04 9.931e-09
 15.67616     89.2 1.755e+04 8.231e-09
 15.69581     90.1 1.727e+04 7.253e-09
 15.71547     91.2 1.708e+04 6.556e-09
 15.73513     92.5 1.691e+04 5.973e-09
 15.75478     93.8 1.679e+04 5.429e-09
 15.77444     95.1 1.663e+04 4.864e-09
 15.79213     96.3 1.639e+04 4.340e-09
 15.80196     96.0 1.538e+04 4.144e-09
 15.81375     97.1 1.525e+04 4.166e-09
 15.83340     97.8 1.524e+04 4.371e-09
 15.85306     98.6 1.545e+04 4.810e-09
 15.87272     99.6 1.568e+04 5.321e-09
 15.89237    100.6 1.592e+04 5.850e-09
 15.91203    101.5 1.622e+04 6.332e-09
 15.93168    102.4 1.653e+04 6.638e-09
 15.95134    103.3 1.684e+04 6.616e-09
 15.96888    104.2 1.712e+04 6.298e-09
 15.97871    104.2 1.620e+04 6.634e-09
 15.99065    105.0 1.592e+04 5.547e-09
 16.00914    105.3 1.550e+04 4.240e-09
 16.01897    106.8 2.017e+04 8.533e-09
 16.02996    106.9 2.150e+04 6.756e-09
 16.04962    106.4 2.175e+04 6.165e-09
 16.06927    104.9 2.175e+04 6.415e-09
 16.08893    100.9 2.352e+04 7.962e-09
 16.10362     97.5 2.336e+04 9.046e-09
 16.11340     95.2 2.263e+04 9.933e-09
 16.12323     93.0 2.197e+04 1.122e-08
 16.13306     90.7 2.170e+04 1.340e-08
 16.14288     89.4 2.173e+04 1.589e-08
 16.15044     88.8 2.161e+04 1.806e-08
 16.15536     88.5 2.001e+04 1.572e-08
 16.16254     88.0 2.009e+04 1.609e-08
 16.17237     87.6 2.002e+04 1.574e-08
 16.18716     86.5 1.971e+04 1.338e-08
 16.20686     84.1 2.011e+04 7.123e-09
 16.22652     76.3 2.273e+04 5.712e-09
 16.24617     66.1 2.382e+04 6.746e-09
 16.26583     58.9 2.192e+04 1.280e-08
 16.28052     57.4 2.109e+04 1.639e-08
 16.29030     57.2 2.088e+04 1.927e-08
 16.30013     57.0 2.092e+04 2.294e-08
 16.30996     57.1 2.099e+04 2.474e-08
 16.31978     56.8 2.113e+04 2.394e-08
 16.32719     56.5 2.114e+04 2.273e-08
 16.33215     55.9 2.093e+04 2.106e-08
 16.34445     54.8 2.076e+04 1.645e-08
 16.36411     53.1 1.972e+04 1.003e-08
 16.38376     49.8 1.777e+04 5.966e-09
 16.40342     45.7 1.626e+04 4.488e-09
 16.42307     42.5 1.618e+04 4.756e-09
 16.44273     40.4 1.638e+04 5.423e-09
 16.46239     38.8 1.654e+04 6.142e-09
 16.48204     37.3 1.659e+04 6.011e-09
 16.49912     35.8 1.637e+04 5.376e-09
 16.50895     35.0 1.639e+04 5.267e-09
 16.52135     33.3 1.585e+04 4.247e-09
 16.54101     30.2 1.473e+04 2.874e-09
 16.56066     26.8 1.323e+04 1.895e-09
 16.58032     23.7 1.235e+04 1.483e-09
 16.59998     21.3 1.228e+04 1.504e-09
 16.61963     19.4 1.243e+04 1.652e-09
 16.63929     18.0 1.273e+04 2.043e-09
 16.65894     15.9 1.400e+04 2.967e-09
 16.67364     15.7 1.395e+04 3.056e-09
 16.68068     15.5 1.407e+04 3.150e-09
 16.68560     14.5 1.476e+04 3.792e-09
 16.69324     13.8 1.539e+04 4.205e-09
 16.70307     13.3 1.599e+04 4.810e-09
 16.71290     12.1 1.714e+04 5.885e-09
 16.72273      9.5 1.904e+04 7.923e-09
 16.73255      5.8 2.070e+04 1.177e-08
 16.74238      4.1 2.089e+04 1.511e-08
 16.75221      2.8 2.065e+04 1.630e-08
 16.76204      1.1 2.045e+04 1.587e-08
 16.76906     -1.5 2.004e+04 1.560e-08
 16.77397     -1.6 2.005e+04 1.808e-08
 16.78169     -3.5 1.997e+04 1.829e-08
 16.79152     -5.5 2.044e+04 2.027e-08
 16.80135     -7.0 2.137e+04 2.320e-08
 16.81118     -8.5 2.190e+04 2.754e-08
 16.82100     -9.8 2.226e+04 3.024e-08
 16.83083    -11.0 2.189e+04 3.262e-08
 16.84066    -12.1 2.179e+04 3.354e-08
 16.85049    -13.3 2.138e+04 3.373e-08
 16.85743    -14.2 2.110e+04 3.214e-08
 16.86235    -14.2 2.114e+04 2.984e-08
 16.87014    -15.2 2.078e+04 2.655e-08
 16.87997    -16.0 2.037e+04 2.362e-08
 16.89476    -17.1 1.932e+04 1.611e-08
 16.91447    -18.6 1.814e+04 1.019e-08
 16.93412    -20.5 1.676e+04 6.283e-09
 16.95378    -22.3 1.536e+04 4.027e-09
 16.97343    -23.5 1.417e+04 2.766e-09
 16.99309    -24.0 1.315e+04 2.013e-09
 17.00539    -24.1 1.221e+04 1.513e-09
 17.01521    -23.0 1.287e+04 1.911e-09
 17.02936    -23.1 1.206e+04 1.448e-09
 17.03919    -22.9 1.179e+04 1.322e-09
 17.05206    -22.7 1.135e+04 1.098e-09
 17.07171    -22.7 1.124e+04 9.630e-10
 17.09137    -22.9 1.134e+04 9.378e-10
 17.11102    -23.4 1.144e+04 9.540e-10
 17.13068    -23.7 1.152e+04 1.028e-09
 17.15034    -24.3 1.210e+04 1.383e-09
 17.16999    -28.4 1.561e+04 2.643e-09
 17.18965    -34.3 1.993e+04 7.756e-09
 17.20434    -35.3 2.092e+04 1.440e-08
 17.21093    -36.0 2.124e+04 2.047e-08
 17.21584    -34.6 2.068e+04 1.702e-08
 17.22395    -34.3 2.105e+04 2.167e-08
 17.23377    -34.1 2.107e+04 2.554e-08
 17.24360    -33.6 2.114e+04 2.797e-08
 17.25343    -33.4 2.116e+04 2.789e-08
 17.26326    -33.3 2.107e+04 2.507e-08
 17.27309    -33.7 2.100e+04 2.090e-08
 17.28291    -34.6 2.077e+04 1.714e-08
 17.29274    -35.3 2.078e+04 1.388e-08
 17.29930    -36.5 2.064e+04 1.080e-08
 17.30421    -36.9 2.011e+04 8.772e-09
 17.31240    -38.8 1.964e+04 6.964e-09
 17.32222    -41.5 1.788e+04 5.199e-09
 17.33205    -43.1 1.643e+04 4.384e-09
 17.34684    -45.7 1.450e+04 3.544e-09
 17.36655    -46.1 1.400e+04 3.480e-09
 17.38286    -45.9 1.353e+04 3.345e-09
 17.39269    -45.7 1.436e+04 4.149e-09
 17.40586    -45.5 1.435e+04 4.254e-09
 17.42551    -45.5 1.449e+04 4.203e-09
 17.44517    -46.6 1.497e+04 4.091e-09
 17.46483    -49.1 1.552e+04 4.193e-09
 17.48448    -51.9 1.586e+04 4.743e-09
 17.50414    -53.8 1.600e+04 5.941e-09
 17.52379    -54.2 1.635e+04 7.593e-09
 17.54345    -53.8 1.652e+04 8.984e-09
 17.55961    -52.3 1.656e+04 9.266e-09
 17.56943    -52.9 1.718e+04 9.928e-09
 17.58276    -51.6 1.696e+04 8.586e-09
 17.60242    -50.6 1.660e+04 6.898e-09
 17.62207    -49.9 1.612e+04 5.351e-09
 17.64173    -49.4 1.558e+04 4.274e-09
 17.66138    -49.2 1.505e+04 3.654e-09
 17.68104    -48.8 1.461e+04 3.304e-09
 17.70069    -48.0 1.415e+04 3.094e-09
 17.72035    -46.7 1.386e+04 2.973e-09
 17.73635    -45.3 1.367e+04 2.850e-09
 17.74618    -45.5 1.393e+04 3.102e-09
 17.75966    -44.2 1.364e+04 2.829e-09
 17.77932    -42.8 1.338e+04 2.545e-09
 17.79897    -41.7 1.311e+04 2.257e-09
 17.81863    -40.6 1.281e+04 1.980e-09
 17.83828    -39.7 1.261e+04 1.785e-09
 17.85794    -38.8 1.251e+04 1.689e-09
 17.87760    -38.1 1.244e+04 1.639e-09
 17.89725    -37.2 1.242e+04 1.629e-09
 17.91310    -36.6 1.243e+04 1.677e-09
 17.92293    -36.7 1.250e+04 1.705e-09
 17.93656    -36.4 1.279e+04 1.910e-09
 17.95622    -36.2 1.333e+04 2.307e-09
 17.97587    -35.9 1.402e+04 2.949e-09
 17.99181    -35.3 1.459e+04 3.677e-09
 18.00164    -35.7 1.476e+04 3.934e-09
 18.01519    -34.8 1.514e+04 4.630e-09
 18.03484    -33.7 1.533e+04 4.968e-09
 18.05450    -32.7 1.526e+04 4.932e-09
 18.07415    -31.5 1.494e+04 4.315e-09
 18.08985    -30.5 1.468e+04 3.700e-09
 18.09968    -30.5 1.478e+04 4.099e-09
 18.11346    -29.7 1.443e+04 3.424e-09
 18.13312    -29.0 1.436e+04 3.238e-09
 18.15278    -29.7 1.591e+04 3.846e-09
 18.17243    -35.0 2.182e+04 9.006e-09
 18.18309    -38.1 2.350e+04 2.564e-08
 18.18795    -39.6 2.673e+04 3.063e-08
 18.19690    -41.8 2.522e+04 1.178e-07
 18.20673    -42.6 2.455e+04 2.974e-07
 18.21656    -48.2 2.545e+04 3.306e-07
 18.22639    -53.5 2.389e+04 2.976e-07
 18.23621    -55.0 2.434e+04 1.213e-07
 18.24604    -55.1 2.464e+04 3.651e-08
 18.25587    -57.6 2.293e+04 1.395e-08
 18.26655    -60.3 1.985e+04 7.505e-09
 18.27642    -61.8 2.003e+04 7.709e-09
 18.29037    -64.2 1.683e+04 3.711e-09
 18.31002    -65.9 1.428e+04 1.750e-09
 18.32968    -67.0 1.299e+04 1.189e-09
 18.34933    -67.5 1.221e+04 9.991e-10
 18.36899    -67.7 1.193e+04 9.043e-10
 18.38864    -68.1 1.178e+04 8.414e-10
 18.40830    -68.5 1.175e+04 8.359e-10
 18.42795    -69.0 1.179e+04 8.637e-10
 18.44334    -69.5 1.183e+04 9.006e-10
 18.45317    -70.2 1.187e+04 9.385e-10
 18.46727    -70.5 1.181e+04 9.212e-10
 18.48692    -70.7 1.168e+04 8.603e-10
 18.50658    -70.9 1.158e+04 7.763e-10
 18.52623    -71.3 1.162e+04 7.112e-10
 18.54589    -72.0 1.169e+04 6.932e-10
 18.56554    -73.1 1.215e+04 6.929e-10
 18.58520    -74.3 1.264e+04 7.844e-10
 18.60486    -75.2 1.285e+04 9.841e-10
 18.62009    -75.5 1.289e+04 1.224e-09
 18.62992    -75.8 1.316e+04 1.499e-09
 18.64417    -75.7 1.318e+04 1.698e-09
 18.66382    -75.6 1.325e+04 1.775e-09
 18.68348    -75.5 1.325e+04 1.773e-09
 18.70313    -75.5 1.304e+04 1.584e-09
 18.72279    -75.6 1.277e+04 1.391e-09
 18.74245    -75.7 1.253e+04 1.236e-09
 18.76210    -75.6 1.251e+04 1.134e-09
 18.78176    -75.3 1.262e+04 1.085e-09
 18.79684    -74.9 1.289e+04 1.044e-09
 18.80667    -75.2 1.287e+04 1.175e-09
 18.82107    -74.9 1.300e+04 1.035e-09
 18.84072    -74.6 1.290e+04 9.441e-10
 18.86038    -74.3 1.260e+04 8.855e-10
 18.88004    -73.9 1.222e+04 8.759e-10
 18.89969    -73.1 1.189e+04 8.908e-10
 18.91935    -71.9 1.170e+04 9.066e-10
 18.93900    -70.6 1.158e+04 9.438e-10
 18.95866    -70.2 1.190e+04 1.040e-09
 18.97359    -71.5 1.350e+04 1.404e-09
 18.98333    -73.6 1.420e+04 1.549e-09
 18.99788    -76.2 1.709e+04 2.441e-09
 19.01763    -80.7 2.051e+04 7.256e-09
 19.03232    -81.1 2.081e+04 1.179e-08
 19.04210    -81.9 2.148e+04 1.666e-08
 19.05193    -82.5 2.198e+04 2.132e-08
 19.06175    -83.5 2.256e+04 2.466e-08
 19.06678    -84.5 2.304e+04 2.556e-08
 19.07169    -86.4 2.384e+04 3.085e-08
 19.08141    -88.5 2.400e+04 3.054e-08
 19.09124    -91.3 2.388e+04 2.764e-08
 19.10106    -94.8 2.319e+04 2.491e-08
 19.11089    -98.1 2.191e+04 2.359e-08
 19.12072   -100.5 2.045e+04 2.323e-08
 19.13055   -102.1 1.983e+04 2.191e-08
 19.14038   -103.3 1.954e+04 2.021e-08
 19.15020   -104.4 1.941e+04 1.841e-08
 19.16003   -106.6 1.995e+04 1.837e-08
 19.16986   -107.7 1.982e+04 1.560e-08
 19.17969   -109.0 1.966e+04 1.331e-08
 19.18952   -110.4 1.942e+04 1.153e-08
 19.19934   -112.0 1.919e+04 9.948e-09
 19.20917   -113.4 1.878e+04 8.647e-09
 19.21900   -114.6 1.833e+04 7.657e-09
 19.23379   -116.4 1.763e+04 6.477e-09
 19.25349   -118.7 1.619e+04 4.969e-09
 19.27315   -119.5 1.550e+04 4.293e-09
 19.29281   -120.2 1.486e+04 3.755e-09
 19.31246   -120.5 1.461e+04 3.494e-09
 19.32708   -120.8 1.453e+04 3.444e-09
 19.33691   -121.8 1.450e+04 3.454e-09
 19.35177   -122.2 1.470e+04 3.588e-09
 19.37143   -122.7 1.495e+04 3.941e-09
 19.39108   -123.1 1.507e+04 4.260e-09
 19.41074   -123.3 1.507e+04 4.356e-09
 19.43039   -123.5 1.484e+04 4.310e-09
 19.45005   -123.3 1.412e+04 3.547e-09
 19.46971   -122.9 1.330e+04 2.482e-09
 19.48936   -122.9 1.246e+04 1.627e-09
 19.50383   -123.1 1.167e+04 1.071e-09
 19.51366   -123.6 1.138e+04 9.913e-10
 19.52867   -123.9 1.080e+04 7.031e-10
 19.54833   -123.9 1.035e+04 5.268e-10
 19.56798   -123.7 1.000e+04 4.183e-10
 19.58764   -123.0 9.813e+03 3.632e-10
 19.61722   -122.2 9.774e+03 3.421e-10
 19.65663   -121.7 9.739e+03 3.318e-10
 19.68077   -121.0 9.726e+03 3.307e-10
 19.70043   -121.5 9.618e+03 3.145e-10
 19.73525   -120.9 9.681e+03 3.265e-10
 19.77456   -120.5 9.903e+03 3.594e-10
 19.80395   -121.1 1.017e+04 4.158e-10
 19.82351   -121.9 1.044e+04 4.902e-10
 19.84316   -122.4 1.067e+04 5.913e-10
 19.85732   -122.5 1.088e+04 6.984e-10
 19.86715   -122.2 1.066e+04 6.253e-10
 19.88248   -122.2 1.081e+04 7.221e-10
 19.90213   -122.0 1.095e+04 7.990e-10
 19.92179   -121.9 1.104e+04 8.523e-10
 19.94144   -121.9 1.109e+04 8.908e-10
 19.96110   -122.0 1.108e+04 9.287e-10
 19.97448   -122.2 1.106e+04 9.822e-10
 19.98430   -121.3 1.079e+04 6.947e-10
 20.00041   -121.6 1.083e+04 7.467e-10
 20.02007   -121.9 1.087e+04 8.170e-10
 20.03407   -122.0 1.094e+04 8.916e-10
 20.04390   -121.5 1.090e+04 8.253e-10
 20.05938   -121.8 1.100e+04 8.982e-10
 20.07903   -122.1 1.106e+04 9.313e-10
 20.09869   -122.4 1.107e+04 9.352e-10
 20.11834   -122.8 1.099e+04 8.824e-10
 20.13800   -123.1 1.079e+04 7.696e-10
 20.15766   -123.4 1.056e+04 6.509e-10
 20.17731   -123.6 1.037e+04 5.477e-10
 20.19697   -123.8 1.024e+04 4.604e-10
 20.21082   -123.9 1.014e+04 3.899e-10
 20.22065   -123.5 1.009e+04 3.727e-10
 20.23628   -123.7 1.017e+04 3.266e-10
 20.25593   -123.9 1.027e+04 3.130e-10
 20.27559   -123.8 1.048e+04 3.101e-10
 20.29525   -123.9 1.056e+04 3.103e-10
 20.32483   -124.0 1.069e+04 3.255e-10
 20.36424   -123.1 1.075e+04 3.456e-10
 20.38776   -122.2 1.101e+04 4.145e-10
 20.40742   -121.9 1.087e+04 4.231e-10
 20.44286   -121.5 1.138e+04 5.848e-10
 20.47224   -121.0 1.155e+04 7.084e-10
 20.49180   -121.3 1.182e+04 8.583e-10
 20.51146   -121.4 1.221e+04 1.136e-09
 20.53111   -121.2 1.254e+04 1.399e-09
 20.55077   -120.9 1.280e+04 1.633e-09
 20.56431   -120.7 1.293e+04 1.764e-09
 20.57414   -120.7 1.291e+04 1.759e-09
 20.59008   -120.5 1.289e+04 1.771e-09
 20.60974   -120.3 1.264e+04 1.624e-09
 20.62939   -120.0 1.225e+04 1.323e-09
 20.64905   -120.0 1.183e+04 1.041e-09
 20.66870   -120.1 1.145e+04 8.386e-10
 20.68836   -120.4 1.120e+04 7.081e-10
 20.70801   -120.6 1.105e+04 6.391e-10
 20.72767   -120.7 1.100e+04 6.142e-10
 20.74106   -120.8 1.099e+04 6.107e-10
 20.75089   -120.9 1.087e+04 5.517e-10
 20.76698   -121.1 1.092e+04 5.621e-10
 20.78664   -121.3 1.096e+04 5.825e-10
 20.80629   -121.5 1.096e+04 6.035e-10
 20.82595   -121.6 1.092e+04 6.190e-10
 20.84560   -121.6 1.087e+04 6.228e-10
 20.86526   -121.4 1.072e+04 6.086e-10
 20.88492   -121.1 1.057e+04 5.723e-10
 20.90457   -120.8 1.043e+04 5.181e-10
 20.91781   -120.4 1.033e+04 4.632e-10
 20.92764   -120.0 1.027e+04 4.075e-10
 20.94388   -119.5 1.026e+04 3.777e-10
 20.96090   -119.2 1.025e+04 3.642e-10
 20.97072   -120.4 1.041e+04 3.709e-10
 20.98319   -120.3 1.055e+04 3.651e-10
 21.00285   -120.3 1.075e+04 3.768e-10
 21.02251   -120.2 1.097e+04 3.976e-10
 21.04216   -120.0 1.113e+04 4.288e-10
 21.06182   -119.4 1.114e+04 4.568e-10
 21.08147   -118.8 1.112e+04 4.686e-10
 21.09456   -117.9 1.102e+04 4.699e-10
 21.10438   -117.5 1.093e+04 4.689e-10
 21.12078   -116.7 1.083e+04 4.678e-10
 21.15037   -115.7 1.064e+04 4.593e-10
 21.18977   -114.2 1.034e+04 3.894e-10
 21.22909   -112.2 9.959e+03 3.213e-10
 21.26840   -110.0 9.637e+03 2.735e-10
 21.30771   -107.7 9.438e+03 2.485e-10
 21.34702   -105.3 9.324e+03 2.401e-10
 21.38633   -103.0 9.275e+03 2.389e-10
 21.42564   -100.8 9.247e+03 2.419e-10
 21.44825    -98.7 9.242e+03 2.375e-10
 21.46790    -98.2 9.249e+03 2.373e-10
 21.50427    -96.3 9.195e+03 2.230e-10
 21.54358    -94.4 9.102e+03 1.968e-10
 21.58289    -92.6 9.001e+03 1.713e-10
 21.62220    -90.9 8.974e+03 1.623e-10
 21.66151    -89.3 9.052e+03 1.642e-10
 21.70082    -87.8 9.357e+03 2.107e-10
 21.74013    -86.1 9.709e+03 2.916e-10
 21.77944    -84.1 9.963e+03 3.720e-10
 21.80174    -82.1 1.000e+04 4.011e-10
 21.82140    -81.7 9.722e+03 3.212e-10
 21.85807    -79.8 9.743e+03 3.297e-10
 21.89738    -77.9 9.608e+03 3.085e-10
 21.93669    -75.7 9.355e+03 2.542e-10
 21.97600    -73.6 9.060e+03 1.952e-10
 22.01531    -71.3 8.786e+03 1.481e-10
 22.05462    -69.0 8.579e+03 1.183e-10
 22.09394    -66.6 8.442e+03 1.043e-10
 22.13325    -64.1 8.389e+03 1.008e-10
 22.15524    -61.4 8.361e+03 1.025e-10
 22.17489    -60.7 8.293e+03 8.385e-11
 22.21187    -58.1 8.291e+03 8.888e-11
 22.25118    -55.5 8.340e+03 9.858e-11
 22.29049    -53.0 8.458e+03 1.116e-10
 22.32980    -50.7 8.639e+03 1.343e-10
 22.36912    -48.7 8.985e+03 1.772e-10
 22.40843    -47.0 9.635e+03 2.589e-10
 22.43781    -44.9 9.750e+03 2.816e-10
 22.45737    -45.0 9.911e+03 3.154e-10
 22.47703    -44.6 1.039e+04 4.516e-10
 22.49668    -44.7 1.074e+04 6.161e-10
 22.50854    -44.3 1.109e+04 8.604e-10
 22.51836    -43.5 1.081e+04 6.499e-10
 22.53599    -43.4 1.115e+04 8.823e-10
 22.55565    -43.0 1.165e+04 1.221e-09
 22.57530    -42.8 1.218e+04 1.654e-09
 22.59496    -42.7 1.291e+04 2.038e-09
 22.61462    -42.8 1.362e+04 2.427e-09
 22.63427    -43.2 1.429e+04 2.613e-09
 22.65393    -43.3 1.471e+04 2.597e-09
 22.67358    -43.9 1.488e+04 2.133e-09
 22.68528    -44.9 1.402e+04 1.570e-09
 22.69511    -44.1 1.473e+04 2.109e-09
 22.71289    -45.4 1.320e+04 1.352e-09
 22.73255    -46.0 1.175e+04 9.623e-10
 22.76213    -45.7 1.093e+04 7.434e-10
 22.80154    -43.4 1.015e+04 5.157e-10
 22.84085    -40.9 9.602e+03 3.465e-10
 22.86223    -38.6 9.271e+03 2.443e-10
 22.88188    -39.1 9.225e+03 2.319e-10
 22.91947    -36.8 9.024e+03 1.787e-10
 22.94376    -34.4 8.862e+03 1.470e-10
 22.96342    -34.7 8.594e+03 1.023e-10
 22.99810    -32.1 8.463e+03 8.383e-11
 23.03741    -29.4 8.379e+03 7.212e-11
 23.07672    -26.9 8.338e+03 6.522e-11
 23.11603    -24.4 8.388e+03 6.388e-11
 23.15534    -22.7 8.648e+03 7.766e-11
 23.19465    -21.0 8.817e+03 1.214e-10
 23.21572    -18.4 9.146e+03 2.070e-10
 23.23538    -19.1 9.276e+03 2.371e-10
 23.27328    -16.0 9.741e+03 3.515e-10
 23.31259    -13.4 1.013e+04 4.259e-10
 23.35190    -11.0 1.051e+04 4.915e-10
 23.38129     -9.1 1.063e+04 5.203e-10
 23.39227     -8.5 1.084e+04 5.636e-10
 23.40210     -9.1 1.089e+04 6.065e-10
 23.42050     -8.5 1.131e+04 7.531e-10
 23.44015     -8.7 1.219e+04 9.991e-10
 23.45981    -10.7 1.431e+04 1.812e-09
 23.47947    -13.0 1.710e+04 3.738e-09
 23.49912    -13.1 1.836e+04 7.382e-09
 23.51878    -11.5 1.830e+04 1.096e-08
 23.53347     -9.8 1.810e+04 1.219e-08
 23.54325     -8.9 1.774e+04 1.160e-08
 23.55804     -7.9 1.687e+04 9.298e-09
 23.56902     -6.4 1.660e+04 6.603e-09
 23.57885     -7.4 1.563e+04 4.544e-09
 23.59740     -8.1 1.550e+04 3.462e-09
 23.61706     -9.6 1.417e+04 2.523e-09
 23.63671    -10.9 1.309e+04 1.908e-09
 23.65637    -11.5 1.264e+04 1.650e-09
 23.67602    -11.3 1.240e+04 1.689e-09
 23.69568    -11.0 1.229e+04 1.668e-09
 23.71533    -10.4 1.219e+04 1.738e-09
 23.73499     -9.5 1.204e+04 1.729e-09
 23.74577     -8.2 1.181e+04 1.666e-09
 23.75560     -7.8 1.156e+04 1.486e-09
 23.77430     -6.4 1.125e+04 1.320e-09
 23.79396     -5.2 1.101e+04 1.131e-09
 23.81361     -3.9 1.069e+04 9.498e-10
 23.83327     -2.5 1.038e+04 8.189e-10
 23.85292     -1.3 1.006e+04 6.604e-10
 23.87258     -0.6 9.901e+03 5.720e-10
 23.89224      0.6 9.782e+03 5.350e-10
 23.91189      1.5 9.844e+03 5.567e-10
 23.92252      3.2 9.821e+03 5.856e-10
 23.93078      3.6 9.434e+03 4.312e-10
 23.93981      3.4 9.404e+03 4.272e-10
 23.95120      4.3 9.452e+03 4.508e-10
 23.97086      6.2 9.497e+03 4.844e-10
 23.99051      7.4 9.670e+03 5.345e-10
 24.01017      9.1 9.808e+03 5.973e-10
 24.02983     10.6 9.946e+03 6.550e-10
 24.04948     12.2 1.010e+04 7.182e-10
 24.06914     13.9 1.028e+04 7.788e-10
 24.08879     15.5 1.038e+04 8.212e-10
 24.09926     17.0 1.037e+04 8.189e-10
 24.10909     17.0 9.797e+03 5.850e-10
 24.12810     18.6 9.765e+03 5.739e-10
 24.14776     20.1 9.796e+03 5.682e-10
 24.16742     21.7 9.808e+03 5.580e-10
 24.18707     23.0 9.816e+03 5.474e-10
 24.20673     24.4 9.812e+03 5.445e-10
 24.22638     25.9 9.853e+03 5.509e-10
 24.24604     27.1 9.993e+03 5.814e-10
 24.26569     28.2 1.018e+04 6.321e-10
 24.27601     29.0 1.046e+04 7.209e-10
 24.28584     28.9 9.911e+03 5.398e-10
 24.30500     29.6 1.031e+04 6.748e-10
 24.32466     30.1 1.086e+04 9.188e-10
 24.34432     30.6 1.140e+04 1.280e-09
 24.36397     31.4 1.188e+04 1.730e-09
 24.38363     32.5 1.233e+04 2.176e-09
 24.40328     33.5 1.269e+04 2.384e-09
 24.42294     34.2 1.277e+04 2.335e-09
 24.44259     34.8 1.280e+04 2.106e-09
 24.45276     35.0 1.276e+04 1.676e-09
 24.46259     34.8 1.298e+04 1.985e-09
 24.48191     34.8 1.287e+04 1.500e-09
 24.50156     34.3 1.257e+04 1.032e-09
 24.52122     33.4 1.195e+04 6.905e-10
 24.54087     32.3 1.108e+04 4.987e-10
 24.56053     31.3 1.028e+04 4.193e-10
 24.58018     31.0 1.001e+04 4.228e-10
 24.59984     31.0 9.941e+03 4.545e-10
 24.61950     31.3 9.961e+03 5.212e-10
 24.62951     31.6 1.007e+04 6.060e-10
 24.63933     30.7 1.024e+04 6.182e-10
 24.65881     29.5 1.140e+04 8.502e-10
 24.67846     27.1 1.303e+04 1.367e-09
 24.69812     24.7 1.389e+04 2.147e-09
 24.71777     20.6 1.604e+04 4.035e-09
 24.73743     14.5 2.001e+04 8.965e-09
 24.75212      7.1 2.380e+04 1.900e-08
 24.76190      5.1 2.179e+04 2.957e-08
 24.77173      3.8 2.131e+04 2.973e-08
 24.78156      2.9 2.012e+04 2.753e-08
 24.79139      3.0 1.865e+04 2.043e-08
 24.80121      1.7 1.812e+04 1.634e-08
 24.81600      1.8 1.733e+04 9.629e-09
 24.83571     -0.2 1.855e+04 4.302e-09
 24.85536     -6.8 1.764e+04 1.396e-09
 24.87502    -16.0 1.203e+04 6.387e-10
 24.89468    -17.7 1.084e+04 5.712e-10
 24.91433    -17.7 1.055e+04 6.265e-10
 24.92624    -17.3 1.056e+04 6.227e-10
 24.93606    -18.5 1.063e+04 6.515e-10
 24.95364    -18.2 1.056e+04 6.319e-10
 24.97317    -17.8 1.048e+04 6.137e-10
 24.98300    -18.8 1.046e+04 5.988e-10
 24.99295    -18.4 1.035e+04 5.237e-10
 25.01261    -18.2 1.024e+04 5.097e-10
 25.03227    -18.1 1.014e+04 4.205e-10
 25.05192    -18.2 1.004e+04 4.085e-10
 25.08150    -19.7 9.830e+03 3.310e-10
 25.12091    -20.6 9.959e+03 3.376e-10
 25.16022    -21.4 1.020e+04 4.166e-10
 25.18961    -22.3 1.029e+04 4.526e-10
 25.20917    -23.0 1.031e+04 4.666e-10
 25.22882    -23.8 1.026e+04 4.651e-10
 25.24848    -24.5 1.018e+04 4.561e-10
 25.26813    -25.2 1.010e+04 4.399e-10
 25.28779    -26.0 1.007e+04 4.073e-10
 25.30744    -26.7 1.003e+04 3.813e-10
 25.32667    -27.0 9.998e+03 3.672e-10
 25.33650    -27.3 1.008e+04 3.858e-10
 25.34676    -27.9 9.994e+03 3.441e-10
 25.36641    -28.1 9.949e+03 3.371e-10
 25.38607    -28.7 9.982e+03 3.278e-10
 25.40572    -30.0 1.030e+04 3.926e-10
 25.42538    -31.6 1.080e+04 5.605e-10
 25.44503    -33.3 1.127e+04 8.459e-10
 25.46469    -33.9 1.174e+04 1.279e-09
 25.48435    -34.1 1.207e+04 1.671e-09
 25.50341    -33.9 1.235e+04 1.857e-09
 25.51324    -33.8 1.261e+04 2.017e-09
 25.52366    -34.7 1.297e+04 2.082e-09
 25.54331    -36.2 1.319e+04 1.737e-09
 25.56297    -39.0 1.277e+04 1.374e-09
 25.58262    -41.8 1.220e+04 1.198e-09
 25.60228    -43.5 1.192e+04 1.164e-09
 25.62194    -44.2 1.175e+04 1.194e-09
 25.64159    -44.4 1.172e+04 1.209e-09
 25.67043    -44.8 1.165e+04 1.159e-09
 25.69009    -44.5 1.199e+04 1.372e-09
 25.71048    -45.0 1.188e+04 1.322e-09
 25.74989    -44.9 1.152e+04 1.148e-09
 25.78920    -44.1 1.134e+04 1.090e-09
 25.82852    -42.9 1.113e+04 1.013e-09
 25.86783    -41.8 1.092e+04 8.860e-10
 25.90714    -41.3 1.085e+04 8.236e-10
 25.94645    -41.2 1.093e+04 8.561e-10
 25.98576    -41.2 1.119e+04 9.948e-10
 26.02402    -40.9 1.138e+04 1.084e-09
 26.04368    -41.1 1.141e+04 1.102e-09
 26.05446    -41.0 1.137e+04 1.077e-09
 26.07402    -40.9 1.117e+04 9.085e-10
 26.09367    -41.6 1.078e+04 7.225e-10
 26.11333    -41.6 1.067e+04 6.511e-10
 26.13298    -43.1 1.033e+04 5.413e-10
 26.15264    -43.6 1.034e+04 5.317e-10
 26.17230    -44.9 1.029e+04 5.196e-10
 26.19195    -45.9 1.052e+04 5.948e-10
 26.21040    -47.1 1.072e+04 6.736e-10
 26.22023    -47.5 1.087e+04 7.166e-10
 26.23126    -48.7 1.118e+04 8.468e-10
 26.25092    -49.7 1.140e+04 9.266e-10
 26.27057    -51.2 1.143e+04 9.350e-10
 26.29023    -52.6 1.135e+04 8.405e-10
 26.30988    -54.6 1.109e+04 6.761e-10
 26.32954    -57.0 1.085e+04 5.745e-10
 26.34920    -59.8 1.077e+04 5.559e-10
 26.36885    -64.0 1.127e+04 5.811e-10
 26.38715    -69.6 1.258e+04 9.419e-10
 26.39698    -72.9 1.347e+04 1.280e-09
 26.40816    -77.4 1.447e+04 2.386e-09
 26.42782    -81.2 1.537e+04 3.507e-09
 26.44747    -85.4 1.579e+04 3.914e-09
 26.46713    -90.2 1.576e+04 3.563e-09
 26.48679    -95.2 1.511e+04 2.841e-09
 26.50644    -99.4 1.455e+04 2.489e-09
 26.52610   -102.0 1.436e+04 2.437e-09
 26.54575   -103.5 1.418e+04 2.584e-09
 26.56390   -104.1 1.408e+04 2.783e-09
 26.57373   -104.5 1.371e+04 2.541e-09
 26.58506   -104.6 1.367e+04 2.580e-09
 26.60472   -104.4 1.341e+04 2.484e-09
 26.62438   -104.0 1.312e+04 2.252e-09
 26.64403   -103.7 1.287e+04 2.051e-09
 26.66369   -103.3 1.272e+04 1.940e-09
 26.68334   -103.0 1.264e+04 1.905e-09
 26.70300   -102.5 1.258e+04 1.899e-09
 26.72265   -101.8 1.255e+04 1.906e-09
 26.74065   -101.0 1.257e+04 1.959e-09
 26.75048   -101.1 1.216e+04 1.675e-09
 26.76197   -100.3 1.216e+04 1.686e-09
 26.78162    -99.4 1.210e+04 1.654e-09
 26.80128    -98.6 1.203e+04 1.596e-09
 26.82093    -97.8 1.193e+04 1.519e-09
 26.84059    -97.0 1.180e+04 1.432e-09
 26.86024    -96.3 1.165e+04 1.347e-09
 26.87990    -95.5 1.150e+04 1.269e-09
 26.89908    -94.7 1.139e+04 1.214e-09
 26.90890    -96.2 1.110e+04 1.140e-09
 26.91739    -95.3 1.090e+04 1.020e-09
 26.92722    -95.1 1.074e+04 9.467e-10
 26.93887    -94.2 1.063e+04 8.621e-10
 26.95852    -93.3 1.053e+04 7.733e-10
 26.97818    -92.4 1.042e+04 6.961e-10
 26.99783    -91.8 1.032e+04 6.304e-10
 27.01749    -91.5 1.028e+04 5.976e-10
 27.03715    -91.5 1.031e+04 6.011e-10
 27.05680    -91.6 1.043e+04 6.614e-10
 27.07646    -91.6 1.063e+04 7.649e-10
 27.09414    -91.4 1.088e+04 8.895e-10
 27.10397    -91.3 1.099e+04 9.424e-10
 27.11577    -91.1 1.128e+04 1.084e-09
 27.13542    -91.0 1.154e+04 1.196e-09
 27.15508    -91.0 1.168e+04 1.234e-09
 27.17474    -91.4 1.171e+04 1.222e-09
 27.19439    -92.0 1.158e+04 1.116e-09
 27.21405    -92.7 1.136e+04 1.006e-09
 27.23370    -93.3 1.118e+04 9.404e-10
 27.25336    -93.7 1.112e+04 9.223e-10
 27.27089    -94.0 1.116e+04 9.278e-10
 27.28072    -94.8 1.132e+04 1.006e-09
 27.29267    -95.1 1.138e+04 1.015e-09
 27.31232    -95.5 1.141e+04 1.017e-09
 27.33198    -95.9 1.135e+04 9.898e-10
 27.35164    -96.3 1.113e+04 8.820e-10
 27.37129    -96.6 1.077e+04 7.037e-10
 27.39095    -97.1 1.009e+04 5.090e-10
 27.41060    -97.3 9.844e+03 4.155e-10
 27.43791    -97.4 9.520e+03 3.343e-10
 27.45766    -99.5 9.478e+03 3.239e-10
 27.47959    -99.7 9.213e+03 2.736e-10
 27.51890    -99.5 9.062e+03 2.537e-10
 27.55822    -98.9 9.035e+03 2.513e-10
 27.59753    -98.4 9.100e+03 2.608e-10
 27.63684    -98.1 9.289e+03 2.695e-10
 27.67615    -98.2 9.637e+03 2.866e-10
 27.71546    -99.3 1.011e+04 3.294e-10
 27.75477   -100.7 1.044e+04 4.103e-10
 27.78416   -101.5 1.037e+04 4.389e-10
 27.80113   -101.7 1.037e+04 4.493e-10
 27.81106   -103.0 1.042e+04 4.620e-10
 27.82347   -102.6 1.026e+04 4.515e-10
 27.84303   -103.0 1.018e+04 4.377e-10
 27.87261   -103.7 1.003e+04 4.016e-10
 27.91202   -103.8 9.914e+03 3.690e-10
 27.95133   -103.5 9.816e+03 3.502e-10
 27.99064   -103.0 9.757e+03 3.365e-10
 28.02995   -102.5 9.736e+03 3.275e-10
 28.06926   -102.5 9.906e+03 3.506e-10
 28.10858   -103.0 1.055e+04 4.828e-10
 28.14499   -103.5 1.126e+04 7.250e-10
 28.16455   -105.4 1.198e+04 1.028e-09
 28.17718   -105.5 1.250e+04 1.399e-09
 28.19683   -105.7 1.265e+04 1.534e-09
 28.21649   -105.7 1.294e+04 1.860e-09
 28.23614   -105.8 1.307e+04 1.951e-09
 28.25580   -106.0 1.315e+04 2.025e-09
 28.27545   -106.2 1.323e+04 2.090e-09
 28.29511   -106.6 1.334e+04 2.197e-09
 28.31476   -106.8 1.351e+04 2.367e-09
 28.33137   -106.9 1.376e+04 2.611e-09
 28.34120   -107.6 1.392e+04 2.919e-09
 28.35408   -107.3 1.429e+04 3.413e-09
 28.37373   -107.1 1.465e+04 3.878e-09
 28.39339   -106.9 1.488e+04 4.098e-09
 28.41304   -106.8 1.493e+04 4.107e-09
 28.43270   -106.7 1.475e+04 3.793e-09
 28.45235   -106.5 1.436e+04 3.249e-09
 28.47201   -106.2 1.393e+04 2.693e-09
 28.49167   -105.8 1.349e+04 2.229e-09
 28.50812   -105.5 1.311e+04 1.874e-09
 28.51795   -105.2 1.344e+04 2.336e-09
 28.53098   -104.7 1.312e+04 2.003e-09
 28.55063   -104.0 1.285e+04 1.750e-09
 28.57029   -103.2 1.269e+04 1.577e-09
 28.58994   -102.4 1.258e+04 1.462e-09
 28.60960   -101.7 1.245e+04 1.389e-09
 28.62926   -100.8 1.239e+04 1.367e-09
 28.64891   -100.0 1.247e+04 1.412e-09
 28.66857    -99.4 1.286e+04 1.592e-09
 28.68487    -99.3 1.322e+04 1.854e-09
 28.69470    -99.0 1.341e+04 1.987e-09
 28.70788    -98.9 1.392e+04 2.535e-09
 28.72753    -98.6 1.459e+04 3.429e-09
 28.74719    -98.3 1.523e+04 4.524e-09
 28.76685    -97.9 1.579e+04 5.695e-09
 28.78650    -97.4 1.615e+04 6.594e-09
 28.80616    -97.1 1.620e+04 6.855e-09
 28.82581    -96.5 1.580e+04 6.280e-09
 28.84547    -95.6 1.515e+04 4.767e-09
 28.86162    -95.0 1.450e+04 3.418e-09
 28.87145    -95.0 1.485e+04 4.164e-09
 28.88175    -94.8 1.436e+04 3.200e-09
 28.89157    -94.7 1.362e+04 2.184e-09
 28.90444    -94.8 1.302e+04 1.648e-09
 28.92409    -94.9 1.249e+04 1.327e-09
 28.94375    -94.8 1.209e+04 1.153e-09
 28.96340    -95.0 1.180e+04 1.050e-09
 28.98306    -95.3 1.158e+04 9.967e-10
 29.01264    -94.9 1.164e+04 1.028e-09
 29.05205    -94.7 1.131e+04 9.693e-10
 29.08143    -94.3 1.112e+04 8.912e-10
 29.10099    -94.2 1.102e+04 8.483e-10
 29.12065    -94.0 1.071e+04 7.007e-10
 29.14030    -94.3 1.055e+04 6.056e-10
 29.16988    -94.1 1.042e+04 5.436e-10
 29.20548    -93.1 1.012e+04 4.584e-10
 29.22514    -92.9 1.043e+04 5.415e-10
 29.24861    -91.8 1.037e+04 5.317e-10
 29.28792    -90.8 1.033e+04 5.371e-10
 29.32723    -90.0 1.032e+04 5.577e-10
 29.36654    -89.4 1.048e+04 6.417e-10
 29.40585    -88.8 1.088e+04 8.056e-10
 29.44516    -88.0 1.142e+04 1.046e-09
 29.48447    -87.4 1.202e+04 1.339e-09
 29.51386    -86.9 1.248e+04 1.647e-09
 29.53342    -87.5 1.249e+04 1.657e-09
 29.55307    -87.6 1.235e+04 1.541e-09
 29.56861    -87.9 1.205e+04 1.345e-09
 29.57844    -87.8 1.243e+04 1.638e-09
 29.59238    -88.0 1.212e+04 1.415e-09
 29.61204    -88.4 1.175e+04 1.176e-09
 29.63170    -89.1 1.143e+04 9.775e-10
 29.65135    -90.1 1.125e+04 8.620e-10
 29.67101    -91.1 1.120e+04 8.226e-10
 29.69066    -92.1 1.122e+04 8.251e-10
 29.71032    -93.2 1.133e+04 8.788e-10
 29.72997    -94.1 1.149e+04 9.721e-10
 29.74535    -95.0 1.170e+04 1.078e-09
 29.75518    -94.9 1.145e+04 9.493e-10
 29.76929    -95.8 1.168e+04 1.064e-09
 29.78894    -96.7 1.194e+04 1.190e-09
 29.80860    -97.8 1.216e+04 1.330e-09
 29.82825    -98.9 1.231e+04 1.464e-09
 29.84791    -99.7 1.237e+04 1.558e-09
 29.86756   -100.4 1.238e+04 1.586e-09
 29.87799   -101.0 1.238e+04 1.582e-09
 29.88782   -100.3 1.193e+04 1.272e-09
 29.90688   -100.9 1.192e+04 1.252e-09
 29.92210   -101.5 1.192e+04 1.227e-09
 29.93193   -100.9 1.194e+04 1.272e-09
 29.94619   -101.5 1.194e+04 1.253e-09
 29.96584   -102.0 1.190e+04 1.233e-09
 29.98550   -102.3 1.179e+04 1.197e-09
 30.00515   -102.3 1.164e+04 1.137e-09
 30.02481   -102.2 1.146e+04 1.045e-09
 30.04447   -101.9 1.124e+04 9.191e-10
 30.06412   -101.5 1.100e+04 7.920e-10
 30.08378   -101.1 1.078e+04 6.838e-10
 30.09885   -100.8 1.057e+04 6.035e-10
 30.10868   -100.1 1.062e+04 6.132e-10
 30.12309    -99.5 1.040e+04 5.354e-10
 30.14274    -98.7 1.020e+04 4.736e-10
 30.16240    -97.6 1.014e+04 4.272e-10
 30.18206    -96.5 1.018e+04 4.098e-10
 30.20171    -96.0 1.017e+04 4.052e-10
 30.22137    -94.7 1.017e+04 3.947e-10
 30.24102    -94.2 1.016e+04 3.900e-10
 30.26068    -92.6 1.013e+04 3.741e-10
 30.27560    -92.3 1.011e+04 3.666e-10
 30.28552    -92.4 1.006e+04 3.339e-10
 30.31001    -90.4 1.000e+04 3.111e-10
 30.34932    -88.5 9.904e+03 2.906e-10
 30.38864    -86.4 9.705e+03 2.645e-10
 30.42795    -84.0 9.608e+03 2.578e-10
 30.46726    -81.5 9.678e+03 3.045e-10
 30.50657    -79.0 1.017e+04 4.141e-10
 30.53596    -76.1 1.053e+04 4.640e-10
 30.55551    -76.1 1.057e+04 4.710e-10
 30.57517    -74.9 1.101e+04 5.803e-10
 30.59482    -74.6 1.121e+04 7.082e-10
 30.61448    -73.3 1.148e+04 8.692e-10
 30.62909    -72.2 1.181e+04 1.050e-09
 30.63892    -71.6 1.125e+04 7.380e-10
 30.65379    -70.6 1.160e+04 8.956e-10
 30.67345    -69.5 1.192e+04 1.060e-09
 30.69310    -68.3 1.219e+04 1.240e-09
 30.71276    -67.0 1.239e+04 1.409e-09
 30.73241    -65.5 1.251e+04 1.523e-09
 30.75207    -63.9 1.258e+04 1.567e-09
 30.77173    -62.4 1.267e+04 1.562e-09
 30.79138    -61.3 1.279e+04 1.553e-09
 30.80584    -60.5 1.298e+04 1.577e-09
 30.81567    -59.9 1.266e+04 1.359e-09
 30.83069    -59.1 1.300e+04 1.492e-09
 30.85035    -58.2 1.350e+04 1.792e-09
 30.86441    -57.4 1.402e+04 2.275e-09
 30.87424    -57.9 1.439e+04 2.735e-09
 30.88966    -56.9 1.503e+04 3.727e-09
 30.90932    -55.8 1.567e+04 4.762e-09
 30.92897    -54.7 1.625e+04 5.690e-09
 30.94863    -53.8 1.660e+04 6.427e-09
 30.96828    -53.2 1.686e+04 6.918e-09
 30.98259    -52.9 1.699e+04 7.089e-09
 30.99242    -52.7 1.668e+04 6.890e-09
 31.00759    -52.6 1.667e+04 6.562e-09
 31.02725    -53.4 1.667e+04 6.392e-09
 31.04194    -53.7 1.703e+04 6.641e-09
 31.05172    -55.9 1.823e+04 7.575e-09
 31.06155    -58.6 1.946e+04 9.044e-09
 31.07086    -61.2 2.017e+04 1.119e-08
 31.07578    -61.2 2.040e+04 1.113e-08
 31.08121    -63.5 2.052e+04 1.431e-08
 31.09103    -64.9 2.004e+04 1.754e-08
 31.10086    -65.4 1.963e+04 1.984e-08
 31.11069    -65.5 1.952e+04 2.061e-08
 31.12052    -65.5 1.956e+04 2.016e-08
 31.13034    -65.7 1.988e+04 1.698e-08
 31.14017    -66.7 2.029e+04 1.278e-08
 31.15000    -69.3 1.989e+04 8.794e-09
 31.15924    -72.6 1.823e+04 5.899e-09
 31.16415    -72.0 1.904e+04 8.150e-09
 31.16966    -75.2 1.724e+04 5.890e-09
 31.17948    -76.8 1.632e+04 4.946e-09
 31.18931    -77.3 1.610e+04 4.739e-09
 31.20410    -77.9 1.595e+04 4.720e-09
 31.22381    -78.3 1.548e+04 4.155e-09
 31.24346    -78.6 1.521e+04 3.874e-09
 31.26312    -78.6 1.502e+04 3.902e-09
 31.28277    -78.6 1.498e+04 4.007e-09
 31.30243    -78.6 1.496e+04 4.157e-09
 31.32208    -78.5 1.496e+04 4.251e-09
 31.33608    -78.3 1.480e+04 4.091e-09
 31.34591    -79.3 1.370e+04 2.745e-09
 31.36140    -78.8 1.351e+04 2.531e-09
 31.38105    -78.4 1.321e+04 2.162e-09
 31.40071    -78.1 1.275e+04 1.661e-09
 31.42036    -77.9 1.224e+04 1.173e-09
 31.44002    -78.0 1.181e+04 8.168e-10
 31.45967    -78.3 1.132e+04 6.014e-10
 31.47933    -78.7 1.076e+04 5.152e-10
 31.49899    -78.9 1.041e+04 5.030e-10
 31.51283    -78.9 1.032e+04 5.413e-10
 31.52266    -77.2 1.006e+04 4.165e-10
 31.53830    -76.8 1.015e+04 4.597e-10
 31.55795    -76.1 1.026e+04 5.180e-10
 31.57761    -75.5 1.042e+04 5.937e-10
 31.59726    -74.9 1.059e+04 6.938e-10
 31.61692    -74.3 1.078e+04 7.996e-10
 31.63658    -73.5 1.091e+04 8.963e-10
 31.65623    -72.7 1.097e+04 9.586e-10
 31.67589    -71.9 1.099e+04 9.939e-10
 31.68958    -71.0 1.103e+04 1.013e-09
 31.69941    -69.5 1.075e+04 8.124e-10
 31.71520    -68.8 1.076e+04 8.228e-10
 31.73485    -68.1 1.080e+04 8.290e-10
 31.75451    -67.5 1.088e+04 8.512e-10
 31.77417    -67.0 1.106e+04 9.018e-10
 31.79382    -66.5 1.134e+04 9.923e-10
 31.81348    -66.0 1.172e+04 1.129e-09
 31.83313    -65.6 1.216e+04 1.319e-09
 31.85084    -65.2 1.265e+04 1.574e-09
 31.86066    -64.6 1.190e+04 1.139e-09
 31.86632    -64.1 1.234e+04 1.392e-09
 31.87615    -62.0 1.145e+04 9.549e-10
 31.89210    -61.4 1.184e+04 1.153e-09
 31.91176    -60.8 1.232e+04 1.388e-09
 31.93141    -60.1 1.297e+04 1.678e-09
 31.95107    -59.7 1.392e+04 2.038e-09
 31.97072    -59.6 1.517e+04 2.525e-09
 31.99038    -59.9 1.642e+04 3.178e-09
 32.01003    -60.4 1.710e+04 3.902e-09
 32.02969    -60.9 1.712e+04 4.215e-09
 32.04307    -61.0 1.691e+04 4.265e-09
 32.05290    -58.0 1.731e+04 4.284e-09
 32.06900    -58.3 1.717e+04 4.647e-09
 32.08866    -58.3 1.701e+04 4.954e-09
 32.10831    -58.2 1.706e+04 5.112e-09
 32.12797    -59.3 1.866e+04 5.176e-09
 32.14762    -61.3 2.169e+04 5.363e-09
 32.16728    -62.9 2.479e+04 5.683e-09
 32.18694    -64.1 2.894e+04 4.231e-09
 32.20659    -67.4 3.135e+04 1.961e-09
 32.21982    -75.3 2.087e+04 1.008e-09
 32.22965    -64.6 3.101e+04 2.382e-09
 32.24590    -75.3 1.962e+04 8.614e-10
 32.27548    -81.6 1.071e+04 6.996e-10
 32.31489    -84.3 9.441e+03 3.957e-10
 32.35420    -85.0 8.857e+03 2.261e-10
 32.38693    -84.6 8.654e+03 1.802e-10
 32.40659    -83.9 8.724e+03 1.937e-10
 32.43283    -82.7 8.497e+03 1.627e-10
 32.47214    -81.1 8.328e+03 1.291e-10
 32.51145    -79.9 8.156e+03 1.032e-10
 32.55076    -78.7 8.047e+03 9.081e-11
 32.59007    -77.4 7.994e+03 8.654e-11
 32.62938    -76.1 7.977e+03 9.064e-11
 32.66869    -74.5 7.959e+03 9.645e-11
 32.70801    -72.9 7.937e+03 9.932e-11
 32.74043    -71.2 7.923e+03 9.998e-11
 32.76009    -70.2 7.738e+03 7.038e-11
 32.78663    -68.5 7.736e+03 7.085e-11
 32.82594    -66.9 7.751e+03 7.094e-11
 32.84728    -65.3 7.796e+03 7.169e-11
 32.86693    -64.4 7.760e+03 6.600e-11
 32.90456    -63.4 7.825e+03 6.737e-11
 32.94387    -63.1 8.095e+03 9.141e-11
 32.98319    -63.2 8.572e+03 1.606e-10
 33.02250    -63.3 9.209e+03 3.014e-10
 33.06181    -63.1 9.818e+03 5.052e-10
 33.09392    -63.0 1.020e+04 6.674e-10
 33.11358    -61.5 9.990e+03 5.738e-10
 33.14043    -61.4 1.022e+04 6.668e-10
 33.17974    -61.7 1.008e+04 6.104e-10
 33.21905    -61.9 9.591e+03 4.186e-10
 33.25837    -62.0 9.149e+03 3.044e-10
 33.29768    -61.8 8.906e+03 2.585e-10
 33.33699    -60.7 8.752e+03 2.363e-10
 33.37630    -59.4 8.657e+03 2.168e-10
 33.41561    -58.2 8.583e+03 1.976e-10
 33.44742    -57.0 8.570e+03 1.894e-10
 33.46708    -56.3 8.469e+03 1.637e-10
 33.49423    -55.3 8.494e+03 1.631e-10
 33.53354    -54.7 8.948e+03 2.115e-10
 33.57286    -54.3 9.610e+03 3.496e-10
 33.60224    -54.2 1.010e+04 5.528e-10
 33.62180    -54.2 1.053e+04 7.741e-10
 33.63380    -53.7 1.095e+04 1.021e-09
 33.64363    -53.2 1.069e+04 8.619e-10
 33.66111    -52.9 1.106e+04 1.068e-09
 33.68077    -52.5 1.137e+04 1.248e-09
 33.70042    -52.2 1.160e+04 1.374e-09
 33.72008    -52.1 1.169e+04 1.425e-09
 33.73973    -51.9 1.171e+04 1.408e-09
 33.76932    -52.0 1.159e+04 1.258e-09
 33.80091    -51.3 1.153e+04 1.159e-09
 33.82057    -50.2 1.169e+04 1.345e-09
 33.84804    -49.6 1.178e+04 1.284e-09
 33.88735    -49.2 1.182e+04 1.225e-09
 33.91673    -49.4 1.177e+04 1.082e-09
 33.93629    -49.9 1.205e+04 1.161e-09
 33.95595    -51.2 1.278e+04 1.410e-09
 33.97560    -53.4 1.381e+04 2.177e-09
 33.98729    -54.7 1.462e+04 3.361e-09
 33.99712    -54.4 1.513e+04 4.453e-09
 34.01491    -54.3 1.582e+04 6.268e-09
 34.03457    -54.0 1.610e+04 6.766e-09
 34.05423    -54.3 1.617e+04 5.882e-09
 34.07388    -55.7 1.531e+04 3.144e-09
 34.09354    -59.1 1.357e+04 1.587e-09
 34.11319    -61.8 1.280e+04 1.214e-09
 34.13285    -62.5 1.264e+04 1.152e-09
 34.15250    -62.8 1.272e+04 1.174e-09
 34.16404    -63.2 1.308e+04 1.401e-09
 34.17387    -62.9 1.304e+04 1.363e-09
 34.19182    -63.1 1.340e+04 1.723e-09
 34.21147    -63.2 1.381e+04 2.260e-09
 34.23113    -63.1 1.427e+04 2.989e-09
 34.25078    -62.8 1.467e+04 3.784e-09
 34.27044    -62.5 1.495e+04 4.457e-09
 34.29009    -62.4 1.508e+04 4.767e-09
 34.30975    -62.6 1.511e+04 4.826e-09
 34.32940    -63.2 1.504e+04 4.714e-09
 34.34079    -64.0 1.490e+04 4.554e-09
 34.35062    -63.5 1.503e+04 4.686e-09
 34.36872    -64.2 1.488e+04 4.601e-09
 34.38837    -64.6 1.473e+04 4.543e-09
 34.40803    -64.6 1.456e+04 4.437e-09
 34.42768    -64.4 1.430e+04 3.995e-09
 34.44734    -64.0 1.387e+04 3.173e-09
 34.46699    -63.7 1.327e+04 2.263e-09
 34.48665    -63.3 1.260e+04 1.498e-09
 34.50631    -62.9 1.193e+04 9.661e-10
 34.51754    -62.5 1.136e+04 6.349e-10
 34.52737    -62.3 1.136e+04 6.780e-10
 34.54562    -61.8 1.096e+04 4.860e-10
 34.56527    -61.2 1.071e+04 3.610e-10
 34.59485    -60.4 1.045e+04 2.870e-10
 34.63426    -59.5 1.021e+04 2.364e-10
 34.67357    -57.6 9.825e+03 1.832e-10
 34.71289    -55.8 9.590e+03 1.464e-10
 34.75220    -54.0 9.463e+03 1.257e-10
 34.79151    -52.2 9.425e+03 1.200e-10
 34.82012    -50.4 9.441e+03 1.239e-10
 34.83978    -51.1 9.446e+03 1.220e-10
 34.86140    -49.5 9.507e+03 1.479e-10
 34.88106    -48.9 9.543e+03 1.605e-10
 34.90944    -47.6 9.739e+03 2.314e-10
 34.94875    -46.0 1.010e+04 3.549e-10
 34.98807    -44.3 1.063e+04 5.126e-10
 35.02738    -43.0 1.100e+04 6.471e-10
 35.06669    -42.0 1.119e+04 7.008e-10
 35.10600    -41.1 1.120e+04 7.072e-10
 35.14531    -40.0 1.110e+04 6.694e-10
 35.18462    -38.7 1.097e+04 6.293e-10
 35.21489    -37.2 1.083e+04 5.698e-10
 35.23455    -37.3 1.080e+04 5.900e-10
 35.26325    -35.6 1.054e+04 4.844e-10
 35.30256    -33.8 1.022e+04 3.760e-10
 35.34187    -31.9 9.982e+03 3.014e-10
 35.38118    -29.7 9.788e+03 2.510e-10
 35.42049    -27.5 9.697e+03 2.252e-10
 35.45980    -25.3 9.678e+03 2.153e-10
 35.49911    -23.7 1.006e+04 2.344e-10
 35.53842    -23.8 1.069e+04 3.895e-10
 35.56839    -23.7 1.152e+04 8.828e-10
 35.58805    -24.0 1.163e+04 1.022e-09
 35.60712    -22.1 1.258e+04 1.883e-09
 35.62668    -22.0 1.279e+04 2.229e-09
 35.64634    -20.1 1.307e+04 2.755e-09
 35.66599    -18.8 1.296e+04 2.237e-09
 35.68565    -17.9 1.292e+04 1.581e-09
 35.70530    -19.2 1.202e+04 8.413e-10
 35.73488    -20.4 1.095e+04 4.771e-10
 35.77429    -20.2 1.026e+04 2.588e-10
 35.81360    -19.9 1.005e+04 2.256e-10
 35.85292    -19.0 1.016e+04 2.439e-10
 35.89223    -18.6 1.036e+04 3.267e-10
 35.92188    -18.1 1.078e+04 4.403e-10
 35.94154    -18.5 1.070e+04 4.023e-10
 35.97085    -18.6 1.108e+04 4.591e-10
 36.01016    -19.8 1.118e+04 4.974e-10
 36.03955    -20.6 1.096e+04 5.159e-10
 36.05911    -21.0 1.076e+04 4.588e-10
 36.08869    -20.5 1.064e+04 3.941e-10
 36.12810    -20.5 1.026e+04 2.941e-10
 36.16741    -20.2 9.862e+03 2.240e-10
 36.20672    -19.7 9.648e+03 1.941e-10
 36.24603    -18.9 9.598e+03 1.931e-10
 36.27538    -17.9 9.579e+03 2.201e-10
 36.29504    -16.7 9.488e+03 1.776e-10
 36.32465    -15.6 9.535e+03 2.279e-10
 36.36396    -14.2 9.606e+03 2.651e-10
 36.40328    -12.8 9.597e+03 2.749e-10
 36.44259    -11.3 9.451e+03 2.676e-10
 36.48190     -9.9 9.401e+03 2.408e-10
 36.52121     -8.7 9.366e+03 2.261e-10
 36.56052     -7.2 9.262e+03 2.476e-10
 36.59983     -5.2 9.202e+03 2.600e-10
 36.62887     -2.9 9.160e+03 2.431e-10
 36.64853     -2.6 9.244e+03 2.546e-10
 36.67845     -0.8 9.146e+03 2.207e-10
 36.71777      0.8 9.208e+03 2.039e-10
 36.75708      1.8 9.661e+03 2.527e-10
 36.78646      1.6 1.000e+04 3.681e-10
 36.80259      1.3 1.038e+04 5.492e-10
 36.81183      0.5 1.051e+04 6.346e-10
 36.81525      0.3 1.061e+04 6.454e-10
 36.82568     -0.3 1.126e+04 1.024e-09
 36.84533     -0.1 1.175e+04 1.597e-09
 36.86499      0.8 1.191e+04 2.194e-09
 36.88464      1.8 1.239e+04 2.729e-09
 36.90430      2.3 1.314e+04 3.218e-09
 36.92396      2.3 1.353e+04 3.478e-09
 36.94361      2.4 1.337e+04 3.249e-09
 36.96327      2.9 1.286e+04 2.692e-09
 36.98217      2.8 1.219e+04 1.902e-09
 36.99200      1.3 1.135e+04 1.166e-09
 37.00258      1.0 1.037e+04 8.153e-10
 37.02223      1.2 9.633e+03 4.839e-10
 37.04189      0.5 9.232e+03 3.665e-10
 37.07147      1.9 8.566e+03 2.122e-10
 37.11088      2.5 8.058e+03 1.138e-10
 37.15019      2.6 7.717e+03 7.024e-11
 37.18950      3.1 7.491e+03 6.481e-11
 37.22881      2.5 7.618e+03 7.591e-11
 37.26813      0.5 8.059e+03 1.259e-10
 37.30744     -2.9 9.231e+03 3.357e-10
 37.33586     -5.5 1.093e+04 9.108e-10
 37.35552     -6.3 1.096e+04 9.195e-10
 37.38606     -7.6 1.187e+04 1.747e-09
 37.42537    -10.7 1.227e+04 1.694e-09
 37.46468    -14.8 1.180e+04 1.445e-09
 37.50399    -17.1 1.163e+04 1.444e-09
 37.54330    -19.2 1.195e+04 1.488e-09
 37.57269    -21.6 1.247e+04 1.843e-09
 37.59225    -22.6 1.224e+04 1.971e-09
 37.61190    -22.7 1.196e+04 1.910e-09
 37.63156    -22.5 1.178e+04 1.512e-09
 37.65122    -23.2 1.164e+04 1.036e-09
 37.67087    -25.6 1.111e+04 6.153e-10
 37.68916    -29.0 9.873e+03 3.598e-10
 37.69899    -31.2 9.225e+03 2.748e-10
 37.71018    -32.2 9.101e+03 2.599e-10
 37.73976    -33.3 9.278e+03 2.699e-10
 37.76925    -34.2 9.454e+03 3.181e-10
 37.78881    -34.8 9.522e+03 3.413e-10
 37.79884    -35.4 9.646e+03 4.505e-10
 37.80867    -35.3 9.641e+03 4.372e-10
 37.82812    -35.3 9.696e+03 4.627e-10
 37.84777    -35.2 9.824e+03 5.416e-10
 37.86591    -35.1 9.882e+03 5.603e-10
 37.87574    -35.4 9.873e+03 5.542e-10
 37.88708    -35.4 9.776e+03 4.892e-10
 37.90674    -35.4 9.730e+03 4.543e-10
 37.92640    -35.6 9.695e+03 4.031e-10
 37.94605    -35.6 9.687e+03 3.905e-10
 37.96571    -35.8 9.757e+03 3.699e-10
 37.98536    -35.9 9.757e+03 3.678e-10
 38.00502    -36.1 9.910e+03 3.774e-10
 38.02467    -36.5 9.999e+03 3.928e-10
 38.04266    -37.4 1.030e+04 4.731e-10
 38.05249    -37.8 9.854e+03 3.667e-10
 38.06399    -38.7 1.004e+04 4.301e-10
 38.08364    -39.6 1.044e+04 5.844e-10
 38.10330    -40.6 1.082e+04 7.885e-10
 38.12295    -41.1 1.118e+04 1.046e-09
 38.14261    -41.3 1.137e+04 1.244e-09
 38.16226    -41.3 1.145e+04 1.339e-09
 38.18192    -41.2 1.136e+04 1.213e-09
 38.20157    -41.3 1.115e+04 9.936e-10
 38.21941    -41.5 1.091e+04 7.543e-10
 38.22923    -41.1 1.098e+04 8.996e-10
 38.24089    -41.3 1.081e+04 6.823e-10
 38.26054    -42.1 1.072e+04 4.882e-10
 38.29012    -44.2 1.032e+04 3.375e-10
 38.32953    -44.9 1.009e+04 3.257e-10
 38.36884    -44.7 1.018e+04 3.460e-10
 38.39635    -44.3 1.031e+04 3.403e-10
 38.41601    -43.8 1.025e+04 3.255e-10
 38.44747    -43.7 1.032e+04 3.139e-10
 38.48678    -43.8 1.053e+04 3.460e-10
 38.52609    -43.9 1.088e+04 5.076e-10
 38.56540    -43.4 1.145e+04 7.890e-10
 38.59479    -42.6 1.220e+04 1.277e-09
 38.61434    -42.4 1.234e+04 1.394e-09
 38.63400    -41.8 1.253e+04 1.582e-09
 38.65366    -41.4 1.231e+04 1.411e-09
 38.68324    -41.3 1.156e+04 8.761e-10
 38.72265    -40.8 1.060e+04 4.773e-10
 38.74984    -40.7 9.713e+03 2.905e-10
 38.76950    -40.0 1.122e+04 5.651e-10
 38.78546    -40.1 1.064e+04 4.151e-10
 38.80511    -39.8 1.108e+04 4.588e-10
 38.84058    -39.4 1.063e+04 4.017e-10
 38.87989    -38.6 1.065e+04 4.573e-10
 38.91920    -37.6 1.066e+04 5.562e-10
 38.95851    -36.5 1.070e+04 6.587e-10
 38.99783    -35.1 1.078e+04 7.482e-10
 39.03714    -33.8 1.075e+04 7.659e-10
 39.06652    -32.7 1.070e+04 7.677e-10
 39.08608    -32.5 1.060e+04 7.416e-10
 39.10314    -31.1 1.036e+04 6.579e-10
 39.12290    -30.8 1.016e+04 5.526e-10
 39.15507    -28.9 9.808e+03 3.994e-10
 39.19438    -27.1 9.494e+03 2.819e-10
 39.23369    -25.4 9.234e+03 2.043e-10
 39.27301    -23.9 9.041e+03 1.626e-10
 39.31232    -22.4 8.946e+03 1.497e-10
 39.35163    -21.1 9.018e+03 1.650e-10
 39.39094    -20.0 9.151e+03 2.199e-10
 39.43025    -18.6 9.382e+03 3.101e-10
 39.45683    -17.3 9.588e+03 4.046e-10
 39.47649    -17.5 9.378e+03 2.736e-10
 39.50887    -16.0 9.474e+03 3.416e-10
 39.54818    -14.6 9.410e+03 3.469e-10
 39.58750    -13.1 9.321e+03 2.867e-10
 39.62681    -12.6 9.296e+03 2.476e-10
 39.66612    -12.2 9.465e+03 2.823e-10
 39.70543    -11.9 9.769e+03 4.356e-10
 39.74474    -10.9 1.016e+04 6.420e-10
 39.78405     -9.2 1.041e+04 8.218e-10
 39.81033     -7.8 1.038e+04 7.589e-10
 39.82999     -7.9 1.008e+04 6.307e-10
 39.86268     -6.2 9.693e+03 3.863e-10
 39.90199     -5.0 9.213e+03 2.107e-10
 39.94130     -4.3 8.828e+03 1.243e-10
 39.98061     -3.4 8.596e+03 9.316e-11
 40.01992     -1.8 8.408e+03 8.782e-11
 40.05923      0.1 8.355e+03 8.415e-11
 40.09854      2.0 8.315e+03 8.204e-11
 40.13786      3.8 8.322e+03 7.934e-11
 40.16382      5.5 8.346e+03 8.079e-11
 40.18348      4.9 8.337e+03 9.070e-11
 40.21648      6.2 8.373e+03 1.030e-10
 40.25579      7.6 8.425e+03 1.293e-10
 40.29510      9.0 8.527e+03 1.690e-10
 40.33441     10.6 8.696e+03 2.188e-10
 40.37372     12.2 8.819e+03 2.408e-10
 40.41303     13.3 8.841e+03 2.368e-10
 40.45235     14.2 8.835e+03 2.280e-10
 40.49166     14.9 8.850e+03 2.323e-10
 40.51732     15.5 8.930e+03 2.603e-10
 40.53698     14.8 8.938e+03 2.588e-10
 40.57028     14.9 9.195e+03 3.172e-10
 40.60959     14.3 9.731e+03 4.329e-10
 40.64890     13.3 1.022e+04 6.404e-10
 40.68821     12.6 1.032e+04 7.483e-10
 40.72753     12.3 1.002e+04 6.587e-10
 40.75830     12.2 9.361e+03 4.162e-10
 40.77796     13.2 9.543e+03 4.754e-10
 40.80615     12.3 9.022e+03 2.701e-10
 40.84546     11.0 8.685e+03 1.910e-10
 40.87081      9.8 8.731e+03 2.043e-10
 40.89047      9.7 8.576e+03 1.865e-10
 40.92408      9.3 8.908e+03 2.665e-10
 40.95347      8.6 9.199e+03 3.414e-10
 40.97303      8.0 9.450e+03 4.269e-10
 40.99268      7.3 9.832e+03 5.301e-10
 41.01234      5.4 1.088e+04 7.083e-10
 41.03199      2.6 1.178e+04 1.095e-09
 41.04737      1.5 1.179e+04 1.486e-09
 41.05719      1.5 1.213e+04 1.813e-09
 41.08123      1.0 1.196e+04 1.791e-09
 41.12064      1.6 1.125e+04 1.320e-09
 41.15995      2.6 1.010e+04 5.905e-10
 41.19926      2.2 9.128e+03 2.091e-10
 41.22431      1.6 8.449e+03 9.225e-11
 41.24397      1.5 8.553e+03 1.288e-10
 41.27789      2.3 8.216e+03 9.381e-11
 41.31720      4.1 8.056e+03 8.412e-11
 41.35651      6.2 8.062e+03 8.405e-11
 41.39582      8.1 8.125e+03 8.734e-11
 41.43513      9.7 8.274e+03 9.910e-11
 41.47444     11.0 8.491e+03 1.332e-10
 41.51375     12.4 8.769e+03 1.999e-10
 41.55306     13.8 9.100e+03 2.990e-10
 41.57780     14.9 9.465e+03 4.139e-10
 41.59746     14.5 9.521e+03 4.426e-10
 41.63169     15.3 9.773e+03 5.200e-10
 41.67100     15.8 9.860e+03 5.305e-10
 41.71031     16.4 9.737e+03 4.844e-10
 41.74962     17.2 9.483e+03 3.895e-10
 41.78893     18.0 9.214e+03 2.866e-10
 41.82824     18.5 8.997e+03 2.172e-10
 41.86756     19.1 8.860e+03 1.955e-10
 41.90687     20.0 8.828e+03 2.062e-10
 41.93130     21.2 8.837e+03 2.192e-10
 41.95096     20.5 8.770e+03 2.089e-10
 41.98549     21.6 8.888e+03 2.102e-10
 42.02480     22.6 8.968e+03 2.036e-10
 42.06411     23.4 9.026e+03 2.031e-10
 42.10342     23.8 9.216e+03 2.140e-10
 42.14274     24.3 9.604e+03 2.654e-10
 42.18205     24.8 9.954e+03 3.423e-10
 42.21143     24.8 1.018e+04 4.000e-10
 42.23099     24.7 1.043e+04 4.994e-10
 42.25065     24.7 1.073e+04 6.404e-10
 42.27030     24.8 1.104e+04 7.772e-10
 42.28460     24.8 1.132e+04 8.953e-10
 42.29443     23.8 1.157e+04 1.017e-09
 42.30961     23.3 1.206e+04 1.168e-09
 42.32927     21.8 1.297e+04 1.496e-09
 42.34892     19.6 1.390e+04 2.225e-09
 42.36858     18.4 1.424e+04 3.272e-09
 42.38824     18.0 1.411e+04 3.757e-09
 42.40789     18.2 1.384e+04 3.510e-09
 42.42755     18.3 1.344e+04 2.880e-09
 42.44720     18.0 1.294e+04 2.049e-09
 42.46135     16.8 1.236e+04 1.273e-09
 42.47117     14.8 1.198e+04 9.827e-10
 42.48651     12.8 1.108e+04 6.509e-10
 42.50617     11.5 1.046e+04 5.170e-10
 42.52583     11.0 1.011e+04 4.150e-10
 42.54548     10.8 1.003e+04 3.943e-10
 42.57506     12.1 9.858e+03 3.474e-10
 42.61447     13.3 9.443e+03 2.414e-10
 42.63829     14.1 9.091e+03 1.362e-10
 42.65795     12.7 8.818e+03 8.871e-11
 42.69309     12.4 8.713e+03 6.304e-11
 42.73114     12.5 8.690e+03 6.357e-11
 42.75080     13.3 8.873e+03 6.972e-11
 42.77172     13.4 8.857e+03 7.392e-11
 42.81103     13.9 8.804e+03 9.019e-11
 42.85034     14.9 8.835e+03 1.057e-10
 42.88965     15.8 8.935e+03 1.182e-10
 42.92896     16.3 9.120e+03 1.432e-10
 42.96827     16.3 9.360e+03 1.907e-10
 42.99178     16.1 9.645e+03 2.536e-10
 43.01144     15.2 1.001e+04 2.948e-10
 43.04690     14.2 1.075e+04 4.808e-10
 43.08621     12.9 1.121e+04 6.125e-10
 43.12552     11.9 1.105e+04 5.605e-10
 43.16483     11.8 1.062e+04 4.065e-10
 43.20414     11.8 1.013e+04 2.555e-10
 43.24345     12.0 9.711e+03 1.601e-10
 43.28277     12.5 9.428e+03 1.100e-10
 43.32208     13.2 9.243e+03 8.576e-11
 43.34528     14.1 9.140e+03 7.434e-11
 43.36494     13.7 9.108e+03 7.384e-11
 43.40070     14.9 9.041e+03 7.158e-11
 43.44001     16.1 9.036e+03 7.224e-11
 43.47932     17.3 9.052e+03 7.477e-11
 43.51863     18.3 9.130e+03 8.099e-11
 43.55794     18.9 9.314e+03 1.002e-10
 43.59726     19.0 9.712e+03 1.565e-10
 43.63657     18.7 1.027e+04 2.722e-10
 43.67588     18.3 1.073e+04 4.933e-10
 43.69877     18.3 1.115e+04 7.301e-10
 43.71843     18.4 1.101e+04 6.894e-10
 43.75450     18.0 1.151e+04 7.706e-10
 43.79381     17.0 1.159e+04 7.367e-10
 43.83312     15.6 1.160e+04 6.256e-10
 43.86251     14.8 1.173e+04 6.188e-10
 43.87533     13.6 1.201e+04 6.572e-10
 43.88515     14.0 1.176e+04 6.062e-10
 43.90172     13.3 1.170e+04 5.912e-10
 43.92138     12.6 1.165e+04 5.738e-10
 43.94104     12.1 1.156e+04 5.612e-10
 43.96069     12.0 1.154e+04 5.573e-10
 43.99027     12.7 1.149e+04 5.434e-10
 44.02968     12.8 1.131e+04 3.373e-10
 44.05227     12.4 1.136e+04 2.512e-10
 44.07193     13.2 1.089e+04 2.018e-10
 44.10830     13.3 1.103e+04 2.144e-10
 44.14762     13.1 1.138e+04 2.899e-10
 44.18693     12.8 1.194e+04 5.157e-10
 44.22624     12.8 1.268e+04 9.433e-10
 44.26555     12.5 1.301e+04 1.184e-09
 44.30486     12.8 1.276e+04 1.051e-09
 44.34417     13.4 1.234e+04 7.054e-10
 44.38348     13.7 1.201e+04 4.100e-10
 44.40576     13.6 1.169e+04 2.922e-10
 44.42542     14.6 1.171e+04 2.515e-10
 44.46211     15.0 1.145e+04 2.462e-10
 44.50142     16.0 1.143e+04 2.761e-10
 44.54073     17.1 1.147e+04 3.518e-10
 44.58004     18.3 1.150e+04 4.394e-10
 44.61935     19.7 1.154e+04 5.071e-10
 44.65866     20.9 1.164e+04 5.454e-10
 44.69797     21.9 1.181e+04 5.633e-10
 44.72364     22.4 1.205e+04 6.184e-10
 44.74329     21.8 1.184e+04 5.408e-10
 44.75926     22.2 1.198e+04 6.763e-10
 44.77892     22.8 1.215e+04 7.135e-10
 44.81591     23.1 1.238e+04 9.630e-10
 44.85522     23.2 1.263e+04 1.172e-09
 44.89453     23.2 1.282e+04 1.236e-09
 44.92392     23.1 1.277e+04 1.134e-09
 44.93581     22.6 1.277e+04 1.093e-09
 44.94564     22.7 1.294e+04 1.363e-09
 44.96313     22.5 1.278e+04 1.210e-09
 44.98279     22.4 1.254e+04 1.027e-09
 45.00244     22.5 1.226e+04 8.561e-10
 45.02210     22.7 1.200e+04 7.008e-10
 45.04175     22.9 1.183e+04 5.694e-10
 45.06141     22.8 1.171e+04 4.658e-10
 45.08107     22.4 1.160e+04 3.899e-10
 45.10072     22.1 1.154e+04 3.699e-10
 45.11266     22.2 1.137e+04 3.636e-10
 45.13241     22.5 1.129e+04 3.300e-10
 45.16971     23.3 1.110e+04 3.046e-10
 45.20902     24.2 1.093e+04 2.769e-10
 45.24833     25.1 1.090e+04 2.775e-10
 45.28765     26.2 1.098e+04 3.063e-10
 45.31703     27.5 1.108e+04 3.460e-10
 45.33659     27.8 1.116e+04 3.685e-10
 45.35624     28.2 1.139e+04 4.594e-10
 45.37590     28.2 1.173e+04 6.005e-10
 45.39556     27.9 1.223e+04 8.275e-10
 45.41521     27.2 1.279e+04 1.257e-09
 45.43487     26.5 1.332e+04 2.021e-09
 45.45452     26.7 1.384e+04 3.046e-09
 45.46605     26.9 1.415e+04 3.379e-09
 45.47588     27.7 1.407e+04 3.384e-09
 45.49383     27.8 1.416e+04 3.349e-09
 45.51349     27.5 1.413e+04 2.861e-09
 45.53315     26.5 1.385e+04 2.115e-09
 45.56273     25.6 1.324e+04 1.460e-09
 45.60214     23.6 1.228e+04 8.874e-10
 45.64145     23.3 1.144e+04 5.648e-10
 45.68076     23.7 1.094e+04 3.700e-10
 45.72007     24.6 1.053e+04 2.483e-10
 45.75938     25.9 1.026e+04 1.878e-10
 45.79869     27.6 1.015e+04 1.603e-10
 45.81974     29.6 1.008e+04 1.588e-10
 45.83940     30.6 1.007e+04 1.619e-10
 45.87732     32.5 1.012e+04 1.815e-10
 45.91663     34.5 1.016e+04 2.142e-10
 45.95594     36.5 1.022e+04 2.401e-10
 45.99525     38.4 1.025e+04 2.386e-10
 46.03456     40.2 1.028e+04 2.182e-10
 46.07387     41.7 1.026e+04 1.863e-10
 46.11318     43.1 1.020e+04 1.604e-10
 46.15250     44.5 1.015e+04 1.529e-10
 46.17324     45.9 1.014e+04 1.594e-10
 46.19290     46.4 1.026e+04 2.123e-10
 46.23112     47.9 1.026e+04 2.221e-10
 46.27043     49.6 1.031e+04 2.295e-10
 46.30974     51.2 1.031e+04 2.269e-10
 46.34905     52.9 1.030e+04 2.072e-10
 46.38836     54.8 1.027e+04 1.642e-10
 46.42767     56.6 1.028e+04 1.187e-10
 46.46699     58.2 1.018e+04 8.967e-11
 46.50630     59.9 1.012e+04 8.066e-11
 46.52673     61.6 1.011e+04 8.371e-11
 46.54639     62.4 1.041e+04 9.989e-11
 46.58492     64.2 1.038e+04 1.029e-10
 46.62423     65.9 1.037e+04 1.222e-10
 46.66354     67.7 1.053e+04 1.579e-10
 46.69648     69.4 1.071e+04 2.047e-10
 46.71613     68.8 1.086e+04 2.162e-10
 46.74217     70.4 1.100e+04 2.715e-10
 46.78148     71.9 1.116e+04 3.370e-10
 46.82079     73.1 1.131e+04 4.028e-10
 46.86010     74.1 1.147e+04 4.394e-10
 46.88023     74.9 1.159e+04 4.497e-10
 46.88996     74.9 1.184e+04 5.517e-10
 46.90904     75.2 1.189e+04 5.562e-10
 46.92870     75.4 1.189e+04 5.542e-10
 46.94836     75.6 1.186e+04 5.469e-10
 46.96801     75.7 1.185e+04 5.432e-10
 46.98767     75.9 1.185e+04 5.366e-10
 47.00732     76.0 1.183e+04 5.275e-10
 47.02698     76.2 1.179e+04 5.156e-10
 47.04663     76.4 1.175e+04 5.066e-10
 47.05678     76.6 1.176e+04 5.111e-10
 47.06661     76.3 1.174e+04 5.283e-10
 47.08595     76.5 1.174e+04 5.300e-10
 47.10560     76.7 1.177e+04 5.487e-10
 47.12526     76.9 1.184e+04 5.848e-10
 47.14491     77.1 1.195e+04 6.434e-10
 47.16457     77.2 1.207e+04 7.161e-10
 47.18422     77.4 1.217e+04 7.930e-10
 47.20388     77.6 1.226e+04 8.641e-10
 47.22353     77.8 1.231e+04 9.146e-10
 47.23353     78.0 1.234e+04 9.263e-10
 47.24336     77.6 1.231e+04 8.004e-10
 47.26285     77.7 1.230e+04 7.893e-10
 47.28250     77.9 1.226e+04 7.611e-10
 47.30216     78.2 1.219e+04 7.235e-10
 47.32181     78.3 1.212e+04 6.850e-10
 47.34147     78.5 1.204e+04 6.564e-10
 47.36112     78.6 1.197e+04 6.506e-10
 47.38078     78.8 1.197e+04 6.516e-10
 47.40044     79.0 1.196e+04 6.659e-10
 47.42009     79.2 1.199e+04 6.427e-10
 47.43975     79.4 1.208e+04 7.229e-10
 47.45940     79.7 1.226e+04 8.523e-10
 47.47906     79.8 1.253e+04 1.064e-09
 47.49871     79.8 1.302e+04 1.379e-09
 47.51837     79.8 1.354e+04 1.849e-09
 47.53803     79.9 1.402e+04 2.470e-09
 47.55768     80.2 1.441e+04 3.176e-09
 47.57720     80.6 1.472e+04 3.836e-09
 47.58702     80.1 1.475e+04 3.915e-09
 47.59699     80.5 1.501e+04 4.312e-09
 47.61665     80.9 1.521e+04 4.452e-09
 47.63630     81.2 1.537e+04 4.479e-09
 47.65596     81.5 1.549e+04 4.508e-09
 47.67562     81.7 1.560e+04 4.561e-09
 47.69253     81.8 1.575e+04 4.729e-09
 47.70236     81.4 1.573e+04 4.797e-09
 47.71493     81.4 1.592e+04 5.212e-09
 47.73458     81.5 1.618e+04 5.957e-09
 47.75394     81.6 1.655e+04 6.978e-09
 47.76377     81.0 1.592e+04 5.792e-09
 47.77389     81.5 1.637e+04 6.073e-09
 47.79355     81.5 1.643e+04 5.921e-09
 47.81321     81.5 1.651e+04 5.384e-09
 47.83286     81.3 1.647e+04 4.561e-09
 47.85252     80.6 1.633e+04 3.744e-09
 47.87217     79.4 1.601e+04 3.170e-09
 47.89183     78.0 1.558e+04 2.933e-09
 47.91148     77.2 1.520e+04 2.939e-09
 47.93069     77.1 1.507e+04 3.031e-09
 47.94052     76.7 1.493e+04 2.968e-09
 47.95080     76.9 1.485e+04 3.055e-09
 47.97045     77.2 1.480e+04 3.021e-09
 47.99011     77.6 1.464e+04 2.848e-09
 48.00976     78.0 1.443e+04 2.492e-09
 48.02942     78.3 1.420e+04 2.086e-09
 48.04907     78.5 1.396e+04 1.729e-09
 48.06873     78.6 1.370e+04 1.474e-09
 48.08839     78.9 1.342e+04 1.366e-09
 48.10744     79.5 1.337e+04 1.364e-09
 48.11727     79.3 1.319e+04 1.294e-09
 48.12770     80.2 1.322e+04 1.302e-09
 48.14735     80.9 1.341e+04 1.372e-09
 48.16701     81.0 1.381e+04 1.604e-09
 48.18666     80.7 1.438e+04 2.184e-09
 48.20632     80.5 1.528e+04 3.380e-09
 48.22597     80.4 1.596e+04 5.081e-09
 48.24067     80.0 1.638e+04 6.127e-09
 48.25045     79.5 1.688e+04 7.511e-09
 48.26027     79.1 1.736e+04 9.409e-09
 48.27010     78.9 1.769e+04 1.143e-08
 48.27993     78.9 1.805e+04 1.313e-08
 48.28900     79.0 1.833e+04 1.411e-08
 48.29392     78.7 1.783e+04 1.312e-08
 48.29959     78.6 1.778e+04 1.281e-08
 48.30941     78.3 1.770e+04 1.193e-08
 48.31924     77.6 1.735e+04 1.044e-08
 48.32907     77.3 1.713e+04 9.821e-09
 48.34386     76.7 1.678e+04 8.182e-09
 48.36356     75.4 1.629e+04 6.026e-09
 48.38322     73.7 1.538e+04 4.205e-09
 48.40288     72.2 1.455e+04 3.048e-09
 48.42253     71.3 1.390e+04 2.426e-09
 48.44219     71.3 1.350e+04 2.120e-09
 48.46093     71.4 1.326e+04 1.939e-09
 48.47076     71.2 1.259e+04 1.317e-09
 48.48150     71.4 1.244e+04 1.290e-09
 48.50115     71.7 1.237e+04 1.296e-09
 48.52081     72.0 1.232e+04 1.310e-09
 48.54047     72.4 1.230e+04 1.328e-09
 48.56012     72.8 1.229e+04 1.340e-09
 48.57978     73.5 1.237e+04 1.346e-09
 48.59943     73.8 1.243e+04 1.355e-09
 48.61909     74.5 1.237e+04 1.315e-09
 48.63768     74.9 1.234e+04 1.293e-09
 48.64751     74.9 1.186e+04 1.083e-09
 48.66833     76.1 1.165e+04 9.994e-10
 48.68898     77.5 1.159e+04 1.015e-09
 48.70863     77.8 1.149e+04 9.520e-10
 48.74705     79.5 1.145e+04 9.025e-10
 48.78636     81.4 1.155e+04 8.998e-10
 48.81453     82.6 1.169e+04 9.451e-10
 48.82426     82.8 1.166e+04 9.287e-10
 48.83530     83.4 1.164e+04 9.450e-10
 48.85496     84.1 1.166e+04 9.878e-10
 48.87461     84.9 1.179e+04 1.071e-09
 48.89427     85.8 1.198e+04 1.188e-09
 48.91392     86.7 1.218e+04 1.324e-09
 48.93358     87.6 1.236e+04 1.466e-09
 48.95324     88.6 1.254e+04 1.631e-09
 48.97289     89.6 1.272e+04 1.834e-09
 48.99118     90.4 1.294e+04 2.083e-09
 49.00100     90.4 1.249e+04 1.669e-09
 49.01220     91.1 1.273e+04 1.786e-09
 49.03186     91.7 1.304e+04 1.961e-09
 49.05151     92.2 1.341e+04 2.209e-09
 49.07117     92.6 1.378e+04 2.527e-09
 49.09083     92.9 1.409e+04 2.901e-09
 49.11048     93.1 1.434e+04 3.307e-09
 49.13014     93.3 1.451e+04 3.716e-09
 49.14979     93.4 1.462e+04 4.102e-09
 49.16792     93.6 1.471e+04 4.521e-09
 49.17775     93.1 1.371e+04 3.112e-09
 49.18910     93.4 1.400e+04 3.674e-09
 49.20876     93.8 1.431e+04 4.357e-09
 49.22841     94.3 1.468e+04 5.065e-09
 49.24807     94.8 1.506e+04 5.548e-09
 49.26773     95.4 1.518e+04 5.678e-09
 49.28738     95.9 1.513e+04 5.567e-09
 49.30704     96.5 1.493e+04 5.126e-09
 49.32669     97.2 1.456e+04 4.436e-09
 49.34467     98.0 1.412e+04 3.707e-09
 49.35450     98.1 1.386e+04 3.534e-09
 49.36600     98.8 1.344e+04 2.900e-09
 49.38566     99.4 1.300e+04 2.361e-09
 49.40532     99.9 1.259e+04 1.965e-09
 49.42497    100.4 1.224e+04 1.663e-09
 49.44463    101.2 1.192e+04 1.428e-09
 49.46428    102.0 1.162e+04 1.247e-09
 49.48394    103.0 1.131e+04 1.050e-09
 49.50359    103.9 1.107e+04 8.990e-10
 49.52142    104.9 1.083e+04 7.770e-10
 49.53125    104.8 1.079e+04 7.430e-10
 49.54291    105.9 1.057e+04 6.371e-10
 49.56256    106.9 1.042e+04 5.622e-10
 49.58222    107.9 1.033e+04 5.119e-10
 49.60187    109.0 1.025e+04 4.718e-10
 49.62153    110.2 1.015e+04 4.350e-10
 49.64118    111.3 1.005e+04 4.059e-10
 49.66084    112.5 9.996e+03 3.939e-10
 49.67520    113.6 9.984e+03 3.962e-10
 49.68503    113.7 9.970e+03 3.860e-10
 49.69817    114.7 9.971e+03 3.934e-10
 49.70799    114.2 9.896e+03 3.787e-10
 49.71981    115.2 9.957e+03 4.055e-10
 49.73946    116.3 1.004e+04 4.459e-10
 49.75912    117.5 1.015e+04 5.012e-10
 49.77877    118.6 1.029e+04 5.696e-10
 49.79843    119.6 1.045e+04 6.486e-10
 49.81809    120.6 1.066e+04 7.398e-10
 49.83774    121.5 1.091e+04 8.431e-10
 49.85740    122.2 1.121e+04 9.654e-10
 49.87491    122.8 1.150e+04 1.108e-09
 49.88474    122.2 1.162e+04 1.193e-09
 49.89671    122.8 1.185e+04 1.363e-09
 49.91636    123.5 1.203e+04 1.513e-09
 49.93602    124.2 1.221e+04 1.653e-09
 49.95568    124.9 1.238e+04 1.802e-09
 49.97533    125.5 1.263e+04 1.986e-09
 49.99499    126.0 1.283e+04 2.194e-09
 50.01464    126.5 1.308e+04 2.424e-09
 50.03430    126.8 1.337e+04 2.684e-09
 50.05166    127.1 1.364e+04 2.962e-09
 50.06149    127.0 1.294e+04 2.231e-09
 50.07361    127.3 1.310e+04 2.339e-09
 50.09326    127.6 1.324e+04 2.437e-09
 50.11292    128.0 1.335e+04 2.480e-09
 50.13258    128.4 1.335e+04 2.466e-09
 50.15223    129.0 1.332e+04 2.407e-09
 50.17189    129.6 1.319e+04 2.256e-09
 50.19154    130.3 1.297e+04 2.023e-09
 50.21120    131.1 1.269e+04 1.746e-09
 50.22841    132.0 1.239e+04 1.478e-09
 50.23824    132.2 1.182e+04 1.076e-09
 50.25051    133.1 1.148e+04 8.713e-10
 50.27017    133.9 1.115e+04 7.035e-10
 50.28982    134.6 1.086e+04 5.823e-10
 50.30948    135.3 1.063e+04 5.109e-10
 50.32913    136.0 1.039e+04 4.974e-10
 50.34879    136.9 1.038e+04 4.977e-10
 50.36844    137.8 1.039e+04 5.040e-10
 50.38810    138.6 1.047e+04 5.355e-10
 50.40516    139.1 1.065e+04 6.112e-10
 50.41498    139.0 1.041e+04 4.928e-10
 50.42741    139.4 1.074e+04 6.249e-10
 50.44707    139.6 1.124e+04 8.740e-10
 50.46672    139.6 1.203e+04 1.352e-09
 50.48638    139.7 1.314e+04 2.209e-09
 50.50603    139.9 1.440e+04 3.590e-09
 50.52569    140.2 1.564e+04 5.508e-09
 50.54535    140.3 1.680e+04 7.653e-09
 50.56500    140.2 1.770e+04 9.854e-09
 50.58190    139.9 1.858e+04 1.187e-08
 50.59173    139.9 1.849e+04 1.258e-08
 50.60431    139.1 1.918e+04 1.455e-08
 50.62397    137.9 1.956e+04 1.498e-08
 50.64362    136.5 1.957e+04 1.481e-08
 50.66162    135.2 1.939e+04 1.368e-08
 50.67145    133.4 1.980e+04 1.386e-08
 50.68294    133.1 1.899e+04 1.086e-08
 50.70259    133.4 1.774e+04 7.676e-09
 50.72225    133.7 1.626e+04 4.970e-09
 50.74190    133.5 1.467e+04 3.079e-09
 50.75865    132.8 1.325e+04 1.932e-09
 50.76848    130.8 1.184e+04 1.329e-09
 50.78121    129.4 1.154e+04 1.211e-09
 50.80087    128.9 1.153e+04 1.223e-09
 50.82053    128.7 1.162e+04 1.307e-09
 50.84018    128.7 1.194e+04 1.509e-09
 50.85984    128.8 1.220e+04 1.721e-09
 50.87949    128.8 1.239e+04 1.738e-09
 50.89915    128.7 1.232e+04 1.687e-09
 50.91880    128.2 1.211e+04 1.522e-09
 50.93540    127.1 1.198e+04 1.208e-09
 50.94523    122.5 1.087e+04 9.650e-10
 50.95812    119.8 1.026e+04 6.638e-10
 50.97777    116.4 9.700e+03 4.623e-10
 50.99743    112.4 9.337e+03 3.852e-10
 51.01708    108.8 9.308e+03 3.860e-10
 51.03674    105.8 9.448e+03 4.125e-10
 51.05639    103.7 9.901e+03 5.126e-10
 51.07605    102.4 1.050e+04 7.114e-10
 51.09570    101.7 1.111e+04 1.008e-09
 51.11215    101.3 1.175e+04 1.389e-09
 51.12197    104.4 1.083e+04 1.002e-09
 51.13502    104.1 1.148e+04 1.365e-09
 51.15467    103.7 1.217e+04 1.836e-09
 51.17433    103.3 1.291e+04 2.460e-09
 51.19398    103.0 1.371e+04 3.262e-09
 51.21364    102.8 1.441e+04 4.095e-09
 51.23329    102.5 1.473e+04 4.434e-09
 51.25295    102.2 1.469e+04 4.340e-09
 51.27261    101.9 1.438e+04 3.848e-09
 51.28889    101.7 1.370e+04 2.915e-09
 51.29872    103.4 1.413e+04 3.469e-09
 51.31192    103.2 1.341e+04 2.541e-09
 51.33157    103.0 1.255e+04 1.684e-09
 51.35123    102.5 1.168e+04 1.093e-09
 51.37088    101.7 1.093e+04 8.024e-10
 51.39054    101.3 1.063e+04 7.580e-10
 51.41020    101.5 1.058e+04 7.571e-10
 51.42985    101.9 1.057e+04 7.750e-10
 51.44951    102.7 1.059e+04 8.356e-10
 51.46564    103.6 1.071e+04 9.008e-10
 51.47547    104.6 1.065e+04 8.369e-10
 51.48882    105.4 1.074e+04 8.800e-10
 51.50847    106.3 1.078e+04 8.826e-10
 51.52813    107.1 1.078e+04 8.535e-10
 51.54779    107.8 1.071e+04 7.766e-10
 51.56744    108.4 1.058e+04 6.725e-10
 51.58710    108.8 1.042e+04 5.718e-10
 51.60675    109.2 1.026e+04 4.961e-10
 51.62641    109.4 1.014e+04 4.507e-10
 51.64239    109.7 1.008e+04 4.289e-10
 51.65222    111.3 1.019e+04 4.280e-10
 51.65787    111.6 1.004e+04 4.175e-10
 51.66770    111.5 9.879e+03 3.820e-10
 51.68538    111.9 9.880e+03 3.822e-10
 51.70503    112.3 9.899e+03 3.850e-10
 51.72469    112.6 9.939e+03 3.948e-10
 51.74434    113.0 1.000e+04 4.165e-10
 51.76400    113.4 1.011e+04 4.513e-10
 51.78365    113.7 1.023e+04 4.941e-10
 51.80331    114.1 1.036e+04 5.410e-10
 51.81914    114.4 1.050e+04 5.915e-10
 51.82896    115.6 1.029e+04 5.188e-10
 51.84262    115.8 1.044e+04 5.706e-10
 51.86228    116.1 1.059e+04 6.261e-10
 51.88193    116.3 1.075e+04 6.859e-10
 51.90159    116.5 1.092e+04 7.512e-10
 51.92124    116.6 1.107e+04 8.185e-10
 51.94090    116.8 1.119e+04 8.803e-10
 51.96056    117.1 1.130e+04 9.234e-10
 51.98021    117.4 1.139e+04 9.326e-10
 51.99588    117.7 1.140e+04 9.310e-10
 52.00571    118.2 1.143e+04 9.388e-10
 52.01952    118.4 1.144e+04 9.364e-10
 52.03918    118.6 1.145e+04 9.192e-10
 52.05883    118.9 1.143e+04 8.810e-10
 52.07849    119.1 1.141e+04 8.451e-10
 52.09814    119.5 1.141e+04 8.387e-10
 52.11780    120.0 1.143e+04 8.442e-10
 52.13746    120.5 1.153e+04 8.759e-10
 52.15711    121.1 1.170e+04 9.490e-10
 52.17263    121.9 1.190e+04 1.056e-09
 52.18246    121.4 1.211e+04 1.120e-09
 52.19642    122.2 1.227e+04 1.218e-09
 52.21608    123.0 1.235e+04 1.297e-09
 52.23573    123.8 1.239e+04 1.347e-09
 52.25539    124.6 1.238e+04 1.347e-09
 52.27505    125.4 1.232e+04 1.325e-09
 52.29470    126.3 1.220e+04 1.267e-09
 52.31436    127.2 1.205e+04 1.207e-09
 52.33401    128.1 1.192e+04 1.156e-09
 52.34938    129.0 1.179e+04 1.094e-09
 52.35921    128.4 1.150e+04 8.868e-10
 52.37332    129.2 1.140e+04 8.325e-10
 52.39298    130.4 1.129e+04 7.671e-10
 52.41264    131.4 1.122e+04 7.251e-10
 52.43229    132.6 1.116e+04 6.981e-10
 52.45195    133.7 1.113e+04 6.925e-10
 52.47160    134.9 1.113e+04 6.937e-10
 52.49126    136.1 1.115e+04 7.011e-10
 52.51091    137.2 1.118e+04 7.190e-10
 52.52613    138.3 1.123e+04 7.453e-10
 52.53595    137.9 1.080e+04 5.426e-10
 52.55023    139.2 1.082e+04 5.527e-10
 52.56988    140.5 1.084e+04 5.651e-10
 52.58954    141.8 1.086e+04 5.788e-10
 52.60919    143.2 1.089e+04 5.960e-10
 52.62885    144.6 1.093e+04 6.217e-10
 52.64429    146.0 1.098e+04 6.584e-10
 52.65412    146.1 1.122e+04 7.939e-10
 52.66816    147.5 1.126e+04 8.344e-10
 52.68782    148.9 1.130e+04 8.875e-10
 52.70287    150.5 1.137e+04 9.580e-10
 52.71270    150.3 1.103e+04 7.748e-10
 52.72713    151.8 1.123e+04 8.895e-10
 52.74678    153.2 1.152e+04 1.051e-09
 52.76644    154.5 1.178e+04 1.274e-09
 52.78609    155.5 1.276e+04 1.585e-09
 52.80575    156.4 1.403e+04 2.215e-09
 52.82541    157.5 1.510e+04 3.151e-09
 52.84010    157.8 1.574e+04 3.831e-09
 52.84988    157.8 1.644e+04 4.570e-09
 52.85971    157.6 1.745e+04 5.794e-09
 52.86953    157.2 1.858e+04 7.745e-09
 52.87936    156.8 1.961e+04 1.056e-08
 52.88444    156.4 2.044e+04 1.433e-08
 52.88935    155.6 2.120e+04 2.143e-08
 52.89902    155.6 2.173e+04 2.867e-08
 52.90884    155.6 2.222e+04 3.764e-08
 52.91867    155.5 2.272e+04 4.824e-08
 52.92850    155.2 2.323e+04 5.970e-08
 52.93833    154.7 2.366e+04 6.861e-08
 52.94816    153.9 2.414e+04 7.276e-08
 52.95798    153.0 2.433e+04 7.143e-08
 52.96781    152.4 2.453e+04 6.399e-08
 52.97281    151.9 2.459e+04 5.093e-08
 52.97773    150.5 2.373e+04 4.043e-08
 52.98747    149.5 2.310e+04 2.927e-08
 52.99729    148.8 2.229e+04 2.136e-08
 53.00712    148.1 2.156e+04 1.654e-08
 53.01695    147.1 2.074e+04 1.281e-08
 53.02678    146.3 2.006e+04 1.083e-08
 53.03661    145.4 1.910e+04 8.788e-09
 53.04643    144.6 1.829e+04 7.707e-09
 53.05626    143.7 1.725e+04 6.642e-09
 53.06614    144.0 1.677e+04 6.665e-09
 53.07597    142.8 1.601e+04 5.875e-09
 53.08575    142.3 1.574e+04 5.657e-09
 53.09557    142.1 1.563e+04 5.572e-09
 53.10540    142.0 1.558e+04 5.532e-09
 53.11523    141.8 1.553e+04 5.464e-09
 53.12506    141.6 1.547e+04 5.365e-09
 53.13488    141.3 1.541e+04 5.241e-09
 53.14232    141.0 1.532e+04 5.066e-09
 53.14716    141.5 1.544e+04 5.245e-09
 53.14956    141.6 1.519e+04 4.820e-09
 53.15950    140.7 1.513e+04 4.655e-09
 53.17921    139.5 1.500e+04 4.260e-09
 53.19886    137.8 1.510e+04 4.082e-09
 53.21356    136.0 1.533e+04 4.000e-09
 53.22334    135.2 1.543e+04 4.010e-09
 53.23302    132.6 1.631e+04 4.465e-09
 53.24290    130.1 1.637e+04 4.378e-09
 53.25783    125.0 1.811e+04 7.081e-09
 53.27749    120.7 1.898e+04 1.138e-08
 53.29714    117.8 1.895e+04 1.352e-08
 53.31680    115.7 1.876e+04 1.293e-08
 53.33645    114.4 1.811e+04 9.945e-09
 53.35611    112.8 1.715e+04 5.669e-09
 53.37576    110.2 1.565e+04 2.543e-09
 53.39542    106.3 1.312e+04 1.127e-09
 53.40986    103.2 1.094e+04 7.497e-10
 53.41969    102.9 1.031e+04 5.382e-10
 53.43473    102.8 1.022e+04 5.073e-10
 53.45439    103.3 1.024e+04 4.997e-10
 53.47404    104.0 1.028e+04 5.014e-10
 53.49370    104.6 1.037e+04 5.082e-10
 53.51335    105.1 1.048e+04 5.275e-10
 53.53301    105.5 1.064e+04 5.704e-10
 53.55267    105.9 1.088e+04 6.461e-10
 53.57232    106.2 1.115e+04 7.576e-10
 53.58661    106.6 1.146e+04 9.072e-10
 53.59644    106.0 1.139e+04 8.867e-10
 53.61163    106.5 1.168e+04 1.068e-09
 53.63071    107.0 1.196e+04 1.259e-09
 53.64054    107.4 1.173e+04 1.124e-09
 53.65094    108.1 1.199e+04 1.299e-09
 53.67060    108.8 1.224e+04 1.479e-09
 53.69026    109.6 1.247e+04 1.644e-09
 53.70991    110.4 1.264e+04 1.763e-09
 53.72957    111.2 1.275e+04 1.796e-09
 53.74922    112.0 1.276e+04 1.789e-09
 53.76336    112.8 1.276e+04 1.742e-09
 53.77319    112.0 1.240e+04 1.427e-09
 53.78853    112.7 1.237e+04 1.373e-09
 53.80819    113.4 1.235e+04 1.327e-09
 53.82785    114.1 1.241e+04 1.331e-09
 53.84750    114.7 1.261e+04 1.367e-09
 53.86716    114.9 1.295e+04 1.492e-09
 53.88681    114.7 1.348e+04 1.780e-09
 53.90647    114.3 1.422e+04 2.400e-09
 53.92612    114.2 1.512e+04 3.621e-09
 53.94011    114.4 1.606e+04 5.574e-09
 53.94993    114.3 1.600e+04 5.791e-09
 53.96544    115.3 1.730e+04 9.544e-09
 53.98013    115.5 1.803e+04 1.298e-08
 53.98991    115.6 1.860e+04 1.746e-08
 53.99973    115.8 1.927e+04 2.614e-08
 54.00956    116.9 2.029e+04 4.287e-08
 54.01939    118.0 2.149e+04 7.212e-08
 54.02838    117.9 2.256e+04 1.031e-07
 54.03330    117.7 2.161e+04 8.319e-08
 54.03905    117.0 2.218e+04 8.985e-08
 54.04887    116.0 2.214e+04 8.748e-08
 54.05870    115.8 2.191e+04 7.624e-08
 54.06853    116.1 2.164e+04 6.030e-08
 54.07836    116.2 2.144e+04 4.572e-08
 54.08819    116.0 2.127e+04 3.483e-08
 54.09801    115.4 2.091e+04 2.666e-08
 54.10784    115.0 2.061e+04 2.302e-08
 54.11680    114.9 2.051e+04 2.047e-08
 54.12668    115.2 1.951e+04 1.612e-08
 54.14234    115.5 1.913e+04 1.394e-08
 54.16199    115.8 1.873e+04 1.185e-08
 54.18165    116.2 1.830e+04 1.017e-08
 54.20130    116.7 1.795e+04 8.619e-09
 54.22096    117.2 1.758e+04 7.163e-09
 54.24061    117.9 1.713e+04 5.789e-09
 54.26027    118.7 1.661e+04 4.566e-09
 54.27993    119.6 1.591e+04 3.459e-09
 54.29360    120.4 1.520e+04 2.612e-09
 54.30343    120.7 1.375e+04 1.642e-09
 54.31924    120.8 1.290e+04 1.116e-09
 54.33889    120.6 1.204e+04 7.808e-10
 54.35855    119.9 1.155e+04 6.115e-10
 54.37820    119.0 1.160e+04 6.084e-10
 54.39786    116.8 1.219e+04 6.799e-10
 54.41752    112.1 1.363e+04 9.412e-10
 54.43221    107.6 1.479e+04 1.321e-09
 54.44199    104.5 1.588e+04 1.757e-09
 54.45182     99.8 1.832e+04 3.341e-09
 54.46164     95.5 1.993e+04 7.053e-09
 54.47025     92.9 2.064e+04 1.253e-08
 54.47516     95.0 1.984e+04 7.853e-09
 54.48130     93.1 2.060e+04 1.246e-08
 54.49113     91.9 2.139e+04 1.623e-08
 54.50095     91.0 2.209e+04 1.750e-08
 54.51078     89.3 2.289e+04 1.733e-08
 54.52061     88.0 2.292e+04 1.710e-08
 54.53540     87.4 2.278e+04 1.509e-08
 54.55511     84.5 2.206e+04 1.302e-08
 54.57476     82.0 2.078e+04 1.236e-08
 54.59442     80.8 2.056e+04 1.320e-08
 54.60911     80.0 2.103e+04 1.477e-08
 54.61889     78.9 2.212e+04 1.821e-08
 54.62686     77.4 2.342e+04 2.564e-08
 54.63178     75.5 2.349e+04 2.935e-08
 54.63854     74.4 2.349e+04 4.686e-08
 54.64700     74.4 2.317e+04 8.826e-08
 54.65191     75.1 2.280e+04 7.850e-08
 54.65820     75.2 2.276e+04 1.702e-07
 54.66803     74.9 2.288e+04 3.423e-07
 54.67786     72.6 2.349e+04 3.784e-07
 54.68768     69.4 2.359e+04 3.228e-07
 54.69751     67.3 2.418e+04 1.949e-07
 54.70734     65.3 2.572e+04 9.606e-08
 54.71717     62.4 2.794e+04 4.530e-08
 54.72700     57.2 2.949e+04 2.477e-08
 54.73537     49.6 2.887e+04 1.852e-08
 54.74029     45.5 2.637e+04 1.832e-08
 54.74665     37.2 2.551e+04 1.894e-08
 54.75648     30.7 2.479e+04 2.098e-08
 54.76631     26.0 2.334e+04 2.558e-08
 54.77613     22.7 2.228e+04 3.037e-08
 54.78596     20.7 2.168e+04 3.083e-08
 54.79579     19.5 2.121e+04 2.788e-08
 54.80562     18.3 2.105e+04 2.022e-08
 54.81545     15.8 2.064e+04 1.383e-08
 54.82379     13.0 2.023e+04 1.125e-08
 54.83367     11.1 1.943e+04 6.058e-09
 54.84994      3.3 1.623e+04 2.604e-09
 54.86960     -2.2 1.282e+04 1.620e-09
 54.88925     -3.2 1.230e+04 1.540e-09
 54.90891     -3.0 1.241e+04 1.575e-09
 54.92856     -2.9 1.253e+04 1.638e-09
 54.94822     -2.7 1.271e+04 1.769e-09
 54.96788     -2.4 1.288e+04 1.958e-09
 54.98753     -1.5 1.301e+04 2.184e-09
 55.00059     -0.2 1.321e+04 2.446e-09
 55.01042     -0.7 1.332e+04 2.039e-09
 55.02684      0.7 1.376e+04 2.351e-09
 55.04650      1.9 1.428e+04 2.841e-09
 55.06615      1.6 1.582e+04 3.501e-09
 55.08581     -1.0 1.855e+04 5.720e-09
 55.10546     -4.7 2.214e+04 1.131e-08
 55.12012     -6.6 2.291e+04 1.706e-08
 55.12990    -10.4 2.216e+04 1.749e-08
 55.13976    -13.5 2.260e+04 2.075e-08
 55.14959    -17.5 2.310e+04 2.333e-08
 55.15942    -21.8 2.357e+04 2.596e-08
 55.16925    -26.7 2.432e+04 2.836e-08
 55.17724    -32.5 2.491e+04 3.038e-08
 55.18215    -35.2 2.392e+04 2.639e-08
 55.18890    -40.0 2.367e+04 2.963e-08
 55.19873    -43.1 2.317e+04 3.346e-08
 55.20856    -44.6 2.286e+04 3.698e-08
 55.21839    -45.4 2.248e+04 3.803e-08
 55.22822    -45.5 2.216e+04 3.483e-08
 55.23804    -46.0 2.133e+04 2.779e-08
 55.24787    -46.2 2.073e+04 2.174e-08
 55.25770    -46.4 2.025e+04 1.650e-08
 55.26561    -46.6 1.979e+04 1.290e-08
 55.27053    -47.7 1.932e+04 1.023e-08
 55.28232    -48.4 1.862e+04 8.240e-09
 55.30202    -48.6 1.654e+04 4.546e-09
 55.32168    -50.0 1.436e+04 2.711e-09
 55.34133    -50.6 1.299e+04 2.061e-09
 55.35409    -50.1 1.245e+04 1.749e-09
 55.36391    -51.2 1.234e+04 1.746e-09
 55.38064    -50.3 1.218e+04 1.647e-09
 55.40030    -49.5 1.207e+04 1.542e-09
 55.41996    -48.7 1.191e+04 1.400e-09
 55.43961    -48.3 1.175e+04 1.240e-09
 55.45927    -48.3 1.170e+04 1.101e-09
 55.47892    -48.8 1.182e+04 1.059e-09
 55.49858    -50.2 1.233e+04 1.147e-09
 55.51823    -51.9 1.266e+04 1.418e-09
 55.53083    -53.1 1.268e+04 1.768e-09
 55.54066    -53.7 1.224e+04 1.824e-09
 55.55755    -53.5 1.197e+04 1.995e-09
 55.57720    -53.1 1.186e+04 2.012e-09
 55.59686    -52.6 1.192e+04 1.934e-09
 55.61338    -52.4 1.232e+04 1.819e-09
 55.62321    -51.4 1.204e+04 2.032e-09
 55.63617    -51.2 1.256e+04 1.978e-09
 55.65582    -52.3 1.322e+04 1.811e-09
 55.67548    -55.6 1.343e+04 1.485e-09
 55.69514    -59.4 1.188e+04 1.142e-09
 55.70758    -61.3 1.083e+04 1.037e-09
 55.71741    -61.4 1.038e+04 8.149e-10
 55.73445    -61.5 1.038e+04 9.836e-10
 55.75410    -60.6 1.044e+04 1.055e-09
 55.77376    -59.5 1.044e+04 1.071e-09
 55.79341    -58.6 1.031e+04 8.974e-10
 55.81307    -58.2 9.967e+03 6.712e-10
 55.83273    -58.4 9.414e+03 4.639e-10
 55.86231    -58.7 8.795e+03 3.347e-10
 55.90172    -57.8 8.384e+03 2.597e-10
 55.94103    -57.5 8.435e+03 2.506e-10
 55.98034    -61.8 1.076e+04 4.777e-10
 56.00972    -65.4 1.211e+04 1.188e-09
 56.02928    -66.6 1.308e+04 2.351e-09
 56.04894    -66.7 1.396e+04 3.826e-09
 56.06108    -66.2 1.464e+04 4.589e-09
 56.07090    -66.9 1.498e+04 5.152e-09
 56.08825    -66.8 1.516e+04 5.216e-09
 56.10790    -67.7 1.538e+04 3.642e-09
 56.12756    -71.8 1.395e+04 1.621e-09
 56.14722    -76.8 1.129e+04 6.876e-10
 56.16687    -79.0 1.012e+04 4.373e-10
 56.18653    -79.6 9.791e+03 3.565e-10
 56.20618    -80.1 9.506e+03 3.045e-10
 56.22584    -80.3 9.223e+03 2.861e-10
 56.25542    -80.0 9.195e+03 2.844e-10
 56.29483    -78.9 9.133e+03 2.825e-10
 56.33414    -77.7 9.196e+03 2.848e-10
 56.37345    -77.2 9.511e+03 3.256e-10
 56.40494    -77.3 1.014e+04 4.687e-10
 56.42459    -76.9 1.037e+04 5.165e-10
 56.44215    -77.4 1.085e+04 7.081e-10
 56.46171    -78.6 1.155e+04 1.047e-09
 56.48136    -79.4 1.221e+04 1.507e-09
 56.50102    -80.2 1.268e+04 1.937e-09
 56.52067    -81.2 1.290e+04 2.129e-09
 56.54033    -82.5 1.293e+04 2.137e-09
 56.55999    -83.8 1.273e+04 1.813e-09
 56.57964    -85.6 1.239e+04 1.398e-09
 56.59132    -87.6 1.206e+04 1.113e-09
 56.60115    -88.0 1.190e+04 1.037e-09
 56.60963    -89.6 1.160e+04 8.592e-10
 56.61946    -88.5 1.141e+04 7.827e-10
 56.63861    -89.7 1.125e+04 6.820e-10
 56.65826    -90.6 1.118e+04 6.189e-10
 56.67792    -91.2 1.115e+04 5.813e-10
 56.69758    -91.6 1.114e+04 5.606e-10
 56.71723    -91.7 1.114e+04 5.442e-10
 56.73689    -91.8 1.114e+04 5.191e-10
 56.75654    -91.5 1.110e+04 4.841e-10
 56.76807    -91.2 1.108e+04 4.552e-10
 56.77789    -91.6 1.107e+04 4.468e-10
 56.79585    -91.3 1.106e+04 4.391e-10
 56.81551    -91.0 1.107e+04 4.389e-10
 56.83517    -90.9 1.122e+04 4.469e-10
 56.85482    -91.2 1.146e+04 5.009e-10
 56.87448    -91.6 1.176e+04 6.232e-10
 56.89413    -91.8 1.216e+04 8.473e-10
 56.91379    -91.8 1.260e+04 1.183e-09
 56.93344    -91.5 1.304e+04 1.597e-09
 56.94481    -91.1 1.341e+04 2.024e-09
 56.95464    -91.1 1.275e+04 1.413e-09
 56.97276    -90.8 1.294e+04 1.659e-09
 56.99241    -90.3 1.306e+04 1.861e-09
 57.01207    -89.8 1.312e+04 2.003e-09
 57.03172    -89.2 1.316e+04 2.100e-09
 57.05138    -88.5 1.323e+04 2.176e-09
 57.07103    -88.1 1.337e+04 2.277e-09
 57.09069    -87.9 1.366e+04 2.471e-09
 57.11034    -88.1 1.415e+04 2.874e-09
 57.12156    -88.9 1.495e+04 3.735e-09
 57.13139    -88.4 1.396e+04 2.603e-09
 57.14966    -88.7 1.460e+04 3.377e-09
 57.16931    -88.8 1.528e+04 4.396e-09
 57.18897    -88.6 1.584e+04 5.350e-09
 57.20862    -88.3 1.612e+04 5.784e-09
 57.22828    -88.0 1.616e+04 5.808e-09
 57.24793    -87.6 1.595e+04 5.026e-09
 57.26759    -87.5 1.537e+04 3.794e-09
 57.28725    -88.0 1.461e+04 2.783e-09
 57.29831    -88.8 1.391e+04 2.166e-09
 57.30814    -88.1 1.309e+04 1.588e-09
 57.32656    -88.4 1.290e+04 1.451e-09
 57.34621    -88.4 1.287e+04 1.419e-09
 57.36587    -88.4 1.295e+04 1.428e-09
 57.38552    -88.6 1.312e+04 1.540e-09
 57.40518    -88.7 1.325e+04 1.714e-09
 57.42484    -88.8 1.335e+04 1.938e-09
 57.44449    -88.8 1.342e+04 2.198e-09
 57.46415    -88.5 1.346e+04 2.446e-09
 57.47506    -88.1 1.348e+04 2.588e-09
 57.48488    -87.6 1.293e+04 1.896e-09
 57.50346    -87.0 1.295e+04 2.035e-09
 57.52311    -86.3 1.283e+04 2.026e-09
 57.54277    -85.6 1.264e+04 1.701e-09
 57.56243    -85.3 1.224e+04 1.386e-09
 57.59201    -84.3 1.190e+04 1.163e-09
 57.63142    -83.0 1.110e+04 7.635e-10
 57.67073    -81.3 1.065e+04 5.587e-10
 57.71004    -79.7 1.022e+04 4.288e-10
 57.74935    -78.5 9.765e+03 3.329e-10
 57.78866    -77.4 9.507e+03 2.845e-10
 57.81892    -76.1 9.485e+03 2.745e-10
 57.83857    -75.7 1.045e+04 4.923e-10
 57.86728    -74.8 1.035e+04 4.775e-10
 57.90660    -73.9 1.054e+04 5.770e-10
 57.94591    -72.8 1.093e+04 7.824e-10
 57.98522    -71.5 1.128e+04 9.837e-10
 58.02453    -70.4 1.141e+04 1.062e-09
 58.06384    -69.8 1.141e+04 1.065e-09
 58.10315    -69.0 1.123e+04 9.665e-10
 58.14246    -68.3 1.098e+04 8.403e-10
 58.17241    -67.6 1.071e+04 7.202e-10
 58.19207    -67.0 1.091e+04 7.976e-10
 58.22109    -66.2 1.069e+04 6.985e-10
 58.26040    -65.5 1.041e+04 5.736e-10
 58.29971    -65.1 1.019e+04 4.840e-10
 58.33902    -64.7 1.013e+04 4.625e-10
 58.37833    -64.1 1.020e+04 4.777e-10
 58.40772    -63.2 1.050e+04 5.611e-10
 58.42728    -63.1 1.053e+04 5.693e-10
 58.44693    -62.7 1.052e+04 5.736e-10
 58.46659    -62.3 1.043e+04 5.628e-10
 58.48624    -61.7 1.039e+04 5.309e-10
 58.50590    -61.2 1.038e+04 4.931e-10
 58.52581    -60.7 1.038e+04 4.511e-10
 58.54556    -59.6 1.022e+04 3.981e-10
 58.57284    -58.7 1.004e+04 3.233e-10
 58.59249    -59.3 1.010e+04 3.306e-10
 58.61420    -57.9 9.986e+03 2.990e-10
 58.65351    -56.3 1.002e+04 3.012e-10
 58.68290    -55.2 1.030e+04 3.894e-10
 58.70246    -54.9 1.040e+04 4.209e-10
 58.72211    -53.4 1.038e+04 3.858e-10
 58.74177    -53.2 1.044e+04 3.968e-10
 58.76142    -52.7 1.071e+04 4.907e-10
 58.78108    -52.9 1.106e+04 6.141e-10
 58.80073    -53.0 1.156e+04 8.584e-10
 58.82039    -53.4 1.210e+04 1.170e-09
 58.84005    -53.7 1.269e+04 1.572e-09
 58.85970    -54.1 1.322e+04 1.967e-09
 58.87921    -54.8 1.363e+04 2.224e-09
 58.88904    -54.3 1.344e+04 2.052e-09
 58.89901    -55.3 1.369e+04 2.182e-09
 58.91867    -56.8 1.374e+04 2.192e-09
 58.93832    -58.4 1.350e+04 2.014e-09
 58.95798    -60.0 1.318e+04 1.822e-09
 58.97764    -61.3 1.289e+04 1.605e-09
 58.99729    -62.7 1.258e+04 1.327e-09
 59.01695    -64.2 1.213e+04 1.006e-09
 59.03660    -66.1 1.156e+04 7.342e-10
 59.05596    -68.1 1.107e+04 5.808e-10
 59.06578    -67.9 1.106e+04 5.564e-10
 59.07591    -69.5 1.078e+04 4.854e-10
 59.09557    -70.6 1.081e+04 4.862e-10
 59.12515    -73.3 1.069e+04 4.848e-10
 59.15463    -74.9 1.059e+04 4.710e-10
 59.17419    -75.6 1.077e+04 5.303e-10
 59.19385    -77.1 1.094e+04 6.429e-10
 59.21350    -78.0 1.113e+04 7.643e-10
 59.23270    -78.6 1.125e+04 8.654e-10
 59.24253    -77.6 1.101e+04 6.779e-10
 59.25281    -78.1 1.115e+04 7.594e-10
 59.27247    -78.5 1.128e+04 8.683e-10
 59.29213    -78.8 1.141e+04 1.010e-09
 59.31178    -78.9 1.161e+04 1.189e-09
 59.33144    -79.0 1.187e+04 1.381e-09
 59.35109    -79.0 1.209e+04 1.538e-09
 59.37075    -78.8 1.217e+04 1.615e-09
 59.39040    -78.8 1.215e+04 1.625e-09
 59.40945    -78.6 1.192e+04 1.474e-09
 59.41928    -77.8 1.230e+04 1.782e-09
 59.42972    -77.6 1.204e+04 1.559e-09
 59.44937    -77.5 1.165e+04 1.262e-09
 59.46903    -77.5 1.120e+04 9.686e-10
 59.48868    -77.5 1.080e+04 7.307e-10
 59.50834    -77.5 1.047e+04 5.538e-10
 59.52799    -77.6 1.018e+04 4.350e-10
 59.55758    -77.5 9.884e+03 3.431e-10
 59.58639    -76.3 9.666e+03 2.821e-10
 59.60605    -75.7 1.024e+04 4.527e-10
 59.63630    -75.1 1.022e+04 4.375e-10
 59.67561    -75.0 1.034e+04 4.558e-10
 59.71492    -75.6 1.121e+04 6.876e-10
 59.75423    -76.5 1.219e+04 1.096e-09
 59.78362    -77.9 1.295e+04 1.435e-09
 59.80317    -78.6 1.341e+04 1.622e-09
 59.82283    -79.5 1.354e+04 1.672e-09
 59.84249    -80.4 1.343e+04 1.591e-09
 59.86214    -80.9 1.310e+04 1.447e-09
 59.88180    -81.0 1.274e+04 1.325e-09
 59.90145    -81.0 1.247e+04 1.238e-09
 59.92111    -80.8 1.223e+04 1.155e-09
 59.93969    -80.3 1.203e+04 1.068e-09
 59.94952    -80.5 1.233e+04 1.223e-09
 59.96042    -80.0 1.202e+04 1.038e-09
 59.98008    -79.5 1.174e+04 8.858e-10
 59.99973    -79.0 1.151e+04 7.650e-10
 60.01939    -78.3 1.132e+04 6.645e-10
 60.03904    -77.5 1.119e+04 5.839e-10
 60.05870    -76.8 1.112e+04 5.357e-10
 60.07835    -76.0 1.112e+04 5.168e-10
 60.09801    -75.4 1.112e+04 5.120e-10
 60.11644    -74.9 1.132e+04 5.274e-10
 60.12627    -74.9 1.105e+04 4.449e-10
 60.13732    -74.6 1.131e+04 4.640e-10
 60.15698    -74.7 1.166e+04 5.284e-10
 60.17663    -79.2 1.338e+04 9.554e-10
 60.19629    -88.5 1.997e+04 5.249e-09
 60.20968    -93.7 2.311e+04 1.885e-08
 60.21454    -93.7 2.240e+04 1.876e-08
 60.22076    -95.2 2.317e+04 4.007e-08
 60.23059    -96.4 2.346e+04 7.393e-08
 60.24042    -97.9 2.341e+04 9.609e-08
 60.25024    -99.8 2.327e+04 9.948e-08
 60.26007   -101.0 2.273e+04 8.123e-08
 60.26990   -102.0 2.232e+04 4.628e-08
 60.27973   -104.1 2.146e+04 2.199e-08
 60.28955   -107.4 1.959e+04 1.010e-08
 60.29800   -111.0 1.699e+04 5.305e-09
 60.30292   -111.0 1.619e+04 4.075e-09
 60.31417   -112.6 1.482e+04 2.710e-09
 60.33388   -114.3 1.354e+04 1.671e-09
 60.35353   -115.8 1.214e+04 9.939e-10
 60.37319   -116.6 1.165e+04 8.397e-10
 60.39284   -116.9 1.157e+04 8.176e-10
 60.41250   -117.1 1.170e+04 8.574e-10
 60.43216   -117.3 1.232e+04 1.065e-09
 60.45181   -117.4 1.292e+04 1.373e-09
 60.46994   -117.3 1.338e+04 1.753e-09
 60.47976   -116.5 1.226e+04 1.125e-09
 60.49112   -116.2 1.270e+04 1.433e-09
 60.51078   -115.6 1.299e+04 1.721e-09
 60.53043   -114.8 1.316e+04 1.905e-09
 60.55009   -114.0 1.320e+04 1.963e-09
 60.56514   -113.0 1.319e+04 1.960e-09
 60.57497   -113.3 1.300e+04 1.688e-09
 60.58940   -112.3 1.287e+04 1.491e-09
 60.60906   -111.3 1.270e+04 1.279e-09
 60.62871   -110.4 1.249e+04 1.088e-09
 60.64668   -109.6 1.228e+04 9.367e-10
 60.65651   -109.0 1.103e+04 5.537e-10
 60.66802   -108.3 1.080e+04 4.468e-10
 60.68768   -107.6 1.075e+04 3.822e-10
 60.70734   -107.0 1.080e+04 3.600e-10
 60.72699   -106.4 1.088e+04 3.572e-10
 60.74665   -105.8 1.094e+04 3.768e-10
 60.76630   -105.1 1.095e+04 4.097e-10
 60.78596   -104.2 1.084e+04 4.439e-10
 60.80561   -103.1 1.073e+04 4.714e-10
 60.82343   -101.8 1.064e+04 4.895e-10
 60.83326   -101.2 1.023e+04 2.874e-10
 60.84493    -99.9 1.018e+04 3.075e-10
 60.86458    -99.0 1.016e+04 3.169e-10
 60.88424    -97.6 1.017e+04 3.355e-10
 60.90389    -96.7 1.017e+04 3.457e-10
 60.93347    -95.1 1.027e+04 4.123e-10
 60.97288    -93.2 1.027e+04 4.074e-10
 61.00037    -91.2 1.013e+04 3.749e-10
 61.02003    -90.7 9.912e+03 2.959e-10
 61.05151    -88.4 9.801e+03 2.817e-10
 61.09082    -86.2 9.683e+03 2.640e-10
 61.13013    -84.1 9.556e+03 2.502e-10
 61.16944    -82.0 9.514e+03 2.416e-10
 61.20875    -80.2 9.521e+03 2.401e-10
 61.24806    -78.9 9.696e+03 2.556e-10
 61.28737    -78.2 1.017e+04 3.528e-10
 61.32668    -77.3 1.073e+04 5.591e-10
 61.35387    -76.3 1.124e+04 8.269e-10
 61.37352    -76.7 1.138e+04 8.478e-10
 61.40531    -75.8 1.177e+04 1.063e-09
 61.44462    -75.1 1.183e+04 1.096e-09
 61.48393    -74.1 1.152e+04 9.047e-10
 61.52324    -72.9 1.097e+04 5.958e-10
 61.56255    -71.8 1.052e+04 4.038e-10
 61.60186    -70.6 1.028e+04 3.213e-10
 61.64118    -69.1 1.016e+04 2.922e-10
 61.68049    -67.2 1.008e+04 2.789e-10
 61.70736    -65.3 1.002e+04 2.700e-10
 61.72702    -66.1 1.004e+04 2.781e-10
 61.75911    -64.3 1.001e+04 2.700e-10
 61.79842    -62.6 1.002e+04 2.672e-10
 61.83773    -61.0 1.007e+04 2.712e-10
 61.87704    -59.4 1.011e+04 2.744e-10
 61.91636    -57.9 1.010e+04 2.641e-10
 61.95567    -56.4 1.002e+04 2.368e-10
 61.99498    -54.9 9.873e+03 2.010e-10
 62.03429    -53.5 9.752e+03 1.723e-10
 62.06086    -52.1 9.657e+03 1.581e-10
 62.08051    -53.1 9.695e+03 2.041e-10
 62.11291    -51.5 9.542e+03 1.795e-10
 62.15222    -49.7 9.397e+03 1.593e-10
 62.19154    -47.7 9.244e+03 1.411e-10
 62.23085    -45.6 9.108e+03 1.186e-10
 62.27016    -43.4 8.985e+03 9.556e-11
 62.30947    -41.4 8.853e+03 7.730e-11
 62.34878    -39.6 8.694e+03 6.807e-11
 62.38809    -37.8 8.611e+03 6.586e-11
 62.41435    -35.7 8.466e+03 7.225e-11
 62.43401    -37.0 8.394e+03 6.842e-11
 62.46671    -34.4 8.330e+03 7.823e-11
 62.50603    -31.5 8.288e+03 8.363e-11
 62.53818    -28.6 8.232e+03 8.398e-11
 62.55783    -28.2 8.244e+03 8.486e-11
 62.58465    -25.1 8.145e+03 8.112e-11
 62.62396    -22.0 8.171e+03 7.488e-11
 62.66327    -19.0 8.188e+03 7.324e-11
 62.70258    -16.2 8.280e+03 7.991e-11
 62.74189    -13.3 8.457e+03 1.025e-10
 62.76785     -9.8 8.752e+03 1.504e-10
 62.78750    -12.0 9.192e+03 1.888e-10
 62.82052     -8.6 1.004e+04 2.895e-10
 62.85983     -5.6 1.088e+04 4.323e-10
 62.88921     -3.8 1.167e+04 6.370e-10
 62.90877     -2.5 1.202e+04 7.958e-10
 62.92843     -1.6 1.258e+04 1.126e-09
 62.94440     -0.1 1.289e+04 1.387e-09
 62.95423     -3.0 1.287e+04 1.414e-09
 62.96774     -2.0 1.347e+04 1.878e-09
 62.98740     -0.5 1.375e+04 2.216e-09
 63.00705      0.8 1.395e+04 2.161e-09
 63.02671      1.7 1.386e+04 1.777e-09
 63.04636      1.3 1.352e+04 1.292e-09
 63.06602     -0.9 1.277e+04 8.893e-10
 63.08567     -3.6 1.223e+04 6.310e-10
 63.10533     -7.5 1.286e+04 5.634e-10
 63.12115    -21.1 1.830e+04 7.268e-10
 63.13098    -33.2 1.938e+04 1.511e-09
 63.14464    -46.5 2.146e+04 6.775e-09
 63.16430    -60.4 2.648e+04 1.462e-08
 63.17899    -73.8 2.753e+04 1.652e-08
 63.18877    -78.7 2.873e+04 1.727e-08
 63.19860    -94.0 2.579e+04 1.406e-08
 63.20842   -104.1 2.293e+04 9.564e-09
 63.21434   -114.1 1.809e+04 5.349e-09
 63.21925   -113.4 1.770e+04 4.871e-09
 63.22808   -117.0 1.704e+04 3.622e-09
 63.24287   -122.1 1.657e+04 2.426e-09
 63.26257   -130.5 1.543e+04 1.046e-09
 63.28223   -136.0 1.451e+04 5.617e-10
 63.29790   -136.9 1.402e+04 4.751e-10
 63.30772   -133.4 1.077e+04 3.472e-10
 63.32154   -134.3 1.078e+04 3.329e-10
 63.34120   -135.6 1.090e+04 3.451e-10
 63.36085   -138.0 1.168e+04 4.310e-10
 63.38051   -140.6 1.297e+04 6.673e-10
 63.40016   -142.5 1.404e+04 1.143e-09
 63.41982   -143.1 1.489e+04 1.901e-09
 63.43948   -142.9 1.568e+04 2.906e-09
 63.45417   -141.8 1.601e+04 3.488e-09
 63.46395   -141.6 1.623e+04 3.830e-09
 63.47378   -140.8 1.662e+04 4.599e-09
 63.47946   -140.6 1.677e+04 4.838e-09
 63.48442   -139.8 1.625e+04 4.107e-09
 63.49844   -138.8 1.668e+04 4.990e-09
 63.51314   -138.5 1.697e+04 5.264e-09
 63.52291   -138.0 1.685e+04 5.225e-09
 63.53418   -137.2 1.660e+04 5.320e-09
 63.54406   -137.6 1.615e+04 4.553e-09
 63.55741   -136.8 1.557e+04 3.857e-09
 63.57707   -136.0 1.478e+04 2.913e-09
 63.59672   -135.0 1.382e+04 2.037e-09
 63.61638   -134.0 1.288e+04 1.387e-09
 63.63603   -133.0 1.207e+04 9.473e-10
 63.65139   -132.1 1.134e+04 6.601e-10
 63.66122   -130.4 1.276e+04 1.209e-09
 63.67534   -129.5 1.215e+04 8.610e-10
 63.69500   -128.7 1.150e+04 6.227e-10
 63.71466   -128.0 1.080e+04 4.716e-10
 63.73431   -127.3 1.017e+04 3.985e-10
 63.75397   -126.8 9.914e+03 3.770e-10
 63.77362   -126.2 9.811e+03 3.821e-10
 63.79328   -125.5 9.840e+03 4.047e-10
 63.81293   -124.6 9.863e+03 4.346e-10
 63.82814   -123.7 9.944e+03 4.653e-10
 63.83797   -123.1 1.029e+04 5.091e-10
 63.85225   -122.7 1.045e+04 5.395e-10
 63.87190   -122.6 1.066e+04 5.621e-10
 63.89156   -122.9 1.095e+04 5.816e-10
 63.91121   -123.5 1.136e+04 6.285e-10
 63.93087   -124.0 1.208e+04 7.880e-10
 63.95052   -124.2 1.281e+04 9.835e-10
 63.97018   -124.3 1.303e+04 1.064e-09
 63.98983   -124.7 1.265e+04 1.018e-09
 64.00489   -125.3 1.194e+04 9.339e-10
 64.01471   -125.8 1.294e+04 1.171e-09
 64.02915   -126.6 1.183e+04 9.884e-10
 64.04880   -126.8 1.155e+04 8.969e-10
 64.06846   -126.6 1.137e+04 8.263e-10
 64.08811   -126.0 1.126e+04 7.892e-10
 64.10777   -125.4 1.120e+04 7.629e-10
 64.12742   -124.9 1.117e+04 7.342e-10
 64.14708   -124.3 1.113e+04 7.006e-10
 64.16674   -123.8 1.110e+04 6.655e-10
 64.18163   -123.4 1.105e+04 6.328e-10
 64.19146   -123.8 1.118e+04 6.908e-10
 64.20605   -123.4 1.111e+04 6.674e-10
 64.22570   -123.1 1.101e+04 6.520e-10
 64.24536   -122.7 1.087e+04 6.422e-10
 64.26501   -122.2 1.070e+04 6.329e-10
 64.28467   -121.6 1.050e+04 6.223e-10
 64.30433   -120.9 1.031e+04 6.105e-10
 64.32398   -120.2 1.012e+04 5.983e-10
 64.34364   -119.4 9.948e+03 5.840e-10
 64.35838   -118.4 9.841e+03 5.591e-10
 64.36821   -118.4 9.801e+03 5.656e-10
 64.38295   -117.2 9.667e+03 5.136e-10
 64.40260   -115.7 9.544e+03 4.745e-10
 64.43219   -114.4 9.508e+03 4.530e-10
 64.47159   -112.7 9.215e+03 3.767e-10
 64.51091   -110.9 8.709e+03 2.741e-10
 64.53532   -111.9 7.726e+03 1.398e-10
 64.55498   -112.1 7.667e+03 1.351e-10
 64.58953   -110.2 7.441e+03 1.143e-10
 64.62884   -108.1 7.374e+03 1.070e-10
 64.66815   -106.0 7.373e+03 1.066e-10
 64.70746   -103.9 7.384e+03 1.153e-10
 64.74677   -102.1 7.666e+03 1.504e-10
 64.78609   -100.5 8.416e+03 2.351e-10
 64.82540    -99.6 9.531e+03 3.952e-10
 64.85478    -99.1 1.061e+04 5.848e-10
 64.87434    -99.3 1.081e+04 6.490e-10
 64.88862   -100.0 1.242e+04 1.132e-09
 64.89845    -99.8 1.238e+04 1.056e-09
 64.91365   -102.3 1.381e+04 1.935e-09
 64.93331   -104.2 1.474e+04 3.139e-09
 64.95296   -106.0 1.526e+04 4.046e-09
 64.97262   -108.1 1.540e+04 4.265e-09
 64.99227   -110.4 1.524e+04 4.061e-09
 65.01193   -113.0 1.451e+04 2.917e-09
 65.03159   -116.1 1.339e+04 1.896e-09
 65.05124   -119.2 1.226e+04 1.303e-09
 65.06537   -121.5 1.155e+04 9.969e-10
 65.07520   -120.8 1.171e+04 1.064e-09
 65.09055   -122.5 1.129e+04 8.748e-10
 65.11021   -124.0 1.105e+04 7.636e-10
 65.12986   -125.3 1.093e+04 7.014e-10
 65.14952   -126.7 1.092e+04 6.847e-10
 65.16918   -128.5 1.095e+04 6.849e-10
 65.18883   -131.1 1.140e+04 7.246e-10
 65.20849   -134.1 1.218e+04 9.492e-10
 65.22814   -136.7 1.292e+04 1.367e-09
 65.24212   -138.8 1.349e+04 1.897e-09
 65.25195   -137.5 1.353e+04 1.942e-09
 65.26745   -139.1 1.389e+04 2.475e-09
 65.28711   -140.4 1.399e+04 2.694e-09
 65.30677   -141.5 1.394e+04 2.706e-09
 65.32642   -142.3 1.344e+04 2.344e-09
 65.34608   -143.1 1.270e+04 1.714e-09
 65.36573   -144.1 1.186e+04 1.189e-09
 65.38539   -145.0 1.109e+04 8.572e-10
 65.40504   -145.5 1.057e+04 6.502e-10
 65.41887   -145.6 1.023e+04 5.102e-10
 65.42869   -144.7 1.048e+04 6.150e-10
 65.44436   -144.7 1.021e+04 4.976e-10
 65.46401   -144.7 9.979e+03 4.102e-10
 65.49359   -144.3 9.754e+03 3.443e-10
 65.53300   -143.1 9.382e+03 2.655e-10
 65.57231   -142.0 8.988e+03 2.101e-10
 65.59581   -141.0 8.905e+03 1.923e-10
 65.61546   -140.0 9.054e+03 2.359e-10
 65.65094   -139.7 8.955e+03 2.094e-10
 65.69025   -139.9 8.950e+03 2.090e-10
 65.72956   -141.1 9.466e+03 3.001e-10
 65.76887   -143.6 1.122e+04 5.984e-10
 65.79826   -147.1 1.204e+04 9.357e-10
 65.81781   -148.5 1.255e+04 1.159e-09
 65.83747   -150.4 1.285e+04 1.380e-09
 65.85713   -152.5 1.343e+04 1.707e-09
 65.87678   -155.6 1.404e+04 2.141e-09
 65.89644   -158.6 1.470e+04 2.591e-09
 65.91609   -161.8 1.523e+04 3.146e-09
 65.93575   -164.5 1.557e+04 3.823e-09
 65.94911   -166.5 1.566e+04 4.498e-09
 65.95894   -166.7 1.534e+04 4.176e-09
 65.97506   -167.8 1.530e+04 4.608e-09
 65.99471   -168.5 1.524e+04 4.737e-09
 66.01437   -168.6 1.488e+04 4.623e-09
 66.03403   -168.6 1.424e+04 3.927e-09
 66.05368   -168.5 1.352e+04 2.939e-09
 66.07334   -168.4 1.274e+04 2.126e-09
 66.09299   -168.5 1.203e+04 1.554e-09
 66.11265   -168.6 1.143e+04 1.192e-09
 66.12586   -168.6 1.098e+04 9.787e-10
 66.13568   -168.4 1.094e+04 9.610e-10
 66.15196   -167.8 1.061e+04 8.421e-10
 66.17162   -167.0 1.042e+04 7.736e-10
 66.19127   -166.1 1.029e+04 7.250e-10
 66.21093   -165.1 1.020e+04 6.794e-10
 66.23058   -164.0 1.014e+04 6.344e-10
 66.25024   -162.9 1.012e+04 5.936e-10
 66.26989   -161.8 1.012e+04 5.604e-10
 66.28955   -160.9 1.013e+04 5.367e-10
 66.30260   -159.8 1.014e+04 5.124e-10
 66.31243   -159.5 1.025e+04 5.527e-10
 66.32886   -158.6 1.026e+04 5.392e-10
 66.34852   -157.5 1.027e+04 5.198e-10
 66.36817   -156.5 1.027e+04 4.993e-10
 66.38783   -155.3 1.027e+04 4.727e-10
 66.40748   -154.3 1.028e+04 4.488e-10
 66.42714   -153.0 1.030e+04 4.247e-10
 66.44680   -152.2 1.031e+04 4.168e-10
 66.47638   -150.7 1.038e+04 4.236e-10
 66.50342   -148.2 1.043e+04 4.172e-10
 66.52307   -147.6 1.044e+04 3.882e-10
 66.54517   -145.9 1.057e+04 4.470e-10
 66.56473   -144.9 1.066e+04 4.684e-10
 66.58439   -143.9 1.076e+04 4.904e-10
 66.60404   -143.0 1.086e+04 5.068e-10
 66.62370   -142.1 1.097e+04 5.135e-10
 66.64335   -141.3 1.107e+04 5.149e-10
 66.65610   -140.7 1.113e+04 5.201e-10
 66.66593   -140.5 1.113e+04 5.195e-10
 66.68266   -139.9 1.117e+04 5.286e-10
 66.70232   -139.4 1.124e+04 5.457e-10
 66.72198   -139.0 1.132e+04 5.777e-10
 66.74163   -138.7 1.139e+04 6.291e-10
 66.76129   -138.5 1.150e+04 7.042e-10
 66.78094   -138.2 1.164e+04 8.058e-10
 66.80060   -137.9 1.179e+04 9.275e-10
 66.82025   -137.5 1.195e+04 1.061e-09
 66.83285   -137.1 1.209e+04 1.192e-09
 66.84267   -137.1 1.221e+04 1.291e-09
 66.85957   -136.6 1.232e+04 1.421e-09
 66.87922   -136.1 1.235e+04 1.493e-09
 66.89888   -135.5 1.236e+04 1.509e-09
 66.91853   -134.7 1.227e+04 1.499e-09
 66.93819   -133.9 1.218e+04 1.451e-09
 66.95784   -133.2 1.215e+04 1.432e-09
 66.97750   -132.8 1.221e+04 1.446e-09
 66.99715   -132.8 1.257e+04 1.577e-09
 67.00959   -133.6 1.339e+04 2.160e-09
 67.01942   -132.4 1.272e+04 1.677e-09
 67.03647   -133.6 1.389e+04 2.570e-09
 67.05612   -134.6 1.542e+04 4.423e-09
 67.07578   -135.0 1.699e+04 7.468e-09
 67.09543   -135.4 1.806e+04 1.087e-08
 67.11509   -136.3 1.894e+04 1.280e-08
 67.13474   -137.7 1.909e+04 1.349e-08
 67.15440   -138.6 1.889e+04 1.292e-08
 67.17406   -139.2 1.811e+04 1.054e-08
 67.18634   -139.9 1.734e+04 8.102e-09
 67.19617   -141.9 1.811e+04 1.007e-08
 67.21337   -143.0 1.743e+04 7.556e-09
 67.23302   -144.2 1.704e+04 6.062e-09
 67.25268   -145.1 1.680e+04 5.219e-09
 67.27233   -145.8 1.649e+04 4.595e-09
 67.29199   -146.2 1.617e+04 4.035e-09
 67.31165   -146.6 1.584e+04 3.497e-09
 67.33130   -146.9 1.534e+04 3.046e-09
 67.35096   -147.2 1.462e+04 2.621e-09
 67.36309   -147.5 1.386e+04 2.172e-09
 67.37292   -149.8 1.294e+04 1.787e-09
 67.39027   -149.9 1.235e+04 1.427e-09
 67.40992   -150.1 1.192e+04 1.179e-09
 67.42958   -150.4 1.163e+04 1.018e-09
 67.44924   -150.9 1.148e+04 9.239e-10
 67.46889   -151.5 1.142e+04 8.834e-10
 67.48855   -152.1 1.140e+04 8.731e-10
 67.49957   -152.8 1.138e+04 8.748e-10
 67.50940   -152.1 1.104e+04 7.361e-10
 67.52786   -152.5 1.103e+04 7.686e-10
 67.53984   -152.8 1.106e+04 8.224e-10
 67.54966   -153.0 1.085e+04 7.578e-10
 67.56717   -153.1 1.094e+04 8.418e-10
 67.58683   -153.3 1.113e+04 9.640e-10
 67.60648   -154.0 1.152e+04 1.170e-09
 67.62614   -155.2 1.222e+04 1.526e-09
 67.64579   -156.9 1.335e+04 2.159e-09
 67.66545   -159.0 1.473e+04 3.208e-09
 67.68510   -161.2 1.603e+04 4.543e-09
 67.70476   -163.2 1.713e+04 5.734e-09
 67.71653   -164.2 1.744e+04 5.708e-09
 67.72636   -164.7 1.708e+04 4.981e-09
 67.73911   -165.6 1.786e+04 5.695e-09
 67.74889   -166.4 1.860e+04 6.288e-09
 67.75872   -167.3 1.923e+04 7.011e-09
 67.76854   -168.2 1.955e+04 7.713e-09
 67.77837   -168.8 1.970e+04 8.565e-09
 67.78820   -169.1 1.976e+04 9.659e-09
 67.79803   -169.3 1.979e+04 1.100e-08
 67.80486   -169.3 1.979e+04 1.243e-08
 67.80977   -169.5 1.964e+04 1.041e-08
 67.81768   -169.6 1.955e+04 1.163e-08
 67.82751   -169.6 1.944e+04 1.291e-08
 67.83734   -169.5 1.944e+04 1.428e-08
 67.84717   -169.5 1.953e+04 1.595e-08
 67.85699   -169.4 1.970e+04 1.798e-08
 67.86682   -169.3 1.987e+04 2.013e-08
 67.87665   -169.1 2.000e+04 2.196e-08
 67.88648   -169.1 2.000e+04 2.277e-08
 67.89323   -169.1 1.998e+04 2.291e-08
 67.89815   -169.4 1.964e+04 1.988e-08
 67.90613   -169.5 1.954e+04 1.986e-08
 67.91596   -169.5 1.913e+04 1.845e-08
 67.92579   -169.3 1.867e+04 1.611e-08
 67.93562   -169.1 1.824e+04 1.355e-08
 67.94544   -168.9 1.779e+04 1.105e-08
 67.95527   -168.8 1.727e+04 8.720e-09
 67.96510   -168.8 1.663e+04 6.733e-09
 67.97493   -168.9 1.592e+04 5.286e-09
 67.98161   -169.0 1.534e+04 4.446e-09
 67.98652   -168.9 1.535e+04 4.692e-09
 67.99955   -168.7 1.487e+04 3.766e-09
 68.01925   -167.5 1.410e+04 2.503e-09
 68.03891   -166.2 1.325e+04 1.516e-09
 68.05856   -165.2 1.254e+04 9.711e-10
 68.07008   -164.4 1.198e+04 6.923e-10
 68.07991   -164.3 1.206e+04 7.569e-10
 68.09787   -163.4 1.165e+04 5.846e-10
 68.11753   -162.4 1.134e+04 4.922e-10
 68.13718   -161.2 1.110e+04 4.348e-10
 68.15684   -160.0 1.091e+04 3.963e-10
 68.17650   -158.6 1.074e+04 3.736e-10
 68.19615   -157.3 1.065e+04 3.616e-10
 68.21581   -156.1 1.060e+04 3.568e-10
 68.23546   -154.9 1.058e+04 3.555e-10
 68.24683   -153.8 1.059e+04 3.560e-10
 68.25665   -153.5 1.066e+04 3.557e-10
 68.27477   -152.4 1.065e+04 3.662e-10
 68.29443   -151.5 1.066e+04 3.913e-10
 68.31409   -150.5 1.069e+04 4.298e-10
 68.33374   -149.6 1.073e+04 4.810e-10
 68.35340   -148.6 1.078e+04 5.439e-10
 68.37305   -147.5 1.083e+04 6.147e-10
 68.39271   -146.4 1.088e+04 6.887e-10
 68.41236   -145.3 1.092e+04 7.577e-10
 68.42357   -144.1 1.094e+04 8.103e-10
 68.43340   -143.9 1.101e+04 8.456e-10
 68.45168   -142.7 1.098e+04 8.680e-10
 68.47133   -141.4 1.095e+04 8.749e-10
 68.48599   -140.1 1.086e+04 8.300e-10
 68.49582   -140.1 1.077e+04 7.767e-10
 68.51064   -138.7 1.073e+04 7.797e-10
 68.53030   -137.3 1.057e+04 7.218e-10
 68.54995   -135.9 1.049e+04 6.548e-10
 68.56961   -134.5 1.044e+04 5.807e-10
 68.58927   -133.2 1.044e+04 5.160e-10
 68.60032   -132.3 1.042e+04 4.743e-10
 68.61015   -132.4 1.035e+04 4.549e-10
 68.63850   -131.1 1.036e+04 4.418e-10
 68.67791   -129.3 1.023e+04 3.985e-10
 68.71722   -126.8 1.010e+04 3.768e-10
 68.75653   -124.5 1.009e+04 3.756e-10
 68.77726   -122.6 1.030e+04 4.206e-10
 68.79692   -122.7 1.026e+04 3.843e-10
 68.83516   -121.1 1.066e+04 5.181e-10
 68.87447   -119.6 1.095e+04 6.282e-10
 68.91378   -118.6 1.105e+04 6.602e-10
 68.95309   -117.9 1.103e+04 6.534e-10
 68.99240   -117.0 1.085e+04 5.611e-10
 69.03171   -115.7 1.044e+04 4.212e-10
 69.07103   -113.8 1.003e+04 3.040e-10
 69.11034   -111.5 9.609e+03 2.167e-10
 69.13076   -109.1 9.409e+03 1.708e-10
 69.15041   -109.2 9.278e+03 1.517e-10
 69.18896   -106.7 9.200e+03 1.301e-10
 69.22827   -104.3 9.139e+03 1.199e-10
 69.26758   -101.8 9.094e+03 1.151e-10
 69.30689    -99.3 9.079e+03 1.137e-10
 69.34620    -96.8 9.072e+03 1.149e-10
 69.38552    -94.4 9.066e+03 1.205e-10
 69.42483    -92.1 9.068e+03 1.277e-10
 69.46414    -89.7 9.094e+03 1.388e-10
 69.48425    -87.4 9.124e+03 1.520e-10
 69.50391    -87.5 8.972e+03 1.263e-10
 69.54276    -85.1 9.005e+03 1.405e-10
 69.58207    -82.8 9.042e+03 1.478e-10
 69.62138    -80.5 9.082e+03 1.459e-10
 69.66070    -78.3 9.114e+03 1.335e-10
 69.70001    -76.1 9.022e+03 1.209e-10
 69.73932    -74.1 9.004e+03 1.109e-10
 69.77863    -72.2 9.014e+03 1.068e-10
 69.81794    -70.5 9.057e+03 1.070e-10
 69.85725    -69.1 9.149e+03 1.343e-10
 69.89656    -67.7 9.241e+03 1.567e-10
 69.93588    -66.3 9.341e+03 1.777e-10
 69.97519    -65.1 9.385e+03 1.831e-10
 70.01450    -64.0 9.409e+03 1.808e-10
 70.05381    -63.1 9.428e+03 1.755e-10
 70.09312    -62.3 9.482e+03 1.745e-10
 70.13243    -61.5 9.526e+03 1.778e-10
 70.17159    -60.5 9.533e+03 1.820e-10
 70.21090    -59.6 9.390e+03 1.627e-10
 70.25037    -58.3 9.383e+03 1.593e-10
 70.28968    -57.0 9.401e+03 1.551e-10
 70.32899    -55.9 9.435e+03 1.527e-10
 70.36830    -55.2 9.640e+03 1.692e-10
 70.40761    -54.6 9.979e+03 2.215e-10
 70.44692    -54.2 1.036e+04 3.160e-10
 70.46885    -53.6 1.060e+04 4.354e-10
 70.47858    -54.0 1.071e+04 4.902e-10
 70.49587    -54.0 1.073e+04 5.107e-10
 70.51552    -53.3 1.085e+04 5.820e-10
 70.53472    -53.0 1.094e+04 5.761e-10
 70.54454    -52.6 1.090e+04 5.881e-10
 70.55483    -52.1 1.098e+04 5.876e-10
 70.57449    -51.9 1.105e+04 4.929e-10
 70.60407    -51.8 1.087e+04 3.945e-10
 70.64348    -51.4 1.052e+04 3.110e-10
 70.68279    -50.6 1.033e+04 2.871e-10
 70.72210    -49.5 1.028e+04 2.864e-10
 70.76141    -48.3 1.025e+04 2.979e-10
 70.80073    -47.0 1.027e+04 3.086e-10
 70.84004    -45.7 1.035e+04 3.237e-10
 70.87858    -44.6 1.047e+04 3.535e-10
 70.89823    -44.8 1.063e+04 3.862e-10
 70.91866    -43.8 1.073e+04 4.511e-10
 70.95797    -42.3 1.089e+04 5.507e-10
 70.99728    -40.7 1.099e+04 5.951e-10
 71.03659    -39.5 1.101e+04 5.883e-10
 71.07591    -38.5 1.105e+04 5.902e-10
 71.11522    -37.8 1.120e+04 6.697e-10
 71.15453    -36.9 1.135e+04 8.519e-10
 71.19384    -35.3 1.146e+04 1.037e-09
 71.23207    -33.7 1.127e+04 9.972e-10
 71.25173    -33.8 1.094e+04 8.036e-10
 71.27246    -31.9 1.049e+04 5.134e-10
 71.31177    -30.3 1.026e+04 3.328e-10
 71.35108    -29.0 9.951e+03 2.148e-10
 71.39040    -27.7 9.638e+03 1.542e-10
 71.42971    -26.2 9.534e+03 1.366e-10
 71.46902    -24.4 9.495e+03 1.338e-10
 71.50833    -22.4 9.472e+03 1.437e-10
 71.54764    -20.7 9.600e+03 1.560e-10
 71.58557    -19.5 9.765e+03 1.884e-10
 71.60522    -18.8 9.748e+03 1.693e-10
 71.62626    -17.9 1.010e+04 2.391e-10
 71.66558    -17.4 1.060e+04 3.792e-10
 71.69496    -17.9 1.091e+04 5.492e-10
 71.71452    -18.6 1.136e+04 6.488e-10
 71.73418    -19.3 1.150e+04 8.083e-10
 71.75383    -20.0 1.199e+04 8.400e-10
 71.77195    -20.8 1.176e+04 8.450e-10
 71.78178    -19.9 1.193e+04 9.912e-10
 71.79314    -20.3 1.155e+04 8.041e-10
 71.81280    -21.0 1.126e+04 6.203e-10
 71.83245    -21.4 1.077e+04 4.870e-10
 71.85211    -21.7 1.060e+04 3.753e-10
 71.87177    -21.9 1.052e+04 3.414e-10
 71.90135    -21.8 1.051e+04 3.259e-10
 71.93906    -20.9 1.025e+04 3.037e-10
 71.95872    -20.2 1.008e+04 2.530e-10
 71.98007    -18.8 1.010e+04 2.740e-10
 72.01938    -17.4 1.025e+04 3.359e-10
 72.05869    -15.9 1.051e+04 4.639e-10
 72.09800    -14.3 1.084e+04 6.516e-10
 72.13731    -12.7 1.130e+04 7.559e-10
 72.17662    -11.3 1.154e+04 8.213e-10
 72.21593    -10.0 1.144e+04 7.364e-10
 72.25525     -8.3 1.113e+04 5.601e-10
 72.29256     -6.6 1.086e+04 4.021e-10
 72.31221     -5.8 1.102e+04 4.978e-10
 72.33387     -4.5 1.085e+04 3.614e-10
 72.37318     -3.0 1.073e+04 3.197e-10
 72.41249     -1.5 1.077e+04 3.277e-10
 72.44169     -0.1 1.095e+04 3.844e-10
 72.46135     -0.3 1.110e+04 5.112e-10
 72.49111      1.2 1.132e+04 6.290e-10
 72.53043      2.6 1.141e+04 6.724e-10
 72.56974      4.0 1.134e+04 6.188e-10
 72.60905      5.1 1.118e+04 5.152e-10
 72.64605      6.2 1.096e+04 4.341e-10
 72.66571      7.0 1.114e+04 4.695e-10
 72.68767      8.3 1.087e+04 3.940e-10
 72.72698      9.8 1.067e+04 3.545e-10
 72.76629     11.6 1.059e+04 3.227e-10
 72.80561     13.6 1.054e+04 2.994e-10
 72.84492     15.5 1.053e+04 2.855e-10
 72.88423     17.4 1.058e+04 2.805e-10
 72.92354     19.0 1.065e+04 2.920e-10
 72.96285     20.7 1.070e+04 3.188e-10
 72.99955     22.5 1.068e+04 3.346e-10
 73.01920     23.3 1.088e+04 4.251e-10
 73.04147     25.0 1.083e+04 4.285e-10
 73.08079     26.7 1.065e+04 3.847e-10
 73.12010     28.7 1.034e+04 2.997e-10
 73.15941     30.7 9.975e+03 2.151e-10
 73.19872     32.7 9.664e+03 1.473e-10
 73.23803     34.7 9.449e+03 1.103e-10
 73.27734     36.7 9.282e+03 9.544e-11
 73.31665     39.0 9.147e+03 8.989e-11
 73.35304     41.4 9.035e+03 8.629e-11
 73.37270     41.8 9.033e+03 8.070e-11
 73.39528     44.1 8.936e+03 7.525e-11
 73.43459     46.5 8.869e+03 7.096e-11
 73.47390     48.8 8.790e+03 6.906e-11
 73.51321     51.1 8.742e+03 6.944e-11
 73.55252     53.4 8.722e+03 7.058e-11
 73.59183     55.7 8.698e+03 7.333e-11
 73.63114     58.0 8.672e+03 7.722e-11
 73.67046     60.3 8.652e+03 8.157e-11
 73.70654     62.6 8.654e+03 8.563e-11
 73.72619     63.0 8.625e+03 8.452e-11
 73.74908     65.2 8.617e+03 8.696e-11
 73.78839     67.5 8.608e+03 8.757e-11
 73.82770     69.6 8.625e+03 8.873e-11
 73.86701     71.6 8.663e+03 9.044e-11
 73.90632     73.6 8.698e+03 9.446e-11
 73.94564     75.5 8.757e+03 1.035e-10
 73.98495     77.3 8.845e+03 1.203e-10
 74.02426     79.0 9.004e+03 1.514e-10
 74.06003     80.8 9.336e+03 2.124e-10
 74.07969     81.3 9.551e+03 2.828e-10
 74.10288     82.6 9.885e+03 3.737e-10
 74.13227     82.5 1.018e+04 4.674e-10
 74.15182     82.6 1.048e+04 6.023e-10
 74.17148     82.6 1.101e+04 8.495e-10
 74.19114     82.6 1.123e+04 9.749e-10
 74.22072     83.0 1.188e+04 1.385e-09
 74.24651     82.4 1.220e+04 1.644e-09
 74.25624     82.4 1.224e+04 1.690e-09
 74.26976     82.1 1.234e+04 1.807e-09
 74.29934     81.3 1.244e+04 1.824e-09
 74.33875     80.7 1.201e+04 1.553e-09
 74.37806     81.1 1.107e+04 9.685e-10
 74.40745     81.6 1.047e+04 7.040e-10
 74.42316     81.6 1.014e+04 5.680e-10
 74.43015     82.6 9.795e+03 4.521e-10
 74.43400     82.4 9.670e+03 4.080e-10
 74.45659     82.7 9.328e+03 3.069e-10
 74.49599     83.5 9.312e+03 3.008e-10
 74.53531     84.9 9.532e+03 3.315e-10
 74.56469     85.1 9.853e+03 4.102e-10
 74.58425     85.5 1.010e+04 4.818e-10
 74.59991     85.9 1.037e+04 5.796e-10
 74.60974     87.5 9.957e+03 4.326e-10
 74.62356     87.9 1.028e+04 5.453e-10
 74.64322     88.0 1.066e+04 7.061e-10
 74.66287     88.1 1.110e+04 9.093e-10
 74.68253     88.1 1.158e+04 1.149e-09
 74.70218     88.0 1.203e+04 1.416e-09
 74.72184     86.9 1.290e+04 1.862e-09
 74.74150     83.4 1.504e+04 2.966e-09
 74.76115     78.7 1.715e+04 5.475e-09
 74.77665     74.6 1.746e+04 7.256e-09
 74.78648     77.8 1.869e+04 9.835e-09
 74.80046     73.2 1.865e+04 9.939e-09
 74.81516     70.9 1.809e+04 7.828e-09
 74.82493     67.6 1.890e+04 7.603e-09
 74.83476     54.1 2.781e+04 9.485e-09
 74.84459     37.5 2.912e+04 1.706e-08
 74.85442     28.6 2.225e+04 2.579e-08
 74.86425     27.7 1.933e+04 3.929e-08
 74.86985     28.6 1.901e+04 4.495e-08
 74.87476     28.8 1.850e+04 3.701e-08
 74.88390     30.0 1.858e+04 3.632e-08
 74.89373     30.4 1.926e+04 2.880e-08
 74.90356     29.7 1.997e+04 2.149e-08
 74.91835     24.1 2.318e+04 1.019e-08
 74.93805      7.9 2.155e+04 3.652e-09
 74.95340     -3.0 1.307e+04 2.882e-09
 74.96323     -3.2 1.274e+04 2.898e-09
 74.97736     -3.1 1.271e+04 3.121e-09
 74.99702     -2.5 1.285e+04 3.070e-09
 75.01667     -2.1 1.281e+04 2.511e-09
 75.03633     -2.8 1.243e+04 1.765e-09
 75.05599     -4.7 1.139e+04 1.082e-09
 75.08557     -5.6 1.061e+04 8.047e-10
 75.12052     -6.4 9.290e+03 4.185e-10
 75.14017     -6.2 9.526e+03 4.825e-10
 75.16429     -6.9 9.086e+03 3.672e-10
 75.20360     -7.0 9.124e+03 3.983e-10
 75.23299     -7.4 9.458e+03 5.210e-10
 75.25254     -7.6 9.746e+03 5.774e-10
 75.27220     -7.9 1.018e+04 8.169e-10
 75.29185     -7.8 1.042e+04 9.066e-10
 75.30690     -7.6 1.071e+04 1.092e-09
 75.31673     -7.3 1.079e+04 1.111e-09
 75.33117     -7.1 1.081e+04 1.122e-09
 75.35082     -6.9 1.076e+04 1.019e-09
 75.37048     -6.8 1.059e+04 9.583e-10
 75.40006     -6.7 1.000e+04 6.101e-10
 75.43947     -6.8 9.364e+03 4.028e-10
 75.47401     -6.4 8.947e+03 2.469e-10
 75.49367     -6.2 8.993e+03 2.764e-10
 75.51809     -5.4 8.764e+03 1.788e-10
 75.55740     -4.8 8.444e+03 1.237e-10
 75.59671     -3.7 8.189e+03 1.103e-10
 75.63602     -2.3 8.097e+03 9.514e-11
 75.67534     -0.5 8.097e+03 8.977e-11
 75.71465      1.3 8.166e+03 9.276e-11
 75.75396      2.6 8.347e+03 1.065e-10
 75.79327      3.8 8.668e+03 1.601e-10
 75.82751      5.2 9.524e+03 3.243e-10
 75.84716      4.8 9.528e+03 3.218e-10
 75.86197      4.5 1.017e+04 4.747e-10
 75.88153      3.6 1.092e+04 7.605e-10
 75.90118      3.2 1.151e+04 1.247e-09
 75.92084      3.7 1.201e+04 1.835e-09
 75.94049      3.9 1.282e+04 2.456e-09
 75.96015      3.2 1.428e+04 3.278e-09
 75.97980      1.8 1.528e+04 4.160e-09
 75.99946      0.8 1.495e+04 4.720e-09
 76.01389      0.9 1.446e+04 4.543e-09
 76.02372     -0.1 1.460e+04 4.333e-09
 76.03877     -0.8 1.455e+04 4.391e-09
 76.05843     -1.8 1.466e+04 4.327e-09
 76.07808     -2.3 1.431e+04 3.966e-09
 76.09774     -2.1 1.378e+04 3.352e-09
 76.11739     -1.5 1.345e+04 2.457e-09
 76.13705     -1.6 1.291e+04 1.675e-09
 76.15670     -2.1 1.229e+04 1.215e-09
 76.17636     -3.0 1.179e+04 9.055e-10
 76.19063     -3.4 1.174e+04 8.664e-10
 76.20046     -4.5 1.212e+04 1.019e-09
 76.21567     -4.9 1.214e+04 1.133e-09
 76.23533     -5.0 1.220e+04 1.269e-09
 76.25498     -4.8 1.224e+04 1.431e-09
 76.27464     -4.3 1.227e+04 1.546e-09
 76.29429     -4.0 1.230e+04 1.579e-09
 76.31395     -3.7 1.225e+04 1.505e-09
 76.33361     -3.8 1.213e+04 1.395e-09
 76.35326     -4.0 1.193e+04 1.261e-09
 76.36738     -4.5 1.196e+04 1.155e-09
 76.37721     -5.3 1.201e+04 1.153e-09
 76.39257     -6.2 1.225e+04 1.177e-09
 76.40684     -8.1 1.272e+04 1.474e-09
 76.41666     -7.5 1.239e+04 1.227e-09
 76.43188     -9.2 1.277e+04 1.589e-09
 76.45154     -9.9 1.295e+04 2.257e-09
 76.47120     -9.5 1.309e+04 2.996e-09
 76.49085     -8.4 1.307e+04 3.401e-09
 76.51051     -7.5 1.320e+04 3.178e-09
 76.53016     -7.3 1.324e+04 2.586e-09
 76.54413     -7.9 1.273e+04 2.053e-09
 76.55396     -8.7 1.204e+04 1.538e-09
 76.56947     -9.2 1.148e+04 1.278e-09
 76.58913     -9.2 1.110e+04 1.121e-09
 76.60879     -8.8 1.088e+04 9.544e-10
 76.62844     -8.1 1.054e+04 8.337e-10
 76.64810     -7.6 1.047e+04 6.320e-10
 76.66775     -7.4 1.012e+04 5.345e-10
 76.68741     -7.2 9.944e+03 4.088e-10
 76.70706     -7.1 9.718e+03 3.692e-10
 76.73665     -6.7 9.404e+03 2.911e-10
 76.77605     -5.9 9.130e+03 2.489e-10
 76.81537     -4.9 9.155e+03 2.263e-10
 76.85468     -4.1 9.239e+03 2.178e-10
 76.88799     -3.7 9.215e+03 2.228e-10
 76.90765     -4.6 9.256e+03 2.476e-10
 76.93330     -3.7 9.041e+03 2.525e-10
 76.97261     -2.3 8.913e+03 2.300e-10
 77.01192     -1.2 8.778e+03 2.062e-10
 77.05123     -0.0 8.604e+03 1.869e-10
 77.09055      1.2 8.492e+03 1.701e-10
 77.12986      2.4 8.449e+03 1.559e-10
 77.16917      3.7 8.387e+03 1.409e-10
 77.20848      4.9 8.319e+03 1.275e-10
 77.24149      6.2 8.196e+03 1.172e-10
 77.26114      6.2 8.105e+03 1.077e-10
 77.28710      7.9 7.992e+03 9.584e-11
 77.32641      9.7 7.893e+03 7.788e-11
 77.36572     11.1 7.827e+03 6.169e-11
 77.40504     12.4 7.723e+03 5.515e-11
 77.44435     13.5 7.730e+03 5.672e-11
 77.48366     14.2 7.823e+03 6.725e-11
 77.52297     14.8 7.997e+03 9.595e-11
 77.56228     15.7 8.217e+03 1.406e-10
 77.59498     16.5 8.430e+03 1.703e-10
 77.61464     17.1 8.427e+03 1.707e-10
 77.64090     17.7 8.459e+03 1.673e-10
 77.68022     18.0 8.461e+03 1.463e-10
 77.71953     18.0 8.433e+03 1.225e-10
 77.75884     17.9 8.425e+03 1.182e-10
 77.79815     18.0 8.437e+03 1.253e-10
 77.83746     18.5 8.530e+03 1.454e-10
 77.87677     18.7 8.911e+03 2.075e-10
 77.90616     18.7 9.062e+03 2.398e-10
 77.92572     16.9 1.022e+04 3.529e-10
 77.94537     11.7 1.213e+04 9.034e-10
 77.95811     10.7 1.278e+04 2.169e-09
 77.96794     10.7 1.273e+04 1.934e-09
 77.98468     11.9 1.287e+04 3.038e-09
 78.00434     13.3 1.281e+04 2.985e-09
 78.02399     14.6 1.251e+04 2.402e-09
 78.04365     14.5 1.219e+04 1.369e-09
 78.06331     12.7 1.207e+04 6.427e-10
 78.08296      8.8 1.124e+04 2.998e-10
 78.10262      5.5 9.986e+03 2.286e-10
 78.12227      5.1 9.848e+03 2.291e-10
 78.13486      4.4 1.005e+04 2.879e-10
 78.14469      5.1 1.009e+04 2.886e-10
 78.16158      5.0 1.015e+04 3.080e-10
 78.18124      4.0 1.043e+04 4.248e-10
 78.20090      4.0 1.059e+04 5.875e-10
 78.22055      3.9 1.078e+04 7.605e-10
 78.24021      2.3 1.204e+04 1.123e-09
 78.25986     -1.5 1.406e+04 1.925e-09
 78.27952     -3.5 1.386e+04 3.036e-09
 78.29917     -2.9 1.330e+04 3.852e-09
 78.31160     -1.1 1.308e+04 3.268e-09
 78.32143     -1.4 1.301e+04 3.194e-09
 78.34841     -1.1 1.272e+04 1.969e-09
 78.37987     -3.2 1.165e+04 5.985e-10
 78.39953     -4.2 1.127e+04 5.704e-10
 78.42713     -7.3 9.954e+03 1.579e-10
 78.46644     -9.3 9.316e+03 9.696e-11
 78.50575     -8.9 9.065e+03 1.070e-10
 78.54507     -8.1 8.930e+03 1.280e-10
 78.58438     -7.1 8.875e+03 1.336e-10
 78.62369     -5.9 8.763e+03 1.167e-10
 78.65547     -4.9 8.627e+03 9.002e-11
 78.67512     -3.9 8.571e+03 9.621e-11
 78.70231     -3.3 8.518e+03 7.083e-11
 78.74162     -3.5 8.672e+03 5.927e-11
 78.78093     -4.6 8.915e+03 7.708e-11
 78.82025     -3.8 8.672e+03 1.607e-10
 78.85956     -2.0 8.750e+03 2.208e-10
 78.89887     -0.6 8.833e+03 2.106e-10
 78.93818      0.1 8.860e+03 1.799e-10
 78.97749      0.5 8.923e+03 1.739e-10
 79.00896      0.0 9.194e+03 2.195e-10
 79.02862      1.6 8.967e+03 2.039e-10
 79.05611      0.4 9.639e+03 3.085e-10
 79.09542     -1.1 1.052e+04 6.820e-10
 79.13474     -1.0 1.117e+04 1.246e-09
 79.17405     -1.9 1.143e+04 1.126e-09
 79.21336     -2.9 1.073e+04 7.197e-10
 79.25267     -3.4 9.854e+03 3.768e-10
 79.29198     -3.5 9.326e+03 1.948e-10
 79.33129     -3.9 9.111e+03 1.215e-10
 79.36246     -4.3 9.206e+03 1.167e-10
 79.38211     -2.4 8.819e+03 7.225e-11
 79.40992     -2.7 8.928e+03 7.813e-11
 79.44923     -3.1 9.039e+03 1.284e-10
 79.48854     -2.7 9.273e+03 2.392e-10
 79.52785     -3.1 1.010e+04 3.551e-10
 79.56716     -4.3 1.070e+04 5.320e-10
 79.60647     -4.9 1.078e+04 6.526e-10
 79.64578     -6.3 1.111e+04 4.713e-10
 79.68510     -9.0 1.095e+04 3.452e-10
 79.71595    -11.7 1.070e+04 3.290e-10
 79.73561    -11.6 1.120e+04 4.504e-10
 79.76372    -13.3 1.085e+04 6.088e-10
 79.80303    -13.1 1.108e+04 8.138e-10
 79.84234    -12.5 1.102e+04 8.350e-10
 79.88165    -11.2 1.064e+04 6.228e-10
 79.92096    -10.3 1.032e+04 3.570e-10
 79.96028    -10.2 1.001e+04 2.362e-10
 79.99959     -9.6 9.763e+03 2.044e-10
 80.03890     -8.5 9.607e+03 2.029e-10
 80.06945     -7.1 9.519e+03 1.967e-10
 80.08910     -7.8 9.732e+03 3.157e-10
 80.11752     -6.3 9.665e+03 2.983e-10
 80.15683     -5.0 9.672e+03 2.234e-10
 80.19614     -4.3 9.530e+03 1.683e-10
 80.23545     -3.3 9.384e+03 1.416e-10
 80.27477     -1.9 9.286e+03 1.240e-10
 80.31408      0.0 9.162e+03 1.011e-10
 80.35271      1.8 9.326e+03 6.956e-11
 80.37237      1.9 9.390e+03 6.198e-11
 80.39270      2.7 9.467e+03 4.432e-11
 80.42294      3.7 9.200e+03 4.009e-11
 80.44260      3.6 9.254e+03 5.454e-11
 80.47132      5.0 9.111e+03 5.205e-11
 80.51063      6.7 9.121e+03 5.165e-11
 80.54995      8.0 9.186e+03 5.522e-11
 80.58926      9.4 9.190e+03 6.646e-11
 80.62857     11.0 9.173e+03 8.574e-11
 80.66788     13.0 9.163e+03 1.069e-10
 80.70719     15.0 9.294e+03 1.191e-10
 80.74650     16.8 9.386e+03 1.176e-10
 80.77644     18.2 9.510e+03 1.101e-10
 80.79609     17.5 9.639e+03 1.178e-10
 80.82513     18.4 9.812e+03 1.248e-10
 80.86444     19.0 9.965e+03 1.460e-10
 80.90375     19.6 1.003e+04 1.744e-10
 80.94306     20.0 9.927e+03 2.019e-10
 80.98237     20.3 9.681e+03 2.110e-10
 81.02168     20.9 9.370e+03 1.998e-10
 81.06099     21.7 9.144e+03 1.639e-10
 81.10030     22.4 9.017e+03 1.280e-10
 81.12993     23.1 8.959e+03 1.021e-10
 81.14959     21.7 8.943e+03 9.281e-11
 81.17893     22.6 8.721e+03 8.375e-11
 81.21824     23.7 8.573e+03 8.345e-11
 81.25755     24.8 8.555e+03 8.633e-11
 81.29686     25.9 8.508e+03 1.001e-10
 81.33617     27.3 8.514e+03 1.220e-10
 81.37548     28.9 8.528e+03 1.278e-10
 81.41480     30.7 8.502e+03 1.220e-10
 81.45411     32.6 8.431e+03 1.002e-10
 81.48343     34.2 8.467e+03 7.258e-11
 81.50308     33.5 8.276e+03 8.019e-11
 81.53273     34.9 8.219e+03 6.962e-11
 81.57204     36.4 8.193e+03 6.479e-11
 81.61135     38.2 8.209e+03 6.198e-11
 81.65066     40.0 8.283e+03 5.881e-11
 81.68998     41.8 8.406e+03 5.602e-11
 81.72929     43.5 8.474e+03 5.608e-11
 81.76860     45.0 8.593e+03 5.866e-11
 81.80791     46.4 8.717e+03 6.604e-11
 81.83692     47.8 8.818e+03 8.488e-11
 81.85658     47.5 8.838e+03 1.004e-10
 81.88653     48.9 8.996e+03 1.418e-10
 81.92584     50.3 9.233e+03 2.107e-10
 81.96516     51.7 9.589e+03 3.172e-10
 82.00447     53.1 9.960e+03 4.520e-10
 82.04378     54.5 1.026e+04 5.695e-10
 82.08309     55.6 1.036e+04 5.867e-10
 82.12240     56.6 1.034e+04 5.734e-10
 82.16171     57.7 1.027e+04 5.504e-10
 82.19042     58.9 1.027e+04 5.546e-10
 82.21007     58.4 1.016e+04 5.316e-10
 82.24033     59.8 1.019e+04 5.577e-10
 82.27965     61.3 1.035e+04 6.209e-10
 82.31896     62.9 1.057e+04 6.907e-10
 82.34521     64.4 1.075e+04 7.063e-10
 82.35494     64.2 1.067e+04 6.998e-10
 82.36697     64.9 1.079e+04 7.701e-10
 82.37680     64.8 1.050e+04 5.645e-10
 82.38756     65.4 1.050e+04 5.573e-10
 82.40721     66.1 1.050e+04 5.534e-10
 82.42687     66.8 1.052e+04 5.568e-10
 82.44652     67.5 1.058e+04 5.607e-10
 82.46618     68.2 1.067e+04 5.694e-10
 82.48584     68.8 1.078e+04 5.918e-10
 82.50549     69.5 1.090e+04 6.261e-10
 82.52515     70.5 1.101e+04 6.683e-10
 82.54372     71.2 1.122e+04 7.398e-10
 82.55354     70.1 1.090e+04 7.086e-10
 82.56446     69.5 1.147e+04 9.413e-10
 82.58411     66.9 1.359e+04 1.730e-09
 82.59881     64.5 1.548e+04 2.567e-09
 82.60859     60.2 1.817e+04 4.646e-09
 82.61841     55.6 1.955e+04 9.675e-09
 82.62824     54.1 1.993e+04 1.873e-08
 82.63691     54.3 2.033e+04 3.062e-08
 82.64182     54.1 2.039e+04 1.954e-08
 82.64790     53.6 2.137e+04 2.131e-08
 82.65773     52.3 2.155e+04 1.949e-08
 82.66755     51.3 2.155e+04 1.663e-08
 82.67738     49.9 2.163e+04 1.190e-08
 82.68721     48.6 2.161e+04 8.287e-09
 82.70200     44.8 2.097e+04 3.601e-09
 82.72046     34.2 1.443e+04 1.029e-09
 82.73029     33.9 1.258e+04 1.303e-09
 82.74136     31.9 1.165e+04 1.004e-09
 82.76102     31.8 1.163e+04 9.918e-10
 82.78067     31.2 1.172e+04 1.062e-09
 82.80033     30.9 1.184e+04 1.078e-09
 82.81998     29.5 1.252e+04 1.303e-09
 82.83964     28.9 1.276e+04 1.329e-09
 82.85929     28.3 1.314e+04 1.286e-09
 82.87895     27.2 1.362e+04 1.264e-09
 82.89721     25.4 1.379e+04 1.221e-09
 82.90704     26.5 1.882e+04 3.095e-09
 82.91826     24.6 1.877e+04 2.441e-09
 82.93792     22.3 1.658e+04 2.336e-09
 82.95757     20.5 1.432e+04 2.193e-09
 82.97723     19.4 1.269e+04 2.014e-09
 82.99688     19.1 1.229e+04 1.888e-09
 83.01654     19.7 1.194e+04 1.694e-09
 83.03619     20.5 1.183e+04 1.464e-09
 83.05585     20.4 1.184e+04 1.187e-09
 83.07396     19.7 1.186e+04 9.338e-10
 83.08379     17.2 1.501e+04 1.415e-09
 83.09516     15.4 1.447e+04 1.557e-09
 83.11482     15.3 1.368e+04 1.649e-09
 83.13447     16.0 1.305e+04 1.742e-09
 83.15413     16.8 1.278e+04 1.935e-09
 83.17378     17.5 1.276e+04 2.244e-09
 83.19344     18.8 1.283e+04 2.622e-09
 83.21310     20.4 1.300e+04 2.925e-09
 83.23275     21.8 1.321e+04 3.115e-09
 83.25071     23.1 1.340e+04 3.118e-09
 83.26053     23.2 1.393e+04 3.919e-09
 83.27206     24.4 1.408e+04 3.680e-09
 83.29172     25.4 1.435e+04 3.529e-09
 83.31137     25.8 1.479e+04 3.716e-09
 83.33103     21.5 1.891e+04 6.005e-09
 83.34122     15.3 2.240e+04 1.076e-08
 83.34430     15.2 2.203e+04 1.272e-08
 83.34881     11.4 2.301e+04 2.053e-08
 83.35550     10.8 2.211e+04 3.764e-08
 83.36533     11.5 2.033e+04 6.790e-08
 83.37516     13.7 1.982e+04 1.010e-07
 83.38499     16.3 2.030e+04 1.253e-07
 83.39481     18.0 2.072e+04 1.135e-07
 83.40464     19.5 2.135e+04 8.092e-08
 83.41447     19.4 2.242e+04 4.665e-08
 83.42430     17.5 2.322e+04 2.152e-08
 83.43227     15.4 2.289e+04 1.362e-08
 83.43718     15.5 2.358e+04 1.184e-08
 83.44892      6.2 1.862e+04 4.062e-09
 83.46862      0.2 1.334e+04 2.944e-09
 83.48828      0.3 1.323e+04 2.995e-09
 83.50793      1.2 1.310e+04 3.118e-09
 83.52759      2.1 1.302e+04 3.115e-09
 83.54724      3.1 1.297e+04 2.956e-09
 83.56690      3.4 1.292e+04 2.628e-09
 83.58655      2.6 1.326e+04 2.496e-09
 83.60420      0.0 1.463e+04 2.773e-09
 83.61403     -1.2 1.292e+04 1.807e-09
 83.62587     -4.8 1.428e+04 2.137e-09
 83.64552     -7.7 1.402e+04 2.741e-09
 83.66518     -9.6 1.381e+04 3.374e-09
 83.68483    -13.6 1.572e+04 4.761e-09
 83.70449    -19.3 1.847e+04 7.603e-09
 83.71918    -24.9 1.892e+04 9.752e-09
 83.72896    -26.9 1.882e+04 1.149e-08
 83.73879    -29.1 1.830e+04 1.215e-08
 83.74862    -29.9 1.757e+04 1.177e-08
 83.75844    -30.5 1.666e+04 1.010e-08
 83.76827    -30.8 1.629e+04 8.312e-09
 83.78090    -32.3 1.579e+04 6.275e-09
 83.79078    -33.3 1.578e+04 6.134e-09
 83.80277    -37.4 1.519e+04 3.151e-09
 83.82242    -43.7 1.439e+04 2.101e-09
 83.84208    -47.7 1.408e+04 1.961e-09
 83.86173    -50.0 1.415e+04 2.358e-09
 83.88139    -51.2 1.438e+04 3.126e-09
 83.90104    -51.7 1.458e+04 3.738e-09
 83.92070    -51.8 1.463e+04 3.954e-09
 83.94036    -51.8 1.454e+04 3.804e-09
 83.95770    -51.5 1.412e+04 3.083e-09
 83.96752    -50.7 1.331e+04 2.003e-09
 83.97967    -50.8 1.264e+04 1.511e-09
 83.99932    -50.8 1.195e+04 1.097e-09
 84.01898    -50.4 1.136e+04 8.008e-10
 84.03863    -49.8 1.096e+04 5.859e-10
 84.05829    -49.1 1.071e+04 4.422e-10
 84.07795    -48.6 1.060e+04 3.643e-10
 84.09760    -48.0 1.051e+04 3.393e-10
 84.12718    -46.5 1.048e+04 3.282e-10
 84.16659    -44.8 1.046e+04 3.445e-10
 84.20590    -42.8 1.045e+04 3.680e-10
 84.24521    -40.8 1.039e+04 3.890e-10
 84.28453    -38.9 1.028e+04 4.083e-10
 84.31139    -37.1 1.014e+04 4.375e-10
 84.32526    -36.8 1.001e+04 3.979e-10
 84.33771    -37.4 9.918e+03 3.315e-10
 84.36315    -35.8 9.861e+03 3.979e-10
 84.40246    -34.2 9.965e+03 5.075e-10
 84.44177    -32.6 1.015e+04 6.660e-10
 84.48108    -31.2 1.043e+04 8.462e-10
 84.52039    -30.1 1.075e+04 1.033e-09
 84.54978    -29.5 1.092e+04 1.257e-09
 84.56934    -29.2 1.104e+04 1.334e-09
 84.58899    -29.1 1.134e+04 1.476e-09
 84.60865    -29.7 1.165e+04 1.646e-09
 84.62831    -30.5 1.216e+04 1.966e-09
 84.64796    -31.6 1.268e+04 2.396e-09
 84.66469    -32.4 1.305e+04 2.815e-09
 84.67451    -33.6 1.235e+04 2.221e-09
 84.68727    -34.2 1.233e+04 2.199e-09
 84.70693    -35.1 1.208e+04 1.883e-09
 84.72658    -36.9 1.167e+04 1.459e-09
 84.74624    -39.2 1.122e+04 1.127e-09
 84.76590    -42.3 1.029e+04 8.762e-10
 84.78555    -45.6 9.743e+03 7.635e-10
 84.80521    -48.1 9.817e+03 7.650e-10
 84.82486    -49.6 1.013e+04 9.140e-10
 84.84143    -49.9 1.038e+04 1.093e-09
 84.85126    -49.2 1.018e+04 9.663e-10
 84.86417    -49.3 1.042e+04 1.125e-09
 84.88383    -49.0 1.051e+04 1.199e-09
 84.90348    -48.6 1.048e+04 1.200e-09
 84.92314    -48.0 1.021e+04 1.056e-09
 84.94280    -47.6 9.836e+03 8.569e-10
 84.96245    -47.4 9.376e+03 6.376e-10
 84.99203    -47.9 8.669e+03 4.022e-10
 85.01838    -48.0 8.167e+03 3.007e-10
 85.03803    -47.7 8.377e+03 3.327e-10
 85.07075    -47.3 7.937e+03 2.560e-10
 85.11006    -46.4 7.711e+03 2.205e-10
 85.14938    -45.2 7.636e+03 2.099e-10
 85.18869    -43.8 7.653e+03 2.111e-10
 85.22800    -42.5 7.816e+03 2.279e-10
 85.26731    -41.6 8.145e+03 2.736e-10
 85.30662    -40.9 8.592e+03 3.681e-10
 85.34593    -40.0 9.061e+03 5.133e-10
 85.37177    -38.9 9.175e+03 5.706e-10
 85.39143    -38.9 9.131e+03 5.163e-10
 85.41463    -37.7 9.248e+03 5.480e-10
 85.43419    -37.3 9.305e+03 5.478e-10
 85.45384    -37.0 9.421e+03 5.544e-10
 85.47350    -37.0 9.522e+03 5.548e-10
 85.49316    -37.0 9.742e+03 5.926e-10
 85.51281    -37.0 9.979e+03 6.490e-10
 85.54239    -37.2 1.036e+04 7.760e-10
 85.57188    -37.1 1.053e+04 8.116e-10
 85.59143    -37.2 1.066e+04 8.493e-10
 85.61109    -37.7 1.091e+04 9.407e-10
 85.63075    -37.9 1.114e+04 1.014e-09
 85.65040    -38.1 1.127e+04 1.080e-09
 85.67006    -38.1 1.131e+04 1.114e-09
 85.68971    -37.9 1.125e+04 1.118e-09
 85.70937    -37.5 1.119e+04 1.082e-09
 85.72527    -37.3 1.119e+04 9.894e-10
 85.74502    -36.9 1.101e+04 9.231e-10
 85.77836    -36.3 1.067e+04 7.382e-10
 85.81767    -35.1 1.020e+04 5.226e-10
 85.85698    -34.0 9.738e+03 3.430e-10
 85.89629    -32.8 9.345e+03 2.182e-10
 85.93560    -31.6 9.109e+03 1.483e-10
 85.97492    -30.5 8.941e+03 1.198e-10
 86.01423    -29.3 8.853e+03 1.143e-10
 86.05354    -27.9 8.833e+03 1.201e-10
 86.07886    -26.6 8.869e+03 1.276e-10
 86.09852    -27.2 9.161e+03 1.523e-10
 86.13216    -26.0 9.308e+03 1.787e-10
 86.17147    -24.8 9.463e+03 1.971e-10
 86.21078    -23.7 9.482e+03 2.054e-10
 86.25009    -22.4 9.362e+03 1.944e-10
 86.28941    -21.0 9.224e+03 1.726e-10
 86.31055    -19.3 9.071e+03 1.455e-10
 86.33021    -18.8 9.094e+03 1.581e-10
 86.36803    -16.9 8.990e+03 1.165e-10
 86.40734    -15.1 9.005e+03 8.396e-11
 86.43236    -13.2 8.863e+03 6.903e-11
 86.45201    -13.8 9.107e+03 8.862e-11
 86.48596    -12.0 9.044e+03 8.293e-11
 86.52527     -9.7 8.962e+03 8.543e-11
 86.56459     -7.5 9.005e+03 9.246e-11
 86.60390     -5.1 9.057e+03 9.717e-11
 86.64321     -3.0 9.174e+03 1.043e-10
 86.68252     -1.2 9.321e+03 1.221e-10
 86.72183      0.7 9.385e+03 1.602e-10
 86.76114      2.8 9.464e+03 2.093e-10
 86.78585      5.0 9.631e+03 2.494e-10
 86.80551      4.5 9.931e+03 3.202e-10
 86.83977      6.0 1.026e+04 3.985e-10
 86.87908      7.2 1.052e+04 5.111e-10
 86.91839      8.7 1.066e+04 6.085e-10
 86.95770     10.4 1.063e+04 6.055e-10
 86.99701     12.4 1.051e+04 5.357e-10
 87.03632     14.5 1.040e+04 4.319e-10
 87.07563     16.3 1.034e+04 3.479e-10
 87.11494     18.1 1.025e+04 3.036e-10
 87.13935     20.3 1.019e+04 2.999e-10
 87.15900     20.2 1.015e+04 3.016e-10
 87.19357     22.5 1.011e+04 3.021e-10
 87.23288     25.1 1.010e+04 3.061e-10
 87.27219     27.7 1.016e+04 3.029e-10
 87.31150     30.3 1.022e+04 2.960e-10
 87.35081     32.8 1.032e+04 2.863e-10
 87.39012     35.1 1.045e+04 2.850e-10
 87.42944     37.3 1.058e+04 2.966e-10
 87.46875     39.6 1.070e+04 3.132e-10
 87.49284     41.7 1.078e+04 3.160e-10
 87.51250     41.8 1.096e+04 4.154e-10
 87.54737     43.9 1.100e+04 4.102e-10
 87.58668     46.0 1.101e+04 3.715e-10
 87.62599     47.9 1.100e+04 3.018e-10
 87.66530     49.6 1.097e+04 2.420e-10
 87.70462     51.2 1.088e+04 2.247e-10
 87.74393     52.8 1.087e+04 2.279e-10
 87.78324     54.4 1.089e+04 2.530e-10
 87.82255     56.1 1.099e+04 3.063e-10
 87.84634     57.7 1.114e+04 3.667e-10
 87.86599     57.6 1.136e+04 4.850e-10
 87.90117     59.1 1.148e+04 5.327e-10
 87.94048     60.5 1.153e+04 5.519e-10
 87.97980     61.5 1.154e+04 5.480e-10
 88.01911     62.4 1.153e+04 5.337e-10
 88.05842     63.2 1.143e+04 5.121e-10
 88.09773     63.9 1.128e+04 4.771e-10
 88.13704     64.7 1.106e+04 4.198e-10
 88.17635     65.5 1.078e+04 3.509e-10
 88.19983     66.7 1.053e+04 2.854e-10
 88.21949     66.6 1.042e+04 2.141e-10
 88.25497     68.0 1.009e+04 1.822e-10
 88.28339     69.7 9.961e+03 1.820e-10
 88.30305     69.4 1.007e+04 2.158e-10
 88.33360     71.5 1.001e+04 2.266e-10
 88.37291     73.7 9.972e+03 2.564e-10
 88.41222     75.9 9.978e+03 2.949e-10
 88.45153     78.2 9.977e+03 3.223e-10
 88.49084     80.5 9.964e+03 3.237e-10
 88.53015     82.7 9.928e+03 3.186e-10
 88.55333     85.0 9.844e+03 3.039e-10
 88.57298     85.3 9.583e+03 2.162e-10
 88.60878     87.6 9.506e+03 2.052e-10
 88.64809     90.0 9.438e+03 1.921e-10
 88.68740     92.4 9.394e+03 1.801e-10
 88.72671     94.8 9.414e+03 1.737e-10
 88.76602     97.1 9.442e+03 1.739e-10
 88.80533     99.5 9.515e+03 1.805e-10
 88.84465    101.7 9.611e+03 1.945e-10
 88.88396    103.9 9.741e+03 2.156e-10
 88.90682    106.1 9.926e+03 2.485e-10
 88.92648    105.9 9.887e+03 2.373e-10
 88.96258    107.9 1.012e+04 3.004e-10
 89.00189    109.2 1.026e+04 3.714e-10
 89.03128    110.2 1.033e+04 4.822e-10
 89.05083    111.4 1.051e+04 6.365e-10
 89.07049    112.6 1.080e+04 8.043e-10
 89.08337    113.5 1.110e+04 9.309e-10
 89.09320    113.2 1.124e+04 9.576e-10
 89.10980    113.8 1.156e+04 1.028e-09
 89.12946    114.1 1.169e+04 1.029e-09
 89.14911    114.4 1.171e+04 1.002e-09
 89.16877    114.6 1.165e+04 9.192e-10
 89.18842    114.9 1.147e+04 8.158e-10
 89.20808    115.3 1.120e+04 7.100e-10
 89.22774    115.6 1.093e+04 6.235e-10
 89.24739    116.0 1.067e+04 5.605e-10
 89.26012    116.5 1.046e+04 5.191e-10
 89.26995    116.2 1.073e+04 6.224e-10
 89.27944    116.7 1.063e+04 5.839e-10
 89.28927    117.5 1.091e+04 7.476e-10
 89.30636    118.1 1.087e+04 7.393e-10
 89.32601    118.7 1.088e+04 7.414e-10
 89.34567    119.3 1.097e+04 7.559e-10
 89.36533    119.8 1.121e+04 7.976e-10
 89.38498    119.9 1.158e+04 8.730e-10
 89.40464    119.7 1.200e+04 9.919e-10
 89.42429    119.4 1.238e+04 1.167e-09
 89.43687    119.2 1.267e+04 1.405e-09
 89.44670    118.3 1.312e+04 1.871e-09
 89.46360    118.2 1.321e+04 2.196e-09
 89.48326    118.3 1.322e+04 2.393e-09
 89.50292    118.4 1.318e+04 2.396e-09
 89.52257    118.6 1.303e+04 2.337e-09
 89.54223    118.7 1.280e+04 2.167e-09
 89.56188    118.9 1.255e+04 1.955e-09
 89.58154    118.9 1.228e+04 1.755e-09
 89.60119    118.8 1.202e+04 1.598e-09
 89.61362    118.6 1.180e+04 1.485e-09
 89.62344    117.8 1.152e+04 1.349e-09
 89.64051    117.8 1.132e+04 1.264e-09
 89.66016    117.8 1.113e+04 1.206e-09
 89.67982    117.9 1.106e+04 1.202e-09
 89.69947    118.0 1.107e+04 1.211e-09
 89.71913    117.9 1.110e+04 1.253e-09
 89.73878    117.6 1.124e+04 1.369e-09
 89.75844    117.1 1.156e+04 1.610e-09
 89.77809    116.1 1.213e+04 2.040e-09
 89.79036    114.6 1.296e+04 2.786e-09
 89.80019    115.1 1.266e+04 2.642e-09
 89.81741    113.5 1.385e+04 3.929e-09
 89.83706    111.4 1.514e+04 5.649e-09
 89.85672    108.9 1.605e+04 6.401e-09
 89.87637    105.7 1.611e+04 6.178e-09
 89.89603    102.6 1.578e+04 4.944e-09
 89.91568     99.5 1.468e+04 3.077e-09
 89.93534     96.6 1.304e+04 1.700e-09
 89.95500     94.0 1.149e+04 9.982e-10
 89.96711     93.1 1.085e+04 7.098e-10
 89.98687     94.6 1.125e+04 8.362e-10
 90.02399     94.3 1.050e+04 4.849e-10
 90.06330     94.7 1.029e+04 3.778e-10
 90.10261     96.0 1.014e+04 3.294e-10
 90.14192     97.8 1.015e+04 3.321e-10
 90.18123     99.5 1.022e+04 3.467e-10
 90.21062    100.2 1.028e+04 3.737e-10
 90.23018    100.8 1.032e+04 4.039e-10
 90.24983    101.3 1.035e+04 4.412e-10
 90.26586    101.8 1.038e+04 4.861e-10
 90.27569    102.1 1.065e+04 5.831e-10
 90.28914    102.5 1.065e+04 6.202e-10
 90.30880    102.8 1.060e+04 6.419e-10
 90.32061    103.3 1.054e+04 6.340e-10
 90.33043    103.6 1.056e+04 6.521e-10
 90.34811    104.0 1.041e+04 6.058e-10
 90.37769    104.9 1.022e+04 4.988e-10
 90.41710    105.9 9.795e+03 3.583e-10
 90.45641    107.1 9.409e+03 2.585e-10
 90.49572    108.2 9.122e+03 1.987e-10
 90.53503    109.4 8.948e+03 1.672e-10
 90.57435    110.5 8.847e+03 1.501e-10
 90.61366    111.6 8.779e+03 1.375e-10
 90.65297    112.7 8.707e+03 1.252e-10
 90.67430    113.8 8.612e+03 1.132e-10
 90.69395    113.8 8.606e+03 1.130e-10
 90.73159    115.0 8.492e+03 1.023e-10
 90.77090    116.2 8.383e+03 9.711e-11
 90.81021    117.5 8.366e+03 9.767e-11
 90.84953    119.0 8.351e+03 1.020e-10
 90.88884    120.7 8.426e+03 1.180e-10
 90.92815    122.5 8.786e+03 1.512e-10
 90.96746    122.8 9.131e+03 1.896e-10
 90.99685    122.1 9.554e+03 2.321e-10
 91.01640    119.8 1.058e+04 3.990e-10
 91.02760    117.2 1.186e+04 9.559e-10
 91.03742    116.4 1.221e+04 1.223e-09
 91.05571    116.2 1.314e+04 2.629e-09
 91.07537    116.3 1.375e+04 3.927e-09
 91.09503    116.0 1.386e+04 4.006e-09
 91.11468    115.2 1.374e+04 3.477e-09
 91.13434    114.1 1.326e+04 2.209e-09
 91.16392    110.9 1.216e+04 8.407e-10
 91.19340    107.4 1.119e+04 6.076e-10
 91.20434    104.8 1.050e+04 5.503e-10
 91.21417    104.7 1.025e+04 5.039e-10
 91.23262    103.2 1.021e+04 5.151e-10
 91.25227    102.4 1.033e+04 5.933e-10
 91.27193    102.1 1.044e+04 6.535e-10
 91.29158    101.9 1.085e+04 9.010e-10
 91.31124    102.0 1.129e+04 1.222e-09
 91.33089    102.1 1.174e+04 1.524e-09
 91.35055    102.1 1.219e+04 1.719e-09
 91.37021    101.7 1.259e+04 1.811e-09
 91.38109    100.7 1.287e+04 1.859e-09
 91.39092    100.9 1.311e+04 2.193e-09
 91.40952     99.5 1.323e+04 2.248e-09
 91.42917     97.8 1.321e+04 2.328e-09
 91.44883     96.1 1.311e+04 2.420e-09
 91.46848     94.5 1.303e+04 2.403e-09
 91.48814     92.7 1.286e+04 2.304e-09
 91.50780     90.8 1.265e+04 2.108e-09
 91.52745     88.8 1.244e+04 1.920e-09
 91.55703     86.6 1.202e+04 1.598e-09
 91.59644     84.3 1.160e+04 1.306e-09
 91.63575     82.8 1.107e+04 9.662e-10
 91.67506     82.5 1.058e+04 7.289e-10
 91.71438     82.6 1.032e+04 6.096e-10
 91.73478     83.1 1.021e+04 5.568e-10
 91.75444     83.4 1.021e+04 5.452e-10
 91.79300     84.2 1.017e+04 5.155e-10
 91.83231     85.6 1.019e+04 5.005e-10
 91.87162     87.2 1.021e+04 5.026e-10
 91.91093     88.8 1.031e+04 5.182e-10
 91.95024     90.2 1.065e+04 5.991e-10
 91.98955     91.2 1.117e+04 7.840e-10
 92.02887     91.8 1.173e+04 1.062e-09
 92.06818     91.9 1.215e+04 1.298e-09
 92.08828     91.9 1.234e+04 1.357e-09
 92.09801     91.7 1.289e+04 1.934e-09
 92.11712     91.6 1.307e+04 2.041e-09
 92.13678     91.4 1.308e+04 2.064e-09
 92.15643     91.2 1.304e+04 1.990e-09
 92.17609     91.1 1.300e+04 1.920e-09
 92.19574     91.0 1.288e+04 1.733e-09
 92.22533     90.8 1.277e+04 1.537e-09
 92.24873     90.9 1.234e+04 1.068e-09
 92.26838     90.9 1.254e+04 1.177e-09
 92.30405     91.0 1.217e+04 8.582e-10
 92.34336     91.4 1.195e+04 6.800e-10
 92.38267     91.9 1.186e+04 6.180e-10
 92.42198     92.6 1.181e+04 6.185e-10
 92.46129     92.3 1.167e+04 6.708e-10
 92.50060     94.0 1.137e+04 5.369e-10
 92.53991     95.9 1.103e+04 4.003e-10
 92.57923     98.0 1.073e+04 2.938e-10
 92.61854     99.9 1.049e+04 2.280e-10
 92.65785    101.9 1.030e+04 1.956e-10
 92.69716    103.9 1.014e+04 1.803e-10
 92.73647    106.0 1.003e+04 1.701e-10
 92.77561    108.3 9.951e+03 1.584e-10
 92.81492    110.3 9.898e+03 1.410e-10
 92.85441    112.3 9.846e+03 1.257e-10
 92.89372    114.2 9.757e+03 1.165e-10
 92.93303    115.9 9.675e+03 1.154e-10
 92.97234    117.4 9.629e+03 1.184e-10
 93.01165    118.7 9.557e+03 1.321e-10
 93.05096    119.6 9.616e+03 1.589e-10
 93.09027    120.7 9.799e+03 1.973e-10
 93.12911    121.9 1.012e+04 2.495e-10
 93.14876    121.2 1.017e+04 2.446e-10
 93.15897    121.4 1.040e+04 2.770e-10
 93.17853    120.9 1.087e+04 3.119e-10
 93.19818    119.6 1.137e+04 3.884e-10
 93.21784    117.7 1.184e+04 5.482e-10
 93.23495    115.4 1.234e+04 8.646e-10
 93.24478    117.2 1.199e+04 6.396e-10
 93.25715    115.0 1.244e+04 1.031e-09
 93.27681    113.3 1.291e+04 1.578e-09
 93.29646    112.0 1.325e+04 1.911e-09
 93.31549    110.6 1.327e+04 1.887e-09
 93.32531    109.4 1.313e+04 1.645e-09
 93.33577    107.7 1.295e+04 1.240e-09
 93.35543    104.9 1.265e+04 7.189e-10
 93.37509    100.8 1.195e+04 3.769e-10
 93.39474     95.8 1.086e+04 2.646e-10
 93.41440     93.7 1.022e+04 2.570e-10
 93.43405     91.6 1.024e+04 2.816e-10
 93.45371     90.9 1.023e+04 2.984e-10
 93.47336     89.6 1.037e+04 3.753e-10
 93.49223     89.1 1.047e+04 4.367e-10
 93.50216     88.9 1.046e+04 3.780e-10
 93.52270     87.2 1.062e+04 4.047e-10
 93.56201     85.2 1.060e+04 3.643e-10
 93.60132     83.0 1.041e+04 3.039e-10
 93.63071     82.3 1.029e+04 2.949e-10
 93.65027     81.4 1.028e+04 3.151e-10
 93.66898     80.6 1.040e+04 4.008e-10
 93.67881     80.4 1.035e+04 3.952e-10
 93.68958     80.3 1.061e+04 5.372e-10
 93.70923     80.3 1.086e+04 6.636e-10
 93.72889     80.2 1.095e+04 6.867e-10
 93.74854     79.8 1.093e+04 6.766e-10
 93.76820     79.3 1.085e+04 6.499e-10
 93.78785     78.9 1.072e+04 6.046e-10
 93.80751     78.7 1.066e+04 5.852e-10
 93.83600     78.6 1.061e+04 5.582e-10
 93.85575     79.5 1.030e+04 4.627e-10
 93.87650     79.8 1.020e+04 4.277e-10
 93.91581     80.1 1.029e+04 4.316e-10
 93.95512     80.6 1.032e+04 4.309e-10
 93.99443     81.2 1.025e+04 4.099e-10
 94.03375     82.1 1.008e+04 3.668e-10
 94.07306     83.0 9.874e+03 3.126e-10
 94.11237     84.0 9.652e+03 2.609e-10
 94.15168     85.0 9.422e+03 2.235e-10
 94.18959     86.1 9.281e+03 2.099e-10
 94.20925     86.1 9.429e+03 2.150e-10
 94.22157     87.2 9.381e+03 2.130e-10
 94.24123     88.1 9.377e+03 2.090e-10
 94.26961     89.1 9.473e+03 2.223e-10
 94.30893     90.0 9.553e+03 2.485e-10
 94.34824     90.9 9.613e+03 2.703e-10
 94.38755     91.6 9.605e+03 2.788e-10
 94.42686     92.3 9.560e+03 2.733e-10
 94.46617     93.1 9.467e+03 2.641e-10
 94.50548     94.0 9.394e+03 2.603e-10
 94.54309     95.0 9.381e+03 2.668e-10
 94.56274     95.2 9.248e+03 2.308e-10
 94.58411     96.3 9.243e+03 2.347e-10
 94.62342     97.5 9.251e+03 2.437e-10
 94.66273     98.6 9.268e+03 2.534e-10
 94.70204     99.8 9.291e+03 2.598e-10
 94.74135    100.9 9.320e+03 2.647e-10
 94.78066    101.8 9.362e+03 2.621e-10
 94.81997    102.6 9.407e+03 2.579e-10
 94.85929    103.2 9.428e+03 2.575e-10
 94.89658    103.7 9.473e+03 2.629e-10
 94.91624    104.9 9.468e+03 2.629e-10
 94.93791    105.0 9.561e+03 2.916e-10
 94.97722    105.1 9.660e+03 3.443e-10
 95.01653    105.1 9.637e+03 3.884e-10
 95.04592    104.7 9.549e+03 4.117e-10
 95.06547    104.7 9.565e+03 4.276e-10
 95.08296    104.6 9.608e+03 4.342e-10
 95.09279    105.0 9.600e+03 4.290e-10
 95.10479    104.8 9.610e+03 4.302e-10
 95.12444    104.4 9.657e+03 4.389e-10
 95.14410    104.0 9.761e+03 4.670e-10
 95.16375    103.4 9.918e+03 5.148e-10
 95.18341    102.9 1.011e+04 5.771e-10
 95.20306    102.2 1.033e+04 6.519e-10
 95.21762    101.4 1.058e+04 7.414e-10
 95.22745    102.0 1.074e+04 8.090e-10
 95.24238    100.9 1.107e+04 9.443e-10
 95.25971     99.5 1.148e+04 1.149e-09
 95.26954     99.9 1.160e+04 1.267e-09
 95.28169     98.6 1.201e+04 1.566e-09
 95.30134     97.3 1.227e+04 1.765e-09
 95.32100     96.1 1.228e+04 1.767e-09
 95.34065     94.9 1.219e+04 1.663e-09
 95.36031     93.6 1.196e+04 1.352e-09
 95.37997     91.8 1.169e+04 9.999e-10
 95.39962     88.9 1.159e+04 8.647e-10
 95.41928     85.8 1.160e+04 8.772e-10
 95.43646     83.0 1.168e+04 1.010e-09
 95.44628     82.6 1.152e+04 9.896e-10
 95.45859     80.8 1.193e+04 1.406e-09
 95.47824     79.9 1.244e+04 1.924e-09
 95.49790     79.1 1.298e+04 2.357e-09
 95.51756     77.6 1.358e+04 2.657e-09
 95.53721     74.5 1.427e+04 2.975e-09
 95.55687     70.3 1.485e+04 3.586e-09
 95.57652     66.6 1.500e+04 4.446e-09
 95.59618     64.0 1.501e+04 4.796e-09
 95.61320     62.0 1.502e+04 4.641e-09
 95.62303     61.6 1.483e+04 4.183e-09
 95.63549     58.4 1.497e+04 3.342e-09
 95.65515     53.8 1.476e+04 2.375e-09
 95.67480     48.5 1.378e+04 1.655e-09
 95.69446     44.3 1.218e+04 1.308e-09
 95.71411     42.0 1.132e+04 1.087e-09
 95.73377     40.8 1.093e+04 8.878e-10
 95.75342     39.8 1.066e+04 7.014e-10
 95.77308     38.4 1.044e+04 5.511e-10
 95.78995     36.4 1.027e+04 4.148e-10
 95.79978     36.4 1.019e+04 3.807e-10
 95.81239     35.8 1.005e+04 3.553e-10
 95.84197     33.4 9.811e+03 3.036e-10
 95.88138     31.8 9.642e+03 2.731e-10
 95.91077     31.0 9.990e+03 2.872e-10
 95.93032     30.7 1.012e+04 2.936e-10
 95.94998     28.6 1.080e+04 4.187e-10
 95.96670     26.3 1.114e+04 6.794e-10
 95.97653     26.6 1.115e+04 6.951e-10
 95.98929     25.1 1.141e+04 1.046e-09
 96.00895     24.2 1.177e+04 1.407e-09
 96.02860     23.7 1.199e+04 1.604e-09
 96.04826     23.2 1.183e+04 1.513e-09
 96.06791     22.2 1.192e+04 1.363e-09
 96.08757     19.1 1.236e+04 1.414e-09
 96.10723     14.8 1.335e+04 1.480e-09
 96.12688     11.3 1.322e+04 1.714e-09
 96.14345      9.6 1.283e+04 1.703e-09
 96.15327     11.0 1.246e+04 1.426e-09
 96.16619      9.9 1.215e+04 1.358e-09
 96.18585      9.0 1.204e+04 1.221e-09
 96.20404      8.2 1.175e+04 1.041e-09
 96.21387      9.6 1.171e+04 9.977e-10
 96.22516      8.7 1.139e+04 8.532e-10
 96.24482      8.0 1.107e+04 7.631e-10
 96.26447      7.7 1.085e+04 7.526e-10
 96.28413      7.7 1.086e+04 7.736e-10
 96.30378      7.9 1.086e+04 8.158e-10
 96.32019      8.3 1.085e+04 8.765e-10
 96.33002      9.0 1.070e+04 7.081e-10
 96.34309      9.6 1.063e+04 7.298e-10
 96.36275     10.4 1.054e+04 7.190e-10
 96.38241     11.3 1.051e+04 6.826e-10
 96.40206     11.9 1.060e+04 6.428e-10
 96.42172     12.0 1.073e+04 6.129e-10
 96.44137     12.1 1.077e+04 6.077e-10
 96.46103     12.4 1.075e+04 6.195e-10
 96.48068     12.9 1.077e+04 6.509e-10
 96.49694     12.9 1.121e+04 7.478e-10
 96.50677     14.1 1.085e+04 6.975e-10
 96.52000     13.3 1.202e+04 9.340e-10
 96.53965      7.9 1.567e+04 2.323e-09
 96.55931      3.5 1.775e+04 7.946e-09
 96.57896      3.1 1.972e+04 2.011e-08
 96.59018      2.7 2.072e+04 2.996e-08
 96.59505      3.4 2.066e+04 3.077e-08
 96.60343      3.6 2.104e+04 3.634e-08
 96.61326      3.4 2.130e+04 3.496e-08
 96.62309      2.7 2.194e+04 2.896e-08
 96.63292      0.2 2.427e+04 1.743e-08
 96.64275     -2.1 2.505e+04 1.293e-08
 96.65754    -10.1 2.404e+04 5.166e-09
 96.67369    -17.8 1.898e+04 3.098e-09
 96.68352    -12.3 2.266e+04 6.970e-09
 96.69690    -17.6 1.957e+04 4.363e-09
 96.71655    -20.5 1.590e+04 3.387e-09
 96.73621    -21.2 1.438e+04 2.970e-09
 96.75586    -20.5 1.384e+04 2.457e-09
 96.77552    -19.9 1.350e+04 1.776e-09
 96.79517    -19.9 1.291e+04 1.120e-09
 96.82476    -19.3 1.233e+04 7.533e-10
 96.86417    -19.0 1.117e+04 4.068e-10
 96.90348    -17.6 1.077e+04 2.791e-10
 96.94279    -16.0 1.066e+04 2.223e-10
 96.98210    -14.2 1.053e+04 1.920e-10
 97.01755    -12.5 1.046e+04 1.686e-10
 97.03721    -11.8 1.058e+04 1.927e-10
 97.06072    -10.2 1.060e+04 1.670e-10
 97.10003     -8.9 1.062e+04 1.542e-10
 97.13934     -7.5 1.062e+04 1.576e-10
 97.17866     -6.0 1.063e+04 1.813e-10
 97.21797     -4.8 1.083e+04 2.208e-10
 97.25728     -4.4 1.134e+04 3.197e-10
 97.29659     -4.6 1.199e+04 6.142e-10
 97.33590     -4.5 1.254e+04 1.232e-09
 97.37105     -4.0 1.265e+04 1.739e-09
 97.39070     -3.2 1.314e+04 2.230e-09
 97.41452     -2.3 1.282e+04 1.645e-09
 97.45384     -2.7 1.197e+04 6.565e-10
 97.49315     -3.9 1.063e+04 2.823e-10
 97.53246     -3.9 9.960e+03 1.548e-10
 97.57177     -2.9 9.789e+03 9.508e-11
 97.61108     -2.1 9.726e+03 6.824e-11
 97.65039     -1.2 9.570e+03 6.405e-11
 97.68970     -0.3 9.485e+03 7.349e-11
 97.72454      0.9 9.415e+03 8.947e-11
 97.74420      1.5 9.489e+03 1.106e-10
 97.76833      3.1 9.371e+03 1.181e-10
 97.80764      4.7 9.334e+03 1.101e-10
 97.84695      5.6 9.429e+03 9.944e-11
 97.88626      6.0 9.505e+03 1.027e-10
 97.92557      6.3 9.446e+03 1.240e-10
 97.96488      7.2 9.342e+03 1.487e-10
 98.00419      8.2 9.348e+03 1.559e-10
 98.04351      9.1 9.342e+03 1.529e-10
 98.07804      9.9 9.380e+03 1.555e-10
 98.09769     10.3 9.535e+03 1.617e-10
 98.12213     10.1 9.798e+03 1.850e-10
 98.16144      8.9 1.042e+04 3.296e-10
 98.18691      9.2 1.099e+04 6.715e-10
 98.20656      9.4 1.088e+04 6.352e-10
 98.24006      9.7 1.110e+04 7.447e-10
 98.27937     10.1 1.089e+04 5.894e-10
 98.31869      9.5 1.067e+04 3.999e-10
 98.35800      8.8 1.016e+04 2.798e-10
 98.39731      9.0 9.741e+03 2.061e-10
 98.43153      9.4 9.430e+03 1.595e-10
 98.45119      9.8 9.478e+03 1.661e-10
 98.47593     10.6 9.354e+03 1.492e-10
 98.51524     11.4 9.260e+03 1.177e-10
 98.55455     11.9 9.207e+03 9.285e-11
 98.59387     12.3 9.149e+03 8.628e-11
 98.63318     12.8 9.137e+03 9.165e-11
 98.67249     13.5 9.155e+03 1.068e-10
 98.71180     14.1 9.203e+03 1.234e-10
 98.75111     14.6 9.196e+03 1.237e-10
 98.78503     15.0 9.159e+03 1.112e-10
 98.80468     15.6 9.248e+03 1.262e-10
 98.82973     15.3 9.287e+03 1.159e-10
 98.86905     14.2 9.418e+03 1.230e-10
 98.90836     12.9 9.501e+03 1.592e-10
 98.94767     11.9 9.496e+03 1.807e-10
 98.98698      9.9 9.599e+03 1.674e-10
 99.02629      6.0 1.042e+04 1.983e-10
 99.06560      1.9 1.074e+04 3.816e-10
 99.09499      0.7 1.085e+04 6.040e-10
 99.11455     -0.6 1.118e+04 6.440e-10
 99.13420     -2.4 1.148e+04 5.687e-10
 99.14815     -4.7 1.139e+04 5.037e-10
 99.15798     -4.2 1.143e+04 5.094e-10
 99.17313     -6.6 1.103e+04 4.788e-10
 99.18296     -5.3 1.122e+04 5.275e-10
 99.19317     -7.4 1.102e+04 5.103e-10
 99.21282     -9.8 1.131e+04 5.572e-10
 99.23248    -13.3 1.207e+04 7.400e-10
 99.25214    -16.3 1.229e+04 1.070e-09
 99.27179    -17.7 1.188e+04 1.395e-09
 99.29145    -17.2 1.208e+04 1.621e-09
 99.31110    -17.0 1.207e+04 1.456e-09
 99.32490    -17.9 1.195e+04 8.395e-10
 99.33473    -18.0 1.184e+04 7.832e-10
 99.35041    -21.8 1.134e+04 4.367e-10
 99.37007    -25.0 1.055e+04 3.281e-10
 99.38973    -26.4 1.027e+04 2.995e-10
 99.41931    -26.8 1.032e+04 2.988e-10
 99.45872    -29.2 1.054e+04 3.583e-10
 99.49202    -31.2 1.089e+04 4.977e-10
 99.51167    -30.8 1.088e+04 5.033e-10
 99.52741    -32.3 1.106e+04 6.492e-10
 99.54697    -33.9 1.099e+04 6.804e-10
 99.56663    -35.0 1.096e+04 6.915e-10
 99.58628    -36.4 1.070e+04 6.362e-10
 99.61586    -37.4 1.043e+04 5.302e-10
 99.65527    -39.5 1.007e+04 3.709e-10
 99.69458    -43.2 9.437e+03 2.456e-10
 99.73390    -45.6 9.194e+03 2.200e-10
 99.77321    -47.0 9.141e+03 2.184e-10
 99.81252    -48.4 9.244e+03 2.410e-10
 99.84551    -49.8 9.606e+03 3.225e-10
 99.86517    -49.1 9.418e+03 2.825e-10
 99.89114    -50.3 9.962e+03 4.352e-10
 99.92053    -50.5 1.047e+04 6.218e-10
 99.94008    -51.1 1.058e+04 6.851e-10
 99.95974    -52.4 1.108e+04 9.272e-10
 99.97940    -54.0 1.164e+04 1.168e-09
 99.99905    -55.4 1.222e+04 1.534e-09
